节点500_425_QEPB04081__246__15-52-23-984.txt的数据

Date: Wed Nov 12 15:52:23 CST 2025
User: PC
Spectrometer: QEPB0408
触发模式: 0
积分时间 (秒): 1.000000E-2
Scans to average: 1
启用暗噪声校正: true
启用非线性校正: false
滑动平均宽度: 0
X轴模式: Wavelengths
Number of Pixels in Spectrum: 1044
>>>>>Begin Spectral Data<<<<<
220.843	2.25
221.644	2.25
222.444	2.25
223.244	1.25
224.045	1.25
224.845	3.25
225.645	2.25
226.445	2.25
227.245	3.25
228.045	2.25
228.845	4.25
229.645	4.25
230.444	2.25
231.244	4.25
232.043	6.25
232.843	3.25
233.642	3.25
234.442	6.25
235.241	5.25
236.04	7.25
236.839	7.25
237.638	6.25
238.437	5.25
239.236	6.25
240.035	9.25
240.833	6.25
241.632	6.25
242.43	7.25
243.229	3.25
244.027	6.25
244.826	9.25
245.624	7.25
246.422	8.25
247.22	9.25
248.018	9.25
248.816	7.25
249.614	10.25
250.412	9.25
251.21	9.25
252.007	9.25
252.805	10.25
253.602	11.25
254.4	12.25
255.197	10.25
255.994	12.25
256.791	8.25
257.589	10.25
258.386	11.25
259.183	11.25
259.979	13.25
260.776	11.25
261.573	14.25
262.37	15.25
263.166	15.25
263.963	15.25
264.759	14.25
265.556	16.25
266.352	17.25
267.148	20.25
267.944	18.25
268.74	19.25
269.536	19.25
270.332	17.25
271.128	22.25
271.924	20.25
272.719	19.25
273.515	20.25
274.311	24.25
275.106	19.25
275.901	24.25
276.697	25.25
277.492	24.25
278.287	25.25
279.082	23.25
279.877	25.25
280.672	24.25
281.467	24.25
282.262	26.25
283.056	23.25
283.851	21.25
284.646	23.25
285.44	24.25
286.234	25.25
287.029	24.25
287.823	22.25
288.617	26.25
289.411	21.25
290.205	24.25
290.999	24.25
291.793	21.25
292.587	26.25
293.381	20.25
294.174	20.25
294.968	22.25
295.761	20.25
296.555	17.25
297.348	20.25
298.141	21.25
298.935	18.25
299.728	16.25
300.521	21.25
301.314	17.25
302.107	18.25
302.899	16.25
303.692	17.25
304.485	13.25
305.277	17.25
306.07	14.25
306.862	16.25
307.655	15.25
308.447	14.25
309.239	14.25
310.031	11.25
310.823	13.25
311.615	13.25
312.407	14.25
313.199	10.25
313.991	11.25
314.783	12.25
315.574	12.25
316.366	9.25
317.157	10.25
317.949	12.25
318.74	9.25
319.531	10.25
320.322	9.25
321.113	11.25
321.904	9.25
322.695	4.25
323.486	8.25
324.277	10.25
325.068	9.25
325.858	7.25
326.649	7.25
327.439	6.25
328.23	9.25
329.02	10.25
329.81	7.25
330.6	8.25
331.391	8.25
332.181	6.25
332.971	5.25
333.76	9.25
334.55	8.25
335.34	7.25
336.13	7.25
336.919	5.25
337.709	7.25
338.498	5.25
339.287	7.25
340.077	10.25
340.866	6.25
341.655	9.25
342.444	7.25
343.233	7.25
344.022	7.25
344.811	8.25
345.6	6.25
346.388	7.25
347.177	7.25
347.965	7.25
348.754	8.25
349.542	6.25
350.33	6.25
351.119	5.25
351.907	6.25
352.695	6.25
353.483	7.25
354.271	7.25
355.059	4.25
355.846	6.25
356.634	4.25
357.422	5.25
358.209	5.25
358.997	8.25
359.784	7.25
360.571	7.25
361.359	7.25
362.146	6.25
362.933	5.25
363.72	6.25
364.507	6.25
365.294	7.25
366.081	7.25
366.867	5.25
367.654	6.25
368.44	5.25
369.227	6.25
370.013	7.25
370.8	5.25
371.586	8.25
372.372	6.25
373.158	9.25
373.944	7.25
374.73	6.25
375.516	5.25
376.302	6.25
377.088	7.25
377.873	5.25
378.659	5.25
379.445	5.25
380.23	7.25
381.015	7.25
381.801	5.25
382.586	7.25
383.371	6.25
384.156	4.25
384.941	7.25
385.726	6.25
386.511	6.25
387.296	9.25
388.08	7.25
388.865	6.25
389.649	6.25
390.434	6.25
391.218	6.25
392.003	8.25
392.787	7.25
393.571	7.25
394.355	7.25
395.139	6.25
395.923	10.25
396.707	7.25
397.491	10.25
398.274	7.25
399.058	9.25
399.842	9.25
400.625	8.25
401.408	8.25
402.192	8.25
402.975	9.25
403.758	10.25
404.541	8.25
405.324	8.25
406.107	10.25
406.89	8.25
407.673	9.25
408.456	10.25
409.238	8.25
410.021	11.25
410.803	10.25
411.586	11.25
412.368	11.25
413.151	11.25
413.933	10.25
414.715	12.25
415.497	10.25
416.279	9.25
417.061	11.25
417.843	12.25
418.624	12.25
419.406	15.25
420.188	12.25
420.969	15.25
421.751	12.25
422.532	13.25
423.313	13.25
424.095	15.25
424.876	13.25
425.657	16.25
426.438	18.25
427.219	15.25
428	19.25
428.78	16.25
429.561	18.25
430.342	17.25
431.122	17.25
431.903	20.25
432.683	20.25
433.464	23.25
434.244	20.25
435.024	23.25
435.804	22.25
436.584	28.25
437.364	29.25
438.144	27.25
438.924	30.25
439.704	30.25
440.483	32.25
441.263	35.25
442.042	38.25
442.822	41.25
443.601	39.25
444.38	41.25
445.16	48.25
445.939	48.25
446.718	53.25
447.497	57.25
448.276	69.25
449.054	66.25
449.833	78.25
450.612	82.25
451.391	86.25
452.169	101.25
452.948	107.25
453.726	120.25
454.504	136.25
455.282	146.25
456.061	163.25
456.839	180.25
457.617	201.25
458.395	223.25
459.172	254.25
459.95	279.25
460.728	307.25
461.506	352.25
462.283	387.25
463.061	440.25
463.838	486.25
464.615	548.25
465.393	617.25
466.17	688.25
466.947	762.25
467.724	841.25
468.501	931.25
469.278	1041.25
470.055	1168.25
470.831	1292.25
471.608	1432.25
472.385	1602.25
473.161	1775.25
473.938	1932.25
474.714	2142.25
475.49	2365.25
476.266	2626.25
477.043	2871.25
477.819	3191.25
478.595	3514.25
479.371	3849.25
480.146	4241.25
480.922	4655.25
481.698	5091.25
482.473	5598.25
483.249	6143.25
484.024	6730.25
484.8	7404.25
485.575	8047.25
486.35	8872.25
487.126	9644.25
487.901	10529.25
488.676	11473.25
489.451	12503.25
490.225	13587.25
491	14722.25
491.775	15976.25
492.55	17231.25
493.324	18537.25
494.099	19911.25
494.873	21312.25
495.647	22702.25
496.422	24146.25
497.196	25655.25
497.97	27185.25
498.744	28612.25
499.518	29915.25
500.292	31117.25
501.066	32305.25
501.839	33417.25
502.613	34308.25
503.387	35010.25
504.16	35434.25
504.934	35751.25
505.707	35668.25
506.48	35491.25
507.253	35243.25
508.027	34752.25
508.8	34183.25
509.573	33405.25
510.346	32519.25
511.118	31612.25
511.891	30543.25
512.664	29407.25
513.437	28161.25
514.209	27056.25
514.982	26086.25
515.754	25005.25
516.526	23906.25
517.298	22851.25
518.071	21880.25
518.843	20989.25
519.615	20119.25
520.387	19312.25
521.159	18608.25
521.93	17913.25
522.702	17158.25
523.474	16439.25
524.245	15783.25
525.017	15094.25
525.788	14426.25
526.56	13736.25
527.331	13145.25
528.102	12510.25
528.873	11894.25
529.644	11352.25
530.415	10728.25
531.186	10280.25
531.957	9736.25
532.728	9191.25
533.498	8698.25
534.269	8198.25
535.039	7762.25
535.81	7349.25
536.58	6948.25
537.351	6534.25
538.121	6199.25
538.891	5831.25
539.661	5536.25
540.431	5241.25
541.201	4962.25
541.971	4710.25
542.741	4475.25
543.51	4235.25
544.28	4031.25
545.05	3827.25
545.819	3674.25
546.588	3486.25
547.358	3307.25
548.127	3102.25
548.896	2962.25
549.665	2817.25
550.434	2678.25
551.203	2521.25
551.972	2396.25
552.741	2261.25
553.51	2136.25
554.278	2005.25
555.047	1908.25
555.815	1794.25
556.584	1705.25
557.352	1607.25
558.121	1501.25
558.889	1421.25
559.657	1343.25
560.425	1263.25
561.193	1207.25
561.961	1136.25
562.729	1085.25
563.496	1027.25
564.264	961.25
565.032	909.25
565.799	875.25
566.567	813.25
567.334	764.25
568.101	729.25
568.869	683.25
569.636	646.25
570.403	610.25
571.17	569.25
571.937	541.25
572.704	511.25
573.471	493.25
574.237	454.25
575.004	427.25
575.771	404.25
576.537	380.25
577.303	359.25
578.07	342.25
578.836	316.25
579.602	302.25
580.368	283.25
581.134	269.25
581.9	251.25
582.666	248.25
583.432	226.25
584.198	222.25
584.964	205.25
585.729	197.25
586.495	189.25
587.26	177.25
588.025	169.25
588.791	163.25
589.556	150.25
590.321	147.25
591.086	138.25
591.851	132.25
592.616	119.25
593.381	117.25
594.146	109.25
594.911	106.25
595.675	104.25
596.44	99.25
597.204	96.25
597.969	85.25
598.733	86.25
599.497	79.25
600.261	78.25
601.025	74.25
601.79	73.25
602.553	63.25
603.317	63.25
604.081	64.25
604.845	59.25
605.609	58.25
606.372	51.25
607.136	52.25
607.899	54.25
608.662	48.25
609.426	48.25
610.189	44.25
610.952	44.25
611.715	41.25
612.478	41.25
613.241	38.25
614.004	36.25
614.767	39.25
615.529	38.25
616.292	33.25
617.055	32.25
617.817	28.25
618.579	26.25
619.342	27.25
620.104	27.25
620.866	25.25
621.628	25.25
622.39	29.25
623.152	26.25
623.914	24.25
624.676	24.25
625.438	21.25
626.199	20.25
626.961	19.25
627.722	22.25
628.484	19.25
629.245	17.25
630.006	20.25
630.768	17.25
631.529	19.25
632.29	17.25
633.051	17.25
633.812	14.25
634.573	13.25
635.333	15.25
636.094	13.25
636.855	13.25
637.615	14.25
638.376	10.25
639.136	13.25
639.896	11.25
640.657	14.25
641.417	11.25
642.177	11.25
642.937	11.25
643.697	9.25
644.457	9.25
645.216	11.25
645.976	10.25
646.736	9.25
647.495	8.25
648.255	10.25
649.014	9.25
649.774	11.25
650.533	9.25
651.292	7.25
652.051	9.25
652.81	8.25
653.569	8.25
654.328	7.25
655.087	5.25
655.846	9.25
656.604	7.25
657.363	6.25
658.121	9.25
658.88	7.25
659.638	6.25
660.397	6.25
661.155	7.25
661.913	7.25
662.671	6.25
663.429	9.25
664.187	7.25
664.945	7.25
665.703	3.25
666.46	8.25
667.218	6.25
667.976	5.25
668.733	5.25
669.49	6.25
670.248	2.25
671.005	5.25
671.762	7.25
672.519	5.25
673.276	5.25
674.033	5.25
674.79	5.25
675.547	4.25
676.304	4.25
677.06	4.25
677.817	3.25
678.574	4.25
679.33	3.25
680.086	5.25
680.843	7.25
681.599	5.25
682.355	5.25
683.111	5.25
683.867	3.25
684.623	6.25
685.379	3.25
686.135	4.25
686.89	5.25
687.646	3.25
688.402	3.25
689.157	4.25
689.912	4.25
690.668	5.25
691.423	4.25
692.178	7.25
692.933	2.25
693.688	6.25
694.443	5.25
695.198	4.25
695.953	6.25
696.708	2.25
697.462	3.25
698.217	4.25
698.972	3.25
699.726	5.25
700.48	5.25
701.235	5.25
701.989	3.25
702.743	2.25
703.497	2.25
704.251	3.25
705.005	6.25
705.759	1.25
706.513	1.25
707.266	4.25
708.02	4.25
708.774	6.25
709.527	5.25
710.28	3.25
711.034	3.25
711.787	3.25
712.54	4.25
713.293	4.25
714.046	3.25
714.799	1.25
715.552	4.25
716.305	0.25
717.058	4.25
717.81	3.25
718.563	3.25
719.315	4.25
720.068	5.25
720.82	4.25
721.573	3.25
722.325	3.25
723.077	3.25
723.829	4.25
724.581	3.25
725.333	2.25
726.085	5.25
726.836	5.25
727.588	4.25
728.34	6.25
729.091	1.25
729.843	5.25
730.594	4.25
731.346	5.25
732.097	4.25
732.848	4.25
733.599	6.25
734.35	3.25
735.101	5.25
735.852	5.25
736.603	5.25
737.354	5.25
738.104	4.25
738.855	6.25
739.605	8.25
740.356	7.25
741.106	4.25
741.856	6.25
742.607	7.25
743.357	6.25
744.107	5.25
744.857	6.25
745.607	8.25
746.357	5.25
747.106	4.25
747.856	7.25
748.606	5.25
749.355	7.25
750.105	7.25
750.854	6.25
751.603	8.25
752.353	7.25
753.102	7.25
753.851	7.25
754.6	7.25
755.349	9.25
756.098	5.25
756.847	8.25
757.595	10.25
758.344	9.25
759.093	7.25
759.841	7.25
760.589	7.25
761.338	5.25
762.086	8.25
762.834	6.25
763.582	7.25
764.331	10.25
765.079	6.25
765.826	9.25
766.574	7.25
767.322	8.25
768.07	10.25
768.817	10.25
769.565	8.25
770.312	9.25
771.06	8.25
771.807	7.25
772.554	10.25
773.302	9.25
774.049	11.25
774.796	8.25
775.543	10.25
776.29	10.25
777.036	11.25
777.783	9.25
778.53	10.25
779.276	11.25
780.023	11.25
780.769	10.25
781.516	11.25
782.262	10.25
783.008	9.25
783.754	11.25
784.5	12.25
785.246	12.25
785.992	9.25
786.738	12.25
787.484	12.25
788.23	10.25
788.975	9.25
789.721	9.25
790.466	10.25
791.212	8.25
791.957	9.25
792.702	13.25
793.447	12.25
794.193	9.25
794.938	9.25
795.683	9.25
796.427	9.25
797.172	10.25
797.917	9.25
798.662	9.25
799.406	9.25
800.151	7.25
800.895	7.25
801.64	9.25
802.384	6.25
803.128	10.25
803.872	5.25
804.616	9.25
805.36	6.25
806.104	8.25
806.848	6.25
807.592	5.25
808.336	7.25
809.079	5.25
809.823	6.25
810.566	6.25
811.31	5.25
812.053	6.25
812.796	6.25
813.539	5.25
814.283	5.25
815.026	5.25
815.769	7.25
816.511	4.25
817.254	6.25
817.997	4.25
818.74	6.25
819.482	6.25
820.225	4.25
820.967	4.25
821.71	5.25
822.452	6.25
823.194	4.25
823.936	5.25
824.678	4.25
825.42	1.25
826.162	4.25
826.904	3.25
827.646	5.25
828.388	3.25
829.129	2.25
829.871	4.25
830.612	3.25
831.354	3.25
832.095	5.25
832.836	3.25
833.577	4.25
834.319	4.25
835.06	4.25
835.801	2.25
836.542	3.25
837.282	5.25
838.023	3.25
838.764	5.25
839.504	5.25
840.245	2.25
840.985	3.25
841.726	1.25
842.466	5.25
843.206	1.25
843.946	4.25
844.687	2.25
845.427	2.25
846.166	4.25
846.906	3.25
847.646	3.25
848.386	2.25
849.125	2.25
849.865	3.25
850.605	0.25
851.344	4.25
852.083	-0.75
852.823	4.25
853.562	2.25
854.301	2.25
855.04	1.25
855.779	1.25
856.518	3.25
857.257	3.25
857.995	1.25
858.734	1.25
859.473	2.25
860.211	3.25
860.95	0.25
861.688	0.25
862.426	2.25
863.165	0.25
863.903	1.25
864.641	1.25
865.379	1.25
866.117	1.25
866.855	2.25
867.593	0.25
868.33	1.25
869.068	1.25
869.806	1.25
870.543	0.25
871.28	1.25
872.018	0.25
872.755	1.25
873.492	-1.75
874.229	2.25
874.967	1.25
875.703	0.25
876.44	1.25
877.177	0.25
877.914	2.25
878.651	2.25
879.387	1.25
880.124	0.25
880.86	-0.75
881.597	2.25
882.333	0.25
883.069	2.25
883.806	-1.75
884.542	-0.75
885.278	1.25
886.014	0.25
886.749	3.25
887.485	0.25
888.221	3.25
888.957	-0.75
889.692	0.25
890.428	1.25
891.163	1.25
891.899	0.25
892.634	-2.75
893.369	2.25
894.104	-0.75
894.839	0.25
895.574	0.25
896.309	-0.75
897.044	1.25
897.779	0.25
898.514	-0.75
899.248	-1.75
899.983	-0.75
900.717	0.25
901.452	-2.75
902.186	-0.75
902.92	1.25
903.654	-1.75
904.389	0.25
905.123	-0.75
905.857	2.25
906.59	-0.75
907.324	-0.75
908.058	-0.75
908.792	-2.75
909.525	0.25
910.259	-0.75
910.992	0.25
911.726	-1.75
912.459	-1.75
913.192	0.25
913.925	-0.75
914.658	-2.75
915.391	2.25
916.124	-0.75
916.857	-0.75
917.59	-0.75
918.323	1.25
919.055	-0.75
919.788	-0.75
920.521	-2.75
921.253	-0.75
921.985	1.25
922.718	-0.75
923.45	-1.75
924.182	0.25
924.914	-0.75
925.646	-1.75
926.378	-0.75
927.11	-0.75
927.841	-2.75
928.573	-0.75
929.305	-3.75
930.036	-1.75
930.768	-1.75
931.499	-1.75
932.23	-0.75
932.962	2.25
933.693	-0.75
934.424	1.25
935.155	-1.75
935.886	-0.75
936.617	0.25
937.348	-0.75
938.078	-0.75
938.809	-0.75
939.54	0.25
940.27	-1.75
941.001	-1.75
941.731	-2.75
942.461	-0.75
943.191	-2.75
943.922	-0.75
944.652	1.25
945.382	-0.75
946.112	0.25
946.841	-0.75
947.571	-1.75
948.301	-1.75
949.031	-0.75
949.76	-0.75
950.49	-0.75
951.219	-0.75
951.948	0.25
952.678	0.25
953.407	-0.75
954.136	-1.75
954.865	1.25
955.594	1.25
956.323	0.25
957.052	-1.75
957.78	-2.75
958.509	-0.75
959.238	1.25
959.966	-0.75
960.695	0.25
961.423	1.25
962.151	-0.75
962.88	1.25
963.608	-2.75
964.336	-0.75
965.064	0.25
965.792	-0.75
966.52	-0.75
967.247	-1.75
967.975	1.25
968.703	1.25
969.43	0.25
970.158	-1.75
970.885	-1.75
971.613	1.25
972.34	0.25
973.067	0.25
973.794	0.25
974.521	-1.75
975.248	-1.75
975.975	-0.75
976.702	-0.75
977.429	-0.75
978.156	-0.75
978.882	-1.75
979.609	-0.75
980.335	-0.75
981.062	0.25
981.788	0.25
982.514	1.25
983.24	-1.75
983.967	-0.75
984.693	-1.75
985.419	-2.75
986.144	0.25
986.87	-0.75
987.596	-0.75
988.322	1.25
989.047	-2.75
989.773	-0.75
990.498	0.25
991.224	-0.75
991.949	-0.75
992.674	-1.75
993.399	-0.75
994.124	-0.75
994.849	-2.75
995.574	0.25
996.299	-1.75
997.024	-2.75
997.749	0.25
998.473	-0.75
999.198	-0.75
999.922	-1.75
1000.647	-0.75
1001.371	3.25
1002.095	-0.75
1002.82	-2.75
1003.544	-0.75
1004.268	1.25
1004.992	1.25
1005.716	-0.75
1006.439	1.25
1007.163	2.25
1007.887	3.25
1008.611	-1.75
1009.334	-1.75
1010.058	-0.75
1010.781	0.25
1011.504	0.25
1012.228	-0.75
1012.951	0.25
1013.674	0.25
1014.397	0.25
1015.12	0.25
