节点500_425_QEPB04081__323__15-53-40-837.txt的数据

Date: Wed Nov 12 15:53:40 CST 2025
User: PC
Spectrometer: QEPB0408
触发模式: 0
积分时间 (秒): 1.000000E-2
Scans to average: 1
启用暗噪声校正: true
启用非线性校正: false
滑动平均宽度: 0
X轴模式: Wavelengths
Number of Pixels in Spectrum: 1044
>>>>>Begin Spectral Data<<<<<
220.843	2.75
221.644	2.75
222.444	3.75
223.244	2.75
224.045	2.75
224.845	2.75
225.645	3.75
226.445	3.75
227.245	5.75
228.045	5.75
228.845	1.75
229.645	3.75
230.444	4.75
231.244	5.75
232.043	3.75
232.843	5.75
233.642	7.75
234.442	6.75
235.241	5.75
236.04	6.75
236.839	4.75
237.638	6.75
238.437	5.75
239.236	5.75
240.035	5.75
240.833	6.75
241.632	5.75
242.43	9.75
243.229	8.75
244.027	7.75
244.826	6.75
245.624	6.75
246.422	6.75
247.22	10.75
248.018	7.75
248.816	7.75
249.614	10.75
250.412	11.75
251.21	11.75
252.007	9.75
252.805	11.75
253.602	10.75
254.4	10.75
255.197	11.75
255.994	9.75
256.791	10.75
257.589	13.75
258.386	13.75
259.183	14.75
259.979	14.75
260.776	15.75
261.573	13.75
262.37	15.75
263.166	16.75
263.963	16.75
264.759	18.75
265.556	15.75
266.352	18.75
267.148	19.75
267.944	16.75
268.74	20.75
269.536	18.75
270.332	21.75
271.128	21.75
271.924	20.75
272.719	21.75
273.515	22.75
274.311	20.75
275.106	23.75
275.901	23.75
276.697	21.75
277.492	24.75
278.287	24.75
279.082	22.75
279.877	27.75
280.672	23.75
281.467	24.75
282.262	26.75
283.056	25.75
283.851	25.75
284.646	23.75
285.44	25.75
286.234	25.75
287.029	22.75
287.823	24.75
288.617	25.75
289.411	24.75
290.205	23.75
290.999	22.75
291.793	23.75
292.587	24.75
293.381	22.75
294.174	23.75
294.968	18.75
295.761	20.75
296.555	19.75
297.348	18.75
298.141	18.75
298.935	23.75
299.728	19.75
300.521	19.75
301.314	16.75
302.107	19.75
302.899	18.75
303.692	16.75
304.485	17.75
305.277	17.75
306.07	18.75
306.862	16.75
307.655	15.75
308.447	13.75
309.239	15.75
310.031	12.75
310.823	14.75
311.615	13.75
312.407	15.75
313.199	12.75
313.991	12.75
314.783	10.75
315.574	13.75
316.366	11.75
317.157	9.75
317.949	14.75
318.74	9.75
319.531	10.75
320.322	9.75
321.113	12.75
321.904	10.75
322.695	10.75
323.486	8.75
324.277	9.75
325.068	10.75
325.858	7.75
326.649	9.75
327.439	9.75
328.23	10.75
329.02	8.75
329.81	7.75
330.6	9.75
331.391	7.75
332.181	7.75
332.971	8.75
333.76	9.75
334.55	9.75
335.34	8.75
336.13	8.75
336.919	10.75
337.709	7.75
338.498	8.75
339.287	9.75
340.077	6.75
340.866	7.75
341.655	7.75
342.444	11.75
343.233	8.75
344.022	7.75
344.811	9.75
345.6	7.75
346.388	6.75
347.177	7.75
347.965	11.75
348.754	6.75
349.542	7.75
350.33	8.75
351.119	8.75
351.907	9.75
352.695	9.75
353.483	9.75
354.271	6.75
355.059	7.75
355.846	9.75
356.634	8.75
357.422	8.75
358.209	6.75
358.997	9.75
359.784	7.75
360.571	7.75
361.359	9.75
362.146	8.75
362.933	8.75
363.72	7.75
364.507	8.75
365.294	3.75
366.081	6.75
366.867	8.75
367.654	7.75
368.44	5.75
369.227	4.75
370.013	6.75
370.8	6.75
371.586	5.75
372.372	8.75
373.158	4.75
373.944	6.75
374.73	7.75
375.516	6.75
376.302	5.75
377.088	6.75
377.873	9.75
378.659	5.75
379.445	3.75
380.23	7.75
381.015	7.75
381.801	7.75
382.586	9.75
383.371	6.75
384.156	6.75
384.941	7.75
385.726	8.75
386.511	6.75
387.296	9.75
388.08	6.75
388.865	7.75
389.649	8.75
390.434	9.75
391.218	8.75
392.003	7.75
392.787	8.75
393.571	5.75
394.355	8.75
395.139	9.75
395.923	8.75
396.707	10.75
397.491	10.75
398.274	8.75
399.058	9.75
399.842	9.75
400.625	8.75
401.408	10.75
402.192	7.75
402.975	9.75
403.758	10.75
404.541	9.75
405.324	9.75
406.107	10.75
406.89	10.75
407.673	9.75
408.456	10.75
409.238	8.75
410.021	11.75
410.803	10.75
411.586	11.75
412.368	12.75
413.151	10.75
413.933	13.75
414.715	10.75
415.497	10.75
416.279	15.75
417.061	12.75
417.843	13.75
418.624	14.75
419.406	14.75
420.188	16.75
420.969	15.75
421.751	13.75
422.532	14.75
423.313	18.75
424.095	16.75
424.876	17.75
425.657	17.75
426.438	18.75
427.219	18.75
428	18.75
428.78	18.75
429.561	17.75
430.342	18.75
431.122	21.75
431.903	23.75
432.683	22.75
433.464	21.75
434.244	26.75
435.024	24.75
435.804	27.75
436.584	28.75
437.364	29.75
438.144	28.75
438.924	33.75
439.704	32.75
440.483	33.75
441.263	35.75
442.042	37.75
442.822	40.75
443.601	40.75
444.38	46.75
445.16	49.75
445.939	53.75
446.718	61.75
447.497	59.75
448.276	65.75
449.054	75.75
449.833	81.75
450.612	86.75
451.391	98.75
452.169	101.75
452.948	115.75
453.726	120.75
454.504	134.75
455.282	153.75
456.061	166.75
456.839	188.75
457.617	206.75
458.395	237.75
459.172	258.75
459.95	288.75
460.728	328.75
461.506	354.75
462.283	406.75
463.061	443.75
463.838	507.75
464.615	558.75
465.393	632.75
466.17	688.75
466.947	769.75
467.724	862.75
468.501	959.75
469.278	1068.75
470.055	1182.75
470.831	1302.75
471.608	1442.75
472.385	1605.75
473.161	1762.75
473.938	1930.75
474.714	2165.75
475.49	2371.75
476.266	2622.75
477.043	2855.75
477.819	3173.75
478.595	3481.75
479.371	3833.75
480.146	4185.75
480.922	4607.75
481.698	5092.75
482.473	5546.75
483.249	6059.75
484.024	6635.75
484.8	7308.75
485.575	7938.75
486.35	8653.75
487.126	9412.75
487.901	10261.75
488.676	11185.75
489.451	12142.75
490.225	13178.75
491	14312.75
491.775	15490.75
492.55	16637.75
493.324	18020.75
494.099	19188.75
494.873	20568.75
495.647	21948.75
496.422	23405.75
497.196	24816.75
497.97	26322.75
498.744	27654.75
499.518	29020.75
500.292	30198.75
501.066	31372.75
501.839	32481.75
502.613	33412.75
503.387	34093.75
504.16	34675.75
504.934	35087.75
505.707	35081.75
506.48	34975.75
507.253	34759.75
508.027	34418.75
508.8	33886.75
509.573	33233.75
510.346	32396.75
511.118	31432.75
511.891	30504.75
512.664	29355.75
513.437	28330.75
514.209	27149.75
514.982	26088.75
515.754	25102.75
516.526	24040.75
517.298	23044.75
518.071	22050.75
518.843	21143.75
519.615	20257.75
520.387	19513.75
521.159	18680.75
521.93	18028.75
522.702	17270.75
523.474	16639.75
524.245	15936.75
525.017	15224.75
525.788	14523.75
526.56	13861.75
527.331	13246.75
528.102	12658.75
528.873	12055.75
529.644	11480.75
530.415	10941.75
531.186	10427.75
531.957	9880.75
532.728	9387.75
533.498	8818.75
534.269	8341.75
535.039	7917.75
535.81	7467.75
536.58	7062.75
537.351	6655.75
538.121	6297.75
538.891	5974.75
539.661	5649.75
540.431	5378.75
541.201	5074.75
541.971	4796.75
542.741	4551.75
543.51	4327.75
544.28	4102.75
545.05	3903.75
545.819	3723.75
546.588	3549.75
547.358	3345.75
548.127	3183.75
548.896	3031.75
549.665	2867.75
550.434	2729.75
551.203	2593.75
551.972	2449.75
552.741	2315.75
553.51	2177.75
554.278	2056.75
555.047	1953.75
555.815	1837.75
556.584	1735.75
557.352	1634.75
558.121	1536.75
558.889	1471.75
559.657	1380.75
560.425	1302.75
561.193	1228.75
561.961	1171.75
562.729	1112.75
563.496	1050.75
564.264	986.75
565.032	925.75
565.799	891.75
566.567	838.75
567.334	782.75
568.101	742.75
568.869	696.75
569.636	663.75
570.403	631.75
571.17	587.75
571.937	557.75
572.704	524.75
573.471	492.75
574.237	464.75
575.004	440.75
575.771	421.75
576.537	390.75
577.303	366.75
578.07	350.75
578.836	327.75
579.602	308.75
580.368	294.75
581.134	280.75
581.9	266.75
582.666	247.75
583.432	235.75
584.198	222.75
584.964	214.75
585.729	193.75
586.495	192.75
587.26	187.75
588.025	168.75
588.791	166.75
589.556	159.75
590.321	151.75
591.086	139.75
591.851	133.75
592.616	129.75
593.381	116.75
594.146	119.75
594.911	103.75
595.675	103.75
596.44	103.75
597.204	93.75
597.969	91.75
598.733	86.75
599.497	82.75
600.261	82.75
601.025	72.75
601.79	73.75
602.553	68.75
603.317	69.75
604.081	64.75
604.845	65.75
605.609	61.75
606.372	54.75
607.136	54.75
607.899	50.75
608.662	49.75
609.426	50.75
610.189	47.75
610.952	46.75
611.715	45.75
612.478	44.75
613.241	37.75
614.004	37.75
614.767	37.75
615.529	33.75
616.292	35.75
617.055	33.75
617.817	34.75
618.579	28.75
619.342	30.75
620.104	30.75
620.866	29.75
621.628	27.75
622.39	24.75
623.152	24.75
623.914	23.75
624.676	20.75
625.438	27.75
626.199	21.75
626.961	23.75
627.722	21.75
628.484	17.75
629.245	20.75
630.006	21.75
630.768	19.75
631.529	18.75
632.29	19.75
633.051	17.75
633.812	17.75
634.573	15.75
635.333	13.75
636.094	15.75
636.855	12.75
637.615	12.75
638.376	12.75
639.136	13.75
639.896	10.75
640.657	14.75
641.417	13.75
642.177	10.75
642.937	12.75
643.697	11.75
644.457	11.75
645.216	13.75
645.976	11.75
646.736	10.75
647.495	10.75
648.255	9.75
649.014	13.75
649.774	11.75
650.533	8.75
651.292	10.75
652.051	9.75
652.81	9.75
653.569	7.75
654.328	10.75
655.087	8.75
655.846	8.75
656.604	8.75
657.363	9.75
658.121	8.75
658.88	10.75
659.638	7.75
660.397	6.75
661.155	8.75
661.913	5.75
662.671	7.75
663.429	7.75
664.187	6.75
664.945	6.75
665.703	8.75
666.46	7.75
667.218	6.75
667.976	7.75
668.733	8.75
669.49	4.75
670.248	6.75
671.005	7.75
671.762	5.75
672.519	8.75
673.276	5.75
674.033	4.75
674.79	9.75
675.547	6.75
676.304	6.75
677.06	6.75
677.817	3.75
678.574	4.75
679.33	3.75
680.086	5.75
680.843	6.75
681.599	6.75
682.355	4.75
683.111	5.75
683.867	4.75
684.623	3.75
685.379	6.75
686.135	4.75
686.89	5.75
687.646	5.75
688.402	3.75
689.157	4.75
689.912	4.75
690.668	6.75
691.423	4.75
692.178	7.75
692.933	7.75
693.688	6.75
694.443	7.75
695.198	4.75
695.953	4.75
696.708	5.75
697.462	7.75
698.217	5.75
698.972	4.75
699.726	7.75
700.48	3.75
701.235	6.75
701.989	5.75
702.743	6.75
703.497	4.75
704.251	5.75
705.005	3.75
705.759	3.75
706.513	5.75
707.266	3.75
708.02	3.75
708.774	4.75
709.527	4.75
710.28	3.75
711.034	5.75
711.787	3.75
712.54	4.75
713.293	5.75
714.046	3.75
714.799	6.75
715.552	5.75
716.305	4.75
717.058	3.75
717.81	7.75
718.563	4.75
719.315	4.75
720.068	6.75
720.82	5.75
721.573	6.75
722.325	5.75
723.077	6.75
723.829	7.75
724.581	4.75
725.333	4.75
726.085	4.75
726.836	5.75
727.588	5.75
728.34	5.75
729.091	5.75
729.843	4.75
730.594	4.75
731.346	5.75
732.097	5.75
732.848	6.75
733.599	6.75
734.35	2.75
735.101	6.75
735.852	6.75
736.603	5.75
737.354	7.75
738.104	8.75
738.855	4.75
739.605	6.75
740.356	4.75
741.106	6.75
741.856	6.75
742.607	6.75
743.357	7.75
744.107	6.75
744.857	8.75
745.607	7.75
746.357	6.75
747.106	7.75
747.856	4.75
748.606	8.75
749.355	6.75
750.105	6.75
750.854	10.75
751.603	8.75
752.353	8.75
753.102	6.75
753.851	7.75
754.6	8.75
755.349	8.75
756.098	8.75
756.847	7.75
757.595	8.75
758.344	7.75
759.093	8.75
759.841	8.75
760.589	7.75
761.338	9.75
762.086	6.75
762.834	9.75
763.582	6.75
764.331	11.75
765.079	10.75
765.826	6.75
766.574	10.75
767.322	11.75
768.07	8.75
768.817	12.75
769.565	8.75
770.312	10.75
771.06	7.75
771.807	13.75
772.554	10.75
773.302	11.75
774.049	8.75
774.796	8.75
775.543	11.75
776.29	8.75
777.036	10.75
777.783	11.75
778.53	12.75
779.276	11.75
780.023	10.75
780.769	10.75
781.516	7.75
782.262	10.75
783.008	11.75
783.754	12.75
784.5	12.75
785.246	11.75
785.992	10.75
786.738	13.75
787.484	10.75
788.23	10.75
788.975	10.75
789.721	8.75
790.466	8.75
791.212	10.75
791.957	9.75
792.702	9.75
793.447	9.75
794.193	11.75
794.938	9.75
795.683	11.75
796.427	9.75
797.172	10.75
797.917	8.75
798.662	10.75
799.406	8.75
800.151	12.75
800.895	9.75
801.64	9.75
802.384	9.75
803.128	10.75
803.872	10.75
804.616	8.75
805.36	8.75
806.104	9.75
806.848	7.75
807.592	8.75
808.336	6.75
809.079	8.75
809.823	7.75
810.566	8.75
811.31	8.75
812.053	5.75
812.796	7.75
813.539	8.75
814.283	9.75
815.026	6.75
815.769	7.75
816.511	5.75
817.254	6.75
817.997	7.75
818.74	7.75
819.482	5.75
820.225	6.75
820.967	6.75
821.71	4.75
822.452	2.75
823.194	3.75
823.936	6.75
824.678	5.75
825.42	6.75
826.162	4.75
826.904	5.75
827.646	6.75
828.388	5.75
829.129	4.75
829.871	3.75
830.612	3.75
831.354	4.75
832.095	6.75
832.836	5.75
833.577	5.75
834.319	5.75
835.06	3.75
835.801	4.75
836.542	4.75
837.282	5.75
838.023	5.75
838.764	3.75
839.504	4.75
840.245	4.75
840.985	4.75
841.726	5.75
842.466	3.75
843.206	5.75
843.946	3.75
844.687	4.75
845.427	3.75
846.166	2.75
846.906	5.75
847.646	4.75
848.386	4.75
849.125	3.75
849.865	3.75
850.605	3.75
851.344	2.75
852.083	4.75
852.823	1.75
853.562	2.75
854.301	0.75
855.04	2.75
855.779	3.75
856.518	4.75
857.257	3.75
857.995	2.75
858.734	3.75
859.473	4.75
860.211	2.75
860.95	2.75
861.688	3.75
862.426	3.75
863.165	5.75
863.903	1.75
864.641	3.75
865.379	1.75
866.117	2.75
866.855	3.75
867.593	3.75
868.33	4.75
869.068	2.75
869.806	2.75
870.543	1.75
871.28	2.75
872.018	1.75
872.755	0.75
873.492	0.75
874.229	1.75
874.967	1.75
875.703	-0.25
876.44	2.75
877.177	1.75
877.914	0.75
878.651	2.75
879.387	-0.25
880.124	0.75
880.86	0.75
881.597	2.75
882.333	3.75
883.069	0.75
883.806	2.75
884.542	1.75
885.278	2.75
886.014	1.75
886.749	0.75
887.485	1.75
888.221	0.75
888.957	3.75
889.692	1.75
890.428	3.75
891.163	2.75
891.899	0.75
892.634	0.75
893.369	1.75
894.104	0.75
894.839	1.75
895.574	0.75
896.309	2.75
897.044	0.75
897.779	0.75
898.514	1.75
899.248	1.75
899.983	2.75
900.717	-1.25
901.452	1.75
902.186	0.75
902.92	1.75
903.654	0.75
904.389	1.75
905.123	0.75
905.857	-1.25
906.59	0.75
907.324	-1.25
908.058	2.75
908.792	2.75
909.525	2.75
910.259	1.75
910.992	-0.25
911.726	0.75
912.459	1.75
913.192	-1.25
913.925	0.75
914.658	1.75
915.391	0.75
916.124	-0.25
916.857	-1.25
917.59	1.75
918.323	2.75
919.055	2.75
919.788	-1.25
920.521	1.75
921.253	-0.25
921.985	0.75
922.718	2.75
923.45	-2.25
924.182	-0.25
924.914	0.75
925.646	2.75
926.378	-1.25
927.11	0.75
927.841	2.75
928.573	-2.25
929.305	-0.25
930.036	-0.25
930.768	1.75
931.499	-0.25
932.23	-1.25
932.962	1.75
933.693	2.75
934.424	1.75
935.155	2.75
935.886	-0.25
936.617	-0.25
937.348	1.75
938.078	1.75
938.809	-0.25
939.54	0.75
940.27	0.75
941.001	-0.25
941.731	3.75
942.461	0.75
943.191	0.75
943.922	1.75
944.652	3.75
945.382	-1.25
946.112	-2.25
946.841	0.75
947.571	0.75
948.301	0.75
949.031	-0.25
949.76	-0.25
950.49	1.75
951.219	1.75
951.948	0.75
952.678	1.75
953.407	-0.25
954.136	1.75
954.865	2.75
955.594	3.75
956.323	-0.25
957.052	1.75
957.78	-0.25
958.509	-0.25
959.238	0.75
959.966	-0.25
960.695	0.75
961.423	1.75
962.151	4.75
962.88	-1.25
963.608	-2.25
964.336	1.75
965.064	-0.25
965.792	2.75
966.52	-2.25
967.247	0.75
967.975	1.75
968.703	-0.25
969.43	-0.25
970.158	0.75
970.885	2.75
971.613	-0.25
972.34	0.75
973.067	2.75
973.794	-0.25
974.521	2.75
975.248	-0.25
975.975	-0.25
976.702	2.75
977.429	-2.25
978.156	0.75
978.882	2.75
979.609	0.75
980.335	1.75
981.062	-1.25
981.788	-1.25
982.514	0.75
983.24	2.75
983.967	1.75
984.693	-0.25
985.419	0.75
986.144	-2.25
986.87	-1.25
987.596	1.75
988.322	2.75
989.047	0.75
989.773	0.75
990.498	0.75
991.224	-0.25
991.949	-0.25
992.674	-1.25
993.399	-1.25
994.124	0.75
994.849	-1.25
995.574	0.75
996.299	2.75
997.024	-0.25
997.749	0.75
998.473	1.75
999.198	0.75
999.922	-2.25
1000.647	2.75
1001.371	2.75
1002.095	-0.25
1002.82	-1.25
1003.544	-1.25
1004.268	2.75
1004.992	1.75
1005.716	1.75
1006.439	3.75
1007.163	2.75
1007.887	3.75
1008.611	0.75
1009.334	-0.25
1010.058	-0.25
1010.781	0.75
1011.504	-0.25
1012.228	0.75
1012.951	-1.25
1013.674	-0.25
1014.397	1.75
1015.12	-0.25
