节点500_425_QEPB04081__532__15-57-09-538.txt的数据

Date: Wed Nov 12 15:57:09 CST 2025
User: PC
Spectrometer: QEPB0408
触发模式: 0
积分时间 (秒): 1.000000E-2
Scans to average: 1
启用暗噪声校正: true
启用非线性校正: false
滑动平均宽度: 0
X轴模式: Wavelengths
Number of Pixels in Spectrum: 1044
>>>>>Begin Spectral Data<<<<<
220.843	3
221.644	1
222.444	3
223.244	1
224.045	3
224.845	5
225.645	3
226.445	2
227.245	3
228.045	2
228.845	5
229.645	4
230.444	6
231.244	2
232.043	5
232.843	4
233.642	5
234.442	6
235.241	4
236.04	6
236.839	8
237.638	6
238.437	5
239.236	5
240.035	8
240.833	7
241.632	8
242.43	7
243.229	6
244.027	7
244.826	6
245.624	7
246.422	7
247.22	8
248.018	7
248.816	9
249.614	9
250.412	8
251.21	8
252.007	9
252.805	11
253.602	9
254.4	10
255.197	10
255.994	8
256.791	11
257.589	13
258.386	13
259.183	13
259.979	12
260.776	13
261.573	12
262.37	14
263.166	12
263.963	15
264.759	15
265.556	13
266.352	16
267.148	15
267.944	16
268.74	20
269.536	15
270.332	23
271.128	18
271.924	21
272.719	22
273.515	18
274.311	19
275.106	20
275.901	18
276.697	20
277.492	21
278.287	26
279.082	21
279.877	23
280.672	22
281.467	23
282.262	22
283.056	23
283.851	22
284.646	21
285.44	21
286.234	22
287.029	22
287.823	24
288.617	22
289.411	23
290.205	22
290.999	19
291.793	23
292.587	24
293.381	22
294.174	21
294.968	17
295.761	20
296.555	19
297.348	19
298.141	20
298.935	20
299.728	20
300.521	18
301.314	18
302.107	17
302.899	15
303.692	15
304.485	19
305.277	15
306.07	15
306.862	18
307.655	14
308.447	17
309.239	16
310.031	13
310.823	13
311.615	15
312.407	13
313.199	14
313.991	13
314.783	12
315.574	14
316.366	11
317.157	11
317.949	11
318.74	13
319.531	9
320.322	10
321.113	10
321.904	8
322.695	10
323.486	12
324.277	8
325.068	8
325.858	10
326.649	10
327.439	10
328.23	8
329.02	9
329.81	7
330.6	7
331.391	9
332.181	7
332.971	10
333.76	9
334.55	7
335.34	7
336.13	7
336.919	9
337.709	8
338.498	5
339.287	10
340.077	8
340.866	7
341.655	9
342.444	9
343.233	7
344.022	8
344.811	8
345.6	8
346.388	8
347.177	4
347.965	8
348.754	8
349.542	7
350.33	8
351.119	6
351.907	7
352.695	7
353.483	8
354.271	7
355.059	8
355.846	6
356.634	7
357.422	8
358.209	6
358.997	7
359.784	5
360.571	7
361.359	8
362.146	7
362.933	8
363.72	8
364.507	6
365.294	8
366.081	5
366.867	6
367.654	7
368.44	6
369.227	6
370.013	7
370.8	6
371.586	7
372.372	6
373.158	7
373.944	4
374.73	5
375.516	5
376.302	6
377.088	8
377.873	5
378.659	6
379.445	4
380.23	5
381.015	6
381.801	5
382.586	6
383.371	3
384.156	6
384.941	7
385.726	5
386.511	8
387.296	8
388.08	7
388.865	7
389.649	10
390.434	9
391.218	6
392.003	8
392.787	5
393.571	6
394.355	7
395.139	7
395.923	10
396.707	7
397.491	9
398.274	10
399.058	10
399.842	7
400.625	8
401.408	9
402.192	8
402.975	10
403.758	7
404.541	10
405.324	12
406.107	9
406.89	9
407.673	11
408.456	11
409.238	8
410.021	10
410.803	11
411.586	9
412.368	10
413.151	11
413.933	11
414.715	14
415.497	10
416.279	12
417.061	10
417.843	14
418.624	10
419.406	14
420.188	14
420.969	12
421.751	14
422.532	14
423.313	16
424.095	14
424.876	16
425.657	14
426.438	14
427.219	17
428	15
428.78	17
429.561	18
430.342	16
431.122	18
431.903	19
432.683	20
433.464	22
434.244	22
435.024	25
435.804	25
436.584	25
437.364	29
438.144	30
438.924	29
439.704	32
440.483	33
441.263	36
442.042	37
442.822	38
443.601	45
444.38	49
445.16	48
445.939	57
446.718	59
447.497	68
448.276	68
449.054	74
449.833	83
450.612	92
451.391	97
452.169	113
452.948	120
453.726	134
454.504	149
455.282	165
456.061	185
456.839	200
457.617	221
458.395	253
459.172	280
459.95	307
460.728	342
461.506	377
462.283	429
463.061	474
463.838	542
464.615	594
465.393	656
466.17	730
466.947	804
467.724	901
468.501	993
469.278	1095
470.055	1202
470.831	1342
471.608	1490
472.385	1630
473.161	1793
473.938	1970
474.714	2177
475.49	2364
476.266	2614
477.043	2844
477.819	3125
478.595	3433
479.371	3741
480.146	4097
480.922	4438
481.698	4862
482.473	5287
483.249	5722
484.024	6294
484.8	6838
485.575	7395
486.35	8007
487.126	8728
487.901	9409
488.676	10230
489.451	11107
490.225	11954
491	12924
491.775	13992
492.55	15057
493.324	16139
494.099	17236
494.873	18404
495.647	19678
496.422	20831
497.196	22145
497.97	23513
498.744	24794
499.518	26071
500.292	27096
501.066	28260
501.839	29441
502.613	30404
503.387	31164
504.16	31857
504.934	32331
505.707	32578
506.48	32819
507.253	32752
508.027	32626
508.8	32380
509.573	31927
510.346	31436
511.118	30724
511.891	29900
512.664	28993
513.437	28068
514.209	27124
514.982	26220
515.754	25196
516.526	24216
517.298	23287
518.071	22322
518.843	21428
519.615	20520
520.387	19754
521.159	19006
521.93	18256
522.702	17567
523.474	16856
524.245	16163
525.017	15453
525.788	14788
526.56	14196
527.331	13545
528.102	12949
528.873	12398
529.644	11855
530.415	11265
531.186	10813
531.957	10267
532.728	9698
533.498	9177
534.269	8710
535.039	8278
535.81	7857
536.58	7412
537.351	6970
538.121	6608
538.891	6281
539.661	5942
540.431	5660
541.201	5316
541.971	5052
542.741	4811
543.51	4556
544.28	4317
545.05	4097
545.819	3924
546.588	3717
547.358	3530
548.127	3346
548.896	3195
549.665	3039
550.434	2863
551.203	2718
551.972	2586
552.741	2448
553.51	2320
554.278	2198
555.047	2070
555.815	1961
556.584	1855
557.352	1749
558.121	1659
558.889	1563
559.657	1459
560.425	1407
561.193	1309
561.961	1230
562.729	1184
563.496	1119
564.264	1050
565.032	1002
565.799	947
566.567	891
567.334	857
568.101	792
568.869	751
569.636	698
570.403	655
571.17	631
571.937	597
572.704	566
573.471	527
574.237	506
575.004	473
575.771	444
576.537	413
577.303	399
578.07	372
578.836	351
579.602	335
580.368	318
581.134	300
581.9	282
582.666	269
583.432	250
584.198	244
584.964	228
585.729	214
586.495	210
587.26	202
588.025	185
588.791	179
589.556	165
590.321	158
591.086	152
591.851	140
592.616	140
593.381	131
594.146	119
594.911	119
595.675	111
596.44	109
597.204	100
597.969	101
598.733	94
599.497	88
600.261	83
601.025	79
601.79	78
602.553	73
603.317	67
604.081	66
604.845	64
605.609	66
606.372	61
607.136	61
607.899	57
608.662	50
609.426	50
610.189	48
610.952	48
611.715	40
612.478	41
613.241	41
614.004	40
614.767	36
615.529	36
616.292	37
617.055	35
617.817	35
618.579	32
619.342	34
620.104	30
620.866	29
621.628	26
622.39	26
623.152	27
623.914	24
624.676	23
625.438	25
626.199	23
626.961	22
627.722	21
628.484	21
629.245	17
630.006	18
630.768	20
631.529	20
632.29	18
633.051	18
633.812	17
634.573	15
635.333	16
636.094	13
636.855	15
637.615	16
638.376	12
639.136	14
639.896	13
640.657	14
641.417	13
642.177	13
642.937	12
643.697	12
644.457	12
645.216	13
645.976	12
646.736	9
647.495	10
648.255	12
649.014	12
649.774	10
650.533	8
651.292	10
652.051	7
652.81	10
653.569	10
654.328	7
655.087	9
655.846	9
656.604	8
657.363	6
658.121	11
658.88	9
659.638	8
660.397	7
661.155	7
661.913	6
662.671	8
663.429	6
664.187	6
664.945	6
665.703	6
666.46	8
667.218	6
667.976	7
668.733	4
669.49	8
670.248	5
671.005	7
671.762	7
672.519	6
673.276	7
674.033	5
674.79	8
675.547	6
676.304	7
677.06	7
677.817	4
678.574	5
679.33	6
680.086	6
680.843	4
681.599	3
682.355	6
683.111	5
683.867	4
684.623	5
685.379	4
686.135	6
686.89	6
687.646	6
688.402	4
689.157	6
689.912	5
690.668	6
691.423	2
692.178	4
692.933	2
693.688	5
694.443	7
695.198	4
695.953	6
696.708	7
697.462	2
698.217	6
698.972	6
699.726	5
700.48	4
701.235	5
701.989	5
702.743	3
703.497	4
704.251	3
705.005	2
705.759	6
706.513	7
707.266	5
708.02	4
708.774	4
709.527	6
710.28	4
711.034	3
711.787	5
712.54	4
713.293	4
714.046	4
714.799	5
715.552	4
716.305	7
717.058	6
717.81	4
718.563	4
719.315	6
720.068	5
720.82	4
721.573	4
722.325	3
723.077	3
723.829	4
724.581	4
725.333	5
726.085	7
726.836	4
727.588	6
728.34	5
729.091	6
729.843	3
730.594	4
731.346	4
732.097	5
732.848	7
733.599	4
734.35	5
735.101	6
735.852	5
736.603	7
737.354	6
738.104	7
738.855	4
739.605	8
740.356	5
741.106	7
741.856	6
742.607	4
743.357	7
744.107	8
744.857	6
745.607	8
746.357	7
747.106	6
747.856	6
748.606	5
749.355	5
750.105	5
750.854	5
751.603	6
752.353	8
753.102	7
753.851	7
754.6	7
755.349	7
756.098	8
756.847	7
757.595	8
758.344	7
759.093	9
759.841	8
760.589	5
761.338	8
762.086	6
762.834	8
763.582	8
764.331	7
765.079	7
765.826	7
766.574	8
767.322	9
768.07	8
768.817	7
769.565	8
770.312	10
771.06	9
771.807	10
772.554	9
773.302	10
774.049	9
774.796	9
775.543	8
776.29	10
777.036	10
777.783	10
778.53	9
779.276	8
780.023	9
780.769	11
781.516	12
782.262	12
783.008	10
783.754	10
784.5	12
785.246	14
785.992	12
786.738	11
787.484	9
788.23	12
788.975	11
789.721	12
790.466	10
791.212	9
791.957	9
792.702	11
793.447	11
794.193	13
794.938	9
795.683	8
796.427	8
797.172	9
797.917	9
798.662	10
799.406	10
800.151	9
800.895	7
801.64	10
802.384	9
803.128	10
803.872	8
804.616	8
805.36	7
806.104	7
806.848	8
807.592	6
808.336	7
809.079	6
809.823	7
810.566	5
811.31	9
812.053	6
812.796	6
813.539	6
814.283	6
815.026	5
815.769	6
816.511	6
817.254	5
817.997	7
818.74	7
819.482	5
820.225	4
820.967	3
821.71	6
822.452	4
823.194	5
823.936	7
824.678	4
825.42	7
826.162	6
826.904	5
827.646	6
828.388	6
829.129	4
829.871	3
830.612	6
831.354	5
832.095	5
832.836	4
833.577	5
834.319	6
835.06	4
835.801	5
836.542	4
837.282	4
838.023	4
838.764	4
839.504	6
840.245	3
840.985	3
841.726	5
842.466	1
843.206	4
843.946	4
844.687	6
845.427	2
846.166	3
846.906	6
847.646	4
848.386	4
849.125	2
849.865	1
850.605	3
851.344	2
852.083	4
852.823	4
853.562	2
854.301	3
855.04	4
855.779	4
856.518	3
857.257	3
857.995	0
858.734	2
859.473	3
860.211	1
860.95	4
861.688	4
862.426	2
863.165	1
863.903	2
864.641	3
865.379	1
866.117	2
866.855	2
867.593	2
868.33	2
869.068	0
869.806	0
870.543	2
871.28	3
872.018	1
872.755	0
873.492	1
874.229	1
874.967	2
875.703	-1
876.44	1
877.177	2
877.914	1
878.651	3
879.387	0
880.124	0
880.86	0
881.597	1
882.333	0
883.069	-1
883.806	2
884.542	2
885.278	2
886.014	1
886.749	1
887.485	1
888.221	1
888.957	3
889.692	2
890.428	-1
891.163	1
891.899	-1
892.634	1
893.369	1
894.104	0
894.839	-1
895.574	1
896.309	3
897.044	-1
897.779	2
898.514	0
899.248	-1
899.983	2
900.717	0
901.452	2
902.186	1
902.92	0
903.654	1
904.389	0
905.123	1
905.857	1
906.59	1
907.324	0
908.058	-1
908.792	0
909.525	2
910.259	1
910.992	-1
911.726	0
912.459	-3
913.192	-1
913.925	2
914.658	-2
915.391	3
916.124	0
916.857	-1
917.59	-1
918.323	0
919.055	1
919.788	0
920.521	0
921.253	0
921.985	1
922.718	-1
923.45	-1
924.182	0
924.914	-3
925.646	0
926.378	2
927.11	-2
927.841	-2
928.573	-2
929.305	0
930.036	2
930.768	-2
931.499	0
932.23	-2
932.962	3
933.693	0
934.424	-1
935.155	0
935.886	0
936.617	1
937.348	-2
938.078	1
938.809	0
939.54	1
940.27	2
941.001	-1
941.731	0
942.461	1
943.191	2
943.922	2
944.652	-1
945.382	-1
946.112	-1
946.841	-1
947.571	1
948.301	1
949.031	1
949.76	0
950.49	1
951.219	-2
951.948	-1
952.678	3
953.407	0
954.136	1
954.865	1
955.594	-1
956.323	4
957.052	-1
957.78	0
958.509	0
959.238	2
959.966	0
960.695	-3
961.423	1
962.151	-1
962.88	1
963.608	-1
964.336	-2
965.064	0
965.792	-1
966.52	-1
967.247	-2
967.975	2
968.703	-2
969.43	-1
970.158	-2
970.885	1
971.613	0
972.34	0
973.067	0
973.794	0
974.521	0
975.248	2
975.975	0
976.702	1
977.429	0
978.156	-1
978.882	3
979.609	1
980.335	0
981.062	1
981.788	-1
982.514	0
983.24	-1
983.967	0
984.693	-2
985.419	3
986.144	-1
986.87	0
987.596	0
988.322	-1
989.047	1
989.773	0
990.498	0
991.224	-1
991.949	-1
992.674	0
993.399	1
994.124	-1
994.849	0
995.574	-1
996.299	0
997.024	-1
997.749	1
998.473	0
999.198	-1
999.922	0
1000.647	-2
1001.371	2
1002.095	-1
1002.82	0
1003.544	-2
1004.268	2
1004.992	2
1005.716	2
1006.439	3
1007.163	2
1007.887	2
1008.611	-1
1009.334	1
1010.058	0
1010.781	0
1011.504	1
1012.228	-1
1012.951	1
1013.674	2
1014.397	0
1015.12	-2
