节点500_425_QEPB04081__551__15-57-28-498.txt的数据

Date: Wed Nov 12 15:57:28 CST 2025
User: PC
Spectrometer: QEPB0408
触发模式: 0
积分时间 (秒): 1.000000E-2
Scans to average: 1
启用暗噪声校正: true
启用非线性校正: false
滑动平均宽度: 0
X轴模式: Wavelengths
Number of Pixels in Spectrum: 1044
>>>>>Begin Spectral Data<<<<<
220.843	3.5
221.644	2.5
222.444	2.5
223.244	1.5
224.045	2.5
224.845	1.5
225.645	2.5
226.445	2.5
227.245	6.5
228.045	5.5
228.845	4.5
229.645	3.5
230.444	3.5
231.244	3.5
232.043	5.5
232.843	4.5
233.642	2.5
234.442	3.5
235.241	7.5
236.04	5.5
236.839	6.5
237.638	7.5
238.437	7.5
239.236	5.5
240.035	5.5
240.833	6.5
241.632	5.5
242.43	7.5
243.229	6.5
244.027	5.5
244.826	8.5
245.624	8.5
246.422	7.5
247.22	10.5
248.018	7.5
248.816	9.5
249.614	6.5
250.412	9.5
251.21	10.5
252.007	11.5
252.805	10.5
253.602	9.5
254.4	10.5
255.197	11.5
255.994	12.5
256.791	13.5
257.589	10.5
258.386	9.5
259.183	12.5
259.979	13.5
260.776	14.5
261.573	13.5
262.37	14.5
263.166	14.5
263.963	15.5
264.759	14.5
265.556	17.5
266.352	17.5
267.148	17.5
267.944	17.5
268.74	17.5
269.536	19.5
270.332	17.5
271.128	19.5
271.924	20.5
272.719	18.5
273.515	19.5
274.311	19.5
275.106	20.5
275.901	19.5
276.697	20.5
277.492	21.5
278.287	20.5
279.082	22.5
279.877	19.5
280.672	22.5
281.467	22.5
282.262	21.5
283.056	23.5
283.851	22.5
284.646	23.5
285.44	22.5
286.234	25.5
287.029	22.5
287.823	22.5
288.617	23.5
289.411	24.5
290.205	23.5
290.999	22.5
291.793	23.5
292.587	22.5
293.381	18.5
294.174	22.5
294.968	20.5
295.761	20.5
296.555	18.5
297.348	18.5
298.141	21.5
298.935	20.5
299.728	20.5
300.521	15.5
301.314	21.5
302.107	16.5
302.899	16.5
303.692	15.5
304.485	15.5
305.277	16.5
306.07	14.5
306.862	16.5
307.655	16.5
308.447	15.5
309.239	17.5
310.031	15.5
310.823	15.5
311.615	15.5
312.407	14.5
313.199	14.5
313.991	13.5
314.783	12.5
315.574	11.5
316.366	10.5
317.157	13.5
317.949	11.5
318.74	14.5
319.531	10.5
320.322	11.5
321.113	10.5
321.904	9.5
322.695	10.5
323.486	10.5
324.277	7.5
325.068	10.5
325.858	8.5
326.649	9.5
327.439	7.5
328.23	10.5
329.02	6.5
329.81	8.5
330.6	11.5
331.391	4.5
332.181	9.5
332.971	10.5
333.76	8.5
334.55	8.5
335.34	9.5
336.13	12.5
336.919	8.5
337.709	10.5
338.498	8.5
339.287	8.5
340.077	7.5
340.866	8.5
341.655	7.5
342.444	8.5
343.233	9.5
344.022	9.5
344.811	9.5
345.6	10.5
346.388	9.5
347.177	9.5
347.965	6.5
348.754	7.5
349.542	9.5
350.33	8.5
351.119	8.5
351.907	8.5
352.695	7.5
353.483	8.5
354.271	8.5
355.059	9.5
355.846	8.5
356.634	7.5
357.422	4.5
358.209	8.5
358.997	7.5
359.784	6.5
360.571	8.5
361.359	7.5
362.146	7.5
362.933	7.5
363.72	8.5
364.507	9.5
365.294	4.5
366.081	7.5
366.867	8.5
367.654	5.5
368.44	8.5
369.227	7.5
370.013	9.5
370.8	6.5
371.586	6.5
372.372	7.5
373.158	7.5
373.944	7.5
374.73	8.5
375.516	7.5
376.302	7.5
377.088	6.5
377.873	10.5
378.659	6.5
379.445	5.5
380.23	6.5
381.015	8.5
381.801	6.5
382.586	9.5
383.371	8.5
384.156	8.5
384.941	9.5
385.726	7.5
386.511	8.5
387.296	9.5
388.08	8.5
388.865	10.5
389.649	4.5
390.434	9.5
391.218	5.5
392.003	7.5
392.787	9.5
393.571	8.5
394.355	10.5
395.139	6.5
395.923	9.5
396.707	10.5
397.491	6.5
398.274	10.5
399.058	10.5
399.842	8.5
400.625	9.5
401.408	9.5
402.192	8.5
402.975	8.5
403.758	9.5
404.541	10.5
405.324	9.5
406.107	7.5
406.89	8.5
407.673	12.5
408.456	8.5
409.238	10.5
410.021	9.5
410.803	10.5
411.586	9.5
412.368	11.5
413.151	11.5
413.933	12.5
414.715	11.5
415.497	12.5
416.279	12.5
417.061	13.5
417.843	13.5
418.624	15.5
419.406	12.5
420.188	13.5
420.969	14.5
421.751	14.5
422.532	16.5
423.313	15.5
424.095	13.5
424.876	18.5
425.657	13.5
426.438	18.5
427.219	16.5
428	18.5
428.78	20.5
429.561	21.5
430.342	20.5
431.122	21.5
431.903	19.5
432.683	21.5
433.464	20.5
434.244	24.5
435.024	21.5
435.804	27.5
436.584	26.5
437.364	24.5
438.144	29.5
438.924	29.5
439.704	36.5
440.483	35.5
441.263	36.5
442.042	36.5
442.822	43.5
443.601	47.5
444.38	47.5
445.16	51.5
445.939	52.5
446.718	64.5
447.497	64.5
448.276	72.5
449.054	74.5
449.833	86.5
450.612	93.5
451.391	96.5
452.169	113.5
452.948	127.5
453.726	138.5
454.504	152.5
455.282	158.5
456.061	186.5
456.839	200.5
457.617	226.5
458.395	258.5
459.172	280.5
459.95	312.5
460.728	350.5
461.506	388.5
462.283	434.5
463.061	481.5
463.838	538.5
464.615	593.5
465.393	661.5
466.17	726.5
466.947	803.5
467.724	894.5
468.501	998.5
469.278	1095.5
470.055	1225.5
470.831	1338.5
471.608	1464.5
472.385	1629.5
473.161	1774.5
473.938	1966.5
474.714	2162.5
475.49	2370.5
476.266	2603.5
477.043	2837.5
477.819	3134.5
478.595	3418.5
479.371	3750.5
480.146	4061.5
480.922	4434.5
481.698	4844.5
482.473	5250.5
483.249	5743.5
484.024	6243.5
484.8	6778.5
485.575	7352.5
486.35	7967.5
487.126	8638.5
487.901	9381.5
488.676	10187.5
489.451	11040.5
490.225	11892.5
491	12881.5
491.775	13861.5
492.55	14926.5
493.324	16007.5
494.099	17148.5
494.873	18261.5
495.647	19492.5
496.422	20653.5
497.196	21961.5
497.97	23282.5
498.744	24559.5
499.518	25799.5
500.292	26977.5
501.066	28016.5
501.839	29185.5
502.613	30119.5
503.387	30889.5
504.16	31657.5
504.934	32171.5
505.707	32503.5
506.48	32585.5
507.253	32536.5
508.027	32499.5
508.8	32248.5
509.573	31876.5
510.346	31310.5
511.118	30590.5
511.891	29923.5
512.664	28952.5
513.437	28028.5
514.209	27071.5
514.982	26204.5
515.754	25220.5
516.526	24227.5
517.298	23309.5
518.071	22304.5
518.843	21458.5
519.615	20562.5
520.387	19714.5
521.159	19051.5
521.93	18375.5
522.702	17571.5
523.474	16900.5
524.245	16237.5
525.017	15521.5
525.788	14802.5
526.56	14244.5
527.331	13570.5
528.102	13005.5
528.873	12414.5
529.644	11843.5
530.415	11333.5
531.186	10819.5
531.957	10285.5
532.728	9735.5
533.498	9255.5
534.269	8748.5
535.039	8313.5
535.81	7871.5
536.58	7423.5
537.351	7016.5
538.121	6649.5
538.891	6280.5
539.661	5952.5
540.431	5634.5
541.201	5368.5
541.971	5081.5
542.741	4818.5
543.51	4563.5
544.28	4324.5
545.05	4116.5
545.819	3945.5
546.588	3745.5
547.358	3545.5
548.127	3361.5
548.896	3196.5
549.665	3042.5
550.434	2907.5
551.203	2729.5
551.972	2587.5
552.741	2450.5
553.51	2322.5
554.278	2209.5
555.047	2079.5
555.815	1958.5
556.584	1865.5
557.352	1746.5
558.121	1671.5
558.889	1560.5
559.657	1500.5
560.425	1411.5
561.193	1322.5
561.961	1256.5
562.729	1188.5
563.496	1105.5
564.264	1060.5
565.032	985.5
565.799	953.5
566.567	900.5
567.334	849.5
568.101	801.5
568.869	756.5
569.636	714.5
570.403	673.5
571.17	638.5
571.937	596.5
572.704	570.5
573.471	542.5
574.237	505.5
575.004	480.5
575.771	441.5
576.537	417.5
577.303	390.5
578.07	373.5
578.836	349.5
579.602	330.5
580.368	323.5
581.134	295.5
581.9	285.5
582.666	263.5
583.432	254.5
584.198	242.5
584.964	237.5
585.729	222.5
586.495	207.5
587.26	196.5
588.025	187.5
588.791	176.5
589.556	168.5
590.321	160.5
591.086	147.5
591.851	144.5
592.616	138.5
593.381	126.5
594.146	119.5
594.911	113.5
595.675	112.5
596.44	108.5
597.204	104.5
597.969	98.5
598.733	90.5
599.497	92.5
600.261	87.5
601.025	79.5
601.79	78.5
602.553	74.5
603.317	73.5
604.081	68.5
604.845	66.5
605.609	61.5
606.372	61.5
607.136	59.5
607.899	57.5
608.662	50.5
609.426	48.5
610.189	50.5
610.952	49.5
611.715	46.5
612.478	42.5
613.241	41.5
614.004	42.5
614.767	37.5
615.529	38.5
616.292	36.5
617.055	35.5
617.817	30.5
618.579	31.5
619.342	32.5
620.104	28.5
620.866	30.5
621.628	29.5
622.39	27.5
623.152	26.5
623.914	27.5
624.676	26.5
625.438	23.5
626.199	26.5
626.961	19.5
627.722	21.5
628.484	20.5
629.245	20.5
630.006	20.5
630.768	19.5
631.529	19.5
632.29	19.5
633.051	15.5
633.812	19.5
634.573	14.5
635.333	16.5
636.094	17.5
636.855	14.5
637.615	18.5
638.376	11.5
639.136	15.5
639.896	14.5
640.657	10.5
641.417	12.5
642.177	11.5
642.937	12.5
643.697	12.5
644.457	12.5
645.216	9.5
645.976	9.5
646.736	11.5
647.495	10.5
648.255	10.5
649.014	9.5
649.774	8.5
650.533	7.5
651.292	10.5
652.051	11.5
652.81	10.5
653.569	9.5
654.328	8.5
655.087	10.5
655.846	10.5
656.604	10.5
657.363	8.5
658.121	10.5
658.88	8.5
659.638	6.5
660.397	7.5
661.155	5.5
661.913	6.5
662.671	8.5
663.429	7.5
664.187	8.5
664.945	7.5
665.703	8.5
666.46	8.5
667.218	7.5
667.976	6.5
668.733	7.5
669.49	4.5
670.248	6.5
671.005	6.5
671.762	6.5
672.519	8.5
673.276	6.5
674.033	9.5
674.79	8.5
675.547	7.5
676.304	5.5
677.06	3.5
677.817	5.5
678.574	4.5
679.33	6.5
680.086	7.5
680.843	7.5
681.599	7.5
682.355	6.5
683.111	7.5
683.867	5.5
684.623	4.5
685.379	4.5
686.135	4.5
686.89	6.5
687.646	6.5
688.402	6.5
689.157	3.5
689.912	7.5
690.668	6.5
691.423	5.5
692.178	7.5
692.933	5.5
693.688	6.5
694.443	4.5
695.198	6.5
695.953	6.5
696.708	5.5
697.462	6.5
698.217	5.5
698.972	6.5
699.726	4.5
700.48	5.5
701.235	5.5
701.989	5.5
702.743	3.5
703.497	4.5
704.251	3.5
705.005	7.5
705.759	3.5
706.513	8.5
707.266	7.5
708.02	4.5
708.774	7.5
709.527	4.5
710.28	4.5
711.034	5.5
711.787	7.5
712.54	5.5
713.293	3.5
714.046	5.5
714.799	4.5
715.552	5.5
716.305	6.5
717.058	5.5
717.81	7.5
718.563	6.5
719.315	6.5
720.068	5.5
720.82	5.5
721.573	4.5
722.325	3.5
723.077	5.5
723.829	5.5
724.581	5.5
725.333	5.5
726.085	6.5
726.836	4.5
727.588	3.5
728.34	5.5
729.091	4.5
729.843	6.5
730.594	6.5
731.346	2.5
732.097	4.5
732.848	4.5
733.599	6.5
734.35	6.5
735.101	5.5
735.852	7.5
736.603	5.5
737.354	6.5
738.104	5.5
738.855	3.5
739.605	5.5
740.356	5.5
741.106	8.5
741.856	7.5
742.607	7.5
743.357	7.5
744.107	8.5
744.857	8.5
745.607	4.5
746.357	6.5
747.106	4.5
747.856	7.5
748.606	6.5
749.355	5.5
750.105	6.5
750.854	7.5
751.603	7.5
752.353	4.5
753.102	6.5
753.851	8.5
754.6	6.5
755.349	4.5
756.098	7.5
756.847	9.5
757.595	8.5
758.344	6.5
759.093	8.5
759.841	8.5
760.589	8.5
761.338	8.5
762.086	6.5
762.834	7.5
763.582	8.5
764.331	10.5
765.079	7.5
765.826	9.5
766.574	7.5
767.322	9.5
768.07	7.5
768.817	9.5
769.565	9.5
770.312	8.5
771.06	8.5
771.807	10.5
772.554	9.5
773.302	9.5
774.049	8.5
774.796	9.5
775.543	10.5
776.29	10.5
777.036	10.5
777.783	10.5
778.53	12.5
779.276	11.5
780.023	12.5
780.769	11.5
781.516	10.5
782.262	8.5
783.008	8.5
783.754	10.5
784.5	10.5
785.246	9.5
785.992	14.5
786.738	11.5
787.484	10.5
788.23	10.5
788.975	12.5
789.721	8.5
790.466	10.5
791.212	10.5
791.957	8.5
792.702	11.5
793.447	8.5
794.193	11.5
794.938	8.5
795.683	11.5
796.427	9.5
797.172	11.5
797.917	10.5
798.662	9.5
799.406	7.5
800.151	9.5
800.895	8.5
801.64	10.5
802.384	10.5
803.128	9.5
803.872	7.5
804.616	8.5
805.36	7.5
806.104	6.5
806.848	8.5
807.592	7.5
808.336	6.5
809.079	7.5
809.823	6.5
810.566	6.5
811.31	8.5
812.053	7.5
812.796	7.5
813.539	7.5
814.283	7.5
815.026	5.5
815.769	7.5
816.511	5.5
817.254	5.5
817.997	5.5
818.74	6.5
819.482	5.5
820.225	5.5
820.967	4.5
821.71	4.5
822.452	4.5
823.194	7.5
823.936	4.5
824.678	4.5
825.42	4.5
826.162	3.5
826.904	5.5
827.646	5.5
828.388	5.5
829.129	5.5
829.871	5.5
830.612	4.5
831.354	6.5
832.095	3.5
832.836	4.5
833.577	6.5
834.319	3.5
835.06	5.5
835.801	5.5
836.542	5.5
837.282	6.5
838.023	4.5
838.764	5.5
839.504	3.5
840.245	6.5
840.985	5.5
841.726	2.5
842.466	4.5
843.206	4.5
843.946	7.5
844.687	3.5
845.427	3.5
846.166	3.5
846.906	4.5
847.646	2.5
848.386	2.5
849.125	5.5
849.865	2.5
850.605	1.5
851.344	6.5
852.083	6.5
852.823	2.5
853.562	4.5
854.301	2.5
855.04	4.5
855.779	3.5
856.518	5.5
857.257	3.5
857.995	3.5
858.734	3.5
859.473	2.5
860.211	3.5
860.95	1.5
861.688	1.5
862.426	3.5
863.165	1.5
863.903	4.5
864.641	5.5
865.379	2.5
866.117	2.5
866.855	3.5
867.593	3.5
868.33	2.5
869.068	3.5
869.806	-0.5
870.543	1.5
871.28	3.5
872.018	0.5
872.755	3.5
873.492	0.5
874.229	3.5
874.967	1.5
875.703	3.5
876.44	2.5
877.177	3.5
877.914	1.5
878.651	0.5
879.387	2.5
880.124	3.5
880.86	0.5
881.597	0.5
882.333	1.5
883.069	0.5
883.806	-0.5
884.542	0.5
885.278	1.5
886.014	0.5
886.749	0.5
887.485	1.5
888.221	0.5
888.957	1.5
889.692	1.5
890.428	1.5
891.163	2.5
891.899	1.5
892.634	1.5
893.369	-0.5
894.104	1.5
894.839	-0.5
895.574	2.5
896.309	0.5
897.044	2.5
897.779	1.5
898.514	0.5
899.248	1.5
899.983	-0.5
900.717	1.5
901.452	1.5
902.186	0.5
902.92	0.5
903.654	0.5
904.389	0.5
905.123	2.5
905.857	2.5
906.59	2.5
907.324	-0.5
908.058	1.5
908.792	-0.5
909.525	1.5
910.259	0.5
910.992	0.5
911.726	-0.5
912.459	1.5
913.192	1.5
913.925	-0.5
914.658	1.5
915.391	0.5
916.124	0.5
916.857	1.5
917.59	2.5
918.323	0.5
919.055	0.5
919.788	-0.5
920.521	0.5
921.253	-0.5
921.985	2.5
922.718	0.5
923.45	-0.5
924.182	0.5
924.914	1.5
925.646	2.5
926.378	1.5
927.11	2.5
927.841	-0.5
928.573	0.5
929.305	1.5
930.036	-1.5
930.768	0.5
931.499	0.5
932.23	-0.5
932.962	0.5
933.693	1.5
934.424	-0.5
935.155	0.5
935.886	1.5
936.617	-1.5
937.348	-0.5
938.078	0.5
938.809	0.5
939.54	-0.5
940.27	1.5
941.001	1.5
941.731	1.5
942.461	0.5
943.191	2.5
943.922	-0.5
944.652	1.5
945.382	1.5
946.112	1.5
946.841	0.5
947.571	0.5
948.301	2.5
949.031	0.5
949.76	0.5
950.49	-0.5
951.219	0.5
951.948	1.5
952.678	-0.5
953.407	0.5
954.136	-1.5
954.865	1.5
955.594	2.5
956.323	0.5
957.052	-0.5
957.78	0.5
958.509	2.5
959.238	1.5
959.966	-1.5
960.695	0.5
961.423	-0.5
962.151	1.5
962.88	1.5
963.608	-0.5
964.336	0.5
965.064	1.5
965.792	0.5
966.52	0.5
967.247	-0.5
967.975	0.5
968.703	0.5
969.43	2.5
970.158	1.5
970.885	0.5
971.613	-0.5
972.34	-0.5
973.067	0.5
973.794	-0.5
974.521	-0.5
975.248	0.5
975.975	2.5
976.702	0.5
977.429	-1.5
978.156	0.5
978.882	0.5
979.609	0.5
980.335	0.5
981.062	0.5
981.788	3.5
982.514	1.5
983.24	1.5
983.967	-3.5
984.693	0.5
985.419	0.5
986.144	1.5
986.87	0.5
987.596	-0.5
988.322	2.5
989.047	1.5
989.773	-0.5
990.498	0.5
991.224	-1.5
991.949	2.5
992.674	0.5
993.399	-0.5
994.124	0.5
994.849	1.5
995.574	0.5
996.299	1.5
997.024	-0.5
997.749	1.5
998.473	0.5
999.198	0.5
999.922	1.5
1000.647	1.5
1001.371	4.5
1002.095	-1.5
1002.82	-1.5
1003.544	-1.5
1004.268	4.5
1004.992	0.5
1005.716	3.5
1006.439	2.5
1007.163	1.5
1007.887	2.5
1008.611	1.5
1009.334	1.5
1010.058	2.5
1010.781	-1.5
1011.504	1.5
1012.228	-1.5
1012.951	0.5
1013.674	-0.5
1014.397	0.5
1015.12	-0.5
