节点500_425_QEPB04081__172__15-51-10-169.txt的数据

Date: Wed Nov 12 15:51:10 CST 2025
User: PC
Spectrometer: QEPB0408
触发模式: 0
积分时间 (秒): 1.000000E-2
Scans to average: 1
启用暗噪声校正: true
启用非线性校正: false
滑动平均宽度: 0
X轴模式: Wavelengths
Number of Pixels in Spectrum: 1044
>>>>>Begin Spectral Data<<<<<
220.843	3
221.644	2
222.444	2
223.244	2
224.045	3
224.845	2
225.645	5
226.445	4
227.245	3
228.045	6
228.845	4
229.645	3
230.444	5
231.244	5
232.043	5
232.843	7
233.642	6
234.442	4
235.241	8
236.04	6
236.839	5
237.638	7
238.437	6
239.236	6
240.035	6
240.833	7
241.632	6
242.43	7
243.229	9
244.027	7
244.826	8
245.624	7
246.422	5
247.22	9
248.018	7
248.816	10
249.614	6
250.412	10
251.21	10
252.007	10
252.805	10
253.602	10
254.4	12
255.197	12
255.994	13
256.791	10
257.589	13
258.386	14
259.183	14
259.979	16
260.776	14
261.573	17
262.37	16
263.166	16
263.963	18
264.759	18
265.556	15
266.352	21
267.148	19
267.944	18
268.74	19
269.536	19
270.332	20
271.128	21
271.924	22
272.719	24
273.515	25
274.311	23
275.106	25
275.901	23
276.697	23
277.492	26
278.287	26
279.082	26
279.877	25
280.672	26
281.467	25
282.262	23
283.056	25
283.851	24
284.646	26
285.44	24
286.234	24
287.029	22
287.823	23
288.617	24
289.411	22
290.205	24
290.999	24
291.793	27
292.587	23
293.381	22
294.174	23
294.968	24
295.761	19
296.555	23
297.348	21
298.141	19
298.935	22
299.728	20
300.521	19
301.314	17
302.107	18
302.899	14
303.692	16
304.485	17
305.277	18
306.07	14
306.862	14
307.655	16
308.447	16
309.239	18
310.031	14
310.823	15
311.615	13
312.407	13
313.199	12
313.991	11
314.783	13
315.574	13
316.366	12
317.157	13
317.949	9
318.74	11
319.531	10
320.322	10
321.113	8
321.904	9
322.695	12
323.486	9
324.277	9
325.068	11
325.858	8
326.649	10
327.439	8
328.23	8
329.02	9
329.81	8
330.6	9
331.391	6
332.181	9
332.971	8
333.76	11
334.55	7
335.34	9
336.13	10
336.919	9
337.709	8
338.498	9
339.287	7
340.077	7
340.866	7
341.655	7
342.444	6
343.233	6
344.022	8
344.811	8
345.6	8
346.388	8
347.177	7
347.965	9
348.754	7
349.542	7
350.33	7
351.119	7
351.907	6
352.695	8
353.483	8
354.271	6
355.059	8
355.846	7
356.634	9
357.422	8
358.209	5
358.997	7
359.784	6
360.571	8
361.359	9
362.146	8
362.933	5
363.72	6
364.507	8
365.294	5
366.081	7
366.867	7
367.654	5
368.44	6
369.227	6
370.013	8
370.8	8
371.586	7
372.372	7
373.158	6
373.944	6
374.73	6
375.516	6
376.302	6
377.088	7
377.873	7
378.659	6
379.445	8
380.23	7
381.015	7
381.801	7
382.586	7
383.371	7
384.156	6
384.941	9
385.726	8
386.511	5
387.296	8
388.08	9
388.865	9
389.649	9
390.434	8
391.218	9
392.003	9
392.787	8
393.571	7
394.355	10
395.139	8
395.923	8
396.707	11
397.491	9
398.274	8
399.058	8
399.842	10
400.625	8
401.408	10
402.192	10
402.975	8
403.758	12
404.541	9
405.324	9
406.107	11
406.89	12
407.673	7
408.456	11
409.238	12
410.021	11
410.803	12
411.586	12
412.368	11
413.151	13
413.933	14
414.715	13
415.497	14
416.279	11
417.061	13
417.843	15
418.624	13
419.406	13
420.188	14
420.969	14
421.751	13
422.532	17
423.313	13
424.095	16
424.876	14
425.657	16
426.438	17
427.219	16
428	20
428.78	19
429.561	19
430.342	18
431.122	19
431.903	23
432.683	22
433.464	25
434.244	23
435.024	23
435.804	26
436.584	28
437.364	28
438.144	29
438.924	31
439.704	32
440.483	35
441.263	37
442.042	36
442.822	39
443.601	44
444.38	42
445.16	47
445.939	49
446.718	52
447.497	59
448.276	62
449.054	69
449.833	72
450.612	83
451.391	89
452.169	101
452.948	109
453.726	120
454.504	136
455.282	149
456.061	164
456.839	185
457.617	198
458.395	221
459.172	244
459.95	282
460.728	315
461.506	345
462.283	387
463.061	427
463.838	478
464.615	533
465.393	598
466.17	676
466.947	747
467.724	836
468.501	926
469.278	1040
470.055	1143
470.831	1262
471.608	1421
472.385	1590
473.161	1759
473.938	1933
474.714	2145
475.49	2382
476.266	2629
477.043	2887
477.819	3190
478.595	3573
479.371	3900
480.146	4286
480.922	4728
481.698	5180
482.473	5692
483.249	6272
484.024	6870
484.8	7558
485.575	8244
486.35	9027
487.126	9858
487.901	10838
488.676	11787
489.451	12858
490.225	13953
491	15162
491.775	16471
492.55	17754
493.324	19218
494.099	20557
494.873	21966
495.647	23514
496.422	24990
497.196	26513
497.97	28068
498.744	29487
499.518	30901
500.292	32151
501.066	33177
501.839	34363
502.613	35175
503.387	35945
504.16	36271
504.934	36501
505.707	36416
506.48	36216
507.253	35864
508.027	35339
508.8	34676
509.573	33801
510.346	32919
511.118	31801
511.891	30812
512.664	29515
513.437	28317
514.209	27110
514.982	26151
515.754	24989
516.526	23944
517.298	22882
518.071	21932
518.843	21017
519.615	20165
520.387	19311
521.159	18548
521.93	17920
522.702	17188
523.474	16464
524.245	15794
525.017	15143
525.788	14359
526.56	13753
527.331	13128
528.102	12488
528.873	11868
529.644	11268
530.415	10742
531.186	10217
531.957	9694
532.728	9101
533.498	8649
534.269	8138
535.039	7729
535.81	7264
536.58	6887
537.351	6477
538.121	6140
538.891	5808
539.661	5506
540.431	5230
541.201	4937
541.971	4681
542.741	4450
543.51	4207
544.28	4030
545.05	3800
545.819	3634
546.588	3459
547.358	3254
548.127	3088
548.896	2921
549.665	2770
550.434	2630
551.203	2489
551.972	2374
552.741	2220
553.51	2110
554.278	2006
555.047	1858
555.815	1780
556.584	1658
557.352	1588
558.121	1491
558.889	1409
559.657	1331
560.425	1254
561.193	1196
561.961	1133
562.729	1066
563.496	999
564.264	944
565.032	899
565.799	853
566.567	804
567.334	748
568.101	722
568.869	687
569.636	639
570.403	601
571.17	568
571.937	541
572.704	507
573.471	474
574.237	451
575.004	430
575.771	395
576.537	380
577.303	354
578.07	340
578.836	312
579.602	307
580.368	286
581.134	270
581.9	260
582.666	240
583.432	227
584.198	220
584.964	206
585.729	197
586.495	183
587.26	177
588.025	174
588.791	158
589.556	149
590.321	139
591.086	131
591.851	126
592.616	117
593.381	115
594.146	113
594.911	109
595.675	103
596.44	93
597.204	93
597.969	91
598.733	86
599.497	83
600.261	76
601.025	76
601.79	72
602.553	66
603.317	64
604.081	64
604.845	60
605.609	56
606.372	56
607.136	53
607.899	47
608.662	45
609.426	46
610.189	45
610.952	41
611.715	40
612.478	40
613.241	39
614.004	39
614.767	36
615.529	36
616.292	34
617.055	31
617.817	32
618.579	32
619.342	29
620.104	28
620.866	27
621.628	27
622.39	26
623.152	26
623.914	26
624.676	21
625.438	23
626.199	24
626.961	22
627.722	21
628.484	19
629.245	17
630.006	18
630.768	18
631.529	15
632.29	16
633.051	17
633.812	18
634.573	15
635.333	17
636.094	14
636.855	14
637.615	13
638.376	12
639.136	13
639.896	13
640.657	12
641.417	12
642.177	11
642.937	14
643.697	12
644.457	14
645.216	11
645.976	13
646.736	11
647.495	8
648.255	11
649.014	9
649.774	9
650.533	11
651.292	10
652.051	11
652.81	9
653.569	8
654.328	8
655.087	9
655.846	8
656.604	6
657.363	10
658.121	6
658.88	7
659.638	7
660.397	7
661.155	7
661.913	6
662.671	6
663.429	7
664.187	8
664.945	7
665.703	5
666.46	6
667.218	7
667.976	7
668.733	7
669.49	8
670.248	6
671.005	9
671.762	8
672.519	2
673.276	5
674.033	6
674.79	9
675.547	6
676.304	5
677.06	5
677.817	8
678.574	6
679.33	7
680.086	4
680.843	7
681.599	5
682.355	8
683.111	7
683.867	4
684.623	5
685.379	6
686.135	5
686.89	8
687.646	3
688.402	3
689.157	6
689.912	5
690.668	4
691.423	5
692.178	5
692.933	4
693.688	7
694.443	6
695.198	5
695.953	7
696.708	4
697.462	5
698.217	4
698.972	4
699.726	3
700.48	3
701.235	5
701.989	6
702.743	7
703.497	5
704.251	4
705.005	6
705.759	3
706.513	3
707.266	5
708.02	5
708.774	5
709.527	3
710.28	5
711.034	3
711.787	5
712.54	5
713.293	6
714.046	6
714.799	3
715.552	6
716.305	6
717.058	5
717.81	5
718.563	6
719.315	5
720.068	5
720.82	6
721.573	5
722.325	5
723.077	5
723.829	5
724.581	5
725.333	4
726.085	8
726.836	3
727.588	6
728.34	5
729.091	6
729.843	6
730.594	5
731.346	6
732.097	5
732.848	6
733.599	6
734.35	6
735.101	7
735.852	5
736.603	4
737.354	6
738.104	5
738.855	6
739.605	5
740.356	4
741.106	4
741.856	7
742.607	8
743.357	5
744.107	7
744.857	6
745.607	5
746.357	7
747.106	8
747.856	6
748.606	6
749.355	8
750.105	6
750.854	5
751.603	6
752.353	7
753.102	6
753.851	10
754.6	8
755.349	9
756.098	9
756.847	10
757.595	6
758.344	7
759.093	9
759.841	9
760.589	7
761.338	9
762.086	10
762.834	10
763.582	10
764.331	7
765.079	9
765.826	10
766.574	9
767.322	10
768.07	10
768.817	10
769.565	11
770.312	10
771.06	12
771.807	8
772.554	12
773.302	8
774.049	12
774.796	7
775.543	10
776.29	10
777.036	11
777.783	10
778.53	12
779.276	10
780.023	12
780.769	10
781.516	14
782.262	12
783.008	14
783.754	12
784.5	11
785.246	15
785.992	10
786.738	12
787.484	13
788.23	12
788.975	12
789.721	14
790.466	11
791.212	13
791.957	9
792.702	11
793.447	9
794.193	10
794.938	10
795.683	12
796.427	10
797.172	9
797.917	9
798.662	10
799.406	10
800.151	8
800.895	10
801.64	8
802.384	10
803.128	9
803.872	9
804.616	8
805.36	10
806.104	8
806.848	7
807.592	7
808.336	7
809.079	10
809.823	6
810.566	7
811.31	8
812.053	8
812.796	7
813.539	7
814.283	7
815.026	6
815.769	7
816.511	4
817.254	4
817.997	5
818.74	7
819.482	5
820.225	7
820.967	4
821.71	4
822.452	4
823.194	3
823.936	2
824.678	5
825.42	5
826.162	4
826.904	3
827.646	5
828.388	5
829.129	7
829.871	5
830.612	7
831.354	5
832.095	2
832.836	5
833.577	4
834.319	3
835.06	4
835.801	5
836.542	4
837.282	5
838.023	4
838.764	5
839.504	4
840.245	5
840.985	3
841.726	3
842.466	4
843.206	2
843.946	4
844.687	3
845.427	4
846.166	5
846.906	5
847.646	2
848.386	5
849.125	4
849.865	4
850.605	3
851.344	4
852.083	3
852.823	3
853.562	1
854.301	7
855.04	0
855.779	4
856.518	3
857.257	4
857.995	4
858.734	5
859.473	4
860.211	5
860.95	3
861.688	4
862.426	3
863.165	4
863.903	1
864.641	2
865.379	4
866.117	1
866.855	2
867.593	1
868.33	2
869.068	3
869.806	1
870.543	1
871.28	3
872.018	3
872.755	4
873.492	0
874.229	3
874.967	0
875.703	0
876.44	2
877.177	1
877.914	0
878.651	1
879.387	3
880.124	0
880.86	2
881.597	-1
882.333	2
883.069	0
883.806	1
884.542	0
885.278	-1
886.014	-1
886.749	2
887.485	-1
888.221	2
888.957	0
889.692	1
890.428	-2
891.163	2
891.899	-1
892.634	2
893.369	0
894.104	-1
894.839	1
895.574	-2
896.309	3
897.044	0
897.779	-1
898.514	0
899.248	0
899.983	0
900.717	-1
901.452	-1
902.186	-1
902.92	-2
903.654	1
904.389	0
905.123	0
905.857	-2
906.59	0
907.324	0
908.058	-1
908.792	-1
909.525	0
910.259	0
910.992	0
911.726	0
912.459	1
913.192	1
913.925	1
914.658	-1
915.391	0
916.124	0
916.857	-3
917.59	0
918.323	0
919.055	0
919.788	1
920.521	-1
921.253	0
921.985	1
922.718	-1
923.45	0
924.182	1
924.914	-1
925.646	1
926.378	1
927.11	1
927.841	0
928.573	-1
929.305	-1
930.036	0
930.768	0
931.499	0
932.23	2
932.962	-1
933.693	0
934.424	2
935.155	1
935.886	0
936.617	0
937.348	0
938.078	0
938.809	1
939.54	0
940.27	0
941.001	2
941.731	-1
942.461	-1
943.191	1
943.922	1
944.652	-2
945.382	0
946.112	0
946.841	0
947.571	0
948.301	-3
949.031	0
949.76	1
950.49	1
951.219	1
951.948	0
952.678	-2
953.407	-1
954.136	1
954.865	2
955.594	1
956.323	1
957.052	0
957.78	1
958.509	-1
959.238	0
959.966	2
960.695	-2
961.423	0
962.151	-1
962.88	0
963.608	-1
964.336	1
965.064	0
965.792	2
966.52	-1
967.247	-2
967.975	3
968.703	0
969.43	0
970.158	2
970.885	0
971.613	-1
972.34	0
973.067	2
973.794	-1
974.521	0
975.248	0
975.975	1
976.702	0
977.429	0
978.156	0
978.882	1
979.609	0
980.335	-3
981.062	-1
981.788	1
982.514	0
983.24	0
983.967	1
984.693	-1
985.419	1
986.144	-1
986.87	1
987.596	1
988.322	0
989.047	1
989.773	1
990.498	2
991.224	-1
991.949	0
992.674	0
993.399	0
994.124	0
994.849	-1
995.574	-1
996.299	0
997.024	-2
997.749	-1
998.473	1
999.198	2
999.922	-1
1000.647	-1
1001.371	1
1002.095	-2
1002.82	0
1003.544	-1
1004.268	3
1004.992	4
1005.716	1
1006.439	1
1007.163	3
1007.887	2
1008.611	1
1009.334	1
1010.058	-2
1010.781	0
1011.504	2
1012.228	0
1012.951	0
1013.674	1
1014.397	1
1015.12	0
