节点500_425_QEPB04081__566__15-57-43-429.txt的数据

Date: Wed Nov 12 15:57:43 CST 2025
User: PC
Spectrometer: QEPB0408
触发模式: 0
积分时间 (秒): 1.000000E-2
Scans to average: 1
启用暗噪声校正: true
启用非线性校正: false
滑动平均宽度: 0
X轴模式: Wavelengths
Number of Pixels in Spectrum: 1044
>>>>>Begin Spectral Data<<<<<
220.843	1.25
221.644	2.25
222.444	1.25
223.244	2.25
224.045	4.25
224.845	4.25
225.645	3.25
226.445	4.25
227.245	2.25
228.045	2.25
228.845	2.25
229.645	6.25
230.444	3.25
231.244	2.25
232.043	4.25
232.843	4.25
233.642	7.25
234.442	2.25
235.241	6.25
236.04	5.25
236.839	6.25
237.638	6.25
238.437	6.25
239.236	9.25
240.035	4.25
240.833	9.25
241.632	6.25
242.43	3.25
243.229	7.25
244.027	5.25
244.826	8.25
245.624	8.25
246.422	8.25
247.22	8.25
248.018	7.25
248.816	7.25
249.614	7.25
250.412	9.25
251.21	7.25
252.007	10.25
252.805	9.25
253.602	10.25
254.4	13.25
255.197	9.25
255.994	10.25
256.791	11.25
257.589	11.25
258.386	11.25
259.183	11.25
259.979	12.25
260.776	12.25
261.573	12.25
262.37	17.25
263.166	15.25
263.963	14.25
264.759	13.25
265.556	14.25
266.352	14.25
267.148	14.25
267.944	18.25
268.74	20.25
269.536	17.25
270.332	15.25
271.128	18.25
271.924	21.25
272.719	16.25
273.515	20.25
274.311	22.25
275.106	20.25
275.901	19.25
276.697	19.25
277.492	20.25
278.287	17.25
279.082	24.25
279.877	20.25
280.672	23.25
281.467	23.25
282.262	21.25
283.056	22.25
283.851	22.25
284.646	25.25
285.44	22.25
286.234	20.25
287.029	20.25
287.823	22.25
288.617	21.25
289.411	22.25
290.205	21.25
290.999	24.25
291.793	22.25
292.587	23.25
293.381	21.25
294.174	23.25
294.968	20.25
295.761	18.25
296.555	18.25
297.348	21.25
298.141	20.25
298.935	18.25
299.728	20.25
300.521	17.25
301.314	18.25
302.107	18.25
302.899	14.25
303.692	16.25
304.485	16.25
305.277	17.25
306.07	14.25
306.862	14.25
307.655	14.25
308.447	12.25
309.239	14.25
310.031	17.25
310.823	10.25
311.615	14.25
312.407	14.25
313.199	12.25
313.991	13.25
314.783	12.25
315.574	9.25
316.366	10.25
317.157	11.25
317.949	9.25
318.74	10.25
319.531	10.25
320.322	10.25
321.113	11.25
321.904	11.25
322.695	11.25
323.486	9.25
324.277	11.25
325.068	8.25
325.858	10.25
326.649	10.25
327.439	10.25
328.23	8.25
329.02	10.25
329.81	8.25
330.6	8.25
331.391	8.25
332.181	9.25
332.971	10.25
333.76	10.25
334.55	11.25
335.34	7.25
336.13	8.25
336.919	7.25
337.709	8.25
338.498	8.25
339.287	7.25
340.077	10.25
340.866	8.25
341.655	6.25
342.444	6.25
343.233	7.25
344.022	6.25
344.811	8.25
345.6	9.25
346.388	8.25
347.177	4.25
347.965	7.25
348.754	7.25
349.542	11.25
350.33	9.25
351.119	7.25
351.907	5.25
352.695	7.25
353.483	7.25
354.271	7.25
355.059	6.25
355.846	6.25
356.634	7.25
357.422	8.25
358.209	7.25
358.997	9.25
359.784	7.25
360.571	7.25
361.359	9.25
362.146	7.25
362.933	6.25
363.72	9.25
364.507	7.25
365.294	2.25
366.081	9.25
366.867	6.25
367.654	6.25
368.44	7.25
369.227	5.25
370.013	6.25
370.8	5.25
371.586	6.25
372.372	6.25
373.158	6.25
373.944	6.25
374.73	8.25
375.516	8.25
376.302	5.25
377.088	8.25
377.873	8.25
378.659	9.25
379.445	7.25
380.23	5.25
381.015	4.25
381.801	6.25
382.586	6.25
383.371	6.25
384.156	7.25
384.941	9.25
385.726	7.25
386.511	5.25
387.296	6.25
388.08	6.25
388.865	10.25
389.649	8.25
390.434	8.25
391.218	8.25
392.003	6.25
392.787	8.25
393.571	9.25
394.355	7.25
395.139	7.25
395.923	6.25
396.707	7.25
397.491	8.25
398.274	7.25
399.058	6.25
399.842	8.25
400.625	8.25
401.408	8.25
402.192	9.25
402.975	10.25
403.758	9.25
404.541	10.25
405.324	8.25
406.107	12.25
406.89	10.25
407.673	11.25
408.456	11.25
409.238	10.25
410.021	9.25
410.803	11.25
411.586	12.25
412.368	10.25
413.151	12.25
413.933	10.25
414.715	10.25
415.497	11.25
416.279	11.25
417.061	11.25
417.843	9.25
418.624	10.25
419.406	14.25
420.188	12.25
420.969	12.25
421.751	14.25
422.532	16.25
423.313	13.25
424.095	16.25
424.876	14.25
425.657	13.25
426.438	16.25
427.219	19.25
428	18.25
428.78	15.25
429.561	17.25
430.342	17.25
431.122	16.25
431.903	23.25
432.683	23.25
433.464	21.25
434.244	24.25
435.024	22.25
435.804	26.25
436.584	26.25
437.364	30.25
438.144	30.25
438.924	29.25
439.704	31.25
440.483	34.25
441.263	38.25
442.042	42.25
442.822	40.25
443.601	46.25
444.38	47.25
445.16	54.25
445.939	55.25
446.718	59.25
447.497	64.25
448.276	68.25
449.054	79.25
449.833	88.25
450.612	90.25
451.391	100.25
452.169	111.25
452.948	125.25
453.726	135.25
454.504	152.25
455.282	166.25
456.061	181.25
456.839	204.25
457.617	226.25
458.395	251.25
459.172	273.25
459.95	308.25
460.728	342.25
461.506	383.25
462.283	434.25
463.061	476.25
463.838	539.25
464.615	606.25
465.393	669.25
466.17	733.25
466.947	816.25
467.724	898.25
468.501	999.25
469.278	1115.25
470.055	1200.25
470.831	1345.25
471.608	1472.25
472.385	1640.25
473.161	1787.25
473.938	1976.25
474.714	2169.25
475.49	2383.25
476.266	2615.25
477.043	2855.25
477.819	3125.25
478.595	3395.25
479.371	3740.25
480.146	4068.25
480.922	4431.25
481.698	4827.25
482.473	5238.25
483.249	5702.25
484.024	6221.25
484.8	6814.25
485.575	7358.25
486.35	7974.25
487.126	8622.25
487.901	9354.25
488.676	10137.25
489.451	10992.25
490.225	11909.25
491	12790.25
491.775	13832.25
492.55	14864.25
493.324	15956.25
494.099	17082.25
494.873	18205.25
495.647	19431.25
496.422	20630.25
497.196	21894.25
497.97	23191.25
498.744	24466.25
499.518	25724.25
500.292	26880.25
501.066	27986.25
501.839	29113.25
502.613	30031.25
503.387	30869.25
504.16	31495.25
504.934	32104.25
505.707	32376.25
506.48	32512.25
507.253	32567.25
508.027	32463.25
508.8	32236.25
509.573	31805.25
510.346	31268.25
511.118	30587.25
511.891	29815.25
512.664	29017.25
513.437	28061.25
514.209	27074.25
514.982	26226.25
515.754	25267.25
516.526	24221.25
517.298	23328.25
518.071	22329.25
518.843	21458.25
519.615	20565.25
520.387	19818.25
521.159	19013.25
521.93	18322.25
522.702	17560.25
523.474	16900.25
524.245	16291.25
525.017	15565.25
525.788	14815.25
526.56	14155.25
527.331	13609.25
528.102	13020.25
528.873	12425.25
529.644	11847.25
530.415	11326.25
531.186	10828.25
531.957	10294.25
532.728	9773.25
533.498	9260.25
534.269	8748.25
535.039	8332.25
535.81	7869.25
536.58	7450.25
537.351	7043.25
538.121	6650.25
538.891	6307.25
539.661	5977.25
540.431	5704.25
541.201	5350.25
541.971	5076.25
542.741	4804.25
543.51	4611.25
544.28	4342.25
545.05	4126.25
545.819	3950.25
546.588	3758.25
547.358	3539.25
548.127	3362.25
548.896	3204.25
549.665	3061.25
550.434	2897.25
551.203	2765.25
551.972	2625.25
552.741	2460.25
553.51	2335.25
554.278	2199.25
555.047	2073.25
555.815	1972.25
556.584	1867.25
557.352	1774.25
558.121	1649.25
558.889	1564.25
559.657	1477.25
560.425	1403.25
561.193	1320.25
561.961	1251.25
562.729	1186.25
563.496	1131.25
564.264	1069.25
565.032	1013.25
565.799	954.25
566.567	905.25
567.334	849.25
568.101	800.25
568.869	760.25
569.636	712.25
570.403	663.25
571.17	627.25
571.937	603.25
572.704	570.25
573.471	531.25
574.237	502.25
575.004	475.25
575.771	452.25
576.537	422.25
577.303	394.25
578.07	370.25
578.836	353.25
579.602	339.25
580.368	321.25
581.134	296.25
581.9	285.25
582.666	270.25
583.432	263.25
584.198	238.25
584.964	232.25
585.729	219.25
586.495	207.25
587.26	198.25
588.025	188.25
588.791	172.25
589.556	172.25
590.321	156.25
591.086	152.25
591.851	142.25
592.616	136.25
593.381	129.25
594.146	122.25
594.911	116.25
595.675	115.25
596.44	107.25
597.204	99.25
597.969	102.25
598.733	98.25
599.497	92.25
600.261	85.25
601.025	81.25
601.79	74.25
602.553	74.25
603.317	71.25
604.081	69.25
604.845	67.25
605.609	59.25
606.372	60.25
607.136	58.25
607.899	54.25
608.662	53.25
609.426	50.25
610.189	50.25
610.952	46.25
611.715	45.25
612.478	43.25
613.241	44.25
614.004	42.25
614.767	39.25
615.529	37.25
616.292	35.25
617.055	35.25
617.817	31.25
618.579	33.25
619.342	32.25
620.104	33.25
620.866	32.25
621.628	28.25
622.39	28.25
623.152	26.25
623.914	27.25
624.676	26.25
625.438	26.25
626.199	20.25
626.961	23.25
627.722	20.25
628.484	23.25
629.245	21.25
630.006	19.25
630.768	19.25
631.529	18.25
632.29	18.25
633.051	19.25
633.812	15.25
634.573	18.25
635.333	16.25
636.094	14.25
636.855	16.25
637.615	14.25
638.376	14.25
639.136	16.25
639.896	17.25
640.657	14.25
641.417	12.25
642.177	13.25
642.937	12.25
643.697	12.25
644.457	11.25
645.216	13.25
645.976	8.25
646.736	11.25
647.495	10.25
648.255	11.25
649.014	10.25
649.774	11.25
650.533	10.25
651.292	10.25
652.051	11.25
652.81	8.25
653.569	9.25
654.328	10.25
655.087	7.25
655.846	7.25
656.604	9.25
657.363	7.25
658.121	8.25
658.88	9.25
659.638	9.25
660.397	8.25
661.155	7.25
661.913	7.25
662.671	5.25
663.429	7.25
664.187	4.25
664.945	7.25
665.703	4.25
666.46	8.25
667.218	6.25
667.976	6.25
668.733	7.25
669.49	5.25
670.248	7.25
671.005	7.25
671.762	5.25
672.519	4.25
673.276	7.25
674.033	6.25
674.79	6.25
675.547	6.25
676.304	7.25
677.06	7.25
677.817	8.25
678.574	4.25
679.33	4.25
680.086	6.25
680.843	5.25
681.599	4.25
682.355	6.25
683.111	4.25
683.867	7.25
684.623	4.25
685.379	3.25
686.135	4.25
686.89	4.25
687.646	4.25
688.402	3.25
689.157	6.25
689.912	3.25
690.668	6.25
691.423	3.25
692.178	7.25
692.933	5.25
693.688	3.25
694.443	5.25
695.198	5.25
695.953	3.25
696.708	4.25
697.462	3.25
698.217	4.25
698.972	5.25
699.726	5.25
700.48	3.25
701.235	4.25
701.989	4.25
702.743	7.25
703.497	5.25
704.251	5.25
705.005	4.25
705.759	6.25
706.513	4.25
707.266	6.25
708.02	4.25
708.774	6.25
709.527	2.25
710.28	5.25
711.034	3.25
711.787	6.25
712.54	6.25
713.293	4.25
714.046	5.25
714.799	6.25
715.552	5.25
716.305	4.25
717.058	4.25
717.81	5.25
718.563	2.25
719.315	7.25
720.068	2.25
720.82	4.25
721.573	3.25
722.325	2.25
723.077	5.25
723.829	8.25
724.581	6.25
725.333	5.25
726.085	5.25
726.836	4.25
727.588	5.25
728.34	6.25
729.091	4.25
729.843	4.25
730.594	7.25
731.346	4.25
732.097	7.25
732.848	4.25
733.599	6.25
734.35	4.25
735.101	6.25
735.852	6.25
736.603	5.25
737.354	6.25
738.104	7.25
738.855	8.25
739.605	5.25
740.356	4.25
741.106	4.25
741.856	6.25
742.607	6.25
743.357	6.25
744.107	6.25
744.857	6.25
745.607	6.25
746.357	6.25
747.106	6.25
747.856	5.25
748.606	6.25
749.355	7.25
750.105	5.25
750.854	5.25
751.603	7.25
752.353	6.25
753.102	9.25
753.851	8.25
754.6	5.25
755.349	5.25
756.098	6.25
756.847	6.25
757.595	5.25
758.344	6.25
759.093	9.25
759.841	8.25
760.589	10.25
761.338	6.25
762.086	5.25
762.834	8.25
763.582	7.25
764.331	8.25
765.079	9.25
765.826	7.25
766.574	8.25
767.322	7.25
768.07	10.25
768.817	9.25
769.565	10.25
770.312	10.25
771.06	11.25
771.807	9.25
772.554	10.25
773.302	10.25
774.049	8.25
774.796	9.25
775.543	12.25
776.29	7.25
777.036	9.25
777.783	10.25
778.53	10.25
779.276	10.25
780.023	9.25
780.769	10.25
781.516	10.25
782.262	12.25
783.008	9.25
783.754	10.25
784.5	10.25
785.246	8.25
785.992	11.25
786.738	10.25
787.484	8.25
788.23	10.25
788.975	12.25
789.721	12.25
790.466	10.25
791.212	9.25
791.957	9.25
792.702	8.25
793.447	11.25
794.193	8.25
794.938	10.25
795.683	8.25
796.427	9.25
797.172	10.25
797.917	10.25
798.662	7.25
799.406	8.25
800.151	10.25
800.895	10.25
801.64	7.25
802.384	8.25
803.128	6.25
803.872	9.25
804.616	9.25
805.36	9.25
806.104	9.25
806.848	5.25
807.592	5.25
808.336	5.25
809.079	8.25
809.823	7.25
810.566	9.25
811.31	8.25
812.053	5.25
812.796	8.25
813.539	8.25
814.283	9.25
815.026	6.25
815.769	6.25
816.511	9.25
817.254	6.25
817.997	7.25
818.74	4.25
819.482	8.25
820.225	6.25
820.967	5.25
821.71	6.25
822.452	6.25
823.194	4.25
823.936	7.25
824.678	3.25
825.42	5.25
826.162	7.25
826.904	8.25
827.646	5.25
828.388	3.25
829.129	5.25
829.871	3.25
830.612	5.25
831.354	5.25
832.095	6.25
832.836	3.25
833.577	3.25
834.319	4.25
835.06	4.25
835.801	7.25
836.542	3.25
837.282	3.25
838.023	6.25
838.764	5.25
839.504	4.25
840.245	4.25
840.985	4.25
841.726	6.25
842.466	3.25
843.206	4.25
843.946	2.25
844.687	3.25
845.427	4.25
846.166	3.25
846.906	4.25
847.646	4.25
848.386	2.25
849.125	3.25
849.865	4.25
850.605	4.25
851.344	1.25
852.083	4.25
852.823	-0.75
853.562	4.25
854.301	2.25
855.04	2.25
855.779	2.25
856.518	1.25
857.257	3.25
857.995	2.25
858.734	3.25
859.473	2.25
860.211	3.25
860.95	2.25
861.688	4.25
862.426	4.25
863.165	1.25
863.903	1.25
864.641	2.25
865.379	1.25
866.117	5.25
866.855	2.25
867.593	2.25
868.33	2.25
869.068	2.25
869.806	2.25
870.543	2.25
871.28	4.25
872.018	4.25
872.755	0.25
873.492	2.25
874.229	1.25
874.967	4.25
875.703	1.25
876.44	0.25
877.177	1.25
877.914	2.25
878.651	2.25
879.387	0.25
880.124	2.25
880.86	2.25
881.597	2.25
882.333	0.25
883.069	2.25
883.806	0.25
884.542	0.25
885.278	2.25
886.014	0.25
886.749	0.25
887.485	1.25
888.221	0.25
888.957	2.25
889.692	1.25
890.428	2.25
891.163	0.25
891.899	0.25
892.634	4.25
893.369	0.25
894.104	2.25
894.839	0.25
895.574	-1.75
896.309	2.25
897.044	1.25
897.779	2.25
898.514	-1.75
899.248	1.25
899.983	2.25
900.717	1.25
901.452	0.25
902.186	2.25
902.92	0.25
903.654	-0.75
904.389	0.25
905.123	-1.75
905.857	2.25
906.59	2.25
907.324	0.25
908.058	0.25
908.792	1.25
909.525	2.25
910.259	1.25
910.992	0.25
911.726	1.25
912.459	1.25
913.192	-0.75
913.925	0.25
914.658	2.25
915.391	1.25
916.124	-1.75
916.857	-0.75
917.59	2.25
918.323	0.25
919.055	1.25
919.788	0.25
920.521	-0.75
921.253	-0.75
921.985	0.25
922.718	0.25
923.45	1.25
924.182	2.25
924.914	-0.75
925.646	0.25
926.378	0.25
927.11	0.25
927.841	0.25
928.573	0.25
929.305	0.25
930.036	-0.75
930.768	0.25
931.499	0.25
932.23	-0.75
932.962	0.25
933.693	0.25
934.424	0.25
935.155	1.25
935.886	-0.75
936.617	-0.75
937.348	0.25
938.078	-0.75
938.809	-0.75
939.54	1.25
940.27	1.25
941.001	-1.75
941.731	0.25
942.461	1.25
943.191	2.25
943.922	-1.75
944.652	-1.75
945.382	-0.75
946.112	-0.75
946.841	0.25
947.571	-0.75
948.301	-0.75
949.031	-1.75
949.76	-0.75
950.49	1.25
951.219	-0.75
951.948	0.25
952.678	-1.75
953.407	1.25
954.136	0.25
954.865	-0.75
955.594	3.25
956.323	-1.75
957.052	1.25
957.78	0.25
958.509	-1.75
959.238	-0.75
959.966	0.25
960.695	1.25
961.423	-0.75
962.151	2.25
962.88	0.25
963.608	0.25
964.336	1.25
965.064	0.25
965.792	2.25
966.52	-0.75
967.247	0.25
967.975	0.25
968.703	0.25
969.43	0.25
970.158	-0.75
970.885	1.25
971.613	0.25
972.34	-1.75
973.067	2.25
973.794	0.25
974.521	1.25
975.248	0.25
975.975	0.25
976.702	-1.75
977.429	-0.75
978.156	-0.75
978.882	-2.75
979.609	2.25
980.335	0.25
981.062	1.25
981.788	-0.75
982.514	-1.75
983.24	0.25
983.967	-0.75
984.693	0.25
985.419	0.25
986.144	1.25
986.87	-0.75
987.596	1.25
988.322	2.25
989.047	-2.75
989.773	1.25
990.498	2.25
991.224	0.25
991.949	0.25
992.674	-1.75
993.399	1.25
994.124	-0.75
994.849	-0.75
995.574	3.25
996.299	0.25
997.024	-0.75
997.749	0.25
998.473	0.25
999.198	-1.75
999.922	1.25
1000.647	1.25
1001.371	3.25
1002.095	0.25
1002.82	0.25
1003.544	-1.75
1004.268	2.25
1004.992	2.25
1005.716	5.25
1006.439	3.25
1007.163	1.25
1007.887	4.25
1008.611	1.25
1009.334	-1.75
1010.058	0.25
1010.781	-0.75
1011.504	-0.75
1012.228	0.25
1012.951	1.25
1013.674	-1.75
1014.397	-0.75
1015.12	-0.75
