节点500_425_QEPB04081__579__15-57-56-440.txt的数据

Date: Wed Nov 12 15:57:56 CST 2025
User: PC
Spectrometer: QEPB0408
触发模式: 0
积分时间 (秒): 1.000000E-2
Scans to average: 1
启用暗噪声校正: true
启用非线性校正: false
滑动平均宽度: 0
X轴模式: Wavelengths
Number of Pixels in Spectrum: 1044
>>>>>Begin Spectral Data<<<<<
220.843	2
221.644	3
222.444	2
223.244	3
224.045	4
224.845	4
225.645	2
226.445	4
227.245	5
228.045	4
228.845	4
229.645	3
230.444	2
231.244	3
232.043	4
232.843	4
233.642	4
234.442	5
235.241	4
236.04	6
236.839	6
237.638	6
238.437	5
239.236	4
240.035	4
240.833	5
241.632	6
242.43	6
243.229	6
244.027	7
244.826	6
245.624	10
246.422	7
247.22	6
248.018	9
248.816	8
249.614	8
250.412	7
251.21	10
252.007	9
252.805	10
253.602	6
254.4	8
255.197	10
255.994	10
256.791	11
257.589	10
258.386	12
259.183	13
259.979	11
260.776	12
261.573	15
262.37	12
263.166	14
263.963	14
264.759	14
265.556	13
266.352	16
267.148	15
267.944	16
268.74	17
269.536	16
270.332	17
271.128	19
271.924	19
272.719	22
273.515	21
274.311	20
275.106	22
275.901	18
276.697	20
277.492	19
278.287	22
279.082	22
279.877	22
280.672	23
281.467	24
282.262	21
283.056	23
283.851	21
284.646	23
285.44	23
286.234	22
287.029	24
287.823	19
288.617	21
289.411	23
290.205	22
290.999	21
291.793	20
292.587	22
293.381	19
294.174	20
294.968	18
295.761	22
296.555	19
297.348	17
298.141	19
298.935	21
299.728	20
300.521	16
301.314	16
302.107	18
302.899	16
303.692	16
304.485	16
305.277	16
306.07	13
306.862	16
307.655	17
308.447	16
309.239	14
310.031	14
310.823	12
311.615	14
312.407	12
313.199	12
313.991	11
314.783	10
315.574	11
316.366	12
317.157	11
317.949	12
318.74	12
319.531	11
320.322	10
321.113	10
321.904	13
322.695	8
323.486	8
324.277	8
325.068	8
325.858	10
326.649	9
327.439	7
328.23	7
329.02	9
329.81	11
330.6	8
331.391	9
332.181	8
332.971	9
333.76	9
334.55	7
335.34	9
336.13	7
336.919	7
337.709	9
338.498	8
339.287	11
340.077	10
340.866	9
341.655	7
342.444	8
343.233	9
344.022	6
344.811	7
345.6	8
346.388	9
347.177	9
347.965	8
348.754	8
349.542	8
350.33	7
351.119	8
351.907	9
352.695	9
353.483	6
354.271	8
355.059	6
355.846	8
356.634	7
357.422	8
358.209	8
358.997	7
359.784	7
360.571	8
361.359	9
362.146	8
362.933	5
363.72	8
364.507	7
365.294	7
366.081	5
366.867	8
367.654	6
368.44	7
369.227	5
370.013	6
370.8	7
371.586	5
372.372	4
373.158	6
373.944	6
374.73	6
375.516	4
376.302	6
377.088	8
377.873	8
378.659	4
379.445	6
380.23	6
381.015	5
381.801	4
382.586	8
383.371	5
384.156	5
384.941	7
385.726	6
386.511	6
387.296	7
388.08	7
388.865	6
389.649	7
390.434	7
391.218	8
392.003	9
392.787	6
393.571	9
394.355	9
395.139	8
395.923	9
396.707	8
397.491	9
398.274	8
399.058	8
399.842	8
400.625	6
401.408	9
402.192	8
402.975	10
403.758	9
404.541	8
405.324	10
406.107	8
406.89	14
407.673	10
408.456	11
409.238	10
410.021	11
410.803	12
411.586	11
412.368	9
413.151	11
413.933	10
414.715	10
415.497	11
416.279	13
417.061	11
417.843	13
418.624	13
419.406	13
420.188	14
420.969	13
421.751	16
422.532	14
423.313	15
424.095	14
424.876	15
425.657	16
426.438	18
427.219	16
428	18
428.78	16
429.561	16
430.342	18
431.122	21
431.903	19
432.683	21
433.464	21
434.244	24
435.024	24
435.804	26
436.584	26
437.364	26
438.144	29
438.924	30
439.704	33
440.483	36
441.263	34
442.042	41
442.822	42
443.601	43
444.38	45
445.16	52
445.939	57
446.718	61
447.497	64
448.276	76
449.054	74
449.833	84
450.612	92
451.391	98
452.169	112
452.948	127
453.726	134
454.504	152
455.282	170
456.061	185
456.839	203
457.617	225
458.395	254
459.172	283
459.95	315
460.728	359
461.506	391
462.283	432
463.061	478
463.838	542
464.615	600
465.393	662
466.17	737
466.947	814
467.724	907
468.501	990
469.278	1100
470.055	1217
470.831	1345
471.608	1471
472.385	1638
473.161	1780
473.938	1956
474.714	2169
475.49	2364
476.266	2616
477.043	2828
477.819	3127
478.595	3403
479.371	3723
480.146	4055
480.922	4424
481.698	4802
482.473	5241
483.249	5688
484.024	6227
484.8	6757
485.575	7346
486.35	7976
487.126	8637
487.901	9377
488.676	10115
489.451	10958
490.225	11870
491	12784
491.775	13777
492.55	14839
493.324	15908
494.099	16990
494.873	18123
495.647	19352
496.422	20531
497.196	21812
497.97	23176
498.744	24433
499.518	25692
500.292	26782
501.066	27837
501.839	29037
502.613	30074
503.387	30846
504.16	31458
504.934	32033
505.707	32315
506.48	32484
507.253	32550
508.027	32372
508.8	32183
509.573	31713
510.346	31247
511.118	30537
511.891	29825
512.664	28995
513.437	28033
514.209	27065
514.982	26151
515.754	25274
516.526	24234
517.298	23293
518.071	22306
518.843	21401
519.615	20652
520.387	19762
521.159	19009
521.93	18314
522.702	17577
523.474	16915
524.245	16227
525.017	15532
525.788	14804
526.56	14168
527.331	13603
528.102	12998
528.873	12443
529.644	11832
530.415	11331
531.186	10891
531.957	10315
532.728	9757
533.498	9250
534.269	8767
535.039	8320
535.81	7862
536.58	7454
537.351	7039
538.121	6650
538.891	6303
539.661	5992
540.431	5665
541.201	5362
541.971	5077
542.741	4812
543.51	4588
544.28	4334
545.05	4126
545.819	3934
546.588	3763
547.358	3568
548.127	3330
548.896	3227
549.665	3082
550.434	2906
551.203	2757
551.972	2586
552.741	2445
553.51	2332
554.278	2197
555.047	2085
555.815	1963
556.584	1877
557.352	1761
558.121	1653
558.889	1568
559.657	1487
560.425	1400
561.193	1342
561.961	1273
562.729	1189
563.496	1130
564.264	1073
565.032	1011
565.799	938
566.567	896
567.334	850
568.101	813
568.869	757
569.636	708
570.403	675
571.17	627
571.937	602
572.704	561
573.471	539
574.237	507
575.004	478
575.771	452
576.537	411
577.303	402
578.07	380
578.836	348
579.602	339
580.368	315
581.134	298
581.9	284
582.666	266
583.432	251
584.198	243
584.964	235
585.729	226
586.495	204
587.26	192
588.025	184
588.791	175
589.556	170
590.321	154
591.086	151
591.851	144
592.616	134
593.381	128
594.146	123
594.911	117
595.675	112
596.44	109
597.204	100
597.969	97
598.733	97
599.497	89
600.261	86
601.025	84
601.79	82
602.553	76
603.317	74
604.081	68
604.845	66
605.609	65
606.372	59
607.136	55
607.899	56
608.662	51
609.426	53
610.189	47
610.952	48
611.715	46
612.478	43
613.241	40
614.004	39
614.767	39
615.529	35
616.292	38
617.055	36
617.817	35
618.579	34
619.342	33
620.104	28
620.866	29
621.628	29
622.39	27
623.152	28
623.914	26
624.676	26
625.438	24
626.199	21
626.961	20
627.722	22
628.484	21
629.245	19
630.006	18
630.768	17
631.529	20
632.29	18
633.051	16
633.812	16
634.573	17
635.333	15
636.094	16
636.855	16
637.615	16
638.376	16
639.136	16
639.896	16
640.657	14
641.417	12
642.177	14
642.937	13
643.697	12
644.457	10
645.216	11
645.976	10
646.736	12
647.495	10
648.255	10
649.014	10
649.774	10
650.533	9
651.292	10
652.051	10
652.81	10
653.569	10
654.328	11
655.087	8
655.846	8
656.604	8
657.363	8
658.121	9
658.88	9
659.638	4
660.397	7
661.155	8
661.913	9
662.671	8
663.429	5
664.187	7
664.945	5
665.703	8
666.46	6
667.218	6
667.976	8
668.733	5
669.49	5
670.248	7
671.005	8
671.762	6
672.519	6
673.276	7
674.033	4
674.79	4
675.547	5
676.304	5
677.06	9
677.817	5
678.574	6
679.33	7
680.086	4
680.843	3
681.599	6
682.355	8
683.111	5
683.867	3
684.623	3
685.379	3
686.135	6
686.89	5
687.646	8
688.402	7
689.157	4
689.912	7
690.668	4
691.423	6
692.178	5
692.933	3
693.688	3
694.443	6
695.198	4
695.953	4
696.708	5
697.462	5
698.217	5
698.972	6
699.726	4
700.48	5
701.235	3
701.989	4
702.743	3
703.497	5
704.251	5
705.005	2
705.759	8
706.513	5
707.266	5
708.02	4
708.774	5
709.527	2
710.28	4
711.034	5
711.787	6
712.54	5
713.293	6
714.046	5
714.799	5
715.552	6
716.305	8
717.058	7
717.81	6
718.563	4
719.315	5
720.068	6
720.82	2
721.573	5
722.325	6
723.077	4
723.829	5
724.581	7
725.333	5
726.085	7
726.836	4
727.588	3
728.34	5
729.091	6
729.843	8
730.594	6
731.346	5
732.097	3
732.848	8
733.599	2
734.35	6
735.101	4
735.852	6
736.603	3
737.354	6
738.104	4
738.855	8
739.605	6
740.356	8
741.106	7
741.856	5
742.607	6
743.357	8
744.107	8
744.857	3
745.607	5
746.357	5
747.106	6
747.856	4
748.606	7
749.355	7
750.105	5
750.854	7
751.603	7
752.353	6
753.102	6
753.851	7
754.6	8
755.349	8
756.098	6
756.847	7
757.595	7
758.344	11
759.093	4
759.841	10
760.589	7
761.338	6
762.086	6
762.834	5
763.582	6
764.331	7
765.079	9
765.826	9
766.574	10
767.322	7
768.07	9
768.817	11
769.565	9
770.312	9
771.06	8
771.807	7
772.554	9
773.302	7
774.049	9
774.796	10
775.543	11
776.29	8
777.036	6
777.783	11
778.53	10
779.276	9
780.023	10
780.769	8
781.516	8
782.262	10
783.008	7
783.754	9
784.5	12
785.246	10
785.992	13
786.738	11
787.484	10
788.23	10
788.975	10
789.721	11
790.466	9
791.212	9
791.957	10
792.702	10
793.447	10
794.193	10
794.938	7
795.683	10
796.427	9
797.172	9
797.917	9
798.662	8
799.406	6
800.151	8
800.895	8
801.64	9
802.384	9
803.128	8
803.872	5
804.616	10
805.36	9
806.104	8
806.848	8
807.592	6
808.336	8
809.079	5
809.823	8
810.566	7
811.31	7
812.053	6
812.796	8
813.539	8
814.283	5
815.026	6
815.769	8
816.511	7
817.254	4
817.997	5
818.74	7
819.482	8
820.225	7
820.967	6
821.71	4
822.452	4
823.194	4
823.936	5
824.678	5
825.42	5
826.162	6
826.904	4
827.646	1
828.388	5
829.129	3
829.871	7
830.612	5
831.354	7
832.095	6
832.836	7
833.577	2
834.319	4
835.06	5
835.801	3
836.542	4
837.282	6
838.023	4
838.764	5
839.504	4
840.245	4
840.985	4
841.726	4
842.466	4
843.206	6
843.946	5
844.687	4
845.427	4
846.166	4
846.906	4
847.646	4
848.386	3
849.125	4
849.865	3
850.605	4
851.344	3
852.083	2
852.823	5
853.562	4
854.301	2
855.04	4
855.779	2
856.518	4
857.257	3
857.995	3
858.734	2
859.473	2
860.211	4
860.95	3
861.688	3
862.426	4
863.165	3
863.903	4
864.641	2
865.379	2
866.117	3
866.855	2
867.593	2
868.33	5
869.068	0
869.806	1
870.543	2
871.28	1
872.018	2
872.755	2
873.492	1
874.229	4
874.967	3
875.703	3
876.44	0
877.177	3
877.914	1
878.651	1
879.387	1
880.124	2
880.86	3
881.597	2
882.333	2
883.069	1
883.806	-1
884.542	0
885.278	0
886.014	1
886.749	3
887.485	-1
888.221	1
888.957	1
889.692	2
890.428	1
891.163	2
891.899	1
892.634	2
893.369	0
894.104	3
894.839	0
895.574	1
896.309	1
897.044	0
897.779	-1
898.514	1
899.248	0
899.983	0
900.717	0
901.452	0
902.186	1
902.92	1
903.654	1
904.389	1
905.123	1
905.857	1
906.59	1
907.324	1
908.058	2
908.792	2
909.525	2
910.259	2
910.992	0
911.726	-2
912.459	1
913.192	0
913.925	1
914.658	-1
915.391	1
916.124	0
916.857	0
917.59	0
918.323	1
919.055	1
919.788	-1
920.521	-2
921.253	2
921.985	0
922.718	2
923.45	2
924.182	-1
924.914	0
925.646	-2
926.378	-1
927.11	1
927.841	0
928.573	0
929.305	0
930.036	2
930.768	-1
931.499	-2
932.23	-2
932.962	0
933.693	-2
934.424	-2
935.155	1
935.886	0
936.617	1
937.348	0
938.078	-1
938.809	2
939.54	-1
940.27	0
941.001	0
941.731	0
942.461	0
943.191	2
943.922	0
944.652	1
945.382	2
946.112	-2
946.841	0
947.571	2
948.301	-1
949.031	0
949.76	0
950.49	-2
951.219	0
951.948	0
952.678	1
953.407	-1
954.136	-1
954.865	-1
955.594	-2
956.323	0
957.052	-1
957.78	2
958.509	1
959.238	0
959.966	3
960.695	0
961.423	2
962.151	0
962.88	-2
963.608	2
964.336	0
965.064	0
965.792	1
966.52	2
967.247	0
967.975	0
968.703	1
969.43	1
970.158	1
970.885	2
971.613	0
972.34	0
973.067	0
973.794	1
974.521	1
975.248	2
975.975	-1
976.702	1
977.429	-2
978.156	-2
978.882	-2
979.609	-2
980.335	-1
981.062	0
981.788	1
982.514	0
983.24	-2
983.967	2
984.693	0
985.419	0
986.144	2
986.87	0
987.596	-1
988.322	-2
989.047	1
989.773	2
990.498	2
991.224	0
991.949	0
992.674	0
993.399	0
994.124	1
994.849	2
995.574	-2
996.299	1
997.024	2
997.749	-1
998.473	0
999.198	-1
999.922	0
1000.647	1
1001.371	3
1002.095	-2
1002.82	-1
1003.544	0
1004.268	3
1004.992	1
1005.716	2
1006.439	0
1007.163	2
1007.887	2
1008.611	1
1009.334	1
1010.058	-1
1010.781	-1
1011.504	-1
1012.228	-1
1012.951	1
1013.674	-2
1014.397	1
1015.12	0
