节点500_425_QEPB04081__619__15-58-36-421.txt的数据

Date: Wed Nov 12 15:58:36 CST 2025
User: PC
Spectrometer: QEPB0408
触发模式: 0
积分时间 (秒): 1.000000E-2
Scans to average: 1
启用暗噪声校正: true
启用非线性校正: false
滑动平均宽度: 0
X轴模式: Wavelengths
Number of Pixels in Spectrum: 1044
>>>>>Begin Spectral Data<<<<<
220.843	0.5
221.644	2.5
222.444	2.5
223.244	1.5
224.045	3.5
224.845	0.5
225.645	2.5
226.445	4.5
227.245	2.5
228.045	4.5
228.845	3.5
229.645	4.5
230.444	4.5
231.244	2.5
232.043	5.5
232.843	5.5
233.642	7.5
234.442	8.5
235.241	5.5
236.04	3.5
236.839	6.5
237.638	6.5
238.437	8.5
239.236	7.5
240.035	6.5
240.833	6.5
241.632	7.5
242.43	8.5
243.229	9.5
244.027	7.5
244.826	6.5
245.624	3.5
246.422	8.5
247.22	8.5
248.018	7.5
248.816	8.5
249.614	7.5
250.412	6.5
251.21	7.5
252.007	9.5
252.805	10.5
253.602	8.5
254.4	9.5
255.197	11.5
255.994	10.5
256.791	11.5
257.589	10.5
258.386	13.5
259.183	12.5
259.979	9.5
260.776	14.5
261.573	12.5
262.37	14.5
263.166	12.5
263.963	14.5
264.759	17.5
265.556	16.5
266.352	15.5
267.148	16.5
267.944	14.5
268.74	14.5
269.536	17.5
270.332	18.5
271.128	17.5
271.924	19.5
272.719	19.5
273.515	22.5
274.311	18.5
275.106	21.5
275.901	22.5
276.697	22.5
277.492	21.5
278.287	18.5
279.082	22.5
279.877	23.5
280.672	21.5
281.467	20.5
282.262	22.5
283.056	21.5
283.851	21.5
284.646	21.5
285.44	22.5
286.234	23.5
287.029	20.5
287.823	24.5
288.617	20.5
289.411	22.5
290.205	23.5
290.999	22.5
291.793	21.5
292.587	20.5
293.381	23.5
294.174	20.5
294.968	22.5
295.761	21.5
296.555	19.5
297.348	17.5
298.141	16.5
298.935	20.5
299.728	18.5
300.521	17.5
301.314	20.5
302.107	14.5
302.899	16.5
303.692	16.5
304.485	14.5
305.277	15.5
306.07	14.5
306.862	17.5
307.655	14.5
308.447	14.5
309.239	14.5
310.031	16.5
310.823	14.5
311.615	13.5
312.407	12.5
313.199	11.5
313.991	12.5
314.783	12.5
315.574	13.5
316.366	9.5
317.157	8.5
317.949	12.5
318.74	11.5
319.531	12.5
320.322	8.5
321.113	11.5
321.904	10.5
322.695	10.5
323.486	10.5
324.277	9.5
325.068	10.5
325.858	8.5
326.649	7.5
327.439	11.5
328.23	7.5
329.02	8.5
329.81	8.5
330.6	8.5
331.391	10.5
332.181	5.5
332.971	9.5
333.76	5.5
334.55	8.5
335.34	9.5
336.13	8.5
336.919	7.5
337.709	7.5
338.498	7.5
339.287	8.5
340.077	6.5
340.866	8.5
341.655	8.5
342.444	9.5
343.233	8.5
344.022	8.5
344.811	8.5
345.6	7.5
346.388	8.5
347.177	6.5
347.965	9.5
348.754	4.5
349.542	8.5
350.33	6.5
351.119	8.5
351.907	8.5
352.695	7.5
353.483	8.5
354.271	7.5
355.059	5.5
355.846	8.5
356.634	6.5
357.422	8.5
358.209	8.5
358.997	6.5
359.784	5.5
360.571	8.5
361.359	10.5
362.146	9.5
362.933	8.5
363.72	9.5
364.507	6.5
365.294	8.5
366.081	5.5
366.867	6.5
367.654	5.5
368.44	7.5
369.227	6.5
370.013	5.5
370.8	7.5
371.586	5.5
372.372	6.5
373.158	6.5
373.944	5.5
374.73	9.5
375.516	4.5
376.302	7.5
377.088	7.5
377.873	9.5
378.659	6.5
379.445	6.5
380.23	6.5
381.015	5.5
381.801	6.5
382.586	8.5
383.371	4.5
384.156	6.5
384.941	7.5
385.726	8.5
386.511	5.5
387.296	7.5
388.08	5.5
388.865	8.5
389.649	10.5
390.434	7.5
391.218	7.5
392.003	8.5
392.787	6.5
393.571	10.5
394.355	7.5
395.139	10.5
395.923	7.5
396.707	10.5
397.491	8.5
398.274	9.5
399.058	10.5
399.842	7.5
400.625	10.5
401.408	10.5
402.192	8.5
402.975	12.5
403.758	8.5
404.541	12.5
405.324	7.5
406.107	9.5
406.89	10.5
407.673	12.5
408.456	11.5
409.238	9.5
410.021	12.5
410.803	11.5
411.586	9.5
412.368	10.5
413.151	10.5
413.933	10.5
414.715	14.5
415.497	12.5
416.279	9.5
417.061	11.5
417.843	13.5
418.624	12.5
419.406	11.5
420.188	13.5
420.969	12.5
421.751	16.5
422.532	16.5
423.313	14.5
424.095	16.5
424.876	15.5
425.657	16.5
426.438	15.5
427.219	18.5
428	17.5
428.78	18.5
429.561	16.5
430.342	18.5
431.122	18.5
431.903	19.5
432.683	20.5
433.464	22.5
434.244	20.5
435.024	23.5
435.804	25.5
436.584	24.5
437.364	24.5
438.144	31.5
438.924	30.5
439.704	32.5
440.483	32.5
441.263	37.5
442.042	39.5
442.822	47.5
443.601	46.5
444.38	47.5
445.16	49.5
445.939	58.5
446.718	63.5
447.497	68.5
448.276	70.5
449.054	80.5
449.833	85.5
450.612	87.5
451.391	106.5
452.169	114.5
452.948	120.5
453.726	132.5
454.504	152.5
455.282	167.5
456.061	187.5
456.839	206.5
457.617	230.5
458.395	249.5
459.172	285.5
459.95	314.5
460.728	351.5
461.506	386.5
462.283	440.5
463.061	488.5
463.838	534.5
464.615	611.5
465.393	673.5
466.17	746.5
466.947	818.5
467.724	903.5
468.501	1005.5
469.278	1096.5
470.055	1219.5
470.831	1337.5
471.608	1476.5
472.385	1632.5
473.161	1792.5
473.938	1967.5
474.714	2164.5
475.49	2387.5
476.266	2584.5
477.043	2818.5
477.819	3134.5
478.595	3412.5
479.371	3727.5
480.146	4073.5
480.922	4405.5
481.698	4812.5
482.473	5240.5
483.249	5687.5
484.024	6207.5
484.8	6765.5
485.575	7352.5
486.35	7911.5
487.126	8612.5
487.901	9263.5
488.676	10088.5
489.451	10915.5
490.225	11788.5
491	12712.5
491.775	13706.5
492.55	14722.5
493.324	15840.5
494.099	16877.5
494.873	18065.5
495.647	19234.5
496.422	20441.5
497.196	21658.5
497.97	23058.5
498.744	24267.5
499.518	25555.5
500.292	26659.5
501.066	27775.5
501.839	28862.5
502.613	29803.5
503.387	30615.5
504.16	31487.5
504.934	31926.5
505.707	32312.5
506.48	32290.5
507.253	32348.5
508.027	32353.5
508.8	32114.5
509.573	31719.5
510.346	31200.5
511.118	30538.5
511.891	29766.5
512.664	28923.5
513.437	27893.5
514.209	27047.5
514.982	26204.5
515.754	25214.5
516.526	24195.5
517.298	23276.5
518.071	22307.5
518.843	21503.5
519.615	20597.5
520.387	19772.5
521.159	19065.5
521.93	18390.5
522.702	17631.5
523.474	16898.5
524.245	16277.5
525.017	15582.5
525.788	14874.5
526.56	14179.5
527.331	13639.5
528.102	13059.5
528.873	12408.5
529.644	11863.5
530.415	11386.5
531.186	10871.5
531.957	10319.5
532.728	9777.5
533.498	9281.5
534.269	8788.5
535.039	8326.5
535.81	7899.5
536.58	7473.5
537.351	7070.5
538.121	6645.5
538.891	6329.5
539.661	5986.5
540.431	5674.5
541.201	5374.5
541.971	5111.5
542.741	4815.5
543.51	4584.5
544.28	4366.5
545.05	4133.5
545.819	3942.5
546.588	3790.5
547.358	3561.5
548.127	3364.5
548.896	3230.5
549.665	3045.5
550.434	2921.5
551.203	2757.5
551.972	2607.5
552.741	2476.5
553.51	2347.5
554.278	2214.5
555.047	2112.5
555.815	1981.5
556.584	1870.5
557.352	1752.5
558.121	1676.5
558.889	1577.5
559.657	1505.5
560.425	1406.5
561.193	1337.5
561.961	1261.5
562.729	1186.5
563.496	1140.5
564.264	1064.5
565.032	1005.5
565.799	951.5
566.567	908.5
567.334	857.5
568.101	802.5
568.869	766.5
569.636	714.5
570.403	681.5
571.17	633.5
571.937	607.5
572.704	562.5
573.471	538.5
574.237	510.5
575.004	479.5
575.771	458.5
576.537	424.5
577.303	402.5
578.07	383.5
578.836	354.5
579.602	337.5
580.368	321.5
581.134	297.5
581.9	282.5
582.666	275.5
583.432	257.5
584.198	245.5
584.964	238.5
585.729	225.5
586.495	204.5
587.26	194.5
588.025	186.5
588.791	182.5
589.556	171.5
590.321	161.5
591.086	152.5
591.851	141.5
592.616	135.5
593.381	129.5
594.146	122.5
594.911	116.5
595.675	112.5
596.44	108.5
597.204	99.5
597.969	99.5
598.733	92.5
599.497	92.5
600.261	86.5
601.025	84.5
601.79	80.5
602.553	76.5
603.317	70.5
604.081	69.5
604.845	65.5
605.609	65.5
606.372	60.5
607.136	57.5
607.899	52.5
608.662	52.5
609.426	52.5
610.189	50.5
610.952	47.5
611.715	44.5
612.478	43.5
613.241	42.5
614.004	36.5
614.767	40.5
615.529	36.5
616.292	37.5
617.055	33.5
617.817	33.5
618.579	34.5
619.342	31.5
620.104	30.5
620.866	29.5
621.628	30.5
622.39	30.5
623.152	26.5
623.914	29.5
624.676	23.5
625.438	24.5
626.199	21.5
626.961	22.5
627.722	20.5
628.484	21.5
629.245	18.5
630.006	19.5
630.768	18.5
631.529	20.5
632.29	20.5
633.051	17.5
633.812	14.5
634.573	16.5
635.333	16.5
636.094	15.5
636.855	14.5
637.615	14.5
638.376	14.5
639.136	12.5
639.896	15.5
640.657	14.5
641.417	13.5
642.177	13.5
642.937	12.5
643.697	12.5
644.457	12.5
645.216	11.5
645.976	12.5
646.736	11.5
647.495	9.5
648.255	10.5
649.014	12.5
649.774	10.5
650.533	10.5
651.292	11.5
652.051	9.5
652.81	9.5
653.569	9.5
654.328	10.5
655.087	9.5
655.846	9.5
656.604	10.5
657.363	7.5
658.121	7.5
658.88	6.5
659.638	6.5
660.397	7.5
661.155	8.5
661.913	7.5
662.671	6.5
663.429	7.5
664.187	9.5
664.945	6.5
665.703	5.5
666.46	6.5
667.218	7.5
667.976	6.5
668.733	4.5
669.49	7.5
670.248	7.5
671.005	7.5
671.762	4.5
672.519	6.5
673.276	7.5
674.033	4.5
674.79	6.5
675.547	4.5
676.304	7.5
677.06	5.5
677.817	5.5
678.574	5.5
679.33	6.5
680.086	5.5
680.843	6.5
681.599	7.5
682.355	4.5
683.111	4.5
683.867	3.5
684.623	6.5
685.379	7.5
686.135	6.5
686.89	7.5
687.646	7.5
688.402	4.5
689.157	6.5
689.912	5.5
690.668	3.5
691.423	7.5
692.178	6.5
692.933	3.5
693.688	5.5
694.443	6.5
695.198	6.5
695.953	5.5
696.708	6.5
697.462	3.5
698.217	4.5
698.972	3.5
699.726	6.5
700.48	5.5
701.235	5.5
701.989	5.5
702.743	6.5
703.497	6.5
704.251	5.5
705.005	6.5
705.759	4.5
706.513	1.5
707.266	5.5
708.02	3.5
708.774	5.5
709.527	5.5
710.28	4.5
711.034	5.5
711.787	4.5
712.54	6.5
713.293	4.5
714.046	7.5
714.799	5.5
715.552	4.5
716.305	4.5
717.058	5.5
717.81	5.5
718.563	6.5
719.315	6.5
720.068	6.5
720.82	4.5
721.573	7.5
722.325	5.5
723.077	5.5
723.829	4.5
724.581	5.5
725.333	4.5
726.085	5.5
726.836	5.5
727.588	6.5
728.34	5.5
729.091	6.5
729.843	3.5
730.594	4.5
731.346	5.5
732.097	6.5
732.848	4.5
733.599	5.5
734.35	6.5
735.101	5.5
735.852	6.5
736.603	5.5
737.354	8.5
738.104	4.5
738.855	5.5
739.605	6.5
740.356	3.5
741.106	7.5
741.856	7.5
742.607	5.5
743.357	6.5
744.107	6.5
744.857	8.5
745.607	4.5
746.357	7.5
747.106	4.5
747.856	7.5
748.606	8.5
749.355	7.5
750.105	6.5
750.854	8.5
751.603	5.5
752.353	6.5
753.102	5.5
753.851	8.5
754.6	7.5
755.349	7.5
756.098	7.5
756.847	7.5
757.595	7.5
758.344	9.5
759.093	7.5
759.841	8.5
760.589	7.5
761.338	7.5
762.086	7.5
762.834	9.5
763.582	6.5
764.331	6.5
765.079	7.5
765.826	7.5
766.574	8.5
767.322	7.5
768.07	9.5
768.817	9.5
769.565	7.5
770.312	9.5
771.06	6.5
771.807	8.5
772.554	9.5
773.302	9.5
774.049	10.5
774.796	9.5
775.543	11.5
776.29	8.5
777.036	10.5
777.783	8.5
778.53	10.5
779.276	11.5
780.023	10.5
780.769	10.5
781.516	11.5
782.262	7.5
783.008	9.5
783.754	8.5
784.5	10.5
785.246	8.5
785.992	11.5
786.738	9.5
787.484	10.5
788.23	10.5
788.975	8.5
789.721	12.5
790.466	10.5
791.212	14.5
791.957	9.5
792.702	12.5
793.447	9.5
794.193	9.5
794.938	9.5
795.683	10.5
796.427	10.5
797.172	8.5
797.917	9.5
798.662	10.5
799.406	8.5
800.151	11.5
800.895	10.5
801.64	6.5
802.384	9.5
803.128	9.5
803.872	9.5
804.616	8.5
805.36	9.5
806.104	6.5
806.848	8.5
807.592	8.5
808.336	7.5
809.079	7.5
809.823	6.5
810.566	7.5
811.31	6.5
812.053	7.5
812.796	6.5
813.539	4.5
814.283	7.5
815.026	6.5
815.769	6.5
816.511	8.5
817.254	8.5
817.997	7.5
818.74	5.5
819.482	4.5
820.225	7.5
820.967	5.5
821.71	5.5
822.452	6.5
823.194	5.5
823.936	6.5
824.678	3.5
825.42	7.5
826.162	5.5
826.904	5.5
827.646	7.5
828.388	4.5
829.129	6.5
829.871	4.5
830.612	5.5
831.354	5.5
832.095	4.5
832.836	6.5
833.577	2.5
834.319	5.5
835.06	6.5
835.801	3.5
836.542	3.5
837.282	2.5
838.023	5.5
838.764	4.5
839.504	5.5
840.245	3.5
840.985	4.5
841.726	2.5
842.466	5.5
843.206	4.5
843.946	2.5
844.687	4.5
845.427	2.5
846.166	2.5
846.906	4.5
847.646	4.5
848.386	6.5
849.125	3.5
849.865	2.5
850.605	6.5
851.344	1.5
852.083	4.5
852.823	3.5
853.562	3.5
854.301	4.5
855.04	3.5
855.779	4.5
856.518	2.5
857.257	4.5
857.995	5.5
858.734	3.5
859.473	3.5
860.211	2.5
860.95	4.5
861.688	1.5
862.426	1.5
863.165	1.5
863.903	1.5
864.641	2.5
865.379	2.5
866.117	2.5
866.855	0.5
867.593	0.5
868.33	3.5
869.068	1.5
869.806	1.5
870.543	1.5
871.28	3.5
872.018	2.5
872.755	1.5
873.492	1.5
874.229	1.5
874.967	3.5
875.703	1.5
876.44	0.5
877.177	2.5
877.914	2.5
878.651	1.5
879.387	2.5
880.124	1.5
880.86	1.5
881.597	-0.5
882.333	2.5
883.069	2.5
883.806	2.5
884.542	3.5
885.278	2.5
886.014	2.5
886.749	2.5
887.485	1.5
888.221	-0.5
888.957	1.5
889.692	1.5
890.428	-1.5
891.163	3.5
891.899	-0.5
892.634	0.5
893.369	2.5
894.104	0.5
894.839	3.5
895.574	-0.5
896.309	0.5
897.044	-0.5
897.779	1.5
898.514	3.5
899.248	0.5
899.983	0.5
900.717	-0.5
901.452	0.5
902.186	-0.5
902.92	-2.5
903.654	1.5
904.389	0.5
905.123	2.5
905.857	-0.5
906.59	2.5
907.324	-0.5
908.058	1.5
908.792	1.5
909.525	0.5
910.259	1.5
910.992	-0.5
911.726	-1.5
912.459	0.5
913.192	-0.5
913.925	0.5
914.658	0.5
915.391	2.5
916.124	-0.5
916.857	-0.5
917.59	1.5
918.323	1.5
919.055	1.5
919.788	-0.5
920.521	1.5
921.253	0.5
921.985	2.5
922.718	-3.5
923.45	-1.5
924.182	1.5
924.914	0.5
925.646	-1.5
926.378	2.5
927.11	1.5
927.841	1.5
928.573	1.5
929.305	0.5
930.036	1.5
930.768	-0.5
931.499	-0.5
932.23	-0.5
932.962	2.5
933.693	0.5
934.424	0.5
935.155	1.5
935.886	-1.5
936.617	0.5
937.348	1.5
938.078	0.5
938.809	2.5
939.54	0.5
940.27	1.5
941.001	1.5
941.731	0.5
942.461	0.5
943.191	0.5
943.922	-0.5
944.652	0.5
945.382	1.5
946.112	0.5
946.841	-1.5
947.571	-1.5
948.301	-0.5
949.031	-1.5
949.76	0.5
950.49	0.5
951.219	0.5
951.948	0.5
952.678	1.5
953.407	-0.5
954.136	2.5
954.865	-0.5
955.594	1.5
956.323	1.5
957.052	-0.5
957.78	1.5
958.509	0.5
959.238	2.5
959.966	-0.5
960.695	1.5
961.423	0.5
962.151	-0.5
962.88	2.5
963.608	-0.5
964.336	-0.5
965.064	-0.5
965.792	2.5
966.52	1.5
967.247	0.5
967.975	0.5
968.703	-0.5
969.43	2.5
970.158	1.5
970.885	-0.5
971.613	0.5
972.34	-0.5
973.067	-1.5
973.794	2.5
974.521	0.5
975.248	-0.5
975.975	-2.5
976.702	2.5
977.429	0.5
978.156	0.5
978.882	0.5
979.609	0.5
980.335	2.5
981.062	-1.5
981.788	0.5
982.514	0.5
983.24	1.5
983.967	-1.5
984.693	0.5
985.419	3.5
986.144	-0.5
986.87	0.5
987.596	1.5
988.322	1.5
989.047	-0.5
989.773	0.5
990.498	0.5
991.224	2.5
991.949	0.5
992.674	-1.5
993.399	2.5
994.124	2.5
994.849	-2.5
995.574	0.5
996.299	0.5
997.024	-0.5
997.749	-0.5
998.473	1.5
999.198	0.5
999.922	0.5
1000.647	-0.5
1001.371	3.5
1002.095	-0.5
1002.82	0.5
1003.544	-2.5
1004.268	1.5
1004.992	2.5
1005.716	0.5
1006.439	1.5
1007.163	0.5
1007.887	4.5
1008.611	0.5
1009.334	0.5
1010.058	0.5
1010.781	-0.5
1011.504	0.5
1012.228	0.5
1012.951	0.5
1013.674	-0.5
1014.397	-0.5
1015.12	-0.5
