节点500_425_QEPB04081__61__15-49-19-392.txt的数据

Date: Wed Nov 12 15:49:19 CST 2025
User: PC
Spectrometer: QEPB0408
触发模式: 0
积分时间 (秒): 1.000000E-2
Scans to average: 1
启用暗噪声校正: true
启用非线性校正: false
滑动平均宽度: 0
X轴模式: Wavelengths
Number of Pixels in Spectrum: 1044
>>>>>Begin Spectral Data<<<<<
220.843	2.88
221.644	2.88
222.444	1.88
223.244	3.88
224.045	3.88
224.845	3.88
225.645	1.88
226.445	3.88
227.245	3.88
228.045	3.88
228.845	6.88
229.645	2.88
230.444	0.88
231.244	5.88
232.043	3.88
232.843	4.88
233.642	4.88
234.442	7.88
235.241	6.88
236.04	6.88
236.839	6.88
237.638	5.88
238.437	6.88
239.236	5.88
240.035	4.88
240.833	3.88
241.632	5.88
242.43	8.88
243.229	6.88
244.027	5.88
244.826	7.88
245.624	9.88
246.422	9.88
247.22	7.88
248.018	8.88
248.816	7.88
249.614	8.88
250.412	8.88
251.21	7.88
252.007	10.88
252.805	9.88
253.602	10.88
254.4	8.88
255.197	13.88
255.994	13.88
256.791	12.88
257.589	12.88
258.386	13.88
259.183	13.88
259.979	13.88
260.776	13.88
261.573	17.88
262.37	16.88
263.166	16.88
263.963	16.88
264.759	19.88
265.556	19.88
266.352	17.88
267.148	21.88
267.944	17.88
268.74	23.88
269.536	20.88
270.332	23.88
271.128	24.88
271.924	24.88
272.719	21.88
273.515	22.88
274.311	27.88
275.106	23.88
275.901	24.88
276.697	26.88
277.492	25.88
278.287	24.88
279.082	24.88
279.877	24.88
280.672	25.88
281.467	24.88
282.262	25.88
283.056	24.88
283.851	24.88
284.646	24.88
285.44	24.88
286.234	22.88
287.029	24.88
287.823	25.88
288.617	24.88
289.411	23.88
290.205	24.88
290.999	23.88
291.793	25.88
292.587	20.88
293.381	21.88
294.174	22.88
294.968	23.88
295.761	20.88
296.555	18.88
297.348	17.88
298.141	17.88
298.935	21.88
299.728	20.88
300.521	16.88
301.314	20.88
302.107	15.88
302.899	20.88
303.692	17.88
304.485	13.88
305.277	14.88
306.07	15.88
306.862	15.88
307.655	12.88
308.447	17.88
309.239	15.88
310.031	12.88
310.823	12.88
311.615	11.88
312.407	11.88
313.199	8.88
313.991	10.88
314.783	10.88
315.574	10.88
316.366	13.88
317.157	10.88
317.949	10.88
318.74	10.88
319.531	10.88
320.322	9.88
321.113	9.88
321.904	7.88
322.695	9.88
323.486	9.88
324.277	6.88
325.068	6.88
325.858	10.88
326.649	8.88
327.439	8.88
328.23	7.88
329.02	7.88
329.81	7.88
330.6	8.88
331.391	8.88
332.181	9.88
332.971	5.88
333.76	7.88
334.55	6.88
335.34	10.88
336.13	7.88
336.919	10.88
337.709	8.88
338.498	5.88
339.287	9.88
340.077	6.88
340.866	6.88
341.655	6.88
342.444	9.88
343.233	7.88
344.022	8.88
344.811	6.88
345.6	5.88
346.388	7.88
347.177	7.88
347.965	8.88
348.754	7.88
349.542	7.88
350.33	8.88
351.119	7.88
351.907	7.88
352.695	8.88
353.483	8.88
354.271	6.88
355.059	6.88
355.846	7.88
356.634	7.88
357.422	5.88
358.209	6.88
358.997	6.88
359.784	6.88
360.571	6.88
361.359	5.88
362.146	4.88
362.933	4.88
363.72	7.88
364.507	4.88
365.294	7.88
366.081	6.88
366.867	6.88
367.654	6.88
368.44	6.88
369.227	5.88
370.013	4.88
370.8	7.88
371.586	4.88
372.372	5.88
373.158	6.88
373.944	5.88
374.73	6.88
375.516	6.88
376.302	8.88
377.088	6.88
377.873	7.88
378.659	5.88
379.445	5.88
380.23	8.88
381.015	5.88
381.801	7.88
382.586	6.88
383.371	5.88
384.156	5.88
384.941	7.88
385.726	7.88
386.511	9.88
387.296	6.88
388.08	5.88
388.865	8.88
389.649	7.88
390.434	6.88
391.218	8.88
392.003	6.88
392.787	8.88
393.571	7.88
394.355	8.88
395.139	6.88
395.923	10.88
396.707	7.88
397.491	8.88
398.274	9.88
399.058	6.88
399.842	9.88
400.625	9.88
401.408	9.88
402.192	7.88
402.975	5.88
403.758	5.88
404.541	7.88
405.324	11.88
406.107	8.88
406.89	9.88
407.673	9.88
408.456	10.88
409.238	12.88
410.021	9.88
410.803	10.88
411.586	11.88
412.368	12.88
413.151	9.88
413.933	14.88
414.715	12.88
415.497	11.88
416.279	13.88
417.061	12.88
417.843	12.88
418.624	13.88
419.406	14.88
420.188	14.88
420.969	13.88
421.751	14.88
422.532	13.88
423.313	15.88
424.095	12.88
424.876	15.88
425.657	17.88
426.438	15.88
427.219	17.88
428	17.88
428.78	15.88
429.561	18.88
430.342	16.88
431.122	19.88
431.903	19.88
432.683	21.88
433.464	19.88
434.244	22.88
435.024	23.88
435.804	23.88
436.584	25.88
437.364	25.88
438.144	26.88
438.924	29.88
439.704	29.88
440.483	32.88
441.263	32.88
442.042	33.88
442.822	39.88
443.601	40.88
444.38	43.88
445.16	43.88
445.939	50.88
446.718	57.88
447.497	58.88
448.276	63.88
449.054	69.88
449.833	74.88
450.612	78.88
451.391	87.88
452.169	94.88
452.948	106.88
453.726	118.88
454.504	125.88
455.282	139.88
456.061	161.88
456.839	171.88
457.617	188.88
458.395	209.88
459.172	235.88
459.95	266.88
460.728	295.88
461.506	323.88
462.283	371.88
463.061	421.88
463.838	465.88
464.615	517.88
465.393	576.88
466.17	644.88
466.947	725.88
467.724	824.88
468.501	902.88
469.278	997.88
470.055	1111.88
470.831	1251.88
471.608	1385.88
472.385	1548.88
473.161	1713.88
473.938	1906.88
474.714	2126.88
475.49	2354.88
476.266	2613.88
477.043	2894.88
477.819	3204.88
478.595	3575.88
479.371	3926.88
480.146	4331.88
480.922	4780.88
481.698	5264.88
482.473	5821.88
483.249	6365.88
484.024	7020.88
484.8	7753.88
485.575	8497.88
486.35	9292.88
487.126	10262.88
487.901	11184.88
488.676	12249.88
489.451	13371.88
490.225	14552.88
491	15866.88
491.775	17194.88
492.55	18624.88
493.324	20093.88
494.099	21552.88
494.873	23077.88
495.647	24623.88
496.422	26174.88
497.196	27825.88
497.97	29372.88
498.744	30895.88
499.518	32295.88
500.292	33518.88
501.066	34614.88
501.839	35657.88
502.613	36501.88
503.387	37010.88
504.16	37360.88
504.934	37531.88
505.707	37305.88
506.48	36869.88
507.253	36437.88
508.027	35800.88
508.8	34919.88
509.573	33946.88
510.346	32899.88
511.118	31798.88
511.891	30604.88
512.664	29427.88
513.437	28126.88
514.209	26958.88
514.982	25784.88
515.754	24702.88
516.526	23614.88
517.298	22546.88
518.071	21576.88
518.843	20726.88
519.615	19846.88
520.387	19063.88
521.159	18389.88
521.93	17707.88
522.702	16988.88
523.474	16281.88
524.245	15617.88
525.017	14872.88
525.788	14231.88
526.56	13489.88
527.331	12855.88
528.102	12254.88
528.873	11660.88
529.644	11052.88
530.415	10559.88
531.186	10003.88
531.957	9433.88
532.728	8862.88
533.498	8405.88
534.269	7926.88
535.039	7499.88
535.81	7087.88
536.58	6694.88
537.351	6301.88
538.121	5954.88
538.891	5659.88
539.661	5350.88
540.431	5089.88
541.201	4801.88
541.971	4547.88
542.741	4311.88
543.51	4077.88
544.28	3899.88
545.05	3697.88
545.819	3543.88
546.588	3369.88
547.358	3187.88
548.127	3014.88
548.896	2820.88
549.665	2717.88
550.434	2573.88
551.203	2441.88
551.972	2291.88
552.741	2173.88
553.51	2036.88
554.278	1918.88
555.047	1813.88
555.815	1713.88
556.584	1600.88
557.352	1536.88
558.121	1446.88
558.889	1362.88
559.657	1294.88
560.425	1212.88
561.193	1141.88
561.961	1085.88
562.729	1025.88
563.496	972.88
564.264	914.88
565.032	870.88
565.799	819.88
566.567	768.88
567.334	735.88
568.101	696.88
568.869	639.88
569.636	614.88
570.403	582.88
571.17	537.88
571.937	516.88
572.704	484.88
573.471	466.88
574.237	427.88
575.004	415.88
575.771	383.88
576.537	363.88
577.303	345.88
578.07	320.88
578.836	299.88
579.602	283.88
580.368	274.88
581.134	260.88
581.9	239.88
582.666	228.88
583.432	223.88
584.198	204.88
584.964	197.88
585.729	185.88
586.495	177.88
587.26	168.88
588.025	165.88
588.791	149.88
589.556	144.88
590.321	141.88
591.086	131.88
591.851	124.88
592.616	119.88
593.381	112.88
594.146	109.88
594.911	102.88
595.675	98.88
596.44	93.88
597.204	88.88
597.969	85.88
598.733	80.88
599.497	75.88
600.261	74.88
601.025	68.88
601.79	65.88
602.553	65.88
603.317	60.88
604.081	57.88
604.845	57.88
605.609	56.88
606.372	52.88
607.136	51.88
607.899	46.88
608.662	43.88
609.426	42.88
610.189	44.88
610.952	40.88
611.715	38.88
612.478	36.88
613.241	38.88
614.004	36.88
614.767	33.88
615.529	34.88
616.292	31.88
617.055	29.88
617.817	29.88
618.579	30.88
619.342	28.88
620.104	27.88
620.866	25.88
621.628	25.88
622.39	25.88
623.152	24.88
623.914	22.88
624.676	24.88
625.438	22.88
626.199	22.88
626.961	19.88
627.722	20.88
628.484	19.88
629.245	17.88
630.006	16.88
630.768	16.88
631.529	16.88
632.29	17.88
633.051	18.88
633.812	16.88
634.573	14.88
635.333	14.88
636.094	16.88
636.855	13.88
637.615	16.88
638.376	12.88
639.136	12.88
639.896	12.88
640.657	9.88
641.417	12.88
642.177	12.88
642.937	12.88
643.697	11.88
644.457	10.88
645.216	10.88
645.976	9.88
646.736	12.88
647.495	10.88
648.255	9.88
649.014	11.88
649.774	9.88
650.533	9.88
651.292	10.88
652.051	8.88
652.81	8.88
653.569	7.88
654.328	9.88
655.087	7.88
655.846	8.88
656.604	6.88
657.363	7.88
658.121	6.88
658.88	3.88
659.638	8.88
660.397	7.88
661.155	6.88
661.913	7.88
662.671	6.88
663.429	7.88
664.187	3.88
664.945	8.88
665.703	8.88
666.46	5.88
667.218	5.88
667.976	4.88
668.733	7.88
669.49	6.88
670.248	5.88
671.005	6.88
671.762	5.88
672.519	5.88
673.276	4.88
674.033	6.88
674.79	5.88
675.547	3.88
676.304	6.88
677.06	4.88
677.817	5.88
678.574	5.88
679.33	5.88
680.086	5.88
680.843	6.88
681.599	5.88
682.355	4.88
683.111	5.88
683.867	4.88
684.623	5.88
685.379	7.88
686.135	5.88
686.89	4.88
687.646	2.88
688.402	6.88
689.157	3.88
689.912	6.88
690.668	3.88
691.423	5.88
692.178	6.88
692.933	2.88
693.688	4.88
694.443	3.88
695.198	4.88
695.953	4.88
696.708	1.88
697.462	4.88
698.217	3.88
698.972	1.88
699.726	4.88
700.48	3.88
701.235	5.88
701.989	5.88
702.743	4.88
703.497	4.88
704.251	2.88
705.005	4.88
705.759	5.88
706.513	5.88
707.266	4.88
708.02	5.88
708.774	2.88
709.527	1.88
710.28	4.88
711.034	4.88
711.787	4.88
712.54	1.88
713.293	3.88
714.046	3.88
714.799	5.88
715.552	4.88
716.305	5.88
717.058	6.88
717.81	4.88
718.563	3.88
719.315	5.88
720.068	4.88
720.82	5.88
721.573	4.88
722.325	4.88
723.077	4.88
723.829	3.88
724.581	6.88
725.333	2.88
726.085	4.88
726.836	3.88
727.588	4.88
728.34	4.88
729.091	3.88
729.843	5.88
730.594	3.88
731.346	4.88
732.097	6.88
732.848	4.88
733.599	6.88
734.35	5.88
735.101	6.88
735.852	3.88
736.603	6.88
737.354	6.88
738.104	4.88
738.855	5.88
739.605	5.88
740.356	6.88
741.106	5.88
741.856	5.88
742.607	5.88
743.357	4.88
744.107	7.88
744.857	7.88
745.607	5.88
746.357	7.88
747.106	7.88
747.856	7.88
748.606	7.88
749.355	4.88
750.105	5.88
750.854	6.88
751.603	7.88
752.353	7.88
753.102	7.88
753.851	7.88
754.6	8.88
755.349	9.88
756.098	9.88
756.847	9.88
757.595	9.88
758.344	6.88
759.093	7.88
759.841	6.88
760.589	7.88
761.338	6.88
762.086	9.88
762.834	6.88
763.582	7.88
764.331	8.88
765.079	8.88
765.826	7.88
766.574	8.88
767.322	13.88
768.07	8.88
768.817	10.88
769.565	13.88
770.312	8.88
771.06	11.88
771.807	11.88
772.554	12.88
773.302	11.88
774.049	11.88
774.796	10.88
775.543	11.88
776.29	11.88
777.036	12.88
777.783	7.88
778.53	11.88
779.276	9.88
780.023	10.88
780.769	9.88
781.516	11.88
782.262	11.88
783.008	10.88
783.754	11.88
784.5	11.88
785.246	12.88
785.992	9.88
786.738	13.88
787.484	10.88
788.23	9.88
788.975	13.88
789.721	9.88
790.466	11.88
791.212	10.88
791.957	11.88
792.702	9.88
793.447	9.88
794.193	11.88
794.938	10.88
795.683	10.88
796.427	12.88
797.172	9.88
797.917	11.88
798.662	8.88
799.406	13.88
800.151	9.88
800.895	10.88
801.64	8.88
802.384	7.88
803.128	9.88
803.872	8.88
804.616	9.88
805.36	8.88
806.104	6.88
806.848	6.88
807.592	7.88
808.336	7.88
809.079	6.88
809.823	8.88
810.566	5.88
811.31	7.88
812.053	5.88
812.796	5.88
813.539	6.88
814.283	6.88
815.026	5.88
815.769	6.88
816.511	4.88
817.254	7.88
817.997	7.88
818.74	4.88
819.482	5.88
820.225	3.88
820.967	5.88
821.71	5.88
822.452	3.88
823.194	7.88
823.936	4.88
824.678	5.88
825.42	5.88
826.162	3.88
826.904	5.88
827.646	4.88
828.388	3.88
829.129	4.88
829.871	6.88
830.612	2.88
831.354	4.88
832.095	4.88
832.836	5.88
833.577	5.88
834.319	3.88
835.06	6.88
835.801	4.88
836.542	4.88
837.282	3.88
838.023	4.88
838.764	4.88
839.504	1.88
840.245	3.88
840.985	1.88
841.726	3.88
842.466	3.88
843.206	1.88
843.946	1.88
844.687	4.88
845.427	5.88
846.166	3.88
846.906	4.88
847.646	1.88
848.386	2.88
849.125	3.88
849.865	1.88
850.605	1.88
851.344	3.88
852.083	1.88
852.823	4.88
853.562	0.88
854.301	2.88
855.04	2.88
855.779	2.88
856.518	1.88
857.257	0.88
857.995	1.88
858.734	1.88
859.473	-0.12
860.211	4.88
860.95	-1.12
861.688	1.88
862.426	-0.12
863.165	0.88
863.903	1.88
864.641	-0.12
865.379	1.88
866.117	0.88
866.855	1.88
867.593	-0.12
868.33	1.88
869.068	0.88
869.806	1.88
870.543	2.88
871.28	1.88
872.018	2.88
872.755	1.88
873.492	1.88
874.229	2.88
874.967	0.88
875.703	0.88
876.44	0.88
877.177	0.88
877.914	1.88
878.651	-0.12
879.387	2.88
880.124	-2.12
880.86	0.88
881.597	1.88
882.333	-0.12
883.069	2.88
883.806	1.88
884.542	1.88
885.278	-2.12
886.014	1.88
886.749	-0.12
887.485	-0.12
888.221	3.88
888.957	-0.12
889.692	1.88
890.428	-0.12
891.163	-1.12
891.899	-1.12
892.634	0.88
893.369	-0.12
894.104	-2.12
894.839	-0.12
895.574	-0.12
896.309	-2.12
897.044	-1.12
897.779	-0.12
898.514	0.88
899.248	-0.12
899.983	-0.12
900.717	1.88
901.452	-1.12
902.186	-0.12
902.92	0.88
903.654	-1.12
904.389	-0.12
905.123	0.88
905.857	-0.12
906.59	-2.12
907.324	-0.12
908.058	-0.12
908.792	0.88
909.525	0.88
910.259	-1.12
910.992	-0.12
911.726	-1.12
912.459	0.88
913.192	-1.12
913.925	-2.12
914.658	1.88
915.391	1.88
916.124	0.88
916.857	-0.12
917.59	0.88
918.323	-1.12
919.055	-2.12
919.788	-1.12
920.521	0.88
921.253	-0.12
921.985	-0.12
922.718	-1.12
923.45	-0.12
924.182	-0.12
924.914	0.88
925.646	-2.12
926.378	-1.12
927.11	-0.12
927.841	0.88
928.573	-2.12
929.305	-1.12
930.036	-0.12
930.768	-0.12
931.499	-0.12
932.23	-2.12
932.962	-1.12
933.693	-2.12
934.424	0.88
935.155	0.88
935.886	-0.12
936.617	-1.12
937.348	-0.12
938.078	0.88
938.809	0.88
939.54	0.88
940.27	-0.12
941.001	0.88
941.731	-1.12
942.461	-2.12
943.191	-0.12
943.922	-0.12
944.652	0.88
945.382	-1.12
946.112	-1.12
946.841	1.88
947.571	-0.12
948.301	-3.12
949.031	0.88
949.76	1.88
950.49	-1.12
951.219	-0.12
951.948	-1.12
952.678	0.88
953.407	-0.12
954.136	-1.12
954.865	0.88
955.594	-0.12
956.323	1.88
957.052	-1.12
957.78	-1.12
958.509	0.88
959.238	1.88
959.966	0.88
960.695	-0.12
961.423	-0.12
962.151	-2.12
962.88	-1.12
963.608	-1.12
964.336	-0.12
965.064	1.88
965.792	1.88
966.52	-1.12
967.247	0.88
967.975	-0.12
968.703	-0.12
969.43	-1.12
970.158	-0.12
970.885	-2.12
971.613	0.88
972.34	-0.12
973.067	0.88
973.794	-0.12
974.521	-2.12
975.248	-0.12
975.975	1.88
976.702	0.88
977.429	0.88
978.156	0.88
978.882	1.88
979.609	-1.12
980.335	0.88
981.062	0.88
981.788	-2.12
982.514	-0.12
983.24	0.88
983.967	-0.12
984.693	-1.12
985.419	0.88
986.144	-2.12
986.87	-4.12
987.596	-0.12
988.322	-2.12
989.047	-0.12
989.773	-0.12
990.498	-0.12
991.224	0.88
991.949	-0.12
992.674	-2.12
993.399	2.88
994.124	0.88
994.849	-2.12
995.574	-1.12
996.299	1.88
997.024	-2.12
997.749	0.88
998.473	-0.12
999.198	-0.12
999.922	-0.12
1000.647	-0.12
1001.371	2.88
1002.095	-0.12
1002.82	-2.12
1003.544	-1.12
1004.268	1.88
1004.992	1.88
1005.716	0.88
1006.439	-0.12
1007.163	1.88
1007.887	3.88
1008.611	-0.12
1009.334	-0.12
1010.058	-2.12
1010.781	1.88
1011.504	-0.12
1012.228	-0.12
1012.951	-2.12
1013.674	0.88
1014.397	0.88
1015.12	0.88
