节点500_425_QEPB04081__231__15-52-09-040.txt的数据

Date: Wed Nov 12 15:52:09 CST 2025
User: PC
Spectrometer: QEPB0408
触发模式: 0
积分时间 (秒): 1.000000E-2
Scans to average: 1
启用暗噪声校正: true
启用非线性校正: false
滑动平均宽度: 0
X轴模式: Wavelengths
Number of Pixels in Spectrum: 1044
>>>>>Begin Spectral Data<<<<<
220.843	3.12
221.644	4.12
222.444	3.12
223.244	4.12
224.045	5.12
224.845	4.12
225.645	3.12
226.445	3.12
227.245	3.12
228.045	2.12
228.845	5.12
229.645	4.12
230.444	5.12
231.244	4.12
232.043	4.12
232.843	8.12
233.642	6.12
234.442	5.12
235.241	7.12
236.04	7.12
236.839	7.12
237.638	7.12
238.437	7.12
239.236	8.12
240.035	5.12
240.833	10.12
241.632	7.12
242.43	7.12
243.229	5.12
244.027	7.12
244.826	8.12
245.624	7.12
246.422	7.12
247.22	8.12
248.018	7.12
248.816	8.12
249.614	9.12
250.412	9.12
251.21	10.12
252.007	11.12
252.805	9.12
253.602	8.12
254.4	11.12
255.197	10.12
255.994	13.12
256.791	12.12
257.589	12.12
258.386	13.12
259.183	13.12
259.979	14.12
260.776	15.12
261.573	16.12
262.37	17.12
263.166	16.12
263.963	14.12
264.759	17.12
265.556	17.12
266.352	19.12
267.148	18.12
267.944	18.12
268.74	20.12
269.536	21.12
270.332	20.12
271.128	23.12
271.924	22.12
272.719	21.12
273.515	24.12
274.311	26.12
275.106	25.12
275.901	23.12
276.697	21.12
277.492	26.12
278.287	24.12
279.082	25.12
279.877	24.12
280.672	29.12
281.467	25.12
282.262	24.12
283.056	24.12
283.851	24.12
284.646	26.12
285.44	27.12
286.234	26.12
287.029	23.12
287.823	27.12
288.617	24.12
289.411	22.12
290.205	25.12
290.999	25.12
291.793	25.12
292.587	21.12
293.381	22.12
294.174	22.12
294.968	22.12
295.761	22.12
296.555	19.12
297.348	21.12
298.141	24.12
298.935	20.12
299.728	20.12
300.521	18.12
301.314	20.12
302.107	19.12
302.899	17.12
303.692	16.12
304.485	19.12
305.277	15.12
306.07	16.12
306.862	17.12
307.655	17.12
308.447	15.12
309.239	17.12
310.031	12.12
310.823	12.12
311.615	13.12
312.407	11.12
313.199	13.12
313.991	11.12
314.783	15.12
315.574	11.12
316.366	11.12
317.157	10.12
317.949	10.12
318.74	11.12
319.531	10.12
320.322	11.12
321.113	10.12
321.904	12.12
322.695	13.12
323.486	9.12
324.277	9.12
325.068	10.12
325.858	8.12
326.649	10.12
327.439	10.12
328.23	10.12
329.02	6.12
329.81	9.12
330.6	7.12
331.391	9.12
332.181	10.12
332.971	9.12
333.76	8.12
334.55	10.12
335.34	7.12
336.13	6.12
336.919	10.12
337.709	9.12
338.498	11.12
339.287	10.12
340.077	8.12
340.866	11.12
341.655	9.12
342.444	7.12
343.233	10.12
344.022	9.12
344.811	9.12
345.6	9.12
346.388	8.12
347.177	7.12
347.965	7.12
348.754	7.12
349.542	10.12
350.33	8.12
351.119	8.12
351.907	7.12
352.695	9.12
353.483	5.12
354.271	3.12
355.059	8.12
355.846	6.12
356.634	6.12
357.422	7.12
358.209	6.12
358.997	7.12
359.784	8.12
360.571	7.12
361.359	5.12
362.146	7.12
362.933	5.12
363.72	5.12
364.507	7.12
365.294	6.12
366.081	7.12
366.867	6.12
367.654	5.12
368.44	7.12
369.227	4.12
370.013	5.12
370.8	5.12
371.586	9.12
372.372	5.12
373.158	7.12
373.944	6.12
374.73	8.12
375.516	9.12
376.302	8.12
377.088	6.12
377.873	6.12
378.659	4.12
379.445	6.12
380.23	6.12
381.015	7.12
381.801	6.12
382.586	7.12
383.371	8.12
384.156	6.12
384.941	7.12
385.726	5.12
386.511	6.12
387.296	7.12
388.08	10.12
388.865	8.12
389.649	8.12
390.434	7.12
391.218	8.12
392.003	7.12
392.787	5.12
393.571	7.12
394.355	6.12
395.139	8.12
395.923	9.12
396.707	10.12
397.491	8.12
398.274	10.12
399.058	9.12
399.842	10.12
400.625	8.12
401.408	8.12
402.192	9.12
402.975	9.12
403.758	10.12
404.541	10.12
405.324	11.12
406.107	9.12
406.89	11.12
407.673	9.12
408.456	9.12
409.238	11.12
410.021	11.12
410.803	12.12
411.586	12.12
412.368	11.12
413.151	9.12
413.933	12.12
414.715	13.12
415.497	12.12
416.279	13.12
417.061	11.12
417.843	12.12
418.624	14.12
419.406	13.12
420.188	14.12
420.969	14.12
421.751	12.12
422.532	18.12
423.313	15.12
424.095	15.12
424.876	15.12
425.657	17.12
426.438	16.12
427.219	18.12
428	16.12
428.78	16.12
429.561	20.12
430.342	21.12
431.122	18.12
431.903	20.12
432.683	23.12
433.464	19.12
434.244	21.12
435.024	24.12
435.804	26.12
436.584	28.12
437.364	28.12
438.144	28.12
438.924	29.12
439.704	32.12
440.483	30.12
441.263	36.12
442.042	39.12
442.822	38.12
443.601	42.12
444.38	45.12
445.16	50.12
445.939	52.12
446.718	58.12
447.497	59.12
448.276	65.12
449.054	68.12
449.833	79.12
450.612	86.12
451.391	97.12
452.169	98.12
452.948	111.12
453.726	124.12
454.504	134.12
455.282	150.12
456.061	168.12
456.839	184.12
457.617	204.12
458.395	223.12
459.172	250.12
459.95	277.12
460.728	318.12
461.506	355.12
462.283	397.12
463.061	434.12
463.838	488.12
464.615	551.12
465.393	616.12
466.17	686.12
466.947	744.12
467.724	855.12
468.501	945.12
469.278	1045.12
470.055	1143.12
470.831	1279.12
471.608	1423.12
472.385	1580.12
473.161	1778.12
473.938	1950.12
474.714	2158.12
475.49	2389.12
476.266	2636.12
477.043	2908.12
477.819	3191.12
478.595	3513.12
479.371	3889.12
480.146	4252.12
480.922	4672.12
481.698	5117.12
482.473	5648.12
483.249	6148.12
484.024	6801.12
484.8	7451.12
485.575	8140.12
486.35	8868.12
487.126	9702.12
487.901	10570.12
488.676	11553.12
489.451	12547.12
490.225	13611.12
491	14828.12
491.775	16050.12
492.55	17346.12
493.324	18720.12
494.099	20069.12
494.873	21389.12
495.647	22887.12
496.422	24297.12
497.196	25784.12
497.97	27372.12
498.744	28705.12
499.518	30102.12
500.292	31323.12
501.066	32425.12
501.839	33614.12
502.613	34463.12
503.387	35212.12
504.16	35664.12
504.934	35904.12
505.707	35880.12
506.48	35807.12
507.253	35406.12
508.027	35000.12
508.8	34323.12
509.573	33573.12
510.346	32699.12
511.118	31735.12
511.891	30669.12
512.664	29515.12
513.437	28291.12
514.209	27150.12
514.982	26085.12
515.754	25106.12
516.526	24011.12
517.298	22989.12
518.071	21945.12
518.843	21062.12
519.615	20196.12
520.387	19405.12
521.159	18622.12
521.93	17943.12
522.702	17254.12
523.474	16546.12
524.245	15899.12
525.017	15141.12
525.788	14458.12
526.56	13788.12
527.331	13186.12
528.102	12596.12
528.873	11925.12
529.644	11350.12
530.415	10832.12
531.186	10322.12
531.957	9767.12
532.728	9228.12
533.498	8750.12
534.269	8241.12
535.039	7813.12
535.81	7369.12
536.58	6960.12
537.351	6571.12
538.121	6202.12
538.891	5897.12
539.661	5589.12
540.431	5294.12
541.201	5014.12
541.971	4736.12
542.741	4485.12
543.51	4278.12
544.28	4054.12
545.05	3831.12
545.819	3673.12
546.588	3500.12
547.358	3313.12
548.127	3142.12
548.896	2970.12
549.665	2809.12
550.434	2689.12
551.203	2527.12
551.972	2402.12
552.741	2277.12
553.51	2162.12
554.278	2028.12
555.047	1913.12
555.815	1793.12
556.584	1690.12
557.352	1607.12
558.121	1515.12
558.889	1426.12
559.657	1343.12
560.425	1280.12
561.193	1201.12
561.961	1149.12
562.729	1081.12
563.496	1025.12
564.264	967.12
565.032	919.12
565.799	864.12
566.567	817.12
567.334	778.12
568.101	737.12
568.869	697.12
569.636	648.12
570.403	611.12
571.17	581.12
571.937	535.12
572.704	521.12
573.471	495.12
574.237	464.12
575.004	424.12
575.771	410.12
576.537	386.12
577.303	364.12
578.07	336.12
578.836	316.12
579.602	305.12
580.368	283.12
581.134	270.12
581.9	257.12
582.666	248.12
583.432	229.12
584.198	221.12
584.964	210.12
585.729	193.12
586.495	189.12
587.26	181.12
588.025	171.12
588.791	155.12
589.556	154.12
590.321	141.12
591.086	136.12
591.851	135.12
592.616	126.12
593.381	116.12
594.146	113.12
594.911	103.12
595.675	105.12
596.44	94.12
597.204	93.12
597.969	90.12
598.733	84.12
599.497	83.12
600.261	77.12
601.025	76.12
601.79	75.12
602.553	70.12
603.317	65.12
604.081	63.12
604.845	60.12
605.609	56.12
606.372	55.12
607.136	51.12
607.899	53.12
608.662	46.12
609.426	45.12
610.189	46.12
610.952	44.12
611.715	40.12
612.478	41.12
613.241	40.12
614.004	40.12
614.767	35.12
615.529	34.12
616.292	36.12
617.055	32.12
617.817	30.12
618.579	30.12
619.342	29.12
620.104	29.12
620.866	27.12
621.628	26.12
622.39	26.12
623.152	25.12
623.914	23.12
624.676	23.12
625.438	24.12
626.199	22.12
626.961	20.12
627.722	21.12
628.484	19.12
629.245	21.12
630.006	19.12
630.768	19.12
631.529	17.12
632.29	18.12
633.051	15.12
633.812	17.12
634.573	15.12
635.333	16.12
636.094	15.12
636.855	16.12
637.615	15.12
638.376	14.12
639.136	12.12
639.896	10.12
640.657	13.12
641.417	13.12
642.177	12.12
642.937	12.12
643.697	11.12
644.457	12.12
645.216	11.12
645.976	10.12
646.736	10.12
647.495	11.12
648.255	13.12
649.014	10.12
649.774	11.12
650.533	10.12
651.292	9.12
652.051	12.12
652.81	9.12
653.569	9.12
654.328	8.12
655.087	8.12
655.846	7.12
656.604	10.12
657.363	10.12
658.121	9.12
658.88	10.12
659.638	7.12
660.397	7.12
661.155	9.12
661.913	7.12
662.671	6.12
663.429	7.12
664.187	5.12
664.945	9.12
665.703	6.12
666.46	6.12
667.218	9.12
667.976	7.12
668.733	7.12
669.49	6.12
670.248	8.12
671.005	5.12
671.762	7.12
672.519	7.12
673.276	4.12
674.033	5.12
674.79	7.12
675.547	9.12
676.304	6.12
677.06	8.12
677.817	7.12
678.574	4.12
679.33	7.12
680.086	6.12
680.843	8.12
681.599	6.12
682.355	7.12
683.111	6.12
683.867	4.12
684.623	7.12
685.379	6.12
686.135	6.12
686.89	5.12
687.646	4.12
688.402	6.12
689.157	3.12
689.912	5.12
690.668	7.12
691.423	4.12
692.178	4.12
692.933	5.12
693.688	6.12
694.443	5.12
695.198	3.12
695.953	6.12
696.708	3.12
697.462	5.12
698.217	6.12
698.972	4.12
699.726	6.12
700.48	6.12
701.235	5.12
701.989	5.12
702.743	4.12
703.497	4.12
704.251	4.12
705.005	5.12
705.759	5.12
706.513	5.12
707.266	1.12
708.02	5.12
708.774	4.12
709.527	4.12
710.28	4.12
711.034	6.12
711.787	3.12
712.54	8.12
713.293	6.12
714.046	6.12
714.799	4.12
715.552	5.12
716.305	4.12
717.058	5.12
717.81	4.12
718.563	3.12
719.315	5.12
720.068	4.12
720.82	7.12
721.573	3.12
722.325	3.12
723.077	6.12
723.829	7.12
724.581	8.12
725.333	5.12
726.085	7.12
726.836	4.12
727.588	5.12
728.34	6.12
729.091	7.12
729.843	6.12
730.594	5.12
731.346	6.12
732.097	4.12
732.848	7.12
733.599	9.12
734.35	6.12
735.101	7.12
735.852	5.12
736.603	6.12
737.354	8.12
738.104	7.12
738.855	4.12
739.605	8.12
740.356	6.12
741.106	7.12
741.856	9.12
742.607	7.12
743.357	5.12
744.107	7.12
744.857	8.12
745.607	8.12
746.357	6.12
747.106	6.12
747.856	7.12
748.606	6.12
749.355	10.12
750.105	5.12
750.854	8.12
751.603	8.12
752.353	8.12
753.102	7.12
753.851	8.12
754.6	8.12
755.349	9.12
756.098	8.12
756.847	10.12
757.595	8.12
758.344	6.12
759.093	7.12
759.841	10.12
760.589	10.12
761.338	10.12
762.086	7.12
762.834	9.12
763.582	8.12
764.331	10.12
765.079	11.12
765.826	8.12
766.574	10.12
767.322	9.12
768.07	9.12
768.817	12.12
769.565	11.12
770.312	8.12
771.06	8.12
771.807	10.12
772.554	10.12
773.302	11.12
774.049	12.12
774.796	9.12
775.543	10.12
776.29	11.12
777.036	11.12
777.783	10.12
778.53	10.12
779.276	9.12
780.023	12.12
780.769	10.12
781.516	13.12
782.262	10.12
783.008	13.12
783.754	13.12
784.5	13.12
785.246	12.12
785.992	11.12
786.738	11.12
787.484	13.12
788.23	10.12
788.975	10.12
789.721	10.12
790.466	9.12
791.212	10.12
791.957	12.12
792.702	10.12
793.447	11.12
794.193	9.12
794.938	9.12
795.683	11.12
796.427	11.12
797.172	12.12
797.917	12.12
798.662	10.12
799.406	10.12
800.151	9.12
800.895	10.12
801.64	9.12
802.384	11.12
803.128	8.12
803.872	9.12
804.616	8.12
805.36	8.12
806.104	12.12
806.848	8.12
807.592	7.12
808.336	6.12
809.079	6.12
809.823	5.12
810.566	8.12
811.31	9.12
812.053	7.12
812.796	6.12
813.539	7.12
814.283	7.12
815.026	7.12
815.769	7.12
816.511	7.12
817.254	7.12
817.997	5.12
818.74	6.12
819.482	5.12
820.225	7.12
820.967	8.12
821.71	4.12
822.452	6.12
823.194	7.12
823.936	4.12
824.678	5.12
825.42	4.12
826.162	4.12
826.904	4.12
827.646	6.12
828.388	5.12
829.129	3.12
829.871	3.12
830.612	5.12
831.354	3.12
832.095	1.12
832.836	2.12
833.577	3.12
834.319	1.12
835.06	4.12
835.801	4.12
836.542	4.12
837.282	5.12
838.023	2.12
838.764	5.12
839.504	4.12
840.245	6.12
840.985	3.12
841.726	3.12
842.466	5.12
843.206	5.12
843.946	4.12
844.687	2.12
845.427	5.12
846.166	5.12
846.906	3.12
847.646	2.12
848.386	2.12
849.125	4.12
849.865	5.12
850.605	3.12
851.344	3.12
852.083	2.12
852.823	3.12
853.562	2.12
854.301	7.12
855.04	1.12
855.779	2.12
856.518	5.12
857.257	2.12
857.995	5.12
858.734	5.12
859.473	3.12
860.211	2.12
860.95	1.12
861.688	2.12
862.426	2.12
863.165	2.12
863.903	2.12
864.641	4.12
865.379	2.12
866.117	2.12
866.855	2.12
867.593	3.12
868.33	1.12
869.068	1.12
869.806	2.12
870.543	3.12
871.28	-1.88
872.018	2.12
872.755	2.12
873.492	2.12
874.229	2.12
874.967	1.12
875.703	3.12
876.44	2.12
877.177	1.12
877.914	3.12
878.651	0.12
879.387	2.12
880.124	0.12
880.86	2.12
881.597	-0.88
882.333	0.12
883.069	0.12
883.806	0.12
884.542	3.12
885.278	2.12
886.014	1.12
886.749	2.12
887.485	0.12
888.221	1.12
888.957	0.12
889.692	1.12
890.428	0.12
891.163	-0.88
891.899	1.12
892.634	-1.88
893.369	0.12
894.104	2.12
894.839	3.12
895.574	2.12
896.309	-1.88
897.044	2.12
897.779	0.12
898.514	1.12
899.248	1.12
899.983	1.12
900.717	1.12
901.452	1.12
902.186	-0.88
902.92	-0.88
903.654	1.12
904.389	-1.88
905.123	1.12
905.857	0.12
906.59	1.12
907.324	2.12
908.058	-0.88
908.792	0.12
909.525	0.12
910.259	-1.88
910.992	1.12
911.726	0.12
912.459	-0.88
913.192	0.12
913.925	0.12
914.658	0.12
915.391	-1.88
916.124	3.12
916.857	0.12
917.59	1.12
918.323	0.12
919.055	2.12
919.788	2.12
920.521	2.12
921.253	-1.88
921.985	4.12
922.718	0.12
923.45	0.12
924.182	-1.88
924.914	0.12
925.646	-2.88
926.378	0.12
927.11	1.12
927.841	0.12
928.573	1.12
929.305	0.12
930.036	0.12
930.768	2.12
931.499	1.12
932.23	2.12
932.962	-0.88
933.693	1.12
934.424	1.12
935.155	-0.88
935.886	0.12
936.617	0.12
937.348	0.12
938.078	0.12
938.809	0.12
939.54	-1.88
940.27	2.12
941.001	-0.88
941.731	-0.88
942.461	2.12
943.191	0.12
943.922	-0.88
944.652	2.12
945.382	-0.88
946.112	0.12
946.841	1.12
947.571	1.12
948.301	0.12
949.031	-1.88
949.76	2.12
950.49	0.12
951.219	3.12
951.948	-3.88
952.678	-0.88
953.407	1.12
954.136	0.12
954.865	0.12
955.594	-0.88
956.323	0.12
957.052	-1.88
957.78	1.12
958.509	1.12
959.238	1.12
959.966	0.12
960.695	-0.88
961.423	2.12
962.151	-0.88
962.88	-0.88
963.608	1.12
964.336	-1.88
965.064	0.12
965.792	-0.88
966.52	0.12
967.247	-1.88
967.975	-1.88
968.703	-0.88
969.43	-0.88
970.158	4.12
970.885	2.12
971.613	-0.88
972.34	-0.88
973.067	-0.88
973.794	0.12
974.521	0.12
975.248	-1.88
975.975	0.12
976.702	0.12
977.429	0.12
978.156	-1.88
978.882	1.12
979.609	0.12
980.335	-1.88
981.062	-0.88
981.788	0.12
982.514	-1.88
983.24	-1.88
983.967	1.12
984.693	-0.88
985.419	1.12
986.144	-0.88
986.87	0.12
987.596	0.12
988.322	0.12
989.047	-0.88
989.773	-1.88
990.498	0.12
991.224	-1.88
991.949	1.12
992.674	1.12
993.399	-2.88
994.124	0.12
994.849	1.12
995.574	3.12
996.299	-0.88
997.024	-1.88
997.749	-1.88
998.473	0.12
999.198	-0.88
999.922	0.12
1000.647	-1.88
1001.371	5.12
1002.095	1.12
1002.82	-2.88
1003.544	-2.88
1004.268	2.12
1004.992	4.12
1005.716	0.12
1006.439	-0.88
1007.163	2.12
1007.887	3.12
1008.611	0.12
1009.334	0.12
1010.058	2.12
1010.781	0.12
1011.504	-1.88
1012.228	1.12
1012.951	-0.88
1013.674	-0.88
1014.397	1.12
1015.12	0.12
