节点500_425_QEPB04081__176__15-51-14-162.txt的数据

Date: Wed Nov 12 15:51:14 CST 2025
User: PC
Spectrometer: QEPB0408
触发模式: 0
积分时间 (秒): 1.000000E-2
Scans to average: 1
启用暗噪声校正: true
启用非线性校正: false
滑动平均宽度: 0
X轴模式: Wavelengths
Number of Pixels in Spectrum: 1044
>>>>>Begin Spectral Data<<<<<
220.843	4.12
221.644	4.12
222.444	6.12
223.244	6.12
224.045	2.12
224.845	3.12
225.645	4.12
226.445	3.12
227.245	4.12
228.045	7.12
228.845	3.12
229.645	5.12
230.444	6.12
231.244	6.12
232.043	7.12
232.843	3.12
233.642	6.12
234.442	7.12
235.241	5.12
236.04	8.12
236.839	7.12
237.638	6.12
238.437	6.12
239.236	4.12
240.035	10.12
240.833	9.12
241.632	8.12
242.43	8.12
243.229	8.12
244.027	9.12
244.826	10.12
245.624	10.12
246.422	10.12
247.22	9.12
248.018	11.12
248.816	11.12
249.614	11.12
250.412	11.12
251.21	12.12
252.007	9.12
252.805	12.12
253.602	10.12
254.4	12.12
255.197	12.12
255.994	12.12
256.791	13.12
257.589	15.12
258.386	15.12
259.183	13.12
259.979	15.12
260.776	17.12
261.573	18.12
262.37	17.12
263.166	18.12
263.963	15.12
264.759	19.12
265.556	19.12
266.352	22.12
267.148	19.12
267.944	19.12
268.74	21.12
269.536	19.12
270.332	24.12
271.128	23.12
271.924	21.12
272.719	24.12
273.515	20.12
274.311	24.12
275.106	24.12
275.901	25.12
276.697	25.12
277.492	25.12
278.287	25.12
279.082	23.12
279.877	25.12
280.672	27.12
281.467	26.12
282.262	24.12
283.056	27.12
283.851	27.12
284.646	27.12
285.44	27.12
286.234	27.12
287.029	26.12
287.823	24.12
288.617	26.12
289.411	27.12
290.205	23.12
290.999	25.12
291.793	23.12
292.587	25.12
293.381	25.12
294.174	25.12
294.968	23.12
295.761	21.12
296.555	21.12
297.348	21.12
298.141	19.12
298.935	24.12
299.728	20.12
300.521	20.12
301.314	20.12
302.107	18.12
302.899	18.12
303.692	17.12
304.485	17.12
305.277	17.12
306.07	17.12
306.862	17.12
307.655	17.12
308.447	17.12
309.239	13.12
310.031	15.12
310.823	14.12
311.615	15.12
312.407	11.12
313.199	16.12
313.991	15.12
314.783	11.12
315.574	11.12
316.366	12.12
317.157	11.12
317.949	12.12
318.74	10.12
319.531	13.12
320.322	10.12
321.113	11.12
321.904	10.12
322.695	10.12
323.486	11.12
324.277	8.12
325.068	9.12
325.858	7.12
326.649	9.12
327.439	11.12
328.23	8.12
329.02	10.12
329.81	7.12
330.6	10.12
331.391	11.12
332.181	10.12
332.971	11.12
333.76	9.12
334.55	9.12
335.34	9.12
336.13	7.12
336.919	10.12
337.709	8.12
338.498	9.12
339.287	8.12
340.077	6.12
340.866	9.12
341.655	8.12
342.444	11.12
343.233	9.12
344.022	9.12
344.811	9.12
345.6	8.12
346.388	8.12
347.177	11.12
347.965	10.12
348.754	9.12
349.542	7.12
350.33	6.12
351.119	8.12
351.907	9.12
352.695	10.12
353.483	9.12
354.271	9.12
355.059	5.12
355.846	7.12
356.634	7.12
357.422	11.12
358.209	7.12
358.997	7.12
359.784	8.12
360.571	6.12
361.359	10.12
362.146	8.12
362.933	10.12
363.72	8.12
364.507	7.12
365.294	9.12
366.081	9.12
366.867	8.12
367.654	10.12
368.44	9.12
369.227	5.12
370.013	8.12
370.8	10.12
371.586	8.12
372.372	8.12
373.158	10.12
373.944	8.12
374.73	9.12
375.516	5.12
376.302	10.12
377.088	5.12
377.873	8.12
378.659	8.12
379.445	8.12
380.23	9.12
381.015	10.12
381.801	8.12
382.586	9.12
383.371	10.12
384.156	7.12
384.941	9.12
385.726	9.12
386.511	8.12
387.296	9.12
388.08	10.12
388.865	8.12
389.649	8.12
390.434	9.12
391.218	10.12
392.003	9.12
392.787	5.12
393.571	11.12
394.355	7.12
395.139	8.12
395.923	10.12
396.707	10.12
397.491	9.12
398.274	12.12
399.058	11.12
399.842	11.12
400.625	11.12
401.408	10.12
402.192	11.12
402.975	9.12
403.758	10.12
404.541	12.12
405.324	13.12
406.107	14.12
406.89	11.12
407.673	11.12
408.456	13.12
409.238	13.12
410.021	10.12
410.803	12.12
411.586	12.12
412.368	13.12
413.151	13.12
413.933	14.12
414.715	12.12
415.497	13.12
416.279	11.12
417.061	15.12
417.843	15.12
418.624	13.12
419.406	14.12
420.188	14.12
420.969	18.12
421.751	18.12
422.532	15.12
423.313	17.12
424.095	19.12
424.876	17.12
425.657	17.12
426.438	18.12
427.219	19.12
428	21.12
428.78	17.12
429.561	22.12
430.342	23.12
431.122	25.12
431.903	23.12
432.683	24.12
433.464	20.12
434.244	25.12
435.024	24.12
435.804	25.12
436.584	27.12
437.364	30.12
438.144	29.12
438.924	30.12
439.704	32.12
440.483	35.12
441.263	35.12
442.042	35.12
442.822	38.12
443.601	44.12
444.38	47.12
445.16	49.12
445.939	52.12
446.718	53.12
447.497	60.12
448.276	64.12
449.054	72.12
449.833	74.12
450.612	84.12
451.391	91.12
452.169	99.12
452.948	110.12
453.726	115.12
454.504	134.12
455.282	147.12
456.061	167.12
456.839	180.12
457.617	203.12
458.395	223.12
459.172	251.12
459.95	280.12
460.728	312.12
461.506	349.12
462.283	382.12
463.061	429.12
463.838	482.12
464.615	544.12
465.393	601.12
466.17	679.12
466.947	749.12
467.724	831.12
468.501	930.12
469.278	1034.12
470.055	1144.12
470.831	1271.12
471.608	1418.12
472.385	1588.12
473.161	1767.12
473.938	1938.12
474.714	2162.12
475.49	2378.12
476.266	2623.12
477.043	2925.12
477.819	3184.12
478.595	3539.12
479.371	3896.12
480.146	4254.12
480.922	4705.12
481.698	5167.12
482.473	5670.12
483.249	6231.12
484.024	6866.12
484.8	7553.12
485.575	8205.12
486.35	8972.12
487.126	9838.12
487.901	10753.12
488.676	11768.12
489.451	12793.12
490.225	13948.12
491	15146.12
491.775	16409.12
492.55	17709.12
493.324	19066.12
494.099	20504.12
494.873	21875.12
495.647	23438.12
496.422	24864.12
497.196	26421.12
497.97	28035.12
498.744	29439.12
499.518	30819.12
500.292	32016.12
501.066	33171.12
501.839	34234.12
502.613	35043.12
503.387	35799.12
504.16	36184.12
504.934	36349.12
505.707	36369.12
506.48	36141.12
507.253	35849.12
508.027	35294.12
508.8	34618.12
509.573	33721.12
510.346	32855.12
511.118	31838.12
511.891	30714.12
512.664	29545.12
513.437	28282.12
514.209	27154.12
514.982	26148.12
515.754	25045.12
516.526	23877.12
517.298	22896.12
518.071	21954.12
518.843	21056.12
519.615	20098.12
520.387	19271.12
521.159	18598.12
521.93	17866.12
522.702	17160.12
523.474	16511.12
524.245	15874.12
525.017	15106.12
525.788	14409.12
526.56	13721.12
527.331	13091.12
528.102	12523.12
528.873	11869.12
529.644	11301.12
530.415	10761.12
531.186	10248.12
531.957	9728.12
532.728	9153.12
533.498	8691.12
534.269	8152.12
535.039	7724.12
535.81	7300.12
536.58	6895.12
537.351	6491.12
538.121	6134.12
538.891	5818.12
539.661	5521.12
540.431	5235.12
541.201	4939.12
541.971	4699.12
542.741	4459.12
543.51	4242.12
544.28	4025.12
545.05	3810.12
545.819	3655.12
546.588	3456.12
547.358	3269.12
548.127	3101.12
548.896	2944.12
549.665	2780.12
550.434	2633.12
551.203	2512.12
551.972	2341.12
552.741	2243.12
553.51	2109.12
554.278	1994.12
555.047	1872.12
555.815	1785.12
556.584	1686.12
557.352	1573.12
558.121	1505.12
558.889	1411.12
559.657	1333.12
560.425	1256.12
561.193	1198.12
561.961	1126.12
562.729	1077.12
563.496	1011.12
564.264	960.12
565.032	916.12
565.799	849.12
566.567	805.12
567.334	763.12
568.101	722.12
568.869	675.12
569.636	644.12
570.403	598.12
571.17	569.12
571.937	539.12
572.704	507.12
573.471	477.12
574.237	447.12
575.004	425.12
575.771	404.12
576.537	374.12
577.303	365.12
578.07	334.12
578.836	314.12
579.602	306.12
580.368	292.12
581.134	268.12
581.9	254.12
582.666	239.12
583.432	234.12
584.198	218.12
584.964	203.12
585.729	196.12
586.495	188.12
587.26	179.12
588.025	164.12
588.791	158.12
589.556	158.12
590.321	145.12
591.086	134.12
591.851	130.12
592.616	121.12
593.381	117.12
594.146	113.12
594.911	105.12
595.675	95.12
596.44	98.12
597.204	89.12
597.969	92.12
598.733	85.12
599.497	80.12
600.261	79.12
601.025	76.12
601.79	72.12
602.553	64.12
603.317	66.12
604.081	65.12
604.845	61.12
605.609	54.12
606.372	56.12
607.136	55.12
607.899	50.12
608.662	49.12
609.426	49.12
610.189	45.12
610.952	43.12
611.715	41.12
612.478	41.12
613.241	43.12
614.004	37.12
614.767	35.12
615.529	35.12
616.292	35.12
617.055	33.12
617.817	34.12
618.579	32.12
619.342	27.12
620.104	28.12
620.866	26.12
621.628	27.12
622.39	29.12
623.152	27.12
623.914	29.12
624.676	22.12
625.438	23.12
626.199	20.12
626.961	23.12
627.722	21.12
628.484	21.12
629.245	20.12
630.006	20.12
630.768	21.12
631.529	17.12
632.29	17.12
633.051	18.12
633.812	19.12
634.573	18.12
635.333	16.12
636.094	15.12
636.855	14.12
637.615	13.12
638.376	14.12
639.136	13.12
639.896	17.12
640.657	11.12
641.417	14.12
642.177	14.12
642.937	10.12
643.697	11.12
644.457	11.12
645.216	14.12
645.976	15.12
646.736	13.12
647.495	11.12
648.255	8.12
649.014	13.12
649.774	9.12
650.533	10.12
651.292	10.12
652.051	10.12
652.81	10.12
653.569	11.12
654.328	9.12
655.087	7.12
655.846	8.12
656.604	11.12
657.363	10.12
658.121	10.12
658.88	6.12
659.638	9.12
660.397	9.12
661.155	9.12
661.913	9.12
662.671	8.12
663.429	10.12
664.187	10.12
664.945	9.12
665.703	8.12
666.46	10.12
667.218	7.12
667.976	5.12
668.733	10.12
669.49	7.12
670.248	8.12
671.005	8.12
671.762	3.12
672.519	7.12
673.276	7.12
674.033	7.12
674.79	7.12
675.547	7.12
676.304	10.12
677.06	7.12
677.817	6.12
678.574	9.12
679.33	7.12
680.086	8.12
680.843	6.12
681.599	8.12
682.355	8.12
683.111	6.12
683.867	6.12
684.623	7.12
685.379	7.12
686.135	6.12
686.89	8.12
687.646	6.12
688.402	6.12
689.157	6.12
689.912	5.12
690.668	7.12
691.423	5.12
692.178	6.12
692.933	4.12
693.688	5.12
694.443	8.12
695.198	4.12
695.953	6.12
696.708	4.12
697.462	4.12
698.217	6.12
698.972	8.12
699.726	4.12
700.48	5.12
701.235	7.12
701.989	2.12
702.743	7.12
703.497	6.12
704.251	7.12
705.005	7.12
705.759	8.12
706.513	5.12
707.266	5.12
708.02	6.12
708.774	5.12
709.527	7.12
710.28	5.12
711.034	5.12
711.787	5.12
712.54	6.12
713.293	5.12
714.046	5.12
714.799	6.12
715.552	5.12
716.305	7.12
717.058	6.12
717.81	6.12
718.563	7.12
719.315	4.12
720.068	5.12
720.82	7.12
721.573	6.12
722.325	8.12
723.077	8.12
723.829	5.12
724.581	6.12
725.333	8.12
726.085	4.12
726.836	7.12
727.588	5.12
728.34	5.12
729.091	6.12
729.843	6.12
730.594	6.12
731.346	6.12
732.097	8.12
732.848	7.12
733.599	7.12
734.35	7.12
735.101	7.12
735.852	7.12
736.603	7.12
737.354	7.12
738.104	7.12
738.855	7.12
739.605	7.12
740.356	6.12
741.106	9.12
741.856	9.12
742.607	8.12
743.357	9.12
744.107	9.12
744.857	9.12
745.607	9.12
746.357	7.12
747.106	7.12
747.856	5.12
748.606	8.12
749.355	7.12
750.105	10.12
750.854	7.12
751.603	7.12
752.353	8.12
753.102	8.12
753.851	8.12
754.6	10.12
755.349	9.12
756.098	10.12
756.847	9.12
757.595	10.12
758.344	11.12
759.093	10.12
759.841	8.12
760.589	9.12
761.338	10.12
762.086	10.12
762.834	9.12
763.582	11.12
764.331	8.12
765.079	11.12
765.826	10.12
766.574	10.12
767.322	10.12
768.07	12.12
768.817	9.12
769.565	14.12
770.312	12.12
771.06	10.12
771.807	11.12
772.554	12.12
773.302	10.12
774.049	10.12
774.796	12.12
775.543	12.12
776.29	12.12
777.036	11.12
777.783	9.12
778.53	13.12
779.276	13.12
780.023	11.12
780.769	14.12
781.516	14.12
782.262	11.12
783.008	11.12
783.754	14.12
784.5	14.12
785.246	11.12
785.992	12.12
786.738	14.12
787.484	14.12
788.23	12.12
788.975	12.12
789.721	11.12
790.466	12.12
791.212	13.12
791.957	13.12
792.702	13.12
793.447	13.12
794.193	13.12
794.938	10.12
795.683	11.12
796.427	13.12
797.172	12.12
797.917	10.12
798.662	12.12
799.406	12.12
800.151	12.12
800.895	10.12
801.64	11.12
802.384	8.12
803.128	8.12
803.872	11.12
804.616	8.12
805.36	8.12
806.104	10.12
806.848	9.12
807.592	8.12
808.336	9.12
809.079	8.12
809.823	10.12
810.566	8.12
811.31	7.12
812.053	4.12
812.796	7.12
813.539	7.12
814.283	7.12
815.026	8.12
815.769	3.12
816.511	9.12
817.254	6.12
817.997	6.12
818.74	7.12
819.482	8.12
820.225	8.12
820.967	5.12
821.71	7.12
822.452	4.12
823.194	7.12
823.936	6.12
824.678	7.12
825.42	6.12
826.162	5.12
826.904	8.12
827.646	4.12
828.388	7.12
829.129	5.12
829.871	5.12
830.612	6.12
831.354	5.12
832.095	7.12
832.836	4.12
833.577	6.12
834.319	5.12
835.06	5.12
835.801	4.12
836.542	4.12
837.282	6.12
838.023	5.12
838.764	6.12
839.504	5.12
840.245	6.12
840.985	5.12
841.726	5.12
842.466	4.12
843.206	5.12
843.946	5.12
844.687	4.12
845.427	4.12
846.166	2.12
846.906	4.12
847.646	2.12
848.386	5.12
849.125	3.12
849.865	4.12
850.605	4.12
851.344	6.12
852.083	3.12
852.823	4.12
853.562	3.12
854.301	3.12
855.04	3.12
855.779	6.12
856.518	2.12
857.257	2.12
857.995	2.12
858.734	3.12
859.473	4.12
860.211	3.12
860.95	2.12
861.688	3.12
862.426	4.12
863.165	3.12
863.903	5.12
864.641	5.12
865.379	2.12
866.117	3.12
866.855	3.12
867.593	3.12
868.33	2.12
869.068	2.12
869.806	4.12
870.543	5.12
871.28	2.12
872.018	2.12
872.755	3.12
873.492	2.12
874.229	1.12
874.967	3.12
875.703	1.12
876.44	4.12
877.177	2.12
877.914	2.12
878.651	2.12
879.387	1.12
880.124	2.12
880.86	1.12
881.597	1.12
882.333	2.12
883.069	2.12
883.806	3.12
884.542	1.12
885.278	3.12
886.014	2.12
886.749	2.12
887.485	0.12
888.221	2.12
888.957	3.12
889.692	-0.88
890.428	3.12
891.163	0.12
891.899	2.12
892.634	3.12
893.369	3.12
894.104	2.12
894.839	2.12
895.574	1.12
896.309	3.12
897.044	4.12
897.779	0.12
898.514	0.12
899.248	4.12
899.983	0.12
900.717	1.12
901.452	3.12
902.186	2.12
902.92	2.12
903.654	1.12
904.389	0.12
905.123	2.12
905.857	2.12
906.59	0.12
907.324	3.12
908.058	3.12
908.792	1.12
909.525	2.12
910.259	2.12
910.992	2.12
911.726	2.12
912.459	0.12
913.192	0.12
913.925	0.12
914.658	2.12
915.391	0.12
916.124	1.12
916.857	2.12
917.59	2.12
918.323	0.12
919.055	5.12
919.788	2.12
920.521	1.12
921.253	-0.88
921.985	1.12
922.718	2.12
923.45	1.12
924.182	1.12
924.914	1.12
925.646	3.12
926.378	1.12
927.11	1.12
927.841	1.12
928.573	1.12
929.305	2.12
930.036	-0.88
930.768	1.12
931.499	1.12
932.23	3.12
932.962	1.12
933.693	-0.88
934.424	1.12
935.155	2.12
935.886	2.12
936.617	1.12
937.348	1.12
938.078	4.12
938.809	0.12
939.54	1.12
940.27	1.12
941.001	1.12
941.731	1.12
942.461	1.12
943.191	1.12
943.922	1.12
944.652	0.12
945.382	3.12
946.112	0.12
946.841	0.12
947.571	1.12
948.301	-0.88
949.031	1.12
949.76	2.12
950.49	1.12
951.219	-2.88
951.948	-0.88
952.678	0.12
953.407	1.12
954.136	2.12
954.865	0.12
955.594	2.12
956.323	-0.88
957.052	1.12
957.78	1.12
958.509	1.12
959.238	0.12
959.966	-0.88
960.695	1.12
961.423	-0.88
962.151	1.12
962.88	1.12
963.608	2.12
964.336	1.12
965.064	0.12
965.792	2.12
966.52	1.12
967.247	3.12
967.975	-0.88
968.703	1.12
969.43	0.12
970.158	2.12
970.885	3.12
971.613	2.12
972.34	1.12
973.067	1.12
973.794	4.12
974.521	1.12
975.248	2.12
975.975	1.12
976.702	1.12
977.429	3.12
978.156	2.12
978.882	3.12
979.609	4.12
980.335	2.12
981.062	-0.88
981.788	1.12
982.514	-0.88
983.24	-0.88
983.967	0.12
984.693	2.12
985.419	1.12
986.144	2.12
986.87	2.12
987.596	0.12
988.322	1.12
989.047	1.12
989.773	3.12
990.498	1.12
991.224	0.12
991.949	0.12
992.674	2.12
993.399	1.12
994.124	0.12
994.849	-0.88
995.574	0.12
996.299	3.12
997.024	2.12
997.749	0.12
998.473	2.12
999.198	2.12
999.922	2.12
1000.647	1.12
1001.371	1.12
1002.095	0.12
1002.82	-0.88
1003.544	-0.88
1004.268	1.12
1004.992	5.12
1005.716	3.12
1006.439	5.12
1007.163	3.12
1007.887	4.12
1008.611	-0.88
1009.334	3.12
1010.058	1.12
1010.781	1.12
1011.504	-0.88
1012.228	1.12
1012.951	-1.88
1013.674	1.12
1014.397	0.12
1015.12	1.12
