节点500_425_QEPB04081__213__15-51-51-089.txt的数据

Date: Wed Nov 12 15:51:51 CST 2025
User: PC
Spectrometer: QEPB0408
触发模式: 0
积分时间 (秒): 1.000000E-2
Scans to average: 1
启用暗噪声校正: true
启用非线性校正: false
滑动平均宽度: 0
X轴模式: Wavelengths
Number of Pixels in Spectrum: 1044
>>>>>Begin Spectral Data<<<<<
220.843	0.75
221.644	0.75
222.444	3.75
223.244	4.75
224.045	2.75
224.845	3.75
225.645	3.75
226.445	4.75
227.245	4.75
228.045	3.75
228.845	2.75
229.645	4.75
230.444	3.75
231.244	5.75
232.043	3.75
232.843	7.75
233.642	3.75
234.442	6.75
235.241	7.75
236.04	7.75
236.839	6.75
237.638	8.75
238.437	7.75
239.236	5.75
240.035	5.75
240.833	9.75
241.632	7.75
242.43	10.75
243.229	9.75
244.027	6.75
244.826	7.75
245.624	6.75
246.422	8.75
247.22	9.75
248.018	9.75
248.816	10.75
249.614	9.75
250.412	11.75
251.21	10.75
252.007	9.75
252.805	11.75
253.602	10.75
254.4	12.75
255.197	12.75
255.994	14.75
256.791	14.75
257.589	12.75
258.386	13.75
259.183	15.75
259.979	14.75
260.776	12.75
261.573	14.75
262.37	14.75
263.166	16.75
263.963	16.75
264.759	19.75
265.556	19.75
266.352	17.75
267.148	19.75
267.944	19.75
268.74	20.75
269.536	20.75
270.332	20.75
271.128	23.75
271.924	22.75
272.719	23.75
273.515	24.75
274.311	22.75
275.106	24.75
275.901	21.75
276.697	23.75
277.492	23.75
278.287	24.75
279.082	25.75
279.877	25.75
280.672	26.75
281.467	26.75
282.262	25.75
283.056	27.75
283.851	24.75
284.646	25.75
285.44	23.75
286.234	26.75
287.029	23.75
287.823	22.75
288.617	22.75
289.411	25.75
290.205	24.75
290.999	23.75
291.793	25.75
292.587	24.75
293.381	21.75
294.174	22.75
294.968	22.75
295.761	22.75
296.555	19.75
297.348	17.75
298.141	20.75
298.935	23.75
299.728	19.75
300.521	17.75
301.314	18.75
302.107	21.75
302.899	17.75
303.692	14.75
304.485	20.75
305.277	17.75
306.07	15.75
306.862	16.75
307.655	17.75
308.447	12.75
309.239	16.75
310.031	16.75
310.823	14.75
311.615	16.75
312.407	12.75
313.199	12.75
313.991	12.75
314.783	10.75
315.574	12.75
316.366	13.75
317.157	11.75
317.949	12.75
318.74	12.75
319.531	11.75
320.322	8.75
321.113	12.75
321.904	8.75
322.695	9.75
323.486	9.75
324.277	9.75
325.068	10.75
325.858	9.75
326.649	7.75
327.439	9.75
328.23	9.75
329.02	10.75
329.81	8.75
330.6	7.75
331.391	10.75
332.181	8.75
332.971	7.75
333.76	10.75
334.55	8.75
335.34	9.75
336.13	10.75
336.919	9.75
337.709	11.75
338.498	8.75
339.287	9.75
340.077	9.75
340.866	6.75
341.655	11.75
342.444	7.75
343.233	10.75
344.022	9.75
344.811	7.75
345.6	10.75
346.388	7.75
347.177	8.75
347.965	7.75
348.754	11.75
349.542	6.75
350.33	9.75
351.119	6.75
351.907	7.75
352.695	6.75
353.483	7.75
354.271	5.75
355.059	8.75
355.846	6.75
356.634	9.75
357.422	7.75
358.209	8.75
358.997	8.75
359.784	7.75
360.571	8.75
361.359	7.75
362.146	7.75
362.933	6.75
363.72	6.75
364.507	5.75
365.294	4.75
366.081	5.75
366.867	8.75
367.654	9.75
368.44	6.75
369.227	6.75
370.013	10.75
370.8	7.75
371.586	7.75
372.372	6.75
373.158	7.75
373.944	9.75
374.73	3.75
375.516	6.75
376.302	6.75
377.088	8.75
377.873	8.75
378.659	5.75
379.445	8.75
380.23	4.75
381.015	7.75
381.801	6.75
382.586	8.75
383.371	6.75
384.156	5.75
384.941	9.75
385.726	8.75
386.511	9.75
387.296	10.75
388.08	6.75
388.865	7.75
389.649	8.75
390.434	6.75
391.218	9.75
392.003	6.75
392.787	8.75
393.571	8.75
394.355	10.75
395.139	10.75
395.923	7.75
396.707	9.75
397.491	9.75
398.274	11.75
399.058	8.75
399.842	10.75
400.625	10.75
401.408	9.75
402.192	9.75
402.975	10.75
403.758	8.75
404.541	9.75
405.324	8.75
406.107	11.75
406.89	9.75
407.673	10.75
408.456	13.75
409.238	11.75
410.021	13.75
410.803	12.75
411.586	12.75
412.368	12.75
413.151	12.75
413.933	13.75
414.715	12.75
415.497	13.75
416.279	13.75
417.061	12.75
417.843	11.75
418.624	13.75
419.406	13.75
420.188	14.75
420.969	15.75
421.751	14.75
422.532	15.75
423.313	17.75
424.095	13.75
424.876	14.75
425.657	17.75
426.438	16.75
427.219	16.75
428	17.75
428.78	16.75
429.561	16.75
430.342	20.75
431.122	20.75
431.903	20.75
432.683	21.75
433.464	21.75
434.244	24.75
435.024	23.75
435.804	24.75
436.584	27.75
437.364	27.75
438.144	29.75
438.924	29.75
439.704	33.75
440.483	30.75
441.263	35.75
442.042	36.75
442.822	40.75
443.601	44.75
444.38	47.75
445.16	50.75
445.939	52.75
446.718	55.75
447.497	61.75
448.276	64.75
449.054	72.75
449.833	75.75
450.612	83.75
451.391	94.75
452.169	101.75
452.948	109.75
453.726	118.75
454.504	134.75
455.282	152.75
456.061	162.75
456.839	184.75
457.617	199.75
458.395	226.75
459.172	251.75
459.95	282.75
460.728	307.75
461.506	350.75
462.283	382.75
463.061	433.75
463.838	492.75
464.615	553.75
465.393	613.75
466.17	674.75
466.947	753.75
467.724	850.75
468.501	944.75
469.278	1049.75
470.055	1170.75
470.831	1287.75
471.608	1434.75
472.385	1584.75
473.161	1763.75
473.938	1942.75
474.714	2144.75
475.49	2377.75
476.266	2611.75
477.043	2883.75
477.819	3191.75
478.595	3521.75
479.371	3895.75
480.146	4241.75
480.922	4686.75
481.698	5157.75
482.473	5674.75
483.249	6189.75
484.024	6799.75
484.8	7481.75
485.575	8159.75
486.35	8919.75
487.126	9729.75
487.901	10628.75
488.676	11590.75
489.451	12612.75
490.225	13714.75
491	14897.75
491.775	16182.75
492.55	17475.75
493.324	18804.75
494.099	20148.75
494.873	21528.75
495.647	22990.75
496.422	24464.75
497.196	25963.75
497.97	27426.75
498.744	28919.75
499.518	30215.75
500.292	31521.75
501.066	32631.75
501.839	33704.75
502.613	34656.75
503.387	35245.75
504.16	35777.75
504.934	36006.75
505.707	35994.75
506.48	35816.75
507.253	35481.75
508.027	35031.75
508.8	34480.75
509.573	33651.75
510.346	32720.75
511.118	31801.75
511.891	30721.75
512.664	29576.75
513.437	28385.75
514.209	27150.75
514.982	26163.75
515.754	25064.75
516.526	23974.75
517.298	22936.75
518.071	21929.75
518.843	21072.75
519.615	20195.75
520.387	19399.75
521.159	18726.75
521.93	17937.75
522.702	17236.75
523.474	16558.75
524.245	15871.75
525.017	15171.75
525.788	14390.75
526.56	13790.75
527.331	13161.75
528.102	12534.75
528.873	11965.75
529.644	11384.75
530.415	10838.75
531.186	10304.75
531.957	9789.75
532.728	9263.75
533.498	8725.75
534.269	8213.75
535.039	7798.75
535.81	7399.75
536.58	6964.75
537.351	6532.75
538.121	6212.75
538.891	5870.75
539.661	5587.75
540.431	5277.75
541.201	4992.75
541.971	4725.75
542.741	4498.75
543.51	4267.75
544.28	4046.75
545.05	3820.75
545.819	3678.75
546.588	3473.75
547.358	3303.75
548.127	3118.75
548.896	2962.75
549.665	2816.75
550.434	2698.75
551.203	2535.75
551.972	2388.75
552.741	2259.75
553.51	2148.75
554.278	2016.75
555.047	1890.75
555.815	1791.75
556.584	1705.75
557.352	1600.75
558.121	1510.75
558.889	1426.75
559.657	1353.75
560.425	1267.75
561.193	1197.75
561.961	1149.75
562.729	1086.75
563.496	1029.75
564.264	970.75
565.032	914.75
565.799	863.75
566.567	818.75
567.334	774.75
568.101	727.75
568.869	689.75
569.636	645.75
570.403	603.75
571.17	573.75
571.937	543.75
572.704	506.75
573.471	493.75
574.237	453.75
575.004	429.75
575.771	408.75
576.537	374.75
577.303	360.75
578.07	336.75
578.836	315.75
579.602	304.75
580.368	286.75
581.134	270.75
581.9	260.75
582.666	244.75
583.432	226.75
584.198	221.75
584.964	209.75
585.729	201.75
586.495	192.75
587.26	173.75
588.025	163.75
588.791	161.75
589.556	158.75
590.321	147.75
591.086	135.75
591.851	132.75
592.616	125.75
593.381	117.75
594.146	111.75
594.911	108.75
595.675	105.75
596.44	96.75
597.204	93.75
597.969	88.75
598.733	83.75
599.497	82.75
600.261	76.75
601.025	75.75
601.79	71.75
602.553	67.75
603.317	65.75
604.081	61.75
604.845	58.75
605.609	56.75
606.372	54.75
607.136	53.75
607.899	50.75
608.662	48.75
609.426	43.75
610.189	46.75
610.952	40.75
611.715	43.75
612.478	39.75
613.241	39.75
614.004	41.75
614.767	34.75
615.529	33.75
616.292	38.75
617.055	30.75
617.817	33.75
618.579	33.75
619.342	26.75
620.104	29.75
620.866	26.75
621.628	26.75
622.39	26.75
623.152	26.75
623.914	25.75
624.676	26.75
625.438	22.75
626.199	24.75
626.961	22.75
627.722	21.75
628.484	20.75
629.245	17.75
630.006	16.75
630.768	15.75
631.529	17.75
632.29	18.75
633.051	19.75
633.812	15.75
634.573	16.75
635.333	15.75
636.094	15.75
636.855	14.75
637.615	15.75
638.376	15.75
639.136	14.75
639.896	14.75
640.657	10.75
641.417	13.75
642.177	12.75
642.937	10.75
643.697	12.75
644.457	13.75
645.216	13.75
645.976	7.75
646.736	9.75
647.495	11.75
648.255	9.75
649.014	11.75
649.774	9.75
650.533	8.75
651.292	8.75
652.051	7.75
652.81	8.75
653.569	11.75
654.328	8.75
655.087	8.75
655.846	9.75
656.604	7.75
657.363	10.75
658.121	7.75
658.88	9.75
659.638	8.75
660.397	6.75
661.155	7.75
661.913	8.75
662.671	8.75
663.429	9.75
664.187	6.75
664.945	7.75
665.703	6.75
666.46	8.75
667.218	7.75
667.976	6.75
668.733	8.75
669.49	5.75
670.248	7.75
671.005	6.75
671.762	4.75
672.519	7.75
673.276	5.75
674.033	5.75
674.79	5.75
675.547	6.75
676.304	6.75
677.06	6.75
677.817	6.75
678.574	4.75
679.33	7.75
680.086	6.75
680.843	7.75
681.599	5.75
682.355	2.75
683.111	7.75
683.867	3.75
684.623	6.75
685.379	5.75
686.135	5.75
686.89	6.75
687.646	6.75
688.402	2.75
689.157	5.75
689.912	6.75
690.668	6.75
691.423	6.75
692.178	4.75
692.933	6.75
693.688	4.75
694.443	6.75
695.198	7.75
695.953	5.75
696.708	2.75
697.462	7.75
698.217	5.75
698.972	3.75
699.726	5.75
700.48	4.75
701.235	5.75
701.989	3.75
702.743	5.75
703.497	4.75
704.251	7.75
705.005	4.75
705.759	3.75
706.513	5.75
707.266	4.75
708.02	4.75
708.774	5.75
709.527	5.75
710.28	4.75
711.034	2.75
711.787	4.75
712.54	4.75
713.293	6.75
714.046	4.75
714.799	5.75
715.552	5.75
716.305	5.75
717.058	6.75
717.81	5.75
718.563	6.75
719.315	5.75
720.068	6.75
720.82	6.75
721.573	4.75
722.325	5.75
723.077	5.75
723.829	2.75
724.581	7.75
725.333	5.75
726.085	4.75
726.836	7.75
727.588	5.75
728.34	8.75
729.091	7.75
729.843	6.75
730.594	5.75
731.346	4.75
732.097	6.75
732.848	4.75
733.599	8.75
734.35	4.75
735.101	6.75
735.852	8.75
736.603	5.75
737.354	6.75
738.104	5.75
738.855	8.75
739.605	7.75
740.356	8.75
741.106	6.75
741.856	8.75
742.607	5.75
743.357	7.75
744.107	8.75
744.857	7.75
745.607	6.75
746.357	9.75
747.106	6.75
747.856	7.75
748.606	8.75
749.355	8.75
750.105	8.75
750.854	9.75
751.603	6.75
752.353	8.75
753.102	7.75
753.851	9.75
754.6	10.75
755.349	9.75
756.098	10.75
756.847	7.75
757.595	9.75
758.344	8.75
759.093	7.75
759.841	8.75
760.589	9.75
761.338	5.75
762.086	10.75
762.834	11.75
763.582	8.75
764.331	8.75
765.079	8.75
765.826	8.75
766.574	11.75
767.322	8.75
768.07	10.75
768.817	8.75
769.565	9.75
770.312	9.75
771.06	12.75
771.807	11.75
772.554	10.75
773.302	10.75
774.049	11.75
774.796	9.75
775.543	12.75
776.29	9.75
777.036	11.75
777.783	11.75
778.53	10.75
779.276	9.75
780.023	11.75
780.769	9.75
781.516	11.75
782.262	10.75
783.008	12.75
783.754	12.75
784.5	11.75
785.246	12.75
785.992	9.75
786.738	14.75
787.484	11.75
788.23	12.75
788.975	12.75
789.721	13.75
790.466	11.75
791.212	10.75
791.957	11.75
792.702	11.75
793.447	9.75
794.193	9.75
794.938	10.75
795.683	10.75
796.427	10.75
797.172	9.75
797.917	11.75
798.662	6.75
799.406	11.75
800.151	8.75
800.895	9.75
801.64	6.75
802.384	8.75
803.128	12.75
803.872	6.75
804.616	10.75
805.36	8.75
806.104	6.75
806.848	10.75
807.592	7.75
808.336	7.75
809.079	8.75
809.823	7.75
810.566	8.75
811.31	7.75
812.053	7.75
812.796	4.75
813.539	8.75
814.283	7.75
815.026	4.75
815.769	5.75
816.511	5.75
817.254	6.75
817.997	5.75
818.74	9.75
819.482	6.75
820.225	5.75
820.967	4.75
821.71	7.75
822.452	5.75
823.194	4.75
823.936	5.75
824.678	7.75
825.42	4.75
826.162	6.75
826.904	4.75
827.646	5.75
828.388	5.75
829.129	6.75
829.871	7.75
830.612	3.75
831.354	4.75
832.095	5.75
832.836	3.75
833.577	5.75
834.319	3.75
835.06	6.75
835.801	6.75
836.542	4.75
837.282	4.75
838.023	4.75
838.764	4.75
839.504	3.75
840.245	4.75
840.985	5.75
841.726	4.75
842.466	4.75
843.206	5.75
843.946	2.75
844.687	5.75
845.427	3.75
846.166	2.75
846.906	4.75
847.646	3.75
848.386	3.75
849.125	5.75
849.865	5.75
850.605	3.75
851.344	5.75
852.083	5.75
852.823	4.75
853.562	2.75
854.301	2.75
855.04	3.75
855.779	2.75
856.518	3.75
857.257	1.75
857.995	3.75
858.734	1.75
859.473	5.75
860.211	2.75
860.95	2.75
861.688	1.75
862.426	2.75
863.165	1.75
863.903	0.75
864.641	2.75
865.379	2.75
866.117	2.75
866.855	3.75
867.593	-0.25
868.33	1.75
869.068	4.75
869.806	0.75
870.543	5.75
871.28	0.75
872.018	0.75
872.755	2.75
873.492	2.75
874.229	1.75
874.967	2.75
875.703	3.75
876.44	2.75
877.177	3.75
877.914	2.75
878.651	0.75
879.387	-0.25
880.124	2.75
880.86	2.75
881.597	0.75
882.333	1.75
883.069	1.75
883.806	0.75
884.542	2.75
885.278	1.75
886.014	0.75
886.749	4.75
887.485	0.75
888.221	0.75
888.957	1.75
889.692	0.75
890.428	0.75
891.163	0.75
891.899	-0.25
892.634	2.75
893.369	1.75
894.104	1.75
894.839	-1.25
895.574	-0.25
896.309	1.75
897.044	1.75
897.779	0.75
898.514	0.75
899.248	-1.25
899.983	0.75
900.717	-0.25
901.452	1.75
902.186	1.75
902.92	1.75
903.654	0.75
904.389	1.75
905.123	-0.25
905.857	2.75
906.59	1.75
907.324	2.75
908.058	-0.25
908.792	0.75
909.525	1.75
910.259	2.75
910.992	0.75
911.726	-2.25
912.459	0.75
913.192	2.75
913.925	-0.25
914.658	1.75
915.391	-1.25
916.124	1.75
916.857	0.75
917.59	-0.25
918.323	0.75
919.055	2.75
919.788	2.75
920.521	0.75
921.253	-0.25
921.985	1.75
922.718	0.75
923.45	1.75
924.182	-0.25
924.914	2.75
925.646	0.75
926.378	1.75
927.11	-1.25
927.841	0.75
928.573	1.75
929.305	2.75
930.036	0.75
930.768	0.75
931.499	-0.25
932.23	1.75
932.962	0.75
933.693	0.75
934.424	-2.25
935.155	-1.25
935.886	-1.25
936.617	0.75
937.348	0.75
938.078	-0.25
938.809	1.75
939.54	2.75
940.27	1.75
941.001	2.75
941.731	-0.25
942.461	1.75
943.191	-0.25
943.922	-0.25
944.652	-2.25
945.382	-1.25
946.112	-0.25
946.841	-0.25
947.571	0.75
948.301	0.75
949.031	-0.25
949.76	-1.25
950.49	-0.25
951.219	-0.25
951.948	-1.25
952.678	0.75
953.407	2.75
954.136	2.75
954.865	-1.25
955.594	1.75
956.323	2.75
957.052	1.75
957.78	-1.25
958.509	0.75
959.238	0.75
959.966	1.75
960.695	-1.25
961.423	0.75
962.151	1.75
962.88	1.75
963.608	3.75
964.336	-0.25
965.064	0.75
965.792	0.75
966.52	0.75
967.247	3.75
967.975	0.75
968.703	0.75
969.43	2.75
970.158	0.75
970.885	0.75
971.613	0.75
972.34	0.75
973.067	-1.25
973.794	1.75
974.521	1.75
975.248	-0.25
975.975	1.75
976.702	1.75
977.429	1.75
978.156	-0.25
978.882	0.75
979.609	-0.25
980.335	-0.25
981.062	0.75
981.788	-1.25
982.514	0.75
983.24	-0.25
983.967	-0.25
984.693	2.75
985.419	-1.25
986.144	0.75
986.87	1.75
987.596	0.75
988.322	1.75
989.047	0.75
989.773	1.75
990.498	-0.25
991.224	-0.25
991.949	0.75
992.674	-0.25
993.399	-0.25
994.124	-1.25
994.849	2.75
995.574	-1.25
996.299	0.75
997.024	-0.25
997.749	1.75
998.473	0.75
999.198	-1.25
999.922	1.75
1000.647	1.75
1001.371	2.75
1002.095	0.75
1002.82	-1.25
1003.544	-3.25
1004.268	3.75
1004.992	2.75
1005.716	5.75
1006.439	4.75
1007.163	3.75
1007.887	2.75
1008.611	1.75
1009.334	1.75
1010.058	0.75
1010.781	0.75
1011.504	1.75
1012.228	-0.25
1012.951	0.75
1013.674	-1.25
1014.397	0.75
1015.12	0.75
