节点500_425_QEPB04081__362__15-54-19-758.txt的数据

Date: Wed Nov 12 15:54:19 CST 2025
User: PC
Spectrometer: QEPB0408
触发模式: 0
积分时间 (秒): 1.000000E-2
Scans to average: 1
启用暗噪声校正: true
启用非线性校正: false
滑动平均宽度: 0
X轴模式: Wavelengths
Number of Pixels in Spectrum: 1044
>>>>>Begin Spectral Data<<<<<
220.843	1.25
221.644	3.25
222.444	2.25
223.244	2.25
224.045	-0.75
224.845	3.25
225.645	1.25
226.445	4.25
227.245	1.25
228.045	2.25
228.845	4.25
229.645	2.25
230.444	4.25
231.244	5.25
232.043	4.25
232.843	5.25
233.642	1.25
234.442	7.25
235.241	6.25
236.04	6.25
236.839	7.25
237.638	4.25
238.437	4.25
239.236	5.25
240.035	5.25
240.833	5.25
241.632	6.25
242.43	6.25
243.229	3.25
244.027	6.25
244.826	7.25
245.624	6.25
246.422	7.25
247.22	6.25
248.018	9.25
248.816	9.25
249.614	8.25
250.412	8.25
251.21	8.25
252.007	9.25
252.805	9.25
253.602	9.25
254.4	9.25
255.197	10.25
255.994	13.25
256.791	12.25
257.589	10.25
258.386	13.25
259.183	13.25
259.979	11.25
260.776	13.25
261.573	10.25
262.37	12.25
263.166	13.25
263.963	13.25
264.759	15.25
265.556	16.25
266.352	18.25
267.148	16.25
267.944	16.25
268.74	18.25
269.536	17.25
270.332	18.25
271.128	19.25
271.924	18.25
272.719	19.25
273.515	21.25
274.311	21.25
275.106	22.25
275.901	23.25
276.697	21.25
277.492	23.25
278.287	23.25
279.082	24.25
279.877	24.25
280.672	25.25
281.467	22.25
282.262	22.25
283.056	22.25
283.851	27.25
284.646	24.25
285.44	24.25
286.234	23.25
287.029	24.25
287.823	24.25
288.617	23.25
289.411	25.25
290.205	22.25
290.999	22.25
291.793	26.25
292.587	20.25
293.381	20.25
294.174	22.25
294.968	20.25
295.761	21.25
296.555	17.25
297.348	19.25
298.141	18.25
298.935	20.25
299.728	16.25
300.521	17.25
301.314	19.25
302.107	17.25
302.899	17.25
303.692	17.25
304.485	17.25
305.277	17.25
306.07	16.25
306.862	16.25
307.655	11.25
308.447	17.25
309.239	13.25
310.031	12.25
310.823	14.25
311.615	10.25
312.407	10.25
313.199	14.25
313.991	9.25
314.783	11.25
315.574	11.25
316.366	8.25
317.157	11.25
317.949	10.25
318.74	11.25
319.531	8.25
320.322	11.25
321.113	8.25
321.904	9.25
322.695	9.25
323.486	7.25
324.277	7.25
325.068	7.25
325.858	8.25
326.649	8.25
327.439	7.25
328.23	7.25
329.02	5.25
329.81	9.25
330.6	6.25
331.391	8.25
332.181	8.25
332.971	7.25
333.76	7.25
334.55	8.25
335.34	7.25
336.13	7.25
336.919	8.25
337.709	8.25
338.498	5.25
339.287	6.25
340.077	6.25
340.866	8.25
341.655	5.25
342.444	7.25
343.233	7.25
344.022	7.25
344.811	8.25
345.6	7.25
346.388	9.25
347.177	6.25
347.965	9.25
348.754	7.25
349.542	6.25
350.33	7.25
351.119	8.25
351.907	8.25
352.695	6.25
353.483	6.25
354.271	5.25
355.059	6.25
355.846	8.25
356.634	4.25
357.422	6.25
358.209	7.25
358.997	5.25
359.784	8.25
360.571	8.25
361.359	8.25
362.146	6.25
362.933	6.25
363.72	6.25
364.507	7.25
365.294	4.25
366.081	2.25
366.867	5.25
367.654	6.25
368.44	5.25
369.227	7.25
370.013	5.25
370.8	5.25
371.586	5.25
372.372	7.25
373.158	5.25
373.944	5.25
374.73	3.25
375.516	6.25
376.302	6.25
377.088	5.25
377.873	4.25
378.659	6.25
379.445	6.25
380.23	7.25
381.015	5.25
381.801	7.25
382.586	8.25
383.371	5.25
384.156	4.25
384.941	6.25
385.726	7.25
386.511	8.25
387.296	7.25
388.08	7.25
388.865	5.25
389.649	7.25
390.434	6.25
391.218	5.25
392.003	7.25
392.787	7.25
393.571	9.25
394.355	6.25
395.139	9.25
395.923	9.25
396.707	5.25
397.491	8.25
398.274	7.25
399.058	7.25
399.842	9.25
400.625	8.25
401.408	10.25
402.192	9.25
402.975	9.25
403.758	6.25
404.541	9.25
405.324	9.25
406.107	7.25
406.89	10.25
407.673	10.25
408.456	9.25
409.238	8.25
410.021	8.25
410.803	9.25
411.586	8.25
412.368	11.25
413.151	10.25
413.933	11.25
414.715	9.25
415.497	12.25
416.279	13.25
417.061	10.25
417.843	13.25
418.624	13.25
419.406	12.25
420.188	12.25
420.969	10.25
421.751	15.25
422.532	13.25
423.313	14.25
424.095	15.25
424.876	13.25
425.657	15.25
426.438	14.25
427.219	19.25
428	15.25
428.78	17.25
429.561	18.25
430.342	17.25
431.122	19.25
431.903	16.25
432.683	20.25
433.464	20.25
434.244	23.25
435.024	22.25
435.804	23.25
436.584	29.25
437.364	27.25
438.144	27.25
438.924	31.25
439.704	33.25
440.483	32.25
441.263	32.25
442.042	39.25
442.822	40.25
443.601	41.25
444.38	46.25
445.16	48.25
445.939	53.25
446.718	58.25
447.497	60.25
448.276	64.25
449.054	68.25
449.833	77.25
450.612	82.25
451.391	95.25
452.169	104.25
452.948	113.25
453.726	127.25
454.504	135.25
455.282	153.25
456.061	166.25
456.839	192.25
457.617	211.25
458.395	231.25
459.172	267.25
459.95	292.25
460.728	325.25
461.506	363.25
462.283	410.25
463.061	457.25
463.838	507.25
464.615	567.25
465.393	626.25
466.17	693.25
466.947	777.25
467.724	858.25
468.501	969.25
469.278	1057.25
470.055	1173.25
470.831	1303.25
471.608	1443.25
472.385	1600.25
473.161	1761.25
473.938	1940.25
474.714	2151.25
475.49	2365.25
476.266	2610.25
477.043	2867.25
477.819	3146.25
478.595	3487.25
479.371	3817.25
480.146	4145.25
480.922	4612.25
481.698	5018.25
482.473	5511.25
483.249	6006.25
484.024	6571.25
484.8	7186.25
485.575	7815.25
486.35	8540.25
487.126	9288.25
487.901	10109.25
488.676	11015.25
489.451	11889.25
490.225	12962.25
491	14059.25
491.775	15265.25
492.55	16440.25
493.324	17684.25
494.099	18865.25
494.873	20232.25
495.647	21571.25
496.422	22926.25
497.196	24411.25
497.97	25832.25
498.744	27251.25
499.518	28499.25
500.292	29763.25
501.066	30841.25
501.839	31876.25
502.613	32837.25
503.387	33620.25
504.16	34169.25
504.934	34561.25
505.707	34673.25
506.48	34602.25
507.253	34354.25
508.027	34111.25
508.8	33548.25
509.573	33016.25
510.346	32219.25
511.118	31320.25
511.891	30430.25
512.664	29279.25
513.437	28226.25
514.209	27197.25
514.982	26139.25
515.754	25078.25
516.526	23971.25
517.298	23027.25
518.071	22098.25
518.843	21161.25
519.615	20301.25
520.387	19538.25
521.159	18765.25
521.93	18017.25
522.702	17233.25
523.474	16709.25
524.245	15983.25
525.017	15258.25
525.788	14547.25
526.56	13891.25
527.331	13293.25
528.102	12707.25
528.873	12097.25
529.644	11536.25
530.415	11048.25
531.186	10469.25
531.957	9932.25
532.728	9366.25
533.498	8895.25
534.269	8396.25
535.039	7928.25
535.81	7510.25
536.58	7079.25
537.351	6713.25
538.121	6337.25
538.891	5979.25
539.661	5696.25
540.431	5401.25
541.201	5097.25
541.971	4813.25
542.741	4585.25
543.51	4353.25
544.28	4150.25
545.05	3943.25
545.819	3767.25
546.588	3577.25
547.358	3382.25
548.127	3210.25
548.896	3062.25
549.665	2906.25
550.434	2750.25
551.203	2589.25
551.972	2474.25
552.741	2328.25
553.51	2202.25
554.278	2085.25
555.047	1962.25
555.815	1850.25
556.584	1752.25
557.352	1651.25
558.121	1563.25
558.889	1477.25
559.657	1387.25
560.425	1315.25
561.193	1239.25
561.961	1177.25
562.729	1137.25
563.496	1056.25
564.264	992.25
565.032	924.25
565.799	891.25
566.567	836.25
567.334	800.25
568.101	756.25
568.869	703.25
569.636	668.25
570.403	632.25
571.17	580.25
571.937	563.25
572.704	533.25
573.471	492.25
574.237	479.25
575.004	443.25
575.771	416.25
576.537	385.25
577.303	372.25
578.07	351.25
578.836	334.25
579.602	312.25
580.368	292.25
581.134	282.25
581.9	265.25
582.666	250.25
583.432	239.25
584.198	226.25
584.964	212.25
585.729	202.25
586.495	195.25
587.26	187.25
588.025	180.25
588.791	168.25
589.556	153.25
590.321	145.25
591.086	138.25
591.851	137.25
592.616	126.25
593.381	122.25
594.146	114.25
594.911	104.25
595.675	103.25
596.44	104.25
597.204	95.25
597.969	92.25
598.733	85.25
599.497	81.25
600.261	80.25
601.025	74.25
601.79	72.25
602.553	74.25
603.317	66.25
604.081	64.25
604.845	63.25
605.609	57.25
606.372	54.25
607.136	51.25
607.899	51.25
608.662	48.25
609.426	46.25
610.189	45.25
610.952	50.25
611.715	46.25
612.478	38.25
613.241	39.25
614.004	37.25
614.767	37.25
615.529	37.25
616.292	35.25
617.055	32.25
617.817	31.25
618.579	30.25
619.342	27.25
620.104	28.25
620.866	26.25
621.628	25.25
622.39	26.25
623.152	25.25
623.914	26.25
624.676	24.25
625.438	23.25
626.199	18.25
626.961	20.25
627.722	21.25
628.484	17.25
629.245	20.25
630.006	19.25
630.768	22.25
631.529	15.25
632.29	18.25
633.051	19.25
633.812	16.25
634.573	17.25
635.333	13.25
636.094	15.25
636.855	16.25
637.615	11.25
638.376	14.25
639.136	12.25
639.896	10.25
640.657	9.25
641.417	11.25
642.177	13.25
642.937	8.25
643.697	12.25
644.457	12.25
645.216	8.25
645.976	9.25
646.736	11.25
647.495	11.25
648.255	10.25
649.014	10.25
649.774	7.25
650.533	9.25
651.292	8.25
652.051	8.25
652.81	8.25
653.569	8.25
654.328	7.25
655.087	7.25
655.846	8.25
656.604	9.25
657.363	7.25
658.121	5.25
658.88	8.25
659.638	6.25
660.397	5.25
661.155	5.25
661.913	7.25
662.671	8.25
663.429	5.25
664.187	7.25
664.945	6.25
665.703	5.25
666.46	6.25
667.218	5.25
667.976	7.25
668.733	6.25
669.49	5.25
670.248	6.25
671.005	6.25
671.762	4.25
672.519	6.25
673.276	5.25
674.033	5.25
674.79	6.25
675.547	6.25
676.304	5.25
677.06	8.25
677.817	5.25
678.574	5.25
679.33	5.25
680.086	4.25
680.843	5.25
681.599	6.25
682.355	5.25
683.111	4.25
683.867	4.25
684.623	5.25
685.379	4.25
686.135	5.25
686.89	6.25
687.646	7.25
688.402	1.25
689.157	5.25
689.912	2.25
690.668	5.25
691.423	4.25
692.178	3.25
692.933	3.25
693.688	5.25
694.443	5.25
695.198	5.25
695.953	2.25
696.708	2.25
697.462	4.25
698.217	2.25
698.972	2.25
699.726	3.25
700.48	4.25
701.235	3.25
701.989	5.25
702.743	2.25
703.497	4.25
704.251	3.25
705.005	6.25
705.759	2.25
706.513	4.25
707.266	5.25
708.02	3.25
708.774	5.25
709.527	5.25
710.28	3.25
711.034	3.25
711.787	3.25
712.54	4.25
713.293	3.25
714.046	5.25
714.799	3.25
715.552	3.25
716.305	4.25
717.058	4.25
717.81	5.25
718.563	5.25
719.315	3.25
720.068	4.25
720.82	2.25
721.573	5.25
722.325	2.25
723.077	2.25
723.829	4.25
724.581	3.25
725.333	6.25
726.085	4.25
726.836	5.25
727.588	5.25
728.34	5.25
729.091	4.25
729.843	5.25
730.594	4.25
731.346	4.25
732.097	4.25
732.848	5.25
733.599	7.25
734.35	4.25
735.101	4.25
735.852	5.25
736.603	5.25
737.354	5.25
738.104	5.25
738.855	6.25
739.605	7.25
740.356	2.25
741.106	7.25
741.856	5.25
742.607	8.25
743.357	8.25
744.107	4.25
744.857	3.25
745.607	7.25
746.357	5.25
747.106	5.25
747.856	5.25
748.606	6.25
749.355	5.25
750.105	7.25
750.854	7.25
751.603	7.25
752.353	6.25
753.102	8.25
753.851	4.25
754.6	7.25
755.349	7.25
756.098	7.25
756.847	6.25
757.595	8.25
758.344	6.25
759.093	7.25
759.841	8.25
760.589	8.25
761.338	8.25
762.086	7.25
762.834	7.25
763.582	8.25
764.331	7.25
765.079	8.25
765.826	8.25
766.574	9.25
767.322	6.25
768.07	9.25
768.817	8.25
769.565	9.25
770.312	9.25
771.06	7.25
771.807	10.25
772.554	7.25
773.302	10.25
774.049	10.25
774.796	9.25
775.543	12.25
776.29	11.25
777.036	13.25
777.783	11.25
778.53	10.25
779.276	12.25
780.023	10.25
780.769	11.25
781.516	11.25
782.262	9.25
783.008	11.25
783.754	9.25
784.5	9.25
785.246	9.25
785.992	11.25
786.738	10.25
787.484	12.25
788.23	10.25
788.975	9.25
789.721	9.25
790.466	8.25
791.212	9.25
791.957	10.25
792.702	9.25
793.447	9.25
794.193	11.25
794.938	8.25
795.683	9.25
796.427	9.25
797.172	8.25
797.917	9.25
798.662	8.25
799.406	7.25
800.151	11.25
800.895	9.25
801.64	5.25
802.384	8.25
803.128	6.25
803.872	10.25
804.616	6.25
805.36	7.25
806.104	7.25
806.848	6.25
807.592	6.25
808.336	7.25
809.079	7.25
809.823	5.25
810.566	8.25
811.31	7.25
812.053	3.25
812.796	7.25
813.539	6.25
814.283	3.25
815.026	5.25
815.769	5.25
816.511	6.25
817.254	5.25
817.997	3.25
818.74	4.25
819.482	3.25
820.225	6.25
820.967	3.25
821.71	3.25
822.452	7.25
823.194	3.25
823.936	6.25
824.678	2.25
825.42	2.25
826.162	7.25
826.904	5.25
827.646	3.25
828.388	4.25
829.129	3.25
829.871	4.25
830.612	4.25
831.354	4.25
832.095	1.25
832.836	5.25
833.577	5.25
834.319	3.25
835.06	2.25
835.801	2.25
836.542	3.25
837.282	3.25
838.023	2.25
838.764	2.25
839.504	7.25
840.245	1.25
840.985	1.25
841.726	4.25
842.466	5.25
843.206	3.25
843.946	4.25
844.687	2.25
845.427	3.25
846.166	2.25
846.906	1.25
847.646	0.25
848.386	3.25
849.125	3.25
849.865	2.25
850.605	5.25
851.344	1.25
852.083	4.25
852.823	1.25
853.562	3.25
854.301	2.25
855.04	1.25
855.779	3.25
856.518	1.25
857.257	2.25
857.995	0.25
858.734	1.25
859.473	1.25
860.211	2.25
860.95	1.25
861.688	2.25
862.426	2.25
863.165	2.25
863.903	1.25
864.641	0.25
865.379	0.25
866.117	3.25
866.855	1.25
867.593	0.25
868.33	2.25
869.068	-0.75
869.806	1.25
870.543	3.25
871.28	2.25
872.018	1.25
872.755	1.25
873.492	0.25
874.229	-0.75
874.967	1.25
875.703	2.25
876.44	-0.75
877.177	1.25
877.914	-0.75
878.651	2.25
879.387	0.25
880.124	-0.75
880.86	-0.75
881.597	-2.75
882.333	-0.75
883.069	-0.75
883.806	1.25
884.542	-1.75
885.278	-0.75
886.014	-0.75
886.749	-0.75
887.485	-0.75
888.221	-2.75
888.957	2.25
889.692	-3.75
890.428	-0.75
891.163	0.25
891.899	0.25
892.634	0.25
893.369	0.25
894.104	0.25
894.839	2.25
895.574	-0.75
896.309	1.25
897.044	-0.75
897.779	1.25
898.514	-0.75
899.248	-0.75
899.983	0.25
900.717	-1.75
901.452	2.25
902.186	-0.75
902.92	1.25
903.654	-0.75
904.389	1.25
905.123	-0.75
905.857	-0.75
906.59	-0.75
907.324	0.25
908.058	-1.75
908.792	0.25
909.525	-4.75
910.259	-0.75
910.992	-1.75
911.726	0.25
912.459	0.25
913.192	-1.75
913.925	1.25
914.658	3.25
915.391	-0.75
916.124	-0.75
916.857	0.25
917.59	-1.75
918.323	-0.75
919.055	2.25
919.788	0.25
920.521	0.25
921.253	0.25
921.985	0.25
922.718	0.25
923.45	-0.75
924.182	-0.75
924.914	-1.75
925.646	-1.75
926.378	-0.75
927.11	-1.75
927.841	-0.75
928.573	-0.75
929.305	0.25
930.036	0.25
930.768	-0.75
931.499	-0.75
932.23	-1.75
932.962	0.25
933.693	0.25
934.424	-0.75
935.155	-2.75
935.886	-0.75
936.617	-1.75
937.348	-2.75
938.078	1.25
938.809	-0.75
939.54	1.25
940.27	0.25
941.001	-1.75
941.731	-0.75
942.461	-0.75
943.191	-2.75
943.922	-2.75
944.652	0.25
945.382	-0.75
946.112	-0.75
946.841	1.25
947.571	0.25
948.301	-0.75
949.031	0.25
949.76	0.25
950.49	0.25
951.219	-2.75
951.948	-0.75
952.678	-2.75
953.407	-2.75
954.136	-1.75
954.865	-1.75
955.594	-0.75
956.323	-0.75
957.052	0.25
957.78	0.25
958.509	-0.75
959.238	-1.75
959.966	-0.75
960.695	-0.75
961.423	-0.75
962.151	-1.75
962.88	0.25
963.608	-0.75
964.336	-0.75
965.064	-2.75
965.792	2.25
966.52	-1.75
967.247	0.25
967.975	-2.75
968.703	-0.75
969.43	0.25
970.158	-0.75
970.885	-0.75
971.613	-0.75
972.34	-0.75
973.067	0.25
973.794	-0.75
974.521	-0.75
975.248	1.25
975.975	-0.75
976.702	1.25
977.429	1.25
978.156	-0.75
978.882	0.25
979.609	-0.75
980.335	-1.75
981.062	-2.75
981.788	-0.75
982.514	-0.75
983.24	0.25
983.967	-1.75
984.693	-2.75
985.419	0.25
986.144	-0.75
986.87	-0.75
987.596	0.25
988.322	-2.75
989.047	-1.75
989.773	-0.75
990.498	0.25
991.224	0.25
991.949	1.25
992.674	-0.75
993.399	-0.75
994.124	-0.75
994.849	-0.75
995.574	-0.75
996.299	-0.75
997.024	-2.75
997.749	-0.75
998.473	-0.75
999.198	-0.75
999.922	-0.75
1000.647	-0.75
1001.371	3.25
1002.095	0.25
1002.82	-1.75
1003.544	-0.75
1004.268	0.25
1004.992	-1.75
1005.716	1.25
1006.439	0.25
1007.163	2.25
1007.887	0.25
1008.611	0.25
1009.334	1.25
1010.058	-3.75
1010.781	0.25
1011.504	-0.75
1012.228	1.25
1012.951	1.25
1013.674	2.25
1014.397	-2.75
1015.12	-1.75
