节点500_425_QEPB04081__629__15-58-46-430.txt的数据

Date: Wed Nov 12 15:58:46 CST 2025
User: PC
Spectrometer: QEPB0408
触发模式: 0
积分时间 (秒): 1.000000E-2
Scans to average: 1
启用暗噪声校正: true
启用非线性校正: false
滑动平均宽度: 0
X轴模式: Wavelengths
Number of Pixels in Spectrum: 1044
>>>>>Begin Spectral Data<<<<<
220.843	4
221.644	4
222.444	4
223.244	5
224.045	6
224.845	5
225.645	3
226.445	5
227.245	5
228.045	5
228.845	5
229.645	5
230.444	7
231.244	6
232.043	5
232.843	6
233.642	7
234.442	7
235.241	5
236.04	5
236.839	6
237.638	6
238.437	3
239.236	6
240.035	6
240.833	8
241.632	6
242.43	8
243.229	7
244.027	6
244.826	10
245.624	8
246.422	11
247.22	8
248.018	9
248.816	8
249.614	8
250.412	11
251.21	11
252.007	11
252.805	10
253.602	12
254.4	12
255.197	11
255.994	12
256.791	11
257.589	14
258.386	14
259.183	11
259.979	12
260.776	13
261.573	16
262.37	15
263.166	14
263.963	17
264.759	17
265.556	17
266.352	17
267.148	20
267.944	18
268.74	19
269.536	20
270.332	21
271.128	19
271.924	20
272.719	19
273.515	21
274.311	19
275.106	23
275.901	24
276.697	23
277.492	21
278.287	23
279.082	25
279.877	23
280.672	22
281.467	23
282.262	25
283.056	23
283.851	20
284.646	25
285.44	22
286.234	21
287.029	25
287.823	24
288.617	24
289.411	24
290.205	23
290.999	25
291.793	21
292.587	24
293.381	19
294.174	25
294.968	24
295.761	21
296.555	20
297.348	20
298.141	21
298.935	22
299.728	20
300.521	15
301.314	18
302.107	18
302.899	16
303.692	21
304.485	16
305.277	17
306.07	17
306.862	16
307.655	13
308.447	17
309.239	19
310.031	16
310.823	15
311.615	15
312.407	12
313.199	17
313.991	13
314.783	12
315.574	15
316.366	13
317.157	14
317.949	10
318.74	10
319.531	10
320.322	8
321.113	9
321.904	11
322.695	12
323.486	8
324.277	11
325.068	11
325.858	9
326.649	11
327.439	10
328.23	9
329.02	11
329.81	9
330.6	13
331.391	8
332.181	9
332.971	13
333.76	11
334.55	8
335.34	9
336.13	8
336.919	7
337.709	10
338.498	7
339.287	8
340.077	9
340.866	8
341.655	8
342.444	10
343.233	8
344.022	10
344.811	9
345.6	7
346.388	10
347.177	8
347.965	8
348.754	9
349.542	11
350.33	8
351.119	8
351.907	7
352.695	7
353.483	9
354.271	7
355.059	8
355.846	8
356.634	10
357.422	6
358.209	7
358.997	8
359.784	11
360.571	8
361.359	7
362.146	8
362.933	8
363.72	7
364.507	10
365.294	4
366.081	7
366.867	9
367.654	8
368.44	7
369.227	8
370.013	7
370.8	7
371.586	8
372.372	6
373.158	8
373.944	9
374.73	7
375.516	7
376.302	8
377.088	9
377.873	6
378.659	6
379.445	6
380.23	8
381.015	8
381.801	8
382.586	8
383.371	8
384.156	7
384.941	8
385.726	8
386.511	10
387.296	8
388.08	9
388.865	9
389.649	9
390.434	9
391.218	7
392.003	10
392.787	10
393.571	9
394.355	9
395.139	11
395.923	9
396.707	8
397.491	9
398.274	7
399.058	8
399.842	10
400.625	10
401.408	9
402.192	11
402.975	9
403.758	9
404.541	12
405.324	11
406.107	9
406.89	13
407.673	11
408.456	8
409.238	10
410.021	10
410.803	9
411.586	13
412.368	9
413.151	11
413.933	13
414.715	13
415.497	13
416.279	14
417.061	11
417.843	10
418.624	16
419.406	14
420.188	13
420.969	15
421.751	14
422.532	14
423.313	17
424.095	15
424.876	17
425.657	14
426.438	19
427.219	17
428	20
428.78	19
429.561	17
430.342	18
431.122	22
431.903	22
432.683	22
433.464	21
434.244	23
435.024	25
435.804	27
436.584	27
437.364	29
438.144	31
438.924	33
439.704	34
440.483	37
441.263	38
442.042	43
442.822	45
443.601	44
444.38	44
445.16	54
445.939	55
446.718	62
447.497	63
448.276	73
449.054	77
449.833	89
450.612	93
451.391	106
452.169	113
452.948	127
453.726	138
454.504	150
455.282	167
456.061	191
456.839	208
457.617	234
458.395	257
459.172	288
459.95	317
460.728	347
461.506	397
462.283	435
463.061	482
463.838	535
464.615	602
465.393	670
466.17	730
466.947	820
467.724	909
468.501	1003
469.278	1108
470.055	1215
470.831	1346
471.608	1488
472.385	1631
473.161	1808
473.938	1981
474.714	2178
475.49	2379
476.266	2590
477.043	2847
477.819	3097
478.595	3396
479.371	3731
480.146	4025
480.922	4450
481.698	4831
482.473	5247
483.249	5729
484.024	6208
484.8	6778
485.575	7354
486.35	7944
487.126	8611
487.901	9323
488.676	10117
489.451	10989
490.225	11810
491	12731
491.775	13725
492.55	14742
493.324	15819
494.099	16945
494.873	18036
495.647	19254
496.422	20457
497.196	21714
497.97	23068
498.744	24269
499.518	25551
500.292	26717
501.066	27766
501.839	28961
502.613	29850
503.387	30700
504.16	31383
504.934	31898
505.707	32241
506.48	32472
507.253	32478
508.027	32381
508.8	32076
509.573	31709
510.346	31220
511.118	30627
511.891	29835
512.664	28962
513.437	28042
514.209	27086
514.982	26212
515.754	25214
516.526	24273
517.298	23340
518.071	22413
518.843	21502
519.615	20626
520.387	19819
521.159	19063
521.93	18327
522.702	17621
523.474	16959
524.245	16290
525.017	15577
525.788	14882
526.56	14280
527.331	13626
528.102	13053
528.873	12442
529.644	11887
530.415	11390
531.186	10865
531.957	10290
532.728	9817
533.498	9257
534.269	8809
535.039	8356
535.81	7905
536.58	7470
537.351	7075
538.121	6675
538.891	6338
539.661	6003
540.431	5672
541.201	5337
541.971	5058
542.741	4858
543.51	4602
544.28	4371
545.05	4149
545.819	3982
546.588	3758
547.358	3587
548.127	3400
548.896	3221
549.665	3051
550.434	2905
551.203	2747
551.972	2625
552.741	2487
553.51	2351
554.278	2220
555.047	2104
555.815	1986
556.584	1870
557.352	1762
558.121	1659
558.889	1574
559.657	1503
560.425	1431
561.193	1338
561.961	1261
562.729	1209
563.496	1142
564.264	1068
565.032	1005
565.799	955
566.567	909
567.334	852
568.101	814
568.869	769
569.636	724
570.403	682
571.17	638
571.937	608
572.704	573
573.471	531
574.237	508
575.004	479
575.771	453
576.537	420
577.303	405
578.07	381
578.836	364
579.602	337
580.368	325
581.134	304
581.9	287
582.666	270
583.432	261
584.198	246
584.964	232
585.729	217
586.495	214
587.26	200
588.025	184
588.791	183
589.556	172
590.321	162
591.086	151
591.851	142
592.616	136
593.381	131
594.146	130
594.911	117
595.675	112
596.44	108
597.204	103
597.969	95
598.733	93
599.497	88
600.261	85
601.025	86
601.79	77
602.553	75
603.317	75
604.081	71
604.845	67
605.609	58
606.372	63
607.136	61
607.899	56
608.662	55
609.426	51
610.189	49
610.952	46
611.715	49
612.478	47
613.241	39
614.004	43
614.767	40
615.529	40
616.292	37
617.055	36
617.817	32
618.579	33
619.342	34
620.104	30
620.866	32
621.628	27
622.39	27
623.152	28
623.914	27
624.676	25
625.438	26
626.199	23
626.961	25
627.722	21
628.484	22
629.245	24
630.006	21
630.768	20
631.529	18
632.29	21
633.051	17
633.812	17
634.573	17
635.333	19
636.094	15
636.855	18
637.615	17
638.376	15
639.136	16
639.896	13
640.657	13
641.417	13
642.177	14
642.937	13
643.697	13
644.457	10
645.216	13
645.976	10
646.736	11
647.495	12
648.255	12
649.014	10
649.774	12
650.533	10
651.292	11
652.051	11
652.81	12
653.569	10
654.328	11
655.087	9
655.846	10
656.604	9
657.363	11
658.121	7
658.88	9
659.638	9
660.397	7
661.155	8
661.913	10
662.671	8
663.429	10
664.187	7
664.945	6
665.703	8
666.46	8
667.218	10
667.976	5
668.733	7
669.49	6
670.248	11
671.005	8
671.762	6
672.519	9
673.276	6
674.033	7
674.79	9
675.547	5
676.304	6
677.06	7
677.817	8
678.574	8
679.33	7
680.086	7
680.843	4
681.599	8
682.355	8
683.111	8
683.867	5
684.623	6
685.379	5
686.135	5
686.89	6
687.646	4
688.402	8
689.157	5
689.912	6
690.668	5
691.423	5
692.178	6
692.933	6
693.688	6
694.443	4
695.198	6
695.953	7
696.708	6
697.462	7
698.217	4
698.972	5
699.726	8
700.48	4
701.235	4
701.989	6
702.743	7
703.497	5
704.251	4
705.005	6
705.759	3
706.513	6
707.266	4
708.02	8
708.774	4
709.527	8
710.28	5
711.034	5
711.787	5
712.54	5
713.293	5
714.046	6
714.799	5
715.552	5
716.305	4
717.058	5
717.81	5
718.563	4
719.315	8
720.068	7
720.82	6
721.573	6
722.325	7
723.077	5
723.829	4
724.581	4
725.333	8
726.085	6
726.836	8
727.588	8
728.34	6
729.091	6
729.843	3
730.594	5
731.346	6
732.097	6
732.848	8
733.599	7
734.35	5
735.101	5
735.852	6
736.603	6
737.354	8
738.104	8
738.855	8
739.605	7
740.356	8
741.106	5
741.856	6
742.607	7
743.357	8
744.107	6
744.857	6
745.607	8
746.357	7
747.106	6
747.856	7
748.606	8
749.355	8
750.105	8
750.854	9
751.603	7
752.353	9
753.102	6
753.851	8
754.6	7
755.349	6
756.098	8
756.847	8
757.595	7
758.344	6
759.093	9
759.841	8
760.589	10
761.338	9
762.086	8
762.834	8
763.582	9
764.331	10
765.079	9
765.826	7
766.574	11
767.322	8
768.07	9
768.817	9
769.565	11
770.312	6
771.06	9
771.807	10
772.554	11
773.302	11
774.049	9
774.796	11
775.543	10
776.29	12
777.036	9
777.783	12
778.53	9
779.276	11
780.023	12
780.769	12
781.516	9
782.262	11
783.008	13
783.754	13
784.5	13
785.246	10
785.992	11
786.738	11
787.484	9
788.23	10
788.975	11
789.721	12
790.466	12
791.212	10
791.957	12
792.702	10
793.447	12
794.193	12
794.938	10
795.683	11
796.427	10
797.172	9
797.917	8
798.662	11
799.406	10
800.151	11
800.895	11
801.64	10
802.384	9
803.128	9
803.872	9
804.616	9
805.36	10
806.104	8
806.848	9
807.592	9
808.336	8
809.079	6
809.823	6
810.566	10
811.31	7
812.053	9
812.796	10
813.539	9
814.283	7
815.026	8
815.769	8
816.511	6
817.254	6
817.997	8
818.74	6
819.482	8
820.225	6
820.967	5
821.71	6
822.452	7
823.194	5
823.936	7
824.678	8
825.42	7
826.162	9
826.904	8
827.646	5
828.388	7
829.129	4
829.871	5
830.612	6
831.354	7
832.095	6
832.836	5
833.577	5
834.319	6
835.06	6
835.801	3
836.542	3
837.282	5
838.023	5
838.764	4
839.504	5
840.245	5
840.985	5
841.726	4
842.466	5
843.206	5
843.946	4
844.687	7
845.427	4
846.166	5
846.906	4
847.646	5
848.386	4
849.125	4
849.865	6
850.605	3
851.344	6
852.083	2
852.823	5
853.562	3
854.301	4
855.04	5
855.779	4
856.518	4
857.257	4
857.995	3
858.734	3
859.473	5
860.211	3
860.95	4
861.688	3
862.426	4
863.165	1
863.903	4
864.641	4
865.379	4
866.117	3
866.855	5
867.593	3
868.33	3
869.068	2
869.806	3
870.543	3
871.28	4
872.018	2
872.755	3
873.492	0
874.229	2
874.967	4
875.703	1
876.44	3
877.177	3
877.914	1
878.651	3
879.387	3
880.124	3
880.86	3
881.597	1
882.333	1
883.069	2
883.806	3
884.542	0
885.278	1
886.014	1
886.749	3
887.485	2
888.221	2
888.957	2
889.692	3
890.428	2
891.163	0
891.899	1
892.634	1
893.369	1
894.104	1
894.839	1
895.574	0
896.309	2
897.044	3
897.779	2
898.514	3
899.248	4
899.983	1
900.717	2
901.452	-1
902.186	2
902.92	2
903.654	1
904.389	1
905.123	0
905.857	3
906.59	3
907.324	0
908.058	3
908.792	0
909.525	2
910.259	1
910.992	2
911.726	2
912.459	1
913.192	1
913.925	-1
914.658	1
915.391	1
916.124	1
916.857	1
917.59	2
918.323	0
919.055	1
919.788	3
920.521	1
921.253	1
921.985	3
922.718	3
923.45	3
924.182	-2
924.914	1
925.646	3
926.378	0
927.11	1
927.841	1
928.573	1
929.305	2
930.036	2
930.768	2
931.499	2
932.23	0
932.962	0
933.693	1
934.424	3
935.155	-1
935.886	3
936.617	2
937.348	2
938.078	3
938.809	1
939.54	0
940.27	1
941.001	5
941.731	2
942.461	3
943.191	1
943.922	2
944.652	2
945.382	3
946.112	2
946.841	3
947.571	-1
948.301	0
949.031	-1
949.76	3
950.49	2
951.219	2
951.948	2
952.678	1
953.407	1
954.136	1
954.865	2
955.594	-1
956.323	2
957.052	3
957.78	2
958.509	1
959.238	2
959.966	1
960.695	1
961.423	-1
962.151	0
962.88	1
963.608	2
964.336	0
965.064	1
965.792	1
966.52	0
967.247	2
967.975	0
968.703	0
969.43	1
970.158	1
970.885	1
971.613	0
972.34	1
973.067	0
973.794	1
974.521	1
975.248	0
975.975	2
976.702	1
977.429	0
978.156	1
978.882	0
979.609	3
980.335	0
981.062	2
981.788	0
982.514	0
983.24	-2
983.967	1
984.693	1
985.419	4
986.144	0
986.87	0
987.596	0
988.322	2
989.047	-1
989.773	-1
990.498	1
991.224	2
991.949	1
992.674	2
993.399	1
994.124	1
994.849	0
995.574	1
996.299	0
997.024	0
997.749	0
998.473	3
999.198	1
999.922	2
1000.647	0
1001.371	3
1002.095	-1
1002.82	-2
1003.544	-1
1004.268	4
1004.992	1
1005.716	3
1006.439	3
1007.163	3
1007.887	3
1008.611	1
1009.334	2
1010.058	0
1010.781	2
1011.504	3
1012.228	0
1012.951	0
1013.674	0
1014.397	1
1015.12	0
