节点500_425_QEPB04081__267__15-52-44-981.txt的数据

Date: Wed Nov 12 15:52:44 CST 2025
User: PC
Spectrometer: QEPB0408
触发模式: 0
积分时间 (秒): 1.000000E-2
Scans to average: 1
启用暗噪声校正: true
启用非线性校正: false
滑动平均宽度: 0
X轴模式: Wavelengths
Number of Pixels in Spectrum: 1044
>>>>>Begin Spectral Data<<<<<
220.843	2.25
221.644	3.25
222.444	3.25
223.244	2.25
224.045	3.25
224.845	3.25
225.645	4.25
226.445	3.25
227.245	4.25
228.045	4.25
228.845	5.25
229.645	4.25
230.444	4.25
231.244	3.25
232.043	4.25
232.843	3.25
233.642	7.25
234.442	4.25
235.241	5.25
236.04	4.25
236.839	5.25
237.638	5.25
238.437	5.25
239.236	6.25
240.035	6.25
240.833	8.25
241.632	7.25
242.43	7.25
243.229	9.25
244.027	7.25
244.826	8.25
245.624	9.25
246.422	8.25
247.22	10.25
248.018	10.25
248.816	8.25
249.614	10.25
250.412	12.25
251.21	10.25
252.007	10.25
252.805	9.25
253.602	9.25
254.4	12.25
255.197	11.25
255.994	12.25
256.791	12.25
257.589	13.25
258.386	13.25
259.183	11.25
259.979	14.25
260.776	14.25
261.573	16.25
262.37	17.25
263.166	14.25
263.963	16.25
264.759	20.25
265.556	15.25
266.352	16.25
267.148	19.25
267.944	21.25
268.74	19.25
269.536	20.25
270.332	20.25
271.128	23.25
271.924	22.25
272.719	19.25
273.515	22.25
274.311	23.25
275.106	22.25
275.901	24.25
276.697	25.25
277.492	24.25
278.287	23.25
279.082	23.25
279.877	25.25
280.672	25.25
281.467	25.25
282.262	24.25
283.056	28.25
283.851	25.25
284.646	25.25
285.44	26.25
286.234	24.25
287.029	23.25
287.823	23.25
288.617	24.25
289.411	21.25
290.205	25.25
290.999	25.25
291.793	24.25
292.587	25.25
293.381	23.25
294.174	24.25
294.968	19.25
295.761	20.25
296.555	19.25
297.348	20.25
298.141	19.25
298.935	20.25
299.728	21.25
300.521	20.25
301.314	18.25
302.107	16.25
302.899	16.25
303.692	17.25
304.485	17.25
305.277	16.25
306.07	16.25
306.862	17.25
307.655	18.25
308.447	16.25
309.239	15.25
310.031	14.25
310.823	11.25
311.615	14.25
312.407	12.25
313.199	11.25
313.991	12.25
314.783	11.25
315.574	10.25
316.366	12.25
317.157	12.25
317.949	12.25
318.74	10.25
319.531	10.25
320.322	9.25
321.113	11.25
321.904	10.25
322.695	13.25
323.486	9.25
324.277	10.25
325.068	8.25
325.858	11.25
326.649	10.25
327.439	8.25
328.23	12.25
329.02	10.25
329.81	7.25
330.6	12.25
331.391	7.25
332.181	9.25
332.971	9.25
333.76	9.25
334.55	9.25
335.34	8.25
336.13	9.25
336.919	7.25
337.709	10.25
338.498	7.25
339.287	7.25
340.077	10.25
340.866	7.25
341.655	8.25
342.444	7.25
343.233	9.25
344.022	7.25
344.811	9.25
345.6	9.25
346.388	9.25
347.177	5.25
347.965	9.25
348.754	7.25
349.542	8.25
350.33	8.25
351.119	8.25
351.907	8.25
352.695	7.25
353.483	9.25
354.271	7.25
355.059	7.25
355.846	8.25
356.634	7.25
357.422	8.25
358.209	8.25
358.997	7.25
359.784	5.25
360.571	6.25
361.359	8.25
362.146	7.25
362.933	5.25
363.72	5.25
364.507	7.25
365.294	8.25
366.081	7.25
366.867	7.25
367.654	6.25
368.44	7.25
369.227	5.25
370.013	5.25
370.8	8.25
371.586	6.25
372.372	8.25
373.158	5.25
373.944	7.25
374.73	7.25
375.516	7.25
376.302	8.25
377.088	6.25
377.873	8.25
378.659	6.25
379.445	6.25
380.23	5.25
381.015	5.25
381.801	7.25
382.586	8.25
383.371	9.25
384.156	8.25
384.941	6.25
385.726	8.25
386.511	7.25
387.296	9.25
388.08	6.25
388.865	7.25
389.649	9.25
390.434	7.25
391.218	8.25
392.003	8.25
392.787	8.25
393.571	9.25
394.355	6.25
395.139	8.25
395.923	9.25
396.707	8.25
397.491	8.25
398.274	10.25
399.058	9.25
399.842	7.25
400.625	7.25
401.408	10.25
402.192	8.25
402.975	12.25
403.758	8.25
404.541	9.25
405.324	10.25
406.107	8.25
406.89	9.25
407.673	11.25
408.456	13.25
409.238	10.25
410.021	10.25
410.803	9.25
411.586	12.25
412.368	10.25
413.151	12.25
413.933	14.25
414.715	11.25
415.497	13.25
416.279	11.25
417.061	12.25
417.843	14.25
418.624	11.25
419.406	15.25
420.188	14.25
420.969	14.25
421.751	14.25
422.532	16.25
423.313	14.25
424.095	14.25
424.876	17.25
425.657	16.25
426.438	18.25
427.219	16.25
428	18.25
428.78	17.25
429.561	18.25
430.342	20.25
431.122	20.25
431.903	20.25
432.683	20.25
433.464	23.25
434.244	23.25
435.024	23.25
435.804	25.25
436.584	25.25
437.364	28.25
438.144	28.25
438.924	29.25
439.704	32.25
440.483	33.25
441.263	36.25
442.042	35.25
442.822	39.25
443.601	44.25
444.38	43.25
445.16	50.25
445.939	56.25
446.718	57.25
447.497	63.25
448.276	66.25
449.054	75.25
449.833	74.25
450.612	86.25
451.391	92.25
452.169	99.25
452.948	113.25
453.726	122.25
454.504	135.25
455.282	150.25
456.061	166.25
456.839	185.25
457.617	213.25
458.395	221.25
459.172	259.25
459.95	284.25
460.728	315.25
461.506	350.25
462.283	393.25
463.061	443.25
463.838	494.25
464.615	553.25
465.393	611.25
466.17	690.25
466.947	763.25
467.724	843.25
468.501	944.25
469.278	1051.25
470.055	1165.25
470.831	1299.25
471.608	1444.25
472.385	1586.25
473.161	1769.25
473.938	1955.25
474.714	2154.25
475.49	2383.25
476.266	2611.25
477.043	2872.25
477.819	3186.25
478.595	3493.25
479.371	3852.25
480.146	4218.25
480.922	4678.25
481.698	5099.25
482.473	5636.25
483.249	6138.25
484.024	6710.25
484.8	7400.25
485.575	8057.25
486.35	8801.25
487.126	9558.25
487.901	10478.25
488.676	11426.25
489.451	12388.25
490.225	13468.25
491	14605.25
491.775	15831.25
492.55	17057.25
493.324	18374.25
494.099	19759.25
494.873	21082.25
495.647	22572.25
496.422	23936.25
497.196	25332.25
497.97	26934.25
498.744	28401.25
499.518	29649.25
500.292	30945.25
501.066	32035.25
501.839	33176.25
502.613	34048.25
503.387	34647.25
504.16	35294.25
504.934	35571.25
505.707	35595.25
506.48	35396.25
507.253	35135.25
508.027	34790.25
508.8	34119.25
509.573	33382.25
510.346	32493.25
511.118	31583.25
511.891	30557.25
512.664	29454.25
513.437	28316.25
514.209	27092.25
514.982	26149.25
515.754	25086.25
516.526	23977.25
517.298	23010.25
518.071	21914.25
518.843	21058.25
519.615	20226.25
520.387	19412.25
521.159	18700.25
521.93	18011.25
522.702	17247.25
523.474	16561.25
524.245	15933.25
525.017	15163.25
525.788	14474.25
526.56	13802.25
527.331	13193.25
528.102	12617.25
528.873	11986.25
529.644	11372.25
530.415	10830.25
531.186	10322.25
531.957	9792.25
532.728	9290.25
533.498	8753.25
534.269	8297.25
535.039	7850.25
535.81	7424.25
536.58	6992.25
537.351	6616.25
538.121	6236.25
538.891	5904.25
539.661	5582.25
540.431	5311.25
541.201	4990.25
541.971	4782.25
542.741	4502.25
543.51	4286.25
544.28	4067.25
545.05	3869.25
545.819	3683.25
546.588	3513.25
547.358	3305.25
548.127	3143.25
548.896	2991.25
549.665	2839.25
550.434	2680.25
551.203	2552.25
551.972	2426.25
552.741	2265.25
553.51	2166.25
554.278	2022.25
555.047	1922.25
555.815	1830.25
556.584	1715.25
557.352	1613.25
558.121	1533.25
558.889	1443.25
559.657	1363.25
560.425	1273.25
561.193	1222.25
561.961	1138.25
562.729	1096.25
563.496	1038.25
564.264	971.25
565.032	932.25
565.799	875.25
566.567	825.25
567.334	789.25
568.101	719.25
568.869	696.25
569.636	657.25
570.403	618.25
571.17	581.25
571.937	551.25
572.704	522.25
573.471	495.25
574.237	461.25
575.004	437.25
575.771	412.25
576.537	387.25
577.303	367.25
578.07	337.25
578.836	322.25
579.602	308.25
580.368	289.25
581.134	277.25
581.9	269.25
582.666	247.25
583.432	229.25
584.198	224.25
584.964	206.25
585.729	200.25
586.495	186.25
587.26	183.25
588.025	170.25
588.791	167.25
589.556	160.25
590.321	147.25
591.086	139.25
591.851	133.25
592.616	121.25
593.381	124.25
594.146	116.25
594.911	106.25
595.675	103.25
596.44	96.25
597.204	97.25
597.969	88.25
598.733	87.25
599.497	83.25
600.261	78.25
601.025	74.25
601.79	72.25
602.553	69.25
603.317	65.25
604.081	61.25
604.845	62.25
605.609	55.25
606.372	57.25
607.136	54.25
607.899	50.25
608.662	52.25
609.426	48.25
610.189	43.25
610.952	50.25
611.715	41.25
612.478	44.25
613.241	40.25
614.004	36.25
614.767	39.25
615.529	38.25
616.292	34.25
617.055	33.25
617.817	32.25
618.579	28.25
619.342	30.25
620.104	28.25
620.866	28.25
621.628	26.25
622.39	28.25
623.152	23.25
623.914	25.25
624.676	23.25
625.438	24.25
626.199	20.25
626.961	23.25
627.722	20.25
628.484	18.25
629.245	19.25
630.006	18.25
630.768	21.25
631.529	18.25
632.29	19.25
633.051	16.25
633.812	17.25
634.573	17.25
635.333	16.25
636.094	15.25
636.855	15.25
637.615	13.25
638.376	13.25
639.136	10.25
639.896	14.25
640.657	13.25
641.417	11.25
642.177	12.25
642.937	12.25
643.697	12.25
644.457	9.25
645.216	12.25
645.976	12.25
646.736	12.25
647.495	9.25
648.255	10.25
649.014	10.25
649.774	10.25
650.533	10.25
651.292	12.25
652.051	11.25
652.81	10.25
653.569	9.25
654.328	10.25
655.087	9.25
655.846	7.25
656.604	9.25
657.363	5.25
658.121	8.25
658.88	7.25
659.638	9.25
660.397	7.25
661.155	6.25
661.913	6.25
662.671	7.25
663.429	9.25
664.187	8.25
664.945	5.25
665.703	6.25
666.46	4.25
667.218	6.25
667.976	9.25
668.733	6.25
669.49	8.25
670.248	4.25
671.005	6.25
671.762	4.25
672.519	6.25
673.276	8.25
674.033	5.25
674.79	5.25
675.547	5.25
676.304	8.25
677.06	7.25
677.817	5.25
678.574	5.25
679.33	4.25
680.086	5.25
680.843	5.25
681.599	4.25
682.355	6.25
683.111	6.25
683.867	5.25
684.623	5.25
685.379	7.25
686.135	4.25
686.89	8.25
687.646	5.25
688.402	3.25
689.157	7.25
689.912	3.25
690.668	6.25
691.423	3.25
692.178	6.25
692.933	3.25
693.688	4.25
694.443	6.25
695.198	5.25
695.953	6.25
696.708	5.25
697.462	9.25
698.217	5.25
698.972	7.25
699.726	7.25
700.48	4.25
701.235	4.25
701.989	4.25
702.743	2.25
703.497	4.25
704.251	4.25
705.005	4.25
705.759	4.25
706.513	5.25
707.266	4.25
708.02	7.25
708.774	6.25
709.527	6.25
710.28	4.25
711.034	2.25
711.787	5.25
712.54	6.25
713.293	5.25
714.046	4.25
714.799	8.25
715.552	5.25
716.305	4.25
717.058	5.25
717.81	7.25
718.563	4.25
719.315	4.25
720.068	5.25
720.82	4.25
721.573	6.25
722.325	5.25
723.077	4.25
723.829	7.25
724.581	4.25
725.333	7.25
726.085	4.25
726.836	6.25
727.588	7.25
728.34	8.25
729.091	4.25
729.843	3.25
730.594	8.25
731.346	4.25
732.097	5.25
732.848	5.25
733.599	5.25
734.35	6.25
735.101	7.25
735.852	6.25
736.603	6.25
737.354	6.25
738.104	5.25
738.855	5.25
739.605	6.25
740.356	7.25
741.106	6.25
741.856	7.25
742.607	5.25
743.357	5.25
744.107	6.25
744.857	6.25
745.607	5.25
746.357	7.25
747.106	6.25
747.856	6.25
748.606	5.25
749.355	6.25
750.105	4.25
750.854	8.25
751.603	4.25
752.353	9.25
753.102	7.25
753.851	5.25
754.6	6.25
755.349	8.25
756.098	8.25
756.847	8.25
757.595	10.25
758.344	6.25
759.093	6.25
759.841	10.25
760.589	5.25
761.338	9.25
762.086	8.25
762.834	9.25
763.582	11.25
764.331	10.25
765.079	8.25
765.826	7.25
766.574	10.25
767.322	9.25
768.07	9.25
768.817	10.25
769.565	10.25
770.312	11.25
771.06	11.25
771.807	11.25
772.554	11.25
773.302	9.25
774.049	10.25
774.796	7.25
775.543	11.25
776.29	10.25
777.036	10.25
777.783	8.25
778.53	11.25
779.276	10.25
780.023	11.25
780.769	12.25
781.516	11.25
782.262	10.25
783.008	10.25
783.754	14.25
784.5	13.25
785.246	12.25
785.992	11.25
786.738	11.25
787.484	10.25
788.23	14.25
788.975	8.25
789.721	12.25
790.466	13.25
791.212	9.25
791.957	11.25
792.702	11.25
793.447	13.25
794.193	10.25
794.938	9.25
795.683	11.25
796.427	9.25
797.172	12.25
797.917	10.25
798.662	9.25
799.406	10.25
800.151	10.25
800.895	7.25
801.64	8.25
802.384	10.25
803.128	9.25
803.872	10.25
804.616	8.25
805.36	9.25
806.104	7.25
806.848	8.25
807.592	6.25
808.336	8.25
809.079	9.25
809.823	7.25
810.566	6.25
811.31	6.25
812.053	7.25
812.796	8.25
813.539	7.25
814.283	6.25
815.026	8.25
815.769	4.25
816.511	4.25
817.254	4.25
817.997	6.25
818.74	7.25
819.482	5.25
820.225	5.25
820.967	5.25
821.71	6.25
822.452	4.25
823.194	4.25
823.936	4.25
824.678	4.25
825.42	5.25
826.162	6.25
826.904	5.25
827.646	7.25
828.388	4.25
829.129	4.25
829.871	3.25
830.612	4.25
831.354	3.25
832.095	5.25
832.836	6.25
833.577	4.25
834.319	4.25
835.06	4.25
835.801	4.25
836.542	5.25
837.282	4.25
838.023	4.25
838.764	6.25
839.504	5.25
840.245	5.25
840.985	4.25
841.726	5.25
842.466	4.25
843.206	6.25
843.946	5.25
844.687	2.25
845.427	4.25
846.166	2.25
846.906	3.25
847.646	4.25
848.386	2.25
849.125	5.25
849.865	2.25
850.605	2.25
851.344	4.25
852.083	2.25
852.823	3.25
853.562	2.25
854.301	3.25
855.04	4.25
855.779	6.25
856.518	2.25
857.257	2.25
857.995	2.25
858.734	1.25
859.473	2.25
860.211	2.25
860.95	2.25
861.688	5.25
862.426	2.25
863.165	4.25
863.903	1.25
864.641	2.25
865.379	1.25
866.117	3.25
866.855	2.25
867.593	3.25
868.33	3.25
869.068	1.25
869.806	2.25
870.543	2.25
871.28	2.25
872.018	0.25
872.755	3.25
873.492	1.25
874.229	2.25
874.967	1.25
875.703	3.25
876.44	-0.75
877.177	2.25
877.914	-1.75
878.651	2.25
879.387	-1.75
880.124	2.25
880.86	0.25
881.597	-0.75
882.333	5.25
883.069	0.25
883.806	2.25
884.542	1.25
885.278	0.25
886.014	2.25
886.749	1.25
887.485	2.25
888.221	2.25
888.957	2.25
889.692	2.25
890.428	1.25
891.163	2.25
891.899	0.25
892.634	1.25
893.369	2.25
894.104	0.25
894.839	0.25
895.574	1.25
896.309	2.25
897.044	-0.75
897.779	3.25
898.514	0.25
899.248	-0.75
899.983	0.25
900.717	0.25
901.452	1.25
902.186	1.25
902.92	-0.75
903.654	1.25
904.389	0.25
905.123	2.25
905.857	-0.75
906.59	2.25
907.324	1.25
908.058	1.25
908.792	0.25
909.525	1.25
910.259	-0.75
910.992	1.25
911.726	0.25
912.459	-0.75
913.192	-2.75
913.925	0.25
914.658	-1.75
915.391	3.25
916.124	-2.75
916.857	-0.75
917.59	0.25
918.323	0.25
919.055	1.25
919.788	2.25
920.521	1.25
921.253	0.25
921.985	-1.75
922.718	0.25
923.45	0.25
924.182	1.25
924.914	0.25
925.646	0.25
926.378	0.25
927.11	3.25
927.841	1.25
928.573	2.25
929.305	-0.75
930.036	0.25
930.768	1.25
931.499	1.25
932.23	-1.75
932.962	1.25
933.693	2.25
934.424	-1.75
935.155	0.25
935.886	-1.75
936.617	0.25
937.348	1.25
938.078	1.25
938.809	-1.75
939.54	0.25
940.27	-0.75
941.001	-0.75
941.731	0.25
942.461	-0.75
943.191	-1.75
943.922	0.25
944.652	0.25
945.382	1.25
946.112	-0.75
946.841	2.25
947.571	1.25
948.301	1.25
949.031	0.25
949.76	-0.75
950.49	1.25
951.219	0.25
951.948	0.25
952.678	0.25
953.407	1.25
954.136	0.25
954.865	0.25
955.594	3.25
956.323	2.25
957.052	-0.75
957.78	1.25
958.509	1.25
959.238	0.25
959.966	-0.75
960.695	-0.75
961.423	2.25
962.151	-1.75
962.88	-0.75
963.608	0.25
964.336	0.25
965.064	1.25
965.792	-0.75
966.52	0.25
967.247	-0.75
967.975	0.25
968.703	-0.75
969.43	-1.75
970.158	1.25
970.885	1.25
971.613	1.25
972.34	1.25
973.067	-1.75
973.794	-0.75
974.521	0.25
975.248	-0.75
975.975	-2.75
976.702	2.25
977.429	1.25
978.156	0.25
978.882	-2.75
979.609	0.25
980.335	-0.75
981.062	4.25
981.788	1.25
982.514	1.25
983.24	0.25
983.967	-0.75
984.693	0.25
985.419	3.25
986.144	0.25
986.87	1.25
987.596	1.25
988.322	-1.75
989.047	2.25
989.773	0.25
990.498	1.25
991.224	0.25
991.949	-1.75
992.674	0.25
993.399	0.25
994.124	0.25
994.849	0.25
995.574	-2.75
996.299	-0.75
997.024	-1.75
997.749	0.25
998.473	0.25
999.198	-0.75
999.922	3.25
1000.647	1.25
1001.371	2.25
1002.095	-1.75
1002.82	0.25
1003.544	-1.75
1004.268	4.25
1004.992	3.25
1005.716	1.25
1006.439	3.25
1007.163	4.25
1007.887	1.25
1008.611	0.25
1009.334	-0.75
1010.058	2.25
1010.781	-0.75
1011.504	0.25
1012.228	2.25
1012.951	-0.75
1013.674	1.25
1014.397	0.25
1015.12	0.25
