节点500_425_QEPB04081__373__15-54-30-736.txt的数据

Date: Wed Nov 12 15:54:30 CST 2025
User: PC
Spectrometer: QEPB0408
触发模式: 0
积分时间 (秒): 1.000000E-2
Scans to average: 1
启用暗噪声校正: true
启用非线性校正: false
滑动平均宽度: 0
X轴模式: Wavelengths
Number of Pixels in Spectrum: 1044
>>>>>Begin Spectral Data<<<<<
220.843	0.75
221.644	2.75
222.444	1.75
223.244	2.75
224.045	3.75
224.845	3.75
225.645	3.75
226.445	2.75
227.245	3.75
228.045	4.75
228.845	2.75
229.645	6.75
230.444	4.75
231.244	3.75
232.043	4.75
232.843	5.75
233.642	5.75
234.442	4.75
235.241	6.75
236.04	5.75
236.839	4.75
237.638	6.75
238.437	4.75
239.236	4.75
240.035	7.75
240.833	6.75
241.632	5.75
242.43	4.75
243.229	7.75
244.027	6.75
244.826	7.75
245.624	4.75
246.422	7.75
247.22	8.75
248.018	5.75
248.816	8.75
249.614	9.75
250.412	10.75
251.21	7.75
252.007	8.75
252.805	8.75
253.602	7.75
254.4	11.75
255.197	10.75
255.994	10.75
256.791	11.75
257.589	10.75
258.386	11.75
259.183	11.75
259.979	8.75
260.776	13.75
261.573	14.75
262.37	14.75
263.166	14.75
263.963	16.75
264.759	15.75
265.556	14.75
266.352	17.75
267.148	16.75
267.944	15.75
268.74	17.75
269.536	17.75
270.332	18.75
271.128	18.75
271.924	23.75
272.719	17.75
273.515	22.75
274.311	18.75
275.106	20.75
275.901	17.75
276.697	19.75
277.492	22.75
278.287	21.75
279.082	23.75
279.877	20.75
280.672	22.75
281.467	22.75
282.262	23.75
283.056	23.75
283.851	22.75
284.646	25.75
285.44	22.75
286.234	20.75
287.029	23.75
287.823	25.75
288.617	24.75
289.411	22.75
290.205	22.75
290.999	25.75
291.793	20.75
292.587	20.75
293.381	23.75
294.174	21.75
294.968	20.75
295.761	20.75
296.555	19.75
297.348	19.75
298.141	21.75
298.935	19.75
299.728	17.75
300.521	15.75
301.314	15.75
302.107	16.75
302.899	16.75
303.692	16.75
304.485	16.75
305.277	14.75
306.07	13.75
306.862	14.75
307.655	17.75
308.447	15.75
309.239	13.75
310.031	13.75
310.823	10.75
311.615	12.75
312.407	11.75
313.199	13.75
313.991	10.75
314.783	12.75
315.574	9.75
316.366	9.75
317.157	12.75
317.949	8.75
318.74	11.75
319.531	6.75
320.322	8.75
321.113	11.75
321.904	10.75
322.695	9.75
323.486	7.75
324.277	8.75
325.068	7.75
325.858	8.75
326.649	8.75
327.439	9.75
328.23	7.75
329.02	7.75
329.81	6.75
330.6	6.75
331.391	6.75
332.181	8.75
332.971	7.75
333.76	6.75
334.55	9.75
335.34	9.75
336.13	9.75
336.919	7.75
337.709	9.75
338.498	5.75
339.287	5.75
340.077	7.75
340.866	7.75
341.655	5.75
342.444	8.75
343.233	6.75
344.022	9.75
344.811	9.75
345.6	6.75
346.388	9.75
347.177	7.75
347.965	7.75
348.754	5.75
349.542	9.75
350.33	3.75
351.119	7.75
351.907	8.75
352.695	6.75
353.483	7.75
354.271	6.75
355.059	7.75
355.846	4.75
356.634	5.75
357.422	5.75
358.209	5.75
358.997	3.75
359.784	4.75
360.571	5.75
361.359	7.75
362.146	6.75
362.933	6.75
363.72	8.75
364.507	9.75
365.294	6.75
366.081	5.75
366.867	5.75
367.654	3.75
368.44	7.75
369.227	5.75
370.013	5.75
370.8	6.75
371.586	7.75
372.372	4.75
373.158	5.75
373.944	4.75
374.73	6.75
375.516	6.75
376.302	7.75
377.088	4.75
377.873	6.75
378.659	4.75
379.445	7.75
380.23	4.75
381.015	5.75
381.801	7.75
382.586	6.75
383.371	5.75
384.156	6.75
384.941	6.75
385.726	5.75
386.511	5.75
387.296	7.75
388.08	6.75
388.865	6.75
389.649	8.75
390.434	5.75
391.218	6.75
392.003	7.75
392.787	7.75
393.571	9.75
394.355	6.75
395.139	7.75
395.923	7.75
396.707	10.75
397.491	6.75
398.274	8.75
399.058	11.75
399.842	7.75
400.625	9.75
401.408	11.75
402.192	8.75
402.975	7.75
403.758	9.75
404.541	9.75
405.324	7.75
406.107	8.75
406.89	7.75
407.673	10.75
408.456	8.75
409.238	8.75
410.021	11.75
410.803	13.75
411.586	13.75
412.368	10.75
413.151	9.75
413.933	11.75
414.715	9.75
415.497	9.75
416.279	11.75
417.061	11.75
417.843	13.75
418.624	10.75
419.406	11.75
420.188	12.75
420.969	13.75
421.751	12.75
422.532	11.75
423.313	13.75
424.095	13.75
424.876	15.75
425.657	17.75
426.438	16.75
427.219	17.75
428	18.75
428.78	17.75
429.561	17.75
430.342	18.75
431.122	21.75
431.903	18.75
432.683	21.75
433.464	21.75
434.244	20.75
435.024	23.75
435.804	22.75
436.584	27.75
437.364	25.75
438.144	30.75
438.924	29.75
439.704	31.75
440.483	34.75
441.263	33.75
442.042	39.75
442.822	36.75
443.601	43.75
444.38	41.75
445.16	49.75
445.939	54.75
446.718	54.75
447.497	57.75
448.276	68.75
449.054	75.75
449.833	79.75
450.612	88.75
451.391	90.75
452.169	106.75
452.948	111.75
453.726	126.75
454.504	142.75
455.282	155.75
456.061	167.75
456.839	186.75
457.617	209.75
458.395	235.75
459.172	268.75
459.95	291.75
460.728	333.75
461.506	368.75
462.283	408.75
463.061	447.75
463.838	518.75
464.615	570.75
465.393	630.75
466.17	692.75
466.947	785.75
467.724	865.75
468.501	968.75
469.278	1070.75
470.055	1184.75
470.831	1308.75
471.608	1465.75
472.385	1603.75
473.161	1747.75
473.938	1949.75
474.714	2138.75
475.49	2369.75
476.266	2611.75
477.043	2873.75
477.819	3190.75
478.595	3479.75
479.371	3821.75
480.146	4172.75
480.922	4549.75
481.698	5034.75
482.473	5449.75
483.249	5988.75
484.024	6513.75
484.8	7166.75
485.575	7797.75
486.35	8497.75
487.126	9202.75
487.901	10077.75
488.676	10982.75
489.451	11884.75
490.225	12893.75
491	13960.75
491.775	15198.75
492.55	16329.75
493.324	17558.75
494.099	18810.75
494.873	20024.75
495.647	21455.75
496.422	22781.75
497.196	24209.75
497.97	25655.75
498.744	26958.75
499.518	28395.75
500.292	29443.75
501.066	30642.75
501.839	31769.75
502.613	32621.75
503.387	33396.75
504.16	34017.75
504.934	34356.75
505.707	34547.75
506.48	34410.75
507.253	34268.75
508.027	34026.75
508.8	33595.75
509.573	32923.75
510.346	32171.75
511.118	31278.75
511.891	30369.75
512.664	29257.75
513.437	28179.75
514.209	27124.75
514.982	26150.75
515.754	25050.75
516.526	23988.75
517.298	23044.75
518.071	22079.75
518.843	21184.75
519.615	20342.75
520.387	19549.75
521.159	18805.75
521.93	18088.75
522.702	17379.75
523.474	16639.75
524.245	16000.75
525.017	15281.75
525.788	14581.75
526.56	13935.75
527.331	13357.75
528.102	12708.75
528.873	12124.75
529.644	11524.75
530.415	11045.75
531.186	10465.75
531.957	9939.75
532.728	9472.75
533.498	8954.75
534.269	8453.75
535.039	8004.75
535.81	7504.75
536.58	7129.75
537.351	6715.75
538.121	6342.75
538.891	6029.75
539.661	5716.75
540.431	5417.75
541.201	5115.75
541.971	4865.75
542.741	4614.75
543.51	4377.75
544.28	4160.75
545.05	3932.75
545.819	3735.75
546.588	3576.75
547.358	3394.75
548.127	3220.75
548.896	3055.75
549.665	2901.75
550.434	2758.75
551.203	2607.75
551.972	2476.75
552.741	2333.75
553.51	2200.75
554.278	2074.75
555.047	1972.75
555.815	1876.75
556.584	1770.75
557.352	1656.75
558.121	1562.75
558.889	1484.75
559.657	1390.75
560.425	1321.75
561.193	1254.75
561.961	1181.75
562.729	1112.75
563.496	1052.75
564.264	994.75
565.032	942.75
565.799	886.75
566.567	848.75
567.334	801.75
568.101	755.75
568.869	719.75
569.636	675.75
570.403	637.75
571.17	593.75
571.937	562.75
572.704	535.75
573.471	512.75
574.237	476.75
575.004	453.75
575.771	419.75
576.537	391.75
577.303	377.75
578.07	355.75
578.836	330.75
579.602	322.75
580.368	295.75
581.134	283.75
581.9	266.75
582.666	258.75
583.432	238.75
584.198	227.75
584.964	215.75
585.729	201.75
586.495	199.75
587.26	186.75
588.025	178.75
588.791	161.75
589.556	159.75
590.321	145.75
591.086	135.75
591.851	136.75
592.616	125.75
593.381	120.75
594.146	116.75
594.911	107.75
595.675	106.75
596.44	102.75
597.204	97.75
597.969	87.75
598.733	83.75
599.497	83.75
600.261	80.75
601.025	74.75
601.79	70.75
602.553	70.75
603.317	66.75
604.081	65.75
604.845	61.75
605.609	57.75
606.372	57.75
607.136	54.75
607.899	50.75
608.662	48.75
609.426	48.75
610.189	46.75
610.952	43.75
611.715	42.75
612.478	43.75
613.241	38.75
614.004	36.75
614.767	37.75
615.529	32.75
616.292	32.75
617.055	31.75
617.817	34.75
618.579	31.75
619.342	29.75
620.104	25.75
620.866	27.75
621.628	27.75
622.39	24.75
623.152	25.75
623.914	25.75
624.676	22.75
625.438	24.75
626.199	17.75
626.961	19.75
627.722	20.75
628.484	21.75
629.245	16.75
630.006	18.75
630.768	17.75
631.529	19.75
632.29	17.75
633.051	16.75
633.812	18.75
634.573	17.75
635.333	18.75
636.094	15.75
636.855	13.75
637.615	15.75
638.376	13.75
639.136	13.75
639.896	12.75
640.657	12.75
641.417	12.75
642.177	11.75
642.937	10.75
643.697	9.75
644.457	9.75
645.216	9.75
645.976	9.75
646.736	10.75
647.495	9.75
648.255	11.75
649.014	9.75
649.774	8.75
650.533	10.75
651.292	8.75
652.051	6.75
652.81	8.75
653.569	6.75
654.328	9.75
655.087	7.75
655.846	8.75
656.604	8.75
657.363	8.75
658.121	7.75
658.88	6.75
659.638	8.75
660.397	8.75
661.155	6.75
661.913	6.75
662.671	7.75
663.429	7.75
664.187	4.75
664.945	7.75
665.703	5.75
666.46	6.75
667.218	6.75
667.976	3.75
668.733	4.75
669.49	5.75
670.248	4.75
671.005	5.75
671.762	6.75
672.519	3.75
673.276	3.75
674.033	5.75
674.79	3.75
675.547	5.75
676.304	5.75
677.06	6.75
677.817	4.75
678.574	4.75
679.33	5.75
680.086	3.75
680.843	3.75
681.599	7.75
682.355	2.75
683.111	6.75
683.867	5.75
684.623	3.75
685.379	4.75
686.135	5.75
686.89	6.75
687.646	3.75
688.402	3.75
689.157	4.75
689.912	6.75
690.668	4.75
691.423	4.75
692.178	5.75
692.933	5.75
693.688	5.75
694.443	3.75
695.198	2.75
695.953	4.75
696.708	4.75
697.462	6.75
698.217	5.75
698.972	3.75
699.726	2.75
700.48	1.75
701.235	2.75
701.989	3.75
702.743	2.75
703.497	4.75
704.251	3.75
705.005	2.75
705.759	5.75
706.513	2.75
707.266	2.75
708.02	4.75
708.774	2.75
709.527	3.75
710.28	5.75
711.034	2.75
711.787	5.75
712.54	1.75
713.293	3.75
714.046	6.75
714.799	2.75
715.552	2.75
716.305	2.75
717.058	6.75
717.81	5.75
718.563	3.75
719.315	5.75
720.068	4.75
720.82	6.75
721.573	5.75
722.325	6.75
723.077	3.75
723.829	3.75
724.581	4.75
725.333	5.75
726.085	5.75
726.836	4.75
727.588	3.75
728.34	5.75
729.091	2.75
729.843	5.75
730.594	5.75
731.346	3.75
732.097	5.75
732.848	4.75
733.599	6.75
734.35	4.75
735.101	6.75
735.852	3.75
736.603	5.75
737.354	6.75
738.104	3.75
738.855	4.75
739.605	5.75
740.356	4.75
741.106	8.75
741.856	6.75
742.607	6.75
743.357	4.75
744.107	6.75
744.857	4.75
745.607	4.75
746.357	6.75
747.106	5.75
747.856	4.75
748.606	4.75
749.355	6.75
750.105	4.75
750.854	4.75
751.603	4.75
752.353	5.75
753.102	6.75
753.851	8.75
754.6	6.75
755.349	7.75
756.098	6.75
756.847	7.75
757.595	7.75
758.344	7.75
759.093	5.75
759.841	5.75
760.589	9.75
761.338	7.75
762.086	7.75
762.834	8.75
763.582	4.75
764.331	7.75
765.079	6.75
765.826	9.75
766.574	8.75
767.322	9.75
768.07	7.75
768.817	6.75
769.565	9.75
770.312	7.75
771.06	8.75
771.807	7.75
772.554	10.75
773.302	8.75
774.049	9.75
774.796	10.75
775.543	9.75
776.29	9.75
777.036	10.75
777.783	8.75
778.53	12.75
779.276	10.75
780.023	9.75
780.769	10.75
781.516	11.75
782.262	8.75
783.008	12.75
783.754	10.75
784.5	9.75
785.246	10.75
785.992	12.75
786.738	11.75
787.484	11.75
788.23	10.75
788.975	10.75
789.721	11.75
790.466	9.75
791.212	13.75
791.957	7.75
792.702	9.75
793.447	9.75
794.193	8.75
794.938	9.75
795.683	7.75
796.427	8.75
797.172	9.75
797.917	9.75
798.662	9.75
799.406	7.75
800.151	7.75
800.895	5.75
801.64	9.75
802.384	7.75
803.128	7.75
803.872	3.75
804.616	7.75
805.36	8.75
806.104	8.75
806.848	8.75
807.592	5.75
808.336	6.75
809.079	6.75
809.823	6.75
810.566	6.75
811.31	7.75
812.053	6.75
812.796	3.75
813.539	6.75
814.283	5.75
815.026	6.75
815.769	7.75
816.511	3.75
817.254	3.75
817.997	4.75
818.74	4.75
819.482	4.75
820.225	4.75
820.967	6.75
821.71	2.75
822.452	4.75
823.194	3.75
823.936	4.75
824.678	4.75
825.42	6.75
826.162	5.75
826.904	4.75
827.646	4.75
828.388	5.75
829.129	5.75
829.871	4.75
830.612	1.75
831.354	5.75
832.095	2.75
832.836	4.75
833.577	2.75
834.319	3.75
835.06	5.75
835.801	2.75
836.542	3.75
837.282	1.75
838.023	3.75
838.764	3.75
839.504	2.75
840.245	2.75
840.985	4.75
841.726	0.75
842.466	1.75
843.206	1.75
843.946	4.75
844.687	3.75
845.427	4.75
846.166	3.75
846.906	0.75
847.646	2.75
848.386	1.75
849.125	5.75
849.865	1.75
850.605	2.75
851.344	2.75
852.083	2.75
852.823	3.75
853.562	1.75
854.301	2.75
855.04	1.75
855.779	2.75
856.518	2.75
857.257	1.75
857.995	1.75
858.734	1.75
859.473	2.75
860.211	2.75
860.95	2.75
861.688	3.75
862.426	3.75
863.165	2.75
863.903	0.75
864.641	1.75
865.379	-0.25
866.117	1.75
866.855	0.75
867.593	2.75
868.33	-0.25
869.068	0.75
869.806	2.75
870.543	2.75
871.28	1.75
872.018	-0.25
872.755	3.75
873.492	1.75
874.229	2.75
874.967	0.75
875.703	1.75
876.44	1.75
877.177	1.75
877.914	2.75
878.651	-2.25
879.387	-0.25
880.124	0.75
880.86	-0.25
881.597	0.75
882.333	2.75
883.069	0.75
883.806	0.75
884.542	1.75
885.278	0.75
886.014	1.75
886.749	0.75
887.485	-1.25
888.221	2.75
888.957	1.75
889.692	1.75
890.428	2.75
891.163	1.75
891.899	1.75
892.634	-0.25
893.369	0.75
894.104	-0.25
894.839	-0.25
895.574	2.75
896.309	-0.25
897.044	1.75
897.779	-0.25
898.514	-0.25
899.248	0.75
899.983	-1.25
900.717	0.75
901.452	0.75
902.186	0.75
902.92	-0.25
903.654	-0.25
904.389	-0.25
905.123	-0.25
905.857	-1.25
906.59	0.75
907.324	-0.25
908.058	-2.25
908.792	1.75
909.525	0.75
910.259	-0.25
910.992	-0.25
911.726	-0.25
912.459	1.75
913.192	0.75
913.925	-2.25
914.658	-0.25
915.391	-1.25
916.124	-1.25
916.857	1.75
917.59	-0.25
918.323	-1.25
919.055	0.75
919.788	-0.25
920.521	-0.25
921.253	-0.25
921.985	0.75
922.718	-1.25
923.45	-2.25
924.182	0.75
924.914	-0.25
925.646	-0.25
926.378	-0.25
927.11	0.75
927.841	-1.25
928.573	1.75
929.305	-1.25
930.036	-3.25
930.768	1.75
931.499	0.75
932.23	-1.25
932.962	-0.25
933.693	-1.25
934.424	-2.25
935.155	-1.25
935.886	-1.25
936.617	-1.25
937.348	-1.25
938.078	-2.25
938.809	-0.25
939.54	1.75
940.27	-0.25
941.001	-0.25
941.731	-1.25
942.461	-0.25
943.191	-0.25
943.922	-0.25
944.652	-0.25
945.382	-0.25
946.112	-2.25
946.841	-2.25
947.571	-1.25
948.301	1.75
949.031	-1.25
949.76	-0.25
950.49	-1.25
951.219	-1.25
951.948	-0.25
952.678	-0.25
953.407	-0.25
954.136	-1.25
954.865	0.75
955.594	-2.25
956.323	-1.25
957.052	0.75
957.78	0.75
958.509	1.75
959.238	-0.25
959.966	-3.25
960.695	0.75
961.423	-0.25
962.151	-1.25
962.88	-1.25
963.608	0.75
964.336	-1.25
965.064	0.75
965.792	-0.25
966.52	-0.25
967.247	-1.25
967.975	0.75
968.703	-0.25
969.43	1.75
970.158	-1.25
970.885	-0.25
971.613	-1.25
972.34	-0.25
973.067	-0.25
973.794	0.75
974.521	1.75
975.248	-4.25
975.975	1.75
976.702	-0.25
977.429	-0.25
978.156	0.75
978.882	-0.25
979.609	0.75
980.335	-0.25
981.062	-0.25
981.788	-0.25
982.514	-0.25
983.24	0.75
983.967	-0.25
984.693	1.75
985.419	-0.25
986.144	-0.25
986.87	0.75
987.596	0.75
988.322	-0.25
989.047	-0.25
989.773	2.75
990.498	-1.25
991.224	0.75
991.949	0.75
992.674	-2.25
993.399	-0.25
994.124	1.75
994.849	0.75
995.574	-2.25
996.299	-0.25
997.024	1.75
997.749	-1.25
998.473	-0.25
999.198	-0.25
999.922	1.75
1000.647	0.75
1001.371	2.75
1002.095	-2.25
1002.82	-0.25
1003.544	-2.25
1004.268	-0.25
1004.992	1.75
1005.716	0.75
1006.439	1.75
1007.163	-1.25
1007.887	2.75
1008.611	-0.25
1009.334	0.75
1010.058	1.75
1010.781	-0.25
1011.504	-0.25
1012.228	-1.25
1012.951	0.75
1013.674	0.75
1014.397	-0.25
1015.12	0.75
