节点500_425_QEPB04081__369__15-54-26-731.txt的数据

Date: Wed Nov 12 15:54:26 CST 2025
User: PC
Spectrometer: QEPB0408
触发模式: 0
积分时间 (秒): 1.000000E-2
Scans to average: 1
启用暗噪声校正: true
启用非线性校正: false
滑动平均宽度: 0
X轴模式: Wavelengths
Number of Pixels in Spectrum: 1044
>>>>>Begin Spectral Data<<<<<
220.843	1
221.644	1
222.444	3
223.244	3
224.045	2
224.845	2
225.645	2
226.445	4
227.245	2
228.045	4
228.845	6
229.645	5
230.444	4
231.244	5
232.043	7
232.843	6
233.642	5
234.442	7
235.241	4
236.04	4
236.839	5
237.638	5
238.437	8
239.236	6
240.035	6
240.833	8
241.632	7
242.43	4
243.229	7
244.027	7
244.826	7
245.624	8
246.422	9
247.22	7
248.018	6
248.816	11
249.614	8
250.412	10
251.21	11
252.007	9
252.805	9
253.602	11
254.4	8
255.197	14
255.994	9
256.791	10
257.589	13
258.386	12
259.183	15
259.979	14
260.776	14
261.573	13
262.37	16
263.166	16
263.963	15
264.759	16
265.556	16
266.352	15
267.148	20
267.944	19
268.74	21
269.536	19
270.332	19
271.128	19
271.924	19
272.719	22
273.515	20
274.311	26
275.106	20
275.901	23
276.697	24
277.492	22
278.287	24
279.082	24
279.877	22
280.672	26
281.467	24
282.262	27
283.056	21
283.851	25
284.646	26
285.44	22
286.234	21
287.029	23
287.823	23
288.617	20
289.411	22
290.205	23
290.999	22
291.793	24
292.587	22
293.381	22
294.174	23
294.968	17
295.761	22
296.555	19
297.348	19
298.141	21
298.935	22
299.728	20
300.521	19
301.314	17
302.107	19
302.899	18
303.692	16
304.485	16
305.277	14
306.07	14
306.862	16
307.655	16
308.447	16
309.239	18
310.031	14
310.823	14
311.615	14
312.407	14
313.199	11
313.991	13
314.783	12
315.574	13
316.366	12
317.157	13
317.949	12
318.74	10
319.531	9
320.322	10
321.113	9
321.904	10
322.695	9
323.486	10
324.277	10
325.068	7
325.858	10
326.649	9
327.439	8
328.23	7
329.02	6
329.81	7
330.6	6
331.391	8
332.181	6
332.971	7
333.76	7
334.55	5
335.34	9
336.13	7
336.919	8
337.709	7
338.498	7
339.287	8
340.077	9
340.866	7
341.655	8
342.444	9
343.233	7
344.022	10
344.811	9
345.6	7
346.388	8
347.177	8
347.965	6
348.754	7
349.542	8
350.33	8
351.119	7
351.907	9
352.695	7
353.483	8
354.271	7
355.059	6
355.846	7
356.634	7
357.422	5
358.209	7
358.997	5
359.784	7
360.571	8
361.359	10
362.146	7
362.933	7
363.72	6
364.507	6
365.294	7
366.081	7
366.867	6
367.654	6
368.44	7
369.227	6
370.013	6
370.8	7
371.586	6
372.372	7
373.158	6
373.944	4
374.73	5
375.516	4
376.302	8
377.088	7
377.873	5
378.659	7
379.445	5
380.23	6
381.015	6
381.801	7
382.586	5
383.371	9
384.156	8
384.941	8
385.726	6
386.511	8
387.296	8
388.08	7
388.865	7
389.649	6
390.434	8
391.218	6
392.003	6
392.787	8
393.571	10
394.355	9
395.139	7
395.923	9
396.707	8
397.491	11
398.274	8
399.058	6
399.842	9
400.625	8
401.408	9
402.192	9
402.975	8
403.758	7
404.541	9
405.324	9
406.107	9
406.89	11
407.673	9
408.456	10
409.238	8
410.021	10
410.803	11
411.586	11
412.368	10
413.151	10
413.933	10
414.715	10
415.497	13
416.279	12
417.061	12
417.843	13
418.624	14
419.406	12
420.188	14
420.969	10
421.751	17
422.532	16
423.313	14
424.095	16
424.876	16
425.657	16
426.438	15
427.219	17
428	17
428.78	17
429.561	18
430.342	17
431.122	21
431.903	20
432.683	19
433.464	22
434.244	22
435.024	22
435.804	23
436.584	28
437.364	29
438.144	29
438.924	31
439.704	34
440.483	32
441.263	36
442.042	33
442.822	38
443.601	43
444.38	43
445.16	50
445.939	56
446.718	57
447.497	62
448.276	69
449.054	74
449.833	77
450.612	84
451.391	95
452.169	105
452.948	112
453.726	127
454.504	135
455.282	149
456.061	171
456.839	190
457.617	215
458.395	235
459.172	261
459.95	292
460.728	321
461.506	361
462.283	406
463.061	450
463.838	506
464.615	570
465.393	626
466.17	695
466.947	772
467.724	873
468.501	954
469.278	1059
470.055	1179
470.831	1302
471.608	1440
472.385	1591
473.161	1774
473.938	1959
474.714	2149
475.49	2373
476.266	2612
477.043	2860
477.819	3165
478.595	3501
479.371	3807
480.146	4210
480.922	4551
481.698	5000
482.473	5480
483.249	5990
484.024	6517
484.8	7174
485.575	7816
486.35	8505
487.126	9252
487.901	10086
488.676	10976
489.451	11920
490.225	12875
491	14039
491.775	15200
492.55	16338
493.324	17576
494.099	18844
494.873	20027
495.647	21457
496.422	22792
497.196	24227
497.97	25726
498.744	27091
499.518	28388
500.292	29563
501.066	30607
501.839	31740
502.613	32758
503.387	33479
504.16	34068
504.934	34435
505.707	34606
506.48	34505
507.253	34285
508.027	34066
508.8	33615
509.573	32884
510.346	32171
511.118	31330
511.891	30322
512.664	29352
513.437	28177
514.209	27057
514.982	26170
515.754	25104
516.526	24044
517.298	23030
518.071	22098
518.843	21204
519.615	20327
520.387	19515
521.159	18775
521.93	18109
522.702	17311
523.474	16659
524.245	15988
525.017	15246
525.788	14541
526.56	13939
527.331	13317
528.102	12707
528.873	12090
529.644	11523
530.415	10987
531.186	10458
531.957	9911
532.728	9387
533.498	8929
534.269	8396
535.039	7972
535.81	7521
536.58	7106
537.351	6718
538.121	6318
538.891	6022
539.661	5686
540.431	5400
541.201	5110
541.971	4830
542.741	4653
543.51	4363
544.28	4146
545.05	3919
545.819	3760
546.588	3572
547.358	3398
548.127	3194
548.896	3061
549.665	2914
550.434	2758
551.203	2604
551.972	2460
552.741	2334
553.51	2211
554.278	2076
555.047	1968
555.815	1857
556.584	1753
557.352	1645
558.121	1544
558.889	1481
559.657	1418
560.425	1323
561.193	1256
561.961	1183
562.729	1117
563.496	1054
564.264	990
565.032	940
565.799	897
566.567	855
567.334	802
568.101	744
568.869	708
569.636	662
570.403	633
571.17	601
571.937	558
572.704	536
573.471	508
574.237	482
575.004	442
575.771	416
576.537	398
577.303	364
578.07	349
578.836	331
579.602	307
580.368	296
581.134	283
581.9	275
582.666	254
583.432	245
584.198	225
584.964	221
585.729	204
586.495	195
587.26	186
588.025	169
588.791	162
589.556	154
590.321	145
591.086	146
591.851	129
592.616	131
593.381	120
594.146	116
594.911	107
595.675	106
596.44	101
597.204	94
597.969	92
598.733	88
599.497	85
600.261	81
601.025	76
601.79	78
602.553	71
603.317	66
604.081	65
604.845	63
605.609	58
606.372	51
607.136	53
607.899	50
608.662	48
609.426	50
610.189	47
610.952	49
611.715	44
612.478	42
613.241	42
614.004	39
614.767	35
615.529	37
616.292	34
617.055	32
617.817	31
618.579	32
619.342	27
620.104	29
620.866	27
621.628	27
622.39	26
623.152	25
623.914	26
624.676	23
625.438	24
626.199	22
626.961	23
627.722	19
628.484	20
629.245	19
630.006	23
630.768	16
631.529	18
632.29	17
633.051	16
633.812	15
634.573	18
635.333	16
636.094	14
636.855	14
637.615	16
638.376	14
639.136	12
639.896	13
640.657	12
641.417	10
642.177	12
642.937	10
643.697	13
644.457	15
645.216	8
645.976	13
646.736	10
647.495	8
648.255	11
649.014	10
649.774	10
650.533	9
651.292	8
652.051	9
652.81	8
653.569	7
654.328	8
655.087	9
655.846	9
656.604	8
657.363	9
658.121	9
658.88	8
659.638	8
660.397	7
661.155	6
661.913	8
662.671	7
663.429	7
664.187	8
664.945	5
665.703	9
666.46	6
667.218	6
667.976	5
668.733	6
669.49	8
670.248	8
671.005	5
671.762	8
672.519	5
673.276	6
674.033	6
674.79	5
675.547	6
676.304	5
677.06	5
677.817	5
678.574	6
679.33	5
680.086	5
680.843	7
681.599	4
682.355	9
683.111	5
683.867	6
684.623	6
685.379	6
686.135	5
686.89	4
687.646	4
688.402	4
689.157	3
689.912	4
690.668	2
691.423	7
692.178	4
692.933	5
693.688	2
694.443	4
695.198	4
695.953	5
696.708	5
697.462	4
698.217	5
698.972	1
699.726	3
700.48	7
701.235	3
701.989	4
702.743	5
703.497	6
704.251	3
705.005	5
705.759	4
706.513	5
707.266	4
708.02	5
708.774	5
709.527	5
710.28	5
711.034	5
711.787	6
712.54	4
713.293	4
714.046	6
714.799	7
715.552	6
716.305	5
717.058	2
717.81	4
718.563	7
719.315	5
720.068	5
720.82	3
721.573	4
722.325	5
723.077	6
723.829	3
724.581	4
725.333	4
726.085	5
726.836	5
727.588	6
728.34	5
729.091	4
729.843	7
730.594	7
731.346	3
732.097	7
732.848	8
733.599	5
734.35	5
735.101	4
735.852	5
736.603	4
737.354	5
738.104	4
738.855	6
739.605	5
740.356	3
741.106	6
741.856	8
742.607	2
743.357	4
744.107	6
744.857	5
745.607	8
746.357	7
747.106	8
747.856	7
748.606	5
749.355	5
750.105	6
750.854	6
751.603	8
752.353	5
753.102	7
753.851	6
754.6	8
755.349	5
756.098	7
756.847	7
757.595	8
758.344	8
759.093	8
759.841	8
760.589	8
761.338	8
762.086	5
762.834	7
763.582	6
764.331	7
765.079	8
765.826	6
766.574	10
767.322	9
768.07	7
768.817	10
769.565	7
770.312	10
771.06	9
771.807	10
772.554	14
773.302	7
774.049	9
774.796	11
775.543	11
776.29	10
777.036	12
777.783	10
778.53	9
779.276	14
780.023	11
780.769	11
781.516	13
782.262	11
783.008	12
783.754	10
784.5	8
785.246	11
785.992	12
786.738	13
787.484	12
788.23	10
788.975	13
789.721	9
790.466	10
791.212	12
791.957	11
792.702	10
793.447	11
794.193	13
794.938	7
795.683	10
796.427	11
797.172	11
797.917	8
798.662	8
799.406	13
800.151	9
800.895	9
801.64	7
802.384	8
803.128	10
803.872	9
804.616	9
805.36	7
806.104	7
806.848	9
807.592	10
808.336	6
809.079	6
809.823	7
810.566	7
811.31	6
812.053	7
812.796	7
813.539	4
814.283	5
815.026	9
815.769	6
816.511	6
817.254	4
817.997	6
818.74	6
819.482	5
820.225	4
820.967	6
821.71	7
822.452	3
823.194	6
823.936	7
824.678	4
825.42	6
826.162	5
826.904	5
827.646	6
828.388	2
829.129	6
829.871	4
830.612	7
831.354	5
832.095	3
832.836	5
833.577	2
834.319	7
835.06	4
835.801	4
836.542	4
837.282	2
838.023	6
838.764	7
839.504	5
840.245	4
840.985	5
841.726	5
842.466	4
843.206	5
843.946	3
844.687	3
845.427	4
846.166	3
846.906	2
847.646	4
848.386	4
849.125	3
849.865	3
850.605	8
851.344	4
852.083	2
852.823	4
853.562	4
854.301	1
855.04	2
855.779	2
856.518	3
857.257	4
857.995	2
858.734	2
859.473	3
860.211	3
860.95	3
861.688	1
862.426	2
863.165	2
863.903	0
864.641	2
865.379	2
866.117	-1
866.855	2
867.593	4
868.33	3
869.068	2
869.806	1
870.543	3
871.28	2
872.018	2
872.755	1
873.492	2
874.229	-2
874.967	1
875.703	2
876.44	1
877.177	1
877.914	-2
878.651	3
879.387	2
880.124	2
880.86	1
881.597	1
882.333	2
883.069	0
883.806	1
884.542	2
885.278	2
886.014	2
886.749	2
887.485	1
888.221	-2
888.957	0
889.692	0
890.428	0
891.163	2
891.899	0
892.634	2
893.369	2
894.104	2
894.839	3
895.574	1
896.309	1
897.044	0
897.779	1
898.514	1
899.248	1
899.983	2
900.717	0
901.452	0
902.186	0
902.92	-2
903.654	0
904.389	-2
905.123	0
905.857	-1
906.59	4
907.324	-2
908.058	0
908.792	-1
909.525	-1
910.259	1
910.992	-1
911.726	-2
912.459	1
913.192	0
913.925	1
914.658	2
915.391	1
916.124	-1
916.857	-2
917.59	-1
918.323	0
919.055	-1
919.788	0
920.521	0
921.253	1
921.985	0
922.718	1
923.45	0
924.182	1
924.914	-2
925.646	2
926.378	2
927.11	1
927.841	-1
928.573	-2
929.305	0
930.036	3
930.768	-2
931.499	0
932.23	0
932.962	0
933.693	1
934.424	0
935.155	1
935.886	0
936.617	-3
937.348	-1
938.078	-1
938.809	-1
939.54	0
940.27	1
941.001	1
941.731	-1
942.461	1
943.191	2
943.922	-2
944.652	-1
945.382	0
946.112	0
946.841	0
947.571	2
948.301	1
949.031	-1
949.76	0
950.49	1
951.219	-1
951.948	-1
952.678	1
953.407	-1
954.136	1
954.865	-2
955.594	1
956.323	0
957.052	-2
957.78	0
958.509	-1
959.238	0
959.966	0
960.695	0
961.423	0
962.151	-2
962.88	-1
963.608	1
964.336	-1
965.064	1
965.792	0
966.52	2
967.247	2
967.975	0
968.703	0
969.43	0
970.158	1
970.885	-2
971.613	-2
972.34	0
973.067	-1
973.794	-2
974.521	-2
975.248	1
975.975	0
976.702	-1
977.429	0
978.156	0
978.882	1
979.609	-2
980.335	2
981.062	2
981.788	0
982.514	1
983.24	0
983.967	-1
984.693	0
985.419	1
986.144	0
986.87	1
987.596	1
988.322	0
989.047	1
989.773	3
990.498	-1
991.224	1
991.949	0
992.674	2
993.399	1
994.124	1
994.849	-1
995.574	-2
996.299	0
997.024	-1
997.749	-1
998.473	1
999.198	1
999.922	0
1000.647	-1
1001.371	5
1002.095	-2
1002.82	0
1003.544	0
1004.268	2
1004.992	2
1005.716	2
1006.439	2
1007.163	4
1007.887	2
1008.611	1
1009.334	0
1010.058	0
1010.781	-2
1011.504	1
1012.228	-1
1012.951	-2
1013.674	1
1014.397	-2
1015.12	0
