节点500_425_QEPB04081__511__15-56-48-575.txt的数据

Date: Wed Nov 12 15:56:48 CST 2025
User: PC
Spectrometer: QEPB0408
触发模式: 0
积分时间 (秒): 1.000000E-2
Scans to average: 1
启用暗噪声校正: true
启用非线性校正: false
滑动平均宽度: 0
X轴模式: Wavelengths
Number of Pixels in Spectrum: 1044
>>>>>Begin Spectral Data<<<<<
220.843	3.12
221.644	5.12
222.444	4.12
223.244	3.12
224.045	2.12
224.845	3.12
225.645	4.12
226.445	3.12
227.245	5.12
228.045	6.12
228.845	8.12
229.645	5.12
230.444	5.12
231.244	6.12
232.043	7.12
232.843	5.12
233.642	5.12
234.442	5.12
235.241	4.12
236.04	5.12
236.839	5.12
237.638	6.12
238.437	8.12
239.236	9.12
240.035	8.12
240.833	6.12
241.632	7.12
242.43	8.12
243.229	5.12
244.027	9.12
244.826	8.12
245.624	8.12
246.422	9.12
247.22	7.12
248.018	10.12
248.816	9.12
249.614	8.12
250.412	8.12
251.21	8.12
252.007	8.12
252.805	8.12
253.602	12.12
254.4	11.12
255.197	11.12
255.994	14.12
256.791	9.12
257.589	11.12
258.386	10.12
259.183	15.12
259.979	14.12
260.776	14.12
261.573	13.12
262.37	14.12
263.166	15.12
263.963	15.12
264.759	17.12
265.556	16.12
266.352	18.12
267.148	18.12
267.944	16.12
268.74	17.12
269.536	15.12
270.332	18.12
271.128	19.12
271.924	19.12
272.719	17.12
273.515	21.12
274.311	20.12
275.106	19.12
275.901	23.12
276.697	25.12
277.492	21.12
278.287	22.12
279.082	24.12
279.877	22.12
280.672	26.12
281.467	21.12
282.262	24.12
283.056	21.12
283.851	27.12
284.646	26.12
285.44	21.12
286.234	24.12
287.029	22.12
287.823	24.12
288.617	22.12
289.411	21.12
290.205	24.12
290.999	20.12
291.793	26.12
292.587	24.12
293.381	23.12
294.174	23.12
294.968	21.12
295.761	22.12
296.555	21.12
297.348	20.12
298.141	22.12
298.935	22.12
299.728	21.12
300.521	18.12
301.314	17.12
302.107	19.12
302.899	19.12
303.692	18.12
304.485	17.12
305.277	18.12
306.07	19.12
306.862	18.12
307.655	17.12
308.447	16.12
309.239	15.12
310.031	15.12
310.823	16.12
311.615	15.12
312.407	11.12
313.199	12.12
313.991	13.12
314.783	13.12
315.574	11.12
316.366	12.12
317.157	11.12
317.949	10.12
318.74	10.12
319.531	9.12
320.322	13.12
321.113	11.12
321.904	9.12
322.695	11.12
323.486	11.12
324.277	10.12
325.068	11.12
325.858	7.12
326.649	10.12
327.439	10.12
328.23	9.12
329.02	8.12
329.81	10.12
330.6	10.12
331.391	8.12
332.181	6.12
332.971	10.12
333.76	11.12
334.55	8.12
335.34	7.12
336.13	10.12
336.919	7.12
337.709	9.12
338.498	7.12
339.287	12.12
340.077	8.12
340.866	9.12
341.655	10.12
342.444	9.12
343.233	9.12
344.022	9.12
344.811	9.12
345.6	9.12
346.388	9.12
347.177	11.12
347.965	9.12
348.754	9.12
349.542	7.12
350.33	9.12
351.119	8.12
351.907	7.12
352.695	13.12
353.483	10.12
354.271	9.12
355.059	10.12
355.846	10.12
356.634	8.12
357.422	9.12
358.209	8.12
358.997	8.12
359.784	8.12
360.571	10.12
361.359	8.12
362.146	9.12
362.933	8.12
363.72	8.12
364.507	9.12
365.294	7.12
366.081	7.12
366.867	6.12
367.654	8.12
368.44	7.12
369.227	9.12
370.013	8.12
370.8	7.12
371.586	8.12
372.372	7.12
373.158	9.12
373.944	7.12
374.73	8.12
375.516	6.12
376.302	7.12
377.088	6.12
377.873	5.12
378.659	4.12
379.445	8.12
380.23	7.12
381.015	9.12
381.801	8.12
382.586	7.12
383.371	7.12
384.156	6.12
384.941	6.12
385.726	6.12
386.511	10.12
387.296	5.12
388.08	8.12
388.865	9.12
389.649	9.12
390.434	9.12
391.218	6.12
392.003	9.12
392.787	8.12
393.571	9.12
394.355	9.12
395.139	10.12
395.923	9.12
396.707	9.12
397.491	9.12
398.274	8.12
399.058	9.12
399.842	13.12
400.625	11.12
401.408	9.12
402.192	11.12
402.975	11.12
403.758	11.12
404.541	10.12
405.324	10.12
406.107	11.12
406.89	11.12
407.673	9.12
408.456	11.12
409.238	14.12
410.021	11.12
410.803	9.12
411.586	11.12
412.368	13.12
413.151	11.12
413.933	13.12
414.715	14.12
415.497	15.12
416.279	14.12
417.061	13.12
417.843	11.12
418.624	12.12
419.406	15.12
420.188	15.12
420.969	12.12
421.751	14.12
422.532	14.12
423.313	16.12
424.095	16.12
424.876	15.12
425.657	18.12
426.438	18.12
427.219	16.12
428	14.12
428.78	18.12
429.561	19.12
430.342	20.12
431.122	23.12
431.903	21.12
432.683	21.12
433.464	22.12
434.244	22.12
435.024	27.12
435.804	27.12
436.584	27.12
437.364	30.12
438.144	27.12
438.924	32.12
439.704	33.12
440.483	34.12
441.263	38.12
442.042	40.12
442.822	42.12
443.601	44.12
444.38	50.12
445.16	50.12
445.939	54.12
446.718	58.12
447.497	64.12
448.276	72.12
449.054	76.12
449.833	83.12
450.612	92.12
451.391	101.12
452.169	107.12
452.948	122.12
453.726	132.12
454.504	143.12
455.282	165.12
456.061	179.12
456.839	203.12
457.617	221.12
458.395	249.12
459.172	281.12
459.95	306.12
460.728	346.12
461.506	381.12
462.283	421.12
463.061	475.12
463.838	534.12
464.615	587.12
465.393	645.12
466.17	722.12
466.947	799.12
467.724	902.12
468.501	991.12
469.278	1091.12
470.055	1199.12
470.831	1326.12
471.608	1468.12
472.385	1619.12
473.161	1798.12
473.938	1958.12
474.714	2145.12
475.49	2378.12
476.266	2601.12
477.043	2851.12
477.819	3123.12
478.595	3412.12
479.371	3742.12
480.146	4083.12
480.922	4471.12
481.698	4873.12
482.473	5310.12
483.249	5776.12
484.024	6284.12
484.8	6863.12
485.575	7437.12
486.35	8095.12
487.126	8798.12
487.901	9541.12
488.676	10354.12
489.451	11194.12
490.225	12105.12
491	13082.12
491.775	14130.12
492.55	15178.12
493.324	16379.12
494.099	17475.12
494.873	18585.12
495.647	19917.12
496.422	21094.12
497.196	22446.12
497.97	23754.12
498.744	25070.12
499.518	26389.12
500.292	27499.12
501.066	28635.12
501.839	29688.12
502.613	30634.12
503.387	31495.12
504.16	32168.12
504.934	32617.12
505.707	32876.12
506.48	32959.12
507.253	32945.12
508.027	32825.12
508.8	32545.12
509.573	32072.12
510.346	31440.12
511.118	30747.12
511.891	29915.12
512.664	29031.12
513.437	27997.12
514.209	27030.12
514.982	26209.12
515.754	25164.12
516.526	24130.12
517.298	23149.12
518.071	22216.12
518.843	21354.12
519.615	20457.12
520.387	19653.12
521.159	18974.12
521.93	18218.12
522.702	17423.12
523.474	16822.12
524.245	16170.12
525.017	15480.12
525.788	14735.12
526.56	14079.12
527.331	13534.12
528.102	12886.12
528.873	12310.12
529.644	11749.12
530.415	11227.12
531.186	10726.12
531.957	10218.12
532.728	9678.12
533.498	9127.12
534.269	8634.12
535.039	8195.12
535.81	7761.12
536.58	7328.12
537.351	6945.12
538.121	6547.12
538.891	6201.12
539.661	5902.12
540.431	5578.12
541.201	5276.12
541.971	5034.12
542.741	4743.12
543.51	4469.12
544.28	4259.12
545.05	4073.12
545.819	3897.12
546.588	3684.12
547.358	3492.12
548.127	3323.12
548.896	3139.12
549.665	2983.12
550.434	2855.12
551.203	2698.12
551.972	2559.12
552.741	2433.12
553.51	2319.12
554.278	2176.12
555.047	2037.12
555.815	1943.12
556.584	1821.12
557.352	1732.12
558.121	1639.12
558.889	1540.12
559.657	1467.12
560.425	1369.12
561.193	1290.12
561.961	1233.12
562.729	1169.12
563.496	1095.12
564.264	1043.12
565.032	988.12
565.799	936.12
566.567	879.12
567.334	836.12
568.101	790.12
568.869	745.12
569.636	704.12
570.403	657.12
571.17	617.12
571.937	586.12
572.704	557.12
573.471	528.12
574.237	488.12
575.004	467.12
575.771	442.12
576.537	411.12
577.303	387.12
578.07	370.12
578.836	352.12
579.602	327.12
580.368	315.12
581.134	297.12
581.9	276.12
582.666	265.12
583.432	250.12
584.198	236.12
584.964	229.12
585.729	218.12
586.495	203.12
587.26	198.12
588.025	186.12
588.791	175.12
589.556	169.12
590.321	155.12
591.086	153.12
591.851	138.12
592.616	135.12
593.381	132.12
594.146	121.12
594.911	112.12
595.675	112.12
596.44	103.12
597.204	99.12
597.969	98.12
598.733	93.12
599.497	87.12
600.261	84.12
601.025	79.12
601.79	76.12
602.553	74.12
603.317	68.12
604.081	66.12
604.845	64.12
605.609	65.12
606.372	62.12
607.136	57.12
607.899	56.12
608.662	53.12
609.426	54.12
610.189	49.12
610.952	48.12
611.715	45.12
612.478	44.12
613.241	45.12
614.004	39.12
614.767	37.12
615.529	37.12
616.292	34.12
617.055	37.12
617.817	35.12
618.579	34.12
619.342	33.12
620.104	30.12
620.866	32.12
621.628	30.12
622.39	27.12
623.152	27.12
623.914	27.12
624.676	26.12
625.438	22.12
626.199	21.12
626.961	24.12
627.722	20.12
628.484	23.12
629.245	23.12
630.006	22.12
630.768	18.12
631.529	20.12
632.29	20.12
633.051	17.12
633.812	17.12
634.573	17.12
635.333	14.12
636.094	17.12
636.855	18.12
637.615	16.12
638.376	14.12
639.136	15.12
639.896	12.12
640.657	15.12
641.417	14.12
642.177	13.12
642.937	15.12
643.697	13.12
644.457	14.12
645.216	12.12
645.976	11.12
646.736	10.12
647.495	9.12
648.255	10.12
649.014	10.12
649.774	11.12
650.533	9.12
651.292	11.12
652.051	10.12
652.81	9.12
653.569	10.12
654.328	9.12
655.087	10.12
655.846	8.12
656.604	10.12
657.363	9.12
658.121	9.12
658.88	10.12
659.638	9.12
660.397	8.12
661.155	6.12
661.913	9.12
662.671	9.12
663.429	7.12
664.187	10.12
664.945	7.12
665.703	6.12
666.46	8.12
667.218	8.12
667.976	9.12
668.733	8.12
669.49	5.12
670.248	5.12
671.005	8.12
671.762	8.12
672.519	4.12
673.276	9.12
674.033	7.12
674.79	5.12
675.547	7.12
676.304	7.12
677.06	8.12
677.817	7.12
678.574	6.12
679.33	6.12
680.086	6.12
680.843	7.12
681.599	7.12
682.355	6.12
683.111	5.12
683.867	6.12
684.623	6.12
685.379	6.12
686.135	5.12
686.89	5.12
687.646	5.12
688.402	5.12
689.157	6.12
689.912	8.12
690.668	7.12
691.423	4.12
692.178	4.12
692.933	7.12
693.688	6.12
694.443	6.12
695.198	6.12
695.953	9.12
696.708	6.12
697.462	5.12
698.217	5.12
698.972	6.12
699.726	4.12
700.48	7.12
701.235	5.12
701.989	5.12
702.743	5.12
703.497	5.12
704.251	5.12
705.005	6.12
705.759	4.12
706.513	5.12
707.266	5.12
708.02	5.12
708.774	6.12
709.527	5.12
710.28	4.12
711.034	6.12
711.787	6.12
712.54	3.12
713.293	5.12
714.046	6.12
714.799	4.12
715.552	4.12
716.305	3.12
717.058	7.12
717.81	5.12
718.563	5.12
719.315	5.12
720.068	6.12
720.82	6.12
721.573	5.12
722.325	6.12
723.077	5.12
723.829	4.12
724.581	4.12
725.333	5.12
726.085	8.12
726.836	6.12
727.588	6.12
728.34	6.12
729.091	7.12
729.843	4.12
730.594	7.12
731.346	7.12
732.097	5.12
732.848	6.12
733.599	7.12
734.35	8.12
735.101	6.12
735.852	8.12
736.603	6.12
737.354	4.12
738.104	7.12
738.855	7.12
739.605	8.12
740.356	7.12
741.106	7.12
741.856	8.12
742.607	9.12
743.357	6.12
744.107	7.12
744.857	8.12
745.607	7.12
746.357	7.12
747.106	10.12
747.856	5.12
748.606	6.12
749.355	8.12
750.105	7.12
750.854	8.12
751.603	9.12
752.353	7.12
753.102	8.12
753.851	6.12
754.6	7.12
755.349	6.12
756.098	7.12
756.847	8.12
757.595	8.12
758.344	9.12
759.093	9.12
759.841	8.12
760.589	9.12
761.338	11.12
762.086	9.12
762.834	9.12
763.582	8.12
764.331	8.12
765.079	9.12
765.826	9.12
766.574	10.12
767.322	11.12
768.07	9.12
768.817	11.12
769.565	9.12
770.312	11.12
771.06	9.12
771.807	8.12
772.554	11.12
773.302	10.12
774.049	10.12
774.796	11.12
775.543	8.12
776.29	13.12
777.036	10.12
777.783	12.12
778.53	14.12
779.276	11.12
780.023	12.12
780.769	9.12
781.516	11.12
782.262	13.12
783.008	12.12
783.754	9.12
784.5	10.12
785.246	11.12
785.992	12.12
786.738	9.12
787.484	14.12
788.23	13.12
788.975	9.12
789.721	9.12
790.466	13.12
791.212	10.12
791.957	11.12
792.702	10.12
793.447	11.12
794.193	10.12
794.938	11.12
795.683	9.12
796.427	10.12
797.172	10.12
797.917	11.12
798.662	10.12
799.406	10.12
800.151	9.12
800.895	12.12
801.64	9.12
802.384	8.12
803.128	12.12
803.872	10.12
804.616	10.12
805.36	8.12
806.104	9.12
806.848	9.12
807.592	7.12
808.336	10.12
809.079	7.12
809.823	8.12
810.566	8.12
811.31	8.12
812.053	8.12
812.796	5.12
813.539	7.12
814.283	6.12
815.026	7.12
815.769	8.12
816.511	5.12
817.254	7.12
817.997	6.12
818.74	7.12
819.482	8.12
820.225	8.12
820.967	5.12
821.71	5.12
822.452	5.12
823.194	5.12
823.936	8.12
824.678	6.12
825.42	4.12
826.162	8.12
826.904	5.12
827.646	7.12
828.388	6.12
829.129	5.12
829.871	4.12
830.612	4.12
831.354	5.12
832.095	6.12
832.836	5.12
833.577	3.12
834.319	5.12
835.06	8.12
835.801	4.12
836.542	5.12
837.282	5.12
838.023	4.12
838.764	2.12
839.504	3.12
840.245	5.12
840.985	6.12
841.726	3.12
842.466	5.12
843.206	6.12
843.946	3.12
844.687	5.12
845.427	3.12
846.166	5.12
846.906	3.12
847.646	4.12
848.386	5.12
849.125	7.12
849.865	3.12
850.605	3.12
851.344	4.12
852.083	5.12
852.823	5.12
853.562	2.12
854.301	4.12
855.04	5.12
855.779	3.12
856.518	2.12
857.257	3.12
857.995	5.12
858.734	3.12
859.473	3.12
860.211	5.12
860.95	3.12
861.688	2.12
862.426	5.12
863.165	5.12
863.903	5.12
864.641	3.12
865.379	5.12
866.117	1.12
866.855	5.12
867.593	1.12
868.33	1.12
869.068	3.12
869.806	3.12
870.543	1.12
871.28	4.12
872.018	4.12
872.755	4.12
873.492	0.12
874.229	3.12
874.967	1.12
875.703	4.12
876.44	4.12
877.177	2.12
877.914	3.12
878.651	1.12
879.387	3.12
880.124	3.12
880.86	4.12
881.597	2.12
882.333	-0.88
883.069	3.12
883.806	2.12
884.542	3.12
885.278	3.12
886.014	3.12
886.749	0.12
887.485	1.12
888.221	2.12
888.957	1.12
889.692	2.12
890.428	3.12
891.163	1.12
891.899	3.12
892.634	1.12
893.369	1.12
894.104	1.12
894.839	1.12
895.574	3.12
896.309	-0.88
897.044	-0.88
897.779	2.12
898.514	2.12
899.248	4.12
899.983	-1.88
900.717	0.12
901.452	0.12
902.186	2.12
902.92	3.12
903.654	2.12
904.389	-0.88
905.123	0.12
905.857	2.12
906.59	1.12
907.324	1.12
908.058	3.12
908.792	1.12
909.525	0.12
910.259	0.12
910.992	2.12
911.726	1.12
912.459	3.12
913.192	1.12
913.925	2.12
914.658	2.12
915.391	-1.88
916.124	2.12
916.857	0.12
917.59	2.12
918.323	3.12
919.055	1.12
919.788	2.12
920.521	3.12
921.253	4.12
921.985	4.12
922.718	-1.88
923.45	2.12
924.182	-0.88
924.914	1.12
925.646	2.12
926.378	1.12
927.11	1.12
927.841	1.12
928.573	0.12
929.305	2.12
930.036	2.12
930.768	2.12
931.499	1.12
932.23	1.12
932.962	0.12
933.693	2.12
934.424	1.12
935.155	-0.88
935.886	-0.88
936.617	1.12
937.348	2.12
938.078	-0.88
938.809	2.12
939.54	3.12
940.27	-0.88
941.001	0.12
941.731	0.12
942.461	2.12
943.191	2.12
943.922	1.12
944.652	0.12
945.382	2.12
946.112	2.12
946.841	0.12
947.571	1.12
948.301	2.12
949.031	1.12
949.76	3.12
950.49	-0.88
951.219	2.12
951.948	0.12
952.678	-0.88
953.407	2.12
954.136	3.12
954.865	0.12
955.594	1.12
956.323	1.12
957.052	3.12
957.78	0.12
958.509	1.12
959.238	-1.88
959.966	1.12
960.695	2.12
961.423	0.12
962.151	2.12
962.88	0.12
963.608	1.12
964.336	1.12
965.064	2.12
965.792	1.12
966.52	0.12
967.247	0.12
967.975	-0.88
968.703	3.12
969.43	0.12
970.158	1.12
970.885	-0.88
971.613	3.12
972.34	1.12
973.067	-0.88
973.794	2.12
974.521	1.12
975.248	2.12
975.975	1.12
976.702	-2.88
977.429	1.12
978.156	1.12
978.882	2.12
979.609	-0.88
980.335	2.12
981.062	0.12
981.788	1.12
982.514	1.12
983.24	0.12
983.967	-0.88
984.693	1.12
985.419	-0.88
986.144	2.12
986.87	2.12
987.596	1.12
988.322	1.12
989.047	1.12
989.773	0.12
990.498	-0.88
991.224	2.12
991.949	2.12
992.674	2.12
993.399	2.12
994.124	-0.88
994.849	1.12
995.574	-0.88
996.299	0.12
997.024	1.12
997.749	0.12
998.473	-0.88
999.198	-1.88
999.922	0.12
1000.647	1.12
1001.371	4.12
1002.095	-1.88
1002.82	0.12
1003.544	-0.88
1004.268	3.12
1004.992	4.12
1005.716	3.12
1006.439	3.12
1007.163	6.12
1007.887	3.12
1008.611	1.12
1009.334	1.12
1010.058	1.12
1010.781	3.12
1011.504	2.12
1012.228	1.12
1012.951	0.12
1013.674	-1.88
1014.397	0.12
1015.12	0.12
