节点500_425_QEPB04081__582__15-57-59-440.txt的数据

Date: Wed Nov 12 15:57:59 CST 2025
User: PC
Spectrometer: QEPB0408
触发模式: 0
积分时间 (秒): 1.000000E-2
Scans to average: 1
启用暗噪声校正: true
启用非线性校正: false
滑动平均宽度: 0
X轴模式: Wavelengths
Number of Pixels in Spectrum: 1044
>>>>>Begin Spectral Data<<<<<
220.843	2.88
221.644	-0.12
222.444	3.88
223.244	2.88
224.045	1.88
224.845	3.88
225.645	2.88
226.445	1.88
227.245	3.88
228.045	3.88
228.845	1.88
229.645	1.88
230.444	4.88
231.244	4.88
232.043	6.88
232.843	5.88
233.642	4.88
234.442	5.88
235.241	1.88
236.04	4.88
236.839	4.88
237.638	6.88
238.437	3.88
239.236	6.88
240.035	4.88
240.833	8.88
241.632	6.88
242.43	9.88
243.229	7.88
244.027	5.88
244.826	4.88
245.624	8.88
246.422	5.88
247.22	7.88
248.018	7.88
248.816	9.88
249.614	6.88
250.412	9.88
251.21	7.88
252.007	4.88
252.805	8.88
253.602	8.88
254.4	8.88
255.197	8.88
255.994	8.88
256.791	8.88
257.589	11.88
258.386	8.88
259.183	11.88
259.979	9.88
260.776	12.88
261.573	12.88
262.37	13.88
263.166	11.88
263.963	10.88
264.759	12.88
265.556	14.88
266.352	16.88
267.148	15.88
267.944	14.88
268.74	19.88
269.536	14.88
270.332	14.88
271.128	13.88
271.924	20.88
272.719	18.88
273.515	19.88
274.311	22.88
275.106	17.88
275.901	18.88
276.697	20.88
277.492	20.88
278.287	19.88
279.082	19.88
279.877	23.88
280.672	22.88
281.467	20.88
282.262	20.88
283.056	21.88
283.851	22.88
284.646	22.88
285.44	21.88
286.234	18.88
287.029	23.88
287.823	22.88
288.617	19.88
289.411	21.88
290.205	20.88
290.999	22.88
291.793	21.88
292.587	19.88
293.381	22.88
294.174	19.88
294.968	23.88
295.761	19.88
296.555	17.88
297.348	17.88
298.141	18.88
298.935	19.88
299.728	13.88
300.521	17.88
301.314	17.88
302.107	14.88
302.899	16.88
303.692	15.88
304.485	12.88
305.277	16.88
306.07	15.88
306.862	16.88
307.655	13.88
308.447	14.88
309.239	14.88
310.031	13.88
310.823	14.88
311.615	13.88
312.407	12.88
313.199	8.88
313.991	13.88
314.783	9.88
315.574	13.88
316.366	10.88
317.157	9.88
317.949	12.88
318.74	9.88
319.531	8.88
320.322	8.88
321.113	7.88
321.904	11.88
322.695	6.88
323.486	10.88
324.277	6.88
325.068	7.88
325.858	7.88
326.649	6.88
327.439	7.88
328.23	7.88
329.02	8.88
329.81	9.88
330.6	8.88
331.391	6.88
332.181	7.88
332.971	7.88
333.76	8.88
334.55	8.88
335.34	9.88
336.13	8.88
336.919	8.88
337.709	8.88
338.498	6.88
339.287	7.88
340.077	7.88
340.866	5.88
341.655	9.88
342.444	10.88
343.233	5.88
344.022	7.88
344.811	8.88
345.6	5.88
346.388	5.88
347.177	8.88
347.965	5.88
348.754	7.88
349.542	6.88
350.33	6.88
351.119	5.88
351.907	5.88
352.695	4.88
353.483	7.88
354.271	7.88
355.059	5.88
355.846	4.88
356.634	8.88
357.422	7.88
358.209	5.88
358.997	5.88
359.784	7.88
360.571	8.88
361.359	6.88
362.146	5.88
362.933	8.88
363.72	6.88
364.507	6.88
365.294	6.88
366.081	5.88
366.867	5.88
367.654	7.88
368.44	6.88
369.227	3.88
370.013	7.88
370.8	8.88
371.586	2.88
372.372	5.88
373.158	4.88
373.944	8.88
374.73	5.88
375.516	5.88
376.302	7.88
377.088	4.88
377.873	5.88
378.659	3.88
379.445	4.88
380.23	7.88
381.015	4.88
381.801	8.88
382.586	6.88
383.371	4.88
384.156	5.88
384.941	5.88
385.726	5.88
386.511	8.88
387.296	6.88
388.08	5.88
388.865	7.88
389.649	7.88
390.434	6.88
391.218	9.88
392.003	5.88
392.787	8.88
393.571	6.88
394.355	5.88
395.139	6.88
395.923	8.88
396.707	7.88
397.491	6.88
398.274	8.88
399.058	9.88
399.842	6.88
400.625	8.88
401.408	7.88
402.192	9.88
402.975	9.88
403.758	7.88
404.541	10.88
405.324	6.88
406.107	10.88
406.89	11.88
407.673	7.88
408.456	8.88
409.238	9.88
410.021	8.88
410.803	10.88
411.586	9.88
412.368	10.88
413.151	10.88
413.933	9.88
414.715	10.88
415.497	12.88
416.279	9.88
417.061	10.88
417.843	10.88
418.624	9.88
419.406	12.88
420.188	12.88
420.969	12.88
421.751	12.88
422.532	14.88
423.313	14.88
424.095	17.88
424.876	14.88
425.657	14.88
426.438	15.88
427.219	18.88
428	10.88
428.78	16.88
429.561	16.88
430.342	18.88
431.122	18.88
431.903	16.88
432.683	21.88
433.464	20.88
434.244	22.88
435.024	25.88
435.804	26.88
436.584	25.88
437.364	25.88
438.144	32.88
438.924	29.88
439.704	33.88
440.483	33.88
441.263	39.88
442.042	41.88
442.822	39.88
443.601	42.88
444.38	47.88
445.16	48.88
445.939	53.88
446.718	59.88
447.497	64.88
448.276	68.88
449.054	75.88
449.833	85.88
450.612	90.88
451.391	102.88
452.169	113.88
452.948	121.88
453.726	134.88
454.504	146.88
455.282	167.88
456.061	183.88
456.839	201.88
457.617	231.88
458.395	253.88
459.172	278.88
459.95	309.88
460.728	345.88
461.506	387.88
462.283	442.88
463.061	479.88
463.838	534.88
464.615	590.88
465.393	668.88
466.17	755.88
466.947	815.88
467.724	903.88
468.501	1002.88
469.278	1111.88
470.055	1208.88
470.831	1342.88
471.608	1483.88
472.385	1632.88
473.161	1787.88
473.938	1968.88
474.714	2151.88
475.49	2392.88
476.266	2598.88
477.043	2840.88
477.819	3117.88
478.595	3413.88
479.371	3738.88
480.146	4044.88
480.922	4443.88
481.698	4831.88
482.473	5231.88
483.249	5676.88
484.024	6245.88
484.8	6769.88
485.575	7338.88
486.35	7979.88
487.126	8625.88
487.901	9308.88
488.676	10169.88
489.451	10948.88
490.225	11858.88
491	12801.88
491.775	13781.88
492.55	14809.88
493.324	15953.88
494.099	17007.88
494.873	18139.88
495.647	19347.88
496.422	20547.88
497.196	21901.88
497.97	23143.88
498.744	24397.88
499.518	25667.88
500.292	26821.88
501.066	27897.88
501.839	29026.88
502.613	30001.88
503.387	30816.88
504.16	31489.88
504.934	31978.88
505.707	32307.88
506.48	32410.88
507.253	32475.88
508.027	32470.88
508.8	32215.88
509.573	31771.88
510.346	31203.88
511.118	30651.88
511.891	29781.88
512.664	28953.88
513.437	27964.88
514.209	27063.88
514.982	26210.88
515.754	25166.88
516.526	24268.88
517.298	23222.88
518.071	22346.88
518.843	21427.88
519.615	20533.88
520.387	19706.88
521.159	19023.88
521.93	18288.88
522.702	17578.88
523.474	16909.88
524.245	16236.88
525.017	15549.88
525.788	14839.88
526.56	14221.88
527.331	13629.88
528.102	13009.88
528.873	12408.88
529.644	11849.88
530.415	11345.88
531.186	10847.88
531.957	10307.88
532.728	9795.88
533.498	9231.88
534.269	8754.88
535.039	8336.88
535.81	7857.88
536.58	7460.88
537.351	7041.88
538.121	6638.88
538.891	6315.88
539.661	5982.88
540.431	5681.88
541.201	5362.88
541.971	5068.88
542.741	4829.88
543.51	4587.88
544.28	4371.88
545.05	4148.88
545.819	3955.88
546.588	3752.88
547.358	3554.88
548.127	3377.88
548.896	3227.88
549.665	3054.88
550.434	2896.88
551.203	2753.88
551.972	2619.88
552.741	2471.88
553.51	2337.88
554.278	2217.88
555.047	2094.88
555.815	1979.88
556.584	1865.88
557.352	1763.88
558.121	1669.88
558.889	1568.88
559.657	1494.88
560.425	1410.88
561.193	1318.88
561.961	1262.88
562.729	1200.88
563.496	1135.88
564.264	1061.88
565.032	1011.88
565.799	945.88
566.567	901.88
567.334	855.88
568.101	797.88
568.869	764.88
569.636	713.88
570.403	672.88
571.17	641.88
571.937	608.88
572.704	557.88
573.471	537.88
574.237	503.88
575.004	465.88
575.771	443.88
576.537	429.88
577.303	393.88
578.07	377.88
578.836	354.88
579.602	334.88
580.368	318.88
581.134	301.88
581.9	292.88
582.666	271.88
583.432	256.88
584.198	242.88
584.964	238.88
585.729	215.88
586.495	207.88
587.26	191.88
588.025	185.88
588.791	175.88
589.556	171.88
590.321	156.88
591.086	151.88
591.851	146.88
592.616	138.88
593.381	128.88
594.146	124.88
594.911	118.88
595.675	108.88
596.44	103.88
597.204	104.88
597.969	98.88
598.733	96.88
599.497	88.88
600.261	83.88
601.025	76.88
601.79	78.88
602.553	76.88
603.317	72.88
604.081	71.88
604.845	62.88
605.609	66.88
606.372	60.88
607.136	55.88
607.899	55.88
608.662	50.88
609.426	47.88
610.189	51.88
610.952	46.88
611.715	42.88
612.478	42.88
613.241	42.88
614.004	41.88
614.767	36.88
615.529	37.88
616.292	37.88
617.055	34.88
617.817	32.88
618.579	33.88
619.342	32.88
620.104	30.88
620.866	27.88
621.628	25.88
622.39	24.88
623.152	24.88
623.914	27.88
624.676	22.88
625.438	21.88
626.199	23.88
626.961	20.88
627.722	21.88
628.484	22.88
629.245	19.88
630.006	17.88
630.768	15.88
631.529	15.88
632.29	15.88
633.051	17.88
633.812	16.88
634.573	15.88
635.333	16.88
636.094	14.88
636.855	14.88
637.615	13.88
638.376	13.88
639.136	11.88
639.896	13.88
640.657	12.88
641.417	13.88
642.177	11.88
642.937	11.88
643.697	11.88
644.457	9.88
645.216	10.88
645.976	11.88
646.736	10.88
647.495	11.88
648.255	10.88
649.014	9.88
649.774	8.88
650.533	8.88
651.292	7.88
652.051	8.88
652.81	7.88
653.569	6.88
654.328	7.88
655.087	9.88
655.846	7.88
656.604	6.88
657.363	8.88
658.121	6.88
658.88	7.88
659.638	6.88
660.397	8.88
661.155	3.88
661.913	6.88
662.671	7.88
663.429	6.88
664.187	6.88
664.945	4.88
665.703	6.88
666.46	6.88
667.218	5.88
667.976	3.88
668.733	6.88
669.49	7.88
670.248	4.88
671.005	6.88
671.762	5.88
672.519	7.88
673.276	4.88
674.033	3.88
674.79	5.88
675.547	5.88
676.304	5.88
677.06	4.88
677.817	5.88
678.574	4.88
679.33	4.88
680.086	6.88
680.843	2.88
681.599	4.88
682.355	6.88
683.111	2.88
683.867	3.88
684.623	5.88
685.379	6.88
686.135	2.88
686.89	3.88
687.646	4.88
688.402	3.88
689.157	6.88
689.912	3.88
690.668	0.88
691.423	6.88
692.178	7.88
692.933	3.88
693.688	4.88
694.443	4.88
695.198	5.88
695.953	2.88
696.708	3.88
697.462	3.88
698.217	6.88
698.972	2.88
699.726	3.88
700.48	5.88
701.235	5.88
701.989	3.88
702.743	4.88
703.497	4.88
704.251	2.88
705.005	3.88
705.759	2.88
706.513	3.88
707.266	6.88
708.02	3.88
708.774	3.88
709.527	3.88
710.28	3.88
711.034	4.88
711.787	2.88
712.54	4.88
713.293	3.88
714.046	4.88
714.799	5.88
715.552	4.88
716.305	1.88
717.058	4.88
717.81	3.88
718.563	6.88
719.315	4.88
720.068	1.88
720.82	2.88
721.573	4.88
722.325	1.88
723.077	5.88
723.829	3.88
724.581	5.88
725.333	3.88
726.085	2.88
726.836	3.88
727.588	4.88
728.34	4.88
729.091	3.88
729.843	3.88
730.594	4.88
731.346	4.88
732.097	7.88
732.848	4.88
733.599	3.88
734.35	7.88
735.101	4.88
735.852	2.88
736.603	4.88
737.354	5.88
738.104	4.88
738.855	4.88
739.605	4.88
740.356	2.88
741.106	7.88
741.856	1.88
742.607	6.88
743.357	6.88
744.107	6.88
744.857	6.88
745.607	6.88
746.357	5.88
747.106	1.88
747.856	3.88
748.606	4.88
749.355	5.88
750.105	4.88
750.854	6.88
751.603	5.88
752.353	6.88
753.102	6.88
753.851	5.88
754.6	5.88
755.349	4.88
756.098	4.88
756.847	7.88
757.595	6.88
758.344	5.88
759.093	5.88
759.841	8.88
760.589	4.88
761.338	8.88
762.086	6.88
762.834	6.88
763.582	5.88
764.331	8.88
765.079	9.88
765.826	8.88
766.574	7.88
767.322	6.88
768.07	7.88
768.817	6.88
769.565	7.88
770.312	8.88
771.06	7.88
771.807	9.88
772.554	8.88
773.302	9.88
774.049	9.88
774.796	8.88
775.543	8.88
776.29	10.88
777.036	10.88
777.783	9.88
778.53	10.88
779.276	11.88
780.023	9.88
780.769	9.88
781.516	10.88
782.262	9.88
783.008	11.88
783.754	10.88
784.5	9.88
785.246	9.88
785.992	11.88
786.738	9.88
787.484	7.88
788.23	8.88
788.975	9.88
789.721	9.88
790.466	10.88
791.212	6.88
791.957	8.88
792.702	8.88
793.447	8.88
794.193	9.88
794.938	8.88
795.683	6.88
796.427	11.88
797.172	10.88
797.917	9.88
798.662	8.88
799.406	6.88
800.151	7.88
800.895	7.88
801.64	7.88
802.384	8.88
803.128	8.88
803.872	6.88
804.616	3.88
805.36	7.88
806.104	7.88
806.848	6.88
807.592	5.88
808.336	5.88
809.079	7.88
809.823	4.88
810.566	6.88
811.31	5.88
812.053	5.88
812.796	7.88
813.539	6.88
814.283	5.88
815.026	4.88
815.769	4.88
816.511	4.88
817.254	4.88
817.997	6.88
818.74	3.88
819.482	3.88
820.225	3.88
820.967	5.88
821.71	4.88
822.452	3.88
823.194	5.88
823.936	6.88
824.678	2.88
825.42	4.88
826.162	2.88
826.904	4.88
827.646	4.88
828.388	3.88
829.129	3.88
829.871	2.88
830.612	4.88
831.354	3.88
832.095	3.88
832.836	2.88
833.577	4.88
834.319	4.88
835.06	4.88
835.801	3.88
836.542	2.88
837.282	1.88
838.023	5.88
838.764	2.88
839.504	5.88
840.245	2.88
840.985	3.88
841.726	4.88
842.466	2.88
843.206	4.88
843.946	-1.12
844.687	3.88
845.427	1.88
846.166	3.88
846.906	-0.12
847.646	4.88
848.386	2.88
849.125	2.88
849.865	3.88
850.605	1.88
851.344	0.88
852.083	3.88
852.823	1.88
853.562	3.88
854.301	3.88
855.04	2.88
855.779	0.88
856.518	1.88
857.257	2.88
857.995	2.88
858.734	1.88
859.473	2.88
860.211	3.88
860.95	3.88
861.688	3.88
862.426	1.88
863.165	3.88
863.903	1.88
864.641	-0.12
865.379	0.88
866.117	0.88
866.855	-0.12
867.593	1.88
868.33	1.88
869.068	1.88
869.806	0.88
870.543	0.88
871.28	1.88
872.018	-0.12
872.755	1.88
873.492	1.88
874.229	4.88
874.967	2.88
875.703	1.88
876.44	2.88
877.177	0.88
877.914	0.88
878.651	-0.12
879.387	-1.12
880.124	-0.12
880.86	-0.12
881.597	0.88
882.333	-0.12
883.069	-0.12
883.806	2.88
884.542	1.88
885.278	2.88
886.014	1.88
886.749	-0.12
887.485	0.88
888.221	-1.12
888.957	0.88
889.692	0.88
890.428	0.88
891.163	-0.12
891.899	1.88
892.634	2.88
893.369	2.88
894.104	0.88
894.839	0.88
895.574	0.88
896.309	1.88
897.044	-0.12
897.779	0.88
898.514	-0.12
899.248	-0.12
899.983	0.88
900.717	0.88
901.452	-0.12
902.186	0.88
902.92	3.88
903.654	1.88
904.389	-0.12
905.123	0.88
905.857	-1.12
906.59	-0.12
907.324	0.88
908.058	-0.12
908.792	0.88
909.525	-1.12
910.259	1.88
910.992	-1.12
911.726	0.88
912.459	-2.12
913.192	-1.12
913.925	1.88
914.658	-1.12
915.391	-1.12
916.124	-0.12
916.857	-2.12
917.59	-1.12
918.323	-1.12
919.055	-0.12
919.788	0.88
920.521	-3.12
921.253	-0.12
921.985	-1.12
922.718	-0.12
923.45	-1.12
924.182	1.88
924.914	0.88
925.646	-0.12
926.378	-1.12
927.11	0.88
927.841	-0.12
928.573	0.88
929.305	0.88
930.036	-1.12
930.768	-0.12
931.499	-2.12
932.23	0.88
932.962	-2.12
933.693	1.88
934.424	-0.12
935.155	1.88
935.886	-2.12
936.617	0.88
937.348	-2.12
938.078	-0.12
938.809	-0.12
939.54	-1.12
940.27	-0.12
941.001	-0.12
941.731	-0.12
942.461	-2.12
943.191	0.88
943.922	0.88
944.652	-1.12
945.382	-0.12
946.112	0.88
946.841	-0.12
947.571	-0.12
948.301	-0.12
949.031	0.88
949.76	1.88
950.49	-0.12
951.219	0.88
951.948	-0.12
952.678	-1.12
953.407	-1.12
954.136	-1.12
954.865	-2.12
955.594	0.88
956.323	0.88
957.052	-0.12
957.78	-1.12
958.509	-1.12
959.238	-0.12
959.966	-1.12
960.695	-0.12
961.423	-0.12
962.151	-3.12
962.88	0.88
963.608	-0.12
964.336	-1.12
965.064	-0.12
965.792	-2.12
966.52	-1.12
967.247	-1.12
967.975	-0.12
968.703	-0.12
969.43	-1.12
970.158	-0.12
970.885	-0.12
971.613	-1.12
972.34	-1.12
973.067	-1.12
973.794	-1.12
974.521	-1.12
975.248	-1.12
975.975	0.88
976.702	-0.12
977.429	-1.12
978.156	0.88
978.882	0.88
979.609	-2.12
980.335	-0.12
981.062	-1.12
981.788	-2.12
982.514	-1.12
983.24	0.88
983.967	-2.12
984.693	-0.12
985.419	-0.12
986.144	-1.12
986.87	1.88
987.596	-2.12
988.322	-0.12
989.047	-0.12
989.773	-1.12
990.498	-0.12
991.224	-1.12
991.949	-0.12
992.674	0.88
993.399	0.88
994.124	-0.12
994.849	1.88
995.574	-0.12
996.299	1.88
997.024	-0.12
997.749	0.88
998.473	-0.12
999.198	1.88
999.922	-0.12
1000.647	-1.12
1001.371	3.88
1002.095	-0.12
1002.82	-0.12
1003.544	-1.12
1004.268	2.88
1004.992	1.88
1005.716	3.88
1006.439	1.88
1007.163	1.88
1007.887	2.88
1008.611	-2.12
1009.334	-2.12
1010.058	-1.12
1010.781	-2.12
1011.504	0.88
1012.228	0.88
1012.951	-1.12
1013.674	-1.12
1014.397	-0.12
1015.12	-0.12
