节点500_425_QEPB04081__501__15-56-38-575.txt的数据

Date: Wed Nov 12 15:56:38 CST 2025
User: PC
Spectrometer: QEPB0408
触发模式: 0
积分时间 (秒): 1.000000E-2
Scans to average: 1
启用暗噪声校正: true
启用非线性校正: false
滑动平均宽度: 0
X轴模式: Wavelengths
Number of Pixels in Spectrum: 1044
>>>>>Begin Spectral Data<<<<<
220.843	3.12
221.644	4.12
222.444	2.12
223.244	1.12
224.045	3.12
224.845	4.12
225.645	4.12
226.445	5.12
227.245	4.12
228.045	6.12
228.845	3.12
229.645	4.12
230.444	4.12
231.244	6.12
232.043	5.12
232.843	5.12
233.642	3.12
234.442	4.12
235.241	7.12
236.04	5.12
236.839	5.12
237.638	5.12
238.437	5.12
239.236	6.12
240.035	9.12
240.833	6.12
241.632	5.12
242.43	7.12
243.229	6.12
244.027	6.12
244.826	6.12
245.624	6.12
246.422	9.12
247.22	6.12
248.018	7.12
248.816	10.12
249.614	8.12
250.412	8.12
251.21	10.12
252.007	9.12
252.805	9.12
253.602	10.12
254.4	10.12
255.197	11.12
255.994	11.12
256.791	10.12
257.589	11.12
258.386	12.12
259.183	13.12
259.979	13.12
260.776	12.12
261.573	13.12
262.37	12.12
263.166	13.12
263.963	14.12
264.759	14.12
265.556	18.12
266.352	14.12
267.148	16.12
267.944	16.12
268.74	15.12
269.536	17.12
270.332	18.12
271.128	20.12
271.924	16.12
272.719	20.12
273.515	22.12
274.311	22.12
275.106	20.12
275.901	20.12
276.697	21.12
277.492	26.12
278.287	22.12
279.082	21.12
279.877	23.12
280.672	22.12
281.467	23.12
282.262	22.12
283.056	22.12
283.851	22.12
284.646	24.12
285.44	23.12
286.234	22.12
287.029	25.12
287.823	27.12
288.617	24.12
289.411	23.12
290.205	23.12
290.999	20.12
291.793	22.12
292.587	22.12
293.381	19.12
294.174	22.12
294.968	20.12
295.761	18.12
296.555	18.12
297.348	18.12
298.141	19.12
298.935	22.12
299.728	18.12
300.521	17.12
301.314	17.12
302.107	16.12
302.899	14.12
303.692	17.12
304.485	14.12
305.277	14.12
306.07	18.12
306.862	15.12
307.655	14.12
308.447	14.12
309.239	12.12
310.031	13.12
310.823	10.12
311.615	13.12
312.407	11.12
313.199	14.12
313.991	12.12
314.783	12.12
315.574	9.12
316.366	12.12
317.157	10.12
317.949	9.12
318.74	10.12
319.531	11.12
320.322	10.12
321.113	10.12
321.904	11.12
322.695	14.12
323.486	10.12
324.277	8.12
325.068	9.12
325.858	8.12
326.649	10.12
327.439	11.12
328.23	10.12
329.02	10.12
329.81	7.12
330.6	9.12
331.391	8.12
332.181	10.12
332.971	8.12
333.76	9.12
334.55	10.12
335.34	7.12
336.13	11.12
336.919	9.12
337.709	7.12
338.498	8.12
339.287	7.12
340.077	8.12
340.866	9.12
341.655	8.12
342.444	7.12
343.233	8.12
344.022	11.12
344.811	9.12
345.6	6.12
346.388	8.12
347.177	8.12
347.965	7.12
348.754	4.12
349.542	7.12
350.33	10.12
351.119	8.12
351.907	9.12
352.695	8.12
353.483	8.12
354.271	5.12
355.059	7.12
355.846	8.12
356.634	7.12
357.422	7.12
358.209	5.12
358.997	7.12
359.784	5.12
360.571	10.12
361.359	6.12
362.146	6.12
362.933	6.12
363.72	6.12
364.507	9.12
365.294	6.12
366.081	7.12
366.867	8.12
367.654	8.12
368.44	6.12
369.227	6.12
370.013	6.12
370.8	6.12
371.586	8.12
372.372	7.12
373.158	6.12
373.944	7.12
374.73	10.12
375.516	7.12
376.302	6.12
377.088	7.12
377.873	6.12
378.659	5.12
379.445	7.12
380.23	5.12
381.015	7.12
381.801	8.12
382.586	5.12
383.371	7.12
384.156	6.12
384.941	5.12
385.726	9.12
386.511	7.12
387.296	9.12
388.08	6.12
388.865	7.12
389.649	6.12
390.434	7.12
391.218	8.12
392.003	9.12
392.787	10.12
393.571	7.12
394.355	8.12
395.139	9.12
395.923	7.12
396.707	7.12
397.491	9.12
398.274	11.12
399.058	9.12
399.842	7.12
400.625	9.12
401.408	9.12
402.192	7.12
402.975	9.12
403.758	10.12
404.541	10.12
405.324	11.12
406.107	9.12
406.89	10.12
407.673	8.12
408.456	10.12
409.238	13.12
410.021	11.12
410.803	11.12
411.586	14.12
412.368	13.12
413.151	11.12
413.933	13.12
414.715	13.12
415.497	10.12
416.279	11.12
417.061	14.12
417.843	12.12
418.624	12.12
419.406	14.12
420.188	15.12
420.969	13.12
421.751	13.12
422.532	14.12
423.313	13.12
424.095	14.12
424.876	15.12
425.657	13.12
426.438	18.12
427.219	18.12
428	17.12
428.78	16.12
429.561	18.12
430.342	19.12
431.122	20.12
431.903	21.12
432.683	20.12
433.464	23.12
434.244	22.12
435.024	23.12
435.804	22.12
436.584	26.12
437.364	27.12
438.144	30.12
438.924	29.12
439.704	32.12
440.483	33.12
441.263	37.12
442.042	40.12
442.822	39.12
443.601	44.12
444.38	48.12
445.16	49.12
445.939	52.12
446.718	58.12
447.497	63.12
448.276	69.12
449.054	74.12
449.833	83.12
450.612	91.12
451.391	97.12
452.169	111.12
452.948	118.12
453.726	132.12
454.504	145.12
455.282	161.12
456.061	179.12
456.839	206.12
457.617	226.12
458.395	247.12
459.172	272.12
459.95	302.12
460.728	346.12
461.506	377.12
462.283	420.12
463.061	471.12
463.838	523.12
464.615	584.12
465.393	654.12
466.17	717.12
466.947	816.12
467.724	886.12
468.501	975.12
469.278	1086.12
470.055	1192.12
470.831	1333.12
471.608	1461.12
472.385	1630.12
473.161	1797.12
473.938	1961.12
474.714	2151.12
475.49	2373.12
476.266	2589.12
477.043	2847.12
477.819	3134.12
478.595	3452.12
479.371	3771.12
480.146	4122.12
480.922	4482.12
481.698	4905.12
482.473	5339.12
483.249	5815.12
484.024	6390.12
484.8	6919.12
485.575	7462.12
486.35	8158.12
487.126	8846.12
487.901	9594.12
488.676	10437.12
489.451	11317.12
490.225	12168.12
491	13169.12
491.775	14327.12
492.55	15354.12
493.324	16545.12
494.099	17604.12
494.873	18859.12
495.647	20112.12
496.422	21307.12
497.196	22649.12
497.97	24046.12
498.744	25294.12
499.518	26627.12
500.292	27824.12
501.066	28876.12
501.839	30063.12
502.613	31023.12
503.387	31780.12
504.16	32416.12
504.934	32921.12
505.707	33098.12
506.48	33229.12
507.253	33102.12
508.027	32993.12
508.8	32622.12
509.573	32193.12
510.346	31588.12
511.118	30854.12
511.891	30066.12
512.664	29082.12
513.437	28111.12
514.209	27098.12
514.982	26245.12
515.754	25119.12
516.526	24124.12
517.298	23241.12
518.071	22266.12
518.843	21305.12
519.615	20407.12
520.387	19727.12
521.159	18953.12
521.93	18199.12
522.702	17446.12
523.474	16838.12
524.245	16133.12
525.017	15430.12
525.788	14713.12
526.56	14105.12
527.331	13486.12
528.102	12904.12
528.873	12321.12
529.644	11700.12
530.415	11238.12
531.186	10709.12
531.957	10139.12
532.728	9636.12
533.498	9151.12
534.269	8689.12
535.039	8208.12
535.81	7734.12
536.58	7332.12
537.351	6894.12
538.121	6545.12
538.891	6193.12
539.661	5876.12
540.431	5573.12
541.201	5290.12
541.971	4992.12
542.741	4746.12
543.51	4503.12
544.28	4276.12
545.05	4082.12
545.819	3900.12
546.588	3665.12
547.358	3495.12
548.127	3306.12
548.896	3152.12
549.665	2994.12
550.434	2832.12
551.203	2695.12
551.972	2549.12
552.741	2427.12
553.51	2285.12
554.278	2170.12
555.047	2059.12
555.815	1946.12
556.584	1829.12
557.352	1732.12
558.121	1633.12
558.889	1540.12
559.657	1466.12
560.425	1372.12
561.193	1302.12
561.961	1233.12
562.729	1158.12
563.496	1094.12
564.264	1039.12
565.032	989.12
565.799	928.12
566.567	873.12
567.334	826.12
568.101	788.12
568.869	746.12
569.636	705.12
570.403	669.12
571.17	620.12
571.937	590.12
572.704	548.12
573.471	532.12
574.237	487.12
575.004	466.12
575.771	439.12
576.537	414.12
577.303	385.12
578.07	366.12
578.836	343.12
579.602	331.12
580.368	308.12
581.134	297.12
581.9	277.12
582.666	262.12
583.432	254.12
584.198	237.12
584.964	226.12
585.729	216.12
586.495	204.12
587.26	187.12
588.025	185.12
588.791	173.12
589.556	165.12
590.321	153.12
591.086	142.12
591.851	141.12
592.616	130.12
593.381	129.12
594.146	124.12
594.911	110.12
595.675	110.12
596.44	103.12
597.204	102.12
597.969	97.12
598.733	91.12
599.497	89.12
600.261	81.12
601.025	81.12
601.79	72.12
602.553	70.12
603.317	71.12
604.081	65.12
604.845	63.12
605.609	61.12
606.372	57.12
607.136	54.12
607.899	52.12
608.662	50.12
609.426	48.12
610.189	45.12
610.952	45.12
611.715	43.12
612.478	43.12
613.241	42.12
614.004	39.12
614.767	38.12
615.529	34.12
616.292	37.12
617.055	36.12
617.817	33.12
618.579	31.12
619.342	32.12
620.104	29.12
620.866	30.12
621.628	28.12
622.39	26.12
623.152	26.12
623.914	22.12
624.676	23.12
625.438	24.12
626.199	24.12
626.961	22.12
627.722	22.12
628.484	20.12
629.245	21.12
630.006	18.12
630.768	22.12
631.529	18.12
632.29	18.12
633.051	18.12
633.812	16.12
634.573	19.12
635.333	15.12
636.094	15.12
636.855	14.12
637.615	16.12
638.376	14.12
639.136	13.12
639.896	12.12
640.657	12.12
641.417	12.12
642.177	12.12
642.937	14.12
643.697	12.12
644.457	11.12
645.216	12.12
645.976	11.12
646.736	10.12
647.495	10.12
648.255	11.12
649.014	10.12
649.774	10.12
650.533	10.12
651.292	9.12
652.051	9.12
652.81	10.12
653.569	7.12
654.328	8.12
655.087	7.12
655.846	8.12
656.604	8.12
657.363	6.12
658.121	8.12
658.88	7.12
659.638	9.12
660.397	8.12
661.155	6.12
661.913	6.12
662.671	7.12
663.429	5.12
664.187	7.12
664.945	8.12
665.703	6.12
666.46	7.12
667.218	6.12
667.976	9.12
668.733	7.12
669.49	7.12
670.248	6.12
671.005	6.12
671.762	8.12
672.519	6.12
673.276	7.12
674.033	7.12
674.79	5.12
675.547	4.12
676.304	6.12
677.06	6.12
677.817	5.12
678.574	6.12
679.33	3.12
680.086	6.12
680.843	5.12
681.599	4.12
682.355	4.12
683.111	6.12
683.867	7.12
684.623	5.12
685.379	6.12
686.135	4.12
686.89	4.12
687.646	5.12
688.402	4.12
689.157	6.12
689.912	5.12
690.668	4.12
691.423	3.12
692.178	7.12
692.933	5.12
693.688	6.12
694.443	8.12
695.198	2.12
695.953	5.12
696.708	3.12
697.462	7.12
698.217	6.12
698.972	6.12
699.726	6.12
700.48	6.12
701.235	6.12
701.989	4.12
702.743	4.12
703.497	5.12
704.251	4.12
705.005	4.12
705.759	3.12
706.513	6.12
707.266	3.12
708.02	3.12
708.774	7.12
709.527	6.12
710.28	5.12
711.034	3.12
711.787	6.12
712.54	3.12
713.293	5.12
714.046	5.12
714.799	4.12
715.552	5.12
716.305	3.12
717.058	6.12
717.81	6.12
718.563	4.12
719.315	6.12
720.068	4.12
720.82	6.12
721.573	5.12
722.325	4.12
723.077	4.12
723.829	6.12
724.581	6.12
725.333	4.12
726.085	4.12
726.836	6.12
727.588	4.12
728.34	4.12
729.091	6.12
729.843	3.12
730.594	7.12
731.346	5.12
732.097	6.12
732.848	8.12
733.599	5.12
734.35	7.12
735.101	6.12
735.852	4.12
736.603	6.12
737.354	6.12
738.104	6.12
738.855	5.12
739.605	6.12
740.356	6.12
741.106	7.12
741.856	5.12
742.607	7.12
743.357	5.12
744.107	6.12
744.857	8.12
745.607	7.12
746.357	7.12
747.106	7.12
747.856	7.12
748.606	7.12
749.355	8.12
750.105	3.12
750.854	6.12
751.603	7.12
752.353	4.12
753.102	6.12
753.851	7.12
754.6	8.12
755.349	8.12
756.098	7.12
756.847	7.12
757.595	7.12
758.344	7.12
759.093	8.12
759.841	6.12
760.589	9.12
761.338	7.12
762.086	9.12
762.834	9.12
763.582	6.12
764.331	9.12
765.079	8.12
765.826	9.12
766.574	6.12
767.322	8.12
768.07	9.12
768.817	9.12
769.565	9.12
770.312	9.12
771.06	8.12
771.807	9.12
772.554	10.12
773.302	9.12
774.049	5.12
774.796	10.12
775.543	9.12
776.29	12.12
777.036	10.12
777.783	6.12
778.53	12.12
779.276	8.12
780.023	10.12
780.769	10.12
781.516	9.12
782.262	11.12
783.008	11.12
783.754	10.12
784.5	13.12
785.246	10.12
785.992	13.12
786.738	11.12
787.484	12.12
788.23	9.12
788.975	13.12
789.721	8.12
790.466	11.12
791.212	10.12
791.957	10.12
792.702	11.12
793.447	8.12
794.193	9.12
794.938	8.12
795.683	9.12
796.427	9.12
797.172	9.12
797.917	8.12
798.662	9.12
799.406	8.12
800.151	9.12
800.895	8.12
801.64	10.12
802.384	8.12
803.128	8.12
803.872	8.12
804.616	8.12
805.36	10.12
806.104	4.12
806.848	8.12
807.592	7.12
808.336	7.12
809.079	10.12
809.823	6.12
810.566	6.12
811.31	7.12
812.053	6.12
812.796	5.12
813.539	6.12
814.283	7.12
815.026	7.12
815.769	7.12
816.511	4.12
817.254	6.12
817.997	7.12
818.74	3.12
819.482	4.12
820.225	6.12
820.967	9.12
821.71	3.12
822.452	3.12
823.194	7.12
823.936	5.12
824.678	5.12
825.42	5.12
826.162	2.12
826.904	4.12
827.646	3.12
828.388	5.12
829.129	6.12
829.871	4.12
830.612	6.12
831.354	2.12
832.095	3.12
832.836	7.12
833.577	6.12
834.319	6.12
835.06	4.12
835.801	3.12
836.542	3.12
837.282	5.12
838.023	7.12
838.764	4.12
839.504	5.12
840.245	3.12
840.985	5.12
841.726	3.12
842.466	6.12
843.206	5.12
843.946	6.12
844.687	3.12
845.427	3.12
846.166	4.12
846.906	5.12
847.646	2.12
848.386	3.12
849.125	2.12
849.865	4.12
850.605	3.12
851.344	5.12
852.083	2.12
852.823	5.12
853.562	5.12
854.301	-0.88
855.04	5.12
855.779	3.12
856.518	4.12
857.257	2.12
857.995	2.12
858.734	3.12
859.473	3.12
860.211	1.12
860.95	4.12
861.688	3.12
862.426	2.12
863.165	1.12
863.903	3.12
864.641	2.12
865.379	2.12
866.117	0.12
866.855	2.12
867.593	-0.88
868.33	2.12
869.068	2.12
869.806	2.12
870.543	0.12
871.28	4.12
872.018	3.12
872.755	3.12
873.492	2.12
874.229	3.12
874.967	2.12
875.703	2.12
876.44	3.12
877.177	1.12
877.914	0.12
878.651	3.12
879.387	0.12
880.124	2.12
880.86	-1.88
881.597	2.12
882.333	-0.88
883.069	2.12
883.806	1.12
884.542	1.12
885.278	2.12
886.014	1.12
886.749	1.12
887.485	0.12
888.221	1.12
888.957	-1.88
889.692	1.12
890.428	1.12
891.163	1.12
891.899	0.12
892.634	2.12
893.369	-1.88
894.104	0.12
894.839	-0.88
895.574	-0.88
896.309	0.12
897.044	1.12
897.779	2.12
898.514	1.12
899.248	2.12
899.983	0.12
900.717	1.12
901.452	0.12
902.186	0.12
902.92	2.12
903.654	1.12
904.389	2.12
905.123	-1.88
905.857	1.12
906.59	-0.88
907.324	1.12
908.058	1.12
908.792	0.12
909.525	0.12
910.259	2.12
910.992	-1.88
911.726	1.12
912.459	-0.88
913.192	0.12
913.925	-1.88
914.658	0.12
915.391	0.12
916.124	-0.88
916.857	0.12
917.59	0.12
918.323	2.12
919.055	2.12
919.788	-0.88
920.521	-0.88
921.253	2.12
921.985	1.12
922.718	0.12
923.45	-0.88
924.182	-1.88
924.914	-1.88
925.646	1.12
926.378	-0.88
927.11	0.12
927.841	0.12
928.573	0.12
929.305	0.12
930.036	0.12
930.768	0.12
931.499	0.12
932.23	1.12
932.962	0.12
933.693	-1.88
934.424	1.12
935.155	-1.88
935.886	0.12
936.617	2.12
937.348	-0.88
938.078	0.12
938.809	1.12
939.54	0.12
940.27	1.12
941.001	0.12
941.731	0.12
942.461	0.12
943.191	0.12
943.922	-2.88
944.652	1.12
945.382	-0.88
946.112	1.12
946.841	1.12
947.571	-1.88
948.301	1.12
949.031	-0.88
949.76	3.12
950.49	1.12
951.219	2.12
951.948	-0.88
952.678	0.12
953.407	1.12
954.136	1.12
954.865	-0.88
955.594	-0.88
956.323	-0.88
957.052	1.12
957.78	0.12
958.509	1.12
959.238	-0.88
959.966	-1.88
960.695	2.12
961.423	-1.88
962.151	0.12
962.88	2.12
963.608	-3.88
964.336	0.12
965.064	-0.88
965.792	-0.88
966.52	0.12
967.247	1.12
967.975	0.12
968.703	2.12
969.43	0.12
970.158	-2.88
970.885	1.12
971.613	-0.88
972.34	1.12
973.067	0.12
973.794	1.12
974.521	0.12
975.248	0.12
975.975	2.12
976.702	0.12
977.429	-0.88
978.156	0.12
978.882	1.12
979.609	1.12
980.335	-0.88
981.062	-0.88
981.788	1.12
982.514	-0.88
983.24	1.12
983.967	1.12
984.693	3.12
985.419	2.12
986.144	0.12
986.87	-0.88
987.596	-0.88
988.322	0.12
989.047	0.12
989.773	-0.88
990.498	1.12
991.224	0.12
991.949	0.12
992.674	-1.88
993.399	-0.88
994.124	-0.88
994.849	-0.88
995.574	0.12
996.299	2.12
997.024	0.12
997.749	1.12
998.473	0.12
999.198	0.12
999.922	0.12
1000.647	0.12
1001.371	5.12
1002.095	-1.88
1002.82	-0.88
1003.544	-2.88
1004.268	2.12
1004.992	2.12
1005.716	1.12
1006.439	3.12
1007.163	4.12
1007.887	2.12
1008.611	2.12
1009.334	2.12
1010.058	0.12
1010.781	-1.88
1011.504	-2.88
1012.228	0.12
1012.951	0.12
1013.674	-0.88
1014.397	1.12
1015.12	0.12
