节点500_425_QEPB04081__395__15-54-52-731.txt的数据

Date: Wed Nov 12 15:54:52 CST 2025
User: PC
Spectrometer: QEPB0408
触发模式: 0
积分时间 (秒): 1.000000E-2
Scans to average: 1
启用暗噪声校正: true
启用非线性校正: false
滑动平均宽度: 0
X轴模式: Wavelengths
Number of Pixels in Spectrum: 1044
>>>>>Begin Spectral Data<<<<<
220.843	3
221.644	3
222.444	3
223.244	2
224.045	4
224.845	5
225.645	2
226.445	4
227.245	5
228.045	4
228.845	2
229.645	5
230.444	5
231.244	5
232.043	4
232.843	4
233.642	5
234.442	4
235.241	4
236.04	6
236.839	7
237.638	7
238.437	6
239.236	7
240.035	6
240.833	6
241.632	7
242.43	7
243.229	5
244.027	6
244.826	8
245.624	8
246.422	8
247.22	7
248.018	10
248.816	9
249.614	7
250.412	8
251.21	10
252.007	8
252.805	9
253.602	10
254.4	9
255.197	9
255.994	10
256.791	12
257.589	10
258.386	12
259.183	14
259.979	12
260.776	13
261.573	13
262.37	14
263.166	13
263.963	19
264.759	15
265.556	17
266.352	17
267.148	16
267.944	18
268.74	18
269.536	18
270.332	18
271.128	20
271.924	19
272.719	22
273.515	23
274.311	21
275.106	23
275.901	20
276.697	19
277.492	23
278.287	22
279.082	23
279.877	20
280.672	24
281.467	24
282.262	25
283.056	24
283.851	24
284.646	23
285.44	26
286.234	22
287.029	22
287.823	28
288.617	25
289.411	22
290.205	23
290.999	21
291.793	22
292.587	20
293.381	20
294.174	21
294.968	22
295.761	19
296.555	20
297.348	18
298.141	19
298.935	21
299.728	17
300.521	17
301.314	17
302.107	19
302.899	16
303.692	16
304.485	16
305.277	16
306.07	16
306.862	18
307.655	15
308.447	16
309.239	14
310.031	14
310.823	12
311.615	14
312.407	13
313.199	10
313.991	15
314.783	12
315.574	13
316.366	10
317.157	12
317.949	10
318.74	10
319.531	9
320.322	9
321.113	10
321.904	12
322.695	9
323.486	9
324.277	9
325.068	9
325.858	8
326.649	10
327.439	10
328.23	8
329.02	7
329.81	8
330.6	6
331.391	10
332.181	8
332.971	11
333.76	8
334.55	7
335.34	9
336.13	8
336.919	8
337.709	7
338.498	8
339.287	8
340.077	9
340.866	9
341.655	7
342.444	10
343.233	8
344.022	9
344.811	8
345.6	8
346.388	7
347.177	7
347.965	4
348.754	8
349.542	7
350.33	7
351.119	8
351.907	9
352.695	7
353.483	9
354.271	7
355.059	8
355.846	8
356.634	6
357.422	7
358.209	7
358.997	8
359.784	6
360.571	7
361.359	8
362.146	8
362.933	8
363.72	6
364.507	7
365.294	4
366.081	7
366.867	6
367.654	6
368.44	7
369.227	7
370.013	6
370.8	8
371.586	6
372.372	8
373.158	8
373.944	7
374.73	5
375.516	8
376.302	6
377.088	7
377.873	7
378.659	7
379.445	7
380.23	5
381.015	6
381.801	7
382.586	6
383.371	7
384.156	8
384.941	5
385.726	5
386.511	8
387.296	7
388.08	2
388.865	7
389.649	9
390.434	7
391.218	8
392.003	5
392.787	7
393.571	7
394.355	8
395.139	9
395.923	7
396.707	10
397.491	7
398.274	8
399.058	8
399.842	7
400.625	12
401.408	7
402.192	7
402.975	8
403.758	9
404.541	10
405.324	9
406.107	9
406.89	9
407.673	10
408.456	10
409.238	9
410.021	14
410.803	9
411.586	11
412.368	9
413.151	10
413.933	13
414.715	11
415.497	11
416.279	14
417.061	17
417.843	13
418.624	11
419.406	13
420.188	12
420.969	14
421.751	14
422.532	15
423.313	17
424.095	17
424.876	15
425.657	16
426.438	17
427.219	18
428	15
428.78	19
429.561	17
430.342	21
431.122	16
431.903	20
432.683	22
433.464	20
434.244	22
435.024	22
435.804	26
436.584	26
437.364	27
438.144	32
438.924	31
439.704	31
440.483	33
441.263	35
442.042	38
442.822	43
443.601	47
444.38	43
445.16	50
445.939	52
446.718	57
447.497	60
448.276	65
449.054	68
449.833	77
450.612	86
451.391	97
452.169	107
452.948	115
453.726	132
454.504	145
455.282	160
456.061	175
456.839	194
457.617	212
458.395	233
459.172	264
459.95	294
460.728	327
461.506	365
462.283	413
463.061	468
463.838	521
464.615	569
465.393	627
466.17	705
466.947	791
467.724	874
468.501	962
469.278	1081
470.055	1190
470.831	1321
471.608	1461
472.385	1591
473.161	1772
473.938	1936
474.714	2175
475.49	2377
476.266	2588
477.043	2868
477.819	3169
478.595	3444
479.371	3794
480.146	4165
480.922	4571
481.698	4969
482.473	5436
483.249	5963
484.024	6510
484.8	7112
485.575	7755
486.35	8416
487.126	9144
487.901	9980
488.676	10848
489.451	11772
490.225	12779
491	13811
491.775	14989
492.55	16115
493.324	17292
494.099	18565
494.873	19836
495.647	21104
496.422	22480
497.196	23871
497.97	25296
498.744	26664
499.518	28013
500.292	29125
501.066	30241
501.839	31417
502.613	32345
503.387	33065
504.16	33640
504.934	34087
505.707	34274
506.48	34261
507.253	34072
508.027	33833
508.8	33366
509.573	32804
510.346	32074
511.118	31131
511.891	30309
512.664	29282
513.437	28218
514.209	27114
514.982	26165
515.754	25153
516.526	24086
517.298	23084
518.071	22064
518.843	21234
519.615	20358
520.387	19540
521.159	18816
521.93	18119
522.702	17292
523.474	16637
524.245	15993
525.017	15293
525.788	14622
526.56	13941
527.331	13344
528.102	12744
528.873	12167
529.644	11581
530.415	11080
531.186	10540
531.957	9990
532.728	9479
533.498	8960
534.269	8544
535.039	8030
535.81	7616
536.58	7179
537.351	6760
538.121	6363
538.891	6068
539.661	5738
540.431	5443
541.201	5171
541.971	4855
542.741	4615
543.51	4389
544.28	4172
545.05	3962
545.819	3769
546.588	3575
547.358	3420
548.127	3202
548.896	3075
549.665	2934
550.434	2787
551.203	2635
551.972	2494
552.741	2337
553.51	2227
554.278	2106
555.047	1966
555.815	1878
556.584	1782
557.352	1658
558.121	1592
558.889	1501
559.657	1425
560.425	1336
561.193	1255
561.961	1189
562.729	1136
563.496	1064
564.264	1006
565.032	959
565.799	909
566.567	864
567.334	813
568.101	770
568.869	724
569.636	676
570.403	638
571.17	607
571.937	564
572.704	533
573.471	519
574.237	485
575.004	454
575.771	424
576.537	388
577.303	380
578.07	354
578.836	335
579.602	313
580.368	298
581.134	292
581.9	267
582.666	254
583.432	245
584.198	234
584.964	219
585.729	204
586.495	196
587.26	186
588.025	179
588.791	166
589.556	163
590.321	149
591.086	144
591.851	139
592.616	130
593.381	124
594.146	116
594.911	108
595.675	106
596.44	102
597.204	99
597.969	96
598.733	92
599.497	82
600.261	84
601.025	74
601.79	76
602.553	68
603.317	68
604.081	65
604.845	65
605.609	59
606.372	56
607.136	54
607.899	51
608.662	49
609.426	47
610.189	47
610.952	42
611.715	42
612.478	44
613.241	42
614.004	38
614.767	37
615.529	36
616.292	37
617.055	32
617.817	33
618.579	30
619.342	30
620.104	28
620.866	29
621.628	27
622.39	27
623.152	25
623.914	24
624.676	23
625.438	24
626.199	25
626.961	22
627.722	22
628.484	22
629.245	21
630.006	19
630.768	21
631.529	16
632.29	18
633.051	18
633.812	19
634.573	13
635.333	15
636.094	17
636.855	15
637.615	17
638.376	13
639.136	14
639.896	17
640.657	11
641.417	14
642.177	12
642.937	13
643.697	13
644.457	12
645.216	10
645.976	12
646.736	10
647.495	11
648.255	9
649.014	9
649.774	9
650.533	11
651.292	10
652.051	10
652.81	9
653.569	9
654.328	7
655.087	7
655.846	8
656.604	9
657.363	7
658.121	10
658.88	7
659.638	9
660.397	7
661.155	7
661.913	6
662.671	8
663.429	8
664.187	5
664.945	9
665.703	6
666.46	6
667.218	5
667.976	8
668.733	10
669.49	5
670.248	8
671.005	5
671.762	5
672.519	5
673.276	6
674.033	6
674.79	5
675.547	6
676.304	6
677.06	5
677.817	6
678.574	6
679.33	4
680.086	7
680.843	5
681.599	6
682.355	6
683.111	5
683.867	5
684.623	6
685.379	7
686.135	6
686.89	5
687.646	4
688.402	4
689.157	6
689.912	6
690.668	7
691.423	5
692.178	4
692.933	4
693.688	6
694.443	4
695.198	5
695.953	5
696.708	5
697.462	7
698.217	5
698.972	4
699.726	7
700.48	3
701.235	4
701.989	4
702.743	2
703.497	7
704.251	3
705.005	7
705.759	5
706.513	6
707.266	5
708.02	4
708.774	5
709.527	5
710.28	5
711.034	4
711.787	6
712.54	5
713.293	7
714.046	6
714.799	4
715.552	3
716.305	3
717.058	4
717.81	5
718.563	5
719.315	6
720.068	6
720.82	5
721.573	3
722.325	6
723.077	3
723.829	5
724.581	6
725.333	7
726.085	5
726.836	8
727.588	5
728.34	5
729.091	5
729.843	6
730.594	3
731.346	5
732.097	7
732.848	5
733.599	6
734.35	5
735.101	5
735.852	5
736.603	4
737.354	6
738.104	6
738.855	5
739.605	5
740.356	7
741.106	9
741.856	6
742.607	7
743.357	7
744.107	6
744.857	6
745.607	6
746.357	8
747.106	5
747.856	8
748.606	7
749.355	8
750.105	7
750.854	6
751.603	8
752.353	7
753.102	8
753.851	8
754.6	8
755.349	8
756.098	7
756.847	5
757.595	7
758.344	5
759.093	9
759.841	7
760.589	10
761.338	6
762.086	7
762.834	8
763.582	7
764.331	8
765.079	9
765.826	9
766.574	8
767.322	10
768.07	9
768.817	10
769.565	9
770.312	10
771.06	10
771.807	10
772.554	8
773.302	12
774.049	8
774.796	8
775.543	10
776.29	10
777.036	11
777.783	10
778.53	14
779.276	8
780.023	12
780.769	13
781.516	10
782.262	13
783.008	12
783.754	11
784.5	7
785.246	12
785.992	10
786.738	12
787.484	10
788.23	10
788.975	10
789.721	10
790.466	11
791.212	10
791.957	13
792.702	11
793.447	8
794.193	13
794.938	10
795.683	8
796.427	12
797.172	9
797.917	9
798.662	10
799.406	9
800.151	5
800.895	9
801.64	6
802.384	10
803.128	10
803.872	7
804.616	8
805.36	8
806.104	7
806.848	7
807.592	9
808.336	7
809.079	8
809.823	6
810.566	8
811.31	8
812.053	7
812.796	8
813.539	5
814.283	6
815.026	7
815.769	7
816.511	4
817.254	4
817.997	4
818.74	4
819.482	9
820.225	5
820.967	5
821.71	4
822.452	5
823.194	2
823.936	5
824.678	6
825.42	4
826.162	4
826.904	5
827.646	1
828.388	6
829.129	6
829.871	6
830.612	3
831.354	5
832.095	5
832.836	6
833.577	4
834.319	5
835.06	4
835.801	3
836.542	3
837.282	3
838.023	4
838.764	4
839.504	4
840.245	4
840.985	5
841.726	2
842.466	4
843.206	2
843.946	4
844.687	3
845.427	4
846.166	3
846.906	4
847.646	3
848.386	2
849.125	3
849.865	6
850.605	2
851.344	2
852.083	3
852.823	1
853.562	4
854.301	2
855.04	3
855.779	0
856.518	2
857.257	2
857.995	4
858.734	3
859.473	0
860.211	5
860.95	2
861.688	2
862.426	5
863.165	3
863.903	3
864.641	5
865.379	3
866.117	3
866.855	2
867.593	3
868.33	1
869.068	2
869.806	0
870.543	1
871.28	0
872.018	0
872.755	3
873.492	1
874.229	0
874.967	2
875.703	0
876.44	2
877.177	0
877.914	3
878.651	1
879.387	0
880.124	1
880.86	0
881.597	0
882.333	0
883.069	1
883.806	2
884.542	0
885.278	1
886.014	1
886.749	0
887.485	0
888.221	-1
888.957	-1
889.692	0
890.428	1
891.163	3
891.899	2
892.634	1
893.369	2
894.104	-1
894.839	0
895.574	1
896.309	-1
897.044	0
897.779	2
898.514	2
899.248	1
899.983	-1
900.717	-2
901.452	0
902.186	1
902.92	0
903.654	0
904.389	0
905.123	-1
905.857	2
906.59	3
907.324	1
908.058	2
908.792	0
909.525	0
910.259	1
910.992	1
911.726	0
912.459	0
913.192	2
913.925	0
914.658	2
915.391	-1
916.124	1
916.857	2
917.59	0
918.323	2
919.055	0
919.788	1
920.521	0
921.253	0
921.985	1
922.718	-2
923.45	-1
924.182	0
924.914	2
925.646	0
926.378	1
927.11	1
927.841	1
928.573	0
929.305	0
930.036	1
930.768	1
931.499	0
932.23	2
932.962	2
933.693	1
934.424	-1
935.155	-2
935.886	-1
936.617	-1
937.348	2
938.078	0
938.809	3
939.54	2
940.27	0
941.001	0
941.731	-1
942.461	1
943.191	-2
943.922	1
944.652	1
945.382	0
946.112	1
946.841	0
947.571	-2
948.301	2
949.031	0
949.76	2
950.49	1
951.219	2
951.948	0
952.678	0
953.407	0
954.136	0
954.865	1
955.594	-1
956.323	1
957.052	1
957.78	0
958.509	1
959.238	1
959.966	1
960.695	-2
961.423	2
962.151	0
962.88	-1
963.608	-2
964.336	0
965.064	-1
965.792	0
966.52	-1
967.247	1
967.975	-1
968.703	-1
969.43	0
970.158	-4
970.885	0
971.613	0
972.34	-1
973.067	1
973.794	2
974.521	-1
975.248	-2
975.975	1
976.702	0
977.429	-2
978.156	0
978.882	1
979.609	-1
980.335	0
981.062	-1
981.788	1
982.514	0
983.24	0
983.967	1
984.693	1
985.419	0
986.144	1
986.87	-2
987.596	-1
988.322	0
989.047	0
989.773	0
990.498	-1
991.224	-1
991.949	0
992.674	0
993.399	2
994.124	-2
994.849	0
995.574	0
996.299	-1
997.024	2
997.749	-1
998.473	1
999.198	-2
999.922	2
1000.647	0
1001.371	4
1002.095	-2
1002.82	0
1003.544	-3
1004.268	2
1004.992	2
1005.716	2
1006.439	1
1007.163	3
1007.887	2
1008.611	1
1009.334	1
1010.058	0
1010.781	2
1011.504	-1
1012.228	-1
1012.951	0
1013.674	1
1014.397	0
1015.12	0
