节点500_425_QEPB04081__422__15-55-19-663.txt的数据

Date: Wed Nov 12 15:55:19 CST 2025
User: PC
Spectrometer: QEPB0408
触发模式: 0
积分时间 (秒): 1.000000E-2
Scans to average: 1
启用暗噪声校正: true
启用非线性校正: false
滑动平均宽度: 0
X轴模式: Wavelengths
Number of Pixels in Spectrum: 1044
>>>>>Begin Spectral Data<<<<<
220.843	3
221.644	3
222.444	3
223.244	6
224.045	4
224.845	3
225.645	6
226.445	6
227.245	4
228.045	5
228.845	4
229.645	3
230.444	5
231.244	5
232.043	3
232.843	7
233.642	8
234.442	7
235.241	5
236.04	7
236.839	6
237.638	5
238.437	6
239.236	5
240.035	7
240.833	11
241.632	8
242.43	9
243.229	6
244.027	8
244.826	9
245.624	9
246.422	9
247.22	11
248.018	9
248.816	10
249.614	8
250.412	10
251.21	10
252.007	11
252.805	10
253.602	8
254.4	9
255.197	9
255.994	12
256.791	14
257.589	14
258.386	13
259.183	14
259.979	17
260.776	14
261.573	13
262.37	17
263.166	15
263.963	18
264.759	17
265.556	19
266.352	17
267.148	19
267.944	16
268.74	18
269.536	18
270.332	19
271.128	21
271.924	23
272.719	21
273.515	19
274.311	22
275.106	22
275.901	24
276.697	22
277.492	21
278.287	22
279.082	26
279.877	18
280.672	23
281.467	23
282.262	27
283.056	26
283.851	21
284.646	25
285.44	26
286.234	24
287.029	24
287.823	25
288.617	25
289.411	23
290.205	23
290.999	23
291.793	26
292.587	24
293.381	22
294.174	25
294.968	20
295.761	22
296.555	21
297.348	19
298.141	20
298.935	24
299.728	21
300.521	18
301.314	17
302.107	18
302.899	17
303.692	18
304.485	14
305.277	19
306.07	20
306.862	19
307.655	16
308.447	16
309.239	17
310.031	15
310.823	13
311.615	15
312.407	12
313.199	17
313.991	12
314.783	10
315.574	12
316.366	11
317.157	14
317.949	8
318.74	13
319.531	12
320.322	7
321.113	10
321.904	7
322.695	11
323.486	9
324.277	7
325.068	10
325.858	11
326.649	10
327.439	9
328.23	10
329.02	9
329.81	8
330.6	10
331.391	9
332.181	9
332.971	7
333.76	9
334.55	9
335.34	10
336.13	12
336.919	9
337.709	7
338.498	11
339.287	12
340.077	9
340.866	8
341.655	7
342.444	9
343.233	10
344.022	9
344.811	7
345.6	11
346.388	9
347.177	8
347.965	10
348.754	10
349.542	9
350.33	9
351.119	11
351.907	8
352.695	9
353.483	8
354.271	8
355.059	9
355.846	7
356.634	5
357.422	8
358.209	7
358.997	8
359.784	9
360.571	8
361.359	6
362.146	10
362.933	8
363.72	9
364.507	8
365.294	6
366.081	9
366.867	8
367.654	9
368.44	7
369.227	5
370.013	8
370.8	6
371.586	9
372.372	8
373.158	5
373.944	7
374.73	6
375.516	8
376.302	11
377.088	9
377.873	9
378.659	6
379.445	9
380.23	6
381.015	7
381.801	7
382.586	8
383.371	10
384.156	7
384.941	7
385.726	9
386.511	6
387.296	8
388.08	8
388.865	9
389.649	9
390.434	9
391.218	7
392.003	8
392.787	8
393.571	11
394.355	10
395.139	11
395.923	11
396.707	7
397.491	9
398.274	7
399.058	10
399.842	10
400.625	11
401.408	10
402.192	9
402.975	10
403.758	11
404.541	12
405.324	10
406.107	9
406.89	10
407.673	12
408.456	11
409.238	12
410.021	11
410.803	11
411.586	11
412.368	13
413.151	12
413.933	13
414.715	13
415.497	14
416.279	13
417.061	15
417.843	13
418.624	13
419.406	13
420.188	15
420.969	14
421.751	15
422.532	14
423.313	14
424.095	14
424.876	18
425.657	15
426.438	18
427.219	15
428	19
428.78	17
429.561	19
430.342	19
431.122	20
431.903	21
432.683	20
433.464	24
434.244	25
435.024	26
435.804	26
436.584	27
437.364	28
438.144	28
438.924	33
439.704	32
440.483	35
441.263	36
442.042	39
442.822	43
443.601	42
444.38	47
445.16	47
445.939	52
446.718	59
447.497	58
448.276	70
449.054	78
449.833	81
450.612	87
451.391	100
452.169	105
452.948	119
453.726	132
454.504	144
455.282	156
456.061	175
456.839	194
457.617	220
458.395	243
459.172	270
459.95	297
460.728	329
461.506	372
462.283	417
463.061	458
463.838	515
464.615	588
465.393	635
466.17	715
466.947	788
467.724	861
468.501	957
469.278	1085
470.055	1179
470.831	1307
471.608	1457
472.385	1607
473.161	1774
473.938	1942
474.714	2156
475.49	2367
476.266	2600
477.043	2842
477.819	3146
478.595	3444
479.371	3777
480.146	4142
480.922	4522
481.698	4983
482.473	5405
483.249	5892
484.024	6486
484.8	7096
485.575	7704
486.35	8360
487.126	9075
487.901	9876
488.676	10755
489.451	11659
490.225	12631
491	13658
491.775	14814
492.55	15881
493.324	17196
494.099	18332
494.873	19615
495.647	20955
496.422	22176
497.196	23593
497.97	24997
498.744	26436
499.518	27708
500.292	28855
501.066	29948
501.839	31084
502.613	32061
503.387	32847
504.16	33406
504.934	33846
505.707	33958
506.48	34005
507.253	33818
508.027	33652
508.8	33187
509.573	32666
510.346	31921
511.118	31071
511.891	30269
512.664	29217
513.437	28170
514.209	27064
514.982	26087
515.754	25077
516.526	24046
517.298	23099
518.071	22103
518.843	21229
519.615	20345
520.387	19524
521.159	18781
521.93	18077
522.702	17326
523.474	16667
524.245	16027
525.017	15314
525.788	14606
526.56	13942
527.331	13368
528.102	12759
528.873	12185
529.644	11577
530.415	11047
531.186	10541
531.957	10007
532.728	9469
533.498	8950
534.269	8473
535.039	8059
535.81	7624
536.58	7157
537.351	6789
538.121	6414
538.891	6055
539.661	5762
540.431	5458
541.201	5156
541.971	4897
542.741	4597
543.51	4420
544.28	4167
545.05	3993
545.819	3829
546.588	3585
547.358	3426
548.127	3246
548.896	3082
549.665	2923
550.434	2792
551.203	2646
551.972	2498
552.741	2366
553.51	2247
554.278	2108
555.047	1990
555.815	1875
556.584	1782
557.352	1683
558.121	1587
558.889	1505
559.657	1422
560.425	1335
561.193	1257
561.961	1206
562.729	1130
563.496	1070
564.264	1013
565.032	960
565.799	915
566.567	856
567.334	811
568.101	760
568.869	720
569.636	667
570.403	631
571.17	605
571.937	571
572.704	543
573.471	508
574.237	474
575.004	455
575.771	421
576.537	409
577.303	376
578.07	354
578.836	340
579.602	323
580.368	305
581.134	285
581.9	277
582.666	261
583.432	241
584.198	230
584.964	223
585.729	212
586.495	202
587.26	185
588.025	176
588.791	165
589.556	163
590.321	150
591.086	146
591.851	135
592.616	129
593.381	129
594.146	117
594.911	115
595.675	108
596.44	103
597.204	99
597.969	93
598.733	86
599.497	85
600.261	85
601.025	78
601.79	73
602.553	77
603.317	65
604.081	63
604.845	63
605.609	60
606.372	56
607.136	57
607.899	51
608.662	51
609.426	51
610.189	50
610.952	48
611.715	46
612.478	42
613.241	45
614.004	38
614.767	40
615.529	37
616.292	34
617.055	38
617.817	34
618.579	32
619.342	33
620.104	33
620.866	27
621.628	27
622.39	26
623.152	26
623.914	24
624.676	26
625.438	23
626.199	22
626.961	22
627.722	19
628.484	19
629.245	23
630.006	19
630.768	20
631.529	15
632.29	17
633.051	20
633.812	17
634.573	16
635.333	16
636.094	16
636.855	15
637.615	15
638.376	15
639.136	15
639.896	15
640.657	15
641.417	13
642.177	14
642.937	14
643.697	12
644.457	12
645.216	11
645.976	10
646.736	11
647.495	13
648.255	12
649.014	10
649.774	13
650.533	11
651.292	9
652.051	11
652.81	11
653.569	12
654.328	8
655.087	9
655.846	12
656.604	10
657.363	12
658.121	7
658.88	4
659.638	6
660.397	10
661.155	7
661.913	9
662.671	9
663.429	7
664.187	8
664.945	6
665.703	5
666.46	8
667.218	8
667.976	6
668.733	7
669.49	6
670.248	9
671.005	7
671.762	7
672.519	9
673.276	6
674.033	6
674.79	8
675.547	8
676.304	7
677.06	8
677.817	8
678.574	6
679.33	8
680.086	9
680.843	4
681.599	7
682.355	6
683.111	4
683.867	7
684.623	8
685.379	5
686.135	5
686.89	6
687.646	4
688.402	5
689.157	5
689.912	6
690.668	6
691.423	5
692.178	6
692.933	6
693.688	7
694.443	6
695.198	4
695.953	6
696.708	5
697.462	6
698.217	7
698.972	4
699.726	7
700.48	5
701.235	6
701.989	3
702.743	5
703.497	6
704.251	6
705.005	5
705.759	5
706.513	7
707.266	5
708.02	5
708.774	5
709.527	5
710.28	6
711.034	4
711.787	7
712.54	6
713.293	6
714.046	7
714.799	5
715.552	6
716.305	5
717.058	5
717.81	5
718.563	4
719.315	6
720.068	4
720.82	8
721.573	5
722.325	7
723.077	5
723.829	7
724.581	7
725.333	7
726.085	6
726.836	6
727.588	5
728.34	5
729.091	3
729.843	8
730.594	7
731.346	7
732.097	5
732.848	5
733.599	8
734.35	5
735.101	7
735.852	8
736.603	5
737.354	9
738.104	7
738.855	5
739.605	6
740.356	8
741.106	8
741.856	9
742.607	8
743.357	6
744.107	9
744.857	8
745.607	6
746.357	10
747.106	5
747.856	7
748.606	7
749.355	10
750.105	9
750.854	6
751.603	8
752.353	8
753.102	10
753.851	9
754.6	8
755.349	7
756.098	7
756.847	9
757.595	10
758.344	8
759.093	10
759.841	9
760.589	10
761.338	10
762.086	8
762.834	10
763.582	9
764.331	9
765.079	10
765.826	12
766.574	11
767.322	7
768.07	10
768.817	11
769.565	11
770.312	9
771.06	13
771.807	9
772.554	9
773.302	10
774.049	11
774.796	11
775.543	11
776.29	13
777.036	10
777.783	11
778.53	15
779.276	11
780.023	13
780.769	12
781.516	8
782.262	11
783.008	11
783.754	13
784.5	13
785.246	13
785.992	11
786.738	11
787.484	12
788.23	10
788.975	12
789.721	11
790.466	11
791.212	12
791.957	12
792.702	12
793.447	11
794.193	12
794.938	10
795.683	10
796.427	13
797.172	12
797.917	11
798.662	9
799.406	10
800.151	10
800.895	10
801.64	11
802.384	10
803.128	9
803.872	6
804.616	11
805.36	10
806.104	7
806.848	9
807.592	7
808.336	5
809.079	9
809.823	9
810.566	8
811.31	9
812.053	7
812.796	10
813.539	8
814.283	6
815.026	6
815.769	7
816.511	7
817.254	6
817.997	5
818.74	5
819.482	8
820.225	9
820.967	9
821.71	6
822.452	3
823.194	6
823.936	6
824.678	6
825.42	5
826.162	8
826.904	5
827.646	6
828.388	5
829.129	2
829.871	8
830.612	5
831.354	4
832.095	8
832.836	2
833.577	4
834.319	6
835.06	5
835.801	6
836.542	3
837.282	4
838.023	5
838.764	4
839.504	5
840.245	6
840.985	4
841.726	5
842.466	5
843.206	3
843.946	6
844.687	5
845.427	5
846.166	3
846.906	5
847.646	4
848.386	5
849.125	3
849.865	3
850.605	4
851.344	5
852.083	4
852.823	5
853.562	5
854.301	3
855.04	4
855.779	5
856.518	3
857.257	2
857.995	3
858.734	2
859.473	4
860.211	4
860.95	2
861.688	4
862.426	3
863.165	5
863.903	0
864.641	2
865.379	2
866.117	3
866.855	0
867.593	2
868.33	3
869.068	4
869.806	2
870.543	2
871.28	1
872.018	-1
872.755	3
873.492	1
874.229	3
874.967	1
875.703	2
876.44	1
877.177	1
877.914	2
878.651	3
879.387	4
880.124	2
880.86	0
881.597	3
882.333	3
883.069	3
883.806	1
884.542	1
885.278	0
886.014	1
886.749	3
887.485	1
888.221	3
888.957	0
889.692	0
890.428	3
891.163	0
891.899	2
892.634	2
893.369	1
894.104	3
894.839	2
895.574	1
896.309	0
897.044	1
897.779	2
898.514	0
899.248	1
899.983	0
900.717	-1
901.452	2
902.186	1
902.92	0
903.654	0
904.389	2
905.123	1
905.857	2
906.59	1
907.324	0
908.058	0
908.792	-1
909.525	2
910.259	0
910.992	-1
911.726	0
912.459	0
913.192	3
913.925	0
914.658	2
915.391	1
916.124	2
916.857	2
917.59	1
918.323	2
919.055	2
919.788	3
920.521	1
921.253	1
921.985	2
922.718	1
923.45	1
924.182	0
924.914	2
925.646	2
926.378	1
927.11	1
927.841	0
928.573	0
929.305	2
930.036	2
930.768	2
931.499	1
932.23	0
932.962	0
933.693	1
934.424	1
935.155	-1
935.886	0
936.617	2
937.348	0
938.078	2
938.809	-2
939.54	1
940.27	2
941.001	1
941.731	1
942.461	-1
943.191	0
943.922	0
944.652	2
945.382	1
946.112	-1
946.841	2
947.571	0
948.301	3
949.031	1
949.76	1
950.49	1
951.219	1
951.948	-1
952.678	0
953.407	1
954.136	-1
954.865	1
955.594	2
956.323	2
957.052	0
957.78	2
958.509	2
959.238	0
959.966	2
960.695	3
961.423	1
962.151	0
962.88	2
963.608	0
964.336	2
965.064	1
965.792	1
966.52	2
967.247	1
967.975	1
968.703	0
969.43	-1
970.158	2
970.885	2
971.613	2
972.34	3
973.067	1
973.794	1
974.521	1
975.248	1
975.975	1
976.702	-1
977.429	0
978.156	-1
978.882	1
979.609	3
980.335	1
981.062	0
981.788	3
982.514	-1
983.24	0
983.967	2
984.693	1
985.419	2
986.144	2
986.87	1
987.596	-3
988.322	2
989.047	-1
989.773	1
990.498	2
991.224	1
991.949	0
992.674	1
993.399	0
994.124	1
994.849	-1
995.574	-1
996.299	2
997.024	-1
997.749	0
998.473	0
999.198	2
999.922	0
1000.647	1
1001.371	1
1002.095	-2
1002.82	0
1003.544	-2
1004.268	3
1004.992	1
1005.716	3
1006.439	3
1007.163	4
1007.887	2
1008.611	1
1009.334	-1
1010.058	2
1010.781	-1
1011.504	1
1012.228	1
1012.951	2
1013.674	-1
1014.397	1
1015.12	1
