节点500_425_QEPB04081__151__15-50-49-273.txt的数据

Date: Wed Nov 12 15:50:49 CST 2025
User: PC
Spectrometer: QEPB0408
触发模式: 0
积分时间 (秒): 1.000000E-2
Scans to average: 1
启用暗噪声校正: true
启用非线性校正: false
滑动平均宽度: 0
X轴模式: Wavelengths
Number of Pixels in Spectrum: 1044
>>>>>Begin Spectral Data<<<<<
220.843	-0.25
221.644	1.75
222.444	1.75
223.244	4.75
224.045	2.75
224.845	1.75
225.645	-0.25
226.445	1.75
227.245	2.75
228.045	0.75
228.845	2.75
229.645	5.75
230.444	4.75
231.244	4.75
232.043	5.75
232.843	4.75
233.642	3.75
234.442	3.75
235.241	4.75
236.04	5.75
236.839	5.75
237.638	7.75
238.437	5.75
239.236	5.75
240.035	4.75
240.833	4.75
241.632	5.75
242.43	6.75
243.229	6.75
244.027	6.75
244.826	6.75
245.624	8.75
246.422	6.75
247.22	10.75
248.018	12.75
248.816	9.75
249.614	10.75
250.412	10.75
251.21	10.75
252.007	9.75
252.805	10.75
253.602	10.75
254.4	9.75
255.197	12.75
255.994	11.75
256.791	10.75
257.589	14.75
258.386	9.75
259.183	11.75
259.979	13.75
260.776	16.75
261.573	13.75
262.37	15.75
263.166	16.75
263.963	17.75
264.759	15.75
265.556	20.75
266.352	16.75
267.148	19.75
267.944	19.75
268.74	19.75
269.536	19.75
270.332	20.75
271.128	19.75
271.924	22.75
272.719	23.75
273.515	23.75
274.311	22.75
275.106	21.75
275.901	22.75
276.697	21.75
277.492	22.75
278.287	24.75
279.082	23.75
279.877	25.75
280.672	25.75
281.467	23.75
282.262	24.75
283.056	24.75
283.851	25.75
284.646	27.75
285.44	25.75
286.234	25.75
287.029	28.75
287.823	24.75
288.617	23.75
289.411	23.75
290.205	24.75
290.999	23.75
291.793	23.75
292.587	21.75
293.381	23.75
294.174	22.75
294.968	19.75
295.761	21.75
296.555	18.75
297.348	18.75
298.141	18.75
298.935	19.75
299.728	22.75
300.521	17.75
301.314	18.75
302.107	16.75
302.899	12.75
303.692	18.75
304.485	16.75
305.277	15.75
306.07	14.75
306.862	17.75
307.655	15.75
308.447	13.75
309.239	17.75
310.031	13.75
310.823	14.75
311.615	12.75
312.407	12.75
313.199	11.75
313.991	12.75
314.783	13.75
315.574	13.75
316.366	10.75
317.157	13.75
317.949	9.75
318.74	10.75
319.531	10.75
320.322	9.75
321.113	8.75
321.904	9.75
322.695	8.75
323.486	9.75
324.277	10.75
325.068	8.75
325.858	8.75
326.649	7.75
327.439	8.75
328.23	7.75
329.02	5.75
329.81	9.75
330.6	8.75
331.391	8.75
332.181	8.75
332.971	7.75
333.76	9.75
334.55	8.75
335.34	10.75
336.13	8.75
336.919	7.75
337.709	9.75
338.498	8.75
339.287	8.75
340.077	7.75
340.866	7.75
341.655	8.75
342.444	6.75
343.233	9.75
344.022	7.75
344.811	7.75
345.6	6.75
346.388	7.75
347.177	7.75
347.965	7.75
348.754	6.75
349.542	7.75
350.33	6.75
351.119	9.75
351.907	7.75
352.695	6.75
353.483	5.75
354.271	5.75
355.059	7.75
355.846	6.75
356.634	6.75
357.422	6.75
358.209	7.75
358.997	7.75
359.784	9.75
360.571	5.75
361.359	6.75
362.146	5.75
362.933	8.75
363.72	6.75
364.507	8.75
365.294	5.75
366.081	6.75
366.867	5.75
367.654	8.75
368.44	3.75
369.227	6.75
370.013	4.75
370.8	7.75
371.586	7.75
372.372	4.75
373.158	6.75
373.944	7.75
374.73	4.75
375.516	6.75
376.302	3.75
377.088	5.75
377.873	8.75
378.659	4.75
379.445	5.75
380.23	6.75
381.015	7.75
381.801	5.75
382.586	8.75
383.371	8.75
384.156	6.75
384.941	7.75
385.726	6.75
386.511	8.75
387.296	6.75
388.08	6.75
388.865	6.75
389.649	4.75
390.434	6.75
391.218	6.75
392.003	6.75
392.787	10.75
393.571	8.75
394.355	8.75
395.139	6.75
395.923	7.75
396.707	9.75
397.491	7.75
398.274	9.75
399.058	8.75
399.842	8.75
400.625	9.75
401.408	8.75
402.192	11.75
402.975	9.75
403.758	9.75
404.541	9.75
405.324	9.75
406.107	11.75
406.89	9.75
407.673	10.75
408.456	8.75
409.238	13.75
410.021	10.75
410.803	11.75
411.586	9.75
412.368	13.75
413.151	11.75
413.933	10.75
414.715	11.75
415.497	12.75
416.279	12.75
417.061	10.75
417.843	13.75
418.624	13.75
419.406	15.75
420.188	13.75
420.969	15.75
421.751	16.75
422.532	13.75
423.313	12.75
424.095	13.75
424.876	16.75
425.657	17.75
426.438	15.75
427.219	18.75
428	18.75
428.78	16.75
429.561	19.75
430.342	20.75
431.122	18.75
431.903	19.75
432.683	20.75
433.464	23.75
434.244	22.75
435.024	24.75
435.804	27.75
436.584	25.75
437.364	24.75
438.144	29.75
438.924	30.75
439.704	32.75
440.483	32.75
441.263	37.75
442.042	36.75
442.822	36.75
443.601	41.75
444.38	44.75
445.16	51.75
445.939	50.75
446.718	55.75
447.497	57.75
448.276	66.75
449.054	67.75
449.833	75.75
450.612	79.75
451.391	91.75
452.169	96.75
452.948	101.75
453.726	114.75
454.504	127.75
455.282	141.75
456.061	164.75
456.839	178.75
457.617	201.75
458.395	221.75
459.172	250.75
459.95	272.75
460.728	307.75
461.506	343.75
462.283	381.75
463.061	429.75
463.838	477.75
464.615	536.75
465.393	595.75
466.17	665.75
466.947	743.75
467.724	833.75
468.501	909.75
469.278	1031.75
470.055	1144.75
470.831	1280.75
471.608	1418.75
472.385	1569.75
473.161	1750.75
473.938	1943.75
474.714	2164.75
475.49	2356.75
476.266	2604.75
477.043	2903.75
477.819	3192.75
478.595	3530.75
479.371	3921.75
480.146	4284.75
480.922	4720.75
481.698	5192.75
482.473	5713.75
483.249	6294.75
484.024	6893.75
484.8	7555.75
485.575	8313.75
486.35	9033.75
487.126	9902.75
487.901	10842.75
488.676	11836.75
489.451	12901.75
490.225	14049.75
491	15259.75
491.775	16617.75
492.55	17889.75
493.324	19340.75
494.099	20718.75
494.873	22126.75
495.647	23690.75
496.422	25145.75
497.196	26703.75
497.97	28245.75
498.744	29691.75
499.518	31024.75
500.292	32299.75
501.066	33452.75
501.839	34504.75
502.613	35320.75
503.387	36021.75
504.16	36378.75
504.934	36679.75
505.707	36536.75
506.48	36282.75
507.253	35921.75
508.027	35400.75
508.8	34718.75
509.573	33840.75
510.346	32851.75
511.118	31836.75
511.891	30727.75
512.664	29456.75
513.437	28243.75
514.209	27050.75
514.982	26089.75
515.754	24894.75
516.526	23842.75
517.298	22760.75
518.071	21856.75
518.843	20935.75
519.615	20076.75
520.387	19263.75
521.159	18565.75
521.93	17845.75
522.702	17134.75
523.474	16454.75
524.245	15772.75
525.017	15040.75
525.788	14340.75
526.56	13689.75
527.331	13022.75
528.102	12416.75
528.873	11798.75
529.644	11205.75
530.415	10699.75
531.186	10179.75
531.957	9650.75
532.728	9115.75
533.498	8580.75
534.269	8100.75
535.039	7652.75
535.81	7259.75
536.58	6828.75
537.351	6439.75
538.121	6113.75
538.891	5764.75
539.661	5486.75
540.431	5186.75
541.201	4890.75
541.971	4662.75
542.741	4410.75
543.51	4212.75
544.28	4004.75
545.05	3785.75
545.819	3615.75
546.588	3425.75
547.358	3221.75
548.127	3074.75
548.896	2913.75
549.665	2766.75
550.434	2619.75
551.203	2468.75
551.972	2345.75
552.741	2239.75
553.51	2123.75
554.278	1977.75
555.047	1872.75
555.815	1776.75
556.584	1668.75
557.352	1587.75
558.121	1468.75
558.889	1392.75
559.657	1317.75
560.425	1241.75
561.193	1164.75
561.961	1111.75
562.729	1059.75
563.496	1002.75
564.264	946.75
565.032	891.75
565.799	843.75
566.567	801.75
567.334	753.75
568.101	711.75
568.869	671.75
569.636	633.75
570.403	601.75
571.17	557.75
571.937	534.75
572.704	496.75
573.471	472.75
574.237	450.75
575.004	422.75
575.771	400.75
576.537	374.75
577.303	348.75
578.07	325.75
578.836	312.75
579.602	286.75
580.368	282.75
581.134	263.75
581.9	253.75
582.666	243.75
583.432	222.75
584.198	219.75
584.964	210.75
585.729	187.75
586.495	183.75
587.26	171.75
588.025	164.75
588.791	156.75
589.556	150.75
590.321	140.75
591.086	135.75
591.851	122.75
592.616	122.75
593.381	118.75
594.146	107.75
594.911	100.75
595.675	96.75
596.44	98.75
597.204	94.75
597.969	84.75
598.733	83.75
599.497	82.75
600.261	77.75
601.025	75.75
601.79	69.75
602.553	68.75
603.317	64.75
604.081	62.75
604.845	59.75
605.609	55.75
606.372	55.75
607.136	49.75
607.899	53.75
608.662	48.75
609.426	44.75
610.189	43.75
610.952	41.75
611.715	42.75
612.478	38.75
613.241	36.75
614.004	38.75
614.767	32.75
615.529	35.75
616.292	31.75
617.055	31.75
617.817	30.75
618.579	30.75
619.342	29.75
620.104	27.75
620.866	27.75
621.628	23.75
622.39	25.75
623.152	23.75
623.914	24.75
624.676	21.75
625.438	21.75
626.199	23.75
626.961	20.75
627.722	21.75
628.484	19.75
629.245	20.75
630.006	17.75
630.768	20.75
631.529	15.75
632.29	16.75
633.051	15.75
633.812	18.75
634.573	16.75
635.333	16.75
636.094	15.75
636.855	15.75
637.615	13.75
638.376	13.75
639.136	13.75
639.896	11.75
640.657	14.75
641.417	10.75
642.177	13.75
642.937	14.75
643.697	11.75
644.457	11.75
645.216	8.75
645.976	7.75
646.736	10.75
647.495	9.75
648.255	9.75
649.014	11.75
649.774	10.75
650.533	10.75
651.292	8.75
652.051	8.75
652.81	8.75
653.569	7.75
654.328	8.75
655.087	8.75
655.846	9.75
656.604	7.75
657.363	6.75
658.121	7.75
658.88	6.75
659.638	7.75
660.397	6.75
661.155	5.75
661.913	7.75
662.671	7.75
663.429	6.75
664.187	8.75
664.945	6.75
665.703	7.75
666.46	3.75
667.218	5.75
667.976	5.75
668.733	6.75
669.49	6.75
670.248	5.75
671.005	4.75
671.762	5.75
672.519	5.75
673.276	4.75
674.033	3.75
674.79	3.75
675.547	5.75
676.304	3.75
677.06	3.75
677.817	3.75
678.574	4.75
679.33	5.75
680.086	5.75
680.843	5.75
681.599	3.75
682.355	10.75
683.111	5.75
683.867	3.75
684.623	3.75
685.379	4.75
686.135	2.75
686.89	4.75
687.646	5.75
688.402	5.75
689.157	3.75
689.912	6.75
690.668	2.75
691.423	4.75
692.178	4.75
692.933	4.75
693.688	4.75
694.443	3.75
695.198	3.75
695.953	2.75
696.708	4.75
697.462	3.75
698.217	3.75
698.972	3.75
699.726	4.75
700.48	7.75
701.235	2.75
701.989	4.75
702.743	4.75
703.497	4.75
704.251	4.75
705.005	3.75
705.759	4.75
706.513	2.75
707.266	3.75
708.02	4.75
708.774	4.75
709.527	5.75
710.28	3.75
711.034	5.75
711.787	6.75
712.54	5.75
713.293	5.75
714.046	4.75
714.799	5.75
715.552	6.75
716.305	3.75
717.058	6.75
717.81	3.75
718.563	2.75
719.315	1.75
720.068	4.75
720.82	4.75
721.573	5.75
722.325	5.75
723.077	5.75
723.829	3.75
724.581	3.75
725.333	3.75
726.085	5.75
726.836	4.75
727.588	3.75
728.34	4.75
729.091	7.75
729.843	6.75
730.594	6.75
731.346	3.75
732.097	4.75
732.848	6.75
733.599	6.75
734.35	3.75
735.101	3.75
735.852	5.75
736.603	4.75
737.354	4.75
738.104	6.75
738.855	6.75
739.605	5.75
740.356	5.75
741.106	5.75
741.856	7.75
742.607	7.75
743.357	8.75
744.107	6.75
744.857	4.75
745.607	8.75
746.357	3.75
747.106	6.75
747.856	5.75
748.606	6.75
749.355	5.75
750.105	5.75
750.854	6.75
751.603	5.75
752.353	7.75
753.102	8.75
753.851	5.75
754.6	7.75
755.349	10.75
756.098	6.75
756.847	9.75
757.595	7.75
758.344	8.75
759.093	7.75
759.841	9.75
760.589	9.75
761.338	8.75
762.086	11.75
762.834	7.75
763.582	9.75
764.331	9.75
765.079	9.75
765.826	8.75
766.574	7.75
767.322	11.75
768.07	8.75
768.817	12.75
769.565	9.75
770.312	11.75
771.06	9.75
771.807	13.75
772.554	13.75
773.302	9.75
774.049	10.75
774.796	9.75
775.543	9.75
776.29	8.75
777.036	8.75
777.783	10.75
778.53	10.75
779.276	9.75
780.023	10.75
780.769	10.75
781.516	11.75
782.262	7.75
783.008	12.75
783.754	10.75
784.5	12.75
785.246	9.75
785.992	10.75
786.738	11.75
787.484	12.75
788.23	10.75
788.975	10.75
789.721	8.75
790.466	10.75
791.212	8.75
791.957	12.75
792.702	10.75
793.447	9.75
794.193	10.75
794.938	10.75
795.683	10.75
796.427	8.75
797.172	9.75
797.917	13.75
798.662	8.75
799.406	9.75
800.151	8.75
800.895	9.75
801.64	8.75
802.384	10.75
803.128	6.75
803.872	8.75
804.616	7.75
805.36	7.75
806.104	7.75
806.848	5.75
807.592	7.75
808.336	5.75
809.079	6.75
809.823	5.75
810.566	4.75
811.31	5.75
812.053	6.75
812.796	5.75
813.539	6.75
814.283	6.75
815.026	7.75
815.769	4.75
816.511	4.75
817.254	5.75
817.997	6.75
818.74	3.75
819.482	5.75
820.225	4.75
820.967	5.75
821.71	3.75
822.452	5.75
823.194	3.75
823.936	5.75
824.678	3.75
825.42	2.75
826.162	3.75
826.904	4.75
827.646	3.75
828.388	5.75
829.129	2.75
829.871	5.75
830.612	4.75
831.354	4.75
832.095	2.75
832.836	4.75
833.577	3.75
834.319	4.75
835.06	3.75
835.801	4.75
836.542	5.75
837.282	4.75
838.023	3.75
838.764	3.75
839.504	3.75
840.245	2.75
840.985	4.75
841.726	4.75
842.466	2.75
843.206	2.75
843.946	3.75
844.687	4.75
845.427	3.75
846.166	2.75
846.906	3.75
847.646	3.75
848.386	2.75
849.125	3.75
849.865	2.75
850.605	4.75
851.344	3.75
852.083	3.75
852.823	4.75
853.562	1.75
854.301	4.75
855.04	0.75
855.779	1.75
856.518	2.75
857.257	1.75
857.995	2.75
858.734	3.75
859.473	2.75
860.211	3.75
860.95	3.75
861.688	0.75
862.426	0.75
863.165	2.75
863.903	-0.25
864.641	3.75
865.379	1.75
866.117	1.75
866.855	1.75
867.593	1.75
868.33	1.75
869.068	1.75
869.806	0.75
870.543	-0.25
871.28	0.75
872.018	2.75
872.755	1.75
873.492	1.75
874.229	0.75
874.967	0.75
875.703	-0.25
876.44	2.75
877.177	1.75
877.914	-1.25
878.651	1.75
879.387	1.75
880.124	-0.25
880.86	1.75
881.597	1.75
882.333	0.75
883.069	2.75
883.806	2.75
884.542	0.75
885.278	-0.25
886.014	1.75
886.749	-0.25
887.485	3.75
888.221	1.75
888.957	2.75
889.692	2.75
890.428	-2.25
891.163	1.75
891.899	0.75
892.634	1.75
893.369	1.75
894.104	0.75
894.839	0.75
895.574	-0.25
896.309	0.75
897.044	-0.25
897.779	-0.25
898.514	1.75
899.248	-2.25
899.983	1.75
900.717	-0.25
901.452	-0.25
902.186	3.75
902.92	-0.25
903.654	1.75
904.389	-0.25
905.123	-1.25
905.857	1.75
906.59	-0.25
907.324	-0.25
908.058	-0.25
908.792	1.75
909.525	-0.25
910.259	-0.25
910.992	-0.25
911.726	-0.25
912.459	0.75
913.192	-2.25
913.925	2.75
914.658	-2.25
915.391	-0.25
916.124	0.75
916.857	0.75
917.59	-3.25
918.323	-0.25
919.055	0.75
919.788	-1.25
920.521	-1.25
921.253	0.75
921.985	-1.25
922.718	0.75
923.45	-0.25
924.182	0.75
924.914	1.75
925.646	0.75
926.378	0.75
927.11	-2.25
927.841	1.75
928.573	-0.25
929.305	0.75
930.036	-0.25
930.768	-0.25
931.499	1.75
932.23	-0.25
932.962	-0.25
933.693	-2.25
934.424	-3.25
935.155	-1.25
935.886	-1.25
936.617	-0.25
937.348	0.75
938.078	-0.25
938.809	-0.25
939.54	-2.25
940.27	0.75
941.001	-0.25
941.731	0.75
942.461	-0.25
943.191	-1.25
943.922	-1.25
944.652	0.75
945.382	-0.25
946.112	-1.25
946.841	-1.25
947.571	-2.25
948.301	-0.25
949.031	-0.25
949.76	-0.25
950.49	1.75
951.219	-2.25
951.948	-0.25
952.678	0.75
953.407	-0.25
954.136	1.75
954.865	-0.25
955.594	-1.25
956.323	0.75
957.052	1.75
957.78	-0.25
958.509	-0.25
959.238	-0.25
959.966	-0.25
960.695	-0.25
961.423	-0.25
962.151	-3.25
962.88	-0.25
963.608	-1.25
964.336	-2.25
965.064	-1.25
965.792	1.75
966.52	-1.25
967.247	0.75
967.975	2.75
968.703	0.75
969.43	-2.25
970.158	1.75
970.885	-1.25
971.613	-0.25
972.34	0.75
973.067	-0.25
973.794	0.75
974.521	0.75
975.248	-0.25
975.975	-1.25
976.702	-1.25
977.429	-2.25
978.156	-0.25
978.882	1.75
979.609	-1.25
980.335	-0.25
981.062	0.75
981.788	-0.25
982.514	0.75
983.24	-1.25
983.967	0.75
984.693	-2.25
985.419	-2.25
986.144	1.75
986.87	-0.25
987.596	-1.25
988.322	-2.25
989.047	1.75
989.773	-0.25
990.498	-0.25
991.224	-1.25
991.949	-0.25
992.674	-1.25
993.399	0.75
994.124	0.75
994.849	2.75
995.574	0.75
996.299	1.75
997.024	-2.25
997.749	-0.25
998.473	-0.25
999.198	0.75
999.922	-1.25
1000.647	-1.25
1001.371	3.75
1002.095	-2.25
1002.82	0.75
1003.544	-2.25
1004.268	0.75
1004.992	1.75
1005.716	4.75
1006.439	1.75
1007.163	5.75
1007.887	3.75
1008.611	-0.25
1009.334	-0.25
1010.058	-0.25
1010.781	-0.25
1011.504	-0.25
1012.228	-0.25
1012.951	-1.25
1013.674	-1.25
1014.397	1.75
1015.12	0.75
