节点500_425_QEPB04081__55__15-49-13-399.txt的数据

Date: Wed Nov 12 15:49:13 CST 2025
User: PC
Spectrometer: QEPB0408
触发模式: 0
积分时间 (秒): 1.000000E-2
Scans to average: 1
启用暗噪声校正: true
启用非线性校正: false
滑动平均宽度: 0
X轴模式: Wavelengths
Number of Pixels in Spectrum: 1044
>>>>>Begin Spectral Data<<<<<
220.843	3.75
221.644	1.75
222.444	1.75
223.244	1.75
224.045	3.75
224.845	1.75
225.645	1.75
226.445	2.75
227.245	4.75
228.045	4.75
228.845	4.75
229.645	1.75
230.444	3.75
231.244	2.75
232.043	5.75
232.843	4.75
233.642	4.75
234.442	5.75
235.241	5.75
236.04	2.75
236.839	2.75
237.638	4.75
238.437	4.75
239.236	5.75
240.035	6.75
240.833	4.75
241.632	5.75
242.43	5.75
243.229	7.75
244.027	6.75
244.826	9.75
245.624	6.75
246.422	6.75
247.22	9.75
248.018	8.75
248.816	10.75
249.614	9.75
250.412	7.75
251.21	10.75
252.007	7.75
252.805	10.75
253.602	9.75
254.4	11.75
255.197	9.75
255.994	11.75
256.791	12.75
257.589	10.75
258.386	12.75
259.183	13.75
259.979	14.75
260.776	13.75
261.573	16.75
262.37	17.75
263.166	13.75
263.963	18.75
264.759	15.75
265.556	17.75
266.352	18.75
267.148	18.75
267.944	18.75
268.74	19.75
269.536	19.75
270.332	24.75
271.128	18.75
271.924	23.75
272.719	20.75
273.515	21.75
274.311	21.75
275.106	22.75
275.901	24.75
276.697	23.75
277.492	21.75
278.287	23.75
279.082	23.75
279.877	24.75
280.672	24.75
281.467	25.75
282.262	22.75
283.056	21.75
283.851	21.75
284.646	22.75
285.44	22.75
286.234	24.75
287.029	25.75
287.823	25.75
288.617	21.75
289.411	24.75
290.205	22.75
290.999	21.75
291.793	20.75
292.587	24.75
293.381	21.75
294.174	21.75
294.968	19.75
295.761	17.75
296.555	15.75
297.348	20.75
298.141	15.75
298.935	18.75
299.728	17.75
300.521	17.75
301.314	17.75
302.107	16.75
302.899	16.75
303.692	15.75
304.485	15.75
305.277	11.75
306.07	15.75
306.862	12.75
307.655	13.75
308.447	14.75
309.239	16.75
310.031	12.75
310.823	13.75
311.615	10.75
312.407	8.75
313.199	13.75
313.991	9.75
314.783	9.75
315.574	10.75
316.366	9.75
317.157	9.75
317.949	9.75
318.74	7.75
319.531	7.75
320.322	7.75
321.113	10.75
321.904	8.75
322.695	7.75
323.486	10.75
324.277	6.75
325.068	10.75
325.858	6.75
326.649	5.75
327.439	8.75
328.23	7.75
329.02	6.75
329.81	6.75
330.6	9.75
331.391	7.75
332.181	5.75
332.971	7.75
333.76	6.75
334.55	6.75
335.34	7.75
336.13	7.75
336.919	7.75
337.709	6.75
338.498	7.75
339.287	5.75
340.077	8.75
340.866	8.75
341.655	8.75
342.444	7.75
343.233	5.75
344.022	7.75
344.811	5.75
345.6	6.75
346.388	7.75
347.177	7.75
347.965	7.75
348.754	4.75
349.542	8.75
350.33	6.75
351.119	6.75
351.907	3.75
352.695	5.75
353.483	8.75
354.271	5.75
355.059	5.75
355.846	6.75
356.634	7.75
357.422	6.75
358.209	3.75
358.997	6.75
359.784	4.75
360.571	4.75
361.359	7.75
362.146	5.75
362.933	7.75
363.72	7.75
364.507	6.75
365.294	7.75
366.081	4.75
366.867	7.75
367.654	5.75
368.44	6.75
369.227	5.75
370.013	5.75
370.8	6.75
371.586	6.75
372.372	5.75
373.158	6.75
373.944	4.75
374.73	4.75
375.516	7.75
376.302	4.75
377.088	7.75
377.873	3.75
378.659	6.75
379.445	4.75
380.23	6.75
381.015	6.75
381.801	5.75
382.586	3.75
383.371	6.75
384.156	6.75
384.941	6.75
385.726	7.75
386.511	4.75
387.296	8.75
388.08	5.75
388.865	7.75
389.649	7.75
390.434	8.75
391.218	7.75
392.003	8.75
392.787	5.75
393.571	5.75
394.355	7.75
395.139	8.75
395.923	8.75
396.707	7.75
397.491	6.75
398.274	7.75
399.058	6.75
399.842	10.75
400.625	9.75
401.408	8.75
402.192	7.75
402.975	7.75
403.758	7.75
404.541	9.75
405.324	9.75
406.107	11.75
406.89	9.75
407.673	13.75
408.456	9.75
409.238	9.75
410.021	9.75
410.803	9.75
411.586	9.75
412.368	12.75
413.151	11.75
413.933	10.75
414.715	10.75
415.497	11.75
416.279	9.75
417.061	12.75
417.843	9.75
418.624	15.75
419.406	11.75
420.188	11.75
420.969	13.75
421.751	13.75
422.532	15.75
423.313	12.75
424.095	15.75
424.876	18.75
425.657	16.75
426.438	17.75
427.219	17.75
428	15.75
428.78	16.75
429.561	18.75
430.342	16.75
431.122	18.75
431.903	17.75
432.683	22.75
433.464	18.75
434.244	22.75
435.024	25.75
435.804	24.75
436.584	21.75
437.364	23.75
438.144	27.75
438.924	27.75
439.704	29.75
440.483	28.75
441.263	32.75
442.042	33.75
442.822	36.75
443.601	38.75
444.38	44.75
445.16	43.75
445.939	47.75
446.718	49.75
447.497	51.75
448.276	61.75
449.054	63.75
449.833	69.75
450.612	75.75
451.391	82.75
452.169	88.75
452.948	100.75
453.726	106.75
454.504	121.75
455.282	128.75
456.061	146.75
456.839	161.75
457.617	179.75
458.395	196.75
459.172	225.75
459.95	247.75
460.728	280.75
461.506	311.75
462.283	346.75
463.061	381.75
463.838	433.75
464.615	489.75
465.393	538.75
466.17	607.75
466.947	677.75
467.724	766.75
468.501	845.75
469.278	950.75
470.055	1058.75
470.831	1181.75
471.608	1308.75
472.385	1437.75
473.161	1614.75
473.938	1802.75
474.714	1981.75
475.49	2211.75
476.266	2458.75
477.043	2700.75
477.819	3006.75
478.595	3311.75
479.371	3679.75
480.146	4060.75
480.922	4479.75
481.698	4932.75
482.473	5446.75
483.249	6019.75
484.024	6619.75
484.8	7277.75
485.575	7987.75
486.35	8773.75
487.126	9590.75
487.901	10544.75
488.676	11515.75
489.451	12630.75
490.225	13745.75
491	14932.75
491.775	16285.75
492.55	17526.75
493.324	18905.75
494.099	20351.75
494.873	21757.75
495.647	23253.75
496.422	24676.75
497.196	26115.75
497.97	27703.75
498.744	29085.75
499.518	30443.75
500.292	31652.75
501.066	32681.75
501.839	33582.75
502.613	34415.75
503.387	34853.75
504.16	35289.75
504.934	35268.75
505.707	35198.75
506.48	34811.75
507.253	34219.75
508.027	33652.75
508.8	32941.75
509.573	31945.75
510.346	30886.75
511.118	29970.75
511.891	28847.75
512.664	27576.75
513.437	26432.75
514.209	25255.75
514.982	24195.75
515.754	23155.75
516.526	22181.75
517.298	21155.75
518.071	20174.75
518.843	19442.75
519.615	18618.75
520.387	17860.75
521.159	17209.75
521.93	16557.75
522.702	15912.75
523.474	15289.75
524.245	14613.75
525.017	13924.75
525.788	13281.75
526.56	12696.75
527.331	12058.75
528.102	11441.75
528.873	10877.75
529.644	10369.75
530.415	9824.75
531.186	9345.75
531.957	8851.75
532.728	8358.75
533.498	7846.75
534.269	7430.75
535.039	7039.75
535.81	6609.75
536.58	6222.75
537.351	5891.75
538.121	5563.75
538.891	5289.75
539.661	5023.75
540.431	4726.75
541.201	4493.75
541.971	4250.75
542.741	4040.75
543.51	3827.75
544.28	3630.75
545.05	3461.75
545.819	3287.75
546.588	3125.75
547.358	2965.75
548.127	2816.75
548.896	2673.75
549.665	2510.75
550.434	2409.75
551.203	2249.75
551.972	2150.75
552.741	2029.75
553.51	1921.75
554.278	1796.75
555.047	1685.75
555.815	1595.75
556.584	1524.75
557.352	1427.75
558.121	1361.75
558.889	1259.75
559.657	1218.75
560.425	1130.75
561.193	1067.75
561.961	1014.75
562.729	952.75
563.496	905.75
564.264	853.75
565.032	815.75
565.799	754.75
566.567	732.75
567.334	675.75
568.101	645.75
568.869	614.75
569.636	578.75
570.403	543.75
571.17	520.75
571.937	491.75
572.704	455.75
573.471	436.75
574.237	397.75
575.004	386.75
575.771	365.75
576.537	341.75
577.303	317.75
578.07	309.75
578.836	284.75
579.602	272.75
580.368	260.75
581.134	243.75
581.9	228.75
582.666	219.75
583.432	203.75
584.198	194.75
584.964	180.75
585.729	179.75
586.495	160.75
587.26	157.75
588.025	154.75
588.791	141.75
589.556	136.75
590.321	125.75
591.086	124.75
591.851	114.75
592.616	115.75
593.381	105.75
594.146	99.75
594.911	96.75
595.675	90.75
596.44	86.75
597.204	81.75
597.969	77.75
598.733	79.75
599.497	72.75
600.261	67.75
601.025	65.75
601.79	65.75
602.553	61.75
603.317	55.75
604.081	54.75
604.845	48.75
605.609	51.75
606.372	50.75
607.136	44.75
607.899	43.75
608.662	41.75
609.426	38.75
610.189	40.75
610.952	37.75
611.715	37.75
612.478	34.75
613.241	33.75
614.004	33.75
614.767	29.75
615.529	29.75
616.292	26.75
617.055	28.75
617.817	27.75
618.579	24.75
619.342	25.75
620.104	27.75
620.866	24.75
621.628	25.75
622.39	22.75
623.152	23.75
623.914	22.75
624.676	22.75
625.438	22.75
626.199	19.75
626.961	17.75
627.722	17.75
628.484	18.75
629.245	15.75
630.006	14.75
630.768	15.75
631.529	16.75
632.29	16.75
633.051	17.75
633.812	14.75
634.573	12.75
635.333	11.75
636.094	10.75
636.855	13.75
637.615	14.75
638.376	11.75
639.136	11.75
639.896	11.75
640.657	10.75
641.417	9.75
642.177	13.75
642.937	11.75
643.697	8.75
644.457	9.75
645.216	9.75
645.976	12.75
646.736	13.75
647.495	9.75
648.255	9.75
649.014	6.75
649.774	8.75
650.533	8.75
651.292	9.75
652.051	5.75
652.81	7.75
653.569	6.75
654.328	9.75
655.087	10.75
655.846	9.75
656.604	8.75
657.363	8.75
658.121	6.75
658.88	7.75
659.638	7.75
660.397	6.75
661.155	6.75
661.913	7.75
662.671	8.75
663.429	6.75
664.187	5.75
664.945	9.75
665.703	5.75
666.46	5.75
667.218	7.75
667.976	6.75
668.733	5.75
669.49	3.75
670.248	5.75
671.005	6.75
671.762	4.75
672.519	5.75
673.276	4.75
674.033	2.75
674.79	6.75
675.547	3.75
676.304	4.75
677.06	5.75
677.817	5.75
678.574	4.75
679.33	5.75
680.086	4.75
680.843	3.75
681.599	5.75
682.355	2.75
683.111	3.75
683.867	3.75
684.623	8.75
685.379	5.75
686.135	6.75
686.89	4.75
687.646	1.75
688.402	2.75
689.157	6.75
689.912	4.75
690.668	5.75
691.423	4.75
692.178	2.75
692.933	5.75
693.688	6.75
694.443	5.75
695.198	3.75
695.953	3.75
696.708	4.75
697.462	3.75
698.217	2.75
698.972	1.75
699.726	5.75
700.48	3.75
701.235	3.75
701.989	3.75
702.743	3.75
703.497	4.75
704.251	1.75
705.005	4.75
705.759	5.75
706.513	1.75
707.266	4.75
708.02	2.75
708.774	5.75
709.527	2.75
710.28	6.75
711.034	4.75
711.787	4.75
712.54	1.75
713.293	3.75
714.046	6.75
714.799	3.75
715.552	4.75
716.305	5.75
717.058	3.75
717.81	4.75
718.563	3.75
719.315	4.75
720.068	3.75
720.82	4.75
721.573	3.75
722.325	6.75
723.077	4.75
723.829	4.75
724.581	3.75
725.333	4.75
726.085	4.75
726.836	3.75
727.588	4.75
728.34	2.75
729.091	3.75
729.843	4.75
730.594	5.75
731.346	3.75
732.097	3.75
732.848	3.75
733.599	6.75
734.35	4.75
735.101	6.75
735.852	7.75
736.603	4.75
737.354	6.75
738.104	5.75
738.855	6.75
739.605	7.75
740.356	5.75
741.106	5.75
741.856	7.75
742.607	6.75
743.357	7.75
744.107	6.75
744.857	8.75
745.607	5.75
746.357	7.75
747.106	6.75
747.856	6.75
748.606	8.75
749.355	5.75
750.105	5.75
750.854	5.75
751.603	2.75
752.353	9.75
753.102	8.75
753.851	7.75
754.6	7.75
755.349	8.75
756.098	6.75
756.847	5.75
757.595	7.75
758.344	6.75
759.093	9.75
759.841	6.75
760.589	8.75
761.338	9.75
762.086	8.75
762.834	9.75
763.582	7.75
764.331	9.75
765.079	7.75
765.826	7.75
766.574	9.75
767.322	8.75
768.07	9.75
768.817	7.75
769.565	8.75
770.312	7.75
771.06	8.75
771.807	9.75
772.554	8.75
773.302	9.75
774.049	11.75
774.796	10.75
775.543	9.75
776.29	10.75
777.036	9.75
777.783	13.75
778.53	8.75
779.276	10.75
780.023	11.75
780.769	13.75
781.516	10.75
782.262	13.75
783.008	7.75
783.754	8.75
784.5	11.75
785.246	8.75
785.992	11.75
786.738	10.75
787.484	11.75
788.23	9.75
788.975	9.75
789.721	9.75
790.466	8.75
791.212	9.75
791.957	11.75
792.702	7.75
793.447	11.75
794.193	9.75
794.938	8.75
795.683	9.75
796.427	12.75
797.172	10.75
797.917	10.75
798.662	8.75
799.406	7.75
800.151	8.75
800.895	10.75
801.64	6.75
802.384	7.75
803.128	5.75
803.872	8.75
804.616	6.75
805.36	7.75
806.104	7.75
806.848	7.75
807.592	9.75
808.336	6.75
809.079	7.75
809.823	6.75
810.566	7.75
811.31	6.75
812.053	5.75
812.796	5.75
813.539	7.75
814.283	5.75
815.026	6.75
815.769	4.75
816.511	5.75
817.254	5.75
817.997	5.75
818.74	5.75
819.482	4.75
820.225	4.75
820.967	2.75
821.71	6.75
822.452	2.75
823.194	4.75
823.936	5.75
824.678	4.75
825.42	4.75
826.162	3.75
826.904	5.75
827.646	3.75
828.388	6.75
829.129	4.75
829.871	3.75
830.612	2.75
831.354	3.75
832.095	4.75
832.836	3.75
833.577	4.75
834.319	1.75
835.06	1.75
835.801	5.75
836.542	3.75
837.282	2.75
838.023	3.75
838.764	4.75
839.504	4.75
840.245	0.75
840.985	3.75
841.726	0.75
842.466	2.75
843.206	2.75
843.946	2.75
844.687	2.75
845.427	3.75
846.166	2.75
846.906	1.75
847.646	3.75
848.386	3.75
849.125	0.75
849.865	4.75
850.605	5.75
851.344	3.75
852.083	2.75
852.823	1.75
853.562	3.75
854.301	2.75
855.04	1.75
855.779	2.75
856.518	3.75
857.257	1.75
857.995	1.75
858.734	3.75
859.473	3.75
860.211	-0.25
860.95	0.75
861.688	0.75
862.426	2.75
863.165	1.75
863.903	1.75
864.641	1.75
865.379	2.75
866.117	1.75
866.855	-0.25
867.593	3.75
868.33	2.75
869.068	1.75
869.806	2.75
870.543	-0.25
871.28	1.75
872.018	-1.25
872.755	1.75
873.492	2.75
874.229	-0.25
874.967	3.75
875.703	0.75
876.44	-0.25
877.177	0.75
877.914	-0.25
878.651	1.75
879.387	1.75
880.124	0.75
880.86	-0.25
881.597	0.75
882.333	1.75
883.069	0.75
883.806	1.75
884.542	0.75
885.278	0.75
886.014	0.75
886.749	0.75
887.485	-0.25
888.221	-1.25
888.957	-0.25
889.692	1.75
890.428	1.75
891.163	-0.25
891.899	-0.25
892.634	1.75
893.369	0.75
894.104	-0.25
894.839	0.75
895.574	-0.25
896.309	-2.25
897.044	-0.25
897.779	-1.25
898.514	0.75
899.248	-2.25
899.983	0.75
900.717	0.75
901.452	-0.25
902.186	-0.25
902.92	-0.25
903.654	-0.25
904.389	0.75
905.123	-0.25
905.857	-1.25
906.59	2.75
907.324	1.75
908.058	-1.25
908.792	-1.25
909.525	0.75
910.259	0.75
910.992	-0.25
911.726	3.75
912.459	-0.25
913.192	0.75
913.925	-1.25
914.658	0.75
915.391	2.75
916.124	-0.25
916.857	-0.25
917.59	-0.25
918.323	0.75
919.055	0.75
919.788	-2.25
920.521	1.75
921.253	0.75
921.985	-0.25
922.718	0.75
923.45	-3.25
924.182	-0.25
924.914	-0.25
925.646	0.75
926.378	0.75
927.11	-0.25
927.841	-2.25
928.573	0.75
929.305	-0.25
930.036	-0.25
930.768	-1.25
931.499	-1.25
932.23	-0.25
932.962	0.75
933.693	-0.25
934.424	0.75
935.155	-1.25
935.886	-0.25
936.617	-1.25
937.348	0.75
938.078	-1.25
938.809	0.75
939.54	-0.25
940.27	-2.25
941.001	0.75
941.731	1.75
942.461	-0.25
943.191	0.75
943.922	-0.25
944.652	0.75
945.382	-0.25
946.112	-0.25
946.841	-0.25
947.571	-0.25
948.301	-0.25
949.031	-1.25
949.76	-2.25
950.49	0.75
951.219	-1.25
951.948	-2.25
952.678	0.75
953.407	-0.25
954.136	-1.25
954.865	-0.25
955.594	0.75
956.323	0.75
957.052	0.75
957.78	-0.25
958.509	-1.25
959.238	1.75
959.966	-0.25
960.695	-0.25
961.423	1.75
962.151	1.75
962.88	-2.25
963.608	0.75
964.336	-0.25
965.064	-1.25
965.792	-0.25
966.52	-1.25
967.247	-2.25
967.975	-1.25
968.703	-0.25
969.43	0.75
970.158	-0.25
970.885	0.75
971.613	1.75
972.34	0.75
973.067	-1.25
973.794	-0.25
974.521	0.75
975.248	-1.25
975.975	-0.25
976.702	-0.25
977.429	0.75
978.156	0.75
978.882	-0.25
979.609	-0.25
980.335	-1.25
981.062	-0.25
981.788	-0.25
982.514	-1.25
983.24	1.75
983.967	-1.25
984.693	-0.25
985.419	-0.25
986.144	0.75
986.87	0.75
987.596	-2.25
988.322	-0.25
989.047	-0.25
989.773	0.75
990.498	-1.25
991.224	1.75
991.949	1.75
992.674	-1.25
993.399	0.75
994.124	-0.25
994.849	0.75
995.574	-1.25
996.299	3.75
997.024	0.75
997.749	-2.25
998.473	1.75
999.198	0.75
999.922	1.75
1000.647	0.75
1001.371	5.75
1002.095	-2.25
1002.82	-1.25
1003.544	-1.25
1004.268	0.75
1004.992	0.75
1005.716	1.75
1006.439	1.75
1007.163	1.75
1007.887	0.75
1008.611	-0.25
1009.334	1.75
1010.058	-0.25
1010.781	1.75
1011.504	-0.25
1012.228	-0.25
1012.951	-0.25
1013.674	-1.25
1014.397	0.75
1015.12	-0.25
