节点500_425_QEPB04081__565__15-57-42-432.txt的数据

Date: Wed Nov 12 15:57:42 CST 2025
User: PC
Spectrometer: QEPB0408
触发模式: 0
积分时间 (秒): 1.000000E-2
Scans to average: 1
启用暗噪声校正: true
启用非线性校正: false
滑动平均宽度: 0
X轴模式: Wavelengths
Number of Pixels in Spectrum: 1044
>>>>>Begin Spectral Data<<<<<
220.843	2.62
221.644	2.62
222.444	3.62
223.244	3.62
224.045	4.62
224.845	3.62
225.645	3.62
226.445	4.62
227.245	4.62
228.045	2.62
228.845	5.62
229.645	5.62
230.444	4.62
231.244	4.62
232.043	7.62
232.843	4.62
233.642	4.62
234.442	5.62
235.241	8.62
236.04	7.62
236.839	5.62
237.638	5.62
238.437	8.62
239.236	6.62
240.035	6.62
240.833	9.62
241.632	7.62
242.43	5.62
243.229	6.62
244.027	7.62
244.826	7.62
245.624	8.62
246.422	10.62
247.22	7.62
248.018	8.62
248.816	7.62
249.614	8.62
250.412	7.62
251.21	7.62
252.007	7.62
252.805	10.62
253.602	8.62
254.4	9.62
255.197	10.62
255.994	12.62
256.791	11.62
257.589	12.62
258.386	11.62
259.183	10.62
259.979	12.62
260.776	15.62
261.573	13.62
262.37	14.62
263.166	14.62
263.963	14.62
264.759	15.62
265.556	14.62
266.352	16.62
267.148	16.62
267.944	16.62
268.74	17.62
269.536	19.62
270.332	19.62
271.128	19.62
271.924	18.62
272.719	17.62
273.515	21.62
274.311	20.62
275.106	20.62
275.901	20.62
276.697	23.62
277.492	18.62
278.287	22.62
279.082	19.62
279.877	24.62
280.672	23.62
281.467	22.62
282.262	24.62
283.056	22.62
283.851	24.62
284.646	24.62
285.44	21.62
286.234	23.62
287.029	22.62
287.823	26.62
288.617	21.62
289.411	19.62
290.205	22.62
290.999	22.62
291.793	23.62
292.587	20.62
293.381	21.62
294.174	20.62
294.968	20.62
295.761	18.62
296.555	20.62
297.348	21.62
298.141	19.62
298.935	20.62
299.728	18.62
300.521	17.62
301.314	20.62
302.107	17.62
302.899	17.62
303.692	16.62
304.485	14.62
305.277	18.62
306.07	16.62
306.862	17.62
307.655	16.62
308.447	17.62
309.239	19.62
310.031	14.62
310.823	15.62
311.615	14.62
312.407	14.62
313.199	10.62
313.991	14.62
314.783	14.62
315.574	10.62
316.366	11.62
317.157	10.62
317.949	14.62
318.74	10.62
319.531	10.62
320.322	8.62
321.113	10.62
321.904	10.62
322.695	12.62
323.486	12.62
324.277	10.62
325.068	9.62
325.858	10.62
326.649	8.62
327.439	8.62
328.23	6.62
329.02	9.62
329.81	8.62
330.6	9.62
331.391	11.62
332.181	6.62
332.971	9.62
333.76	8.62
334.55	9.62
335.34	8.62
336.13	7.62
336.919	6.62
337.709	10.62
338.498	8.62
339.287	9.62
340.077	5.62
340.866	9.62
341.655	9.62
342.444	9.62
343.233	9.62
344.022	6.62
344.811	9.62
345.6	11.62
346.388	10.62
347.177	5.62
347.965	8.62
348.754	8.62
349.542	6.62
350.33	7.62
351.119	5.62
351.907	7.62
352.695	9.62
353.483	5.62
354.271	9.62
355.059	7.62
355.846	7.62
356.634	7.62
357.422	9.62
358.209	7.62
358.997	5.62
359.784	8.62
360.571	6.62
361.359	4.62
362.146	8.62
362.933	6.62
363.72	6.62
364.507	7.62
365.294	6.62
366.081	5.62
366.867	5.62
367.654	6.62
368.44	7.62
369.227	7.62
370.013	5.62
370.8	7.62
371.586	7.62
372.372	5.62
373.158	6.62
373.944	7.62
374.73	8.62
375.516	8.62
376.302	9.62
377.088	7.62
377.873	5.62
378.659	7.62
379.445	5.62
380.23	6.62
381.015	7.62
381.801	4.62
382.586	8.62
383.371	7.62
384.156	5.62
384.941	6.62
385.726	9.62
386.511	8.62
387.296	6.62
388.08	8.62
388.865	6.62
389.649	9.62
390.434	7.62
391.218	7.62
392.003	6.62
392.787	8.62
393.571	9.62
394.355	8.62
395.139	8.62
395.923	7.62
396.707	8.62
397.491	10.62
398.274	8.62
399.058	9.62
399.842	8.62
400.625	9.62
401.408	8.62
402.192	7.62
402.975	11.62
403.758	8.62
404.541	8.62
405.324	10.62
406.107	8.62
406.89	9.62
407.673	8.62
408.456	10.62
409.238	13.62
410.021	10.62
410.803	12.62
411.586	12.62
412.368	12.62
413.151	10.62
413.933	12.62
414.715	13.62
415.497	11.62
416.279	13.62
417.061	11.62
417.843	13.62
418.624	14.62
419.406	15.62
420.188	13.62
420.969	13.62
421.751	15.62
422.532	14.62
423.313	15.62
424.095	14.62
424.876	14.62
425.657	17.62
426.438	15.62
427.219	16.62
428	18.62
428.78	20.62
429.561	18.62
430.342	16.62
431.122	18.62
431.903	18.62
432.683	20.62
433.464	20.62
434.244	23.62
435.024	25.62
435.804	22.62
436.584	25.62
437.364	26.62
438.144	28.62
438.924	32.62
439.704	32.62
440.483	38.62
441.263	34.62
442.042	38.62
442.822	41.62
443.601	49.62
444.38	46.62
445.16	53.62
445.939	56.62
446.718	63.62
447.497	63.62
448.276	68.62
449.054	78.62
449.833	85.62
450.612	92.62
451.391	104.62
452.169	110.62
452.948	122.62
453.726	136.62
454.504	148.62
455.282	168.62
456.061	183.62
456.839	208.62
457.617	226.62
458.395	254.62
459.172	275.62
459.95	309.62
460.728	349.62
461.506	389.62
462.283	434.62
463.061	482.62
463.838	534.62
464.615	595.62
465.393	662.62
466.17	728.62
466.947	815.62
467.724	911.62
468.501	984.62
469.278	1099.62
470.055	1218.62
470.831	1344.62
471.608	1479.62
472.385	1643.62
473.161	1805.62
473.938	1965.62
474.714	2157.62
475.49	2367.62
476.266	2618.62
477.043	2847.62
477.819	3118.62
478.595	3433.62
479.371	3727.62
480.146	4030.62
480.922	4427.62
481.698	4826.62
482.473	5223.62
483.249	5734.62
484.024	6244.62
484.8	6798.62
485.575	7320.62
486.35	7984.62
487.126	8689.62
487.901	9360.62
488.676	10188.62
489.451	10974.62
490.225	11855.62
491	12813.62
491.775	13830.62
492.55	14841.62
493.324	15931.62
494.099	17025.62
494.873	18192.62
495.647	19399.62
496.422	20626.62
497.196	21877.62
497.97	23227.62
498.744	24447.62
499.518	25736.62
500.292	26907.62
501.066	28004.62
501.839	29069.62
502.613	30089.62
503.387	30876.62
504.16	31563.62
504.934	32079.62
505.707	32360.62
506.48	32513.62
507.253	32518.62
508.027	32480.62
508.8	32214.62
509.573	31791.62
510.346	31236.62
511.118	30591.62
511.891	29883.62
512.664	28996.62
513.437	28047.62
514.209	27034.62
514.982	26150.62
515.754	25242.62
516.526	24229.62
517.298	23265.62
518.071	22282.62
518.843	21435.62
519.615	20573.62
520.387	19773.62
521.159	19026.62
521.93	18309.62
522.702	17598.62
523.474	16958.62
524.245	16238.62
525.017	15567.62
525.788	14836.62
526.56	14202.62
527.331	13618.62
528.102	12988.62
528.873	12428.62
529.644	11854.62
530.415	11335.62
531.186	10807.62
531.957	10307.62
532.728	9779.62
533.498	9261.62
534.269	8729.62
535.039	8292.62
535.81	7874.62
536.58	7419.62
537.351	7029.62
538.121	6661.62
538.891	6305.62
539.661	5990.62
540.431	5670.62
541.201	5353.62
541.971	5102.62
542.741	4830.62
543.51	4574.62
544.28	4331.62
545.05	4149.62
545.819	3940.62
546.588	3747.62
547.358	3536.62
548.127	3365.62
548.896	3211.62
549.665	3067.62
550.434	2919.62
551.203	2737.62
551.972	2615.62
552.741	2465.62
553.51	2330.62
554.278	2207.62
555.047	2064.62
555.815	1990.62
556.584	1874.62
557.352	1759.62
558.121	1664.62
558.889	1578.62
559.657	1506.62
560.425	1398.62
561.193	1311.62
561.961	1251.62
562.729	1182.62
563.496	1114.62
564.264	1064.62
565.032	1001.62
565.799	948.62
566.567	906.62
567.334	856.62
568.101	797.62
568.869	755.62
569.636	716.62
570.403	664.62
571.17	630.62
571.937	595.62
572.704	564.62
573.471	525.62
574.237	498.62
575.004	471.62
575.771	449.62
576.537	423.62
577.303	398.62
578.07	368.62
578.836	348.62
579.602	333.62
580.368	321.62
581.134	305.62
581.9	285.62
582.666	275.62
583.432	262.62
584.198	251.62
584.964	227.62
585.729	217.62
586.495	213.62
587.26	195.62
588.025	183.62
588.791	176.62
589.556	166.62
590.321	154.62
591.086	153.62
591.851	144.62
592.616	133.62
593.381	133.62
594.146	125.62
594.911	117.62
595.675	112.62
596.44	111.62
597.204	103.62
597.969	100.62
598.733	98.62
599.497	91.62
600.261	86.62
601.025	82.62
601.79	74.62
602.553	75.62
603.317	74.62
604.081	66.62
604.845	64.62
605.609	65.62
606.372	63.62
607.136	57.62
607.899	53.62
608.662	52.62
609.426	50.62
610.189	48.62
610.952	45.62
611.715	44.62
612.478	45.62
613.241	43.62
614.004	39.62
614.767	39.62
615.529	37.62
616.292	39.62
617.055	36.62
617.817	36.62
618.579	32.62
619.342	34.62
620.104	30.62
620.866	33.62
621.628	30.62
622.39	29.62
623.152	25.62
623.914	25.62
624.676	26.62
625.438	23.62
626.199	25.62
626.961	20.62
627.722	23.62
628.484	22.62
629.245	19.62
630.006	20.62
630.768	19.62
631.529	17.62
632.29	20.62
633.051	17.62
633.812	17.62
634.573	17.62
635.333	17.62
636.094	16.62
636.855	16.62
637.615	14.62
638.376	14.62
639.136	12.62
639.896	11.62
640.657	13.62
641.417	13.62
642.177	14.62
642.937	12.62
643.697	14.62
644.457	12.62
645.216	13.62
645.976	11.62
646.736	11.62
647.495	9.62
648.255	11.62
649.014	9.62
649.774	8.62
650.533	8.62
651.292	9.62
652.051	10.62
652.81	7.62
653.569	9.62
654.328	7.62
655.087	10.62
655.846	8.62
656.604	9.62
657.363	8.62
658.121	8.62
658.88	9.62
659.638	8.62
660.397	9.62
661.155	9.62
661.913	8.62
662.671	8.62
663.429	5.62
664.187	4.62
664.945	5.62
665.703	7.62
666.46	9.62
667.218	5.62
667.976	9.62
668.733	7.62
669.49	5.62
670.248	8.62
671.005	6.62
671.762	5.62
672.519	5.62
673.276	6.62
674.033	8.62
674.79	5.62
675.547	6.62
676.304	5.62
677.06	6.62
677.817	5.62
678.574	4.62
679.33	4.62
680.086	5.62
680.843	7.62
681.599	5.62
682.355	7.62
683.111	4.62
683.867	3.62
684.623	7.62
685.379	5.62
686.135	6.62
686.89	6.62
687.646	3.62
688.402	6.62
689.157	6.62
689.912	4.62
690.668	5.62
691.423	3.62
692.178	3.62
692.933	5.62
693.688	6.62
694.443	4.62
695.198	7.62
695.953	4.62
696.708	4.62
697.462	6.62
698.217	4.62
698.972	6.62
699.726	5.62
700.48	2.62
701.235	6.62
701.989	4.62
702.743	5.62
703.497	4.62
704.251	6.62
705.005	4.62
705.759	6.62
706.513	5.62
707.266	7.62
708.02	4.62
708.774	5.62
709.527	6.62
710.28	5.62
711.034	4.62
711.787	2.62
712.54	5.62
713.293	6.62
714.046	6.62
714.799	4.62
715.552	4.62
716.305	4.62
717.058	7.62
717.81	2.62
718.563	5.62
719.315	6.62
720.068	4.62
720.82	5.62
721.573	5.62
722.325	4.62
723.077	4.62
723.829	5.62
724.581	6.62
725.333	1.62
726.085	4.62
726.836	6.62
727.588	5.62
728.34	6.62
729.091	6.62
729.843	5.62
730.594	6.62
731.346	6.62
732.097	5.62
732.848	5.62
733.599	5.62
734.35	6.62
735.101	6.62
735.852	6.62
736.603	6.62
737.354	7.62
738.104	5.62
738.855	8.62
739.605	4.62
740.356	6.62
741.106	5.62
741.856	6.62
742.607	6.62
743.357	5.62
744.107	7.62
744.857	5.62
745.607	6.62
746.357	8.62
747.106	5.62
747.856	5.62
748.606	6.62
749.355	9.62
750.105	9.62
750.854	6.62
751.603	6.62
752.353	7.62
753.102	6.62
753.851	6.62
754.6	9.62
755.349	7.62
756.098	6.62
756.847	8.62
757.595	4.62
758.344	8.62
759.093	5.62
759.841	7.62
760.589	8.62
761.338	7.62
762.086	8.62
762.834	6.62
763.582	9.62
764.331	10.62
765.079	8.62
765.826	8.62
766.574	9.62
767.322	10.62
768.07	8.62
768.817	8.62
769.565	8.62
770.312	6.62
771.06	9.62
771.807	9.62
772.554	8.62
773.302	11.62
774.049	8.62
774.796	10.62
775.543	10.62
776.29	10.62
777.036	12.62
777.783	10.62
778.53	11.62
779.276	12.62
780.023	11.62
780.769	11.62
781.516	12.62
782.262	10.62
783.008	8.62
783.754	13.62
784.5	9.62
785.246	12.62
785.992	9.62
786.738	10.62
787.484	10.62
788.23	8.62
788.975	11.62
789.721	10.62
790.466	12.62
791.212	13.62
791.957	8.62
792.702	10.62
793.447	10.62
794.193	12.62
794.938	11.62
795.683	10.62
796.427	10.62
797.172	9.62
797.917	9.62
798.662	9.62
799.406	12.62
800.151	8.62
800.895	7.62
801.64	9.62
802.384	8.62
803.128	12.62
803.872	7.62
804.616	10.62
805.36	8.62
806.104	7.62
806.848	8.62
807.592	7.62
808.336	9.62
809.079	8.62
809.823	6.62
810.566	8.62
811.31	5.62
812.053	10.62
812.796	6.62
813.539	6.62
814.283	7.62
815.026	5.62
815.769	7.62
816.511	6.62
817.254	5.62
817.997	6.62
818.74	6.62
819.482	7.62
820.225	4.62
820.967	7.62
821.71	5.62
822.452	7.62
823.194	6.62
823.936	4.62
824.678	5.62
825.42	4.62
826.162	5.62
826.904	7.62
827.646	5.62
828.388	6.62
829.129	6.62
829.871	4.62
830.612	6.62
831.354	6.62
832.095	5.62
832.836	3.62
833.577	5.62
834.319	3.62
835.06	4.62
835.801	5.62
836.542	4.62
837.282	5.62
838.023	3.62
838.764	4.62
839.504	4.62
840.245	4.62
840.985	4.62
841.726	4.62
842.466	4.62
843.206	4.62
843.946	4.62
844.687	5.62
845.427	3.62
846.166	3.62
846.906	4.62
847.646	4.62
848.386	5.62
849.125	6.62
849.865	3.62
850.605	5.62
851.344	3.62
852.083	4.62
852.823	5.62
853.562	2.62
854.301	2.62
855.04	4.62
855.779	3.62
856.518	5.62
857.257	3.62
857.995	2.62
858.734	3.62
859.473	4.62
860.211	3.62
860.95	0.62
861.688	4.62
862.426	3.62
863.165	2.62
863.903	2.62
864.641	1.62
865.379	3.62
866.117	3.62
866.855	1.62
867.593	3.62
868.33	0.62
869.068	2.62
869.806	1.62
870.543	2.62
871.28	1.62
872.018	3.62
872.755	2.62
873.492	1.62
874.229	1.62
874.967	2.62
875.703	0.62
876.44	0.62
877.177	1.62
877.914	2.62
878.651	0.62
879.387	2.62
880.124	1.62
880.86	1.62
881.597	0.62
882.333	2.62
883.069	0.62
883.806	2.62
884.542	0.62
885.278	-0.38
886.014	0.62
886.749	1.62
887.485	0.62
888.221	1.62
888.957	4.62
889.692	2.62
890.428	2.62
891.163	0.62
891.899	3.62
892.634	1.62
893.369	1.62
894.104	-1.38
894.839	-1.38
895.574	3.62
896.309	2.62
897.044	3.62
897.779	0.62
898.514	1.62
899.248	0.62
899.983	-1.38
900.717	2.62
901.452	1.62
902.186	0.62
902.92	0.62
903.654	0.62
904.389	0.62
905.123	0.62
905.857	-0.38
906.59	2.62
907.324	-0.38
908.058	3.62
908.792	-0.38
909.525	2.62
910.259	2.62
910.992	1.62
911.726	1.62
912.459	0.62
913.192	1.62
913.925	0.62
914.658	2.62
915.391	-0.38
916.124	0.62
916.857	1.62
917.59	0.62
918.323	2.62
919.055	2.62
919.788	0.62
920.521	0.62
921.253	-1.38
921.985	0.62
922.718	-1.38
923.45	2.62
924.182	0.62
924.914	-1.38
925.646	1.62
926.378	0.62
927.11	0.62
927.841	0.62
928.573	0.62
929.305	2.62
930.036	1.62
930.768	-0.38
931.499	0.62
932.23	1.62
932.962	1.62
933.693	-1.38
934.424	1.62
935.155	0.62
935.886	0.62
936.617	0.62
937.348	-0.38
938.078	-1.38
938.809	0.62
939.54	0.62
940.27	-0.38
941.001	2.62
941.731	1.62
942.461	0.62
943.191	0.62
943.922	-0.38
944.652	1.62
945.382	2.62
946.112	0.62
946.841	0.62
947.571	-0.38
948.301	1.62
949.031	2.62
949.76	0.62
950.49	1.62
951.219	-0.38
951.948	2.62
952.678	-0.38
953.407	1.62
954.136	-0.38
954.865	0.62
955.594	-0.38
956.323	-0.38
957.052	-0.38
957.78	0.62
958.509	2.62
959.238	-1.38
959.966	-0.38
960.695	1.62
961.423	-0.38
962.151	0.62
962.88	0.62
963.608	1.62
964.336	-1.38
965.064	2.62
965.792	-0.38
966.52	0.62
967.247	1.62
967.975	0.62
968.703	2.62
969.43	2.62
970.158	-0.38
970.885	1.62
971.613	0.62
972.34	0.62
973.067	-1.38
973.794	0.62
974.521	2.62
975.248	2.62
975.975	0.62
976.702	1.62
977.429	0.62
978.156	1.62
978.882	-0.38
979.609	1.62
980.335	0.62
981.062	1.62
981.788	-0.38
982.514	1.62
983.24	0.62
983.967	-0.38
984.693	-1.38
985.419	-1.38
986.144	0.62
986.87	0.62
987.596	0.62
988.322	1.62
989.047	1.62
989.773	1.62
990.498	1.62
991.224	0.62
991.949	0.62
992.674	2.62
993.399	0.62
994.124	0.62
994.849	-0.38
995.574	0.62
996.299	-0.38
997.024	0.62
997.749	0.62
998.473	2.62
999.198	1.62
999.922	-1.38
1000.647	0.62
1001.371	2.62
1002.095	-1.38
1002.82	-1.38
1003.544	-0.38
1004.268	3.62
1004.992	3.62
1005.716	0.62
1006.439	1.62
1007.163	4.62
1007.887	3.62
1008.611	0.62
1009.334	2.62
1010.058	0.62
1010.781	-1.38
1011.504	1.62
1012.228	0.62
1012.951	0.62
1013.674	-0.38
1014.397	-0.38
1015.12	0.62
