节点500_425_QEPB04081__82__15-49-40-351.txt的数据

Date: Wed Nov 12 15:49:40 CST 2025
User: PC
Spectrometer: QEPB0408
触发模式: 0
积分时间 (秒): 1.000000E-2
Scans to average: 1
启用暗噪声校正: true
启用非线性校正: false
滑动平均宽度: 0
X轴模式: Wavelengths
Number of Pixels in Spectrum: 1044
>>>>>Begin Spectral Data<<<<<
220.843	1.62
221.644	0.62
222.444	2.62
223.244	2.62
224.045	2.62
224.845	1.62
225.645	4.62
226.445	2.62
227.245	0.62
228.045	5.62
228.845	4.62
229.645	6.62
230.444	6.62
231.244	3.62
232.043	4.62
232.843	3.62
233.642	3.62
234.442	6.62
235.241	3.62
236.04	5.62
236.839	3.62
237.638	6.62
238.437	5.62
239.236	7.62
240.035	7.62
240.833	3.62
241.632	5.62
242.43	6.62
243.229	7.62
244.027	8.62
244.826	8.62
245.624	8.62
246.422	6.62
247.22	10.62
248.018	7.62
248.816	9.62
249.614	9.62
250.412	9.62
251.21	12.62
252.007	9.62
252.805	11.62
253.602	10.62
254.4	10.62
255.197	10.62
255.994	10.62
256.791	12.62
257.589	13.62
258.386	14.62
259.183	13.62
259.979	13.62
260.776	16.62
261.573	15.62
262.37	16.62
263.166	14.62
263.963	16.62
264.759	17.62
265.556	16.62
266.352	16.62
267.148	17.62
267.944	19.62
268.74	23.62
269.536	23.62
270.332	21.62
271.128	23.62
271.924	22.62
272.719	22.62
273.515	22.62
274.311	21.62
275.106	24.62
275.901	21.62
276.697	24.62
277.492	24.62
278.287	24.62
279.082	27.62
279.877	23.62
280.672	23.62
281.467	24.62
282.262	25.62
283.056	26.62
283.851	27.62
284.646	24.62
285.44	28.62
286.234	26.62
287.029	22.62
287.823	25.62
288.617	24.62
289.411	23.62
290.205	24.62
290.999	24.62
291.793	22.62
292.587	23.62
293.381	21.62
294.174	21.62
294.968	19.62
295.761	18.62
296.555	23.62
297.348	19.62
298.141	17.62
298.935	21.62
299.728	18.62
300.521	17.62
301.314	17.62
302.107	16.62
302.899	16.62
303.692	15.62
304.485	15.62
305.277	15.62
306.07	18.62
306.862	16.62
307.655	16.62
308.447	16.62
309.239	11.62
310.031	17.62
310.823	11.62
311.615	12.62
312.407	13.62
313.199	12.62
313.991	15.62
314.783	9.62
315.574	12.62
316.366	12.62
317.157	8.62
317.949	10.62
318.74	8.62
319.531	8.62
320.322	7.62
321.113	11.62
321.904	7.62
322.695	12.62
323.486	7.62
324.277	6.62
325.068	10.62
325.858	9.62
326.649	9.62
327.439	6.62
328.23	6.62
329.02	9.62
329.81	9.62
330.6	11.62
331.391	7.62
332.181	7.62
332.971	7.62
333.76	6.62
334.55	8.62
335.34	8.62
336.13	8.62
336.919	6.62
337.709	7.62
338.498	7.62
339.287	4.62
340.077	10.62
340.866	6.62
341.655	9.62
342.444	7.62
343.233	6.62
344.022	8.62
344.811	7.62
345.6	9.62
346.388	7.62
347.177	7.62
347.965	8.62
348.754	7.62
349.542	7.62
350.33	7.62
351.119	9.62
351.907	3.62
352.695	4.62
353.483	7.62
354.271	6.62
355.059	8.62
355.846	6.62
356.634	5.62
357.422	8.62
358.209	5.62
358.997	8.62
359.784	6.62
360.571	5.62
361.359	5.62
362.146	5.62
362.933	8.62
363.72	5.62
364.507	5.62
365.294	6.62
366.081	9.62
366.867	6.62
367.654	3.62
368.44	7.62
369.227	5.62
370.013	8.62
370.8	5.62
371.586	5.62
372.372	5.62
373.158	3.62
373.944	8.62
374.73	6.62
375.516	6.62
376.302	8.62
377.088	6.62
377.873	7.62
378.659	6.62
379.445	9.62
380.23	5.62
381.015	6.62
381.801	6.62
382.586	6.62
383.371	5.62
384.156	7.62
384.941	6.62
385.726	6.62
386.511	7.62
387.296	9.62
388.08	8.62
388.865	9.62
389.649	5.62
390.434	7.62
391.218	7.62
392.003	8.62
392.787	8.62
393.571	6.62
394.355	6.62
395.139	8.62
395.923	7.62
396.707	7.62
397.491	6.62
398.274	10.62
399.058	8.62
399.842	10.62
400.625	8.62
401.408	10.62
402.192	9.62
402.975	7.62
403.758	10.62
404.541	10.62
405.324	10.62
406.107	8.62
406.89	10.62
407.673	11.62
408.456	11.62
409.238	11.62
410.021	14.62
410.803	11.62
411.586	9.62
412.368	12.62
413.151	11.62
413.933	13.62
414.715	8.62
415.497	13.62
416.279	11.62
417.061	13.62
417.843	11.62
418.624	13.62
419.406	13.62
420.188	12.62
420.969	15.62
421.751	14.62
422.532	14.62
423.313	15.62
424.095	16.62
424.876	17.62
425.657	17.62
426.438	16.62
427.219	18.62
428	17.62
428.78	17.62
429.561	17.62
430.342	19.62
431.122	19.62
431.903	21.62
432.683	20.62
433.464	21.62
434.244	23.62
435.024	23.62
435.804	25.62
436.584	28.62
437.364	23.62
438.144	25.62
438.924	31.62
439.704	30.62
440.483	32.62
441.263	33.62
442.042	39.62
442.822	37.62
443.601	41.62
444.38	41.62
445.16	49.62
445.939	49.62
446.718	50.62
447.497	61.62
448.276	65.62
449.054	68.62
449.833	71.62
450.612	83.62
451.391	86.62
452.169	98.62
452.948	111.62
453.726	116.62
454.504	128.62
455.282	143.62
456.061	154.62
456.839	176.62
457.617	188.62
458.395	218.62
459.172	239.62
459.95	269.62
460.728	299.62
461.506	330.62
462.283	369.62
463.061	418.62
463.838	456.62
464.615	530.62
465.393	591.62
466.17	659.62
466.947	737.62
467.724	812.62
468.501	908.62
469.278	1018.62
470.055	1114.62
470.831	1249.62
471.608	1408.62
472.385	1548.62
473.161	1743.62
473.938	1933.62
474.714	2133.62
475.49	2347.62
476.266	2604.62
477.043	2876.62
477.819	3192.62
478.595	3554.62
479.371	3920.62
480.146	4306.62
480.922	4763.62
481.698	5241.62
482.473	5738.62
483.249	6341.62
484.024	7009.62
484.8	7717.62
485.575	8392.62
486.35	9233.62
487.126	10123.62
487.901	11045.62
488.676	12142.62
489.451	13229.62
490.225	14389.62
491	15673.62
491.775	17047.62
492.55	18455.62
493.324	19871.62
494.099	21321.62
494.873	22831.62
495.647	24391.62
496.422	25933.62
497.196	27422.62
497.97	29055.62
498.744	30590.62
499.518	31877.62
500.292	33167.62
501.066	34244.62
501.839	35339.62
502.613	36154.62
503.387	36737.62
504.16	37158.62
504.934	37198.62
505.707	37139.62
506.48	36772.62
507.253	36262.62
508.027	35742.62
508.8	34955.62
509.573	33940.62
510.346	32885.62
511.118	31832.62
511.891	30673.62
512.664	29416.62
513.437	28267.62
514.209	26959.62
514.982	25884.62
515.754	24755.62
516.526	23703.62
517.298	22616.62
518.071	21671.62
518.843	20792.62
519.615	20010.62
520.387	19170.62
521.159	18443.62
521.93	17710.62
522.702	16990.62
523.474	16365.62
524.245	15654.62
525.017	14968.62
525.788	14237.62
526.56	13560.62
527.331	12952.62
528.102	12345.62
528.873	11706.62
529.644	11094.62
530.415	10590.62
531.186	10040.62
531.957	9506.62
532.728	8956.62
533.498	8438.62
534.269	7983.62
535.039	7562.62
535.81	7143.62
536.58	6711.62
537.351	6305.62
538.121	6005.62
538.891	5701.62
539.661	5377.62
540.431	5119.62
541.201	4838.62
541.971	4579.62
542.741	4337.62
543.51	4133.62
544.28	3924.62
545.05	3714.62
545.819	3577.62
546.588	3374.62
547.358	3186.62
548.127	3025.62
548.896	2860.62
549.665	2708.62
550.434	2569.62
551.203	2436.62
551.972	2299.62
552.741	2189.62
553.51	2077.62
554.278	1937.62
555.047	1839.62
555.815	1732.62
556.584	1622.62
557.352	1536.62
558.121	1456.62
558.889	1360.62
559.657	1300.62
560.425	1220.62
561.193	1148.62
561.961	1097.62
562.729	1028.62
563.496	984.62
564.264	916.62
565.032	878.62
565.799	836.62
566.567	780.62
567.334	731.62
568.101	701.62
568.869	664.62
569.636	620.62
570.403	588.62
571.17	550.62
571.937	513.62
572.704	491.62
573.471	471.62
574.237	434.62
575.004	416.62
575.771	389.62
576.537	360.62
577.303	346.62
578.07	326.62
578.836	308.62
579.602	292.62
580.368	276.62
581.134	262.62
581.9	247.62
582.666	244.62
583.432	221.62
584.198	209.62
584.964	200.62
585.729	192.62
586.495	179.62
587.26	168.62
588.025	164.62
588.791	152.62
589.556	145.62
590.321	135.62
591.086	128.62
591.851	124.62
592.616	119.62
593.381	116.62
594.146	101.62
594.911	101.62
595.675	96.62
596.44	91.62
597.204	92.62
597.969	84.62
598.733	82.62
599.497	77.62
600.261	70.62
601.025	75.62
601.79	67.62
602.553	62.62
603.317	63.62
604.081	59.62
604.845	57.62
605.609	53.62
606.372	51.62
607.136	51.62
607.899	44.62
608.662	48.62
609.426	42.62
610.189	44.62
610.952	38.62
611.715	42.62
612.478	37.62
613.241	38.62
614.004	37.62
614.767	33.62
615.529	31.62
616.292	31.62
617.055	31.62
617.817	31.62
618.579	26.62
619.342	28.62
620.104	26.62
620.866	26.62
621.628	25.62
622.39	21.62
623.152	24.62
623.914	21.62
624.676	20.62
625.438	23.62
626.199	18.62
626.961	20.62
627.722	20.62
628.484	21.62
629.245	15.62
630.006	19.62
630.768	19.62
631.529	16.62
632.29	14.62
633.051	15.62
633.812	14.62
634.573	16.62
635.333	14.62
636.094	11.62
636.855	14.62
637.615	12.62
638.376	11.62
639.136	12.62
639.896	13.62
640.657	11.62
641.417	11.62
642.177	13.62
642.937	13.62
643.697	11.62
644.457	11.62
645.216	9.62
645.976	10.62
646.736	11.62
647.495	8.62
648.255	9.62
649.014	9.62
649.774	11.62
650.533	11.62
651.292	8.62
652.051	8.62
652.81	9.62
653.569	8.62
654.328	7.62
655.087	7.62
655.846	8.62
656.604	5.62
657.363	9.62
658.121	6.62
658.88	6.62
659.638	8.62
660.397	6.62
661.155	9.62
661.913	6.62
662.671	7.62
663.429	7.62
664.187	11.62
664.945	7.62
665.703	7.62
666.46	6.62
667.218	6.62
667.976	7.62
668.733	8.62
669.49	5.62
670.248	7.62
671.005	3.62
671.762	6.62
672.519	5.62
673.276	7.62
674.033	4.62
674.79	2.62
675.547	7.62
676.304	4.62
677.06	4.62
677.817	3.62
678.574	7.62
679.33	5.62
680.086	6.62
680.843	5.62
681.599	6.62
682.355	6.62
683.111	5.62
683.867	3.62
684.623	3.62
685.379	4.62
686.135	8.62
686.89	6.62
687.646	4.62
688.402	4.62
689.157	4.62
689.912	3.62
690.668	5.62
691.423	6.62
692.178	7.62
692.933	2.62
693.688	4.62
694.443	6.62
695.198	3.62
695.953	5.62
696.708	4.62
697.462	3.62
698.217	3.62
698.972	5.62
699.726	4.62
700.48	4.62
701.235	4.62
701.989	2.62
702.743	3.62
703.497	3.62
704.251	4.62
705.005	3.62
705.759	4.62
706.513	2.62
707.266	5.62
708.02	5.62
708.774	1.62
709.527	4.62
710.28	1.62
711.034	5.62
711.787	3.62
712.54	4.62
713.293	3.62
714.046	3.62
714.799	4.62
715.552	3.62
716.305	2.62
717.058	6.62
717.81	3.62
718.563	4.62
719.315	4.62
720.068	3.62
720.82	6.62
721.573	4.62
722.325	4.62
723.077	4.62
723.829	4.62
724.581	5.62
725.333	3.62
726.085	5.62
726.836	5.62
727.588	4.62
728.34	4.62
729.091	6.62
729.843	6.62
730.594	6.62
731.346	4.62
732.097	6.62
732.848	5.62
733.599	4.62
734.35	3.62
735.101	6.62
735.852	4.62
736.603	3.62
737.354	6.62
738.104	6.62
738.855	6.62
739.605	5.62
740.356	7.62
741.106	7.62
741.856	5.62
742.607	6.62
743.357	6.62
744.107	7.62
744.857	6.62
745.607	7.62
746.357	6.62
747.106	6.62
747.856	6.62
748.606	8.62
749.355	9.62
750.105	5.62
750.854	7.62
751.603	6.62
752.353	5.62
753.102	7.62
753.851	7.62
754.6	6.62
755.349	6.62
756.098	6.62
756.847	7.62
757.595	6.62
758.344	10.62
759.093	6.62
759.841	7.62
760.589	8.62
761.338	9.62
762.086	8.62
762.834	9.62
763.582	10.62
764.331	8.62
765.079	9.62
765.826	9.62
766.574	9.62
767.322	11.62
768.07	8.62
768.817	7.62
769.565	8.62
770.312	11.62
771.06	11.62
771.807	12.62
772.554	9.62
773.302	7.62
774.049	9.62
774.796	9.62
775.543	8.62
776.29	9.62
777.036	10.62
777.783	13.62
778.53	11.62
779.276	10.62
780.023	11.62
780.769	11.62
781.516	8.62
782.262	10.62
783.008	14.62
783.754	9.62
784.5	11.62
785.246	13.62
785.992	12.62
786.738	11.62
787.484	8.62
788.23	11.62
788.975	12.62
789.721	11.62
790.466	8.62
791.212	9.62
791.957	10.62
792.702	9.62
793.447	10.62
794.193	10.62
794.938	9.62
795.683	10.62
796.427	10.62
797.172	8.62
797.917	9.62
798.662	6.62
799.406	7.62
800.151	9.62
800.895	9.62
801.64	9.62
802.384	7.62
803.128	7.62
803.872	7.62
804.616	8.62
805.36	7.62
806.104	7.62
806.848	7.62
807.592	6.62
808.336	5.62
809.079	7.62
809.823	6.62
810.566	4.62
811.31	4.62
812.053	4.62
812.796	4.62
813.539	6.62
814.283	4.62
815.026	6.62
815.769	5.62
816.511	6.62
817.254	5.62
817.997	4.62
818.74	5.62
819.482	6.62
820.225	3.62
820.967	5.62
821.71	5.62
822.452	6.62
823.194	3.62
823.936	4.62
824.678	3.62
825.42	4.62
826.162	5.62
826.904	4.62
827.646	1.62
828.388	5.62
829.129	3.62
829.871	1.62
830.612	3.62
831.354	6.62
832.095	2.62
832.836	4.62
833.577	3.62
834.319	5.62
835.06	5.62
835.801	5.62
836.542	3.62
837.282	3.62
838.023	7.62
838.764	0.62
839.504	3.62
840.245	4.62
840.985	4.62
841.726	2.62
842.466	4.62
843.206	2.62
843.946	4.62
844.687	3.62
845.427	3.62
846.166	2.62
846.906	4.62
847.646	2.62
848.386	3.62
849.125	3.62
849.865	2.62
850.605	2.62
851.344	0.62
852.083	3.62
852.823	4.62
853.562	1.62
854.301	4.62
855.04	2.62
855.779	3.62
856.518	4.62
857.257	2.62
857.995	2.62
858.734	1.62
859.473	3.62
860.211	1.62
860.95	4.62
861.688	2.62
862.426	1.62
863.165	1.62
863.903	2.62
864.641	1.62
865.379	0.62
866.117	3.62
866.855	3.62
867.593	1.62
868.33	1.62
869.068	1.62
869.806	2.62
870.543	1.62
871.28	1.62
872.018	1.62
872.755	1.62
873.492	0.62
874.229	0.62
874.967	0.62
875.703	-0.38
876.44	1.62
877.177	1.62
877.914	0.62
878.651	-1.38
879.387	0.62
880.124	0.62
880.86	0.62
881.597	0.62
882.333	0.62
883.069	1.62
883.806	-1.38
884.542	-1.38
885.278	-1.38
886.014	2.62
886.749	0.62
887.485	-1.38
888.221	2.62
888.957	0.62
889.692	-0.38
890.428	0.62
891.163	2.62
891.899	0.62
892.634	1.62
893.369	0.62
894.104	0.62
894.839	0.62
895.574	-1.38
896.309	0.62
897.044	-2.38
897.779	1.62
898.514	0.62
899.248	-0.38
899.983	0.62
900.717	-1.38
901.452	-0.38
902.186	0.62
902.92	0.62
903.654	-0.38
904.389	0.62
905.123	-0.38
905.857	-0.38
906.59	-0.38
907.324	-0.38
908.058	-0.38
908.792	-0.38
909.525	0.62
910.259	0.62
910.992	2.62
911.726	1.62
912.459	-0.38
913.192	-0.38
913.925	-0.38
914.658	-1.38
915.391	-0.38
916.124	-0.38
916.857	-0.38
917.59	0.62
918.323	-1.38
919.055	-2.38
919.788	0.62
920.521	1.62
921.253	-0.38
921.985	-2.38
922.718	-0.38
923.45	-1.38
924.182	-2.38
924.914	-1.38
925.646	-0.38
926.378	-0.38
927.11	-0.38
927.841	2.62
928.573	-0.38
929.305	-0.38
930.036	-1.38
930.768	0.62
931.499	0.62
932.23	-2.38
932.962	-0.38
933.693	-0.38
934.424	-0.38
935.155	0.62
935.886	-0.38
936.617	-1.38
937.348	0.62
938.078	-1.38
938.809	-0.38
939.54	-0.38
940.27	1.62
941.001	-1.38
941.731	0.62
942.461	0.62
943.191	-0.38
943.922	0.62
944.652	-0.38
945.382	0.62
946.112	-2.38
946.841	-0.38
947.571	-2.38
948.301	0.62
949.031	1.62
949.76	-2.38
950.49	1.62
951.219	1.62
951.948	-2.38
952.678	-2.38
953.407	-0.38
954.136	1.62
954.865	-0.38
955.594	0.62
956.323	-1.38
957.052	-0.38
957.78	0.62
958.509	-2.38
959.238	-0.38
959.966	0.62
960.695	0.62
961.423	0.62
962.151	-2.38
962.88	-0.38
963.608	0.62
964.336	-0.38
965.064	1.62
965.792	0.62
966.52	-0.38
967.247	-0.38
967.975	-0.38
968.703	-0.38
969.43	-1.38
970.158	-0.38
970.885	-0.38
971.613	-0.38
972.34	-1.38
973.067	-1.38
973.794	-1.38
974.521	-2.38
975.248	-0.38
975.975	-0.38
976.702	0.62
977.429	-1.38
978.156	-0.38
978.882	-0.38
979.609	-1.38
980.335	-1.38
981.062	0.62
981.788	0.62
982.514	-1.38
983.24	-2.38
983.967	-0.38
984.693	-2.38
985.419	-0.38
986.144	1.62
986.87	-0.38
987.596	-0.38
988.322	-1.38
989.047	-0.38
989.773	-0.38
990.498	-1.38
991.224	1.62
991.949	0.62
992.674	-1.38
993.399	-2.38
994.124	0.62
994.849	0.62
995.574	0.62
996.299	0.62
997.024	-0.38
997.749	-0.38
998.473	-1.38
999.198	-0.38
999.922	0.62
1000.647	-1.38
1001.371	2.62
1002.095	-1.38
1002.82	0.62
1003.544	-1.38
1004.268	1.62
1004.992	-0.38
1005.716	0.62
1006.439	2.62
1007.163	0.62
1007.887	2.62
1008.611	-0.38
1009.334	-2.38
1010.058	-0.38
1010.781	0.62
1011.504	-1.38
1012.228	0.62
1012.951	-0.38
1013.674	0.62
1014.397	-1.38
1015.12	0.62
