节点500_425_QEPB04081__433__15-55-30-625.txt的数据

Date: Wed Nov 12 15:55:30 CST 2025
User: PC
Spectrometer: QEPB0408
触发模式: 0
积分时间 (秒): 1.000000E-2
Scans to average: 1
启用暗噪声校正: true
启用非线性校正: false
滑动平均宽度: 0
X轴模式: Wavelengths
Number of Pixels in Spectrum: 1044
>>>>>Begin Spectral Data<<<<<
220.843	4.12
221.644	2.12
222.444	2.12
223.244	2.12
224.045	5.12
224.845	4.12
225.645	2.12
226.445	3.12
227.245	2.12
228.045	4.12
228.845	5.12
229.645	7.12
230.444	4.12
231.244	4.12
232.043	4.12
232.843	5.12
233.642	4.12
234.442	6.12
235.241	4.12
236.04	6.12
236.839	8.12
237.638	7.12
238.437	7.12
239.236	6.12
240.035	5.12
240.833	6.12
241.632	7.12
242.43	5.12
243.229	8.12
244.027	7.12
244.826	6.12
245.624	8.12
246.422	7.12
247.22	6.12
248.018	7.12
248.816	9.12
249.614	9.12
250.412	10.12
251.21	8.12
252.007	11.12
252.805	10.12
253.602	11.12
254.4	9.12
255.197	12.12
255.994	12.12
256.791	11.12
257.589	11.12
258.386	13.12
259.183	15.12
259.979	12.12
260.776	14.12
261.573	15.12
262.37	12.12
263.166	18.12
263.963	17.12
264.759	15.12
265.556	20.12
266.352	14.12
267.148	19.12
267.944	17.12
268.74	20.12
269.536	17.12
270.332	20.12
271.128	20.12
271.924	19.12
272.719	20.12
273.515	21.12
274.311	23.12
275.106	22.12
275.901	20.12
276.697	24.12
277.492	23.12
278.287	23.12
279.082	22.12
279.877	26.12
280.672	24.12
281.467	23.12
282.262	23.12
283.056	21.12
283.851	24.12
284.646	23.12
285.44	25.12
286.234	21.12
287.029	20.12
287.823	26.12
288.617	22.12
289.411	22.12
290.205	22.12
290.999	20.12
291.793	22.12
292.587	21.12
293.381	21.12
294.174	20.12
294.968	19.12
295.761	20.12
296.555	19.12
297.348	19.12
298.141	19.12
298.935	23.12
299.728	19.12
300.521	16.12
301.314	16.12
302.107	15.12
302.899	20.12
303.692	16.12
304.485	19.12
305.277	17.12
306.07	14.12
306.862	14.12
307.655	14.12
308.447	18.12
309.239	16.12
310.031	14.12
310.823	15.12
311.615	16.12
312.407	13.12
313.199	12.12
313.991	13.12
314.783	13.12
315.574	11.12
316.366	14.12
317.157	9.12
317.949	12.12
318.74	10.12
319.531	12.12
320.322	11.12
321.113	11.12
321.904	10.12
322.695	11.12
323.486	9.12
324.277	9.12
325.068	10.12
325.858	8.12
326.649	8.12
327.439	10.12
328.23	8.12
329.02	7.12
329.81	9.12
330.6	9.12
331.391	8.12
332.181	8.12
332.971	8.12
333.76	7.12
334.55	6.12
335.34	10.12
336.13	9.12
336.919	9.12
337.709	7.12
338.498	6.12
339.287	7.12
340.077	7.12
340.866	6.12
341.655	5.12
342.444	8.12
343.233	8.12
344.022	9.12
344.811	8.12
345.6	7.12
346.388	8.12
347.177	9.12
347.965	5.12
348.754	8.12
349.542	8.12
350.33	7.12
351.119	7.12
351.907	8.12
352.695	7.12
353.483	5.12
354.271	9.12
355.059	7.12
355.846	9.12
356.634	7.12
357.422	7.12
358.209	8.12
358.997	6.12
359.784	7.12
360.571	7.12
361.359	7.12
362.146	5.12
362.933	8.12
363.72	6.12
364.507	7.12
365.294	7.12
366.081	8.12
366.867	8.12
367.654	7.12
368.44	5.12
369.227	7.12
370.013	5.12
370.8	5.12
371.586	6.12
372.372	7.12
373.158	7.12
373.944	6.12
374.73	5.12
375.516	5.12
376.302	9.12
377.088	8.12
377.873	6.12
378.659	8.12
379.445	7.12
380.23	8.12
381.015	7.12
381.801	8.12
382.586	6.12
383.371	6.12
384.156	9.12
384.941	6.12
385.726	8.12
386.511	9.12
387.296	7.12
388.08	8.12
388.865	10.12
389.649	10.12
390.434	8.12
391.218	5.12
392.003	6.12
392.787	8.12
393.571	7.12
394.355	7.12
395.139	7.12
395.923	8.12
396.707	8.12
397.491	8.12
398.274	10.12
399.058	8.12
399.842	9.12
400.625	10.12
401.408	9.12
402.192	9.12
402.975	10.12
403.758	9.12
404.541	8.12
405.324	10.12
406.107	9.12
406.89	12.12
407.673	12.12
408.456	9.12
409.238	9.12
410.021	10.12
410.803	11.12
411.586	12.12
412.368	11.12
413.151	13.12
413.933	14.12
414.715	11.12
415.497	12.12
416.279	12.12
417.061	12.12
417.843	15.12
418.624	13.12
419.406	12.12
420.188	13.12
420.969	14.12
421.751	15.12
422.532	15.12
423.313	14.12
424.095	15.12
424.876	14.12
425.657	17.12
426.438	17.12
427.219	18.12
428	18.12
428.78	15.12
429.561	20.12
430.342	20.12
431.122	21.12
431.903	18.12
432.683	20.12
433.464	22.12
434.244	23.12
435.024	24.12
435.804	25.12
436.584	26.12
437.364	29.12
438.144	29.12
438.924	32.12
439.704	32.12
440.483	33.12
441.263	36.12
442.042	34.12
442.822	41.12
443.601	44.12
444.38	45.12
445.16	46.12
445.939	53.12
446.718	59.12
447.497	63.12
448.276	69.12
449.054	72.12
449.833	82.12
450.612	86.12
451.391	92.12
452.169	106.12
452.948	119.12
453.726	124.12
454.504	140.12
455.282	158.12
456.061	174.12
456.839	190.12
457.617	216.12
458.395	236.12
459.172	270.12
459.95	296.12
460.728	335.12
461.506	376.12
462.283	413.12
463.061	466.12
463.838	521.12
464.615	588.12
465.393	645.12
466.17	705.12
466.947	782.12
467.724	883.12
468.501	976.12
469.278	1069.12
470.055	1187.12
470.831	1306.12
471.608	1461.12
472.385	1605.12
473.161	1770.12
473.938	1946.12
474.714	2152.12
475.49	2367.12
476.266	2621.12
477.043	2853.12
477.819	3146.12
478.595	3456.12
479.371	3793.12
480.146	4127.12
480.922	4524.12
481.698	4959.12
482.473	5414.12
483.249	5898.12
484.024	6448.12
484.8	7078.12
485.575	7659.12
486.35	8322.12
487.126	9071.12
487.901	9840.12
488.676	10741.12
489.451	11656.12
490.225	12576.12
491	13607.12
491.775	14792.12
492.55	15852.12
493.324	17101.12
494.099	18328.12
494.873	19536.12
495.647	20798.12
496.422	22117.12
497.196	23427.12
497.97	24917.12
498.744	26316.12
499.518	27583.12
500.292	28763.12
501.066	29845.12
501.839	31017.12
502.613	31931.12
503.387	32657.12
504.16	33228.12
504.934	33774.12
505.707	33876.12
506.48	33905.12
507.253	33839.12
508.027	33603.12
508.8	33157.12
509.573	32605.12
510.346	31866.12
511.118	31097.12
511.891	30300.12
512.664	29150.12
513.437	28183.12
514.209	27140.12
514.982	26152.12
515.754	25203.12
516.526	24142.12
517.298	23155.12
518.071	22149.12
518.843	21200.12
519.615	20475.12
520.387	19598.12
521.159	18789.12
521.93	18112.12
522.702	17394.12
523.474	16748.12
524.245	16083.12
525.017	15336.12
525.788	14630.12
526.56	14023.12
527.331	13396.12
528.102	12773.12
528.873	12214.12
529.644	11621.12
530.415	11108.12
531.186	10595.12
531.957	10073.12
532.728	9512.12
533.498	9045.12
534.269	8516.12
535.039	8086.12
535.81	7626.12
536.58	7208.12
537.351	6816.12
538.121	6419.12
538.891	6070.12
539.661	5777.12
540.431	5495.12
541.201	5193.12
541.971	4924.12
542.741	4650.12
543.51	4438.12
544.28	4212.12
545.05	4006.12
545.819	3826.12
546.588	3624.12
547.358	3444.12
548.127	3244.12
548.896	3085.12
549.665	2940.12
550.434	2797.12
551.203	2649.12
551.972	2504.12
552.741	2366.12
553.51	2227.12
554.278	2132.12
555.047	1994.12
555.815	1896.12
556.584	1792.12
557.352	1688.12
558.121	1587.12
558.889	1506.12
559.657	1425.12
560.425	1352.12
561.193	1275.12
561.961	1198.12
562.729	1144.12
563.496	1076.12
564.264	1017.12
565.032	961.12
565.799	920.12
566.567	862.12
567.334	822.12
568.101	778.12
568.869	724.12
569.636	685.12
570.403	637.12
571.17	612.12
571.937	572.12
572.704	547.12
573.471	509.12
574.237	489.12
575.004	454.12
575.771	430.12
576.537	405.12
577.303	373.12
578.07	358.12
578.836	345.12
579.602	312.12
580.368	297.12
581.134	284.12
581.9	275.12
582.666	253.12
583.432	246.12
584.198	234.12
584.964	219.12
585.729	213.12
586.495	194.12
587.26	184.12
588.025	181.12
588.791	171.12
589.556	164.12
590.321	152.12
591.086	142.12
591.851	138.12
592.616	130.12
593.381	124.12
594.146	120.12
594.911	113.12
595.675	107.12
596.44	107.12
597.204	100.12
597.969	92.12
598.733	92.12
599.497	85.12
600.261	85.12
601.025	75.12
601.79	77.12
602.553	75.12
603.317	69.12
604.081	65.12
604.845	62.12
605.609	61.12
606.372	58.12
607.136	53.12
607.899	55.12
608.662	49.12
609.426	47.12
610.189	47.12
610.952	47.12
611.715	43.12
612.478	41.12
613.241	37.12
614.004	38.12
614.767	38.12
615.529	31.12
616.292	38.12
617.055	34.12
617.817	31.12
618.579	30.12
619.342	30.12
620.104	32.12
620.866	30.12
621.628	27.12
622.39	27.12
623.152	21.12
623.914	26.12
624.676	26.12
625.438	22.12
626.199	22.12
626.961	20.12
627.722	21.12
628.484	19.12
629.245	21.12
630.006	21.12
630.768	16.12
631.529	18.12
632.29	16.12
633.051	19.12
633.812	15.12
634.573	19.12
635.333	16.12
636.094	15.12
636.855	18.12
637.615	14.12
638.376	13.12
639.136	15.12
639.896	10.12
640.657	12.12
641.417	12.12
642.177	15.12
642.937	11.12
643.697	15.12
644.457	11.12
645.216	10.12
645.976	10.12
646.736	8.12
647.495	10.12
648.255	10.12
649.014	10.12
649.774	9.12
650.533	12.12
651.292	9.12
652.051	8.12
652.81	8.12
653.569	7.12
654.328	9.12
655.087	10.12
655.846	8.12
656.604	8.12
657.363	9.12
658.121	9.12
658.88	7.12
659.638	9.12
660.397	8.12
661.155	5.12
661.913	8.12
662.671	5.12
663.429	8.12
664.187	8.12
664.945	7.12
665.703	7.12
666.46	8.12
667.218	8.12
667.976	8.12
668.733	7.12
669.49	7.12
670.248	5.12
671.005	7.12
671.762	5.12
672.519	5.12
673.276	4.12
674.033	5.12
674.79	6.12
675.547	5.12
676.304	6.12
677.06	7.12
677.817	5.12
678.574	8.12
679.33	5.12
680.086	7.12
680.843	6.12
681.599	4.12
682.355	7.12
683.111	5.12
683.867	4.12
684.623	5.12
685.379	7.12
686.135	6.12
686.89	4.12
687.646	6.12
688.402	4.12
689.157	5.12
689.912	4.12
690.668	6.12
691.423	7.12
692.178	1.12
692.933	7.12
693.688	5.12
694.443	6.12
695.198	8.12
695.953	1.12
696.708	5.12
697.462	3.12
698.217	4.12
698.972	4.12
699.726	5.12
700.48	6.12
701.235	4.12
701.989	5.12
702.743	5.12
703.497	6.12
704.251	5.12
705.005	4.12
705.759	5.12
706.513	6.12
707.266	4.12
708.02	5.12
708.774	4.12
709.527	4.12
710.28	5.12
711.034	5.12
711.787	5.12
712.54	4.12
713.293	4.12
714.046	4.12
714.799	4.12
715.552	5.12
716.305	6.12
717.058	5.12
717.81	2.12
718.563	7.12
719.315	4.12
720.068	3.12
720.82	6.12
721.573	4.12
722.325	6.12
723.077	5.12
723.829	4.12
724.581	5.12
725.333	4.12
726.085	4.12
726.836	2.12
727.588	5.12
728.34	5.12
729.091	8.12
729.843	6.12
730.594	7.12
731.346	6.12
732.097	3.12
732.848	4.12
733.599	5.12
734.35	7.12
735.101	4.12
735.852	5.12
736.603	5.12
737.354	4.12
738.104	7.12
738.855	7.12
739.605	8.12
740.356	5.12
741.106	6.12
741.856	7.12
742.607	6.12
743.357	7.12
744.107	7.12
744.857	6.12
745.607	7.12
746.357	4.12
747.106	7.12
747.856	7.12
748.606	6.12
749.355	8.12
750.105	6.12
750.854	6.12
751.603	7.12
752.353	8.12
753.102	8.12
753.851	7.12
754.6	7.12
755.349	7.12
756.098	6.12
756.847	7.12
757.595	7.12
758.344	6.12
759.093	9.12
759.841	8.12
760.589	5.12
761.338	10.12
762.086	6.12
762.834	9.12
763.582	8.12
764.331	8.12
765.079	10.12
765.826	10.12
766.574	9.12
767.322	8.12
768.07	6.12
768.817	10.12
769.565	8.12
770.312	10.12
771.06	12.12
771.807	8.12
772.554	9.12
773.302	9.12
774.049	9.12
774.796	10.12
775.543	10.12
776.29	10.12
777.036	10.12
777.783	11.12
778.53	11.12
779.276	11.12
780.023	11.12
780.769	10.12
781.516	11.12
782.262	9.12
783.008	11.12
783.754	11.12
784.5	11.12
785.246	10.12
785.992	12.12
786.738	10.12
787.484	10.12
788.23	12.12
788.975	13.12
789.721	10.12
790.466	10.12
791.212	9.12
791.957	10.12
792.702	9.12
793.447	9.12
794.193	10.12
794.938	10.12
795.683	12.12
796.427	8.12
797.172	9.12
797.917	7.12
798.662	9.12
799.406	7.12
800.151	8.12
800.895	10.12
801.64	8.12
802.384	11.12
803.128	12.12
803.872	7.12
804.616	10.12
805.36	6.12
806.104	10.12
806.848	6.12
807.592	7.12
808.336	6.12
809.079	9.12
809.823	7.12
810.566	7.12
811.31	7.12
812.053	9.12
812.796	6.12
813.539	6.12
814.283	5.12
815.026	7.12
815.769	5.12
816.511	5.12
817.254	3.12
817.997	6.12
818.74	7.12
819.482	8.12
820.225	6.12
820.967	7.12
821.71	6.12
822.452	7.12
823.194	4.12
823.936	5.12
824.678	5.12
825.42	6.12
826.162	5.12
826.904	4.12
827.646	8.12
828.388	4.12
829.129	6.12
829.871	6.12
830.612	5.12
831.354	6.12
832.095	5.12
832.836	5.12
833.577	6.12
834.319	5.12
835.06	5.12
835.801	5.12
836.542	6.12
837.282	3.12
838.023	6.12
838.764	5.12
839.504	3.12
840.245	6.12
840.985	2.12
841.726	4.12
842.466	6.12
843.206	4.12
843.946	4.12
844.687	3.12
845.427	3.12
846.166	4.12
846.906	6.12
847.646	5.12
848.386	5.12
849.125	4.12
849.865	4.12
850.605	3.12
851.344	4.12
852.083	5.12
852.823	4.12
853.562	3.12
854.301	3.12
855.04	2.12
855.779	4.12
856.518	4.12
857.257	1.12
857.995	5.12
858.734	1.12
859.473	4.12
860.211	5.12
860.95	4.12
861.688	3.12
862.426	3.12
863.165	5.12
863.903	4.12
864.641	4.12
865.379	2.12
866.117	3.12
866.855	4.12
867.593	2.12
868.33	5.12
869.068	1.12
869.806	2.12
870.543	1.12
871.28	2.12
872.018	3.12
872.755	0.12
873.492	2.12
874.229	3.12
874.967	2.12
875.703	0.12
876.44	2.12
877.177	2.12
877.914	-1.88
878.651	3.12
879.387	2.12
880.124	3.12
880.86	2.12
881.597	2.12
882.333	0.12
883.069	2.12
883.806	2.12
884.542	2.12
885.278	-1.88
886.014	4.12
886.749	0.12
887.485	2.12
888.221	-0.88
888.957	2.12
889.692	1.12
890.428	2.12
891.163	0.12
891.899	1.12
892.634	2.12
893.369	1.12
894.104	0.12
894.839	1.12
895.574	0.12
896.309	2.12
897.044	2.12
897.779	-0.88
898.514	0.12
899.248	-1.88
899.983	3.12
900.717	1.12
901.452	1.12
902.186	2.12
902.92	2.12
903.654	1.12
904.389	0.12
905.123	2.12
905.857	3.12
906.59	0.12
907.324	-0.88
908.058	0.12
908.792	2.12
909.525	0.12
910.259	0.12
910.992	2.12
911.726	0.12
912.459	1.12
913.192	-0.88
913.925	0.12
914.658	-0.88
915.391	2.12
916.124	1.12
916.857	0.12
917.59	1.12
918.323	-0.88
919.055	1.12
919.788	1.12
920.521	1.12
921.253	2.12
921.985	1.12
922.718	2.12
923.45	0.12
924.182	1.12
924.914	0.12
925.646	1.12
926.378	1.12
927.11	-0.88
927.841	0.12
928.573	2.12
929.305	0.12
930.036	2.12
930.768	-0.88
931.499	0.12
932.23	0.12
932.962	-0.88
933.693	-0.88
934.424	-0.88
935.155	1.12
935.886	0.12
936.617	-0.88
937.348	0.12
938.078	1.12
938.809	2.12
939.54	-1.88
940.27	0.12
941.001	1.12
941.731	2.12
942.461	1.12
943.191	0.12
943.922	0.12
944.652	-0.88
945.382	0.12
946.112	-2.88
946.841	1.12
947.571	0.12
948.301	0.12
949.031	1.12
949.76	-1.88
950.49	0.12
951.219	0.12
951.948	0.12
952.678	0.12
953.407	2.12
954.136	1.12
954.865	-0.88
955.594	-0.88
956.323	-1.88
957.052	-1.88
957.78	0.12
958.509	-0.88
959.238	0.12
959.966	0.12
960.695	-1.88
961.423	0.12
962.151	-1.88
962.88	1.12
963.608	-0.88
964.336	-0.88
965.064	0.12
965.792	-0.88
966.52	0.12
967.247	-0.88
967.975	0.12
968.703	-0.88
969.43	2.12
970.158	1.12
970.885	-1.88
971.613	-1.88
972.34	1.12
973.067	-1.88
973.794	1.12
974.521	0.12
975.248	0.12
975.975	-0.88
976.702	0.12
977.429	-0.88
978.156	-0.88
978.882	2.12
979.609	0.12
980.335	1.12
981.062	0.12
981.788	0.12
982.514	1.12
983.24	0.12
983.967	0.12
984.693	-1.88
985.419	2.12
986.144	0.12
986.87	1.12
987.596	2.12
988.322	-0.88
989.047	-1.88
989.773	-1.88
990.498	2.12
991.224	-0.88
991.949	1.12
992.674	1.12
993.399	-0.88
994.124	-1.88
994.849	-0.88
995.574	0.12
996.299	0.12
997.024	-1.88
997.749	0.12
998.473	0.12
999.198	-1.88
999.922	2.12
1000.647	1.12
1001.371	5.12
1002.095	1.12
1002.82	-1.88
1003.544	-1.88
1004.268	3.12
1004.992	2.12
1005.716	1.12
1006.439	2.12
1007.163	3.12
1007.887	1.12
1008.611	1.12
1009.334	0.12
1010.058	-0.88
1010.781	1.12
1011.504	0.12
1012.228	1.12
1012.951	-1.88
1013.674	0.12
1014.397	-0.88
1015.12	0.12
