节点500_425_QEPB04081__437__15-55-34-615.txt的数据

Date: Wed Nov 12 15:55:34 CST 2025
User: PC
Spectrometer: QEPB0408
触发模式: 0
积分时间 (秒): 1.000000E-2
Scans to average: 1
启用暗噪声校正: true
启用非线性校正: false
滑动平均宽度: 0
X轴模式: Wavelengths
Number of Pixels in Spectrum: 1044
>>>>>Begin Spectral Data<<<<<
220.843	2
221.644	1
222.444	3
223.244	2
224.045	3
224.845	3
225.645	4
226.445	3
227.245	3
228.045	3
228.845	6
229.645	3
230.444	2
231.244	5
232.043	6
232.843	4
233.642	6
234.442	7
235.241	6
236.04	4
236.839	7
237.638	4
238.437	5
239.236	7
240.035	6
240.833	5
241.632	4
242.43	9
243.229	6
244.027	7
244.826	6
245.624	5
246.422	9
247.22	6
248.018	11
248.816	8
249.614	10
250.412	10
251.21	8
252.007	10
252.805	10
253.602	11
254.4	13
255.197	10
255.994	12
256.791	12
257.589	12
258.386	11
259.183	10
259.979	12
260.776	13
261.573	13
262.37	12
263.166	17
263.963	16
264.759	18
265.556	16
266.352	14
267.148	15
267.944	16
268.74	17
269.536	18
270.332	20
271.128	22
271.924	18
272.719	22
273.515	20
274.311	22
275.106	22
275.901	23
276.697	20
277.492	21
278.287	21
279.082	25
279.877	23
280.672	23
281.467	20
282.262	23
283.056	24
283.851	25
284.646	23
285.44	22
286.234	21
287.029	23
287.823	23
288.617	23
289.411	22
290.205	22
290.999	24
291.793	22
292.587	21
293.381	22
294.174	22
294.968	20
295.761	19
296.555	17
297.348	18
298.141	17
298.935	21
299.728	18
300.521	19
301.314	15
302.107	17
302.899	16
303.692	16
304.485	17
305.277	16
306.07	13
306.862	18
307.655	15
308.447	14
309.239	16
310.031	15
310.823	14
311.615	14
312.407	14
313.199	13
313.991	11
314.783	14
315.574	7
316.366	11
317.157	11
317.949	12
318.74	10
319.531	11
320.322	8
321.113	9
321.904	8
322.695	9
323.486	10
324.277	10
325.068	10
325.858	10
326.649	11
327.439	10
328.23	11
329.02	11
329.81	12
330.6	7
331.391	8
332.181	7
332.971	8
333.76	9
334.55	9
335.34	8
336.13	7
336.919	10
337.709	9
338.498	8
339.287	10
340.077	10
340.866	10
341.655	8
342.444	8
343.233	10
344.022	7
344.811	9
345.6	7
346.388	8
347.177	10
347.965	6
348.754	7
349.542	6
350.33	9
351.119	8
351.907	8
352.695	7
353.483	8
354.271	9
355.059	8
355.846	7
356.634	9
357.422	8
358.209	8
358.997	7
359.784	6
360.571	6
361.359	7
362.146	6
362.933	6
363.72	8
364.507	5
365.294	6
366.081	7
366.867	5
367.654	6
368.44	5
369.227	7
370.013	4
370.8	8
371.586	6
372.372	7
373.158	8
373.944	6
374.73	6
375.516	6
376.302	7
377.088	5
377.873	8
378.659	6
379.445	8
380.23	8
381.015	6
381.801	6
382.586	6
383.371	7
384.156	10
384.941	7
385.726	7
386.511	7
387.296	7
388.08	6
388.865	6
389.649	6
390.434	7
391.218	9
392.003	8
392.787	9
393.571	11
394.355	8
395.139	8
395.923	7
396.707	9
397.491	10
398.274	9
399.058	6
399.842	9
400.625	9
401.408	11
402.192	9
402.975	11
403.758	10
404.541	10
405.324	10
406.107	9
406.89	9
407.673	10
408.456	12
409.238	10
410.021	9
410.803	9
411.586	9
412.368	12
413.151	9
413.933	14
414.715	13
415.497	11
416.279	12
417.061	10
417.843	13
418.624	12
419.406	13
420.188	15
420.969	11
421.751	14
422.532	14
423.313	13
424.095	14
424.876	12
425.657	15
426.438	16
427.219	18
428	17
428.78	18
429.561	20
430.342	20
431.122	21
431.903	18
432.683	22
433.464	23
434.244	22
435.024	24
435.804	25
436.584	26
437.364	27
438.144	30
438.924	31
439.704	32
440.483	37
441.263	34
442.042	38
442.822	39
443.601	45
444.38	48
445.16	49
445.939	55
446.718	62
447.497	62
448.276	72
449.054	76
449.833	81
450.612	89
451.391	92
452.169	106
452.948	117
453.726	124
454.504	140
455.282	164
456.061	175
456.839	194
457.617	214
458.395	250
459.172	275
459.95	302
460.728	340
461.506	367
462.283	413
463.061	465
463.838	510
464.615	576
465.393	643
466.17	709
466.947	792
467.724	872
468.501	966
469.278	1074
470.055	1184
470.831	1307
471.608	1454
472.385	1625
473.161	1787
473.938	1956
474.714	2163
475.49	2381
476.266	2601
477.043	2856
477.819	3143
478.595	3467
479.371	3788
480.146	4161
480.922	4530
481.698	4956
482.473	5392
483.249	5885
484.024	6440
484.8	7029
485.575	7646
486.35	8341
487.126	9042
487.901	9841
488.676	10728
489.451	11609
490.225	12558
491	13610
491.775	14677
492.55	15822
493.324	17051
494.099	18281
494.873	19423
495.647	20748
496.422	22065
497.196	23390
497.97	24861
498.744	26172
499.518	27492
500.292	28677
501.066	29738
501.839	30923
502.613	31870
503.387	32646
504.16	33237
504.934	33579
505.707	33755
506.48	33837
507.253	33740
508.027	33536
508.8	33104
509.573	32637
510.346	31931
511.118	31080
511.891	30256
512.664	29204
513.437	28142
514.209	27104
514.982	26232
515.754	25160
516.526	24166
517.298	23138
518.071	22202
518.843	21231
519.615	20462
520.387	19593
521.159	18835
521.93	18152
522.702	17418
523.474	16704
524.245	16074
525.017	15349
525.788	14690
526.56	14007
527.331	13417
528.102	12859
528.873	12218
529.644	11635
530.415	11110
531.186	10618
531.957	10081
532.728	9582
533.498	9029
534.269	8526
535.039	8063
535.81	7643
536.58	7254
537.351	6840
538.121	6445
538.891	6122
539.661	5828
540.431	5497
541.201	5209
541.971	4908
542.741	4686
543.51	4417
544.28	4217
545.05	4033
545.819	3817
546.588	3631
547.358	3454
548.127	3243
548.896	3106
549.665	2940
550.434	2789
551.203	2652
551.972	2511
552.741	2378
553.51	2260
554.278	2124
555.047	2020
555.815	1916
556.584	1789
557.352	1695
558.121	1592
558.889	1513
559.657	1426
560.425	1344
561.193	1269
561.961	1224
562.729	1141
563.496	1087
564.264	1029
565.032	969
565.799	916
566.567	869
567.334	812
568.101	774
568.869	728
569.636	684
570.403	649
571.17	605
571.937	585
572.704	551
573.471	517
574.237	483
575.004	449
575.771	434
576.537	403
577.303	378
578.07	368
578.836	339
579.602	317
580.368	301
581.134	286
581.9	272
582.666	259
583.432	243
584.198	241
584.964	222
585.729	211
586.495	196
587.26	189
588.025	177
588.791	166
589.556	161
590.321	147
591.086	142
591.851	136
592.616	131
593.381	119
594.146	122
594.911	115
595.675	107
596.44	105
597.204	101
597.969	93
598.733	90
599.497	87
600.261	86
601.025	77
601.79	76
602.553	74
603.317	66
604.081	64
604.845	63
605.609	58
606.372	62
607.136	58
607.899	52
608.662	46
609.426	52
610.189	43
610.952	44
611.715	44
612.478	43
613.241	43
614.004	40
614.767	38
615.529	34
616.292	32
617.055	33
617.817	34
618.579	31
619.342	30
620.104	29
620.866	29
621.628	28
622.39	29
623.152	26
623.914	25
624.676	25
625.438	22
626.199	23
626.961	23
627.722	20
628.484	22
629.245	18
630.006	15
630.768	18
631.529	18
632.29	16
633.051	17
633.812	15
634.573	12
635.333	16
636.094	17
636.855	16
637.615	14
638.376	17
639.136	16
639.896	16
640.657	10
641.417	10
642.177	13
642.937	11
643.697	10
644.457	15
645.216	11
645.976	12
646.736	11
647.495	8
648.255	7
649.014	10
649.774	13
650.533	7
651.292	10
652.051	9
652.81	8
653.569	9
654.328	9
655.087	9
655.846	10
656.604	9
657.363	8
658.121	6
658.88	9
659.638	8
660.397	7
661.155	7
661.913	5
662.671	7
663.429	6
664.187	10
664.945	8
665.703	9
666.46	4
667.218	6
667.976	9
668.733	8
669.49	7
670.248	7
671.005	5
671.762	6
672.519	7
673.276	5
674.033	6
674.79	4
675.547	7
676.304	5
677.06	5
677.817	7
678.574	6
679.33	6
680.086	7
680.843	7
681.599	5
682.355	7
683.111	4
683.867	6
684.623	6
685.379	6
686.135	4
686.89	5
687.646	6
688.402	6
689.157	6
689.912	6
690.668	3
691.423	5
692.178	4
692.933	5
693.688	5
694.443	5
695.198	3
695.953	5
696.708	7
697.462	6
698.217	4
698.972	5
699.726	5
700.48	4
701.235	4
701.989	5
702.743	4
703.497	3
704.251	7
705.005	5
705.759	8
706.513	4
707.266	3
708.02	6
708.774	6
709.527	4
710.28	3
711.034	4
711.787	4
712.54	6
713.293	4
714.046	5
714.799	7
715.552	4
716.305	5
717.058	8
717.81	4
718.563	5
719.315	5
720.068	7
720.82	5
721.573	4
722.325	6
723.077	4
723.829	6
724.581	4
725.333	5
726.085	5
726.836	2
727.588	5
728.34	5
729.091	3
729.843	5
730.594	7
731.346	6
732.097	4
732.848	5
733.599	5
734.35	3
735.101	8
735.852	3
736.603	7
737.354	5
738.104	3
738.855	4
739.605	5
740.356	6
741.106	7
741.856	6
742.607	7
743.357	4
744.107	7
744.857	5
745.607	7
746.357	5
747.106	6
747.856	6
748.606	8
749.355	7
750.105	5
750.854	7
751.603	7
752.353	7
753.102	4
753.851	8
754.6	8
755.349	6
756.098	4
756.847	7
757.595	8
758.344	8
759.093	6
759.841	7
760.589	9
761.338	8
762.086	7
762.834	9
763.582	9
764.331	10
765.079	9
765.826	11
766.574	8
767.322	9
768.07	8
768.817	11
769.565	9
770.312	7
771.06	9
771.807	8
772.554	12
773.302	10
774.049	8
774.796	10
775.543	10
776.29	11
777.036	12
777.783	10
778.53	8
779.276	10
780.023	11
780.769	11
781.516	11
782.262	11
783.008	11
783.754	11
784.5	10
785.246	10
785.992	10
786.738	10
787.484	11
788.23	9
788.975	9
789.721	12
790.466	11
791.212	10
791.957	10
792.702	9
793.447	12
794.193	10
794.938	9
795.683	12
796.427	9
797.172	9
797.917	9
798.662	8
799.406	7
800.151	9
800.895	9
801.64	7
802.384	8
803.128	10
803.872	8
804.616	8
805.36	9
806.104	9
806.848	7
807.592	5
808.336	6
809.079	6
809.823	8
810.566	9
811.31	5
812.053	6
812.796	6
813.539	5
814.283	5
815.026	5
815.769	7
816.511	6
817.254	7
817.997	4
818.74	7
819.482	3
820.225	5
820.967	7
821.71	4
822.452	7
823.194	6
823.936	4
824.678	5
825.42	4
826.162	7
826.904	2
827.646	4
828.388	5
829.129	5
829.871	4
830.612	4
831.354	6
832.095	4
832.836	6
833.577	4
834.319	1
835.06	5
835.801	2
836.542	2
837.282	5
838.023	6
838.764	3
839.504	4
840.245	2
840.985	3
841.726	4
842.466	5
843.206	4
843.946	5
844.687	3
845.427	5
846.166	2
846.906	3
847.646	4
848.386	4
849.125	3
849.865	4
850.605	4
851.344	3
852.083	5
852.823	4
853.562	3
854.301	5
855.04	2
855.779	2
856.518	2
857.257	2
857.995	2
858.734	2
859.473	2
860.211	4
860.95	4
861.688	5
862.426	2
863.165	1
863.903	2
864.641	0
865.379	4
866.117	0
866.855	2
867.593	0
868.33	-1
869.068	2
869.806	-1
870.543	2
871.28	2
872.018	0
872.755	1
873.492	0
874.229	4
874.967	2
875.703	3
876.44	-1
877.177	0
877.914	2
878.651	0
879.387	2
880.124	2
880.86	1
881.597	0
882.333	1
883.069	1
883.806	1
884.542	2
885.278	3
886.014	1
886.749	0
887.485	0
888.221	3
888.957	0
889.692	0
890.428	0
891.163	-1
891.899	4
892.634	-2
893.369	4
894.104	0
894.839	0
895.574	3
896.309	1
897.044	1
897.779	1
898.514	2
899.248	2
899.983	-1
900.717	-1
901.452	-1
902.186	0
902.92	0
903.654	2
904.389	0
905.123	0
905.857	-1
906.59	2
907.324	0
908.058	-1
908.792	-1
909.525	1
910.259	0
910.992	0
911.726	-2
912.459	1
913.192	0
913.925	1
914.658	0
915.391	2
916.124	0
916.857	-1
917.59	0
918.323	1
919.055	0
919.788	2
920.521	0
921.253	-2
921.985	0
922.718	0
923.45	0
924.182	0
924.914	0
925.646	0
926.378	1
927.11	0
927.841	-2
928.573	1
929.305	0
930.036	0
930.768	-1
931.499	3
932.23	1
932.962	0
933.693	-2
934.424	0
935.155	1
935.886	-1
936.617	2
937.348	1
938.078	-1
938.809	1
939.54	2
940.27	-2
941.001	1
941.731	2
942.461	1
943.191	-1
943.922	0
944.652	1
945.382	0
946.112	2
946.841	-1
947.571	0
948.301	-2
949.031	1
949.76	2
950.49	0
951.219	-2
951.948	1
952.678	-2
953.407	1
954.136	-1
954.865	1
955.594	-1
956.323	0
957.052	0
957.78	-2
958.509	-1
959.238	3
959.966	-1
960.695	0
961.423	1
962.151	1
962.88	-2
963.608	1
964.336	2
965.064	3
965.792	0
966.52	0
967.247	0
967.975	-1
968.703	0
969.43	1
970.158	0
970.885	0
971.613	0
972.34	2
973.067	-1
973.794	0
974.521	1
975.248	-2
975.975	-1
976.702	-1
977.429	1
978.156	0
978.882	1
979.609	-1
980.335	0
981.062	0
981.788	1
982.514	2
983.24	0
983.967	0
984.693	0
985.419	1
986.144	0
986.87	0
987.596	0
988.322	0
989.047	0
989.773	0
990.498	-2
991.224	1
991.949	1
992.674	-1
993.399	0
994.124	-2
994.849	0
995.574	-2
996.299	0
997.024	0
997.749	0
998.473	1
999.198	-2
999.922	2
1000.647	0
1001.371	3
1002.095	1
1002.82	-1
1003.544	0
1004.268	2
1004.992	2
1005.716	4
1006.439	1
1007.163	2
1007.887	6
1008.611	0
1009.334	2
1010.058	0
1010.781	0
1011.504	2
1012.228	-2
1012.951	-2
1013.674	-1
1014.397	-1
1015.12	1
