节点500_425_QEPB04081__450__15-55-47-617.txt的数据

Date: Wed Nov 12 15:55:47 CST 2025
User: PC
Spectrometer: QEPB0408
触发模式: 0
积分时间 (秒): 1.000000E-2
Scans to average: 1
启用暗噪声校正: true
启用非线性校正: false
滑动平均宽度: 0
X轴模式: Wavelengths
Number of Pixels in Spectrum: 1044
>>>>>Begin Spectral Data<<<<<
220.843	2.25
221.644	2.25
222.444	2.25
223.244	2.25
224.045	2.25
224.845	3.25
225.645	2.25
226.445	3.25
227.245	4.25
228.045	2.25
228.845	3.25
229.645	4.25
230.444	4.25
231.244	3.25
232.043	4.25
232.843	5.25
233.642	3.25
234.442	5.25
235.241	4.25
236.04	6.25
236.839	6.25
237.638	5.25
238.437	5.25
239.236	7.25
240.035	7.25
240.833	7.25
241.632	7.25
242.43	9.25
243.229	7.25
244.027	8.25
244.826	7.25
245.624	9.25
246.422	9.25
247.22	7.25
248.018	9.25
248.816	8.25
249.614	8.25
250.412	9.25
251.21	8.25
252.007	9.25
252.805	11.25
253.602	10.25
254.4	10.25
255.197	10.25
255.994	10.25
256.791	12.25
257.589	11.25
258.386	11.25
259.183	12.25
259.979	11.25
260.776	15.25
261.573	14.25
262.37	13.25
263.166	14.25
263.963	15.25
264.759	16.25
265.556	16.25
266.352	17.25
267.148	17.25
267.944	19.25
268.74	20.25
269.536	19.25
270.332	19.25
271.128	17.25
271.924	19.25
272.719	20.25
273.515	22.25
274.311	24.25
275.106	20.25
275.901	22.25
276.697	19.25
277.492	23.25
278.287	23.25
279.082	20.25
279.877	21.25
280.672	24.25
281.467	22.25
282.262	24.25
283.056	22.25
283.851	23.25
284.646	25.25
285.44	23.25
286.234	22.25
287.029	26.25
287.823	24.25
288.617	22.25
289.411	20.25
290.205	22.25
290.999	25.25
291.793	24.25
292.587	23.25
293.381	23.25
294.174	24.25
294.968	19.25
295.761	22.25
296.555	22.25
297.348	18.25
298.141	19.25
298.935	23.25
299.728	19.25
300.521	18.25
301.314	20.25
302.107	16.25
302.899	20.25
303.692	16.25
304.485	16.25
305.277	17.25
306.07	17.25
306.862	17.25
307.655	15.25
308.447	14.25
309.239	16.25
310.031	13.25
310.823	17.25
311.615	10.25
312.407	14.25
313.199	11.25
313.991	10.25
314.783	11.25
315.574	13.25
316.366	13.25
317.157	13.25
317.949	10.25
318.74	12.25
319.531	6.25
320.322	10.25
321.113	10.25
321.904	14.25
322.695	9.25
323.486	6.25
324.277	10.25
325.068	10.25
325.858	8.25
326.649	9.25
327.439	9.25
328.23	8.25
329.02	8.25
329.81	9.25
330.6	8.25
331.391	9.25
332.181	9.25
332.971	8.25
333.76	6.25
334.55	8.25
335.34	9.25
336.13	7.25
336.919	9.25
337.709	9.25
338.498	8.25
339.287	10.25
340.077	10.25
340.866	9.25
341.655	10.25
342.444	7.25
343.233	8.25
344.022	7.25
344.811	8.25
345.6	6.25
346.388	9.25
347.177	6.25
347.965	8.25
348.754	8.25
349.542	7.25
350.33	8.25
351.119	7.25
351.907	8.25
352.695	9.25
353.483	5.25
354.271	6.25
355.059	8.25
355.846	7.25
356.634	8.25
357.422	5.25
358.209	7.25
358.997	6.25
359.784	8.25
360.571	8.25
361.359	5.25
362.146	7.25
362.933	5.25
363.72	8.25
364.507	6.25
365.294	6.25
366.081	4.25
366.867	4.25
367.654	4.25
368.44	6.25
369.227	7.25
370.013	9.25
370.8	6.25
371.586	6.25
372.372	5.25
373.158	6.25
373.944	6.25
374.73	5.25
375.516	9.25
376.302	4.25
377.088	7.25
377.873	7.25
378.659	7.25
379.445	6.25
380.23	6.25
381.015	9.25
381.801	6.25
382.586	7.25
383.371	7.25
384.156	5.25
384.941	8.25
385.726	7.25
386.511	5.25
387.296	8.25
388.08	10.25
388.865	8.25
389.649	5.25
390.434	8.25
391.218	6.25
392.003	8.25
392.787	8.25
393.571	9.25
394.355	9.25
395.139	7.25
395.923	10.25
396.707	7.25
397.491	10.25
398.274	9.25
399.058	9.25
399.842	7.25
400.625	9.25
401.408	12.25
402.192	10.25
402.975	11.25
403.758	9.25
404.541	10.25
405.324	9.25
406.107	10.25
406.89	12.25
407.673	10.25
408.456	10.25
409.238	9.25
410.021	8.25
410.803	14.25
411.586	11.25
412.368	10.25
413.151	12.25
413.933	13.25
414.715	9.25
415.497	12.25
416.279	10.25
417.061	12.25
417.843	13.25
418.624	11.25
419.406	11.25
420.188	15.25
420.969	12.25
421.751	15.25
422.532	14.25
423.313	15.25
424.095	16.25
424.876	16.25
425.657	17.25
426.438	19.25
427.219	16.25
428	17.25
428.78	14.25
429.561	18.25
430.342	19.25
431.122	18.25
431.903	24.25
432.683	20.25
433.464	23.25
434.244	24.25
435.024	22.25
435.804	30.25
436.584	26.25
437.364	28.25
438.144	28.25
438.924	30.25
439.704	32.25
440.483	32.25
441.263	33.25
442.042	39.25
442.822	39.25
443.601	44.25
444.38	47.25
445.16	50.25
445.939	50.25
446.718	56.25
447.497	62.25
448.276	72.25
449.054	78.25
449.833	83.25
450.612	88.25
451.391	98.25
452.169	106.25
452.948	122.25
453.726	131.25
454.504	144.25
455.282	157.25
456.061	171.25
456.839	194.25
457.617	222.25
458.395	246.25
459.172	278.25
459.95	301.25
460.728	342.25
461.506	379.25
462.283	415.25
463.061	461.25
463.838	520.25
464.615	582.25
465.393	642.25
466.17	710.25
466.947	784.25
467.724	865.25
468.501	982.25
469.278	1088.25
470.055	1183.25
470.831	1318.25
471.608	1465.25
472.385	1609.25
473.161	1775.25
473.938	1955.25
474.714	2157.25
475.49	2386.25
476.266	2592.25
477.043	2874.25
477.819	3146.25
478.595	3473.25
479.371	3787.25
480.146	4130.25
480.922	4512.25
481.698	4929.25
482.473	5372.25
483.249	5878.25
484.024	6444.25
484.8	7003.25
485.575	7641.25
486.35	8302.25
487.126	9010.25
487.901	9762.25
488.676	10590.25
489.451	11549.25
490.225	12449.25
491	13507.25
491.775	14560.25
492.55	15700.25
493.324	16890.25
494.099	18077.25
494.873	19263.25
495.647	20547.25
496.422	21817.25
497.196	23213.25
497.97	24674.25
498.744	25918.25
499.518	27274.25
500.292	28475.25
501.066	29532.25
501.839	30640.25
502.613	31643.25
503.387	32348.25
504.16	32910.25
504.934	33528.25
505.707	33624.25
506.48	33671.25
507.253	33562.25
508.027	33350.25
508.8	32983.25
509.573	32432.25
510.346	31765.25
511.118	31012.25
511.891	30093.25
512.664	29181.25
513.437	28203.25
514.209	27134.25
514.982	26182.25
515.754	25219.25
516.526	24117.25
517.298	23137.25
518.071	22180.25
518.843	21301.25
519.615	20406.25
520.387	19598.25
521.159	18913.25
521.93	18206.25
522.702	17433.25
523.474	16759.25
524.245	16112.25
525.017	15392.25
525.788	14662.25
526.56	14034.25
527.331	13422.25
528.102	12824.25
528.873	12219.25
529.644	11637.25
530.415	11181.25
531.186	10660.25
531.957	10112.25
532.728	9588.25
533.498	9072.25
534.269	8549.25
535.039	8103.25
535.81	7706.25
536.58	7249.25
537.351	6855.25
538.121	6508.25
538.891	6150.25
539.661	5810.25
540.431	5532.25
541.201	5229.25
541.971	4973.25
542.741	4720.25
543.51	4457.25
544.28	4242.25
545.05	4052.25
545.819	3832.25
546.588	3653.25
547.358	3458.25
548.127	3276.25
548.896	3121.25
549.665	2957.25
550.434	2821.25
551.203	2679.25
551.972	2517.25
552.741	2411.25
553.51	2258.25
554.278	2145.25
555.047	2016.25
555.815	1904.25
556.584	1794.25
557.352	1696.25
558.121	1601.25
558.889	1526.25
559.657	1437.25
560.425	1352.25
561.193	1271.25
561.961	1217.25
562.729	1143.25
563.496	1088.25
564.264	1025.25
565.032	965.25
565.799	932.25
566.567	861.25
567.334	821.25
568.101	787.25
568.869	738.25
569.636	690.25
570.403	640.25
571.17	603.25
571.937	576.25
572.704	554.25
573.471	519.25
574.237	487.25
575.004	457.25
575.771	435.25
576.537	417.25
577.303	391.25
578.07	365.25
578.836	337.25
579.602	317.25
580.368	303.25
581.134	292.25
581.9	276.25
582.666	265.25
583.432	254.25
584.198	236.25
584.964	224.25
585.729	214.25
586.495	198.25
587.26	189.25
588.025	176.25
588.791	170.25
589.556	159.25
590.321	145.25
591.086	143.25
591.851	135.25
592.616	129.25
593.381	123.25
594.146	115.25
594.911	111.25
595.675	109.25
596.44	104.25
597.204	98.25
597.969	91.25
598.733	87.25
599.497	86.25
600.261	82.25
601.025	75.25
601.79	77.25
602.553	72.25
603.317	69.25
604.081	63.25
604.845	62.25
605.609	57.25
606.372	57.25
607.136	56.25
607.899	57.25
608.662	52.25
609.426	52.25
610.189	48.25
610.952	46.25
611.715	44.25
612.478	45.25
613.241	40.25
614.004	43.25
614.767	36.25
615.529	37.25
616.292	34.25
617.055	34.25
617.817	33.25
618.579	31.25
619.342	29.25
620.104	31.25
620.866	31.25
621.628	28.25
622.39	27.25
623.152	28.25
623.914	26.25
624.676	24.25
625.438	23.25
626.199	21.25
626.961	19.25
627.722	23.25
628.484	19.25
629.245	20.25
630.006	20.25
630.768	18.25
631.529	17.25
632.29	16.25
633.051	15.25
633.812	16.25
634.573	16.25
635.333	16.25
636.094	16.25
636.855	15.25
637.615	16.25
638.376	14.25
639.136	12.25
639.896	12.25
640.657	13.25
641.417	12.25
642.177	12.25
642.937	11.25
643.697	15.25
644.457	12.25
645.216	10.25
645.976	10.25
646.736	12.25
647.495	10.25
648.255	10.25
649.014	11.25
649.774	13.25
650.533	6.25
651.292	10.25
652.051	9.25
652.81	8.25
653.569	7.25
654.328	8.25
655.087	8.25
655.846	10.25
656.604	7.25
657.363	7.25
658.121	8.25
658.88	8.25
659.638	6.25
660.397	9.25
661.155	7.25
661.913	8.25
662.671	7.25
663.429	6.25
664.187	3.25
664.945	8.25
665.703	6.25
666.46	8.25
667.218	9.25
667.976	6.25
668.733	7.25
669.49	7.25
670.248	7.25
671.005	4.25
671.762	5.25
672.519	7.25
673.276	6.25
674.033	5.25
674.79	6.25
675.547	4.25
676.304	5.25
677.06	7.25
677.817	6.25
678.574	5.25
679.33	4.25
680.086	5.25
680.843	6.25
681.599	7.25
682.355	5.25
683.111	6.25
683.867	6.25
684.623	3.25
685.379	5.25
686.135	6.25
686.89	4.25
687.646	5.25
688.402	5.25
689.157	5.25
689.912	3.25
690.668	4.25
691.423	5.25
692.178	7.25
692.933	4.25
693.688	7.25
694.443	5.25
695.198	5.25
695.953	5.25
696.708	6.25
697.462	5.25
698.217	5.25
698.972	6.25
699.726	4.25
700.48	5.25
701.235	4.25
701.989	5.25
702.743	6.25
703.497	4.25
704.251	4.25
705.005	2.25
705.759	6.25
706.513	7.25
707.266	5.25
708.02	6.25
708.774	5.25
709.527	3.25
710.28	4.25
711.034	5.25
711.787	5.25
712.54	4.25
713.293	5.25
714.046	3.25
714.799	5.25
715.552	5.25
716.305	5.25
717.058	6.25
717.81	4.25
718.563	3.25
719.315	5.25
720.068	5.25
720.82	4.25
721.573	6.25
722.325	7.25
723.077	7.25
723.829	6.25
724.581	7.25
725.333	5.25
726.085	6.25
726.836	5.25
727.588	5.25
728.34	5.25
729.091	2.25
729.843	5.25
730.594	6.25
731.346	4.25
732.097	4.25
732.848	5.25
733.599	5.25
734.35	4.25
735.101	8.25
735.852	2.25
736.603	6.25
737.354	6.25
738.104	6.25
738.855	5.25
739.605	5.25
740.356	7.25
741.106	6.25
741.856	6.25
742.607	7.25
743.357	6.25
744.107	5.25
744.857	6.25
745.607	6.25
746.357	3.25
747.106	6.25
747.856	7.25
748.606	7.25
749.355	8.25
750.105	6.25
750.854	7.25
751.603	7.25
752.353	5.25
753.102	8.25
753.851	8.25
754.6	6.25
755.349	8.25
756.098	8.25
756.847	4.25
757.595	6.25
758.344	8.25
759.093	9.25
759.841	6.25
760.589	7.25
761.338	8.25
762.086	12.25
762.834	6.25
763.582	9.25
764.331	8.25
765.079	8.25
765.826	8.25
766.574	8.25
767.322	8.25
768.07	8.25
768.817	12.25
769.565	9.25
770.312	9.25
771.06	10.25
771.807	7.25
772.554	10.25
773.302	11.25
774.049	10.25
774.796	8.25
775.543	11.25
776.29	10.25
777.036	9.25
777.783	13.25
778.53	10.25
779.276	11.25
780.023	8.25
780.769	10.25
781.516	11.25
782.262	10.25
783.008	9.25
783.754	11.25
784.5	12.25
785.246	12.25
785.992	10.25
786.738	10.25
787.484	10.25
788.23	12.25
788.975	12.25
789.721	10.25
790.466	11.25
791.212	12.25
791.957	9.25
792.702	12.25
793.447	10.25
794.193	10.25
794.938	10.25
795.683	11.25
796.427	10.25
797.172	10.25
797.917	12.25
798.662	10.25
799.406	12.25
800.151	8.25
800.895	8.25
801.64	8.25
802.384	9.25
803.128	9.25
803.872	7.25
804.616	11.25
805.36	7.25
806.104	9.25
806.848	9.25
807.592	5.25
808.336	10.25
809.079	7.25
809.823	4.25
810.566	8.25
811.31	9.25
812.053	6.25
812.796	6.25
813.539	7.25
814.283	6.25
815.026	7.25
815.769	6.25
816.511	6.25
817.254	6.25
817.997	6.25
818.74	7.25
819.482	7.25
820.225	6.25
820.967	7.25
821.71	4.25
822.452	6.25
823.194	5.25
823.936	4.25
824.678	4.25
825.42	2.25
826.162	4.25
826.904	5.25
827.646	6.25
828.388	7.25
829.129	4.25
829.871	7.25
830.612	4.25
831.354	7.25
832.095	3.25
832.836	4.25
833.577	4.25
834.319	3.25
835.06	3.25
835.801	3.25
836.542	7.25
837.282	3.25
838.023	4.25
838.764	3.25
839.504	4.25
840.245	3.25
840.985	5.25
841.726	4.25
842.466	3.25
843.206	7.25
843.946	2.25
844.687	3.25
845.427	4.25
846.166	4.25
846.906	5.25
847.646	2.25
848.386	2.25
849.125	4.25
849.865	2.25
850.605	2.25
851.344	6.25
852.083	3.25
852.823	4.25
853.562	2.25
854.301	5.25
855.04	2.25
855.779	5.25
856.518	1.25
857.257	3.25
857.995	2.25
858.734	2.25
859.473	4.25
860.211	4.25
860.95	0.25
861.688	4.25
862.426	2.25
863.165	2.25
863.903	2.25
864.641	2.25
865.379	2.25
866.117	2.25
866.855	3.25
867.593	3.25
868.33	0.25
869.068	0.25
869.806	1.25
870.543	1.25
871.28	1.25
872.018	1.25
872.755	1.25
873.492	1.25
874.229	1.25
874.967	-0.75
875.703	1.25
876.44	1.25
877.177	4.25
877.914	1.25
878.651	-1.75
879.387	2.25
880.124	4.25
880.86	-0.75
881.597	0.25
882.333	0.25
883.069	1.25
883.806	1.25
884.542	3.25
885.278	1.25
886.014	1.25
886.749	1.25
887.485	0.25
888.221	0.25
888.957	1.25
889.692	2.25
890.428	2.25
891.163	4.25
891.899	1.25
892.634	0.25
893.369	1.25
894.104	-0.75
894.839	1.25
895.574	0.25
896.309	-0.75
897.044	2.25
897.779	0.25
898.514	2.25
899.248	-1.75
899.983	0.25
900.717	0.25
901.452	0.25
902.186	2.25
902.92	1.25
903.654	0.25
904.389	-0.75
905.123	0.25
905.857	0.25
906.59	-2.75
907.324	1.25
908.058	-0.75
908.792	2.25
909.525	1.25
910.259	1.25
910.992	1.25
911.726	2.25
912.459	0.25
913.192	2.25
913.925	0.25
914.658	1.25
915.391	0.25
916.124	3.25
916.857	0.25
917.59	0.25
918.323	2.25
919.055	1.25
919.788	1.25
920.521	-1.75
921.253	2.25
921.985	1.25
922.718	-0.75
923.45	1.25
924.182	-0.75
924.914	1.25
925.646	3.25
926.378	0.25
927.11	0.25
927.841	1.25
928.573	3.25
929.305	0.25
930.036	0.25
930.768	1.25
931.499	-0.75
932.23	1.25
932.962	-1.75
933.693	-0.75
934.424	2.25
935.155	1.25
935.886	2.25
936.617	0.25
937.348	-1.75
938.078	-2.75
938.809	2.25
939.54	-1.75
940.27	0.25
941.001	-2.75
941.731	-0.75
942.461	2.25
943.191	-0.75
943.922	1.25
944.652	2.25
945.382	1.25
946.112	2.25
946.841	-1.75
947.571	1.25
948.301	-2.75
949.031	0.25
949.76	1.25
950.49	0.25
951.219	-0.75
951.948	-0.75
952.678	0.25
953.407	-0.75
954.136	0.25
954.865	0.25
955.594	1.25
956.323	0.25
957.052	0.25
957.78	-1.75
958.509	2.25
959.238	0.25
959.966	0.25
960.695	0.25
961.423	1.25
962.151	0.25
962.88	-0.75
963.608	1.25
964.336	-3.75
965.064	0.25
965.792	0.25
966.52	0.25
967.247	0.25
967.975	0.25
968.703	1.25
969.43	-1.75
970.158	0.25
970.885	0.25
971.613	0.25
972.34	2.25
973.067	-1.75
973.794	0.25
974.521	1.25
975.248	-0.75
975.975	0.25
976.702	0.25
977.429	0.25
978.156	-0.75
978.882	1.25
979.609	1.25
980.335	0.25
981.062	2.25
981.788	0.25
982.514	0.25
983.24	-0.75
983.967	0.25
984.693	0.25
985.419	0.25
986.144	1.25
986.87	-1.75
987.596	-0.75
988.322	0.25
989.047	0.25
989.773	2.25
990.498	1.25
991.224	2.25
991.949	-1.75
992.674	2.25
993.399	1.25
994.124	2.25
994.849	1.25
995.574	0.25
996.299	0.25
997.024	0.25
997.749	-0.75
998.473	2.25
999.198	-0.75
999.922	1.25
1000.647	2.25
1001.371	3.25
1002.095	-0.75
1002.82	-0.75
1003.544	-2.75
1004.268	1.25
1004.992	3.25
1005.716	2.25
1006.439	2.25
1007.163	2.25
1007.887	2.25
1008.611	1.25
1009.334	0.25
1010.058	-0.75
1010.781	1.25
1011.504	1.25
1012.228	0.25
1012.951	0.25
1013.674	-0.75
1014.397	0.25
1015.12	1.25
