节点500_425_QEPB04081__80__15-49-38-365.txt的数据

Date: Wed Nov 12 15:49:38 CST 2025
User: PC
Spectrometer: QEPB0408
触发模式: 0
积分时间 (秒): 1.000000E-2
Scans to average: 1
启用暗噪声校正: true
启用非线性校正: false
滑动平均宽度: 0
X轴模式: Wavelengths
Number of Pixels in Spectrum: 1044
>>>>>Begin Spectral Data<<<<<
220.843	2.88
221.644	2.88
222.444	2.88
223.244	1.88
224.045	6.88
224.845	1.88
225.645	2.88
226.445	4.88
227.245	-0.12
228.045	2.88
228.845	3.88
229.645	6.88
230.444	4.88
231.244	4.88
232.043	4.88
232.843	4.88
233.642	5.88
234.442	3.88
235.241	6.88
236.04	4.88
236.839	3.88
237.638	5.88
238.437	4.88
239.236	8.88
240.035	5.88
240.833	5.88
241.632	7.88
242.43	3.88
243.229	6.88
244.027	3.88
244.826	7.88
245.624	11.88
246.422	9.88
247.22	9.88
248.018	9.88
248.816	10.88
249.614	9.88
250.412	10.88
251.21	9.88
252.007	9.88
252.805	9.88
253.602	12.88
254.4	11.88
255.197	11.88
255.994	11.88
256.791	12.88
257.589	14.88
258.386	14.88
259.183	14.88
259.979	13.88
260.776	15.88
261.573	12.88
262.37	17.88
263.166	16.88
263.963	17.88
264.759	17.88
265.556	16.88
266.352	20.88
267.148	17.88
267.944	21.88
268.74	21.88
269.536	19.88
270.332	20.88
271.128	22.88
271.924	22.88
272.719	23.88
273.515	25.88
274.311	25.88
275.106	28.88
275.901	21.88
276.697	24.88
277.492	27.88
278.287	25.88
279.082	26.88
279.877	24.88
280.672	26.88
281.467	23.88
282.262	23.88
283.056	25.88
283.851	22.88
284.646	26.88
285.44	26.88
286.234	24.88
287.029	23.88
287.823	26.88
288.617	21.88
289.411	22.88
290.205	23.88
290.999	25.88
291.793	23.88
292.587	24.88
293.381	21.88
294.174	23.88
294.968	23.88
295.761	20.88
296.555	20.88
297.348	17.88
298.141	22.88
298.935	22.88
299.728	18.88
300.521	17.88
301.314	17.88
302.107	18.88
302.899	15.88
303.692	15.88
304.485	14.88
305.277	16.88
306.07	19.88
306.862	15.88
307.655	15.88
308.447	14.88
309.239	11.88
310.031	13.88
310.823	14.88
311.615	13.88
312.407	12.88
313.199	13.88
313.991	9.88
314.783	13.88
315.574	12.88
316.366	12.88
317.157	12.88
317.949	9.88
318.74	11.88
319.531	11.88
320.322	8.88
321.113	8.88
321.904	9.88
322.695	8.88
323.486	9.88
324.277	9.88
325.068	10.88
325.858	8.88
326.649	9.88
327.439	9.88
328.23	6.88
329.02	9.88
329.81	6.88
330.6	9.88
331.391	6.88
332.181	8.88
332.971	6.88
333.76	9.88
334.55	7.88
335.34	8.88
336.13	10.88
336.919	10.88
337.709	7.88
338.498	11.88
339.287	8.88
340.077	7.88
340.866	6.88
341.655	7.88
342.444	5.88
343.233	9.88
344.022	8.88
344.811	8.88
345.6	8.88
346.388	7.88
347.177	7.88
347.965	8.88
348.754	5.88
349.542	7.88
350.33	8.88
351.119	6.88
351.907	9.88
352.695	5.88
353.483	7.88
354.271	7.88
355.059	5.88
355.846	5.88
356.634	7.88
357.422	9.88
358.209	7.88
358.997	6.88
359.784	7.88
360.571	7.88
361.359	5.88
362.146	8.88
362.933	6.88
363.72	4.88
364.507	6.88
365.294	6.88
366.081	7.88
366.867	8.88
367.654	5.88
368.44	7.88
369.227	5.88
370.013	6.88
370.8	6.88
371.586	7.88
372.372	6.88
373.158	4.88
373.944	6.88
374.73	6.88
375.516	9.88
376.302	5.88
377.088	6.88
377.873	8.88
378.659	5.88
379.445	5.88
380.23	5.88
381.015	6.88
381.801	6.88
382.586	6.88
383.371	7.88
384.156	7.88
384.941	4.88
385.726	7.88
386.511	7.88
387.296	7.88
388.08	8.88
388.865	8.88
389.649	5.88
390.434	7.88
391.218	5.88
392.003	6.88
392.787	7.88
393.571	6.88
394.355	7.88
395.139	8.88
395.923	6.88
396.707	9.88
397.491	7.88
398.274	7.88
399.058	6.88
399.842	8.88
400.625	9.88
401.408	8.88
402.192	8.88
402.975	9.88
403.758	11.88
404.541	9.88
405.324	10.88
406.107	10.88
406.89	10.88
407.673	9.88
408.456	10.88
409.238	10.88
410.021	10.88
410.803	9.88
411.586	13.88
412.368	9.88
413.151	12.88
413.933	12.88
414.715	12.88
415.497	10.88
416.279	9.88
417.061	11.88
417.843	12.88
418.624	16.88
419.406	15.88
420.188	12.88
420.969	12.88
421.751	15.88
422.532	12.88
423.313	14.88
424.095	13.88
424.876	15.88
425.657	16.88
426.438	14.88
427.219	13.88
428	17.88
428.78	18.88
429.561	18.88
430.342	19.88
431.122	20.88
431.903	20.88
432.683	22.88
433.464	18.88
434.244	22.88
435.024	24.88
435.804	25.88
436.584	26.88
437.364	28.88
438.144	27.88
438.924	28.88
439.704	29.88
440.483	31.88
441.263	35.88
442.042	36.88
442.822	40.88
443.601	41.88
444.38	44.88
445.16	48.88
445.939	52.88
446.718	54.88
447.497	55.88
448.276	59.88
449.054	67.88
449.833	75.88
450.612	81.88
451.391	90.88
452.169	92.88
452.948	105.88
453.726	116.88
454.504	127.88
455.282	142.88
456.061	156.88
456.839	181.88
457.617	196.88
458.395	216.88
459.172	231.88
459.95	266.88
460.728	296.88
461.506	328.88
462.283	376.88
463.061	421.88
463.838	472.88
464.615	529.88
465.393	591.88
466.17	658.88
466.947	727.88
467.724	814.88
468.501	903.88
469.278	1013.88
470.055	1129.88
470.831	1246.88
471.608	1408.88
472.385	1556.88
473.161	1725.88
473.938	1933.88
474.714	2136.88
475.49	2355.88
476.266	2603.88
477.043	2896.88
477.819	3203.88
478.595	3542.88
479.371	3933.88
480.146	4300.88
480.922	4743.88
481.698	5227.88
482.473	5797.88
483.249	6372.88
484.024	6999.88
484.8	7729.88
485.575	8454.88
486.35	9243.88
487.126	10189.88
487.901	11100.88
488.676	12138.88
489.451	13288.88
490.225	14435.88
491	15675.88
491.775	17070.88
492.55	18448.88
493.324	19933.88
494.099	21335.88
494.873	22795.88
495.647	24415.88
496.422	25913.88
497.196	27416.88
497.97	29078.88
498.744	30653.88
499.518	32050.88
500.292	33254.88
501.066	34317.88
501.839	35361.88
502.613	36173.88
503.387	36830.88
504.16	37111.88
504.934	37234.88
505.707	37236.88
506.48	36830.88
507.253	36349.88
508.027	35696.88
508.8	34927.88
509.573	33995.88
510.346	32948.88
511.118	31904.88
511.891	30711.88
512.664	29449.88
513.437	28178.88
514.209	26992.88
514.982	25948.88
515.754	24815.88
516.526	23664.88
517.298	22702.88
518.071	21704.88
518.843	20787.88
519.615	19937.88
520.387	19130.88
521.159	18397.88
521.93	17729.88
522.702	17104.88
523.474	16341.88
524.245	15640.88
525.017	14881.88
525.788	14252.88
526.56	13605.88
527.331	12935.88
528.102	12315.88
528.873	11676.88
529.644	11099.88
530.415	10570.88
531.186	10014.88
531.957	9490.88
532.728	8966.88
533.498	8457.88
534.269	7953.88
535.039	7534.88
535.81	7126.88
536.58	6734.88
537.351	6346.88
538.121	5987.88
538.891	5713.88
539.661	5396.88
540.431	5125.88
541.201	4796.88
541.971	4595.88
542.741	4331.88
543.51	4109.88
544.28	3909.88
545.05	3717.88
545.819	3563.88
546.588	3370.88
547.358	3191.88
548.127	3036.88
548.896	2873.88
549.665	2735.88
550.434	2567.88
551.203	2458.88
551.972	2316.88
552.741	2192.88
553.51	2067.88
554.278	1925.88
555.047	1827.88
555.815	1732.88
556.584	1642.88
557.352	1526.88
558.121	1452.88
558.889	1378.88
559.657	1284.88
560.425	1214.88
561.193	1164.88
561.961	1083.88
562.729	1037.88
563.496	989.88
564.264	937.88
565.032	877.88
565.799	831.88
566.567	781.88
567.334	737.88
568.101	691.88
568.869	662.88
569.636	615.88
570.403	589.88
571.17	558.88
571.937	523.88
572.704	490.88
573.471	470.88
574.237	432.88
575.004	411.88
575.771	386.88
576.537	369.88
577.303	344.88
578.07	329.88
578.836	306.88
579.602	289.88
580.368	271.88
581.134	269.88
581.9	243.88
582.666	241.88
583.432	218.88
584.198	208.88
584.964	200.88
585.729	189.88
586.495	177.88
587.26	171.88
588.025	163.88
588.791	158.88
589.556	146.88
590.321	139.88
591.086	125.88
591.851	127.88
592.616	121.88
593.381	113.88
594.146	111.88
594.911	102.88
595.675	98.88
596.44	93.88
597.204	89.88
597.969	82.88
598.733	82.88
599.497	74.88
600.261	76.88
601.025	71.88
601.79	71.88
602.553	66.88
603.317	63.88
604.081	60.88
604.845	55.88
605.609	57.88
606.372	54.88
607.136	52.88
607.899	50.88
608.662	49.88
609.426	46.88
610.189	44.88
610.952	43.88
611.715	38.88
612.478	37.88
613.241	40.88
614.004	35.88
614.767	36.88
615.529	29.88
616.292	27.88
617.055	31.88
617.817	29.88
618.579	29.88
619.342	27.88
620.104	26.88
620.866	26.88
621.628	26.88
622.39	25.88
623.152	24.88
623.914	22.88
624.676	20.88
625.438	21.88
626.199	20.88
626.961	21.88
627.722	18.88
628.484	19.88
629.245	20.88
630.006	16.88
630.768	13.88
631.529	17.88
632.29	17.88
633.051	16.88
633.812	14.88
634.573	12.88
635.333	16.88
636.094	14.88
636.855	13.88
637.615	13.88
638.376	13.88
639.136	12.88
639.896	12.88
640.657	14.88
641.417	12.88
642.177	12.88
642.937	11.88
643.697	9.88
644.457	10.88
645.216	11.88
645.976	11.88
646.736	11.88
647.495	9.88
648.255	10.88
649.014	6.88
649.774	9.88
650.533	7.88
651.292	9.88
652.051	7.88
652.81	6.88
653.569	8.88
654.328	8.88
655.087	8.88
655.846	8.88
656.604	7.88
657.363	8.88
658.121	6.88
658.88	9.88
659.638	6.88
660.397	5.88
661.155	6.88
661.913	7.88
662.671	6.88
663.429	7.88
664.187	6.88
664.945	6.88
665.703	6.88
666.46	5.88
667.218	5.88
667.976	10.88
668.733	7.88
669.49	6.88
670.248	6.88
671.005	7.88
671.762	7.88
672.519	5.88
673.276	6.88
674.033	6.88
674.79	4.88
675.547	5.88
676.304	5.88
677.06	9.88
677.817	5.88
678.574	5.88
679.33	5.88
680.086	5.88
680.843	4.88
681.599	4.88
682.355	6.88
683.111	7.88
683.867	2.88
684.623	6.88
685.379	3.88
686.135	6.88
686.89	5.88
687.646	5.88
688.402	3.88
689.157	6.88
689.912	5.88
690.668	4.88
691.423	7.88
692.178	2.88
692.933	3.88
693.688	4.88
694.443	4.88
695.198	4.88
695.953	3.88
696.708	4.88
697.462	4.88
698.217	4.88
698.972	4.88
699.726	2.88
700.48	5.88
701.235	5.88
701.989	3.88
702.743	4.88
703.497	2.88
704.251	3.88
705.005	2.88
705.759	1.88
706.513	5.88
707.266	2.88
708.02	4.88
708.774	4.88
709.527	4.88
710.28	3.88
711.034	4.88
711.787	6.88
712.54	4.88
713.293	4.88
714.046	4.88
714.799	2.88
715.552	3.88
716.305	3.88
717.058	6.88
717.81	4.88
718.563	4.88
719.315	6.88
720.068	7.88
720.82	5.88
721.573	6.88
722.325	6.88
723.077	4.88
723.829	4.88
724.581	3.88
725.333	7.88
726.085	4.88
726.836	3.88
727.588	5.88
728.34	3.88
729.091	6.88
729.843	7.88
730.594	5.88
731.346	6.88
732.097	4.88
732.848	4.88
733.599	5.88
734.35	4.88
735.101	3.88
735.852	5.88
736.603	8.88
737.354	5.88
738.104	5.88
738.855	4.88
739.605	5.88
740.356	6.88
741.106	6.88
741.856	8.88
742.607	6.88
743.357	6.88
744.107	5.88
744.857	7.88
745.607	7.88
746.357	7.88
747.106	7.88
747.856	4.88
748.606	5.88
749.355	7.88
750.105	7.88
750.854	8.88
751.603	6.88
752.353	10.88
753.102	6.88
753.851	7.88
754.6	8.88
755.349	7.88
756.098	9.88
756.847	7.88
757.595	8.88
758.344	7.88
759.093	9.88
759.841	10.88
760.589	8.88
761.338	7.88
762.086	7.88
762.834	7.88
763.582	8.88
764.331	9.88
765.079	9.88
765.826	8.88
766.574	10.88
767.322	10.88
768.07	9.88
768.817	7.88
769.565	10.88
770.312	10.88
771.06	10.88
771.807	9.88
772.554	10.88
773.302	8.88
774.049	10.88
774.796	9.88
775.543	11.88
776.29	11.88
777.036	11.88
777.783	14.88
778.53	8.88
779.276	11.88
780.023	12.88
780.769	10.88
781.516	10.88
782.262	11.88
783.008	13.88
783.754	12.88
784.5	9.88
785.246	11.88
785.992	8.88
786.738	13.88
787.484	13.88
788.23	11.88
788.975	9.88
789.721	9.88
790.466	11.88
791.212	10.88
791.957	13.88
792.702	11.88
793.447	9.88
794.193	10.88
794.938	11.88
795.683	9.88
796.427	9.88
797.172	9.88
797.917	10.88
798.662	8.88
799.406	7.88
800.151	8.88
800.895	8.88
801.64	7.88
802.384	9.88
803.128	8.88
803.872	6.88
804.616	9.88
805.36	8.88
806.104	9.88
806.848	6.88
807.592	8.88
808.336	6.88
809.079	6.88
809.823	6.88
810.566	5.88
811.31	4.88
812.053	5.88
812.796	5.88
813.539	7.88
814.283	6.88
815.026	6.88
815.769	6.88
816.511	6.88
817.254	5.88
817.997	4.88
818.74	4.88
819.482	7.88
820.225	5.88
820.967	4.88
821.71	6.88
822.452	5.88
823.194	2.88
823.936	5.88
824.678	7.88
825.42	6.88
826.162	3.88
826.904	4.88
827.646	4.88
828.388	4.88
829.129	3.88
829.871	5.88
830.612	4.88
831.354	4.88
832.095	4.88
832.836	5.88
833.577	3.88
834.319	4.88
835.06	2.88
835.801	1.88
836.542	1.88
837.282	3.88
838.023	2.88
838.764	2.88
839.504	4.88
840.245	5.88
840.985	4.88
841.726	5.88
842.466	1.88
843.206	3.88
843.946	3.88
844.687	2.88
845.427	2.88
846.166	3.88
846.906	2.88
847.646	3.88
848.386	3.88
849.125	4.88
849.865	1.88
850.605	4.88
851.344	1.88
852.083	2.88
852.823	2.88
853.562	3.88
854.301	3.88
855.04	1.88
855.779	4.88
856.518	0.88
857.257	2.88
857.995	4.88
858.734	3.88
859.473	1.88
860.211	0.88
860.95	0.88
861.688	2.88
862.426	0.88
863.165	1.88
863.903	1.88
864.641	2.88
865.379	0.88
866.117	0.88
866.855	3.88
867.593	3.88
868.33	0.88
869.068	0.88
869.806	1.88
870.543	-1.12
871.28	2.88
872.018	0.88
872.755	0.88
873.492	2.88
874.229	0.88
874.967	0.88
875.703	1.88
876.44	-0.12
877.177	0.88
877.914	1.88
878.651	1.88
879.387	1.88
880.124	-0.12
880.86	-1.12
881.597	0.88
882.333	2.88
883.069	0.88
883.806	1.88
884.542	-1.12
885.278	0.88
886.014	2.88
886.749	-0.12
887.485	-0.12
888.221	1.88
888.957	-0.12
889.692	1.88
890.428	-0.12
891.163	-0.12
891.899	-2.12
892.634	1.88
893.369	1.88
894.104	-1.12
894.839	0.88
895.574	-2.12
896.309	-0.12
897.044	-1.12
897.779	1.88
898.514	-1.12
899.248	-0.12
899.983	-0.12
900.717	-0.12
901.452	0.88
902.186	-1.12
902.92	0.88
903.654	0.88
904.389	0.88
905.123	1.88
905.857	-1.12
906.59	-1.12
907.324	1.88
908.058	-0.12
908.792	1.88
909.525	0.88
910.259	-0.12
910.992	0.88
911.726	-2.12
912.459	1.88
913.192	-1.12
913.925	-0.12
914.658	0.88
915.391	2.88
916.124	-1.12
916.857	-1.12
917.59	-0.12
918.323	-1.12
919.055	0.88
919.788	0.88
920.521	-0.12
921.253	-0.12
921.985	1.88
922.718	2.88
923.45	-1.12
924.182	0.88
924.914	1.88
925.646	-1.12
926.378	1.88
927.11	-0.12
927.841	-2.12
928.573	-1.12
929.305	1.88
930.036	0.88
930.768	0.88
931.499	0.88
932.23	0.88
932.962	0.88
933.693	-2.12
934.424	0.88
935.155	-1.12
935.886	-0.12
936.617	-0.12
937.348	-0.12
938.078	-0.12
938.809	1.88
939.54	-0.12
940.27	0.88
941.001	1.88
941.731	-1.12
942.461	-1.12
943.191	0.88
943.922	-0.12
944.652	0.88
945.382	0.88
946.112	-0.12
946.841	-0.12
947.571	-1.12
948.301	-0.12
949.031	-1.12
949.76	1.88
950.49	1.88
951.219	-0.12
951.948	-0.12
952.678	-1.12
953.407	1.88
954.136	-1.12
954.865	-1.12
955.594	-0.12
956.323	0.88
957.052	-0.12
957.78	-0.12
958.509	-0.12
959.238	0.88
959.966	1.88
960.695	-1.12
961.423	-1.12
962.151	-2.12
962.88	2.88
963.608	-1.12
964.336	2.88
965.064	0.88
965.792	-0.12
966.52	1.88
967.247	-1.12
967.975	1.88
968.703	1.88
969.43	-2.12
970.158	-1.12
970.885	0.88
971.613	-1.12
972.34	-1.12
973.067	-0.12
973.794	-0.12
974.521	-0.12
975.248	-0.12
975.975	0.88
976.702	0.88
977.429	-0.12
978.156	0.88
978.882	-1.12
979.609	-0.12
980.335	0.88
981.062	-1.12
981.788	0.88
982.514	-1.12
983.24	0.88
983.967	-0.12
984.693	-2.12
985.419	-1.12
986.144	-1.12
986.87	-0.12
987.596	-0.12
988.322	0.88
989.047	-0.12
989.773	-2.12
990.498	-0.12
991.224	-0.12
991.949	0.88
992.674	0.88
993.399	-0.12
994.124	-1.12
994.849	-2.12
995.574	-0.12
996.299	-1.12
997.024	-0.12
997.749	-0.12
998.473	0.88
999.198	-0.12
999.922	-0.12
1000.647	0.88
1001.371	3.88
1002.095	-0.12
1002.82	-2.12
1003.544	-2.12
1004.268	3.88
1004.992	2.88
1005.716	-0.12
1006.439	1.88
1007.163	2.88
1007.887	3.88
1008.611	-0.12
1009.334	-1.12
1010.058	1.88
1010.781	-1.12
1011.504	1.88
1012.228	0.88
1012.951	-0.12
1013.674	-0.12
1014.397	0.88
1015.12	-0.12
