节点500_425_QEPB04081__342__15-53-59-786.txt的数据

Date: Wed Nov 12 15:53:59 CST 2025
User: PC
Spectrometer: QEPB0408
触发模式: 0
积分时间 (秒): 1.000000E-2
Scans to average: 1
启用暗噪声校正: true
启用非线性校正: false
滑动平均宽度: 0
X轴模式: Wavelengths
Number of Pixels in Spectrum: 1044
>>>>>Begin Spectral Data<<<<<
220.843	3.38
221.644	1.38
222.444	4.38
223.244	2.38
224.045	4.38
224.845	2.38
225.645	1.38
226.445	5.38
227.245	4.38
228.045	5.38
228.845	2.38
229.645	5.38
230.444	6.38
231.244	4.38
232.043	4.38
232.843	4.38
233.642	6.38
234.442	9.38
235.241	5.38
236.04	7.38
236.839	7.38
237.638	6.38
238.437	5.38
239.236	4.38
240.035	9.38
240.833	7.38
241.632	8.38
242.43	7.38
243.229	7.38
244.027	7.38
244.826	7.38
245.624	10.38
246.422	7.38
247.22	8.38
248.018	9.38
248.816	8.38
249.614	12.38
250.412	8.38
251.21	9.38
252.007	10.38
252.805	12.38
253.602	9.38
254.4	13.38
255.197	12.38
255.994	10.38
256.791	11.38
257.589	14.38
258.386	12.38
259.183	12.38
259.979	14.38
260.776	12.38
261.573	17.38
262.37	16.38
263.166	16.38
263.963	15.38
264.759	17.38
265.556	16.38
266.352	16.38
267.148	20.38
267.944	14.38
268.74	23.38
269.536	19.38
270.332	22.38
271.128	21.38
271.924	21.38
272.719	22.38
273.515	22.38
274.311	20.38
275.106	23.38
275.901	21.38
276.697	24.38
277.492	21.38
278.287	22.38
279.082	25.38
279.877	22.38
280.672	24.38
281.467	25.38
282.262	22.38
283.056	23.38
283.851	26.38
284.646	25.38
285.44	25.38
286.234	24.38
287.029	23.38
287.823	22.38
288.617	22.38
289.411	26.38
290.205	24.38
290.999	23.38
291.793	21.38
292.587	23.38
293.381	22.38
294.174	23.38
294.968	22.38
295.761	20.38
296.555	19.38
297.348	19.38
298.141	20.38
298.935	21.38
299.728	18.38
300.521	16.38
301.314	18.38
302.107	19.38
302.899	18.38
303.692	18.38
304.485	17.38
305.277	17.38
306.07	15.38
306.862	16.38
307.655	14.38
308.447	15.38
309.239	13.38
310.031	18.38
310.823	12.38
311.615	13.38
312.407	11.38
313.199	10.38
313.991	11.38
314.783	13.38
315.574	13.38
316.366	12.38
317.157	10.38
317.949	11.38
318.74	12.38
319.531	11.38
320.322	10.38
321.113	9.38
321.904	11.38
322.695	9.38
323.486	8.38
324.277	11.38
325.068	9.38
325.858	12.38
326.649	8.38
327.439	9.38
328.23	8.38
329.02	10.38
329.81	9.38
330.6	8.38
331.391	7.38
332.181	6.38
332.971	7.38
333.76	8.38
334.55	8.38
335.34	8.38
336.13	6.38
336.919	6.38
337.709	7.38
338.498	10.38
339.287	8.38
340.077	8.38
340.866	9.38
341.655	9.38
342.444	8.38
343.233	7.38
344.022	7.38
344.811	10.38
345.6	9.38
346.388	9.38
347.177	7.38
347.965	9.38
348.754	9.38
349.542	9.38
350.33	6.38
351.119	8.38
351.907	9.38
352.695	9.38
353.483	8.38
354.271	7.38
355.059	6.38
355.846	8.38
356.634	7.38
357.422	7.38
358.209	8.38
358.997	8.38
359.784	9.38
360.571	8.38
361.359	8.38
362.146	7.38
362.933	5.38
363.72	9.38
364.507	8.38
365.294	7.38
366.081	5.38
366.867	7.38
367.654	5.38
368.44	9.38
369.227	8.38
370.013	8.38
370.8	6.38
371.586	6.38
372.372	8.38
373.158	7.38
373.944	6.38
374.73	9.38
375.516	5.38
376.302	7.38
377.088	8.38
377.873	7.38
378.659	8.38
379.445	6.38
380.23	6.38
381.015	8.38
381.801	4.38
382.586	5.38
383.371	6.38
384.156	8.38
384.941	7.38
385.726	9.38
386.511	7.38
387.296	7.38
388.08	8.38
388.865	8.38
389.649	8.38
390.434	8.38
391.218	8.38
392.003	8.38
392.787	8.38
393.571	8.38
394.355	7.38
395.139	6.38
395.923	9.38
396.707	8.38
397.491	8.38
398.274	9.38
399.058	7.38
399.842	10.38
400.625	9.38
401.408	9.38
402.192	9.38
402.975	10.38
403.758	8.38
404.541	12.38
405.324	10.38
406.107	10.38
406.89	11.38
407.673	11.38
408.456	12.38
409.238	11.38
410.021	11.38
410.803	10.38
411.586	10.38
412.368	11.38
413.151	11.38
413.933	13.38
414.715	12.38
415.497	11.38
416.279	13.38
417.061	14.38
417.843	12.38
418.624	11.38
419.406	13.38
420.188	14.38
420.969	13.38
421.751	13.38
422.532	13.38
423.313	17.38
424.095	14.38
424.876	17.38
425.657	16.38
426.438	16.38
427.219	18.38
428	15.38
428.78	18.38
429.561	17.38
430.342	19.38
431.122	18.38
431.903	18.38
432.683	23.38
433.464	22.38
434.244	22.38
435.024	24.38
435.804	25.38
436.584	27.38
437.364	28.38
438.144	29.38
438.924	33.38
439.704	32.38
440.483	32.38
441.263	35.38
442.042	38.38
442.822	42.38
443.601	46.38
444.38	44.38
445.16	47.38
445.939	52.38
446.718	56.38
447.497	62.38
448.276	62.38
449.054	69.38
449.833	84.38
450.612	83.38
451.391	95.38
452.169	104.38
452.948	115.38
453.726	127.38
454.504	140.38
455.282	150.38
456.061	176.38
456.839	187.38
457.617	210.38
458.395	237.38
459.172	263.38
459.95	297.38
460.728	319.38
461.506	362.38
462.283	398.38
463.061	448.38
463.838	502.38
464.615	572.38
465.393	622.38
466.17	692.38
466.947	775.38
467.724	873.38
468.501	961.38
469.278	1052.38
470.055	1170.38
470.831	1296.38
471.608	1451.38
472.385	1598.38
473.161	1766.38
473.938	1946.38
474.714	2162.38
475.49	2373.38
476.266	2632.38
477.043	2889.38
477.819	3186.38
478.595	3487.38
479.371	3828.38
480.146	4201.38
480.922	4630.38
481.698	5050.38
482.473	5506.38
483.249	6037.38
484.024	6586.38
484.8	7232.38
485.575	7864.38
486.35	8603.38
487.126	9348.38
487.901	10196.38
488.676	11090.38
489.451	12097.38
490.225	13081.38
491	14201.38
491.775	15385.38
492.55	16574.38
493.324	17789.38
494.099	19075.38
494.873	20358.38
495.647	21756.38
496.422	23206.38
497.196	24595.38
497.97	26090.38
498.744	27464.38
499.518	28768.38
500.292	30005.38
501.066	31092.38
501.839	32285.38
502.613	33196.38
503.387	33845.38
504.16	34465.38
504.934	34858.38
505.707	34878.38
506.48	34802.38
507.253	34588.38
508.027	34277.38
508.8	33748.38
509.573	33128.38
510.346	32337.38
511.118	31434.38
511.891	30455.38
512.664	29355.38
513.437	28240.38
514.209	27172.38
514.982	26135.38
515.754	25061.38
516.526	24016.38
517.298	23034.38
518.071	22103.38
518.843	21139.38
519.615	20300.38
520.387	19529.38
521.159	18763.38
521.93	18028.38
522.702	17349.38
523.474	16609.38
524.245	15998.38
525.017	15212.38
525.788	14526.38
526.56	13910.38
527.331	13273.38
528.102	12650.38
528.873	12095.38
529.644	11522.38
530.415	10964.38
531.186	10460.38
531.957	9918.38
532.728	9408.38
533.498	8841.38
534.269	8392.38
535.039	7938.38
535.81	7489.38
536.58	7094.38
537.351	6703.38
538.121	6330.38
538.891	5991.38
539.661	5679.38
540.431	5379.38
541.201	5078.38
541.971	4840.38
542.741	4586.38
543.51	4352.38
544.28	4116.38
545.05	3931.38
545.819	3724.38
546.588	3564.38
547.358	3353.38
548.127	3180.38
548.896	3041.38
549.665	2875.38
550.434	2745.38
551.203	2587.38
551.972	2444.38
552.741	2329.38
553.51	2189.38
554.278	2076.38
555.047	1966.38
555.815	1846.38
556.584	1741.38
557.352	1644.38
558.121	1559.38
558.889	1468.38
559.657	1389.38
560.425	1302.38
561.193	1239.38
561.961	1178.38
562.729	1106.38
563.496	1046.38
564.264	997.38
565.032	934.38
565.799	882.38
566.567	834.38
567.334	792.38
568.101	759.38
568.869	700.38
569.636	661.38
570.403	636.38
571.17	603.38
571.937	563.38
572.704	526.38
573.471	504.38
574.237	469.38
575.004	446.38
575.771	417.38
576.537	387.38
577.303	366.38
578.07	349.38
578.836	333.38
579.602	312.38
580.368	294.38
581.134	284.38
581.9	264.38
582.666	251.38
583.432	243.38
584.198	226.38
584.964	212.38
585.729	208.38
586.495	192.38
587.26	178.38
588.025	172.38
588.791	166.38
589.556	162.38
590.321	147.38
591.086	138.38
591.851	136.38
592.616	128.38
593.381	121.38
594.146	114.38
594.911	106.38
595.675	103.38
596.44	100.38
597.204	93.38
597.969	97.38
598.733	86.38
599.497	86.38
600.261	80.38
601.025	74.38
601.79	68.38
602.553	69.38
603.317	68.38
604.081	61.38
604.845	61.38
605.609	59.38
606.372	58.38
607.136	56.38
607.899	52.38
608.662	46.38
609.426	49.38
610.189	46.38
610.952	46.38
611.715	44.38
612.478	41.38
613.241	36.38
614.004	36.38
614.767	34.38
615.529	37.38
616.292	38.38
617.055	36.38
617.817	33.38
618.579	31.38
619.342	34.38
620.104	31.38
620.866	28.38
621.628	26.38
622.39	27.38
623.152	25.38
623.914	27.38
624.676	23.38
625.438	26.38
626.199	22.38
626.961	21.38
627.722	23.38
628.484	18.38
629.245	19.38
630.006	19.38
630.768	19.38
631.529	17.38
632.29	15.38
633.051	16.38
633.812	14.38
634.573	16.38
635.333	14.38
636.094	13.38
636.855	14.38
637.615	14.38
638.376	16.38
639.136	14.38
639.896	14.38
640.657	14.38
641.417	13.38
642.177	12.38
642.937	14.38
643.697	14.38
644.457	14.38
645.216	9.38
645.976	12.38
646.736	10.38
647.495	13.38
648.255	9.38
649.014	10.38
649.774	12.38
650.533	10.38
651.292	10.38
652.051	8.38
652.81	8.38
653.569	8.38
654.328	7.38
655.087	8.38
655.846	9.38
656.604	8.38
657.363	7.38
658.121	10.38
658.88	8.38
659.638	5.38
660.397	8.38
661.155	8.38
661.913	9.38
662.671	7.38
663.429	5.38
664.187	7.38
664.945	7.38
665.703	8.38
666.46	5.38
667.218	6.38
667.976	8.38
668.733	6.38
669.49	8.38
670.248	4.38
671.005	6.38
671.762	3.38
672.519	7.38
673.276	7.38
674.033	6.38
674.79	6.38
675.547	5.38
676.304	7.38
677.06	4.38
677.817	7.38
678.574	4.38
679.33	6.38
680.086	7.38
680.843	4.38
681.599	6.38
682.355	6.38
683.111	5.38
683.867	6.38
684.623	6.38
685.379	5.38
686.135	6.38
686.89	4.38
687.646	4.38
688.402	6.38
689.157	7.38
689.912	5.38
690.668	6.38
691.423	5.38
692.178	5.38
692.933	4.38
693.688	3.38
694.443	5.38
695.198	3.38
695.953	5.38
696.708	4.38
697.462	3.38
698.217	5.38
698.972	4.38
699.726	6.38
700.48	6.38
701.235	3.38
701.989	8.38
702.743	2.38
703.497	4.38
704.251	4.38
705.005	5.38
705.759	5.38
706.513	3.38
707.266	5.38
708.02	6.38
708.774	6.38
709.527	5.38
710.28	5.38
711.034	4.38
711.787	6.38
712.54	4.38
713.293	7.38
714.046	4.38
714.799	4.38
715.552	5.38
716.305	7.38
717.058	4.38
717.81	5.38
718.563	5.38
719.315	4.38
720.068	7.38
720.82	3.38
721.573	4.38
722.325	6.38
723.077	6.38
723.829	6.38
724.581	7.38
725.333	7.38
726.085	3.38
726.836	6.38
727.588	5.38
728.34	5.38
729.091	6.38
729.843	4.38
730.594	5.38
731.346	5.38
732.097	7.38
732.848	4.38
733.599	5.38
734.35	6.38
735.101	4.38
735.852	4.38
736.603	7.38
737.354	4.38
738.104	10.38
738.855	5.38
739.605	7.38
740.356	7.38
741.106	8.38
741.856	7.38
742.607	7.38
743.357	7.38
744.107	5.38
744.857	7.38
745.607	8.38
746.357	4.38
747.106	8.38
747.856	5.38
748.606	8.38
749.355	7.38
750.105	7.38
750.854	5.38
751.603	7.38
752.353	10.38
753.102	5.38
753.851	10.38
754.6	8.38
755.349	7.38
756.098	7.38
756.847	6.38
757.595	8.38
758.344	7.38
759.093	7.38
759.841	9.38
760.589	7.38
761.338	9.38
762.086	6.38
762.834	11.38
763.582	10.38
764.331	7.38
765.079	8.38
765.826	10.38
766.574	11.38
767.322	9.38
768.07	8.38
768.817	7.38
769.565	11.38
770.312	8.38
771.06	10.38
771.807	10.38
772.554	13.38
773.302	9.38
774.049	12.38
774.796	9.38
775.543	10.38
776.29	9.38
777.036	10.38
777.783	9.38
778.53	10.38
779.276	12.38
780.023	10.38
780.769	12.38
781.516	11.38
782.262	10.38
783.008	11.38
783.754	12.38
784.5	14.38
785.246	11.38
785.992	13.38
786.738	12.38
787.484	11.38
788.23	10.38
788.975	13.38
789.721	12.38
790.466	10.38
791.212	9.38
791.957	10.38
792.702	12.38
793.447	13.38
794.193	10.38
794.938	9.38
795.683	10.38
796.427	10.38
797.172	11.38
797.917	7.38
798.662	11.38
799.406	11.38
800.151	9.38
800.895	10.38
801.64	8.38
802.384	10.38
803.128	8.38
803.872	10.38
804.616	10.38
805.36	8.38
806.104	10.38
806.848	9.38
807.592	7.38
808.336	6.38
809.079	9.38
809.823	9.38
810.566	5.38
811.31	7.38
812.053	7.38
812.796	6.38
813.539	7.38
814.283	5.38
815.026	7.38
815.769	6.38
816.511	7.38
817.254	7.38
817.997	5.38
818.74	8.38
819.482	4.38
820.225	5.38
820.967	6.38
821.71	6.38
822.452	6.38
823.194	6.38
823.936	5.38
824.678	4.38
825.42	5.38
826.162	5.38
826.904	5.38
827.646	5.38
828.388	4.38
829.129	4.38
829.871	5.38
830.612	5.38
831.354	2.38
832.095	5.38
832.836	6.38
833.577	2.38
834.319	0.38
835.06	5.38
835.801	3.38
836.542	6.38
837.282	5.38
838.023	4.38
838.764	3.38
839.504	7.38
840.245	5.38
840.985	4.38
841.726	1.38
842.466	0.38
843.206	4.38
843.946	2.38
844.687	5.38
845.427	4.38
846.166	2.38
846.906	3.38
847.646	5.38
848.386	5.38
849.125	2.38
849.865	3.38
850.605	4.38
851.344	1.38
852.083	4.38
852.823	3.38
853.562	4.38
854.301	3.38
855.04	4.38
855.779	3.38
856.518	4.38
857.257	2.38
857.995	5.38
858.734	2.38
859.473	2.38
860.211	3.38
860.95	3.38
861.688	1.38
862.426	-0.62
863.165	1.38
863.903	3.38
864.641	2.38
865.379	0.38
866.117	3.38
866.855	1.38
867.593	3.38
868.33	0.38
869.068	2.38
869.806	2.38
870.543	1.38
871.28	2.38
872.018	1.38
872.755	2.38
873.492	2.38
874.229	0.38
874.967	1.38
875.703	1.38
876.44	2.38
877.177	1.38
877.914	0.38
878.651	0.38
879.387	2.38
880.124	1.38
880.86	0.38
881.597	0.38
882.333	2.38
883.069	0.38
883.806	3.38
884.542	2.38
885.278	1.38
886.014	0.38
886.749	3.38
887.485	0.38
888.221	2.38
888.957	1.38
889.692	2.38
890.428	2.38
891.163	1.38
891.899	2.38
892.634	0.38
893.369	1.38
894.104	1.38
894.839	1.38
895.574	3.38
896.309	0.38
897.044	0.38
897.779	2.38
898.514	1.38
899.248	-1.62
899.983	0.38
900.717	1.38
901.452	3.38
902.186	2.38
902.92	-0.62
903.654	2.38
904.389	-1.62
905.123	-0.62
905.857	1.38
906.59	0.38
907.324	-0.62
908.058	0.38
908.792	0.38
909.525	0.38
910.259	0.38
910.992	0.38
911.726	1.38
912.459	2.38
913.192	-0.62
913.925	1.38
914.658	-1.62
915.391	-0.62
916.124	0.38
916.857	0.38
917.59	0.38
918.323	-0.62
919.055	2.38
919.788	1.38
920.521	2.38
921.253	-0.62
921.985	1.38
922.718	2.38
923.45	0.38
924.182	0.38
924.914	-0.62
925.646	1.38
926.378	-0.62
927.11	-0.62
927.841	1.38
928.573	0.38
929.305	2.38
930.036	0.38
930.768	2.38
931.499	2.38
932.23	-1.62
932.962	2.38
933.693	1.38
934.424	-1.62
935.155	0.38
935.886	3.38
936.617	0.38
937.348	-1.62
938.078	1.38
938.809	0.38
939.54	-0.62
940.27	-0.62
941.001	0.38
941.731	0.38
942.461	0.38
943.191	0.38
943.922	-1.62
944.652	-0.62
945.382	0.38
946.112	0.38
946.841	1.38
947.571	0.38
948.301	0.38
949.031	1.38
949.76	-0.62
950.49	1.38
951.219	0.38
951.948	0.38
952.678	-0.62
953.407	0.38
954.136	1.38
954.865	-2.62
955.594	1.38
956.323	1.38
957.052	0.38
957.78	0.38
958.509	-0.62
959.238	2.38
959.966	0.38
960.695	0.38
961.423	-0.62
962.151	0.38
962.88	2.38
963.608	-0.62
964.336	1.38
965.064	1.38
965.792	0.38
966.52	-0.62
967.247	-1.62
967.975	0.38
968.703	2.38
969.43	-1.62
970.158	-0.62
970.885	0.38
971.613	0.38
972.34	0.38
973.067	0.38
973.794	2.38
974.521	1.38
975.248	0.38
975.975	1.38
976.702	0.38
977.429	0.38
978.156	0.38
978.882	2.38
979.609	3.38
980.335	1.38
981.062	1.38
981.788	1.38
982.514	1.38
983.24	0.38
983.967	0.38
984.693	-0.62
985.419	1.38
986.144	1.38
986.87	2.38
987.596	1.38
988.322	2.38
989.047	0.38
989.773	-0.62
990.498	-0.62
991.224	0.38
991.949	1.38
992.674	-1.62
993.399	2.38
994.124	1.38
994.849	-0.62
995.574	-0.62
996.299	-0.62
997.024	0.38
997.749	1.38
998.473	0.38
999.198	1.38
999.922	-1.62
1000.647	2.38
1001.371	1.38
1002.095	1.38
1002.82	-1.62
1003.544	-1.62
1004.268	-1.62
1004.992	2.38
1005.716	2.38
1006.439	2.38
1007.163	2.38
1007.887	1.38
1008.611	0.38
1009.334	0.38
1010.058	2.38
1010.781	0.38
1011.504	2.38
1012.228	-0.62
1012.951	0.38
1013.674	-0.62
1014.397	-1.62
1015.12	2.38
