节点500_425_QEPB04081__573__15-57-50-440.txt的数据

Date: Wed Nov 12 15:57:50 CST 2025
User: PC
Spectrometer: QEPB0408
触发模式: 0
积分时间 (秒): 1.000000E-2
Scans to average: 1
启用暗噪声校正: true
启用非线性校正: false
滑动平均宽度: 0
X轴模式: Wavelengths
Number of Pixels in Spectrum: 1044
>>>>>Begin Spectral Data<<<<<
220.843	3.5
221.644	2.5
222.444	3.5
223.244	3.5
224.045	3.5
224.845	4.5
225.645	1.5
226.445	4.5
227.245	3.5
228.045	5.5
228.845	4.5
229.645	5.5
230.444	5.5
231.244	4.5
232.043	4.5
232.843	5.5
233.642	5.5
234.442	4.5
235.241	5.5
236.04	4.5
236.839	6.5
237.638	5.5
238.437	5.5
239.236	4.5
240.035	7.5
240.833	5.5
241.632	6.5
242.43	6.5
243.229	4.5
244.027	9.5
244.826	8.5
245.624	10.5
246.422	8.5
247.22	10.5
248.018	9.5
248.816	9.5
249.614	8.5
250.412	10.5
251.21	9.5
252.007	10.5
252.805	12.5
253.602	8.5
254.4	8.5
255.197	12.5
255.994	10.5
256.791	9.5
257.589	13.5
258.386	11.5
259.183	11.5
259.979	11.5
260.776	14.5
261.573	13.5
262.37	14.5
263.166	14.5
263.963	13.5
264.759	13.5
265.556	15.5
266.352	16.5
267.148	18.5
267.944	16.5
268.74	18.5
269.536	14.5
270.332	19.5
271.128	18.5
271.924	18.5
272.719	20.5
273.515	20.5
274.311	22.5
275.106	18.5
275.901	20.5
276.697	20.5
277.492	21.5
278.287	23.5
279.082	22.5
279.877	24.5
280.672	20.5
281.467	21.5
282.262	25.5
283.056	24.5
283.851	24.5
284.646	19.5
285.44	23.5
286.234	20.5
287.029	22.5
287.823	23.5
288.617	24.5
289.411	23.5
290.205	22.5
290.999	23.5
291.793	24.5
292.587	22.5
293.381	23.5
294.174	20.5
294.968	20.5
295.761	20.5
296.555	19.5
297.348	17.5
298.141	21.5
298.935	20.5
299.728	18.5
300.521	18.5
301.314	18.5
302.107	15.5
302.899	15.5
303.692	18.5
304.485	17.5
305.277	18.5
306.07	16.5
306.862	18.5
307.655	18.5
308.447	14.5
309.239	16.5
310.031	17.5
310.823	14.5
311.615	11.5
312.407	13.5
313.199	13.5
313.991	13.5
314.783	12.5
315.574	12.5
316.366	10.5
317.157	9.5
317.949	9.5
318.74	10.5
319.531	10.5
320.322	8.5
321.113	10.5
321.904	13.5
322.695	8.5
323.486	9.5
324.277	10.5
325.068	8.5
325.858	9.5
326.649	8.5
327.439	11.5
328.23	9.5
329.02	7.5
329.81	7.5
330.6	7.5
331.391	8.5
332.181	8.5
332.971	7.5
333.76	10.5
334.55	6.5
335.34	8.5
336.13	6.5
336.919	8.5
337.709	8.5
338.498	8.5
339.287	9.5
340.077	8.5
340.866	9.5
341.655	8.5
342.444	9.5
343.233	8.5
344.022	8.5
344.811	11.5
345.6	7.5
346.388	9.5
347.177	8.5
347.965	8.5
348.754	8.5
349.542	4.5
350.33	8.5
351.119	8.5
351.907	7.5
352.695	6.5
353.483	7.5
354.271	7.5
355.059	6.5
355.846	6.5
356.634	6.5
357.422	7.5
358.209	7.5
358.997	4.5
359.784	8.5
360.571	6.5
361.359	5.5
362.146	10.5
362.933	7.5
363.72	8.5
364.507	6.5
365.294	7.5
366.081	8.5
366.867	6.5
367.654	7.5
368.44	5.5
369.227	7.5
370.013	5.5
370.8	6.5
371.586	4.5
372.372	8.5
373.158	9.5
373.944	3.5
374.73	7.5
375.516	8.5
376.302	6.5
377.088	8.5
377.873	6.5
378.659	6.5
379.445	9.5
380.23	8.5
381.015	6.5
381.801	4.5
382.586	7.5
383.371	4.5
384.156	6.5
384.941	8.5
385.726	5.5
386.511	6.5
387.296	7.5
388.08	8.5
388.865	10.5
389.649	4.5
390.434	7.5
391.218	7.5
392.003	8.5
392.787	7.5
393.571	7.5
394.355	9.5
395.139	6.5
395.923	9.5
396.707	6.5
397.491	7.5
398.274	8.5
399.058	9.5
399.842	10.5
400.625	8.5
401.408	9.5
402.192	8.5
402.975	9.5
403.758	10.5
404.541	9.5
405.324	10.5
406.107	10.5
406.89	8.5
407.673	9.5
408.456	9.5
409.238	11.5
410.021	10.5
410.803	11.5
411.586	10.5
412.368	12.5
413.151	13.5
413.933	10.5
414.715	13.5
415.497	13.5
416.279	11.5
417.061	14.5
417.843	13.5
418.624	13.5
419.406	13.5
420.188	15.5
420.969	14.5
421.751	15.5
422.532	16.5
423.313	16.5
424.095	15.5
424.876	14.5
425.657	19.5
426.438	17.5
427.219	17.5
428	16.5
428.78	18.5
429.561	21.5
430.342	20.5
431.122	22.5
431.903	19.5
432.683	20.5
433.464	22.5
434.244	20.5
435.024	24.5
435.804	26.5
436.584	26.5
437.364	28.5
438.144	27.5
438.924	33.5
439.704	33.5
440.483	34.5
441.263	36.5
442.042	39.5
442.822	39.5
443.601	43.5
444.38	46.5
445.16	52.5
445.939	55.5
446.718	59.5
447.497	65.5
448.276	74.5
449.054	76.5
449.833	88.5
450.612	91.5
451.391	100.5
452.169	105.5
452.948	122.5
453.726	136.5
454.504	149.5
455.282	165.5
456.061	185.5
456.839	202.5
457.617	225.5
458.395	253.5
459.172	289.5
459.95	314.5
460.728	353.5
461.506	395.5
462.283	429.5
463.061	478.5
463.838	540.5
464.615	590.5
465.393	652.5
466.17	738.5
466.947	806.5
467.724	911.5
468.501	994.5
469.278	1082.5
470.055	1216.5
470.831	1347.5
471.608	1487.5
472.385	1624.5
473.161	1789.5
473.938	1991.5
474.714	2165.5
475.49	2367.5
476.266	2604.5
477.043	2850.5
477.819	3116.5
478.595	3426.5
479.371	3716.5
480.146	4068.5
480.922	4432.5
481.698	4844.5
482.473	5265.5
483.249	5706.5
484.024	6213.5
484.8	6814.5
485.575	7346.5
486.35	7980.5
487.126	8649.5
487.901	9394.5
488.676	10139.5
489.451	11001.5
490.225	11868.5
491	12849.5
491.775	13818.5
492.55	14907.5
493.324	15955.5
494.099	16983.5
494.873	18159.5
495.647	19436.5
496.422	20638.5
497.196	21832.5
497.97	23196.5
498.744	24483.5
499.518	25690.5
500.292	26863.5
501.066	27985.5
501.839	29093.5
502.613	30093.5
503.387	30828.5
504.16	31509.5
504.934	32111.5
505.707	32343.5
506.48	32555.5
507.253	32481.5
508.027	32434.5
508.8	32250.5
509.573	31846.5
510.346	31314.5
511.118	30626.5
511.891	29806.5
512.664	28952.5
513.437	28048.5
514.209	27064.5
514.982	26232.5
515.754	25293.5
516.526	24218.5
517.298	23277.5
518.071	22346.5
518.843	21472.5
519.615	20549.5
520.387	19749.5
521.159	19037.5
521.93	18312.5
522.702	17561.5
523.474	16952.5
524.245	16292.5
525.017	15532.5
525.788	14848.5
526.56	14208.5
527.331	13564.5
528.102	12988.5
528.873	12393.5
529.644	11870.5
530.415	11307.5
531.186	10839.5
531.957	10294.5
532.728	9767.5
533.498	9250.5
534.269	8780.5
535.039	8330.5
535.81	7880.5
536.58	7466.5
537.351	7025.5
538.121	6634.5
538.891	6282.5
539.661	6000.5
540.431	5670.5
541.201	5358.5
541.971	5089.5
542.741	4831.5
543.51	4590.5
544.28	4363.5
545.05	4143.5
545.819	3934.5
546.588	3748.5
547.358	3560.5
548.127	3371.5
548.896	3219.5
549.665	3042.5
550.434	2915.5
551.203	2750.5
551.972	2618.5
552.741	2474.5
553.51	2343.5
554.278	2210.5
555.047	2084.5
555.815	1976.5
556.584	1880.5
557.352	1774.5
558.121	1663.5
558.889	1578.5
559.657	1468.5
560.425	1406.5
561.193	1336.5
561.961	1266.5
562.729	1193.5
563.496	1135.5
564.264	1069.5
565.032	1007.5
565.799	952.5
566.567	901.5
567.334	855.5
568.101	805.5
568.869	758.5
569.636	716.5
570.403	681.5
571.17	625.5
571.937	600.5
572.704	569.5
573.471	541.5
574.237	507.5
575.004	474.5
575.771	446.5
576.537	425.5
577.303	393.5
578.07	377.5
578.836	354.5
579.602	326.5
580.368	316.5
581.134	306.5
581.9	287.5
582.666	270.5
583.432	261.5
584.198	244.5
584.964	230.5
585.729	216.5
586.495	210.5
587.26	199.5
588.025	190.5
588.791	179.5
589.556	173.5
590.321	163.5
591.086	152.5
591.851	142.5
592.616	138.5
593.381	130.5
594.146	119.5
594.911	119.5
595.675	113.5
596.44	110.5
597.204	99.5
597.969	96.5
598.733	92.5
599.497	88.5
600.261	86.5
601.025	83.5
601.79	78.5
602.553	76.5
603.317	73.5
604.081	70.5
604.845	62.5
605.609	63.5
606.372	59.5
607.136	56.5
607.899	57.5
608.662	52.5
609.426	51.5
610.189	50.5
610.952	46.5
611.715	46.5
612.478	46.5
613.241	42.5
614.004	39.5
614.767	40.5
615.529	39.5
616.292	35.5
617.055	34.5
617.817	32.5
618.579	35.5
619.342	30.5
620.104	28.5
620.866	29.5
621.628	30.5
622.39	26.5
623.152	26.5
623.914	25.5
624.676	23.5
625.438	26.5
626.199	22.5
626.961	20.5
627.722	20.5
628.484	24.5
629.245	21.5
630.006	18.5
630.768	19.5
631.529	19.5
632.29	16.5
633.051	12.5
633.812	18.5
634.573	19.5
635.333	17.5
636.094	13.5
636.855	15.5
637.615	14.5
638.376	15.5
639.136	12.5
639.896	12.5
640.657	14.5
641.417	11.5
642.177	12.5
642.937	13.5
643.697	13.5
644.457	12.5
645.216	9.5
645.976	13.5
646.736	10.5
647.495	13.5
648.255	9.5
649.014	7.5
649.774	8.5
650.533	8.5
651.292	10.5
652.051	10.5
652.81	8.5
653.569	10.5
654.328	8.5
655.087	11.5
655.846	7.5
656.604	8.5
657.363	8.5
658.121	8.5
658.88	8.5
659.638	9.5
660.397	10.5
661.155	9.5
661.913	8.5
662.671	8.5
663.429	6.5
664.187	8.5
664.945	8.5
665.703	8.5
666.46	7.5
667.218	7.5
667.976	8.5
668.733	7.5
669.49	6.5
670.248	10.5
671.005	6.5
671.762	9.5
672.519	4.5
673.276	7.5
674.033	5.5
674.79	3.5
675.547	6.5
676.304	7.5
677.06	8.5
677.817	7.5
678.574	7.5
679.33	4.5
680.086	2.5
680.843	5.5
681.599	4.5
682.355	5.5
683.111	6.5
683.867	6.5
684.623	7.5
685.379	5.5
686.135	5.5
686.89	7.5
687.646	3.5
688.402	7.5
689.157	4.5
689.912	6.5
690.668	3.5
691.423	4.5
692.178	4.5
692.933	6.5
693.688	7.5
694.443	2.5
695.198	6.5
695.953	7.5
696.708	6.5
697.462	5.5
698.217	3.5
698.972	4.5
699.726	4.5
700.48	6.5
701.235	4.5
701.989	4.5
702.743	5.5
703.497	2.5
704.251	4.5
705.005	4.5
705.759	5.5
706.513	6.5
707.266	6.5
708.02	6.5
708.774	3.5
709.527	4.5
710.28	4.5
711.034	4.5
711.787	2.5
712.54	5.5
713.293	5.5
714.046	4.5
714.799	4.5
715.552	4.5
716.305	3.5
717.058	5.5
717.81	6.5
718.563	5.5
719.315	3.5
720.068	3.5
720.82	7.5
721.573	4.5
722.325	7.5
723.077	5.5
723.829	6.5
724.581	3.5
725.333	2.5
726.085	4.5
726.836	6.5
727.588	7.5
728.34	5.5
729.091	5.5
729.843	6.5
730.594	2.5
731.346	5.5
732.097	6.5
732.848	5.5
733.599	6.5
734.35	5.5
735.101	7.5
735.852	5.5
736.603	7.5
737.354	5.5
738.104	4.5
738.855	4.5
739.605	5.5
740.356	8.5
741.106	3.5
741.856	6.5
742.607	5.5
743.357	5.5
744.107	6.5
744.857	7.5
745.607	6.5
746.357	7.5
747.106	7.5
747.856	6.5
748.606	6.5
749.355	7.5
750.105	8.5
750.854	5.5
751.603	7.5
752.353	7.5
753.102	5.5
753.851	7.5
754.6	9.5
755.349	7.5
756.098	8.5
756.847	7.5
757.595	7.5
758.344	7.5
759.093	6.5
759.841	8.5
760.589	8.5
761.338	7.5
762.086	8.5
762.834	4.5
763.582	8.5
764.331	8.5
765.079	7.5
765.826	10.5
766.574	9.5
767.322	10.5
768.07	8.5
768.817	8.5
769.565	10.5
770.312	6.5
771.06	11.5
771.807	9.5
772.554	8.5
773.302	8.5
774.049	10.5
774.796	9.5
775.543	8.5
776.29	12.5
777.036	14.5
777.783	9.5
778.53	12.5
779.276	9.5
780.023	10.5
780.769	9.5
781.516	10.5
782.262	10.5
783.008	10.5
783.754	10.5
784.5	11.5
785.246	10.5
785.992	10.5
786.738	9.5
787.484	9.5
788.23	12.5
788.975	12.5
789.721	10.5
790.466	11.5
791.212	8.5
791.957	10.5
792.702	9.5
793.447	8.5
794.193	9.5
794.938	10.5
795.683	9.5
796.427	10.5
797.172	8.5
797.917	11.5
798.662	8.5
799.406	11.5
800.151	8.5
800.895	9.5
801.64	9.5
802.384	6.5
803.128	8.5
803.872	8.5
804.616	7.5
805.36	10.5
806.104	7.5
806.848	8.5
807.592	6.5
808.336	7.5
809.079	8.5
809.823	8.5
810.566	7.5
811.31	8.5
812.053	8.5
812.796	5.5
813.539	7.5
814.283	7.5
815.026	7.5
815.769	5.5
816.511	7.5
817.254	7.5
817.997	5.5
818.74	6.5
819.482	4.5
820.225	6.5
820.967	4.5
821.71	5.5
822.452	6.5
823.194	5.5
823.936	4.5
824.678	5.5
825.42	6.5
826.162	6.5
826.904	4.5
827.646	6.5
828.388	6.5
829.129	1.5
829.871	5.5
830.612	4.5
831.354	5.5
832.095	4.5
832.836	3.5
833.577	6.5
834.319	5.5
835.06	6.5
835.801	2.5
836.542	4.5
837.282	5.5
838.023	1.5
838.764	4.5
839.504	2.5
840.245	5.5
840.985	5.5
841.726	4.5
842.466	2.5
843.206	5.5
843.946	5.5
844.687	2.5
845.427	6.5
846.166	2.5
846.906	1.5
847.646	5.5
848.386	2.5
849.125	5.5
849.865	2.5
850.605	4.5
851.344	2.5
852.083	2.5
852.823	5.5
853.562	2.5
854.301	2.5
855.04	2.5
855.779	2.5
856.518	3.5
857.257	2.5
857.995	3.5
858.734	4.5
859.473	3.5
860.211	3.5
860.95	1.5
861.688	5.5
862.426	2.5
863.165	2.5
863.903	2.5
864.641	4.5
865.379	2.5
866.117	1.5
866.855	-1.5
867.593	4.5
868.33	0.5
869.068	2.5
869.806	1.5
870.543	2.5
871.28	1.5
872.018	4.5
872.755	1.5
873.492	1.5
874.229	0.5
874.967	2.5
875.703	2.5
876.44	3.5
877.177	0.5
877.914	2.5
878.651	2.5
879.387	2.5
880.124	1.5
880.86	2.5
881.597	1.5
882.333	2.5
883.069	0.5
883.806	1.5
884.542	1.5
885.278	2.5
886.014	1.5
886.749	2.5
887.485	1.5
888.221	1.5
888.957	2.5
889.692	-0.5
890.428	1.5
891.163	0.5
891.899	2.5
892.634	-0.5
893.369	0.5
894.104	1.5
894.839	2.5
895.574	0.5
896.309	3.5
897.044	0.5
897.779	1.5
898.514	0.5
899.248	0.5
899.983	0.5
900.717	0.5
901.452	-0.5
902.186	1.5
902.92	1.5
903.654	2.5
904.389	-0.5
905.123	1.5
905.857	1.5
906.59	-1.5
907.324	2.5
908.058	-0.5
908.792	0.5
909.525	2.5
910.259	-1.5
910.992	2.5
911.726	1.5
912.459	0.5
913.192	-0.5
913.925	-0.5
914.658	1.5
915.391	0.5
916.124	-1.5
916.857	1.5
917.59	1.5
918.323	0.5
919.055	-0.5
919.788	1.5
920.521	0.5
921.253	2.5
921.985	0.5
922.718	1.5
923.45	1.5
924.182	1.5
924.914	0.5
925.646	2.5
926.378	1.5
927.11	1.5
927.841	0.5
928.573	0.5
929.305	-0.5
930.036	2.5
930.768	-0.5
931.499	-0.5
932.23	1.5
932.962	-1.5
933.693	-0.5
934.424	1.5
935.155	0.5
935.886	-0.5
936.617	-0.5
937.348	-0.5
938.078	0.5
938.809	1.5
939.54	-0.5
940.27	0.5
941.001	1.5
941.731	-0.5
942.461	2.5
943.191	-0.5
943.922	-1.5
944.652	0.5
945.382	0.5
946.112	0.5
946.841	1.5
947.571	2.5
948.301	-0.5
949.031	-1.5
949.76	1.5
950.49	-0.5
951.219	2.5
951.948	2.5
952.678	0.5
953.407	0.5
954.136	-1.5
954.865	-0.5
955.594	-0.5
956.323	0.5
957.052	0.5
957.78	1.5
958.509	1.5
959.238	-0.5
959.966	2.5
960.695	3.5
961.423	0.5
962.151	0.5
962.88	-0.5
963.608	0.5
964.336	1.5
965.064	0.5
965.792	0.5
966.52	0.5
967.247	0.5
967.975	-1.5
968.703	2.5
969.43	-0.5
970.158	-0.5
970.885	0.5
971.613	0.5
972.34	-0.5
973.067	0.5
973.794	3.5
974.521	1.5
975.248	-1.5
975.975	1.5
976.702	0.5
977.429	1.5
978.156	0.5
978.882	-0.5
979.609	1.5
980.335	-0.5
981.062	1.5
981.788	0.5
982.514	1.5
983.24	0.5
983.967	1.5
984.693	0.5
985.419	0.5
986.144	1.5
986.87	0.5
987.596	-0.5
988.322	1.5
989.047	-1.5
989.773	0.5
990.498	3.5
991.224	1.5
991.949	-1.5
992.674	1.5
993.399	1.5
994.124	0.5
994.849	0.5
995.574	0.5
996.299	0.5
997.024	-1.5
997.749	-2.5
998.473	1.5
999.198	0.5
999.922	2.5
1000.647	1.5
1001.371	4.5
1002.095	-1.5
1002.82	-0.5
1003.544	-1.5
1004.268	2.5
1004.992	4.5
1005.716	0.5
1006.439	2.5
1007.163	4.5
1007.887	2.5
1008.611	-0.5
1009.334	2.5
1010.058	-0.5
1010.781	-0.5
1011.504	2.5
1012.228	0.5
1012.951	1.5
1013.674	-1.5
1014.397	0.5
1015.12	-1.5
