节点500_425_QEPB04081__616__15-58-33-410.txt的数据

Date: Wed Nov 12 15:58:33 CST 2025
User: PC
Spectrometer: QEPB0408
触发模式: 0
积分时间 (秒): 1.000000E-2
Scans to average: 1
启用暗噪声校正: true
启用非线性校正: false
滑动平均宽度: 0
X轴模式: Wavelengths
Number of Pixels in Spectrum: 1044
>>>>>Begin Spectral Data<<<<<
220.843	3.25
221.644	4.25
222.444	4.25
223.244	4.25
224.045	2.25
224.845	5.25
225.645	4.25
226.445	2.25
227.245	4.25
228.045	2.25
228.845	6.25
229.645	4.25
230.444	3.25
231.244	5.25
232.043	5.25
232.843	4.25
233.642	7.25
234.442	6.25
235.241	8.25
236.04	5.25
236.839	7.25
237.638	5.25
238.437	5.25
239.236	8.25
240.035	7.25
240.833	6.25
241.632	7.25
242.43	4.25
243.229	4.25
244.027	9.25
244.826	7.25
245.624	7.25
246.422	8.25
247.22	7.25
248.018	8.25
248.816	8.25
249.614	10.25
250.412	7.25
251.21	8.25
252.007	9.25
252.805	9.25
253.602	11.25
254.4	10.25
255.197	8.25
255.994	10.25
256.791	9.25
257.589	10.25
258.386	10.25
259.183	12.25
259.979	12.25
260.776	14.25
261.573	13.25
262.37	13.25
263.166	14.25
263.963	14.25
264.759	17.25
265.556	16.25
266.352	16.25
267.148	17.25
267.944	14.25
268.74	19.25
269.536	13.25
270.332	18.25
271.128	21.25
271.924	18.25
272.719	17.25
273.515	19.25
274.311	17.25
275.106	18.25
275.901	21.25
276.697	21.25
277.492	18.25
278.287	22.25
279.082	23.25
279.877	20.25
280.672	24.25
281.467	23.25
282.262	25.25
283.056	23.25
283.851	22.25
284.646	23.25
285.44	24.25
286.234	23.25
287.029	22.25
287.823	22.25
288.617	20.25
289.411	26.25
290.205	22.25
290.999	21.25
291.793	22.25
292.587	24.25
293.381	23.25
294.174	21.25
294.968	23.25
295.761	18.25
296.555	18.25
297.348	19.25
298.141	17.25
298.935	22.25
299.728	17.25
300.521	17.25
301.314	17.25
302.107	16.25
302.899	15.25
303.692	15.25
304.485	14.25
305.277	18.25
306.07	15.25
306.862	15.25
307.655	14.25
308.447	15.25
309.239	14.25
310.031	14.25
310.823	15.25
311.615	14.25
312.407	13.25
313.199	12.25
313.991	10.25
314.783	11.25
315.574	10.25
316.366	10.25
317.157	10.25
317.949	11.25
318.74	11.25
319.531	12.25
320.322	9.25
321.113	11.25
321.904	10.25
322.695	9.25
323.486	9.25
324.277	10.25
325.068	8.25
325.858	11.25
326.649	10.25
327.439	10.25
328.23	10.25
329.02	6.25
329.81	9.25
330.6	6.25
331.391	10.25
332.181	9.25
332.971	10.25
333.76	8.25
334.55	9.25
335.34	9.25
336.13	8.25
336.919	9.25
337.709	7.25
338.498	8.25
339.287	8.25
340.077	8.25
340.866	7.25
341.655	8.25
342.444	10.25
343.233	7.25
344.022	8.25
344.811	10.25
345.6	6.25
346.388	9.25
347.177	7.25
347.965	8.25
348.754	8.25
349.542	8.25
350.33	9.25
351.119	9.25
351.907	9.25
352.695	8.25
353.483	6.25
354.271	7.25
355.059	7.25
355.846	8.25
356.634	8.25
357.422	8.25
358.209	8.25
358.997	6.25
359.784	4.25
360.571	7.25
361.359	8.25
362.146	6.25
362.933	7.25
363.72	5.25
364.507	4.25
365.294	7.25
366.081	6.25
366.867	5.25
367.654	6.25
368.44	4.25
369.227	7.25
370.013	8.25
370.8	7.25
371.586	7.25
372.372	4.25
373.158	8.25
373.944	5.25
374.73	7.25
375.516	7.25
376.302	5.25
377.088	6.25
377.873	4.25
378.659	5.25
379.445	7.25
380.23	7.25
381.015	6.25
381.801	7.25
382.586	8.25
383.371	8.25
384.156	8.25
384.941	6.25
385.726	6.25
386.511	7.25
387.296	7.25
388.08	7.25
388.865	5.25
389.649	7.25
390.434	8.25
391.218	7.25
392.003	8.25
392.787	6.25
393.571	10.25
394.355	8.25
395.139	8.25
395.923	8.25
396.707	8.25
397.491	7.25
398.274	8.25
399.058	9.25
399.842	10.25
400.625	7.25
401.408	8.25
402.192	9.25
402.975	8.25
403.758	10.25
404.541	9.25
405.324	10.25
406.107	8.25
406.89	9.25
407.673	11.25
408.456	8.25
409.238	11.25
410.021	12.25
410.803	12.25
411.586	11.25
412.368	10.25
413.151	12.25
413.933	10.25
414.715	12.25
415.497	11.25
416.279	13.25
417.061	14.25
417.843	10.25
418.624	13.25
419.406	12.25
420.188	12.25
420.969	13.25
421.751	14.25
422.532	12.25
423.313	16.25
424.095	13.25
424.876	16.25
425.657	14.25
426.438	14.25
427.219	18.25
428	14.25
428.78	19.25
429.561	18.25
430.342	18.25
431.122	20.25
431.903	15.25
432.683	22.25
433.464	24.25
434.244	23.25
435.024	24.25
435.804	26.25
436.584	28.25
437.364	28.25
438.144	30.25
438.924	30.25
439.704	33.25
440.483	34.25
441.263	34.25
442.042	38.25
442.822	42.25
443.601	43.25
444.38	49.25
445.16	52.25
445.939	58.25
446.718	63.25
447.497	68.25
448.276	72.25
449.054	78.25
449.833	89.25
450.612	93.25
451.391	102.25
452.169	112.25
452.948	121.25
453.726	138.25
454.504	147.25
455.282	174.25
456.061	184.25
456.839	211.25
457.617	227.25
458.395	255.25
459.172	282.25
459.95	314.25
460.728	350.25
461.506	389.25
462.283	432.25
463.061	490.25
463.838	538.25
464.615	594.25
465.393	666.25
466.17	730.25
466.947	808.25
467.724	898.25
468.501	1000.25
469.278	1098.25
470.055	1211.25
470.831	1340.25
471.608	1474.25
472.385	1629.25
473.161	1789.25
473.938	1967.25
474.714	2167.25
475.49	2367.25
476.266	2600.25
477.043	2843.25
477.819	3109.25
478.595	3395.25
479.371	3725.25
480.146	4054.25
480.922	4435.25
481.698	4812.25
482.473	5234.25
483.249	5687.25
484.024	6200.25
484.8	6733.25
485.575	7333.25
486.35	7904.25
487.126	8586.25
487.901	9294.25
488.676	10089.25
489.451	10926.25
490.225	11767.25
491	12719.25
491.775	13721.25
492.55	14697.25
493.324	15832.25
494.099	16887.25
494.873	18025.25
495.647	19278.25
496.422	20406.25
497.196	21621.25
497.97	22987.25
498.744	24252.25
499.518	25530.25
500.292	26663.25
501.066	27730.25
501.839	28869.25
502.613	29810.25
503.387	30641.25
504.16	31320.25
504.934	31826.25
505.707	32168.25
506.48	32255.25
507.253	32358.25
508.027	32352.25
508.8	32150.25
509.573	31734.25
510.346	31193.25
511.118	30521.25
511.891	29735.25
512.664	28980.25
513.437	27896.25
514.209	26981.25
514.982	26225.25
515.754	25194.25
516.526	24229.25
517.298	23313.25
518.071	22301.25
518.843	21449.25
519.615	20584.25
520.387	19783.25
521.159	19021.25
521.93	18260.25
522.702	17652.25
523.474	16947.25
524.245	16239.25
525.017	15527.25
525.788	14849.25
526.56	14222.25
527.331	13598.25
528.102	12994.25
528.873	12453.25
529.644	11849.25
530.415	11354.25
531.186	10838.25
531.957	10280.25
532.728	9812.25
533.498	9298.25
534.269	8765.25
535.039	8333.25
535.81	7872.25
536.58	7433.25
537.351	7021.25
538.121	6672.25
538.891	6317.25
539.661	6013.25
540.431	5689.25
541.201	5361.25
541.971	5113.25
542.741	4855.25
543.51	4620.25
544.28	4363.25
545.05	4158.25
545.819	3963.25
546.588	3772.25
547.358	3550.25
548.127	3373.25
548.896	3206.25
549.665	3076.25
550.434	2904.25
551.203	2751.25
551.972	2618.25
552.741	2465.25
553.51	2353.25
554.278	2210.25
555.047	2096.25
555.815	1985.25
556.584	1870.25
557.352	1757.25
558.121	1652.25
558.889	1582.25
559.657	1506.25
560.425	1406.25
561.193	1330.25
561.961	1273.25
562.729	1195.25
563.496	1123.25
564.264	1060.25
565.032	1009.25
565.799	944.25
566.567	902.25
567.334	849.25
568.101	806.25
568.869	771.25
569.636	716.25
570.403	681.25
571.17	637.25
571.937	612.25
572.704	573.25
573.471	538.25
574.237	503.25
575.004	479.25
575.771	449.25
576.537	422.25
577.303	398.25
578.07	378.25
578.836	353.25
579.602	336.25
580.368	326.25
581.134	297.25
581.9	293.25
582.666	272.25
583.432	257.25
584.198	250.25
584.964	235.25
585.729	220.25
586.495	214.25
587.26	199.25
588.025	184.25
588.791	179.25
589.556	171.25
590.321	162.25
591.086	152.25
591.851	148.25
592.616	136.25
593.381	129.25
594.146	124.25
594.911	120.25
595.675	111.25
596.44	107.25
597.204	98.25
597.969	99.25
598.733	92.25
599.497	90.25
600.261	89.25
601.025	83.25
601.79	77.25
602.553	74.25
603.317	69.25
604.081	69.25
604.845	67.25
605.609	60.25
606.372	58.25
607.136	60.25
607.899	53.25
608.662	55.25
609.426	51.25
610.189	46.25
610.952	51.25
611.715	49.25
612.478	46.25
613.241	44.25
614.004	41.25
614.767	41.25
615.529	36.25
616.292	38.25
617.055	35.25
617.817	35.25
618.579	33.25
619.342	29.25
620.104	32.25
620.866	30.25
621.628	26.25
622.39	29.25
623.152	25.25
623.914	24.25
624.676	24.25
625.438	23.25
626.199	20.25
626.961	24.25
627.722	21.25
628.484	18.25
629.245	21.25
630.006	21.25
630.768	20.25
631.529	17.25
632.29	20.25
633.051	19.25
633.812	16.25
634.573	17.25
635.333	18.25
636.094	15.25
636.855	14.25
637.615	13.25
638.376	14.25
639.136	13.25
639.896	14.25
640.657	14.25
641.417	11.25
642.177	15.25
642.937	11.25
643.697	11.25
644.457	12.25
645.216	9.25
645.976	11.25
646.736	13.25
647.495	11.25
648.255	9.25
649.014	11.25
649.774	9.25
650.533	9.25
651.292	11.25
652.051	9.25
652.81	10.25
653.569	6.25
654.328	9.25
655.087	8.25
655.846	7.25
656.604	8.25
657.363	8.25
658.121	10.25
658.88	8.25
659.638	7.25
660.397	9.25
661.155	7.25
661.913	8.25
662.671	8.25
663.429	8.25
664.187	7.25
664.945	6.25
665.703	6.25
666.46	6.25
667.218	8.25
667.976	9.25
668.733	9.25
669.49	6.25
670.248	7.25
671.005	5.25
671.762	8.25
672.519	8.25
673.276	7.25
674.033	3.25
674.79	7.25
675.547	5.25
676.304	5.25
677.06	7.25
677.817	3.25
678.574	7.25
679.33	7.25
680.086	5.25
680.843	4.25
681.599	5.25
682.355	5.25
683.111	6.25
683.867	5.25
684.623	6.25
685.379	5.25
686.135	5.25
686.89	6.25
687.646	2.25
688.402	4.25
689.157	6.25
689.912	5.25
690.668	6.25
691.423	7.25
692.178	2.25
692.933	6.25
693.688	5.25
694.443	6.25
695.198	3.25
695.953	4.25
696.708	6.25
697.462	5.25
698.217	4.25
698.972	4.25
699.726	5.25
700.48	3.25
701.235	5.25
701.989	6.25
702.743	5.25
703.497	4.25
704.251	3.25
705.005	5.25
705.759	4.25
706.513	6.25
707.266	5.25
708.02	5.25
708.774	4.25
709.527	4.25
710.28	6.25
711.034	6.25
711.787	5.25
712.54	3.25
713.293	5.25
714.046	4.25
714.799	5.25
715.552	5.25
716.305	4.25
717.058	6.25
717.81	5.25
718.563	4.25
719.315	6.25
720.068	2.25
720.82	6.25
721.573	6.25
722.325	7.25
723.077	4.25
723.829	5.25
724.581	6.25
725.333	7.25
726.085	6.25
726.836	3.25
727.588	6.25
728.34	5.25
729.091	5.25
729.843	3.25
730.594	6.25
731.346	6.25
732.097	5.25
732.848	4.25
733.599	7.25
734.35	7.25
735.101	2.25
735.852	4.25
736.603	6.25
737.354	6.25
738.104	9.25
738.855	6.25
739.605	6.25
740.356	7.25
741.106	4.25
741.856	7.25
742.607	5.25
743.357	5.25
744.107	5.25
744.857	5.25
745.607	5.25
746.357	7.25
747.106	7.25
747.856	6.25
748.606	7.25
749.355	6.25
750.105	5.25
750.854	7.25
751.603	6.25
752.353	8.25
753.102	7.25
753.851	7.25
754.6	5.25
755.349	5.25
756.098	8.25
756.847	6.25
757.595	9.25
758.344	4.25
759.093	8.25
759.841	8.25
760.589	8.25
761.338	7.25
762.086	10.25
762.834	7.25
763.582	9.25
764.331	11.25
765.079	10.25
765.826	9.25
766.574	8.25
767.322	8.25
768.07	7.25
768.817	9.25
769.565	10.25
770.312	11.25
771.06	10.25
771.807	8.25
772.554	6.25
773.302	8.25
774.049	8.25
774.796	11.25
775.543	9.25
776.29	10.25
777.036	9.25
777.783	11.25
778.53	9.25
779.276	12.25
780.023	10.25
780.769	11.25
781.516	10.25
782.262	9.25
783.008	10.25
783.754	11.25
784.5	11.25
785.246	8.25
785.992	8.25
786.738	11.25
787.484	8.25
788.23	13.25
788.975	11.25
789.721	11.25
790.466	9.25
791.212	10.25
791.957	8.25
792.702	9.25
793.447	10.25
794.193	11.25
794.938	8.25
795.683	9.25
796.427	9.25
797.172	10.25
797.917	9.25
798.662	8.25
799.406	12.25
800.151	9.25
800.895	6.25
801.64	10.25
802.384	6.25
803.128	8.25
803.872	10.25
804.616	8.25
805.36	6.25
806.104	10.25
806.848	7.25
807.592	8.25
808.336	8.25
809.079	7.25
809.823	7.25
810.566	6.25
811.31	7.25
812.053	6.25
812.796	4.25
813.539	7.25
814.283	5.25
815.026	6.25
815.769	8.25
816.511	4.25
817.254	8.25
817.997	4.25
818.74	8.25
819.482	7.25
820.225	6.25
820.967	6.25
821.71	7.25
822.452	6.25
823.194	4.25
823.936	5.25
824.678	2.25
825.42	4.25
826.162	5.25
826.904	4.25
827.646	3.25
828.388	4.25
829.129	6.25
829.871	2.25
830.612	5.25
831.354	7.25
832.095	4.25
832.836	6.25
833.577	4.25
834.319	2.25
835.06	5.25
835.801	4.25
836.542	3.25
837.282	5.25
838.023	5.25
838.764	2.25
839.504	5.25
840.245	2.25
840.985	4.25
841.726	7.25
842.466	4.25
843.206	3.25
843.946	3.25
844.687	2.25
845.427	2.25
846.166	6.25
846.906	5.25
847.646	2.25
848.386	4.25
849.125	2.25
849.865	3.25
850.605	5.25
851.344	4.25
852.083	5.25
852.823	4.25
853.562	4.25
854.301	3.25
855.04	3.25
855.779	2.25
856.518	4.25
857.257	2.25
857.995	1.25
858.734	1.25
859.473	4.25
860.211	3.25
860.95	3.25
861.688	2.25
862.426	3.25
863.165	1.25
863.903	4.25
864.641	3.25
865.379	2.25
866.117	4.25
866.855	3.25
867.593	0.25
868.33	2.25
869.068	1.25
869.806	3.25
870.543	0.25
871.28	1.25
872.018	0.25
872.755	1.25
873.492	2.25
874.229	0.25
874.967	2.25
875.703	1.25
876.44	1.25
877.177	1.25
877.914	1.25
878.651	2.25
879.387	2.25
880.124	2.25
880.86	1.25
881.597	3.25
882.333	2.25
883.069	2.25
883.806	2.25
884.542	2.25
885.278	0.25
886.014	4.25
886.749	1.25
887.485	2.25
888.221	1.25
888.957	1.25
889.692	0.25
890.428	1.25
891.163	0.25
891.899	-0.75
892.634	1.25
893.369	2.25
894.104	1.25
894.839	1.25
895.574	0.25
896.309	3.25
897.044	1.25
897.779	3.25
898.514	2.25
899.248	2.25
899.983	-0.75
900.717	-2.75
901.452	-0.75
902.186	2.25
902.92	0.25
903.654	2.25
904.389	1.25
905.123	1.25
905.857	-1.75
906.59	-0.75
907.324	2.25
908.058	0.25
908.792	0.25
909.525	-0.75
910.259	2.25
910.992	-0.75
911.726	3.25
912.459	2.25
913.192	1.25
913.925	1.25
914.658	1.25
915.391	-0.75
916.124	1.25
916.857	1.25
917.59	0.25
918.323	-0.75
919.055	1.25
919.788	0.25
920.521	1.25
921.253	2.25
921.985	1.25
922.718	0.25
923.45	0.25
924.182	0.25
924.914	-0.75
925.646	1.25
926.378	0.25
927.11	0.25
927.841	1.25
928.573	0.25
929.305	-0.75
930.036	-0.75
930.768	-0.75
931.499	1.25
932.23	-0.75
932.962	-1.75
933.693	0.25
934.424	-0.75
935.155	0.25
935.886	1.25
936.617	0.25
937.348	-1.75
938.078	2.25
938.809	0.25
939.54	-1.75
940.27	0.25
941.001	0.25
941.731	-1.75
942.461	2.25
943.191	1.25
943.922	1.25
944.652	1.25
945.382	0.25
946.112	0.25
946.841	-0.75
947.571	1.25
948.301	-0.75
949.031	0.25
949.76	1.25
950.49	2.25
951.219	1.25
951.948	1.25
952.678	-0.75
953.407	2.25
954.136	-0.75
954.865	-0.75
955.594	2.25
956.323	0.25
957.052	0.25
957.78	1.25
958.509	-1.75
959.238	-0.75
959.966	0.25
960.695	2.25
961.423	0.25
962.151	-1.75
962.88	0.25
963.608	1.25
964.336	-1.75
965.064	-0.75
965.792	-0.75
966.52	-0.75
967.247	-1.75
967.975	1.25
968.703	1.25
969.43	0.25
970.158	0.25
970.885	0.25
971.613	0.25
972.34	-0.75
973.067	2.25
973.794	0.25
974.521	0.25
975.248	2.25
975.975	-0.75
976.702	-0.75
977.429	-0.75
978.156	1.25
978.882	1.25
979.609	-0.75
980.335	1.25
981.062	-0.75
981.788	0.25
982.514	-2.75
983.24	1.25
983.967	-1.75
984.693	-0.75
985.419	0.25
986.144	-0.75
986.87	0.25
987.596	1.25
988.322	-1.75
989.047	1.25
989.773	-0.75
990.498	1.25
991.224	0.25
991.949	-0.75
992.674	0.25
993.399	0.25
994.124	3.25
994.849	1.25
995.574	0.25
996.299	1.25
997.024	-1.75
997.749	1.25
998.473	1.25
999.198	0.25
999.922	3.25
1000.647	1.25
1001.371	3.25
1002.095	-0.75
1002.82	-1.75
1003.544	0.25
1004.268	1.25
1004.992	2.25
1005.716	3.25
1006.439	2.25
1007.163	1.25
1007.887	3.25
1008.611	0.25
1009.334	-0.75
1010.058	0.25
1010.781	-1.75
1011.504	-1.75
1012.228	-0.75
1012.951	-0.75
1013.674	-0.75
1014.397	0.25
1015.12	0.25
