节点500_425_QEPB04081__121__15-50-19-296.txt的数据

Date: Wed Nov 12 15:50:19 CST 2025
User: PC
Spectrometer: QEPB0408
触发模式: 0
积分时间 (秒): 1.000000E-2
Scans to average: 1
启用暗噪声校正: true
启用非线性校正: false
滑动平均宽度: 0
X轴模式: Wavelengths
Number of Pixels in Spectrum: 1044
>>>>>Begin Spectral Data<<<<<
220.843	2.12
221.644	7.12
222.444	3.12
223.244	4.12
224.045	2.12
224.845	3.12
225.645	3.12
226.445	2.12
227.245	5.12
228.045	5.12
228.845	5.12
229.645	4.12
230.444	5.12
231.244	3.12
232.043	5.12
232.843	3.12
233.642	4.12
234.442	5.12
235.241	6.12
236.04	6.12
236.839	5.12
237.638	5.12
238.437	8.12
239.236	7.12
240.035	8.12
240.833	6.12
241.632	8.12
242.43	7.12
243.229	9.12
244.027	6.12
244.826	9.12
245.624	9.12
246.422	9.12
247.22	8.12
248.018	11.12
248.816	9.12
249.614	10.12
250.412	7.12
251.21	11.12
252.007	11.12
252.805	8.12
253.602	8.12
254.4	11.12
255.197	12.12
255.994	11.12
256.791	12.12
257.589	15.12
258.386	11.12
259.183	16.12
259.979	15.12
260.776	15.12
261.573	16.12
262.37	16.12
263.166	19.12
263.963	20.12
264.759	16.12
265.556	20.12
266.352	21.12
267.148	19.12
267.944	17.12
268.74	22.12
269.536	21.12
270.332	20.12
271.128	24.12
271.924	23.12
272.719	21.12
273.515	20.12
274.311	24.12
275.106	25.12
275.901	25.12
276.697	25.12
277.492	27.12
278.287	24.12
279.082	25.12
279.877	27.12
280.672	29.12
281.467	25.12
282.262	24.12
283.056	24.12
283.851	25.12
284.646	25.12
285.44	25.12
286.234	26.12
287.029	25.12
287.823	25.12
288.617	26.12
289.411	25.12
290.205	24.12
290.999	24.12
291.793	25.12
292.587	23.12
293.381	21.12
294.174	24.12
294.968	21.12
295.761	23.12
296.555	19.12
297.348	21.12
298.141	18.12
298.935	21.12
299.728	20.12
300.521	18.12
301.314	18.12
302.107	17.12
302.899	18.12
303.692	16.12
304.485	16.12
305.277	19.12
306.07	14.12
306.862	16.12
307.655	18.12
308.447	14.12
309.239	16.12
310.031	14.12
310.823	14.12
311.615	14.12
312.407	12.12
313.199	14.12
313.991	12.12
314.783	11.12
315.574	13.12
316.366	11.12
317.157	11.12
317.949	10.12
318.74	13.12
319.531	9.12
320.322	10.12
321.113	10.12
321.904	10.12
322.695	12.12
323.486	8.12
324.277	10.12
325.068	8.12
325.858	10.12
326.649	9.12
327.439	10.12
328.23	8.12
329.02	7.12
329.81	8.12
330.6	7.12
331.391	7.12
332.181	8.12
332.971	8.12
333.76	10.12
334.55	9.12
335.34	12.12
336.13	8.12
336.919	9.12
337.709	9.12
338.498	7.12
339.287	7.12
340.077	10.12
340.866	8.12
341.655	12.12
342.444	8.12
343.233	8.12
344.022	6.12
344.811	10.12
345.6	8.12
346.388	8.12
347.177	9.12
347.965	9.12
348.754	9.12
349.542	10.12
350.33	8.12
351.119	7.12
351.907	9.12
352.695	7.12
353.483	6.12
354.271	7.12
355.059	9.12
355.846	6.12
356.634	8.12
357.422	5.12
358.209	8.12
358.997	6.12
359.784	9.12
360.571	6.12
361.359	8.12
362.146	6.12
362.933	6.12
363.72	10.12
364.507	7.12
365.294	8.12
366.081	7.12
366.867	5.12
367.654	8.12
368.44	6.12
369.227	7.12
370.013	6.12
370.8	8.12
371.586	9.12
372.372	8.12
373.158	7.12
373.944	8.12
374.73	11.12
375.516	8.12
376.302	6.12
377.088	5.12
377.873	8.12
378.659	7.12
379.445	7.12
380.23	8.12
381.015	6.12
381.801	6.12
382.586	8.12
383.371	8.12
384.156	7.12
384.941	6.12
385.726	7.12
386.511	11.12
387.296	8.12
388.08	4.12
388.865	6.12
389.649	9.12
390.434	8.12
391.218	9.12
392.003	10.12
392.787	7.12
393.571	7.12
394.355	9.12
395.139	8.12
395.923	8.12
396.707	8.12
397.491	8.12
398.274	9.12
399.058	9.12
399.842	9.12
400.625	11.12
401.408	8.12
402.192	11.12
402.975	10.12
403.758	11.12
404.541	12.12
405.324	9.12
406.107	8.12
406.89	10.12
407.673	13.12
408.456	12.12
409.238	10.12
410.021	10.12
410.803	13.12
411.586	13.12
412.368	12.12
413.151	10.12
413.933	12.12
414.715	12.12
415.497	12.12
416.279	14.12
417.061	14.12
417.843	13.12
418.624	13.12
419.406	13.12
420.188	16.12
420.969	14.12
421.751	14.12
422.532	16.12
423.313	15.12
424.095	16.12
424.876	14.12
425.657	16.12
426.438	17.12
427.219	16.12
428	20.12
428.78	15.12
429.561	18.12
430.342	20.12
431.122	22.12
431.903	21.12
432.683	22.12
433.464	21.12
434.244	24.12
435.024	27.12
435.804	27.12
436.584	27.12
437.364	30.12
438.144	26.12
438.924	32.12
439.704	30.12
440.483	33.12
441.263	36.12
442.042	38.12
442.822	39.12
443.601	41.12
444.38	44.12
445.16	46.12
445.939	51.12
446.718	58.12
447.497	58.12
448.276	63.12
449.054	65.12
449.833	75.12
450.612	84.12
451.391	87.12
452.169	96.12
452.948	108.12
453.726	120.12
454.504	130.12
455.282	147.12
456.061	162.12
456.839	174.12
457.617	200.12
458.395	218.12
459.172	243.12
459.95	270.12
460.728	309.12
461.506	336.12
462.283	381.12
463.061	420.12
463.838	478.12
464.615	537.12
465.393	597.12
466.17	658.12
466.947	733.12
467.724	832.12
468.501	921.12
469.278	1034.12
470.055	1143.12
470.831	1275.12
471.608	1394.12
472.385	1574.12
473.161	1751.12
473.938	1929.12
474.714	2136.12
475.49	2356.12
476.266	2612.12
477.043	2885.12
477.819	3205.12
478.595	3546.12
479.371	3928.12
480.146	4306.12
480.922	4733.12
481.698	5215.12
482.473	5732.12
483.249	6298.12
484.024	6908.12
484.8	7646.12
485.575	8322.12
486.35	9147.12
487.126	10002.12
487.901	10954.12
488.676	11940.12
489.451	13040.12
490.225	14210.12
491	15433.12
491.775	16759.12
492.55	18042.12
493.324	19520.12
494.099	20919.12
494.873	22366.12
495.647	23864.12
496.422	25418.12
497.196	26967.12
497.97	28562.12
498.744	30037.12
499.518	31396.12
500.292	32596.12
501.066	33750.12
501.839	34834.12
502.613	35698.12
503.387	36307.12
504.16	36689.12
504.934	36904.12
505.707	36706.12
506.48	36531.12
507.253	36069.12
508.027	35525.12
508.8	34760.12
509.573	33886.12
510.346	32895.12
511.118	31843.12
511.891	30664.12
512.664	29490.12
513.437	28276.12
514.209	27072.12
514.982	25989.12
515.754	24862.12
516.526	23747.12
517.298	22733.12
518.071	21824.12
518.843	20874.12
519.615	20070.12
520.387	19252.12
521.159	18566.12
521.93	17825.12
522.702	17092.12
523.474	16427.12
524.245	15764.12
525.017	15002.12
525.788	14334.12
526.56	13638.12
527.331	13027.12
528.102	12407.12
528.873	11769.12
529.644	11175.12
530.415	10709.12
531.186	10121.12
531.957	9579.12
532.728	9055.12
533.498	8544.12
534.269	8053.12
535.039	7630.12
535.81	7216.12
536.58	6812.12
537.351	6409.12
538.121	6062.12
538.891	5736.12
539.661	5483.12
540.431	5174.12
541.201	4862.12
541.971	4634.12
542.741	4392.12
543.51	4156.12
544.28	3969.12
545.05	3776.12
545.819	3572.12
546.588	3404.12
547.358	3256.12
548.127	3049.12
548.896	2905.12
549.665	2750.12
550.434	2592.12
551.203	2470.12
551.972	2333.12
552.741	2218.12
553.51	2092.12
554.278	1978.12
555.047	1848.12
555.815	1760.12
556.584	1650.12
557.352	1557.12
558.121	1460.12
558.889	1384.12
559.657	1317.12
560.425	1249.12
561.193	1176.12
561.961	1105.12
562.729	1054.12
563.496	992.12
564.264	933.12
565.032	900.12
565.799	837.12
566.567	800.12
567.334	744.12
568.101	716.12
568.869	668.12
569.636	628.12
570.403	605.12
571.17	559.12
571.937	528.12
572.704	506.12
573.471	466.12
574.237	448.12
575.004	420.12
575.771	396.12
576.537	376.12
577.303	349.12
578.07	333.12
578.836	310.12
579.602	298.12
580.368	280.12
581.134	267.12
581.9	256.12
582.666	236.12
583.432	223.12
584.198	222.12
584.964	207.12
585.729	195.12
586.495	183.12
587.26	176.12
588.025	169.12
588.791	153.12
589.556	150.12
590.321	143.12
591.086	136.12
591.851	126.12
592.616	121.12
593.381	121.12
594.146	109.12
594.911	108.12
595.675	101.12
596.44	97.12
597.204	91.12
597.969	83.12
598.733	79.12
599.497	80.12
600.261	78.12
601.025	73.12
601.79	71.12
602.553	65.12
603.317	61.12
604.081	63.12
604.845	58.12
605.609	59.12
606.372	57.12
607.136	51.12
607.899	50.12
608.662	47.12
609.426	44.12
610.189	43.12
610.952	44.12
611.715	41.12
612.478	39.12
613.241	43.12
614.004	38.12
614.767	35.12
615.529	36.12
616.292	34.12
617.055	34.12
617.817	30.12
618.579	30.12
619.342	29.12
620.104	32.12
620.866	28.12
621.628	27.12
622.39	27.12
623.152	25.12
623.914	25.12
624.676	23.12
625.438	22.12
626.199	22.12
626.961	21.12
627.722	18.12
628.484	18.12
629.245	21.12
630.006	17.12
630.768	19.12
631.529	16.12
632.29	18.12
633.051	17.12
633.812	16.12
634.573	17.12
635.333	15.12
636.094	17.12
636.855	13.12
637.615	15.12
638.376	14.12
639.136	14.12
639.896	12.12
640.657	13.12
641.417	9.12
642.177	13.12
642.937	11.12
643.697	12.12
644.457	11.12
645.216	11.12
645.976	13.12
646.736	8.12
647.495	11.12
648.255	6.12
649.014	10.12
649.774	9.12
650.533	9.12
651.292	8.12
652.051	8.12
652.81	10.12
653.569	9.12
654.328	9.12
655.087	7.12
655.846	9.12
656.604	8.12
657.363	7.12
658.121	11.12
658.88	9.12
659.638	7.12
660.397	8.12
661.155	8.12
661.913	6.12
662.671	8.12
663.429	7.12
664.187	6.12
664.945	8.12
665.703	8.12
666.46	8.12
667.218	7.12
667.976	7.12
668.733	8.12
669.49	7.12
670.248	7.12
671.005	6.12
671.762	3.12
672.519	8.12
673.276	5.12
674.033	7.12
674.79	5.12
675.547	7.12
676.304	7.12
677.06	7.12
677.817	5.12
678.574	5.12
679.33	5.12
680.086	6.12
680.843	5.12
681.599	5.12
682.355	4.12
683.111	7.12
683.867	4.12
684.623	2.12
685.379	6.12
686.135	5.12
686.89	7.12
687.646	4.12
688.402	5.12
689.157	4.12
689.912	2.12
690.668	5.12
691.423	7.12
692.178	5.12
692.933	3.12
693.688	3.12
694.443	6.12
695.198	6.12
695.953	5.12
696.708	5.12
697.462	6.12
698.217	5.12
698.972	1.12
699.726	3.12
700.48	5.12
701.235	5.12
701.989	4.12
702.743	4.12
703.497	8.12
704.251	4.12
705.005	5.12
705.759	5.12
706.513	4.12
707.266	7.12
708.02	4.12
708.774	5.12
709.527	4.12
710.28	5.12
711.034	6.12
711.787	2.12
712.54	6.12
713.293	6.12
714.046	4.12
714.799	6.12
715.552	4.12
716.305	5.12
717.058	3.12
717.81	6.12
718.563	3.12
719.315	6.12
720.068	5.12
720.82	3.12
721.573	6.12
722.325	5.12
723.077	7.12
723.829	6.12
724.581	3.12
725.333	5.12
726.085	5.12
726.836	6.12
727.588	5.12
728.34	5.12
729.091	6.12
729.843	4.12
730.594	5.12
731.346	7.12
732.097	7.12
732.848	7.12
733.599	7.12
734.35	7.12
735.101	6.12
735.852	5.12
736.603	5.12
737.354	7.12
738.104	7.12
738.855	7.12
739.605	6.12
740.356	8.12
741.106	5.12
741.856	8.12
742.607	6.12
743.357	8.12
744.107	5.12
744.857	8.12
745.607	7.12
746.357	7.12
747.106	5.12
747.856	7.12
748.606	7.12
749.355	7.12
750.105	8.12
750.854	8.12
751.603	9.12
752.353	9.12
753.102	8.12
753.851	9.12
754.6	8.12
755.349	9.12
756.098	9.12
756.847	8.12
757.595	8.12
758.344	9.12
759.093	9.12
759.841	9.12
760.589	7.12
761.338	11.12
762.086	10.12
762.834	8.12
763.582	11.12
764.331	8.12
765.079	8.12
765.826	9.12
766.574	10.12
767.322	8.12
768.07	9.12
768.817	12.12
769.565	10.12
770.312	13.12
771.06	8.12
771.807	9.12
772.554	9.12
773.302	11.12
774.049	11.12
774.796	11.12
775.543	10.12
776.29	11.12
777.036	12.12
777.783	13.12
778.53	10.12
779.276	11.12
780.023	10.12
780.769	14.12
781.516	14.12
782.262	12.12
783.008	10.12
783.754	10.12
784.5	11.12
785.246	13.12
785.992	9.12
786.738	13.12
787.484	11.12
788.23	13.12
788.975	10.12
789.721	12.12
790.466	12.12
791.212	13.12
791.957	11.12
792.702	11.12
793.447	11.12
794.193	10.12
794.938	11.12
795.683	12.12
796.427	9.12
797.172	10.12
797.917	9.12
798.662	9.12
799.406	10.12
800.151	9.12
800.895	11.12
801.64	9.12
802.384	10.12
803.128	10.12
803.872	9.12
804.616	7.12
805.36	6.12
806.104	9.12
806.848	9.12
807.592	10.12
808.336	5.12
809.079	8.12
809.823	6.12
810.566	6.12
811.31	5.12
812.053	6.12
812.796	10.12
813.539	6.12
814.283	5.12
815.026	7.12
815.769	7.12
816.511	8.12
817.254	5.12
817.997	6.12
818.74	5.12
819.482	4.12
820.225	4.12
820.967	5.12
821.71	6.12
822.452	6.12
823.194	7.12
823.936	6.12
824.678	1.12
825.42	5.12
826.162	6.12
826.904	5.12
827.646	6.12
828.388	8.12
829.129	3.12
829.871	5.12
830.612	5.12
831.354	4.12
832.095	5.12
832.836	8.12
833.577	5.12
834.319	6.12
835.06	5.12
835.801	4.12
836.542	3.12
837.282	6.12
838.023	2.12
838.764	2.12
839.504	6.12
840.245	6.12
840.985	6.12
841.726	2.12
842.466	3.12
843.206	5.12
843.946	4.12
844.687	5.12
845.427	4.12
846.166	3.12
846.906	-0.88
847.646	2.12
848.386	3.12
849.125	3.12
849.865	4.12
850.605	5.12
851.344	2.12
852.083	6.12
852.823	1.12
853.562	4.12
854.301	2.12
855.04	2.12
855.779	4.12
856.518	4.12
857.257	3.12
857.995	2.12
858.734	2.12
859.473	3.12
860.211	3.12
860.95	4.12
861.688	1.12
862.426	2.12
863.165	2.12
863.903	1.12
864.641	3.12
865.379	2.12
866.117	4.12
866.855	1.12
867.593	4.12
868.33	2.12
869.068	1.12
869.806	1.12
870.543	1.12
871.28	2.12
872.018	2.12
872.755	2.12
873.492	0.12
874.229	-0.88
874.967	0.12
875.703	1.12
876.44	1.12
877.177	0.12
877.914	1.12
878.651	1.12
879.387	1.12
880.124	1.12
880.86	2.12
881.597	0.12
882.333	-0.88
883.069	1.12
883.806	1.12
884.542	0.12
885.278	2.12
886.014	0.12
886.749	1.12
887.485	2.12
888.221	0.12
888.957	2.12
889.692	1.12
890.428	2.12
891.163	-0.88
891.899	1.12
892.634	0.12
893.369	1.12
894.104	3.12
894.839	2.12
895.574	0.12
896.309	-0.88
897.044	1.12
897.779	2.12
898.514	2.12
899.248	1.12
899.983	-1.88
900.717	1.12
901.452	0.12
902.186	-0.88
902.92	0.12
903.654	1.12
904.389	1.12
905.123	-1.88
905.857	1.12
906.59	2.12
907.324	-0.88
908.058	1.12
908.792	0.12
909.525	1.12
910.259	-3.88
910.992	0.12
911.726	1.12
912.459	0.12
913.192	1.12
913.925	0.12
914.658	2.12
915.391	2.12
916.124	-1.88
916.857	1.12
917.59	-0.88
918.323	2.12
919.055	2.12
919.788	0.12
920.521	2.12
921.253	1.12
921.985	0.12
922.718	2.12
923.45	-0.88
924.182	1.12
924.914	-2.88
925.646	-0.88
926.378	1.12
927.11	1.12
927.841	1.12
928.573	0.12
929.305	0.12
930.036	-1.88
930.768	0.12
931.499	0.12
932.23	0.12
932.962	-0.88
933.693	-0.88
934.424	0.12
935.155	0.12
935.886	1.12
936.617	-0.88
937.348	-1.88
938.078	-1.88
938.809	1.12
939.54	0.12
940.27	1.12
941.001	0.12
941.731	-0.88
942.461	-0.88
943.191	0.12
943.922	2.12
944.652	2.12
945.382	0.12
946.112	1.12
946.841	0.12
947.571	-0.88
948.301	3.12
949.031	1.12
949.76	-0.88
950.49	-0.88
951.219	1.12
951.948	-1.88
952.678	0.12
953.407	0.12
954.136	-0.88
954.865	0.12
955.594	2.12
956.323	0.12
957.052	0.12
957.78	-1.88
958.509	0.12
959.238	-0.88
959.966	-1.88
960.695	0.12
961.423	0.12
962.151	0.12
962.88	3.12
963.608	0.12
964.336	4.12
965.064	1.12
965.792	1.12
966.52	1.12
967.247	1.12
967.975	2.12
968.703	-0.88
969.43	3.12
970.158	0.12
970.885	2.12
971.613	0.12
972.34	1.12
973.067	1.12
973.794	-1.88
974.521	-1.88
975.248	-1.88
975.975	-1.88
976.702	0.12
977.429	-0.88
978.156	1.12
978.882	0.12
979.609	0.12
980.335	0.12
981.062	0.12
981.788	1.12
982.514	-0.88
983.24	1.12
983.967	-0.88
984.693	2.12
985.419	2.12
986.144	1.12
986.87	0.12
987.596	-0.88
988.322	-0.88
989.047	-1.88
989.773	-0.88
990.498	2.12
991.224	-1.88
991.949	-0.88
992.674	-0.88
993.399	-0.88
994.124	0.12
994.849	0.12
995.574	1.12
996.299	-0.88
997.024	2.12
997.749	-1.88
998.473	3.12
999.198	1.12
999.922	0.12
1000.647	-0.88
1001.371	5.12
1002.095	-1.88
1002.82	-0.88
1003.544	-1.88
1004.268	3.12
1004.992	0.12
1005.716	2.12
1006.439	2.12
1007.163	4.12
1007.887	4.12
1008.611	0.12
1009.334	0.12
1010.058	0.12
1010.781	-1.88
1011.504	1.12
1012.228	-1.88
1012.951	0.12
1013.674	-2.88
1014.397	0.12
1015.12	2.12
