节点500_425_QEPB04081__87__15-49-45-338.txt的数据

Date: Wed Nov 12 15:49:45 CST 2025
User: PC
Spectrometer: QEPB0408
触发模式: 0
积分时间 (秒): 1.000000E-2
Scans to average: 1
启用暗噪声校正: true
启用非线性校正: false
滑动平均宽度: 0
X轴模式: Wavelengths
Number of Pixels in Spectrum: 1044
>>>>>Begin Spectral Data<<<<<
220.843	2.88
221.644	1.88
222.444	3.88
223.244	2.88
224.045	3.88
224.845	2.88
225.645	2.88
226.445	4.88
227.245	3.88
228.045	3.88
228.845	4.88
229.645	2.88
230.444	3.88
231.244	4.88
232.043	3.88
232.843	5.88
233.642	4.88
234.442	7.88
235.241	5.88
236.04	6.88
236.839	4.88
237.638	5.88
238.437	6.88
239.236	3.88
240.035	6.88
240.833	4.88
241.632	5.88
242.43	6.88
243.229	7.88
244.027	8.88
244.826	5.88
245.624	8.88
246.422	6.88
247.22	6.88
248.018	9.88
248.816	10.88
249.614	10.88
250.412	9.88
251.21	9.88
252.007	10.88
252.805	10.88
253.602	11.88
254.4	12.88
255.197	11.88
255.994	13.88
256.791	11.88
257.589	11.88
258.386	15.88
259.183	11.88
259.979	13.88
260.776	12.88
261.573	12.88
262.37	15.88
263.166	16.88
263.963	15.88
264.759	18.88
265.556	18.88
266.352	20.88
267.148	17.88
267.944	19.88
268.74	19.88
269.536	20.88
270.332	20.88
271.128	23.88
271.924	20.88
272.719	23.88
273.515	20.88
274.311	25.88
275.106	27.88
275.901	24.88
276.697	24.88
277.492	22.88
278.287	25.88
279.082	26.88
279.877	28.88
280.672	25.88
281.467	24.88
282.262	26.88
283.056	25.88
283.851	25.88
284.646	23.88
285.44	26.88
286.234	26.88
287.029	24.88
287.823	25.88
288.617	22.88
289.411	25.88
290.205	24.88
290.999	22.88
291.793	26.88
292.587	23.88
293.381	24.88
294.174	22.88
294.968	21.88
295.761	18.88
296.555	22.88
297.348	21.88
298.141	17.88
298.935	21.88
299.728	19.88
300.521	19.88
301.314	18.88
302.107	14.88
302.899	16.88
303.692	15.88
304.485	16.88
305.277	14.88
306.07	16.88
306.862	14.88
307.655	17.88
308.447	13.88
309.239	13.88
310.031	13.88
310.823	12.88
311.615	13.88
312.407	12.88
313.199	10.88
313.991	9.88
314.783	9.88
315.574	9.88
316.366	13.88
317.157	9.88
317.949	9.88
318.74	10.88
319.531	11.88
320.322	7.88
321.113	10.88
321.904	9.88
322.695	7.88
323.486	10.88
324.277	8.88
325.068	9.88
325.858	8.88
326.649	5.88
327.439	10.88
328.23	7.88
329.02	6.88
329.81	6.88
330.6	7.88
331.391	9.88
332.181	5.88
332.971	7.88
333.76	7.88
334.55	10.88
335.34	8.88
336.13	7.88
336.919	8.88
337.709	6.88
338.498	9.88
339.287	6.88
340.077	5.88
340.866	8.88
341.655	8.88
342.444	7.88
343.233	8.88
344.022	9.88
344.811	7.88
345.6	7.88
346.388	9.88
347.177	7.88
347.965	5.88
348.754	10.88
349.542	9.88
350.33	5.88
351.119	7.88
351.907	7.88
352.695	4.88
353.483	7.88
354.271	7.88
355.059	5.88
355.846	5.88
356.634	6.88
357.422	5.88
358.209	7.88
358.997	4.88
359.784	4.88
360.571	4.88
361.359	6.88
362.146	5.88
362.933	6.88
363.72	6.88
364.507	6.88
365.294	8.88
366.081	6.88
366.867	5.88
367.654	6.88
368.44	4.88
369.227	5.88
370.013	6.88
370.8	7.88
371.586	5.88
372.372	6.88
373.158	7.88
373.944	8.88
374.73	6.88
375.516	8.88
376.302	5.88
377.088	7.88
377.873	5.88
378.659	5.88
379.445	3.88
380.23	5.88
381.015	6.88
381.801	9.88
382.586	6.88
383.371	6.88
384.156	7.88
384.941	5.88
385.726	6.88
386.511	7.88
387.296	3.88
388.08	7.88
388.865	7.88
389.649	6.88
390.434	5.88
391.218	8.88
392.003	8.88
392.787	7.88
393.571	8.88
394.355	8.88
395.139	8.88
395.923	7.88
396.707	8.88
397.491	9.88
398.274	10.88
399.058	8.88
399.842	9.88
400.625	8.88
401.408	9.88
402.192	7.88
402.975	10.88
403.758	9.88
404.541	10.88
405.324	8.88
406.107	10.88
406.89	10.88
407.673	10.88
408.456	10.88
409.238	11.88
410.021	10.88
410.803	10.88
411.586	8.88
412.368	12.88
413.151	11.88
413.933	11.88
414.715	13.88
415.497	13.88
416.279	12.88
417.061	13.88
417.843	13.88
418.624	8.88
419.406	13.88
420.188	13.88
420.969	16.88
421.751	14.88
422.532	13.88
423.313	17.88
424.095	15.88
424.876	14.88
425.657	15.88
426.438	12.88
427.219	15.88
428	18.88
428.78	17.88
429.561	16.88
430.342	22.88
431.122	18.88
431.903	22.88
432.683	22.88
433.464	22.88
434.244	23.88
435.024	24.88
435.804	24.88
436.584	25.88
437.364	25.88
438.144	28.88
438.924	29.88
439.704	30.88
440.483	34.88
441.263	32.88
442.042	36.88
442.822	38.88
443.601	42.88
444.38	41.88
445.16	43.88
445.939	49.88
446.718	54.88
447.497	56.88
448.276	63.88
449.054	67.88
449.833	77.88
450.612	78.88
451.391	88.88
452.169	97.88
452.948	105.88
453.726	116.88
454.504	128.88
455.282	140.88
456.061	154.88
456.839	175.88
457.617	191.88
458.395	216.88
459.172	243.88
459.95	273.88
460.728	298.88
461.506	342.88
462.283	376.88
463.061	417.88
463.838	477.88
464.615	524.88
465.393	582.88
466.17	649.88
466.947	733.88
467.724	815.88
468.501	909.88
469.278	1027.88
470.055	1133.88
470.831	1264.88
471.608	1396.88
472.385	1551.88
473.161	1723.88
473.938	1942.88
474.714	2146.88
475.49	2359.88
476.266	2569.88
477.043	2900.88
477.819	3225.88
478.595	3577.88
479.371	3887.88
480.146	4318.88
480.922	4746.88
481.698	5237.88
482.473	5783.88
483.249	6342.88
484.024	7001.88
484.8	7704.88
485.575	8438.88
486.35	9211.88
487.126	10114.88
487.901	11084.88
488.676	12100.88
489.451	13210.88
490.225	14370.88
491	15649.88
491.775	17030.88
492.55	18409.88
493.324	19913.88
494.099	21313.88
494.873	22742.88
495.647	24272.88
496.422	25798.88
497.196	27374.88
497.97	29057.88
498.744	30498.88
499.518	31896.88
500.292	33175.88
501.066	34147.88
501.839	35280.88
502.613	36138.88
503.387	36626.88
504.16	37066.88
504.934	37170.88
505.707	37033.88
506.48	36804.88
507.253	36225.88
508.027	35634.88
508.8	34944.88
509.573	33993.88
510.346	32919.88
511.118	31828.88
511.891	30667.88
512.664	29423.88
513.437	28239.88
514.209	26970.88
514.982	25950.88
515.754	24808.88
516.526	23708.88
517.298	22661.88
518.071	21692.88
518.843	20821.88
519.615	19958.88
520.387	19162.88
521.159	18399.88
521.93	17712.88
522.702	17012.88
523.474	16364.88
524.245	15656.88
525.017	14899.88
525.788	14239.88
526.56	13614.88
527.331	12936.88
528.102	12311.88
528.873	11685.88
529.644	11100.88
530.415	10576.88
531.186	10069.88
531.957	9520.88
532.728	8976.88
533.498	8456.88
534.269	7980.88
535.039	7551.88
535.81	7121.88
536.58	6732.88
537.351	6346.88
538.121	5987.88
538.891	5684.88
539.661	5404.88
540.431	5101.88
541.201	4827.88
541.971	4602.88
542.741	4362.88
543.51	4122.88
544.28	3920.88
545.05	3733.88
545.819	3561.88
546.588	3368.88
547.358	3207.88
548.127	3045.88
548.896	2876.88
549.665	2710.88
550.434	2572.88
551.203	2439.88
551.972	2332.88
552.741	2187.88
553.51	2082.88
554.278	1947.88
555.047	1825.88
555.815	1725.88
556.584	1627.88
557.352	1547.88
558.121	1461.88
558.889	1375.88
559.657	1302.88
560.425	1228.88
561.193	1159.88
561.961	1084.88
562.729	1042.88
563.496	997.88
564.264	925.88
565.032	873.88
565.799	832.88
566.567	785.88
567.334	737.88
568.101	707.88
568.869	669.88
569.636	622.88
570.403	581.88
571.17	551.88
571.937	527.88
572.704	492.88
573.471	469.88
574.237	440.88
575.004	414.88
575.771	385.88
576.537	367.88
577.303	334.88
578.07	327.88
578.836	299.88
579.602	287.88
580.368	277.88
581.134	258.88
581.9	245.88
582.666	232.88
583.432	219.88
584.198	203.88
584.964	199.88
585.729	188.88
586.495	180.88
587.26	172.88
588.025	164.88
588.791	155.88
589.556	142.88
590.321	136.88
591.086	131.88
591.851	128.88
592.616	118.88
593.381	110.88
594.146	104.88
594.911	103.88
595.675	95.88
596.44	94.88
597.204	86.88
597.969	88.88
598.733	79.88
599.497	80.88
600.261	73.88
601.025	69.88
601.79	65.88
602.553	66.88
603.317	62.88
604.081	56.88
604.845	56.88
605.609	55.88
606.372	51.88
607.136	48.88
607.899	48.88
608.662	50.88
609.426	47.88
610.189	47.88
610.952	43.88
611.715	41.88
612.478	38.88
613.241	36.88
614.004	35.88
614.767	35.88
615.529	36.88
616.292	32.88
617.055	29.88
617.817	30.88
618.579	29.88
619.342	27.88
620.104	25.88
620.866	28.88
621.628	27.88
622.39	25.88
623.152	23.88
623.914	23.88
624.676	22.88
625.438	21.88
626.199	20.88
626.961	21.88
627.722	19.88
628.484	19.88
629.245	19.88
630.006	18.88
630.768	19.88
631.529	15.88
632.29	15.88
633.051	17.88
633.812	16.88
634.573	17.88
635.333	15.88
636.094	16.88
636.855	13.88
637.615	11.88
638.376	11.88
639.136	13.88
639.896	12.88
640.657	8.88
641.417	11.88
642.177	11.88
642.937	10.88
643.697	8.88
644.457	9.88
645.216	13.88
645.976	10.88
646.736	11.88
647.495	9.88
648.255	9.88
649.014	10.88
649.774	9.88
650.533	10.88
651.292	7.88
652.051	9.88
652.81	8.88
653.569	5.88
654.328	7.88
655.087	7.88
655.846	9.88
656.604	4.88
657.363	8.88
658.121	7.88
658.88	7.88
659.638	7.88
660.397	7.88
661.155	6.88
661.913	5.88
662.671	4.88
663.429	7.88
664.187	6.88
664.945	7.88
665.703	8.88
666.46	6.88
667.218	4.88
667.976	6.88
668.733	5.88
669.49	5.88
670.248	6.88
671.005	6.88
671.762	3.88
672.519	6.88
673.276	8.88
674.033	5.88
674.79	6.88
675.547	5.88
676.304	5.88
677.06	5.88
677.817	5.88
678.574	2.88
679.33	4.88
680.086	3.88
680.843	3.88
681.599	1.88
682.355	5.88
683.111	4.88
683.867	4.88
684.623	6.88
685.379	5.88
686.135	4.88
686.89	4.88
687.646	4.88
688.402	5.88
689.157	6.88
689.912	5.88
690.668	5.88
691.423	5.88
692.178	3.88
692.933	5.88
693.688	3.88
694.443	4.88
695.198	2.88
695.953	3.88
696.708	4.88
697.462	3.88
698.217	5.88
698.972	2.88
699.726	4.88
700.48	2.88
701.235	5.88
701.989	2.88
702.743	4.88
703.497	6.88
704.251	2.88
705.005	5.88
705.759	4.88
706.513	6.88
707.266	6.88
708.02	6.88
708.774	5.88
709.527	4.88
710.28	6.88
711.034	3.88
711.787	6.88
712.54	4.88
713.293	4.88
714.046	4.88
714.799	5.88
715.552	2.88
716.305	5.88
717.058	3.88
717.81	3.88
718.563	1.88
719.315	8.88
720.068	5.88
720.82	3.88
721.573	5.88
722.325	6.88
723.077	4.88
723.829	4.88
724.581	5.88
725.333	1.88
726.085	4.88
726.836	6.88
727.588	3.88
728.34	4.88
729.091	4.88
729.843	5.88
730.594	4.88
731.346	4.88
732.097	5.88
732.848	3.88
733.599	5.88
734.35	6.88
735.101	1.88
735.852	5.88
736.603	5.88
737.354	6.88
738.104	5.88
738.855	4.88
739.605	5.88
740.356	3.88
741.106	5.88
741.856	3.88
742.607	7.88
743.357	6.88
744.107	6.88
744.857	5.88
745.607	6.88
746.357	6.88
747.106	6.88
747.856	6.88
748.606	8.88
749.355	7.88
750.105	7.88
750.854	8.88
751.603	6.88
752.353	7.88
753.102	6.88
753.851	7.88
754.6	5.88
755.349	7.88
756.098	8.88
756.847	7.88
757.595	7.88
758.344	7.88
759.093	8.88
759.841	7.88
760.589	7.88
761.338	11.88
762.086	6.88
762.834	7.88
763.582	7.88
764.331	7.88
765.079	10.88
765.826	10.88
766.574	11.88
767.322	10.88
768.07	12.88
768.817	9.88
769.565	6.88
770.312	10.88
771.06	8.88
771.807	12.88
772.554	8.88
773.302	11.88
774.049	11.88
774.796	7.88
775.543	11.88
776.29	11.88
777.036	12.88
777.783	11.88
778.53	9.88
779.276	11.88
780.023	12.88
780.769	13.88
781.516	9.88
782.262	13.88
783.008	10.88
783.754	11.88
784.5	11.88
785.246	10.88
785.992	9.88
786.738	9.88
787.484	12.88
788.23	12.88
788.975	10.88
789.721	10.88
790.466	12.88
791.212	8.88
791.957	9.88
792.702	7.88
793.447	12.88
794.193	9.88
794.938	11.88
795.683	8.88
796.427	8.88
797.172	7.88
797.917	9.88
798.662	11.88
799.406	11.88
800.151	10.88
800.895	6.88
801.64	9.88
802.384	7.88
803.128	8.88
803.872	10.88
804.616	8.88
805.36	9.88
806.104	8.88
806.848	7.88
807.592	8.88
808.336	7.88
809.079	5.88
809.823	5.88
810.566	7.88
811.31	4.88
812.053	5.88
812.796	6.88
813.539	4.88
814.283	7.88
815.026	5.88
815.769	5.88
816.511	5.88
817.254	7.88
817.997	3.88
818.74	6.88
819.482	5.88
820.225	5.88
820.967	5.88
821.71	5.88
822.452	5.88
823.194	4.88
823.936	6.88
824.678	4.88
825.42	5.88
826.162	1.88
826.904	4.88
827.646	5.88
828.388	5.88
829.129	3.88
829.871	5.88
830.612	2.88
831.354	1.88
832.095	4.88
832.836	3.88
833.577	2.88
834.319	5.88
835.06	2.88
835.801	2.88
836.542	5.88
837.282	4.88
838.023	3.88
838.764	5.88
839.504	3.88
840.245	3.88
840.985	7.88
841.726	1.88
842.466	4.88
843.206	4.88
843.946	3.88
844.687	3.88
845.427	3.88
846.166	3.88
846.906	3.88
847.646	2.88
848.386	2.88
849.125	2.88
849.865	3.88
850.605	0.88
851.344	2.88
852.083	2.88
852.823	4.88
853.562	2.88
854.301	3.88
855.04	4.88
855.779	4.88
856.518	3.88
857.257	2.88
857.995	3.88
858.734	1.88
859.473	2.88
860.211	3.88
860.95	2.88
861.688	1.88
862.426	2.88
863.165	1.88
863.903	2.88
864.641	1.88
865.379	1.88
866.117	1.88
866.855	2.88
867.593	2.88
868.33	0.88
869.068	2.88
869.806	1.88
870.543	0.88
871.28	2.88
872.018	1.88
872.755	2.88
873.492	2.88
874.229	2.88
874.967	0.88
875.703	-0.12
876.44	1.88
877.177	-1.12
877.914	1.88
878.651	-0.12
879.387	2.88
880.124	0.88
880.86	0.88
881.597	0.88
882.333	-0.12
883.069	2.88
883.806	-1.12
884.542	0.88
885.278	0.88
886.014	0.88
886.749	0.88
887.485	0.88
888.221	3.88
888.957	-2.12
889.692	0.88
890.428	-1.12
891.163	0.88
891.899	0.88
892.634	-0.12
893.369	0.88
894.104	-1.12
894.839	0.88
895.574	-0.12
896.309	-0.12
897.044	-1.12
897.779	1.88
898.514	-0.12
899.248	1.88
899.983	-0.12
900.717	-0.12
901.452	-0.12
902.186	1.88
902.92	1.88
903.654	0.88
904.389	0.88
905.123	-0.12
905.857	-0.12
906.59	-0.12
907.324	0.88
908.058	-1.12
908.792	-0.12
909.525	-0.12
910.259	-0.12
910.992	-0.12
911.726	0.88
912.459	-0.12
913.192	-1.12
913.925	-1.12
914.658	-0.12
915.391	1.88
916.124	0.88
916.857	-1.12
917.59	-2.12
918.323	-0.12
919.055	-2.12
919.788	-0.12
920.521	0.88
921.253	-1.12
921.985	1.88
922.718	0.88
923.45	0.88
924.182	-0.12
924.914	-0.12
925.646	-2.12
926.378	-1.12
927.11	-1.12
927.841	-0.12
928.573	-0.12
929.305	0.88
930.036	-1.12
930.768	0.88
931.499	-1.12
932.23	0.88
932.962	-2.12
933.693	1.88
934.424	-0.12
935.155	-3.12
935.886	-0.12
936.617	-2.12
937.348	-0.12
938.078	-0.12
938.809	-1.12
939.54	-0.12
940.27	1.88
941.001	0.88
941.731	0.88
942.461	-0.12
943.191	-1.12
943.922	-1.12
944.652	0.88
945.382	-0.12
946.112	1.88
946.841	-1.12
947.571	-1.12
948.301	-1.12
949.031	-0.12
949.76	-0.12
950.49	-1.12
951.219	0.88
951.948	-0.12
952.678	-0.12
953.407	-1.12
954.136	-1.12
954.865	-0.12
955.594	-0.12
956.323	0.88
957.052	-0.12
957.78	-0.12
958.509	-0.12
959.238	-0.12
959.966	-0.12
960.695	-0.12
961.423	-2.12
962.151	-1.12
962.88	-0.12
963.608	0.88
964.336	-0.12
965.064	1.88
965.792	0.88
966.52	-2.12
967.247	-0.12
967.975	-0.12
968.703	-1.12
969.43	1.88
970.158	-1.12
970.885	-0.12
971.613	-2.12
972.34	0.88
973.067	-0.12
973.794	1.88
974.521	-2.12
975.248	-0.12
975.975	-0.12
976.702	-2.12
977.429	0.88
978.156	0.88
978.882	1.88
979.609	0.88
980.335	-1.12
981.062	-1.12
981.788	-2.12
982.514	-0.12
983.24	0.88
983.967	-1.12
984.693	0.88
985.419	-2.12
986.144	-0.12
986.87	-2.12
987.596	-0.12
988.322	-0.12
989.047	-0.12
989.773	-0.12
990.498	-0.12
991.224	0.88
991.949	0.88
992.674	-0.12
993.399	1.88
994.124	-3.12
994.849	-2.12
995.574	0.88
996.299	-0.12
997.024	0.88
997.749	-0.12
998.473	-0.12
999.198	-0.12
999.922	-0.12
1000.647	0.88
1001.371	2.88
1002.095	-0.12
1002.82	-1.12
1003.544	-1.12
1004.268	3.88
1004.992	-0.12
1005.716	1.88
1006.439	3.88
1007.163	2.88
1007.887	1.88
1008.611	-0.12
1009.334	-0.12
1010.058	-1.12
1010.781	0.88
1011.504	0.88
1012.228	-0.12
1012.951	0.88
1013.674	-1.12
1014.397	-1.12
1015.12	0.88
