节点500_425_QEPB04081__117__15-50-15-307.txt的数据

Date: Wed Nov 12 15:50:15 CST 2025
User: PC
Spectrometer: QEPB0408
触发模式: 0
积分时间 (秒): 1.000000E-2
Scans to average: 1
启用暗噪声校正: true
启用非线性校正: false
滑动平均宽度: 0
X轴模式: Wavelengths
Number of Pixels in Spectrum: 1044
>>>>>Begin Spectral Data<<<<<
220.843	3.12
221.644	1.12
222.444	3.12
223.244	3.12
224.045	5.12
224.845	5.12
225.645	5.12
226.445	5.12
227.245	3.12
228.045	6.12
228.845	5.12
229.645	4.12
230.444	5.12
231.244	5.12
232.043	7.12
232.843	6.12
233.642	7.12
234.442	6.12
235.241	5.12
236.04	9.12
236.839	6.12
237.638	7.12
238.437	8.12
239.236	6.12
240.035	5.12
240.833	8.12
241.632	7.12
242.43	9.12
243.229	10.12
244.027	7.12
244.826	8.12
245.624	10.12
246.422	8.12
247.22	11.12
248.018	10.12
248.816	10.12
249.614	12.12
250.412	9.12
251.21	12.12
252.007	10.12
252.805	12.12
253.602	11.12
254.4	13.12
255.197	13.12
255.994	11.12
256.791	17.12
257.589	16.12
258.386	15.12
259.183	14.12
259.979	15.12
260.776	16.12
261.573	19.12
262.37	18.12
263.166	15.12
263.963	16.12
264.759	20.12
265.556	18.12
266.352	20.12
267.148	19.12
267.944	21.12
268.74	23.12
269.536	21.12
270.332	22.12
271.128	24.12
271.924	23.12
272.719	23.12
273.515	26.12
274.311	24.12
275.106	22.12
275.901	22.12
276.697	23.12
277.492	27.12
278.287	27.12
279.082	24.12
279.877	28.12
280.672	28.12
281.467	25.12
282.262	28.12
283.056	27.12
283.851	27.12
284.646	26.12
285.44	23.12
286.234	27.12
287.029	26.12
287.823	24.12
288.617	27.12
289.411	23.12
290.205	24.12
290.999	25.12
291.793	22.12
292.587	26.12
293.381	22.12
294.174	26.12
294.968	25.12
295.761	23.12
296.555	23.12
297.348	18.12
298.141	18.12
298.935	22.12
299.728	25.12
300.521	19.12
301.314	18.12
302.107	19.12
302.899	16.12
303.692	17.12
304.485	15.12
305.277	17.12
306.07	19.12
306.862	15.12
307.655	17.12
308.447	16.12
309.239	15.12
310.031	16.12
310.823	14.12
311.615	13.12
312.407	11.12
313.199	13.12
313.991	13.12
314.783	11.12
315.574	17.12
316.366	12.12
317.157	12.12
317.949	15.12
318.74	10.12
319.531	11.12
320.322	13.12
321.113	9.12
321.904	11.12
322.695	10.12
323.486	11.12
324.277	10.12
325.068	11.12
325.858	8.12
326.649	9.12
327.439	8.12
328.23	9.12
329.02	10.12
329.81	10.12
330.6	10.12
331.391	9.12
332.181	8.12
332.971	10.12
333.76	7.12
334.55	11.12
335.34	10.12
336.13	13.12
336.919	8.12
337.709	10.12
338.498	10.12
339.287	10.12
340.077	9.12
340.866	6.12
341.655	10.12
342.444	10.12
343.233	7.12
344.022	9.12
344.811	9.12
345.6	10.12
346.388	10.12
347.177	8.12
347.965	9.12
348.754	10.12
349.542	8.12
350.33	10.12
351.119	10.12
351.907	5.12
352.695	10.12
353.483	8.12
354.271	7.12
355.059	8.12
355.846	7.12
356.634	8.12
357.422	5.12
358.209	8.12
358.997	9.12
359.784	7.12
360.571	6.12
361.359	7.12
362.146	8.12
362.933	8.12
363.72	9.12
364.507	6.12
365.294	8.12
366.081	7.12
366.867	6.12
367.654	6.12
368.44	10.12
369.227	7.12
370.013	10.12
370.8	9.12
371.586	6.12
372.372	9.12
373.158	8.12
373.944	7.12
374.73	8.12
375.516	8.12
376.302	9.12
377.088	10.12
377.873	8.12
378.659	7.12
379.445	8.12
380.23	7.12
381.015	7.12
381.801	9.12
382.586	5.12
383.371	9.12
384.156	9.12
384.941	6.12
385.726	9.12
386.511	10.12
387.296	9.12
388.08	8.12
388.865	9.12
389.649	7.12
390.434	9.12
391.218	9.12
392.003	8.12
392.787	9.12
393.571	8.12
394.355	8.12
395.139	11.12
395.923	11.12
396.707	11.12
397.491	8.12
398.274	9.12
399.058	10.12
399.842	11.12
400.625	11.12
401.408	11.12
402.192	11.12
402.975	9.12
403.758	12.12
404.541	11.12
405.324	9.12
406.107	11.12
406.89	8.12
407.673	11.12
408.456	11.12
409.238	12.12
410.021	13.12
410.803	12.12
411.586	15.12
412.368	12.12
413.151	11.12
413.933	16.12
414.715	12.12
415.497	14.12
416.279	12.12
417.061	12.12
417.843	16.12
418.624	12.12
419.406	16.12
420.188	13.12
420.969	14.12
421.751	16.12
422.532	18.12
423.313	16.12
424.095	16.12
424.876	19.12
425.657	19.12
426.438	19.12
427.219	17.12
428	22.12
428.78	20.12
429.561	19.12
430.342	21.12
431.122	20.12
431.903	23.12
432.683	25.12
433.464	24.12
434.244	24.12
435.024	23.12
435.804	28.12
436.584	30.12
437.364	29.12
438.144	30.12
438.924	30.12
439.704	34.12
440.483	34.12
441.263	36.12
442.042	35.12
442.822	41.12
443.601	43.12
444.38	46.12
445.16	51.12
445.939	52.12
446.718	57.12
447.497	61.12
448.276	63.12
449.054	74.12
449.833	75.12
450.612	83.12
451.391	93.12
452.169	99.12
452.948	107.12
453.726	124.12
454.504	131.12
455.282	142.12
456.061	162.12
456.839	177.12
457.617	194.12
458.395	213.12
459.172	244.12
459.95	272.12
460.728	305.12
461.506	336.12
462.283	377.12
463.061	436.12
463.838	472.12
464.615	527.12
465.393	603.12
466.17	661.12
466.947	746.12
467.724	821.12
468.501	916.12
469.278	1017.12
470.055	1148.12
470.831	1262.12
471.608	1405.12
472.385	1562.12
473.161	1734.12
473.938	1929.12
474.714	2154.12
475.49	2371.12
476.266	2613.12
477.043	2874.12
477.819	3235.12
478.595	3543.12
479.371	3930.12
480.146	4285.12
480.922	4722.12
481.698	5216.12
482.473	5715.12
483.249	6305.12
484.024	6939.12
484.8	7637.12
485.575	8367.12
486.35	9157.12
487.126	9970.12
487.901	10957.12
488.676	11962.12
489.451	13070.12
490.225	14219.12
491	15419.12
491.775	16747.12
492.55	18124.12
493.324	19526.12
494.099	21013.12
494.873	22396.12
495.647	23906.12
496.422	25523.12
497.196	27013.12
497.97	28629.12
498.744	30057.12
499.518	31434.12
500.292	32697.12
501.066	33763.12
501.839	34848.12
502.613	35740.12
503.387	36370.12
504.16	36689.12
504.934	36872.12
505.707	36771.12
506.48	36482.12
507.253	36052.12
508.027	35548.12
508.8	34799.12
509.573	33910.12
510.346	32956.12
511.118	31832.12
511.891	30728.12
512.664	29497.12
513.437	28289.12
514.209	27056.12
514.982	25982.12
515.754	24913.12
516.526	23721.12
517.298	22681.12
518.071	21826.12
518.843	20834.12
519.615	20032.12
520.387	19265.12
521.159	18495.12
521.93	17797.12
522.702	17099.12
523.474	16425.12
524.245	15791.12
525.017	14995.12
525.788	14293.12
526.56	13641.12
527.331	12961.12
528.102	12415.12
528.873	11777.12
529.644	11183.12
530.415	10651.12
531.186	10119.12
531.957	9575.12
532.728	9060.12
533.498	8564.12
534.269	8060.12
535.039	7581.12
535.81	7183.12
536.58	6803.12
537.351	6403.12
538.121	6054.12
538.891	5777.12
539.661	5441.12
540.431	5150.12
541.201	4883.12
541.971	4631.12
542.741	4393.12
543.51	4136.12
544.28	3935.12
545.05	3762.12
545.819	3571.12
546.588	3400.12
547.358	3225.12
548.127	3060.12
548.896	2905.12
549.665	2746.12
550.434	2591.12
551.203	2459.12
551.972	2344.12
552.741	2205.12
553.51	2095.12
554.278	1974.12
555.047	1865.12
555.815	1759.12
556.584	1651.12
557.352	1575.12
558.121	1478.12
558.889	1393.12
559.657	1316.12
560.425	1249.12
561.193	1160.12
561.961	1107.12
562.729	1054.12
563.496	1001.12
564.264	942.12
565.032	892.12
565.799	839.12
566.567	791.12
567.334	748.12
568.101	715.12
568.869	669.12
569.636	645.12
570.403	594.12
571.17	559.12
571.937	540.12
572.704	498.12
573.471	476.12
574.237	432.12
575.004	418.12
575.771	398.12
576.537	380.12
577.303	349.12
578.07	332.12
578.836	314.12
579.602	297.12
580.368	279.12
581.134	262.12
581.9	251.12
582.666	236.12
583.432	226.12
584.198	214.12
584.964	203.12
585.729	192.12
586.495	186.12
587.26	174.12
588.025	171.12
588.791	159.12
589.556	150.12
590.321	131.12
591.086	132.12
591.851	126.12
592.616	120.12
593.381	120.12
594.146	112.12
594.911	104.12
595.675	101.12
596.44	99.12
597.204	92.12
597.969	86.12
598.733	86.12
599.497	78.12
600.261	76.12
601.025	72.12
601.79	67.12
602.553	72.12
603.317	61.12
604.081	62.12
604.845	59.12
605.609	57.12
606.372	52.12
607.136	54.12
607.899	49.12
608.662	47.12
609.426	47.12
610.189	43.12
610.952	43.12
611.715	43.12
612.478	44.12
613.241	41.12
614.004	39.12
614.767	38.12
615.529	38.12
616.292	35.12
617.055	31.12
617.817	34.12
618.579	32.12
619.342	31.12
620.104	27.12
620.866	28.12
621.628	29.12
622.39	26.12
623.152	26.12
623.914	24.12
624.676	25.12
625.438	25.12
626.199	23.12
626.961	26.12
627.722	20.12
628.484	20.12
629.245	19.12
630.006	19.12
630.768	17.12
631.529	20.12
632.29	18.12
633.051	20.12
633.812	17.12
634.573	17.12
635.333	16.12
636.094	16.12
636.855	15.12
637.615	15.12
638.376	15.12
639.136	14.12
639.896	13.12
640.657	15.12
641.417	13.12
642.177	13.12
642.937	11.12
643.697	11.12
644.457	10.12
645.216	11.12
645.976	11.12
646.736	11.12
647.495	10.12
648.255	13.12
649.014	14.12
649.774	9.12
650.533	11.12
651.292	8.12
652.051	10.12
652.81	8.12
653.569	10.12
654.328	11.12
655.087	11.12
655.846	8.12
656.604	8.12
657.363	11.12
658.121	10.12
658.88	8.12
659.638	8.12
660.397	10.12
661.155	9.12
661.913	8.12
662.671	9.12
663.429	8.12
664.187	5.12
664.945	7.12
665.703	8.12
666.46	9.12
667.218	11.12
667.976	6.12
668.733	8.12
669.49	9.12
670.248	9.12
671.005	8.12
671.762	6.12
672.519	5.12
673.276	5.12
674.033	8.12
674.79	9.12
675.547	6.12
676.304	6.12
677.06	5.12
677.817	7.12
678.574	5.12
679.33	6.12
680.086	7.12
680.843	8.12
681.599	7.12
682.355	6.12
683.111	6.12
683.867	5.12
684.623	6.12
685.379	6.12
686.135	6.12
686.89	8.12
687.646	5.12
688.402	7.12
689.157	3.12
689.912	7.12
690.668	6.12
691.423	6.12
692.178	7.12
692.933	8.12
693.688	6.12
694.443	4.12
695.198	6.12
695.953	8.12
696.708	6.12
697.462	6.12
698.217	5.12
698.972	5.12
699.726	6.12
700.48	7.12
701.235	7.12
701.989	5.12
702.743	6.12
703.497	5.12
704.251	5.12
705.005	3.12
705.759	4.12
706.513	4.12
707.266	9.12
708.02	7.12
708.774	6.12
709.527	3.12
710.28	5.12
711.034	6.12
711.787	4.12
712.54	7.12
713.293	6.12
714.046	5.12
714.799	8.12
715.552	4.12
716.305	5.12
717.058	6.12
717.81	5.12
718.563	10.12
719.315	5.12
720.068	4.12
720.82	8.12
721.573	6.12
722.325	5.12
723.077	3.12
723.829	4.12
724.581	6.12
725.333	6.12
726.085	7.12
726.836	4.12
727.588	6.12
728.34	9.12
729.091	6.12
729.843	7.12
730.594	4.12
731.346	4.12
732.097	8.12
732.848	6.12
733.599	6.12
734.35	8.12
735.101	9.12
735.852	6.12
736.603	8.12
737.354	8.12
738.104	5.12
738.855	8.12
739.605	8.12
740.356	8.12
741.106	8.12
741.856	9.12
742.607	8.12
743.357	10.12
744.107	7.12
744.857	8.12
745.607	7.12
746.357	6.12
747.106	9.12
747.856	8.12
748.606	8.12
749.355	9.12
750.105	10.12
750.854	9.12
751.603	9.12
752.353	8.12
753.102	9.12
753.851	9.12
754.6	9.12
755.349	10.12
756.098	8.12
756.847	9.12
757.595	11.12
758.344	10.12
759.093	10.12
759.841	9.12
760.589	9.12
761.338	11.12
762.086	10.12
762.834	10.12
763.582	12.12
764.331	11.12
765.079	10.12
765.826	11.12
766.574	9.12
767.322	12.12
768.07	10.12
768.817	10.12
769.565	13.12
770.312	12.12
771.06	10.12
771.807	10.12
772.554	12.12
773.302	13.12
774.049	12.12
774.796	12.12
775.543	12.12
776.29	14.12
777.036	13.12
777.783	12.12
778.53	15.12
779.276	12.12
780.023	14.12
780.769	12.12
781.516	12.12
782.262	13.12
783.008	14.12
783.754	11.12
784.5	11.12
785.246	13.12
785.992	14.12
786.738	10.12
787.484	14.12
788.23	12.12
788.975	12.12
789.721	12.12
790.466	11.12
791.212	11.12
791.957	13.12
792.702	13.12
793.447	12.12
794.193	12.12
794.938	12.12
795.683	11.12
796.427	12.12
797.172	11.12
797.917	11.12
798.662	9.12
799.406	12.12
800.151	11.12
800.895	10.12
801.64	8.12
802.384	10.12
803.128	10.12
803.872	9.12
804.616	10.12
805.36	9.12
806.104	10.12
806.848	10.12
807.592	8.12
808.336	12.12
809.079	8.12
809.823	9.12
810.566	7.12
811.31	5.12
812.053	8.12
812.796	8.12
813.539	9.12
814.283	7.12
815.026	5.12
815.769	5.12
816.511	7.12
817.254	8.12
817.997	8.12
818.74	7.12
819.482	6.12
820.225	5.12
820.967	5.12
821.71	5.12
822.452	6.12
823.194	5.12
823.936	6.12
824.678	7.12
825.42	5.12
826.162	5.12
826.904	4.12
827.646	9.12
828.388	6.12
829.129	6.12
829.871	5.12
830.612	5.12
831.354	6.12
832.095	4.12
832.836	4.12
833.577	6.12
834.319	3.12
835.06	5.12
835.801	5.12
836.542	4.12
837.282	7.12
838.023	7.12
838.764	3.12
839.504	6.12
840.245	4.12
840.985	11.12
841.726	6.12
842.466	4.12
843.206	4.12
843.946	4.12
844.687	3.12
845.427	8.12
846.166	5.12
846.906	6.12
847.646	4.12
848.386	4.12
849.125	4.12
849.865	4.12
850.605	3.12
851.344	6.12
852.083	4.12
852.823	5.12
853.562	2.12
854.301	3.12
855.04	5.12
855.779	5.12
856.518	5.12
857.257	3.12
857.995	6.12
858.734	4.12
859.473	3.12
860.211	5.12
860.95	4.12
861.688	4.12
862.426	2.12
863.165	3.12
863.903	3.12
864.641	4.12
865.379	6.12
866.117	1.12
866.855	3.12
867.593	3.12
868.33	1.12
869.068	2.12
869.806	3.12
870.543	1.12
871.28	1.12
872.018	3.12
872.755	3.12
873.492	3.12
874.229	1.12
874.967	1.12
875.703	3.12
876.44	2.12
877.177	3.12
877.914	3.12
878.651	2.12
879.387	3.12
880.124	2.12
880.86	1.12
881.597	4.12
882.333	3.12
883.069	5.12
883.806	3.12
884.542	1.12
885.278	1.12
886.014	2.12
886.749	3.12
887.485	2.12
888.221	2.12
888.957	3.12
889.692	2.12
890.428	1.12
891.163	2.12
891.899	1.12
892.634	1.12
893.369	2.12
894.104	4.12
894.839	3.12
895.574	-0.88
896.309	1.12
897.044	3.12
897.779	0.12
898.514	0.12
899.248	2.12
899.983	2.12
900.717	1.12
901.452	2.12
902.186	0.12
902.92	2.12
903.654	1.12
904.389	2.12
905.123	2.12
905.857	1.12
906.59	0.12
907.324	3.12
908.058	1.12
908.792	2.12
909.525	-0.88
910.259	1.12
910.992	1.12
911.726	0.12
912.459	2.12
913.192	3.12
913.925	1.12
914.658	1.12
915.391	1.12
916.124	2.12
916.857	1.12
917.59	1.12
918.323	0.12
919.055	1.12
919.788	0.12
920.521	2.12
921.253	1.12
921.985	1.12
922.718	1.12
923.45	2.12
924.182	1.12
924.914	0.12
925.646	5.12
926.378	1.12
927.11	0.12
927.841	2.12
928.573	-1.88
929.305	1.12
930.036	1.12
930.768	1.12
931.499	1.12
932.23	2.12
932.962	1.12
933.693	2.12
934.424	1.12
935.155	3.12
935.886	-0.88
936.617	1.12
937.348	-0.88
938.078	0.12
938.809	1.12
939.54	4.12
940.27	0.12
941.001	5.12
941.731	-0.88
942.461	2.12
943.191	0.12
943.922	2.12
944.652	0.12
945.382	2.12
946.112	1.12
946.841	0.12
947.571	1.12
948.301	1.12
949.031	2.12
949.76	2.12
950.49	0.12
951.219	0.12
951.948	2.12
952.678	1.12
953.407	-0.88
954.136	0.12
954.865	-0.88
955.594	1.12
956.323	-0.88
957.052	0.12
957.78	3.12
958.509	1.12
959.238	4.12
959.966	2.12
960.695	-0.88
961.423	2.12
962.151	1.12
962.88	2.12
963.608	0.12
964.336	-0.88
965.064	2.12
965.792	1.12
966.52	3.12
967.247	3.12
967.975	1.12
968.703	3.12
969.43	0.12
970.158	1.12
970.885	-1.88
971.613	1.12
972.34	0.12
973.067	0.12
973.794	2.12
974.521	2.12
975.248	2.12
975.975	0.12
976.702	0.12
977.429	3.12
978.156	0.12
978.882	2.12
979.609	1.12
980.335	3.12
981.062	1.12
981.788	1.12
982.514	1.12
983.24	-0.88
983.967	2.12
984.693	2.12
985.419	0.12
986.144	2.12
986.87	-0.88
987.596	1.12
988.322	0.12
989.047	2.12
989.773	0.12
990.498	0.12
991.224	-0.88
991.949	2.12
992.674	1.12
993.399	-0.88
994.124	0.12
994.849	-0.88
995.574	1.12
996.299	2.12
997.024	0.12
997.749	3.12
998.473	-0.88
999.198	0.12
999.922	1.12
1000.647	3.12
1001.371	2.12
1002.095	-0.88
1002.82	-0.88
1003.544	-0.88
1004.268	2.12
1004.992	4.12
1005.716	1.12
1006.439	3.12
1007.163	2.12
1007.887	4.12
1008.611	1.12
1009.334	0.12
1010.058	2.12
1010.781	0.12
1011.504	2.12
1012.228	4.12
1012.951	-0.88
1013.674	1.12
1014.397	1.12
1015.12	-0.88
