节点500_425_QEPB04081__257__15-52-34-996.txt的数据

Date: Wed Nov 12 15:52:34 CST 2025
User: PC
Spectrometer: QEPB0408
触发模式: 0
积分时间 (秒): 1.000000E-2
Scans to average: 1
启用暗噪声校正: true
启用非线性校正: false
滑动平均宽度: 0
X轴模式: Wavelengths
Number of Pixels in Spectrum: 1044
>>>>>Begin Spectral Data<<<<<
220.843	4.5
221.644	4.5
222.444	2.5
223.244	2.5
224.045	3.5
224.845	3.5
225.645	2.5
226.445	4.5
227.245	3.5
228.045	1.5
228.845	1.5
229.645	4.5
230.444	3.5
231.244	7.5
232.043	4.5
232.843	5.5
233.642	6.5
234.442	7.5
235.241	4.5
236.04	5.5
236.839	6.5
237.638	5.5
238.437	6.5
239.236	4.5
240.035	6.5
240.833	6.5
241.632	8.5
242.43	6.5
243.229	8.5
244.027	7.5
244.826	7.5
245.624	9.5
246.422	7.5
247.22	9.5
248.018	9.5
248.816	10.5
249.614	9.5
250.412	10.5
251.21	11.5
252.007	10.5
252.805	10.5
253.602	10.5
254.4	12.5
255.197	11.5
255.994	15.5
256.791	13.5
257.589	12.5
258.386	12.5
259.183	14.5
259.979	15.5
260.776	14.5
261.573	14.5
262.37	15.5
263.166	16.5
263.963	17.5
264.759	15.5
265.556	16.5
266.352	17.5
267.148	18.5
267.944	21.5
268.74	17.5
269.536	18.5
270.332	21.5
271.128	21.5
271.924	22.5
272.719	21.5
273.515	22.5
274.311	24.5
275.106	25.5
275.901	23.5
276.697	24.5
277.492	22.5
278.287	23.5
279.082	25.5
279.877	21.5
280.672	24.5
281.467	24.5
282.262	22.5
283.056	28.5
283.851	23.5
284.646	27.5
285.44	26.5
286.234	23.5
287.029	24.5
287.823	24.5
288.617	25.5
289.411	23.5
290.205	23.5
290.999	26.5
291.793	26.5
292.587	24.5
293.381	24.5
294.174	22.5
294.968	22.5
295.761	21.5
296.555	21.5
297.348	19.5
298.141	23.5
298.935	20.5
299.728	16.5
300.521	17.5
301.314	17.5
302.107	20.5
302.899	17.5
303.692	17.5
304.485	14.5
305.277	14.5
306.07	16.5
306.862	14.5
307.655	16.5
308.447	15.5
309.239	14.5
310.031	14.5
310.823	13.5
311.615	12.5
312.407	12.5
313.199	13.5
313.991	11.5
314.783	11.5
315.574	11.5
316.366	9.5
317.157	10.5
317.949	13.5
318.74	11.5
319.531	11.5
320.322	12.5
321.113	7.5
321.904	10.5
322.695	10.5
323.486	12.5
324.277	9.5
325.068	9.5
325.858	7.5
326.649	9.5
327.439	8.5
328.23	10.5
329.02	10.5
329.81	8.5
330.6	10.5
331.391	7.5
332.181	10.5
332.971	8.5
333.76	8.5
334.55	9.5
335.34	8.5
336.13	7.5
336.919	9.5
337.709	8.5
338.498	8.5
339.287	10.5
340.077	9.5
340.866	8.5
341.655	7.5
342.444	5.5
343.233	10.5
344.022	8.5
344.811	6.5
345.6	8.5
346.388	8.5
347.177	9.5
347.965	8.5
348.754	8.5
349.542	9.5
350.33	7.5
351.119	8.5
351.907	7.5
352.695	5.5
353.483	7.5
354.271	7.5
355.059	9.5
355.846	7.5
356.634	9.5
357.422	7.5
358.209	7.5
358.997	8.5
359.784	9.5
360.571	7.5
361.359	6.5
362.146	6.5
362.933	8.5
363.72	7.5
364.507	8.5
365.294	4.5
366.081	5.5
366.867	8.5
367.654	8.5
368.44	7.5
369.227	6.5
370.013	6.5
370.8	7.5
371.586	7.5
372.372	6.5
373.158	4.5
373.944	7.5
374.73	3.5
375.516	6.5
376.302	7.5
377.088	6.5
377.873	6.5
378.659	7.5
379.445	6.5
380.23	5.5
381.015	9.5
381.801	10.5
382.586	6.5
383.371	8.5
384.156	7.5
384.941	7.5
385.726	9.5
386.511	7.5
387.296	8.5
388.08	9.5
388.865	8.5
389.649	11.5
390.434	8.5
391.218	8.5
392.003	9.5
392.787	7.5
393.571	8.5
394.355	9.5
395.139	5.5
395.923	9.5
396.707	9.5
397.491	7.5
398.274	9.5
399.058	10.5
399.842	10.5
400.625	10.5
401.408	9.5
402.192	10.5
402.975	10.5
403.758	11.5
404.541	11.5
405.324	8.5
406.107	11.5
406.89	11.5
407.673	10.5
408.456	10.5
409.238	12.5
410.021	12.5
410.803	10.5
411.586	11.5
412.368	12.5
413.151	11.5
413.933	10.5
414.715	11.5
415.497	9.5
416.279	14.5
417.061	12.5
417.843	14.5
418.624	12.5
419.406	14.5
420.188	13.5
420.969	15.5
421.751	12.5
422.532	14.5
423.313	16.5
424.095	14.5
424.876	17.5
425.657	15.5
426.438	17.5
427.219	17.5
428	14.5
428.78	19.5
429.561	17.5
430.342	20.5
431.122	21.5
431.903	21.5
432.683	22.5
433.464	22.5
434.244	23.5
435.024	25.5
435.804	24.5
436.584	24.5
437.364	27.5
438.144	28.5
438.924	30.5
439.704	32.5
440.483	32.5
441.263	32.5
442.042	39.5
442.822	40.5
443.601	43.5
444.38	46.5
445.16	49.5
445.939	50.5
446.718	56.5
447.497	61.5
448.276	67.5
449.054	70.5
449.833	77.5
450.612	83.5
451.391	97.5
452.169	97.5
452.948	111.5
453.726	119.5
454.504	137.5
455.282	152.5
456.061	163.5
456.839	180.5
457.617	206.5
458.395	231.5
459.172	249.5
459.95	282.5
460.728	317.5
461.506	353.5
462.283	395.5
463.061	444.5
463.838	493.5
464.615	553.5
465.393	614.5
466.17	672.5
466.947	763.5
467.724	841.5
468.501	949.5
469.278	1039.5
470.055	1164.5
470.831	1284.5
471.608	1427.5
472.385	1596.5
473.161	1758.5
473.938	1944.5
474.714	2162.5
475.49	2371.5
476.266	2623.5
477.043	2887.5
477.819	3190.5
478.595	3522.5
479.371	3870.5
480.146	4234.5
480.922	4659.5
481.698	5150.5
482.473	5609.5
483.249	6139.5
484.024	6760.5
484.8	7417.5
485.575	8052.5
486.35	8786.5
487.126	9590.5
487.901	10493.5
488.676	11460.5
489.451	12491.5
490.225	13489.5
491	14636.5
491.775	15905.5
492.55	17201.5
493.324	18509.5
494.099	19837.5
494.873	21145.5
495.647	22627.5
496.422	24115.5
497.196	25608.5
497.97	27114.5
498.744	28518.5
499.518	29861.5
500.292	30998.5
501.066	32278.5
501.839	33320.5
502.613	34184.5
503.387	34884.5
504.16	35398.5
504.934	35583.5
505.707	35682.5
506.48	35562.5
507.253	35155.5
508.027	34721.5
508.8	34206.5
509.573	33404.5
510.346	32560.5
511.118	31559.5
511.891	30583.5
512.664	29535.5
513.437	28211.5
514.209	27065.5
514.982	26060.5
515.754	24997.5
516.526	23947.5
517.298	22935.5
518.071	21894.5
518.843	21064.5
519.615	20200.5
520.387	19416.5
521.159	18643.5
521.93	17890.5
522.702	17182.5
523.474	16535.5
524.245	15867.5
525.017	15135.5
525.788	14440.5
526.56	13793.5
527.331	13158.5
528.102	12570.5
528.873	11929.5
529.644	11309.5
530.415	10883.5
531.186	10288.5
531.957	9768.5
532.728	9255.5
533.498	8758.5
534.269	8233.5
535.039	7825.5
535.81	7351.5
536.58	6976.5
537.351	6577.5
538.121	6178.5
538.891	5911.5
539.661	5534.5
540.431	5295.5
541.201	5018.5
541.971	4738.5
542.741	4470.5
543.51	4263.5
544.28	4062.5
545.05	3859.5
545.819	3686.5
546.588	3463.5
547.358	3304.5
548.127	3114.5
548.896	2970.5
549.665	2848.5
550.434	2697.5
551.203	2542.5
551.972	2406.5
552.741	2264.5
553.51	2154.5
554.278	2028.5
555.047	1917.5
555.815	1805.5
556.584	1726.5
557.352	1616.5
558.121	1523.5
558.889	1428.5
559.657	1368.5
560.425	1274.5
561.193	1209.5
561.961	1158.5
562.729	1098.5
563.496	1021.5
564.264	953.5
565.032	916.5
565.799	862.5
566.567	816.5
567.334	766.5
568.101	739.5
568.869	685.5
569.636	644.5
570.403	617.5
571.17	579.5
571.937	543.5
572.704	516.5
573.471	496.5
574.237	459.5
575.004	438.5
575.771	406.5
576.537	381.5
577.303	354.5
578.07	346.5
578.836	318.5
579.602	301.5
580.368	280.5
581.134	272.5
581.9	263.5
582.666	249.5
583.432	234.5
584.198	223.5
584.964	213.5
585.729	200.5
586.495	187.5
587.26	178.5
588.025	166.5
588.791	166.5
589.556	150.5
590.321	143.5
591.086	138.5
591.851	133.5
592.616	120.5
593.381	116.5
594.146	114.5
594.911	108.5
595.675	107.5
596.44	98.5
597.204	94.5
597.969	88.5
598.733	84.5
599.497	80.5
600.261	78.5
601.025	77.5
601.79	74.5
602.553	66.5
603.317	62.5
604.081	61.5
604.845	62.5
605.609	59.5
606.372	55.5
607.136	54.5
607.899	55.5
608.662	51.5
609.426	45.5
610.189	46.5
610.952	44.5
611.715	44.5
612.478	37.5
613.241	38.5
614.004	34.5
614.767	37.5
615.529	35.5
616.292	37.5
617.055	33.5
617.817	32.5
618.579	28.5
619.342	30.5
620.104	30.5
620.866	26.5
621.628	27.5
622.39	25.5
623.152	24.5
623.914	25.5
624.676	23.5
625.438	22.5
626.199	20.5
626.961	20.5
627.722	19.5
628.484	21.5
629.245	20.5
630.006	23.5
630.768	15.5
631.529	19.5
632.29	17.5
633.051	16.5
633.812	15.5
634.573	17.5
635.333	16.5
636.094	15.5
636.855	12.5
637.615	16.5
638.376	12.5
639.136	14.5
639.896	10.5
640.657	12.5
641.417	13.5
642.177	11.5
642.937	11.5
643.697	11.5
644.457	8.5
645.216	10.5
645.976	12.5
646.736	11.5
647.495	10.5
648.255	11.5
649.014	10.5
649.774	9.5
650.533	10.5
651.292	11.5
652.051	9.5
652.81	5.5
653.569	7.5
654.328	12.5
655.087	10.5
655.846	7.5
656.604	10.5
657.363	6.5
658.121	7.5
658.88	8.5
659.638	7.5
660.397	7.5
661.155	8.5
661.913	6.5
662.671	7.5
663.429	7.5
664.187	5.5
664.945	5.5
665.703	7.5
666.46	8.5
667.218	5.5
667.976	5.5
668.733	8.5
669.49	6.5
670.248	6.5
671.005	6.5
671.762	7.5
672.519	5.5
673.276	6.5
674.033	4.5
674.79	6.5
675.547	6.5
676.304	5.5
677.06	2.5
677.817	5.5
678.574	5.5
679.33	5.5
680.086	6.5
680.843	6.5
681.599	4.5
682.355	7.5
683.111	6.5
683.867	6.5
684.623	5.5
685.379	5.5
686.135	4.5
686.89	5.5
687.646	4.5
688.402	6.5
689.157	6.5
689.912	3.5
690.668	5.5
691.423	4.5
692.178	6.5
692.933	4.5
693.688	3.5
694.443	7.5
695.198	5.5
695.953	5.5
696.708	4.5
697.462	6.5
698.217	3.5
698.972	3.5
699.726	4.5
700.48	2.5
701.235	5.5
701.989	6.5
702.743	3.5
703.497	5.5
704.251	5.5
705.005	5.5
705.759	5.5
706.513	6.5
707.266	7.5
708.02	6.5
708.774	5.5
709.527	2.5
710.28	5.5
711.034	4.5
711.787	4.5
712.54	4.5
713.293	2.5
714.046	2.5
714.799	6.5
715.552	5.5
716.305	6.5
717.058	5.5
717.81	4.5
718.563	3.5
719.315	4.5
720.068	6.5
720.82	5.5
721.573	6.5
722.325	4.5
723.077	4.5
723.829	5.5
724.581	4.5
725.333	3.5
726.085	5.5
726.836	5.5
727.588	5.5
728.34	6.5
729.091	5.5
729.843	5.5
730.594	6.5
731.346	7.5
732.097	5.5
732.848	5.5
733.599	7.5
734.35	6.5
735.101	6.5
735.852	6.5
736.603	4.5
737.354	6.5
738.104	5.5
738.855	8.5
739.605	7.5
740.356	8.5
741.106	7.5
741.856	5.5
742.607	8.5
743.357	5.5
744.107	8.5
744.857	7.5
745.607	5.5
746.357	8.5
747.106	6.5
747.856	8.5
748.606	7.5
749.355	8.5
750.105	8.5
750.854	7.5
751.603	8.5
752.353	7.5
753.102	7.5
753.851	7.5
754.6	7.5
755.349	7.5
756.098	6.5
756.847	7.5
757.595	9.5
758.344	6.5
759.093	9.5
759.841	7.5
760.589	9.5
761.338	6.5
762.086	8.5
762.834	10.5
763.582	7.5
764.331	11.5
765.079	9.5
765.826	10.5
766.574	9.5
767.322	11.5
768.07	10.5
768.817	8.5
769.565	12.5
770.312	10.5
771.06	9.5
771.807	12.5
772.554	8.5
773.302	12.5
774.049	11.5
774.796	12.5
775.543	10.5
776.29	13.5
777.036	10.5
777.783	11.5
778.53	11.5
779.276	12.5
780.023	8.5
780.769	14.5
781.516	12.5
782.262	8.5
783.008	8.5
783.754	12.5
784.5	12.5
785.246	11.5
785.992	12.5
786.738	9.5
787.484	14.5
788.23	12.5
788.975	13.5
789.721	10.5
790.466	10.5
791.212	12.5
791.957	11.5
792.702	9.5
793.447	9.5
794.193	11.5
794.938	11.5
795.683	9.5
796.427	12.5
797.172	8.5
797.917	10.5
798.662	7.5
799.406	8.5
800.151	9.5
800.895	8.5
801.64	11.5
802.384	10.5
803.128	10.5
803.872	7.5
804.616	8.5
805.36	8.5
806.104	6.5
806.848	9.5
807.592	7.5
808.336	6.5
809.079	8.5
809.823	8.5
810.566	7.5
811.31	4.5
812.053	9.5
812.796	5.5
813.539	4.5
814.283	7.5
815.026	6.5
815.769	7.5
816.511	7.5
817.254	4.5
817.997	7.5
818.74	6.5
819.482	7.5
820.225	4.5
820.967	4.5
821.71	7.5
822.452	7.5
823.194	4.5
823.936	4.5
824.678	5.5
825.42	5.5
826.162	6.5
826.904	3.5
827.646	5.5
828.388	4.5
829.129	3.5
829.871	9.5
830.612	5.5
831.354	5.5
832.095	6.5
832.836	3.5
833.577	5.5
834.319	6.5
835.06	5.5
835.801	5.5
836.542	4.5
837.282	6.5
838.023	2.5
838.764	4.5
839.504	4.5
840.245	4.5
840.985	5.5
841.726	2.5
842.466	4.5
843.206	2.5
843.946	4.5
844.687	4.5
845.427	2.5
846.166	4.5
846.906	2.5
847.646	5.5
848.386	2.5
849.125	2.5
849.865	2.5
850.605	4.5
851.344	3.5
852.083	1.5
852.823	5.5
853.562	3.5
854.301	3.5
855.04	3.5
855.779	4.5
856.518	3.5
857.257	0.5
857.995	1.5
858.734	2.5
859.473	1.5
860.211	4.5
860.95	4.5
861.688	3.5
862.426	3.5
863.165	1.5
863.903	1.5
864.641	1.5
865.379	3.5
866.117	0.5
866.855	0.5
867.593	4.5
868.33	1.5
869.068	4.5
869.806	2.5
870.543	3.5
871.28	2.5
872.018	3.5
872.755	2.5
873.492	1.5
874.229	2.5
874.967	2.5
875.703	2.5
876.44	0.5
877.177	2.5
877.914	1.5
878.651	0.5
879.387	2.5
880.124	2.5
880.86	1.5
881.597	0.5
882.333	0.5
883.069	3.5
883.806	1.5
884.542	0.5
885.278	1.5
886.014	0.5
886.749	2.5
887.485	0.5
888.221	2.5
888.957	0.5
889.692	-0.5
890.428	2.5
891.163	-0.5
891.899	0.5
892.634	3.5
893.369	1.5
894.104	1.5
894.839	0.5
895.574	1.5
896.309	2.5
897.044	0.5
897.779	1.5
898.514	0.5
899.248	2.5
899.983	0.5
900.717	1.5
901.452	0.5
902.186	-0.5
902.92	2.5
903.654	0.5
904.389	0.5
905.123	2.5
905.857	1.5
906.59	-0.5
907.324	1.5
908.058	0.5
908.792	1.5
909.525	2.5
910.259	2.5
910.992	1.5
911.726	0.5
912.459	0.5
913.192	2.5
913.925	-0.5
914.658	1.5
915.391	-1.5
916.124	0.5
916.857	0.5
917.59	1.5
918.323	1.5
919.055	-1.5
919.788	1.5
920.521	0.5
921.253	0.5
921.985	1.5
922.718	2.5
923.45	4.5
924.182	2.5
924.914	-0.5
925.646	2.5
926.378	-1.5
927.11	2.5
927.841	0.5
928.573	-2.5
929.305	-0.5
930.036	2.5
930.768	1.5
931.499	0.5
932.23	-2.5
932.962	2.5
933.693	2.5
934.424	2.5
935.155	-1.5
935.886	0.5
936.617	-0.5
937.348	-1.5
938.078	1.5
938.809	0.5
939.54	-0.5
940.27	1.5
941.001	-0.5
941.731	-1.5
942.461	1.5
943.191	2.5
943.922	-1.5
944.652	-0.5
945.382	-0.5
946.112	0.5
946.841	1.5
947.571	0.5
948.301	2.5
949.031	0.5
949.76	0.5
950.49	1.5
951.219	1.5
951.948	0.5
952.678	0.5
953.407	3.5
954.136	0.5
954.865	-0.5
955.594	0.5
956.323	-1.5
957.052	0.5
957.78	0.5
958.509	1.5
959.238	1.5
959.966	-0.5
960.695	1.5
961.423	1.5
962.151	0.5
962.88	0.5
963.608	-0.5
964.336	0.5
965.064	-0.5
965.792	-0.5
966.52	0.5
967.247	-0.5
967.975	0.5
968.703	0.5
969.43	2.5
970.158	0.5
970.885	1.5
971.613	-0.5
972.34	4.5
973.067	0.5
973.794	-0.5
974.521	1.5
975.248	1.5
975.975	0.5
976.702	1.5
977.429	0.5
978.156	-0.5
978.882	0.5
979.609	-0.5
980.335	-1.5
981.062	-0.5
981.788	1.5
982.514	1.5
983.24	-0.5
983.967	1.5
984.693	-0.5
985.419	0.5
986.144	0.5
986.87	-1.5
987.596	-0.5
988.322	1.5
989.047	0.5
989.773	0.5
990.498	-0.5
991.224	0.5
991.949	1.5
992.674	0.5
993.399	2.5
994.124	-0.5
994.849	0.5
995.574	-1.5
996.299	-1.5
997.024	0.5
997.749	-1.5
998.473	-1.5
999.198	-0.5
999.922	1.5
1000.647	1.5
1001.371	1.5
1002.095	-1.5
1002.82	-1.5
1003.544	0.5
1004.268	1.5
1004.992	1.5
1005.716	2.5
1006.439	3.5
1007.163	2.5
1007.887	3.5
1008.611	2.5
1009.334	-0.5
1010.058	-0.5
1010.781	0.5
1011.504	1.5
1012.228	-2.5
1012.951	1.5
1013.674	-1.5
1014.397	0.5
1015.12	0.5
