节点500_425_QEPB04081__378__15-54-35-728.txt的数据

Date: Wed Nov 12 15:54:35 CST 2025
User: PC
Spectrometer: QEPB0408
触发模式: 0
积分时间 (秒): 1.000000E-2
Scans to average: 1
启用暗噪声校正: true
启用非线性校正: false
滑动平均宽度: 0
X轴模式: Wavelengths
Number of Pixels in Spectrum: 1044
>>>>>Begin Spectral Data<<<<<
220.843	2.5
221.644	0.5
222.444	3.5
223.244	2.5
224.045	5.5
224.845	2.5
225.645	3.5
226.445	6.5
227.245	4.5
228.045	3.5
228.845	5.5
229.645	5.5
230.444	4.5
231.244	5.5
232.043	2.5
232.843	3.5
233.642	7.5
234.442	6.5
235.241	6.5
236.04	7.5
236.839	5.5
237.638	5.5
238.437	7.5
239.236	6.5
240.035	7.5
240.833	7.5
241.632	6.5
242.43	8.5
243.229	8.5
244.027	8.5
244.826	8.5
245.624	8.5
246.422	9.5
247.22	8.5
248.018	9.5
248.816	8.5
249.614	7.5
250.412	10.5
251.21	10.5
252.007	9.5
252.805	11.5
253.602	8.5
254.4	10.5
255.197	9.5
255.994	11.5
256.791	12.5
257.589	11.5
258.386	14.5
259.183	13.5
259.979	13.5
260.776	12.5
261.573	14.5
262.37	14.5
263.166	15.5
263.963	13.5
264.759	14.5
265.556	16.5
266.352	18.5
267.148	18.5
267.944	18.5
268.74	19.5
269.536	20.5
270.332	22.5
271.128	19.5
271.924	18.5
272.719	20.5
273.515	21.5
274.311	21.5
275.106	23.5
275.901	23.5
276.697	19.5
277.492	20.5
278.287	21.5
279.082	23.5
279.877	25.5
280.672	23.5
281.467	25.5
282.262	24.5
283.056	25.5
283.851	24.5
284.646	23.5
285.44	19.5
286.234	28.5
287.029	26.5
287.823	22.5
288.617	25.5
289.411	25.5
290.205	21.5
290.999	23.5
291.793	24.5
292.587	25.5
293.381	19.5
294.174	24.5
294.968	23.5
295.761	19.5
296.555	19.5
297.348	19.5
298.141	21.5
298.935	21.5
299.728	21.5
300.521	17.5
301.314	18.5
302.107	20.5
302.899	19.5
303.692	15.5
304.485	17.5
305.277	18.5
306.07	15.5
306.862	13.5
307.655	20.5
308.447	15.5
309.239	13.5
310.031	13.5
310.823	15.5
311.615	13.5
312.407	13.5
313.199	12.5
313.991	10.5
314.783	13.5
315.574	11.5
316.366	12.5
317.157	8.5
317.949	9.5
318.74	10.5
319.531	11.5
320.322	10.5
321.113	10.5
321.904	7.5
322.695	10.5
323.486	9.5
324.277	9.5
325.068	9.5
325.858	10.5
326.649	10.5
327.439	8.5
328.23	7.5
329.02	10.5
329.81	8.5
330.6	10.5
331.391	7.5
332.181	6.5
332.971	8.5
333.76	7.5
334.55	9.5
335.34	8.5
336.13	6.5
336.919	10.5
337.709	8.5
338.498	9.5
339.287	5.5
340.077	7.5
340.866	8.5
341.655	11.5
342.444	9.5
343.233	7.5
344.022	7.5
344.811	8.5
345.6	6.5
346.388	7.5
347.177	11.5
347.965	7.5
348.754	7.5
349.542	8.5
350.33	7.5
351.119	8.5
351.907	6.5
352.695	6.5
353.483	8.5
354.271	8.5
355.059	7.5
355.846	6.5
356.634	7.5
357.422	5.5
358.209	5.5
358.997	8.5
359.784	8.5
360.571	7.5
361.359	6.5
362.146	7.5
362.933	6.5
363.72	9.5
364.507	6.5
365.294	5.5
366.081	8.5
366.867	8.5
367.654	7.5
368.44	5.5
369.227	4.5
370.013	7.5
370.8	5.5
371.586	8.5
372.372	8.5
373.158	7.5
373.944	8.5
374.73	8.5
375.516	7.5
376.302	6.5
377.088	3.5
377.873	6.5
378.659	5.5
379.445	7.5
380.23	6.5
381.015	7.5
381.801	3.5
382.586	7.5
383.371	10.5
384.156	6.5
384.941	6.5
385.726	7.5
386.511	7.5
387.296	8.5
388.08	6.5
388.865	9.5
389.649	7.5
390.434	6.5
391.218	8.5
392.003	5.5
392.787	8.5
393.571	7.5
394.355	9.5
395.139	8.5
395.923	9.5
396.707	9.5
397.491	7.5
398.274	9.5
399.058	10.5
399.842	8.5
400.625	9.5
401.408	10.5
402.192	11.5
402.975	8.5
403.758	12.5
404.541	13.5
405.324	10.5
406.107	8.5
406.89	9.5
407.673	11.5
408.456	8.5
409.238	9.5
410.021	10.5
410.803	10.5
411.586	12.5
412.368	12.5
413.151	11.5
413.933	13.5
414.715	11.5
415.497	10.5
416.279	10.5
417.061	11.5
417.843	12.5
418.624	13.5
419.406	13.5
420.188	15.5
420.969	15.5
421.751	14.5
422.532	13.5
423.313	16.5
424.095	16.5
424.876	16.5
425.657	16.5
426.438	20.5
427.219	18.5
428	18.5
428.78	17.5
429.561	18.5
430.342	17.5
431.122	22.5
431.903	20.5
432.683	23.5
433.464	21.5
434.244	21.5
435.024	25.5
435.804	28.5
436.584	23.5
437.364	27.5
438.144	28.5
438.924	29.5
439.704	33.5
440.483	35.5
441.263	34.5
442.042	38.5
442.822	39.5
443.601	43.5
444.38	44.5
445.16	46.5
445.939	53.5
446.718	60.5
447.497	62.5
448.276	66.5
449.054	71.5
449.833	80.5
450.612	91.5
451.391	90.5
452.169	104.5
452.948	119.5
453.726	131.5
454.504	140.5
455.282	151.5
456.061	172.5
456.839	190.5
457.617	210.5
458.395	231.5
459.172	269.5
459.95	298.5
460.728	328.5
461.506	365.5
462.283	405.5
463.061	452.5
463.838	505.5
464.615	564.5
465.393	635.5
466.17	706.5
466.947	780.5
467.724	883.5
468.501	959.5
469.278	1065.5
470.055	1179.5
470.831	1320.5
471.608	1453.5
472.385	1596.5
473.161	1781.5
473.938	1954.5
474.714	2173.5
475.49	2383.5
476.266	2604.5
477.043	2860.5
477.819	3161.5
478.595	3493.5
479.371	3827.5
480.146	4183.5
480.922	4561.5
481.698	5030.5
482.473	5473.5
483.249	5961.5
484.024	6565.5
484.8	7128.5
485.575	7752.5
486.35	8468.5
487.126	9252.5
487.901	10010.5
488.676	10932.5
489.451	11911.5
490.225	12889.5
491	13945.5
491.775	15105.5
492.55	16226.5
493.324	17477.5
494.099	18696.5
494.873	19969.5
495.647	21306.5
496.422	22715.5
497.196	24072.5
497.97	25542.5
498.744	26891.5
499.518	28230.5
500.292	29408.5
501.066	30617.5
501.839	31708.5
502.613	32590.5
503.387	33336.5
504.16	33935.5
504.934	34274.5
505.707	34458.5
506.48	34361.5
507.253	34182.5
508.027	33953.5
508.8	33471.5
509.573	32915.5
510.346	32145.5
511.118	31257.5
511.891	30328.5
512.664	29334.5
513.437	28152.5
514.209	27128.5
514.982	26101.5
515.754	25073.5
516.526	24061.5
517.298	23032.5
518.071	22096.5
518.843	21214.5
519.615	20345.5
520.387	19571.5
521.159	18789.5
521.93	18044.5
522.702	17302.5
523.474	16652.5
524.245	16019.5
525.017	15275.5
525.788	14615.5
526.56	13971.5
527.331	13337.5
528.102	12682.5
528.873	12134.5
529.644	11565.5
530.415	11060.5
531.186	10484.5
531.957	9944.5
532.728	9412.5
533.498	8902.5
534.269	8434.5
535.039	8000.5
535.81	7567.5
536.58	7130.5
537.351	6735.5
538.121	6374.5
538.891	6043.5
539.661	5719.5
540.431	5450.5
541.201	5123.5
541.971	4841.5
542.741	4634.5
543.51	4371.5
544.28	4175.5
545.05	3963.5
545.819	3771.5
546.588	3596.5
547.358	3422.5
548.127	3207.5
548.896	3081.5
549.665	2930.5
550.434	2750.5
551.203	2631.5
551.972	2473.5
552.741	2355.5
553.51	2218.5
554.278	2086.5
555.047	1978.5
555.815	1868.5
556.584	1770.5
557.352	1668.5
558.121	1562.5
558.889	1481.5
559.657	1398.5
560.425	1320.5
561.193	1253.5
561.961	1184.5
562.729	1135.5
563.496	1070.5
564.264	1009.5
565.032	942.5
565.799	897.5
566.567	842.5
567.334	798.5
568.101	755.5
568.869	728.5
569.636	680.5
570.403	623.5
571.17	607.5
571.937	562.5
572.704	535.5
573.471	512.5
574.237	471.5
575.004	446.5
575.771	429.5
576.537	396.5
577.303	376.5
578.07	349.5
578.836	339.5
579.602	315.5
580.368	295.5
581.134	284.5
581.9	268.5
582.666	251.5
583.432	240.5
584.198	231.5
584.964	219.5
585.729	215.5
586.495	194.5
587.26	183.5
588.025	175.5
588.791	166.5
589.556	159.5
590.321	154.5
591.086	142.5
591.851	135.5
592.616	129.5
593.381	125.5
594.146	119.5
594.911	110.5
595.675	108.5
596.44	99.5
597.204	96.5
597.969	91.5
598.733	91.5
599.497	83.5
600.261	81.5
601.025	76.5
601.79	73.5
602.553	68.5
603.317	67.5
604.081	65.5
604.845	66.5
605.609	58.5
606.372	57.5
607.136	51.5
607.899	53.5
608.662	50.5
609.426	49.5
610.189	47.5
610.952	45.5
611.715	45.5
612.478	43.5
613.241	42.5
614.004	41.5
614.767	37.5
615.529	37.5
616.292	35.5
617.055	35.5
617.817	30.5
618.579	30.5
619.342	29.5
620.104	29.5
620.866	28.5
621.628	27.5
622.39	25.5
623.152	28.5
623.914	26.5
624.676	24.5
625.438	21.5
626.199	22.5
626.961	22.5
627.722	20.5
628.484	22.5
629.245	17.5
630.006	19.5
630.768	17.5
631.529	20.5
632.29	21.5
633.051	20.5
633.812	15.5
634.573	18.5
635.333	16.5
636.094	16.5
636.855	13.5
637.615	13.5
638.376	14.5
639.136	16.5
639.896	15.5
640.657	14.5
641.417	15.5
642.177	11.5
642.937	14.5
643.697	12.5
644.457	13.5
645.216	13.5
645.976	9.5
646.736	12.5
647.495	11.5
648.255	11.5
649.014	8.5
649.774	9.5
650.533	10.5
651.292	10.5
652.051	9.5
652.81	9.5
653.569	9.5
654.328	8.5
655.087	8.5
655.846	7.5
656.604	8.5
657.363	10.5
658.121	8.5
658.88	8.5
659.638	9.5
660.397	6.5
661.155	9.5
661.913	7.5
662.671	6.5
663.429	8.5
664.187	7.5
664.945	8.5
665.703	6.5
666.46	6.5
667.218	4.5
667.976	7.5
668.733	4.5
669.49	7.5
670.248	6.5
671.005	6.5
671.762	7.5
672.519	7.5
673.276	9.5
674.033	5.5
674.79	8.5
675.547	9.5
676.304	4.5
677.06	6.5
677.817	6.5
678.574	2.5
679.33	6.5
680.086	5.5
680.843	6.5
681.599	4.5
682.355	6.5
683.111	6.5
683.867	6.5
684.623	7.5
685.379	5.5
686.135	5.5
686.89	2.5
687.646	2.5
688.402	5.5
689.157	6.5
689.912	6.5
690.668	4.5
691.423	4.5
692.178	4.5
692.933	6.5
693.688	4.5
694.443	4.5
695.198	8.5
695.953	3.5
696.708	4.5
697.462	5.5
698.217	4.5
698.972	3.5
699.726	6.5
700.48	6.5
701.235	7.5
701.989	3.5
702.743	7.5
703.497	4.5
704.251	6.5
705.005	6.5
705.759	5.5
706.513	6.5
707.266	2.5
708.02	6.5
708.774	5.5
709.527	5.5
710.28	6.5
711.034	4.5
711.787	5.5
712.54	2.5
713.293	5.5
714.046	6.5
714.799	6.5
715.552	5.5
716.305	3.5
717.058	6.5
717.81	3.5
718.563	4.5
719.315	4.5
720.068	3.5
720.82	5.5
721.573	3.5
722.325	6.5
723.077	5.5
723.829	1.5
724.581	3.5
725.333	3.5
726.085	6.5
726.836	7.5
727.588	5.5
728.34	4.5
729.091	4.5
729.843	5.5
730.594	4.5
731.346	4.5
732.097	5.5
732.848	5.5
733.599	4.5
734.35	5.5
735.101	6.5
735.852	7.5
736.603	8.5
737.354	7.5
738.104	6.5
738.855	6.5
739.605	5.5
740.356	7.5
741.106	6.5
741.856	4.5
742.607	8.5
743.357	4.5
744.107	4.5
744.857	6.5
745.607	6.5
746.357	5.5
747.106	7.5
747.856	5.5
748.606	7.5
749.355	6.5
750.105	4.5
750.854	6.5
751.603	7.5
752.353	8.5
753.102	8.5
753.851	7.5
754.6	8.5
755.349	7.5
756.098	6.5
756.847	5.5
757.595	6.5
758.344	8.5
759.093	7.5
759.841	8.5
760.589	8.5
761.338	7.5
762.086	8.5
762.834	7.5
763.582	8.5
764.331	7.5
765.079	7.5
765.826	10.5
766.574	5.5
767.322	10.5
768.07	7.5
768.817	10.5
769.565	7.5
770.312	10.5
771.06	9.5
771.807	9.5
772.554	10.5
773.302	10.5
774.049	5.5
774.796	11.5
775.543	8.5
776.29	12.5
777.036	12.5
777.783	14.5
778.53	9.5
779.276	9.5
780.023	11.5
780.769	11.5
781.516	11.5
782.262	11.5
783.008	9.5
783.754	13.5
784.5	13.5
785.246	14.5
785.992	9.5
786.738	11.5
787.484	11.5
788.23	9.5
788.975	9.5
789.721	10.5
790.466	12.5
791.212	10.5
791.957	9.5
792.702	12.5
793.447	8.5
794.193	10.5
794.938	10.5
795.683	8.5
796.427	10.5
797.172	10.5
797.917	10.5
798.662	8.5
799.406	11.5
800.151	10.5
800.895	9.5
801.64	6.5
802.384	8.5
803.128	8.5
803.872	8.5
804.616	9.5
805.36	7.5
806.104	8.5
806.848	8.5
807.592	9.5
808.336	8.5
809.079	6.5
809.823	8.5
810.566	6.5
811.31	5.5
812.053	7.5
812.796	7.5
813.539	8.5
814.283	8.5
815.026	6.5
815.769	4.5
816.511	4.5
817.254	6.5
817.997	7.5
818.74	8.5
819.482	6.5
820.225	7.5
820.967	7.5
821.71	7.5
822.452	8.5
823.194	5.5
823.936	5.5
824.678	4.5
825.42	5.5
826.162	5.5
826.904	5.5
827.646	3.5
828.388	6.5
829.129	4.5
829.871	4.5
830.612	2.5
831.354	5.5
832.095	5.5
832.836	5.5
833.577	4.5
834.319	2.5
835.06	5.5
835.801	4.5
836.542	4.5
837.282	5.5
838.023	3.5
838.764	6.5
839.504	4.5
840.245	4.5
840.985	4.5
841.726	4.5
842.466	4.5
843.206	4.5
843.946	3.5
844.687	4.5
845.427	3.5
846.166	4.5
846.906	1.5
847.646	5.5
848.386	3.5
849.125	6.5
849.865	6.5
850.605	3.5
851.344	4.5
852.083	1.5
852.823	3.5
853.562	2.5
854.301	4.5
855.04	0.5
855.779	2.5
856.518	2.5
857.257	1.5
857.995	5.5
858.734	2.5
859.473	4.5
860.211	4.5
860.95	2.5
861.688	2.5
862.426	3.5
863.165	1.5
863.903	2.5
864.641	2.5
865.379	0.5
866.117	1.5
866.855	2.5
867.593	1.5
868.33	4.5
869.068	1.5
869.806	2.5
870.543	2.5
871.28	2.5
872.018	1.5
872.755	3.5
873.492	1.5
874.229	2.5
874.967	0.5
875.703	4.5
876.44	-1.5
877.177	0.5
877.914	3.5
878.651	3.5
879.387	0.5
880.124	1.5
880.86	3.5
881.597	2.5
882.333	0.5
883.069	2.5
883.806	0.5
884.542	2.5
885.278	1.5
886.014	0.5
886.749	-0.5
887.485	1.5
888.221	3.5
888.957	-1.5
889.692	2.5
890.428	0.5
891.163	-0.5
891.899	1.5
892.634	2.5
893.369	1.5
894.104	0.5
894.839	1.5
895.574	1.5
896.309	0.5
897.044	-0.5
897.779	0.5
898.514	1.5
899.248	0.5
899.983	1.5
900.717	1.5
901.452	-0.5
902.186	0.5
902.92	-1.5
903.654	3.5
904.389	-0.5
905.123	2.5
905.857	1.5
906.59	0.5
907.324	1.5
908.058	0.5
908.792	1.5
909.525	-0.5
910.259	1.5
910.992	2.5
911.726	-1.5
912.459	0.5
913.192	1.5
913.925	0.5
914.658	0.5
915.391	-1.5
916.124	0.5
916.857	1.5
917.59	-0.5
918.323	2.5
919.055	-0.5
919.788	-1.5
920.521	-1.5
921.253	0.5
921.985	1.5
922.718	-0.5
923.45	-0.5
924.182	0.5
924.914	1.5
925.646	0.5
926.378	0.5
927.11	0.5
927.841	0.5
928.573	0.5
929.305	0.5
930.036	1.5
930.768	-2.5
931.499	-0.5
932.23	2.5
932.962	-0.5
933.693	1.5
934.424	0.5
935.155	0.5
935.886	-1.5
936.617	-0.5
937.348	0.5
938.078	1.5
938.809	0.5
939.54	0.5
940.27	0.5
941.001	0.5
941.731	0.5
942.461	0.5
943.191	0.5
943.922	-0.5
944.652	0.5
945.382	-1.5
946.112	0.5
946.841	-0.5
947.571	0.5
948.301	-0.5
949.031	-1.5
949.76	0.5
950.49	0.5
951.219	1.5
951.948	-0.5
952.678	-0.5
953.407	1.5
954.136	-0.5
954.865	0.5
955.594	-0.5
956.323	1.5
957.052	1.5
957.78	1.5
958.509	-1.5
959.238	-1.5
959.966	0.5
960.695	-0.5
961.423	-0.5
962.151	0.5
962.88	-0.5
963.608	-0.5
964.336	-0.5
965.064	2.5
965.792	-0.5
966.52	-0.5
967.247	-0.5
967.975	-1.5
968.703	-1.5
969.43	-0.5
970.158	0.5
970.885	0.5
971.613	0.5
972.34	-1.5
973.067	0.5
973.794	0.5
974.521	-1.5
975.248	0.5
975.975	1.5
976.702	-0.5
977.429	0.5
978.156	0.5
978.882	0.5
979.609	0.5
980.335	2.5
981.062	0.5
981.788	-2.5
982.514	1.5
983.24	-0.5
983.967	0.5
984.693	1.5
985.419	1.5
986.144	1.5
986.87	-0.5
987.596	0.5
988.322	-0.5
989.047	1.5
989.773	0.5
990.498	0.5
991.224	-1.5
991.949	-1.5
992.674	2.5
993.399	0.5
994.124	-1.5
994.849	0.5
995.574	0.5
996.299	2.5
997.024	-0.5
997.749	1.5
998.473	-0.5
999.198	1.5
999.922	1.5
1000.647	0.5
1001.371	2.5
1002.095	-2.5
1002.82	0.5
1003.544	-2.5
1004.268	3.5
1004.992	1.5
1005.716	3.5
1006.439	2.5
1007.163	3.5
1007.887	4.5
1008.611	1.5
1009.334	1.5
1010.058	-1.5
1010.781	-0.5
1011.504	1.5
1012.228	1.5
1012.951	-0.5
1013.674	1.5
1014.397	0.5
1015.12	0.5
