节点500_425_QEPB04081__228__15-52-06-050.txt的数据

Date: Wed Nov 12 15:52:06 CST 2025
User: PC
Spectrometer: QEPB0408
触发模式: 0
积分时间 (秒): 1.000000E-2
Scans to average: 1
启用暗噪声校正: true
启用非线性校正: false
滑动平均宽度: 0
X轴模式: Wavelengths
Number of Pixels in Spectrum: 1044
>>>>>Begin Spectral Data<<<<<
220.843	3.38
221.644	3.38
222.444	3.38
223.244	3.38
224.045	3.38
224.845	5.38
225.645	2.38
226.445	5.38
227.245	2.38
228.045	4.38
228.845	5.38
229.645	3.38
230.444	6.38
231.244	4.38
232.043	6.38
232.843	5.38
233.642	5.38
234.442	5.38
235.241	4.38
236.04	9.38
236.839	4.38
237.638	6.38
238.437	6.38
239.236	7.38
240.035	5.38
240.833	7.38
241.632	8.38
242.43	7.38
243.229	9.38
244.027	5.38
244.826	6.38
245.624	7.38
246.422	9.38
247.22	10.38
248.018	9.38
248.816	8.38
249.614	8.38
250.412	8.38
251.21	10.38
252.007	7.38
252.805	11.38
253.602	13.38
254.4	11.38
255.197	11.38
255.994	11.38
256.791	12.38
257.589	12.38
258.386	10.38
259.183	12.38
259.979	14.38
260.776	16.38
261.573	16.38
262.37	14.38
263.166	16.38
263.963	18.38
264.759	19.38
265.556	14.38
266.352	17.38
267.148	21.38
267.944	22.38
268.74	21.38
269.536	18.38
270.332	23.38
271.128	24.38
271.924	24.38
272.719	23.38
273.515	25.38
274.311	25.38
275.106	21.38
275.901	27.38
276.697	24.38
277.492	23.38
278.287	23.38
279.082	23.38
279.877	23.38
280.672	24.38
281.467	26.38
282.262	23.38
283.056	26.38
283.851	25.38
284.646	25.38
285.44	24.38
286.234	26.38
287.029	22.38
287.823	26.38
288.617	26.38
289.411	26.38
290.205	22.38
290.999	23.38
291.793	23.38
292.587	22.38
293.381	23.38
294.174	22.38
294.968	23.38
295.761	21.38
296.555	21.38
297.348	22.38
298.141	18.38
298.935	23.38
299.728	19.38
300.521	18.38
301.314	18.38
302.107	16.38
302.899	16.38
303.692	14.38
304.485	15.38
305.277	18.38
306.07	18.38
306.862	16.38
307.655	16.38
308.447	17.38
309.239	15.38
310.031	15.38
310.823	14.38
311.615	13.38
312.407	13.38
313.199	13.38
313.991	12.38
314.783	15.38
315.574	12.38
316.366	11.38
317.157	9.38
317.949	12.38
318.74	9.38
319.531	10.38
320.322	12.38
321.113	8.38
321.904	9.38
322.695	9.38
323.486	11.38
324.277	10.38
325.068	9.38
325.858	9.38
326.649	9.38
327.439	8.38
328.23	9.38
329.02	8.38
329.81	10.38
330.6	9.38
331.391	9.38
332.181	7.38
332.971	9.38
333.76	8.38
334.55	7.38
335.34	8.38
336.13	7.38
336.919	8.38
337.709	8.38
338.498	10.38
339.287	8.38
340.077	8.38
340.866	10.38
341.655	7.38
342.444	8.38
343.233	8.38
344.022	10.38
344.811	10.38
345.6	5.38
346.388	10.38
347.177	9.38
347.965	9.38
348.754	7.38
349.542	8.38
350.33	7.38
351.119	10.38
351.907	9.38
352.695	7.38
353.483	10.38
354.271	6.38
355.059	6.38
355.846	9.38
356.634	8.38
357.422	7.38
358.209	6.38
358.997	7.38
359.784	9.38
360.571	4.38
361.359	10.38
362.146	6.38
362.933	8.38
363.72	7.38
364.507	5.38
365.294	9.38
366.081	7.38
366.867	6.38
367.654	9.38
368.44	6.38
369.227	8.38
370.013	8.38
370.8	8.38
371.586	6.38
372.372	6.38
373.158	8.38
373.944	8.38
374.73	7.38
375.516	5.38
376.302	9.38
377.088	7.38
377.873	9.38
378.659	5.38
379.445	6.38
380.23	8.38
381.015	5.38
381.801	10.38
382.586	8.38
383.371	5.38
384.156	7.38
384.941	7.38
385.726	10.38
386.511	8.38
387.296	5.38
388.08	8.38
388.865	7.38
389.649	7.38
390.434	7.38
391.218	9.38
392.003	8.38
392.787	8.38
393.571	10.38
394.355	7.38
395.139	8.38
395.923	8.38
396.707	7.38
397.491	9.38
398.274	9.38
399.058	11.38
399.842	8.38
400.625	10.38
401.408	9.38
402.192	7.38
402.975	10.38
403.758	10.38
404.541	7.38
405.324	12.38
406.107	9.38
406.89	10.38
407.673	11.38
408.456	10.38
409.238	11.38
410.021	11.38
410.803	9.38
411.586	11.38
412.368	13.38
413.151	10.38
413.933	10.38
414.715	13.38
415.497	12.38
416.279	12.38
417.061	11.38
417.843	12.38
418.624	14.38
419.406	13.38
420.188	12.38
420.969	16.38
421.751	14.38
422.532	16.38
423.313	14.38
424.095	16.38
424.876	15.38
425.657	17.38
426.438	13.38
427.219	18.38
428	18.38
428.78	20.38
429.561	19.38
430.342	21.38
431.122	19.38
431.903	23.38
432.683	20.38
433.464	21.38
434.244	25.38
435.024	24.38
435.804	24.38
436.584	29.38
437.364	27.38
438.144	28.38
438.924	30.38
439.704	31.38
440.483	35.38
441.263	39.38
442.042	37.38
442.822	38.38
443.601	40.38
444.38	43.38
445.16	50.38
445.939	52.38
446.718	55.38
447.497	57.38
448.276	63.38
449.054	68.38
449.833	73.38
450.612	87.38
451.391	94.38
452.169	103.38
452.948	112.38
453.726	126.38
454.504	128.38
455.282	158.38
456.061	167.38
456.839	184.38
457.617	194.38
458.395	228.38
459.172	245.38
459.95	275.38
460.728	318.38
461.506	344.38
462.283	392.38
463.061	434.38
463.838	495.38
464.615	545.38
465.393	614.38
466.17	678.38
466.947	748.38
467.724	844.38
468.501	950.38
469.278	1051.38
470.055	1166.38
470.831	1291.38
471.608	1438.38
472.385	1598.38
473.161	1759.38
473.938	1949.38
474.714	2159.38
475.49	2367.38
476.266	2629.38
477.043	2911.38
477.819	3211.38
478.595	3529.38
479.371	3882.38
480.146	4250.38
480.922	4688.38
481.698	5158.38
482.473	5638.38
483.249	6196.38
484.024	6802.38
484.8	7468.38
485.575	8128.38
486.35	8900.38
487.126	9685.38
487.901	10574.38
488.676	11557.38
489.451	12561.38
490.225	13640.38
491	14799.38
491.775	16068.38
492.55	17362.38
493.324	18718.38
494.099	20123.38
494.873	21414.38
495.647	22921.38
496.422	24314.38
497.196	25898.38
497.97	27394.38
498.744	28753.38
499.518	30191.38
500.292	31344.38
501.066	32479.38
501.839	33614.38
502.613	34560.38
503.387	35129.38
504.16	35672.38
504.934	35910.38
505.707	35946.38
506.48	35768.38
507.253	35444.38
508.027	34978.38
508.8	34311.38
509.573	33543.38
510.346	32718.38
511.118	31672.38
511.891	30726.38
512.664	29508.38
513.437	28312.38
514.209	27163.38
514.982	26183.38
515.754	25066.38
516.526	23995.38
517.298	22963.38
518.071	21976.38
518.843	21113.38
519.615	20163.38
520.387	19404.38
521.159	18755.38
521.93	17975.38
522.702	17224.38
523.474	16566.38
524.245	15862.38
525.017	15126.38
525.788	14488.38
526.56	13798.38
527.331	13109.38
528.102	12586.38
528.873	11939.38
529.644	11430.38
530.415	10842.38
531.186	10319.38
531.957	9738.38
532.728	9252.38
533.498	8730.38
534.269	8224.38
535.039	7776.38
535.81	7377.38
536.58	7002.38
537.351	6529.38
538.121	6195.38
538.891	5873.38
539.661	5573.38
540.431	5290.38
541.201	4988.38
541.971	4734.38
542.741	4495.38
543.51	4263.38
544.28	4062.38
545.05	3844.38
545.819	3681.38
546.588	3481.38
547.358	3291.38
548.127	3139.38
548.896	2972.38
549.665	2817.38
550.434	2689.38
551.203	2550.38
551.972	2418.38
552.741	2263.38
553.51	2155.38
554.278	2026.38
555.047	1897.38
555.815	1788.38
556.584	1699.38
557.352	1610.38
558.121	1504.38
558.889	1426.38
559.657	1349.38
560.425	1270.38
561.193	1211.38
561.961	1136.38
562.729	1090.38
563.496	1016.38
564.264	970.38
565.032	911.38
565.799	868.38
566.567	818.38
567.334	775.38
568.101	728.38
568.869	694.38
569.636	649.38
570.403	612.38
571.17	573.38
571.937	558.38
572.704	515.38
573.471	490.38
574.237	452.38
575.004	435.38
575.771	402.38
576.537	382.38
577.303	361.38
578.07	343.38
578.836	314.38
579.602	305.38
580.368	285.38
581.134	274.38
581.9	256.38
582.666	249.38
583.432	238.38
584.198	217.38
584.964	206.38
585.729	198.38
586.495	186.38
587.26	177.38
588.025	171.38
588.791	162.38
589.556	156.38
590.321	138.38
591.086	144.38
591.851	128.38
592.616	124.38
593.381	115.38
594.146	111.38
594.911	108.38
595.675	105.38
596.44	100.38
597.204	94.38
597.969	94.38
598.733	85.38
599.497	78.38
600.261	80.38
601.025	71.38
601.79	72.38
602.553	68.38
603.317	64.38
604.081	64.38
604.845	60.38
605.609	58.38
606.372	53.38
607.136	54.38
607.899	54.38
608.662	49.38
609.426	49.38
610.189	44.38
610.952	45.38
611.715	41.38
612.478	40.38
613.241	38.38
614.004	38.38
614.767	36.38
615.529	36.38
616.292	37.38
617.055	34.38
617.817	30.38
618.579	32.38
619.342	27.38
620.104	29.38
620.866	27.38
621.628	27.38
622.39	26.38
623.152	26.38
623.914	26.38
624.676	24.38
625.438	24.38
626.199	21.38
626.961	17.38
627.722	21.38
628.484	23.38
629.245	18.38
630.006	18.38
630.768	18.38
631.529	17.38
632.29	17.38
633.051	16.38
633.812	14.38
634.573	15.38
635.333	13.38
636.094	16.38
636.855	15.38
637.615	16.38
638.376	16.38
639.136	13.38
639.896	12.38
640.657	12.38
641.417	12.38
642.177	11.38
642.937	13.38
643.697	13.38
644.457	9.38
645.216	12.38
645.976	13.38
646.736	13.38
647.495	11.38
648.255	10.38
649.014	10.38
649.774	9.38
650.533	10.38
651.292	7.38
652.051	10.38
652.81	12.38
653.569	8.38
654.328	10.38
655.087	8.38
655.846	5.38
656.604	8.38
657.363	8.38
658.121	9.38
658.88	9.38
659.638	7.38
660.397	8.38
661.155	8.38
661.913	8.38
662.671	6.38
663.429	7.38
664.187	7.38
664.945	8.38
665.703	8.38
666.46	5.38
667.218	7.38
667.976	7.38
668.733	6.38
669.49	5.38
670.248	5.38
671.005	8.38
671.762	6.38
672.519	6.38
673.276	8.38
674.033	6.38
674.79	5.38
675.547	8.38
676.304	6.38
677.06	6.38
677.817	3.38
678.574	5.38
679.33	4.38
680.086	6.38
680.843	6.38
681.599	3.38
682.355	6.38
683.111	4.38
683.867	3.38
684.623	4.38
685.379	2.38
686.135	6.38
686.89	5.38
687.646	6.38
688.402	4.38
689.157	5.38
689.912	4.38
690.668	6.38
691.423	7.38
692.178	5.38
692.933	6.38
693.688	5.38
694.443	7.38
695.198	3.38
695.953	6.38
696.708	6.38
697.462	5.38
698.217	4.38
698.972	4.38
699.726	5.38
700.48	5.38
701.235	4.38
701.989	5.38
702.743	5.38
703.497	8.38
704.251	6.38
705.005	6.38
705.759	4.38
706.513	5.38
707.266	6.38
708.02	6.38
708.774	6.38
709.527	7.38
710.28	4.38
711.034	6.38
711.787	5.38
712.54	6.38
713.293	5.38
714.046	4.38
714.799	6.38
715.552	4.38
716.305	4.38
717.058	5.38
717.81	6.38
718.563	5.38
719.315	4.38
720.068	5.38
720.82	3.38
721.573	6.38
722.325	8.38
723.077	7.38
723.829	5.38
724.581	4.38
725.333	6.38
726.085	4.38
726.836	8.38
727.588	4.38
728.34	5.38
729.091	7.38
729.843	7.38
730.594	6.38
731.346	7.38
732.097	6.38
732.848	6.38
733.599	6.38
734.35	8.38
735.101	4.38
735.852	4.38
736.603	4.38
737.354	7.38
738.104	6.38
738.855	6.38
739.605	5.38
740.356	7.38
741.106	7.38
741.856	10.38
742.607	5.38
743.357	5.38
744.107	7.38
744.857	7.38
745.607	5.38
746.357	6.38
747.106	8.38
747.856	7.38
748.606	2.38
749.355	8.38
750.105	5.38
750.854	7.38
751.603	6.38
752.353	8.38
753.102	9.38
753.851	7.38
754.6	8.38
755.349	6.38
756.098	6.38
756.847	7.38
757.595	8.38
758.344	10.38
759.093	9.38
759.841	10.38
760.589	8.38
761.338	10.38
762.086	10.38
762.834	9.38
763.582	8.38
764.331	7.38
765.079	9.38
765.826	10.38
766.574	8.38
767.322	9.38
768.07	7.38
768.817	11.38
769.565	10.38
770.312	12.38
771.06	11.38
771.807	10.38
772.554	11.38
773.302	10.38
774.049	11.38
774.796	10.38
775.543	9.38
776.29	11.38
777.036	10.38
777.783	12.38
778.53	11.38
779.276	13.38
780.023	12.38
780.769	10.38
781.516	12.38
782.262	12.38
783.008	10.38
783.754	10.38
784.5	9.38
785.246	12.38
785.992	12.38
786.738	12.38
787.484	9.38
788.23	12.38
788.975	14.38
789.721	12.38
790.466	14.38
791.212	10.38
791.957	11.38
792.702	12.38
793.447	13.38
794.193	11.38
794.938	10.38
795.683	11.38
796.427	9.38
797.172	11.38
797.917	10.38
798.662	9.38
799.406	9.38
800.151	7.38
800.895	9.38
801.64	7.38
802.384	6.38
803.128	10.38
803.872	10.38
804.616	8.38
805.36	8.38
806.104	8.38
806.848	8.38
807.592	8.38
808.336	5.38
809.079	6.38
809.823	5.38
810.566	7.38
811.31	8.38
812.053	5.38
812.796	6.38
813.539	7.38
814.283	5.38
815.026	5.38
815.769	6.38
816.511	6.38
817.254	6.38
817.997	7.38
818.74	6.38
819.482	6.38
820.225	5.38
820.967	5.38
821.71	6.38
822.452	6.38
823.194	5.38
823.936	6.38
824.678	5.38
825.42	5.38
826.162	4.38
826.904	4.38
827.646	5.38
828.388	2.38
829.129	5.38
829.871	4.38
830.612	6.38
831.354	6.38
832.095	3.38
832.836	5.38
833.577	3.38
834.319	2.38
835.06	5.38
835.801	6.38
836.542	5.38
837.282	5.38
838.023	5.38
838.764	3.38
839.504	2.38
840.245	3.38
840.985	2.38
841.726	3.38
842.466	4.38
843.206	4.38
843.946	2.38
844.687	3.38
845.427	3.38
846.166	5.38
846.906	6.38
847.646	2.38
848.386	3.38
849.125	4.38
849.865	1.38
850.605	6.38
851.344	0.38
852.083	3.38
852.823	4.38
853.562	2.38
854.301	4.38
855.04	2.38
855.779	1.38
856.518	2.38
857.257	3.38
857.995	1.38
858.734	1.38
859.473	4.38
860.211	3.38
860.95	3.38
861.688	2.38
862.426	2.38
863.165	3.38
863.903	0.38
864.641	2.38
865.379	3.38
866.117	3.38
866.855	5.38
867.593	0.38
868.33	3.38
869.068	1.38
869.806	2.38
870.543	3.38
871.28	1.38
872.018	0.38
872.755	1.38
873.492	2.38
874.229	1.38
874.967	-0.62
875.703	2.38
876.44	0.38
877.177	3.38
877.914	-1.62
878.651	2.38
879.387	2.38
880.124	3.38
880.86	0.38
881.597	0.38
882.333	1.38
883.069	1.38
883.806	1.38
884.542	0.38
885.278	-2.62
886.014	2.38
886.749	0.38
887.485	0.38
888.221	3.38
888.957	1.38
889.692	2.38
890.428	0.38
891.163	0.38
891.899	2.38
892.634	2.38
893.369	3.38
894.104	-1.62
894.839	1.38
895.574	0.38
896.309	0.38
897.044	0.38
897.779	1.38
898.514	0.38
899.248	0.38
899.983	0.38
900.717	2.38
901.452	2.38
902.186	-0.62
902.92	0.38
903.654	1.38
904.389	-0.62
905.123	0.38
905.857	1.38
906.59	-0.62
907.324	0.38
908.058	2.38
908.792	0.38
909.525	0.38
910.259	3.38
910.992	-0.62
911.726	0.38
912.459	2.38
913.192	-2.62
913.925	-1.62
914.658	-0.62
915.391	0.38
916.124	-1.62
916.857	0.38
917.59	0.38
918.323	0.38
919.055	-1.62
919.788	1.38
920.521	-0.62
921.253	4.38
921.985	-0.62
922.718	2.38
923.45	0.38
924.182	2.38
924.914	-0.62
925.646	0.38
926.378	2.38
927.11	0.38
927.841	0.38
928.573	2.38
929.305	1.38
930.036	0.38
930.768	0.38
931.499	-0.62
932.23	2.38
932.962	-0.62
933.693	2.38
934.424	-1.62
935.155	1.38
935.886	-1.62
936.617	1.38
937.348	-1.62
938.078	-0.62
938.809	1.38
939.54	1.38
940.27	0.38
941.001	2.38
941.731	0.38
942.461	-1.62
943.191	-0.62
943.922	1.38
944.652	-1.62
945.382	1.38
946.112	1.38
946.841	1.38
947.571	2.38
948.301	-1.62
949.031	1.38
949.76	-0.62
950.49	1.38
951.219	0.38
951.948	-0.62
952.678	2.38
953.407	1.38
954.136	0.38
954.865	0.38
955.594	-0.62
956.323	0.38
957.052	0.38
957.78	2.38
958.509	2.38
959.238	-0.62
959.966	1.38
960.695	-0.62
961.423	1.38
962.151	1.38
962.88	-0.62
963.608	-0.62
964.336	-0.62
965.064	1.38
965.792	-0.62
966.52	-1.62
967.247	1.38
967.975	1.38
968.703	1.38
969.43	1.38
970.158	0.38
970.885	-2.62
971.613	1.38
972.34	1.38
973.067	1.38
973.794	0.38
974.521	-0.62
975.248	2.38
975.975	0.38
976.702	1.38
977.429	1.38
978.156	0.38
978.882	2.38
979.609	2.38
980.335	1.38
981.062	1.38
981.788	0.38
982.514	0.38
983.24	-0.62
983.967	0.38
984.693	0.38
985.419	0.38
986.144	0.38
986.87	1.38
987.596	3.38
988.322	1.38
989.047	2.38
989.773	0.38
990.498	1.38
991.224	-2.62
991.949	0.38
992.674	0.38
993.399	-0.62
994.124	1.38
994.849	-1.62
995.574	-0.62
996.299	-1.62
997.024	-0.62
997.749	-0.62
998.473	0.38
999.198	1.38
999.922	1.38
1000.647	-1.62
1001.371	5.38
1002.095	-1.62
1002.82	-0.62
1003.544	-2.62
1004.268	1.38
1004.992	0.38
1005.716	2.38
1006.439	2.38
1007.163	1.38
1007.887	4.38
1008.611	-0.62
1009.334	-1.62
1010.058	0.38
1010.781	2.38
1011.504	-0.62
1012.228	-0.62
1012.951	-1.62
1013.674	0.38
1014.397	0.38
1015.12	0.38
