节点500_425_QEPB04081__41__15-49-00-440.txt的数据

Date: Wed Nov 12 15:49:00 CST 2025
User: PC
Spectrometer: QEPB0408
触发模式: 0
积分时间 (秒): 1.000000E-2
Scans to average: 1
启用暗噪声校正: true
启用非线性校正: false
滑动平均宽度: 0
X轴模式: Wavelengths
Number of Pixels in Spectrum: 1044
>>>>>Begin Spectral Data<<<<<
220.843	2.38
221.644	0.38
222.444	3.38
223.244	3.38
224.045	4.38
224.845	3.38
225.645	6.38
226.445	1.38
227.245	6.38
228.045	4.38
228.845	2.38
229.645	5.38
230.444	4.38
231.244	4.38
232.043	3.38
232.843	6.38
233.642	5.38
234.442	8.38
235.241	7.38
236.04	4.38
236.839	4.38
237.638	8.38
238.437	7.38
239.236	6.38
240.035	7.38
240.833	8.38
241.632	7.38
242.43	9.38
243.229	9.38
244.027	10.38
244.826	9.38
245.624	7.38
246.422	12.38
247.22	8.38
248.018	8.38
248.816	11.38
249.614	9.38
250.412	11.38
251.21	9.38
252.007	11.38
252.805	12.38
253.602	13.38
254.4	12.38
255.197	12.38
255.994	15.38
256.791	13.38
257.589	14.38
258.386	10.38
259.183	12.38
259.979	16.38
260.776	17.38
261.573	19.38
262.37	17.38
263.166	19.38
263.963	20.38
264.759	16.38
265.556	19.38
266.352	18.38
267.148	22.38
267.944	21.38
268.74	21.38
269.536	23.38
270.332	22.38
271.128	24.38
271.924	23.38
272.719	26.38
273.515	28.38
274.311	23.38
275.106	27.38
275.901	23.38
276.697	26.38
277.492	28.38
278.287	29.38
279.082	28.38
279.877	27.38
280.672	24.38
281.467	27.38
282.262	29.38
283.056	27.38
283.851	26.38
284.646	27.38
285.44	23.38
286.234	27.38
287.029	26.38
287.823	23.38
288.617	26.38
289.411	26.38
290.205	24.38
290.999	24.38
291.793	23.38
292.587	25.38
293.381	24.38
294.174	24.38
294.968	19.38
295.761	21.38
296.555	21.38
297.348	20.38
298.141	20.38
298.935	22.38
299.728	19.38
300.521	19.38
301.314	18.38
302.107	18.38
302.899	19.38
303.692	16.38
304.485	16.38
305.277	18.38
306.07	16.38
306.862	11.38
307.655	15.38
308.447	16.38
309.239	16.38
310.031	12.38
310.823	15.38
311.615	13.38
312.407	14.38
313.199	13.38
313.991	14.38
314.783	13.38
315.574	10.38
316.366	13.38
317.157	10.38
317.949	10.38
318.74	9.38
319.531	9.38
320.322	10.38
321.113	10.38
321.904	7.38
322.695	11.38
323.486	9.38
324.277	8.38
325.068	6.38
325.858	9.38
326.649	11.38
327.439	8.38
328.23	8.38
329.02	7.38
329.81	11.38
330.6	8.38
331.391	8.38
332.181	8.38
332.971	11.38
333.76	9.38
334.55	9.38
335.34	10.38
336.13	9.38
336.919	6.38
337.709	7.38
338.498	7.38
339.287	10.38
340.077	8.38
340.866	9.38
341.655	9.38
342.444	8.38
343.233	9.38
344.022	6.38
344.811	8.38
345.6	9.38
346.388	6.38
347.177	8.38
347.965	7.38
348.754	9.38
349.542	8.38
350.33	7.38
351.119	8.38
351.907	6.38
352.695	9.38
353.483	7.38
354.271	9.38
355.059	8.38
355.846	10.38
356.634	8.38
357.422	7.38
358.209	7.38
358.997	5.38
359.784	8.38
360.571	9.38
361.359	7.38
362.146	8.38
362.933	9.38
363.72	11.38
364.507	8.38
365.294	6.38
366.081	7.38
366.867	5.38
367.654	5.38
368.44	5.38
369.227	8.38
370.013	8.38
370.8	8.38
371.586	8.38
372.372	7.38
373.158	7.38
373.944	7.38
374.73	7.38
375.516	5.38
376.302	7.38
377.088	8.38
377.873	8.38
378.659	7.38
379.445	5.38
380.23	5.38
381.015	9.38
381.801	6.38
382.586	8.38
383.371	6.38
384.156	8.38
384.941	7.38
385.726	5.38
386.511	7.38
387.296	8.38
388.08	10.38
388.865	7.38
389.649	8.38
390.434	8.38
391.218	6.38
392.003	8.38
392.787	8.38
393.571	8.38
394.355	6.38
395.139	9.38
395.923	9.38
396.707	10.38
397.491	10.38
398.274	7.38
399.058	9.38
399.842	10.38
400.625	10.38
401.408	10.38
402.192	10.38
402.975	8.38
403.758	12.38
404.541	10.38
405.324	8.38
406.107	11.38
406.89	11.38
407.673	14.38
408.456	13.38
409.238	11.38
410.021	12.38
410.803	13.38
411.586	12.38
412.368	11.38
413.151	13.38
413.933	11.38
414.715	14.38
415.497	12.38
416.279	13.38
417.061	14.38
417.843	13.38
418.624	14.38
419.406	14.38
420.188	18.38
420.969	14.38
421.751	17.38
422.532	15.38
423.313	14.38
424.095	17.38
424.876	16.38
425.657	16.38
426.438	19.38
427.219	17.38
428	17.38
428.78	20.38
429.561	18.38
430.342	19.38
431.122	21.38
431.903	20.38
432.683	20.38
433.464	22.38
434.244	22.38
435.024	25.38
435.804	28.38
436.584	27.38
437.364	30.38
438.144	26.38
438.924	34.38
439.704	30.38
440.483	32.38
441.263	35.38
442.042	37.38
442.822	42.38
443.601	43.38
444.38	48.38
445.16	50.38
445.939	49.38
446.718	55.38
447.497	58.38
448.276	67.38
449.054	70.38
449.833	72.38
450.612	75.38
451.391	89.38
452.169	93.38
452.948	99.38
453.726	119.38
454.504	114.38
455.282	139.38
456.061	159.38
456.839	169.38
457.617	186.38
458.395	207.38
459.172	236.38
459.95	262.38
460.728	293.38
461.506	328.38
462.283	371.38
463.061	413.38
463.838	460.38
464.615	514.38
465.393	563.38
466.17	638.38
466.947	714.38
467.724	805.38
468.501	897.38
469.278	996.38
470.055	1115.38
470.831	1244.38
471.608	1380.38
472.385	1553.38
473.161	1725.38
473.938	1897.38
474.714	2132.38
475.49	2343.38
476.266	2608.38
477.043	2893.38
477.819	3196.38
478.595	3570.38
479.371	3946.38
480.146	4353.38
480.922	4797.38
481.698	5298.38
482.473	5826.38
483.249	6419.38
484.024	7145.38
484.8	7790.38
485.575	8552.38
486.35	9428.38
487.126	10361.38
487.901	11330.38
488.676	12381.38
489.451	13539.38
490.225	14747.38
491	16082.38
491.775	17490.38
492.55	18946.38
493.324	20399.38
494.099	21977.38
494.873	23381.38
495.647	25055.38
496.422	26635.38
497.196	28153.38
497.97	29896.38
498.744	31347.38
499.518	32704.38
500.292	34012.38
501.066	35132.38
501.839	36102.38
502.613	36910.38
503.387	37471.38
504.16	37861.38
504.934	37783.38
505.707	37563.38
506.48	37280.38
507.253	36623.38
508.027	36015.38
508.8	35142.38
509.573	34141.38
510.346	33026.38
511.118	31909.38
511.891	30673.38
512.664	29433.38
513.437	28116.38
514.209	26873.38
514.982	25750.38
515.754	24649.38
516.526	23553.38
517.298	22522.38
518.071	21585.38
518.843	20655.38
519.615	19853.38
520.387	19046.38
521.159	18364.38
521.93	17655.38
522.702	16959.38
523.474	16211.38
524.245	15612.38
525.017	14855.38
525.788	14109.38
526.56	13430.38
527.331	12843.38
528.102	12207.38
528.873	11599.38
529.644	10983.38
530.415	10478.38
531.186	9906.38
531.957	9401.38
532.728	8861.38
533.498	8369.38
534.269	7912.38
535.039	7436.38
535.81	7038.38
536.58	6615.38
537.351	6250.38
538.121	5914.38
538.891	5607.38
539.661	5317.38
540.431	5021.38
541.201	4758.38
541.971	4535.38
542.741	4307.38
543.51	4071.38
544.28	3856.38
545.05	3658.38
545.819	3509.38
546.588	3326.38
547.358	3157.38
548.127	2976.38
548.896	2821.38
549.665	2687.38
550.434	2531.38
551.203	2420.38
551.972	2276.38
552.741	2139.38
553.51	2025.38
554.278	1905.38
555.047	1803.38
555.815	1685.38
556.584	1605.38
557.352	1506.38
558.121	1417.38
558.889	1339.38
559.657	1259.38
560.425	1194.38
561.193	1127.38
561.961	1064.38
562.729	1021.38
563.496	964.38
564.264	912.38
565.032	859.38
565.799	822.38
566.567	761.38
567.334	719.38
568.101	678.38
568.869	659.38
569.636	615.38
570.403	575.38
571.17	539.38
571.937	511.38
572.704	494.38
573.471	453.38
574.237	431.38
575.004	401.38
575.771	378.38
576.537	366.38
577.303	338.38
578.07	317.38
578.836	299.38
579.602	285.38
580.368	268.38
581.134	258.38
581.9	244.38
582.666	229.38
583.432	221.38
584.198	203.38
584.964	195.38
585.729	185.38
586.495	175.38
587.26	166.38
588.025	158.38
588.791	155.38
589.556	140.38
590.321	138.38
591.086	130.38
591.851	122.38
592.616	119.38
593.381	112.38
594.146	101.38
594.911	101.38
595.675	95.38
596.44	95.38
597.204	84.38
597.969	85.38
598.733	75.38
599.497	78.38
600.261	74.38
601.025	67.38
601.79	69.38
602.553	62.38
603.317	64.38
604.081	58.38
604.845	59.38
605.609	56.38
606.372	48.38
607.136	50.38
607.899	54.38
608.662	47.38
609.426	44.38
610.189	45.38
610.952	42.38
611.715	36.38
612.478	40.38
613.241	40.38
614.004	35.38
614.767	35.38
615.529	30.38
616.292	33.38
617.055	30.38
617.817	31.38
618.579	29.38
619.342	27.38
620.104	24.38
620.866	28.38
621.628	27.38
622.39	25.38
623.152	22.38
623.914	23.38
624.676	21.38
625.438	25.38
626.199	21.38
626.961	23.38
627.722	20.38
628.484	17.38
629.245	18.38
630.006	18.38
630.768	20.38
631.529	16.38
632.29	19.38
633.051	18.38
633.812	14.38
634.573	18.38
635.333	18.38
636.094	12.38
636.855	14.38
637.615	14.38
638.376	13.38
639.136	13.38
639.896	14.38
640.657	12.38
641.417	15.38
642.177	14.38
642.937	9.38
643.697	12.38
644.457	11.38
645.216	13.38
645.976	13.38
646.736	10.38
647.495	8.38
648.255	11.38
649.014	10.38
649.774	10.38
650.533	9.38
651.292	9.38
652.051	9.38
652.81	10.38
653.569	8.38
654.328	8.38
655.087	9.38
655.846	8.38
656.604	9.38
657.363	6.38
658.121	7.38
658.88	9.38
659.638	6.38
660.397	7.38
661.155	8.38
661.913	7.38
662.671	8.38
663.429	4.38
664.187	6.38
664.945	8.38
665.703	5.38
666.46	5.38
667.218	7.38
667.976	8.38
668.733	5.38
669.49	4.38
670.248	9.38
671.005	7.38
671.762	8.38
672.519	6.38
673.276	6.38
674.033	9.38
674.79	7.38
675.547	4.38
676.304	7.38
677.06	7.38
677.817	4.38
678.574	6.38
679.33	7.38
680.086	6.38
680.843	4.38
681.599	4.38
682.355	6.38
683.111	7.38
683.867	5.38
684.623	5.38
685.379	7.38
686.135	6.38
686.89	6.38
687.646	5.38
688.402	4.38
689.157	4.38
689.912	3.38
690.668	7.38
691.423	4.38
692.178	6.38
692.933	7.38
693.688	4.38
694.443	6.38
695.198	5.38
695.953	3.38
696.708	6.38
697.462	5.38
698.217	4.38
698.972	3.38
699.726	4.38
700.48	4.38
701.235	5.38
701.989	5.38
702.743	4.38
703.497	5.38
704.251	6.38
705.005	5.38
705.759	4.38
706.513	5.38
707.266	5.38
708.02	4.38
708.774	7.38
709.527	4.38
710.28	5.38
711.034	4.38
711.787	5.38
712.54	4.38
713.293	4.38
714.046	5.38
714.799	4.38
715.552	5.38
716.305	6.38
717.058	6.38
717.81	5.38
718.563	4.38
719.315	6.38
720.068	4.38
720.82	8.38
721.573	5.38
722.325	3.38
723.077	6.38
723.829	5.38
724.581	5.38
725.333	7.38
726.085	6.38
726.836	5.38
727.588	8.38
728.34	6.38
729.091	6.38
729.843	6.38
730.594	7.38
731.346	5.38
732.097	6.38
732.848	6.38
733.599	5.38
734.35	6.38
735.101	6.38
735.852	6.38
736.603	6.38
737.354	7.38
738.104	5.38
738.855	6.38
739.605	10.38
740.356	7.38
741.106	7.38
741.856	6.38
742.607	7.38
743.357	8.38
744.107	6.38
744.857	8.38
745.607	6.38
746.357	10.38
747.106	6.38
747.856	9.38
748.606	8.38
749.355	8.38
750.105	8.38
750.854	9.38
751.603	6.38
752.353	8.38
753.102	7.38
753.851	10.38
754.6	7.38
755.349	11.38
756.098	8.38
756.847	9.38
757.595	8.38
758.344	9.38
759.093	11.38
759.841	10.38
760.589	9.38
761.338	10.38
762.086	7.38
762.834	9.38
763.582	8.38
764.331	10.38
765.079	11.38
765.826	8.38
766.574	9.38
767.322	9.38
768.07	9.38
768.817	8.38
769.565	11.38
770.312	10.38
771.06	11.38
771.807	12.38
772.554	12.38
773.302	10.38
774.049	10.38
774.796	9.38
775.543	13.38
776.29	13.38
777.036	12.38
777.783	13.38
778.53	14.38
779.276	13.38
780.023	12.38
780.769	13.38
781.516	13.38
782.262	13.38
783.008	12.38
783.754	12.38
784.5	12.38
785.246	13.38
785.992	12.38
786.738	12.38
787.484	11.38
788.23	12.38
788.975	14.38
789.721	13.38
790.466	8.38
791.212	10.38
791.957	9.38
792.702	13.38
793.447	11.38
794.193	13.38
794.938	11.38
795.683	10.38
796.427	11.38
797.172	13.38
797.917	11.38
798.662	8.38
799.406	7.38
800.151	10.38
800.895	10.38
801.64	8.38
802.384	8.38
803.128	10.38
803.872	8.38
804.616	9.38
805.36	8.38
806.104	8.38
806.848	7.38
807.592	7.38
808.336	7.38
809.079	9.38
809.823	8.38
810.566	6.38
811.31	7.38
812.053	8.38
812.796	7.38
813.539	8.38
814.283	6.38
815.026	5.38
815.769	9.38
816.511	7.38
817.254	5.38
817.997	5.38
818.74	7.38
819.482	6.38
820.225	7.38
820.967	7.38
821.71	4.38
822.452	4.38
823.194	7.38
823.936	5.38
824.678	4.38
825.42	5.38
826.162	5.38
826.904	6.38
827.646	8.38
828.388	7.38
829.129	3.38
829.871	6.38
830.612	5.38
831.354	5.38
832.095	5.38
832.836	2.38
833.577	6.38
834.319	4.38
835.06	5.38
835.801	5.38
836.542	5.38
837.282	5.38
838.023	6.38
838.764	5.38
839.504	5.38
840.245	4.38
840.985	6.38
841.726	3.38
842.466	4.38
843.206	4.38
843.946	3.38
844.687	3.38
845.427	2.38
846.166	4.38
846.906	4.38
847.646	5.38
848.386	3.38
849.125	4.38
849.865	2.38
850.605	3.38
851.344	2.38
852.083	4.38
852.823	5.38
853.562	4.38
854.301	2.38
855.04	2.38
855.779	3.38
856.518	1.38
857.257	1.38
857.995	5.38
858.734	2.38
859.473	3.38
860.211	3.38
860.95	1.38
861.688	3.38
862.426	0.38
863.165	2.38
863.903	3.38
864.641	3.38
865.379	4.38
866.117	0.38
866.855	4.38
867.593	2.38
868.33	3.38
869.068	2.38
869.806	2.38
870.543	2.38
871.28	1.38
872.018	4.38
872.755	3.38
873.492	1.38
874.229	2.38
874.967	0.38
875.703	-0.62
876.44	1.38
877.177	2.38
877.914	3.38
878.651	0.38
879.387	3.38
880.124	2.38
880.86	0.38
881.597	2.38
882.333	1.38
883.069	2.38
883.806	0.38
884.542	2.38
885.278	2.38
886.014	2.38
886.749	3.38
887.485	0.38
888.221	1.38
888.957	1.38
889.692	1.38
890.428	0.38
891.163	2.38
891.899	2.38
892.634	0.38
893.369	2.38
894.104	2.38
894.839	1.38
895.574	4.38
896.309	2.38
897.044	2.38
897.779	-0.62
898.514	0.38
899.248	0.38
899.983	0.38
900.717	1.38
901.452	0.38
902.186	0.38
902.92	1.38
903.654	-1.62
904.389	1.38
905.123	0.38
905.857	-1.62
906.59	0.38
907.324	-0.62
908.058	1.38
908.792	-1.62
909.525	1.38
910.259	-2.62
910.992	0.38
911.726	-1.62
912.459	-0.62
913.192	-0.62
913.925	0.38
914.658	1.38
915.391	-1.62
916.124	2.38
916.857	2.38
917.59	0.38
918.323	0.38
919.055	0.38
919.788	1.38
920.521	0.38
921.253	1.38
921.985	2.38
922.718	-0.62
923.45	0.38
924.182	-0.62
924.914	3.38
925.646	-0.62
926.378	1.38
927.11	0.38
927.841	1.38
928.573	-0.62
929.305	1.38
930.036	1.38
930.768	-0.62
931.499	1.38
932.23	-1.62
932.962	-0.62
933.693	1.38
934.424	-0.62
935.155	-0.62
935.886	0.38
936.617	0.38
937.348	1.38
938.078	0.38
938.809	-0.62
939.54	0.38
940.27	-1.62
941.001	-0.62
941.731	0.38
942.461	2.38
943.191	-1.62
943.922	1.38
944.652	1.38
945.382	-1.62
946.112	2.38
946.841	0.38
947.571	1.38
948.301	0.38
949.031	-0.62
949.76	1.38
950.49	0.38
951.219	0.38
951.948	1.38
952.678	0.38
953.407	0.38
954.136	0.38
954.865	1.38
955.594	1.38
956.323	0.38
957.052	3.38
957.78	0.38
958.509	-1.62
959.238	2.38
959.966	1.38
960.695	-0.62
961.423	0.38
962.151	0.38
962.88	1.38
963.608	0.38
964.336	-0.62
965.064	1.38
965.792	2.38
966.52	1.38
967.247	0.38
967.975	1.38
968.703	-0.62
969.43	-1.62
970.158	0.38
970.885	-0.62
971.613	-1.62
972.34	2.38
973.067	0.38
973.794	1.38
974.521	1.38
975.248	0.38
975.975	0.38
976.702	1.38
977.429	2.38
978.156	2.38
978.882	0.38
979.609	0.38
980.335	-0.62
981.062	2.38
981.788	0.38
982.514	0.38
983.24	-1.62
983.967	2.38
984.693	0.38
985.419	0.38
986.144	0.38
986.87	-0.62
987.596	0.38
988.322	1.38
989.047	0.38
989.773	-0.62
990.498	0.38
991.224	1.38
991.949	2.38
992.674	-0.62
993.399	0.38
994.124	0.38
994.849	0.38
995.574	0.38
996.299	-0.62
997.024	-0.62
997.749	0.38
998.473	1.38
999.198	0.38
999.922	1.38
1000.647	-0.62
1001.371	5.38
1002.095	2.38
1002.82	-2.62
1003.544	-0.62
1004.268	3.38
1004.992	2.38
1005.716	3.38
1006.439	4.38
1007.163	2.38
1007.887	5.38
1008.611	-0.62
1009.334	-0.62
1010.058	0.38
1010.781	0.38
1011.504	0.38
1012.228	2.38
1012.951	-0.62
1013.674	-1.62
1014.397	-0.62
1015.12	-1.62
