节点500_425_QEPB04081__125__15-50-23-287.txt的数据

Date: Wed Nov 12 15:50:23 CST 2025
User: PC
Spectrometer: QEPB0408
触发模式: 0
积分时间 (秒): 1.000000E-2
Scans to average: 1
启用暗噪声校正: true
启用非线性校正: false
滑动平均宽度: 0
X轴模式: Wavelengths
Number of Pixels in Spectrum: 1044
>>>>>Begin Spectral Data<<<<<
220.843	0.88
221.644	3.88
222.444	2.88
223.244	2.88
224.045	2.88
224.845	1.88
225.645	-0.12
226.445	4.88
227.245	2.88
228.045	3.88
228.845	4.88
229.645	7.88
230.444	5.88
231.244	5.88
232.043	5.88
232.843	6.88
233.642	6.88
234.442	4.88
235.241	5.88
236.04	5.88
236.839	5.88
237.638	2.88
238.437	6.88
239.236	6.88
240.035	5.88
240.833	5.88
241.632	5.88
242.43	6.88
243.229	8.88
244.027	7.88
244.826	6.88
245.624	7.88
246.422	8.88
247.22	9.88
248.018	8.88
248.816	8.88
249.614	6.88
250.412	10.88
251.21	10.88
252.007	9.88
252.805	9.88
253.602	9.88
254.4	11.88
255.197	12.88
255.994	11.88
256.791	13.88
257.589	12.88
258.386	13.88
259.183	11.88
259.979	14.88
260.776	12.88
261.573	13.88
262.37	16.88
263.166	17.88
263.963	17.88
264.759	16.88
265.556	18.88
266.352	18.88
267.148	23.88
267.944	18.88
268.74	22.88
269.536	19.88
270.332	22.88
271.128	20.88
271.924	21.88
272.719	21.88
273.515	23.88
274.311	24.88
275.106	22.88
275.901	24.88
276.697	26.88
277.492	23.88
278.287	23.88
279.082	23.88
279.877	24.88
280.672	26.88
281.467	24.88
282.262	24.88
283.056	28.88
283.851	24.88
284.646	26.88
285.44	24.88
286.234	24.88
287.029	29.88
287.823	25.88
288.617	23.88
289.411	26.88
290.205	25.88
290.999	21.88
291.793	21.88
292.587	20.88
293.381	21.88
294.174	23.88
294.968	21.88
295.761	22.88
296.555	19.88
297.348	17.88
298.141	20.88
298.935	20.88
299.728	19.88
300.521	18.88
301.314	18.88
302.107	15.88
302.899	16.88
303.692	16.88
304.485	15.88
305.277	16.88
306.07	17.88
306.862	15.88
307.655	14.88
308.447	16.88
309.239	15.88
310.031	16.88
310.823	13.88
311.615	10.88
312.407	12.88
313.199	11.88
313.991	12.88
314.783	11.88
315.574	8.88
316.366	10.88
317.157	10.88
317.949	9.88
318.74	11.88
319.531	9.88
320.322	12.88
321.113	10.88
321.904	7.88
322.695	9.88
323.486	10.88
324.277	8.88
325.068	9.88
325.858	9.88
326.649	8.88
327.439	8.88
328.23	10.88
329.02	7.88
329.81	5.88
330.6	7.88
331.391	6.88
332.181	9.88
332.971	8.88
333.76	7.88
334.55	9.88
335.34	7.88
336.13	9.88
336.919	7.88
337.709	10.88
338.498	7.88
339.287	8.88
340.077	8.88
340.866	7.88
341.655	7.88
342.444	6.88
343.233	5.88
344.022	8.88
344.811	7.88
345.6	8.88
346.388	8.88
347.177	7.88
347.965	9.88
348.754	8.88
349.542	8.88
350.33	7.88
351.119	6.88
351.907	7.88
352.695	8.88
353.483	7.88
354.271	7.88
355.059	9.88
355.846	5.88
356.634	6.88
357.422	6.88
358.209	7.88
358.997	8.88
359.784	9.88
360.571	6.88
361.359	6.88
362.146	6.88
362.933	7.88
363.72	5.88
364.507	6.88
365.294	3.88
366.081	4.88
366.867	6.88
367.654	7.88
368.44	5.88
369.227	5.88
370.013	7.88
370.8	5.88
371.586	3.88
372.372	6.88
373.158	6.88
373.944	7.88
374.73	6.88
375.516	6.88
376.302	4.88
377.088	5.88
377.873	6.88
378.659	5.88
379.445	6.88
380.23	5.88
381.015	6.88
381.801	5.88
382.586	4.88
383.371	5.88
384.156	6.88
384.941	8.88
385.726	7.88
386.511	7.88
387.296	8.88
388.08	5.88
388.865	7.88
389.649	4.88
390.434	6.88
391.218	7.88
392.003	7.88
392.787	8.88
393.571	7.88
394.355	8.88
395.139	8.88
395.923	8.88
396.707	9.88
397.491	7.88
398.274	10.88
399.058	7.88
399.842	7.88
400.625	9.88
401.408	10.88
402.192	9.88
402.975	8.88
403.758	9.88
404.541	7.88
405.324	10.88
406.107	10.88
406.89	11.88
407.673	11.88
408.456	10.88
409.238	11.88
410.021	12.88
410.803	11.88
411.586	12.88
412.368	11.88
413.151	13.88
413.933	12.88
414.715	11.88
415.497	13.88
416.279	13.88
417.061	12.88
417.843	11.88
418.624	13.88
419.406	15.88
420.188	13.88
420.969	13.88
421.751	13.88
422.532	13.88
423.313	11.88
424.095	16.88
424.876	12.88
425.657	17.88
426.438	17.88
427.219	17.88
428	17.88
428.78	16.88
429.561	16.88
430.342	22.88
431.122	20.88
431.903	18.88
432.683	19.88
433.464	20.88
434.244	22.88
435.024	23.88
435.804	24.88
436.584	27.88
437.364	29.88
438.144	26.88
438.924	27.88
439.704	32.88
440.483	30.88
441.263	35.88
442.042	38.88
442.822	38.88
443.601	41.88
444.38	43.88
445.16	49.88
445.939	49.88
446.718	57.88
447.497	62.88
448.276	62.88
449.054	69.88
449.833	75.88
450.612	83.88
451.391	86.88
452.169	90.88
452.948	105.88
453.726	111.88
454.504	131.88
455.282	142.88
456.061	156.88
456.839	177.88
457.617	189.88
458.395	219.88
459.172	245.88
459.95	275.88
460.728	301.88
461.506	346.88
462.283	381.88
463.061	420.88
463.838	477.88
464.615	539.88
465.393	587.88
466.17	665.88
466.947	744.88
467.724	823.88
468.501	915.88
469.278	1031.88
470.055	1127.88
470.831	1274.88
471.608	1403.88
472.385	1572.88
473.161	1732.88
473.938	1925.88
474.714	2149.88
475.49	2359.88
476.266	2620.88
477.043	2909.88
477.819	3182.88
478.595	3537.88
479.371	3916.88
480.146	4285.88
480.922	4727.88
481.698	5188.88
482.473	5733.88
483.249	6297.88
484.024	6924.88
484.8	7594.88
485.575	8337.88
486.35	9138.88
487.126	10004.88
487.901	10910.88
488.676	11927.88
489.451	13011.88
490.225	14131.88
491	15339.88
491.775	16805.88
492.55	18077.88
493.324	19499.88
494.099	20930.88
494.873	22321.88
495.647	23867.88
496.422	25365.88
497.196	26993.88
497.97	28526.88
498.744	29945.88
499.518	31382.88
500.292	32667.88
501.066	33755.88
501.839	34807.88
502.613	35606.88
503.387	36180.88
504.16	36715.88
504.934	36752.88
505.707	36772.88
506.48	36488.88
507.253	35996.88
508.027	35504.88
508.8	34718.88
509.573	33911.88
510.346	32873.88
511.118	31815.88
511.891	30761.88
512.664	29496.88
513.437	28286.88
514.209	27054.88
514.982	26052.88
515.754	24894.88
516.526	23723.88
517.298	22793.88
518.071	21786.88
518.843	20888.88
519.615	20074.88
520.387	19234.88
521.159	18513.88
521.93	17830.88
522.702	17114.88
523.474	16421.88
524.245	15774.88
525.017	15030.88
525.788	14356.88
526.56	13625.88
527.331	13026.88
528.102	12413.88
528.873	11776.88
529.644	11166.88
530.415	10693.88
531.186	10124.88
531.957	9582.88
532.728	9057.88
533.498	8536.88
534.269	8073.88
535.039	7606.88
535.81	7215.88
536.58	6832.88
537.351	6418.88
538.121	6083.88
538.891	5734.88
539.661	5447.88
540.431	5190.88
541.201	4875.88
541.971	4612.88
542.741	4399.88
543.51	4195.88
544.28	3963.88
545.05	3787.88
545.819	3606.88
546.588	3404.88
547.358	3231.88
548.127	3064.88
548.896	2909.88
549.665	2758.88
550.434	2599.88
551.203	2469.88
551.972	2344.88
552.741	2214.88
553.51	2085.88
554.278	1985.88
555.047	1848.88
555.815	1755.88
556.584	1652.88
557.352	1574.88
558.121	1474.88
558.889	1388.88
559.657	1301.88
560.425	1250.88
561.193	1165.88
561.961	1106.88
562.729	1048.88
563.496	1006.88
564.264	943.88
565.032	893.88
565.799	845.88
566.567	792.88
567.334	748.88
568.101	714.88
568.869	667.88
569.636	628.88
570.403	593.88
571.17	562.88
571.937	531.88
572.704	502.88
573.471	473.88
574.237	440.88
575.004	422.88
575.771	395.88
576.537	363.88
577.303	347.88
578.07	333.88
578.836	308.88
579.602	294.88
580.368	279.88
581.134	268.88
581.9	247.88
582.666	235.88
583.432	226.88
584.198	214.88
584.964	196.88
585.729	188.88
586.495	182.88
587.26	168.88
588.025	163.88
588.791	157.88
589.556	145.88
590.321	141.88
591.086	136.88
591.851	127.88
592.616	124.88
593.381	113.88
594.146	109.88
594.911	107.88
595.675	102.88
596.44	92.88
597.204	92.88
597.969	81.88
598.733	88.88
599.497	80.88
600.261	81.88
601.025	73.88
601.79	70.88
602.553	67.88
603.317	60.88
604.081	58.88
604.845	60.88
605.609	55.88
606.372	55.88
607.136	53.88
607.899	49.88
608.662	47.88
609.426	43.88
610.189	44.88
610.952	39.88
611.715	41.88
612.478	39.88
613.241	35.88
614.004	38.88
614.767	34.88
615.529	35.88
616.292	30.88
617.055	31.88
617.817	30.88
618.579	27.88
619.342	28.88
620.104	27.88
620.866	25.88
621.628	25.88
622.39	22.88
623.152	24.88
623.914	22.88
624.676	20.88
625.438	21.88
626.199	20.88
626.961	21.88
627.722	20.88
628.484	17.88
629.245	17.88
630.006	17.88
630.768	19.88
631.529	18.88
632.29	15.88
633.051	15.88
633.812	15.88
634.573	15.88
635.333	14.88
636.094	14.88
636.855	13.88
637.615	13.88
638.376	13.88
639.136	13.88
639.896	10.88
640.657	10.88
641.417	12.88
642.177	10.88
642.937	11.88
643.697	11.88
644.457	11.88
645.216	10.88
645.976	9.88
646.736	9.88
647.495	9.88
648.255	10.88
649.014	6.88
649.774	8.88
650.533	9.88
651.292	9.88
652.051	8.88
652.81	5.88
653.569	7.88
654.328	8.88
655.087	7.88
655.846	6.88
656.604	10.88
657.363	8.88
658.121	5.88
658.88	7.88
659.638	7.88
660.397	6.88
661.155	6.88
661.913	5.88
662.671	3.88
663.429	5.88
664.187	5.88
664.945	7.88
665.703	7.88
666.46	7.88
667.218	4.88
667.976	6.88
668.733	5.88
669.49	2.88
670.248	7.88
671.005	7.88
671.762	5.88
672.519	3.88
673.276	8.88
674.033	2.88
674.79	7.88
675.547	5.88
676.304	5.88
677.06	3.88
677.817	3.88
678.574	6.88
679.33	5.88
680.086	5.88
680.843	6.88
681.599	3.88
682.355	4.88
683.111	5.88
683.867	3.88
684.623	4.88
685.379	4.88
686.135	3.88
686.89	3.88
687.646	6.88
688.402	6.88
689.157	3.88
689.912	6.88
690.668	4.88
691.423	3.88
692.178	3.88
692.933	5.88
693.688	5.88
694.443	3.88
695.198	6.88
695.953	2.88
696.708	2.88
697.462	4.88
698.217	4.88
698.972	4.88
699.726	4.88
700.48	2.88
701.235	5.88
701.989	4.88
702.743	4.88
703.497	4.88
704.251	4.88
705.005	3.88
705.759	6.88
706.513	3.88
707.266	6.88
708.02	4.88
708.774	4.88
709.527	6.88
710.28	3.88
711.034	3.88
711.787	3.88
712.54	4.88
713.293	6.88
714.046	4.88
714.799	3.88
715.552	4.88
716.305	5.88
717.058	2.88
717.81	2.88
718.563	3.88
719.315	6.88
720.068	4.88
720.82	2.88
721.573	6.88
722.325	4.88
723.077	4.88
723.829	5.88
724.581	3.88
725.333	5.88
726.085	6.88
726.836	3.88
727.588	4.88
728.34	4.88
729.091	4.88
729.843	5.88
730.594	5.88
731.346	5.88
732.097	5.88
732.848	6.88
733.599	7.88
734.35	6.88
735.101	4.88
735.852	5.88
736.603	5.88
737.354	6.88
738.104	5.88
738.855	4.88
739.605	6.88
740.356	7.88
741.106	6.88
741.856	5.88
742.607	4.88
743.357	5.88
744.107	6.88
744.857	7.88
745.607	7.88
746.357	6.88
747.106	3.88
747.856	6.88
748.606	7.88
749.355	6.88
750.105	7.88
750.854	5.88
751.603	6.88
752.353	5.88
753.102	6.88
753.851	7.88
754.6	5.88
755.349	6.88
756.098	8.88
756.847	5.88
757.595	8.88
758.344	8.88
759.093	6.88
759.841	8.88
760.589	6.88
761.338	8.88
762.086	7.88
762.834	8.88
763.582	8.88
764.331	7.88
765.079	9.88
765.826	6.88
766.574	9.88
767.322	7.88
768.07	8.88
768.817	10.88
769.565	7.88
770.312	9.88
771.06	11.88
771.807	9.88
772.554	9.88
773.302	7.88
774.049	10.88
774.796	10.88
775.543	14.88
776.29	10.88
777.036	10.88
777.783	8.88
778.53	12.88
779.276	12.88
780.023	10.88
780.769	10.88
781.516	11.88
782.262	9.88
783.008	12.88
783.754	9.88
784.5	13.88
785.246	11.88
785.992	9.88
786.738	13.88
787.484	8.88
788.23	10.88
788.975	12.88
789.721	10.88
790.466	10.88
791.212	9.88
791.957	9.88
792.702	9.88
793.447	10.88
794.193	9.88
794.938	9.88
795.683	11.88
796.427	9.88
797.172	9.88
797.917	8.88
798.662	9.88
799.406	8.88
800.151	9.88
800.895	11.88
801.64	10.88
802.384	8.88
803.128	9.88
803.872	8.88
804.616	7.88
805.36	7.88
806.104	8.88
806.848	6.88
807.592	5.88
808.336	6.88
809.079	6.88
809.823	5.88
810.566	7.88
811.31	9.88
812.053	8.88
812.796	7.88
813.539	4.88
814.283	4.88
815.026	6.88
815.769	5.88
816.511	5.88
817.254	7.88
817.997	4.88
818.74	7.88
819.482	5.88
820.225	5.88
820.967	7.88
821.71	4.88
822.452	3.88
823.194	4.88
823.936	4.88
824.678	4.88
825.42	4.88
826.162	4.88
826.904	2.88
827.646	6.88
828.388	2.88
829.129	8.88
829.871	5.88
830.612	3.88
831.354	3.88
832.095	3.88
832.836	5.88
833.577	3.88
834.319	2.88
835.06	2.88
835.801	4.88
836.542	5.88
837.282	2.88
838.023	4.88
838.764	1.88
839.504	3.88
840.245	2.88
840.985	5.88
841.726	3.88
842.466	2.88
843.206	3.88
843.946	3.88
844.687	5.88
845.427	3.88
846.166	4.88
846.906	1.88
847.646	3.88
848.386	3.88
849.125	0.88
849.865	4.88
850.605	2.88
851.344	3.88
852.083	5.88
852.823	3.88
853.562	2.88
854.301	1.88
855.04	-0.12
855.779	1.88
856.518	3.88
857.257	3.88
857.995	1.88
858.734	0.88
859.473	4.88
860.211	4.88
860.95	1.88
861.688	2.88
862.426	-0.12
863.165	3.88
863.903	3.88
864.641	-0.12
865.379	0.88
866.117	1.88
866.855	0.88
867.593	2.88
868.33	0.88
869.068	3.88
869.806	1.88
870.543	1.88
871.28	-0.12
872.018	1.88
872.755	-0.12
873.492	2.88
874.229	1.88
874.967	0.88
875.703	1.88
876.44	1.88
877.177	0.88
877.914	0.88
878.651	0.88
879.387	-2.12
880.124	0.88
880.86	-0.12
881.597	1.88
882.333	1.88
883.069	0.88
883.806	1.88
884.542	0.88
885.278	0.88
886.014	0.88
886.749	-1.12
887.485	0.88
888.221	-0.12
888.957	1.88
889.692	1.88
890.428	-0.12
891.163	1.88
891.899	-2.12
892.634	1.88
893.369	-4.12
894.104	-1.12
894.839	1.88
895.574	-0.12
896.309	0.88
897.044	-0.12
897.779	-1.12
898.514	0.88
899.248	0.88
899.983	0.88
900.717	-3.12
901.452	1.88
902.186	-0.12
902.92	1.88
903.654	-1.12
904.389	0.88
905.123	-1.12
905.857	-1.12
906.59	2.88
907.324	-0.12
908.058	0.88
908.792	-0.12
909.525	-1.12
910.259	0.88
910.992	-1.12
911.726	0.88
912.459	0.88
913.192	-1.12
913.925	-1.12
914.658	-1.12
915.391	-1.12
916.124	-0.12
916.857	1.88
917.59	-1.12
918.323	1.88
919.055	-0.12
919.788	0.88
920.521	-0.12
921.253	-1.12
921.985	0.88
922.718	1.88
923.45	-0.12
924.182	-1.12
924.914	-0.12
925.646	2.88
926.378	-2.12
927.11	0.88
927.841	-0.12
928.573	-0.12
929.305	-1.12
930.036	-1.12
930.768	-0.12
931.499	1.88
932.23	-0.12
932.962	0.88
933.693	-0.12
934.424	0.88
935.155	-1.12
935.886	0.88
936.617	-0.12
937.348	0.88
938.078	-0.12
938.809	-0.12
939.54	-2.12
940.27	-0.12
941.001	-0.12
941.731	-1.12
942.461	-1.12
943.191	1.88
943.922	0.88
944.652	2.88
945.382	0.88
946.112	0.88
946.841	-0.12
947.571	-0.12
948.301	-0.12
949.031	0.88
949.76	0.88
950.49	1.88
951.219	-0.12
951.948	1.88
952.678	0.88
953.407	-2.12
954.136	0.88
954.865	-1.12
955.594	-0.12
956.323	0.88
957.052	-0.12
957.78	-0.12
958.509	-1.12
959.238	-0.12
959.966	-0.12
960.695	0.88
961.423	-0.12
962.151	-1.12
962.88	0.88
963.608	0.88
964.336	0.88
965.064	0.88
965.792	0.88
966.52	-0.12
967.247	0.88
967.975	-0.12
968.703	-0.12
969.43	-1.12
970.158	-3.12
970.885	0.88
971.613	1.88
972.34	-0.12
973.067	-2.12
973.794	1.88
974.521	1.88
975.248	-0.12
975.975	0.88
976.702	0.88
977.429	-1.12
978.156	-0.12
978.882	1.88
979.609	-1.12
980.335	1.88
981.062	-0.12
981.788	-0.12
982.514	-0.12
983.24	1.88
983.967	0.88
984.693	-0.12
985.419	-1.12
986.144	-2.12
986.87	-0.12
987.596	-3.12
988.322	-0.12
989.047	-1.12
989.773	0.88
990.498	-0.12
991.224	-1.12
991.949	-1.12
992.674	0.88
993.399	0.88
994.124	-1.12
994.849	-1.12
995.574	0.88
996.299	0.88
997.024	-1.12
997.749	0.88
998.473	-1.12
999.198	-1.12
999.922	-1.12
1000.647	-0.12
1001.371	1.88
1002.095	-1.12
1002.82	-0.12
1003.544	-3.12
1004.268	3.88
1004.992	0.88
1005.716	-0.12
1006.439	3.88
1007.163	3.88
1007.887	4.88
1008.611	-0.12
1009.334	-1.12
1010.058	-0.12
1010.781	-2.12
1011.504	1.88
1012.228	-2.12
1012.951	-0.12
1013.674	1.88
1014.397	-0.12
1015.12	0.88
