节点500_425_QEPB04081__366__15-54-23-743.txt的数据

Date: Wed Nov 12 15:54:23 CST 2025
User: PC
Spectrometer: QEPB0408
触发模式: 0
积分时间 (秒): 1.000000E-2
Scans to average: 1
启用暗噪声校正: true
启用非线性校正: false
滑动平均宽度: 0
X轴模式: Wavelengths
Number of Pixels in Spectrum: 1044
>>>>>Begin Spectral Data<<<<<
220.843	3.12
221.644	5.12
222.444	3.12
223.244	4.12
224.045	3.12
224.845	5.12
225.645	0.12
226.445	4.12
227.245	2.12
228.045	6.12
228.845	4.12
229.645	6.12
230.444	4.12
231.244	4.12
232.043	6.12
232.843	7.12
233.642	4.12
234.442	6.12
235.241	2.12
236.04	8.12
236.839	6.12
237.638	6.12
238.437	5.12
239.236	7.12
240.035	7.12
240.833	7.12
241.632	6.12
242.43	6.12
243.229	8.12
244.027	9.12
244.826	9.12
245.624	9.12
246.422	10.12
247.22	10.12
248.018	8.12
248.816	8.12
249.614	9.12
250.412	8.12
251.21	9.12
252.007	10.12
252.805	8.12
253.602	12.12
254.4	12.12
255.197	12.12
255.994	12.12
256.791	11.12
257.589	13.12
258.386	14.12
259.183	11.12
259.979	14.12
260.776	18.12
261.573	16.12
262.37	17.12
263.166	17.12
263.963	17.12
264.759	17.12
265.556	16.12
266.352	18.12
267.148	17.12
267.944	17.12
268.74	21.12
269.536	19.12
270.332	21.12
271.128	19.12
271.924	21.12
272.719	22.12
273.515	22.12
274.311	25.12
275.106	22.12
275.901	21.12
276.697	21.12
277.492	22.12
278.287	26.12
279.082	21.12
279.877	24.12
280.672	23.12
281.467	21.12
282.262	23.12
283.056	24.12
283.851	25.12
284.646	26.12
285.44	23.12
286.234	23.12
287.029	23.12
287.823	25.12
288.617	24.12
289.411	25.12
290.205	25.12
290.999	21.12
291.793	23.12
292.587	22.12
293.381	23.12
294.174	21.12
294.968	20.12
295.761	21.12
296.555	21.12
297.348	20.12
298.141	18.12
298.935	20.12
299.728	22.12
300.521	18.12
301.314	18.12
302.107	16.12
302.899	17.12
303.692	16.12
304.485	19.12
305.277	17.12
306.07	16.12
306.862	18.12
307.655	12.12
308.447	15.12
309.239	17.12
310.031	15.12
310.823	15.12
311.615	14.12
312.407	12.12
313.199	13.12
313.991	14.12
314.783	11.12
315.574	13.12
316.366	11.12
317.157	8.12
317.949	13.12
318.74	8.12
319.531	12.12
320.322	10.12
321.113	9.12
321.904	11.12
322.695	10.12
323.486	10.12
324.277	9.12
325.068	10.12
325.858	10.12
326.649	10.12
327.439	9.12
328.23	8.12
329.02	10.12
329.81	10.12
330.6	5.12
331.391	9.12
332.181	9.12
332.971	8.12
333.76	7.12
334.55	7.12
335.34	8.12
336.13	9.12
336.919	9.12
337.709	6.12
338.498	9.12
339.287	8.12
340.077	9.12
340.866	10.12
341.655	9.12
342.444	9.12
343.233	5.12
344.022	7.12
344.811	6.12
345.6	9.12
346.388	8.12
347.177	7.12
347.965	7.12
348.754	7.12
349.542	7.12
350.33	7.12
351.119	9.12
351.907	9.12
352.695	10.12
353.483	8.12
354.271	9.12
355.059	5.12
355.846	8.12
356.634	8.12
357.422	8.12
358.209	8.12
358.997	4.12
359.784	8.12
360.571	6.12
361.359	7.12
362.146	9.12
362.933	9.12
363.72	6.12
364.507	5.12
365.294	6.12
366.081	6.12
366.867	5.12
367.654	7.12
368.44	8.12
369.227	8.12
370.013	7.12
370.8	7.12
371.586	2.12
372.372	7.12
373.158	5.12
373.944	7.12
374.73	7.12
375.516	6.12
376.302	8.12
377.088	6.12
377.873	8.12
378.659	8.12
379.445	6.12
380.23	6.12
381.015	5.12
381.801	6.12
382.586	6.12
383.371	4.12
384.156	8.12
384.941	8.12
385.726	7.12
386.511	8.12
387.296	7.12
388.08	8.12
388.865	7.12
389.649	7.12
390.434	7.12
391.218	7.12
392.003	9.12
392.787	6.12
393.571	7.12
394.355	7.12
395.139	7.12
395.923	10.12
396.707	7.12
397.491	7.12
398.274	6.12
399.058	8.12
399.842	8.12
400.625	7.12
401.408	7.12
402.192	11.12
402.975	8.12
403.758	9.12
404.541	10.12
405.324	10.12
406.107	10.12
406.89	10.12
407.673	11.12
408.456	9.12
409.238	9.12
410.021	10.12
410.803	11.12
411.586	10.12
412.368	10.12
413.151	12.12
413.933	12.12
414.715	9.12
415.497	12.12
416.279	11.12
417.061	11.12
417.843	15.12
418.624	15.12
419.406	12.12
420.188	15.12
420.969	14.12
421.751	14.12
422.532	16.12
423.313	11.12
424.095	12.12
424.876	16.12
425.657	16.12
426.438	16.12
427.219	17.12
428	16.12
428.78	15.12
429.561	18.12
430.342	19.12
431.122	21.12
431.903	21.12
432.683	19.12
433.464	24.12
434.244	20.12
435.024	24.12
435.804	25.12
436.584	28.12
437.364	26.12
438.144	28.12
438.924	28.12
439.704	30.12
440.483	30.12
441.263	38.12
442.042	35.12
442.822	42.12
443.601	40.12
444.38	48.12
445.16	46.12
445.939	56.12
446.718	59.12
447.497	61.12
448.276	74.12
449.054	71.12
449.833	80.12
450.612	89.12
451.391	95.12
452.169	104.12
452.948	116.12
453.726	123.12
454.504	137.12
455.282	156.12
456.061	174.12
456.839	191.12
457.617	211.12
458.395	227.12
459.172	264.12
459.95	295.12
460.728	321.12
461.506	366.12
462.283	409.12
463.061	446.12
463.838	499.12
464.615	570.12
465.393	627.12
466.17	696.12
466.947	776.12
467.724	861.12
468.501	954.12
469.278	1059.12
470.055	1177.12
470.831	1291.12
471.608	1427.12
472.385	1608.12
473.161	1761.12
473.938	1945.12
474.714	2140.12
475.49	2379.12
476.266	2604.12
477.043	2869.12
477.819	3152.12
478.595	3456.12
479.371	3818.12
480.146	4187.12
480.922	4591.12
481.698	5024.12
482.473	5493.12
483.249	5995.12
484.024	6569.12
484.8	7164.12
485.575	7795.12
486.35	8523.12
487.126	9263.12
487.901	10102.12
488.676	10999.12
489.451	11932.12
490.225	12944.12
491	14029.12
491.775	15218.12
492.55	16386.12
493.324	17651.12
494.099	18839.12
494.873	20097.12
495.647	21528.12
496.422	22849.12
497.196	24292.12
497.97	25759.12
498.744	27114.12
499.518	28434.12
500.292	29650.12
501.066	30766.12
501.839	31841.12
502.613	32728.12
503.387	33565.12
504.16	34139.12
504.934	34442.12
505.707	34569.12
506.48	34563.12
507.253	34438.12
508.027	34101.12
508.8	33594.12
509.573	32950.12
510.346	32114.12
511.118	31316.12
511.891	30324.12
512.664	29298.12
513.437	28220.12
514.209	27022.12
514.982	26190.12
515.754	25111.12
516.526	24036.12
517.298	23004.12
518.071	22066.12
518.843	21149.12
519.615	20320.12
520.387	19454.12
521.159	18740.12
521.93	18090.12
522.702	17260.12
523.474	16620.12
524.245	16030.12
525.017	15301.12
525.788	14549.12
526.56	13917.12
527.331	13305.12
528.102	12664.12
528.873	12130.12
529.644	11510.12
530.415	10962.12
531.186	10500.12
531.957	9953.12
532.728	9405.12
533.498	8886.12
534.269	8384.12
535.039	7942.12
535.81	7524.12
536.58	7114.12
537.351	6723.12
538.121	6348.12
538.891	6006.12
539.661	5708.12
540.431	5386.12
541.201	5108.12
541.971	4852.12
542.741	4617.12
543.51	4383.12
544.28	4140.12
545.05	3944.12
545.819	3757.12
546.588	3595.12
547.358	3377.12
548.127	3192.12
548.896	3037.12
549.665	2882.12
550.434	2746.12
551.203	2605.12
551.972	2461.12
552.741	2342.12
553.51	2201.12
554.278	2073.12
555.047	1977.12
555.815	1864.12
556.584	1742.12
557.352	1662.12
558.121	1550.12
558.889	1489.12
559.657	1391.12
560.425	1318.12
561.193	1232.12
561.961	1178.12
562.729	1113.12
563.496	1045.12
564.264	994.12
565.032	942.12
565.799	890.12
566.567	849.12
567.334	808.12
568.101	749.12
568.869	709.12
569.636	669.12
570.403	626.12
571.17	597.12
571.937	568.12
572.704	535.12
573.471	509.12
574.237	463.12
575.004	445.12
575.771	413.12
576.537	392.12
577.303	370.12
578.07	343.12
578.836	330.12
579.602	313.12
580.368	295.12
581.134	282.12
581.9	266.12
582.666	245.12
583.432	243.12
584.198	227.12
584.964	218.12
585.729	206.12
586.495	196.12
587.26	187.12
588.025	172.12
588.791	166.12
589.556	157.12
590.321	144.12
591.086	140.12
591.851	135.12
592.616	128.12
593.381	120.12
594.146	120.12
594.911	113.12
595.675	103.12
596.44	104.12
597.204	94.12
597.969	92.12
598.733	87.12
599.497	84.12
600.261	76.12
601.025	77.12
601.79	72.12
602.553	67.12
603.317	66.12
604.081	64.12
604.845	60.12
605.609	57.12
606.372	58.12
607.136	56.12
607.899	53.12
608.662	51.12
609.426	49.12
610.189	44.12
610.952	43.12
611.715	44.12
612.478	42.12
613.241	37.12
614.004	37.12
614.767	36.12
615.529	37.12
616.292	35.12
617.055	33.12
617.817	32.12
618.579	33.12
619.342	31.12
620.104	30.12
620.866	27.12
621.628	29.12
622.39	28.12
623.152	23.12
623.914	22.12
624.676	20.12
625.438	24.12
626.199	24.12
626.961	21.12
627.722	20.12
628.484	20.12
629.245	18.12
630.006	17.12
630.768	18.12
631.529	20.12
632.29	17.12
633.051	15.12
633.812	18.12
634.573	16.12
635.333	15.12
636.094	13.12
636.855	15.12
637.615	10.12
638.376	14.12
639.136	12.12
639.896	14.12
640.657	13.12
641.417	13.12
642.177	14.12
642.937	10.12
643.697	14.12
644.457	11.12
645.216	11.12
645.976	12.12
646.736	11.12
647.495	13.12
648.255	10.12
649.014	13.12
649.774	10.12
650.533	9.12
651.292	10.12
652.051	8.12
652.81	9.12
653.569	9.12
654.328	9.12
655.087	10.12
655.846	8.12
656.604	8.12
657.363	5.12
658.121	9.12
658.88	7.12
659.638	10.12
660.397	8.12
661.155	7.12
661.913	8.12
662.671	6.12
663.429	7.12
664.187	6.12
664.945	6.12
665.703	6.12
666.46	7.12
667.218	6.12
667.976	8.12
668.733	7.12
669.49	8.12
670.248	5.12
671.005	8.12
671.762	4.12
672.519	4.12
673.276	5.12
674.033	5.12
674.79	7.12
675.547	5.12
676.304	6.12
677.06	5.12
677.817	4.12
678.574	6.12
679.33	6.12
680.086	5.12
680.843	4.12
681.599	7.12
682.355	5.12
683.111	7.12
683.867	6.12
684.623	7.12
685.379	7.12
686.135	6.12
686.89	4.12
687.646	5.12
688.402	5.12
689.157	5.12
689.912	4.12
690.668	6.12
691.423	5.12
692.178	2.12
692.933	4.12
693.688	6.12
694.443	4.12
695.198	5.12
695.953	3.12
696.708	4.12
697.462	5.12
698.217	5.12
698.972	5.12
699.726	5.12
700.48	4.12
701.235	5.12
701.989	5.12
702.743	0.12
703.497	6.12
704.251	5.12
705.005	3.12
705.759	5.12
706.513	6.12
707.266	6.12
708.02	5.12
708.774	5.12
709.527	6.12
710.28	3.12
711.034	4.12
711.787	4.12
712.54	5.12
713.293	4.12
714.046	3.12
714.799	5.12
715.552	4.12
716.305	6.12
717.058	4.12
717.81	4.12
718.563	5.12
719.315	3.12
720.068	4.12
720.82	5.12
721.573	5.12
722.325	4.12
723.077	8.12
723.829	4.12
724.581	3.12
725.333	5.12
726.085	4.12
726.836	6.12
727.588	4.12
728.34	7.12
729.091	3.12
729.843	6.12
730.594	9.12
731.346	6.12
732.097	3.12
732.848	5.12
733.599	5.12
734.35	5.12
735.101	6.12
735.852	4.12
736.603	9.12
737.354	6.12
738.104	6.12
738.855	4.12
739.605	7.12
740.356	8.12
741.106	6.12
741.856	4.12
742.607	6.12
743.357	7.12
744.107	9.12
744.857	7.12
745.607	7.12
746.357	8.12
747.106	7.12
747.856	6.12
748.606	7.12
749.355	6.12
750.105	10.12
750.854	6.12
751.603	6.12
752.353	8.12
753.102	8.12
753.851	5.12
754.6	8.12
755.349	10.12
756.098	7.12
756.847	5.12
757.595	9.12
758.344	7.12
759.093	9.12
759.841	6.12
760.589	8.12
761.338	12.12
762.086	6.12
762.834	9.12
763.582	10.12
764.331	6.12
765.079	9.12
765.826	9.12
766.574	9.12
767.322	7.12
768.07	10.12
768.817	8.12
769.565	9.12
770.312	10.12
771.06	10.12
771.807	10.12
772.554	9.12
773.302	9.12
774.049	10.12
774.796	12.12
775.543	10.12
776.29	9.12
777.036	12.12
777.783	11.12
778.53	9.12
779.276	12.12
780.023	11.12
780.769	11.12
781.516	11.12
782.262	9.12
783.008	10.12
783.754	9.12
784.5	11.12
785.246	10.12
785.992	12.12
786.738	13.12
787.484	12.12
788.23	14.12
788.975	10.12
789.721	11.12
790.466	11.12
791.212	11.12
791.957	10.12
792.702	9.12
793.447	9.12
794.193	9.12
794.938	13.12
795.683	10.12
796.427	10.12
797.172	9.12
797.917	9.12
798.662	9.12
799.406	8.12
800.151	9.12
800.895	8.12
801.64	9.12
802.384	8.12
803.128	7.12
803.872	9.12
804.616	8.12
805.36	9.12
806.104	8.12
806.848	9.12
807.592	4.12
808.336	8.12
809.079	8.12
809.823	6.12
810.566	6.12
811.31	8.12
812.053	5.12
812.796	7.12
813.539	5.12
814.283	5.12
815.026	6.12
815.769	7.12
816.511	6.12
817.254	4.12
817.997	6.12
818.74	5.12
819.482	8.12
820.225	6.12
820.967	4.12
821.71	4.12
822.452	6.12
823.194	6.12
823.936	5.12
824.678	4.12
825.42	5.12
826.162	3.12
826.904	3.12
827.646	5.12
828.388	4.12
829.129	4.12
829.871	2.12
830.612	5.12
831.354	4.12
832.095	6.12
832.836	5.12
833.577	2.12
834.319	6.12
835.06	5.12
835.801	4.12
836.542	5.12
837.282	3.12
838.023	4.12
838.764	4.12
839.504	6.12
840.245	4.12
840.985	6.12
841.726	5.12
842.466	5.12
843.206	7.12
843.946	4.12
844.687	5.12
845.427	4.12
846.166	3.12
846.906	3.12
847.646	3.12
848.386	5.12
849.125	5.12
849.865	2.12
850.605	2.12
851.344	2.12
852.083	3.12
852.823	0.12
853.562	4.12
854.301	-0.88
855.04	4.12
855.779	2.12
856.518	3.12
857.257	4.12
857.995	1.12
858.734	4.12
859.473	2.12
860.211	3.12
860.95	4.12
861.688	0.12
862.426	2.12
863.165	4.12
863.903	2.12
864.641	3.12
865.379	3.12
866.117	2.12
866.855	3.12
867.593	3.12
868.33	1.12
869.068	2.12
869.806	1.12
870.543	1.12
871.28	3.12
872.018	2.12
872.755	3.12
873.492	1.12
874.229	1.12
874.967	4.12
875.703	1.12
876.44	1.12
877.177	2.12
877.914	3.12
878.651	1.12
879.387	2.12
880.124	2.12
880.86	0.12
881.597	0.12
882.333	2.12
883.069	3.12
883.806	0.12
884.542	-0.88
885.278	0.12
886.014	2.12
886.749	-0.88
887.485	0.12
888.221	0.12
888.957	0.12
889.692	2.12
890.428	0.12
891.163	0.12
891.899	1.12
892.634	0.12
893.369	2.12
894.104	2.12
894.839	0.12
895.574	0.12
896.309	1.12
897.044	0.12
897.779	1.12
898.514	-0.88
899.248	2.12
899.983	2.12
900.717	2.12
901.452	1.12
902.186	1.12
902.92	0.12
903.654	0.12
904.389	0.12
905.123	1.12
905.857	-1.88
906.59	1.12
907.324	0.12
908.058	2.12
908.792	0.12
909.525	1.12
910.259	1.12
910.992	-0.88
911.726	2.12
912.459	-2.88
913.192	0.12
913.925	0.12
914.658	1.12
915.391	-0.88
916.124	1.12
916.857	-0.88
917.59	0.12
918.323	2.12
919.055	-0.88
919.788	-0.88
920.521	-0.88
921.253	1.12
921.985	2.12
922.718	0.12
923.45	-0.88
924.182	2.12
924.914	0.12
925.646	0.12
926.378	2.12
927.11	-1.88
927.841	2.12
928.573	0.12
929.305	3.12
930.036	0.12
930.768	0.12
931.499	-0.88
932.23	-1.88
932.962	2.12
933.693	-0.88
934.424	0.12
935.155	4.12
935.886	-2.88
936.617	0.12
937.348	0.12
938.078	1.12
938.809	1.12
939.54	0.12
940.27	-0.88
941.001	1.12
941.731	2.12
942.461	-1.88
943.191	2.12
943.922	2.12
944.652	1.12
945.382	0.12
946.112	1.12
946.841	0.12
947.571	-0.88
948.301	1.12
949.031	-0.88
949.76	0.12
950.49	0.12
951.219	0.12
951.948	1.12
952.678	-2.88
953.407	0.12
954.136	-1.88
954.865	0.12
955.594	1.12
956.323	-1.88
957.052	0.12
957.78	-1.88
958.509	0.12
959.238	0.12
959.966	-1.88
960.695	1.12
961.423	-1.88
962.151	0.12
962.88	0.12
963.608	0.12
964.336	1.12
965.064	-0.88
965.792	1.12
966.52	2.12
967.247	0.12
967.975	2.12
968.703	-0.88
969.43	1.12
970.158	1.12
970.885	0.12
971.613	0.12
972.34	-0.88
973.067	-1.88
973.794	0.12
974.521	0.12
975.248	2.12
975.975	-1.88
976.702	1.12
977.429	1.12
978.156	-1.88
978.882	0.12
979.609	-0.88
980.335	0.12
981.062	-0.88
981.788	-0.88
982.514	1.12
983.24	1.12
983.967	-1.88
984.693	0.12
985.419	1.12
986.144	-0.88
986.87	1.12
987.596	2.12
988.322	1.12
989.047	0.12
989.773	0.12
990.498	-2.88
991.224	0.12
991.949	0.12
992.674	0.12
993.399	0.12
994.124	2.12
994.849	-0.88
995.574	3.12
996.299	0.12
997.024	1.12
997.749	-0.88
998.473	-1.88
999.198	1.12
999.922	0.12
1000.647	0.12
1001.371	3.12
1002.095	-1.88
1002.82	-1.88
1003.544	-0.88
1004.268	3.12
1004.992	0.12
1005.716	2.12
1006.439	2.12
1007.163	4.12
1007.887	3.12
1008.611	-1.88
1009.334	-0.88
1010.058	1.12
1010.781	-0.88
1011.504	1.12
1012.228	2.12
1012.951	-0.88
1013.674	0.12
1014.397	1.12
1015.12	1.12
