节点500_425_QEPB04081__285__15-53-02-954.txt的数据

Date: Wed Nov 12 15:53:02 CST 2025
User: PC
Spectrometer: QEPB0408
触发模式: 0
积分时间 (秒): 1.000000E-2
Scans to average: 1
启用暗噪声校正: true
启用非线性校正: false
滑动平均宽度: 0
X轴模式: Wavelengths
Number of Pixels in Spectrum: 1044
>>>>>Begin Spectral Data<<<<<
220.843	2.38
221.644	1.38
222.444	3.38
223.244	0.38
224.045	4.38
224.845	3.38
225.645	3.38
226.445	3.38
227.245	1.38
228.045	6.38
228.845	2.38
229.645	2.38
230.444	3.38
231.244	5.38
232.043	1.38
232.843	2.38
233.642	5.38
234.442	4.38
235.241	5.38
236.04	5.38
236.839	6.38
237.638	4.38
238.437	6.38
239.236	6.38
240.035	6.38
240.833	4.38
241.632	6.38
242.43	6.38
243.229	7.38
244.027	3.38
244.826	7.38
245.624	7.38
246.422	6.38
247.22	7.38
248.018	7.38
248.816	7.38
249.614	6.38
250.412	9.38
251.21	9.38
252.007	7.38
252.805	8.38
253.602	9.38
254.4	10.38
255.197	12.38
255.994	10.38
256.791	11.38
257.589	10.38
258.386	11.38
259.183	11.38
259.979	12.38
260.776	15.38
261.573	16.38
262.37	14.38
263.166	14.38
263.963	16.38
264.759	17.38
265.556	17.38
266.352	18.38
267.148	18.38
267.944	20.38
268.74	20.38
269.536	17.38
270.332	19.38
271.128	17.38
271.924	20.38
272.719	22.38
273.515	22.38
274.311	23.38
275.106	22.38
275.901	23.38
276.697	20.38
277.492	24.38
278.287	24.38
279.082	23.38
279.877	24.38
280.672	24.38
281.467	24.38
282.262	25.38
283.056	25.38
283.851	28.38
284.646	22.38
285.44	23.38
286.234	23.38
287.029	24.38
287.823	22.38
288.617	23.38
289.411	22.38
290.205	25.38
290.999	21.38
291.793	23.38
292.587	24.38
293.381	21.38
294.174	18.38
294.968	20.38
295.761	20.38
296.555	16.38
297.348	17.38
298.141	18.38
298.935	19.38
299.728	17.38
300.521	17.38
301.314	13.38
302.107	15.38
302.899	15.38
303.692	17.38
304.485	17.38
305.277	13.38
306.07	13.38
306.862	16.38
307.655	13.38
308.447	15.38
309.239	13.38
310.031	13.38
310.823	11.38
311.615	11.38
312.407	12.38
313.199	12.38
313.991	10.38
314.783	12.38
315.574	10.38
316.366	11.38
317.157	8.38
317.949	7.38
318.74	10.38
319.531	7.38
320.322	9.38
321.113	9.38
321.904	11.38
322.695	8.38
323.486	10.38
324.277	8.38
325.068	7.38
325.858	7.38
326.649	10.38
327.439	6.38
328.23	7.38
329.02	7.38
329.81	7.38
330.6	10.38
331.391	5.38
332.181	7.38
332.971	8.38
333.76	8.38
334.55	9.38
335.34	4.38
336.13	7.38
336.919	4.38
337.709	7.38
338.498	8.38
339.287	7.38
340.077	7.38
340.866	8.38
341.655	5.38
342.444	7.38
343.233	4.38
344.022	8.38
344.811	6.38
345.6	8.38
346.388	7.38
347.177	7.38
347.965	9.38
348.754	7.38
349.542	7.38
350.33	6.38
351.119	7.38
351.907	8.38
352.695	4.38
353.483	7.38
354.271	5.38
355.059	7.38
355.846	6.38
356.634	7.38
357.422	5.38
358.209	4.38
358.997	8.38
359.784	5.38
360.571	5.38
361.359	8.38
362.146	5.38
362.933	6.38
363.72	7.38
364.507	5.38
365.294	7.38
366.081	6.38
366.867	6.38
367.654	5.38
368.44	7.38
369.227	4.38
370.013	5.38
370.8	5.38
371.586	6.38
372.372	7.38
373.158	5.38
373.944	4.38
374.73	4.38
375.516	6.38
376.302	5.38
377.088	6.38
377.873	5.38
378.659	5.38
379.445	3.38
380.23	5.38
381.015	3.38
381.801	5.38
382.586	5.38
383.371	5.38
384.156	6.38
384.941	6.38
385.726	8.38
386.511	4.38
387.296	5.38
388.08	7.38
388.865	7.38
389.649	7.38
390.434	5.38
391.218	6.38
392.003	8.38
392.787	7.38
393.571	5.38
394.355	7.38
395.139	5.38
395.923	10.38
396.707	9.38
397.491	7.38
398.274	9.38
399.058	9.38
399.842	7.38
400.625	6.38
401.408	6.38
402.192	8.38
402.975	8.38
403.758	8.38
404.541	9.38
405.324	9.38
406.107	8.38
406.89	8.38
407.673	10.38
408.456	9.38
409.238	10.38
410.021	8.38
410.803	9.38
411.586	12.38
412.368	13.38
413.151	10.38
413.933	12.38
414.715	12.38
415.497	10.38
416.279	10.38
417.061	13.38
417.843	12.38
418.624	9.38
419.406	17.38
420.188	13.38
420.969	13.38
421.751	13.38
422.532	15.38
423.313	17.38
424.095	12.38
424.876	13.38
425.657	15.38
426.438	16.38
427.219	17.38
428	13.38
428.78	16.38
429.561	18.38
430.342	18.38
431.122	18.38
431.903	20.38
432.683	20.38
433.464	21.38
434.244	23.38
435.024	22.38
435.804	23.38
436.584	24.38
437.364	25.38
438.144	27.38
438.924	27.38
439.704	31.38
440.483	35.38
441.263	33.38
442.042	38.38
442.822	36.38
443.601	44.38
444.38	44.38
445.16	48.38
445.939	52.38
446.718	57.38
447.497	63.38
448.276	64.38
449.054	69.38
449.833	77.38
450.612	85.38
451.391	93.38
452.169	104.38
452.948	113.38
453.726	124.38
454.504	139.38
455.282	150.38
456.061	167.38
456.839	178.38
457.617	209.38
458.395	230.38
459.172	253.38
459.95	287.38
460.728	314.38
461.506	353.38
462.283	407.38
463.061	437.38
463.838	496.38
464.615	542.38
465.393	620.38
466.17	683.38
466.947	762.38
467.724	848.38
468.501	946.38
469.278	1050.38
470.055	1187.38
470.831	1304.38
471.608	1452.38
472.385	1599.38
473.161	1758.38
473.938	1943.38
474.714	2169.38
475.49	2377.38
476.266	2624.38
477.043	2902.38
477.819	3175.38
478.595	3509.38
479.371	3843.38
480.146	4220.38
480.922	4623.38
481.698	5090.38
482.473	5571.38
483.249	6093.38
484.024	6726.38
484.8	7350.38
485.575	8003.38
486.35	8715.38
487.126	9523.38
487.901	10383.38
488.676	11328.38
489.451	12330.38
490.225	13379.38
491	14519.38
491.775	15735.38
492.55	16974.38
493.324	18276.38
494.099	19591.38
494.873	20885.38
495.647	22334.38
496.422	23711.38
497.196	25146.38
497.97	26665.38
498.744	28102.38
499.518	29506.38
500.292	30687.38
501.066	31775.38
501.839	32978.38
502.613	33802.38
503.387	34484.38
504.16	35029.38
504.934	35333.38
505.707	35445.38
506.48	35303.38
507.253	34960.38
508.027	34594.38
508.8	34143.38
509.573	33365.38
510.346	32438.38
511.118	31450.38
511.891	30551.38
512.664	29397.38
513.437	28263.38
514.209	27062.38
514.982	26116.38
515.754	25026.38
516.526	23984.38
517.298	22893.38
518.071	21992.38
518.843	21029.38
519.615	20262.38
520.387	19450.38
521.159	18686.38
521.93	18054.38
522.702	17211.38
523.474	16585.38
524.245	15885.38
525.017	15194.38
525.788	14461.38
526.56	13843.38
527.331	13210.38
528.102	12630.38
528.873	11955.38
529.644	11413.38
530.415	10887.38
531.186	10352.38
531.957	9803.38
532.728	9314.38
533.498	8714.38
534.269	8316.38
535.039	7839.38
535.81	7433.38
536.58	7011.38
537.351	6611.38
538.121	6222.38
538.891	5911.38
539.661	5612.38
540.431	5312.38
541.201	5047.38
541.971	4790.38
542.741	4490.38
543.51	4288.38
544.28	4104.38
545.05	3887.38
545.819	3703.38
546.588	3498.38
547.358	3335.38
548.127	3152.38
548.896	2987.38
549.665	2843.38
550.434	2709.38
551.203	2553.38
551.972	2412.38
552.741	2299.38
553.51	2168.38
554.278	2057.38
555.047	1945.38
555.815	1821.38
556.584	1723.38
557.352	1616.38
558.121	1527.38
558.889	1435.38
559.657	1373.38
560.425	1287.38
561.193	1223.38
561.961	1165.38
562.729	1117.38
563.496	1029.38
564.264	981.38
565.032	923.38
565.799	877.38
566.567	823.38
567.334	774.38
568.101	727.38
568.869	700.38
569.636	659.38
570.403	619.38
571.17	582.38
571.937	549.38
572.704	531.38
573.471	496.38
574.237	461.38
575.004	438.38
575.771	412.38
576.537	381.38
577.303	366.38
578.07	348.38
578.836	328.38
579.602	298.38
580.368	288.38
581.134	279.38
581.9	253.38
582.666	243.38
583.432	230.38
584.198	219.38
584.964	206.38
585.729	206.38
586.495	192.38
587.26	185.38
588.025	166.38
588.791	165.38
589.556	152.38
590.321	143.38
591.086	141.38
591.851	126.38
592.616	126.38
593.381	118.38
594.146	113.38
594.911	107.38
595.675	105.38
596.44	99.38
597.204	97.38
597.969	89.38
598.733	88.38
599.497	80.38
600.261	80.38
601.025	69.38
601.79	72.38
602.553	65.38
603.317	65.38
604.081	61.38
604.845	55.38
605.609	57.38
606.372	55.38
607.136	52.38
607.899	53.38
608.662	43.38
609.426	47.38
610.189	44.38
610.952	43.38
611.715	38.38
612.478	40.38
613.241	35.38
614.004	37.38
614.767	33.38
615.529	30.38
616.292	33.38
617.055	33.38
617.817	34.38
618.579	28.38
619.342	30.38
620.104	26.38
620.866	27.38
621.628	28.38
622.39	24.38
623.152	26.38
623.914	23.38
624.676	22.38
625.438	21.38
626.199	23.38
626.961	20.38
627.722	18.38
628.484	17.38
629.245	20.38
630.006	16.38
630.768	19.38
631.529	16.38
632.29	17.38
633.051	17.38
633.812	12.38
634.573	17.38
635.333	17.38
636.094	15.38
636.855	10.38
637.615	12.38
638.376	13.38
639.136	12.38
639.896	14.38
640.657	11.38
641.417	10.38
642.177	12.38
642.937	11.38
643.697	12.38
644.457	10.38
645.216	8.38
645.976	9.38
646.736	7.38
647.495	11.38
648.255	8.38
649.014	7.38
649.774	11.38
650.533	10.38
651.292	7.38
652.051	7.38
652.81	9.38
653.569	9.38
654.328	7.38
655.087	8.38
655.846	5.38
656.604	8.38
657.363	6.38
658.121	9.38
658.88	5.38
659.638	8.38
660.397	7.38
661.155	5.38
661.913	6.38
662.671	6.38
663.429	4.38
664.187	7.38
664.945	7.38
665.703	7.38
666.46	4.38
667.218	5.38
667.976	8.38
668.733	5.38
669.49	4.38
670.248	5.38
671.005	4.38
671.762	7.38
672.519	4.38
673.276	5.38
674.033	3.38
674.79	5.38
675.547	5.38
676.304	6.38
677.06	2.38
677.817	2.38
678.574	5.38
679.33	4.38
680.086	5.38
680.843	5.38
681.599	4.38
682.355	5.38
683.111	3.38
683.867	5.38
684.623	2.38
685.379	6.38
686.135	2.38
686.89	4.38
687.646	1.38
688.402	3.38
689.157	4.38
689.912	1.38
690.668	5.38
691.423	2.38
692.178	4.38
692.933	3.38
693.688	4.38
694.443	2.38
695.198	4.38
695.953	3.38
696.708	0.38
697.462	3.38
698.217	3.38
698.972	5.38
699.726	2.38
700.48	2.38
701.235	3.38
701.989	6.38
702.743	3.38
703.497	4.38
704.251	5.38
705.005	6.38
705.759	3.38
706.513	4.38
707.266	5.38
708.02	4.38
708.774	3.38
709.527	2.38
710.28	3.38
711.034	4.38
711.787	1.38
712.54	3.38
713.293	3.38
714.046	3.38
714.799	5.38
715.552	4.38
716.305	3.38
717.058	4.38
717.81	5.38
718.563	3.38
719.315	3.38
720.068	1.38
720.82	2.38
721.573	7.38
722.325	6.38
723.077	4.38
723.829	3.38
724.581	2.38
725.333	6.38
726.085	2.38
726.836	5.38
727.588	6.38
728.34	3.38
729.091	5.38
729.843	3.38
730.594	5.38
731.346	5.38
732.097	6.38
732.848	5.38
733.599	4.38
734.35	2.38
735.101	4.38
735.852	6.38
736.603	6.38
737.354	6.38
738.104	3.38
738.855	5.38
739.605	5.38
740.356	6.38
741.106	4.38
741.856	6.38
742.607	4.38
743.357	5.38
744.107	7.38
744.857	5.38
745.607	6.38
746.357	5.38
747.106	5.38
747.856	5.38
748.606	7.38
749.355	6.38
750.105	7.38
750.854	5.38
751.603	6.38
752.353	7.38
753.102	7.38
753.851	7.38
754.6	5.38
755.349	6.38
756.098	7.38
756.847	7.38
757.595	10.38
758.344	8.38
759.093	6.38
759.841	6.38
760.589	7.38
761.338	6.38
762.086	5.38
762.834	11.38
763.582	9.38
764.331	8.38
765.079	7.38
765.826	12.38
766.574	7.38
767.322	9.38
768.07	7.38
768.817	8.38
769.565	9.38
770.312	9.38
771.06	9.38
771.807	11.38
772.554	10.38
773.302	9.38
774.049	8.38
774.796	10.38
775.543	7.38
776.29	7.38
777.036	11.38
777.783	8.38
778.53	8.38
779.276	12.38
780.023	9.38
780.769	11.38
781.516	10.38
782.262	10.38
783.008	9.38
783.754	7.38
784.5	12.38
785.246	8.38
785.992	11.38
786.738	9.38
787.484	10.38
788.23	11.38
788.975	10.38
789.721	9.38
790.466	9.38
791.212	8.38
791.957	8.38
792.702	9.38
793.447	11.38
794.193	8.38
794.938	10.38
795.683	9.38
796.427	9.38
797.172	8.38
797.917	7.38
798.662	10.38
799.406	8.38
800.151	9.38
800.895	7.38
801.64	7.38
802.384	8.38
803.128	6.38
803.872	9.38
804.616	9.38
805.36	6.38
806.104	5.38
806.848	8.38
807.592	6.38
808.336	6.38
809.079	6.38
809.823	7.38
810.566	5.38
811.31	6.38
812.053	5.38
812.796	6.38
813.539	6.38
814.283	6.38
815.026	4.38
815.769	3.38
816.511	5.38
817.254	5.38
817.997	3.38
818.74	7.38
819.482	4.38
820.225	3.38
820.967	3.38
821.71	5.38
822.452	3.38
823.194	5.38
823.936	5.38
824.678	4.38
825.42	6.38
826.162	5.38
826.904	4.38
827.646	2.38
828.388	7.38
829.129	4.38
829.871	3.38
830.612	4.38
831.354	3.38
832.095	3.38
832.836	2.38
833.577	1.38
834.319	4.38
835.06	1.38
835.801	4.38
836.542	3.38
837.282	4.38
838.023	1.38
838.764	4.38
839.504	3.38
840.245	3.38
840.985	3.38
841.726	4.38
842.466	2.38
843.206	4.38
843.946	2.38
844.687	1.38
845.427	4.38
846.166	2.38
846.906	4.38
847.646	2.38
848.386	1.38
849.125	3.38
849.865	3.38
850.605	2.38
851.344	2.38
852.083	1.38
852.823	1.38
853.562	2.38
854.301	4.38
855.04	3.38
855.779	1.38
856.518	0.38
857.257	1.38
857.995	0.38
858.734	1.38
859.473	0.38
860.211	0.38
860.95	2.38
861.688	1.38
862.426	2.38
863.165	1.38
863.903	0.38
864.641	-1.62
865.379	1.38
866.117	2.38
866.855	2.38
867.593	2.38
868.33	1.38
869.068	0.38
869.806	1.38
870.543	1.38
871.28	1.38
872.018	1.38
872.755	2.38
873.492	1.38
874.229	-0.62
874.967	0.38
875.703	-1.62
876.44	1.38
877.177	1.38
877.914	1.38
878.651	2.38
879.387	-0.62
880.124	1.38
880.86	1.38
881.597	1.38
882.333	0.38
883.069	-0.62
883.806	3.38
884.542	0.38
885.278	0.38
886.014	-0.62
886.749	2.38
887.485	0.38
888.221	-0.62
888.957	2.38
889.692	-0.62
890.428	0.38
891.163	1.38
891.899	-2.62
892.634	1.38
893.369	-0.62
894.104	2.38
894.839	-2.62
895.574	1.38
896.309	-0.62
897.044	2.38
897.779	0.38
898.514	-1.62
899.248	-0.62
899.983	-0.62
900.717	-0.62
901.452	-0.62
902.186	-0.62
902.92	-0.62
903.654	-0.62
904.389	0.38
905.123	0.38
905.857	0.38
906.59	0.38
907.324	-1.62
908.058	-0.62
908.792	0.38
909.525	1.38
910.259	0.38
910.992	-2.62
911.726	-2.62
912.459	-0.62
913.192	-1.62
913.925	0.38
914.658	0.38
915.391	-0.62
916.124	-2.62
916.857	-0.62
917.59	0.38
918.323	-1.62
919.055	0.38
919.788	-1.62
920.521	-0.62
921.253	-0.62
921.985	0.38
922.718	-1.62
923.45	-0.62
924.182	-0.62
924.914	2.38
925.646	0.38
926.378	0.38
927.11	-0.62
927.841	0.38
928.573	-0.62
929.305	-0.62
930.036	-0.62
930.768	-1.62
931.499	0.38
932.23	-0.62
932.962	-0.62
933.693	-0.62
934.424	2.38
935.155	1.38
935.886	-1.62
936.617	-0.62
937.348	-2.62
938.078	-0.62
938.809	0.38
939.54	0.38
940.27	-2.62
941.001	-1.62
941.731	-1.62
942.461	-0.62
943.191	-2.62
943.922	-2.62
944.652	-1.62
945.382	-0.62
946.112	-2.62
946.841	-1.62
947.571	0.38
948.301	-0.62
949.031	1.38
949.76	0.38
950.49	1.38
951.219	0.38
951.948	1.38
952.678	-2.62
953.407	0.38
954.136	-0.62
954.865	-2.62
955.594	-1.62
956.323	0.38
957.052	2.38
957.78	-1.62
958.509	0.38
959.238	-0.62
959.966	-2.62
960.695	0.38
961.423	0.38
962.151	-1.62
962.88	0.38
963.608	-1.62
964.336	-1.62
965.064	0.38
965.792	-0.62
966.52	-1.62
967.247	-0.62
967.975	1.38
968.703	-2.62
969.43	-0.62
970.158	0.38
970.885	-2.62
971.613	0.38
972.34	0.38
973.067	0.38
973.794	-0.62
974.521	-1.62
975.248	0.38
975.975	0.38
976.702	-1.62
977.429	-2.62
978.156	1.38
978.882	-1.62
979.609	0.38
980.335	-0.62
981.062	-1.62
981.788	-1.62
982.514	-2.62
983.24	-2.62
983.967	-1.62
984.693	-1.62
985.419	1.38
986.144	-2.62
986.87	-0.62
987.596	0.38
988.322	0.38
989.047	0.38
989.773	-0.62
990.498	-0.62
991.224	-0.62
991.949	-0.62
992.674	0.38
993.399	0.38
994.124	0.38
994.849	-1.62
995.574	-4.62
996.299	-0.62
997.024	-2.62
997.749	-0.62
998.473	-2.62
999.198	-0.62
999.922	-1.62
1000.647	-0.62
1001.371	3.38
1002.095	-0.62
1002.82	-0.62
1003.544	-0.62
1004.268	3.38
1004.992	1.38
1005.716	0.38
1006.439	1.38
1007.163	1.38
1007.887	1.38
1008.611	-1.62
1009.334	1.38
1010.058	-0.62
1010.781	-2.62
1011.504	-0.62
1012.228	-1.62
1012.951	-1.62
1013.674	0.38
1014.397	0.38
1015.12	-0.62
