节点500_425_QEPB04081__52__15-49-10-402.txt的数据

Date: Wed Nov 12 15:49:10 CST 2025
User: PC
Spectrometer: QEPB0408
触发模式: 0
积分时间 (秒): 1.000000E-2
Scans to average: 1
启用暗噪声校正: true
启用非线性校正: false
滑动平均宽度: 0
X轴模式: Wavelengths
Number of Pixels in Spectrum: 1044
>>>>>Begin Spectral Data<<<<<
220.843	4.62
221.644	2.62
222.444	4.62
223.244	3.62
224.045	4.62
224.845	4.62
225.645	3.62
226.445	3.62
227.245	4.62
228.045	5.62
228.845	2.62
229.645	4.62
230.444	3.62
231.244	3.62
232.043	5.62
232.843	6.62
233.642	6.62
234.442	6.62
235.241	7.62
236.04	5.62
236.839	6.62
237.638	8.62
238.437	6.62
239.236	6.62
240.035	9.62
240.833	6.62
241.632	7.62
242.43	7.62
243.229	7.62
244.027	10.62
244.826	8.62
245.624	10.62
246.422	8.62
247.22	9.62
248.018	10.62
248.816	10.62
249.614	11.62
250.412	12.62
251.21	10.62
252.007	10.62
252.805	11.62
253.602	12.62
254.4	13.62
255.197	10.62
255.994	12.62
256.791	14.62
257.589	12.62
258.386	16.62
259.183	17.62
259.979	16.62
260.776	17.62
261.573	15.62
262.37	17.62
263.166	17.62
263.963	18.62
264.759	18.62
265.556	19.62
266.352	20.62
267.148	20.62
267.944	23.62
268.74	22.62
269.536	23.62
270.332	22.62
271.128	22.62
271.924	25.62
272.719	25.62
273.515	27.62
274.311	25.62
275.106	24.62
275.901	26.62
276.697	25.62
277.492	27.62
278.287	25.62
279.082	28.62
279.877	28.62
280.672	26.62
281.467	28.62
282.262	24.62
283.056	24.62
283.851	26.62
284.646	25.62
285.44	29.62
286.234	27.62
287.029	25.62
287.823	27.62
288.617	25.62
289.411	25.62
290.205	22.62
290.999	27.62
291.793	24.62
292.587	23.62
293.381	23.62
294.174	24.62
294.968	24.62
295.761	23.62
296.555	21.62
297.348	21.62
298.141	20.62
298.935	21.62
299.728	17.62
300.521	18.62
301.314	18.62
302.107	21.62
302.899	18.62
303.692	14.62
304.485	17.62
305.277	18.62
306.07	18.62
306.862	15.62
307.655	16.62
308.447	15.62
309.239	14.62
310.031	17.62
310.823	13.62
311.615	16.62
312.407	14.62
313.199	11.62
313.991	13.62
314.783	11.62
315.574	12.62
316.366	10.62
317.157	14.62
317.949	11.62
318.74	9.62
319.531	12.62
320.322	9.62
321.113	12.62
321.904	11.62
322.695	13.62
323.486	11.62
324.277	6.62
325.068	9.62
325.858	8.62
326.649	10.62
327.439	8.62
328.23	10.62
329.02	8.62
329.81	8.62
330.6	10.62
331.391	10.62
332.181	6.62
332.971	8.62
333.76	11.62
334.55	10.62
335.34	6.62
336.13	11.62
336.919	6.62
337.709	8.62
338.498	9.62
339.287	9.62
340.077	8.62
340.866	8.62
341.655	8.62
342.444	7.62
343.233	7.62
344.022	10.62
344.811	6.62
345.6	9.62
346.388	10.62
347.177	6.62
347.965	8.62
348.754	9.62
349.542	10.62
350.33	7.62
351.119	7.62
351.907	5.62
352.695	10.62
353.483	10.62
354.271	8.62
355.059	7.62
355.846	7.62
356.634	9.62
357.422	7.62
358.209	8.62
358.997	9.62
359.784	7.62
360.571	5.62
361.359	6.62
362.146	11.62
362.933	5.62
363.72	7.62
364.507	7.62
365.294	6.62
366.081	6.62
366.867	7.62
367.654	7.62
368.44	7.62
369.227	9.62
370.013	8.62
370.8	5.62
371.586	6.62
372.372	5.62
373.158	8.62
373.944	8.62
374.73	6.62
375.516	6.62
376.302	6.62
377.088	7.62
377.873	8.62
378.659	6.62
379.445	8.62
380.23	7.62
381.015	7.62
381.801	7.62
382.586	6.62
383.371	8.62
384.156	8.62
384.941	9.62
385.726	10.62
386.511	7.62
387.296	7.62
388.08	7.62
388.865	9.62
389.649	7.62
390.434	6.62
391.218	9.62
392.003	9.62
392.787	7.62
393.571	10.62
394.355	8.62
395.139	9.62
395.923	9.62
396.707	9.62
397.491	9.62
398.274	8.62
399.058	7.62
399.842	11.62
400.625	8.62
401.408	8.62
402.192	11.62
402.975	9.62
403.758	10.62
404.541	8.62
405.324	11.62
406.107	12.62
406.89	10.62
407.673	9.62
408.456	10.62
409.238	12.62
410.021	11.62
410.803	13.62
411.586	11.62
412.368	11.62
413.151	14.62
413.933	13.62
414.715	10.62
415.497	14.62
416.279	10.62
417.061	15.62
417.843	11.62
418.624	14.62
419.406	14.62
420.188	13.62
420.969	16.62
421.751	12.62
422.532	15.62
423.313	13.62
424.095	15.62
424.876	16.62
425.657	16.62
426.438	18.62
427.219	17.62
428	16.62
428.78	18.62
429.561	19.62
430.342	18.62
431.122	21.62
431.903	22.62
432.683	22.62
433.464	24.62
434.244	24.62
435.024	23.62
435.804	25.62
436.584	25.62
437.364	30.62
438.144	29.62
438.924	29.62
439.704	31.62
440.483	35.62
441.263	36.62
442.042	38.62
442.822	39.62
443.601	42.62
444.38	43.62
445.16	48.62
445.939	51.62
446.718	58.62
447.497	62.62
448.276	62.62
449.054	66.62
449.833	68.62
450.612	78.62
451.391	90.62
452.169	97.62
452.948	104.62
453.726	116.62
454.504	129.62
455.282	144.62
456.061	154.62
456.839	172.62
457.617	193.62
458.395	212.62
459.172	242.62
459.95	266.62
460.728	294.62
461.506	332.62
462.283	371.62
463.061	414.62
463.838	465.62
464.615	514.62
465.393	584.62
466.17	643.62
466.947	714.62
467.724	802.62
468.501	902.62
469.278	985.62
470.055	1105.62
470.831	1246.62
471.608	1377.62
472.385	1546.62
473.161	1713.62
473.938	1919.62
474.714	2132.62
475.49	2346.62
476.266	2636.62
477.043	2892.62
477.819	3211.62
478.595	3536.62
479.371	3935.62
480.146	4333.62
480.922	4794.62
481.698	5285.62
482.473	5823.62
483.249	6370.62
484.024	7117.62
484.8	7783.62
485.575	8557.62
486.35	9361.62
487.126	10283.62
487.901	11239.62
488.676	12332.62
489.451	13497.62
490.225	14648.62
491	15913.62
491.775	17372.62
492.55	18744.62
493.324	20217.62
494.099	21698.62
494.873	23237.62
495.647	24802.62
496.422	26408.62
497.196	27929.62
497.97	29649.62
498.744	31120.62
499.518	32577.62
500.292	33806.62
501.066	34870.62
501.839	35889.62
502.613	36707.62
503.387	37264.62
504.16	37632.62
504.934	37701.62
505.707	37518.62
506.48	37120.62
507.253	36549.62
508.027	35919.62
508.8	35131.62
509.573	34036.62
510.346	32995.62
511.118	31851.62
511.891	30681.62
512.664	29413.62
513.437	28178.62
514.209	26941.62
514.982	25854.62
515.754	24687.62
516.526	23605.62
517.298	22528.62
518.071	21544.62
518.843	20729.62
519.615	19896.62
520.387	19093.62
521.159	18373.62
521.93	17714.62
522.702	16954.62
523.474	16287.62
524.245	15631.62
525.017	14847.62
525.788	14195.62
526.56	13481.62
527.331	12826.62
528.102	12255.62
528.873	11616.62
529.644	11024.62
530.415	10498.62
531.186	9981.62
531.957	9426.62
532.728	8913.62
533.498	8377.62
534.269	7903.62
535.039	7485.62
535.81	7054.62
536.58	6649.62
537.351	6286.62
538.121	5954.62
538.891	5647.62
539.661	5326.62
540.431	5078.62
541.201	4776.62
541.971	4524.62
542.741	4306.62
543.51	4087.62
544.28	3883.62
545.05	3678.62
545.819	3513.62
546.588	3334.62
547.358	3156.62
548.127	2986.62
548.896	2848.62
549.665	2700.62
550.434	2561.62
551.203	2427.62
551.972	2273.62
552.741	2170.62
553.51	2046.62
554.278	1919.62
555.047	1808.62
555.815	1696.62
556.584	1609.62
557.352	1532.62
558.121	1430.62
558.889	1345.62
559.657	1297.62
560.425	1210.62
561.193	1153.62
561.961	1073.62
562.729	1031.62
563.496	959.62
564.264	923.62
565.032	870.62
565.799	817.62
566.567	771.62
567.334	724.62
568.101	684.62
568.869	657.62
569.636	614.62
570.403	584.62
571.17	541.62
571.937	513.62
572.704	487.62
573.471	462.62
574.237	428.62
575.004	404.62
575.771	382.62
576.537	359.62
577.303	343.62
578.07	325.62
578.836	300.62
579.602	291.62
580.368	276.62
581.134	257.62
581.9	241.62
582.666	234.62
583.432	211.62
584.198	206.62
584.964	202.62
585.729	189.62
586.495	178.62
587.26	176.62
588.025	161.62
588.791	150.62
589.556	142.62
590.321	139.62
591.086	131.62
591.851	124.62
592.616	121.62
593.381	119.62
594.146	102.62
594.911	103.62
595.675	96.62
596.44	92.62
597.204	87.62
597.969	86.62
598.733	83.62
599.497	75.62
600.261	70.62
601.025	68.62
601.79	67.62
602.553	66.62
603.317	61.62
604.081	59.62
604.845	59.62
605.609	57.62
606.372	53.62
607.136	52.62
607.899	49.62
608.662	45.62
609.426	43.62
610.189	43.62
610.952	40.62
611.715	37.62
612.478	41.62
613.241	39.62
614.004	34.62
614.767	34.62
615.529	34.62
616.292	31.62
617.055	31.62
617.817	30.62
618.579	30.62
619.342	26.62
620.104	28.62
620.866	29.62
621.628	28.62
622.39	24.62
623.152	21.62
623.914	25.62
624.676	25.62
625.438	21.62
626.199	19.62
626.961	21.62
627.722	22.62
628.484	20.62
629.245	18.62
630.006	18.62
630.768	16.62
631.529	19.62
632.29	17.62
633.051	18.62
633.812	15.62
634.573	18.62
635.333	16.62
636.094	14.62
636.855	15.62
637.615	14.62
638.376	13.62
639.136	14.62
639.896	11.62
640.657	14.62
641.417	14.62
642.177	14.62
642.937	14.62
643.697	13.62
644.457	11.62
645.216	11.62
645.976	12.62
646.736	10.62
647.495	10.62
648.255	13.62
649.014	9.62
649.774	10.62
650.533	7.62
651.292	11.62
652.051	9.62
652.81	8.62
653.569	10.62
654.328	10.62
655.087	8.62
655.846	8.62
656.604	9.62
657.363	10.62
658.121	8.62
658.88	8.62
659.638	7.62
660.397	6.62
661.155	5.62
661.913	4.62
662.671	9.62
663.429	5.62
664.187	5.62
664.945	6.62
665.703	6.62
666.46	6.62
667.218	5.62
667.976	9.62
668.733	6.62
669.49	5.62
670.248	6.62
671.005	8.62
671.762	6.62
672.519	5.62
673.276	6.62
674.033	5.62
674.79	5.62
675.547	6.62
676.304	7.62
677.06	8.62
677.817	5.62
678.574	4.62
679.33	4.62
680.086	6.62
680.843	6.62
681.599	6.62
682.355	6.62
683.111	3.62
683.867	3.62
684.623	5.62
685.379	5.62
686.135	3.62
686.89	3.62
687.646	6.62
688.402	4.62
689.157	5.62
689.912	4.62
690.668	4.62
691.423	4.62
692.178	6.62
692.933	4.62
693.688	5.62
694.443	7.62
695.198	6.62
695.953	2.62
696.708	4.62
697.462	5.62
698.217	4.62
698.972	4.62
699.726	4.62
700.48	3.62
701.235	4.62
701.989	6.62
702.743	5.62
703.497	6.62
704.251	4.62
705.005	4.62
705.759	7.62
706.513	5.62
707.266	5.62
708.02	7.62
708.774	4.62
709.527	4.62
710.28	7.62
711.034	6.62
711.787	5.62
712.54	4.62
713.293	4.62
714.046	7.62
714.799	5.62
715.552	6.62
716.305	5.62
717.058	5.62
717.81	3.62
718.563	6.62
719.315	7.62
720.068	6.62
720.82	5.62
721.573	7.62
722.325	5.62
723.077	4.62
723.829	9.62
724.581	4.62
725.333	6.62
726.085	6.62
726.836	5.62
727.588	5.62
728.34	8.62
729.091	6.62
729.843	5.62
730.594	5.62
731.346	7.62
732.097	7.62
732.848	4.62
733.599	5.62
734.35	8.62
735.101	8.62
735.852	4.62
736.603	6.62
737.354	6.62
738.104	6.62
738.855	7.62
739.605	7.62
740.356	5.62
741.106	8.62
741.856	6.62
742.607	7.62
743.357	7.62
744.107	8.62
744.857	9.62
745.607	8.62
746.357	6.62
747.106	8.62
747.856	9.62
748.606	9.62
749.355	8.62
750.105	6.62
750.854	8.62
751.603	6.62
752.353	10.62
753.102	8.62
753.851	11.62
754.6	8.62
755.349	10.62
756.098	10.62
756.847	8.62
757.595	9.62
758.344	6.62
759.093	8.62
759.841	9.62
760.589	9.62
761.338	9.62
762.086	10.62
762.834	13.62
763.582	12.62
764.331	10.62
765.079	9.62
765.826	8.62
766.574	12.62
767.322	14.62
768.07	12.62
768.817	10.62
769.565	11.62
770.312	11.62
771.06	13.62
771.807	10.62
772.554	13.62
773.302	11.62
774.049	12.62
774.796	12.62
775.543	12.62
776.29	11.62
777.036	11.62
777.783	14.62
778.53	13.62
779.276	10.62
780.023	13.62
780.769	13.62
781.516	11.62
782.262	11.62
783.008	14.62
783.754	12.62
784.5	14.62
785.246	10.62
785.992	13.62
786.738	10.62
787.484	10.62
788.23	13.62
788.975	12.62
789.721	12.62
790.466	12.62
791.212	11.62
791.957	13.62
792.702	13.62
793.447	8.62
794.193	11.62
794.938	10.62
795.683	11.62
796.427	7.62
797.172	10.62
797.917	12.62
798.662	11.62
799.406	8.62
800.151	10.62
800.895	8.62
801.64	9.62
802.384	8.62
803.128	10.62
803.872	9.62
804.616	10.62
805.36	7.62
806.104	9.62
806.848	8.62
807.592	8.62
808.336	9.62
809.079	7.62
809.823	6.62
810.566	6.62
811.31	7.62
812.053	7.62
812.796	6.62
813.539	9.62
814.283	5.62
815.026	10.62
815.769	6.62
816.511	9.62
817.254	7.62
817.997	5.62
818.74	6.62
819.482	6.62
820.225	7.62
820.967	6.62
821.71	6.62
822.452	6.62
823.194	6.62
823.936	6.62
824.678	4.62
825.42	6.62
826.162	7.62
826.904	5.62
827.646	3.62
828.388	4.62
829.129	5.62
829.871	4.62
830.612	5.62
831.354	2.62
832.095	4.62
832.836	5.62
833.577	5.62
834.319	3.62
835.06	4.62
835.801	8.62
836.542	6.62
837.282	3.62
838.023	4.62
838.764	2.62
839.504	4.62
840.245	4.62
840.985	4.62
841.726	3.62
842.466	2.62
843.206	4.62
843.946	5.62
844.687	5.62
845.427	2.62
846.166	4.62
846.906	4.62
847.646	5.62
848.386	3.62
849.125	3.62
849.865	5.62
850.605	4.62
851.344	0.62
852.083	3.62
852.823	2.62
853.562	3.62
854.301	2.62
855.04	2.62
855.779	3.62
856.518	4.62
857.257	2.62
857.995	2.62
858.734	4.62
859.473	2.62
860.211	4.62
860.95	4.62
861.688	-0.38
862.426	3.62
863.165	2.62
863.903	1.62
864.641	3.62
865.379	1.62
866.117	2.62
866.855	0.62
867.593	2.62
868.33	3.62
869.068	3.62
869.806	1.62
870.543	1.62
871.28	1.62
872.018	1.62
872.755	2.62
873.492	2.62
874.229	1.62
874.967	4.62
875.703	2.62
876.44	2.62
877.177	0.62
877.914	0.62
878.651	1.62
879.387	0.62
880.124	1.62
880.86	-0.38
881.597	1.62
882.333	1.62
883.069	2.62
883.806	0.62
884.542	-1.38
885.278	1.62
886.014	2.62
886.749	2.62
887.485	2.62
888.221	0.62
888.957	1.62
889.692	0.62
890.428	1.62
891.163	0.62
891.899	2.62
892.634	0.62
893.369	2.62
894.104	0.62
894.839	1.62
895.574	2.62
896.309	0.62
897.044	0.62
897.779	2.62
898.514	-1.38
899.248	1.62
899.983	2.62
900.717	0.62
901.452	0.62
902.186	2.62
902.92	1.62
903.654	2.62
904.389	1.62
905.123	-1.38
905.857	1.62
906.59	3.62
907.324	0.62
908.058	0.62
908.792	4.62
909.525	0.62
910.259	0.62
910.992	0.62
911.726	0.62
912.459	0.62
913.192	0.62
913.925	1.62
914.658	-1.38
915.391	3.62
916.124	0.62
916.857	-0.38
917.59	0.62
918.323	0.62
919.055	1.62
919.788	1.62
920.521	-1.38
921.253	1.62
921.985	2.62
922.718	-1.38
923.45	0.62
924.182	2.62
924.914	0.62
925.646	2.62
926.378	1.62
927.11	1.62
927.841	0.62
928.573	2.62
929.305	-0.38
930.036	0.62
930.768	2.62
931.499	0.62
932.23	-2.38
932.962	1.62
933.693	0.62
934.424	1.62
935.155	-1.38
935.886	2.62
936.617	0.62
937.348	-1.38
938.078	1.62
938.809	0.62
939.54	1.62
940.27	-0.38
941.001	0.62
941.731	2.62
942.461	0.62
943.191	0.62
943.922	-1.38
944.652	1.62
945.382	0.62
946.112	1.62
946.841	-1.38
947.571	0.62
948.301	-1.38
949.031	0.62
949.76	1.62
950.49	0.62
951.219	0.62
951.948	0.62
952.678	0.62
953.407	0.62
954.136	1.62
954.865	0.62
955.594	0.62
956.323	0.62
957.052	2.62
957.78	1.62
958.509	0.62
959.238	-1.38
959.966	1.62
960.695	0.62
961.423	-0.38
962.151	2.62
962.88	-1.38
963.608	-0.38
964.336	-0.38
965.064	1.62
965.792	-0.38
966.52	-0.38
967.247	1.62
967.975	0.62
968.703	-0.38
969.43	0.62
970.158	1.62
970.885	2.62
971.613	0.62
972.34	1.62
973.067	1.62
973.794	-1.38
974.521	1.62
975.248	-0.38
975.975	-0.38
976.702	1.62
977.429	2.62
978.156	0.62
978.882	0.62
979.609	1.62
980.335	1.62
981.062	1.62
981.788	0.62
982.514	0.62
983.24	1.62
983.967	0.62
984.693	-0.38
985.419	0.62
986.144	0.62
986.87	0.62
987.596	2.62
988.322	1.62
989.047	0.62
989.773	1.62
990.498	-1.38
991.224	0.62
991.949	1.62
992.674	-1.38
993.399	1.62
994.124	1.62
994.849	-0.38
995.574	0.62
996.299	-1.38
997.024	0.62
997.749	-2.38
998.473	-1.38
999.198	2.62
999.922	-0.38
1000.647	2.62
1001.371	3.62
1002.095	-2.38
1002.82	-2.38
1003.544	-1.38
1004.268	4.62
1004.992	4.62
1005.716	2.62
1006.439	2.62
1007.163	2.62
1007.887	4.62
1008.611	1.62
1009.334	1.62
1010.058	2.62
1010.781	-0.38
1011.504	-0.38
1012.228	1.62
1012.951	0.62
1013.674	-1.38
1014.397	1.62
1015.12	1.62
