节点500_425_QEPB04081__106__15-50-04-326.txt的数据

Date: Wed Nov 12 15:50:04 CST 2025
User: PC
Spectrometer: QEPB0408
触发模式: 0
积分时间 (秒): 1.000000E-2
Scans to average: 1
启用暗噪声校正: true
启用非线性校正: false
滑动平均宽度: 0
X轴模式: Wavelengths
Number of Pixels in Spectrum: 1044
>>>>>Begin Spectral Data<<<<<
220.843	3.38
221.644	1.38
222.444	4.38
223.244	4.38
224.045	1.38
224.845	4.38
225.645	4.38
226.445	3.38
227.245	2.38
228.045	4.38
228.845	3.38
229.645	3.38
230.444	7.38
231.244	6.38
232.043	7.38
232.843	5.38
233.642	4.38
234.442	7.38
235.241	5.38
236.04	5.38
236.839	6.38
237.638	8.38
238.437	8.38
239.236	6.38
240.035	8.38
240.833	6.38
241.632	8.38
242.43	4.38
243.229	9.38
244.027	9.38
244.826	4.38
245.624	11.38
246.422	9.38
247.22	9.38
248.018	9.38
248.816	8.38
249.614	10.38
250.412	9.38
251.21	12.38
252.007	10.38
252.805	11.38
253.602	11.38
254.4	13.38
255.197	12.38
255.994	12.38
256.791	12.38
257.589	12.38
258.386	14.38
259.183	16.38
259.979	13.38
260.776	14.38
261.573	18.38
262.37	16.38
263.166	15.38
263.963	17.38
264.759	20.38
265.556	17.38
266.352	21.38
267.148	18.38
267.944	22.38
268.74	21.38
269.536	21.38
270.332	24.38
271.128	25.38
271.924	22.38
272.719	24.38
273.515	25.38
274.311	25.38
275.106	25.38
275.901	26.38
276.697	24.38
277.492	24.38
278.287	26.38
279.082	23.38
279.877	26.38
280.672	26.38
281.467	24.38
282.262	24.38
283.056	26.38
283.851	25.38
284.646	29.38
285.44	27.38
286.234	27.38
287.029	25.38
287.823	25.38
288.617	25.38
289.411	24.38
290.205	25.38
290.999	24.38
291.793	25.38
292.587	22.38
293.381	25.38
294.174	23.38
294.968	22.38
295.761	17.38
296.555	21.38
297.348	17.38
298.141	21.38
298.935	20.38
299.728	18.38
300.521	18.38
301.314	18.38
302.107	18.38
302.899	19.38
303.692	17.38
304.485	18.38
305.277	18.38
306.07	18.38
306.862	15.38
307.655	14.38
308.447	17.38
309.239	16.38
310.031	15.38
310.823	14.38
311.615	12.38
312.407	13.38
313.199	12.38
313.991	14.38
314.783	13.38
315.574	10.38
316.366	12.38
317.157	12.38
317.949	15.38
318.74	10.38
319.531	12.38
320.322	8.38
321.113	11.38
321.904	7.38
322.695	9.38
323.486	10.38
324.277	9.38
325.068	9.38
325.858	8.38
326.649	9.38
327.439	10.38
328.23	8.38
329.02	8.38
329.81	9.38
330.6	10.38
331.391	9.38
332.181	8.38
332.971	9.38
333.76	7.38
334.55	8.38
335.34	7.38
336.13	5.38
336.919	10.38
337.709	7.38
338.498	10.38
339.287	10.38
340.077	8.38
340.866	12.38
341.655	8.38
342.444	10.38
343.233	9.38
344.022	7.38
344.811	8.38
345.6	8.38
346.388	8.38
347.177	8.38
347.965	7.38
348.754	9.38
349.542	8.38
350.33	9.38
351.119	7.38
351.907	8.38
352.695	8.38
353.483	9.38
354.271	9.38
355.059	8.38
355.846	7.38
356.634	9.38
357.422	7.38
358.209	6.38
358.997	7.38
359.784	7.38
360.571	8.38
361.359	5.38
362.146	8.38
362.933	5.38
363.72	6.38
364.507	8.38
365.294	8.38
366.081	6.38
366.867	7.38
367.654	5.38
368.44	4.38
369.227	6.38
370.013	6.38
370.8	8.38
371.586	7.38
372.372	7.38
373.158	7.38
373.944	8.38
374.73	6.38
375.516	8.38
376.302	8.38
377.088	9.38
377.873	8.38
378.659	5.38
379.445	9.38
380.23	8.38
381.015	6.38
381.801	7.38
382.586	9.38
383.371	8.38
384.156	7.38
384.941	7.38
385.726	6.38
386.511	8.38
387.296	7.38
388.08	8.38
388.865	7.38
389.649	8.38
390.434	7.38
391.218	7.38
392.003	9.38
392.787	8.38
393.571	8.38
394.355	7.38
395.139	7.38
395.923	10.38
396.707	12.38
397.491	8.38
398.274	8.38
399.058	8.38
399.842	6.38
400.625	11.38
401.408	9.38
402.192	10.38
402.975	8.38
403.758	9.38
404.541	6.38
405.324	10.38
406.107	10.38
406.89	11.38
407.673	11.38
408.456	12.38
409.238	11.38
410.021	9.38
410.803	13.38
411.586	11.38
412.368	15.38
413.151	15.38
413.933	13.38
414.715	10.38
415.497	11.38
416.279	14.38
417.061	11.38
417.843	12.38
418.624	14.38
419.406	14.38
420.188	15.38
420.969	12.38
421.751	14.38
422.532	15.38
423.313	14.38
424.095	15.38
424.876	18.38
425.657	16.38
426.438	16.38
427.219	17.38
428	18.38
428.78	20.38
429.561	18.38
430.342	17.38
431.122	24.38
431.903	19.38
432.683	22.38
433.464	20.38
434.244	25.38
435.024	24.38
435.804	24.38
436.584	26.38
437.364	24.38
438.144	28.38
438.924	30.38
439.704	30.38
440.483	37.38
441.263	37.38
442.042	37.38
442.822	39.38
443.601	43.38
444.38	46.38
445.16	45.38
445.939	52.38
446.718	55.38
447.497	61.38
448.276	62.38
449.054	70.38
449.833	77.38
450.612	80.38
451.391	85.38
452.169	95.38
452.948	107.38
453.726	121.38
454.504	131.38
455.282	143.38
456.061	162.38
456.839	174.38
457.617	189.38
458.395	213.38
459.172	247.38
459.95	280.38
460.728	297.38
461.506	332.38
462.283	372.38
463.061	421.38
463.838	471.38
464.615	535.38
465.393	591.38
466.17	668.38
466.947	741.38
467.724	817.38
468.501	910.38
469.278	1010.38
470.055	1125.38
470.831	1261.38
471.608	1419.38
472.385	1563.38
473.161	1738.38
473.938	1932.38
474.714	2138.38
475.49	2366.38
476.266	2605.38
477.043	2870.38
477.819	3210.38
478.595	3541.38
479.371	3930.38
480.146	4284.38
480.922	4753.38
481.698	5239.38
482.473	5715.38
483.249	6324.38
484.024	6994.38
484.8	7651.38
485.575	8363.38
486.35	9202.38
487.126	10088.38
487.901	11002.38
488.676	12039.38
489.451	13150.38
490.225	14273.38
491	15533.38
491.775	16934.38
492.55	18304.38
493.324	19685.38
494.099	21126.38
494.873	22569.38
495.647	24090.38
496.422	25691.38
497.196	27262.38
497.97	28782.38
498.744	30254.38
499.518	31647.38
500.292	32925.38
501.066	34030.38
501.839	35159.38
502.613	35903.38
503.387	36471.38
504.16	36960.38
504.934	36934.38
505.707	36941.38
506.48	36670.38
507.253	36117.38
508.027	35608.38
508.8	34889.38
509.573	33923.38
510.346	32968.38
511.118	31864.38
511.891	30714.38
512.664	29491.38
513.437	28268.38
514.209	27134.38
514.982	25998.38
515.754	24840.38
516.526	23766.38
517.298	22784.38
518.071	21815.38
518.843	20887.38
519.615	20005.38
520.387	19125.38
521.159	18505.38
521.93	17830.38
522.702	17082.38
523.474	16421.38
524.245	15749.38
525.017	15044.38
525.788	14333.38
526.56	13637.38
527.331	12990.38
528.102	12379.38
528.873	11723.38
529.644	11194.38
530.415	10652.38
531.186	10073.38
531.957	9575.38
532.728	9035.38
533.498	8504.38
534.269	8043.38
535.039	7624.38
535.81	7163.38
536.58	6766.38
537.351	6366.38
538.121	6023.38
538.891	5707.38
539.661	5436.38
540.431	5117.38
541.201	4875.38
541.971	4618.38
542.741	4392.38
543.51	4148.38
544.28	3951.38
545.05	3753.38
545.819	3563.38
546.588	3396.38
547.358	3208.38
548.127	3054.38
548.896	2897.38
549.665	2735.38
550.434	2601.38
551.203	2472.38
551.972	2341.38
552.741	2206.38
553.51	2082.38
554.278	1976.38
555.047	1849.38
555.815	1754.38
556.584	1651.38
557.352	1560.38
558.121	1467.38
558.889	1379.38
559.657	1302.38
560.425	1235.38
561.193	1161.38
561.961	1108.38
562.729	1056.38
563.496	994.38
564.264	935.38
565.032	883.38
565.799	838.38
566.567	793.38
567.334	745.38
568.101	703.38
568.869	669.38
569.636	633.38
570.403	591.38
571.17	555.38
571.937	525.38
572.704	499.38
573.471	469.38
574.237	444.38
575.004	408.38
575.771	399.38
576.537	372.38
577.303	352.38
578.07	326.38
578.836	306.38
579.602	288.38
580.368	282.38
581.134	263.38
581.9	251.38
582.666	237.38
583.432	220.38
584.198	209.38
584.964	201.38
585.729	187.38
586.495	187.38
587.26	173.38
588.025	165.38
588.791	152.38
589.556	149.38
590.321	144.38
591.086	135.38
591.851	128.38
592.616	120.38
593.381	117.38
594.146	106.38
594.911	102.38
595.675	102.38
596.44	97.38
597.204	93.38
597.969	87.38
598.733	85.38
599.497	80.38
600.261	74.38
601.025	76.38
601.79	68.38
602.553	63.38
603.317	63.38
604.081	60.38
604.845	60.38
605.609	52.38
606.372	55.38
607.136	49.38
607.899	46.38
608.662	50.38
609.426	48.38
610.189	44.38
610.952	38.38
611.715	44.38
612.478	42.38
613.241	36.38
614.004	38.38
614.767	38.38
615.529	38.38
616.292	33.38
617.055	32.38
617.817	31.38
618.579	29.38
619.342	30.38
620.104	26.38
620.866	29.38
621.628	27.38
622.39	26.38
623.152	26.38
623.914	22.38
624.676	22.38
625.438	22.38
626.199	19.38
626.961	24.38
627.722	20.38
628.484	19.38
629.245	19.38
630.006	20.38
630.768	17.38
631.529	17.38
632.29	17.38
633.051	16.38
633.812	17.38
634.573	14.38
635.333	15.38
636.094	13.38
636.855	12.38
637.615	16.38
638.376	16.38
639.136	13.38
639.896	15.38
640.657	12.38
641.417	14.38
642.177	11.38
642.937	11.38
643.697	9.38
644.457	11.38
645.216	13.38
645.976	11.38
646.736	12.38
647.495	11.38
648.255	8.38
649.014	11.38
649.774	7.38
650.533	9.38
651.292	11.38
652.051	9.38
652.81	10.38
653.569	9.38
654.328	11.38
655.087	8.38
655.846	10.38
656.604	8.38
657.363	9.38
658.121	10.38
658.88	5.38
659.638	9.38
660.397	6.38
661.155	8.38
661.913	5.38
662.671	6.38
663.429	8.38
664.187	8.38
664.945	5.38
665.703	7.38
666.46	5.38
667.218	7.38
667.976	5.38
668.733	7.38
669.49	6.38
670.248	5.38
671.005	6.38
671.762	5.38
672.519	7.38
673.276	5.38
674.033	6.38
674.79	4.38
675.547	4.38
676.304	4.38
677.06	4.38
677.817	5.38
678.574	7.38
679.33	7.38
680.086	5.38
680.843	6.38
681.599	7.38
682.355	6.38
683.111	5.38
683.867	5.38
684.623	4.38
685.379	4.38
686.135	6.38
686.89	5.38
687.646	4.38
688.402	5.38
689.157	4.38
689.912	4.38
690.668	6.38
691.423	3.38
692.178	4.38
692.933	6.38
693.688	5.38
694.443	6.38
695.198	3.38
695.953	4.38
696.708	6.38
697.462	6.38
698.217	6.38
698.972	4.38
699.726	3.38
700.48	4.38
701.235	5.38
701.989	4.38
702.743	3.38
703.497	7.38
704.251	4.38
705.005	5.38
705.759	6.38
706.513	5.38
707.266	6.38
708.02	4.38
708.774	6.38
709.527	4.38
710.28	4.38
711.034	7.38
711.787	3.38
712.54	4.38
713.293	4.38
714.046	5.38
714.799	5.38
715.552	6.38
716.305	4.38
717.058	4.38
717.81	6.38
718.563	4.38
719.315	4.38
720.068	8.38
720.82	5.38
721.573	6.38
722.325	3.38
723.077	5.38
723.829	5.38
724.581	6.38
725.333	6.38
726.085	8.38
726.836	4.38
727.588	5.38
728.34	5.38
729.091	6.38
729.843	4.38
730.594	5.38
731.346	3.38
732.097	7.38
732.848	5.38
733.599	5.38
734.35	7.38
735.101	7.38
735.852	5.38
736.603	3.38
737.354	6.38
738.104	7.38
738.855	7.38
739.605	5.38
740.356	5.38
741.106	9.38
741.856	7.38
742.607	6.38
743.357	7.38
744.107	8.38
744.857	7.38
745.607	8.38
746.357	8.38
747.106	6.38
747.856	7.38
748.606	8.38
749.355	8.38
750.105	7.38
750.854	6.38
751.603	7.38
752.353	7.38
753.102	7.38
753.851	8.38
754.6	8.38
755.349	8.38
756.098	8.38
756.847	8.38
757.595	8.38
758.344	9.38
759.093	11.38
759.841	9.38
760.589	7.38
761.338	6.38
762.086	8.38
762.834	12.38
763.582	9.38
764.331	10.38
765.079	9.38
765.826	9.38
766.574	9.38
767.322	6.38
768.07	11.38
768.817	10.38
769.565	10.38
770.312	10.38
771.06	10.38
771.807	11.38
772.554	8.38
773.302	12.38
774.049	12.38
774.796	11.38
775.543	12.38
776.29	10.38
777.036	12.38
777.783	11.38
778.53	12.38
779.276	13.38
780.023	11.38
780.769	12.38
781.516	9.38
782.262	13.38
783.008	13.38
783.754	14.38
784.5	12.38
785.246	11.38
785.992	12.38
786.738	12.38
787.484	12.38
788.23	11.38
788.975	14.38
789.721	9.38
790.466	11.38
791.212	13.38
791.957	10.38
792.702	11.38
793.447	10.38
794.193	10.38
794.938	11.38
795.683	11.38
796.427	10.38
797.172	12.38
797.917	13.38
798.662	8.38
799.406	10.38
800.151	11.38
800.895	8.38
801.64	13.38
802.384	8.38
803.128	10.38
803.872	10.38
804.616	9.38
805.36	9.38
806.104	8.38
806.848	8.38
807.592	8.38
808.336	8.38
809.079	7.38
809.823	5.38
810.566	7.38
811.31	7.38
812.053	8.38
812.796	6.38
813.539	6.38
814.283	6.38
815.026	6.38
815.769	6.38
816.511	6.38
817.254	4.38
817.997	7.38
818.74	4.38
819.482	7.38
820.225	4.38
820.967	6.38
821.71	4.38
822.452	6.38
823.194	5.38
823.936	5.38
824.678	4.38
825.42	6.38
826.162	4.38
826.904	4.38
827.646	7.38
828.388	6.38
829.129	3.38
829.871	7.38
830.612	4.38
831.354	3.38
832.095	3.38
832.836	6.38
833.577	5.38
834.319	4.38
835.06	3.38
835.801	6.38
836.542	4.38
837.282	4.38
838.023	4.38
838.764	5.38
839.504	4.38
840.245	2.38
840.985	7.38
841.726	3.38
842.466	4.38
843.206	4.38
843.946	4.38
844.687	4.38
845.427	2.38
846.166	4.38
846.906	3.38
847.646	4.38
848.386	4.38
849.125	3.38
849.865	2.38
850.605	1.38
851.344	2.38
852.083	5.38
852.823	3.38
853.562	2.38
854.301	3.38
855.04	4.38
855.779	1.38
856.518	1.38
857.257	4.38
857.995	2.38
858.734	2.38
859.473	2.38
860.211	2.38
860.95	2.38
861.688	2.38
862.426	2.38
863.165	3.38
863.903	2.38
864.641	2.38
865.379	3.38
866.117	2.38
866.855	3.38
867.593	3.38
868.33	0.38
869.068	1.38
869.806	3.38
870.543	2.38
871.28	2.38
872.018	2.38
872.755	1.38
873.492	2.38
874.229	3.38
874.967	2.38
875.703	1.38
876.44	1.38
877.177	0.38
877.914	2.38
878.651	1.38
879.387	1.38
880.124	0.38
880.86	2.38
881.597	1.38
882.333	1.38
883.069	4.38
883.806	1.38
884.542	0.38
885.278	2.38
886.014	1.38
886.749	-0.62
887.485	-0.62
888.221	1.38
888.957	2.38
889.692	0.38
890.428	2.38
891.163	-0.62
891.899	2.38
892.634	-0.62
893.369	1.38
894.104	0.38
894.839	1.38
895.574	3.38
896.309	1.38
897.044	1.38
897.779	2.38
898.514	3.38
899.248	1.38
899.983	-0.62
900.717	2.38
901.452	0.38
902.186	-1.62
902.92	2.38
903.654	-1.62
904.389	-0.62
905.123	-0.62
905.857	0.38
906.59	1.38
907.324	0.38
908.058	2.38
908.792	2.38
909.525	1.38
910.259	-1.62
910.992	2.38
911.726	-1.62
912.459	0.38
913.192	-0.62
913.925	0.38
914.658	0.38
915.391	2.38
916.124	0.38
916.857	3.38
917.59	0.38
918.323	2.38
919.055	0.38
919.788	2.38
920.521	0.38
921.253	0.38
921.985	0.38
922.718	1.38
923.45	0.38
924.182	1.38
924.914	0.38
925.646	1.38
926.378	0.38
927.11	-1.62
927.841	-0.62
928.573	1.38
929.305	1.38
930.036	2.38
930.768	1.38
931.499	-0.62
932.23	3.38
932.962	1.38
933.693	2.38
934.424	2.38
935.155	-0.62
935.886	1.38
936.617	-0.62
937.348	1.38
938.078	-1.62
938.809	0.38
939.54	-0.62
940.27	-0.62
941.001	1.38
941.731	-1.62
942.461	0.38
943.191	0.38
943.922	0.38
944.652	-0.62
945.382	-2.62
946.112	2.38
946.841	-1.62
947.571	1.38
948.301	0.38
949.031	0.38
949.76	-1.62
950.49	-0.62
951.219	0.38
951.948	0.38
952.678	1.38
953.407	-0.62
954.136	0.38
954.865	0.38
955.594	0.38
956.323	-1.62
957.052	1.38
957.78	0.38
958.509	4.38
959.238	-0.62
959.966	1.38
960.695	-0.62
961.423	-0.62
962.151	-1.62
962.88	-1.62
963.608	2.38
964.336	0.38
965.064	-1.62
965.792	0.38
966.52	0.38
967.247	1.38
967.975	-1.62
968.703	1.38
969.43	2.38
970.158	1.38
970.885	1.38
971.613	-2.62
972.34	1.38
973.067	-0.62
973.794	2.38
974.521	1.38
975.248	1.38
975.975	-0.62
976.702	0.38
977.429	2.38
978.156	0.38
978.882	1.38
979.609	1.38
980.335	0.38
981.062	1.38
981.788	-0.62
982.514	0.38
983.24	-0.62
983.967	-2.62
984.693	2.38
985.419	-1.62
986.144	0.38
986.87	-0.62
987.596	2.38
988.322	0.38
989.047	0.38
989.773	1.38
990.498	1.38
991.224	1.38
991.949	1.38
992.674	0.38
993.399	1.38
994.124	0.38
994.849	1.38
995.574	1.38
996.299	1.38
997.024	1.38
997.749	1.38
998.473	-1.62
999.198	0.38
999.922	0.38
1000.647	0.38
1001.371	1.38
1002.095	0.38
1002.82	-2.62
1003.544	0.38
1004.268	2.38
1004.992	2.38
1005.716	2.38
1006.439	2.38
1007.163	2.38
1007.887	3.38
1008.611	-0.62
1009.334	-0.62
1010.058	0.38
1010.781	2.38
1011.504	0.38
1012.228	0.38
1012.951	0.38
1013.674	-0.62
1014.397	0.38
1015.12	0.38
