节点500_425_QEPB04081__520__15-56-57-578.txt的数据

Date: Wed Nov 12 15:56:57 CST 2025
User: PC
Spectrometer: QEPB0408
触发模式: 0
积分时间 (秒): 1.000000E-2
Scans to average: 1
启用暗噪声校正: true
启用非线性校正: false
滑动平均宽度: 0
X轴模式: Wavelengths
Number of Pixels in Spectrum: 1044
>>>>>Begin Spectral Data<<<<<
220.843	0.12
221.644	2.12
222.444	4.12
223.244	1.12
224.045	1.12
224.845	3.12
225.645	4.12
226.445	1.12
227.245	5.12
228.045	4.12
228.845	4.12
229.645	5.12
230.444	5.12
231.244	7.12
232.043	6.12
232.843	5.12
233.642	5.12
234.442	4.12
235.241	7.12
236.04	4.12
236.839	5.12
237.638	9.12
238.437	6.12
239.236	7.12
240.035	7.12
240.833	6.12
241.632	9.12
242.43	8.12
243.229	6.12
244.027	5.12
244.826	10.12
245.624	7.12
246.422	7.12
247.22	8.12
248.018	8.12
248.816	10.12
249.614	8.12
250.412	9.12
251.21	9.12
252.007	10.12
252.805	10.12
253.602	9.12
254.4	11.12
255.197	11.12
255.994	10.12
256.791	10.12
257.589	11.12
258.386	12.12
259.183	11.12
259.979	12.12
260.776	14.12
261.573	13.12
262.37	11.12
263.166	13.12
263.963	16.12
264.759	17.12
265.556	17.12
266.352	15.12
267.148	15.12
267.944	16.12
268.74	20.12
269.536	19.12
270.332	16.12
271.128	17.12
271.924	18.12
272.719	19.12
273.515	20.12
274.311	22.12
275.106	21.12
275.901	19.12
276.697	23.12
277.492	20.12
278.287	23.12
279.082	24.12
279.877	22.12
280.672	23.12
281.467	18.12
282.262	22.12
283.056	23.12
283.851	22.12
284.646	22.12
285.44	26.12
286.234	20.12
287.029	24.12
287.823	24.12
288.617	25.12
289.411	24.12
290.205	22.12
290.999	25.12
291.793	24.12
292.587	22.12
293.381	20.12
294.174	21.12
294.968	22.12
295.761	19.12
296.555	22.12
297.348	18.12
298.141	16.12
298.935	22.12
299.728	16.12
300.521	20.12
301.314	17.12
302.107	18.12
302.899	17.12
303.692	16.12
304.485	17.12
305.277	17.12
306.07	15.12
306.862	14.12
307.655	14.12
308.447	14.12
309.239	14.12
310.031	15.12
310.823	13.12
311.615	13.12
312.407	14.12
313.199	12.12
313.991	10.12
314.783	10.12
315.574	13.12
316.366	11.12
317.157	11.12
317.949	12.12
318.74	9.12
319.531	8.12
320.322	9.12
321.113	11.12
321.904	11.12
322.695	11.12
323.486	10.12
324.277	9.12
325.068	10.12
325.858	9.12
326.649	9.12
327.439	10.12
328.23	10.12
329.02	9.12
329.81	8.12
330.6	10.12
331.391	7.12
332.181	13.12
332.971	7.12
333.76	9.12
334.55	8.12
335.34	7.12
336.13	9.12
336.919	9.12
337.709	4.12
338.498	7.12
339.287	8.12
340.077	8.12
340.866	8.12
341.655	7.12
342.444	7.12
343.233	6.12
344.022	7.12
344.811	7.12
345.6	9.12
346.388	8.12
347.177	5.12
347.965	9.12
348.754	7.12
349.542	8.12
350.33	8.12
351.119	6.12
351.907	7.12
352.695	7.12
353.483	5.12
354.271	6.12
355.059	10.12
355.846	5.12
356.634	8.12
357.422	7.12
358.209	6.12
358.997	6.12
359.784	8.12
360.571	6.12
361.359	8.12
362.146	6.12
362.933	8.12
363.72	7.12
364.507	9.12
365.294	5.12
366.081	4.12
366.867	2.12
367.654	5.12
368.44	6.12
369.227	8.12
370.013	5.12
370.8	6.12
371.586	5.12
372.372	5.12
373.158	6.12
373.944	8.12
374.73	7.12
375.516	6.12
376.302	6.12
377.088	2.12
377.873	6.12
378.659	6.12
379.445	8.12
380.23	5.12
381.015	7.12
381.801	6.12
382.586	6.12
383.371	7.12
384.156	8.12
384.941	6.12
385.726	8.12
386.511	6.12
387.296	5.12
388.08	7.12
388.865	9.12
389.649	8.12
390.434	7.12
391.218	8.12
392.003	6.12
392.787	7.12
393.571	9.12
394.355	6.12
395.139	8.12
395.923	9.12
396.707	8.12
397.491	7.12
398.274	7.12
399.058	7.12
399.842	9.12
400.625	9.12
401.408	6.12
402.192	8.12
402.975	6.12
403.758	10.12
404.541	9.12
405.324	8.12
406.107	11.12
406.89	11.12
407.673	10.12
408.456	9.12
409.238	11.12
410.021	10.12
410.803	9.12
411.586	10.12
412.368	13.12
413.151	7.12
413.933	11.12
414.715	13.12
415.497	13.12
416.279	10.12
417.061	12.12
417.843	14.12
418.624	10.12
419.406	14.12
420.188	13.12
420.969	16.12
421.751	15.12
422.532	15.12
423.313	14.12
424.095	13.12
424.876	15.12
425.657	15.12
426.438	16.12
427.219	15.12
428	18.12
428.78	17.12
429.561	18.12
430.342	19.12
431.122	18.12
431.903	19.12
432.683	20.12
433.464	21.12
434.244	22.12
435.024	25.12
435.804	24.12
436.584	23.12
437.364	27.12
438.144	31.12
438.924	31.12
439.704	38.12
440.483	37.12
441.263	37.12
442.042	38.12
442.822	42.12
443.601	46.12
444.38	49.12
445.16	48.12
445.939	58.12
446.718	60.12
447.497	62.12
448.276	71.12
449.054	76.12
449.833	87.12
450.612	89.12
451.391	102.12
452.169	109.12
452.948	120.12
453.726	129.12
454.504	147.12
455.282	167.12
456.061	176.12
456.839	202.12
457.617	222.12
458.395	250.12
459.172	283.12
459.95	310.12
460.728	340.12
461.506	386.12
462.283	435.12
463.061	474.12
463.838	536.12
464.615	583.12
465.393	662.12
466.17	727.12
466.947	791.12
467.724	886.12
468.501	987.12
469.278	1089.12
470.055	1203.12
470.831	1319.12
471.608	1479.12
472.385	1616.12
473.161	1771.12
473.938	1954.12
474.714	2145.12
475.49	2375.12
476.266	2596.12
477.043	2858.12
477.819	3126.12
478.595	3433.12
479.371	3742.12
480.146	4079.12
480.922	4454.12
481.698	4861.12
482.473	5272.12
483.249	5745.12
484.024	6286.12
484.8	6857.12
485.575	7414.12
486.35	8038.12
487.126	8708.12
487.901	9493.12
488.676	10285.12
489.451	11152.12
490.225	12082.12
491	13029.12
491.775	14079.12
492.55	15119.12
493.324	16218.12
494.099	17334.12
494.873	18513.12
495.647	19780.12
496.422	20993.12
497.196	22212.12
497.97	23634.12
498.744	24938.12
499.518	26170.12
500.292	27344.12
501.066	28457.12
501.839	29537.12
502.613	30489.12
503.387	31287.12
504.16	31955.12
504.934	32455.12
505.707	32716.12
506.48	32806.12
507.253	32849.12
508.027	32681.12
508.8	32383.12
509.573	31991.12
510.346	31354.12
511.118	30717.12
511.891	29897.12
512.664	29003.12
513.437	28027.12
514.209	27061.12
514.982	26249.12
515.754	25182.12
516.526	24173.12
517.298	23165.12
518.071	22251.12
518.843	21391.12
519.615	20515.12
520.387	19736.12
521.159	19000.12
521.93	18248.12
522.702	17496.12
523.474	16858.12
524.245	16225.12
525.017	15465.12
525.788	14719.12
526.56	14129.12
527.331	13549.12
528.102	12888.12
528.873	12300.12
529.644	11765.12
530.415	11308.12
531.186	10757.12
531.957	10224.12
532.728	9656.12
533.498	9186.12
534.269	8693.12
535.039	8253.12
535.81	7818.12
536.58	7403.12
537.351	6981.12
538.121	6581.12
538.891	6237.12
539.661	5878.12
540.431	5568.12
541.201	5299.12
541.971	5030.12
542.741	4749.12
543.51	4526.12
544.28	4322.12
545.05	4075.12
545.819	3885.12
546.588	3728.12
547.358	3503.12
548.127	3337.12
548.896	3186.12
549.665	3017.12
550.434	2872.12
551.203	2704.12
551.972	2581.12
552.741	2427.12
553.51	2316.12
554.278	2190.12
555.047	2052.12
555.815	1951.12
556.584	1845.12
557.352	1728.12
558.121	1642.12
558.889	1538.12
559.657	1488.12
560.425	1393.12
561.193	1304.12
561.961	1236.12
562.729	1182.12
563.496	1111.12
564.264	1055.12
565.032	988.12
565.799	937.12
566.567	896.12
567.334	838.12
568.101	791.12
568.869	741.12
569.636	701.12
570.403	662.12
571.17	627.12
571.937	591.12
572.704	565.12
573.471	524.12
574.237	502.12
575.004	469.12
575.771	438.12
576.537	420.12
577.303	391.12
578.07	376.12
578.836	349.12
579.602	334.12
580.368	316.12
581.134	298.12
581.9	282.12
582.666	267.12
583.432	254.12
584.198	236.12
584.964	229.12
585.729	219.12
586.495	205.12
587.26	196.12
588.025	183.12
588.791	173.12
589.556	163.12
590.321	153.12
591.086	146.12
591.851	138.12
592.616	139.12
593.381	129.12
594.146	122.12
594.911	113.12
595.675	107.12
596.44	107.12
597.204	100.12
597.969	101.12
598.733	91.12
599.497	87.12
600.261	86.12
601.025	82.12
601.79	75.12
602.553	75.12
603.317	73.12
604.081	66.12
604.845	62.12
605.609	65.12
606.372	57.12
607.136	55.12
607.899	54.12
608.662	53.12
609.426	50.12
610.189	46.12
610.952	50.12
611.715	42.12
612.478	45.12
613.241	39.12
614.004	39.12
614.767	38.12
615.529	36.12
616.292	35.12
617.055	33.12
617.817	34.12
618.579	32.12
619.342	30.12
620.104	28.12
620.866	30.12
621.628	29.12
622.39	28.12
623.152	28.12
623.914	25.12
624.676	25.12
625.438	23.12
626.199	22.12
626.961	26.12
627.722	24.12
628.484	20.12
629.245	22.12
630.006	17.12
630.768	20.12
631.529	18.12
632.29	17.12
633.051	16.12
633.812	16.12
634.573	16.12
635.333	15.12
636.094	14.12
636.855	16.12
637.615	14.12
638.376	13.12
639.136	13.12
639.896	14.12
640.657	14.12
641.417	14.12
642.177	13.12
642.937	12.12
643.697	12.12
644.457	10.12
645.216	11.12
645.976	10.12
646.736	9.12
647.495	12.12
648.255	8.12
649.014	10.12
649.774	10.12
650.533	8.12
651.292	9.12
652.051	10.12
652.81	11.12
653.569	7.12
654.328	9.12
655.087	8.12
655.846	8.12
656.604	8.12
657.363	8.12
658.121	9.12
658.88	9.12
659.638	10.12
660.397	8.12
661.155	6.12
661.913	8.12
662.671	4.12
663.429	8.12
664.187	7.12
664.945	6.12
665.703	5.12
666.46	7.12
667.218	9.12
667.976	6.12
668.733	8.12
669.49	3.12
670.248	5.12
671.005	7.12
671.762	4.12
672.519	7.12
673.276	7.12
674.033	4.12
674.79	4.12
675.547	6.12
676.304	3.12
677.06	7.12
677.817	4.12
678.574	4.12
679.33	6.12
680.086	8.12
680.843	4.12
681.599	6.12
682.355	4.12
683.111	3.12
683.867	4.12
684.623	5.12
685.379	5.12
686.135	5.12
686.89	6.12
687.646	3.12
688.402	3.12
689.157	5.12
689.912	4.12
690.668	6.12
691.423	6.12
692.178	5.12
692.933	7.12
693.688	4.12
694.443	4.12
695.198	2.12
695.953	5.12
696.708	4.12
697.462	5.12
698.217	4.12
698.972	2.12
699.726	4.12
700.48	4.12
701.235	4.12
701.989	5.12
702.743	4.12
703.497	3.12
704.251	4.12
705.005	5.12
705.759	4.12
706.513	4.12
707.266	5.12
708.02	3.12
708.774	5.12
709.527	6.12
710.28	6.12
711.034	7.12
711.787	5.12
712.54	6.12
713.293	4.12
714.046	6.12
714.799	4.12
715.552	4.12
716.305	5.12
717.058	3.12
717.81	4.12
718.563	5.12
719.315	3.12
720.068	6.12
720.82	5.12
721.573	7.12
722.325	4.12
723.077	5.12
723.829	5.12
724.581	6.12
725.333	6.12
726.085	6.12
726.836	3.12
727.588	4.12
728.34	5.12
729.091	6.12
729.843	5.12
730.594	5.12
731.346	3.12
732.097	6.12
732.848	4.12
733.599	5.12
734.35	5.12
735.101	6.12
735.852	4.12
736.603	6.12
737.354	4.12
738.104	7.12
738.855	5.12
739.605	5.12
740.356	5.12
741.106	8.12
741.856	7.12
742.607	8.12
743.357	5.12
744.107	5.12
744.857	9.12
745.607	7.12
746.357	6.12
747.106	6.12
747.856	6.12
748.606	5.12
749.355	5.12
750.105	10.12
750.854	9.12
751.603	6.12
752.353	6.12
753.102	6.12
753.851	7.12
754.6	7.12
755.349	8.12
756.098	8.12
756.847	8.12
757.595	7.12
758.344	6.12
759.093	5.12
759.841	8.12
760.589	9.12
761.338	6.12
762.086	6.12
762.834	9.12
763.582	6.12
764.331	9.12
765.079	8.12
765.826	8.12
766.574	9.12
767.322	9.12
768.07	10.12
768.817	10.12
769.565	8.12
770.312	9.12
771.06	10.12
771.807	7.12
772.554	11.12
773.302	11.12
774.049	8.12
774.796	10.12
775.543	11.12
776.29	10.12
777.036	11.12
777.783	9.12
778.53	8.12
779.276	10.12
780.023	11.12
780.769	13.12
781.516	10.12
782.262	10.12
783.008	11.12
783.754	9.12
784.5	12.12
785.246	13.12
785.992	8.12
786.738	10.12
787.484	13.12
788.23	8.12
788.975	11.12
789.721	10.12
790.466	12.12
791.212	11.12
791.957	10.12
792.702	8.12
793.447	10.12
794.193	9.12
794.938	10.12
795.683	11.12
796.427	10.12
797.172	11.12
797.917	8.12
798.662	9.12
799.406	9.12
800.151	12.12
800.895	9.12
801.64	7.12
802.384	10.12
803.128	9.12
803.872	10.12
804.616	7.12
805.36	8.12
806.104	8.12
806.848	7.12
807.592	7.12
808.336	10.12
809.079	8.12
809.823	7.12
810.566	8.12
811.31	9.12
812.053	7.12
812.796	7.12
813.539	6.12
814.283	8.12
815.026	8.12
815.769	5.12
816.511	7.12
817.254	4.12
817.997	7.12
818.74	7.12
819.482	6.12
820.225	4.12
820.967	6.12
821.71	5.12
822.452	5.12
823.194	4.12
823.936	3.12
824.678	7.12
825.42	6.12
826.162	5.12
826.904	5.12
827.646	4.12
828.388	5.12
829.129	7.12
829.871	2.12
830.612	4.12
831.354	4.12
832.095	4.12
832.836	6.12
833.577	3.12
834.319	5.12
835.06	3.12
835.801	5.12
836.542	4.12
837.282	4.12
838.023	5.12
838.764	3.12
839.504	4.12
840.245	5.12
840.985	4.12
841.726	2.12
842.466	5.12
843.206	3.12
843.946	4.12
844.687	4.12
845.427	2.12
846.166	5.12
846.906	3.12
847.646	2.12
848.386	4.12
849.125	4.12
849.865	2.12
850.605	4.12
851.344	4.12
852.083	3.12
852.823	3.12
853.562	1.12
854.301	3.12
855.04	2.12
855.779	3.12
856.518	3.12
857.257	2.12
857.995	1.12
858.734	0.12
859.473	2.12
860.211	2.12
860.95	2.12
861.688	4.12
862.426	1.12
863.165	2.12
863.903	3.12
864.641	1.12
865.379	0.12
866.117	3.12
866.855	2.12
867.593	3.12
868.33	2.12
869.068	1.12
869.806	3.12
870.543	1.12
871.28	4.12
872.018	2.12
872.755	1.12
873.492	0.12
874.229	1.12
874.967	0.12
875.703	1.12
876.44	0.12
877.177	1.12
877.914	0.12
878.651	-0.88
879.387	1.12
880.124	0.12
880.86	-0.88
881.597	0.12
882.333	2.12
883.069	2.12
883.806	5.12
884.542	2.12
885.278	0.12
886.014	2.12
886.749	2.12
887.485	-0.88
888.221	1.12
888.957	2.12
889.692	2.12
890.428	2.12
891.163	2.12
891.899	0.12
892.634	1.12
893.369	1.12
894.104	-0.88
894.839	0.12
895.574	2.12
896.309	1.12
897.044	-0.88
897.779	2.12
898.514	0.12
899.248	2.12
899.983	0.12
900.717	1.12
901.452	3.12
902.186	-0.88
902.92	2.12
903.654	2.12
904.389	0.12
905.123	1.12
905.857	-0.88
906.59	1.12
907.324	2.12
908.058	1.12
908.792	0.12
909.525	-0.88
910.259	0.12
910.992	-0.88
911.726	1.12
912.459	1.12
913.192	-0.88
913.925	1.12
914.658	-0.88
915.391	0.12
916.124	1.12
916.857	0.12
917.59	0.12
918.323	0.12
919.055	-1.88
919.788	0.12
920.521	0.12
921.253	0.12
921.985	1.12
922.718	-0.88
923.45	0.12
924.182	0.12
924.914	1.12
925.646	2.12
926.378	0.12
927.11	-0.88
927.841	0.12
928.573	0.12
929.305	1.12
930.036	-1.88
930.768	0.12
931.499	1.12
932.23	0.12
932.962	-0.88
933.693	0.12
934.424	0.12
935.155	2.12
935.886	-2.88
936.617	-0.88
937.348	-1.88
938.078	0.12
938.809	-1.88
939.54	-0.88
940.27	0.12
941.001	-0.88
941.731	2.12
942.461	-0.88
943.191	0.12
943.922	2.12
944.652	0.12
945.382	2.12
946.112	-2.88
946.841	1.12
947.571	0.12
948.301	0.12
949.031	2.12
949.76	2.12
950.49	0.12
951.219	1.12
951.948	2.12
952.678	-1.88
953.407	0.12
954.136	2.12
954.865	0.12
955.594	-1.88
956.323	1.12
957.052	-0.88
957.78	1.12
958.509	0.12
959.238	0.12
959.966	-0.88
960.695	0.12
961.423	0.12
962.151	-1.88
962.88	1.12
963.608	-2.88
964.336	0.12
965.064	0.12
965.792	-0.88
966.52	0.12
967.247	-0.88
967.975	0.12
968.703	-0.88
969.43	1.12
970.158	-0.88
970.885	0.12
971.613	1.12
972.34	0.12
973.067	1.12
973.794	1.12
974.521	1.12
975.248	0.12
975.975	2.12
976.702	0.12
977.429	0.12
978.156	-1.88
978.882	2.12
979.609	2.12
980.335	-0.88
981.062	0.12
981.788	0.12
982.514	2.12
983.24	-1.88
983.967	0.12
984.693	-0.88
985.419	1.12
986.144	1.12
986.87	0.12
987.596	0.12
988.322	0.12
989.047	1.12
989.773	-0.88
990.498	1.12
991.224	1.12
991.949	-0.88
992.674	0.12
993.399	1.12
994.124	0.12
994.849	0.12
995.574	0.12
996.299	-1.88
997.024	0.12
997.749	1.12
998.473	-0.88
999.198	0.12
999.922	0.12
1000.647	0.12
1001.371	4.12
1002.095	-1.88
1002.82	-0.88
1003.544	-0.88
1004.268	4.12
1004.992	2.12
1005.716	4.12
1006.439	3.12
1007.163	3.12
1007.887	5.12
1008.611	2.12
1009.334	1.12
1010.058	0.12
1010.781	0.12
1011.504	-0.88
1012.228	0.12
1012.951	0.12
1013.674	-0.88
1014.397	-0.88
1015.12	1.12
