节点500_425_QEPB04081__480__15-56-17-568.txt的数据

Date: Wed Nov 12 15:56:17 CST 2025
User: PC
Spectrometer: QEPB0408
触发模式: 0
积分时间 (秒): 1.000000E-2
Scans to average: 1
启用暗噪声校正: true
启用非线性校正: false
滑动平均宽度: 0
X轴模式: Wavelengths
Number of Pixels in Spectrum: 1044
>>>>>Begin Spectral Data<<<<<
220.843	2.5
221.644	2.5
222.444	4.5
223.244	0.5
224.045	3.5
224.845	2.5
225.645	3.5
226.445	2.5
227.245	2.5
228.045	6.5
228.845	3.5
229.645	4.5
230.444	5.5
231.244	5.5
232.043	4.5
232.843	5.5
233.642	6.5
234.442	3.5
235.241	5.5
236.04	4.5
236.839	6.5
237.638	4.5
238.437	7.5
239.236	5.5
240.035	5.5
240.833	7.5
241.632	7.5
242.43	6.5
243.229	7.5
244.027	5.5
244.826	7.5
245.624	8.5
246.422	6.5
247.22	7.5
248.018	5.5
248.816	8.5
249.614	9.5
250.412	11.5
251.21	10.5
252.007	8.5
252.805	10.5
253.602	9.5
254.4	12.5
255.197	10.5
255.994	10.5
256.791	10.5
257.589	13.5
258.386	12.5
259.183	12.5
259.979	12.5
260.776	16.5
261.573	13.5
262.37	14.5
263.166	15.5
263.963	15.5
264.759	15.5
265.556	14.5
266.352	14.5
267.148	17.5
267.944	17.5
268.74	17.5
269.536	21.5
270.332	20.5
271.128	19.5
271.924	19.5
272.719	19.5
273.515	20.5
274.311	20.5
275.106	22.5
275.901	22.5
276.697	23.5
277.492	24.5
278.287	22.5
279.082	22.5
279.877	25.5
280.672	22.5
281.467	25.5
282.262	23.5
283.056	24.5
283.851	23.5
284.646	22.5
285.44	22.5
286.234	21.5
287.029	24.5
287.823	22.5
288.617	24.5
289.411	19.5
290.205	22.5
290.999	24.5
291.793	22.5
292.587	23.5
293.381	22.5
294.174	23.5
294.968	20.5
295.761	17.5
296.555	21.5
297.348	18.5
298.141	16.5
298.935	20.5
299.728	19.5
300.521	18.5
301.314	17.5
302.107	18.5
302.899	18.5
303.692	18.5
304.485	17.5
305.277	16.5
306.07	18.5
306.862	13.5
307.655	16.5
308.447	16.5
309.239	14.5
310.031	16.5
310.823	13.5
311.615	14.5
312.407	12.5
313.199	11.5
313.991	14.5
314.783	14.5
315.574	10.5
316.366	13.5
317.157	10.5
317.949	9.5
318.74	11.5
319.531	9.5
320.322	9.5
321.113	11.5
321.904	10.5
322.695	10.5
323.486	9.5
324.277	8.5
325.068	11.5
325.858	8.5
326.649	9.5
327.439	8.5
328.23	8.5
329.02	8.5
329.81	8.5
330.6	9.5
331.391	9.5
332.181	11.5
332.971	8.5
333.76	8.5
334.55	7.5
335.34	5.5
336.13	8.5
336.919	8.5
337.709	9.5
338.498	8.5
339.287	7.5
340.077	9.5
340.866	6.5
341.655	6.5
342.444	8.5
343.233	8.5
344.022	8.5
344.811	6.5
345.6	8.5
346.388	7.5
347.177	10.5
347.965	7.5
348.754	5.5
349.542	7.5
350.33	8.5
351.119	9.5
351.907	10.5
352.695	7.5
353.483	6.5
354.271	9.5
355.059	6.5
355.846	6.5
356.634	7.5
357.422	7.5
358.209	6.5
358.997	10.5
359.784	7.5
360.571	8.5
361.359	6.5
362.146	9.5
362.933	6.5
363.72	8.5
364.507	7.5
365.294	6.5
366.081	4.5
366.867	7.5
367.654	5.5
368.44	7.5
369.227	4.5
370.013	6.5
370.8	5.5
371.586	4.5
372.372	7.5
373.158	5.5
373.944	6.5
374.73	5.5
375.516	9.5
376.302	6.5
377.088	4.5
377.873	5.5
378.659	6.5
379.445	7.5
380.23	7.5
381.015	6.5
381.801	9.5
382.586	7.5
383.371	6.5
384.156	8.5
384.941	9.5
385.726	9.5
386.511	7.5
387.296	9.5
388.08	8.5
388.865	9.5
389.649	6.5
390.434	9.5
391.218	6.5
392.003	9.5
392.787	6.5
393.571	10.5
394.355	7.5
395.139	8.5
395.923	7.5
396.707	8.5
397.491	8.5
398.274	9.5
399.058	8.5
399.842	7.5
400.625	9.5
401.408	8.5
402.192	10.5
402.975	8.5
403.758	10.5
404.541	8.5
405.324	8.5
406.107	9.5
406.89	10.5
407.673	10.5
408.456	9.5
409.238	8.5
410.021	10.5
410.803	11.5
411.586	11.5
412.368	12.5
413.151	11.5
413.933	11.5
414.715	9.5
415.497	11.5
416.279	13.5
417.061	11.5
417.843	14.5
418.624	12.5
419.406	10.5
420.188	13.5
420.969	16.5
421.751	13.5
422.532	16.5
423.313	13.5
424.095	13.5
424.876	14.5
425.657	15.5
426.438	18.5
427.219	18.5
428	15.5
428.78	15.5
429.561	16.5
430.342	20.5
431.122	20.5
431.903	18.5
432.683	21.5
433.464	23.5
434.244	23.5
435.024	22.5
435.804	27.5
436.584	25.5
437.364	27.5
438.144	29.5
438.924	30.5
439.704	32.5
440.483	33.5
441.263	34.5
442.042	38.5
442.822	43.5
443.601	46.5
444.38	46.5
445.16	53.5
445.939	57.5
446.718	57.5
447.497	62.5
448.276	66.5
449.054	76.5
449.833	85.5
450.612	87.5
451.391	100.5
452.169	105.5
452.948	121.5
453.726	140.5
454.504	148.5
455.282	162.5
456.061	181.5
456.839	202.5
457.617	222.5
458.395	249.5
459.172	270.5
459.95	308.5
460.728	337.5
461.506	380.5
462.283	416.5
463.061	476.5
463.838	530.5
464.615	587.5
465.393	640.5
466.17	715.5
466.947	805.5
467.724	885.5
468.501	981.5
469.278	1083.5
470.055	1208.5
470.831	1341.5
471.608	1462.5
472.385	1622.5
473.161	1788.5
473.938	1972.5
474.714	2182.5
475.49	2389.5
476.266	2617.5
477.043	2866.5
477.819	3159.5
478.595	3440.5
479.371	3797.5
480.146	4130.5
480.922	4481.5
481.698	4934.5
482.473	5396.5
483.249	5867.5
484.024	6374.5
484.8	6984.5
485.575	7556.5
486.35	8218.5
487.126	8913.5
487.901	9696.5
488.676	10516.5
489.451	11412.5
490.225	12324.5
491	13348.5
491.775	14411.5
492.55	15486.5
493.324	16653.5
494.099	17819.5
494.873	19082.5
495.647	20353.5
496.422	21589.5
497.196	22914.5
497.97	24320.5
498.744	25606.5
499.518	26965.5
500.292	28084.5
501.066	29102.5
501.839	30325.5
502.613	31273.5
503.387	32100.5
504.16	32687.5
504.934	33220.5
505.707	33367.5
506.48	33402.5
507.253	33352.5
508.027	33188.5
508.8	32876.5
509.573	32334.5
510.346	31767.5
511.118	30959.5
511.891	30170.5
512.664	29182.5
513.437	28179.5
514.209	27116.5
514.982	26223.5
515.754	25302.5
516.526	24212.5
517.298	23251.5
518.071	22210.5
518.843	21343.5
519.615	20453.5
520.387	19675.5
521.159	18912.5
521.93	18231.5
522.702	17490.5
523.474	16833.5
524.245	16182.5
525.017	15390.5
525.788	14732.5
526.56	14082.5
527.331	13495.5
528.102	12926.5
528.873	12283.5
529.644	11717.5
530.415	11191.5
531.186	10680.5
531.957	10153.5
532.728	9613.5
533.498	9088.5
534.269	8621.5
535.039	8185.5
535.81	7725.5
536.58	7297.5
537.351	6905.5
538.121	6523.5
538.891	6162.5
539.661	5863.5
540.431	5533.5
541.201	5236.5
541.971	4974.5
542.741	4733.5
543.51	4474.5
544.28	4279.5
545.05	4048.5
545.819	3883.5
546.588	3670.5
547.358	3480.5
548.127	3286.5
548.896	3116.5
549.665	2989.5
550.434	2853.5
551.203	2687.5
551.972	2540.5
552.741	2410.5
553.51	2299.5
554.278	2152.5
555.047	2057.5
555.815	1924.5
556.584	1830.5
557.352	1711.5
558.121	1630.5
558.889	1524.5
559.657	1442.5
560.425	1377.5
561.193	1301.5
561.961	1226.5
562.729	1170.5
563.496	1096.5
564.264	1039.5
565.032	992.5
565.799	931.5
566.567	870.5
567.334	820.5
568.101	780.5
568.869	753.5
569.636	697.5
570.403	657.5
571.17	615.5
571.937	585.5
572.704	555.5
573.471	519.5
574.237	493.5
575.004	458.5
575.771	439.5
576.537	406.5
577.303	392.5
578.07	362.5
578.836	335.5
579.602	322.5
580.368	308.5
581.134	294.5
581.9	281.5
582.666	264.5
583.432	249.5
584.198	233.5
584.964	224.5
585.729	214.5
586.495	200.5
587.26	193.5
588.025	182.5
588.791	172.5
589.556	165.5
590.321	158.5
591.086	146.5
591.851	137.5
592.616	131.5
593.381	124.5
594.146	122.5
594.911	111.5
595.675	108.5
596.44	102.5
597.204	98.5
597.969	98.5
598.733	88.5
599.497	89.5
600.261	83.5
601.025	82.5
601.79	77.5
602.553	68.5
603.317	70.5
604.081	67.5
604.845	62.5
605.609	62.5
606.372	60.5
607.136	55.5
607.899	56.5
608.662	55.5
609.426	48.5
610.189	47.5
610.952	47.5
611.715	41.5
612.478	45.5
613.241	41.5
614.004	39.5
614.767	38.5
615.529	39.5
616.292	36.5
617.055	34.5
617.817	35.5
618.579	33.5
619.342	31.5
620.104	30.5
620.866	26.5
621.628	27.5
622.39	28.5
623.152	26.5
623.914	27.5
624.676	26.5
625.438	23.5
626.199	25.5
626.961	22.5
627.722	20.5
628.484	22.5
629.245	20.5
630.006	18.5
630.768	20.5
631.529	17.5
632.29	20.5
633.051	16.5
633.812	16.5
634.573	19.5
635.333	14.5
636.094	16.5
636.855	12.5
637.615	16.5
638.376	16.5
639.136	13.5
639.896	14.5
640.657	14.5
641.417	13.5
642.177	11.5
642.937	14.5
643.697	10.5
644.457	9.5
645.216	11.5
645.976	12.5
646.736	13.5
647.495	12.5
648.255	10.5
649.014	10.5
649.774	12.5
650.533	9.5
651.292	10.5
652.051	7.5
652.81	9.5
653.569	7.5
654.328	9.5
655.087	8.5
655.846	9.5
656.604	9.5
657.363	6.5
658.121	7.5
658.88	8.5
659.638	8.5
660.397	7.5
661.155	5.5
661.913	10.5
662.671	8.5
663.429	6.5
664.187	5.5
664.945	6.5
665.703	7.5
666.46	9.5
667.218	7.5
667.976	6.5
668.733	5.5
669.49	7.5
670.248	7.5
671.005	5.5
671.762	5.5
672.519	6.5
673.276	5.5
674.033	6.5
674.79	4.5
675.547	7.5
676.304	9.5
677.06	5.5
677.817	6.5
678.574	5.5
679.33	5.5
680.086	4.5
680.843	3.5
681.599	7.5
682.355	3.5
683.111	4.5
683.867	4.5
684.623	5.5
685.379	5.5
686.135	4.5
686.89	4.5
687.646	4.5
688.402	5.5
689.157	5.5
689.912	5.5
690.668	4.5
691.423	4.5
692.178	6.5
692.933	5.5
693.688	4.5
694.443	7.5
695.198	5.5
695.953	4.5
696.708	4.5
697.462	5.5
698.217	4.5
698.972	4.5
699.726	7.5
700.48	5.5
701.235	5.5
701.989	4.5
702.743	2.5
703.497	4.5
704.251	5.5
705.005	5.5
705.759	5.5
706.513	5.5
707.266	5.5
708.02	7.5
708.774	4.5
709.527	3.5
710.28	6.5
711.034	5.5
711.787	8.5
712.54	4.5
713.293	4.5
714.046	6.5
714.799	5.5
715.552	4.5
716.305	7.5
717.058	5.5
717.81	5.5
718.563	6.5
719.315	6.5
720.068	3.5
720.82	4.5
721.573	6.5
722.325	5.5
723.077	4.5
723.829	5.5
724.581	6.5
725.333	4.5
726.085	7.5
726.836	3.5
727.588	5.5
728.34	5.5
729.091	6.5
729.843	7.5
730.594	4.5
731.346	6.5
732.097	3.5
732.848	6.5
733.599	3.5
734.35	8.5
735.101	4.5
735.852	6.5
736.603	6.5
737.354	5.5
738.104	5.5
738.855	7.5
739.605	8.5
740.356	7.5
741.106	3.5
741.856	4.5
742.607	7.5
743.357	8.5
744.107	6.5
744.857	7.5
745.607	6.5
746.357	6.5
747.106	6.5
747.856	6.5
748.606	9.5
749.355	7.5
750.105	5.5
750.854	8.5
751.603	7.5
752.353	6.5
753.102	6.5
753.851	7.5
754.6	9.5
755.349	5.5
756.098	6.5
756.847	7.5
757.595	8.5
758.344	5.5
759.093	5.5
759.841	6.5
760.589	7.5
761.338	8.5
762.086	8.5
762.834	7.5
763.582	8.5
764.331	10.5
765.079	8.5
765.826	8.5
766.574	9.5
767.322	9.5
768.07	10.5
768.817	9.5
769.565	10.5
770.312	7.5
771.06	11.5
771.807	10.5
772.554	8.5
773.302	8.5
774.049	10.5
774.796	9.5
775.543	9.5
776.29	9.5
777.036	11.5
777.783	11.5
778.53	9.5
779.276	11.5
780.023	9.5
780.769	13.5
781.516	12.5
782.262	11.5
783.008	11.5
783.754	9.5
784.5	11.5
785.246	10.5
785.992	9.5
786.738	11.5
787.484	12.5
788.23	11.5
788.975	10.5
789.721	11.5
790.466	10.5
791.212	9.5
791.957	8.5
792.702	10.5
793.447	10.5
794.193	11.5
794.938	13.5
795.683	9.5
796.427	9.5
797.172	11.5
797.917	9.5
798.662	10.5
799.406	12.5
800.151	8.5
800.895	10.5
801.64	10.5
802.384	11.5
803.128	10.5
803.872	9.5
804.616	6.5
805.36	7.5
806.104	8.5
806.848	8.5
807.592	7.5
808.336	9.5
809.079	6.5
809.823	9.5
810.566	6.5
811.31	7.5
812.053	6.5
812.796	10.5
813.539	7.5
814.283	5.5
815.026	8.5
815.769	6.5
816.511	6.5
817.254	4.5
817.997	5.5
818.74	5.5
819.482	6.5
820.225	6.5
820.967	3.5
821.71	8.5
822.452	7.5
823.194	6.5
823.936	4.5
824.678	4.5
825.42	6.5
826.162	7.5
826.904	4.5
827.646	7.5
828.388	5.5
829.129	6.5
829.871	4.5
830.612	6.5
831.354	4.5
832.095	5.5
832.836	5.5
833.577	2.5
834.319	5.5
835.06	3.5
835.801	2.5
836.542	2.5
837.282	4.5
838.023	3.5
838.764	3.5
839.504	4.5
840.245	5.5
840.985	3.5
841.726	4.5
842.466	3.5
843.206	7.5
843.946	4.5
844.687	4.5
845.427	6.5
846.166	3.5
846.906	4.5
847.646	4.5
848.386	4.5
849.125	4.5
849.865	3.5
850.605	6.5
851.344	4.5
852.083	5.5
852.823	0.5
853.562	3.5
854.301	3.5
855.04	4.5
855.779	4.5
856.518	5.5
857.257	2.5
857.995	2.5
858.734	2.5
859.473	3.5
860.211	1.5
860.95	5.5
861.688	2.5
862.426	2.5
863.165	3.5
863.903	4.5
864.641	1.5
865.379	3.5
866.117	3.5
866.855	1.5
867.593	1.5
868.33	4.5
869.068	1.5
869.806	4.5
870.543	1.5
871.28	1.5
872.018	2.5
872.755	1.5
873.492	3.5
874.229	2.5
874.967	0.5
875.703	2.5
876.44	3.5
877.177	3.5
877.914	1.5
878.651	3.5
879.387	1.5
880.124	4.5
880.86	1.5
881.597	2.5
882.333	1.5
883.069	2.5
883.806	1.5
884.542	0.5
885.278	-0.5
886.014	-1.5
886.749	1.5
887.485	2.5
888.221	0.5
888.957	0.5
889.692	-0.5
890.428	-1.5
891.163	1.5
891.899	1.5
892.634	1.5
893.369	3.5
894.104	0.5
894.839	1.5
895.574	0.5
896.309	2.5
897.044	0.5
897.779	0.5
898.514	-1.5
899.248	1.5
899.983	1.5
900.717	-1.5
901.452	0.5
902.186	-0.5
902.92	-0.5
903.654	-0.5
904.389	0.5
905.123	2.5
905.857	-0.5
906.59	2.5
907.324	2.5
908.058	0.5
908.792	1.5
909.525	1.5
910.259	1.5
910.992	1.5
911.726	2.5
912.459	0.5
913.192	0.5
913.925	-0.5
914.658	-1.5
915.391	-1.5
916.124	0.5
916.857	1.5
917.59	2.5
918.323	0.5
919.055	2.5
919.788	0.5
920.521	1.5
921.253	0.5
921.985	-0.5
922.718	-1.5
923.45	-0.5
924.182	-0.5
924.914	0.5
925.646	0.5
926.378	1.5
927.11	0.5
927.841	1.5
928.573	0.5
929.305	0.5
930.036	-1.5
930.768	-0.5
931.499	1.5
932.23	-0.5
932.962	1.5
933.693	2.5
934.424	1.5
935.155	-0.5
935.886	-0.5
936.617	2.5
937.348	0.5
938.078	-1.5
938.809	-0.5
939.54	0.5
940.27	2.5
941.001	0.5
941.731	1.5
942.461	2.5
943.191	0.5
943.922	0.5
944.652	2.5
945.382	1.5
946.112	-2.5
946.841	0.5
947.571	0.5
948.301	0.5
949.031	-1.5
949.76	0.5
950.49	2.5
951.219	0.5
951.948	1.5
952.678	2.5
953.407	-0.5
954.136	0.5
954.865	1.5
955.594	1.5
956.323	1.5
957.052	1.5
957.78	0.5
958.509	-0.5
959.238	1.5
959.966	0.5
960.695	0.5
961.423	-0.5
962.151	-0.5
962.88	-0.5
963.608	0.5
964.336	-1.5
965.064	1.5
965.792	0.5
966.52	-0.5
967.247	-1.5
967.975	-0.5
968.703	0.5
969.43	2.5
970.158	-0.5
970.885	1.5
971.613	0.5
972.34	-0.5
973.067	0.5
973.794	-0.5
974.521	1.5
975.248	0.5
975.975	-2.5
976.702	2.5
977.429	1.5
978.156	-0.5
978.882	1.5
979.609	1.5
980.335	0.5
981.062	-1.5
981.788	0.5
982.514	-0.5
983.24	1.5
983.967	-0.5
984.693	0.5
985.419	0.5
986.144	-0.5
986.87	1.5
987.596	1.5
988.322	1.5
989.047	2.5
989.773	-0.5
990.498	0.5
991.224	0.5
991.949	-0.5
992.674	1.5
993.399	-0.5
994.124	0.5
994.849	-2.5
995.574	0.5
996.299	0.5
997.024	-0.5
997.749	0.5
998.473	1.5
999.198	0.5
999.922	0.5
1000.647	2.5
1001.371	4.5
1002.095	-1.5
1002.82	-0.5
1003.544	-1.5
1004.268	5.5
1004.992	2.5
1005.716	2.5
1006.439	3.5
1007.163	1.5
1007.887	4.5
1008.611	1.5
1009.334	-0.5
1010.058	1.5
1010.781	1.5
1011.504	0.5
1012.228	2.5
1012.951	0.5
1013.674	-0.5
1014.397	-0.5
1015.12	-0.5
