节点500_425_QEPB04081__460__15-55-57-587.txt的数据

Date: Wed Nov 12 15:55:57 CST 2025
User: PC
Spectrometer: QEPB0408
触发模式: 0
积分时间 (秒): 1.000000E-2
Scans to average: 1
启用暗噪声校正: true
启用非线性校正: false
滑动平均宽度: 0
X轴模式: Wavelengths
Number of Pixels in Spectrum: 1044
>>>>>Begin Spectral Data<<<<<
220.843	2
221.644	0
222.444	4
223.244	3
224.045	4
224.845	1
225.645	5
226.445	5
227.245	1
228.045	4
228.845	5
229.645	5
230.444	4
231.244	5
232.043	6
232.843	4
233.642	4
234.442	7
235.241	3
236.04	7
236.839	3
237.638	4
238.437	5
239.236	5
240.035	6
240.833	7
241.632	8
242.43	6
243.229	5
244.027	8
244.826	6
245.624	10
246.422	7
247.22	10
248.018	10
248.816	10
249.614	8
250.412	7
251.21	8
252.007	12
252.805	11
253.602	10
254.4	9
255.197	10
255.994	9
256.791	12
257.589	12
258.386	11
259.183	13
259.979	13
260.776	12
261.573	10
262.37	15
263.166	14
263.963	16
264.759	16
265.556	16
266.352	19
267.148	18
267.944	18
268.74	17
269.536	20
270.332	19
271.128	21
271.924	20
272.719	20
273.515	19
274.311	22
275.106	23
275.901	22
276.697	21
277.492	23
278.287	20
279.082	23
279.877	23
280.672	20
281.467	22
282.262	23
283.056	20
283.851	26
284.646	25
285.44	26
286.234	24
287.029	24
287.823	23
288.617	24
289.411	23
290.205	23
290.999	22
291.793	26
292.587	21
293.381	20
294.174	19
294.968	22
295.761	19
296.555	20
297.348	17
298.141	19
298.935	20
299.728	16
300.521	19
301.314	18
302.107	17
302.899	16
303.692	14
304.485	16
305.277	15
306.07	16
306.862	16
307.655	14
308.447	16
309.239	14
310.031	14
310.823	14
311.615	14
312.407	13
313.199	10
313.991	11
314.783	12
315.574	12
316.366	10
317.157	10
317.949	8
318.74	12
319.531	13
320.322	13
321.113	8
321.904	12
322.695	10
323.486	8
324.277	9
325.068	9
325.858	7
326.649	7
327.439	11
328.23	9
329.02	10
329.81	10
330.6	7
331.391	7
332.181	8
332.971	11
333.76	8
334.55	7
335.34	6
336.13	10
336.919	10
337.709	8
338.498	9
339.287	8
340.077	6
340.866	7
341.655	8
342.444	9
343.233	7
344.022	7
344.811	8
345.6	6
346.388	7
347.177	8
347.965	10
348.754	7
349.542	8
350.33	8
351.119	8
351.907	5
352.695	7
353.483	8
354.271	7
355.059	6
355.846	6
356.634	5
357.422	8
358.209	6
358.997	8
359.784	6
360.571	6
361.359	8
362.146	9
362.933	4
363.72	5
364.507	7
365.294	6
366.081	4
366.867	6
367.654	7
368.44	6
369.227	8
370.013	6
370.8	5
371.586	8
372.372	5
373.158	6
373.944	8
374.73	6
375.516	6
376.302	9
377.088	7
377.873	6
378.659	6
379.445	6
380.23	8
381.015	7
381.801	7
382.586	6
383.371	4
384.156	6
384.941	7
385.726	8
386.511	7
387.296	7
388.08	8
388.865	8
389.649	9
390.434	6
391.218	6
392.003	8
392.787	8
393.571	8
394.355	7
395.139	10
395.923	9
396.707	8
397.491	9
398.274	8
399.058	10
399.842	9
400.625	10
401.408	9
402.192	9
402.975	8
403.758	11
404.541	12
405.324	11
406.107	10
406.89	11
407.673	12
408.456	9
409.238	8
410.021	10
410.803	13
411.586	12
412.368	11
413.151	10
413.933	10
414.715	13
415.497	14
416.279	12
417.061	13
417.843	15
418.624	10
419.406	13
420.188	15
420.969	13
421.751	13
422.532	16
423.313	16
424.095	16
424.876	14
425.657	14
426.438	17
427.219	18
428	17
428.78	19
429.561	20
430.342	18
431.122	19
431.903	22
432.683	22
433.464	21
434.244	22
435.024	24
435.804	23
436.584	26
437.364	25
438.144	28
438.924	31
439.704	30
440.483	33
441.263	38
442.042	39
442.822	40
443.601	43
444.38	44
445.16	46
445.939	55
446.718	57
447.497	62
448.276	66
449.054	75
449.833	83
450.612	87
451.391	104
452.169	109
452.948	117
453.726	133
454.504	146
455.282	159
456.061	181
456.839	193
457.617	221
458.395	242
459.172	272
459.95	307
460.728	339
461.506	377
462.283	426
463.061	473
463.838	518
464.615	583
465.393	629
466.17	719
466.947	796
467.724	890
468.501	972
469.278	1102
470.055	1195
470.831	1309
471.608	1469
472.385	1629
473.161	1786
473.938	1958
474.714	2163
475.49	2364
476.266	2589
477.043	2842
477.819	3122
478.595	3444
479.371	3761
480.146	4111
480.922	4491
481.698	4909
482.473	5363
483.249	5853
484.024	6378
484.8	7012
485.575	7599
486.35	8235
487.126	8924
487.901	9736
488.676	10548
489.451	11448
490.225	12398
491	13346
491.775	14538
492.55	15598
493.324	16811
494.099	17938
494.873	19166
495.647	20497
496.422	21768
497.196	23048
497.97	24469
498.744	25827
499.518	27056
500.292	28255
501.066	29366
501.839	30485
502.613	31451
503.387	32216
504.16	32866
504.934	33299
505.707	33465
506.48	33561
507.253	33440
508.027	33206
508.8	32901
509.573	32447
510.346	31697
511.118	30963
511.891	30139
512.664	29138
513.437	28160
514.209	27122
514.982	26146
515.754	25182
516.526	24131
517.298	23108
518.071	22136
518.843	21276
519.615	20388
520.387	19604
521.159	18892
521.93	18143
522.702	17408
523.474	16792
524.245	16088
525.017	15393
525.788	14671
526.56	14059
527.331	13386
528.102	12858
528.873	12229
529.644	11666
530.415	11140
531.186	10649
531.957	10105
532.728	9583
533.498	9043
534.269	8558
535.039	8139
535.81	7686
536.58	7264
537.351	6856
538.121	6496
538.891	6139
539.661	5819
540.431	5546
541.201	5221
541.971	4961
542.741	4711
543.51	4459
544.28	4249
545.05	4046
545.819	3842
546.588	3669
547.358	3454
548.127	3279
548.896	3122
549.665	2960
550.434	2826
551.203	2679
551.972	2536
552.741	2395
553.51	2260
554.278	2131
555.047	2012
555.815	1909
556.584	1811
557.352	1704
558.121	1608
558.889	1521
559.657	1436
560.425	1364
561.193	1274
561.961	1208
562.729	1154
563.496	1083
564.264	1020
565.032	973
565.799	909
566.567	872
567.334	817
568.101	768
568.869	732
569.636	684
570.403	644
571.17	616
571.937	571
572.704	554
573.471	518
574.237	494
575.004	458
575.771	422
576.537	401
577.303	382
578.07	370
578.836	336
579.602	320
580.368	304
581.134	296
581.9	280
582.666	259
583.432	251
584.198	232
584.964	230
585.729	212
586.495	205
587.26	196
588.025	179
588.791	169
589.556	165
590.321	157
591.086	150
591.851	131
592.616	129
593.381	126
594.146	121
594.911	117
595.675	107
596.44	100
597.204	95
597.969	96
598.733	88
599.497	86
600.261	81
601.025	78
601.79	76
602.553	72
603.317	70
604.081	66
604.845	66
605.609	61
606.372	55
607.136	58
607.899	55
608.662	55
609.426	51
610.189	48
610.952	48
611.715	43
612.478	42
613.241	41
614.004	35
614.767	40
615.529	38
616.292	34
617.055	34
617.817	31
618.579	33
619.342	27
620.104	29
620.866	30
621.628	30
622.39	26
623.152	25
623.914	27
624.676	24
625.438	25
626.199	23
626.961	22
627.722	22
628.484	20
629.245	20
630.006	16
630.768	22
631.529	18
632.29	18
633.051	16
633.812	15
634.573	14
635.333	14
636.094	16
636.855	16
637.615	12
638.376	17
639.136	14
639.896	15
640.657	14
641.417	13
642.177	12
642.937	13
643.697	12
644.457	10
645.216	13
645.976	12
646.736	10
647.495	9
648.255	9
649.014	10
649.774	9
650.533	9
651.292	8
652.051	7
652.81	9
653.569	8
654.328	7
655.087	6
655.846	8
656.604	8
657.363	7
658.121	9
658.88	10
659.638	8
660.397	8
661.155	8
661.913	7
662.671	7
663.429	9
664.187	6
664.945	5
665.703	8
666.46	6
667.218	8
667.976	5
668.733	5
669.49	5
670.248	7
671.005	7
671.762	8
672.519	7
673.276	4
674.033	4
674.79	6
675.547	6
676.304	7
677.06	6
677.817	3
678.574	8
679.33	6
680.086	6
680.843	6
681.599	3
682.355	7
683.111	5
683.867	6
684.623	5
685.379	5
686.135	5
686.89	6
687.646	6
688.402	2
689.157	4
689.912	4
690.668	8
691.423	4
692.178	7
692.933	4
693.688	1
694.443	5
695.198	5
695.953	6
696.708	6
697.462	4
698.217	4
698.972	3
699.726	5
700.48	3
701.235	6
701.989	4
702.743	6
703.497	3
704.251	5
705.005	5
705.759	6
706.513	5
707.266	4
708.02	4
708.774	4
709.527	3
710.28	4
711.034	5
711.787	5
712.54	5
713.293	4
714.046	4
714.799	5
715.552	6
716.305	5
717.058	2
717.81	6
718.563	4
719.315	4
720.068	7
720.82	3
721.573	4
722.325	4
723.077	6
723.829	4
724.581	3
725.333	5
726.085	6
726.836	6
727.588	5
728.34	6
729.091	7
729.843	5
730.594	6
731.346	4
732.097	4
732.848	6
733.599	5
734.35	7
735.101	7
735.852	7
736.603	4
737.354	8
738.104	6
738.855	5
739.605	8
740.356	8
741.106	6
741.856	5
742.607	6
743.357	8
744.107	5
744.857	7
745.607	7
746.357	5
747.106	5
747.856	7
748.606	4
749.355	8
750.105	7
750.854	7
751.603	5
752.353	5
753.102	8
753.851	7
754.6	7
755.349	8
756.098	7
756.847	6
757.595	8
758.344	8
759.093	9
759.841	10
760.589	7
761.338	7
762.086	6
762.834	9
763.582	9
764.331	4
765.079	7
765.826	8
766.574	7
767.322	7
768.07	8
768.817	9
769.565	10
770.312	9
771.06	8
771.807	8
772.554	10
773.302	12
774.049	10
774.796	8
775.543	12
776.29	10
777.036	10
777.783	13
778.53	8
779.276	11
780.023	9
780.769	10
781.516	9
782.262	10
783.008	11
783.754	12
784.5	12
785.246	9
785.992	10
786.738	11
787.484	12
788.23	11
788.975	10
789.721	10
790.466	11
791.212	10
791.957	12
792.702	9
793.447	10
794.193	9
794.938	10
795.683	8
796.427	9
797.172	9
797.917	6
798.662	10
799.406	8
800.151	10
800.895	9
801.64	7
802.384	11
803.128	7
803.872	7
804.616	8
805.36	7
806.104	8
806.848	6
807.592	7
808.336	9
809.079	5
809.823	6
810.566	6
811.31	5
812.053	7
812.796	6
813.539	5
814.283	6
815.026	8
815.769	8
816.511	7
817.254	6
817.997	6
818.74	7
819.482	4
820.225	7
820.967	5
821.71	6
822.452	7
823.194	4
823.936	6
824.678	4
825.42	5
826.162	8
826.904	5
827.646	5
828.388	4
829.129	6
829.871	5
830.612	7
831.354	5
832.095	5
832.836	5
833.577	6
834.319	5
835.06	5
835.801	6
836.542	4
837.282	2
838.023	4
838.764	4
839.504	8
840.245	4
840.985	2
841.726	4
842.466	2
843.206	5
843.946	4
844.687	5
845.427	3
846.166	4
846.906	5
847.646	4
848.386	3
849.125	4
849.865	3
850.605	4
851.344	0
852.083	3
852.823	2
853.562	3
854.301	5
855.04	2
855.779	4
856.518	3
857.257	2
857.995	4
858.734	2
859.473	3
860.211	2
860.95	4
861.688	3
862.426	4
863.165	3
863.903	3
864.641	3
865.379	1
866.117	5
866.855	0
867.593	2
868.33	2
869.068	2
869.806	3
870.543	1
871.28	1
872.018	2
872.755	2
873.492	0
874.229	0
874.967	3
875.703	-2
876.44	1
877.177	4
877.914	1
878.651	2
879.387	2
880.124	2
880.86	1
881.597	-2
882.333	4
883.069	-1
883.806	0
884.542	1
885.278	1
886.014	2
886.749	-1
887.485	1
888.221	0
888.957	0
889.692	1
890.428	0
891.163	-1
891.899	0
892.634	3
893.369	0
894.104	0
894.839	2
895.574	-1
896.309	0
897.044	1
897.779	1
898.514	-1
899.248	1
899.983	4
900.717	0
901.452	1
902.186	-1
902.92	0
903.654	1
904.389	1
905.123	1
905.857	2
906.59	-1
907.324	-1
908.058	1
908.792	3
909.525	2
910.259	1
910.992	-2
911.726	0
912.459	1
913.192	0
913.925	2
914.658	-2
915.391	0
916.124	-1
916.857	-2
917.59	0
918.323	0
919.055	3
919.788	1
920.521	2
921.253	-2
921.985	-1
922.718	2
923.45	-2
924.182	0
924.914	0
925.646	1
926.378	1
927.11	0
927.841	0
928.573	-2
929.305	0
930.036	-2
930.768	0
931.499	1
932.23	1
932.962	0
933.693	-1
934.424	1
935.155	0
935.886	0
936.617	0
937.348	-1
938.078	1
938.809	0
939.54	2
940.27	0
941.001	-2
941.731	0
942.461	0
943.191	0
943.922	0
944.652	0
945.382	1
946.112	0
946.841	2
947.571	0
948.301	-1
949.031	0
949.76	-1
950.49	-2
951.219	-1
951.948	-1
952.678	-1
953.407	0
954.136	2
954.865	0
955.594	-1
956.323	0
957.052	-2
957.78	0
958.509	-1
959.238	-1
959.966	0
960.695	0
961.423	-2
962.151	0
962.88	1
963.608	0
964.336	0
965.064	0
965.792	-2
966.52	0
967.247	0
967.975	0
968.703	0
969.43	-2
970.158	0
970.885	-1
971.613	0
972.34	0
973.067	-1
973.794	-1
974.521	0
975.248	1
975.975	-1
976.702	2
977.429	-1
978.156	0
978.882	0
979.609	1
980.335	0
981.062	1
981.788	0
982.514	1
983.24	-1
983.967	2
984.693	-1
985.419	-1
986.144	1
986.87	-2
987.596	-1
988.322	0
989.047	1
989.773	0
990.498	1
991.224	0
991.949	1
992.674	2
993.399	0
994.124	-2
994.849	0
995.574	-2
996.299	1
997.024	0
997.749	1
998.473	-1
999.198	-1
999.922	0
1000.647	0
1001.371	3
1002.095	-1
1002.82	0
1003.544	1
1004.268	2
1004.992	2
1005.716	2
1006.439	3
1007.163	3
1007.887	4
1008.611	0
1009.334	0
1010.058	-1
1010.781	1
1011.504	1
1012.228	1
1012.951	-1
1013.674	0
1014.397	-2
1015.12	0
