节点500_425_QEPB04081__487__15-56-24-575.txt的数据

Date: Wed Nov 12 15:56:24 CST 2025
User: PC
Spectrometer: QEPB0408
触发模式: 0
积分时间 (秒): 1.000000E-2
Scans to average: 1
启用暗噪声校正: true
启用非线性校正: false
滑动平均宽度: 0
X轴模式: Wavelengths
Number of Pixels in Spectrum: 1044
>>>>>Begin Spectral Data<<<<<
220.843	3.75
221.644	1.75
222.444	4.75
223.244	2.75
224.045	4.75
224.845	3.75
225.645	3.75
226.445	5.75
227.245	3.75
228.045	4.75
228.845	4.75
229.645	7.75
230.444	4.75
231.244	6.75
232.043	7.75
232.843	6.75
233.642	6.75
234.442	3.75
235.241	7.75
236.04	7.75
236.839	6.75
237.638	5.75
238.437	4.75
239.236	7.75
240.035	7.75
240.833	8.75
241.632	7.75
242.43	8.75
243.229	6.75
244.027	8.75
244.826	8.75
245.624	7.75
246.422	8.75
247.22	10.75
248.018	6.75
248.816	10.75
249.614	6.75
250.412	10.75
251.21	10.75
252.007	9.75
252.805	8.75
253.602	11.75
254.4	12.75
255.197	10.75
255.994	9.75
256.791	10.75
257.589	10.75
258.386	14.75
259.183	12.75
259.979	13.75
260.776	14.75
261.573	13.75
262.37	12.75
263.166	17.75
263.963	13.75
264.759	13.75
265.556	17.75
266.352	16.75
267.148	18.75
267.944	20.75
268.74	16.75
269.536	19.75
270.332	18.75
271.128	18.75
271.924	19.75
272.719	21.75
273.515	20.75
274.311	21.75
275.106	22.75
275.901	21.75
276.697	20.75
277.492	22.75
278.287	22.75
279.082	21.75
279.877	22.75
280.672	23.75
281.467	21.75
282.262	22.75
283.056	24.75
283.851	23.75
284.646	23.75
285.44	24.75
286.234	23.75
287.029	23.75
287.823	23.75
288.617	20.75
289.411	24.75
290.205	21.75
290.999	21.75
291.793	20.75
292.587	22.75
293.381	23.75
294.174	21.75
294.968	19.75
295.761	18.75
296.555	21.75
297.348	18.75
298.141	17.75
298.935	20.75
299.728	19.75
300.521	20.75
301.314	18.75
302.107	16.75
302.899	15.75
303.692	18.75
304.485	17.75
305.277	16.75
306.07	14.75
306.862	15.75
307.655	18.75
308.447	16.75
309.239	18.75
310.031	14.75
310.823	14.75
311.615	13.75
312.407	14.75
313.199	13.75
313.991	13.75
314.783	8.75
315.574	10.75
316.366	9.75
317.157	12.75
317.949	12.75
318.74	11.75
319.531	12.75
320.322	10.75
321.113	9.75
321.904	10.75
322.695	9.75
323.486	9.75
324.277	8.75
325.068	7.75
325.858	9.75
326.649	10.75
327.439	9.75
328.23	10.75
329.02	7.75
329.81	7.75
330.6	9.75
331.391	6.75
332.181	7.75
332.971	8.75
333.76	7.75
334.55	10.75
335.34	9.75
336.13	7.75
336.919	7.75
337.709	8.75
338.498	8.75
339.287	8.75
340.077	5.75
340.866	8.75
341.655	6.75
342.444	9.75
343.233	7.75
344.022	10.75
344.811	9.75
345.6	8.75
346.388	8.75
347.177	8.75
347.965	8.75
348.754	7.75
349.542	10.75
350.33	8.75
351.119	7.75
351.907	8.75
352.695	8.75
353.483	7.75
354.271	5.75
355.059	8.75
355.846	6.75
356.634	8.75
357.422	8.75
358.209	6.75
358.997	5.75
359.784	7.75
360.571	8.75
361.359	7.75
362.146	7.75
362.933	7.75
363.72	6.75
364.507	8.75
365.294	5.75
366.081	4.75
366.867	5.75
367.654	5.75
368.44	5.75
369.227	8.75
370.013	8.75
370.8	4.75
371.586	5.75
372.372	7.75
373.158	6.75
373.944	7.75
374.73	7.75
375.516	8.75
376.302	7.75
377.088	6.75
377.873	6.75
378.659	6.75
379.445	7.75
380.23	4.75
381.015	8.75
381.801	8.75
382.586	5.75
383.371	7.75
384.156	7.75
384.941	6.75
385.726	6.75
386.511	7.75
387.296	8.75
388.08	9.75
388.865	6.75
389.649	8.75
390.434	7.75
391.218	7.75
392.003	7.75
392.787	8.75
393.571	5.75
394.355	8.75
395.139	8.75
395.923	8.75
396.707	8.75
397.491	10.75
398.274	11.75
399.058	9.75
399.842	7.75
400.625	8.75
401.408	9.75
402.192	9.75
402.975	9.75
403.758	8.75
404.541	7.75
405.324	10.75
406.107	8.75
406.89	11.75
407.673	11.75
408.456	9.75
409.238	11.75
410.021	8.75
410.803	10.75
411.586	9.75
412.368	11.75
413.151	10.75
413.933	10.75
414.715	9.75
415.497	11.75
416.279	12.75
417.061	14.75
417.843	12.75
418.624	14.75
419.406	13.75
420.188	12.75
420.969	14.75
421.751	16.75
422.532	13.75
423.313	14.75
424.095	15.75
424.876	17.75
425.657	19.75
426.438	14.75
427.219	15.75
428	18.75
428.78	16.75
429.561	21.75
430.342	17.75
431.122	15.75
431.903	22.75
432.683	20.75
433.464	22.75
434.244	23.75
435.024	21.75
435.804	25.75
436.584	27.75
437.364	27.75
438.144	27.75
438.924	31.75
439.704	36.75
440.483	33.75
441.263	37.75
442.042	39.75
442.822	39.75
443.601	40.75
444.38	49.75
445.16	51.75
445.939	54.75
446.718	60.75
447.497	66.75
448.276	68.75
449.054	75.75
449.833	84.75
450.612	88.75
451.391	96.75
452.169	106.75
452.948	118.75
453.726	135.75
454.504	146.75
455.282	164.75
456.061	181.75
456.839	202.75
457.617	220.75
458.395	247.75
459.172	270.75
459.95	307.75
460.728	336.75
461.506	376.75
462.283	426.75
463.061	474.75
463.838	522.75
464.615	589.75
465.393	642.75
466.17	713.75
466.947	804.75
467.724	874.75
468.501	990.75
469.278	1099.75
470.055	1211.75
470.831	1325.75
471.608	1470.75
472.385	1630.75
473.161	1790.75
473.938	1959.75
474.714	2157.75
475.49	2396.75
476.266	2627.75
477.043	2855.75
477.819	3151.75
478.595	3420.75
479.371	3786.75
480.146	4126.75
480.922	4479.75
481.698	4904.75
482.473	5340.75
483.249	5821.75
484.024	6370.75
484.8	6959.75
485.575	7554.75
486.35	8216.75
487.126	8896.75
487.901	9687.75
488.676	10528.75
489.451	11347.75
490.225	12294.75
491	13321.75
491.775	14372.75
492.55	15449.75
493.324	16622.75
494.099	17807.75
494.873	18970.75
495.647	20288.75
496.422	21549.75
497.196	22889.75
497.97	24225.75
498.744	25584.75
499.518	26808.75
500.292	28005.75
501.066	29117.75
501.839	30221.75
502.613	31170.75
503.387	31962.75
504.16	32658.75
504.934	33190.75
505.707	33341.75
506.48	33426.75
507.253	33300.75
508.027	33196.75
508.8	32884.75
509.573	32446.75
510.346	31814.75
511.118	30972.75
511.891	30130.75
512.664	29277.75
513.437	28158.75
514.209	27136.75
514.982	26272.75
515.754	25272.75
516.526	24277.75
517.298	23252.75
518.071	22236.75
518.843	21418.75
519.615	20495.75
520.387	19647.75
521.159	18930.75
521.93	18243.75
522.702	17536.75
523.474	16827.75
524.245	16122.75
525.017	15494.75
525.788	14763.75
526.56	14145.75
527.331	13495.75
528.102	12905.75
528.873	12303.75
529.644	11733.75
530.415	11226.75
531.186	10736.75
531.957	10179.75
532.728	9648.75
533.498	9142.75
534.269	8642.75
535.039	8190.75
535.81	7756.75
536.58	7342.75
537.351	6939.75
538.121	6546.75
538.891	6183.75
539.661	5857.75
540.431	5553.75
541.201	5263.75
541.971	5028.75
542.741	4746.75
543.51	4501.75
544.28	4281.75
545.05	4061.75
545.819	3889.75
546.588	3678.75
547.358	3471.75
548.127	3316.75
548.896	3150.75
549.665	3002.75
550.434	2833.75
551.203	2700.75
551.972	2549.75
552.741	2410.75
553.51	2306.75
554.278	2158.75
555.047	2032.75
555.815	1940.75
556.584	1826.75
557.352	1713.75
558.121	1616.75
558.889	1553.75
559.657	1464.75
560.425	1370.75
561.193	1298.75
561.961	1230.75
562.729	1162.75
563.496	1098.75
564.264	1038.75
565.032	994.75
565.799	927.75
566.567	886.75
567.334	823.75
568.101	784.75
568.869	738.75
569.636	702.75
570.403	649.75
571.17	621.75
571.937	584.75
572.704	557.75
573.471	528.75
574.237	487.75
575.004	453.75
575.771	428.75
576.537	414.75
577.303	390.75
578.07	365.75
578.836	343.75
579.602	325.75
580.368	313.75
581.134	296.75
581.9	278.75
582.666	264.75
583.432	250.75
584.198	238.75
584.964	226.75
585.729	211.75
586.495	198.75
587.26	195.75
588.025	176.75
588.791	168.75
589.556	168.75
590.321	154.75
591.086	145.75
591.851	136.75
592.616	137.75
593.381	133.75
594.146	118.75
594.911	116.75
595.675	113.75
596.44	106.75
597.204	97.75
597.969	96.75
598.733	92.75
599.497	92.75
600.261	81.75
601.025	81.75
601.79	75.75
602.553	70.75
603.317	68.75
604.081	68.75
604.845	65.75
605.609	62.75
606.372	59.75
607.136	56.75
607.899	55.75
608.662	55.75
609.426	49.75
610.189	47.75
610.952	45.75
611.715	45.75
612.478	42.75
613.241	42.75
614.004	41.75
614.767	36.75
615.529	39.75
616.292	30.75
617.055	36.75
617.817	34.75
618.579	30.75
619.342	31.75
620.104	30.75
620.866	29.75
621.628	26.75
622.39	29.75
623.152	29.75
623.914	22.75
624.676	23.75
625.438	22.75
626.199	23.75
626.961	22.75
627.722	21.75
628.484	20.75
629.245	21.75
630.006	21.75
630.768	18.75
631.529	18.75
632.29	18.75
633.051	15.75
633.812	18.75
634.573	17.75
635.333	13.75
636.094	14.75
636.855	16.75
637.615	12.75
638.376	16.75
639.136	14.75
639.896	16.75
640.657	12.75
641.417	12.75
642.177	13.75
642.937	14.75
643.697	13.75
644.457	11.75
645.216	12.75
645.976	12.75
646.736	8.75
647.495	10.75
648.255	10.75
649.014	10.75
649.774	8.75
650.533	7.75
651.292	11.75
652.051	12.75
652.81	9.75
653.569	9.75
654.328	7.75
655.087	6.75
655.846	8.75
656.604	8.75
657.363	9.75
658.121	9.75
658.88	8.75
659.638	6.75
660.397	4.75
661.155	6.75
661.913	10.75
662.671	7.75
663.429	8.75
664.187	6.75
664.945	5.75
665.703	5.75
666.46	7.75
667.218	5.75
667.976	7.75
668.733	9.75
669.49	5.75
670.248	9.75
671.005	6.75
671.762	6.75
672.519	8.75
673.276	6.75
674.033	4.75
674.79	5.75
675.547	8.75
676.304	4.75
677.06	3.75
677.817	4.75
678.574	4.75
679.33	7.75
680.086	5.75
680.843	5.75
681.599	6.75
682.355	4.75
683.111	5.75
683.867	6.75
684.623	4.75
685.379	4.75
686.135	8.75
686.89	4.75
687.646	4.75
688.402	5.75
689.157	4.75
689.912	6.75
690.668	5.75
691.423	4.75
692.178	5.75
692.933	8.75
693.688	5.75
694.443	4.75
695.198	4.75
695.953	3.75
696.708	2.75
697.462	5.75
698.217	5.75
698.972	4.75
699.726	7.75
700.48	3.75
701.235	4.75
701.989	4.75
702.743	4.75
703.497	3.75
704.251	4.75
705.005	3.75
705.759	4.75
706.513	4.75
707.266	6.75
708.02	5.75
708.774	6.75
709.527	3.75
710.28	6.75
711.034	4.75
711.787	5.75
712.54	3.75
713.293	6.75
714.046	3.75
714.799	4.75
715.552	3.75
716.305	4.75
717.058	3.75
717.81	5.75
718.563	4.75
719.315	7.75
720.068	3.75
720.82	4.75
721.573	2.75
722.325	6.75
723.077	5.75
723.829	2.75
724.581	6.75
725.333	3.75
726.085	5.75
726.836	2.75
727.588	5.75
728.34	4.75
729.091	4.75
729.843	4.75
730.594	6.75
731.346	5.75
732.097	6.75
732.848	5.75
733.599	6.75
734.35	6.75
735.101	4.75
735.852	6.75
736.603	4.75
737.354	6.75
738.104	7.75
738.855	6.75
739.605	5.75
740.356	7.75
741.106	5.75
741.856	3.75
742.607	6.75
743.357	7.75
744.107	4.75
744.857	5.75
745.607	5.75
746.357	4.75
747.106	6.75
747.856	6.75
748.606	7.75
749.355	5.75
750.105	7.75
750.854	7.75
751.603	9.75
752.353	7.75
753.102	7.75
753.851	4.75
754.6	5.75
755.349	7.75
756.098	7.75
756.847	4.75
757.595	6.75
758.344	7.75
759.093	5.75
759.841	6.75
760.589	6.75
761.338	9.75
762.086	7.75
762.834	6.75
763.582	8.75
764.331	8.75
765.079	8.75
765.826	10.75
766.574	8.75
767.322	8.75
768.07	11.75
768.817	8.75
769.565	9.75
770.312	9.75
771.06	10.75
771.807	8.75
772.554	10.75
773.302	10.75
774.049	7.75
774.796	8.75
775.543	10.75
776.29	10.75
777.036	11.75
777.783	10.75
778.53	7.75
779.276	11.75
780.023	9.75
780.769	12.75
781.516	11.75
782.262	11.75
783.008	10.75
783.754	10.75
784.5	12.75
785.246	12.75
785.992	11.75
786.738	11.75
787.484	11.75
788.23	12.75
788.975	9.75
789.721	10.75
790.466	9.75
791.212	7.75
791.957	11.75
792.702	7.75
793.447	10.75
794.193	11.75
794.938	11.75
795.683	7.75
796.427	9.75
797.172	10.75
797.917	10.75
798.662	7.75
799.406	8.75
800.151	8.75
800.895	8.75
801.64	12.75
802.384	8.75
803.128	7.75
803.872	7.75
804.616	9.75
805.36	9.75
806.104	8.75
806.848	9.75
807.592	4.75
808.336	5.75
809.079	6.75
809.823	8.75
810.566	9.75
811.31	6.75
812.053	7.75
812.796	6.75
813.539	6.75
814.283	7.75
815.026	5.75
815.769	6.75
816.511	6.75
817.254	5.75
817.997	6.75
818.74	5.75
819.482	4.75
820.225	7.75
820.967	3.75
821.71	4.75
822.452	0.75
823.194	4.75
823.936	5.75
824.678	4.75
825.42	5.75
826.162	3.75
826.904	5.75
827.646	3.75
828.388	4.75
829.129	5.75
829.871	4.75
830.612	6.75
831.354	3.75
832.095	3.75
832.836	3.75
833.577	7.75
834.319	4.75
835.06	2.75
835.801	5.75
836.542	1.75
837.282	4.75
838.023	5.75
838.764	4.75
839.504	4.75
840.245	2.75
840.985	4.75
841.726	4.75
842.466	2.75
843.206	2.75
843.946	3.75
844.687	2.75
845.427	2.75
846.166	5.75
846.906	4.75
847.646	3.75
848.386	4.75
849.125	5.75
849.865	1.75
850.605	4.75
851.344	4.75
852.083	2.75
852.823	2.75
853.562	5.75
854.301	3.75
855.04	6.75
855.779	4.75
856.518	0.75
857.257	3.75
857.995	1.75
858.734	2.75
859.473	2.75
860.211	3.75
860.95	3.75
861.688	2.75
862.426	2.75
863.165	2.75
863.903	4.75
864.641	2.75
865.379	3.75
866.117	2.75
866.855	1.75
867.593	3.75
868.33	1.75
869.068	2.75
869.806	4.75
870.543	1.75
871.28	0.75
872.018	0.75
872.755	3.75
873.492	2.75
874.229	0.75
874.967	2.75
875.703	0.75
876.44	1.75
877.177	-0.25
877.914	0.75
878.651	0.75
879.387	1.75
880.124	-0.25
880.86	0.75
881.597	1.75
882.333	3.75
883.069	0.75
883.806	1.75
884.542	1.75
885.278	0.75
886.014	0.75
886.749	1.75
887.485	0.75
888.221	2.75
888.957	2.75
889.692	0.75
890.428	4.75
891.163	1.75
891.899	1.75
892.634	0.75
893.369	-0.25
894.104	2.75
894.839	1.75
895.574	1.75
896.309	0.75
897.044	2.75
897.779	-0.25
898.514	2.75
899.248	3.75
899.983	0.75
900.717	0.75
901.452	1.75
902.186	1.75
902.92	2.75
903.654	-1.25
904.389	0.75
905.123	1.75
905.857	1.75
906.59	1.75
907.324	-1.25
908.058	0.75
908.792	1.75
909.525	-1.25
910.259	0.75
910.992	0.75
911.726	1.75
912.459	0.75
913.192	-1.25
913.925	0.75
914.658	3.75
915.391	0.75
916.124	1.75
916.857	2.75
917.59	0.75
918.323	-0.25
919.055	1.75
919.788	-1.25
920.521	-0.25
921.253	-0.25
921.985	1.75
922.718	-0.25
923.45	1.75
924.182	2.75
924.914	0.75
925.646	1.75
926.378	0.75
927.11	-0.25
927.841	0.75
928.573	-1.25
929.305	-0.25
930.036	-0.25
930.768	1.75
931.499	-0.25
932.23	-0.25
932.962	0.75
933.693	0.75
934.424	2.75
935.155	0.75
935.886	-0.25
936.617	0.75
937.348	1.75
938.078	1.75
938.809	-0.25
939.54	0.75
940.27	-0.25
941.001	-0.25
941.731	-1.25
942.461	0.75
943.191	0.75
943.922	-0.25
944.652	2.75
945.382	0.75
946.112	-0.25
946.841	-1.25
947.571	0.75
948.301	0.75
949.031	-2.25
949.76	1.75
950.49	1.75
951.219	-1.25
951.948	-0.25
952.678	0.75
953.407	1.75
954.136	0.75
954.865	-0.25
955.594	0.75
956.323	-0.25
957.052	0.75
957.78	-0.25
958.509	3.75
959.238	0.75
959.966	-0.25
960.695	1.75
961.423	-1.25
962.151	4.75
962.88	-0.25
963.608	-1.25
964.336	1.75
965.064	-0.25
965.792	-0.25
966.52	-0.25
967.247	-0.25
967.975	0.75
968.703	-0.25
969.43	0.75
970.158	-0.25
970.885	-0.25
971.613	2.75
972.34	1.75
973.067	0.75
973.794	0.75
974.521	-0.25
975.248	2.75
975.975	0.75
976.702	-0.25
977.429	1.75
978.156	2.75
978.882	-1.25
979.609	0.75
980.335	2.75
981.062	-1.25
981.788	1.75
982.514	-1.25
983.24	-1.25
983.967	0.75
984.693	0.75
985.419	0.75
986.144	-0.25
986.87	0.75
987.596	-2.25
988.322	0.75
989.047	0.75
989.773	0.75
990.498	-0.25
991.224	1.75
991.949	0.75
992.674	-0.25
993.399	0.75
994.124	2.75
994.849	-0.25
995.574	-1.25
996.299	-1.25
997.024	1.75
997.749	0.75
998.473	-0.25
999.198	0.75
999.922	0.75
1000.647	0.75
1001.371	3.75
1002.095	-0.25
1002.82	-1.25
1003.544	-3.25
1004.268	0.75
1004.992	1.75
1005.716	0.75
1006.439	3.75
1007.163	1.75
1007.887	3.75
1008.611	1.75
1009.334	-0.25
1010.058	0.75
1010.781	-1.25
1011.504	0.75
1012.228	-0.25
1012.951	1.75
1013.674	-1.25
1014.397	-1.25
1015.12	1.75
