节点500_425_QEPB04081__244__15-52-21-978.txt的数据

Date: Wed Nov 12 15:52:21 CST 2025
User: PC
Spectrometer: QEPB0408
触发模式: 0
积分时间 (秒): 1.000000E-2
Scans to average: 1
启用暗噪声校正: true
启用非线性校正: false
滑动平均宽度: 0
X轴模式: Wavelengths
Number of Pixels in Spectrum: 1044
>>>>>Begin Spectral Data<<<<<
220.843	2.38
221.644	2.38
222.444	2.38
223.244	3.38
224.045	2.38
224.845	4.38
225.645	6.38
226.445	5.38
227.245	4.38
228.045	1.38
228.845	5.38
229.645	4.38
230.444	6.38
231.244	3.38
232.043	1.38
232.843	7.38
233.642	6.38
234.442	6.38
235.241	4.38
236.04	8.38
236.839	5.38
237.638	5.38
238.437	5.38
239.236	5.38
240.035	6.38
240.833	8.38
241.632	6.38
242.43	8.38
243.229	8.38
244.027	5.38
244.826	9.38
245.624	8.38
246.422	10.38
247.22	8.38
248.018	9.38
248.816	9.38
249.614	8.38
250.412	9.38
251.21	6.38
252.007	11.38
252.805	11.38
253.602	11.38
254.4	9.38
255.197	8.38
255.994	11.38
256.791	11.38
257.589	12.38
258.386	12.38
259.183	14.38
259.979	12.38
260.776	17.38
261.573	15.38
262.37	15.38
263.166	16.38
263.963	17.38
264.759	17.38
265.556	20.38
266.352	18.38
267.148	20.38
267.944	18.38
268.74	20.38
269.536	22.38
270.332	21.38
271.128	22.38
271.924	23.38
272.719	23.38
273.515	24.38
274.311	22.38
275.106	23.38
275.901	22.38
276.697	22.38
277.492	23.38
278.287	22.38
279.082	25.38
279.877	23.38
280.672	23.38
281.467	26.38
282.262	26.38
283.056	24.38
283.851	23.38
284.646	26.38
285.44	26.38
286.234	26.38
287.029	26.38
287.823	25.38
288.617	24.38
289.411	20.38
290.205	25.38
290.999	21.38
291.793	24.38
292.587	23.38
293.381	23.38
294.174	22.38
294.968	22.38
295.761	21.38
296.555	22.38
297.348	17.38
298.141	20.38
298.935	20.38
299.728	18.38
300.521	21.38
301.314	20.38
302.107	18.38
302.899	20.38
303.692	17.38
304.485	16.38
305.277	18.38
306.07	16.38
306.862	16.38
307.655	14.38
308.447	14.38
309.239	14.38
310.031	17.38
310.823	17.38
311.615	13.38
312.407	13.38
313.199	14.38
313.991	14.38
314.783	13.38
315.574	11.38
316.366	11.38
317.157	12.38
317.949	9.38
318.74	13.38
319.531	9.38
320.322	11.38
321.113	7.38
321.904	10.38
322.695	11.38
323.486	10.38
324.277	9.38
325.068	10.38
325.858	10.38
326.649	8.38
327.439	6.38
328.23	10.38
329.02	9.38
329.81	7.38
330.6	8.38
331.391	6.38
332.181	8.38
332.971	7.38
333.76	11.38
334.55	8.38
335.34	7.38
336.13	7.38
336.919	7.38
337.709	9.38
338.498	8.38
339.287	9.38
340.077	8.38
340.866	9.38
341.655	6.38
342.444	7.38
343.233	11.38
344.022	8.38
344.811	8.38
345.6	8.38
346.388	8.38
347.177	5.38
347.965	10.38
348.754	7.38
349.542	6.38
350.33	8.38
351.119	8.38
351.907	6.38
352.695	9.38
353.483	5.38
354.271	5.38
355.059	7.38
355.846	9.38
356.634	6.38
357.422	8.38
358.209	6.38
358.997	6.38
359.784	8.38
360.571	9.38
361.359	7.38
362.146	9.38
362.933	8.38
363.72	4.38
364.507	7.38
365.294	5.38
366.081	8.38
366.867	8.38
367.654	6.38
368.44	6.38
369.227	7.38
370.013	7.38
370.8	8.38
371.586	5.38
372.372	6.38
373.158	6.38
373.944	6.38
374.73	6.38
375.516	7.38
376.302	6.38
377.088	6.38
377.873	7.38
378.659	7.38
379.445	7.38
380.23	8.38
381.015	4.38
381.801	9.38
382.586	7.38
383.371	8.38
384.156	5.38
384.941	9.38
385.726	7.38
386.511	8.38
387.296	9.38
388.08	7.38
388.865	10.38
389.649	10.38
390.434	8.38
391.218	10.38
392.003	8.38
392.787	9.38
393.571	9.38
394.355	8.38
395.139	9.38
395.923	5.38
396.707	10.38
397.491	8.38
398.274	10.38
399.058	8.38
399.842	9.38
400.625	9.38
401.408	11.38
402.192	7.38
402.975	9.38
403.758	10.38
404.541	10.38
405.324	12.38
406.107	9.38
406.89	9.38
407.673	11.38
408.456	10.38
409.238	14.38
410.021	11.38
410.803	11.38
411.586	12.38
412.368	9.38
413.151	12.38
413.933	9.38
414.715	12.38
415.497	13.38
416.279	15.38
417.061	12.38
417.843	12.38
418.624	16.38
419.406	11.38
420.188	15.38
420.969	14.38
421.751	15.38
422.532	17.38
423.313	13.38
424.095	17.38
424.876	18.38
425.657	16.38
426.438	18.38
427.219	17.38
428	18.38
428.78	16.38
429.561	18.38
430.342	19.38
431.122	18.38
431.903	21.38
432.683	21.38
433.464	23.38
434.244	24.38
435.024	25.38
435.804	26.38
436.584	24.38
437.364	28.38
438.144	28.38
438.924	29.38
439.704	33.38
440.483	30.38
441.263	36.38
442.042	37.38
442.822	42.38
443.601	44.38
444.38	44.38
445.16	50.38
445.939	54.38
446.718	58.38
447.497	60.38
448.276	65.38
449.054	72.38
449.833	78.38
450.612	84.38
451.391	93.38
452.169	100.38
452.948	110.38
453.726	124.38
454.504	135.38
455.282	152.38
456.061	170.38
456.839	184.38
457.617	194.38
458.395	230.38
459.172	256.38
459.95	283.38
460.728	312.38
461.506	349.38
462.283	390.38
463.061	437.38
463.838	490.38
464.615	551.38
465.393	604.38
466.17	669.38
466.947	755.38
467.724	843.38
468.501	933.38
469.278	1047.38
470.055	1171.38
470.831	1291.38
471.608	1437.38
472.385	1590.38
473.161	1748.38
473.938	1934.38
474.714	2152.38
475.49	2338.38
476.266	2614.38
477.043	2898.38
477.819	3173.38
478.595	3505.38
479.371	3884.38
480.146	4225.38
480.922	4638.38
481.698	5100.38
482.473	5614.38
483.249	6154.38
484.024	6743.38
484.8	7423.38
485.575	8073.38
486.35	8803.38
487.126	9619.38
487.901	10499.38
488.676	11468.38
489.451	12440.38
490.225	13528.38
491	14703.38
491.775	15971.38
492.55	17205.38
493.324	18590.38
494.099	19916.38
494.873	21321.38
495.647	22738.38
496.422	24181.38
497.196	25680.38
497.97	27183.38
498.744	28561.38
499.518	29906.38
500.292	31151.38
501.066	32273.38
501.839	33451.38
502.613	34272.38
503.387	34971.38
504.16	35441.38
504.934	35669.38
505.707	35703.38
506.48	35542.38
507.253	35215.38
508.027	34804.38
508.8	34182.38
509.573	33398.38
510.346	32560.38
511.118	31511.38
511.891	30505.38
512.664	29398.38
513.437	28157.38
514.209	27056.38
514.982	26046.38
515.754	24952.38
516.526	23840.38
517.298	22788.38
518.071	21884.38
518.843	20981.38
519.615	20126.38
520.387	19286.38
521.159	18607.38
521.93	17885.38
522.702	17179.38
523.474	16498.38
524.245	15794.38
525.017	15098.38
525.788	14394.38
526.56	13718.38
527.331	13103.38
528.102	12505.38
528.873	11867.38
529.644	11308.38
530.415	10788.38
531.186	10253.38
531.957	9722.38
532.728	9210.38
533.498	8673.38
534.269	8249.38
535.039	7759.38
535.81	7391.38
536.58	6966.38
537.351	6523.38
538.121	6152.38
538.891	5862.38
539.661	5536.38
540.431	5245.38
541.201	4990.38
541.971	4712.38
542.741	4473.38
543.51	4220.38
544.28	4014.38
545.05	3841.38
545.819	3669.38
546.588	3465.38
547.358	3290.38
548.127	3102.38
548.896	2941.38
549.665	2810.38
550.434	2669.38
551.203	2524.38
551.972	2382.38
552.741	2267.38
553.51	2121.38
554.278	2012.38
555.047	1899.38
555.815	1811.38
556.584	1715.38
557.352	1610.38
558.121	1504.38
558.889	1428.38
559.657	1339.38
560.425	1276.38
561.193	1193.38
561.961	1139.38
562.729	1077.38
563.496	1019.38
564.264	961.38
565.032	915.38
565.799	857.38
566.567	819.38
567.334	772.38
568.101	734.38
568.869	686.38
569.636	655.38
570.403	608.38
571.17	577.38
571.937	552.38
572.704	506.38
573.471	483.38
574.237	455.38
575.004	433.38
575.771	406.38
576.537	387.38
577.303	359.38
578.07	345.38
578.836	321.38
579.602	298.38
580.368	284.38
581.134	265.38
581.9	258.38
582.666	241.38
583.432	227.38
584.198	222.38
584.964	210.38
585.729	200.38
586.495	188.38
587.26	170.38
588.025	169.38
588.791	157.38
589.556	153.38
590.321	142.38
591.086	132.38
591.851	125.38
592.616	123.38
593.381	120.38
594.146	110.38
594.911	109.38
595.675	103.38
596.44	95.38
597.204	97.38
597.969	88.38
598.733	87.38
599.497	81.38
600.261	74.38
601.025	74.38
601.79	69.38
602.553	66.38
603.317	63.38
604.081	64.38
604.845	62.38
605.609	54.38
606.372	56.38
607.136	56.38
607.899	51.38
608.662	46.38
609.426	46.38
610.189	43.38
610.952	41.38
611.715	41.38
612.478	41.38
613.241	42.38
614.004	36.38
614.767	32.38
615.529	36.38
616.292	33.38
617.055	33.38
617.817	31.38
618.579	27.38
619.342	31.38
620.104	29.38
620.866	28.38
621.628	26.38
622.39	27.38
623.152	24.38
623.914	24.38
624.676	26.38
625.438	19.38
626.199	22.38
626.961	20.38
627.722	22.38
628.484	20.38
629.245	20.38
630.006	16.38
630.768	18.38
631.529	18.38
632.29	16.38
633.051	16.38
633.812	19.38
634.573	12.38
635.333	15.38
636.094	15.38
636.855	13.38
637.615	12.38
638.376	16.38
639.136	16.38
639.896	10.38
640.657	14.38
641.417	11.38
642.177	10.38
642.937	13.38
643.697	11.38
644.457	10.38
645.216	10.38
645.976	10.38
646.736	12.38
647.495	12.38
648.255	10.38
649.014	12.38
649.774	10.38
650.533	12.38
651.292	7.38
652.051	8.38
652.81	7.38
653.569	9.38
654.328	8.38
655.087	10.38
655.846	7.38
656.604	7.38
657.363	10.38
658.121	8.38
658.88	9.38
659.638	10.38
660.397	6.38
661.155	7.38
661.913	7.38
662.671	7.38
663.429	5.38
664.187	4.38
664.945	4.38
665.703	6.38
666.46	5.38
667.218	7.38
667.976	4.38
668.733	6.38
669.49	6.38
670.248	7.38
671.005	5.38
671.762	9.38
672.519	5.38
673.276	7.38
674.033	8.38
674.79	6.38
675.547	4.38
676.304	5.38
677.06	5.38
677.817	5.38
678.574	7.38
679.33	5.38
680.086	3.38
680.843	6.38
681.599	4.38
682.355	7.38
683.111	5.38
683.867	6.38
684.623	5.38
685.379	4.38
686.135	4.38
686.89	3.38
687.646	6.38
688.402	6.38
689.157	4.38
689.912	5.38
690.668	4.38
691.423	6.38
692.178	5.38
692.933	5.38
693.688	5.38
694.443	4.38
695.198	5.38
695.953	7.38
696.708	3.38
697.462	4.38
698.217	6.38
698.972	3.38
699.726	4.38
700.48	6.38
701.235	6.38
701.989	3.38
702.743	4.38
703.497	6.38
704.251	5.38
705.005	5.38
705.759	3.38
706.513	5.38
707.266	3.38
708.02	5.38
708.774	3.38
709.527	6.38
710.28	4.38
711.034	3.38
711.787	4.38
712.54	5.38
713.293	6.38
714.046	3.38
714.799	2.38
715.552	6.38
716.305	6.38
717.058	4.38
717.81	6.38
718.563	4.38
719.315	5.38
720.068	7.38
720.82	2.38
721.573	4.38
722.325	4.38
723.077	3.38
723.829	6.38
724.581	4.38
725.333	5.38
726.085	5.38
726.836	4.38
727.588	6.38
728.34	7.38
729.091	2.38
729.843	5.38
730.594	8.38
731.346	5.38
732.097	4.38
732.848	7.38
733.599	3.38
734.35	5.38
735.101	6.38
735.852	3.38
736.603	4.38
737.354	5.38
738.104	4.38
738.855	6.38
739.605	5.38
740.356	7.38
741.106	7.38
741.856	7.38
742.607	5.38
743.357	3.38
744.107	6.38
744.857	7.38
745.607	8.38
746.357	8.38
747.106	5.38
747.856	3.38
748.606	6.38
749.355	8.38
750.105	8.38
750.854	5.38
751.603	7.38
752.353	7.38
753.102	8.38
753.851	6.38
754.6	8.38
755.349	8.38
756.098	9.38
756.847	8.38
757.595	7.38
758.344	10.38
759.093	8.38
759.841	8.38
760.589	7.38
761.338	8.38
762.086	9.38
762.834	7.38
763.582	11.38
764.331	8.38
765.079	9.38
765.826	9.38
766.574	10.38
767.322	8.38
768.07	10.38
768.817	9.38
769.565	10.38
770.312	10.38
771.06	12.38
771.807	9.38
772.554	12.38
773.302	12.38
774.049	11.38
774.796	11.38
775.543	9.38
776.29	12.38
777.036	12.38
777.783	12.38
778.53	12.38
779.276	10.38
780.023	10.38
780.769	11.38
781.516	11.38
782.262	13.38
783.008	8.38
783.754	10.38
784.5	10.38
785.246	8.38
785.992	11.38
786.738	8.38
787.484	10.38
788.23	13.38
788.975	14.38
789.721	12.38
790.466	11.38
791.212	9.38
791.957	11.38
792.702	10.38
793.447	13.38
794.193	12.38
794.938	9.38
795.683	8.38
796.427	11.38
797.172	10.38
797.917	9.38
798.662	10.38
799.406	10.38
800.151	10.38
800.895	10.38
801.64	10.38
802.384	10.38
803.128	8.38
803.872	9.38
804.616	10.38
805.36	7.38
806.104	9.38
806.848	9.38
807.592	4.38
808.336	9.38
809.079	9.38
809.823	8.38
810.566	8.38
811.31	8.38
812.053	7.38
812.796	7.38
813.539	5.38
814.283	7.38
815.026	4.38
815.769	7.38
816.511	4.38
817.254	8.38
817.997	5.38
818.74	6.38
819.482	5.38
820.225	5.38
820.967	8.38
821.71	6.38
822.452	6.38
823.194	3.38
823.936	3.38
824.678	5.38
825.42	5.38
826.162	3.38
826.904	4.38
827.646	6.38
828.388	6.38
829.129	2.38
829.871	5.38
830.612	4.38
831.354	5.38
832.095	3.38
832.836	6.38
833.577	5.38
834.319	3.38
835.06	4.38
835.801	6.38
836.542	4.38
837.282	4.38
838.023	3.38
838.764	4.38
839.504	1.38
840.245	2.38
840.985	3.38
841.726	5.38
842.466	2.38
843.206	2.38
843.946	4.38
844.687	4.38
845.427	3.38
846.166	4.38
846.906	3.38
847.646	4.38
848.386	6.38
849.125	5.38
849.865	3.38
850.605	3.38
851.344	4.38
852.083	2.38
852.823	0.38
853.562	2.38
854.301	2.38
855.04	3.38
855.779	4.38
856.518	3.38
857.257	4.38
857.995	3.38
858.734	3.38
859.473	1.38
860.211	4.38
860.95	1.38
861.688	5.38
862.426	1.38
863.165	3.38
863.903	3.38
864.641	2.38
865.379	1.38
866.117	3.38
866.855	2.38
867.593	2.38
868.33	2.38
869.068	2.38
869.806	0.38
870.543	2.38
871.28	0.38
872.018	2.38
872.755	2.38
873.492	2.38
874.229	1.38
874.967	0.38
875.703	2.38
876.44	0.38
877.177	1.38
877.914	0.38
878.651	-0.62
879.387	1.38
880.124	1.38
880.86	1.38
881.597	0.38
882.333	2.38
883.069	2.38
883.806	1.38
884.542	2.38
885.278	-0.62
886.014	-0.62
886.749	1.38
887.485	1.38
888.221	3.38
888.957	0.38
889.692	0.38
890.428	0.38
891.163	2.38
891.899	1.38
892.634	1.38
893.369	0.38
894.104	1.38
894.839	0.38
895.574	0.38
896.309	1.38
897.044	0.38
897.779	-0.62
898.514	3.38
899.248	1.38
899.983	2.38
900.717	1.38
901.452	-0.62
902.186	-0.62
902.92	2.38
903.654	0.38
904.389	0.38
905.123	-0.62
905.857	4.38
906.59	0.38
907.324	1.38
908.058	0.38
908.792	2.38
909.525	1.38
910.259	-0.62
910.992	1.38
911.726	0.38
912.459	1.38
913.192	1.38
913.925	-0.62
914.658	2.38
915.391	1.38
916.124	0.38
916.857	0.38
917.59	2.38
918.323	-1.62
919.055	-0.62
919.788	1.38
920.521	0.38
921.253	1.38
921.985	1.38
922.718	0.38
923.45	-1.62
924.182	0.38
924.914	0.38
925.646	1.38
926.378	-0.62
927.11	0.38
927.841	-1.62
928.573	1.38
929.305	0.38
930.036	-1.62
930.768	-0.62
931.499	0.38
932.23	0.38
932.962	-0.62
933.693	1.38
934.424	-0.62
935.155	-0.62
935.886	0.38
936.617	-3.62
937.348	-1.62
938.078	-0.62
938.809	0.38
939.54	1.38
940.27	0.38
941.001	0.38
941.731	0.38
942.461	0.38
943.191	0.38
943.922	-1.62
944.652	1.38
945.382	0.38
946.112	0.38
946.841	1.38
947.571	0.38
948.301	2.38
949.031	1.38
949.76	-1.62
950.49	-1.62
951.219	1.38
951.948	-1.62
952.678	-0.62
953.407	0.38
954.136	0.38
954.865	1.38
955.594	0.38
956.323	0.38
957.052	1.38
957.78	0.38
958.509	1.38
959.238	-1.62
959.966	1.38
960.695	0.38
961.423	2.38
962.151	-0.62
962.88	2.38
963.608	0.38
964.336	0.38
965.064	-0.62
965.792	1.38
966.52	-1.62
967.247	-0.62
967.975	-1.62
968.703	0.38
969.43	-0.62
970.158	3.38
970.885	0.38
971.613	0.38
972.34	1.38
973.067	0.38
973.794	1.38
974.521	1.38
975.248	-0.62
975.975	1.38
976.702	0.38
977.429	1.38
978.156	0.38
978.882	1.38
979.609	1.38
980.335	3.38
981.062	2.38
981.788	-1.62
982.514	1.38
983.24	-1.62
983.967	-1.62
984.693	0.38
985.419	0.38
986.144	2.38
986.87	0.38
987.596	-1.62
988.322	0.38
989.047	0.38
989.773	0.38
990.498	-0.62
991.224	0.38
991.949	-0.62
992.674	-1.62
993.399	1.38
994.124	0.38
994.849	1.38
995.574	0.38
996.299	1.38
997.024	2.38
997.749	-1.62
998.473	0.38
999.198	-0.62
999.922	-1.62
1000.647	-0.62
1001.371	4.38
1002.095	-0.62
1002.82	-0.62
1003.544	-0.62
1004.268	1.38
1004.992	3.38
1005.716	2.38
1006.439	1.38
1007.163	0.38
1007.887	3.38
1008.611	-0.62
1009.334	0.38
1010.058	-1.62
1010.781	1.38
1011.504	-0.62
1012.228	0.38
1012.951	0.38
1013.674	0.38
1014.397	-0.62
1015.12	-2.62
