节点500_425_QEPB04081__181__15-51-19-143.txt的数据

Date: Wed Nov 12 15:51:19 CST 2025
User: PC
Spectrometer: QEPB0408
触发模式: 0
积分时间 (秒): 1.000000E-2
Scans to average: 1
启用暗噪声校正: true
启用非线性校正: false
滑动平均宽度: 0
X轴模式: Wavelengths
Number of Pixels in Spectrum: 1044
>>>>>Begin Spectral Data<<<<<
220.843	-1.12
221.644	4.88
222.444	2.88
223.244	1.88
224.045	2.88
224.845	2.88
225.645	2.88
226.445	1.88
227.245	4.88
228.045	5.88
228.845	3.88
229.645	6.88
230.444	3.88
231.244	2.88
232.043	3.88
232.843	6.88
233.642	4.88
234.442	5.88
235.241	4.88
236.04	3.88
236.839	5.88
237.638	6.88
238.437	4.88
239.236	4.88
240.035	6.88
240.833	6.88
241.632	4.88
242.43	5.88
243.229	7.88
244.027	5.88
244.826	9.88
245.624	6.88
246.422	9.88
247.22	9.88
248.018	9.88
248.816	7.88
249.614	8.88
250.412	8.88
251.21	8.88
252.007	9.88
252.805	7.88
253.602	10.88
254.4	9.88
255.197	11.88
255.994	10.88
256.791	11.88
257.589	13.88
258.386	11.88
259.183	12.88
259.979	14.88
260.776	15.88
261.573	16.88
262.37	15.88
263.166	18.88
263.963	15.88
264.759	17.88
265.556	14.88
266.352	17.88
267.148	20.88
267.944	16.88
268.74	17.88
269.536	19.88
270.332	23.88
271.128	23.88
271.924	21.88
272.719	23.88
273.515	22.88
274.311	22.88
275.106	24.88
275.901	19.88
276.697	25.88
277.492	23.88
278.287	23.88
279.082	22.88
279.877	24.88
280.672	25.88
281.467	24.88
282.262	24.88
283.056	25.88
283.851	22.88
284.646	22.88
285.44	23.88
286.234	23.88
287.029	25.88
287.823	24.88
288.617	23.88
289.411	23.88
290.205	24.88
290.999	20.88
291.793	24.88
292.587	23.88
293.381	23.88
294.174	21.88
294.968	20.88
295.761	19.88
296.555	18.88
297.348	16.88
298.141	18.88
298.935	19.88
299.728	17.88
300.521	17.88
301.314	17.88
302.107	18.88
302.899	18.88
303.692	15.88
304.485	14.88
305.277	15.88
306.07	17.88
306.862	13.88
307.655	14.88
308.447	14.88
309.239	14.88
310.031	14.88
310.823	12.88
311.615	13.88
312.407	12.88
313.199	11.88
313.991	11.88
314.783	8.88
315.574	10.88
316.366	10.88
317.157	8.88
317.949	8.88
318.74	11.88
319.531	8.88
320.322	9.88
321.113	11.88
321.904	7.88
322.695	9.88
323.486	9.88
324.277	7.88
325.068	9.88
325.858	9.88
326.649	7.88
327.439	8.88
328.23	10.88
329.02	5.88
329.81	8.88
330.6	6.88
331.391	6.88
332.181	5.88
332.971	9.88
333.76	11.88
334.55	7.88
335.34	7.88
336.13	9.88
336.919	8.88
337.709	7.88
338.498	7.88
339.287	7.88
340.077	5.88
340.866	8.88
341.655	7.88
342.444	7.88
343.233	7.88
344.022	10.88
344.811	6.88
345.6	7.88
346.388	6.88
347.177	7.88
347.965	5.88
348.754	9.88
349.542	7.88
350.33	5.88
351.119	6.88
351.907	9.88
352.695	5.88
353.483	7.88
354.271	7.88
355.059	6.88
355.846	7.88
356.634	5.88
357.422	5.88
358.209	4.88
358.997	7.88
359.784	4.88
360.571	7.88
361.359	7.88
362.146	7.88
362.933	7.88
363.72	7.88
364.507	5.88
365.294	6.88
366.081	5.88
366.867	8.88
367.654	6.88
368.44	4.88
369.227	3.88
370.013	6.88
370.8	5.88
371.586	7.88
372.372	6.88
373.158	5.88
373.944	4.88
374.73	5.88
375.516	5.88
376.302	5.88
377.088	7.88
377.873	5.88
378.659	5.88
379.445	7.88
380.23	6.88
381.015	6.88
381.801	7.88
382.586	6.88
383.371	5.88
384.156	5.88
384.941	6.88
385.726	7.88
386.511	7.88
387.296	5.88
388.08	6.88
388.865	6.88
389.649	7.88
390.434	6.88
391.218	7.88
392.003	6.88
392.787	8.88
393.571	8.88
394.355	7.88
395.139	8.88
395.923	10.88
396.707	9.88
397.491	4.88
398.274	9.88
399.058	8.88
399.842	10.88
400.625	10.88
401.408	5.88
402.192	9.88
402.975	9.88
403.758	7.88
404.541	6.88
405.324	13.88
406.107	7.88
406.89	8.88
407.673	10.88
408.456	8.88
409.238	8.88
410.021	12.88
410.803	10.88
411.586	11.88
412.368	11.88
413.151	10.88
413.933	11.88
414.715	10.88
415.497	11.88
416.279	10.88
417.061	13.88
417.843	9.88
418.624	13.88
419.406	13.88
420.188	13.88
420.969	14.88
421.751	13.88
422.532	13.88
423.313	15.88
424.095	13.88
424.876	15.88
425.657	14.88
426.438	16.88
427.219	17.88
428	18.88
428.78	16.88
429.561	19.88
430.342	19.88
431.122	18.88
431.903	21.88
432.683	20.88
433.464	21.88
434.244	23.88
435.024	21.88
435.804	24.88
436.584	25.88
437.364	29.88
438.144	27.88
438.924	27.88
439.704	31.88
440.483	34.88
441.263	34.88
442.042	35.88
442.822	38.88
443.601	41.88
444.38	45.88
445.16	48.88
445.939	49.88
446.718	58.88
447.497	59.88
448.276	66.88
449.054	69.88
449.833	73.88
450.612	85.88
451.391	89.88
452.169	99.88
452.948	108.88
453.726	123.88
454.504	134.88
455.282	144.88
456.061	158.88
456.839	181.88
457.617	200.88
458.395	227.88
459.172	243.88
459.95	274.88
460.728	307.88
461.506	341.88
462.283	392.88
463.061	430.88
463.838	482.88
464.615	552.88
465.393	598.88
466.17	666.88
466.947	748.88
467.724	829.88
468.501	929.88
469.278	1033.88
470.055	1162.88
470.831	1283.88
471.608	1430.88
472.385	1587.88
473.161	1745.88
473.938	1944.88
474.714	2140.88
475.49	2386.88
476.266	2610.88
477.043	2877.88
477.819	3187.88
478.595	3556.88
479.371	3909.88
480.146	4280.88
480.922	4682.88
481.698	5162.88
482.473	5685.88
483.249	6216.88
484.024	6902.88
484.8	7562.88
485.575	8220.88
486.35	8989.88
487.126	9853.88
487.901	10743.88
488.676	11770.88
489.451	12742.88
490.225	13856.88
491	15095.88
491.775	16397.88
492.55	17657.88
493.324	19092.88
494.099	20401.88
494.873	21848.88
495.647	23366.88
496.422	24876.88
497.196	26295.88
497.97	27905.88
498.744	29233.88
499.518	30559.88
500.292	31897.88
501.066	32995.88
501.839	34132.88
502.613	35071.88
503.387	35756.88
504.16	36098.88
504.934	36273.88
505.707	36314.88
506.48	36061.88
507.253	35708.88
508.027	35201.88
508.8	34617.88
509.573	33744.88
510.346	32801.88
511.118	31799.88
511.891	30683.88
512.664	29540.88
513.437	28298.88
514.209	27106.88
514.982	26129.88
515.754	25004.88
516.526	23886.88
517.298	22942.88
518.071	21877.88
518.843	20985.88
519.615	20148.88
520.387	19349.88
521.159	18602.88
521.93	17932.88
522.702	17118.88
523.474	16495.88
524.245	15865.88
525.017	15137.88
525.788	14415.88
526.56	13782.88
527.331	13106.88
528.102	12538.88
528.873	11908.88
529.644	11331.88
530.415	10767.88
531.186	10258.88
531.957	9692.88
532.728	9216.88
533.498	8641.88
534.269	8187.88
535.039	7754.88
535.81	7310.88
536.58	6879.88
537.351	6497.88
538.121	6111.88
538.891	5840.88
539.661	5520.88
540.431	5223.88
541.201	4938.88
541.971	4672.88
542.741	4461.88
543.51	4215.88
544.28	3996.88
545.05	3841.88
545.819	3656.88
546.588	3462.88
547.358	3268.88
548.127	3113.88
548.896	2946.88
549.665	2789.88
550.434	2658.88
551.203	2527.88
551.972	2376.88
552.741	2256.88
553.51	2112.88
554.278	2001.88
555.047	1892.88
555.815	1788.88
556.584	1687.88
557.352	1587.88
558.121	1480.88
558.889	1406.88
559.657	1342.88
560.425	1253.88
561.193	1185.88
561.961	1121.88
562.729	1060.88
563.496	1005.88
564.264	948.88
565.032	903.88
565.799	852.88
566.567	816.88
567.334	764.88
568.101	725.88
568.869	684.88
569.636	644.88
570.403	605.88
571.17	576.88
571.937	543.88
572.704	510.88
573.471	491.88
574.237	445.88
575.004	425.88
575.771	398.88
576.537	381.88
577.303	358.88
578.07	338.88
578.836	312.88
579.602	293.88
580.368	276.88
581.134	260.88
581.9	247.88
582.666	243.88
583.432	224.88
584.198	217.88
584.964	208.88
585.729	199.88
586.495	186.88
587.26	170.88
588.025	169.88
588.791	151.88
589.556	156.88
590.321	143.88
591.086	135.88
591.851	126.88
592.616	120.88
593.381	114.88
594.146	113.88
594.911	107.88
595.675	100.88
596.44	96.88
597.204	91.88
597.969	85.88
598.733	83.88
599.497	80.88
600.261	78.88
601.025	73.88
601.79	68.88
602.553	67.88
603.317	64.88
604.081	60.88
604.845	60.88
605.609	60.88
606.372	54.88
607.136	50.88
607.899	51.88
608.662	46.88
609.426	46.88
610.189	43.88
610.952	43.88
611.715	39.88
612.478	39.88
613.241	39.88
614.004	36.88
614.767	35.88
615.529	36.88
616.292	34.88
617.055	30.88
617.817	32.88
618.579	30.88
619.342	27.88
620.104	27.88
620.866	28.88
621.628	25.88
622.39	25.88
623.152	22.88
623.914	24.88
624.676	24.88
625.438	21.88
626.199	19.88
626.961	21.88
627.722	18.88
628.484	20.88
629.245	18.88
630.006	17.88
630.768	19.88
631.529	16.88
632.29	15.88
633.051	16.88
633.812	16.88
634.573	13.88
635.333	17.88
636.094	15.88
636.855	13.88
637.615	14.88
638.376	14.88
639.136	14.88
639.896	13.88
640.657	12.88
641.417	13.88
642.177	9.88
642.937	11.88
643.697	6.88
644.457	12.88
645.216	10.88
645.976	10.88
646.736	9.88
647.495	7.88
648.255	7.88
649.014	7.88
649.774	10.88
650.533	7.88
651.292	9.88
652.051	9.88
652.81	7.88
653.569	8.88
654.328	7.88
655.087	6.88
655.846	9.88
656.604	9.88
657.363	6.88
658.121	6.88
658.88	7.88
659.638	9.88
660.397	5.88
661.155	9.88
661.913	6.88
662.671	1.88
663.429	7.88
664.187	7.88
664.945	5.88
665.703	5.88
666.46	6.88
667.218	5.88
667.976	7.88
668.733	5.88
669.49	4.88
670.248	6.88
671.005	6.88
671.762	4.88
672.519	3.88
673.276	5.88
674.033	4.88
674.79	4.88
675.547	4.88
676.304	4.88
677.06	6.88
677.817	4.88
678.574	4.88
679.33	5.88
680.086	4.88
680.843	2.88
681.599	5.88
682.355	7.88
683.111	4.88
683.867	5.88
684.623	4.88
685.379	6.88
686.135	3.88
686.89	6.88
687.646	6.88
688.402	4.88
689.157	3.88
689.912	3.88
690.668	1.88
691.423	7.88
692.178	1.88
692.933	4.88
693.688	4.88
694.443	2.88
695.198	7.88
695.953	4.88
696.708	5.88
697.462	5.88
698.217	2.88
698.972	5.88
699.726	3.88
700.48	4.88
701.235	3.88
701.989	3.88
702.743	5.88
703.497	2.88
704.251	4.88
705.005	4.88
705.759	4.88
706.513	4.88
707.266	4.88
708.02	3.88
708.774	4.88
709.527	5.88
710.28	4.88
711.034	4.88
711.787	4.88
712.54	2.88
713.293	4.88
714.046	1.88
714.799	6.88
715.552	5.88
716.305	5.88
717.058	3.88
717.81	6.88
718.563	4.88
719.315	3.88
720.068	4.88
720.82	5.88
721.573	3.88
722.325	5.88
723.077	2.88
723.829	5.88
724.581	3.88
725.333	2.88
726.085	5.88
726.836	3.88
727.588	6.88
728.34	4.88
729.091	5.88
729.843	5.88
730.594	4.88
731.346	5.88
732.097	4.88
732.848	4.88
733.599	5.88
734.35	4.88
735.101	6.88
735.852	5.88
736.603	6.88
737.354	5.88
738.104	6.88
738.855	5.88
739.605	5.88
740.356	4.88
741.106	6.88
741.856	6.88
742.607	5.88
743.357	4.88
744.107	5.88
744.857	6.88
745.607	6.88
746.357	7.88
747.106	5.88
747.856	4.88
748.606	6.88
749.355	5.88
750.105	6.88
750.854	5.88
751.603	6.88
752.353	7.88
753.102	6.88
753.851	7.88
754.6	9.88
755.349	6.88
756.098	7.88
756.847	9.88
757.595	7.88
758.344	8.88
759.093	7.88
759.841	7.88
760.589	8.88
761.338	9.88
762.086	7.88
762.834	3.88
763.582	9.88
764.331	7.88
765.079	8.88
765.826	9.88
766.574	8.88
767.322	9.88
768.07	10.88
768.817	10.88
769.565	9.88
770.312	10.88
771.06	9.88
771.807	9.88
772.554	10.88
773.302	9.88
774.049	10.88
774.796	10.88
775.543	11.88
776.29	10.88
777.036	10.88
777.783	10.88
778.53	8.88
779.276	9.88
780.023	11.88
780.769	10.88
781.516	13.88
782.262	11.88
783.008	12.88
783.754	9.88
784.5	13.88
785.246	11.88
785.992	12.88
786.738	8.88
787.484	10.88
788.23	9.88
788.975	10.88
789.721	13.88
790.466	11.88
791.212	10.88
791.957	9.88
792.702	11.88
793.447	8.88
794.193	12.88
794.938	9.88
795.683	10.88
796.427	11.88
797.172	8.88
797.917	10.88
798.662	6.88
799.406	8.88
800.151	11.88
800.895	9.88
801.64	9.88
802.384	8.88
803.128	7.88
803.872	6.88
804.616	9.88
805.36	5.88
806.104	9.88
806.848	8.88
807.592	7.88
808.336	6.88
809.079	7.88
809.823	6.88
810.566	3.88
811.31	4.88
812.053	5.88
812.796	6.88
813.539	7.88
814.283	6.88
815.026	7.88
815.769	7.88
816.511	5.88
817.254	3.88
817.997	3.88
818.74	6.88
819.482	3.88
820.225	4.88
820.967	4.88
821.71	4.88
822.452	2.88
823.194	2.88
823.936	5.88
824.678	2.88
825.42	4.88
826.162	5.88
826.904	3.88
827.646	5.88
828.388	3.88
829.129	4.88
829.871	5.88
830.612	4.88
831.354	2.88
832.095	4.88
832.836	6.88
833.577	6.88
834.319	3.88
835.06	3.88
835.801	1.88
836.542	2.88
837.282	3.88
838.023	3.88
838.764	3.88
839.504	1.88
840.245	3.88
840.985	3.88
841.726	2.88
842.466	3.88
843.206	3.88
843.946	2.88
844.687	3.88
845.427	3.88
846.166	1.88
846.906	4.88
847.646	2.88
848.386	3.88
849.125	4.88
849.865	2.88
850.605	3.88
851.344	1.88
852.083	2.88
852.823	4.88
853.562	3.88
854.301	3.88
855.04	0.88
855.779	2.88
856.518	1.88
857.257	1.88
857.995	1.88
858.734	-0.12
859.473	2.88
860.211	2.88
860.95	1.88
861.688	2.88
862.426	-0.12
863.165	3.88
863.903	1.88
864.641	1.88
865.379	1.88
866.117	0.88
866.855	-0.12
867.593	1.88
868.33	2.88
869.068	-0.12
869.806	-0.12
870.543	0.88
871.28	2.88
872.018	3.88
872.755	2.88
873.492	0.88
874.229	-0.12
874.967	2.88
875.703	1.88
876.44	0.88
877.177	0.88
877.914	1.88
878.651	3.88
879.387	-0.12
880.124	1.88
880.86	0.88
881.597	-0.12
882.333	0.88
883.069	1.88
883.806	1.88
884.542	0.88
885.278	-0.12
886.014	1.88
886.749	-0.12
887.485	1.88
888.221	0.88
888.957	0.88
889.692	1.88
890.428	-0.12
891.163	-0.12
891.899	-0.12
892.634	1.88
893.369	1.88
894.104	0.88
894.839	1.88
895.574	1.88
896.309	-0.12
897.044	1.88
897.779	-0.12
898.514	-0.12
899.248	-1.12
899.983	-0.12
900.717	-0.12
901.452	0.88
902.186	-0.12
902.92	1.88
903.654	-0.12
904.389	-0.12
905.123	1.88
905.857	-1.12
906.59	-3.12
907.324	-0.12
908.058	-2.12
908.792	-0.12
909.525	-1.12
910.259	0.88
910.992	0.88
911.726	-0.12
912.459	2.88
913.192	-0.12
913.925	1.88
914.658	1.88
915.391	-0.12
916.124	0.88
916.857	0.88
917.59	0.88
918.323	-2.12
919.055	1.88
919.788	1.88
920.521	1.88
921.253	1.88
921.985	-0.12
922.718	2.88
923.45	-2.12
924.182	-0.12
924.914	1.88
925.646	-1.12
926.378	-0.12
927.11	-0.12
927.841	-0.12
928.573	0.88
929.305	0.88
930.036	0.88
930.768	-2.12
931.499	0.88
932.23	-0.12
932.962	0.88
933.693	1.88
934.424	-2.12
935.155	-0.12
935.886	-2.12
936.617	0.88
937.348	-0.12
938.078	-0.12
938.809	-0.12
939.54	-0.12
940.27	1.88
941.001	-0.12
941.731	0.88
942.461	0.88
943.191	-0.12
943.922	-1.12
944.652	1.88
945.382	-1.12
946.112	1.88
946.841	-0.12
947.571	-0.12
948.301	0.88
949.031	0.88
949.76	-0.12
950.49	-0.12
951.219	1.88
951.948	-0.12
952.678	1.88
953.407	0.88
954.136	-0.12
954.865	1.88
955.594	-0.12
956.323	1.88
957.052	-0.12
957.78	1.88
958.509	0.88
959.238	-0.12
959.966	0.88
960.695	-2.12
961.423	-0.12
962.151	-0.12
962.88	-0.12
963.608	-0.12
964.336	-1.12
965.064	-2.12
965.792	0.88
966.52	-1.12
967.247	-0.12
967.975	-1.12
968.703	-0.12
969.43	-0.12
970.158	-1.12
970.885	-1.12
971.613	-0.12
972.34	-0.12
973.067	-2.12
973.794	-2.12
974.521	-0.12
975.248	0.88
975.975	-2.12
976.702	-1.12
977.429	-0.12
978.156	0.88
978.882	0.88
979.609	-1.12
980.335	1.88
981.062	0.88
981.788	-0.12
982.514	-1.12
983.24	-2.12
983.967	-0.12
984.693	0.88
985.419	-2.12
986.144	0.88
986.87	-2.12
987.596	1.88
988.322	-1.12
989.047	-1.12
989.773	0.88
990.498	-0.12
991.224	0.88
991.949	-0.12
992.674	0.88
993.399	-0.12
994.124	0.88
994.849	-0.12
995.574	-3.12
996.299	1.88
997.024	-2.12
997.749	-0.12
998.473	0.88
999.198	-1.12
999.922	-1.12
1000.647	-1.12
1001.371	3.88
1002.095	-1.12
1002.82	-0.12
1003.544	-0.12
1004.268	2.88
1004.992	1.88
1005.716	1.88
1006.439	-0.12
1007.163	1.88
1007.887	1.88
1008.611	-2.12
1009.334	-0.12
1010.058	1.88
1010.781	1.88
1011.504	-1.12
1012.228	-0.12
1012.951	-2.12
1013.674	1.88
1014.397	-2.12
1015.12	-0.12
