节点500_425_QEPB04081__174__15-51-12-169.txt的数据

Date: Wed Nov 12 15:51:12 CST 2025
User: PC
Spectrometer: QEPB0408
触发模式: 0
积分时间 (秒): 1.000000E-2
Scans to average: 1
启用暗噪声校正: true
启用非线性校正: false
滑动平均宽度: 0
X轴模式: Wavelengths
Number of Pixels in Spectrum: 1044
>>>>>Begin Spectral Data<<<<<
220.843	2.5
221.644	5.5
222.444	5.5
223.244	4.5
224.045	4.5
224.845	3.5
225.645	5.5
226.445	4.5
227.245	7.5
228.045	4.5
228.845	7.5
229.645	5.5
230.444	3.5
231.244	5.5
232.043	2.5
232.843	7.5
233.642	5.5
234.442	7.5
235.241	6.5
236.04	7.5
236.839	8.5
237.638	5.5
238.437	8.5
239.236	4.5
240.035	6.5
240.833	8.5
241.632	5.5
242.43	7.5
243.229	7.5
244.027	8.5
244.826	7.5
245.624	6.5
246.422	10.5
247.22	9.5
248.018	7.5
248.816	8.5
249.614	11.5
250.412	11.5
251.21	6.5
252.007	10.5
252.805	9.5
253.602	9.5
254.4	11.5
255.197	11.5
255.994	12.5
256.791	12.5
257.589	16.5
258.386	15.5
259.183	15.5
259.979	14.5
260.776	13.5
261.573	15.5
262.37	17.5
263.166	16.5
263.963	18.5
264.759	17.5
265.556	17.5
266.352	16.5
267.148	18.5
267.944	20.5
268.74	18.5
269.536	19.5
270.332	20.5
271.128	22.5
271.924	20.5
272.719	21.5
273.515	23.5
274.311	20.5
275.106	24.5
275.901	26.5
276.697	24.5
277.492	24.5
278.287	25.5
279.082	25.5
279.877	22.5
280.672	26.5
281.467	25.5
282.262	25.5
283.056	26.5
283.851	23.5
284.646	26.5
285.44	28.5
286.234	26.5
287.029	24.5
287.823	27.5
288.617	24.5
289.411	25.5
290.205	26.5
290.999	23.5
291.793	25.5
292.587	25.5
293.381	23.5
294.174	24.5
294.968	21.5
295.761	22.5
296.555	21.5
297.348	20.5
298.141	18.5
298.935	20.5
299.728	19.5
300.521	18.5
301.314	17.5
302.107	14.5
302.899	16.5
303.692	18.5
304.485	16.5
305.277	19.5
306.07	14.5
306.862	17.5
307.655	16.5
308.447	16.5
309.239	19.5
310.031	19.5
310.823	14.5
311.615	15.5
312.407	13.5
313.199	11.5
313.991	13.5
314.783	12.5
315.574	11.5
316.366	12.5
317.157	9.5
317.949	12.5
318.74	10.5
319.531	11.5
320.322	11.5
321.113	10.5
321.904	10.5
322.695	9.5
323.486	7.5
324.277	10.5
325.068	9.5
325.858	10.5
326.649	10.5
327.439	10.5
328.23	7.5
329.02	8.5
329.81	8.5
330.6	9.5
331.391	8.5
332.181	5.5
332.971	8.5
333.76	8.5
334.55	8.5
335.34	10.5
336.13	7.5
336.919	8.5
337.709	9.5
338.498	11.5
339.287	7.5
340.077	8.5
340.866	9.5
341.655	9.5
342.444	9.5
343.233	7.5
344.022	7.5
344.811	9.5
345.6	7.5
346.388	7.5
347.177	7.5
347.965	6.5
348.754	7.5
349.542	7.5
350.33	8.5
351.119	8.5
351.907	7.5
352.695	9.5
353.483	7.5
354.271	8.5
355.059	9.5
355.846	6.5
356.634	9.5
357.422	6.5
358.209	7.5
358.997	7.5
359.784	7.5
360.571	7.5
361.359	7.5
362.146	6.5
362.933	5.5
363.72	7.5
364.507	5.5
365.294	7.5
366.081	8.5
366.867	6.5
367.654	6.5
368.44	4.5
369.227	5.5
370.013	5.5
370.8	6.5
371.586	8.5
372.372	6.5
373.158	5.5
373.944	8.5
374.73	7.5
375.516	5.5
376.302	5.5
377.088	9.5
377.873	6.5
378.659	8.5
379.445	7.5
380.23	6.5
381.015	10.5
381.801	4.5
382.586	9.5
383.371	8.5
384.156	6.5
384.941	6.5
385.726	8.5
386.511	9.5
387.296	7.5
388.08	8.5
388.865	8.5
389.649	9.5
390.434	9.5
391.218	4.5
392.003	5.5
392.787	7.5
393.571	8.5
394.355	7.5
395.139	7.5
395.923	10.5
396.707	10.5
397.491	9.5
398.274	11.5
399.058	9.5
399.842	10.5
400.625	8.5
401.408	8.5
402.192	10.5
402.975	11.5
403.758	14.5
404.541	9.5
405.324	11.5
406.107	11.5
406.89	10.5
407.673	11.5
408.456	10.5
409.238	13.5
410.021	8.5
410.803	11.5
411.586	13.5
412.368	12.5
413.151	14.5
413.933	12.5
414.715	11.5
415.497	12.5
416.279	16.5
417.061	14.5
417.843	16.5
418.624	13.5
419.406	13.5
420.188	13.5
420.969	11.5
421.751	18.5
422.532	18.5
423.313	14.5
424.095	18.5
424.876	19.5
425.657	17.5
426.438	18.5
427.219	17.5
428	20.5
428.78	20.5
429.561	20.5
430.342	20.5
431.122	20.5
431.903	20.5
432.683	20.5
433.464	23.5
434.244	25.5
435.024	24.5
435.804	26.5
436.584	25.5
437.364	27.5
438.144	30.5
438.924	33.5
439.704	28.5
440.483	35.5
441.263	36.5
442.042	37.5
442.822	40.5
443.601	44.5
444.38	49.5
445.16	47.5
445.939	54.5
446.718	56.5
447.497	59.5
448.276	68.5
449.054	70.5
449.833	77.5
450.612	83.5
451.391	89.5
452.169	100.5
452.948	107.5
453.726	122.5
454.504	131.5
455.282	145.5
456.061	165.5
456.839	177.5
457.617	201.5
458.395	225.5
459.172	253.5
459.95	274.5
460.728	307.5
461.506	342.5
462.283	379.5
463.061	439.5
463.838	495.5
464.615	546.5
465.393	616.5
466.17	671.5
466.947	757.5
467.724	843.5
468.501	927.5
469.278	1044.5
470.055	1142.5
470.831	1280.5
471.608	1418.5
472.385	1574.5
473.161	1752.5
473.938	1941.5
474.714	2153.5
475.49	2381.5
476.266	2619.5
477.043	2882.5
477.819	3208.5
478.595	3531.5
479.371	3900.5
480.146	4269.5
480.922	4683.5
481.698	5188.5
482.473	5693.5
483.249	6227.5
484.024	6868.5
484.8	7551.5
485.575	8251.5
486.35	9024.5
487.126	9851.5
487.901	10785.5
488.676	11796.5
489.451	12818.5
490.225	13992.5
491	15139.5
491.775	16450.5
492.55	17783.5
493.324	19185.5
494.099	20566.5
494.873	21959.5
495.647	23437.5
496.422	24937.5
497.196	26472.5
497.97	28006.5
498.744	29484.5
499.518	30870.5
500.292	31999.5
501.066	33241.5
501.839	34341.5
502.613	35152.5
503.387	35791.5
504.16	36296.5
504.934	36473.5
505.707	36357.5
506.48	36132.5
507.253	35854.5
508.027	35272.5
508.8	34598.5
509.573	33805.5
510.346	32828.5
511.118	31822.5
511.891	30693.5
512.664	29477.5
513.437	28321.5
514.209	27170.5
514.982	26139.5
515.754	25015.5
516.526	23872.5
517.298	22805.5
518.071	21848.5
518.843	20991.5
519.615	20132.5
520.387	19260.5
521.159	18600.5
521.93	17906.5
522.702	17137.5
523.474	16561.5
524.245	15832.5
525.017	15078.5
525.788	14421.5
526.56	13748.5
527.331	13042.5
528.102	12513.5
528.873	11872.5
529.644	11260.5
530.415	10731.5
531.186	10224.5
531.957	9669.5
532.728	9148.5
533.498	8624.5
534.269	8150.5
535.039	7716.5
535.81	7298.5
536.58	6913.5
537.351	6463.5
538.121	6163.5
538.891	5813.5
539.661	5517.5
540.431	5206.5
541.201	4962.5
541.971	4692.5
542.741	4435.5
543.51	4197.5
544.28	4007.5
545.05	3814.5
545.819	3649.5
546.588	3462.5
547.358	3278.5
548.127	3099.5
548.896	2948.5
549.665	2792.5
550.434	2647.5
551.203	2506.5
551.972	2369.5
552.741	2228.5
553.51	2132.5
554.278	1990.5
555.047	1884.5
555.815	1792.5
556.584	1675.5
557.352	1578.5
558.121	1486.5
558.889	1404.5
559.657	1340.5
560.425	1243.5
561.193	1202.5
561.961	1121.5
562.729	1057.5
563.496	1015.5
564.264	951.5
565.032	897.5
565.799	850.5
566.567	814.5
567.334	751.5
568.101	723.5
568.869	680.5
569.636	637.5
570.403	597.5
571.17	569.5
571.937	538.5
572.704	503.5
573.471	484.5
574.237	451.5
575.004	420.5
575.771	398.5
576.537	378.5
577.303	354.5
578.07	336.5
578.836	317.5
579.602	294.5
580.368	286.5
581.134	264.5
581.9	254.5
582.666	242.5
583.432	229.5
584.198	221.5
584.964	202.5
585.729	199.5
586.495	183.5
587.26	176.5
588.025	168.5
588.791	156.5
589.556	154.5
590.321	146.5
591.086	136.5
591.851	129.5
592.616	126.5
593.381	120.5
594.146	105.5
594.911	105.5
595.675	102.5
596.44	95.5
597.204	89.5
597.969	91.5
598.733	85.5
599.497	78.5
600.261	76.5
601.025	75.5
601.79	70.5
602.553	71.5
603.317	62.5
604.081	65.5
604.845	61.5
605.609	57.5
606.372	55.5
607.136	51.5
607.899	48.5
608.662	45.5
609.426	44.5
610.189	43.5
610.952	46.5
611.715	46.5
612.478	40.5
613.241	40.5
614.004	35.5
614.767	38.5
615.529	35.5
616.292	36.5
617.055	30.5
617.817	29.5
618.579	29.5
619.342	33.5
620.104	28.5
620.866	27.5
621.628	25.5
622.39	25.5
623.152	25.5
623.914	23.5
624.676	24.5
625.438	22.5
626.199	23.5
626.961	19.5
627.722	22.5
628.484	21.5
629.245	18.5
630.006	19.5
630.768	17.5
631.529	18.5
632.29	19.5
633.051	17.5
633.812	16.5
634.573	15.5
635.333	17.5
636.094	16.5
636.855	16.5
637.615	16.5
638.376	12.5
639.136	15.5
639.896	13.5
640.657	15.5
641.417	12.5
642.177	13.5
642.937	10.5
643.697	11.5
644.457	11.5
645.216	13.5
645.976	12.5
646.736	10.5
647.495	9.5
648.255	12.5
649.014	10.5
649.774	11.5
650.533	9.5
651.292	10.5
652.051	8.5
652.81	7.5
653.569	11.5
654.328	8.5
655.087	9.5
655.846	9.5
656.604	9.5
657.363	9.5
658.121	9.5
658.88	9.5
659.638	10.5
660.397	6.5
661.155	9.5
661.913	8.5
662.671	10.5
663.429	7.5
664.187	6.5
664.945	6.5
665.703	8.5
666.46	6.5
667.218	5.5
667.976	6.5
668.733	7.5
669.49	7.5
670.248	10.5
671.005	7.5
671.762	8.5
672.519	6.5
673.276	7.5
674.033	5.5
674.79	5.5
675.547	8.5
676.304	3.5
677.06	7.5
677.817	7.5
678.574	6.5
679.33	4.5
680.086	4.5
680.843	4.5
681.599	5.5
682.355	6.5
683.111	4.5
683.867	6.5
684.623	5.5
685.379	5.5
686.135	5.5
686.89	5.5
687.646	7.5
688.402	4.5
689.157	7.5
689.912	7.5
690.668	4.5
691.423	4.5
692.178	5.5
692.933	7.5
693.688	5.5
694.443	6.5
695.198	4.5
695.953	6.5
696.708	6.5
697.462	6.5
698.217	5.5
698.972	6.5
699.726	3.5
700.48	6.5
701.235	6.5
701.989	3.5
702.743	6.5
703.497	4.5
704.251	4.5
705.005	3.5
705.759	7.5
706.513	5.5
707.266	5.5
708.02	5.5
708.774	2.5
709.527	3.5
710.28	5.5
711.034	3.5
711.787	6.5
712.54	3.5
713.293	5.5
714.046	6.5
714.799	5.5
715.552	3.5
716.305	6.5
717.058	3.5
717.81	5.5
718.563	5.5
719.315	6.5
720.068	7.5
720.82	6.5
721.573	4.5
722.325	7.5
723.077	4.5
723.829	3.5
724.581	6.5
725.333	7.5
726.085	6.5
726.836	5.5
727.588	5.5
728.34	4.5
729.091	3.5
729.843	7.5
730.594	5.5
731.346	5.5
732.097	6.5
732.848	6.5
733.599	5.5
734.35	6.5
735.101	6.5
735.852	4.5
736.603	7.5
737.354	9.5
738.104	6.5
738.855	7.5
739.605	8.5
740.356	5.5
741.106	5.5
741.856	8.5
742.607	6.5
743.357	4.5
744.107	7.5
744.857	4.5
745.607	5.5
746.357	7.5
747.106	6.5
747.856	7.5
748.606	8.5
749.355	7.5
750.105	6.5
750.854	8.5
751.603	5.5
752.353	6.5
753.102	10.5
753.851	7.5
754.6	7.5
755.349	10.5
756.098	7.5
756.847	9.5
757.595	8.5
758.344	7.5
759.093	7.5
759.841	10.5
760.589	9.5
761.338	10.5
762.086	10.5
762.834	9.5
763.582	8.5
764.331	10.5
765.079	10.5
765.826	11.5
766.574	8.5
767.322	10.5
768.07	10.5
768.817	10.5
769.565	10.5
770.312	12.5
771.06	10.5
771.807	11.5
772.554	8.5
773.302	11.5
774.049	9.5
774.796	13.5
775.543	11.5
776.29	10.5
777.036	10.5
777.783	13.5
778.53	11.5
779.276	14.5
780.023	9.5
780.769	11.5
781.516	11.5
782.262	14.5
783.008	12.5
783.754	12.5
784.5	9.5
785.246	14.5
785.992	10.5
786.738	13.5
787.484	10.5
788.23	13.5
788.975	10.5
789.721	10.5
790.466	10.5
791.212	8.5
791.957	9.5
792.702	13.5
793.447	10.5
794.193	12.5
794.938	10.5
795.683	12.5
796.427	11.5
797.172	9.5
797.917	10.5
798.662	8.5
799.406	10.5
800.151	10.5
800.895	10.5
801.64	10.5
802.384	9.5
803.128	9.5
803.872	7.5
804.616	10.5
805.36	10.5
806.104	8.5
806.848	8.5
807.592	7.5
808.336	6.5
809.079	7.5
809.823	7.5
810.566	6.5
811.31	8.5
812.053	5.5
812.796	7.5
813.539	7.5
814.283	8.5
815.026	6.5
815.769	7.5
816.511	8.5
817.254	5.5
817.997	5.5
818.74	7.5
819.482	5.5
820.225	5.5
820.967	6.5
821.71	4.5
822.452	4.5
823.194	6.5
823.936	5.5
824.678	7.5
825.42	5.5
826.162	8.5
826.904	4.5
827.646	4.5
828.388	4.5
829.129	4.5
829.871	5.5
830.612	6.5
831.354	5.5
832.095	3.5
832.836	5.5
833.577	4.5
834.319	4.5
835.06	5.5
835.801	4.5
836.542	4.5
837.282	2.5
838.023	4.5
838.764	7.5
839.504	4.5
840.245	6.5
840.985	4.5
841.726	4.5
842.466	3.5
843.206	3.5
843.946	4.5
844.687	2.5
845.427	4.5
846.166	3.5
846.906	3.5
847.646	7.5
848.386	4.5
849.125	4.5
849.865	5.5
850.605	3.5
851.344	7.5
852.083	3.5
852.823	3.5
853.562	3.5
854.301	4.5
855.04	4.5
855.779	4.5
856.518	2.5
857.257	0.5
857.995	5.5
858.734	3.5
859.473	3.5
860.211	3.5
860.95	3.5
861.688	2.5
862.426	2.5
863.165	2.5
863.903	3.5
864.641	2.5
865.379	2.5
866.117	0.5
866.855	2.5
867.593	2.5
868.33	3.5
869.068	4.5
869.806	1.5
870.543	-0.5
871.28	4.5
872.018	3.5
872.755	0.5
873.492	0.5
874.229	2.5
874.967	-0.5
875.703	0.5
876.44	2.5
877.177	0.5
877.914	1.5
878.651	1.5
879.387	1.5
880.124	1.5
880.86	3.5
881.597	0.5
882.333	0.5
883.069	0.5
883.806	1.5
884.542	3.5
885.278	1.5
886.014	1.5
886.749	0.5
887.485	1.5
888.221	1.5
888.957	2.5
889.692	1.5
890.428	1.5
891.163	1.5
891.899	1.5
892.634	-0.5
893.369	2.5
894.104	0.5
894.839	1.5
895.574	1.5
896.309	-1.5
897.044	2.5
897.779	4.5
898.514	0.5
899.248	-0.5
899.983	1.5
900.717	1.5
901.452	1.5
902.186	0.5
902.92	0.5
903.654	0.5
904.389	0.5
905.123	1.5
905.857	2.5
906.59	0.5
907.324	0.5
908.058	2.5
908.792	3.5
909.525	-0.5
910.259	0.5
910.992	3.5
911.726	0.5
912.459	0.5
913.192	2.5
913.925	1.5
914.658	1.5
915.391	0.5
916.124	1.5
916.857	1.5
917.59	1.5
918.323	2.5
919.055	-0.5
919.788	2.5
920.521	-0.5
921.253	-0.5
921.985	0.5
922.718	0.5
923.45	0.5
924.182	-0.5
924.914	0.5
925.646	-0.5
926.378	0.5
927.11	0.5
927.841	0.5
928.573	2.5
929.305	-0.5
930.036	0.5
930.768	0.5
931.499	-0.5
932.23	0.5
932.962	0.5
933.693	0.5
934.424	-1.5
935.155	0.5
935.886	0.5
936.617	1.5
937.348	1.5
938.078	-0.5
938.809	0.5
939.54	0.5
940.27	1.5
941.001	0.5
941.731	-0.5
942.461	2.5
943.191	1.5
943.922	1.5
944.652	1.5
945.382	0.5
946.112	0.5
946.841	0.5
947.571	0.5
948.301	-0.5
949.031	1.5
949.76	-1.5
950.49	2.5
951.219	0.5
951.948	2.5
952.678	1.5
953.407	-0.5
954.136	-0.5
954.865	0.5
955.594	0.5
956.323	0.5
957.052	-0.5
957.78	2.5
958.509	1.5
959.238	0.5
959.966	2.5
960.695	-0.5
961.423	0.5
962.151	-0.5
962.88	1.5
963.608	2.5
964.336	-3.5
965.064	0.5
965.792	0.5
966.52	1.5
967.247	1.5
967.975	-0.5
968.703	2.5
969.43	1.5
970.158	0.5
970.885	0.5
971.613	0.5
972.34	0.5
973.067	-1.5
973.794	-0.5
974.521	2.5
975.248	-1.5
975.975	1.5
976.702	-0.5
977.429	-0.5
978.156	2.5
978.882	1.5
979.609	3.5
980.335	0.5
981.062	-0.5
981.788	-0.5
982.514	0.5
983.24	-2.5
983.967	-0.5
984.693	1.5
985.419	0.5
986.144	1.5
986.87	2.5
987.596	0.5
988.322	-0.5
989.047	0.5
989.773	0.5
990.498	1.5
991.224	1.5
991.949	-0.5
992.674	-1.5
993.399	1.5
994.124	-1.5
994.849	0.5
995.574	-1.5
996.299	0.5
997.024	0.5
997.749	2.5
998.473	1.5
999.198	0.5
999.922	2.5
1000.647	-0.5
1001.371	3.5
1002.095	0.5
1002.82	-2.5
1003.544	-1.5
1004.268	3.5
1004.992	0.5
1005.716	2.5
1006.439	2.5
1007.163	2.5
1007.887	1.5
1008.611	3.5
1009.334	1.5
1010.058	1.5
1010.781	-0.5
1011.504	-2.5
1012.228	0.5
1012.951	-0.5
1013.674	-0.5
1014.397	1.5
1015.12	-0.5
