节点500_425_QEPB04081__180__15-51-18-141.txt的数据

Date: Wed Nov 12 15:51:18 CST 2025
User: PC
Spectrometer: QEPB0408
触发模式: 0
积分时间 (秒): 1.000000E-2
Scans to average: 1
启用暗噪声校正: true
启用非线性校正: false
滑动平均宽度: 0
X轴模式: Wavelengths
Number of Pixels in Spectrum: 1044
>>>>>Begin Spectral Data<<<<<
220.843	2.62
221.644	5.62
222.444	2.62
223.244	2.62
224.045	3.62
224.845	1.62
225.645	5.62
226.445	4.62
227.245	3.62
228.045	6.62
228.845	3.62
229.645	6.62
230.444	5.62
231.244	5.62
232.043	4.62
232.843	3.62
233.642	4.62
234.442	3.62
235.241	8.62
236.04	4.62
236.839	6.62
237.638	5.62
238.437	8.62
239.236	8.62
240.035	7.62
240.833	6.62
241.632	6.62
242.43	5.62
243.229	8.62
244.027	9.62
244.826	9.62
245.624	9.62
246.422	11.62
247.22	11.62
248.018	9.62
248.816	9.62
249.614	8.62
250.412	10.62
251.21	12.62
252.007	10.62
252.805	11.62
253.602	10.62
254.4	11.62
255.197	12.62
255.994	15.62
256.791	16.62
257.589	13.62
258.386	14.62
259.183	13.62
259.979	14.62
260.776	14.62
261.573	15.62
262.37	17.62
263.166	15.62
263.963	16.62
264.759	17.62
265.556	20.62
266.352	20.62
267.148	20.62
267.944	19.62
268.74	23.62
269.536	22.62
270.332	25.62
271.128	22.62
271.924	23.62
272.719	21.62
273.515	24.62
274.311	23.62
275.106	24.62
275.901	25.62
276.697	26.62
277.492	24.62
278.287	24.62
279.082	24.62
279.877	25.62
280.672	21.62
281.467	26.62
282.262	26.62
283.056	26.62
283.851	28.62
284.646	27.62
285.44	27.62
286.234	22.62
287.029	24.62
287.823	24.62
288.617	28.62
289.411	24.62
290.205	23.62
290.999	21.62
291.793	26.62
292.587	24.62
293.381	21.62
294.174	23.62
294.968	22.62
295.761	19.62
296.555	20.62
297.348	18.62
298.141	22.62
298.935	21.62
299.728	20.62
300.521	21.62
301.314	17.62
302.107	19.62
302.899	17.62
303.692	16.62
304.485	17.62
305.277	17.62
306.07	16.62
306.862	15.62
307.655	17.62
308.447	16.62
309.239	12.62
310.031	16.62
310.823	14.62
311.615	15.62
312.407	13.62
313.199	10.62
313.991	12.62
314.783	12.62
315.574	12.62
316.366	11.62
317.157	12.62
317.949	7.62
318.74	11.62
319.531	10.62
320.322	9.62
321.113	10.62
321.904	11.62
322.695	11.62
323.486	8.62
324.277	9.62
325.068	12.62
325.858	7.62
326.649	12.62
327.439	8.62
328.23	7.62
329.02	9.62
329.81	8.62
330.6	10.62
331.391	8.62
332.181	9.62
332.971	9.62
333.76	8.62
334.55	11.62
335.34	7.62
336.13	9.62
336.919	6.62
337.709	8.62
338.498	8.62
339.287	8.62
340.077	7.62
340.866	8.62
341.655	9.62
342.444	6.62
343.233	8.62
344.022	9.62
344.811	8.62
345.6	6.62
346.388	9.62
347.177	10.62
347.965	9.62
348.754	7.62
349.542	10.62
350.33	9.62
351.119	8.62
351.907	9.62
352.695	9.62
353.483	8.62
354.271	7.62
355.059	7.62
355.846	5.62
356.634	8.62
357.422	9.62
358.209	5.62
358.997	7.62
359.784	9.62
360.571	6.62
361.359	8.62
362.146	7.62
362.933	7.62
363.72	7.62
364.507	8.62
365.294	6.62
366.081	7.62
366.867	7.62
367.654	8.62
368.44	6.62
369.227	6.62
370.013	6.62
370.8	6.62
371.586	5.62
372.372	6.62
373.158	7.62
373.944	6.62
374.73	7.62
375.516	6.62
376.302	11.62
377.088	7.62
377.873	8.62
378.659	7.62
379.445	7.62
380.23	8.62
381.015	7.62
381.801	5.62
382.586	7.62
383.371	8.62
384.156	7.62
384.941	8.62
385.726	7.62
386.511	6.62
387.296	7.62
388.08	6.62
388.865	8.62
389.649	6.62
390.434	8.62
391.218	6.62
392.003	8.62
392.787	8.62
393.571	9.62
394.355	8.62
395.139	9.62
395.923	7.62
396.707	8.62
397.491	8.62
398.274	8.62
399.058	8.62
399.842	9.62
400.625	9.62
401.408	10.62
402.192	10.62
402.975	10.62
403.758	10.62
404.541	10.62
405.324	8.62
406.107	10.62
406.89	11.62
407.673	10.62
408.456	8.62
409.238	12.62
410.021	12.62
410.803	12.62
411.586	13.62
412.368	10.62
413.151	10.62
413.933	11.62
414.715	12.62
415.497	16.62
416.279	11.62
417.061	14.62
417.843	14.62
418.624	14.62
419.406	15.62
420.188	16.62
420.969	12.62
421.751	13.62
422.532	16.62
423.313	17.62
424.095	13.62
424.876	16.62
425.657	14.62
426.438	17.62
427.219	18.62
428	21.62
428.78	18.62
429.561	17.62
430.342	21.62
431.122	18.62
431.903	23.62
432.683	23.62
433.464	23.62
434.244	24.62
435.024	23.62
435.804	27.62
436.584	27.62
437.364	26.62
438.144	33.62
438.924	28.62
439.704	32.62
440.483	37.62
441.263	35.62
442.042	38.62
442.822	39.62
443.601	43.62
444.38	40.62
445.16	51.62
445.939	52.62
446.718	53.62
447.497	60.62
448.276	61.62
449.054	73.62
449.833	80.62
450.612	85.62
451.391	92.62
452.169	103.62
452.948	112.62
453.726	115.62
454.504	131.62
455.282	154.62
456.061	165.62
456.839	181.62
457.617	198.62
458.395	229.62
459.172	258.62
459.95	280.62
460.728	306.62
461.506	349.62
462.283	380.62
463.061	425.62
463.838	485.62
464.615	535.62
465.393	603.62
466.17	684.62
466.947	751.62
467.724	841.62
468.501	922.62
469.278	1042.62
470.055	1137.62
470.831	1269.62
471.608	1422.62
472.385	1582.62
473.161	1744.62
473.938	1958.62
474.714	2157.62
475.49	2373.62
476.266	2641.62
477.043	2893.62
477.819	3187.62
478.595	3532.62
479.371	3906.62
480.146	4284.62
480.922	4738.62
481.698	5201.62
482.473	5691.62
483.249	6233.62
484.024	6831.62
484.8	7522.62
485.575	8237.62
486.35	9019.62
487.126	9828.62
487.901	10793.62
488.676	11757.62
489.451	12757.62
490.225	13920.62
491	15087.62
491.775	16420.62
492.55	17719.62
493.324	19099.62
494.099	20464.62
494.873	21872.62
495.647	23381.62
496.422	24936.62
497.196	26326.62
497.97	27983.62
498.744	29338.62
499.518	30731.62
500.292	31949.62
501.066	33009.62
501.839	34193.62
502.613	35089.62
503.387	35771.62
504.16	36170.62
504.934	36324.62
505.707	36306.62
506.48	36136.62
507.253	35708.62
508.027	35229.62
508.8	34621.62
509.573	33772.62
510.346	32817.62
511.118	31871.62
511.891	30734.62
512.664	29474.62
513.437	28364.62
514.209	27136.62
514.982	26077.62
515.754	25081.62
516.526	23995.62
517.298	22889.62
518.071	21916.62
518.843	21043.62
519.615	20175.62
520.387	19368.62
521.159	18627.62
521.93	17927.62
522.702	17199.62
523.474	16451.62
524.245	15888.62
525.017	15114.62
525.788	14465.62
526.56	13768.62
527.331	13122.62
528.102	12525.62
528.873	11898.62
529.644	11292.62
530.415	10810.62
531.186	10232.62
531.957	9697.62
532.728	9160.62
533.498	8679.62
534.269	8182.62
535.039	7785.62
535.81	7309.62
536.58	6906.62
537.351	6493.62
538.121	6152.62
538.891	5816.62
539.661	5517.62
540.431	5257.62
541.201	4951.62
541.971	4700.62
542.741	4421.62
543.51	4222.62
544.28	3994.62
545.05	3831.62
545.819	3654.62
546.588	3469.62
547.358	3287.62
548.127	3108.62
548.896	2963.62
549.665	2776.62
550.434	2646.62
551.203	2506.62
551.972	2386.62
552.741	2247.62
553.51	2119.62
554.278	2002.62
555.047	1894.62
555.815	1796.62
556.584	1688.62
557.352	1597.62
558.121	1480.62
558.889	1413.62
559.657	1335.62
560.425	1255.62
561.193	1194.62
561.961	1128.62
562.729	1065.62
563.496	1001.62
564.264	956.62
565.032	898.62
565.799	863.62
566.567	813.62
567.334	757.62
568.101	717.62
568.869	682.62
569.636	639.62
570.403	606.62
571.17	564.62
571.937	541.62
572.704	514.62
573.471	484.62
574.237	452.62
575.004	427.62
575.771	397.62
576.537	374.62
577.303	359.62
578.07	341.62
578.836	317.62
579.602	293.62
580.368	288.62
581.134	269.62
581.9	258.62
582.666	246.62
583.432	235.62
584.198	219.62
584.964	209.62
585.729	190.62
586.495	190.62
587.26	171.62
588.025	173.62
588.791	157.62
589.556	149.62
590.321	148.62
591.086	133.62
591.851	127.62
592.616	122.62
593.381	112.62
594.146	108.62
594.911	109.62
595.675	99.62
596.44	96.62
597.204	88.62
597.969	85.62
598.733	84.62
599.497	79.62
600.261	77.62
601.025	77.62
601.79	68.62
602.553	68.62
603.317	63.62
604.081	64.62
604.845	60.62
605.609	57.62
606.372	55.62
607.136	53.62
607.899	50.62
608.662	47.62
609.426	45.62
610.189	48.62
610.952	43.62
611.715	40.62
612.478	40.62
613.241	37.62
614.004	38.62
614.767	35.62
615.529	37.62
616.292	31.62
617.055	32.62
617.817	32.62
618.579	28.62
619.342	28.62
620.104	31.62
620.866	28.62
621.628	26.62
622.39	24.62
623.152	24.62
623.914	23.62
624.676	25.62
625.438	22.62
626.199	22.62
626.961	21.62
627.722	18.62
628.484	25.62
629.245	20.62
630.006	20.62
630.768	18.62
631.529	17.62
632.29	20.62
633.051	17.62
633.812	15.62
634.573	16.62
635.333	12.62
636.094	16.62
636.855	14.62
637.615	19.62
638.376	12.62
639.136	12.62
639.896	16.62
640.657	13.62
641.417	11.62
642.177	12.62
642.937	13.62
643.697	12.62
644.457	13.62
645.216	12.62
645.976	10.62
646.736	10.62
647.495	10.62
648.255	10.62
649.014	10.62
649.774	9.62
650.533	8.62
651.292	9.62
652.051	9.62
652.81	8.62
653.569	7.62
654.328	9.62
655.087	8.62
655.846	8.62
656.604	8.62
657.363	9.62
658.121	10.62
658.88	8.62
659.638	8.62
660.397	6.62
661.155	9.62
661.913	8.62
662.671	7.62
663.429	8.62
664.187	6.62
664.945	9.62
665.703	5.62
666.46	9.62
667.218	6.62
667.976	5.62
668.733	4.62
669.49	8.62
670.248	9.62
671.005	6.62
671.762	8.62
672.519	6.62
673.276	9.62
674.033	8.62
674.79	4.62
675.547	4.62
676.304	9.62
677.06	4.62
677.817	5.62
678.574	4.62
679.33	5.62
680.086	6.62
680.843	9.62
681.599	6.62
682.355	4.62
683.111	6.62
683.867	5.62
684.623	5.62
685.379	9.62
686.135	5.62
686.89	4.62
687.646	3.62
688.402	4.62
689.157	5.62
689.912	5.62
690.668	4.62
691.423	6.62
692.178	5.62
692.933	5.62
693.688	4.62
694.443	5.62
695.198	5.62
695.953	9.62
696.708	5.62
697.462	4.62
698.217	4.62
698.972	5.62
699.726	7.62
700.48	4.62
701.235	4.62
701.989	5.62
702.743	4.62
703.497	2.62
704.251	5.62
705.005	5.62
705.759	8.62
706.513	7.62
707.266	7.62
708.02	7.62
708.774	4.62
709.527	3.62
710.28	6.62
711.034	6.62
711.787	6.62
712.54	7.62
713.293	5.62
714.046	4.62
714.799	5.62
715.552	6.62
716.305	6.62
717.058	5.62
717.81	7.62
718.563	3.62
719.315	6.62
720.068	6.62
720.82	3.62
721.573	4.62
722.325	6.62
723.077	4.62
723.829	4.62
724.581	5.62
725.333	5.62
726.085	5.62
726.836	6.62
727.588	3.62
728.34	9.62
729.091	4.62
729.843	6.62
730.594	3.62
731.346	8.62
732.097	6.62
732.848	3.62
733.599	6.62
734.35	6.62
735.101	7.62
735.852	7.62
736.603	4.62
737.354	8.62
738.104	6.62
738.855	7.62
739.605	6.62
740.356	6.62
741.106	5.62
741.856	6.62
742.607	9.62
743.357	6.62
744.107	9.62
744.857	8.62
745.607	6.62
746.357	6.62
747.106	7.62
747.856	8.62
748.606	8.62
749.355	7.62
750.105	6.62
750.854	8.62
751.603	8.62
752.353	7.62
753.102	6.62
753.851	7.62
754.6	6.62
755.349	7.62
756.098	6.62
756.847	8.62
757.595	6.62
758.344	10.62
759.093	7.62
759.841	8.62
760.589	8.62
761.338	8.62
762.086	10.62
762.834	8.62
763.582	8.62
764.331	10.62
765.079	11.62
765.826	9.62
766.574	10.62
767.322	10.62
768.07	11.62
768.817	11.62
769.565	11.62
770.312	9.62
771.06	9.62
771.807	9.62
772.554	12.62
773.302	10.62
774.049	10.62
774.796	11.62
775.543	8.62
776.29	12.62
777.036	9.62
777.783	10.62
778.53	12.62
779.276	10.62
780.023	12.62
780.769	13.62
781.516	12.62
782.262	14.62
783.008	10.62
783.754	12.62
784.5	11.62
785.246	13.62
785.992	10.62
786.738	9.62
787.484	13.62
788.23	9.62
788.975	13.62
789.721	14.62
790.466	11.62
791.212	12.62
791.957	10.62
792.702	13.62
793.447	10.62
794.193	11.62
794.938	13.62
795.683	10.62
796.427	13.62
797.172	9.62
797.917	11.62
798.662	8.62
799.406	10.62
800.151	9.62
800.895	7.62
801.64	11.62
802.384	10.62
803.128	10.62
803.872	10.62
804.616	8.62
805.36	9.62
806.104	9.62
806.848	8.62
807.592	10.62
808.336	5.62
809.079	9.62
809.823	7.62
810.566	7.62
811.31	6.62
812.053	5.62
812.796	5.62
813.539	8.62
814.283	7.62
815.026	5.62
815.769	8.62
816.511	9.62
817.254	4.62
817.997	8.62
818.74	6.62
819.482	5.62
820.225	7.62
820.967	6.62
821.71	6.62
822.452	3.62
823.194	5.62
823.936	6.62
824.678	4.62
825.42	5.62
826.162	7.62
826.904	6.62
827.646	6.62
828.388	4.62
829.129	4.62
829.871	4.62
830.612	4.62
831.354	4.62
832.095	4.62
832.836	3.62
833.577	7.62
834.319	6.62
835.06	5.62
835.801	4.62
836.542	6.62
837.282	3.62
838.023	3.62
838.764	5.62
839.504	4.62
840.245	2.62
840.985	4.62
841.726	2.62
842.466	4.62
843.206	4.62
843.946	2.62
844.687	5.62
845.427	5.62
846.166	3.62
846.906	4.62
847.646	3.62
848.386	5.62
849.125	5.62
849.865	4.62
850.605	3.62
851.344	3.62
852.083	6.62
852.823	4.62
853.562	5.62
854.301	3.62
855.04	0.62
855.779	3.62
856.518	4.62
857.257	1.62
857.995	3.62
858.734	3.62
859.473	3.62
860.211	4.62
860.95	3.62
861.688	5.62
862.426	0.62
863.165	3.62
863.903	3.62
864.641	3.62
865.379	5.62
866.117	1.62
866.855	2.62
867.593	2.62
868.33	0.62
869.068	2.62
869.806	1.62
870.543	1.62
871.28	0.62
872.018	0.62
872.755	4.62
873.492	3.62
874.229	3.62
874.967	2.62
875.703	5.62
876.44	-0.38
877.177	-1.38
877.914	1.62
878.651	1.62
879.387	3.62
880.124	0.62
880.86	2.62
881.597	1.62
882.333	0.62
883.069	0.62
883.806	-0.38
884.542	-1.38
885.278	1.62
886.014	0.62
886.749	2.62
887.485	2.62
888.221	3.62
888.957	0.62
889.692	-0.38
890.428	-0.38
891.163	-1.38
891.899	1.62
892.634	0.62
893.369	1.62
894.104	2.62
894.839	0.62
895.574	0.62
896.309	2.62
897.044	2.62
897.779	1.62
898.514	0.62
899.248	-0.38
899.983	2.62
900.717	0.62
901.452	0.62
902.186	0.62
902.92	0.62
903.654	1.62
904.389	0.62
905.123	2.62
905.857	-0.38
906.59	-0.38
907.324	0.62
908.058	2.62
908.792	1.62
909.525	2.62
910.259	0.62
910.992	2.62
911.726	3.62
912.459	1.62
913.192	-1.38
913.925	1.62
914.658	1.62
915.391	0.62
916.124	0.62
916.857	1.62
917.59	0.62
918.323	0.62
919.055	2.62
919.788	0.62
920.521	-1.38
921.253	1.62
921.985	1.62
922.718	0.62
923.45	0.62
924.182	1.62
924.914	1.62
925.646	1.62
926.378	-0.38
927.11	0.62
927.841	0.62
928.573	0.62
929.305	-1.38
930.036	2.62
930.768	1.62
931.499	1.62
932.23	1.62
932.962	0.62
933.693	2.62
934.424	2.62
935.155	-0.38
935.886	2.62
936.617	0.62
937.348	0.62
938.078	2.62
938.809	0.62
939.54	0.62
940.27	0.62
941.001	-0.38
941.731	1.62
942.461	1.62
943.191	1.62
943.922	0.62
944.652	0.62
945.382	-1.38
946.112	0.62
946.841	-0.38
947.571	0.62
948.301	-1.38
949.031	2.62
949.76	1.62
950.49	-0.38
951.219	2.62
951.948	0.62
952.678	1.62
953.407	0.62
954.136	0.62
954.865	1.62
955.594	-3.38
956.323	0.62
957.052	2.62
957.78	-1.38
958.509	-0.38
959.238	0.62
959.966	1.62
960.695	0.62
961.423	0.62
962.151	2.62
962.88	-0.38
963.608	0.62
964.336	0.62
965.064	1.62
965.792	-0.38
966.52	-0.38
967.247	0.62
967.975	-2.38
968.703	-0.38
969.43	-0.38
970.158	1.62
970.885	0.62
971.613	0.62
972.34	1.62
973.067	-0.38
973.794	0.62
974.521	1.62
975.248	1.62
975.975	0.62
976.702	-0.38
977.429	0.62
978.156	-1.38
978.882	0.62
979.609	-1.38
980.335	0.62
981.062	0.62
981.788	2.62
982.514	-0.38
983.24	-0.38
983.967	0.62
984.693	-0.38
985.419	-1.38
986.144	1.62
986.87	-0.38
987.596	1.62
988.322	-0.38
989.047	1.62
989.773	0.62
990.498	0.62
991.224	0.62
991.949	1.62
992.674	0.62
993.399	1.62
994.124	-0.38
994.849	-0.38
995.574	0.62
996.299	-0.38
997.024	1.62
997.749	-0.38
998.473	-0.38
999.198	-0.38
999.922	1.62
1000.647	-1.38
1001.371	0.62
1002.095	-0.38
1002.82	0.62
1003.544	-1.38
1004.268	5.62
1004.992	1.62
1005.716	2.62
1006.439	2.62
1007.163	2.62
1007.887	1.62
1008.611	0.62
1009.334	0.62
1010.058	0.62
1010.781	0.62
1011.504	0.62
1012.228	0.62
1012.951	0.62
1013.674	-1.38
1014.397	2.62
1015.12	-1.38
