节点500_425_QEPB04081__79__15-49-37-359.txt的数据

Date: Wed Nov 12 15:49:37 CST 2025
User: PC
Spectrometer: QEPB0408
触发模式: 0
积分时间 (秒): 1.000000E-2
Scans to average: 1
启用暗噪声校正: true
启用非线性校正: false
滑动平均宽度: 0
X轴模式: Wavelengths
Number of Pixels in Spectrum: 1044
>>>>>Begin Spectral Data<<<<<
220.843	4.25
221.644	2.25
222.444	2.25
223.244	5.25
224.045	3.25
224.845	2.25
225.645	4.25
226.445	2.25
227.245	3.25
228.045	3.25
228.845	6.25
229.645	4.25
230.444	2.25
231.244	5.25
232.043	4.25
232.843	6.25
233.642	5.25
234.442	6.25
235.241	5.25
236.04	5.25
236.839	7.25
237.638	7.25
238.437	7.25
239.236	5.25
240.035	8.25
240.833	5.25
241.632	6.25
242.43	8.25
243.229	8.25
244.027	8.25
244.826	10.25
245.624	7.25
246.422	8.25
247.22	9.25
248.018	11.25
248.816	7.25
249.614	9.25
250.412	10.25
251.21	7.25
252.007	8.25
252.805	12.25
253.602	11.25
254.4	12.25
255.197	10.25
255.994	12.25
256.791	12.25
257.589	16.25
258.386	15.25
259.183	13.25
259.979	15.25
260.776	15.25
261.573	17.25
262.37	18.25
263.166	14.25
263.963	16.25
264.759	17.25
265.556	18.25
266.352	19.25
267.148	19.25
267.944	21.25
268.74	24.25
269.536	21.25
270.332	20.25
271.128	23.25
271.924	25.25
272.719	22.25
273.515	23.25
274.311	27.25
275.106	25.25
275.901	24.25
276.697	25.25
277.492	24.25
278.287	23.25
279.082	23.25
279.877	25.25
280.672	30.25
281.467	26.25
282.262	28.25
283.056	25.25
283.851	25.25
284.646	28.25
285.44	27.25
286.234	29.25
287.029	28.25
287.823	24.25
288.617	25.25
289.411	23.25
290.205	25.25
290.999	26.25
291.793	25.25
292.587	24.25
293.381	23.25
294.174	23.25
294.968	21.25
295.761	22.25
296.555	18.25
297.348	21.25
298.141	22.25
298.935	22.25
299.728	21.25
300.521	17.25
301.314	19.25
302.107	21.25
302.899	15.25
303.692	16.25
304.485	16.25
305.277	18.25
306.07	16.25
306.862	16.25
307.655	15.25
308.447	14.25
309.239	16.25
310.031	14.25
310.823	11.25
311.615	13.25
312.407	14.25
313.199	11.25
313.991	16.25
314.783	15.25
315.574	10.25
316.366	12.25
317.157	10.25
317.949	14.25
318.74	10.25
319.531	13.25
320.322	11.25
321.113	12.25
321.904	8.25
322.695	9.25
323.486	12.25
324.277	11.25
325.068	8.25
325.858	8.25
326.649	10.25
327.439	8.25
328.23	9.25
329.02	10.25
329.81	10.25
330.6	9.25
331.391	7.25
332.181	9.25
332.971	8.25
333.76	8.25
334.55	10.25
335.34	10.25
336.13	7.25
336.919	8.25
337.709	8.25
338.498	9.25
339.287	8.25
340.077	8.25
340.866	8.25
341.655	9.25
342.444	9.25
343.233	8.25
344.022	6.25
344.811	9.25
345.6	9.25
346.388	9.25
347.177	8.25
347.965	7.25
348.754	7.25
349.542	8.25
350.33	9.25
351.119	7.25
351.907	8.25
352.695	8.25
353.483	8.25
354.271	10.25
355.059	6.25
355.846	7.25
356.634	9.25
357.422	6.25
358.209	9.25
358.997	9.25
359.784	6.25
360.571	7.25
361.359	6.25
362.146	9.25
362.933	8.25
363.72	7.25
364.507	6.25
365.294	7.25
366.081	3.25
366.867	8.25
367.654	4.25
368.44	5.25
369.227	8.25
370.013	9.25
370.8	8.25
371.586	7.25
372.372	6.25
373.158	8.25
373.944	6.25
374.73	6.25
375.516	7.25
376.302	6.25
377.088	6.25
377.873	8.25
378.659	8.25
379.445	7.25
380.23	7.25
381.015	7.25
381.801	7.25
382.586	7.25
383.371	6.25
384.156	7.25
384.941	6.25
385.726	8.25
386.511	8.25
387.296	8.25
388.08	8.25
388.865	8.25
389.649	7.25
390.434	9.25
391.218	10.25
392.003	10.25
392.787	7.25
393.571	7.25
394.355	9.25
395.139	10.25
395.923	9.25
396.707	7.25
397.491	10.25
398.274	9.25
399.058	8.25
399.842	10.25
400.625	9.25
401.408	8.25
402.192	8.25
402.975	10.25
403.758	9.25
404.541	9.25
405.324	11.25
406.107	12.25
406.89	11.25
407.673	11.25
408.456	9.25
409.238	11.25
410.021	10.25
410.803	10.25
411.586	11.25
412.368	13.25
413.151	13.25
413.933	12.25
414.715	14.25
415.497	12.25
416.279	14.25
417.061	15.25
417.843	12.25
418.624	16.25
419.406	14.25
420.188	16.25
420.969	14.25
421.751	16.25
422.532	13.25
423.313	16.25
424.095	17.25
424.876	17.25
425.657	19.25
426.438	16.25
427.219	20.25
428	18.25
428.78	17.25
429.561	17.25
430.342	19.25
431.122	20.25
431.903	24.25
432.683	20.25
433.464	22.25
434.244	21.25
435.024	23.25
435.804	24.25
436.584	26.25
437.364	27.25
438.144	26.25
438.924	31.25
439.704	31.25
440.483	31.25
441.263	35.25
442.042	34.25
442.822	40.25
443.601	42.25
444.38	43.25
445.16	46.25
445.939	52.25
446.718	55.25
447.497	58.25
448.276	65.25
449.054	68.25
449.833	74.25
450.612	82.25
451.391	86.25
452.169	98.25
452.948	108.25
453.726	118.25
454.504	127.25
455.282	139.25
456.061	156.25
456.839	171.25
457.617	191.25
458.395	219.25
459.172	232.25
459.95	269.25
460.728	305.25
461.506	328.25
462.283	369.25
463.061	419.25
463.838	478.25
464.615	522.25
465.393	580.25
466.17	648.25
466.947	731.25
467.724	814.25
468.501	907.25
469.278	1018.25
470.055	1138.25
470.831	1241.25
471.608	1395.25
472.385	1550.25
473.161	1724.25
473.938	1921.25
474.714	2133.25
475.49	2355.25
476.266	2598.25
477.043	2882.25
477.819	3189.25
478.595	3552.25
479.371	3916.25
480.146	4333.25
480.922	4773.25
481.698	5243.25
482.473	5800.25
483.249	6327.25
484.024	7042.25
484.8	7694.25
485.575	8437.25
486.35	9246.25
487.126	10119.25
487.901	11067.25
488.676	12170.25
489.451	13316.25
490.225	14430.25
491	15661.25
491.775	17086.25
492.55	18470.25
493.324	19933.25
494.099	21386.25
494.873	22874.25
495.647	24420.25
496.422	25904.25
497.196	27491.25
497.97	29086.25
498.744	30591.25
499.518	32042.25
500.292	33315.25
501.066	34436.25
501.839	35376.25
502.613	36265.25
503.387	36809.25
504.16	37145.25
504.934	37300.25
505.707	37146.25
506.48	36812.25
507.253	36333.25
508.027	35715.25
508.8	34872.25
509.573	33975.25
510.346	33050.25
511.118	31858.25
511.891	30690.25
512.664	29416.25
513.437	28228.25
514.209	26967.25
514.982	25875.25
515.754	24853.25
516.526	23626.25
517.298	22570.25
518.071	21706.25
518.843	20811.25
519.615	20005.25
520.387	19130.25
521.159	18421.25
521.93	17721.25
522.702	17062.25
523.474	16376.25
524.245	15691.25
525.017	14931.25
525.788	14224.25
526.56	13550.25
527.331	12908.25
528.102	12329.25
528.873	11684.25
529.644	11087.25
530.415	10561.25
531.186	10050.25
531.957	9473.25
532.728	8978.25
533.498	8469.25
534.269	7998.25
535.039	7541.25
535.81	7127.25
536.58	6718.25
537.351	6339.25
538.121	6002.25
538.891	5687.25
539.661	5410.25
540.431	5105.25
541.201	4833.25
541.971	4577.25
542.741	4343.25
543.51	4094.25
544.28	3931.25
545.05	3720.25
545.819	3529.25
546.588	3378.25
547.358	3192.25
548.127	3017.25
548.896	2875.25
549.665	2698.25
550.434	2587.25
551.203	2431.25
551.972	2308.25
552.741	2171.25
553.51	2072.25
554.278	1940.25
555.047	1837.25
555.815	1721.25
556.584	1636.25
557.352	1550.25
558.121	1461.25
558.889	1359.25
559.657	1301.25
560.425	1204.25
561.193	1156.25
561.961	1094.25
562.729	1028.25
563.496	979.25
564.264	926.25
565.032	868.25
565.799	828.25
566.567	781.25
567.334	738.25
568.101	698.25
568.869	662.25
569.636	623.25
570.403	591.25
571.17	549.25
571.937	521.25
572.704	498.25
573.471	470.25
574.237	433.25
575.004	418.25
575.771	384.25
576.537	367.25
577.303	343.25
578.07	325.25
578.836	306.25
579.602	289.25
580.368	272.25
581.134	263.25
581.9	248.25
582.666	234.25
583.432	221.25
584.198	208.25
584.964	198.25
585.729	186.25
586.495	174.25
587.26	171.25
588.025	162.25
588.791	154.25
589.556	147.25
590.321	141.25
591.086	137.25
591.851	129.25
592.616	118.25
593.381	114.25
594.146	105.25
594.911	106.25
595.675	98.25
596.44	92.25
597.204	93.25
597.969	86.25
598.733	83.25
599.497	83.25
600.261	74.25
601.025	71.25
601.79	68.25
602.553	67.25
603.317	60.25
604.081	59.25
604.845	59.25
605.609	56.25
606.372	52.25
607.136	52.25
607.899	53.25
608.662	44.25
609.426	47.25
610.189	44.25
610.952	42.25
611.715	41.25
612.478	39.25
613.241	37.25
614.004	36.25
614.767	33.25
615.529	33.25
616.292	34.25
617.055	32.25
617.817	32.25
618.579	30.25
619.342	27.25
620.104	31.25
620.866	27.25
621.628	24.25
622.39	26.25
623.152	24.25
623.914	23.25
624.676	24.25
625.438	21.25
626.199	21.25
626.961	24.25
627.722	20.25
628.484	20.25
629.245	20.25
630.006	17.25
630.768	17.25
631.529	19.25
632.29	15.25
633.051	20.25
633.812	14.25
634.573	14.25
635.333	17.25
636.094	15.25
636.855	14.25
637.615	15.25
638.376	16.25
639.136	12.25
639.896	14.25
640.657	13.25
641.417	10.25
642.177	15.25
642.937	12.25
643.697	12.25
644.457	12.25
645.216	10.25
645.976	10.25
646.736	9.25
647.495	11.25
648.255	10.25
649.014	11.25
649.774	10.25
650.533	9.25
651.292	10.25
652.051	7.25
652.81	9.25
653.569	9.25
654.328	6.25
655.087	8.25
655.846	8.25
656.604	10.25
657.363	9.25
658.121	8.25
658.88	7.25
659.638	6.25
660.397	8.25
661.155	7.25
661.913	7.25
662.671	8.25
663.429	6.25
664.187	7.25
664.945	4.25
665.703	6.25
666.46	6.25
667.218	7.25
667.976	7.25
668.733	6.25
669.49	5.25
670.248	5.25
671.005	7.25
671.762	5.25
672.519	9.25
673.276	6.25
674.033	5.25
674.79	7.25
675.547	6.25
676.304	5.25
677.06	4.25
677.817	6.25
678.574	8.25
679.33	4.25
680.086	7.25
680.843	7.25
681.599	6.25
682.355	6.25
683.111	3.25
683.867	7.25
684.623	6.25
685.379	7.25
686.135	5.25
686.89	5.25
687.646	9.25
688.402	5.25
689.157	6.25
689.912	5.25
690.668	4.25
691.423	4.25
692.178	4.25
692.933	4.25
693.688	6.25
694.443	6.25
695.198	4.25
695.953	4.25
696.708	6.25
697.462	5.25
698.217	4.25
698.972	4.25
699.726	5.25
700.48	3.25
701.235	5.25
701.989	4.25
702.743	4.25
703.497	7.25
704.251	6.25
705.005	6.25
705.759	7.25
706.513	4.25
707.266	4.25
708.02	7.25
708.774	7.25
709.527	5.25
710.28	4.25
711.034	4.25
711.787	5.25
712.54	6.25
713.293	5.25
714.046	3.25
714.799	5.25
715.552	3.25
716.305	6.25
717.058	3.25
717.81	4.25
718.563	5.25
719.315	4.25
720.068	4.25
720.82	5.25
721.573	5.25
722.325	3.25
723.077	8.25
723.829	5.25
724.581	5.25
725.333	6.25
726.085	7.25
726.836	7.25
727.588	4.25
728.34	5.25
729.091	7.25
729.843	5.25
730.594	8.25
731.346	6.25
732.097	5.25
732.848	7.25
733.599	4.25
734.35	7.25
735.101	5.25
735.852	7.25
736.603	4.25
737.354	7.25
738.104	7.25
738.855	5.25
739.605	8.25
740.356	8.25
741.106	6.25
741.856	7.25
742.607	7.25
743.357	7.25
744.107	6.25
744.857	6.25
745.607	6.25
746.357	6.25
747.106	7.25
747.856	7.25
748.606	9.25
749.355	7.25
750.105	6.25
750.854	5.25
751.603	3.25
752.353	9.25
753.102	5.25
753.851	6.25
754.6	8.25
755.349	5.25
756.098	8.25
756.847	10.25
757.595	10.25
758.344	12.25
759.093	6.25
759.841	10.25
760.589	8.25
761.338	11.25
762.086	7.25
762.834	8.25
763.582	7.25
764.331	9.25
765.079	12.25
765.826	10.25
766.574	10.25
767.322	9.25
768.07	10.25
768.817	10.25
769.565	8.25
770.312	10.25
771.06	12.25
771.807	10.25
772.554	11.25
773.302	14.25
774.049	9.25
774.796	12.25
775.543	10.25
776.29	11.25
777.036	11.25
777.783	11.25
778.53	9.25
779.276	11.25
780.023	12.25
780.769	14.25
781.516	12.25
782.262	8.25
783.008	12.25
783.754	13.25
784.5	12.25
785.246	13.25
785.992	9.25
786.738	12.25
787.484	9.25
788.23	14.25
788.975	9.25
789.721	13.25
790.466	10.25
791.212	11.25
791.957	12.25
792.702	10.25
793.447	12.25
794.193	12.25
794.938	10.25
795.683	10.25
796.427	7.25
797.172	11.25
797.917	9.25
798.662	11.25
799.406	9.25
800.151	8.25
800.895	8.25
801.64	9.25
802.384	9.25
803.128	9.25
803.872	7.25
804.616	10.25
805.36	10.25
806.104	7.25
806.848	6.25
807.592	8.25
808.336	9.25
809.079	6.25
809.823	7.25
810.566	6.25
811.31	8.25
812.053	3.25
812.796	8.25
813.539	7.25
814.283	7.25
815.026	6.25
815.769	5.25
816.511	8.25
817.254	6.25
817.997	6.25
818.74	6.25
819.482	4.25
820.225	6.25
820.967	8.25
821.71	5.25
822.452	4.25
823.194	5.25
823.936	6.25
824.678	3.25
825.42	7.25
826.162	3.25
826.904	5.25
827.646	4.25
828.388	3.25
829.129	5.25
829.871	2.25
830.612	6.25
831.354	6.25
832.095	3.25
832.836	5.25
833.577	4.25
834.319	5.25
835.06	5.25
835.801	5.25
836.542	6.25
837.282	5.25
838.023	5.25
838.764	2.25
839.504	4.25
840.245	4.25
840.985	4.25
841.726	4.25
842.466	4.25
843.206	4.25
843.946	4.25
844.687	4.25
845.427	4.25
846.166	4.25
846.906	2.25
847.646	3.25
848.386	4.25
849.125	5.25
849.865	3.25
850.605	6.25
851.344	3.25
852.083	2.25
852.823	2.25
853.562	3.25
854.301	1.25
855.04	3.25
855.779	2.25
856.518	3.25
857.257	4.25
857.995	5.25
858.734	0.25
859.473	4.25
860.211	2.25
860.95	2.25
861.688	1.25
862.426	2.25
863.165	3.25
863.903	3.25
864.641	1.25
865.379	-0.75
866.117	0.25
866.855	2.25
867.593	4.25
868.33	2.25
869.068	1.25
869.806	1.25
870.543	-0.75
871.28	3.25
872.018	3.25
872.755	2.25
873.492	2.25
874.229	-0.75
874.967	0.25
875.703	0.25
876.44	1.25
877.177	1.25
877.914	2.25
878.651	0.25
879.387	3.25
880.124	2.25
880.86	-0.75
881.597	4.25
882.333	0.25
883.069	1.25
883.806	2.25
884.542	2.25
885.278	2.25
886.014	1.25
886.749	2.25
887.485	1.25
888.221	0.25
888.957	0.25
889.692	0.25
890.428	1.25
891.163	4.25
891.899	2.25
892.634	2.25
893.369	1.25
894.104	0.25
894.839	3.25
895.574	0.25
896.309	0.25
897.044	-2.75
897.779	1.25
898.514	-0.75
899.248	0.25
899.983	0.25
900.717	0.25
901.452	1.25
902.186	1.25
902.92	3.25
903.654	-0.75
904.389	0.25
905.123	2.25
905.857	1.25
906.59	3.25
907.324	1.25
908.058	0.25
908.792	0.25
909.525	1.25
910.259	3.25
910.992	1.25
911.726	1.25
912.459	0.25
913.192	0.25
913.925	-0.75
914.658	-0.75
915.391	0.25
916.124	-1.75
916.857	1.25
917.59	-0.75
918.323	1.25
919.055	1.25
919.788	1.25
920.521	0.25
921.253	1.25
921.985	0.25
922.718	0.25
923.45	1.25
924.182	-1.75
924.914	-1.75
925.646	0.25
926.378	-0.75
927.11	-0.75
927.841	0.25
928.573	1.25
929.305	0.25
930.036	0.25
930.768	-0.75
931.499	2.25
932.23	1.25
932.962	-0.75
933.693	1.25
934.424	-0.75
935.155	-1.75
935.886	0.25
936.617	-0.75
937.348	-0.75
938.078	2.25
938.809	-0.75
939.54	3.25
940.27	-1.75
941.001	-0.75
941.731	1.25
942.461	0.25
943.191	0.25
943.922	0.25
944.652	0.25
945.382	0.25
946.112	0.25
946.841	1.25
947.571	-0.75
948.301	1.25
949.031	1.25
949.76	0.25
950.49	1.25
951.219	-1.75
951.948	1.25
952.678	-0.75
953.407	0.25
954.136	1.25
954.865	0.25
955.594	2.25
956.323	0.25
957.052	1.25
957.78	1.25
958.509	-0.75
959.238	-1.75
959.966	-0.75
960.695	1.25
961.423	0.25
962.151	0.25
962.88	-1.75
963.608	0.25
964.336	0.25
965.064	0.25
965.792	1.25
966.52	1.25
967.247	0.25
967.975	2.25
968.703	-0.75
969.43	1.25
970.158	-1.75
970.885	0.25
971.613	2.25
972.34	1.25
973.067	1.25
973.794	1.25
974.521	1.25
975.248	-0.75
975.975	0.25
976.702	2.25
977.429	1.25
978.156	-0.75
978.882	-0.75
979.609	1.25
980.335	-0.75
981.062	1.25
981.788	-1.75
982.514	-2.75
983.24	0.25
983.967	0.25
984.693	3.25
985.419	1.25
986.144	1.25
986.87	0.25
987.596	-1.75
988.322	1.25
989.047	0.25
989.773	1.25
990.498	0.25
991.224	0.25
991.949	0.25
992.674	-1.75
993.399	0.25
994.124	0.25
994.849	-1.75
995.574	0.25
996.299	-1.75
997.024	-0.75
997.749	1.25
998.473	1.25
999.198	-0.75
999.922	1.25
1000.647	1.25
1001.371	1.25
1002.095	-1.75
1002.82	0.25
1003.544	-1.75
1004.268	2.25
1004.992	2.25
1005.716	2.25
1006.439	2.25
1007.163	4.25
1007.887	3.25
1008.611	1.25
1009.334	2.25
1010.058	-0.75
1010.781	-2.75
1011.504	0.25
1012.228	1.25
1012.951	1.25
1013.674	-0.75
1014.397	0.25
1015.12	1.25
