节点500_425_QEPB04081__358__15-54-15-775.txt的数据

Date: Wed Nov 12 15:54:15 CST 2025
User: PC
Spectrometer: QEPB0408
触发模式: 0
积分时间 (秒): 1.000000E-2
Scans to average: 1
启用暗噪声校正: true
启用非线性校正: false
滑动平均宽度: 0
X轴模式: Wavelengths
Number of Pixels in Spectrum: 1044
>>>>>Begin Spectral Data<<<<<
220.843	3.38
221.644	1.38
222.444	3.38
223.244	4.38
224.045	2.38
224.845	3.38
225.645	4.38
226.445	1.38
227.245	4.38
228.045	5.38
228.845	3.38
229.645	6.38
230.444	5.38
231.244	7.38
232.043	3.38
232.843	5.38
233.642	5.38
234.442	6.38
235.241	4.38
236.04	6.38
236.839	7.38
237.638	3.38
238.437	5.38
239.236	6.38
240.035	7.38
240.833	8.38
241.632	5.38
242.43	10.38
243.229	9.38
244.027	7.38
244.826	6.38
245.624	8.38
246.422	10.38
247.22	8.38
248.018	8.38
248.816	8.38
249.614	10.38
250.412	9.38
251.21	10.38
252.007	10.38
252.805	10.38
253.602	10.38
254.4	11.38
255.197	10.38
255.994	15.38
256.791	11.38
257.589	12.38
258.386	12.38
259.183	12.38
259.979	14.38
260.776	14.38
261.573	17.38
262.37	15.38
263.166	13.38
263.963	13.38
264.759	16.38
265.556	17.38
266.352	15.38
267.148	19.38
267.944	19.38
268.74	20.38
269.536	19.38
270.332	21.38
271.128	20.38
271.924	18.38
272.719	20.38
273.515	20.38
274.311	23.38
275.106	23.38
275.901	24.38
276.697	20.38
277.492	26.38
278.287	22.38
279.082	25.38
279.877	24.38
280.672	24.38
281.467	23.38
282.262	22.38
283.056	23.38
283.851	23.38
284.646	25.38
285.44	24.38
286.234	22.38
287.029	25.38
287.823	25.38
288.617	22.38
289.411	24.38
290.205	23.38
290.999	23.38
291.793	26.38
292.587	23.38
293.381	24.38
294.174	23.38
294.968	19.38
295.761	22.38
296.555	20.38
297.348	18.38
298.141	20.38
298.935	20.38
299.728	20.38
300.521	16.38
301.314	18.38
302.107	17.38
302.899	16.38
303.692	16.38
304.485	17.38
305.277	18.38
306.07	17.38
306.862	16.38
307.655	17.38
308.447	15.38
309.239	16.38
310.031	16.38
310.823	14.38
311.615	10.38
312.407	12.38
313.199	13.38
313.991	13.38
314.783	14.38
315.574	10.38
316.366	13.38
317.157	12.38
317.949	8.38
318.74	12.38
319.531	14.38
320.322	8.38
321.113	8.38
321.904	9.38
322.695	11.38
323.486	10.38
324.277	10.38
325.068	9.38
325.858	7.38
326.649	9.38
327.439	8.38
328.23	10.38
329.02	8.38
329.81	11.38
330.6	10.38
331.391	8.38
332.181	11.38
332.971	7.38
333.76	7.38
334.55	8.38
335.34	7.38
336.13	10.38
336.919	9.38
337.709	9.38
338.498	9.38
339.287	8.38
340.077	8.38
340.866	9.38
341.655	10.38
342.444	10.38
343.233	8.38
344.022	9.38
344.811	8.38
345.6	9.38
346.388	9.38
347.177	7.38
347.965	8.38
348.754	9.38
349.542	7.38
350.33	8.38
351.119	9.38
351.907	7.38
352.695	8.38
353.483	7.38
354.271	8.38
355.059	8.38
355.846	7.38
356.634	6.38
357.422	4.38
358.209	9.38
358.997	6.38
359.784	7.38
360.571	8.38
361.359	8.38
362.146	7.38
362.933	7.38
363.72	4.38
364.507	9.38
365.294	8.38
366.081	8.38
366.867	7.38
367.654	5.38
368.44	6.38
369.227	7.38
370.013	6.38
370.8	5.38
371.586	9.38
372.372	4.38
373.158	6.38
373.944	8.38
374.73	8.38
375.516	9.38
376.302	6.38
377.088	5.38
377.873	8.38
378.659	7.38
379.445	6.38
380.23	7.38
381.015	6.38
381.801	6.38
382.586	6.38
383.371	6.38
384.156	8.38
384.941	8.38
385.726	9.38
386.511	9.38
387.296	7.38
388.08	6.38
388.865	8.38
389.649	8.38
390.434	8.38
391.218	8.38
392.003	7.38
392.787	9.38
393.571	10.38
394.355	8.38
395.139	8.38
395.923	8.38
396.707	10.38
397.491	7.38
398.274	7.38
399.058	8.38
399.842	9.38
400.625	9.38
401.408	11.38
402.192	8.38
402.975	7.38
403.758	11.38
404.541	10.38
405.324	10.38
406.107	14.38
406.89	8.38
407.673	9.38
408.456	9.38
409.238	12.38
410.021	12.38
410.803	11.38
411.586	10.38
412.368	12.38
413.151	14.38
413.933	14.38
414.715	12.38
415.497	11.38
416.279	13.38
417.061	13.38
417.843	12.38
418.624	15.38
419.406	13.38
420.188	12.38
420.969	14.38
421.751	16.38
422.532	14.38
423.313	12.38
424.095	14.38
424.876	18.38
425.657	15.38
426.438	18.38
427.219	17.38
428	17.38
428.78	15.38
429.561	22.38
430.342	20.38
431.122	18.38
431.903	20.38
432.683	22.38
433.464	23.38
434.244	23.38
435.024	24.38
435.804	26.38
436.584	24.38
437.364	30.38
438.144	27.38
438.924	30.38
439.704	33.38
440.483	33.38
441.263	37.38
442.042	34.38
442.822	41.38
443.601	40.38
444.38	45.38
445.16	50.38
445.939	52.38
446.718	56.38
447.497	60.38
448.276	64.38
449.054	75.38
449.833	84.38
450.612	84.38
451.391	94.38
452.169	105.38
452.948	115.38
453.726	125.38
454.504	139.38
455.282	153.38
456.061	170.38
456.839	191.38
457.617	211.38
458.395	233.38
459.172	256.38
459.95	290.38
460.728	317.38
461.506	366.38
462.283	405.38
463.061	449.38
463.838	502.38
464.615	566.38
465.393	629.38
466.17	698.38
466.947	773.38
467.724	853.38
468.501	961.38
469.278	1065.38
470.055	1171.38
470.831	1302.38
471.608	1450.38
472.385	1592.38
473.161	1763.38
473.938	1958.38
474.714	2142.38
475.49	2343.38
476.266	2610.38
477.043	2864.38
477.819	3182.38
478.595	3485.38
479.371	3810.38
480.146	4184.38
480.922	4580.38
481.698	5030.38
482.473	5455.38
483.249	6005.38
484.024	6579.38
484.8	7227.38
485.575	7856.38
486.35	8549.38
487.126	9317.38
487.901	10140.38
488.676	10963.38
489.451	11965.38
490.225	12960.38
491	14068.38
491.775	15215.38
492.55	16423.38
493.324	17663.38
494.099	18901.38
494.873	20184.38
495.647	21601.38
496.422	22876.38
497.196	24267.38
497.97	25850.38
498.744	27212.38
499.518	28520.38
500.292	29741.38
501.066	30799.38
501.839	32019.38
502.613	32862.38
503.387	33540.38
504.16	34186.38
504.934	34593.38
505.707	34534.38
506.48	34600.38
507.253	34417.38
508.027	34067.38
508.8	33605.38
509.573	32986.38
510.346	32245.38
511.118	31285.38
511.891	30293.38
512.664	29233.38
513.437	28184.38
514.209	27101.38
514.982	26101.38
515.754	25062.38
516.526	23983.38
517.298	22965.38
518.071	22046.38
518.843	21075.38
519.615	20284.38
520.387	19440.38
521.159	18679.38
521.93	17972.38
522.702	17267.38
523.474	16625.38
524.245	15943.38
525.017	15236.38
525.788	14515.38
526.56	13895.38
527.331	13274.38
528.102	12654.38
528.873	12065.38
529.644	11446.38
530.415	10950.38
531.186	10458.38
531.957	9904.38
532.728	9375.38
533.498	8859.38
534.269	8349.38
535.039	7950.38
535.81	7491.38
536.58	7087.38
537.351	6697.38
538.121	6309.38
538.891	5985.38
539.661	5679.38
540.431	5378.38
541.201	5094.38
541.971	4842.38
542.741	4584.38
543.51	4351.38
544.28	4148.38
545.05	3915.38
545.819	3749.38
546.588	3571.38
547.358	3382.38
548.127	3215.38
548.896	3045.38
549.665	2879.38
550.434	2721.38
551.203	2592.38
551.972	2460.38
552.741	2333.38
553.51	2201.38
554.278	2069.38
555.047	1957.38
555.815	1852.38
556.584	1748.38
557.352	1652.38
558.121	1549.38
558.889	1481.38
559.657	1399.38
560.425	1300.38
561.193	1245.38
561.961	1173.38
562.729	1108.38
563.496	1046.38
564.264	987.38
565.032	937.38
565.799	889.38
566.567	842.38
567.334	796.38
568.101	750.38
568.869	716.38
569.636	672.38
570.403	621.38
571.17	597.38
571.937	562.38
572.704	530.38
573.471	500.38
574.237	464.38
575.004	444.38
575.771	420.38
576.537	392.38
577.303	359.38
578.07	351.38
578.836	328.38
579.602	309.38
580.368	293.38
581.134	285.38
581.9	268.38
582.666	251.38
583.432	242.38
584.198	227.38
584.964	215.38
585.729	208.38
586.495	197.38
587.26	180.38
588.025	178.38
588.791	164.38
589.556	153.38
590.321	151.38
591.086	138.38
591.851	132.38
592.616	128.38
593.381	123.38
594.146	116.38
594.911	112.38
595.675	105.38
596.44	102.38
597.204	96.38
597.969	93.38
598.733	88.38
599.497	85.38
600.261	80.38
601.025	74.38
601.79	73.38
602.553	68.38
603.317	66.38
604.081	63.38
604.845	60.38
605.609	57.38
606.372	58.38
607.136	51.38
607.899	52.38
608.662	52.38
609.426	50.38
610.189	47.38
610.952	47.38
611.715	42.38
612.478	40.38
613.241	40.38
614.004	40.38
614.767	37.38
615.529	37.38
616.292	33.38
617.055	34.38
617.817	33.38
618.579	30.38
619.342	29.38
620.104	29.38
620.866	28.38
621.628	26.38
622.39	27.38
623.152	28.38
623.914	25.38
624.676	24.38
625.438	24.38
626.199	23.38
626.961	19.38
627.722	21.38
628.484	21.38
629.245	23.38
630.006	18.38
630.768	17.38
631.529	18.38
632.29	18.38
633.051	19.38
633.812	17.38
634.573	16.38
635.333	15.38
636.094	14.38
636.855	17.38
637.615	13.38
638.376	16.38
639.136	15.38
639.896	14.38
640.657	14.38
641.417	14.38
642.177	13.38
642.937	14.38
643.697	11.38
644.457	11.38
645.216	11.38
645.976	10.38
646.736	12.38
647.495	12.38
648.255	9.38
649.014	9.38
649.774	11.38
650.533	10.38
651.292	11.38
652.051	9.38
652.81	12.38
653.569	10.38
654.328	8.38
655.087	7.38
655.846	8.38
656.604	10.38
657.363	9.38
658.121	6.38
658.88	9.38
659.638	7.38
660.397	9.38
661.155	8.38
661.913	8.38
662.671	4.38
663.429	7.38
664.187	5.38
664.945	10.38
665.703	7.38
666.46	8.38
667.218	6.38
667.976	8.38
668.733	7.38
669.49	6.38
670.248	8.38
671.005	5.38
671.762	8.38
672.519	6.38
673.276	7.38
674.033	6.38
674.79	7.38
675.547	7.38
676.304	3.38
677.06	5.38
677.817	3.38
678.574	6.38
679.33	6.38
680.086	6.38
680.843	7.38
681.599	5.38
682.355	5.38
683.111	6.38
683.867	5.38
684.623	5.38
685.379	4.38
686.135	6.38
686.89	5.38
687.646	6.38
688.402	5.38
689.157	5.38
689.912	7.38
690.668	3.38
691.423	6.38
692.178	6.38
692.933	4.38
693.688	3.38
694.443	6.38
695.198	7.38
695.953	4.38
696.708	6.38
697.462	6.38
698.217	6.38
698.972	4.38
699.726	5.38
700.48	5.38
701.235	3.38
701.989	4.38
702.743	5.38
703.497	6.38
704.251	4.38
705.005	3.38
705.759	4.38
706.513	2.38
707.266	7.38
708.02	5.38
708.774	5.38
709.527	4.38
710.28	6.38
711.034	4.38
711.787	4.38
712.54	5.38
713.293	4.38
714.046	2.38
714.799	7.38
715.552	4.38
716.305	4.38
717.058	4.38
717.81	8.38
718.563	6.38
719.315	5.38
720.068	6.38
720.82	5.38
721.573	4.38
722.325	6.38
723.077	2.38
723.829	7.38
724.581	7.38
725.333	5.38
726.085	6.38
726.836	4.38
727.588	6.38
728.34	9.38
729.091	5.38
729.843	4.38
730.594	7.38
731.346	6.38
732.097	4.38
732.848	6.38
733.599	4.38
734.35	5.38
735.101	7.38
735.852	5.38
736.603	6.38
737.354	5.38
738.104	4.38
738.855	7.38
739.605	5.38
740.356	6.38
741.106	5.38
741.856	7.38
742.607	6.38
743.357	5.38
744.107	4.38
744.857	5.38
745.607	6.38
746.357	7.38
747.106	7.38
747.856	7.38
748.606	6.38
749.355	9.38
750.105	3.38
750.854	8.38
751.603	6.38
752.353	7.38
753.102	7.38
753.851	8.38
754.6	9.38
755.349	6.38
756.098	8.38
756.847	7.38
757.595	7.38
758.344	9.38
759.093	5.38
759.841	10.38
760.589	8.38
761.338	8.38
762.086	9.38
762.834	8.38
763.582	8.38
764.331	8.38
765.079	11.38
765.826	8.38
766.574	11.38
767.322	8.38
768.07	7.38
768.817	10.38
769.565	11.38
770.312	10.38
771.06	11.38
771.807	11.38
772.554	9.38
773.302	9.38
774.049	11.38
774.796	10.38
775.543	11.38
776.29	10.38
777.036	12.38
777.783	10.38
778.53	8.38
779.276	11.38
780.023	9.38
780.769	13.38
781.516	12.38
782.262	11.38
783.008	13.38
783.754	13.38
784.5	11.38
785.246	11.38
785.992	11.38
786.738	12.38
787.484	10.38
788.23	12.38
788.975	10.38
789.721	11.38
790.466	11.38
791.212	8.38
791.957	10.38
792.702	10.38
793.447	12.38
794.193	10.38
794.938	8.38
795.683	11.38
796.427	8.38
797.172	12.38
797.917	7.38
798.662	10.38
799.406	10.38
800.151	8.38
800.895	10.38
801.64	10.38
802.384	8.38
803.128	10.38
803.872	6.38
804.616	10.38
805.36	8.38
806.104	8.38
806.848	9.38
807.592	9.38
808.336	7.38
809.079	8.38
809.823	6.38
810.566	5.38
811.31	9.38
812.053	7.38
812.796	7.38
813.539	6.38
814.283	4.38
815.026	8.38
815.769	6.38
816.511	8.38
817.254	6.38
817.997	7.38
818.74	7.38
819.482	7.38
820.225	6.38
820.967	5.38
821.71	5.38
822.452	6.38
823.194	4.38
823.936	7.38
824.678	6.38
825.42	4.38
826.162	5.38
826.904	4.38
827.646	5.38
828.388	4.38
829.129	3.38
829.871	5.38
830.612	2.38
831.354	3.38
832.095	4.38
832.836	7.38
833.577	7.38
834.319	5.38
835.06	4.38
835.801	2.38
836.542	2.38
837.282	5.38
838.023	4.38
838.764	2.38
839.504	4.38
840.245	4.38
840.985	5.38
841.726	4.38
842.466	4.38
843.206	4.38
843.946	4.38
844.687	4.38
845.427	5.38
846.166	2.38
846.906	2.38
847.646	2.38
848.386	4.38
849.125	2.38
849.865	3.38
850.605	5.38
851.344	2.38
852.083	1.38
852.823	2.38
853.562	3.38
854.301	1.38
855.04	3.38
855.779	1.38
856.518	2.38
857.257	4.38
857.995	2.38
858.734	2.38
859.473	3.38
860.211	3.38
860.95	3.38
861.688	3.38
862.426	1.38
863.165	2.38
863.903	2.38
864.641	2.38
865.379	2.38
866.117	0.38
866.855	2.38
867.593	2.38
868.33	2.38
869.068	1.38
869.806	4.38
870.543	3.38
871.28	0.38
872.018	2.38
872.755	2.38
873.492	2.38
874.229	0.38
874.967	3.38
875.703	2.38
876.44	2.38
877.177	3.38
877.914	0.38
878.651	1.38
879.387	2.38
880.124	1.38
880.86	0.38
881.597	0.38
882.333	0.38
883.069	4.38
883.806	1.38
884.542	2.38
885.278	1.38
886.014	0.38
886.749	0.38
887.485	2.38
888.221	0.38
888.957	2.38
889.692	1.38
890.428	0.38
891.163	1.38
891.899	1.38
892.634	-0.62
893.369	2.38
894.104	1.38
894.839	2.38
895.574	1.38
896.309	3.38
897.044	1.38
897.779	2.38
898.514	-0.62
899.248	1.38
899.983	1.38
900.717	-1.62
901.452	1.38
902.186	1.38
902.92	2.38
903.654	0.38
904.389	0.38
905.123	2.38
905.857	2.38
906.59	1.38
907.324	-0.62
908.058	-0.62
908.792	1.38
909.525	0.38
910.259	0.38
910.992	0.38
911.726	2.38
912.459	2.38
913.192	0.38
913.925	0.38
914.658	0.38
915.391	1.38
916.124	1.38
916.857	-0.62
917.59	0.38
918.323	3.38
919.055	1.38
919.788	1.38
920.521	2.38
921.253	0.38
921.985	-2.62
922.718	3.38
923.45	1.38
924.182	0.38
924.914	2.38
925.646	-1.62
926.378	0.38
927.11	2.38
927.841	-0.62
928.573	1.38
929.305	0.38
930.036	2.38
930.768	0.38
931.499	3.38
932.23	-0.62
932.962	-1.62
933.693	3.38
934.424	1.38
935.155	0.38
935.886	-1.62
936.617	0.38
937.348	0.38
938.078	-0.62
938.809	0.38
939.54	1.38
940.27	0.38
941.001	-1.62
941.731	0.38
942.461	-0.62
943.191	-1.62
943.922	0.38
944.652	0.38
945.382	1.38
946.112	0.38
946.841	0.38
947.571	1.38
948.301	0.38
949.031	0.38
949.76	-1.62
950.49	0.38
951.219	-0.62
951.948	0.38
952.678	2.38
953.407	2.38
954.136	-0.62
954.865	1.38
955.594	0.38
956.323	0.38
957.052	0.38
957.78	1.38
958.509	-1.62
959.238	-0.62
959.966	-0.62
960.695	-1.62
961.423	0.38
962.151	0.38
962.88	0.38
963.608	-0.62
964.336	0.38
965.064	0.38
965.792	1.38
966.52	2.38
967.247	-0.62
967.975	0.38
968.703	1.38
969.43	-2.62
970.158	0.38
970.885	0.38
971.613	-1.62
972.34	1.38
973.067	-0.62
973.794	0.38
974.521	0.38
975.248	0.38
975.975	-0.62
976.702	0.38
977.429	0.38
978.156	0.38
978.882	-0.62
979.609	0.38
980.335	0.38
981.062	2.38
981.788	0.38
982.514	0.38
983.24	0.38
983.967	-1.62
984.693	-0.62
985.419	0.38
986.144	-1.62
986.87	1.38
987.596	0.38
988.322	1.38
989.047	1.38
989.773	1.38
990.498	0.38
991.224	1.38
991.949	-1.62
992.674	0.38
993.399	0.38
994.124	-1.62
994.849	0.38
995.574	0.38
996.299	-0.62
997.024	-1.62
997.749	2.38
998.473	-1.62
999.198	-1.62
999.922	0.38
1000.647	0.38
1001.371	3.38
1002.095	-3.62
1002.82	0.38
1003.544	-1.62
1004.268	2.38
1004.992	2.38
1005.716	4.38
1006.439	2.38
1007.163	3.38
1007.887	4.38
1008.611	-0.62
1009.334	2.38
1010.058	0.38
1010.781	0.38
1011.504	-0.62
1012.228	2.38
1012.951	0.38
1013.674	0.38
1014.397	1.38
1015.12	-0.62
