节点500_425_QEPB04081__544__15-57-21-516.txt的数据

Date: Wed Nov 12 15:57:21 CST 2025
User: PC
Spectrometer: QEPB0408
触发模式: 0
积分时间 (秒): 1.000000E-2
Scans to average: 1
启用暗噪声校正: true
启用非线性校正: false
滑动平均宽度: 0
X轴模式: Wavelengths
Number of Pixels in Spectrum: 1044
>>>>>Begin Spectral Data<<<<<
220.843	3.88
221.644	1.88
222.444	2.88
223.244	3.88
224.045	1.88
224.845	3.88
225.645	1.88
226.445	1.88
227.245	2.88
228.045	2.88
228.845	5.88
229.645	2.88
230.444	3.88
231.244	4.88
232.043	4.88
232.843	5.88
233.642	1.88
234.442	1.88
235.241	2.88
236.04	5.88
236.839	3.88
237.638	6.88
238.437	4.88
239.236	7.88
240.035	4.88
240.833	5.88
241.632	6.88
242.43	8.88
243.229	3.88
244.027	8.88
244.826	5.88
245.624	4.88
246.422	7.88
247.22	5.88
248.018	6.88
248.816	7.88
249.614	7.88
250.412	6.88
251.21	8.88
252.007	9.88
252.805	7.88
253.602	9.88
254.4	8.88
255.197	6.88
255.994	10.88
256.791	9.88
257.589	11.88
258.386	10.88
259.183	10.88
259.979	10.88
260.776	12.88
261.573	11.88
262.37	11.88
263.166	13.88
263.963	13.88
264.759	14.88
265.556	17.88
266.352	13.88
267.148	14.88
267.944	14.88
268.74	19.88
269.536	15.88
270.332	14.88
271.128	15.88
271.924	17.88
272.719	17.88
273.515	15.88
274.311	21.88
275.106	19.88
275.901	20.88
276.697	20.88
277.492	17.88
278.287	17.88
279.082	21.88
279.877	23.88
280.672	21.88
281.467	19.88
282.262	22.88
283.056	21.88
283.851	18.88
284.646	19.88
285.44	22.88
286.234	22.88
287.029	22.88
287.823	20.88
288.617	22.88
289.411	21.88
290.205	22.88
290.999	23.88
291.793	21.88
292.587	20.88
293.381	23.88
294.174	21.88
294.968	18.88
295.761	17.88
296.555	19.88
297.348	20.88
298.141	15.88
298.935	21.88
299.728	15.88
300.521	14.88
301.314	18.88
302.107	16.88
302.899	16.88
303.692	14.88
304.485	15.88
305.277	17.88
306.07	16.88
306.862	13.88
307.655	17.88
308.447	12.88
309.239	13.88
310.031	12.88
310.823	12.88
311.615	11.88
312.407	12.88
313.199	11.88
313.991	9.88
314.783	13.88
315.574	10.88
316.366	11.88
317.157	9.88
317.949	10.88
318.74	9.88
319.531	8.88
320.322	12.88
321.113	7.88
321.904	10.88
322.695	7.88
323.486	7.88
324.277	8.88
325.068	9.88
325.858	10.88
326.649	7.88
327.439	6.88
328.23	7.88
329.02	7.88
329.81	9.88
330.6	5.88
331.391	7.88
332.181	8.88
332.971	5.88
333.76	8.88
334.55	7.88
335.34	6.88
336.13	8.88
336.919	6.88
337.709	8.88
338.498	9.88
339.287	8.88
340.077	7.88
340.866	6.88
341.655	7.88
342.444	6.88
343.233	8.88
344.022	6.88
344.811	10.88
345.6	8.88
346.388	5.88
347.177	7.88
347.965	8.88
348.754	9.88
349.542	6.88
350.33	3.88
351.119	7.88
351.907	4.88
352.695	6.88
353.483	7.88
354.271	6.88
355.059	7.88
355.846	4.88
356.634	6.88
357.422	3.88
358.209	7.88
358.997	4.88
359.784	6.88
360.571	6.88
361.359	4.88
362.146	5.88
362.933	6.88
363.72	5.88
364.507	4.88
365.294	6.88
366.081	6.88
366.867	4.88
367.654	3.88
368.44	4.88
369.227	5.88
370.013	4.88
370.8	6.88
371.586	4.88
372.372	4.88
373.158	6.88
373.944	4.88
374.73	5.88
375.516	5.88
376.302	7.88
377.088	6.88
377.873	7.88
378.659	5.88
379.445	4.88
380.23	4.88
381.015	5.88
381.801	5.88
382.586	6.88
383.371	6.88
384.156	5.88
384.941	4.88
385.726	5.88
386.511	7.88
387.296	5.88
388.08	6.88
388.865	5.88
389.649	6.88
390.434	7.88
391.218	8.88
392.003	8.88
392.787	9.88
393.571	6.88
394.355	5.88
395.139	6.88
395.923	5.88
396.707	6.88
397.491	6.88
398.274	10.88
399.058	4.88
399.842	8.88
400.625	5.88
401.408	8.88
402.192	8.88
402.975	8.88
403.758	7.88
404.541	8.88
405.324	8.88
406.107	10.88
406.89	6.88
407.673	9.88
408.456	8.88
409.238	9.88
410.021	8.88
410.803	8.88
411.586	10.88
412.368	10.88
413.151	9.88
413.933	11.88
414.715	11.88
415.497	9.88
416.279	10.88
417.061	13.88
417.843	13.88
418.624	12.88
419.406	11.88
420.188	11.88
420.969	11.88
421.751	13.88
422.532	12.88
423.313	12.88
424.095	12.88
424.876	16.88
425.657	13.88
426.438	15.88
427.219	14.88
428	16.88
428.78	15.88
429.561	17.88
430.342	17.88
431.122	19.88
431.903	21.88
432.683	18.88
433.464	23.88
434.244	23.88
435.024	24.88
435.804	23.88
436.584	25.88
437.364	25.88
438.144	29.88
438.924	30.88
439.704	29.88
440.483	32.88
441.263	33.88
442.042	36.88
442.822	42.88
443.601	39.88
444.38	46.88
445.16	48.88
445.939	55.88
446.718	55.88
447.497	64.88
448.276	70.88
449.054	79.88
449.833	81.88
450.612	91.88
451.391	102.88
452.169	109.88
452.948	119.88
453.726	139.88
454.504	145.88
455.282	162.88
456.061	183.88
456.839	196.88
457.617	230.88
458.395	251.88
459.172	278.88
459.95	305.88
460.728	340.88
461.506	388.88
462.283	433.88
463.061	480.88
463.838	534.88
464.615	593.88
465.393	663.88
466.17	733.88
466.947	804.88
467.724	898.88
468.501	989.88
469.278	1106.88
470.055	1200.88
470.831	1351.88
471.608	1472.88
472.385	1624.88
473.161	1797.88
473.938	1957.88
474.714	2162.88
475.49	2359.88
476.266	2595.88
477.043	2833.88
477.819	3114.88
478.595	3403.88
479.371	3735.88
480.146	4096.88
480.922	4454.88
481.698	4849.88
482.473	5267.88
483.249	5734.88
484.024	6233.88
484.8	6823.88
485.575	7380.88
486.35	7970.88
487.126	8656.88
487.901	9410.88
488.676	10225.88
489.451	11045.88
490.225	11906.88
491	12853.88
491.775	13910.88
492.55	14998.88
493.324	16083.88
494.099	17170.88
494.873	18311.88
495.647	19504.88
496.422	20762.88
497.196	22047.88
497.97	23387.88
498.744	24638.88
499.518	25942.88
500.292	27037.88
501.066	28125.88
501.839	29283.88
502.613	30254.88
503.387	30966.88
504.16	31726.88
504.934	32231.88
505.707	32503.88
506.48	32615.88
507.253	32626.88
508.027	32540.88
508.8	32313.88
509.573	31999.88
510.346	31343.88
511.118	30587.88
511.891	29883.88
512.664	29008.88
513.437	28054.88
514.209	27058.88
514.982	26213.88
515.754	25264.88
516.526	24205.88
517.298	23293.88
518.071	22269.88
518.843	21444.88
519.615	20517.88
520.387	19769.88
521.159	18980.88
521.93	18325.88
522.702	17581.88
523.474	16894.88
524.245	16223.88
525.017	15519.88
525.788	14809.88
526.56	14160.88
527.331	13573.88
528.102	12938.88
528.873	12340.88
529.644	11808.88
530.415	11307.88
531.186	10820.88
531.957	10272.88
532.728	9736.88
533.498	9236.88
534.269	8703.88
535.039	8292.88
535.81	7830.88
536.58	7433.88
537.351	6982.88
538.121	6621.88
538.891	6277.88
539.661	5954.88
540.431	5644.88
541.201	5355.88
541.971	5055.88
542.741	4798.88
543.51	4551.88
544.28	4330.88
545.05	4110.88
545.819	3923.88
546.588	3734.88
547.358	3523.88
548.127	3339.88
548.896	3195.88
549.665	3037.88
550.434	2880.88
551.203	2723.88
551.972	2596.88
552.741	2457.88
553.51	2321.88
554.278	2209.88
555.047	2069.88
555.815	1946.88
556.584	1873.88
557.352	1748.88
558.121	1652.88
558.889	1576.88
559.657	1489.88
560.425	1395.88
561.193	1331.88
561.961	1254.88
562.729	1180.88
563.496	1125.88
564.264	1061.88
565.032	998.88
565.799	947.88
566.567	889.88
567.334	843.88
568.101	794.88
568.869	745.88
569.636	716.88
570.403	668.88
571.17	630.88
571.937	603.88
572.704	563.88
573.471	530.88
574.237	508.88
575.004	478.88
575.771	443.88
576.537	419.88
577.303	401.88
578.07	372.88
578.836	354.88
579.602	328.88
580.368	316.88
581.134	301.88
581.9	281.88
582.666	268.88
583.432	253.88
584.198	240.88
584.964	225.88
585.729	219.88
586.495	205.88
587.26	196.88
588.025	184.88
588.791	176.88
589.556	168.88
590.321	160.88
591.086	150.88
591.851	138.88
592.616	136.88
593.381	126.88
594.146	123.88
594.911	115.88
595.675	117.88
596.44	101.88
597.204	103.88
597.969	96.88
598.733	92.88
599.497	89.88
600.261	83.88
601.025	80.88
601.79	77.88
602.553	72.88
603.317	69.88
604.081	67.88
604.845	64.88
605.609	61.88
606.372	61.88
607.136	57.88
607.899	57.88
608.662	52.88
609.426	46.88
610.189	46.88
610.952	47.88
611.715	46.88
612.478	40.88
613.241	43.88
614.004	42.88
614.767	36.88
615.529	37.88
616.292	36.88
617.055	33.88
617.817	32.88
618.579	33.88
619.342	31.88
620.104	28.88
620.866	29.88
621.628	26.88
622.39	28.88
623.152	23.88
623.914	22.88
624.676	22.88
625.438	24.88
626.199	21.88
626.961	20.88
627.722	21.88
628.484	18.88
629.245	21.88
630.006	17.88
630.768	19.88
631.529	17.88
632.29	16.88
633.051	14.88
633.812	16.88
634.573	15.88
635.333	13.88
636.094	14.88
636.855	13.88
637.615	11.88
638.376	12.88
639.136	15.88
639.896	10.88
640.657	12.88
641.417	10.88
642.177	11.88
642.937	13.88
643.697	12.88
644.457	12.88
645.216	8.88
645.976	10.88
646.736	11.88
647.495	10.88
648.255	10.88
649.014	8.88
649.774	9.88
650.533	9.88
651.292	7.88
652.051	9.88
652.81	6.88
653.569	9.88
654.328	7.88
655.087	6.88
655.846	9.88
656.604	5.88
657.363	5.88
658.121	7.88
658.88	6.88
659.638	6.88
660.397	7.88
661.155	7.88
661.913	9.88
662.671	7.88
663.429	4.88
664.187	6.88
664.945	7.88
665.703	4.88
666.46	6.88
667.218	6.88
667.976	5.88
668.733	5.88
669.49	5.88
670.248	5.88
671.005	6.88
671.762	4.88
672.519	6.88
673.276	5.88
674.033	4.88
674.79	4.88
675.547	5.88
676.304	5.88
677.06	4.88
677.817	4.88
678.574	4.88
679.33	4.88
680.086	6.88
680.843	6.88
681.599	3.88
682.355	3.88
683.111	6.88
683.867	4.88
684.623	4.88
685.379	5.88
686.135	4.88
686.89	3.88
687.646	1.88
688.402	5.88
689.157	3.88
689.912	5.88
690.668	1.88
691.423	2.88
692.178	4.88
692.933	4.88
693.688	3.88
694.443	3.88
695.198	2.88
695.953	3.88
696.708	4.88
697.462	3.88
698.217	3.88
698.972	4.88
699.726	3.88
700.48	3.88
701.235	5.88
701.989	3.88
702.743	4.88
703.497	2.88
704.251	2.88
705.005	2.88
705.759	5.88
706.513	4.88
707.266	3.88
708.02	2.88
708.774	3.88
709.527	-0.12
710.28	3.88
711.034	2.88
711.787	3.88
712.54	3.88
713.293	2.88
714.046	4.88
714.799	1.88
715.552	3.88
716.305	3.88
717.058	1.88
717.81	2.88
718.563	3.88
719.315	1.88
720.068	3.88
720.82	6.88
721.573	1.88
722.325	2.88
723.077	3.88
723.829	2.88
724.581	3.88
725.333	4.88
726.085	4.88
726.836	3.88
727.588	2.88
728.34	5.88
729.091	3.88
729.843	4.88
730.594	2.88
731.346	3.88
732.097	4.88
732.848	2.88
733.599	5.88
734.35	4.88
735.101	4.88
735.852	4.88
736.603	1.88
737.354	6.88
738.104	4.88
738.855	5.88
739.605	4.88
740.356	5.88
741.106	4.88
741.856	5.88
742.607	4.88
743.357	5.88
744.107	5.88
744.857	6.88
745.607	4.88
746.357	6.88
747.106	6.88
747.856	4.88
748.606	7.88
749.355	5.88
750.105	7.88
750.854	4.88
751.603	7.88
752.353	7.88
753.102	9.88
753.851	6.88
754.6	2.88
755.349	3.88
756.098	6.88
756.847	7.88
757.595	7.88
758.344	8.88
759.093	7.88
759.841	6.88
760.589	7.88
761.338	6.88
762.086	5.88
762.834	6.88
763.582	6.88
764.331	8.88
765.079	6.88
765.826	8.88
766.574	10.88
767.322	6.88
768.07	6.88
768.817	7.88
769.565	8.88
770.312	9.88
771.06	8.88
771.807	7.88
772.554	8.88
773.302	7.88
774.049	7.88
774.796	8.88
775.543	8.88
776.29	9.88
777.036	10.88
777.783	9.88
778.53	10.88
779.276	7.88
780.023	10.88
780.769	9.88
781.516	9.88
782.262	9.88
783.008	8.88
783.754	11.88
784.5	8.88
785.246	9.88
785.992	5.88
786.738	10.88
787.484	10.88
788.23	9.88
788.975	10.88
789.721	9.88
790.466	6.88
791.212	10.88
791.957	8.88
792.702	9.88
793.447	8.88
794.193	9.88
794.938	7.88
795.683	8.88
796.427	6.88
797.172	7.88
797.917	8.88
798.662	9.88
799.406	7.88
800.151	7.88
800.895	9.88
801.64	9.88
802.384	8.88
803.128	6.88
803.872	7.88
804.616	7.88
805.36	8.88
806.104	6.88
806.848	7.88
807.592	8.88
808.336	7.88
809.079	5.88
809.823	8.88
810.566	7.88
811.31	7.88
812.053	6.88
812.796	8.88
813.539	5.88
814.283	3.88
815.026	4.88
815.769	6.88
816.511	3.88
817.254	4.88
817.997	6.88
818.74	4.88
819.482	5.88
820.225	2.88
820.967	5.88
821.71	5.88
822.452	6.88
823.194	3.88
823.936	4.88
824.678	3.88
825.42	7.88
826.162	4.88
826.904	2.88
827.646	4.88
828.388	5.88
829.129	0.88
829.871	4.88
830.612	6.88
831.354	4.88
832.095	3.88
832.836	4.88
833.577	3.88
834.319	2.88
835.06	4.88
835.801	3.88
836.542	4.88
837.282	3.88
838.023	1.88
838.764	3.88
839.504	3.88
840.245	3.88
840.985	2.88
841.726	3.88
842.466	2.88
843.206	3.88
843.946	2.88
844.687	2.88
845.427	0.88
846.166	1.88
846.906	1.88
847.646	5.88
848.386	1.88
849.125	1.88
849.865	3.88
850.605	1.88
851.344	3.88
852.083	1.88
852.823	2.88
853.562	4.88
854.301	3.88
855.04	4.88
855.779	0.88
856.518	2.88
857.257	1.88
857.995	3.88
858.734	2.88
859.473	1.88
860.211	1.88
860.95	2.88
861.688	2.88
862.426	2.88
863.165	1.88
863.903	1.88
864.641	1.88
865.379	1.88
866.117	0.88
866.855	0.88
867.593	1.88
868.33	2.88
869.068	1.88
869.806	0.88
870.543	1.88
871.28	0.88
872.018	-0.12
872.755	3.88
873.492	-0.12
874.229	1.88
874.967	0.88
875.703	1.88
876.44	-0.12
877.177	1.88
877.914	0.88
878.651	0.88
879.387	4.88
880.124	0.88
880.86	0.88
881.597	0.88
882.333	-1.12
883.069	-1.12
883.806	-0.12
884.542	1.88
885.278	0.88
886.014	1.88
886.749	1.88
887.485	-0.12
888.221	0.88
888.957	0.88
889.692	-1.12
890.428	-1.12
891.163	1.88
891.899	1.88
892.634	-0.12
893.369	0.88
894.104	-0.12
894.839	-0.12
895.574	-1.12
896.309	0.88
897.044	0.88
897.779	-1.12
898.514	0.88
899.248	-0.12
899.983	0.88
900.717	-0.12
901.452	-0.12
902.186	1.88
902.92	0.88
903.654	0.88
904.389	0.88
905.123	0.88
905.857	0.88
906.59	-0.12
907.324	-0.12
908.058	-0.12
908.792	-0.12
909.525	0.88
910.259	-1.12
910.992	-1.12
911.726	0.88
912.459	-0.12
913.192	-2.12
913.925	-2.12
914.658	0.88
915.391	1.88
916.124	-0.12
916.857	1.88
917.59	-1.12
918.323	0.88
919.055	-0.12
919.788	-0.12
920.521	1.88
921.253	-0.12
921.985	-0.12
922.718	-2.12
923.45	-0.12
924.182	1.88
924.914	1.88
925.646	-0.12
926.378	0.88
927.11	-0.12
927.841	-2.12
928.573	0.88
929.305	-1.12
930.036	-0.12
930.768	-1.12
931.499	-2.12
932.23	-1.12
932.962	-0.12
933.693	0.88
934.424	-0.12
935.155	-0.12
935.886	-2.12
936.617	-2.12
937.348	-0.12
938.078	-2.12
938.809	-2.12
939.54	-0.12
940.27	-2.12
941.001	-0.12
941.731	0.88
942.461	0.88
943.191	-0.12
943.922	-2.12
944.652	-0.12
945.382	-2.12
946.112	-0.12
946.841	1.88
947.571	-1.12
948.301	-2.12
949.031	-0.12
949.76	-1.12
950.49	-0.12
951.219	-3.12
951.948	-0.12
952.678	-1.12
953.407	2.88
954.136	-2.12
954.865	1.88
955.594	0.88
956.323	0.88
957.052	0.88
957.78	-2.12
958.509	2.88
959.238	-0.12
959.966	-1.12
960.695	0.88
961.423	0.88
962.151	1.88
962.88	-1.12
963.608	0.88
964.336	-0.12
965.064	0.88
965.792	-0.12
966.52	-0.12
967.247	0.88
967.975	-0.12
968.703	-1.12
969.43	-0.12
970.158	-0.12
970.885	-0.12
971.613	-1.12
972.34	0.88
973.067	-2.12
973.794	-0.12
974.521	0.88
975.248	-0.12
975.975	-0.12
976.702	-2.12
977.429	-0.12
978.156	0.88
978.882	-0.12
979.609	-0.12
980.335	-0.12
981.062	-0.12
981.788	0.88
982.514	-0.12
983.24	-2.12
983.967	-0.12
984.693	-1.12
985.419	-2.12
986.144	0.88
986.87	-0.12
987.596	-0.12
988.322	-2.12
989.047	-1.12
989.773	1.88
990.498	-1.12
991.224	-2.12
991.949	-2.12
992.674	-0.12
993.399	-2.12
994.124	0.88
994.849	1.88
995.574	-0.12
996.299	-2.12
997.024	-2.12
997.749	-0.12
998.473	1.88
999.198	-0.12
999.922	-1.12
1000.647	-1.12
1001.371	2.88
1002.095	-2.12
1002.82	-0.12
1003.544	-1.12
1004.268	2.88
1004.992	0.88
1005.716	1.88
1006.439	1.88
1007.163	1.88
1007.887	1.88
1008.611	0.88
1009.334	-0.12
1010.058	-0.12
1010.781	2.88
1011.504	-0.12
1012.228	-2.12
1012.951	-0.12
1013.674	0.88
1014.397	-0.12
1015.12	-0.12
