节点500_425_QEPB04081__346__15-54-03-798.txt的数据

Date: Wed Nov 12 15:54:03 CST 2025
User: PC
Spectrometer: QEPB0408
触发模式: 0
积分时间 (秒): 1.000000E-2
Scans to average: 1
启用暗噪声校正: true
启用非线性校正: false
滑动平均宽度: 0
X轴模式: Wavelengths
Number of Pixels in Spectrum: 1044
>>>>>Begin Spectral Data<<<<<
220.843	3.88
221.644	4.88
222.444	3.88
223.244	5.88
224.045	3.88
224.845	3.88
225.645	6.88
226.445	6.88
227.245	3.88
228.045	3.88
228.845	4.88
229.645	3.88
230.444	3.88
231.244	5.88
232.043	6.88
232.843	4.88
233.642	4.88
234.442	6.88
235.241	5.88
236.04	8.88
236.839	6.88
237.638	5.88
238.437	6.88
239.236	4.88
240.035	5.88
240.833	6.88
241.632	6.88
242.43	7.88
243.229	4.88
244.027	5.88
244.826	8.88
245.624	6.88
246.422	9.88
247.22	8.88
248.018	8.88
248.816	8.88
249.614	10.88
250.412	9.88
251.21	10.88
252.007	7.88
252.805	10.88
253.602	11.88
254.4	10.88
255.197	10.88
255.994	12.88
256.791	12.88
257.589	12.88
258.386	12.88
259.183	13.88
259.979	14.88
260.776	15.88
261.573	14.88
262.37	13.88
263.166	13.88
263.963	13.88
264.759	17.88
265.556	18.88
266.352	17.88
267.148	20.88
267.944	17.88
268.74	15.88
269.536	18.88
270.332	20.88
271.128	19.88
271.924	20.88
272.719	21.88
273.515	22.88
274.311	23.88
275.106	21.88
275.901	22.88
276.697	23.88
277.492	23.88
278.287	24.88
279.082	24.88
279.877	24.88
280.672	23.88
281.467	25.88
282.262	23.88
283.056	24.88
283.851	26.88
284.646	24.88
285.44	24.88
286.234	26.88
287.029	26.88
287.823	24.88
288.617	25.88
289.411	20.88
290.205	25.88
290.999	23.88
291.793	23.88
292.587	21.88
293.381	24.88
294.174	21.88
294.968	22.88
295.761	22.88
296.555	20.88
297.348	20.88
298.141	19.88
298.935	21.88
299.728	19.88
300.521	18.88
301.314	19.88
302.107	16.88
302.899	16.88
303.692	15.88
304.485	17.88
305.277	16.88
306.07	15.88
306.862	16.88
307.655	16.88
308.447	15.88
309.239	17.88
310.031	12.88
310.823	17.88
311.615	10.88
312.407	13.88
313.199	15.88
313.991	13.88
314.783	10.88
315.574	12.88
316.366	12.88
317.157	9.88
317.949	11.88
318.74	9.88
319.531	9.88
320.322	8.88
321.113	12.88
321.904	10.88
322.695	10.88
323.486	8.88
324.277	11.88
325.068	10.88
325.858	9.88
326.649	7.88
327.439	7.88
328.23	11.88
329.02	9.88
329.81	8.88
330.6	8.88
331.391	8.88
332.181	8.88
332.971	7.88
333.76	8.88
334.55	8.88
335.34	9.88
336.13	5.88
336.919	9.88
337.709	8.88
338.498	8.88
339.287	8.88
340.077	7.88
340.866	10.88
341.655	8.88
342.444	9.88
343.233	6.88
344.022	7.88
344.811	8.88
345.6	8.88
346.388	7.88
347.177	9.88
347.965	8.88
348.754	6.88
349.542	7.88
350.33	7.88
351.119	6.88
351.907	9.88
352.695	6.88
353.483	2.88
354.271	7.88
355.059	8.88
355.846	7.88
356.634	8.88
357.422	6.88
358.209	7.88
358.997	5.88
359.784	6.88
360.571	6.88
361.359	8.88
362.146	6.88
362.933	4.88
363.72	6.88
364.507	7.88
365.294	9.88
366.081	5.88
366.867	5.88
367.654	8.88
368.44	5.88
369.227	9.88
370.013	6.88
370.8	7.88
371.586	7.88
372.372	5.88
373.158	5.88
373.944	7.88
374.73	8.88
375.516	5.88
376.302	8.88
377.088	5.88
377.873	4.88
378.659	6.88
379.445	6.88
380.23	6.88
381.015	7.88
381.801	6.88
382.586	8.88
383.371	7.88
384.156	8.88
384.941	8.88
385.726	8.88
386.511	10.88
387.296	6.88
388.08	7.88
388.865	8.88
389.649	7.88
390.434	6.88
391.218	11.88
392.003	7.88
392.787	7.88
393.571	8.88
394.355	10.88
395.139	10.88
395.923	10.88
396.707	5.88
397.491	9.88
398.274	7.88
399.058	10.88
399.842	7.88
400.625	11.88
401.408	10.88
402.192	9.88
402.975	9.88
403.758	10.88
404.541	10.88
405.324	13.88
406.107	9.88
406.89	10.88
407.673	8.88
408.456	9.88
409.238	10.88
410.021	12.88
410.803	12.88
411.586	10.88
412.368	12.88
413.151	11.88
413.933	11.88
414.715	12.88
415.497	11.88
416.279	12.88
417.061	13.88
417.843	12.88
418.624	16.88
419.406	14.88
420.188	15.88
420.969	12.88
421.751	18.88
422.532	14.88
423.313	18.88
424.095	17.88
424.876	14.88
425.657	19.88
426.438	14.88
427.219	17.88
428	16.88
428.78	14.88
429.561	19.88
430.342	18.88
431.122	20.88
431.903	19.88
432.683	20.88
433.464	22.88
434.244	22.88
435.024	21.88
435.804	28.88
436.584	28.88
437.364	25.88
438.144	26.88
438.924	30.88
439.704	29.88
440.483	33.88
441.263	36.88
442.042	36.88
442.822	40.88
443.601	43.88
444.38	44.88
445.16	51.88
445.939	50.88
446.718	61.88
447.497	58.88
448.276	69.88
449.054	68.88
449.833	80.88
450.612	85.88
451.391	96.88
452.169	103.88
452.948	118.88
453.726	126.88
454.504	138.88
455.282	154.88
456.061	172.88
456.839	189.88
457.617	217.88
458.395	232.88
459.172	268.88
459.95	288.88
460.728	324.88
461.506	366.88
462.283	406.88
463.061	449.88
463.838	499.88
464.615	564.88
465.393	623.88
466.17	695.88
466.947	769.88
467.724	868.88
468.501	954.88
469.278	1071.88
470.055	1175.88
470.831	1306.88
471.608	1434.88
472.385	1597.88
473.161	1778.88
473.938	1943.88
474.714	2168.88
475.49	2358.88
476.266	2628.88
477.043	2869.88
477.819	3154.88
478.595	3483.88
479.371	3807.88
480.146	4228.88
480.922	4589.88
481.698	5064.88
482.473	5512.88
483.249	6029.88
484.024	6622.88
484.8	7228.88
485.575	7877.88
486.35	8593.88
487.126	9377.88
487.901	10191.88
488.676	11048.88
489.451	12057.88
490.225	13040.88
491	14177.88
491.775	15345.88
492.55	16545.88
493.324	17797.88
494.099	19049.88
494.873	20391.88
495.647	21768.88
496.422	23122.88
497.196	24473.88
497.97	26039.88
498.744	27423.88
499.518	28719.88
500.292	30020.88
501.066	31019.88
501.839	32221.88
502.613	33162.88
503.387	33904.88
504.16	34422.88
504.934	34744.88
505.707	34744.88
506.48	34772.88
507.253	34635.88
508.027	34258.88
508.8	33725.88
509.573	33124.88
510.346	32257.88
511.118	31283.88
511.891	30450.88
512.664	29348.88
513.437	28229.88
514.209	27142.88
514.982	26174.88
515.754	25078.88
516.526	24039.88
517.298	22977.88
518.071	22082.88
518.843	21183.88
519.615	20294.88
520.387	19530.88
521.159	18759.88
521.93	18086.88
522.702	17333.88
523.474	16634.88
524.245	15969.88
525.017	15234.88
525.788	14572.88
526.56	13908.88
527.331	13303.88
528.102	12685.88
528.873	12074.88
529.644	11511.88
530.415	10970.88
531.186	10448.88
531.957	9888.88
532.728	9413.88
533.498	8871.88
534.269	8364.88
535.039	7956.88
535.81	7506.88
536.58	7106.88
537.351	6703.88
538.121	6300.88
538.891	5989.88
539.661	5695.88
540.431	5392.88
541.201	5079.88
541.971	4829.88
542.741	4577.88
543.51	4349.88
544.28	4120.88
545.05	3916.88
545.819	3738.88
546.588	3562.88
547.358	3363.88
548.127	3205.88
548.896	3042.88
549.665	2904.88
550.434	2744.88
551.203	2592.88
551.972	2451.88
552.741	2320.88
553.51	2192.88
554.278	2085.88
555.047	1961.88
555.815	1860.88
556.584	1760.88
557.352	1655.88
558.121	1559.88
558.889	1458.88
559.657	1380.88
560.425	1318.88
561.193	1232.88
561.961	1174.88
562.729	1103.88
563.496	1044.88
564.264	988.88
565.032	936.88
565.799	878.88
566.567	842.88
567.334	800.88
568.101	746.88
568.869	701.88
569.636	666.88
570.403	632.88
571.17	592.88
571.937	565.88
572.704	527.88
573.471	504.88
574.237	467.88
575.004	437.88
575.771	419.88
576.537	392.88
577.303	369.88
578.07	349.88
578.836	331.88
579.602	307.88
580.368	293.88
581.134	273.88
581.9	266.88
582.666	248.88
583.432	238.88
584.198	226.88
584.964	216.88
585.729	209.88
586.495	193.88
587.26	179.88
588.025	174.88
588.791	168.88
589.556	161.88
590.321	149.88
591.086	134.88
591.851	132.88
592.616	135.88
593.381	121.88
594.146	116.88
594.911	107.88
595.675	99.88
596.44	102.88
597.204	97.88
597.969	92.88
598.733	90.88
599.497	86.88
600.261	79.88
601.025	75.88
601.79	76.88
602.553	70.88
603.317	65.88
604.081	62.88
604.845	60.88
605.609	60.88
606.372	59.88
607.136	54.88
607.899	58.88
608.662	48.88
609.426	44.88
610.189	43.88
610.952	44.88
611.715	41.88
612.478	40.88
613.241	38.88
614.004	39.88
614.767	35.88
615.529	39.88
616.292	36.88
617.055	31.88
617.817	28.88
618.579	33.88
619.342	28.88
620.104	29.88
620.866	26.88
621.628	26.88
622.39	27.88
623.152	25.88
623.914	24.88
624.676	24.88
625.438	25.88
626.199	23.88
626.961	21.88
627.722	22.88
628.484	17.88
629.245	19.88
630.006	19.88
630.768	20.88
631.529	16.88
632.29	16.88
633.051	15.88
633.812	18.88
634.573	18.88
635.333	19.88
636.094	15.88
636.855	15.88
637.615	13.88
638.376	14.88
639.136	13.88
639.896	13.88
640.657	13.88
641.417	14.88
642.177	12.88
642.937	10.88
643.697	12.88
644.457	11.88
645.216	10.88
645.976	10.88
646.736	10.88
647.495	12.88
648.255	10.88
649.014	8.88
649.774	8.88
650.533	8.88
651.292	9.88
652.051	8.88
652.81	8.88
653.569	10.88
654.328	8.88
655.087	8.88
655.846	7.88
656.604	7.88
657.363	8.88
658.121	8.88
658.88	7.88
659.638	7.88
660.397	7.88
661.155	7.88
661.913	8.88
662.671	7.88
663.429	6.88
664.187	6.88
664.945	8.88
665.703	7.88
666.46	6.88
667.218	6.88
667.976	10.88
668.733	6.88
669.49	6.88
670.248	7.88
671.005	7.88
671.762	6.88
672.519	4.88
673.276	6.88
674.033	5.88
674.79	7.88
675.547	5.88
676.304	4.88
677.06	6.88
677.817	6.88
678.574	4.88
679.33	6.88
680.086	8.88
680.843	5.88
681.599	4.88
682.355	7.88
683.111	4.88
683.867	5.88
684.623	7.88
685.379	7.88
686.135	4.88
686.89	5.88
687.646	5.88
688.402	5.88
689.157	6.88
689.912	5.88
690.668	5.88
691.423	4.88
692.178	1.88
692.933	3.88
693.688	5.88
694.443	3.88
695.198	4.88
695.953	4.88
696.708	4.88
697.462	5.88
698.217	6.88
698.972	4.88
699.726	4.88
700.48	5.88
701.235	5.88
701.989	7.88
702.743	7.88
703.497	4.88
704.251	6.88
705.005	5.88
705.759	6.88
706.513	4.88
707.266	4.88
708.02	6.88
708.774	4.88
709.527	6.88
710.28	3.88
711.034	5.88
711.787	2.88
712.54	6.88
713.293	7.88
714.046	4.88
714.799	5.88
715.552	4.88
716.305	6.88
717.058	4.88
717.81	5.88
718.563	5.88
719.315	3.88
720.068	5.88
720.82	6.88
721.573	6.88
722.325	5.88
723.077	6.88
723.829	3.88
724.581	4.88
725.333	5.88
726.085	6.88
726.836	6.88
727.588	6.88
728.34	4.88
729.091	6.88
729.843	4.88
730.594	5.88
731.346	6.88
732.097	5.88
732.848	4.88
733.599	7.88
734.35	4.88
735.101	5.88
735.852	3.88
736.603	4.88
737.354	5.88
738.104	5.88
738.855	5.88
739.605	8.88
740.356	6.88
741.106	5.88
741.856	6.88
742.607	5.88
743.357	6.88
744.107	4.88
744.857	6.88
745.607	7.88
746.357	7.88
747.106	6.88
747.856	9.88
748.606	3.88
749.355	7.88
750.105	6.88
750.854	8.88
751.603	6.88
752.353	8.88
753.102	7.88
753.851	8.88
754.6	8.88
755.349	8.88
756.098	9.88
756.847	7.88
757.595	9.88
758.344	8.88
759.093	11.88
759.841	9.88
760.589	8.88
761.338	10.88
762.086	9.88
762.834	10.88
763.582	8.88
764.331	6.88
765.079	12.88
765.826	7.88
766.574	8.88
767.322	12.88
768.07	8.88
768.817	8.88
769.565	10.88
770.312	10.88
771.06	10.88
771.807	10.88
772.554	13.88
773.302	10.88
774.049	10.88
774.796	10.88
775.543	9.88
776.29	12.88
777.036	11.88
777.783	12.88
778.53	9.88
779.276	11.88
780.023	13.88
780.769	9.88
781.516	10.88
782.262	10.88
783.008	14.88
783.754	10.88
784.5	12.88
785.246	13.88
785.992	10.88
786.738	10.88
787.484	12.88
788.23	10.88
788.975	10.88
789.721	11.88
790.466	11.88
791.212	9.88
791.957	11.88
792.702	11.88
793.447	11.88
794.193	11.88
794.938	12.88
795.683	8.88
796.427	11.88
797.172	11.88
797.917	10.88
798.662	10.88
799.406	11.88
800.151	7.88
800.895	11.88
801.64	8.88
802.384	11.88
803.128	10.88
803.872	9.88
804.616	8.88
805.36	8.88
806.104	8.88
806.848	8.88
807.592	5.88
808.336	6.88
809.079	7.88
809.823	5.88
810.566	6.88
811.31	10.88
812.053	7.88
812.796	8.88
813.539	5.88
814.283	4.88
815.026	8.88
815.769	6.88
816.511	8.88
817.254	5.88
817.997	5.88
818.74	5.88
819.482	4.88
820.225	6.88
820.967	5.88
821.71	3.88
822.452	5.88
823.194	4.88
823.936	6.88
824.678	4.88
825.42	6.88
826.162	6.88
826.904	2.88
827.646	4.88
828.388	3.88
829.129	5.88
829.871	5.88
830.612	5.88
831.354	5.88
832.095	4.88
832.836	3.88
833.577	3.88
834.319	5.88
835.06	6.88
835.801	5.88
836.542	6.88
837.282	3.88
838.023	4.88
838.764	3.88
839.504	4.88
840.245	6.88
840.985	2.88
841.726	3.88
842.466	4.88
843.206	5.88
843.946	4.88
844.687	4.88
845.427	4.88
846.166	3.88
846.906	4.88
847.646	3.88
848.386	4.88
849.125	2.88
849.865	2.88
850.605	2.88
851.344	3.88
852.083	2.88
852.823	2.88
853.562	4.88
854.301	5.88
855.04	2.88
855.779	3.88
856.518	2.88
857.257	1.88
857.995	2.88
858.734	2.88
859.473	7.88
860.211	2.88
860.95	1.88
861.688	2.88
862.426	3.88
863.165	0.88
863.903	3.88
864.641	3.88
865.379	2.88
866.117	3.88
866.855	2.88
867.593	1.88
868.33	0.88
869.068	4.88
869.806	2.88
870.543	2.88
871.28	1.88
872.018	1.88
872.755	2.88
873.492	2.88
874.229	1.88
874.967	2.88
875.703	1.88
876.44	2.88
877.177	1.88
877.914	-0.12
878.651	1.88
879.387	1.88
880.124	2.88
880.86	2.88
881.597	-0.12
882.333	1.88
883.069	0.88
883.806	1.88
884.542	-0.12
885.278	1.88
886.014	0.88
886.749	1.88
887.485	1.88
888.221	-0.12
888.957	0.88
889.692	3.88
890.428	-0.12
891.163	0.88
891.899	1.88
892.634	3.88
893.369	2.88
894.104	2.88
894.839	2.88
895.574	2.88
896.309	2.88
897.044	1.88
897.779	-0.12
898.514	0.88
899.248	-0.12
899.983	0.88
900.717	0.88
901.452	2.88
902.186	0.88
902.92	-0.12
903.654	2.88
904.389	0.88
905.123	1.88
905.857	0.88
906.59	1.88
907.324	1.88
908.058	1.88
908.792	2.88
909.525	0.88
910.259	2.88
910.992	0.88
911.726	-0.12
912.459	1.88
913.192	0.88
913.925	0.88
914.658	0.88
915.391	2.88
916.124	2.88
916.857	-0.12
917.59	2.88
918.323	-0.12
919.055	1.88
919.788	0.88
920.521	-0.12
921.253	0.88
921.985	2.88
922.718	0.88
923.45	-0.12
924.182	0.88
924.914	0.88
925.646	2.88
926.378	0.88
927.11	0.88
927.841	2.88
928.573	0.88
929.305	0.88
930.036	0.88
930.768	-1.12
931.499	0.88
932.23	-0.12
932.962	1.88
933.693	0.88
934.424	0.88
935.155	-1.12
935.886	-1.12
936.617	0.88
937.348	0.88
938.078	0.88
938.809	0.88
939.54	0.88
940.27	0.88
941.001	2.88
941.731	-0.12
942.461	1.88
943.191	-1.12
943.922	-0.12
944.652	-0.12
945.382	0.88
946.112	0.88
946.841	-2.12
947.571	0.88
948.301	0.88
949.031	0.88
949.76	0.88
950.49	-1.12
951.219	1.88
951.948	2.88
952.678	2.88
953.407	1.88
954.136	2.88
954.865	-0.12
955.594	-0.12
956.323	1.88
957.052	-0.12
957.78	0.88
958.509	-1.12
959.238	-0.12
959.966	-0.12
960.695	-1.12
961.423	0.88
962.151	0.88
962.88	2.88
963.608	-1.12
964.336	-0.12
965.064	4.88
965.792	1.88
966.52	0.88
967.247	-2.12
967.975	2.88
968.703	-1.12
969.43	0.88
970.158	-0.12
970.885	-1.12
971.613	-1.12
972.34	-1.12
973.067	-0.12
973.794	1.88
974.521	-0.12
975.248	0.88
975.975	1.88
976.702	1.88
977.429	0.88
978.156	0.88
978.882	1.88
979.609	2.88
980.335	1.88
981.062	-1.12
981.788	0.88
982.514	0.88
983.24	-0.12
983.967	0.88
984.693	0.88
985.419	-0.12
986.144	0.88
986.87	0.88
987.596	-0.12
988.322	-1.12
989.047	0.88
989.773	0.88
990.498	-1.12
991.224	2.88
991.949	-0.12
992.674	1.88
993.399	1.88
994.124	0.88
994.849	0.88
995.574	1.88
996.299	-0.12
997.024	0.88
997.749	0.88
998.473	-2.12
999.198	-1.12
999.922	0.88
1000.647	0.88
1001.371	3.88
1002.095	-1.12
1002.82	-2.12
1003.544	-3.12
1004.268	2.88
1004.992	3.88
1005.716	3.88
1006.439	2.88
1007.163	1.88
1007.887	3.88
1008.611	0.88
1009.334	0.88
1010.058	-0.12
1010.781	2.88
1011.504	-1.12
1012.228	1.88
1012.951	-0.12
1013.674	-0.12
1014.397	-0.12
1015.12	2.88
