节点500_425_QEPB04081__214__15-51-52-093.txt的数据

Date: Wed Nov 12 15:51:52 CST 2025
User: PC
Spectrometer: QEPB0408
触发模式: 0
积分时间 (秒): 1.000000E-2
Scans to average: 1
启用暗噪声校正: true
启用非线性校正: false
滑动平均宽度: 0
X轴模式: Wavelengths
Number of Pixels in Spectrum: 1044
>>>>>Begin Spectral Data<<<<<
220.843	4.38
221.644	2.38
222.444	4.38
223.244	2.38
224.045	4.38
224.845	2.38
225.645	3.38
226.445	2.38
227.245	2.38
228.045	3.38
228.845	1.38
229.645	5.38
230.444	4.38
231.244	3.38
232.043	4.38
232.843	5.38
233.642	6.38
234.442	4.38
235.241	6.38
236.04	5.38
236.839	6.38
237.638	7.38
238.437	9.38
239.236	9.38
240.035	6.38
240.833	8.38
241.632	9.38
242.43	8.38
243.229	8.38
244.027	6.38
244.826	10.38
245.624	10.38
246.422	11.38
247.22	8.38
248.018	8.38
248.816	10.38
249.614	10.38
250.412	9.38
251.21	11.38
252.007	10.38
252.805	10.38
253.602	11.38
254.4	12.38
255.197	9.38
255.994	13.38
256.791	12.38
257.589	12.38
258.386	14.38
259.183	16.38
259.979	13.38
260.776	14.38
261.573	17.38
262.37	17.38
263.166	16.38
263.963	15.38
264.759	17.38
265.556	16.38
266.352	22.38
267.148	18.38
267.944	20.38
268.74	18.38
269.536	18.38
270.332	17.38
271.128	24.38
271.924	21.38
272.719	23.38
273.515	21.38
274.311	26.38
275.106	22.38
275.901	24.38
276.697	26.38
277.492	24.38
278.287	27.38
279.082	24.38
279.877	25.38
280.672	25.38
281.467	22.38
282.262	26.38
283.056	26.38
283.851	25.38
284.646	26.38
285.44	25.38
286.234	24.38
287.029	23.38
287.823	23.38
288.617	26.38
289.411	25.38
290.205	23.38
290.999	26.38
291.793	21.38
292.587	24.38
293.381	24.38
294.174	23.38
294.968	24.38
295.761	19.38
296.555	20.38
297.348	20.38
298.141	21.38
298.935	24.38
299.728	16.38
300.521	19.38
301.314	18.38
302.107	15.38
302.899	17.38
303.692	16.38
304.485	16.38
305.277	14.38
306.07	14.38
306.862	16.38
307.655	17.38
308.447	15.38
309.239	15.38
310.031	17.38
310.823	12.38
311.615	14.38
312.407	11.38
313.199	12.38
313.991	11.38
314.783	11.38
315.574	14.38
316.366	10.38
317.157	10.38
317.949	9.38
318.74	13.38
319.531	12.38
320.322	10.38
321.113	11.38
321.904	12.38
322.695	9.38
323.486	8.38
324.277	12.38
325.068	8.38
325.858	9.38
326.649	11.38
327.439	10.38
328.23	8.38
329.02	10.38
329.81	7.38
330.6	8.38
331.391	8.38
332.181	9.38
332.971	10.38
333.76	8.38
334.55	8.38
335.34	10.38
336.13	11.38
336.919	6.38
337.709	8.38
338.498	13.38
339.287	8.38
340.077	8.38
340.866	8.38
341.655	10.38
342.444	8.38
343.233	9.38
344.022	9.38
344.811	8.38
345.6	9.38
346.388	8.38
347.177	9.38
347.965	9.38
348.754	7.38
349.542	9.38
350.33	7.38
351.119	8.38
351.907	8.38
352.695	5.38
353.483	5.38
354.271	7.38
355.059	10.38
355.846	6.38
356.634	7.38
357.422	6.38
358.209	7.38
358.997	8.38
359.784	8.38
360.571	8.38
361.359	8.38
362.146	8.38
362.933	9.38
363.72	4.38
364.507	7.38
365.294	7.38
366.081	6.38
366.867	6.38
367.654	5.38
368.44	10.38
369.227	7.38
370.013	8.38
370.8	7.38
371.586	5.38
372.372	6.38
373.158	6.38
373.944	8.38
374.73	7.38
375.516	8.38
376.302	7.38
377.088	5.38
377.873	6.38
378.659	8.38
379.445	6.38
380.23	8.38
381.015	9.38
381.801	6.38
382.586	6.38
383.371	8.38
384.156	9.38
384.941	7.38
385.726	7.38
386.511	6.38
387.296	7.38
388.08	5.38
388.865	8.38
389.649	7.38
390.434	6.38
391.218	8.38
392.003	10.38
392.787	7.38
393.571	7.38
394.355	8.38
395.139	7.38
395.923	7.38
396.707	11.38
397.491	10.38
398.274	9.38
399.058	9.38
399.842	8.38
400.625	7.38
401.408	9.38
402.192	10.38
402.975	12.38
403.758	11.38
404.541	8.38
405.324	9.38
406.107	12.38
406.89	9.38
407.673	13.38
408.456	11.38
409.238	12.38
410.021	10.38
410.803	12.38
411.586	11.38
412.368	13.38
413.151	12.38
413.933	12.38
414.715	12.38
415.497	14.38
416.279	11.38
417.061	15.38
417.843	13.38
418.624	13.38
419.406	15.38
420.188	13.38
420.969	14.38
421.751	16.38
422.532	13.38
423.313	14.38
424.095	16.38
424.876	15.38
425.657	12.38
426.438	17.38
427.219	18.38
428	15.38
428.78	19.38
429.561	20.38
430.342	19.38
431.122	20.38
431.903	21.38
432.683	21.38
433.464	21.38
434.244	27.38
435.024	23.38
435.804	27.38
436.584	26.38
437.364	28.38
438.144	27.38
438.924	30.38
439.704	30.38
440.483	29.38
441.263	34.38
442.042	39.38
442.822	40.38
443.601	44.38
444.38	44.38
445.16	49.38
445.939	56.38
446.718	57.38
447.497	58.38
448.276	65.38
449.054	70.38
449.833	79.38
450.612	82.38
451.391	92.38
452.169	100.38
452.948	107.38
453.726	121.38
454.504	137.38
455.282	150.38
456.061	165.38
456.839	192.38
457.617	206.38
458.395	226.38
459.172	257.38
459.95	283.38
460.728	308.38
461.506	352.38
462.283	389.38
463.061	438.38
463.838	484.38
464.615	546.38
465.393	607.38
466.17	681.38
466.947	759.38
467.724	841.38
468.501	942.38
469.278	1048.38
470.055	1151.38
470.831	1294.38
471.608	1425.38
472.385	1585.38
473.161	1752.38
473.938	1962.38
474.714	2148.38
475.49	2370.38
476.266	2620.38
477.043	2888.38
477.819	3176.38
478.595	3517.38
479.371	3885.38
480.146	4250.38
480.922	4657.38
481.698	5139.38
482.473	5634.38
483.249	6217.38
484.024	6836.38
484.8	7466.38
485.575	8153.38
486.35	8880.38
487.126	9731.38
487.901	10611.38
488.676	11604.38
489.451	12576.38
490.225	13714.38
491	14897.38
491.775	16169.38
492.55	17461.38
493.324	18823.38
494.099	20194.38
494.873	21564.38
495.647	22974.38
496.422	24473.38
497.196	25956.38
497.97	27480.38
498.744	28965.38
499.518	30302.38
500.292	31515.38
501.066	32602.38
501.839	33789.38
502.613	34651.38
503.387	35294.38
504.16	35890.38
504.934	36065.38
505.707	36011.38
506.48	35876.38
507.253	35476.38
508.027	35085.38
508.8	34402.38
509.573	33658.38
510.346	32736.38
511.118	31761.38
511.891	30669.38
512.664	29544.38
513.437	28367.38
514.209	27219.38
514.982	26117.38
515.754	25088.38
516.526	23989.38
517.298	22934.38
518.071	21981.38
518.843	21085.38
519.615	20206.38
520.387	19410.38
521.159	18622.38
521.93	17990.38
522.702	17235.38
523.474	16563.38
524.245	15878.38
525.017	15132.38
525.788	14433.38
526.56	13789.38
527.331	13128.38
528.102	12567.38
528.873	11968.38
529.644	11343.38
530.415	10824.38
531.186	10256.38
531.957	9772.38
532.728	9246.38
533.498	8699.38
534.269	8240.38
535.039	7790.38
535.81	7366.38
536.58	6956.38
537.351	6539.38
538.121	6194.38
538.891	5850.38
539.661	5555.38
540.431	5296.38
541.201	5001.38
541.971	4710.38
542.741	4454.38
543.51	4254.38
544.28	4056.38
545.05	3840.38
545.819	3675.38
546.588	3469.38
547.358	3283.38
548.127	3133.38
548.896	2963.38
549.665	2825.38
550.434	2688.38
551.203	2534.38
551.972	2404.38
552.741	2267.38
553.51	2147.38
554.278	2012.38
555.047	1915.38
555.815	1786.38
556.584	1711.38
557.352	1610.38
558.121	1518.38
558.889	1426.38
559.657	1360.38
560.425	1277.38
561.193	1203.38
561.961	1125.38
562.729	1080.38
563.496	1027.38
564.264	966.38
565.032	919.38
565.799	858.38
566.567	812.38
567.334	772.38
568.101	728.38
568.869	689.38
569.636	638.38
570.403	614.38
571.17	574.38
571.937	543.38
572.704	513.38
573.471	490.38
574.237	455.38
575.004	423.38
575.771	405.38
576.537	385.38
577.303	358.38
578.07	344.38
578.836	314.38
579.602	302.38
580.368	283.38
581.134	274.38
581.9	260.38
582.666	247.38
583.432	234.38
584.198	218.38
584.964	209.38
585.729	196.38
586.495	193.38
587.26	178.38
588.025	169.38
588.791	163.38
589.556	153.38
590.321	142.38
591.086	136.38
591.851	129.38
592.616	125.38
593.381	112.38
594.146	113.38
594.911	105.38
595.675	100.38
596.44	98.38
597.204	92.38
597.969	91.38
598.733	89.38
599.497	79.38
600.261	75.38
601.025	75.38
601.79	69.38
602.553	69.38
603.317	66.38
604.081	63.38
604.845	59.38
605.609	57.38
606.372	56.38
607.136	54.38
607.899	50.38
608.662	46.38
609.426	47.38
610.189	44.38
610.952	45.38
611.715	45.38
612.478	40.38
613.241	42.38
614.004	39.38
614.767	35.38
615.529	35.38
616.292	33.38
617.055	33.38
617.817	34.38
618.579	29.38
619.342	31.38
620.104	27.38
620.866	30.38
621.628	26.38
622.39	26.38
623.152	26.38
623.914	25.38
624.676	23.38
625.438	23.38
626.199	24.38
626.961	23.38
627.722	21.38
628.484	21.38
629.245	18.38
630.006	18.38
630.768	19.38
631.529	17.38
632.29	14.38
633.051	18.38
633.812	16.38
634.573	19.38
635.333	17.38
636.094	18.38
636.855	13.38
637.615	15.38
638.376	14.38
639.136	12.38
639.896	14.38
640.657	14.38
641.417	11.38
642.177	15.38
642.937	13.38
643.697	12.38
644.457	11.38
645.216	11.38
645.976	13.38
646.736	11.38
647.495	11.38
648.255	10.38
649.014	12.38
649.774	10.38
650.533	7.38
651.292	10.38
652.051	11.38
652.81	7.38
653.569	6.38
654.328	9.38
655.087	7.38
655.846	9.38
656.604	7.38
657.363	7.38
658.121	9.38
658.88	8.38
659.638	6.38
660.397	8.38
661.155	7.38
661.913	8.38
662.671	8.38
663.429	6.38
664.187	9.38
664.945	7.38
665.703	7.38
666.46	8.38
667.218	6.38
667.976	7.38
668.733	8.38
669.49	9.38
670.248	9.38
671.005	6.38
671.762	7.38
672.519	6.38
673.276	7.38
674.033	6.38
674.79	7.38
675.547	5.38
676.304	6.38
677.06	3.38
677.817	7.38
678.574	4.38
679.33	4.38
680.086	8.38
680.843	3.38
681.599	7.38
682.355	5.38
683.111	4.38
683.867	5.38
684.623	6.38
685.379	7.38
686.135	5.38
686.89	4.38
687.646	5.38
688.402	5.38
689.157	5.38
689.912	5.38
690.668	7.38
691.423	6.38
692.178	6.38
692.933	5.38
693.688	4.38
694.443	7.38
695.198	4.38
695.953	6.38
696.708	6.38
697.462	5.38
698.217	7.38
698.972	3.38
699.726	4.38
700.48	4.38
701.235	5.38
701.989	4.38
702.743	5.38
703.497	6.38
704.251	4.38
705.005	4.38
705.759	5.38
706.513	5.38
707.266	5.38
708.02	3.38
708.774	6.38
709.527	6.38
710.28	5.38
711.034	6.38
711.787	5.38
712.54	5.38
713.293	5.38
714.046	7.38
714.799	6.38
715.552	4.38
716.305	4.38
717.058	7.38
717.81	6.38
718.563	4.38
719.315	7.38
720.068	4.38
720.82	6.38
721.573	4.38
722.325	4.38
723.077	5.38
723.829	5.38
724.581	3.38
725.333	5.38
726.085	3.38
726.836	4.38
727.588	4.38
728.34	6.38
729.091	5.38
729.843	6.38
730.594	5.38
731.346	4.38
732.097	7.38
732.848	7.38
733.599	7.38
734.35	7.38
735.101	6.38
735.852	6.38
736.603	5.38
737.354	7.38
738.104	6.38
738.855	7.38
739.605	10.38
740.356	5.38
741.106	7.38
741.856	8.38
742.607	3.38
743.357	8.38
744.107	7.38
744.857	8.38
745.607	8.38
746.357	11.38
747.106	5.38
747.856	7.38
748.606	9.38
749.355	7.38
750.105	6.38
750.854	9.38
751.603	7.38
752.353	7.38
753.102	7.38
753.851	6.38
754.6	8.38
755.349	10.38
756.098	10.38
756.847	9.38
757.595	9.38
758.344	8.38
759.093	9.38
759.841	8.38
760.589	9.38
761.338	9.38
762.086	6.38
762.834	8.38
763.582	8.38
764.331	9.38
765.079	10.38
765.826	9.38
766.574	13.38
767.322	7.38
768.07	10.38
768.817	10.38
769.565	10.38
770.312	10.38
771.06	9.38
771.807	10.38
772.554	12.38
773.302	10.38
774.049	9.38
774.796	10.38
775.543	12.38
776.29	12.38
777.036	13.38
777.783	12.38
778.53	10.38
779.276	13.38
780.023	10.38
780.769	12.38
781.516	10.38
782.262	11.38
783.008	9.38
783.754	10.38
784.5	13.38
785.246	12.38
785.992	12.38
786.738	10.38
787.484	11.38
788.23	11.38
788.975	11.38
789.721	14.38
790.466	10.38
791.212	11.38
791.957	15.38
792.702	12.38
793.447	10.38
794.193	9.38
794.938	10.38
795.683	9.38
796.427	11.38
797.172	9.38
797.917	9.38
798.662	9.38
799.406	9.38
800.151	10.38
800.895	12.38
801.64	7.38
802.384	11.38
803.128	11.38
803.872	10.38
804.616	10.38
805.36	6.38
806.104	8.38
806.848	7.38
807.592	7.38
808.336	7.38
809.079	8.38
809.823	8.38
810.566	7.38
811.31	8.38
812.053	7.38
812.796	6.38
813.539	6.38
814.283	7.38
815.026	8.38
815.769	8.38
816.511	9.38
817.254	3.38
817.997	7.38
818.74	5.38
819.482	7.38
820.225	5.38
820.967	4.38
821.71	6.38
822.452	4.38
823.194	4.38
823.936	8.38
824.678	3.38
825.42	4.38
826.162	3.38
826.904	2.38
827.646	3.38
828.388	5.38
829.129	7.38
829.871	8.38
830.612	5.38
831.354	4.38
832.095	6.38
832.836	6.38
833.577	4.38
834.319	2.38
835.06	2.38
835.801	5.38
836.542	5.38
837.282	4.38
838.023	6.38
838.764	4.38
839.504	3.38
840.245	4.38
840.985	3.38
841.726	5.38
842.466	3.38
843.206	3.38
843.946	3.38
844.687	3.38
845.427	4.38
846.166	5.38
846.906	4.38
847.646	4.38
848.386	3.38
849.125	5.38
849.865	3.38
850.605	3.38
851.344	4.38
852.083	6.38
852.823	0.38
853.562	5.38
854.301	4.38
855.04	2.38
855.779	4.38
856.518	3.38
857.257	3.38
857.995	5.38
858.734	5.38
859.473	2.38
860.211	2.38
860.95	1.38
861.688	1.38
862.426	3.38
863.165	2.38
863.903	2.38
864.641	2.38
865.379	4.38
866.117	2.38
866.855	2.38
867.593	2.38
868.33	2.38
869.068	1.38
869.806	2.38
870.543	2.38
871.28	2.38
872.018	1.38
872.755	2.38
873.492	2.38
874.229	3.38
874.967	5.38
875.703	3.38
876.44	3.38
877.177	0.38
877.914	0.38
878.651	0.38
879.387	1.38
880.124	2.38
880.86	0.38
881.597	3.38
882.333	2.38
883.069	1.38
883.806	-0.62
884.542	1.38
885.278	1.38
886.014	3.38
886.749	0.38
887.485	2.38
888.221	-0.62
888.957	0.38
889.692	-0.62
890.428	2.38
891.163	1.38
891.899	2.38
892.634	1.38
893.369	2.38
894.104	2.38
894.839	0.38
895.574	2.38
896.309	2.38
897.044	0.38
897.779	0.38
898.514	-1.62
899.248	2.38
899.983	0.38
900.717	-0.62
901.452	-0.62
902.186	1.38
902.92	0.38
903.654	0.38
904.389	1.38
905.123	-0.62
905.857	0.38
906.59	0.38
907.324	0.38
908.058	1.38
908.792	1.38
909.525	0.38
910.259	0.38
910.992	1.38
911.726	0.38
912.459	0.38
913.192	0.38
913.925	0.38
914.658	0.38
915.391	1.38
916.124	0.38
916.857	1.38
917.59	2.38
918.323	-0.62
919.055	0.38
919.788	-0.62
920.521	0.38
921.253	-1.62
921.985	1.38
922.718	-0.62
923.45	0.38
924.182	0.38
924.914	-1.62
925.646	0.38
926.378	0.38
927.11	1.38
927.841	0.38
928.573	0.38
929.305	-0.62
930.036	1.38
930.768	3.38
931.499	1.38
932.23	-1.62
932.962	0.38
933.693	1.38
934.424	2.38
935.155	0.38
935.886	1.38
936.617	-0.62
937.348	0.38
938.078	0.38
938.809	-0.62
939.54	0.38
940.27	-0.62
941.001	0.38
941.731	0.38
942.461	-0.62
943.191	2.38
943.922	1.38
944.652	3.38
945.382	1.38
946.112	-1.62
946.841	2.38
947.571	-0.62
948.301	1.38
949.031	1.38
949.76	-2.62
950.49	-0.62
951.219	-1.62
951.948	0.38
952.678	2.38
953.407	0.38
954.136	0.38
954.865	0.38
955.594	-0.62
956.323	1.38
957.052	0.38
957.78	-0.62
958.509	-0.62
959.238	-0.62
959.966	0.38
960.695	1.38
961.423	1.38
962.151	2.38
962.88	1.38
963.608	0.38
964.336	1.38
965.064	-0.62
965.792	1.38
966.52	0.38
967.247	0.38
967.975	1.38
968.703	-0.62
969.43	-0.62
970.158	1.38
970.885	1.38
971.613	0.38
972.34	-0.62
973.067	-1.62
973.794	0.38
974.521	-0.62
975.248	-1.62
975.975	-3.62
976.702	0.38
977.429	-0.62
978.156	0.38
978.882	1.38
979.609	0.38
980.335	2.38
981.062	0.38
981.788	1.38
982.514	1.38
983.24	0.38
983.967	0.38
984.693	-1.62
985.419	2.38
986.144	0.38
986.87	-1.62
987.596	0.38
988.322	2.38
989.047	0.38
989.773	0.38
990.498	0.38
991.224	-1.62
991.949	0.38
992.674	-1.62
993.399	1.38
994.124	-0.62
994.849	-0.62
995.574	0.38
996.299	1.38
997.024	0.38
997.749	1.38
998.473	-0.62
999.198	0.38
999.922	-0.62
1000.647	0.38
1001.371	2.38
1002.095	-1.62
1002.82	-0.62
1003.544	-1.62
1004.268	3.38
1004.992	5.38
1005.716	1.38
1006.439	1.38
1007.163	2.38
1007.887	4.38
1008.611	2.38
1009.334	0.38
1010.058	1.38
1010.781	1.38
1011.504	1.38
1012.228	-0.62
1012.951	2.38
1013.674	-1.62
1014.397	0.38
1015.12	0.38
