节点500_425_QEPB04081__604__15-58-21-395.txt的数据

Date: Wed Nov 12 15:58:21 CST 2025
User: PC
Spectrometer: QEPB0408
触发模式: 0
积分时间 (秒): 1.000000E-2
Scans to average: 1
启用暗噪声校正: true
启用非线性校正: false
滑动平均宽度: 0
X轴模式: Wavelengths
Number of Pixels in Spectrum: 1044
>>>>>Begin Spectral Data<<<<<
220.843	4.25
221.644	0.25
222.444	2.25
223.244	2.25
224.045	3.25
224.845	5.25
225.645	4.25
226.445	4.25
227.245	3.25
228.045	3.25
228.845	3.25
229.645	5.25
230.444	4.25
231.244	5.25
232.043	5.25
232.843	6.25
233.642	4.25
234.442	5.25
235.241	4.25
236.04	5.25
236.839	4.25
237.638	6.25
238.437	5.25
239.236	6.25
240.035	5.25
240.833	7.25
241.632	4.25
242.43	7.25
243.229	8.25
244.027	7.25
244.826	7.25
245.624	8.25
246.422	6.25
247.22	11.25
248.018	5.25
248.816	9.25
249.614	7.25
250.412	7.25
251.21	10.25
252.007	7.25
252.805	10.25
253.602	10.25
254.4	11.25
255.197	9.25
255.994	9.25
256.791	11.25
257.589	11.25
258.386	12.25
259.183	11.25
259.979	12.25
260.776	11.25
261.573	12.25
262.37	11.25
263.166	14.25
263.963	13.25
264.759	15.25
265.556	13.25
266.352	17.25
267.148	18.25
267.944	17.25
268.74	18.25
269.536	15.25
270.332	22.25
271.128	14.25
271.924	17.25
272.719	19.25
273.515	19.25
274.311	19.25
275.106	17.25
275.901	19.25
276.697	21.25
277.492	22.25
278.287	22.25
279.082	20.25
279.877	24.25
280.672	25.25
281.467	20.25
282.262	21.25
283.056	21.25
283.851	21.25
284.646	19.25
285.44	23.25
286.234	25.25
287.029	21.25
287.823	24.25
288.617	23.25
289.411	24.25
290.205	21.25
290.999	20.25
291.793	24.25
292.587	22.25
293.381	23.25
294.174	21.25
294.968	21.25
295.761	19.25
296.555	18.25
297.348	19.25
298.141	17.25
298.935	21.25
299.728	17.25
300.521	15.25
301.314	19.25
302.107	17.25
302.899	18.25
303.692	17.25
304.485	18.25
305.277	13.25
306.07	18.25
306.862	16.25
307.655	14.25
308.447	15.25
309.239	17.25
310.031	15.25
310.823	14.25
311.615	13.25
312.407	11.25
313.199	12.25
313.991	13.25
314.783	11.25
315.574	9.25
316.366	10.25
317.157	10.25
317.949	12.25
318.74	10.25
319.531	7.25
320.322	8.25
321.113	9.25
321.904	10.25
322.695	9.25
323.486	10.25
324.277	10.25
325.068	8.25
325.858	8.25
326.649	8.25
327.439	10.25
328.23	9.25
329.02	8.25
329.81	9.25
330.6	8.25
331.391	12.25
332.181	9.25
332.971	9.25
333.76	7.25
334.55	8.25
335.34	8.25
336.13	7.25
336.919	10.25
337.709	8.25
338.498	7.25
339.287	8.25
340.077	8.25
340.866	9.25
341.655	7.25
342.444	10.25
343.233	8.25
344.022	6.25
344.811	7.25
345.6	4.25
346.388	8.25
347.177	7.25
347.965	9.25
348.754	9.25
349.542	7.25
350.33	7.25
351.119	8.25
351.907	9.25
352.695	5.25
353.483	8.25
354.271	8.25
355.059	7.25
355.846	8.25
356.634	9.25
357.422	7.25
358.209	5.25
358.997	5.25
359.784	7.25
360.571	6.25
361.359	7.25
362.146	5.25
362.933	4.25
363.72	7.25
364.507	4.25
365.294	6.25
366.081	7.25
366.867	8.25
367.654	8.25
368.44	8.25
369.227	7.25
370.013	6.25
370.8	7.25
371.586	5.25
372.372	5.25
373.158	6.25
373.944	4.25
374.73	8.25
375.516	5.25
376.302	6.25
377.088	5.25
377.873	4.25
378.659	5.25
379.445	6.25
380.23	9.25
381.015	6.25
381.801	4.25
382.586	7.25
383.371	6.25
384.156	7.25
384.941	6.25
385.726	5.25
386.511	6.25
387.296	6.25
388.08	6.25
388.865	6.25
389.649	5.25
390.434	9.25
391.218	8.25
392.003	7.25
392.787	6.25
393.571	10.25
394.355	7.25
395.139	7.25
395.923	9.25
396.707	7.25
397.491	8.25
398.274	9.25
399.058	9.25
399.842	7.25
400.625	10.25
401.408	11.25
402.192	9.25
402.975	9.25
403.758	11.25
404.541	10.25
405.324	10.25
406.107	8.25
406.89	9.25
407.673	9.25
408.456	11.25
409.238	9.25
410.021	10.25
410.803	9.25
411.586	9.25
412.368	10.25
413.151	11.25
413.933	12.25
414.715	11.25
415.497	11.25
416.279	13.25
417.061	11.25
417.843	13.25
418.624	14.25
419.406	13.25
420.188	14.25
420.969	12.25
421.751	14.25
422.532	14.25
423.313	13.25
424.095	15.25
424.876	17.25
425.657	13.25
426.438	17.25
427.219	16.25
428	16.25
428.78	18.25
429.561	15.25
430.342	16.25
431.122	20.25
431.903	20.25
432.683	24.25
433.464	25.25
434.244	19.25
435.024	22.25
435.804	25.25
436.584	27.25
437.364	29.25
438.144	29.25
438.924	34.25
439.704	32.25
440.483	33.25
441.263	34.25
442.042	38.25
442.822	41.25
443.601	45.25
444.38	48.25
445.16	53.25
445.939	55.25
446.718	60.25
447.497	69.25
448.276	71.25
449.054	79.25
449.833	87.25
450.612	89.25
451.391	103.25
452.169	112.25
452.948	129.25
453.726	132.25
454.504	154.25
455.282	172.25
456.061	182.25
456.839	202.25
457.617	232.25
458.395	254.25
459.172	289.25
459.95	311.25
460.728	352.25
461.506	380.25
462.283	433.25
463.061	483.25
463.838	531.25
464.615	596.25
465.393	674.25
466.17	736.25
466.947	802.25
467.724	902.25
468.501	995.25
469.278	1109.25
470.055	1213.25
470.831	1339.25
471.608	1476.25
472.385	1638.25
473.161	1795.25
473.938	1967.25
474.714	2179.25
475.49	2369.25
476.266	2579.25
477.043	2854.25
477.819	3113.25
478.595	3427.25
479.371	3730.25
480.146	4051.25
480.922	4427.25
481.698	4814.25
482.473	5239.25
483.249	5721.25
484.024	6243.25
484.8	6769.25
485.575	7325.25
486.35	7927.25
487.126	8624.25
487.901	9317.25
488.676	10116.25
489.451	10917.25
490.225	11780.25
491	12718.25
491.775	13734.25
492.55	14753.25
493.324	15884.25
494.099	16950.25
494.873	18071.25
495.647	19278.25
496.422	20499.25
497.196	21725.25
497.97	23082.25
498.744	24349.25
499.518	25622.25
500.292	26729.25
501.066	27799.25
501.839	28958.25
502.613	29902.25
503.387	30738.25
504.16	31412.25
504.934	31968.25
505.707	32258.25
506.48	32389.25
507.253	32463.25
508.027	32362.25
508.8	32166.25
509.573	31713.25
510.346	31184.25
511.118	30516.25
511.891	29886.25
512.664	28949.25
513.437	28030.25
514.209	27051.25
514.982	26236.25
515.754	25281.25
516.526	24250.25
517.298	23282.25
518.071	22363.25
518.843	21407.25
519.615	20559.25
520.387	19823.25
521.159	19074.25
521.93	18341.25
522.702	17630.25
523.474	16910.25
524.245	16280.25
525.017	15554.25
525.788	14892.25
526.56	14204.25
527.331	13638.25
528.102	12991.25
528.873	12439.25
529.644	11890.25
530.415	11337.25
531.186	10863.25
531.957	10278.25
532.728	9783.25
533.498	9281.25
534.269	8807.25
535.039	8344.25
535.81	7885.25
536.58	7449.25
537.351	7032.25
538.121	6654.25
538.891	6339.25
539.661	6008.25
540.431	5658.25
541.201	5376.25
541.971	5103.25
542.741	4848.25
543.51	4586.25
544.28	4351.25
545.05	4151.25
545.819	3960.25
546.588	3752.25
547.358	3540.25
548.127	3372.25
548.896	3230.25
549.665	3051.25
550.434	2918.25
551.203	2767.25
551.972	2616.25
552.741	2463.25
553.51	2351.25
554.278	2220.25
555.047	2113.25
555.815	1980.25
556.584	1866.25
557.352	1766.25
558.121	1661.25
558.889	1579.25
559.657	1511.25
560.425	1412.25
561.193	1326.25
561.961	1260.25
562.729	1189.25
563.496	1134.25
564.264	1063.25
565.032	1016.25
565.799	943.25
566.567	908.25
567.334	857.25
568.101	813.25
568.869	763.25
569.636	716.25
570.403	677.25
571.17	634.25
571.937	592.25
572.704	568.25
573.471	547.25
574.237	508.25
575.004	463.25
575.771	458.25
576.537	417.25
577.303	408.25
578.07	377.25
578.836	359.25
579.602	338.25
580.368	318.25
581.134	303.25
581.9	286.25
582.666	270.25
583.432	259.25
584.198	243.25
584.964	228.25
585.729	219.25
586.495	207.25
587.26	202.25
588.025	189.25
588.791	180.25
589.556	166.25
590.321	161.25
591.086	148.25
591.851	142.25
592.616	137.25
593.381	132.25
594.146	120.25
594.911	119.25
595.675	116.25
596.44	109.25
597.204	102.25
597.969	95.25
598.733	91.25
599.497	90.25
600.261	84.25
601.025	82.25
601.79	81.25
602.553	69.25
603.317	71.25
604.081	66.25
604.845	69.25
605.609	64.25
606.372	59.25
607.136	61.25
607.899	58.25
608.662	54.25
609.426	48.25
610.189	48.25
610.952	44.25
611.715	45.25
612.478	41.25
613.241	42.25
614.004	40.25
614.767	41.25
615.529	37.25
616.292	37.25
617.055	35.25
617.817	34.25
618.579	37.25
619.342	31.25
620.104	32.25
620.866	28.25
621.628	28.25
622.39	30.25
623.152	25.25
623.914	26.25
624.676	24.25
625.438	22.25
626.199	23.25
626.961	23.25
627.722	21.25
628.484	22.25
629.245	21.25
630.006	17.25
630.768	22.25
631.529	15.25
632.29	18.25
633.051	19.25
633.812	15.25
634.573	14.25
635.333	16.25
636.094	14.25
636.855	14.25
637.615	16.25
638.376	16.25
639.136	14.25
639.896	14.25
640.657	14.25
641.417	13.25
642.177	11.25
642.937	11.25
643.697	15.25
644.457	11.25
645.216	12.25
645.976	11.25
646.736	11.25
647.495	11.25
648.255	8.25
649.014	11.25
649.774	9.25
650.533	9.25
651.292	13.25
652.051	9.25
652.81	11.25
653.569	9.25
654.328	7.25
655.087	9.25
655.846	8.25
656.604	9.25
657.363	9.25
658.121	5.25
658.88	8.25
659.638	7.25
660.397	9.25
661.155	7.25
661.913	6.25
662.671	7.25
663.429	7.25
664.187	5.25
664.945	7.25
665.703	7.25
666.46	9.25
667.218	7.25
667.976	7.25
668.733	5.25
669.49	6.25
670.248	6.25
671.005	8.25
671.762	7.25
672.519	5.25
673.276	7.25
674.033	3.25
674.79	6.25
675.547	5.25
676.304	6.25
677.06	5.25
677.817	5.25
678.574	5.25
679.33	4.25
680.086	4.25
680.843	4.25
681.599	3.25
682.355	5.25
683.111	5.25
683.867	5.25
684.623	5.25
685.379	4.25
686.135	6.25
686.89	6.25
687.646	5.25
688.402	4.25
689.157	2.25
689.912	3.25
690.668	5.25
691.423	4.25
692.178	3.25
692.933	6.25
693.688	4.25
694.443	6.25
695.198	4.25
695.953	4.25
696.708	5.25
697.462	5.25
698.217	6.25
698.972	7.25
699.726	2.25
700.48	4.25
701.235	4.25
701.989	4.25
702.743	5.25
703.497	3.25
704.251	2.25
705.005	4.25
705.759	4.25
706.513	5.25
707.266	3.25
708.02	6.25
708.774	6.25
709.527	4.25
710.28	4.25
711.034	5.25
711.787	2.25
712.54	5.25
713.293	2.25
714.046	4.25
714.799	6.25
715.552	3.25
716.305	6.25
717.058	5.25
717.81	7.25
718.563	4.25
719.315	4.25
720.068	3.25
720.82	2.25
721.573	8.25
722.325	4.25
723.077	6.25
723.829	5.25
724.581	6.25
725.333	6.25
726.085	5.25
726.836	5.25
727.588	6.25
728.34	3.25
729.091	4.25
729.843	4.25
730.594	6.25
731.346	2.25
732.097	5.25
732.848	3.25
733.599	7.25
734.35	4.25
735.101	5.25
735.852	5.25
736.603	6.25
737.354	5.25
738.104	7.25
738.855	4.25
739.605	6.25
740.356	6.25
741.106	7.25
741.856	7.25
742.607	6.25
743.357	6.25
744.107	4.25
744.857	7.25
745.607	7.25
746.357	5.25
747.106	7.25
747.856	5.25
748.606	6.25
749.355	6.25
750.105	6.25
750.854	7.25
751.603	5.25
752.353	8.25
753.102	5.25
753.851	9.25
754.6	7.25
755.349	8.25
756.098	8.25
756.847	6.25
757.595	10.25
758.344	7.25
759.093	6.25
759.841	6.25
760.589	7.25
761.338	6.25
762.086	6.25
762.834	10.25
763.582	8.25
764.331	9.25
765.079	9.25
765.826	8.25
766.574	7.25
767.322	7.25
768.07	5.25
768.817	9.25
769.565	10.25
770.312	10.25
771.06	6.25
771.807	7.25
772.554	9.25
773.302	10.25
774.049	10.25
774.796	9.25
775.543	10.25
776.29	9.25
777.036	11.25
777.783	10.25
778.53	8.25
779.276	11.25
780.023	10.25
780.769	9.25
781.516	7.25
782.262	8.25
783.008	10.25
783.754	11.25
784.5	10.25
785.246	9.25
785.992	9.25
786.738	8.25
787.484	10.25
788.23	11.25
788.975	11.25
789.721	10.25
790.466	11.25
791.212	8.25
791.957	10.25
792.702	9.25
793.447	8.25
794.193	7.25
794.938	11.25
795.683	10.25
796.427	10.25
797.172	6.25
797.917	10.25
798.662	8.25
799.406	9.25
800.151	10.25
800.895	7.25
801.64	8.25
802.384	10.25
803.128	6.25
803.872	9.25
804.616	6.25
805.36	9.25
806.104	6.25
806.848	7.25
807.592	6.25
808.336	7.25
809.079	6.25
809.823	9.25
810.566	7.25
811.31	8.25
812.053	7.25
812.796	7.25
813.539	6.25
814.283	7.25
815.026	7.25
815.769	5.25
816.511	6.25
817.254	5.25
817.997	7.25
818.74	5.25
819.482	6.25
820.225	8.25
820.967	4.25
821.71	5.25
822.452	3.25
823.194	5.25
823.936	6.25
824.678	3.25
825.42	6.25
826.162	5.25
826.904	6.25
827.646	7.25
828.388	5.25
829.129	4.25
829.871	3.25
830.612	6.25
831.354	7.25
832.095	6.25
832.836	5.25
833.577	3.25
834.319	5.25
835.06	4.25
835.801	3.25
836.542	7.25
837.282	6.25
838.023	2.25
838.764	4.25
839.504	4.25
840.245	4.25
840.985	5.25
841.726	4.25
842.466	4.25
843.206	4.25
843.946	3.25
844.687	3.25
845.427	3.25
846.166	2.25
846.906	4.25
847.646	4.25
848.386	4.25
849.125	4.25
849.865	3.25
850.605	3.25
851.344	3.25
852.083	4.25
852.823	2.25
853.562	5.25
854.301	4.25
855.04	1.25
855.779	3.25
856.518	2.25
857.257	4.25
857.995	3.25
858.734	2.25
859.473	1.25
860.211	0.25
860.95	3.25
861.688	1.25
862.426	1.25
863.165	1.25
863.903	3.25
864.641	2.25
865.379	4.25
866.117	4.25
866.855	0.25
867.593	3.25
868.33	1.25
869.068	0.25
869.806	0.25
870.543	3.25
871.28	2.25
872.018	1.25
872.755	0.25
873.492	1.25
874.229	1.25
874.967	2.25
875.703	2.25
876.44	0.25
877.177	1.25
877.914	0.25
878.651	0.25
879.387	1.25
880.124	0.25
880.86	1.25
881.597	-1.75
882.333	1.25
883.069	-0.75
883.806	2.25
884.542	1.25
885.278	0.25
886.014	3.25
886.749	1.25
887.485	2.25
888.221	0.25
888.957	0.25
889.692	0.25
890.428	1.25
891.163	4.25
891.899	-1.75
892.634	0.25
893.369	2.25
894.104	0.25
894.839	1.25
895.574	1.25
896.309	-0.75
897.044	2.25
897.779	1.25
898.514	0.25
899.248	-0.75
899.983	1.25
900.717	-1.75
901.452	1.25
902.186	0.25
902.92	0.25
903.654	1.25
904.389	-1.75
905.123	0.25
905.857	0.25
906.59	2.25
907.324	0.25
908.058	0.25
908.792	-0.75
909.525	-2.75
910.259	0.25
910.992	0.25
911.726	1.25
912.459	-1.75
913.192	-1.75
913.925	2.25
914.658	0.25
915.391	0.25
916.124	2.25
916.857	0.25
917.59	0.25
918.323	0.25
919.055	0.25
919.788	3.25
920.521	1.25
921.253	1.25
921.985	1.25
922.718	2.25
923.45	1.25
924.182	0.25
924.914	1.25
925.646	-1.75
926.378	-0.75
927.11	0.25
927.841	1.25
928.573	-0.75
929.305	0.25
930.036	0.25
930.768	0.25
931.499	-0.75
932.23	1.25
932.962	2.25
933.693	-3.75
934.424	-1.75
935.155	0.25
935.886	0.25
936.617	1.25
937.348	0.25
938.078	1.25
938.809	0.25
939.54	-1.75
940.27	0.25
941.001	-0.75
941.731	0.25
942.461	0.25
943.191	-0.75
943.922	-1.75
944.652	-1.75
945.382	1.25
946.112	2.25
946.841	0.25
947.571	-0.75
948.301	-0.75
949.031	1.25
949.76	-1.75
950.49	0.25
951.219	-0.75
951.948	-0.75
952.678	1.25
953.407	-0.75
954.136	1.25
954.865	-1.75
955.594	-1.75
956.323	0.25
957.052	-0.75
957.78	-0.75
958.509	-0.75
959.238	-0.75
959.966	-1.75
960.695	1.25
961.423	2.25
962.151	0.25
962.88	1.25
963.608	3.25
964.336	-1.75
965.064	0.25
965.792	-2.75
966.52	0.25
967.247	-1.75
967.975	0.25
968.703	1.25
969.43	-0.75
970.158	2.25
970.885	1.25
971.613	1.25
972.34	-1.75
973.067	0.25
973.794	0.25
974.521	-2.75
975.248	0.25
975.975	-1.75
976.702	-0.75
977.429	-1.75
978.156	-0.75
978.882	0.25
979.609	2.25
980.335	1.25
981.062	0.25
981.788	1.25
982.514	2.25
983.24	-3.75
983.967	-2.75
984.693	0.25
985.419	1.25
986.144	1.25
986.87	0.25
987.596	0.25
988.322	-1.75
989.047	2.25
989.773	0.25
990.498	1.25
991.224	-0.75
991.949	2.25
992.674	0.25
993.399	0.25
994.124	1.25
994.849	0.25
995.574	0.25
996.299	-0.75
997.024	-1.75
997.749	-0.75
998.473	0.25
999.198	0.25
999.922	0.25
1000.647	-0.75
1001.371	3.25
1002.095	-0.75
1002.82	1.25
1003.544	-2.75
1004.268	0.25
1004.992	2.25
1005.716	1.25
1006.439	2.25
1007.163	1.25
1007.887	2.25
1008.611	-0.75
1009.334	-1.75
1010.058	-0.75
1010.781	1.25
1011.504	-0.75
1012.228	0.25
1012.951	-0.75
1013.674	0.25
1014.397	-0.75
1015.12	0.25
