节点500_425_QEPB04081__91__15-49-49-332.txt的数据

Date: Wed Nov 12 15:49:49 CST 2025
User: PC
Spectrometer: QEPB0408
触发模式: 0
积分时间 (秒): 1.000000E-2
Scans to average: 1
启用暗噪声校正: true
启用非线性校正: false
滑动平均宽度: 0
X轴模式: Wavelengths
Number of Pixels in Spectrum: 1044
>>>>>Begin Spectral Data<<<<<
220.843	3.75
221.644	1.75
222.444	2.75
223.244	4.75
224.045	3.75
224.845	4.75
225.645	3.75
226.445	5.75
227.245	5.75
228.045	4.75
228.845	5.75
229.645	4.75
230.444	6.75
231.244	8.75
232.043	8.75
232.843	5.75
233.642	5.75
234.442	5.75
235.241	5.75
236.04	7.75
236.839	7.75
237.638	7.75
238.437	8.75
239.236	5.75
240.035	7.75
240.833	6.75
241.632	9.75
242.43	5.75
243.229	7.75
244.027	6.75
244.826	8.75
245.624	9.75
246.422	7.75
247.22	7.75
248.018	9.75
248.816	8.75
249.614	13.75
250.412	11.75
251.21	9.75
252.007	10.75
252.805	13.75
253.602	10.75
254.4	11.75
255.197	15.75
255.994	13.75
256.791	11.75
257.589	10.75
258.386	14.75
259.183	14.75
259.979	12.75
260.776	16.75
261.573	15.75
262.37	14.75
263.166	16.75
263.963	17.75
264.759	16.75
265.556	18.75
266.352	19.75
267.148	20.75
267.944	22.75
268.74	21.75
269.536	22.75
270.332	22.75
271.128	21.75
271.924	22.75
272.719	24.75
273.515	25.75
274.311	22.75
275.106	24.75
275.901	24.75
276.697	25.75
277.492	27.75
278.287	25.75
279.082	28.75
279.877	27.75
280.672	25.75
281.467	26.75
282.262	23.75
283.056	24.75
283.851	28.75
284.646	30.75
285.44	28.75
286.234	27.75
287.029	22.75
287.823	26.75
288.617	23.75
289.411	24.75
290.205	26.75
290.999	27.75
291.793	25.75
292.587	23.75
293.381	25.75
294.174	23.75
294.968	22.75
295.761	21.75
296.555	20.75
297.348	20.75
298.141	21.75
298.935	22.75
299.728	18.75
300.521	19.75
301.314	19.75
302.107	21.75
302.899	15.75
303.692	16.75
304.485	14.75
305.277	17.75
306.07	16.75
306.862	15.75
307.655	16.75
308.447	17.75
309.239	14.75
310.031	15.75
310.823	13.75
311.615	14.75
312.407	11.75
313.199	15.75
313.991	11.75
314.783	12.75
315.574	13.75
316.366	11.75
317.157	10.75
317.949	13.75
318.74	10.75
319.531	12.75
320.322	9.75
321.113	10.75
321.904	9.75
322.695	10.75
323.486	10.75
324.277	6.75
325.068	7.75
325.858	10.75
326.649	9.75
327.439	9.75
328.23	10.75
329.02	9.75
329.81	8.75
330.6	10.75
331.391	8.75
332.181	11.75
332.971	10.75
333.76	8.75
334.55	10.75
335.34	9.75
336.13	10.75
336.919	10.75
337.709	11.75
338.498	7.75
339.287	8.75
340.077	8.75
340.866	6.75
341.655	8.75
342.444	7.75
343.233	7.75
344.022	7.75
344.811	7.75
345.6	5.75
346.388	5.75
347.177	10.75
347.965	10.75
348.754	7.75
349.542	7.75
350.33	6.75
351.119	7.75
351.907	7.75
352.695	8.75
353.483	8.75
354.271	4.75
355.059	8.75
355.846	7.75
356.634	8.75
357.422	7.75
358.209	6.75
358.997	6.75
359.784	6.75
360.571	6.75
361.359	7.75
362.146	5.75
362.933	5.75
363.72	7.75
364.507	6.75
365.294	7.75
366.081	4.75
366.867	8.75
367.654	7.75
368.44	6.75
369.227	6.75
370.013	8.75
370.8	7.75
371.586	6.75
372.372	7.75
373.158	7.75
373.944	8.75
374.73	6.75
375.516	6.75
376.302	8.75
377.088	6.75
377.873	6.75
378.659	6.75
379.445	6.75
380.23	7.75
381.015	6.75
381.801	8.75
382.586	9.75
383.371	8.75
384.156	8.75
384.941	8.75
385.726	7.75
386.511	6.75
387.296	8.75
388.08	8.75
388.865	9.75
389.649	7.75
390.434	8.75
391.218	7.75
392.003	8.75
392.787	10.75
393.571	9.75
394.355	10.75
395.139	7.75
395.923	8.75
396.707	8.75
397.491	7.75
398.274	10.75
399.058	11.75
399.842	11.75
400.625	7.75
401.408	11.75
402.192	11.75
402.975	10.75
403.758	10.75
404.541	12.75
405.324	11.75
406.107	13.75
406.89	9.75
407.673	12.75
408.456	9.75
409.238	11.75
410.021	12.75
410.803	9.75
411.586	12.75
412.368	12.75
413.151	12.75
413.933	15.75
414.715	12.75
415.497	13.75
416.279	14.75
417.061	13.75
417.843	13.75
418.624	14.75
419.406	12.75
420.188	13.75
420.969	13.75
421.751	16.75
422.532	16.75
423.313	17.75
424.095	17.75
424.876	17.75
425.657	17.75
426.438	16.75
427.219	15.75
428	21.75
428.78	23.75
429.561	18.75
430.342	18.75
431.122	22.75
431.903	20.75
432.683	24.75
433.464	22.75
434.244	23.75
435.024	23.75
435.804	21.75
436.584	24.75
437.364	29.75
438.144	30.75
438.924	30.75
439.704	29.75
440.483	33.75
441.263	31.75
442.042	38.75
442.822	39.75
443.601	40.75
444.38	46.75
445.16	49.75
445.939	51.75
446.718	55.75
447.497	61.75
448.276	62.75
449.054	70.75
449.833	73.75
450.612	82.75
451.391	90.75
452.169	97.75
452.948	103.75
453.726	115.75
454.504	129.75
455.282	143.75
456.061	158.75
456.839	172.75
457.617	195.75
458.395	220.75
459.172	239.75
459.95	274.75
460.728	305.75
461.506	331.75
462.283	382.75
463.061	422.75
463.838	465.75
464.615	530.75
465.393	592.75
466.17	652.75
466.947	730.75
467.724	819.75
468.501	916.75
469.278	1012.75
470.055	1128.75
470.831	1268.75
471.608	1406.75
472.385	1580.75
473.161	1736.75
473.938	1922.75
474.714	2108.75
475.49	2364.75
476.266	2608.75
477.043	2898.75
477.819	3204.75
478.595	3542.75
479.371	3910.75
480.146	4290.75
480.922	4732.75
481.698	5238.75
482.473	5784.75
483.249	6330.75
484.024	6972.75
484.8	7662.75
485.575	8432.75
486.35	9241.75
487.126	10108.75
487.901	11027.75
488.676	12074.75
489.451	13206.75
490.225	14372.75
491	15625.75
491.775	16991.75
492.55	18329.75
493.324	19795.75
494.099	21264.75
494.873	22742.75
495.647	24254.75
496.422	25760.75
497.196	27342.75
497.97	28992.75
498.744	30493.75
499.518	31856.75
500.292	33014.75
501.066	34144.75
501.839	35252.75
502.613	36077.75
503.387	36661.75
504.16	37026.75
504.934	37088.75
505.707	36974.75
506.48	36692.75
507.253	36221.75
508.027	35650.75
508.8	34828.75
509.573	33912.75
510.346	32863.75
511.118	31877.75
511.891	30643.75
512.664	29447.75
513.437	28246.75
514.209	26985.75
514.982	26010.75
515.754	24812.75
516.526	23645.75
517.298	22667.75
518.071	21719.75
518.843	20837.75
519.615	19933.75
520.387	19100.75
521.159	18444.75
521.93	17757.75
522.702	17034.75
523.474	16389.75
524.245	15702.75
525.017	14938.75
525.788	14236.75
526.56	13565.75
527.331	12937.75
528.102	12333.75
528.873	11716.75
529.644	11116.75
530.415	10606.75
531.186	10078.75
531.957	9466.75
532.728	8973.75
533.498	8483.75
534.269	8028.75
535.039	7570.75
535.81	7141.75
536.58	6725.75
537.351	6345.75
538.121	5992.75
538.891	5719.75
539.661	5385.75
540.431	5123.75
541.201	4827.75
541.971	4586.75
542.741	4345.75
543.51	4146.75
544.28	3934.75
545.05	3751.75
545.819	3575.75
546.588	3382.75
547.358	3210.75
548.127	3024.75
548.896	2871.75
549.665	2733.75
550.434	2589.75
551.203	2438.75
551.972	2308.75
552.741	2213.75
553.51	2084.75
554.278	1955.75
555.047	1840.75
555.815	1733.75
556.584	1630.75
557.352	1536.75
558.121	1450.75
558.889	1357.75
559.657	1309.75
560.425	1215.75
561.193	1153.75
561.961	1105.75
562.729	1041.75
563.496	978.75
564.264	921.75
565.032	872.75
565.799	833.75
566.567	778.75
567.334	745.75
568.101	700.75
568.869	657.75
569.636	617.75
570.403	580.75
571.17	558.75
571.937	512.75
572.704	488.75
573.471	473.75
574.237	434.75
575.004	410.75
575.771	385.75
576.537	364.75
577.303	338.75
578.07	328.75
578.836	303.75
579.602	290.75
580.368	274.75
581.134	265.75
581.9	244.75
582.666	239.75
583.432	227.75
584.198	213.75
584.964	204.75
585.729	196.75
586.495	180.75
587.26	170.75
588.025	166.75
588.791	154.75
589.556	149.75
590.321	138.75
591.086	131.75
591.851	121.75
592.616	126.75
593.381	113.75
594.146	102.75
594.911	99.75
595.675	97.75
596.44	98.75
597.204	86.75
597.969	90.75
598.733	84.75
599.497	77.75
600.261	74.75
601.025	71.75
601.79	68.75
602.553	67.75
603.317	63.75
604.081	62.75
604.845	60.75
605.609	55.75
606.372	56.75
607.136	49.75
607.899	51.75
608.662	45.75
609.426	45.75
610.189	44.75
610.952	41.75
611.715	43.75
612.478	38.75
613.241	40.75
614.004	35.75
614.767	34.75
615.529	34.75
616.292	33.75
617.055	33.75
617.817	31.75
618.579	29.75
619.342	29.75
620.104	31.75
620.866	28.75
621.628	28.75
622.39	25.75
623.152	23.75
623.914	23.75
624.676	23.75
625.438	25.75
626.199	23.75
626.961	18.75
627.722	20.75
628.484	18.75
629.245	17.75
630.006	19.75
630.768	16.75
631.529	19.75
632.29	18.75
633.051	17.75
633.812	15.75
634.573	16.75
635.333	15.75
636.094	15.75
636.855	15.75
637.615	15.75
638.376	12.75
639.136	14.75
639.896	12.75
640.657	12.75
641.417	12.75
642.177	12.75
642.937	10.75
643.697	13.75
644.457	10.75
645.216	11.75
645.976	12.75
646.736	9.75
647.495	11.75
648.255	12.75
649.014	8.75
649.774	10.75
650.533	8.75
651.292	10.75
652.051	10.75
652.81	8.75
653.569	8.75
654.328	8.75
655.087	10.75
655.846	8.75
656.604	7.75
657.363	11.75
658.121	8.75
658.88	8.75
659.638	8.75
660.397	6.75
661.155	7.75
661.913	5.75
662.671	6.75
663.429	5.75
664.187	8.75
664.945	8.75
665.703	8.75
666.46	5.75
667.218	4.75
667.976	8.75
668.733	6.75
669.49	8.75
670.248	6.75
671.005	4.75
671.762	6.75
672.519	8.75
673.276	4.75
674.033	5.75
674.79	6.75
675.547	6.75
676.304	4.75
677.06	5.75
677.817	6.75
678.574	6.75
679.33	5.75
680.086	6.75
680.843	5.75
681.599	3.75
682.355	7.75
683.111	6.75
683.867	4.75
684.623	4.75
685.379	4.75
686.135	6.75
686.89	3.75
687.646	4.75
688.402	5.75
689.157	5.75
689.912	6.75
690.668	7.75
691.423	4.75
692.178	3.75
692.933	4.75
693.688	3.75
694.443	5.75
695.198	3.75
695.953	3.75
696.708	4.75
697.462	8.75
698.217	5.75
698.972	6.75
699.726	7.75
700.48	4.75
701.235	5.75
701.989	4.75
702.743	5.75
703.497	3.75
704.251	2.75
705.005	3.75
705.759	3.75
706.513	6.75
707.266	4.75
708.02	4.75
708.774	6.75
709.527	7.75
710.28	2.75
711.034	5.75
711.787	6.75
712.54	3.75
713.293	5.75
714.046	4.75
714.799	5.75
715.552	6.75
716.305	6.75
717.058	4.75
717.81	7.75
718.563	6.75
719.315	3.75
720.068	6.75
720.82	3.75
721.573	5.75
722.325	2.75
723.077	4.75
723.829	8.75
724.581	5.75
725.333	3.75
726.085	3.75
726.836	2.75
727.588	5.75
728.34	4.75
729.091	6.75
729.843	5.75
730.594	6.75
731.346	8.75
732.097	4.75
732.848	7.75
733.599	4.75
734.35	6.75
735.101	7.75
735.852	8.75
736.603	7.75
737.354	4.75
738.104	6.75
738.855	7.75
739.605	7.75
740.356	7.75
741.106	4.75
741.856	7.75
742.607	4.75
743.357	8.75
744.107	6.75
744.857	6.75
745.607	10.75
746.357	7.75
747.106	8.75
747.856	6.75
748.606	7.75
749.355	8.75
750.105	7.75
750.854	8.75
751.603	6.75
752.353	8.75
753.102	6.75
753.851	8.75
754.6	7.75
755.349	10.75
756.098	7.75
756.847	4.75
757.595	7.75
758.344	9.75
759.093	8.75
759.841	9.75
760.589	8.75
761.338	6.75
762.086	11.75
762.834	8.75
763.582	7.75
764.331	8.75
765.079	8.75
765.826	9.75
766.574	10.75
767.322	10.75
768.07	9.75
768.817	10.75
769.565	9.75
770.312	10.75
771.06	11.75
771.807	9.75
772.554	8.75
773.302	13.75
774.049	13.75
774.796	9.75
775.543	12.75
776.29	11.75
777.036	13.75
777.783	10.75
778.53	10.75
779.276	14.75
780.023	10.75
780.769	10.75
781.516	14.75
782.262	10.75
783.008	11.75
783.754	12.75
784.5	12.75
785.246	12.75
785.992	12.75
786.738	12.75
787.484	11.75
788.23	12.75
788.975	11.75
789.721	12.75
790.466	12.75
791.212	12.75
791.957	12.75
792.702	11.75
793.447	10.75
794.193	10.75
794.938	12.75
795.683	8.75
796.427	9.75
797.172	9.75
797.917	8.75
798.662	6.75
799.406	8.75
800.151	9.75
800.895	9.75
801.64	8.75
802.384	10.75
803.128	7.75
803.872	9.75
804.616	8.75
805.36	7.75
806.104	9.75
806.848	9.75
807.592	9.75
808.336	9.75
809.079	7.75
809.823	7.75
810.566	7.75
811.31	6.75
812.053	8.75
812.796	9.75
813.539	8.75
814.283	7.75
815.026	6.75
815.769	5.75
816.511	8.75
817.254	6.75
817.997	6.75
818.74	5.75
819.482	6.75
820.225	6.75
820.967	5.75
821.71	5.75
822.452	7.75
823.194	5.75
823.936	6.75
824.678	5.75
825.42	5.75
826.162	5.75
826.904	6.75
827.646	4.75
828.388	5.75
829.129	6.75
829.871	5.75
830.612	4.75
831.354	7.75
832.095	5.75
832.836	6.75
833.577	2.75
834.319	3.75
835.06	6.75
835.801	3.75
836.542	5.75
837.282	4.75
838.023	4.75
838.764	5.75
839.504	4.75
840.245	3.75
840.985	3.75
841.726	6.75
842.466	2.75
843.206	3.75
843.946	5.75
844.687	2.75
845.427	2.75
846.166	2.75
846.906	4.75
847.646	2.75
848.386	2.75
849.125	4.75
849.865	2.75
850.605	4.75
851.344	0.75
852.083	4.75
852.823	2.75
853.562	4.75
854.301	2.75
855.04	0.75
855.779	4.75
856.518	2.75
857.257	2.75
857.995	1.75
858.734	3.75
859.473	1.75
860.211	3.75
860.95	6.75
861.688	2.75
862.426	2.75
863.165	2.75
863.903	0.75
864.641	2.75
865.379	1.75
866.117	1.75
866.855	0.75
867.593	1.75
868.33	3.75
869.068	2.75
869.806	2.75
870.543	3.75
871.28	2.75
872.018	2.75
872.755	0.75
873.492	2.75
874.229	0.75
874.967	1.75
875.703	1.75
876.44	1.75
877.177	2.75
877.914	-0.25
878.651	2.75
879.387	2.75
880.124	1.75
880.86	0.75
881.597	2.75
882.333	4.75
883.069	0.75
883.806	2.75
884.542	1.75
885.278	0.75
886.014	0.75
886.749	-0.25
887.485	0.75
888.221	0.75
888.957	2.75
889.692	1.75
890.428	0.75
891.163	1.75
891.899	0.75
892.634	1.75
893.369	2.75
894.104	2.75
894.839	2.75
895.574	-1.25
896.309	2.75
897.044	1.75
897.779	1.75
898.514	2.75
899.248	1.75
899.983	1.75
900.717	-1.25
901.452	-1.25
902.186	0.75
902.92	-1.25
903.654	2.75
904.389	0.75
905.123	0.75
905.857	0.75
906.59	2.75
907.324	1.75
908.058	0.75
908.792	1.75
909.525	-0.25
910.259	1.75
910.992	2.75
911.726	0.75
912.459	0.75
913.192	2.75
913.925	0.75
914.658	0.75
915.391	0.75
916.124	-0.25
916.857	-0.25
917.59	-0.25
918.323	2.75
919.055	0.75
919.788	1.75
920.521	0.75
921.253	1.75
921.985	-1.25
922.718	0.75
923.45	-0.25
924.182	1.75
924.914	0.75
925.646	-1.25
926.378	2.75
927.11	-1.25
927.841	0.75
928.573	-0.25
929.305	-1.25
930.036	1.75
930.768	0.75
931.499	-0.25
932.23	0.75
932.962	3.75
933.693	1.75
934.424	0.75
935.155	0.75
935.886	0.75
936.617	-0.25
937.348	-0.25
938.078	2.75
938.809	1.75
939.54	0.75
940.27	0.75
941.001	-0.25
941.731	1.75
942.461	0.75
943.191	1.75
943.922	0.75
944.652	1.75
945.382	0.75
946.112	-0.25
946.841	-1.25
947.571	-1.25
948.301	0.75
949.031	1.75
949.76	-0.25
950.49	2.75
951.219	0.75
951.948	1.75
952.678	-0.25
953.407	-1.25
954.136	0.75
954.865	-0.25
955.594	0.75
956.323	-0.25
957.052	0.75
957.78	0.75
958.509	-1.25
959.238	2.75
959.966	1.75
960.695	0.75
961.423	-1.25
962.151	0.75
962.88	0.75
963.608	-0.25
964.336	0.75
965.064	-0.25
965.792	-0.25
966.52	-0.25
967.247	0.75
967.975	2.75
968.703	-1.25
969.43	1.75
970.158	0.75
970.885	-0.25
971.613	2.75
972.34	0.75
973.067	0.75
973.794	1.75
974.521	0.75
975.248	-1.25
975.975	1.75
976.702	2.75
977.429	-1.25
978.156	0.75
978.882	-0.25
979.609	-1.25
980.335	-0.25
981.062	0.75
981.788	1.75
982.514	1.75
983.24	-0.25
983.967	0.75
984.693	-0.25
985.419	3.75
986.144	-1.25
986.87	1.75
987.596	0.75
988.322	0.75
989.047	2.75
989.773	1.75
990.498	0.75
991.224	-0.25
991.949	1.75
992.674	2.75
993.399	1.75
994.124	2.75
994.849	-0.25
995.574	0.75
996.299	0.75
997.024	0.75
997.749	0.75
998.473	0.75
999.198	0.75
999.922	0.75
1000.647	-0.25
1001.371	3.75
1002.095	-1.25
1002.82	0.75
1003.544	-0.25
1004.268	2.75
1004.992	3.75
1005.716	4.75
1006.439	4.75
1007.163	2.75
1007.887	4.75
1008.611	1.75
1009.334	-0.25
1010.058	2.75
1010.781	0.75
1011.504	2.75
1012.228	1.75
1012.951	0.75
1013.674	-1.25
1014.397	-2.25
1015.12	-0.25
