节点500_425_QEPB04081__390__15-54-47-731.txt的数据

Date: Wed Nov 12 15:54:47 CST 2025
User: PC
Spectrometer: QEPB0408
触发模式: 0
积分时间 (秒): 1.000000E-2
Scans to average: 1
启用暗噪声校正: true
启用非线性校正: false
滑动平均宽度: 0
X轴模式: Wavelengths
Number of Pixels in Spectrum: 1044
>>>>>Begin Spectral Data<<<<<
220.843	0.12
221.644	4.12
222.444	3.12
223.244	5.12
224.045	4.12
224.845	4.12
225.645	2.12
226.445	2.12
227.245	4.12
228.045	5.12
228.845	2.12
229.645	5.12
230.444	4.12
231.244	6.12
232.043	6.12
232.843	6.12
233.642	3.12
234.442	4.12
235.241	2.12
236.04	4.12
236.839	7.12
237.638	7.12
238.437	7.12
239.236	6.12
240.035	6.12
240.833	6.12
241.632	7.12
242.43	5.12
243.229	5.12
244.027	9.12
244.826	7.12
245.624	8.12
246.422	6.12
247.22	9.12
248.018	7.12
248.816	8.12
249.614	10.12
250.412	9.12
251.21	10.12
252.007	9.12
252.805	12.12
253.602	11.12
254.4	9.12
255.197	13.12
255.994	11.12
256.791	13.12
257.589	12.12
258.386	9.12
259.183	14.12
259.979	14.12
260.776	14.12
261.573	14.12
262.37	16.12
263.166	15.12
263.963	17.12
264.759	17.12
265.556	17.12
266.352	19.12
267.148	19.12
267.944	17.12
268.74	19.12
269.536	18.12
270.332	21.12
271.128	20.12
271.924	24.12
272.719	20.12
273.515	22.12
274.311	21.12
275.106	21.12
275.901	20.12
276.697	23.12
277.492	23.12
278.287	26.12
279.082	22.12
279.877	23.12
280.672	24.12
281.467	21.12
282.262	23.12
283.056	24.12
283.851	23.12
284.646	24.12
285.44	22.12
286.234	25.12
287.029	26.12
287.823	23.12
288.617	21.12
289.411	24.12
290.205	22.12
290.999	22.12
291.793	23.12
292.587	22.12
293.381	22.12
294.174	20.12
294.968	22.12
295.761	20.12
296.555	20.12
297.348	21.12
298.141	20.12
298.935	22.12
299.728	16.12
300.521	18.12
301.314	19.12
302.107	16.12
302.899	16.12
303.692	14.12
304.485	16.12
305.277	17.12
306.07	17.12
306.862	16.12
307.655	18.12
308.447	14.12
309.239	13.12
310.031	16.12
310.823	13.12
311.615	16.12
312.407	13.12
313.199	10.12
313.991	11.12
314.783	12.12
315.574	13.12
316.366	15.12
317.157	11.12
317.949	8.12
318.74	8.12
319.531	10.12
320.322	10.12
321.113	10.12
321.904	9.12
322.695	10.12
323.486	8.12
324.277	7.12
325.068	8.12
325.858	9.12
326.649	8.12
327.439	10.12
328.23	8.12
329.02	9.12
329.81	8.12
330.6	9.12
331.391	7.12
332.181	8.12
332.971	6.12
333.76	7.12
334.55	10.12
335.34	6.12
336.13	4.12
336.919	10.12
337.709	8.12
338.498	7.12
339.287	7.12
340.077	7.12
340.866	8.12
341.655	8.12
342.444	8.12
343.233	9.12
344.022	10.12
344.811	9.12
345.6	8.12
346.388	8.12
347.177	6.12
347.965	7.12
348.754	8.12
349.542	8.12
350.33	7.12
351.119	9.12
351.907	6.12
352.695	5.12
353.483	8.12
354.271	9.12
355.059	7.12
355.846	7.12
356.634	5.12
357.422	8.12
358.209	6.12
358.997	8.12
359.784	7.12
360.571	6.12
361.359	9.12
362.146	7.12
362.933	7.12
363.72	8.12
364.507	6.12
365.294	7.12
366.081	7.12
366.867	9.12
367.654	6.12
368.44	4.12
369.227	4.12
370.013	8.12
370.8	8.12
371.586	7.12
372.372	7.12
373.158	6.12
373.944	7.12
374.73	7.12
375.516	6.12
376.302	5.12
377.088	5.12
377.873	6.12
378.659	7.12
379.445	5.12
380.23	7.12
381.015	5.12
381.801	7.12
382.586	7.12
383.371	8.12
384.156	8.12
384.941	6.12
385.726	7.12
386.511	5.12
387.296	6.12
388.08	8.12
388.865	7.12
389.649	8.12
390.434	8.12
391.218	9.12
392.003	9.12
392.787	8.12
393.571	10.12
394.355	9.12
395.139	8.12
395.923	9.12
396.707	7.12
397.491	6.12
398.274	9.12
399.058	8.12
399.842	7.12
400.625	10.12
401.408	7.12
402.192	6.12
402.975	9.12
403.758	9.12
404.541	8.12
405.324	9.12
406.107	11.12
406.89	9.12
407.673	11.12
408.456	10.12
409.238	10.12
410.021	13.12
410.803	12.12
411.586	9.12
412.368	14.12
413.151	9.12
413.933	11.12
414.715	11.12
415.497	12.12
416.279	12.12
417.061	12.12
417.843	10.12
418.624	15.12
419.406	14.12
420.188	14.12
420.969	13.12
421.751	16.12
422.532	13.12
423.313	17.12
424.095	15.12
424.876	16.12
425.657	15.12
426.438	17.12
427.219	18.12
428	15.12
428.78	19.12
429.561	19.12
430.342	17.12
431.122	20.12
431.903	19.12
432.683	21.12
433.464	20.12
434.244	24.12
435.024	23.12
435.804	24.12
436.584	23.12
437.364	25.12
438.144	28.12
438.924	30.12
439.704	32.12
440.483	34.12
441.263	36.12
442.042	36.12
442.822	41.12
443.601	44.12
444.38	48.12
445.16	48.12
445.939	54.12
446.718	53.12
447.497	65.12
448.276	65.12
449.054	73.12
449.833	81.12
450.612	91.12
451.391	96.12
452.169	105.12
452.948	117.12
453.726	130.12
454.504	144.12
455.282	154.12
456.061	174.12
456.839	188.12
457.617	215.12
458.395	234.12
459.172	263.12
459.95	292.12
460.728	331.12
461.506	367.12
462.283	409.12
463.061	461.12
463.838	508.12
464.615	561.12
465.393	635.12
466.17	700.12
466.947	798.12
467.724	876.12
468.501	971.12
469.278	1062.12
470.055	1176.12
470.831	1305.12
471.608	1453.12
472.385	1622.12
473.161	1775.12
473.938	1954.12
474.714	2156.12
475.49	2377.12
476.266	2618.12
477.043	2867.12
477.819	3122.12
478.595	3461.12
479.371	3793.12
480.146	4153.12
480.922	4578.12
481.698	4962.12
482.473	5446.12
483.249	5964.12
484.024	6529.12
484.8	7126.12
485.575	7751.12
486.35	8448.12
487.126	9156.12
487.901	9973.12
488.676	10865.12
489.451	11818.12
490.225	12781.12
491	13780.12
491.775	14972.12
492.55	16138.12
493.324	17378.12
494.099	18601.12
494.873	19826.12
495.647	21179.12
496.422	22548.12
497.196	23881.12
497.97	25415.12
498.744	26731.12
499.518	28006.12
500.292	29204.12
501.066	30285.12
501.839	31543.12
502.613	32395.12
503.387	33139.12
504.16	33696.12
504.934	34145.12
505.707	34327.12
506.48	34296.12
507.253	34121.12
508.027	33881.12
508.8	33474.12
509.573	32907.12
510.346	32120.12
511.118	31182.12
511.891	30313.12
512.664	29240.12
513.437	28180.12
514.209	27116.12
514.982	26151.12
515.754	25082.12
516.526	24029.12
517.298	23088.12
518.071	22103.12
518.843	21189.12
519.615	20344.12
520.387	19498.12
521.159	18760.12
521.93	18088.12
522.702	17336.12
523.474	16668.12
524.245	16041.12
525.017	15283.12
525.788	14540.12
526.56	13982.12
527.331	13348.12
528.102	12735.12
528.873	12129.12
529.644	11586.12
530.415	11041.12
531.186	10546.12
531.957	9985.12
532.728	9461.12
533.498	8947.12
534.269	8430.12
535.039	7998.12
535.81	7589.12
536.58	7179.12
537.351	6775.12
538.121	6391.12
538.891	6059.12
539.661	5731.12
540.431	5440.12
541.201	5130.12
541.971	4888.12
542.741	4628.12
543.51	4396.12
544.28	4142.12
545.05	3972.12
545.819	3798.12
546.588	3585.12
547.358	3401.12
548.127	3215.12
548.896	3070.12
549.665	2898.12
550.434	2776.12
551.203	2626.12
551.972	2480.12
552.741	2368.12
553.51	2230.12
554.278	2118.12
555.047	1971.12
555.815	1877.12
556.584	1758.12
557.352	1672.12
558.121	1571.12
558.889	1500.12
559.657	1408.12
560.425	1338.12
561.193	1255.12
561.961	1191.12
562.729	1131.12
563.496	1072.12
564.264	1000.12
565.032	954.12
565.799	893.12
566.567	850.12
567.334	807.12
568.101	762.12
568.869	728.12
569.636	673.12
570.403	637.12
571.17	606.12
571.937	566.12
572.704	546.12
573.471	509.12
574.237	484.12
575.004	450.12
575.771	430.12
576.537	403.12
577.303	379.12
578.07	360.12
578.836	329.12
579.602	313.12
580.368	304.12
581.134	286.12
581.9	266.12
582.666	260.12
583.432	243.12
584.198	225.12
584.964	218.12
585.729	203.12
586.495	195.12
587.26	190.12
588.025	175.12
588.791	172.12
589.556	164.12
590.321	147.12
591.086	142.12
591.851	135.12
592.616	131.12
593.381	126.12
594.146	112.12
594.911	110.12
595.675	107.12
596.44	99.12
597.204	98.12
597.969	92.12
598.733	88.12
599.497	84.12
600.261	78.12
601.025	78.12
601.79	75.12
602.553	70.12
603.317	67.12
604.081	65.12
604.845	59.12
605.609	62.12
606.372	57.12
607.136	54.12
607.899	55.12
608.662	48.12
609.426	49.12
610.189	45.12
610.952	44.12
611.715	46.12
612.478	42.12
613.241	38.12
614.004	41.12
614.767	38.12
615.529	34.12
616.292	35.12
617.055	32.12
617.817	30.12
618.579	30.12
619.342	30.12
620.104	27.12
620.866	27.12
621.628	30.12
622.39	28.12
623.152	27.12
623.914	26.12
624.676	25.12
625.438	25.12
626.199	24.12
626.961	23.12
627.722	21.12
628.484	19.12
629.245	19.12
630.006	18.12
630.768	18.12
631.529	17.12
632.29	18.12
633.051	18.12
633.812	20.12
634.573	18.12
635.333	16.12
636.094	18.12
636.855	14.12
637.615	15.12
638.376	15.12
639.136	14.12
639.896	15.12
640.657	12.12
641.417	14.12
642.177	14.12
642.937	12.12
643.697	10.12
644.457	10.12
645.216	13.12
645.976	10.12
646.736	10.12
647.495	8.12
648.255	9.12
649.014	12.12
649.774	11.12
650.533	10.12
651.292	8.12
652.051	9.12
652.81	10.12
653.569	8.12
654.328	10.12
655.087	9.12
655.846	7.12
656.604	10.12
657.363	9.12
658.121	10.12
658.88	8.12
659.638	7.12
660.397	7.12
661.155	8.12
661.913	9.12
662.671	4.12
663.429	5.12
664.187	8.12
664.945	7.12
665.703	7.12
666.46	6.12
667.218	5.12
667.976	6.12
668.733	5.12
669.49	5.12
670.248	5.12
671.005	9.12
671.762	5.12
672.519	6.12
673.276	6.12
674.033	5.12
674.79	5.12
675.547	6.12
676.304	6.12
677.06	5.12
677.817	7.12
678.574	5.12
679.33	6.12
680.086	7.12
680.843	6.12
681.599	6.12
682.355	4.12
683.111	6.12
683.867	6.12
684.623	4.12
685.379	4.12
686.135	5.12
686.89	4.12
687.646	6.12
688.402	7.12
689.157	5.12
689.912	4.12
690.668	6.12
691.423	1.12
692.178	5.12
692.933	4.12
693.688	3.12
694.443	4.12
695.198	6.12
695.953	5.12
696.708	7.12
697.462	6.12
698.217	4.12
698.972	2.12
699.726	6.12
700.48	4.12
701.235	4.12
701.989	4.12
702.743	3.12
703.497	6.12
704.251	4.12
705.005	6.12
705.759	8.12
706.513	2.12
707.266	5.12
708.02	5.12
708.774	7.12
709.527	5.12
710.28	6.12
711.034	3.12
711.787	5.12
712.54	5.12
713.293	4.12
714.046	2.12
714.799	5.12
715.552	6.12
716.305	6.12
717.058	7.12
717.81	4.12
718.563	5.12
719.315	3.12
720.068	2.12
720.82	3.12
721.573	4.12
722.325	7.12
723.077	4.12
723.829	7.12
724.581	5.12
725.333	7.12
726.085	6.12
726.836	6.12
727.588	4.12
728.34	5.12
729.091	7.12
729.843	6.12
730.594	5.12
731.346	3.12
732.097	6.12
732.848	3.12
733.599	5.12
734.35	7.12
735.101	4.12
735.852	8.12
736.603	3.12
737.354	6.12
738.104	4.12
738.855	7.12
739.605	4.12
740.356	7.12
741.106	8.12
741.856	11.12
742.607	6.12
743.357	4.12
744.107	5.12
744.857	7.12
745.607	7.12
746.357	7.12
747.106	8.12
747.856	7.12
748.606	6.12
749.355	4.12
750.105	8.12
750.854	7.12
751.603	7.12
752.353	7.12
753.102	4.12
753.851	8.12
754.6	7.12
755.349	6.12
756.098	8.12
756.847	7.12
757.595	8.12
758.344	7.12
759.093	8.12
759.841	9.12
760.589	8.12
761.338	7.12
762.086	7.12
762.834	9.12
763.582	9.12
764.331	8.12
765.079	9.12
765.826	7.12
766.574	7.12
767.322	8.12
768.07	9.12
768.817	11.12
769.565	10.12
770.312	10.12
771.06	10.12
771.807	10.12
772.554	8.12
773.302	9.12
774.049	9.12
774.796	10.12
775.543	11.12
776.29	9.12
777.036	10.12
777.783	12.12
778.53	10.12
779.276	9.12
780.023	12.12
780.769	9.12
781.516	10.12
782.262	13.12
783.008	10.12
783.754	11.12
784.5	10.12
785.246	12.12
785.992	8.12
786.738	10.12
787.484	13.12
788.23	9.12
788.975	11.12
789.721	13.12
790.466	9.12
791.212	8.12
791.957	10.12
792.702	11.12
793.447	10.12
794.193	11.12
794.938	11.12
795.683	10.12
796.427	11.12
797.172	10.12
797.917	11.12
798.662	11.12
799.406	7.12
800.151	11.12
800.895	10.12
801.64	9.12
802.384	11.12
803.128	10.12
803.872	8.12
804.616	7.12
805.36	8.12
806.104	7.12
806.848	7.12
807.592	6.12
808.336	7.12
809.079	7.12
809.823	8.12
810.566	9.12
811.31	8.12
812.053	5.12
812.796	6.12
813.539	7.12
814.283	8.12
815.026	7.12
815.769	6.12
816.511	6.12
817.254	5.12
817.997	8.12
818.74	6.12
819.482	7.12
820.225	5.12
820.967	4.12
821.71	7.12
822.452	4.12
823.194	2.12
823.936	5.12
824.678	5.12
825.42	6.12
826.162	3.12
826.904	6.12
827.646	7.12
828.388	5.12
829.129	6.12
829.871	5.12
830.612	7.12
831.354	4.12
832.095	5.12
832.836	5.12
833.577	4.12
834.319	4.12
835.06	2.12
835.801	6.12
836.542	3.12
837.282	5.12
838.023	5.12
838.764	2.12
839.504	3.12
840.245	4.12
840.985	4.12
841.726	5.12
842.466	4.12
843.206	3.12
843.946	2.12
844.687	5.12
845.427	1.12
846.166	2.12
846.906	3.12
847.646	4.12
848.386	5.12
849.125	2.12
849.865	2.12
850.605	2.12
851.344	5.12
852.083	4.12
852.823	3.12
853.562	6.12
854.301	2.12
855.04	4.12
855.779	3.12
856.518	2.12
857.257	3.12
857.995	1.12
858.734	2.12
859.473	5.12
860.211	5.12
860.95	2.12
861.688	0.12
862.426	5.12
863.165	2.12
863.903	2.12
864.641	3.12
865.379	1.12
866.117	2.12
866.855	2.12
867.593	2.12
868.33	1.12
869.068	1.12
869.806	2.12
870.543	0.12
871.28	0.12
872.018	-2.88
872.755	4.12
873.492	4.12
874.229	2.12
874.967	-0.88
875.703	1.12
876.44	2.12
877.177	0.12
877.914	2.12
878.651	2.12
879.387	1.12
880.124	2.12
880.86	0.12
881.597	1.12
882.333	1.12
883.069	0.12
883.806	0.12
884.542	-0.88
885.278	1.12
886.014	1.12
886.749	2.12
887.485	0.12
888.221	2.12
888.957	1.12
889.692	-1.88
890.428	1.12
891.163	1.12
891.899	2.12
892.634	2.12
893.369	-0.88
894.104	-1.88
894.839	-1.88
895.574	3.12
896.309	2.12
897.044	0.12
897.779	2.12
898.514	-0.88
899.248	-0.88
899.983	0.12
900.717	0.12
901.452	1.12
902.186	0.12
902.92	0.12
903.654	0.12
904.389	0.12
905.123	2.12
905.857	0.12
906.59	2.12
907.324	-1.88
908.058	0.12
908.792	0.12
909.525	-1.88
910.259	2.12
910.992	2.12
911.726	0.12
912.459	-1.88
913.192	-0.88
913.925	1.12
914.658	-0.88
915.391	0.12
916.124	1.12
916.857	2.12
917.59	-0.88
918.323	-1.88
919.055	0.12
919.788	2.12
920.521	0.12
921.253	2.12
921.985	0.12
922.718	2.12
923.45	-1.88
924.182	2.12
924.914	-0.88
925.646	1.12
926.378	0.12
927.11	1.12
927.841	0.12
928.573	1.12
929.305	0.12
930.036	0.12
930.768	0.12
931.499	-0.88
932.23	-0.88
932.962	-0.88
933.693	0.12
934.424	-0.88
935.155	0.12
935.886	0.12
936.617	0.12
937.348	0.12
938.078	1.12
938.809	1.12
939.54	2.12
940.27	1.12
941.001	-2.88
941.731	3.12
942.461	-1.88
943.191	2.12
943.922	0.12
944.652	0.12
945.382	1.12
946.112	0.12
946.841	1.12
947.571	0.12
948.301	2.12
949.031	1.12
949.76	1.12
950.49	0.12
951.219	0.12
951.948	2.12
952.678	-1.88
953.407	0.12
954.136	0.12
954.865	-0.88
955.594	0.12
956.323	0.12
957.052	-0.88
957.78	-1.88
958.509	0.12
959.238	1.12
959.966	-0.88
960.695	-0.88
961.423	1.12
962.151	2.12
962.88	2.12
963.608	0.12
964.336	1.12
965.064	-0.88
965.792	0.12
966.52	1.12
967.247	1.12
967.975	1.12
968.703	0.12
969.43	-0.88
970.158	0.12
970.885	1.12
971.613	2.12
972.34	-0.88
973.067	1.12
973.794	0.12
974.521	0.12
975.248	0.12
975.975	0.12
976.702	-1.88
977.429	0.12
978.156	1.12
978.882	-0.88
979.609	-0.88
980.335	-0.88
981.062	0.12
981.788	2.12
982.514	0.12
983.24	0.12
983.967	0.12
984.693	-1.88
985.419	0.12
986.144	0.12
986.87	-0.88
987.596	0.12
988.322	1.12
989.047	-0.88
989.773	0.12
990.498	0.12
991.224	-1.88
991.949	2.12
992.674	2.12
993.399	1.12
994.124	0.12
994.849	-0.88
995.574	-1.88
996.299	0.12
997.024	1.12
997.749	0.12
998.473	1.12
999.198	0.12
999.922	0.12
1000.647	1.12
1001.371	4.12
1002.095	-0.88
1002.82	-1.88
1003.544	-0.88
1004.268	1.12
1004.992	1.12
1005.716	0.12
1006.439	4.12
1007.163	3.12
1007.887	2.12
1008.611	2.12
1009.334	1.12
1010.058	-0.88
1010.781	-0.88
1011.504	2.12
1012.228	1.12
1012.951	0.12
1013.674	0.12
1014.397	-1.88
1015.12	1.12
