节点500_425_QEPB04081__398__15-54-55-722.txt的数据

Date: Wed Nov 12 15:54:55 CST 2025
User: PC
Spectrometer: QEPB0408
触发模式: 0
积分时间 (秒): 1.000000E-2
Scans to average: 1
启用暗噪声校正: true
启用非线性校正: false
滑动平均宽度: 0
X轴模式: Wavelengths
Number of Pixels in Spectrum: 1044
>>>>>Begin Spectral Data<<<<<
220.843	4.88
221.644	1.88
222.444	4.88
223.244	4.88
224.045	2.88
224.845	5.88
225.645	4.88
226.445	4.88
227.245	3.88
228.045	2.88
228.845	4.88
229.645	5.88
230.444	5.88
231.244	2.88
232.043	7.88
232.843	5.88
233.642	4.88
234.442	4.88
235.241	5.88
236.04	4.88
236.839	9.88
237.638	7.88
238.437	6.88
239.236	6.88
240.035	6.88
240.833	7.88
241.632	6.88
242.43	8.88
243.229	7.88
244.027	6.88
244.826	5.88
245.624	9.88
246.422	9.88
247.22	6.88
248.018	9.88
248.816	5.88
249.614	9.88
250.412	9.88
251.21	8.88
252.007	10.88
252.805	10.88
253.602	10.88
254.4	9.88
255.197	10.88
255.994	10.88
256.791	8.88
257.589	12.88
258.386	12.88
259.183	14.88
259.979	12.88
260.776	14.88
261.573	14.88
262.37	14.88
263.166	16.88
263.963	17.88
264.759	15.88
265.556	14.88
266.352	18.88
267.148	16.88
267.944	16.88
268.74	20.88
269.536	19.88
270.332	20.88
271.128	24.88
271.924	20.88
272.719	25.88
273.515	21.88
274.311	20.88
275.106	24.88
275.901	23.88
276.697	23.88
277.492	22.88
278.287	21.88
279.082	23.88
279.877	23.88
280.672	26.88
281.467	23.88
282.262	25.88
283.056	25.88
283.851	23.88
284.646	22.88
285.44	24.88
286.234	22.88
287.029	25.88
287.823	24.88
288.617	24.88
289.411	24.88
290.205	23.88
290.999	24.88
291.793	22.88
292.587	23.88
293.381	22.88
294.174	22.88
294.968	24.88
295.761	20.88
296.555	21.88
297.348	20.88
298.141	18.88
298.935	20.88
299.728	20.88
300.521	18.88
301.314	18.88
302.107	18.88
302.899	18.88
303.692	14.88
304.485	15.88
305.277	15.88
306.07	14.88
306.862	18.88
307.655	14.88
308.447	14.88
309.239	13.88
310.031	13.88
310.823	15.88
311.615	10.88
312.407	13.88
313.199	11.88
313.991	14.88
314.783	14.88
315.574	14.88
316.366	13.88
317.157	10.88
317.949	10.88
318.74	11.88
319.531	9.88
320.322	12.88
321.113	11.88
321.904	9.88
322.695	8.88
323.486	10.88
324.277	8.88
325.068	10.88
325.858	9.88
326.649	9.88
327.439	10.88
328.23	10.88
329.02	6.88
329.81	11.88
330.6	6.88
331.391	8.88
332.181	8.88
332.971	9.88
333.76	9.88
334.55	4.88
335.34	8.88
336.13	8.88
336.919	9.88
337.709	10.88
338.498	8.88
339.287	9.88
340.077	8.88
340.866	8.88
341.655	8.88
342.444	8.88
343.233	9.88
344.022	8.88
344.811	8.88
345.6	9.88
346.388	10.88
347.177	8.88
347.965	10.88
348.754	9.88
349.542	7.88
350.33	8.88
351.119	9.88
351.907	6.88
352.695	9.88
353.483	6.88
354.271	8.88
355.059	6.88
355.846	7.88
356.634	6.88
357.422	6.88
358.209	6.88
358.997	5.88
359.784	7.88
360.571	6.88
361.359	8.88
362.146	8.88
362.933	8.88
363.72	10.88
364.507	6.88
365.294	10.88
366.081	7.88
366.867	5.88
367.654	5.88
368.44	4.88
369.227	8.88
370.013	8.88
370.8	7.88
371.586	6.88
372.372	6.88
373.158	8.88
373.944	9.88
374.73	6.88
375.516	7.88
376.302	8.88
377.088	7.88
377.873	5.88
378.659	7.88
379.445	5.88
380.23	6.88
381.015	4.88
381.801	8.88
382.586	5.88
383.371	7.88
384.156	7.88
384.941	9.88
385.726	5.88
386.511	8.88
387.296	7.88
388.08	8.88
388.865	5.88
389.649	7.88
390.434	8.88
391.218	9.88
392.003	12.88
392.787	11.88
393.571	8.88
394.355	9.88
395.139	8.88
395.923	7.88
396.707	8.88
397.491	8.88
398.274	8.88
399.058	8.88
399.842	8.88
400.625	8.88
401.408	10.88
402.192	8.88
402.975	10.88
403.758	9.88
404.541	8.88
405.324	8.88
406.107	9.88
406.89	10.88
407.673	12.88
408.456	10.88
409.238	12.88
410.021	12.88
410.803	12.88
411.586	11.88
412.368	12.88
413.151	12.88
413.933	12.88
414.715	12.88
415.497	11.88
416.279	11.88
417.061	12.88
417.843	14.88
418.624	14.88
419.406	13.88
420.188	16.88
420.969	13.88
421.751	13.88
422.532	12.88
423.313	16.88
424.095	15.88
424.876	15.88
425.657	15.88
426.438	18.88
427.219	17.88
428	16.88
428.78	17.88
429.561	20.88
430.342	21.88
431.122	19.88
431.903	21.88
432.683	22.88
433.464	24.88
434.244	22.88
435.024	26.88
435.804	24.88
436.584	23.88
437.364	30.88
438.144	28.88
438.924	28.88
439.704	29.88
440.483	37.88
441.263	37.88
442.042	39.88
442.822	41.88
443.601	43.88
444.38	48.88
445.16	51.88
445.939	54.88
446.718	57.88
447.497	63.88
448.276	66.88
449.054	73.88
449.833	85.88
450.612	85.88
451.391	97.88
452.169	107.88
452.948	116.88
453.726	123.88
454.504	143.88
455.282	157.88
456.061	181.88
456.839	194.88
457.617	214.88
458.395	232.88
459.172	267.88
459.95	297.88
460.728	336.88
461.506	377.88
462.283	403.88
463.061	448.88
463.838	516.88
464.615	566.88
465.393	633.88
466.17	698.88
466.947	780.88
467.724	879.88
468.501	982.88
469.278	1072.88
470.055	1189.88
470.831	1303.88
471.608	1456.88
472.385	1597.88
473.161	1783.88
473.938	1953.88
474.714	2148.88
475.49	2360.88
476.266	2597.88
477.043	2872.88
477.819	3153.88
478.595	3456.88
479.371	3804.88
480.146	4146.88
480.922	4550.88
481.698	4996.88
482.473	5445.88
483.249	5968.88
484.024	6510.88
484.8	7145.88
485.575	7759.88
486.35	8442.88
487.126	9177.88
487.901	9989.88
488.676	10809.88
489.451	11784.88
490.225	12761.88
491	13813.88
491.775	14920.88
492.55	16099.88
493.324	17332.88
494.099	18498.88
494.873	19791.88
495.647	21150.88
496.422	22488.88
497.196	23885.88
497.97	25341.88
498.744	26637.88
499.518	27940.88
500.292	29180.88
501.066	30302.88
501.839	31399.88
502.613	32376.88
503.387	33088.88
504.16	33686.88
504.934	34060.88
505.707	34355.88
506.48	34263.88
507.253	34134.88
508.027	33844.88
508.8	33423.88
509.573	32759.88
510.346	32079.88
511.118	31226.88
511.891	30359.88
512.664	29330.88
513.437	28238.88
514.209	27172.88
514.982	26191.88
515.754	25185.88
516.526	24068.88
517.298	23171.88
518.071	22167.88
518.843	21242.88
519.615	20364.88
520.387	19591.88
521.159	18844.88
521.93	18164.88
522.702	17378.88
523.474	16702.88
524.245	16059.88
525.017	15308.88
525.788	14629.88
526.56	13986.88
527.331	13425.88
528.102	12813.88
528.873	12177.88
529.644	11612.88
530.415	11058.88
531.186	10523.88
531.957	10041.88
532.728	9508.88
533.498	8951.88
534.269	8498.88
535.039	8053.88
535.81	7579.88
536.58	7128.88
537.351	6747.88
538.121	6414.88
538.891	6043.88
539.661	5774.88
540.431	5442.88
541.201	5178.88
541.971	4897.88
542.741	4625.88
543.51	4426.88
544.28	4185.88
545.05	3967.88
545.819	3804.88
546.588	3596.88
547.358	3413.88
548.127	3224.88
548.896	3086.88
549.665	2914.88
550.434	2781.88
551.203	2623.88
551.972	2495.88
552.741	2358.88
553.51	2246.88
554.278	2105.88
555.047	1982.88
555.815	1867.88
556.584	1772.88
557.352	1674.88
558.121	1598.88
558.889	1502.88
559.657	1413.88
560.425	1341.88
561.193	1242.88
561.961	1191.88
562.729	1127.88
563.496	1060.88
564.264	1015.88
565.032	950.88
565.799	906.88
566.567	860.88
567.334	806.88
568.101	770.88
568.869	723.88
569.636	684.88
570.403	639.88
571.17	610.88
571.937	566.88
572.704	546.88
573.471	504.88
574.237	480.88
575.004	448.88
575.771	426.88
576.537	403.88
577.303	373.88
578.07	359.88
578.836	332.88
579.602	316.88
580.368	301.88
581.134	286.88
581.9	270.88
582.666	257.88
583.432	244.88
584.198	230.88
584.964	214.88
585.729	213.88
586.495	202.88
587.26	191.88
588.025	176.88
588.791	167.88
589.556	160.88
590.321	149.88
591.086	140.88
591.851	138.88
592.616	130.88
593.381	122.88
594.146	116.88
594.911	110.88
595.675	106.88
596.44	102.88
597.204	97.88
597.969	94.88
598.733	91.88
599.497	85.88
600.261	81.88
601.025	79.88
601.79	72.88
602.553	70.88
603.317	65.88
604.081	64.88
604.845	60.88
605.609	62.88
606.372	56.88
607.136	54.88
607.899	55.88
608.662	50.88
609.426	50.88
610.189	48.88
610.952	45.88
611.715	44.88
612.478	41.88
613.241	42.88
614.004	41.88
614.767	38.88
615.529	32.88
616.292	33.88
617.055	33.88
617.817	35.88
618.579	28.88
619.342	28.88
620.104	30.88
620.866	27.88
621.628	24.88
622.39	27.88
623.152	27.88
623.914	24.88
624.676	20.88
625.438	25.88
626.199	22.88
626.961	23.88
627.722	23.88
628.484	20.88
629.245	18.88
630.006	20.88
630.768	16.88
631.529	18.88
632.29	17.88
633.051	19.88
633.812	17.88
634.573	19.88
635.333	16.88
636.094	16.88
636.855	18.88
637.615	15.88
638.376	12.88
639.136	14.88
639.896	13.88
640.657	16.88
641.417	11.88
642.177	12.88
642.937	13.88
643.697	11.88
644.457	11.88
645.216	9.88
645.976	11.88
646.736	11.88
647.495	11.88
648.255	11.88
649.014	12.88
649.774	9.88
650.533	9.88
651.292	10.88
652.051	10.88
652.81	11.88
653.569	7.88
654.328	8.88
655.087	8.88
655.846	10.88
656.604	7.88
657.363	7.88
658.121	7.88
658.88	8.88
659.638	6.88
660.397	7.88
661.155	9.88
661.913	7.88
662.671	8.88
663.429	8.88
664.187	8.88
664.945	6.88
665.703	8.88
666.46	7.88
667.218	5.88
667.976	6.88
668.733	6.88
669.49	6.88
670.248	9.88
671.005	4.88
671.762	6.88
672.519	6.88
673.276	6.88
674.033	7.88
674.79	6.88
675.547	7.88
676.304	6.88
677.06	7.88
677.817	6.88
678.574	6.88
679.33	3.88
680.086	6.88
680.843	6.88
681.599	4.88
682.355	5.88
683.111	5.88
683.867	6.88
684.623	7.88
685.379	6.88
686.135	4.88
686.89	5.88
687.646	7.88
688.402	6.88
689.157	6.88
689.912	6.88
690.668	5.88
691.423	7.88
692.178	6.88
692.933	5.88
693.688	7.88
694.443	5.88
695.198	8.88
695.953	4.88
696.708	4.88
697.462	4.88
698.217	4.88
698.972	4.88
699.726	4.88
700.48	5.88
701.235	5.88
701.989	4.88
702.743	4.88
703.497	2.88
704.251	6.88
705.005	3.88
705.759	5.88
706.513	5.88
707.266	5.88
708.02	5.88
708.774	4.88
709.527	4.88
710.28	5.88
711.034	3.88
711.787	7.88
712.54	4.88
713.293	6.88
714.046	2.88
714.799	5.88
715.552	4.88
716.305	7.88
717.058	7.88
717.81	4.88
718.563	4.88
719.315	6.88
720.068	5.88
720.82	6.88
721.573	6.88
722.325	4.88
723.077	3.88
723.829	5.88
724.581	3.88
725.333	6.88
726.085	5.88
726.836	6.88
727.588	4.88
728.34	6.88
729.091	8.88
729.843	7.88
730.594	5.88
731.346	6.88
732.097	5.88
732.848	7.88
733.599	4.88
734.35	5.88
735.101	8.88
735.852	7.88
736.603	4.88
737.354	5.88
738.104	7.88
738.855	3.88
739.605	7.88
740.356	6.88
741.106	5.88
741.856	8.88
742.607	8.88
743.357	7.88
744.107	7.88
744.857	6.88
745.607	6.88
746.357	5.88
747.106	6.88
747.856	6.88
748.606	8.88
749.355	5.88
750.105	7.88
750.854	7.88
751.603	4.88
752.353	8.88
753.102	7.88
753.851	6.88
754.6	5.88
755.349	9.88
756.098	6.88
756.847	6.88
757.595	7.88
758.344	8.88
759.093	9.88
759.841	9.88
760.589	7.88
761.338	7.88
762.086	6.88
762.834	8.88
763.582	7.88
764.331	7.88
765.079	10.88
765.826	10.88
766.574	9.88
767.322	7.88
768.07	10.88
768.817	7.88
769.565	10.88
770.312	9.88
771.06	10.88
771.807	12.88
772.554	12.88
773.302	8.88
774.049	10.88
774.796	11.88
775.543	11.88
776.29	11.88
777.036	8.88
777.783	11.88
778.53	10.88
779.276	12.88
780.023	11.88
780.769	11.88
781.516	10.88
782.262	10.88
783.008	11.88
783.754	13.88
784.5	12.88
785.246	11.88
785.992	10.88
786.738	11.88
787.484	10.88
788.23	12.88
788.975	10.88
789.721	10.88
790.466	9.88
791.212	9.88
791.957	12.88
792.702	9.88
793.447	9.88
794.193	9.88
794.938	9.88
795.683	9.88
796.427	7.88
797.172	12.88
797.917	9.88
798.662	9.88
799.406	9.88
800.151	11.88
800.895	6.88
801.64	7.88
802.384	10.88
803.128	7.88
803.872	7.88
804.616	8.88
805.36	6.88
806.104	7.88
806.848	5.88
807.592	8.88
808.336	9.88
809.079	7.88
809.823	9.88
810.566	4.88
811.31	9.88
812.053	5.88
812.796	6.88
813.539	8.88
814.283	5.88
815.026	6.88
815.769	5.88
816.511	8.88
817.254	7.88
817.997	5.88
818.74	3.88
819.482	4.88
820.225	5.88
820.967	8.88
821.71	5.88
822.452	4.88
823.194	3.88
823.936	5.88
824.678	2.88
825.42	5.88
826.162	5.88
826.904	6.88
827.646	5.88
828.388	3.88
829.129	7.88
829.871	3.88
830.612	0.88
831.354	4.88
832.095	2.88
832.836	5.88
833.577	4.88
834.319	6.88
835.06	5.88
835.801	3.88
836.542	3.88
837.282	2.88
838.023	5.88
838.764	4.88
839.504	4.88
840.245	4.88
840.985	4.88
841.726	4.88
842.466	1.88
843.206	5.88
843.946	7.88
844.687	5.88
845.427	5.88
846.166	1.88
846.906	6.88
847.646	4.88
848.386	4.88
849.125	3.88
849.865	3.88
850.605	4.88
851.344	2.88
852.083	5.88
852.823	6.88
853.562	2.88
854.301	2.88
855.04	2.88
855.779	5.88
856.518	3.88
857.257	5.88
857.995	1.88
858.734	3.88
859.473	3.88
860.211	1.88
860.95	3.88
861.688	4.88
862.426	2.88
863.165	4.88
863.903	1.88
864.641	3.88
865.379	-0.12
866.117	3.88
866.855	2.88
867.593	0.88
868.33	2.88
869.068	2.88
869.806	2.88
870.543	1.88
871.28	1.88
872.018	0.88
872.755	1.88
873.492	3.88
874.229	4.88
874.967	0.88
875.703	0.88
876.44	-0.12
877.177	1.88
877.914	0.88
878.651	1.88
879.387	0.88
880.124	-0.12
880.86	2.88
881.597	1.88
882.333	2.88
883.069	2.88
883.806	0.88
884.542	-0.12
885.278	-0.12
886.014	2.88
886.749	1.88
887.485	0.88
888.221	1.88
888.957	2.88
889.692	1.88
890.428	1.88
891.163	-0.12
891.899	1.88
892.634	0.88
893.369	2.88
894.104	1.88
894.839	3.88
895.574	0.88
896.309	2.88
897.044	-0.12
897.779	0.88
898.514	0.88
899.248	2.88
899.983	-0.12
900.717	0.88
901.452	-0.12
902.186	1.88
902.92	1.88
903.654	2.88
904.389	-2.12
905.123	0.88
905.857	0.88
906.59	1.88
907.324	1.88
908.058	1.88
908.792	-1.12
909.525	-2.12
910.259	1.88
910.992	-1.12
911.726	-1.12
912.459	2.88
913.192	-1.12
913.925	0.88
914.658	1.88
915.391	-1.12
916.124	-0.12
916.857	1.88
917.59	1.88
918.323	2.88
919.055	0.88
919.788	1.88
920.521	-0.12
921.253	0.88
921.985	0.88
922.718	0.88
923.45	-0.12
924.182	-0.12
924.914	1.88
925.646	0.88
926.378	1.88
927.11	1.88
927.841	0.88
928.573	-0.12
929.305	-0.12
930.036	0.88
930.768	-0.12
931.499	1.88
932.23	-0.12
932.962	-2.12
933.693	0.88
934.424	-0.12
935.155	-0.12
935.886	1.88
936.617	2.88
937.348	0.88
938.078	1.88
938.809	1.88
939.54	0.88
940.27	1.88
941.001	0.88
941.731	1.88
942.461	1.88
943.191	-0.12
943.922	-0.12
944.652	1.88
945.382	0.88
946.112	0.88
946.841	-0.12
947.571	2.88
948.301	-1.12
949.031	-0.12
949.76	-0.12
950.49	1.88
951.219	0.88
951.948	1.88
952.678	-1.12
953.407	0.88
954.136	0.88
954.865	1.88
955.594	1.88
956.323	0.88
957.052	0.88
957.78	3.88
958.509	1.88
959.238	-0.12
959.966	0.88
960.695	-0.12
961.423	2.88
962.151	1.88
962.88	1.88
963.608	-0.12
964.336	-0.12
965.064	1.88
965.792	0.88
966.52	0.88
967.247	0.88
967.975	0.88
968.703	0.88
969.43	-1.12
970.158	1.88
970.885	2.88
971.613	1.88
972.34	0.88
973.067	-1.12
973.794	0.88
974.521	-0.12
975.248	0.88
975.975	2.88
976.702	-0.12
977.429	-0.12
978.156	-0.12
978.882	0.88
979.609	1.88
980.335	0.88
981.062	2.88
981.788	1.88
982.514	0.88
983.24	2.88
983.967	1.88
984.693	0.88
985.419	-0.12
986.144	-1.12
986.87	-1.12
987.596	0.88
988.322	1.88
989.047	1.88
989.773	0.88
990.498	-0.12
991.224	1.88
991.949	-0.12
992.674	-2.12
993.399	0.88
994.124	0.88
994.849	0.88
995.574	0.88
996.299	1.88
997.024	0.88
997.749	0.88
998.473	0.88
999.198	0.88
999.922	1.88
1000.647	-0.12
1001.371	4.88
1002.095	-2.12
1002.82	-0.12
1003.544	-2.12
1004.268	2.88
1004.992	2.88
1005.716	1.88
1006.439	4.88
1007.163	3.88
1007.887	2.88
1008.611	2.88
1009.334	0.88
1010.058	3.88
1010.781	1.88
1011.504	-0.12
1012.228	1.88
1012.951	-1.12
1013.674	0.88
1014.397	-1.12
1015.12	0.88
