节点500_425_QEPB04081__75__15-49-33-371.txt的数据

Date: Wed Nov 12 15:49:33 CST 2025
User: PC
Spectrometer: QEPB0408
触发模式: 0
积分时间 (秒): 1.000000E-2
Scans to average: 1
启用暗噪声校正: true
启用非线性校正: false
滑动平均宽度: 0
X轴模式: Wavelengths
Number of Pixels in Spectrum: 1044
>>>>>Begin Spectral Data<<<<<
220.843	2.88
221.644	2.88
222.444	2.88
223.244	2.88
224.045	3.88
224.845	3.88
225.645	5.88
226.445	5.88
227.245	4.88
228.045	4.88
228.845	2.88
229.645	5.88
230.444	6.88
231.244	5.88
232.043	5.88
232.843	5.88
233.642	5.88
234.442	7.88
235.241	6.88
236.04	4.88
236.839	6.88
237.638	7.88
238.437	6.88
239.236	8.88
240.035	8.88
240.833	9.88
241.632	5.88
242.43	7.88
243.229	9.88
244.027	6.88
244.826	10.88
245.624	7.88
246.422	9.88
247.22	11.88
248.018	8.88
248.816	10.88
249.614	10.88
250.412	10.88
251.21	10.88
252.007	14.88
252.805	10.88
253.602	10.88
254.4	12.88
255.197	12.88
255.994	15.88
256.791	12.88
257.589	10.88
258.386	16.88
259.183	14.88
259.979	14.88
260.776	17.88
261.573	16.88
262.37	14.88
263.166	19.88
263.963	18.88
264.759	19.88
265.556	18.88
266.352	18.88
267.148	20.88
267.944	22.88
268.74	25.88
269.536	20.88
270.332	23.88
271.128	21.88
271.924	23.88
272.719	23.88
273.515	26.88
274.311	23.88
275.106	23.88
275.901	26.88
276.697	24.88
277.492	26.88
278.287	23.88
279.082	23.88
279.877	26.88
280.672	28.88
281.467	27.88
282.262	26.88
283.056	29.88
283.851	25.88
284.646	25.88
285.44	26.88
286.234	24.88
287.029	26.88
287.823	25.88
288.617	26.88
289.411	22.88
290.205	23.88
290.999	22.88
291.793	24.88
292.587	24.88
293.381	23.88
294.174	23.88
294.968	22.88
295.761	20.88
296.555	20.88
297.348	21.88
298.141	22.88
298.935	22.88
299.728	19.88
300.521	16.88
301.314	17.88
302.107	20.88
302.899	16.88
303.692	20.88
304.485	15.88
305.277	17.88
306.07	15.88
306.862	19.88
307.655	18.88
308.447	15.88
309.239	15.88
310.031	15.88
310.823	14.88
311.615	16.88
312.407	12.88
313.199	13.88
313.991	10.88
314.783	14.88
315.574	14.88
316.366	10.88
317.157	12.88
317.949	10.88
318.74	8.88
319.531	12.88
320.322	9.88
321.113	12.88
321.904	10.88
322.695	13.88
323.486	10.88
324.277	8.88
325.068	10.88
325.858	8.88
326.649	10.88
327.439	8.88
328.23	10.88
329.02	8.88
329.81	9.88
330.6	9.88
331.391	9.88
332.181	12.88
332.971	8.88
333.76	10.88
334.55	8.88
335.34	8.88
336.13	6.88
336.919	8.88
337.709	9.88
338.498	10.88
339.287	8.88
340.077	8.88
340.866	8.88
341.655	8.88
342.444	8.88
343.233	9.88
344.022	7.88
344.811	8.88
345.6	7.88
346.388	6.88
347.177	8.88
347.965	7.88
348.754	6.88
349.542	8.88
350.33	10.88
351.119	9.88
351.907	7.88
352.695	10.88
353.483	8.88
354.271	7.88
355.059	7.88
355.846	5.88
356.634	7.88
357.422	8.88
358.209	7.88
358.997	7.88
359.784	6.88
360.571	8.88
361.359	7.88
362.146	6.88
362.933	8.88
363.72	7.88
364.507	9.88
365.294	7.88
366.081	7.88
366.867	7.88
367.654	8.88
368.44	6.88
369.227	6.88
370.013	8.88
370.8	7.88
371.586	7.88
372.372	5.88
373.158	8.88
373.944	8.88
374.73	5.88
375.516	5.88
376.302	5.88
377.088	7.88
377.873	8.88
378.659	4.88
379.445	5.88
380.23	9.88
381.015	6.88
381.801	5.88
382.586	7.88
383.371	8.88
384.156	7.88
384.941	10.88
385.726	6.88
386.511	9.88
387.296	8.88
388.08	7.88
388.865	7.88
389.649	7.88
390.434	9.88
391.218	7.88
392.003	10.88
392.787	8.88
393.571	9.88
394.355	7.88
395.139	7.88
395.923	7.88
396.707	10.88
397.491	8.88
398.274	11.88
399.058	9.88
399.842	9.88
400.625	10.88
401.408	8.88
402.192	9.88
402.975	9.88
403.758	10.88
404.541	13.88
405.324	11.88
406.107	11.88
406.89	10.88
407.673	10.88
408.456	11.88
409.238	8.88
410.021	9.88
410.803	10.88
411.586	10.88
412.368	12.88
413.151	13.88
413.933	12.88
414.715	10.88
415.497	13.88
416.279	11.88
417.061	15.88
417.843	14.88
418.624	15.88
419.406	14.88
420.188	14.88
420.969	10.88
421.751	14.88
422.532	14.88
423.313	15.88
424.095	17.88
424.876	16.88
425.657	18.88
426.438	14.88
427.219	17.88
428	16.88
428.78	17.88
429.561	19.88
430.342	19.88
431.122	18.88
431.903	20.88
432.683	21.88
433.464	22.88
434.244	22.88
435.024	22.88
435.804	25.88
436.584	28.88
437.364	30.88
438.144	30.88
438.924	32.88
439.704	31.88
440.483	33.88
441.263	34.88
442.042	36.88
442.822	36.88
443.601	42.88
444.38	45.88
445.16	48.88
445.939	49.88
446.718	53.88
447.497	59.88
448.276	63.88
449.054	66.88
449.833	78.88
450.612	83.88
451.391	82.88
452.169	93.88
452.948	103.88
453.726	113.88
454.504	128.88
455.282	141.88
456.061	162.88
456.839	172.88
457.617	194.88
458.395	216.88
459.172	240.88
459.95	269.88
460.728	293.88
461.506	336.88
462.283	365.88
463.061	416.88
463.838	466.88
464.615	530.88
465.393	586.88
466.17	656.88
466.947	728.88
467.724	812.88
468.501	920.88
469.278	1007.88
470.055	1121.88
470.831	1258.88
471.608	1399.88
472.385	1563.88
473.161	1740.88
473.938	1938.88
474.714	2148.88
475.49	2364.88
476.266	2598.88
477.043	2879.88
477.819	3189.88
478.595	3550.88
479.371	3923.88
480.146	4312.88
480.922	4758.88
481.698	5241.88
482.473	5781.88
483.249	6383.88
484.024	7031.88
484.8	7724.88
485.575	8441.88
486.35	9259.88
487.126	10173.88
487.901	11157.88
488.676	12202.88
489.451	13303.88
490.225	14476.88
491	15763.88
491.775	17137.88
492.55	18535.88
493.324	19960.88
494.099	21445.88
494.873	22897.88
495.647	24464.88
496.422	26039.88
497.196	27553.88
497.97	29208.88
498.744	30724.88
499.518	32093.88
500.292	33348.88
501.066	34380.88
501.839	35434.88
502.613	36311.88
503.387	36845.88
504.16	37270.88
504.934	37254.88
505.707	37192.88
506.48	36830.88
507.253	36300.88
508.027	35718.88
508.8	34932.88
509.573	33896.88
510.346	32922.88
511.118	31862.88
511.891	30675.88
512.664	29476.88
513.437	28217.88
514.209	26977.88
514.982	25913.88
515.754	24733.88
516.526	23606.88
517.298	22675.88
518.071	21693.88
518.843	20829.88
519.615	19921.88
520.387	19116.88
521.159	18392.88
521.93	17702.88
522.702	17033.88
523.474	16368.88
524.245	15694.88
525.017	14913.88
525.788	14206.88
526.56	13594.88
527.331	12942.88
528.102	12287.88
528.873	11666.88
529.644	11079.88
530.415	10580.88
531.186	10041.88
531.957	9505.88
532.728	8969.88
533.498	8431.88
534.269	7938.88
535.039	7559.88
535.81	7134.88
536.58	6694.88
537.351	6318.88
538.121	5959.88
538.891	5649.88
539.661	5386.88
540.431	5069.88
541.201	4829.88
541.971	4569.88
542.741	4335.88
543.51	4125.88
544.28	3886.88
545.05	3709.88
545.819	3554.88
546.588	3349.88
547.358	3208.88
548.127	3021.88
548.896	2849.88
549.665	2704.88
550.434	2560.88
551.203	2437.88
551.972	2286.88
552.741	2184.88
553.51	2047.88
554.278	1933.88
555.047	1827.88
555.815	1744.88
556.584	1632.88
557.352	1539.88
558.121	1463.88
558.889	1374.88
559.657	1309.88
560.425	1228.88
561.193	1150.88
561.961	1092.88
562.729	1035.88
563.496	972.88
564.264	918.88
565.032	880.88
565.799	820.88
566.567	778.88
567.334	735.88
568.101	705.88
568.869	664.88
569.636	618.88
570.403	580.88
571.17	547.88
571.937	520.88
572.704	491.88
573.471	459.88
574.237	440.88
575.004	413.88
575.771	394.88
576.537	371.88
577.303	340.88
578.07	324.88
578.836	302.88
579.602	286.88
580.368	275.88
581.134	253.88
581.9	248.88
582.666	235.88
583.432	225.88
584.198	209.88
584.964	197.88
585.729	190.88
586.495	177.88
587.26	168.88
588.025	159.88
588.791	145.88
589.556	148.88
590.321	140.88
591.086	133.88
591.851	127.88
592.616	119.88
593.381	112.88
594.146	108.88
594.911	103.88
595.675	96.88
596.44	93.88
597.204	87.88
597.969	84.88
598.733	83.88
599.497	80.88
600.261	75.88
601.025	74.88
601.79	68.88
602.553	64.88
603.317	62.88
604.081	61.88
604.845	55.88
605.609	59.88
606.372	55.88
607.136	49.88
607.899	48.88
608.662	47.88
609.426	43.88
610.189	44.88
610.952	42.88
611.715	41.88
612.478	37.88
613.241	39.88
614.004	34.88
614.767	36.88
615.529	33.88
616.292	30.88
617.055	33.88
617.817	29.88
618.579	29.88
619.342	26.88
620.104	26.88
620.866	26.88
621.628	24.88
622.39	25.88
623.152	22.88
623.914	23.88
624.676	23.88
625.438	22.88
626.199	22.88
626.961	21.88
627.722	19.88
628.484	21.88
629.245	20.88
630.006	18.88
630.768	16.88
631.529	18.88
632.29	14.88
633.051	17.88
633.812	17.88
634.573	15.88
635.333	17.88
636.094	14.88
636.855	16.88
637.615	15.88
638.376	14.88
639.136	14.88
639.896	14.88
640.657	14.88
641.417	13.88
642.177	13.88
642.937	13.88
643.697	12.88
644.457	11.88
645.216	12.88
645.976	10.88
646.736	11.88
647.495	9.88
648.255	10.88
649.014	10.88
649.774	11.88
650.533	9.88
651.292	9.88
652.051	6.88
652.81	8.88
653.569	8.88
654.328	8.88
655.087	9.88
655.846	9.88
656.604	7.88
657.363	8.88
658.121	7.88
658.88	6.88
659.638	4.88
660.397	8.88
661.155	8.88
661.913	8.88
662.671	6.88
663.429	6.88
664.187	8.88
664.945	6.88
665.703	6.88
666.46	5.88
667.218	6.88
667.976	8.88
668.733	6.88
669.49	6.88
670.248	6.88
671.005	6.88
671.762	4.88
672.519	5.88
673.276	6.88
674.033	8.88
674.79	3.88
675.547	5.88
676.304	6.88
677.06	5.88
677.817	4.88
678.574	7.88
679.33	2.88
680.086	7.88
680.843	5.88
681.599	5.88
682.355	4.88
683.111	4.88
683.867	7.88
684.623	3.88
685.379	8.88
686.135	5.88
686.89	4.88
687.646	6.88
688.402	3.88
689.157	3.88
689.912	3.88
690.668	8.88
691.423	3.88
692.178	3.88
692.933	6.88
693.688	2.88
694.443	5.88
695.198	7.88
695.953	7.88
696.708	4.88
697.462	6.88
698.217	6.88
698.972	6.88
699.726	4.88
700.48	6.88
701.235	5.88
701.989	7.88
702.743	5.88
703.497	5.88
704.251	5.88
705.005	6.88
705.759	5.88
706.513	5.88
707.266	6.88
708.02	4.88
708.774	3.88
709.527	6.88
710.28	5.88
711.034	6.88
711.787	4.88
712.54	4.88
713.293	3.88
714.046	4.88
714.799	3.88
715.552	3.88
716.305	5.88
717.058	4.88
717.81	5.88
718.563	7.88
719.315	3.88
720.068	8.88
720.82	5.88
721.573	4.88
722.325	4.88
723.077	7.88
723.829	4.88
724.581	3.88
725.333	3.88
726.085	5.88
726.836	6.88
727.588	4.88
728.34	6.88
729.091	7.88
729.843	6.88
730.594	7.88
731.346	6.88
732.097	6.88
732.848	5.88
733.599	4.88
734.35	5.88
735.101	5.88
735.852	8.88
736.603	4.88
737.354	5.88
738.104	8.88
738.855	5.88
739.605	6.88
740.356	8.88
741.106	7.88
741.856	6.88
742.607	7.88
743.357	8.88
744.107	6.88
744.857	7.88
745.607	7.88
746.357	9.88
747.106	8.88
747.856	7.88
748.606	8.88
749.355	8.88
750.105	9.88
750.854	6.88
751.603	8.88
752.353	7.88
753.102	7.88
753.851	8.88
754.6	4.88
755.349	8.88
756.098	9.88
756.847	5.88
757.595	8.88
758.344	5.88
759.093	9.88
759.841	7.88
760.589	9.88
761.338	8.88
762.086	9.88
762.834	6.88
763.582	8.88
764.331	11.88
765.079	11.88
765.826	12.88
766.574	9.88
767.322	10.88
768.07	11.88
768.817	9.88
769.565	11.88
770.312	9.88
771.06	9.88
771.807	9.88
772.554	8.88
773.302	10.88
774.049	12.88
774.796	11.88
775.543	12.88
776.29	10.88
777.036	11.88
777.783	10.88
778.53	14.88
779.276	12.88
780.023	11.88
780.769	10.88
781.516	13.88
782.262	13.88
783.008	13.88
783.754	12.88
784.5	12.88
785.246	10.88
785.992	12.88
786.738	10.88
787.484	14.88
788.23	11.88
788.975	14.88
789.721	11.88
790.466	10.88
791.212	11.88
791.957	12.88
792.702	10.88
793.447	11.88
794.193	11.88
794.938	10.88
795.683	11.88
796.427	10.88
797.172	11.88
797.917	8.88
798.662	10.88
799.406	6.88
800.151	10.88
800.895	10.88
801.64	10.88
802.384	10.88
803.128	7.88
803.872	11.88
804.616	8.88
805.36	7.88
806.104	8.88
806.848	8.88
807.592	8.88
808.336	7.88
809.079	8.88
809.823	7.88
810.566	7.88
811.31	9.88
812.053	7.88
812.796	7.88
813.539	5.88
814.283	9.88
815.026	6.88
815.769	5.88
816.511	5.88
817.254	5.88
817.997	6.88
818.74	5.88
819.482	4.88
820.225	6.88
820.967	5.88
821.71	3.88
822.452	4.88
823.194	5.88
823.936	3.88
824.678	9.88
825.42	4.88
826.162	4.88
826.904	6.88
827.646	4.88
828.388	5.88
829.129	3.88
829.871	4.88
830.612	4.88
831.354	4.88
832.095	5.88
832.836	5.88
833.577	4.88
834.319	4.88
835.06	4.88
835.801	6.88
836.542	0.88
837.282	6.88
838.023	2.88
838.764	4.88
839.504	5.88
840.245	3.88
840.985	4.88
841.726	3.88
842.466	4.88
843.206	7.88
843.946	3.88
844.687	4.88
845.427	2.88
846.166	6.88
846.906	3.88
847.646	5.88
848.386	2.88
849.125	4.88
849.865	4.88
850.605	2.88
851.344	2.88
852.083	2.88
852.823	3.88
853.562	4.88
854.301	2.88
855.04	3.88
855.779	2.88
856.518	4.88
857.257	5.88
857.995	3.88
858.734	4.88
859.473	2.88
860.211	4.88
860.95	2.88
861.688	-0.12
862.426	2.88
863.165	2.88
863.903	4.88
864.641	0.88
865.379	2.88
866.117	2.88
866.855	1.88
867.593	3.88
868.33	1.88
869.068	2.88
869.806	2.88
870.543	0.88
871.28	0.88
872.018	-1.12
872.755	3.88
873.492	4.88
874.229	1.88
874.967	3.88
875.703	2.88
876.44	1.88
877.177	0.88
877.914	3.88
878.651	2.88
879.387	2.88
880.124	1.88
880.86	0.88
881.597	2.88
882.333	0.88
883.069	1.88
883.806	2.88
884.542	1.88
885.278	0.88
886.014	1.88
886.749	1.88
887.485	2.88
888.221	3.88
888.957	2.88
889.692	1.88
890.428	-0.12
891.163	0.88
891.899	1.88
892.634	2.88
893.369	1.88
894.104	0.88
894.839	-1.12
895.574	1.88
896.309	0.88
897.044	2.88
897.779	0.88
898.514	1.88
899.248	2.88
899.983	0.88
900.717	1.88
901.452	1.88
902.186	-0.12
902.92	0.88
903.654	1.88
904.389	0.88
905.123	0.88
905.857	-0.12
906.59	0.88
907.324	0.88
908.058	3.88
908.792	1.88
909.525	2.88
910.259	-0.12
910.992	1.88
911.726	0.88
912.459	1.88
913.192	2.88
913.925	2.88
914.658	0.88
915.391	1.88
916.124	2.88
916.857	3.88
917.59	1.88
918.323	-0.12
919.055	-1.12
919.788	0.88
920.521	-0.12
921.253	-0.12
921.985	1.88
922.718	0.88
923.45	0.88
924.182	-1.12
924.914	-0.12
925.646	0.88
926.378	0.88
927.11	0.88
927.841	1.88
928.573	0.88
929.305	1.88
930.036	2.88
930.768	0.88
931.499	0.88
932.23	-1.12
932.962	-1.12
933.693	0.88
934.424	0.88
935.155	-1.12
935.886	1.88
936.617	-0.12
937.348	0.88
938.078	0.88
938.809	1.88
939.54	1.88
940.27	1.88
941.001	1.88
941.731	0.88
942.461	0.88
943.191	-0.12
943.922	0.88
944.652	2.88
945.382	-1.12
946.112	0.88
946.841	0.88
947.571	0.88
948.301	-1.12
949.031	-1.12
949.76	1.88
950.49	1.88
951.219	0.88
951.948	0.88
952.678	1.88
953.407	2.88
954.136	2.88
954.865	0.88
955.594	1.88
956.323	0.88
957.052	0.88
957.78	-0.12
958.509	-0.12
959.238	0.88
959.966	1.88
960.695	1.88
961.423	1.88
962.151	2.88
962.88	-1.12
963.608	1.88
964.336	-0.12
965.064	-0.12
965.792	2.88
966.52	1.88
967.247	-2.12
967.975	-0.12
968.703	0.88
969.43	0.88
970.158	0.88
970.885	1.88
971.613	0.88
972.34	0.88
973.067	0.88
973.794	-1.12
974.521	-0.12
975.248	-1.12
975.975	0.88
976.702	0.88
977.429	0.88
978.156	0.88
978.882	0.88
979.609	2.88
980.335	0.88
981.062	-0.12
981.788	-1.12
982.514	-1.12
983.24	0.88
983.967	0.88
984.693	1.88
985.419	0.88
986.144	0.88
986.87	-1.12
987.596	1.88
988.322	2.88
989.047	1.88
989.773	1.88
990.498	1.88
991.224	1.88
991.949	1.88
992.674	2.88
993.399	0.88
994.124	0.88
994.849	-1.12
995.574	2.88
996.299	1.88
997.024	0.88
997.749	0.88
998.473	1.88
999.198	-1.12
999.922	0.88
1000.647	-0.12
1001.371	2.88
1002.095	-1.12
1002.82	0.88
1003.544	-1.12
1004.268	3.88
1004.992	2.88
1005.716	0.88
1006.439	1.88
1007.163	4.88
1007.887	2.88
1008.611	0.88
1009.334	0.88
1010.058	0.88
1010.781	0.88
1011.504	0.88
1012.228	-0.12
1012.951	0.88
1013.674	-2.12
1014.397	-1.12
1015.12	0.88
