节点500_425_QEPB04081__598__15-58-15-437.txt的数据

Date: Wed Nov 12 15:58:15 CST 2025
User: PC
Spectrometer: QEPB0408
触发模式: 0
积分时间 (秒): 1.000000E-2
Scans to average: 1
启用暗噪声校正: true
启用非线性校正: false
滑动平均宽度: 0
X轴模式: Wavelengths
Number of Pixels in Spectrum: 1044
>>>>>Begin Spectral Data<<<<<
220.843	-1.25
221.644	-0.25
222.444	0.75
223.244	1.75
224.045	3.75
224.845	3.75
225.645	1.75
226.445	2.75
227.245	3.75
228.045	5.75
228.845	3.75
229.645	3.75
230.444	3.75
231.244	3.75
232.043	5.75
232.843	3.75
233.642	4.75
234.442	4.75
235.241	5.75
236.04	4.75
236.839	4.75
237.638	5.75
238.437	2.75
239.236	7.75
240.035	4.75
240.833	5.75
241.632	3.75
242.43	6.75
243.229	6.75
244.027	5.75
244.826	5.75
245.624	6.75
246.422	6.75
247.22	6.75
248.018	7.75
248.816	9.75
249.614	8.75
250.412	10.75
251.21	7.75
252.007	10.75
252.805	7.75
253.602	9.75
254.4	6.75
255.197	8.75
255.994	9.75
256.791	9.75
257.589	11.75
258.386	11.75
259.183	11.75
259.979	12.75
260.776	13.75
261.573	11.75
262.37	14.75
263.166	11.75
263.963	15.75
264.759	11.75
265.556	14.75
266.352	11.75
267.148	13.75
267.944	15.75
268.74	15.75
269.536	18.75
270.332	16.75
271.128	18.75
271.924	17.75
272.719	17.75
273.515	21.75
274.311	21.75
275.106	19.75
275.901	19.75
276.697	20.75
277.492	22.75
278.287	18.75
279.082	21.75
279.877	20.75
280.672	21.75
281.467	19.75
282.262	21.75
283.056	22.75
283.851	21.75
284.646	20.75
285.44	21.75
286.234	21.75
287.029	22.75
287.823	22.75
288.617	20.75
289.411	21.75
290.205	22.75
290.999	20.75
291.793	19.75
292.587	18.75
293.381	20.75
294.174	19.75
294.968	20.75
295.761	18.75
296.555	17.75
297.348	18.75
298.141	19.75
298.935	19.75
299.728	18.75
300.521	17.75
301.314	18.75
302.107	13.75
302.899	15.75
303.692	13.75
304.485	15.75
305.277	17.75
306.07	19.75
306.862	15.75
307.655	15.75
308.447	14.75
309.239	14.75
310.031	13.75
310.823	11.75
311.615	12.75
312.407	10.75
313.199	12.75
313.991	10.75
314.783	12.75
315.574	11.75
316.366	9.75
317.157	9.75
317.949	8.75
318.74	8.75
319.531	9.75
320.322	8.75
321.113	12.75
321.904	9.75
322.695	10.75
323.486	9.75
324.277	11.75
325.068	7.75
325.858	7.75
326.649	10.75
327.439	8.75
328.23	8.75
329.02	6.75
329.81	5.75
330.6	6.75
331.391	7.75
332.181	8.75
332.971	7.75
333.76	9.75
334.55	8.75
335.34	7.75
336.13	7.75
336.919	7.75
337.709	6.75
338.498	6.75
339.287	6.75
340.077	8.75
340.866	10.75
341.655	9.75
342.444	5.75
343.233	7.75
344.022	8.75
344.811	7.75
345.6	5.75
346.388	7.75
347.177	8.75
347.965	6.75
348.754	6.75
349.542	6.75
350.33	6.75
351.119	9.75
351.907	6.75
352.695	8.75
353.483	7.75
354.271	8.75
355.059	11.75
355.846	6.75
356.634	7.75
357.422	7.75
358.209	6.75
358.997	7.75
359.784	5.75
360.571	8.75
361.359	5.75
362.146	6.75
362.933	7.75
363.72	7.75
364.507	7.75
365.294	5.75
366.081	6.75
366.867	8.75
367.654	3.75
368.44	7.75
369.227	4.75
370.013	6.75
370.8	5.75
371.586	6.75
372.372	7.75
373.158	6.75
373.944	5.75
374.73	3.75
375.516	7.75
376.302	6.75
377.088	6.75
377.873	7.75
378.659	3.75
379.445	5.75
380.23	5.75
381.015	4.75
381.801	6.75
382.586	6.75
383.371	6.75
384.156	5.75
384.941	6.75
385.726	5.75
386.511	4.75
387.296	7.75
388.08	6.75
388.865	5.75
389.649	7.75
390.434	8.75
391.218	7.75
392.003	4.75
392.787	4.75
393.571	7.75
394.355	8.75
395.139	7.75
395.923	5.75
396.707	6.75
397.491	6.75
398.274	8.75
399.058	8.75
399.842	7.75
400.625	9.75
401.408	8.75
402.192	8.75
402.975	9.75
403.758	7.75
404.541	8.75
405.324	8.75
406.107	8.75
406.89	7.75
407.673	8.75
408.456	7.75
409.238	9.75
410.021	9.75
410.803	9.75
411.586	8.75
412.368	11.75
413.151	11.75
413.933	9.75
414.715	8.75
415.497	12.75
416.279	11.75
417.061	11.75
417.843	13.75
418.624	10.75
419.406	10.75
420.188	13.75
420.969	11.75
421.751	11.75
422.532	13.75
423.313	13.75
424.095	13.75
424.876	14.75
425.657	13.75
426.438	14.75
427.219	16.75
428	17.75
428.78	16.75
429.561	18.75
430.342	18.75
431.122	16.75
431.903	19.75
432.683	19.75
433.464	19.75
434.244	21.75
435.024	22.75
435.804	24.75
436.584	23.75
437.364	27.75
438.144	29.75
438.924	28.75
439.704	34.75
440.483	29.75
441.263	37.75
442.042	35.75
442.822	38.75
443.601	44.75
444.38	47.75
445.16	48.75
445.939	55.75
446.718	59.75
447.497	61.75
448.276	66.75
449.054	79.75
449.833	85.75
450.612	91.75
451.391	102.75
452.169	103.75
452.948	127.75
453.726	133.75
454.504	151.75
455.282	165.75
456.061	188.75
456.839	203.75
457.617	227.75
458.395	255.75
459.172	279.75
459.95	314.75
460.728	344.75
461.506	388.75
462.283	423.75
463.061	486.75
463.838	541.75
464.615	599.75
465.393	668.75
466.17	739.75
466.947	814.75
467.724	898.75
468.501	1002.75
469.278	1103.75
470.055	1224.75
470.831	1339.75
471.608	1477.75
472.385	1618.75
473.161	1796.75
473.938	1985.75
474.714	2184.75
475.49	2374.75
476.266	2594.75
477.043	2838.75
477.819	3111.75
478.595	3397.75
479.371	3721.75
480.146	4067.75
480.922	4427.75
481.698	4817.75
482.473	5274.75
483.249	5726.75
484.024	6211.75
484.8	6788.75
485.575	7323.75
486.35	7959.75
487.126	8612.75
487.901	9338.75
488.676	10102.75
489.451	10936.75
490.225	11791.75
491	12717.75
491.775	13799.75
492.55	14813.75
493.324	15827.75
494.099	16982.75
494.873	18081.75
495.647	19322.75
496.422	20550.75
497.196	21770.75
497.97	23124.75
498.744	24394.75
499.518	25629.75
500.292	26785.75
501.066	27850.75
501.839	29050.75
502.613	29968.75
503.387	30789.75
504.16	31452.75
504.934	31954.75
505.707	32314.75
506.48	32431.75
507.253	32462.75
508.027	32405.75
508.8	32237.75
509.573	31779.75
510.346	31256.75
511.118	30509.75
511.891	29830.75
512.664	28945.75
513.437	28100.75
514.209	27105.75
514.982	26225.75
515.754	25253.75
516.526	24200.75
517.298	23290.75
518.071	22353.75
518.843	21446.75
519.615	20568.75
520.387	19824.75
521.159	19034.75
521.93	18285.75
522.702	17632.75
523.474	16925.75
524.245	16264.75
525.017	15533.75
525.788	14861.75
526.56	14215.75
527.331	13582.75
528.102	13015.75
528.873	12445.75
529.644	11891.75
530.415	11356.75
531.186	10835.75
531.957	10300.75
532.728	9798.75
533.498	9278.75
534.269	8784.75
535.039	8359.75
535.81	7910.75
536.58	7456.75
537.351	7019.75
538.121	6660.75
538.891	6294.75
539.661	5973.75
540.431	5667.75
541.201	5381.75
541.971	5102.75
542.741	4830.75
543.51	4607.75
544.28	4335.75
545.05	4162.75
545.819	3952.75
546.588	3744.75
547.358	3547.75
548.127	3373.75
548.896	3225.75
549.665	3040.75
550.434	2907.75
551.203	2742.75
551.972	2606.75
552.741	2474.75
553.51	2335.75
554.278	2209.75
555.047	2081.75
555.815	1979.75
556.584	1866.75
557.352	1751.75
558.121	1665.75
558.889	1580.75
559.657	1496.75
560.425	1398.75
561.193	1330.75
561.961	1254.75
562.729	1207.75
563.496	1133.75
564.264	1064.75
565.032	1017.75
565.799	936.75
566.567	910.75
567.334	860.75
568.101	812.75
568.869	757.75
569.636	719.75
570.403	687.75
571.17	638.75
571.937	602.75
572.704	567.75
573.471	541.75
574.237	507.75
575.004	478.75
575.771	453.75
576.537	423.75
577.303	402.75
578.07	366.75
578.836	352.75
579.602	337.75
580.368	317.75
581.134	299.75
581.9	284.75
582.666	267.75
583.432	256.75
584.198	244.75
584.964	230.75
585.729	218.75
586.495	212.75
587.26	194.75
588.025	184.75
588.791	181.75
589.556	172.75
590.321	161.75
591.086	148.75
591.851	143.75
592.616	135.75
593.381	124.75
594.146	120.75
594.911	113.75
595.675	112.75
596.44	104.75
597.204	102.75
597.969	101.75
598.733	93.75
599.497	87.75
600.261	84.75
601.025	82.75
601.79	78.75
602.553	71.75
603.317	69.75
604.081	68.75
604.845	62.75
605.609	64.75
606.372	62.75
607.136	54.75
607.899	55.75
608.662	54.75
609.426	51.75
610.189	46.75
610.952	44.75
611.715	45.75
612.478	40.75
613.241	42.75
614.004	40.75
614.767	38.75
615.529	33.75
616.292	37.75
617.055	35.75
617.817	35.75
618.579	30.75
619.342	29.75
620.104	29.75
620.866	27.75
621.628	28.75
622.39	25.75
623.152	25.75
623.914	21.75
624.676	25.75
625.438	23.75
626.199	21.75
626.961	22.75
627.722	21.75
628.484	19.75
629.245	21.75
630.006	20.75
630.768	18.75
631.529	17.75
632.29	15.75
633.051	17.75
633.812	17.75
634.573	17.75
635.333	16.75
636.094	14.75
636.855	13.75
637.615	13.75
638.376	15.75
639.136	11.75
639.896	12.75
640.657	14.75
641.417	10.75
642.177	11.75
642.937	10.75
643.697	11.75
644.457	7.75
645.216	10.75
645.976	9.75
646.736	9.75
647.495	10.75
648.255	8.75
649.014	9.75
649.774	7.75
650.533	8.75
651.292	9.75
652.051	9.75
652.81	9.75
653.569	8.75
654.328	9.75
655.087	6.75
655.846	6.75
656.604	7.75
657.363	10.75
658.121	5.75
658.88	7.75
659.638	7.75
660.397	9.75
661.155	6.75
661.913	7.75
662.671	7.75
663.429	7.75
664.187	6.75
664.945	6.75
665.703	6.75
666.46	6.75
667.218	6.75
667.976	6.75
668.733	6.75
669.49	6.75
670.248	7.75
671.005	3.75
671.762	3.75
672.519	6.75
673.276	4.75
674.033	5.75
674.79	4.75
675.547	4.75
676.304	4.75
677.06	3.75
677.817	5.75
678.574	5.75
679.33	4.75
680.086	6.75
680.843	6.75
681.599	5.75
682.355	4.75
683.111	7.75
683.867	5.75
684.623	4.75
685.379	3.75
686.135	6.75
686.89	6.75
687.646	1.75
688.402	5.75
689.157	4.75
689.912	3.75
690.668	2.75
691.423	2.75
692.178	6.75
692.933	5.75
693.688	4.75
694.443	3.75
695.198	4.75
695.953	5.75
696.708	3.75
697.462	4.75
698.217	3.75
698.972	3.75
699.726	4.75
700.48	3.75
701.235	3.75
701.989	1.75
702.743	5.75
703.497	1.75
704.251	4.75
705.005	2.75
705.759	1.75
706.513	6.75
707.266	3.75
708.02	4.75
708.774	4.75
709.527	3.75
710.28	4.75
711.034	4.75
711.787	3.75
712.54	3.75
713.293	2.75
714.046	3.75
714.799	3.75
715.552	3.75
716.305	2.75
717.058	1.75
717.81	5.75
718.563	3.75
719.315	4.75
720.068	4.75
720.82	3.75
721.573	3.75
722.325	2.75
723.077	4.75
723.829	3.75
724.581	1.75
725.333	6.75
726.085	6.75
726.836	4.75
727.588	1.75
728.34	5.75
729.091	3.75
729.843	3.75
730.594	4.75
731.346	1.75
732.097	4.75
732.848	3.75
733.599	4.75
734.35	5.75
735.101	2.75
735.852	5.75
736.603	4.75
737.354	4.75
738.104	3.75
738.855	5.75
739.605	4.75
740.356	5.75
741.106	6.75
741.856	4.75
742.607	3.75
743.357	3.75
744.107	3.75
744.857	4.75
745.607	6.75
746.357	4.75
747.106	4.75
747.856	6.75
748.606	5.75
749.355	6.75
750.105	3.75
750.854	6.75
751.603	6.75
752.353	4.75
753.102	5.75
753.851	6.75
754.6	2.75
755.349	8.75
756.098	5.75
756.847	6.75
757.595	7.75
758.344	7.75
759.093	4.75
759.841	3.75
760.589	6.75
761.338	5.75
762.086	9.75
762.834	5.75
763.582	6.75
764.331	4.75
765.079	7.75
765.826	7.75
766.574	8.75
767.322	6.75
768.07	8.75
768.817	8.75
769.565	9.75
770.312	9.75
771.06	7.75
771.807	6.75
772.554	7.75
773.302	7.75
774.049	7.75
774.796	9.75
775.543	8.75
776.29	9.75
777.036	8.75
777.783	9.75
778.53	10.75
779.276	9.75
780.023	9.75
780.769	11.75
781.516	7.75
782.262	9.75
783.008	9.75
783.754	10.75
784.5	9.75
785.246	10.75
785.992	10.75
786.738	9.75
787.484	10.75
788.23	7.75
788.975	10.75
789.721	9.75
790.466	6.75
791.212	9.75
791.957	9.75
792.702	9.75
793.447	9.75
794.193	8.75
794.938	6.75
795.683	9.75
796.427	9.75
797.172	9.75
797.917	7.75
798.662	9.75
799.406	9.75
800.151	9.75
800.895	7.75
801.64	10.75
802.384	7.75
803.128	10.75
803.872	4.75
804.616	8.75
805.36	4.75
806.104	8.75
806.848	6.75
807.592	4.75
808.336	3.75
809.079	6.75
809.823	6.75
810.566	7.75
811.31	3.75
812.053	5.75
812.796	5.75
813.539	6.75
814.283	7.75
815.026	4.75
815.769	6.75
816.511	6.75
817.254	4.75
817.997	9.75
818.74	3.75
819.482	6.75
820.225	6.75
820.967	3.75
821.71	5.75
822.452	4.75
823.194	3.75
823.936	5.75
824.678	2.75
825.42	5.75
826.162	4.75
826.904	4.75
827.646	1.75
828.388	4.75
829.129	3.75
829.871	6.75
830.612	5.75
831.354	1.75
832.095	3.75
832.836	4.75
833.577	0.75
834.319	4.75
835.06	4.75
835.801	2.75
836.542	1.75
837.282	5.75
838.023	3.75
838.764	3.75
839.504	4.75
840.245	1.75
840.985	1.75
841.726	1.75
842.466	2.75
843.206	4.75
843.946	4.75
844.687	3.75
845.427	1.75
846.166	3.75
846.906	3.75
847.646	2.75
848.386	4.75
849.125	1.75
849.865	2.75
850.605	1.75
851.344	1.75
852.083	1.75
852.823	3.75
853.562	1.75
854.301	-0.25
855.04	1.75
855.779	2.75
856.518	1.75
857.257	2.75
857.995	1.75
858.734	2.75
859.473	2.75
860.211	0.75
860.95	1.75
861.688	2.75
862.426	0.75
863.165	0.75
863.903	0.75
864.641	3.75
865.379	1.75
866.117	1.75
866.855	0.75
867.593	0.75
868.33	2.75
869.068	1.75
869.806	2.75
870.543	3.75
871.28	1.75
872.018	0.75
872.755	-0.25
873.492	1.75
874.229	1.75
874.967	2.75
875.703	1.75
876.44	0.75
877.177	0.75
877.914	1.75
878.651	0.75
879.387	1.75
880.124	0.75
880.86	-1.25
881.597	0.75
882.333	0.75
883.069	1.75
883.806	-0.25
884.542	-1.25
885.278	0.75
886.014	0.75
886.749	-1.25
887.485	-0.25
888.221	1.75
888.957	-0.25
889.692	-1.25
890.428	-0.25
891.163	0.75
891.899	0.75
892.634	-0.25
893.369	-0.25
894.104	-0.25
894.839	-0.25
895.574	0.75
896.309	1.75
897.044	-1.25
897.779	-1.25
898.514	-0.25
899.248	1.75
899.983	0.75
900.717	0.75
901.452	1.75
902.186	-0.25
902.92	1.75
903.654	0.75
904.389	-0.25
905.123	1.75
905.857	-0.25
906.59	1.75
907.324	-0.25
908.058	-0.25
908.792	-2.25
909.525	-1.25
910.259	-0.25
910.992	2.75
911.726	-0.25
912.459	1.75
913.192	-0.25
913.925	-3.25
914.658	1.75
915.391	-1.25
916.124	1.75
916.857	-0.25
917.59	-2.25
918.323	0.75
919.055	0.75
919.788	0.75
920.521	-0.25
921.253	-0.25
921.985	-0.25
922.718	0.75
923.45	0.75
924.182	-0.25
924.914	-1.25
925.646	-0.25
926.378	0.75
927.11	0.75
927.841	0.75
928.573	-0.25
929.305	-1.25
930.036	-0.25
930.768	-0.25
931.499	-0.25
932.23	1.75
932.962	-2.25
933.693	-0.25
934.424	-0.25
935.155	-2.25
935.886	-0.25
936.617	-3.25
937.348	-0.25
938.078	-0.25
938.809	-1.25
939.54	-1.25
940.27	0.75
941.001	1.75
941.731	0.75
942.461	2.75
943.191	-0.25
943.922	-3.25
944.652	-0.25
945.382	-2.25
946.112	-0.25
946.841	-2.25
947.571	-1.25
948.301	-1.25
949.031	-1.25
949.76	-2.25
950.49	-1.25
951.219	-0.25
951.948	-0.25
952.678	-2.25
953.407	1.75
954.136	1.75
954.865	-1.25
955.594	-0.25
956.323	-1.25
957.052	-0.25
957.78	1.75
958.509	-0.25
959.238	-0.25
959.966	-0.25
960.695	0.75
961.423	-0.25
962.151	-2.25
962.88	-0.25
963.608	0.75
964.336	-0.25
965.064	-0.25
965.792	-0.25
966.52	-0.25
967.247	1.75
967.975	-0.25
968.703	-2.25
969.43	-0.25
970.158	-1.25
970.885	0.75
971.613	0.75
972.34	2.75
973.067	0.75
973.794	-2.25
974.521	-1.25
975.248	-1.25
975.975	-2.25
976.702	0.75
977.429	1.75
978.156	-1.25
978.882	0.75
979.609	0.75
980.335	-0.25
981.062	1.75
981.788	-1.25
982.514	0.75
983.24	-0.25
983.967	-1.25
984.693	0.75
985.419	0.75
986.144	-2.25
986.87	-0.25
987.596	-0.25
988.322	-1.25
989.047	-0.25
989.773	-0.25
990.498	-0.25
991.224	-1.25
991.949	0.75
992.674	-3.25
993.399	-1.25
994.124	-2.25
994.849	-0.25
995.574	0.75
996.299	-0.25
997.024	1.75
997.749	-1.25
998.473	0.75
999.198	0.75
999.922	0.75
1000.647	1.75
1001.371	1.75
1002.095	-0.25
1002.82	-0.25
1003.544	-1.25
1004.268	2.75
1004.992	0.75
1005.716	0.75
1006.439	1.75
1007.163	2.75
1007.887	2.75
1008.611	-0.25
1009.334	1.75
1010.058	-0.25
1010.781	0.75
1011.504	0.75
1012.228	-2.25
1012.951	1.75
1013.674	-1.25
1014.397	0.75
1015.12	-1.25
