节点500_425_QEPB04081__277__15-52-54-982.txt的数据

Date: Wed Nov 12 15:52:54 CST 2025
User: PC
Spectrometer: QEPB0408
触发模式: 0
积分时间 (秒): 1.000000E-2
Scans to average: 1
启用暗噪声校正: true
启用非线性校正: false
滑动平均宽度: 0
X轴模式: Wavelengths
Number of Pixels in Spectrum: 1044
>>>>>Begin Spectral Data<<<<<
220.843	2.25
221.644	3.25
222.444	4.25
223.244	6.25
224.045	0.25
224.845	2.25
225.645	3.25
226.445	1.25
227.245	4.25
228.045	4.25
228.845	4.25
229.645	4.25
230.444	4.25
231.244	5.25
232.043	5.25
232.843	5.25
233.642	5.25
234.442	5.25
235.241	4.25
236.04	5.25
236.839	7.25
237.638	7.25
238.437	5.25
239.236	6.25
240.035	6.25
240.833	7.25
241.632	7.25
242.43	6.25
243.229	10.25
244.027	7.25
244.826	9.25
245.624	7.25
246.422	7.25
247.22	9.25
248.018	6.25
248.816	10.25
249.614	10.25
250.412	8.25
251.21	9.25
252.007	10.25
252.805	12.25
253.602	11.25
254.4	9.25
255.197	10.25
255.994	12.25
256.791	12.25
257.589	14.25
258.386	13.25
259.183	11.25
259.979	13.25
260.776	15.25
261.573	13.25
262.37	14.25
263.166	16.25
263.963	14.25
264.759	19.25
265.556	18.25
266.352	17.25
267.148	18.25
267.944	17.25
268.74	19.25
269.536	20.25
270.332	22.25
271.128	21.25
271.924	20.25
272.719	20.25
273.515	22.25
274.311	20.25
275.106	25.25
275.901	23.25
276.697	23.25
277.492	24.25
278.287	21.25
279.082	25.25
279.877	24.25
280.672	26.25
281.467	23.25
282.262	26.25
283.056	23.25
283.851	22.25
284.646	26.25
285.44	25.25
286.234	25.25
287.029	25.25
287.823	21.25
288.617	23.25
289.411	25.25
290.205	22.25
290.999	24.25
291.793	23.25
292.587	24.25
293.381	21.25
294.174	21.25
294.968	20.25
295.761	23.25
296.555	21.25
297.348	22.25
298.141	19.25
298.935	19.25
299.728	17.25
300.521	18.25
301.314	17.25
302.107	18.25
302.899	17.25
303.692	19.25
304.485	17.25
305.277	16.25
306.07	18.25
306.862	16.25
307.655	15.25
308.447	17.25
309.239	17.25
310.031	17.25
310.823	14.25
311.615	13.25
312.407	11.25
313.199	11.25
313.991	9.25
314.783	13.25
315.574	12.25
316.366	12.25
317.157	10.25
317.949	9.25
318.74	11.25
319.531	11.25
320.322	10.25
321.113	10.25
321.904	9.25
322.695	14.25
323.486	8.25
324.277	7.25
325.068	9.25
325.858	10.25
326.649	10.25
327.439	8.25
328.23	7.25
329.02	11.25
329.81	7.25
330.6	8.25
331.391	8.25
332.181	11.25
332.971	10.25
333.76	8.25
334.55	8.25
335.34	8.25
336.13	7.25
336.919	6.25
337.709	9.25
338.498	11.25
339.287	7.25
340.077	10.25
340.866	10.25
341.655	7.25
342.444	7.25
343.233	10.25
344.022	10.25
344.811	9.25
345.6	8.25
346.388	8.25
347.177	7.25
347.965	6.25
348.754	9.25
349.542	7.25
350.33	7.25
351.119	7.25
351.907	6.25
352.695	10.25
353.483	7.25
354.271	7.25
355.059	10.25
355.846	7.25
356.634	6.25
357.422	7.25
358.209	6.25
358.997	7.25
359.784	6.25
360.571	7.25
361.359	6.25
362.146	7.25
362.933	8.25
363.72	5.25
364.507	7.25
365.294	6.25
366.081	8.25
366.867	6.25
367.654	6.25
368.44	7.25
369.227	5.25
370.013	6.25
370.8	5.25
371.586	7.25
372.372	8.25
373.158	9.25
373.944	6.25
374.73	5.25
375.516	9.25
376.302	7.25
377.088	6.25
377.873	7.25
378.659	8.25
379.445	8.25
380.23	7.25
381.015	8.25
381.801	7.25
382.586	6.25
383.371	9.25
384.156	7.25
384.941	7.25
385.726	9.25
386.511	7.25
387.296	7.25
388.08	9.25
388.865	8.25
389.649	8.25
390.434	9.25
391.218	9.25
392.003	9.25
392.787	6.25
393.571	9.25
394.355	9.25
395.139	8.25
395.923	8.25
396.707	10.25
397.491	9.25
398.274	11.25
399.058	10.25
399.842	10.25
400.625	10.25
401.408	9.25
402.192	10.25
402.975	8.25
403.758	8.25
404.541	10.25
405.324	9.25
406.107	8.25
406.89	10.25
407.673	8.25
408.456	10.25
409.238	12.25
410.021	11.25
410.803	12.25
411.586	12.25
412.368	10.25
413.151	15.25
413.933	11.25
414.715	13.25
415.497	13.25
416.279	13.25
417.061	11.25
417.843	11.25
418.624	16.25
419.406	12.25
420.188	15.25
420.969	17.25
421.751	15.25
422.532	14.25
423.313	17.25
424.095	15.25
424.876	17.25
425.657	17.25
426.438	16.25
427.219	16.25
428	21.25
428.78	20.25
429.561	20.25
430.342	21.25
431.122	20.25
431.903	18.25
432.683	20.25
433.464	23.25
434.244	22.25
435.024	22.25
435.804	26.25
436.584	27.25
437.364	29.25
438.144	26.25
438.924	32.25
439.704	31.25
440.483	33.25
441.263	34.25
442.042	34.25
442.822	40.25
443.601	43.25
444.38	46.25
445.16	49.25
445.939	52.25
446.718	56.25
447.497	59.25
448.276	68.25
449.054	71.25
449.833	77.25
450.612	87.25
451.391	93.25
452.169	102.25
452.948	112.25
453.726	120.25
454.504	132.25
455.282	150.25
456.061	164.25
456.839	185.25
457.617	201.25
458.395	232.25
459.172	255.25
459.95	284.25
460.728	319.25
461.506	348.25
462.283	396.25
463.061	443.25
463.838	501.25
464.615	558.25
465.393	619.25
466.17	689.25
466.947	768.25
467.724	848.25
468.501	953.25
469.278	1045.25
470.055	1169.25
470.831	1291.25
471.608	1432.25
472.385	1584.25
473.161	1765.25
473.938	1951.25
474.714	2152.25
475.49	2380.25
476.266	2610.25
477.043	2887.25
477.819	3163.25
478.595	3511.25
479.371	3863.25
480.146	4238.25
480.922	4629.25
481.698	5091.25
482.473	5557.25
483.249	6091.25
484.024	6687.25
484.8	7352.25
485.575	8020.25
486.35	8776.25
487.126	9564.25
487.901	10411.25
488.676	11337.25
489.451	12308.25
490.225	13408.25
491	14544.25
491.775	15785.25
492.55	16956.25
493.324	18368.25
494.099	19643.25
494.873	20965.25
495.647	22394.25
496.422	23778.25
497.196	25296.25
497.97	26742.25
498.744	28238.25
499.518	29498.25
500.292	30731.25
501.066	31856.25
501.839	32929.25
502.613	33891.25
503.387	34613.25
504.16	35190.25
504.934	35417.25
505.707	35435.25
506.48	35350.25
507.253	35096.25
508.027	34668.25
508.8	34115.25
509.573	33306.25
510.346	32492.25
511.118	31482.25
511.891	30534.25
512.664	29440.25
513.437	28249.25
514.209	27084.25
514.982	26159.25
515.754	25046.25
516.526	23975.25
517.298	22962.25
518.071	21989.25
518.843	21081.25
519.615	20221.25
520.387	19378.25
521.159	18728.25
521.93	17975.25
522.702	17283.25
523.474	16559.25
524.245	15927.25
525.017	15127.25
525.788	14507.25
526.56	13866.25
527.331	13208.25
528.102	12607.25
528.873	11965.25
529.644	11415.25
530.415	10856.25
531.186	10355.25
531.957	9809.25
532.728	9299.25
533.498	8775.25
534.269	8281.25
535.039	7884.25
535.81	7432.25
536.58	7000.25
537.351	6608.25
538.121	6235.25
538.891	5902.25
539.661	5615.25
540.431	5305.25
541.201	4983.25
541.971	4749.25
542.741	4536.25
543.51	4288.25
544.28	4054.25
545.05	3866.25
545.819	3701.25
546.588	3493.25
547.358	3305.25
548.127	3145.25
548.896	2989.25
549.665	2838.25
550.434	2705.25
551.203	2556.25
551.972	2424.25
552.741	2281.25
553.51	2168.25
554.278	2034.25
555.047	1931.25
555.815	1815.25
556.584	1732.25
557.352	1621.25
558.121	1526.25
558.889	1440.25
559.657	1354.25
560.425	1305.25
561.193	1217.25
561.961	1147.25
562.729	1091.25
563.496	1026.25
564.264	982.25
565.032	914.25
565.799	868.25
566.567	832.25
567.334	773.25
568.101	738.25
568.869	690.25
569.636	659.25
570.403	612.25
571.17	587.25
571.937	540.25
572.704	522.25
573.471	493.25
574.237	450.25
575.004	431.25
575.771	413.25
576.537	371.25
577.303	369.25
578.07	344.25
578.836	320.25
579.602	303.25
580.368	285.25
581.134	274.25
581.9	256.25
582.666	250.25
583.432	232.25
584.198	228.25
584.964	211.25
585.729	206.25
586.495	190.25
587.26	180.25
588.025	173.25
588.791	162.25
589.556	157.25
590.321	142.25
591.086	134.25
591.851	137.25
592.616	125.25
593.381	121.25
594.146	118.25
594.911	111.25
595.675	103.25
596.44	95.25
597.204	97.25
597.969	88.25
598.733	84.25
599.497	84.25
600.261	81.25
601.025	77.25
601.79	73.25
602.553	69.25
603.317	67.25
604.081	58.25
604.845	60.25
605.609	57.25
606.372	58.25
607.136	52.25
607.899	54.25
608.662	50.25
609.426	52.25
610.189	43.25
610.952	44.25
611.715	42.25
612.478	39.25
613.241	38.25
614.004	38.25
614.767	34.25
615.529	31.25
616.292	36.25
617.055	34.25
617.817	30.25
618.579	29.25
619.342	30.25
620.104	28.25
620.866	31.25
621.628	28.25
622.39	26.25
623.152	25.25
623.914	23.25
624.676	27.25
625.438	25.25
626.199	22.25
626.961	21.25
627.722	18.25
628.484	20.25
629.245	21.25
630.006	17.25
630.768	18.25
631.529	18.25
632.29	20.25
633.051	14.25
633.812	17.25
634.573	14.25
635.333	14.25
636.094	16.25
636.855	14.25
637.615	15.25
638.376	13.25
639.136	13.25
639.896	15.25
640.657	12.25
641.417	12.25
642.177	10.25
642.937	14.25
643.697	13.25
644.457	13.25
645.216	10.25
645.976	12.25
646.736	11.25
647.495	9.25
648.255	11.25
649.014	10.25
649.774	10.25
650.533	8.25
651.292	9.25
652.051	9.25
652.81	7.25
653.569	9.25
654.328	8.25
655.087	10.25
655.846	9.25
656.604	7.25
657.363	9.25
658.121	5.25
658.88	10.25
659.638	7.25
660.397	4.25
661.155	6.25
661.913	8.25
662.671	7.25
663.429	6.25
664.187	6.25
664.945	7.25
665.703	7.25
666.46	8.25
667.218	7.25
667.976	7.25
668.733	7.25
669.49	7.25
670.248	8.25
671.005	7.25
671.762	6.25
672.519	7.25
673.276	5.25
674.033	7.25
674.79	5.25
675.547	7.25
676.304	5.25
677.06	4.25
677.817	5.25
678.574	3.25
679.33	7.25
680.086	5.25
680.843	7.25
681.599	7.25
682.355	5.25
683.111	5.25
683.867	6.25
684.623	6.25
685.379	4.25
686.135	7.25
686.89	6.25
687.646	7.25
688.402	4.25
689.157	3.25
689.912	5.25
690.668	5.25
691.423	6.25
692.178	6.25
692.933	5.25
693.688	4.25
694.443	4.25
695.198	5.25
695.953	5.25
696.708	5.25
697.462	6.25
698.217	3.25
698.972	4.25
699.726	4.25
700.48	2.25
701.235	4.25
701.989	4.25
702.743	7.25
703.497	5.25
704.251	5.25
705.005	6.25
705.759	6.25
706.513	7.25
707.266	7.25
708.02	3.25
708.774	3.25
709.527	4.25
710.28	4.25
711.034	5.25
711.787	4.25
712.54	4.25
713.293	4.25
714.046	4.25
714.799	7.25
715.552	5.25
716.305	2.25
717.058	8.25
717.81	5.25
718.563	2.25
719.315	6.25
720.068	5.25
720.82	4.25
721.573	4.25
722.325	5.25
723.077	6.25
723.829	7.25
724.581	5.25
725.333	5.25
726.085	4.25
726.836	4.25
727.588	7.25
728.34	6.25
729.091	5.25
729.843	6.25
730.594	8.25
731.346	6.25
732.097	7.25
732.848	5.25
733.599	4.25
734.35	6.25
735.101	7.25
735.852	4.25
736.603	5.25
737.354	7.25
738.104	5.25
738.855	6.25
739.605	6.25
740.356	6.25
741.106	4.25
741.856	8.25
742.607	7.25
743.357	6.25
744.107	8.25
744.857	6.25
745.607	6.25
746.357	7.25
747.106	5.25
747.856	7.25
748.606	4.25
749.355	7.25
750.105	4.25
750.854	8.25
751.603	7.25
752.353	5.25
753.102	8.25
753.851	9.25
754.6	9.25
755.349	6.25
756.098	8.25
756.847	9.25
757.595	9.25
758.344	7.25
759.093	7.25
759.841	11.25
760.589	9.25
761.338	9.25
762.086	8.25
762.834	8.25
763.582	7.25
764.331	8.25
765.079	8.25
765.826	9.25
766.574	6.25
767.322	9.25
768.07	10.25
768.817	9.25
769.565	10.25
770.312	8.25
771.06	10.25
771.807	10.25
772.554	12.25
773.302	10.25
774.049	9.25
774.796	8.25
775.543	11.25
776.29	11.25
777.036	10.25
777.783	11.25
778.53	10.25
779.276	9.25
780.023	11.25
780.769	10.25
781.516	10.25
782.262	12.25
783.008	15.25
783.754	11.25
784.5	12.25
785.246	12.25
785.992	10.25
786.738	10.25
787.484	13.25
788.23	11.25
788.975	10.25
789.721	9.25
790.466	10.25
791.212	10.25
791.957	8.25
792.702	10.25
793.447	11.25
794.193	12.25
794.938	10.25
795.683	10.25
796.427	12.25
797.172	10.25
797.917	8.25
798.662	11.25
799.406	8.25
800.151	11.25
800.895	9.25
801.64	8.25
802.384	8.25
803.128	8.25
803.872	8.25
804.616	8.25
805.36	7.25
806.104	7.25
806.848	7.25
807.592	8.25
808.336	8.25
809.079	7.25
809.823	8.25
810.566	7.25
811.31	7.25
812.053	6.25
812.796	7.25
813.539	5.25
814.283	5.25
815.026	7.25
815.769	6.25
816.511	5.25
817.254	9.25
817.997	6.25
818.74	7.25
819.482	7.25
820.225	4.25
820.967	6.25
821.71	6.25
822.452	5.25
823.194	5.25
823.936	3.25
824.678	7.25
825.42	6.25
826.162	6.25
826.904	6.25
827.646	6.25
828.388	4.25
829.129	4.25
829.871	7.25
830.612	5.25
831.354	4.25
832.095	7.25
832.836	3.25
833.577	4.25
834.319	3.25
835.06	4.25
835.801	2.25
836.542	6.25
837.282	4.25
838.023	2.25
838.764	4.25
839.504	4.25
840.245	2.25
840.985	3.25
841.726	6.25
842.466	4.25
843.206	3.25
843.946	5.25
844.687	2.25
845.427	4.25
846.166	4.25
846.906	2.25
847.646	4.25
848.386	4.25
849.125	3.25
849.865	2.25
850.605	2.25
851.344	3.25
852.083	3.25
852.823	4.25
853.562	2.25
854.301	5.25
855.04	5.25
855.779	2.25
856.518	4.25
857.257	3.25
857.995	4.25
858.734	2.25
859.473	3.25
860.211	2.25
860.95	4.25
861.688	6.25
862.426	4.25
863.165	0.25
863.903	0.25
864.641	0.25
865.379	2.25
866.117	1.25
866.855	0.25
867.593	3.25
868.33	3.25
869.068	1.25
869.806	0.25
870.543	1.25
871.28	2.25
872.018	2.25
872.755	4.25
873.492	1.25
874.229	2.25
874.967	2.25
875.703	1.25
876.44	2.25
877.177	1.25
877.914	1.25
878.651	-0.75
879.387	3.25
880.124	0.25
880.86	1.25
881.597	0.25
882.333	-0.75
883.069	2.25
883.806	0.25
884.542	1.25
885.278	2.25
886.014	2.25
886.749	1.25
887.485	2.25
888.221	3.25
888.957	0.25
889.692	0.25
890.428	2.25
891.163	1.25
891.899	1.25
892.634	0.25
893.369	1.25
894.104	-0.75
894.839	-0.75
895.574	0.25
896.309	0.25
897.044	3.25
897.779	1.25
898.514	2.25
899.248	1.25
899.983	1.25
900.717	0.25
901.452	1.25
902.186	2.25
902.92	0.25
903.654	1.25
904.389	0.25
905.123	1.25
905.857	1.25
906.59	0.25
907.324	0.25
908.058	0.25
908.792	1.25
909.525	2.25
910.259	0.25
910.992	2.25
911.726	0.25
912.459	1.25
913.192	1.25
913.925	-0.75
914.658	0.25
915.391	0.25
916.124	0.25
916.857	0.25
917.59	0.25
918.323	-0.75
919.055	0.25
919.788	0.25
920.521	1.25
921.253	0.25
921.985	0.25
922.718	-0.75
923.45	1.25
924.182	-1.75
924.914	0.25
925.646	0.25
926.378	-0.75
927.11	0.25
927.841	1.25
928.573	-0.75
929.305	0.25
930.036	-0.75
930.768	2.25
931.499	-0.75
932.23	1.25
932.962	-1.75
933.693	0.25
934.424	1.25
935.155	2.25
935.886	0.25
936.617	-0.75
937.348	0.25
938.078	0.25
938.809	1.25
939.54	-0.75
940.27	1.25
941.001	2.25
941.731	0.25
942.461	2.25
943.191	0.25
943.922	1.25
944.652	1.25
945.382	1.25
946.112	1.25
946.841	0.25
947.571	-1.75
948.301	0.25
949.031	-0.75
949.76	1.25
950.49	2.25
951.219	1.25
951.948	-0.75
952.678	-0.75
953.407	0.25
954.136	-2.75
954.865	1.25
955.594	1.25
956.323	3.25
957.052	-1.75
957.78	-0.75
958.509	-0.75
959.238	-0.75
959.966	-0.75
960.695	0.25
961.423	1.25
962.151	1.25
962.88	0.25
963.608	0.25
964.336	0.25
965.064	1.25
965.792	0.25
966.52	0.25
967.247	1.25
967.975	-0.75
968.703	-0.75
969.43	0.25
970.158	0.25
970.885	0.25
971.613	0.25
972.34	0.25
973.067	0.25
973.794	3.25
974.521	0.25
975.248	0.25
975.975	1.25
976.702	-0.75
977.429	3.25
978.156	1.25
978.882	-1.75
979.609	-0.75
980.335	1.25
981.062	0.25
981.788	-1.75
982.514	1.25
983.24	0.25
983.967	-0.75
984.693	-0.75
985.419	-0.75
986.144	0.25
986.87	-1.75
987.596	0.25
988.322	0.25
989.047	0.25
989.773	0.25
990.498	0.25
991.224	1.25
991.949	0.25
992.674	-0.75
993.399	-1.75
994.124	0.25
994.849	0.25
995.574	0.25
996.299	2.25
997.024	0.25
997.749	0.25
998.473	2.25
999.198	-0.75
999.922	1.25
1000.647	2.25
1001.371	2.25
1002.095	-3.75
1002.82	-0.75
1003.544	0.25
1004.268	4.25
1004.992	0.25
1005.716	2.25
1006.439	2.25
1007.163	1.25
1007.887	2.25
1008.611	0.25
1009.334	3.25
1010.058	1.25
1010.781	0.25
1011.504	1.25
1012.228	-1.75
1012.951	1.25
1013.674	-0.75
1014.397	0.25
1015.12	1.25
