节点500_425_QEPB04081__382__15-54-39-741.txt的数据

Date: Wed Nov 12 15:54:39 CST 2025
User: PC
Spectrometer: QEPB0408
触发模式: 0
积分时间 (秒): 1.000000E-2
Scans to average: 1
启用暗噪声校正: true
启用非线性校正: false
滑动平均宽度: 0
X轴模式: Wavelengths
Number of Pixels in Spectrum: 1044
>>>>>Begin Spectral Data<<<<<
220.843	2.75
221.644	2.75
222.444	2.75
223.244	0.75
224.045	-1.25
224.845	3.75
225.645	2.75
226.445	2.75
227.245	2.75
228.045	0.75
228.845	4.75
229.645	3.75
230.444	4.75
231.244	3.75
232.043	2.75
232.843	4.75
233.642	2.75
234.442	5.75
235.241	2.75
236.04	3.75
236.839	7.75
237.638	3.75
238.437	5.75
239.236	4.75
240.035	3.75
240.833	6.75
241.632	6.75
242.43	6.75
243.229	6.75
244.027	6.75
244.826	9.75
245.624	7.75
246.422	7.75
247.22	6.75
248.018	5.75
248.816	7.75
249.614	8.75
250.412	5.75
251.21	8.75
252.007	9.75
252.805	7.75
253.602	10.75
254.4	10.75
255.197	10.75
255.994	12.75
256.791	11.75
257.589	13.75
258.386	11.75
259.183	11.75
259.979	15.75
260.776	12.75
261.573	15.75
262.37	12.75
263.166	15.75
263.963	18.75
264.759	15.75
265.556	16.75
266.352	15.75
267.148	14.75
267.944	16.75
268.74	20.75
269.536	21.75
270.332	16.75
271.128	20.75
271.924	17.75
272.719	20.75
273.515	19.75
274.311	20.75
275.106	23.75
275.901	19.75
276.697	24.75
277.492	24.75
278.287	23.75
279.082	22.75
279.877	22.75
280.672	23.75
281.467	24.75
282.262	22.75
283.056	21.75
283.851	21.75
284.646	24.75
285.44	24.75
286.234	22.75
287.029	24.75
287.823	25.75
288.617	24.75
289.411	24.75
290.205	23.75
290.999	24.75
291.793	22.75
292.587	19.75
293.381	21.75
294.174	22.75
294.968	17.75
295.761	19.75
296.555	17.75
297.348	20.75
298.141	18.75
298.935	20.75
299.728	17.75
300.521	16.75
301.314	15.75
302.107	17.75
302.899	17.75
303.692	16.75
304.485	13.75
305.277	15.75
306.07	13.75
306.862	15.75
307.655	16.75
308.447	11.75
309.239	14.75
310.031	14.75
310.823	12.75
311.615	11.75
312.407	12.75
313.199	15.75
313.991	12.75
314.783	11.75
315.574	9.75
316.366	9.75
317.157	10.75
317.949	8.75
318.74	11.75
319.531	9.75
320.322	10.75
321.113	10.75
321.904	7.75
322.695	8.75
323.486	6.75
324.277	7.75
325.068	7.75
325.858	8.75
326.649	10.75
327.439	7.75
328.23	9.75
329.02	7.75
329.81	9.75
330.6	7.75
331.391	10.75
332.181	8.75
332.971	9.75
333.76	9.75
334.55	9.75
335.34	5.75
336.13	8.75
336.919	7.75
337.709	8.75
338.498	7.75
339.287	8.75
340.077	9.75
340.866	8.75
341.655	6.75
342.444	8.75
343.233	9.75
344.022	8.75
344.811	9.75
345.6	7.75
346.388	5.75
347.177	9.75
347.965	4.75
348.754	7.75
349.542	6.75
350.33	6.75
351.119	6.75
351.907	6.75
352.695	7.75
353.483	7.75
354.271	6.75
355.059	7.75
355.846	4.75
356.634	5.75
357.422	6.75
358.209	5.75
358.997	7.75
359.784	5.75
360.571	6.75
361.359	7.75
362.146	8.75
362.933	4.75
363.72	8.75
364.507	3.75
365.294	4.75
366.081	6.75
366.867	4.75
367.654	4.75
368.44	7.75
369.227	4.75
370.013	6.75
370.8	5.75
371.586	4.75
372.372	5.75
373.158	6.75
373.944	5.75
374.73	4.75
375.516	5.75
376.302	5.75
377.088	6.75
377.873	7.75
378.659	7.75
379.445	6.75
380.23	5.75
381.015	4.75
381.801	5.75
382.586	7.75
383.371	7.75
384.156	4.75
384.941	5.75
385.726	6.75
386.511	7.75
387.296	6.75
388.08	5.75
388.865	5.75
389.649	7.75
390.434	7.75
391.218	6.75
392.003	7.75
392.787	7.75
393.571	8.75
394.355	7.75
395.139	9.75
395.923	8.75
396.707	9.75
397.491	7.75
398.274	6.75
399.058	8.75
399.842	6.75
400.625	7.75
401.408	6.75
402.192	7.75
402.975	9.75
403.758	9.75
404.541	8.75
405.324	8.75
406.107	10.75
406.89	8.75
407.673	9.75
408.456	11.75
409.238	11.75
410.021	10.75
410.803	9.75
411.586	8.75
412.368	9.75
413.151	11.75
413.933	10.75
414.715	10.75
415.497	11.75
416.279	11.75
417.061	11.75
417.843	12.75
418.624	14.75
419.406	9.75
420.188	12.75
420.969	13.75
421.751	15.75
422.532	16.75
423.313	14.75
424.095	12.75
424.876	13.75
425.657	14.75
426.438	15.75
427.219	16.75
428	19.75
428.78	15.75
429.561	17.75
430.342	19.75
431.122	18.75
431.903	20.75
432.683	21.75
433.464	24.75
434.244	21.75
435.024	23.75
435.804	25.75
436.584	22.75
437.364	27.75
438.144	27.75
438.924	32.75
439.704	29.75
440.483	30.75
441.263	34.75
442.042	35.75
442.822	37.75
443.601	41.75
444.38	46.75
445.16	49.75
445.939	53.75
446.718	61.75
447.497	57.75
448.276	69.75
449.054	74.75
449.833	79.75
450.612	89.75
451.391	94.75
452.169	98.75
452.948	118.75
453.726	127.75
454.504	139.75
455.282	150.75
456.061	173.75
456.839	192.75
457.617	211.75
458.395	235.75
459.172	253.75
459.95	287.75
460.728	317.75
461.506	361.75
462.283	411.75
463.061	451.75
463.838	515.75
464.615	572.75
465.393	620.75
466.17	708.75
466.947	781.75
467.724	867.75
468.501	964.75
469.278	1084.75
470.055	1178.75
470.831	1300.75
471.608	1454.75
472.385	1599.75
473.161	1762.75
473.938	1953.75
474.714	2152.75
475.49	2383.75
476.266	2600.75
477.043	2878.75
477.819	3144.75
478.595	3463.75
479.371	3822.75
480.146	4155.75
480.922	4551.75
481.698	4993.75
482.473	5457.75
483.249	5984.75
484.024	6520.75
484.8	7141.75
485.575	7763.75
486.35	8453.75
487.126	9194.75
487.901	9990.75
488.676	10915.75
489.451	11847.75
490.225	12846.75
491	13906.75
491.775	15039.75
492.55	16202.75
493.324	17421.75
494.099	18638.75
494.873	19901.75
495.647	21312.75
496.422	22645.75
497.196	23976.75
497.97	25482.75
498.744	26811.75
499.518	28188.75
500.292	29359.75
501.066	30443.75
501.839	31583.75
502.613	32565.75
503.387	33284.75
504.16	33911.75
504.934	34240.75
505.707	34436.75
506.48	34379.75
507.253	34210.75
508.027	33856.75
508.8	33436.75
509.573	32863.75
510.346	32093.75
511.118	31313.75
511.891	30346.75
512.664	29336.75
513.437	28223.75
514.209	27123.75
514.982	26159.75
515.754	25053.75
516.526	24020.75
517.298	23043.75
518.071	22119.75
518.843	21205.75
519.615	20339.75
520.387	19464.75
521.159	18779.75
521.93	18052.75
522.702	17366.75
523.474	16675.75
524.245	16003.75
525.017	15256.75
525.788	14609.75
526.56	13977.75
527.331	13324.75
528.102	12731.75
528.873	12113.75
529.644	11595.75
530.415	10999.75
531.186	10528.75
531.957	9968.75
532.728	9430.75
533.498	8952.75
534.269	8460.75
535.039	7989.75
535.81	7550.75
536.58	7141.75
537.351	6729.75
538.121	6367.75
538.891	6002.75
539.661	5738.75
540.431	5431.75
541.201	5107.75
541.971	4873.75
542.741	4636.75
543.51	4373.75
544.28	4151.75
545.05	3956.75
545.819	3769.75
546.588	3597.75
547.358	3408.75
548.127	3219.75
548.896	3061.75
549.665	2909.75
550.434	2770.75
551.203	2631.75
551.972	2476.75
552.741	2365.75
553.51	2223.75
554.278	2093.75
555.047	1970.75
555.815	1884.75
556.584	1755.75
557.352	1655.75
558.121	1568.75
558.889	1486.75
559.657	1421.75
560.425	1324.75
561.193	1254.75
561.961	1191.75
562.729	1130.75
563.496	1061.75
564.264	1008.75
565.032	946.75
565.799	900.75
566.567	843.75
567.334	803.75
568.101	750.75
568.869	712.75
569.636	675.75
570.403	630.75
571.17	595.75
571.937	561.75
572.704	539.75
573.471	499.75
574.237	475.75
575.004	449.75
575.771	425.75
576.537	400.75
577.303	376.75
578.07	356.75
578.836	328.75
579.602	317.75
580.368	306.75
581.134	287.75
581.9	267.75
582.666	243.75
583.432	239.75
584.198	237.75
584.964	218.75
585.729	205.75
586.495	197.75
587.26	185.75
588.025	178.75
588.791	167.75
589.556	153.75
590.321	144.75
591.086	141.75
591.851	137.75
592.616	128.75
593.381	121.75
594.146	117.75
594.911	109.75
595.675	105.75
596.44	101.75
597.204	99.75
597.969	89.75
598.733	86.75
599.497	80.75
600.261	81.75
601.025	77.75
601.79	73.75
602.553	67.75
603.317	68.75
604.081	63.75
604.845	64.75
605.609	55.75
606.372	56.75
607.136	53.75
607.899	54.75
608.662	47.75
609.426	51.75
610.189	44.75
610.952	44.75
611.715	42.75
612.478	41.75
613.241	40.75
614.004	40.75
614.767	37.75
615.529	35.75
616.292	31.75
617.055	32.75
617.817	31.75
618.579	30.75
619.342	29.75
620.104	27.75
620.866	28.75
621.628	26.75
622.39	25.75
623.152	28.75
623.914	24.75
624.676	25.75
625.438	21.75
626.199	23.75
626.961	18.75
627.722	21.75
628.484	20.75
629.245	19.75
630.006	18.75
630.768	15.75
631.529	19.75
632.29	17.75
633.051	15.75
633.812	15.75
634.573	15.75
635.333	13.75
636.094	16.75
636.855	14.75
637.615	14.75
638.376	16.75
639.136	11.75
639.896	12.75
640.657	14.75
641.417	12.75
642.177	13.75
642.937	11.75
643.697	12.75
644.457	11.75
645.216	9.75
645.976	8.75
646.736	11.75
647.495	10.75
648.255	11.75
649.014	9.75
649.774	8.75
650.533	9.75
651.292	9.75
652.051	8.75
652.81	9.75
653.569	11.75
654.328	9.75
655.087	8.75
655.846	9.75
656.604	6.75
657.363	6.75
658.121	6.75
658.88	7.75
659.638	6.75
660.397	8.75
661.155	7.75
661.913	8.75
662.671	5.75
663.429	6.75
664.187	6.75
664.945	6.75
665.703	3.75
666.46	5.75
667.218	4.75
667.976	8.75
668.733	6.75
669.49	4.75
670.248	6.75
671.005	5.75
671.762	6.75
672.519	5.75
673.276	6.75
674.033	5.75
674.79	4.75
675.547	3.75
676.304	3.75
677.06	5.75
677.817	6.75
678.574	6.75
679.33	4.75
680.086	3.75
680.843	6.75
681.599	4.75
682.355	3.75
683.111	6.75
683.867	3.75
684.623	5.75
685.379	4.75
686.135	6.75
686.89	4.75
687.646	5.75
688.402	1.75
689.157	3.75
689.912	6.75
690.668	3.75
691.423	4.75
692.178	5.75
692.933	5.75
693.688	7.75
694.443	2.75
695.198	5.75
695.953	3.75
696.708	4.75
697.462	4.75
698.217	4.75
698.972	4.75
699.726	3.75
700.48	4.75
701.235	4.75
701.989	5.75
702.743	3.75
703.497	3.75
704.251	5.75
705.005	2.75
705.759	5.75
706.513	4.75
707.266	2.75
708.02	7.75
708.774	2.75
709.527	5.75
710.28	4.75
711.034	5.75
711.787	2.75
712.54	2.75
713.293	2.75
714.046	1.75
714.799	3.75
715.552	4.75
716.305	4.75
717.058	4.75
717.81	5.75
718.563	4.75
719.315	3.75
720.068	4.75
720.82	4.75
721.573	4.75
722.325	4.75
723.077	5.75
723.829	4.75
724.581	3.75
725.333	3.75
726.085	4.75
726.836	4.75
727.588	3.75
728.34	3.75
729.091	4.75
729.843	5.75
730.594	5.75
731.346	3.75
732.097	7.75
732.848	3.75
733.599	4.75
734.35	6.75
735.101	5.75
735.852	1.75
736.603	7.75
737.354	6.75
738.104	5.75
738.855	4.75
739.605	5.75
740.356	6.75
741.106	6.75
741.856	6.75
742.607	7.75
743.357	4.75
744.107	5.75
744.857	4.75
745.607	5.75
746.357	5.75
747.106	3.75
747.856	4.75
748.606	5.75
749.355	8.75
750.105	5.75
750.854	6.75
751.603	6.75
752.353	5.75
753.102	7.75
753.851	4.75
754.6	6.75
755.349	7.75
756.098	6.75
756.847	8.75
757.595	6.75
758.344	7.75
759.093	6.75
759.841	7.75
760.589	6.75
761.338	9.75
762.086	6.75
762.834	5.75
763.582	9.75
764.331	6.75
765.079	8.75
765.826	8.75
766.574	9.75
767.322	8.75
768.07	7.75
768.817	9.75
769.565	9.75
770.312	8.75
771.06	11.75
771.807	8.75
772.554	12.75
773.302	9.75
774.049	9.75
774.796	7.75
775.543	7.75
776.29	9.75
777.036	11.75
777.783	9.75
778.53	10.75
779.276	10.75
780.023	10.75
780.769	9.75
781.516	11.75
782.262	10.75
783.008	9.75
783.754	9.75
784.5	8.75
785.246	11.75
785.992	9.75
786.738	10.75
787.484	8.75
788.23	10.75
788.975	10.75
789.721	8.75
790.466	10.75
791.212	10.75
791.957	10.75
792.702	9.75
793.447	9.75
794.193	9.75
794.938	9.75
795.683	8.75
796.427	11.75
797.172	11.75
797.917	9.75
798.662	7.75
799.406	8.75
800.151	9.75
800.895	9.75
801.64	8.75
802.384	7.75
803.128	6.75
803.872	8.75
804.616	8.75
805.36	4.75
806.104	6.75
806.848	6.75
807.592	6.75
808.336	4.75
809.079	8.75
809.823	7.75
810.566	5.75
811.31	7.75
812.053	7.75
812.796	1.75
813.539	7.75
814.283	6.75
815.026	7.75
815.769	5.75
816.511	3.75
817.254	5.75
817.997	4.75
818.74	5.75
819.482	4.75
820.225	3.75
820.967	6.75
821.71	4.75
822.452	6.75
823.194	3.75
823.936	4.75
824.678	4.75
825.42	2.75
826.162	4.75
826.904	3.75
827.646	7.75
828.388	4.75
829.129	6.75
829.871	2.75
830.612	2.75
831.354	4.75
832.095	3.75
832.836	4.75
833.577	5.75
834.319	3.75
835.06	3.75
835.801	4.75
836.542	4.75
837.282	6.75
838.023	3.75
838.764	1.75
839.504	2.75
840.245	3.75
840.985	4.75
841.726	4.75
842.466	2.75
843.206	3.75
843.946	4.75
844.687	1.75
845.427	4.75
846.166	3.75
846.906	2.75
847.646	5.75
848.386	0.75
849.125	4.75
849.865	1.75
850.605	3.75
851.344	1.75
852.083	2.75
852.823	2.75
853.562	1.75
854.301	3.75
855.04	0.75
855.779	3.75
856.518	3.75
857.257	3.75
857.995	3.75
858.734	3.75
859.473	2.75
860.211	3.75
860.95	3.75
861.688	2.75
862.426	2.75
863.165	3.75
863.903	1.75
864.641	2.75
865.379	1.75
866.117	-0.25
866.855	3.75
867.593	1.75
868.33	1.75
869.068	2.75
869.806	1.75
870.543	1.75
871.28	1.75
872.018	0.75
872.755	0.75
873.492	0.75
874.229	0.75
874.967	-0.25
875.703	-0.25
876.44	1.75
877.177	2.75
877.914	1.75
878.651	0.75
879.387	1.75
880.124	-0.25
880.86	-0.25
881.597	-0.25
882.333	-1.25
883.069	1.75
883.806	2.75
884.542	-0.25
885.278	1.75
886.014	1.75
886.749	0.75
887.485	2.75
888.221	0.75
888.957	-0.25
889.692	0.75
890.428	0.75
891.163	2.75
891.899	1.75
892.634	0.75
893.369	-2.25
894.104	-0.25
894.839	0.75
895.574	-0.25
896.309	0.75
897.044	-0.25
897.779	-2.25
898.514	1.75
899.248	-2.25
899.983	0.75
900.717	-1.25
901.452	-1.25
902.186	-0.25
902.92	-2.25
903.654	0.75
904.389	0.75
905.123	0.75
905.857	0.75
906.59	-0.25
907.324	1.75
908.058	-0.25
908.792	-0.25
909.525	-0.25
910.259	-1.25
910.992	1.75
911.726	-1.25
912.459	-0.25
913.192	0.75
913.925	-1.25
914.658	-1.25
915.391	-0.25
916.124	-0.25
916.857	-0.25
917.59	1.75
918.323	-2.25
919.055	-2.25
919.788	0.75
920.521	-0.25
921.253	1.75
921.985	0.75
922.718	-0.25
923.45	0.75
924.182	-1.25
924.914	1.75
925.646	-2.25
926.378	-0.25
927.11	-1.25
927.841	-2.25
928.573	-0.25
929.305	-1.25
930.036	0.75
930.768	0.75
931.499	-0.25
932.23	0.75
932.962	-0.25
933.693	2.75
934.424	-0.25
935.155	-1.25
935.886	-2.25
936.617	-0.25
937.348	-0.25
938.078	-0.25
938.809	-0.25
939.54	-1.25
940.27	0.75
941.001	-1.25
941.731	1.75
942.461	1.75
943.191	-1.25
943.922	0.75
944.652	-0.25
945.382	-3.25
946.112	1.75
946.841	-1.25
947.571	-0.25
948.301	-0.25
949.031	-1.25
949.76	0.75
950.49	-0.25
951.219	-0.25
951.948	0.75
952.678	-0.25
953.407	-2.25
954.136	-1.25
954.865	0.75
955.594	-0.25
956.323	-1.25
957.052	-0.25
957.78	-1.25
958.509	-0.25
959.238	1.75
959.966	-1.25
960.695	-1.25
961.423	0.75
962.151	-0.25
962.88	-0.25
963.608	1.75
964.336	0.75
965.064	-0.25
965.792	0.75
966.52	-0.25
967.247	-0.25
967.975	-0.25
968.703	1.75
969.43	-3.25
970.158	-0.25
970.885	-0.25
971.613	-1.25
972.34	0.75
973.067	0.75
973.794	-2.25
974.521	-1.25
975.248	0.75
975.975	-2.25
976.702	1.75
977.429	1.75
978.156	-0.25
978.882	0.75
979.609	-0.25
980.335	-0.25
981.062	-1.25
981.788	-2.25
982.514	-0.25
983.24	-0.25
983.967	1.75
984.693	-2.25
985.419	-1.25
986.144	-0.25
986.87	-0.25
987.596	1.75
988.322	1.75
989.047	2.75
989.773	0.75
990.498	-0.25
991.224	-0.25
991.949	-0.25
992.674	-1.25
993.399	-2.25
994.124	-1.25
994.849	0.75
995.574	-0.25
996.299	3.75
997.024	-0.25
997.749	-2.25
998.473	0.75
999.198	-0.25
999.922	1.75
1000.647	-0.25
1001.371	2.75
1002.095	-0.25
1002.82	-1.25
1003.544	0.75
1004.268	1.75
1004.992	1.75
1005.716	3.75
1006.439	3.75
1007.163	2.75
1007.887	4.75
1008.611	-0.25
1009.334	-0.25
1010.058	0.75
1010.781	0.75
1011.504	-1.25
1012.228	1.75
1012.951	0.75
1013.674	-1.25
1014.397	-0.25
1015.12	-1.25
