节点500_425_QEPB04081__21__15-48-42-441.txt的数据

Date: Wed Nov 12 15:48:42 CST 2025
User: PC
Spectrometer: QEPB0408
触发模式: 0
积分时间 (秒): 1.000000E-2
Scans to average: 1
启用暗噪声校正: true
启用非线性校正: false
滑动平均宽度: 0
X轴模式: Wavelengths
Number of Pixels in Spectrum: 1044
>>>>>Begin Spectral Data<<<<<
220.843	1
221.644	2
222.444	4
223.244	2
224.045	5
224.845	4
225.645	3
226.445	5
227.245	5
228.045	5
228.845	4
229.645	4
230.444	4
231.244	5
232.043	3
232.843	4
233.642	6
234.442	6
235.241	6
236.04	6
236.839	7
237.638	7
238.437	5
239.236	6
240.035	7
240.833	7
241.632	6
242.43	6
243.229	11
244.027	7
244.826	8
245.624	8
246.422	9
247.22	9
248.018	9
248.816	10
249.614	8
250.412	10
251.21	10
252.007	10
252.805	8
253.602	15
254.4	13
255.197	13
255.994	10
256.791	13
257.589	17
258.386	11
259.183	16
259.979	16
260.776	18
261.573	14
262.37	19
263.166	16
263.963	18
264.759	21
265.556	19
266.352	20
267.148	19
267.944	21
268.74	21
269.536	21
270.332	23
271.128	20
271.924	23
272.719	24
273.515	23
274.311	24
275.106	27
275.901	25
276.697	24
277.492	26
278.287	28
279.082	24
279.877	26
280.672	24
281.467	28
282.262	26
283.056	27
283.851	26
284.646	28
285.44	25
286.234	24
287.029	28
287.823	24
288.617	26
289.411	24
290.205	26
290.999	24
291.793	23
292.587	24
293.381	20
294.174	21
294.968	24
295.761	20
296.555	20
297.348	19
298.141	18
298.935	19
299.728	17
300.521	18
301.314	18
302.107	19
302.899	14
303.692	18
304.485	18
305.277	16
306.07	16
306.862	15
307.655	14
308.447	16
309.239	14
310.031	14
310.823	13
311.615	14
312.407	14
313.199	10
313.991	10
314.783	13
315.574	11
316.366	11
317.157	10
317.949	10
318.74	10
319.531	7
320.322	9
321.113	11
321.904	11
322.695	10
323.486	11
324.277	10
325.068	9
325.858	9
326.649	11
327.439	8
328.23	9
329.02	11
329.81	6
330.6	7
331.391	9
332.181	8
332.971	6
333.76	10
334.55	10
335.34	8
336.13	7
336.919	7
337.709	5
338.498	10
339.287	6
340.077	10
340.866	8
341.655	9
342.444	10
343.233	9
344.022	9
344.811	8
345.6	7
346.388	10
347.177	9
347.965	11
348.754	6
349.542	8
350.33	7
351.119	8
351.907	8
352.695	9
353.483	7
354.271	9
355.059	8
355.846	7
356.634	7
357.422	7
358.209	8
358.997	7
359.784	6
360.571	8
361.359	6
362.146	7
362.933	4
363.72	8
364.507	7
365.294	5
366.081	8
366.867	6
367.654	7
368.44	5
369.227	6
370.013	8
370.8	5
371.586	7
372.372	8
373.158	9
373.944	9
374.73	7
375.516	7
376.302	6
377.088	8
377.873	9
378.659	9
379.445	8
380.23	6
381.015	8
381.801	7
382.586	10
383.371	10
384.156	7
384.941	10
385.726	9
386.511	9
387.296	8
388.08	7
388.865	8
389.649	9
390.434	10
391.218	7
392.003	8
392.787	8
393.571	7
394.355	9
395.139	10
395.923	9
396.707	9
397.491	10
398.274	7
399.058	9
399.842	10
400.625	8
401.408	10
402.192	12
402.975	8
403.758	9
404.541	12
405.324	10
406.107	10
406.89	12
407.673	11
408.456	10
409.238	11
410.021	11
410.803	12
411.586	12
412.368	13
413.151	11
413.933	9
414.715	14
415.497	14
416.279	10
417.061	12
417.843	11
418.624	13
419.406	14
420.188	17
420.969	14
421.751	15
422.532	16
423.313	14
424.095	17
424.876	17
425.657	15
426.438	18
427.219	15
428	17
428.78	17
429.561	21
430.342	18
431.122	20
431.903	21
432.683	20
433.464	19
434.244	23
435.024	27
435.804	28
436.584	30
437.364	27
438.144	27
438.924	32
439.704	31
440.483	34
441.263	36
442.042	37
442.822	38
443.601	39
444.38	43
445.16	48
445.939	49
446.718	54
447.497	56
448.276	60
449.054	66
449.833	70
450.612	76
451.391	85
452.169	94
452.948	103
453.726	109
454.504	121
455.282	141
456.061	149
456.839	168
457.617	189
458.395	207
459.172	228
459.95	256
460.728	281
461.506	315
462.283	358
463.061	410
463.838	457
464.615	515
465.393	567
466.17	641
466.947	713
467.724	798
468.501	884
469.278	993
470.055	1112
470.831	1225
471.608	1379
472.385	1542
473.161	1723
473.938	1889
474.714	2110
475.49	2342
476.266	2581
477.043	2877
477.819	3191
478.595	3547
479.371	3917
480.146	4345
480.922	4782
481.698	5308
482.473	5841
483.249	6436
484.024	7124
484.8	7850
485.575	8579
486.35	9465
487.126	10375
487.901	11400
488.676	12515
489.451	13634
490.225	14882
491	16227
491.775	17689
492.55	19076
493.324	20587
494.099	22125
494.873	23579
495.647	25327
496.422	26839
497.196	28474
497.97	30150
498.744	31629
499.518	33061
500.292	34312
501.066	35350
501.839	36352
502.613	37156
503.387	37678
504.16	37937
504.934	38017
505.707	37848
506.48	37286
507.253	36715
508.027	36002
508.8	35146
509.573	34041
510.346	33015
511.118	31781
511.891	30605
512.664	29209
513.437	28010
514.209	26746
514.982	25618
515.754	24491
516.526	23398
517.298	22382
518.071	21439
518.843	20605
519.615	19728
520.387	18963
521.159	18214
521.93	17577
522.702	16873
523.474	16211
524.245	15470
525.017	14742
525.788	14060
526.56	13424
527.331	12754
528.102	12124
528.873	11536
529.644	10886
530.415	10418
531.186	9861
531.957	9304
532.728	8763
533.498	8266
534.269	7810
535.039	7380
535.81	6957
536.58	6559
537.351	6201
538.121	5853
538.891	5571
539.661	5254
540.431	4970
541.201	4708
541.971	4476
542.741	4238
543.51	4037
544.28	3808
545.05	3646
545.819	3466
546.588	3309
547.358	3124
548.127	2967
548.896	2788
549.665	2670
550.434	2521
551.203	2373
551.972	2237
552.741	2122
553.51	2009
554.278	1889
555.047	1778
555.815	1678
556.584	1589
557.352	1479
558.121	1402
558.889	1339
559.657	1264
560.425	1189
561.193	1117
561.961	1057
562.729	1004
563.496	950
564.264	892
565.032	852
565.799	804
566.567	764
567.334	725
568.101	674
568.869	640
569.636	600
570.403	574
571.17	535
571.937	508
572.704	481
573.471	457
574.237	423
575.004	403
575.771	376
576.537	352
577.303	335
578.07	321
578.836	294
579.602	275
580.368	264
581.134	253
581.9	241
582.666	225
583.432	219
584.198	208
584.964	195
585.729	187
586.495	173
587.26	165
588.025	152
588.791	148
589.556	142
590.321	137
591.086	124
591.851	124
592.616	115
593.381	108
594.146	105
594.911	100
595.675	94
596.44	90
597.204	87
597.969	82
598.733	79
599.497	74
600.261	72
601.025	68
601.79	65
602.553	65
603.317	59
604.081	62
604.845	52
605.609	57
606.372	52
607.136	47
607.899	50
608.662	47
609.426	44
610.189	42
610.952	41
611.715	38
612.478	38
613.241	39
614.004	37
614.767	35
615.529	33
616.292	37
617.055	29
617.817	31
618.579	28
619.342	28
620.104	26
620.866	27
621.628	26
622.39	25
623.152	23
623.914	27
624.676	19
625.438	20
626.199	20
626.961	20
627.722	20
628.484	19
629.245	15
630.006	15
630.768	15
631.529	14
632.29	13
633.051	17
633.812	13
634.573	16
635.333	14
636.094	16
636.855	14
637.615	15
638.376	15
639.136	12
639.896	15
640.657	12
641.417	13
642.177	11
642.937	10
643.697	12
644.457	12
645.216	9
645.976	10
646.736	12
647.495	12
648.255	9
649.014	10
649.774	9
650.533	9
651.292	13
652.051	7
652.81	10
653.569	12
654.328	11
655.087	10
655.846	9
656.604	6
657.363	7
658.121	8
658.88	6
659.638	8
660.397	8
661.155	8
661.913	6
662.671	6
663.429	10
664.187	8
664.945	7
665.703	8
666.46	6
667.218	7
667.976	8
668.733	3
669.49	5
670.248	5
671.005	5
671.762	4
672.519	8
673.276	3
674.033	6
674.79	5
675.547	4
676.304	6
677.06	5
677.817	7
678.574	5
679.33	5
680.086	6
680.843	2
681.599	7
682.355	7
683.111	7
683.867	6
684.623	5
685.379	5
686.135	6
686.89	6
687.646	7
688.402	6
689.157	6
689.912	6
690.668	6
691.423	4
692.178	4
692.933	5
693.688	3
694.443	6
695.198	5
695.953	7
696.708	6
697.462	4
698.217	6
698.972	5
699.726	2
700.48	6
701.235	6
701.989	5
702.743	5
703.497	5
704.251	7
705.005	1
705.759	7
706.513	6
707.266	4
708.02	5
708.774	7
709.527	7
710.28	8
711.034	6
711.787	3
712.54	6
713.293	4
714.046	6
714.799	4
715.552	6
716.305	6
717.058	4
717.81	7
718.563	5
719.315	6
720.068	7
720.82	4
721.573	6
722.325	4
723.077	7
723.829	5
724.581	8
725.333	4
726.085	6
726.836	6
727.588	5
728.34	6
729.091	5
729.843	5
730.594	4
731.346	4
732.097	7
732.848	4
733.599	5
734.35	6
735.101	4
735.852	7
736.603	4
737.354	6
738.104	5
738.855	7
739.605	7
740.356	4
741.106	5
741.856	6
742.607	6
743.357	8
744.107	6
744.857	6
745.607	3
746.357	10
747.106	7
747.856	7
748.606	10
749.355	7
750.105	7
750.854	9
751.603	9
752.353	9
753.102	6
753.851	9
754.6	7
755.349	7
756.098	9
756.847	10
757.595	10
758.344	8
759.093	6
759.841	7
760.589	8
761.338	8
762.086	8
762.834	11
763.582	9
764.331	12
765.079	10
765.826	9
766.574	8
767.322	10
768.07	8
768.817	10
769.565	13
770.312	12
771.06	11
771.807	11
772.554	11
773.302	12
774.049	11
774.796	9
775.543	11
776.29	12
777.036	13
777.783	11
778.53	10
779.276	10
780.023	13
780.769	13
781.516	12
782.262	14
783.008	12
783.754	12
784.5	13
785.246	11
785.992	10
786.738	12
787.484	12
788.23	10
788.975	12
789.721	14
790.466	12
791.212	12
791.957	12
792.702	11
793.447	13
794.193	11
794.938	13
795.683	10
796.427	12
797.172	9
797.917	9
798.662	10
799.406	9
800.151	11
800.895	8
801.64	8
802.384	9
803.128	9
803.872	7
804.616	8
805.36	7
806.104	8
806.848	10
807.592	10
808.336	7
809.079	8
809.823	5
810.566	6
811.31	8
812.053	6
812.796	7
813.539	7
814.283	6
815.026	8
815.769	4
816.511	6
817.254	5
817.997	6
818.74	4
819.482	5
820.225	6
820.967	7
821.71	6
822.452	4
823.194	4
823.936	3
824.678	3
825.42	7
826.162	5
826.904	5
827.646	5
828.388	2
829.129	4
829.871	5
830.612	3
831.354	6
832.095	7
832.836	4
833.577	4
834.319	7
835.06	3
835.801	4
836.542	3
837.282	3
838.023	3
838.764	1
839.504	4
840.245	2
840.985	4
841.726	3
842.466	5
843.206	2
843.946	4
844.687	4
845.427	3
846.166	3
846.906	2
847.646	3
848.386	2
849.125	0
849.865	6
850.605	3
851.344	6
852.083	5
852.823	3
853.562	3
854.301	3
855.04	4
855.779	2
856.518	2
857.257	2
857.995	0
858.734	2
859.473	4
860.211	3
860.95	4
861.688	2
862.426	3
863.165	4
863.903	0
864.641	2
865.379	1
866.117	2
866.855	1
867.593	3
868.33	2
869.068	-1
869.806	3
870.543	0
871.28	4
872.018	1
872.755	1
873.492	2
874.229	2
874.967	2
875.703	0
876.44	0
877.177	-2
877.914	-2
878.651	2
879.387	3
880.124	0
880.86	1
881.597	-1
882.333	3
883.069	1
883.806	0
884.542	1
885.278	1
886.014	2
886.749	1
887.485	0
888.221	0
888.957	-1
889.692	2
890.428	1
891.163	0
891.899	1
892.634	0
893.369	2
894.104	1
894.839	0
895.574	0
896.309	-1
897.044	1
897.779	-2
898.514	-1
899.248	1
899.983	2
900.717	1
901.452	1
902.186	-1
902.92	2
903.654	-1
904.389	1
905.123	-2
905.857	0
906.59	0
907.324	-1
908.058	1
908.792	0
909.525	-1
910.259	-1
910.992	-1
911.726	2
912.459	1
913.192	1
913.925	0
914.658	0
915.391	-1
916.124	2
916.857	0
917.59	1
918.323	-2
919.055	-2
919.788	0
920.521	-1
921.253	0
921.985	0
922.718	-1
923.45	-1
924.182	0
924.914	1
925.646	-1
926.378	0
927.11	0
927.841	0
928.573	1
929.305	0
930.036	0
930.768	2
931.499	1
932.23	0
932.962	-1
933.693	1
934.424	-1
935.155	2
935.886	-1
936.617	1
937.348	1
938.078	0
938.809	1
939.54	-1
940.27	0
941.001	1
941.731	-3
942.461	0
943.191	-1
943.922	0
944.652	0
945.382	-1
946.112	1
946.841	1
947.571	0
948.301	2
949.031	-1
949.76	0
950.49	-2
951.219	-1
951.948	0
952.678	0
953.407	-1
954.136	2
954.865	0
955.594	0
956.323	-1
957.052	1
957.78	1
958.509	0
959.238	-1
959.966	0
960.695	0
961.423	0
962.151	-1
962.88	0
963.608	0
964.336	-2
965.064	-1
965.792	-2
966.52	1
967.247	2
967.975	1
968.703	-1
969.43	0
970.158	2
970.885	-1
971.613	0
972.34	2
973.067	-2
973.794	0
974.521	-1
975.248	1
975.975	0
976.702	-1
977.429	-2
978.156	0
978.882	0
979.609	-1
980.335	-2
981.062	3
981.788	0
982.514	0
983.24	-2
983.967	0
984.693	0
985.419	0
986.144	0
986.87	-2
987.596	0
988.322	-1
989.047	0
989.773	1
990.498	0
991.224	1
991.949	-2
992.674	2
993.399	2
994.124	0
994.849	3
995.574	1
996.299	0
997.024	1
997.749	1
998.473	0
999.198	-1
999.922	2
1000.647	0
1001.371	3
1002.095	0
1002.82	0
1003.544	-2
1004.268	2
1004.992	2
1005.716	2
1006.439	4
1007.163	3
1007.887	2
1008.611	1
1009.334	1
1010.058	1
1010.781	0
1011.504	1
1012.228	-1
1012.951	-2
1013.674	0
1014.397	0
1015.12	1
