节点500_425_QEPB04081__571__15-57-48-453.txt的数据

Date: Wed Nov 12 15:57:48 CST 2025
User: PC
Spectrometer: QEPB0408
触发模式: 0
积分时间 (秒): 1.000000E-2
Scans to average: 1
启用暗噪声校正: true
启用非线性校正: false
滑动平均宽度: 0
X轴模式: Wavelengths
Number of Pixels in Spectrum: 1044
>>>>>Begin Spectral Data<<<<<
220.843	3.12
221.644	2.12
222.444	4.12
223.244	6.12
224.045	3.12
224.845	4.12
225.645	3.12
226.445	3.12
227.245	5.12
228.045	2.12
228.845	5.12
229.645	6.12
230.444	3.12
231.244	5.12
232.043	6.12
232.843	4.12
233.642	5.12
234.442	5.12
235.241	7.12
236.04	4.12
236.839	8.12
237.638	4.12
238.437	7.12
239.236	5.12
240.035	7.12
240.833	7.12
241.632	5.12
242.43	6.12
243.229	4.12
244.027	6.12
244.826	9.12
245.624	7.12
246.422	7.12
247.22	8.12
248.018	9.12
248.816	7.12
249.614	8.12
250.412	8.12
251.21	8.12
252.007	10.12
252.805	9.12
253.602	9.12
254.4	12.12
255.197	10.12
255.994	8.12
256.791	10.12
257.589	10.12
258.386	11.12
259.183	10.12
259.979	10.12
260.776	14.12
261.573	16.12
262.37	12.12
263.166	15.12
263.963	16.12
264.759	14.12
265.556	17.12
266.352	15.12
267.148	18.12
267.944	16.12
268.74	16.12
269.536	18.12
270.332	21.12
271.128	16.12
271.924	18.12
272.719	20.12
273.515	20.12
274.311	22.12
275.106	23.12
275.901	21.12
276.697	23.12
277.492	24.12
278.287	20.12
279.082	20.12
279.877	21.12
280.672	23.12
281.467	23.12
282.262	23.12
283.056	23.12
283.851	22.12
284.646	24.12
285.44	23.12
286.234	21.12
287.029	23.12
287.823	21.12
288.617	23.12
289.411	24.12
290.205	21.12
290.999	20.12
291.793	21.12
292.587	22.12
293.381	18.12
294.174	23.12
294.968	22.12
295.761	17.12
296.555	16.12
297.348	14.12
298.141	18.12
298.935	22.12
299.728	15.12
300.521	18.12
301.314	16.12
302.107	16.12
302.899	17.12
303.692	17.12
304.485	17.12
305.277	19.12
306.07	14.12
306.862	16.12
307.655	17.12
308.447	16.12
309.239	16.12
310.031	16.12
310.823	11.12
311.615	15.12
312.407	12.12
313.199	12.12
313.991	12.12
314.783	11.12
315.574	13.12
316.366	10.12
317.157	13.12
317.949	12.12
318.74	8.12
319.531	9.12
320.322	8.12
321.113	10.12
321.904	8.12
322.695	11.12
323.486	10.12
324.277	9.12
325.068	12.12
325.858	7.12
326.649	10.12
327.439	9.12
328.23	8.12
329.02	6.12
329.81	9.12
330.6	8.12
331.391	8.12
332.181	9.12
332.971	7.12
333.76	7.12
334.55	9.12
335.34	7.12
336.13	6.12
336.919	6.12
337.709	9.12
338.498	8.12
339.287	7.12
340.077	7.12
340.866	9.12
341.655	7.12
342.444	7.12
343.233	10.12
344.022	8.12
344.811	11.12
345.6	9.12
346.388	9.12
347.177	7.12
347.965	8.12
348.754	4.12
349.542	10.12
350.33	8.12
351.119	7.12
351.907	8.12
352.695	6.12
353.483	6.12
354.271	5.12
355.059	9.12
355.846	8.12
356.634	5.12
357.422	8.12
358.209	7.12
358.997	8.12
359.784	7.12
360.571	10.12
361.359	9.12
362.146	8.12
362.933	8.12
363.72	6.12
364.507	7.12
365.294	8.12
366.081	6.12
366.867	5.12
367.654	6.12
368.44	8.12
369.227	7.12
370.013	8.12
370.8	8.12
371.586	8.12
372.372	8.12
373.158	7.12
373.944	6.12
374.73	8.12
375.516	6.12
376.302	7.12
377.088	6.12
377.873	8.12
378.659	8.12
379.445	5.12
380.23	10.12
381.015	6.12
381.801	4.12
382.586	5.12
383.371	7.12
384.156	6.12
384.941	4.12
385.726	8.12
386.511	6.12
387.296	9.12
388.08	6.12
388.865	9.12
389.649	5.12
390.434	9.12
391.218	8.12
392.003	6.12
392.787	6.12
393.571	7.12
394.355	8.12
395.139	8.12
395.923	8.12
396.707	10.12
397.491	7.12
398.274	9.12
399.058	7.12
399.842	9.12
400.625	9.12
401.408	8.12
402.192	11.12
402.975	11.12
403.758	6.12
404.541	11.12
405.324	10.12
406.107	10.12
406.89	9.12
407.673	10.12
408.456	9.12
409.238	10.12
410.021	10.12
410.803	7.12
411.586	9.12
412.368	12.12
413.151	11.12
413.933	11.12
414.715	9.12
415.497	13.12
416.279	11.12
417.061	12.12
417.843	11.12
418.624	11.12
419.406	11.12
420.188	14.12
420.969	14.12
421.751	16.12
422.532	12.12
423.313	16.12
424.095	16.12
424.876	15.12
425.657	15.12
426.438	14.12
427.219	16.12
428	16.12
428.78	15.12
429.561	17.12
430.342	19.12
431.122	20.12
431.903	20.12
432.683	22.12
433.464	23.12
434.244	26.12
435.024	22.12
435.804	27.12
436.584	26.12
437.364	28.12
438.144	32.12
438.924	32.12
439.704	32.12
440.483	34.12
441.263	37.12
442.042	40.12
442.822	42.12
443.601	44.12
444.38	47.12
445.16	52.12
445.939	57.12
446.718	58.12
447.497	63.12
448.276	68.12
449.054	75.12
449.833	83.12
450.612	94.12
451.391	106.12
452.169	110.12
452.948	123.12
453.726	138.12
454.504	151.12
455.282	165.12
456.061	187.12
456.839	202.12
457.617	232.12
458.395	251.12
459.172	283.12
459.95	308.12
460.728	348.12
461.506	383.12
462.283	439.12
463.061	482.12
463.838	537.12
464.615	595.12
465.393	660.12
466.17	724.12
466.947	817.12
467.724	898.12
468.501	999.12
469.278	1095.12
470.055	1211.12
470.831	1328.12
471.608	1472.12
472.385	1623.12
473.161	1791.12
473.938	1971.12
474.714	2180.12
475.49	2347.12
476.266	2601.12
477.043	2838.12
477.819	3128.12
478.595	3417.12
479.371	3720.12
480.146	4073.12
480.922	4431.12
481.698	4841.12
482.473	5266.12
483.249	5701.12
484.024	6229.12
484.8	6803.12
485.575	7374.12
486.35	7973.12
487.126	8609.12
487.901	9346.12
488.676	10186.12
489.451	10975.12
490.225	11845.12
491	12820.12
491.775	13832.12
492.55	14853.12
493.324	15990.12
494.099	17062.12
494.873	18171.12
495.647	19352.12
496.422	20596.12
497.196	21885.12
497.97	23204.12
498.744	24460.12
499.518	25665.12
500.292	26853.12
501.066	27929.12
501.839	29125.12
502.613	30060.12
503.387	30820.12
504.16	31577.12
504.934	32075.12
505.707	32372.12
506.48	32548.12
507.253	32564.12
508.027	32424.12
508.8	32284.12
509.573	31838.12
510.346	31199.12
511.118	30638.12
511.891	29827.12
512.664	28999.12
513.437	28050.12
514.209	27054.12
514.982	26180.12
515.754	25239.12
516.526	24240.12
517.298	23274.12
518.071	22343.12
518.843	21508.12
519.615	20630.12
520.387	19790.12
521.159	19043.12
521.93	18373.12
522.702	17600.12
523.474	16880.12
524.245	16268.12
525.017	15486.12
525.788	14856.12
526.56	14213.12
527.331	13568.12
528.102	13016.12
528.873	12405.12
529.644	11845.12
530.415	11369.12
531.186	10848.12
531.957	10294.12
532.728	9799.12
533.498	9266.12
534.269	8779.12
535.039	8328.12
535.81	7878.12
536.58	7452.12
537.351	7061.12
538.121	6667.12
538.891	6329.12
539.661	5969.12
540.431	5656.12
541.201	5350.12
541.971	5053.12
542.741	4829.12
543.51	4563.12
544.28	4340.12
545.05	4156.12
545.819	3947.12
546.588	3756.12
547.358	3552.12
548.127	3374.12
548.896	3194.12
549.665	3070.12
550.434	2896.12
551.203	2746.12
551.972	2621.12
552.741	2455.12
553.51	2326.12
554.278	2219.12
555.047	2083.12
555.815	1986.12
556.584	1870.12
557.352	1772.12
558.121	1681.12
558.889	1576.12
559.657	1492.12
560.425	1407.12
561.193	1334.12
561.961	1259.12
562.729	1182.12
563.496	1132.12
564.264	1060.12
565.032	1008.12
565.799	953.12
566.567	896.12
567.334	859.12
568.101	807.12
568.869	757.12
569.636	720.12
570.403	680.12
571.17	632.12
571.937	599.12
572.704	574.12
573.471	538.12
574.237	513.12
575.004	475.12
575.771	448.12
576.537	422.12
577.303	396.12
578.07	369.12
578.836	345.12
579.602	335.12
580.368	320.12
581.134	304.12
581.9	286.12
582.666	273.12
583.432	254.12
584.198	240.12
584.964	233.12
585.729	222.12
586.495	206.12
587.26	199.12
588.025	184.12
588.791	178.12
589.556	173.12
590.321	153.12
591.086	151.12
591.851	142.12
592.616	136.12
593.381	128.12
594.146	127.12
594.911	118.12
595.675	110.12
596.44	107.12
597.204	106.12
597.969	100.12
598.733	92.12
599.497	94.12
600.261	87.12
601.025	84.12
601.79	77.12
602.553	73.12
603.317	67.12
604.081	70.12
604.845	66.12
605.609	60.12
606.372	59.12
607.136	59.12
607.899	55.12
608.662	55.12
609.426	52.12
610.189	48.12
610.952	43.12
611.715	44.12
612.478	42.12
613.241	43.12
614.004	42.12
614.767	39.12
615.529	39.12
616.292	37.12
617.055	34.12
617.817	37.12
618.579	32.12
619.342	31.12
620.104	30.12
620.866	30.12
621.628	30.12
622.39	29.12
623.152	27.12
623.914	25.12
624.676	25.12
625.438	28.12
626.199	25.12
626.961	22.12
627.722	22.12
628.484	21.12
629.245	21.12
630.006	19.12
630.768	22.12
631.529	18.12
632.29	18.12
633.051	18.12
633.812	15.12
634.573	16.12
635.333	15.12
636.094	16.12
636.855	14.12
637.615	13.12
638.376	15.12
639.136	15.12
639.896	15.12
640.657	14.12
641.417	13.12
642.177	11.12
642.937	15.12
643.697	13.12
644.457	10.12
645.216	10.12
645.976	11.12
646.736	10.12
647.495	11.12
648.255	9.12
649.014	10.12
649.774	8.12
650.533	8.12
651.292	8.12
652.051	8.12
652.81	9.12
653.569	9.12
654.328	9.12
655.087	9.12
655.846	8.12
656.604	7.12
657.363	7.12
658.121	6.12
658.88	8.12
659.638	8.12
660.397	8.12
661.155	8.12
661.913	8.12
662.671	6.12
663.429	7.12
664.187	5.12
664.945	7.12
665.703	6.12
666.46	4.12
667.218	7.12
667.976	7.12
668.733	7.12
669.49	8.12
670.248	8.12
671.005	8.12
671.762	5.12
672.519	7.12
673.276	9.12
674.033	7.12
674.79	7.12
675.547	4.12
676.304	6.12
677.06	5.12
677.817	5.12
678.574	5.12
679.33	5.12
680.086	7.12
680.843	3.12
681.599	7.12
682.355	7.12
683.111	3.12
683.867	5.12
684.623	4.12
685.379	7.12
686.135	5.12
686.89	5.12
687.646	5.12
688.402	4.12
689.157	7.12
689.912	5.12
690.668	3.12
691.423	4.12
692.178	7.12
692.933	5.12
693.688	5.12
694.443	7.12
695.198	4.12
695.953	3.12
696.708	3.12
697.462	5.12
698.217	3.12
698.972	1.12
699.726	6.12
700.48	5.12
701.235	7.12
701.989	3.12
702.743	4.12
703.497	5.12
704.251	1.12
705.005	4.12
705.759	2.12
706.513	4.12
707.266	6.12
708.02	2.12
708.774	6.12
709.527	4.12
710.28	5.12
711.034	5.12
711.787	5.12
712.54	7.12
713.293	6.12
714.046	6.12
714.799	3.12
715.552	5.12
716.305	5.12
717.058	3.12
717.81	5.12
718.563	5.12
719.315	6.12
720.068	3.12
720.82	5.12
721.573	3.12
722.325	6.12
723.077	5.12
723.829	7.12
724.581	3.12
725.333	5.12
726.085	4.12
726.836	6.12
727.588	5.12
728.34	4.12
729.091	5.12
729.843	4.12
730.594	3.12
731.346	5.12
732.097	6.12
732.848	6.12
733.599	5.12
734.35	7.12
735.101	5.12
735.852	7.12
736.603	5.12
737.354	6.12
738.104	5.12
738.855	4.12
739.605	6.12
740.356	4.12
741.106	5.12
741.856	6.12
742.607	5.12
743.357	6.12
744.107	6.12
744.857	6.12
745.607	4.12
746.357	7.12
747.106	7.12
747.856	5.12
748.606	6.12
749.355	5.12
750.105	7.12
750.854	4.12
751.603	5.12
752.353	5.12
753.102	6.12
753.851	8.12
754.6	5.12
755.349	8.12
756.098	6.12
756.847	8.12
757.595	5.12
758.344	4.12
759.093	9.12
759.841	8.12
760.589	7.12
761.338	9.12
762.086	8.12
762.834	9.12
763.582	6.12
764.331	9.12
765.079	6.12
765.826	7.12
766.574	9.12
767.322	6.12
768.07	10.12
768.817	10.12
769.565	8.12
770.312	8.12
771.06	7.12
771.807	9.12
772.554	8.12
773.302	7.12
774.049	10.12
774.796	9.12
775.543	10.12
776.29	9.12
777.036	8.12
777.783	11.12
778.53	10.12
779.276	8.12
780.023	8.12
780.769	9.12
781.516	11.12
782.262	11.12
783.008	8.12
783.754	10.12
784.5	11.12
785.246	8.12
785.992	11.12
786.738	12.12
787.484	12.12
788.23	11.12
788.975	8.12
789.721	11.12
790.466	9.12
791.212	9.12
791.957	8.12
792.702	11.12
793.447	7.12
794.193	8.12
794.938	10.12
795.683	8.12
796.427	8.12
797.172	9.12
797.917	8.12
798.662	9.12
799.406	6.12
800.151	8.12
800.895	10.12
801.64	9.12
802.384	11.12
803.128	7.12
803.872	7.12
804.616	8.12
805.36	9.12
806.104	7.12
806.848	9.12
807.592	8.12
808.336	8.12
809.079	6.12
809.823	8.12
810.566	7.12
811.31	7.12
812.053	6.12
812.796	7.12
813.539	7.12
814.283	7.12
815.026	6.12
815.769	4.12
816.511	6.12
817.254	5.12
817.997	6.12
818.74	6.12
819.482	5.12
820.225	4.12
820.967	7.12
821.71	6.12
822.452	5.12
823.194	3.12
823.936	5.12
824.678	3.12
825.42	4.12
826.162	5.12
826.904	5.12
827.646	4.12
828.388	5.12
829.129	6.12
829.871	5.12
830.612	4.12
831.354	6.12
832.095	5.12
832.836	3.12
833.577	5.12
834.319	2.12
835.06	2.12
835.801	6.12
836.542	5.12
837.282	2.12
838.023	4.12
838.764	5.12
839.504	4.12
840.245	2.12
840.985	4.12
841.726	3.12
842.466	1.12
843.206	3.12
843.946	1.12
844.687	6.12
845.427	5.12
846.166	5.12
846.906	4.12
847.646	4.12
848.386	3.12
849.125	4.12
849.865	2.12
850.605	2.12
851.344	4.12
852.083	3.12
852.823	4.12
853.562	4.12
854.301	2.12
855.04	2.12
855.779	4.12
856.518	1.12
857.257	2.12
857.995	2.12
858.734	4.12
859.473	1.12
860.211	-0.88
860.95	5.12
861.688	1.12
862.426	4.12
863.165	0.12
863.903	2.12
864.641	3.12
865.379	1.12
866.117	1.12
866.855	1.12
867.593	3.12
868.33	1.12
869.068	0.12
869.806	2.12
870.543	3.12
871.28	4.12
872.018	1.12
872.755	3.12
873.492	2.12
874.229	0.12
874.967	4.12
875.703	0.12
876.44	1.12
877.177	1.12
877.914	0.12
878.651	2.12
879.387	0.12
880.124	3.12
880.86	0.12
881.597	0.12
882.333	1.12
883.069	2.12
883.806	2.12
884.542	0.12
885.278	2.12
886.014	0.12
886.749	1.12
887.485	2.12
888.221	3.12
888.957	0.12
889.692	0.12
890.428	2.12
891.163	1.12
891.899	0.12
892.634	0.12
893.369	0.12
894.104	0.12
894.839	1.12
895.574	2.12
896.309	0.12
897.044	1.12
897.779	0.12
898.514	2.12
899.248	1.12
899.983	0.12
900.717	1.12
901.452	1.12
902.186	-0.88
902.92	1.12
903.654	0.12
904.389	2.12
905.123	1.12
905.857	1.12
906.59	1.12
907.324	-0.88
908.058	0.12
908.792	-0.88
909.525	0.12
910.259	2.12
910.992	1.12
911.726	2.12
912.459	1.12
913.192	-0.88
913.925	-0.88
914.658	0.12
915.391	0.12
916.124	1.12
916.857	0.12
917.59	1.12
918.323	1.12
919.055	0.12
919.788	0.12
920.521	0.12
921.253	-1.88
921.985	0.12
922.718	-0.88
923.45	0.12
924.182	1.12
924.914	-0.88
925.646	2.12
926.378	2.12
927.11	1.12
927.841	2.12
928.573	0.12
929.305	0.12
930.036	0.12
930.768	-0.88
931.499	2.12
932.23	0.12
932.962	0.12
933.693	0.12
934.424	2.12
935.155	-2.88
935.886	-0.88
936.617	-0.88
937.348	-0.88
938.078	0.12
938.809	2.12
939.54	0.12
940.27	2.12
941.001	-1.88
941.731	0.12
942.461	1.12
943.191	1.12
943.922	0.12
944.652	1.12
945.382	2.12
946.112	2.12
946.841	1.12
947.571	0.12
948.301	-0.88
949.031	1.12
949.76	-2.88
950.49	-1.88
951.219	-0.88
951.948	0.12
952.678	0.12
953.407	0.12
954.136	-0.88
954.865	-1.88
955.594	-1.88
956.323	1.12
957.052	2.12
957.78	2.12
958.509	-0.88
959.238	2.12
959.966	-1.88
960.695	1.12
961.423	-0.88
962.151	0.12
962.88	1.12
963.608	1.12
964.336	2.12
965.064	1.12
965.792	-1.88
966.52	1.12
967.247	0.12
967.975	1.12
968.703	0.12
969.43	2.12
970.158	1.12
970.885	-1.88
971.613	0.12
972.34	1.12
973.067	1.12
973.794	1.12
974.521	-0.88
975.248	0.12
975.975	0.12
976.702	2.12
977.429	-0.88
978.156	-1.88
978.882	-0.88
979.609	-0.88
980.335	0.12
981.062	0.12
981.788	1.12
982.514	1.12
983.24	1.12
983.967	-0.88
984.693	0.12
985.419	1.12
986.144	-1.88
986.87	3.12
987.596	0.12
988.322	-0.88
989.047	1.12
989.773	-0.88
990.498	0.12
991.224	-0.88
991.949	-0.88
992.674	-0.88
993.399	0.12
994.124	2.12
994.849	-2.88
995.574	0.12
996.299	2.12
997.024	-0.88
997.749	1.12
998.473	1.12
999.198	2.12
999.922	2.12
1000.647	0.12
1001.371	3.12
1002.095	-2.88
1002.82	-0.88
1003.544	0.12
1004.268	5.12
1004.992	0.12
1005.716	1.12
1006.439	0.12
1007.163	1.12
1007.887	2.12
1008.611	1.12
1009.334	0.12
1010.058	2.12
1010.781	-0.88
1011.504	2.12
1012.228	2.12
1012.951	0.12
1013.674	1.12
1014.397	1.12
1015.12	-1.88
