节点500_425_QEPB04081__74__15-49-32-376.txt的数据

Date: Wed Nov 12 15:49:32 CST 2025
User: PC
Spectrometer: QEPB0408
触发模式: 0
积分时间 (秒): 1.000000E-2
Scans to average: 1
启用暗噪声校正: true
启用非线性校正: false
滑动平均宽度: 0
X轴模式: Wavelengths
Number of Pixels in Spectrum: 1044
>>>>>Begin Spectral Data<<<<<
220.843	2.75
221.644	1.75
222.444	3.75
223.244	1.75
224.045	0.75
224.845	3.75
225.645	0.75
226.445	5.75
227.245	1.75
228.045	2.75
228.845	2.75
229.645	4.75
230.444	3.75
231.244	6.75
232.043	6.75
232.843	3.75
233.642	5.75
234.442	5.75
235.241	4.75
236.04	6.75
236.839	5.75
237.638	5.75
238.437	6.75
239.236	7.75
240.035	6.75
240.833	4.75
241.632	6.75
242.43	7.75
243.229	8.75
244.027	6.75
244.826	9.75
245.624	9.75
246.422	7.75
247.22	9.75
248.018	10.75
248.816	10.75
249.614	11.75
250.412	6.75
251.21	9.75
252.007	8.75
252.805	11.75
253.602	9.75
254.4	9.75
255.197	10.75
255.994	13.75
256.791	11.75
257.589	13.75
258.386	14.75
259.183	13.75
259.979	14.75
260.776	15.75
261.573	16.75
262.37	17.75
263.166	17.75
263.963	16.75
264.759	15.75
265.556	18.75
266.352	18.75
267.148	17.75
267.944	21.75
268.74	20.75
269.536	20.75
270.332	22.75
271.128	21.75
271.924	22.75
272.719	20.75
273.515	24.75
274.311	25.75
275.106	22.75
275.901	24.75
276.697	24.75
277.492	23.75
278.287	23.75
279.082	24.75
279.877	24.75
280.672	22.75
281.467	25.75
282.262	25.75
283.056	23.75
283.851	26.75
284.646	27.75
285.44	22.75
286.234	28.75
287.029	26.75
287.823	23.75
288.617	25.75
289.411	24.75
290.205	22.75
290.999	25.75
291.793	24.75
292.587	21.75
293.381	23.75
294.174	22.75
294.968	23.75
295.761	21.75
296.555	17.75
297.348	17.75
298.141	21.75
298.935	21.75
299.728	18.75
300.521	16.75
301.314	16.75
302.107	17.75
302.899	15.75
303.692	16.75
304.485	15.75
305.277	14.75
306.07	15.75
306.862	15.75
307.655	16.75
308.447	17.75
309.239	13.75
310.031	13.75
310.823	12.75
311.615	10.75
312.407	13.75
313.199	10.75
313.991	13.75
314.783	13.75
315.574	11.75
316.366	10.75
317.157	11.75
317.949	9.75
318.74	8.75
319.531	12.75
320.322	11.75
321.113	12.75
321.904	10.75
322.695	7.75
323.486	7.75
324.277	9.75
325.068	9.75
325.858	9.75
326.649	9.75
327.439	7.75
328.23	9.75
329.02	11.75
329.81	7.75
330.6	8.75
331.391	6.75
332.181	6.75
332.971	7.75
333.76	6.75
334.55	9.75
335.34	12.75
336.13	9.75
336.919	7.75
337.709	8.75
338.498	9.75
339.287	6.75
340.077	6.75
340.866	7.75
341.655	10.75
342.444	11.75
343.233	6.75
344.022	6.75
344.811	7.75
345.6	7.75
346.388	9.75
347.177	8.75
347.965	8.75
348.754	4.75
349.542	8.75
350.33	9.75
351.119	3.75
351.907	5.75
352.695	5.75
353.483	9.75
354.271	8.75
355.059	7.75
355.846	7.75
356.634	5.75
357.422	7.75
358.209	6.75
358.997	7.75
359.784	7.75
360.571	8.75
361.359	8.75
362.146	5.75
362.933	8.75
363.72	7.75
364.507	5.75
365.294	7.75
366.081	7.75
366.867	6.75
367.654	5.75
368.44	6.75
369.227	6.75
370.013	5.75
370.8	5.75
371.586	5.75
372.372	6.75
373.158	7.75
373.944	4.75
374.73	6.75
375.516	5.75
376.302	7.75
377.088	3.75
377.873	5.75
378.659	6.75
379.445	4.75
380.23	6.75
381.015	4.75
381.801	5.75
382.586	7.75
383.371	7.75
384.156	5.75
384.941	7.75
385.726	8.75
386.511	6.75
387.296	7.75
388.08	6.75
388.865	8.75
389.649	8.75
390.434	7.75
391.218	9.75
392.003	8.75
392.787	7.75
393.571	5.75
394.355	7.75
395.139	7.75
395.923	9.75
396.707	6.75
397.491	8.75
398.274	9.75
399.058	7.75
399.842	12.75
400.625	7.75
401.408	8.75
402.192	8.75
402.975	9.75
403.758	8.75
404.541	9.75
405.324	9.75
406.107	10.75
406.89	9.75
407.673	11.75
408.456	7.75
409.238	8.75
410.021	10.75
410.803	11.75
411.586	11.75
412.368	12.75
413.151	11.75
413.933	12.75
414.715	11.75
415.497	13.75
416.279	12.75
417.061	10.75
417.843	13.75
418.624	12.75
419.406	11.75
420.188	13.75
420.969	17.75
421.751	13.75
422.532	16.75
423.313	13.75
424.095	14.75
424.876	17.75
425.657	15.75
426.438	16.75
427.219	15.75
428	17.75
428.78	19.75
429.561	18.75
430.342	21.75
431.122	19.75
431.903	22.75
432.683	23.75
433.464	26.75
434.244	21.75
435.024	23.75
435.804	26.75
436.584	26.75
437.364	26.75
438.144	29.75
438.924	30.75
439.704	33.75
440.483	36.75
441.263	30.75
442.042	38.75
442.822	36.75
443.601	42.75
444.38	45.75
445.16	45.75
445.939	49.75
446.718	53.75
447.497	57.75
448.276	64.75
449.054	69.75
449.833	72.75
450.612	77.75
451.391	84.75
452.169	98.75
452.948	105.75
453.726	115.75
454.504	127.75
455.282	141.75
456.061	159.75
456.839	169.75
457.617	188.75
458.395	208.75
459.172	236.75
459.95	272.75
460.728	301.75
461.506	327.75
462.283	373.75
463.061	418.75
463.838	464.75
464.615	523.75
465.393	583.75
466.17	648.75
466.947	726.75
467.724	819.75
468.501	905.75
469.278	1013.75
470.055	1119.75
470.831	1246.75
471.608	1407.75
472.385	1560.75
473.161	1707.75
473.938	1920.75
474.714	2158.75
475.49	2370.75
476.266	2611.75
477.043	2890.75
477.819	3202.75
478.595	3557.75
479.371	3917.75
480.146	4340.75
480.922	4760.75
481.698	5261.75
482.473	5760.75
483.249	6384.75
484.024	7017.75
484.8	7720.75
485.575	8488.75
486.35	9251.75
487.126	10128.75
487.901	11113.75
488.676	12208.75
489.451	13296.75
490.225	14493.75
491	15701.75
491.775	17109.75
492.55	18523.75
493.324	19966.75
494.099	21461.75
494.873	22871.75
495.647	24452.75
496.422	26027.75
497.196	27527.75
497.97	29239.75
498.744	30746.75
499.518	32137.75
500.292	33339.75
501.066	34464.75
501.839	35482.75
502.613	36313.75
503.387	36871.75
504.16	37196.75
504.934	37297.75
505.707	37155.75
506.48	36838.75
507.253	36303.75
508.027	35798.75
508.8	34960.75
509.573	33957.75
510.346	32990.75
511.118	31868.75
511.891	30797.75
512.664	29525.75
513.437	28188.75
514.209	26988.75
514.982	25863.75
515.754	24776.75
516.526	23653.75
517.298	22609.75
518.071	21649.75
518.843	20810.75
519.615	19901.75
520.387	19141.75
521.159	18409.75
521.93	17755.75
522.702	17016.75
523.474	16324.75
524.245	15652.75
525.017	14939.75
525.788	14251.75
526.56	13561.75
527.331	12929.75
528.102	12324.75
528.873	11704.75
529.644	11101.75
530.415	10597.75
531.186	10027.75
531.957	9463.75
532.728	8928.75
533.498	8409.75
534.269	7977.75
535.039	7548.75
535.81	7114.75
536.58	6699.75
537.351	6311.75
538.121	5986.75
538.891	5675.75
539.661	5376.75
540.431	5113.75
541.201	4805.75
541.971	4571.75
542.741	4341.75
543.51	4125.75
544.28	3892.75
545.05	3696.75
545.819	3553.75
546.588	3353.75
547.358	3179.75
548.127	2995.75
548.896	2871.75
549.665	2707.75
550.434	2559.75
551.203	2433.75
551.972	2293.75
552.741	2179.75
553.51	2065.75
554.278	1933.75
555.047	1829.75
555.815	1720.75
556.584	1644.75
557.352	1521.75
558.121	1455.75
558.889	1367.75
559.657	1291.75
560.425	1210.75
561.193	1161.75
561.961	1089.75
562.729	1020.75
563.496	973.75
564.264	916.75
565.032	869.75
565.799	828.75
566.567	781.75
567.334	741.75
568.101	703.75
568.869	660.75
569.636	618.75
570.403	578.75
571.17	561.75
571.937	515.75
572.704	486.75
573.471	457.75
574.237	425.75
575.004	410.75
575.771	386.75
576.537	370.75
577.303	339.75
578.07	314.75
578.836	309.75
579.602	289.75
580.368	272.75
581.134	260.75
581.9	247.75
582.666	233.75
583.432	219.75
584.198	210.75
584.964	199.75
585.729	190.75
586.495	177.75
587.26	169.75
588.025	160.75
588.791	150.75
589.556	145.75
590.321	135.75
591.086	133.75
591.851	123.75
592.616	120.75
593.381	109.75
594.146	107.75
594.911	105.75
595.675	98.75
596.44	89.75
597.204	89.75
597.969	87.75
598.733	79.75
599.497	76.75
600.261	77.75
601.025	72.75
601.79	68.75
602.553	64.75
603.317	60.75
604.081	59.75
604.845	54.75
605.609	54.75
606.372	55.75
607.136	51.75
607.899	49.75
608.662	46.75
609.426	45.75
610.189	46.75
610.952	45.75
611.715	42.75
612.478	38.75
613.241	35.75
614.004	36.75
614.767	31.75
615.529	35.75
616.292	32.75
617.055	30.75
617.817	31.75
618.579	28.75
619.342	28.75
620.104	24.75
620.866	26.75
621.628	23.75
622.39	23.75
623.152	21.75
623.914	24.75
624.676	21.75
625.438	23.75
626.199	21.75
626.961	21.75
627.722	19.75
628.484	20.75
629.245	17.75
630.006	18.75
630.768	17.75
631.529	19.75
632.29	15.75
633.051	19.75
633.812	18.75
634.573	16.75
635.333	16.75
636.094	13.75
636.855	15.75
637.615	13.75
638.376	14.75
639.136	13.75
639.896	9.75
640.657	11.75
641.417	9.75
642.177	12.75
642.937	11.75
643.697	10.75
644.457	10.75
645.216	9.75
645.976	10.75
646.736	9.75
647.495	7.75
648.255	7.75
649.014	10.75
649.774	11.75
650.533	9.75
651.292	7.75
652.051	8.75
652.81	6.75
653.569	8.75
654.328	7.75
655.087	9.75
655.846	8.75
656.604	6.75
657.363	7.75
658.121	7.75
658.88	8.75
659.638	7.75
660.397	6.75
661.155	7.75
661.913	7.75
662.671	3.75
663.429	7.75
664.187	5.75
664.945	5.75
665.703	8.75
666.46	7.75
667.218	5.75
667.976	7.75
668.733	5.75
669.49	6.75
670.248	6.75
671.005	6.75
671.762	7.75
672.519	4.75
673.276	4.75
674.033	6.75
674.79	4.75
675.547	6.75
676.304	3.75
677.06	6.75
677.817	4.75
678.574	4.75
679.33	6.75
680.086	5.75
680.843	4.75
681.599	5.75
682.355	6.75
683.111	6.75
683.867	6.75
684.623	4.75
685.379	4.75
686.135	5.75
686.89	4.75
687.646	5.75
688.402	5.75
689.157	5.75
689.912	2.75
690.668	5.75
691.423	4.75
692.178	6.75
692.933	3.75
693.688	4.75
694.443	1.75
695.198	6.75
695.953	2.75
696.708	5.75
697.462	3.75
698.217	4.75
698.972	5.75
699.726	3.75
700.48	2.75
701.235	6.75
701.989	5.75
702.743	5.75
703.497	5.75
704.251	4.75
705.005	6.75
705.759	2.75
706.513	5.75
707.266	6.75
708.02	6.75
708.774	6.75
709.527	5.75
710.28	3.75
711.034	3.75
711.787	3.75
712.54	4.75
713.293	5.75
714.046	5.75
714.799	5.75
715.552	3.75
716.305	4.75
717.058	6.75
717.81	3.75
718.563	4.75
719.315	1.75
720.068	5.75
720.82	6.75
721.573	5.75
722.325	6.75
723.077	4.75
723.829	3.75
724.581	5.75
725.333	4.75
726.085	5.75
726.836	6.75
727.588	3.75
728.34	2.75
729.091	5.75
729.843	4.75
730.594	3.75
731.346	6.75
732.097	6.75
732.848	4.75
733.599	6.75
734.35	4.75
735.101	6.75
735.852	3.75
736.603	5.75
737.354	5.75
738.104	6.75
738.855	5.75
739.605	5.75
740.356	8.75
741.106	5.75
741.856	6.75
742.607	4.75
743.357	7.75
744.107	5.75
744.857	6.75
745.607	7.75
746.357	5.75
747.106	7.75
747.856	7.75
748.606	6.75
749.355	5.75
750.105	6.75
750.854	10.75
751.603	8.75
752.353	5.75
753.102	7.75
753.851	7.75
754.6	9.75
755.349	8.75
756.098	7.75
756.847	7.75
757.595	8.75
758.344	7.75
759.093	7.75
759.841	8.75
760.589	6.75
761.338	6.75
762.086	8.75
762.834	9.75
763.582	9.75
764.331	7.75
765.079	8.75
765.826	9.75
766.574	9.75
767.322	10.75
768.07	9.75
768.817	11.75
769.565	9.75
770.312	10.75
771.06	9.75
771.807	11.75
772.554	9.75
773.302	12.75
774.049	9.75
774.796	9.75
775.543	10.75
776.29	8.75
777.036	10.75
777.783	9.75
778.53	10.75
779.276	9.75
780.023	10.75
780.769	11.75
781.516	10.75
782.262	9.75
783.008	8.75
783.754	13.75
784.5	11.75
785.246	11.75
785.992	13.75
786.738	11.75
787.484	9.75
788.23	11.75
788.975	10.75
789.721	11.75
790.466	11.75
791.212	9.75
791.957	10.75
792.702	9.75
793.447	9.75
794.193	11.75
794.938	9.75
795.683	11.75
796.427	10.75
797.172	9.75
797.917	9.75
798.662	9.75
799.406	8.75
800.151	7.75
800.895	8.75
801.64	9.75
802.384	10.75
803.128	9.75
803.872	7.75
804.616	8.75
805.36	6.75
806.104	7.75
806.848	8.75
807.592	9.75
808.336	8.75
809.079	7.75
809.823	7.75
810.566	7.75
811.31	6.75
812.053	8.75
812.796	5.75
813.539	4.75
814.283	5.75
815.026	5.75
815.769	2.75
816.511	3.75
817.254	6.75
817.997	6.75
818.74	2.75
819.482	5.75
820.225	5.75
820.967	7.75
821.71	5.75
822.452	3.75
823.194	5.75
823.936	4.75
824.678	3.75
825.42	6.75
826.162	3.75
826.904	6.75
827.646	4.75
828.388	1.75
829.129	7.75
829.871	4.75
830.612	4.75
831.354	1.75
832.095	3.75
832.836	5.75
833.577	4.75
834.319	1.75
835.06	2.75
835.801	6.75
836.542	3.75
837.282	3.75
838.023	3.75
838.764	5.75
839.504	4.75
840.245	3.75
840.985	2.75
841.726	5.75
842.466	2.75
843.206	4.75
843.946	2.75
844.687	5.75
845.427	3.75
846.166	2.75
846.906	2.75
847.646	0.75
848.386	4.75
849.125	3.75
849.865	0.75
850.605	2.75
851.344	3.75
852.083	5.75
852.823	3.75
853.562	4.75
854.301	2.75
855.04	2.75
855.779	2.75
856.518	1.75
857.257	3.75
857.995	2.75
858.734	0.75
859.473	2.75
860.211	-0.25
860.95	3.75
861.688	3.75
862.426	1.75
863.165	0.75
863.903	2.75
864.641	3.75
865.379	1.75
866.117	2.75
866.855	2.75
867.593	1.75
868.33	2.75
869.068	1.75
869.806	0.75
870.543	0.75
871.28	2.75
872.018	0.75
872.755	2.75
873.492	3.75
874.229	-0.25
874.967	1.75
875.703	0.75
876.44	1.75
877.177	0.75
877.914	-2.25
878.651	1.75
879.387	0.75
880.124	1.75
880.86	1.75
881.597	1.75
882.333	0.75
883.069	2.75
883.806	0.75
884.542	-0.25
885.278	2.75
886.014	1.75
886.749	0.75
887.485	3.75
888.221	-0.25
888.957	2.75
889.692	-1.25
890.428	0.75
891.163	0.75
891.899	-0.25
892.634	2.75
893.369	1.75
894.104	0.75
894.839	1.75
895.574	-1.25
896.309	-0.25
897.044	1.75
897.779	-0.25
898.514	0.75
899.248	0.75
899.983	-0.25
900.717	-0.25
901.452	0.75
902.186	1.75
902.92	-1.25
903.654	0.75
904.389	-1.25
905.123	-0.25
905.857	-0.25
906.59	-2.25
907.324	0.75
908.058	-0.25
908.792	1.75
909.525	-0.25
910.259	-0.25
910.992	-0.25
911.726	0.75
912.459	-0.25
913.192	-1.25
913.925	0.75
914.658	-1.25
915.391	0.75
916.124	1.75
916.857	0.75
917.59	0.75
918.323	-1.25
919.055	1.75
919.788	-0.25
920.521	2.75
921.253	0.75
921.985	0.75
922.718	-0.25
923.45	-0.25
924.182	1.75
924.914	-0.25
925.646	-1.25
926.378	-0.25
927.11	0.75
927.841	-1.25
928.573	0.75
929.305	-0.25
930.036	0.75
930.768	0.75
931.499	-0.25
932.23	-1.25
932.962	1.75
933.693	-2.25
934.424	1.75
935.155	-1.25
935.886	-0.25
936.617	-1.25
937.348	-0.25
938.078	-0.25
938.809	0.75
939.54	0.75
940.27	1.75
941.001	-2.25
941.731	0.75
942.461	-0.25
943.191	0.75
943.922	-1.25
944.652	-3.25
945.382	-0.25
946.112	-1.25
946.841	-0.25
947.571	0.75
948.301	-1.25
949.031	1.75
949.76	-0.25
950.49	0.75
951.219	1.75
951.948	0.75
952.678	0.75
953.407	-0.25
954.136	-1.25
954.865	-0.25
955.594	-0.25
956.323	-0.25
957.052	0.75
957.78	1.75
958.509	-0.25
959.238	-2.25
959.966	1.75
960.695	-1.25
961.423	-0.25
962.151	-0.25
962.88	0.75
963.608	-1.25
964.336	1.75
965.064	-0.25
965.792	-1.25
966.52	-1.25
967.247	-1.25
967.975	1.75
968.703	-0.25
969.43	-2.25
970.158	-2.25
970.885	-0.25
971.613	1.75
972.34	-0.25
973.067	-0.25
973.794	-0.25
974.521	-1.25
975.248	-0.25
975.975	-1.25
976.702	-0.25
977.429	0.75
978.156	-1.25
978.882	-0.25
979.609	0.75
980.335	-2.25
981.062	-0.25
981.788	-0.25
982.514	1.75
983.24	-1.25
983.967	-2.25
984.693	0.75
985.419	1.75
986.144	0.75
986.87	-0.25
987.596	1.75
988.322	-1.25
989.047	-2.25
989.773	-0.25
990.498	0.75
991.224	0.75
991.949	-0.25
992.674	0.75
993.399	-1.25
994.124	-0.25
994.849	-0.25
995.574	0.75
996.299	0.75
997.024	0.75
997.749	-0.25
998.473	-1.25
999.198	0.75
999.922	-0.25
1000.647	-1.25
1001.371	2.75
1002.095	-0.25
1002.82	-1.25
1003.544	-3.25
1004.268	3.75
1004.992	1.75
1005.716	0.75
1006.439	1.75
1007.163	4.75
1007.887	2.75
1008.611	0.75
1009.334	0.75
1010.058	-1.25
1010.781	-0.25
1011.504	-0.25
1012.228	-0.25
1012.951	0.75
1013.674	-0.25
1014.397	-0.25
1015.12	1.75
