节点500_425_QEPB04081__245__15-52-22-994.txt的数据

Date: Wed Nov 12 15:52:22 CST 2025
User: PC
Spectrometer: QEPB0408
触发模式: 0
积分时间 (秒): 1.000000E-2
Scans to average: 1
启用暗噪声校正: true
启用非线性校正: false
滑动平均宽度: 0
X轴模式: Wavelengths
Number of Pixels in Spectrum: 1044
>>>>>Begin Spectral Data<<<<<
220.843	5.12
221.644	1.12
222.444	3.12
223.244	5.12
224.045	5.12
224.845	3.12
225.645	4.12
226.445	3.12
227.245	2.12
228.045	2.12
228.845	4.12
229.645	3.12
230.444	6.12
231.244	7.12
232.043	5.12
232.843	7.12
233.642	3.12
234.442	6.12
235.241	4.12
236.04	7.12
236.839	5.12
237.638	7.12
238.437	7.12
239.236	5.12
240.035	4.12
240.833	5.12
241.632	6.12
242.43	8.12
243.229	8.12
244.027	8.12
244.826	9.12
245.624	11.12
246.422	9.12
247.22	5.12
248.018	9.12
248.816	8.12
249.614	11.12
250.412	10.12
251.21	8.12
252.007	13.12
252.805	12.12
253.602	11.12
254.4	10.12
255.197	14.12
255.994	10.12
256.791	11.12
257.589	12.12
258.386	13.12
259.183	17.12
259.979	14.12
260.776	14.12
261.573	13.12
262.37	14.12
263.166	14.12
263.963	17.12
264.759	15.12
265.556	19.12
266.352	16.12
267.148	18.12
267.944	18.12
268.74	20.12
269.536	18.12
270.332	20.12
271.128	21.12
271.924	23.12
272.719	23.12
273.515	22.12
274.311	23.12
275.106	22.12
275.901	21.12
276.697	25.12
277.492	23.12
278.287	22.12
279.082	22.12
279.877	25.12
280.672	27.12
281.467	22.12
282.262	30.12
283.056	25.12
283.851	26.12
284.646	23.12
285.44	26.12
286.234	26.12
287.029	24.12
287.823	23.12
288.617	24.12
289.411	27.12
290.205	21.12
290.999	20.12
291.793	24.12
292.587	25.12
293.381	22.12
294.174	21.12
294.968	23.12
295.761	21.12
296.555	21.12
297.348	20.12
298.141	22.12
298.935	20.12
299.728	22.12
300.521	19.12
301.314	19.12
302.107	18.12
302.899	17.12
303.692	18.12
304.485	18.12
305.277	16.12
306.07	13.12
306.862	17.12
307.655	16.12
308.447	15.12
309.239	15.12
310.031	13.12
310.823	14.12
311.615	13.12
312.407	12.12
313.199	13.12
313.991	13.12
314.783	13.12
315.574	12.12
316.366	12.12
317.157	11.12
317.949	10.12
318.74	10.12
319.531	11.12
320.322	11.12
321.113	10.12
321.904	10.12
322.695	9.12
323.486	8.12
324.277	9.12
325.068	9.12
325.858	9.12
326.649	8.12
327.439	12.12
328.23	7.12
329.02	9.12
329.81	9.12
330.6	8.12
331.391	9.12
332.181	8.12
332.971	9.12
333.76	10.12
334.55	9.12
335.34	8.12
336.13	8.12
336.919	9.12
337.709	7.12
338.498	7.12
339.287	8.12
340.077	7.12
340.866	9.12
341.655	8.12
342.444	8.12
343.233	6.12
344.022	9.12
344.811	7.12
345.6	7.12
346.388	10.12
347.177	9.12
347.965	9.12
348.754	8.12
349.542	9.12
350.33	7.12
351.119	8.12
351.907	7.12
352.695	8.12
353.483	8.12
354.271	9.12
355.059	6.12
355.846	8.12
356.634	8.12
357.422	7.12
358.209	8.12
358.997	5.12
359.784	9.12
360.571	7.12
361.359	3.12
362.146	8.12
362.933	6.12
363.72	8.12
364.507	7.12
365.294	8.12
366.081	7.12
366.867	7.12
367.654	7.12
368.44	7.12
369.227	4.12
370.013	7.12
370.8	7.12
371.586	4.12
372.372	7.12
373.158	7.12
373.944	6.12
374.73	6.12
375.516	4.12
376.302	5.12
377.088	8.12
377.873	4.12
378.659	6.12
379.445	6.12
380.23	5.12
381.015	7.12
381.801	8.12
382.586	6.12
383.371	6.12
384.156	8.12
384.941	6.12
385.726	7.12
386.511	8.12
387.296	8.12
388.08	8.12
388.865	10.12
389.649	7.12
390.434	7.12
391.218	7.12
392.003	5.12
392.787	6.12
393.571	10.12
394.355	8.12
395.139	11.12
395.923	11.12
396.707	9.12
397.491	11.12
398.274	9.12
399.058	8.12
399.842	9.12
400.625	9.12
401.408	8.12
402.192	8.12
402.975	9.12
403.758	11.12
404.541	7.12
405.324	14.12
406.107	11.12
406.89	14.12
407.673	10.12
408.456	10.12
409.238	11.12
410.021	10.12
410.803	9.12
411.586	10.12
412.368	14.12
413.151	12.12
413.933	14.12
414.715	14.12
415.497	11.12
416.279	10.12
417.061	14.12
417.843	10.12
418.624	14.12
419.406	14.12
420.188	15.12
420.969	15.12
421.751	15.12
422.532	14.12
423.313	16.12
424.095	15.12
424.876	17.12
425.657	17.12
426.438	15.12
427.219	16.12
428	16.12
428.78	17.12
429.561	20.12
430.342	17.12
431.122	18.12
431.903	20.12
432.683	22.12
433.464	22.12
434.244	20.12
435.024	24.12
435.804	27.12
436.584	24.12
437.364	28.12
438.144	27.12
438.924	29.12
439.704	33.12
440.483	35.12
441.263	36.12
442.042	37.12
442.822	37.12
443.601	42.12
444.38	44.12
445.16	48.12
445.939	50.12
446.718	56.12
447.497	57.12
448.276	64.12
449.054	72.12
449.833	76.12
450.612	83.12
451.391	90.12
452.169	103.12
452.948	107.12
453.726	122.12
454.504	139.12
455.282	147.12
456.061	160.12
456.839	182.12
457.617	201.12
458.395	229.12
459.172	258.12
459.95	274.12
460.728	312.12
461.506	350.12
462.283	383.12
463.061	439.12
463.838	487.12
464.615	542.12
465.393	606.12
466.17	673.12
466.947	752.12
467.724	845.12
468.501	941.12
469.278	1043.12
470.055	1152.12
470.831	1281.12
471.608	1433.12
472.385	1583.12
473.161	1738.12
473.938	1935.12
474.714	2153.12
475.49	2362.12
476.266	2608.12
477.043	2880.12
477.819	3190.12
478.595	3529.12
479.371	3862.12
480.146	4248.12
480.922	4670.12
481.698	5109.12
482.473	5613.12
483.249	6146.12
484.024	6758.12
484.8	7425.12
485.575	8056.12
486.35	8795.12
487.126	9648.12
487.901	10501.12
488.676	11496.12
489.451	12470.12
490.225	13563.12
491	14723.12
491.775	15949.12
492.55	17277.12
493.324	18639.12
494.099	19917.12
494.873	21315.12
495.647	22726.12
496.422	24185.12
497.196	25690.12
497.97	27168.12
498.744	28585.12
499.518	29937.12
500.292	31104.12
501.066	32297.12
501.839	33455.12
502.613	34305.12
503.387	34943.12
504.16	35516.12
504.934	35722.12
505.707	35698.12
506.48	35520.12
507.253	35328.12
508.027	34801.12
508.8	34210.12
509.573	33455.12
510.346	32541.12
511.118	31547.12
511.891	30504.12
512.664	29407.12
513.437	28214.12
514.209	27052.12
514.982	26025.12
515.754	24971.12
516.526	23891.12
517.298	22958.12
518.071	21910.12
518.843	21038.12
519.615	20142.12
520.387	19352.12
521.159	18666.12
521.93	17957.12
522.702	17165.12
523.474	16440.12
524.245	15776.12
525.017	15100.12
525.788	14401.12
526.56	13744.12
527.331	13091.12
528.102	12488.12
528.873	11930.12
529.644	11342.12
530.415	10773.12
531.186	10273.12
531.957	9736.12
532.728	9264.12
533.498	8705.12
534.269	8194.12
535.039	7772.12
535.81	7340.12
536.58	6972.12
537.351	6549.12
538.121	6187.12
538.891	5842.12
539.661	5550.12
540.431	5273.12
541.201	4969.12
541.971	4703.12
542.741	4466.12
543.51	4236.12
544.28	4036.12
545.05	3810.12
545.819	3656.12
546.588	3479.12
547.358	3296.12
548.127	3117.12
548.896	2960.12
549.665	2830.12
550.434	2692.12
551.203	2533.12
551.972	2393.12
552.741	2284.12
553.51	2137.12
554.278	2019.12
555.047	1890.12
555.815	1792.12
556.584	1700.12
557.352	1601.12
558.121	1508.12
558.889	1420.12
559.657	1357.12
560.425	1276.12
561.193	1199.12
561.961	1151.12
562.729	1073.12
563.496	1044.12
564.264	977.12
565.032	912.12
565.799	878.12
566.567	817.12
567.334	768.12
568.101	733.12
568.869	673.12
569.636	653.12
570.403	612.12
571.17	564.12
571.937	537.12
572.704	515.12
573.471	491.12
574.237	446.12
575.004	431.12
575.771	402.12
576.537	378.12
577.303	361.12
578.07	340.12
578.836	314.12
579.602	300.12
580.368	285.12
581.134	267.12
581.9	256.12
582.666	248.12
583.432	231.12
584.198	221.12
584.964	210.12
585.729	200.12
586.495	185.12
587.26	177.12
588.025	170.12
588.791	160.12
589.556	152.12
590.321	144.12
591.086	136.12
591.851	128.12
592.616	121.12
593.381	114.12
594.146	110.12
594.911	108.12
595.675	103.12
596.44	96.12
597.204	93.12
597.969	90.12
598.733	85.12
599.497	83.12
600.261	77.12
601.025	75.12
601.79	69.12
602.553	71.12
603.317	65.12
604.081	60.12
604.845	59.12
605.609	54.12
606.372	56.12
607.136	49.12
607.899	51.12
608.662	48.12
609.426	50.12
610.189	46.12
610.952	42.12
611.715	42.12
612.478	42.12
613.241	39.12
614.004	40.12
614.767	37.12
615.529	35.12
616.292	33.12
617.055	33.12
617.817	31.12
618.579	31.12
619.342	30.12
620.104	28.12
620.866	27.12
621.628	26.12
622.39	26.12
623.152	24.12
623.914	24.12
624.676	24.12
625.438	23.12
626.199	20.12
626.961	21.12
627.722	24.12
628.484	23.12
629.245	22.12
630.006	21.12
630.768	17.12
631.529	17.12
632.29	18.12
633.051	15.12
633.812	17.12
634.573	15.12
635.333	17.12
636.094	15.12
636.855	16.12
637.615	12.12
638.376	14.12
639.136	16.12
639.896	12.12
640.657	14.12
641.417	12.12
642.177	10.12
642.937	11.12
643.697	14.12
644.457	12.12
645.216	13.12
645.976	13.12
646.736	10.12
647.495	10.12
648.255	12.12
649.014	11.12
649.774	11.12
650.533	11.12
651.292	10.12
652.051	9.12
652.81	11.12
653.569	10.12
654.328	8.12
655.087	12.12
655.846	8.12
656.604	8.12
657.363	9.12
658.121	8.12
658.88	7.12
659.638	8.12
660.397	8.12
661.155	6.12
661.913	7.12
662.671	9.12
663.429	5.12
664.187	9.12
664.945	8.12
665.703	7.12
666.46	7.12
667.218	2.12
667.976	4.12
668.733	5.12
669.49	6.12
670.248	6.12
671.005	6.12
671.762	6.12
672.519	4.12
673.276	7.12
674.033	6.12
674.79	6.12
675.547	7.12
676.304	5.12
677.06	7.12
677.817	7.12
678.574	7.12
679.33	5.12
680.086	5.12
680.843	4.12
681.599	7.12
682.355	8.12
683.111	8.12
683.867	3.12
684.623	6.12
685.379	5.12
686.135	5.12
686.89	5.12
687.646	7.12
688.402	4.12
689.157	4.12
689.912	3.12
690.668	5.12
691.423	7.12
692.178	3.12
692.933	5.12
693.688	6.12
694.443	3.12
695.198	5.12
695.953	5.12
696.708	6.12
697.462	5.12
698.217	7.12
698.972	3.12
699.726	4.12
700.48	6.12
701.235	5.12
701.989	5.12
702.743	7.12
703.497	3.12
704.251	6.12
705.005	6.12
705.759	4.12
706.513	3.12
707.266	5.12
708.02	6.12
708.774	5.12
709.527	8.12
710.28	4.12
711.034	6.12
711.787	4.12
712.54	5.12
713.293	5.12
714.046	4.12
714.799	5.12
715.552	3.12
716.305	4.12
717.058	2.12
717.81	5.12
718.563	5.12
719.315	4.12
720.068	9.12
720.82	6.12
721.573	2.12
722.325	7.12
723.077	5.12
723.829	5.12
724.581	7.12
725.333	6.12
726.085	6.12
726.836	6.12
727.588	5.12
728.34	6.12
729.091	3.12
729.843	7.12
730.594	4.12
731.346	7.12
732.097	6.12
732.848	7.12
733.599	6.12
734.35	8.12
735.101	5.12
735.852	3.12
736.603	4.12
737.354	5.12
738.104	7.12
738.855	6.12
739.605	6.12
740.356	6.12
741.106	5.12
741.856	4.12
742.607	6.12
743.357	8.12
744.107	7.12
744.857	5.12
745.607	5.12
746.357	6.12
747.106	7.12
747.856	5.12
748.606	6.12
749.355	8.12
750.105	6.12
750.854	7.12
751.603	7.12
752.353	9.12
753.102	9.12
753.851	7.12
754.6	8.12
755.349	8.12
756.098	9.12
756.847	8.12
757.595	7.12
758.344	12.12
759.093	8.12
759.841	9.12
760.589	8.12
761.338	7.12
762.086	9.12
762.834	8.12
763.582	7.12
764.331	8.12
765.079	8.12
765.826	9.12
766.574	9.12
767.322	10.12
768.07	7.12
768.817	11.12
769.565	8.12
770.312	11.12
771.06	10.12
771.807	11.12
772.554	11.12
773.302	10.12
774.049	10.12
774.796	12.12
775.543	10.12
776.29	14.12
777.036	9.12
777.783	13.12
778.53	12.12
779.276	11.12
780.023	12.12
780.769	9.12
781.516	14.12
782.262	11.12
783.008	10.12
783.754	12.12
784.5	12.12
785.246	13.12
785.992	11.12
786.738	12.12
787.484	11.12
788.23	13.12
788.975	10.12
789.721	8.12
790.466	13.12
791.212	11.12
791.957	9.12
792.702	13.12
793.447	9.12
794.193	11.12
794.938	8.12
795.683	10.12
796.427	11.12
797.172	8.12
797.917	10.12
798.662	9.12
799.406	11.12
800.151	9.12
800.895	9.12
801.64	9.12
802.384	7.12
803.128	7.12
803.872	6.12
804.616	9.12
805.36	7.12
806.104	9.12
806.848	7.12
807.592	7.12
808.336	7.12
809.079	8.12
809.823	7.12
810.566	5.12
811.31	6.12
812.053	7.12
812.796	6.12
813.539	8.12
814.283	5.12
815.026	6.12
815.769	6.12
816.511	4.12
817.254	6.12
817.997	5.12
818.74	8.12
819.482	5.12
820.225	4.12
820.967	5.12
821.71	4.12
822.452	7.12
823.194	5.12
823.936	5.12
824.678	6.12
825.42	2.12
826.162	7.12
826.904	7.12
827.646	4.12
828.388	5.12
829.129	5.12
829.871	3.12
830.612	2.12
831.354	6.12
832.095	5.12
832.836	3.12
833.577	5.12
834.319	4.12
835.06	6.12
835.801	6.12
836.542	4.12
837.282	5.12
838.023	4.12
838.764	5.12
839.504	2.12
840.245	4.12
840.985	4.12
841.726	6.12
842.466	2.12
843.206	0.12
843.946	3.12
844.687	2.12
845.427	6.12
846.166	6.12
846.906	3.12
847.646	3.12
848.386	2.12
849.125	4.12
849.865	3.12
850.605	4.12
851.344	2.12
852.083	1.12
852.823	3.12
853.562	3.12
854.301	4.12
855.04	3.12
855.779	2.12
856.518	1.12
857.257	2.12
857.995	3.12
858.734	2.12
859.473	4.12
860.211	5.12
860.95	1.12
861.688	4.12
862.426	2.12
863.165	2.12
863.903	4.12
864.641	3.12
865.379	3.12
866.117	1.12
866.855	4.12
867.593	1.12
868.33	1.12
869.068	4.12
869.806	2.12
870.543	0.12
871.28	1.12
872.018	4.12
872.755	3.12
873.492	-0.88
874.229	2.12
874.967	1.12
875.703	2.12
876.44	2.12
877.177	4.12
877.914	0.12
878.651	-0.88
879.387	1.12
880.124	1.12
880.86	3.12
881.597	1.12
882.333	-0.88
883.069	2.12
883.806	1.12
884.542	3.12
885.278	0.12
886.014	1.12
886.749	3.12
887.485	0.12
888.221	2.12
888.957	2.12
889.692	2.12
890.428	1.12
891.163	1.12
891.899	-1.88
892.634	0.12
893.369	0.12
894.104	1.12
894.839	0.12
895.574	1.12
896.309	2.12
897.044	0.12
897.779	0.12
898.514	-0.88
899.248	0.12
899.983	2.12
900.717	-0.88
901.452	-0.88
902.186	3.12
902.92	1.12
903.654	3.12
904.389	0.12
905.123	1.12
905.857	2.12
906.59	-0.88
907.324	1.12
908.058	0.12
908.792	-0.88
909.525	-0.88
910.259	1.12
910.992	0.12
911.726	0.12
912.459	2.12
913.192	0.12
913.925	-0.88
914.658	2.12
915.391	-0.88
916.124	-0.88
916.857	0.12
917.59	1.12
918.323	0.12
919.055	0.12
919.788	1.12
920.521	0.12
921.253	1.12
921.985	0.12
922.718	0.12
923.45	0.12
924.182	0.12
924.914	1.12
925.646	0.12
926.378	3.12
927.11	0.12
927.841	1.12
928.573	-0.88
929.305	2.12
930.036	0.12
930.768	1.12
931.499	0.12
932.23	2.12
932.962	-0.88
933.693	-1.88
934.424	0.12
935.155	1.12
935.886	-0.88
936.617	1.12
937.348	0.12
938.078	0.12
938.809	1.12
939.54	-2.88
940.27	0.12
941.001	0.12
941.731	0.12
942.461	1.12
943.191	2.12
943.922	1.12
944.652	0.12
945.382	2.12
946.112	2.12
946.841	-0.88
947.571	1.12
948.301	0.12
949.031	-0.88
949.76	-1.88
950.49	-0.88
951.219	0.12
951.948	3.12
952.678	-0.88
953.407	3.12
954.136	1.12
954.865	-0.88
955.594	-0.88
956.323	0.12
957.052	-0.88
957.78	-1.88
958.509	0.12
959.238	2.12
959.966	-0.88
960.695	2.12
961.423	1.12
962.151	1.12
962.88	-0.88
963.608	1.12
964.336	0.12
965.064	0.12
965.792	-1.88
966.52	0.12
967.247	0.12
967.975	1.12
968.703	0.12
969.43	1.12
970.158	-0.88
970.885	-0.88
971.613	-1.88
972.34	2.12
973.067	1.12
973.794	1.12
974.521	0.12
975.248	0.12
975.975	1.12
976.702	-0.88
977.429	-0.88
978.156	1.12
978.882	1.12
979.609	-0.88
980.335	1.12
981.062	0.12
981.788	0.12
982.514	-1.88
983.24	-0.88
983.967	0.12
984.693	1.12
985.419	-0.88
986.144	1.12
986.87	-1.88
987.596	1.12
988.322	0.12
989.047	0.12
989.773	1.12
990.498	-1.88
991.224	3.12
991.949	0.12
992.674	-0.88
993.399	1.12
994.124	0.12
994.849	0.12
995.574	-1.88
996.299	1.12
997.024	1.12
997.749	0.12
998.473	-0.88
999.198	1.12
999.922	2.12
1000.647	0.12
1001.371	1.12
1002.095	-0.88
1002.82	-0.88
1003.544	0.12
1004.268	2.12
1004.992	2.12
1005.716	2.12
1006.439	0.12
1007.163	3.12
1007.887	4.12
1008.611	0.12
1009.334	1.12
1010.058	-0.88
1010.781	-0.88
1011.504	-1.88
1012.228	1.12
1012.951	1.12
1013.674	-0.88
1014.397	1.12
1015.12	-0.88
