节点500_425_QEPB04081__612__15-58-29-407.txt的数据

Date: Wed Nov 12 15:58:29 CST 2025
User: PC
Spectrometer: QEPB0408
触发模式: 0
积分时间 (秒): 1.000000E-2
Scans to average: 1
启用暗噪声校正: true
启用非线性校正: false
滑动平均宽度: 0
X轴模式: Wavelengths
Number of Pixels in Spectrum: 1044
>>>>>Begin Spectral Data<<<<<
220.843	2.75
221.644	2.75
222.444	2.75
223.244	3.75
224.045	4.75
224.845	4.75
225.645	3.75
226.445	2.75
227.245	5.75
228.045	6.75
228.845	5.75
229.645	3.75
230.444	5.75
231.244	2.75
232.043	6.75
232.843	5.75
233.642	4.75
234.442	4.75
235.241	7.75
236.04	4.75
236.839	7.75
237.638	6.75
238.437	4.75
239.236	6.75
240.035	5.75
240.833	6.75
241.632	6.75
242.43	6.75
243.229	5.75
244.027	4.75
244.826	8.75
245.624	8.75
246.422	6.75
247.22	9.75
248.018	6.75
248.816	10.75
249.614	10.75
250.412	8.75
251.21	9.75
252.007	10.75
252.805	10.75
253.602	11.75
254.4	10.75
255.197	9.75
255.994	12.75
256.791	12.75
257.589	11.75
258.386	10.75
259.183	10.75
259.979	12.75
260.776	12.75
261.573	12.75
262.37	12.75
263.166	13.75
263.963	14.75
264.759	13.75
265.556	15.75
266.352	16.75
267.148	16.75
267.944	16.75
268.74	20.75
269.536	19.75
270.332	20.75
271.128	17.75
271.924	20.75
272.719	20.75
273.515	19.75
274.311	20.75
275.106	20.75
275.901	20.75
276.697	20.75
277.492	21.75
278.287	22.75
279.082	21.75
279.877	23.75
280.672	22.75
281.467	23.75
282.262	20.75
283.056	20.75
283.851	22.75
284.646	23.75
285.44	21.75
286.234	23.75
287.029	24.75
287.823	23.75
288.617	22.75
289.411	24.75
290.205	24.75
290.999	25.75
291.793	21.75
292.587	23.75
293.381	21.75
294.174	19.75
294.968	21.75
295.761	18.75
296.555	21.75
297.348	17.75
298.141	18.75
298.935	22.75
299.728	21.75
300.521	17.75
301.314	18.75
302.107	13.75
302.899	18.75
303.692	17.75
304.485	16.75
305.277	16.75
306.07	17.75
306.862	17.75
307.655	16.75
308.447	16.75
309.239	12.75
310.031	14.75
310.823	11.75
311.615	12.75
312.407	10.75
313.199	14.75
313.991	14.75
314.783	12.75
315.574	13.75
316.366	12.75
317.157	10.75
317.949	12.75
318.74	12.75
319.531	11.75
320.322	10.75
321.113	10.75
321.904	11.75
322.695	7.75
323.486	10.75
324.277	10.75
325.068	8.75
325.858	9.75
326.649	7.75
327.439	12.75
328.23	6.75
329.02	7.75
329.81	7.75
330.6	7.75
331.391	8.75
332.181	10.75
332.971	9.75
333.76	8.75
334.55	9.75
335.34	7.75
336.13	7.75
336.919	7.75
337.709	8.75
338.498	9.75
339.287	7.75
340.077	6.75
340.866	7.75
341.655	8.75
342.444	8.75
343.233	6.75
344.022	8.75
344.811	5.75
345.6	5.75
346.388	9.75
347.177	8.75
347.965	8.75
348.754	8.75
349.542	9.75
350.33	6.75
351.119	6.75
351.907	10.75
352.695	6.75
353.483	8.75
354.271	9.75
355.059	8.75
355.846	9.75
356.634	8.75
357.422	6.75
358.209	6.75
358.997	6.75
359.784	7.75
360.571	5.75
361.359	9.75
362.146	7.75
362.933	5.75
363.72	6.75
364.507	5.75
365.294	7.75
366.081	4.75
366.867	5.75
367.654	7.75
368.44	6.75
369.227	6.75
370.013	4.75
370.8	5.75
371.586	6.75
372.372	4.75
373.158	7.75
373.944	7.75
374.73	7.75
375.516	6.75
376.302	7.75
377.088	6.75
377.873	7.75
378.659	7.75
379.445	4.75
380.23	7.75
381.015	6.75
381.801	8.75
382.586	5.75
383.371	5.75
384.156	9.75
384.941	5.75
385.726	10.75
386.511	7.75
387.296	8.75
388.08	7.75
388.865	4.75
389.649	8.75
390.434	7.75
391.218	7.75
392.003	7.75
392.787	7.75
393.571	10.75
394.355	9.75
395.139	8.75
395.923	8.75
396.707	7.75
397.491	8.75
398.274	6.75
399.058	10.75
399.842	8.75
400.625	8.75
401.408	8.75
402.192	8.75
402.975	9.75
403.758	8.75
404.541	10.75
405.324	8.75
406.107	8.75
406.89	8.75
407.673	9.75
408.456	10.75
409.238	10.75
410.021	10.75
410.803	9.75
411.586	11.75
412.368	11.75
413.151	11.75
413.933	12.75
414.715	10.75
415.497	12.75
416.279	11.75
417.061	12.75
417.843	13.75
418.624	11.75
419.406	10.75
420.188	11.75
420.969	12.75
421.751	13.75
422.532	14.75
423.313	15.75
424.095	15.75
424.876	16.75
425.657	17.75
426.438	17.75
427.219	15.75
428	16.75
428.78	18.75
429.561	17.75
430.342	16.75
431.122	19.75
431.903	18.75
432.683	23.75
433.464	23.75
434.244	22.75
435.024	25.75
435.804	23.75
436.584	26.75
437.364	30.75
438.144	30.75
438.924	33.75
439.704	31.75
440.483	35.75
441.263	36.75
442.042	36.75
442.822	42.75
443.601	45.75
444.38	48.75
445.16	49.75
445.939	53.75
446.718	62.75
447.497	66.75
448.276	73.75
449.054	78.75
449.833	88.75
450.612	96.75
451.391	102.75
452.169	116.75
452.948	126.75
453.726	136.75
454.504	147.75
455.282	166.75
456.061	182.75
456.839	205.75
457.617	233.75
458.395	256.75
459.172	288.75
459.95	318.75
460.728	347.75
461.506	393.75
462.283	434.75
463.061	485.75
463.838	537.75
464.615	603.75
465.393	664.75
466.17	743.75
466.947	822.75
467.724	899.75
468.501	997.75
469.278	1101.75
470.055	1207.75
470.831	1345.75
471.608	1475.75
472.385	1626.75
473.161	1795.75
473.938	1981.75
474.714	2178.75
475.49	2369.75
476.266	2588.75
477.043	2835.75
477.819	3122.75
478.595	3416.75
479.371	3712.75
480.146	4072.75
480.922	4423.75
481.698	4830.75
482.473	5225.75
483.249	5710.75
484.024	6180.75
484.8	6777.75
485.575	7329.75
486.35	7932.75
487.126	8576.75
487.901	9309.75
488.676	10038.75
489.451	10908.75
490.225	11769.75
491	12730.75
491.775	13756.75
492.55	14748.75
493.324	15799.75
494.099	16910.75
494.873	18098.75
495.647	19215.75
496.422	20467.75
497.196	21759.75
497.97	23084.75
498.744	24274.75
499.518	25513.75
500.292	26668.75
501.066	27783.75
501.839	28933.75
502.613	29810.75
503.387	30666.75
504.16	31338.75
504.934	31848.75
505.707	32170.75
506.48	32410.75
507.253	32367.75
508.027	32360.75
508.8	32079.75
509.573	31665.75
510.346	31168.75
511.118	30522.75
511.891	29825.75
512.664	28901.75
513.437	28002.75
514.209	27041.75
514.982	26239.75
515.754	25137.75
516.526	24210.75
517.298	23262.75
518.071	22339.75
518.843	21445.75
519.615	20588.75
520.387	19813.75
521.159	19066.75
521.93	18314.75
522.702	17627.75
523.474	16939.75
524.245	16270.75
525.017	15535.75
525.788	14859.75
526.56	14261.75
527.331	13634.75
528.102	13068.75
528.873	12450.75
529.644	11848.75
530.415	11392.75
531.186	10849.75
531.957	10308.75
532.728	9783.75
533.498	9268.75
534.269	8795.75
535.039	8295.75
535.81	7899.75
536.58	7471.75
537.351	7062.75
538.121	6675.75
538.891	6334.75
539.661	6000.75
540.431	5672.75
541.201	5380.75
541.971	5116.75
542.741	4823.75
543.51	4597.75
544.28	4375.75
545.05	4150.75
545.819	3953.75
546.588	3759.75
547.358	3552.75
548.127	3389.75
548.896	3216.75
549.665	3054.75
550.434	2910.75
551.203	2776.75
551.972	2621.75
552.741	2480.75
553.51	2336.75
554.278	2220.75
555.047	2081.75
555.815	1992.75
556.584	1872.75
557.352	1771.75
558.121	1680.75
558.889	1580.75
559.657	1495.75
560.425	1391.75
561.193	1330.75
561.961	1266.75
562.729	1208.75
563.496	1133.75
564.264	1060.75
565.032	1021.75
565.799	952.75
566.567	915.75
567.334	851.75
568.101	812.75
568.869	756.75
569.636	723.75
570.403	680.75
571.17	630.75
571.937	605.75
572.704	578.75
573.471	534.75
574.237	504.75
575.004	478.75
575.771	451.75
576.537	424.75
577.303	405.75
578.07	376.75
578.836	349.75
579.602	334.75
580.368	319.75
581.134	300.75
581.9	284.75
582.666	276.75
583.432	254.75
584.198	246.75
584.964	236.75
585.729	220.75
586.495	212.75
587.26	202.75
588.025	182.75
588.791	180.75
589.556	168.75
590.321	159.75
591.086	155.75
591.851	143.75
592.616	141.75
593.381	128.75
594.146	126.75
594.911	114.75
595.675	113.75
596.44	108.75
597.204	102.75
597.969	98.75
598.733	91.75
599.497	87.75
600.261	83.75
601.025	82.75
601.79	78.75
602.553	73.75
603.317	73.75
604.081	66.75
604.845	66.75
605.609	64.75
606.372	60.75
607.136	58.75
607.899	57.75
608.662	52.75
609.426	50.75
610.189	45.75
610.952	44.75
611.715	44.75
612.478	43.75
613.241	40.75
614.004	42.75
614.767	40.75
615.529	37.75
616.292	36.75
617.055	34.75
617.817	34.75
618.579	32.75
619.342	30.75
620.104	30.75
620.866	30.75
621.628	29.75
622.39	24.75
623.152	23.75
623.914	25.75
624.676	25.75
625.438	25.75
626.199	24.75
626.961	25.75
627.722	20.75
628.484	20.75
629.245	20.75
630.006	20.75
630.768	19.75
631.529	20.75
632.29	18.75
633.051	18.75
633.812	16.75
634.573	18.75
635.333	17.75
636.094	14.75
636.855	16.75
637.615	14.75
638.376	13.75
639.136	14.75
639.896	12.75
640.657	15.75
641.417	14.75
642.177	13.75
642.937	11.75
643.697	12.75
644.457	11.75
645.216	10.75
645.976	13.75
646.736	11.75
647.495	10.75
648.255	10.75
649.014	11.75
649.774	13.75
650.533	10.75
651.292	9.75
652.051	9.75
652.81	12.75
653.569	9.75
654.328	8.75
655.087	8.75
655.846	8.75
656.604	8.75
657.363	8.75
658.121	7.75
658.88	8.75
659.638	8.75
660.397	7.75
661.155	7.75
661.913	8.75
662.671	8.75
663.429	7.75
664.187	10.75
664.945	6.75
665.703	6.75
666.46	7.75
667.218	8.75
667.976	7.75
668.733	7.75
669.49	6.75
670.248	5.75
671.005	7.75
671.762	5.75
672.519	7.75
673.276	6.75
674.033	6.75
674.79	9.75
675.547	5.75
676.304	5.75
677.06	7.75
677.817	7.75
678.574	7.75
679.33	5.75
680.086	6.75
680.843	5.75
681.599	3.75
682.355	6.75
683.111	5.75
683.867	6.75
684.623	5.75
685.379	6.75
686.135	4.75
686.89	6.75
687.646	5.75
688.402	4.75
689.157	5.75
689.912	2.75
690.668	4.75
691.423	2.75
692.178	5.75
692.933	4.75
693.688	6.75
694.443	5.75
695.198	4.75
695.953	6.75
696.708	4.75
697.462	3.75
698.217	5.75
698.972	1.75
699.726	4.75
700.48	3.75
701.235	2.75
701.989	6.75
702.743	3.75
703.497	4.75
704.251	3.75
705.005	5.75
705.759	4.75
706.513	3.75
707.266	5.75
708.02	5.75
708.774	4.75
709.527	4.75
710.28	6.75
711.034	5.75
711.787	2.75
712.54	8.75
713.293	5.75
714.046	4.75
714.799	5.75
715.552	3.75
716.305	4.75
717.058	3.75
717.81	3.75
718.563	6.75
719.315	4.75
720.068	5.75
720.82	5.75
721.573	6.75
722.325	4.75
723.077	2.75
723.829	5.75
724.581	3.75
725.333	4.75
726.085	3.75
726.836	2.75
727.588	5.75
728.34	4.75
729.091	8.75
729.843	3.75
730.594	7.75
731.346	6.75
732.097	3.75
732.848	6.75
733.599	4.75
734.35	7.75
735.101	6.75
735.852	7.75
736.603	5.75
737.354	5.75
738.104	4.75
738.855	5.75
739.605	6.75
740.356	8.75
741.106	6.75
741.856	6.75
742.607	7.75
743.357	9.75
744.107	5.75
744.857	5.75
745.607	9.75
746.357	5.75
747.106	6.75
747.856	7.75
748.606	6.75
749.355	6.75
750.105	5.75
750.854	6.75
751.603	5.75
752.353	7.75
753.102	7.75
753.851	9.75
754.6	7.75
755.349	6.75
756.098	8.75
756.847	7.75
757.595	7.75
758.344	6.75
759.093	9.75
759.841	6.75
760.589	6.75
761.338	10.75
762.086	6.75
762.834	10.75
763.582	6.75
764.331	8.75
765.079	7.75
765.826	8.75
766.574	8.75
767.322	9.75
768.07	6.75
768.817	9.75
769.565	6.75
770.312	8.75
771.06	5.75
771.807	9.75
772.554	10.75
773.302	8.75
774.049	7.75
774.796	9.75
775.543	9.75
776.29	10.75
777.036	9.75
777.783	10.75
778.53	11.75
779.276	9.75
780.023	7.75
780.769	12.75
781.516	12.75
782.262	11.75
783.008	10.75
783.754	11.75
784.5	8.75
785.246	10.75
785.992	11.75
786.738	10.75
787.484	11.75
788.23	10.75
788.975	10.75
789.721	13.75
790.466	10.75
791.212	11.75
791.957	11.75
792.702	10.75
793.447	10.75
794.193	10.75
794.938	9.75
795.683	11.75
796.427	10.75
797.172	9.75
797.917	9.75
798.662	8.75
799.406	8.75
800.151	7.75
800.895	12.75
801.64	8.75
802.384	8.75
803.128	6.75
803.872	7.75
804.616	7.75
805.36	6.75
806.104	7.75
806.848	7.75
807.592	7.75
808.336	6.75
809.079	6.75
809.823	7.75
810.566	4.75
811.31	7.75
812.053	7.75
812.796	4.75
813.539	7.75
814.283	6.75
815.026	6.75
815.769	4.75
816.511	9.75
817.254	4.75
817.997	6.75
818.74	7.75
819.482	4.75
820.225	5.75
820.967	6.75
821.71	5.75
822.452	5.75
823.194	4.75
823.936	7.75
824.678	5.75
825.42	6.75
826.162	4.75
826.904	5.75
827.646	3.75
828.388	5.75
829.129	5.75
829.871	6.75
830.612	4.75
831.354	5.75
832.095	2.75
832.836	5.75
833.577	4.75
834.319	6.75
835.06	2.75
835.801	4.75
836.542	4.75
837.282	4.75
838.023	3.75
838.764	4.75
839.504	3.75
840.245	4.75
840.985	3.75
841.726	5.75
842.466	4.75
843.206	5.75
843.946	3.75
844.687	4.75
845.427	5.75
846.166	3.75
846.906	3.75
847.646	3.75
848.386	2.75
849.125	4.75
849.865	2.75
850.605	4.75
851.344	3.75
852.083	4.75
852.823	4.75
853.562	3.75
854.301	4.75
855.04	0.75
855.779	4.75
856.518	2.75
857.257	3.75
857.995	3.75
858.734	1.75
859.473	2.75
860.211	2.75
860.95	3.75
861.688	2.75
862.426	4.75
863.165	4.75
863.903	2.75
864.641	1.75
865.379	3.75
866.117	0.75
866.855	2.75
867.593	2.75
868.33	0.75
869.068	0.75
869.806	2.75
870.543	1.75
871.28	3.75
872.018	2.75
872.755	0.75
873.492	1.75
874.229	1.75
874.967	2.75
875.703	3.75
876.44	2.75
877.177	0.75
877.914	-0.25
878.651	4.75
879.387	1.75
880.124	3.75
880.86	1.75
881.597	1.75
882.333	1.75
883.069	-0.25
883.806	0.75
884.542	0.75
885.278	-0.25
886.014	4.75
886.749	2.75
887.485	2.75
888.221	0.75
888.957	3.75
889.692	0.75
890.428	2.75
891.163	-0.25
891.899	0.75
892.634	2.75
893.369	2.75
894.104	1.75
894.839	1.75
895.574	0.75
896.309	1.75
897.044	1.75
897.779	1.75
898.514	1.75
899.248	-0.25
899.983	2.75
900.717	1.75
901.452	0.75
902.186	0.75
902.92	1.75
903.654	1.75
904.389	-0.25
905.123	-0.25
905.857	3.75
906.59	-0.25
907.324	1.75
908.058	0.75
908.792	2.75
909.525	0.75
910.259	0.75
910.992	2.75
911.726	0.75
912.459	2.75
913.192	1.75
913.925	2.75
914.658	1.75
915.391	1.75
916.124	1.75
916.857	0.75
917.59	0.75
918.323	-0.25
919.055	2.75
919.788	1.75
920.521	1.75
921.253	0.75
921.985	2.75
922.718	0.75
923.45	0.75
924.182	0.75
924.914	-0.25
925.646	0.75
926.378	-1.25
927.11	-0.25
927.841	1.75
928.573	-1.25
929.305	0.75
930.036	1.75
930.768	1.75
931.499	-0.25
932.23	0.75
932.962	1.75
933.693	1.75
934.424	-0.25
935.155	0.75
935.886	-0.25
936.617	1.75
937.348	-0.25
938.078	1.75
938.809	1.75
939.54	0.75
940.27	1.75
941.001	-0.25
941.731	-0.25
942.461	-0.25
943.191	2.75
943.922	1.75
944.652	-0.25
945.382	2.75
946.112	-0.25
946.841	1.75
947.571	-1.25
948.301	-2.25
949.031	0.75
949.76	0.75
950.49	-0.25
951.219	0.75
951.948	1.75
952.678	-0.25
953.407	-0.25
954.136	0.75
954.865	0.75
955.594	3.75
956.323	0.75
957.052	-1.25
957.78	1.75
958.509	0.75
959.238	3.75
959.966	1.75
960.695	-0.25
961.423	0.75
962.151	2.75
962.88	2.75
963.608	-1.25
964.336	2.75
965.064	0.75
965.792	0.75
966.52	2.75
967.247	-1.25
967.975	1.75
968.703	-0.25
969.43	1.75
970.158	2.75
970.885	0.75
971.613	1.75
972.34	1.75
973.067	0.75
973.794	2.75
974.521	-1.25
975.248	0.75
975.975	0.75
976.702	1.75
977.429	1.75
978.156	-1.25
978.882	1.75
979.609	1.75
980.335	2.75
981.062	2.75
981.788	-0.25
982.514	-1.25
983.24	0.75
983.967	-0.25
984.693	0.75
985.419	1.75
986.144	-0.25
986.87	-0.25
987.596	0.75
988.322	0.75
989.047	1.75
989.773	0.75
990.498	0.75
991.224	0.75
991.949	-1.25
992.674	0.75
993.399	0.75
994.124	2.75
994.849	0.75
995.574	1.75
996.299	1.75
997.024	-1.25
997.749	0.75
998.473	-0.25
999.198	1.75
999.922	1.75
1000.647	1.75
1001.371	1.75
1002.095	-3.25
1002.82	-1.25
1003.544	-4.25
1004.268	2.75
1004.992	3.75
1005.716	1.75
1006.439	4.75
1007.163	3.75
1007.887	4.75
1008.611	2.75
1009.334	1.75
1010.058	-0.25
1010.781	0.75
1011.504	0.75
1012.228	-0.25
1012.951	1.75
1013.674	3.75
1014.397	1.75
1015.12	-0.25
