节点500_425_QEPB04081__281__15-52-58-964.txt的数据

Date: Wed Nov 12 15:52:58 CST 2025
User: PC
Spectrometer: QEPB0408
触发模式: 0
积分时间 (秒): 1.000000E-2
Scans to average: 1
启用暗噪声校正: true
启用非线性校正: false
滑动平均宽度: 0
X轴模式: Wavelengths
Number of Pixels in Spectrum: 1044
>>>>>Begin Spectral Data<<<<<
220.843	3.38
221.644	3.38
222.444	2.38
223.244	4.38
224.045	2.38
224.845	3.38
225.645	2.38
226.445	2.38
227.245	5.38
228.045	4.38
228.845	5.38
229.645	5.38
230.444	2.38
231.244	8.38
232.043	5.38
232.843	6.38
233.642	3.38
234.442	5.38
235.241	7.38
236.04	6.38
236.839	7.38
237.638	6.38
238.437	8.38
239.236	5.38
240.035	6.38
240.833	6.38
241.632	8.38
242.43	6.38
243.229	5.38
244.027	8.38
244.826	8.38
245.624	9.38
246.422	8.38
247.22	10.38
248.018	7.38
248.816	10.38
249.614	10.38
250.412	10.38
251.21	7.38
252.007	9.38
252.805	10.38
253.602	11.38
254.4	13.38
255.197	10.38
255.994	11.38
256.791	16.38
257.589	13.38
258.386	14.38
259.183	14.38
259.979	14.38
260.776	14.38
261.573	14.38
262.37	16.38
263.166	15.38
263.963	16.38
264.759	16.38
265.556	17.38
266.352	16.38
267.148	15.38
267.944	21.38
268.74	20.38
269.536	20.38
270.332	22.38
271.128	22.38
271.924	22.38
272.719	24.38
273.515	21.38
274.311	21.38
275.106	21.38
275.901	24.38
276.697	25.38
277.492	26.38
278.287	23.38
279.082	25.38
279.877	24.38
280.672	22.38
281.467	25.38
282.262	26.38
283.056	24.38
283.851	25.38
284.646	23.38
285.44	27.38
286.234	23.38
287.029	26.38
287.823	25.38
288.617	23.38
289.411	23.38
290.205	24.38
290.999	23.38
291.793	22.38
292.587	23.38
293.381	22.38
294.174	22.38
294.968	22.38
295.761	17.38
296.555	24.38
297.348	18.38
298.141	21.38
298.935	20.38
299.728	20.38
300.521	19.38
301.314	17.38
302.107	16.38
302.899	18.38
303.692	14.38
304.485	17.38
305.277	15.38
306.07	17.38
306.862	13.38
307.655	18.38
308.447	17.38
309.239	14.38
310.031	17.38
310.823	14.38
311.615	13.38
312.407	15.38
313.199	12.38
313.991	11.38
314.783	12.38
315.574	11.38
316.366	12.38
317.157	10.38
317.949	12.38
318.74	10.38
319.531	12.38
320.322	8.38
321.113	12.38
321.904	11.38
322.695	9.38
323.486	9.38
324.277	8.38
325.068	12.38
325.858	9.38
326.649	7.38
327.439	8.38
328.23	7.38
329.02	11.38
329.81	8.38
330.6	7.38
331.391	9.38
332.181	7.38
332.971	8.38
333.76	9.38
334.55	8.38
335.34	10.38
336.13	7.38
336.919	9.38
337.709	9.38
338.498	8.38
339.287	8.38
340.077	6.38
340.866	7.38
341.655	9.38
342.444	9.38
343.233	6.38
344.022	8.38
344.811	8.38
345.6	6.38
346.388	8.38
347.177	8.38
347.965	7.38
348.754	4.38
349.542	7.38
350.33	9.38
351.119	7.38
351.907	10.38
352.695	9.38
353.483	9.38
354.271	7.38
355.059	7.38
355.846	9.38
356.634	10.38
357.422	7.38
358.209	5.38
358.997	8.38
359.784	6.38
360.571	7.38
361.359	9.38
362.146	7.38
362.933	8.38
363.72	9.38
364.507	7.38
365.294	6.38
366.081	9.38
366.867	6.38
367.654	9.38
368.44	7.38
369.227	8.38
370.013	6.38
370.8	8.38
371.586	8.38
372.372	7.38
373.158	9.38
373.944	5.38
374.73	8.38
375.516	7.38
376.302	6.38
377.088	6.38
377.873	7.38
378.659	7.38
379.445	6.38
380.23	8.38
381.015	7.38
381.801	6.38
382.586	8.38
383.371	9.38
384.156	8.38
384.941	7.38
385.726	5.38
386.511	6.38
387.296	7.38
388.08	9.38
388.865	7.38
389.649	8.38
390.434	7.38
391.218	7.38
392.003	6.38
392.787	7.38
393.571	8.38
394.355	11.38
395.139	9.38
395.923	10.38
396.707	5.38
397.491	10.38
398.274	7.38
399.058	8.38
399.842	10.38
400.625	8.38
401.408	8.38
402.192	9.38
402.975	11.38
403.758	10.38
404.541	11.38
405.324	11.38
406.107	9.38
406.89	9.38
407.673	9.38
408.456	12.38
409.238	11.38
410.021	10.38
410.803	10.38
411.586	11.38
412.368	12.38
413.151	12.38
413.933	12.38
414.715	12.38
415.497	14.38
416.279	14.38
417.061	10.38
417.843	14.38
418.624	13.38
419.406	12.38
420.188	17.38
420.969	15.38
421.751	12.38
422.532	14.38
423.313	15.38
424.095	15.38
424.876	16.38
425.657	17.38
426.438	17.38
427.219	20.38
428	17.38
428.78	16.38
429.561	18.38
430.342	19.38
431.122	20.38
431.903	16.38
432.683	19.38
433.464	22.38
434.244	23.38
435.024	24.38
435.804	25.38
436.584	27.38
437.364	27.38
438.144	26.38
438.924	30.38
439.704	31.38
440.483	34.38
441.263	36.38
442.042	36.38
442.822	38.38
443.601	40.38
444.38	48.38
445.16	46.38
445.939	52.38
446.718	56.38
447.497	60.38
448.276	64.38
449.054	70.38
449.833	76.38
450.612	86.38
451.391	89.38
452.169	103.38
452.948	112.38
453.726	127.38
454.504	138.38
455.282	151.38
456.061	170.38
456.839	182.38
457.617	209.38
458.395	228.38
459.172	253.38
459.95	283.38
460.728	316.38
461.506	347.38
462.283	396.38
463.061	450.38
463.838	494.38
464.615	557.38
465.393	621.38
466.17	686.38
466.947	757.38
467.724	854.38
468.501	949.38
469.278	1049.38
470.055	1163.38
470.831	1297.38
471.608	1428.38
472.385	1604.38
473.161	1741.38
473.938	1938.38
474.714	2128.38
475.49	2389.38
476.266	2611.38
477.043	2878.38
477.819	3160.38
478.595	3501.38
479.371	3849.38
480.146	4200.38
480.922	4653.38
481.698	5098.38
482.473	5570.38
483.249	6088.38
484.024	6684.38
484.8	7340.38
485.575	7978.38
486.35	8771.38
487.126	9518.38
487.901	10420.38
488.676	11331.38
489.451	12290.38
490.225	13388.38
491	14497.38
491.775	15761.38
492.55	16957.38
493.324	18287.38
494.099	19550.38
494.873	20951.38
495.647	22356.38
496.422	23728.38
497.196	25191.38
497.97	26744.38
498.744	28192.38
499.518	29521.38
500.292	30653.38
501.066	31818.38
501.839	32955.38
502.613	33867.38
503.387	34557.38
504.16	35010.38
504.934	35432.38
505.707	35340.38
506.48	35341.38
507.253	34980.38
508.027	34616.38
508.8	34010.38
509.573	33383.38
510.346	32481.38
511.118	31522.38
511.891	30500.38
512.664	29381.38
513.437	28285.38
514.209	27120.38
514.982	26133.38
515.754	25047.38
516.526	23983.38
517.298	23015.38
518.071	21998.38
518.843	21068.38
519.615	20156.38
520.387	19469.38
521.159	18682.38
521.93	17930.38
522.702	17258.38
523.474	16596.38
524.245	15941.38
525.017	15155.38
525.788	14445.38
526.56	13831.38
527.331	13182.38
528.102	12545.38
528.873	11974.38
529.644	11375.38
530.415	10885.38
531.186	10382.38
531.957	9809.38
532.728	9301.38
533.498	8785.38
534.269	8262.38
535.039	7866.38
535.81	7405.38
536.58	6985.38
537.351	6614.38
538.121	6225.38
538.891	5924.38
539.661	5582.38
540.431	5318.38
541.201	5039.38
541.971	4763.38
542.741	4505.38
543.51	4292.38
544.28	4080.38
545.05	3864.38
545.819	3718.38
546.588	3516.38
547.358	3328.38
548.127	3163.38
548.896	3009.38
549.665	2838.38
550.434	2683.38
551.203	2543.38
551.972	2430.38
552.741	2282.38
553.51	2149.38
554.278	2032.38
555.047	1923.38
555.815	1830.38
556.584	1714.38
557.352	1621.38
558.121	1525.38
558.889	1456.38
559.657	1363.38
560.425	1286.38
561.193	1199.38
561.961	1163.38
562.729	1091.38
563.496	1043.38
564.264	972.38
565.032	930.38
565.799	864.38
566.567	825.38
567.334	778.38
568.101	741.38
568.869	689.38
569.636	649.38
570.403	615.38
571.17	587.38
571.937	546.38
572.704	521.38
573.471	498.38
574.237	453.38
575.004	434.38
575.771	411.38
576.537	386.38
577.303	361.38
578.07	348.38
578.836	330.38
579.602	303.38
580.368	286.38
581.134	278.38
581.9	262.38
582.666	249.38
583.432	237.38
584.198	224.38
584.964	218.38
585.729	203.38
586.495	193.38
587.26	180.38
588.025	168.38
588.791	164.38
589.556	158.38
590.321	142.38
591.086	136.38
591.851	131.38
592.616	128.38
593.381	118.38
594.146	113.38
594.911	110.38
595.675	99.38
596.44	98.38
597.204	90.38
597.969	91.38
598.733	87.38
599.497	84.38
600.261	80.38
601.025	74.38
601.79	73.38
602.553	67.38
603.317	68.38
604.081	67.38
604.845	59.38
605.609	57.38
606.372	58.38
607.136	54.38
607.899	50.38
608.662	47.38
609.426	44.38
610.189	44.38
610.952	42.38
611.715	41.38
612.478	39.38
613.241	41.38
614.004	39.38
614.767	38.38
615.529	35.38
616.292	35.38
617.055	34.38
617.817	28.38
618.579	32.38
619.342	28.38
620.104	31.38
620.866	27.38
621.628	26.38
622.39	25.38
623.152	24.38
623.914	24.38
624.676	23.38
625.438	22.38
626.199	22.38
626.961	21.38
627.722	21.38
628.484	18.38
629.245	18.38
630.006	18.38
630.768	18.38
631.529	18.38
632.29	15.38
633.051	18.38
633.812	17.38
634.573	14.38
635.333	16.38
636.094	15.38
636.855	14.38
637.615	12.38
638.376	14.38
639.136	11.38
639.896	14.38
640.657	12.38
641.417	13.38
642.177	13.38
642.937	11.38
643.697	12.38
644.457	8.38
645.216	10.38
645.976	10.38
646.736	9.38
647.495	12.38
648.255	12.38
649.014	10.38
649.774	9.38
650.533	11.38
651.292	10.38
652.051	10.38
652.81	10.38
653.569	9.38
654.328	9.38
655.087	8.38
655.846	7.38
656.604	9.38
657.363	8.38
658.121	8.38
658.88	10.38
659.638	7.38
660.397	8.38
661.155	8.38
661.913	8.38
662.671	8.38
663.429	8.38
664.187	7.38
664.945	4.38
665.703	8.38
666.46	8.38
667.218	9.38
667.976	5.38
668.733	5.38
669.49	7.38
670.248	8.38
671.005	7.38
671.762	8.38
672.519	3.38
673.276	5.38
674.033	5.38
674.79	6.38
675.547	5.38
676.304	4.38
677.06	8.38
677.817	6.38
678.574	6.38
679.33	4.38
680.086	4.38
680.843	6.38
681.599	8.38
682.355	5.38
683.111	4.38
683.867	7.38
684.623	5.38
685.379	4.38
686.135	7.38
686.89	4.38
687.646	4.38
688.402	4.38
689.157	6.38
689.912	5.38
690.668	6.38
691.423	5.38
692.178	5.38
692.933	6.38
693.688	5.38
694.443	4.38
695.198	6.38
695.953	4.38
696.708	4.38
697.462	4.38
698.217	7.38
698.972	5.38
699.726	4.38
700.48	4.38
701.235	3.38
701.989	6.38
702.743	7.38
703.497	5.38
704.251	6.38
705.005	5.38
705.759	6.38
706.513	2.38
707.266	5.38
708.02	6.38
708.774	5.38
709.527	6.38
710.28	2.38
711.034	6.38
711.787	6.38
712.54	7.38
713.293	3.38
714.046	5.38
714.799	6.38
715.552	6.38
716.305	7.38
717.058	6.38
717.81	5.38
718.563	5.38
719.315	3.38
720.068	6.38
720.82	3.38
721.573	5.38
722.325	6.38
723.077	4.38
723.829	5.38
724.581	5.38
725.333	7.38
726.085	6.38
726.836	6.38
727.588	4.38
728.34	5.38
729.091	5.38
729.843	6.38
730.594	5.38
731.346	5.38
732.097	6.38
732.848	10.38
733.599	6.38
734.35	7.38
735.101	3.38
735.852	4.38
736.603	5.38
737.354	8.38
738.104	5.38
738.855	7.38
739.605	6.38
740.356	6.38
741.106	4.38
741.856	7.38
742.607	7.38
743.357	8.38
744.107	8.38
744.857	4.38
745.607	7.38
746.357	6.38
747.106	9.38
747.856	7.38
748.606	8.38
749.355	5.38
750.105	7.38
750.854	7.38
751.603	8.38
752.353	7.38
753.102	6.38
753.851	6.38
754.6	7.38
755.349	8.38
756.098	6.38
756.847	8.38
757.595	9.38
758.344	7.38
759.093	9.38
759.841	8.38
760.589	7.38
761.338	9.38
762.086	8.38
762.834	7.38
763.582	10.38
764.331	8.38
765.079	11.38
765.826	10.38
766.574	8.38
767.322	11.38
768.07	9.38
768.817	11.38
769.565	10.38
770.312	9.38
771.06	7.38
771.807	9.38
772.554	9.38
773.302	11.38
774.049	10.38
774.796	10.38
775.543	9.38
776.29	11.38
777.036	9.38
777.783	11.38
778.53	9.38
779.276	12.38
780.023	12.38
780.769	11.38
781.516	11.38
782.262	14.38
783.008	12.38
783.754	10.38
784.5	13.38
785.246	13.38
785.992	11.38
786.738	14.38
787.484	11.38
788.23	11.38
788.975	13.38
789.721	11.38
790.466	12.38
791.212	12.38
791.957	12.38
792.702	11.38
793.447	11.38
794.193	11.38
794.938	13.38
795.683	8.38
796.427	10.38
797.172	10.38
797.917	8.38
798.662	8.38
799.406	10.38
800.151	9.38
800.895	7.38
801.64	9.38
802.384	11.38
803.128	9.38
803.872	8.38
804.616	9.38
805.36	8.38
806.104	9.38
806.848	7.38
807.592	8.38
808.336	5.38
809.079	7.38
809.823	8.38
810.566	7.38
811.31	9.38
812.053	7.38
812.796	7.38
813.539	9.38
814.283	4.38
815.026	7.38
815.769	5.38
816.511	4.38
817.254	5.38
817.997	6.38
818.74	9.38
819.482	5.38
820.225	7.38
820.967	5.38
821.71	5.38
822.452	4.38
823.194	4.38
823.936	6.38
824.678	4.38
825.42	6.38
826.162	5.38
826.904	5.38
827.646	7.38
828.388	3.38
829.129	7.38
829.871	5.38
830.612	5.38
831.354	5.38
832.095	6.38
832.836	6.38
833.577	5.38
834.319	3.38
835.06	3.38
835.801	5.38
836.542	7.38
837.282	4.38
838.023	5.38
838.764	3.38
839.504	4.38
840.245	5.38
840.985	0.38
841.726	4.38
842.466	4.38
843.206	3.38
843.946	4.38
844.687	4.38
845.427	4.38
846.166	5.38
846.906	2.38
847.646	5.38
848.386	4.38
849.125	2.38
849.865	4.38
850.605	4.38
851.344	2.38
852.083	5.38
852.823	4.38
853.562	3.38
854.301	4.38
855.04	2.38
855.779	3.38
856.518	2.38
857.257	5.38
857.995	4.38
858.734	4.38
859.473	2.38
860.211	0.38
860.95	4.38
861.688	3.38
862.426	5.38
863.165	4.38
863.903	2.38
864.641	5.38
865.379	0.38
866.117	2.38
866.855	2.38
867.593	2.38
868.33	1.38
869.068	3.38
869.806	3.38
870.543	2.38
871.28	2.38
872.018	4.38
872.755	1.38
873.492	0.38
874.229	3.38
874.967	2.38
875.703	-1.62
876.44	0.38
877.177	2.38
877.914	1.38
878.651	2.38
879.387	-0.62
880.124	1.38
880.86	1.38
881.597	0.38
882.333	0.38
883.069	0.38
883.806	1.38
884.542	-0.62
885.278	2.38
886.014	2.38
886.749	0.38
887.485	0.38
888.221	3.38
888.957	2.38
889.692	0.38
890.428	3.38
891.163	2.38
891.899	0.38
892.634	0.38
893.369	1.38
894.104	-0.62
894.839	0.38
895.574	1.38
896.309	1.38
897.044	1.38
897.779	1.38
898.514	0.38
899.248	3.38
899.983	0.38
900.717	0.38
901.452	3.38
902.186	1.38
902.92	2.38
903.654	1.38
904.389	0.38
905.123	0.38
905.857	0.38
906.59	0.38
907.324	1.38
908.058	0.38
908.792	0.38
909.525	0.38
910.259	2.38
910.992	-1.62
911.726	1.38
912.459	0.38
913.192	-1.62
913.925	-1.62
914.658	0.38
915.391	-0.62
916.124	4.38
916.857	1.38
917.59	1.38
918.323	2.38
919.055	1.38
919.788	0.38
920.521	0.38
921.253	4.38
921.985	-2.62
922.718	1.38
923.45	-1.62
924.182	-0.62
924.914	2.38
925.646	1.38
926.378	0.38
927.11	-0.62
927.841	0.38
928.573	2.38
929.305	0.38
930.036	-1.62
930.768	1.38
931.499	-0.62
932.23	1.38
932.962	-1.62
933.693	0.38
934.424	0.38
935.155	1.38
935.886	-0.62
936.617	1.38
937.348	-1.62
938.078	-0.62
938.809	2.38
939.54	0.38
940.27	0.38
941.001	0.38
941.731	0.38
942.461	-0.62
943.191	-1.62
943.922	-0.62
944.652	0.38
945.382	0.38
946.112	-0.62
946.841	0.38
947.571	0.38
948.301	-1.62
949.031	0.38
949.76	0.38
950.49	1.38
951.219	0.38
951.948	-0.62
952.678	1.38
953.407	1.38
954.136	2.38
954.865	1.38
955.594	1.38
956.323	0.38
957.052	-0.62
957.78	1.38
958.509	0.38
959.238	-1.62
959.966	1.38
960.695	-0.62
961.423	2.38
962.151	-0.62
962.88	1.38
963.608	-1.62
964.336	-0.62
965.064	2.38
965.792	1.38
966.52	-0.62
967.247	0.38
967.975	-1.62
968.703	2.38
969.43	0.38
970.158	0.38
970.885	1.38
971.613	0.38
972.34	-1.62
973.067	0.38
973.794	-0.62
974.521	-0.62
975.248	1.38
975.975	0.38
976.702	1.38
977.429	3.38
978.156	-1.62
978.882	1.38
979.609	-1.62
980.335	1.38
981.062	1.38
981.788	2.38
982.514	1.38
983.24	1.38
983.967	2.38
984.693	1.38
985.419	0.38
986.144	-3.62
986.87	0.38
987.596	1.38
988.322	-0.62
989.047	0.38
989.773	2.38
990.498	0.38
991.224	0.38
991.949	1.38
992.674	1.38
993.399	-0.62
994.124	2.38
994.849	0.38
995.574	-0.62
996.299	0.38
997.024	1.38
997.749	1.38
998.473	-1.62
999.198	0.38
999.922	0.38
1000.647	1.38
1001.371	4.38
1002.095	-1.62
1002.82	0.38
1003.544	0.38
1004.268	4.38
1004.992	2.38
1005.716	1.38
1006.439	1.38
1007.163	2.38
1007.887	1.38
1008.611	-0.62
1009.334	1.38
1010.058	1.38
1010.781	-0.62
1011.504	0.38
1012.228	2.38
1012.951	-0.62
1013.674	-1.62
1014.397	-1.62
1015.12	0.38
