节点500_425_QEPB04081__484__15-56-21-565.txt的数据

Date: Wed Nov 12 15:56:21 CST 2025
User: PC
Spectrometer: QEPB0408
触发模式: 0
积分时间 (秒): 1.000000E-2
Scans to average: 1
启用暗噪声校正: true
启用非线性校正: false
滑动平均宽度: 0
X轴模式: Wavelengths
Number of Pixels in Spectrum: 1044
>>>>>Begin Spectral Data<<<<<
220.843	0.75
221.644	0.75
222.444	1.75
223.244	1.75
224.045	2.75
224.845	4.75
225.645	1.75
226.445	3.75
227.245	3.75
228.045	4.75
228.845	1.75
229.645	3.75
230.444	3.75
231.244	3.75
232.043	3.75
232.843	4.75
233.642	4.75
234.442	2.75
235.241	5.75
236.04	3.75
236.839	4.75
237.638	8.75
238.437	5.75
239.236	6.75
240.035	5.75
240.833	8.75
241.632	5.75
242.43	5.75
243.229	6.75
244.027	6.75
244.826	5.75
245.624	7.75
246.422	4.75
247.22	9.75
248.018	7.75
248.816	10.75
249.614	8.75
250.412	6.75
251.21	9.75
252.007	9.75
252.805	7.75
253.602	8.75
254.4	9.75
255.197	9.75
255.994	8.75
256.791	12.75
257.589	8.75
258.386	12.75
259.183	11.75
259.979	13.75
260.776	11.75
261.573	13.75
262.37	14.75
263.166	13.75
263.963	15.75
264.759	14.75
265.556	15.75
266.352	15.75
267.148	17.75
267.944	16.75
268.74	16.75
269.536	16.75
270.332	17.75
271.128	17.75
271.924	20.75
272.719	20.75
273.515	17.75
274.311	18.75
275.106	21.75
275.901	20.75
276.697	20.75
277.492	23.75
278.287	24.75
279.082	19.75
279.877	24.75
280.672	24.75
281.467	22.75
282.262	21.75
283.056	21.75
283.851	22.75
284.646	20.75
285.44	22.75
286.234	21.75
287.029	24.75
287.823	25.75
288.617	22.75
289.411	22.75
290.205	20.75
290.999	22.75
291.793	24.75
292.587	23.75
293.381	21.75
294.174	20.75
294.968	21.75
295.761	19.75
296.555	21.75
297.348	20.75
298.141	17.75
298.935	19.75
299.728	20.75
300.521	17.75
301.314	17.75
302.107	17.75
302.899	14.75
303.692	17.75
304.485	17.75
305.277	16.75
306.07	15.75
306.862	15.75
307.655	13.75
308.447	14.75
309.239	14.75
310.031	15.75
310.823	12.75
311.615	13.75
312.407	12.75
313.199	12.75
313.991	11.75
314.783	9.75
315.574	9.75
316.366	10.75
317.157	9.75
317.949	11.75
318.74	10.75
319.531	10.75
320.322	9.75
321.113	8.75
321.904	7.75
322.695	7.75
323.486	10.75
324.277	7.75
325.068	8.75
325.858	6.75
326.649	7.75
327.439	6.75
328.23	7.75
329.02	9.75
329.81	8.75
330.6	9.75
331.391	6.75
332.181	8.75
332.971	8.75
333.76	7.75
334.55	9.75
335.34	7.75
336.13	5.75
336.919	8.75
337.709	7.75
338.498	6.75
339.287	9.75
340.077	7.75
340.866	7.75
341.655	6.75
342.444	8.75
343.233	6.75
344.022	6.75
344.811	9.75
345.6	7.75
346.388	7.75
347.177	8.75
347.965	7.75
348.754	6.75
349.542	8.75
350.33	6.75
351.119	6.75
351.907	7.75
352.695	6.75
353.483	6.75
354.271	6.75
355.059	5.75
355.846	5.75
356.634	5.75
357.422	7.75
358.209	7.75
358.997	7.75
359.784	5.75
360.571	6.75
361.359	7.75
362.146	4.75
362.933	7.75
363.72	5.75
364.507	4.75
365.294	7.75
366.081	5.75
366.867	6.75
367.654	6.75
368.44	6.75
369.227	4.75
370.013	6.75
370.8	5.75
371.586	6.75
372.372	6.75
373.158	5.75
373.944	5.75
374.73	7.75
375.516	8.75
376.302	6.75
377.088	5.75
377.873	4.75
378.659	4.75
379.445	1.75
380.23	8.75
381.015	5.75
381.801	5.75
382.586	5.75
383.371	5.75
384.156	6.75
384.941	7.75
385.726	4.75
386.511	6.75
387.296	5.75
388.08	6.75
388.865	5.75
389.649	5.75
390.434	6.75
391.218	7.75
392.003	5.75
392.787	6.75
393.571	7.75
394.355	6.75
395.139	7.75
395.923	8.75
396.707	7.75
397.491	6.75
398.274	6.75
399.058	9.75
399.842	7.75
400.625	9.75
401.408	8.75
402.192	8.75
402.975	8.75
403.758	7.75
404.541	7.75
405.324	7.75
406.107	9.75
406.89	10.75
407.673	6.75
408.456	8.75
409.238	7.75
410.021	9.75
410.803	9.75
411.586	10.75
412.368	10.75
413.151	9.75
413.933	10.75
414.715	13.75
415.497	11.75
416.279	12.75
417.061	12.75
417.843	10.75
418.624	11.75
419.406	13.75
420.188	12.75
420.969	12.75
421.751	13.75
422.532	11.75
423.313	14.75
424.095	14.75
424.876	13.75
425.657	13.75
426.438	17.75
427.219	16.75
428	14.75
428.78	19.75
429.561	16.75
430.342	18.75
431.122	17.75
431.903	20.75
432.683	19.75
433.464	21.75
434.244	19.75
435.024	23.75
435.804	23.75
436.584	26.75
437.364	27.75
438.144	28.75
438.924	29.75
439.704	31.75
440.483	32.75
441.263	34.75
442.042	40.75
442.822	40.75
443.601	42.75
444.38	43.75
445.16	49.75
445.939	54.75
446.718	58.75
447.497	66.75
448.276	67.75
449.054	72.75
449.833	81.75
450.612	90.75
451.391	103.75
452.169	109.75
452.948	120.75
453.726	131.75
454.504	152.75
455.282	161.75
456.061	177.75
456.839	201.75
457.617	223.75
458.395	241.75
459.172	272.75
459.95	306.75
460.728	341.75
461.506	380.75
462.283	423.75
463.061	477.75
463.838	520.75
464.615	582.75
465.393	650.75
466.17	723.75
466.947	796.75
467.724	892.75
468.501	983.75
469.278	1092.75
470.055	1202.75
470.831	1325.75
471.608	1460.75
472.385	1611.75
473.161	1792.75
473.938	1967.75
474.714	2161.75
475.49	2380.75
476.266	2595.75
477.043	2865.75
477.819	3146.75
478.595	3457.75
479.371	3775.75
480.146	4109.75
480.922	4497.75
481.698	4913.75
482.473	5353.75
483.249	5839.75
484.024	6381.75
484.8	6938.75
485.575	7559.75
486.35	8197.75
487.126	8912.75
487.901	9652.75
488.676	10528.75
489.451	11371.75
490.225	12317.75
491	13317.75
491.775	14393.75
492.55	15444.75
493.324	16634.75
494.099	17844.75
494.873	18981.75
495.647	20233.75
496.422	21513.75
497.196	22890.75
497.97	24275.75
498.744	25607.75
499.518	26854.75
500.292	28000.75
501.066	29146.75
501.839	30266.75
502.613	31244.75
503.387	32046.75
504.16	32687.75
504.934	33112.75
505.707	33283.75
506.48	33406.75
507.253	33286.75
508.027	33199.75
508.8	32833.75
509.573	32349.75
510.346	31717.75
511.118	30997.75
511.891	30140.75
512.664	29157.75
513.437	28196.75
514.209	27130.75
514.982	26231.75
515.754	25209.75
516.526	24199.75
517.298	23235.75
518.071	22285.75
518.843	21401.75
519.615	20501.75
520.387	19660.75
521.159	18958.75
521.93	18217.75
522.702	17495.75
523.474	16871.75
524.245	16176.75
525.017	15421.75
525.788	14757.75
526.56	14174.75
527.331	13439.75
528.102	12891.75
528.873	12269.75
529.644	11673.75
530.415	11200.75
531.186	10685.75
531.957	10164.75
532.728	9619.75
533.498	9082.75
534.269	8626.75
535.039	8204.75
535.81	7709.75
536.58	7346.75
537.351	6870.75
538.121	6509.75
538.891	6202.75
539.661	5871.75
540.431	5552.75
541.201	5275.75
541.971	4977.75
542.741	4728.75
543.51	4480.75
544.28	4271.75
545.05	4046.75
545.819	3876.75
546.588	3671.75
547.358	3475.75
548.127	3313.75
548.896	3165.75
549.665	2980.75
550.434	2847.75
551.203	2692.75
551.972	2549.75
552.741	2397.75
553.51	2281.75
554.278	2145.75
555.047	2037.75
555.815	1916.75
556.584	1837.75
557.352	1728.75
558.121	1613.75
558.889	1527.75
559.657	1454.75
560.425	1354.75
561.193	1301.75
561.961	1221.75
562.729	1162.75
563.496	1101.75
564.264	1029.75
565.032	968.75
565.799	927.75
566.567	882.75
567.334	834.75
568.101	797.75
568.869	738.75
569.636	699.75
570.403	660.75
571.17	619.75
571.937	591.75
572.704	559.75
573.471	523.75
574.237	486.75
575.004	460.75
575.771	433.75
576.537	407.75
577.303	396.75
578.07	365.75
578.836	341.75
579.602	319.75
580.368	305.75
581.134	291.75
581.9	272.75
582.666	260.75
583.432	251.75
584.198	236.75
584.964	224.75
585.729	216.75
586.495	198.75
587.26	194.75
588.025	174.75
588.791	169.75
589.556	164.75
590.321	154.75
591.086	150.75
591.851	139.75
592.616	136.75
593.381	124.75
594.146	123.75
594.911	109.75
595.675	109.75
596.44	105.75
597.204	99.75
597.969	91.75
598.733	88.75
599.497	88.75
600.261	77.75
601.025	77.75
601.79	70.75
602.553	69.75
603.317	73.75
604.081	64.75
604.845	61.75
605.609	62.75
606.372	55.75
607.136	56.75
607.899	54.75
608.662	49.75
609.426	50.75
610.189	46.75
610.952	45.75
611.715	40.75
612.478	42.75
613.241	40.75
614.004	42.75
614.767	35.75
615.529	36.75
616.292	33.75
617.055	35.75
617.817	32.75
618.579	31.75
619.342	29.75
620.104	29.75
620.866	27.75
621.628	24.75
622.39	26.75
623.152	22.75
623.914	25.75
624.676	22.75
625.438	21.75
626.199	21.75
626.961	18.75
627.722	18.75
628.484	19.75
629.245	19.75
630.006	18.75
630.768	16.75
631.529	19.75
632.29	16.75
633.051	17.75
633.812	13.75
634.573	14.75
635.333	15.75
636.094	11.75
636.855	13.75
637.615	13.75
638.376	11.75
639.136	11.75
639.896	11.75
640.657	12.75
641.417	11.75
642.177	13.75
642.937	11.75
643.697	11.75
644.457	11.75
645.216	8.75
645.976	12.75
646.736	8.75
647.495	9.75
648.255	9.75
649.014	9.75
649.774	8.75
650.533	10.75
651.292	10.75
652.051	9.75
652.81	6.75
653.569	8.75
654.328	6.75
655.087	7.75
655.846	8.75
656.604	7.75
657.363	7.75
658.121	7.75
658.88	7.75
659.638	8.75
660.397	8.75
661.155	6.75
661.913	7.75
662.671	4.75
663.429	6.75
664.187	5.75
664.945	6.75
665.703	7.75
666.46	6.75
667.218	5.75
667.976	6.75
668.733	5.75
669.49	7.75
670.248	3.75
671.005	6.75
671.762	6.75
672.519	4.75
673.276	4.75
674.033	3.75
674.79	5.75
675.547	5.75
676.304	4.75
677.06	5.75
677.817	3.75
678.574	6.75
679.33	4.75
680.086	4.75
680.843	6.75
681.599	3.75
682.355	3.75
683.111	3.75
683.867	6.75
684.623	4.75
685.379	6.75
686.135	5.75
686.89	2.75
687.646	4.75
688.402	2.75
689.157	4.75
689.912	3.75
690.668	4.75
691.423	3.75
692.178	4.75
692.933	4.75
693.688	6.75
694.443	5.75
695.198	2.75
695.953	5.75
696.708	4.75
697.462	3.75
698.217	2.75
698.972	4.75
699.726	2.75
700.48	4.75
701.235	3.75
701.989	3.75
702.743	3.75
703.497	3.75
704.251	3.75
705.005	3.75
705.759	4.75
706.513	5.75
707.266	2.75
708.02	4.75
708.774	2.75
709.527	5.75
710.28	4.75
711.034	5.75
711.787	2.75
712.54	4.75
713.293	2.75
714.046	3.75
714.799	5.75
715.552	4.75
716.305	3.75
717.058	4.75
717.81	2.75
718.563	5.75
719.315	4.75
720.068	5.75
720.82	6.75
721.573	6.75
722.325	5.75
723.077	3.75
723.829	5.75
724.581	2.75
725.333	3.75
726.085	5.75
726.836	4.75
727.588	4.75
728.34	2.75
729.091	3.75
729.843	3.75
730.594	3.75
731.346	6.75
732.097	6.75
732.848	5.75
733.599	5.75
734.35	4.75
735.101	4.75
735.852	3.75
736.603	5.75
737.354	4.75
738.104	5.75
738.855	5.75
739.605	5.75
740.356	7.75
741.106	3.75
741.856	4.75
742.607	4.75
743.357	3.75
744.107	4.75
744.857	5.75
745.607	6.75
746.357	8.75
747.106	7.75
747.856	6.75
748.606	5.75
749.355	4.75
750.105	7.75
750.854	5.75
751.603	4.75
752.353	7.75
753.102	5.75
753.851	5.75
754.6	6.75
755.349	4.75
756.098	7.75
756.847	6.75
757.595	8.75
758.344	7.75
759.093	7.75
759.841	4.75
760.589	5.75
761.338	9.75
762.086	6.75
762.834	8.75
763.582	6.75
764.331	8.75
765.079	9.75
765.826	9.75
766.574	7.75
767.322	8.75
768.07	6.75
768.817	9.75
769.565	8.75
770.312	6.75
771.06	9.75
771.807	7.75
772.554	9.75
773.302	8.75
774.049	7.75
774.796	8.75
775.543	8.75
776.29	9.75
777.036	9.75
777.783	10.75
778.53	9.75
779.276	9.75
780.023	9.75
780.769	6.75
781.516	9.75
782.262	8.75
783.008	10.75
783.754	5.75
784.5	7.75
785.246	8.75
785.992	6.75
786.738	9.75
787.484	8.75
788.23	10.75
788.975	9.75
789.721	8.75
790.466	13.75
791.212	11.75
791.957	10.75
792.702	8.75
793.447	10.75
794.193	10.75
794.938	7.75
795.683	6.75
796.427	8.75
797.172	9.75
797.917	6.75
798.662	6.75
799.406	7.75
800.151	7.75
800.895	9.75
801.64	7.75
802.384	6.75
803.128	9.75
803.872	6.75
804.616	7.75
805.36	6.75
806.104	6.75
806.848	4.75
807.592	9.75
808.336	5.75
809.079	5.75
809.823	7.75
810.566	7.75
811.31	6.75
812.053	4.75
812.796	6.75
813.539	4.75
814.283	3.75
815.026	4.75
815.769	4.75
816.511	6.75
817.254	7.75
817.997	4.75
818.74	4.75
819.482	1.75
820.225	6.75
820.967	5.75
821.71	6.75
822.452	5.75
823.194	4.75
823.936	5.75
824.678	5.75
825.42	4.75
826.162	8.75
826.904	5.75
827.646	6.75
828.388	1.75
829.129	2.75
829.871	5.75
830.612	5.75
831.354	1.75
832.095	1.75
832.836	4.75
833.577	3.75
834.319	4.75
835.06	2.75
835.801	5.75
836.542	5.75
837.282	3.75
838.023	2.75
838.764	0.75
839.504	2.75
840.245	5.75
840.985	3.75
841.726	2.75
842.466	1.75
843.206	1.75
843.946	3.75
844.687	2.75
845.427	3.75
846.166	0.75
846.906	2.75
847.646	3.75
848.386	3.75
849.125	2.75
849.865	4.75
850.605	2.75
851.344	1.75
852.083	3.75
852.823	2.75
853.562	2.75
854.301	4.75
855.04	2.75
855.779	2.75
856.518	1.75
857.257	2.75
857.995	0.75
858.734	-0.25
859.473	2.75
860.211	-0.25
860.95	1.75
861.688	1.75
862.426	0.75
863.165	2.75
863.903	2.75
864.641	1.75
865.379	2.75
866.117	0.75
866.855	2.75
867.593	2.75
868.33	0.75
869.068	1.75
869.806	0.75
870.543	-2.25
871.28	1.75
872.018	2.75
872.755	-0.25
873.492	1.75
874.229	-0.25
874.967	3.75
875.703	2.75
876.44	-1.25
877.177	1.75
877.914	-1.25
878.651	-0.25
879.387	0.75
880.124	-0.25
880.86	-0.25
881.597	0.75
882.333	0.75
883.069	-0.25
883.806	-0.25
884.542	0.75
885.278	1.75
886.014	1.75
886.749	0.75
887.485	0.75
888.221	-0.25
888.957	-0.25
889.692	1.75
890.428	-1.25
891.163	-1.25
891.899	0.75
892.634	1.75
893.369	0.75
894.104	-1.25
894.839	0.75
895.574	-2.25
896.309	-0.25
897.044	0.75
897.779	0.75
898.514	2.75
899.248	-1.25
899.983	-0.25
900.717	-0.25
901.452	-0.25
902.186	0.75
902.92	-1.25
903.654	-0.25
904.389	-2.25
905.123	-0.25
905.857	-1.25
906.59	-0.25
907.324	-0.25
908.058	-1.25
908.792	1.75
909.525	0.75
910.259	-0.25
910.992	-0.25
911.726	0.75
912.459	-0.25
913.192	-0.25
913.925	1.75
914.658	-0.25
915.391	1.75
916.124	-0.25
916.857	-1.25
917.59	0.75
918.323	-0.25
919.055	-1.25
919.788	0.75
920.521	0.75
921.253	-1.25
921.985	-2.25
922.718	1.75
923.45	1.75
924.182	0.75
924.914	-1.25
925.646	-1.25
926.378	-0.25
927.11	-2.25
927.841	0.75
928.573	-0.25
929.305	-0.25
930.036	-0.25
930.768	-0.25
931.499	-0.25
932.23	-0.25
932.962	-0.25
933.693	0.75
934.424	-1.25
935.155	-0.25
935.886	-0.25
936.617	-0.25
937.348	0.75
938.078	-1.25
938.809	1.75
939.54	-2.25
940.27	1.75
941.001	-0.25
941.731	-0.25
942.461	-2.25
943.191	-0.25
943.922	-1.25
944.652	-0.25
945.382	0.75
946.112	-1.25
946.841	-1.25
947.571	0.75
948.301	0.75
949.031	-1.25
949.76	-1.25
950.49	-0.25
951.219	-2.25
951.948	-2.25
952.678	1.75
953.407	-2.25
954.136	-0.25
954.865	-0.25
955.594	-1.25
956.323	-1.25
957.052	-2.25
957.78	-1.25
958.509	-0.25
959.238	-0.25
959.966	-2.25
960.695	-1.25
961.423	1.75
962.151	-2.25
962.88	-0.25
963.608	-0.25
964.336	-0.25
965.064	-0.25
965.792	-0.25
966.52	-0.25
967.247	-2.25
967.975	-0.25
968.703	0.75
969.43	0.75
970.158	1.75
970.885	-1.25
971.613	-0.25
972.34	-1.25
973.067	0.75
973.794	-0.25
974.521	-2.25
975.248	-1.25
975.975	1.75
976.702	0.75
977.429	-1.25
978.156	-0.25
978.882	-0.25
979.609	-0.25
980.335	-0.25
981.062	-0.25
981.788	-0.25
982.514	-1.25
983.24	0.75
983.967	-0.25
984.693	-2.25
985.419	-1.25
986.144	-1.25
986.87	-0.25
987.596	-0.25
988.322	-0.25
989.047	-0.25
989.773	-1.25
990.498	0.75
991.224	-1.25
991.949	-2.25
992.674	-0.25
993.399	-0.25
994.124	-0.25
994.849	0.75
995.574	-1.25
996.299	0.75
997.024	-3.25
997.749	-0.25
998.473	-0.25
999.198	-2.25
999.922	-2.25
1000.647	-2.25
1001.371	3.75
1002.095	-2.25
1002.82	0.75
1003.544	-1.25
1004.268	1.75
1004.992	0.75
1005.716	1.75
1006.439	1.75
1007.163	1.75
1007.887	0.75
1008.611	-0.25
1009.334	-0.25
1010.058	0.75
1010.781	-0.25
1011.504	-3.25
1012.228	-0.25
1012.951	-1.25
1013.674	0.75
1014.397	0.75
1015.12	-1.25
