节点500_425_QEPB04081__29__15-48-49-431.txt的数据

Date: Wed Nov 12 15:48:49 CST 2025
User: PC
Spectrometer: QEPB0408
触发模式: 0
积分时间 (秒): 1.000000E-2
Scans to average: 1
启用暗噪声校正: true
启用非线性校正: false
滑动平均宽度: 0
X轴模式: Wavelengths
Number of Pixels in Spectrum: 1044
>>>>>Begin Spectral Data<<<<<
220.843	1.38
221.644	2.38
222.444	3.38
223.244	3.38
224.045	0.38
224.845	4.38
225.645	5.38
226.445	4.38
227.245	2.38
228.045	3.38
228.845	3.38
229.645	4.38
230.444	5.38
231.244	2.38
232.043	1.38
232.843	3.38
233.642	3.38
234.442	4.38
235.241	3.38
236.04	6.38
236.839	4.38
237.638	4.38
238.437	6.38
239.236	8.38
240.035	7.38
240.833	7.38
241.632	8.38
242.43	8.38
243.229	6.38
244.027	5.38
244.826	8.38
245.624	5.38
246.422	9.38
247.22	9.38
248.018	8.38
248.816	11.38
249.614	9.38
250.412	8.38
251.21	9.38
252.007	9.38
252.805	11.38
253.602	11.38
254.4	12.38
255.197	9.38
255.994	12.38
256.791	13.38
257.589	15.38
258.386	13.38
259.183	13.38
259.979	16.38
260.776	14.38
261.573	15.38
262.37	17.38
263.166	14.38
263.963	19.38
264.759	16.38
265.556	17.38
266.352	17.38
267.148	19.38
267.944	19.38
268.74	21.38
269.536	19.38
270.332	19.38
271.128	23.38
271.924	23.38
272.719	24.38
273.515	23.38
274.311	23.38
275.106	23.38
275.901	26.38
276.697	27.38
277.492	22.38
278.287	25.38
279.082	24.38
279.877	24.38
280.672	28.38
281.467	25.38
282.262	26.38
283.056	23.38
283.851	24.38
284.646	26.38
285.44	21.38
286.234	23.38
287.029	25.38
287.823	28.38
288.617	25.38
289.411	26.38
290.205	22.38
290.999	24.38
291.793	24.38
292.587	26.38
293.381	24.38
294.174	24.38
294.968	21.38
295.761	21.38
296.555	18.38
297.348	19.38
298.141	15.38
298.935	20.38
299.728	17.38
300.521	16.38
301.314	17.38
302.107	17.38
302.899	17.38
303.692	16.38
304.485	14.38
305.277	18.38
306.07	13.38
306.862	15.38
307.655	16.38
308.447	16.38
309.239	15.38
310.031	15.38
310.823	11.38
311.615	10.38
312.407	12.38
313.199	10.38
313.991	11.38
314.783	13.38
315.574	10.38
316.366	11.38
317.157	12.38
317.949	10.38
318.74	9.38
319.531	10.38
320.322	9.38
321.113	9.38
321.904	8.38
322.695	10.38
323.486	9.38
324.277	8.38
325.068	7.38
325.858	9.38
326.649	8.38
327.439	8.38
328.23	7.38
329.02	7.38
329.81	7.38
330.6	7.38
331.391	8.38
332.181	9.38
332.971	11.38
333.76	9.38
334.55	9.38
335.34	7.38
336.13	7.38
336.919	7.38
337.709	10.38
338.498	8.38
339.287	9.38
340.077	6.38
340.866	6.38
341.655	6.38
342.444	9.38
343.233	8.38
344.022	6.38
344.811	7.38
345.6	6.38
346.388	8.38
347.177	10.38
347.965	7.38
348.754	8.38
349.542	7.38
350.33	6.38
351.119	7.38
351.907	7.38
352.695	6.38
353.483	8.38
354.271	5.38
355.059	5.38
355.846	6.38
356.634	6.38
357.422	7.38
358.209	8.38
358.997	5.38
359.784	6.38
360.571	8.38
361.359	5.38
362.146	6.38
362.933	7.38
363.72	7.38
364.507	5.38
365.294	5.38
366.081	6.38
366.867	7.38
367.654	6.38
368.44	5.38
369.227	6.38
370.013	7.38
370.8	5.38
371.586	5.38
372.372	7.38
373.158	6.38
373.944	4.38
374.73	4.38
375.516	6.38
376.302	7.38
377.088	5.38
377.873	7.38
378.659	6.38
379.445	5.38
380.23	7.38
381.015	7.38
381.801	8.38
382.586	7.38
383.371	7.38
384.156	6.38
384.941	6.38
385.726	8.38
386.511	7.38
387.296	6.38
388.08	6.38
388.865	7.38
389.649	6.38
390.434	8.38
391.218	7.38
392.003	6.38
392.787	6.38
393.571	7.38
394.355	7.38
395.139	8.38
395.923	7.38
396.707	9.38
397.491	10.38
398.274	7.38
399.058	9.38
399.842	8.38
400.625	9.38
401.408	8.38
402.192	8.38
402.975	12.38
403.758	10.38
404.541	9.38
405.324	9.38
406.107	10.38
406.89	9.38
407.673	9.38
408.456	10.38
409.238	11.38
410.021	12.38
410.803	10.38
411.586	12.38
412.368	10.38
413.151	12.38
413.933	11.38
414.715	9.38
415.497	13.38
416.279	11.38
417.061	11.38
417.843	13.38
418.624	13.38
419.406	15.38
420.188	14.38
420.969	13.38
421.751	13.38
422.532	12.38
423.313	16.38
424.095	17.38
424.876	15.38
425.657	16.38
426.438	14.38
427.219	15.38
428	16.38
428.78	18.38
429.561	18.38
430.342	20.38
431.122	17.38
431.903	22.38
432.683	23.38
433.464	21.38
434.244	23.38
435.024	21.38
435.804	21.38
436.584	28.38
437.364	25.38
438.144	29.38
438.924	28.38
439.704	29.38
440.483	32.38
441.263	34.38
442.042	36.38
442.822	38.38
443.601	41.38
444.38	42.38
445.16	44.38
445.939	48.38
446.718	52.38
447.497	56.38
448.276	61.38
449.054	71.38
449.833	71.38
450.612	76.38
451.391	84.38
452.169	91.38
452.948	104.38
453.726	113.38
454.504	120.38
455.282	136.38
456.061	154.38
456.839	167.38
457.617	185.38
458.395	211.38
459.172	230.38
459.95	257.38
460.728	285.38
461.506	322.38
462.283	359.38
463.061	401.38
463.838	451.38
464.615	509.38
465.393	570.38
466.17	640.38
466.947	708.38
467.724	799.38
468.501	892.38
469.278	986.38
470.055	1108.38
470.831	1232.38
471.608	1354.38
472.385	1538.38
473.161	1704.38
473.938	1890.38
474.714	2097.38
475.49	2325.38
476.266	2596.38
477.043	2904.38
477.819	3209.38
478.595	3567.38
479.371	3935.38
480.146	4350.38
480.922	4763.38
481.698	5305.38
482.473	5874.38
483.249	6426.38
484.024	7118.38
484.8	7841.38
485.575	8614.38
486.35	9465.38
487.126	10349.38
487.901	11406.38
488.676	12465.38
489.451	13627.38
490.225	14848.38
491	16199.38
491.775	17598.38
492.55	19101.38
493.324	20611.38
494.099	22128.38
494.873	23625.38
495.647	25225.38
496.422	26886.38
497.196	28496.38
497.97	30190.38
498.744	31681.38
499.518	33064.38
500.292	34329.38
501.066	35374.38
501.839	36346.38
502.613	37253.38
503.387	37665.38
504.16	38029.38
504.934	37941.38
505.707	37753.38
506.48	37312.38
507.253	36778.38
508.027	36063.38
508.8	35139.38
509.573	34196.38
510.346	32985.38
511.118	31842.38
511.891	30631.38
512.664	29338.38
513.437	28141.38
514.209	26835.38
514.982	25711.38
515.754	24594.38
516.526	23462.38
517.298	22448.38
518.071	21496.38
518.843	20626.38
519.615	19783.38
520.387	19001.38
521.159	18210.38
521.93	17597.38
522.702	16872.38
523.474	16183.38
524.245	15513.38
525.017	14810.38
525.788	14107.38
526.56	13416.38
527.331	12799.38
528.102	12171.38
528.873	11515.38
529.644	10923.38
530.415	10408.38
531.186	9866.38
531.957	9316.38
532.728	8774.38
533.498	8320.38
534.269	7837.38
535.039	7370.38
535.81	6996.38
536.58	6577.38
537.351	6220.38
538.121	5843.38
538.891	5571.38
539.661	5298.38
540.431	5008.38
541.201	4733.38
541.971	4486.38
542.741	4276.38
543.51	4034.38
544.28	3849.38
545.05	3647.38
545.819	3458.38
546.588	3315.38
547.358	3128.38
548.127	2957.38
548.896	2813.38
549.665	2652.38
550.434	2518.38
551.203	2390.38
551.972	2264.38
552.741	2139.38
553.51	2022.38
554.278	1906.38
555.047	1802.38
555.815	1706.38
556.584	1603.38
557.352	1512.38
558.121	1397.38
558.889	1349.38
559.657	1266.38
560.425	1195.38
561.193	1123.38
561.961	1071.38
562.729	1011.38
563.496	955.38
564.264	903.38
565.032	852.38
565.799	804.38
566.567	751.38
567.334	720.38
568.101	678.38
568.869	643.38
569.636	607.38
570.403	567.38
571.17	547.38
571.937	507.38
572.704	486.38
573.471	460.38
574.237	426.38
575.004	402.38
575.771	372.38
576.537	354.38
577.303	336.38
578.07	322.38
578.836	297.38
579.602	281.38
580.368	268.38
581.134	257.38
581.9	240.38
582.666	232.38
583.432	220.38
584.198	197.38
584.964	195.38
585.729	182.38
586.495	173.38
587.26	163.38
588.025	162.38
588.791	153.38
589.556	141.38
590.321	132.38
591.086	126.38
591.851	122.38
592.616	116.38
593.381	109.38
594.146	105.38
594.911	99.38
595.675	92.38
596.44	89.38
597.204	85.38
597.969	81.38
598.733	78.38
599.497	75.38
600.261	73.38
601.025	71.38
601.79	68.38
602.553	60.38
603.317	64.38
604.081	57.38
604.845	56.38
605.609	52.38
606.372	51.38
607.136	51.38
607.899	47.38
608.662	44.38
609.426	43.38
610.189	41.38
610.952	40.38
611.715	40.38
612.478	40.38
613.241	35.38
614.004	35.38
614.767	34.38
615.529	31.38
616.292	31.38
617.055	28.38
617.817	29.38
618.579	27.38
619.342	29.38
620.104	26.38
620.866	26.38
621.628	25.38
622.39	26.38
623.152	22.38
623.914	22.38
624.676	21.38
625.438	23.38
626.199	21.38
626.961	17.38
627.722	20.38
628.484	18.38
629.245	19.38
630.006	16.38
630.768	17.38
631.529	15.38
632.29	15.38
633.051	15.38
633.812	15.38
634.573	13.38
635.333	14.38
636.094	13.38
636.855	13.38
637.615	14.38
638.376	13.38
639.136	13.38
639.896	10.38
640.657	11.38
641.417	11.38
642.177	11.38
642.937	11.38
643.697	8.38
644.457	9.38
645.216	12.38
645.976	8.38
646.736	11.38
647.495	7.38
648.255	9.38
649.014	10.38
649.774	10.38
650.533	9.38
651.292	5.38
652.051	9.38
652.81	7.38
653.569	7.38
654.328	8.38
655.087	7.38
655.846	6.38
656.604	7.38
657.363	7.38
658.121	8.38
658.88	7.38
659.638	8.38
660.397	7.38
661.155	7.38
661.913	9.38
662.671	5.38
663.429	9.38
664.187	5.38
664.945	7.38
665.703	6.38
666.46	6.38
667.218	8.38
667.976	7.38
668.733	4.38
669.49	5.38
670.248	4.38
671.005	4.38
671.762	5.38
672.519	5.38
673.276	5.38
674.033	5.38
674.79	4.38
675.547	8.38
676.304	6.38
677.06	4.38
677.817	4.38
678.574	4.38
679.33	0.38
680.086	5.38
680.843	8.38
681.599	4.38
682.355	4.38
683.111	4.38
683.867	7.38
684.623	3.38
685.379	3.38
686.135	3.38
686.89	5.38
687.646	4.38
688.402	7.38
689.157	1.38
689.912	4.38
690.668	6.38
691.423	5.38
692.178	3.38
692.933	1.38
693.688	4.38
694.443	3.38
695.198	3.38
695.953	4.38
696.708	5.38
697.462	3.38
698.217	2.38
698.972	4.38
699.726	3.38
700.48	4.38
701.235	5.38
701.989	2.38
702.743	4.38
703.497	4.38
704.251	6.38
705.005	4.38
705.759	4.38
706.513	4.38
707.266	4.38
708.02	3.38
708.774	3.38
709.527	4.38
710.28	5.38
711.034	4.38
711.787	1.38
712.54	3.38
713.293	7.38
714.046	3.38
714.799	5.38
715.552	2.38
716.305	5.38
717.058	4.38
717.81	3.38
718.563	4.38
719.315	2.38
720.068	3.38
720.82	6.38
721.573	5.38
722.325	5.38
723.077	4.38
723.829	6.38
724.581	4.38
725.333	5.38
726.085	4.38
726.836	3.38
727.588	6.38
728.34	4.38
729.091	5.38
729.843	4.38
730.594	4.38
731.346	6.38
732.097	4.38
732.848	7.38
733.599	4.38
734.35	5.38
735.101	9.38
735.852	6.38
736.603	6.38
737.354	6.38
738.104	7.38
738.855	8.38
739.605	5.38
740.356	7.38
741.106	8.38
741.856	4.38
742.607	9.38
743.357	6.38
744.107	5.38
744.857	7.38
745.607	6.38
746.357	4.38
747.106	7.38
747.856	8.38
748.606	6.38
749.355	8.38
750.105	7.38
750.854	4.38
751.603	8.38
752.353	7.38
753.102	6.38
753.851	5.38
754.6	7.38
755.349	6.38
756.098	8.38
756.847	9.38
757.595	8.38
758.344	8.38
759.093	6.38
759.841	9.38
760.589	9.38
761.338	8.38
762.086	9.38
762.834	10.38
763.582	11.38
764.331	6.38
765.079	11.38
765.826	8.38
766.574	9.38
767.322	9.38
768.07	8.38
768.817	11.38
769.565	10.38
770.312	8.38
771.06	8.38
771.807	8.38
772.554	12.38
773.302	9.38
774.049	8.38
774.796	10.38
775.543	11.38
776.29	12.38
777.036	8.38
777.783	8.38
778.53	11.38
779.276	10.38
780.023	9.38
780.769	9.38
781.516	12.38
782.262	9.38
783.008	13.38
783.754	9.38
784.5	10.38
785.246	12.38
785.992	10.38
786.738	12.38
787.484	10.38
788.23	11.38
788.975	10.38
789.721	11.38
790.466	9.38
791.212	9.38
791.957	12.38
792.702	9.38
793.447	10.38
794.193	10.38
794.938	9.38
795.683	12.38
796.427	9.38
797.172	8.38
797.917	6.38
798.662	8.38
799.406	9.38
800.151	10.38
800.895	8.38
801.64	8.38
802.384	7.38
803.128	9.38
803.872	8.38
804.616	8.38
805.36	6.38
806.104	8.38
806.848	6.38
807.592	5.38
808.336	7.38
809.079	7.38
809.823	4.38
810.566	7.38
811.31	8.38
812.053	7.38
812.796	6.38
813.539	8.38
814.283	4.38
815.026	8.38
815.769	6.38
816.511	3.38
817.254	5.38
817.997	4.38
818.74	4.38
819.482	5.38
820.225	4.38
820.967	4.38
821.71	2.38
822.452	6.38
823.194	2.38
823.936	3.38
824.678	4.38
825.42	2.38
826.162	4.38
826.904	5.38
827.646	4.38
828.388	3.38
829.129	2.38
829.871	1.38
830.612	4.38
831.354	4.38
832.095	2.38
832.836	3.38
833.577	1.38
834.319	1.38
835.06	3.38
835.801	1.38
836.542	3.38
837.282	1.38
838.023	5.38
838.764	5.38
839.504	2.38
840.245	3.38
840.985	2.38
841.726	0.38
842.466	1.38
843.206	4.38
843.946	4.38
844.687	3.38
845.427	2.38
846.166	1.38
846.906	2.38
847.646	0.38
848.386	4.38
849.125	1.38
849.865	0.38
850.605	5.38
851.344	3.38
852.083	0.38
852.823	3.38
853.562	2.38
854.301	1.38
855.04	2.38
855.779	1.38
856.518	3.38
857.257	0.38
857.995	2.38
858.734	0.38
859.473	2.38
860.211	1.38
860.95	3.38
861.688	1.38
862.426	0.38
863.165	1.38
863.903	0.38
864.641	2.38
865.379	1.38
866.117	1.38
866.855	2.38
867.593	-0.62
868.33	1.38
869.068	0.38
869.806	0.38
870.543	0.38
871.28	-0.62
872.018	0.38
872.755	0.38
873.492	3.38
874.229	1.38
874.967	0.38
875.703	0.38
876.44	0.38
877.177	1.38
877.914	0.38
878.651	1.38
879.387	1.38
880.124	-1.62
880.86	-1.62
881.597	-0.62
882.333	1.38
883.069	-0.62
883.806	-0.62
884.542	1.38
885.278	1.38
886.014	4.38
886.749	-0.62
887.485	0.38
888.221	1.38
888.957	0.38
889.692	-2.62
890.428	-0.62
891.163	-0.62
891.899	1.38
892.634	0.38
893.369	0.38
894.104	-0.62
894.839	1.38
895.574	0.38
896.309	1.38
897.044	1.38
897.779	-0.62
898.514	1.38
899.248	0.38
899.983	0.38
900.717	-0.62
901.452	1.38
902.186	0.38
902.92	1.38
903.654	-2.62
904.389	-1.62
905.123	-0.62
905.857	0.38
906.59	1.38
907.324	0.38
908.058	-0.62
908.792	0.38
909.525	0.38
910.259	1.38
910.992	0.38
911.726	-1.62
912.459	0.38
913.192	-2.62
913.925	0.38
914.658	0.38
915.391	0.38
916.124	-0.62
916.857	1.38
917.59	-1.62
918.323	-0.62
919.055	1.38
919.788	-0.62
920.521	-0.62
921.253	-0.62
921.985	0.38
922.718	0.38
923.45	-1.62
924.182	-0.62
924.914	-1.62
925.646	-0.62
926.378	-0.62
927.11	-0.62
927.841	0.38
928.573	0.38
929.305	0.38
930.036	2.38
930.768	-1.62
931.499	0.38
932.23	1.38
932.962	0.38
933.693	0.38
934.424	-1.62
935.155	-0.62
935.886	2.38
936.617	-0.62
937.348	-0.62
938.078	-3.62
938.809	1.38
939.54	-1.62
940.27	-1.62
941.001	-2.62
941.731	0.38
942.461	-1.62
943.191	-1.62
943.922	-0.62
944.652	-2.62
945.382	-1.62
946.112	-0.62
946.841	0.38
947.571	-2.62
948.301	-0.62
949.031	-0.62
949.76	-1.62
950.49	-0.62
951.219	-0.62
951.948	-0.62
952.678	0.38
953.407	2.38
954.136	-0.62
954.865	-1.62
955.594	0.38
956.323	-0.62
957.052	-0.62
957.78	-0.62
958.509	-1.62
959.238	-1.62
959.966	-2.62
960.695	-0.62
961.423	-0.62
962.151	-1.62
962.88	-1.62
963.608	-2.62
964.336	0.38
965.064	-2.62
965.792	0.38
966.52	-2.62
967.247	-2.62
967.975	-0.62
968.703	-1.62
969.43	-0.62
970.158	0.38
970.885	-1.62
971.613	-1.62
972.34	-0.62
973.067	0.38
973.794	-1.62
974.521	-0.62
975.248	-2.62
975.975	-0.62
976.702	1.38
977.429	0.38
978.156	-0.62
978.882	-0.62
979.609	-1.62
980.335	0.38
981.062	-2.62
981.788	0.38
982.514	-1.62
983.24	0.38
983.967	-0.62
984.693	-2.62
985.419	0.38
986.144	-1.62
986.87	0.38
987.596	-0.62
988.322	-0.62
989.047	1.38
989.773	-2.62
990.498	-1.62
991.224	-1.62
991.949	0.38
992.674	1.38
993.399	-1.62
994.124	-0.62
994.849	-3.62
995.574	1.38
996.299	-0.62
997.024	-0.62
997.749	-2.62
998.473	-1.62
999.198	-2.62
999.922	-0.62
1000.647	0.38
1001.371	4.38
1002.095	-2.62
1002.82	-2.62
1003.544	-0.62
1004.268	1.38
1004.992	1.38
1005.716	2.38
1006.439	-0.62
1007.163	2.38
1007.887	3.38
1008.611	-0.62
1009.334	-2.62
1010.058	0.38
1010.781	-2.62
1011.504	1.38
1012.228	-0.62
1012.951	-0.62
1013.674	0.38
1014.397	1.38
1015.12	0.38
