节点500_425_QEPB04081__328__15-53-45-813.txt的数据

Date: Wed Nov 12 15:53:45 CST 2025
User: PC
Spectrometer: QEPB0408
触发模式: 0
积分时间 (秒): 1.000000E-2
Scans to average: 1
启用暗噪声校正: true
启用非线性校正: false
滑动平均宽度: 0
X轴模式: Wavelengths
Number of Pixels in Spectrum: 1044
>>>>>Begin Spectral Data<<<<<
220.843	3.62
221.644	3.62
222.444	3.62
223.244	1.62
224.045	7.62
224.845	3.62
225.645	0.62
226.445	5.62
227.245	5.62
228.045	4.62
228.845	3.62
229.645	4.62
230.444	5.62
231.244	4.62
232.043	4.62
232.843	5.62
233.642	4.62
234.442	7.62
235.241	5.62
236.04	6.62
236.839	7.62
237.638	5.62
238.437	8.62
239.236	3.62
240.035	9.62
240.833	6.62
241.632	7.62
242.43	7.62
243.229	7.62
244.027	8.62
244.826	6.62
245.624	6.62
246.422	9.62
247.22	8.62
248.018	9.62
248.816	9.62
249.614	8.62
250.412	8.62
251.21	9.62
252.007	10.62
252.805	12.62
253.602	12.62
254.4	11.62
255.197	14.62
255.994	10.62
256.791	13.62
257.589	15.62
258.386	11.62
259.183	15.62
259.979	13.62
260.776	15.62
261.573	14.62
262.37	15.62
263.166	14.62
263.963	14.62
264.759	18.62
265.556	17.62
266.352	18.62
267.148	19.62
267.944	16.62
268.74	21.62
269.536	19.62
270.332	18.62
271.128	19.62
271.924	22.62
272.719	22.62
273.515	23.62
274.311	22.62
275.106	21.62
275.901	23.62
276.697	23.62
277.492	25.62
278.287	24.62
279.082	23.62
279.877	22.62
280.672	23.62
281.467	24.62
282.262	26.62
283.056	26.62
283.851	25.62
284.646	25.62
285.44	23.62
286.234	23.62
287.029	24.62
287.823	26.62
288.617	24.62
289.411	25.62
290.205	20.62
290.999	24.62
291.793	26.62
292.587	24.62
293.381	20.62
294.174	22.62
294.968	20.62
295.761	21.62
296.555	18.62
297.348	20.62
298.141	22.62
298.935	22.62
299.728	19.62
300.521	19.62
301.314	17.62
302.107	18.62
302.899	19.62
303.692	17.62
304.485	18.62
305.277	14.62
306.07	16.62
306.862	18.62
307.655	15.62
308.447	13.62
309.239	14.62
310.031	17.62
310.823	12.62
311.615	13.62
312.407	13.62
313.199	11.62
313.991	13.62
314.783	11.62
315.574	12.62
316.366	13.62
317.157	10.62
317.949	12.62
318.74	9.62
319.531	9.62
320.322	12.62
321.113	8.62
321.904	8.62
322.695	11.62
323.486	10.62
324.277	9.62
325.068	8.62
325.858	10.62
326.649	8.62
327.439	10.62
328.23	10.62
329.02	9.62
329.81	10.62
330.6	7.62
331.391	9.62
332.181	8.62
332.971	8.62
333.76	10.62
334.55	8.62
335.34	10.62
336.13	6.62
336.919	10.62
337.709	6.62
338.498	8.62
339.287	5.62
340.077	4.62
340.866	8.62
341.655	10.62
342.444	7.62
343.233	10.62
344.022	10.62
344.811	7.62
345.6	9.62
346.388	9.62
347.177	8.62
347.965	10.62
348.754	9.62
349.542	11.62
350.33	9.62
351.119	5.62
351.907	8.62
352.695	7.62
353.483	8.62
354.271	8.62
355.059	5.62
355.846	10.62
356.634	7.62
357.422	7.62
358.209	7.62
358.997	8.62
359.784	8.62
360.571	6.62
361.359	6.62
362.146	9.62
362.933	5.62
363.72	6.62
364.507	7.62
365.294	8.62
366.081	7.62
366.867	6.62
367.654	5.62
368.44	5.62
369.227	6.62
370.013	8.62
370.8	6.62
371.586	7.62
372.372	8.62
373.158	6.62
373.944	6.62
374.73	6.62
375.516	6.62
376.302	6.62
377.088	6.62
377.873	6.62
378.659	7.62
379.445	6.62
380.23	6.62
381.015	7.62
381.801	6.62
382.586	10.62
383.371	5.62
384.156	9.62
384.941	3.62
385.726	8.62
386.511	7.62
387.296	5.62
388.08	7.62
388.865	9.62
389.649	9.62
390.434	7.62
391.218	7.62
392.003	7.62
392.787	9.62
393.571	9.62
394.355	7.62
395.139	9.62
395.923	8.62
396.707	10.62
397.491	10.62
398.274	10.62
399.058	8.62
399.842	10.62
400.625	10.62
401.408	11.62
402.192	9.62
402.975	9.62
403.758	9.62
404.541	11.62
405.324	10.62
406.107	11.62
406.89	10.62
407.673	10.62
408.456	12.62
409.238	10.62
410.021	9.62
410.803	12.62
411.586	10.62
412.368	12.62
413.151	12.62
413.933	16.62
414.715	14.62
415.497	13.62
416.279	14.62
417.061	10.62
417.843	14.62
418.624	13.62
419.406	12.62
420.188	14.62
420.969	15.62
421.751	15.62
422.532	13.62
423.313	14.62
424.095	14.62
424.876	17.62
425.657	14.62
426.438	19.62
427.219	18.62
428	18.62
428.78	18.62
429.561	22.62
430.342	19.62
431.122	21.62
431.903	20.62
432.683	24.62
433.464	21.62
434.244	24.62
435.024	25.62
435.804	24.62
436.584	24.62
437.364	26.62
438.144	28.62
438.924	33.62
439.704	30.62
440.483	36.62
441.263	35.62
442.042	38.62
442.822	39.62
443.601	41.62
444.38	43.62
445.16	48.62
445.939	53.62
446.718	57.62
447.497	62.62
448.276	64.62
449.054	70.62
449.833	79.62
450.612	84.62
451.391	96.62
452.169	101.62
452.948	113.62
453.726	128.62
454.504	139.62
455.282	152.62
456.061	167.62
456.839	187.62
457.617	205.62
458.395	230.62
459.172	257.62
459.95	291.62
460.728	326.62
461.506	367.62
462.283	409.62
463.061	444.62
463.838	499.62
464.615	554.62
465.393	611.62
466.17	701.62
466.947	774.62
467.724	862.62
468.501	945.62
469.278	1058.62
470.055	1165.62
470.831	1298.62
471.608	1434.62
472.385	1597.62
473.161	1780.62
473.938	1941.62
474.714	2162.62
475.49	2395.62
476.266	2601.62
477.043	2865.62
477.819	3154.62
478.595	3488.62
479.371	3858.62
480.146	4166.62
480.922	4609.62
481.698	5048.62
482.473	5513.62
483.249	6059.62
484.024	6637.62
484.8	7244.62
485.575	7908.62
486.35	8600.62
487.126	9384.62
487.901	10204.62
488.676	11154.62
489.451	12123.62
490.225	13106.62
491	14270.62
491.775	15422.62
492.55	16584.62
493.324	17904.62
494.099	19236.62
494.873	20542.62
495.647	21896.62
496.422	23263.62
497.196	24689.62
497.97	26231.62
498.744	27616.62
499.518	28943.62
500.292	30088.62
501.066	31211.62
501.839	32367.62
502.613	33360.62
503.387	33998.62
504.16	34592.62
504.934	34897.62
505.707	35026.62
506.48	34856.62
507.253	34697.62
508.027	34325.62
508.8	33853.62
509.573	33127.62
510.346	32359.62
511.118	31368.62
511.891	30547.62
512.664	29329.62
513.437	28264.62
514.209	27113.62
514.982	26146.62
515.754	25018.62
516.526	23978.62
517.298	23054.62
518.071	22076.62
518.843	21200.62
519.615	20299.62
520.387	19472.62
521.159	18727.62
521.93	18020.62
522.702	17332.62
523.474	16623.62
524.245	15949.62
525.017	15260.62
525.788	14511.62
526.56	13883.62
527.331	13294.62
528.102	12688.62
528.873	12024.62
529.644	11444.62
530.415	10964.62
531.186	10439.62
531.957	9894.62
532.728	9373.62
533.498	8816.62
534.269	8340.62
535.039	7947.62
535.81	7480.62
536.58	7060.62
537.351	6667.62
538.121	6306.62
538.891	5987.62
539.661	5677.62
540.431	5379.62
541.201	5084.62
541.971	4812.62
542.741	4556.62
543.51	4341.62
544.28	4112.62
545.05	3931.62
545.819	3745.62
546.588	3554.62
547.358	3366.62
548.127	3155.62
548.896	3017.62
549.665	2894.62
550.434	2732.62
551.203	2590.62
551.972	2441.62
552.741	2316.62
553.51	2198.62
554.278	2072.62
555.047	1961.62
555.815	1856.62
556.584	1748.62
557.352	1647.62
558.121	1549.62
558.889	1468.62
559.657	1377.62
560.425	1286.62
561.193	1229.62
561.961	1187.62
562.729	1092.62
563.496	1050.62
564.264	983.62
565.032	924.62
565.799	888.62
566.567	835.62
567.334	786.62
568.101	747.62
568.869	712.62
569.636	661.62
570.403	629.62
571.17	586.62
571.937	559.62
572.704	530.62
573.471	504.62
574.237	470.62
575.004	449.62
575.771	414.62
576.537	396.62
577.303	367.62
578.07	350.62
578.836	323.62
579.602	307.62
580.368	296.62
581.134	282.62
581.9	261.62
582.666	256.62
583.432	237.62
584.198	229.62
584.964	213.62
585.729	204.62
586.495	190.62
587.26	184.62
588.025	175.62
588.791	161.62
589.556	158.62
590.321	148.62
591.086	146.62
591.851	130.62
592.616	123.62
593.381	116.62
594.146	117.62
594.911	109.62
595.675	104.62
596.44	101.62
597.204	96.62
597.969	94.62
598.733	88.62
599.497	85.62
600.261	79.62
601.025	76.62
601.79	67.62
602.553	74.62
603.317	67.62
604.081	67.62
604.845	61.62
605.609	63.62
606.372	53.62
607.136	57.62
607.899	51.62
608.662	49.62
609.426	49.62
610.189	44.62
610.952	45.62
611.715	39.62
612.478	41.62
613.241	40.62
614.004	37.62
614.767	38.62
615.529	32.62
616.292	31.62
617.055	30.62
617.817	30.62
618.579	28.62
619.342	30.62
620.104	25.62
620.866	26.62
621.628	26.62
622.39	24.62
623.152	22.62
623.914	23.62
624.676	24.62
625.438	20.62
626.199	23.62
626.961	20.62
627.722	25.62
628.484	16.62
629.245	21.62
630.006	20.62
630.768	16.62
631.529	18.62
632.29	18.62
633.051	18.62
633.812	18.62
634.573	19.62
635.333	15.62
636.094	13.62
636.855	16.62
637.615	14.62
638.376	13.62
639.136	15.62
639.896	14.62
640.657	14.62
641.417	12.62
642.177	14.62
642.937	10.62
643.697	12.62
644.457	10.62
645.216	12.62
645.976	10.62
646.736	12.62
647.495	10.62
648.255	10.62
649.014	8.62
649.774	10.62
650.533	8.62
651.292	10.62
652.051	8.62
652.81	8.62
653.569	8.62
654.328	7.62
655.087	8.62
655.846	7.62
656.604	11.62
657.363	11.62
658.121	6.62
658.88	10.62
659.638	9.62
660.397	8.62
661.155	7.62
661.913	6.62
662.671	6.62
663.429	8.62
664.187	10.62
664.945	5.62
665.703	7.62
666.46	9.62
667.218	5.62
667.976	8.62
668.733	7.62
669.49	8.62
670.248	6.62
671.005	5.62
671.762	7.62
672.519	4.62
673.276	8.62
674.033	4.62
674.79	6.62
675.547	6.62
676.304	4.62
677.06	6.62
677.817	5.62
678.574	8.62
679.33	6.62
680.086	3.62
680.843	6.62
681.599	3.62
682.355	6.62
683.111	6.62
683.867	6.62
684.623	4.62
685.379	5.62
686.135	5.62
686.89	5.62
687.646	6.62
688.402	4.62
689.157	7.62
689.912	4.62
690.668	7.62
691.423	6.62
692.178	4.62
692.933	5.62
693.688	6.62
694.443	5.62
695.198	7.62
695.953	3.62
696.708	4.62
697.462	4.62
698.217	6.62
698.972	6.62
699.726	5.62
700.48	5.62
701.235	5.62
701.989	5.62
702.743	5.62
703.497	4.62
704.251	4.62
705.005	3.62
705.759	6.62
706.513	4.62
707.266	5.62
708.02	4.62
708.774	5.62
709.527	7.62
710.28	3.62
711.034	6.62
711.787	6.62
712.54	7.62
713.293	3.62
714.046	4.62
714.799	2.62
715.552	5.62
716.305	5.62
717.058	6.62
717.81	6.62
718.563	5.62
719.315	6.62
720.068	4.62
720.82	5.62
721.573	6.62
722.325	5.62
723.077	5.62
723.829	4.62
724.581	4.62
725.333	5.62
726.085	6.62
726.836	3.62
727.588	5.62
728.34	3.62
729.091	8.62
729.843	3.62
730.594	5.62
731.346	6.62
732.097	5.62
732.848	5.62
733.599	3.62
734.35	9.62
735.101	7.62
735.852	5.62
736.603	5.62
737.354	8.62
738.104	7.62
738.855	4.62
739.605	9.62
740.356	5.62
741.106	5.62
741.856	8.62
742.607	6.62
743.357	3.62
744.107	7.62
744.857	5.62
745.607	6.62
746.357	6.62
747.106	9.62
747.856	8.62
748.606	8.62
749.355	8.62
750.105	5.62
750.854	7.62
751.603	7.62
752.353	9.62
753.102	9.62
753.851	5.62
754.6	9.62
755.349	6.62
756.098	7.62
756.847	8.62
757.595	8.62
758.344	8.62
759.093	7.62
759.841	6.62
760.589	6.62
761.338	9.62
762.086	8.62
762.834	9.62
763.582	8.62
764.331	9.62
765.079	9.62
765.826	8.62
766.574	6.62
767.322	10.62
768.07	10.62
768.817	10.62
769.565	8.62
770.312	11.62
771.06	11.62
771.807	8.62
772.554	11.62
773.302	8.62
774.049	12.62
774.796	7.62
775.543	9.62
776.29	11.62
777.036	9.62
777.783	10.62
778.53	12.62
779.276	12.62
780.023	9.62
780.769	11.62
781.516	10.62
782.262	11.62
783.008	10.62
783.754	11.62
784.5	12.62
785.246	12.62
785.992	13.62
786.738	13.62
787.484	9.62
788.23	11.62
788.975	11.62
789.721	10.62
790.466	10.62
791.212	9.62
791.957	10.62
792.702	11.62
793.447	9.62
794.193	10.62
794.938	8.62
795.683	8.62
796.427	9.62
797.172	11.62
797.917	10.62
798.662	8.62
799.406	9.62
800.151	9.62
800.895	11.62
801.64	7.62
802.384	9.62
803.128	8.62
803.872	8.62
804.616	9.62
805.36	9.62
806.104	8.62
806.848	6.62
807.592	6.62
808.336	8.62
809.079	7.62
809.823	8.62
810.566	7.62
811.31	5.62
812.053	9.62
812.796	6.62
813.539	7.62
814.283	6.62
815.026	5.62
815.769	8.62
816.511	6.62
817.254	7.62
817.997	6.62
818.74	6.62
819.482	5.62
820.225	6.62
820.967	4.62
821.71	5.62
822.452	7.62
823.194	2.62
823.936	4.62
824.678	5.62
825.42	3.62
826.162	4.62
826.904	6.62
827.646	6.62
828.388	2.62
829.129	5.62
829.871	3.62
830.612	6.62
831.354	6.62
832.095	4.62
832.836	6.62
833.577	6.62
834.319	3.62
835.06	2.62
835.801	2.62
836.542	5.62
837.282	4.62
838.023	5.62
838.764	4.62
839.504	3.62
840.245	4.62
840.985	3.62
841.726	5.62
842.466	6.62
843.206	4.62
843.946	6.62
844.687	5.62
845.427	4.62
846.166	4.62
846.906	4.62
847.646	5.62
848.386	3.62
849.125	4.62
849.865	4.62
850.605	2.62
851.344	4.62
852.083	2.62
852.823	2.62
853.562	2.62
854.301	1.62
855.04	3.62
855.779	5.62
856.518	4.62
857.257	3.62
857.995	3.62
858.734	3.62
859.473	1.62
860.211	3.62
860.95	1.62
861.688	2.62
862.426	3.62
863.165	1.62
863.903	4.62
864.641	3.62
865.379	0.62
866.117	1.62
866.855	1.62
867.593	2.62
868.33	2.62
869.068	2.62
869.806	0.62
870.543	1.62
871.28	1.62
872.018	1.62
872.755	0.62
873.492	3.62
874.229	2.62
874.967	1.62
875.703	2.62
876.44	0.62
877.177	3.62
877.914	1.62
878.651	0.62
879.387	0.62
880.124	3.62
880.86	0.62
881.597	2.62
882.333	3.62
883.069	0.62
883.806	2.62
884.542	1.62
885.278	1.62
886.014	3.62
886.749	2.62
887.485	1.62
888.221	-0.38
888.957	3.62
889.692	-0.38
890.428	1.62
891.163	-0.38
891.899	0.62
892.634	1.62
893.369	0.62
894.104	0.62
894.839	2.62
895.574	0.62
896.309	2.62
897.044	2.62
897.779	0.62
898.514	0.62
899.248	2.62
899.983	0.62
900.717	0.62
901.452	0.62
902.186	-0.38
902.92	0.62
903.654	1.62
904.389	1.62
905.123	1.62
905.857	1.62
906.59	-1.38
907.324	0.62
908.058	1.62
908.792	1.62
909.525	2.62
910.259	-0.38
910.992	0.62
911.726	1.62
912.459	0.62
913.192	-0.38
913.925	1.62
914.658	0.62
915.391	0.62
916.124	1.62
916.857	-0.38
917.59	-0.38
918.323	0.62
919.055	1.62
919.788	0.62
920.521	1.62
921.253	3.62
921.985	0.62
922.718	1.62
923.45	0.62
924.182	1.62
924.914	1.62
925.646	0.62
926.378	0.62
927.11	1.62
927.841	1.62
928.573	-1.38
929.305	0.62
930.036	1.62
930.768	-1.38
931.499	2.62
932.23	-0.38
932.962	-0.38
933.693	-0.38
934.424	-0.38
935.155	0.62
935.886	-0.38
936.617	0.62
937.348	-0.38
938.078	-0.38
938.809	0.62
939.54	-0.38
940.27	2.62
941.001	3.62
941.731	0.62
942.461	1.62
943.191	-0.38
943.922	-0.38
944.652	1.62
945.382	0.62
946.112	0.62
946.841	-1.38
947.571	-0.38
948.301	-0.38
949.031	0.62
949.76	-0.38
950.49	-1.38
951.219	1.62
951.948	0.62
952.678	-1.38
953.407	0.62
954.136	0.62
954.865	0.62
955.594	1.62
956.323	-1.38
957.052	1.62
957.78	2.62
958.509	-1.38
959.238	0.62
959.966	-1.38
960.695	-1.38
961.423	0.62
962.151	0.62
962.88	1.62
963.608	-1.38
964.336	2.62
965.064	0.62
965.792	-1.38
966.52	1.62
967.247	0.62
967.975	0.62
968.703	2.62
969.43	1.62
970.158	0.62
970.885	1.62
971.613	0.62
972.34	1.62
973.067	1.62
973.794	1.62
974.521	0.62
975.248	0.62
975.975	-1.38
976.702	0.62
977.429	0.62
978.156	1.62
978.882	1.62
979.609	0.62
980.335	0.62
981.062	1.62
981.788	0.62
982.514	2.62
983.24	1.62
983.967	0.62
984.693	0.62
985.419	2.62
986.144	-0.38
986.87	0.62
987.596	0.62
988.322	1.62
989.047	0.62
989.773	2.62
990.498	0.62
991.224	0.62
991.949	-1.38
992.674	1.62
993.399	1.62
994.124	1.62
994.849	0.62
995.574	1.62
996.299	-0.38
997.024	1.62
997.749	0.62
998.473	-1.38
999.198	-0.38
999.922	0.62
1000.647	1.62
1001.371	0.62
1002.095	1.62
1002.82	-0.38
1003.544	-1.38
1004.268	3.62
1004.992	2.62
1005.716	2.62
1006.439	2.62
1007.163	4.62
1007.887	2.62
1008.611	1.62
1009.334	-0.38
1010.058	0.62
1010.781	1.62
1011.504	0.62
1012.228	2.62
1012.951	1.62
1013.674	-2.38
1014.397	-1.38
1015.12	1.62
