节点500_425_QEPB04081__201__15-51-39-124.txt的数据

Date: Wed Nov 12 15:51:39 CST 2025
User: PC
Spectrometer: QEPB0408
触发模式: 0
积分时间 (秒): 1.000000E-2
Scans to average: 1
启用暗噪声校正: true
启用非线性校正: false
滑动平均宽度: 0
X轴模式: Wavelengths
Number of Pixels in Spectrum: 1044
>>>>>Begin Spectral Data<<<<<
220.843	3.25
221.644	3.25
222.444	4.25
223.244	4.25
224.045	3.25
224.845	4.25
225.645	3.25
226.445	2.25
227.245	5.25
228.045	5.25
228.845	4.25
229.645	5.25
230.444	4.25
231.244	5.25
232.043	6.25
232.843	7.25
233.642	5.25
234.442	7.25
235.241	7.25
236.04	3.25
236.839	8.25
237.638	4.25
238.437	8.25
239.236	7.25
240.035	8.25
240.833	8.25
241.632	6.25
242.43	6.25
243.229	9.25
244.027	8.25
244.826	7.25
245.624	9.25
246.422	7.25
247.22	9.25
248.018	7.25
248.816	11.25
249.614	9.25
250.412	12.25
251.21	9.25
252.007	7.25
252.805	8.25
253.602	12.25
254.4	11.25
255.197	11.25
255.994	12.25
256.791	13.25
257.589	12.25
258.386	14.25
259.183	14.25
259.979	16.25
260.776	15.25
261.573	16.25
262.37	17.25
263.166	16.25
263.963	15.25
264.759	17.25
265.556	17.25
266.352	16.25
267.148	19.25
267.944	20.25
268.74	21.25
269.536	20.25
270.332	22.25
271.128	20.25
271.924	22.25
272.719	23.25
273.515	24.25
274.311	21.25
275.106	22.25
275.901	27.25
276.697	26.25
277.492	23.25
278.287	24.25
279.082	25.25
279.877	25.25
280.672	29.25
281.467	24.25
282.262	25.25
283.056	27.25
283.851	26.25
284.646	27.25
285.44	23.25
286.234	27.25
287.029	25.25
287.823	26.25
288.617	22.25
289.411	24.25
290.205	25.25
290.999	24.25
291.793	26.25
292.587	24.25
293.381	22.25
294.174	23.25
294.968	23.25
295.761	22.25
296.555	18.25
297.348	20.25
298.141	18.25
298.935	21.25
299.728	19.25
300.521	19.25
301.314	18.25
302.107	20.25
302.899	17.25
303.692	16.25
304.485	15.25
305.277	17.25
306.07	15.25
306.862	17.25
307.655	16.25
308.447	15.25
309.239	17.25
310.031	16.25
310.823	13.25
311.615	15.25
312.407	11.25
313.199	12.25
313.991	13.25
314.783	11.25
315.574	12.25
316.366	14.25
317.157	11.25
317.949	11.25
318.74	9.25
319.531	7.25
320.322	14.25
321.113	10.25
321.904	9.25
322.695	12.25
323.486	11.25
324.277	9.25
325.068	8.25
325.858	10.25
326.649	10.25
327.439	9.25
328.23	8.25
329.02	10.25
329.81	10.25
330.6	11.25
331.391	6.25
332.181	6.25
332.971	7.25
333.76	7.25
334.55	10.25
335.34	8.25
336.13	9.25
336.919	10.25
337.709	9.25
338.498	8.25
339.287	9.25
340.077	11.25
340.866	6.25
341.655	7.25
342.444	6.25
343.233	11.25
344.022	7.25
344.811	7.25
345.6	7.25
346.388	7.25
347.177	9.25
347.965	10.25
348.754	6.25
349.542	8.25
350.33	7.25
351.119	9.25
351.907	6.25
352.695	10.25
353.483	8.25
354.271	8.25
355.059	8.25
355.846	8.25
356.634	7.25
357.422	7.25
358.209	9.25
358.997	10.25
359.784	8.25
360.571	8.25
361.359	8.25
362.146	8.25
362.933	5.25
363.72	8.25
364.507	6.25
365.294	7.25
366.081	8.25
366.867	7.25
367.654	7.25
368.44	8.25
369.227	5.25
370.013	7.25
370.8	6.25
371.586	9.25
372.372	5.25
373.158	9.25
373.944	6.25
374.73	8.25
375.516	6.25
376.302	5.25
377.088	6.25
377.873	7.25
378.659	8.25
379.445	7.25
380.23	6.25
381.015	9.25
381.801	4.25
382.586	8.25
383.371	8.25
384.156	9.25
384.941	10.25
385.726	9.25
386.511	9.25
387.296	7.25
388.08	6.25
388.865	9.25
389.649	6.25
390.434	8.25
391.218	10.25
392.003	8.25
392.787	10.25
393.571	6.25
394.355	9.25
395.139	8.25
395.923	10.25
396.707	10.25
397.491	6.25
398.274	10.25
399.058	8.25
399.842	10.25
400.625	11.25
401.408	9.25
402.192	11.25
402.975	11.25
403.758	7.25
404.541	9.25
405.324	12.25
406.107	11.25
406.89	11.25
407.673	12.25
408.456	14.25
409.238	14.25
410.021	11.25
410.803	10.25
411.586	10.25
412.368	12.25
413.151	13.25
413.933	11.25
414.715	11.25
415.497	12.25
416.279	12.25
417.061	13.25
417.843	13.25
418.624	14.25
419.406	13.25
420.188	13.25
420.969	15.25
421.751	15.25
422.532	14.25
423.313	14.25
424.095	16.25
424.876	14.25
425.657	17.25
426.438	18.25
427.219	16.25
428	18.25
428.78	16.25
429.561	19.25
430.342	20.25
431.122	21.25
431.903	17.25
432.683	23.25
433.464	25.25
434.244	23.25
435.024	24.25
435.804	26.25
436.584	26.25
437.364	29.25
438.144	30.25
438.924	29.25
439.704	30.25
440.483	35.25
441.263	36.25
442.042	42.25
442.822	40.25
443.601	44.25
444.38	45.25
445.16	46.25
445.939	53.25
446.718	55.25
447.497	62.25
448.276	67.25
449.054	73.25
449.833	77.25
450.612	82.25
451.391	92.25
452.169	103.25
452.948	105.25
453.726	122.25
454.504	132.25
455.282	146.25
456.061	169.25
456.839	183.25
457.617	201.25
458.395	228.25
459.172	249.25
459.95	279.25
460.728	311.25
461.506	356.25
462.283	390.25
463.061	441.25
463.838	488.25
464.615	546.25
465.393	610.25
466.17	684.25
466.947	753.25
467.724	848.25
468.501	937.25
469.278	1047.25
470.055	1154.25
470.831	1287.25
471.608	1434.25
472.385	1585.25
473.161	1766.25
473.938	1958.25
474.714	2161.25
475.49	2382.25
476.266	2636.25
477.043	2881.25
477.819	3198.25
478.595	3552.25
479.371	3889.25
480.146	4272.25
480.922	4700.25
481.698	5172.25
482.473	5632.25
483.249	6212.25
484.024	6817.25
484.8	7474.25
485.575	8157.25
486.35	8915.25
487.126	9719.25
487.901	10649.25
488.676	11670.25
489.451	12689.25
490.225	13762.25
491	14968.25
491.775	16280.25
492.55	17540.25
493.324	18891.25
494.099	20241.25
494.873	21651.25
495.647	23095.25
496.422	24634.25
497.196	26030.25
497.97	27545.25
498.744	28992.25
499.518	30401.25
500.292	31658.25
501.066	32800.25
501.839	34041.25
502.613	34786.25
503.387	35425.25
504.16	35944.25
504.934	36071.25
505.707	36122.25
506.48	35934.25
507.253	35539.25
508.027	35108.25
508.8	34443.25
509.573	33676.25
510.346	32739.25
511.118	31819.25
511.891	30724.25
512.664	29486.25
513.437	28370.25
514.209	27103.25
514.982	26162.25
515.754	25115.25
516.526	23950.25
517.298	22947.25
518.071	21967.25
518.843	21033.25
519.615	20214.25
520.387	19408.25
521.159	18715.25
521.93	17936.25
522.702	17207.25
523.474	16559.25
524.245	15871.25
525.017	15146.25
525.788	14450.25
526.56	13793.25
527.331	13122.25
528.102	12539.25
528.873	11942.25
529.644	11334.25
530.415	10846.25
531.186	10308.25
531.957	9722.25
532.728	9212.25
533.498	8732.25
534.269	8226.25
535.039	7756.25
535.81	7324.25
536.58	6951.25
537.351	6510.25
538.121	6180.25
538.891	5850.25
539.661	5525.25
540.431	5272.25
541.201	4974.25
541.971	4722.25
542.741	4442.25
543.51	4249.25
544.28	4026.25
545.05	3854.25
545.819	3670.25
546.588	3478.25
547.358	3292.25
548.127	3111.25
548.896	2961.25
549.665	2800.25
550.434	2651.25
551.203	2538.25
551.972	2393.25
552.741	2262.25
553.51	2142.25
554.278	2011.25
555.047	1905.25
555.815	1796.25
556.584	1693.25
557.352	1599.25
558.121	1497.25
558.889	1435.25
559.657	1343.25
560.425	1275.25
561.193	1199.25
561.961	1139.25
562.729	1076.25
563.496	1020.25
564.264	954.25
565.032	905.25
565.799	863.25
566.567	821.25
567.334	777.25
568.101	721.25
568.869	685.25
569.636	641.25
570.403	622.25
571.17	574.25
571.937	545.25
572.704	512.25
573.471	491.25
574.237	448.25
575.004	428.25
575.771	407.25
576.537	380.25
577.303	354.25
578.07	337.25
578.836	322.25
579.602	301.25
580.368	281.25
581.134	275.25
581.9	250.25
582.666	242.25
583.432	230.25
584.198	222.25
584.964	205.25
585.729	196.25
586.495	183.25
587.26	178.25
588.025	167.25
588.791	159.25
589.556	150.25
590.321	145.25
591.086	136.25
591.851	130.25
592.616	124.25
593.381	117.25
594.146	110.25
594.911	108.25
595.675	103.25
596.44	100.25
597.204	94.25
597.969	89.25
598.733	86.25
599.497	83.25
600.261	80.25
601.025	76.25
601.79	70.25
602.553	63.25
603.317	65.25
604.081	59.25
604.845	61.25
605.609	54.25
606.372	54.25
607.136	53.25
607.899	52.25
608.662	52.25
609.426	50.25
610.189	46.25
610.952	42.25
611.715	40.25
612.478	41.25
613.241	38.25
614.004	37.25
614.767	34.25
615.529	36.25
616.292	33.25
617.055	33.25
617.817	29.25
618.579	28.25
619.342	32.25
620.104	30.25
620.866	28.25
621.628	26.25
622.39	27.25
623.152	26.25
623.914	24.25
624.676	22.25
625.438	22.25
626.199	24.25
626.961	20.25
627.722	21.25
628.484	19.25
629.245	16.25
630.006	20.25
630.768	18.25
631.529	17.25
632.29	18.25
633.051	16.25
633.812	16.25
634.573	16.25
635.333	16.25
636.094	16.25
636.855	14.25
637.615	14.25
638.376	12.25
639.136	16.25
639.896	12.25
640.657	14.25
641.417	11.25
642.177	12.25
642.937	12.25
643.697	11.25
644.457	11.25
645.216	11.25
645.976	11.25
646.736	11.25
647.495	11.25
648.255	10.25
649.014	11.25
649.774	10.25
650.533	11.25
651.292	12.25
652.051	10.25
652.81	12.25
653.569	7.25
654.328	8.25
655.087	8.25
655.846	10.25
656.604	8.25
657.363	8.25
658.121	9.25
658.88	9.25
659.638	8.25
660.397	8.25
661.155	7.25
661.913	8.25
662.671	7.25
663.429	7.25
664.187	7.25
664.945	8.25
665.703	6.25
666.46	7.25
667.218	5.25
667.976	5.25
668.733	6.25
669.49	8.25
670.248	6.25
671.005	6.25
671.762	6.25
672.519	6.25
673.276	6.25
674.033	5.25
674.79	6.25
675.547	4.25
676.304	7.25
677.06	6.25
677.817	6.25
678.574	6.25
679.33	5.25
680.086	4.25
680.843	6.25
681.599	5.25
682.355	4.25
683.111	5.25
683.867	6.25
684.623	4.25
685.379	4.25
686.135	6.25
686.89	6.25
687.646	4.25
688.402	5.25
689.157	4.25
689.912	5.25
690.668	5.25
691.423	4.25
692.178	4.25
692.933	3.25
693.688	6.25
694.443	5.25
695.198	6.25
695.953	3.25
696.708	3.25
697.462	3.25
698.217	4.25
698.972	4.25
699.726	3.25
700.48	4.25
701.235	4.25
701.989	6.25
702.743	7.25
703.497	6.25
704.251	5.25
705.005	7.25
705.759	4.25
706.513	6.25
707.266	4.25
708.02	4.25
708.774	4.25
709.527	4.25
710.28	6.25
711.034	5.25
711.787	7.25
712.54	3.25
713.293	6.25
714.046	6.25
714.799	5.25
715.552	6.25
716.305	5.25
717.058	5.25
717.81	5.25
718.563	3.25
719.315	5.25
720.068	7.25
720.82	5.25
721.573	4.25
722.325	4.25
723.077	2.25
723.829	4.25
724.581	4.25
725.333	3.25
726.085	6.25
726.836	7.25
727.588	6.25
728.34	4.25
729.091	6.25
729.843	6.25
730.594	6.25
731.346	6.25
732.097	6.25
732.848	5.25
733.599	6.25
734.35	4.25
735.101	5.25
735.852	4.25
736.603	6.25
737.354	7.25
738.104	5.25
738.855	5.25
739.605	6.25
740.356	6.25
741.106	4.25
741.856	7.25
742.607	8.25
743.357	5.25
744.107	7.25
744.857	7.25
745.607	8.25
746.357	8.25
747.106	7.25
747.856	6.25
748.606	6.25
749.355	7.25
750.105	8.25
750.854	7.25
751.603	7.25
752.353	7.25
753.102	5.25
753.851	8.25
754.6	7.25
755.349	10.25
756.098	6.25
756.847	10.25
757.595	10.25
758.344	11.25
759.093	9.25
759.841	8.25
760.589	8.25
761.338	9.25
762.086	7.25
762.834	9.25
763.582	9.25
764.331	10.25
765.079	8.25
765.826	11.25
766.574	9.25
767.322	8.25
768.07	10.25
768.817	8.25
769.565	10.25
770.312	11.25
771.06	9.25
771.807	11.25
772.554	11.25
773.302	12.25
774.049	9.25
774.796	8.25
775.543	10.25
776.29	10.25
777.036	13.25
777.783	10.25
778.53	11.25
779.276	10.25
780.023	14.25
780.769	11.25
781.516	14.25
782.262	11.25
783.008	10.25
783.754	8.25
784.5	12.25
785.246	11.25
785.992	11.25
786.738	12.25
787.484	10.25
788.23	12.25
788.975	14.25
789.721	10.25
790.466	10.25
791.212	12.25
791.957	10.25
792.702	12.25
793.447	8.25
794.193	12.25
794.938	10.25
795.683	12.25
796.427	10.25
797.172	9.25
797.917	11.25
798.662	10.25
799.406	11.25
800.151	11.25
800.895	8.25
801.64	12.25
802.384	9.25
803.128	9.25
803.872	7.25
804.616	8.25
805.36	10.25
806.104	7.25
806.848	8.25
807.592	9.25
808.336	6.25
809.079	7.25
809.823	6.25
810.566	8.25
811.31	9.25
812.053	6.25
812.796	6.25
813.539	6.25
814.283	7.25
815.026	8.25
815.769	8.25
816.511	6.25
817.254	7.25
817.997	8.25
818.74	6.25
819.482	7.25
820.225	5.25
820.967	6.25
821.71	5.25
822.452	5.25
823.194	6.25
823.936	5.25
824.678	6.25
825.42	6.25
826.162	5.25
826.904	6.25
827.646	4.25
828.388	6.25
829.129	4.25
829.871	5.25
830.612	4.25
831.354	4.25
832.095	3.25
832.836	4.25
833.577	4.25
834.319	5.25
835.06	4.25
835.801	2.25
836.542	5.25
837.282	6.25
838.023	1.25
838.764	4.25
839.504	2.25
840.245	5.25
840.985	7.25
841.726	6.25
842.466	5.25
843.206	4.25
843.946	4.25
844.687	3.25
845.427	2.25
846.166	5.25
846.906	4.25
847.646	0.25
848.386	3.25
849.125	2.25
849.865	5.25
850.605	5.25
851.344	1.25
852.083	3.25
852.823	2.25
853.562	4.25
854.301	2.25
855.04	2.25
855.779	5.25
856.518	3.25
857.257	3.25
857.995	2.25
858.734	3.25
859.473	3.25
860.211	3.25
860.95	2.25
861.688	3.25
862.426	3.25
863.165	2.25
863.903	4.25
864.641	0.25
865.379	2.25
866.117	4.25
866.855	1.25
867.593	2.25
868.33	3.25
869.068	2.25
869.806	0.25
870.543	1.25
871.28	0.25
872.018	0.25
872.755	1.25
873.492	2.25
874.229	2.25
874.967	2.25
875.703	2.25
876.44	1.25
877.177	-0.75
877.914	2.25
878.651	-1.75
879.387	1.25
880.124	0.25
880.86	0.25
881.597	4.25
882.333	-0.75
883.069	1.25
883.806	2.25
884.542	1.25
885.278	-0.75
886.014	3.25
886.749	1.25
887.485	2.25
888.221	2.25
888.957	0.25
889.692	2.25
890.428	2.25
891.163	1.25
891.899	0.25
892.634	0.25
893.369	3.25
894.104	0.25
894.839	0.25
895.574	1.25
896.309	3.25
897.044	0.25
897.779	0.25
898.514	-0.75
899.248	1.25
899.983	-0.75
900.717	1.25
901.452	-0.75
902.186	1.25
902.92	2.25
903.654	2.25
904.389	0.25
905.123	1.25
905.857	-0.75
906.59	0.25
907.324	1.25
908.058	1.25
908.792	0.25
909.525	3.25
910.259	1.25
910.992	-1.75
911.726	3.25
912.459	-1.75
913.192	0.25
913.925	1.25
914.658	1.25
915.391	1.25
916.124	1.25
916.857	1.25
917.59	-1.75
918.323	2.25
919.055	-0.75
919.788	0.25
920.521	3.25
921.253	1.25
921.985	2.25
922.718	1.25
923.45	0.25
924.182	0.25
924.914	0.25
925.646	0.25
926.378	0.25
927.11	0.25
927.841	2.25
928.573	-1.75
929.305	2.25
930.036	0.25
930.768	-0.75
931.499	-1.75
932.23	0.25
932.962	1.25
933.693	0.25
934.424	1.25
935.155	-0.75
935.886	0.25
936.617	-0.75
937.348	2.25
938.078	0.25
938.809	1.25
939.54	1.25
940.27	2.25
941.001	1.25
941.731	-1.75
942.461	0.25
943.191	0.25
943.922	-0.75
944.652	1.25
945.382	0.25
946.112	1.25
946.841	-0.75
947.571	1.25
948.301	1.25
949.031	-0.75
949.76	0.25
950.49	0.25
951.219	-1.75
951.948	1.25
952.678	-0.75
953.407	0.25
954.136	-1.75
954.865	1.25
955.594	1.25
956.323	1.25
957.052	2.25
957.78	-1.75
958.509	1.25
959.238	-0.75
959.966	0.25
960.695	0.25
961.423	-1.75
962.151	2.25
962.88	0.25
963.608	1.25
964.336	0.25
965.064	1.25
965.792	-2.75
966.52	0.25
967.247	1.25
967.975	-1.75
968.703	1.25
969.43	-0.75
970.158	-0.75
970.885	0.25
971.613	1.25
972.34	0.25
973.067	0.25
973.794	-1.75
974.521	0.25
975.248	-2.75
975.975	-0.75
976.702	0.25
977.429	0.25
978.156	-0.75
978.882	-1.75
979.609	0.25
980.335	-0.75
981.062	1.25
981.788	0.25
982.514	1.25
983.24	1.25
983.967	-1.75
984.693	1.25
985.419	0.25
986.144	0.25
986.87	0.25
987.596	1.25
988.322	3.25
989.047	0.25
989.773	1.25
990.498	0.25
991.224	1.25
991.949	-0.75
992.674	0.25
993.399	2.25
994.124	1.25
994.849	1.25
995.574	0.25
996.299	0.25
997.024	1.25
997.749	0.25
998.473	2.25
999.198	1.25
999.922	2.25
1000.647	1.25
1001.371	5.25
1002.095	-1.75
1002.82	-0.75
1003.544	-2.75
1004.268	3.25
1004.992	1.25
1005.716	2.25
1006.439	1.25
1007.163	2.25
1007.887	3.25
1008.611	0.25
1009.334	1.25
1010.058	1.25
1010.781	-0.75
1011.504	1.25
1012.228	-0.75
1012.951	0.25
1013.674	-1.75
1014.397	1.25
1015.12	0.25
