节点500_425_QEPB04081__131__15-50-29-300.txt的数据

Date: Wed Nov 12 15:50:29 CST 2025
User: PC
Spectrometer: QEPB0408
触发模式: 0
积分时间 (秒): 1.000000E-2
Scans to average: 1
启用暗噪声校正: true
启用非线性校正: false
滑动平均宽度: 0
X轴模式: Wavelengths
Number of Pixels in Spectrum: 1044
>>>>>Begin Spectral Data<<<<<
220.843	3.38
221.644	3.38
222.444	1.38
223.244	2.38
224.045	3.38
224.845	3.38
225.645	2.38
226.445	3.38
227.245	3.38
228.045	4.38
228.845	5.38
229.645	3.38
230.444	3.38
231.244	4.38
232.043	5.38
232.843	5.38
233.642	5.38
234.442	3.38
235.241	2.38
236.04	6.38
236.839	4.38
237.638	5.38
238.437	8.38
239.236	4.38
240.035	6.38
240.833	6.38
241.632	7.38
242.43	7.38
243.229	8.38
244.027	8.38
244.826	6.38
245.624	9.38
246.422	7.38
247.22	11.38
248.018	7.38
248.816	9.38
249.614	7.38
250.412	8.38
251.21	9.38
252.007	8.38
252.805	12.38
253.602	13.38
254.4	10.38
255.197	10.38
255.994	12.38
256.791	14.38
257.589	10.38
258.386	12.38
259.183	14.38
259.979	14.38
260.776	14.38
261.573	14.38
262.37	16.38
263.166	15.38
263.963	16.38
264.759	17.38
265.556	14.38
266.352	18.38
267.148	15.38
267.944	19.38
268.74	18.38
269.536	17.38
270.332	20.38
271.128	20.38
271.924	22.38
272.719	24.38
273.515	22.38
274.311	23.38
275.106	24.38
275.901	22.38
276.697	24.38
277.492	24.38
278.287	25.38
279.082	25.38
279.877	24.38
280.672	27.38
281.467	24.38
282.262	24.38
283.056	24.38
283.851	27.38
284.646	24.38
285.44	24.38
286.234	24.38
287.029	27.38
287.823	24.38
288.617	23.38
289.411	20.38
290.205	24.38
290.999	26.38
291.793	20.38
292.587	21.38
293.381	22.38
294.174	21.38
294.968	20.38
295.761	17.38
296.555	21.38
297.348	20.38
298.141	20.38
298.935	20.38
299.728	18.38
300.521	16.38
301.314	19.38
302.107	18.38
302.899	17.38
303.692	17.38
304.485	15.38
305.277	16.38
306.07	16.38
306.862	13.38
307.655	18.38
308.447	15.38
309.239	14.38
310.031	14.38
310.823	13.38
311.615	14.38
312.407	13.38
313.199	11.38
313.991	13.38
314.783	10.38
315.574	13.38
316.366	10.38
317.157	11.38
317.949	10.38
318.74	11.38
319.531	10.38
320.322	8.38
321.113	9.38
321.904	8.38
322.695	8.38
323.486	8.38
324.277	6.38
325.068	11.38
325.858	7.38
326.649	10.38
327.439	10.38
328.23	7.38
329.02	6.38
329.81	6.38
330.6	10.38
331.391	8.38
332.181	8.38
332.971	8.38
333.76	5.38
334.55	7.38
335.34	8.38
336.13	9.38
336.919	8.38
337.709	8.38
338.498	8.38
339.287	5.38
340.077	8.38
340.866	9.38
341.655	7.38
342.444	7.38
343.233	9.38
344.022	7.38
344.811	6.38
345.6	8.38
346.388	7.38
347.177	9.38
347.965	9.38
348.754	6.38
349.542	7.38
350.33	5.38
351.119	9.38
351.907	4.38
352.695	7.38
353.483	5.38
354.271	6.38
355.059	7.38
355.846	5.38
356.634	6.38
357.422	6.38
358.209	7.38
358.997	7.38
359.784	6.38
360.571	7.38
361.359	6.38
362.146	4.38
362.933	3.38
363.72	6.38
364.507	6.38
365.294	5.38
366.081	6.38
366.867	6.38
367.654	3.38
368.44	8.38
369.227	6.38
370.013	7.38
370.8	6.38
371.586	4.38
372.372	7.38
373.158	5.38
373.944	6.38
374.73	6.38
375.516	5.38
376.302	5.38
377.088	4.38
377.873	7.38
378.659	6.38
379.445	7.38
380.23	5.38
381.015	6.38
381.801	7.38
382.586	4.38
383.371	9.38
384.156	6.38
384.941	7.38
385.726	7.38
386.511	6.38
387.296	8.38
388.08	7.38
388.865	8.38
389.649	5.38
390.434	7.38
391.218	4.38
392.003	6.38
392.787	7.38
393.571	9.38
394.355	6.38
395.139	8.38
395.923	5.38
396.707	8.38
397.491	9.38
398.274	8.38
399.058	7.38
399.842	9.38
400.625	9.38
401.408	9.38
402.192	9.38
402.975	8.38
403.758	10.38
404.541	9.38
405.324	8.38
406.107	8.38
406.89	11.38
407.673	8.38
408.456	9.38
409.238	9.38
410.021	12.38
410.803	8.38
411.586	12.38
412.368	10.38
413.151	12.38
413.933	11.38
414.715	11.38
415.497	10.38
416.279	11.38
417.061	11.38
417.843	13.38
418.624	13.38
419.406	13.38
420.188	14.38
420.969	15.38
421.751	12.38
422.532	14.38
423.313	15.38
424.095	13.38
424.876	15.38
425.657	16.38
426.438	18.38
427.219	18.38
428	19.38
428.78	16.38
429.561	18.38
430.342	17.38
431.122	20.38
431.903	20.38
432.683	22.38
433.464	20.38
434.244	24.38
435.024	24.38
435.804	24.38
436.584	24.38
437.364	24.38
438.144	28.38
438.924	28.38
439.704	32.38
440.483	32.38
441.263	35.38
442.042	37.38
442.822	41.38
443.601	40.38
444.38	46.38
445.16	48.38
445.939	50.38
446.718	54.38
447.497	59.38
448.276	63.38
449.054	67.38
449.833	73.38
450.612	80.38
451.391	86.38
452.169	98.38
452.948	104.38
453.726	124.38
454.504	128.38
455.282	141.38
456.061	158.38
456.839	175.38
457.617	196.38
458.395	220.38
459.172	241.38
459.95	266.38
460.728	299.38
461.506	344.38
462.283	381.38
463.061	429.38
463.838	482.38
464.615	523.38
465.393	603.38
466.17	663.38
466.947	737.38
467.724	828.38
468.501	913.38
469.278	1031.38
470.055	1126.38
470.831	1265.38
471.608	1419.38
472.385	1565.38
473.161	1726.38
473.938	1921.38
474.714	2149.38
475.49	2377.38
476.266	2614.38
477.043	2876.38
477.819	3185.38
478.595	3560.38
479.371	3930.38
480.146	4282.38
480.922	4730.38
481.698	5210.38
482.473	5726.38
483.249	6277.38
484.024	6937.38
484.8	7630.38
485.575	8317.38
486.35	9093.38
487.126	9985.38
487.901	10892.38
488.676	11893.38
489.451	12994.38
490.225	14139.38
491	15325.38
491.775	16707.38
492.55	17988.38
493.324	19429.38
494.099	20831.38
494.873	22257.38
495.647	23730.38
496.422	25268.38
497.196	26837.38
497.97	28427.38
498.744	29912.38
499.518	31287.38
500.292	32474.38
501.066	33656.38
501.839	34595.38
502.613	35637.38
503.387	36188.38
504.16	36569.38
504.934	36786.38
505.707	36648.38
506.48	36485.38
507.253	35970.38
508.027	35484.38
508.8	34784.38
509.573	33868.38
510.346	32915.38
511.118	31851.38
511.891	30711.38
512.664	29473.38
513.437	28275.38
514.209	27096.38
514.982	26004.38
515.754	24861.38
516.526	23824.38
517.298	22808.38
518.071	21852.38
518.843	20920.38
519.615	20025.38
520.387	19214.38
521.159	18507.38
521.93	17823.38
522.702	17074.38
523.474	16437.38
524.245	15772.38
525.017	15003.38
525.788	14302.38
526.56	13674.38
527.331	13014.38
528.102	12426.38
528.873	11805.38
529.644	11208.38
530.415	10693.38
531.186	10124.38
531.957	9607.38
532.728	9075.38
533.498	8535.38
534.269	8113.38
535.039	7648.38
535.81	7247.38
536.58	6830.38
537.351	6451.38
538.121	6067.38
538.891	5767.38
539.661	5470.38
540.431	5164.38
541.201	4903.38
541.971	4639.38
542.741	4395.38
543.51	4184.38
544.28	3996.38
545.05	3773.38
545.819	3597.38
546.588	3428.38
547.358	3239.38
548.127	3050.38
548.896	2888.38
549.665	2752.38
550.434	2609.38
551.203	2475.38
551.972	2340.38
552.741	2209.38
553.51	2084.38
554.278	1979.38
555.047	1850.38
555.815	1752.38
556.584	1656.38
557.352	1574.38
558.121	1477.38
558.889	1392.38
559.657	1328.38
560.425	1237.38
561.193	1177.38
561.961	1112.38
562.729	1055.38
563.496	1000.38
564.264	945.38
565.032	880.38
565.799	830.38
566.567	782.38
567.334	747.38
568.101	711.38
568.869	672.38
569.636	633.38
570.403	587.38
571.17	567.38
571.937	523.38
572.704	503.38
573.471	470.38
574.237	449.38
575.004	429.38
575.771	390.38
576.537	370.38
577.303	351.38
578.07	327.38
578.836	312.38
579.602	299.38
580.368	278.38
581.134	264.38
581.9	253.38
582.666	234.38
583.432	222.38
584.198	211.38
584.964	199.38
585.729	195.38
586.495	181.38
587.26	169.38
588.025	165.38
588.791	157.38
589.556	152.38
590.321	142.38
591.086	131.38
591.851	125.38
592.616	119.38
593.381	115.38
594.146	108.38
594.911	105.38
595.675	99.38
596.44	91.38
597.204	91.38
597.969	84.38
598.733	81.38
599.497	84.38
600.261	77.38
601.025	71.38
601.79	67.38
602.553	66.38
603.317	66.38
604.081	57.38
604.845	58.38
605.609	53.38
606.372	53.38
607.136	51.38
607.899	48.38
608.662	48.38
609.426	45.38
610.189	43.38
610.952	44.38
611.715	39.38
612.478	41.38
613.241	39.38
614.004	37.38
614.767	33.38
615.529	35.38
616.292	35.38
617.055	30.38
617.817	30.38
618.579	29.38
619.342	32.38
620.104	28.38
620.866	28.38
621.628	27.38
622.39	25.38
623.152	23.38
623.914	24.38
624.676	21.38
625.438	22.38
626.199	21.38
626.961	20.38
627.722	20.38
628.484	21.38
629.245	16.38
630.006	20.38
630.768	18.38
631.529	16.38
632.29	18.38
633.051	16.38
633.812	16.38
634.573	16.38
635.333	15.38
636.094	15.38
636.855	12.38
637.615	15.38
638.376	15.38
639.136	12.38
639.896	13.38
640.657	10.38
641.417	11.38
642.177	11.38
642.937	9.38
643.697	10.38
644.457	10.38
645.216	10.38
645.976	11.38
646.736	10.38
647.495	10.38
648.255	9.38
649.014	9.38
649.774	7.38
650.533	9.38
651.292	8.38
652.051	9.38
652.81	5.38
653.569	6.38
654.328	6.38
655.087	8.38
655.846	6.38
656.604	5.38
657.363	6.38
658.121	8.38
658.88	8.38
659.638	9.38
660.397	7.38
661.155	7.38
661.913	6.38
662.671	5.38
663.429	5.38
664.187	5.38
664.945	6.38
665.703	4.38
666.46	6.38
667.218	7.38
667.976	7.38
668.733	4.38
669.49	6.38
670.248	5.38
671.005	4.38
671.762	4.38
672.519	3.38
673.276	6.38
674.033	5.38
674.79	3.38
675.547	3.38
676.304	5.38
677.06	4.38
677.817	3.38
678.574	5.38
679.33	6.38
680.086	3.38
680.843	5.38
681.599	4.38
682.355	6.38
683.111	6.38
683.867	2.38
684.623	4.38
685.379	5.38
686.135	5.38
686.89	4.38
687.646	4.38
688.402	4.38
689.157	2.38
689.912	3.38
690.668	4.38
691.423	4.38
692.178	3.38
692.933	2.38
693.688	3.38
694.443	5.38
695.198	5.38
695.953	3.38
696.708	5.38
697.462	5.38
698.217	5.38
698.972	2.38
699.726	3.38
700.48	5.38
701.235	4.38
701.989	3.38
702.743	3.38
703.497	2.38
704.251	4.38
705.005	2.38
705.759	5.38
706.513	4.38
707.266	2.38
708.02	3.38
708.774	4.38
709.527	5.38
710.28	5.38
711.034	2.38
711.787	5.38
712.54	4.38
713.293	2.38
714.046	4.38
714.799	2.38
715.552	5.38
716.305	3.38
717.058	3.38
717.81	1.38
718.563	3.38
719.315	5.38
720.068	1.38
720.82	5.38
721.573	4.38
722.325	5.38
723.077	4.38
723.829	3.38
724.581	4.38
725.333	2.38
726.085	6.38
726.836	3.38
727.588	4.38
728.34	6.38
729.091	6.38
729.843	5.38
730.594	6.38
731.346	5.38
732.097	4.38
732.848	4.38
733.599	5.38
734.35	3.38
735.101	7.38
735.852	5.38
736.603	5.38
737.354	5.38
738.104	6.38
738.855	6.38
739.605	5.38
740.356	6.38
741.106	6.38
741.856	5.38
742.607	7.38
743.357	6.38
744.107	5.38
744.857	6.38
745.607	8.38
746.357	8.38
747.106	6.38
747.856	7.38
748.606	9.38
749.355	5.38
750.105	5.38
750.854	8.38
751.603	7.38
752.353	8.38
753.102	5.38
753.851	7.38
754.6	6.38
755.349	8.38
756.098	9.38
756.847	8.38
757.595	6.38
758.344	7.38
759.093	9.38
759.841	8.38
760.589	7.38
761.338	8.38
762.086	7.38
762.834	7.38
763.582	6.38
764.331	9.38
765.079	9.38
765.826	7.38
766.574	6.38
767.322	11.38
768.07	8.38
768.817	8.38
769.565	13.38
770.312	7.38
771.06	11.38
771.807	10.38
772.554	10.38
773.302	10.38
774.049	11.38
774.796	9.38
775.543	7.38
776.29	10.38
777.036	11.38
777.783	9.38
778.53	10.38
779.276	10.38
780.023	8.38
780.769	10.38
781.516	12.38
782.262	13.38
783.008	11.38
783.754	10.38
784.5	9.38
785.246	11.38
785.992	11.38
786.738	10.38
787.484	13.38
788.23	11.38
788.975	10.38
789.721	9.38
790.466	10.38
791.212	10.38
791.957	13.38
792.702	11.38
793.447	10.38
794.193	9.38
794.938	10.38
795.683	10.38
796.427	11.38
797.172	10.38
797.917	9.38
798.662	12.38
799.406	7.38
800.151	8.38
800.895	9.38
801.64	9.38
802.384	9.38
803.128	8.38
803.872	7.38
804.616	7.38
805.36	8.38
806.104	8.38
806.848	7.38
807.592	9.38
808.336	9.38
809.079	6.38
809.823	9.38
810.566	7.38
811.31	7.38
812.053	9.38
812.796	6.38
813.539	6.38
814.283	5.38
815.026	3.38
815.769	5.38
816.511	5.38
817.254	8.38
817.997	5.38
818.74	5.38
819.482	4.38
820.225	1.38
820.967	6.38
821.71	3.38
822.452	6.38
823.194	5.38
823.936	6.38
824.678	6.38
825.42	4.38
826.162	2.38
826.904	3.38
827.646	1.38
828.388	3.38
829.129	3.38
829.871	2.38
830.612	2.38
831.354	5.38
832.095	2.38
832.836	2.38
833.577	4.38
834.319	3.38
835.06	5.38
835.801	3.38
836.542	5.38
837.282	4.38
838.023	4.38
838.764	3.38
839.504	3.38
840.245	5.38
840.985	2.38
841.726	3.38
842.466	3.38
843.206	4.38
843.946	1.38
844.687	4.38
845.427	3.38
846.166	1.38
846.906	3.38
847.646	2.38
848.386	2.38
849.125	3.38
849.865	4.38
850.605	3.38
851.344	3.38
852.083	1.38
852.823	3.38
853.562	2.38
854.301	4.38
855.04	1.38
855.779	1.38
856.518	1.38
857.257	-0.62
857.995	5.38
858.734	2.38
859.473	1.38
860.211	2.38
860.95	0.38
861.688	2.38
862.426	0.38
863.165	1.38
863.903	1.38
864.641	0.38
865.379	-0.62
866.117	0.38
866.855	1.38
867.593	0.38
868.33	1.38
869.068	1.38
869.806	2.38
870.543	1.38
871.28	-0.62
872.018	1.38
872.755	0.38
873.492	-0.62
874.229	0.38
874.967	3.38
875.703	1.38
876.44	1.38
877.177	-0.62
877.914	-0.62
878.651	2.38
879.387	-0.62
880.124	-1.62
880.86	0.38
881.597	0.38
882.333	1.38
883.069	-1.62
883.806	-1.62
884.542	1.38
885.278	-0.62
886.014	-0.62
886.749	-0.62
887.485	0.38
888.221	0.38
888.957	-1.62
889.692	0.38
890.428	1.38
891.163	0.38
891.899	-0.62
892.634	-0.62
893.369	-0.62
894.104	-0.62
894.839	0.38
895.574	0.38
896.309	2.38
897.044	-0.62
897.779	-2.62
898.514	0.38
899.248	0.38
899.983	-0.62
900.717	1.38
901.452	0.38
902.186	0.38
902.92	0.38
903.654	1.38
904.389	-1.62
905.123	-0.62
905.857	1.38
906.59	-2.62
907.324	0.38
908.058	0.38
908.792	-3.62
909.525	1.38
910.259	0.38
910.992	-1.62
911.726	-0.62
912.459	-0.62
913.192	-0.62
913.925	-0.62
914.658	0.38
915.391	-0.62
916.124	1.38
916.857	0.38
917.59	-0.62
918.323	0.38
919.055	-2.62
919.788	-0.62
920.521	-0.62
921.253	0.38
921.985	-2.62
922.718	-0.62
923.45	1.38
924.182	-1.62
924.914	-0.62
925.646	-0.62
926.378	1.38
927.11	-2.62
927.841	-1.62
928.573	0.38
929.305	-1.62
930.036	1.38
930.768	-1.62
931.499	-0.62
932.23	1.38
932.962	-2.62
933.693	-1.62
934.424	-1.62
935.155	0.38
935.886	1.38
936.617	-1.62
937.348	-2.62
938.078	-0.62
938.809	-1.62
939.54	-2.62
940.27	-0.62
941.001	0.38
941.731	-0.62
942.461	-0.62
943.191	0.38
943.922	-0.62
944.652	-0.62
945.382	-0.62
946.112	-1.62
946.841	-2.62
947.571	-0.62
948.301	-1.62
949.031	-0.62
949.76	0.38
950.49	0.38
951.219	-2.62
951.948	-0.62
952.678	-0.62
953.407	-1.62
954.136	-0.62
954.865	0.38
955.594	-0.62
956.323	-0.62
957.052	-3.62
957.78	-0.62
958.509	-0.62
959.238	-3.62
959.966	0.38
960.695	-2.62
961.423	-0.62
962.151	-1.62
962.88	-1.62
963.608	-1.62
964.336	-0.62
965.064	-0.62
965.792	-1.62
966.52	-0.62
967.247	-0.62
967.975	-2.62
968.703	-0.62
969.43	-0.62
970.158	-0.62
970.885	-0.62
971.613	-0.62
972.34	-2.62
973.067	0.38
973.794	-0.62
974.521	-3.62
975.248	-0.62
975.975	-2.62
976.702	-0.62
977.429	-2.62
978.156	-1.62
978.882	-0.62
979.609	0.38
980.335	-0.62
981.062	-1.62
981.788	-0.62
982.514	-1.62
983.24	-0.62
983.967	2.38
984.693	0.38
985.419	-0.62
986.144	-1.62
986.87	-2.62
987.596	1.38
988.322	-2.62
989.047	0.38
989.773	-0.62
990.498	0.38
991.224	-0.62
991.949	-3.62
992.674	3.38
993.399	1.38
994.124	-0.62
994.849	0.38
995.574	-0.62
996.299	-1.62
997.024	-0.62
997.749	0.38
998.473	0.38
999.198	0.38
999.922	-2.62
1000.647	-2.62
1001.371	5.38
1002.095	-2.62
1002.82	-1.62
1003.544	1.38
1004.268	2.38
1004.992	1.38
1005.716	0.38
1006.439	3.38
1007.163	2.38
1007.887	3.38
1008.611	-0.62
1009.334	0.38
1010.058	-2.62
1010.781	0.38
1011.504	-0.62
1012.228	0.38
1012.951	-1.62
1013.674	1.38
1014.397	-0.62
1015.12	-1.62
