节点500_425_QEPB04081__10__15-48-31-479.txt的数据

Date: Wed Nov 12 15:48:31 CST 2025
User: PC
Spectrometer: QEPB0408
触发模式: 0
积分时间 (秒): 1.000000E-2
Scans to average: 1
启用暗噪声校正: true
启用非线性校正: false
滑动平均宽度: 0
X轴模式: Wavelengths
Number of Pixels in Spectrum: 1044
>>>>>Begin Spectral Data<<<<<
220.843	3.5
221.644	3.5
222.444	4.5
223.244	3.5
224.045	2.5
224.845	2.5
225.645	5.5
226.445	5.5
227.245	5.5
228.045	4.5
228.845	6.5
229.645	4.5
230.444	6.5
231.244	4.5
232.043	6.5
232.843	6.5
233.642	2.5
234.442	5.5
235.241	6.5
236.04	6.5
236.839	5.5
237.638	6.5
238.437	8.5
239.236	5.5
240.035	6.5
240.833	5.5
241.632	8.5
242.43	9.5
243.229	8.5
244.027	8.5
244.826	8.5
245.624	11.5
246.422	9.5
247.22	9.5
248.018	10.5
248.816	9.5
249.614	10.5
250.412	8.5
251.21	10.5
252.007	10.5
252.805	11.5
253.602	11.5
254.4	13.5
255.197	13.5
255.994	12.5
256.791	16.5
257.589	15.5
258.386	15.5
259.183	16.5
259.979	16.5
260.776	12.5
261.573	19.5
262.37	16.5
263.166	16.5
263.963	17.5
264.759	21.5
265.556	16.5
266.352	21.5
267.148	19.5
267.944	22.5
268.74	20.5
269.536	20.5
270.332	23.5
271.128	23.5
271.924	23.5
272.719	22.5
273.515	25.5
274.311	26.5
275.106	27.5
275.901	26.5
276.697	24.5
277.492	22.5
278.287	29.5
279.082	28.5
279.877	28.5
280.672	29.5
281.467	27.5
282.262	27.5
283.056	26.5
283.851	25.5
284.646	29.5
285.44	30.5
286.234	28.5
287.029	26.5
287.823	26.5
288.617	21.5
289.411	26.5
290.205	26.5
290.999	24.5
291.793	24.5
292.587	25.5
293.381	23.5
294.174	22.5
294.968	24.5
295.761	20.5
296.555	20.5
297.348	20.5
298.141	21.5
298.935	22.5
299.728	19.5
300.521	21.5
301.314	18.5
302.107	18.5
302.899	20.5
303.692	14.5
304.485	19.5
305.277	16.5
306.07	15.5
306.862	17.5
307.655	12.5
308.447	18.5
309.239	14.5
310.031	15.5
310.823	12.5
311.615	14.5
312.407	10.5
313.199	10.5
313.991	14.5
314.783	13.5
315.574	10.5
316.366	12.5
317.157	10.5
317.949	12.5
318.74	10.5
319.531	12.5
320.322	11.5
321.113	10.5
321.904	12.5
322.695	10.5
323.486	9.5
324.277	11.5
325.068	8.5
325.858	12.5
326.649	10.5
327.439	11.5
328.23	7.5
329.02	8.5
329.81	9.5
330.6	7.5
331.391	8.5
332.181	9.5
332.971	7.5
333.76	10.5
334.55	9.5
335.34	7.5
336.13	9.5
336.919	8.5
337.709	7.5
338.498	7.5
339.287	7.5
340.077	8.5
340.866	8.5
341.655	9.5
342.444	9.5
343.233	9.5
344.022	7.5
344.811	7.5
345.6	7.5
346.388	11.5
347.177	5.5
347.965	7.5
348.754	6.5
349.542	9.5
350.33	8.5
351.119	7.5
351.907	9.5
352.695	7.5
353.483	7.5
354.271	7.5
355.059	8.5
355.846	7.5
356.634	7.5
357.422	10.5
358.209	9.5
358.997	6.5
359.784	7.5
360.571	7.5
361.359	6.5
362.146	8.5
362.933	7.5
363.72	7.5
364.507	10.5
365.294	6.5
366.081	8.5
366.867	6.5
367.654	7.5
368.44	8.5
369.227	8.5
370.013	5.5
370.8	6.5
371.586	7.5
372.372	8.5
373.158	6.5
373.944	7.5
374.73	7.5
375.516	6.5
376.302	6.5
377.088	6.5
377.873	8.5
378.659	5.5
379.445	7.5
380.23	7.5
381.015	7.5
381.801	8.5
382.586	8.5
383.371	6.5
384.156	8.5
384.941	8.5
385.726	10.5
386.511	7.5
387.296	5.5
388.08	6.5
388.865	4.5
389.649	7.5
390.434	7.5
391.218	8.5
392.003	7.5
392.787	6.5
393.571	8.5
394.355	6.5
395.139	10.5
395.923	8.5
396.707	12.5
397.491	7.5
398.274	11.5
399.058	9.5
399.842	8.5
400.625	8.5
401.408	10.5
402.192	10.5
402.975	8.5
403.758	8.5
404.541	11.5
405.324	9.5
406.107	13.5
406.89	10.5
407.673	11.5
408.456	8.5
409.238	12.5
410.021	12.5
410.803	14.5
411.586	11.5
412.368	10.5
413.151	11.5
413.933	14.5
414.715	10.5
415.497	13.5
416.279	13.5
417.061	14.5
417.843	15.5
418.624	13.5
419.406	12.5
420.188	15.5
420.969	14.5
421.751	14.5
422.532	16.5
423.313	16.5
424.095	14.5
424.876	17.5
425.657	18.5
426.438	16.5
427.219	18.5
428	20.5
428.78	21.5
429.561	18.5
430.342	18.5
431.122	20.5
431.903	22.5
432.683	25.5
433.464	20.5
434.244	23.5
435.024	24.5
435.804	22.5
436.584	26.5
437.364	29.5
438.144	30.5
438.924	32.5
439.704	33.5
440.483	33.5
441.263	36.5
442.042	40.5
442.822	38.5
443.601	42.5
444.38	42.5
445.16	45.5
445.939	49.5
446.718	51.5
447.497	56.5
448.276	63.5
449.054	67.5
449.833	72.5
450.612	82.5
451.391	82.5
452.169	100.5
452.948	108.5
453.726	110.5
454.504	123.5
455.282	137.5
456.061	153.5
456.839	167.5
457.617	190.5
458.395	206.5
459.172	230.5
459.95	253.5
460.728	289.5
461.506	320.5
462.283	363.5
463.061	405.5
463.838	462.5
464.615	519.5
465.393	557.5
466.17	643.5
466.947	722.5
467.724	801.5
468.501	902.5
469.278	1006.5
470.055	1105.5
470.831	1234.5
471.608	1384.5
472.385	1540.5
473.161	1706.5
473.938	1918.5
474.714	2139.5
475.49	2358.5
476.266	2619.5
477.043	2899.5
477.819	3230.5
478.595	3584.5
479.371	3969.5
480.146	4378.5
480.922	4827.5
481.698	5358.5
482.473	5946.5
483.249	6492.5
484.024	7214.5
484.8	7942.5
485.575	8707.5
486.35	9530.5
487.126	10499.5
487.901	11497.5
488.676	12586.5
489.451	13748.5
490.225	15012.5
491	16366.5
491.775	17829.5
492.55	19299.5
493.324	20793.5
494.099	22342.5
494.873	23841.5
495.647	25513.5
496.422	27139.5
497.196	28854.5
497.97	30462.5
498.744	31986.5
499.518	33400.5
500.292	34634.5
501.066	35673.5
501.839	36720.5
502.613	37463.5
503.387	38005.5
504.16	38308.5
504.934	38286.5
505.707	38099.5
506.48	37628.5
507.253	36984.5
508.027	36330.5
508.8	35373.5
509.573	34326.5
510.346	33174.5
511.118	32089.5
511.891	30776.5
512.664	29512.5
513.437	28211.5
514.209	26906.5
514.982	25843.5
515.754	24720.5
516.526	23540.5
517.298	22566.5
518.071	21677.5
518.843	20734.5
519.615	19879.5
520.387	19069.5
521.159	18412.5
521.93	17674.5
522.702	16920.5
523.474	16282.5
524.245	15607.5
525.017	14850.5
525.788	14221.5
526.56	13532.5
527.331	12824.5
528.102	12221.5
528.873	11580.5
529.644	10984.5
530.415	10473.5
531.186	9902.5
531.957	9355.5
532.728	8849.5
533.498	8347.5
534.269	7855.5
535.039	7408.5
535.81	7015.5
536.58	6596.5
537.351	6234.5
538.121	5902.5
538.891	5578.5
539.661	5294.5
540.431	5009.5
541.201	4728.5
541.971	4501.5
542.741	4261.5
543.51	4045.5
544.28	3849.5
545.05	3644.5
545.819	3504.5
546.588	3306.5
547.358	3126.5
548.127	2975.5
548.896	2815.5
549.665	2658.5
550.434	2530.5
551.203	2385.5
551.972	2262.5
552.741	2126.5
553.51	2036.5
554.278	1906.5
555.047	1774.5
555.815	1691.5
556.584	1607.5
557.352	1501.5
558.121	1422.5
558.889	1340.5
559.657	1269.5
560.425	1196.5
561.193	1133.5
561.961	1071.5
562.729	1016.5
563.496	959.5
564.264	910.5
565.032	861.5
565.799	807.5
566.567	773.5
567.334	724.5
568.101	687.5
568.869	648.5
569.636	611.5
570.403	579.5
571.17	547.5
571.937	508.5
572.704	481.5
573.471	460.5
574.237	426.5
575.004	405.5
575.771	383.5
576.537	352.5
577.303	331.5
578.07	322.5
578.836	306.5
579.602	286.5
580.368	268.5
581.134	254.5
581.9	244.5
582.666	232.5
583.432	221.5
584.198	206.5
584.964	199.5
585.729	186.5
586.495	176.5
587.26	164.5
588.025	157.5
588.791	146.5
589.556	139.5
590.321	136.5
591.086	124.5
591.851	124.5
592.616	115.5
593.381	112.5
594.146	102.5
594.911	98.5
595.675	94.5
596.44	92.5
597.204	90.5
597.969	90.5
598.733	75.5
599.497	75.5
600.261	73.5
601.025	69.5
601.79	65.5
602.553	62.5
603.317	60.5
604.081	59.5
604.845	57.5
605.609	57.5
606.372	52.5
607.136	53.5
607.899	49.5
608.662	49.5
609.426	45.5
610.189	44.5
610.952	42.5
611.715	38.5
612.478	43.5
613.241	38.5
614.004	36.5
614.767	32.5
615.529	35.5
616.292	33.5
617.055	32.5
617.817	28.5
618.579	28.5
619.342	31.5
620.104	30.5
620.866	27.5
621.628	23.5
622.39	24.5
623.152	24.5
623.914	23.5
624.676	22.5
625.438	23.5
626.199	23.5
626.961	20.5
627.722	19.5
628.484	17.5
629.245	19.5
630.006	17.5
630.768	17.5
631.529	19.5
632.29	14.5
633.051	17.5
633.812	16.5
634.573	15.5
635.333	14.5
636.094	14.5
636.855	14.5
637.615	13.5
638.376	14.5
639.136	15.5
639.896	16.5
640.657	12.5
641.417	15.5
642.177	12.5
642.937	12.5
643.697	10.5
644.457	11.5
645.216	13.5
645.976	11.5
646.736	8.5
647.495	8.5
648.255	12.5
649.014	11.5
649.774	7.5
650.533	9.5
651.292	9.5
652.051	9.5
652.81	9.5
653.569	9.5
654.328	10.5
655.087	8.5
655.846	8.5
656.604	8.5
657.363	10.5
658.121	6.5
658.88	11.5
659.638	9.5
660.397	8.5
661.155	8.5
661.913	6.5
662.671	6.5
663.429	7.5
664.187	5.5
664.945	6.5
665.703	8.5
666.46	9.5
667.218	6.5
667.976	10.5
668.733	8.5
669.49	5.5
670.248	7.5
671.005	5.5
671.762	7.5
672.519	6.5
673.276	7.5
674.033	5.5
674.79	4.5
675.547	6.5
676.304	6.5
677.06	4.5
677.817	4.5
678.574	6.5
679.33	4.5
680.086	6.5
680.843	7.5
681.599	7.5
682.355	5.5
683.111	5.5
683.867	5.5
684.623	3.5
685.379	4.5
686.135	6.5
686.89	5.5
687.646	6.5
688.402	8.5
689.157	5.5
689.912	6.5
690.668	5.5
691.423	3.5
692.178	4.5
692.933	4.5
693.688	4.5
694.443	5.5
695.198	5.5
695.953	4.5
696.708	6.5
697.462	5.5
698.217	5.5
698.972	7.5
699.726	6.5
700.48	5.5
701.235	6.5
701.989	4.5
702.743	6.5
703.497	3.5
704.251	7.5
705.005	5.5
705.759	6.5
706.513	4.5
707.266	4.5
708.02	3.5
708.774	4.5
709.527	4.5
710.28	4.5
711.034	3.5
711.787	7.5
712.54	3.5
713.293	5.5
714.046	6.5
714.799	5.5
715.552	4.5
716.305	2.5
717.058	6.5
717.81	2.5
718.563	5.5
719.315	5.5
720.068	1.5
720.82	3.5
721.573	6.5
722.325	7.5
723.077	5.5
723.829	6.5
724.581	4.5
725.333	5.5
726.085	5.5
726.836	4.5
727.588	7.5
728.34	3.5
729.091	7.5
729.843	7.5
730.594	6.5
731.346	8.5
732.097	5.5
732.848	6.5
733.599	5.5
734.35	7.5
735.101	6.5
735.852	7.5
736.603	5.5
737.354	4.5
738.104	2.5
738.855	7.5
739.605	7.5
740.356	5.5
741.106	8.5
741.856	8.5
742.607	3.5
743.357	3.5
744.107	8.5
744.857	4.5
745.607	7.5
746.357	9.5
747.106	8.5
747.856	6.5
748.606	5.5
749.355	9.5
750.105	4.5
750.854	9.5
751.603	7.5
752.353	8.5
753.102	9.5
753.851	5.5
754.6	9.5
755.349	10.5
756.098	8.5
756.847	8.5
757.595	9.5
758.344	11.5
759.093	10.5
759.841	12.5
760.589	8.5
761.338	9.5
762.086	10.5
762.834	10.5
763.582	8.5
764.331	8.5
765.079	8.5
765.826	7.5
766.574	10.5
767.322	11.5
768.07	11.5
768.817	10.5
769.565	10.5
770.312	10.5
771.06	12.5
771.807	10.5
772.554	12.5
773.302	10.5
774.049	9.5
774.796	12.5
775.543	12.5
776.29	14.5
777.036	10.5
777.783	12.5
778.53	13.5
779.276	14.5
780.023	10.5
780.769	11.5
781.516	11.5
782.262	14.5
783.008	13.5
783.754	12.5
784.5	14.5
785.246	14.5
785.992	12.5
786.738	13.5
787.484	9.5
788.23	11.5
788.975	13.5
789.721	11.5
790.466	15.5
791.212	10.5
791.957	12.5
792.702	12.5
793.447	10.5
794.193	13.5
794.938	10.5
795.683	11.5
796.427	9.5
797.172	11.5
797.917	10.5
798.662	11.5
799.406	10.5
800.151	10.5
800.895	10.5
801.64	10.5
802.384	9.5
803.128	8.5
803.872	8.5
804.616	9.5
805.36	11.5
806.104	7.5
806.848	7.5
807.592	10.5
808.336	5.5
809.079	7.5
809.823	8.5
810.566	9.5
811.31	8.5
812.053	9.5
812.796	6.5
813.539	7.5
814.283	6.5
815.026	5.5
815.769	5.5
816.511	6.5
817.254	4.5
817.997	3.5
818.74	5.5
819.482	6.5
820.225	5.5
820.967	5.5
821.71	7.5
822.452	7.5
823.194	5.5
823.936	6.5
824.678	4.5
825.42	3.5
826.162	5.5
826.904	5.5
827.646	6.5
828.388	6.5
829.129	5.5
829.871	3.5
830.612	3.5
831.354	3.5
832.095	3.5
832.836	5.5
833.577	3.5
834.319	5.5
835.06	5.5
835.801	5.5
836.542	3.5
837.282	5.5
838.023	6.5
838.764	5.5
839.504	4.5
840.245	5.5
840.985	3.5
841.726	3.5
842.466	3.5
843.206	3.5
843.946	4.5
844.687	2.5
845.427	5.5
846.166	2.5
846.906	4.5
847.646	3.5
848.386	4.5
849.125	4.5
849.865	1.5
850.605	4.5
851.344	4.5
852.083	2.5
852.823	4.5
853.562	5.5
854.301	4.5
855.04	-0.5
855.779	2.5
856.518	4.5
857.257	4.5
857.995	3.5
858.734	3.5
859.473	3.5
860.211	1.5
860.95	4.5
861.688	2.5
862.426	4.5
863.165	1.5
863.903	0.5
864.641	1.5
865.379	1.5
866.117	3.5
866.855	3.5
867.593	4.5
868.33	2.5
869.068	0.5
869.806	2.5
870.543	2.5
871.28	2.5
872.018	1.5
872.755	0.5
873.492	2.5
874.229	0.5
874.967	2.5
875.703	2.5
876.44	2.5
877.177	1.5
877.914	1.5
878.651	0.5
879.387	0.5
880.124	0.5
880.86	1.5
881.597	0.5
882.333	2.5
883.069	1.5
883.806	2.5
884.542	2.5
885.278	0.5
886.014	2.5
886.749	1.5
887.485	2.5
888.221	0.5
888.957	-0.5
889.692	2.5
890.428	-1.5
891.163	2.5
891.899	-0.5
892.634	1.5
893.369	-0.5
894.104	-0.5
894.839	0.5
895.574	2.5
896.309	0.5
897.044	-0.5
897.779	1.5
898.514	2.5
899.248	2.5
899.983	2.5
900.717	0.5
901.452	2.5
902.186	-0.5
902.92	-0.5
903.654	1.5
904.389	0.5
905.123	1.5
905.857	1.5
906.59	0.5
907.324	0.5
908.058	0.5
908.792	1.5
909.525	0.5
910.259	0.5
910.992	2.5
911.726	2.5
912.459	3.5
913.192	0.5
913.925	0.5
914.658	-2.5
915.391	0.5
916.124	1.5
916.857	0.5
917.59	2.5
918.323	-1.5
919.055	2.5
919.788	2.5
920.521	2.5
921.253	2.5
921.985	1.5
922.718	-0.5
923.45	0.5
924.182	1.5
924.914	1.5
925.646	0.5
926.378	1.5
927.11	1.5
927.841	1.5
928.573	-1.5
929.305	-0.5
930.036	0.5
930.768	0.5
931.499	0.5
932.23	-0.5
932.962	1.5
933.693	1.5
934.424	2.5
935.155	-0.5
935.886	-0.5
936.617	-1.5
937.348	-0.5
938.078	0.5
938.809	1.5
939.54	-0.5
940.27	-0.5
941.001	0.5
941.731	0.5
942.461	-0.5
943.191	-0.5
943.922	1.5
944.652	-0.5
945.382	1.5
946.112	-0.5
946.841	-0.5
947.571	0.5
948.301	0.5
949.031	0.5
949.76	0.5
950.49	0.5
951.219	-0.5
951.948	-0.5
952.678	-0.5
953.407	-1.5
954.136	-1.5
954.865	0.5
955.594	-0.5
956.323	0.5
957.052	-1.5
957.78	0.5
958.509	-0.5
959.238	-0.5
959.966	1.5
960.695	-1.5
961.423	-0.5
962.151	-0.5
962.88	-0.5
963.608	1.5
964.336	2.5
965.064	-1.5
965.792	2.5
966.52	-0.5
967.247	1.5
967.975	0.5
968.703	0.5
969.43	0.5
970.158	1.5
970.885	0.5
971.613	1.5
972.34	2.5
973.067	0.5
973.794	2.5
974.521	2.5
975.248	1.5
975.975	-1.5
976.702	-0.5
977.429	-2.5
978.156	0.5
978.882	-0.5
979.609	0.5
980.335	1.5
981.062	-0.5
981.788	0.5
982.514	0.5
983.24	1.5
983.967	0.5
984.693	-1.5
985.419	0.5
986.144	-0.5
986.87	1.5
987.596	0.5
988.322	1.5
989.047	1.5
989.773	-0.5
990.498	-0.5
991.224	2.5
991.949	0.5
992.674	0.5
993.399	1.5
994.124	2.5
994.849	-1.5
995.574	0.5
996.299	0.5
997.024	0.5
997.749	1.5
998.473	2.5
999.198	1.5
999.922	-1.5
1000.647	-1.5
1001.371	4.5
1002.095	0.5
1002.82	-4.5
1003.544	-0.5
1004.268	1.5
1004.992	2.5
1005.716	2.5
1006.439	1.5
1007.163	3.5
1007.887	2.5
1008.611	0.5
1009.334	0.5
1010.058	0.5
1010.781	0.5
1011.504	2.5
1012.228	0.5
1012.951	-1.5
1013.674	-0.5
1014.397	1.5
1015.12	0.5
