节点500_425_QEPB04081__379__15-54-36-728.txt的数据

Date: Wed Nov 12 15:54:36 CST 2025
User: PC
Spectrometer: QEPB0408
触发模式: 0
积分时间 (秒): 1.000000E-2
Scans to average: 1
启用暗噪声校正: true
启用非线性校正: false
滑动平均宽度: 0
X轴模式: Wavelengths
Number of Pixels in Spectrum: 1044
>>>>>Begin Spectral Data<<<<<
220.843	-1.62
221.644	1.38
222.444	3.38
223.244	2.38
224.045	3.38
224.845	4.38
225.645	2.38
226.445	2.38
227.245	1.38
228.045	5.38
228.845	2.38
229.645	6.38
230.444	0.38
231.244	4.38
232.043	2.38
232.843	6.38
233.642	2.38
234.442	5.38
235.241	4.38
236.04	5.38
236.839	5.38
237.638	2.38
238.437	4.38
239.236	6.38
240.035	3.38
240.833	4.38
241.632	4.38
242.43	7.38
243.229	9.38
244.027	7.38
244.826	5.38
245.624	5.38
246.422	7.38
247.22	6.38
248.018	8.38
248.816	7.38
249.614	10.38
250.412	11.38
251.21	7.38
252.007	7.38
252.805	11.38
253.602	12.38
254.4	10.38
255.197	9.38
255.994	9.38
256.791	10.38
257.589	12.38
258.386	10.38
259.183	12.38
259.979	14.38
260.776	12.38
261.573	15.38
262.37	13.38
263.166	14.38
263.963	17.38
264.759	13.38
265.556	16.38
266.352	15.38
267.148	15.38
267.944	16.38
268.74	17.38
269.536	16.38
270.332	20.38
271.128	19.38
271.924	22.38
272.719	21.38
273.515	23.38
274.311	18.38
275.106	22.38
275.901	25.38
276.697	21.38
277.492	21.38
278.287	20.38
279.082	22.38
279.877	23.38
280.672	25.38
281.467	24.38
282.262	23.38
283.056	22.38
283.851	24.38
284.646	24.38
285.44	21.38
286.234	24.38
287.029	23.38
287.823	22.38
288.617	24.38
289.411	23.38
290.205	22.38
290.999	21.38
291.793	21.38
292.587	20.38
293.381	19.38
294.174	22.38
294.968	23.38
295.761	17.38
296.555	19.38
297.348	19.38
298.141	17.38
298.935	18.38
299.728	18.38
300.521	19.38
301.314	18.38
302.107	17.38
302.899	13.38
303.692	18.38
304.485	13.38
305.277	17.38
306.07	15.38
306.862	13.38
307.655	13.38
308.447	15.38
309.239	17.38
310.031	15.38
310.823	12.38
311.615	14.38
312.407	11.38
313.199	12.38
313.991	10.38
314.783	8.38
315.574	11.38
316.366	10.38
317.157	10.38
317.949	12.38
318.74	10.38
319.531	11.38
320.322	8.38
321.113	8.38
321.904	8.38
322.695	9.38
323.486	8.38
324.277	9.38
325.068	8.38
325.858	9.38
326.649	7.38
327.439	7.38
328.23	9.38
329.02	6.38
329.81	7.38
330.6	8.38
331.391	7.38
332.181	7.38
332.971	8.38
333.76	7.38
334.55	7.38
335.34	6.38
336.13	7.38
336.919	6.38
337.709	9.38
338.498	5.38
339.287	6.38
340.077	7.38
340.866	7.38
341.655	7.38
342.444	6.38
343.233	6.38
344.022	8.38
344.811	7.38
345.6	6.38
346.388	10.38
347.177	8.38
347.965	5.38
348.754	8.38
349.542	7.38
350.33	7.38
351.119	8.38
351.907	7.38
352.695	4.38
353.483	7.38
354.271	6.38
355.059	7.38
355.846	4.38
356.634	4.38
357.422	6.38
358.209	5.38
358.997	6.38
359.784	4.38
360.571	5.38
361.359	6.38
362.146	3.38
362.933	6.38
363.72	5.38
364.507	5.38
365.294	3.38
366.081	6.38
366.867	5.38
367.654	6.38
368.44	5.38
369.227	4.38
370.013	6.38
370.8	3.38
371.586	6.38
372.372	9.38
373.158	6.38
373.944	5.38
374.73	5.38
375.516	5.38
376.302	5.38
377.088	4.38
377.873	5.38
378.659	7.38
379.445	5.38
380.23	5.38
381.015	6.38
381.801	7.38
382.586	6.38
383.371	6.38
384.156	7.38
384.941	4.38
385.726	7.38
386.511	8.38
387.296	7.38
388.08	7.38
388.865	7.38
389.649	6.38
390.434	6.38
391.218	7.38
392.003	8.38
392.787	7.38
393.571	9.38
394.355	3.38
395.139	7.38
395.923	6.38
396.707	7.38
397.491	7.38
398.274	8.38
399.058	6.38
399.842	7.38
400.625	7.38
401.408	7.38
402.192	10.38
402.975	9.38
403.758	9.38
404.541	9.38
405.324	10.38
406.107	10.38
406.89	10.38
407.673	11.38
408.456	8.38
409.238	9.38
410.021	8.38
410.803	8.38
411.586	9.38
412.368	11.38
413.151	10.38
413.933	11.38
414.715	9.38
415.497	12.38
416.279	11.38
417.061	10.38
417.843	9.38
418.624	12.38
419.406	10.38
420.188	13.38
420.969	15.38
421.751	17.38
422.532	13.38
423.313	15.38
424.095	13.38
424.876	15.38
425.657	15.38
426.438	20.38
427.219	13.38
428	18.38
428.78	17.38
429.561	15.38
430.342	19.38
431.122	17.38
431.903	20.38
432.683	22.38
433.464	16.38
434.244	21.38
435.024	23.38
435.804	25.38
436.584	24.38
437.364	28.38
438.144	27.38
438.924	29.38
439.704	29.38
440.483	31.38
441.263	36.38
442.042	36.38
442.822	41.38
443.601	45.38
444.38	43.38
445.16	49.38
445.939	53.38
446.718	57.38
447.497	64.38
448.276	65.38
449.054	73.38
449.833	81.38
450.612	88.38
451.391	91.38
452.169	107.38
452.948	112.38
453.726	125.38
454.504	143.38
455.282	156.38
456.061	178.38
456.839	194.38
457.617	210.38
458.395	237.38
459.172	262.38
459.95	290.38
460.728	325.38
461.506	365.38
462.283	403.38
463.061	452.38
463.838	507.38
464.615	565.38
465.393	633.38
466.17	704.38
466.947	787.38
467.724	874.38
468.501	949.38
469.278	1065.38
470.055	1187.38
470.831	1314.38
471.608	1452.38
472.385	1605.38
473.161	1773.38
473.938	1956.38
474.714	2169.38
475.49	2368.38
476.266	2609.38
477.043	2860.38
477.819	3167.38
478.595	3492.38
479.371	3787.38
480.146	4162.38
480.922	4568.38
481.698	5005.38
482.473	5451.38
483.249	5970.38
484.024	6566.38
484.8	7147.38
485.575	7786.38
486.35	8446.38
487.126	9225.38
487.901	10055.38
488.676	10888.38
489.451	11877.38
490.225	12876.38
491	13922.38
491.775	15072.38
492.55	16258.38
493.324	17432.38
494.099	18616.38
494.873	19988.38
495.647	21306.38
496.422	22638.38
497.196	24050.38
497.97	25491.38
498.744	26898.38
499.518	28236.38
500.292	29431.38
501.066	30491.38
501.839	31580.38
502.613	32631.38
503.387	33226.38
504.16	33892.38
504.934	34312.38
505.707	34409.38
506.48	34397.38
507.253	34206.38
508.027	33941.38
508.8	33412.38
509.573	32892.38
510.346	32108.38
511.118	31293.38
511.891	30365.38
512.664	29290.38
513.437	28222.38
514.209	27097.38
514.982	26171.38
515.754	25139.38
516.526	24120.38
517.298	23075.38
518.071	22041.38
518.843	21237.38
519.615	20331.38
520.387	19533.38
521.159	18791.38
521.93	18112.38
522.702	17340.38
523.474	16686.38
524.245	16009.38
525.017	15264.38
525.788	14525.38
526.56	14020.38
527.331	13281.38
528.102	12758.38
528.873	12147.38
529.644	11516.38
530.415	11031.38
531.186	10531.38
531.957	9981.38
532.728	9438.38
533.498	8905.38
534.269	8421.38
535.039	7977.38
535.81	7527.38
536.58	7196.38
537.351	6740.38
538.121	6363.38
538.891	6056.38
539.661	5736.38
540.431	5436.38
541.201	5115.38
541.971	4863.38
542.741	4613.38
543.51	4395.38
544.28	4185.38
545.05	3956.38
545.819	3780.38
546.588	3594.38
547.358	3403.38
548.127	3229.38
548.896	3049.38
549.665	2925.38
550.434	2761.38
551.203	2633.38
551.972	2485.38
552.741	2333.38
553.51	2223.38
554.278	2097.38
555.047	1966.38
555.815	1865.38
556.584	1751.38
557.352	1659.38
558.121	1561.38
558.889	1488.38
559.657	1402.38
560.425	1324.38
561.193	1242.38
561.961	1182.38
562.729	1116.38
563.496	1069.38
564.264	1005.38
565.032	960.38
565.799	898.38
566.567	846.38
567.334	804.38
568.101	758.38
568.869	713.38
569.636	672.38
570.403	628.38
571.17	601.38
571.937	564.38
572.704	536.38
573.471	505.38
574.237	473.38
575.004	455.38
575.771	422.38
576.537	403.38
577.303	367.38
578.07	352.38
578.836	327.38
579.602	311.38
580.368	294.38
581.134	287.38
581.9	271.38
582.666	255.38
583.432	240.38
584.198	225.38
584.964	216.38
585.729	205.38
586.495	192.38
587.26	180.38
588.025	173.38
588.791	163.38
589.556	162.38
590.321	153.38
591.086	142.38
591.851	137.38
592.616	126.38
593.381	125.38
594.146	113.38
594.911	107.38
595.675	105.38
596.44	99.38
597.204	98.38
597.969	91.38
598.733	90.38
599.497	86.38
600.261	81.38
601.025	76.38
601.79	70.38
602.553	69.38
603.317	66.38
604.081	60.38
604.845	60.38
605.609	58.38
606.372	56.38
607.136	54.38
607.899	50.38
608.662	47.38
609.426	49.38
610.189	47.38
610.952	44.38
611.715	41.38
612.478	41.38
613.241	38.38
614.004	36.38
614.767	33.38
615.529	32.38
616.292	35.38
617.055	33.38
617.817	30.38
618.579	31.38
619.342	29.38
620.104	29.38
620.866	29.38
621.628	26.38
622.39	26.38
623.152	27.38
623.914	23.38
624.676	23.38
625.438	22.38
626.199	20.38
626.961	17.38
627.722	20.38
628.484	19.38
629.245	17.38
630.006	17.38
630.768	19.38
631.529	19.38
632.29	16.38
633.051	14.38
633.812	16.38
634.573	13.38
635.333	17.38
636.094	15.38
636.855	13.38
637.615	12.38
638.376	14.38
639.136	13.38
639.896	10.38
640.657	12.38
641.417	13.38
642.177	10.38
642.937	11.38
643.697	13.38
644.457	10.38
645.216	9.38
645.976	11.38
646.736	10.38
647.495	7.38
648.255	10.38
649.014	9.38
649.774	8.38
650.533	9.38
651.292	7.38
652.051	9.38
652.81	9.38
653.569	8.38
654.328	8.38
655.087	8.38
655.846	8.38
656.604	9.38
657.363	8.38
658.121	7.38
658.88	8.38
659.638	8.38
660.397	4.38
661.155	6.38
661.913	8.38
662.671	6.38
663.429	5.38
664.187	5.38
664.945	5.38
665.703	8.38
666.46	6.38
667.218	5.38
667.976	7.38
668.733	7.38
669.49	7.38
670.248	6.38
671.005	7.38
671.762	7.38
672.519	5.38
673.276	5.38
674.033	5.38
674.79	5.38
675.547	6.38
676.304	5.38
677.06	6.38
677.817	4.38
678.574	6.38
679.33	6.38
680.086	4.38
680.843	5.38
681.599	3.38
682.355	3.38
683.111	3.38
683.867	2.38
684.623	5.38
685.379	5.38
686.135	4.38
686.89	5.38
687.646	6.38
688.402	6.38
689.157	5.38
689.912	6.38
690.668	4.38
691.423	4.38
692.178	3.38
692.933	2.38
693.688	5.38
694.443	6.38
695.198	2.38
695.953	3.38
696.708	4.38
697.462	5.38
698.217	1.38
698.972	3.38
699.726	4.38
700.48	2.38
701.235	3.38
701.989	4.38
702.743	4.38
703.497	3.38
704.251	4.38
705.005	5.38
705.759	2.38
706.513	5.38
707.266	4.38
708.02	4.38
708.774	4.38
709.527	4.38
710.28	5.38
711.034	4.38
711.787	3.38
712.54	4.38
713.293	3.38
714.046	3.38
714.799	3.38
715.552	5.38
716.305	3.38
717.058	4.38
717.81	2.38
718.563	3.38
719.315	4.38
720.068	3.38
720.82	3.38
721.573	4.38
722.325	5.38
723.077	4.38
723.829	3.38
724.581	4.38
725.333	4.38
726.085	5.38
726.836	4.38
727.588	5.38
728.34	5.38
729.091	3.38
729.843	4.38
730.594	6.38
731.346	6.38
732.097	5.38
732.848	3.38
733.599	5.38
734.35	3.38
735.101	4.38
735.852	6.38
736.603	5.38
737.354	5.38
738.104	4.38
738.855	5.38
739.605	6.38
740.356	6.38
741.106	4.38
741.856	4.38
742.607	8.38
743.357	6.38
744.107	7.38
744.857	5.38
745.607	7.38
746.357	7.38
747.106	6.38
747.856	8.38
748.606	7.38
749.355	7.38
750.105	5.38
750.854	5.38
751.603	6.38
752.353	7.38
753.102	7.38
753.851	5.38
754.6	6.38
755.349	9.38
756.098	5.38
756.847	7.38
757.595	7.38
758.344	6.38
759.093	7.38
759.841	7.38
760.589	7.38
761.338	8.38
762.086	8.38
762.834	7.38
763.582	11.38
764.331	8.38
765.079	8.38
765.826	7.38
766.574	9.38
767.322	9.38
768.07	7.38
768.817	10.38
769.565	9.38
770.312	8.38
771.06	9.38
771.807	7.38
772.554	9.38
773.302	8.38
774.049	8.38
774.796	8.38
775.543	10.38
776.29	9.38
777.036	9.38
777.783	10.38
778.53	7.38
779.276	9.38
780.023	11.38
780.769	12.38
781.516	12.38
782.262	10.38
783.008	9.38
783.754	9.38
784.5	9.38
785.246	9.38
785.992	11.38
786.738	9.38
787.484	9.38
788.23	10.38
788.975	11.38
789.721	9.38
790.466	10.38
791.212	10.38
791.957	10.38
792.702	10.38
793.447	9.38
794.193	7.38
794.938	9.38
795.683	11.38
796.427	10.38
797.172	7.38
797.917	8.38
798.662	6.38
799.406	10.38
800.151	9.38
800.895	6.38
801.64	8.38
802.384	6.38
803.128	8.38
803.872	7.38
804.616	7.38
805.36	6.38
806.104	7.38
806.848	9.38
807.592	7.38
808.336	6.38
809.079	5.38
809.823	6.38
810.566	8.38
811.31	5.38
812.053	4.38
812.796	5.38
813.539	7.38
814.283	6.38
815.026	6.38
815.769	6.38
816.511	3.38
817.254	4.38
817.997	5.38
818.74	3.38
819.482	6.38
820.225	5.38
820.967	5.38
821.71	2.38
822.452	5.38
823.194	3.38
823.936	5.38
824.678	3.38
825.42	1.38
826.162	4.38
826.904	6.38
827.646	5.38
828.388	3.38
829.129	3.38
829.871	3.38
830.612	4.38
831.354	4.38
832.095	3.38
832.836	2.38
833.577	4.38
834.319	3.38
835.06	4.38
835.801	1.38
836.542	3.38
837.282	5.38
838.023	4.38
838.764	3.38
839.504	2.38
840.245	4.38
840.985	1.38
841.726	3.38
842.466	3.38
843.206	2.38
843.946	3.38
844.687	3.38
845.427	4.38
846.166	1.38
846.906	3.38
847.646	3.38
848.386	2.38
849.125	1.38
849.865	1.38
850.605	1.38
851.344	3.38
852.083	-0.62
852.823	2.38
853.562	1.38
854.301	3.38
855.04	2.38
855.779	2.38
856.518	3.38
857.257	0.38
857.995	1.38
858.734	-1.62
859.473	0.38
860.211	3.38
860.95	2.38
861.688	1.38
862.426	1.38
863.165	1.38
863.903	0.38
864.641	1.38
865.379	2.38
866.117	1.38
866.855	0.38
867.593	1.38
868.33	-0.62
869.068	0.38
869.806	0.38
870.543	0.38
871.28	-0.62
872.018	0.38
872.755	-0.62
873.492	2.38
874.229	1.38
874.967	0.38
875.703	2.38
876.44	0.38
877.177	1.38
877.914	-0.62
878.651	1.38
879.387	1.38
880.124	0.38
880.86	0.38
881.597	-1.62
882.333	-1.62
883.069	-1.62
883.806	0.38
884.542	0.38
885.278	-1.62
886.014	1.38
886.749	-0.62
887.485	-0.62
888.221	-1.62
888.957	-0.62
889.692	-0.62
890.428	1.38
891.163	-0.62
891.899	0.38
892.634	1.38
893.369	-0.62
894.104	1.38
894.839	-0.62
895.574	0.38
896.309	-0.62
897.044	0.38
897.779	0.38
898.514	0.38
899.248	1.38
899.983	-0.62
900.717	-0.62
901.452	-0.62
902.186	-0.62
902.92	-2.62
903.654	0.38
904.389	-1.62
905.123	-1.62
905.857	-2.62
906.59	0.38
907.324	0.38
908.058	-0.62
908.792	0.38
909.525	-0.62
910.259	-0.62
910.992	-0.62
911.726	-1.62
912.459	0.38
913.192	-0.62
913.925	1.38
914.658	0.38
915.391	-0.62
916.124	-0.62
916.857	0.38
917.59	0.38
918.323	-0.62
919.055	-2.62
919.788	0.38
920.521	-0.62
921.253	-1.62
921.985	-0.62
922.718	0.38
923.45	0.38
924.182	0.38
924.914	-0.62
925.646	0.38
926.378	0.38
927.11	0.38
927.841	-0.62
928.573	-0.62
929.305	-1.62
930.036	0.38
930.768	-0.62
931.499	0.38
932.23	-0.62
932.962	-1.62
933.693	-0.62
934.424	-0.62
935.155	-2.62
935.886	0.38
936.617	0.38
937.348	-0.62
938.078	0.38
938.809	0.38
939.54	0.38
940.27	-2.62
941.001	-2.62
941.731	-3.62
942.461	0.38
943.191	-0.62
943.922	-1.62
944.652	-2.62
945.382	-0.62
946.112	-0.62
946.841	-0.62
947.571	0.38
948.301	-2.62
949.031	0.38
949.76	-0.62
950.49	-1.62
951.219	0.38
951.948	-0.62
952.678	1.38
953.407	0.38
954.136	-0.62
954.865	-0.62
955.594	-1.62
956.323	-1.62
957.052	-1.62
957.78	0.38
958.509	0.38
959.238	-2.62
959.966	-0.62
960.695	-0.62
961.423	0.38
962.151	-2.62
962.88	-2.62
963.608	-2.62
964.336	0.38
965.064	0.38
965.792	-3.62
966.52	-0.62
967.247	0.38
967.975	-2.62
968.703	-2.62
969.43	0.38
970.158	-1.62
970.885	2.38
971.613	-1.62
972.34	-0.62
973.067	-1.62
973.794	-1.62
974.521	-0.62
975.248	-1.62
975.975	-1.62
976.702	-2.62
977.429	-0.62
978.156	-2.62
978.882	-0.62
979.609	1.38
980.335	-1.62
981.062	0.38
981.788	-0.62
982.514	-1.62
983.24	0.38
983.967	-1.62
984.693	-0.62
985.419	-4.62
986.144	-0.62
986.87	-1.62
987.596	-1.62
988.322	-2.62
989.047	-1.62
989.773	-0.62
990.498	0.38
991.224	-1.62
991.949	-2.62
992.674	0.38
993.399	-0.62
994.124	0.38
994.849	0.38
995.574	-1.62
996.299	1.38
997.024	1.38
997.749	-1.62
998.473	-0.62
999.198	0.38
999.922	-0.62
1000.647	-2.62
1001.371	3.38
1002.095	-2.62
1002.82	-0.62
1003.544	-0.62
1004.268	3.38
1004.992	-0.62
1005.716	2.38
1006.439	1.38
1007.163	1.38
1007.887	0.38
1008.611	-0.62
1009.334	-0.62
1010.058	0.38
1010.781	-0.62
1011.504	0.38
1012.228	0.38
1012.951	1.38
1013.674	0.38
1014.397	1.38
1015.12	-2.62
