节点500_425_QEPB04081__139__15-50-37-292.txt的数据

Date: Wed Nov 12 15:50:37 CST 2025
User: PC
Spectrometer: QEPB0408
触发模式: 0
积分时间 (秒): 1.000000E-2
Scans to average: 1
启用暗噪声校正: true
启用非线性校正: false
滑动平均宽度: 0
X轴模式: Wavelengths
Number of Pixels in Spectrum: 1044
>>>>>Begin Spectral Data<<<<<
220.843	3.5
221.644	4.5
222.444	1.5
223.244	3.5
224.045	5.5
224.845	3.5
225.645	3.5
226.445	5.5
227.245	5.5
228.045	6.5
228.845	2.5
229.645	5.5
230.444	5.5
231.244	6.5
232.043	4.5
232.843	7.5
233.642	7.5
234.442	7.5
235.241	8.5
236.04	7.5
236.839	7.5
237.638	8.5
238.437	6.5
239.236	5.5
240.035	7.5
240.833	7.5
241.632	7.5
242.43	6.5
243.229	8.5
244.027	8.5
244.826	8.5
245.624	9.5
246.422	9.5
247.22	8.5
248.018	9.5
248.816	9.5
249.614	10.5
250.412	10.5
251.21	12.5
252.007	13.5
252.805	11.5
253.602	10.5
254.4	11.5
255.197	10.5
255.994	14.5
256.791	11.5
257.589	14.5
258.386	13.5
259.183	12.5
259.979	16.5
260.776	16.5
261.573	13.5
262.37	16.5
263.166	14.5
263.963	17.5
264.759	17.5
265.556	18.5
266.352	19.5
267.148	20.5
267.944	22.5
268.74	22.5
269.536	22.5
270.332	21.5
271.128	23.5
271.924	23.5
272.719	24.5
273.515	24.5
274.311	21.5
275.106	27.5
275.901	21.5
276.697	24.5
277.492	25.5
278.287	25.5
279.082	26.5
279.877	27.5
280.672	27.5
281.467	26.5
282.262	23.5
283.056	26.5
283.851	26.5
284.646	24.5
285.44	26.5
286.234	26.5
287.029	22.5
287.823	24.5
288.617	24.5
289.411	23.5
290.205	25.5
290.999	25.5
291.793	23.5
292.587	23.5
293.381	23.5
294.174	24.5
294.968	19.5
295.761	19.5
296.555	19.5
297.348	21.5
298.141	19.5
298.935	21.5
299.728	19.5
300.521	18.5
301.314	21.5
302.107	16.5
302.899	17.5
303.692	16.5
304.485	14.5
305.277	18.5
306.07	17.5
306.862	13.5
307.655	15.5
308.447	13.5
309.239	16.5
310.031	15.5
310.823	13.5
311.615	11.5
312.407	13.5
313.199	13.5
313.991	13.5
314.783	10.5
315.574	14.5
316.366	14.5
317.157	12.5
317.949	11.5
318.74	12.5
319.531	10.5
320.322	12.5
321.113	12.5
321.904	8.5
322.695	10.5
323.486	8.5
324.277	12.5
325.068	10.5
325.858	8.5
326.649	9.5
327.439	10.5
328.23	8.5
329.02	10.5
329.81	10.5
330.6	7.5
331.391	8.5
332.181	7.5
332.971	10.5
333.76	8.5
334.55	7.5
335.34	8.5
336.13	9.5
336.919	10.5
337.709	7.5
338.498	7.5
339.287	9.5
340.077	8.5
340.866	9.5
341.655	7.5
342.444	8.5
343.233	10.5
344.022	6.5
344.811	8.5
345.6	10.5
346.388	7.5
347.177	6.5
347.965	6.5
348.754	9.5
349.542	8.5
350.33	7.5
351.119	8.5
351.907	8.5
352.695	7.5
353.483	9.5
354.271	9.5
355.059	7.5
355.846	8.5
356.634	9.5
357.422	8.5
358.209	10.5
358.997	7.5
359.784	9.5
360.571	7.5
361.359	7.5
362.146	7.5
362.933	5.5
363.72	7.5
364.507	7.5
365.294	7.5
366.081	8.5
366.867	7.5
367.654	7.5
368.44	8.5
369.227	8.5
370.013	6.5
370.8	6.5
371.586	8.5
372.372	4.5
373.158	7.5
373.944	7.5
374.73	7.5
375.516	8.5
376.302	7.5
377.088	8.5
377.873	5.5
378.659	4.5
379.445	6.5
380.23	8.5
381.015	8.5
381.801	3.5
382.586	8.5
383.371	9.5
384.156	6.5
384.941	7.5
385.726	6.5
386.511	5.5
387.296	8.5
388.08	7.5
388.865	8.5
389.649	8.5
390.434	9.5
391.218	8.5
392.003	7.5
392.787	7.5
393.571	8.5
394.355	7.5
395.139	10.5
395.923	8.5
396.707	8.5
397.491	9.5
398.274	7.5
399.058	9.5
399.842	9.5
400.625	8.5
401.408	10.5
402.192	8.5
402.975	10.5
403.758	9.5
404.541	10.5
405.324	10.5
406.107	9.5
406.89	10.5
407.673	11.5
408.456	11.5
409.238	11.5
410.021	10.5
410.803	12.5
411.586	10.5
412.368	12.5
413.151	13.5
413.933	11.5
414.715	12.5
415.497	10.5
416.279	13.5
417.061	12.5
417.843	12.5
418.624	14.5
419.406	13.5
420.188	14.5
420.969	13.5
421.751	14.5
422.532	16.5
423.313	14.5
424.095	16.5
424.876	15.5
425.657	17.5
426.438	17.5
427.219	19.5
428	17.5
428.78	18.5
429.561	22.5
430.342	20.5
431.122	22.5
431.903	22.5
432.683	19.5
433.464	25.5
434.244	23.5
435.024	27.5
435.804	25.5
436.584	28.5
437.364	29.5
438.144	31.5
438.924	30.5
439.704	30.5
440.483	37.5
441.263	36.5
442.042	37.5
442.822	36.5
443.601	38.5
444.38	43.5
445.16	49.5
445.939	52.5
446.718	56.5
447.497	55.5
448.276	65.5
449.054	66.5
449.833	78.5
450.612	80.5
451.391	86.5
452.169	97.5
452.948	106.5
453.726	119.5
454.504	129.5
455.282	140.5
456.061	166.5
456.839	178.5
457.617	201.5
458.395	224.5
459.172	249.5
459.95	270.5
460.728	306.5
461.506	329.5
462.283	380.5
463.061	427.5
463.838	478.5
464.615	536.5
465.393	597.5
466.17	659.5
466.947	736.5
467.724	838.5
468.501	933.5
469.278	1029.5
470.055	1153.5
470.831	1267.5
471.608	1428.5
472.385	1581.5
473.161	1743.5
473.938	1929.5
474.714	2134.5
475.49	2372.5
476.266	2616.5
477.043	2911.5
477.819	3206.5
478.595	3548.5
479.371	3898.5
480.146	4290.5
480.922	4731.5
481.698	5180.5
482.473	5718.5
483.249	6289.5
484.024	6933.5
484.8	7583.5
485.575	8289.5
486.35	9098.5
487.126	9976.5
487.901	10900.5
488.676	11902.5
489.451	12924.5
490.225	14064.5
491	15308.5
491.775	16613.5
492.55	18016.5
493.324	19416.5
494.099	20799.5
494.873	22186.5
495.647	23786.5
496.422	25236.5
497.196	26781.5
497.97	28392.5
498.744	29827.5
499.518	31122.5
500.292	32463.5
501.066	33542.5
501.839	34628.5
502.613	35563.5
503.387	36055.5
504.16	36490.5
504.934	36728.5
505.707	36622.5
506.48	36375.5
507.253	35946.5
508.027	35412.5
508.8	34609.5
509.573	33797.5
510.346	32835.5
511.118	31778.5
511.891	30748.5
512.664	29495.5
513.437	28277.5
514.209	27108.5
514.982	26142.5
515.754	24941.5
516.526	23804.5
517.298	22768.5
518.071	21777.5
518.843	20930.5
519.615	20086.5
520.387	19282.5
521.159	18468.5
521.93	17841.5
522.702	17102.5
523.474	16449.5
524.245	15757.5
525.017	15042.5
525.788	14341.5
526.56	13708.5
527.331	13010.5
528.102	12402.5
528.873	11744.5
529.644	11224.5
530.415	10672.5
531.186	10169.5
531.957	9622.5
532.728	9099.5
533.498	8541.5
534.269	8096.5
535.039	7668.5
535.81	7243.5
536.58	6858.5
537.351	6413.5
538.121	6075.5
538.891	5795.5
539.661	5495.5
540.431	5195.5
541.201	4911.5
541.971	4646.5
542.741	4408.5
543.51	4200.5
544.28	3972.5
545.05	3795.5
545.819	3596.5
546.588	3405.5
547.358	3244.5
548.127	3048.5
548.896	2911.5
549.665	2766.5
550.434	2632.5
551.203	2478.5
551.972	2340.5
552.741	2211.5
553.51	2111.5
554.278	1982.5
555.047	1869.5
555.815	1750.5
556.584	1655.5
557.352	1556.5
558.121	1474.5
558.889	1397.5
559.657	1317.5
560.425	1244.5
561.193	1179.5
561.961	1121.5
562.729	1051.5
563.496	993.5
564.264	941.5
565.032	886.5
565.799	847.5
566.567	792.5
567.334	759.5
568.101	713.5
568.869	670.5
569.636	634.5
570.403	596.5
571.17	560.5
571.937	533.5
572.704	503.5
573.471	469.5
574.237	450.5
575.004	421.5
575.771	393.5
576.537	371.5
577.303	349.5
578.07	326.5
578.836	315.5
579.602	298.5
580.368	287.5
581.134	270.5
581.9	256.5
582.666	241.5
583.432	230.5
584.198	214.5
584.964	204.5
585.729	192.5
586.495	183.5
587.26	176.5
588.025	170.5
588.791	159.5
589.556	144.5
590.321	140.5
591.086	135.5
591.851	130.5
592.616	117.5
593.381	114.5
594.146	112.5
594.911	101.5
595.675	99.5
596.44	96.5
597.204	89.5
597.969	87.5
598.733	82.5
599.497	81.5
600.261	75.5
601.025	75.5
601.79	70.5
602.553	69.5
603.317	67.5
604.081	65.5
604.845	60.5
605.609	57.5
606.372	54.5
607.136	52.5
607.899	48.5
608.662	46.5
609.426	47.5
610.189	48.5
610.952	42.5
611.715	41.5
612.478	40.5
613.241	37.5
614.004	36.5
614.767	37.5
615.529	35.5
616.292	34.5
617.055	33.5
617.817	31.5
618.579	29.5
619.342	28.5
620.104	30.5
620.866	26.5
621.628	27.5
622.39	27.5
623.152	24.5
623.914	23.5
624.676	23.5
625.438	23.5
626.199	20.5
626.961	20.5
627.722	21.5
628.484	19.5
629.245	18.5
630.006	19.5
630.768	15.5
631.529	18.5
632.29	18.5
633.051	18.5
633.812	19.5
634.573	14.5
635.333	16.5
636.094	15.5
636.855	15.5
637.615	14.5
638.376	14.5
639.136	14.5
639.896	14.5
640.657	13.5
641.417	11.5
642.177	11.5
642.937	14.5
643.697	12.5
644.457	14.5
645.216	10.5
645.976	13.5
646.736	11.5
647.495	10.5
648.255	9.5
649.014	8.5
649.774	11.5
650.533	8.5
651.292	9.5
652.051	9.5
652.81	9.5
653.569	8.5
654.328	8.5
655.087	8.5
655.846	8.5
656.604	8.5
657.363	9.5
658.121	9.5
658.88	7.5
659.638	9.5
660.397	8.5
661.155	8.5
661.913	8.5
662.671	6.5
663.429	10.5
664.187	9.5
664.945	7.5
665.703	7.5
666.46	8.5
667.218	6.5
667.976	8.5
668.733	4.5
669.49	8.5
670.248	7.5
671.005	8.5
671.762	4.5
672.519	8.5
673.276	4.5
674.033	3.5
674.79	6.5
675.547	7.5
676.304	5.5
677.06	7.5
677.817	6.5
678.574	7.5
679.33	6.5
680.086	6.5
680.843	6.5
681.599	5.5
682.355	6.5
683.111	4.5
683.867	7.5
684.623	8.5
685.379	4.5
686.135	4.5
686.89	3.5
687.646	6.5
688.402	6.5
689.157	6.5
689.912	4.5
690.668	8.5
691.423	5.5
692.178	4.5
692.933	4.5
693.688	5.5
694.443	3.5
695.198	4.5
695.953	4.5
696.708	5.5
697.462	5.5
698.217	7.5
698.972	5.5
699.726	4.5
700.48	4.5
701.235	3.5
701.989	5.5
702.743	3.5
703.497	5.5
704.251	4.5
705.005	3.5
705.759	4.5
706.513	3.5
707.266	6.5
708.02	3.5
708.774	7.5
709.527	5.5
710.28	4.5
711.034	4.5
711.787	6.5
712.54	5.5
713.293	4.5
714.046	5.5
714.799	4.5
715.552	2.5
716.305	6.5
717.058	5.5
717.81	5.5
718.563	5.5
719.315	5.5
720.068	7.5
720.82	6.5
721.573	3.5
722.325	4.5
723.077	5.5
723.829	5.5
724.581	5.5
725.333	5.5
726.085	4.5
726.836	5.5
727.588	4.5
728.34	6.5
729.091	8.5
729.843	5.5
730.594	7.5
731.346	3.5
732.097	6.5
732.848	7.5
733.599	6.5
734.35	6.5
735.101	7.5
735.852	6.5
736.603	6.5
737.354	6.5
738.104	6.5
738.855	8.5
739.605	5.5
740.356	6.5
741.106	6.5
741.856	6.5
742.607	9.5
743.357	9.5
744.107	8.5
744.857	8.5
745.607	8.5
746.357	7.5
747.106	5.5
747.856	7.5
748.606	7.5
749.355	6.5
750.105	8.5
750.854	8.5
751.603	7.5
752.353	9.5
753.102	5.5
753.851	11.5
754.6	5.5
755.349	7.5
756.098	9.5
756.847	6.5
757.595	7.5
758.344	10.5
759.093	9.5
759.841	8.5
760.589	8.5
761.338	10.5
762.086	7.5
762.834	9.5
763.582	10.5
764.331	8.5
765.079	10.5
765.826	9.5
766.574	9.5
767.322	10.5
768.07	9.5
768.817	8.5
769.565	11.5
770.312	11.5
771.06	11.5
771.807	10.5
772.554	11.5
773.302	13.5
774.049	11.5
774.796	12.5
775.543	13.5
776.29	13.5
777.036	9.5
777.783	12.5
778.53	10.5
779.276	11.5
780.023	12.5
780.769	12.5
781.516	10.5
782.262	10.5
783.008	11.5
783.754	12.5
784.5	11.5
785.246	10.5
785.992	12.5
786.738	13.5
787.484	14.5
788.23	14.5
788.975	10.5
789.721	9.5
790.466	8.5
791.212	10.5
791.957	13.5
792.702	10.5
793.447	11.5
794.193	9.5
794.938	9.5
795.683	12.5
796.427	10.5
797.172	10.5
797.917	11.5
798.662	8.5
799.406	8.5
800.151	8.5
800.895	9.5
801.64	8.5
802.384	10.5
803.128	5.5
803.872	7.5
804.616	10.5
805.36	7.5
806.104	8.5
806.848	9.5
807.592	6.5
808.336	7.5
809.079	7.5
809.823	10.5
810.566	9.5
811.31	7.5
812.053	4.5
812.796	8.5
813.539	6.5
814.283	6.5
815.026	4.5
815.769	5.5
816.511	6.5
817.254	7.5
817.997	4.5
818.74	6.5
819.482	5.5
820.225	6.5
820.967	7.5
821.71	5.5
822.452	4.5
823.194	5.5
823.936	4.5
824.678	5.5
825.42	4.5
826.162	6.5
826.904	6.5
827.646	5.5
828.388	4.5
829.129	5.5
829.871	4.5
830.612	4.5
831.354	2.5
832.095	2.5
832.836	6.5
833.577	3.5
834.319	5.5
835.06	3.5
835.801	3.5
836.542	4.5
837.282	4.5
838.023	6.5
838.764	3.5
839.504	4.5
840.245	5.5
840.985	3.5
841.726	5.5
842.466	4.5
843.206	4.5
843.946	2.5
844.687	5.5
845.427	2.5
846.166	2.5
846.906	4.5
847.646	4.5
848.386	4.5
849.125	3.5
849.865	3.5
850.605	6.5
851.344	5.5
852.083	3.5
852.823	3.5
853.562	3.5
854.301	3.5
855.04	2.5
855.779	5.5
856.518	2.5
857.257	1.5
857.995	2.5
858.734	2.5
859.473	5.5
860.211	2.5
860.95	4.5
861.688	5.5
862.426	2.5
863.165	1.5
863.903	3.5
864.641	2.5
865.379	1.5
866.117	3.5
866.855	2.5
867.593	2.5
868.33	2.5
869.068	3.5
869.806	1.5
870.543	-0.5
871.28	3.5
872.018	1.5
872.755	1.5
873.492	1.5
874.229	-1.5
874.967	-0.5
875.703	4.5
876.44	2.5
877.177	1.5
877.914	-0.5
878.651	2.5
879.387	-0.5
880.124	-1.5
880.86	0.5
881.597	2.5
882.333	-0.5
883.069	2.5
883.806	1.5
884.542	0.5
885.278	1.5
886.014	3.5
886.749	-0.5
887.485	3.5
888.221	1.5
888.957	1.5
889.692	1.5
890.428	1.5
891.163	-1.5
891.899	-0.5
892.634	-0.5
893.369	1.5
894.104	2.5
894.839	1.5
895.574	-0.5
896.309	1.5
897.044	1.5
897.779	0.5
898.514	-1.5
899.248	2.5
899.983	2.5
900.717	-0.5
901.452	0.5
902.186	-0.5
902.92	-0.5
903.654	0.5
904.389	-1.5
905.123	-0.5
905.857	0.5
906.59	2.5
907.324	0.5
908.058	0.5
908.792	-0.5
909.525	0.5
910.259	1.5
910.992	1.5
911.726	2.5
912.459	0.5
913.192	-1.5
913.925	1.5
914.658	0.5
915.391	1.5
916.124	0.5
916.857	-0.5
917.59	1.5
918.323	2.5
919.055	2.5
919.788	0.5
920.521	1.5
921.253	-0.5
921.985	0.5
922.718	0.5
923.45	1.5
924.182	1.5
924.914	0.5
925.646	0.5
926.378	0.5
927.11	-2.5
927.841	0.5
928.573	-0.5
929.305	0.5
930.036	1.5
930.768	1.5
931.499	1.5
932.23	0.5
932.962	-1.5
933.693	-0.5
934.424	-1.5
935.155	1.5
935.886	-1.5
936.617	0.5
937.348	0.5
938.078	1.5
938.809	1.5
939.54	-1.5
940.27	0.5
941.001	-0.5
941.731	0.5
942.461	-0.5
943.191	1.5
943.922	0.5
944.652	0.5
945.382	1.5
946.112	1.5
946.841	1.5
947.571	-1.5
948.301	-0.5
949.031	1.5
949.76	-1.5
950.49	2.5
951.219	2.5
951.948	1.5
952.678	2.5
953.407	0.5
954.136	0.5
954.865	-0.5
955.594	0.5
956.323	-2.5
957.052	-1.5
957.78	1.5
958.509	0.5
959.238	0.5
959.966	0.5
960.695	1.5
961.423	0.5
962.151	1.5
962.88	0.5
963.608	0.5
964.336	0.5
965.064	-1.5
965.792	0.5
966.52	0.5
967.247	0.5
967.975	0.5
968.703	1.5
969.43	0.5
970.158	0.5
970.885	-0.5
971.613	-0.5
972.34	0.5
973.067	0.5
973.794	-1.5
974.521	1.5
975.248	0.5
975.975	0.5
976.702	0.5
977.429	-0.5
978.156	0.5
978.882	-0.5
979.609	1.5
980.335	-1.5
981.062	0.5
981.788	1.5
982.514	1.5
983.24	1.5
983.967	1.5
984.693	-0.5
985.419	1.5
986.144	-1.5
986.87	1.5
987.596	1.5
988.322	-0.5
989.047	-0.5
989.773	-0.5
990.498	0.5
991.224	0.5
991.949	1.5
992.674	2.5
993.399	-0.5
994.124	0.5
994.849	-0.5
995.574	0.5
996.299	-0.5
997.024	0.5
997.749	0.5
998.473	0.5
999.198	0.5
999.922	-0.5
1000.647	1.5
1001.371	2.5
1002.095	-0.5
1002.82	0.5
1003.544	-2.5
1004.268	1.5
1004.992	2.5
1005.716	2.5
1006.439	2.5
1007.163	1.5
1007.887	1.5
1008.611	-1.5
1009.334	0.5
1010.058	-0.5
1010.781	2.5
1011.504	0.5
1012.228	-0.5
1012.951	-1.5
1013.674	-0.5
1014.397	-0.5
1015.12	2.5
