节点500_425_QEPB04081__527__15-57-04-560.txt的数据

Date: Wed Nov 12 15:57:04 CST 2025
User: PC
Spectrometer: QEPB0408
触发模式: 0
积分时间 (秒): 1.000000E-2
Scans to average: 1
启用暗噪声校正: true
启用非线性校正: false
滑动平均宽度: 0
X轴模式: Wavelengths
Number of Pixels in Spectrum: 1044
>>>>>Begin Spectral Data<<<<<
220.843	2.75
221.644	1.75
222.444	2.75
223.244	1.75
224.045	2.75
224.845	-1.25
225.645	3.75
226.445	2.75
227.245	2.75
228.045	4.75
228.845	3.75
229.645	2.75
230.444	4.75
231.244	5.75
232.043	3.75
232.843	3.75
233.642	3.75
234.442	4.75
235.241	4.75
236.04	3.75
236.839	4.75
237.638	6.75
238.437	5.75
239.236	6.75
240.035	5.75
240.833	4.75
241.632	7.75
242.43	4.75
243.229	6.75
244.027	5.75
244.826	6.75
245.624	6.75
246.422	7.75
247.22	9.75
248.018	6.75
248.816	7.75
249.614	6.75
250.412	9.75
251.21	8.75
252.007	6.75
252.805	8.75
253.602	10.75
254.4	10.75
255.197	11.75
255.994	10.75
256.791	11.75
257.589	10.75
258.386	11.75
259.183	11.75
259.979	11.75
260.776	9.75
261.573	9.75
262.37	13.75
263.166	11.75
263.963	12.75
264.759	13.75
265.556	14.75
266.352	16.75
267.148	14.75
267.944	15.75
268.74	15.75
269.536	17.75
270.332	16.75
271.128	16.75
271.924	17.75
272.719	18.75
273.515	20.75
274.311	20.75
275.106	18.75
275.901	20.75
276.697	18.75
277.492	23.75
278.287	18.75
279.082	17.75
279.877	23.75
280.672	20.75
281.467	22.75
282.262	22.75
283.056	22.75
283.851	22.75
284.646	22.75
285.44	24.75
286.234	21.75
287.029	22.75
287.823	20.75
288.617	21.75
289.411	21.75
290.205	22.75
290.999	24.75
291.793	22.75
292.587	21.75
293.381	21.75
294.174	19.75
294.968	18.75
295.761	20.75
296.555	17.75
297.348	18.75
298.141	17.75
298.935	20.75
299.728	18.75
300.521	14.75
301.314	17.75
302.107	16.75
302.899	16.75
303.692	15.75
304.485	18.75
305.277	12.75
306.07	15.75
306.862	16.75
307.655	15.75
308.447	16.75
309.239	13.75
310.031	14.75
310.823	12.75
311.615	12.75
312.407	11.75
313.199	13.75
313.991	12.75
314.783	10.75
315.574	12.75
316.366	10.75
317.157	9.75
317.949	11.75
318.74	8.75
319.531	11.75
320.322	10.75
321.113	9.75
321.904	7.75
322.695	11.75
323.486	11.75
324.277	8.75
325.068	9.75
325.858	10.75
326.649	7.75
327.439	6.75
328.23	8.75
329.02	9.75
329.81	8.75
330.6	8.75
331.391	6.75
332.181	6.75
332.971	9.75
333.76	4.75
334.55	9.75
335.34	8.75
336.13	7.75
336.919	9.75
337.709	7.75
338.498	7.75
339.287	7.75
340.077	8.75
340.866	5.75
341.655	6.75
342.444	5.75
343.233	5.75
344.022	6.75
344.811	6.75
345.6	7.75
346.388	9.75
347.177	8.75
347.965	9.75
348.754	6.75
349.542	6.75
350.33	4.75
351.119	7.75
351.907	9.75
352.695	5.75
353.483	7.75
354.271	4.75
355.059	7.75
355.846	7.75
356.634	7.75
357.422	8.75
358.209	5.75
358.997	7.75
359.784	8.75
360.571	6.75
361.359	5.75
362.146	6.75
362.933	7.75
363.72	5.75
364.507	6.75
365.294	6.75
366.081	7.75
366.867	5.75
367.654	5.75
368.44	5.75
369.227	6.75
370.013	5.75
370.8	6.75
371.586	4.75
372.372	7.75
373.158	4.75
373.944	7.75
374.73	6.75
375.516	5.75
376.302	6.75
377.088	6.75
377.873	6.75
378.659	5.75
379.445	8.75
380.23	7.75
381.015	7.75
381.801	4.75
382.586	5.75
383.371	8.75
384.156	9.75
384.941	6.75
385.726	6.75
386.511	7.75
387.296	6.75
388.08	7.75
388.865	7.75
389.649	5.75
390.434	5.75
391.218	4.75
392.003	7.75
392.787	5.75
393.571	6.75
394.355	5.75
395.139	5.75
395.923	8.75
396.707	5.75
397.491	8.75
398.274	8.75
399.058	9.75
399.842	10.75
400.625	9.75
401.408	5.75
402.192	8.75
402.975	9.75
403.758	7.75
404.541	8.75
405.324	9.75
406.107	7.75
406.89	7.75
407.673	9.75
408.456	8.75
409.238	9.75
410.021	9.75
410.803	11.75
411.586	9.75
412.368	9.75
413.151	9.75
413.933	13.75
414.715	12.75
415.497	10.75
416.279	12.75
417.061	12.75
417.843	11.75
418.624	11.75
419.406	12.75
420.188	14.75
420.969	12.75
421.751	13.75
422.532	10.75
423.313	15.75
424.095	15.75
424.876	15.75
425.657	14.75
426.438	15.75
427.219	15.75
428	17.75
428.78	16.75
429.561	17.75
430.342	16.75
431.122	19.75
431.903	21.75
432.683	22.75
433.464	19.75
434.244	22.75
435.024	26.75
435.804	23.75
436.584	27.75
437.364	29.75
438.144	30.75
438.924	27.75
439.704	31.75
440.483	34.75
441.263	37.75
442.042	40.75
442.822	40.75
443.601	43.75
444.38	45.75
445.16	48.75
445.939	51.75
446.718	57.75
447.497	63.75
448.276	66.75
449.054	77.75
449.833	86.75
450.612	92.75
451.391	100.75
452.169	108.75
452.948	121.75
453.726	140.75
454.504	148.75
455.282	163.75
456.061	183.75
456.839	198.75
457.617	226.75
458.395	250.75
459.172	278.75
459.95	311.75
460.728	345.75
461.506	384.75
462.283	422.75
463.061	480.75
463.838	531.75
464.615	592.75
465.393	651.75
466.17	727.75
466.947	805.75
467.724	894.75
468.501	981.75
469.278	1097.75
470.055	1208.75
470.831	1324.75
471.608	1472.75
472.385	1636.75
473.161	1782.75
473.938	1952.75
474.714	2149.75
475.49	2383.75
476.266	2590.75
477.043	2852.75
477.819	3137.75
478.595	3428.75
479.371	3762.75
480.146	4072.75
480.922	4469.75
481.698	4856.75
482.473	5290.75
483.249	5718.75
484.024	6242.75
484.8	6862.75
485.575	7421.75
486.35	8032.75
487.126	8750.75
487.901	9469.75
488.676	10243.75
489.451	11112.75
490.225	12037.75
491	12934.75
491.775	14058.75
492.55	15073.75
493.324	16174.75
494.099	17315.75
494.873	18483.75
495.647	19687.75
496.422	20924.75
497.196	22154.75
497.97	23605.75
498.744	24836.75
499.518	26073.75
500.292	27210.75
501.066	28337.75
501.839	29528.75
502.613	30451.75
503.387	31207.75
504.16	31897.75
504.934	32467.75
505.707	32664.75
506.48	32783.75
507.253	32836.75
508.027	32754.75
508.8	32394.75
509.573	31946.75
510.346	31386.75
511.118	30689.75
511.891	30037.75
512.664	29045.75
513.437	28083.75
514.209	27025.75
514.982	26234.75
515.754	25241.75
516.526	24229.75
517.298	23231.75
518.071	22368.75
518.843	21355.75
519.615	20650.75
520.387	19684.75
521.159	19040.75
521.93	18249.75
522.702	17459.75
523.474	16902.75
524.245	16200.75
525.017	15475.75
525.788	14808.75
526.56	14184.75
527.331	13508.75
528.102	12953.75
528.873	12330.75
529.644	11805.75
530.415	11284.75
531.186	10802.75
531.957	10229.75
532.728	9692.75
533.498	9204.75
534.269	8673.75
535.039	8262.75
535.81	7814.75
536.58	7425.75
537.351	6977.75
538.121	6608.75
538.891	6257.75
539.661	5903.75
540.431	5634.75
541.201	5331.75
541.971	5066.75
542.741	4773.75
543.51	4535.75
544.28	4309.75
545.05	4091.75
545.819	3926.75
546.588	3723.75
547.358	3517.75
548.127	3332.75
548.896	3200.75
549.665	3010.75
550.434	2870.75
551.203	2704.75
551.972	2600.75
552.741	2440.75
553.51	2306.75
554.278	2191.75
555.047	2061.75
555.815	1965.75
556.584	1864.75
557.352	1741.75
558.121	1658.75
558.889	1550.75
559.657	1474.75
560.425	1398.75
561.193	1306.75
561.961	1245.75
562.729	1190.75
563.496	1107.75
564.264	1067.75
565.032	986.75
565.799	939.75
566.567	899.75
567.334	837.75
568.101	795.75
568.869	758.75
569.636	706.75
570.403	667.75
571.17	633.75
571.937	608.75
572.704	569.75
573.471	538.75
574.237	496.75
575.004	479.75
575.771	433.75
576.537	409.75
577.303	391.75
578.07	370.75
578.836	345.75
579.602	331.75
580.368	317.75
581.134	299.75
581.9	283.75
582.666	270.75
583.432	252.75
584.198	242.75
584.964	232.75
585.729	218.75
586.495	205.75
587.26	198.75
588.025	182.75
588.791	173.75
589.556	166.75
590.321	156.75
591.086	153.75
591.851	140.75
592.616	135.75
593.381	122.75
594.146	118.75
594.911	115.75
595.675	106.75
596.44	103.75
597.204	100.75
597.969	96.75
598.733	90.75
599.497	90.75
600.261	82.75
601.025	79.75
601.79	73.75
602.553	68.75
603.317	72.75
604.081	67.75
604.845	61.75
605.609	60.75
606.372	54.75
607.136	56.75
607.899	57.75
608.662	53.75
609.426	49.75
610.189	49.75
610.952	43.75
611.715	46.75
612.478	42.75
613.241	39.75
614.004	41.75
614.767	37.75
615.529	39.75
616.292	35.75
617.055	34.75
617.817	32.75
618.579	30.75
619.342	29.75
620.104	29.75
620.866	26.75
621.628	26.75
622.39	27.75
623.152	27.75
623.914	26.75
624.676	22.75
625.438	26.75
626.199	19.75
626.961	19.75
627.722	22.75
628.484	20.75
629.245	17.75
630.006	17.75
630.768	22.75
631.529	15.75
632.29	13.75
633.051	18.75
633.812	17.75
634.573	16.75
635.333	14.75
636.094	14.75
636.855	17.75
637.615	14.75
638.376	13.75
639.136	14.75
639.896	11.75
640.657	11.75
641.417	11.75
642.177	10.75
642.937	9.75
643.697	11.75
644.457	9.75
645.216	9.75
645.976	9.75
646.736	11.75
647.495	9.75
648.255	10.75
649.014	11.75
649.774	8.75
650.533	9.75
651.292	9.75
652.051	8.75
652.81	11.75
653.569	8.75
654.328	8.75
655.087	9.75
655.846	7.75
656.604	8.75
657.363	5.75
658.121	6.75
658.88	8.75
659.638	10.75
660.397	5.75
661.155	6.75
661.913	5.75
662.671	7.75
663.429	6.75
664.187	7.75
664.945	6.75
665.703	6.75
666.46	4.75
667.218	7.75
667.976	4.75
668.733	4.75
669.49	8.75
670.248	5.75
671.005	7.75
671.762	6.75
672.519	3.75
673.276	6.75
674.033	7.75
674.79	7.75
675.547	6.75
676.304	5.75
677.06	3.75
677.817	7.75
678.574	5.75
679.33	5.75
680.086	7.75
680.843	1.75
681.599	3.75
682.355	6.75
683.111	3.75
683.867	4.75
684.623	2.75
685.379	4.75
686.135	4.75
686.89	3.75
687.646	3.75
688.402	4.75
689.157	5.75
689.912	3.75
690.668	5.75
691.423	6.75
692.178	4.75
692.933	3.75
693.688	3.75
694.443	4.75
695.198	4.75
695.953	3.75
696.708	4.75
697.462	2.75
698.217	5.75
698.972	2.75
699.726	1.75
700.48	4.75
701.235	5.75
701.989	3.75
702.743	4.75
703.497	4.75
704.251	4.75
705.005	4.75
705.759	3.75
706.513	4.75
707.266	5.75
708.02	3.75
708.774	4.75
709.527	3.75
710.28	2.75
711.034	4.75
711.787	2.75
712.54	3.75
713.293	2.75
714.046	4.75
714.799	4.75
715.552	3.75
716.305	9.75
717.058	4.75
717.81	5.75
718.563	3.75
719.315	5.75
720.068	4.75
720.82	5.75
721.573	5.75
722.325	5.75
723.077	3.75
723.829	6.75
724.581	6.75
725.333	5.75
726.085	4.75
726.836	3.75
727.588	3.75
728.34	3.75
729.091	3.75
729.843	5.75
730.594	4.75
731.346	3.75
732.097	2.75
732.848	5.75
733.599	4.75
734.35	8.75
735.101	4.75
735.852	6.75
736.603	3.75
737.354	3.75
738.104	5.75
738.855	5.75
739.605	4.75
740.356	4.75
741.106	1.75
741.856	7.75
742.607	3.75
743.357	6.75
744.107	4.75
744.857	5.75
745.607	3.75
746.357	2.75
747.106	6.75
747.856	5.75
748.606	6.75
749.355	4.75
750.105	3.75
750.854	7.75
751.603	4.75
752.353	4.75
753.102	7.75
753.851	7.75
754.6	7.75
755.349	7.75
756.098	6.75
756.847	5.75
757.595	7.75
758.344	4.75
759.093	6.75
759.841	5.75
760.589	5.75
761.338	6.75
762.086	4.75
762.834	6.75
763.582	7.75
764.331	7.75
765.079	8.75
765.826	8.75
766.574	8.75
767.322	7.75
768.07	7.75
768.817	8.75
769.565	9.75
770.312	7.75
771.06	7.75
771.807	9.75
772.554	7.75
773.302	7.75
774.049	9.75
774.796	9.75
775.543	10.75
776.29	10.75
777.036	7.75
777.783	8.75
778.53	8.75
779.276	11.75
780.023	11.75
780.769	11.75
781.516	9.75
782.262	9.75
783.008	8.75
783.754	9.75
784.5	10.75
785.246	10.75
785.992	9.75
786.738	9.75
787.484	9.75
788.23	11.75
788.975	9.75
789.721	11.75
790.466	7.75
791.212	10.75
791.957	11.75
792.702	9.75
793.447	8.75
794.193	7.75
794.938	11.75
795.683	7.75
796.427	7.75
797.172	9.75
797.917	9.75
798.662	8.75
799.406	6.75
800.151	9.75
800.895	7.75
801.64	5.75
802.384	9.75
803.128	7.75
803.872	9.75
804.616	8.75
805.36	6.75
806.104	8.75
806.848	7.75
807.592	7.75
808.336	3.75
809.079	4.75
809.823	7.75
810.566	7.75
811.31	7.75
812.053	6.75
812.796	6.75
813.539	3.75
814.283	4.75
815.026	8.75
815.769	6.75
816.511	6.75
817.254	5.75
817.997	5.75
818.74	5.75
819.482	3.75
820.225	7.75
820.967	5.75
821.71	5.75
822.452	4.75
823.194	6.75
823.936	5.75
824.678	4.75
825.42	5.75
826.162	3.75
826.904	4.75
827.646	4.75
828.388	5.75
829.129	5.75
829.871	6.75
830.612	3.75
831.354	4.75
832.095	4.75
832.836	5.75
833.577	2.75
834.319	6.75
835.06	4.75
835.801	3.75
836.542	3.75
837.282	3.75
838.023	4.75
838.764	2.75
839.504	3.75
840.245	3.75
840.985	5.75
841.726	4.75
842.466	2.75
843.206	4.75
843.946	4.75
844.687	5.75
845.427	2.75
846.166	2.75
846.906	3.75
847.646	1.75
848.386	4.75
849.125	2.75
849.865	3.75
850.605	3.75
851.344	6.75
852.083	3.75
852.823	1.75
853.562	1.75
854.301	2.75
855.04	2.75
855.779	3.75
856.518	2.75
857.257	2.75
857.995	3.75
858.734	2.75
859.473	1.75
860.211	2.75
860.95	0.75
861.688	2.75
862.426	2.75
863.165	1.75
863.903	4.75
864.641	2.75
865.379	0.75
866.117	1.75
866.855	3.75
867.593	-2.25
868.33	0.75
869.068	0.75
869.806	0.75
870.543	1.75
871.28	1.75
872.018	0.75
872.755	2.75
873.492	-0.25
874.229	0.75
874.967	1.75
875.703	0.75
876.44	-0.25
877.177	0.75
877.914	-0.25
878.651	-0.25
879.387	0.75
880.124	1.75
880.86	1.75
881.597	1.75
882.333	1.75
883.069	-0.25
883.806	-1.25
884.542	1.75
885.278	-0.25
886.014	0.75
886.749	-1.25
887.485	-0.25
888.221	-0.25
888.957	1.75
889.692	1.75
890.428	-1.25
891.163	1.75
891.899	-0.25
892.634	0.75
893.369	-1.25
894.104	-0.25
894.839	0.75
895.574	-0.25
896.309	-1.25
897.044	-1.25
897.779	-1.25
898.514	-0.25
899.248	2.75
899.983	2.75
900.717	-0.25
901.452	0.75
902.186	1.75
902.92	0.75
903.654	-0.25
904.389	-0.25
905.123	0.75
905.857	-0.25
906.59	2.75
907.324	-2.25
908.058	1.75
908.792	-0.25
909.525	-0.25
910.259	1.75
910.992	-0.25
911.726	0.75
912.459	-2.25
913.192	-0.25
913.925	0.75
914.658	-0.25
915.391	-0.25
916.124	0.75
916.857	-1.25
917.59	0.75
918.323	-0.25
919.055	-0.25
919.788	0.75
920.521	0.75
921.253	2.75
921.985	-1.25
922.718	-1.25
923.45	1.75
924.182	0.75
924.914	-0.25
925.646	0.75
926.378	-2.25
927.11	-0.25
927.841	2.75
928.573	-0.25
929.305	-0.25
930.036	-2.25
930.768	1.75
931.499	-0.25
932.23	-0.25
932.962	-0.25
933.693	-2.25
934.424	-0.25
935.155	-1.25
935.886	-1.25
936.617	-2.25
937.348	0.75
938.078	-0.25
938.809	0.75
939.54	-1.25
940.27	-2.25
941.001	-0.25
941.731	-1.25
942.461	0.75
943.191	-0.25
943.922	-0.25
944.652	-1.25
945.382	-0.25
946.112	-0.25
946.841	0.75
947.571	0.75
948.301	-0.25
949.031	0.75
949.76	-1.25
950.49	1.75
951.219	1.75
951.948	-0.25
952.678	1.75
953.407	-0.25
954.136	-0.25
954.865	-0.25
955.594	-0.25
956.323	0.75
957.052	1.75
957.78	0.75
958.509	-0.25
959.238	-2.25
959.966	-0.25
960.695	-0.25
961.423	-1.25
962.151	-2.25
962.88	1.75
963.608	1.75
964.336	-1.25
965.064	-0.25
965.792	-0.25
966.52	-0.25
967.247	1.75
967.975	-0.25
968.703	-0.25
969.43	0.75
970.158	-1.25
970.885	-0.25
971.613	1.75
972.34	-0.25
973.067	-0.25
973.794	0.75
974.521	-2.25
975.248	-1.25
975.975	-2.25
976.702	-0.25
977.429	-1.25
978.156	0.75
978.882	-1.25
979.609	-1.25
980.335	-1.25
981.062	-2.25
981.788	-0.25
982.514	-0.25
983.24	0.75
983.967	0.75
984.693	0.75
985.419	-1.25
986.144	-0.25
986.87	-1.25
987.596	-1.25
988.322	-2.25
989.047	-0.25
989.773	1.75
990.498	-0.25
991.224	-0.25
991.949	-0.25
992.674	1.75
993.399	0.75
994.124	-0.25
994.849	0.75
995.574	-2.25
996.299	0.75
997.024	-0.25
997.749	1.75
998.473	0.75
999.198	-1.25
999.922	0.75
1000.647	-0.25
1001.371	3.75
1002.095	-0.25
1002.82	-1.25
1003.544	-2.25
1004.268	0.75
1004.992	1.75
1005.716	1.75
1006.439	1.75
1007.163	1.75
1007.887	1.75
1008.611	-0.25
1009.334	0.75
1010.058	-1.25
1010.781	0.75
1011.504	0.75
1012.228	1.75
1012.951	-0.25
1013.674	0.75
1014.397	-2.25
1015.12	1.75
