节点500_425_QEPB04081__391__15-54-48-729.txt的数据

Date: Wed Nov 12 15:54:48 CST 2025
User: PC
Spectrometer: QEPB0408
触发模式: 0
积分时间 (秒): 1.000000E-2
Scans to average: 1
启用暗噪声校正: true
启用非线性校正: false
滑动平均宽度: 0
X轴模式: Wavelengths
Number of Pixels in Spectrum: 1044
>>>>>Begin Spectral Data<<<<<
220.843	3.88
221.644	2.88
222.444	2.88
223.244	3.88
224.045	3.88
224.845	3.88
225.645	3.88
226.445	6.88
227.245	1.88
228.045	2.88
228.845	2.88
229.645	4.88
230.444	4.88
231.244	4.88
232.043	3.88
232.843	5.88
233.642	3.88
234.442	2.88
235.241	7.88
236.04	4.88
236.839	6.88
237.638	7.88
238.437	4.88
239.236	4.88
240.035	8.88
240.833	4.88
241.632	6.88
242.43	8.88
243.229	8.88
244.027	8.88
244.826	5.88
245.624	7.88
246.422	10.88
247.22	7.88
248.018	8.88
248.816	8.88
249.614	12.88
250.412	9.88
251.21	10.88
252.007	12.88
252.805	10.88
253.602	11.88
254.4	10.88
255.197	11.88
255.994	11.88
256.791	12.88
257.589	13.88
258.386	14.88
259.183	11.88
259.979	11.88
260.776	15.88
261.573	14.88
262.37	15.88
263.166	15.88
263.963	17.88
264.759	18.88
265.556	17.88
266.352	15.88
267.148	14.88
267.944	13.88
268.74	18.88
269.536	19.88
270.332	17.88
271.128	20.88
271.924	21.88
272.719	20.88
273.515	23.88
274.311	21.88
275.106	24.88
275.901	21.88
276.697	23.88
277.492	22.88
278.287	23.88
279.082	21.88
279.877	21.88
280.672	23.88
281.467	24.88
282.262	26.88
283.056	26.88
283.851	24.88
284.646	23.88
285.44	23.88
286.234	21.88
287.029	23.88
287.823	26.88
288.617	22.88
289.411	23.88
290.205	26.88
290.999	21.88
291.793	24.88
292.587	21.88
293.381	22.88
294.174	21.88
294.968	23.88
295.761	20.88
296.555	18.88
297.348	19.88
298.141	18.88
298.935	18.88
299.728	20.88
300.521	17.88
301.314	18.88
302.107	18.88
302.899	16.88
303.692	17.88
304.485	17.88
305.277	16.88
306.07	13.88
306.862	17.88
307.655	14.88
308.447	15.88
309.239	16.88
310.031	12.88
310.823	15.88
311.615	13.88
312.407	13.88
313.199	12.88
313.991	12.88
314.783	13.88
315.574	13.88
316.366	11.88
317.157	10.88
317.949	13.88
318.74	11.88
319.531	10.88
320.322	9.88
321.113	10.88
321.904	8.88
322.695	11.88
323.486	11.88
324.277	12.88
325.068	7.88
325.858	10.88
326.649	8.88
327.439	9.88
328.23	10.88
329.02	7.88
329.81	8.88
330.6	6.88
331.391	7.88
332.181	7.88
332.971	8.88
333.76	9.88
334.55	6.88
335.34	7.88
336.13	8.88
336.919	6.88
337.709	9.88
338.498	9.88
339.287	7.88
340.077	9.88
340.866	9.88
341.655	8.88
342.444	7.88
343.233	9.88
344.022	7.88
344.811	9.88
345.6	8.88
346.388	7.88
347.177	5.88
347.965	8.88
348.754	8.88
349.542	9.88
350.33	6.88
351.119	8.88
351.907	7.88
352.695	4.88
353.483	8.88
354.271	8.88
355.059	7.88
355.846	7.88
356.634	8.88
357.422	6.88
358.209	7.88
358.997	5.88
359.784	7.88
360.571	8.88
361.359	7.88
362.146	5.88
362.933	6.88
363.72	7.88
364.507	8.88
365.294	6.88
366.081	6.88
366.867	6.88
367.654	8.88
368.44	6.88
369.227	6.88
370.013	7.88
370.8	7.88
371.586	4.88
372.372	7.88
373.158	7.88
373.944	5.88
374.73	5.88
375.516	6.88
376.302	5.88
377.088	9.88
377.873	5.88
378.659	4.88
379.445	7.88
380.23	7.88
381.015	4.88
381.801	9.88
382.586	6.88
383.371	6.88
384.156	8.88
384.941	10.88
385.726	5.88
386.511	8.88
387.296	7.88
388.08	8.88
388.865	6.88
389.649	7.88
390.434	7.88
391.218	6.88
392.003	8.88
392.787	5.88
393.571	8.88
394.355	8.88
395.139	7.88
395.923	7.88
396.707	9.88
397.491	9.88
398.274	10.88
399.058	7.88
399.842	11.88
400.625	8.88
401.408	9.88
402.192	8.88
402.975	10.88
403.758	10.88
404.541	9.88
405.324	9.88
406.107	12.88
406.89	10.88
407.673	10.88
408.456	10.88
409.238	14.88
410.021	11.88
410.803	14.88
411.586	8.88
412.368	12.88
413.151	11.88
413.933	12.88
414.715	13.88
415.497	9.88
416.279	11.88
417.061	10.88
417.843	15.88
418.624	13.88
419.406	12.88
420.188	16.88
420.969	12.88
421.751	17.88
422.532	14.88
423.313	17.88
424.095	14.88
424.876	16.88
425.657	15.88
426.438	15.88
427.219	17.88
428	19.88
428.78	18.88
429.561	18.88
430.342	17.88
431.122	20.88
431.903	17.88
432.683	20.88
433.464	24.88
434.244	22.88
435.024	24.88
435.804	25.88
436.584	26.88
437.364	26.88
438.144	28.88
438.924	30.88
439.704	30.88
440.483	33.88
441.263	35.88
442.042	40.88
442.822	36.88
443.601	41.88
444.38	44.88
445.16	50.88
445.939	55.88
446.718	57.88
447.497	61.88
448.276	68.88
449.054	72.88
449.833	78.88
450.612	90.88
451.391	95.88
452.169	106.88
452.948	113.88
453.726	124.88
454.504	143.88
455.282	162.88
456.061	174.88
456.839	194.88
457.617	219.88
458.395	239.88
459.172	270.88
459.95	300.88
460.728	332.88
461.506	358.88
462.283	415.88
463.061	453.88
463.838	517.88
464.615	570.88
465.393	637.88
466.17	706.88
466.947	788.88
467.724	858.88
468.501	976.88
469.278	1063.88
470.055	1199.88
470.831	1315.88
471.608	1459.88
472.385	1607.88
473.161	1763.88
473.938	1944.88
474.714	2161.88
475.49	2379.88
476.266	2605.88
477.043	2862.88
477.819	3171.88
478.595	3462.88
479.371	3835.88
480.146	4163.88
480.922	4581.88
481.698	5005.88
482.473	5489.88
483.249	5958.88
484.024	6547.88
484.8	7121.88
485.575	7753.88
486.35	8431.88
487.126	9175.88
487.901	9989.88
488.676	10893.88
489.451	11798.88
490.225	12796.88
491	13901.88
491.775	14950.88
492.55	16169.88
493.324	17365.88
494.099	18639.88
494.873	19856.88
495.647	21189.88
496.422	22482.88
497.196	23951.88
497.97	25413.88
498.744	26650.88
499.518	28103.88
500.292	29278.88
501.066	30395.88
501.839	31520.88
502.613	32487.88
503.387	33144.88
504.16	33810.88
504.934	34152.88
505.707	34364.88
506.48	34339.88
507.253	34237.88
508.027	33967.88
508.8	33442.88
509.573	32865.88
510.346	32130.88
511.118	31265.88
511.891	30380.88
512.664	29318.88
513.437	28289.88
514.209	27169.88
514.982	26182.88
515.754	25144.88
516.526	24104.88
517.298	23144.88
518.071	22081.88
518.843	21182.88
519.615	20394.88
520.387	19633.88
521.159	18855.88
521.93	18119.88
522.702	17389.88
523.474	16665.88
524.245	16009.88
525.017	15327.88
525.788	14618.88
526.56	14022.88
527.331	13369.88
528.102	12768.88
528.873	12136.88
529.644	11581.88
530.415	11040.88
531.186	10572.88
531.957	9995.88
532.728	9444.88
533.498	8943.88
534.269	8473.88
535.039	8030.88
535.81	7595.88
536.58	7157.88
537.351	6764.88
538.121	6402.88
538.891	6036.88
539.661	5769.88
540.431	5439.88
541.201	5157.88
541.971	4863.88
542.741	4610.88
543.51	4403.88
544.28	4189.88
545.05	3970.88
545.819	3803.88
546.588	3617.88
547.358	3417.88
548.127	3250.88
548.896	3055.88
549.665	2929.88
550.434	2788.88
551.203	2641.88
551.972	2490.88
552.741	2398.88
553.51	2229.88
554.278	2120.88
555.047	1992.88
555.815	1858.88
556.584	1781.88
557.352	1671.88
558.121	1602.88
558.889	1500.88
559.657	1426.88
560.425	1329.88
561.193	1251.88
561.961	1193.88
562.729	1117.88
563.496	1065.88
564.264	1013.88
565.032	939.88
565.799	900.88
566.567	850.88
567.334	804.88
568.101	756.88
568.869	718.88
569.636	681.88
570.403	630.88
571.17	607.88
571.937	567.88
572.704	534.88
573.471	513.88
574.237	477.88
575.004	456.88
575.771	428.88
576.537	396.88
577.303	382.88
578.07	355.88
578.836	335.88
579.602	320.88
580.368	294.88
581.134	288.88
581.9	271.88
582.666	260.88
583.432	239.88
584.198	232.88
584.964	216.88
585.729	203.88
586.495	195.88
587.26	182.88
588.025	170.88
588.791	167.88
589.556	154.88
590.321	152.88
591.086	148.88
591.851	140.88
592.616	129.88
593.381	122.88
594.146	116.88
594.911	110.88
595.675	106.88
596.44	102.88
597.204	93.88
597.969	96.88
598.733	92.88
599.497	85.88
600.261	80.88
601.025	76.88
601.79	74.88
602.553	72.88
603.317	69.88
604.081	66.88
604.845	62.88
605.609	59.88
606.372	58.88
607.136	57.88
607.899	53.88
608.662	48.88
609.426	49.88
610.189	48.88
610.952	45.88
611.715	45.88
612.478	39.88
613.241	41.88
614.004	37.88
614.767	36.88
615.529	32.88
616.292	32.88
617.055	30.88
617.817	30.88
618.579	36.88
619.342	30.88
620.104	29.88
620.866	30.88
621.628	27.88
622.39	24.88
623.152	24.88
623.914	24.88
624.676	24.88
625.438	23.88
626.199	22.88
626.961	23.88
627.722	23.88
628.484	19.88
629.245	17.88
630.006	21.88
630.768	17.88
631.529	20.88
632.29	18.88
633.051	20.88
633.812	14.88
634.573	16.88
635.333	17.88
636.094	14.88
636.855	12.88
637.615	14.88
638.376	13.88
639.136	15.88
639.896	14.88
640.657	12.88
641.417	11.88
642.177	12.88
642.937	11.88
643.697	14.88
644.457	11.88
645.216	10.88
645.976	10.88
646.736	8.88
647.495	10.88
648.255	10.88
649.014	9.88
649.774	11.88
650.533	9.88
651.292	8.88
652.051	10.88
652.81	9.88
653.569	10.88
654.328	9.88
655.087	10.88
655.846	8.88
656.604	7.88
657.363	7.88
658.121	6.88
658.88	7.88
659.638	6.88
660.397	9.88
661.155	10.88
661.913	6.88
662.671	7.88
663.429	5.88
664.187	7.88
664.945	6.88
665.703	4.88
666.46	8.88
667.218	6.88
667.976	9.88
668.733	4.88
669.49	7.88
670.248	6.88
671.005	6.88
671.762	6.88
672.519	6.88
673.276	7.88
674.033	4.88
674.79	8.88
675.547	5.88
676.304	4.88
677.06	8.88
677.817	6.88
678.574	7.88
679.33	5.88
680.086	4.88
680.843	5.88
681.599	4.88
682.355	6.88
683.111	3.88
683.867	6.88
684.623	6.88
685.379	4.88
686.135	5.88
686.89	5.88
687.646	6.88
688.402	5.88
689.157	4.88
689.912	6.88
690.668	5.88
691.423	7.88
692.178	5.88
692.933	6.88
693.688	3.88
694.443	6.88
695.198	4.88
695.953	5.88
696.708	6.88
697.462	4.88
698.217	7.88
698.972	4.88
699.726	4.88
700.48	3.88
701.235	3.88
701.989	3.88
702.743	4.88
703.497	5.88
704.251	6.88
705.005	5.88
705.759	6.88
706.513	5.88
707.266	5.88
708.02	3.88
708.774	4.88
709.527	5.88
710.28	2.88
711.034	4.88
711.787	5.88
712.54	4.88
713.293	4.88
714.046	3.88
714.799	5.88
715.552	6.88
716.305	4.88
717.058	5.88
717.81	4.88
718.563	4.88
719.315	5.88
720.068	4.88
720.82	6.88
721.573	5.88
722.325	5.88
723.077	6.88
723.829	5.88
724.581	5.88
725.333	6.88
726.085	8.88
726.836	5.88
727.588	5.88
728.34	4.88
729.091	6.88
729.843	5.88
730.594	5.88
731.346	4.88
732.097	5.88
732.848	8.88
733.599	6.88
734.35	4.88
735.101	6.88
735.852	7.88
736.603	7.88
737.354	3.88
738.104	6.88
738.855	5.88
739.605	4.88
740.356	7.88
741.106	7.88
741.856	8.88
742.607	7.88
743.357	7.88
744.107	7.88
744.857	7.88
745.607	5.88
746.357	5.88
747.106	4.88
747.856	8.88
748.606	4.88
749.355	7.88
750.105	9.88
750.854	8.88
751.603	5.88
752.353	7.88
753.102	6.88
753.851	10.88
754.6	6.88
755.349	6.88
756.098	9.88
756.847	9.88
757.595	7.88
758.344	10.88
759.093	9.88
759.841	10.88
760.589	6.88
761.338	8.88
762.086	7.88
762.834	9.88
763.582	8.88
764.331	8.88
765.079	8.88
765.826	8.88
766.574	11.88
767.322	7.88
768.07	8.88
768.817	11.88
769.565	6.88
770.312	11.88
771.06	9.88
771.807	9.88
772.554	10.88
773.302	10.88
774.049	9.88
774.796	9.88
775.543	11.88
776.29	11.88
777.036	11.88
777.783	11.88
778.53	12.88
779.276	11.88
780.023	11.88
780.769	12.88
781.516	12.88
782.262	11.88
783.008	12.88
783.754	12.88
784.5	14.88
785.246	10.88
785.992	9.88
786.738	11.88
787.484	12.88
788.23	13.88
788.975	13.88
789.721	10.88
790.466	11.88
791.212	10.88
791.957	12.88
792.702	9.88
793.447	11.88
794.193	7.88
794.938	11.88
795.683	10.88
796.427	9.88
797.172	12.88
797.917	12.88
798.662	10.88
799.406	6.88
800.151	9.88
800.895	12.88
801.64	4.88
802.384	10.88
803.128	9.88
803.872	7.88
804.616	10.88
805.36	7.88
806.104	6.88
806.848	7.88
807.592	7.88
808.336	7.88
809.079	8.88
809.823	6.88
810.566	9.88
811.31	9.88
812.053	4.88
812.796	8.88
813.539	7.88
814.283	7.88
815.026	6.88
815.769	7.88
816.511	7.88
817.254	6.88
817.997	4.88
818.74	4.88
819.482	2.88
820.225	8.88
820.967	5.88
821.71	5.88
822.452	7.88
823.194	4.88
823.936	5.88
824.678	4.88
825.42	5.88
826.162	4.88
826.904	4.88
827.646	5.88
828.388	2.88
829.129	7.88
829.871	4.88
830.612	4.88
831.354	4.88
832.095	3.88
832.836	4.88
833.577	4.88
834.319	5.88
835.06	3.88
835.801	5.88
836.542	2.88
837.282	5.88
838.023	4.88
838.764	5.88
839.504	1.88
840.245	3.88
840.985	7.88
841.726	4.88
842.466	3.88
843.206	3.88
843.946	3.88
844.687	3.88
845.427	3.88
846.166	4.88
846.906	4.88
847.646	4.88
848.386	5.88
849.125	5.88
849.865	1.88
850.605	3.88
851.344	1.88
852.083	4.88
852.823	2.88
853.562	1.88
854.301	3.88
855.04	1.88
855.779	5.88
856.518	2.88
857.257	3.88
857.995	2.88
858.734	5.88
859.473	4.88
860.211	3.88
860.95	3.88
861.688	0.88
862.426	4.88
863.165	1.88
863.903	1.88
864.641	3.88
865.379	0.88
866.117	0.88
866.855	2.88
867.593	1.88
868.33	3.88
869.068	-0.12
869.806	2.88
870.543	2.88
871.28	1.88
872.018	4.88
872.755	4.88
873.492	-0.12
874.229	0.88
874.967	3.88
875.703	4.88
876.44	1.88
877.177	1.88
877.914	3.88
878.651	3.88
879.387	1.88
880.124	1.88
880.86	1.88
881.597	-2.12
882.333	1.88
883.069	2.88
883.806	2.88
884.542	-0.12
885.278	1.88
886.014	1.88
886.749	2.88
887.485	0.88
888.221	2.88
888.957	-1.12
889.692	1.88
890.428	1.88
891.163	2.88
891.899	-0.12
892.634	2.88
893.369	0.88
894.104	-0.12
894.839	1.88
895.574	1.88
896.309	2.88
897.044	0.88
897.779	1.88
898.514	2.88
899.248	-1.12
899.983	-0.12
900.717	1.88
901.452	1.88
902.186	2.88
902.92	1.88
903.654	2.88
904.389	0.88
905.123	2.88
905.857	2.88
906.59	3.88
907.324	1.88
908.058	-1.12
908.792	2.88
909.525	0.88
910.259	2.88
910.992	0.88
911.726	-1.12
912.459	1.88
913.192	1.88
913.925	0.88
914.658	1.88
915.391	1.88
916.124	-0.12
916.857	0.88
917.59	2.88
918.323	1.88
919.055	1.88
919.788	0.88
920.521	-1.12
921.253	0.88
921.985	-0.12
922.718	-0.12
923.45	-0.12
924.182	0.88
924.914	0.88
925.646	0.88
926.378	-0.12
927.11	1.88
927.841	-2.12
928.573	-1.12
929.305	1.88
930.036	0.88
930.768	0.88
931.499	1.88
932.23	-1.12
932.962	-1.12
933.693	-0.12
934.424	-1.12
935.155	0.88
935.886	-2.12
936.617	-0.12
937.348	2.88
938.078	-0.12
938.809	1.88
939.54	-2.12
940.27	1.88
941.001	0.88
941.731	0.88
942.461	2.88
943.191	0.88
943.922	2.88
944.652	-1.12
945.382	1.88
946.112	1.88
946.841	1.88
947.571	1.88
948.301	-1.12
949.031	0.88
949.76	-0.12
950.49	-1.12
951.219	1.88
951.948	1.88
952.678	0.88
953.407	0.88
954.136	-0.12
954.865	-0.12
955.594	-0.12
956.323	0.88
957.052	-0.12
957.78	1.88
958.509	-0.12
959.238	0.88
959.966	-1.12
960.695	1.88
961.423	-0.12
962.151	0.88
962.88	0.88
963.608	-1.12
964.336	-1.12
965.064	0.88
965.792	-1.12
966.52	2.88
967.247	0.88
967.975	1.88
968.703	-0.12
969.43	2.88
970.158	1.88
970.885	0.88
971.613	-0.12
972.34	2.88
973.067	-0.12
973.794	0.88
974.521	0.88
975.248	1.88
975.975	0.88
976.702	0.88
977.429	0.88
978.156	1.88
978.882	0.88
979.609	0.88
980.335	-2.12
981.062	1.88
981.788	-0.12
982.514	0.88
983.24	1.88
983.967	2.88
984.693	0.88
985.419	2.88
986.144	1.88
986.87	-0.12
987.596	-0.12
988.322	-0.12
989.047	-0.12
989.773	0.88
990.498	-0.12
991.224	-0.12
991.949	0.88
992.674	2.88
993.399	0.88
994.124	-0.12
994.849	0.88
995.574	-0.12
996.299	-0.12
997.024	0.88
997.749	0.88
998.473	2.88
999.198	1.88
999.922	1.88
1000.647	-0.12
1001.371	2.88
1002.095	-1.12
1002.82	-2.12
1003.544	-2.12
1004.268	3.88
1004.992	2.88
1005.716	2.88
1006.439	2.88
1007.163	3.88
1007.887	5.88
1008.611	-0.12
1009.334	1.88
1010.058	0.88
1010.781	1.88
1011.504	2.88
1012.228	0.88
1012.951	-1.12
1013.674	0.88
1014.397	0.88
1015.12	1.88
