节点500_425_QEPB04081__556__15-57-33-488.txt的数据

Date: Wed Nov 12 15:57:33 CST 2025
User: PC
Spectrometer: QEPB0408
触发模式: 0
积分时间 (秒): 1.000000E-2
Scans to average: 1
启用暗噪声校正: true
启用非线性校正: false
滑动平均宽度: 0
X轴模式: Wavelengths
Number of Pixels in Spectrum: 1044
>>>>>Begin Spectral Data<<<<<
220.843	2.12
221.644	0.12
222.444	2.12
223.244	4.12
224.045	1.12
224.845	2.12
225.645	5.12
226.445	4.12
227.245	6.12
228.045	2.12
228.845	3.12
229.645	4.12
230.444	6.12
231.244	5.12
232.043	6.12
232.843	6.12
233.642	4.12
234.442	4.12
235.241	5.12
236.04	5.12
236.839	7.12
237.638	6.12
238.437	7.12
239.236	5.12
240.035	7.12
240.833	6.12
241.632	6.12
242.43	8.12
243.229	7.12
244.027	5.12
244.826	10.12
245.624	6.12
246.422	11.12
247.22	11.12
248.018	5.12
248.816	9.12
249.614	9.12
250.412	7.12
251.21	7.12
252.007	9.12
252.805	11.12
253.602	8.12
254.4	11.12
255.197	8.12
255.994	12.12
256.791	11.12
257.589	11.12
258.386	11.12
259.183	10.12
259.979	13.12
260.776	12.12
261.573	15.12
262.37	15.12
263.166	15.12
263.963	17.12
264.759	14.12
265.556	16.12
266.352	14.12
267.148	17.12
267.944	15.12
268.74	15.12
269.536	18.12
270.332	18.12
271.128	20.12
271.924	19.12
272.719	16.12
273.515	18.12
274.311	19.12
275.106	21.12
275.901	20.12
276.697	19.12
277.492	20.12
278.287	22.12
279.082	20.12
279.877	22.12
280.672	22.12
281.467	24.12
282.262	21.12
283.056	23.12
283.851	22.12
284.646	24.12
285.44	22.12
286.234	26.12
287.029	24.12
287.823	22.12
288.617	22.12
289.411	20.12
290.205	23.12
290.999	25.12
291.793	23.12
292.587	22.12
293.381	22.12
294.174	20.12
294.968	19.12
295.761	18.12
296.555	17.12
297.348	18.12
298.141	20.12
298.935	22.12
299.728	17.12
300.521	18.12
301.314	17.12
302.107	20.12
302.899	15.12
303.692	17.12
304.485	17.12
305.277	18.12
306.07	16.12
306.862	15.12
307.655	16.12
308.447	17.12
309.239	16.12
310.031	14.12
310.823	14.12
311.615	11.12
312.407	13.12
313.199	13.12
313.991	12.12
314.783	12.12
315.574	11.12
316.366	10.12
317.157	10.12
317.949	11.12
318.74	10.12
319.531	9.12
320.322	8.12
321.113	10.12
321.904	11.12
322.695	10.12
323.486	9.12
324.277	8.12
325.068	9.12
325.858	10.12
326.649	10.12
327.439	10.12
328.23	9.12
329.02	9.12
329.81	8.12
330.6	7.12
331.391	7.12
332.181	7.12
332.971	8.12
333.76	8.12
334.55	7.12
335.34	8.12
336.13	10.12
336.919	7.12
337.709	10.12
338.498	10.12
339.287	8.12
340.077	9.12
340.866	10.12
341.655	10.12
342.444	3.12
343.233	9.12
344.022	8.12
344.811	8.12
345.6	9.12
346.388	7.12
347.177	7.12
347.965	8.12
348.754	9.12
349.542	8.12
350.33	7.12
351.119	8.12
351.907	6.12
352.695	9.12
353.483	8.12
354.271	7.12
355.059	6.12
355.846	8.12
356.634	7.12
357.422	4.12
358.209	7.12
358.997	6.12
359.784	8.12
360.571	7.12
361.359	6.12
362.146	4.12
362.933	6.12
363.72	5.12
364.507	8.12
365.294	6.12
366.081	6.12
366.867	5.12
367.654	6.12
368.44	6.12
369.227	5.12
370.013	7.12
370.8	6.12
371.586	7.12
372.372	7.12
373.158	8.12
373.944	7.12
374.73	8.12
375.516	6.12
376.302	6.12
377.088	8.12
377.873	8.12
378.659	4.12
379.445	7.12
380.23	7.12
381.015	7.12
381.801	5.12
382.586	7.12
383.371	7.12
384.156	6.12
384.941	8.12
385.726	6.12
386.511	7.12
387.296	6.12
388.08	6.12
388.865	7.12
389.649	8.12
390.434	7.12
391.218	7.12
392.003	7.12
392.787	8.12
393.571	6.12
394.355	9.12
395.139	6.12
395.923	8.12
396.707	7.12
397.491	8.12
398.274	6.12
399.058	10.12
399.842	11.12
400.625	8.12
401.408	9.12
402.192	6.12
402.975	9.12
403.758	8.12
404.541	8.12
405.324	10.12
406.107	8.12
406.89	9.12
407.673	10.12
408.456	10.12
409.238	12.12
410.021	10.12
410.803	11.12
411.586	10.12
412.368	8.12
413.151	13.12
413.933	10.12
414.715	11.12
415.497	10.12
416.279	12.12
417.061	13.12
417.843	14.12
418.624	13.12
419.406	13.12
420.188	14.12
420.969	16.12
421.751	14.12
422.532	15.12
423.313	15.12
424.095	16.12
424.876	17.12
425.657	15.12
426.438	17.12
427.219	15.12
428	15.12
428.78	18.12
429.561	18.12
430.342	18.12
431.122	21.12
431.903	21.12
432.683	23.12
433.464	24.12
434.244	21.12
435.024	23.12
435.804	21.12
436.584	26.12
437.364	29.12
438.144	28.12
438.924	33.12
439.704	30.12
440.483	35.12
441.263	39.12
442.042	38.12
442.822	43.12
443.601	45.12
444.38	50.12
445.16	49.12
445.939	56.12
446.718	60.12
447.497	63.12
448.276	68.12
449.054	75.12
449.833	84.12
450.612	92.12
451.391	101.12
452.169	113.12
452.948	124.12
453.726	137.12
454.504	148.12
455.282	167.12
456.061	185.12
456.839	200.12
457.617	231.12
458.395	251.12
459.172	279.12
459.95	315.12
460.728	350.12
461.506	391.12
462.283	430.12
463.061	477.12
463.838	536.12
464.615	592.12
465.393	658.12
466.17	727.12
466.947	801.12
467.724	909.12
468.501	998.12
469.278	1097.12
470.055	1209.12
470.831	1352.12
471.608	1463.12
472.385	1645.12
473.161	1789.12
473.938	1980.12
474.714	2152.12
475.49	2376.12
476.266	2607.12
477.043	2849.12
477.819	3124.12
478.595	3406.12
479.371	3728.12
480.146	4057.12
480.922	4422.12
481.698	4826.12
482.473	5265.12
483.249	5704.12
484.024	6207.12
484.8	6758.12
485.575	7361.12
486.35	7973.12
487.126	8656.12
487.901	9376.12
488.676	10143.12
489.451	11007.12
490.225	11865.12
491	12855.12
491.775	13850.12
492.55	14830.12
493.324	15957.12
494.099	17115.12
494.873	18253.12
495.647	19448.12
496.422	20619.12
497.196	21886.12
497.97	23253.12
498.744	24487.12
499.518	25750.12
500.292	26981.12
501.066	27992.12
501.839	29197.12
502.613	30066.12
503.387	30909.12
504.16	31567.12
504.934	32053.12
505.707	32398.12
506.48	32522.12
507.253	32552.12
508.027	32404.12
508.8	32239.12
509.573	31804.12
510.346	31295.12
511.118	30575.12
511.891	29931.12
512.664	28883.12
513.437	28028.12
514.209	26972.12
514.982	26203.12
515.754	25234.12
516.526	24206.12
517.298	23247.12
518.071	22330.12
518.843	21426.12
519.615	20622.12
520.387	19797.12
521.159	19055.12
521.93	18322.12
522.702	17554.12
523.474	16885.12
524.245	16238.12
525.017	15541.12
525.788	14864.12
526.56	14169.12
527.331	13601.12
528.102	13006.12
528.873	12370.12
529.644	11829.12
530.415	11325.12
531.186	10844.12
531.957	10244.12
532.728	9773.12
533.498	9254.12
534.269	8726.12
535.039	8284.12
535.81	7875.12
536.58	7468.12
537.351	7017.12
538.121	6643.12
538.891	6259.12
539.661	5979.12
540.431	5665.12
541.201	5367.12
541.971	5071.12
542.741	4848.12
543.51	4584.12
544.28	4358.12
545.05	4143.12
545.819	3944.12
546.588	3724.12
547.358	3540.12
548.127	3365.12
548.896	3185.12
549.665	3046.12
550.434	2890.12
551.203	2754.12
551.972	2601.12
552.741	2466.12
553.51	2337.12
554.278	2184.12
555.047	2076.12
555.815	1980.12
556.584	1873.12
557.352	1753.12
558.121	1657.12
558.889	1582.12
559.657	1485.12
560.425	1383.12
561.193	1319.12
561.961	1270.12
562.729	1185.12
563.496	1128.12
564.264	1058.12
565.032	1006.12
565.799	953.12
566.567	907.12
567.334	852.12
568.101	802.12
568.869	763.12
569.636	714.12
570.403	660.12
571.17	626.12
571.937	597.12
572.704	571.12
573.471	534.12
574.237	502.12
575.004	469.12
575.771	453.12
576.537	415.12
577.303	395.12
578.07	370.12
578.836	356.12
579.602	332.12
580.368	320.12
581.134	305.12
581.9	282.12
582.666	272.12
583.432	256.12
584.198	249.12
584.964	233.12
585.729	217.12
586.495	212.12
587.26	196.12
588.025	185.12
588.791	181.12
589.556	169.12
590.321	160.12
591.086	154.12
591.851	145.12
592.616	135.12
593.381	131.12
594.146	118.12
594.911	118.12
595.675	112.12
596.44	108.12
597.204	98.12
597.969	94.12
598.733	90.12
599.497	92.12
600.261	88.12
601.025	81.12
601.79	77.12
602.553	76.12
603.317	70.12
604.081	68.12
604.845	65.12
605.609	58.12
606.372	60.12
607.136	59.12
607.899	54.12
608.662	55.12
609.426	49.12
610.189	50.12
610.952	46.12
611.715	46.12
612.478	43.12
613.241	43.12
614.004	40.12
614.767	37.12
615.529	38.12
616.292	34.12
617.055	34.12
617.817	32.12
618.579	36.12
619.342	30.12
620.104	30.12
620.866	30.12
621.628	30.12
622.39	26.12
623.152	26.12
623.914	26.12
624.676	21.12
625.438	23.12
626.199	25.12
626.961	25.12
627.722	22.12
628.484	20.12
629.245	16.12
630.006	21.12
630.768	18.12
631.529	20.12
632.29	16.12
633.051	18.12
633.812	20.12
634.573	16.12
635.333	16.12
636.094	16.12
636.855	16.12
637.615	15.12
638.376	11.12
639.136	14.12
639.896	12.12
640.657	12.12
641.417	12.12
642.177	11.12
642.937	12.12
643.697	10.12
644.457	11.12
645.216	12.12
645.976	12.12
646.736	10.12
647.495	11.12
648.255	12.12
649.014	8.12
649.774	9.12
650.533	12.12
651.292	8.12
652.051	10.12
652.81	10.12
653.569	11.12
654.328	9.12
655.087	7.12
655.846	8.12
656.604	10.12
657.363	11.12
658.121	9.12
658.88	8.12
659.638	6.12
660.397	8.12
661.155	7.12
661.913	6.12
662.671	7.12
663.429	6.12
664.187	8.12
664.945	8.12
665.703	7.12
666.46	5.12
667.218	6.12
667.976	8.12
668.733	7.12
669.49	8.12
670.248	5.12
671.005	6.12
671.762	7.12
672.519	7.12
673.276	7.12
674.033	8.12
674.79	6.12
675.547	5.12
676.304	3.12
677.06	6.12
677.817	6.12
678.574	4.12
679.33	6.12
680.086	6.12
680.843	5.12
681.599	5.12
682.355	6.12
683.111	6.12
683.867	5.12
684.623	4.12
685.379	2.12
686.135	4.12
686.89	6.12
687.646	6.12
688.402	5.12
689.157	5.12
689.912	6.12
690.668	4.12
691.423	6.12
692.178	4.12
692.933	7.12
693.688	4.12
694.443	3.12
695.198	5.12
695.953	4.12
696.708	4.12
697.462	3.12
698.217	4.12
698.972	3.12
699.726	3.12
700.48	3.12
701.235	4.12
701.989	4.12
702.743	7.12
703.497	4.12
704.251	3.12
705.005	3.12
705.759	3.12
706.513	6.12
707.266	4.12
708.02	7.12
708.774	4.12
709.527	6.12
710.28	7.12
711.034	5.12
711.787	4.12
712.54	4.12
713.293	7.12
714.046	3.12
714.799	3.12
715.552	3.12
716.305	5.12
717.058	5.12
717.81	4.12
718.563	4.12
719.315	6.12
720.068	4.12
720.82	4.12
721.573	5.12
722.325	4.12
723.077	4.12
723.829	7.12
724.581	5.12
725.333	6.12
726.085	8.12
726.836	5.12
727.588	6.12
728.34	5.12
729.091	3.12
729.843	5.12
730.594	4.12
731.346	5.12
732.097	4.12
732.848	8.12
733.599	5.12
734.35	4.12
735.101	8.12
735.852	4.12
736.603	6.12
737.354	6.12
738.104	5.12
738.855	6.12
739.605	5.12
740.356	5.12
741.106	5.12
741.856	6.12
742.607	9.12
743.357	7.12
744.107	6.12
744.857	7.12
745.607	5.12
746.357	7.12
747.106	8.12
747.856	5.12
748.606	5.12
749.355	8.12
750.105	7.12
750.854	6.12
751.603	6.12
752.353	5.12
753.102	8.12
753.851	6.12
754.6	7.12
755.349	5.12
756.098	6.12
756.847	7.12
757.595	8.12
758.344	7.12
759.093	5.12
759.841	8.12
760.589	6.12
761.338	7.12
762.086	8.12
762.834	5.12
763.582	5.12
764.331	9.12
765.079	4.12
765.826	10.12
766.574	5.12
767.322	9.12
768.07	7.12
768.817	8.12
769.565	8.12
770.312	7.12
771.06	10.12
771.807	10.12
772.554	8.12
773.302	10.12
774.049	10.12
774.796	8.12
775.543	10.12
776.29	9.12
777.036	10.12
777.783	8.12
778.53	10.12
779.276	9.12
780.023	12.12
780.769	11.12
781.516	7.12
782.262	11.12
783.008	12.12
783.754	12.12
784.5	11.12
785.246	10.12
785.992	9.12
786.738	12.12
787.484	12.12
788.23	12.12
788.975	12.12
789.721	9.12
790.466	12.12
791.212	11.12
791.957	6.12
792.702	11.12
793.447	8.12
794.193	7.12
794.938	8.12
795.683	8.12
796.427	9.12
797.172	8.12
797.917	9.12
798.662	9.12
799.406	10.12
800.151	10.12
800.895	7.12
801.64	8.12
802.384	6.12
803.128	9.12
803.872	9.12
804.616	10.12
805.36	6.12
806.104	7.12
806.848	7.12
807.592	6.12
808.336	6.12
809.079	9.12
809.823	8.12
810.566	7.12
811.31	8.12
812.053	6.12
812.796	5.12
813.539	7.12
814.283	6.12
815.026	6.12
815.769	7.12
816.511	8.12
817.254	6.12
817.997	4.12
818.74	7.12
819.482	7.12
820.225	4.12
820.967	2.12
821.71	2.12
822.452	6.12
823.194	4.12
823.936	6.12
824.678	4.12
825.42	5.12
826.162	3.12
826.904	7.12
827.646	3.12
828.388	7.12
829.129	3.12
829.871	4.12
830.612	4.12
831.354	6.12
832.095	5.12
832.836	6.12
833.577	5.12
834.319	3.12
835.06	4.12
835.801	5.12
836.542	4.12
837.282	5.12
838.023	3.12
838.764	4.12
839.504	4.12
840.245	2.12
840.985	5.12
841.726	2.12
842.466	6.12
843.206	2.12
843.946	4.12
844.687	2.12
845.427	2.12
846.166	4.12
846.906	2.12
847.646	5.12
848.386	3.12
849.125	3.12
849.865	4.12
850.605	2.12
851.344	4.12
852.083	3.12
852.823	4.12
853.562	2.12
854.301	3.12
855.04	4.12
855.779	2.12
856.518	2.12
857.257	4.12
857.995	0.12
858.734	2.12
859.473	0.12
860.211	5.12
860.95	2.12
861.688	3.12
862.426	2.12
863.165	3.12
863.903	2.12
864.641	1.12
865.379	2.12
866.117	1.12
866.855	1.12
867.593	2.12
868.33	2.12
869.068	3.12
869.806	1.12
870.543	2.12
871.28	3.12
872.018	2.12
872.755	0.12
873.492	3.12
874.229	5.12
874.967	1.12
875.703	1.12
876.44	0.12
877.177	-1.88
877.914	3.12
878.651	0.12
879.387	2.12
880.124	2.12
880.86	1.12
881.597	4.12
882.333	0.12
883.069	0.12
883.806	2.12
884.542	2.12
885.278	1.12
886.014	3.12
886.749	2.12
887.485	3.12
888.221	1.12
888.957	2.12
889.692	1.12
890.428	2.12
891.163	0.12
891.899	-0.88
892.634	0.12
893.369	0.12
894.104	0.12
894.839	2.12
895.574	2.12
896.309	0.12
897.044	2.12
897.779	0.12
898.514	0.12
899.248	2.12
899.983	-0.88
900.717	1.12
901.452	1.12
902.186	1.12
902.92	0.12
903.654	1.12
904.389	1.12
905.123	0.12
905.857	0.12
906.59	1.12
907.324	1.12
908.058	1.12
908.792	0.12
909.525	1.12
910.259	-0.88
910.992	0.12
911.726	0.12
912.459	1.12
913.192	0.12
913.925	-1.88
914.658	1.12
915.391	0.12
916.124	2.12
916.857	2.12
917.59	0.12
918.323	3.12
919.055	1.12
919.788	1.12
920.521	-1.88
921.253	0.12
921.985	1.12
922.718	-1.88
923.45	0.12
924.182	-1.88
924.914	1.12
925.646	-1.88
926.378	-0.88
927.11	2.12
927.841	-1.88
928.573	2.12
929.305	0.12
930.036	1.12
930.768	0.12
931.499	0.12
932.23	1.12
932.962	-0.88
933.693	0.12
934.424	2.12
935.155	2.12
935.886	0.12
936.617	-0.88
937.348	2.12
938.078	0.12
938.809	0.12
939.54	-0.88
940.27	1.12
941.001	-0.88
941.731	0.12
942.461	1.12
943.191	1.12
943.922	1.12
944.652	2.12
945.382	-1.88
946.112	1.12
946.841	-0.88
947.571	5.12
948.301	0.12
949.031	0.12
949.76	2.12
950.49	-0.88
951.219	0.12
951.948	-0.88
952.678	2.12
953.407	1.12
954.136	0.12
954.865	1.12
955.594	1.12
956.323	1.12
957.052	0.12
957.78	-1.88
958.509	0.12
959.238	-1.88
959.966	2.12
960.695	1.12
961.423	1.12
962.151	1.12
962.88	0.12
963.608	0.12
964.336	1.12
965.064	1.12
965.792	0.12
966.52	2.12
967.247	-0.88
967.975	0.12
968.703	1.12
969.43	-0.88
970.158	1.12
970.885	0.12
971.613	0.12
972.34	1.12
973.067	1.12
973.794	1.12
974.521	0.12
975.248	0.12
975.975	-0.88
976.702	0.12
977.429	2.12
978.156	0.12
978.882	2.12
979.609	1.12
980.335	-0.88
981.062	1.12
981.788	1.12
982.514	-1.88
983.24	0.12
983.967	0.12
984.693	1.12
985.419	-0.88
986.144	2.12
986.87	1.12
987.596	-0.88
988.322	1.12
989.047	1.12
989.773	-0.88
990.498	-0.88
991.224	0.12
991.949	1.12
992.674	1.12
993.399	2.12
994.124	-0.88
994.849	1.12
995.574	-1.88
996.299	1.12
997.024	1.12
997.749	-0.88
998.473	2.12
999.198	-0.88
999.922	-0.88
1000.647	-0.88
1001.371	3.12
1002.095	1.12
1002.82	-1.88
1003.544	-0.88
1004.268	5.12
1004.992	-0.88
1005.716	2.12
1006.439	4.12
1007.163	2.12
1007.887	4.12
1008.611	0.12
1009.334	2.12
1010.058	0.12
1010.781	1.12
1011.504	1.12
1012.228	1.12
1012.951	1.12
1013.674	-3.88
1014.397	1.12
1015.12	0.12
