节点500_425_QEPB04081__148__15-50-46-282.txt的数据

Date: Wed Nov 12 15:50:46 CST 2025
User: PC
Spectrometer: QEPB0408
触发模式: 0
积分时间 (秒): 1.000000E-2
Scans to average: 1
启用暗噪声校正: true
启用非线性校正: false
滑动平均宽度: 0
X轴模式: Wavelengths
Number of Pixels in Spectrum: 1044
>>>>>Begin Spectral Data<<<<<
220.843	7.12
221.644	5.12
222.444	4.12
223.244	3.12
224.045	4.12
224.845	5.12
225.645	5.12
226.445	3.12
227.245	4.12
228.045	4.12
228.845	7.12
229.645	3.12
230.444	4.12
231.244	6.12
232.043	4.12
232.843	5.12
233.642	6.12
234.442	7.12
235.241	7.12
236.04	6.12
236.839	6.12
237.638	6.12
238.437	8.12
239.236	5.12
240.035	9.12
240.833	7.12
241.632	9.12
242.43	8.12
243.229	7.12
244.027	8.12
244.826	9.12
245.624	9.12
246.422	8.12
247.22	9.12
248.018	10.12
248.816	8.12
249.614	10.12
250.412	9.12
251.21	10.12
252.007	10.12
252.805	11.12
253.602	13.12
254.4	12.12
255.197	13.12
255.994	11.12
256.791	12.12
257.589	14.12
258.386	12.12
259.183	15.12
259.979	14.12
260.776	15.12
261.573	15.12
262.37	15.12
263.166	18.12
263.963	14.12
264.759	20.12
265.556	19.12
266.352	19.12
267.148	20.12
267.944	20.12
268.74	20.12
269.536	20.12
270.332	23.12
271.128	23.12
271.924	24.12
272.719	22.12
273.515	25.12
274.311	25.12
275.106	24.12
275.901	26.12
276.697	26.12
277.492	26.12
278.287	25.12
279.082	26.12
279.877	25.12
280.672	24.12
281.467	26.12
282.262	27.12
283.056	27.12
283.851	26.12
284.646	28.12
285.44	26.12
286.234	25.12
287.029	23.12
287.823	27.12
288.617	27.12
289.411	26.12
290.205	24.12
290.999	28.12
291.793	27.12
292.587	24.12
293.381	26.12
294.174	19.12
294.968	23.12
295.761	23.12
296.555	21.12
297.348	21.12
298.141	20.12
298.935	20.12
299.728	19.12
300.521	19.12
301.314	20.12
302.107	20.12
302.899	20.12
303.692	17.12
304.485	18.12
305.277	17.12
306.07	16.12
306.862	19.12
307.655	18.12
308.447	18.12
309.239	17.12
310.031	19.12
310.823	13.12
311.615	15.12
312.407	15.12
313.199	15.12
313.991	14.12
314.783	13.12
315.574	13.12
316.366	14.12
317.157	12.12
317.949	12.12
318.74	10.12
319.531	11.12
320.322	12.12
321.113	12.12
321.904	12.12
322.695	10.12
323.486	12.12
324.277	11.12
325.068	12.12
325.858	11.12
326.649	11.12
327.439	10.12
328.23	9.12
329.02	11.12
329.81	10.12
330.6	11.12
331.391	10.12
332.181	10.12
332.971	10.12
333.76	10.12
334.55	11.12
335.34	8.12
336.13	10.12
336.919	8.12
337.709	9.12
338.498	7.12
339.287	9.12
340.077	9.12
340.866	10.12
341.655	8.12
342.444	10.12
343.233	10.12
344.022	6.12
344.811	10.12
345.6	10.12
346.388	9.12
347.177	12.12
347.965	9.12
348.754	10.12
349.542	9.12
350.33	8.12
351.119	10.12
351.907	8.12
352.695	10.12
353.483	8.12
354.271	11.12
355.059	8.12
355.846	8.12
356.634	10.12
357.422	9.12
358.209	6.12
358.997	6.12
359.784	9.12
360.571	9.12
361.359	7.12
362.146	8.12
362.933	5.12
363.72	6.12
364.507	8.12
365.294	8.12
366.081	8.12
366.867	7.12
367.654	7.12
368.44	7.12
369.227	8.12
370.013	8.12
370.8	9.12
371.586	6.12
372.372	7.12
373.158	9.12
373.944	7.12
374.73	6.12
375.516	10.12
376.302	10.12
377.088	9.12
377.873	9.12
378.659	10.12
379.445	7.12
380.23	7.12
381.015	7.12
381.801	7.12
382.586	9.12
383.371	5.12
384.156	10.12
384.941	7.12
385.726	8.12
386.511	10.12
387.296	7.12
388.08	8.12
388.865	10.12
389.649	9.12
390.434	11.12
391.218	8.12
392.003	10.12
392.787	8.12
393.571	12.12
394.355	9.12
395.139	9.12
395.923	9.12
396.707	10.12
397.491	9.12
398.274	9.12
399.058	11.12
399.842	12.12
400.625	12.12
401.408	9.12
402.192	9.12
402.975	13.12
403.758	10.12
404.541	10.12
405.324	11.12
406.107	12.12
406.89	11.12
407.673	11.12
408.456	13.12
409.238	11.12
410.021	12.12
410.803	11.12
411.586	15.12
412.368	14.12
413.151	10.12
413.933	13.12
414.715	12.12
415.497	13.12
416.279	15.12
417.061	14.12
417.843	14.12
418.624	13.12
419.406	13.12
420.188	15.12
420.969	14.12
421.751	16.12
422.532	15.12
423.313	15.12
424.095	17.12
424.876	18.12
425.657	18.12
426.438	18.12
427.219	20.12
428	18.12
428.78	17.12
429.561	22.12
430.342	20.12
431.122	23.12
431.903	22.12
432.683	22.12
433.464	22.12
434.244	24.12
435.024	26.12
435.804	24.12
436.584	28.12
437.364	29.12
438.144	31.12
438.924	31.12
439.704	34.12
440.483	35.12
441.263	34.12
442.042	35.12
442.822	42.12
443.601	44.12
444.38	46.12
445.16	51.12
445.939	57.12
446.718	56.12
447.497	59.12
448.276	64.12
449.054	69.12
449.833	76.12
450.612	80.12
451.391	90.12
452.169	95.12
452.948	110.12
453.726	120.12
454.504	134.12
455.282	147.12
456.061	165.12
456.839	178.12
457.617	199.12
458.395	222.12
459.172	251.12
459.95	274.12
460.728	300.12
461.506	345.12
462.283	385.12
463.061	425.12
463.838	482.12
464.615	549.12
465.393	597.12
466.17	667.12
466.947	739.12
467.724	830.12
468.501	930.12
469.278	1034.12
470.055	1159.12
470.831	1268.12
471.608	1419.12
472.385	1567.12
473.161	1751.12
473.938	1950.12
474.714	2153.12
475.49	2370.12
476.266	2601.12
477.043	2906.12
477.819	3193.12
478.595	3562.12
479.371	3916.12
480.146	4295.12
480.922	4753.12
481.698	5189.12
482.473	5716.12
483.249	6242.12
484.024	6912.12
484.8	7592.12
485.575	8267.12
486.35	9059.12
487.126	9901.12
487.901	10852.12
488.676	11838.12
489.451	12903.12
490.225	14078.12
491	15291.12
491.775	16579.12
492.55	17889.12
493.324	19352.12
494.099	20711.12
494.873	22141.12
495.647	23697.12
496.422	25180.12
497.196	26614.12
497.97	28302.12
498.744	29745.12
499.518	31105.12
500.292	32335.12
501.066	33408.12
501.839	34551.12
502.613	35395.12
503.387	35997.12
504.16	36429.12
504.934	36630.12
505.707	36602.12
506.48	36348.12
507.253	35907.12
508.027	35407.12
508.8	34681.12
509.573	33743.12
510.346	32772.12
511.118	31816.12
511.891	30714.12
512.664	29502.12
513.437	28354.12
514.209	27102.12
514.982	26003.12
515.754	24961.12
516.526	23804.12
517.298	22862.12
518.071	21833.12
518.843	20947.12
519.615	20114.12
520.387	19337.12
521.159	18578.12
521.93	17857.12
522.702	17119.12
523.474	16515.12
524.245	15725.12
525.017	15014.12
525.788	14363.12
526.56	13691.12
527.331	13067.12
528.102	12424.12
528.873	11805.12
529.644	11217.12
530.415	10716.12
531.186	10163.12
531.957	9619.12
532.728	9101.12
533.498	8564.12
534.269	8115.12
535.039	7651.12
535.81	7267.12
536.58	6862.12
537.351	6469.12
538.121	6114.12
538.891	5784.12
539.661	5475.12
540.431	5168.12
541.201	4903.12
541.971	4681.12
542.741	4408.12
543.51	4182.12
544.28	3994.12
545.05	3782.12
545.819	3638.12
546.588	3426.12
547.358	3261.12
548.127	3078.12
548.896	2935.12
549.665	2760.12
550.434	2623.12
551.203	2495.12
551.972	2375.12
552.741	2230.12
553.51	2124.12
554.278	1983.12
555.047	1874.12
555.815	1771.12
556.584	1670.12
557.352	1576.12
558.121	1488.12
558.889	1407.12
559.657	1330.12
560.425	1234.12
561.193	1169.12
561.961	1119.12
562.729	1058.12
563.496	994.12
564.264	934.12
565.032	895.12
565.799	858.12
566.567	809.12
567.334	763.12
568.101	708.12
568.869	676.12
569.636	630.12
570.403	595.12
571.17	563.12
571.937	535.12
572.704	497.12
573.471	478.12
574.237	443.12
575.004	420.12
575.771	392.12
576.537	374.12
577.303	350.12
578.07	334.12
578.836	311.12
579.602	299.12
580.368	278.12
581.134	267.12
581.9	259.12
582.666	244.12
583.432	230.12
584.198	217.12
584.964	210.12
585.729	193.12
586.495	180.12
587.26	173.12
588.025	164.12
588.791	155.12
589.556	148.12
590.321	144.12
591.086	132.12
591.851	129.12
592.616	125.12
593.381	114.12
594.146	110.12
594.911	107.12
595.675	101.12
596.44	94.12
597.204	94.12
597.969	95.12
598.733	84.12
599.497	83.12
600.261	77.12
601.025	74.12
601.79	70.12
602.553	69.12
603.317	65.12
604.081	61.12
604.845	57.12
605.609	59.12
606.372	59.12
607.136	56.12
607.899	53.12
608.662	50.12
609.426	48.12
610.189	44.12
610.952	46.12
611.715	44.12
612.478	40.12
613.241	37.12
614.004	37.12
614.767	38.12
615.529	36.12
616.292	38.12
617.055	33.12
617.817	31.12
618.579	32.12
619.342	30.12
620.104	29.12
620.866	28.12
621.628	27.12
622.39	24.12
623.152	27.12
623.914	23.12
624.676	23.12
625.438	22.12
626.199	25.12
626.961	22.12
627.722	24.12
628.484	19.12
629.245	18.12
630.006	19.12
630.768	18.12
631.529	19.12
632.29	16.12
633.051	18.12
633.812	17.12
634.573	18.12
635.333	16.12
636.094	15.12
636.855	17.12
637.615	16.12
638.376	16.12
639.136	12.12
639.896	14.12
640.657	15.12
641.417	14.12
642.177	13.12
642.937	13.12
643.697	13.12
644.457	12.12
645.216	11.12
645.976	12.12
646.736	11.12
647.495	12.12
648.255	9.12
649.014	11.12
649.774	9.12
650.533	10.12
651.292	11.12
652.051	8.12
652.81	11.12
653.569	10.12
654.328	10.12
655.087	9.12
655.846	7.12
656.604	9.12
657.363	7.12
658.121	8.12
658.88	9.12
659.638	6.12
660.397	9.12
661.155	8.12
661.913	8.12
662.671	6.12
663.429	9.12
664.187	11.12
664.945	8.12
665.703	8.12
666.46	7.12
667.218	7.12
667.976	7.12
668.733	7.12
669.49	7.12
670.248	6.12
671.005	7.12
671.762	8.12
672.519	9.12
673.276	8.12
674.033	5.12
674.79	6.12
675.547	4.12
676.304	8.12
677.06	8.12
677.817	3.12
678.574	7.12
679.33	6.12
680.086	9.12
680.843	5.12
681.599	5.12
682.355	8.12
683.111	6.12
683.867	5.12
684.623	6.12
685.379	5.12
686.135	5.12
686.89	4.12
687.646	6.12
688.402	4.12
689.157	6.12
689.912	3.12
690.668	7.12
691.423	5.12
692.178	8.12
692.933	8.12
693.688	7.12
694.443	8.12
695.198	6.12
695.953	6.12
696.708	7.12
697.462	7.12
698.217	4.12
698.972	7.12
699.726	8.12
700.48	7.12
701.235	6.12
701.989	5.12
702.743	6.12
703.497	5.12
704.251	6.12
705.005	6.12
705.759	6.12
706.513	4.12
707.266	8.12
708.02	5.12
708.774	5.12
709.527	6.12
710.28	5.12
711.034	5.12
711.787	4.12
712.54	7.12
713.293	4.12
714.046	4.12
714.799	7.12
715.552	6.12
716.305	7.12
717.058	4.12
717.81	7.12
718.563	5.12
719.315	7.12
720.068	5.12
720.82	3.12
721.573	6.12
722.325	6.12
723.077	8.12
723.829	7.12
724.581	5.12
725.333	7.12
726.085	3.12
726.836	6.12
727.588	4.12
728.34	7.12
729.091	6.12
729.843	6.12
730.594	8.12
731.346	9.12
732.097	8.12
732.848	8.12
733.599	7.12
734.35	6.12
735.101	6.12
735.852	6.12
736.603	7.12
737.354	5.12
738.104	7.12
738.855	6.12
739.605	9.12
740.356	8.12
741.106	6.12
741.856	8.12
742.607	9.12
743.357	6.12
744.107	7.12
744.857	8.12
745.607	9.12
746.357	10.12
747.106	7.12
747.856	7.12
748.606	8.12
749.355	9.12
750.105	8.12
750.854	8.12
751.603	6.12
752.353	10.12
753.102	10.12
753.851	10.12
754.6	7.12
755.349	9.12
756.098	8.12
756.847	8.12
757.595	9.12
758.344	10.12
759.093	6.12
759.841	11.12
760.589	9.12
761.338	11.12
762.086	10.12
762.834	10.12
763.582	9.12
764.331	9.12
765.079	11.12
765.826	10.12
766.574	13.12
767.322	11.12
768.07	8.12
768.817	12.12
769.565	10.12
770.312	13.12
771.06	11.12
771.807	11.12
772.554	10.12
773.302	11.12
774.049	14.12
774.796	12.12
775.543	12.12
776.29	13.12
777.036	12.12
777.783	13.12
778.53	11.12
779.276	12.12
780.023	14.12
780.769	16.12
781.516	11.12
782.262	11.12
783.008	10.12
783.754	12.12
784.5	15.12
785.246	11.12
785.992	11.12
786.738	13.12
787.484	14.12
788.23	12.12
788.975	12.12
789.721	13.12
790.466	11.12
791.212	14.12
791.957	12.12
792.702	13.12
793.447	11.12
794.193	10.12
794.938	10.12
795.683	9.12
796.427	13.12
797.172	13.12
797.917	12.12
798.662	10.12
799.406	13.12
800.151	11.12
800.895	12.12
801.64	8.12
802.384	9.12
803.128	12.12
803.872	10.12
804.616	10.12
805.36	9.12
806.104	9.12
806.848	7.12
807.592	11.12
808.336	7.12
809.079	7.12
809.823	9.12
810.566	9.12
811.31	9.12
812.053	7.12
812.796	11.12
813.539	7.12
814.283	8.12
815.026	8.12
815.769	7.12
816.511	8.12
817.254	9.12
817.997	8.12
818.74	6.12
819.482	7.12
820.225	9.12
820.967	8.12
821.71	8.12
822.452	3.12
823.194	6.12
823.936	5.12
824.678	5.12
825.42	6.12
826.162	6.12
826.904	5.12
827.646	7.12
828.388	6.12
829.129	3.12
829.871	4.12
830.612	6.12
831.354	5.12
832.095	6.12
832.836	6.12
833.577	3.12
834.319	4.12
835.06	5.12
835.801	7.12
836.542	5.12
837.282	5.12
838.023	6.12
838.764	8.12
839.504	5.12
840.245	4.12
840.985	5.12
841.726	5.12
842.466	4.12
843.206	5.12
843.946	4.12
844.687	7.12
845.427	5.12
846.166	6.12
846.906	5.12
847.646	6.12
848.386	7.12
849.125	5.12
849.865	6.12
850.605	3.12
851.344	2.12
852.083	4.12
852.823	3.12
853.562	4.12
854.301	3.12
855.04	3.12
855.779	5.12
856.518	4.12
857.257	4.12
857.995	5.12
858.734	5.12
859.473	3.12
860.211	3.12
860.95	3.12
861.688	2.12
862.426	2.12
863.165	3.12
863.903	3.12
864.641	3.12
865.379	3.12
866.117	3.12
866.855	1.12
867.593	4.12
868.33	5.12
869.068	0.12
869.806	5.12
870.543	2.12
871.28	2.12
872.018	1.12
872.755	1.12
873.492	3.12
874.229	3.12
874.967	1.12
875.703	0.12
876.44	0.12
877.177	1.12
877.914	3.12
878.651	3.12
879.387	3.12
880.124	0.12
880.86	4.12
881.597	3.12
882.333	2.12
883.069	1.12
883.806	1.12
884.542	0.12
885.278	1.12
886.014	3.12
886.749	-0.88
887.485	3.12
888.221	3.12
888.957	2.12
889.692	2.12
890.428	1.12
891.163	1.12
891.899	1.12
892.634	2.12
893.369	1.12
894.104	3.12
894.839	2.12
895.574	3.12
896.309	2.12
897.044	1.12
897.779	1.12
898.514	1.12
899.248	3.12
899.983	1.12
900.717	-0.88
901.452	1.12
902.186	-0.88
902.92	2.12
903.654	3.12
904.389	3.12
905.123	3.12
905.857	1.12
906.59	1.12
907.324	0.12
908.058	2.12
908.792	3.12
909.525	1.12
910.259	0.12
910.992	2.12
911.726	3.12
912.459	1.12
913.192	2.12
913.925	1.12
914.658	3.12
915.391	3.12
916.124	2.12
916.857	1.12
917.59	0.12
918.323	2.12
919.055	0.12
919.788	-0.88
920.521	2.12
921.253	2.12
921.985	3.12
922.718	1.12
923.45	0.12
924.182	2.12
924.914	1.12
925.646	0.12
926.378	2.12
927.11	0.12
927.841	0.12
928.573	0.12
929.305	1.12
930.036	1.12
930.768	2.12
931.499	3.12
932.23	-0.88
932.962	2.12
933.693	1.12
934.424	1.12
935.155	3.12
935.886	1.12
936.617	0.12
937.348	-1.88
938.078	0.12
938.809	-0.88
939.54	-0.88
940.27	1.12
941.001	-0.88
941.731	0.12
942.461	3.12
943.191	2.12
943.922	3.12
944.652	0.12
945.382	1.12
946.112	2.12
946.841	2.12
947.571	1.12
948.301	0.12
949.031	-0.88
949.76	-0.88
950.49	3.12
951.219	-0.88
951.948	1.12
952.678	2.12
953.407	0.12
954.136	4.12
954.865	0.12
955.594	-0.88
956.323	3.12
957.052	2.12
957.78	-0.88
958.509	1.12
959.238	2.12
959.966	1.12
960.695	3.12
961.423	0.12
962.151	1.12
962.88	-0.88
963.608	1.12
964.336	3.12
965.064	3.12
965.792	1.12
966.52	1.12
967.247	0.12
967.975	2.12
968.703	0.12
969.43	0.12
970.158	1.12
970.885	2.12
971.613	0.12
972.34	1.12
973.067	3.12
973.794	0.12
974.521	-0.88
975.248	1.12
975.975	1.12
976.702	4.12
977.429	0.12
978.156	1.12
978.882	0.12
979.609	2.12
980.335	2.12
981.062	1.12
981.788	0.12
982.514	-0.88
983.24	2.12
983.967	0.12
984.693	0.12
985.419	0.12
986.144	0.12
986.87	3.12
987.596	1.12
988.322	1.12
989.047	-0.88
989.773	1.12
990.498	1.12
991.224	0.12
991.949	3.12
992.674	0.12
993.399	0.12
994.124	1.12
994.849	1.12
995.574	1.12
996.299	1.12
997.024	1.12
997.749	1.12
998.473	1.12
999.198	2.12
999.922	1.12
1000.647	1.12
1001.371	4.12
1002.095	-0.88
1002.82	0.12
1003.544	-0.88
1004.268	4.12
1004.992	2.12
1005.716	2.12
1006.439	6.12
1007.163	3.12
1007.887	3.12
1008.611	1.12
1009.334	1.12
1010.058	0.12
1010.781	-0.88
1011.504	3.12
1012.228	1.12
1012.951	0.12
1013.674	-0.88
1014.397	-0.88
1015.12	-0.88
