节点500_425_QEPB04081__469__15-56-06-576.txt的数据

Date: Wed Nov 12 15:56:06 CST 2025
User: PC
Spectrometer: QEPB0408
触发模式: 0
积分时间 (秒): 1.000000E-2
Scans to average: 1
启用暗噪声校正: true
启用非线性校正: false
滑动平均宽度: 0
X轴模式: Wavelengths
Number of Pixels in Spectrum: 1044
>>>>>Begin Spectral Data<<<<<
220.843	2.62
221.644	4.62
222.444	3.62
223.244	4.62
224.045	3.62
224.845	5.62
225.645	3.62
226.445	3.62
227.245	4.62
228.045	5.62
228.845	2.62
229.645	5.62
230.444	2.62
231.244	7.62
232.043	5.62
232.843	4.62
233.642	4.62
234.442	6.62
235.241	2.62
236.04	4.62
236.839	6.62
237.638	2.62
238.437	7.62
239.236	7.62
240.035	7.62
240.833	7.62
241.632	6.62
242.43	7.62
243.229	8.62
244.027	5.62
244.826	8.62
245.624	6.62
246.422	8.62
247.22	7.62
248.018	7.62
248.816	9.62
249.614	8.62
250.412	8.62
251.21	8.62
252.007	8.62
252.805	7.62
253.602	9.62
254.4	12.62
255.197	11.62
255.994	10.62
256.791	11.62
257.589	12.62
258.386	14.62
259.183	12.62
259.979	14.62
260.776	11.62
261.573	13.62
262.37	14.62
263.166	17.62
263.963	15.62
264.759	15.62
265.556	17.62
266.352	16.62
267.148	15.62
267.944	18.62
268.74	17.62
269.536	20.62
270.332	14.62
271.128	20.62
271.924	18.62
272.719	20.62
273.515	20.62
274.311	20.62
275.106	21.62
275.901	20.62
276.697	20.62
277.492	20.62
278.287	23.62
279.082	23.62
279.877	22.62
280.672	21.62
281.467	22.62
282.262	23.62
283.056	25.62
283.851	23.62
284.646	24.62
285.44	19.62
286.234	21.62
287.029	23.62
287.823	23.62
288.617	21.62
289.411	22.62
290.205	24.62
290.999	22.62
291.793	22.62
292.587	24.62
293.381	21.62
294.174	23.62
294.968	21.62
295.761	19.62
296.555	20.62
297.348	18.62
298.141	19.62
298.935	19.62
299.728	19.62
300.521	16.62
301.314	16.62
302.107	17.62
302.899	14.62
303.692	16.62
304.485	14.62
305.277	16.62
306.07	16.62
306.862	14.62
307.655	15.62
308.447	13.62
309.239	16.62
310.031	12.62
310.823	13.62
311.615	12.62
312.407	10.62
313.199	13.62
313.991	12.62
314.783	13.62
315.574	11.62
316.366	9.62
317.157	9.62
317.949	10.62
318.74	12.62
319.531	10.62
320.322	9.62
321.113	7.62
321.904	8.62
322.695	8.62
323.486	9.62
324.277	7.62
325.068	9.62
325.858	8.62
326.649	10.62
327.439	7.62
328.23	10.62
329.02	10.62
329.81	8.62
330.6	8.62
331.391	6.62
332.181	8.62
332.971	8.62
333.76	8.62
334.55	9.62
335.34	9.62
336.13	6.62
336.919	7.62
337.709	10.62
338.498	7.62
339.287	8.62
340.077	8.62
340.866	11.62
341.655	7.62
342.444	8.62
343.233	10.62
344.022	9.62
344.811	10.62
345.6	8.62
346.388	6.62
347.177	10.62
347.965	6.62
348.754	6.62
349.542	8.62
350.33	7.62
351.119	7.62
351.907	8.62
352.695	8.62
353.483	6.62
354.271	7.62
355.059	8.62
355.846	6.62
356.634	8.62
357.422	5.62
358.209	10.62
358.997	8.62
359.784	7.62
360.571	6.62
361.359	7.62
362.146	5.62
362.933	7.62
363.72	8.62
364.507	8.62
365.294	5.62
366.081	5.62
366.867	7.62
367.654	7.62
368.44	7.62
369.227	6.62
370.013	6.62
370.8	5.62
371.586	7.62
372.372	7.62
373.158	6.62
373.944	6.62
374.73	7.62
375.516	7.62
376.302	5.62
377.088	6.62
377.873	7.62
378.659	7.62
379.445	6.62
380.23	7.62
381.015	7.62
381.801	7.62
382.586	6.62
383.371	7.62
384.156	6.62
384.941	8.62
385.726	7.62
386.511	8.62
387.296	8.62
388.08	9.62
388.865	7.62
389.649	7.62
390.434	7.62
391.218	8.62
392.003	6.62
392.787	9.62
393.571	6.62
394.355	8.62
395.139	7.62
395.923	7.62
396.707	8.62
397.491	10.62
398.274	8.62
399.058	9.62
399.842	9.62
400.625	10.62
401.408	11.62
402.192	9.62
402.975	9.62
403.758	11.62
404.541	7.62
405.324	10.62
406.107	10.62
406.89	10.62
407.673	11.62
408.456	9.62
409.238	10.62
410.021	10.62
410.803	12.62
411.586	11.62
412.368	11.62
413.151	13.62
413.933	10.62
414.715	10.62
415.497	10.62
416.279	10.62
417.061	12.62
417.843	12.62
418.624	12.62
419.406	12.62
420.188	12.62
420.969	14.62
421.751	14.62
422.532	16.62
423.313	11.62
424.095	15.62
424.876	14.62
425.657	14.62
426.438	17.62
427.219	16.62
428	18.62
428.78	20.62
429.561	19.62
430.342	21.62
431.122	21.62
431.903	22.62
432.683	21.62
433.464	23.62
434.244	22.62
435.024	22.62
435.804	25.62
436.584	26.62
437.364	32.62
438.144	27.62
438.924	28.62
439.704	32.62
440.483	35.62
441.263	33.62
442.042	38.62
442.822	43.62
443.601	41.62
444.38	46.62
445.16	50.62
445.939	56.62
446.718	58.62
447.497	62.62
448.276	69.62
449.054	73.62
449.833	80.62
450.612	91.62
451.391	95.62
452.169	108.62
452.948	120.62
453.726	131.62
454.504	145.62
455.282	164.62
456.061	180.62
456.839	199.62
457.617	217.62
458.395	251.62
459.172	269.62
459.95	307.62
460.728	331.62
461.506	372.62
462.283	416.62
463.061	465.62
463.838	514.62
464.615	582.62
465.393	646.62
466.17	717.62
466.947	791.62
467.724	882.62
468.501	1000.62
469.278	1083.62
470.055	1198.62
470.831	1326.62
471.608	1464.62
472.385	1629.62
473.161	1783.62
473.938	1953.62
474.714	2164.62
475.49	2366.62
476.266	2578.62
477.043	2855.62
477.819	3148.62
478.595	3442.62
479.371	3779.62
480.146	4110.62
480.922	4503.62
481.698	4924.62
482.473	5354.62
483.249	5860.62
484.024	6381.62
484.8	6967.62
485.575	7607.62
486.35	8205.62
487.126	8948.62
487.901	9730.62
488.676	10538.62
489.451	11446.62
490.225	12374.62
491	13367.62
491.775	14478.62
492.55	15546.62
493.324	16747.62
494.099	17899.62
494.873	19110.62
495.647	20401.62
496.422	21725.62
497.196	23030.62
497.97	24431.62
498.744	25714.62
499.518	27015.62
500.292	28172.62
501.066	29340.62
501.839	30446.62
502.613	31401.62
503.387	32133.62
504.16	32824.62
504.934	33260.62
505.707	33466.62
506.48	33570.62
507.253	33464.62
508.027	33319.62
508.8	32949.62
509.573	32372.62
510.346	31747.62
511.118	30923.62
511.891	30106.62
512.664	29176.62
513.437	28133.62
514.209	27105.62
514.982	26162.62
515.754	25197.62
516.526	24187.62
517.298	23194.62
518.071	22177.62
518.843	21356.62
519.615	20470.62
520.387	19661.62
521.159	18932.62
521.93	18202.62
522.702	17463.62
523.474	16769.62
524.245	16112.62
525.017	15382.62
525.788	14692.62
526.56	14054.62
527.331	13435.62
528.102	12901.62
528.873	12275.62
529.644	11661.62
530.415	11183.62
531.186	10678.62
531.957	10127.62
532.728	9567.62
533.498	9106.62
534.269	8602.62
535.039	8165.62
535.81	7711.62
536.58	7281.62
537.351	6858.62
538.121	6530.62
538.891	6148.62
539.661	5831.62
540.431	5568.62
541.201	5270.62
541.971	5002.62
542.741	4726.62
543.51	4477.62
544.28	4231.62
545.05	4037.62
545.819	3869.62
546.588	3654.62
547.358	3462.62
548.127	3279.62
548.896	3105.62
549.665	2971.62
550.434	2833.62
551.203	2682.62
551.972	2526.62
552.741	2398.62
553.51	2287.62
554.278	2158.62
555.047	2022.62
555.815	1929.62
556.584	1820.62
557.352	1707.62
558.121	1615.62
558.889	1536.62
559.657	1457.62
560.425	1368.62
561.193	1287.62
561.961	1233.62
562.729	1144.62
563.496	1086.62
564.264	1025.62
565.032	969.62
565.799	936.62
566.567	879.62
567.334	815.62
568.101	783.62
568.869	732.62
569.636	684.62
570.403	648.62
571.17	620.62
571.937	581.62
572.704	552.62
573.471	511.62
574.237	492.62
575.004	463.62
575.771	434.62
576.537	403.62
577.303	395.62
578.07	361.62
578.836	339.62
579.602	320.62
580.368	311.62
581.134	291.62
581.9	270.62
582.666	259.62
583.432	244.62
584.198	234.62
584.964	222.62
585.729	209.62
586.495	204.62
587.26	195.62
588.025	181.62
588.791	173.62
589.556	166.62
590.321	153.62
591.086	146.62
591.851	137.62
592.616	135.62
593.381	128.62
594.146	112.62
594.911	117.62
595.675	109.62
596.44	106.62
597.204	98.62
597.969	91.62
598.733	93.62
599.497	85.62
600.261	84.62
601.025	82.62
601.79	72.62
602.553	74.62
603.317	72.62
604.081	68.62
604.845	64.62
605.609	60.62
606.372	57.62
607.136	57.62
607.899	54.62
608.662	51.62
609.426	48.62
610.189	50.62
610.952	46.62
611.715	45.62
612.478	42.62
613.241	41.62
614.004	40.62
614.767	42.62
615.529	36.62
616.292	34.62
617.055	33.62
617.817	34.62
618.579	32.62
619.342	33.62
620.104	32.62
620.866	28.62
621.628	30.62
622.39	28.62
623.152	28.62
623.914	26.62
624.676	23.62
625.438	20.62
626.199	22.62
626.961	22.62
627.722	21.62
628.484	18.62
629.245	20.62
630.006	20.62
630.768	18.62
631.529	16.62
632.29	17.62
633.051	17.62
633.812	17.62
634.573	16.62
635.333	15.62
636.094	14.62
636.855	15.62
637.615	15.62
638.376	12.62
639.136	14.62
639.896	12.62
640.657	12.62
641.417	11.62
642.177	14.62
642.937	12.62
643.697	10.62
644.457	12.62
645.216	11.62
645.976	12.62
646.736	10.62
647.495	9.62
648.255	11.62
649.014	9.62
649.774	9.62
650.533	8.62
651.292	9.62
652.051	10.62
652.81	11.62
653.569	9.62
654.328	6.62
655.087	8.62
655.846	8.62
656.604	9.62
657.363	6.62
658.121	8.62
658.88	7.62
659.638	9.62
660.397	8.62
661.155	8.62
661.913	6.62
662.671	8.62
663.429	5.62
664.187	5.62
664.945	7.62
665.703	7.62
666.46	6.62
667.218	6.62
667.976	10.62
668.733	8.62
669.49	7.62
670.248	6.62
671.005	4.62
671.762	7.62
672.519	6.62
673.276	5.62
674.033	5.62
674.79	4.62
675.547	7.62
676.304	6.62
677.06	8.62
677.817	5.62
678.574	8.62
679.33	7.62
680.086	5.62
680.843	4.62
681.599	4.62
682.355	8.62
683.111	5.62
683.867	4.62
684.623	7.62
685.379	4.62
686.135	3.62
686.89	4.62
687.646	4.62
688.402	4.62
689.157	2.62
689.912	7.62
690.668	3.62
691.423	6.62
692.178	6.62
692.933	6.62
693.688	4.62
694.443	6.62
695.198	5.62
695.953	6.62
696.708	4.62
697.462	5.62
698.217	4.62
698.972	6.62
699.726	3.62
700.48	6.62
701.235	4.62
701.989	3.62
702.743	8.62
703.497	5.62
704.251	5.62
705.005	6.62
705.759	5.62
706.513	4.62
707.266	5.62
708.02	3.62
708.774	5.62
709.527	6.62
710.28	3.62
711.034	3.62
711.787	5.62
712.54	3.62
713.293	4.62
714.046	6.62
714.799	4.62
715.552	4.62
716.305	5.62
717.058	3.62
717.81	6.62
718.563	5.62
719.315	7.62
720.068	2.62
720.82	7.62
721.573	5.62
722.325	6.62
723.077	4.62
723.829	5.62
724.581	6.62
725.333	4.62
726.085	4.62
726.836	5.62
727.588	5.62
728.34	5.62
729.091	5.62
729.843	7.62
730.594	5.62
731.346	4.62
732.097	6.62
732.848	5.62
733.599	4.62
734.35	3.62
735.101	5.62
735.852	7.62
736.603	6.62
737.354	6.62
738.104	3.62
738.855	6.62
739.605	8.62
740.356	5.62
741.106	5.62
741.856	6.62
742.607	6.62
743.357	4.62
744.107	4.62
744.857	5.62
745.607	6.62
746.357	5.62
747.106	3.62
747.856	6.62
748.606	4.62
749.355	6.62
750.105	7.62
750.854	6.62
751.603	7.62
752.353	5.62
753.102	6.62
753.851	5.62
754.6	6.62
755.349	7.62
756.098	8.62
756.847	8.62
757.595	7.62
758.344	6.62
759.093	8.62
759.841	5.62
760.589	8.62
761.338	7.62
762.086	9.62
762.834	7.62
763.582	7.62
764.331	6.62
765.079	8.62
765.826	9.62
766.574	7.62
767.322	9.62
768.07	8.62
768.817	8.62
769.565	10.62
770.312	11.62
771.06	10.62
771.807	9.62
772.554	10.62
773.302	9.62
774.049	8.62
774.796	12.62
775.543	9.62
776.29	9.62
777.036	7.62
777.783	8.62
778.53	10.62
779.276	9.62
780.023	10.62
780.769	10.62
781.516	11.62
782.262	11.62
783.008	10.62
783.754	10.62
784.5	10.62
785.246	9.62
785.992	10.62
786.738	10.62
787.484	10.62
788.23	11.62
788.975	9.62
789.721	9.62
790.466	13.62
791.212	10.62
791.957	8.62
792.702	11.62
793.447	10.62
794.193	11.62
794.938	12.62
795.683	9.62
796.427	14.62
797.172	11.62
797.917	10.62
798.662	8.62
799.406	10.62
800.151	10.62
800.895	9.62
801.64	9.62
802.384	6.62
803.128	11.62
803.872	9.62
804.616	6.62
805.36	8.62
806.104	6.62
806.848	9.62
807.592	7.62
808.336	6.62
809.079	5.62
809.823	8.62
810.566	8.62
811.31	6.62
812.053	5.62
812.796	7.62
813.539	7.62
814.283	7.62
815.026	6.62
815.769	7.62
816.511	6.62
817.254	8.62
817.997	4.62
818.74	7.62
819.482	5.62
820.225	4.62
820.967	5.62
821.71	4.62
822.452	6.62
823.194	4.62
823.936	4.62
824.678	5.62
825.42	6.62
826.162	4.62
826.904	4.62
827.646	5.62
828.388	4.62
829.129	4.62
829.871	4.62
830.612	5.62
831.354	5.62
832.095	6.62
832.836	4.62
833.577	6.62
834.319	1.62
835.06	2.62
835.801	4.62
836.542	3.62
837.282	3.62
838.023	3.62
838.764	4.62
839.504	4.62
840.245	6.62
840.985	2.62
841.726	4.62
842.466	4.62
843.206	2.62
843.946	5.62
844.687	4.62
845.427	4.62
846.166	2.62
846.906	3.62
847.646	4.62
848.386	4.62
849.125	4.62
849.865	4.62
850.605	4.62
851.344	2.62
852.083	4.62
852.823	5.62
853.562	3.62
854.301	5.62
855.04	4.62
855.779	2.62
856.518	2.62
857.257	2.62
857.995	4.62
858.734	2.62
859.473	1.62
860.211	3.62
860.95	1.62
861.688	4.62
862.426	2.62
863.165	3.62
863.903	3.62
864.641	2.62
865.379	3.62
866.117	2.62
866.855	1.62
867.593	0.62
868.33	2.62
869.068	3.62
869.806	1.62
870.543	-1.38
871.28	2.62
872.018	3.62
872.755	2.62
873.492	2.62
874.229	2.62
874.967	0.62
875.703	1.62
876.44	3.62
877.177	1.62
877.914	1.62
878.651	0.62
879.387	1.62
880.124	1.62
880.86	2.62
881.597	2.62
882.333	0.62
883.069	1.62
883.806	1.62
884.542	2.62
885.278	0.62
886.014	1.62
886.749	1.62
887.485	1.62
888.221	1.62
888.957	-1.38
889.692	2.62
890.428	0.62
891.163	2.62
891.899	2.62
892.634	1.62
893.369	1.62
894.104	1.62
894.839	2.62
895.574	-1.38
896.309	1.62
897.044	1.62
897.779	0.62
898.514	0.62
899.248	0.62
899.983	2.62
900.717	2.62
901.452	-0.38
902.186	0.62
902.92	1.62
903.654	2.62
904.389	0.62
905.123	0.62
905.857	-0.38
906.59	0.62
907.324	-0.38
908.058	-0.38
908.792	0.62
909.525	-0.38
910.259	1.62
910.992	1.62
911.726	-1.38
912.459	1.62
913.192	1.62
913.925	-2.38
914.658	0.62
915.391	-1.38
916.124	0.62
916.857	1.62
917.59	-0.38
918.323	-1.38
919.055	-0.38
919.788	0.62
920.521	1.62
921.253	0.62
921.985	0.62
922.718	1.62
923.45	0.62
924.182	0.62
924.914	1.62
925.646	-1.38
926.378	0.62
927.11	0.62
927.841	0.62
928.573	-0.38
929.305	-1.38
930.036	-1.38
930.768	-1.38
931.499	0.62
932.23	0.62
932.962	-1.38
933.693	0.62
934.424	0.62
935.155	1.62
935.886	1.62
936.617	0.62
937.348	0.62
938.078	1.62
938.809	1.62
939.54	0.62
940.27	1.62
941.001	1.62
941.731	0.62
942.461	3.62
943.191	-1.38
943.922	0.62
944.652	-0.38
945.382	0.62
946.112	2.62
946.841	-0.38
947.571	0.62
948.301	-1.38
949.031	0.62
949.76	0.62
950.49	-1.38
951.219	0.62
951.948	-1.38
952.678	-0.38
953.407	1.62
954.136	0.62
954.865	0.62
955.594	0.62
956.323	2.62
957.052	0.62
957.78	1.62
958.509	1.62
959.238	1.62
959.966	-0.38
960.695	0.62
961.423	0.62
962.151	-0.38
962.88	0.62
963.608	-0.38
964.336	-1.38
965.064	2.62
965.792	1.62
966.52	-2.38
967.247	-0.38
967.975	0.62
968.703	1.62
969.43	1.62
970.158	-0.38
970.885	0.62
971.613	-1.38
972.34	0.62
973.067	-2.38
973.794	-1.38
974.521	-0.38
975.248	0.62
975.975	2.62
976.702	-0.38
977.429	1.62
978.156	1.62
978.882	-0.38
979.609	-1.38
980.335	0.62
981.062	0.62
981.788	-0.38
982.514	-1.38
983.24	1.62
983.967	0.62
984.693	0.62
985.419	-0.38
986.144	2.62
986.87	0.62
987.596	1.62
988.322	-1.38
989.047	0.62
989.773	1.62
990.498	-0.38
991.224	2.62
991.949	1.62
992.674	1.62
993.399	-1.38
994.124	-0.38
994.849	0.62
995.574	0.62
996.299	0.62
997.024	1.62
997.749	-0.38
998.473	1.62
999.198	1.62
999.922	3.62
1000.647	-2.38
1001.371	2.62
1002.095	-0.38
1002.82	0.62
1003.544	-1.38
1004.268	5.62
1004.992	1.62
1005.716	1.62
1006.439	0.62
1007.163	2.62
1007.887	4.62
1008.611	0.62
1009.334	2.62
1010.058	2.62
1010.781	0.62
1011.504	1.62
1012.228	1.62
1012.951	0.62
1013.674	0.62
1014.397	-0.38
1015.12	-2.38
