节点500_425_QEPB04081__195__15-51-33-095.txt的数据

Date: Wed Nov 12 15:51:33 CST 2025
User: PC
Spectrometer: QEPB0408
触发模式: 0
积分时间 (秒): 1.000000E-2
Scans to average: 1
启用暗噪声校正: true
启用非线性校正: false
滑动平均宽度: 0
X轴模式: Wavelengths
Number of Pixels in Spectrum: 1044
>>>>>Begin Spectral Data<<<<<
220.843	4.38
221.644	4.38
222.444	4.38
223.244	3.38
224.045	5.38
224.845	1.38
225.645	2.38
226.445	-1.62
227.245	4.38
228.045	4.38
228.845	5.38
229.645	5.38
230.444	6.38
231.244	4.38
232.043	4.38
232.843	6.38
233.642	7.38
234.442	5.38
235.241	5.38
236.04	7.38
236.839	5.38
237.638	6.38
238.437	4.38
239.236	6.38
240.035	7.38
240.833	8.38
241.632	7.38
242.43	5.38
243.229	9.38
244.027	9.38
244.826	10.38
245.624	8.38
246.422	8.38
247.22	9.38
248.018	8.38
248.816	8.38
249.614	10.38
250.412	8.38
251.21	10.38
252.007	8.38
252.805	10.38
253.602	12.38
254.4	13.38
255.197	13.38
255.994	13.38
256.791	13.38
257.589	12.38
258.386	13.38
259.183	12.38
259.979	14.38
260.776	15.38
261.573	14.38
262.37	17.38
263.166	16.38
263.963	18.38
264.759	15.38
265.556	14.38
266.352	21.38
267.148	19.38
267.944	20.38
268.74	18.38
269.536	23.38
270.332	20.38
271.128	24.38
271.924	23.38
272.719	20.38
273.515	23.38
274.311	24.38
275.106	22.38
275.901	24.38
276.697	24.38
277.492	23.38
278.287	24.38
279.082	26.38
279.877	26.38
280.672	24.38
281.467	23.38
282.262	23.38
283.056	26.38
283.851	24.38
284.646	29.38
285.44	23.38
286.234	26.38
287.029	26.38
287.823	23.38
288.617	22.38
289.411	23.38
290.205	24.38
290.999	24.38
291.793	21.38
292.587	25.38
293.381	23.38
294.174	25.38
294.968	22.38
295.761	20.38
296.555	20.38
297.348	17.38
298.141	22.38
298.935	21.38
299.728	18.38
300.521	19.38
301.314	17.38
302.107	17.38
302.899	19.38
303.692	15.38
304.485	13.38
305.277	15.38
306.07	19.38
306.862	16.38
307.655	16.38
308.447	16.38
309.239	13.38
310.031	17.38
310.823	13.38
311.615	13.38
312.407	12.38
313.199	13.38
313.991	13.38
314.783	11.38
315.574	12.38
316.366	12.38
317.157	11.38
317.949	9.38
318.74	11.38
319.531	9.38
320.322	9.38
321.113	10.38
321.904	10.38
322.695	10.38
323.486	6.38
324.277	10.38
325.068	12.38
325.858	9.38
326.649	8.38
327.439	10.38
328.23	8.38
329.02	8.38
329.81	8.38
330.6	7.38
331.391	8.38
332.181	7.38
332.971	9.38
333.76	9.38
334.55	10.38
335.34	10.38
336.13	10.38
336.919	8.38
337.709	9.38
338.498	9.38
339.287	6.38
340.077	10.38
340.866	8.38
341.655	9.38
342.444	8.38
343.233	8.38
344.022	9.38
344.811	9.38
345.6	9.38
346.388	7.38
347.177	8.38
347.965	9.38
348.754	8.38
349.542	8.38
350.33	8.38
351.119	7.38
351.907	8.38
352.695	6.38
353.483	9.38
354.271	7.38
355.059	9.38
355.846	6.38
356.634	5.38
357.422	8.38
358.209	7.38
358.997	10.38
359.784	9.38
360.571	6.38
361.359	8.38
362.146	7.38
362.933	8.38
363.72	8.38
364.507	5.38
365.294	8.38
366.081	5.38
366.867	7.38
367.654	5.38
368.44	6.38
369.227	5.38
370.013	7.38
370.8	7.38
371.586	7.38
372.372	8.38
373.158	7.38
373.944	9.38
374.73	6.38
375.516	7.38
376.302	7.38
377.088	8.38
377.873	8.38
378.659	5.38
379.445	7.38
380.23	9.38
381.015	7.38
381.801	7.38
382.586	7.38
383.371	8.38
384.156	6.38
384.941	8.38
385.726	7.38
386.511	7.38
387.296	8.38
388.08	9.38
388.865	7.38
389.649	6.38
390.434	6.38
391.218	10.38
392.003	8.38
392.787	6.38
393.571	8.38
394.355	7.38
395.139	9.38
395.923	8.38
396.707	9.38
397.491	7.38
398.274	8.38
399.058	8.38
399.842	8.38
400.625	12.38
401.408	8.38
402.192	10.38
402.975	9.38
403.758	9.38
404.541	10.38
405.324	10.38
406.107	9.38
406.89	10.38
407.673	9.38
408.456	11.38
409.238	10.38
410.021	12.38
410.803	13.38
411.586	12.38
412.368	10.38
413.151	12.38
413.933	12.38
414.715	11.38
415.497	14.38
416.279	11.38
417.061	10.38
417.843	13.38
418.624	12.38
419.406	11.38
420.188	16.38
420.969	16.38
421.751	13.38
422.532	16.38
423.313	17.38
424.095	15.38
424.876	13.38
425.657	16.38
426.438	17.38
427.219	18.38
428	17.38
428.78	17.38
429.561	21.38
430.342	20.38
431.122	20.38
431.903	20.38
432.683	20.38
433.464	21.38
434.244	22.38
435.024	24.38
435.804	27.38
436.584	27.38
437.364	28.38
438.144	29.38
438.924	28.38
439.704	32.38
440.483	33.38
441.263	39.38
442.042	36.38
442.822	37.38
443.601	40.38
444.38	46.38
445.16	47.38
445.939	54.38
446.718	56.38
447.497	62.38
448.276	67.38
449.054	72.38
449.833	73.38
450.612	81.38
451.391	87.38
452.169	105.38
452.948	108.38
453.726	124.38
454.504	131.38
455.282	143.38
456.061	161.38
456.839	178.38
457.617	197.38
458.395	223.38
459.172	247.38
459.95	280.38
460.728	305.38
461.506	354.38
462.283	389.38
463.061	441.38
463.838	485.38
464.615	538.38
465.393	594.38
466.17	671.38
466.947	754.38
467.724	825.38
468.501	941.38
469.278	1041.38
470.055	1166.38
470.831	1280.38
471.608	1427.38
472.385	1570.38
473.161	1761.38
473.938	1953.38
474.714	2161.38
475.49	2376.38
476.266	2614.38
477.043	2883.38
477.819	3184.38
478.595	3526.38
479.371	3892.38
480.146	4273.38
480.922	4688.38
481.698	5172.38
482.473	5642.38
483.249	6233.38
484.024	6845.38
484.8	7513.38
485.575	8197.38
486.35	8943.38
487.126	9776.38
487.901	10681.38
488.676	11676.38
489.451	12691.38
490.225	13781.38
491	14990.38
491.775	16265.38
492.55	17575.38
493.324	18901.38
494.099	20272.38
494.873	21662.38
495.647	23198.38
496.422	24646.38
497.196	26171.38
497.97	27727.38
498.744	29170.38
499.518	30445.38
500.292	31797.38
501.066	32802.38
501.839	33961.38
502.613	34856.38
503.387	35476.38
504.16	35936.38
504.934	36145.38
505.707	36141.38
506.48	35986.38
507.253	35646.38
508.027	35225.38
508.8	34490.38
509.573	33686.38
510.346	32818.38
511.118	31745.38
511.891	30759.38
512.664	29565.38
513.437	28364.38
514.209	27162.38
514.982	26132.38
515.754	25028.38
516.526	23909.38
517.298	22921.38
518.071	21977.38
518.843	21088.38
519.615	20251.38
520.387	19350.38
521.159	18636.38
521.93	17893.38
522.702	17190.38
523.474	16492.38
524.245	15876.38
525.017	15124.38
525.788	14428.38
526.56	13742.38
527.331	13095.38
528.102	12529.38
528.873	11898.38
529.644	11320.38
530.415	10839.38
531.186	10270.38
531.957	9731.38
532.728	9191.38
533.498	8707.38
534.269	8166.38
535.039	7778.38
535.81	7348.38
536.58	6912.38
537.351	6528.38
538.121	6167.38
538.891	5851.38
539.661	5560.38
540.431	5260.38
541.201	4978.38
541.971	4707.38
542.741	4465.38
543.51	4242.38
544.28	4046.38
545.05	3840.38
545.819	3665.38
546.588	3474.38
547.358	3283.38
548.127	3110.38
548.896	2965.38
549.665	2810.38
550.434	2658.38
551.203	2528.38
551.972	2392.38
552.741	2258.38
553.51	2140.38
554.278	2006.38
555.047	1891.38
555.815	1796.38
556.584	1693.38
557.352	1606.38
558.121	1515.38
558.889	1417.38
559.657	1348.38
560.425	1274.38
561.193	1193.38
561.961	1143.38
562.729	1062.38
563.496	1011.38
564.264	960.38
565.032	909.38
565.799	853.38
566.567	818.38
567.334	757.38
568.101	726.38
568.869	681.38
569.636	648.38
570.403	605.38
571.17	565.38
571.937	537.38
572.704	514.38
573.471	484.38
574.237	454.38
575.004	424.38
575.771	402.38
576.537	371.38
577.303	354.38
578.07	341.38
578.836	318.38
579.602	305.38
580.368	282.38
581.134	275.38
581.9	252.38
582.666	243.38
583.432	230.38
584.198	211.38
584.964	207.38
585.729	197.38
586.495	185.38
587.26	181.38
588.025	165.38
588.791	160.38
589.556	155.38
590.321	152.38
591.086	138.38
591.851	129.38
592.616	120.38
593.381	112.38
594.146	115.38
594.911	105.38
595.675	103.38
596.44	100.38
597.204	94.38
597.969	88.38
598.733	82.38
599.497	80.38
600.261	75.38
601.025	71.38
601.79	71.38
602.553	69.38
603.317	66.38
604.081	64.38
604.845	58.38
605.609	56.38
606.372	54.38
607.136	52.38
607.899	52.38
608.662	48.38
609.426	48.38
610.189	46.38
610.952	46.38
611.715	43.38
612.478	41.38
613.241	37.38
614.004	39.38
614.767	37.38
615.529	34.38
616.292	32.38
617.055	31.38
617.817	31.38
618.579	28.38
619.342	29.38
620.104	29.38
620.866	26.38
621.628	27.38
622.39	27.38
623.152	26.38
623.914	25.38
624.676	24.38
625.438	22.38
626.199	22.38
626.961	24.38
627.722	18.38
628.484	18.38
629.245	18.38
630.006	17.38
630.768	20.38
631.529	16.38
632.29	15.38
633.051	16.38
633.812	16.38
634.573	16.38
635.333	16.38
636.094	17.38
636.855	11.38
637.615	11.38
638.376	13.38
639.136	16.38
639.896	13.38
640.657	12.38
641.417	10.38
642.177	14.38
642.937	11.38
643.697	10.38
644.457	10.38
645.216	14.38
645.976	11.38
646.736	9.38
647.495	11.38
648.255	10.38
649.014	12.38
649.774	8.38
650.533	10.38
651.292	9.38
652.051	7.38
652.81	11.38
653.569	10.38
654.328	9.38
655.087	7.38
655.846	8.38
656.604	10.38
657.363	5.38
658.121	9.38
658.88	7.38
659.638	6.38
660.397	9.38
661.155	6.38
661.913	10.38
662.671	7.38
663.429	8.38
664.187	7.38
664.945	6.38
665.703	5.38
666.46	6.38
667.218	8.38
667.976	7.38
668.733	5.38
669.49	5.38
670.248	7.38
671.005	6.38
671.762	5.38
672.519	6.38
673.276	6.38
674.033	3.38
674.79	6.38
675.547	4.38
676.304	4.38
677.06	5.38
677.817	5.38
678.574	6.38
679.33	5.38
680.086	5.38
680.843	6.38
681.599	6.38
682.355	8.38
683.111	5.38
683.867	5.38
684.623	7.38
685.379	7.38
686.135	7.38
686.89	6.38
687.646	6.38
688.402	7.38
689.157	5.38
689.912	4.38
690.668	5.38
691.423	2.38
692.178	7.38
692.933	5.38
693.688	3.38
694.443	7.38
695.198	5.38
695.953	6.38
696.708	4.38
697.462	2.38
698.217	8.38
698.972	3.38
699.726	5.38
700.48	5.38
701.235	4.38
701.989	5.38
702.743	4.38
703.497	3.38
704.251	4.38
705.005	5.38
705.759	5.38
706.513	4.38
707.266	4.38
708.02	5.38
708.774	6.38
709.527	5.38
710.28	5.38
711.034	4.38
711.787	3.38
712.54	5.38
713.293	6.38
714.046	6.38
714.799	4.38
715.552	6.38
716.305	6.38
717.058	4.38
717.81	5.38
718.563	4.38
719.315	4.38
720.068	4.38
720.82	4.38
721.573	4.38
722.325	6.38
723.077	6.38
723.829	8.38
724.581	5.38
725.333	4.38
726.085	8.38
726.836	4.38
727.588	5.38
728.34	6.38
729.091	4.38
729.843	5.38
730.594	8.38
731.346	7.38
732.097	6.38
732.848	8.38
733.599	6.38
734.35	7.38
735.101	5.38
735.852	6.38
736.603	5.38
737.354	9.38
738.104	6.38
738.855	5.38
739.605	5.38
740.356	7.38
741.106	7.38
741.856	7.38
742.607	7.38
743.357	7.38
744.107	6.38
744.857	10.38
745.607	7.38
746.357	7.38
747.106	6.38
747.856	5.38
748.606	7.38
749.355	6.38
750.105	5.38
750.854	7.38
751.603	7.38
752.353	9.38
753.102	7.38
753.851	9.38
754.6	8.38
755.349	7.38
756.098	6.38
756.847	7.38
757.595	8.38
758.344	7.38
759.093	8.38
759.841	7.38
760.589	10.38
761.338	9.38
762.086	9.38
762.834	8.38
763.582	9.38
764.331	11.38
765.079	10.38
765.826	8.38
766.574	9.38
767.322	10.38
768.07	8.38
768.817	9.38
769.565	10.38
770.312	10.38
771.06	8.38
771.807	12.38
772.554	10.38
773.302	12.38
774.049	9.38
774.796	10.38
775.543	8.38
776.29	10.38
777.036	10.38
777.783	10.38
778.53	10.38
779.276	13.38
780.023	11.38
780.769	10.38
781.516	10.38
782.262	12.38
783.008	12.38
783.754	11.38
784.5	10.38
785.246	12.38
785.992	13.38
786.738	11.38
787.484	13.38
788.23	12.38
788.975	13.38
789.721	11.38
790.466	6.38
791.212	14.38
791.957	12.38
792.702	12.38
793.447	10.38
794.193	10.38
794.938	9.38
795.683	10.38
796.427	10.38
797.172	10.38
797.917	7.38
798.662	9.38
799.406	9.38
800.151	10.38
800.895	10.38
801.64	9.38
802.384	8.38
803.128	7.38
803.872	7.38
804.616	9.38
805.36	6.38
806.104	7.38
806.848	8.38
807.592	6.38
808.336	5.38
809.079	8.38
809.823	6.38
810.566	5.38
811.31	7.38
812.053	5.38
812.796	8.38
813.539	4.38
814.283	7.38
815.026	8.38
815.769	7.38
816.511	8.38
817.254	5.38
817.997	7.38
818.74	6.38
819.482	7.38
820.225	4.38
820.967	5.38
821.71	5.38
822.452	5.38
823.194	4.38
823.936	4.38
824.678	5.38
825.42	6.38
826.162	3.38
826.904	5.38
827.646	3.38
828.388	3.38
829.129	5.38
829.871	5.38
830.612	2.38
831.354	6.38
832.095	5.38
832.836	5.38
833.577	3.38
834.319	4.38
835.06	5.38
835.801	5.38
836.542	4.38
837.282	4.38
838.023	5.38
838.764	6.38
839.504	5.38
840.245	4.38
840.985	6.38
841.726	3.38
842.466	4.38
843.206	4.38
843.946	5.38
844.687	2.38
845.427	4.38
846.166	5.38
846.906	5.38
847.646	2.38
848.386	4.38
849.125	2.38
849.865	3.38
850.605	3.38
851.344	3.38
852.083	4.38
852.823	2.38
853.562	4.38
854.301	3.38
855.04	3.38
855.779	5.38
856.518	2.38
857.257	2.38
857.995	4.38
858.734	2.38
859.473	3.38
860.211	1.38
860.95	4.38
861.688	1.38
862.426	2.38
863.165	4.38
863.903	0.38
864.641	4.38
865.379	1.38
866.117	3.38
866.855	4.38
867.593	3.38
868.33	0.38
869.068	2.38
869.806	1.38
870.543	1.38
871.28	3.38
872.018	1.38
872.755	2.38
873.492	4.38
874.229	2.38
874.967	0.38
875.703	2.38
876.44	1.38
877.177	2.38
877.914	1.38
878.651	3.38
879.387	0.38
880.124	2.38
880.86	0.38
881.597	1.38
882.333	0.38
883.069	0.38
883.806	-0.62
884.542	0.38
885.278	0.38
886.014	2.38
886.749	2.38
887.485	3.38
888.221	0.38
888.957	0.38
889.692	3.38
890.428	0.38
891.163	2.38
891.899	2.38
892.634	1.38
893.369	1.38
894.104	2.38
894.839	3.38
895.574	-0.62
896.309	1.38
897.044	-0.62
897.779	1.38
898.514	0.38
899.248	1.38
899.983	0.38
900.717	0.38
901.452	1.38
902.186	1.38
902.92	0.38
903.654	1.38
904.389	1.38
905.123	0.38
905.857	1.38
906.59	-0.62
907.324	-0.62
908.058	0.38
908.792	-0.62
909.525	0.38
910.259	1.38
910.992	-0.62
911.726	2.38
912.459	-0.62
913.192	-0.62
913.925	0.38
914.658	0.38
915.391	2.38
916.124	-1.62
916.857	-0.62
917.59	0.38
918.323	1.38
919.055	0.38
919.788	1.38
920.521	-1.62
921.253	2.38
921.985	0.38
922.718	1.38
923.45	0.38
924.182	0.38
924.914	1.38
925.646	-0.62
926.378	2.38
927.11	-0.62
927.841	-1.62
928.573	0.38
929.305	-0.62
930.036	1.38
930.768	0.38
931.499	0.38
932.23	-0.62
932.962	0.38
933.693	0.38
934.424	1.38
935.155	2.38
935.886	0.38
936.617	0.38
937.348	0.38
938.078	1.38
938.809	1.38
939.54	1.38
940.27	0.38
941.001	-1.62
941.731	-1.62
942.461	-0.62
943.191	-0.62
943.922	0.38
944.652	2.38
945.382	0.38
946.112	-0.62
946.841	0.38
947.571	1.38
948.301	-1.62
949.031	-0.62
949.76	0.38
950.49	0.38
951.219	0.38
951.948	0.38
952.678	-1.62
953.407	0.38
954.136	0.38
954.865	-2.62
955.594	0.38
956.323	-0.62
957.052	0.38
957.78	0.38
958.509	-0.62
959.238	1.38
959.966	0.38
960.695	2.38
961.423	0.38
962.151	0.38
962.88	0.38
963.608	2.38
964.336	0.38
965.064	1.38
965.792	-1.62
966.52	2.38
967.247	0.38
967.975	-0.62
968.703	1.38
969.43	3.38
970.158	0.38
970.885	0.38
971.613	1.38
972.34	1.38
973.067	0.38
973.794	-1.62
974.521	-0.62
975.248	0.38
975.975	-1.62
976.702	2.38
977.429	0.38
978.156	1.38
978.882	3.38
979.609	1.38
980.335	1.38
981.062	0.38
981.788	1.38
982.514	1.38
983.24	0.38
983.967	0.38
984.693	-1.62
985.419	0.38
986.144	0.38
986.87	0.38
987.596	1.38
988.322	1.38
989.047	-1.62
989.773	-1.62
990.498	1.38
991.224	0.38
991.949	1.38
992.674	2.38
993.399	-1.62
994.124	0.38
994.849	-2.62
995.574	0.38
996.299	1.38
997.024	2.38
997.749	0.38
998.473	0.38
999.198	0.38
999.922	1.38
1000.647	-0.62
1001.371	5.38
1002.095	-1.62
1002.82	0.38
1003.544	-1.62
1004.268	3.38
1004.992	2.38
1005.716	1.38
1006.439	0.38
1007.163	1.38
1007.887	4.38
1008.611	-0.62
1009.334	-0.62
1010.058	-0.62
1010.781	-0.62
1011.504	2.38
1012.228	0.38
1012.951	-1.62
1013.674	0.38
1014.397	0.38
1015.12	-1.62
