节点500_425_QEPB04081__235__15-52-13-015.txt的数据

Date: Wed Nov 12 15:52:13 CST 2025
User: PC
Spectrometer: QEPB0408
触发模式: 0
积分时间 (秒): 1.000000E-2
Scans to average: 1
启用暗噪声校正: true
启用非线性校正: false
滑动平均宽度: 0
X轴模式: Wavelengths
Number of Pixels in Spectrum: 1044
>>>>>Begin Spectral Data<<<<<
220.843	3.5
221.644	3.5
222.444	1.5
223.244	4.5
224.045	2.5
224.845	1.5
225.645	2.5
226.445	3.5
227.245	2.5
228.045	5.5
228.845	0.5
229.645	3.5
230.444	4.5
231.244	3.5
232.043	7.5
232.843	4.5
233.642	4.5
234.442	4.5
235.241	5.5
236.04	5.5
236.839	6.5
237.638	6.5
238.437	5.5
239.236	4.5
240.035	6.5
240.833	4.5
241.632	8.5
242.43	5.5
243.229	8.5
244.027	8.5
244.826	1.5
245.624	8.5
246.422	7.5
247.22	9.5
248.018	7.5
248.816	9.5
249.614	8.5
250.412	9.5
251.21	10.5
252.007	9.5
252.805	10.5
253.602	9.5
254.4	8.5
255.197	10.5
255.994	9.5
256.791	11.5
257.589	11.5
258.386	13.5
259.183	12.5
259.979	13.5
260.776	14.5
261.573	14.5
262.37	15.5
263.166	16.5
263.963	16.5
264.759	19.5
265.556	17.5
266.352	17.5
267.148	18.5
267.944	17.5
268.74	17.5
269.536	17.5
270.332	22.5
271.128	21.5
271.924	21.5
272.719	21.5
273.515	19.5
274.311	23.5
275.106	22.5
275.901	22.5
276.697	24.5
277.492	25.5
278.287	25.5
279.082	24.5
279.877	24.5
280.672	26.5
281.467	23.5
282.262	21.5
283.056	23.5
283.851	26.5
284.646	25.5
285.44	25.5
286.234	25.5
287.029	23.5
287.823	22.5
288.617	23.5
289.411	23.5
290.205	25.5
290.999	24.5
291.793	22.5
292.587	20.5
293.381	23.5
294.174	21.5
294.968	21.5
295.761	20.5
296.555	18.5
297.348	20.5
298.141	21.5
298.935	19.5
299.728	20.5
300.521	19.5
301.314	18.5
302.107	16.5
302.899	15.5
303.692	17.5
304.485	15.5
305.277	14.5
306.07	15.5
306.862	14.5
307.655	14.5
308.447	13.5
309.239	15.5
310.031	13.5
310.823	16.5
311.615	11.5
312.407	12.5
313.199	12.5
313.991	12.5
314.783	14.5
315.574	11.5
316.366	10.5
317.157	8.5
317.949	11.5
318.74	9.5
319.531	7.5
320.322	10.5
321.113	7.5
321.904	8.5
322.695	8.5
323.486	8.5
324.277	8.5
325.068	7.5
325.858	8.5
326.649	6.5
327.439	8.5
328.23	7.5
329.02	6.5
329.81	9.5
330.6	6.5
331.391	11.5
332.181	9.5
332.971	6.5
333.76	10.5
334.55	8.5
335.34	11.5
336.13	8.5
336.919	7.5
337.709	8.5
338.498	4.5
339.287	7.5
340.077	6.5
340.866	8.5
341.655	6.5
342.444	8.5
343.233	9.5
344.022	9.5
344.811	8.5
345.6	4.5
346.388	8.5
347.177	9.5
347.965	8.5
348.754	7.5
349.542	7.5
350.33	6.5
351.119	7.5
351.907	9.5
352.695	7.5
353.483	6.5
354.271	5.5
355.059	7.5
355.846	9.5
356.634	6.5
357.422	6.5
358.209	9.5
358.997	7.5
359.784	5.5
360.571	5.5
361.359	7.5
362.146	6.5
362.933	7.5
363.72	6.5
364.507	4.5
365.294	3.5
366.081	7.5
366.867	6.5
367.654	6.5
368.44	4.5
369.227	6.5
370.013	5.5
370.8	6.5
371.586	6.5
372.372	4.5
373.158	6.5
373.944	5.5
374.73	8.5
375.516	6.5
376.302	6.5
377.088	5.5
377.873	5.5
378.659	6.5
379.445	4.5
380.23	6.5
381.015	7.5
381.801	7.5
382.586	7.5
383.371	7.5
384.156	7.5
384.941	5.5
385.726	6.5
386.511	8.5
387.296	4.5
388.08	8.5
388.865	9.5
389.649	6.5
390.434	6.5
391.218	7.5
392.003	6.5
392.787	7.5
393.571	8.5
394.355	5.5
395.139	8.5
395.923	6.5
396.707	7.5
397.491	7.5
398.274	6.5
399.058	8.5
399.842	8.5
400.625	9.5
401.408	8.5
402.192	9.5
402.975	8.5
403.758	8.5
404.541	8.5
405.324	9.5
406.107	9.5
406.89	8.5
407.673	8.5
408.456	9.5
409.238	12.5
410.021	9.5
410.803	9.5
411.586	7.5
412.368	11.5
413.151	11.5
413.933	11.5
414.715	11.5
415.497	10.5
416.279	9.5
417.061	11.5
417.843	12.5
418.624	12.5
419.406	15.5
420.188	13.5
420.969	9.5
421.751	13.5
422.532	13.5
423.313	17.5
424.095	14.5
424.876	13.5
425.657	16.5
426.438	16.5
427.219	16.5
428	16.5
428.78	18.5
429.561	17.5
430.342	20.5
431.122	19.5
431.903	19.5
432.683	20.5
433.464	23.5
434.244	20.5
435.024	23.5
435.804	24.5
436.584	25.5
437.364	28.5
438.144	28.5
438.924	31.5
439.704	31.5
440.483	32.5
441.263	33.5
442.042	39.5
442.822	39.5
443.601	43.5
444.38	46.5
445.16	47.5
445.939	53.5
446.718	54.5
447.497	58.5
448.276	65.5
449.054	71.5
449.833	78.5
450.612	82.5
451.391	91.5
452.169	101.5
452.948	107.5
453.726	123.5
454.504	136.5
455.282	143.5
456.061	161.5
456.839	186.5
457.617	203.5
458.395	229.5
459.172	251.5
459.95	281.5
460.728	321.5
461.506	353.5
462.283	389.5
463.061	427.5
463.838	489.5
464.615	557.5
465.393	614.5
466.17	687.5
466.947	760.5
467.724	848.5
468.501	937.5
469.278	1038.5
470.055	1160.5
470.831	1283.5
471.608	1433.5
472.385	1583.5
473.161	1758.5
473.938	1931.5
474.714	2167.5
475.49	2378.5
476.266	2619.5
477.043	2889.5
477.819	3195.5
478.595	3536.5
479.371	3881.5
480.146	4263.5
480.922	4691.5
481.698	5129.5
482.473	5643.5
483.249	6170.5
484.024	6760.5
484.8	7443.5
485.575	8103.5
486.35	8824.5
487.126	9691.5
487.901	10579.5
488.676	11559.5
489.451	12562.5
490.225	13647.5
491	14787.5
491.775	16097.5
492.55	17330.5
493.324	18696.5
494.099	20050.5
494.873	21378.5
495.647	22833.5
496.422	24368.5
497.196	25749.5
497.97	27269.5
498.744	28806.5
499.518	30088.5
500.292	31367.5
501.066	32449.5
501.839	33669.5
502.613	34511.5
503.387	35144.5
504.16	35700.5
504.934	35836.5
505.707	36009.5
506.48	35711.5
507.253	35429.5
508.027	35056.5
508.8	34355.5
509.573	33545.5
510.346	32676.5
511.118	31701.5
511.891	30715.5
512.664	29575.5
513.437	28321.5
514.209	27184.5
514.982	26097.5
515.754	25107.5
516.526	23991.5
517.298	22993.5
518.071	21992.5
518.843	21115.5
519.615	20249.5
520.387	19450.5
521.159	18678.5
521.93	17988.5
522.702	17263.5
523.474	16625.5
524.245	15859.5
525.017	15184.5
525.788	14441.5
526.56	13784.5
527.331	13174.5
528.102	12574.5
528.873	11945.5
529.644	11395.5
530.415	10841.5
531.186	10278.5
531.957	9801.5
532.728	9217.5
533.498	8736.5
534.269	8256.5
535.039	7805.5
535.81	7387.5
536.58	6974.5
537.351	6586.5
538.121	6178.5
538.891	5892.5
539.661	5557.5
540.431	5254.5
541.201	4999.5
541.971	4748.5
542.741	4490.5
543.51	4260.5
544.28	4048.5
545.05	3848.5
545.819	3673.5
546.588	3497.5
547.358	3297.5
548.127	3132.5
548.896	2962.5
549.665	2827.5
550.434	2683.5
551.203	2545.5
551.972	2411.5
552.741	2281.5
553.51	2145.5
554.278	2016.5
555.047	1909.5
555.815	1806.5
556.584	1723.5
557.352	1598.5
558.121	1513.5
558.889	1435.5
559.657	1362.5
560.425	1285.5
561.193	1210.5
561.961	1135.5
562.729	1079.5
563.496	1029.5
564.264	959.5
565.032	917.5
565.799	873.5
566.567	819.5
567.334	777.5
568.101	742.5
568.869	697.5
569.636	646.5
570.403	610.5
571.17	577.5
571.937	532.5
572.704	511.5
573.471	487.5
574.237	457.5
575.004	429.5
575.771	404.5
576.537	377.5
577.303	364.5
578.07	337.5
578.836	333.5
579.602	294.5
580.368	293.5
581.134	263.5
581.9	261.5
582.666	243.5
583.432	231.5
584.198	219.5
584.964	206.5
585.729	195.5
586.495	185.5
587.26	180.5
588.025	169.5
588.791	163.5
589.556	151.5
590.321	143.5
591.086	135.5
591.851	131.5
592.616	123.5
593.381	119.5
594.146	111.5
594.911	108.5
595.675	107.5
596.44	101.5
597.204	94.5
597.969	85.5
598.733	85.5
599.497	83.5
600.261	84.5
601.025	71.5
601.79	69.5
602.553	68.5
603.317	64.5
604.081	61.5
604.845	61.5
605.609	60.5
606.372	53.5
607.136	53.5
607.899	53.5
608.662	51.5
609.426	48.5
610.189	47.5
610.952	45.5
611.715	41.5
612.478	37.5
613.241	36.5
614.004	35.5
614.767	32.5
615.529	34.5
616.292	29.5
617.055	32.5
617.817	31.5
618.579	33.5
619.342	26.5
620.104	29.5
620.866	28.5
621.628	24.5
622.39	26.5
623.152	24.5
623.914	22.5
624.676	22.5
625.438	20.5
626.199	21.5
626.961	23.5
627.722	22.5
628.484	19.5
629.245	18.5
630.006	17.5
630.768	18.5
631.529	15.5
632.29	15.5
633.051	17.5
633.812	15.5
634.573	15.5
635.333	16.5
636.094	14.5
636.855	16.5
637.615	13.5
638.376	12.5
639.136	12.5
639.896	13.5
640.657	12.5
641.417	8.5
642.177	12.5
642.937	12.5
643.697	11.5
644.457	9.5
645.216	12.5
645.976	11.5
646.736	10.5
647.495	10.5
648.255	12.5
649.014	7.5
649.774	8.5
650.533	10.5
651.292	7.5
652.051	5.5
652.81	9.5
653.569	7.5
654.328	8.5
655.087	6.5
655.846	9.5
656.604	9.5
657.363	5.5
658.121	6.5
658.88	7.5
659.638	9.5
660.397	6.5
661.155	6.5
661.913	8.5
662.671	5.5
663.429	5.5
664.187	8.5
664.945	5.5
665.703	6.5
666.46	4.5
667.218	6.5
667.976	7.5
668.733	4.5
669.49	6.5
670.248	4.5
671.005	8.5
671.762	4.5
672.519	5.5
673.276	5.5
674.033	4.5
674.79	5.5
675.547	4.5
676.304	6.5
677.06	6.5
677.817	6.5
678.574	5.5
679.33	4.5
680.086	6.5
680.843	1.5
681.599	4.5
682.355	4.5
683.111	4.5
683.867	3.5
684.623	5.5
685.379	5.5
686.135	5.5
686.89	2.5
687.646	5.5
688.402	5.5
689.157	5.5
689.912	2.5
690.668	6.5
691.423	4.5
692.178	2.5
692.933	5.5
693.688	3.5
694.443	5.5
695.198	3.5
695.953	3.5
696.708	5.5
697.462	1.5
698.217	3.5
698.972	1.5
699.726	4.5
700.48	4.5
701.235	3.5
701.989	3.5
702.743	3.5
703.497	3.5
704.251	4.5
705.005	4.5
705.759	6.5
706.513	1.5
707.266	5.5
708.02	2.5
708.774	4.5
709.527	7.5
710.28	2.5
711.034	4.5
711.787	5.5
712.54	4.5
713.293	2.5
714.046	5.5
714.799	5.5
715.552	4.5
716.305	6.5
717.058	5.5
717.81	3.5
718.563	5.5
719.315	5.5
720.068	3.5
720.82	2.5
721.573	5.5
722.325	5.5
723.077	2.5
723.829	3.5
724.581	2.5
725.333	5.5
726.085	5.5
726.836	4.5
727.588	4.5
728.34	6.5
729.091	4.5
729.843	4.5
730.594	5.5
731.346	6.5
732.097	5.5
732.848	5.5
733.599	6.5
734.35	7.5
735.101	4.5
735.852	5.5
736.603	6.5
737.354	5.5
738.104	5.5
738.855	6.5
739.605	4.5
740.356	4.5
741.106	7.5
741.856	3.5
742.607	6.5
743.357	6.5
744.107	4.5
744.857	6.5
745.607	2.5
746.357	7.5
747.106	7.5
747.856	7.5
748.606	6.5
749.355	7.5
750.105	7.5
750.854	4.5
751.603	5.5
752.353	7.5
753.102	6.5
753.851	6.5
754.6	8.5
755.349	8.5
756.098	9.5
756.847	6.5
757.595	8.5
758.344	7.5
759.093	8.5
759.841	7.5
760.589	7.5
761.338	9.5
762.086	5.5
762.834	7.5
763.582	6.5
764.331	6.5
765.079	7.5
765.826	8.5
766.574	9.5
767.322	9.5
768.07	8.5
768.817	8.5
769.565	11.5
770.312	9.5
771.06	9.5
771.807	9.5
772.554	10.5
773.302	9.5
774.049	10.5
774.796	8.5
775.543	8.5
776.29	13.5
777.036	10.5
777.783	9.5
778.53	9.5
779.276	10.5
780.023	11.5
780.769	12.5
781.516	9.5
782.262	11.5
783.008	12.5
783.754	11.5
784.5	11.5
785.246	8.5
785.992	12.5
786.738	13.5
787.484	11.5
788.23	11.5
788.975	10.5
789.721	13.5
790.466	8.5
791.212	12.5
791.957	11.5
792.702	7.5
793.447	9.5
794.193	6.5
794.938	9.5
795.683	9.5
796.427	12.5
797.172	13.5
797.917	4.5
798.662	10.5
799.406	9.5
800.151	8.5
800.895	8.5
801.64	8.5
802.384	11.5
803.128	6.5
803.872	8.5
804.616	7.5
805.36	10.5
806.104	8.5
806.848	4.5
807.592	4.5
808.336	5.5
809.079	7.5
809.823	5.5
810.566	4.5
811.31	6.5
812.053	6.5
812.796	6.5
813.539	4.5
814.283	5.5
815.026	4.5
815.769	3.5
816.511	8.5
817.254	6.5
817.997	3.5
818.74	4.5
819.482	7.5
820.225	5.5
820.967	3.5
821.71	4.5
822.452	4.5
823.194	4.5
823.936	4.5
824.678	3.5
825.42	3.5
826.162	3.5
826.904	4.5
827.646	5.5
828.388	4.5
829.129	5.5
829.871	2.5
830.612	4.5
831.354	6.5
832.095	3.5
832.836	3.5
833.577	2.5
834.319	4.5
835.06	3.5
835.801	3.5
836.542	3.5
837.282	3.5
838.023	1.5
838.764	4.5
839.504	3.5
840.245	4.5
840.985	3.5
841.726	4.5
842.466	3.5
843.206	1.5
843.946	2.5
844.687	4.5
845.427	1.5
846.166	3.5
846.906	2.5
847.646	2.5
848.386	6.5
849.125	4.5
849.865	4.5
850.605	1.5
851.344	0.5
852.083	3.5
852.823	3.5
853.562	4.5
854.301	1.5
855.04	2.5
855.779	3.5
856.518	3.5
857.257	2.5
857.995	3.5
858.734	0.5
859.473	1.5
860.211	1.5
860.95	1.5
861.688	-0.5
862.426	2.5
863.165	3.5
863.903	1.5
864.641	4.5
865.379	0.5
866.117	3.5
866.855	-0.5
867.593	1.5
868.33	1.5
869.068	1.5
869.806	1.5
870.543	1.5
871.28	-0.5
872.018	0.5
872.755	1.5
873.492	2.5
874.229	-1.5
874.967	1.5
875.703	0.5
876.44	1.5
877.177	2.5
877.914	-0.5
878.651	-0.5
879.387	1.5
880.124	1.5
880.86	1.5
881.597	-0.5
882.333	0.5
883.069	-0.5
883.806	1.5
884.542	1.5
885.278	-1.5
886.014	0.5
886.749	0.5
887.485	0.5
888.221	0.5
888.957	0.5
889.692	1.5
890.428	-1.5
891.163	-0.5
891.899	0.5
892.634	0.5
893.369	1.5
894.104	-0.5
894.839	0.5
895.574	-2.5
896.309	0.5
897.044	-1.5
897.779	-0.5
898.514	0.5
899.248	-0.5
899.983	-1.5
900.717	-0.5
901.452	0.5
902.186	0.5
902.92	-0.5
903.654	1.5
904.389	0.5
905.123	-1.5
905.857	-1.5
906.59	-1.5
907.324	-0.5
908.058	0.5
908.792	0.5
909.525	-2.5
910.259	0.5
910.992	1.5
911.726	-0.5
912.459	0.5
913.192	-0.5
913.925	0.5
914.658	0.5
915.391	0.5
916.124	1.5
916.857	-0.5
917.59	0.5
918.323	-2.5
919.055	2.5
919.788	0.5
920.521	-1.5
921.253	-1.5
921.985	-2.5
922.718	-0.5
923.45	-0.5
924.182	-1.5
924.914	-0.5
925.646	-1.5
926.378	0.5
927.11	-0.5
927.841	-1.5
928.573	0.5
929.305	-0.5
930.036	-1.5
930.768	-2.5
931.499	-0.5
932.23	-4.5
932.962	1.5
933.693	-0.5
934.424	1.5
935.155	0.5
935.886	-0.5
936.617	-0.5
937.348	-0.5
938.078	1.5
938.809	1.5
939.54	-1.5
940.27	0.5
941.001	0.5
941.731	-0.5
942.461	-0.5
943.191	0.5
943.922	2.5
944.652	0.5
945.382	-0.5
946.112	-0.5
946.841	-0.5
947.571	-0.5
948.301	-1.5
949.031	-0.5
949.76	-0.5
950.49	-2.5
951.219	-0.5
951.948	-0.5
952.678	-1.5
953.407	-2.5
954.136	1.5
954.865	-0.5
955.594	0.5
956.323	-0.5
957.052	0.5
957.78	-0.5
958.509	-0.5
959.238	2.5
959.966	-0.5
960.695	-0.5
961.423	-0.5
962.151	-2.5
962.88	-1.5
963.608	-2.5
964.336	-1.5
965.064	0.5
965.792	-0.5
966.52	-0.5
967.247	0.5
967.975	0.5
968.703	-1.5
969.43	-0.5
970.158	-0.5
970.885	0.5
971.613	-0.5
972.34	1.5
973.067	-0.5
973.794	-2.5
974.521	-0.5
975.248	-0.5
975.975	0.5
976.702	0.5
977.429	0.5
978.156	0.5
978.882	1.5
979.609	-1.5
980.335	2.5
981.062	0.5
981.788	0.5
982.514	-1.5
983.24	-1.5
983.967	-0.5
984.693	1.5
985.419	-1.5
986.144	-0.5
986.87	0.5
987.596	0.5
988.322	-3.5
989.047	-0.5
989.773	-0.5
990.498	-2.5
991.224	-0.5
991.949	-0.5
992.674	-2.5
993.399	-1.5
994.124	-0.5
994.849	1.5
995.574	3.5
996.299	-0.5
997.024	-1.5
997.749	1.5
998.473	-0.5
999.198	1.5
999.922	-1.5
1000.647	-0.5
1001.371	4.5
1002.095	-0.5
1002.82	-1.5
1003.544	-2.5
1004.268	2.5
1004.992	0.5
1005.716	0.5
1006.439	1.5
1007.163	1.5
1007.887	2.5
1008.611	0.5
1009.334	0.5
1010.058	-4.5
1010.781	-0.5
1011.504	-2.5
1012.228	-3.5
1012.951	-0.5
1013.674	-0.5
1014.397	-0.5
1015.12	1.5
