节点500_425_QEPB04081__309__15-53-26-865.txt的数据

Date: Wed Nov 12 15:53:26 CST 2025
User: PC
Spectrometer: QEPB0408
触发模式: 0
积分时间 (秒): 1.000000E-2
Scans to average: 1
启用暗噪声校正: true
启用非线性校正: false
滑动平均宽度: 0
X轴模式: Wavelengths
Number of Pixels in Spectrum: 1044
>>>>>Begin Spectral Data<<<<<
220.843	2.25
221.644	2.25
222.444	5.25
223.244	2.25
224.045	5.25
224.845	2.25
225.645	2.25
226.445	5.25
227.245	4.25
228.045	4.25
228.845	6.25
229.645	5.25
230.444	5.25
231.244	5.25
232.043	6.25
232.843	6.25
233.642	6.25
234.442	7.25
235.241	4.25
236.04	8.25
236.839	8.25
237.638	6.25
238.437	7.25
239.236	7.25
240.035	3.25
240.833	6.25
241.632	6.25
242.43	9.25
243.229	9.25
244.027	5.25
244.826	5.25
245.624	8.25
246.422	8.25
247.22	7.25
248.018	8.25
248.816	8.25
249.614	9.25
250.412	8.25
251.21	10.25
252.007	7.25
252.805	11.25
253.602	13.25
254.4	8.25
255.197	11.25
255.994	11.25
256.791	13.25
257.589	13.25
258.386	16.25
259.183	12.25
259.979	13.25
260.776	13.25
261.573	15.25
262.37	14.25
263.166	13.25
263.963	14.25
264.759	17.25
265.556	15.25
266.352	16.25
267.148	20.25
267.944	19.25
268.74	17.25
269.536	22.25
270.332	22.25
271.128	20.25
271.924	21.25
272.719	20.25
273.515	20.25
274.311	23.25
275.106	24.25
275.901	24.25
276.697	21.25
277.492	24.25
278.287	27.25
279.082	23.25
279.877	24.25
280.672	28.25
281.467	25.25
282.262	26.25
283.056	25.25
283.851	25.25
284.646	25.25
285.44	26.25
286.234	24.25
287.029	26.25
287.823	26.25
288.617	22.25
289.411	24.25
290.205	23.25
290.999	22.25
291.793	22.25
292.587	23.25
293.381	23.25
294.174	21.25
294.968	19.25
295.761	20.25
296.555	19.25
297.348	19.25
298.141	19.25
298.935	18.25
299.728	18.25
300.521	18.25
301.314	16.25
302.107	14.25
302.899	18.25
303.692	14.25
304.485	18.25
305.277	16.25
306.07	14.25
306.862	15.25
307.655	15.25
308.447	16.25
309.239	12.25
310.031	16.25
310.823	16.25
311.615	13.25
312.407	12.25
313.199	13.25
313.991	14.25
314.783	13.25
315.574	10.25
316.366	10.25
317.157	9.25
317.949	9.25
318.74	10.25
319.531	11.25
320.322	10.25
321.113	9.25
321.904	10.25
322.695	11.25
323.486	8.25
324.277	9.25
325.068	9.25
325.858	10.25
326.649	9.25
327.439	10.25
328.23	10.25
329.02	10.25
329.81	10.25
330.6	8.25
331.391	10.25
332.181	8.25
332.971	11.25
333.76	10.25
334.55	9.25
335.34	8.25
336.13	7.25
336.919	11.25
337.709	8.25
338.498	8.25
339.287	9.25
340.077	10.25
340.866	7.25
341.655	9.25
342.444	9.25
343.233	9.25
344.022	12.25
344.811	8.25
345.6	9.25
346.388	9.25
347.177	7.25
347.965	7.25
348.754	8.25
349.542	11.25
350.33	10.25
351.119	7.25
351.907	8.25
352.695	9.25
353.483	8.25
354.271	7.25
355.059	4.25
355.846	10.25
356.634	7.25
357.422	6.25
358.209	6.25
358.997	7.25
359.784	7.25
360.571	7.25
361.359	8.25
362.146	5.25
362.933	8.25
363.72	9.25
364.507	7.25
365.294	5.25
366.081	7.25
366.867	9.25
367.654	7.25
368.44	7.25
369.227	6.25
370.013	5.25
370.8	7.25
371.586	5.25
372.372	9.25
373.158	7.25
373.944	6.25
374.73	8.25
375.516	4.25
376.302	8.25
377.088	6.25
377.873	5.25
378.659	5.25
379.445	7.25
380.23	7.25
381.015	6.25
381.801	4.25
382.586	6.25
383.371	5.25
384.156	6.25
384.941	7.25
385.726	7.25
386.511	6.25
387.296	6.25
388.08	10.25
388.865	8.25
389.649	7.25
390.434	7.25
391.218	8.25
392.003	8.25
392.787	10.25
393.571	6.25
394.355	10.25
395.139	8.25
395.923	9.25
396.707	7.25
397.491	9.25
398.274	6.25
399.058	8.25
399.842	10.25
400.625	8.25
401.408	9.25
402.192	7.25
402.975	10.25
403.758	8.25
404.541	12.25
405.324	11.25
406.107	13.25
406.89	10.25
407.673	11.25
408.456	12.25
409.238	8.25
410.021	12.25
410.803	13.25
411.586	8.25
412.368	11.25
413.151	10.25
413.933	11.25
414.715	11.25
415.497	14.25
416.279	11.25
417.061	13.25
417.843	14.25
418.624	16.25
419.406	13.25
420.188	12.25
420.969	15.25
421.751	14.25
422.532	12.25
423.313	19.25
424.095	17.25
424.876	15.25
425.657	16.25
426.438	18.25
427.219	18.25
428	18.25
428.78	17.25
429.561	17.25
430.342	19.25
431.122	21.25
431.903	21.25
432.683	21.25
433.464	21.25
434.244	24.25
435.024	26.25
435.804	24.25
436.584	26.25
437.364	27.25
438.144	29.25
438.924	30.25
439.704	32.25
440.483	31.25
441.263	34.25
442.042	39.25
442.822	41.25
443.601	44.25
444.38	44.25
445.16	47.25
445.939	50.25
446.718	54.25
447.497	60.25
448.276	68.25
449.054	69.25
449.833	76.25
450.612	88.25
451.391	90.25
452.169	104.25
452.948	110.25
453.726	123.25
454.504	135.25
455.282	149.25
456.061	166.25
456.839	188.25
457.617	207.25
458.395	233.25
459.172	254.25
459.95	286.25
460.728	319.25
461.506	364.25
462.283	400.25
463.061	446.25
463.838	493.25
464.615	556.25
465.393	622.25
466.17	692.25
466.947	780.25
467.724	852.25
468.501	950.25
469.278	1047.25
470.055	1157.25
470.831	1294.25
471.608	1436.25
472.385	1597.25
473.161	1742.25
473.938	1956.25
474.714	2130.25
475.49	2378.25
476.266	2617.25
477.043	2873.25
477.819	3171.25
478.595	3487.25
479.371	3826.25
480.146	4182.25
480.922	4590.25
481.698	5077.25
482.473	5528.25
483.249	6087.25
484.024	6670.25
484.8	7293.25
485.575	7972.25
486.35	8664.25
487.126	9445.25
487.901	10285.25
488.676	11228.25
489.451	12209.25
490.225	13210.25
491	14347.25
491.775	15610.25
492.55	16756.25
493.324	18034.25
494.099	19359.25
494.873	20690.25
495.647	22086.25
496.422	23544.25
497.196	24843.25
497.97	26382.25
498.744	27799.25
499.518	29192.25
500.292	30478.25
501.066	31440.25
501.839	32591.25
502.613	33482.25
503.387	34207.25
504.16	34727.25
504.934	35169.25
505.707	35255.25
506.48	35037.25
507.253	34801.25
508.027	34458.25
508.8	33872.25
509.573	33164.25
510.346	32307.25
511.118	31440.25
511.891	30462.25
512.664	29332.25
513.437	28250.25
514.209	27089.25
514.982	26074.25
515.754	25016.25
516.526	23970.25
517.298	22955.25
518.071	21937.25
518.843	21093.25
519.615	20179.25
520.387	19418.25
521.159	18665.25
521.93	17978.25
522.702	17156.25
523.474	16605.25
524.245	15905.25
525.017	15181.25
525.788	14451.25
526.56	13855.25
527.331	13222.25
528.102	12572.25
528.873	12014.25
529.644	11449.25
530.415	10928.25
531.186	10386.25
531.957	9867.25
532.728	9287.25
533.498	8779.25
534.269	8324.25
535.039	7889.25
535.81	7442.25
536.58	7033.25
537.351	6622.25
538.121	6257.25
538.891	5935.25
539.661	5642.25
540.431	5341.25
541.201	5040.25
541.971	4795.25
542.741	4538.25
543.51	4331.25
544.28	4108.25
545.05	3878.25
545.819	3716.25
546.588	3508.25
547.358	3314.25
548.127	3150.25
548.896	3015.25
549.665	2846.25
550.434	2720.25
551.203	2575.25
551.972	2440.25
552.741	2290.25
553.51	2187.25
554.278	2032.25
555.047	1942.25
555.815	1844.25
556.584	1718.25
557.352	1639.25
558.121	1532.25
558.889	1444.25
559.657	1384.25
560.425	1303.25
561.193	1229.25
561.961	1159.25
562.729	1101.25
563.496	1049.25
564.264	978.25
565.032	932.25
565.799	873.25
566.567	831.25
567.334	787.25
568.101	754.25
568.869	693.25
569.636	659.25
570.403	613.25
571.17	581.25
571.937	552.25
572.704	528.25
573.471	497.25
574.237	461.25
575.004	435.25
575.771	412.25
576.537	385.25
577.303	368.25
578.07	353.25
578.836	328.25
579.602	305.25
580.368	294.25
581.134	281.25
581.9	261.25
582.666	246.25
583.432	234.25
584.198	222.25
584.964	212.25
585.729	204.25
586.495	192.25
587.26	181.25
588.025	169.25
588.791	170.25
589.556	158.25
590.321	149.25
591.086	141.25
591.851	133.25
592.616	127.25
593.381	120.25
594.146	115.25
594.911	107.25
595.675	99.25
596.44	98.25
597.204	92.25
597.969	92.25
598.733	83.25
599.497	86.25
600.261	78.25
601.025	74.25
601.79	73.25
602.553	72.25
603.317	64.25
604.081	63.25
604.845	60.25
605.609	61.25
606.372	55.25
607.136	52.25
607.899	54.25
608.662	48.25
609.426	50.25
610.189	47.25
610.952	44.25
611.715	42.25
612.478	42.25
613.241	40.25
614.004	36.25
614.767	38.25
615.529	34.25
616.292	30.25
617.055	33.25
617.817	33.25
618.579	34.25
619.342	31.25
620.104	29.25
620.866	26.25
621.628	25.25
622.39	25.25
623.152	21.25
623.914	25.25
624.676	24.25
625.438	22.25
626.199	23.25
626.961	23.25
627.722	20.25
628.484	18.25
629.245	20.25
630.006	18.25
630.768	20.25
631.529	19.25
632.29	17.25
633.051	18.25
633.812	17.25
634.573	19.25
635.333	18.25
636.094	12.25
636.855	16.25
637.615	15.25
638.376	14.25
639.136	15.25
639.896	13.25
640.657	13.25
641.417	13.25
642.177	12.25
642.937	10.25
643.697	11.25
644.457	10.25
645.216	11.25
645.976	11.25
646.736	9.25
647.495	11.25
648.255	13.25
649.014	9.25
649.774	12.25
650.533	9.25
651.292	10.25
652.051	8.25
652.81	10.25
653.569	9.25
654.328	8.25
655.087	9.25
655.846	7.25
656.604	8.25
657.363	10.25
658.121	7.25
658.88	10.25
659.638	9.25
660.397	8.25
661.155	7.25
661.913	7.25
662.671	8.25
663.429	5.25
664.187	9.25
664.945	8.25
665.703	5.25
666.46	7.25
667.218	7.25
667.976	5.25
668.733	6.25
669.49	7.25
670.248	7.25
671.005	8.25
671.762	7.25
672.519	5.25
673.276	5.25
674.033	5.25
674.79	6.25
675.547	6.25
676.304	7.25
677.06	3.25
677.817	6.25
678.574	6.25
679.33	5.25
680.086	4.25
680.843	5.25
681.599	6.25
682.355	6.25
683.111	3.25
683.867	7.25
684.623	6.25
685.379	5.25
686.135	7.25
686.89	5.25
687.646	5.25
688.402	4.25
689.157	5.25
689.912	5.25
690.668	7.25
691.423	3.25
692.178	5.25
692.933	6.25
693.688	5.25
694.443	5.25
695.198	4.25
695.953	5.25
696.708	5.25
697.462	3.25
698.217	5.25
698.972	5.25
699.726	4.25
700.48	5.25
701.235	5.25
701.989	4.25
702.743	4.25
703.497	7.25
704.251	3.25
705.005	6.25
705.759	7.25
706.513	4.25
707.266	6.25
708.02	5.25
708.774	5.25
709.527	4.25
710.28	5.25
711.034	7.25
711.787	5.25
712.54	5.25
713.293	7.25
714.046	3.25
714.799	6.25
715.552	5.25
716.305	7.25
717.058	3.25
717.81	6.25
718.563	5.25
719.315	3.25
720.068	4.25
720.82	7.25
721.573	3.25
722.325	5.25
723.077	5.25
723.829	7.25
724.581	5.25
725.333	4.25
726.085	4.25
726.836	4.25
727.588	7.25
728.34	2.25
729.091	6.25
729.843	5.25
730.594	6.25
731.346	5.25
732.097	2.25
732.848	6.25
733.599	1.25
734.35	4.25
735.101	7.25
735.852	4.25
736.603	4.25
737.354	4.25
738.104	6.25
738.855	5.25
739.605	8.25
740.356	6.25
741.106	4.25
741.856	7.25
742.607	5.25
743.357	5.25
744.107	5.25
744.857	6.25
745.607	6.25
746.357	6.25
747.106	8.25
747.856	4.25
748.606	9.25
749.355	7.25
750.105	5.25
750.854	6.25
751.603	6.25
752.353	7.25
753.102	6.25
753.851	8.25
754.6	6.25
755.349	7.25
756.098	8.25
756.847	8.25
757.595	11.25
758.344	8.25
759.093	7.25
759.841	7.25
760.589	6.25
761.338	8.25
762.086	9.25
762.834	9.25
763.582	7.25
764.331	8.25
765.079	9.25
765.826	9.25
766.574	8.25
767.322	11.25
768.07	9.25
768.817	11.25
769.565	10.25
770.312	9.25
771.06	8.25
771.807	9.25
772.554	10.25
773.302	9.25
774.049	11.25
774.796	11.25
775.543	11.25
776.29	7.25
777.036	12.25
777.783	10.25
778.53	11.25
779.276	10.25
780.023	12.25
780.769	14.25
781.516	11.25
782.262	12.25
783.008	12.25
783.754	10.25
784.5	10.25
785.246	10.25
785.992	12.25
786.738	12.25
787.484	11.25
788.23	13.25
788.975	12.25
789.721	12.25
790.466	12.25
791.212	10.25
791.957	10.25
792.702	8.25
793.447	9.25
794.193	11.25
794.938	9.25
795.683	9.25
796.427	8.25
797.172	9.25
797.917	11.25
798.662	9.25
799.406	9.25
800.151	10.25
800.895	10.25
801.64	8.25
802.384	9.25
803.128	8.25
803.872	8.25
804.616	7.25
805.36	7.25
806.104	7.25
806.848	9.25
807.592	7.25
808.336	5.25
809.079	8.25
809.823	11.25
810.566	7.25
811.31	8.25
812.053	7.25
812.796	4.25
813.539	8.25
814.283	6.25
815.026	6.25
815.769	5.25
816.511	5.25
817.254	8.25
817.997	5.25
818.74	5.25
819.482	3.25
820.225	7.25
820.967	6.25
821.71	6.25
822.452	7.25
823.194	6.25
823.936	6.25
824.678	7.25
825.42	7.25
826.162	7.25
826.904	6.25
827.646	7.25
828.388	4.25
829.129	5.25
829.871	3.25
830.612	3.25
831.354	7.25
832.095	5.25
832.836	4.25
833.577	3.25
834.319	3.25
835.06	4.25
835.801	5.25
836.542	4.25
837.282	3.25
838.023	4.25
838.764	4.25
839.504	2.25
840.245	5.25
840.985	2.25
841.726	5.25
842.466	2.25
843.206	3.25
843.946	4.25
844.687	2.25
845.427	5.25
846.166	1.25
846.906	4.25
847.646	4.25
848.386	2.25
849.125	2.25
849.865	5.25
850.605	4.25
851.344	1.25
852.083	1.25
852.823	2.25
853.562	4.25
854.301	4.25
855.04	1.25
855.779	6.25
856.518	2.25
857.257	2.25
857.995	5.25
858.734	3.25
859.473	3.25
860.211	3.25
860.95	5.25
861.688	3.25
862.426	1.25
863.165	3.25
863.903	2.25
864.641	0.25
865.379	0.25
866.117	2.25
866.855	2.25
867.593	5.25
868.33	3.25
869.068	2.25
869.806	3.25
870.543	2.25
871.28	2.25
872.018	4.25
872.755	0.25
873.492	1.25
874.229	1.25
874.967	0.25
875.703	2.25
876.44	0.25
877.177	3.25
877.914	2.25
878.651	3.25
879.387	1.25
880.124	1.25
880.86	2.25
881.597	1.25
882.333	3.25
883.069	1.25
883.806	0.25
884.542	2.25
885.278	0.25
886.014	0.25
886.749	1.25
887.485	3.25
888.221	0.25
888.957	-1.75
889.692	0.25
890.428	-0.75
891.163	0.25
891.899	1.25
892.634	2.25
893.369	2.25
894.104	0.25
894.839	2.25
895.574	1.25
896.309	3.25
897.044	1.25
897.779	-0.75
898.514	0.25
899.248	-0.75
899.983	0.25
900.717	1.25
901.452	1.25
902.186	2.25
902.92	0.25
903.654	1.25
904.389	-0.75
905.123	1.25
905.857	0.25
906.59	2.25
907.324	-0.75
908.058	-0.75
908.792	0.25
909.525	1.25
910.259	0.25
910.992	1.25
911.726	0.25
912.459	0.25
913.192	1.25
913.925	1.25
914.658	1.25
915.391	0.25
916.124	0.25
916.857	-0.75
917.59	0.25
918.323	2.25
919.055	0.25
919.788	-0.75
920.521	0.25
921.253	1.25
921.985	-0.75
922.718	2.25
923.45	-1.75
924.182	2.25
924.914	0.25
925.646	1.25
926.378	-0.75
927.11	0.25
927.841	3.25
928.573	1.25
929.305	1.25
930.036	-1.75
930.768	-0.75
931.499	2.25
932.23	1.25
932.962	0.25
933.693	1.25
934.424	-0.75
935.155	0.25
935.886	-0.75
936.617	1.25
937.348	0.25
938.078	-0.75
938.809	0.25
939.54	-0.75
940.27	0.25
941.001	-1.75
941.731	2.25
942.461	2.25
943.191	1.25
943.922	-0.75
944.652	1.25
945.382	1.25
946.112	1.25
946.841	0.25
947.571	-0.75
948.301	-0.75
949.031	0.25
949.76	-1.75
950.49	0.25
951.219	2.25
951.948	-0.75
952.678	0.25
953.407	0.25
954.136	2.25
954.865	0.25
955.594	1.25
956.323	-1.75
957.052	0.25
957.78	0.25
958.509	1.25
959.238	0.25
959.966	-0.75
960.695	0.25
961.423	2.25
962.151	0.25
962.88	-0.75
963.608	0.25
964.336	-1.75
965.064	-0.75
965.792	-1.75
966.52	-0.75
967.247	0.25
967.975	1.25
968.703	-0.75
969.43	-0.75
970.158	1.25
970.885	-0.75
971.613	0.25
972.34	1.25
973.067	2.25
973.794	0.25
974.521	-0.75
975.248	0.25
975.975	1.25
976.702	0.25
977.429	0.25
978.156	1.25
978.882	0.25
979.609	0.25
980.335	-1.75
981.062	0.25
981.788	0.25
982.514	-0.75
983.24	1.25
983.967	2.25
984.693	-0.75
985.419	-1.75
986.144	0.25
986.87	0.25
987.596	0.25
988.322	1.25
989.047	2.25
989.773	-0.75
990.498	-0.75
991.224	0.25
991.949	-0.75
992.674	2.25
993.399	-0.75
994.124	0.25
994.849	1.25
995.574	0.25
996.299	1.25
997.024	-1.75
997.749	-0.75
998.473	0.25
999.198	-0.75
999.922	-0.75
1000.647	-0.75
1001.371	0.25
1002.095	-0.75
1002.82	0.25
1003.544	-1.75
1004.268	0.25
1004.992	4.25
1005.716	2.25
1006.439	2.25
1007.163	5.25
1007.887	0.25
1008.611	-2.75
1009.334	3.25
1010.058	-1.75
1010.781	-0.75
1011.504	-1.75
1012.228	-1.75
1012.951	-1.75
1013.674	1.25
1014.397	1.25
1015.12	1.25
