节点500_425_QEPB04081__613__15-58-30-402.txt的数据

Date: Wed Nov 12 15:58:30 CST 2025
User: PC
Spectrometer: QEPB0408
触发模式: 0
积分时间 (秒): 1.000000E-2
Scans to average: 1
启用暗噪声校正: true
启用非线性校正: false
滑动平均宽度: 0
X轴模式: Wavelengths
Number of Pixels in Spectrum: 1044
>>>>>Begin Spectral Data<<<<<
220.843	2
221.644	3
222.444	1
223.244	4
224.045	2
224.845	5
225.645	3
226.445	4
227.245	3
228.045	6
228.845	4
229.645	4
230.444	5
231.244	5
232.043	3
232.843	4
233.642	4
234.442	5
235.241	6
236.04	5
236.839	5
237.638	5
238.437	7
239.236	8
240.035	8
240.833	6
241.632	6
242.43	9
243.229	9
244.027	9
244.826	6
245.624	7
246.422	7
247.22	9
248.018	10
248.816	9
249.614	11
250.412	7
251.21	9
252.007	9
252.805	9
253.602	11
254.4	10
255.197	8
255.994	10
256.791	11
257.589	11
258.386	12
259.183	11
259.979	11
260.776	15
261.573	17
262.37	12
263.166	12
263.963	15
264.759	13
265.556	16
266.352	16
267.148	16
267.944	16
268.74	20
269.536	19
270.332	17
271.128	18
271.924	18
272.719	19
273.515	19
274.311	21
275.106	20
275.901	20
276.697	18
277.492	18
278.287	22
279.082	23
279.877	21
280.672	22
281.467	25
282.262	25
283.056	24
283.851	23
284.646	24
285.44	19
286.234	18
287.029	21
287.823	20
288.617	24
289.411	23
290.205	21
290.999	22
291.793	25
292.587	24
293.381	19
294.174	23
294.968	23
295.761	21
296.555	19
297.348	22
298.141	19
298.935	18
299.728	18
300.521	17
301.314	18
302.107	16
302.899	17
303.692	16
304.485	14
305.277	18
306.07	19
306.862	18
307.655	13
308.447	14
309.239	18
310.031	14
310.823	14
311.615	13
312.407	13
313.199	13
313.991	12
314.783	12
315.574	10
316.366	11
317.157	11
317.949	10
318.74	10
319.531	10
320.322	11
321.113	10
321.904	11
322.695	9
323.486	8
324.277	8
325.068	8
325.858	9
326.649	11
327.439	7
328.23	11
329.02	8
329.81	11
330.6	8
331.391	11
332.181	10
332.971	8
333.76	8
334.55	7
335.34	9
336.13	8
336.919	10
337.709	10
338.498	9
339.287	10
340.077	8
340.866	10
341.655	7
342.444	9
343.233	8
344.022	8
344.811	10
345.6	7
346.388	8
347.177	12
347.965	6
348.754	10
349.542	5
350.33	8
351.119	7
351.907	9
352.695	8
353.483	6
354.271	8
355.059	8
355.846	7
356.634	9
357.422	8
358.209	6
358.997	5
359.784	5
360.571	7
361.359	6
362.146	6
362.933	4
363.72	6
364.507	7
365.294	7
366.081	5
366.867	6
367.654	9
368.44	4
369.227	6
370.013	7
370.8	8
371.586	6
372.372	5
373.158	7
373.944	7
374.73	6
375.516	8
376.302	6
377.088	8
377.873	7
378.659	6
379.445	6
380.23	7
381.015	7
381.801	5
382.586	9
383.371	4
384.156	6
384.941	8
385.726	7
386.511	7
387.296	6
388.08	8
388.865	8
389.649	7
390.434	9
391.218	5
392.003	7
392.787	9
393.571	6
394.355	8
395.139	10
395.923	10
396.707	8
397.491	11
398.274	10
399.058	8
399.842	6
400.625	8
401.408	10
402.192	10
402.975	9
403.758	8
404.541	8
405.324	10
406.107	9
406.89	10
407.673	10
408.456	9
409.238	10
410.021	10
410.803	11
411.586	12
412.368	10
413.151	12
413.933	10
414.715	14
415.497	10
416.279	12
417.061	15
417.843	12
418.624	15
419.406	11
420.188	14
420.969	14
421.751	16
422.532	15
423.313	14
424.095	15
424.876	17
425.657	17
426.438	14
427.219	18
428	17
428.78	16
429.561	20
430.342	16
431.122	16
431.903	18
432.683	20
433.464	23
434.244	21
435.024	23
435.804	24
436.584	28
437.364	29
438.144	28
438.924	29
439.704	30
440.483	35
441.263	38
442.042	42
442.822	43
443.601	44
444.38	48
445.16	53
445.939	56
446.718	61
447.497	63
448.276	73
449.054	76
449.833	81
450.612	91
451.391	101
452.169	111
452.948	120
453.726	130
454.504	151
455.282	168
456.061	187
456.839	205
457.617	227
458.395	257
459.172	286
459.95	311
460.728	356
461.506	388
462.283	435
463.061	488
463.838	536
464.615	596
465.393	670
466.17	741
466.947	823
467.724	904
468.501	996
469.278	1092
470.055	1218
470.831	1355
471.608	1466
472.385	1621
473.161	1794
473.938	1968
474.714	2168
475.49	2380
476.266	2610
477.043	2820
477.819	3118
478.595	3407
479.371	3702
480.146	4059
480.922	4417
481.698	4811
482.473	5242
483.249	5707
484.024	6223
484.8	6781
485.575	7359
486.35	7906
487.126	8586
487.901	9296
488.676	10094
489.451	10916
490.225	11796
491	12703
491.775	13751
492.55	14725
493.324	15876
494.099	16941
494.873	18062
495.647	19246
496.422	20388
497.196	21708
497.97	23054
498.744	24273
499.518	25507
500.292	26633
501.066	27698
501.839	28845
502.613	29911
503.387	30720
504.16	31340
504.934	31872
505.707	32230
506.48	32317
507.253	32345
508.027	32379
508.8	32086
509.573	31664
510.346	31210
511.118	30497
511.891	29776
512.664	28910
513.437	28012
514.209	27048
514.982	26126
515.754	25247
516.526	24223
517.298	23243
518.071	22323
518.843	21411
519.615	20576
520.387	19757
521.159	19040
521.93	18324
522.702	17574
523.474	16991
524.245	16226
525.017	15595
525.788	14856
526.56	14197
527.331	13616
528.102	13027
528.873	12472
529.644	11848
530.415	11297
531.186	10878
531.957	10320
532.728	9789
533.498	9291
534.269	8766
535.039	8311
535.81	7859
536.58	7482
537.351	7008
538.121	6682
538.891	6335
539.661	6010
540.431	5679
541.201	5367
541.971	5105
542.741	4810
543.51	4592
544.28	4374
545.05	4130
545.819	3970
546.588	3747
547.358	3559
548.127	3376
548.896	3201
549.665	3058
550.434	2910
551.203	2767
551.972	2598
552.741	2485
553.51	2350
554.278	2214
555.047	2091
555.815	1982
556.584	1887
557.352	1770
558.121	1657
558.889	1581
559.657	1488
560.425	1420
561.193	1323
561.961	1268
562.729	1198
563.496	1143
564.264	1066
565.032	1012
565.799	958
566.567	890
567.334	852
568.101	813
568.869	754
569.636	723
570.403	674
571.17	640
571.937	596
572.704	574
573.471	540
574.237	510
575.004	477
575.771	449
576.537	420
577.303	399
578.07	376
578.836	360
579.602	334
580.368	312
581.134	302
581.9	285
582.666	273
583.432	253
584.198	244
584.964	239
585.729	217
586.495	210
587.26	194
588.025	192
588.791	173
589.556	165
590.321	158
591.086	149
591.851	142
592.616	138
593.381	132
594.146	120
594.911	125
595.675	111
596.44	108
597.204	101
597.969	98
598.733	97
599.497	90
600.261	86
601.025	82
601.79	75
602.553	74
603.317	72
604.081	68
604.845	67
605.609	64
606.372	59
607.136	54
607.899	59
608.662	53
609.426	49
610.189	53
610.952	46
611.715	45
612.478	40
613.241	39
614.004	43
614.767	37
615.529	34
616.292	37
617.055	34
617.817	37
618.579	34
619.342	33
620.104	29
620.866	32
621.628	28
622.39	28
623.152	27
623.914	26
624.676	25
625.438	23
626.199	25
626.961	21
627.722	23
628.484	21
629.245	17
630.006	20
630.768	20
631.529	19
632.29	16
633.051	18
633.812	18
634.573	18
635.333	16
636.094	17
636.855	16
637.615	15
638.376	15
639.136	14
639.896	13
640.657	13
641.417	10
642.177	10
642.937	11
643.697	14
644.457	14
645.216	7
645.976	11
646.736	10
647.495	9
648.255	9
649.014	10
649.774	10
650.533	8
651.292	9
652.051	10
652.81	9
653.569	12
654.328	6
655.087	7
655.846	8
656.604	9
657.363	8
658.121	9
658.88	8
659.638	7
660.397	8
661.155	8
661.913	7
662.671	6
663.429	6
664.187	7
664.945	8
665.703	6
666.46	8
667.218	9
667.976	8
668.733	6
669.49	8
670.248	4
671.005	5
671.762	6
672.519	4
673.276	9
674.033	7
674.79	3
675.547	4
676.304	4
677.06	6
677.817	6
678.574	5
679.33	5
680.086	7
680.843	6
681.599	6
682.355	7
683.111	5
683.867	3
684.623	4
685.379	2
686.135	4
686.89	6
687.646	7
688.402	5
689.157	4
689.912	6
690.668	5
691.423	6
692.178	6
692.933	3
693.688	5
694.443	4
695.198	3
695.953	4
696.708	3
697.462	6
698.217	4
698.972	5
699.726	5
700.48	4
701.235	5
701.989	4
702.743	6
703.497	5
704.251	5
705.005	5
705.759	6
706.513	5
707.266	4
708.02	3
708.774	6
709.527	7
710.28	7
711.034	3
711.787	2
712.54	6
713.293	5
714.046	4
714.799	6
715.552	4
716.305	4
717.058	7
717.81	4
718.563	5
719.315	5
720.068	5
720.82	6
721.573	4
722.325	3
723.077	3
723.829	5
724.581	7
725.333	4
726.085	4
726.836	2
727.588	4
728.34	6
729.091	5
729.843	8
730.594	6
731.346	5
732.097	7
732.848	5
733.599	7
734.35	7
735.101	5
735.852	7
736.603	6
737.354	7
738.104	6
738.855	4
739.605	6
740.356	6
741.106	6
741.856	4
742.607	6
743.357	2
744.107	8
744.857	6
745.607	4
746.357	8
747.106	5
747.856	5
748.606	3
749.355	8
750.105	8
750.854	7
751.603	8
752.353	5
753.102	5
753.851	5
754.6	8
755.349	9
756.098	6
756.847	8
757.595	7
758.344	8
759.093	8
759.841	7
760.589	8
761.338	6
762.086	7
762.834	5
763.582	10
764.331	7
765.079	8
765.826	7
766.574	6
767.322	9
768.07	8
768.817	9
769.565	8
770.312	9
771.06	8
771.807	8
772.554	9
773.302	9
774.049	9
774.796	13
775.543	10
776.29	11
777.036	10
777.783	11
778.53	10
779.276	10
780.023	11
780.769	9
781.516	13
782.262	8
783.008	10
783.754	10
784.5	6
785.246	12
785.992	10
786.738	9
787.484	10
788.23	10
788.975	10
789.721	8
790.466	13
791.212	10
791.957	7
792.702	12
793.447	10
794.193	11
794.938	11
795.683	9
796.427	9
797.172	9
797.917	12
798.662	9
799.406	10
800.151	9
800.895	9
801.64	10
802.384	5
803.128	8
803.872	6
804.616	9
805.36	9
806.104	7
806.848	7
807.592	6
808.336	6
809.079	7
809.823	7
810.566	6
811.31	4
812.053	8
812.796	7
813.539	8
814.283	7
815.026	5
815.769	7
816.511	4
817.254	6
817.997	5
818.74	4
819.482	5
820.225	3
820.967	7
821.71	6
822.452	6
823.194	4
823.936	4
824.678	4
825.42	5
826.162	6
826.904	3
827.646	5
828.388	3
829.129	5
829.871	6
830.612	6
831.354	6
832.095	5
832.836	2
833.577	4
834.319	5
835.06	6
835.801	5
836.542	4
837.282	4
838.023	4
838.764	5
839.504	4
840.245	4
840.985	2
841.726	3
842.466	4
843.206	4
843.946	4
844.687	7
845.427	4
846.166	5
846.906	2
847.646	3
848.386	3
849.125	4
849.865	4
850.605	3
851.344	2
852.083	5
852.823	4
853.562	4
854.301	5
855.04	7
855.779	2
856.518	7
857.257	4
857.995	3
858.734	2
859.473	2
860.211	0
860.95	3
861.688	3
862.426	0
863.165	4
863.903	2
864.641	3
865.379	3
866.117	2
866.855	2
867.593	-1
868.33	2
869.068	2
869.806	1
870.543	3
871.28	3
872.018	1
872.755	1
873.492	2
874.229	4
874.967	0
875.703	2
876.44	2
877.177	1
877.914	2
878.651	-2
879.387	2
880.124	2
880.86	2
881.597	0
882.333	3
883.069	3
883.806	0
884.542	2
885.278	2
886.014	0
886.749	0
887.485	1
888.221	1
888.957	2
889.692	2
890.428	-2
891.163	1
891.899	2
892.634	0
893.369	2
894.104	1
894.839	1
895.574	0
896.309	0
897.044	1
897.779	0
898.514	3
899.248	2
899.983	0
900.717	-1
901.452	0
902.186	-1
902.92	-1
903.654	1
904.389	-1
905.123	0
905.857	1
906.59	1
907.324	0
908.058	0
908.792	0
909.525	0
910.259	-1
910.992	1
911.726	1
912.459	0
913.192	-1
913.925	0
914.658	2
915.391	2
916.124	1
916.857	0
917.59	1
918.323	0
919.055	-1
919.788	1
920.521	1
921.253	-2
921.985	1
922.718	-1
923.45	0
924.182	2
924.914	0
925.646	-2
926.378	1
927.11	1
927.841	0
928.573	0
929.305	1
930.036	-1
930.768	1
931.499	-2
932.23	2
932.962	2
933.693	1
934.424	-2
935.155	-2
935.886	-1
936.617	-1
937.348	-2
938.078	-1
938.809	-1
939.54	-1
940.27	1
941.001	2
941.731	1
942.461	1
943.191	0
943.922	-1
944.652	2
945.382	0
946.112	2
946.841	-1
947.571	-2
948.301	-1
949.031	-1
949.76	0
950.49	0
951.219	2
951.948	0
952.678	1
953.407	-1
954.136	-1
954.865	0
955.594	-1
956.323	1
957.052	0
957.78	0
958.509	-2
959.238	1
959.966	0
960.695	-1
961.423	1
962.151	0
962.88	0
963.608	1
964.336	-1
965.064	2
965.792	0
966.52	0
967.247	2
967.975	0
968.703	1
969.43	1
970.158	0
970.885	0
971.613	-1
972.34	2
973.067	-2
973.794	1
974.521	0
975.248	2
975.975	0
976.702	2
977.429	-1
978.156	1
978.882	1
979.609	1
980.335	0
981.062	2
981.788	-2
982.514	2
983.24	0
983.967	0
984.693	0
985.419	-1
986.144	0
986.87	-2
987.596	0
988.322	-1
989.047	-1
989.773	-2
990.498	-1
991.224	-1
991.949	0
992.674	0
993.399	0
994.124	0
994.849	0
995.574	1
996.299	0
997.024	-3
997.749	0
998.473	0
999.198	0
999.922	0
1000.647	1
1001.371	2
1002.095	-1
1002.82	0
1003.544	0
1004.268	1
1004.992	0
1005.716	2
1006.439	2
1007.163	3
1007.887	2
1008.611	1
1009.334	0
1010.058	-1
1010.781	2
1011.504	-2
1012.228	2
1012.951	1
1013.674	-1
1014.397	-1
1015.12	0
