节点500_425_QEPB04081__96__15-49-54-347.txt的数据

Date: Wed Nov 12 15:49:54 CST 2025
User: PC
Spectrometer: QEPB0408
触发模式: 0
积分时间 (秒): 1.000000E-2
Scans to average: 1
启用暗噪声校正: true
启用非线性校正: false
滑动平均宽度: 0
X轴模式: Wavelengths
Number of Pixels in Spectrum: 1044
>>>>>Begin Spectral Data<<<<<
220.843	2.5
221.644	3.5
222.444	1.5
223.244	3.5
224.045	0.5
224.845	3.5
225.645	2.5
226.445	2.5
227.245	4.5
228.045	3.5
228.845	3.5
229.645	5.5
230.444	5.5
231.244	5.5
232.043	3.5
232.843	6.5
233.642	6.5
234.442	6.5
235.241	5.5
236.04	4.5
236.839	6.5
237.638	3.5
238.437	7.5
239.236	5.5
240.035	7.5
240.833	5.5
241.632	6.5
242.43	6.5
243.229	6.5
244.027	9.5
244.826	7.5
245.624	6.5
246.422	9.5
247.22	7.5
248.018	7.5
248.816	9.5
249.614	7.5
250.412	9.5
251.21	11.5
252.007	9.5
252.805	8.5
253.602	10.5
254.4	10.5
255.197	9.5
255.994	13.5
256.791	13.5
257.589	11.5
258.386	13.5
259.183	13.5
259.979	13.5
260.776	12.5
261.573	17.5
262.37	14.5
263.166	17.5
263.963	17.5
264.759	17.5
265.556	15.5
266.352	16.5
267.148	18.5
267.944	17.5
268.74	20.5
269.536	21.5
270.332	18.5
271.128	21.5
271.924	23.5
272.719	21.5
273.515	23.5
274.311	23.5
275.106	23.5
275.901	24.5
276.697	24.5
277.492	23.5
278.287	24.5
279.082	23.5
279.877	24.5
280.672	26.5
281.467	25.5
282.262	26.5
283.056	25.5
283.851	25.5
284.646	25.5
285.44	22.5
286.234	24.5
287.029	24.5
287.823	24.5
288.617	23.5
289.411	23.5
290.205	23.5
290.999	21.5
291.793	24.5
292.587	24.5
293.381	21.5
294.174	24.5
294.968	21.5
295.761	21.5
296.555	21.5
297.348	20.5
298.141	20.5
298.935	21.5
299.728	20.5
300.521	14.5
301.314	19.5
302.107	16.5
302.899	17.5
303.692	20.5
304.485	18.5
305.277	14.5
306.07	15.5
306.862	13.5
307.655	15.5
308.447	14.5
309.239	16.5
310.031	13.5
310.823	15.5
311.615	12.5
312.407	10.5
313.199	10.5
313.991	12.5
314.783	11.5
315.574	10.5
316.366	13.5
317.157	10.5
317.949	10.5
318.74	8.5
319.531	6.5
320.322	12.5
321.113	7.5
321.904	8.5
322.695	8.5
323.486	8.5
324.277	11.5
325.068	8.5
325.858	8.5
326.649	8.5
327.439	9.5
328.23	8.5
329.02	7.5
329.81	7.5
330.6	9.5
331.391	8.5
332.181	8.5
332.971	8.5
333.76	9.5
334.55	7.5
335.34	8.5
336.13	7.5
336.919	7.5
337.709	7.5
338.498	6.5
339.287	7.5
340.077	5.5
340.866	6.5
341.655	7.5
342.444	8.5
343.233	9.5
344.022	7.5
344.811	8.5
345.6	9.5
346.388	9.5
347.177	9.5
347.965	6.5
348.754	5.5
349.542	8.5
350.33	7.5
351.119	6.5
351.907	7.5
352.695	8.5
353.483	5.5
354.271	4.5
355.059	8.5
355.846	7.5
356.634	6.5
357.422	6.5
358.209	5.5
358.997	8.5
359.784	9.5
360.571	6.5
361.359	7.5
362.146	9.5
362.933	5.5
363.72	8.5
364.507	6.5
365.294	7.5
366.081	6.5
366.867	4.5
367.654	6.5
368.44	6.5
369.227	3.5
370.013	7.5
370.8	6.5
371.586	6.5
372.372	5.5
373.158	6.5
373.944	6.5
374.73	3.5
375.516	6.5
376.302	5.5
377.088	7.5
377.873	5.5
378.659	5.5
379.445	6.5
380.23	6.5
381.015	7.5
381.801	5.5
382.586	7.5
383.371	5.5
384.156	8.5
384.941	3.5
385.726	7.5
386.511	6.5
387.296	8.5
388.08	5.5
388.865	7.5
389.649	9.5
390.434	7.5
391.218	6.5
392.003	8.5
392.787	8.5
393.571	8.5
394.355	6.5
395.139	7.5
395.923	7.5
396.707	7.5
397.491	9.5
398.274	8.5
399.058	6.5
399.842	10.5
400.625	6.5
401.408	9.5
402.192	10.5
402.975	7.5
403.758	9.5
404.541	7.5
405.324	9.5
406.107	10.5
406.89	10.5
407.673	10.5
408.456	11.5
409.238	11.5
410.021	8.5
410.803	11.5
411.586	9.5
412.368	12.5
413.151	10.5
413.933	10.5
414.715	15.5
415.497	12.5
416.279	12.5
417.061	12.5
417.843	15.5
418.624	13.5
419.406	13.5
420.188	14.5
420.969	13.5
421.751	12.5
422.532	15.5
423.313	12.5
424.095	17.5
424.876	14.5
425.657	16.5
426.438	15.5
427.219	16.5
428	17.5
428.78	15.5
429.561	18.5
430.342	18.5
431.122	21.5
431.903	22.5
432.683	21.5
433.464	23.5
434.244	24.5
435.024	23.5
435.804	24.5
436.584	25.5
437.364	25.5
438.144	27.5
438.924	31.5
439.704	32.5
440.483	32.5
441.263	35.5
442.042	34.5
442.822	39.5
443.601	40.5
444.38	40.5
445.16	42.5
445.939	52.5
446.718	53.5
447.497	56.5
448.276	62.5
449.054	67.5
449.833	73.5
450.612	79.5
451.391	83.5
452.169	97.5
452.948	106.5
453.726	113.5
454.504	129.5
455.282	144.5
456.061	157.5
456.839	173.5
457.617	193.5
458.395	214.5
459.172	247.5
459.95	267.5
460.728	300.5
461.506	333.5
462.283	377.5
463.061	421.5
463.838	475.5
464.615	527.5
465.393	583.5
466.17	655.5
466.947	731.5
467.724	824.5
468.501	917.5
469.278	1029.5
470.055	1135.5
470.831	1257.5
471.608	1405.5
472.385	1578.5
473.161	1739.5
473.938	1917.5
474.714	2137.5
475.49	2356.5
476.266	2603.5
477.043	2891.5
477.819	3190.5
478.595	3560.5
479.371	3901.5
480.146	4283.5
480.922	4730.5
481.698	5238.5
482.473	5783.5
483.249	6355.5
484.024	6991.5
484.8	7694.5
485.575	8374.5
486.35	9220.5
487.126	10069.5
487.901	11050.5
488.676	12085.5
489.451	13149.5
490.225	14382.5
491	15592.5
491.775	16892.5
492.55	18315.5
493.324	19791.5
494.099	21192.5
494.873	22623.5
495.647	24274.5
496.422	25737.5
497.196	27354.5
497.97	28882.5
498.744	30375.5
499.518	31874.5
500.292	33026.5
501.066	34157.5
501.839	35266.5
502.613	36049.5
503.387	36644.5
504.16	36969.5
504.934	37128.5
505.707	36931.5
506.48	36746.5
507.253	36174.5
508.027	35712.5
508.8	34889.5
509.573	33926.5
510.346	32953.5
511.118	31884.5
511.891	30724.5
512.664	29448.5
513.437	28213.5
514.209	26973.5
514.982	25938.5
515.754	24810.5
516.526	23723.5
517.298	22692.5
518.071	21757.5
518.843	20862.5
519.615	20014.5
520.387	19143.5
521.159	18454.5
521.93	17760.5
522.702	17012.5
523.474	16387.5
524.245	15736.5
525.017	14980.5
525.788	14250.5
526.56	13565.5
527.331	12954.5
528.102	12320.5
528.873	11702.5
529.644	11125.5
530.415	10597.5
531.186	10059.5
531.957	9531.5
532.728	9032.5
533.498	8467.5
534.269	7976.5
535.039	7550.5
535.81	7178.5
536.58	6744.5
537.351	6361.5
538.121	6002.5
538.891	5698.5
539.661	5421.5
540.431	5131.5
541.201	4866.5
541.971	4614.5
542.741	4359.5
543.51	4136.5
544.28	3947.5
545.05	3750.5
545.819	3566.5
546.588	3389.5
547.358	3210.5
548.127	3032.5
548.896	2879.5
549.665	2727.5
550.434	2589.5
551.203	2438.5
551.972	2322.5
552.741	2185.5
553.51	2055.5
554.278	1945.5
555.047	1836.5
555.815	1726.5
556.584	1645.5
557.352	1544.5
558.121	1441.5
558.889	1375.5
559.657	1287.5
560.425	1224.5
561.193	1153.5
561.961	1098.5
562.729	1031.5
563.496	986.5
564.264	933.5
565.032	897.5
565.799	836.5
566.567	786.5
567.334	747.5
568.101	699.5
568.869	674.5
569.636	626.5
570.403	580.5
571.17	563.5
571.937	527.5
572.704	498.5
573.471	465.5
574.237	441.5
575.004	417.5
575.771	391.5
576.537	366.5
577.303	341.5
578.07	317.5
578.836	309.5
579.602	289.5
580.368	273.5
581.134	259.5
581.9	249.5
582.666	237.5
583.432	219.5
584.198	209.5
584.964	202.5
585.729	189.5
586.495	182.5
587.26	176.5
588.025	166.5
588.791	162.5
589.556	150.5
590.321	136.5
591.086	132.5
591.851	125.5
592.616	115.5
593.381	110.5
594.146	107.5
594.911	101.5
595.675	97.5
596.44	96.5
597.204	90.5
597.969	82.5
598.733	77.5
599.497	78.5
600.261	76.5
601.025	70.5
601.79	66.5
602.553	62.5
603.317	63.5
604.081	55.5
604.845	56.5
605.609	55.5
606.372	57.5
607.136	50.5
607.899	47.5
608.662	49.5
609.426	46.5
610.189	42.5
610.952	42.5
611.715	39.5
612.478	40.5
613.241	35.5
614.004	35.5
614.767	35.5
615.529	33.5
616.292	33.5
617.055	32.5
617.817	29.5
618.579	29.5
619.342	29.5
620.104	26.5
620.866	25.5
621.628	26.5
622.39	22.5
623.152	23.5
623.914	24.5
624.676	22.5
625.438	23.5
626.199	20.5
626.961	20.5
627.722	19.5
628.484	19.5
629.245	18.5
630.006	15.5
630.768	16.5
631.529	20.5
632.29	15.5
633.051	13.5
633.812	17.5
634.573	13.5
635.333	15.5
636.094	11.5
636.855	15.5
637.615	12.5
638.376	13.5
639.136	14.5
639.896	13.5
640.657	10.5
641.417	11.5
642.177	11.5
642.937	8.5
643.697	11.5
644.457	10.5
645.216	9.5
645.976	11.5
646.736	11.5
647.495	9.5
648.255	11.5
649.014	9.5
649.774	9.5
650.533	9.5
651.292	9.5
652.051	9.5
652.81	8.5
653.569	7.5
654.328	6.5
655.087	9.5
655.846	6.5
656.604	6.5
657.363	7.5
658.121	6.5
658.88	5.5
659.638	9.5
660.397	9.5
661.155	7.5
661.913	7.5
662.671	4.5
663.429	5.5
664.187	7.5
664.945	4.5
665.703	7.5
666.46	4.5
667.218	5.5
667.976	3.5
668.733	4.5
669.49	6.5
670.248	4.5
671.005	5.5
671.762	6.5
672.519	6.5
673.276	3.5
674.033	5.5
674.79	6.5
675.547	5.5
676.304	3.5
677.06	4.5
677.817	5.5
678.574	6.5
679.33	6.5
680.086	4.5
680.843	4.5
681.599	5.5
682.355	4.5
683.111	6.5
683.867	4.5
684.623	6.5
685.379	6.5
686.135	4.5
686.89	4.5
687.646	5.5
688.402	3.5
689.157	5.5
689.912	5.5
690.668	4.5
691.423	3.5
692.178	3.5
692.933	5.5
693.688	4.5
694.443	1.5
695.198	3.5
695.953	3.5
696.708	2.5
697.462	4.5
698.217	4.5
698.972	4.5
699.726	2.5
700.48	6.5
701.235	2.5
701.989	3.5
702.743	3.5
703.497	4.5
704.251	4.5
705.005	4.5
705.759	6.5
706.513	4.5
707.266	5.5
708.02	5.5
708.774	5.5
709.527	4.5
710.28	4.5
711.034	4.5
711.787	4.5
712.54	5.5
713.293	2.5
714.046	4.5
714.799	4.5
715.552	5.5
716.305	5.5
717.058	3.5
717.81	3.5
718.563	3.5
719.315	2.5
720.068	3.5
720.82	4.5
721.573	5.5
722.325	3.5
723.077	5.5
723.829	3.5
724.581	1.5
725.333	5.5
726.085	6.5
726.836	6.5
727.588	3.5
728.34	4.5
729.091	5.5
729.843	5.5
730.594	3.5
731.346	4.5
732.097	5.5
732.848	5.5
733.599	3.5
734.35	5.5
735.101	6.5
735.852	7.5
736.603	3.5
737.354	6.5
738.104	6.5
738.855	6.5
739.605	6.5
740.356	8.5
741.106	5.5
741.856	7.5
742.607	4.5
743.357	7.5
744.107	7.5
744.857	5.5
745.607	4.5
746.357	6.5
747.106	7.5
747.856	5.5
748.606	8.5
749.355	6.5
750.105	5.5
750.854	6.5
751.603	7.5
752.353	7.5
753.102	7.5
753.851	7.5
754.6	8.5
755.349	7.5
756.098	10.5
756.847	7.5
757.595	6.5
758.344	7.5
759.093	8.5
759.841	6.5
760.589	4.5
761.338	8.5
762.086	6.5
762.834	9.5
763.582	9.5
764.331	7.5
765.079	9.5
765.826	6.5
766.574	11.5
767.322	9.5
768.07	10.5
768.817	8.5
769.565	7.5
770.312	13.5
771.06	11.5
771.807	9.5
772.554	11.5
773.302	9.5
774.049	8.5
774.796	10.5
775.543	11.5
776.29	11.5
777.036	10.5
777.783	11.5
778.53	9.5
779.276	13.5
780.023	9.5
780.769	11.5
781.516	12.5
782.262	12.5
783.008	12.5
783.754	10.5
784.5	11.5
785.246	11.5
785.992	11.5
786.738	9.5
787.484	10.5
788.23	9.5
788.975	11.5
789.721	11.5
790.466	11.5
791.212	9.5
791.957	9.5
792.702	7.5
793.447	11.5
794.193	9.5
794.938	8.5
795.683	12.5
796.427	8.5
797.172	9.5
797.917	9.5
798.662	9.5
799.406	7.5
800.151	9.5
800.895	10.5
801.64	9.5
802.384	9.5
803.128	8.5
803.872	9.5
804.616	7.5
805.36	7.5
806.104	7.5
806.848	6.5
807.592	10.5
808.336	9.5
809.079	6.5
809.823	8.5
810.566	7.5
811.31	7.5
812.053	4.5
812.796	9.5
813.539	5.5
814.283	6.5
815.026	7.5
815.769	4.5
816.511	6.5
817.254	4.5
817.997	5.5
818.74	5.5
819.482	3.5
820.225	5.5
820.967	4.5
821.71	8.5
822.452	4.5
823.194	5.5
823.936	6.5
824.678	5.5
825.42	2.5
826.162	4.5
826.904	4.5
827.646	4.5
828.388	4.5
829.129	2.5
829.871	3.5
830.612	3.5
831.354	4.5
832.095	3.5
832.836	5.5
833.577	5.5
834.319	6.5
835.06	1.5
835.801	5.5
836.542	2.5
837.282	2.5
838.023	4.5
838.764	2.5
839.504	3.5
840.245	4.5
840.985	6.5
841.726	4.5
842.466	3.5
843.206	3.5
843.946	4.5
844.687	3.5
845.427	1.5
846.166	2.5
846.906	2.5
847.646	2.5
848.386	1.5
849.125	3.5
849.865	2.5
850.605	2.5
851.344	4.5
852.083	4.5
852.823	3.5
853.562	1.5
854.301	1.5
855.04	2.5
855.779	4.5
856.518	1.5
857.257	0.5
857.995	0.5
858.734	1.5
859.473	1.5
860.211	2.5
860.95	1.5
861.688	4.5
862.426	1.5
863.165	1.5
863.903	2.5
864.641	1.5
865.379	1.5
866.117	3.5
866.855	1.5
867.593	-0.5
868.33	1.5
869.068	1.5
869.806	1.5
870.543	1.5
871.28	-0.5
872.018	0.5
872.755	2.5
873.492	1.5
874.229	2.5
874.967	1.5
875.703	-0.5
876.44	2.5
877.177	1.5
877.914	-0.5
878.651	2.5
879.387	0.5
880.124	2.5
880.86	0.5
881.597	-2.5
882.333	1.5
883.069	0.5
883.806	1.5
884.542	0.5
885.278	1.5
886.014	3.5
886.749	-0.5
887.485	0.5
888.221	1.5
888.957	1.5
889.692	-2.5
890.428	1.5
891.163	-0.5
891.899	0.5
892.634	0.5
893.369	0.5
894.104	0.5
894.839	1.5
895.574	-0.5
896.309	-1.5
897.044	0.5
897.779	0.5
898.514	-0.5
899.248	0.5
899.983	-0.5
900.717	0.5
901.452	0.5
902.186	1.5
902.92	0.5
903.654	0.5
904.389	1.5
905.123	1.5
905.857	0.5
906.59	-2.5
907.324	-1.5
908.058	0.5
908.792	-0.5
909.525	1.5
910.259	-0.5
910.992	-2.5
911.726	0.5
912.459	0.5
913.192	0.5
913.925	-0.5
914.658	-0.5
915.391	-0.5
916.124	1.5
916.857	-0.5
917.59	-0.5
918.323	-0.5
919.055	0.5
919.788	0.5
920.521	1.5
921.253	-0.5
921.985	1.5
922.718	-0.5
923.45	-0.5
924.182	0.5
924.914	0.5
925.646	-0.5
926.378	1.5
927.11	0.5
927.841	-1.5
928.573	1.5
929.305	-0.5
930.036	-2.5
930.768	-0.5
931.499	1.5
932.23	0.5
932.962	-1.5
933.693	-0.5
934.424	-0.5
935.155	0.5
935.886	0.5
936.617	-0.5
937.348	-2.5
938.078	-1.5
938.809	-0.5
939.54	-1.5
940.27	-0.5
941.001	-0.5
941.731	-0.5
942.461	-2.5
943.191	-0.5
943.922	-1.5
944.652	-0.5
945.382	0.5
946.112	-3.5
946.841	-0.5
947.571	-1.5
948.301	-1.5
949.031	-0.5
949.76	-1.5
950.49	0.5
951.219	1.5
951.948	1.5
952.678	-1.5
953.407	1.5
954.136	1.5
954.865	0.5
955.594	0.5
956.323	-2.5
957.052	2.5
957.78	-0.5
958.509	-0.5
959.238	1.5
959.966	-2.5
960.695	0.5
961.423	-1.5
962.151	0.5
962.88	-0.5
963.608	-0.5
964.336	0.5
965.064	-3.5
965.792	0.5
966.52	-0.5
967.247	0.5
967.975	2.5
968.703	-1.5
969.43	-4.5
970.158	-2.5
970.885	0.5
971.613	-2.5
972.34	0.5
973.067	-1.5
973.794	-0.5
974.521	-2.5
975.248	-2.5
975.975	0.5
976.702	-0.5
977.429	-1.5
978.156	2.5
978.882	-0.5
979.609	0.5
980.335	-1.5
981.062	0.5
981.788	-2.5
982.514	-3.5
983.24	0.5
983.967	0.5
984.693	-0.5
985.419	-1.5
986.144	-0.5
986.87	0.5
987.596	-3.5
988.322	-0.5
989.047	-1.5
989.773	-1.5
990.498	-0.5
991.224	-1.5
991.949	0.5
992.674	-0.5
993.399	0.5
994.124	0.5
994.849	-1.5
995.574	-0.5
996.299	-2.5
997.024	-0.5
997.749	0.5
998.473	0.5
999.198	-2.5
999.922	0.5
1000.647	2.5
1001.371	4.5
1002.095	-0.5
1002.82	-0.5
1003.544	-2.5
1004.268	0.5
1004.992	-0.5
1005.716	1.5
1006.439	1.5
1007.163	4.5
1007.887	2.5
1008.611	-1.5
1009.334	-0.5
1010.058	-1.5
1010.781	-2.5
1011.504	-0.5
1012.228	-0.5
1012.951	0.5
1013.674	-0.5
1014.397	-1.5
1015.12	0.5
