节点500_425_QEPB04081__238__15-52-15-997.txt的数据

Date: Wed Nov 12 15:52:15 CST 2025
User: PC
Spectrometer: QEPB0408
触发模式: 0
积分时间 (秒): 1.000000E-2
Scans to average: 1
启用暗噪声校正: true
启用非线性校正: false
滑动平均宽度: 0
X轴模式: Wavelengths
Number of Pixels in Spectrum: 1044
>>>>>Begin Spectral Data<<<<<
220.843	1.5
221.644	3.5
222.444	2.5
223.244	1.5
224.045	4.5
224.845	2.5
225.645	4.5
226.445	5.5
227.245	2.5
228.045	5.5
228.845	5.5
229.645	5.5
230.444	4.5
231.244	6.5
232.043	5.5
232.843	4.5
233.642	5.5
234.442	6.5
235.241	5.5
236.04	5.5
236.839	7.5
237.638	6.5
238.437	5.5
239.236	4.5
240.035	3.5
240.833	8.5
241.632	7.5
242.43	7.5
243.229	7.5
244.027	6.5
244.826	8.5
245.624	7.5
246.422	8.5
247.22	9.5
248.018	9.5
248.816	11.5
249.614	10.5
250.412	11.5
251.21	10.5
252.007	7.5
252.805	12.5
253.602	9.5
254.4	14.5
255.197	13.5
255.994	14.5
256.791	14.5
257.589	12.5
258.386	14.5
259.183	12.5
259.979	17.5
260.776	14.5
261.573	13.5
262.37	17.5
263.166	15.5
263.963	15.5
264.759	17.5
265.556	17.5
266.352	17.5
267.148	18.5
267.944	17.5
268.74	20.5
269.536	21.5
270.332	21.5
271.128	19.5
271.924	22.5
272.719	21.5
273.515	22.5
274.311	23.5
275.106	26.5
275.901	26.5
276.697	23.5
277.492	26.5
278.287	23.5
279.082	22.5
279.877	26.5
280.672	26.5
281.467	26.5
282.262	24.5
283.056	26.5
283.851	25.5
284.646	26.5
285.44	23.5
286.234	28.5
287.029	27.5
287.823	22.5
288.617	26.5
289.411	23.5
290.205	25.5
290.999	24.5
291.793	25.5
292.587	23.5
293.381	24.5
294.174	24.5
294.968	21.5
295.761	21.5
296.555	17.5
297.348	16.5
298.141	18.5
298.935	23.5
299.728	18.5
300.521	19.5
301.314	19.5
302.107	17.5
302.899	15.5
303.692	19.5
304.485	15.5
305.277	17.5
306.07	16.5
306.862	15.5
307.655	16.5
308.447	16.5
309.239	15.5
310.031	17.5
310.823	13.5
311.615	11.5
312.407	15.5
313.199	12.5
313.991	10.5
314.783	12.5
315.574	14.5
316.366	11.5
317.157	10.5
317.949	12.5
318.74	8.5
319.531	12.5
320.322	10.5
321.113	10.5
321.904	11.5
322.695	11.5
323.486	12.5
324.277	9.5
325.068	10.5
325.858	8.5
326.649	9.5
327.439	8.5
328.23	11.5
329.02	10.5
329.81	9.5
330.6	9.5
331.391	10.5
332.181	9.5
332.971	8.5
333.76	7.5
334.55	10.5
335.34	10.5
336.13	10.5
336.919	7.5
337.709	7.5
338.498	7.5
339.287	9.5
340.077	8.5
340.866	10.5
341.655	6.5
342.444	8.5
343.233	8.5
344.022	9.5
344.811	6.5
345.6	8.5
346.388	9.5
347.177	8.5
347.965	9.5
348.754	8.5
349.542	7.5
350.33	8.5
351.119	6.5
351.907	10.5
352.695	6.5
353.483	7.5
354.271	7.5
355.059	7.5
355.846	5.5
356.634	5.5
357.422	8.5
358.209	5.5
358.997	7.5
359.784	7.5
360.571	7.5
361.359	8.5
362.146	5.5
362.933	8.5
363.72	8.5
364.507	8.5
365.294	5.5
366.081	4.5
366.867	6.5
367.654	6.5
368.44	7.5
369.227	5.5
370.013	7.5
370.8	7.5
371.586	6.5
372.372	7.5
373.158	9.5
373.944	6.5
374.73	6.5
375.516	4.5
376.302	7.5
377.088	5.5
377.873	6.5
378.659	7.5
379.445	7.5
380.23	7.5
381.015	6.5
381.801	6.5
382.586	7.5
383.371	7.5
384.156	8.5
384.941	8.5
385.726	7.5
386.511	4.5
387.296	8.5
388.08	7.5
388.865	9.5
389.649	8.5
390.434	8.5
391.218	8.5
392.003	7.5
392.787	7.5
393.571	8.5
394.355	8.5
395.139	10.5
395.923	7.5
396.707	9.5
397.491	10.5
398.274	9.5
399.058	10.5
399.842	9.5
400.625	9.5
401.408	9.5
402.192	11.5
402.975	8.5
403.758	10.5
404.541	8.5
405.324	11.5
406.107	11.5
406.89	10.5
407.673	11.5
408.456	10.5
409.238	8.5
410.021	11.5
410.803	10.5
411.586	12.5
412.368	14.5
413.151	12.5
413.933	12.5
414.715	11.5
415.497	12.5
416.279	12.5
417.061	11.5
417.843	14.5
418.624	12.5
419.406	15.5
420.188	14.5
420.969	13.5
421.751	15.5
422.532	14.5
423.313	17.5
424.095	13.5
424.876	16.5
425.657	18.5
426.438	18.5
427.219	18.5
428	17.5
428.78	18.5
429.561	18.5
430.342	20.5
431.122	20.5
431.903	23.5
432.683	21.5
433.464	18.5
434.244	24.5
435.024	23.5
435.804	28.5
436.584	26.5
437.364	27.5
438.144	29.5
438.924	30.5
439.704	31.5
440.483	32.5
441.263	36.5
442.042	36.5
442.822	37.5
443.601	39.5
444.38	44.5
445.16	52.5
445.939	55.5
446.718	54.5
447.497	59.5
448.276	68.5
449.054	68.5
449.833	77.5
450.612	83.5
451.391	94.5
452.169	100.5
452.948	110.5
453.726	123.5
454.504	135.5
455.282	151.5
456.061	166.5
456.839	186.5
457.617	201.5
458.395	223.5
459.172	260.5
459.95	285.5
460.728	324.5
461.506	341.5
462.283	402.5
463.061	442.5
463.838	495.5
464.615	548.5
465.393	616.5
466.17	689.5
466.947	763.5
467.724	844.5
468.501	942.5
469.278	1050.5
470.055	1152.5
470.831	1285.5
471.608	1432.5
472.385	1587.5
473.161	1775.5
473.938	1945.5
474.714	2146.5
475.49	2395.5
476.266	2631.5
477.043	2895.5
477.819	3205.5
478.595	3518.5
479.371	3858.5
480.146	4240.5
480.922	4682.5
481.698	5133.5
482.473	5633.5
483.249	6153.5
484.024	6786.5
484.8	7448.5
485.575	8112.5
486.35	8882.5
487.126	9696.5
487.901	10566.5
488.676	11536.5
489.451	12549.5
490.225	13620.5
491	14776.5
491.775	16021.5
492.55	17273.5
493.324	18674.5
494.099	20102.5
494.873	21422.5
495.647	22906.5
496.422	24337.5
497.196	25820.5
497.97	27295.5
498.744	28734.5
499.518	30050.5
500.292	31322.5
501.066	32406.5
501.839	33647.5
502.613	34529.5
503.387	35163.5
504.16	35649.5
504.934	35863.5
505.707	35894.5
506.48	35804.5
507.253	35400.5
508.027	34917.5
508.8	34354.5
509.573	33582.5
510.346	32705.5
511.118	31704.5
511.891	30720.5
512.664	29545.5
513.437	28318.5
514.209	27121.5
514.982	26250.5
515.754	25053.5
516.526	24035.5
517.298	22962.5
518.071	21985.5
518.843	21118.5
519.615	20235.5
520.387	19379.5
521.159	18699.5
521.93	18002.5
522.702	17256.5
523.474	16588.5
524.245	15886.5
525.017	15214.5
525.788	14467.5
526.56	13758.5
527.331	13186.5
528.102	12572.5
528.873	11987.5
529.644	11385.5
530.415	10845.5
531.186	10294.5
531.957	9776.5
532.728	9256.5
533.498	8732.5
534.269	8226.5
535.039	7833.5
535.81	7382.5
536.58	7004.5
537.351	6550.5
538.121	6210.5
538.891	5882.5
539.661	5553.5
540.431	5308.5
541.201	5005.5
541.971	4739.5
542.741	4505.5
543.51	4253.5
544.28	4066.5
545.05	3854.5
545.819	3711.5
546.588	3510.5
547.358	3305.5
548.127	3146.5
548.896	2973.5
549.665	2836.5
550.434	2690.5
551.203	2545.5
551.972	2413.5
552.741	2265.5
553.51	2146.5
554.278	2027.5
555.047	1894.5
555.815	1818.5
556.584	1703.5
557.352	1598.5
558.121	1511.5
558.889	1441.5
559.657	1359.5
560.425	1284.5
561.193	1201.5
561.961	1138.5
562.729	1085.5
563.496	1023.5
564.264	986.5
565.032	918.5
565.799	858.5
566.567	826.5
567.334	778.5
568.101	746.5
568.869	686.5
569.636	659.5
570.403	613.5
571.17	574.5
571.937	550.5
572.704	511.5
573.471	491.5
574.237	457.5
575.004	430.5
575.771	410.5
576.537	374.5
577.303	362.5
578.07	348.5
578.836	320.5
579.602	304.5
580.368	291.5
581.134	269.5
581.9	271.5
582.666	244.5
583.432	231.5
584.198	219.5
584.964	207.5
585.729	198.5
586.495	190.5
587.26	183.5
588.025	168.5
588.791	161.5
589.556	151.5
590.321	142.5
591.086	137.5
591.851	129.5
592.616	124.5
593.381	119.5
594.146	110.5
594.911	104.5
595.675	103.5
596.44	95.5
597.204	91.5
597.969	89.5
598.733	87.5
599.497	83.5
600.261	79.5
601.025	74.5
601.79	71.5
602.553	69.5
603.317	67.5
604.081	63.5
604.845	61.5
605.609	56.5
606.372	55.5
607.136	54.5
607.899	49.5
608.662	49.5
609.426	45.5
610.189	45.5
610.952	45.5
611.715	41.5
612.478	41.5
613.241	39.5
614.004	37.5
614.767	36.5
615.529	33.5
616.292	33.5
617.055	31.5
617.817	29.5
618.579	31.5
619.342	31.5
620.104	29.5
620.866	27.5
621.628	27.5
622.39	29.5
623.152	25.5
623.914	22.5
624.676	23.5
625.438	22.5
626.199	22.5
626.961	22.5
627.722	21.5
628.484	22.5
629.245	16.5
630.006	19.5
630.768	16.5
631.529	19.5
632.29	15.5
633.051	19.5
633.812	17.5
634.573	13.5
635.333	14.5
636.094	15.5
636.855	14.5
637.615	15.5
638.376	14.5
639.136	15.5
639.896	13.5
640.657	13.5
641.417	12.5
642.177	13.5
642.937	12.5
643.697	9.5
644.457	14.5
645.216	11.5
645.976	10.5
646.736	12.5
647.495	10.5
648.255	11.5
649.014	12.5
649.774	8.5
650.533	8.5
651.292	10.5
652.051	10.5
652.81	10.5
653.569	8.5
654.328	9.5
655.087	8.5
655.846	11.5
656.604	9.5
657.363	8.5
658.121	9.5
658.88	6.5
659.638	11.5
660.397	7.5
661.155	7.5
661.913	8.5
662.671	8.5
663.429	6.5
664.187	8.5
664.945	8.5
665.703	4.5
666.46	7.5
667.218	8.5
667.976	7.5
668.733	8.5
669.49	7.5
670.248	6.5
671.005	8.5
671.762	3.5
672.519	7.5
673.276	5.5
674.033	6.5
674.79	4.5
675.547	5.5
676.304	6.5
677.06	5.5
677.817	6.5
678.574	6.5
679.33	4.5
680.086	9.5
680.843	4.5
681.599	5.5
682.355	4.5
683.111	6.5
683.867	6.5
684.623	4.5
685.379	7.5
686.135	5.5
686.89	4.5
687.646	6.5
688.402	5.5
689.157	6.5
689.912	4.5
690.668	6.5
691.423	5.5
692.178	5.5
692.933	6.5
693.688	3.5
694.443	7.5
695.198	5.5
695.953	6.5
696.708	3.5
697.462	6.5
698.217	5.5
698.972	1.5
699.726	7.5
700.48	5.5
701.235	6.5
701.989	4.5
702.743	4.5
703.497	5.5
704.251	6.5
705.005	5.5
705.759	4.5
706.513	5.5
707.266	7.5
708.02	6.5
708.774	6.5
709.527	4.5
710.28	8.5
711.034	5.5
711.787	6.5
712.54	3.5
713.293	5.5
714.046	3.5
714.799	5.5
715.552	4.5
716.305	2.5
717.058	5.5
717.81	6.5
718.563	4.5
719.315	5.5
720.068	4.5
720.82	6.5
721.573	6.5
722.325	3.5
723.077	6.5
723.829	5.5
724.581	3.5
725.333	5.5
726.085	3.5
726.836	5.5
727.588	8.5
728.34	5.5
729.091	6.5
729.843	7.5
730.594	5.5
731.346	5.5
732.097	6.5
732.848	7.5
733.599	9.5
734.35	6.5
735.101	6.5
735.852	8.5
736.603	8.5
737.354	5.5
738.104	6.5
738.855	6.5
739.605	5.5
740.356	4.5
741.106	9.5
741.856	7.5
742.607	6.5
743.357	7.5
744.107	5.5
744.857	6.5
745.607	7.5
746.357	9.5
747.106	7.5
747.856	7.5
748.606	7.5
749.355	7.5
750.105	8.5
750.854	6.5
751.603	5.5
752.353	11.5
753.102	7.5
753.851	5.5
754.6	8.5
755.349	7.5
756.098	7.5
756.847	9.5
757.595	9.5
758.344	7.5
759.093	8.5
759.841	7.5
760.589	7.5
761.338	10.5
762.086	9.5
762.834	6.5
763.582	9.5
764.331	10.5
765.079	8.5
765.826	11.5
766.574	10.5
767.322	10.5
768.07	8.5
768.817	9.5
769.565	11.5
770.312	12.5
771.06	7.5
771.807	7.5
772.554	10.5
773.302	9.5
774.049	12.5
774.796	10.5
775.543	12.5
776.29	13.5
777.036	9.5
777.783	10.5
778.53	12.5
779.276	12.5
780.023	12.5
780.769	12.5
781.516	9.5
782.262	11.5
783.008	11.5
783.754	14.5
784.5	10.5
785.246	10.5
785.992	12.5
786.738	9.5
787.484	13.5
788.23	13.5
788.975	11.5
789.721	10.5
790.466	10.5
791.212	11.5
791.957	10.5
792.702	10.5
793.447	13.5
794.193	11.5
794.938	11.5
795.683	9.5
796.427	12.5
797.172	9.5
797.917	10.5
798.662	10.5
799.406	7.5
800.151	10.5
800.895	9.5
801.64	9.5
802.384	7.5
803.128	9.5
803.872	11.5
804.616	9.5
805.36	8.5
806.104	8.5
806.848	6.5
807.592	6.5
808.336	8.5
809.079	8.5
809.823	4.5
810.566	6.5
811.31	6.5
812.053	8.5
812.796	4.5
813.539	5.5
814.283	7.5
815.026	4.5
815.769	7.5
816.511	6.5
817.254	9.5
817.997	5.5
818.74	4.5
819.482	8.5
820.225	7.5
820.967	4.5
821.71	5.5
822.452	7.5
823.194	5.5
823.936	4.5
824.678	6.5
825.42	7.5
826.162	4.5
826.904	3.5
827.646	4.5
828.388	6.5
829.129	5.5
829.871	7.5
830.612	5.5
831.354	5.5
832.095	5.5
832.836	3.5
833.577	4.5
834.319	5.5
835.06	2.5
835.801	5.5
836.542	5.5
837.282	4.5
838.023	4.5
838.764	3.5
839.504	5.5
840.245	5.5
840.985	5.5
841.726	4.5
842.466	3.5
843.206	1.5
843.946	3.5
844.687	6.5
845.427	4.5
846.166	4.5
846.906	2.5
847.646	3.5
848.386	4.5
849.125	3.5
849.865	2.5
850.605	5.5
851.344	4.5
852.083	1.5
852.823	2.5
853.562	5.5
854.301	1.5
855.04	4.5
855.779	3.5
856.518	3.5
857.257	3.5
857.995	2.5
858.734	3.5
859.473	2.5
860.211	4.5
860.95	2.5
861.688	3.5
862.426	2.5
863.165	0.5
863.903	2.5
864.641	2.5
865.379	2.5
866.117	2.5
866.855	2.5
867.593	2.5
868.33	0.5
869.068	2.5
869.806	1.5
870.543	4.5
871.28	2.5
872.018	1.5
872.755	1.5
873.492	0.5
874.229	2.5
874.967	0.5
875.703	2.5
876.44	1.5
877.177	0.5
877.914	3.5
878.651	2.5
879.387	2.5
880.124	3.5
880.86	1.5
881.597	1.5
882.333	1.5
883.069	1.5
883.806	2.5
884.542	-0.5
885.278	0.5
886.014	0.5
886.749	2.5
887.485	3.5
888.221	0.5
888.957	2.5
889.692	1.5
890.428	3.5
891.163	1.5
891.899	0.5
892.634	-0.5
893.369	4.5
894.104	1.5
894.839	1.5
895.574	0.5
896.309	2.5
897.044	2.5
897.779	2.5
898.514	0.5
899.248	4.5
899.983	1.5
900.717	-0.5
901.452	1.5
902.186	2.5
902.92	0.5
903.654	1.5
904.389	0.5
905.123	1.5
905.857	0.5
906.59	0.5
907.324	0.5
908.058	3.5
908.792	-1.5
909.525	2.5
910.259	1.5
910.992	0.5
911.726	-0.5
912.459	0.5
913.192	1.5
913.925	0.5
914.658	0.5
915.391	0.5
916.124	-0.5
916.857	2.5
917.59	2.5
918.323	0.5
919.055	2.5
919.788	0.5
920.521	1.5
921.253	-0.5
921.985	2.5
922.718	0.5
923.45	0.5
924.182	0.5
924.914	0.5
925.646	2.5
926.378	0.5
927.11	-0.5
927.841	0.5
928.573	0.5
929.305	0.5
930.036	0.5
930.768	3.5
931.499	0.5
932.23	0.5
932.962	1.5
933.693	1.5
934.424	1.5
935.155	2.5
935.886	-1.5
936.617	-0.5
937.348	1.5
938.078	0.5
938.809	0.5
939.54	1.5
940.27	1.5
941.001	1.5
941.731	-0.5
942.461	1.5
943.191	-0.5
943.922	2.5
944.652	0.5
945.382	-0.5
946.112	-0.5
946.841	-1.5
947.571	0.5
948.301	1.5
949.031	-0.5
949.76	-1.5
950.49	1.5
951.219	0.5
951.948	1.5
952.678	0.5
953.407	-0.5
954.136	1.5
954.865	1.5
955.594	-0.5
956.323	0.5
957.052	2.5
957.78	0.5
958.509	2.5
959.238	2.5
959.966	-0.5
960.695	1.5
961.423	1.5
962.151	0.5
962.88	1.5
963.608	0.5
964.336	-0.5
965.064	0.5
965.792	2.5
966.52	0.5
967.247	-0.5
967.975	1.5
968.703	0.5
969.43	2.5
970.158	-1.5
970.885	1.5
971.613	0.5
972.34	0.5
973.067	0.5
973.794	-2.5
974.521	2.5
975.248	0.5
975.975	-0.5
976.702	2.5
977.429	-0.5
978.156	2.5
978.882	-0.5
979.609	0.5
980.335	1.5
981.062	1.5
981.788	0.5
982.514	-1.5
983.24	0.5
983.967	1.5
984.693	0.5
985.419	2.5
986.144	-0.5
986.87	-0.5
987.596	-0.5
988.322	0.5
989.047	2.5
989.773	-0.5
990.498	2.5
991.224	-1.5
991.949	1.5
992.674	0.5
993.399	1.5
994.124	-0.5
994.849	-1.5
995.574	2.5
996.299	-0.5
997.024	1.5
997.749	2.5
998.473	-0.5
999.198	0.5
999.922	0.5
1000.647	0.5
1001.371	1.5
1002.095	-0.5
1002.82	-2.5
1003.544	0.5
1004.268	3.5
1004.992	2.5
1005.716	1.5
1006.439	4.5
1007.163	5.5
1007.887	5.5
1008.611	1.5
1009.334	0.5
1010.058	1.5
1010.781	-0.5
1011.504	0.5
1012.228	0.5
1012.951	-0.5
1013.674	0.5
1014.397	0.5
1015.12	0.5
