节点500_425_QEPB04081__317__15-53-34-853.txt的数据

Date: Wed Nov 12 15:53:34 CST 2025
User: PC
Spectrometer: QEPB0408
触发模式: 0
积分时间 (秒): 1.000000E-2
Scans to average: 1
启用暗噪声校正: true
启用非线性校正: false
滑动平均宽度: 0
X轴模式: Wavelengths
Number of Pixels in Spectrum: 1044
>>>>>Begin Spectral Data<<<<<
220.843	5.12
221.644	1.12
222.444	2.12
223.244	4.12
224.045	2.12
224.845	2.12
225.645	5.12
226.445	3.12
227.245	5.12
228.045	4.12
228.845	5.12
229.645	2.12
230.444	6.12
231.244	3.12
232.043	5.12
232.843	6.12
233.642	3.12
234.442	6.12
235.241	5.12
236.04	5.12
236.839	8.12
237.638	5.12
238.437	5.12
239.236	6.12
240.035	6.12
240.833	6.12
241.632	9.12
242.43	6.12
243.229	7.12
244.027	7.12
244.826	9.12
245.624	5.12
246.422	10.12
247.22	10.12
248.018	9.12
248.816	10.12
249.614	11.12
250.412	10.12
251.21	11.12
252.007	10.12
252.805	8.12
253.602	9.12
254.4	12.12
255.197	12.12
255.994	12.12
256.791	12.12
257.589	10.12
258.386	11.12
259.183	13.12
259.979	14.12
260.776	14.12
261.573	16.12
262.37	13.12
263.166	14.12
263.963	14.12
264.759	15.12
265.556	18.12
266.352	15.12
267.148	16.12
267.944	18.12
268.74	21.12
269.536	18.12
270.332	21.12
271.128	17.12
271.924	20.12
272.719	21.12
273.515	20.12
274.311	21.12
275.106	24.12
275.901	20.12
276.697	23.12
277.492	23.12
278.287	22.12
279.082	23.12
279.877	26.12
280.672	25.12
281.467	26.12
282.262	25.12
283.056	26.12
283.851	24.12
284.646	27.12
285.44	25.12
286.234	21.12
287.029	24.12
287.823	28.12
288.617	26.12
289.411	27.12
290.205	23.12
290.999	24.12
291.793	25.12
292.587	20.12
293.381	20.12
294.174	24.12
294.968	23.12
295.761	20.12
296.555	18.12
297.348	19.12
298.141	19.12
298.935	22.12
299.728	19.12
300.521	16.12
301.314	20.12
302.107	17.12
302.899	19.12
303.692	16.12
304.485	16.12
305.277	17.12
306.07	17.12
306.862	16.12
307.655	16.12
308.447	16.12
309.239	13.12
310.031	12.12
310.823	15.12
311.615	13.12
312.407	12.12
313.199	14.12
313.991	11.12
314.783	13.12
315.574	10.12
316.366	13.12
317.157	11.12
317.949	9.12
318.74	10.12
319.531	9.12
320.322	12.12
321.113	11.12
321.904	9.12
322.695	10.12
323.486	8.12
324.277	10.12
325.068	10.12
325.858	10.12
326.649	7.12
327.439	8.12
328.23	8.12
329.02	9.12
329.81	9.12
330.6	8.12
331.391	9.12
332.181	11.12
332.971	9.12
333.76	8.12
334.55	10.12
335.34	11.12
336.13	8.12
336.919	8.12
337.709	9.12
338.498	9.12
339.287	9.12
340.077	10.12
340.866	9.12
341.655	8.12
342.444	8.12
343.233	9.12
344.022	8.12
344.811	7.12
345.6	9.12
346.388	10.12
347.177	8.12
347.965	8.12
348.754	8.12
349.542	7.12
350.33	6.12
351.119	10.12
351.907	7.12
352.695	11.12
353.483	7.12
354.271	9.12
355.059	7.12
355.846	8.12
356.634	9.12
357.422	8.12
358.209	7.12
358.997	8.12
359.784	9.12
360.571	10.12
361.359	5.12
362.146	8.12
362.933	5.12
363.72	7.12
364.507	8.12
365.294	7.12
366.081	8.12
366.867	7.12
367.654	7.12
368.44	6.12
369.227	6.12
370.013	5.12
370.8	4.12
371.586	9.12
372.372	5.12
373.158	8.12
373.944	7.12
374.73	7.12
375.516	8.12
376.302	4.12
377.088	7.12
377.873	5.12
378.659	5.12
379.445	6.12
380.23	7.12
381.015	7.12
381.801	8.12
382.586	6.12
383.371	5.12
384.156	7.12
384.941	7.12
385.726	7.12
386.511	8.12
387.296	6.12
388.08	7.12
388.865	9.12
389.649	9.12
390.434	10.12
391.218	8.12
392.003	8.12
392.787	9.12
393.571	6.12
394.355	8.12
395.139	5.12
395.923	8.12
396.707	9.12
397.491	5.12
398.274	8.12
399.058	8.12
399.842	13.12
400.625	8.12
401.408	9.12
402.192	10.12
402.975	11.12
403.758	8.12
404.541	10.12
405.324	9.12
406.107	12.12
406.89	11.12
407.673	9.12
408.456	9.12
409.238	11.12
410.021	11.12
410.803	13.12
411.586	11.12
412.368	10.12
413.151	12.12
413.933	14.12
414.715	12.12
415.497	13.12
416.279	11.12
417.061	13.12
417.843	14.12
418.624	13.12
419.406	14.12
420.188	13.12
420.969	15.12
421.751	13.12
422.532	14.12
423.313	13.12
424.095	17.12
424.876	15.12
425.657	17.12
426.438	19.12
427.219	18.12
428	16.12
428.78	17.12
429.561	20.12
430.342	22.12
431.122	17.12
431.903	24.12
432.683	22.12
433.464	23.12
434.244	25.12
435.024	22.12
435.804	25.12
436.584	27.12
437.364	27.12
438.144	29.12
438.924	29.12
439.704	34.12
440.483	37.12
441.263	35.12
442.042	38.12
442.822	41.12
443.601	43.12
444.38	44.12
445.16	51.12
445.939	53.12
446.718	57.12
447.497	59.12
448.276	64.12
449.054	75.12
449.833	80.12
450.612	92.12
451.391	99.12
452.169	101.12
452.948	113.12
453.726	122.12
454.504	138.12
455.282	150.12
456.061	170.12
456.839	185.12
457.617	210.12
458.395	238.12
459.172	257.12
459.95	286.12
460.728	323.12
461.506	361.12
462.283	396.12
463.061	452.12
463.838	504.12
464.615	563.12
465.393	618.12
466.17	683.12
466.947	768.12
467.724	857.12
468.501	959.12
469.278	1061.12
470.055	1175.12
470.831	1296.12
471.608	1438.12
472.385	1588.12
473.161	1768.12
473.938	1946.12
474.714	2140.12
475.49	2373.12
476.266	2605.12
477.043	2874.12
477.819	3182.12
478.595	3499.12
479.371	3826.12
480.146	4192.12
480.922	4627.12
481.698	5045.12
482.473	5571.12
483.249	6074.12
484.024	6644.12
484.8	7280.12
485.575	7945.12
486.35	8645.12
487.126	9436.12
487.901	10250.12
488.676	11151.12
489.451	12135.12
490.225	13195.12
491	14356.12
491.775	15545.12
492.55	16738.12
493.324	18039.12
494.099	19341.12
494.873	20616.12
495.647	22094.12
496.422	23450.12
497.196	24797.12
497.97	26407.12
498.744	27774.12
499.518	29081.12
500.292	30300.12
501.066	31406.12
501.839	32532.12
502.613	33467.12
503.387	34143.12
504.16	34736.12
504.934	35070.12
505.707	35111.12
506.48	35002.12
507.253	34818.12
508.027	34418.12
508.8	33826.12
509.573	33243.12
510.346	32424.12
511.118	31420.12
511.891	30441.12
512.664	29378.12
513.437	28199.12
514.209	27106.12
514.982	26086.12
515.754	25043.12
516.526	23948.12
517.298	22963.12
518.071	21999.12
518.843	21078.12
519.615	20270.12
520.387	19398.12
521.159	18758.12
521.93	17971.12
522.702	17280.12
523.474	16598.12
524.245	15904.12
525.017	15234.12
525.788	14504.12
526.56	13832.12
527.331	13239.12
528.102	12617.12
528.873	12058.12
529.644	11454.12
530.415	10914.12
531.186	10393.12
531.957	9849.12
532.728	9288.12
533.498	8812.12
534.269	8338.12
535.039	7878.12
535.81	7451.12
536.58	7029.12
537.351	6644.12
538.121	6302.12
538.891	5961.12
539.661	5629.12
540.431	5311.12
541.201	5065.12
541.971	4795.12
542.741	4547.12
543.51	4334.12
544.28	4117.12
545.05	3898.12
545.819	3710.12
546.588	3530.12
547.358	3337.12
548.127	3160.12
548.896	3003.12
549.665	2864.12
550.434	2724.12
551.203	2569.12
551.972	2457.12
552.741	2323.12
553.51	2173.12
554.278	2055.12
555.047	1946.12
555.815	1832.12
556.584	1717.12
557.352	1628.12
558.121	1530.12
558.889	1466.12
559.657	1370.12
560.425	1302.12
561.193	1231.12
561.961	1177.12
562.729	1098.12
563.496	1043.12
564.264	992.12
565.032	928.12
565.799	876.12
566.567	837.12
567.334	787.12
568.101	744.12
568.869	692.12
569.636	661.12
570.403	616.12
571.17	585.12
571.937	566.12
572.704	529.12
573.471	502.12
574.237	463.12
575.004	444.12
575.771	416.12
576.537	392.12
577.303	372.12
578.07	339.12
578.836	321.12
579.602	314.12
580.368	298.12
581.134	282.12
581.9	261.12
582.666	251.12
583.432	240.12
584.198	228.12
584.964	212.12
585.729	208.12
586.495	192.12
587.26	183.12
588.025	171.12
588.791	164.12
589.556	157.12
590.321	147.12
591.086	134.12
591.851	132.12
592.616	130.12
593.381	124.12
594.146	111.12
594.911	109.12
595.675	108.12
596.44	100.12
597.204	96.12
597.969	92.12
598.733	86.12
599.497	86.12
600.261	77.12
601.025	75.12
601.79	74.12
602.553	70.12
603.317	65.12
604.081	63.12
604.845	60.12
605.609	57.12
606.372	56.12
607.136	54.12
607.899	52.12
608.662	49.12
609.426	48.12
610.189	45.12
610.952	42.12
611.715	41.12
612.478	39.12
613.241	41.12
614.004	39.12
614.767	35.12
615.529	33.12
616.292	37.12
617.055	32.12
617.817	34.12
618.579	33.12
619.342	30.12
620.104	27.12
620.866	28.12
621.628	25.12
622.39	27.12
623.152	25.12
623.914	22.12
624.676	23.12
625.438	23.12
626.199	21.12
626.961	23.12
627.722	23.12
628.484	19.12
629.245	18.12
630.006	20.12
630.768	17.12
631.529	21.12
632.29	17.12
633.051	17.12
633.812	19.12
634.573	15.12
635.333	14.12
636.094	16.12
636.855	14.12
637.615	13.12
638.376	15.12
639.136	14.12
639.896	12.12
640.657	14.12
641.417	12.12
642.177	11.12
642.937	14.12
643.697	10.12
644.457	11.12
645.216	11.12
645.976	9.12
646.736	12.12
647.495	9.12
648.255	12.12
649.014	11.12
649.774	10.12
650.533	10.12
651.292	10.12
652.051	10.12
652.81	8.12
653.569	8.12
654.328	10.12
655.087	9.12
655.846	10.12
656.604	8.12
657.363	10.12
658.121	7.12
658.88	6.12
659.638	8.12
660.397	8.12
661.155	8.12
661.913	6.12
662.671	7.12
663.429	10.12
664.187	6.12
664.945	7.12
665.703	6.12
666.46	9.12
667.218	7.12
667.976	9.12
668.733	7.12
669.49	7.12
670.248	8.12
671.005	7.12
671.762	8.12
672.519	7.12
673.276	8.12
674.033	6.12
674.79	5.12
675.547	7.12
676.304	6.12
677.06	5.12
677.817	3.12
678.574	5.12
679.33	7.12
680.086	5.12
680.843	5.12
681.599	4.12
682.355	6.12
683.111	7.12
683.867	4.12
684.623	6.12
685.379	5.12
686.135	7.12
686.89	7.12
687.646	3.12
688.402	7.12
689.157	5.12
689.912	5.12
690.668	6.12
691.423	4.12
692.178	6.12
692.933	5.12
693.688	6.12
694.443	6.12
695.198	6.12
695.953	6.12
696.708	3.12
697.462	6.12
698.217	5.12
698.972	3.12
699.726	4.12
700.48	5.12
701.235	9.12
701.989	2.12
702.743	5.12
703.497	3.12
704.251	2.12
705.005	5.12
705.759	2.12
706.513	7.12
707.266	2.12
708.02	7.12
708.774	5.12
709.527	0.12
710.28	7.12
711.034	5.12
711.787	4.12
712.54	5.12
713.293	4.12
714.046	5.12
714.799	5.12
715.552	5.12
716.305	4.12
717.058	6.12
717.81	5.12
718.563	4.12
719.315	4.12
720.068	6.12
720.82	5.12
721.573	6.12
722.325	5.12
723.077	4.12
723.829	4.12
724.581	4.12
725.333	7.12
726.085	6.12
726.836	6.12
727.588	4.12
728.34	5.12
729.091	5.12
729.843	6.12
730.594	6.12
731.346	6.12
732.097	6.12
732.848	6.12
733.599	3.12
734.35	6.12
735.101	7.12
735.852	2.12
736.603	4.12
737.354	7.12
738.104	5.12
738.855	6.12
739.605	7.12
740.356	8.12
741.106	5.12
741.856	7.12
742.607	8.12
743.357	5.12
744.107	8.12
744.857	4.12
745.607	8.12
746.357	9.12
747.106	6.12
747.856	11.12
748.606	6.12
749.355	6.12
750.105	8.12
750.854	6.12
751.603	6.12
752.353	7.12
753.102	10.12
753.851	9.12
754.6	8.12
755.349	6.12
756.098	6.12
756.847	9.12
757.595	8.12
758.344	7.12
759.093	8.12
759.841	10.12
760.589	10.12
761.338	8.12
762.086	9.12
762.834	8.12
763.582	6.12
764.331	9.12
765.079	8.12
765.826	10.12
766.574	10.12
767.322	11.12
768.07	11.12
768.817	12.12
769.565	10.12
770.312	11.12
771.06	8.12
771.807	10.12
772.554	10.12
773.302	9.12
774.049	10.12
774.796	11.12
775.543	9.12
776.29	12.12
777.036	10.12
777.783	12.12
778.53	13.12
779.276	12.12
780.023	12.12
780.769	10.12
781.516	10.12
782.262	10.12
783.008	9.12
783.754	14.12
784.5	9.12
785.246	11.12
785.992	10.12
786.738	12.12
787.484	10.12
788.23	12.12
788.975	12.12
789.721	10.12
790.466	9.12
791.212	11.12
791.957	12.12
792.702	10.12
793.447	12.12
794.193	10.12
794.938	10.12
795.683	10.12
796.427	10.12
797.172	11.12
797.917	8.12
798.662	8.12
799.406	10.12
800.151	8.12
800.895	10.12
801.64	8.12
802.384	8.12
803.128	12.12
803.872	7.12
804.616	10.12
805.36	8.12
806.104	8.12
806.848	8.12
807.592	6.12
808.336	8.12
809.079	8.12
809.823	8.12
810.566	7.12
811.31	7.12
812.053	7.12
812.796	7.12
813.539	5.12
814.283	9.12
815.026	7.12
815.769	5.12
816.511	5.12
817.254	5.12
817.997	7.12
818.74	7.12
819.482	7.12
820.225	7.12
820.967	7.12
821.71	5.12
822.452	4.12
823.194	6.12
823.936	7.12
824.678	5.12
825.42	4.12
826.162	5.12
826.904	4.12
827.646	6.12
828.388	4.12
829.129	3.12
829.871	6.12
830.612	3.12
831.354	4.12
832.095	2.12
832.836	4.12
833.577	4.12
834.319	4.12
835.06	3.12
835.801	3.12
836.542	3.12
837.282	5.12
838.023	2.12
838.764	5.12
839.504	6.12
840.245	4.12
840.985	4.12
841.726	4.12
842.466	3.12
843.206	3.12
843.946	5.12
844.687	1.12
845.427	3.12
846.166	3.12
846.906	2.12
847.646	3.12
848.386	2.12
849.125	3.12
849.865	2.12
850.605	2.12
851.344	4.12
852.083	3.12
852.823	3.12
853.562	4.12
854.301	4.12
855.04	1.12
855.779	4.12
856.518	2.12
857.257	3.12
857.995	3.12
858.734	2.12
859.473	2.12
860.211	4.12
860.95	3.12
861.688	2.12
862.426	1.12
863.165	2.12
863.903	3.12
864.641	2.12
865.379	3.12
866.117	0.12
866.855	4.12
867.593	1.12
868.33	3.12
869.068	0.12
869.806	2.12
870.543	2.12
871.28	2.12
872.018	1.12
872.755	2.12
873.492	2.12
874.229	2.12
874.967	0.12
875.703	3.12
876.44	-0.88
877.177	2.12
877.914	0.12
878.651	-1.88
879.387	2.12
880.124	-0.88
880.86	0.12
881.597	2.12
882.333	0.12
883.069	0.12
883.806	0.12
884.542	0.12
885.278	0.12
886.014	2.12
886.749	1.12
887.485	1.12
888.221	0.12
888.957	0.12
889.692	0.12
890.428	1.12
891.163	-0.88
891.899	2.12
892.634	0.12
893.369	2.12
894.104	0.12
894.839	-0.88
895.574	2.12
896.309	2.12
897.044	2.12
897.779	0.12
898.514	0.12
899.248	1.12
899.983	0.12
900.717	2.12
901.452	0.12
902.186	1.12
902.92	-1.88
903.654	0.12
904.389	1.12
905.123	-0.88
905.857	1.12
906.59	1.12
907.324	0.12
908.058	0.12
908.792	0.12
909.525	2.12
910.259	0.12
910.992	1.12
911.726	1.12
912.459	0.12
913.192	0.12
913.925	1.12
914.658	3.12
915.391	-0.88
916.124	0.12
916.857	1.12
917.59	0.12
918.323	-1.88
919.055	-3.88
919.788	-0.88
920.521	-1.88
921.253	3.12
921.985	1.12
922.718	0.12
923.45	2.12
924.182	-1.88
924.914	0.12
925.646	2.12
926.378	-2.88
927.11	1.12
927.841	0.12
928.573	0.12
929.305	0.12
930.036	-0.88
930.768	1.12
931.499	2.12
932.23	1.12
932.962	0.12
933.693	2.12
934.424	-0.88
935.155	1.12
935.886	0.12
936.617	-2.88
937.348	0.12
938.078	-0.88
938.809	1.12
939.54	-1.88
940.27	0.12
941.001	2.12
941.731	-1.88
942.461	0.12
943.191	-0.88
943.922	2.12
944.652	0.12
945.382	1.12
946.112	1.12
946.841	-0.88
947.571	0.12
948.301	1.12
949.031	0.12
949.76	0.12
950.49	1.12
951.219	1.12
951.948	2.12
952.678	0.12
953.407	0.12
954.136	-0.88
954.865	1.12
955.594	-1.88
956.323	1.12
957.052	0.12
957.78	2.12
958.509	1.12
959.238	1.12
959.966	1.12
960.695	0.12
961.423	1.12
962.151	0.12
962.88	1.12
963.608	-0.88
964.336	1.12
965.064	1.12
965.792	-1.88
966.52	2.12
967.247	0.12
967.975	1.12
968.703	1.12
969.43	-0.88
970.158	2.12
970.885	3.12
971.613	0.12
972.34	-0.88
973.067	-0.88
973.794	2.12
974.521	0.12
975.248	0.12
975.975	1.12
976.702	-0.88
977.429	0.12
978.156	1.12
978.882	-0.88
979.609	1.12
980.335	1.12
981.062	0.12
981.788	0.12
982.514	1.12
983.24	0.12
983.967	-1.88
984.693	0.12
985.419	1.12
986.144	1.12
986.87	-0.88
987.596	0.12
988.322	0.12
989.047	1.12
989.773	1.12
990.498	0.12
991.224	2.12
991.949	0.12
992.674	-0.88
993.399	-0.88
994.124	2.12
994.849	-1.88
995.574	2.12
996.299	1.12
997.024	0.12
997.749	0.12
998.473	-0.88
999.198	-1.88
999.922	-0.88
1000.647	2.12
1001.371	2.12
1002.095	0.12
1002.82	-1.88
1003.544	-0.88
1004.268	2.12
1004.992	1.12
1005.716	4.12
1006.439	3.12
1007.163	5.12
1007.887	2.12
1008.611	0.12
1009.334	2.12
1010.058	0.12
1010.781	0.12
1011.504	0.12
1012.228	1.12
1012.951	0.12
1013.674	0.12
1014.397	0.12
1015.12	0.12
