节点500_425_QEPB04081__307__15-53-24-877.txt的数据

Date: Wed Nov 12 15:53:24 CST 2025
User: PC
Spectrometer: QEPB0408
触发模式: 0
积分时间 (秒): 1.000000E-2
Scans to average: 1
启用暗噪声校正: true
启用非线性校正: false
滑动平均宽度: 0
X轴模式: Wavelengths
Number of Pixels in Spectrum: 1044
>>>>>Begin Spectral Data<<<<<
220.843	2.12
221.644	3.12
222.444	0.12
223.244	2.12
224.045	2.12
224.845	4.12
225.645	4.12
226.445	4.12
227.245	4.12
228.045	4.12
228.845	4.12
229.645	4.12
230.444	3.12
231.244	4.12
232.043	6.12
232.843	2.12
233.642	5.12
234.442	2.12
235.241	4.12
236.04	7.12
236.839	6.12
237.638	6.12
238.437	4.12
239.236	6.12
240.035	4.12
240.833	6.12
241.632	7.12
242.43	7.12
243.229	9.12
244.027	7.12
244.826	7.12
245.624	6.12
246.422	9.12
247.22	6.12
248.018	9.12
248.816	8.12
249.614	8.12
250.412	9.12
251.21	10.12
252.007	9.12
252.805	11.12
253.602	8.12
254.4	9.12
255.197	8.12
255.994	10.12
256.791	10.12
257.589	10.12
258.386	12.12
259.183	11.12
259.979	11.12
260.776	14.12
261.573	12.12
262.37	14.12
263.166	14.12
263.963	17.12
264.759	16.12
265.556	14.12
266.352	16.12
267.148	16.12
267.944	18.12
268.74	16.12
269.536	19.12
270.332	22.12
271.128	20.12
271.924	17.12
272.719	20.12
273.515	22.12
274.311	20.12
275.106	21.12
275.901	24.12
276.697	24.12
277.492	21.12
278.287	21.12
279.082	23.12
279.877	21.12
280.672	25.12
281.467	21.12
282.262	25.12
283.056	24.12
283.851	22.12
284.646	27.12
285.44	24.12
286.234	23.12
287.029	23.12
287.823	20.12
288.617	22.12
289.411	21.12
290.205	22.12
290.999	23.12
291.793	21.12
292.587	21.12
293.381	21.12
294.174	21.12
294.968	20.12
295.761	20.12
296.555	19.12
297.348	17.12
298.141	18.12
298.935	20.12
299.728	17.12
300.521	16.12
301.314	19.12
302.107	19.12
302.899	16.12
303.692	17.12
304.485	15.12
305.277	14.12
306.07	14.12
306.862	15.12
307.655	15.12
308.447	13.12
309.239	14.12
310.031	13.12
310.823	15.12
311.615	13.12
312.407	11.12
313.199	11.12
313.991	12.12
314.783	11.12
315.574	10.12
316.366	8.12
317.157	12.12
317.949	8.12
318.74	11.12
319.531	10.12
320.322	9.12
321.113	12.12
321.904	7.12
322.695	8.12
323.486	12.12
324.277	8.12
325.068	8.12
325.858	9.12
326.649	9.12
327.439	10.12
328.23	9.12
329.02	10.12
329.81	8.12
330.6	10.12
331.391	7.12
332.181	12.12
332.971	8.12
333.76	7.12
334.55	8.12
335.34	11.12
336.13	6.12
336.919	8.12
337.709	7.12
338.498	9.12
339.287	7.12
340.077	8.12
340.866	9.12
341.655	7.12
342.444	7.12
343.233	8.12
344.022	6.12
344.811	5.12
345.6	9.12
346.388	7.12
347.177	7.12
347.965	8.12
348.754	4.12
349.542	8.12
350.33	6.12
351.119	7.12
351.907	9.12
352.695	7.12
353.483	7.12
354.271	6.12
355.059	7.12
355.846	6.12
356.634	8.12
357.422	9.12
358.209	5.12
358.997	8.12
359.784	7.12
360.571	8.12
361.359	8.12
362.146	9.12
362.933	5.12
363.72	6.12
364.507	8.12
365.294	7.12
366.081	5.12
366.867	7.12
367.654	5.12
368.44	5.12
369.227	4.12
370.013	6.12
370.8	6.12
371.586	5.12
372.372	8.12
373.158	6.12
373.944	8.12
374.73	7.12
375.516	8.12
376.302	6.12
377.088	6.12
377.873	7.12
378.659	5.12
379.445	7.12
380.23	8.12
381.015	6.12
381.801	7.12
382.586	8.12
383.371	10.12
384.156	7.12
384.941	5.12
385.726	5.12
386.511	6.12
387.296	7.12
388.08	5.12
388.865	6.12
389.649	8.12
390.434	5.12
391.218	5.12
392.003	7.12
392.787	9.12
393.571	9.12
394.355	8.12
395.139	10.12
395.923	8.12
396.707	7.12
397.491	7.12
398.274	9.12
399.058	8.12
399.842	10.12
400.625	7.12
401.408	8.12
402.192	10.12
402.975	10.12
403.758	9.12
404.541	10.12
405.324	8.12
406.107	9.12
406.89	11.12
407.673	10.12
408.456	9.12
409.238	10.12
410.021	11.12
410.803	10.12
411.586	9.12
412.368	10.12
413.151	14.12
413.933	12.12
414.715	12.12
415.497	10.12
416.279	12.12
417.061	11.12
417.843	12.12
418.624	12.12
419.406	12.12
420.188	14.12
420.969	16.12
421.751	11.12
422.532	14.12
423.313	12.12
424.095	14.12
424.876	15.12
425.657	13.12
426.438	16.12
427.219	16.12
428	16.12
428.78	18.12
429.561	19.12
430.342	18.12
431.122	18.12
431.903	20.12
432.683	18.12
433.464	18.12
434.244	18.12
435.024	23.12
435.804	24.12
436.584	23.12
437.364	27.12
438.144	27.12
438.924	30.12
439.704	30.12
440.483	34.12
441.263	35.12
442.042	35.12
442.822	40.12
443.601	45.12
444.38	41.12
445.16	48.12
445.939	50.12
446.718	52.12
447.497	62.12
448.276	64.12
449.054	69.12
449.833	77.12
450.612	81.12
451.391	94.12
452.169	96.12
452.948	110.12
453.726	119.12
454.504	128.12
455.282	145.12
456.061	165.12
456.839	173.12
457.617	199.12
458.395	222.12
459.172	248.12
459.95	263.12
460.728	301.12
461.506	340.12
462.283	381.12
463.061	435.12
463.838	478.12
464.615	530.12
465.393	601.12
466.17	662.12
466.947	729.12
467.724	815.12
468.501	908.12
469.278	990.12
470.055	1109.12
470.831	1230.12
471.608	1358.12
472.385	1523.12
473.161	1676.12
473.938	1837.12
474.714	2053.12
475.49	2238.12
476.266	2482.12
477.043	2720.12
477.819	2999.12
478.595	3327.12
479.371	3616.12
480.146	4012.12
480.922	4368.12
481.698	4804.12
482.473	5266.12
483.249	5795.12
484.024	6327.12
484.8	6922.12
485.575	7559.12
486.35	8233.12
487.126	8982.12
487.901	9826.12
488.676	10632.12
489.451	11567.12
490.225	12562.12
491	13628.12
491.775	14774.12
492.55	15928.12
493.324	17148.12
494.099	18384.12
494.873	19623.12
495.647	21008.12
496.422	22280.12
497.196	23658.12
497.97	25079.12
498.744	26402.12
499.518	27762.12
500.292	28858.12
501.066	29920.12
501.839	30971.12
502.613	31822.12
503.387	32548.12
504.16	33036.12
504.934	33374.12
505.707	33397.12
506.48	33293.12
507.253	33050.12
508.027	32667.12
508.8	32156.12
509.573	31530.12
510.346	30707.12
511.118	29857.12
511.891	28845.12
512.664	27849.12
513.437	26798.12
514.209	25681.12
514.982	24731.12
515.754	23710.12
516.526	22762.12
517.298	21799.12
518.071	20860.12
518.843	19941.12
519.615	19198.12
520.387	18400.12
521.159	17767.12
521.93	17052.12
522.702	16349.12
523.474	15730.12
524.245	15095.12
525.017	14446.12
525.788	13778.12
526.56	13153.12
527.331	12565.12
528.102	11910.12
528.873	11355.12
529.644	10828.12
530.415	10356.12
531.186	9851.12
531.957	9353.12
532.728	8836.12
533.498	8339.12
534.269	7903.12
535.039	7436.12
535.81	7056.12
536.58	6652.12
537.351	6254.12
538.121	5936.12
538.891	5644.12
539.661	5304.12
540.431	5058.12
541.201	4782.12
541.971	4517.12
542.741	4294.12
543.51	4081.12
544.28	3890.12
545.05	3695.12
545.819	3529.12
546.588	3332.12
547.358	3157.12
548.127	2988.12
548.896	2862.12
549.665	2703.12
550.434	2557.12
551.203	2440.12
551.972	2306.12
552.741	2178.12
553.51	2058.12
554.278	1944.12
555.047	1840.12
555.815	1732.12
556.584	1648.12
557.352	1550.12
558.121	1455.12
558.889	1372.12
559.657	1301.12
560.425	1225.12
561.193	1176.12
561.961	1096.12
562.729	1034.12
563.496	985.12
564.264	928.12
565.032	885.12
565.799	834.12
566.567	785.12
567.334	742.12
568.101	712.12
568.869	664.12
569.636	620.12
570.403	588.12
571.17	552.12
571.937	532.12
572.704	497.12
573.471	465.12
574.237	449.12
575.004	410.12
575.771	393.12
576.537	367.12
577.303	349.12
578.07	326.12
578.836	308.12
579.602	289.12
580.368	282.12
581.134	255.12
581.9	251.12
582.666	233.12
583.432	224.12
584.198	208.12
584.964	200.12
585.729	189.12
586.495	177.12
587.26	172.12
588.025	166.12
588.791	153.12
589.556	150.12
590.321	143.12
591.086	132.12
591.851	130.12
592.616	120.12
593.381	109.12
594.146	106.12
594.911	106.12
595.675	99.12
596.44	94.12
597.204	92.12
597.969	86.12
598.733	83.12
599.497	79.12
600.261	74.12
601.025	70.12
601.79	68.12
602.553	65.12
603.317	64.12
604.081	61.12
604.845	56.12
605.609	60.12
606.372	57.12
607.136	52.12
607.899	51.12
608.662	51.12
609.426	45.12
610.189	43.12
610.952	40.12
611.715	39.12
612.478	40.12
613.241	39.12
614.004	36.12
614.767	34.12
615.529	34.12
616.292	30.12
617.055	33.12
617.817	31.12
618.579	29.12
619.342	27.12
620.104	24.12
620.866	27.12
621.628	25.12
622.39	28.12
623.152	24.12
623.914	24.12
624.676	23.12
625.438	22.12
626.199	19.12
626.961	20.12
627.722	19.12
628.484	21.12
629.245	16.12
630.006	19.12
630.768	17.12
631.529	18.12
632.29	18.12
633.051	18.12
633.812	18.12
634.573	13.12
635.333	17.12
636.094	17.12
636.855	13.12
637.615	15.12
638.376	12.12
639.136	13.12
639.896	13.12
640.657	11.12
641.417	12.12
642.177	11.12
642.937	12.12
643.697	11.12
644.457	11.12
645.216	11.12
645.976	10.12
646.736	8.12
647.495	11.12
648.255	9.12
649.014	9.12
649.774	11.12
650.533	10.12
651.292	12.12
652.051	10.12
652.81	9.12
653.569	9.12
654.328	10.12
655.087	8.12
655.846	8.12
656.604	7.12
657.363	7.12
658.121	7.12
658.88	7.12
659.638	8.12
660.397	9.12
661.155	6.12
661.913	7.12
662.671	7.12
663.429	8.12
664.187	7.12
664.945	6.12
665.703	5.12
666.46	5.12
667.218	7.12
667.976	5.12
668.733	7.12
669.49	6.12
670.248	7.12
671.005	8.12
671.762	5.12
672.519	5.12
673.276	7.12
674.033	5.12
674.79	5.12
675.547	7.12
676.304	6.12
677.06	4.12
677.817	7.12
678.574	4.12
679.33	5.12
680.086	6.12
680.843	5.12
681.599	4.12
682.355	5.12
683.111	6.12
683.867	5.12
684.623	4.12
685.379	7.12
686.135	4.12
686.89	7.12
687.646	4.12
688.402	3.12
689.157	5.12
689.912	6.12
690.668	4.12
691.423	7.12
692.178	5.12
692.933	6.12
693.688	5.12
694.443	3.12
695.198	5.12
695.953	4.12
696.708	4.12
697.462	6.12
698.217	6.12
698.972	4.12
699.726	3.12
700.48	4.12
701.235	5.12
701.989	4.12
702.743	5.12
703.497	5.12
704.251	6.12
705.005	3.12
705.759	4.12
706.513	6.12
707.266	7.12
708.02	3.12
708.774	5.12
709.527	3.12
710.28	7.12
711.034	3.12
711.787	2.12
712.54	4.12
713.293	2.12
714.046	6.12
714.799	1.12
715.552	6.12
716.305	4.12
717.058	4.12
717.81	7.12
718.563	3.12
719.315	5.12
720.068	4.12
720.82	7.12
721.573	7.12
722.325	3.12
723.077	4.12
723.829	6.12
724.581	7.12
725.333	6.12
726.085	5.12
726.836	6.12
727.588	6.12
728.34	5.12
729.091	6.12
729.843	5.12
730.594	7.12
731.346	6.12
732.097	6.12
732.848	5.12
733.599	5.12
734.35	5.12
735.101	5.12
735.852	7.12
736.603	5.12
737.354	7.12
738.104	5.12
738.855	6.12
739.605	6.12
740.356	8.12
741.106	6.12
741.856	7.12
742.607	9.12
743.357	4.12
744.107	6.12
744.857	8.12
745.607	5.12
746.357	8.12
747.106	7.12
747.856	7.12
748.606	6.12
749.355	7.12
750.105	8.12
750.854	7.12
751.603	8.12
752.353	7.12
753.102	7.12
753.851	6.12
754.6	5.12
755.349	7.12
756.098	6.12
756.847	6.12
757.595	8.12
758.344	8.12
759.093	12.12
759.841	9.12
760.589	7.12
761.338	8.12
762.086	7.12
762.834	9.12
763.582	8.12
764.331	9.12
765.079	10.12
765.826	7.12
766.574	6.12
767.322	8.12
768.07	9.12
768.817	6.12
769.565	8.12
770.312	9.12
771.06	9.12
771.807	11.12
772.554	9.12
773.302	10.12
774.049	9.12
774.796	10.12
775.543	11.12
776.29	11.12
777.036	10.12
777.783	7.12
778.53	10.12
779.276	12.12
780.023	10.12
780.769	12.12
781.516	8.12
782.262	11.12
783.008	9.12
783.754	13.12
784.5	11.12
785.246	6.12
785.992	11.12
786.738	10.12
787.484	11.12
788.23	11.12
788.975	10.12
789.721	11.12
790.466	10.12
791.212	10.12
791.957	11.12
792.702	11.12
793.447	8.12
794.193	9.12
794.938	10.12
795.683	10.12
796.427	8.12
797.172	9.12
797.917	8.12
798.662	7.12
799.406	9.12
800.151	9.12
800.895	12.12
801.64	8.12
802.384	10.12
803.128	8.12
803.872	8.12
804.616	5.12
805.36	8.12
806.104	6.12
806.848	7.12
807.592	6.12
808.336	8.12
809.079	6.12
809.823	8.12
810.566	8.12
811.31	7.12
812.053	6.12
812.796	5.12
813.539	5.12
814.283	6.12
815.026	7.12
815.769	5.12
816.511	5.12
817.254	7.12
817.997	6.12
818.74	7.12
819.482	7.12
820.225	6.12
820.967	4.12
821.71	4.12
822.452	6.12
823.194	4.12
823.936	3.12
824.678	4.12
825.42	6.12
826.162	4.12
826.904	4.12
827.646	5.12
828.388	4.12
829.129	5.12
829.871	5.12
830.612	4.12
831.354	3.12
832.095	4.12
832.836	5.12
833.577	4.12
834.319	5.12
835.06	4.12
835.801	4.12
836.542	5.12
837.282	4.12
838.023	3.12
838.764	4.12
839.504	2.12
840.245	3.12
840.985	5.12
841.726	2.12
842.466	3.12
843.206	4.12
843.946	4.12
844.687	3.12
845.427	2.12
846.166	4.12
846.906	4.12
847.646	3.12
848.386	3.12
849.125	2.12
849.865	3.12
850.605	1.12
851.344	2.12
852.083	1.12
852.823	0.12
853.562	4.12
854.301	3.12
855.04	2.12
855.779	2.12
856.518	3.12
857.257	0.12
857.995	0.12
858.734	4.12
859.473	4.12
860.211	3.12
860.95	5.12
861.688	3.12
862.426	1.12
863.165	4.12
863.903	2.12
864.641	1.12
865.379	4.12
866.117	0.12
866.855	1.12
867.593	1.12
868.33	2.12
869.068	3.12
869.806	1.12
870.543	0.12
871.28	1.12
872.018	3.12
872.755	2.12
873.492	-1.88
874.229	3.12
874.967	-0.88
875.703	1.12
876.44	4.12
877.177	1.12
877.914	1.12
878.651	0.12
879.387	1.12
880.124	1.12
880.86	1.12
881.597	0.12
882.333	-1.88
883.069	3.12
883.806	0.12
884.542	2.12
885.278	-0.88
886.014	0.12
886.749	1.12
887.485	0.12
888.221	1.12
888.957	1.12
889.692	1.12
890.428	1.12
891.163	-0.88
891.899	1.12
892.634	0.12
893.369	0.12
894.104	1.12
894.839	3.12
895.574	-0.88
896.309	-0.88
897.044	1.12
897.779	2.12
898.514	1.12
899.248	2.12
899.983	2.12
900.717	2.12
901.452	-1.88
902.186	0.12
902.92	3.12
903.654	1.12
904.389	0.12
905.123	1.12
905.857	-0.88
906.59	1.12
907.324	1.12
908.058	0.12
908.792	0.12
909.525	0.12
910.259	1.12
910.992	3.12
911.726	0.12
912.459	1.12
913.192	1.12
913.925	0.12
914.658	0.12
915.391	0.12
916.124	0.12
916.857	2.12
917.59	0.12
918.323	3.12
919.055	-2.88
919.788	2.12
920.521	2.12
921.253	0.12
921.985	0.12
922.718	1.12
923.45	-0.88
924.182	0.12
924.914	-0.88
925.646	1.12
926.378	0.12
927.11	1.12
927.841	-0.88
928.573	0.12
929.305	-0.88
930.036	-1.88
930.768	-0.88
931.499	1.12
932.23	1.12
932.962	0.12
933.693	-2.88
934.424	0.12
935.155	0.12
935.886	1.12
936.617	-1.88
937.348	-0.88
938.078	-0.88
938.809	-1.88
939.54	-0.88
940.27	1.12
941.001	0.12
941.731	-0.88
942.461	0.12
943.191	0.12
943.922	1.12
944.652	2.12
945.382	0.12
946.112	2.12
946.841	-2.88
947.571	0.12
948.301	-1.88
949.031	-2.88
949.76	0.12
950.49	2.12
951.219	1.12
951.948	-1.88
952.678	-1.88
953.407	-0.88
954.136	3.12
954.865	1.12
955.594	0.12
956.323	2.12
957.052	1.12
957.78	0.12
958.509	1.12
959.238	2.12
959.966	-0.88
960.695	1.12
961.423	0.12
962.151	0.12
962.88	-0.88
963.608	-1.88
964.336	-0.88
965.064	0.12
965.792	0.12
966.52	-1.88
967.247	0.12
967.975	1.12
968.703	-2.88
969.43	3.12
970.158	-1.88
970.885	0.12
971.613	0.12
972.34	-0.88
973.067	-1.88
973.794	1.12
974.521	-0.88
975.248	-1.88
975.975	1.12
976.702	1.12
977.429	0.12
978.156	0.12
978.882	-1.88
979.609	2.12
980.335	-0.88
981.062	1.12
981.788	1.12
982.514	1.12
983.24	-1.88
983.967	0.12
984.693	0.12
985.419	-0.88
986.144	0.12
986.87	2.12
987.596	-1.88
988.322	1.12
989.047	0.12
989.773	1.12
990.498	1.12
991.224	-0.88
991.949	0.12
992.674	-1.88
993.399	1.12
994.124	1.12
994.849	2.12
995.574	0.12
996.299	0.12
997.024	-0.88
997.749	1.12
998.473	0.12
999.198	0.12
999.922	2.12
1000.647	-0.88
1001.371	4.12
1002.095	-1.88
1002.82	-0.88
1003.544	-2.88
1004.268	3.12
1004.992	1.12
1005.716	-0.88
1006.439	3.12
1007.163	3.12
1007.887	3.12
1008.611	1.12
1009.334	1.12
1010.058	0.12
1010.781	1.12
1011.504	1.12
1012.228	2.12
1012.951	2.12
1013.674	-1.88
1014.397	1.12
1015.12	0.12
