节点500_425_QEPB04081__182__15-51-20-147.txt的数据

Date: Wed Nov 12 15:51:20 CST 2025
User: PC
Spectrometer: QEPB0408
触发模式: 0
积分时间 (秒): 1.000000E-2
Scans to average: 1
启用暗噪声校正: true
启用非线性校正: false
滑动平均宽度: 0
X轴模式: Wavelengths
Number of Pixels in Spectrum: 1044
>>>>>Begin Spectral Data<<<<<
220.843	1.38
221.644	1.38
222.444	3.38
223.244	4.38
224.045	5.38
224.845	2.38
225.645	2.38
226.445	2.38
227.245	2.38
228.045	4.38
228.845	4.38
229.645	3.38
230.444	2.38
231.244	4.38
232.043	3.38
232.843	8.38
233.642	4.38
234.442	5.38
235.241	6.38
236.04	7.38
236.839	8.38
237.638	4.38
238.437	5.38
239.236	7.38
240.035	7.38
240.833	6.38
241.632	8.38
242.43	7.38
243.229	9.38
244.027	9.38
244.826	6.38
245.624	8.38
246.422	7.38
247.22	10.38
248.018	9.38
248.816	10.38
249.614	10.38
250.412	8.38
251.21	10.38
252.007	8.38
252.805	13.38
253.602	14.38
254.4	12.38
255.197	11.38
255.994	14.38
256.791	12.38
257.589	13.38
258.386	14.38
259.183	12.38
259.979	14.38
260.776	14.38
261.573	14.38
262.37	16.38
263.166	18.38
263.963	15.38
264.759	18.38
265.556	18.38
266.352	19.38
267.148	19.38
267.944	20.38
268.74	20.38
269.536	18.38
270.332	21.38
271.128	21.38
271.924	22.38
272.719	23.38
273.515	22.38
274.311	26.38
275.106	23.38
275.901	22.38
276.697	24.38
277.492	24.38
278.287	25.38
279.082	26.38
279.877	22.38
280.672	24.38
281.467	25.38
282.262	26.38
283.056	24.38
283.851	24.38
284.646	29.38
285.44	23.38
286.234	25.38
287.029	25.38
287.823	27.38
288.617	24.38
289.411	23.38
290.205	24.38
290.999	22.38
291.793	25.38
292.587	24.38
293.381	21.38
294.174	22.38
294.968	22.38
295.761	19.38
296.555	20.38
297.348	19.38
298.141	20.38
298.935	22.38
299.728	18.38
300.521	18.38
301.314	21.38
302.107	16.38
302.899	18.38
303.692	15.38
304.485	16.38
305.277	19.38
306.07	14.38
306.862	18.38
307.655	16.38
308.447	15.38
309.239	13.38
310.031	16.38
310.823	14.38
311.615	12.38
312.407	15.38
313.199	14.38
313.991	14.38
314.783	14.38
315.574	11.38
316.366	12.38
317.157	11.38
317.949	11.38
318.74	12.38
319.531	9.38
320.322	11.38
321.113	12.38
321.904	10.38
322.695	10.38
323.486	9.38
324.277	11.38
325.068	9.38
325.858	10.38
326.649	10.38
327.439	10.38
328.23	9.38
329.02	8.38
329.81	9.38
330.6	7.38
331.391	7.38
332.181	8.38
332.971	9.38
333.76	9.38
334.55	9.38
335.34	8.38
336.13	9.38
336.919	10.38
337.709	8.38
338.498	9.38
339.287	8.38
340.077	7.38
340.866	8.38
341.655	6.38
342.444	7.38
343.233	8.38
344.022	7.38
344.811	7.38
345.6	7.38
346.388	7.38
347.177	6.38
347.965	7.38
348.754	5.38
349.542	7.38
350.33	8.38
351.119	10.38
351.907	6.38
352.695	8.38
353.483	5.38
354.271	7.38
355.059	4.38
355.846	7.38
356.634	8.38
357.422	7.38
358.209	7.38
358.997	6.38
359.784	6.38
360.571	6.38
361.359	8.38
362.146	8.38
362.933	6.38
363.72	6.38
364.507	6.38
365.294	8.38
366.081	5.38
366.867	6.38
367.654	6.38
368.44	7.38
369.227	7.38
370.013	8.38
370.8	4.38
371.586	7.38
372.372	4.38
373.158	5.38
373.944	7.38
374.73	7.38
375.516	6.38
376.302	5.38
377.088	6.38
377.873	7.38
378.659	7.38
379.445	7.38
380.23	6.38
381.015	6.38
381.801	4.38
382.586	8.38
383.371	8.38
384.156	6.38
384.941	5.38
385.726	6.38
386.511	8.38
387.296	6.38
388.08	8.38
388.865	8.38
389.649	8.38
390.434	6.38
391.218	8.38
392.003	9.38
392.787	8.38
393.571	8.38
394.355	9.38
395.139	6.38
395.923	9.38
396.707	8.38
397.491	11.38
398.274	9.38
399.058	7.38
399.842	8.38
400.625	8.38
401.408	9.38
402.192	9.38
402.975	11.38
403.758	10.38
404.541	8.38
405.324	9.38
406.107	9.38
406.89	12.38
407.673	8.38
408.456	11.38
409.238	12.38
410.021	10.38
410.803	13.38
411.586	11.38
412.368	12.38
413.151	12.38
413.933	12.38
414.715	12.38
415.497	11.38
416.279	14.38
417.061	12.38
417.843	14.38
418.624	14.38
419.406	13.38
420.188	15.38
420.969	11.38
421.751	14.38
422.532	14.38
423.313	15.38
424.095	14.38
424.876	18.38
425.657	19.38
426.438	16.38
427.219	18.38
428	20.38
428.78	19.38
429.561	18.38
430.342	18.38
431.122	20.38
431.903	18.38
432.683	18.38
433.464	22.38
434.244	18.38
435.024	25.38
435.804	24.38
436.584	26.38
437.364	30.38
438.144	26.38
438.924	32.38
439.704	29.38
440.483	32.38
441.263	34.38
442.042	39.38
442.822	40.38
443.601	41.38
444.38	48.38
445.16	49.38
445.939	53.38
446.718	54.38
447.497	58.38
448.276	66.38
449.054	67.38
449.833	79.38
450.612	82.38
451.391	89.38
452.169	99.38
452.948	109.38
453.726	123.38
454.504	128.38
455.282	145.38
456.061	164.38
456.839	179.38
457.617	198.38
458.395	224.38
459.172	243.38
459.95	285.38
460.728	305.38
461.506	344.38
462.283	386.38
463.061	431.38
463.838	491.38
464.615	546.38
465.393	594.38
466.17	673.38
466.947	758.38
467.724	837.38
468.501	930.38
469.278	1033.38
470.055	1162.38
470.831	1288.38
471.608	1430.38
472.385	1578.38
473.161	1761.38
473.938	1932.38
474.714	2151.38
475.49	2367.38
476.266	2609.38
477.043	2868.38
477.819	3204.38
478.595	3524.38
479.371	3902.38
480.146	4259.38
480.922	4697.38
481.698	5177.38
482.473	5669.38
483.249	6216.38
484.024	6855.38
484.8	7529.38
485.575	8203.38
486.35	8992.38
487.126	9836.38
487.901	10741.38
488.676	11720.38
489.451	12808.38
490.225	13910.38
491	15066.38
491.775	16403.38
492.55	17704.38
493.324	19056.38
494.099	20398.38
494.873	21800.38
495.647	23257.38
496.422	24836.38
497.196	26326.38
497.97	27841.38
498.744	29276.38
499.518	30627.38
500.292	31896.38
501.066	32986.38
501.839	34153.38
502.613	34997.38
503.387	35662.38
504.16	36098.38
504.934	36249.38
505.707	36260.38
506.48	36125.38
507.253	35672.38
508.027	35197.38
508.8	34598.38
509.573	33711.38
510.346	32860.38
511.118	31871.38
511.891	30829.38
512.664	29558.38
513.437	28307.38
514.209	27153.38
514.982	26126.38
515.754	25022.38
516.526	23902.38
517.298	22855.38
518.071	21887.38
518.843	21033.38
519.615	20195.38
520.387	19373.38
521.159	18625.38
521.93	17924.38
522.702	17178.38
523.474	16521.38
524.245	15843.38
525.017	15135.38
525.788	14417.38
526.56	13797.38
527.331	13158.38
528.102	12549.38
528.873	11856.38
529.644	11299.38
530.415	10791.38
531.186	10233.38
531.957	9674.38
532.728	9174.38
533.498	8667.38
534.269	8204.38
535.039	7730.38
535.81	7308.38
536.58	6889.38
537.351	6508.38
538.121	6140.38
538.891	5855.38
539.661	5521.38
540.431	5227.38
541.201	4947.38
541.971	4705.38
542.741	4452.38
543.51	4241.38
544.28	4015.38
545.05	3835.38
545.819	3630.38
546.588	3454.38
547.358	3278.38
548.127	3104.38
548.896	2948.38
549.665	2801.38
550.434	2670.38
551.203	2501.38
551.972	2374.38
552.741	2232.38
553.51	2125.38
554.278	1994.38
555.047	1887.38
555.815	1781.38
556.584	1677.38
557.352	1599.38
558.121	1493.38
558.889	1415.38
559.657	1340.38
560.425	1264.38
561.193	1192.38
561.961	1132.38
562.729	1073.38
563.496	1007.38
564.264	951.38
565.032	908.38
565.799	858.38
566.567	804.38
567.334	762.38
568.101	719.38
568.869	682.38
569.636	634.38
570.403	607.38
571.17	568.38
571.937	538.38
572.704	509.38
573.471	491.38
574.237	455.38
575.004	432.38
575.771	405.38
576.537	376.38
577.303	355.38
578.07	337.38
578.836	318.38
579.602	297.38
580.368	278.38
581.134	268.38
581.9	255.38
582.666	247.38
583.432	227.38
584.198	214.38
584.964	211.38
585.729	201.38
586.495	180.38
587.26	172.38
588.025	167.38
588.791	160.38
589.556	149.38
590.321	141.38
591.086	142.38
591.851	129.38
592.616	124.38
593.381	121.38
594.146	111.38
594.911	107.38
595.675	101.38
596.44	99.38
597.204	94.38
597.969	92.38
598.733	80.38
599.497	77.38
600.261	79.38
601.025	71.38
601.79	70.38
602.553	67.38
603.317	68.38
604.081	64.38
604.845	60.38
605.609	57.38
606.372	59.38
607.136	51.38
607.899	49.38
608.662	48.38
609.426	46.38
610.189	45.38
610.952	44.38
611.715	40.38
612.478	41.38
613.241	38.38
614.004	39.38
614.767	35.38
615.529	32.38
616.292	36.38
617.055	31.38
617.817	32.38
618.579	29.38
619.342	27.38
620.104	28.38
620.866	27.38
621.628	26.38
622.39	26.38
623.152	25.38
623.914	24.38
624.676	24.38
625.438	24.38
626.199	20.38
626.961	22.38
627.722	21.38
628.484	18.38
629.245	19.38
630.006	18.38
630.768	18.38
631.529	17.38
632.29	15.38
633.051	14.38
633.812	14.38
634.573	18.38
635.333	17.38
636.094	16.38
636.855	16.38
637.615	13.38
638.376	15.38
639.136	12.38
639.896	12.38
640.657	13.38
641.417	14.38
642.177	17.38
642.937	13.38
643.697	13.38
644.457	9.38
645.216	12.38
645.976	12.38
646.736	6.38
647.495	10.38
648.255	10.38
649.014	13.38
649.774	8.38
650.533	11.38
651.292	11.38
652.051	10.38
652.81	11.38
653.569	11.38
654.328	8.38
655.087	10.38
655.846	9.38
656.604	10.38
657.363	8.38
658.121	8.38
658.88	8.38
659.638	7.38
660.397	8.38
661.155	6.38
661.913	8.38
662.671	7.38
663.429	6.38
664.187	9.38
664.945	7.38
665.703	9.38
666.46	9.38
667.218	5.38
667.976	6.38
668.733	7.38
669.49	7.38
670.248	7.38
671.005	7.38
671.762	8.38
672.519	4.38
673.276	4.38
674.033	4.38
674.79	7.38
675.547	4.38
676.304	4.38
677.06	4.38
677.817	8.38
678.574	6.38
679.33	5.38
680.086	7.38
680.843	5.38
681.599	6.38
682.355	7.38
683.111	6.38
683.867	6.38
684.623	5.38
685.379	6.38
686.135	3.38
686.89	3.38
687.646	9.38
688.402	4.38
689.157	6.38
689.912	6.38
690.668	4.38
691.423	4.38
692.178	3.38
692.933	4.38
693.688	4.38
694.443	2.38
695.198	4.38
695.953	5.38
696.708	6.38
697.462	5.38
698.217	5.38
698.972	4.38
699.726	4.38
700.48	6.38
701.235	2.38
701.989	6.38
702.743	5.38
703.497	5.38
704.251	3.38
705.005	4.38
705.759	2.38
706.513	4.38
707.266	5.38
708.02	5.38
708.774	6.38
709.527	6.38
710.28	4.38
711.034	5.38
711.787	4.38
712.54	5.38
713.293	4.38
714.046	7.38
714.799	6.38
715.552	3.38
716.305	5.38
717.058	4.38
717.81	4.38
718.563	6.38
719.315	4.38
720.068	4.38
720.82	3.38
721.573	6.38
722.325	6.38
723.077	5.38
723.829	6.38
724.581	5.38
725.333	8.38
726.085	3.38
726.836	6.38
727.588	2.38
728.34	3.38
729.091	6.38
729.843	5.38
730.594	4.38
731.346	5.38
732.097	4.38
732.848	6.38
733.599	6.38
734.35	6.38
735.101	6.38
735.852	6.38
736.603	9.38
737.354	3.38
738.104	6.38
738.855	5.38
739.605	8.38
740.356	7.38
741.106	6.38
741.856	8.38
742.607	7.38
743.357	7.38
744.107	5.38
744.857	6.38
745.607	5.38
746.357	7.38
747.106	9.38
747.856	4.38
748.606	9.38
749.355	7.38
750.105	7.38
750.854	8.38
751.603	9.38
752.353	8.38
753.102	8.38
753.851	8.38
754.6	10.38
755.349	8.38
756.098	8.38
756.847	7.38
757.595	8.38
758.344	8.38
759.093	8.38
759.841	9.38
760.589	9.38
761.338	7.38
762.086	8.38
762.834	9.38
763.582	10.38
764.331	11.38
765.079	10.38
765.826	7.38
766.574	12.38
767.322	9.38
768.07	9.38
768.817	11.38
769.565	10.38
770.312	10.38
771.06	11.38
771.807	12.38
772.554	10.38
773.302	10.38
774.049	13.38
774.796	13.38
775.543	11.38
776.29	10.38
777.036	12.38
777.783	10.38
778.53	12.38
779.276	12.38
780.023	12.38
780.769	12.38
781.516	12.38
782.262	10.38
783.008	8.38
783.754	12.38
784.5	12.38
785.246	11.38
785.992	10.38
786.738	11.38
787.484	13.38
788.23	9.38
788.975	10.38
789.721	12.38
790.466	11.38
791.212	11.38
791.957	12.38
792.702	9.38
793.447	12.38
794.193	12.38
794.938	10.38
795.683	10.38
796.427	9.38
797.172	13.38
797.917	11.38
798.662	10.38
799.406	9.38
800.151	8.38
800.895	9.38
801.64	9.38
802.384	11.38
803.128	9.38
803.872	11.38
804.616	11.38
805.36	9.38
806.104	8.38
806.848	7.38
807.592	9.38
808.336	7.38
809.079	8.38
809.823	7.38
810.566	8.38
811.31	8.38
812.053	8.38
812.796	5.38
813.539	7.38
814.283	6.38
815.026	6.38
815.769	7.38
816.511	6.38
817.254	4.38
817.997	6.38
818.74	6.38
819.482	5.38
820.225	8.38
820.967	5.38
821.71	5.38
822.452	6.38
823.194	4.38
823.936	6.38
824.678	6.38
825.42	4.38
826.162	5.38
826.904	5.38
827.646	3.38
828.388	2.38
829.129	5.38
829.871	2.38
830.612	5.38
831.354	4.38
832.095	3.38
832.836	4.38
833.577	5.38
834.319	5.38
835.06	4.38
835.801	2.38
836.542	3.38
837.282	2.38
838.023	5.38
838.764	2.38
839.504	2.38
840.245	2.38
840.985	3.38
841.726	3.38
842.466	3.38
843.206	5.38
843.946	2.38
844.687	4.38
845.427	2.38
846.166	5.38
846.906	4.38
847.646	3.38
848.386	7.38
849.125	3.38
849.865	4.38
850.605	4.38
851.344	4.38
852.083	4.38
852.823	3.38
853.562	2.38
854.301	3.38
855.04	0.38
855.779	2.38
856.518	4.38
857.257	4.38
857.995	3.38
858.734	2.38
859.473	2.38
860.211	2.38
860.95	4.38
861.688	2.38
862.426	2.38
863.165	4.38
863.903	0.38
864.641	3.38
865.379	-0.62
866.117	4.38
866.855	2.38
867.593	3.38
868.33	0.38
869.068	2.38
869.806	3.38
870.543	0.38
871.28	2.38
872.018	-0.62
872.755	2.38
873.492	2.38
874.229	2.38
874.967	2.38
875.703	0.38
876.44	1.38
877.177	0.38
877.914	1.38
878.651	-0.62
879.387	1.38
880.124	1.38
880.86	0.38
881.597	1.38
882.333	0.38
883.069	0.38
883.806	2.38
884.542	-0.62
885.278	2.38
886.014	1.38
886.749	1.38
887.485	2.38
888.221	0.38
888.957	3.38
889.692	1.38
890.428	0.38
891.163	1.38
891.899	0.38
892.634	3.38
893.369	0.38
894.104	1.38
894.839	1.38
895.574	2.38
896.309	0.38
897.044	-0.62
897.779	1.38
898.514	0.38
899.248	1.38
899.983	1.38
900.717	0.38
901.452	0.38
902.186	1.38
902.92	0.38
903.654	2.38
904.389	1.38
905.123	1.38
905.857	1.38
906.59	2.38
907.324	2.38
908.058	2.38
908.792	4.38
909.525	2.38
910.259	1.38
910.992	-0.62
911.726	3.38
912.459	-0.62
913.192	0.38
913.925	1.38
914.658	1.38
915.391	1.38
916.124	0.38
916.857	0.38
917.59	-0.62
918.323	0.38
919.055	0.38
919.788	-1.62
920.521	0.38
921.253	-1.62
921.985	2.38
922.718	-0.62
923.45	0.38
924.182	-1.62
924.914	0.38
925.646	1.38
926.378	-0.62
927.11	0.38
927.841	-2.62
928.573	-1.62
929.305	2.38
930.036	-0.62
930.768	0.38
931.499	-0.62
932.23	1.38
932.962	0.38
933.693	-0.62
934.424	0.38
935.155	0.38
935.886	1.38
936.617	0.38
937.348	0.38
938.078	2.38
938.809	1.38
939.54	2.38
940.27	1.38
941.001	-1.62
941.731	0.38
942.461	-0.62
943.191	-0.62
943.922	1.38
944.652	0.38
945.382	-0.62
946.112	0.38
946.841	-0.62
947.571	0.38
948.301	0.38
949.031	2.38
949.76	-1.62
950.49	-1.62
951.219	0.38
951.948	0.38
952.678	-0.62
953.407	0.38
954.136	0.38
954.865	0.38
955.594	-0.62
956.323	-1.62
957.052	-1.62
957.78	0.38
958.509	-0.62
959.238	0.38
959.966	-0.62
960.695	1.38
961.423	1.38
962.151	1.38
962.88	0.38
963.608	-0.62
964.336	-0.62
965.064	0.38
965.792	-0.62
966.52	2.38
967.247	0.38
967.975	1.38
968.703	0.38
969.43	1.38
970.158	2.38
970.885	0.38
971.613	0.38
972.34	-0.62
973.067	2.38
973.794	-0.62
974.521	2.38
975.248	1.38
975.975	-1.62
976.702	0.38
977.429	0.38
978.156	1.38
978.882	3.38
979.609	-0.62
980.335	-2.62
981.062	-0.62
981.788	2.38
982.514	-1.62
983.24	1.38
983.967	-0.62
984.693	-1.62
985.419	0.38
986.144	-0.62
986.87	2.38
987.596	1.38
988.322	-0.62
989.047	0.38
989.773	1.38
990.498	2.38
991.224	-1.62
991.949	-0.62
992.674	2.38
993.399	0.38
994.124	-0.62
994.849	-1.62
995.574	1.38
996.299	1.38
997.024	-0.62
997.749	0.38
998.473	0.38
999.198	0.38
999.922	-1.62
1000.647	0.38
1001.371	2.38
1002.095	-1.62
1002.82	0.38
1003.544	-1.62
1004.268	1.38
1004.992	0.38
1005.716	1.38
1006.439	2.38
1007.163	2.38
1007.887	2.38
1008.611	0.38
1009.334	1.38
1010.058	-1.62
1010.781	-0.62
1011.504	-0.62
1012.228	-0.62
1012.951	-0.62
1013.674	0.38
1014.397	0.38
1015.12	0.38
