节点500_425_QEPB04081__295__15-53-12-910.txt的数据

Date: Wed Nov 12 15:53:12 CST 2025
User: PC
Spectrometer: QEPB0408
触发模式: 0
积分时间 (秒): 1.000000E-2
Scans to average: 1
启用暗噪声校正: true
启用非线性校正: false
滑动平均宽度: 0
X轴模式: Wavelengths
Number of Pixels in Spectrum: 1044
>>>>>Begin Spectral Data<<<<<
220.843	0.88
221.644	3.88
222.444	2.88
223.244	5.88
224.045	2.88
224.845	2.88
225.645	2.88
226.445	3.88
227.245	4.88
228.045	4.88
228.845	3.88
229.645	5.88
230.444	3.88
231.244	5.88
232.043	6.88
232.843	6.88
233.642	4.88
234.442	6.88
235.241	4.88
236.04	5.88
236.839	6.88
237.638	6.88
238.437	6.88
239.236	7.88
240.035	9.88
240.833	7.88
241.632	6.88
242.43	6.88
243.229	7.88
244.027	8.88
244.826	7.88
245.624	7.88
246.422	8.88
247.22	7.88
248.018	9.88
248.816	8.88
249.614	9.88
250.412	9.88
251.21	10.88
252.007	10.88
252.805	12.88
253.602	11.88
254.4	12.88
255.197	10.88
255.994	12.88
256.791	14.88
257.589	14.88
258.386	11.88
259.183	13.88
259.979	15.88
260.776	14.88
261.573	13.88
262.37	16.88
263.166	18.88
263.963	14.88
264.759	14.88
265.556	17.88
266.352	18.88
267.148	18.88
267.944	19.88
268.74	21.88
269.536	20.88
270.332	19.88
271.128	21.88
271.924	21.88
272.719	20.88
273.515	21.88
274.311	21.88
275.106	23.88
275.901	22.88
276.697	24.88
277.492	24.88
278.287	22.88
279.082	24.88
279.877	26.88
280.672	28.88
281.467	23.88
282.262	26.88
283.056	28.88
283.851	22.88
284.646	26.88
285.44	26.88
286.234	25.88
287.029	23.88
287.823	26.88
288.617	22.88
289.411	25.88
290.205	23.88
290.999	24.88
291.793	25.88
292.587	23.88
293.381	21.88
294.174	22.88
294.968	21.88
295.761	22.88
296.555	17.88
297.348	20.88
298.141	23.88
298.935	25.88
299.728	19.88
300.521	18.88
301.314	16.88
302.107	16.88
302.899	18.88
303.692	15.88
304.485	18.88
305.277	14.88
306.07	15.88
306.862	17.88
307.655	14.88
308.447	16.88
309.239	16.88
310.031	12.88
310.823	14.88
311.615	14.88
312.407	15.88
313.199	13.88
313.991	11.88
314.783	12.88
315.574	12.88
316.366	14.88
317.157	7.88
317.949	9.88
318.74	9.88
319.531	9.88
320.322	10.88
321.113	10.88
321.904	9.88
322.695	11.88
323.486	9.88
324.277	6.88
325.068	8.88
325.858	10.88
326.649	9.88
327.439	10.88
328.23	7.88
329.02	9.88
329.81	7.88
330.6	8.88
331.391	8.88
332.181	9.88
332.971	8.88
333.76	8.88
334.55	5.88
335.34	6.88
336.13	9.88
336.919	7.88
337.709	9.88
338.498	6.88
339.287	10.88
340.077	7.88
340.866	7.88
341.655	10.88
342.444	10.88
343.233	7.88
344.022	9.88
344.811	10.88
345.6	9.88
346.388	8.88
347.177	8.88
347.965	8.88
348.754	7.88
349.542	6.88
350.33	8.88
351.119	8.88
351.907	9.88
352.695	5.88
353.483	7.88
354.271	7.88
355.059	7.88
355.846	8.88
356.634	8.88
357.422	5.88
358.209	7.88
358.997	7.88
359.784	8.88
360.571	8.88
361.359	7.88
362.146	7.88
362.933	7.88
363.72	7.88
364.507	7.88
365.294	5.88
366.081	7.88
366.867	5.88
367.654	4.88
368.44	6.88
369.227	8.88
370.013	6.88
370.8	6.88
371.586	6.88
372.372	5.88
373.158	7.88
373.944	6.88
374.73	6.88
375.516	8.88
376.302	5.88
377.088	5.88
377.873	6.88
378.659	7.88
379.445	7.88
380.23	5.88
381.015	8.88
381.801	6.88
382.586	7.88
383.371	7.88
384.156	10.88
384.941	7.88
385.726	5.88
386.511	7.88
387.296	7.88
388.08	8.88
388.865	6.88
389.649	5.88
390.434	7.88
391.218	10.88
392.003	8.88
392.787	9.88
393.571	10.88
394.355	7.88
395.139	8.88
395.923	7.88
396.707	8.88
397.491	10.88
398.274	8.88
399.058	9.88
399.842	9.88
400.625	10.88
401.408	11.88
402.192	9.88
402.975	14.88
403.758	10.88
404.541	8.88
405.324	10.88
406.107	9.88
406.89	10.88
407.673	10.88
408.456	11.88
409.238	11.88
410.021	8.88
410.803	14.88
411.586	12.88
412.368	11.88
413.151	10.88
413.933	12.88
414.715	14.88
415.497	12.88
416.279	11.88
417.061	12.88
417.843	14.88
418.624	16.88
419.406	13.88
420.188	15.88
420.969	13.88
421.751	13.88
422.532	15.88
423.313	13.88
424.095	13.88
424.876	17.88
425.657	15.88
426.438	17.88
427.219	18.88
428	17.88
428.78	17.88
429.561	21.88
430.342	19.88
431.122	20.88
431.903	18.88
432.683	21.88
433.464	23.88
434.244	23.88
435.024	22.88
435.804	26.88
436.584	28.88
437.364	26.88
438.144	28.88
438.924	30.88
439.704	28.88
440.483	34.88
441.263	36.88
442.042	36.88
442.822	45.88
443.601	43.88
444.38	46.88
445.16	47.88
445.939	48.88
446.718	58.88
447.497	64.88
448.276	66.88
449.054	73.88
449.833	76.88
450.612	84.88
451.391	90.88
452.169	102.88
452.948	113.88
453.726	122.88
454.504	139.88
455.282	148.88
456.061	162.88
456.839	185.88
457.617	205.88
458.395	221.88
459.172	254.88
459.95	284.88
460.728	317.88
461.506	354.88
462.283	398.88
463.061	441.88
463.838	494.88
464.615	560.88
465.393	628.88
466.17	687.88
466.947	772.88
467.724	860.88
468.501	944.88
469.278	1055.88
470.055	1161.88
470.831	1293.88
471.608	1430.88
472.385	1601.88
473.161	1762.88
473.938	1944.88
474.714	2151.88
475.49	2381.88
476.266	2620.88
477.043	2897.88
477.819	3179.88
478.595	3511.88
479.371	3851.88
480.146	4204.88
480.922	4645.88
481.698	5102.88
482.473	5590.88
483.249	6085.88
484.024	6690.88
484.8	7332.88
485.575	7990.88
486.35	8704.88
487.126	9511.88
487.901	10317.88
488.676	11288.88
489.451	12277.88
490.225	13330.88
491	14432.88
491.775	15663.88
492.55	16896.88
493.324	18218.88
494.099	19502.88
494.873	20767.88
495.647	22286.88
496.422	23586.88
497.196	25067.88
497.97	26627.88
498.744	28032.88
499.518	29399.88
500.292	30566.88
501.066	31642.88
501.839	32812.88
502.613	33733.88
503.387	34487.88
504.16	35010.88
504.934	35272.88
505.707	35310.88
506.48	35195.88
507.253	34915.88
508.027	34552.88
508.8	34037.88
509.573	33352.88
510.346	32459.88
511.118	31386.88
511.891	30530.88
512.664	29362.88
513.437	28210.88
514.209	27081.88
514.982	26178.88
515.754	25027.88
516.526	23974.88
517.298	22999.88
518.071	22025.88
518.843	21101.88
519.615	20224.88
520.387	19461.88
521.159	18730.88
521.93	18033.88
522.702	17234.88
523.474	16594.88
524.245	15980.88
525.017	15210.88
525.788	14506.88
526.56	13906.88
527.331	13214.88
528.102	12631.88
528.873	11988.88
529.644	11431.88
530.415	10916.88
531.186	10383.88
531.957	9794.88
532.728	9303.88
533.498	8807.88
534.269	8298.88
535.039	7900.88
535.81	7446.88
536.58	7023.88
537.351	6600.88
538.121	6264.88
538.891	5937.88
539.661	5628.88
540.431	5327.88
541.201	5031.88
541.971	4790.88
542.741	4535.88
543.51	4289.88
544.28	4089.88
545.05	3897.88
545.819	3703.88
546.588	3528.88
547.358	3342.88
548.127	3156.88
548.896	2990.88
549.665	2864.88
550.434	2699.88
551.203	2564.88
551.972	2429.88
552.741	2310.88
553.51	2176.88
554.278	2044.88
555.047	1928.88
555.815	1820.88
556.584	1722.88
557.352	1633.88
558.121	1537.88
558.889	1453.88
559.657	1375.88
560.425	1294.88
561.193	1225.88
561.961	1164.88
562.729	1096.88
563.496	1035.88
564.264	988.88
565.032	930.88
565.799	876.88
566.567	828.88
567.334	779.88
568.101	738.88
568.869	705.88
569.636	653.88
570.403	617.88
571.17	582.88
571.937	554.88
572.704	519.88
573.471	495.88
574.237	464.88
575.004	438.88
575.771	406.88
576.537	387.88
577.303	362.88
578.07	353.88
578.836	327.88
579.602	307.88
580.368	289.88
581.134	276.88
581.9	261.88
582.666	248.88
583.432	237.88
584.198	219.88
584.964	213.88
585.729	204.88
586.495	195.88
587.26	183.88
588.025	172.88
588.791	159.88
589.556	155.88
590.321	148.88
591.086	136.88
591.851	131.88
592.616	128.88
593.381	114.88
594.146	116.88
594.911	113.88
595.675	104.88
596.44	101.88
597.204	95.88
597.969	88.88
598.733	88.88
599.497	82.88
600.261	78.88
601.025	77.88
601.79	73.88
602.553	69.88
603.317	65.88
604.081	64.88
604.845	64.88
605.609	58.88
606.372	57.88
607.136	54.88
607.899	55.88
608.662	45.88
609.426	48.88
610.189	48.88
610.952	42.88
611.715	41.88
612.478	38.88
613.241	38.88
614.004	42.88
614.767	37.88
615.529	38.88
616.292	32.88
617.055	30.88
617.817	33.88
618.579	32.88
619.342	32.88
620.104	29.88
620.866	28.88
621.628	26.88
622.39	26.88
623.152	27.88
623.914	23.88
624.676	25.88
625.438	19.88
626.199	21.88
626.961	21.88
627.722	21.88
628.484	20.88
629.245	18.88
630.006	18.88
630.768	17.88
631.529	17.88
632.29	17.88
633.051	18.88
633.812	17.88
634.573	16.88
635.333	17.88
636.094	14.88
636.855	13.88
637.615	14.88
638.376	14.88
639.136	14.88
639.896	14.88
640.657	14.88
641.417	13.88
642.177	13.88
642.937	11.88
643.697	12.88
644.457	11.88
645.216	11.88
645.976	11.88
646.736	10.88
647.495	10.88
648.255	10.88
649.014	8.88
649.774	13.88
650.533	12.88
651.292	10.88
652.051	10.88
652.81	8.88
653.569	9.88
654.328	10.88
655.087	10.88
655.846	9.88
656.604	8.88
657.363	7.88
658.121	7.88
658.88	8.88
659.638	6.88
660.397	7.88
661.155	7.88
661.913	6.88
662.671	8.88
663.429	9.88
664.187	9.88
664.945	6.88
665.703	8.88
666.46	6.88
667.218	7.88
667.976	6.88
668.733	3.88
669.49	6.88
670.248	6.88
671.005	7.88
671.762	4.88
672.519	5.88
673.276	5.88
674.033	6.88
674.79	3.88
675.547	4.88
676.304	5.88
677.06	5.88
677.817	4.88
678.574	5.88
679.33	6.88
680.086	7.88
680.843	4.88
681.599	2.88
682.355	7.88
683.111	4.88
683.867	4.88
684.623	4.88
685.379	6.88
686.135	5.88
686.89	6.88
687.646	6.88
688.402	6.88
689.157	4.88
689.912	7.88
690.668	3.88
691.423	5.88
692.178	5.88
692.933	6.88
693.688	5.88
694.443	5.88
695.198	5.88
695.953	4.88
696.708	5.88
697.462	4.88
698.217	5.88
698.972	5.88
699.726	7.88
700.48	5.88
701.235	3.88
701.989	3.88
702.743	6.88
703.497	3.88
704.251	6.88
705.005	4.88
705.759	5.88
706.513	6.88
707.266	5.88
708.02	3.88
708.774	4.88
709.527	7.88
710.28	5.88
711.034	5.88
711.787	6.88
712.54	5.88
713.293	6.88
714.046	4.88
714.799	7.88
715.552	5.88
716.305	6.88
717.058	5.88
717.81	4.88
718.563	4.88
719.315	6.88
720.068	6.88
720.82	6.88
721.573	3.88
722.325	8.88
723.077	5.88
723.829	5.88
724.581	7.88
725.333	4.88
726.085	6.88
726.836	4.88
727.588	6.88
728.34	5.88
729.091	7.88
729.843	5.88
730.594	6.88
731.346	7.88
732.097	6.88
732.848	7.88
733.599	3.88
734.35	5.88
735.101	7.88
735.852	3.88
736.603	7.88
737.354	7.88
738.104	7.88
738.855	8.88
739.605	7.88
740.356	7.88
741.106	8.88
741.856	6.88
742.607	8.88
743.357	8.88
744.107	7.88
744.857	8.88
745.607	4.88
746.357	3.88
747.106	5.88
747.856	6.88
748.606	8.88
749.355	6.88
750.105	5.88
750.854	8.88
751.603	6.88
752.353	8.88
753.102	8.88
753.851	8.88
754.6	8.88
755.349	7.88
756.098	7.88
756.847	8.88
757.595	7.88
758.344	8.88
759.093	7.88
759.841	9.88
760.589	9.88
761.338	9.88
762.086	6.88
762.834	9.88
763.582	8.88
764.331	11.88
765.079	9.88
765.826	10.88
766.574	10.88
767.322	10.88
768.07	9.88
768.817	12.88
769.565	10.88
770.312	10.88
771.06	10.88
771.807	10.88
772.554	11.88
773.302	10.88
774.049	10.88
774.796	11.88
775.543	10.88
776.29	10.88
777.036	10.88
777.783	12.88
778.53	11.88
779.276	11.88
780.023	10.88
780.769	11.88
781.516	11.88
782.262	12.88
783.008	12.88
783.754	12.88
784.5	9.88
785.246	14.88
785.992	12.88
786.738	10.88
787.484	12.88
788.23	12.88
788.975	10.88
789.721	12.88
790.466	12.88
791.212	10.88
791.957	12.88
792.702	11.88
793.447	10.88
794.193	12.88
794.938	8.88
795.683	8.88
796.427	8.88
797.172	10.88
797.917	11.88
798.662	7.88
799.406	7.88
800.151	7.88
800.895	12.88
801.64	7.88
802.384	10.88
803.128	7.88
803.872	7.88
804.616	8.88
805.36	7.88
806.104	8.88
806.848	8.88
807.592	7.88
808.336	7.88
809.079	6.88
809.823	7.88
810.566	6.88
811.31	5.88
812.053	8.88
812.796	6.88
813.539	7.88
814.283	9.88
815.026	3.88
815.769	6.88
816.511	6.88
817.254	6.88
817.997	5.88
818.74	6.88
819.482	4.88
820.225	5.88
820.967	7.88
821.71	4.88
822.452	5.88
823.194	7.88
823.936	4.88
824.678	6.88
825.42	6.88
826.162	6.88
826.904	4.88
827.646	4.88
828.388	5.88
829.129	3.88
829.871	4.88
830.612	3.88
831.354	5.88
832.095	5.88
832.836	6.88
833.577	3.88
834.319	4.88
835.06	4.88
835.801	4.88
836.542	4.88
837.282	5.88
838.023	4.88
838.764	3.88
839.504	2.88
840.245	5.88
840.985	3.88
841.726	3.88
842.466	4.88
843.206	3.88
843.946	3.88
844.687	3.88
845.427	5.88
846.166	2.88
846.906	4.88
847.646	4.88
848.386	2.88
849.125	2.88
849.865	3.88
850.605	4.88
851.344	4.88
852.083	4.88
852.823	3.88
853.562	3.88
854.301	3.88
855.04	3.88
855.779	2.88
856.518	3.88
857.257	2.88
857.995	2.88
858.734	3.88
859.473	3.88
860.211	1.88
860.95	2.88
861.688	1.88
862.426	0.88
863.165	4.88
863.903	3.88
864.641	3.88
865.379	4.88
866.117	0.88
866.855	3.88
867.593	0.88
868.33	4.88
869.068	2.88
869.806	2.88
870.543	0.88
871.28	0.88
872.018	4.88
872.755	2.88
873.492	0.88
874.229	1.88
874.967	1.88
875.703	1.88
876.44	2.88
877.177	2.88
877.914	2.88
878.651	1.88
879.387	2.88
880.124	1.88
880.86	1.88
881.597	3.88
882.333	2.88
883.069	2.88
883.806	0.88
884.542	3.88
885.278	2.88
886.014	4.88
886.749	1.88
887.485	2.88
888.221	-0.12
888.957	1.88
889.692	1.88
890.428	2.88
891.163	2.88
891.899	1.88
892.634	-1.12
893.369	0.88
894.104	2.88
894.839	3.88
895.574	1.88
896.309	2.88
897.044	-0.12
897.779	0.88
898.514	0.88
899.248	0.88
899.983	2.88
900.717	0.88
901.452	-1.12
902.186	2.88
902.92	-0.12
903.654	1.88
904.389	-0.12
905.123	0.88
905.857	-0.12
906.59	0.88
907.324	2.88
908.058	1.88
908.792	1.88
909.525	-1.12
910.259	-0.12
910.992	0.88
911.726	1.88
912.459	3.88
913.192	-0.12
913.925	-0.12
914.658	-0.12
915.391	0.88
916.124	4.88
916.857	-0.12
917.59	0.88
918.323	0.88
919.055	-0.12
919.788	1.88
920.521	0.88
921.253	0.88
921.985	1.88
922.718	0.88
923.45	0.88
924.182	-0.12
924.914	1.88
925.646	0.88
926.378	0.88
927.11	1.88
927.841	0.88
928.573	-0.12
929.305	1.88
930.036	0.88
930.768	-1.12
931.499	1.88
932.23	0.88
932.962	-0.12
933.693	1.88
934.424	-0.12
935.155	0.88
935.886	-1.12
936.617	-3.12
937.348	-1.12
938.078	-0.12
938.809	1.88
939.54	2.88
940.27	-1.12
941.001	0.88
941.731	0.88
942.461	1.88
943.191	-0.12
943.922	0.88
944.652	0.88
945.382	-1.12
946.112	0.88
946.841	0.88
947.571	1.88
948.301	0.88
949.031	1.88
949.76	-1.12
950.49	0.88
951.219	-0.12
951.948	-0.12
952.678	1.88
953.407	3.88
954.136	-1.12
954.865	2.88
955.594	0.88
956.323	3.88
957.052	-0.12
957.78	-0.12
958.509	0.88
959.238	-0.12
959.966	-0.12
960.695	-0.12
961.423	0.88
962.151	1.88
962.88	-1.12
963.608	0.88
964.336	0.88
965.064	3.88
965.792	0.88
966.52	0.88
967.247	2.88
967.975	-1.12
968.703	1.88
969.43	0.88
970.158	0.88
970.885	-3.12
971.613	-1.12
972.34	-0.12
973.067	0.88
973.794	-0.12
974.521	-0.12
975.248	-0.12
975.975	-0.12
976.702	2.88
977.429	2.88
978.156	1.88
978.882	1.88
979.609	1.88
980.335	-2.12
981.062	0.88
981.788	0.88
982.514	0.88
983.24	0.88
983.967	-1.12
984.693	1.88
985.419	-0.12
986.144	0.88
986.87	-0.12
987.596	0.88
988.322	0.88
989.047	1.88
989.773	0.88
990.498	0.88
991.224	1.88
991.949	2.88
992.674	1.88
993.399	0.88
994.124	1.88
994.849	2.88
995.574	-1.12
996.299	0.88
997.024	0.88
997.749	0.88
998.473	0.88
999.198	-0.12
999.922	0.88
1000.647	1.88
1001.371	2.88
1002.095	-0.12
1002.82	-3.12
1003.544	-1.12
1004.268	0.88
1004.992	1.88
1005.716	2.88
1006.439	5.88
1007.163	3.88
1007.887	3.88
1008.611	-0.12
1009.334	-0.12
1010.058	1.88
1010.781	0.88
1011.504	-0.12
1012.228	0.88
1012.951	0.88
1013.674	0.88
1014.397	0.88
1015.12	-1.12
