节点500_425_QEPB04081__88__15-49-46-334.txt的数据

Date: Wed Nov 12 15:49:46 CST 2025
User: PC
Spectrometer: QEPB0408
触发模式: 0
积分时间 (秒): 1.000000E-2
Scans to average: 1
启用暗噪声校正: true
启用非线性校正: false
滑动平均宽度: 0
X轴模式: Wavelengths
Number of Pixels in Spectrum: 1044
>>>>>Begin Spectral Data<<<<<
220.843	2.38
221.644	4.38
222.444	4.38
223.244	6.38
224.045	4.38
224.845	2.38
225.645	4.38
226.445	3.38
227.245	6.38
228.045	3.38
228.845	4.38
229.645	5.38
230.444	5.38
231.244	4.38
232.043	5.38
232.843	5.38
233.642	4.38
234.442	5.38
235.241	6.38
236.04	4.38
236.839	3.38
237.638	5.38
238.437	8.38
239.236	6.38
240.035	7.38
240.833	4.38
241.632	7.38
242.43	8.38
243.229	9.38
244.027	4.38
244.826	7.38
245.624	6.38
246.422	9.38
247.22	10.38
248.018	10.38
248.816	11.38
249.614	10.38
250.412	11.38
251.21	8.38
252.007	11.38
252.805	11.38
253.602	8.38
254.4	10.38
255.197	11.38
255.994	12.38
256.791	11.38
257.589	13.38
258.386	13.38
259.183	15.38
259.979	18.38
260.776	13.38
261.573	16.38
262.37	17.38
263.166	17.38
263.963	20.38
264.759	18.38
265.556	19.38
266.352	20.38
267.148	22.38
267.944	20.38
268.74	20.38
269.536	21.38
270.332	23.38
271.128	24.38
271.924	22.38
272.719	21.38
273.515	25.38
274.311	23.38
275.106	24.38
275.901	26.38
276.697	26.38
277.492	24.38
278.287	24.38
279.082	25.38
279.877	26.38
280.672	30.38
281.467	24.38
282.262	25.38
283.056	28.38
283.851	25.38
284.646	24.38
285.44	22.38
286.234	24.38
287.029	25.38
287.823	25.38
288.617	25.38
289.411	24.38
290.205	24.38
290.999	25.38
291.793	25.38
292.587	23.38
293.381	22.38
294.174	21.38
294.968	25.38
295.761	22.38
296.555	22.38
297.348	22.38
298.141	19.38
298.935	22.38
299.728	18.38
300.521	18.38
301.314	19.38
302.107	17.38
302.899	15.38
303.692	19.38
304.485	15.38
305.277	15.38
306.07	17.38
306.862	16.38
307.655	17.38
308.447	14.38
309.239	17.38
310.031	17.38
310.823	14.38
311.615	12.38
312.407	10.38
313.199	15.38
313.991	12.38
314.783	11.38
315.574	13.38
316.366	11.38
317.157	10.38
317.949	11.38
318.74	12.38
319.531	10.38
320.322	8.38
321.113	8.38
321.904	10.38
322.695	10.38
323.486	8.38
324.277	10.38
325.068	10.38
325.858	10.38
326.649	11.38
327.439	9.38
328.23	11.38
329.02	12.38
329.81	9.38
330.6	9.38
331.391	7.38
332.181	9.38
332.971	6.38
333.76	10.38
334.55	8.38
335.34	9.38
336.13	10.38
336.919	8.38
337.709	9.38
338.498	9.38
339.287	9.38
340.077	8.38
340.866	10.38
341.655	10.38
342.444	8.38
343.233	9.38
344.022	7.38
344.811	9.38
345.6	9.38
346.388	6.38
347.177	8.38
347.965	8.38
348.754	7.38
349.542	9.38
350.33	8.38
351.119	9.38
351.907	5.38
352.695	7.38
353.483	5.38
354.271	8.38
355.059	8.38
355.846	9.38
356.634	8.38
357.422	7.38
358.209	10.38
358.997	5.38
359.784	6.38
360.571	8.38
361.359	6.38
362.146	8.38
362.933	7.38
363.72	9.38
364.507	6.38
365.294	5.38
366.081	7.38
366.867	5.38
367.654	7.38
368.44	10.38
369.227	6.38
370.013	7.38
370.8	8.38
371.586	5.38
372.372	7.38
373.158	8.38
373.944	9.38
374.73	5.38
375.516	5.38
376.302	8.38
377.088	6.38
377.873	7.38
378.659	7.38
379.445	9.38
380.23	5.38
381.015	7.38
381.801	7.38
382.586	5.38
383.371	10.38
384.156	8.38
384.941	6.38
385.726	7.38
386.511	6.38
387.296	6.38
388.08	8.38
388.865	8.38
389.649	7.38
390.434	9.38
391.218	7.38
392.003	9.38
392.787	9.38
393.571	9.38
394.355	10.38
395.139	11.38
395.923	9.38
396.707	10.38
397.491	8.38
398.274	7.38
399.058	8.38
399.842	12.38
400.625	7.38
401.408	10.38
402.192	7.38
402.975	9.38
403.758	10.38
404.541	9.38
405.324	13.38
406.107	10.38
406.89	13.38
407.673	11.38
408.456	10.38
409.238	11.38
410.021	10.38
410.803	13.38
411.586	10.38
412.368	11.38
413.151	12.38
413.933	15.38
414.715	13.38
415.497	12.38
416.279	10.38
417.061	12.38
417.843	13.38
418.624	16.38
419.406	14.38
420.188	14.38
420.969	13.38
421.751	14.38
422.532	13.38
423.313	13.38
424.095	17.38
424.876	13.38
425.657	19.38
426.438	15.38
427.219	17.38
428	19.38
428.78	18.38
429.561	19.38
430.342	19.38
431.122	21.38
431.903	21.38
432.683	18.38
433.464	24.38
434.244	20.38
435.024	25.38
435.804	23.38
436.584	26.38
437.364	29.38
438.144	27.38
438.924	32.38
439.704	34.38
440.483	33.38
441.263	33.38
442.042	37.38
442.822	40.38
443.601	38.38
444.38	44.38
445.16	46.38
445.939	51.38
446.718	54.38
447.497	57.38
448.276	63.38
449.054	70.38
449.833	71.38
450.612	81.38
451.391	96.38
452.169	95.38
452.948	106.38
453.726	119.38
454.504	127.38
455.282	140.38
456.061	161.38
456.839	171.38
457.617	189.38
458.395	215.38
459.172	236.38
459.95	267.38
460.728	296.38
461.506	336.38
462.283	370.38
463.061	416.38
463.838	476.38
464.615	522.38
465.393	591.38
466.17	659.38
466.947	738.38
467.724	817.38
468.501	924.38
469.278	1018.38
470.055	1128.38
470.831	1256.38
471.608	1409.38
472.385	1564.38
473.161	1736.38
473.938	1931.38
474.714	2120.38
475.49	2365.38
476.266	2631.38
477.043	2889.38
477.819	3203.38
478.595	3550.38
479.371	3896.38
480.146	4316.38
480.922	4743.38
481.698	5225.38
482.473	5749.38
483.249	6347.38
484.024	6954.38
484.8	7716.38
485.575	8400.38
486.35	9243.38
487.126	10163.38
487.901	11049.38
488.676	12072.38
489.451	13218.38
490.225	14395.38
491	15632.38
491.775	16980.38
492.55	18359.38
493.324	19834.38
494.099	21307.38
494.873	22688.38
495.647	24327.38
496.422	25837.38
497.196	27368.38
497.97	29045.38
498.744	30444.38
499.518	31856.38
500.292	33138.38
501.066	34137.38
501.839	35247.38
502.613	36132.38
503.387	36682.38
504.16	37072.38
504.934	37105.38
505.707	37014.38
506.48	36841.38
507.253	36245.38
508.027	35669.38
508.8	34891.38
509.573	33978.38
510.346	32971.38
511.118	31859.38
511.891	30641.38
512.664	29458.38
513.437	28151.38
514.209	26925.38
514.982	25928.38
515.754	24821.38
516.526	23672.38
517.298	22671.38
518.071	21707.38
518.843	20794.38
519.615	19958.38
520.387	19127.38
521.159	18462.38
521.93	17766.38
522.702	17004.38
523.474	16370.38
524.245	15667.38
525.017	14923.38
525.788	14268.38
526.56	13588.38
527.331	12919.38
528.102	12311.38
528.873	11719.38
529.644	11110.38
530.415	10626.38
531.186	10062.38
531.957	9513.38
532.728	9018.38
533.498	8484.38
534.269	8014.38
535.039	7563.38
535.81	7142.38
536.58	6750.38
537.351	6377.38
538.121	5990.38
538.891	5710.38
539.661	5411.38
540.431	5095.38
541.201	4830.38
541.971	4602.38
542.741	4372.38
543.51	4126.38
544.28	3930.38
545.05	3732.38
545.819	3580.38
546.588	3382.38
547.358	3210.38
548.127	3036.38
548.896	2906.38
549.665	2719.38
550.434	2567.38
551.203	2441.38
551.972	2324.38
552.741	2177.38
553.51	2080.38
554.278	1963.38
555.047	1826.38
555.815	1736.38
556.584	1650.38
557.352	1539.38
558.121	1441.38
558.889	1377.38
559.657	1313.38
560.425	1237.38
561.193	1150.38
561.961	1100.38
562.729	1037.38
563.496	984.38
564.264	927.38
565.032	892.38
565.799	837.38
566.567	781.38
567.334	752.38
568.101	700.38
568.869	656.38
569.636	625.38
570.403	585.38
571.17	546.38
571.937	523.38
572.704	490.38
573.471	456.38
574.237	440.38
575.004	420.38
575.771	390.38
576.537	372.38
577.303	340.38
578.07	326.38
578.836	303.38
579.602	286.38
580.368	274.38
581.134	259.38
581.9	251.38
582.666	242.38
583.432	232.38
584.198	214.38
584.964	195.38
585.729	185.38
586.495	176.38
587.26	171.38
588.025	161.38
588.791	152.38
589.556	149.38
590.321	136.38
591.086	127.38
591.851	125.38
592.616	121.38
593.381	112.38
594.146	109.38
594.911	107.38
595.675	97.38
596.44	95.38
597.204	90.38
597.969	89.38
598.733	79.38
599.497	80.38
600.261	77.38
601.025	72.38
601.79	70.38
602.553	69.38
603.317	62.38
604.081	62.38
604.845	59.38
605.609	57.38
606.372	54.38
607.136	50.38
607.899	46.38
608.662	46.38
609.426	47.38
610.189	44.38
610.952	42.38
611.715	39.38
612.478	38.38
613.241	37.38
614.004	33.38
614.767	37.38
615.529	32.38
616.292	33.38
617.055	31.38
617.817	29.38
618.579	27.38
619.342	30.38
620.104	29.38
620.866	26.38
621.628	27.38
622.39	25.38
623.152	22.38
623.914	24.38
624.676	21.38
625.438	23.38
626.199	20.38
626.961	19.38
627.722	20.38
628.484	23.38
629.245	19.38
630.006	19.38
630.768	18.38
631.529	17.38
632.29	15.38
633.051	15.38
633.812	16.38
634.573	19.38
635.333	17.38
636.094	12.38
636.855	16.38
637.615	11.38
638.376	14.38
639.136	12.38
639.896	15.38
640.657	12.38
641.417	14.38
642.177	12.38
642.937	10.38
643.697	12.38
644.457	12.38
645.216	12.38
645.976	13.38
646.736	12.38
647.495	10.38
648.255	10.38
649.014	9.38
649.774	10.38
650.533	8.38
651.292	13.38
652.051	7.38
652.81	10.38
653.569	9.38
654.328	8.38
655.087	9.38
655.846	7.38
656.604	11.38
657.363	8.38
658.121	9.38
658.88	6.38
659.638	7.38
660.397	10.38
661.155	8.38
661.913	9.38
662.671	5.38
663.429	6.38
664.187	7.38
664.945	5.38
665.703	7.38
666.46	8.38
667.218	6.38
667.976	7.38
668.733	7.38
669.49	7.38
670.248	6.38
671.005	8.38
671.762	7.38
672.519	6.38
673.276	5.38
674.033	7.38
674.79	5.38
675.547	5.38
676.304	7.38
677.06	7.38
677.817	6.38
678.574	7.38
679.33	5.38
680.086	6.38
680.843	6.38
681.599	5.38
682.355	4.38
683.111	4.38
683.867	5.38
684.623	4.38
685.379	5.38
686.135	3.38
686.89	3.38
687.646	6.38
688.402	6.38
689.157	4.38
689.912	6.38
690.668	5.38
691.423	5.38
692.178	5.38
692.933	4.38
693.688	2.38
694.443	7.38
695.198	4.38
695.953	2.38
696.708	6.38
697.462	4.38
698.217	5.38
698.972	4.38
699.726	5.38
700.48	4.38
701.235	3.38
701.989	6.38
702.743	5.38
703.497	7.38
704.251	3.38
705.005	3.38
705.759	5.38
706.513	6.38
707.266	7.38
708.02	5.38
708.774	5.38
709.527	4.38
710.28	5.38
711.034	4.38
711.787	6.38
712.54	4.38
713.293	5.38
714.046	4.38
714.799	3.38
715.552	3.38
716.305	5.38
717.058	6.38
717.81	5.38
718.563	7.38
719.315	4.38
720.068	4.38
720.82	6.38
721.573	4.38
722.325	5.38
723.077	5.38
723.829	6.38
724.581	2.38
725.333	5.38
726.085	7.38
726.836	6.38
727.588	3.38
728.34	6.38
729.091	4.38
729.843	6.38
730.594	4.38
731.346	6.38
732.097	3.38
732.848	7.38
733.599	4.38
734.35	7.38
735.101	5.38
735.852	8.38
736.603	5.38
737.354	6.38
738.104	9.38
738.855	6.38
739.605	4.38
740.356	7.38
741.106	7.38
741.856	8.38
742.607	8.38
743.357	7.38
744.107	6.38
744.857	10.38
745.607	6.38
746.357	6.38
747.106	5.38
747.856	7.38
748.606	7.38
749.355	9.38
750.105	7.38
750.854	9.38
751.603	5.38
752.353	8.38
753.102	8.38
753.851	6.38
754.6	7.38
755.349	8.38
756.098	8.38
756.847	9.38
757.595	8.38
758.344	8.38
759.093	8.38
759.841	10.38
760.589	9.38
761.338	10.38
762.086	9.38
762.834	8.38
763.582	7.38
764.331	8.38
765.079	10.38
765.826	10.38
766.574	8.38
767.322	9.38
768.07	9.38
768.817	10.38
769.565	7.38
770.312	9.38
771.06	9.38
771.807	10.38
772.554	11.38
773.302	9.38
774.049	10.38
774.796	11.38
775.543	12.38
776.29	10.38
777.036	11.38
777.783	10.38
778.53	10.38
779.276	11.38
780.023	12.38
780.769	12.38
781.516	10.38
782.262	11.38
783.008	12.38
783.754	12.38
784.5	13.38
785.246	14.38
785.992	11.38
786.738	12.38
787.484	14.38
788.23	13.38
788.975	12.38
789.721	13.38
790.466	12.38
791.212	11.38
791.957	10.38
792.702	12.38
793.447	11.38
794.193	10.38
794.938	14.38
795.683	11.38
796.427	11.38
797.172	9.38
797.917	10.38
798.662	10.38
799.406	7.38
800.151	10.38
800.895	9.38
801.64	9.38
802.384	11.38
803.128	9.38
803.872	10.38
804.616	9.38
805.36	7.38
806.104	9.38
806.848	8.38
807.592	8.38
808.336	6.38
809.079	10.38
809.823	8.38
810.566	8.38
811.31	7.38
812.053	6.38
812.796	6.38
813.539	6.38
814.283	4.38
815.026	8.38
815.769	6.38
816.511	6.38
817.254	8.38
817.997	4.38
818.74	6.38
819.482	7.38
820.225	4.38
820.967	6.38
821.71	6.38
822.452	4.38
823.194	5.38
823.936	7.38
824.678	3.38
825.42	4.38
826.162	4.38
826.904	5.38
827.646	5.38
828.388	5.38
829.129	5.38
829.871	5.38
830.612	4.38
831.354	7.38
832.095	3.38
832.836	4.38
833.577	4.38
834.319	6.38
835.06	5.38
835.801	3.38
836.542	4.38
837.282	5.38
838.023	5.38
838.764	3.38
839.504	5.38
840.245	5.38
840.985	3.38
841.726	5.38
842.466	3.38
843.206	3.38
843.946	3.38
844.687	4.38
845.427	5.38
846.166	0.38
846.906	5.38
847.646	2.38
848.386	2.38
849.125	3.38
849.865	3.38
850.605	4.38
851.344	2.38
852.083	5.38
852.823	3.38
853.562	3.38
854.301	4.38
855.04	1.38
855.779	2.38
856.518	1.38
857.257	2.38
857.995	2.38
858.734	3.38
859.473	3.38
860.211	2.38
860.95	3.38
861.688	2.38
862.426	4.38
863.165	2.38
863.903	4.38
864.641	1.38
865.379	2.38
866.117	2.38
866.855	2.38
867.593	1.38
868.33	2.38
869.068	3.38
869.806	1.38
870.543	2.38
871.28	0.38
872.018	0.38
872.755	4.38
873.492	2.38
874.229	1.38
874.967	3.38
875.703	0.38
876.44	1.38
877.177	2.38
877.914	1.38
878.651	1.38
879.387	0.38
880.124	4.38
880.86	0.38
881.597	0.38
882.333	1.38
883.069	-0.62
883.806	2.38
884.542	0.38
885.278	1.38
886.014	0.38
886.749	2.38
887.485	1.38
888.221	1.38
888.957	0.38
889.692	0.38
890.428	2.38
891.163	0.38
891.899	2.38
892.634	2.38
893.369	0.38
894.104	2.38
894.839	-0.62
895.574	-0.62
896.309	2.38
897.044	1.38
897.779	2.38
898.514	1.38
899.248	2.38
899.983	0.38
900.717	0.38
901.452	-0.62
902.186	0.38
902.92	2.38
903.654	1.38
904.389	-0.62
905.123	0.38
905.857	1.38
906.59	1.38
907.324	0.38
908.058	1.38
908.792	0.38
909.525	1.38
910.259	0.38
910.992	0.38
911.726	1.38
912.459	0.38
913.192	0.38
913.925	2.38
914.658	0.38
915.391	1.38
916.124	-0.62
916.857	1.38
917.59	-0.62
918.323	2.38
919.055	0.38
919.788	2.38
920.521	1.38
921.253	0.38
921.985	1.38
922.718	1.38
923.45	0.38
924.182	0.38
924.914	-1.62
925.646	1.38
926.378	1.38
927.11	0.38
927.841	0.38
928.573	0.38
929.305	0.38
930.036	0.38
930.768	0.38
931.499	-1.62
932.23	1.38
932.962	-1.62
933.693	1.38
934.424	0.38
935.155	-0.62
935.886	1.38
936.617	-0.62
937.348	1.38
938.078	-0.62
938.809	-0.62
939.54	2.38
940.27	0.38
941.001	-0.62
941.731	1.38
942.461	-0.62
943.191	0.38
943.922	0.38
944.652	1.38
945.382	-0.62
946.112	-0.62
946.841	-0.62
947.571	-0.62
948.301	0.38
949.031	-0.62
949.76	1.38
950.49	-0.62
951.219	-0.62
951.948	0.38
952.678	-1.62
953.407	0.38
954.136	1.38
954.865	-1.62
955.594	0.38
956.323	-0.62
957.052	0.38
957.78	-0.62
958.509	-0.62
959.238	0.38
959.966	-0.62
960.695	2.38
961.423	-0.62
962.151	0.38
962.88	0.38
963.608	3.38
964.336	-0.62
965.064	0.38
965.792	1.38
966.52	-0.62
967.247	0.38
967.975	2.38
968.703	-0.62
969.43	2.38
970.158	-0.62
970.885	1.38
971.613	1.38
972.34	1.38
973.067	0.38
973.794	-0.62
974.521	0.38
975.248	-0.62
975.975	0.38
976.702	0.38
977.429	-0.62
978.156	2.38
978.882	0.38
979.609	0.38
980.335	0.38
981.062	0.38
981.788	-0.62
982.514	0.38
983.24	0.38
983.967	-0.62
984.693	0.38
985.419	2.38
986.144	-0.62
986.87	2.38
987.596	-0.62
988.322	0.38
989.047	-1.62
989.773	0.38
990.498	-1.62
991.224	-0.62
991.949	0.38
992.674	-1.62
993.399	1.38
994.124	1.38
994.849	1.38
995.574	-0.62
996.299	-2.62
997.024	1.38
997.749	0.38
998.473	1.38
999.198	1.38
999.922	1.38
1000.647	0.38
1001.371	4.38
1002.095	-2.62
1002.82	-0.62
1003.544	-1.62
1004.268	3.38
1004.992	3.38
1005.716	2.38
1006.439	0.38
1007.163	1.38
1007.887	1.38
1008.611	-0.62
1009.334	0.38
1010.058	1.38
1010.781	-0.62
1011.504	1.38
1012.228	-0.62
1012.951	1.38
1013.674	0.38
1014.397	0.38
1015.12	-1.62
