节点500_425_QEPB04081__462__15-55-59-573.txt的数据

Date: Wed Nov 12 15:55:59 CST 2025
User: PC
Spectrometer: QEPB0408
触发模式: 0
积分时间 (秒): 1.000000E-2
Scans to average: 1
启用暗噪声校正: true
启用非线性校正: false
滑动平均宽度: 0
X轴模式: Wavelengths
Number of Pixels in Spectrum: 1044
>>>>>Begin Spectral Data<<<<<
220.843	3.62
221.644	3.62
222.444	1.62
223.244	4.62
224.045	2.62
224.845	3.62
225.645	2.62
226.445	0.62
227.245	5.62
228.045	3.62
228.845	5.62
229.645	1.62
230.444	4.62
231.244	7.62
232.043	4.62
232.843	4.62
233.642	5.62
234.442	5.62
235.241	4.62
236.04	7.62
236.839	7.62
237.638	5.62
238.437	4.62
239.236	5.62
240.035	7.62
240.833	5.62
241.632	9.62
242.43	6.62
243.229	4.62
244.027	6.62
244.826	9.62
245.624	8.62
246.422	8.62
247.22	9.62
248.018	5.62
248.816	10.62
249.614	9.62
250.412	10.62
251.21	10.62
252.007	7.62
252.805	9.62
253.602	10.62
254.4	10.62
255.197	13.62
255.994	13.62
256.791	11.62
257.589	11.62
258.386	14.62
259.183	12.62
259.979	12.62
260.776	15.62
261.573	15.62
262.37	14.62
263.166	12.62
263.963	17.62
264.759	16.62
265.556	17.62
266.352	16.62
267.148	16.62
267.944	18.62
268.74	15.62
269.536	19.62
270.332	19.62
271.128	19.62
271.924	22.62
272.719	22.62
273.515	23.62
274.311	19.62
275.106	22.62
275.901	21.62
276.697	22.62
277.492	21.62
278.287	20.62
279.082	22.62
279.877	23.62
280.672	21.62
281.467	24.62
282.262	23.62
283.056	21.62
283.851	24.62
284.646	20.62
285.44	21.62
286.234	21.62
287.029	22.62
287.823	26.62
288.617	22.62
289.411	22.62
290.205	23.62
290.999	25.62
291.793	23.62
292.587	22.62
293.381	23.62
294.174	21.62
294.968	22.62
295.761	20.62
296.555	18.62
297.348	21.62
298.141	21.62
298.935	23.62
299.728	21.62
300.521	20.62
301.314	17.62
302.107	19.62
302.899	14.62
303.692	20.62
304.485	15.62
305.277	17.62
306.07	14.62
306.862	16.62
307.655	17.62
308.447	16.62
309.239	14.62
310.031	14.62
310.823	13.62
311.615	13.62
312.407	16.62
313.199	14.62
313.991	10.62
314.783	12.62
315.574	13.62
316.366	11.62
317.157	11.62
317.949	10.62
318.74	12.62
319.531	10.62
320.322	11.62
321.113	8.62
321.904	9.62
322.695	11.62
323.486	12.62
324.277	8.62
325.068	12.62
325.858	8.62
326.649	9.62
327.439	8.62
328.23	6.62
329.02	7.62
329.81	9.62
330.6	9.62
331.391	9.62
332.181	8.62
332.971	9.62
333.76	9.62
334.55	7.62
335.34	9.62
336.13	8.62
336.919	10.62
337.709	8.62
338.498	7.62
339.287	9.62
340.077	8.62
340.866	7.62
341.655	9.62
342.444	8.62
343.233	8.62
344.022	6.62
344.811	9.62
345.6	8.62
346.388	9.62
347.177	9.62
347.965	10.62
348.754	7.62
349.542	9.62
350.33	8.62
351.119	8.62
351.907	6.62
352.695	8.62
353.483	7.62
354.271	8.62
355.059	6.62
355.846	8.62
356.634	7.62
357.422	5.62
358.209	6.62
358.997	6.62
359.784	9.62
360.571	9.62
361.359	7.62
362.146	6.62
362.933	8.62
363.72	7.62
364.507	5.62
365.294	7.62
366.081	6.62
366.867	7.62
367.654	5.62
368.44	8.62
369.227	6.62
370.013	6.62
370.8	5.62
371.586	6.62
372.372	7.62
373.158	4.62
373.944	6.62
374.73	8.62
375.516	4.62
376.302	7.62
377.088	4.62
377.873	7.62
378.659	5.62
379.445	6.62
380.23	7.62
381.015	7.62
381.801	9.62
382.586	6.62
383.371	5.62
384.156	6.62
384.941	4.62
385.726	9.62
386.511	7.62
387.296	6.62
388.08	7.62
388.865	7.62
389.649	8.62
390.434	7.62
391.218	10.62
392.003	7.62
392.787	8.62
393.571	9.62
394.355	10.62
395.139	9.62
395.923	9.62
396.707	8.62
397.491	8.62
398.274	11.62
399.058	5.62
399.842	9.62
400.625	12.62
401.408	9.62
402.192	10.62
402.975	9.62
403.758	9.62
404.541	10.62
405.324	9.62
406.107	7.62
406.89	11.62
407.673	11.62
408.456	8.62
409.238	8.62
410.021	10.62
410.803	9.62
411.586	10.62
412.368	9.62
413.151	11.62
413.933	14.62
414.715	10.62
415.497	12.62
416.279	13.62
417.061	14.62
417.843	9.62
418.624	15.62
419.406	14.62
420.188	12.62
420.969	14.62
421.751	17.62
422.532	12.62
423.313	15.62
424.095	16.62
424.876	15.62
425.657	15.62
426.438	15.62
427.219	17.62
428	18.62
428.78	18.62
429.561	18.62
430.342	18.62
431.122	18.62
431.903	20.62
432.683	22.62
433.464	21.62
434.244	24.62
435.024	19.62
435.804	25.62
436.584	24.62
437.364	27.62
438.144	30.62
438.924	29.62
439.704	33.62
440.483	34.62
441.263	38.62
442.042	38.62
442.822	41.62
443.601	46.62
444.38	45.62
445.16	52.62
445.939	55.62
446.718	61.62
447.497	66.62
448.276	71.62
449.054	76.62
449.833	83.62
450.612	88.62
451.391	95.62
452.169	108.62
452.948	118.62
453.726	132.62
454.504	146.62
455.282	159.62
456.061	177.62
456.839	201.62
457.617	218.62
458.395	253.62
459.172	275.62
459.95	304.62
460.728	338.62
461.506	371.62
462.283	425.62
463.061	466.62
463.838	516.62
464.615	586.62
465.393	657.62
466.17	716.62
466.947	798.62
467.724	882.62
468.501	967.62
469.278	1087.62
470.055	1193.62
470.831	1316.62
471.608	1457.62
472.385	1629.62
473.161	1772.62
473.938	1959.62
474.714	2168.62
475.49	2378.62
476.266	2612.62
477.043	2859.62
477.819	3113.62
478.595	3429.62
479.371	3783.62
480.146	4112.62
480.922	4505.62
481.698	4916.62
482.473	5360.62
483.249	5899.62
484.024	6406.62
484.8	6994.62
485.575	7613.62
486.35	8233.62
487.126	8953.62
487.901	9693.62
488.676	10570.62
489.451	11422.62
490.225	12424.62
491	13398.62
491.775	14537.62
492.55	15603.62
493.324	16814.62
494.099	17968.62
494.873	19159.62
495.647	20493.62
496.422	21776.62
497.196	23042.62
497.97	24459.62
498.744	25719.62
499.518	27104.62
500.292	28252.62
501.066	29342.62
501.839	30490.62
502.613	31422.62
503.387	32201.62
504.16	32812.62
504.934	33323.62
505.707	33535.62
506.48	33584.62
507.253	33518.62
508.027	33360.62
508.8	32948.62
509.573	32446.62
510.346	31796.62
511.118	30992.62
511.891	30119.62
512.664	29110.62
513.437	28129.62
514.209	27066.62
514.982	26158.62
515.754	25249.62
516.526	24099.62
517.298	23198.62
518.071	22160.62
518.843	21256.62
519.615	20439.62
520.387	19627.62
521.159	18920.62
521.93	18164.62
522.702	17414.62
523.474	16768.62
524.245	16158.62
525.017	15363.62
525.788	14730.62
526.56	14038.62
527.331	13424.62
528.102	12841.62
528.873	12254.62
529.644	11667.62
530.415	11162.62
531.186	10637.62
531.957	10134.62
532.728	9577.62
533.498	9075.62
534.269	8587.62
535.039	8114.62
535.81	7672.62
536.58	7334.62
537.351	6878.62
538.121	6460.62
538.891	6147.62
539.661	5831.62
540.431	5548.62
541.201	5229.62
541.971	4978.62
542.741	4692.62
543.51	4475.62
544.28	4245.62
545.05	4036.62
545.819	3831.62
546.588	3664.62
547.358	3451.62
548.127	3265.62
548.896	3105.62
549.665	2965.62
550.434	2810.62
551.203	2659.62
551.972	2525.62
552.741	2389.62
553.51	2268.62
554.278	2128.62
555.047	2011.62
555.815	1911.62
556.584	1823.62
557.352	1713.62
558.121	1599.62
558.889	1520.62
559.657	1447.62
560.425	1354.62
561.193	1289.62
561.961	1225.62
562.729	1162.62
563.496	1090.62
564.264	1032.62
565.032	970.62
565.799	927.62
566.567	880.62
567.334	816.62
568.101	781.62
568.869	730.62
569.636	684.62
570.403	657.62
571.17	609.62
571.937	584.62
572.704	542.62
573.471	537.62
574.237	487.62
575.004	458.62
575.771	430.62
576.537	412.62
577.303	384.62
578.07	362.62
578.836	346.62
579.602	319.62
580.368	303.62
581.134	294.62
581.9	280.62
582.666	265.62
583.432	251.62
584.198	232.62
584.964	227.62
585.729	209.62
586.495	204.62
587.26	192.62
588.025	180.62
588.791	169.62
589.556	161.62
590.321	148.62
591.086	149.62
591.851	142.62
592.616	130.62
593.381	128.62
594.146	117.62
594.911	109.62
595.675	109.62
596.44	102.62
597.204	97.62
597.969	95.62
598.733	86.62
599.497	85.62
600.261	82.62
601.025	80.62
601.79	73.62
602.553	73.62
603.317	69.62
604.081	62.62
604.845	60.62
605.609	59.62
606.372	57.62
607.136	58.62
607.899	54.62
608.662	52.62
609.426	46.62
610.189	51.62
610.952	43.62
611.715	46.62
612.478	42.62
613.241	37.62
614.004	40.62
614.767	36.62
615.529	36.62
616.292	34.62
617.055	32.62
617.817	31.62
618.579	33.62
619.342	31.62
620.104	26.62
620.866	27.62
621.628	26.62
622.39	26.62
623.152	26.62
623.914	25.62
624.676	23.62
625.438	24.62
626.199	21.62
626.961	22.62
627.722	22.62
628.484	21.62
629.245	21.62
630.006	20.62
630.768	19.62
631.529	13.62
632.29	19.62
633.051	19.62
633.812	16.62
634.573	18.62
635.333	15.62
636.094	14.62
636.855	17.62
637.615	14.62
638.376	13.62
639.136	12.62
639.896	13.62
640.657	13.62
641.417	14.62
642.177	13.62
642.937	10.62
643.697	11.62
644.457	9.62
645.216	10.62
645.976	11.62
646.736	13.62
647.495	10.62
648.255	13.62
649.014	14.62
649.774	9.62
650.533	10.62
651.292	7.62
652.051	9.62
652.81	11.62
653.569	9.62
654.328	8.62
655.087	6.62
655.846	7.62
656.604	7.62
657.363	7.62
658.121	8.62
658.88	4.62
659.638	6.62
660.397	7.62
661.155	7.62
661.913	8.62
662.671	5.62
663.429	8.62
664.187	7.62
664.945	9.62
665.703	6.62
666.46	8.62
667.218	6.62
667.976	4.62
668.733	6.62
669.49	7.62
670.248	6.62
671.005	4.62
671.762	2.62
672.519	6.62
673.276	6.62
674.033	6.62
674.79	4.62
675.547	6.62
676.304	5.62
677.06	3.62
677.817	6.62
678.574	6.62
679.33	4.62
680.086	6.62
680.843	4.62
681.599	6.62
682.355	6.62
683.111	6.62
683.867	5.62
684.623	8.62
685.379	5.62
686.135	5.62
686.89	7.62
687.646	5.62
688.402	5.62
689.157	4.62
689.912	3.62
690.668	7.62
691.423	2.62
692.178	7.62
692.933	5.62
693.688	5.62
694.443	6.62
695.198	4.62
695.953	7.62
696.708	1.62
697.462	9.62
698.217	6.62
698.972	5.62
699.726	3.62
700.48	2.62
701.235	4.62
701.989	5.62
702.743	5.62
703.497	6.62
704.251	5.62
705.005	6.62
705.759	4.62
706.513	5.62
707.266	6.62
708.02	3.62
708.774	5.62
709.527	3.62
710.28	4.62
711.034	4.62
711.787	3.62
712.54	3.62
713.293	4.62
714.046	4.62
714.799	2.62
715.552	4.62
716.305	5.62
717.058	4.62
717.81	6.62
718.563	6.62
719.315	7.62
720.068	5.62
720.82	6.62
721.573	6.62
722.325	5.62
723.077	7.62
723.829	4.62
724.581	3.62
725.333	8.62
726.085	4.62
726.836	5.62
727.588	5.62
728.34	6.62
729.091	6.62
729.843	5.62
730.594	5.62
731.346	6.62
732.097	8.62
732.848	4.62
733.599	8.62
734.35	6.62
735.101	4.62
735.852	6.62
736.603	4.62
737.354	9.62
738.104	5.62
738.855	7.62
739.605	6.62
740.356	5.62
741.106	7.62
741.856	6.62
742.607	9.62
743.357	7.62
744.107	5.62
744.857	5.62
745.607	5.62
746.357	7.62
747.106	6.62
747.856	9.62
748.606	6.62
749.355	7.62
750.105	6.62
750.854	5.62
751.603	8.62
752.353	6.62
753.102	8.62
753.851	9.62
754.6	6.62
755.349	6.62
756.098	8.62
756.847	8.62
757.595	6.62
758.344	6.62
759.093	10.62
759.841	5.62
760.589	8.62
761.338	10.62
762.086	9.62
762.834	7.62
763.582	7.62
764.331	8.62
765.079	6.62
765.826	10.62
766.574	7.62
767.322	9.62
768.07	9.62
768.817	9.62
769.565	8.62
770.312	11.62
771.06	6.62
771.807	8.62
772.554	9.62
773.302	11.62
774.049	10.62
774.796	9.62
775.543	9.62
776.29	11.62
777.036	12.62
777.783	8.62
778.53	9.62
779.276	10.62
780.023	8.62
780.769	13.62
781.516	10.62
782.262	11.62
783.008	10.62
783.754	12.62
784.5	11.62
785.246	10.62
785.992	10.62
786.738	10.62
787.484	9.62
788.23	10.62
788.975	9.62
789.721	9.62
790.466	11.62
791.212	11.62
791.957	10.62
792.702	10.62
793.447	10.62
794.193	10.62
794.938	10.62
795.683	10.62
796.427	10.62
797.172	10.62
797.917	10.62
798.662	10.62
799.406	7.62
800.151	7.62
800.895	9.62
801.64	10.62
802.384	4.62
803.128	9.62
803.872	9.62
804.616	7.62
805.36	8.62
806.104	7.62
806.848	9.62
807.592	7.62
808.336	7.62
809.079	7.62
809.823	6.62
810.566	5.62
811.31	6.62
812.053	7.62
812.796	6.62
813.539	8.62
814.283	9.62
815.026	5.62
815.769	9.62
816.511	7.62
817.254	7.62
817.997	4.62
818.74	5.62
819.482	5.62
820.225	6.62
820.967	5.62
821.71	5.62
822.452	5.62
823.194	6.62
823.936	4.62
824.678	7.62
825.42	4.62
826.162	5.62
826.904	4.62
827.646	3.62
828.388	4.62
829.129	2.62
829.871	4.62
830.612	3.62
831.354	1.62
832.095	4.62
832.836	4.62
833.577	5.62
834.319	3.62
835.06	2.62
835.801	5.62
836.542	4.62
837.282	4.62
838.023	5.62
838.764	4.62
839.504	3.62
840.245	4.62
840.985	5.62
841.726	5.62
842.466	4.62
843.206	2.62
843.946	4.62
844.687	2.62
845.427	4.62
846.166	4.62
846.906	2.62
847.646	3.62
848.386	5.62
849.125	3.62
849.865	5.62
850.605	1.62
851.344	7.62
852.083	5.62
852.823	3.62
853.562	4.62
854.301	2.62
855.04	3.62
855.779	1.62
856.518	4.62
857.257	3.62
857.995	5.62
858.734	4.62
859.473	2.62
860.211	3.62
860.95	2.62
861.688	4.62
862.426	2.62
863.165	-0.38
863.903	3.62
864.641	-0.38
865.379	1.62
866.117	1.62
866.855	4.62
867.593	2.62
868.33	1.62
869.068	4.62
869.806	1.62
870.543	2.62
871.28	1.62
872.018	1.62
872.755	5.62
873.492	2.62
874.229	3.62
874.967	3.62
875.703	0.62
876.44	-0.38
877.177	1.62
877.914	2.62
878.651	2.62
879.387	0.62
880.124	1.62
880.86	2.62
881.597	2.62
882.333	2.62
883.069	1.62
883.806	1.62
884.542	2.62
885.278	3.62
886.014	2.62
886.749	2.62
887.485	-0.38
888.221	1.62
888.957	2.62
889.692	0.62
890.428	2.62
891.163	-0.38
891.899	1.62
892.634	0.62
893.369	2.62
894.104	1.62
894.839	-0.38
895.574	3.62
896.309	-0.38
897.044	0.62
897.779	0.62
898.514	1.62
899.248	2.62
899.983	1.62
900.717	0.62
901.452	2.62
902.186	-1.38
902.92	0.62
903.654	0.62
904.389	4.62
905.123	0.62
905.857	0.62
906.59	0.62
907.324	1.62
908.058	1.62
908.792	1.62
909.525	2.62
910.259	-0.38
910.992	0.62
911.726	0.62
912.459	-0.38
913.192	1.62
913.925	0.62
914.658	0.62
915.391	2.62
916.124	0.62
916.857	-0.38
917.59	2.62
918.323	0.62
919.055	1.62
919.788	-0.38
920.521	2.62
921.253	1.62
921.985	1.62
922.718	-0.38
923.45	1.62
924.182	2.62
924.914	-0.38
925.646	0.62
926.378	-1.38
927.11	-1.38
927.841	1.62
928.573	2.62
929.305	1.62
930.036	0.62
930.768	-0.38
931.499	0.62
932.23	-0.38
932.962	2.62
933.693	-1.38
934.424	1.62
935.155	-0.38
935.886	0.62
936.617	1.62
937.348	-1.38
938.078	0.62
938.809	-1.38
939.54	1.62
940.27	-0.38
941.001	0.62
941.731	0.62
942.461	-1.38
943.191	0.62
943.922	-1.38
944.652	-0.38
945.382	-0.38
946.112	-1.38
946.841	1.62
947.571	2.62
948.301	1.62
949.031	-0.38
949.76	0.62
950.49	2.62
951.219	0.62
951.948	0.62
952.678	0.62
953.407	0.62
954.136	2.62
954.865	-0.38
955.594	-0.38
956.323	1.62
957.052	-0.38
957.78	-1.38
958.509	1.62
959.238	0.62
959.966	-0.38
960.695	0.62
961.423	-0.38
962.151	1.62
962.88	1.62
963.608	0.62
964.336	2.62
965.064	-1.38
965.792	1.62
966.52	0.62
967.247	-0.38
967.975	0.62
968.703	-0.38
969.43	0.62
970.158	1.62
970.885	0.62
971.613	0.62
972.34	1.62
973.067	2.62
973.794	0.62
974.521	0.62
975.248	0.62
975.975	0.62
976.702	0.62
977.429	-0.38
978.156	1.62
978.882	-0.38
979.609	0.62
980.335	-0.38
981.062	-0.38
981.788	-0.38
982.514	0.62
983.24	1.62
983.967	-0.38
984.693	3.62
985.419	2.62
986.144	-0.38
986.87	1.62
987.596	-1.38
988.322	-1.38
989.047	-0.38
989.773	-1.38
990.498	0.62
991.224	2.62
991.949	0.62
992.674	1.62
993.399	2.62
994.124	-1.38
994.849	0.62
995.574	0.62
996.299	-0.38
997.024	2.62
997.749	0.62
998.473	0.62
999.198	-1.38
999.922	2.62
1000.647	0.62
1001.371	3.62
1002.095	-1.38
1002.82	-1.38
1003.544	-0.38
1004.268	1.62
1004.992	0.62
1005.716	3.62
1006.439	2.62
1007.163	2.62
1007.887	2.62
1008.611	-0.38
1009.334	2.62
1010.058	0.62
1010.781	0.62
1011.504	1.62
1012.228	0.62
1012.951	-0.38
1013.674	-0.38
1014.397	-1.38
1015.12	1.62
