节点500_425_QEPB04081__319__15-53-36-836.txt的数据

Date: Wed Nov 12 15:53:36 CST 2025
User: PC
Spectrometer: QEPB0408
触发模式: 0
积分时间 (秒): 1.000000E-2
Scans to average: 1
启用暗噪声校正: true
启用非线性校正: false
滑动平均宽度: 0
X轴模式: Wavelengths
Number of Pixels in Spectrum: 1044
>>>>>Begin Spectral Data<<<<<
220.843	3
221.644	2
222.444	3
223.244	3
224.045	2
224.845	4
225.645	2
226.445	6
227.245	3
228.045	6
228.845	6
229.645	4
230.444	5
231.244	2
232.043	5
232.843	5
233.642	4
234.442	4
235.241	8
236.04	4
236.839	7
237.638	6
238.437	7
239.236	6
240.035	6
240.833	8
241.632	6
242.43	6
243.229	9
244.027	7
244.826	7
245.624	8
246.422	10
247.22	7
248.018	9
248.816	9
249.614	10
250.412	9
251.21	10
252.007	11
252.805	9
253.602	11
254.4	12
255.197	10
255.994	13
256.791	14
257.589	12
258.386	13
259.183	14
259.979	13
260.776	16
261.573	14
262.37	15
263.166	17
263.963	17
264.759	15
265.556	18
266.352	18
267.148	18
267.944	17
268.74	18
269.536	19
270.332	20
271.128	20
271.924	23
272.719	24
273.515	21
274.311	24
275.106	22
275.901	22
276.697	20
277.492	24
278.287	23
279.082	23
279.877	23
280.672	20
281.467	25
282.262	23
283.056	21
283.851	28
284.646	25
285.44	24
286.234	27
287.029	25
287.823	23
288.617	22
289.411	24
290.205	23
290.999	25
291.793	24
292.587	23
293.381	23
294.174	25
294.968	25
295.761	20
296.555	22
297.348	22
298.141	20
298.935	23
299.728	18
300.521	16
301.314	16
302.107	17
302.899	15
303.692	16
304.485	16
305.277	17
306.07	17
306.862	15
307.655	13
308.447	17
309.239	16
310.031	15
310.823	11
311.615	12
312.407	13
313.199	12
313.991	10
314.783	13
315.574	12
316.366	12
317.157	12
317.949	13
318.74	11
319.531	12
320.322	12
321.113	10
321.904	7
322.695	9
323.486	12
324.277	12
325.068	8
325.858	10
326.649	7
327.439	11
328.23	7
329.02	8
329.81	8
330.6	10
331.391	8
332.181	8
332.971	10
333.76	8
334.55	8
335.34	7
336.13	6
336.919	9
337.709	7
338.498	9
339.287	7
340.077	10
340.866	9
341.655	7
342.444	9
343.233	9
344.022	7
344.811	8
345.6	9
346.388	7
347.177	6
347.965	7
348.754	9
349.542	7
350.33	9
351.119	5
351.907	10
352.695	6
353.483	7
354.271	7
355.059	5
355.846	7
356.634	5
357.422	9
358.209	8
358.997	7
359.784	7
360.571	7
361.359	7
362.146	6
362.933	8
363.72	10
364.507	7
365.294	6
366.081	5
366.867	6
367.654	7
368.44	7
369.227	6
370.013	8
370.8	6
371.586	7
372.372	6
373.158	9
373.944	5
374.73	9
375.516	6
376.302	5
377.088	7
377.873	6
378.659	9
379.445	7
380.23	7
381.015	5
381.801	6
382.586	7
383.371	4
384.156	5
384.941	5
385.726	6
386.511	8
387.296	8
388.08	6
388.865	7
389.649	6
390.434	4
391.218	7
392.003	10
392.787	6
393.571	8
394.355	8
395.139	7
395.923	7
396.707	7
397.491	7
398.274	9
399.058	8
399.842	10
400.625	10
401.408	9
402.192	9
402.975	12
403.758	7
404.541	11
405.324	11
406.107	9
406.89	11
407.673	10
408.456	12
409.238	9
410.021	10
410.803	10
411.586	8
412.368	14
413.151	10
413.933	10
414.715	12
415.497	12
416.279	13
417.061	13
417.843	13
418.624	14
419.406	13
420.188	14
420.969	12
421.751	14
422.532	14
423.313	16
424.095	14
424.876	17
425.657	18
426.438	16
427.219	17
428	17
428.78	20
429.561	18
430.342	17
431.122	19
431.903	20
432.683	20
433.464	22
434.244	25
435.024	26
435.804	25
436.584	27
437.364	25
438.144	28
438.924	30
439.704	31
440.483	35
441.263	35
442.042	39
442.822	41
443.601	42
444.38	48
445.16	50
445.939	54
446.718	58
447.497	60
448.276	65
449.054	73
449.833	82
450.612	84
451.391	95
452.169	103
452.948	110
453.726	121
454.504	135
455.282	154
456.061	172
456.839	190
457.617	211
458.395	231
459.172	256
459.95	290
460.728	321
461.506	358
462.283	401
463.061	450
463.838	497
464.615	555
465.393	631
466.17	690
466.947	758
467.724	856
468.501	951
469.278	1050
470.055	1183
470.831	1307
471.608	1439
472.385	1604
473.161	1770
473.938	1947
474.714	2150
475.49	2374
476.266	2607
477.043	2872
477.819	3167
478.595	3476
479.371	3838
480.146	4174
480.922	4611
481.698	5067
482.473	5528
483.249	6027
484.024	6643
484.8	7300
485.575	7913
486.35	8635
487.126	9432
487.901	10281
488.676	11178
489.451	12201
490.225	13208
491	14335
491.775	15500
492.55	16721
493.324	18049
494.099	19325
494.873	20650
495.647	21990
496.422	23383
497.196	24845
497.97	26256
498.744	27732
499.518	29124
500.292	30274
501.066	31286
501.839	32552
502.613	33404
503.387	34160
504.16	34722
504.934	35042
505.707	35096
506.48	34992
507.253	34714
508.027	34460
508.8	33886
509.573	33168
510.346	32437
511.118	31405
511.891	30485
512.664	29276
513.437	28198
514.209	27097
514.982	26163
515.754	25026
516.526	24006
517.298	23012
518.071	22007
518.843	21138
519.615	20300
520.387	19425
521.159	18682
521.93	17982
522.702	17273
523.474	16548
524.245	15946
525.017	15169
525.788	14558
526.56	13803
527.331	13223
528.102	12585
528.873	12018
529.644	11452
530.415	10947
531.186	10396
531.957	9908
532.728	9341
533.498	8837
534.269	8368
535.039	7887
535.81	7450
536.58	7027
537.351	6638
538.121	6265
538.891	5940
539.661	5602
540.431	5371
541.201	5071
541.971	4795
542.741	4532
543.51	4316
544.28	4104
545.05	3904
545.819	3742
546.588	3536
547.358	3316
548.127	3163
548.896	3028
549.665	2862
550.434	2728
551.203	2584
551.972	2425
552.741	2308
553.51	2184
554.278	2059
555.047	1947
555.815	1835
556.584	1730
557.352	1631
558.121	1555
558.889	1452
559.657	1385
560.425	1293
561.193	1224
561.961	1166
562.729	1096
563.496	1024
564.264	980
565.032	921
565.799	884
566.567	832
567.334	789
568.101	742
568.869	705
569.636	658
570.403	634
571.17	580
571.937	559
572.704	533
573.471	494
574.237	474
575.004	436
575.771	411
576.537	385
577.303	369
578.07	343
578.836	331
579.602	310
580.368	290
581.134	276
581.9	264
582.666	247
583.432	232
584.198	224
584.964	210
585.729	203
586.495	189
587.26	179
588.025	172
588.791	162
589.556	158
590.321	149
591.086	142
591.851	135
592.616	129
593.381	118
594.146	116
594.911	109
595.675	105
596.44	101
597.204	93
597.969	93
598.733	87
599.497	81
600.261	80
601.025	75
601.79	74
602.553	69
603.317	69
604.081	64
604.845	59
605.609	57
606.372	58
607.136	54
607.899	52
608.662	52
609.426	47
610.189	44
610.952	44
611.715	38
612.478	42
613.241	37
614.004	42
614.767	41
615.529	36
616.292	37
617.055	31
617.817	30
618.579	29
619.342	29
620.104	30
620.866	29
621.628	29
622.39	21
623.152	26
623.914	25
624.676	25
625.438	22
626.199	24
626.961	23
627.722	20
628.484	21
629.245	22
630.006	18
630.768	19
631.529	19
632.29	16
633.051	18
633.812	16
634.573	18
635.333	16
636.094	16
636.855	14
637.615	15
638.376	15
639.136	14
639.896	12
640.657	11
641.417	13
642.177	13
642.937	12
643.697	12
644.457	8
645.216	12
645.976	11
646.736	13
647.495	8
648.255	11
649.014	9
649.774	9
650.533	9
651.292	12
652.051	7
652.81	12
653.569	7
654.328	7
655.087	11
655.846	8
656.604	9
657.363	9
658.121	7
658.88	10
659.638	8
660.397	7
661.155	6
661.913	8
662.671	8
663.429	9
664.187	6
664.945	7
665.703	8
666.46	8
667.218	8
667.976	5
668.733	6
669.49	6
670.248	7
671.005	6
671.762	8
672.519	7
673.276	6
674.033	6
674.79	6
675.547	5
676.304	6
677.06	7
677.817	6
678.574	4
679.33	7
680.086	6
680.843	5
681.599	7
682.355	4
683.111	4
683.867	5
684.623	6
685.379	6
686.135	5
686.89	3
687.646	6
688.402	5
689.157	4
689.912	3
690.668	4
691.423	4
692.178	3
692.933	8
693.688	5
694.443	6
695.198	4
695.953	4
696.708	5
697.462	5
698.217	4
698.972	7
699.726	5
700.48	3
701.235	6
701.989	6
702.743	5
703.497	4
704.251	6
705.005	6
705.759	7
706.513	5
707.266	6
708.02	5
708.774	7
709.527	5
710.28	4
711.034	5
711.787	3
712.54	4
713.293	6
714.046	4
714.799	5
715.552	4
716.305	4
717.058	5
717.81	5
718.563	5
719.315	3
720.068	8
720.82	6
721.573	4
722.325	6
723.077	5
723.829	1
724.581	2
725.333	6
726.085	5
726.836	5
727.588	6
728.34	5
729.091	6
729.843	4
730.594	5
731.346	7
732.097	8
732.848	6
733.599	6
734.35	5
735.101	5
735.852	7
736.603	6
737.354	4
738.104	8
738.855	6
739.605	7
740.356	6
741.106	4
741.856	8
742.607	4
743.357	8
744.107	8
744.857	8
745.607	8
746.357	6
747.106	6
747.856	8
748.606	6
749.355	7
750.105	6
750.854	7
751.603	6
752.353	7
753.102	8
753.851	7
754.6	7
755.349	7
756.098	7
756.847	7
757.595	8
758.344	8
759.093	7
759.841	10
760.589	7
761.338	9
762.086	8
762.834	9
763.582	9
764.331	9
765.079	9
765.826	7
766.574	9
767.322	9
768.07	10
768.817	10
769.565	8
770.312	10
771.06	8
771.807	9
772.554	9
773.302	11
774.049	13
774.796	9
775.543	10
776.29	10
777.036	10
777.783	11
778.53	12
779.276	11
780.023	13
780.769	9
781.516	12
782.262	11
783.008	10
783.754	11
784.5	10
785.246	12
785.992	10
786.738	12
787.484	12
788.23	10
788.975	9
789.721	11
790.466	12
791.212	9
791.957	10
792.702	12
793.447	12
794.193	8
794.938	11
795.683	10
796.427	12
797.172	10
797.917	9
798.662	12
799.406	10
800.151	7
800.895	9
801.64	9
802.384	10
803.128	9
803.872	10
804.616	11
805.36	9
806.104	7
806.848	7
807.592	6
808.336	9
809.079	8
809.823	9
810.566	4
811.31	5
812.053	5
812.796	9
813.539	7
814.283	7
815.026	10
815.769	7
816.511	7
817.254	5
817.997	5
818.74	5
819.482	7
820.225	7
820.967	7
821.71	3
822.452	6
823.194	6
823.936	4
824.678	3
825.42	6
826.162	6
826.904	7
827.646	2
828.388	7
829.129	4
829.871	3
830.612	6
831.354	4
832.095	3
832.836	3
833.577	5
834.319	4
835.06	2
835.801	5
836.542	3
837.282	5
838.023	6
838.764	2
839.504	5
840.245	5
840.985	5
841.726	5
842.466	5
843.206	3
843.946	2
844.687	5
845.427	3
846.166	5
846.906	4
847.646	4
848.386	3
849.125	6
849.865	4
850.605	4
851.344	3
852.083	1
852.823	3
853.562	5
854.301	2
855.04	3
855.779	1
856.518	3
857.257	2
857.995	0
858.734	5
859.473	2
860.211	1
860.95	2
861.688	2
862.426	2
863.165	5
863.903	3
864.641	2
865.379	3
866.117	4
866.855	2
867.593	1
868.33	3
869.068	1
869.806	2
870.543	2
871.28	4
872.018	2
872.755	4
873.492	1
874.229	0
874.967	4
875.703	0
876.44	3
877.177	1
877.914	1
878.651	1
879.387	2
880.124	2
880.86	0
881.597	1
882.333	0
883.069	0
883.806	2
884.542	0
885.278	2
886.014	1
886.749	1
887.485	1
888.221	1
888.957	2
889.692	-2
890.428	2
891.163	2
891.899	2
892.634	2
893.369	-1
894.104	1
894.839	0
895.574	1
896.309	0
897.044	1
897.779	2
898.514	1
899.248	1
899.983	1
900.717	0
901.452	0
902.186	0
902.92	-2
903.654	2
904.389	-2
905.123	0
905.857	1
906.59	3
907.324	0
908.058	2
908.792	0
909.525	2
910.259	1
910.992	-1
911.726	1
912.459	1
913.192	-1
913.925	1
914.658	0
915.391	0
916.124	1
916.857	1
917.59	1
918.323	2
919.055	1
919.788	-2
920.521	1
921.253	2
921.985	-2
922.718	1
923.45	-1
924.182	-1
924.914	1
925.646	2
926.378	1
927.11	1
927.841	1
928.573	-2
929.305	1
930.036	0
930.768	1
931.499	1
932.23	2
932.962	4
933.693	-1
934.424	2
935.155	0
935.886	0
936.617	2
937.348	-1
938.078	0
938.809	0
939.54	-2
940.27	1
941.001	1
941.731	0
942.461	0
943.191	-1
943.922	0
944.652	0
945.382	2
946.112	-2
946.841	1
947.571	0
948.301	-2
949.031	1
949.76	1
950.49	0
951.219	-1
951.948	0
952.678	0
953.407	0
954.136	0
954.865	2
955.594	0
956.323	-2
957.052	0
957.78	-2
958.509	-1
959.238	2
959.966	0
960.695	-1
961.423	-3
962.151	-1
962.88	0
963.608	1
964.336	1
965.064	-2
965.792	3
966.52	1
967.247	1
967.975	0
968.703	1
969.43	-1
970.158	0
970.885	1
971.613	-4
972.34	-1
973.067	2
973.794	0
974.521	0
975.248	2
975.975	-2
976.702	2
977.429	0
978.156	1
978.882	0
979.609	1
980.335	-1
981.062	2
981.788	1
982.514	1
983.24	2
983.967	1
984.693	-1
985.419	1
986.144	-1
986.87	1
987.596	-1
988.322	2
989.047	-1
989.773	0
990.498	0
991.224	1
991.949	-1
992.674	0
993.399	-1
994.124	2
994.849	-2
995.574	-2
996.299	-1
997.024	1
997.749	0
998.473	-1
999.198	0
999.922	-1
1000.647	2
1001.371	5
1002.095	-2
1002.82	-1
1003.544	-1
1004.268	3
1004.992	5
1005.716	2
1006.439	0
1007.163	2
1007.887	2
1008.611	0
1009.334	-1
1010.058	1
1010.781	0
1011.504	2
1012.228	0
1012.951	2
1013.674	-2
1014.397	0
1015.12	-1
