节点500_425_QEPB04081__47__15-49-05-427.txt的数据

Date: Wed Nov 12 15:49:05 CST 2025
User: PC
Spectrometer: QEPB0408
触发模式: 0
积分时间 (秒): 1.000000E-2
Scans to average: 1
启用暗噪声校正: true
启用非线性校正: false
滑动平均宽度: 0
X轴模式: Wavelengths
Number of Pixels in Spectrum: 1044
>>>>>Begin Spectral Data<<<<<
220.843	4.38
221.644	3.38
222.444	6.38
223.244	3.38
224.045	5.38
224.845	6.38
225.645	5.38
226.445	5.38
227.245	2.38
228.045	6.38
228.845	6.38
229.645	5.38
230.444	6.38
231.244	7.38
232.043	7.38
232.843	6.38
233.642	8.38
234.442	7.38
235.241	7.38
236.04	7.38
236.839	6.38
237.638	5.38
238.437	6.38
239.236	6.38
240.035	9.38
240.833	7.38
241.632	10.38
242.43	9.38
243.229	12.38
244.027	8.38
244.826	9.38
245.624	9.38
246.422	8.38
247.22	11.38
248.018	10.38
248.816	11.38
249.614	9.38
250.412	12.38
251.21	12.38
252.007	12.38
252.805	11.38
253.602	12.38
254.4	13.38
255.197	11.38
255.994	12.38
256.791	14.38
257.589	11.38
258.386	18.38
259.183	16.38
259.979	18.38
260.776	17.38
261.573	18.38
262.37	16.38
263.166	22.38
263.963	20.38
264.759	19.38
265.556	22.38
266.352	22.38
267.148	20.38
267.944	26.38
268.74	19.38
269.536	25.38
270.332	27.38
271.128	22.38
271.924	23.38
272.719	23.38
273.515	26.38
274.311	23.38
275.106	24.38
275.901	25.38
276.697	26.38
277.492	28.38
278.287	24.38
279.082	27.38
279.877	27.38
280.672	25.38
281.467	26.38
282.262	27.38
283.056	26.38
283.851	30.38
284.646	29.38
285.44	29.38
286.234	27.38
287.029	25.38
287.823	28.38
288.617	27.38
289.411	27.38
290.205	23.38
290.999	27.38
291.793	26.38
292.587	23.38
293.381	22.38
294.174	23.38
294.968	25.38
295.761	21.38
296.555	21.38
297.348	22.38
298.141	22.38
298.935	23.38
299.728	21.38
300.521	17.38
301.314	20.38
302.107	20.38
302.899	16.38
303.692	19.38
304.485	18.38
305.277	19.38
306.07	15.38
306.862	15.38
307.655	19.38
308.447	15.38
309.239	18.38
310.031	14.38
310.823	13.38
311.615	11.38
312.407	12.38
313.199	14.38
313.991	14.38
314.783	13.38
315.574	12.38
316.366	12.38
317.157	13.38
317.949	10.38
318.74	11.38
319.531	10.38
320.322	11.38
321.113	9.38
321.904	9.38
322.695	10.38
323.486	9.38
324.277	9.38
325.068	9.38
325.858	11.38
326.649	9.38
327.439	7.38
328.23	9.38
329.02	12.38
329.81	9.38
330.6	8.38
331.391	6.38
332.181	9.38
332.971	7.38
333.76	11.38
334.55	9.38
335.34	9.38
336.13	9.38
336.919	8.38
337.709	11.38
338.498	9.38
339.287	7.38
340.077	9.38
340.866	11.38
341.655	10.38
342.444	10.38
343.233	9.38
344.022	10.38
344.811	6.38
345.6	10.38
346.388	8.38
347.177	10.38
347.965	9.38
348.754	9.38
349.542	10.38
350.33	9.38
351.119	9.38
351.907	10.38
352.695	10.38
353.483	9.38
354.271	6.38
355.059	10.38
355.846	6.38
356.634	10.38
357.422	9.38
358.209	11.38
358.997	9.38
359.784	8.38
360.571	9.38
361.359	8.38
362.146	8.38
362.933	8.38
363.72	8.38
364.507	8.38
365.294	9.38
366.081	8.38
366.867	8.38
367.654	6.38
368.44	7.38
369.227	8.38
370.013	7.38
370.8	7.38
371.586	7.38
372.372	7.38
373.158	7.38
373.944	7.38
374.73	6.38
375.516	9.38
376.302	8.38
377.088	8.38
377.873	9.38
378.659	5.38
379.445	7.38
380.23	9.38
381.015	8.38
381.801	6.38
382.586	9.38
383.371	9.38
384.156	6.38
384.941	10.38
385.726	7.38
386.511	6.38
387.296	8.38
388.08	6.38
388.865	9.38
389.649	9.38
390.434	10.38
391.218	10.38
392.003	9.38
392.787	10.38
393.571	9.38
394.355	10.38
395.139	9.38
395.923	9.38
396.707	10.38
397.491	10.38
398.274	11.38
399.058	9.38
399.842	13.38
400.625	9.38
401.408	10.38
402.192	10.38
402.975	9.38
403.758	11.38
404.541	11.38
405.324	12.38
406.107	11.38
406.89	9.38
407.673	11.38
408.456	12.38
409.238	13.38
410.021	12.38
410.803	13.38
411.586	13.38
412.368	13.38
413.151	13.38
413.933	16.38
414.715	13.38
415.497	13.38
416.279	15.38
417.061	12.38
417.843	13.38
418.624	16.38
419.406	15.38
420.188	16.38
420.969	16.38
421.751	16.38
422.532	16.38
423.313	14.38
424.095	18.38
424.876	17.38
425.657	16.38
426.438	18.38
427.219	21.38
428	19.38
428.78	20.38
429.561	17.38
430.342	23.38
431.122	20.38
431.903	23.38
432.683	24.38
433.464	23.38
434.244	22.38
435.024	24.38
435.804	26.38
436.584	27.38
437.364	31.38
438.144	31.38
438.924	30.38
439.704	34.38
440.483	36.38
441.263	36.38
442.042	38.38
442.822	40.38
443.601	43.38
444.38	45.38
445.16	46.38
445.939	52.38
446.718	53.38
447.497	61.38
448.276	63.38
449.054	71.38
449.833	72.38
450.612	81.38
451.391	90.38
452.169	97.38
452.948	106.38
453.726	115.38
454.504	126.38
455.282	145.38
456.061	151.38
456.839	173.38
457.617	189.38
458.395	215.38
459.172	238.38
459.95	275.38
460.728	294.38
461.506	330.38
462.283	375.38
463.061	419.38
463.838	462.38
464.615	511.38
465.393	574.38
466.17	655.38
466.947	723.38
467.724	801.38
468.501	900.38
469.278	1003.38
470.055	1119.38
470.831	1258.38
471.608	1393.38
472.385	1547.38
473.161	1719.38
473.938	1899.38
474.714	2121.38
475.49	2355.38
476.266	2617.38
477.043	2881.38
477.819	3205.38
478.595	3560.38
479.371	3936.38
480.146	4355.38
480.922	4784.38
481.698	5276.38
482.473	5807.38
483.249	6478.38
484.024	7094.38
484.8	7817.38
485.575	8569.38
486.35	9383.38
487.126	10293.38
487.901	11297.38
488.676	12362.38
489.451	13542.38
490.225	14705.38
491	16008.38
491.775	17429.38
492.55	18866.38
493.324	20365.38
494.099	21796.38
494.873	23292.38
495.647	24897.38
496.422	26484.38
497.196	28096.38
497.97	29747.38
498.744	31263.38
499.518	32657.38
500.292	33872.38
501.066	35002.38
501.839	35990.38
502.613	36766.38
503.387	37372.38
504.16	37722.38
504.934	37733.38
505.707	37550.38
506.48	37229.38
507.253	36603.38
508.027	35960.38
508.8	35100.38
509.573	34028.38
510.346	33043.38
511.118	31924.38
511.891	30692.38
512.664	29393.38
513.437	28146.38
514.209	26947.38
514.982	25838.38
515.754	24636.38
516.526	23539.38
517.298	22570.38
518.071	21620.38
518.843	20717.38
519.615	19913.38
520.387	19031.38
521.159	18367.38
521.93	17661.38
522.702	16967.38
523.474	16305.38
524.245	15596.38
525.017	14809.38
525.788	14202.38
526.56	13479.38
527.331	12889.38
528.102	12202.38
528.873	11593.38
529.644	11015.38
530.415	10444.38
531.186	9969.38
531.957	9349.38
532.728	8886.38
533.498	8358.38
534.269	7893.38
535.039	7462.38
535.81	7050.38
536.58	6652.38
537.351	6256.38
538.121	5935.38
538.891	5642.38
539.661	5339.38
540.431	5054.38
541.201	4766.38
541.971	4535.38
542.741	4317.38
543.51	4082.38
544.28	3874.38
545.05	3690.38
545.819	3533.38
546.588	3333.38
547.358	3172.38
548.127	2991.38
548.896	2837.38
549.665	2693.38
550.434	2557.38
551.203	2406.38
551.972	2281.38
552.741	2134.38
553.51	2045.38
554.278	1919.38
555.047	1815.38
555.815	1691.38
556.584	1619.38
557.352	1511.38
558.121	1433.38
558.889	1354.38
559.657	1270.38
560.425	1204.38
561.193	1126.38
561.961	1086.38
562.729	1035.38
563.496	967.38
564.264	902.38
565.032	870.38
565.799	807.38
566.567	772.38
567.334	732.38
568.101	687.38
568.869	657.38
569.636	614.38
570.403	574.38
571.17	543.38
571.937	517.38
572.704	493.38
573.471	461.38
574.237	429.38
575.004	410.38
575.771	378.38
576.537	363.38
577.303	339.38
578.07	323.38
578.836	303.38
579.602	285.38
580.368	269.38
581.134	261.38
581.9	247.38
582.666	228.38
583.432	220.38
584.198	207.38
584.964	199.38
585.729	189.38
586.495	178.38
587.26	163.38
588.025	157.38
588.791	153.38
589.556	142.38
590.321	139.38
591.086	136.38
591.851	122.38
592.616	121.38
593.381	112.38
594.146	106.38
594.911	102.38
595.675	97.38
596.44	95.38
597.204	90.38
597.969	91.38
598.733	83.38
599.497	80.38
600.261	79.38
601.025	70.38
601.79	73.38
602.553	64.38
603.317	63.38
604.081	61.38
604.845	56.38
605.609	52.38
606.372	56.38
607.136	50.38
607.899	52.38
608.662	47.38
609.426	47.38
610.189	45.38
610.952	40.38
611.715	40.38
612.478	41.38
613.241	38.38
614.004	35.38
614.767	36.38
615.529	35.38
616.292	34.38
617.055	34.38
617.817	30.38
618.579	31.38
619.342	29.38
620.104	27.38
620.866	28.38
621.628	27.38
622.39	27.38
623.152	25.38
623.914	24.38
624.676	22.38
625.438	23.38
626.199	21.38
626.961	21.38
627.722	21.38
628.484	21.38
629.245	24.38
630.006	21.38
630.768	18.38
631.529	20.38
632.29	17.38
633.051	17.38
633.812	16.38
634.573	17.38
635.333	14.38
636.094	16.38
636.855	18.38
637.615	15.38
638.376	13.38
639.136	14.38
639.896	14.38
640.657	13.38
641.417	13.38
642.177	13.38
642.937	13.38
643.697	12.38
644.457	13.38
645.216	11.38
645.976	11.38
646.736	11.38
647.495	13.38
648.255	11.38
649.014	10.38
649.774	11.38
650.533	9.38
651.292	8.38
652.051	10.38
652.81	11.38
653.569	10.38
654.328	11.38
655.087	9.38
655.846	8.38
656.604	12.38
657.363	8.38
658.121	6.38
658.88	9.38
659.638	10.38
660.397	6.38
661.155	11.38
661.913	8.38
662.671	9.38
663.429	7.38
664.187	8.38
664.945	3.38
665.703	10.38
666.46	8.38
667.218	8.38
667.976	7.38
668.733	7.38
669.49	7.38
670.248	8.38
671.005	9.38
671.762	7.38
672.519	7.38
673.276	8.38
674.033	8.38
674.79	9.38
675.547	5.38
676.304	9.38
677.06	10.38
677.817	6.38
678.574	8.38
679.33	7.38
680.086	4.38
680.843	5.38
681.599	8.38
682.355	6.38
683.111	8.38
683.867	7.38
684.623	8.38
685.379	8.38
686.135	9.38
686.89	6.38
687.646	7.38
688.402	5.38
689.157	6.38
689.912	5.38
690.668	5.38
691.423	7.38
692.178	6.38
692.933	6.38
693.688	6.38
694.443	5.38
695.198	5.38
695.953	5.38
696.708	7.38
697.462	8.38
698.217	6.38
698.972	6.38
699.726	5.38
700.48	6.38
701.235	6.38
701.989	6.38
702.743	6.38
703.497	2.38
704.251	5.38
705.005	3.38
705.759	7.38
706.513	5.38
707.266	5.38
708.02	4.38
708.774	5.38
709.527	5.38
710.28	3.38
711.034	8.38
711.787	6.38
712.54	5.38
713.293	7.38
714.046	6.38
714.799	7.38
715.552	7.38
716.305	6.38
717.058	8.38
717.81	6.38
718.563	8.38
719.315	7.38
720.068	6.38
720.82	7.38
721.573	4.38
722.325	5.38
723.077	6.38
723.829	7.38
724.581	3.38
725.333	8.38
726.085	8.38
726.836	6.38
727.588	5.38
728.34	6.38
729.091	5.38
729.843	8.38
730.594	5.38
731.346	9.38
732.097	8.38
732.848	8.38
733.599	7.38
734.35	6.38
735.101	8.38
735.852	8.38
736.603	7.38
737.354	6.38
738.104	7.38
738.855	6.38
739.605	6.38
740.356	9.38
741.106	10.38
741.856	7.38
742.607	8.38
743.357	7.38
744.107	8.38
744.857	9.38
745.607	9.38
746.357	6.38
747.106	7.38
747.856	8.38
748.606	9.38
749.355	8.38
750.105	9.38
750.854	9.38
751.603	8.38
752.353	9.38
753.102	8.38
753.851	8.38
754.6	8.38
755.349	9.38
756.098	12.38
756.847	10.38
757.595	10.38
758.344	5.38
759.093	10.38
759.841	11.38
760.589	7.38
761.338	10.38
762.086	10.38
762.834	10.38
763.582	9.38
764.331	9.38
765.079	11.38
765.826	8.38
766.574	12.38
767.322	13.38
768.07	12.38
768.817	10.38
769.565	11.38
770.312	13.38
771.06	13.38
771.807	14.38
772.554	13.38
773.302	10.38
774.049	12.38
774.796	11.38
775.543	13.38
776.29	10.38
777.036	14.38
777.783	14.38
778.53	12.38
779.276	12.38
780.023	10.38
780.769	10.38
781.516	13.38
782.262	11.38
783.008	11.38
783.754	10.38
784.5	15.38
785.246	11.38
785.992	13.38
786.738	12.38
787.484	14.38
788.23	13.38
788.975	12.38
789.721	13.38
790.466	10.38
791.212	12.38
791.957	11.38
792.702	12.38
793.447	11.38
794.193	11.38
794.938	14.38
795.683	11.38
796.427	12.38
797.172	11.38
797.917	10.38
798.662	14.38
799.406	10.38
800.151	10.38
800.895	7.38
801.64	9.38
802.384	11.38
803.128	11.38
803.872	9.38
804.616	10.38
805.36	9.38
806.104	9.38
806.848	9.38
807.592	8.38
808.336	8.38
809.079	9.38
809.823	7.38
810.566	8.38
811.31	8.38
812.053	6.38
812.796	8.38
813.539	8.38
814.283	9.38
815.026	9.38
815.769	8.38
816.511	5.38
817.254	6.38
817.997	7.38
818.74	9.38
819.482	8.38
820.225	3.38
820.967	6.38
821.71	8.38
822.452	6.38
823.194	8.38
823.936	8.38
824.678	6.38
825.42	7.38
826.162	6.38
826.904	5.38
827.646	5.38
828.388	6.38
829.129	5.38
829.871	3.38
830.612	7.38
831.354	5.38
832.095	4.38
832.836	6.38
833.577	6.38
834.319	5.38
835.06	3.38
835.801	5.38
836.542	8.38
837.282	9.38
838.023	6.38
838.764	6.38
839.504	5.38
840.245	3.38
840.985	3.38
841.726	7.38
842.466	3.38
843.206	6.38
843.946	4.38
844.687	5.38
845.427	2.38
846.166	3.38
846.906	5.38
847.646	4.38
848.386	4.38
849.125	3.38
849.865	4.38
850.605	4.38
851.344	4.38
852.083	3.38
852.823	7.38
853.562	6.38
854.301	3.38
855.04	3.38
855.779	4.38
856.518	6.38
857.257	3.38
857.995	3.38
858.734	4.38
859.473	1.38
860.211	5.38
860.95	6.38
861.688	3.38
862.426	3.38
863.165	3.38
863.903	3.38
864.641	3.38
865.379	3.38
866.117	3.38
866.855	2.38
867.593	3.38
868.33	3.38
869.068	5.38
869.806	0.38
870.543	0.38
871.28	3.38
872.018	2.38
872.755	3.38
873.492	1.38
874.229	2.38
874.967	5.38
875.703	3.38
876.44	1.38
877.177	1.38
877.914	2.38
878.651	3.38
879.387	2.38
880.124	2.38
880.86	0.38
881.597	3.38
882.333	3.38
883.069	2.38
883.806	2.38
884.542	3.38
885.278	1.38
886.014	0.38
886.749	2.38
887.485	1.38
888.221	3.38
888.957	0.38
889.692	1.38
890.428	3.38
891.163	1.38
891.899	1.38
892.634	2.38
893.369	2.38
894.104	1.38
894.839	2.38
895.574	2.38
896.309	2.38
897.044	-0.62
897.779	2.38
898.514	1.38
899.248	2.38
899.983	3.38
900.717	1.38
901.452	1.38
902.186	0.38
902.92	0.38
903.654	1.38
904.389	3.38
905.123	-0.62
905.857	1.38
906.59	1.38
907.324	-0.62
908.058	3.38
908.792	4.38
909.525	1.38
910.259	1.38
910.992	3.38
911.726	1.38
912.459	3.38
913.192	3.38
913.925	-0.62
914.658	3.38
915.391	0.38
916.124	2.38
916.857	1.38
917.59	-0.62
918.323	5.38
919.055	2.38
919.788	-0.62
920.521	1.38
921.253	-0.62
921.985	2.38
922.718	1.38
923.45	3.38
924.182	1.38
924.914	0.38
925.646	1.38
926.378	-0.62
927.11	0.38
927.841	2.38
928.573	0.38
929.305	1.38
930.036	3.38
930.768	0.38
931.499	1.38
932.23	3.38
932.962	1.38
933.693	1.38
934.424	3.38
935.155	2.38
935.886	3.38
936.617	2.38
937.348	1.38
938.078	4.38
938.809	0.38
939.54	-0.62
940.27	1.38
941.001	2.38
941.731	3.38
942.461	0.38
943.191	-0.62
943.922	1.38
944.652	1.38
945.382	3.38
946.112	2.38
946.841	1.38
947.571	1.38
948.301	0.38
949.031	0.38
949.76	1.38
950.49	0.38
951.219	3.38
951.948	1.38
952.678	1.38
953.407	0.38
954.136	0.38
954.865	2.38
955.594	0.38
956.323	2.38
957.052	0.38
957.78	1.38
958.509	1.38
959.238	-0.62
959.966	3.38
960.695	-0.62
961.423	-0.62
962.151	2.38
962.88	1.38
963.608	1.38
964.336	1.38
965.064	1.38
965.792	0.38
966.52	0.38
967.247	1.38
967.975	-0.62
968.703	3.38
969.43	-0.62
970.158	1.38
970.885	2.38
971.613	0.38
972.34	1.38
973.067	1.38
973.794	1.38
974.521	2.38
975.248	-2.62
975.975	3.38
976.702	-0.62
977.429	3.38
978.156	-0.62
978.882	1.38
979.609	0.38
980.335	1.38
981.062	0.38
981.788	0.38
982.514	2.38
983.24	1.38
983.967	-2.62
984.693	1.38
985.419	0.38
986.144	2.38
986.87	1.38
987.596	-0.62
988.322	1.38
989.047	1.38
989.773	1.38
990.498	-0.62
991.224	-0.62
991.949	3.38
992.674	0.38
993.399	1.38
994.124	-1.62
994.849	3.38
995.574	1.38
996.299	0.38
997.024	1.38
997.749	0.38
998.473	2.38
999.198	2.38
999.922	0.38
1000.647	0.38
1001.371	6.38
1002.095	-1.62
1002.82	-3.62
1003.544	1.38
1004.268	3.38
1004.992	2.38
1005.716	3.38
1006.439	6.38
1007.163	4.38
1007.887	5.38
1008.611	1.38
1009.334	-0.62
1010.058	0.38
1010.781	3.38
1011.504	2.38
1012.228	1.38
1012.951	-0.62
1013.674	-1.62
1014.397	1.38
1015.12	-1.62
