节点500_425_QEPB04081__160__15-50-58-207.txt的数据

Date: Wed Nov 12 15:50:58 CST 2025
User: PC
Spectrometer: QEPB0408
触发模式: 0
积分时间 (秒): 1.000000E-2
Scans to average: 1
启用暗噪声校正: true
启用非线性校正: false
滑动平均宽度: 0
X轴模式: Wavelengths
Number of Pixels in Spectrum: 1044
>>>>>Begin Spectral Data<<<<<
220.843	5.12
221.644	1.12
222.444	1.12
223.244	3.12
224.045	4.12
224.845	3.12
225.645	2.12
226.445	5.12
227.245	4.12
228.045	5.12
228.845	7.12
229.645	3.12
230.444	6.12
231.244	5.12
232.043	5.12
232.843	2.12
233.642	4.12
234.442	3.12
235.241	4.12
236.04	5.12
236.839	4.12
237.638	7.12
238.437	6.12
239.236	5.12
240.035	7.12
240.833	5.12
241.632	7.12
242.43	6.12
243.229	9.12
244.027	8.12
244.826	7.12
245.624	9.12
246.422	9.12
247.22	6.12
248.018	10.12
248.816	8.12
249.614	10.12
250.412	9.12
251.21	9.12
252.007	8.12
252.805	10.12
253.602	14.12
254.4	9.12
255.197	13.12
255.994	13.12
256.791	12.12
257.589	12.12
258.386	15.12
259.183	14.12
259.979	13.12
260.776	15.12
261.573	14.12
262.37	17.12
263.166	17.12
263.963	15.12
264.759	19.12
265.556	18.12
266.352	20.12
267.148	20.12
267.944	18.12
268.74	24.12
269.536	21.12
270.332	23.12
271.128	22.12
271.924	24.12
272.719	22.12
273.515	23.12
274.311	22.12
275.106	21.12
275.901	25.12
276.697	25.12
277.492	22.12
278.287	27.12
279.082	26.12
279.877	26.12
280.672	25.12
281.467	23.12
282.262	26.12
283.056	26.12
283.851	29.12
284.646	26.12
285.44	27.12
286.234	25.12
287.029	22.12
287.823	25.12
288.617	25.12
289.411	25.12
290.205	21.12
290.999	23.12
291.793	23.12
292.587	24.12
293.381	24.12
294.174	23.12
294.968	20.12
295.761	20.12
296.555	21.12
297.348	18.12
298.141	19.12
298.935	22.12
299.728	17.12
300.521	17.12
301.314	17.12
302.107	15.12
302.899	15.12
303.692	17.12
304.485	15.12
305.277	16.12
306.07	14.12
306.862	15.12
307.655	16.12
308.447	17.12
309.239	15.12
310.031	15.12
310.823	12.12
311.615	13.12
312.407	14.12
313.199	13.12
313.991	12.12
314.783	12.12
315.574	13.12
316.366	11.12
317.157	10.12
317.949	13.12
318.74	9.12
319.531	10.12
320.322	10.12
321.113	10.12
321.904	11.12
322.695	8.12
323.486	9.12
324.277	10.12
325.068	11.12
325.858	8.12
326.649	9.12
327.439	8.12
328.23	8.12
329.02	8.12
329.81	9.12
330.6	11.12
331.391	7.12
332.181	9.12
332.971	7.12
333.76	8.12
334.55	9.12
335.34	9.12
336.13	6.12
336.919	10.12
337.709	6.12
338.498	8.12
339.287	8.12
340.077	10.12
340.866	8.12
341.655	9.12
342.444	7.12
343.233	6.12
344.022	9.12
344.811	8.12
345.6	8.12
346.388	7.12
347.177	8.12
347.965	9.12
348.754	6.12
349.542	8.12
350.33	9.12
351.119	9.12
351.907	7.12
352.695	7.12
353.483	6.12
354.271	8.12
355.059	7.12
355.846	8.12
356.634	7.12
357.422	9.12
358.209	8.12
358.997	5.12
359.784	6.12
360.571	5.12
361.359	7.12
362.146	7.12
362.933	5.12
363.72	7.12
364.507	5.12
365.294	7.12
366.081	5.12
366.867	6.12
367.654	6.12
368.44	6.12
369.227	7.12
370.013	6.12
370.8	7.12
371.586	6.12
372.372	8.12
373.158	8.12
373.944	8.12
374.73	7.12
375.516	6.12
376.302	9.12
377.088	7.12
377.873	8.12
378.659	8.12
379.445	7.12
380.23	4.12
381.015	5.12
381.801	7.12
382.586	8.12
383.371	5.12
384.156	8.12
384.941	6.12
385.726	9.12
386.511	7.12
387.296	11.12
388.08	8.12
388.865	7.12
389.649	7.12
390.434	6.12
391.218	8.12
392.003	7.12
392.787	9.12
393.571	8.12
394.355	7.12
395.139	10.12
395.923	9.12
396.707	8.12
397.491	8.12
398.274	7.12
399.058	9.12
399.842	8.12
400.625	9.12
401.408	8.12
402.192	12.12
402.975	10.12
403.758	10.12
404.541	9.12
405.324	10.12
406.107	12.12
406.89	9.12
407.673	11.12
408.456	9.12
409.238	8.12
410.021	13.12
410.803	12.12
411.586	14.12
412.368	12.12
413.151	12.12
413.933	12.12
414.715	10.12
415.497	12.12
416.279	14.12
417.061	13.12
417.843	14.12
418.624	10.12
419.406	14.12
420.188	13.12
420.969	14.12
421.751	16.12
422.532	13.12
423.313	14.12
424.095	15.12
424.876	16.12
425.657	18.12
426.438	17.12
427.219	20.12
428	13.12
428.78	16.12
429.561	19.12
430.342	20.12
431.122	20.12
431.903	21.12
432.683	19.12
433.464	19.12
434.244	26.12
435.024	24.12
435.804	22.12
436.584	27.12
437.364	25.12
438.144	31.12
438.924	28.12
439.704	32.12
440.483	33.12
441.263	38.12
442.042	38.12
442.822	39.12
443.601	45.12
444.38	45.12
445.16	48.12
445.939	51.12
446.718	58.12
447.497	57.12
448.276	65.12
449.054	72.12
449.833	78.12
450.612	81.12
451.391	92.12
452.169	96.12
452.948	110.12
453.726	120.12
454.504	134.12
455.282	146.12
456.061	162.12
456.839	177.12
457.617	198.12
458.395	220.12
459.172	245.12
459.95	276.12
460.728	311.12
461.506	350.12
462.283	386.12
463.061	423.12
463.838	480.12
464.615	532.12
465.393	599.12
466.17	665.12
466.947	738.12
467.724	824.12
468.501	926.12
469.278	1035.12
470.055	1146.12
470.831	1274.12
471.608	1405.12
472.385	1576.12
473.161	1720.12
473.938	1928.12
474.714	2141.12
475.49	2358.12
476.266	2612.12
477.043	2903.12
477.819	3194.12
478.595	3521.12
479.371	3889.12
480.146	4286.12
480.922	4699.12
481.698	5164.12
482.473	5715.12
483.249	6256.12
484.024	6868.12
484.8	7548.12
485.575	8261.12
486.35	9055.12
487.126	9893.12
487.901	10781.12
488.676	11790.12
489.451	12855.12
490.225	13991.12
491	15239.12
491.775	16532.12
492.55	17904.12
493.324	19218.12
494.099	20636.12
494.873	22080.12
495.647	23531.12
496.422	25010.12
497.196	26614.12
497.97	28093.12
498.744	29617.12
499.518	30999.12
500.292	32173.12
501.066	33230.12
501.839	34457.12
502.613	35278.12
503.387	35873.12
504.16	36351.12
504.934	36503.12
505.707	36404.12
506.48	36177.12
507.253	35786.12
508.027	35304.12
508.8	34530.12
509.573	33731.12
510.346	32736.12
511.118	31715.12
511.891	30724.12
512.664	29426.12
513.437	28223.12
514.209	26992.12
514.982	26010.12
515.754	24859.12
516.526	23742.12
517.298	22755.12
518.071	21803.12
518.843	20927.12
519.615	20049.12
520.387	19199.12
521.159	18495.12
521.93	17820.12
522.702	17077.12
523.474	16432.12
524.245	15754.12
525.017	15036.12
525.788	14318.12
526.56	13614.12
527.331	13047.12
528.102	12416.12
528.873	11758.12
529.644	11221.12
530.415	10686.12
531.186	10162.12
531.957	9611.12
532.728	9101.12
533.498	8564.12
534.269	8120.12
535.039	7677.12
535.81	7240.12
536.58	6824.12
537.351	6449.12
538.121	6088.12
538.891	5760.12
539.661	5480.12
540.431	5216.12
541.201	4946.12
541.971	4651.12
542.741	4428.12
543.51	4166.12
544.28	4000.12
545.05	3775.12
545.819	3572.12
546.588	3428.12
547.358	3238.12
548.127	3077.12
548.896	2916.12
549.665	2763.12
550.434	2625.12
551.203	2477.12
551.972	2342.12
552.741	2233.12
553.51	2105.12
554.278	1978.12
555.047	1849.12
555.815	1756.12
556.584	1668.12
557.352	1567.12
558.121	1470.12
558.889	1405.12
559.657	1320.12
560.425	1255.12
561.193	1176.12
561.961	1130.12
562.729	1057.12
563.496	1006.12
564.264	931.12
565.032	884.12
565.799	854.12
566.567	792.12
567.334	756.12
568.101	704.12
568.869	675.12
569.636	637.12
570.403	601.12
571.17	558.12
571.937	532.12
572.704	499.12
573.471	479.12
574.237	445.12
575.004	421.12
575.771	393.12
576.537	374.12
577.303	351.12
578.07	331.12
578.836	316.12
579.602	296.12
580.368	288.12
581.134	265.12
581.9	252.12
582.666	232.12
583.432	226.12
584.198	217.12
584.964	206.12
585.729	197.12
586.495	181.12
587.26	173.12
588.025	167.12
588.791	161.12
589.556	147.12
590.321	144.12
591.086	132.12
591.851	131.12
592.616	125.12
593.381	113.12
594.146	112.12
594.911	106.12
595.675	101.12
596.44	97.12
597.204	91.12
597.969	84.12
598.733	87.12
599.497	83.12
600.261	78.12
601.025	74.12
601.79	72.12
602.553	66.12
603.317	63.12
604.081	59.12
604.845	60.12
605.609	59.12
606.372	54.12
607.136	51.12
607.899	50.12
608.662	49.12
609.426	46.12
610.189	47.12
610.952	43.12
611.715	44.12
612.478	40.12
613.241	39.12
614.004	37.12
614.767	37.12
615.529	33.12
616.292	33.12
617.055	32.12
617.817	33.12
618.579	29.12
619.342	32.12
620.104	30.12
620.866	27.12
621.628	27.12
622.39	26.12
623.152	26.12
623.914	23.12
624.676	20.12
625.438	23.12
626.199	22.12
626.961	22.12
627.722	20.12
628.484	18.12
629.245	21.12
630.006	19.12
630.768	16.12
631.529	19.12
632.29	16.12
633.051	16.12
633.812	16.12
634.573	18.12
635.333	14.12
636.094	12.12
636.855	18.12
637.615	13.12
638.376	16.12
639.136	14.12
639.896	14.12
640.657	12.12
641.417	14.12
642.177	13.12
642.937	12.12
643.697	12.12
644.457	10.12
645.216	12.12
645.976	9.12
646.736	9.12
647.495	11.12
648.255	8.12
649.014	10.12
649.774	12.12
650.533	7.12
651.292	10.12
652.051	9.12
652.81	9.12
653.569	9.12
654.328	10.12
655.087	8.12
655.846	8.12
656.604	10.12
657.363	8.12
658.121	6.12
658.88	9.12
659.638	6.12
660.397	8.12
661.155	8.12
661.913	8.12
662.671	8.12
663.429	6.12
664.187	7.12
664.945	8.12
665.703	7.12
666.46	3.12
667.218	6.12
667.976	5.12
668.733	5.12
669.49	6.12
670.248	5.12
671.005	5.12
671.762	5.12
672.519	5.12
673.276	6.12
674.033	6.12
674.79	5.12
675.547	5.12
676.304	4.12
677.06	4.12
677.817	5.12
678.574	4.12
679.33	5.12
680.086	6.12
680.843	5.12
681.599	7.12
682.355	5.12
683.111	5.12
683.867	3.12
684.623	4.12
685.379	6.12
686.135	4.12
686.89	8.12
687.646	6.12
688.402	4.12
689.157	7.12
689.912	5.12
690.668	7.12
691.423	5.12
692.178	5.12
692.933	5.12
693.688	5.12
694.443	8.12
695.198	7.12
695.953	4.12
696.708	3.12
697.462	4.12
698.217	4.12
698.972	4.12
699.726	3.12
700.48	4.12
701.235	4.12
701.989	6.12
702.743	4.12
703.497	4.12
704.251	4.12
705.005	7.12
705.759	5.12
706.513	3.12
707.266	4.12
708.02	6.12
708.774	5.12
709.527	6.12
710.28	5.12
711.034	3.12
711.787	3.12
712.54	6.12
713.293	5.12
714.046	4.12
714.799	4.12
715.552	6.12
716.305	4.12
717.058	3.12
717.81	4.12
718.563	6.12
719.315	4.12
720.068	4.12
720.82	6.12
721.573	8.12
722.325	7.12
723.077	5.12
723.829	4.12
724.581	6.12
725.333	4.12
726.085	4.12
726.836	7.12
727.588	6.12
728.34	6.12
729.091	6.12
729.843	4.12
730.594	4.12
731.346	6.12
732.097	6.12
732.848	6.12
733.599	6.12
734.35	6.12
735.101	7.12
735.852	3.12
736.603	6.12
737.354	5.12
738.104	4.12
738.855	4.12
739.605	9.12
740.356	6.12
741.106	7.12
741.856	7.12
742.607	4.12
743.357	7.12
744.107	9.12
744.857	10.12
745.607	8.12
746.357	9.12
747.106	7.12
747.856	6.12
748.606	8.12
749.355	6.12
750.105	7.12
750.854	6.12
751.603	5.12
752.353	8.12
753.102	5.12
753.851	9.12
754.6	5.12
755.349	11.12
756.098	8.12
756.847	9.12
757.595	10.12
758.344	9.12
759.093	10.12
759.841	7.12
760.589	9.12
761.338	10.12
762.086	8.12
762.834	11.12
763.582	8.12
764.331	10.12
765.079	12.12
765.826	13.12
766.574	11.12
767.322	9.12
768.07	9.12
768.817	10.12
769.565	10.12
770.312	10.12
771.06	10.12
771.807	11.12
772.554	9.12
773.302	10.12
774.049	10.12
774.796	10.12
775.543	11.12
776.29	11.12
777.036	11.12
777.783	9.12
778.53	8.12
779.276	11.12
780.023	9.12
780.769	13.12
781.516	13.12
782.262	13.12
783.008	13.12
783.754	13.12
784.5	13.12
785.246	13.12
785.992	12.12
786.738	10.12
787.484	12.12
788.23	13.12
788.975	10.12
789.721	12.12
790.466	12.12
791.212	12.12
791.957	13.12
792.702	14.12
793.447	13.12
794.193	10.12
794.938	12.12
795.683	10.12
796.427	9.12
797.172	11.12
797.917	11.12
798.662	11.12
799.406	10.12
800.151	10.12
800.895	10.12
801.64	10.12
802.384	11.12
803.128	10.12
803.872	9.12
804.616	9.12
805.36	9.12
806.104	9.12
806.848	7.12
807.592	8.12
808.336	5.12
809.079	8.12
809.823	6.12
810.566	6.12
811.31	8.12
812.053	6.12
812.796	10.12
813.539	4.12
814.283	5.12
815.026	8.12
815.769	5.12
816.511	6.12
817.254	6.12
817.997	6.12
818.74	5.12
819.482	6.12
820.225	6.12
820.967	7.12
821.71	6.12
822.452	8.12
823.194	8.12
823.936	6.12
824.678	2.12
825.42	3.12
826.162	4.12
826.904	4.12
827.646	4.12
828.388	5.12
829.129	5.12
829.871	5.12
830.612	7.12
831.354	4.12
832.095	4.12
832.836	4.12
833.577	6.12
834.319	7.12
835.06	4.12
835.801	4.12
836.542	2.12
837.282	4.12
838.023	5.12
838.764	1.12
839.504	4.12
840.245	4.12
840.985	3.12
841.726	4.12
842.466	4.12
843.206	4.12
843.946	5.12
844.687	4.12
845.427	2.12
846.166	2.12
846.906	4.12
847.646	5.12
848.386	1.12
849.125	3.12
849.865	3.12
850.605	2.12
851.344	2.12
852.083	2.12
852.823	4.12
853.562	3.12
854.301	4.12
855.04	2.12
855.779	4.12
856.518	1.12
857.257	3.12
857.995	1.12
858.734	3.12
859.473	4.12
860.211	1.12
860.95	2.12
861.688	1.12
862.426	2.12
863.165	4.12
863.903	2.12
864.641	2.12
865.379	0.12
866.117	4.12
866.855	3.12
867.593	2.12
868.33	2.12
869.068	2.12
869.806	2.12
870.543	1.12
871.28	3.12
872.018	1.12
872.755	1.12
873.492	-0.88
874.229	1.12
874.967	2.12
875.703	1.12
876.44	1.12
877.177	1.12
877.914	2.12
878.651	2.12
879.387	1.12
880.124	3.12
880.86	0.12
881.597	0.12
882.333	2.12
883.069	0.12
883.806	1.12
884.542	1.12
885.278	1.12
886.014	1.12
886.749	2.12
887.485	0.12
888.221	1.12
888.957	2.12
889.692	0.12
890.428	0.12
891.163	0.12
891.899	1.12
892.634	3.12
893.369	0.12
894.104	0.12
894.839	0.12
895.574	0.12
896.309	-0.88
897.044	1.12
897.779	1.12
898.514	-0.88
899.248	1.12
899.983	1.12
900.717	0.12
901.452	0.12
902.186	1.12
902.92	1.12
903.654	-0.88
904.389	2.12
905.123	0.12
905.857	-1.88
906.59	4.12
907.324	-0.88
908.058	1.12
908.792	-0.88
909.525	-0.88
910.259	2.12
910.992	0.12
911.726	0.12
912.459	-0.88
913.192	-1.88
913.925	-0.88
914.658	0.12
915.391	2.12
916.124	0.12
916.857	1.12
917.59	-0.88
918.323	0.12
919.055	1.12
919.788	1.12
920.521	1.12
921.253	2.12
921.985	-0.88
922.718	-0.88
923.45	0.12
924.182	0.12
924.914	-0.88
925.646	0.12
926.378	1.12
927.11	1.12
927.841	0.12
928.573	2.12
929.305	-1.88
930.036	0.12
930.768	2.12
931.499	1.12
932.23	0.12
932.962	2.12
933.693	-2.88
934.424	2.12
935.155	1.12
935.886	1.12
936.617	0.12
937.348	-1.88
938.078	2.12
938.809	-2.88
939.54	-0.88
940.27	0.12
941.001	0.12
941.731	1.12
942.461	0.12
943.191	4.12
943.922	-1.88
944.652	1.12
945.382	1.12
946.112	0.12
946.841	0.12
947.571	-0.88
948.301	-0.88
949.031	-0.88
949.76	3.12
950.49	-0.88
951.219	-1.88
951.948	-0.88
952.678	0.12
953.407	1.12
954.136	0.12
954.865	0.12
955.594	-0.88
956.323	0.12
957.052	0.12
957.78	-0.88
958.509	2.12
959.238	0.12
959.966	1.12
960.695	1.12
961.423	-0.88
962.151	1.12
962.88	1.12
963.608	-0.88
964.336	0.12
965.064	0.12
965.792	0.12
966.52	-0.88
967.247	0.12
967.975	-1.88
968.703	-0.88
969.43	1.12
970.158	-2.88
970.885	1.12
971.613	1.12
972.34	0.12
973.067	1.12
973.794	0.12
974.521	1.12
975.248	1.12
975.975	2.12
976.702	0.12
977.429	0.12
978.156	-0.88
978.882	-1.88
979.609	2.12
980.335	0.12
981.062	-1.88
981.788	-0.88
982.514	-0.88
983.24	-1.88
983.967	2.12
984.693	-1.88
985.419	2.12
986.144	0.12
986.87	-0.88
987.596	1.12
988.322	1.12
989.047	1.12
989.773	0.12
990.498	-1.88
991.224	-0.88
991.949	0.12
992.674	0.12
993.399	1.12
994.124	1.12
994.849	0.12
995.574	1.12
996.299	-1.88
997.024	1.12
997.749	0.12
998.473	0.12
999.198	1.12
999.922	-0.88
1000.647	-0.88
1001.371	3.12
1002.095	-1.88
1002.82	-0.88
1003.544	-1.88
1004.268	2.12
1004.992	3.12
1005.716	0.12
1006.439	1.12
1007.163	2.12
1007.887	2.12
1008.611	0.12
1009.334	1.12
1010.058	-1.88
1010.781	2.12
1011.504	1.12
1012.228	-2.88
1012.951	2.12
1013.674	-0.88
1014.397	1.12
1015.12	-0.88
