节点500_425_QEPB04081__124__15-50-22-296.txt的数据

Date: Wed Nov 12 15:50:22 CST 2025
User: PC
Spectrometer: QEPB0408
触发模式: 0
积分时间 (秒): 1.000000E-2
Scans to average: 1
启用暗噪声校正: true
启用非线性校正: false
滑动平均宽度: 0
X轴模式: Wavelengths
Number of Pixels in Spectrum: 1044
>>>>>Begin Spectral Data<<<<<
220.843	1.25
221.644	2.25
222.444	2.25
223.244	3.25
224.045	3.25
224.845	4.25
225.645	3.25
226.445	3.25
227.245	4.25
228.045	4.25
228.845	4.25
229.645	6.25
230.444	6.25
231.244	7.25
232.043	3.25
232.843	3.25
233.642	7.25
234.442	4.25
235.241	6.25
236.04	5.25
236.839	9.25
237.638	6.25
238.437	5.25
239.236	8.25
240.035	8.25
240.833	7.25
241.632	5.25
242.43	5.25
243.229	8.25
244.027	8.25
244.826	9.25
245.624	9.25
246.422	9.25
247.22	7.25
248.018	11.25
248.816	10.25
249.614	9.25
250.412	10.25
251.21	10.25
252.007	10.25
252.805	13.25
253.602	8.25
254.4	13.25
255.197	13.25
255.994	11.25
256.791	13.25
257.589	12.25
258.386	14.25
259.183	16.25
259.979	14.25
260.776	17.25
261.573	17.25
262.37	15.25
263.166	17.25
263.963	19.25
264.759	18.25
265.556	18.25
266.352	19.25
267.148	19.25
267.944	20.25
268.74	20.25
269.536	23.25
270.332	22.25
271.128	20.25
271.924	24.25
272.719	22.25
273.515	26.25
274.311	26.25
275.106	25.25
275.901	27.25
276.697	23.25
277.492	24.25
278.287	23.25
279.082	24.25
279.877	26.25
280.672	25.25
281.467	25.25
282.262	29.25
283.056	29.25
283.851	24.25
284.646	24.25
285.44	28.25
286.234	27.25
287.029	27.25
287.823	27.25
288.617	21.25
289.411	24.25
290.205	26.25
290.999	25.25
291.793	22.25
292.587	24.25
293.381	23.25
294.174	22.25
294.968	25.25
295.761	20.25
296.555	18.25
297.348	18.25
298.141	20.25
298.935	24.25
299.728	20.25
300.521	18.25
301.314	18.25
302.107	17.25
302.899	18.25
303.692	18.25
304.485	16.25
305.277	13.25
306.07	19.25
306.862	16.25
307.655	16.25
308.447	14.25
309.239	16.25
310.031	16.25
310.823	13.25
311.615	12.25
312.407	12.25
313.199	13.25
313.991	12.25
314.783	11.25
315.574	11.25
316.366	12.25
317.157	10.25
317.949	9.25
318.74	10.25
319.531	10.25
320.322	9.25
321.113	11.25
321.904	9.25
322.695	11.25
323.486	12.25
324.277	10.25
325.068	8.25
325.858	9.25
326.649	10.25
327.439	11.25
328.23	11.25
329.02	8.25
329.81	9.25
330.6	9.25
331.391	9.25
332.181	9.25
332.971	10.25
333.76	11.25
334.55	12.25
335.34	9.25
336.13	9.25
336.919	6.25
337.709	9.25
338.498	8.25
339.287	6.25
340.077	9.25
340.866	6.25
341.655	9.25
342.444	7.25
343.233	8.25
344.022	7.25
344.811	9.25
345.6	9.25
346.388	8.25
347.177	9.25
347.965	8.25
348.754	6.25
349.542	9.25
350.33	9.25
351.119	8.25
351.907	10.25
352.695	8.25
353.483	7.25
354.271	9.25
355.059	8.25
355.846	7.25
356.634	8.25
357.422	7.25
358.209	7.25
358.997	10.25
359.784	8.25
360.571	8.25
361.359	5.25
362.146	6.25
362.933	6.25
363.72	5.25
364.507	7.25
365.294	6.25
366.081	7.25
366.867	8.25
367.654	4.25
368.44	6.25
369.227	6.25
370.013	5.25
370.8	7.25
371.586	9.25
372.372	8.25
373.158	7.25
373.944	7.25
374.73	8.25
375.516	6.25
376.302	5.25
377.088	5.25
377.873	6.25
378.659	7.25
379.445	8.25
380.23	8.25
381.015	6.25
381.801	8.25
382.586	7.25
383.371	4.25
384.156	8.25
384.941	9.25
385.726	5.25
386.511	8.25
387.296	7.25
388.08	8.25
388.865	7.25
389.649	8.25
390.434	8.25
391.218	9.25
392.003	9.25
392.787	12.25
393.571	8.25
394.355	8.25
395.139	11.25
395.923	8.25
396.707	10.25
397.491	10.25
398.274	11.25
399.058	10.25
399.842	9.25
400.625	10.25
401.408	8.25
402.192	10.25
402.975	9.25
403.758	11.25
404.541	12.25
405.324	10.25
406.107	10.25
406.89	8.25
407.673	10.25
408.456	9.25
409.238	12.25
410.021	12.25
410.803	11.25
411.586	13.25
412.368	12.25
413.151	10.25
413.933	13.25
414.715	14.25
415.497	10.25
416.279	13.25
417.061	12.25
417.843	15.25
418.624	15.25
419.406	12.25
420.188	14.25
420.969	16.25
421.751	17.25
422.532	16.25
423.313	16.25
424.095	17.25
424.876	17.25
425.657	14.25
426.438	21.25
427.219	16.25
428	18.25
428.78	17.25
429.561	19.25
430.342	19.25
431.122	21.25
431.903	23.25
432.683	24.25
433.464	21.25
434.244	24.25
435.024	23.25
435.804	27.25
436.584	26.25
437.364	26.25
438.144	26.25
438.924	32.25
439.704	37.25
440.483	34.25
441.263	36.25
442.042	37.25
442.822	40.25
443.601	43.25
444.38	44.25
445.16	46.25
445.939	51.25
446.718	52.25
447.497	58.25
448.276	63.25
449.054	69.25
449.833	75.25
450.612	80.25
451.391	85.25
452.169	98.25
452.948	105.25
453.726	120.25
454.504	129.25
455.282	145.25
456.061	160.25
456.839	180.25
457.617	195.25
458.395	218.25
459.172	239.25
459.95	274.25
460.728	309.25
461.506	343.25
462.283	381.25
463.061	421.25
463.838	478.25
464.615	538.25
465.393	589.25
466.17	668.25
466.947	746.25
467.724	826.25
468.501	914.25
469.278	1018.25
470.055	1155.25
470.831	1281.25
471.608	1407.25
472.385	1575.25
473.161	1765.25
473.938	1927.25
474.714	2137.25
475.49	2364.25
476.266	2627.25
477.043	2894.25
477.819	3205.25
478.595	3542.25
479.371	3914.25
480.146	4307.25
480.922	4714.25
481.698	5214.25
482.473	5730.25
483.249	6295.25
484.024	6908.25
484.8	7608.25
485.575	8297.25
486.35	9133.25
487.126	9992.25
487.901	10903.25
488.676	11880.25
489.451	13016.25
490.225	14153.25
491	15419.25
491.775	16762.25
492.55	18059.25
493.324	19470.25
494.099	20887.25
494.873	22324.25
495.647	23874.25
496.422	25358.25
497.196	26913.25
497.97	28518.25
498.744	29985.25
499.518	31270.25
500.292	32571.25
501.066	33698.25
501.839	34746.25
502.613	35673.25
503.387	36224.25
504.16	36606.25
504.934	36774.25
505.707	36717.25
506.48	36434.25
507.253	36024.25
508.027	35469.25
508.8	34768.25
509.573	33867.25
510.346	32869.25
511.118	31845.25
511.891	30730.25
512.664	29479.25
513.437	28267.25
514.209	27066.25
514.982	25982.25
515.754	24880.25
516.526	23802.25
517.298	22731.25
518.071	21786.25
518.843	20921.25
519.615	20053.25
520.387	19299.25
521.159	18537.25
521.93	17827.25
522.702	17129.25
523.474	16444.25
524.245	15728.25
525.017	15001.25
525.788	14319.25
526.56	13708.25
527.331	12979.25
528.102	12402.25
528.873	11738.25
529.644	11184.25
530.415	10641.25
531.186	10134.25
531.957	9553.25
532.728	9074.25
533.498	8556.25
534.269	8030.25
535.039	7630.25
535.81	7209.25
536.58	6795.25
537.351	6410.25
538.121	6068.25
538.891	5776.25
539.661	5478.25
540.431	5169.25
541.201	4864.25
541.971	4634.25
542.741	4378.25
543.51	4192.25
544.28	3964.25
545.05	3756.25
545.819	3596.25
546.588	3411.25
547.358	3209.25
548.127	3079.25
548.896	2898.25
549.665	2762.25
550.434	2625.25
551.203	2468.25
551.972	2354.25
552.741	2222.25
553.51	2086.25
554.278	1972.25
555.047	1856.25
555.815	1762.25
556.584	1650.25
557.352	1556.25
558.121	1470.25
558.889	1390.25
559.657	1310.25
560.425	1247.25
561.193	1178.25
561.961	1116.25
562.729	1065.25
563.496	983.25
564.264	942.25
565.032	891.25
565.799	838.25
566.567	793.25
567.334	755.25
568.101	708.25
568.869	666.25
569.636	634.25
570.403	598.25
571.17	565.25
571.937	528.25
572.704	499.25
573.471	472.25
574.237	434.25
575.004	422.25
575.771	394.25
576.537	374.25
577.303	343.25
578.07	326.25
578.836	310.25
579.602	294.25
580.368	274.25
581.134	262.25
581.9	248.25
582.666	237.25
583.432	223.25
584.198	215.25
584.964	198.25
585.729	194.25
586.495	182.25
587.26	171.25
588.025	162.25
588.791	159.25
589.556	148.25
590.321	144.25
591.086	133.25
591.851	126.25
592.616	121.25
593.381	114.25
594.146	106.25
594.911	106.25
595.675	102.25
596.44	96.25
597.204	91.25
597.969	86.25
598.733	82.25
599.497	82.25
600.261	78.25
601.025	73.25
601.79	67.25
602.553	68.25
603.317	62.25
604.081	61.25
604.845	60.25
605.609	58.25
606.372	55.25
607.136	56.25
607.899	50.25
608.662	49.25
609.426	49.25
610.189	43.25
610.952	40.25
611.715	43.25
612.478	40.25
613.241	34.25
614.004	38.25
614.767	33.25
615.529	35.25
616.292	32.25
617.055	30.25
617.817	30.25
618.579	30.25
619.342	27.25
620.104	30.25
620.866	27.25
621.628	26.25
622.39	24.25
623.152	22.25
623.914	26.25
624.676	21.25
625.438	22.25
626.199	22.25
626.961	21.25
627.722	21.25
628.484	19.25
629.245	19.25
630.006	20.25
630.768	18.25
631.529	18.25
632.29	14.25
633.051	18.25
633.812	19.25
634.573	18.25
635.333	18.25
636.094	15.25
636.855	12.25
637.615	14.25
638.376	12.25
639.136	14.25
639.896	13.25
640.657	12.25
641.417	11.25
642.177	12.25
642.937	12.25
643.697	11.25
644.457	12.25
645.216	10.25
645.976	11.25
646.736	11.25
647.495	10.25
648.255	10.25
649.014	12.25
649.774	11.25
650.533	9.25
651.292	9.25
652.051	8.25
652.81	7.25
653.569	6.25
654.328	10.25
655.087	10.25
655.846	8.25
656.604	6.25
657.363	6.25
658.121	10.25
658.88	11.25
659.638	6.25
660.397	9.25
661.155	8.25
661.913	6.25
662.671	9.25
663.429	6.25
664.187	6.25
664.945	8.25
665.703	6.25
666.46	8.25
667.218	7.25
667.976	8.25
668.733	6.25
669.49	5.25
670.248	7.25
671.005	6.25
671.762	6.25
672.519	6.25
673.276	6.25
674.033	6.25
674.79	5.25
675.547	5.25
676.304	6.25
677.06	7.25
677.817	6.25
678.574	8.25
679.33	5.25
680.086	4.25
680.843	7.25
681.599	8.25
682.355	7.25
683.111	7.25
683.867	6.25
684.623	7.25
685.379	6.25
686.135	6.25
686.89	5.25
687.646	6.25
688.402	6.25
689.157	4.25
689.912	6.25
690.668	4.25
691.423	4.25
692.178	6.25
692.933	7.25
693.688	5.25
694.443	4.25
695.198	8.25
695.953	5.25
696.708	5.25
697.462	4.25
698.217	3.25
698.972	5.25
699.726	6.25
700.48	6.25
701.235	3.25
701.989	5.25
702.743	5.25
703.497	7.25
704.251	5.25
705.005	4.25
705.759	4.25
706.513	6.25
707.266	2.25
708.02	5.25
708.774	3.25
709.527	3.25
710.28	4.25
711.034	6.25
711.787	4.25
712.54	2.25
713.293	5.25
714.046	5.25
714.799	4.25
715.552	6.25
716.305	4.25
717.058	5.25
717.81	4.25
718.563	7.25
719.315	5.25
720.068	4.25
720.82	5.25
721.573	7.25
722.325	5.25
723.077	3.25
723.829	4.25
724.581	5.25
725.333	5.25
726.085	6.25
726.836	6.25
727.588	6.25
728.34	6.25
729.091	4.25
729.843	5.25
730.594	6.25
731.346	5.25
732.097	4.25
732.848	8.25
733.599	6.25
734.35	7.25
735.101	4.25
735.852	5.25
736.603	7.25
737.354	7.25
738.104	5.25
738.855	8.25
739.605	6.25
740.356	7.25
741.106	6.25
741.856	8.25
742.607	6.25
743.357	5.25
744.107	8.25
744.857	6.25
745.607	7.25
746.357	8.25
747.106	9.25
747.856	8.25
748.606	8.25
749.355	8.25
750.105	6.25
750.854	9.25
751.603	9.25
752.353	8.25
753.102	5.25
753.851	5.25
754.6	9.25
755.349	6.25
756.098	7.25
756.847	7.25
757.595	7.25
758.344	8.25
759.093	8.25
759.841	6.25
760.589	7.25
761.338	7.25
762.086	9.25
762.834	8.25
763.582	8.25
764.331	9.25
765.079	8.25
765.826	9.25
766.574	12.25
767.322	11.25
768.07	10.25
768.817	12.25
769.565	8.25
770.312	12.25
771.06	11.25
771.807	9.25
772.554	11.25
773.302	10.25
774.049	7.25
774.796	12.25
775.543	11.25
776.29	12.25
777.036	13.25
777.783	13.25
778.53	10.25
779.276	13.25
780.023	11.25
780.769	12.25
781.516	13.25
782.262	12.25
783.008	11.25
783.754	10.25
784.5	14.25
785.246	9.25
785.992	13.25
786.738	13.25
787.484	10.25
788.23	14.25
788.975	11.25
789.721	10.25
790.466	12.25
791.212	10.25
791.957	12.25
792.702	14.25
793.447	9.25
794.193	10.25
794.938	11.25
795.683	12.25
796.427	10.25
797.172	12.25
797.917	11.25
798.662	10.25
799.406	10.25
800.151	10.25
800.895	11.25
801.64	11.25
802.384	8.25
803.128	10.25
803.872	7.25
804.616	9.25
805.36	10.25
806.104	6.25
806.848	7.25
807.592	4.25
808.336	7.25
809.079	5.25
809.823	9.25
810.566	9.25
811.31	6.25
812.053	5.25
812.796	8.25
813.539	6.25
814.283	4.25
815.026	7.25
815.769	7.25
816.511	7.25
817.254	7.25
817.997	5.25
818.74	5.25
819.482	6.25
820.225	4.25
820.967	6.25
821.71	7.25
822.452	7.25
823.194	4.25
823.936	5.25
824.678	5.25
825.42	5.25
826.162	7.25
826.904	5.25
827.646	4.25
828.388	5.25
829.129	4.25
829.871	6.25
830.612	4.25
831.354	5.25
832.095	5.25
832.836	6.25
833.577	3.25
834.319	3.25
835.06	2.25
835.801	5.25
836.542	7.25
837.282	4.25
838.023	4.25
838.764	5.25
839.504	1.25
840.245	3.25
840.985	2.25
841.726	3.25
842.466	5.25
843.206	0.25
843.946	3.25
844.687	4.25
845.427	3.25
846.166	4.25
846.906	2.25
847.646	4.25
848.386	3.25
849.125	4.25
849.865	3.25
850.605	2.25
851.344	3.25
852.083	6.25
852.823	2.25
853.562	2.25
854.301	3.25
855.04	2.25
855.779	3.25
856.518	3.25
857.257	2.25
857.995	2.25
858.734	1.25
859.473	3.25
860.211	2.25
860.95	5.25
861.688	2.25
862.426	1.25
863.165	1.25
863.903	1.25
864.641	2.25
865.379	4.25
866.117	2.25
866.855	1.25
867.593	1.25
868.33	2.25
869.068	2.25
869.806	2.25
870.543	2.25
871.28	1.25
872.018	2.25
872.755	1.25
873.492	1.25
874.229	0.25
874.967	2.25
875.703	3.25
876.44	1.25
877.177	-0.75
877.914	0.25
878.651	1.25
879.387	0.25
880.124	2.25
880.86	2.25
881.597	1.25
882.333	1.25
883.069	1.25
883.806	3.25
884.542	1.25
885.278	1.25
886.014	2.25
886.749	1.25
887.485	2.25
888.221	0.25
888.957	2.25
889.692	0.25
890.428	-0.75
891.163	2.25
891.899	0.25
892.634	0.25
893.369	2.25
894.104	0.25
894.839	-0.75
895.574	-0.75
896.309	2.25
897.044	1.25
897.779	-0.75
898.514	0.25
899.248	-1.75
899.983	2.25
900.717	1.25
901.452	0.25
902.186	1.25
902.92	0.25
903.654	0.25
904.389	-1.75
905.123	3.25
905.857	1.25
906.59	1.25
907.324	-0.75
908.058	0.25
908.792	0.25
909.525	2.25
910.259	0.25
910.992	0.25
911.726	2.25
912.459	0.25
913.192	0.25
913.925	0.25
914.658	1.25
915.391	2.25
916.124	1.25
916.857	-0.75
917.59	-0.75
918.323	0.25
919.055	1.25
919.788	1.25
920.521	-0.75
921.253	0.25
921.985	1.25
922.718	0.25
923.45	-0.75
924.182	2.25
924.914	-0.75
925.646	-0.75
926.378	0.25
927.11	-0.75
927.841	0.25
928.573	2.25
929.305	-0.75
930.036	2.25
930.768	-0.75
931.499	-0.75
932.23	-0.75
932.962	4.25
933.693	-1.75
934.424	1.25
935.155	2.25
935.886	-0.75
936.617	-1.75
937.348	-0.75
938.078	0.25
938.809	2.25
939.54	0.25
940.27	-0.75
941.001	0.25
941.731	0.25
942.461	1.25
943.191	-2.75
943.922	0.25
944.652	-1.75
945.382	0.25
946.112	1.25
946.841	1.25
947.571	-0.75
948.301	-0.75
949.031	0.25
949.76	2.25
950.49	-0.75
951.219	-1.75
951.948	-0.75
952.678	0.25
953.407	2.25
954.136	-0.75
954.865	0.25
955.594	0.25
956.323	0.25
957.052	0.25
957.78	0.25
958.509	2.25
959.238	0.25
959.966	0.25
960.695	0.25
961.423	-0.75
962.151	0.25
962.88	1.25
963.608	1.25
964.336	0.25
965.064	-0.75
965.792	1.25
966.52	0.25
967.247	1.25
967.975	1.25
968.703	0.25
969.43	-0.75
970.158	2.25
970.885	-1.75
971.613	2.25
972.34	0.25
973.067	1.25
973.794	-0.75
974.521	-2.75
975.248	1.25
975.975	-0.75
976.702	2.25
977.429	-0.75
978.156	0.25
978.882	0.25
979.609	-2.75
980.335	2.25
981.062	-1.75
981.788	1.25
982.514	1.25
983.24	-0.75
983.967	1.25
984.693	0.25
985.419	0.25
986.144	-0.75
986.87	1.25
987.596	2.25
988.322	1.25
989.047	1.25
989.773	1.25
990.498	0.25
991.224	-0.75
991.949	-0.75
992.674	1.25
993.399	1.25
994.124	2.25
994.849	-1.75
995.574	-0.75
996.299	1.25
997.024	-1.75
997.749	-0.75
998.473	0.25
999.198	0.25
999.922	1.25
1000.647	0.25
1001.371	4.25
1002.095	-1.75
1002.82	-1.75
1003.544	-1.75
1004.268	3.25
1004.992	3.25
1005.716	3.25
1006.439	3.25
1007.163	2.25
1007.887	2.25
1008.611	3.25
1009.334	2.25
1010.058	1.25
1010.781	-1.75
1011.504	0.25
1012.228	1.25
1012.951	1.25
1013.674	0.25
1014.397	-1.75
1015.12	1.25
