节点500_425_QEPB04081__40__15-48-59-435.txt的数据

Date: Wed Nov 12 15:48:59 CST 2025
User: PC
Spectrometer: QEPB0408
触发模式: 0
积分时间 (秒): 1.000000E-2
Scans to average: 1
启用暗噪声校正: true
启用非线性校正: false
滑动平均宽度: 0
X轴模式: Wavelengths
Number of Pixels in Spectrum: 1044
>>>>>Begin Spectral Data<<<<<
220.843	3.25
221.644	3.25
222.444	4.25
223.244	2.25
224.045	5.25
224.845	2.25
225.645	3.25
226.445	4.25
227.245	4.25
228.045	3.25
228.845	3.25
229.645	6.25
230.444	6.25
231.244	1.25
232.043	4.25
232.843	4.25
233.642	7.25
234.442	6.25
235.241	8.25
236.04	6.25
236.839	5.25
237.638	6.25
238.437	6.25
239.236	8.25
240.035	6.25
240.833	7.25
241.632	9.25
242.43	7.25
243.229	7.25
244.027	7.25
244.826	10.25
245.624	9.25
246.422	8.25
247.22	9.25
248.018	9.25
248.816	9.25
249.614	9.25
250.412	8.25
251.21	10.25
252.007	8.25
252.805	9.25
253.602	11.25
254.4	10.25
255.197	10.25
255.994	8.25
256.791	14.25
257.589	14.25
258.386	14.25
259.183	12.25
259.979	14.25
260.776	15.25
261.573	14.25
262.37	17.25
263.166	16.25
263.963	22.25
264.759	19.25
265.556	19.25
266.352	21.25
267.148	21.25
267.944	19.25
268.74	20.25
269.536	22.25
270.332	22.25
271.128	25.25
271.924	22.25
272.719	21.25
273.515	25.25
274.311	24.25
275.106	23.25
275.901	25.25
276.697	26.25
277.492	24.25
278.287	27.25
279.082	27.25
279.877	25.25
280.672	28.25
281.467	27.25
282.262	28.25
283.056	28.25
283.851	26.25
284.646	28.25
285.44	24.25
286.234	25.25
287.029	22.25
287.823	28.25
288.617	24.25
289.411	24.25
290.205	22.25
290.999	25.25
291.793	25.25
292.587	23.25
293.381	23.25
294.174	24.25
294.968	21.25
295.761	21.25
296.555	21.25
297.348	22.25
298.141	18.25
298.935	21.25
299.728	20.25
300.521	20.25
301.314	18.25
302.107	18.25
302.899	18.25
303.692	15.25
304.485	17.25
305.277	17.25
306.07	17.25
306.862	12.25
307.655	18.25
308.447	18.25
309.239	15.25
310.031	14.25
310.823	14.25
311.615	15.25
312.407	13.25
313.199	13.25
313.991	12.25
314.783	12.25
315.574	13.25
316.366	12.25
317.157	11.25
317.949	10.25
318.74	10.25
319.531	10.25
320.322	7.25
321.113	12.25
321.904	8.25
322.695	9.25
323.486	10.25
324.277	8.25
325.068	11.25
325.858	7.25
326.649	8.25
327.439	7.25
328.23	10.25
329.02	10.25
329.81	9.25
330.6	11.25
331.391	8.25
332.181	7.25
332.971	9.25
333.76	8.25
334.55	8.25
335.34	8.25
336.13	11.25
336.919	8.25
337.709	7.25
338.498	9.25
339.287	8.25
340.077	12.25
340.866	10.25
341.655	7.25
342.444	8.25
343.233	7.25
344.022	10.25
344.811	8.25
345.6	9.25
346.388	7.25
347.177	7.25
347.965	9.25
348.754	6.25
349.542	8.25
350.33	7.25
351.119	8.25
351.907	5.25
352.695	6.25
353.483	7.25
354.271	9.25
355.059	9.25
355.846	8.25
356.634	7.25
357.422	6.25
358.209	8.25
358.997	9.25
359.784	8.25
360.571	7.25
361.359	8.25
362.146	7.25
362.933	6.25
363.72	7.25
364.507	8.25
365.294	5.25
366.081	7.25
366.867	8.25
367.654	7.25
368.44	6.25
369.227	7.25
370.013	5.25
370.8	6.25
371.586	9.25
372.372	8.25
373.158	5.25
373.944	5.25
374.73	4.25
375.516	8.25
376.302	6.25
377.088	7.25
377.873	7.25
378.659	5.25
379.445	6.25
380.23	8.25
381.015	6.25
381.801	7.25
382.586	6.25
383.371	7.25
384.156	7.25
384.941	7.25
385.726	8.25
386.511	7.25
387.296	7.25
388.08	8.25
388.865	8.25
389.649	9.25
390.434	8.25
391.218	8.25
392.003	11.25
392.787	8.25
393.571	9.25
394.355	9.25
395.139	8.25
395.923	9.25
396.707	9.25
397.491	8.25
398.274	9.25
399.058	10.25
399.842	9.25
400.625	7.25
401.408	11.25
402.192	10.25
402.975	9.25
403.758	8.25
404.541	10.25
405.324	11.25
406.107	12.25
406.89	10.25
407.673	11.25
408.456	9.25
409.238	13.25
410.021	11.25
410.803	12.25
411.586	13.25
412.368	12.25
413.151	14.25
413.933	12.25
414.715	13.25
415.497	12.25
416.279	13.25
417.061	15.25
417.843	13.25
418.624	14.25
419.406	17.25
420.188	16.25
420.969	14.25
421.751	13.25
422.532	17.25
423.313	15.25
424.095	15.25
424.876	19.25
425.657	16.25
426.438	18.25
427.219	19.25
428	14.25
428.78	17.25
429.561	18.25
430.342	22.25
431.122	19.25
431.903	22.25
432.683	19.25
433.464	25.25
434.244	24.25
435.024	23.25
435.804	26.25
436.584	26.25
437.364	26.25
438.144	30.25
438.924	32.25
439.704	34.25
440.483	33.25
441.263	34.25
442.042	36.25
442.822	40.25
443.601	41.25
444.38	40.25
445.16	43.25
445.939	50.25
446.718	54.25
447.497	55.25
448.276	64.25
449.054	66.25
449.833	73.25
450.612	81.25
451.391	85.25
452.169	92.25
452.948	102.25
453.726	115.25
454.504	127.25
455.282	138.25
456.061	158.25
456.839	170.25
457.617	189.25
458.395	211.25
459.172	235.25
459.95	261.25
460.728	293.25
461.506	326.25
462.283	359.25
463.061	412.25
463.838	455.25
464.615	520.25
465.393	577.25
466.17	635.25
466.947	726.25
467.724	802.25
468.501	906.25
469.278	1005.25
470.055	1098.25
470.831	1245.25
471.608	1383.25
472.385	1559.25
473.161	1720.25
473.938	1908.25
474.714	2110.25
475.49	2360.25
476.266	2615.25
477.043	2876.25
477.819	3192.25
478.595	3569.25
479.371	3940.25
480.146	4322.25
480.922	4798.25
481.698	5301.25
482.473	5847.25
483.249	6428.25
484.024	7067.25
484.8	7829.25
485.575	8606.25
486.35	9420.25
487.126	10359.25
487.901	11353.25
488.676	12382.25
489.451	13568.25
490.225	14747.25
491	16056.25
491.775	17502.25
492.55	18909.25
493.324	20455.25
494.099	21991.25
494.873	23461.25
495.647	25077.25
496.422	26683.25
497.196	28254.25
497.97	29826.25
498.744	31460.25
499.518	32819.25
500.292	34037.25
501.066	35170.25
501.839	36192.25
502.613	36932.25
503.387	37484.25
504.16	37861.25
504.934	37950.25
505.707	37737.25
506.48	37190.25
507.253	36687.25
508.027	36049.25
508.8	35146.25
509.573	34156.25
510.346	33018.25
511.118	31884.25
511.891	30681.25
512.664	29444.25
513.437	28133.25
514.209	26890.25
514.982	25776.25
515.754	24659.25
516.526	23532.25
517.298	22468.25
518.071	21592.25
518.843	20714.25
519.615	19852.25
520.387	19103.25
521.159	18356.25
521.93	17643.25
522.702	16943.25
523.474	16273.25
524.245	15569.25
525.017	14885.25
525.788	14163.25
526.56	13504.25
527.331	12800.25
528.102	12180.25
528.873	11591.25
529.644	10980.25
530.415	10476.25
531.186	9930.25
531.957	9354.25
532.728	8878.25
533.498	8336.25
534.269	7926.25
535.039	7458.25
535.81	7016.25
536.58	6649.25
537.351	6249.25
538.121	5898.25
538.891	5586.25
539.661	5334.25
540.431	5033.25
541.201	4740.25
541.971	4516.25
542.741	4300.25
543.51	4070.25
544.28	3841.25
545.05	3663.25
545.819	3481.25
546.588	3334.25
547.358	3145.25
548.127	2979.25
548.896	2842.25
549.665	2673.25
550.434	2536.25
551.203	2411.25
551.972	2285.25
552.741	2143.25
553.51	2028.25
554.278	1906.25
555.047	1805.25
555.815	1691.25
556.584	1607.25
557.352	1513.25
558.121	1422.25
558.889	1341.25
559.657	1265.25
560.425	1194.25
561.193	1137.25
561.961	1068.25
562.729	1005.25
563.496	961.25
564.264	916.25
565.032	863.25
565.799	823.25
566.567	763.25
567.334	736.25
568.101	678.25
568.869	637.25
569.636	602.25
570.403	577.25
571.17	538.25
571.937	505.25
572.704	485.25
573.471	460.25
574.237	427.25
575.004	402.25
575.771	384.25
576.537	368.25
577.303	337.25
578.07	322.25
578.836	305.25
579.602	283.25
580.368	272.25
581.134	249.25
581.9	248.25
582.666	231.25
583.432	216.25
584.198	208.25
584.964	199.25
585.729	189.25
586.495	174.25
587.26	163.25
588.025	159.25
588.791	151.25
589.556	149.25
590.321	139.25
591.086	132.25
591.851	123.25
592.616	118.25
593.381	112.25
594.146	111.25
594.911	101.25
595.675	97.25
596.44	93.25
597.204	92.25
597.969	83.25
598.733	86.25
599.497	79.25
600.261	74.25
601.025	73.25
601.79	70.25
602.553	64.25
603.317	61.25
604.081	57.25
604.845	55.25
605.609	58.25
606.372	52.25
607.136	49.25
607.899	50.25
608.662	50.25
609.426	48.25
610.189	42.25
610.952	44.25
611.715	39.25
612.478	40.25
613.241	36.25
614.004	34.25
614.767	36.25
615.529	33.25
616.292	34.25
617.055	34.25
617.817	29.25
618.579	30.25
619.342	25.25
620.104	25.25
620.866	27.25
621.628	25.25
622.39	28.25
623.152	25.25
623.914	22.25
624.676	21.25
625.438	20.25
626.199	24.25
626.961	21.25
627.722	24.25
628.484	19.25
629.245	19.25
630.006	19.25
630.768	16.25
631.529	17.25
632.29	15.25
633.051	18.25
633.812	14.25
634.573	17.25
635.333	16.25
636.094	12.25
636.855	16.25
637.615	12.25
638.376	16.25
639.136	10.25
639.896	13.25
640.657	14.25
641.417	13.25
642.177	13.25
642.937	12.25
643.697	11.25
644.457	9.25
645.216	12.25
645.976	11.25
646.736	8.25
647.495	12.25
648.255	7.25
649.014	12.25
649.774	9.25
650.533	7.25
651.292	9.25
652.051	9.25
652.81	8.25
653.569	8.25
654.328	10.25
655.087	9.25
655.846	7.25
656.604	9.25
657.363	8.25
658.121	9.25
658.88	8.25
659.638	9.25
660.397	6.25
661.155	10.25
661.913	9.25
662.671	8.25
663.429	9.25
664.187	8.25
664.945	7.25
665.703	5.25
666.46	8.25
667.218	7.25
667.976	8.25
668.733	8.25
669.49	5.25
670.248	6.25
671.005	2.25
671.762	6.25
672.519	7.25
673.276	6.25
674.033	3.25
674.79	5.25
675.547	2.25
676.304	6.25
677.06	6.25
677.817	5.25
678.574	6.25
679.33	3.25
680.086	6.25
680.843	4.25
681.599	5.25
682.355	5.25
683.111	4.25
683.867	4.25
684.623	7.25
685.379	8.25
686.135	9.25
686.89	5.25
687.646	6.25
688.402	3.25
689.157	5.25
689.912	3.25
690.668	6.25
691.423	3.25
692.178	3.25
692.933	3.25
693.688	5.25
694.443	2.25
695.198	2.25
695.953	4.25
696.708	4.25
697.462	5.25
698.217	6.25
698.972	7.25
699.726	5.25
700.48	4.25
701.235	5.25
701.989	5.25
702.743	3.25
703.497	4.25
704.251	4.25
705.005	4.25
705.759	4.25
706.513	4.25
707.266	6.25
708.02	6.25
708.774	4.25
709.527	5.25
710.28	5.25
711.034	5.25
711.787	1.25
712.54	5.25
713.293	6.25
714.046	6.25
714.799	5.25
715.552	3.25
716.305	6.25
717.058	6.25
717.81	6.25
718.563	5.25
719.315	5.25
720.068	7.25
720.82	6.25
721.573	8.25
722.325	6.25
723.077	5.25
723.829	4.25
724.581	5.25
725.333	5.25
726.085	6.25
726.836	4.25
727.588	6.25
728.34	3.25
729.091	7.25
729.843	5.25
730.594	4.25
731.346	6.25
732.097	8.25
732.848	6.25
733.599	4.25
734.35	6.25
735.101	8.25
735.852	9.25
736.603	6.25
737.354	6.25
738.104	6.25
738.855	4.25
739.605	6.25
740.356	4.25
741.106	7.25
741.856	6.25
742.607	7.25
743.357	6.25
744.107	8.25
744.857	8.25
745.607	7.25
746.357	10.25
747.106	6.25
747.856	5.25
748.606	8.25
749.355	7.25
750.105	8.25
750.854	7.25
751.603	8.25
752.353	10.25
753.102	9.25
753.851	9.25
754.6	9.25
755.349	8.25
756.098	8.25
756.847	7.25
757.595	9.25
758.344	9.25
759.093	9.25
759.841	8.25
760.589	9.25
761.338	8.25
762.086	10.25
762.834	11.25
763.582	8.25
764.331	10.25
765.079	10.25
765.826	8.25
766.574	9.25
767.322	9.25
768.07	13.25
768.817	12.25
769.565	11.25
770.312	10.25
771.06	10.25
771.807	12.25
772.554	11.25
773.302	12.25
774.049	11.25
774.796	10.25
775.543	10.25
776.29	10.25
777.036	12.25
777.783	8.25
778.53	13.25
779.276	12.25
780.023	13.25
780.769	15.25
781.516	13.25
782.262	11.25
783.008	11.25
783.754	12.25
784.5	13.25
785.246	10.25
785.992	14.25
786.738	12.25
787.484	11.25
788.23	14.25
788.975	11.25
789.721	11.25
790.466	11.25
791.212	9.25
791.957	11.25
792.702	11.25
793.447	14.25
794.193	8.25
794.938	12.25
795.683	11.25
796.427	10.25
797.172	10.25
797.917	9.25
798.662	9.25
799.406	10.25
800.151	8.25
800.895	12.25
801.64	10.25
802.384	9.25
803.128	7.25
803.872	10.25
804.616	10.25
805.36	8.25
806.104	8.25
806.848	7.25
807.592	8.25
808.336	7.25
809.079	8.25
809.823	7.25
810.566	6.25
811.31	8.25
812.053	6.25
812.796	7.25
813.539	10.25
814.283	5.25
815.026	6.25
815.769	6.25
816.511	6.25
817.254	6.25
817.997	3.25
818.74	7.25
819.482	6.25
820.225	4.25
820.967	8.25
821.71	6.25
822.452	4.25
823.194	5.25
823.936	7.25
824.678	6.25
825.42	5.25
826.162	5.25
826.904	4.25
827.646	4.25
828.388	4.25
829.129	2.25
829.871	5.25
830.612	4.25
831.354	4.25
832.095	3.25
832.836	3.25
833.577	5.25
834.319	4.25
835.06	4.25
835.801	5.25
836.542	4.25
837.282	4.25
838.023	4.25
838.764	3.25
839.504	5.25
840.245	4.25
840.985	6.25
841.726	5.25
842.466	2.25
843.206	4.25
843.946	3.25
844.687	6.25
845.427	3.25
846.166	6.25
846.906	2.25
847.646	3.25
848.386	4.25
849.125	3.25
849.865	5.25
850.605	4.25
851.344	6.25
852.083	4.25
852.823	2.25
853.562	3.25
854.301	4.25
855.04	2.25
855.779	3.25
856.518	3.25
857.257	3.25
857.995	1.25
858.734	4.25
859.473	2.25
860.211	1.25
860.95	2.25
861.688	-1.75
862.426	3.25
863.165	1.25
863.903	2.25
864.641	3.25
865.379	-0.75
866.117	1.25
866.855	3.25
867.593	3.25
868.33	0.25
869.068	4.25
869.806	2.25
870.543	2.25
871.28	2.25
872.018	0.25
872.755	1.25
873.492	2.25
874.229	2.25
874.967	0.25
875.703	1.25
876.44	2.25
877.177	0.25
877.914	0.25
878.651	2.25
879.387	1.25
880.124	1.25
880.86	-1.75
881.597	0.25
882.333	1.25
883.069	0.25
883.806	0.25
884.542	3.25
885.278	2.25
886.014	0.25
886.749	-0.75
887.485	0.25
888.221	0.25
888.957	1.25
889.692	1.25
890.428	2.25
891.163	0.25
891.899	1.25
892.634	1.25
893.369	0.25
894.104	2.25
894.839	0.25
895.574	2.25
896.309	-0.75
897.044	-0.75
897.779	1.25
898.514	0.25
899.248	-0.75
899.983	1.25
900.717	0.25
901.452	1.25
902.186	0.25
902.92	1.25
903.654	-1.75
904.389	2.25
905.123	0.25
905.857	-0.75
906.59	-1.75
907.324	2.25
908.058	4.25
908.792	2.25
909.525	2.25
910.259	-0.75
910.992	2.25
911.726	0.25
912.459	1.25
913.192	1.25
913.925	-0.75
914.658	2.25
915.391	0.25
916.124	-0.75
916.857	0.25
917.59	3.25
918.323	3.25
919.055	2.25
919.788	0.25
920.521	0.25
921.253	0.25
921.985	-0.75
922.718	-1.75
923.45	1.25
924.182	-1.75
924.914	1.25
925.646	0.25
926.378	-1.75
927.11	-0.75
927.841	0.25
928.573	0.25
929.305	1.25
930.036	0.25
930.768	1.25
931.499	-0.75
932.23	-0.75
932.962	0.25
933.693	0.25
934.424	2.25
935.155	0.25
935.886	1.25
936.617	-1.75
937.348	0.25
938.078	-1.75
938.809	-0.75
939.54	0.25
940.27	1.25
941.001	1.25
941.731	1.25
942.461	0.25
943.191	0.25
943.922	1.25
944.652	0.25
945.382	-1.75
946.112	1.25
946.841	1.25
947.571	0.25
948.301	0.25
949.031	-0.75
949.76	-0.75
950.49	1.25
951.219	0.25
951.948	-0.75
952.678	-0.75
953.407	0.25
954.136	0.25
954.865	0.25
955.594	-0.75
956.323	1.25
957.052	-0.75
957.78	0.25
958.509	-1.75
959.238	-0.75
959.966	-1.75
960.695	1.25
961.423	1.25
962.151	-0.75
962.88	-0.75
963.608	0.25
964.336	0.25
965.064	1.25
965.792	-0.75
966.52	-0.75
967.247	1.25
967.975	-0.75
968.703	0.25
969.43	0.25
970.158	1.25
970.885	-0.75
971.613	-0.75
972.34	-0.75
973.067	-0.75
973.794	0.25
974.521	-0.75
975.248	0.25
975.975	0.25
976.702	-1.75
977.429	1.25
978.156	-1.75
978.882	1.25
979.609	1.25
980.335	0.25
981.062	0.25
981.788	2.25
982.514	0.25
983.24	-0.75
983.967	-1.75
984.693	1.25
985.419	-1.75
986.144	-0.75
986.87	-0.75
987.596	-0.75
988.322	0.25
989.047	1.25
989.773	-0.75
990.498	0.25
991.224	1.25
991.949	1.25
992.674	1.25
993.399	-0.75
994.124	-1.75
994.849	0.25
995.574	0.25
996.299	-0.75
997.024	1.25
997.749	-1.75
998.473	0.25
999.198	-1.75
999.922	0.25
1000.647	0.25
1001.371	4.25
1002.095	1.25
1002.82	-0.75
1003.544	-0.75
1004.268	2.25
1004.992	3.25
1005.716	3.25
1006.439	2.25
1007.163	2.25
1007.887	1.25
1008.611	-1.75
1009.334	1.25
1010.058	-1.75
1010.781	2.25
1011.504	0.25
1012.228	-0.75
1012.951	0.25
1013.674	-1.75
1014.397	0.25
1015.12	-2.75
