节点500_425_QEPB04081__558__15-57-35-479.txt的数据

Date: Wed Nov 12 15:57:35 CST 2025
User: PC
Spectrometer: QEPB0408
触发模式: 0
积分时间 (秒): 1.000000E-2
Scans to average: 1
启用暗噪声校正: true
启用非线性校正: false
滑动平均宽度: 0
X轴模式: Wavelengths
Number of Pixels in Spectrum: 1044
>>>>>Begin Spectral Data<<<<<
220.843	2.62
221.644	2.62
222.444	2.62
223.244	3.62
224.045	1.62
224.845	6.62
225.645	5.62
226.445	5.62
227.245	1.62
228.045	4.62
228.845	1.62
229.645	4.62
230.444	5.62
231.244	3.62
232.043	4.62
232.843	2.62
233.642	7.62
234.442	5.62
235.241	3.62
236.04	5.62
236.839	4.62
237.638	4.62
238.437	5.62
239.236	5.62
240.035	5.62
240.833	7.62
241.632	10.62
242.43	5.62
243.229	5.62
244.027	9.62
244.826	7.62
245.624	7.62
246.422	6.62
247.22	7.62
248.018	9.62
248.816	8.62
249.614	8.62
250.412	9.62
251.21	9.62
252.007	10.62
252.805	10.62
253.602	9.62
254.4	10.62
255.197	9.62
255.994	10.62
256.791	11.62
257.589	11.62
258.386	12.62
259.183	13.62
259.979	12.62
260.776	13.62
261.573	13.62
262.37	14.62
263.166	13.62
263.963	17.62
264.759	17.62
265.556	13.62
266.352	16.62
267.148	15.62
267.944	16.62
268.74	16.62
269.536	16.62
270.332	16.62
271.128	16.62
271.924	19.62
272.719	19.62
273.515	21.62
274.311	21.62
275.106	19.62
275.901	20.62
276.697	21.62
277.492	20.62
278.287	20.62
279.082	21.62
279.877	23.62
280.672	24.62
281.467	22.62
282.262	22.62
283.056	22.62
283.851	23.62
284.646	21.62
285.44	24.62
286.234	25.62
287.029	22.62
287.823	19.62
288.617	20.62
289.411	22.62
290.205	23.62
290.999	22.62
291.793	26.62
292.587	22.62
293.381	23.62
294.174	23.62
294.968	22.62
295.761	21.62
296.555	17.62
297.348	19.62
298.141	19.62
298.935	22.62
299.728	18.62
300.521	18.62
301.314	13.62
302.107	18.62
302.899	16.62
303.692	14.62
304.485	17.62
305.277	16.62
306.07	14.62
306.862	17.62
307.655	16.62
308.447	16.62
309.239	14.62
310.031	15.62
310.823	13.62
311.615	14.62
312.407	11.62
313.199	14.62
313.991	10.62
314.783	13.62
315.574	10.62
316.366	9.62
317.157	9.62
317.949	11.62
318.74	11.62
319.531	11.62
320.322	10.62
321.113	10.62
321.904	9.62
322.695	11.62
323.486	10.62
324.277	9.62
325.068	9.62
325.858	8.62
326.649	9.62
327.439	7.62
328.23	8.62
329.02	10.62
329.81	6.62
330.6	9.62
331.391	7.62
332.181	9.62
332.971	7.62
333.76	7.62
334.55	8.62
335.34	7.62
336.13	9.62
336.919	7.62
337.709	9.62
338.498	9.62
339.287	5.62
340.077	7.62
340.866	8.62
341.655	9.62
342.444	7.62
343.233	7.62
344.022	8.62
344.811	7.62
345.6	8.62
346.388	10.62
347.177	7.62
347.965	10.62
348.754	6.62
349.542	8.62
350.33	9.62
351.119	10.62
351.907	6.62
352.695	8.62
353.483	6.62
354.271	7.62
355.059	7.62
355.846	9.62
356.634	7.62
357.422	9.62
358.209	7.62
358.997	8.62
359.784	8.62
360.571	7.62
361.359	6.62
362.146	6.62
362.933	8.62
363.72	4.62
364.507	8.62
365.294	6.62
366.081	8.62
366.867	8.62
367.654	2.62
368.44	8.62
369.227	6.62
370.013	4.62
370.8	7.62
371.586	7.62
372.372	7.62
373.158	2.62
373.944	6.62
374.73	8.62
375.516	8.62
376.302	7.62
377.088	7.62
377.873	6.62
378.659	7.62
379.445	3.62
380.23	7.62
381.015	6.62
381.801	6.62
382.586	7.62
383.371	8.62
384.156	8.62
384.941	7.62
385.726	8.62
386.511	6.62
387.296	6.62
388.08	6.62
388.865	7.62
389.649	7.62
390.434	6.62
391.218	6.62
392.003	9.62
392.787	7.62
393.571	9.62
394.355	7.62
395.139	6.62
395.923	5.62
396.707	8.62
397.491	8.62
398.274	5.62
399.058	9.62
399.842	10.62
400.625	9.62
401.408	8.62
402.192	11.62
402.975	8.62
403.758	10.62
404.541	10.62
405.324	9.62
406.107	11.62
406.89	9.62
407.673	11.62
408.456	9.62
409.238	12.62
410.021	10.62
410.803	10.62
411.586	10.62
412.368	13.62
413.151	12.62
413.933	11.62
414.715	11.62
415.497	11.62
416.279	12.62
417.061	11.62
417.843	15.62
418.624	13.62
419.406	12.62
420.188	13.62
420.969	14.62
421.751	14.62
422.532	12.62
423.313	15.62
424.095	13.62
424.876	15.62
425.657	17.62
426.438	15.62
427.219	17.62
428	13.62
428.78	15.62
429.561	21.62
430.342	18.62
431.122	21.62
431.903	20.62
432.683	23.62
433.464	22.62
434.244	22.62
435.024	26.62
435.804	23.62
436.584	27.62
437.364	28.62
438.144	31.62
438.924	32.62
439.704	32.62
440.483	32.62
441.263	39.62
442.042	38.62
442.822	39.62
443.601	45.62
444.38	46.62
445.16	50.62
445.939	56.62
446.718	64.62
447.497	65.62
448.276	69.62
449.054	75.62
449.833	85.62
450.612	94.62
451.391	100.62
452.169	109.62
452.948	124.62
453.726	140.62
454.504	150.62
455.282	169.62
456.061	190.62
456.839	206.62
457.617	228.62
458.395	251.62
459.172	280.62
459.95	313.62
460.728	345.62
461.506	382.62
462.283	433.62
463.061	477.62
463.838	540.62
464.615	592.62
465.393	666.62
466.17	742.62
466.947	800.62
467.724	903.62
468.501	997.62
469.278	1106.62
470.055	1202.62
470.831	1337.62
471.608	1477.62
472.385	1614.62
473.161	1793.62
473.938	1964.62
474.714	2165.62
475.49	2377.62
476.266	2595.62
477.043	2854.62
477.819	3115.62
478.595	3403.62
479.371	3736.62
480.146	4072.62
480.922	4443.62
481.698	4844.62
482.473	5225.62
483.249	5744.62
484.024	6240.62
484.8	6824.62
485.575	7349.62
486.35	7969.62
487.126	8654.62
487.901	9359.62
488.676	10181.62
489.451	11011.62
490.225	11883.62
491	12806.62
491.775	13808.62
492.55	14907.62
493.324	15939.62
494.099	17060.62
494.873	18189.62
495.647	19491.62
496.422	20614.62
497.196	21914.62
497.97	23266.62
498.744	24457.62
499.518	25771.62
500.292	26827.62
501.066	28004.62
501.839	29102.62
502.613	30130.62
503.387	30872.62
504.16	31527.62
504.934	32142.62
505.707	32378.62
506.48	32492.62
507.253	32506.62
508.027	32442.62
508.8	32264.62
509.573	31779.62
510.346	31250.62
511.118	30552.62
511.891	29810.62
512.664	28921.62
513.437	28099.62
514.209	27063.62
514.982	26219.62
515.754	25172.62
516.526	24218.62
517.298	23250.62
518.071	22327.62
518.843	21480.62
519.615	20591.62
520.387	19800.62
521.159	18981.62
521.93	18293.62
522.702	17551.62
523.474	16865.62
524.245	16272.62
525.017	15552.62
525.788	14826.62
526.56	14188.62
527.331	13605.62
528.102	13014.62
528.873	12394.62
529.644	11827.62
530.415	11323.62
531.186	10798.62
531.957	10248.62
532.728	9767.62
533.498	9247.62
534.269	8726.62
535.039	8310.62
535.81	7900.62
536.58	7442.62
537.351	7009.62
538.121	6620.62
538.891	6284.62
539.661	5958.62
540.431	5664.62
541.201	5363.62
541.971	5067.62
542.741	4822.62
543.51	4571.62
544.28	4343.62
545.05	4129.62
545.819	3956.62
546.588	3738.62
547.358	3555.62
548.127	3370.62
548.896	3187.62
549.665	3054.62
550.434	2901.62
551.203	2738.62
551.972	2598.62
552.741	2458.62
553.51	2348.62
554.278	2215.62
555.047	2092.62
555.815	1960.62
556.584	1871.62
557.352	1757.62
558.121	1647.62
558.889	1576.62
559.657	1491.62
560.425	1402.62
561.193	1340.62
561.961	1247.62
562.729	1188.62
563.496	1122.62
564.264	1062.62
565.032	1018.62
565.799	949.62
566.567	904.62
567.334	843.62
568.101	795.62
568.869	754.62
569.636	713.62
570.403	674.62
571.17	626.62
571.937	592.62
572.704	571.62
573.471	536.62
574.237	509.62
575.004	484.62
575.771	443.62
576.537	423.62
577.303	400.62
578.07	374.62
578.836	351.62
579.602	336.62
580.368	318.62
581.134	299.62
581.9	286.62
582.666	269.62
583.432	258.62
584.198	243.62
584.964	230.62
585.729	221.62
586.495	205.62
587.26	197.62
588.025	188.62
588.791	179.62
589.556	165.62
590.321	159.62
591.086	148.62
591.851	141.62
592.616	136.62
593.381	130.62
594.146	123.62
594.911	110.62
595.675	112.62
596.44	99.62
597.204	102.62
597.969	96.62
598.733	92.62
599.497	88.62
600.261	82.62
601.025	81.62
601.79	78.62
602.553	70.62
603.317	68.62
604.081	70.62
604.845	62.62
605.609	59.62
606.372	58.62
607.136	56.62
607.899	54.62
608.662	50.62
609.426	50.62
610.189	51.62
610.952	45.62
611.715	46.62
612.478	44.62
613.241	40.62
614.004	38.62
614.767	40.62
615.529	35.62
616.292	34.62
617.055	34.62
617.817	37.62
618.579	36.62
619.342	30.62
620.104	29.62
620.866	29.62
621.628	26.62
622.39	28.62
623.152	25.62
623.914	24.62
624.676	23.62
625.438	22.62
626.199	20.62
626.961	24.62
627.722	20.62
628.484	21.62
629.245	21.62
630.006	17.62
630.768	20.62
631.529	18.62
632.29	17.62
633.051	17.62
633.812	17.62
634.573	17.62
635.333	14.62
636.094	17.62
636.855	13.62
637.615	14.62
638.376	16.62
639.136	12.62
639.896	14.62
640.657	12.62
641.417	14.62
642.177	13.62
642.937	12.62
643.697	11.62
644.457	11.62
645.216	12.62
645.976	9.62
646.736	11.62
647.495	12.62
648.255	8.62
649.014	8.62
649.774	11.62
650.533	9.62
651.292	10.62
652.051	10.62
652.81	10.62
653.569	6.62
654.328	10.62
655.087	8.62
655.846	9.62
656.604	8.62
657.363	7.62
658.121	8.62
658.88	7.62
659.638	8.62
660.397	7.62
661.155	7.62
661.913	7.62
662.671	8.62
663.429	9.62
664.187	5.62
664.945	6.62
665.703	7.62
666.46	5.62
667.218	10.62
667.976	6.62
668.733	6.62
669.49	7.62
670.248	6.62
671.005	7.62
671.762	5.62
672.519	7.62
673.276	6.62
674.033	4.62
674.79	8.62
675.547	4.62
676.304	5.62
677.06	6.62
677.817	6.62
678.574	5.62
679.33	6.62
680.086	7.62
680.843	5.62
681.599	6.62
682.355	4.62
683.111	5.62
683.867	5.62
684.623	6.62
685.379	4.62
686.135	6.62
686.89	4.62
687.646	5.62
688.402	6.62
689.157	6.62
689.912	4.62
690.668	4.62
691.423	6.62
692.178	7.62
692.933	5.62
693.688	4.62
694.443	5.62
695.198	5.62
695.953	4.62
696.708	4.62
697.462	5.62
698.217	4.62
698.972	5.62
699.726	6.62
700.48	4.62
701.235	5.62
701.989	5.62
702.743	5.62
703.497	5.62
704.251	3.62
705.005	4.62
705.759	4.62
706.513	4.62
707.266	6.62
708.02	5.62
708.774	4.62
709.527	2.62
710.28	3.62
711.034	4.62
711.787	4.62
712.54	5.62
713.293	6.62
714.046	4.62
714.799	4.62
715.552	7.62
716.305	3.62
717.058	5.62
717.81	6.62
718.563	4.62
719.315	4.62
720.068	5.62
720.82	5.62
721.573	7.62
722.325	3.62
723.077	4.62
723.829	5.62
724.581	4.62
725.333	4.62
726.085	5.62
726.836	5.62
727.588	1.62
728.34	5.62
729.091	7.62
729.843	5.62
730.594	6.62
731.346	4.62
732.097	6.62
732.848	5.62
733.599	4.62
734.35	7.62
735.101	5.62
735.852	8.62
736.603	5.62
737.354	6.62
738.104	3.62
738.855	5.62
739.605	6.62
740.356	5.62
741.106	6.62
741.856	5.62
742.607	7.62
743.357	6.62
744.107	6.62
744.857	4.62
745.607	5.62
746.357	8.62
747.106	6.62
747.856	6.62
748.606	8.62
749.355	5.62
750.105	7.62
750.854	6.62
751.603	5.62
752.353	6.62
753.102	4.62
753.851	6.62
754.6	4.62
755.349	6.62
756.098	5.62
756.847	5.62
757.595	6.62
758.344	6.62
759.093	7.62
759.841	7.62
760.589	7.62
761.338	8.62
762.086	6.62
762.834	7.62
763.582	5.62
764.331	7.62
765.079	8.62
765.826	6.62
766.574	8.62
767.322	8.62
768.07	9.62
768.817	10.62
769.565	9.62
770.312	12.62
771.06	9.62
771.807	10.62
772.554	11.62
773.302	10.62
774.049	10.62
774.796	7.62
775.543	10.62
776.29	10.62
777.036	10.62
777.783	9.62
778.53	8.62
779.276	10.62
780.023	6.62
780.769	12.62
781.516	9.62
782.262	10.62
783.008	9.62
783.754	11.62
784.5	12.62
785.246	9.62
785.992	9.62
786.738	10.62
787.484	9.62
788.23	9.62
788.975	8.62
789.721	11.62
790.466	11.62
791.212	9.62
791.957	12.62
792.702	9.62
793.447	10.62
794.193	10.62
794.938	10.62
795.683	10.62
796.427	8.62
797.172	12.62
797.917	7.62
798.662	9.62
799.406	10.62
800.151	7.62
800.895	9.62
801.64	8.62
802.384	9.62
803.128	6.62
803.872	6.62
804.616	7.62
805.36	7.62
806.104	6.62
806.848	7.62
807.592	9.62
808.336	7.62
809.079	8.62
809.823	5.62
810.566	7.62
811.31	7.62
812.053	3.62
812.796	4.62
813.539	6.62
814.283	8.62
815.026	5.62
815.769	8.62
816.511	6.62
817.254	6.62
817.997	7.62
818.74	5.62
819.482	3.62
820.225	7.62
820.967	3.62
821.71	6.62
822.452	5.62
823.194	4.62
823.936	3.62
824.678	5.62
825.42	6.62
826.162	7.62
826.904	5.62
827.646	5.62
828.388	5.62
829.129	4.62
829.871	5.62
830.612	5.62
831.354	3.62
832.095	2.62
832.836	6.62
833.577	4.62
834.319	5.62
835.06	5.62
835.801	5.62
836.542	4.62
837.282	5.62
838.023	4.62
838.764	2.62
839.504	7.62
840.245	3.62
840.985	3.62
841.726	4.62
842.466	3.62
843.206	4.62
843.946	2.62
844.687	3.62
845.427	3.62
846.166	5.62
846.906	4.62
847.646	1.62
848.386	6.62
849.125	3.62
849.865	3.62
850.605	2.62
851.344	2.62
852.083	4.62
852.823	2.62
853.562	4.62
854.301	1.62
855.04	4.62
855.779	2.62
856.518	4.62
857.257	5.62
857.995	1.62
858.734	2.62
859.473	2.62
860.211	2.62
860.95	2.62
861.688	1.62
862.426	2.62
863.165	1.62
863.903	1.62
864.641	2.62
865.379	2.62
866.117	3.62
866.855	0.62
867.593	2.62
868.33	2.62
869.068	3.62
869.806	2.62
870.543	2.62
871.28	1.62
872.018	2.62
872.755	2.62
873.492	1.62
874.229	2.62
874.967	3.62
875.703	0.62
876.44	0.62
877.177	3.62
877.914	3.62
878.651	3.62
879.387	2.62
880.124	0.62
880.86	2.62
881.597	0.62
882.333	1.62
883.069	1.62
883.806	2.62
884.542	-1.38
885.278	4.62
886.014	2.62
886.749	1.62
887.485	1.62
888.221	1.62
888.957	-0.38
889.692	1.62
890.428	1.62
891.163	1.62
891.899	2.62
892.634	2.62
893.369	-0.38
894.104	0.62
894.839	1.62
895.574	0.62
896.309	1.62
897.044	1.62
897.779	1.62
898.514	0.62
899.248	1.62
899.983	0.62
900.717	0.62
901.452	4.62
902.186	0.62
902.92	0.62
903.654	0.62
904.389	0.62
905.123	2.62
905.857	2.62
906.59	2.62
907.324	3.62
908.058	0.62
908.792	0.62
909.525	0.62
910.259	1.62
910.992	0.62
911.726	2.62
912.459	1.62
913.192	1.62
913.925	0.62
914.658	0.62
915.391	-0.38
916.124	1.62
916.857	0.62
917.59	-0.38
918.323	-0.38
919.055	1.62
919.788	-0.38
920.521	2.62
921.253	1.62
921.985	-0.38
922.718	0.62
923.45	0.62
924.182	-0.38
924.914	0.62
925.646	-1.38
926.378	2.62
927.11	0.62
927.841	2.62
928.573	-0.38
929.305	1.62
930.036	-0.38
930.768	-1.38
931.499	2.62
932.23	0.62
932.962	-0.38
933.693	0.62
934.424	0.62
935.155	1.62
935.886	-0.38
936.617	0.62
937.348	-0.38
938.078	0.62
938.809	-0.38
939.54	-0.38
940.27	2.62
941.001	0.62
941.731	0.62
942.461	0.62
943.191	2.62
943.922	1.62
944.652	1.62
945.382	-0.38
946.112	0.62
946.841	1.62
947.571	-0.38
948.301	-0.38
949.031	0.62
949.76	-0.38
950.49	1.62
951.219	-1.38
951.948	0.62
952.678	0.62
953.407	1.62
954.136	1.62
954.865	-0.38
955.594	1.62
956.323	-0.38
957.052	0.62
957.78	0.62
958.509	0.62
959.238	0.62
959.966	-0.38
960.695	-0.38
961.423	-0.38
962.151	0.62
962.88	0.62
963.608	-1.38
964.336	0.62
965.064	1.62
965.792	1.62
966.52	0.62
967.247	-1.38
967.975	0.62
968.703	1.62
969.43	0.62
970.158	-1.38
970.885	0.62
971.613	-0.38
972.34	-0.38
973.067	2.62
973.794	-1.38
974.521	-0.38
975.248	-0.38
975.975	1.62
976.702	-0.38
977.429	-0.38
978.156	1.62
978.882	0.62
979.609	-0.38
980.335	1.62
981.062	-1.38
981.788	1.62
982.514	-0.38
983.24	-0.38
983.967	1.62
984.693	-1.38
985.419	1.62
986.144	1.62
986.87	1.62
987.596	0.62
988.322	1.62
989.047	-0.38
989.773	-0.38
990.498	2.62
991.224	-1.38
991.949	0.62
992.674	0.62
993.399	-0.38
994.124	-1.38
994.849	-0.38
995.574	1.62
996.299	1.62
997.024	0.62
997.749	1.62
998.473	-0.38
999.198	0.62
999.922	0.62
1000.647	1.62
1001.371	4.62
1002.095	-3.38
1002.82	0.62
1003.544	-0.38
1004.268	2.62
1004.992	1.62
1005.716	0.62
1006.439	1.62
1007.163	2.62
1007.887	1.62
1008.611	0.62
1009.334	-0.38
1010.058	-1.38
1010.781	1.62
1011.504	4.62
1012.228	1.62
1012.951	0.62
1013.674	-0.38
1014.397	-1.38
1015.12	-0.38
