节点500_425_QEPB04081__586__15-58-03-432.txt的数据

Date: Wed Nov 12 15:58:03 CST 2025
User: PC
Spectrometer: QEPB0408
触发模式: 0
积分时间 (秒): 1.000000E-2
Scans to average: 1
启用暗噪声校正: true
启用非线性校正: false
滑动平均宽度: 0
X轴模式: Wavelengths
Number of Pixels in Spectrum: 1044
>>>>>Begin Spectral Data<<<<<
220.843	2.38
221.644	3.38
222.444	1.38
223.244	3.38
224.045	3.38
224.845	2.38
225.645	4.38
226.445	3.38
227.245	2.38
228.045	2.38
228.845	2.38
229.645	4.38
230.444	5.38
231.244	4.38
232.043	4.38
232.843	4.38
233.642	4.38
234.442	5.38
235.241	7.38
236.04	5.38
236.839	3.38
237.638	4.38
238.437	6.38
239.236	6.38
240.035	5.38
240.833	8.38
241.632	7.38
242.43	5.38
243.229	7.38
244.027	6.38
244.826	6.38
245.624	6.38
246.422	7.38
247.22	8.38
248.018	9.38
248.816	9.38
249.614	7.38
250.412	6.38
251.21	10.38
252.007	11.38
252.805	8.38
253.602	11.38
254.4	9.38
255.197	10.38
255.994	11.38
256.791	11.38
257.589	10.38
258.386	13.38
259.183	12.38
259.979	13.38
260.776	11.38
261.573	15.38
262.37	10.38
263.166	14.38
263.963	15.38
264.759	13.38
265.556	14.38
266.352	16.38
267.148	13.38
267.944	18.38
268.74	17.38
269.536	19.38
270.332	21.38
271.128	18.38
271.924	17.38
272.719	19.38
273.515	17.38
274.311	22.38
275.106	20.38
275.901	20.38
276.697	24.38
277.492	20.38
278.287	24.38
279.082	20.38
279.877	21.38
280.672	21.38
281.467	21.38
282.262	24.38
283.056	22.38
283.851	20.38
284.646	18.38
285.44	25.38
286.234	25.38
287.029	22.38
287.823	21.38
288.617	21.38
289.411	19.38
290.205	21.38
290.999	19.38
291.793	23.38
292.587	20.38
293.381	26.38
294.174	20.38
294.968	20.38
295.761	19.38
296.555	17.38
297.348	18.38
298.141	18.38
298.935	19.38
299.728	18.38
300.521	19.38
301.314	21.38
302.107	17.38
302.899	17.38
303.692	14.38
304.485	16.38
305.277	19.38
306.07	14.38
306.862	18.38
307.655	14.38
308.447	12.38
309.239	17.38
310.031	17.38
310.823	15.38
311.615	13.38
312.407	15.38
313.199	12.38
313.991	12.38
314.783	11.38
315.574	12.38
316.366	12.38
317.157	13.38
317.949	10.38
318.74	10.38
319.531	10.38
320.322	8.38
321.113	9.38
321.904	9.38
322.695	11.38
323.486	10.38
324.277	12.38
325.068	9.38
325.858	8.38
326.649	10.38
327.439	11.38
328.23	9.38
329.02	8.38
329.81	9.38
330.6	9.38
331.391	6.38
332.181	7.38
332.971	10.38
333.76	9.38
334.55	6.38
335.34	10.38
336.13	7.38
336.919	8.38
337.709	8.38
338.498	8.38
339.287	12.38
340.077	9.38
340.866	8.38
341.655	4.38
342.444	5.38
343.233	8.38
344.022	8.38
344.811	10.38
345.6	7.38
346.388	9.38
347.177	7.38
347.965	5.38
348.754	6.38
349.542	9.38
350.33	6.38
351.119	10.38
351.907	8.38
352.695	6.38
353.483	6.38
354.271	7.38
355.059	5.38
355.846	7.38
356.634	5.38
357.422	8.38
358.209	4.38
358.997	5.38
359.784	6.38
360.571	8.38
361.359	4.38
362.146	9.38
362.933	6.38
363.72	6.38
364.507	6.38
365.294	8.38
366.081	5.38
366.867	4.38
367.654	4.38
368.44	6.38
369.227	5.38
370.013	6.38
370.8	4.38
371.586	5.38
372.372	6.38
373.158	8.38
373.944	8.38
374.73	7.38
375.516	7.38
376.302	7.38
377.088	6.38
377.873	7.38
378.659	6.38
379.445	5.38
380.23	4.38
381.015	10.38
381.801	6.38
382.586	7.38
383.371	8.38
384.156	6.38
384.941	6.38
385.726	7.38
386.511	7.38
387.296	6.38
388.08	6.38
388.865	7.38
389.649	8.38
390.434	9.38
391.218	4.38
392.003	7.38
392.787	7.38
393.571	6.38
394.355	8.38
395.139	6.38
395.923	8.38
396.707	6.38
397.491	10.38
398.274	7.38
399.058	8.38
399.842	9.38
400.625	9.38
401.408	10.38
402.192	8.38
402.975	9.38
403.758	8.38
404.541	10.38
405.324	9.38
406.107	9.38
406.89	9.38
407.673	12.38
408.456	9.38
409.238	12.38
410.021	10.38
410.803	11.38
411.586	10.38
412.368	11.38
413.151	10.38
413.933	10.38
414.715	13.38
415.497	12.38
416.279	12.38
417.061	10.38
417.843	13.38
418.624	14.38
419.406	14.38
420.188	11.38
420.969	15.38
421.751	14.38
422.532	14.38
423.313	16.38
424.095	14.38
424.876	15.38
425.657	16.38
426.438	16.38
427.219	16.38
428	17.38
428.78	17.38
429.561	21.38
430.342	17.38
431.122	20.38
431.903	23.38
432.683	21.38
433.464	24.38
434.244	24.38
435.024	23.38
435.804	27.38
436.584	25.38
437.364	28.38
438.144	29.38
438.924	30.38
439.704	37.38
440.483	34.38
441.263	40.38
442.042	35.38
442.822	40.38
443.601	46.38
444.38	47.38
445.16	53.38
445.939	56.38
446.718	60.38
447.497	65.38
448.276	68.38
449.054	79.38
449.833	85.38
450.612	96.38
451.391	101.38
452.169	108.38
452.948	124.38
453.726	137.38
454.504	149.38
455.282	170.38
456.061	181.38
456.839	206.38
457.617	231.38
458.395	257.38
459.172	286.38
459.95	312.38
460.728	351.38
461.506	386.38
462.283	449.38
463.061	482.38
463.838	536.38
464.615	596.38
465.393	665.38
466.17	733.38
466.947	810.38
467.724	913.38
468.501	997.38
469.278	1107.38
470.055	1209.38
470.831	1359.38
471.608	1477.38
472.385	1636.38
473.161	1788.38
473.938	1982.38
474.714	2161.38
475.49	2357.38
476.266	2609.38
477.043	2870.38
477.819	3104.38
478.595	3402.38
479.371	3725.38
480.146	4064.38
480.922	4427.38
481.698	4830.38
482.473	5235.38
483.249	5746.38
484.024	6216.38
484.8	6800.38
485.575	7342.38
486.35	7950.38
487.126	8636.38
487.901	9377.38
488.676	10157.38
489.451	10990.38
490.225	11809.38
491	12824.38
491.775	13828.38
492.55	14784.38
493.324	15931.38
494.099	17014.38
494.873	18140.38
495.647	19341.38
496.422	20566.38
497.196	21776.38
497.97	23213.38
498.744	24446.38
499.518	25649.38
500.292	26872.38
501.066	27927.38
501.839	29036.38
502.613	30001.38
503.387	30766.38
504.16	31511.38
504.934	32062.38
505.707	32350.38
506.48	32457.38
507.253	32521.38
508.027	32450.38
508.8	32143.38
509.573	31797.38
510.346	31252.38
511.118	30656.38
511.891	29862.38
512.664	29056.38
513.437	28086.38
514.209	27121.38
514.982	26232.38
515.754	25197.38
516.526	24330.38
517.298	23347.38
518.071	22379.38
518.843	21484.38
519.615	20624.38
520.387	19752.38
521.159	19062.38
521.93	18349.38
522.702	17609.38
523.474	16889.38
524.245	16213.38
525.017	15565.38
525.788	14856.38
526.56	14211.38
527.331	13607.38
528.102	13044.38
528.873	12452.38
529.644	11836.38
530.415	11353.38
531.186	10853.38
531.957	10306.38
532.728	9769.38
533.498	9256.38
534.269	8773.38
535.039	8324.38
535.81	7894.38
536.58	7462.38
537.351	7078.38
538.121	6689.38
538.891	6300.38
539.661	5980.38
540.431	5704.38
541.201	5361.38
541.971	5083.38
542.741	4861.38
543.51	4628.38
544.28	4334.38
545.05	4128.38
545.819	3952.38
546.588	3752.38
547.358	3572.38
548.127	3399.38
548.896	3227.38
549.665	3045.38
550.434	2898.38
551.203	2744.38
551.972	2607.38
552.741	2463.38
553.51	2323.38
554.278	2197.38
555.047	2094.38
555.815	1980.38
556.584	1868.38
557.352	1772.38
558.121	1672.38
558.889	1580.38
559.657	1505.38
560.425	1416.38
561.193	1325.38
561.961	1259.38
562.729	1196.38
563.496	1133.38
564.264	1066.38
565.032	994.38
565.799	947.38
566.567	895.38
567.334	848.38
568.101	795.38
568.869	760.38
569.636	721.38
570.403	682.38
571.17	631.38
571.937	609.38
572.704	565.38
573.471	538.38
574.237	510.38
575.004	470.38
575.771	451.38
576.537	419.38
577.303	395.38
578.07	381.38
578.836	359.38
579.602	332.38
580.368	323.38
581.134	301.38
581.9	285.38
582.666	269.38
583.432	252.38
584.198	242.38
584.964	227.38
585.729	212.38
586.495	210.38
587.26	194.38
588.025	188.38
588.791	174.38
589.556	167.38
590.321	160.38
591.086	152.38
591.851	140.38
592.616	136.38
593.381	130.38
594.146	120.38
594.911	115.38
595.675	113.38
596.44	105.38
597.204	101.38
597.969	100.38
598.733	94.38
599.497	91.38
600.261	84.38
601.025	82.38
601.79	75.38
602.553	78.38
603.317	70.38
604.081	68.38
604.845	68.38
605.609	61.38
606.372	60.38
607.136	57.38
607.899	58.38
608.662	51.38
609.426	53.38
610.189	49.38
610.952	46.38
611.715	45.38
612.478	40.38
613.241	44.38
614.004	42.38
614.767	35.38
615.529	38.38
616.292	34.38
617.055	35.38
617.817	35.38
618.579	35.38
619.342	32.38
620.104	27.38
620.866	29.38
621.628	33.38
622.39	28.38
623.152	27.38
623.914	27.38
624.676	23.38
625.438	26.38
626.199	23.38
626.961	21.38
627.722	21.38
628.484	19.38
629.245	19.38
630.006	21.38
630.768	18.38
631.529	16.38
632.29	19.38
633.051	20.38
633.812	16.38
634.573	15.38
635.333	16.38
636.094	16.38
636.855	18.38
637.615	22.38
638.376	14.38
639.136	16.38
639.896	12.38
640.657	12.38
641.417	14.38
642.177	14.38
642.937	13.38
643.697	9.38
644.457	12.38
645.216	13.38
645.976	11.38
646.736	10.38
647.495	11.38
648.255	8.38
649.014	9.38
649.774	12.38
650.533	11.38
651.292	8.38
652.051	12.38
652.81	8.38
653.569	8.38
654.328	6.38
655.087	10.38
655.846	10.38
656.604	9.38
657.363	7.38
658.121	9.38
658.88	9.38
659.638	6.38
660.397	8.38
661.155	7.38
661.913	7.38
662.671	6.38
663.429	6.38
664.187	5.38
664.945	8.38
665.703	4.38
666.46	7.38
667.218	7.38
667.976	5.38
668.733	6.38
669.49	7.38
670.248	7.38
671.005	7.38
671.762	5.38
672.519	5.38
673.276	5.38
674.033	5.38
674.79	5.38
675.547	7.38
676.304	5.38
677.06	5.38
677.817	6.38
678.574	6.38
679.33	4.38
680.086	4.38
680.843	8.38
681.599	5.38
682.355	4.38
683.111	6.38
683.867	5.38
684.623	4.38
685.379	5.38
686.135	6.38
686.89	7.38
687.646	5.38
688.402	5.38
689.157	6.38
689.912	5.38
690.668	7.38
691.423	3.38
692.178	6.38
692.933	4.38
693.688	5.38
694.443	6.38
695.198	7.38
695.953	6.38
696.708	4.38
697.462	5.38
698.217	4.38
698.972	7.38
699.726	7.38
700.48	5.38
701.235	4.38
701.989	6.38
702.743	7.38
703.497	4.38
704.251	4.38
705.005	6.38
705.759	4.38
706.513	5.38
707.266	2.38
708.02	4.38
708.774	6.38
709.527	6.38
710.28	5.38
711.034	2.38
711.787	4.38
712.54	3.38
713.293	5.38
714.046	4.38
714.799	6.38
715.552	5.38
716.305	5.38
717.058	5.38
717.81	6.38
718.563	6.38
719.315	6.38
720.068	4.38
720.82	8.38
721.573	6.38
722.325	7.38
723.077	6.38
723.829	4.38
724.581	5.38
725.333	3.38
726.085	4.38
726.836	4.38
727.588	6.38
728.34	5.38
729.091	5.38
729.843	5.38
730.594	5.38
731.346	5.38
732.097	4.38
732.848	5.38
733.599	5.38
734.35	3.38
735.101	4.38
735.852	5.38
736.603	5.38
737.354	4.38
738.104	3.38
738.855	6.38
739.605	7.38
740.356	8.38
741.106	4.38
741.856	6.38
742.607	5.38
743.357	7.38
744.107	6.38
744.857	8.38
745.607	4.38
746.357	5.38
747.106	3.38
747.856	8.38
748.606	7.38
749.355	6.38
750.105	5.38
750.854	7.38
751.603	5.38
752.353	6.38
753.102	6.38
753.851	8.38
754.6	7.38
755.349	7.38
756.098	5.38
756.847	7.38
757.595	7.38
758.344	10.38
759.093	7.38
759.841	8.38
760.589	10.38
761.338	6.38
762.086	10.38
762.834	9.38
763.582	8.38
764.331	6.38
765.079	7.38
765.826	8.38
766.574	7.38
767.322	9.38
768.07	8.38
768.817	8.38
769.565	10.38
770.312	7.38
771.06	8.38
771.807	9.38
772.554	9.38
773.302	8.38
774.049	6.38
774.796	9.38
775.543	10.38
776.29	9.38
777.036	9.38
777.783	11.38
778.53	10.38
779.276	9.38
780.023	10.38
780.769	11.38
781.516	11.38
782.262	12.38
783.008	8.38
783.754	12.38
784.5	11.38
785.246	10.38
785.992	11.38
786.738	11.38
787.484	10.38
788.23	8.38
788.975	11.38
789.721	9.38
790.466	9.38
791.212	9.38
791.957	10.38
792.702	12.38
793.447	10.38
794.193	13.38
794.938	10.38
795.683	10.38
796.427	10.38
797.172	8.38
797.917	10.38
798.662	9.38
799.406	10.38
800.151	10.38
800.895	9.38
801.64	10.38
802.384	8.38
803.128	10.38
803.872	7.38
804.616	10.38
805.36	6.38
806.104	6.38
806.848	7.38
807.592	6.38
808.336	9.38
809.079	9.38
809.823	6.38
810.566	3.38
811.31	9.38
812.053	7.38
812.796	7.38
813.539	11.38
814.283	6.38
815.026	6.38
815.769	5.38
816.511	6.38
817.254	5.38
817.997	8.38
818.74	4.38
819.482	5.38
820.225	4.38
820.967	8.38
821.71	4.38
822.452	7.38
823.194	6.38
823.936	7.38
824.678	2.38
825.42	4.38
826.162	8.38
826.904	6.38
827.646	4.38
828.388	3.38
829.129	4.38
829.871	5.38
830.612	4.38
831.354	5.38
832.095	2.38
832.836	4.38
833.577	5.38
834.319	4.38
835.06	6.38
835.801	4.38
836.542	6.38
837.282	4.38
838.023	2.38
838.764	5.38
839.504	4.38
840.245	4.38
840.985	3.38
841.726	4.38
842.466	5.38
843.206	3.38
843.946	5.38
844.687	5.38
845.427	3.38
846.166	4.38
846.906	5.38
847.646	6.38
848.386	3.38
849.125	4.38
849.865	4.38
850.605	2.38
851.344	4.38
852.083	3.38
852.823	2.38
853.562	2.38
854.301	2.38
855.04	3.38
855.779	4.38
856.518	4.38
857.257	4.38
857.995	5.38
858.734	1.38
859.473	3.38
860.211	2.38
860.95	2.38
861.688	2.38
862.426	3.38
863.165	4.38
863.903	2.38
864.641	2.38
865.379	2.38
866.117	1.38
866.855	2.38
867.593	1.38
868.33	2.38
869.068	1.38
869.806	3.38
870.543	1.38
871.28	2.38
872.018	2.38
872.755	2.38
873.492	4.38
874.229	2.38
874.967	1.38
875.703	2.38
876.44	0.38
877.177	0.38
877.914	2.38
878.651	-0.62
879.387	3.38
880.124	-0.62
880.86	1.38
881.597	2.38
882.333	-0.62
883.069	-0.62
883.806	2.38
884.542	4.38
885.278	-0.62
886.014	4.38
886.749	0.38
887.485	-0.62
888.221	1.38
888.957	1.38
889.692	1.38
890.428	0.38
891.163	1.38
891.899	0.38
892.634	0.38
893.369	2.38
894.104	-1.62
894.839	2.38
895.574	1.38
896.309	1.38
897.044	3.38
897.779	2.38
898.514	1.38
899.248	1.38
899.983	2.38
900.717	1.38
901.452	1.38
902.186	0.38
902.92	0.38
903.654	0.38
904.389	2.38
905.123	0.38
905.857	1.38
906.59	-0.62
907.324	3.38
908.058	0.38
908.792	0.38
909.525	1.38
910.259	0.38
910.992	3.38
911.726	0.38
912.459	0.38
913.192	0.38
913.925	2.38
914.658	1.38
915.391	0.38
916.124	0.38
916.857	0.38
917.59	-0.62
918.323	1.38
919.055	0.38
919.788	1.38
920.521	-1.62
921.253	1.38
921.985	4.38
922.718	0.38
923.45	0.38
924.182	-1.62
924.914	0.38
925.646	-1.62
926.378	1.38
927.11	-0.62
927.841	1.38
928.573	1.38
929.305	-0.62
930.036	-1.62
930.768	1.38
931.499	-0.62
932.23	1.38
932.962	-0.62
933.693	1.38
934.424	0.38
935.155	-1.62
935.886	-1.62
936.617	0.38
937.348	1.38
938.078	-0.62
938.809	-1.62
939.54	0.38
940.27	0.38
941.001	-0.62
941.731	4.38
942.461	1.38
943.191	0.38
943.922	1.38
944.652	-0.62
945.382	0.38
946.112	1.38
946.841	0.38
947.571	-0.62
948.301	2.38
949.031	-0.62
949.76	-0.62
950.49	0.38
951.219	0.38
951.948	1.38
952.678	-0.62
953.407	2.38
954.136	0.38
954.865	1.38
955.594	0.38
956.323	0.38
957.052	2.38
957.78	-0.62
958.509	1.38
959.238	2.38
959.966	-1.62
960.695	0.38
961.423	0.38
962.151	-0.62
962.88	1.38
963.608	1.38
964.336	-1.62
965.064	1.38
965.792	1.38
966.52	-2.62
967.247	-1.62
967.975	-0.62
968.703	1.38
969.43	0.38
970.158	1.38
970.885	1.38
971.613	1.38
972.34	-1.62
973.067	-1.62
973.794	2.38
974.521	1.38
975.248	1.38
975.975	-1.62
976.702	-1.62
977.429	1.38
978.156	1.38
978.882	0.38
979.609	0.38
980.335	-1.62
981.062	2.38
981.788	1.38
982.514	2.38
983.24	0.38
983.967	0.38
984.693	-0.62
985.419	0.38
986.144	1.38
986.87	2.38
987.596	1.38
988.322	2.38
989.047	0.38
989.773	1.38
990.498	-0.62
991.224	1.38
991.949	1.38
992.674	-1.62
993.399	1.38
994.124	1.38
994.849	-0.62
995.574	1.38
996.299	0.38
997.024	2.38
997.749	0.38
998.473	-2.62
999.198	0.38
999.922	0.38
1000.647	1.38
1001.371	3.38
1002.095	-0.62
1002.82	0.38
1003.544	-1.62
1004.268	2.38
1004.992	3.38
1005.716	1.38
1006.439	3.38
1007.163	3.38
1007.887	3.38
1008.611	1.38
1009.334	2.38
1010.058	-1.62
1010.781	-0.62
1011.504	1.38
1012.228	-1.62
1012.951	-1.62
1013.674	-1.62
1014.397	1.38
1015.12	0.38
