节点500_425_QEPB04081__627__15-58-44-419.txt的数据

Date: Wed Nov 12 15:58:44 CST 2025
User: PC
Spectrometer: QEPB0408
触发模式: 0
积分时间 (秒): 1.000000E-2
Scans to average: 1
启用暗噪声校正: true
启用非线性校正: false
滑动平均宽度: 0
X轴模式: Wavelengths
Number of Pixels in Spectrum: 1044
>>>>>Begin Spectral Data<<<<<
220.843	2.88
221.644	2.88
222.444	2.88
223.244	4.88
224.045	4.88
224.845	4.88
225.645	4.88
226.445	3.88
227.245	5.88
228.045	4.88
228.845	3.88
229.645	3.88
230.444	3.88
231.244	4.88
232.043	5.88
232.843	6.88
233.642	7.88
234.442	5.88
235.241	5.88
236.04	4.88
236.839	2.88
237.638	4.88
238.437	4.88
239.236	4.88
240.035	5.88
240.833	6.88
241.632	8.88
242.43	5.88
243.229	6.88
244.027	6.88
244.826	7.88
245.624	7.88
246.422	9.88
247.22	5.88
248.018	10.88
248.816	8.88
249.614	8.88
250.412	8.88
251.21	10.88
252.007	7.88
252.805	11.88
253.602	8.88
254.4	8.88
255.197	9.88
255.994	9.88
256.791	9.88
257.589	11.88
258.386	9.88
259.183	12.88
259.979	13.88
260.776	10.88
261.573	11.88
262.37	12.88
263.166	16.88
263.963	15.88
264.759	14.88
265.556	15.88
266.352	17.88
267.148	13.88
267.944	17.88
268.74	19.88
269.536	14.88
270.332	16.88
271.128	19.88
271.924	20.88
272.719	20.88
273.515	19.88
274.311	23.88
275.106	20.88
275.901	19.88
276.697	23.88
277.492	20.88
278.287	22.88
279.082	21.88
279.877	22.88
280.672	24.88
281.467	21.88
282.262	24.88
283.056	21.88
283.851	21.88
284.646	23.88
285.44	22.88
286.234	23.88
287.029	23.88
287.823	22.88
288.617	22.88
289.411	20.88
290.205	20.88
290.999	23.88
291.793	21.88
292.587	21.88
293.381	21.88
294.174	20.88
294.968	19.88
295.761	19.88
296.555	18.88
297.348	18.88
298.141	18.88
298.935	19.88
299.728	18.88
300.521	17.88
301.314	19.88
302.107	18.88
302.899	16.88
303.692	17.88
304.485	13.88
305.277	17.88
306.07	15.88
306.862	16.88
307.655	16.88
308.447	15.88
309.239	13.88
310.031	13.88
310.823	16.88
311.615	14.88
312.407	12.88
313.199	13.88
313.991	12.88
314.783	13.88
315.574	9.88
316.366	13.88
317.157	11.88
317.949	11.88
318.74	10.88
319.531	9.88
320.322	10.88
321.113	9.88
321.904	10.88
322.695	9.88
323.486	11.88
324.277	12.88
325.068	9.88
325.858	9.88
326.649	9.88
327.439	8.88
328.23	9.88
329.02	6.88
329.81	9.88
330.6	10.88
331.391	9.88
332.181	8.88
332.971	9.88
333.76	9.88
334.55	6.88
335.34	8.88
336.13	9.88
336.919	6.88
337.709	12.88
338.498	10.88
339.287	6.88
340.077	8.88
340.866	9.88
341.655	6.88
342.444	9.88
343.233	7.88
344.022	6.88
344.811	8.88
345.6	10.88
346.388	5.88
347.177	8.88
347.965	8.88
348.754	7.88
349.542	8.88
350.33	7.88
351.119	5.88
351.907	7.88
352.695	7.88
353.483	7.88
354.271	7.88
355.059	8.88
355.846	5.88
356.634	7.88
357.422	4.88
358.209	6.88
358.997	8.88
359.784	7.88
360.571	4.88
361.359	5.88
362.146	8.88
362.933	7.88
363.72	7.88
364.507	9.88
365.294	5.88
366.081	7.88
366.867	7.88
367.654	6.88
368.44	3.88
369.227	6.88
370.013	6.88
370.8	7.88
371.586	6.88
372.372	7.88
373.158	8.88
373.944	5.88
374.73	4.88
375.516	6.88
376.302	6.88
377.088	7.88
377.873	8.88
378.659	8.88
379.445	6.88
380.23	7.88
381.015	8.88
381.801	5.88
382.586	9.88
383.371	5.88
384.156	7.88
384.941	7.88
385.726	6.88
386.511	7.88
387.296	9.88
388.08	7.88
388.865	6.88
389.649	7.88
390.434	7.88
391.218	9.88
392.003	5.88
392.787	8.88
393.571	6.88
394.355	7.88
395.139	9.88
395.923	6.88
396.707	7.88
397.491	6.88
398.274	9.88
399.058	9.88
399.842	10.88
400.625	8.88
401.408	8.88
402.192	7.88
402.975	9.88
403.758	7.88
404.541	6.88
405.324	8.88
406.107	10.88
406.89	10.88
407.673	9.88
408.456	11.88
409.238	10.88
410.021	10.88
410.803	7.88
411.586	12.88
412.368	11.88
413.151	11.88
413.933	10.88
414.715	14.88
415.497	15.88
416.279	13.88
417.061	12.88
417.843	13.88
418.624	12.88
419.406	11.88
420.188	11.88
420.969	13.88
421.751	12.88
422.532	15.88
423.313	13.88
424.095	13.88
424.876	16.88
425.657	15.88
426.438	17.88
427.219	13.88
428	16.88
428.78	15.88
429.561	18.88
430.342	21.88
431.122	21.88
431.903	21.88
432.683	23.88
433.464	23.88
434.244	23.88
435.024	23.88
435.804	22.88
436.584	25.88
437.364	27.88
438.144	32.88
438.924	30.88
439.704	33.88
440.483	35.88
441.263	36.88
442.042	37.88
442.822	44.88
443.601	46.88
444.38	47.88
445.16	52.88
445.939	54.88
446.718	61.88
447.497	62.88
448.276	68.88
449.054	80.88
449.833	83.88
450.612	94.88
451.391	101.88
452.169	114.88
452.948	124.88
453.726	132.88
454.504	153.88
455.282	171.88
456.061	185.88
456.839	206.88
457.617	228.88
458.395	255.88
459.172	286.88
459.95	316.88
460.728	349.88
461.506	395.88
462.283	436.88
463.061	487.88
463.838	551.88
464.615	593.88
465.393	666.88
466.17	725.88
466.947	805.88
467.724	906.88
468.501	996.88
469.278	1098.88
470.055	1216.88
470.831	1340.88
471.608	1486.88
472.385	1633.88
473.161	1797.88
473.938	1955.88
474.714	2162.88
475.49	2363.88
476.266	2589.88
477.043	2856.88
477.819	3121.88
478.595	3409.88
479.371	3724.88
480.146	4059.88
480.922	4416.88
481.698	4828.88
482.473	5278.88
483.249	5728.88
484.024	6233.88
484.8	6771.88
485.575	7317.88
486.35	7948.88
487.126	8615.88
487.901	9327.88
488.676	10107.88
489.451	10897.88
490.225	11777.88
491	12739.88
491.775	13718.88
492.55	14739.88
493.324	15863.88
494.099	16910.88
494.873	18068.88
495.647	19248.88
496.422	20445.88
497.196	21708.88
497.97	23028.88
498.744	24281.88
499.518	25560.88
500.292	26770.88
501.066	27717.88
501.839	28927.88
502.613	29859.88
503.387	30667.88
504.16	31413.88
504.934	31963.88
505.707	32259.88
506.48	32369.88
507.253	32387.88
508.027	32325.88
508.8	32119.88
509.573	31690.88
510.346	31241.88
511.118	30552.88
511.891	29829.88
512.664	28921.88
513.437	28021.88
514.209	27068.88
514.982	26191.88
515.754	25224.88
516.526	24234.88
517.298	23275.88
518.071	22395.88
518.843	21492.88
519.615	20623.88
520.387	19817.88
521.159	19082.88
521.93	18344.88
522.702	17608.88
523.474	16944.88
524.245	16293.88
525.017	15552.88
525.788	14830.88
526.56	14247.88
527.331	13633.88
528.102	13026.88
528.873	12460.88
529.644	11892.88
530.415	11387.88
531.186	10874.88
531.957	10321.88
532.728	9818.88
533.498	9302.88
534.269	8822.88
535.039	8352.88
535.81	7914.88
536.58	7460.88
537.351	7063.88
538.121	6689.88
538.891	6344.88
539.661	5986.88
540.431	5697.88
541.201	5371.88
541.971	5117.88
542.741	4826.88
543.51	4609.88
544.28	4374.88
545.05	4137.88
545.819	3980.88
546.588	3746.88
547.358	3559.88
548.127	3391.88
548.896	3239.88
549.665	3062.88
550.434	2908.88
551.203	2781.88
551.972	2600.88
552.741	2462.88
553.51	2343.88
554.278	2204.88
555.047	2097.88
555.815	1972.88
556.584	1875.88
557.352	1767.88
558.121	1666.88
558.889	1578.88
559.657	1500.88
560.425	1414.88
561.193	1333.88
561.961	1258.88
562.729	1199.88
563.496	1130.88
564.264	1075.88
565.032	1018.88
565.799	960.88
566.567	906.88
567.334	859.88
568.101	803.88
568.869	747.88
569.636	725.88
570.403	670.88
571.17	639.88
571.937	591.88
572.704	569.88
573.471	545.88
574.237	506.88
575.004	484.88
575.771	441.88
576.537	419.88
577.303	401.88
578.07	376.88
578.836	354.88
579.602	332.88
580.368	321.88
581.134	304.88
581.9	285.88
582.666	274.88
583.432	258.88
584.198	244.88
584.964	229.88
585.729	220.88
586.495	213.88
587.26	195.88
588.025	187.88
588.791	174.88
589.556	176.88
590.321	164.88
591.086	154.88
591.851	142.88
592.616	133.88
593.381	128.88
594.146	124.88
594.911	118.88
595.675	113.88
596.44	113.88
597.204	105.88
597.969	94.88
598.733	92.88
599.497	87.88
600.261	86.88
601.025	83.88
601.79	76.88
602.553	74.88
603.317	73.88
604.081	70.88
604.845	65.88
605.609	61.88
606.372	58.88
607.136	58.88
607.899	56.88
608.662	55.88
609.426	50.88
610.189	49.88
610.952	49.88
611.715	46.88
612.478	44.88
613.241	44.88
614.004	39.88
614.767	38.88
615.529	40.88
616.292	37.88
617.055	33.88
617.817	34.88
618.579	28.88
619.342	33.88
620.104	30.88
620.866	28.88
621.628	28.88
622.39	26.88
623.152	28.88
623.914	25.88
624.676	24.88
625.438	24.88
626.199	25.88
626.961	21.88
627.722	22.88
628.484	21.88
629.245	18.88
630.006	22.88
630.768	19.88
631.529	20.88
632.29	20.88
633.051	17.88
633.812	17.88
634.573	17.88
635.333	17.88
636.094	16.88
636.855	16.88
637.615	15.88
638.376	13.88
639.136	15.88
639.896	14.88
640.657	15.88
641.417	13.88
642.177	11.88
642.937	10.88
643.697	12.88
644.457	10.88
645.216	10.88
645.976	12.88
646.736	14.88
647.495	9.88
648.255	9.88
649.014	9.88
649.774	8.88
650.533	10.88
651.292	9.88
652.051	10.88
652.81	8.88
653.569	12.88
654.328	8.88
655.087	9.88
655.846	9.88
656.604	7.88
657.363	7.88
658.121	8.88
658.88	8.88
659.638	9.88
660.397	7.88
661.155	10.88
661.913	6.88
662.671	7.88
663.429	4.88
664.187	6.88
664.945	5.88
665.703	5.88
666.46	6.88
667.218	6.88
667.976	8.88
668.733	6.88
669.49	6.88
670.248	6.88
671.005	5.88
671.762	6.88
672.519	7.88
673.276	5.88
674.033	7.88
674.79	6.88
675.547	4.88
676.304	8.88
677.06	5.88
677.817	5.88
678.574	6.88
679.33	5.88
680.086	5.88
680.843	7.88
681.599	5.88
682.355	5.88
683.111	4.88
683.867	5.88
684.623	6.88
685.379	4.88
686.135	5.88
686.89	6.88
687.646	5.88
688.402	5.88
689.157	5.88
689.912	5.88
690.668	4.88
691.423	6.88
692.178	3.88
692.933	3.88
693.688	6.88
694.443	6.88
695.198	4.88
695.953	5.88
696.708	2.88
697.462	4.88
698.217	2.88
698.972	6.88
699.726	4.88
700.48	4.88
701.235	4.88
701.989	4.88
702.743	6.88
703.497	5.88
704.251	5.88
705.005	6.88
705.759	6.88
706.513	4.88
707.266	4.88
708.02	6.88
708.774	3.88
709.527	7.88
710.28	3.88
711.034	3.88
711.787	4.88
712.54	3.88
713.293	4.88
714.046	5.88
714.799	4.88
715.552	4.88
716.305	7.88
717.058	6.88
717.81	5.88
718.563	4.88
719.315	4.88
720.068	4.88
720.82	4.88
721.573	5.88
722.325	7.88
723.077	7.88
723.829	3.88
724.581	4.88
725.333	3.88
726.085	6.88
726.836	5.88
727.588	6.88
728.34	4.88
729.091	5.88
729.843	3.88
730.594	4.88
731.346	7.88
732.097	5.88
732.848	4.88
733.599	6.88
734.35	6.88
735.101	9.88
735.852	6.88
736.603	5.88
737.354	4.88
738.104	4.88
738.855	7.88
739.605	6.88
740.356	7.88
741.106	7.88
741.856	4.88
742.607	5.88
743.357	6.88
744.107	6.88
744.857	5.88
745.607	6.88
746.357	6.88
747.106	7.88
747.856	5.88
748.606	8.88
749.355	5.88
750.105	7.88
750.854	4.88
751.603	7.88
752.353	6.88
753.102	8.88
753.851	7.88
754.6	5.88
755.349	4.88
756.098	4.88
756.847	6.88
757.595	7.88
758.344	5.88
759.093	6.88
759.841	8.88
760.589	8.88
761.338	6.88
762.086	6.88
762.834	8.88
763.582	7.88
764.331	7.88
765.079	5.88
765.826	10.88
766.574	8.88
767.322	8.88
768.07	10.88
768.817	6.88
769.565	9.88
770.312	9.88
771.06	10.88
771.807	7.88
772.554	10.88
773.302	9.88
774.049	8.88
774.796	13.88
775.543	9.88
776.29	12.88
777.036	9.88
777.783	10.88
778.53	7.88
779.276	10.88
780.023	8.88
780.769	11.88
781.516	13.88
782.262	13.88
783.008	9.88
783.754	10.88
784.5	8.88
785.246	10.88
785.992	10.88
786.738	10.88
787.484	10.88
788.23	9.88
788.975	11.88
789.721	12.88
790.466	10.88
791.212	10.88
791.957	12.88
792.702	10.88
793.447	10.88
794.193	8.88
794.938	11.88
795.683	8.88
796.427	8.88
797.172	8.88
797.917	7.88
798.662	7.88
799.406	8.88
800.151	8.88
800.895	9.88
801.64	9.88
802.384	9.88
803.128	8.88
803.872	13.88
804.616	8.88
805.36	7.88
806.104	7.88
806.848	9.88
807.592	6.88
808.336	7.88
809.079	7.88
809.823	7.88
810.566	8.88
811.31	8.88
812.053	7.88
812.796	7.88
813.539	6.88
814.283	4.88
815.026	7.88
815.769	6.88
816.511	7.88
817.254	5.88
817.997	7.88
818.74	5.88
819.482	6.88
820.225	5.88
820.967	8.88
821.71	6.88
822.452	4.88
823.194	6.88
823.936	5.88
824.678	7.88
825.42	7.88
826.162	6.88
826.904	2.88
827.646	2.88
828.388	5.88
829.129	2.88
829.871	6.88
830.612	4.88
831.354	2.88
832.095	3.88
832.836	4.88
833.577	4.88
834.319	2.88
835.06	2.88
835.801	6.88
836.542	2.88
837.282	5.88
838.023	4.88
838.764	4.88
839.504	3.88
840.245	3.88
840.985	3.88
841.726	1.88
842.466	7.88
843.206	5.88
843.946	3.88
844.687	3.88
845.427	1.88
846.166	4.88
846.906	4.88
847.646	3.88
848.386	6.88
849.125	3.88
849.865	3.88
850.605	2.88
851.344	1.88
852.083	4.88
852.823	2.88
853.562	4.88
854.301	2.88
855.04	4.88
855.779	2.88
856.518	3.88
857.257	4.88
857.995	0.88
858.734	2.88
859.473	0.88
860.211	2.88
860.95	3.88
861.688	3.88
862.426	1.88
863.165	2.88
863.903	0.88
864.641	3.88
865.379	1.88
866.117	2.88
866.855	1.88
867.593	5.88
868.33	1.88
869.068	2.88
869.806	-0.12
870.543	3.88
871.28	2.88
872.018	1.88
872.755	2.88
873.492	0.88
874.229	3.88
874.967	2.88
875.703	2.88
876.44	2.88
877.177	2.88
877.914	2.88
878.651	1.88
879.387	3.88
880.124	1.88
880.86	1.88
881.597	4.88
882.333	0.88
883.069	0.88
883.806	2.88
884.542	-1.12
885.278	0.88
886.014	-1.12
886.749	0.88
887.485	2.88
888.221	0.88
888.957	1.88
889.692	1.88
890.428	1.88
891.163	0.88
891.899	0.88
892.634	2.88
893.369	2.88
894.104	0.88
894.839	0.88
895.574	3.88
896.309	1.88
897.044	-0.12
897.779	2.88
898.514	0.88
899.248	2.88
899.983	-1.12
900.717	2.88
901.452	0.88
902.186	2.88
902.92	1.88
903.654	-0.12
904.389	3.88
905.123	0.88
905.857	-0.12
906.59	-0.12
907.324	0.88
908.058	1.88
908.792	3.88
909.525	2.88
910.259	-0.12
910.992	0.88
911.726	1.88
912.459	-0.12
913.192	0.88
913.925	-0.12
914.658	0.88
915.391	-1.12
916.124	1.88
916.857	0.88
917.59	-1.12
918.323	1.88
919.055	-0.12
919.788	2.88
920.521	1.88
921.253	0.88
921.985	0.88
922.718	1.88
923.45	2.88
924.182	-1.12
924.914	1.88
925.646	0.88
926.378	0.88
927.11	-0.12
927.841	-1.12
928.573	0.88
929.305	-1.12
930.036	-1.12
930.768	3.88
931.499	-0.12
932.23	0.88
932.962	-1.12
933.693	-1.12
934.424	1.88
935.155	-0.12
935.886	-0.12
936.617	-0.12
937.348	0.88
938.078	0.88
938.809	-1.12
939.54	0.88
940.27	0.88
941.001	-1.12
941.731	-0.12
942.461	0.88
943.191	-0.12
943.922	-0.12
944.652	0.88
945.382	0.88
946.112	0.88
946.841	1.88
947.571	-0.12
948.301	1.88
949.031	-1.12
949.76	-0.12
950.49	-2.12
951.219	0.88
951.948	-0.12
952.678	-1.12
953.407	0.88
954.136	-1.12
954.865	0.88
955.594	0.88
956.323	-0.12
957.052	-0.12
957.78	0.88
958.509	2.88
959.238	0.88
959.966	0.88
960.695	0.88
961.423	0.88
962.151	1.88
962.88	-0.12
963.608	0.88
964.336	0.88
965.064	0.88
965.792	0.88
966.52	0.88
967.247	1.88
967.975	-0.12
968.703	1.88
969.43	-0.12
970.158	-1.12
970.885	1.88
971.613	-0.12
972.34	-0.12
973.067	0.88
973.794	-0.12
974.521	0.88
975.248	-0.12
975.975	0.88
976.702	-0.12
977.429	1.88
978.156	0.88
978.882	1.88
979.609	1.88
980.335	-1.12
981.062	2.88
981.788	-1.12
982.514	-0.12
983.24	0.88
983.967	0.88
984.693	3.88
985.419	0.88
986.144	0.88
986.87	-0.12
987.596	2.88
988.322	-1.12
989.047	-1.12
989.773	0.88
990.498	-0.12
991.224	-0.12
991.949	2.88
992.674	0.88
993.399	2.88
994.124	-0.12
994.849	0.88
995.574	0.88
996.299	0.88
997.024	0.88
997.749	-0.12
998.473	-1.12
999.198	-1.12
999.922	-1.12
1000.647	1.88
1001.371	3.88
1002.095	-0.12
1002.82	-1.12
1003.544	-1.12
1004.268	4.88
1004.992	0.88
1005.716	2.88
1006.439	3.88
1007.163	4.88
1007.887	4.88
1008.611	-1.12
1009.334	1.88
1010.058	-1.12
1010.781	2.88
1011.504	0.88
1012.228	0.88
1012.951	-1.12
1013.674	-1.12
1014.397	0.88
1015.12	-0.12
