节点500_425_QEPB04081__1__15-48-22-516.txt的数据

Date: Wed Nov 12 15:48:22 CST 2025
User: PC
Spectrometer: QEPB0408
触发模式: 0
积分时间 (秒): 1.000000E-2
Scans to average: 1
启用暗噪声校正: true
启用非线性校正: false
滑动平均宽度: 0
X轴模式: Wavelengths
Number of Pixels in Spectrum: 1044
>>>>>Begin Spectral Data<<<<<
220.843	0.88
221.644	-0.12
222.444	-1.12
223.244	0.88
224.045	-4.12
224.845	-2.12
225.645	-1.12
226.445	-1.12
227.245	0.88
228.045	-2.12
228.845	-1.12
229.645	-2.12
230.444	-1.12
231.244	-0.12
232.043	-2.12
232.843	0.88
233.642	-1.12
234.442	-0.12
235.241	-3.12
236.04	0.88
236.839	-3.12
237.638	-1.12
238.437	-3.12
239.236	-1.12
240.035	-0.12
240.833	-2.12
241.632	0.88
242.43	-3.12
243.229	-1.12
244.027	0.88
244.826	-2.12
245.624	-0.12
246.422	-3.12
247.22	-0.12
248.018	1.88
248.816	-1.12
249.614	-1.12
250.412	-2.12
251.21	-0.12
252.007	-1.12
252.805	0.88
253.602	-1.12
254.4	-3.12
255.197	-1.12
255.994	-2.12
256.791	0.88
257.589	-1.12
258.386	-3.12
259.183	-1.12
259.979	-1.12
260.776	-0.12
261.573	-1.12
262.37	-0.12
263.166	0.88
263.963	-1.12
264.759	-1.12
265.556	-0.12
266.352	0.88
267.148	-1.12
267.944	-0.12
268.74	-1.12
269.536	-2.12
270.332	0.88
271.128	-1.12
271.924	-0.12
272.719	-3.12
273.515	0.88
274.311	-1.12
275.106	-2.12
275.901	-1.12
276.697	0.88
277.492	1.88
278.287	1.88
279.082	-2.12
279.877	0.88
280.672	-0.12
281.467	-1.12
282.262	-0.12
283.056	-2.12
283.851	-0.12
284.646	-0.12
285.44	-0.12
286.234	-0.12
287.029	-1.12
287.823	-1.12
288.617	1.88
289.411	0.88
290.205	-3.12
290.999	-2.12
291.793	1.88
292.587	-1.12
293.381	-0.12
294.174	-2.12
294.968	-0.12
295.761	-1.12
296.555	1.88
297.348	0.88
298.141	-3.12
298.935	-1.12
299.728	0.88
300.521	-3.12
301.314	-3.12
302.107	-0.12
302.899	1.88
303.692	0.88
304.485	0.88
305.277	-1.12
306.07	1.88
306.862	-1.12
307.655	-2.12
308.447	-2.12
309.239	-1.12
310.031	-0.12
310.823	-1.12
311.615	0.88
312.407	-0.12
313.199	0.88
313.991	-0.12
314.783	-0.12
315.574	-0.12
316.366	0.88
317.157	-0.12
317.949	-1.12
318.74	-0.12
319.531	-0.12
320.322	-0.12
321.113	-1.12
321.904	-2.12
322.695	1.88
323.486	-0.12
324.277	0.88
325.068	0.88
325.858	0.88
326.649	-0.12
327.439	-0.12
328.23	-0.12
329.02	-0.12
329.81	-0.12
330.6	-0.12
331.391	-0.12
332.181	0.88
332.971	-0.12
333.76	-1.12
334.55	1.88
335.34	0.88
336.13	-0.12
336.919	-0.12
337.709	-0.12
338.498	-1.12
339.287	-1.12
340.077	-1.12
340.866	1.88
341.655	-0.12
342.444	-1.12
343.233	-1.12
344.022	-0.12
344.811	-1.12
345.6	0.88
346.388	1.88
347.177	-1.12
347.965	0.88
348.754	-0.12
349.542	-0.12
350.33	0.88
351.119	-2.12
351.907	1.88
352.695	0.88
353.483	1.88
354.271	-0.12
355.059	-0.12
355.846	-1.12
356.634	-1.12
357.422	-1.12
358.209	-1.12
358.997	1.88
359.784	-0.12
360.571	0.88
361.359	-0.12
362.146	-1.12
362.933	1.88
363.72	-2.12
364.507	0.88
365.294	0.88
366.081	-1.12
366.867	-0.12
367.654	-1.12
368.44	-0.12
369.227	-0.12
370.013	1.88
370.8	1.88
371.586	-0.12
372.372	0.88
373.158	-1.12
373.944	0.88
374.73	1.88
375.516	0.88
376.302	-0.12
377.088	-0.12
377.873	0.88
378.659	3.88
379.445	1.88
380.23	0.88
381.015	-1.12
381.801	0.88
382.586	-3.12
383.371	-1.12
384.156	1.88
384.941	-2.12
385.726	-0.12
386.511	-1.12
387.296	0.88
388.08	-1.12
388.865	-2.12
389.649	-1.12
390.434	-2.12
391.218	0.88
392.003	-1.12
392.787	-0.12
393.571	-1.12
394.355	-3.12
395.139	-1.12
395.923	-0.12
396.707	0.88
397.491	-1.12
398.274	2.88
399.058	-0.12
399.842	1.88
400.625	-1.12
401.408	-1.12
402.192	1.88
402.975	-1.12
403.758	-1.12
404.541	-1.12
405.324	-1.12
406.107	-0.12
406.89	0.88
407.673	-2.12
408.456	0.88
409.238	-2.12
410.021	-0.12
410.803	0.88
411.586	0.88
412.368	-0.12
413.151	-0.12
413.933	-0.12
414.715	-1.12
415.497	0.88
416.279	-1.12
417.061	-0.12
417.843	0.88
418.624	-2.12
419.406	1.88
420.188	-1.12
420.969	2.88
421.751	0.88
422.532	-1.12
423.313	0.88
424.095	-0.12
424.876	1.88
425.657	1.88
426.438	-1.12
427.219	1.88
428	-1.12
428.78	0.88
429.561	0.88
430.342	-0.12
431.122	0.88
431.903	-0.12
432.683	-1.12
433.464	0.88
434.244	-0.12
435.024	-0.12
435.804	1.88
436.584	-0.12
437.364	-1.12
438.144	1.88
438.924	0.88
439.704	0.88
440.483	0.88
441.263	-0.12
442.042	0.88
442.822	0.88
443.601	1.88
444.38	1.88
445.16	-3.12
445.939	1.88
446.718	0.88
447.497	0.88
448.276	-1.12
449.054	-0.12
449.833	0.88
450.612	-0.12
451.391	-0.12
452.169	0.88
452.948	0.88
453.726	0.88
454.504	-0.12
455.282	-0.12
456.061	-1.12
456.839	1.88
457.617	-0.12
458.395	1.88
459.172	0.88
459.95	0.88
460.728	0.88
461.506	-0.12
462.283	-0.12
463.061	-2.12
463.838	-0.12
464.615	-1.12
465.393	-2.12
466.17	0.88
466.947	-1.12
467.724	1.88
468.501	0.88
469.278	0.88
470.055	-0.12
470.831	0.88
471.608	1.88
472.385	-1.12
473.161	1.88
473.938	0.88
474.714	-2.12
475.49	1.88
476.266	0.88
477.043	-0.12
477.819	-2.12
478.595	1.88
479.371	0.88
480.146	-1.12
480.922	-1.12
481.698	-1.12
482.473	0.88
483.249	-0.12
484.024	0.88
484.8	0.88
485.575	1.88
486.35	-0.12
487.126	-1.12
487.901	-0.12
488.676	1.88
489.451	-1.12
490.225	-2.12
491	0.88
491.775	1.88
492.55	-0.12
493.324	-0.12
494.099	0.88
494.873	-1.12
495.647	0.88
496.422	0.88
497.196	-0.12
497.97	0.88
498.744	0.88
499.518	-0.12
500.292	0.88
501.066	-1.12
501.839	-0.12
502.613	0.88
503.387	0.88
504.16	0.88
504.934	-1.12
505.707	-0.12
506.48	0.88
507.253	-1.12
508.027	-1.12
508.8	0.88
509.573	0.88
510.346	2.88
511.118	-1.12
511.891	1.88
512.664	0.88
513.437	0.88
514.209	0.88
514.982	-0.12
515.754	0.88
516.526	1.88
517.298	2.88
518.071	-0.12
518.843	-0.12
519.615	0.88
520.387	-0.12
521.159	0.88
521.93	0.88
522.702	0.88
523.474	-3.12
524.245	0.88
525.017	-0.12
525.788	0.88
526.56	0.88
527.331	-0.12
528.102	-1.12
528.873	1.88
529.644	0.88
530.415	1.88
531.186	1.88
531.957	-0.12
532.728	0.88
533.498	-0.12
534.269	-0.12
535.039	-1.12
535.81	0.88
536.58	-1.12
537.351	-1.12
538.121	1.88
538.891	-1.12
539.661	-0.12
540.431	-1.12
541.201	-0.12
541.971	0.88
542.741	-2.12
543.51	-1.12
544.28	-1.12
545.05	1.88
545.819	0.88
546.588	0.88
547.358	0.88
548.127	-0.12
548.896	-2.12
549.665	-0.12
550.434	-0.12
551.203	0.88
551.972	-1.12
552.741	-1.12
553.51	-0.12
554.278	-0.12
555.047	-0.12
555.815	-1.12
556.584	-0.12
557.352	0.88
558.121	-1.12
558.889	1.88
559.657	-2.12
560.425	1.88
561.193	-1.12
561.961	0.88
562.729	-1.12
563.496	0.88
564.264	-2.12
565.032	-1.12
565.799	-0.12
566.567	-2.12
567.334	0.88
568.101	1.88
568.869	0.88
569.636	-0.12
570.403	0.88
571.17	-1.12
571.937	-0.12
572.704	0.88
573.471	0.88
574.237	1.88
575.004	0.88
575.771	-0.12
576.537	-0.12
577.303	-1.12
578.07	-1.12
578.836	-0.12
579.602	1.88
580.368	0.88
581.134	-2.12
581.9	0.88
582.666	-0.12
583.432	-0.12
584.198	0.88
584.964	0.88
585.729	0.88
586.495	-1.12
587.26	1.88
588.025	1.88
588.791	1.88
589.556	0.88
590.321	0.88
591.086	-0.12
591.851	-0.12
592.616	0.88
593.381	1.88
594.146	-1.12
594.911	-0.12
595.675	-0.12
596.44	0.88
597.204	-0.12
597.969	0.88
598.733	0.88
599.497	-2.12
600.261	1.88
601.025	-1.12
601.79	-1.12
602.553	-1.12
603.317	0.88
604.081	-1.12
604.845	0.88
605.609	2.88
606.372	-0.12
607.136	0.88
607.899	-0.12
608.662	0.88
609.426	0.88
610.189	0.88
610.952	-1.12
611.715	-1.12
612.478	-1.12
613.241	-0.12
614.004	-1.12
614.767	-1.12
615.529	0.88
616.292	0.88
617.055	-1.12
617.817	-2.12
618.579	1.88
619.342	-0.12
620.104	0.88
620.866	-0.12
621.628	2.88
622.39	0.88
623.152	-1.12
623.914	1.88
624.676	-1.12
625.438	-0.12
626.199	2.88
626.961	1.88
627.722	1.88
628.484	-1.12
629.245	-0.12
630.006	0.88
630.768	0.88
631.529	-0.12
632.29	0.88
633.051	0.88
633.812	-1.12
634.573	1.88
635.333	0.88
636.094	0.88
636.855	3.88
637.615	-0.12
638.376	1.88
639.136	0.88
639.896	-0.12
640.657	-2.12
641.417	0.88
642.177	0.88
642.937	-1.12
643.697	-1.12
644.457	-0.12
645.216	-1.12
645.976	0.88
646.736	1.88
647.495	-1.12
648.255	1.88
649.014	0.88
649.774	0.88
650.533	-0.12
651.292	-0.12
652.051	-1.12
652.81	1.88
653.569	-0.12
654.328	-2.12
655.087	0.88
655.846	-1.12
656.604	0.88
657.363	1.88
658.121	-0.12
658.88	0.88
659.638	-2.12
660.397	-0.12
661.155	-1.12
661.913	1.88
662.671	-2.12
663.429	0.88
664.187	-0.12
664.945	-0.12
665.703	0.88
666.46	-0.12
667.218	-1.12
667.976	-1.12
668.733	-0.12
669.49	-1.12
670.248	-2.12
671.005	2.88
671.762	-0.12
672.519	0.88
673.276	-1.12
674.033	-1.12
674.79	0.88
675.547	-1.12
676.304	1.88
677.06	-0.12
677.817	-0.12
678.574	0.88
679.33	-1.12
680.086	0.88
680.843	-1.12
681.599	0.88
682.355	1.88
683.111	-1.12
683.867	-0.12
684.623	-0.12
685.379	-1.12
686.135	-2.12
686.89	1.88
687.646	-0.12
688.402	-2.12
689.157	-0.12
689.912	0.88
690.668	0.88
691.423	0.88
692.178	-0.12
692.933	2.88
693.688	-0.12
694.443	0.88
695.198	-1.12
695.953	-1.12
696.708	-1.12
697.462	-0.12
698.217	-0.12
698.972	1.88
699.726	0.88
700.48	0.88
701.235	-0.12
701.989	-0.12
702.743	0.88
703.497	0.88
704.251	1.88
705.005	-0.12
705.759	-0.12
706.513	-0.12
707.266	0.88
708.02	-1.12
708.774	1.88
709.527	-0.12
710.28	-1.12
711.034	0.88
711.787	0.88
712.54	2.88
713.293	0.88
714.046	0.88
714.799	-3.12
715.552	0.88
716.305	-0.12
717.058	0.88
717.81	-0.12
718.563	0.88
719.315	0.88
720.068	1.88
720.82	-3.12
721.573	1.88
722.325	-1.12
723.077	-0.12
723.829	1.88
724.581	-1.12
725.333	0.88
726.085	-0.12
726.836	0.88
727.588	0.88
728.34	-0.12
729.091	-1.12
729.843	-1.12
730.594	2.88
731.346	1.88
732.097	0.88
732.848	-0.12
733.599	-0.12
734.35	0.88
735.101	1.88
735.852	-0.12
736.603	-1.12
737.354	0.88
738.104	1.88
738.855	-1.12
739.605	-0.12
740.356	1.88
741.106	0.88
741.856	-1.12
742.607	0.88
743.357	0.88
744.107	0.88
744.857	1.88
745.607	2.88
746.357	1.88
747.106	-0.12
747.856	-1.12
748.606	-0.12
749.355	0.88
750.105	1.88
750.854	-1.12
751.603	-0.12
752.353	1.88
753.102	0.88
753.851	-0.12
754.6	-3.12
755.349	1.88
756.098	0.88
756.847	-2.12
757.595	-0.12
758.344	0.88
759.093	0.88
759.841	1.88
760.589	0.88
761.338	0.88
762.086	-1.12
762.834	-1.12
763.582	1.88
764.331	3.88
765.079	0.88
765.826	-1.12
766.574	1.88
767.322	-0.12
768.07	-0.12
768.817	-3.12
769.565	-1.12
770.312	-1.12
771.06	-1.12
771.807	-1.12
772.554	0.88
773.302	0.88
774.049	1.88
774.796	0.88
775.543	-0.12
776.29	-2.12
777.036	1.88
777.783	-0.12
778.53	0.88
779.276	1.88
780.023	-0.12
780.769	0.88
781.516	-0.12
782.262	-0.12
783.008	-0.12
783.754	-0.12
784.5	2.88
785.246	0.88
785.992	1.88
786.738	-1.12
787.484	0.88
788.23	-1.12
788.975	-0.12
789.721	1.88
790.466	-0.12
791.212	-1.12
791.957	-1.12
792.702	0.88
793.447	-1.12
794.193	-0.12
794.938	0.88
795.683	0.88
796.427	-1.12
797.172	1.88
797.917	0.88
798.662	0.88
799.406	-1.12
800.151	2.88
800.895	0.88
801.64	2.88
802.384	-0.12
803.128	0.88
803.872	-0.12
804.616	-3.12
805.36	1.88
806.104	-0.12
806.848	-0.12
807.592	1.88
808.336	0.88
809.079	-0.12
809.823	0.88
810.566	-1.12
811.31	-0.12
812.053	1.88
812.796	0.88
813.539	0.88
814.283	0.88
815.026	0.88
815.769	0.88
816.511	-0.12
817.254	0.88
817.997	0.88
818.74	0.88
819.482	-1.12
820.225	0.88
820.967	-1.12
821.71	1.88
822.452	-0.12
823.194	-1.12
823.936	0.88
824.678	-1.12
825.42	0.88
826.162	-2.12
826.904	1.88
827.646	-1.12
828.388	-0.12
829.129	0.88
829.871	0.88
830.612	-2.12
831.354	-1.12
832.095	0.88
832.836	-0.12
833.577	0.88
834.319	-1.12
835.06	0.88
835.801	0.88
836.542	0.88
837.282	0.88
838.023	-2.12
838.764	-1.12
839.504	0.88
840.245	0.88
840.985	3.88
841.726	0.88
842.466	-0.12
843.206	2.88
843.946	1.88
844.687	2.88
845.427	-1.12
846.166	1.88
846.906	0.88
847.646	1.88
848.386	1.88
849.125	-0.12
849.865	1.88
850.605	0.88
851.344	1.88
852.083	1.88
852.823	-0.12
853.562	-0.12
854.301	-0.12
855.04	1.88
855.779	0.88
856.518	-0.12
857.257	-1.12
857.995	0.88
858.734	1.88
859.473	0.88
860.211	1.88
860.95	-2.12
861.688	1.88
862.426	-0.12
863.165	-1.12
863.903	0.88
864.641	0.88
865.379	-1.12
866.117	-0.12
866.855	-0.12
867.593	-0.12
868.33	-2.12
869.068	0.88
869.806	0.88
870.543	-0.12
871.28	-0.12
872.018	-1.12
872.755	-0.12
873.492	-0.12
874.229	1.88
874.967	-1.12
875.703	0.88
876.44	2.88
877.177	-2.12
877.914	0.88
878.651	0.88
879.387	1.88
880.124	0.88
880.86	0.88
881.597	0.88
882.333	-0.12
883.069	-0.12
883.806	2.88
884.542	0.88
885.278	0.88
886.014	1.88
886.749	0.88
887.485	0.88
888.221	0.88
888.957	0.88
889.692	-1.12
890.428	0.88
891.163	-0.12
891.899	-0.12
892.634	0.88
893.369	-3.12
894.104	1.88
894.839	-1.12
895.574	1.88
896.309	-0.12
897.044	-0.12
897.779	2.88
898.514	-0.12
899.248	-0.12
899.983	0.88
900.717	-0.12
901.452	0.88
902.186	0.88
902.92	0.88
903.654	-0.12
904.389	1.88
905.123	1.88
905.857	2.88
906.59	-0.12
907.324	0.88
908.058	-1.12
908.792	1.88
909.525	1.88
910.259	0.88
910.992	1.88
911.726	-0.12
912.459	-1.12
913.192	0.88
913.925	-1.12
914.658	0.88
915.391	-0.12
916.124	-0.12
916.857	1.88
917.59	-2.12
918.323	-1.12
919.055	0.88
919.788	0.88
920.521	-1.12
921.253	-1.12
921.985	2.88
922.718	-0.12
923.45	-0.12
924.182	-1.12
924.914	-2.12
925.646	0.88
926.378	-0.12
927.11	0.88
927.841	-1.12
928.573	1.88
929.305	0.88
930.036	0.88
930.768	1.88
931.499	0.88
932.23	1.88
932.962	-1.12
933.693	-1.12
934.424	0.88
935.155	-0.12
935.886	-0.12
936.617	-2.12
937.348	0.88
938.078	0.88
938.809	-0.12
939.54	-3.12
940.27	0.88
941.001	2.88
941.731	-1.12
942.461	1.88
943.191	-1.12
943.922	-1.12
944.652	-0.12
945.382	0.88
946.112	2.88
946.841	-2.12
947.571	-1.12
948.301	0.88
949.031	-1.12
949.76	-2.12
950.49	-1.12
951.219	0.88
951.948	0.88
952.678	0.88
953.407	0.88
954.136	0.88
954.865	0.88
955.594	0.88
956.323	1.88
957.052	-0.12
957.78	-1.12
958.509	-0.12
959.238	-0.12
959.966	1.88
960.695	0.88
961.423	-1.12
962.151	1.88
962.88	0.88
963.608	0.88
964.336	0.88
965.064	-0.12
965.792	1.88
966.52	-0.12
967.247	0.88
967.975	-0.12
968.703	0.88
969.43	-0.12
970.158	0.88
970.885	-1.12
971.613	-0.12
972.34	-0.12
973.067	0.88
973.794	-1.12
974.521	0.88
975.248	-1.12
975.975	1.88
976.702	-0.12
977.429	-0.12
978.156	1.88
978.882	0.88
979.609	0.88
980.335	0.88
981.062	1.88
981.788	0.88
982.514	0.88
983.24	2.88
983.967	0.88
984.693	2.88
985.419	0.88
986.144	0.88
986.87	-1.12
987.596	0.88
988.322	-0.12
989.047	-3.12
989.773	1.88
990.498	1.88
991.224	-1.12
991.949	0.88
992.674	2.88
993.399	0.88
994.124	-0.12
994.849	-0.12
995.574	-0.12
996.299	0.88
997.024	0.88
997.749	0.88
998.473	0.88
999.198	-0.12
999.922	0.88
1000.647	0.88
1001.371	2.88
1002.095	0.88
1002.82	-0.12
1003.544	-0.12
1004.268	-1.12
1004.992	-1.12
1005.716	-0.12
1006.439	-3.12
1007.163	-1.12
1007.887	-1.12
1008.611	0.88
1009.334	-0.12
1010.058	-1.12
1010.781	1.88
1011.504	0.88
1012.228	-0.12
1012.951	-1.12
1013.674	-1.12
1014.397	0.88
1015.12	-2.12
