节点500_425_QEPB04081__264__15-52-41-989.txt的数据

Date: Wed Nov 12 15:52:41 CST 2025
User: PC
Spectrometer: QEPB0408
触发模式: 0
积分时间 (秒): 1.000000E-2
Scans to average: 1
启用暗噪声校正: true
启用非线性校正: false
滑动平均宽度: 0
X轴模式: Wavelengths
Number of Pixels in Spectrum: 1044
>>>>>Begin Spectral Data<<<<<
220.843	2
221.644	3
222.444	3
223.244	3
224.045	4
224.845	3
225.645	6
226.445	7
227.245	4
228.045	7
228.845	5
229.645	3
230.444	7
231.244	7
232.043	6
232.843	7
233.642	6
234.442	6
235.241	8
236.04	7
236.839	6
237.638	6
238.437	8
239.236	7
240.035	8
240.833	9
241.632	7
242.43	7
243.229	10
244.027	8
244.826	9
245.624	10
246.422	10
247.22	11
248.018	9
248.816	10
249.614	9
250.412	9
251.21	10
252.007	12
252.805	10
253.602	10
254.4	12
255.197	12
255.994	11
256.791	13
257.589	14
258.386	12
259.183	13
259.979	15
260.776	14
261.573	14
262.37	17
263.166	18
263.963	18
264.759	17
265.556	18
266.352	18
267.148	20
267.944	19
268.74	23
269.536	23
270.332	25
271.128	23
271.924	22
272.719	22
273.515	23
274.311	24
275.106	24
275.901	23
276.697	28
277.492	23
278.287	29
279.082	24
279.877	25
280.672	25
281.467	28
282.262	26
283.056	26
283.851	24
284.646	23
285.44	22
286.234	26
287.029	27
287.823	28
288.617	24
289.411	23
290.205	24
290.999	23
291.793	24
292.587	25
293.381	22
294.174	20
294.968	22
295.761	22
296.555	22
297.348	18
298.141	22
298.935	19
299.728	20
300.521	20
301.314	16
302.107	18
302.899	17
303.692	17
304.485	19
305.277	19
306.07	19
306.862	18
307.655	15
308.447	18
309.239	14
310.031	14
310.823	11
311.615	15
312.407	13
313.199	11
313.991	14
314.783	14
315.574	14
316.366	12
317.157	11
317.949	12
318.74	9
319.531	13
320.322	10
321.113	11
321.904	9
322.695	10
323.486	11
324.277	7
325.068	11
325.858	8
326.649	9
327.439	9
328.23	8
329.02	12
329.81	8
330.6	10
331.391	9
332.181	8
332.971	9
333.76	11
334.55	9
335.34	9
336.13	9
336.919	11
337.709	8
338.498	8
339.287	9
340.077	10
340.866	7
341.655	9
342.444	11
343.233	10
344.022	10
344.811	11
345.6	8
346.388	9
347.177	9
347.965	10
348.754	7
349.542	10
350.33	9
351.119	9
351.907	9
352.695	6
353.483	11
354.271	9
355.059	9
355.846	10
356.634	8
357.422	8
358.209	8
358.997	9
359.784	8
360.571	7
361.359	9
362.146	10
362.933	5
363.72	8
364.507	7
365.294	6
366.081	9
366.867	6
367.654	7
368.44	7
369.227	8
370.013	7
370.8	9
371.586	8
372.372	8
373.158	7
373.944	7
374.73	9
375.516	8
376.302	9
377.088	9
377.873	6
378.659	7
379.445	5
380.23	7
381.015	9
381.801	7
382.586	6
383.371	6
384.156	11
384.941	7
385.726	9
386.511	10
387.296	9
388.08	9
388.865	8
389.649	8
390.434	9
391.218	9
392.003	9
392.787	7
393.571	9
394.355	9
395.139	10
395.923	9
396.707	11
397.491	8
398.274	9
399.058	11
399.842	9
400.625	11
401.408	11
402.192	9
402.975	13
403.758	9
404.541	13
405.324	10
406.107	12
406.89	9
407.673	10
408.456	12
409.238	12
410.021	11
410.803	11
411.586	12
412.368	15
413.151	13
413.933	13
414.715	15
415.497	11
416.279	14
417.061	12
417.843	15
418.624	15
419.406	14
420.188	15
420.969	12
421.751	16
422.532	15
423.313	18
424.095	17
424.876	18
425.657	13
426.438	16
427.219	17
428	20
428.78	20
429.561	17
430.342	17
431.122	20
431.903	21
432.683	25
433.464	22
434.244	23
435.024	26
435.804	25
436.584	28
437.364	30
438.144	31
438.924	31
439.704	31
440.483	36
441.263	34
442.042	38
442.822	42
443.601	46
444.38	48
445.16	46
445.939	54
446.718	58
447.497	58
448.276	68
449.054	70
449.833	79
450.612	82
451.391	92
452.169	105
452.948	112
453.726	123
454.504	135
455.282	152
456.061	167
456.839	184
457.617	207
458.395	229
459.172	252
459.95	285
460.728	313
461.506	355
462.283	389
463.061	445
463.838	491
464.615	555
465.393	619
466.17	689
466.947	763
467.724	855
468.501	937
469.278	1047
470.055	1171
470.831	1303
471.608	1435
472.385	1604
473.161	1755
473.938	1950
474.714	2143
475.49	2371
476.266	2634
477.043	2885
477.819	3176
478.595	3523
479.371	3876
480.146	4231
480.922	4666
481.698	5084
482.473	5608
483.249	6126
484.024	6770
484.8	7394
485.575	8066
486.35	8759
487.126	9598
487.901	10416
488.676	11419
489.451	12395
490.225	13504
491	14626
491.775	15821
492.55	17079
493.324	18471
494.099	19787
494.873	21088
495.647	22541
496.422	23994
497.196	25395
497.97	26934
498.744	28419
499.518	29779
500.292	30952
501.066	32104
501.839	33191
502.613	34144
503.387	34822
504.16	35293
504.934	35580
505.707	35636
506.48	35459
507.253	35139
508.027	34748
508.8	34155
509.573	33367
510.346	32526
511.118	31544
511.891	30627
512.664	29480
513.437	28269
514.209	27168
514.982	26118
515.754	25108
516.526	23963
517.298	22981
518.071	21960
518.843	21058
519.615	20175
520.387	19398
521.159	18672
521.93	17954
522.702	17223
523.474	16635
524.245	15874
525.017	15169
525.788	14399
526.56	13837
527.331	13145
528.102	12569
528.873	11989
529.644	11408
530.415	10881
531.186	10326
531.957	9801
532.728	9296
533.498	8744
534.269	8253
535.039	7833
535.81	7386
536.58	6993
537.351	6597
538.121	6232
538.891	5896
539.661	5583
540.431	5308
541.201	5011
541.971	4731
542.741	4534
543.51	4292
544.28	4075
545.05	3871
545.819	3677
546.588	3507
547.358	3318
548.127	3131
548.896	2978
549.665	2855
550.434	2694
551.203	2548
551.972	2413
552.741	2278
553.51	2155
554.278	2050
555.047	1912
555.815	1828
556.584	1711
557.352	1627
558.121	1511
558.889	1443
559.657	1384
560.425	1269
561.193	1216
561.961	1164
562.729	1096
563.496	1033
564.264	966
565.032	917
565.799	871
566.567	822
567.334	786
568.101	740
568.869	691
569.636	653
570.403	621
571.17	578
571.937	551
572.704	510
573.471	491
574.237	455
575.004	433
575.771	406
576.537	392
577.303	359
578.07	343
578.836	325
579.602	302
580.368	292
581.134	278
581.9	264
582.666	247
583.432	232
584.198	226
584.964	209
585.729	201
586.495	186
587.26	179
588.025	169
588.791	162
589.556	147
590.321	146
591.086	139
591.851	132
592.616	127
593.381	121
594.146	114
594.911	108
595.675	102
596.44	97
597.204	92
597.969	86
598.733	85
599.497	81
600.261	77
601.025	75
601.79	76
602.553	71
603.317	67
604.081	66
604.845	59
605.609	61
606.372	54
607.136	54
607.899	56
608.662	50
609.426	51
610.189	46
610.952	43
611.715	43
612.478	44
613.241	39
614.004	38
614.767	39
615.529	37
616.292	33
617.055	36
617.817	33
618.579	32
619.342	32
620.104	26
620.866	30
621.628	25
622.39	29
623.152	25
623.914	25
624.676	25
625.438	23
626.199	22
626.961	21
627.722	23
628.484	20
629.245	20
630.006	21
630.768	18
631.529	19
632.29	16
633.051	19
633.812	18
634.573	17
635.333	17
636.094	15
636.855	18
637.615	15
638.376	14
639.136	13
639.896	14
640.657	15
641.417	12
642.177	13
642.937	10
643.697	13
644.457	13
645.216	10
645.976	15
646.736	12
647.495	9
648.255	13
649.014	12
649.774	10
650.533	9
651.292	11
652.051	11
652.81	8
653.569	10
654.328	9
655.087	12
655.846	10
656.604	5
657.363	8
658.121	7
658.88	9
659.638	8
660.397	10
661.155	8
661.913	12
662.671	9
663.429	9
664.187	6
664.945	10
665.703	6
666.46	7
667.218	8
667.976	8
668.733	9
669.49	7
670.248	7
671.005	7
671.762	9
672.519	4
673.276	9
674.033	6
674.79	7
675.547	7
676.304	7
677.06	9
677.817	4
678.574	6
679.33	8
680.086	7
680.843	7
681.599	5
682.355	6
683.111	5
683.867	8
684.623	7
685.379	4
686.135	3
686.89	5
687.646	7
688.402	7
689.157	8
689.912	7
690.668	4
691.423	4
692.178	5
692.933	7
693.688	5
694.443	5
695.198	8
695.953	6
696.708	8
697.462	3
698.217	6
698.972	6
699.726	5
700.48	7
701.235	6
701.989	4
702.743	7
703.497	8
704.251	5
705.005	6
705.759	5
706.513	3
707.266	6
708.02	4
708.774	4
709.527	8
710.28	6
711.034	7
711.787	7
712.54	6
713.293	5
714.046	6
714.799	6
715.552	6
716.305	4
717.058	6
717.81	6
718.563	6
719.315	5
720.068	6
720.82	4
721.573	6
722.325	7
723.077	6
723.829	5
724.581	3
725.333	6
726.085	7
726.836	6
727.588	5
728.34	7
729.091	5
729.843	7
730.594	7
731.346	6
732.097	5
732.848	6
733.599	7
734.35	9
735.101	8
735.852	5
736.603	8
737.354	7
738.104	8
738.855	7
739.605	6
740.356	11
741.106	7
741.856	7
742.607	7
743.357	7
744.107	10
744.857	7
745.607	9
746.357	6
747.106	7
747.856	8
748.606	10
749.355	8
750.105	9
750.854	9
751.603	8
752.353	7
753.102	9
753.851	9
754.6	10
755.349	9
756.098	8
756.847	9
757.595	8
758.344	9
759.093	9
759.841	7
760.589	10
761.338	10
762.086	8
762.834	6
763.582	9
764.331	8
765.079	11
765.826	8
766.574	10
767.322	11
768.07	11
768.817	9
769.565	9
770.312	12
771.06	13
771.807	11
772.554	13
773.302	11
774.049	12
774.796	11
775.543	12
776.29	11
777.036	10
777.783	11
778.53	12
779.276	13
780.023	13
780.769	12
781.516	13
782.262	11
783.008	13
783.754	13
784.5	14
785.246	12
785.992	12
786.738	11
787.484	15
788.23	14
788.975	9
789.721	12
790.466	10
791.212	10
791.957	14
792.702	11
793.447	11
794.193	14
794.938	10
795.683	13
796.427	11
797.172	10
797.917	10
798.662	9
799.406	11
800.151	8
800.895	12
801.64	10
802.384	9
803.128	10
803.872	11
804.616	8
805.36	9
806.104	8
806.848	6
807.592	7
808.336	12
809.079	9
809.823	9
810.566	7
811.31	7
812.053	8
812.796	8
813.539	8
814.283	9
815.026	10
815.769	10
816.511	8
817.254	9
817.997	7
818.74	6
819.482	8
820.225	7
820.967	8
821.71	3
822.452	7
823.194	5
823.936	8
824.678	6
825.42	7
826.162	6
826.904	6
827.646	5
828.388	6
829.129	6
829.871	5
830.612	5
831.354	6
832.095	5
832.836	4
833.577	5
834.319	4
835.06	4
835.801	5
836.542	5
837.282	7
838.023	5
838.764	7
839.504	2
840.245	7
840.985	6
841.726	4
842.466	4
843.206	4
843.946	6
844.687	4
845.427	3
846.166	6
846.906	4
847.646	5
848.386	3
849.125	4
849.865	6
850.605	5
851.344	5
852.083	3
852.823	5
853.562	5
854.301	3
855.04	5
855.779	5
856.518	4
857.257	2
857.995	3
858.734	2
859.473	3
860.211	4
860.95	3
861.688	3
862.426	3
863.165	4
863.903	3
864.641	3
865.379	2
866.117	2
866.855	8
867.593	1
868.33	2
869.068	2
869.806	2
870.543	2
871.28	4
872.018	2
872.755	4
873.492	2
874.229	3
874.967	1
875.703	1
876.44	2
877.177	3
877.914	3
878.651	3
879.387	2
880.124	1
880.86	1
881.597	3
882.333	2
883.069	0
883.806	1
884.542	5
885.278	1
886.014	1
886.749	1
887.485	3
888.221	2
888.957	0
889.692	0
890.428	2
891.163	2
891.899	1
892.634	0
893.369	1
894.104	0
894.839	0
895.574	3
896.309	3
897.044	2
897.779	1
898.514	3
899.248	1
899.983	1
900.717	2
901.452	0
902.186	4
902.92	1
903.654	3
904.389	2
905.123	2
905.857	2
906.59	1
907.324	1
908.058	1
908.792	3
909.525	3
910.259	0
910.992	2
911.726	-1
912.459	0
913.192	0
913.925	-1
914.658	0
915.391	1
916.124	2
916.857	1
917.59	-1
918.323	1
919.055	3
919.788	2
920.521	0
921.253	1
921.985	3
922.718	2
923.45	1
924.182	0
924.914	1
925.646	3
926.378	3
927.11	0
927.841	-1
928.573	1
929.305	0
930.036	2
930.768	0
931.499	1
932.23	3
932.962	0
933.693	1
934.424	1
935.155	3
935.886	0
936.617	0
937.348	1
938.078	1
938.809	1
939.54	1
940.27	-1
941.001	2
941.731	1
942.461	0
943.191	1
943.922	0
944.652	1
945.382	3
946.112	3
946.841	2
947.571	1
948.301	0
949.031	1
949.76	2
950.49	1
951.219	0
951.948	0
952.678	0
953.407	1
954.136	1
954.865	-1
955.594	1
956.323	2
957.052	1
957.78	1
958.509	2
959.238	0
959.966	0
960.695	-1
961.423	3
962.151	1
962.88	1
963.608	2
964.336	-2
965.064	3
965.792	1
966.52	3
967.247	4
967.975	2
968.703	3
969.43	0
970.158	4
970.885	1
971.613	2
972.34	2
973.067	0
973.794	1
974.521	2
975.248	1
975.975	-1
976.702	0
977.429	-1
978.156	0
978.882	2
979.609	-1
980.335	0
981.062	0
981.788	-1
982.514	-1
983.24	0
983.967	2
984.693	1
985.419	1
986.144	2
986.87	1
987.596	2
988.322	1
989.047	2
989.773	2
990.498	-1
991.224	-2
991.949	2
992.674	0
993.399	2
994.124	-1
994.849	-1
995.574	2
996.299	1
997.024	2
997.749	1
998.473	1
999.198	-1
999.922	1
1000.647	2
1001.371	5
1002.095	-2
1002.82	-1
1003.544	1
1004.268	4
1004.992	1
1005.716	1
1006.439	4
1007.163	2
1007.887	5
1008.611	1
1009.334	3
1010.058	1
1010.781	1
1011.504	2
1012.228	1
1012.951	1
1013.674	-3
1014.397	1
1015.12	-2
