节点500_425_QEPB04081__248__15-52-25-993.txt的数据

Date: Wed Nov 12 15:52:25 CST 2025
User: PC
Spectrometer: QEPB0408
触发模式: 0
积分时间 (秒): 1.000000E-2
Scans to average: 1
启用暗噪声校正: true
启用非线性校正: false
滑动平均宽度: 0
X轴模式: Wavelengths
Number of Pixels in Spectrum: 1044
>>>>>Begin Spectral Data<<<<<
220.843	4.75
221.644	3.75
222.444	4.75
223.244	3.75
224.045	5.75
224.845	3.75
225.645	3.75
226.445	4.75
227.245	4.75
228.045	3.75
228.845	6.75
229.645	3.75
230.444	6.75
231.244	4.75
232.043	7.75
232.843	5.75
233.642	5.75
234.442	5.75
235.241	6.75
236.04	5.75
236.839	5.75
237.638	3.75
238.437	7.75
239.236	4.75
240.035	5.75
240.833	7.75
241.632	8.75
242.43	9.75
243.229	8.75
244.027	10.75
244.826	7.75
245.624	10.75
246.422	8.75
247.22	11.75
248.018	10.75
248.816	9.75
249.614	10.75
250.412	10.75
251.21	7.75
252.007	11.75
252.805	10.75
253.602	12.75
254.4	12.75
255.197	10.75
255.994	12.75
256.791	12.75
257.589	10.75
258.386	14.75
259.183	15.75
259.979	14.75
260.776	14.75
261.573	15.75
262.37	17.75
263.166	16.75
263.963	19.75
264.759	17.75
265.556	20.75
266.352	13.75
267.148	20.75
267.944	18.75
268.74	20.75
269.536	19.75
270.332	17.75
271.128	20.75
271.924	20.75
272.719	21.75
273.515	22.75
274.311	23.75
275.106	22.75
275.901	22.75
276.697	26.75
277.492	24.75
278.287	26.75
279.082	25.75
279.877	25.75
280.672	25.75
281.467	25.75
282.262	27.75
283.056	26.75
283.851	26.75
284.646	25.75
285.44	26.75
286.234	24.75
287.029	26.75
287.823	23.75
288.617	24.75
289.411	26.75
290.205	25.75
290.999	21.75
291.793	25.75
292.587	21.75
293.381	23.75
294.174	24.75
294.968	23.75
295.761	22.75
296.555	20.75
297.348	18.75
298.141	21.75
298.935	18.75
299.728	19.75
300.521	18.75
301.314	19.75
302.107	17.75
302.899	15.75
303.692	17.75
304.485	18.75
305.277	18.75
306.07	15.75
306.862	18.75
307.655	15.75
308.447	15.75
309.239	14.75
310.031	15.75
310.823	14.75
311.615	12.75
312.407	11.75
313.199	11.75
313.991	10.75
314.783	14.75
315.574	13.75
316.366	12.75
317.157	11.75
317.949	10.75
318.74	11.75
319.531	9.75
320.322	10.75
321.113	11.75
321.904	10.75
322.695	10.75
323.486	9.75
324.277	9.75
325.068	9.75
325.858	10.75
326.649	8.75
327.439	9.75
328.23	10.75
329.02	8.75
329.81	8.75
330.6	10.75
331.391	7.75
332.181	10.75
332.971	6.75
333.76	12.75
334.55	12.75
335.34	9.75
336.13	9.75
336.919	7.75
337.709	8.75
338.498	7.75
339.287	8.75
340.077	7.75
340.866	8.75
341.655	10.75
342.444	4.75
343.233	9.75
344.022	8.75
344.811	7.75
345.6	5.75
346.388	8.75
347.177	8.75
347.965	8.75
348.754	8.75
349.542	7.75
350.33	6.75
351.119	7.75
351.907	7.75
352.695	8.75
353.483	6.75
354.271	8.75
355.059	7.75
355.846	8.75
356.634	7.75
357.422	6.75
358.209	7.75
358.997	6.75
359.784	5.75
360.571	8.75
361.359	7.75
362.146	6.75
362.933	7.75
363.72	7.75
364.507	8.75
365.294	8.75
366.081	8.75
366.867	7.75
367.654	9.75
368.44	10.75
369.227	7.75
370.013	6.75
370.8	5.75
371.586	8.75
372.372	7.75
373.158	6.75
373.944	8.75
374.73	5.75
375.516	5.75
376.302	8.75
377.088	8.75
377.873	8.75
378.659	9.75
379.445	5.75
380.23	7.75
381.015	8.75
381.801	5.75
382.586	7.75
383.371	8.75
384.156	6.75
384.941	8.75
385.726	8.75
386.511	6.75
387.296	8.75
388.08	9.75
388.865	8.75
389.649	9.75
390.434	10.75
391.218	7.75
392.003	8.75
392.787	7.75
393.571	8.75
394.355	7.75
395.139	8.75
395.923	8.75
396.707	9.75
397.491	8.75
398.274	8.75
399.058	9.75
399.842	8.75
400.625	10.75
401.408	10.75
402.192	10.75
402.975	9.75
403.758	10.75
404.541	9.75
405.324	10.75
406.107	12.75
406.89	9.75
407.673	11.75
408.456	7.75
409.238	11.75
410.021	11.75
410.803	12.75
411.586	12.75
412.368	12.75
413.151	11.75
413.933	10.75
414.715	13.75
415.497	11.75
416.279	12.75
417.061	11.75
417.843	12.75
418.624	14.75
419.406	14.75
420.188	15.75
420.969	14.75
421.751	11.75
422.532	16.75
423.313	13.75
424.095	17.75
424.876	16.75
425.657	17.75
426.438	17.75
427.219	14.75
428	18.75
428.78	19.75
429.561	20.75
430.342	20.75
431.122	21.75
431.903	19.75
432.683	17.75
433.464	23.75
434.244	23.75
435.024	24.75
435.804	28.75
436.584	25.75
437.364	26.75
438.144	29.75
438.924	31.75
439.704	31.75
440.483	32.75
441.263	35.75
442.042	37.75
442.822	39.75
443.601	44.75
444.38	46.75
445.16	49.75
445.939	49.75
446.718	56.75
447.497	62.75
448.276	64.75
449.054	70.75
449.833	78.75
450.612	79.75
451.391	87.75
452.169	102.75
452.948	114.75
453.726	121.75
454.504	126.75
455.282	148.75
456.061	170.75
456.839	184.75
457.617	206.75
458.395	230.75
459.172	254.75
459.95	280.75
460.728	315.75
461.506	343.75
462.283	384.75
463.061	438.75
463.838	493.75
464.615	553.75
465.393	609.75
466.17	679.75
466.947	760.75
467.724	843.75
468.501	926.75
469.278	1039.75
470.055	1166.75
470.831	1296.75
471.608	1428.75
472.385	1573.75
473.161	1765.75
473.938	1924.75
474.714	2132.75
475.49	2375.75
476.266	2604.75
477.043	2882.75
477.819	3180.75
478.595	3514.75
479.371	3839.75
480.146	4243.75
480.922	4642.75
481.698	5109.75
482.473	5615.75
483.249	6158.75
484.024	6743.75
484.8	7415.75
485.575	8106.75
486.35	8816.75
487.126	9622.75
487.901	10542.75
488.676	11521.75
489.451	12473.75
490.225	13582.75
491	14682.75
491.775	15997.75
492.55	17254.75
493.324	18586.75
494.099	19942.75
494.873	21243.75
495.647	22770.75
496.422	24166.75
497.196	25699.75
497.97	27174.75
498.744	28599.75
499.518	29943.75
500.292	31153.75
501.066	32249.75
501.839	33448.75
502.613	34286.75
503.387	34932.75
504.16	35453.75
504.934	35753.75
505.707	35697.75
506.48	35616.75
507.253	35265.75
508.027	34852.75
508.8	34182.75
509.573	33378.75
510.346	32489.75
511.118	31592.75
511.891	30527.75
512.664	29412.75
513.437	28236.75
514.209	27123.75
514.982	26035.75
515.754	25015.75
516.526	23885.75
517.298	22890.75
518.071	21936.75
518.843	21039.75
519.615	20135.75
520.387	19358.75
521.159	18596.75
521.93	17913.75
522.702	17154.75
523.474	16498.75
524.245	15848.75
525.017	15055.75
525.788	14379.75
526.56	13729.75
527.331	13146.75
528.102	12568.75
528.873	11948.75
529.644	11320.75
530.415	10838.75
531.186	10321.75
531.957	9737.75
532.728	9246.75
533.498	8726.75
534.269	8191.75
535.039	7810.75
535.81	7386.75
536.58	6954.75
537.351	6538.75
538.121	6164.75
538.891	5846.75
539.661	5549.75
540.431	5243.75
541.201	4985.75
541.971	4734.75
542.741	4486.75
543.51	4266.75
544.28	4046.75
545.05	3827.75
545.819	3670.75
546.588	3494.75
547.358	3285.75
548.127	3099.75
548.896	2984.75
549.665	2821.75
550.434	2684.75
551.203	2552.75
551.972	2386.75
552.741	2262.75
553.51	2142.75
554.278	2014.75
555.047	1909.75
555.815	1798.75
556.584	1696.75
557.352	1598.75
558.121	1510.75
558.889	1431.75
559.657	1352.75
560.425	1261.75
561.193	1206.75
561.961	1136.75
562.729	1092.75
563.496	1012.75
564.264	960.75
565.032	902.75
565.799	864.75
566.567	816.75
567.334	774.75
568.101	730.75
568.869	684.75
569.636	639.75
570.403	607.75
571.17	571.75
571.937	542.75
572.704	512.75
573.471	496.75
574.237	458.75
575.004	428.75
575.771	406.75
576.537	376.75
577.303	362.75
578.07	338.75
578.836	319.75
579.602	307.75
580.368	288.75
581.134	275.75
581.9	263.75
582.666	242.75
583.432	226.75
584.198	220.75
584.964	210.75
585.729	202.75
586.495	192.75
587.26	178.75
588.025	167.75
588.791	158.75
589.556	149.75
590.321	146.75
591.086	133.75
591.851	135.75
592.616	125.75
593.381	119.75
594.146	110.75
594.911	105.75
595.675	99.75
596.44	91.75
597.204	93.75
597.969	93.75
598.733	87.75
599.497	77.75
600.261	77.75
601.025	75.75
601.79	70.75
602.553	69.75
603.317	65.75
604.081	66.75
604.845	59.75
605.609	56.75
606.372	56.75
607.136	56.75
607.899	50.75
608.662	46.75
609.426	49.75
610.189	47.75
610.952	42.75
611.715	44.75
612.478	41.75
613.241	39.75
614.004	39.75
614.767	34.75
615.529	36.75
616.292	34.75
617.055	31.75
617.817	32.75
618.579	29.75
619.342	30.75
620.104	27.75
620.866	24.75
621.628	28.75
622.39	26.75
623.152	26.75
623.914	25.75
624.676	24.75
625.438	24.75
626.199	21.75
626.961	23.75
627.722	23.75
628.484	22.75
629.245	19.75
630.006	21.75
630.768	18.75
631.529	18.75
632.29	17.75
633.051	16.75
633.812	17.75
634.573	16.75
635.333	16.75
636.094	14.75
636.855	15.75
637.615	16.75
638.376	12.75
639.136	14.75
639.896	11.75
640.657	11.75
641.417	12.75
642.177	12.75
642.937	15.75
643.697	10.75
644.457	12.75
645.216	10.75
645.976	12.75
646.736	10.75
647.495	12.75
648.255	10.75
649.014	9.75
649.774	10.75
650.533	8.75
651.292	7.75
652.051	10.75
652.81	7.75
653.569	8.75
654.328	6.75
655.087	7.75
655.846	9.75
656.604	7.75
657.363	9.75
658.121	10.75
658.88	7.75
659.638	8.75
660.397	7.75
661.155	7.75
661.913	9.75
662.671	8.75
663.429	8.75
664.187	5.75
664.945	8.75
665.703	6.75
666.46	5.75
667.218	7.75
667.976	7.75
668.733	7.75
669.49	6.75
670.248	8.75
671.005	6.75
671.762	6.75
672.519	6.75
673.276	6.75
674.033	6.75
674.79	5.75
675.547	5.75
676.304	6.75
677.06	7.75
677.817	6.75
678.574	4.75
679.33	7.75
680.086	6.75
680.843	3.75
681.599	6.75
682.355	5.75
683.111	5.75
683.867	3.75
684.623	5.75
685.379	6.75
686.135	4.75
686.89	6.75
687.646	4.75
688.402	6.75
689.157	7.75
689.912	5.75
690.668	5.75
691.423	5.75
692.178	5.75
692.933	5.75
693.688	7.75
694.443	6.75
695.198	4.75
695.953	5.75
696.708	4.75
697.462	6.75
698.217	4.75
698.972	6.75
699.726	6.75
700.48	4.75
701.235	6.75
701.989	4.75
702.743	4.75
703.497	4.75
704.251	4.75
705.005	5.75
705.759	4.75
706.513	4.75
707.266	5.75
708.02	5.75
708.774	4.75
709.527	3.75
710.28	9.75
711.034	1.75
711.787	6.75
712.54	4.75
713.293	4.75
714.046	4.75
714.799	5.75
715.552	2.75
716.305	5.75
717.058	4.75
717.81	5.75
718.563	5.75
719.315	6.75
720.068	3.75
720.82	3.75
721.573	5.75
722.325	4.75
723.077	5.75
723.829	5.75
724.581	6.75
725.333	5.75
726.085	4.75
726.836	4.75
727.588	7.75
728.34	5.75
729.091	4.75
729.843	4.75
730.594	7.75
731.346	4.75
732.097	7.75
732.848	6.75
733.599	4.75
734.35	6.75
735.101	4.75
735.852	7.75
736.603	5.75
737.354	7.75
738.104	5.75
738.855	6.75
739.605	8.75
740.356	5.75
741.106	6.75
741.856	7.75
742.607	6.75
743.357	6.75
744.107	6.75
744.857	7.75
745.607	9.75
746.357	8.75
747.106	4.75
747.856	8.75
748.606	7.75
749.355	7.75
750.105	8.75
750.854	6.75
751.603	7.75
752.353	8.75
753.102	8.75
753.851	7.75
754.6	6.75
755.349	6.75
756.098	7.75
756.847	8.75
757.595	7.75
758.344	8.75
759.093	7.75
759.841	5.75
760.589	9.75
761.338	10.75
762.086	9.75
762.834	10.75
763.582	9.75
764.331	8.75
765.079	8.75
765.826	9.75
766.574	9.75
767.322	11.75
768.07	10.75
768.817	9.75
769.565	12.75
770.312	9.75
771.06	10.75
771.807	9.75
772.554	10.75
773.302	9.75
774.049	7.75
774.796	11.75
775.543	10.75
776.29	12.75
777.036	12.75
777.783	10.75
778.53	12.75
779.276	12.75
780.023	11.75
780.769	11.75
781.516	15.75
782.262	12.75
783.008	10.75
783.754	11.75
784.5	10.75
785.246	11.75
785.992	15.75
786.738	10.75
787.484	13.75
788.23	9.75
788.975	10.75
789.721	11.75
790.466	10.75
791.212	10.75
791.957	8.75
792.702	11.75
793.447	11.75
794.193	9.75
794.938	9.75
795.683	11.75
796.427	11.75
797.172	10.75
797.917	11.75
798.662	10.75
799.406	10.75
800.151	10.75
800.895	9.75
801.64	8.75
802.384	8.75
803.128	8.75
803.872	8.75
804.616	8.75
805.36	9.75
806.104	8.75
806.848	8.75
807.592	6.75
808.336	8.75
809.079	8.75
809.823	6.75
810.566	7.75
811.31	3.75
812.053	7.75
812.796	10.75
813.539	7.75
814.283	7.75
815.026	6.75
815.769	6.75
816.511	5.75
817.254	6.75
817.997	5.75
818.74	4.75
819.482	7.75
820.225	7.75
820.967	5.75
821.71	7.75
822.452	6.75
823.194	5.75
823.936	4.75
824.678	7.75
825.42	7.75
826.162	5.75
826.904	8.75
827.646	6.75
828.388	5.75
829.129	3.75
829.871	6.75
830.612	5.75
831.354	3.75
832.095	7.75
832.836	5.75
833.577	4.75
834.319	5.75
835.06	5.75
835.801	4.75
836.542	3.75
837.282	4.75
838.023	7.75
838.764	3.75
839.504	4.75
840.245	4.75
840.985	7.75
841.726	2.75
842.466	3.75
843.206	3.75
843.946	5.75
844.687	2.75
845.427	4.75
846.166	7.75
846.906	5.75
847.646	4.75
848.386	5.75
849.125	3.75
849.865	2.75
850.605	4.75
851.344	4.75
852.083	4.75
852.823	4.75
853.562	3.75
854.301	2.75
855.04	2.75
855.779	3.75
856.518	6.75
857.257	3.75
857.995	4.75
858.734	3.75
859.473	2.75
860.211	4.75
860.95	1.75
861.688	1.75
862.426	2.75
863.165	1.75
863.903	2.75
864.641	3.75
865.379	4.75
866.117	3.75
866.855	1.75
867.593	2.75
868.33	1.75
869.068	2.75
869.806	1.75
870.543	0.75
871.28	1.75
872.018	2.75
872.755	1.75
873.492	2.75
874.229	2.75
874.967	2.75
875.703	3.75
876.44	3.75
877.177	2.75
877.914	0.75
878.651	1.75
879.387	1.75
880.124	2.75
880.86	2.75
881.597	2.75
882.333	2.75
883.069	4.75
883.806	2.75
884.542	1.75
885.278	0.75
886.014	2.75
886.749	3.75
887.485	2.75
888.221	0.75
888.957	1.75
889.692	1.75
890.428	1.75
891.163	-0.25
891.899	1.75
892.634	0.75
893.369	1.75
894.104	2.75
894.839	1.75
895.574	-1.25
896.309	1.75
897.044	0.75
897.779	1.75
898.514	-0.25
899.248	1.75
899.983	1.75
900.717	1.75
901.452	0.75
902.186	1.75
902.92	1.75
903.654	0.75
904.389	0.75
905.123	0.75
905.857	1.75
906.59	2.75
907.324	1.75
908.058	1.75
908.792	-0.25
909.525	4.75
910.259	0.75
910.992	1.75
911.726	0.75
912.459	-1.25
913.192	-0.25
913.925	1.75
914.658	1.75
915.391	2.75
916.124	1.75
916.857	1.75
917.59	1.75
918.323	1.75
919.055	-0.25
919.788	0.75
920.521	1.75
921.253	-2.25
921.985	2.75
922.718	0.75
923.45	0.75
924.182	0.75
924.914	1.75
925.646	2.75
926.378	1.75
927.11	0.75
927.841	1.75
928.573	1.75
929.305	-1.25
930.036	-1.25
930.768	2.75
931.499	1.75
932.23	-0.25
932.962	0.75
933.693	0.75
934.424	1.75
935.155	1.75
935.886	0.75
936.617	0.75
937.348	0.75
938.078	2.75
938.809	-0.25
939.54	0.75
940.27	1.75
941.001	1.75
941.731	0.75
942.461	-1.25
943.191	1.75
943.922	-1.25
944.652	0.75
945.382	0.75
946.112	-1.25
946.841	1.75
947.571	0.75
948.301	0.75
949.031	0.75
949.76	0.75
950.49	1.75
951.219	-0.25
951.948	1.75
952.678	0.75
953.407	0.75
954.136	-1.25
954.865	1.75
955.594	0.75
956.323	-0.25
957.052	0.75
957.78	-0.25
958.509	0.75
959.238	-1.25
959.966	1.75
960.695	1.75
961.423	0.75
962.151	0.75
962.88	0.75
963.608	0.75
964.336	0.75
965.064	0.75
965.792	0.75
966.52	-1.25
967.247	0.75
967.975	-0.25
968.703	-0.25
969.43	-0.25
970.158	-0.25
970.885	0.75
971.613	0.75
972.34	0.75
973.067	-0.25
973.794	2.75
974.521	-0.25
975.248	-1.25
975.975	1.75
976.702	0.75
977.429	0.75
978.156	3.75
978.882	-1.25
979.609	1.75
980.335	-0.25
981.062	1.75
981.788	2.75
982.514	0.75
983.24	1.75
983.967	1.75
984.693	0.75
985.419	-0.25
986.144	-0.25
986.87	0.75
987.596	1.75
988.322	0.75
989.047	-1.25
989.773	-0.25
990.498	0.75
991.224	0.75
991.949	0.75
992.674	-0.25
993.399	0.75
994.124	0.75
994.849	-0.25
995.574	-1.25
996.299	0.75
997.024	-0.25
997.749	0.75
998.473	1.75
999.198	-1.25
999.922	2.75
1000.647	2.75
1001.371	4.75
1002.095	-0.25
1002.82	-2.25
1003.544	-1.25
1004.268	4.75
1004.992	0.75
1005.716	1.75
1006.439	2.75
1007.163	6.75
1007.887	2.75
1008.611	-1.25
1009.334	0.75
1010.058	1.75
1010.781	0.75
1011.504	1.75
1012.228	-1.25
1012.951	-1.25
1013.674	1.75
1014.397	-0.25
1015.12	-1.25
