节点500_425_QEPB04081__534__15-57-11-543.txt的数据

Date: Wed Nov 12 15:57:11 CST 2025
User: PC
Spectrometer: QEPB0408
触发模式: 0
积分时间 (秒): 1.000000E-2
Scans to average: 1
启用暗噪声校正: true
启用非线性校正: false
滑动平均宽度: 0
X轴模式: Wavelengths
Number of Pixels in Spectrum: 1044
>>>>>Begin Spectral Data<<<<<
220.843	3.5
221.644	1.5
222.444	-0.5
223.244	5.5
224.045	3.5
224.845	1.5
225.645	4.5
226.445	2.5
227.245	2.5
228.045	4.5
228.845	4.5
229.645	4.5
230.444	4.5
231.244	3.5
232.043	3.5
232.843	4.5
233.642	5.5
234.442	6.5
235.241	4.5
236.04	3.5
236.839	4.5
237.638	5.5
238.437	4.5
239.236	7.5
240.035	7.5
240.833	6.5
241.632	6.5
242.43	8.5
243.229	5.5
244.027	7.5
244.826	8.5
245.624	5.5
246.422	8.5
247.22	6.5
248.018	7.5
248.816	10.5
249.614	8.5
250.412	9.5
251.21	8.5
252.007	10.5
252.805	8.5
253.602	7.5
254.4	12.5
255.197	10.5
255.994	9.5
256.791	10.5
257.589	9.5
258.386	11.5
259.183	12.5
259.979	10.5
260.776	14.5
261.573	12.5
262.37	10.5
263.166	13.5
263.963	14.5
264.759	13.5
265.556	16.5
266.352	16.5
267.148	15.5
267.944	15.5
268.74	15.5
269.536	17.5
270.332	16.5
271.128	20.5
271.924	19.5
272.719	17.5
273.515	21.5
274.311	19.5
275.106	20.5
275.901	20.5
276.697	20.5
277.492	18.5
278.287	20.5
279.082	20.5
279.877	20.5
280.672	22.5
281.467	22.5
282.262	18.5
283.056	23.5
283.851	21.5
284.646	23.5
285.44	21.5
286.234	23.5
287.029	22.5
287.823	23.5
288.617	21.5
289.411	21.5
290.205	20.5
290.999	21.5
291.793	22.5
292.587	22.5
293.381	21.5
294.174	21.5
294.968	22.5
295.761	16.5
296.555	18.5
297.348	20.5
298.141	16.5
298.935	19.5
299.728	18.5
300.521	17.5
301.314	17.5
302.107	15.5
302.899	16.5
303.692	15.5
304.485	17.5
305.277	16.5
306.07	15.5
306.862	13.5
307.655	15.5
308.447	15.5
309.239	14.5
310.031	14.5
310.823	14.5
311.615	12.5
312.407	10.5
313.199	13.5
313.991	10.5
314.783	12.5
315.574	11.5
316.366	11.5
317.157	11.5
317.949	12.5
318.74	11.5
319.531	8.5
320.322	9.5
321.113	10.5
321.904	8.5
322.695	9.5
323.486	9.5
324.277	8.5
325.068	9.5
325.858	7.5
326.649	11.5
327.439	7.5
328.23	8.5
329.02	11.5
329.81	7.5
330.6	11.5
331.391	6.5
332.181	8.5
332.971	11.5
333.76	6.5
334.55	7.5
335.34	7.5
336.13	7.5
336.919	8.5
337.709	9.5
338.498	7.5
339.287	9.5
340.077	7.5
340.866	8.5
341.655	6.5
342.444	5.5
343.233	8.5
344.022	8.5
344.811	5.5
345.6	7.5
346.388	8.5
347.177	7.5
347.965	7.5
348.754	7.5
349.542	7.5
350.33	6.5
351.119	11.5
351.907	5.5
352.695	6.5
353.483	6.5
354.271	6.5
355.059	6.5
355.846	6.5
356.634	8.5
357.422	4.5
358.209	7.5
358.997	6.5
359.784	6.5
360.571	6.5
361.359	6.5
362.146	7.5
362.933	6.5
363.72	7.5
364.507	6.5
365.294	7.5
366.081	4.5
366.867	6.5
367.654	6.5
368.44	5.5
369.227	5.5
370.013	6.5
370.8	6.5
371.586	5.5
372.372	6.5
373.158	6.5
373.944	6.5
374.73	9.5
375.516	6.5
376.302	5.5
377.088	5.5
377.873	6.5
378.659	2.5
379.445	6.5
380.23	5.5
381.015	6.5
381.801	5.5
382.586	6.5
383.371	5.5
384.156	7.5
384.941	4.5
385.726	7.5
386.511	7.5
387.296	7.5
388.08	6.5
388.865	7.5
389.649	3.5
390.434	4.5
391.218	7.5
392.003	7.5
392.787	7.5
393.571	7.5
394.355	9.5
395.139	7.5
395.923	4.5
396.707	7.5
397.491	9.5
398.274	7.5
399.058	7.5
399.842	9.5
400.625	9.5
401.408	8.5
402.192	8.5
402.975	10.5
403.758	7.5
404.541	9.5
405.324	8.5
406.107	9.5
406.89	8.5
407.673	9.5
408.456	9.5
409.238	12.5
410.021	9.5
410.803	9.5
411.586	11.5
412.368	10.5
413.151	10.5
413.933	10.5
414.715	13.5
415.497	9.5
416.279	10.5
417.061	11.5
417.843	8.5
418.624	13.5
419.406	11.5
420.188	12.5
420.969	12.5
421.751	14.5
422.532	15.5
423.313	12.5
424.095	13.5
424.876	16.5
425.657	11.5
426.438	15.5
427.219	15.5
428	15.5
428.78	16.5
429.561	18.5
430.342	19.5
431.122	16.5
431.903	19.5
432.683	20.5
433.464	21.5
434.244	23.5
435.024	25.5
435.804	25.5
436.584	23.5
437.364	27.5
438.144	29.5
438.924	30.5
439.704	32.5
440.483	33.5
441.263	36.5
442.042	41.5
442.822	39.5
443.601	43.5
444.38	44.5
445.16	54.5
445.939	53.5
446.718	60.5
447.497	62.5
448.276	69.5
449.054	74.5
449.833	85.5
450.612	89.5
451.391	94.5
452.169	108.5
452.948	123.5
453.726	134.5
454.504	148.5
455.282	162.5
456.061	185.5
456.839	201.5
457.617	230.5
458.395	249.5
459.172	285.5
459.95	310.5
460.728	341.5
461.506	384.5
462.283	427.5
463.061	466.5
463.838	539.5
464.615	594.5
465.393	657.5
466.17	721.5
466.947	807.5
467.724	888.5
468.501	991.5
469.278	1089.5
470.055	1208.5
470.831	1338.5
471.608	1478.5
472.385	1630.5
473.161	1787.5
473.938	1970.5
474.714	2155.5
475.49	2374.5
476.266	2601.5
477.043	2865.5
477.819	3130.5
478.595	3421.5
479.371	3712.5
480.146	4081.5
480.922	4457.5
481.698	4875.5
482.473	5271.5
483.249	5737.5
484.024	6233.5
484.8	6823.5
485.575	7401.5
486.35	8029.5
487.126	8683.5
487.901	9439.5
488.676	10229.5
489.451	11053.5
490.225	11967.5
491	12911.5
491.775	14021.5
492.55	14976.5
493.324	16090.5
494.099	17214.5
494.873	18362.5
495.647	19597.5
496.422	20882.5
497.196	22077.5
497.97	23467.5
498.744	24718.5
499.518	25973.5
500.292	27125.5
501.066	28257.5
501.839	29397.5
502.613	30383.5
503.387	31098.5
504.16	31815.5
504.934	32274.5
505.707	32567.5
506.48	32716.5
507.253	32713.5
508.027	32547.5
508.8	32320.5
509.573	31931.5
510.346	31395.5
511.118	30669.5
511.891	29874.5
512.664	29054.5
513.437	28088.5
514.209	27116.5
514.982	26215.5
515.754	25210.5
516.526	24203.5
517.298	23288.5
518.071	22242.5
518.843	21400.5
519.615	20514.5
520.387	19706.5
521.159	18956.5
521.93	18279.5
522.702	17536.5
523.474	16869.5
524.245	16215.5
525.017	15463.5
525.788	14768.5
526.56	14150.5
527.331	13563.5
528.102	12965.5
528.873	12363.5
529.644	11842.5
530.415	11269.5
531.186	10833.5
531.957	10233.5
532.728	9699.5
533.498	9200.5
534.269	8719.5
535.039	8262.5
535.81	7821.5
536.58	7448.5
537.351	6994.5
538.121	6597.5
538.891	6327.5
539.661	5943.5
540.431	5636.5
541.201	5347.5
541.971	5034.5
542.741	4800.5
543.51	4560.5
544.28	4345.5
545.05	4117.5
545.819	3945.5
546.588	3723.5
547.358	3531.5
548.127	3352.5
548.896	3219.5
549.665	3017.5
550.434	2881.5
551.203	2730.5
551.972	2591.5
552.741	2445.5
553.51	2345.5
554.278	2188.5
555.047	2073.5
555.815	1964.5
556.584	1874.5
557.352	1756.5
558.121	1652.5
558.889	1567.5
559.657	1477.5
560.425	1401.5
561.193	1311.5
561.961	1256.5
562.729	1183.5
563.496	1119.5
564.264	1044.5
565.032	993.5
565.799	940.5
566.567	897.5
567.334	845.5
568.101	803.5
568.869	760.5
569.636	702.5
570.403	669.5
571.17	630.5
571.937	593.5
572.704	566.5
573.471	532.5
574.237	495.5
575.004	467.5
575.771	444.5
576.537	418.5
577.303	389.5
578.07	369.5
578.836	350.5
579.602	331.5
580.368	312.5
581.134	298.5
581.9	281.5
582.666	272.5
583.432	253.5
584.198	239.5
584.964	228.5
585.729	219.5
586.495	203.5
587.26	196.5
588.025	189.5
588.791	175.5
589.556	164.5
590.321	156.5
591.086	148.5
591.851	138.5
592.616	132.5
593.381	127.5
594.146	118.5
594.911	115.5
595.675	112.5
596.44	102.5
597.204	98.5
597.969	96.5
598.733	92.5
599.497	89.5
600.261	84.5
601.025	83.5
601.79	76.5
602.553	71.5
603.317	69.5
604.081	68.5
604.845	64.5
605.609	60.5
606.372	58.5
607.136	56.5
607.899	55.5
608.662	52.5
609.426	48.5
610.189	47.5
610.952	42.5
611.715	43.5
612.478	41.5
613.241	40.5
614.004	40.5
614.767	33.5
615.529	36.5
616.292	35.5
617.055	32.5
617.817	32.5
618.579	30.5
619.342	32.5
620.104	28.5
620.866	26.5
621.628	27.5
622.39	26.5
623.152	26.5
623.914	26.5
624.676	25.5
625.438	23.5
626.199	21.5
626.961	21.5
627.722	19.5
628.484	20.5
629.245	19.5
630.006	20.5
630.768	17.5
631.529	18.5
632.29	16.5
633.051	13.5
633.812	18.5
634.573	16.5
635.333	14.5
636.094	14.5
636.855	13.5
637.615	12.5
638.376	12.5
639.136	14.5
639.896	14.5
640.657	11.5
641.417	14.5
642.177	12.5
642.937	12.5
643.697	14.5
644.457	10.5
645.216	12.5
645.976	9.5
646.736	11.5
647.495	11.5
648.255	8.5
649.014	9.5
649.774	8.5
650.533	9.5
651.292	7.5
652.051	9.5
652.81	7.5
653.569	7.5
654.328	5.5
655.087	8.5
655.846	8.5
656.604	7.5
657.363	9.5
658.121	7.5
658.88	5.5
659.638	7.5
660.397	6.5
661.155	5.5
661.913	7.5
662.671	4.5
663.429	4.5
664.187	5.5
664.945	9.5
665.703	4.5
666.46	7.5
667.218	6.5
667.976	7.5
668.733	6.5
669.49	6.5
670.248	7.5
671.005	8.5
671.762	6.5
672.519	3.5
673.276	3.5
674.033	7.5
674.79	5.5
675.547	5.5
676.304	3.5
677.06	5.5
677.817	4.5
678.574	5.5
679.33	5.5
680.086	2.5
680.843	6.5
681.599	5.5
682.355	6.5
683.111	6.5
683.867	4.5
684.623	3.5
685.379	4.5
686.135	3.5
686.89	7.5
687.646	5.5
688.402	2.5
689.157	4.5
689.912	2.5
690.668	3.5
691.423	3.5
692.178	5.5
692.933	4.5
693.688	5.5
694.443	5.5
695.198	4.5
695.953	6.5
696.708	5.5
697.462	4.5
698.217	4.5
698.972	3.5
699.726	3.5
700.48	5.5
701.235	4.5
701.989	4.5
702.743	4.5
703.497	3.5
704.251	5.5
705.005	5.5
705.759	4.5
706.513	4.5
707.266	4.5
708.02	3.5
708.774	3.5
709.527	4.5
710.28	4.5
711.034	2.5
711.787	4.5
712.54	5.5
713.293	4.5
714.046	4.5
714.799	3.5
715.552	3.5
716.305	2.5
717.058	6.5
717.81	2.5
718.563	3.5
719.315	5.5
720.068	4.5
720.82	6.5
721.573	5.5
722.325	4.5
723.077	4.5
723.829	1.5
724.581	4.5
725.333	3.5
726.085	4.5
726.836	5.5
727.588	3.5
728.34	7.5
729.091	4.5
729.843	4.5
730.594	4.5
731.346	5.5
732.097	5.5
732.848	4.5
733.599	5.5
734.35	5.5
735.101	3.5
735.852	6.5
736.603	6.5
737.354	4.5
738.104	5.5
738.855	6.5
739.605	3.5
740.356	4.5
741.106	5.5
741.856	3.5
742.607	5.5
743.357	4.5
744.107	4.5
744.857	8.5
745.607	3.5
746.357	9.5
747.106	4.5
747.856	5.5
748.606	3.5
749.355	6.5
750.105	6.5
750.854	5.5
751.603	3.5
752.353	6.5
753.102	5.5
753.851	9.5
754.6	5.5
755.349	8.5
756.098	6.5
756.847	9.5
757.595	6.5
758.344	5.5
759.093	6.5
759.841	6.5
760.589	6.5
761.338	4.5
762.086	8.5
762.834	7.5
763.582	8.5
764.331	9.5
765.079	7.5
765.826	7.5
766.574	11.5
767.322	6.5
768.07	9.5
768.817	9.5
769.565	7.5
770.312	7.5
771.06	9.5
771.807	7.5
772.554	5.5
773.302	10.5
774.049	6.5
774.796	9.5
775.543	7.5
776.29	9.5
777.036	9.5
777.783	9.5
778.53	7.5
779.276	7.5
780.023	9.5
780.769	9.5
781.516	8.5
782.262	12.5
783.008	8.5
783.754	9.5
784.5	8.5
785.246	11.5
785.992	9.5
786.738	10.5
787.484	10.5
788.23	10.5
788.975	8.5
789.721	10.5
790.466	8.5
791.212	11.5
791.957	8.5
792.702	8.5
793.447	9.5
794.193	12.5
794.938	10.5
795.683	8.5
796.427	8.5
797.172	9.5
797.917	9.5
798.662	9.5
799.406	8.5
800.151	9.5
800.895	5.5
801.64	8.5
802.384	10.5
803.128	8.5
803.872	8.5
804.616	8.5
805.36	7.5
806.104	6.5
806.848	9.5
807.592	3.5
808.336	7.5
809.079	7.5
809.823	5.5
810.566	6.5
811.31	6.5
812.053	6.5
812.796	5.5
813.539	5.5
814.283	7.5
815.026	3.5
815.769	7.5
816.511	6.5
817.254	5.5
817.997	5.5
818.74	4.5
819.482	7.5
820.225	4.5
820.967	4.5
821.71	3.5
822.452	4.5
823.194	4.5
823.936	6.5
824.678	4.5
825.42	4.5
826.162	1.5
826.904	5.5
827.646	4.5
828.388	3.5
829.129	4.5
829.871	3.5
830.612	4.5
831.354	3.5
832.095	1.5
832.836	3.5
833.577	6.5
834.319	3.5
835.06	2.5
835.801	4.5
836.542	3.5
837.282	4.5
838.023	3.5
838.764	3.5
839.504	5.5
840.245	3.5
840.985	1.5
841.726	2.5
842.466	3.5
843.206	5.5
843.946	2.5
844.687	2.5
845.427	1.5
846.166	4.5
846.906	4.5
847.646	4.5
848.386	3.5
849.125	3.5
849.865	7.5
850.605	3.5
851.344	2.5
852.083	3.5
852.823	1.5
853.562	1.5
854.301	3.5
855.04	1.5
855.779	4.5
856.518	4.5
857.257	2.5
857.995	2.5
858.734	2.5
859.473	1.5
860.211	-0.5
860.95	1.5
861.688	1.5
862.426	0.5
863.165	0.5
863.903	2.5
864.641	0.5
865.379	3.5
866.117	2.5
866.855	1.5
867.593	0.5
868.33	2.5
869.068	2.5
869.806	-0.5
870.543	2.5
871.28	2.5
872.018	-0.5
872.755	4.5
873.492	1.5
874.229	2.5
874.967	1.5
875.703	1.5
876.44	0.5
877.177	-0.5
877.914	0.5
878.651	-0.5
879.387	1.5
880.124	1.5
880.86	0.5
881.597	1.5
882.333	0.5
883.069	1.5
883.806	2.5
884.542	0.5
885.278	0.5
886.014	1.5
886.749	-1.5
887.485	0.5
888.221	-0.5
888.957	-0.5
889.692	0.5
890.428	4.5
891.163	-0.5
891.899	0.5
892.634	0.5
893.369	0.5
894.104	-0.5
894.839	-0.5
895.574	1.5
896.309	0.5
897.044	1.5
897.779	-0.5
898.514	-2.5
899.248	1.5
899.983	-2.5
900.717	0.5
901.452	-0.5
902.186	1.5
902.92	-1.5
903.654	-1.5
904.389	-1.5
905.123	-1.5
905.857	0.5
906.59	0.5
907.324	0.5
908.058	0.5
908.792	1.5
909.525	0.5
910.259	0.5
910.992	0.5
911.726	2.5
912.459	-1.5
913.192	0.5
913.925	-0.5
914.658	0.5
915.391	2.5
916.124	-0.5
916.857	0.5
917.59	-0.5
918.323	0.5
919.055	-0.5
919.788	0.5
920.521	-0.5
921.253	0.5
921.985	-1.5
922.718	0.5
923.45	1.5
924.182	2.5
924.914	-2.5
925.646	-0.5
926.378	-0.5
927.11	0.5
927.841	0.5
928.573	0.5
929.305	0.5
930.036	1.5
930.768	0.5
931.499	1.5
932.23	1.5
932.962	-2.5
933.693	-1.5
934.424	0.5
935.155	-1.5
935.886	-0.5
936.617	-1.5
937.348	-1.5
938.078	0.5
938.809	0.5
939.54	-0.5
940.27	0.5
941.001	0.5
941.731	0.5
942.461	-1.5
943.191	1.5
943.922	-1.5
944.652	-1.5
945.382	-0.5
946.112	-1.5
946.841	0.5
947.571	-2.5
948.301	0.5
949.031	-1.5
949.76	1.5
950.49	-0.5
951.219	-0.5
951.948	0.5
952.678	-0.5
953.407	0.5
954.136	-0.5
954.865	0.5
955.594	1.5
956.323	-0.5
957.052	-0.5
957.78	-1.5
958.509	-0.5
959.238	-1.5
959.966	-0.5
960.695	-0.5
961.423	-1.5
962.151	-0.5
962.88	0.5
963.608	-2.5
964.336	-0.5
965.064	-2.5
965.792	0.5
966.52	-0.5
967.247	-0.5
967.975	0.5
968.703	-0.5
969.43	-0.5
970.158	-2.5
970.885	1.5
971.613	-0.5
972.34	1.5
973.067	1.5
973.794	-2.5
974.521	0.5
975.248	-0.5
975.975	-0.5
976.702	0.5
977.429	-0.5
978.156	-0.5
978.882	-1.5
979.609	1.5
980.335	-1.5
981.062	-1.5
981.788	-1.5
982.514	-2.5
983.24	0.5
983.967	-0.5
984.693	1.5
985.419	-0.5
986.144	-1.5
986.87	0.5
987.596	-1.5
988.322	0.5
989.047	-0.5
989.773	-1.5
990.498	1.5
991.224	-0.5
991.949	0.5
992.674	-2.5
993.399	2.5
994.124	-3.5
994.849	-1.5
995.574	0.5
996.299	-0.5
997.024	-1.5
997.749	-0.5
998.473	-2.5
999.198	-2.5
999.922	-0.5
1000.647	-2.5
1001.371	2.5
1002.095	-1.5
1002.82	-0.5
1003.544	-2.5
1004.268	3.5
1004.992	2.5
1005.716	0.5
1006.439	1.5
1007.163	0.5
1007.887	0.5
1008.611	-0.5
1009.334	-0.5
1010.058	-0.5
1010.781	-1.5
1011.504	0.5
1012.228	-2.5
1012.951	0.5
1013.674	0.5
1014.397	-0.5
1015.12	1.5
