节点500_425_QEPB04081__251__15-52-29-002.txt的数据

Date: Wed Nov 12 15:52:29 CST 2025
User: PC
Spectrometer: QEPB0408
触发模式: 0
积分时间 (秒): 1.000000E-2
Scans to average: 1
启用暗噪声校正: true
启用非线性校正: false
滑动平均宽度: 0
X轴模式: Wavelengths
Number of Pixels in Spectrum: 1044
>>>>>Begin Spectral Data<<<<<
220.843	4.25
221.644	2.25
222.444	1.25
223.244	3.25
224.045	3.25
224.845	3.25
225.645	3.25
226.445	6.25
227.245	2.25
228.045	5.25
228.845	5.25
229.645	5.25
230.444	7.25
231.244	5.25
232.043	7.25
232.843	5.25
233.642	5.25
234.442	6.25
235.241	5.25
236.04	7.25
236.839	5.25
237.638	6.25
238.437	5.25
239.236	8.25
240.035	8.25
240.833	8.25
241.632	8.25
242.43	6.25
243.229	9.25
244.027	8.25
244.826	7.25
245.624	9.25
246.422	5.25
247.22	8.25
248.018	9.25
248.816	9.25
249.614	10.25
250.412	8.25
251.21	8.25
252.007	8.25
252.805	11.25
253.602	13.25
254.4	11.25
255.197	13.25
255.994	12.25
256.791	12.25
257.589	14.25
258.386	14.25
259.183	16.25
259.979	14.25
260.776	16.25
261.573	16.25
262.37	16.25
263.166	15.25
263.963	13.25
264.759	17.25
265.556	18.25
266.352	20.25
267.148	19.25
267.944	17.25
268.74	20.25
269.536	19.25
270.332	21.25
271.128	22.25
271.924	20.25
272.719	22.25
273.515	21.25
274.311	22.25
275.106	23.25
275.901	23.25
276.697	24.25
277.492	24.25
278.287	24.25
279.082	24.25
279.877	26.25
280.672	28.25
281.467	25.25
282.262	24.25
283.056	25.25
283.851	26.25
284.646	24.25
285.44	28.25
286.234	24.25
287.029	24.25
287.823	26.25
288.617	26.25
289.411	25.25
290.205	24.25
290.999	25.25
291.793	23.25
292.587	24.25
293.381	24.25
294.174	21.25
294.968	25.25
295.761	23.25
296.555	23.25
297.348	19.25
298.141	19.25
298.935	22.25
299.728	18.25
300.521	19.25
301.314	20.25
302.107	18.25
302.899	16.25
303.692	14.25
304.485	15.25
305.277	17.25
306.07	14.25
306.862	15.25
307.655	16.25
308.447	17.25
309.239	14.25
310.031	14.25
310.823	14.25
311.615	10.25
312.407	13.25
313.199	13.25
313.991	11.25
314.783	13.25
315.574	9.25
316.366	13.25
317.157	10.25
317.949	9.25
318.74	11.25
319.531	11.25
320.322	12.25
321.113	10.25
321.904	9.25
322.695	9.25
323.486	8.25
324.277	10.25
325.068	9.25
325.858	11.25
326.649	8.25
327.439	10.25
328.23	5.25
329.02	8.25
329.81	8.25
330.6	10.25
331.391	9.25
332.181	8.25
332.971	8.25
333.76	8.25
334.55	9.25
335.34	8.25
336.13	7.25
336.919	8.25
337.709	9.25
338.498	9.25
339.287	10.25
340.077	11.25
340.866	10.25
341.655	7.25
342.444	7.25
343.233	7.25
344.022	10.25
344.811	8.25
345.6	5.25
346.388	7.25
347.177	7.25
347.965	8.25
348.754	8.25
349.542	8.25
350.33	5.25
351.119	6.25
351.907	10.25
352.695	7.25
353.483	7.25
354.271	8.25
355.059	7.25
355.846	7.25
356.634	7.25
357.422	6.25
358.209	9.25
358.997	7.25
359.784	7.25
360.571	6.25
361.359	8.25
362.146	6.25
362.933	9.25
363.72	8.25
364.507	5.25
365.294	7.25
366.081	5.25
366.867	5.25
367.654	7.25
368.44	5.25
369.227	7.25
370.013	7.25
370.8	9.25
371.586	8.25
372.372	9.25
373.158	8.25
373.944	3.25
374.73	6.25
375.516	6.25
376.302	9.25
377.088	8.25
377.873	4.25
378.659	6.25
379.445	6.25
380.23	7.25
381.015	8.25
381.801	5.25
382.586	7.25
383.371	4.25
384.156	7.25
384.941	9.25
385.726	6.25
386.511	6.25
387.296	8.25
388.08	8.25
388.865	5.25
389.649	6.25
390.434	7.25
391.218	9.25
392.003	8.25
392.787	7.25
393.571	8.25
394.355	10.25
395.139	10.25
395.923	10.25
396.707	12.25
397.491	9.25
398.274	6.25
399.058	8.25
399.842	10.25
400.625	9.25
401.408	9.25
402.192	9.25
402.975	10.25
403.758	10.25
404.541	11.25
405.324	10.25
406.107	12.25
406.89	10.25
407.673	9.25
408.456	12.25
409.238	12.25
410.021	10.25
410.803	12.25
411.586	11.25
412.368	12.25
413.151	14.25
413.933	11.25
414.715	12.25
415.497	13.25
416.279	12.25
417.061	12.25
417.843	13.25
418.624	14.25
419.406	13.25
420.188	13.25
420.969	12.25
421.751	12.25
422.532	14.25
423.313	14.25
424.095	15.25
424.876	16.25
425.657	17.25
426.438	17.25
427.219	18.25
428	19.25
428.78	18.25
429.561	21.25
430.342	17.25
431.122	23.25
431.903	22.25
432.683	19.25
433.464	21.25
434.244	22.25
435.024	25.25
435.804	24.25
436.584	28.25
437.364	24.25
438.144	30.25
438.924	33.25
439.704	31.25
440.483	33.25
441.263	37.25
442.042	36.25
442.822	40.25
443.601	45.25
444.38	45.25
445.16	47.25
445.939	53.25
446.718	58.25
447.497	61.25
448.276	60.25
449.054	70.25
449.833	81.25
450.612	85.25
451.391	91.25
452.169	104.25
452.948	107.25
453.726	119.25
454.504	137.25
455.282	147.25
456.061	161.25
456.839	185.25
457.617	206.25
458.395	225.25
459.172	260.25
459.95	281.25
460.728	318.25
461.506	345.25
462.283	390.25
463.061	446.25
463.838	499.25
464.615	549.25
465.393	609.25
466.17	682.25
466.947	756.25
467.724	848.25
468.501	933.25
469.278	1047.25
470.055	1158.25
470.831	1288.25
471.608	1417.25
472.385	1580.25
473.161	1752.25
473.938	1921.25
474.714	2169.25
475.49	2381.25
476.266	2613.25
477.043	2887.25
477.819	3193.25
478.595	3514.25
479.371	3862.25
480.146	4247.25
480.922	4645.25
481.698	5111.25
482.473	5598.25
483.249	6134.25
484.024	6784.25
484.8	7427.25
485.575	8059.25
486.35	8845.25
487.126	9624.25
487.901	10542.25
488.676	11481.25
489.451	12453.25
490.225	13555.25
491	14792.25
491.775	16015.25
492.55	17220.25
493.324	18578.25
494.099	19833.25
494.873	21291.25
495.647	22743.25
496.422	24187.25
497.196	25604.25
497.97	27137.25
498.744	28555.25
499.518	29934.25
500.292	31128.25
501.066	32248.25
501.839	33348.25
502.613	34384.25
503.387	34988.25
504.16	35377.25
504.934	35655.25
505.707	35679.25
506.48	35540.25
507.253	35164.25
508.027	34812.25
508.8	34188.25
509.573	33488.25
510.346	32556.25
511.118	31583.25
511.891	30570.25
512.664	29408.25
513.437	28218.25
514.209	27020.25
514.982	26130.25
515.754	25016.25
516.526	23947.25
517.298	22932.25
518.071	21957.25
518.843	21023.25
519.615	20218.25
520.387	19345.25
521.159	18662.25
521.93	17898.25
522.702	17186.25
523.474	16521.25
524.245	15922.25
525.017	15119.25
525.788	14352.25
526.56	13761.25
527.331	13163.25
528.102	12546.25
528.873	11951.25
529.644	11305.25
530.415	10821.25
531.186	10293.25
531.957	9759.25
532.728	9230.25
533.498	8709.25
534.269	8241.25
535.039	7758.25
535.81	7386.25
536.58	6965.25
537.351	6577.25
538.121	6174.25
538.891	5854.25
539.661	5581.25
540.431	5271.25
541.201	5014.25
541.971	4724.25
542.741	4493.25
543.51	4263.25
544.28	4071.25
545.05	3853.25
545.819	3677.25
546.588	3476.25
547.358	3296.25
548.127	3139.25
548.896	2955.25
549.665	2825.25
550.434	2675.25
551.203	2545.25
551.972	2404.25
552.741	2267.25
553.51	2138.25
554.278	2028.25
555.047	1910.25
555.815	1795.25
556.584	1698.25
557.352	1613.25
558.121	1525.25
558.889	1421.25
559.657	1348.25
560.425	1273.25
561.193	1207.25
561.961	1158.25
562.729	1087.25
563.496	1029.25
564.264	964.25
565.032	902.25
565.799	864.25
566.567	815.25
567.334	776.25
568.101	738.25
568.869	689.25
569.636	651.25
570.403	613.25
571.17	579.25
571.937	549.25
572.704	522.25
573.471	488.25
574.237	461.25
575.004	430.25
575.771	401.25
576.537	380.25
577.303	363.25
578.07	338.25
578.836	322.25
579.602	301.25
580.368	292.25
581.134	275.25
581.9	257.25
582.666	240.25
583.432	232.25
584.198	220.25
584.964	213.25
585.729	203.25
586.495	189.25
587.26	179.25
588.025	169.25
588.791	163.25
589.556	156.25
590.321	145.25
591.086	135.25
591.851	131.25
592.616	121.25
593.381	120.25
594.146	113.25
594.911	104.25
595.675	103.25
596.44	100.25
597.204	94.25
597.969	89.25
598.733	88.25
599.497	82.25
600.261	78.25
601.025	78.25
601.79	72.25
602.553	70.25
603.317	64.25
604.081	62.25
604.845	59.25
605.609	58.25
606.372	52.25
607.136	54.25
607.899	48.25
608.662	50.25
609.426	44.25
610.189	48.25
610.952	44.25
611.715	43.25
612.478	41.25
613.241	40.25
614.004	36.25
614.767	38.25
615.529	35.25
616.292	32.25
617.055	33.25
617.817	28.25
618.579	33.25
619.342	32.25
620.104	30.25
620.866	30.25
621.628	25.25
622.39	25.25
623.152	24.25
623.914	26.25
624.676	22.25
625.438	21.25
626.199	20.25
626.961	17.25
627.722	21.25
628.484	21.25
629.245	19.25
630.006	18.25
630.768	17.25
631.529	14.25
632.29	18.25
633.051	15.25
633.812	17.25
634.573	16.25
635.333	15.25
636.094	16.25
636.855	15.25
637.615	13.25
638.376	14.25
639.136	15.25
639.896	14.25
640.657	13.25
641.417	14.25
642.177	13.25
642.937	11.25
643.697	13.25
644.457	12.25
645.216	9.25
645.976	13.25
646.736	9.25
647.495	10.25
648.255	9.25
649.014	11.25
649.774	10.25
650.533	7.25
651.292	10.25
652.051	8.25
652.81	8.25
653.569	10.25
654.328	8.25
655.087	9.25
655.846	9.25
656.604	7.25
657.363	9.25
658.121	8.25
658.88	10.25
659.638	9.25
660.397	9.25
661.155	6.25
661.913	8.25
662.671	8.25
663.429	7.25
664.187	10.25
664.945	9.25
665.703	7.25
666.46	9.25
667.218	7.25
667.976	8.25
668.733	5.25
669.49	7.25
670.248	6.25
671.005	5.25
671.762	6.25
672.519	6.25
673.276	6.25
674.033	8.25
674.79	4.25
675.547	6.25
676.304	7.25
677.06	5.25
677.817	5.25
678.574	6.25
679.33	4.25
680.086	6.25
680.843	6.25
681.599	4.25
682.355	6.25
683.111	5.25
683.867	6.25
684.623	7.25
685.379	7.25
686.135	7.25
686.89	5.25
687.646	6.25
688.402	6.25
689.157	4.25
689.912	6.25
690.668	4.25
691.423	5.25
692.178	6.25
692.933	4.25
693.688	8.25
694.443	7.25
695.198	4.25
695.953	3.25
696.708	5.25
697.462	6.25
698.217	5.25
698.972	5.25
699.726	3.25
700.48	7.25
701.235	4.25
701.989	6.25
702.743	6.25
703.497	6.25
704.251	5.25
705.005	3.25
705.759	6.25
706.513	6.25
707.266	6.25
708.02	3.25
708.774	4.25
709.527	5.25
710.28	5.25
711.034	2.25
711.787	7.25
712.54	4.25
713.293	5.25
714.046	2.25
714.799	5.25
715.552	4.25
716.305	6.25
717.058	6.25
717.81	6.25
718.563	7.25
719.315	6.25
720.068	8.25
720.82	4.25
721.573	4.25
722.325	5.25
723.077	1.25
723.829	6.25
724.581	4.25
725.333	5.25
726.085	6.25
726.836	4.25
727.588	5.25
728.34	7.25
729.091	6.25
729.843	4.25
730.594	6.25
731.346	4.25
732.097	3.25
732.848	5.25
733.599	8.25
734.35	6.25
735.101	5.25
735.852	6.25
736.603	7.25
737.354	7.25
738.104	4.25
738.855	6.25
739.605	6.25
740.356	7.25
741.106	6.25
741.856	6.25
742.607	8.25
743.357	8.25
744.107	5.25
744.857	7.25
745.607	9.25
746.357	6.25
747.106	9.25
747.856	8.25
748.606	5.25
749.355	8.25
750.105	6.25
750.854	9.25
751.603	5.25
752.353	9.25
753.102	8.25
753.851	6.25
754.6	8.25
755.349	7.25
756.098	6.25
756.847	8.25
757.595	8.25
758.344	7.25
759.093	8.25
759.841	6.25
760.589	9.25
761.338	9.25
762.086	9.25
762.834	6.25
763.582	10.25
764.331	7.25
765.079	10.25
765.826	8.25
766.574	6.25
767.322	9.25
768.07	9.25
768.817	12.25
769.565	12.25
770.312	10.25
771.06	9.25
771.807	11.25
772.554	11.25
773.302	10.25
774.049	10.25
774.796	10.25
775.543	8.25
776.29	13.25
777.036	10.25
777.783	11.25
778.53	11.25
779.276	11.25
780.023	11.25
780.769	12.25
781.516	13.25
782.262	12.25
783.008	9.25
783.754	10.25
784.5	13.25
785.246	11.25
785.992	10.25
786.738	13.25
787.484	10.25
788.23	10.25
788.975	10.25
789.721	11.25
790.466	12.25
791.212	8.25
791.957	10.25
792.702	12.25
793.447	9.25
794.193	11.25
794.938	11.25
795.683	11.25
796.427	12.25
797.172	10.25
797.917	12.25
798.662	10.25
799.406	13.25
800.151	10.25
800.895	10.25
801.64	8.25
802.384	10.25
803.128	9.25
803.872	8.25
804.616	10.25
805.36	7.25
806.104	5.25
806.848	9.25
807.592	7.25
808.336	9.25
809.079	7.25
809.823	6.25
810.566	9.25
811.31	6.25
812.053	8.25
812.796	6.25
813.539	8.25
814.283	7.25
815.026	6.25
815.769	9.25
816.511	8.25
817.254	6.25
817.997	7.25
818.74	7.25
819.482	5.25
820.225	8.25
820.967	6.25
821.71	3.25
822.452	8.25
823.194	6.25
823.936	7.25
824.678	4.25
825.42	3.25
826.162	6.25
826.904	8.25
827.646	5.25
828.388	7.25
829.129	4.25
829.871	6.25
830.612	6.25
831.354	5.25
832.095	4.25
832.836	6.25
833.577	3.25
834.319	4.25
835.06	7.25
835.801	3.25
836.542	4.25
837.282	6.25
838.023	2.25
838.764	2.25
839.504	3.25
840.245	4.25
840.985	3.25
841.726	4.25
842.466	5.25
843.206	4.25
843.946	3.25
844.687	4.25
845.427	5.25
846.166	3.25
846.906	2.25
847.646	5.25
848.386	4.25
849.125	4.25
849.865	4.25
850.605	4.25
851.344	4.25
852.083	4.25
852.823	4.25
853.562	0.25
854.301	4.25
855.04	4.25
855.779	1.25
856.518	4.25
857.257	1.25
857.995	4.25
858.734	4.25
859.473	2.25
860.211	1.25
860.95	3.25
861.688	3.25
862.426	2.25
863.165	5.25
863.903	0.25
864.641	3.25
865.379	2.25
866.117	3.25
866.855	2.25
867.593	2.25
868.33	1.25
869.068	1.25
869.806	5.25
870.543	2.25
871.28	2.25
872.018	2.25
872.755	1.25
873.492	3.25
874.229	-0.75
874.967	1.25
875.703	4.25
876.44	2.25
877.177	1.25
877.914	-0.75
878.651	0.25
879.387	3.25
880.124	2.25
880.86	1.25
881.597	1.25
882.333	1.25
883.069	2.25
883.806	0.25
884.542	1.25
885.278	1.25
886.014	0.25
886.749	1.25
887.485	2.25
888.221	1.25
888.957	2.25
889.692	0.25
890.428	3.25
891.163	-1.75
891.899	1.25
892.634	-1.75
893.369	0.25
894.104	0.25
894.839	0.25
895.574	1.25
896.309	-0.75
897.044	2.25
897.779	-1.75
898.514	2.25
899.248	0.25
899.983	1.25
900.717	1.25
901.452	0.25
902.186	0.25
902.92	-0.75
903.654	0.25
904.389	1.25
905.123	0.25
905.857	2.25
906.59	0.25
907.324	1.25
908.058	-0.75
908.792	-0.75
909.525	0.25
910.259	-0.75
910.992	0.25
911.726	0.25
912.459	-0.75
913.192	2.25
913.925	-0.75
914.658	0.25
915.391	0.25
916.124	1.25
916.857	-0.75
917.59	-0.75
918.323	1.25
919.055	1.25
919.788	3.25
920.521	0.25
921.253	1.25
921.985	1.25
922.718	-0.75
923.45	2.25
924.182	0.25
924.914	0.25
925.646	0.25
926.378	1.25
927.11	0.25
927.841	0.25
928.573	1.25
929.305	0.25
930.036	1.25
930.768	1.25
931.499	-0.75
932.23	0.25
932.962	-0.75
933.693	-0.75
934.424	2.25
935.155	0.25
935.886	1.25
936.617	-1.75
937.348	0.25
938.078	-1.75
938.809	-0.75
939.54	1.25
940.27	-1.75
941.001	-1.75
941.731	0.25
942.461	1.25
943.191	0.25
943.922	0.25
944.652	0.25
945.382	2.25
946.112	-1.75
946.841	1.25
947.571	-0.75
948.301	3.25
949.031	2.25
949.76	-0.75
950.49	0.25
951.219	0.25
951.948	0.25
952.678	0.25
953.407	0.25
954.136	-0.75
954.865	0.25
955.594	2.25
956.323	1.25
957.052	-0.75
957.78	-0.75
958.509	0.25
959.238	0.25
959.966	1.25
960.695	-0.75
961.423	0.25
962.151	0.25
962.88	-0.75
963.608	0.25
964.336	-0.75
965.064	0.25
965.792	3.25
966.52	-0.75
967.247	2.25
967.975	2.25
968.703	2.25
969.43	0.25
970.158	1.25
970.885	0.25
971.613	1.25
972.34	1.25
973.067	-1.75
973.794	0.25
974.521	2.25
975.248	0.25
975.975	0.25
976.702	-0.75
977.429	1.25
978.156	-0.75
978.882	0.25
979.609	2.25
980.335	0.25
981.062	1.25
981.788	1.25
982.514	-0.75
983.24	-0.75
983.967	-0.75
984.693	0.25
985.419	-1.75
986.144	0.25
986.87	-0.75
987.596	-1.75
988.322	0.25
989.047	1.25
989.773	2.25
990.498	-0.75
991.224	1.25
991.949	3.25
992.674	3.25
993.399	2.25
994.124	0.25
994.849	-0.75
995.574	0.25
996.299	0.25
997.024	-0.75
997.749	4.25
998.473	-1.75
999.198	0.25
999.922	2.25
1000.647	1.25
1001.371	3.25
1002.095	-1.75
1002.82	-0.75
1003.544	0.25
1004.268	1.25
1004.992	0.25
1005.716	4.25
1006.439	1.25
1007.163	3.25
1007.887	2.25
1008.611	-1.75
1009.334	0.25
1010.058	-1.75
1010.781	1.25
1011.504	-0.75
1012.228	0.25
1012.951	0.25
1013.674	-1.75
1014.397	0.25
1015.12	0.25
