节点500_425_QEPB04081__126__15-50-24-293.txt的数据

Date: Wed Nov 12 15:50:24 CST 2025
User: PC
Spectrometer: QEPB0408
触发模式: 0
积分时间 (秒): 1.000000E-2
Scans to average: 1
启用暗噪声校正: true
启用非线性校正: false
滑动平均宽度: 0
X轴模式: Wavelengths
Number of Pixels in Spectrum: 1044
>>>>>Begin Spectral Data<<<<<
220.843	2.75
221.644	2.75
222.444	3.75
223.244	3.75
224.045	5.75
224.845	3.75
225.645	2.75
226.445	3.75
227.245	1.75
228.045	-0.25
228.845	4.75
229.645	3.75
230.444	2.75
231.244	2.75
232.043	4.75
232.843	4.75
233.642	5.75
234.442	5.75
235.241	3.75
236.04	5.75
236.839	5.75
237.638	2.75
238.437	6.75
239.236	5.75
240.035	2.75
240.833	5.75
241.632	7.75
242.43	3.75
243.229	7.75
244.027	7.75
244.826	8.75
245.624	7.75
246.422	9.75
247.22	11.75
248.018	7.75
248.816	9.75
249.614	9.75
250.412	11.75
251.21	11.75
252.007	10.75
252.805	9.75
253.602	9.75
254.4	10.75
255.197	10.75
255.994	12.75
256.791	13.75
257.589	12.75
258.386	13.75
259.183	13.75
259.979	14.75
260.776	13.75
261.573	15.75
262.37	16.75
263.166	13.75
263.963	16.75
264.759	17.75
265.556	16.75
266.352	21.75
267.148	20.75
267.944	18.75
268.74	21.75
269.536	24.75
270.332	21.75
271.128	22.75
271.924	19.75
272.719	22.75
273.515	25.75
274.311	25.75
275.106	19.75
275.901	25.75
276.697	25.75
277.492	24.75
278.287	25.75
279.082	23.75
279.877	25.75
280.672	27.75
281.467	24.75
282.262	25.75
283.056	24.75
283.851	23.75
284.646	21.75
285.44	26.75
286.234	25.75
287.029	26.75
287.823	22.75
288.617	26.75
289.411	25.75
290.205	22.75
290.999	25.75
291.793	21.75
292.587	24.75
293.381	21.75
294.174	23.75
294.968	22.75
295.761	20.75
296.555	23.75
297.348	19.75
298.141	21.75
298.935	18.75
299.728	16.75
300.521	19.75
301.314	15.75
302.107	17.75
302.899	15.75
303.692	14.75
304.485	14.75
305.277	15.75
306.07	16.75
306.862	19.75
307.655	16.75
308.447	15.75
309.239	12.75
310.031	13.75
310.823	12.75
311.615	13.75
312.407	11.75
313.199	11.75
313.991	9.75
314.783	10.75
315.574	11.75
316.366	13.75
317.157	9.75
317.949	12.75
318.74	9.75
319.531	10.75
320.322	9.75
321.113	12.75
321.904	9.75
322.695	6.75
323.486	7.75
324.277	8.75
325.068	9.75
325.858	8.75
326.649	9.75
327.439	7.75
328.23	8.75
329.02	7.75
329.81	8.75
330.6	6.75
331.391	5.75
332.181	7.75
332.971	7.75
333.76	7.75
334.55	8.75
335.34	9.75
336.13	9.75
336.919	6.75
337.709	8.75
338.498	9.75
339.287	7.75
340.077	8.75
340.866	8.75
341.655	8.75
342.444	6.75
343.233	7.75
344.022	6.75
344.811	6.75
345.6	6.75
346.388	6.75
347.177	8.75
347.965	8.75
348.754	6.75
349.542	9.75
350.33	5.75
351.119	7.75
351.907	7.75
352.695	8.75
353.483	8.75
354.271	7.75
355.059	6.75
355.846	6.75
356.634	6.75
357.422	6.75
358.209	8.75
358.997	7.75
359.784	5.75
360.571	7.75
361.359	4.75
362.146	5.75
362.933	4.75
363.72	6.75
364.507	5.75
365.294	5.75
366.081	6.75
366.867	6.75
367.654	5.75
368.44	6.75
369.227	4.75
370.013	6.75
370.8	5.75
371.586	6.75
372.372	7.75
373.158	5.75
373.944	8.75
374.73	5.75
375.516	8.75
376.302	5.75
377.088	6.75
377.873	6.75
378.659	4.75
379.445	4.75
380.23	9.75
381.015	6.75
381.801	6.75
382.586	7.75
383.371	8.75
384.156	9.75
384.941	9.75
385.726	6.75
386.511	6.75
387.296	9.75
388.08	9.75
388.865	8.75
389.649	8.75
390.434	4.75
391.218	9.75
392.003	7.75
392.787	6.75
393.571	9.75
394.355	6.75
395.139	7.75
395.923	8.75
396.707	7.75
397.491	8.75
398.274	9.75
399.058	7.75
399.842	9.75
400.625	8.75
401.408	8.75
402.192	10.75
402.975	9.75
403.758	9.75
404.541	9.75
405.324	7.75
406.107	10.75
406.89	10.75
407.673	12.75
408.456	11.75
409.238	9.75
410.021	11.75
410.803	11.75
411.586	9.75
412.368	10.75
413.151	10.75
413.933	9.75
414.715	13.75
415.497	13.75
416.279	9.75
417.061	12.75
417.843	13.75
418.624	14.75
419.406	14.75
420.188	9.75
420.969	13.75
421.751	15.75
422.532	14.75
423.313	15.75
424.095	15.75
424.876	15.75
425.657	15.75
426.438	12.75
427.219	15.75
428	19.75
428.78	15.75
429.561	19.75
430.342	16.75
431.122	18.75
431.903	18.75
432.683	23.75
433.464	21.75
434.244	25.75
435.024	22.75
435.804	22.75
436.584	28.75
437.364	28.75
438.144	29.75
438.924	31.75
439.704	34.75
440.483	30.75
441.263	35.75
442.042	34.75
442.822	40.75
443.601	41.75
444.38	41.75
445.16	50.75
445.939	50.75
446.718	53.75
447.497	57.75
448.276	65.75
449.054	69.75
449.833	73.75
450.612	79.75
451.391	88.75
452.169	94.75
452.948	107.75
453.726	117.75
454.504	130.75
455.282	146.75
456.061	161.75
456.839	172.75
457.617	185.75
458.395	214.75
459.172	240.75
459.95	267.75
460.728	308.75
461.506	333.75
462.283	376.75
463.061	425.75
463.838	473.75
464.615	526.75
465.393	596.75
466.17	660.75
466.947	744.75
467.724	819.75
468.501	921.75
469.278	1011.75
470.055	1150.75
470.831	1267.75
471.608	1410.75
472.385	1565.75
473.161	1752.75
473.938	1943.75
474.714	2132.75
475.49	2372.75
476.266	2618.75
477.043	2897.75
477.819	3198.75
478.595	3559.75
479.371	3923.75
480.146	4287.75
480.922	4705.75
481.698	5203.75
482.473	5755.75
483.249	6272.75
484.024	6947.75
484.8	7654.75
485.575	8307.75
486.35	9124.75
487.126	9972.75
487.901	10934.75
488.676	11960.75
489.451	13001.75
490.225	14146.75
491	15430.75
491.775	16687.75
492.55	18045.75
493.324	19453.75
494.099	20929.75
494.873	22334.75
495.647	23920.75
496.422	25321.75
497.196	26887.75
497.97	28508.75
498.744	29948.75
499.518	31317.75
500.292	32559.75
501.066	33699.75
501.839	34805.75
502.613	35584.75
503.387	36237.75
504.16	36608.75
504.934	36737.75
505.707	36732.75
506.48	36425.75
507.253	36093.75
508.027	35472.75
508.8	34742.75
509.573	33840.75
510.346	32899.75
511.118	31856.75
511.891	30720.75
512.664	29464.75
513.437	28288.75
514.209	27069.75
514.982	26059.75
515.754	24910.75
516.526	23733.75
517.298	22787.75
518.071	21814.75
518.843	20893.75
519.615	20036.75
520.387	19250.75
521.159	18536.75
521.93	17827.75
522.702	17055.75
523.474	16450.75
524.245	15759.75
525.017	15040.75
525.788	14307.75
526.56	13674.75
527.331	13019.75
528.102	12376.75
528.873	11784.75
529.644	11228.75
530.415	10681.75
531.186	10132.75
531.957	9565.75
532.728	9087.75
533.498	8599.75
534.269	8065.75
535.039	7621.75
535.81	7191.75
536.58	6810.75
537.351	6420.75
538.121	6032.75
538.891	5731.75
539.661	5456.75
540.431	5153.75
541.201	4906.75
541.971	4649.75
542.741	4397.75
543.51	4167.75
544.28	3963.75
545.05	3781.75
545.819	3609.75
546.588	3407.75
547.358	3238.75
548.127	3064.75
548.896	2915.75
549.665	2767.75
550.434	2621.75
551.203	2475.75
551.972	2351.75
552.741	2209.75
553.51	2090.75
554.278	1980.75
555.047	1851.75
555.815	1736.75
556.584	1669.75
557.352	1561.75
558.121	1471.75
558.889	1378.75
559.657	1301.75
560.425	1237.75
561.193	1175.75
561.961	1102.75
562.729	1042.75
563.496	991.75
564.264	941.75
565.032	886.75
565.799	837.75
566.567	800.75
567.334	739.75
568.101	715.75
568.869	669.75
569.636	642.75
570.403	590.75
571.17	567.75
571.937	533.75
572.704	493.75
573.471	476.75
574.237	449.75
575.004	429.75
575.771	391.75
576.537	376.75
577.303	345.75
578.07	333.75
578.836	309.75
579.602	301.75
580.368	281.75
581.134	268.75
581.9	245.75
582.666	239.75
583.432	227.75
584.198	210.75
584.964	198.75
585.729	195.75
586.495	186.75
587.26	175.75
588.025	164.75
588.791	157.75
589.556	151.75
590.321	141.75
591.086	128.75
591.851	125.75
592.616	120.75
593.381	117.75
594.146	108.75
594.911	103.75
595.675	99.75
596.44	92.75
597.204	91.75
597.969	89.75
598.733	86.75
599.497	77.75
600.261	77.75
601.025	71.75
601.79	66.75
602.553	60.75
603.317	62.75
604.081	60.75
604.845	60.75
605.609	54.75
606.372	54.75
607.136	52.75
607.899	50.75
608.662	49.75
609.426	46.75
610.189	41.75
610.952	45.75
611.715	40.75
612.478	38.75
613.241	36.75
614.004	36.75
614.767	36.75
615.529	34.75
616.292	30.75
617.055	32.75
617.817	32.75
618.579	28.75
619.342	29.75
620.104	25.75
620.866	29.75
621.628	24.75
622.39	23.75
623.152	25.75
623.914	23.75
624.676	23.75
625.438	23.75
626.199	21.75
626.961	21.75
627.722	17.75
628.484	16.75
629.245	17.75
630.006	19.75
630.768	15.75
631.529	12.75
632.29	15.75
633.051	17.75
633.812	19.75
634.573	15.75
635.333	16.75
636.094	14.75
636.855	14.75
637.615	13.75
638.376	12.75
639.136	13.75
639.896	13.75
640.657	10.75
641.417	10.75
642.177	8.75
642.937	12.75
643.697	9.75
644.457	11.75
645.216	10.75
645.976	11.75
646.736	12.75
647.495	9.75
648.255	11.75
649.014	9.75
649.774	8.75
650.533	7.75
651.292	7.75
652.051	11.75
652.81	7.75
653.569	6.75
654.328	10.75
655.087	6.75
655.846	6.75
656.604	5.75
657.363	8.75
658.121	8.75
658.88	7.75
659.638	6.75
660.397	7.75
661.155	8.75
661.913	7.75
662.671	8.75
663.429	6.75
664.187	5.75
664.945	5.75
665.703	5.75
666.46	6.75
667.218	6.75
667.976	6.75
668.733	5.75
669.49	5.75
670.248	4.75
671.005	5.75
671.762	7.75
672.519	5.75
673.276	4.75
674.033	5.75
674.79	4.75
675.547	7.75
676.304	4.75
677.06	6.75
677.817	3.75
678.574	4.75
679.33	4.75
680.086	3.75
680.843	4.75
681.599	3.75
682.355	6.75
683.111	6.75
683.867	4.75
684.623	5.75
685.379	3.75
686.135	5.75
686.89	4.75
687.646	1.75
688.402	5.75
689.157	5.75
689.912	5.75
690.668	5.75
691.423	3.75
692.178	4.75
692.933	6.75
693.688	4.75
694.443	5.75
695.198	4.75
695.953	4.75
696.708	4.75
697.462	6.75
698.217	2.75
698.972	2.75
699.726	3.75
700.48	6.75
701.235	5.75
701.989	2.75
702.743	3.75
703.497	3.75
704.251	4.75
705.005	4.75
705.759	5.75
706.513	2.75
707.266	5.75
708.02	8.75
708.774	3.75
709.527	3.75
710.28	4.75
711.034	3.75
711.787	4.75
712.54	3.75
713.293	5.75
714.046	2.75
714.799	5.75
715.552	5.75
716.305	2.75
717.058	2.75
717.81	3.75
718.563	4.75
719.315	5.75
720.068	5.75
720.82	5.75
721.573	3.75
722.325	3.75
723.077	5.75
723.829	7.75
724.581	4.75
725.333	4.75
726.085	7.75
726.836	6.75
727.588	6.75
728.34	6.75
729.091	3.75
729.843	4.75
730.594	5.75
731.346	5.75
732.097	4.75
732.848	8.75
733.599	4.75
734.35	4.75
735.101	6.75
735.852	4.75
736.603	4.75
737.354	7.75
738.104	7.75
738.855	5.75
739.605	3.75
740.356	5.75
741.106	6.75
741.856	6.75
742.607	5.75
743.357	6.75
744.107	8.75
744.857	5.75
745.607	5.75
746.357	6.75
747.106	7.75
747.856	5.75
748.606	7.75
749.355	8.75
750.105	5.75
750.854	9.75
751.603	5.75
752.353	8.75
753.102	8.75
753.851	9.75
754.6	8.75
755.349	6.75
756.098	6.75
756.847	9.75
757.595	7.75
758.344	7.75
759.093	7.75
759.841	8.75
760.589	7.75
761.338	8.75
762.086	8.75
762.834	8.75
763.582	8.75
764.331	9.75
765.079	7.75
765.826	9.75
766.574	10.75
767.322	9.75
768.07	7.75
768.817	11.75
769.565	7.75
770.312	12.75
771.06	9.75
771.807	8.75
772.554	11.75
773.302	9.75
774.049	9.75
774.796	13.75
775.543	8.75
776.29	8.75
777.036	6.75
777.783	11.75
778.53	9.75
779.276	12.75
780.023	11.75
780.769	8.75
781.516	12.75
782.262	12.75
783.008	9.75
783.754	11.75
784.5	11.75
785.246	12.75
785.992	9.75
786.738	10.75
787.484	9.75
788.23	12.75
788.975	13.75
789.721	12.75
790.466	11.75
791.212	13.75
791.957	9.75
792.702	13.75
793.447	10.75
794.193	10.75
794.938	9.75
795.683	9.75
796.427	10.75
797.172	10.75
797.917	8.75
798.662	8.75
799.406	10.75
800.151	8.75
800.895	10.75
801.64	10.75
802.384	7.75
803.128	11.75
803.872	8.75
804.616	7.75
805.36	8.75
806.104	9.75
806.848	6.75
807.592	4.75
808.336	6.75
809.079	7.75
809.823	4.75
810.566	7.75
811.31	5.75
812.053	6.75
812.796	5.75
813.539	9.75
814.283	6.75
815.026	7.75
815.769	6.75
816.511	4.75
817.254	5.75
817.997	5.75
818.74	6.75
819.482	6.75
820.225	4.75
820.967	4.75
821.71	4.75
822.452	5.75
823.194	5.75
823.936	3.75
824.678	3.75
825.42	5.75
826.162	6.75
826.904	3.75
827.646	4.75
828.388	4.75
829.129	3.75
829.871	5.75
830.612	1.75
831.354	4.75
832.095	4.75
832.836	3.75
833.577	3.75
834.319	1.75
835.06	1.75
835.801	4.75
836.542	6.75
837.282	4.75
838.023	6.75
838.764	3.75
839.504	3.75
840.245	3.75
840.985	1.75
841.726	4.75
842.466	3.75
843.206	1.75
843.946	3.75
844.687	1.75
845.427	4.75
846.166	4.75
846.906	2.75
847.646	1.75
848.386	3.75
849.125	3.75
849.865	0.75
850.605	4.75
851.344	1.75
852.083	3.75
852.823	3.75
853.562	0.75
854.301	3.75
855.04	3.75
855.779	1.75
856.518	3.75
857.257	0.75
857.995	3.75
858.734	1.75
859.473	1.75
860.211	2.75
860.95	2.75
861.688	0.75
862.426	5.75
863.165	1.75
863.903	1.75
864.641	-0.25
865.379	1.75
866.117	1.75
866.855	4.75
867.593	1.75
868.33	2.75
869.068	0.75
869.806	1.75
870.543	2.75
871.28	1.75
872.018	-0.25
872.755	1.75
873.492	0.75
874.229	2.75
874.967	-0.25
875.703	0.75
876.44	-0.25
877.177	1.75
877.914	2.75
878.651	0.75
879.387	1.75
880.124	0.75
880.86	-0.25
881.597	0.75
882.333	1.75
883.069	1.75
883.806	-0.25
884.542	1.75
885.278	-0.25
886.014	1.75
886.749	1.75
887.485	2.75
888.221	1.75
888.957	-0.25
889.692	1.75
890.428	0.75
891.163	0.75
891.899	1.75
892.634	-1.25
893.369	0.75
894.104	-1.25
894.839	-0.25
895.574	-0.25
896.309	-0.25
897.044	0.75
897.779	0.75
898.514	1.75
899.248	-0.25
899.983	0.75
900.717	-2.25
901.452	-0.25
902.186	-0.25
902.92	0.75
903.654	-3.25
904.389	-0.25
905.123	0.75
905.857	-0.25
906.59	-0.25
907.324	0.75
908.058	-0.25
908.792	0.75
909.525	1.75
910.259	-0.25
910.992	1.75
911.726	-1.25
912.459	-0.25
913.192	0.75
913.925	0.75
914.658	0.75
915.391	1.75
916.124	0.75
916.857	-0.25
917.59	-0.25
918.323	-1.25
919.055	0.75
919.788	2.75
920.521	0.75
921.253	1.75
921.985	-1.25
922.718	0.75
923.45	2.75
924.182	2.75
924.914	-1.25
925.646	-1.25
926.378	-1.25
927.11	-1.25
927.841	0.75
928.573	-0.25
929.305	-0.25
930.036	0.75
930.768	-1.25
931.499	1.75
932.23	-1.25
932.962	-1.25
933.693	-0.25
934.424	-1.25
935.155	0.75
935.886	-0.25
936.617	1.75
937.348	-1.25
938.078	-0.25
938.809	-2.25
939.54	-2.25
940.27	1.75
941.001	-0.25
941.731	-0.25
942.461	-0.25
943.191	-0.25
943.922	1.75
944.652	-1.25
945.382	-0.25
946.112	0.75
946.841	1.75
947.571	1.75
948.301	0.75
949.031	0.75
949.76	-1.25
950.49	1.75
951.219	-0.25
951.948	0.75
952.678	-0.25
953.407	-1.25
954.136	0.75
954.865	-0.25
955.594	-1.25
956.323	0.75
957.052	-1.25
957.78	0.75
958.509	-0.25
959.238	-0.25
959.966	1.75
960.695	2.75
961.423	-0.25
962.151	-1.25
962.88	1.75
963.608	-0.25
964.336	-1.25
965.064	-0.25
965.792	-2.25
966.52	-0.25
967.247	-1.25
967.975	-0.25
968.703	-1.25
969.43	1.75
970.158	-0.25
970.885	-1.25
971.613	-0.25
972.34	-1.25
973.067	-1.25
973.794	-0.25
974.521	-1.25
975.248	-1.25
975.975	-1.25
976.702	-2.25
977.429	0.75
978.156	0.75
978.882	-0.25
979.609	0.75
980.335	-1.25
981.062	0.75
981.788	-0.25
982.514	-0.25
983.24	1.75
983.967	-1.25
984.693	-1.25
985.419	0.75
986.144	0.75
986.87	-1.25
987.596	-2.25
988.322	-0.25
989.047	-0.25
989.773	-0.25
990.498	-0.25
991.224	-1.25
991.949	0.75
992.674	1.75
993.399	-2.25
994.124	0.75
994.849	0.75
995.574	0.75
996.299	-0.25
997.024	-0.25
997.749	-0.25
998.473	-0.25
999.198	-0.25
999.922	-0.25
1000.647	1.75
1001.371	3.75
1002.095	-4.25
1002.82	-1.25
1003.544	-0.25
1004.268	3.75
1004.992	1.75
1005.716	1.75
1006.439	2.75
1007.163	1.75
1007.887	3.75
1008.611	-0.25
1009.334	0.75
1010.058	-0.25
1010.781	-1.25
1011.504	-2.25
1012.228	-0.25
1012.951	0.75
1013.674	-1.25
1014.397	0.75
1015.12	1.75
