节点500_425_QEPB04081__376__15-54-33-730.txt的数据

Date: Wed Nov 12 15:54:33 CST 2025
User: PC
Spectrometer: QEPB0408
触发模式: 0
积分时间 (秒): 1.000000E-2
Scans to average: 1
启用暗噪声校正: true
启用非线性校正: false
滑动平均宽度: 0
X轴模式: Wavelengths
Number of Pixels in Spectrum: 1044
>>>>>Begin Spectral Data<<<<<
220.843	3.88
221.644	2.88
222.444	5.88
223.244	3.88
224.045	3.88
224.845	1.88
225.645	1.88
226.445	4.88
227.245	3.88
228.045	3.88
228.845	5.88
229.645	3.88
230.444	3.88
231.244	4.88
232.043	2.88
232.843	3.88
233.642	2.88
234.442	6.88
235.241	3.88
236.04	5.88
236.839	5.88
237.638	6.88
238.437	4.88
239.236	5.88
240.035	5.88
240.833	7.88
241.632	4.88
242.43	5.88
243.229	3.88
244.027	8.88
244.826	6.88
245.624	8.88
246.422	6.88
247.22	10.88
248.018	7.88
248.816	10.88
249.614	10.88
250.412	8.88
251.21	9.88
252.007	9.88
252.805	9.88
253.602	11.88
254.4	11.88
255.197	10.88
255.994	10.88
256.791	13.88
257.589	11.88
258.386	10.88
259.183	14.88
259.979	12.88
260.776	13.88
261.573	13.88
262.37	13.88
263.166	13.88
263.963	15.88
264.759	15.88
265.556	15.88
266.352	16.88
267.148	20.88
267.944	17.88
268.74	19.88
269.536	19.88
270.332	17.88
271.128	20.88
271.924	18.88
272.719	21.88
273.515	23.88
274.311	19.88
275.106	21.88
275.901	18.88
276.697	21.88
277.492	20.88
278.287	23.88
279.082	23.88
279.877	20.88
280.672	22.88
281.467	23.88
282.262	24.88
283.056	21.88
283.851	23.88
284.646	23.88
285.44	23.88
286.234	24.88
287.029	25.88
287.823	20.88
288.617	20.88
289.411	23.88
290.205	21.88
290.999	23.88
291.793	20.88
292.587	22.88
293.381	20.88
294.174	23.88
294.968	19.88
295.761	17.88
296.555	17.88
297.348	18.88
298.141	19.88
298.935	23.88
299.728	19.88
300.521	17.88
301.314	18.88
302.107	15.88
302.899	13.88
303.692	20.88
304.485	13.88
305.277	14.88
306.07	14.88
306.862	15.88
307.655	15.88
308.447	13.88
309.239	14.88
310.031	12.88
310.823	12.88
311.615	10.88
312.407	13.88
313.199	12.88
313.991	11.88
314.783	11.88
315.574	10.88
316.366	13.88
317.157	10.88
317.949	10.88
318.74	11.88
319.531	9.88
320.322	11.88
321.113	11.88
321.904	10.88
322.695	9.88
323.486	6.88
324.277	9.88
325.068	9.88
325.858	9.88
326.649	10.88
327.439	8.88
328.23	6.88
329.02	8.88
329.81	7.88
330.6	7.88
331.391	6.88
332.181	10.88
332.971	6.88
333.76	7.88
334.55	5.88
335.34	7.88
336.13	5.88
336.919	7.88
337.709	9.88
338.498	7.88
339.287	8.88
340.077	7.88
340.866	8.88
341.655	9.88
342.444	9.88
343.233	7.88
344.022	7.88
344.811	8.88
345.6	8.88
346.388	9.88
347.177	7.88
347.965	7.88
348.754	8.88
349.542	6.88
350.33	7.88
351.119	7.88
351.907	7.88
352.695	6.88
353.483	10.88
354.271	6.88
355.059	7.88
355.846	7.88
356.634	7.88
357.422	7.88
358.209	9.88
358.997	4.88
359.784	6.88
360.571	6.88
361.359	5.88
362.146	5.88
362.933	5.88
363.72	4.88
364.507	6.88
365.294	7.88
366.081	7.88
366.867	5.88
367.654	7.88
368.44	6.88
369.227	6.88
370.013	5.88
370.8	4.88
371.586	6.88
372.372	6.88
373.158	4.88
373.944	5.88
374.73	6.88
375.516	3.88
376.302	6.88
377.088	6.88
377.873	4.88
378.659	9.88
379.445	6.88
380.23	4.88
381.015	8.88
381.801	6.88
382.586	7.88
383.371	6.88
384.156	8.88
384.941	7.88
385.726	7.88
386.511	7.88
387.296	5.88
388.08	8.88
388.865	9.88
389.649	7.88
390.434	7.88
391.218	6.88
392.003	6.88
392.787	7.88
393.571	6.88
394.355	6.88
395.139	6.88
395.923	9.88
396.707	7.88
397.491	7.88
398.274	9.88
399.058	8.88
399.842	8.88
400.625	7.88
401.408	7.88
402.192	7.88
402.975	10.88
403.758	7.88
404.541	9.88
405.324	10.88
406.107	8.88
406.89	11.88
407.673	9.88
408.456	9.88
409.238	9.88
410.021	8.88
410.803	9.88
411.586	10.88
412.368	9.88
413.151	7.88
413.933	10.88
414.715	11.88
415.497	9.88
416.279	11.88
417.061	14.88
417.843	12.88
418.624	11.88
419.406	12.88
420.188	13.88
420.969	12.88
421.751	13.88
422.532	14.88
423.313	14.88
424.095	14.88
424.876	13.88
425.657	14.88
426.438	15.88
427.219	17.88
428	18.88
428.78	17.88
429.561	17.88
430.342	18.88
431.122	19.88
431.903	19.88
432.683	18.88
433.464	23.88
434.244	21.88
435.024	23.88
435.804	24.88
436.584	24.88
437.364	25.88
438.144	27.88
438.924	31.88
439.704	29.88
440.483	35.88
441.263	36.88
442.042	32.88
442.822	41.88
443.601	43.88
444.38	47.88
445.16	50.88
445.939	51.88
446.718	61.88
447.497	59.88
448.276	66.88
449.054	69.88
449.833	83.88
450.612	85.88
451.391	95.88
452.169	103.88
452.948	112.88
453.726	126.88
454.504	139.88
455.282	155.88
456.061	169.88
456.839	193.88
457.617	215.88
458.395	234.88
459.172	262.88
459.95	297.88
460.728	329.88
461.506	358.88
462.283	408.88
463.061	453.88
463.838	508.88
464.615	554.88
465.393	621.88
466.17	692.88
466.947	787.88
467.724	861.88
468.501	961.88
469.278	1062.88
470.055	1188.88
470.831	1308.88
471.608	1461.88
472.385	1606.88
473.161	1764.88
473.938	1952.88
474.714	2155.88
475.49	2367.88
476.266	2593.88
477.043	2871.88
477.819	3149.88
478.595	3477.88
479.371	3813.88
480.146	4192.88
480.922	4564.88
481.698	4988.88
482.473	5448.88
483.249	5971.88
484.024	6559.88
484.8	7170.88
485.575	7809.88
486.35	8503.88
487.126	9269.88
487.901	10040.88
488.676	10915.88
489.451	11866.88
490.225	12840.88
491	13990.88
491.775	15056.88
492.55	16207.88
493.324	17499.88
494.099	18768.88
494.873	19950.88
495.647	21343.88
496.422	22719.88
497.196	24128.88
497.97	25576.88
498.744	26963.88
499.518	28247.88
500.292	29461.88
501.066	30527.88
501.839	31713.88
502.613	32643.88
503.387	33402.88
504.16	33956.88
504.934	34340.88
505.707	34493.88
506.48	34425.88
507.253	34268.88
508.027	33959.88
508.8	33479.88
509.573	32887.88
510.346	32199.88
511.118	31256.88
511.891	30356.88
512.664	29233.88
513.437	28236.88
514.209	27127.88
514.982	26150.88
515.754	25085.88
516.526	24071.88
517.298	23102.88
518.071	22108.88
518.843	21141.88
519.615	20328.88
520.387	19531.88
521.159	18831.88
521.93	18031.88
522.702	17399.88
523.474	16657.88
524.245	15989.88
525.017	15335.88
525.788	14563.88
526.56	13945.88
527.331	13326.88
528.102	12705.88
528.873	12159.88
529.644	11556.88
530.415	11005.88
531.186	10502.88
531.957	9927.88
532.728	9439.88
533.498	8950.88
534.269	8422.88
535.039	7967.88
535.81	7555.88
536.58	7151.88
537.351	6746.88
538.121	6367.88
538.891	6025.88
539.661	5718.88
540.431	5454.88
541.201	5120.88
541.971	4861.88
542.741	4582.88
543.51	4393.88
544.28	4168.88
545.05	3957.88
545.819	3741.88
546.588	3592.88
547.358	3378.88
548.127	3217.88
548.896	3072.88
549.665	2916.88
550.434	2762.88
551.203	2624.88
551.972	2484.88
552.741	2340.88
553.51	2220.88
554.278	2090.88
555.047	1965.88
555.815	1867.88
556.584	1760.88
557.352	1669.88
558.121	1567.88
558.889	1480.88
559.657	1403.88
560.425	1321.88
561.193	1248.88
561.961	1189.88
562.729	1135.88
563.496	1048.88
564.264	1013.88
565.032	949.88
565.799	891.88
566.567	850.88
567.334	795.88
568.101	763.88
568.869	723.88
569.636	671.88
570.403	632.88
571.17	596.88
571.937	560.88
572.704	537.88
573.471	509.88
574.237	474.88
575.004	443.88
575.771	418.88
576.537	397.88
577.303	368.88
578.07	349.88
578.836	329.88
579.602	310.88
580.368	305.88
581.134	283.88
581.9	272.88
582.666	249.88
583.432	236.88
584.198	228.88
584.964	216.88
585.729	207.88
586.495	192.88
587.26	184.88
588.025	169.88
588.791	164.88
589.556	163.88
590.321	150.88
591.086	145.88
591.851	132.88
592.616	127.88
593.381	126.88
594.146	117.88
594.911	111.88
595.675	105.88
596.44	98.88
597.204	94.88
597.969	95.88
598.733	86.88
599.497	84.88
600.261	85.88
601.025	77.88
601.79	69.88
602.553	67.88
603.317	67.88
604.081	66.88
604.845	61.88
605.609	56.88
606.372	54.88
607.136	55.88
607.899	53.88
608.662	49.88
609.426	47.88
610.189	45.88
610.952	44.88
611.715	43.88
612.478	39.88
613.241	36.88
614.004	35.88
614.767	34.88
615.529	35.88
616.292	33.88
617.055	33.88
617.817	31.88
618.579	29.88
619.342	28.88
620.104	28.88
620.866	29.88
621.628	25.88
622.39	26.88
623.152	25.88
623.914	23.88
624.676	24.88
625.438	21.88
626.199	21.88
626.961	23.88
627.722	20.88
628.484	17.88
629.245	18.88
630.006	17.88
630.768	16.88
631.529	17.88
632.29	18.88
633.051	18.88
633.812	13.88
634.573	13.88
635.333	14.88
636.094	13.88
636.855	12.88
637.615	14.88
638.376	12.88
639.136	12.88
639.896	10.88
640.657	12.88
641.417	13.88
642.177	13.88
642.937	11.88
643.697	11.88
644.457	11.88
645.216	9.88
645.976	10.88
646.736	11.88
647.495	9.88
648.255	11.88
649.014	8.88
649.774	7.88
650.533	10.88
651.292	9.88
652.051	9.88
652.81	7.88
653.569	6.88
654.328	7.88
655.087	9.88
655.846	8.88
656.604	6.88
657.363	8.88
658.121	6.88
658.88	8.88
659.638	7.88
660.397	8.88
661.155	7.88
661.913	6.88
662.671	9.88
663.429	6.88
664.187	7.88
664.945	4.88
665.703	5.88
666.46	7.88
667.218	4.88
667.976	5.88
668.733	3.88
669.49	5.88
670.248	6.88
671.005	5.88
671.762	6.88
672.519	2.88
673.276	6.88
674.033	3.88
674.79	5.88
675.547	5.88
676.304	5.88
677.06	8.88
677.817	6.88
678.574	4.88
679.33	4.88
680.086	3.88
680.843	5.88
681.599	6.88
682.355	5.88
683.111	4.88
683.867	4.88
684.623	1.88
685.379	4.88
686.135	5.88
686.89	6.88
687.646	4.88
688.402	3.88
689.157	5.88
689.912	3.88
690.668	4.88
691.423	5.88
692.178	5.88
692.933	2.88
693.688	6.88
694.443	4.88
695.198	5.88
695.953	3.88
696.708	7.88
697.462	5.88
698.217	4.88
698.972	4.88
699.726	5.88
700.48	5.88
701.235	3.88
701.989	4.88
702.743	4.88
703.497	3.88
704.251	5.88
705.005	5.88
705.759	3.88
706.513	6.88
707.266	3.88
708.02	3.88
708.774	3.88
709.527	3.88
710.28	3.88
711.034	4.88
711.787	3.88
712.54	3.88
713.293	3.88
714.046	4.88
714.799	5.88
715.552	3.88
716.305	4.88
717.058	4.88
717.81	3.88
718.563	2.88
719.315	5.88
720.068	4.88
720.82	6.88
721.573	2.88
722.325	4.88
723.077	5.88
723.829	5.88
724.581	6.88
725.333	5.88
726.085	1.88
726.836	5.88
727.588	5.88
728.34	6.88
729.091	2.88
729.843	5.88
730.594	4.88
731.346	4.88
732.097	3.88
732.848	4.88
733.599	4.88
734.35	6.88
735.101	6.88
735.852	6.88
736.603	4.88
737.354	6.88
738.104	5.88
738.855	5.88
739.605	7.88
740.356	4.88
741.106	3.88
741.856	7.88
742.607	3.88
743.357	7.88
744.107	5.88
744.857	5.88
745.607	7.88
746.357	4.88
747.106	7.88
747.856	5.88
748.606	5.88
749.355	6.88
750.105	7.88
750.854	4.88
751.603	6.88
752.353	5.88
753.102	7.88
753.851	4.88
754.6	8.88
755.349	5.88
756.098	7.88
756.847	6.88
757.595	8.88
758.344	5.88
759.093	8.88
759.841	5.88
760.589	7.88
761.338	9.88
762.086	7.88
762.834	7.88
763.582	7.88
764.331	6.88
765.079	8.88
765.826	7.88
766.574	7.88
767.322	9.88
768.07	10.88
768.817	9.88
769.565	5.88
770.312	9.88
771.06	9.88
771.807	7.88
772.554	8.88
773.302	10.88
774.049	9.88
774.796	11.88
775.543	9.88
776.29	9.88
777.036	9.88
777.783	10.88
778.53	11.88
779.276	13.88
780.023	10.88
780.769	11.88
781.516	9.88
782.262	8.88
783.008	9.88
783.754	11.88
784.5	7.88
785.246	10.88
785.992	7.88
786.738	11.88
787.484	8.88
788.23	11.88
788.975	11.88
789.721	8.88
790.466	9.88
791.212	8.88
791.957	10.88
792.702	13.88
793.447	10.88
794.193	9.88
794.938	10.88
795.683	11.88
796.427	7.88
797.172	8.88
797.917	8.88
798.662	9.88
799.406	8.88
800.151	9.88
800.895	7.88
801.64	7.88
802.384	7.88
803.128	8.88
803.872	7.88
804.616	8.88
805.36	6.88
806.104	10.88
806.848	5.88
807.592	6.88
808.336	5.88
809.079	6.88
809.823	6.88
810.566	8.88
811.31	6.88
812.053	7.88
812.796	6.88
813.539	4.88
814.283	5.88
815.026	7.88
815.769	4.88
816.511	4.88
817.254	4.88
817.997	4.88
818.74	6.88
819.482	3.88
820.225	5.88
820.967	7.88
821.71	5.88
822.452	6.88
823.194	3.88
823.936	7.88
824.678	3.88
825.42	3.88
826.162	2.88
826.904	6.88
827.646	2.88
828.388	4.88
829.129	4.88
829.871	4.88
830.612	5.88
831.354	2.88
832.095	4.88
832.836	4.88
833.577	3.88
834.319	3.88
835.06	1.88
835.801	3.88
836.542	3.88
837.282	3.88
838.023	1.88
838.764	2.88
839.504	3.88
840.245	2.88
840.985	1.88
841.726	4.88
842.466	2.88
843.206	6.88
843.946	3.88
844.687	2.88
845.427	1.88
846.166	3.88
846.906	3.88
847.646	1.88
848.386	3.88
849.125	1.88
849.865	1.88
850.605	4.88
851.344	3.88
852.083	3.88
852.823	2.88
853.562	0.88
854.301	1.88
855.04	2.88
855.779	4.88
856.518	0.88
857.257	1.88
857.995	1.88
858.734	-0.12
859.473	3.88
860.211	1.88
860.95	1.88
861.688	3.88
862.426	0.88
863.165	1.88
863.903	0.88
864.641	3.88
865.379	3.88
866.117	0.88
866.855	1.88
867.593	-0.12
868.33	3.88
869.068	1.88
869.806	0.88
870.543	2.88
871.28	1.88
872.018	-0.12
872.755	0.88
873.492	0.88
874.229	0.88
874.967	1.88
875.703	-0.12
876.44	0.88
877.177	1.88
877.914	1.88
878.651	-0.12
879.387	2.88
880.124	0.88
880.86	-2.12
881.597	0.88
882.333	-1.12
883.069	-0.12
883.806	0.88
884.542	-1.12
885.278	0.88
886.014	1.88
886.749	-0.12
887.485	0.88
888.221	0.88
888.957	-0.12
889.692	1.88
890.428	-2.12
891.163	1.88
891.899	-1.12
892.634	1.88
893.369	0.88
894.104	-0.12
894.839	-0.12
895.574	-1.12
896.309	0.88
897.044	1.88
897.779	-0.12
898.514	0.88
899.248	-0.12
899.983	0.88
900.717	1.88
901.452	1.88
902.186	-0.12
902.92	-0.12
903.654	0.88
904.389	-0.12
905.123	0.88
905.857	2.88
906.59	-2.12
907.324	-1.12
908.058	-1.12
908.792	0.88
909.525	-0.12
910.259	0.88
910.992	0.88
911.726	-1.12
912.459	0.88
913.192	0.88
913.925	1.88
914.658	2.88
915.391	0.88
916.124	0.88
916.857	0.88
917.59	-0.12
918.323	-0.12
919.055	1.88
919.788	0.88
920.521	-0.12
921.253	-0.12
921.985	0.88
922.718	-0.12
923.45	-1.12
924.182	1.88
924.914	-2.12
925.646	0.88
926.378	-0.12
927.11	-1.12
927.841	0.88
928.573	1.88
929.305	-0.12
930.036	0.88
930.768	-0.12
931.499	-0.12
932.23	-1.12
932.962	-1.12
933.693	0.88
934.424	0.88
935.155	1.88
935.886	0.88
936.617	-0.12
937.348	1.88
938.078	-1.12
938.809	-0.12
939.54	-0.12
940.27	-0.12
941.001	-0.12
941.731	-0.12
942.461	-0.12
943.191	-0.12
943.922	-0.12
944.652	-0.12
945.382	-2.12
946.112	-0.12
946.841	-1.12
947.571	-0.12
948.301	-0.12
949.031	0.88
949.76	-2.12
950.49	0.88
951.219	-1.12
951.948	-0.12
952.678	-0.12
953.407	-0.12
954.136	-1.12
954.865	-1.12
955.594	1.88
956.323	-0.12
957.052	1.88
957.78	-0.12
958.509	-2.12
959.238	0.88
959.966	-2.12
960.695	-2.12
961.423	-0.12
962.151	-1.12
962.88	0.88
963.608	-0.12
964.336	-0.12
965.064	2.88
965.792	-2.12
966.52	-2.12
967.247	1.88
967.975	-2.12
968.703	-1.12
969.43	0.88
970.158	1.88
970.885	-0.12
971.613	-0.12
972.34	0.88
973.067	-1.12
973.794	0.88
974.521	-0.12
975.248	0.88
975.975	-0.12
976.702	-1.12
977.429	-0.12
978.156	-0.12
978.882	1.88
979.609	-1.12
980.335	-0.12
981.062	-1.12
981.788	-1.12
982.514	0.88
983.24	-0.12
983.967	0.88
984.693	1.88
985.419	-0.12
986.144	1.88
986.87	-2.12
987.596	-0.12
988.322	-2.12
989.047	-1.12
989.773	0.88
990.498	0.88
991.224	-0.12
991.949	-0.12
992.674	-0.12
993.399	-1.12
994.124	-1.12
994.849	-2.12
995.574	-2.12
996.299	1.88
997.024	-0.12
997.749	2.88
998.473	-0.12
999.198	0.88
999.922	-0.12
1000.647	-2.12
1001.371	2.88
1002.095	0.88
1002.82	-0.12
1003.544	-2.12
1004.268	2.88
1004.992	1.88
1005.716	1.88
1006.439	1.88
1007.163	2.88
1007.887	1.88
1008.611	0.88
1009.334	-1.12
1010.058	-2.12
1010.781	0.88
1011.504	0.88
1012.228	1.88
1012.951	0.88
1013.674	-2.12
1014.397	-0.12
1015.12	-0.12
