节点500_425_QEPB04081__414__15-55-11-677.txt的数据

Date: Wed Nov 12 15:55:11 CST 2025
User: PC
Spectrometer: QEPB0408
触发模式: 0
积分时间 (秒): 1.000000E-2
Scans to average: 1
启用暗噪声校正: true
启用非线性校正: false
滑动平均宽度: 0
X轴模式: Wavelengths
Number of Pixels in Spectrum: 1044
>>>>>Begin Spectral Data<<<<<
220.843	5
221.644	1
222.444	4
223.244	6
224.045	5
224.845	3
225.645	4
226.445	3
227.245	3
228.045	3
228.845	4
229.645	2
230.444	5
231.244	4
232.043	2
232.843	2
233.642	7
234.442	4
235.241	3
236.04	5
236.839	6
237.638	6
238.437	4
239.236	7
240.035	7
240.833	6
241.632	8
242.43	8
243.229	6
244.027	7
244.826	9
245.624	9
246.422	8
247.22	7
248.018	10
248.816	8
249.614	10
250.412	9
251.21	8
252.007	7
252.805	9
253.602	8
254.4	10
255.197	9
255.994	10
256.791	11
257.589	13
258.386	12
259.183	15
259.979	13
260.776	13
261.573	13
262.37	17
263.166	13
263.963	16
264.759	14
265.556	17
266.352	17
267.148	16
267.944	19
268.74	17
269.536	18
270.332	18
271.128	19
271.924	20
272.719	21
273.515	21
274.311	18
275.106	22
275.901	20
276.697	22
277.492	22
278.287	24
279.082	24
279.877	23
280.672	20
281.467	27
282.262	24
283.056	23
283.851	24
284.646	24
285.44	22
286.234	22
287.029	22
287.823	24
288.617	23
289.411	24
290.205	22
290.999	21
291.793	19
292.587	22
293.381	23
294.174	20
294.968	20
295.761	19
296.555	19
297.348	20
298.141	18
298.935	20
299.728	17
300.521	18
301.314	16
302.107	17
302.899	17
303.692	16
304.485	15
305.277	16
306.07	15
306.862	20
307.655	14
308.447	17
309.239	13
310.031	12
310.823	16
311.615	15
312.407	13
313.199	13
313.991	13
314.783	12
315.574	13
316.366	10
317.157	11
317.949	11
318.74	10
319.531	10
320.322	10
321.113	11
321.904	10
322.695	11
323.486	9
324.277	11
325.068	7
325.858	9
326.649	9
327.439	11
328.23	9
329.02	10
329.81	6
330.6	9
331.391	9
332.181	9
332.971	10
333.76	7
334.55	10
335.34	8
336.13	6
336.919	9
337.709	8
338.498	8
339.287	7
340.077	6
340.866	8
341.655	9
342.444	9
343.233	6
344.022	8
344.811	6
345.6	8
346.388	8
347.177	8
347.965	8
348.754	5
349.542	9
350.33	10
351.119	5
351.907	7
352.695	7
353.483	9
354.271	7
355.059	7
355.846	7
356.634	7
357.422	9
358.209	7
358.997	9
359.784	6
360.571	8
361.359	8
362.146	7
362.933	8
363.72	8
364.507	7
365.294	6
366.081	5
366.867	6
367.654	6
368.44	6
369.227	8
370.013	8
370.8	6
371.586	5
372.372	8
373.158	9
373.944	6
374.73	6
375.516	5
376.302	7
377.088	6
377.873	7
378.659	7
379.445	5
380.23	7
381.015	5
381.801	5
382.586	6
383.371	7
384.156	10
384.941	7
385.726	7
386.511	8
387.296	9
388.08	7
388.865	7
389.649	8
390.434	7
391.218	7
392.003	6
392.787	5
393.571	9
394.355	6
395.139	8
395.923	8
396.707	7
397.491	8
398.274	8
399.058	9
399.842	5
400.625	10
401.408	9
402.192	7
402.975	8
403.758	6
404.541	10
405.324	12
406.107	11
406.89	9
407.673	10
408.456	12
409.238	11
410.021	14
410.803	13
411.586	12
412.368	12
413.151	11
413.933	11
414.715	10
415.497	12
416.279	13
417.061	10
417.843	12
418.624	11
419.406	14
420.188	12
420.969	13
421.751	14
422.532	14
423.313	15
424.095	16
424.876	16
425.657	15
426.438	18
427.219	16
428	16
428.78	17
429.561	17
430.342	19
431.122	21
431.903	18
432.683	22
433.464	21
434.244	22
435.024	22
435.804	27
436.584	26
437.364	28
438.144	28
438.924	31
439.704	33
440.483	35
441.263	37
442.042	40
442.822	43
443.601	42
444.38	46
445.16	46
445.939	57
446.718	57
447.497	64
448.276	67
449.054	75
449.833	78
450.612	90
451.391	93
452.169	104
452.948	117
453.726	127
454.504	145
455.282	155
456.061	173
456.839	195
457.617	217
458.395	236
459.172	264
459.95	298
460.728	330
461.506	371
462.283	414
463.061	458
463.838	518
464.615	572
465.393	628
466.17	710
466.947	782
467.724	868
468.501	967
469.278	1080
470.055	1194
470.831	1312
471.608	1446
472.385	1606
473.161	1762
473.938	1968
474.714	2144
475.49	2386
476.266	2629
477.043	2865
477.819	3142
478.595	3477
479.371	3801
480.146	4174
480.922	4556
481.698	4967
482.473	5451
483.249	5937
484.024	6489
484.8	7173
485.575	7684
486.35	8393
487.126	9122
487.901	9923
488.676	10817
489.451	11724
490.225	12662
491	13760
491.775	14886
492.55	16068
493.324	17203
494.099	18481
494.873	19678
495.647	21065
496.422	22369
497.196	23687
497.97	25095
498.744	26528
499.518	27797
500.292	29047
501.066	30045
501.839	31261
502.613	32216
503.387	32904
504.16	33569
504.934	33910
505.707	34152
506.48	34097
507.253	34001
508.027	33762
508.8	33335
509.573	32738
510.346	32037
511.118	31221
511.891	30316
512.664	29289
513.437	28174
514.209	27159
514.982	26200
515.754	25161
516.526	24131
517.298	23096
518.071	22144
518.843	21252
519.615	20402
520.387	19558
521.159	18806
521.93	18181
522.702	17337
523.474	16720
524.245	16045
525.017	15327
525.788	14618
526.56	14005
527.331	13375
528.102	12821
528.873	12144
529.644	11573
530.415	11088
531.186	10582
531.957	10056
532.728	9475
533.498	8990
534.269	8494
535.039	8062
535.81	7603
536.58	7183
537.351	6777
538.121	6422
538.891	6100
539.661	5781
540.431	5491
541.201	5157
541.971	4909
542.741	4648
543.51	4437
544.28	4184
545.05	3998
545.819	3781
546.588	3629
547.358	3425
548.127	3253
548.896	3104
549.665	2945
550.434	2791
551.203	2637
551.972	2498
552.741	2354
553.51	2234
554.278	2114
555.047	1992
555.815	1894
556.584	1768
557.352	1678
558.121	1582
558.889	1501
559.657	1430
560.425	1333
561.193	1274
561.961	1202
562.729	1135
563.496	1085
564.264	1019
565.032	950
565.799	900
566.567	859
567.334	808
568.101	758
568.869	715
569.636	669
570.403	644
571.17	600
571.937	571
572.704	546
573.471	514
574.237	478
575.004	445
575.771	423
576.537	404
577.303	379
578.07	346
578.836	336
579.602	319
580.368	305
581.134	288
581.9	274
582.666	261
583.432	247
584.198	231
584.964	224
585.729	206
586.495	196
587.26	185
588.025	179
588.791	169
589.556	162
590.321	148
591.086	146
591.851	131
592.616	128
593.381	124
594.146	115
594.911	112
595.675	108
596.44	106
597.204	97
597.969	93
598.733	90
599.497	84
600.261	84
601.025	76
601.79	71
602.553	68
603.317	67
604.081	66
604.845	65
605.609	60
606.372	58
607.136	58
607.899	52
608.662	51
609.426	48
610.189	48
610.952	46
611.715	44
612.478	41
613.241	41
614.004	39
614.767	36
615.529	35
616.292	40
617.055	31
617.817	34
618.579	32
619.342	29
620.104	29
620.866	28
621.628	29
622.39	28
623.152	25
623.914	24
624.676	21
625.438	23
626.199	21
626.961	22
627.722	20
628.484	23
629.245	19
630.006	18
630.768	18
631.529	21
632.29	20
633.051	15
633.812	17
634.573	16
635.333	14
636.094	17
636.855	13
637.615	15
638.376	16
639.136	12
639.896	15
640.657	13
641.417	13
642.177	14
642.937	10
643.697	10
644.457	12
645.216	12
645.976	13
646.736	10
647.495	10
648.255	9
649.014	10
649.774	10
650.533	8
651.292	10
652.051	7
652.81	8
653.569	10
654.328	7
655.087	8
655.846	8
656.604	8
657.363	7
658.121	7
658.88	6
659.638	7
660.397	6
661.155	6
661.913	7
662.671	6
663.429	9
664.187	6
664.945	7
665.703	8
666.46	4
667.218	6
667.976	7
668.733	8
669.49	6
670.248	6
671.005	8
671.762	5
672.519	8
673.276	6
674.033	6
674.79	9
675.547	5
676.304	8
677.06	5
677.817	7
678.574	5
679.33	5
680.086	7
680.843	6
681.599	4
682.355	6
683.111	5
683.867	6
684.623	5
685.379	5
686.135	4
686.89	6
687.646	6
688.402	3
689.157	5
689.912	5
690.668	6
691.423	3
692.178	4
692.933	5
693.688	3
694.443	5
695.198	5
695.953	5
696.708	5
697.462	5
698.217	4
698.972	1
699.726	6
700.48	6
701.235	3
701.989	4
702.743	4
703.497	4
704.251	1
705.005	4
705.759	4
706.513	4
707.266	6
708.02	4
708.774	5
709.527	6
710.28	5
711.034	6
711.787	3
712.54	5
713.293	5
714.046	6
714.799	7
715.552	3
716.305	6
717.058	4
717.81	5
718.563	4
719.315	3
720.068	5
720.82	5
721.573	5
722.325	5
723.077	8
723.829	6
724.581	3
725.333	7
726.085	5
726.836	6
727.588	2
728.34	5
729.091	2
729.843	4
730.594	6
731.346	6
732.097	7
732.848	7
733.599	7
734.35	5
735.101	4
735.852	6
736.603	6
737.354	4
738.104	5
738.855	6
739.605	7
740.356	5
741.106	7
741.856	5
742.607	5
743.357	6
744.107	6
744.857	7
745.607	7
746.357	5
747.106	7
747.856	6
748.606	6
749.355	7
750.105	8
750.854	6
751.603	4
752.353	8
753.102	7
753.851	8
754.6	8
755.349	8
756.098	8
756.847	8
757.595	9
758.344	8
759.093	10
759.841	5
760.589	7
761.338	8
762.086	7
762.834	9
763.582	8
764.331	6
765.079	7
765.826	10
766.574	10
767.322	6
768.07	9
768.817	8
769.565	8
770.312	7
771.06	10
771.807	9
772.554	8
773.302	10
774.049	12
774.796	10
775.543	11
776.29	10
777.036	11
777.783	10
778.53	11
779.276	13
780.023	9
780.769	12
781.516	10
782.262	12
783.008	12
783.754	10
784.5	10
785.246	10
785.992	10
786.738	11
787.484	10
788.23	12
788.975	10
789.721	13
790.466	11
791.212	10
791.957	11
792.702	9
793.447	11
794.193	8
794.938	11
795.683	11
796.427	11
797.172	10
797.917	9
798.662	12
799.406	8
800.151	9
800.895	9
801.64	9
802.384	8
803.128	10
803.872	10
804.616	9
805.36	6
806.104	9
806.848	6
807.592	8
808.336	5
809.079	7
809.823	8
810.566	5
811.31	6
812.053	7
812.796	7
813.539	6
814.283	7
815.026	7
815.769	5
816.511	7
817.254	5
817.997	6
818.74	5
819.482	7
820.225	5
820.967	6
821.71	6
822.452	7
823.194	5
823.936	5
824.678	2
825.42	3
826.162	4
826.904	8
827.646	4
828.388	5
829.129	4
829.871	2
830.612	3
831.354	4
832.095	2
832.836	5
833.577	3
834.319	4
835.06	5
835.801	3
836.542	3
837.282	5
838.023	5
838.764	4
839.504	4
840.245	6
840.985	5
841.726	4
842.466	3
843.206	6
843.946	0
844.687	1
845.427	5
846.166	4
846.906	4
847.646	3
848.386	5
849.125	5
849.865	4
850.605	2
851.344	2
852.083	1
852.823	3
853.562	3
854.301	4
855.04	4
855.779	1
856.518	2
857.257	3
857.995	4
858.734	4
859.473	4
860.211	0
860.95	1
861.688	2
862.426	4
863.165	2
863.903	3
864.641	2
865.379	1
866.117	5
866.855	1
867.593	2
868.33	0
869.068	2
869.806	2
870.543	2
871.28	1
872.018	0
872.755	3
873.492	2
874.229	-1
874.967	0
875.703	3
876.44	1
877.177	2
877.914	1
878.651	2
879.387	-2
880.124	2
880.86	1
881.597	0
882.333	-1
883.069	3
883.806	3
884.542	0
885.278	1
886.014	2
886.749	-1
887.485	2
888.221	-1
888.957	0
889.692	-1
890.428	1
891.163	0
891.899	1
892.634	3
893.369	2
894.104	1
894.839	2
895.574	0
896.309	1
897.044	-2
897.779	1
898.514	1
899.248	1
899.983	2
900.717	0
901.452	1
902.186	1
902.92	0
903.654	3
904.389	0
905.123	1
905.857	0
906.59	2
907.324	0
908.058	2
908.792	0
909.525	0
910.259	-1
910.992	-1
911.726	0
912.459	-1
913.192	0
913.925	-1
914.658	0
915.391	1
916.124	1
916.857	-2
917.59	-2
918.323	2
919.055	0
919.788	0
920.521	-1
921.253	0
921.985	0
922.718	1
923.45	1
924.182	0
924.914	0
925.646	0
926.378	-1
927.11	-3
927.841	-1
928.573	-1
929.305	-1
930.036	0
930.768	-1
931.499	2
932.23	0
932.962	-1
933.693	1
934.424	0
935.155	0
935.886	0
936.617	0
937.348	1
938.078	0
938.809	1
939.54	-2
940.27	1
941.001	2
941.731	2
942.461	0
943.191	1
943.922	-1
944.652	-1
945.382	-1
946.112	-1
946.841	0
947.571	-1
948.301	0
949.031	0
949.76	0
950.49	-1
951.219	-1
951.948	1
952.678	1
953.407	-1
954.136	-1
954.865	0
955.594	0
956.323	0
957.052	-4
957.78	0
958.509	0
959.238	0
959.966	-1
960.695	-1
961.423	1
962.151	-1
962.88	1
963.608	-1
964.336	1
965.064	0
965.792	2
966.52	2
967.247	-2
967.975	0
968.703	1
969.43	1
970.158	2
970.885	0
971.613	0
972.34	-1
973.067	-2
973.794	1
974.521	4
975.248	1
975.975	0
976.702	-1
977.429	-4
978.156	3
978.882	0
979.609	-1
980.335	2
981.062	0
981.788	-3
982.514	1
983.24	1
983.967	0
984.693	-1
985.419	2
986.144	-2
986.87	1
987.596	2
988.322	-1
989.047	2
989.773	1
990.498	0
991.224	0
991.949	0
992.674	0
993.399	1
994.124	0
994.849	-2
995.574	0
996.299	-1
997.024	0
997.749	0
998.473	-3
999.198	0
999.922	0
1000.647	1
1001.371	2
1002.095	0
1002.82	0
1003.544	-2
1004.268	0
1004.992	0
1005.716	1
1006.439	2
1007.163	2
1007.887	4
1008.611	-4
1009.334	-2
1010.058	1
1010.781	-1
1011.504	1
1012.228	1
1012.951	-1
1013.674	2
1014.397	0
1015.12	-1
