节点500_425_QEPB04081__438__15-55-35-617.txt的数据

Date: Wed Nov 12 15:55:35 CST 2025
User: PC
Spectrometer: QEPB0408
触发模式: 0
积分时间 (秒): 1.000000E-2
Scans to average: 1
启用暗噪声校正: true
启用非线性校正: false
滑动平均宽度: 0
X轴模式: Wavelengths
Number of Pixels in Spectrum: 1044
>>>>>Begin Spectral Data<<<<<
220.843	2.5
221.644	2.5
222.444	2.5
223.244	3.5
224.045	6.5
224.845	1.5
225.645	1.5
226.445	3.5
227.245	2.5
228.045	4.5
228.845	4.5
229.645	7.5
230.444	6.5
231.244	3.5
232.043	5.5
232.843	4.5
233.642	2.5
234.442	6.5
235.241	4.5
236.04	6.5
236.839	8.5
237.638	5.5
238.437	7.5
239.236	7.5
240.035	7.5
240.833	6.5
241.632	7.5
242.43	7.5
243.229	10.5
244.027	8.5
244.826	8.5
245.624	6.5
246.422	7.5
247.22	5.5
248.018	9.5
248.816	11.5
249.614	9.5
250.412	8.5
251.21	8.5
252.007	8.5
252.805	10.5
253.602	9.5
254.4	11.5
255.197	12.5
255.994	12.5
256.791	12.5
257.589	12.5
258.386	13.5
259.183	12.5
259.979	13.5
260.776	12.5
261.573	13.5
262.37	12.5
263.166	14.5
263.963	13.5
264.759	16.5
265.556	17.5
266.352	18.5
267.148	21.5
267.944	16.5
268.74	17.5
269.536	17.5
270.332	18.5
271.128	20.5
271.924	19.5
272.719	19.5
273.515	20.5
274.311	20.5
275.106	22.5
275.901	20.5
276.697	23.5
277.492	20.5
278.287	25.5
279.082	24.5
279.877	20.5
280.672	22.5
281.467	23.5
282.262	24.5
283.056	25.5
283.851	23.5
284.646	22.5
285.44	22.5
286.234	23.5
287.029	24.5
287.823	24.5
288.617	24.5
289.411	22.5
290.205	23.5
290.999	22.5
291.793	24.5
292.587	23.5
293.381	20.5
294.174	21.5
294.968	20.5
295.761	23.5
296.555	18.5
297.348	19.5
298.141	18.5
298.935	24.5
299.728	19.5
300.521	17.5
301.314	17.5
302.107	20.5
302.899	15.5
303.692	17.5
304.485	16.5
305.277	14.5
306.07	15.5
306.862	17.5
307.655	14.5
308.447	15.5
309.239	15.5
310.031	12.5
310.823	14.5
311.615	13.5
312.407	11.5
313.199	14.5
313.991	14.5
314.783	11.5
315.574	10.5
316.366	11.5
317.157	11.5
317.949	12.5
318.74	11.5
319.531	13.5
320.322	11.5
321.113	9.5
321.904	10.5
322.695	10.5
323.486	9.5
324.277	9.5
325.068	9.5
325.858	8.5
326.649	9.5
327.439	7.5
328.23	8.5
329.02	7.5
329.81	8.5
330.6	6.5
331.391	12.5
332.181	10.5
332.971	8.5
333.76	10.5
334.55	10.5
335.34	9.5
336.13	6.5
336.919	6.5
337.709	9.5
338.498	8.5
339.287	8.5
340.077	7.5
340.866	7.5
341.655	9.5
342.444	8.5
343.233	11.5
344.022	8.5
344.811	9.5
345.6	7.5
346.388	7.5
347.177	9.5
347.965	6.5
348.754	9.5
349.542	9.5
350.33	6.5
351.119	7.5
351.907	8.5
352.695	7.5
353.483	7.5
354.271	7.5
355.059	8.5
355.846	8.5
356.634	10.5
357.422	7.5
358.209	7.5
358.997	8.5
359.784	9.5
360.571	8.5
361.359	7.5
362.146	8.5
362.933	5.5
363.72	6.5
364.507	7.5
365.294	6.5
366.081	8.5
366.867	5.5
367.654	4.5
368.44	6.5
369.227	8.5
370.013	8.5
370.8	8.5
371.586	7.5
372.372	6.5
373.158	6.5
373.944	5.5
374.73	7.5
375.516	7.5
376.302	8.5
377.088	8.5
377.873	7.5
378.659	6.5
379.445	8.5
380.23	7.5
381.015	6.5
381.801	6.5
382.586	7.5
383.371	5.5
384.156	7.5
384.941	6.5
385.726	8.5
386.511	8.5
387.296	9.5
388.08	5.5
388.865	6.5
389.649	6.5
390.434	5.5
391.218	8.5
392.003	6.5
392.787	10.5
393.571	8.5
394.355	9.5
395.139	6.5
395.923	8.5
396.707	9.5
397.491	8.5
398.274	8.5
399.058	7.5
399.842	9.5
400.625	8.5
401.408	9.5
402.192	8.5
402.975	10.5
403.758	12.5
404.541	8.5
405.324	9.5
406.107	10.5
406.89	10.5
407.673	10.5
408.456	9.5
409.238	9.5
410.021	11.5
410.803	11.5
411.586	12.5
412.368	14.5
413.151	13.5
413.933	10.5
414.715	14.5
415.497	14.5
416.279	13.5
417.061	14.5
417.843	9.5
418.624	15.5
419.406	16.5
420.188	14.5
420.969	12.5
421.751	15.5
422.532	16.5
423.313	14.5
424.095	15.5
424.876	14.5
425.657	15.5
426.438	14.5
427.219	16.5
428	17.5
428.78	16.5
429.561	19.5
430.342	19.5
431.122	21.5
431.903	19.5
432.683	20.5
433.464	24.5
434.244	22.5
435.024	24.5
435.804	26.5
436.584	27.5
437.364	27.5
438.144	26.5
438.924	30.5
439.704	34.5
440.483	34.5
441.263	34.5
442.042	35.5
442.822	42.5
443.601	44.5
444.38	43.5
445.16	50.5
445.939	52.5
446.718	60.5
447.497	58.5
448.276	64.5
449.054	71.5
449.833	83.5
450.612	89.5
451.391	96.5
452.169	105.5
452.948	116.5
453.726	127.5
454.504	144.5
455.282	157.5
456.061	174.5
456.839	203.5
457.617	217.5
458.395	242.5
459.172	275.5
459.95	301.5
460.728	325.5
461.506	363.5
462.283	414.5
463.061	470.5
463.838	518.5
464.615	579.5
465.393	639.5
466.17	711.5
466.947	785.5
467.724	871.5
468.501	987.5
469.278	1070.5
470.055	1189.5
470.831	1324.5
471.608	1443.5
472.385	1614.5
473.161	1766.5
473.938	1969.5
474.714	2155.5
475.49	2376.5
476.266	2602.5
477.043	2857.5
477.819	3133.5
478.595	3461.5
479.371	3790.5
480.146	4137.5
480.922	4505.5
481.698	4941.5
482.473	5406.5
483.249	5909.5
484.024	6441.5
484.8	7029.5
485.575	7659.5
486.35	8296.5
487.126	9021.5
487.901	9810.5
488.676	10642.5
489.451	11553.5
490.225	12522.5
491	13537.5
491.775	14708.5
492.55	15818.5
493.324	17009.5
494.099	18245.5
494.873	19462.5
495.647	20724.5
496.422	22057.5
497.196	23372.5
497.97	24803.5
498.744	26131.5
499.518	27448.5
500.292	28655.5
501.066	29702.5
501.839	30834.5
502.613	31836.5
503.387	32551.5
504.16	33159.5
504.934	33715.5
505.707	33812.5
506.48	33837.5
507.253	33743.5
508.027	33551.5
508.8	33086.5
509.573	32593.5
510.346	31793.5
511.118	31019.5
511.891	30257.5
512.664	29210.5
513.437	28089.5
514.209	27152.5
514.982	26191.5
515.754	25108.5
516.526	24119.5
517.298	23166.5
518.071	22139.5
518.843	21209.5
519.615	20399.5
520.387	19573.5
521.159	18881.5
521.93	18193.5
522.702	17426.5
523.474	16741.5
524.245	16123.5
525.017	15368.5
525.788	14664.5
526.56	14034.5
527.331	13393.5
528.102	12833.5
528.873	12212.5
529.644	11620.5
530.415	11108.5
531.186	10655.5
531.957	10071.5
532.728	9523.5
533.498	9001.5
534.269	8526.5
535.039	8081.5
535.81	7626.5
536.58	7228.5
537.351	6786.5
538.121	6449.5
538.891	6101.5
539.661	5772.5
540.431	5500.5
541.201	5205.5
541.971	4903.5
542.741	4671.5
543.51	4447.5
544.28	4199.5
545.05	3994.5
545.819	3831.5
546.588	3627.5
547.358	3421.5
548.127	3287.5
548.896	3119.5
549.665	2950.5
550.434	2808.5
551.203	2651.5
551.972	2506.5
552.741	2392.5
553.51	2265.5
554.278	2131.5
555.047	2027.5
555.815	1883.5
556.584	1798.5
557.352	1710.5
558.121	1590.5
558.889	1516.5
559.657	1425.5
560.425	1335.5
561.193	1274.5
561.961	1219.5
562.729	1131.5
563.496	1080.5
564.264	1011.5
565.032	966.5
565.799	916.5
566.567	855.5
567.334	825.5
568.101	774.5
568.869	727.5
569.636	690.5
570.403	649.5
571.17	601.5
571.937	581.5
572.704	546.5
573.471	519.5
574.237	475.5
575.004	452.5
575.771	423.5
576.537	408.5
577.303	384.5
578.07	354.5
578.836	337.5
579.602	319.5
580.368	306.5
581.134	290.5
581.9	277.5
582.666	259.5
583.432	247.5
584.198	234.5
584.964	218.5
585.729	207.5
586.495	200.5
587.26	188.5
588.025	180.5
588.791	164.5
589.556	164.5
590.321	153.5
591.086	145.5
591.851	138.5
592.616	130.5
593.381	127.5
594.146	118.5
594.911	113.5
595.675	110.5
596.44	103.5
597.204	97.5
597.969	93.5
598.733	92.5
599.497	87.5
600.261	78.5
601.025	77.5
601.79	75.5
602.553	72.5
603.317	66.5
604.081	67.5
604.845	62.5
605.609	62.5
606.372	59.5
607.136	60.5
607.899	55.5
608.662	47.5
609.426	47.5
610.189	46.5
610.952	45.5
611.715	42.5
612.478	44.5
613.241	41.5
614.004	38.5
614.767	40.5
615.529	35.5
616.292	32.5
617.055	34.5
617.817	32.5
618.579	32.5
619.342	30.5
620.104	28.5
620.866	27.5
621.628	29.5
622.39	28.5
623.152	27.5
623.914	23.5
624.676	29.5
625.438	25.5
626.199	18.5
626.961	22.5
627.722	21.5
628.484	20.5
629.245	20.5
630.006	21.5
630.768	17.5
631.529	17.5
632.29	17.5
633.051	16.5
633.812	15.5
634.573	15.5
635.333	17.5
636.094	14.5
636.855	14.5
637.615	16.5
638.376	16.5
639.136	13.5
639.896	14.5
640.657	14.5
641.417	12.5
642.177	11.5
642.937	12.5
643.697	12.5
644.457	14.5
645.216	12.5
645.976	11.5
646.736	12.5
647.495	9.5
648.255	12.5
649.014	7.5
649.774	11.5
650.533	9.5
651.292	10.5
652.051	10.5
652.81	8.5
653.569	9.5
654.328	9.5
655.087	9.5
655.846	8.5
656.604	7.5
657.363	9.5
658.121	8.5
658.88	10.5
659.638	8.5
660.397	7.5
661.155	8.5
661.913	7.5
662.671	8.5
663.429	9.5
664.187	9.5
664.945	8.5
665.703	6.5
666.46	8.5
667.218	6.5
667.976	7.5
668.733	5.5
669.49	6.5
670.248	4.5
671.005	5.5
671.762	6.5
672.519	8.5
673.276	5.5
674.033	4.5
674.79	4.5
675.547	7.5
676.304	5.5
677.06	5.5
677.817	8.5
678.574	6.5
679.33	6.5
680.086	5.5
680.843	7.5
681.599	6.5
682.355	6.5
683.111	5.5
683.867	5.5
684.623	5.5
685.379	5.5
686.135	6.5
686.89	5.5
687.646	5.5
688.402	3.5
689.157	5.5
689.912	5.5
690.668	6.5
691.423	6.5
692.178	6.5
692.933	6.5
693.688	3.5
694.443	5.5
695.198	5.5
695.953	4.5
696.708	4.5
697.462	5.5
698.217	5.5
698.972	7.5
699.726	3.5
700.48	6.5
701.235	7.5
701.989	5.5
702.743	4.5
703.497	5.5
704.251	4.5
705.005	2.5
705.759	4.5
706.513	6.5
707.266	4.5
708.02	4.5
708.774	3.5
709.527	4.5
710.28	4.5
711.034	7.5
711.787	7.5
712.54	4.5
713.293	1.5
714.046	4.5
714.799	4.5
715.552	4.5
716.305	2.5
717.058	7.5
717.81	6.5
718.563	5.5
719.315	4.5
720.068	3.5
720.82	5.5
721.573	3.5
722.325	4.5
723.077	5.5
723.829	3.5
724.581	6.5
725.333	6.5
726.085	3.5
726.836	3.5
727.588	5.5
728.34	7.5
729.091	6.5
729.843	6.5
730.594	8.5
731.346	7.5
732.097	3.5
732.848	7.5
733.599	7.5
734.35	4.5
735.101	4.5
735.852	3.5
736.603	6.5
737.354	6.5
738.104	6.5
738.855	2.5
739.605	5.5
740.356	7.5
741.106	4.5
741.856	7.5
742.607	3.5
743.357	6.5
744.107	4.5
744.857	7.5
745.607	9.5
746.357	4.5
747.106	6.5
747.856	7.5
748.606	6.5
749.355	8.5
750.105	7.5
750.854	6.5
751.603	8.5
752.353	9.5
753.102	6.5
753.851	6.5
754.6	8.5
755.349	8.5
756.098	5.5
756.847	7.5
757.595	7.5
758.344	8.5
759.093	8.5
759.841	7.5
760.589	6.5
761.338	7.5
762.086	5.5
762.834	8.5
763.582	7.5
764.331	10.5
765.079	9.5
765.826	9.5
766.574	7.5
767.322	9.5
768.07	9.5
768.817	11.5
769.565	10.5
770.312	9.5
771.06	8.5
771.807	10.5
772.554	11.5
773.302	10.5
774.049	10.5
774.796	11.5
775.543	10.5
776.29	11.5
777.036	8.5
777.783	10.5
778.53	9.5
779.276	10.5
780.023	11.5
780.769	12.5
781.516	12.5
782.262	9.5
783.008	11.5
783.754	12.5
784.5	9.5
785.246	9.5
785.992	9.5
786.738	10.5
787.484	10.5
788.23	12.5
788.975	9.5
789.721	11.5
790.466	11.5
791.212	9.5
791.957	10.5
792.702	10.5
793.447	11.5
794.193	10.5
794.938	6.5
795.683	11.5
796.427	9.5
797.172	8.5
797.917	10.5
798.662	9.5
799.406	10.5
800.151	7.5
800.895	10.5
801.64	8.5
802.384	7.5
803.128	10.5
803.872	7.5
804.616	9.5
805.36	7.5
806.104	9.5
806.848	8.5
807.592	9.5
808.336	10.5
809.079	7.5
809.823	8.5
810.566	8.5
811.31	8.5
812.053	6.5
812.796	5.5
813.539	8.5
814.283	8.5
815.026	7.5
815.769	6.5
816.511	5.5
817.254	6.5
817.997	5.5
818.74	7.5
819.482	4.5
820.225	4.5
820.967	8.5
821.71	6.5
822.452	4.5
823.194	5.5
823.936	5.5
824.678	6.5
825.42	5.5
826.162	4.5
826.904	6.5
827.646	6.5
828.388	5.5
829.129	2.5
829.871	5.5
830.612	5.5
831.354	3.5
832.095	5.5
832.836	6.5
833.577	2.5
834.319	6.5
835.06	5.5
835.801	5.5
836.542	4.5
837.282	5.5
838.023	3.5
838.764	5.5
839.504	6.5
840.245	2.5
840.985	4.5
841.726	4.5
842.466	2.5
843.206	3.5
843.946	4.5
844.687	4.5
845.427	4.5
846.166	2.5
846.906	3.5
847.646	3.5
848.386	3.5
849.125	4.5
849.865	5.5
850.605	4.5
851.344	4.5
852.083	4.5
852.823	4.5
853.562	4.5
854.301	6.5
855.04	4.5
855.779	1.5
856.518	3.5
857.257	1.5
857.995	4.5
858.734	3.5
859.473	2.5
860.211	4.5
860.95	2.5
861.688	2.5
862.426	1.5
863.165	1.5
863.903	0.5
864.641	1.5
865.379	2.5
866.117	3.5
866.855	2.5
867.593	0.5
868.33	4.5
869.068	1.5
869.806	2.5
870.543	2.5
871.28	4.5
872.018	1.5
872.755	1.5
873.492	0.5
874.229	0.5
874.967	1.5
875.703	3.5
876.44	2.5
877.177	1.5
877.914	3.5
878.651	1.5
879.387	2.5
880.124	0.5
880.86	2.5
881.597	0.5
882.333	1.5
883.069	2.5
883.806	0.5
884.542	0.5
885.278	4.5
886.014	2.5
886.749	0.5
887.485	-1.5
888.221	1.5
888.957	1.5
889.692	1.5
890.428	1.5
891.163	0.5
891.899	-1.5
892.634	1.5
893.369	0.5
894.104	2.5
894.839	1.5
895.574	1.5
896.309	1.5
897.044	2.5
897.779	-1.5
898.514	2.5
899.248	2.5
899.983	2.5
900.717	0.5
901.452	-0.5
902.186	1.5
902.92	-1.5
903.654	1.5
904.389	3.5
905.123	0.5
905.857	1.5
906.59	1.5
907.324	-1.5
908.058	-0.5
908.792	1.5
909.525	2.5
910.259	0.5
910.992	2.5
911.726	-0.5
912.459	0.5
913.192	2.5
913.925	0.5
914.658	0.5
915.391	3.5
916.124	1.5
916.857	0.5
917.59	-0.5
918.323	1.5
919.055	2.5
919.788	2.5
920.521	-0.5
921.253	-1.5
921.985	0.5
922.718	0.5
923.45	-0.5
924.182	2.5
924.914	1.5
925.646	2.5
926.378	0.5
927.11	2.5
927.841	-3.5
928.573	1.5
929.305	1.5
930.036	2.5
930.768	1.5
931.499	-0.5
932.23	2.5
932.962	1.5
933.693	1.5
934.424	-0.5
935.155	0.5
935.886	3.5
936.617	0.5
937.348	0.5
938.078	-0.5
938.809	0.5
939.54	1.5
940.27	1.5
941.001	1.5
941.731	-1.5
942.461	-0.5
943.191	4.5
943.922	1.5
944.652	0.5
945.382	1.5
946.112	1.5
946.841	0.5
947.571	1.5
948.301	0.5
949.031	1.5
949.76	1.5
950.49	-0.5
951.219	0.5
951.948	1.5
952.678	2.5
953.407	0.5
954.136	2.5
954.865	0.5
955.594	0.5
956.323	-0.5
957.052	0.5
957.78	0.5
958.509	-1.5
959.238	0.5
959.966	0.5
960.695	0.5
961.423	-0.5
962.151	2.5
962.88	0.5
963.608	0.5
964.336	-0.5
965.064	0.5
965.792	1.5
966.52	0.5
967.247	0.5
967.975	-0.5
968.703	0.5
969.43	0.5
970.158	-0.5
970.885	0.5
971.613	-1.5
972.34	1.5
973.067	-1.5
973.794	0.5
974.521	-1.5
975.248	-1.5
975.975	1.5
976.702	2.5
977.429	1.5
978.156	0.5
978.882	1.5
979.609	0.5
980.335	-1.5
981.062	-0.5
981.788	0.5
982.514	0.5
983.24	1.5
983.967	-1.5
984.693	4.5
985.419	-0.5
986.144	0.5
986.87	1.5
987.596	2.5
988.322	1.5
989.047	-1.5
989.773	0.5
990.498	-1.5
991.224	3.5
991.949	-1.5
992.674	1.5
993.399	0.5
994.124	-0.5
994.849	0.5
995.574	1.5
996.299	0.5
997.024	-1.5
997.749	1.5
998.473	-0.5
999.198	0.5
999.922	2.5
1000.647	1.5
1001.371	3.5
1002.095	1.5
1002.82	-2.5
1003.544	0.5
1004.268	5.5
1004.992	2.5
1005.716	2.5
1006.439	3.5
1007.163	3.5
1007.887	2.5
1008.611	1.5
1009.334	1.5
1010.058	-1.5
1010.781	-0.5
1011.504	-0.5
1012.228	1.5
1012.951	-1.5
1013.674	-0.5
1014.397	0.5
1015.12	-1.5
