节点500_425_QEPB04081__92__15-49-50-332.txt的数据

Date: Wed Nov 12 15:49:50 CST 2025
User: PC
Spectrometer: QEPB0408
触发模式: 0
积分时间 (秒): 1.000000E-2
Scans to average: 1
启用暗噪声校正: true
启用非线性校正: false
滑动平均宽度: 0
X轴模式: Wavelengths
Number of Pixels in Spectrum: 1044
>>>>>Begin Spectral Data<<<<<
220.843	2.25
221.644	1.25
222.444	0.25
223.244	4.25
224.045	6.25
224.845	6.25
225.645	4.25
226.445	5.25
227.245	2.25
228.045	3.25
228.845	2.25
229.645	4.25
230.444	3.25
231.244	4.25
232.043	4.25
232.843	6.25
233.642	4.25
234.442	5.25
235.241	7.25
236.04	7.25
236.839	6.25
237.638	10.25
238.437	5.25
239.236	6.25
240.035	8.25
240.833	7.25
241.632	6.25
242.43	9.25
243.229	6.25
244.027	9.25
244.826	8.25
245.624	8.25
246.422	8.25
247.22	8.25
248.018	9.25
248.816	11.25
249.614	10.25
250.412	8.25
251.21	10.25
252.007	8.25
252.805	11.25
253.602	11.25
254.4	13.25
255.197	9.25
255.994	14.25
256.791	11.25
257.589	14.25
258.386	11.25
259.183	13.25
259.979	14.25
260.776	16.25
261.573	16.25
262.37	15.25
263.166	16.25
263.963	17.25
264.759	17.25
265.556	20.25
266.352	20.25
267.148	15.25
267.944	19.25
268.74	22.25
269.536	20.25
270.332	21.25
271.128	21.25
271.924	20.25
272.719	24.25
273.515	22.25
274.311	22.25
275.106	24.25
275.901	25.25
276.697	23.25
277.492	23.25
278.287	27.25
279.082	25.25
279.877	24.25
280.672	24.25
281.467	25.25
282.262	26.25
283.056	24.25
283.851	25.25
284.646	24.25
285.44	25.25
286.234	27.25
287.029	25.25
287.823	22.25
288.617	24.25
289.411	25.25
290.205	22.25
290.999	26.25
291.793	24.25
292.587	24.25
293.381	20.25
294.174	19.25
294.968	23.25
295.761	18.25
296.555	21.25
297.348	20.25
298.141	18.25
298.935	25.25
299.728	19.25
300.521	18.25
301.314	16.25
302.107	16.25
302.899	18.25
303.692	18.25
304.485	15.25
305.277	17.25
306.07	16.25
306.862	17.25
307.655	15.25
308.447	15.25
309.239	15.25
310.031	12.25
310.823	15.25
311.615	11.25
312.407	13.25
313.199	12.25
313.991	12.25
314.783	15.25
315.574	12.25
316.366	10.25
317.157	13.25
317.949	11.25
318.74	8.25
319.531	10.25
320.322	11.25
321.113	12.25
321.904	9.25
322.695	8.25
323.486	7.25
324.277	9.25
325.068	10.25
325.858	9.25
326.649	7.25
327.439	9.25
328.23	10.25
329.02	9.25
329.81	8.25
330.6	6.25
331.391	8.25
332.181	10.25
332.971	8.25
333.76	10.25
334.55	5.25
335.34	8.25
336.13	8.25
336.919	7.25
337.709	9.25
338.498	7.25
339.287	10.25
340.077	9.25
340.866	9.25
341.655	10.25
342.444	6.25
343.233	9.25
344.022	8.25
344.811	8.25
345.6	7.25
346.388	8.25
347.177	9.25
347.965	7.25
348.754	10.25
349.542	4.25
350.33	8.25
351.119	8.25
351.907	7.25
352.695	6.25
353.483	8.25
354.271	9.25
355.059	7.25
355.846	8.25
356.634	8.25
357.422	8.25
358.209	6.25
358.997	5.25
359.784	10.25
360.571	6.25
361.359	8.25
362.146	6.25
362.933	5.25
363.72	6.25
364.507	6.25
365.294	7.25
366.081	9.25
366.867	5.25
367.654	6.25
368.44	6.25
369.227	7.25
370.013	6.25
370.8	9.25
371.586	6.25
372.372	6.25
373.158	9.25
373.944	8.25
374.73	7.25
375.516	8.25
376.302	5.25
377.088	7.25
377.873	5.25
378.659	7.25
379.445	8.25
380.23	8.25
381.015	8.25
381.801	5.25
382.586	6.25
383.371	8.25
384.156	9.25
384.941	7.25
385.726	10.25
386.511	5.25
387.296	10.25
388.08	7.25
388.865	5.25
389.649	8.25
390.434	6.25
391.218	6.25
392.003	7.25
392.787	10.25
393.571	8.25
394.355	6.25
395.139	9.25
395.923	11.25
396.707	9.25
397.491	10.25
398.274	8.25
399.058	9.25
399.842	10.25
400.625	8.25
401.408	8.25
402.192	7.25
402.975	10.25
403.758	9.25
404.541	9.25
405.324	10.25
406.107	10.25
406.89	11.25
407.673	10.25
408.456	11.25
409.238	9.25
410.021	10.25
410.803	12.25
411.586	11.25
412.368	12.25
413.151	10.25
413.933	12.25
414.715	9.25
415.497	11.25
416.279	11.25
417.061	11.25
417.843	13.25
418.624	13.25
419.406	13.25
420.188	15.25
420.969	13.25
421.751	15.25
422.532	14.25
423.313	14.25
424.095	18.25
424.876	17.25
425.657	17.25
426.438	17.25
427.219	20.25
428	18.25
428.78	16.25
429.561	19.25
430.342	19.25
431.122	23.25
431.903	19.25
432.683	20.25
433.464	21.25
434.244	23.25
435.024	23.25
435.804	25.25
436.584	25.25
437.364	25.25
438.144	29.25
438.924	33.25
439.704	30.25
440.483	33.25
441.263	35.25
442.042	37.25
442.822	39.25
443.601	42.25
444.38	43.25
445.16	47.25
445.939	46.25
446.718	49.25
447.497	57.25
448.276	66.25
449.054	68.25
449.833	72.25
450.612	74.25
451.391	83.25
452.169	94.25
452.948	110.25
453.726	115.25
454.504	127.25
455.282	142.25
456.061	149.25
456.839	170.25
457.617	190.25
458.395	212.25
459.172	241.25
459.95	268.25
460.728	290.25
461.506	330.25
462.283	368.25
463.061	410.25
463.838	467.25
464.615	510.25
465.393	576.25
466.17	643.25
466.947	716.25
467.724	803.25
468.501	899.25
469.278	1011.25
470.055	1107.25
470.831	1229.25
471.608	1386.25
472.385	1531.25
473.161	1702.25
473.938	1910.25
474.714	2092.25
475.49	2322.25
476.266	2560.25
477.043	2833.25
477.819	3136.25
478.595	3497.25
479.371	3861.25
480.146	4222.25
480.922	4685.25
481.698	5153.25
482.473	5661.25
483.249	6243.25
484.024	6858.25
484.8	7548.25
485.575	8251.25
486.35	9038.25
487.126	9940.25
487.901	10849.25
488.676	11890.25
489.451	12946.25
490.225	14117.25
491	15308.25
491.775	16697.25
492.55	18024.25
493.324	19426.25
494.099	20874.25
494.873	22208.25
495.647	23816.25
496.422	25353.25
497.196	26868.25
497.97	28476.25
498.744	29880.25
499.518	31239.25
500.292	32439.25
501.066	33610.25
501.839	34569.25
502.613	35391.25
503.387	36011.25
504.16	36347.25
504.934	36519.25
505.707	36333.25
506.48	36021.25
507.253	35524.25
508.027	34998.25
508.8	34239.25
509.573	33302.25
510.346	32261.25
511.118	31229.25
511.891	30105.25
512.664	28967.25
513.437	27702.25
514.209	26475.25
514.982	25450.25
515.754	24358.25
516.526	23226.25
517.298	22284.25
518.071	21342.25
518.843	20350.25
519.615	19622.25
520.387	18814.25
521.159	18117.25
521.93	17475.25
522.702	16747.25
523.474	16057.25
524.245	15422.25
525.017	14649.25
525.788	14004.25
526.56	13373.25
527.331	12708.25
528.102	12131.25
528.873	11490.25
529.644	10869.25
530.415	10404.25
531.186	9917.25
531.957	9322.25
532.728	8864.25
533.498	8305.25
534.269	7833.25
535.039	7421.25
535.81	7034.25
536.58	6594.25
537.351	6204.25
538.121	5899.25
538.891	5571.25
539.661	5321.25
540.431	5014.25
541.201	4740.25
541.971	4530.25
542.741	4282.25
543.51	4052.25
544.28	3861.25
545.05	3666.25
545.819	3496.25
546.588	3309.25
547.358	3118.25
548.127	2988.25
548.896	2836.25
549.665	2669.25
550.434	2544.25
551.203	2411.25
551.972	2269.25
552.741	2153.25
553.51	2047.25
554.278	1932.25
555.047	1804.25
555.815	1712.25
556.584	1592.25
557.352	1527.25
558.121	1430.25
558.889	1361.25
559.657	1281.25
560.425	1195.25
561.193	1127.25
561.961	1073.25
562.729	1026.25
563.496	972.25
564.264	900.25
565.032	861.25
565.799	819.25
566.567	766.25
567.334	720.25
568.101	691.25
568.869	651.25
569.636	615.25
570.403	578.25
571.17	537.25
571.937	515.25
572.704	485.25
573.471	460.25
574.237	426.25
575.004	407.25
575.771	384.25
576.537	359.25
577.303	345.25
578.07	321.25
578.836	310.25
579.602	284.25
580.368	275.25
581.134	259.25
581.9	242.25
582.666	228.25
583.432	217.25
584.198	211.25
584.964	200.25
585.729	181.25
586.495	178.25
587.26	168.25
588.025	161.25
588.791	151.25
589.556	144.25
590.321	142.25
591.086	129.25
591.851	122.25
592.616	117.25
593.381	111.25
594.146	105.25
594.911	101.25
595.675	99.25
596.44	90.25
597.204	86.25
597.969	91.25
598.733	81.25
599.497	79.25
600.261	74.25
601.025	70.25
601.79	70.25
602.553	64.25
603.317	63.25
604.081	59.25
604.845	57.25
605.609	53.25
606.372	51.25
607.136	50.25
607.899	49.25
608.662	48.25
609.426	45.25
610.189	44.25
610.952	43.25
611.715	40.25
612.478	39.25
613.241	38.25
614.004	36.25
614.767	34.25
615.529	35.25
616.292	34.25
617.055	31.25
617.817	31.25
618.579	30.25
619.342	28.25
620.104	28.25
620.866	25.25
621.628	29.25
622.39	22.25
623.152	23.25
623.914	23.25
624.676	22.25
625.438	23.25
626.199	20.25
626.961	20.25
627.722	19.25
628.484	21.25
629.245	19.25
630.006	16.25
630.768	20.25
631.529	16.25
632.29	18.25
633.051	18.25
633.812	14.25
634.573	14.25
635.333	12.25
636.094	15.25
636.855	14.25
637.615	13.25
638.376	16.25
639.136	11.25
639.896	17.25
640.657	14.25
641.417	11.25
642.177	12.25
642.937	10.25
643.697	9.25
644.457	10.25
645.216	12.25
645.976	12.25
646.736	11.25
647.495	10.25
648.255	9.25
649.014	10.25
649.774	10.25
650.533	9.25
651.292	11.25
652.051	9.25
652.81	9.25
653.569	9.25
654.328	8.25
655.087	7.25
655.846	9.25
656.604	7.25
657.363	7.25
658.121	9.25
658.88	7.25
659.638	8.25
660.397	9.25
661.155	8.25
661.913	6.25
662.671	5.25
663.429	7.25
664.187	7.25
664.945	7.25
665.703	7.25
666.46	6.25
667.218	7.25
667.976	6.25
668.733	6.25
669.49	9.25
670.248	6.25
671.005	5.25
671.762	6.25
672.519	6.25
673.276	2.25
674.033	4.25
674.79	6.25
675.547	4.25
676.304	6.25
677.06	5.25
677.817	7.25
678.574	4.25
679.33	4.25
680.086	6.25
680.843	4.25
681.599	5.25
682.355	5.25
683.111	7.25
683.867	4.25
684.623	7.25
685.379	5.25
686.135	6.25
686.89	5.25
687.646	5.25
688.402	5.25
689.157	5.25
689.912	4.25
690.668	6.25
691.423	5.25
692.178	6.25
692.933	3.25
693.688	4.25
694.443	5.25
695.198	2.25
695.953	4.25
696.708	7.25
697.462	4.25
698.217	6.25
698.972	4.25
699.726	4.25
700.48	4.25
701.235	3.25
701.989	4.25
702.743	6.25
703.497	6.25
704.251	2.25
705.005	5.25
705.759	5.25
706.513	5.25
707.266	3.25
708.02	4.25
708.774	4.25
709.527	4.25
710.28	2.25
711.034	5.25
711.787	4.25
712.54	4.25
713.293	6.25
714.046	4.25
714.799	2.25
715.552	5.25
716.305	4.25
717.058	7.25
717.81	6.25
718.563	4.25
719.315	8.25
720.068	5.25
720.82	3.25
721.573	9.25
722.325	6.25
723.077	4.25
723.829	3.25
724.581	5.25
725.333	6.25
726.085	5.25
726.836	6.25
727.588	3.25
728.34	5.25
729.091	5.25
729.843	5.25
730.594	6.25
731.346	6.25
732.097	6.25
732.848	5.25
733.599	5.25
734.35	7.25
735.101	5.25
735.852	6.25
736.603	4.25
737.354	7.25
738.104	6.25
738.855	6.25
739.605	6.25
740.356	5.25
741.106	8.25
741.856	8.25
742.607	7.25
743.357	5.25
744.107	7.25
744.857	5.25
745.607	6.25
746.357	6.25
747.106	7.25
747.856	8.25
748.606	6.25
749.355	6.25
750.105	7.25
750.854	9.25
751.603	7.25
752.353	7.25
753.102	6.25
753.851	7.25
754.6	7.25
755.349	9.25
756.098	9.25
756.847	7.25
757.595	10.25
758.344	8.25
759.093	7.25
759.841	9.25
760.589	10.25
761.338	10.25
762.086	7.25
762.834	7.25
763.582	7.25
764.331	10.25
765.079	11.25
765.826	9.25
766.574	10.25
767.322	9.25
768.07	10.25
768.817	6.25
769.565	10.25
770.312	9.25
771.06	12.25
771.807	9.25
772.554	9.25
773.302	11.25
774.049	14.25
774.796	12.25
775.543	12.25
776.29	10.25
777.036	11.25
777.783	9.25
778.53	11.25
779.276	10.25
780.023	12.25
780.769	12.25
781.516	12.25
782.262	12.25
783.008	12.25
783.754	10.25
784.5	11.25
785.246	13.25
785.992	10.25
786.738	12.25
787.484	11.25
788.23	11.25
788.975	10.25
789.721	12.25
790.466	13.25
791.212	12.25
791.957	10.25
792.702	8.25
793.447	10.25
794.193	13.25
794.938	10.25
795.683	8.25
796.427	13.25
797.172	9.25
797.917	11.25
798.662	11.25
799.406	10.25
800.151	10.25
800.895	7.25
801.64	9.25
802.384	8.25
803.128	8.25
803.872	7.25
804.616	10.25
805.36	9.25
806.104	7.25
806.848	9.25
807.592	7.25
808.336	9.25
809.079	8.25
809.823	6.25
810.566	5.25
811.31	6.25
812.053	7.25
812.796	5.25
813.539	7.25
814.283	8.25
815.026	5.25
815.769	5.25
816.511	4.25
817.254	5.25
817.997	5.25
818.74	5.25
819.482	6.25
820.225	6.25
820.967	6.25
821.71	5.25
822.452	6.25
823.194	3.25
823.936	3.25
824.678	7.25
825.42	4.25
826.162	6.25
826.904	4.25
827.646	4.25
828.388	4.25
829.129	3.25
829.871	5.25
830.612	5.25
831.354	3.25
832.095	2.25
832.836	5.25
833.577	2.25
834.319	5.25
835.06	6.25
835.801	5.25
836.542	2.25
837.282	2.25
838.023	4.25
838.764	5.25
839.504	6.25
840.245	2.25
840.985	2.25
841.726	5.25
842.466	5.25
843.206	2.25
843.946	3.25
844.687	2.25
845.427	3.25
846.166	0.25
846.906	4.25
847.646	3.25
848.386	4.25
849.125	6.25
849.865	3.25
850.605	3.25
851.344	2.25
852.083	2.25
852.823	5.25
853.562	2.25
854.301	2.25
855.04	2.25
855.779	5.25
856.518	3.25
857.257	2.25
857.995	3.25
858.734	3.25
859.473	2.25
860.211	4.25
860.95	3.25
861.688	1.25
862.426	4.25
863.165	2.25
863.903	1.25
864.641	2.25
865.379	5.25
866.117	0.25
866.855	3.25
867.593	2.25
868.33	2.25
869.068	0.25
869.806	1.25
870.543	3.25
871.28	2.25
872.018	0.25
872.755	2.25
873.492	1.25
874.229	2.25
874.967	2.25
875.703	2.25
876.44	1.25
877.177	1.25
877.914	2.25
878.651	1.25
879.387	1.25
880.124	-0.75
880.86	1.25
881.597	0.25
882.333	0.25
883.069	2.25
883.806	-0.75
884.542	2.25
885.278	2.25
886.014	1.25
886.749	1.25
887.485	-1.75
888.221	3.25
888.957	-0.75
889.692	2.25
890.428	0.25
891.163	0.25
891.899	1.25
892.634	0.25
893.369	4.25
894.104	-0.75
894.839	0.25
895.574	0.25
896.309	1.25
897.044	1.25
897.779	0.25
898.514	-1.75
899.248	0.25
899.983	-0.75
900.717	1.25
901.452	1.25
902.186	2.25
902.92	2.25
903.654	1.25
904.389	1.25
905.123	-0.75
905.857	0.25
906.59	-1.75
907.324	1.25
908.058	-0.75
908.792	-0.75
909.525	0.25
910.259	-0.75
910.992	1.25
911.726	1.25
912.459	-0.75
913.192	-0.75
913.925	-0.75
914.658	-0.75
915.391	-0.75
916.124	1.25
916.857	1.25
917.59	-1.75
918.323	-1.75
919.055	0.25
919.788	0.25
920.521	1.25
921.253	-1.75
921.985	0.25
922.718	-0.75
923.45	1.25
924.182	0.25
924.914	2.25
925.646	1.25
926.378	0.25
927.11	2.25
927.841	0.25
928.573	-1.75
929.305	-0.75
930.036	0.25
930.768	0.25
931.499	2.25
932.23	2.25
932.962	-1.75
933.693	0.25
934.424	-0.75
935.155	-1.75
935.886	1.25
936.617	-1.75
937.348	1.25
938.078	-1.75
938.809	1.25
939.54	2.25
940.27	1.25
941.001	-0.75
941.731	0.25
942.461	0.25
943.191	-1.75
943.922	-1.75
944.652	0.25
945.382	-1.75
946.112	0.25
946.841	-1.75
947.571	-0.75
948.301	0.25
949.031	-1.75
949.76	0.25
950.49	0.25
951.219	1.25
951.948	-1.75
952.678	1.25
953.407	0.25
954.136	-0.75
954.865	1.25
955.594	0.25
956.323	-1.75
957.052	-0.75
957.78	0.25
958.509	1.25
959.238	-1.75
959.966	1.25
960.695	-1.75
961.423	0.25
962.151	0.25
962.88	-0.75
963.608	1.25
964.336	0.25
965.064	0.25
965.792	-0.75
966.52	-0.75
967.247	0.25
967.975	0.25
968.703	3.25
969.43	-0.75
970.158	2.25
970.885	1.25
971.613	-0.75
972.34	2.25
973.067	-0.75
973.794	2.25
974.521	1.25
975.248	-0.75
975.975	-0.75
976.702	-1.75
977.429	2.25
978.156	-0.75
978.882	-0.75
979.609	0.25
980.335	-0.75
981.062	0.25
981.788	-1.75
982.514	1.25
983.24	0.25
983.967	-0.75
984.693	-0.75
985.419	-0.75
986.144	2.25
986.87	-0.75
987.596	1.25
988.322	-1.75
989.047	0.25
989.773	-1.75
990.498	0.25
991.224	0.25
991.949	-2.75
992.674	0.25
993.399	1.25
994.124	-0.75
994.849	2.25
995.574	0.25
996.299	0.25
997.024	-0.75
997.749	1.25
998.473	1.25
999.198	0.25
999.922	2.25
1000.647	0.25
1001.371	1.25
1002.095	-0.75
1002.82	0.25
1003.544	0.25
1004.268	3.25
1004.992	3.25
1005.716	3.25
1006.439	1.25
1007.163	2.25
1007.887	3.25
1008.611	1.25
1009.334	1.25
1010.058	-0.75
1010.781	1.25
1011.504	-1.75
1012.228	2.25
1012.951	-0.75
1013.674	-1.75
1014.397	2.25
1015.12	-0.75
