节点500_425_QEPB04081__603__15-58-20-404.txt的数据

Date: Wed Nov 12 15:58:20 CST 2025
User: PC
Spectrometer: QEPB0408
触发模式: 0
积分时间 (秒): 1.000000E-2
Scans to average: 1
启用暗噪声校正: true
启用非线性校正: false
滑动平均宽度: 0
X轴模式: Wavelengths
Number of Pixels in Spectrum: 1044
>>>>>Begin Spectral Data<<<<<
220.843	2.12
221.644	2.12
222.444	0.12
223.244	4.12
224.045	1.12
224.845	3.12
225.645	2.12
226.445	1.12
227.245	4.12
228.045	2.12
228.845	4.12
229.645	4.12
230.444	6.12
231.244	4.12
232.043	5.12
232.843	4.12
233.642	2.12
234.442	6.12
235.241	5.12
236.04	5.12
236.839	7.12
237.638	6.12
238.437	4.12
239.236	6.12
240.035	6.12
240.833	5.12
241.632	5.12
242.43	7.12
243.229	6.12
244.027	6.12
244.826	6.12
245.624	6.12
246.422	6.12
247.22	7.12
248.018	8.12
248.816	5.12
249.614	9.12
250.412	7.12
251.21	8.12
252.007	8.12
252.805	10.12
253.602	9.12
254.4	10.12
255.197	10.12
255.994	10.12
256.791	10.12
257.589	11.12
258.386	10.12
259.183	11.12
259.979	12.12
260.776	14.12
261.573	14.12
262.37	13.12
263.166	15.12
263.963	16.12
264.759	11.12
265.556	15.12
266.352	16.12
267.148	16.12
267.944	16.12
268.74	18.12
269.536	18.12
270.332	18.12
271.128	20.12
271.924	17.12
272.719	19.12
273.515	21.12
274.311	18.12
275.106	20.12
275.901	20.12
276.697	24.12
277.492	20.12
278.287	21.12
279.082	22.12
279.877	20.12
280.672	22.12
281.467	22.12
282.262	22.12
283.056	23.12
283.851	24.12
284.646	24.12
285.44	20.12
286.234	23.12
287.029	23.12
287.823	21.12
288.617	22.12
289.411	21.12
290.205	20.12
290.999	21.12
291.793	25.12
292.587	20.12
293.381	20.12
294.174	22.12
294.968	22.12
295.761	21.12
296.555	20.12
297.348	19.12
298.141	20.12
298.935	19.12
299.728	18.12
300.521	16.12
301.314	20.12
302.107	16.12
302.899	15.12
303.692	17.12
304.485	16.12
305.277	15.12
306.07	16.12
306.862	18.12
307.655	14.12
308.447	13.12
309.239	15.12
310.031	16.12
310.823	12.12
311.615	10.12
312.407	12.12
313.199	12.12
313.991	10.12
314.783	13.12
315.574	13.12
316.366	12.12
317.157	13.12
317.949	11.12
318.74	9.12
319.531	10.12
320.322	9.12
321.113	7.12
321.904	8.12
322.695	8.12
323.486	9.12
324.277	9.12
325.068	10.12
325.858	11.12
326.649	9.12
327.439	9.12
328.23	8.12
329.02	8.12
329.81	12.12
330.6	7.12
331.391	8.12
332.181	6.12
332.971	3.12
333.76	10.12
334.55	8.12
335.34	9.12
336.13	7.12
336.919	7.12
337.709	8.12
338.498	9.12
339.287	9.12
340.077	8.12
340.866	9.12
341.655	6.12
342.444	7.12
343.233	10.12
344.022	6.12
344.811	8.12
345.6	9.12
346.388	7.12
347.177	7.12
347.965	7.12
348.754	7.12
349.542	9.12
350.33	8.12
351.119	6.12
351.907	5.12
352.695	7.12
353.483	5.12
354.271	9.12
355.059	7.12
355.846	7.12
356.634	8.12
357.422	7.12
358.209	5.12
358.997	8.12
359.784	6.12
360.571	7.12
361.359	7.12
362.146	8.12
362.933	6.12
363.72	7.12
364.507	9.12
365.294	7.12
366.081	6.12
366.867	7.12
367.654	6.12
368.44	6.12
369.227	7.12
370.013	6.12
370.8	5.12
371.586	7.12
372.372	6.12
373.158	6.12
373.944	4.12
374.73	5.12
375.516	7.12
376.302	7.12
377.088	7.12
377.873	5.12
378.659	6.12
379.445	8.12
380.23	7.12
381.015	6.12
381.801	4.12
382.586	5.12
383.371	6.12
384.156	7.12
384.941	6.12
385.726	6.12
386.511	7.12
387.296	8.12
388.08	8.12
388.865	4.12
389.649	7.12
390.434	9.12
391.218	5.12
392.003	6.12
392.787	6.12
393.571	7.12
394.355	8.12
395.139	7.12
395.923	9.12
396.707	8.12
397.491	9.12
398.274	6.12
399.058	8.12
399.842	8.12
400.625	6.12
401.408	10.12
402.192	9.12
402.975	7.12
403.758	8.12
404.541	7.12
405.324	7.12
406.107	10.12
406.89	9.12
407.673	10.12
408.456	9.12
409.238	13.12
410.021	8.12
410.803	13.12
411.586	8.12
412.368	10.12
413.151	10.12
413.933	9.12
414.715	9.12
415.497	8.12
416.279	13.12
417.061	13.12
417.843	11.12
418.624	12.12
419.406	14.12
420.188	13.12
420.969	11.12
421.751	13.12
422.532	14.12
423.313	13.12
424.095	14.12
424.876	14.12
425.657	18.12
426.438	14.12
427.219	17.12
428	16.12
428.78	15.12
429.561	20.12
430.342	17.12
431.122	19.12
431.903	19.12
432.683	22.12
433.464	24.12
434.244	23.12
435.024	26.12
435.804	24.12
436.584	26.12
437.364	27.12
438.144	29.12
438.924	34.12
439.704	30.12
440.483	35.12
441.263	37.12
442.042	38.12
442.822	41.12
443.601	45.12
444.38	48.12
445.16	49.12
445.939	56.12
446.718	59.12
447.497	67.12
448.276	72.12
449.054	78.12
449.833	84.12
450.612	93.12
451.391	102.12
452.169	113.12
452.948	117.12
453.726	135.12
454.504	151.12
455.282	166.12
456.061	180.12
456.839	206.12
457.617	231.12
458.395	258.12
459.172	278.12
459.95	311.12
460.728	352.12
461.506	392.12
462.283	429.12
463.061	478.12
463.838	538.12
464.615	600.12
465.393	658.12
466.17	727.12
466.947	817.12
467.724	891.12
468.501	1007.12
469.278	1099.12
470.055	1221.12
470.831	1337.12
471.608	1483.12
472.385	1636.12
473.161	1820.12
473.938	1976.12
474.714	2153.12
475.49	2383.12
476.266	2579.12
477.043	2835.12
477.819	3097.12
478.595	3411.12
479.371	3726.12
480.146	4059.12
480.922	4435.12
481.698	4827.12
482.473	5229.12
483.249	5717.12
484.024	6216.12
484.8	6769.12
485.575	7323.12
486.35	7953.12
487.126	8630.12
487.901	9346.12
488.676	10125.12
489.451	10904.12
490.225	11767.12
491	12745.12
491.775	13789.12
492.55	14780.12
493.324	15856.12
494.099	16943.12
494.873	18126.12
495.647	19256.12
496.422	20455.12
497.196	21717.12
497.97	23118.12
498.744	24376.12
499.518	25647.12
500.292	26735.12
501.066	27771.12
501.839	28968.12
502.613	29919.12
503.387	30706.12
504.16	31387.12
504.934	31913.12
505.707	32301.12
506.48	32458.12
507.253	32432.12
508.027	32299.12
508.8	32074.12
509.573	31787.12
510.346	31232.12
511.118	30557.12
511.891	29828.12
512.664	28957.12
513.437	28009.12
514.209	27073.12
514.982	26191.12
515.754	25253.12
516.526	24268.12
517.298	23265.12
518.071	22345.12
518.843	21438.12
519.615	20597.12
520.387	19824.12
521.159	19110.12
521.93	18334.12
522.702	17576.12
523.474	16906.12
524.245	16224.12
525.017	15555.12
525.788	14869.12
526.56	14211.12
527.331	13640.12
528.102	13042.12
528.873	12422.12
529.644	11809.12
530.415	11334.12
531.186	10892.12
531.957	10304.12
532.728	9790.12
533.498	9256.12
534.269	8777.12
535.039	8347.12
535.81	7861.12
536.58	7442.12
537.351	7056.12
538.121	6661.12
538.891	6314.12
539.661	6013.12
540.431	5647.12
541.201	5383.12
541.971	5100.12
542.741	4846.12
543.51	4607.12
544.28	4344.12
545.05	4124.12
545.819	3968.12
546.588	3785.12
547.358	3555.12
548.127	3376.12
548.896	3197.12
549.665	3053.12
550.434	2909.12
551.203	2751.12
551.972	2600.12
552.741	2473.12
553.51	2345.12
554.278	2202.12
555.047	2102.12
555.815	1984.12
556.584	1859.12
557.352	1762.12
558.121	1660.12
558.889	1587.12
559.657	1489.12
560.425	1419.12
561.193	1322.12
561.961	1267.12
562.729	1195.12
563.496	1129.12
564.264	1066.12
565.032	1005.12
565.799	948.12
566.567	898.12
567.334	849.12
568.101	813.12
568.869	758.12
569.636	717.12
570.403	683.12
571.17	642.12
571.937	609.12
572.704	571.12
573.471	537.12
574.237	500.12
575.004	480.12
575.771	447.12
576.537	420.12
577.303	397.12
578.07	374.12
578.836	359.12
579.602	334.12
580.368	321.12
581.134	303.12
581.9	283.12
582.666	271.12
583.432	258.12
584.198	242.12
584.964	233.12
585.729	222.12
586.495	213.12
587.26	196.12
588.025	191.12
588.791	178.12
589.556	167.12
590.321	162.12
591.086	150.12
591.851	145.12
592.616	134.12
593.381	129.12
594.146	119.12
594.911	118.12
595.675	110.12
596.44	110.12
597.204	103.12
597.969	96.12
598.733	97.12
599.497	87.12
600.261	87.12
601.025	86.12
601.79	76.12
602.553	78.12
603.317	69.12
604.081	67.12
604.845	65.12
605.609	62.12
606.372	60.12
607.136	57.12
607.899	58.12
608.662	54.12
609.426	51.12
610.189	46.12
610.952	46.12
611.715	45.12
612.478	41.12
613.241	39.12
614.004	41.12
614.767	41.12
615.529	38.12
616.292	33.12
617.055	36.12
617.817	33.12
618.579	34.12
619.342	32.12
620.104	30.12
620.866	30.12
621.628	27.12
622.39	25.12
623.152	27.12
623.914	24.12
624.676	26.12
625.438	23.12
626.199	23.12
626.961	25.12
627.722	23.12
628.484	22.12
629.245	18.12
630.006	22.12
630.768	21.12
631.529	19.12
632.29	17.12
633.051	16.12
633.812	17.12
634.573	17.12
635.333	17.12
636.094	16.12
636.855	16.12
637.615	16.12
638.376	12.12
639.136	13.12
639.896	10.12
640.657	12.12
641.417	14.12
642.177	10.12
642.937	12.12
643.697	12.12
644.457	12.12
645.216	15.12
645.976	11.12
646.736	11.12
647.495	10.12
648.255	10.12
649.014	10.12
649.774	12.12
650.533	10.12
651.292	8.12
652.051	10.12
652.81	6.12
653.569	7.12
654.328	8.12
655.087	6.12
655.846	9.12
656.604	13.12
657.363	8.12
658.121	9.12
658.88	8.12
659.638	10.12
660.397	8.12
661.155	8.12
661.913	7.12
662.671	8.12
663.429	7.12
664.187	7.12
664.945	5.12
665.703	6.12
666.46	6.12
667.218	5.12
667.976	8.12
668.733	5.12
669.49	5.12
670.248	7.12
671.005	7.12
671.762	8.12
672.519	7.12
673.276	8.12
674.033	4.12
674.79	7.12
675.547	7.12
676.304	2.12
677.06	7.12
677.817	4.12
678.574	5.12
679.33	7.12
680.086	2.12
680.843	7.12
681.599	7.12
682.355	5.12
683.111	6.12
683.867	3.12
684.623	4.12
685.379	5.12
686.135	4.12
686.89	5.12
687.646	7.12
688.402	5.12
689.157	2.12
689.912	4.12
690.668	7.12
691.423	3.12
692.178	5.12
692.933	5.12
693.688	7.12
694.443	4.12
695.198	6.12
695.953	4.12
696.708	4.12
697.462	4.12
698.217	2.12
698.972	5.12
699.726	4.12
700.48	7.12
701.235	4.12
701.989	5.12
702.743	5.12
703.497	4.12
704.251	2.12
705.005	5.12
705.759	5.12
706.513	4.12
707.266	4.12
708.02	5.12
708.774	5.12
709.527	5.12
710.28	5.12
711.034	3.12
711.787	5.12
712.54	6.12
713.293	4.12
714.046	5.12
714.799	4.12
715.552	4.12
716.305	3.12
717.058	7.12
717.81	4.12
718.563	3.12
719.315	4.12
720.068	5.12
720.82	5.12
721.573	7.12
722.325	5.12
723.077	6.12
723.829	5.12
724.581	4.12
725.333	4.12
726.085	7.12
726.836	4.12
727.588	4.12
728.34	5.12
729.091	5.12
729.843	6.12
730.594	3.12
731.346	7.12
732.097	4.12
732.848	4.12
733.599	8.12
734.35	5.12
735.101	6.12
735.852	5.12
736.603	5.12
737.354	6.12
738.104	5.12
738.855	6.12
739.605	6.12
740.356	7.12
741.106	5.12
741.856	4.12
742.607	6.12
743.357	3.12
744.107	7.12
744.857	5.12
745.607	4.12
746.357	6.12
747.106	7.12
747.856	5.12
748.606	7.12
749.355	5.12
750.105	6.12
750.854	6.12
751.603	4.12
752.353	6.12
753.102	6.12
753.851	6.12
754.6	5.12
755.349	6.12
756.098	6.12
756.847	6.12
757.595	7.12
758.344	9.12
759.093	5.12
759.841	7.12
760.589	6.12
761.338	6.12
762.086	8.12
762.834	8.12
763.582	6.12
764.331	7.12
765.079	7.12
765.826	9.12
766.574	8.12
767.322	11.12
768.07	9.12
768.817	10.12
769.565	9.12
770.312	7.12
771.06	11.12
771.807	8.12
772.554	7.12
773.302	10.12
774.049	8.12
774.796	10.12
775.543	10.12
776.29	8.12
777.036	11.12
777.783	10.12
778.53	10.12
779.276	9.12
780.023	8.12
780.769	12.12
781.516	10.12
782.262	9.12
783.008	11.12
783.754	10.12
784.5	10.12
785.246	11.12
785.992	10.12
786.738	12.12
787.484	11.12
788.23	9.12
788.975	10.12
789.721	11.12
790.466	10.12
791.212	10.12
791.957	10.12
792.702	10.12
793.447	8.12
794.193	9.12
794.938	9.12
795.683	11.12
796.427	10.12
797.172	10.12
797.917	9.12
798.662	8.12
799.406	9.12
800.151	9.12
800.895	8.12
801.64	11.12
802.384	8.12
803.128	8.12
803.872	7.12
804.616	8.12
805.36	7.12
806.104	7.12
806.848	9.12
807.592	8.12
808.336	6.12
809.079	8.12
809.823	7.12
810.566	7.12
811.31	6.12
812.053	7.12
812.796	8.12
813.539	7.12
814.283	7.12
815.026	5.12
815.769	7.12
816.511	6.12
817.254	6.12
817.997	6.12
818.74	2.12
819.482	7.12
820.225	5.12
820.967	6.12
821.71	1.12
822.452	7.12
823.194	5.12
823.936	7.12
824.678	6.12
825.42	5.12
826.162	6.12
826.904	5.12
827.646	5.12
828.388	7.12
829.129	4.12
829.871	6.12
830.612	5.12
831.354	5.12
832.095	4.12
832.836	6.12
833.577	4.12
834.319	3.12
835.06	4.12
835.801	5.12
836.542	6.12
837.282	2.12
838.023	4.12
838.764	2.12
839.504	4.12
840.245	5.12
840.985	2.12
841.726	3.12
842.466	6.12
843.206	4.12
843.946	3.12
844.687	4.12
845.427	4.12
846.166	4.12
846.906	1.12
847.646	2.12
848.386	2.12
849.125	5.12
849.865	2.12
850.605	3.12
851.344	2.12
852.083	4.12
852.823	5.12
853.562	3.12
854.301	4.12
855.04	2.12
855.779	2.12
856.518	3.12
857.257	3.12
857.995	3.12
858.734	4.12
859.473	1.12
860.211	2.12
860.95	4.12
861.688	1.12
862.426	4.12
863.165	2.12
863.903	4.12
864.641	-0.88
865.379	2.12
866.117	-1.88
866.855	3.12
867.593	3.12
868.33	4.12
869.068	2.12
869.806	1.12
870.543	1.12
871.28	-1.88
872.018	5.12
872.755	2.12
873.492	-0.88
874.229	-0.88
874.967	0.12
875.703	1.12
876.44	4.12
877.177	-0.88
877.914	4.12
878.651	-0.88
879.387	3.12
880.124	3.12
880.86	0.12
881.597	2.12
882.333	4.12
883.069	2.12
883.806	1.12
884.542	2.12
885.278	1.12
886.014	5.12
886.749	2.12
887.485	2.12
888.221	2.12
888.957	-1.88
889.692	0.12
890.428	0.12
891.163	-0.88
891.899	1.12
892.634	0.12
893.369	0.12
894.104	-0.88
894.839	0.12
895.574	1.12
896.309	3.12
897.044	0.12
897.779	0.12
898.514	2.12
899.248	2.12
899.983	0.12
900.717	0.12
901.452	0.12
902.186	-0.88
902.92	0.12
903.654	1.12
904.389	0.12
905.123	1.12
905.857	0.12
906.59	1.12
907.324	0.12
908.058	1.12
908.792	-0.88
909.525	1.12
910.259	0.12
910.992	1.12
911.726	2.12
912.459	-0.88
913.192	0.12
913.925	-0.88
914.658	0.12
915.391	-0.88
916.124	1.12
916.857	-0.88
917.59	-1.88
918.323	0.12
919.055	0.12
919.788	-0.88
920.521	0.12
921.253	-0.88
921.985	0.12
922.718	0.12
923.45	0.12
924.182	-1.88
924.914	1.12
925.646	1.12
926.378	0.12
927.11	0.12
927.841	1.12
928.573	1.12
929.305	1.12
930.036	0.12
930.768	0.12
931.499	1.12
932.23	2.12
932.962	0.12
933.693	2.12
934.424	-1.88
935.155	0.12
935.886	0.12
936.617	0.12
937.348	1.12
938.078	-1.88
938.809	2.12
939.54	-0.88
940.27	2.12
941.001	-1.88
941.731	1.12
942.461	-0.88
943.191	-0.88
943.922	-1.88
944.652	1.12
945.382	0.12
946.112	0.12
946.841	-1.88
947.571	2.12
948.301	2.12
949.031	-0.88
949.76	0.12
950.49	-1.88
951.219	1.12
951.948	-1.88
952.678	0.12
953.407	1.12
954.136	-0.88
954.865	2.12
955.594	0.12
956.323	0.12
957.052	2.12
957.78	3.12
958.509	0.12
959.238	-1.88
959.966	-0.88
960.695	-0.88
961.423	-0.88
962.151	2.12
962.88	2.12
963.608	-0.88
964.336	0.12
965.064	0.12
965.792	-0.88
966.52	0.12
967.247	1.12
967.975	-1.88
968.703	0.12
969.43	0.12
970.158	-0.88
970.885	1.12
971.613	1.12
972.34	-0.88
973.067	1.12
973.794	0.12
974.521	3.12
975.248	-0.88
975.975	0.12
976.702	-2.88
977.429	-1.88
978.156	-1.88
978.882	-0.88
979.609	1.12
980.335	0.12
981.062	0.12
981.788	0.12
982.514	0.12
983.24	0.12
983.967	1.12
984.693	2.12
985.419	-1.88
986.144	-0.88
986.87	-2.88
987.596	0.12
988.322	1.12
989.047	-1.88
989.773	0.12
990.498	0.12
991.224	1.12
991.949	2.12
992.674	0.12
993.399	1.12
994.124	0.12
994.849	1.12
995.574	0.12
996.299	-0.88
997.024	-1.88
997.749	0.12
998.473	-0.88
999.198	-0.88
999.922	0.12
1000.647	0.12
1001.371	3.12
1002.095	1.12
1002.82	-1.88
1003.544	-0.88
1004.268	1.12
1004.992	1.12
1005.716	3.12
1006.439	2.12
1007.163	2.12
1007.887	2.12
1008.611	-0.88
1009.334	0.12
1010.058	-1.88
1010.781	-0.88
1011.504	-1.88
1012.228	0.12
1012.951	-1.88
1013.674	-0.88
1014.397	0.12
1015.12	1.12
