节点500_425_QEPB04081__89__15-49-47-327.txt的数据

Date: Wed Nov 12 15:49:47 CST 2025
User: PC
Spectrometer: QEPB0408
触发模式: 0
积分时间 (秒): 1.000000E-2
Scans to average: 1
启用暗噪声校正: true
启用非线性校正: false
滑动平均宽度: 0
X轴模式: Wavelengths
Number of Pixels in Spectrum: 1044
>>>>>Begin Spectral Data<<<<<
220.843	2.88
221.644	1.88
222.444	2.88
223.244	3.88
224.045	3.88
224.845	3.88
225.645	1.88
226.445	4.88
227.245	1.88
228.045	4.88
228.845	2.88
229.645	3.88
230.444	5.88
231.244	3.88
232.043	5.88
232.843	3.88
233.642	6.88
234.442	6.88
235.241	6.88
236.04	4.88
236.839	4.88
237.638	5.88
238.437	6.88
239.236	7.88
240.035	2.88
240.833	6.88
241.632	7.88
242.43	6.88
243.229	6.88
244.027	6.88
244.826	8.88
245.624	7.88
246.422	7.88
247.22	9.88
248.018	9.88
248.816	7.88
249.614	10.88
250.412	8.88
251.21	9.88
252.007	9.88
252.805	9.88
253.602	9.88
254.4	9.88
255.197	12.88
255.994	11.88
256.791	14.88
257.589	10.88
258.386	14.88
259.183	14.88
259.979	15.88
260.776	13.88
261.573	15.88
262.37	16.88
263.166	13.88
263.963	17.88
264.759	17.88
265.556	17.88
266.352	17.88
267.148	19.88
267.944	19.88
268.74	20.88
269.536	20.88
270.332	20.88
271.128	20.88
271.924	20.88
272.719	24.88
273.515	24.88
274.311	21.88
275.106	23.88
275.901	25.88
276.697	23.88
277.492	25.88
278.287	23.88
279.082	23.88
279.877	24.88
280.672	27.88
281.467	28.88
282.262	25.88
283.056	23.88
283.851	24.88
284.646	25.88
285.44	22.88
286.234	25.88
287.029	24.88
287.823	22.88
288.617	22.88
289.411	23.88
290.205	24.88
290.999	26.88
291.793	25.88
292.587	22.88
293.381	22.88
294.174	22.88
294.968	21.88
295.761	21.88
296.555	19.88
297.348	19.88
298.141	17.88
298.935	21.88
299.728	18.88
300.521	18.88
301.314	17.88
302.107	17.88
302.899	17.88
303.692	14.88
304.485	18.88
305.277	17.88
306.07	13.88
306.862	12.88
307.655	15.88
308.447	18.88
309.239	13.88
310.031	16.88
310.823	13.88
311.615	11.88
312.407	13.88
313.199	9.88
313.991	12.88
314.783	12.88
315.574	10.88
316.366	10.88
317.157	10.88
317.949	9.88
318.74	10.88
319.531	11.88
320.322	7.88
321.113	8.88
321.904	8.88
322.695	8.88
323.486	8.88
324.277	8.88
325.068	7.88
325.858	8.88
326.649	7.88
327.439	8.88
328.23	9.88
329.02	7.88
329.81	5.88
330.6	6.88
331.391	7.88
332.181	5.88
332.971	7.88
333.76	8.88
334.55	7.88
335.34	9.88
336.13	6.88
336.919	8.88
337.709	6.88
338.498	8.88
339.287	4.88
340.077	9.88
340.866	7.88
341.655	8.88
342.444	9.88
343.233	7.88
344.022	4.88
344.811	5.88
345.6	7.88
346.388	5.88
347.177	8.88
347.965	9.88
348.754	7.88
349.542	7.88
350.33	7.88
351.119	7.88
351.907	9.88
352.695	7.88
353.483	6.88
354.271	5.88
355.059	6.88
355.846	6.88
356.634	7.88
357.422	8.88
358.209	3.88
358.997	6.88
359.784	6.88
360.571	8.88
361.359	7.88
362.146	6.88
362.933	7.88
363.72	5.88
364.507	7.88
365.294	5.88
366.081	3.88
366.867	5.88
367.654	4.88
368.44	4.88
369.227	6.88
370.013	6.88
370.8	5.88
371.586	5.88
372.372	8.88
373.158	6.88
373.944	6.88
374.73	7.88
375.516	6.88
376.302	7.88
377.088	5.88
377.873	6.88
378.659	4.88
379.445	3.88
380.23	7.88
381.015	6.88
381.801	6.88
382.586	4.88
383.371	6.88
384.156	5.88
384.941	6.88
385.726	6.88
386.511	4.88
387.296	7.88
388.08	6.88
388.865	7.88
389.649	7.88
390.434	7.88
391.218	6.88
392.003	8.88
392.787	7.88
393.571	7.88
394.355	7.88
395.139	8.88
395.923	6.88
396.707	7.88
397.491	10.88
398.274	5.88
399.058	10.88
399.842	7.88
400.625	8.88
401.408	10.88
402.192	11.88
402.975	6.88
403.758	10.88
404.541	9.88
405.324	10.88
406.107	10.88
406.89	7.88
407.673	9.88
408.456	12.88
409.238	10.88
410.021	9.88
410.803	10.88
411.586	13.88
412.368	11.88
413.151	9.88
413.933	13.88
414.715	12.88
415.497	13.88
416.279	12.88
417.061	14.88
417.843	9.88
418.624	11.88
419.406	14.88
420.188	14.88
420.969	12.88
421.751	12.88
422.532	16.88
423.313	13.88
424.095	15.88
424.876	17.88
425.657	16.88
426.438	17.88
427.219	18.88
428	20.88
428.78	15.88
429.561	18.88
430.342	18.88
431.122	19.88
431.903	20.88
432.683	21.88
433.464	21.88
434.244	23.88
435.024	22.88
435.804	24.88
436.584	25.88
437.364	28.88
438.144	23.88
438.924	30.88
439.704	32.88
440.483	29.88
441.263	35.88
442.042	38.88
442.822	38.88
443.601	42.88
444.38	44.88
445.16	45.88
445.939	51.88
446.718	55.88
447.497	54.88
448.276	63.88
449.054	64.88
449.833	72.88
450.612	80.88
451.391	85.88
452.169	95.88
452.948	105.88
453.726	118.88
454.504	129.88
455.282	146.88
456.061	156.88
456.839	179.88
457.617	189.88
458.395	216.88
459.172	240.88
459.95	275.88
460.728	305.88
461.506	330.88
462.283	372.88
463.061	423.88
463.838	471.88
464.615	529.88
465.393	578.88
466.17	661.88
466.947	741.88
467.724	826.88
468.501	911.88
469.278	1016.88
470.055	1121.88
470.831	1263.88
471.608	1405.88
472.385	1551.88
473.161	1719.88
473.938	1919.88
474.714	2116.88
475.49	2385.88
476.266	2613.88
477.043	2873.88
477.819	3212.88
478.595	3546.88
479.371	3917.88
480.146	4303.88
480.922	4749.88
481.698	5253.88
482.473	5790.88
483.249	6332.88
484.024	6982.88
484.8	7682.88
485.575	8414.88
486.35	9216.88
487.126	10079.88
487.901	11042.88
488.676	12121.88
489.451	13186.88
490.225	14381.88
491	15624.88
491.775	16969.88
492.55	18348.88
493.324	19836.88
494.099	21253.88
494.873	22694.88
495.647	24269.88
496.422	25769.88
497.196	27388.88
497.97	28988.88
498.744	30420.88
499.518	31846.88
500.292	33118.88
501.066	34207.88
501.839	35232.88
502.613	36117.88
503.387	36710.88
504.16	37089.88
504.934	37147.88
505.707	36991.88
506.48	36714.88
507.253	36302.88
508.027	35666.88
508.8	34875.88
509.573	33946.88
510.346	32932.88
511.118	31879.88
511.891	30744.88
512.664	29477.88
513.437	28230.88
514.209	26972.88
514.982	25958.88
515.754	24807.88
516.526	23693.88
517.298	22684.88
518.071	21648.88
518.843	20800.88
519.615	19985.88
520.387	19136.88
521.159	18415.88
521.93	17744.88
522.702	16997.88
523.474	16326.88
524.245	15647.88
525.017	14945.88
525.788	14243.88
526.56	13589.88
527.331	12933.88
528.102	12300.88
528.873	11717.88
529.644	11145.88
530.415	10632.88
531.186	10048.88
531.957	9490.88
532.728	8939.88
533.498	8495.88
534.269	8021.88
535.039	7527.88
535.81	7155.88
536.58	6765.88
537.351	6345.88
538.121	6013.88
538.891	5670.88
539.661	5414.88
540.431	5110.88
541.201	4870.88
541.971	4572.88
542.741	4347.88
543.51	4161.88
544.28	3915.88
545.05	3732.88
545.819	3549.88
546.588	3380.88
547.358	3198.88
548.127	3039.88
548.896	2865.88
549.665	2720.88
550.434	2596.88
551.203	2444.88
551.972	2314.88
552.741	2183.88
553.51	2072.88
554.278	1952.88
555.047	1831.88
555.815	1724.88
556.584	1647.88
557.352	1542.88
558.121	1450.88
558.889	1382.88
559.657	1289.88
560.425	1227.88
561.193	1156.88
561.961	1098.88
562.729	1036.88
563.496	969.88
564.264	928.88
565.032	878.88
565.799	828.88
566.567	784.88
567.334	743.88
568.101	710.88
568.869	651.88
569.636	625.88
570.403	585.88
571.17	555.88
571.937	520.88
572.704	491.88
573.471	461.88
574.237	441.88
575.004	414.88
575.771	397.88
576.537	372.88
577.303	345.88
578.07	319.88
578.836	312.88
579.602	289.88
580.368	276.88
581.134	264.88
581.9	246.88
582.666	232.88
583.432	221.88
584.198	207.88
584.964	203.88
585.729	198.88
586.495	176.88
587.26	173.88
588.025	161.88
588.791	148.88
589.556	148.88
590.321	144.88
591.086	129.88
591.851	127.88
592.616	121.88
593.381	110.88
594.146	104.88
594.911	101.88
595.675	100.88
596.44	91.88
597.204	92.88
597.969	82.88
598.733	83.88
599.497	80.88
600.261	72.88
601.025	73.88
601.79	67.88
602.553	66.88
603.317	60.88
604.081	55.88
604.845	56.88
605.609	56.88
606.372	52.88
607.136	49.88
607.899	47.88
608.662	45.88
609.426	45.88
610.189	46.88
610.952	37.88
611.715	40.88
612.478	38.88
613.241	36.88
614.004	39.88
614.767	31.88
615.529	32.88
616.292	31.88
617.055	31.88
617.817	32.88
618.579	27.88
619.342	28.88
620.104	26.88
620.866	24.88
621.628	24.88
622.39	21.88
623.152	23.88
623.914	22.88
624.676	22.88
625.438	21.88
626.199	21.88
626.961	19.88
627.722	19.88
628.484	19.88
629.245	18.88
630.006	19.88
630.768	19.88
631.529	15.88
632.29	15.88
633.051	13.88
633.812	15.88
634.573	14.88
635.333	15.88
636.094	13.88
636.855	12.88
637.615	13.88
638.376	10.88
639.136	11.88
639.896	13.88
640.657	12.88
641.417	11.88
642.177	12.88
642.937	13.88
643.697	11.88
644.457	12.88
645.216	8.88
645.976	9.88
646.736	9.88
647.495	7.88
648.255	10.88
649.014	10.88
649.774	10.88
650.533	9.88
651.292	8.88
652.051	11.88
652.81	9.88
653.569	8.88
654.328	6.88
655.087	10.88
655.846	8.88
656.604	8.88
657.363	6.88
658.121	7.88
658.88	7.88
659.638	7.88
660.397	5.88
661.155	9.88
661.913	7.88
662.671	7.88
663.429	7.88
664.187	4.88
664.945	7.88
665.703	4.88
666.46	9.88
667.218	6.88
667.976	6.88
668.733	6.88
669.49	5.88
670.248	3.88
671.005	5.88
671.762	6.88
672.519	8.88
673.276	6.88
674.033	5.88
674.79	2.88
675.547	5.88
676.304	4.88
677.06	3.88
677.817	5.88
678.574	6.88
679.33	4.88
680.086	4.88
680.843	5.88
681.599	6.88
682.355	3.88
683.111	6.88
683.867	4.88
684.623	5.88
685.379	4.88
686.135	5.88
686.89	4.88
687.646	4.88
688.402	5.88
689.157	2.88
689.912	3.88
690.668	3.88
691.423	6.88
692.178	4.88
692.933	4.88
693.688	5.88
694.443	6.88
695.198	3.88
695.953	3.88
696.708	3.88
697.462	3.88
698.217	1.88
698.972	4.88
699.726	2.88
700.48	4.88
701.235	3.88
701.989	3.88
702.743	4.88
703.497	3.88
704.251	3.88
705.005	3.88
705.759	4.88
706.513	4.88
707.266	3.88
708.02	4.88
708.774	5.88
709.527	6.88
710.28	1.88
711.034	5.88
711.787	3.88
712.54	0.88
713.293	4.88
714.046	6.88
714.799	3.88
715.552	5.88
716.305	3.88
717.058	5.88
717.81	3.88
718.563	3.88
719.315	5.88
720.068	4.88
720.82	4.88
721.573	4.88
722.325	4.88
723.077	4.88
723.829	3.88
724.581	4.88
725.333	4.88
726.085	4.88
726.836	2.88
727.588	3.88
728.34	5.88
729.091	6.88
729.843	2.88
730.594	2.88
731.346	3.88
732.097	4.88
732.848	5.88
733.599	4.88
734.35	5.88
735.101	5.88
735.852	4.88
736.603	4.88
737.354	4.88
738.104	2.88
738.855	4.88
739.605	5.88
740.356	4.88
741.106	6.88
741.856	6.88
742.607	5.88
743.357	9.88
744.107	9.88
744.857	5.88
745.607	5.88
746.357	5.88
747.106	4.88
747.856	7.88
748.606	9.88
749.355	7.88
750.105	8.88
750.854	10.88
751.603	7.88
752.353	7.88
753.102	6.88
753.851	6.88
754.6	9.88
755.349	4.88
756.098	7.88
756.847	7.88
757.595	7.88
758.344	6.88
759.093	8.88
759.841	10.88
760.589	7.88
761.338	9.88
762.086	11.88
762.834	11.88
763.582	9.88
764.331	10.88
765.079	11.88
765.826	12.88
766.574	8.88
767.322	11.88
768.07	7.88
768.817	9.88
769.565	8.88
770.312	11.88
771.06	10.88
771.807	9.88
772.554	9.88
773.302	10.88
774.049	11.88
774.796	11.88
775.543	8.88
776.29	11.88
777.036	11.88
777.783	10.88
778.53	12.88
779.276	12.88
780.023	10.88
780.769	10.88
781.516	11.88
782.262	10.88
783.008	13.88
783.754	12.88
784.5	13.88
785.246	12.88
785.992	10.88
786.738	10.88
787.484	12.88
788.23	11.88
788.975	11.88
789.721	11.88
790.466	9.88
791.212	9.88
791.957	13.88
792.702	9.88
793.447	10.88
794.193	11.88
794.938	11.88
795.683	7.88
796.427	9.88
797.172	9.88
797.917	10.88
798.662	8.88
799.406	8.88
800.151	8.88
800.895	7.88
801.64	9.88
802.384	11.88
803.128	7.88
803.872	5.88
804.616	10.88
805.36	4.88
806.104	8.88
806.848	6.88
807.592	6.88
808.336	6.88
809.079	7.88
809.823	7.88
810.566	6.88
811.31	5.88
812.053	5.88
812.796	5.88
813.539	4.88
814.283	6.88
815.026	6.88
815.769	6.88
816.511	5.88
817.254	7.88
817.997	6.88
818.74	5.88
819.482	6.88
820.225	7.88
820.967	4.88
821.71	2.88
822.452	4.88
823.194	2.88
823.936	6.88
824.678	5.88
825.42	4.88
826.162	3.88
826.904	2.88
827.646	5.88
828.388	1.88
829.129	5.88
829.871	4.88
830.612	3.88
831.354	6.88
832.095	1.88
832.836	3.88
833.577	3.88
834.319	2.88
835.06	3.88
835.801	2.88
836.542	0.88
837.282	2.88
838.023	4.88
838.764	1.88
839.504	0.88
840.245	3.88
840.985	2.88
841.726	3.88
842.466	2.88
843.206	1.88
843.946	3.88
844.687	1.88
845.427	2.88
846.166	3.88
846.906	1.88
847.646	3.88
848.386	3.88
849.125	1.88
849.865	3.88
850.605	5.88
851.344	3.88
852.083	5.88
852.823	1.88
853.562	-0.12
854.301	2.88
855.04	2.88
855.779	3.88
856.518	0.88
857.257	3.88
857.995	0.88
858.734	2.88
859.473	0.88
860.211	2.88
860.95	3.88
861.688	1.88
862.426	3.88
863.165	1.88
863.903	0.88
864.641	2.88
865.379	1.88
866.117	1.88
866.855	0.88
867.593	0.88
868.33	1.88
869.068	1.88
869.806	1.88
870.543	2.88
871.28	-0.12
872.018	1.88
872.755	1.88
873.492	-0.12
874.229	-0.12
874.967	0.88
875.703	0.88
876.44	-0.12
877.177	-0.12
877.914	0.88
878.651	1.88
879.387	0.88
880.124	-0.12
880.86	1.88
881.597	-1.12
882.333	0.88
883.069	2.88
883.806	0.88
884.542	-0.12
885.278	1.88
886.014	1.88
886.749	0.88
887.485	0.88
888.221	0.88
888.957	1.88
889.692	3.88
890.428	1.88
891.163	0.88
891.899	-1.12
892.634	0.88
893.369	-1.12
894.104	-0.12
894.839	0.88
895.574	-0.12
896.309	-2.12
897.044	1.88
897.779	-0.12
898.514	-1.12
899.248	-0.12
899.983	-0.12
900.717	-1.12
901.452	1.88
902.186	1.88
902.92	-1.12
903.654	-1.12
904.389	-2.12
905.123	1.88
905.857	1.88
906.59	-1.12
907.324	0.88
908.058	-0.12
908.792	1.88
909.525	1.88
910.259	1.88
910.992	-1.12
911.726	1.88
912.459	-1.12
913.192	-0.12
913.925	0.88
914.658	-1.12
915.391	-1.12
916.124	-1.12
916.857	-0.12
917.59	0.88
918.323	-1.12
919.055	-2.12
919.788	0.88
920.521	-1.12
921.253	-2.12
921.985	-1.12
922.718	2.88
923.45	0.88
924.182	-0.12
924.914	1.88
925.646	0.88
926.378	0.88
927.11	-0.12
927.841	-0.12
928.573	-2.12
929.305	1.88
930.036	-1.12
930.768	-2.12
931.499	-1.12
932.23	-0.12
932.962	-1.12
933.693	-0.12
934.424	-2.12
935.155	0.88
935.886	-1.12
936.617	-2.12
937.348	-3.12
938.078	0.88
938.809	-1.12
939.54	-2.12
940.27	-0.12
941.001	-3.12
941.731	-0.12
942.461	0.88
943.191	-1.12
943.922	-0.12
944.652	-0.12
945.382	-0.12
946.112	-0.12
946.841	0.88
947.571	-0.12
948.301	0.88
949.031	0.88
949.76	-0.12
950.49	-0.12
951.219	0.88
951.948	-1.12
952.678	1.88
953.407	-1.12
954.136	-0.12
954.865	-1.12
955.594	1.88
956.323	-1.12
957.052	-1.12
957.78	0.88
958.509	-1.12
959.238	-0.12
959.966	-0.12
960.695	-0.12
961.423	-0.12
962.151	-2.12
962.88	0.88
963.608	-0.12
964.336	-0.12
965.064	-1.12
965.792	0.88
966.52	-1.12
967.247	-1.12
967.975	-0.12
968.703	-0.12
969.43	0.88
970.158	-0.12
970.885	-1.12
971.613	-0.12
972.34	-2.12
973.067	-2.12
973.794	-3.12
974.521	-1.12
975.248	-0.12
975.975	-2.12
976.702	0.88
977.429	0.88
978.156	0.88
978.882	0.88
979.609	-0.12
980.335	0.88
981.062	0.88
981.788	-1.12
982.514	-2.12
983.24	-1.12
983.967	-3.12
984.693	-1.12
985.419	-0.12
986.144	-4.12
986.87	1.88
987.596	-1.12
988.322	-2.12
989.047	-2.12
989.773	-2.12
990.498	-0.12
991.224	-0.12
991.949	-0.12
992.674	-0.12
993.399	-0.12
994.124	-1.12
994.849	-0.12
995.574	1.88
996.299	-0.12
997.024	-0.12
997.749	-1.12
998.473	-3.12
999.198	1.88
999.922	-0.12
1000.647	1.88
1001.371	1.88
1002.095	-0.12
1002.82	-0.12
1003.544	-1.12
1004.268	1.88
1004.992	1.88
1005.716	-0.12
1006.439	1.88
1007.163	0.88
1007.887	1.88
1008.611	-2.12
1009.334	-0.12
1010.058	-0.12
1010.781	-2.12
1011.504	1.88
1012.228	1.88
1012.951	1.88
1013.674	-1.12
1014.397	-1.12
1015.12	-0.12
