节点500_425_QEPB04081__95__15-49-53-344.txt的数据

Date: Wed Nov 12 15:49:53 CST 2025
User: PC
Spectrometer: QEPB0408
触发模式: 0
积分时间 (秒): 1.000000E-2
Scans to average: 1
启用暗噪声校正: true
启用非线性校正: false
滑动平均宽度: 0
X轴模式: Wavelengths
Number of Pixels in Spectrum: 1044
>>>>>Begin Spectral Data<<<<<
220.843	2.25
221.644	3.25
222.444	1.25
223.244	3.25
224.045	5.25
224.845	4.25
225.645	2.25
226.445	4.25
227.245	4.25
228.045	2.25
228.845	2.25
229.645	3.25
230.444	3.25
231.244	5.25
232.043	4.25
232.843	6.25
233.642	4.25
234.442	3.25
235.241	5.25
236.04	5.25
236.839	7.25
237.638	7.25
238.437	5.25
239.236	5.25
240.035	5.25
240.833	7.25
241.632	7.25
242.43	8.25
243.229	9.25
244.027	8.25
244.826	8.25
245.624	9.25
246.422	6.25
247.22	8.25
248.018	10.25
248.816	6.25
249.614	9.25
250.412	9.25
251.21	12.25
252.007	11.25
252.805	8.25
253.602	12.25
254.4	12.25
255.197	13.25
255.994	12.25
256.791	14.25
257.589	12.25
258.386	14.25
259.183	14.25
259.979	16.25
260.776	13.25
261.573	15.25
262.37	18.25
263.166	14.25
263.963	20.25
264.759	18.25
265.556	21.25
266.352	17.25
267.148	21.25
267.944	22.25
268.74	20.25
269.536	21.25
270.332	23.25
271.128	23.25
271.924	22.25
272.719	25.25
273.515	25.25
274.311	22.25
275.106	25.25
275.901	25.25
276.697	24.25
277.492	26.25
278.287	25.25
279.082	24.25
279.877	24.25
280.672	25.25
281.467	28.25
282.262	29.25
283.056	27.25
283.851	26.25
284.646	27.25
285.44	24.25
286.234	28.25
287.029	28.25
287.823	27.25
288.617	26.25
289.411	23.25
290.205	25.25
290.999	27.25
291.793	26.25
292.587	25.25
293.381	21.25
294.174	24.25
294.968	22.25
295.761	20.25
296.555	21.25
297.348	20.25
298.141	21.25
298.935	20.25
299.728	20.25
300.521	20.25
301.314	20.25
302.107	20.25
302.899	16.25
303.692	20.25
304.485	16.25
305.277	18.25
306.07	19.25
306.862	15.25
307.655	17.25
308.447	13.25
309.239	16.25
310.031	12.25
310.823	14.25
311.615	13.25
312.407	11.25
313.199	11.25
313.991	14.25
314.783	12.25
315.574	12.25
316.366	9.25
317.157	9.25
317.949	8.25
318.74	13.25
319.531	12.25
320.322	11.25
321.113	9.25
321.904	8.25
322.695	10.25
323.486	9.25
324.277	8.25
325.068	10.25
325.858	8.25
326.649	12.25
327.439	9.25
328.23	9.25
329.02	8.25
329.81	8.25
330.6	9.25
331.391	8.25
332.181	7.25
332.971	8.25
333.76	10.25
334.55	9.25
335.34	8.25
336.13	7.25
336.919	9.25
337.709	8.25
338.498	9.25
339.287	9.25
340.077	8.25
340.866	7.25
341.655	8.25
342.444	8.25
343.233	9.25
344.022	7.25
344.811	7.25
345.6	8.25
346.388	9.25
347.177	8.25
347.965	6.25
348.754	11.25
349.542	10.25
350.33	7.25
351.119	7.25
351.907	6.25
352.695	8.25
353.483	6.25
354.271	12.25
355.059	7.25
355.846	8.25
356.634	8.25
357.422	9.25
358.209	8.25
358.997	8.25
359.784	8.25
360.571	6.25
361.359	5.25
362.146	7.25
362.933	5.25
363.72	6.25
364.507	8.25
365.294	5.25
366.081	7.25
366.867	5.25
367.654	7.25
368.44	8.25
369.227	5.25
370.013	7.25
370.8	7.25
371.586	8.25
372.372	7.25
373.158	7.25
373.944	8.25
374.73	4.25
375.516	7.25
376.302	6.25
377.088	6.25
377.873	8.25
378.659	5.25
379.445	5.25
380.23	5.25
381.015	8.25
381.801	7.25
382.586	8.25
383.371	8.25
384.156	5.25
384.941	7.25
385.726	7.25
386.511	8.25
387.296	10.25
388.08	8.25
388.865	8.25
389.649	8.25
390.434	7.25
391.218	7.25
392.003	9.25
392.787	8.25
393.571	9.25
394.355	9.25
395.139	7.25
395.923	9.25
396.707	9.25
397.491	11.25
398.274	9.25
399.058	8.25
399.842	11.25
400.625	9.25
401.408	11.25
402.192	11.25
402.975	9.25
403.758	10.25
404.541	9.25
405.324	9.25
406.107	12.25
406.89	11.25
407.673	10.25
408.456	10.25
409.238	11.25
410.021	8.25
410.803	12.25
411.586	11.25
412.368	13.25
413.151	11.25
413.933	12.25
414.715	14.25
415.497	14.25
416.279	13.25
417.061	13.25
417.843	13.25
418.624	15.25
419.406	13.25
420.188	15.25
420.969	14.25
421.751	14.25
422.532	15.25
423.313	15.25
424.095	14.25
424.876	14.25
425.657	19.25
426.438	13.25
427.219	17.25
428	17.25
428.78	20.25
429.561	19.25
430.342	18.25
431.122	21.25
431.903	20.25
432.683	20.25
433.464	24.25
434.244	24.25
435.024	26.25
435.804	21.25
436.584	27.25
437.364	30.25
438.144	30.25
438.924	33.25
439.704	31.25
440.483	32.25
441.263	35.25
442.042	38.25
442.822	39.25
443.601	43.25
444.38	42.25
445.16	47.25
445.939	51.25
446.718	58.25
447.497	55.25
448.276	65.25
449.054	66.25
449.833	75.25
450.612	84.25
451.391	88.25
452.169	94.25
452.948	103.25
453.726	115.25
454.504	128.25
455.282	139.25
456.061	160.25
456.839	177.25
457.617	196.25
458.395	213.25
459.172	246.25
459.95	264.25
460.728	296.25
461.506	329.25
462.283	376.25
463.061	428.25
463.838	471.25
464.615	532.25
465.393	586.25
466.17	658.25
466.947	738.25
467.724	825.25
468.501	912.25
469.278	1024.25
470.055	1122.25
470.831	1259.25
471.608	1392.25
472.385	1570.25
473.161	1741.25
473.938	1918.25
474.714	2129.25
475.49	2366.25
476.266	2596.25
477.043	2896.25
477.819	3216.25
478.595	3567.25
479.371	3933.25
480.146	4302.25
480.922	4772.25
481.698	5230.25
482.473	5756.25
483.249	6341.25
484.024	6998.25
484.8	7658.25
485.575	8390.25
486.35	9222.25
487.126	10086.25
487.901	11066.25
488.676	12110.25
489.451	13199.25
490.225	14372.25
491	15586.25
491.775	16971.25
492.55	18379.25
493.324	19781.25
494.099	21222.25
494.873	22623.25
495.647	24178.25
496.422	25777.25
497.196	27300.25
497.97	28909.25
498.744	30494.25
499.518	31836.25
500.292	33086.25
501.066	34146.25
501.839	35222.25
502.613	36091.25
503.387	36667.25
504.16	37038.25
504.934	37142.25
505.707	36971.25
506.48	36727.25
507.253	36222.25
508.027	35629.25
508.8	34845.25
509.573	33936.25
510.346	32863.25
511.118	31865.25
511.891	30774.25
512.664	29424.25
513.437	28273.25
514.209	27054.25
514.982	25918.25
515.754	24828.25
516.526	23708.25
517.298	22690.25
518.071	21707.25
518.843	20803.25
519.615	19960.25
520.387	19153.25
521.159	18453.25
521.93	17704.25
522.702	17079.25
523.474	16400.25
524.245	15701.25
525.017	14942.25
525.788	14249.25
526.56	13561.25
527.331	12970.25
528.102	12341.25
528.873	11701.25
529.644	11111.25
530.415	10637.25
531.186	10086.25
531.957	9512.25
532.728	9004.25
533.498	8498.25
534.269	8014.25
535.039	7573.25
535.81	7132.25
536.58	6748.25
537.351	6335.25
538.121	6008.25
538.891	5701.25
539.661	5409.25
540.431	5111.25
541.201	4849.25
541.971	4594.25
542.741	4355.25
543.51	4141.25
544.28	3925.25
545.05	3721.25
545.819	3591.25
546.588	3388.25
547.358	3205.25
548.127	3030.25
548.896	2880.25
549.665	2727.25
550.434	2586.25
551.203	2447.25
551.972	2325.25
552.741	2202.25
553.51	2085.25
554.278	1942.25
555.047	1845.25
555.815	1734.25
556.584	1646.25
557.352	1548.25
558.121	1456.25
558.889	1372.25
559.657	1312.25
560.425	1226.25
561.193	1154.25
561.961	1093.25
562.729	1031.25
563.496	986.25
564.264	930.25
565.032	878.25
565.799	830.25
566.567	784.25
567.334	740.25
568.101	705.25
568.869	671.25
569.636	630.25
570.403	585.25
571.17	550.25
571.937	523.25
572.704	492.25
573.471	475.25
574.237	437.25
575.004	422.25
575.771	391.25
576.537	374.25
577.303	344.25
578.07	330.25
578.836	306.25
579.602	298.25
580.368	275.25
581.134	258.25
581.9	248.25
582.666	235.25
583.432	219.25
584.198	217.25
584.964	197.25
585.729	197.25
586.495	179.25
587.26	169.25
588.025	166.25
588.791	159.25
589.556	148.25
590.321	141.25
591.086	133.25
591.851	128.25
592.616	121.25
593.381	111.25
594.146	106.25
594.911	101.25
595.675	98.25
596.44	94.25
597.204	92.25
597.969	89.25
598.733	80.25
599.497	81.25
600.261	78.25
601.025	70.25
601.79	69.25
602.553	67.25
603.317	62.25
604.081	59.25
604.845	59.25
605.609	57.25
606.372	54.25
607.136	49.25
607.899	51.25
608.662	45.25
609.426	47.25
610.189	46.25
610.952	43.25
611.715	40.25
612.478	38.25
613.241	37.25
614.004	36.25
614.767	36.25
615.529	36.25
616.292	34.25
617.055	32.25
617.817	30.25
618.579	32.25
619.342	29.25
620.104	28.25
620.866	28.25
621.628	26.25
622.39	25.25
623.152	22.25
623.914	25.25
624.676	24.25
625.438	23.25
626.199	22.25
626.961	17.25
627.722	20.25
628.484	19.25
629.245	17.25
630.006	20.25
630.768	18.25
631.529	16.25
632.29	16.25
633.051	17.25
633.812	15.25
634.573	16.25
635.333	15.25
636.094	15.25
636.855	17.25
637.615	13.25
638.376	15.25
639.136	15.25
639.896	12.25
640.657	11.25
641.417	11.25
642.177	15.25
642.937	12.25
643.697	11.25
644.457	12.25
645.216	12.25
645.976	11.25
646.736	12.25
647.495	12.25
648.255	12.25
649.014	11.25
649.774	11.25
650.533	8.25
651.292	7.25
652.051	10.25
652.81	10.25
653.569	8.25
654.328	9.25
655.087	9.25
655.846	9.25
656.604	7.25
657.363	8.25
658.121	8.25
658.88	10.25
659.638	9.25
660.397	8.25
661.155	8.25
661.913	8.25
662.671	8.25
663.429	7.25
664.187	6.25
664.945	7.25
665.703	6.25
666.46	6.25
667.218	8.25
667.976	7.25
668.733	5.25
669.49	9.25
670.248	7.25
671.005	6.25
671.762	6.25
672.519	4.25
673.276	6.25
674.033	5.25
674.79	7.25
675.547	5.25
676.304	6.25
677.06	6.25
677.817	5.25
678.574	6.25
679.33	5.25
680.086	8.25
680.843	4.25
681.599	6.25
682.355	4.25
683.111	6.25
683.867	5.25
684.623	4.25
685.379	5.25
686.135	7.25
686.89	5.25
687.646	4.25
688.402	6.25
689.157	5.25
689.912	5.25
690.668	6.25
691.423	5.25
692.178	4.25
692.933	6.25
693.688	4.25
694.443	6.25
695.198	6.25
695.953	6.25
696.708	5.25
697.462	5.25
698.217	4.25
698.972	3.25
699.726	5.25
700.48	2.25
701.235	2.25
701.989	3.25
702.743	3.25
703.497	5.25
704.251	4.25
705.005	7.25
705.759	4.25
706.513	6.25
707.266	6.25
708.02	5.25
708.774	6.25
709.527	6.25
710.28	3.25
711.034	5.25
711.787	5.25
712.54	3.25
713.293	6.25
714.046	5.25
714.799	6.25
715.552	3.25
716.305	8.25
717.058	6.25
717.81	5.25
718.563	3.25
719.315	4.25
720.068	6.25
720.82	5.25
721.573	6.25
722.325	4.25
723.077	7.25
723.829	4.25
724.581	4.25
725.333	6.25
726.085	4.25
726.836	7.25
727.588	7.25
728.34	5.25
729.091	5.25
729.843	6.25
730.594	4.25
731.346	6.25
732.097	6.25
732.848	5.25
733.599	7.25
734.35	7.25
735.101	6.25
735.852	8.25
736.603	5.25
737.354	5.25
738.104	6.25
738.855	5.25
739.605	7.25
740.356	6.25
741.106	8.25
741.856	6.25
742.607	6.25
743.357	6.25
744.107	5.25
744.857	8.25
745.607	5.25
746.357	8.25
747.106	10.25
747.856	8.25
748.606	6.25
749.355	8.25
750.105	6.25
750.854	7.25
751.603	10.25
752.353	8.25
753.102	9.25
753.851	12.25
754.6	8.25
755.349	8.25
756.098	7.25
756.847	8.25
757.595	8.25
758.344	8.25
759.093	9.25
759.841	7.25
760.589	8.25
761.338	9.25
762.086	6.25
762.834	10.25
763.582	6.25
764.331	10.25
765.079	12.25
765.826	12.25
766.574	10.25
767.322	11.25
768.07	10.25
768.817	9.25
769.565	12.25
770.312	10.25
771.06	12.25
771.807	14.25
772.554	8.25
773.302	11.25
774.049	11.25
774.796	11.25
775.543	12.25
776.29	10.25
777.036	11.25
777.783	10.25
778.53	12.25
779.276	13.25
780.023	11.25
780.769	12.25
781.516	11.25
782.262	13.25
783.008	10.25
783.754	12.25
784.5	12.25
785.246	13.25
785.992	13.25
786.738	11.25
787.484	9.25
788.23	10.25
788.975	12.25
789.721	12.25
790.466	11.25
791.212	8.25
791.957	12.25
792.702	13.25
793.447	11.25
794.193	8.25
794.938	10.25
795.683	11.25
796.427	11.25
797.172	12.25
797.917	8.25
798.662	11.25
799.406	8.25
800.151	9.25
800.895	10.25
801.64	8.25
802.384	9.25
803.128	8.25
803.872	9.25
804.616	8.25
805.36	10.25
806.104	8.25
806.848	6.25
807.592	8.25
808.336	6.25
809.079	9.25
809.823	7.25
810.566	7.25
811.31	7.25
812.053	6.25
812.796	8.25
813.539	7.25
814.283	7.25
815.026	7.25
815.769	5.25
816.511	6.25
817.254	6.25
817.997	7.25
818.74	7.25
819.482	4.25
820.225	4.25
820.967	6.25
821.71	8.25
822.452	8.25
823.194	5.25
823.936	6.25
824.678	6.25
825.42	4.25
826.162	4.25
826.904	5.25
827.646	5.25
828.388	5.25
829.129	3.25
829.871	4.25
830.612	4.25
831.354	2.25
832.095	2.25
832.836	3.25
833.577	4.25
834.319	6.25
835.06	4.25
835.801	5.25
836.542	4.25
837.282	5.25
838.023	3.25
838.764	4.25
839.504	7.25
840.245	3.25
840.985	4.25
841.726	5.25
842.466	3.25
843.206	3.25
843.946	3.25
844.687	6.25
845.427	3.25
846.166	3.25
846.906	1.25
847.646	3.25
848.386	4.25
849.125	3.25
849.865	1.25
850.605	3.25
851.344	2.25
852.083	3.25
852.823	3.25
853.562	4.25
854.301	2.25
855.04	5.25
855.779	2.25
856.518	2.25
857.257	4.25
857.995	1.25
858.734	3.25
859.473	5.25
860.211	1.25
860.95	6.25
861.688	4.25
862.426	3.25
863.165	1.25
863.903	2.25
864.641	0.25
865.379	2.25
866.117	1.25
866.855	2.25
867.593	2.25
868.33	1.25
869.068	2.25
869.806	3.25
870.543	1.25
871.28	0.25
872.018	3.25
872.755	1.25
873.492	1.25
874.229	0.25
874.967	1.25
875.703	1.25
876.44	2.25
877.177	5.25
877.914	0.25
878.651	2.25
879.387	0.25
880.124	2.25
880.86	1.25
881.597	-0.75
882.333	2.25
883.069	1.25
883.806	0.25
884.542	0.25
885.278	2.25
886.014	1.25
886.749	0.25
887.485	2.25
888.221	0.25
888.957	1.25
889.692	2.25
890.428	0.25
891.163	1.25
891.899	1.25
892.634	2.25
893.369	0.25
894.104	0.25
894.839	1.25
895.574	1.25
896.309	1.25
897.044	2.25
897.779	1.25
898.514	2.25
899.248	2.25
899.983	1.25
900.717	0.25
901.452	2.25
902.186	1.25
902.92	1.25
903.654	1.25
904.389	-0.75
905.123	-0.75
905.857	0.25
906.59	2.25
907.324	0.25
908.058	3.25
908.792	0.25
909.525	1.25
910.259	-0.75
910.992	0.25
911.726	2.25
912.459	1.25
913.192	-0.75
913.925	-1.75
914.658	1.25
915.391	1.25
916.124	0.25
916.857	0.25
917.59	0.25
918.323	2.25
919.055	0.25
919.788	1.25
920.521	0.25
921.253	-0.75
921.985	-0.75
922.718	1.25
923.45	1.25
924.182	3.25
924.914	-0.75
925.646	0.25
926.378	0.25
927.11	1.25
927.841	2.25
928.573	1.25
929.305	1.25
930.036	-0.75
930.768	1.25
931.499	0.25
932.23	0.25
932.962	0.25
933.693	1.25
934.424	0.25
935.155	0.25
935.886	0.25
936.617	-0.75
937.348	1.25
938.078	3.25
938.809	0.25
939.54	0.25
940.27	0.25
941.001	1.25
941.731	0.25
942.461	-0.75
943.191	2.25
943.922	0.25
944.652	0.25
945.382	0.25
946.112	-1.75
946.841	1.25
947.571	-0.75
948.301	1.25
949.031	0.25
949.76	1.25
950.49	0.25
951.219	-0.75
951.948	0.25
952.678	-0.75
953.407	1.25
954.136	-0.75
954.865	0.25
955.594	0.25
956.323	0.25
957.052	1.25
957.78	1.25
958.509	1.25
959.238	1.25
959.966	0.25
960.695	1.25
961.423	1.25
962.151	0.25
962.88	-0.75
963.608	0.25
964.336	0.25
965.064	-0.75
965.792	1.25
966.52	2.25
967.247	1.25
967.975	1.25
968.703	-0.75
969.43	0.25
970.158	0.25
970.885	1.25
971.613	-0.75
972.34	2.25
973.067	1.25
973.794	-1.75
974.521	1.25
975.248	0.25
975.975	0.25
976.702	-1.75
977.429	0.25
978.156	2.25
978.882	0.25
979.609	1.25
980.335	-0.75
981.062	1.25
981.788	3.25
982.514	0.25
983.24	1.25
983.967	-0.75
984.693	0.25
985.419	-1.75
986.144	1.25
986.87	0.25
987.596	-1.75
988.322	0.25
989.047	-0.75
989.773	-0.75
990.498	0.25
991.224	-0.75
991.949	1.25
992.674	-1.75
993.399	0.25
994.124	-1.75
994.849	0.25
995.574	0.25
996.299	-0.75
997.024	0.25
997.749	1.25
998.473	3.25
999.198	0.25
999.922	-1.75
1000.647	-0.75
1001.371	1.25
1002.095	-1.75
1002.82	1.25
1003.544	-1.75
1004.268	1.25
1004.992	1.25
1005.716	0.25
1006.439	2.25
1007.163	3.25
1007.887	0.25
1008.611	-0.75
1009.334	0.25
1010.058	-0.75
1010.781	1.25
1011.504	1.25
1012.228	0.25
1012.951	0.25
1013.674	1.25
1014.397	-0.75
1015.12	0.25
