节点500_425_QEPB04081__333__15-53-50-811.txt的数据

Date: Wed Nov 12 15:53:50 CST 2025
User: PC
Spectrometer: QEPB0408
触发模式: 0
积分时间 (秒): 1.000000E-2
Scans to average: 1
启用暗噪声校正: true
启用非线性校正: false
滑动平均宽度: 0
X轴模式: Wavelengths
Number of Pixels in Spectrum: 1044
>>>>>Begin Spectral Data<<<<<
220.843	2.25
221.644	3.25
222.444	2.25
223.244	4.25
224.045	1.25
224.845	4.25
225.645	4.25
226.445	3.25
227.245	5.25
228.045	4.25
228.845	6.25
229.645	2.25
230.444	3.25
231.244	5.25
232.043	4.25
232.843	4.25
233.642	4.25
234.442	6.25
235.241	6.25
236.04	6.25
236.839	6.25
237.638	4.25
238.437	8.25
239.236	7.25
240.035	7.25
240.833	6.25
241.632	6.25
242.43	6.25
243.229	8.25
244.027	8.25
244.826	9.25
245.624	9.25
246.422	8.25
247.22	7.25
248.018	8.25
248.816	9.25
249.614	7.25
250.412	9.25
251.21	8.25
252.007	10.25
252.805	8.25
253.602	10.25
254.4	11.25
255.197	12.25
255.994	12.25
256.791	11.25
257.589	14.25
258.386	12.25
259.183	14.25
259.979	15.25
260.776	14.25
261.573	13.25
262.37	14.25
263.166	17.25
263.963	15.25
264.759	18.25
265.556	16.25
266.352	18.25
267.148	16.25
267.944	17.25
268.74	18.25
269.536	20.25
270.332	19.25
271.128	20.25
271.924	20.25
272.719	20.25
273.515	21.25
274.311	22.25
275.106	21.25
275.901	24.25
276.697	19.25
277.492	24.25
278.287	25.25
279.082	25.25
279.877	25.25
280.672	23.25
281.467	20.25
282.262	25.25
283.056	21.25
283.851	23.25
284.646	24.25
285.44	27.25
286.234	23.25
287.029	24.25
287.823	23.25
288.617	24.25
289.411	22.25
290.205	21.25
290.999	24.25
291.793	22.25
292.587	23.25
293.381	24.25
294.174	22.25
294.968	23.25
295.761	21.25
296.555	17.25
297.348	20.25
298.141	18.25
298.935	21.25
299.728	20.25
300.521	19.25
301.314	20.25
302.107	18.25
302.899	17.25
303.692	16.25
304.485	15.25
305.277	15.25
306.07	14.25
306.862	17.25
307.655	14.25
308.447	18.25
309.239	14.25
310.031	13.25
310.823	14.25
311.615	15.25
312.407	11.25
313.199	13.25
313.991	12.25
314.783	14.25
315.574	10.25
316.366	12.25
317.157	12.25
317.949	11.25
318.74	10.25
319.531	10.25
320.322	9.25
321.113	11.25
321.904	10.25
322.695	9.25
323.486	13.25
324.277	9.25
325.068	9.25
325.858	9.25
326.649	8.25
327.439	8.25
328.23	10.25
329.02	8.25
329.81	10.25
330.6	8.25
331.391	9.25
332.181	6.25
332.971	9.25
333.76	8.25
334.55	10.25
335.34	8.25
336.13	8.25
336.919	8.25
337.709	7.25
338.498	9.25
339.287	7.25
340.077	8.25
340.866	8.25
341.655	7.25
342.444	8.25
343.233	8.25
344.022	6.25
344.811	8.25
345.6	8.25
346.388	8.25
347.177	9.25
347.965	9.25
348.754	7.25
349.542	9.25
350.33	9.25
351.119	7.25
351.907	10.25
352.695	8.25
353.483	8.25
354.271	8.25
355.059	6.25
355.846	7.25
356.634	7.25
357.422	7.25
358.209	6.25
358.997	5.25
359.784	7.25
360.571	7.25
361.359	9.25
362.146	8.25
362.933	7.25
363.72	7.25
364.507	6.25
365.294	5.25
366.081	6.25
366.867	7.25
367.654	7.25
368.44	6.25
369.227	7.25
370.013	7.25
370.8	7.25
371.586	5.25
372.372	6.25
373.158	7.25
373.944	7.25
374.73	8.25
375.516	8.25
376.302	5.25
377.088	6.25
377.873	8.25
378.659	8.25
379.445	6.25
380.23	7.25
381.015	6.25
381.801	4.25
382.586	8.25
383.371	2.25
384.156	7.25
384.941	7.25
385.726	7.25
386.511	8.25
387.296	6.25
388.08	8.25
388.865	7.25
389.649	8.25
390.434	10.25
391.218	6.25
392.003	7.25
392.787	9.25
393.571	8.25
394.355	10.25
395.139	7.25
395.923	10.25
396.707	10.25
397.491	10.25
398.274	12.25
399.058	8.25
399.842	10.25
400.625	8.25
401.408	10.25
402.192	8.25
402.975	10.25
403.758	9.25
404.541	8.25
405.324	8.25
406.107	13.25
406.89	9.25
407.673	10.25
408.456	11.25
409.238	10.25
410.021	10.25
410.803	11.25
411.586	10.25
412.368	11.25
413.151	10.25
413.933	11.25
414.715	14.25
415.497	11.25
416.279	10.25
417.061	13.25
417.843	14.25
418.624	13.25
419.406	12.25
420.188	14.25
420.969	13.25
421.751	18.25
422.532	18.25
423.313	12.25
424.095	17.25
424.876	16.25
425.657	18.25
426.438	17.25
427.219	18.25
428	19.25
428.78	19.25
429.561	17.25
430.342	18.25
431.122	21.25
431.903	23.25
432.683	20.25
433.464	22.25
434.244	23.25
435.024	24.25
435.804	28.25
436.584	26.25
437.364	26.25
438.144	27.25
438.924	28.25
439.704	30.25
440.483	36.25
441.263	37.25
442.042	37.25
442.822	39.25
443.601	43.25
444.38	44.25
445.16	50.25
445.939	54.25
446.718	61.25
447.497	64.25
448.276	67.25
449.054	72.25
449.833	81.25
450.612	89.25
451.391	91.25
452.169	99.25
452.948	114.25
453.726	127.25
454.504	139.25
455.282	156.25
456.061	167.25
456.839	189.25
457.617	216.25
458.395	235.25
459.172	257.25
459.95	289.25
460.728	319.25
461.506	359.25
462.283	410.25
463.061	453.25
463.838	496.25
464.615	569.25
465.393	633.25
466.17	691.25
466.947	772.25
467.724	863.25
468.501	948.25
469.278	1066.25
470.055	1173.25
470.831	1309.25
471.608	1440.25
472.385	1606.25
473.161	1762.25
473.938	1945.25
474.714	2142.25
475.49	2367.25
476.266	2620.25
477.043	2874.25
477.819	3189.25
478.595	3474.25
479.371	3833.25
480.146	4190.25
480.922	4588.25
481.698	5059.25
482.473	5525.25
483.249	6037.25
484.024	6593.25
484.8	7244.25
485.575	7881.25
486.35	8578.25
487.126	9373.25
487.901	10242.25
488.676	11117.25
489.451	12115.25
490.225	13113.25
491	14199.25
491.775	15409.25
492.55	16650.25
493.324	17885.25
494.099	19142.25
494.873	20469.25
495.647	21857.25
496.422	23243.25
497.196	24605.25
497.97	26082.25
498.744	27534.25
499.518	28864.25
500.292	30078.25
501.066	31179.25
501.839	32296.25
502.613	33177.25
503.387	34019.25
504.16	34503.25
504.934	34789.25
505.707	35073.25
506.48	34920.25
507.253	34650.25
508.027	34306.25
508.8	33809.25
509.573	33151.25
510.346	32388.25
511.118	31390.25
511.891	30483.25
512.664	29324.25
513.437	28240.25
514.209	27186.25
514.982	26159.25
515.754	25102.25
516.526	24025.25
517.298	23065.25
518.071	22009.25
518.843	21077.25
519.615	20239.25
520.387	19495.25
521.159	18740.25
521.93	18027.25
522.702	17306.25
523.474	16652.25
524.245	15948.25
525.017	15212.25
525.788	14532.25
526.56	13876.25
527.331	13301.25
528.102	12638.25
528.873	12110.25
529.644	11476.25
530.415	10940.25
531.186	10466.25
531.957	9888.25
532.728	9379.25
533.498	8866.25
534.269	8365.25
535.039	7931.25
535.81	7447.25
536.58	7085.25
537.351	6667.25
538.121	6320.25
538.891	5958.25
539.661	5634.25
540.431	5352.25
541.201	5088.25
541.971	4793.25
542.741	4553.25
543.51	4355.25
544.28	4101.25
545.05	3898.25
545.819	3728.25
546.588	3546.25
547.358	3362.25
548.127	3203.25
548.896	3012.25
549.665	2864.25
550.434	2727.25
551.203	2579.25
551.972	2441.25
552.741	2305.25
553.51	2210.25
554.278	2063.25
555.047	1936.25
555.815	1856.25
556.584	1751.25
557.352	1644.25
558.121	1555.25
558.889	1459.25
559.657	1396.25
560.425	1290.25
561.193	1245.25
561.961	1167.25
562.729	1118.25
563.496	1057.25
564.264	986.25
565.032	940.25
565.799	884.25
566.567	834.25
567.334	794.25
568.101	750.25
568.869	697.25
569.636	670.25
570.403	631.25
571.17	590.25
571.937	570.25
572.704	537.25
573.471	495.25
574.237	464.25
575.004	440.25
575.771	416.25
576.537	394.25
577.303	376.25
578.07	350.25
578.836	331.25
579.602	312.25
580.368	294.25
581.134	281.25
581.9	267.25
582.666	254.25
583.432	241.25
584.198	228.25
584.964	213.25
585.729	206.25
586.495	194.25
587.26	188.25
588.025	171.25
588.791	166.25
589.556	157.25
590.321	152.25
591.086	137.25
591.851	133.25
592.616	125.25
593.381	116.25
594.146	121.25
594.911	111.25
595.675	101.25
596.44	102.25
597.204	96.25
597.969	90.25
598.733	90.25
599.497	85.25
600.261	83.25
601.025	77.25
601.79	77.25
602.553	71.25
603.317	66.25
604.081	63.25
604.845	62.25
605.609	60.25
606.372	60.25
607.136	55.25
607.899	52.25
608.662	47.25
609.426	50.25
610.189	46.25
610.952	45.25
611.715	45.25
612.478	40.25
613.241	40.25
614.004	35.25
614.767	37.25
615.529	36.25
616.292	35.25
617.055	34.25
617.817	31.25
618.579	30.25
619.342	28.25
620.104	29.25
620.866	28.25
621.628	28.25
622.39	28.25
623.152	25.25
623.914	27.25
624.676	23.25
625.438	21.25
626.199	20.25
626.961	23.25
627.722	21.25
628.484	18.25
629.245	21.25
630.006	17.25
630.768	16.25
631.529	17.25
632.29	17.25
633.051	17.25
633.812	16.25
634.573	15.25
635.333	14.25
636.094	14.25
636.855	15.25
637.615	16.25
638.376	15.25
639.136	13.25
639.896	13.25
640.657	13.25
641.417	14.25
642.177	13.25
642.937	12.25
643.697	14.25
644.457	12.25
645.216	12.25
645.976	13.25
646.736	10.25
647.495	12.25
648.255	7.25
649.014	9.25
649.774	10.25
650.533	7.25
651.292	10.25
652.051	11.25
652.81	10.25
653.569	10.25
654.328	9.25
655.087	8.25
655.846	9.25
656.604	8.25
657.363	8.25
658.121	6.25
658.88	9.25
659.638	7.25
660.397	10.25
661.155	7.25
661.913	6.25
662.671	7.25
663.429	5.25
664.187	7.25
664.945	7.25
665.703	7.25
666.46	8.25
667.218	9.25
667.976	7.25
668.733	6.25
669.49	7.25
670.248	8.25
671.005	7.25
671.762	8.25
672.519	4.25
673.276	6.25
674.033	6.25
674.79	5.25
675.547	5.25
676.304	6.25
677.06	7.25
677.817	5.25
678.574	6.25
679.33	6.25
680.086	5.25
680.843	5.25
681.599	4.25
682.355	5.25
683.111	3.25
683.867	4.25
684.623	1.25
685.379	6.25
686.135	5.25
686.89	2.25
687.646	5.25
688.402	6.25
689.157	4.25
689.912	3.25
690.668	6.25
691.423	4.25
692.178	2.25
692.933	5.25
693.688	6.25
694.443	4.25
695.198	5.25
695.953	6.25
696.708	6.25
697.462	6.25
698.217	4.25
698.972	3.25
699.726	4.25
700.48	4.25
701.235	5.25
701.989	6.25
702.743	5.25
703.497	2.25
704.251	5.25
705.005	1.25
705.759	5.25
706.513	3.25
707.266	6.25
708.02	5.25
708.774	4.25
709.527	4.25
710.28	5.25
711.034	6.25
711.787	6.25
712.54	4.25
713.293	5.25
714.046	4.25
714.799	3.25
715.552	5.25
716.305	7.25
717.058	4.25
717.81	4.25
718.563	8.25
719.315	4.25
720.068	4.25
720.82	4.25
721.573	6.25
722.325	4.25
723.077	6.25
723.829	5.25
724.581	3.25
725.333	7.25
726.085	6.25
726.836	4.25
727.588	6.25
728.34	5.25
729.091	3.25
729.843	6.25
730.594	5.25
731.346	4.25
732.097	6.25
732.848	6.25
733.599	6.25
734.35	5.25
735.101	5.25
735.852	6.25
736.603	6.25
737.354	5.25
738.104	4.25
738.855	8.25
739.605	4.25
740.356	7.25
741.106	6.25
741.856	6.25
742.607	5.25
743.357	7.25
744.107	7.25
744.857	4.25
745.607	7.25
746.357	7.25
747.106	9.25
747.856	7.25
748.606	6.25
749.355	8.25
750.105	4.25
750.854	9.25
751.603	6.25
752.353	9.25
753.102	9.25
753.851	6.25
754.6	8.25
755.349	6.25
756.098	7.25
756.847	9.25
757.595	9.25
758.344	8.25
759.093	6.25
759.841	7.25
760.589	9.25
761.338	9.25
762.086	9.25
762.834	9.25
763.582	8.25
764.331	7.25
765.079	9.25
765.826	9.25
766.574	7.25
767.322	8.25
768.07	9.25
768.817	10.25
769.565	9.25
770.312	10.25
771.06	10.25
771.807	9.25
772.554	10.25
773.302	12.25
774.049	10.25
774.796	11.25
775.543	11.25
776.29	9.25
777.036	10.25
777.783	8.25
778.53	9.25
779.276	12.25
780.023	9.25
780.769	13.25
781.516	11.25
782.262	9.25
783.008	10.25
783.754	11.25
784.5	12.25
785.246	11.25
785.992	14.25
786.738	12.25
787.484	11.25
788.23	12.25
788.975	13.25
789.721	7.25
790.466	10.25
791.212	8.25
791.957	10.25
792.702	10.25
793.447	12.25
794.193	9.25
794.938	10.25
795.683	12.25
796.427	12.25
797.172	10.25
797.917	7.25
798.662	10.25
799.406	6.25
800.151	10.25
800.895	8.25
801.64	8.25
802.384	8.25
803.128	10.25
803.872	12.25
804.616	7.25
805.36	7.25
806.104	9.25
806.848	8.25
807.592	7.25
808.336	8.25
809.079	6.25
809.823	8.25
810.566	6.25
811.31	8.25
812.053	8.25
812.796	7.25
813.539	5.25
814.283	8.25
815.026	8.25
815.769	3.25
816.511	7.25
817.254	7.25
817.997	6.25
818.74	6.25
819.482	3.25
820.225	5.25
820.967	8.25
821.71	5.25
822.452	5.25
823.194	3.25
823.936	4.25
824.678	4.25
825.42	4.25
826.162	5.25
826.904	4.25
827.646	9.25
828.388	4.25
829.129	3.25
829.871	5.25
830.612	2.25
831.354	5.25
832.095	2.25
832.836	5.25
833.577	6.25
834.319	3.25
835.06	4.25
835.801	4.25
836.542	5.25
837.282	3.25
838.023	3.25
838.764	4.25
839.504	5.25
840.245	4.25
840.985	2.25
841.726	3.25
842.466	5.25
843.206	5.25
843.946	3.25
844.687	3.25
845.427	1.25
846.166	3.25
846.906	5.25
847.646	5.25
848.386	2.25
849.125	2.25
849.865	4.25
850.605	5.25
851.344	2.25
852.083	4.25
852.823	4.25
853.562	3.25
854.301	4.25
855.04	1.25
855.779	3.25
856.518	2.25
857.257	3.25
857.995	0.25
858.734	3.25
859.473	2.25
860.211	2.25
860.95	4.25
861.688	2.25
862.426	3.25
863.165	2.25
863.903	2.25
864.641	3.25
865.379	2.25
866.117	4.25
866.855	2.25
867.593	0.25
868.33	1.25
869.068	2.25
869.806	2.25
870.543	2.25
871.28	2.25
872.018	1.25
872.755	1.25
873.492	1.25
874.229	2.25
874.967	2.25
875.703	2.25
876.44	-0.75
877.177	1.25
877.914	0.25
878.651	1.25
879.387	2.25
880.124	3.25
880.86	1.25
881.597	-1.75
882.333	1.25
883.069	0.25
883.806	0.25
884.542	2.25
885.278	0.25
886.014	1.25
886.749	0.25
887.485	0.25
888.221	-0.75
888.957	0.25
889.692	1.25
890.428	0.25
891.163	1.25
891.899	2.25
892.634	3.25
893.369	1.25
894.104	-0.75
894.839	0.25
895.574	1.25
896.309	1.25
897.044	1.25
897.779	3.25
898.514	-1.75
899.248	-1.75
899.983	1.25
900.717	-0.75
901.452	-0.75
902.186	1.25
902.92	0.25
903.654	1.25
904.389	1.25
905.123	-0.75
905.857	0.25
906.59	2.25
907.324	2.25
908.058	1.25
908.792	1.25
909.525	1.25
910.259	2.25
910.992	0.25
911.726	-0.75
912.459	0.25
913.192	1.25
913.925	2.25
914.658	2.25
915.391	1.25
916.124	0.25
916.857	0.25
917.59	1.25
918.323	-1.75
919.055	0.25
919.788	2.25
920.521	-1.75
921.253	-1.75
921.985	1.25
922.718	0.25
923.45	1.25
924.182	3.25
924.914	2.25
925.646	0.25
926.378	1.25
927.11	0.25
927.841	2.25
928.573	0.25
929.305	0.25
930.036	-1.75
930.768	1.25
931.499	1.25
932.23	0.25
932.962	-0.75
933.693	-0.75
934.424	0.25
935.155	-0.75
935.886	-0.75
936.617	2.25
937.348	3.25
938.078	1.25
938.809	0.25
939.54	-0.75
940.27	1.25
941.001	3.25
941.731	1.25
942.461	0.25
943.191	1.25
943.922	2.25
944.652	-0.75
945.382	0.25
946.112	0.25
946.841	-0.75
947.571	1.25
948.301	0.25
949.031	1.25
949.76	0.25
950.49	0.25
951.219	0.25
951.948	0.25
952.678	1.25
953.407	-0.75
954.136	0.25
954.865	0.25
955.594	1.25
956.323	0.25
957.052	-0.75
957.78	0.25
958.509	-1.75
959.238	3.25
959.966	0.25
960.695	-1.75
961.423	0.25
962.151	-0.75
962.88	-0.75
963.608	-0.75
964.336	0.25
965.064	2.25
965.792	0.25
966.52	0.25
967.247	-0.75
967.975	1.25
968.703	0.25
969.43	-0.75
970.158	1.25
970.885	0.25
971.613	2.25
972.34	0.25
973.067	-2.75
973.794	0.25
974.521	1.25
975.248	0.25
975.975	-0.75
976.702	1.25
977.429	1.25
978.156	-0.75
978.882	-0.75
979.609	-0.75
980.335	1.25
981.062	-1.75
981.788	1.25
982.514	0.25
983.24	2.25
983.967	0.25
984.693	0.25
985.419	1.25
986.144	1.25
986.87	0.25
987.596	0.25
988.322	1.25
989.047	0.25
989.773	2.25
990.498	1.25
991.224	0.25
991.949	0.25
992.674	1.25
993.399	0.25
994.124	1.25
994.849	0.25
995.574	-0.75
996.299	0.25
997.024	0.25
997.749	-0.75
998.473	0.25
999.198	-1.75
999.922	0.25
1000.647	0.25
1001.371	4.25
1002.095	0.25
1002.82	-1.75
1003.544	-1.75
1004.268	3.25
1004.992	2.25
1005.716	3.25
1006.439	0.25
1007.163	2.25
1007.887	3.25
1008.611	2.25
1009.334	-0.75
1010.058	-0.75
1010.781	-1.75
1011.504	-0.75
1012.228	-1.75
1012.951	-0.75
1013.674	0.25
1014.397	-0.75
1015.12	0.25
