节点500_425_QEPB04081__465__15-56-02-573.txt的数据

Date: Wed Nov 12 15:56:02 CST 2025
User: PC
Spectrometer: QEPB0408
触发模式: 0
积分时间 (秒): 1.000000E-2
Scans to average: 1
启用暗噪声校正: true
启用非线性校正: false
滑动平均宽度: 0
X轴模式: Wavelengths
Number of Pixels in Spectrum: 1044
>>>>>Begin Spectral Data<<<<<
220.843	0.88
221.644	3.88
222.444	3.88
223.244	0.88
224.045	4.88
224.845	1.88
225.645	5.88
226.445	6.88
227.245	5.88
228.045	5.88
228.845	3.88
229.645	4.88
230.444	6.88
231.244	6.88
232.043	4.88
232.843	5.88
233.642	4.88
234.442	6.88
235.241	5.88
236.04	4.88
236.839	8.88
237.638	6.88
238.437	7.88
239.236	5.88
240.035	7.88
240.833	7.88
241.632	3.88
242.43	6.88
243.229	9.88
244.027	5.88
244.826	5.88
245.624	9.88
246.422	9.88
247.22	8.88
248.018	7.88
248.816	10.88
249.614	10.88
250.412	8.88
251.21	11.88
252.007	8.88
252.805	10.88
253.602	8.88
254.4	9.88
255.197	13.88
255.994	9.88
256.791	10.88
257.589	10.88
258.386	11.88
259.183	13.88
259.979	14.88
260.776	14.88
261.573	12.88
262.37	13.88
263.166	12.88
263.963	12.88
264.759	14.88
265.556	14.88
266.352	16.88
267.148	16.88
267.944	17.88
268.74	16.88
269.536	16.88
270.332	20.88
271.128	19.88
271.924	19.88
272.719	21.88
273.515	20.88
274.311	22.88
275.106	24.88
275.901	22.88
276.697	21.88
277.492	24.88
278.287	21.88
279.082	22.88
279.877	23.88
280.672	24.88
281.467	24.88
282.262	22.88
283.056	23.88
283.851	22.88
284.646	24.88
285.44	23.88
286.234	23.88
287.029	24.88
287.823	21.88
288.617	22.88
289.411	24.88
290.205	22.88
290.999	21.88
291.793	22.88
292.587	23.88
293.381	21.88
294.174	21.88
294.968	19.88
295.761	17.88
296.555	18.88
297.348	20.88
298.141	19.88
298.935	21.88
299.728	18.88
300.521	16.88
301.314	19.88
302.107	15.88
302.899	17.88
303.692	15.88
304.485	16.88
305.277	17.88
306.07	16.88
306.862	16.88
307.655	18.88
308.447	16.88
309.239	14.88
310.031	18.88
310.823	14.88
311.615	15.88
312.407	13.88
313.199	12.88
313.991	12.88
314.783	10.88
315.574	10.88
316.366	11.88
317.157	13.88
317.949	12.88
318.74	10.88
319.531	9.88
320.322	10.88
321.113	10.88
321.904	10.88
322.695	10.88
323.486	11.88
324.277	9.88
325.068	8.88
325.858	10.88
326.649	8.88
327.439	10.88
328.23	8.88
329.02	8.88
329.81	6.88
330.6	10.88
331.391	9.88
332.181	5.88
332.971	9.88
333.76	9.88
334.55	9.88
335.34	9.88
336.13	8.88
336.919	8.88
337.709	8.88
338.498	11.88
339.287	8.88
340.077	7.88
340.866	10.88
341.655	6.88
342.444	7.88
343.233	10.88
344.022	7.88
344.811	7.88
345.6	8.88
346.388	9.88
347.177	9.88
347.965	8.88
348.754	6.88
349.542	8.88
350.33	6.88
351.119	7.88
351.907	6.88
352.695	8.88
353.483	4.88
354.271	6.88
355.059	7.88
355.846	7.88
356.634	7.88
357.422	6.88
358.209	6.88
358.997	7.88
359.784	7.88
360.571	8.88
361.359	6.88
362.146	7.88
362.933	5.88
363.72	6.88
364.507	7.88
365.294	7.88
366.081	6.88
366.867	8.88
367.654	5.88
368.44	8.88
369.227	4.88
370.013	5.88
370.8	7.88
371.586	6.88
372.372	6.88
373.158	7.88
373.944	6.88
374.73	7.88
375.516	6.88
376.302	9.88
377.088	6.88
377.873	6.88
378.659	5.88
379.445	7.88
380.23	6.88
381.015	5.88
381.801	7.88
382.586	4.88
383.371	7.88
384.156	7.88
384.941	8.88
385.726	4.88
386.511	5.88
387.296	7.88
388.08	8.88
388.865	6.88
389.649	10.88
390.434	5.88
391.218	6.88
392.003	8.88
392.787	6.88
393.571	8.88
394.355	8.88
395.139	11.88
395.923	8.88
396.707	7.88
397.491	10.88
398.274	8.88
399.058	8.88
399.842	6.88
400.625	6.88
401.408	10.88
402.192	8.88
402.975	9.88
403.758	10.88
404.541	9.88
405.324	10.88
406.107	12.88
406.89	10.88
407.673	10.88
408.456	11.88
409.238	10.88
410.021	9.88
410.803	9.88
411.586	10.88
412.368	10.88
413.151	9.88
413.933	10.88
414.715	12.88
415.497	12.88
416.279	14.88
417.061	14.88
417.843	11.88
418.624	11.88
419.406	14.88
420.188	14.88
420.969	14.88
421.751	15.88
422.532	13.88
423.313	13.88
424.095	17.88
424.876	18.88
425.657	15.88
426.438	16.88
427.219	18.88
428	20.88
428.78	17.88
429.561	20.88
430.342	21.88
431.122	20.88
431.903	21.88
432.683	22.88
433.464	21.88
434.244	24.88
435.024	25.88
435.804	25.88
436.584	25.88
437.364	27.88
438.144	29.88
438.924	31.88
439.704	31.88
440.483	33.88
441.263	37.88
442.042	37.88
442.822	40.88
443.601	44.88
444.38	42.88
445.16	52.88
445.939	52.88
446.718	61.88
447.497	65.88
448.276	68.88
449.054	74.88
449.833	82.88
450.612	89.88
451.391	100.88
452.169	106.88
452.948	120.88
453.726	133.88
454.504	146.88
455.282	166.88
456.061	175.88
456.839	201.88
457.617	214.88
458.395	240.88
459.172	270.88
459.95	302.88
460.728	338.88
461.506	372.88
462.283	419.88
463.061	477.88
463.838	520.88
464.615	582.88
465.393	642.88
466.17	708.88
466.947	795.88
467.724	883.88
468.501	974.88
469.278	1082.88
470.055	1183.88
470.831	1311.88
471.608	1465.88
472.385	1613.88
473.161	1778.88
473.938	1956.88
474.714	2172.88
475.49	2359.88
476.266	2605.88
477.043	2852.88
477.819	3117.88
478.595	3449.88
479.371	3765.88
480.146	4127.88
480.922	4493.88
481.698	4926.88
482.473	5351.88
483.249	5840.88
484.024	6389.88
484.8	7004.88
485.575	7591.88
486.35	8198.88
487.126	8954.88
487.901	9710.88
488.676	10563.88
489.451	11443.88
490.225	12394.88
491	13415.88
491.775	14476.88
492.55	15556.88
493.324	16762.88
494.099	17886.88
494.873	19170.88
495.647	20419.88
496.422	21728.88
497.196	23048.88
497.97	24447.88
498.744	25739.88
499.518	27078.88
500.292	28226.88
501.066	29326.88
501.839	30529.88
502.613	31420.88
503.387	32184.88
504.16	32833.88
504.934	33275.88
505.707	33466.88
506.48	33507.88
507.253	33374.88
508.027	33248.88
508.8	32962.88
509.573	32398.88
510.346	31721.88
511.118	30989.88
511.891	30193.88
512.664	29073.88
513.437	28157.88
514.209	27101.88
514.982	26205.88
515.754	25170.88
516.526	24143.88
517.298	23171.88
518.071	22244.88
518.843	21261.88
519.615	20405.88
520.387	19648.88
521.159	18888.88
521.93	18239.88
522.702	17479.88
523.474	16789.88
524.245	16149.88
525.017	15402.88
525.788	14663.88
526.56	14034.88
527.331	13430.88
528.102	12817.88
528.873	12251.88
529.644	11685.88
530.415	11180.88
531.186	10635.88
531.957	10094.88
532.728	9558.88
533.498	9042.88
534.269	8576.88
535.039	8117.88
535.81	7674.88
536.58	7277.88
537.351	6874.88
538.121	6488.88
538.891	6171.88
539.661	5843.88
540.431	5518.88
541.201	5226.88
541.971	4946.88
542.741	4704.88
543.51	4444.88
544.28	4249.88
545.05	4055.88
545.819	3835.88
546.588	3659.88
547.358	3488.88
548.127	3300.88
548.896	3142.88
549.665	2979.88
550.434	2834.88
551.203	2696.88
551.972	2553.88
552.741	2395.88
553.51	2262.88
554.278	2139.88
555.047	2023.88
555.815	1906.88
556.584	1821.88
557.352	1722.88
558.121	1598.88
558.889	1523.88
559.657	1435.88
560.425	1355.88
561.193	1274.88
561.961	1214.88
562.729	1151.88
563.496	1084.88
564.264	1032.88
565.032	979.88
565.799	913.88
566.567	867.88
567.334	823.88
568.101	784.88
568.869	736.88
569.636	694.88
570.403	658.88
571.17	612.88
571.937	588.88
572.704	549.88
573.471	520.88
574.237	482.88
575.004	457.88
575.771	442.88
576.537	403.88
577.303	391.88
578.07	366.88
578.836	343.88
579.602	317.88
580.368	308.88
581.134	293.88
581.9	277.88
582.666	268.88
583.432	252.88
584.198	238.88
584.964	222.88
585.729	212.88
586.495	193.88
587.26	184.88
588.025	184.88
588.791	168.88
589.556	165.88
590.321	150.88
591.086	140.88
591.851	134.88
592.616	133.88
593.381	125.88
594.146	120.88
594.911	113.88
595.675	106.88
596.44	102.88
597.204	97.88
597.969	96.88
598.733	90.88
599.497	88.88
600.261	82.88
601.025	80.88
601.79	75.88
602.553	77.88
603.317	69.88
604.081	66.88
604.845	64.88
605.609	59.88
606.372	57.88
607.136	57.88
607.899	49.88
608.662	52.88
609.426	48.88
610.189	45.88
610.952	46.88
611.715	43.88
612.478	46.88
613.241	40.88
614.004	41.88
614.767	35.88
615.529	36.88
616.292	37.88
617.055	30.88
617.817	32.88
618.579	32.88
619.342	30.88
620.104	27.88
620.866	30.88
621.628	30.88
622.39	25.88
623.152	26.88
623.914	25.88
624.676	23.88
625.438	24.88
626.199	21.88
626.961	21.88
627.722	20.88
628.484	19.88
629.245	20.88
630.006	18.88
630.768	20.88
631.529	20.88
632.29	17.88
633.051	16.88
633.812	19.88
634.573	19.88
635.333	17.88
636.094	15.88
636.855	17.88
637.615	12.88
638.376	16.88
639.136	13.88
639.896	12.88
640.657	13.88
641.417	13.88
642.177	14.88
642.937	11.88
643.697	10.88
644.457	10.88
645.216	11.88
645.976	13.88
646.736	10.88
647.495	11.88
648.255	9.88
649.014	13.88
649.774	10.88
650.533	8.88
651.292	8.88
652.051	8.88
652.81	11.88
653.569	7.88
654.328	9.88
655.087	7.88
655.846	8.88
656.604	10.88
657.363	8.88
658.121	7.88
658.88	8.88
659.638	7.88
660.397	10.88
661.155	6.88
661.913	8.88
662.671	7.88
663.429	8.88
664.187	7.88
664.945	7.88
665.703	9.88
666.46	7.88
667.218	6.88
667.976	7.88
668.733	8.88
669.49	5.88
670.248	6.88
671.005	6.88
671.762	8.88
672.519	8.88
673.276	6.88
674.033	7.88
674.79	6.88
675.547	4.88
676.304	8.88
677.06	7.88
677.817	7.88
678.574	5.88
679.33	6.88
680.086	7.88
680.843	4.88
681.599	5.88
682.355	2.88
683.111	5.88
683.867	7.88
684.623	5.88
685.379	8.88
686.135	5.88
686.89	4.88
687.646	7.88
688.402	3.88
689.157	3.88
689.912	4.88
690.668	6.88
691.423	3.88
692.178	5.88
692.933	6.88
693.688	3.88
694.443	7.88
695.198	7.88
695.953	6.88
696.708	7.88
697.462	5.88
698.217	4.88
698.972	3.88
699.726	4.88
700.48	2.88
701.235	3.88
701.989	5.88
702.743	3.88
703.497	4.88
704.251	3.88
705.005	7.88
705.759	4.88
706.513	5.88
707.266	3.88
708.02	2.88
708.774	7.88
709.527	6.88
710.28	4.88
711.034	4.88
711.787	4.88
712.54	6.88
713.293	4.88
714.046	4.88
714.799	5.88
715.552	4.88
716.305	5.88
717.058	5.88
717.81	7.88
718.563	5.88
719.315	7.88
720.068	5.88
720.82	4.88
721.573	3.88
722.325	5.88
723.077	5.88
723.829	3.88
724.581	6.88
725.333	6.88
726.085	6.88
726.836	4.88
727.588	4.88
728.34	5.88
729.091	6.88
729.843	5.88
730.594	6.88
731.346	5.88
732.097	4.88
732.848	3.88
733.599	4.88
734.35	7.88
735.101	9.88
735.852	5.88
736.603	6.88
737.354	6.88
738.104	4.88
738.855	8.88
739.605	7.88
740.356	7.88
741.106	5.88
741.856	7.88
742.607	6.88
743.357	8.88
744.107	6.88
744.857	8.88
745.607	6.88
746.357	6.88
747.106	6.88
747.856	7.88
748.606	6.88
749.355	3.88
750.105	8.88
750.854	8.88
751.603	7.88
752.353	7.88
753.102	6.88
753.851	7.88
754.6	7.88
755.349	7.88
756.098	6.88
756.847	7.88
757.595	7.88
758.344	6.88
759.093	9.88
759.841	7.88
760.589	6.88
761.338	6.88
762.086	8.88
762.834	9.88
763.582	7.88
764.331	8.88
765.079	8.88
765.826	7.88
766.574	10.88
767.322	6.88
768.07	9.88
768.817	8.88
769.565	6.88
770.312	10.88
771.06	9.88
771.807	8.88
772.554	9.88
773.302	7.88
774.049	7.88
774.796	9.88
775.543	10.88
776.29	9.88
777.036	11.88
777.783	10.88
778.53	9.88
779.276	12.88
780.023	9.88
780.769	10.88
781.516	10.88
782.262	10.88
783.008	12.88
783.754	12.88
784.5	8.88
785.246	10.88
785.992	11.88
786.738	8.88
787.484	11.88
788.23	10.88
788.975	11.88
789.721	9.88
790.466	11.88
791.212	9.88
791.957	7.88
792.702	10.88
793.447	10.88
794.193	10.88
794.938	10.88
795.683	11.88
796.427	9.88
797.172	11.88
797.917	8.88
798.662	10.88
799.406	9.88
800.151	8.88
800.895	9.88
801.64	9.88
802.384	7.88
803.128	7.88
803.872	8.88
804.616	7.88
805.36	7.88
806.104	7.88
806.848	9.88
807.592	6.88
808.336	5.88
809.079	6.88
809.823	7.88
810.566	7.88
811.31	9.88
812.053	7.88
812.796	7.88
813.539	8.88
814.283	7.88
815.026	9.88
815.769	8.88
816.511	5.88
817.254	7.88
817.997	8.88
818.74	7.88
819.482	4.88
820.225	6.88
820.967	4.88
821.71	6.88
822.452	6.88
823.194	6.88
823.936	4.88
824.678	4.88
825.42	4.88
826.162	4.88
826.904	5.88
827.646	5.88
828.388	6.88
829.129	5.88
829.871	4.88
830.612	4.88
831.354	6.88
832.095	5.88
832.836	5.88
833.577	5.88
834.319	5.88
835.06	2.88
835.801	5.88
836.542	5.88
837.282	6.88
838.023	4.88
838.764	1.88
839.504	6.88
840.245	5.88
840.985	5.88
841.726	6.88
842.466	5.88
843.206	5.88
843.946	4.88
844.687	4.88
845.427	4.88
846.166	3.88
846.906	3.88
847.646	3.88
848.386	2.88
849.125	4.88
849.865	4.88
850.605	3.88
851.344	2.88
852.083	3.88
852.823	5.88
853.562	4.88
854.301	3.88
855.04	1.88
855.779	4.88
856.518	4.88
857.257	3.88
857.995	2.88
858.734	2.88
859.473	0.88
860.211	4.88
860.95	2.88
861.688	3.88
862.426	0.88
863.165	3.88
863.903	2.88
864.641	2.88
865.379	1.88
866.117	0.88
866.855	2.88
867.593	3.88
868.33	0.88
869.068	1.88
869.806	2.88
870.543	2.88
871.28	0.88
872.018	0.88
872.755	0.88
873.492	2.88
874.229	2.88
874.967	1.88
875.703	2.88
876.44	1.88
877.177	3.88
877.914	0.88
878.651	1.88
879.387	1.88
880.124	2.88
880.86	-1.12
881.597	1.88
882.333	0.88
883.069	-0.12
883.806	1.88
884.542	2.88
885.278	2.88
886.014	1.88
886.749	1.88
887.485	2.88
888.221	1.88
888.957	2.88
889.692	1.88
890.428	-0.12
891.163	1.88
891.899	-0.12
892.634	1.88
893.369	0.88
894.104	1.88
894.839	3.88
895.574	1.88
896.309	1.88
897.044	-2.12
897.779	1.88
898.514	1.88
899.248	0.88
899.983	1.88
900.717	1.88
901.452	1.88
902.186	-0.12
902.92	1.88
903.654	0.88
904.389	3.88
905.123	1.88
905.857	2.88
906.59	-1.12
907.324	2.88
908.058	-1.12
908.792	-1.12
909.525	1.88
910.259	1.88
910.992	1.88
911.726	-0.12
912.459	0.88
913.192	2.88
913.925	-0.12
914.658	0.88
915.391	-0.12
916.124	0.88
916.857	-0.12
917.59	2.88
918.323	0.88
919.055	1.88
919.788	1.88
920.521	-1.12
921.253	0.88
921.985	-0.12
922.718	2.88
923.45	-0.12
924.182	2.88
924.914	-0.12
925.646	-0.12
926.378	-0.12
927.11	1.88
927.841	1.88
928.573	-2.12
929.305	1.88
930.036	1.88
930.768	2.88
931.499	0.88
932.23	0.88
932.962	0.88
933.693	0.88
934.424	-0.12
935.155	0.88
935.886	-0.12
936.617	-0.12
937.348	0.88
938.078	1.88
938.809	0.88
939.54	0.88
940.27	1.88
941.001	0.88
941.731	1.88
942.461	0.88
943.191	-0.12
943.922	0.88
944.652	0.88
945.382	0.88
946.112	3.88
946.841	1.88
947.571	3.88
948.301	1.88
949.031	0.88
949.76	-0.12
950.49	-1.12
951.219	1.88
951.948	-0.12
952.678	1.88
953.407	2.88
954.136	-0.12
954.865	1.88
955.594	0.88
956.323	0.88
957.052	-0.12
957.78	0.88
958.509	-1.12
959.238	1.88
959.966	1.88
960.695	0.88
961.423	0.88
962.151	-0.12
962.88	1.88
963.608	0.88
964.336	-1.12
965.064	0.88
965.792	0.88
966.52	1.88
967.247	-1.12
967.975	1.88
968.703	0.88
969.43	0.88
970.158	0.88
970.885	1.88
971.613	0.88
972.34	0.88
973.067	-1.12
973.794	-0.12
974.521	-1.12
975.248	0.88
975.975	1.88
976.702	3.88
977.429	-1.12
978.156	-0.12
978.882	0.88
979.609	-1.12
980.335	0.88
981.062	-0.12
981.788	-0.12
982.514	1.88
983.24	-0.12
983.967	-1.12
984.693	-0.12
985.419	0.88
986.144	-0.12
986.87	1.88
987.596	0.88
988.322	-0.12
989.047	-0.12
989.773	0.88
990.498	-0.12
991.224	-1.12
991.949	0.88
992.674	0.88
993.399	1.88
994.124	-0.12
994.849	-1.12
995.574	0.88
996.299	-0.12
997.024	0.88
997.749	0.88
998.473	1.88
999.198	1.88
999.922	0.88
1000.647	1.88
1001.371	4.88
1002.095	-2.12
1002.82	0.88
1003.544	-2.12
1004.268	1.88
1004.992	3.88
1005.716	2.88
1006.439	3.88
1007.163	0.88
1007.887	4.88
1008.611	-0.12
1009.334	0.88
1010.058	1.88
1010.781	-0.12
1011.504	0.88
1012.228	1.88
1012.951	0.88
1013.674	-1.12
1014.397	-1.12
1015.12	-0.12
