节点500_425_QEPB04081__9__15-48-30-487.txt的数据

Date: Wed Nov 12 15:48:30 CST 2025
User: PC
Spectrometer: QEPB0408
触发模式: 0
积分时间 (秒): 1.000000E-2
Scans to average: 1
启用暗噪声校正: true
启用非线性校正: false
滑动平均宽度: 0
X轴模式: Wavelengths
Number of Pixels in Spectrum: 1044
>>>>>Begin Spectral Data<<<<<
220.843	1.88
221.644	2.88
222.444	2.88
223.244	2.88
224.045	3.88
224.845	2.88
225.645	0.88
226.445	2.88
227.245	3.88
228.045	3.88
228.845	3.88
229.645	2.88
230.444	3.88
231.244	5.88
232.043	3.88
232.843	4.88
233.642	3.88
234.442	2.88
235.241	4.88
236.04	7.88
236.839	3.88
237.638	5.88
238.437	5.88
239.236	7.88
240.035	6.88
240.833	2.88
241.632	5.88
242.43	4.88
243.229	4.88
244.027	8.88
244.826	7.88
245.624	7.88
246.422	6.88
247.22	9.88
248.018	6.88
248.816	10.88
249.614	11.88
250.412	8.88
251.21	11.88
252.007	10.88
252.805	12.88
253.602	12.88
254.4	9.88
255.197	12.88
255.994	12.88
256.791	11.88
257.589	11.88
258.386	14.88
259.183	16.88
259.979	17.88
260.776	14.88
261.573	15.88
262.37	17.88
263.166	15.88
263.963	18.88
264.759	17.88
265.556	17.88
266.352	20.88
267.148	19.88
267.944	20.88
268.74	20.88
269.536	22.88
270.332	24.88
271.128	20.88
271.924	20.88
272.719	24.88
273.515	23.88
274.311	23.88
275.106	25.88
275.901	24.88
276.697	25.88
277.492	23.88
278.287	27.88
279.082	27.88
279.877	27.88
280.672	26.88
281.467	27.88
282.262	26.88
283.056	25.88
283.851	25.88
284.646	26.88
285.44	24.88
286.234	23.88
287.029	27.88
287.823	29.88
288.617	23.88
289.411	22.88
290.205	19.88
290.999	24.88
291.793	23.88
292.587	21.88
293.381	23.88
294.174	22.88
294.968	22.88
295.761	20.88
296.555	24.88
297.348	20.88
298.141	17.88
298.935	22.88
299.728	17.88
300.521	19.88
301.314	14.88
302.107	16.88
302.899	17.88
303.692	13.88
304.485	16.88
305.277	15.88
306.07	16.88
306.862	14.88
307.655	17.88
308.447	13.88
309.239	12.88
310.031	17.88
310.823	13.88
311.615	11.88
312.407	11.88
313.199	14.88
313.991	12.88
314.783	9.88
315.574	9.88
316.366	12.88
317.157	10.88
317.949	8.88
318.74	9.88
319.531	9.88
320.322	10.88
321.113	10.88
321.904	14.88
322.695	9.88
323.486	8.88
324.277	7.88
325.068	6.88
325.858	9.88
326.649	9.88
327.439	8.88
328.23	7.88
329.02	6.88
329.81	6.88
330.6	6.88
331.391	8.88
332.181	6.88
332.971	6.88
333.76	7.88
334.55	8.88
335.34	7.88
336.13	10.88
336.919	5.88
337.709	7.88
338.498	7.88
339.287	7.88
340.077	5.88
340.866	10.88
341.655	7.88
342.444	9.88
343.233	6.88
344.022	7.88
344.811	7.88
345.6	8.88
346.388	7.88
347.177	7.88
347.965	7.88
348.754	6.88
349.542	6.88
350.33	6.88
351.119	7.88
351.907	5.88
352.695	6.88
353.483	7.88
354.271	9.88
355.059	8.88
355.846	8.88
356.634	6.88
357.422	6.88
358.209	4.88
358.997	6.88
359.784	8.88
360.571	5.88
361.359	4.88
362.146	4.88
362.933	5.88
363.72	6.88
364.507	7.88
365.294	7.88
366.081	5.88
366.867	6.88
367.654	6.88
368.44	4.88
369.227	5.88
370.013	7.88
370.8	7.88
371.586	6.88
372.372	6.88
373.158	6.88
373.944	6.88
374.73	6.88
375.516	5.88
376.302	8.88
377.088	5.88
377.873	6.88
378.659	6.88
379.445	7.88
380.23	7.88
381.015	4.88
381.801	8.88
382.586	7.88
383.371	7.88
384.156	5.88
384.941	6.88
385.726	8.88
386.511	7.88
387.296	7.88
388.08	6.88
388.865	8.88
389.649	9.88
390.434	8.88
391.218	8.88
392.003	6.88
392.787	5.88
393.571	6.88
394.355	6.88
395.139	9.88
395.923	9.88
396.707	9.88
397.491	6.88
398.274	11.88
399.058	8.88
399.842	9.88
400.625	11.88
401.408	9.88
402.192	11.88
402.975	9.88
403.758	8.88
404.541	8.88
405.324	9.88
406.107	11.88
406.89	8.88
407.673	10.88
408.456	11.88
409.238	11.88
410.021	11.88
410.803	14.88
411.586	9.88
412.368	12.88
413.151	12.88
413.933	11.88
414.715	12.88
415.497	12.88
416.279	9.88
417.061	13.88
417.843	12.88
418.624	12.88
419.406	14.88
420.188	12.88
420.969	16.88
421.751	13.88
422.532	14.88
423.313	16.88
424.095	17.88
424.876	16.88
425.657	15.88
426.438	17.88
427.219	15.88
428	17.88
428.78	21.88
429.561	18.88
430.342	19.88
431.122	19.88
431.903	19.88
432.683	20.88
433.464	21.88
434.244	24.88
435.024	22.88
435.804	23.88
436.584	27.88
437.364	26.88
438.144	27.88
438.924	29.88
439.704	32.88
440.483	31.88
441.263	35.88
442.042	38.88
442.822	38.88
443.601	39.88
444.38	41.88
445.16	42.88
445.939	47.88
446.718	49.88
447.497	57.88
448.276	60.88
449.054	66.88
449.833	71.88
450.612	79.88
451.391	87.88
452.169	90.88
452.948	101.88
453.726	109.88
454.504	125.88
455.282	135.88
456.061	149.88
456.839	165.88
457.617	184.88
458.395	208.88
459.172	228.88
459.95	264.88
460.728	296.88
461.506	320.88
462.283	365.88
463.061	402.88
463.838	463.88
464.615	518.88
465.393	573.88
466.17	641.88
466.947	719.88
467.724	799.88
468.501	905.88
469.278	1009.88
470.055	1111.88
470.831	1231.88
471.608	1389.88
472.385	1535.88
473.161	1746.88
473.938	1915.88
474.714	2137.88
475.49	2363.88
476.266	2621.88
477.043	2896.88
477.819	3236.88
478.595	3599.88
479.371	3958.88
480.146	4384.88
480.922	4827.88
481.698	5357.88
482.473	5879.88
483.249	6525.88
484.024	7191.88
484.8	7929.88
485.575	8667.88
486.35	9590.88
487.126	10512.88
487.901	11501.88
488.676	12599.88
489.451	13815.88
490.225	15021.88
491	16388.88
491.775	17836.88
492.55	19333.88
493.324	20817.88
494.099	22341.88
494.873	23935.88
495.647	25520.88
496.422	27147.88
497.196	28786.88
497.97	30435.88
498.744	31977.88
499.518	33438.88
500.292	34701.88
501.066	35760.88
501.839	36694.88
502.613	37535.88
503.387	37946.88
504.16	38409.88
504.934	38329.88
505.707	38039.88
506.48	37655.88
507.253	36964.88
508.027	36327.88
508.8	35455.88
509.573	34430.88
510.346	33304.88
511.118	32002.88
511.891	30842.88
512.664	29543.88
513.437	28228.88
514.209	26977.88
514.982	25883.88
515.754	24687.88
516.526	23624.88
517.298	22586.88
518.071	21613.88
518.843	20795.88
519.615	19914.88
520.387	19120.88
521.159	18350.88
521.93	17684.88
522.702	16973.88
523.474	16306.88
524.245	15635.88
525.017	14860.88
525.788	14202.88
526.56	13511.88
527.331	12833.88
528.102	12215.88
528.873	11577.88
529.644	10970.88
530.415	10447.88
531.186	9927.88
531.957	9354.88
532.728	8849.88
533.498	8327.88
534.269	7875.88
535.039	7449.88
535.81	6974.88
536.58	6617.88
537.351	6237.88
538.121	5899.88
538.891	5603.88
539.661	5312.88
540.431	5022.88
541.201	4732.88
541.971	4495.88
542.741	4264.88
543.51	4031.88
544.28	3857.88
545.05	3652.88
545.819	3519.88
546.588	3316.88
547.358	3135.88
548.127	2981.88
548.896	2826.88
549.665	2667.88
550.434	2541.88
551.203	2398.88
551.972	2255.88
552.741	2152.88
553.51	2022.88
554.278	1908.88
555.047	1796.88
555.815	1677.88
556.584	1593.88
557.352	1513.88
558.121	1410.88
558.889	1346.88
559.657	1269.88
560.425	1188.88
561.193	1126.88
561.961	1053.88
562.729	1009.88
563.496	964.88
564.264	905.88
565.032	861.88
565.799	816.88
566.567	756.88
567.334	725.88
568.101	681.88
568.869	647.88
569.636	612.88
570.403	577.88
571.17	538.88
571.937	503.88
572.704	483.88
573.471	458.88
574.237	425.88
575.004	403.88
575.771	387.88
576.537	357.88
577.303	334.88
578.07	313.88
578.836	296.88
579.602	279.88
580.368	269.88
581.134	253.88
581.9	246.88
582.666	231.88
583.432	214.88
584.198	207.88
584.964	193.88
585.729	188.88
586.495	178.88
587.26	170.88
588.025	163.88
588.791	153.88
589.556	143.88
590.321	135.88
591.086	122.88
591.851	124.88
592.616	115.88
593.381	108.88
594.146	105.88
594.911	99.88
595.675	95.88
596.44	91.88
597.204	90.88
597.969	82.88
598.733	77.88
599.497	78.88
600.261	74.88
601.025	71.88
601.79	65.88
602.553	66.88
603.317	65.88
604.081	57.88
604.845	57.88
605.609	50.88
606.372	54.88
607.136	47.88
607.899	49.88
608.662	43.88
609.426	43.88
610.189	41.88
610.952	40.88
611.715	41.88
612.478	40.88
613.241	36.88
614.004	34.88
614.767	33.88
615.529	35.88
616.292	30.88
617.055	31.88
617.817	28.88
618.579	27.88
619.342	27.88
620.104	25.88
620.866	26.88
621.628	25.88
622.39	27.88
623.152	21.88
623.914	24.88
624.676	21.88
625.438	18.88
626.199	20.88
626.961	19.88
627.722	21.88
628.484	18.88
629.245	17.88
630.006	15.88
630.768	15.88
631.529	15.88
632.29	15.88
633.051	15.88
633.812	16.88
634.573	11.88
635.333	17.88
636.094	16.88
636.855	14.88
637.615	13.88
638.376	15.88
639.136	14.88
639.896	10.88
640.657	11.88
641.417	11.88
642.177	13.88
642.937	13.88
643.697	8.88
644.457	12.88
645.216	10.88
645.976	11.88
646.736	9.88
647.495	10.88
648.255	9.88
649.014	9.88
649.774	9.88
650.533	8.88
651.292	8.88
652.051	11.88
652.81	7.88
653.569	8.88
654.328	7.88
655.087	9.88
655.846	8.88
656.604	8.88
657.363	9.88
658.121	5.88
658.88	8.88
659.638	6.88
660.397	5.88
661.155	7.88
661.913	7.88
662.671	7.88
663.429	5.88
664.187	3.88
664.945	6.88
665.703	7.88
666.46	7.88
667.218	7.88
667.976	4.88
668.733	4.88
669.49	6.88
670.248	5.88
671.005	5.88
671.762	7.88
672.519	4.88
673.276	4.88
674.033	5.88
674.79	6.88
675.547	4.88
676.304	5.88
677.06	5.88
677.817	6.88
678.574	5.88
679.33	7.88
680.086	4.88
680.843	3.88
681.599	5.88
682.355	5.88
683.111	3.88
683.867	3.88
684.623	4.88
685.379	5.88
686.135	3.88
686.89	2.88
687.646	5.88
688.402	4.88
689.157	6.88
689.912	4.88
690.668	4.88
691.423	4.88
692.178	3.88
692.933	4.88
693.688	3.88
694.443	5.88
695.198	1.88
695.953	3.88
696.708	5.88
697.462	5.88
698.217	5.88
698.972	4.88
699.726	4.88
700.48	6.88
701.235	4.88
701.989	3.88
702.743	7.88
703.497	4.88
704.251	5.88
705.005	3.88
705.759	3.88
706.513	3.88
707.266	2.88
708.02	2.88
708.774	3.88
709.527	4.88
710.28	4.88
711.034	6.88
711.787	4.88
712.54	4.88
713.293	4.88
714.046	4.88
714.799	5.88
715.552	4.88
716.305	6.88
717.058	4.88
717.81	3.88
718.563	3.88
719.315	3.88
720.068	4.88
720.82	4.88
721.573	2.88
722.325	8.88
723.077	2.88
723.829	6.88
724.581	4.88
725.333	2.88
726.085	5.88
726.836	4.88
727.588	7.88
728.34	4.88
729.091	6.88
729.843	6.88
730.594	4.88
731.346	4.88
732.097	5.88
732.848	5.88
733.599	2.88
734.35	6.88
735.101	5.88
735.852	1.88
736.603	6.88
737.354	5.88
738.104	4.88
738.855	7.88
739.605	5.88
740.356	6.88
741.106	4.88
741.856	4.88
742.607	8.88
743.357	6.88
744.107	8.88
744.857	8.88
745.607	5.88
746.357	3.88
747.106	8.88
747.856	6.88
748.606	6.88
749.355	5.88
750.105	6.88
750.854	5.88
751.603	7.88
752.353	5.88
753.102	6.88
753.851	7.88
754.6	7.88
755.349	6.88
756.098	10.88
756.847	7.88
757.595	7.88
758.344	10.88
759.093	7.88
759.841	9.88
760.589	9.88
761.338	9.88
762.086	8.88
762.834	7.88
763.582	10.88
764.331	9.88
765.079	10.88
765.826	9.88
766.574	10.88
767.322	12.88
768.07	10.88
768.817	11.88
769.565	11.88
770.312	11.88
771.06	12.88
771.807	10.88
772.554	9.88
773.302	8.88
774.049	10.88
774.796	11.88
775.543	9.88
776.29	15.88
777.036	10.88
777.783	10.88
778.53	11.88
779.276	11.88
780.023	12.88
780.769	10.88
781.516	11.88
782.262	12.88
783.008	9.88
783.754	11.88
784.5	11.88
785.246	11.88
785.992	9.88
786.738	11.88
787.484	11.88
788.23	12.88
788.975	11.88
789.721	12.88
790.466	8.88
791.212	11.88
791.957	13.88
792.702	9.88
793.447	12.88
794.193	8.88
794.938	10.88
795.683	11.88
796.427	9.88
797.172	10.88
797.917	8.88
798.662	9.88
799.406	6.88
800.151	8.88
800.895	8.88
801.64	8.88
802.384	10.88
803.128	7.88
803.872	5.88
804.616	8.88
805.36	6.88
806.104	7.88
806.848	9.88
807.592	9.88
808.336	8.88
809.079	7.88
809.823	8.88
810.566	4.88
811.31	8.88
812.053	8.88
812.796	5.88
813.539	5.88
814.283	7.88
815.026	7.88
815.769	5.88
816.511	5.88
817.254	4.88
817.997	3.88
818.74	5.88
819.482	4.88
820.225	5.88
820.967	4.88
821.71	6.88
822.452	5.88
823.194	5.88
823.936	5.88
824.678	4.88
825.42	3.88
826.162	4.88
826.904	4.88
827.646	5.88
828.388	4.88
829.129	6.88
829.871	3.88
830.612	4.88
831.354	5.88
832.095	2.88
832.836	4.88
833.577	5.88
834.319	4.88
835.06	3.88
835.801	4.88
836.542	3.88
837.282	2.88
838.023	3.88
838.764	2.88
839.504	1.88
840.245	5.88
840.985	3.88
841.726	3.88
842.466	2.88
843.206	4.88
843.946	6.88
844.687	0.88
845.427	2.88
846.166	3.88
846.906	4.88
847.646	0.88
848.386	4.88
849.125	3.88
849.865	0.88
850.605	3.88
851.344	1.88
852.083	1.88
852.823	3.88
853.562	2.88
854.301	1.88
855.04	4.88
855.779	4.88
856.518	1.88
857.257	3.88
857.995	1.88
858.734	0.88
859.473	2.88
860.211	4.88
860.95	0.88
861.688	1.88
862.426	2.88
863.165	1.88
863.903	0.88
864.641	1.88
865.379	0.88
866.117	3.88
866.855	1.88
867.593	1.88
868.33	-0.12
869.068	1.88
869.806	2.88
870.543	1.88
871.28	3.88
872.018	0.88
872.755	0.88
873.492	2.88
874.229	0.88
874.967	1.88
875.703	-1.12
876.44	1.88
877.177	2.88
877.914	-0.12
878.651	2.88
879.387	1.88
880.124	-0.12
880.86	1.88
881.597	-0.12
882.333	0.88
883.069	0.88
883.806	1.88
884.542	0.88
885.278	-2.12
886.014	-0.12
886.749	0.88
887.485	1.88
888.221	-0.12
888.957	0.88
889.692	1.88
890.428	-0.12
891.163	1.88
891.899	-0.12
892.634	1.88
893.369	-2.12
894.104	-0.12
894.839	1.88
895.574	2.88
896.309	2.88
897.044	-4.12
897.779	0.88
898.514	1.88
899.248	0.88
899.983	-0.12
900.717	-1.12
901.452	0.88
902.186	-1.12
902.92	1.88
903.654	-1.12
904.389	-1.12
905.123	-0.12
905.857	0.88
906.59	0.88
907.324	-0.12
908.058	-0.12
908.792	0.88
909.525	-1.12
910.259	1.88
910.992	0.88
911.726	2.88
912.459	0.88
913.192	-2.12
913.925	-1.12
914.658	-2.12
915.391	0.88
916.124	0.88
916.857	-0.12
917.59	-0.12
918.323	-1.12
919.055	-1.12
919.788	-2.12
920.521	2.88
921.253	-0.12
921.985	-2.12
922.718	-1.12
923.45	-0.12
924.182	-0.12
924.914	-1.12
925.646	-0.12
926.378	-0.12
927.11	-2.12
927.841	1.88
928.573	-2.12
929.305	-0.12
930.036	-1.12
930.768	1.88
931.499	-0.12
932.23	-1.12
932.962	2.88
933.693	-1.12
934.424	1.88
935.155	-0.12
935.886	1.88
936.617	-2.12
937.348	-2.12
938.078	1.88
938.809	-1.12
939.54	0.88
940.27	-1.12
941.001	-2.12
941.731	-0.12
942.461	0.88
943.191	0.88
943.922	-2.12
944.652	-2.12
945.382	-0.12
946.112	-2.12
946.841	-0.12
947.571	-2.12
948.301	-1.12
949.031	-1.12
949.76	-2.12
950.49	-0.12
951.219	-0.12
951.948	-1.12
952.678	-1.12
953.407	-2.12
954.136	-0.12
954.865	0.88
955.594	0.88
956.323	-4.12
957.052	-1.12
957.78	-1.12
958.509	0.88
959.238	-0.12
959.966	-0.12
960.695	-0.12
961.423	-0.12
962.151	-3.12
962.88	-0.12
963.608	-0.12
964.336	-0.12
965.064	-1.12
965.792	-1.12
966.52	1.88
967.247	0.88
967.975	-0.12
968.703	0.88
969.43	-2.12
970.158	0.88
970.885	-2.12
971.613	1.88
972.34	-0.12
973.067	-1.12
973.794	-0.12
974.521	-1.12
975.248	-2.12
975.975	-1.12
976.702	-0.12
977.429	-2.12
978.156	-0.12
978.882	-0.12
979.609	-0.12
980.335	0.88
981.062	0.88
981.788	0.88
982.514	-0.12
983.24	-0.12
983.967	0.88
984.693	-0.12
985.419	-1.12
986.144	1.88
986.87	0.88
987.596	0.88
988.322	-2.12
989.047	0.88
989.773	1.88
990.498	1.88
991.224	0.88
991.949	1.88
992.674	0.88
993.399	0.88
994.124	-0.12
994.849	-2.12
995.574	-1.12
996.299	-2.12
997.024	-1.12
997.749	-1.12
998.473	-1.12
999.198	-0.12
999.922	-0.12
1000.647	-0.12
1001.371	3.88
1002.095	-0.12
1002.82	-0.12
1003.544	-2.12
1004.268	-0.12
1004.992	0.88
1005.716	1.88
1006.439	3.88
1007.163	2.88
1007.887	3.88
1008.611	-2.12
1009.334	-1.12
1010.058	-1.12
1010.781	-0.12
1011.504	-0.12
1012.228	-0.12
1012.951	-0.12
1013.674	-1.12
1014.397	0.88
1015.12	-1.12
