节点500_425_QEPB04081__20__15-48-41-446.txt的数据

Date: Wed Nov 12 15:48:41 CST 2025
User: PC
Spectrometer: QEPB0408
触发模式: 0
积分时间 (秒): 1.000000E-2
Scans to average: 1
启用暗噪声校正: true
启用非线性校正: false
滑动平均宽度: 0
X轴模式: Wavelengths
Number of Pixels in Spectrum: 1044
>>>>>Begin Spectral Data<<<<<
220.843	5.38
221.644	2.38
222.444	3.38
223.244	3.38
224.045	2.38
224.845	3.38
225.645	4.38
226.445	4.38
227.245	5.38
228.045	4.38
228.845	5.38
229.645	4.38
230.444	8.38
231.244	5.38
232.043	4.38
232.843	8.38
233.642	3.38
234.442	5.38
235.241	5.38
236.04	5.38
236.839	4.38
237.638	7.38
238.437	9.38
239.236	6.38
240.035	7.38
240.833	6.38
241.632	6.38
242.43	6.38
243.229	8.38
244.027	8.38
244.826	10.38
245.624	8.38
246.422	7.38
247.22	9.38
248.018	10.38
248.816	11.38
249.614	9.38
250.412	9.38
251.21	11.38
252.007	10.38
252.805	10.38
253.602	10.38
254.4	11.38
255.197	12.38
255.994	11.38
256.791	12.38
257.589	13.38
258.386	15.38
259.183	13.38
259.979	13.38
260.776	16.38
261.573	19.38
262.37	17.38
263.166	18.38
263.963	19.38
264.759	21.38
265.556	19.38
266.352	22.38
267.148	19.38
267.944	21.38
268.74	21.38
269.536	20.38
270.332	25.38
271.128	22.38
271.924	24.38
272.719	24.38
273.515	23.38
274.311	27.38
275.106	26.38
275.901	27.38
276.697	22.38
277.492	27.38
278.287	28.38
279.082	25.38
279.877	25.38
280.672	27.38
281.467	28.38
282.262	26.38
283.056	26.38
283.851	27.38
284.646	25.38
285.44	26.38
286.234	25.38
287.029	19.38
287.823	28.38
288.617	24.38
289.411	26.38
290.205	24.38
290.999	24.38
291.793	25.38
292.587	23.38
293.381	24.38
294.174	21.38
294.968	23.38
295.761	18.38
296.555	19.38
297.348	19.38
298.141	20.38
298.935	26.38
299.728	19.38
300.521	18.38
301.314	19.38
302.107	18.38
302.899	18.38
303.692	17.38
304.485	13.38
305.277	16.38
306.07	12.38
306.862	19.38
307.655	16.38
308.447	16.38
309.239	15.38
310.031	14.38
310.823	12.38
311.615	14.38
312.407	11.38
313.199	13.38
313.991	12.38
314.783	10.38
315.574	11.38
316.366	12.38
317.157	14.38
317.949	12.38
318.74	10.38
319.531	7.38
320.322	12.38
321.113	11.38
321.904	8.38
322.695	9.38
323.486	10.38
324.277	7.38
325.068	9.38
325.858	11.38
326.649	10.38
327.439	5.38
328.23	7.38
329.02	11.38
329.81	9.38
330.6	10.38
331.391	8.38
332.181	10.38
332.971	10.38
333.76	9.38
334.55	8.38
335.34	8.38
336.13	8.38
336.919	8.38
337.709	8.38
338.498	8.38
339.287	8.38
340.077	10.38
340.866	9.38
341.655	8.38
342.444	9.38
343.233	9.38
344.022	8.38
344.811	7.38
345.6	6.38
346.388	9.38
347.177	9.38
347.965	7.38
348.754	8.38
349.542	8.38
350.33	7.38
351.119	9.38
351.907	7.38
352.695	8.38
353.483	9.38
354.271	8.38
355.059	6.38
355.846	7.38
356.634	7.38
357.422	6.38
358.209	7.38
358.997	6.38
359.784	9.38
360.571	5.38
361.359	7.38
362.146	8.38
362.933	7.38
363.72	6.38
364.507	7.38
365.294	8.38
366.081	5.38
366.867	7.38
367.654	5.38
368.44	7.38
369.227	7.38
370.013	7.38
370.8	6.38
371.586	5.38
372.372	6.38
373.158	7.38
373.944	8.38
374.73	7.38
375.516	4.38
376.302	8.38
377.088	8.38
377.873	6.38
378.659	5.38
379.445	7.38
380.23	8.38
381.015	5.38
381.801	7.38
382.586	6.38
383.371	7.38
384.156	7.38
384.941	7.38
385.726	9.38
386.511	6.38
387.296	10.38
388.08	8.38
388.865	9.38
389.649	8.38
390.434	9.38
391.218	7.38
392.003	8.38
392.787	7.38
393.571	6.38
394.355	7.38
395.139	8.38
395.923	10.38
396.707	11.38
397.491	7.38
398.274	10.38
399.058	11.38
399.842	8.38
400.625	8.38
401.408	10.38
402.192	9.38
402.975	12.38
403.758	11.38
404.541	9.38
405.324	9.38
406.107	12.38
406.89	11.38
407.673	10.38
408.456	14.38
409.238	10.38
410.021	14.38
410.803	11.38
411.586	10.38
412.368	10.38
413.151	13.38
413.933	13.38
414.715	11.38
415.497	15.38
416.279	13.38
417.061	14.38
417.843	15.38
418.624	14.38
419.406	14.38
420.188	15.38
420.969	15.38
421.751	16.38
422.532	15.38
423.313	18.38
424.095	16.38
424.876	17.38
425.657	17.38
426.438	17.38
427.219	16.38
428	16.38
428.78	17.38
429.561	13.38
430.342	21.38
431.122	22.38
431.903	22.38
432.683	21.38
433.464	23.38
434.244	22.38
435.024	23.38
435.804	28.38
436.584	27.38
437.364	26.38
438.144	28.38
438.924	33.38
439.704	32.38
440.483	30.38
441.263	36.38
442.042	35.38
442.822	38.38
443.601	44.38
444.38	44.38
445.16	47.38
445.939	50.38
446.718	52.38
447.497	59.38
448.276	63.38
449.054	67.38
449.833	70.38
450.612	79.38
451.391	85.38
452.169	98.38
452.948	103.38
453.726	110.38
454.504	123.38
455.282	133.38
456.061	150.38
456.839	167.38
457.617	182.38
458.395	206.38
459.172	234.38
459.95	260.38
460.728	289.38
461.506	321.38
462.283	362.38
463.061	396.38
463.838	455.38
464.615	516.38
465.393	569.38
466.17	624.38
466.947	708.38
467.724	799.38
468.501	887.38
469.278	986.38
470.055	1120.38
470.831	1236.38
471.608	1356.38
472.385	1516.38
473.161	1700.38
473.938	1899.38
474.714	2106.38
475.49	2347.38
476.266	2608.38
477.043	2873.38
477.819	3169.38
478.595	3565.38
479.371	3924.38
480.146	4330.38
480.922	4796.38
481.698	5268.38
482.473	5825.38
483.249	6434.38
484.024	7089.38
484.8	7834.38
485.575	8608.38
486.35	9459.38
487.126	10355.38
487.901	11370.38
488.676	12480.38
489.451	13681.38
490.225	14840.38
491	16175.38
491.775	17621.38
492.55	19080.38
493.324	20587.38
494.099	22107.38
494.873	23557.38
495.647	25261.38
496.422	26854.38
497.196	28480.38
497.97	30048.38
498.744	31613.38
499.518	32959.38
500.292	34232.38
501.066	35400.38
501.839	36346.38
502.613	37073.38
503.387	37584.38
504.16	37916.38
504.934	37953.38
505.707	37547.38
506.48	37252.38
507.253	36596.38
508.027	35961.38
508.8	34979.38
509.573	34023.38
510.346	32856.38
511.118	31754.38
511.891	30512.38
512.664	29223.38
513.437	27965.38
514.209	26718.38
514.982	25594.38
515.754	24519.38
516.526	23372.38
517.298	22350.38
518.071	21430.38
518.843	20575.38
519.615	19701.38
520.387	18930.38
521.159	18213.38
521.93	17500.38
522.702	16775.38
523.474	16101.38
524.245	15453.38
525.017	14718.38
525.788	14026.38
526.56	13442.38
527.331	12737.38
528.102	12089.38
528.873	11511.38
529.644	10877.38
530.415	10384.38
531.186	9839.38
531.957	9268.38
532.728	8762.38
533.498	8259.38
534.269	7797.38
535.039	7362.38
535.81	6944.38
536.58	6558.38
537.351	6168.38
538.121	5854.38
538.891	5554.38
539.661	5238.38
540.431	4943.38
541.201	4695.38
541.971	4470.38
542.741	4229.38
543.51	4022.38
544.28	3827.38
545.05	3645.38
545.819	3471.38
546.588	3296.38
547.358	3121.38
548.127	2931.38
548.896	2788.38
549.665	2646.38
550.434	2512.38
551.203	2373.38
551.972	2251.38
552.741	2114.38
553.51	1990.38
554.278	1889.38
555.047	1787.38
555.815	1684.38
556.584	1575.38
557.352	1487.38
558.121	1397.38
558.889	1325.38
559.657	1258.38
560.425	1193.38
561.193	1114.38
561.961	1043.38
562.729	1014.38
563.496	940.38
564.264	889.38
565.032	858.38
565.799	799.38
566.567	763.38
567.334	709.38
568.101	669.38
568.869	645.38
569.636	597.38
570.403	562.38
571.17	534.38
571.937	505.38
572.704	477.38
573.471	452.38
574.237	423.38
575.004	395.38
575.771	377.38
576.537	353.38
577.303	329.38
578.07	314.38
578.836	295.38
579.602	283.38
580.368	265.38
581.134	244.38
581.9	237.38
582.666	231.38
583.432	213.38
584.198	202.38
584.964	190.38
585.729	185.38
586.495	170.38
587.26	164.38
588.025	158.38
588.791	146.38
589.556	140.38
590.321	136.38
591.086	130.38
591.851	118.38
592.616	118.38
593.381	109.38
594.146	107.38
594.911	99.38
595.675	99.38
596.44	84.38
597.204	91.38
597.969	83.38
598.733	84.38
599.497	78.38
600.261	75.38
601.025	70.38
601.79	69.38
602.553	61.38
603.317	60.38
604.081	56.38
604.845	54.38
605.609	52.38
606.372	51.38
607.136	50.38
607.899	47.38
608.662	46.38
609.426	42.38
610.189	43.38
610.952	38.38
611.715	40.38
612.478	39.38
613.241	35.38
614.004	36.38
614.767	32.38
615.529	34.38
616.292	32.38
617.055	30.38
617.817	29.38
618.579	30.38
619.342	30.38
620.104	27.38
620.866	26.38
621.628	24.38
622.39	26.38
623.152	25.38
623.914	22.38
624.676	22.38
625.438	21.38
626.199	22.38
626.961	23.38
627.722	19.38
628.484	20.38
629.245	19.38
630.006	19.38
630.768	18.38
631.529	15.38
632.29	16.38
633.051	14.38
633.812	18.38
634.573	17.38
635.333	15.38
636.094	14.38
636.855	12.38
637.615	14.38
638.376	13.38
639.136	14.38
639.896	12.38
640.657	15.38
641.417	10.38
642.177	10.38
642.937	11.38
643.697	11.38
644.457	16.38
645.216	11.38
645.976	11.38
646.736	11.38
647.495	7.38
648.255	10.38
649.014	10.38
649.774	9.38
650.533	7.38
651.292	8.38
652.051	9.38
652.81	10.38
653.569	10.38
654.328	8.38
655.087	6.38
655.846	8.38
656.604	5.38
657.363	8.38
658.121	9.38
658.88	8.38
659.638	9.38
660.397	7.38
661.155	7.38
661.913	8.38
662.671	8.38
663.429	6.38
664.187	7.38
664.945	7.38
665.703	7.38
666.46	8.38
667.218	4.38
667.976	8.38
668.733	5.38
669.49	7.38
670.248	7.38
671.005	7.38
671.762	8.38
672.519	7.38
673.276	5.38
674.033	6.38
674.79	6.38
675.547	5.38
676.304	7.38
677.06	4.38
677.817	3.38
678.574	5.38
679.33	6.38
680.086	6.38
680.843	6.38
681.599	6.38
682.355	5.38
683.111	8.38
683.867	5.38
684.623	5.38
685.379	5.38
686.135	6.38
686.89	8.38
687.646	6.38
688.402	4.38
689.157	5.38
689.912	9.38
690.668	2.38
691.423	5.38
692.178	5.38
692.933	6.38
693.688	3.38
694.443	6.38
695.198	6.38
695.953	2.38
696.708	5.38
697.462	6.38
698.217	4.38
698.972	5.38
699.726	5.38
700.48	5.38
701.235	7.38
701.989	4.38
702.743	6.38
703.497	6.38
704.251	6.38
705.005	2.38
705.759	5.38
706.513	5.38
707.266	4.38
708.02	3.38
708.774	3.38
709.527	5.38
710.28	10.38
711.034	3.38
711.787	6.38
712.54	6.38
713.293	4.38
714.046	2.38
714.799	7.38
715.552	5.38
716.305	4.38
717.058	5.38
717.81	6.38
718.563	4.38
719.315	5.38
720.068	6.38
720.82	5.38
721.573	5.38
722.325	6.38
723.077	4.38
723.829	5.38
724.581	4.38
725.333	7.38
726.085	6.38
726.836	4.38
727.588	5.38
728.34	3.38
729.091	6.38
729.843	6.38
730.594	5.38
731.346	5.38
732.097	5.38
732.848	7.38
733.599	5.38
734.35	7.38
735.101	6.38
735.852	9.38
736.603	6.38
737.354	7.38
738.104	8.38
738.855	8.38
739.605	9.38
740.356	7.38
741.106	5.38
741.856	7.38
742.607	6.38
743.357	8.38
744.107	5.38
744.857	8.38
745.607	6.38
746.357	10.38
747.106	7.38
747.856	6.38
748.606	8.38
749.355	8.38
750.105	7.38
750.854	6.38
751.603	7.38
752.353	8.38
753.102	8.38
753.851	7.38
754.6	9.38
755.349	7.38
756.098	8.38
756.847	11.38
757.595	10.38
758.344	7.38
759.093	10.38
759.841	7.38
760.589	8.38
761.338	10.38
762.086	10.38
762.834	9.38
763.582	7.38
764.331	11.38
765.079	10.38
765.826	9.38
766.574	11.38
767.322	10.38
768.07	10.38
768.817	10.38
769.565	11.38
770.312	13.38
771.06	13.38
771.807	11.38
772.554	11.38
773.302	11.38
774.049	10.38
774.796	10.38
775.543	11.38
776.29	12.38
777.036	14.38
777.783	14.38
778.53	11.38
779.276	12.38
780.023	13.38
780.769	15.38
781.516	15.38
782.262	11.38
783.008	12.38
783.754	9.38
784.5	13.38
785.246	14.38
785.992	11.38
786.738	12.38
787.484	11.38
788.23	13.38
788.975	10.38
789.721	12.38
790.466	10.38
791.212	9.38
791.957	11.38
792.702	11.38
793.447	11.38
794.193	12.38
794.938	11.38
795.683	8.38
796.427	10.38
797.172	10.38
797.917	11.38
798.662	12.38
799.406	10.38
800.151	8.38
800.895	12.38
801.64	10.38
802.384	11.38
803.128	9.38
803.872	7.38
804.616	7.38
805.36	9.38
806.104	7.38
806.848	8.38
807.592	8.38
808.336	9.38
809.079	6.38
809.823	6.38
810.566	4.38
811.31	8.38
812.053	7.38
812.796	5.38
813.539	8.38
814.283	6.38
815.026	9.38
815.769	8.38
816.511	5.38
817.254	6.38
817.997	8.38
818.74	6.38
819.482	7.38
820.225	6.38
820.967	7.38
821.71	5.38
822.452	5.38
823.194	5.38
823.936	5.38
824.678	4.38
825.42	6.38
826.162	5.38
826.904	5.38
827.646	5.38
828.388	5.38
829.129	5.38
829.871	6.38
830.612	5.38
831.354	4.38
832.095	3.38
832.836	6.38
833.577	4.38
834.319	5.38
835.06	3.38
835.801	5.38
836.542	6.38
837.282	1.38
838.023	5.38
838.764	4.38
839.504	4.38
840.245	5.38
840.985	3.38
841.726	3.38
842.466	3.38
843.206	4.38
843.946	4.38
844.687	3.38
845.427	2.38
846.166	1.38
846.906	3.38
847.646	2.38
848.386	3.38
849.125	3.38
849.865	2.38
850.605	5.38
851.344	3.38
852.083	4.38
852.823	2.38
853.562	2.38
854.301	3.38
855.04	3.38
855.779	5.38
856.518	3.38
857.257	2.38
857.995	5.38
858.734	2.38
859.473	3.38
860.211	2.38
860.95	3.38
861.688	2.38
862.426	4.38
863.165	4.38
863.903	2.38
864.641	1.38
865.379	2.38
866.117	1.38
866.855	3.38
867.593	1.38
868.33	1.38
869.068	2.38
869.806	3.38
870.543	3.38
871.28	1.38
872.018	0.38
872.755	0.38
873.492	1.38
874.229	1.38
874.967	0.38
875.703	0.38
876.44	2.38
877.177	2.38
877.914	0.38
878.651	2.38
879.387	2.38
880.124	2.38
880.86	2.38
881.597	-0.62
882.333	2.38
883.069	2.38
883.806	1.38
884.542	2.38
885.278	2.38
886.014	3.38
886.749	-0.62
887.485	2.38
888.221	1.38
888.957	0.38
889.692	1.38
890.428	3.38
891.163	0.38
891.899	2.38
892.634	-0.62
893.369	1.38
894.104	0.38
894.839	1.38
895.574	0.38
896.309	1.38
897.044	4.38
897.779	0.38
898.514	0.38
899.248	2.38
899.983	2.38
900.717	2.38
901.452	2.38
902.186	0.38
902.92	0.38
903.654	0.38
904.389	-0.62
905.123	1.38
905.857	0.38
906.59	1.38
907.324	3.38
908.058	-1.62
908.792	-1.62
909.525	0.38
910.259	-0.62
910.992	1.38
911.726	2.38
912.459	-0.62
913.192	0.38
913.925	1.38
914.658	1.38
915.391	3.38
916.124	-1.62
916.857	-1.62
917.59	-0.62
918.323	-0.62
919.055	0.38
919.788	0.38
920.521	0.38
921.253	1.38
921.985	-0.62
922.718	1.38
923.45	1.38
924.182	0.38
924.914	-0.62
925.646	3.38
926.378	1.38
927.11	0.38
927.841	1.38
928.573	0.38
929.305	0.38
930.036	2.38
930.768	-2.62
931.499	1.38
932.23	-1.62
932.962	0.38
933.693	1.38
934.424	2.38
935.155	1.38
935.886	0.38
936.617	-1.62
937.348	-1.62
938.078	1.38
938.809	-1.62
939.54	-0.62
940.27	2.38
941.001	0.38
941.731	2.38
942.461	-1.62
943.191	0.38
943.922	0.38
944.652	0.38
945.382	0.38
946.112	0.38
946.841	-1.62
947.571	1.38
948.301	-0.62
949.031	0.38
949.76	-1.62
950.49	0.38
951.219	-1.62
951.948	1.38
952.678	-0.62
953.407	0.38
954.136	2.38
954.865	0.38
955.594	0.38
956.323	1.38
957.052	1.38
957.78	3.38
958.509	-1.62
959.238	0.38
959.966	-1.62
960.695	0.38
961.423	-0.62
962.151	0.38
962.88	-0.62
963.608	0.38
964.336	1.38
965.064	0.38
965.792	-0.62
966.52	0.38
967.247	-0.62
967.975	1.38
968.703	0.38
969.43	-0.62
970.158	1.38
970.885	-0.62
971.613	1.38
972.34	0.38
973.067	-1.62
973.794	0.38
974.521	2.38
975.248	2.38
975.975	-0.62
976.702	0.38
977.429	1.38
978.156	0.38
978.882	0.38
979.609	0.38
980.335	-0.62
981.062	0.38
981.788	0.38
982.514	-1.62
983.24	-1.62
983.967	1.38
984.693	2.38
985.419	0.38
986.144	-3.62
986.87	2.38
987.596	0.38
988.322	1.38
989.047	-0.62
989.773	-0.62
990.498	1.38
991.224	-1.62
991.949	-0.62
992.674	1.38
993.399	-1.62
994.124	1.38
994.849	-0.62
995.574	0.38
996.299	-0.62
997.024	0.38
997.749	1.38
998.473	-0.62
999.198	-1.62
999.922	-0.62
1000.647	2.38
1001.371	3.38
1002.095	-0.62
1002.82	-2.62
1003.544	0.38
1004.268	1.38
1004.992	0.38
1005.716	2.38
1006.439	0.38
1007.163	6.38
1007.887	2.38
1008.611	2.38
1009.334	-3.62
1010.058	-0.62
1010.781	2.38
1011.504	-1.62
1012.228	1.38
1012.951	2.38
1013.674	-1.62
1014.397	-0.62
1015.12	-0.62
