节点500_425_QEPB04081__32__15-48-52-422.txt的数据

Date: Wed Nov 12 15:48:52 CST 2025
User: PC
Spectrometer: QEPB0408
触发模式: 0
积分时间 (秒): 1.000000E-2
Scans to average: 1
启用暗噪声校正: true
启用非线性校正: false
滑动平均宽度: 0
X轴模式: Wavelengths
Number of Pixels in Spectrum: 1044
>>>>>Begin Spectral Data<<<<<
220.843	2.25
221.644	4.25
222.444	0.25
223.244	3.25
224.045	1.25
224.845	3.25
225.645	2.25
226.445	4.25
227.245	4.25
228.045	0.25
228.845	3.25
229.645	2.25
230.444	5.25
231.244	3.25
232.043	5.25
232.843	5.25
233.642	4.25
234.442	4.25
235.241	5.25
236.04	5.25
236.839	5.25
237.638	6.25
238.437	5.25
239.236	5.25
240.035	7.25
240.833	5.25
241.632	6.25
242.43	7.25
243.229	7.25
244.027	6.25
244.826	6.25
245.624	9.25
246.422	8.25
247.22	7.25
248.018	7.25
248.816	9.25
249.614	9.25
250.412	10.25
251.21	8.25
252.007	13.25
252.805	10.25
253.602	11.25
254.4	13.25
255.197	11.25
255.994	13.25
256.791	11.25
257.589	14.25
258.386	14.25
259.183	14.25
259.979	14.25
260.776	14.25
261.573	15.25
262.37	15.25
263.166	16.25
263.963	18.25
264.759	20.25
265.556	19.25
266.352	19.25
267.148	18.25
267.944	19.25
268.74	24.25
269.536	22.25
270.332	19.25
271.128	22.25
271.924	19.25
272.719	21.25
273.515	26.25
274.311	24.25
275.106	27.25
275.901	23.25
276.697	27.25
277.492	27.25
278.287	25.25
279.082	26.25
279.877	23.25
280.672	26.25
281.467	25.25
282.262	26.25
283.056	21.25
283.851	26.25
284.646	24.25
285.44	26.25
286.234	29.25
287.029	26.25
287.823	24.25
288.617	24.25
289.411	25.25
290.205	25.25
290.999	22.25
291.793	24.25
292.587	23.25
293.381	22.25
294.174	23.25
294.968	19.25
295.761	22.25
296.555	19.25
297.348	19.25
298.141	21.25
298.935	22.25
299.728	19.25
300.521	17.25
301.314	17.25
302.107	13.25
302.899	16.25
303.692	15.25
304.485	16.25
305.277	13.25
306.07	16.25
306.862	15.25
307.655	16.25
308.447	14.25
309.239	14.25
310.031	12.25
310.823	16.25
311.615	12.25
312.407	12.25
313.199	11.25
313.991	10.25
314.783	9.25
315.574	11.25
316.366	11.25
317.157	9.25
317.949	11.25
318.74	8.25
319.531	11.25
320.322	9.25
321.113	9.25
321.904	11.25
322.695	9.25
323.486	7.25
324.277	9.25
325.068	10.25
325.858	8.25
326.649	8.25
327.439	6.25
328.23	5.25
329.02	9.25
329.81	7.25
330.6	11.25
331.391	8.25
332.181	9.25
332.971	9.25
333.76	9.25
334.55	7.25
335.34	8.25
336.13	9.25
336.919	9.25
337.709	6.25
338.498	7.25
339.287	7.25
340.077	7.25
340.866	6.25
341.655	7.25
342.444	9.25
343.233	6.25
344.022	8.25
344.811	7.25
345.6	8.25
346.388	8.25
347.177	8.25
347.965	6.25
348.754	8.25
349.542	7.25
350.33	8.25
351.119	5.25
351.907	7.25
352.695	5.25
353.483	6.25
354.271	7.25
355.059	3.25
355.846	9.25
356.634	5.25
357.422	6.25
358.209	7.25
358.997	8.25
359.784	7.25
360.571	7.25
361.359	7.25
362.146	7.25
362.933	5.25
363.72	7.25
364.507	6.25
365.294	6.25
366.081	6.25
366.867	5.25
367.654	4.25
368.44	7.25
369.227	5.25
370.013	3.25
370.8	5.25
371.586	6.25
372.372	5.25
373.158	6.25
373.944	7.25
374.73	6.25
375.516	6.25
376.302	6.25
377.088	5.25
377.873	8.25
378.659	9.25
379.445	8.25
380.23	5.25
381.015	7.25
381.801	5.25
382.586	7.25
383.371	3.25
384.156	7.25
384.941	7.25
385.726	6.25
386.511	8.25
387.296	7.25
388.08	7.25
388.865	6.25
389.649	8.25
390.434	6.25
391.218	6.25
392.003	9.25
392.787	6.25
393.571	9.25
394.355	9.25
395.139	9.25
395.923	8.25
396.707	10.25
397.491	9.25
398.274	8.25
399.058	9.25
399.842	8.25
400.625	9.25
401.408	9.25
402.192	8.25
402.975	10.25
403.758	10.25
404.541	10.25
405.324	8.25
406.107	12.25
406.89	9.25
407.673	10.25
408.456	8.25
409.238	13.25
410.021	11.25
410.803	11.25
411.586	10.25
412.368	12.25
413.151	13.25
413.933	11.25
414.715	13.25
415.497	13.25
416.279	11.25
417.061	13.25
417.843	11.25
418.624	13.25
419.406	14.25
420.188	13.25
420.969	15.25
421.751	13.25
422.532	14.25
423.313	16.25
424.095	15.25
424.876	17.25
425.657	13.25
426.438	15.25
427.219	17.25
428	16.25
428.78	19.25
429.561	20.25
430.342	17.25
431.122	20.25
431.903	19.25
432.683	21.25
433.464	21.25
434.244	25.25
435.024	23.25
435.804	25.25
436.584	26.25
437.364	24.25
438.144	28.25
438.924	28.25
439.704	33.25
440.483	33.25
441.263	34.25
442.042	40.25
442.822	40.25
443.601	40.25
444.38	42.25
445.16	48.25
445.939	52.25
446.718	52.25
447.497	59.25
448.276	61.25
449.054	66.25
449.833	75.25
450.612	75.25
451.391	89.25
452.169	98.25
452.948	103.25
453.726	113.25
454.504	125.25
455.282	138.25
456.061	148.25
456.839	170.25
457.617	190.25
458.395	210.25
459.172	232.25
459.95	258.25
460.728	288.25
461.506	331.25
462.283	369.25
463.061	410.25
463.838	456.25
464.615	516.25
465.393	573.25
466.17	637.25
466.947	714.25
467.724	793.25
468.501	891.25
469.278	996.25
470.055	1123.25
470.831	1234.25
471.608	1377.25
472.385	1547.25
473.161	1721.25
473.938	1912.25
474.714	2116.25
475.49	2328.25
476.266	2613.25
477.043	2895.25
477.819	3206.25
478.595	3576.25
479.371	3929.25
480.146	4361.25
480.922	4792.25
481.698	5307.25
482.473	5840.25
483.249	6437.25
484.024	7090.25
484.8	7854.25
485.575	8622.25
486.35	9499.25
487.126	10385.25
487.901	11392.25
488.676	12471.25
489.451	13620.25
490.225	14855.25
491	16149.25
491.775	17599.25
492.55	19120.25
493.324	20581.25
494.099	22110.25
494.873	23510.25
495.647	25142.25
496.422	26817.25
497.196	28392.25
497.97	30072.25
498.744	31633.25
499.518	32953.25
500.292	34180.25
501.066	35315.25
501.839	36309.25
502.613	37114.25
503.387	37669.25
504.16	37977.25
504.934	38030.25
505.707	37741.25
506.48	37313.25
507.253	36714.25
508.027	36099.25
508.8	35208.25
509.573	34142.25
510.346	33041.25
511.118	31923.25
511.891	30618.25
512.664	29356.25
513.437	28089.25
514.209	26822.25
514.982	25773.25
515.754	24570.25
516.526	23476.25
517.298	22436.25
518.071	21500.25
518.843	20667.25
519.615	19868.25
520.387	18924.25
521.159	18257.25
521.93	17583.25
522.702	16881.25
523.474	16217.25
524.245	15493.25
525.017	14785.25
525.788	14128.25
526.56	13472.25
527.331	12789.25
528.102	12117.25
528.873	11535.25
529.644	10950.25
530.415	10418.25
531.186	9866.25
531.957	9337.25
532.728	8834.25
533.498	8283.25
534.269	7868.25
535.039	7407.25
535.81	6979.25
536.58	6612.25
537.351	6236.25
538.121	5879.25
538.891	5586.25
539.661	5271.25
540.431	5008.25
541.201	4762.25
541.971	4497.25
542.741	4254.25
543.51	4061.25
544.28	3849.25
545.05	3656.25
545.819	3508.25
546.588	3313.25
547.358	3120.25
548.127	2954.25
548.896	2804.25
549.665	2666.25
550.434	2518.25
551.203	2400.25
551.972	2253.25
552.741	2151.25
553.51	2025.25
554.278	1898.25
555.047	1791.25
555.815	1685.25
556.584	1584.25
557.352	1495.25
558.121	1402.25
558.889	1324.25
559.657	1250.25
560.425	1187.25
561.193	1117.25
561.961	1059.25
562.729	1012.25
563.496	956.25
564.264	889.25
565.032	857.25
565.799	804.25
566.567	761.25
567.334	718.25
568.101	684.25
568.869	651.25
569.636	606.25
570.403	570.25
571.17	533.25
571.937	513.25
572.704	472.25
573.471	453.25
574.237	425.25
575.004	402.25
575.771	376.25
576.537	356.25
577.303	340.25
578.07	316.25
578.836	296.25
579.602	284.25
580.368	264.25
581.134	256.25
581.9	244.25
582.666	223.25
583.432	214.25
584.198	207.25
584.964	198.25
585.729	184.25
586.495	170.25
587.26	169.25
588.025	157.25
588.791	145.25
589.556	140.25
590.321	141.25
591.086	126.25
591.851	121.25
592.616	115.25
593.381	109.25
594.146	103.25
594.911	98.25
595.675	98.25
596.44	94.25
597.204	87.25
597.969	85.25
598.733	77.25
599.497	72.25
600.261	72.25
601.025	72.25
601.79	65.25
602.553	63.25
603.317	61.25
604.081	61.25
604.845	52.25
605.609	52.25
606.372	52.25
607.136	49.25
607.899	47.25
608.662	44.25
609.426	43.25
610.189	42.25
610.952	41.25
611.715	36.25
612.478	38.25
613.241	36.25
614.004	37.25
614.767	35.25
615.529	32.25
616.292	31.25
617.055	29.25
617.817	25.25
618.579	29.25
619.342	25.25
620.104	26.25
620.866	25.25
621.628	22.25
622.39	24.25
623.152	22.25
623.914	25.25
624.676	23.25
625.438	21.25
626.199	21.25
626.961	18.25
627.722	19.25
628.484	19.25
629.245	16.25
630.006	18.25
630.768	17.25
631.529	17.25
632.29	16.25
633.051	15.25
633.812	16.25
634.573	16.25
635.333	14.25
636.094	12.25
636.855	13.25
637.615	13.25
638.376	14.25
639.136	13.25
639.896	14.25
640.657	13.25
641.417	11.25
642.177	10.25
642.937	9.25
643.697	11.25
644.457	11.25
645.216	10.25
645.976	10.25
646.736	12.25
647.495	10.25
648.255	10.25
649.014	5.25
649.774	8.25
650.533	8.25
651.292	8.25
652.051	7.25
652.81	8.25
653.569	7.25
654.328	6.25
655.087	7.25
655.846	8.25
656.604	5.25
657.363	7.25
658.121	7.25
658.88	8.25
659.638	6.25
660.397	6.25
661.155	10.25
661.913	7.25
662.671	8.25
663.429	3.25
664.187	6.25
664.945	4.25
665.703	5.25
666.46	8.25
667.218	3.25
667.976	8.25
668.733	7.25
669.49	5.25
670.248	6.25
671.005	5.25
671.762	4.25
672.519	6.25
673.276	7.25
674.033	5.25
674.79	5.25
675.547	5.25
676.304	3.25
677.06	5.25
677.817	3.25
678.574	4.25
679.33	5.25
680.086	4.25
680.843	2.25
681.599	3.25
682.355	3.25
683.111	5.25
683.867	3.25
684.623	3.25
685.379	4.25
686.135	4.25
686.89	5.25
687.646	4.25
688.402	3.25
689.157	4.25
689.912	7.25
690.668	1.25
691.423	3.25
692.178	3.25
692.933	2.25
693.688	5.25
694.443	4.25
695.198	2.25
695.953	2.25
696.708	4.25
697.462	5.25
698.217	2.25
698.972	5.25
699.726	1.25
700.48	3.25
701.235	3.25
701.989	2.25
702.743	5.25
703.497	3.25
704.251	6.25
705.005	3.25
705.759	2.25
706.513	3.25
707.266	6.25
708.02	5.25
708.774	3.25
709.527	5.25
710.28	3.25
711.034	4.25
711.787	4.25
712.54	2.25
713.293	4.25
714.046	6.25
714.799	6.25
715.552	2.25
716.305	3.25
717.058	5.25
717.81	4.25
718.563	7.25
719.315	4.25
720.068	4.25
720.82	3.25
721.573	5.25
722.325	5.25
723.077	3.25
723.829	3.25
724.581	3.25
725.333	4.25
726.085	6.25
726.836	3.25
727.588	5.25
728.34	4.25
729.091	6.25
729.843	6.25
730.594	4.25
731.346	3.25
732.097	6.25
732.848	6.25
733.599	5.25
734.35	6.25
735.101	3.25
735.852	3.25
736.603	7.25
737.354	6.25
738.104	7.25
738.855	8.25
739.605	1.25
740.356	9.25
741.106	7.25
741.856	7.25
742.607	5.25
743.357	5.25
744.107	7.25
744.857	6.25
745.607	6.25
746.357	3.25
747.106	6.25
747.856	6.25
748.606	7.25
749.355	9.25
750.105	4.25
750.854	7.25
751.603	7.25
752.353	6.25
753.102	7.25
753.851	7.25
754.6	7.25
755.349	8.25
756.098	8.25
756.847	9.25
757.595	8.25
758.344	8.25
759.093	6.25
759.841	8.25
760.589	8.25
761.338	10.25
762.086	8.25
762.834	10.25
763.582	8.25
764.331	8.25
765.079	7.25
765.826	9.25
766.574	11.25
767.322	8.25
768.07	7.25
768.817	9.25
769.565	9.25
770.312	10.25
771.06	12.25
771.807	10.25
772.554	10.25
773.302	10.25
774.049	11.25
774.796	11.25
775.543	11.25
776.29	10.25
777.036	11.25
777.783	14.25
778.53	12.25
779.276	12.25
780.023	12.25
780.769	11.25
781.516	12.25
782.262	12.25
783.008	13.25
783.754	11.25
784.5	13.25
785.246	12.25
785.992	12.25
786.738	10.25
787.484	9.25
788.23	11.25
788.975	9.25
789.721	11.25
790.466	11.25
791.212	8.25
791.957	14.25
792.702	13.25
793.447	11.25
794.193	12.25
794.938	9.25
795.683	9.25
796.427	9.25
797.172	13.25
797.917	9.25
798.662	9.25
799.406	9.25
800.151	7.25
800.895	10.25
801.64	10.25
802.384	9.25
803.128	7.25
803.872	9.25
804.616	7.25
805.36	5.25
806.104	6.25
806.848	6.25
807.592	5.25
808.336	7.25
809.079	6.25
809.823	10.25
810.566	6.25
811.31	5.25
812.053	7.25
812.796	3.25
813.539	7.25
814.283	5.25
815.026	6.25
815.769	3.25
816.511	5.25
817.254	5.25
817.997	8.25
818.74	6.25
819.482	3.25
820.225	6.25
820.967	5.25
821.71	3.25
822.452	3.25
823.194	4.25
823.936	4.25
824.678	3.25
825.42	5.25
826.162	5.25
826.904	5.25
827.646	4.25
828.388	3.25
829.129	6.25
829.871	3.25
830.612	2.25
831.354	2.25
832.095	3.25
832.836	6.25
833.577	1.25
834.319	2.25
835.06	5.25
835.801	3.25
836.542	3.25
837.282	3.25
838.023	4.25
838.764	1.25
839.504	4.25
840.245	4.25
840.985	6.25
841.726	4.25
842.466	0.25
843.206	4.25
843.946	4.25
844.687	1.25
845.427	3.25
846.166	2.25
846.906	2.25
847.646	4.25
848.386	2.25
849.125	4.25
849.865	0.25
850.605	3.25
851.344	1.25
852.083	2.25
852.823	1.25
853.562	3.25
854.301	0.25
855.04	0.25
855.779	2.25
856.518	3.25
857.257	0.25
857.995	1.25
858.734	2.25
859.473	2.25
860.211	2.25
860.95	2.25
861.688	4.25
862.426	-0.75
863.165	3.25
863.903	-1.75
864.641	1.25
865.379	1.25
866.117	0.25
866.855	2.25
867.593	2.25
868.33	0.25
869.068	1.25
869.806	1.25
870.543	1.25
871.28	-0.75
872.018	2.25
872.755	0.25
873.492	0.25
874.229	2.25
874.967	1.25
875.703	0.25
876.44	2.25
877.177	3.25
877.914	0.25
878.651	3.25
879.387	1.25
880.124	1.25
880.86	1.25
881.597	0.25
882.333	-0.75
883.069	-1.75
883.806	0.25
884.542	0.25
885.278	0.25
886.014	0.25
886.749	0.25
887.485	1.25
888.221	1.25
888.957	0.25
889.692	0.25
890.428	-2.75
891.163	-1.75
891.899	1.25
892.634	1.25
893.369	0.25
894.104	0.25
894.839	0.25
895.574	-2.75
896.309	2.25
897.044	-2.75
897.779	2.25
898.514	0.25
899.248	1.25
899.983	0.25
900.717	-0.75
901.452	-0.75
902.186	-2.75
902.92	-0.75
903.654	-0.75
904.389	-0.75
905.123	-3.75
905.857	0.25
906.59	0.25
907.324	-1.75
908.058	1.25
908.792	-1.75
909.525	-1.75
910.259	1.25
910.992	-1.75
911.726	0.25
912.459	1.25
913.192	-0.75
913.925	-1.75
914.658	-0.75
915.391	1.25
916.124	0.25
916.857	0.25
917.59	-0.75
918.323	-2.75
919.055	-1.75
919.788	-1.75
920.521	0.25
921.253	-0.75
921.985	-0.75
922.718	0.25
923.45	-0.75
924.182	-1.75
924.914	1.25
925.646	-0.75
926.378	0.25
927.11	-0.75
927.841	-0.75
928.573	-1.75
929.305	-0.75
930.036	-0.75
930.768	-1.75
931.499	-1.75
932.23	-1.75
932.962	0.25
933.693	-0.75
934.424	0.25
935.155	1.25
935.886	-0.75
936.617	1.25
937.348	0.25
938.078	-2.75
938.809	0.25
939.54	-0.75
940.27	0.25
941.001	0.25
941.731	1.25
942.461	-2.75
943.191	1.25
943.922	-1.75
944.652	-0.75
945.382	0.25
946.112	1.25
946.841	1.25
947.571	1.25
948.301	0.25
949.031	1.25
949.76	-0.75
950.49	1.25
951.219	-0.75
951.948	3.25
952.678	1.25
953.407	-0.75
954.136	0.25
954.865	-2.75
955.594	-1.75
956.323	-0.75
957.052	-1.75
957.78	-0.75
958.509	-0.75
959.238	-1.75
959.966	-2.75
960.695	-1.75
961.423	-1.75
962.151	-1.75
962.88	-0.75
963.608	-2.75
964.336	0.25
965.064	-1.75
965.792	0.25
966.52	-1.75
967.247	0.25
967.975	-2.75
968.703	-1.75
969.43	0.25
970.158	0.25
970.885	1.25
971.613	-0.75
972.34	-0.75
973.067	-1.75
973.794	0.25
974.521	0.25
975.248	-1.75
975.975	0.25
976.702	-1.75
977.429	-1.75
978.156	-2.75
978.882	-0.75
979.609	-0.75
980.335	0.25
981.062	-0.75
981.788	-2.75
982.514	-2.75
983.24	-0.75
983.967	-0.75
984.693	-0.75
985.419	0.25
986.144	-0.75
986.87	-0.75
987.596	-0.75
988.322	0.25
989.047	-2.75
989.773	-0.75
990.498	0.25
991.224	-1.75
991.949	-1.75
992.674	-0.75
993.399	-2.75
994.124	0.25
994.849	-1.75
995.574	0.25
996.299	-1.75
997.024	1.25
997.749	0.25
998.473	-1.75
999.198	-0.75
999.922	-4.75
1000.647	0.25
1001.371	4.25
1002.095	-0.75
1002.82	-0.75
1003.544	-1.75
1004.268	1.25
1004.992	0.25
1005.716	1.25
1006.439	1.25
1007.163	1.25
1007.887	1.25
1008.611	0.25
1009.334	-2.75
1010.058	-1.75
1010.781	0.25
1011.504	-1.75
1012.228	-1.75
1012.951	-1.75
1013.674	1.25
1014.397	1.25
1015.12	-1.75
