节点500_425_QEPB04081__178__15-51-16-157.txt的数据

Date: Wed Nov 12 15:51:16 CST 2025
User: PC
Spectrometer: QEPB0408
触发模式: 0
积分时间 (秒): 1.000000E-2
Scans to average: 1
启用暗噪声校正: true
启用非线性校正: false
滑动平均宽度: 0
X轴模式: Wavelengths
Number of Pixels in Spectrum: 1044
>>>>>Begin Spectral Data<<<<<
220.843	1.12
221.644	5.12
222.444	3.12
223.244	2.12
224.045	4.12
224.845	5.12
225.645	5.12
226.445	2.12
227.245	4.12
228.045	3.12
228.845	2.12
229.645	5.12
230.444	7.12
231.244	4.12
232.043	4.12
232.843	5.12
233.642	6.12
234.442	4.12
235.241	5.12
236.04	6.12
236.839	6.12
237.638	7.12
238.437	4.12
239.236	6.12
240.035	6.12
240.833	9.12
241.632	6.12
242.43	9.12
243.229	7.12
244.027	7.12
244.826	9.12
245.624	9.12
246.422	9.12
247.22	10.12
248.018	8.12
248.816	11.12
249.614	9.12
250.412	9.12
251.21	10.12
252.007	11.12
252.805	10.12
253.602	12.12
254.4	12.12
255.197	12.12
255.994	11.12
256.791	13.12
257.589	10.12
258.386	13.12
259.183	14.12
259.979	14.12
260.776	17.12
261.573	13.12
262.37	15.12
263.166	15.12
263.963	18.12
264.759	17.12
265.556	15.12
266.352	20.12
267.148	18.12
267.944	20.12
268.74	20.12
269.536	19.12
270.332	22.12
271.128	19.12
271.924	20.12
272.719	22.12
273.515	24.12
274.311	21.12
275.106	22.12
275.901	23.12
276.697	26.12
277.492	23.12
278.287	24.12
279.082	22.12
279.877	26.12
280.672	24.12
281.467	25.12
282.262	25.12
283.056	24.12
283.851	26.12
284.646	26.12
285.44	23.12
286.234	25.12
287.029	24.12
287.823	23.12
288.617	24.12
289.411	23.12
290.205	26.12
290.999	25.12
291.793	23.12
292.587	25.12
293.381	23.12
294.174	20.12
294.968	23.12
295.761	22.12
296.555	20.12
297.348	20.12
298.141	19.12
298.935	21.12
299.728	18.12
300.521	18.12
301.314	18.12
302.107	17.12
302.899	15.12
303.692	16.12
304.485	15.12
305.277	13.12
306.07	20.12
306.862	16.12
307.655	15.12
308.447	17.12
309.239	18.12
310.031	17.12
310.823	15.12
311.615	14.12
312.407	11.12
313.199	15.12
313.991	10.12
314.783	10.12
315.574	11.12
316.366	13.12
317.157	11.12
317.949	12.12
318.74	11.12
319.531	8.12
320.322	9.12
321.113	8.12
321.904	9.12
322.695	8.12
323.486	10.12
324.277	8.12
325.068	11.12
325.858	8.12
326.649	11.12
327.439	8.12
328.23	8.12
329.02	8.12
329.81	8.12
330.6	8.12
331.391	9.12
332.181	8.12
332.971	10.12
333.76	6.12
334.55	10.12
335.34	7.12
336.13	8.12
336.919	10.12
337.709	8.12
338.498	7.12
339.287	9.12
340.077	9.12
340.866	8.12
341.655	10.12
342.444	10.12
343.233	6.12
344.022	8.12
344.811	7.12
345.6	7.12
346.388	9.12
347.177	6.12
347.965	6.12
348.754	8.12
349.542	8.12
350.33	7.12
351.119	8.12
351.907	10.12
352.695	6.12
353.483	7.12
354.271	4.12
355.059	10.12
355.846	10.12
356.634	9.12
357.422	7.12
358.209	7.12
358.997	8.12
359.784	4.12
360.571	7.12
361.359	8.12
362.146	8.12
362.933	4.12
363.72	5.12
364.507	7.12
365.294	6.12
366.081	5.12
366.867	7.12
367.654	8.12
368.44	6.12
369.227	5.12
370.013	7.12
370.8	7.12
371.586	7.12
372.372	5.12
373.158	6.12
373.944	7.12
374.73	9.12
375.516	7.12
376.302	8.12
377.088	7.12
377.873	6.12
378.659	5.12
379.445	7.12
380.23	6.12
381.015	4.12
381.801	5.12
382.586	6.12
383.371	7.12
384.156	7.12
384.941	8.12
385.726	6.12
386.511	8.12
387.296	7.12
388.08	6.12
388.865	9.12
389.649	10.12
390.434	10.12
391.218	9.12
392.003	4.12
392.787	9.12
393.571	10.12
394.355	10.12
395.139	9.12
395.923	8.12
396.707	6.12
397.491	9.12
398.274	8.12
399.058	9.12
399.842	7.12
400.625	11.12
401.408	12.12
402.192	11.12
402.975	10.12
403.758	9.12
404.541	9.12
405.324	9.12
406.107	9.12
406.89	10.12
407.673	14.12
408.456	11.12
409.238	9.12
410.021	12.12
410.803	12.12
411.586	10.12
412.368	10.12
413.151	14.12
413.933	13.12
414.715	11.12
415.497	14.12
416.279	15.12
417.061	13.12
417.843	14.12
418.624	12.12
419.406	15.12
420.188	14.12
420.969	14.12
421.751	14.12
422.532	16.12
423.313	16.12
424.095	15.12
424.876	15.12
425.657	16.12
426.438	16.12
427.219	18.12
428	18.12
428.78	17.12
429.561	19.12
430.342	21.12
431.122	18.12
431.903	20.12
432.683	22.12
433.464	20.12
434.244	24.12
435.024	23.12
435.804	24.12
436.584	25.12
437.364	26.12
438.144	27.12
438.924	29.12
439.704	32.12
440.483	32.12
441.263	36.12
442.042	39.12
442.822	42.12
443.601	40.12
444.38	46.12
445.16	48.12
445.939	55.12
446.718	56.12
447.497	60.12
448.276	65.12
449.054	72.12
449.833	75.12
450.612	82.12
451.391	89.12
452.169	97.12
452.948	109.12
453.726	122.12
454.504	132.12
455.282	146.12
456.061	161.12
456.839	181.12
457.617	202.12
458.395	223.12
459.172	246.12
459.95	279.12
460.728	307.12
461.506	344.12
462.283	383.12
463.061	429.12
463.838	481.12
464.615	546.12
465.393	607.12
466.17	678.12
466.947	760.12
467.724	832.12
468.501	925.12
469.278	1036.12
470.055	1152.12
470.831	1275.12
471.608	1417.12
472.385	1575.12
473.161	1740.12
473.938	1936.12
474.714	2144.12
475.49	2366.12
476.266	2612.12
477.043	2907.12
477.819	3199.12
478.595	3534.12
479.371	3898.12
480.146	4278.12
480.922	4705.12
481.698	5161.12
482.473	5679.12
483.249	6233.12
484.024	6856.12
484.8	7551.12
485.575	8262.12
486.35	8991.12
487.126	9862.12
487.901	10758.12
488.676	11796.12
489.451	12819.12
490.225	13931.12
491	15147.12
491.775	16447.12
492.55	17767.12
493.324	19149.12
494.099	20491.12
494.873	21887.12
495.647	23368.12
496.422	24902.12
497.196	26454.12
497.97	27996.12
498.744	29362.12
499.518	30795.12
500.292	32001.12
501.066	33098.12
501.839	34200.12
502.613	35126.12
503.387	35753.12
504.16	36241.12
504.934	36385.12
505.707	36364.12
506.48	36184.12
507.253	35704.12
508.027	35287.12
508.8	34636.12
509.573	33746.12
510.346	32806.12
511.118	31801.12
511.891	30665.12
512.664	29551.12
513.437	28361.12
514.209	27157.12
514.982	26117.12
515.754	24972.12
516.526	23869.12
517.298	22964.12
518.071	21910.12
518.843	21014.12
519.615	20102.12
520.387	19324.12
521.159	18588.12
521.93	17911.12
522.702	17146.12
523.474	16536.12
524.245	15809.12
525.017	15118.12
525.788	14459.12
526.56	13740.12
527.331	13100.12
528.102	12508.12
528.873	11873.12
529.644	11289.12
530.415	10772.12
531.186	10254.12
531.957	9701.12
532.728	9177.12
533.498	8665.12
534.269	8160.12
535.039	7719.12
535.81	7327.12
536.58	6902.12
537.351	6448.12
538.121	6122.12
538.891	5811.12
539.661	5491.12
540.431	5233.12
541.201	4945.12
541.971	4700.12
542.741	4437.12
543.51	4243.12
544.28	4020.12
545.05	3832.12
545.819	3657.12
546.588	3474.12
547.358	3284.12
548.127	3100.12
548.896	2952.12
549.665	2801.12
550.434	2654.12
551.203	2524.12
551.972	2381.12
552.741	2251.12
553.51	2125.12
554.278	2005.12
555.047	1889.12
555.815	1781.12
556.584	1677.12
557.352	1595.12
558.121	1496.12
558.889	1412.12
559.657	1325.12
560.425	1269.12
561.193	1191.12
561.961	1124.12
562.729	1063.12
563.496	1010.12
564.264	949.12
565.032	896.12
565.799	858.12
566.567	807.12
567.334	768.12
568.101	722.12
568.869	694.12
569.636	639.12
570.403	604.12
571.17	576.12
571.937	537.12
572.704	512.12
573.471	487.12
574.237	457.12
575.004	425.12
575.771	400.12
576.537	379.12
577.303	353.12
578.07	336.12
578.836	316.12
579.602	305.12
580.368	282.12
581.134	271.12
581.9	254.12
582.666	242.12
583.432	224.12
584.198	217.12
584.964	205.12
585.729	194.12
586.495	188.12
587.26	177.12
588.025	163.12
588.791	162.12
589.556	151.12
590.321	139.12
591.086	136.12
591.851	123.12
592.616	125.12
593.381	117.12
594.146	108.12
594.911	105.12
595.675	103.12
596.44	97.12
597.204	94.12
597.969	88.12
598.733	82.12
599.497	85.12
600.261	80.12
601.025	74.12
601.79	71.12
602.553	66.12
603.317	66.12
604.081	65.12
604.845	55.12
605.609	55.12
606.372	55.12
607.136	53.12
607.899	53.12
608.662	46.12
609.426	47.12
610.189	43.12
610.952	44.12
611.715	39.12
612.478	40.12
613.241	39.12
614.004	37.12
614.767	36.12
615.529	34.12
616.292	32.12
617.055	34.12
617.817	31.12
618.579	30.12
619.342	30.12
620.104	28.12
620.866	28.12
621.628	25.12
622.39	25.12
623.152	28.12
623.914	24.12
624.676	24.12
625.438	25.12
626.199	22.12
626.961	21.12
627.722	23.12
628.484	20.12
629.245	22.12
630.006	17.12
630.768	17.12
631.529	19.12
632.29	17.12
633.051	17.12
633.812	16.12
634.573	15.12
635.333	14.12
636.094	17.12
636.855	16.12
637.615	13.12
638.376	14.12
639.136	15.12
639.896	14.12
640.657	13.12
641.417	14.12
642.177	10.12
642.937	14.12
643.697	12.12
644.457	8.12
645.216	12.12
645.976	10.12
646.736	11.12
647.495	9.12
648.255	9.12
649.014	10.12
649.774	11.12
650.533	11.12
651.292	8.12
652.051	12.12
652.81	8.12
653.569	9.12
654.328	8.12
655.087	7.12
655.846	10.12
656.604	9.12
657.363	9.12
658.121	9.12
658.88	8.12
659.638	9.12
660.397	10.12
661.155	9.12
661.913	9.12
662.671	10.12
663.429	7.12
664.187	8.12
664.945	6.12
665.703	7.12
666.46	7.12
667.218	7.12
667.976	3.12
668.733	7.12
669.49	7.12
670.248	7.12
671.005	7.12
671.762	5.12
672.519	5.12
673.276	8.12
674.033	6.12
674.79	5.12
675.547	4.12
676.304	7.12
677.06	6.12
677.817	4.12
678.574	4.12
679.33	7.12
680.086	6.12
680.843	9.12
681.599	4.12
682.355	2.12
683.111	4.12
683.867	4.12
684.623	5.12
685.379	4.12
686.135	6.12
686.89	5.12
687.646	4.12
688.402	4.12
689.157	4.12
689.912	5.12
690.668	6.12
691.423	6.12
692.178	2.12
692.933	6.12
693.688	6.12
694.443	5.12
695.198	6.12
695.953	5.12
696.708	3.12
697.462	6.12
698.217	4.12
698.972	5.12
699.726	4.12
700.48	6.12
701.235	6.12
701.989	6.12
702.743	5.12
703.497	5.12
704.251	3.12
705.005	5.12
705.759	4.12
706.513	2.12
707.266	3.12
708.02	5.12
708.774	4.12
709.527	3.12
710.28	7.12
711.034	5.12
711.787	3.12
712.54	5.12
713.293	4.12
714.046	4.12
714.799	5.12
715.552	5.12
716.305	5.12
717.058	7.12
717.81	6.12
718.563	7.12
719.315	7.12
720.068	3.12
720.82	6.12
721.573	8.12
722.325	4.12
723.077	8.12
723.829	3.12
724.581	6.12
725.333	5.12
726.085	7.12
726.836	4.12
727.588	6.12
728.34	9.12
729.091	5.12
729.843	6.12
730.594	3.12
731.346	5.12
732.097	5.12
732.848	3.12
733.599	6.12
734.35	5.12
735.101	4.12
735.852	6.12
736.603	5.12
737.354	7.12
738.104	5.12
738.855	5.12
739.605	6.12
740.356	7.12
741.106	6.12
741.856	6.12
742.607	5.12
743.357	6.12
744.107	7.12
744.857	5.12
745.607	6.12
746.357	7.12
747.106	6.12
747.856	7.12
748.606	6.12
749.355	8.12
750.105	7.12
750.854	7.12
751.603	6.12
752.353	9.12
753.102	6.12
753.851	8.12
754.6	8.12
755.349	7.12
756.098	7.12
756.847	10.12
757.595	8.12
758.344	9.12
759.093	8.12
759.841	8.12
760.589	10.12
761.338	8.12
762.086	8.12
762.834	10.12
763.582	8.12
764.331	10.12
765.079	10.12
765.826	8.12
766.574	6.12
767.322	11.12
768.07	10.12
768.817	9.12
769.565	11.12
770.312	9.12
771.06	10.12
771.807	10.12
772.554	10.12
773.302	10.12
774.049	9.12
774.796	10.12
775.543	11.12
776.29	10.12
777.036	11.12
777.783	10.12
778.53	12.12
779.276	12.12
780.023	13.12
780.769	14.12
781.516	10.12
782.262	10.12
783.008	11.12
783.754	11.12
784.5	14.12
785.246	14.12
785.992	12.12
786.738	12.12
787.484	11.12
788.23	10.12
788.975	12.12
789.721	12.12
790.466	11.12
791.212	11.12
791.957	11.12
792.702	12.12
793.447	11.12
794.193	10.12
794.938	10.12
795.683	9.12
796.427	10.12
797.172	11.12
797.917	13.12
798.662	10.12
799.406	9.12
800.151	9.12
800.895	10.12
801.64	10.12
802.384	10.12
803.128	11.12
803.872	9.12
804.616	9.12
805.36	7.12
806.104	8.12
806.848	10.12
807.592	6.12
808.336	10.12
809.079	9.12
809.823	7.12
810.566	9.12
811.31	7.12
812.053	5.12
812.796	8.12
813.539	7.12
814.283	5.12
815.026	5.12
815.769	3.12
816.511	6.12
817.254	7.12
817.997	7.12
818.74	5.12
819.482	4.12
820.225	6.12
820.967	8.12
821.71	6.12
822.452	3.12
823.194	3.12
823.936	3.12
824.678	7.12
825.42	5.12
826.162	7.12
826.904	2.12
827.646	5.12
828.388	6.12
829.129	5.12
829.871	6.12
830.612	4.12
831.354	3.12
832.095	5.12
832.836	3.12
833.577	6.12
834.319	7.12
835.06	4.12
835.801	3.12
836.542	3.12
837.282	5.12
838.023	3.12
838.764	3.12
839.504	4.12
840.245	5.12
840.985	4.12
841.726	2.12
842.466	5.12
843.206	5.12
843.946	4.12
844.687	1.12
845.427	3.12
846.166	5.12
846.906	2.12
847.646	4.12
848.386	4.12
849.125	4.12
849.865	4.12
850.605	4.12
851.344	4.12
852.083	2.12
852.823	6.12
853.562	4.12
854.301	3.12
855.04	2.12
855.779	2.12
856.518	3.12
857.257	2.12
857.995	2.12
858.734	3.12
859.473	4.12
860.211	3.12
860.95	2.12
861.688	2.12
862.426	2.12
863.165	2.12
863.903	3.12
864.641	3.12
865.379	5.12
866.117	3.12
866.855	4.12
867.593	2.12
868.33	2.12
869.068	4.12
869.806	1.12
870.543	2.12
871.28	4.12
872.018	0.12
872.755	-0.88
873.492	2.12
874.229	1.12
874.967	1.12
875.703	1.12
876.44	2.12
877.177	-0.88
877.914	1.12
878.651	3.12
879.387	1.12
880.124	1.12
880.86	1.12
881.597	2.12
882.333	-1.88
883.069	0.12
883.806	-0.88
884.542	1.12
885.278	2.12
886.014	0.12
886.749	3.12
887.485	1.12
888.221	1.12
888.957	3.12
889.692	2.12
890.428	0.12
891.163	0.12
891.899	1.12
892.634	1.12
893.369	0.12
894.104	0.12
894.839	-0.88
895.574	2.12
896.309	2.12
897.044	0.12
897.779	1.12
898.514	0.12
899.248	0.12
899.983	1.12
900.717	0.12
901.452	1.12
902.186	1.12
902.92	2.12
903.654	1.12
904.389	0.12
905.123	-0.88
905.857	3.12
906.59	0.12
907.324	1.12
908.058	1.12
908.792	1.12
909.525	0.12
910.259	0.12
910.992	0.12
911.726	-1.88
912.459	0.12
913.192	1.12
913.925	0.12
914.658	0.12
915.391	0.12
916.124	1.12
916.857	1.12
917.59	0.12
918.323	0.12
919.055	0.12
919.788	2.12
920.521	-1.88
921.253	-0.88
921.985	0.12
922.718	0.12
923.45	2.12
924.182	0.12
924.914	1.12
925.646	-0.88
926.378	2.12
927.11	-0.88
927.841	1.12
928.573	1.12
929.305	0.12
930.036	-1.88
930.768	-1.88
931.499	-0.88
932.23	-0.88
932.962	1.12
933.693	1.12
934.424	-0.88
935.155	-0.88
935.886	-0.88
936.617	-0.88
937.348	0.12
938.078	-1.88
938.809	0.12
939.54	2.12
940.27	-0.88
941.001	1.12
941.731	-1.88
942.461	0.12
943.191	1.12
943.922	-1.88
944.652	-1.88
945.382	-1.88
946.112	0.12
946.841	1.12
947.571	1.12
948.301	1.12
949.031	0.12
949.76	1.12
950.49	0.12
951.219	0.12
951.948	-1.88
952.678	-0.88
953.407	0.12
954.136	-1.88
954.865	3.12
955.594	1.12
956.323	-0.88
957.052	-0.88
957.78	0.12
958.509	0.12
959.238	0.12
959.966	0.12
960.695	-0.88
961.423	0.12
962.151	1.12
962.88	-0.88
963.608	1.12
964.336	-0.88
965.064	0.12
965.792	1.12
966.52	-0.88
967.247	1.12
967.975	1.12
968.703	1.12
969.43	0.12
970.158	0.12
970.885	1.12
971.613	-1.88
972.34	-1.88
973.067	1.12
973.794	0.12
974.521	1.12
975.248	-0.88
975.975	1.12
976.702	0.12
977.429	-0.88
978.156	0.12
978.882	0.12
979.609	-0.88
980.335	-1.88
981.062	1.12
981.788	0.12
982.514	0.12
983.24	0.12
983.967	-0.88
984.693	-0.88
985.419	0.12
986.144	0.12
986.87	-1.88
987.596	-0.88
988.322	1.12
989.047	0.12
989.773	2.12
990.498	-1.88
991.224	-0.88
991.949	0.12
992.674	0.12
993.399	0.12
994.124	-1.88
994.849	1.12
995.574	-0.88
996.299	-0.88
997.024	0.12
997.749	1.12
998.473	-1.88
999.198	0.12
999.922	1.12
1000.647	-0.88
1001.371	4.12
1002.095	1.12
1002.82	0.12
1003.544	-2.88
1004.268	2.12
1004.992	2.12
1005.716	1.12
1006.439	2.12
1007.163	0.12
1007.887	2.12
1008.611	-1.88
1009.334	-0.88
1010.058	1.12
1010.781	0.12
1011.504	-0.88
1012.228	0.12
1012.951	-0.88
1013.674	0.12
1014.397	0.12
1015.12	-1.88
