节点500_425_QEPB04081__399__15-54-56-717.txt的数据

Date: Wed Nov 12 15:54:56 CST 2025
User: PC
Spectrometer: QEPB0408
触发模式: 0
积分时间 (秒): 1.000000E-2
Scans to average: 1
启用暗噪声校正: true
启用非线性校正: false
滑动平均宽度: 0
X轴模式: Wavelengths
Number of Pixels in Spectrum: 1044
>>>>>Begin Spectral Data<<<<<
220.843	1.25
221.644	4.25
222.444	3.25
223.244	3.25
224.045	4.25
224.845	5.25
225.645	4.25
226.445	3.25
227.245	3.25
228.045	3.25
228.845	5.25
229.645	3.25
230.444	4.25
231.244	3.25
232.043	5.25
232.843	6.25
233.642	5.25
234.442	5.25
235.241	6.25
236.04	6.25
236.839	7.25
237.638	4.25
238.437	7.25
239.236	5.25
240.035	6.25
240.833	8.25
241.632	5.25
242.43	8.25
243.229	7.25
244.027	4.25
244.826	7.25
245.624	6.25
246.422	9.25
247.22	6.25
248.018	10.25
248.816	10.25
249.614	5.25
250.412	8.25
251.21	9.25
252.007	10.25
252.805	12.25
253.602	9.25
254.4	8.25
255.197	11.25
255.994	12.25
256.791	12.25
257.589	13.25
258.386	11.25
259.183	14.25
259.979	14.25
260.776	14.25
261.573	16.25
262.37	13.25
263.166	14.25
263.963	16.25
264.759	15.25
265.556	17.25
266.352	14.25
267.148	19.25
267.944	14.25
268.74	17.25
269.536	19.25
270.332	18.25
271.128	18.25
271.924	21.25
272.719	21.25
273.515	23.25
274.311	19.25
275.106	20.25
275.901	24.25
276.697	23.25
277.492	20.25
278.287	23.25
279.082	24.25
279.877	20.25
280.672	26.25
281.467	20.25
282.262	25.25
283.056	27.25
283.851	25.25
284.646	24.25
285.44	25.25
286.234	25.25
287.029	19.25
287.823	24.25
288.617	24.25
289.411	21.25
290.205	22.25
290.999	19.25
291.793	24.25
292.587	23.25
293.381	24.25
294.174	21.25
294.968	19.25
295.761	21.25
296.555	21.25
297.348	20.25
298.141	21.25
298.935	21.25
299.728	19.25
300.521	18.25
301.314	18.25
302.107	18.25
302.899	16.25
303.692	18.25
304.485	14.25
305.277	17.25
306.07	14.25
306.862	16.25
307.655	16.25
308.447	14.25
309.239	15.25
310.031	12.25
310.823	14.25
311.615	13.25
312.407	15.25
313.199	13.25
313.991	12.25
314.783	11.25
315.574	12.25
316.366	10.25
317.157	12.25
317.949	12.25
318.74	11.25
319.531	6.25
320.322	9.25
321.113	11.25
321.904	10.25
322.695	9.25
323.486	8.25
324.277	10.25
325.068	7.25
325.858	8.25
326.649	8.25
327.439	8.25
328.23	6.25
329.02	8.25
329.81	8.25
330.6	9.25
331.391	8.25
332.181	9.25
332.971	9.25
333.76	7.25
334.55	8.25
335.34	6.25
336.13	8.25
336.919	11.25
337.709	7.25
338.498	8.25
339.287	9.25
340.077	9.25
340.866	7.25
341.655	8.25
342.444	6.25
343.233	7.25
344.022	6.25
344.811	8.25
345.6	5.25
346.388	7.25
347.177	8.25
347.965	8.25
348.754	8.25
349.542	7.25
350.33	7.25
351.119	9.25
351.907	7.25
352.695	9.25
353.483	9.25
354.271	7.25
355.059	6.25
355.846	7.25
356.634	6.25
357.422	8.25
358.209	8.25
358.997	8.25
359.784	6.25
360.571	9.25
361.359	5.25
362.146	8.25
362.933	6.25
363.72	9.25
364.507	6.25
365.294	7.25
366.081	7.25
366.867	9.25
367.654	9.25
368.44	5.25
369.227	3.25
370.013	6.25
370.8	6.25
371.586	7.25
372.372	7.25
373.158	7.25
373.944	7.25
374.73	6.25
375.516	8.25
376.302	5.25
377.088	6.25
377.873	8.25
378.659	7.25
379.445	6.25
380.23	6.25
381.015	10.25
381.801	7.25
382.586	6.25
383.371	6.25
384.156	7.25
384.941	7.25
385.726	6.25
386.511	9.25
387.296	7.25
388.08	6.25
388.865	8.25
389.649	6.25
390.434	6.25
391.218	8.25
392.003	5.25
392.787	9.25
393.571	7.25
394.355	9.25
395.139	9.25
395.923	9.25
396.707	7.25
397.491	10.25
398.274	9.25
399.058	7.25
399.842	11.25
400.625	9.25
401.408	8.25
402.192	9.25
402.975	8.25
403.758	10.25
404.541	9.25
405.324	10.25
406.107	9.25
406.89	8.25
407.673	10.25
408.456	9.25
409.238	10.25
410.021	12.25
410.803	11.25
411.586	13.25
412.368	12.25
413.151	12.25
413.933	14.25
414.715	12.25
415.497	13.25
416.279	12.25
417.061	14.25
417.843	11.25
418.624	9.25
419.406	12.25
420.188	12.25
420.969	13.25
421.751	16.25
422.532	15.25
423.313	16.25
424.095	15.25
424.876	16.25
425.657	16.25
426.438	16.25
427.219	18.25
428	18.25
428.78	19.25
429.561	18.25
430.342	19.25
431.122	17.25
431.903	19.25
432.683	22.25
433.464	20.25
434.244	21.25
435.024	24.25
435.804	26.25
436.584	28.25
437.364	25.25
438.144	27.25
438.924	27.25
439.704	34.25
440.483	33.25
441.263	32.25
442.042	41.25
442.822	41.25
443.601	45.25
444.38	41.25
445.16	48.25
445.939	50.25
446.718	59.25
447.497	61.25
448.276	68.25
449.054	77.25
449.833	79.25
450.612	87.25
451.391	93.25
452.169	104.25
452.948	121.25
453.726	124.25
454.504	144.25
455.282	156.25
456.061	174.25
456.839	189.25
457.617	209.25
458.395	234.25
459.172	271.25
459.95	294.25
460.728	335.25
461.506	372.25
462.283	403.25
463.061	459.25
463.838	518.25
464.615	563.25
465.393	627.25
466.17	695.25
466.947	789.25
467.724	865.25
468.501	964.25
469.278	1067.25
470.055	1176.25
470.831	1321.25
471.608	1438.25
472.385	1613.25
473.161	1777.25
473.938	1953.25
474.714	2158.25
475.49	2370.25
476.266	2603.25
477.043	2868.25
477.819	3150.25
478.595	3460.25
479.371	3801.25
480.146	4166.25
480.922	4533.25
481.698	4975.25
482.473	5442.25
483.249	5940.25
484.024	6496.25
484.8	7144.25
485.575	7753.25
486.35	8408.25
487.126	9181.25
487.901	9960.25
488.676	10825.25
489.451	11766.25
490.225	12740.25
491	13789.25
491.775	14930.25
492.55	16031.25
493.324	17336.25
494.099	18532.25
494.873	19794.25
495.647	21085.25
496.422	22421.25
497.196	23799.25
497.97	25226.25
498.744	26640.25
499.518	27919.25
500.292	29112.25
501.066	30228.25
501.839	31282.25
502.613	32218.25
503.387	32957.25
504.16	33660.25
504.934	34078.25
505.707	34199.25
506.48	34177.25
507.253	34007.25
508.027	33837.25
508.8	33350.25
509.573	32765.25
510.346	32016.25
511.118	31166.25
511.891	30323.25
512.664	29264.25
513.437	28165.25
514.209	27075.25
514.982	26192.25
515.754	25170.25
516.526	24098.25
517.298	23112.25
518.071	22082.25
518.843	21244.25
519.615	20386.25
520.387	19513.25
521.159	18798.25
521.93	18083.25
522.702	17338.25
523.474	16694.25
524.245	15990.25
525.017	15288.25
525.788	14594.25
526.56	13963.25
527.331	13360.25
528.102	12744.25
528.873	12166.25
529.644	11592.25
530.415	11058.25
531.186	10554.25
531.957	10006.25
532.728	9491.25
533.498	8950.25
534.269	8474.25
535.039	8073.25
535.81	7581.25
536.58	7172.25
537.351	6770.25
538.121	6385.25
538.891	6024.25
539.661	5766.25
540.431	5453.25
541.201	5164.25
541.971	4877.25
542.741	4648.25
543.51	4424.25
544.28	4178.25
545.05	3981.25
545.819	3807.25
546.588	3605.25
547.358	3418.25
548.127	3228.25
548.896	3086.25
549.665	2915.25
550.434	2775.25
551.203	2651.25
551.972	2496.25
552.741	2362.25
553.51	2255.25
554.278	2116.25
555.047	1993.25
555.815	1889.25
556.584	1785.25
557.352	1668.25
558.121	1594.25
558.889	1506.25
559.657	1415.25
560.425	1326.25
561.193	1262.25
561.961	1199.25
562.729	1126.25
563.496	1074.25
564.264	999.25
565.032	958.25
565.799	899.25
566.567	848.25
567.334	794.25
568.101	761.25
568.869	713.25
569.636	689.25
570.403	631.25
571.17	590.25
571.937	568.25
572.704	533.25
573.471	507.25
574.237	476.25
575.004	459.25
575.771	424.25
576.537	393.25
577.303	377.25
578.07	358.25
578.836	331.25
579.602	319.25
580.368	299.25
581.134	278.25
581.9	267.25
582.666	254.25
583.432	239.25
584.198	238.25
584.964	218.25
585.729	206.25
586.495	194.25
587.26	185.25
588.025	176.25
588.791	167.25
589.556	161.25
590.321	146.25
591.086	141.25
591.851	139.25
592.616	128.25
593.381	123.25
594.146	118.25
594.911	107.25
595.675	110.25
596.44	105.25
597.204	98.25
597.969	88.25
598.733	90.25
599.497	89.25
600.261	80.25
601.025	77.25
601.79	74.25
602.553	72.25
603.317	65.25
604.081	65.25
604.845	64.25
605.609	60.25
606.372	59.25
607.136	53.25
607.899	51.25
608.662	47.25
609.426	49.25
610.189	49.25
610.952	43.25
611.715	46.25
612.478	41.25
613.241	37.25
614.004	39.25
614.767	40.25
615.529	36.25
616.292	33.25
617.055	34.25
617.817	32.25
618.579	32.25
619.342	30.25
620.104	28.25
620.866	30.25
621.628	30.25
622.39	27.25
623.152	24.25
623.914	24.25
624.676	25.25
625.438	21.25
626.199	22.25
626.961	22.25
627.722	20.25
628.484	21.25
629.245	20.25
630.006	18.25
630.768	20.25
631.529	19.25
632.29	16.25
633.051	16.25
633.812	16.25
634.573	16.25
635.333	16.25
636.094	15.25
636.855	14.25
637.615	16.25
638.376	13.25
639.136	12.25
639.896	12.25
640.657	13.25
641.417	14.25
642.177	10.25
642.937	11.25
643.697	13.25
644.457	12.25
645.216	11.25
645.976	12.25
646.736	12.25
647.495	10.25
648.255	11.25
649.014	11.25
649.774	11.25
650.533	9.25
651.292	7.25
652.051	7.25
652.81	9.25
653.569	9.25
654.328	11.25
655.087	8.25
655.846	8.25
656.604	9.25
657.363	8.25
658.121	9.25
658.88	7.25
659.638	7.25
660.397	9.25
661.155	8.25
661.913	5.25
662.671	7.25
663.429	7.25
664.187	7.25
664.945	6.25
665.703	7.25
666.46	6.25
667.218	5.25
667.976	8.25
668.733	5.25
669.49	6.25
670.248	8.25
671.005	7.25
671.762	4.25
672.519	5.25
673.276	6.25
674.033	6.25
674.79	4.25
675.547	4.25
676.304	7.25
677.06	3.25
677.817	4.25
678.574	5.25
679.33	6.25
680.086	6.25
680.843	7.25
681.599	3.25
682.355	6.25
683.111	5.25
683.867	4.25
684.623	3.25
685.379	5.25
686.135	7.25
686.89	5.25
687.646	4.25
688.402	6.25
689.157	4.25
689.912	8.25
690.668	7.25
691.423	5.25
692.178	5.25
692.933	2.25
693.688	3.25
694.443	3.25
695.198	4.25
695.953	3.25
696.708	4.25
697.462	5.25
698.217	6.25
698.972	5.25
699.726	3.25
700.48	7.25
701.235	4.25
701.989	6.25
702.743	6.25
703.497	3.25
704.251	5.25
705.005	4.25
705.759	6.25
706.513	2.25
707.266	4.25
708.02	4.25
708.774	4.25
709.527	4.25
710.28	6.25
711.034	3.25
711.787	3.25
712.54	4.25
713.293	5.25
714.046	4.25
714.799	3.25
715.552	8.25
716.305	3.25
717.058	8.25
717.81	3.25
718.563	6.25
719.315	8.25
720.068	3.25
720.82	9.25
721.573	6.25
722.325	4.25
723.077	3.25
723.829	3.25
724.581	5.25
725.333	5.25
726.085	3.25
726.836	6.25
727.588	5.25
728.34	7.25
729.091	7.25
729.843	8.25
730.594	2.25
731.346	7.25
732.097	3.25
732.848	6.25
733.599	5.25
734.35	6.25
735.101	7.25
735.852	4.25
736.603	5.25
737.354	8.25
738.104	5.25
738.855	8.25
739.605	5.25
740.356	5.25
741.106	5.25
741.856	5.25
742.607	6.25
743.357	5.25
744.107	5.25
744.857	5.25
745.607	4.25
746.357	6.25
747.106	7.25
747.856	7.25
748.606	6.25
749.355	7.25
750.105	7.25
750.854	6.25
751.603	8.25
752.353	10.25
753.102	5.25
753.851	7.25
754.6	5.25
755.349	8.25
756.098	8.25
756.847	8.25
757.595	9.25
758.344	7.25
759.093	5.25
759.841	7.25
760.589	7.25
761.338	9.25
762.086	9.25
762.834	10.25
763.582	6.25
764.331	9.25
765.079	8.25
765.826	10.25
766.574	9.25
767.322	9.25
768.07	10.25
768.817	8.25
769.565	11.25
770.312	11.25
771.06	8.25
771.807	11.25
772.554	7.25
773.302	13.25
774.049	9.25
774.796	10.25
775.543	12.25
776.29	12.25
777.036	10.25
777.783	10.25
778.53	11.25
779.276	12.25
780.023	11.25
780.769	12.25
781.516	12.25
782.262	10.25
783.008	10.25
783.754	13.25
784.5	9.25
785.246	12.25
785.992	10.25
786.738	11.25
787.484	12.25
788.23	11.25
788.975	10.25
789.721	12.25
790.466	10.25
791.212	9.25
791.957	9.25
792.702	9.25
793.447	10.25
794.193	10.25
794.938	10.25
795.683	8.25
796.427	10.25
797.172	9.25
797.917	11.25
798.662	10.25
799.406	8.25
800.151	8.25
800.895	6.25
801.64	11.25
802.384	10.25
803.128	10.25
803.872	8.25
804.616	7.25
805.36	9.25
806.104	8.25
806.848	9.25
807.592	9.25
808.336	6.25
809.079	6.25
809.823	6.25
810.566	6.25
811.31	7.25
812.053	4.25
812.796	7.25
813.539	7.25
814.283	6.25
815.026	5.25
815.769	7.25
816.511	8.25
817.254	5.25
817.997	6.25
818.74	5.25
819.482	5.25
820.225	4.25
820.967	6.25
821.71	4.25
822.452	5.25
823.194	5.25
823.936	5.25
824.678	4.25
825.42	6.25
826.162	2.25
826.904	6.25
827.646	6.25
828.388	5.25
829.129	4.25
829.871	4.25
830.612	5.25
831.354	3.25
832.095	4.25
832.836	4.25
833.577	4.25
834.319	3.25
835.06	3.25
835.801	3.25
836.542	3.25
837.282	4.25
838.023	3.25
838.764	3.25
839.504	5.25
840.245	4.25
840.985	4.25
841.726	5.25
842.466	4.25
843.206	3.25
843.946	4.25
844.687	4.25
845.427	1.25
846.166	3.25
846.906	3.25
847.646	2.25
848.386	0.25
849.125	2.25
849.865	4.25
850.605	2.25
851.344	4.25
852.083	4.25
852.823	3.25
853.562	3.25
854.301	1.25
855.04	6.25
855.779	2.25
856.518	5.25
857.257	0.25
857.995	0.25
858.734	4.25
859.473	1.25
860.211	2.25
860.95	2.25
861.688	3.25
862.426	4.25
863.165	3.25
863.903	0.25
864.641	1.25
865.379	2.25
866.117	2.25
866.855	4.25
867.593	3.25
868.33	0.25
869.068	3.25
869.806	3.25
870.543	1.25
871.28	1.25
872.018	2.25
872.755	1.25
873.492	-0.75
874.229	2.25
874.967	1.25
875.703	1.25
876.44	2.25
877.177	-0.75
877.914	1.25
878.651	1.25
879.387	2.25
880.124	3.25
880.86	0.25
881.597	3.25
882.333	-1.75
883.069	2.25
883.806	1.25
884.542	0.25
885.278	0.25
886.014	-0.75
886.749	1.25
887.485	2.25
888.221	-1.75
888.957	0.25
889.692	0.25
890.428	1.25
891.163	-0.75
891.899	1.25
892.634	1.25
893.369	1.25
894.104	1.25
894.839	0.25
895.574	0.25
896.309	0.25
897.044	0.25
897.779	2.25
898.514	0.25
899.248	2.25
899.983	1.25
900.717	-0.75
901.452	0.25
902.186	1.25
902.92	0.25
903.654	-0.75
904.389	3.25
905.123	-2.75
905.857	-0.75
906.59	0.25
907.324	0.25
908.058	1.25
908.792	0.25
909.525	-1.75
910.259	-0.75
910.992	1.25
911.726	-0.75
912.459	2.25
913.192	1.25
913.925	-0.75
914.658	-0.75
915.391	2.25
916.124	2.25
916.857	-1.75
917.59	-0.75
918.323	0.25
919.055	1.25
919.788	0.25
920.521	2.25
921.253	0.25
921.985	-0.75
922.718	-0.75
923.45	0.25
924.182	0.25
924.914	-0.75
925.646	2.25
926.378	0.25
927.11	2.25
927.841	0.25
928.573	-0.75
929.305	0.25
930.036	-0.75
930.768	0.25
931.499	0.25
932.23	2.25
932.962	0.25
933.693	-0.75
934.424	1.25
935.155	0.25
935.886	1.25
936.617	-1.75
937.348	0.25
938.078	0.25
938.809	0.25
939.54	-0.75
940.27	0.25
941.001	-0.75
941.731	-2.75
942.461	-0.75
943.191	0.25
943.922	0.25
944.652	-0.75
945.382	0.25
946.112	2.25
946.841	1.25
947.571	0.25
948.301	0.25
949.031	1.25
949.76	0.25
950.49	-0.75
951.219	0.25
951.948	0.25
952.678	0.25
953.407	0.25
954.136	1.25
954.865	1.25
955.594	0.25
956.323	-0.75
957.052	-0.75
957.78	0.25
958.509	-0.75
959.238	0.25
959.966	1.25
960.695	-1.75
961.423	1.25
962.151	1.25
962.88	-0.75
963.608	2.25
964.336	1.25
965.064	0.25
965.792	0.25
966.52	-0.75
967.247	0.25
967.975	0.25
968.703	1.25
969.43	0.25
970.158	-0.75
970.885	1.25
971.613	-0.75
972.34	-0.75
973.067	0.25
973.794	0.25
974.521	0.25
975.248	1.25
975.975	-0.75
976.702	-1.75
977.429	-1.75
978.156	1.25
978.882	1.25
979.609	1.25
980.335	-0.75
981.062	1.25
981.788	-1.75
982.514	0.25
983.24	-1.75
983.967	-0.75
984.693	2.25
985.419	1.25
986.144	0.25
986.87	1.25
987.596	0.25
988.322	2.25
989.047	-1.75
989.773	-0.75
990.498	-1.75
991.224	-0.75
991.949	1.25
992.674	0.25
993.399	0.25
994.124	-1.75
994.849	0.25
995.574	2.25
996.299	-1.75
997.024	0.25
997.749	0.25
998.473	0.25
999.198	-1.75
999.922	-1.75
1000.647	0.25
1001.371	2.25
1002.095	-0.75
1002.82	-0.75
1003.544	-2.75
1004.268	4.25
1004.992	2.25
1005.716	1.25
1006.439	1.25
1007.163	2.25
1007.887	3.25
1008.611	0.25
1009.334	2.25
1010.058	0.25
1010.781	-0.75
1011.504	3.25
1012.228	-1.75
1012.951	1.25
1013.674	-0.75
1014.397	2.25
1015.12	-0.75
