节点500_425_QEPB04081__550__15-57-27-501.txt的数据

Date: Wed Nov 12 15:57:27 CST 2025
User: PC
Spectrometer: QEPB0408
触发模式: 0
积分时间 (秒): 1.000000E-2
Scans to average: 1
启用暗噪声校正: true
启用非线性校正: false
滑动平均宽度: 0
X轴模式: Wavelengths
Number of Pixels in Spectrum: 1044
>>>>>Begin Spectral Data<<<<<
220.843	3.5
221.644	2.5
222.444	3.5
223.244	4.5
224.045	6.5
224.845	5.5
225.645	4.5
226.445	3.5
227.245	3.5
228.045	5.5
228.845	3.5
229.645	6.5
230.444	5.5
231.244	3.5
232.043	7.5
232.843	4.5
233.642	6.5
234.442	4.5
235.241	6.5
236.04	8.5
236.839	8.5
237.638	5.5
238.437	7.5
239.236	6.5
240.035	8.5
240.833	7.5
241.632	5.5
242.43	8.5
243.229	9.5
244.027	7.5
244.826	8.5
245.624	8.5
246.422	8.5
247.22	9.5
248.018	10.5
248.816	7.5
249.614	8.5
250.412	7.5
251.21	9.5
252.007	6.5
252.805	13.5
253.602	10.5
254.4	10.5
255.197	12.5
255.994	12.5
256.791	11.5
257.589	10.5
258.386	9.5
259.183	14.5
259.979	11.5
260.776	14.5
261.573	13.5
262.37	14.5
263.166	14.5
263.963	14.5
264.759	17.5
265.556	13.5
266.352	15.5
267.148	19.5
267.944	16.5
268.74	17.5
269.536	19.5
270.332	20.5
271.128	18.5
271.924	20.5
272.719	17.5
273.515	21.5
274.311	19.5
275.106	18.5
275.901	22.5
276.697	20.5
277.492	22.5
278.287	23.5
279.082	23.5
279.877	23.5
280.672	22.5
281.467	22.5
282.262	23.5
283.056	23.5
283.851	22.5
284.646	20.5
285.44	25.5
286.234	24.5
287.029	22.5
287.823	22.5
288.617	19.5
289.411	23.5
290.205	21.5
290.999	21.5
291.793	24.5
292.587	22.5
293.381	20.5
294.174	23.5
294.968	23.5
295.761	20.5
296.555	17.5
297.348	18.5
298.141	18.5
298.935	21.5
299.728	17.5
300.521	18.5
301.314	17.5
302.107	14.5
302.899	17.5
303.692	17.5
304.485	15.5
305.277	16.5
306.07	17.5
306.862	14.5
307.655	15.5
308.447	17.5
309.239	17.5
310.031	13.5
310.823	15.5
311.615	14.5
312.407	15.5
313.199	12.5
313.991	14.5
314.783	13.5
315.574	11.5
316.366	12.5
317.157	10.5
317.949	11.5
318.74	12.5
319.531	11.5
320.322	10.5
321.113	10.5
321.904	12.5
322.695	9.5
323.486	8.5
324.277	11.5
325.068	10.5
325.858	8.5
326.649	8.5
327.439	9.5
328.23	10.5
329.02	7.5
329.81	8.5
330.6	8.5
331.391	10.5
332.181	8.5
332.971	8.5
333.76	8.5
334.55	9.5
335.34	8.5
336.13	6.5
336.919	8.5
337.709	7.5
338.498	8.5
339.287	8.5
340.077	9.5
340.866	9.5
341.655	7.5
342.444	9.5
343.233	8.5
344.022	10.5
344.811	8.5
345.6	7.5
346.388	10.5
347.177	8.5
347.965	8.5
348.754	8.5
349.542	7.5
350.33	8.5
351.119	7.5
351.907	9.5
352.695	7.5
353.483	9.5
354.271	6.5
355.059	7.5
355.846	7.5
356.634	9.5
357.422	8.5
358.209	7.5
358.997	5.5
359.784	6.5
360.571	6.5
361.359	9.5
362.146	6.5
362.933	6.5
363.72	8.5
364.507	6.5
365.294	8.5
366.081	6.5
366.867	7.5
367.654	4.5
368.44	5.5
369.227	7.5
370.013	7.5
370.8	6.5
371.586	8.5
372.372	5.5
373.158	7.5
373.944	5.5
374.73	6.5
375.516	7.5
376.302	5.5
377.088	7.5
377.873	8.5
378.659	7.5
379.445	4.5
380.23	5.5
381.015	8.5
381.801	6.5
382.586	4.5
383.371	5.5
384.156	9.5
384.941	7.5
385.726	7.5
386.511	6.5
387.296	8.5
388.08	6.5
388.865	5.5
389.649	8.5
390.434	5.5
391.218	7.5
392.003	7.5
392.787	6.5
393.571	6.5
394.355	9.5
395.139	10.5
395.923	6.5
396.707	8.5
397.491	8.5
398.274	9.5
399.058	9.5
399.842	8.5
400.625	8.5
401.408	12.5
402.192	8.5
402.975	9.5
403.758	10.5
404.541	9.5
405.324	10.5
406.107	8.5
406.89	8.5
407.673	8.5
408.456	8.5
409.238	8.5
410.021	11.5
410.803	9.5
411.586	12.5
412.368	10.5
413.151	10.5
413.933	9.5
414.715	11.5
415.497	12.5
416.279	14.5
417.061	14.5
417.843	14.5
418.624	12.5
419.406	12.5
420.188	13.5
420.969	13.5
421.751	18.5
422.532	14.5
423.313	13.5
424.095	13.5
424.876	14.5
425.657	15.5
426.438	13.5
427.219	20.5
428	18.5
428.78	17.5
429.561	20.5
430.342	19.5
431.122	19.5
431.903	21.5
432.683	21.5
433.464	21.5
434.244	22.5
435.024	22.5
435.804	23.5
436.584	24.5
437.364	27.5
438.144	31.5
438.924	31.5
439.704	34.5
440.483	34.5
441.263	36.5
442.042	40.5
442.822	40.5
443.601	44.5
444.38	45.5
445.16	51.5
445.939	53.5
446.718	59.5
447.497	64.5
448.276	74.5
449.054	76.5
449.833	84.5
450.612	94.5
451.391	103.5
452.169	111.5
452.948	118.5
453.726	133.5
454.504	147.5
455.282	165.5
456.061	190.5
456.839	207.5
457.617	230.5
458.395	253.5
459.172	286.5
459.95	318.5
460.728	344.5
461.506	389.5
462.283	428.5
463.061	481.5
463.838	538.5
464.615	588.5
465.393	646.5
466.17	739.5
466.947	822.5
467.724	897.5
468.501	1001.5
469.278	1105.5
470.055	1202.5
470.831	1350.5
471.608	1485.5
472.385	1634.5
473.161	1792.5
473.938	1968.5
474.714	2166.5
475.49	2384.5
476.266	2606.5
477.043	2838.5
477.819	3120.5
478.595	3442.5
479.371	3733.5
480.146	4088.5
480.922	4445.5
481.698	4842.5
482.473	5263.5
483.249	5740.5
484.024	6295.5
484.8	6818.5
485.575	7358.5
486.35	8003.5
487.126	8680.5
487.901	9397.5
488.676	10179.5
489.451	11048.5
490.225	11928.5
491	12893.5
491.775	13952.5
492.55	14930.5
493.324	16056.5
494.099	17173.5
494.873	18294.5
495.647	19515.5
496.422	20743.5
497.196	22005.5
497.97	23284.5
498.744	24602.5
499.518	25858.5
500.292	27016.5
501.066	28084.5
501.839	29227.5
502.613	30211.5
503.387	30972.5
504.16	31692.5
504.934	32232.5
505.707	32481.5
506.48	32661.5
507.253	32585.5
508.027	32541.5
508.8	32394.5
509.573	31890.5
510.346	31433.5
511.118	30753.5
511.891	29933.5
512.664	29012.5
513.437	28168.5
514.209	27098.5
514.982	26223.5
515.754	25293.5
516.526	24328.5
517.298	23365.5
518.071	22382.5
518.843	21539.5
519.615	20621.5
520.387	19728.5
521.159	19089.5
521.93	18333.5
522.702	17581.5
523.474	16948.5
524.245	16287.5
525.017	15510.5
525.788	14824.5
526.56	14219.5
527.331	13614.5
528.102	13010.5
528.873	12436.5
529.644	11869.5
530.415	11342.5
531.186	10871.5
531.957	10304.5
532.728	9758.5
533.498	9241.5
534.269	8742.5
535.039	8317.5
535.81	7896.5
536.58	7460.5
537.351	7027.5
538.121	6642.5
538.891	6298.5
539.661	5987.5
540.431	5684.5
541.201	5332.5
541.971	5073.5
542.741	4815.5
543.51	4586.5
544.28	4351.5
545.05	4114.5
545.819	3932.5
546.588	3747.5
547.358	3538.5
548.127	3353.5
548.896	3208.5
549.665	3045.5
550.434	2903.5
551.203	2747.5
551.972	2604.5
552.741	2460.5
553.51	2339.5
554.278	2222.5
555.047	2069.5
555.815	1968.5
556.584	1870.5
557.352	1771.5
558.121	1657.5
558.889	1581.5
559.657	1491.5
560.425	1400.5
561.193	1332.5
561.961	1251.5
562.729	1189.5
563.496	1123.5
564.264	1082.5
565.032	1008.5
565.799	952.5
566.567	896.5
567.334	842.5
568.101	799.5
568.869	763.5
569.636	710.5
570.403	669.5
571.17	626.5
571.937	603.5
572.704	571.5
573.471	538.5
574.237	500.5
575.004	475.5
575.771	449.5
576.537	424.5
577.303	400.5
578.07	366.5
578.836	351.5
579.602	336.5
580.368	317.5
581.134	300.5
581.9	281.5
582.666	272.5
583.432	259.5
584.198	242.5
584.964	234.5
585.729	215.5
586.495	210.5
587.26	202.5
588.025	186.5
588.791	173.5
589.556	169.5
590.321	158.5
591.086	153.5
591.851	140.5
592.616	130.5
593.381	127.5
594.146	123.5
594.911	120.5
595.675	109.5
596.44	107.5
597.204	100.5
597.969	103.5
598.733	93.5
599.497	91.5
600.261	84.5
601.025	85.5
601.79	79.5
602.553	72.5
603.317	70.5
604.081	70.5
604.845	66.5
605.609	60.5
606.372	62.5
607.136	59.5
607.899	55.5
608.662	54.5
609.426	53.5
610.189	47.5
610.952	48.5
611.715	43.5
612.478	43.5
613.241	45.5
614.004	42.5
614.767	39.5
615.529	38.5
616.292	38.5
617.055	33.5
617.817	36.5
618.579	34.5
619.342	34.5
620.104	28.5
620.866	30.5
621.628	25.5
622.39	30.5
623.152	22.5
623.914	25.5
624.676	26.5
625.438	22.5
626.199	23.5
626.961	23.5
627.722	21.5
628.484	17.5
629.245	21.5
630.006	20.5
630.768	18.5
631.529	21.5
632.29	17.5
633.051	17.5
633.812	18.5
634.573	14.5
635.333	16.5
636.094	16.5
636.855	14.5
637.615	14.5
638.376	15.5
639.136	13.5
639.896	12.5
640.657	15.5
641.417	13.5
642.177	12.5
642.937	14.5
643.697	12.5
644.457	10.5
645.216	11.5
645.976	13.5
646.736	11.5
647.495	12.5
648.255	9.5
649.014	10.5
649.774	10.5
650.533	10.5
651.292	10.5
652.051	13.5
652.81	8.5
653.569	9.5
654.328	7.5
655.087	7.5
655.846	9.5
656.604	7.5
657.363	10.5
658.121	8.5
658.88	8.5
659.638	5.5
660.397	9.5
661.155	10.5
661.913	8.5
662.671	8.5
663.429	8.5
664.187	8.5
664.945	6.5
665.703	8.5
666.46	6.5
667.218	6.5
667.976	7.5
668.733	7.5
669.49	6.5
670.248	9.5
671.005	7.5
671.762	4.5
672.519	7.5
673.276	7.5
674.033	4.5
674.79	6.5
675.547	4.5
676.304	9.5
677.06	6.5
677.817	2.5
678.574	6.5
679.33	7.5
680.086	8.5
680.843	5.5
681.599	4.5
682.355	8.5
683.111	5.5
683.867	5.5
684.623	6.5
685.379	7.5
686.135	6.5
686.89	3.5
687.646	6.5
688.402	6.5
689.157	5.5
689.912	6.5
690.668	4.5
691.423	6.5
692.178	3.5
692.933	4.5
693.688	4.5
694.443	7.5
695.198	6.5
695.953	6.5
696.708	4.5
697.462	6.5
698.217	4.5
698.972	4.5
699.726	2.5
700.48	7.5
701.235	2.5
701.989	7.5
702.743	4.5
703.497	5.5
704.251	4.5
705.005	2.5
705.759	6.5
706.513	5.5
707.266	4.5
708.02	5.5
708.774	4.5
709.527	4.5
710.28	5.5
711.034	6.5
711.787	6.5
712.54	5.5
713.293	4.5
714.046	4.5
714.799	6.5
715.552	6.5
716.305	5.5
717.058	5.5
717.81	5.5
718.563	4.5
719.315	6.5
720.068	5.5
720.82	6.5
721.573	7.5
722.325	2.5
723.077	4.5
723.829	6.5
724.581	6.5
725.333	7.5
726.085	4.5
726.836	5.5
727.588	7.5
728.34	7.5
729.091	5.5
729.843	6.5
730.594	4.5
731.346	8.5
732.097	3.5
732.848	4.5
733.599	7.5
734.35	5.5
735.101	6.5
735.852	5.5
736.603	5.5
737.354	5.5
738.104	6.5
738.855	7.5
739.605	6.5
740.356	5.5
741.106	4.5
741.856	5.5
742.607	5.5
743.357	7.5
744.107	8.5
744.857	7.5
745.607	7.5
746.357	8.5
747.106	8.5
747.856	4.5
748.606	6.5
749.355	5.5
750.105	7.5
750.854	7.5
751.603	5.5
752.353	7.5
753.102	6.5
753.851	7.5
754.6	7.5
755.349	7.5
756.098	6.5
756.847	8.5
757.595	7.5
758.344	7.5
759.093	6.5
759.841	9.5
760.589	7.5
761.338	8.5
762.086	8.5
762.834	7.5
763.582	10.5
764.331	8.5
765.079	9.5
765.826	7.5
766.574	9.5
767.322	10.5
768.07	8.5
768.817	9.5
769.565	7.5
770.312	9.5
771.06	9.5
771.807	7.5
772.554	10.5
773.302	10.5
774.049	9.5
774.796	9.5
775.543	11.5
776.29	8.5
777.036	10.5
777.783	10.5
778.53	10.5
779.276	11.5
780.023	11.5
780.769	11.5
781.516	8.5
782.262	10.5
783.008	10.5
783.754	11.5
784.5	11.5
785.246	11.5
785.992	12.5
786.738	11.5
787.484	10.5
788.23	12.5
788.975	14.5
789.721	11.5
790.466	8.5
791.212	11.5
791.957	11.5
792.702	11.5
793.447	9.5
794.193	8.5
794.938	12.5
795.683	8.5
796.427	10.5
797.172	11.5
797.917	8.5
798.662	9.5
799.406	8.5
800.151	8.5
800.895	9.5
801.64	10.5
802.384	8.5
803.128	7.5
803.872	7.5
804.616	7.5
805.36	8.5
806.104	10.5
806.848	7.5
807.592	8.5
808.336	7.5
809.079	7.5
809.823	7.5
810.566	5.5
811.31	7.5
812.053	7.5
812.796	8.5
813.539	8.5
814.283	7.5
815.026	9.5
815.769	6.5
816.511	6.5
817.254	7.5
817.997	5.5
818.74	5.5
819.482	5.5
820.225	6.5
820.967	4.5
821.71	6.5
822.452	5.5
823.194	4.5
823.936	5.5
824.678	5.5
825.42	3.5
826.162	2.5
826.904	5.5
827.646	5.5
828.388	4.5
829.129	7.5
829.871	5.5
830.612	5.5
831.354	4.5
832.095	4.5
832.836	6.5
833.577	6.5
834.319	4.5
835.06	3.5
835.801	5.5
836.542	4.5
837.282	4.5
838.023	6.5
838.764	5.5
839.504	5.5
840.245	3.5
840.985	4.5
841.726	7.5
842.466	4.5
843.206	6.5
843.946	5.5
844.687	2.5
845.427	4.5
846.166	4.5
846.906	3.5
847.646	6.5
848.386	5.5
849.125	4.5
849.865	3.5
850.605	4.5
851.344	3.5
852.083	2.5
852.823	4.5
853.562	3.5
854.301	4.5
855.04	4.5
855.779	3.5
856.518	3.5
857.257	-0.5
857.995	2.5
858.734	3.5
859.473	2.5
860.211	1.5
860.95	4.5
861.688	1.5
862.426	2.5
863.165	3.5
863.903	2.5
864.641	3.5
865.379	2.5
866.117	2.5
866.855	3.5
867.593	-1.5
868.33	2.5
869.068	1.5
869.806	3.5
870.543	0.5
871.28	2.5
872.018	1.5
872.755	1.5
873.492	1.5
874.229	1.5
874.967	3.5
875.703	2.5
876.44	1.5
877.177	2.5
877.914	-0.5
878.651	1.5
879.387	2.5
880.124	1.5
880.86	0.5
881.597	0.5
882.333	2.5
883.069	2.5
883.806	0.5
884.542	0.5
885.278	3.5
886.014	1.5
886.749	-1.5
887.485	2.5
888.221	1.5
888.957	2.5
889.692	2.5
890.428	0.5
891.163	0.5
891.899	-0.5
892.634	1.5
893.369	2.5
894.104	1.5
894.839	1.5
895.574	0.5
896.309	-1.5
897.044	1.5
897.779	3.5
898.514	1.5
899.248	0.5
899.983	2.5
900.717	2.5
901.452	1.5
902.186	1.5
902.92	-0.5
903.654	2.5
904.389	-0.5
905.123	3.5
905.857	-1.5
906.59	2.5
907.324	0.5
908.058	0.5
908.792	0.5
909.525	0.5
910.259	-0.5
910.992	0.5
911.726	0.5
912.459	0.5
913.192	-0.5
913.925	2.5
914.658	0.5
915.391	-0.5
916.124	-0.5
916.857	1.5
917.59	0.5
918.323	0.5
919.055	2.5
919.788	2.5
920.521	0.5
921.253	-1.5
921.985	-1.5
922.718	2.5
923.45	0.5
924.182	-1.5
924.914	0.5
925.646	0.5
926.378	-0.5
927.11	0.5
927.841	2.5
928.573	1.5
929.305	0.5
930.036	1.5
930.768	1.5
931.499	0.5
932.23	2.5
932.962	0.5
933.693	-0.5
934.424	-0.5
935.155	-1.5
935.886	0.5
936.617	1.5
937.348	0.5
938.078	1.5
938.809	3.5
939.54	-1.5
940.27	2.5
941.001	1.5
941.731	2.5
942.461	0.5
943.191	-1.5
943.922	2.5
944.652	-0.5
945.382	2.5
946.112	2.5
946.841	1.5
947.571	0.5
948.301	-0.5
949.031	-1.5
949.76	1.5
950.49	-0.5
951.219	2.5
951.948	2.5
952.678	-0.5
953.407	-0.5
954.136	1.5
954.865	1.5
955.594	-1.5
956.323	0.5
957.052	-0.5
957.78	-0.5
958.509	-0.5
959.238	-0.5
959.966	-1.5
960.695	-0.5
961.423	2.5
962.151	0.5
962.88	2.5
963.608	-0.5
964.336	-1.5
965.064	-0.5
965.792	0.5
966.52	0.5
967.247	-0.5
967.975	1.5
968.703	1.5
969.43	1.5
970.158	0.5
970.885	0.5
971.613	0.5
972.34	1.5
973.067	0.5
973.794	1.5
974.521	-0.5
975.248	1.5
975.975	-0.5
976.702	0.5
977.429	1.5
978.156	-1.5
978.882	2.5
979.609	1.5
980.335	0.5
981.062	2.5
981.788	0.5
982.514	1.5
983.24	2.5
983.967	0.5
984.693	2.5
985.419	1.5
986.144	1.5
986.87	0.5
987.596	0.5
988.322	1.5
989.047	0.5
989.773	0.5
990.498	0.5
991.224	-0.5
991.949	-0.5
992.674	-2.5
993.399	0.5
994.124	0.5
994.849	1.5
995.574	0.5
996.299	-0.5
997.024	0.5
997.749	1.5
998.473	0.5
999.198	0.5
999.922	0.5
1000.647	0.5
1001.371	5.5
1002.095	-2.5
1002.82	-1.5
1003.544	-1.5
1004.268	1.5
1004.992	0.5
1005.716	2.5
1006.439	3.5
1007.163	2.5
1007.887	2.5
1008.611	2.5
1009.334	1.5
1010.058	-1.5
1010.781	-0.5
1011.504	2.5
1012.228	2.5
1012.951	-0.5
1013.674	0.5
1014.397	0.5
1015.12	-0.5
