节点500_425_QEPB04081__570__15-57-47-439.txt的数据

Date: Wed Nov 12 15:57:47 CST 2025
User: PC
Spectrometer: QEPB0408
触发模式: 0
积分时间 (秒): 1.000000E-2
Scans to average: 1
启用暗噪声校正: true
启用非线性校正: false
滑动平均宽度: 0
X轴模式: Wavelengths
Number of Pixels in Spectrum: 1044
>>>>>Begin Spectral Data<<<<<
220.843	5
221.644	2
222.444	4
223.244	4
224.045	2
224.845	0
225.645	3
226.445	3
227.245	4
228.045	5
228.845	5
229.645	3
230.444	3
231.244	5
232.043	6
232.843	4
233.642	5
234.442	5
235.241	5
236.04	6
236.839	5
237.638	7
238.437	4
239.236	5
240.035	6
240.833	4
241.632	6
242.43	7
243.229	7
244.027	6
244.826	7
245.624	7
246.422	6
247.22	8
248.018	7
248.816	12
249.614	10
250.412	10
251.21	8
252.007	8
252.805	9
253.602	10
254.4	9
255.197	11
255.994	9
256.791	13
257.589	11
258.386	13
259.183	13
259.979	13
260.776	11
261.573	11
262.37	14
263.166	12
263.963	15
264.759	15
265.556	14
266.352	13
267.148	17
267.944	15
268.74	18
269.536	16
270.332	20
271.128	17
271.924	21
272.719	18
273.515	22
274.311	21
275.106	18
275.901	19
276.697	21
277.492	22
278.287	21
279.082	21
279.877	20
280.672	22
281.467	21
282.262	23
283.056	25
283.851	20
284.646	22
285.44	23
286.234	22
287.029	22
287.823	21
288.617	23
289.411	24
290.205	22
290.999	20
291.793	19
292.587	22
293.381	18
294.174	20
294.968	20
295.761	16
296.555	22
297.348	18
298.141	16
298.935	22
299.728	18
300.521	19
301.314	14
302.107	20
302.899	15
303.692	14
304.485	15
305.277	16
306.07	18
306.862	15
307.655	14
308.447	15
309.239	19
310.031	14
310.823	14
311.615	14
312.407	13
313.199	9
313.991	13
314.783	9
315.574	13
316.366	12
317.157	10
317.949	9
318.74	11
319.531	10
320.322	12
321.113	11
321.904	11
322.695	11
323.486	11
324.277	8
325.068	7
325.858	9
326.649	7
327.439	9
328.23	9
329.02	8
329.81	11
330.6	10
331.391	8
332.181	7
332.971	7
333.76	9
334.55	9
335.34	9
336.13	6
336.919	9
337.709	8
338.498	8
339.287	5
340.077	8
340.866	10
341.655	8
342.444	7
343.233	7
344.022	8
344.811	8
345.6	6
346.388	8
347.177	5
347.965	10
348.754	7
349.542	8
350.33	8
351.119	6
351.907	7
352.695	7
353.483	9
354.271	10
355.059	7
355.846	8
356.634	8
357.422	6
358.209	7
358.997	8
359.784	6
360.571	6
361.359	8
362.146	7
362.933	6
363.72	8
364.507	4
365.294	7
366.081	4
366.867	6
367.654	4
368.44	6
369.227	6
370.013	5
370.8	5
371.586	8
372.372	7
373.158	7
373.944	4
374.73	6
375.516	7
376.302	7
377.088	6
377.873	7
378.659	6
379.445	5
380.23	7
381.015	4
381.801	7
382.586	8
383.371	5
384.156	5
384.941	6
385.726	7
386.511	6
387.296	9
388.08	6
388.865	5
389.649	9
390.434	6
391.218	8
392.003	7
392.787	8
393.571	8
394.355	5
395.139	10
395.923	8
396.707	9
397.491	8
398.274	7
399.058	8
399.842	7
400.625	7
401.408	10
402.192	12
402.975	9
403.758	7
404.541	10
405.324	9
406.107	10
406.89	8
407.673	10
408.456	9
409.238	10
410.021	12
410.803	10
411.586	7
412.368	11
413.151	12
413.933	10
414.715	11
415.497	11
416.279	12
417.061	12
417.843	14
418.624	14
419.406	13
420.188	12
420.969	11
421.751	15
422.532	11
423.313	17
424.095	13
424.876	16
425.657	15
426.438	18
427.219	18
428	17
428.78	19
429.561	19
430.342	17
431.122	23
431.903	18
432.683	20
433.464	21
434.244	23
435.024	22
435.804	23
436.584	25
437.364	27
438.144	30
438.924	32
439.704	33
440.483	33
441.263	36
442.042	41
442.822	42
443.601	44
444.38	46
445.16	48
445.939	54
446.718	60
447.497	65
448.276	69
449.054	77
449.833	85
450.612	91
451.391	104
452.169	112
452.948	122
453.726	140
454.504	150
455.282	169
456.061	180
456.839	206
457.617	232
458.395	252
459.172	285
459.95	314
460.728	354
461.506	396
462.283	444
463.061	473
463.838	530
464.615	602
465.393	655
466.17	732
466.947	817
467.724	896
468.501	1003
469.278	1101
470.055	1208
470.831	1342
471.608	1471
472.385	1632
473.161	1809
473.938	1967
474.714	2164
475.49	2372
476.266	2607
477.043	2852
477.819	3132
478.595	3412
479.371	3758
480.146	4077
480.922	4435
481.698	4837
482.473	5261
483.249	5735
484.024	6227
484.8	6817
485.575	7315
486.35	7967
487.126	8627
487.901	9378
488.676	10119
489.451	10992
490.225	11858
491	12826
491.775	13881
492.55	14842
493.324	15983
494.099	17052
494.873	18194
495.647	19431
496.422	20579
497.196	21856
497.97	23203
498.744	24459
499.518	25700
500.292	26907
501.066	27975
501.839	29068
502.613	30070
503.387	30929
504.16	31567
504.934	32145
505.707	32354
506.48	32488
507.253	32591
508.027	32436
508.8	32198
509.573	31859
510.346	31262
511.118	30570
511.891	29836
512.664	28962
513.437	28012
514.209	27101
514.982	26260
515.754	25270
516.526	24250
517.298	23274
518.071	22383
518.843	21484
519.615	20574
520.387	19784
521.159	19058
521.93	18322
522.702	17605
523.474	16896
524.245	16244
525.017	15554
525.788	14820
526.56	14236
527.331	13604
528.102	13049
528.873	12482
529.644	11880
530.415	11368
531.186	10848
531.957	10278
532.728	9762
533.498	9253
534.269	8773
535.039	8325
535.81	7867
536.58	7430
537.351	7055
538.121	6644
538.891	6327
539.661	6001
540.431	5676
541.201	5366
541.971	5080
542.741	4830
543.51	4584
544.28	4380
545.05	4130
545.819	3941
546.588	3767
547.358	3561
548.127	3378
548.896	3218
549.665	3038
550.434	2911
551.203	2745
551.972	2597
552.741	2476
553.51	2338
554.278	2197
555.047	2084
555.815	1980
556.584	1873
557.352	1766
558.121	1660
558.889	1583
559.657	1489
560.425	1408
561.193	1318
561.961	1258
562.729	1198
563.496	1143
564.264	1064
565.032	997
565.799	953
566.567	907
567.334	850
568.101	810
568.869	755
569.636	727
570.403	671
571.17	636
571.937	602
572.704	565
573.471	543
574.237	500
575.004	473
575.771	444
576.537	425
577.303	403
578.07	378
578.836	348
579.602	333
580.368	315
581.134	300
581.9	281
582.666	271
583.432	256
584.198	247
584.964	237
585.729	220
586.495	209
587.26	198
588.025	189
588.791	176
589.556	172
590.321	159
591.086	146
591.851	148
592.616	133
593.381	129
594.146	122
594.911	119
595.675	111
596.44	112
597.204	101
597.969	95
598.733	95
599.497	90
600.261	87
601.025	76
601.79	77
602.553	74
603.317	69
604.081	68
604.845	67
605.609	65
606.372	60
607.136	55
607.899	59
608.662	54
609.426	50
610.189	49
610.952	44
611.715	45
612.478	44
613.241	44
614.004	38
614.767	38
615.529	40
616.292	37
617.055	35
617.817	32
618.579	33
619.342	34
620.104	30
620.866	28
621.628	29
622.39	26
623.152	26
623.914	26
624.676	24
625.438	24
626.199	25
626.961	18
627.722	22
628.484	21
629.245	20
630.006	22
630.768	20
631.529	21
632.29	18
633.051	17
633.812	17
634.573	13
635.333	18
636.094	16
636.855	16
637.615	14
638.376	17
639.136	10
639.896	13
640.657	14
641.417	11
642.177	13
642.937	10
643.697	11
644.457	11
645.216	12
645.976	12
646.736	9
647.495	9
648.255	10
649.014	9
649.774	9
650.533	12
651.292	8
652.051	9
652.81	8
653.569	9
654.328	9
655.087	9
655.846	10
656.604	10
657.363	10
658.121	7
658.88	7
659.638	6
660.397	9
661.155	9
661.913	6
662.671	8
663.429	9
664.187	5
664.945	5
665.703	4
666.46	6
667.218	9
667.976	6
668.733	8
669.49	7
670.248	6
671.005	7
671.762	5
672.519	6
673.276	6
674.033	5
674.79	5
675.547	5
676.304	6
677.06	5
677.817	5
678.574	5
679.33	3
680.086	4
680.843	3
681.599	6
682.355	7
683.111	5
683.867	6
684.623	4
685.379	6
686.135	5
686.89	6
687.646	2
688.402	2
689.157	7
689.912	3
690.668	5
691.423	2
692.178	4
692.933	2
693.688	6
694.443	7
695.198	4
695.953	4
696.708	8
697.462	5
698.217	5
698.972	5
699.726	6
700.48	5
701.235	4
701.989	5
702.743	6
703.497	6
704.251	5
705.005	4
705.759	6
706.513	1
707.266	5
708.02	4
708.774	4
709.527	5
710.28	5
711.034	4
711.787	3
712.54	5
713.293	5
714.046	5
714.799	5
715.552	4
716.305	3
717.058	5
717.81	5
718.563	5
719.315	6
720.068	4
720.82	2
721.573	5
722.325	6
723.077	1
723.829	4
724.581	3
725.333	7
726.085	4
726.836	6
727.588	5
728.34	6
729.091	7
729.843	6
730.594	6
731.346	4
732.097	6
732.848	4
733.599	5
734.35	6
735.101	4
735.852	6
736.603	4
737.354	6
738.104	5
738.855	5
739.605	6
740.356	4
741.106	6
741.856	7
742.607	7
743.357	8
744.107	6
744.857	8
745.607	7
746.357	6
747.106	5
747.856	6
748.606	5
749.355	6
750.105	6
750.854	2
751.603	6
752.353	7
753.102	5
753.851	8
754.6	6
755.349	7
756.098	7
756.847	7
757.595	8
758.344	9
759.093	6
759.841	8
760.589	6
761.338	8
762.086	9
762.834	10
763.582	8
764.331	8
765.079	6
765.826	10
766.574	8
767.322	7
768.07	8
768.817	9
769.565	8
770.312	7
771.06	7
771.807	11
772.554	10
773.302	9
774.049	9
774.796	10
775.543	10
776.29	9
777.036	9
777.783	9
778.53	9
779.276	10
780.023	11
780.769	10
781.516	10
782.262	10
783.008	8
783.754	8
784.5	10
785.246	9
785.992	10
786.738	13
787.484	10
788.23	10
788.975	10
789.721	10
790.466	11
791.212	8
791.957	10
792.702	9
793.447	10
794.193	10
794.938	8
795.683	11
796.427	9
797.172	8
797.917	7
798.662	10
799.406	9
800.151	10
800.895	9
801.64	7
802.384	9
803.128	7
803.872	8
804.616	9
805.36	7
806.104	8
806.848	5
807.592	8
808.336	7
809.079	9
809.823	5
810.566	6
811.31	8
812.053	7
812.796	5
813.539	9
814.283	8
815.026	6
815.769	5
816.511	8
817.254	2
817.997	6
818.74	7
819.482	3
820.225	6
820.967	4
821.71	6
822.452	5
823.194	4
823.936	5
824.678	4
825.42	4
826.162	5
826.904	4
827.646	5
828.388	4
829.129	4
829.871	4
830.612	4
831.354	4
832.095	7
832.836	4
833.577	4
834.319	5
835.06	3
835.801	7
836.542	4
837.282	5
838.023	6
838.764	6
839.504	6
840.245	5
840.985	2
841.726	4
842.466	3
843.206	4
843.946	2
844.687	4
845.427	2
846.166	5
846.906	4
847.646	4
848.386	3
849.125	4
849.865	3
850.605	4
851.344	3
852.083	2
852.823	2
853.562	4
854.301	4
855.04	2
855.779	4
856.518	3
857.257	3
857.995	1
858.734	2
859.473	2
860.211	1
860.95	3
861.688	1
862.426	4
863.165	1
863.903	3
864.641	2
865.379	2
866.117	4
866.855	3
867.593	4
868.33	1
869.068	3
869.806	1
870.543	2
871.28	3
872.018	2
872.755	3
873.492	0
874.229	2
874.967	2
875.703	3
876.44	0
877.177	1
877.914	0
878.651	0
879.387	1
880.124	1
880.86	2
881.597	2
882.333	1
883.069	1
883.806	2
884.542	1
885.278	2
886.014	2
886.749	3
887.485	0
888.221	0
888.957	1
889.692	0
890.428	2
891.163	2
891.899	0
892.634	0
893.369	0
894.104	1
894.839	2
895.574	1
896.309	1
897.044	2
897.779	1
898.514	2
899.248	1
899.983	0
900.717	-1
901.452	2
902.186	1
902.92	2
903.654	1
904.389	-1
905.123	0
905.857	-1
906.59	4
907.324	0
908.058	1
908.792	1
909.525	1
910.259	3
910.992	0
911.726	0
912.459	0
913.192	0
913.925	-1
914.658	-2
915.391	1
916.124	1
916.857	2
917.59	0
918.323	0
919.055	0
919.788	0
920.521	-1
921.253	1
921.985	0
922.718	-1
923.45	0
924.182	1
924.914	-2
925.646	1
926.378	0
927.11	0
927.841	1
928.573	1
929.305	-1
930.036	-1
930.768	1
931.499	1
932.23	-1
932.962	-1
933.693	-2
934.424	0
935.155	3
935.886	1
936.617	-1
937.348	0
938.078	0
938.809	-1
939.54	1
940.27	2
941.001	1
941.731	0
942.461	-1
943.191	0
943.922	1
944.652	0
945.382	0
946.112	1
946.841	3
947.571	-2
948.301	-2
949.031	3
949.76	-1
950.49	1
951.219	1
951.948	-2
952.678	2
953.407	-1
954.136	1
954.865	0
955.594	3
956.323	1
957.052	0
957.78	0
958.509	-1
959.238	1
959.966	-2
960.695	0
961.423	2
962.151	-1
962.88	-1
963.608	0
964.336	-1
965.064	-1
965.792	0
966.52	1
967.247	0
967.975	-1
968.703	0
969.43	2
970.158	0
970.885	-1
971.613	-2
972.34	0
973.067	2
973.794	-1
974.521	0
975.248	0
975.975	1
976.702	2
977.429	-1
978.156	-2
978.882	1
979.609	-1
980.335	2
981.062	-1
981.788	-1
982.514	0
983.24	0
983.967	0
984.693	0
985.419	0
986.144	-1
986.87	-1
987.596	0
988.322	0
989.047	-2
989.773	0
990.498	-1
991.224	1
991.949	1
992.674	0
993.399	0
994.124	-1
994.849	0
995.574	2
996.299	0
997.024	-3
997.749	1
998.473	1
999.198	1
999.922	0
1000.647	-1
1001.371	1
1002.095	-2
1002.82	-2
1003.544	0
1004.268	1
1004.992	2
1005.716	1
1006.439	3
1007.163	1
1007.887	3
1008.611	0
1009.334	0
1010.058	3
1010.781	0
1011.504	1
1012.228	1
1012.951	2
1013.674	0
1014.397	1
1015.12	0
