节点500_425_QEPB04081__349__15-54-06-777.txt的数据

Date: Wed Nov 12 15:54:06 CST 2025
User: PC
Spectrometer: QEPB0408
触发模式: 0
积分时间 (秒): 1.000000E-2
Scans to average: 1
启用暗噪声校正: true
启用非线性校正: false
滑动平均宽度: 0
X轴模式: Wavelengths
Number of Pixels in Spectrum: 1044
>>>>>Begin Spectral Data<<<<<
220.843	0.88
221.644	0.88
222.444	1.88
223.244	0.88
224.045	3.88
224.845	-0.12
225.645	0.88
226.445	4.88
227.245	4.88
228.045	3.88
228.845	3.88
229.645	5.88
230.444	2.88
231.244	5.88
232.043	4.88
232.843	6.88
233.642	4.88
234.442	5.88
235.241	5.88
236.04	3.88
236.839	7.88
237.638	4.88
238.437	2.88
239.236	6.88
240.035	5.88
240.833	6.88
241.632	6.88
242.43	7.88
243.229	8.88
244.027	8.88
244.826	7.88
245.624	9.88
246.422	8.88
247.22	9.88
248.018	7.88
248.816	7.88
249.614	7.88
250.412	7.88
251.21	8.88
252.007	10.88
252.805	10.88
253.602	8.88
254.4	11.88
255.197	11.88
255.994	12.88
256.791	10.88
257.589	14.88
258.386	11.88
259.183	11.88
259.979	13.88
260.776	11.88
261.573	12.88
262.37	14.88
263.166	12.88
263.963	15.88
264.759	17.88
265.556	14.88
266.352	17.88
267.148	16.88
267.944	19.88
268.74	20.88
269.536	20.88
270.332	18.88
271.128	21.88
271.924	18.88
272.719	19.88
273.515	21.88
274.311	18.88
275.106	21.88
275.901	19.88
276.697	22.88
277.492	24.88
278.287	22.88
279.082	23.88
279.877	26.88
280.672	24.88
281.467	23.88
282.262	22.88
283.056	21.88
283.851	22.88
284.646	25.88
285.44	21.88
286.234	19.88
287.029	25.88
287.823	22.88
288.617	22.88
289.411	23.88
290.205	24.88
290.999	22.88
291.793	19.88
292.587	21.88
293.381	19.88
294.174	21.88
294.968	19.88
295.761	18.88
296.555	20.88
297.348	18.88
298.141	19.88
298.935	18.88
299.728	20.88
300.521	18.88
301.314	16.88
302.107	16.88
302.899	14.88
303.692	14.88
304.485	15.88
305.277	15.88
306.07	16.88
306.862	16.88
307.655	16.88
308.447	13.88
309.239	11.88
310.031	13.88
310.823	11.88
311.615	14.88
312.407	10.88
313.199	9.88
313.991	9.88
314.783	10.88
315.574	10.88
316.366	10.88
317.157	10.88
317.949	9.88
318.74	11.88
319.531	11.88
320.322	10.88
321.113	8.88
321.904	9.88
322.695	7.88
323.486	9.88
324.277	8.88
325.068	8.88
325.858	9.88
326.649	7.88
327.439	10.88
328.23	9.88
329.02	6.88
329.81	5.88
330.6	5.88
331.391	5.88
332.181	7.88
332.971	8.88
333.76	9.88
334.55	7.88
335.34	5.88
336.13	8.88
336.919	9.88
337.709	8.88
338.498	9.88
339.287	7.88
340.077	6.88
340.866	7.88
341.655	6.88
342.444	9.88
343.233	5.88
344.022	9.88
344.811	5.88
345.6	6.88
346.388	8.88
347.177	6.88
347.965	8.88
348.754	7.88
349.542	6.88
350.33	5.88
351.119	5.88
351.907	9.88
352.695	7.88
353.483	9.88
354.271	5.88
355.059	6.88
355.846	5.88
356.634	7.88
357.422	7.88
358.209	6.88
358.997	7.88
359.784	2.88
360.571	7.88
361.359	6.88
362.146	5.88
362.933	8.88
363.72	6.88
364.507	5.88
365.294	6.88
366.081	7.88
366.867	6.88
367.654	7.88
368.44	5.88
369.227	4.88
370.013	7.88
370.8	6.88
371.586	5.88
372.372	4.88
373.158	5.88
373.944	5.88
374.73	4.88
375.516	6.88
376.302	4.88
377.088	4.88
377.873	7.88
378.659	7.88
379.445	7.88
380.23	6.88
381.015	5.88
381.801	6.88
382.586	4.88
383.371	6.88
384.156	6.88
384.941	7.88
385.726	5.88
386.511	7.88
387.296	5.88
388.08	6.88
388.865	8.88
389.649	7.88
390.434	6.88
391.218	8.88
392.003	8.88
392.787	6.88
393.571	6.88
394.355	9.88
395.139	6.88
395.923	8.88
396.707	7.88
397.491	6.88
398.274	8.88
399.058	8.88
399.842	8.88
400.625	9.88
401.408	6.88
402.192	9.88
402.975	8.88
403.758	11.88
404.541	9.88
405.324	8.88
406.107	8.88
406.89	7.88
407.673	8.88
408.456	7.88
409.238	9.88
410.021	8.88
410.803	9.88
411.586	11.88
412.368	11.88
413.151	11.88
413.933	10.88
414.715	13.88
415.497	11.88
416.279	12.88
417.061	12.88
417.843	12.88
418.624	11.88
419.406	15.88
420.188	10.88
420.969	16.88
421.751	15.88
422.532	11.88
423.313	14.88
424.095	15.88
424.876	14.88
425.657	15.88
426.438	15.88
427.219	12.88
428	15.88
428.78	18.88
429.561	16.88
430.342	20.88
431.122	18.88
431.903	21.88
432.683	19.88
433.464	20.88
434.244	23.88
435.024	22.88
435.804	25.88
436.584	25.88
437.364	26.88
438.144	30.88
438.924	27.88
439.704	30.88
440.483	31.88
441.263	34.88
442.042	37.88
442.822	41.88
443.601	43.88
444.38	41.88
445.16	49.88
445.939	52.88
446.718	55.88
447.497	59.88
448.276	63.88
449.054	70.88
449.833	81.88
450.612	87.88
451.391	93.88
452.169	100.88
452.948	117.88
453.726	125.88
454.504	135.88
455.282	153.88
456.061	169.88
456.839	189.88
457.617	207.88
458.395	231.88
459.172	262.88
459.95	286.88
460.728	324.88
461.506	365.88
462.283	406.88
463.061	448.88
463.838	500.88
464.615	556.88
465.393	628.88
466.17	685.88
466.947	774.88
467.724	862.88
468.501	965.88
469.278	1068.88
470.055	1174.88
470.831	1304.88
471.608	1439.88
472.385	1602.88
473.161	1759.88
473.938	1956.88
474.714	2131.88
475.49	2397.88
476.266	2615.88
477.043	2870.88
477.819	3165.88
478.595	3487.88
479.371	3828.88
480.146	4182.88
480.922	4618.88
481.698	5040.88
482.473	5497.88
483.249	6032.88
484.024	6622.88
484.8	7232.88
485.575	7865.88
486.35	8573.88
487.126	9330.88
487.901	10169.88
488.676	11092.88
489.451	12076.88
490.225	13057.88
491	14138.88
491.775	15313.88
492.55	16526.88
493.324	17815.88
494.099	18991.88
494.873	20350.88
495.647	21705.88
496.422	23078.88
497.196	24438.88
497.97	25985.88
498.744	27421.88
499.518	28675.88
500.292	29950.88
501.066	31016.88
501.839	32180.88
502.613	33115.88
503.387	33829.88
504.16	34374.88
504.934	34705.88
505.707	34860.88
506.48	34814.88
507.253	34581.88
508.027	34161.88
508.8	33744.88
509.573	33129.88
510.346	32257.88
511.118	31263.88
511.891	30443.88
512.664	29337.88
513.437	28276.88
514.209	27184.88
514.982	26149.88
515.754	25107.88
516.526	24050.88
517.298	23039.88
518.071	22078.88
518.843	21156.88
519.615	20365.88
520.387	19500.88
521.159	18704.88
521.93	18039.88
522.702	17337.88
523.474	16681.88
524.245	15993.88
525.017	15266.88
525.788	14586.88
526.56	13897.88
527.331	13258.88
528.102	12664.88
528.873	12074.88
529.644	11519.88
530.415	10929.88
531.186	10477.88
531.957	9847.88
532.728	9390.88
533.498	8900.88
534.269	8408.88
535.039	7973.88
535.81	7522.88
536.58	7052.88
537.351	6647.88
538.121	6305.88
538.891	5983.88
539.661	5697.88
540.431	5376.88
541.201	5068.88
541.971	4813.88
542.741	4578.88
543.51	4353.88
544.28	4145.88
545.05	3915.88
545.819	3741.88
546.588	3564.88
547.358	3360.88
548.127	3196.88
548.896	3042.88
549.665	2884.88
550.434	2746.88
551.203	2601.88
551.972	2472.88
552.741	2327.88
553.51	2199.88
554.278	2079.88
555.047	1971.88
555.815	1850.88
556.584	1748.88
557.352	1659.88
558.121	1560.88
558.889	1461.88
559.657	1385.88
560.425	1303.88
561.193	1232.88
561.961	1158.88
562.729	1116.88
563.496	1050.88
564.264	995.88
565.032	944.88
565.799	894.88
566.567	832.88
567.334	798.88
568.101	743.88
568.869	705.88
569.636	671.88
570.403	617.88
571.17	589.88
571.937	563.88
572.704	531.88
573.471	506.88
574.237	471.88
575.004	442.88
575.771	425.88
576.537	390.88
577.303	375.88
578.07	346.88
578.836	330.88
579.602	311.88
580.368	294.88
581.134	286.88
581.9	262.88
582.666	253.88
583.432	241.88
584.198	219.88
584.964	220.88
585.729	203.88
586.495	188.88
587.26	178.88
588.025	170.88
588.791	165.88
589.556	155.88
590.321	149.88
591.086	140.88
591.851	133.88
592.616	125.88
593.381	122.88
594.146	109.88
594.911	106.88
595.675	105.88
596.44	102.88
597.204	96.88
597.969	92.88
598.733	90.88
599.497	84.88
600.261	77.88
601.025	75.88
601.79	76.88
602.553	68.88
603.317	67.88
604.081	61.88
604.845	59.88
605.609	55.88
606.372	55.88
607.136	53.88
607.899	53.88
608.662	49.88
609.426	44.88
610.189	49.88
610.952	41.88
611.715	43.88
612.478	39.88
613.241	38.88
614.004	38.88
614.767	35.88
615.529	37.88
616.292	33.88
617.055	27.88
617.817	32.88
618.579	31.88
619.342	29.88
620.104	27.88
620.866	25.88
621.628	23.88
622.39	25.88
623.152	25.88
623.914	22.88
624.676	20.88
625.438	27.88
626.199	19.88
626.961	19.88
627.722	19.88
628.484	18.88
629.245	19.88
630.006	17.88
630.768	15.88
631.529	12.88
632.29	19.88
633.051	15.88
633.812	15.88
634.573	16.88
635.333	14.88
636.094	15.88
636.855	14.88
637.615	13.88
638.376	11.88
639.136	12.88
639.896	13.88
640.657	13.88
641.417	9.88
642.177	9.88
642.937	11.88
643.697	11.88
644.457	10.88
645.216	11.88
645.976	8.88
646.736	10.88
647.495	8.88
648.255	9.88
649.014	8.88
649.774	8.88
650.533	9.88
651.292	7.88
652.051	8.88
652.81	9.88
653.569	9.88
654.328	9.88
655.087	6.88
655.846	6.88
656.604	5.88
657.363	8.88
658.121	7.88
658.88	7.88
659.638	7.88
660.397	6.88
661.155	5.88
661.913	7.88
662.671	5.88
663.429	4.88
664.187	5.88
664.945	6.88
665.703	6.88
666.46	5.88
667.218	5.88
667.976	5.88
668.733	8.88
669.49	3.88
670.248	6.88
671.005	5.88
671.762	6.88
672.519	6.88
673.276	3.88
674.033	7.88
674.79	3.88
675.547	2.88
676.304	6.88
677.06	5.88
677.817	7.88
678.574	1.88
679.33	5.88
680.086	3.88
680.843	5.88
681.599	4.88
682.355	3.88
683.111	3.88
683.867	4.88
684.623	5.88
685.379	3.88
686.135	2.88
686.89	5.88
687.646	1.88
688.402	4.88
689.157	3.88
689.912	3.88
690.668	5.88
691.423	3.88
692.178	4.88
692.933	5.88
693.688	2.88
694.443	1.88
695.198	5.88
695.953	3.88
696.708	3.88
697.462	5.88
698.217	3.88
698.972	4.88
699.726	3.88
700.48	4.88
701.235	2.88
701.989	5.88
702.743	3.88
703.497	4.88
704.251	2.88
705.005	5.88
705.759	3.88
706.513	3.88
707.266	4.88
708.02	3.88
708.774	3.88
709.527	3.88
710.28	6.88
711.034	3.88
711.787	4.88
712.54	5.88
713.293	4.88
714.046	5.88
714.799	4.88
715.552	5.88
716.305	4.88
717.058	1.88
717.81	3.88
718.563	0.88
719.315	4.88
720.068	4.88
720.82	6.88
721.573	3.88
722.325	3.88
723.077	4.88
723.829	3.88
724.581	5.88
725.333	3.88
726.085	4.88
726.836	5.88
727.588	2.88
728.34	4.88
729.091	4.88
729.843	6.88
730.594	6.88
731.346	6.88
732.097	4.88
732.848	3.88
733.599	8.88
734.35	4.88
735.101	5.88
735.852	5.88
736.603	5.88
737.354	5.88
738.104	4.88
738.855	4.88
739.605	4.88
740.356	5.88
741.106	7.88
741.856	6.88
742.607	5.88
743.357	1.88
744.107	5.88
744.857	6.88
745.607	7.88
746.357	3.88
747.106	4.88
747.856	7.88
748.606	5.88
749.355	4.88
750.105	5.88
750.854	6.88
751.603	5.88
752.353	7.88
753.102	3.88
753.851	5.88
754.6	5.88
755.349	5.88
756.098	10.88
756.847	8.88
757.595	7.88
758.344	8.88
759.093	7.88
759.841	7.88
760.589	9.88
761.338	6.88
762.086	9.88
762.834	8.88
763.582	7.88
764.331	9.88
765.079	8.88
765.826	9.88
766.574	7.88
767.322	8.88
768.07	7.88
768.817	5.88
769.565	7.88
770.312	7.88
771.06	9.88
771.807	6.88
772.554	9.88
773.302	9.88
774.049	9.88
774.796	9.88
775.543	7.88
776.29	10.88
777.036	10.88
777.783	8.88
778.53	9.88
779.276	9.88
780.023	9.88
780.769	9.88
781.516	9.88
782.262	10.88
783.008	9.88
783.754	7.88
784.5	9.88
785.246	10.88
785.992	9.88
786.738	8.88
787.484	10.88
788.23	9.88
788.975	12.88
789.721	11.88
790.466	10.88
791.212	11.88
791.957	11.88
792.702	11.88
793.447	9.88
794.193	9.88
794.938	10.88
795.683	7.88
796.427	11.88
797.172	12.88
797.917	9.88
798.662	9.88
799.406	9.88
800.151	6.88
800.895	8.88
801.64	8.88
802.384	8.88
803.128	7.88
803.872	6.88
804.616	6.88
805.36	9.88
806.104	7.88
806.848	5.88
807.592	6.88
808.336	7.88
809.079	6.88
809.823	6.88
810.566	4.88
811.31	7.88
812.053	8.88
812.796	6.88
813.539	6.88
814.283	4.88
815.026	5.88
815.769	5.88
816.511	7.88
817.254	4.88
817.997	3.88
818.74	5.88
819.482	3.88
820.225	4.88
820.967	6.88
821.71	5.88
822.452	7.88
823.194	7.88
823.936	5.88
824.678	3.88
825.42	6.88
826.162	2.88
826.904	3.88
827.646	2.88
828.388	5.88
829.129	4.88
829.871	1.88
830.612	1.88
831.354	4.88
832.095	2.88
832.836	2.88
833.577	1.88
834.319	3.88
835.06	3.88
835.801	3.88
836.542	1.88
837.282	5.88
838.023	3.88
838.764	3.88
839.504	3.88
840.245	2.88
840.985	3.88
841.726	3.88
842.466	2.88
843.206	1.88
843.946	6.88
844.687	4.88
845.427	3.88
846.166	0.88
846.906	3.88
847.646	2.88
848.386	4.88
849.125	0.88
849.865	3.88
850.605	1.88
851.344	1.88
852.083	3.88
852.823	1.88
853.562	2.88
854.301	0.88
855.04	1.88
855.779	4.88
856.518	3.88
857.257	1.88
857.995	2.88
858.734	2.88
859.473	0.88
860.211	3.88
860.95	3.88
861.688	1.88
862.426	2.88
863.165	2.88
863.903	2.88
864.641	1.88
865.379	1.88
866.117	1.88
866.855	0.88
867.593	1.88
868.33	-0.12
869.068	3.88
869.806	1.88
870.543	0.88
871.28	0.88
872.018	-1.12
872.755	2.88
873.492	-0.12
874.229	-0.12
874.967	1.88
875.703	-0.12
876.44	-0.12
877.177	-0.12
877.914	0.88
878.651	0.88
879.387	-1.12
880.124	3.88
880.86	1.88
881.597	1.88
882.333	0.88
883.069	1.88
883.806	1.88
884.542	3.88
885.278	-0.12
886.014	-0.12
886.749	0.88
887.485	0.88
888.221	-0.12
888.957	0.88
889.692	-1.12
890.428	-0.12
891.163	-0.12
891.899	1.88
892.634	0.88
893.369	-0.12
894.104	1.88
894.839	0.88
895.574	1.88
896.309	-1.12
897.044	0.88
897.779	-2.12
898.514	-0.12
899.248	-0.12
899.983	0.88
900.717	-0.12
901.452	0.88
902.186	-0.12
902.92	-0.12
903.654	-0.12
904.389	-0.12
905.123	-1.12
905.857	-2.12
906.59	-0.12
907.324	0.88
908.058	0.88
908.792	0.88
909.525	0.88
910.259	-0.12
910.992	-0.12
911.726	-2.12
912.459	-0.12
913.192	0.88
913.925	-0.12
914.658	-0.12
915.391	0.88
916.124	-0.12
916.857	0.88
917.59	0.88
918.323	0.88
919.055	0.88
919.788	1.88
920.521	1.88
921.253	-2.12
921.985	-0.12
922.718	-2.12
923.45	0.88
924.182	-0.12
924.914	-1.12
925.646	-0.12
926.378	-0.12
927.11	-2.12
927.841	1.88
928.573	-0.12
929.305	0.88
930.036	-2.12
930.768	-0.12
931.499	-1.12
932.23	-0.12
932.962	-2.12
933.693	0.88
934.424	-2.12
935.155	-1.12
935.886	0.88
936.617	0.88
937.348	-2.12
938.078	-0.12
938.809	0.88
939.54	-0.12
940.27	-2.12
941.001	-0.12
941.731	-2.12
942.461	-0.12
943.191	-0.12
943.922	1.88
944.652	1.88
945.382	0.88
946.112	0.88
946.841	-1.12
947.571	-0.12
948.301	-0.12
949.031	-0.12
949.76	1.88
950.49	-0.12
951.219	-2.12
951.948	-2.12
952.678	-0.12
953.407	1.88
954.136	-1.12
954.865	-1.12
955.594	-1.12
956.323	0.88
957.052	-4.12
957.78	-0.12
958.509	0.88
959.238	-0.12
959.966	0.88
960.695	0.88
961.423	-0.12
962.151	-1.12
962.88	-1.12
963.608	-1.12
964.336	0.88
965.064	-0.12
965.792	-0.12
966.52	-1.12
967.247	0.88
967.975	1.88
968.703	0.88
969.43	-1.12
970.158	-3.12
970.885	-1.12
971.613	-0.12
972.34	-1.12
973.067	-2.12
973.794	0.88
974.521	-1.12
975.248	-2.12
975.975	-0.12
976.702	-1.12
977.429	-1.12
978.156	1.88
978.882	-0.12
979.609	0.88
980.335	0.88
981.062	-0.12
981.788	-2.12
982.514	-0.12
983.24	1.88
983.967	-1.12
984.693	-1.12
985.419	-2.12
986.144	-0.12
986.87	0.88
987.596	-1.12
988.322	0.88
989.047	-0.12
989.773	0.88
990.498	-1.12
991.224	-2.12
991.949	-0.12
992.674	-2.12
993.399	0.88
994.124	-0.12
994.849	-0.12
995.574	0.88
996.299	-1.12
997.024	0.88
997.749	-0.12
998.473	-0.12
999.198	-0.12
999.922	0.88
1000.647	-0.12
1001.371	2.88
1002.095	-2.12
1002.82	1.88
1003.544	-0.12
1004.268	3.88
1004.992	2.88
1005.716	2.88
1006.439	2.88
1007.163	1.88
1007.887	3.88
1008.611	1.88
1009.334	-0.12
1010.058	-1.12
1010.781	-0.12
1011.504	-0.12
1012.228	0.88
1012.951	-1.12
1013.674	-1.12
1014.397	-0.12
1015.12	-0.12
