节点500_425_QEPB04081__446__15-55-43-609.txt的数据

Date: Wed Nov 12 15:55:43 CST 2025
User: PC
Spectrometer: QEPB0408
触发模式: 0
积分时间 (秒): 1.000000E-2
Scans to average: 1
启用暗噪声校正: true
启用非线性校正: false
滑动平均宽度: 0
X轴模式: Wavelengths
Number of Pixels in Spectrum: 1044
>>>>>Begin Spectral Data<<<<<
220.843	2.25
221.644	3.25
222.444	3.25
223.244	1.25
224.045	4.25
224.845	6.25
225.645	6.25
226.445	5.25
227.245	5.25
228.045	3.25
228.845	5.25
229.645	4.25
230.444	4.25
231.244	6.25
232.043	3.25
232.843	6.25
233.642	6.25
234.442	6.25
235.241	7.25
236.04	6.25
236.839	5.25
237.638	7.25
238.437	5.25
239.236	8.25
240.035	9.25
240.833	9.25
241.632	9.25
242.43	8.25
243.229	8.25
244.027	8.25
244.826	9.25
245.624	8.25
246.422	10.25
247.22	7.25
248.018	10.25
248.816	11.25
249.614	10.25
250.412	9.25
251.21	7.25
252.007	10.25
252.805	10.25
253.602	11.25
254.4	11.25
255.197	13.25
255.994	12.25
256.791	15.25
257.589	11.25
258.386	15.25
259.183	13.25
259.979	14.25
260.776	14.25
261.573	16.25
262.37	15.25
263.166	17.25
263.963	14.25
264.759	16.25
265.556	18.25
266.352	16.25
267.148	18.25
267.944	19.25
268.74	19.25
269.536	21.25
270.332	21.25
271.128	19.25
271.924	19.25
272.719	23.25
273.515	22.25
274.311	23.25
275.106	21.25
275.901	20.25
276.697	22.25
277.492	24.25
278.287	25.25
279.082	21.25
279.877	22.25
280.672	22.25
281.467	24.25
282.262	25.25
283.056	25.25
283.851	23.25
284.646	25.25
285.44	23.25
286.234	24.25
287.029	25.25
287.823	20.25
288.617	23.25
289.411	22.25
290.205	24.25
290.999	21.25
291.793	22.25
292.587	24.25
293.381	22.25
294.174	20.25
294.968	22.25
295.761	21.25
296.555	20.25
297.348	20.25
298.141	19.25
298.935	21.25
299.728	19.25
300.521	21.25
301.314	19.25
302.107	19.25
302.899	18.25
303.692	16.25
304.485	16.25
305.277	17.25
306.07	19.25
306.862	17.25
307.655	15.25
308.447	17.25
309.239	15.25
310.031	14.25
310.823	14.25
311.615	15.25
312.407	13.25
313.199	13.25
313.991	11.25
314.783	14.25
315.574	12.25
316.366	13.25
317.157	10.25
317.949	11.25
318.74	11.25
319.531	13.25
320.322	10.25
321.113	12.25
321.904	8.25
322.695	12.25
323.486	10.25
324.277	10.25
325.068	9.25
325.858	9.25
326.649	10.25
327.439	8.25
328.23	10.25
329.02	7.25
329.81	10.25
330.6	9.25
331.391	10.25
332.181	11.25
332.971	7.25
333.76	8.25
334.55	9.25
335.34	11.25
336.13	11.25
336.919	8.25
337.709	9.25
338.498	7.25
339.287	10.25
340.077	8.25
340.866	10.25
341.655	8.25
342.444	7.25
343.233	9.25
344.022	8.25
344.811	11.25
345.6	7.25
346.388	10.25
347.177	6.25
347.965	12.25
348.754	8.25
349.542	9.25
350.33	8.25
351.119	9.25
351.907	10.25
352.695	8.25
353.483	10.25
354.271	6.25
355.059	8.25
355.846	4.25
356.634	8.25
357.422	9.25
358.209	10.25
358.997	10.25
359.784	6.25
360.571	8.25
361.359	8.25
362.146	8.25
362.933	7.25
363.72	7.25
364.507	8.25
365.294	7.25
366.081	6.25
366.867	7.25
367.654	8.25
368.44	8.25
369.227	7.25
370.013	7.25
370.8	6.25
371.586	8.25
372.372	5.25
373.158	9.25
373.944	6.25
374.73	6.25
375.516	7.25
376.302	7.25
377.088	7.25
377.873	5.25
378.659	7.25
379.445	8.25
380.23	7.25
381.015	6.25
381.801	8.25
382.586	9.25
383.371	6.25
384.156	8.25
384.941	9.25
385.726	9.25
386.511	8.25
387.296	6.25
388.08	8.25
388.865	10.25
389.649	8.25
390.434	9.25
391.218	8.25
392.003	6.25
392.787	9.25
393.571	8.25
394.355	10.25
395.139	8.25
395.923	9.25
396.707	10.25
397.491	10.25
398.274	11.25
399.058	8.25
399.842	9.25
400.625	9.25
401.408	8.25
402.192	11.25
402.975	11.25
403.758	11.25
404.541	10.25
405.324	11.25
406.107	9.25
406.89	10.25
407.673	10.25
408.456	12.25
409.238	9.25
410.021	12.25
410.803	9.25
411.586	11.25
412.368	10.25
413.151	10.25
413.933	12.25
414.715	10.25
415.497	12.25
416.279	11.25
417.061	15.25
417.843	13.25
418.624	15.25
419.406	14.25
420.188	15.25
420.969	17.25
421.751	16.25
422.532	13.25
423.313	17.25
424.095	17.25
424.876	19.25
425.657	16.25
426.438	16.25
427.219	18.25
428	17.25
428.78	22.25
429.561	18.25
430.342	19.25
431.122	17.25
431.903	20.25
432.683	24.25
433.464	23.25
434.244	24.25
435.024	25.25
435.804	24.25
436.584	27.25
437.364	27.25
438.144	29.25
438.924	30.25
439.704	33.25
440.483	36.25
441.263	35.25
442.042	39.25
442.822	41.25
443.601	48.25
444.38	46.25
445.16	52.25
445.939	53.25
446.718	63.25
447.497	65.25
448.276	71.25
449.054	77.25
449.833	79.25
450.612	95.25
451.391	99.25
452.169	106.25
452.948	121.25
453.726	129.25
454.504	142.25
455.282	160.25
456.061	178.25
456.839	204.25
457.617	227.25
458.395	244.25
459.172	267.25
459.95	303.25
460.728	336.25
461.506	373.25
462.283	419.25
463.061	461.25
463.838	524.25
464.615	581.25
465.393	637.25
466.17	701.25
466.947	796.25
467.724	878.25
468.501	986.25
469.278	1074.25
470.055	1187.25
470.831	1328.25
471.608	1466.25
472.385	1620.25
473.161	1788.25
473.938	1953.25
474.714	2153.25
475.49	2358.25
476.266	2610.25
477.043	2856.25
477.819	3150.25
478.595	3459.25
479.371	3802.25
480.146	4131.25
480.922	4537.25
481.698	4969.25
482.473	5389.25
483.249	5884.25
484.024	6435.25
484.8	7041.25
485.575	7648.25
486.35	8276.25
487.126	9007.25
487.901	9792.25
488.676	10649.25
489.451	11546.25
490.225	12496.25
491	13525.25
491.775	14617.25
492.55	15707.25
493.324	16909.25
494.099	18104.25
494.873	19269.25
495.647	20581.25
496.422	21900.25
497.196	23243.25
497.97	24718.25
498.744	25971.25
499.518	27269.25
500.292	28474.25
501.066	29564.25
501.839	30734.25
502.613	31640.25
503.387	32453.25
504.16	33036.25
504.934	33523.25
505.707	33715.25
506.48	33695.25
507.253	33618.25
508.027	33458.25
508.8	33011.25
509.573	32470.25
510.346	31839.25
511.118	31023.25
511.891	30234.25
512.664	29222.25
513.437	28190.25
514.209	27085.25
514.982	26182.25
515.754	25228.25
516.526	24113.25
517.298	23187.25
518.071	22130.25
518.843	21318.25
519.615	20384.25
520.387	19616.25
521.159	18899.25
521.93	18150.25
522.702	17432.25
523.474	16786.25
524.245	16119.25
525.017	15340.25
525.788	14665.25
526.56	13999.25
527.331	13422.25
528.102	12840.25
528.873	12201.25
529.644	11635.25
530.415	11119.25
531.186	10631.25
531.957	10035.25
532.728	9558.25
533.498	9039.25
534.269	8540.25
535.039	8078.25
535.81	7718.25
536.58	7259.25
537.351	6824.25
538.121	6483.25
538.891	6126.25
539.661	5849.25
540.431	5512.25
541.201	5204.25
541.971	4924.25
542.741	4676.25
543.51	4459.25
544.28	4226.25
545.05	4009.25
545.819	3864.25
546.588	3628.25
547.358	3431.25
548.127	3293.25
548.896	3110.25
549.665	2953.25
550.434	2793.25
551.203	2682.25
551.972	2521.25
552.741	2391.25
553.51	2243.25
554.278	2131.25
555.047	2003.25
555.815	1918.25
556.584	1799.25
557.352	1695.25
558.121	1594.25
558.889	1511.25
559.657	1440.25
560.425	1358.25
561.193	1287.25
561.961	1214.25
562.729	1150.25
563.496	1085.25
564.264	1034.25
565.032	961.25
565.799	921.25
566.567	879.25
567.334	808.25
568.101	786.25
568.869	736.25
569.636	689.25
570.403	658.25
571.17	608.25
571.937	569.25
572.704	549.25
573.471	524.25
574.237	490.25
575.004	466.25
575.771	430.25
576.537	402.25
577.303	384.25
578.07	364.25
578.836	337.25
579.602	325.25
580.368	311.25
581.134	286.25
581.9	274.25
582.666	255.25
583.432	250.25
584.198	239.25
584.964	225.25
585.729	214.25
586.495	206.25
587.26	188.25
588.025	174.25
588.791	169.25
589.556	163.25
590.321	154.25
591.086	144.25
591.851	144.25
592.616	131.25
593.381	128.25
594.146	119.25
594.911	115.25
595.675	110.25
596.44	106.25
597.204	101.25
597.969	97.25
598.733	89.25
599.497	87.25
600.261	83.25
601.025	77.25
601.79	74.25
602.553	69.25
603.317	70.25
604.081	66.25
604.845	64.25
605.609	59.25
606.372	57.25
607.136	58.25
607.899	53.25
608.662	53.25
609.426	47.25
610.189	46.25
610.952	48.25
611.715	44.25
612.478	45.25
613.241	40.25
614.004	43.25
614.767	39.25
615.529	35.25
616.292	32.25
617.055	33.25
617.817	34.25
618.579	33.25
619.342	33.25
620.104	31.25
620.866	29.25
621.628	30.25
622.39	27.25
623.152	30.25
623.914	25.25
624.676	26.25
625.438	25.25
626.199	21.25
626.961	21.25
627.722	22.25
628.484	21.25
629.245	22.25
630.006	22.25
630.768	19.25
631.529	17.25
632.29	19.25
633.051	17.25
633.812	18.25
634.573	16.25
635.333	17.25
636.094	18.25
636.855	15.25
637.615	14.25
638.376	15.25
639.136	14.25
639.896	14.25
640.657	12.25
641.417	13.25
642.177	12.25
642.937	13.25
643.697	14.25
644.457	10.25
645.216	13.25
645.976	10.25
646.736	13.25
647.495	11.25
648.255	11.25
649.014	11.25
649.774	10.25
650.533	12.25
651.292	11.25
652.051	12.25
652.81	10.25
653.569	8.25
654.328	11.25
655.087	11.25
655.846	10.25
656.604	7.25
657.363	10.25
658.121	6.25
658.88	9.25
659.638	11.25
660.397	9.25
661.155	10.25
661.913	8.25
662.671	6.25
663.429	9.25
664.187	6.25
664.945	7.25
665.703	7.25
666.46	6.25
667.218	6.25
667.976	7.25
668.733	8.25
669.49	6.25
670.248	8.25
671.005	5.25
671.762	7.25
672.519	8.25
673.276	7.25
674.033	5.25
674.79	7.25
675.547	7.25
676.304	7.25
677.06	4.25
677.817	8.25
678.574	4.25
679.33	8.25
680.086	7.25
680.843	4.25
681.599	7.25
682.355	5.25
683.111	7.25
683.867	5.25
684.623	7.25
685.379	5.25
686.135	3.25
686.89	6.25
687.646	6.25
688.402	8.25
689.157	5.25
689.912	7.25
690.668	7.25
691.423	3.25
692.178	9.25
692.933	8.25
693.688	6.25
694.443	8.25
695.198	5.25
695.953	5.25
696.708	7.25
697.462	8.25
698.217	7.25
698.972	3.25
699.726	6.25
700.48	7.25
701.235	5.25
701.989	3.25
702.743	4.25
703.497	5.25
704.251	6.25
705.005	6.25
705.759	4.25
706.513	5.25
707.266	7.25
708.02	7.25
708.774	6.25
709.527	4.25
710.28	5.25
711.034	5.25
711.787	5.25
712.54	6.25
713.293	5.25
714.046	8.25
714.799	6.25
715.552	7.25
716.305	4.25
717.058	7.25
717.81	6.25
718.563	4.25
719.315	7.25
720.068	5.25
720.82	6.25
721.573	6.25
722.325	5.25
723.077	6.25
723.829	4.25
724.581	8.25
725.333	6.25
726.085	6.25
726.836	4.25
727.588	8.25
728.34	6.25
729.091	8.25
729.843	6.25
730.594	7.25
731.346	4.25
732.097	6.25
732.848	6.25
733.599	6.25
734.35	8.25
735.101	6.25
735.852	5.25
736.603	5.25
737.354	6.25
738.104	9.25
738.855	8.25
739.605	6.25
740.356	6.25
741.106	8.25
741.856	6.25
742.607	8.25
743.357	7.25
744.107	9.25
744.857	8.25
745.607	6.25
746.357	6.25
747.106	8.25
747.856	9.25
748.606	7.25
749.355	8.25
750.105	7.25
750.854	7.25
751.603	8.25
752.353	7.25
753.102	8.25
753.851	7.25
754.6	8.25
755.349	8.25
756.098	7.25
756.847	10.25
757.595	8.25
758.344	6.25
759.093	10.25
759.841	7.25
760.589	9.25
761.338	7.25
762.086	9.25
762.834	10.25
763.582	10.25
764.331	9.25
765.079	8.25
765.826	12.25
766.574	9.25
767.322	8.25
768.07	11.25
768.817	10.25
769.565	9.25
770.312	9.25
771.06	12.25
771.807	11.25
772.554	8.25
773.302	9.25
774.049	11.25
774.796	11.25
775.543	12.25
776.29	10.25
777.036	14.25
777.783	11.25
778.53	9.25
779.276	11.25
780.023	12.25
780.769	11.25
781.516	9.25
782.262	10.25
783.008	8.25
783.754	10.25
784.5	10.25
785.246	12.25
785.992	13.25
786.738	13.25
787.484	10.25
788.23	11.25
788.975	13.25
789.721	10.25
790.466	12.25
791.212	12.25
791.957	10.25
792.702	11.25
793.447	13.25
794.193	9.25
794.938	11.25
795.683	9.25
796.427	11.25
797.172	11.25
797.917	10.25
798.662	9.25
799.406	11.25
800.151	10.25
800.895	9.25
801.64	11.25
802.384	10.25
803.128	7.25
803.872	10.25
804.616	8.25
805.36	10.25
806.104	8.25
806.848	9.25
807.592	7.25
808.336	6.25
809.079	9.25
809.823	9.25
810.566	9.25
811.31	7.25
812.053	6.25
812.796	9.25
813.539	9.25
814.283	7.25
815.026	8.25
815.769	5.25
816.511	8.25
817.254	7.25
817.997	9.25
818.74	5.25
819.482	5.25
820.225	6.25
820.967	9.25
821.71	4.25
822.452	7.25
823.194	7.25
823.936	6.25
824.678	7.25
825.42	6.25
826.162	4.25
826.904	10.25
827.646	4.25
828.388	7.25
829.129	5.25
829.871	5.25
830.612	7.25
831.354	7.25
832.095	4.25
832.836	4.25
833.577	2.25
834.319	7.25
835.06	4.25
835.801	6.25
836.542	5.25
837.282	5.25
838.023	6.25
838.764	5.25
839.504	5.25
840.245	7.25
840.985	5.25
841.726	6.25
842.466	6.25
843.206	4.25
843.946	4.25
844.687	2.25
845.427	3.25
846.166	4.25
846.906	6.25
847.646	2.25
848.386	4.25
849.125	3.25
849.865	5.25
850.605	3.25
851.344	4.25
852.083	3.25
852.823	4.25
853.562	3.25
854.301	3.25
855.04	5.25
855.779	6.25
856.518	4.25
857.257	4.25
857.995	4.25
858.734	3.25
859.473	2.25
860.211	3.25
860.95	3.25
861.688	5.25
862.426	3.25
863.165	3.25
863.903	4.25
864.641	4.25
865.379	3.25
866.117	6.25
866.855	3.25
867.593	2.25
868.33	0.25
869.068	4.25
869.806	2.25
870.543	2.25
871.28	3.25
872.018	2.25
872.755	5.25
873.492	1.25
874.229	2.25
874.967	2.25
875.703	2.25
876.44	2.25
877.177	0.25
877.914	2.25
878.651	2.25
879.387	1.25
880.124	-0.75
880.86	2.25
881.597	3.25
882.333	2.25
883.069	2.25
883.806	1.25
884.542	1.25
885.278	1.25
886.014	2.25
886.749	1.25
887.485	3.25
888.221	2.25
888.957	3.25
889.692	1.25
890.428	3.25
891.163	1.25
891.899	1.25
892.634	1.25
893.369	3.25
894.104	1.25
894.839	0.25
895.574	1.25
896.309	1.25
897.044	3.25
897.779	2.25
898.514	2.25
899.248	3.25
899.983	3.25
900.717	1.25
901.452	0.25
902.186	1.25
902.92	1.25
903.654	1.25
904.389	-0.75
905.123	1.25
905.857	2.25
906.59	1.25
907.324	2.25
908.058	3.25
908.792	2.25
909.525	1.25
910.259	3.25
910.992	2.25
911.726	3.25
912.459	1.25
913.192	2.25
913.925	3.25
914.658	1.25
915.391	1.25
916.124	-0.75
916.857	2.25
917.59	1.25
918.323	2.25
919.055	0.25
919.788	1.25
920.521	2.25
921.253	1.25
921.985	2.25
922.718	0.25
923.45	2.25
924.182	0.25
924.914	1.25
925.646	0.25
926.378	-0.75
927.11	1.25
927.841	2.25
928.573	1.25
929.305	0.25
930.036	1.25
930.768	1.25
931.499	0.25
932.23	2.25
932.962	1.25
933.693	1.25
934.424	2.25
935.155	2.25
935.886	1.25
936.617	0.25
937.348	1.25
938.078	1.25
938.809	1.25
939.54	-0.75
940.27	2.25
941.001	-0.75
941.731	2.25
942.461	0.25
943.191	2.25
943.922	1.25
944.652	0.25
945.382	0.25
946.112	1.25
946.841	1.25
947.571	2.25
948.301	0.25
949.031	1.25
949.76	2.25
950.49	1.25
951.219	1.25
951.948	4.25
952.678	0.25
953.407	-0.75
954.136	1.25
954.865	0.25
955.594	0.25
956.323	1.25
957.052	0.25
957.78	-1.75
958.509	2.25
959.238	1.25
959.966	-0.75
960.695	4.25
961.423	0.25
962.151	1.25
962.88	1.25
963.608	0.25
964.336	0.25
965.064	0.25
965.792	1.25
966.52	2.25
967.247	2.25
967.975	1.25
968.703	1.25
969.43	2.25
970.158	1.25
970.885	1.25
971.613	-0.75
972.34	2.25
973.067	1.25
973.794	1.25
974.521	2.25
975.248	2.25
975.975	1.25
976.702	1.25
977.429	2.25
978.156	-0.75
978.882	0.25
979.609	0.25
980.335	1.25
981.062	2.25
981.788	-0.75
982.514	1.25
983.24	2.25
983.967	1.25
984.693	1.25
985.419	1.25
986.144	-0.75
986.87	1.25
987.596	2.25
988.322	3.25
989.047	1.25
989.773	1.25
990.498	3.25
991.224	0.25
991.949	1.25
992.674	1.25
993.399	1.25
994.124	0.25
994.849	1.25
995.574	2.25
996.299	0.25
997.024	2.25
997.749	1.25
998.473	1.25
999.198	-0.75
999.922	-1.75
1000.647	1.25
1001.371	3.25
1002.095	-1.75
1002.82	0.25
1003.544	-4.75
1004.268	3.25
1004.992	2.25
1005.716	3.25
1006.439	1.25
1007.163	6.25
1007.887	3.25
1008.611	0.25
1009.334	0.25
1010.058	-0.75
1010.781	-1.75
1011.504	1.25
1012.228	1.25
1012.951	0.25
1013.674	0.25
1014.397	1.25
1015.12	1.25
