节点500_425_QEPB04081__43__15-49-01-453.txt的数据

Date: Wed Nov 12 15:49:01 CST 2025
User: PC
Spectrometer: QEPB0408
触发模式: 0
积分时间 (秒): 1.000000E-2
Scans to average: 1
启用暗噪声校正: true
启用非线性校正: false
滑动平均宽度: 0
X轴模式: Wavelengths
Number of Pixels in Spectrum: 1044
>>>>>Begin Spectral Data<<<<<
220.843	2.38
221.644	4.38
222.444	2.38
223.244	4.38
224.045	5.38
224.845	5.38
225.645	5.38
226.445	6.38
227.245	4.38
228.045	6.38
228.845	1.38
229.645	6.38
230.444	6.38
231.244	5.38
232.043	5.38
232.843	7.38
233.642	7.38
234.442	6.38
235.241	7.38
236.04	8.38
236.839	4.38
237.638	6.38
238.437	8.38
239.236	7.38
240.035	5.38
240.833	7.38
241.632	9.38
242.43	7.38
243.229	7.38
244.027	6.38
244.826	7.38
245.624	5.38
246.422	10.38
247.22	8.38
248.018	10.38
248.816	10.38
249.614	9.38
250.412	11.38
251.21	10.38
252.007	10.38
252.805	13.38
253.602	10.38
254.4	12.38
255.197	14.38
255.994	14.38
256.791	13.38
257.589	14.38
258.386	15.38
259.183	14.38
259.979	14.38
260.776	15.38
261.573	14.38
262.37	15.38
263.166	17.38
263.963	18.38
264.759	18.38
265.556	20.38
266.352	18.38
267.148	16.38
267.944	23.38
268.74	21.38
269.536	21.38
270.332	21.38
271.128	22.38
271.924	21.38
272.719	25.38
273.515	25.38
274.311	27.38
275.106	29.38
275.901	27.38
276.697	24.38
277.492	26.38
278.287	26.38
279.082	28.38
279.877	24.38
280.672	25.38
281.467	28.38
282.262	24.38
283.056	26.38
283.851	27.38
284.646	25.38
285.44	28.38
286.234	25.38
287.029	27.38
287.823	24.38
288.617	26.38
289.411	25.38
290.205	23.38
290.999	26.38
291.793	27.38
292.587	24.38
293.381	26.38
294.174	22.38
294.968	24.38
295.761	19.38
296.555	21.38
297.348	17.38
298.141	23.38
298.935	22.38
299.728	21.38
300.521	21.38
301.314	18.38
302.107	16.38
302.899	17.38
303.692	19.38
304.485	17.38
305.277	13.38
306.07	14.38
306.862	15.38
307.655	15.38
308.447	15.38
309.239	15.38
310.031	16.38
310.823	12.38
311.615	17.38
312.407	15.38
313.199	16.38
313.991	13.38
314.783	11.38
315.574	14.38
316.366	11.38
317.157	13.38
317.949	8.38
318.74	10.38
319.531	7.38
320.322	11.38
321.113	10.38
321.904	8.38
322.695	11.38
323.486	9.38
324.277	10.38
325.068	9.38
325.858	11.38
326.649	9.38
327.439	10.38
328.23	9.38
329.02	9.38
329.81	10.38
330.6	9.38
331.391	9.38
332.181	9.38
332.971	10.38
333.76	10.38
334.55	9.38
335.34	6.38
336.13	10.38
336.919	7.38
337.709	10.38
338.498	6.38
339.287	7.38
340.077	10.38
340.866	8.38
341.655	10.38
342.444	8.38
343.233	7.38
344.022	9.38
344.811	7.38
345.6	8.38
346.388	8.38
347.177	6.38
347.965	8.38
348.754	7.38
349.542	9.38
350.33	8.38
351.119	10.38
351.907	7.38
352.695	8.38
353.483	8.38
354.271	6.38
355.059	7.38
355.846	7.38
356.634	6.38
357.422	7.38
358.209	6.38
358.997	7.38
359.784	7.38
360.571	7.38
361.359	8.38
362.146	6.38
362.933	7.38
363.72	7.38
364.507	6.38
365.294	5.38
366.081	8.38
366.867	8.38
367.654	7.38
368.44	8.38
369.227	5.38
370.013	5.38
370.8	8.38
371.586	6.38
372.372	8.38
373.158	6.38
373.944	9.38
374.73	6.38
375.516	11.38
376.302	7.38
377.088	7.38
377.873	5.38
378.659	4.38
379.445	7.38
380.23	7.38
381.015	8.38
381.801	8.38
382.586	7.38
383.371	8.38
384.156	6.38
384.941	7.38
385.726	8.38
386.511	7.38
387.296	8.38
388.08	7.38
388.865	8.38
389.649	6.38
390.434	10.38
391.218	6.38
392.003	7.38
392.787	11.38
393.571	8.38
394.355	7.38
395.139	7.38
395.923	10.38
396.707	8.38
397.491	9.38
398.274	10.38
399.058	11.38
399.842	10.38
400.625	11.38
401.408	10.38
402.192	13.38
402.975	9.38
403.758	12.38
404.541	10.38
405.324	12.38
406.107	9.38
406.89	10.38
407.673	10.38
408.456	10.38
409.238	10.38
410.021	10.38
410.803	12.38
411.586	13.38
412.368	13.38
413.151	10.38
413.933	13.38
414.715	13.38
415.497	14.38
416.279	10.38
417.061	13.38
417.843	12.38
418.624	11.38
419.406	16.38
420.188	13.38
420.969	16.38
421.751	15.38
422.532	17.38
423.313	15.38
424.095	20.38
424.876	16.38
425.657	18.38
426.438	19.38
427.219	16.38
428	16.38
428.78	16.38
429.561	19.38
430.342	22.38
431.122	20.38
431.903	22.38
432.683	23.38
433.464	23.38
434.244	25.38
435.024	25.38
435.804	29.38
436.584	25.38
437.364	28.38
438.144	27.38
438.924	28.38
439.704	34.38
440.483	34.38
441.263	36.38
442.042	35.38
442.822	41.38
443.601	42.38
444.38	42.38
445.16	47.38
445.939	47.38
446.718	55.38
447.497	58.38
448.276	61.38
449.054	72.38
449.833	71.38
450.612	78.38
451.391	81.38
452.169	94.38
452.948	102.38
453.726	113.38
454.504	126.38
455.282	139.38
456.061	156.38
456.839	169.38
457.617	192.38
458.395	210.38
459.172	234.38
459.95	264.38
460.728	289.38
461.506	329.38
462.283	359.38
463.061	401.38
463.838	453.38
464.615	524.38
465.393	571.38
466.17	638.38
466.947	722.38
467.724	805.38
468.501	896.38
469.278	1003.38
470.055	1096.38
470.831	1241.38
471.608	1385.38
472.385	1545.38
473.161	1715.38
473.938	1926.38
474.714	2133.38
475.49	2346.38
476.266	2616.38
477.043	2899.38
477.819	3202.38
478.595	3551.38
479.371	3943.38
480.146	4343.38
480.922	4769.38
481.698	5279.38
482.473	5822.38
483.249	6424.38
484.024	7113.38
484.8	7809.38
485.575	8561.38
486.35	9408.38
487.126	10320.38
487.901	11298.38
488.676	12401.38
489.451	13509.38
490.225	14722.38
491	16069.38
491.775	17484.38
492.55	18950.38
493.324	20406.38
494.099	21953.38
494.873	23419.38
495.647	25019.38
496.422	26621.38
497.196	28179.38
497.97	29804.38
498.744	31352.38
499.518	32786.38
500.292	33979.38
501.066	35096.38
501.839	36074.38
502.613	36928.38
503.387	37470.38
504.16	37800.38
504.934	37772.38
505.707	37687.38
506.48	37234.38
507.253	36550.38
508.027	35928.38
508.8	35155.38
509.573	34130.38
510.346	33029.38
511.118	31945.38
511.891	30679.38
512.664	29482.38
513.437	28163.38
514.209	26865.38
514.982	25779.38
515.754	24710.38
516.526	23558.38
517.298	22555.38
518.071	21538.38
518.843	20688.38
519.615	19831.38
520.387	19089.38
521.159	18307.38
521.93	17698.38
522.702	16954.38
523.474	16253.38
524.245	15581.38
525.017	14871.38
525.788	14150.38
526.56	13464.38
527.331	12827.38
528.102	12190.38
528.873	11583.38
529.644	11012.38
530.415	10488.38
531.186	9925.38
531.957	9404.38
532.728	8899.38
533.498	8391.38
534.269	7840.38
535.039	7449.38
535.81	7031.38
536.58	6632.38
537.351	6237.38
538.121	5922.38
538.891	5616.38
539.661	5304.38
540.431	5071.38
541.201	4773.38
541.971	4534.38
542.741	4289.38
543.51	4064.38
544.28	3865.38
545.05	3694.38
545.819	3504.38
546.588	3326.38
547.358	3178.38
548.127	2989.38
548.896	2814.38
549.665	2680.38
550.434	2546.38
551.203	2410.38
551.972	2261.38
552.741	2154.38
553.51	2053.38
554.278	1916.38
555.047	1781.38
555.815	1689.38
556.584	1613.38
557.352	1515.38
558.121	1411.38
558.889	1341.38
559.657	1268.38
560.425	1183.38
561.193	1142.38
561.961	1068.38
562.729	1011.38
563.496	965.38
564.264	901.38
565.032	856.38
565.799	813.38
566.567	769.38
567.334	723.38
568.101	694.38
568.869	650.38
569.636	620.38
570.403	578.38
571.17	541.38
571.937	510.38
572.704	489.38
573.471	462.38
574.237	434.38
575.004	407.38
575.771	375.38
576.537	354.38
577.303	336.38
578.07	318.38
578.836	306.38
579.602	280.38
580.368	271.38
581.134	259.38
581.9	245.38
582.666	232.38
583.432	217.38
584.198	207.38
584.964	198.38
585.729	189.38
586.495	177.38
587.26	166.38
588.025	161.38
588.791	153.38
589.556	142.38
590.321	137.38
591.086	126.38
591.851	121.38
592.616	119.38
593.381	113.38
594.146	104.38
594.911	108.38
595.675	98.38
596.44	92.38
597.204	90.38
597.969	84.38
598.733	80.38
599.497	79.38
600.261	75.38
601.025	70.38
601.79	68.38
602.553	67.38
603.317	61.38
604.081	61.38
604.845	60.38
605.609	54.38
606.372	56.38
607.136	50.38
607.899	49.38
608.662	48.38
609.426	46.38
610.189	45.38
610.952	41.38
611.715	38.38
612.478	39.38
613.241	40.38
614.004	34.38
614.767	36.38
615.529	35.38
616.292	29.38
617.055	34.38
617.817	30.38
618.579	30.38
619.342	30.38
620.104	30.38
620.866	28.38
621.628	26.38
622.39	23.38
623.152	26.38
623.914	24.38
624.676	22.38
625.438	22.38
626.199	22.38
626.961	23.38
627.722	22.38
628.484	18.38
629.245	19.38
630.006	18.38
630.768	19.38
631.529	17.38
632.29	17.38
633.051	16.38
633.812	15.38
634.573	16.38
635.333	15.38
636.094	14.38
636.855	13.38
637.615	14.38
638.376	13.38
639.136	13.38
639.896	14.38
640.657	14.38
641.417	10.38
642.177	12.38
642.937	10.38
643.697	10.38
644.457	12.38
645.216	9.38
645.976	9.38
646.736	10.38
647.495	13.38
648.255	12.38
649.014	11.38
649.774	12.38
650.533	8.38
651.292	11.38
652.051	12.38
652.81	8.38
653.569	9.38
654.328	9.38
655.087	7.38
655.846	6.38
656.604	10.38
657.363	8.38
658.121	8.38
658.88	7.38
659.638	8.38
660.397	5.38
661.155	8.38
661.913	10.38
662.671	9.38
663.429	8.38
664.187	7.38
664.945	8.38
665.703	6.38
666.46	6.38
667.218	8.38
667.976	8.38
668.733	7.38
669.49	8.38
670.248	8.38
671.005	6.38
671.762	4.38
672.519	6.38
673.276	6.38
674.033	4.38
674.79	5.38
675.547	7.38
676.304	8.38
677.06	7.38
677.817	5.38
678.574	6.38
679.33	6.38
680.086	6.38
680.843	7.38
681.599	4.38
682.355	5.38
683.111	7.38
683.867	5.38
684.623	6.38
685.379	5.38
686.135	3.38
686.89	4.38
687.646	4.38
688.402	5.38
689.157	5.38
689.912	5.38
690.668	6.38
691.423	6.38
692.178	6.38
692.933	4.38
693.688	7.38
694.443	5.38
695.198	3.38
695.953	4.38
696.708	4.38
697.462	4.38
698.217	7.38
698.972	4.38
699.726	5.38
700.48	6.38
701.235	4.38
701.989	6.38
702.743	4.38
703.497	3.38
704.251	6.38
705.005	7.38
705.759	4.38
706.513	4.38
707.266	4.38
708.02	5.38
708.774	4.38
709.527	6.38
710.28	4.38
711.034	4.38
711.787	4.38
712.54	5.38
713.293	2.38
714.046	4.38
714.799	7.38
715.552	3.38
716.305	4.38
717.058	7.38
717.81	5.38
718.563	6.38
719.315	6.38
720.068	3.38
720.82	5.38
721.573	6.38
722.325	6.38
723.077	6.38
723.829	6.38
724.581	4.38
725.333	6.38
726.085	5.38
726.836	7.38
727.588	4.38
728.34	2.38
729.091	7.38
729.843	4.38
730.594	7.38
731.346	6.38
732.097	6.38
732.848	4.38
733.599	6.38
734.35	5.38
735.101	3.38
735.852	6.38
736.603	3.38
737.354	7.38
738.104	7.38
738.855	4.38
739.605	9.38
740.356	4.38
741.106	7.38
741.856	7.38
742.607	9.38
743.357	7.38
744.107	7.38
744.857	9.38
745.607	5.38
746.357	8.38
747.106	5.38
747.856	7.38
748.606	7.38
749.355	7.38
750.105	7.38
750.854	6.38
751.603	9.38
752.353	9.38
753.102	6.38
753.851	7.38
754.6	6.38
755.349	6.38
756.098	11.38
756.847	8.38
757.595	7.38
758.344	7.38
759.093	9.38
759.841	10.38
760.589	8.38
761.338	12.38
762.086	7.38
762.834	12.38
763.582	7.38
764.331	12.38
765.079	9.38
765.826	9.38
766.574	10.38
767.322	11.38
768.07	11.38
768.817	10.38
769.565	8.38
770.312	11.38
771.06	10.38
771.807	14.38
772.554	10.38
773.302	14.38
774.049	11.38
774.796	11.38
775.543	12.38
776.29	12.38
777.036	12.38
777.783	13.38
778.53	14.38
779.276	11.38
780.023	14.38
780.769	12.38
781.516	11.38
782.262	12.38
783.008	12.38
783.754	12.38
784.5	10.38
785.246	13.38
785.992	12.38
786.738	14.38
787.484	12.38
788.23	15.38
788.975	10.38
789.721	12.38
790.466	11.38
791.212	11.38
791.957	11.38
792.702	8.38
793.447	11.38
794.193	8.38
794.938	14.38
795.683	9.38
796.427	14.38
797.172	8.38
797.917	11.38
798.662	14.38
799.406	8.38
800.151	10.38
800.895	8.38
801.64	10.38
802.384	11.38
803.128	8.38
803.872	10.38
804.616	7.38
805.36	8.38
806.104	9.38
806.848	8.38
807.592	6.38
808.336	6.38
809.079	8.38
809.823	7.38
810.566	7.38
811.31	9.38
812.053	6.38
812.796	7.38
813.539	8.38
814.283	6.38
815.026	9.38
815.769	6.38
816.511	8.38
817.254	7.38
817.997	7.38
818.74	6.38
819.482	7.38
820.225	6.38
820.967	5.38
821.71	4.38
822.452	4.38
823.194	5.38
823.936	6.38
824.678	5.38
825.42	5.38
826.162	5.38
826.904	7.38
827.646	3.38
828.388	5.38
829.129	3.38
829.871	5.38
830.612	4.38
831.354	3.38
832.095	5.38
832.836	4.38
833.577	5.38
834.319	3.38
835.06	4.38
835.801	3.38
836.542	5.38
837.282	5.38
838.023	1.38
838.764	6.38
839.504	4.38
840.245	4.38
840.985	5.38
841.726	3.38
842.466	5.38
843.206	3.38
843.946	0.38
844.687	5.38
845.427	4.38
846.166	4.38
846.906	5.38
847.646	1.38
848.386	1.38
849.125	2.38
849.865	3.38
850.605	4.38
851.344	4.38
852.083	2.38
852.823	3.38
853.562	5.38
854.301	2.38
855.04	5.38
855.779	3.38
856.518	3.38
857.257	3.38
857.995	4.38
858.734	4.38
859.473	2.38
860.211	3.38
860.95	4.38
861.688	1.38
862.426	3.38
863.165	4.38
863.903	2.38
864.641	0.38
865.379	3.38
866.117	4.38
866.855	2.38
867.593	1.38
868.33	2.38
869.068	2.38
869.806	1.38
870.543	3.38
871.28	2.38
872.018	3.38
872.755	2.38
873.492	2.38
874.229	1.38
874.967	2.38
875.703	3.38
876.44	5.38
877.177	1.38
877.914	1.38
878.651	0.38
879.387	0.38
880.124	-0.62
880.86	4.38
881.597	2.38
882.333	1.38
883.069	1.38
883.806	2.38
884.542	1.38
885.278	-0.62
886.014	-1.62
886.749	1.38
887.485	0.38
888.221	2.38
888.957	2.38
889.692	-0.62
890.428	0.38
891.163	1.38
891.899	-0.62
892.634	1.38
893.369	-0.62
894.104	0.38
894.839	-1.62
895.574	1.38
896.309	2.38
897.044	3.38
897.779	1.38
898.514	2.38
899.248	2.38
899.983	-1.62
900.717	-0.62
901.452	2.38
902.186	1.38
902.92	0.38
903.654	1.38
904.389	1.38
905.123	0.38
905.857	0.38
906.59	-1.62
907.324	2.38
908.058	1.38
908.792	-0.62
909.525	0.38
910.259	2.38
910.992	0.38
911.726	1.38
912.459	2.38
913.192	1.38
913.925	-0.62
914.658	1.38
915.391	-0.62
916.124	2.38
916.857	0.38
917.59	0.38
918.323	0.38
919.055	1.38
919.788	-1.62
920.521	2.38
921.253	-0.62
921.985	0.38
922.718	-1.62
923.45	0.38
924.182	1.38
924.914	-1.62
925.646	-0.62
926.378	-0.62
927.11	-0.62
927.841	0.38
928.573	0.38
929.305	-0.62
930.036	0.38
930.768	0.38
931.499	0.38
932.23	1.38
932.962	1.38
933.693	0.38
934.424	0.38
935.155	1.38
935.886	-0.62
936.617	2.38
937.348	0.38
938.078	0.38
938.809	0.38
939.54	1.38
940.27	-1.62
941.001	-0.62
941.731	-0.62
942.461	0.38
943.191	2.38
943.922	-1.62
944.652	1.38
945.382	0.38
946.112	0.38
946.841	0.38
947.571	0.38
948.301	1.38
949.031	-1.62
949.76	1.38
950.49	1.38
951.219	1.38
951.948	-0.62
952.678	-0.62
953.407	0.38
954.136	1.38
954.865	0.38
955.594	0.38
956.323	2.38
957.052	3.38
957.78	-1.62
958.509	2.38
959.238	1.38
959.966	1.38
960.695	1.38
961.423	-1.62
962.151	-0.62
962.88	-0.62
963.608	1.38
964.336	0.38
965.064	-0.62
965.792	1.38
966.52	1.38
967.247	-0.62
967.975	-1.62
968.703	1.38
969.43	0.38
970.158	1.38
970.885	-2.62
971.613	-3.62
972.34	0.38
973.067	0.38
973.794	2.38
974.521	0.38
975.248	1.38
975.975	2.38
976.702	-0.62
977.429	-0.62
978.156	-0.62
978.882	-0.62
979.609	2.38
980.335	1.38
981.062	1.38
981.788	1.38
982.514	1.38
983.24	0.38
983.967	1.38
984.693	0.38
985.419	-1.62
986.144	0.38
986.87	1.38
987.596	0.38
988.322	0.38
989.047	-0.62
989.773	0.38
990.498	0.38
991.224	2.38
991.949	0.38
992.674	-1.62
993.399	-1.62
994.124	-1.62
994.849	1.38
995.574	0.38
996.299	0.38
997.024	-1.62
997.749	-3.62
998.473	-0.62
999.198	1.38
999.922	0.38
1000.647	1.38
1001.371	4.38
1002.095	-1.62
1002.82	0.38
1003.544	-3.62
1004.268	1.38
1004.992	0.38
1005.716	0.38
1006.439	1.38
1007.163	5.38
1007.887	4.38
1008.611	1.38
1009.334	1.38
1010.058	-1.62
1010.781	2.38
1011.504	-0.62
1012.228	0.38
1012.951	0.38
1013.674	-2.62
1014.397	1.38
1015.12	1.38
