节点500_425_QEPB04081__134__15-50-32-293.txt的数据

Date: Wed Nov 12 15:50:32 CST 2025
User: PC
Spectrometer: QEPB0408
触发模式: 0
积分时间 (秒): 1.000000E-2
Scans to average: 1
启用暗噪声校正: true
启用非线性校正: false
滑动平均宽度: 0
X轴模式: Wavelengths
Number of Pixels in Spectrum: 1044
>>>>>Begin Spectral Data<<<<<
220.843	2.12
221.644	1.12
222.444	2.12
223.244	2.12
224.045	3.12
224.845	3.12
225.645	7.12
226.445	5.12
227.245	4.12
228.045	5.12
228.845	4.12
229.645	6.12
230.444	4.12
231.244	2.12
232.043	6.12
232.843	2.12
233.642	4.12
234.442	8.12
235.241	6.12
236.04	5.12
236.839	5.12
237.638	5.12
238.437	8.12
239.236	7.12
240.035	8.12
240.833	3.12
241.632	9.12
242.43	9.12
243.229	8.12
244.027	8.12
244.826	8.12
245.624	9.12
246.422	9.12
247.22	11.12
248.018	10.12
248.816	10.12
249.614	10.12
250.412	7.12
251.21	8.12
252.007	13.12
252.805	11.12
253.602	12.12
254.4	13.12
255.197	13.12
255.994	11.12
256.791	13.12
257.589	13.12
258.386	13.12
259.183	14.12
259.979	13.12
260.776	14.12
261.573	12.12
262.37	18.12
263.166	14.12
263.963	16.12
264.759	16.12
265.556	17.12
266.352	17.12
267.148	17.12
267.944	17.12
268.74	25.12
269.536	20.12
270.332	21.12
271.128	22.12
271.924	23.12
272.719	25.12
273.515	23.12
274.311	23.12
275.106	23.12
275.901	24.12
276.697	25.12
277.492	25.12
278.287	23.12
279.082	24.12
279.877	23.12
280.672	23.12
281.467	26.12
282.262	24.12
283.056	26.12
283.851	26.12
284.646	23.12
285.44	26.12
286.234	26.12
287.029	24.12
287.823	26.12
288.617	19.12
289.411	22.12
290.205	26.12
290.999	24.12
291.793	22.12
292.587	23.12
293.381	22.12
294.174	22.12
294.968	22.12
295.761	22.12
296.555	22.12
297.348	20.12
298.141	16.12
298.935	23.12
299.728	20.12
300.521	22.12
301.314	18.12
302.107	18.12
302.899	17.12
303.692	16.12
304.485	15.12
305.277	18.12
306.07	16.12
306.862	14.12
307.655	14.12
308.447	16.12
309.239	13.12
310.031	16.12
310.823	12.12
311.615	13.12
312.407	10.12
313.199	11.12
313.991	12.12
314.783	9.12
315.574	12.12
316.366	11.12
317.157	11.12
317.949	11.12
318.74	9.12
319.531	10.12
320.322	9.12
321.113	9.12
321.904	10.12
322.695	10.12
323.486	12.12
324.277	9.12
325.068	10.12
325.858	13.12
326.649	8.12
327.439	9.12
328.23	7.12
329.02	12.12
329.81	9.12
330.6	9.12
331.391	9.12
332.181	7.12
332.971	9.12
333.76	9.12
334.55	9.12
335.34	11.12
336.13	10.12
336.919	8.12
337.709	10.12
338.498	6.12
339.287	8.12
340.077	8.12
340.866	8.12
341.655	9.12
342.444	8.12
343.233	8.12
344.022	9.12
344.811	9.12
345.6	6.12
346.388	9.12
347.177	6.12
347.965	9.12
348.754	9.12
349.542	9.12
350.33	6.12
351.119	6.12
351.907	7.12
352.695	6.12
353.483	9.12
354.271	8.12
355.059	6.12
355.846	6.12
356.634	6.12
357.422	8.12
358.209	6.12
358.997	7.12
359.784	5.12
360.571	5.12
361.359	8.12
362.146	8.12
362.933	6.12
363.72	7.12
364.507	7.12
365.294	4.12
366.081	7.12
366.867	7.12
367.654	5.12
368.44	6.12
369.227	8.12
370.013	5.12
370.8	9.12
371.586	6.12
372.372	8.12
373.158	7.12
373.944	6.12
374.73	7.12
375.516	8.12
376.302	7.12
377.088	7.12
377.873	8.12
378.659	7.12
379.445	5.12
380.23	7.12
381.015	7.12
381.801	7.12
382.586	8.12
383.371	6.12
384.156	8.12
384.941	5.12
385.726	7.12
386.511	6.12
387.296	9.12
388.08	9.12
388.865	7.12
389.649	7.12
390.434	4.12
391.218	10.12
392.003	6.12
392.787	7.12
393.571	11.12
394.355	8.12
395.139	8.12
395.923	9.12
396.707	10.12
397.491	9.12
398.274	6.12
399.058	10.12
399.842	8.12
400.625	10.12
401.408	9.12
402.192	11.12
402.975	7.12
403.758	9.12
404.541	10.12
405.324	9.12
406.107	11.12
406.89	11.12
407.673	11.12
408.456	10.12
409.238	11.12
410.021	13.12
410.803	10.12
411.586	14.12
412.368	10.12
413.151	10.12
413.933	11.12
414.715	12.12
415.497	13.12
416.279	13.12
417.061	12.12
417.843	16.12
418.624	12.12
419.406	14.12
420.188	14.12
420.969	15.12
421.751	14.12
422.532	14.12
423.313	17.12
424.095	13.12
424.876	16.12
425.657	16.12
426.438	17.12
427.219	18.12
428	18.12
428.78	19.12
429.561	20.12
430.342	20.12
431.122	22.12
431.903	18.12
432.683	22.12
433.464	22.12
434.244	26.12
435.024	22.12
435.804	24.12
436.584	27.12
437.364	27.12
438.144	30.12
438.924	30.12
439.704	32.12
440.483	33.12
441.263	35.12
442.042	39.12
442.822	39.12
443.601	42.12
444.38	47.12
445.16	46.12
445.939	52.12
446.718	52.12
447.497	57.12
448.276	66.12
449.054	70.12
449.833	74.12
450.612	84.12
451.391	89.12
452.169	98.12
452.948	106.12
453.726	116.12
454.504	131.12
455.282	142.12
456.061	164.12
456.839	179.12
457.617	197.12
458.395	219.12
459.172	247.12
459.95	275.12
460.728	309.12
461.506	340.12
462.283	378.12
463.061	426.12
463.838	477.12
464.615	538.12
465.393	601.12
466.17	669.12
466.947	740.12
467.724	830.12
468.501	919.12
469.278	1025.12
470.055	1142.12
470.831	1282.12
471.608	1417.12
472.385	1562.12
473.161	1746.12
473.938	1919.12
474.714	2146.12
475.49	2377.12
476.266	2609.12
477.043	2912.12
477.819	3225.12
478.595	3556.12
479.371	3896.12
480.146	4295.12
480.922	4764.12
481.698	5216.12
482.473	5718.12
483.249	6282.12
484.024	6929.12
484.8	7601.12
485.575	8281.12
486.35	9089.12
487.126	9953.12
487.901	10877.12
488.676	11942.12
489.451	12992.12
490.225	14058.12
491	15367.12
491.775	16689.12
492.55	18029.12
493.324	19442.12
494.099	20828.12
494.873	22334.12
495.647	23855.12
496.422	25240.12
497.196	26785.12
497.97	28308.12
498.744	29896.12
499.518	31215.12
500.292	32489.12
501.066	33659.12
501.839	34728.12
502.613	35547.12
503.387	36042.12
504.16	36585.12
504.934	36784.12
505.707	36645.12
506.48	36438.12
507.253	35949.12
508.027	35418.12
508.8	34714.12
509.573	33844.12
510.346	32857.12
511.118	31820.12
511.891	30670.12
512.664	29526.12
513.437	28264.12
514.209	27122.12
514.982	26095.12
515.754	24938.12
516.526	23826.12
517.298	22822.12
518.071	21859.12
518.843	20925.12
519.615	20053.12
520.387	19257.12
521.159	18518.12
521.93	17809.12
522.702	17100.12
523.474	16441.12
524.245	15768.12
525.017	15034.12
525.788	14318.12
526.56	13653.12
527.331	13024.12
528.102	12479.12
528.873	11787.12
529.644	11221.12
530.415	10652.12
531.186	10153.12
531.957	9637.12
532.728	9093.12
533.498	8550.12
534.269	8098.12
535.039	7677.12
535.81	7246.12
536.58	6836.12
537.351	6420.12
538.121	6080.12
538.891	5768.12
539.661	5462.12
540.431	5163.12
541.201	4891.12
541.971	4637.12
542.741	4424.12
543.51	4191.12
544.28	3949.12
545.05	3774.12
545.819	3613.12
546.588	3422.12
547.358	3234.12
548.127	3066.12
548.896	2928.12
549.665	2756.12
550.434	2608.12
551.203	2467.12
551.972	2364.12
552.741	2210.12
553.51	2084.12
554.278	1960.12
555.047	1858.12
555.815	1760.12
556.584	1655.12
557.352	1570.12
558.121	1475.12
558.889	1399.12
559.657	1315.12
560.425	1244.12
561.193	1179.12
561.961	1096.12
562.729	1049.12
563.496	1001.12
564.264	936.12
565.032	884.12
565.799	841.12
566.567	794.12
567.334	745.12
568.101	708.12
568.869	666.12
569.636	635.12
570.403	597.12
571.17	555.12
571.937	541.12
572.704	505.12
573.471	482.12
574.237	444.12
575.004	415.12
575.771	398.12
576.537	367.12
577.303	346.12
578.07	332.12
578.836	320.12
579.602	293.12
580.368	287.12
581.134	268.12
581.9	253.12
582.666	240.12
583.432	227.12
584.198	216.12
584.964	203.12
585.729	192.12
586.495	189.12
587.26	173.12
588.025	164.12
588.791	164.12
589.556	146.12
590.321	138.12
591.086	130.12
591.851	130.12
592.616	125.12
593.381	116.12
594.146	113.12
594.911	107.12
595.675	102.12
596.44	96.12
597.204	91.12
597.969	86.12
598.733	77.12
599.497	81.12
600.261	78.12
601.025	74.12
601.79	69.12
602.553	67.12
603.317	65.12
604.081	63.12
604.845	58.12
605.609	57.12
606.372	54.12
607.136	52.12
607.899	53.12
608.662	49.12
609.426	44.12
610.189	47.12
610.952	45.12
611.715	42.12
612.478	39.12
613.241	41.12
614.004	37.12
614.767	37.12
615.529	36.12
616.292	30.12
617.055	33.12
617.817	30.12
618.579	26.12
619.342	30.12
620.104	27.12
620.866	28.12
621.628	27.12
622.39	23.12
623.152	26.12
623.914	25.12
624.676	22.12
625.438	22.12
626.199	23.12
626.961	20.12
627.722	21.12
628.484	20.12
629.245	18.12
630.006	20.12
630.768	20.12
631.529	17.12
632.29	20.12
633.051	18.12
633.812	17.12
634.573	14.12
635.333	16.12
636.094	16.12
636.855	14.12
637.615	13.12
638.376	14.12
639.136	11.12
639.896	14.12
640.657	13.12
641.417	12.12
642.177	13.12
642.937	10.12
643.697	12.12
644.457	12.12
645.216	8.12
645.976	10.12
646.736	11.12
647.495	11.12
648.255	11.12
649.014	9.12
649.774	9.12
650.533	10.12
651.292	11.12
652.051	9.12
652.81	10.12
653.569	9.12
654.328	8.12
655.087	8.12
655.846	9.12
656.604	7.12
657.363	8.12
658.121	9.12
658.88	8.12
659.638	10.12
660.397	7.12
661.155	7.12
661.913	5.12
662.671	7.12
663.429	7.12
664.187	7.12
664.945	9.12
665.703	8.12
666.46	6.12
667.218	7.12
667.976	7.12
668.733	7.12
669.49	7.12
670.248	6.12
671.005	6.12
671.762	5.12
672.519	6.12
673.276	6.12
674.033	7.12
674.79	6.12
675.547	6.12
676.304	5.12
677.06	7.12
677.817	5.12
678.574	6.12
679.33	5.12
680.086	7.12
680.843	5.12
681.599	4.12
682.355	5.12
683.111	6.12
683.867	4.12
684.623	8.12
685.379	7.12
686.135	4.12
686.89	5.12
687.646	6.12
688.402	8.12
689.157	4.12
689.912	4.12
690.668	7.12
691.423	4.12
692.178	5.12
692.933	4.12
693.688	6.12
694.443	5.12
695.198	5.12
695.953	4.12
696.708	5.12
697.462	6.12
698.217	3.12
698.972	5.12
699.726	6.12
700.48	5.12
701.235	5.12
701.989	5.12
702.743	6.12
703.497	3.12
704.251	5.12
705.005	4.12
705.759	1.12
706.513	5.12
707.266	5.12
708.02	6.12
708.774	5.12
709.527	3.12
710.28	6.12
711.034	4.12
711.787	7.12
712.54	4.12
713.293	5.12
714.046	3.12
714.799	4.12
715.552	5.12
716.305	5.12
717.058	5.12
717.81	6.12
718.563	4.12
719.315	6.12
720.068	5.12
720.82	6.12
721.573	5.12
722.325	4.12
723.077	6.12
723.829	6.12
724.581	7.12
725.333	4.12
726.085	4.12
726.836	4.12
727.588	4.12
728.34	5.12
729.091	5.12
729.843	6.12
730.594	7.12
731.346	6.12
732.097	4.12
732.848	5.12
733.599	7.12
734.35	5.12
735.101	8.12
735.852	6.12
736.603	7.12
737.354	7.12
738.104	7.12
738.855	4.12
739.605	5.12
740.356	8.12
741.106	7.12
741.856	7.12
742.607	9.12
743.357	6.12
744.107	6.12
744.857	8.12
745.607	6.12
746.357	7.12
747.106	8.12
747.856	9.12
748.606	9.12
749.355	9.12
750.105	5.12
750.854	7.12
751.603	7.12
752.353	8.12
753.102	9.12
753.851	9.12
754.6	9.12
755.349	8.12
756.098	7.12
756.847	9.12
757.595	9.12
758.344	9.12
759.093	6.12
759.841	8.12
760.589	12.12
761.338	7.12
762.086	9.12
762.834	8.12
763.582	6.12
764.331	12.12
765.079	9.12
765.826	12.12
766.574	6.12
767.322	11.12
768.07	8.12
768.817	10.12
769.565	9.12
770.312	10.12
771.06	11.12
771.807	11.12
772.554	10.12
773.302	13.12
774.049	11.12
774.796	9.12
775.543	9.12
776.29	11.12
777.036	10.12
777.783	12.12
778.53	10.12
779.276	12.12
780.023	12.12
780.769	13.12
781.516	12.12
782.262	12.12
783.008	9.12
783.754	13.12
784.5	11.12
785.246	13.12
785.992	13.12
786.738	12.12
787.484	12.12
788.23	9.12
788.975	13.12
789.721	12.12
790.466	12.12
791.212	10.12
791.957	10.12
792.702	11.12
793.447	11.12
794.193	12.12
794.938	11.12
795.683	11.12
796.427	8.12
797.172	9.12
797.917	7.12
798.662	8.12
799.406	11.12
800.151	8.12
800.895	9.12
801.64	11.12
802.384	6.12
803.128	8.12
803.872	7.12
804.616	9.12
805.36	12.12
806.104	8.12
806.848	10.12
807.592	10.12
808.336	8.12
809.079	7.12
809.823	4.12
810.566	8.12
811.31	5.12
812.053	8.12
812.796	9.12
813.539	7.12
814.283	5.12
815.026	5.12
815.769	5.12
816.511	7.12
817.254	6.12
817.997	7.12
818.74	4.12
819.482	6.12
820.225	4.12
820.967	6.12
821.71	4.12
822.452	6.12
823.194	5.12
823.936	5.12
824.678	5.12
825.42	5.12
826.162	5.12
826.904	5.12
827.646	5.12
828.388	6.12
829.129	6.12
829.871	5.12
830.612	4.12
831.354	5.12
832.095	3.12
832.836	3.12
833.577	3.12
834.319	4.12
835.06	4.12
835.801	4.12
836.542	2.12
837.282	4.12
838.023	3.12
838.764	5.12
839.504	3.12
840.245	3.12
840.985	2.12
841.726	3.12
842.466	3.12
843.206	4.12
843.946	4.12
844.687	5.12
845.427	2.12
846.166	1.12
846.906	4.12
847.646	3.12
848.386	4.12
849.125	3.12
849.865	6.12
850.605	2.12
851.344	2.12
852.083	4.12
852.823	3.12
853.562	1.12
854.301	4.12
855.04	2.12
855.779	3.12
856.518	4.12
857.257	1.12
857.995	1.12
858.734	2.12
859.473	1.12
860.211	4.12
860.95	3.12
861.688	3.12
862.426	3.12
863.165	2.12
863.903	2.12
864.641	4.12
865.379	3.12
866.117	0.12
866.855	0.12
867.593	0.12
868.33	1.12
869.068	-0.88
869.806	3.12
870.543	-0.88
871.28	3.12
872.018	-1.88
872.755	2.12
873.492	2.12
874.229	1.12
874.967	0.12
875.703	2.12
876.44	1.12
877.177	2.12
877.914	1.12
878.651	1.12
879.387	2.12
880.124	2.12
880.86	1.12
881.597	2.12
882.333	0.12
883.069	4.12
883.806	0.12
884.542	1.12
885.278	0.12
886.014	1.12
886.749	0.12
887.485	0.12
888.221	2.12
888.957	0.12
889.692	1.12
890.428	1.12
891.163	2.12
891.899	2.12
892.634	1.12
893.369	0.12
894.104	1.12
894.839	1.12
895.574	-0.88
896.309	2.12
897.044	2.12
897.779	3.12
898.514	1.12
899.248	0.12
899.983	0.12
900.717	1.12
901.452	0.12
902.186	-1.88
902.92	1.12
903.654	1.12
904.389	0.12
905.123	0.12
905.857	3.12
906.59	0.12
907.324	2.12
908.058	0.12
908.792	0.12
909.525	2.12
910.259	1.12
910.992	-0.88
911.726	-0.88
912.459	0.12
913.192	1.12
913.925	1.12
914.658	0.12
915.391	0.12
916.124	0.12
916.857	1.12
917.59	0.12
918.323	0.12
919.055	2.12
919.788	2.12
920.521	1.12
921.253	1.12
921.985	0.12
922.718	-0.88
923.45	1.12
924.182	0.12
924.914	-0.88
925.646	0.12
926.378	1.12
927.11	1.12
927.841	1.12
928.573	0.12
929.305	0.12
930.036	-2.88
930.768	-0.88
931.499	-1.88
932.23	1.12
932.962	1.12
933.693	-0.88
934.424	0.12
935.155	1.12
935.886	0.12
936.617	0.12
937.348	1.12
938.078	0.12
938.809	1.12
939.54	-0.88
940.27	-1.88
941.001	1.12
941.731	0.12
942.461	1.12
943.191	-0.88
943.922	-0.88
944.652	2.12
945.382	-2.88
946.112	1.12
946.841	-1.88
947.571	1.12
948.301	0.12
949.031	1.12
949.76	-1.88
950.49	0.12
951.219	0.12
951.948	-0.88
952.678	0.12
953.407	1.12
954.136	-1.88
954.865	2.12
955.594	-1.88
956.323	-0.88
957.052	0.12
957.78	1.12
958.509	0.12
959.238	-1.88
959.966	2.12
960.695	-0.88
961.423	1.12
962.151	2.12
962.88	2.12
963.608	-0.88
964.336	-0.88
965.064	-0.88
965.792	0.12
966.52	0.12
967.247	0.12
967.975	1.12
968.703	-0.88
969.43	2.12
970.158	0.12
970.885	1.12
971.613	1.12
972.34	0.12
973.067	-0.88
973.794	-1.88
974.521	-1.88
975.248	0.12
975.975	0.12
976.702	-0.88
977.429	0.12
978.156	1.12
978.882	1.12
979.609	-0.88
980.335	-0.88
981.062	2.12
981.788	-0.88
982.514	0.12
983.24	2.12
983.967	-0.88
984.693	1.12
985.419	1.12
986.144	0.12
986.87	2.12
987.596	-0.88
988.322	1.12
989.047	-0.88
989.773	1.12
990.498	2.12
991.224	1.12
991.949	1.12
992.674	0.12
993.399	2.12
994.124	-1.88
994.849	0.12
995.574	-0.88
996.299	0.12
997.024	1.12
997.749	-1.88
998.473	1.12
999.198	-1.88
999.922	0.12
1000.647	0.12
1001.371	4.12
1002.095	-0.88
1002.82	-0.88
1003.544	-1.88
1004.268	2.12
1004.992	0.12
1005.716	0.12
1006.439	2.12
1007.163	2.12
1007.887	3.12
1008.611	-1.88
1009.334	2.12
1010.058	0.12
1010.781	1.12
1011.504	0.12
1012.228	0.12
1012.951	2.12
1013.674	-0.88
1014.397	0.12
1015.12	-1.88
