节点500_425_QEPB04081__6__15-48-27-497.txt的数据

Date: Wed Nov 12 15:48:27 CST 2025
User: PC
Spectrometer: QEPB0408
触发模式: 0
积分时间 (秒): 1.000000E-2
Scans to average: 1
启用暗噪声校正: true
启用非线性校正: false
滑动平均宽度: 0
X轴模式: Wavelengths
Number of Pixels in Spectrum: 1044
>>>>>Begin Spectral Data<<<<<
220.843	4.12
221.644	3.12
222.444	1.12
223.244	3.12
224.045	3.12
224.845	3.12
225.645	3.12
226.445	3.12
227.245	5.12
228.045	4.12
228.845	3.12
229.645	5.12
230.444	4.12
231.244	5.12
232.043	4.12
232.843	6.12
233.642	6.12
234.442	1.12
235.241	8.12
236.04	5.12
236.839	7.12
237.638	7.12
238.437	5.12
239.236	9.12
240.035	7.12
240.833	6.12
241.632	8.12
242.43	8.12
243.229	7.12
244.027	7.12
244.826	7.12
245.624	8.12
246.422	9.12
247.22	10.12
248.018	10.12
248.816	8.12
249.614	9.12
250.412	13.12
251.21	10.12
252.007	11.12
252.805	13.12
253.602	11.12
254.4	12.12
255.197	12.12
255.994	14.12
256.791	14.12
257.589	15.12
258.386	16.12
259.183	15.12
259.979	18.12
260.776	17.12
261.573	16.12
262.37	17.12
263.166	15.12
263.963	15.12
264.759	17.12
265.556	25.12
266.352	18.12
267.148	22.12
267.944	22.12
268.74	20.12
269.536	21.12
270.332	21.12
271.128	24.12
271.924	24.12
272.719	24.12
273.515	23.12
274.311	25.12
275.106	26.12
275.901	25.12
276.697	28.12
277.492	28.12
278.287	24.12
279.082	25.12
279.877	27.12
280.672	30.12
281.467	28.12
282.262	27.12
283.056	25.12
283.851	24.12
284.646	25.12
285.44	26.12
286.234	29.12
287.029	26.12
287.823	26.12
288.617	28.12
289.411	25.12
290.205	25.12
290.999	25.12
291.793	24.12
292.587	24.12
293.381	24.12
294.174	21.12
294.968	23.12
295.761	23.12
296.555	20.12
297.348	19.12
298.141	20.12
298.935	21.12
299.728	20.12
300.521	17.12
301.314	19.12
302.107	19.12
302.899	17.12
303.692	18.12
304.485	17.12
305.277	17.12
306.07	15.12
306.862	16.12
307.655	18.12
308.447	14.12
309.239	15.12
310.031	14.12
310.823	14.12
311.615	14.12
312.407	11.12
313.199	13.12
313.991	12.12
314.783	11.12
315.574	14.12
316.366	11.12
317.157	11.12
317.949	11.12
318.74	11.12
319.531	11.12
320.322	11.12
321.113	11.12
321.904	9.12
322.695	11.12
323.486	10.12
324.277	8.12
325.068	9.12
325.858	9.12
326.649	9.12
327.439	10.12
328.23	10.12
329.02	9.12
329.81	8.12
330.6	8.12
331.391	8.12
332.181	8.12
332.971	8.12
333.76	10.12
334.55	8.12
335.34	7.12
336.13	11.12
336.919	8.12
337.709	9.12
338.498	7.12
339.287	9.12
340.077	10.12
340.866	7.12
341.655	8.12
342.444	7.12
343.233	7.12
344.022	9.12
344.811	9.12
345.6	10.12
346.388	6.12
347.177	9.12
347.965	9.12
348.754	10.12
349.542	7.12
350.33	8.12
351.119	8.12
351.907	8.12
352.695	8.12
353.483	8.12
354.271	7.12
355.059	6.12
355.846	9.12
356.634	5.12
357.422	7.12
358.209	7.12
358.997	10.12
359.784	8.12
360.571	8.12
361.359	5.12
362.146	6.12
362.933	10.12
363.72	7.12
364.507	4.12
365.294	7.12
366.081	7.12
366.867	7.12
367.654	5.12
368.44	3.12
369.227	6.12
370.013	8.12
370.8	5.12
371.586	7.12
372.372	6.12
373.158	4.12
373.944	9.12
374.73	6.12
375.516	10.12
376.302	8.12
377.088	9.12
377.873	5.12
378.659	6.12
379.445	6.12
380.23	6.12
381.015	7.12
381.801	7.12
382.586	9.12
383.371	8.12
384.156	5.12
384.941	8.12
385.726	6.12
386.511	8.12
387.296	8.12
388.08	7.12
388.865	10.12
389.649	8.12
390.434	8.12
391.218	10.12
392.003	9.12
392.787	6.12
393.571	6.12
394.355	9.12
395.139	8.12
395.923	8.12
396.707	10.12
397.491	7.12
398.274	9.12
399.058	11.12
399.842	10.12
400.625	10.12
401.408	11.12
402.192	8.12
402.975	7.12
403.758	9.12
404.541	10.12
405.324	9.12
406.107	12.12
406.89	12.12
407.673	8.12
408.456	10.12
409.238	14.12
410.021	11.12
410.803	12.12
411.586	14.12
412.368	13.12
413.151	10.12
413.933	9.12
414.715	16.12
415.497	13.12
416.279	13.12
417.061	12.12
417.843	11.12
418.624	15.12
419.406	16.12
420.188	15.12
420.969	15.12
421.751	14.12
422.532	15.12
423.313	14.12
424.095	16.12
424.876	16.12
425.657	18.12
426.438	17.12
427.219	18.12
428	18.12
428.78	16.12
429.561	19.12
430.342	19.12
431.122	21.12
431.903	19.12
432.683	23.12
433.464	23.12
434.244	22.12
435.024	25.12
435.804	23.12
436.584	25.12
437.364	28.12
438.144	28.12
438.924	29.12
439.704	32.12
440.483	34.12
441.263	32.12
442.042	40.12
442.822	36.12
443.601	42.12
444.38	43.12
445.16	46.12
445.939	50.12
446.718	53.12
447.497	56.12
448.276	66.12
449.054	63.12
449.833	76.12
450.612	77.12
451.391	85.12
452.169	94.12
452.948	99.12
453.726	115.12
454.504	127.12
455.282	132.12
456.061	145.12
456.839	167.12
457.617	185.12
458.395	212.12
459.172	234.12
459.95	261.12
460.728	291.12
461.506	324.12
462.283	359.12
463.061	407.12
463.838	454.12
464.615	512.12
465.393	574.12
466.17	641.12
466.947	718.12
467.724	807.12
468.501	900.12
469.278	1001.12
470.055	1113.12
470.831	1236.12
471.608	1374.12
472.385	1534.12
473.161	1718.12
473.938	1912.12
474.714	2138.12
475.49	2358.12
476.266	2613.12
477.043	2920.12
477.819	3217.12
478.595	3600.12
479.371	3981.12
480.146	4375.12
480.922	4832.12
481.698	5347.12
482.473	5901.12
483.249	6540.12
484.024	7193.12
484.8	7944.12
485.575	8725.12
486.35	9572.12
487.126	10509.12
487.901	11552.12
488.676	12698.12
489.451	13836.12
490.225	15050.12
491	16477.12
491.775	17857.12
492.55	19349.12
493.324	20891.12
494.099	22479.12
494.873	23937.12
495.647	25665.12
496.422	27221.12
497.196	28881.12
497.97	30629.12
498.744	32166.12
499.518	33508.12
500.292	34733.12
501.066	35758.12
501.839	36829.12
502.613	37656.12
503.387	38140.12
504.16	38428.12
504.934	38376.12
505.707	38151.12
506.48	37694.12
507.253	37107.12
508.027	36386.12
508.8	35428.12
509.573	34402.12
510.346	33242.12
511.118	32100.12
511.891	30832.12
512.664	29543.12
513.437	28282.12
514.209	26911.12
514.982	25839.12
515.754	24678.12
516.526	23604.12
517.298	22632.12
518.071	21669.12
518.843	20766.12
519.615	19911.12
520.387	19062.12
521.159	18399.12
521.93	17694.12
522.702	17014.12
523.474	16314.12
524.245	15595.12
525.017	14873.12
525.788	14162.12
526.56	13537.12
527.331	12823.12
528.102	12231.12
528.873	11620.12
529.644	11007.12
530.415	10478.12
531.186	9893.12
531.957	9364.12
532.728	8812.12
533.498	8347.12
534.269	7834.12
535.039	7412.12
535.81	7031.12
536.58	6610.12
537.351	6209.12
538.121	5867.12
538.891	5588.12
539.661	5304.12
540.431	5018.12
541.201	4759.12
541.971	4518.12
542.741	4266.12
543.51	4044.12
544.28	3826.12
545.05	3644.12
545.819	3482.12
546.588	3301.12
547.358	3137.12
548.127	2964.12
548.896	2818.12
549.665	2678.12
550.434	2543.12
551.203	2399.12
551.972	2266.12
552.741	2156.12
553.51	2035.12
554.278	1906.12
555.047	1781.12
555.815	1698.12
556.584	1596.12
557.352	1514.12
558.121	1427.12
558.889	1347.12
559.657	1270.12
560.425	1188.12
561.193	1122.12
561.961	1073.12
562.729	1009.12
563.496	954.12
564.264	905.12
565.032	844.12
565.799	800.12
566.567	755.12
567.334	716.12
568.101	685.12
568.869	637.12
569.636	602.12
570.403	570.12
571.17	539.12
571.937	513.12
572.704	485.12
573.471	454.12
574.237	429.12
575.004	406.12
575.771	378.12
576.537	357.12
577.303	331.12
578.07	319.12
578.836	304.12
579.602	280.12
580.368	266.12
581.134	247.12
581.9	241.12
582.666	230.12
583.432	223.12
584.198	198.12
584.964	192.12
585.729	187.12
586.495	173.12
587.26	168.12
588.025	161.12
588.791	145.12
589.556	140.12
590.321	138.12
591.086	126.12
591.851	126.12
592.616	117.12
593.381	111.12
594.146	103.12
594.911	101.12
595.675	96.12
596.44	91.12
597.204	91.12
597.969	82.12
598.733	82.12
599.497	79.12
600.261	76.12
601.025	69.12
601.79	68.12
602.553	65.12
603.317	62.12
604.081	59.12
604.845	57.12
605.609	53.12
606.372	52.12
607.136	51.12
607.899	51.12
608.662	44.12
609.426	45.12
610.189	43.12
610.952	38.12
611.715	43.12
612.478	37.12
613.241	38.12
614.004	37.12
614.767	34.12
615.529	34.12
616.292	31.12
617.055	31.12
617.817	30.12
618.579	29.12
619.342	27.12
620.104	28.12
620.866	24.12
621.628	28.12
622.39	26.12
623.152	24.12
623.914	26.12
624.676	24.12
625.438	22.12
626.199	20.12
626.961	20.12
627.722	19.12
628.484	18.12
629.245	19.12
630.006	19.12
630.768	18.12
631.529	18.12
632.29	15.12
633.051	18.12
633.812	14.12
634.573	18.12
635.333	15.12
636.094	18.12
636.855	16.12
637.615	15.12
638.376	14.12
639.136	11.12
639.896	12.12
640.657	15.12
641.417	12.12
642.177	11.12
642.937	12.12
643.697	12.12
644.457	13.12
645.216	12.12
645.976	11.12
646.736	9.12
647.495	11.12
648.255	9.12
649.014	12.12
649.774	9.12
650.533	9.12
651.292	8.12
652.051	8.12
652.81	10.12
653.569	9.12
654.328	8.12
655.087	10.12
655.846	9.12
656.604	10.12
657.363	7.12
658.121	9.12
658.88	5.12
659.638	10.12
660.397	8.12
661.155	8.12
661.913	9.12
662.671	6.12
663.429	8.12
664.187	8.12
664.945	7.12
665.703	8.12
666.46	4.12
667.218	8.12
667.976	6.12
668.733	6.12
669.49	8.12
670.248	9.12
671.005	8.12
671.762	6.12
672.519	6.12
673.276	7.12
674.033	6.12
674.79	4.12
675.547	7.12
676.304	8.12
677.06	4.12
677.817	7.12
678.574	4.12
679.33	5.12
680.086	6.12
680.843	5.12
681.599	5.12
682.355	6.12
683.111	6.12
683.867	6.12
684.623	7.12
685.379	6.12
686.135	5.12
686.89	4.12
687.646	6.12
688.402	3.12
689.157	4.12
689.912	4.12
690.668	4.12
691.423	5.12
692.178	7.12
692.933	4.12
693.688	7.12
694.443	5.12
695.198	3.12
695.953	6.12
696.708	5.12
697.462	6.12
698.217	6.12
698.972	5.12
699.726	6.12
700.48	3.12
701.235	4.12
701.989	5.12
702.743	3.12
703.497	5.12
704.251	4.12
705.005	5.12
705.759	6.12
706.513	6.12
707.266	5.12
708.02	5.12
708.774	7.12
709.527	3.12
710.28	5.12
711.034	4.12
711.787	4.12
712.54	5.12
713.293	4.12
714.046	6.12
714.799	5.12
715.552	5.12
716.305	7.12
717.058	5.12
717.81	6.12
718.563	5.12
719.315	5.12
720.068	5.12
720.82	5.12
721.573	5.12
722.325	4.12
723.077	7.12
723.829	6.12
724.581	6.12
725.333	4.12
726.085	4.12
726.836	5.12
727.588	6.12
728.34	9.12
729.091	4.12
729.843	6.12
730.594	9.12
731.346	4.12
732.097	7.12
732.848	6.12
733.599	6.12
734.35	6.12
735.101	8.12
735.852	9.12
736.603	8.12
737.354	6.12
738.104	6.12
738.855	7.12
739.605	4.12
740.356	6.12
741.106	9.12
741.856	7.12
742.607	7.12
743.357	7.12
744.107	6.12
744.857	6.12
745.607	6.12
746.357	8.12
747.106	8.12
747.856	8.12
748.606	7.12
749.355	6.12
750.105	9.12
750.854	6.12
751.603	6.12
752.353	7.12
753.102	8.12
753.851	10.12
754.6	11.12
755.349	8.12
756.098	9.12
756.847	10.12
757.595	9.12
758.344	8.12
759.093	7.12
759.841	9.12
760.589	10.12
761.338	8.12
762.086	8.12
762.834	8.12
763.582	9.12
764.331	11.12
765.079	10.12
765.826	13.12
766.574	10.12
767.322	10.12
768.07	10.12
768.817	9.12
769.565	12.12
770.312	10.12
771.06	12.12
771.807	10.12
772.554	12.12
773.302	12.12
774.049	10.12
774.796	13.12
775.543	11.12
776.29	9.12
777.036	12.12
777.783	10.12
778.53	11.12
779.276	12.12
780.023	13.12
780.769	11.12
781.516	12.12
782.262	11.12
783.008	14.12
783.754	14.12
784.5	11.12
785.246	12.12
785.992	14.12
786.738	12.12
787.484	12.12
788.23	12.12
788.975	13.12
789.721	15.12
790.466	12.12
791.212	11.12
791.957	12.12
792.702	12.12
793.447	11.12
794.193	11.12
794.938	12.12
795.683	12.12
796.427	11.12
797.172	9.12
797.917	13.12
798.662	9.12
799.406	11.12
800.151	11.12
800.895	10.12
801.64	11.12
802.384	9.12
803.128	8.12
803.872	9.12
804.616	10.12
805.36	9.12
806.104	9.12
806.848	10.12
807.592	5.12
808.336	7.12
809.079	6.12
809.823	4.12
810.566	8.12
811.31	6.12
812.053	8.12
812.796	6.12
813.539	5.12
814.283	8.12
815.026	6.12
815.769	8.12
816.511	7.12
817.254	7.12
817.997	6.12
818.74	7.12
819.482	8.12
820.225	6.12
820.967	7.12
821.71	7.12
822.452	4.12
823.194	5.12
823.936	4.12
824.678	6.12
825.42	8.12
826.162	7.12
826.904	6.12
827.646	5.12
828.388	6.12
829.129	5.12
829.871	4.12
830.612	4.12
831.354	3.12
832.095	6.12
832.836	6.12
833.577	4.12
834.319	4.12
835.06	6.12
835.801	4.12
836.542	4.12
837.282	7.12
838.023	2.12
838.764	3.12
839.504	5.12
840.245	6.12
840.985	4.12
841.726	3.12
842.466	2.12
843.206	2.12
843.946	4.12
844.687	4.12
845.427	4.12
846.166	4.12
846.906	2.12
847.646	4.12
848.386	3.12
849.125	4.12
849.865	2.12
850.605	2.12
851.344	3.12
852.083	2.12
852.823	3.12
853.562	3.12
854.301	2.12
855.04	3.12
855.779	3.12
856.518	5.12
857.257	2.12
857.995	3.12
858.734	4.12
859.473	3.12
860.211	5.12
860.95	1.12
861.688	1.12
862.426	3.12
863.165	0.12
863.903	3.12
864.641	1.12
865.379	1.12
866.117	-0.88
866.855	3.12
867.593	2.12
868.33	1.12
869.068	3.12
869.806	1.12
870.543	1.12
871.28	2.12
872.018	0.12
872.755	2.12
873.492	2.12
874.229	3.12
874.967	1.12
875.703	1.12
876.44	1.12
877.177	2.12
877.914	-0.88
878.651	1.12
879.387	1.12
880.124	0.12
880.86	2.12
881.597	1.12
882.333	0.12
883.069	-1.88
883.806	-0.88
884.542	0.12
885.278	2.12
886.014	1.12
886.749	1.12
887.485	2.12
888.221	1.12
888.957	0.12
889.692	0.12
890.428	1.12
891.163	0.12
891.899	1.12
892.634	1.12
893.369	-0.88
894.104	0.12
894.839	-1.88
895.574	2.12
896.309	-0.88
897.044	0.12
897.779	2.12
898.514	1.12
899.248	-1.88
899.983	0.12
900.717	0.12
901.452	1.12
902.186	-0.88
902.92	1.12
903.654	2.12
904.389	2.12
905.123	0.12
905.857	1.12
906.59	-1.88
907.324	1.12
908.058	-0.88
908.792	-0.88
909.525	1.12
910.259	0.12
910.992	0.12
911.726	2.12
912.459	-0.88
913.192	1.12
913.925	-0.88
914.658	1.12
915.391	0.12
916.124	1.12
916.857	0.12
917.59	0.12
918.323	0.12
919.055	2.12
919.788	-0.88
920.521	0.12
921.253	4.12
921.985	1.12
922.718	0.12
923.45	2.12
924.182	-0.88
924.914	-0.88
925.646	-0.88
926.378	-1.88
927.11	1.12
927.841	-1.88
928.573	1.12
929.305	1.12
930.036	0.12
930.768	-0.88
931.499	-1.88
932.23	-0.88
932.962	0.12
933.693	-0.88
934.424	0.12
935.155	-1.88
935.886	-1.88
936.617	0.12
937.348	2.12
938.078	-1.88
938.809	0.12
939.54	0.12
940.27	0.12
941.001	1.12
941.731	-1.88
942.461	1.12
943.191	1.12
943.922	1.12
944.652	0.12
945.382	0.12
946.112	-0.88
946.841	-1.88
947.571	-1.88
948.301	-0.88
949.031	-2.88
949.76	0.12
950.49	-0.88
951.219	0.12
951.948	-0.88
952.678	-0.88
953.407	1.12
954.136	-0.88
954.865	0.12
955.594	0.12
956.323	1.12
957.052	4.12
957.78	0.12
958.509	2.12
959.238	-1.88
959.966	1.12
960.695	1.12
961.423	1.12
962.151	-0.88
962.88	1.12
963.608	1.12
964.336	1.12
965.064	0.12
965.792	0.12
966.52	-1.88
967.247	0.12
967.975	0.12
968.703	2.12
969.43	-0.88
970.158	2.12
970.885	1.12
971.613	2.12
972.34	-0.88
973.067	-3.88
973.794	-0.88
974.521	0.12
975.248	-1.88
975.975	2.12
976.702	-0.88
977.429	1.12
978.156	0.12
978.882	0.12
979.609	-0.88
980.335	2.12
981.062	-0.88
981.788	0.12
982.514	0.12
983.24	1.12
983.967	0.12
984.693	1.12
985.419	-1.88
986.144	1.12
986.87	0.12
987.596	2.12
988.322	-1.88
989.047	0.12
989.773	-1.88
990.498	-0.88
991.224	1.12
991.949	0.12
992.674	0.12
993.399	-1.88
994.124	-0.88
994.849	1.12
995.574	0.12
996.299	0.12
997.024	-0.88
997.749	1.12
998.473	-1.88
999.198	1.12
999.922	1.12
1000.647	0.12
1001.371	4.12
1002.095	0.12
1002.82	-0.88
1003.544	-1.88
1004.268	4.12
1004.992	2.12
1005.716	5.12
1006.439	1.12
1007.163	2.12
1007.887	2.12
1008.611	2.12
1009.334	0.12
1010.058	2.12
1010.781	-0.88
1011.504	0.12
1012.228	0.12
1012.951	-0.88
1013.674	0.12
1014.397	0.12
1015.12	-0.88
