节点500_425_QEPB04081__456__15-55-53-603.txt的数据

Date: Wed Nov 12 15:55:53 CST 2025
User: PC
Spectrometer: QEPB0408
触发模式: 0
积分时间 (秒): 1.000000E-2
Scans to average: 1
启用暗噪声校正: true
启用非线性校正: false
滑动平均宽度: 0
X轴模式: Wavelengths
Number of Pixels in Spectrum: 1044
>>>>>Begin Spectral Data<<<<<
220.843	2.5
221.644	1.5
222.444	3.5
223.244	4.5
224.045	6.5
224.845	5.5
225.645	2.5
226.445	1.5
227.245	4.5
228.045	5.5
228.845	4.5
229.645	3.5
230.444	5.5
231.244	4.5
232.043	5.5
232.843	3.5
233.642	5.5
234.442	7.5
235.241	5.5
236.04	5.5
236.839	5.5
237.638	7.5
238.437	6.5
239.236	6.5
240.035	7.5
240.833	7.5
241.632	7.5
242.43	6.5
243.229	8.5
244.027	8.5
244.826	8.5
245.624	9.5
246.422	4.5
247.22	7.5
248.018	10.5
248.816	8.5
249.614	6.5
250.412	5.5
251.21	9.5
252.007	8.5
252.805	9.5
253.602	10.5
254.4	8.5
255.197	10.5
255.994	11.5
256.791	12.5
257.589	11.5
258.386	13.5
259.183	13.5
259.979	12.5
260.776	12.5
261.573	13.5
262.37	14.5
263.166	12.5
263.963	18.5
264.759	14.5
265.556	15.5
266.352	18.5
267.148	16.5
267.944	17.5
268.74	16.5
269.536	17.5
270.332	17.5
271.128	21.5
271.924	19.5
272.719	20.5
273.515	22.5
274.311	23.5
275.106	20.5
275.901	25.5
276.697	19.5
277.492	24.5
278.287	24.5
279.082	22.5
279.877	21.5
280.672	25.5
281.467	23.5
282.262	25.5
283.056	24.5
283.851	25.5
284.646	24.5
285.44	23.5
286.234	23.5
287.029	22.5
287.823	25.5
288.617	23.5
289.411	24.5
290.205	22.5
290.999	21.5
291.793	23.5
292.587	22.5
293.381	23.5
294.174	21.5
294.968	22.5
295.761	21.5
296.555	18.5
297.348	21.5
298.141	14.5
298.935	26.5
299.728	18.5
300.521	18.5
301.314	17.5
302.107	18.5
302.899	17.5
303.692	15.5
304.485	18.5
305.277	13.5
306.07	14.5
306.862	15.5
307.655	12.5
308.447	16.5
309.239	13.5
310.031	16.5
310.823	14.5
311.615	14.5
312.407	12.5
313.199	12.5
313.991	13.5
314.783	12.5
315.574	13.5
316.366	12.5
317.157	12.5
317.949	13.5
318.74	10.5
319.531	8.5
320.322	10.5
321.113	10.5
321.904	8.5
322.695	8.5
323.486	12.5
324.277	8.5
325.068	11.5
325.858	8.5
326.649	8.5
327.439	10.5
328.23	10.5
329.02	7.5
329.81	10.5
330.6	11.5
331.391	8.5
332.181	6.5
332.971	11.5
333.76	7.5
334.55	5.5
335.34	6.5
336.13	8.5
336.919	10.5
337.709	8.5
338.498	5.5
339.287	6.5
340.077	8.5
340.866	8.5
341.655	7.5
342.444	9.5
343.233	8.5
344.022	6.5
344.811	10.5
345.6	7.5
346.388	9.5
347.177	7.5
347.965	9.5
348.754	10.5
349.542	7.5
350.33	8.5
351.119	6.5
351.907	7.5
352.695	8.5
353.483	7.5
354.271	7.5
355.059	7.5
355.846	8.5
356.634	7.5
357.422	10.5
358.209	6.5
358.997	7.5
359.784	7.5
360.571	6.5
361.359	8.5
362.146	6.5
362.933	7.5
363.72	7.5
364.507	6.5
365.294	5.5
366.081	6.5
366.867	6.5
367.654	10.5
368.44	6.5
369.227	8.5
370.013	7.5
370.8	8.5
371.586	8.5
372.372	7.5
373.158	7.5
373.944	7.5
374.73	7.5
375.516	7.5
376.302	9.5
377.088	6.5
377.873	5.5
378.659	6.5
379.445	5.5
380.23	8.5
381.015	7.5
381.801	9.5
382.586	6.5
383.371	4.5
384.156	8.5
384.941	7.5
385.726	6.5
386.511	8.5
387.296	6.5
388.08	8.5
388.865	8.5
389.649	7.5
390.434	7.5
391.218	8.5
392.003	6.5
392.787	8.5
393.571	7.5
394.355	6.5
395.139	8.5
395.923	7.5
396.707	8.5
397.491	8.5
398.274	7.5
399.058	9.5
399.842	9.5
400.625	9.5
401.408	8.5
402.192	8.5
402.975	11.5
403.758	9.5
404.541	8.5
405.324	8.5
406.107	10.5
406.89	9.5
407.673	6.5
408.456	10.5
409.238	12.5
410.021	10.5
410.803	9.5
411.586	11.5
412.368	13.5
413.151	9.5
413.933	12.5
414.715	14.5
415.497	10.5
416.279	14.5
417.061	9.5
417.843	15.5
418.624	14.5
419.406	12.5
420.188	15.5
420.969	14.5
421.751	15.5
422.532	14.5
423.313	14.5
424.095	15.5
424.876	14.5
425.657	15.5
426.438	14.5
427.219	19.5
428	17.5
428.78	15.5
429.561	17.5
430.342	18.5
431.122	19.5
431.903	19.5
432.683	24.5
433.464	22.5
434.244	24.5
435.024	24.5
435.804	24.5
436.584	26.5
437.364	27.5
438.144	30.5
438.924	31.5
439.704	29.5
440.483	35.5
441.263	37.5
442.042	36.5
442.822	41.5
443.601	42.5
444.38	47.5
445.16	47.5
445.939	55.5
446.718	59.5
447.497	61.5
448.276	66.5
449.054	74.5
449.833	82.5
450.612	92.5
451.391	96.5
452.169	108.5
452.948	115.5
453.726	128.5
454.504	144.5
455.282	163.5
456.061	176.5
456.839	198.5
457.617	216.5
458.395	242.5
459.172	269.5
459.95	304.5
460.728	331.5
461.506	373.5
462.283	417.5
463.061	469.5
463.838	524.5
464.615	573.5
465.393	639.5
466.17	720.5
466.947	796.5
467.724	884.5
468.501	965.5
469.278	1085.5
470.055	1193.5
470.831	1314.5
471.608	1474.5
472.385	1607.5
473.161	1774.5
473.938	1960.5
474.714	2152.5
475.49	2385.5
476.266	2613.5
477.043	2871.5
477.819	3154.5
478.595	3432.5
479.371	3780.5
480.146	4112.5
480.922	4524.5
481.698	4938.5
482.473	5400.5
483.249	5854.5
484.024	6378.5
484.8	7003.5
485.575	7596.5
486.35	8257.5
487.126	8993.5
487.901	9760.5
488.676	10612.5
489.451	11533.5
490.225	12412.5
491	13443.5
491.775	14521.5
492.55	15691.5
493.324	16791.5
494.099	18002.5
494.873	19179.5
495.647	20542.5
496.422	21773.5
497.196	23204.5
497.97	24527.5
498.744	25921.5
499.518	27166.5
500.292	28373.5
501.066	29481.5
501.839	30547.5
502.613	31516.5
503.387	32268.5
504.16	32899.5
504.934	33416.5
505.707	33522.5
506.48	33660.5
507.253	33514.5
508.027	33437.5
508.8	32978.5
509.573	32449.5
510.346	31752.5
511.118	30973.5
511.891	30196.5
512.664	29174.5
513.437	28145.5
514.209	27085.5
514.982	26241.5
515.754	25149.5
516.526	24089.5
517.298	23144.5
518.071	22179.5
518.843	21269.5
519.615	20409.5
520.387	19656.5
521.159	18894.5
521.93	18144.5
522.702	17426.5
523.474	16774.5
524.245	16083.5
525.017	15403.5
525.788	14680.5
526.56	14043.5
527.331	13413.5
528.102	12813.5
528.873	12232.5
529.644	11693.5
530.415	11139.5
531.186	10672.5
531.957	10092.5
532.728	9548.5
533.498	9032.5
534.269	8545.5
535.039	8147.5
535.81	7676.5
536.58	7286.5
537.351	6870.5
538.121	6489.5
538.891	6126.5
539.661	5801.5
540.431	5499.5
541.201	5211.5
541.971	4955.5
542.741	4707.5
543.51	4460.5
544.28	4228.5
545.05	4030.5
545.819	3830.5
546.588	3635.5
547.358	3442.5
548.127	3290.5
548.896	3116.5
549.665	2958.5
550.434	2817.5
551.203	2682.5
551.972	2504.5
552.741	2399.5
553.51	2261.5
554.278	2137.5
555.047	2019.5
555.815	1926.5
556.584	1805.5
557.352	1701.5
558.121	1613.5
558.889	1506.5
559.657	1440.5
560.425	1349.5
561.193	1275.5
561.961	1221.5
562.729	1155.5
563.496	1074.5
564.264	1033.5
565.032	956.5
565.799	919.5
566.567	876.5
567.334	820.5
568.101	779.5
568.869	735.5
569.636	693.5
570.403	640.5
571.17	604.5
571.937	578.5
572.704	552.5
573.471	518.5
574.237	482.5
575.004	454.5
575.771	432.5
576.537	409.5
577.303	383.5
578.07	365.5
578.836	330.5
579.602	316.5
580.368	307.5
581.134	282.5
581.9	277.5
582.666	263.5
583.432	250.5
584.198	235.5
584.964	219.5
585.729	207.5
586.495	196.5
587.26	180.5
588.025	177.5
588.791	168.5
589.556	167.5
590.321	155.5
591.086	145.5
591.851	132.5
592.616	133.5
593.381	120.5
594.146	117.5
594.911	110.5
595.675	108.5
596.44	108.5
597.204	98.5
597.969	94.5
598.733	90.5
599.497	82.5
600.261	83.5
601.025	78.5
601.79	78.5
602.553	75.5
603.317	74.5
604.081	63.5
604.845	62.5
605.609	59.5
606.372	58.5
607.136	55.5
607.899	51.5
608.662	53.5
609.426	49.5
610.189	49.5
610.952	47.5
611.715	46.5
612.478	42.5
613.241	44.5
614.004	40.5
614.767	34.5
615.529	35.5
616.292	37.5
617.055	34.5
617.817	29.5
618.579	32.5
619.342	30.5
620.104	30.5
620.866	28.5
621.628	26.5
622.39	28.5
623.152	26.5
623.914	26.5
624.676	25.5
625.438	22.5
626.199	20.5
626.961	23.5
627.722	21.5
628.484	22.5
629.245	21.5
630.006	17.5
630.768	18.5
631.529	18.5
632.29	17.5
633.051	18.5
633.812	20.5
634.573	15.5
635.333	15.5
636.094	14.5
636.855	14.5
637.615	13.5
638.376	15.5
639.136	14.5
639.896	13.5
640.657	13.5
641.417	14.5
642.177	10.5
642.937	12.5
643.697	15.5
644.457	11.5
645.216	11.5
645.976	11.5
646.736	8.5
647.495	11.5
648.255	8.5
649.014	8.5
649.774	10.5
650.533	9.5
651.292	9.5
652.051	9.5
652.81	8.5
653.569	10.5
654.328	10.5
655.087	8.5
655.846	6.5
656.604	8.5
657.363	8.5
658.121	10.5
658.88	8.5
659.638	6.5
660.397	8.5
661.155	7.5
661.913	9.5
662.671	8.5
663.429	6.5
664.187	8.5
664.945	6.5
665.703	8.5
666.46	5.5
667.218	5.5
667.976	7.5
668.733	5.5
669.49	8.5
670.248	6.5
671.005	9.5
671.762	5.5
672.519	9.5
673.276	8.5
674.033	4.5
674.79	8.5
675.547	4.5
676.304	6.5
677.06	5.5
677.817	5.5
678.574	6.5
679.33	5.5
680.086	7.5
680.843	5.5
681.599	7.5
682.355	5.5
683.111	6.5
683.867	5.5
684.623	4.5
685.379	5.5
686.135	4.5
686.89	5.5
687.646	7.5
688.402	3.5
689.157	5.5
689.912	6.5
690.668	6.5
691.423	4.5
692.178	3.5
692.933	4.5
693.688	5.5
694.443	4.5
695.198	7.5
695.953	4.5
696.708	6.5
697.462	5.5
698.217	5.5
698.972	4.5
699.726	6.5
700.48	5.5
701.235	3.5
701.989	7.5
702.743	5.5
703.497	3.5
704.251	4.5
705.005	5.5
705.759	3.5
706.513	2.5
707.266	5.5
708.02	5.5
708.774	4.5
709.527	4.5
710.28	3.5
711.034	7.5
711.787	1.5
712.54	5.5
713.293	4.5
714.046	4.5
714.799	7.5
715.552	5.5
716.305	6.5
717.058	4.5
717.81	4.5
718.563	5.5
719.315	5.5
720.068	4.5
720.82	3.5
721.573	4.5
722.325	5.5
723.077	4.5
723.829	5.5
724.581	5.5
725.333	7.5
726.085	7.5
726.836	6.5
727.588	5.5
728.34	4.5
729.091	5.5
729.843	6.5
730.594	4.5
731.346	3.5
732.097	5.5
732.848	8.5
733.599	5.5
734.35	5.5
735.101	7.5
735.852	6.5
736.603	6.5
737.354	4.5
738.104	6.5
738.855	6.5
739.605	6.5
740.356	5.5
741.106	6.5
741.856	4.5
742.607	3.5
743.357	9.5
744.107	6.5
744.857	6.5
745.607	6.5
746.357	4.5
747.106	6.5
747.856	5.5
748.606	6.5
749.355	7.5
750.105	4.5
750.854	6.5
751.603	5.5
752.353	7.5
753.102	7.5
753.851	5.5
754.6	8.5
755.349	8.5
756.098	8.5
756.847	6.5
757.595	7.5
758.344	6.5
759.093	8.5
759.841	9.5
760.589	9.5
761.338	6.5
762.086	8.5
762.834	10.5
763.582	9.5
764.331	6.5
765.079	9.5
765.826	9.5
766.574	10.5
767.322	8.5
768.07	9.5
768.817	9.5
769.565	11.5
770.312	7.5
771.06	9.5
771.807	11.5
772.554	11.5
773.302	7.5
774.049	9.5
774.796	9.5
775.543	9.5
776.29	9.5
777.036	10.5
777.783	8.5
778.53	8.5
779.276	9.5
780.023	12.5
780.769	11.5
781.516	11.5
782.262	13.5
783.008	12.5
783.754	6.5
784.5	11.5
785.246	10.5
785.992	10.5
786.738	12.5
787.484	8.5
788.23	10.5
788.975	8.5
789.721	11.5
790.466	10.5
791.212	13.5
791.957	11.5
792.702	7.5
793.447	10.5
794.193	8.5
794.938	9.5
795.683	8.5
796.427	9.5
797.172	10.5
797.917	11.5
798.662	8.5
799.406	8.5
800.151	10.5
800.895	5.5
801.64	9.5
802.384	9.5
803.128	6.5
803.872	7.5
804.616	8.5
805.36	9.5
806.104	9.5
806.848	8.5
807.592	9.5
808.336	8.5
809.079	7.5
809.823	8.5
810.566	7.5
811.31	5.5
812.053	6.5
812.796	7.5
813.539	6.5
814.283	5.5
815.026	7.5
815.769	6.5
816.511	7.5
817.254	6.5
817.997	6.5
818.74	6.5
819.482	3.5
820.225	5.5
820.967	4.5
821.71	7.5
822.452	7.5
823.194	4.5
823.936	4.5
824.678	6.5
825.42	6.5
826.162	2.5
826.904	6.5
827.646	5.5
828.388	4.5
829.129	3.5
829.871	4.5
830.612	5.5
831.354	4.5
832.095	4.5
832.836	6.5
833.577	3.5
834.319	4.5
835.06	3.5
835.801	6.5
836.542	5.5
837.282	3.5
838.023	2.5
838.764	3.5
839.504	5.5
840.245	3.5
840.985	3.5
841.726	5.5
842.466	4.5
843.206	4.5
843.946	2.5
844.687	5.5
845.427	4.5
846.166	1.5
846.906	6.5
847.646	3.5
848.386	4.5
849.125	3.5
849.865	1.5
850.605	6.5
851.344	3.5
852.083	3.5
852.823	5.5
853.562	3.5
854.301	4.5
855.04	4.5
855.779	4.5
856.518	4.5
857.257	2.5
857.995	3.5
858.734	0.5
859.473	3.5
860.211	0.5
860.95	3.5
861.688	1.5
862.426	3.5
863.165	2.5
863.903	2.5
864.641	1.5
865.379	0.5
866.117	3.5
866.855	0.5
867.593	2.5
868.33	2.5
869.068	3.5
869.806	2.5
870.543	0.5
871.28	0.5
872.018	0.5
872.755	-0.5
873.492	0.5
874.229	-2.5
874.967	2.5
875.703	2.5
876.44	-1.5
877.177	2.5
877.914	2.5
878.651	3.5
879.387	2.5
880.124	1.5
880.86	2.5
881.597	2.5
882.333	0.5
883.069	2.5
883.806	2.5
884.542	2.5
885.278	0.5
886.014	-0.5
886.749	-0.5
887.485	0.5
888.221	-0.5
888.957	0.5
889.692	2.5
890.428	0.5
891.163	0.5
891.899	-0.5
892.634	1.5
893.369	1.5
894.104	-1.5
894.839	1.5
895.574	0.5
896.309	2.5
897.044	0.5
897.779	0.5
898.514	2.5
899.248	1.5
899.983	1.5
900.717	0.5
901.452	0.5
902.186	1.5
902.92	1.5
903.654	2.5
904.389	-0.5
905.123	0.5
905.857	-0.5
906.59	2.5
907.324	0.5
908.058	-0.5
908.792	2.5
909.525	0.5
910.259	-0.5
910.992	2.5
911.726	-0.5
912.459	2.5
913.192	0.5
913.925	2.5
914.658	1.5
915.391	0.5
916.124	1.5
916.857	0.5
917.59	0.5
918.323	2.5
919.055	2.5
919.788	-0.5
920.521	-0.5
921.253	0.5
921.985	-0.5
922.718	0.5
923.45	0.5
924.182	1.5
924.914	0.5
925.646	3.5
926.378	-1.5
927.11	-1.5
927.841	-0.5
928.573	0.5
929.305	-0.5
930.036	-0.5
930.768	-0.5
931.499	2.5
932.23	0.5
932.962	1.5
933.693	1.5
934.424	-0.5
935.155	3.5
935.886	1.5
936.617	1.5
937.348	1.5
938.078	-1.5
938.809	0.5
939.54	-0.5
940.27	0.5
941.001	0.5
941.731	-0.5
942.461	-2.5
943.191	0.5
943.922	0.5
944.652	-0.5
945.382	2.5
946.112	1.5
946.841	1.5
947.571	0.5
948.301	-2.5
949.031	0.5
949.76	1.5
950.49	0.5
951.219	1.5
951.948	0.5
952.678	0.5
953.407	2.5
954.136	1.5
954.865	-1.5
955.594	-0.5
956.323	2.5
957.052	1.5
957.78	0.5
958.509	0.5
959.238	-1.5
959.966	-0.5
960.695	0.5
961.423	0.5
962.151	-0.5
962.88	0.5
963.608	1.5
964.336	-2.5
965.064	-1.5
965.792	0.5
966.52	0.5
967.247	2.5
967.975	0.5
968.703	-0.5
969.43	0.5
970.158	1.5
970.885	1.5
971.613	0.5
972.34	0.5
973.067	2.5
973.794	2.5
974.521	0.5
975.248	-1.5
975.975	0.5
976.702	0.5
977.429	-1.5
978.156	-0.5
978.882	2.5
979.609	1.5
980.335	0.5
981.062	-1.5
981.788	-1.5
982.514	0.5
983.24	-0.5
983.967	0.5
984.693	-1.5
985.419	0.5
986.144	0.5
986.87	-0.5
987.596	0.5
988.322	1.5
989.047	1.5
989.773	0.5
990.498	1.5
991.224	-0.5
991.949	-1.5
992.674	-0.5
993.399	1.5
994.124	-2.5
994.849	-1.5
995.574	-1.5
996.299	0.5
997.024	-0.5
997.749	1.5
998.473	-2.5
999.198	-3.5
999.922	2.5
1000.647	0.5
1001.371	2.5
1002.095	1.5
1002.82	-0.5
1003.544	-0.5
1004.268	2.5
1004.992	2.5
1005.716	-0.5
1006.439	2.5
1007.163	4.5
1007.887	2.5
1008.611	1.5
1009.334	0.5
1010.058	1.5
1010.781	1.5
1011.504	1.5
1012.228	1.5
1012.951	-1.5
1013.674	-1.5
1014.397	-0.5
1015.12	0.5
