节点500_425_QEPB04081__306__15-53-23-882.txt的数据

Date: Wed Nov 12 15:53:23 CST 2025
User: PC
Spectrometer: QEPB0408
触发模式: 0
积分时间 (秒): 1.000000E-2
Scans to average: 1
启用暗噪声校正: true
启用非线性校正: false
滑动平均宽度: 0
X轴模式: Wavelengths
Number of Pixels in Spectrum: 1044
>>>>>Begin Spectral Data<<<<<
220.843	2.62
221.644	0.62
222.444	5.62
223.244	2.62
224.045	5.62
224.845	4.62
225.645	1.62
226.445	2.62
227.245	3.62
228.045	1.62
228.845	4.62
229.645	6.62
230.444	4.62
231.244	4.62
232.043	5.62
232.843	4.62
233.642	2.62
234.442	5.62
235.241	4.62
236.04	5.62
236.839	5.62
237.638	6.62
238.437	7.62
239.236	4.62
240.035	7.62
240.833	5.62
241.632	6.62
242.43	8.62
243.229	9.62
244.027	7.62
244.826	8.62
245.624	7.62
246.422	7.62
247.22	11.62
248.018	10.62
248.816	9.62
249.614	10.62
250.412	10.62
251.21	8.62
252.007	6.62
252.805	8.62
253.602	11.62
254.4	8.62
255.197	13.62
255.994	11.62
256.791	12.62
257.589	14.62
258.386	12.62
259.183	13.62
259.979	16.62
260.776	14.62
261.573	15.62
262.37	14.62
263.166	15.62
263.963	16.62
264.759	15.62
265.556	18.62
266.352	17.62
267.148	17.62
267.944	19.62
268.74	18.62
269.536	18.62
270.332	20.62
271.128	23.62
271.924	21.62
272.719	20.62
273.515	21.62
274.311	22.62
275.106	21.62
275.901	21.62
276.697	20.62
277.492	18.62
278.287	21.62
279.082	24.62
279.877	25.62
280.672	23.62
281.467	23.62
282.262	26.62
283.056	24.62
283.851	27.62
284.646	21.62
285.44	25.62
286.234	25.62
287.029	23.62
287.823	21.62
288.617	21.62
289.411	25.62
290.205	20.62
290.999	23.62
291.793	20.62
292.587	22.62
293.381	22.62
294.174	19.62
294.968	23.62
295.761	20.62
296.555	20.62
297.348	18.62
298.141	20.62
298.935	21.62
299.728	18.62
300.521	18.62
301.314	14.62
302.107	17.62
302.899	17.62
303.692	15.62
304.485	15.62
305.277	16.62
306.07	13.62
306.862	13.62
307.655	16.62
308.447	16.62
309.239	14.62
310.031	13.62
310.823	11.62
311.615	14.62
312.407	13.62
313.199	12.62
313.991	12.62
314.783	13.62
315.574	13.62
316.366	10.62
317.157	9.62
317.949	12.62
318.74	10.62
319.531	10.62
320.322	9.62
321.113	6.62
321.904	9.62
322.695	9.62
323.486	10.62
324.277	8.62
325.068	9.62
325.858	8.62
326.649	9.62
327.439	7.62
328.23	10.62
329.02	8.62
329.81	11.62
330.6	8.62
331.391	10.62
332.181	8.62
332.971	10.62
333.76	8.62
334.55	7.62
335.34	8.62
336.13	8.62
336.919	8.62
337.709	8.62
338.498	9.62
339.287	7.62
340.077	8.62
340.866	8.62
341.655	5.62
342.444	9.62
343.233	8.62
344.022	10.62
344.811	8.62
345.6	7.62
346.388	7.62
347.177	7.62
347.965	9.62
348.754	7.62
349.542	7.62
350.33	7.62
351.119	8.62
351.907	8.62
352.695	6.62
353.483	6.62
354.271	6.62
355.059	5.62
355.846	6.62
356.634	6.62
357.422	10.62
358.209	6.62
358.997	6.62
359.784	7.62
360.571	6.62
361.359	8.62
362.146	6.62
362.933	8.62
363.72	7.62
364.507	6.62
365.294	7.62
366.081	7.62
366.867	7.62
367.654	7.62
368.44	5.62
369.227	6.62
370.013	5.62
370.8	5.62
371.586	7.62
372.372	6.62
373.158	5.62
373.944	4.62
374.73	4.62
375.516	8.62
376.302	5.62
377.088	7.62
377.873	7.62
378.659	6.62
379.445	5.62
380.23	6.62
381.015	9.62
381.801	9.62
382.586	8.62
383.371	4.62
384.156	7.62
384.941	5.62
385.726	7.62
386.511	6.62
387.296	7.62
388.08	6.62
388.865	7.62
389.649	10.62
390.434	8.62
391.218	9.62
392.003	7.62
392.787	8.62
393.571	6.62
394.355	7.62
395.139	8.62
395.923	5.62
396.707	7.62
397.491	10.62
398.274	9.62
399.058	11.62
399.842	7.62
400.625	8.62
401.408	7.62
402.192	8.62
402.975	9.62
403.758	9.62
404.541	10.62
405.324	6.62
406.107	11.62
406.89	11.62
407.673	9.62
408.456	10.62
409.238	10.62
410.021	10.62
410.803	11.62
411.586	10.62
412.368	11.62
413.151	10.62
413.933	8.62
414.715	12.62
415.497	11.62
416.279	11.62
417.061	14.62
417.843	15.62
418.624	11.62
419.406	14.62
420.188	14.62
420.969	14.62
421.751	12.62
422.532	16.62
423.313	14.62
424.095	13.62
424.876	13.62
425.657	15.62
426.438	14.62
427.219	15.62
428	16.62
428.78	17.62
429.561	16.62
430.342	20.62
431.122	19.62
431.903	18.62
432.683	19.62
433.464	22.62
434.244	22.62
435.024	22.62
435.804	23.62
436.584	22.62
437.364	23.62
438.144	27.62
438.924	28.62
439.704	29.62
440.483	32.62
441.263	33.62
442.042	38.62
442.822	36.62
443.601	43.62
444.38	44.62
445.16	45.62
445.939	52.62
446.718	54.62
447.497	60.62
448.276	66.62
449.054	68.62
449.833	73.62
450.612	83.62
451.391	86.62
452.169	99.62
452.948	112.62
453.726	117.62
454.504	128.62
455.282	149.62
456.061	162.62
456.839	184.62
457.617	199.62
458.395	220.62
459.172	247.62
459.95	280.62
460.728	306.62
461.506	350.62
462.283	384.62
463.061	421.62
463.838	477.62
464.615	526.62
465.393	597.62
466.17	666.62
466.947	747.62
467.724	822.62
468.501	919.62
469.278	1013.62
470.055	1121.62
470.831	1242.62
471.608	1381.62
472.385	1549.62
473.161	1691.62
473.938	1874.62
474.714	2083.62
475.49	2297.62
476.266	2515.62
477.043	2770.62
477.819	3052.62
478.595	3372.62
479.371	3710.62
480.146	4033.62
480.922	4457.62
481.698	4907.62
482.473	5348.62
483.249	5886.62
484.024	6426.62
484.8	7054.62
485.575	7687.62
486.35	8348.62
487.126	9113.62
487.901	9921.62
488.676	10850.62
489.451	11740.62
490.225	12750.62
491	13891.62
491.775	15090.62
492.55	16176.62
493.324	17467.62
494.099	18685.62
494.873	20000.62
495.647	21362.62
496.422	22649.62
497.196	24101.62
497.97	25545.62
498.744	26883.62
499.518	28186.62
500.292	29368.62
501.066	30401.62
501.839	31434.62
502.613	32365.62
503.387	33021.62
504.16	33516.62
504.934	33804.62
505.707	33906.62
506.48	33803.62
507.253	33619.62
508.027	33225.62
508.8	32670.62
509.573	32010.62
510.346	31180.62
511.118	30302.62
511.891	29370.62
512.664	28274.62
513.437	27142.62
514.209	26070.62
514.982	25078.62
515.754	24075.62
516.526	23087.62
517.298	22209.62
518.071	21194.62
518.843	20334.62
519.615	19492.62
520.387	18708.62
521.159	18031.62
521.93	17311.62
522.702	16640.62
523.474	15956.62
524.245	15322.62
525.017	14649.62
525.788	13974.62
526.56	13333.62
527.331	12701.62
528.102	12122.62
528.873	11530.62
529.644	11057.62
530.415	10514.62
531.186	9993.62
531.957	9480.62
532.728	8971.62
533.498	8479.62
534.269	7978.62
535.039	7567.62
535.81	7157.62
536.58	6792.62
537.351	6395.62
538.121	6049.62
538.891	5730.62
539.661	5425.62
540.431	5128.62
541.201	4855.62
541.971	4634.62
542.741	4398.62
543.51	4152.62
544.28	3936.62
545.05	3750.62
545.819	3566.62
546.588	3380.62
547.358	3223.62
548.127	3039.62
548.896	2903.62
549.665	2751.62
550.434	2612.62
551.203	2482.62
551.972	2370.62
552.741	2208.62
553.51	2110.62
554.278	1981.62
555.047	1847.62
555.815	1756.62
556.584	1663.62
557.352	1581.62
558.121	1486.62
558.889	1390.62
559.657	1328.62
560.425	1240.62
561.193	1188.62
561.961	1110.62
562.729	1050.62
563.496	1000.62
564.264	953.62
565.032	897.62
565.799	845.62
566.567	796.62
567.334	748.62
568.101	712.62
568.869	670.62
569.636	630.62
570.403	600.62
571.17	564.62
571.937	526.62
572.704	517.62
573.471	482.62
574.237	450.62
575.004	424.62
575.771	400.62
576.537	368.62
577.303	353.62
578.07	334.62
578.836	315.62
579.602	299.62
580.368	282.62
581.134	271.62
581.9	252.62
582.666	243.62
583.432	229.62
584.198	217.62
584.964	203.62
585.729	199.62
586.495	188.62
587.26	171.62
588.025	172.62
588.791	159.62
589.556	151.62
590.321	142.62
591.086	135.62
591.851	126.62
592.616	126.62
593.381	116.62
594.146	112.62
594.911	105.62
595.675	97.62
596.44	99.62
597.204	92.62
597.969	86.62
598.733	83.62
599.497	81.62
600.261	78.62
601.025	70.62
601.79	68.62
602.553	66.62
603.317	62.62
604.081	61.62
604.845	58.62
605.609	54.62
606.372	53.62
607.136	55.62
607.899	50.62
608.662	45.62
609.426	44.62
610.189	45.62
610.952	43.62
611.715	41.62
612.478	40.62
613.241	40.62
614.004	35.62
614.767	36.62
615.529	34.62
616.292	34.62
617.055	29.62
617.817	28.62
618.579	28.62
619.342	30.62
620.104	28.62
620.866	26.62
621.628	22.62
622.39	25.62
623.152	23.62
623.914	25.62
624.676	23.62
625.438	20.62
626.199	23.62
626.961	19.62
627.722	20.62
628.484	17.62
629.245	21.62
630.006	19.62
630.768	17.62
631.529	20.62
632.29	14.62
633.051	16.62
633.812	16.62
634.573	14.62
635.333	14.62
636.094	14.62
636.855	14.62
637.615	14.62
638.376	15.62
639.136	16.62
639.896	12.62
640.657	14.62
641.417	13.62
642.177	12.62
642.937	11.62
643.697	13.62
644.457	9.62
645.216	10.62
645.976	11.62
646.736	10.62
647.495	12.62
648.255	8.62
649.014	9.62
649.774	9.62
650.533	7.62
651.292	8.62
652.051	9.62
652.81	10.62
653.569	6.62
654.328	10.62
655.087	9.62
655.846	5.62
656.604	8.62
657.363	8.62
658.121	7.62
658.88	10.62
659.638	8.62
660.397	8.62
661.155	6.62
661.913	7.62
662.671	6.62
663.429	8.62
664.187	7.62
664.945	6.62
665.703	6.62
666.46	6.62
667.218	6.62
667.976	8.62
668.733	8.62
669.49	5.62
670.248	8.62
671.005	7.62
671.762	6.62
672.519	7.62
673.276	3.62
674.033	2.62
674.79	4.62
675.547	6.62
676.304	5.62
677.06	4.62
677.817	4.62
678.574	4.62
679.33	4.62
680.086	6.62
680.843	6.62
681.599	5.62
682.355	6.62
683.111	6.62
683.867	6.62
684.623	7.62
685.379	4.62
686.135	4.62
686.89	4.62
687.646	4.62
688.402	6.62
689.157	6.62
689.912	7.62
690.668	3.62
691.423	5.62
692.178	4.62
692.933	7.62
693.688	2.62
694.443	7.62
695.198	5.62
695.953	6.62
696.708	5.62
697.462	5.62
698.217	4.62
698.972	5.62
699.726	5.62
700.48	4.62
701.235	2.62
701.989	3.62
702.743	4.62
703.497	4.62
704.251	2.62
705.005	4.62
705.759	6.62
706.513	3.62
707.266	6.62
708.02	2.62
708.774	4.62
709.527	5.62
710.28	6.62
711.034	5.62
711.787	5.62
712.54	7.62
713.293	6.62
714.046	4.62
714.799	4.62
715.552	5.62
716.305	5.62
717.058	4.62
717.81	4.62
718.563	4.62
719.315	5.62
720.068	6.62
720.82	5.62
721.573	5.62
722.325	3.62
723.077	6.62
723.829	4.62
724.581	2.62
725.333	4.62
726.085	4.62
726.836	7.62
727.588	4.62
728.34	4.62
729.091	6.62
729.843	5.62
730.594	5.62
731.346	6.62
732.097	6.62
732.848	2.62
733.599	5.62
734.35	8.62
735.101	4.62
735.852	4.62
736.603	6.62
737.354	6.62
738.104	5.62
738.855	3.62
739.605	4.62
740.356	7.62
741.106	5.62
741.856	4.62
742.607	4.62
743.357	8.62
744.107	8.62
744.857	7.62
745.607	6.62
746.357	5.62
747.106	5.62
747.856	5.62
748.606	5.62
749.355	7.62
750.105	6.62
750.854	7.62
751.603	7.62
752.353	8.62
753.102	4.62
753.851	8.62
754.6	9.62
755.349	5.62
756.098	7.62
756.847	6.62
757.595	7.62
758.344	8.62
759.093	9.62
759.841	8.62
760.589	7.62
761.338	8.62
762.086	9.62
762.834	9.62
763.582	10.62
764.331	8.62
765.079	11.62
765.826	6.62
766.574	9.62
767.322	8.62
768.07	11.62
768.817	8.62
769.565	9.62
770.312	11.62
771.06	10.62
771.807	9.62
772.554	10.62
773.302	12.62
774.049	12.62
774.796	10.62
775.543	12.62
776.29	9.62
777.036	11.62
777.783	11.62
778.53	10.62
779.276	12.62
780.023	11.62
780.769	11.62
781.516	10.62
782.262	10.62
783.008	10.62
783.754	11.62
784.5	9.62
785.246	11.62
785.992	10.62
786.738	9.62
787.484	10.62
788.23	12.62
788.975	10.62
789.721	12.62
790.466	10.62
791.212	11.62
791.957	9.62
792.702	9.62
793.447	10.62
794.193	6.62
794.938	9.62
795.683	10.62
796.427	9.62
797.172	10.62
797.917	7.62
798.662	8.62
799.406	8.62
800.151	9.62
800.895	8.62
801.64	5.62
802.384	10.62
803.128	9.62
803.872	7.62
804.616	5.62
805.36	6.62
806.104	8.62
806.848	5.62
807.592	9.62
808.336	8.62
809.079	5.62
809.823	5.62
810.566	7.62
811.31	6.62
812.053	7.62
812.796	6.62
813.539	5.62
814.283	7.62
815.026	8.62
815.769	3.62
816.511	4.62
817.254	6.62
817.997	4.62
818.74	7.62
819.482	6.62
820.225	6.62
820.967	6.62
821.71	5.62
822.452	4.62
823.194	6.62
823.936	3.62
824.678	5.62
825.42	4.62
826.162	4.62
826.904	4.62
827.646	4.62
828.388	4.62
829.129	3.62
829.871	5.62
830.612	6.62
831.354	1.62
832.095	4.62
832.836	3.62
833.577	2.62
834.319	6.62
835.06	4.62
835.801	4.62
836.542	4.62
837.282	3.62
838.023	4.62
838.764	2.62
839.504	4.62
840.245	4.62
840.985	4.62
841.726	4.62
842.466	0.62
843.206	5.62
843.946	4.62
844.687	3.62
845.427	5.62
846.166	4.62
846.906	4.62
847.646	4.62
848.386	5.62
849.125	4.62
849.865	2.62
850.605	4.62
851.344	3.62
852.083	4.62
852.823	4.62
853.562	3.62
854.301	3.62
855.04	3.62
855.779	4.62
856.518	2.62
857.257	2.62
857.995	1.62
858.734	1.62
859.473	4.62
860.211	1.62
860.95	1.62
861.688	2.62
862.426	2.62
863.165	2.62
863.903	2.62
864.641	3.62
865.379	2.62
866.117	2.62
866.855	0.62
867.593	3.62
868.33	1.62
869.068	0.62
869.806	3.62
870.543	2.62
871.28	1.62
872.018	2.62
872.755	1.62
873.492	2.62
874.229	2.62
874.967	1.62
875.703	1.62
876.44	0.62
877.177	0.62
877.914	4.62
878.651	0.62
879.387	2.62
880.124	0.62
880.86	2.62
881.597	0.62
882.333	1.62
883.069	0.62
883.806	1.62
884.542	1.62
885.278	0.62
886.014	0.62
886.749	-0.38
887.485	2.62
888.221	0.62
888.957	2.62
889.692	2.62
890.428	0.62
891.163	2.62
891.899	0.62
892.634	0.62
893.369	0.62
894.104	1.62
894.839	0.62
895.574	0.62
896.309	2.62
897.044	0.62
897.779	0.62
898.514	1.62
899.248	0.62
899.983	1.62
900.717	0.62
901.452	1.62
902.186	0.62
902.92	0.62
903.654	0.62
904.389	1.62
905.123	-0.38
905.857	1.62
906.59	0.62
907.324	0.62
908.058	-1.38
908.792	0.62
909.525	0.62
910.259	2.62
910.992	-1.38
911.726	-0.38
912.459	0.62
913.192	0.62
913.925	0.62
914.658	0.62
915.391	2.62
916.124	0.62
916.857	2.62
917.59	0.62
918.323	0.62
919.055	2.62
919.788	1.62
920.521	0.62
921.253	1.62
921.985	-0.38
922.718	0.62
923.45	-1.38
924.182	3.62
924.914	-0.38
925.646	2.62
926.378	1.62
927.11	1.62
927.841	1.62
928.573	2.62
929.305	-0.38
930.036	0.62
930.768	-0.38
931.499	0.62
932.23	0.62
932.962	1.62
933.693	0.62
934.424	0.62
935.155	-0.38
935.886	-0.38
936.617	0.62
937.348	1.62
938.078	1.62
938.809	-0.38
939.54	1.62
940.27	1.62
941.001	0.62
941.731	-1.38
942.461	0.62
943.191	2.62
943.922	0.62
944.652	0.62
945.382	0.62
946.112	1.62
946.841	0.62
947.571	-1.38
948.301	0.62
949.031	2.62
949.76	-1.38
950.49	-0.38
951.219	1.62
951.948	-0.38
952.678	0.62
953.407	1.62
954.136	-1.38
954.865	-0.38
955.594	0.62
956.323	0.62
957.052	0.62
957.78	0.62
958.509	-1.38
959.238	1.62
959.966	1.62
960.695	2.62
961.423	-1.38
962.151	1.62
962.88	2.62
963.608	1.62
964.336	0.62
965.064	0.62
965.792	0.62
966.52	-0.38
967.247	-0.38
967.975	1.62
968.703	-0.38
969.43	0.62
970.158	2.62
970.885	1.62
971.613	-0.38
972.34	-0.38
973.067	-0.38
973.794	0.62
974.521	1.62
975.248	2.62
975.975	-1.38
976.702	1.62
977.429	-0.38
978.156	-0.38
978.882	0.62
979.609	1.62
980.335	2.62
981.062	-0.38
981.788	-0.38
982.514	0.62
983.24	0.62
983.967	0.62
984.693	-0.38
985.419	2.62
986.144	-1.38
986.87	0.62
987.596	1.62
988.322	0.62
989.047	2.62
989.773	0.62
990.498	-1.38
991.224	0.62
991.949	0.62
992.674	0.62
993.399	-0.38
994.124	2.62
994.849	-0.38
995.574	-0.38
996.299	-0.38
997.024	-0.38
997.749	-0.38
998.473	1.62
999.198	0.62
999.922	0.62
1000.647	-1.38
1001.371	4.62
1002.095	0.62
1002.82	-0.38
1003.544	-0.38
1004.268	2.62
1004.992	2.62
1005.716	2.62
1006.439	3.62
1007.163	3.62
1007.887	2.62
1008.611	-0.38
1009.334	0.62
1010.058	0.62
1010.781	-1.38
1011.504	1.62
1012.228	0.62
1012.951	-1.38
1013.674	-1.38
1014.397	-1.38
1015.12	-0.38
