节点500_425_QEPB04081__517__15-56-54-573.txt的数据

Date: Wed Nov 12 15:56:54 CST 2025
User: PC
Spectrometer: QEPB0408
触发模式: 0
积分时间 (秒): 1.000000E-2
Scans to average: 1
启用暗噪声校正: true
启用非线性校正: false
滑动平均宽度: 0
X轴模式: Wavelengths
Number of Pixels in Spectrum: 1044
>>>>>Begin Spectral Data<<<<<
220.843	3.25
221.644	2.25
222.444	2.25
223.244	4.25
224.045	4.25
224.845	2.25
225.645	2.25
226.445	2.25
227.245	3.25
228.045	3.25
228.845	1.25
229.645	5.25
230.444	7.25
231.244	6.25
232.043	6.25
232.843	5.25
233.642	4.25
234.442	4.25
235.241	6.25
236.04	3.25
236.839	7.25
237.638	8.25
238.437	2.25
239.236	5.25
240.035	7.25
240.833	10.25
241.632	6.25
242.43	9.25
243.229	10.25
244.027	7.25
244.826	7.25
245.624	8.25
246.422	9.25
247.22	7.25
248.018	9.25
248.816	6.25
249.614	8.25
250.412	10.25
251.21	10.25
252.007	7.25
252.805	8.25
253.602	12.25
254.4	10.25
255.197	10.25
255.994	12.25
256.791	10.25
257.589	10.25
258.386	13.25
259.183	12.25
259.979	12.25
260.776	14.25
261.573	12.25
262.37	11.25
263.166	13.25
263.963	13.25
264.759	14.25
265.556	16.25
266.352	14.25
267.148	16.25
267.944	16.25
268.74	18.25
269.536	17.25
270.332	17.25
271.128	19.25
271.924	20.25
272.719	18.25
273.515	23.25
274.311	17.25
275.106	20.25
275.901	21.25
276.697	22.25
277.492	19.25
278.287	20.25
279.082	24.25
279.877	24.25
280.672	23.25
281.467	21.25
282.262	23.25
283.056	23.25
283.851	23.25
284.646	21.25
285.44	23.25
286.234	23.25
287.029	23.25
287.823	24.25
288.617	22.25
289.411	24.25
290.205	21.25
290.999	23.25
291.793	23.25
292.587	21.25
293.381	21.25
294.174	20.25
294.968	22.25
295.761	20.25
296.555	18.25
297.348	17.25
298.141	18.25
298.935	19.25
299.728	17.25
300.521	14.25
301.314	17.25
302.107	17.25
302.899	15.25
303.692	16.25
304.485	16.25
305.277	16.25
306.07	15.25
306.862	15.25
307.655	14.25
308.447	15.25
309.239	14.25
310.031	15.25
310.823	14.25
311.615	13.25
312.407	12.25
313.199	13.25
313.991	13.25
314.783	11.25
315.574	10.25
316.366	11.25
317.157	11.25
317.949	8.25
318.74	11.25
319.531	10.25
320.322	7.25
321.113	10.25
321.904	10.25
322.695	11.25
323.486	8.25
324.277	10.25
325.068	9.25
325.858	7.25
326.649	9.25
327.439	9.25
328.23	9.25
329.02	8.25
329.81	9.25
330.6	8.25
331.391	9.25
332.181	8.25
332.971	8.25
333.76	9.25
334.55	9.25
335.34	5.25
336.13	9.25
336.919	9.25
337.709	10.25
338.498	8.25
339.287	7.25
340.077	7.25
340.866	8.25
341.655	8.25
342.444	6.25
343.233	5.25
344.022	9.25
344.811	5.25
345.6	7.25
346.388	4.25
347.177	8.25
347.965	8.25
348.754	7.25
349.542	8.25
350.33	7.25
351.119	9.25
351.907	8.25
352.695	10.25
353.483	10.25
354.271	6.25
355.059	9.25
355.846	6.25
356.634	7.25
357.422	8.25
358.209	6.25
358.997	9.25
359.784	7.25
360.571	6.25
361.359	7.25
362.146	7.25
362.933	10.25
363.72	6.25
364.507	7.25
365.294	6.25
366.081	6.25
366.867	8.25
367.654	6.25
368.44	6.25
369.227	4.25
370.013	4.25
370.8	4.25
371.586	7.25
372.372	8.25
373.158	5.25
373.944	6.25
374.73	6.25
375.516	4.25
376.302	5.25
377.088	5.25
377.873	4.25
378.659	4.25
379.445	9.25
380.23	6.25
381.015	5.25
381.801	8.25
382.586	5.25
383.371	7.25
384.156	7.25
384.941	6.25
385.726	7.25
386.511	5.25
387.296	8.25
388.08	7.25
388.865	5.25
389.649	8.25
390.434	7.25
391.218	10.25
392.003	8.25
392.787	8.25
393.571	6.25
394.355	7.25
395.139	9.25
395.923	7.25
396.707	6.25
397.491	7.25
398.274	10.25
399.058	8.25
399.842	9.25
400.625	12.25
401.408	6.25
402.192	11.25
402.975	9.25
403.758	8.25
404.541	8.25
405.324	9.25
406.107	11.25
406.89	9.25
407.673	9.25
408.456	10.25
409.238	8.25
410.021	13.25
410.803	10.25
411.586	14.25
412.368	10.25
413.151	10.25
413.933	11.25
414.715	10.25
415.497	11.25
416.279	12.25
417.061	13.25
417.843	10.25
418.624	11.25
419.406	14.25
420.188	12.25
420.969	16.25
421.751	13.25
422.532	14.25
423.313	14.25
424.095	13.25
424.876	15.25
425.657	14.25
426.438	14.25
427.219	17.25
428	17.25
428.78	17.25
429.561	19.25
430.342	18.25
431.122	21.25
431.903	22.25
432.683	20.25
433.464	20.25
434.244	24.25
435.024	25.25
435.804	26.25
436.584	24.25
437.364	27.25
438.144	29.25
438.924	32.25
439.704	30.25
440.483	32.25
441.263	36.25
442.042	39.25
442.822	43.25
443.601	47.25
444.38	45.25
445.16	48.25
445.939	55.25
446.718	59.25
447.497	66.25
448.276	71.25
449.054	77.25
449.833	86.25
450.612	89.25
451.391	103.25
452.169	107.25
452.948	118.25
453.726	131.25
454.504	151.25
455.282	164.25
456.061	182.25
456.839	205.25
457.617	222.25
458.395	244.25
459.172	270.25
459.95	309.25
460.728	353.25
461.506	390.25
462.283	425.25
463.061	474.25
463.838	530.25
464.615	592.25
465.393	650.25
466.17	721.25
466.947	806.25
467.724	882.25
468.501	992.25
469.278	1088.25
470.055	1193.25
470.831	1336.25
471.608	1473.25
472.385	1628.25
473.161	1792.25
473.938	1965.25
474.714	2150.25
475.49	2391.25
476.266	2610.25
477.043	2850.25
477.819	3119.25
478.595	3424.25
479.371	3759.25
480.146	4090.25
480.922	4443.25
481.698	4855.25
482.473	5289.25
483.249	5764.25
484.024	6277.25
484.8	6874.25
485.575	7438.25
486.35	8035.25
487.126	8752.25
487.901	9546.25
488.676	10295.25
489.451	11163.25
490.225	12055.25
491	13029.25
491.775	14107.25
492.55	15124.25
493.324	16273.25
494.099	17414.25
494.873	18526.25
495.647	19809.25
496.422	21095.25
497.196	22328.25
497.97	23774.25
498.744	25033.25
499.518	26279.25
500.292	27383.25
501.066	28534.25
501.839	29572.25
502.613	30594.25
503.387	31403.25
504.16	32055.25
504.934	32578.25
505.707	32815.25
506.48	32951.25
507.253	32921.25
508.027	32783.25
508.8	32514.25
509.573	32097.25
510.346	31397.25
511.118	30760.25
511.891	29994.25
512.664	29076.25
513.437	28099.25
514.209	27076.25
514.982	26180.25
515.754	25179.25
516.526	24178.25
517.298	23224.25
518.071	22274.25
518.843	21344.25
519.615	20547.25
520.387	19739.25
521.159	19014.25
521.93	18277.25
522.702	17506.25
523.474	16802.25
524.245	16224.25
525.017	15499.25
525.788	14782.25
526.56	14113.25
527.331	13567.25
528.102	12930.25
528.873	12319.25
529.644	11776.25
530.415	11267.25
531.186	10747.25
531.957	10190.25
532.728	9716.25
533.498	9183.25
534.269	8708.25
535.039	8227.25
535.81	7748.25
536.58	7350.25
537.351	6967.25
538.121	6596.25
538.891	6203.25
539.661	5909.25
540.431	5581.25
541.201	5307.25
541.971	5030.25
542.741	4770.25
543.51	4544.25
544.28	4285.25
545.05	4102.25
545.819	3895.25
546.588	3691.25
547.358	3522.25
548.127	3305.25
548.896	3167.25
549.665	3009.25
550.434	2864.25
551.203	2714.25
551.972	2553.25
552.741	2450.25
553.51	2308.25
554.278	2199.25
555.047	2050.25
555.815	1952.25
556.584	1861.25
557.352	1721.25
558.121	1634.25
558.889	1540.25
559.657	1470.25
560.425	1388.25
561.193	1319.25
561.961	1247.25
562.729	1176.25
563.496	1105.25
564.264	1047.25
565.032	987.25
565.799	929.25
566.567	898.25
567.334	830.25
568.101	798.25
568.869	745.25
569.636	712.25
570.403	662.25
571.17	624.25
571.937	590.25
572.704	558.25
573.471	537.25
574.237	490.25
575.004	472.25
575.771	436.25
576.537	411.25
577.303	389.25
578.07	375.25
578.836	351.25
579.602	327.25
580.368	315.25
581.134	296.25
581.9	284.25
582.666	274.25
583.432	253.25
584.198	239.25
584.964	231.25
585.729	218.25
586.495	199.25
587.26	189.25
588.025	180.25
588.791	175.25
589.556	164.25
590.321	164.25
591.086	148.25
591.851	146.25
592.616	131.25
593.381	131.25
594.146	123.25
594.911	113.25
595.675	111.25
596.44	103.25
597.204	105.25
597.969	98.25
598.733	93.25
599.497	90.25
600.261	83.25
601.025	81.25
601.79	72.25
602.553	73.25
603.317	70.25
604.081	70.25
604.845	66.25
605.609	62.25
606.372	58.25
607.136	57.25
607.899	57.25
608.662	55.25
609.426	50.25
610.189	47.25
610.952	45.25
611.715	41.25
612.478	44.25
613.241	42.25
614.004	41.25
614.767	37.25
615.529	37.25
616.292	35.25
617.055	36.25
617.817	30.25
618.579	33.25
619.342	32.25
620.104	30.25
620.866	27.25
621.628	27.25
622.39	24.25
623.152	27.25
623.914	28.25
624.676	26.25
625.438	22.25
626.199	22.25
626.961	23.25
627.722	22.25
628.484	24.25
629.245	20.25
630.006	20.25
630.768	18.25
631.529	19.25
632.29	17.25
633.051	16.25
633.812	15.25
634.573	17.25
635.333	16.25
636.094	14.25
636.855	15.25
637.615	13.25
638.376	14.25
639.136	12.25
639.896	16.25
640.657	12.25
641.417	12.25
642.177	14.25
642.937	13.25
643.697	13.25
644.457	10.25
645.216	11.25
645.976	13.25
646.736	12.25
647.495	9.25
648.255	10.25
649.014	11.25
649.774	11.25
650.533	12.25
651.292	9.25
652.051	10.25
652.81	10.25
653.569	8.25
654.328	9.25
655.087	8.25
655.846	9.25
656.604	9.25
657.363	9.25
658.121	9.25
658.88	6.25
659.638	10.25
660.397	8.25
661.155	10.25
661.913	8.25
662.671	7.25
663.429	7.25
664.187	7.25
664.945	8.25
665.703	8.25
666.46	7.25
667.218	6.25
667.976	5.25
668.733	10.25
669.49	7.25
670.248	5.25
671.005	8.25
671.762	7.25
672.519	7.25
673.276	6.25
674.033	4.25
674.79	7.25
675.547	7.25
676.304	7.25
677.06	5.25
677.817	7.25
678.574	6.25
679.33	4.25
680.086	6.25
680.843	2.25
681.599	6.25
682.355	5.25
683.111	5.25
683.867	5.25
684.623	4.25
685.379	7.25
686.135	5.25
686.89	4.25
687.646	4.25
688.402	5.25
689.157	4.25
689.912	4.25
690.668	4.25
691.423	5.25
692.178	5.25
692.933	6.25
693.688	6.25
694.443	4.25
695.198	5.25
695.953	4.25
696.708	5.25
697.462	5.25
698.217	4.25
698.972	5.25
699.726	3.25
700.48	4.25
701.235	4.25
701.989	6.25
702.743	6.25
703.497	6.25
704.251	3.25
705.005	4.25
705.759	2.25
706.513	6.25
707.266	3.25
708.02	4.25
708.774	5.25
709.527	5.25
710.28	6.25
711.034	4.25
711.787	3.25
712.54	5.25
713.293	2.25
714.046	6.25
714.799	4.25
715.552	5.25
716.305	4.25
717.058	3.25
717.81	7.25
718.563	6.25
719.315	6.25
720.068	6.25
720.82	4.25
721.573	4.25
722.325	3.25
723.077	8.25
723.829	6.25
724.581	4.25
725.333	4.25
726.085	2.25
726.836	6.25
727.588	5.25
728.34	3.25
729.091	5.25
729.843	3.25
730.594	3.25
731.346	5.25
732.097	8.25
732.848	6.25
733.599	8.25
734.35	4.25
735.101	4.25
735.852	6.25
736.603	7.25
737.354	5.25
738.104	7.25
738.855	6.25
739.605	5.25
740.356	7.25
741.106	7.25
741.856	8.25
742.607	5.25
743.357	3.25
744.107	6.25
744.857	7.25
745.607	6.25
746.357	4.25
747.106	6.25
747.856	8.25
748.606	6.25
749.355	5.25
750.105	7.25
750.854	7.25
751.603	7.25
752.353	8.25
753.102	6.25
753.851	8.25
754.6	9.25
755.349	7.25
756.098	5.25
756.847	5.25
757.595	9.25
758.344	6.25
759.093	8.25
759.841	6.25
760.589	9.25
761.338	7.25
762.086	5.25
762.834	9.25
763.582	6.25
764.331	9.25
765.079	8.25
765.826	8.25
766.574	8.25
767.322	8.25
768.07	10.25
768.817	7.25
769.565	8.25
770.312	7.25
771.06	8.25
771.807	10.25
772.554	10.25
773.302	9.25
774.049	11.25
774.796	10.25
775.543	11.25
776.29	7.25
777.036	11.25
777.783	9.25
778.53	9.25
779.276	11.25
780.023	8.25
780.769	9.25
781.516	9.25
782.262	8.25
783.008	11.25
783.754	8.25
784.5	11.25
785.246	7.25
785.992	14.25
786.738	8.25
787.484	11.25
788.23	11.25
788.975	11.25
789.721	10.25
790.466	10.25
791.212	11.25
791.957	10.25
792.702	11.25
793.447	12.25
794.193	10.25
794.938	10.25
795.683	11.25
796.427	12.25
797.172	11.25
797.917	10.25
798.662	8.25
799.406	8.25
800.151	12.25
800.895	8.25
801.64	7.25
802.384	7.25
803.128	8.25
803.872	10.25
804.616	9.25
805.36	9.25
806.104	9.25
806.848	9.25
807.592	5.25
808.336	5.25
809.079	8.25
809.823	6.25
810.566	8.25
811.31	5.25
812.053	5.25
812.796	5.25
813.539	5.25
814.283	6.25
815.026	6.25
815.769	7.25
816.511	6.25
817.254	5.25
817.997	7.25
818.74	7.25
819.482	5.25
820.225	5.25
820.967	4.25
821.71	6.25
822.452	4.25
823.194	6.25
823.936	4.25
824.678	4.25
825.42	3.25
826.162	5.25
826.904	5.25
827.646	5.25
828.388	6.25
829.129	4.25
829.871	5.25
830.612	5.25
831.354	6.25
832.095	4.25
832.836	3.25
833.577	6.25
834.319	4.25
835.06	2.25
835.801	4.25
836.542	5.25
837.282	4.25
838.023	3.25
838.764	7.25
839.504	2.25
840.245	3.25
840.985	4.25
841.726	3.25
842.466	4.25
843.206	3.25
843.946	3.25
844.687	1.25
845.427	3.25
846.166	3.25
846.906	2.25
847.646	2.25
848.386	2.25
849.125	4.25
849.865	8.25
850.605	1.25
851.344	5.25
852.083	3.25
852.823	2.25
853.562	5.25
854.301	1.25
855.04	4.25
855.779	6.25
856.518	1.25
857.257	3.25
857.995	1.25
858.734	2.25
859.473	3.25
860.211	2.25
860.95	3.25
861.688	2.25
862.426	1.25
863.165	2.25
863.903	2.25
864.641	1.25
865.379	2.25
866.117	2.25
866.855	2.25
867.593	3.25
868.33	-1.75
869.068	1.25
869.806	1.25
870.543	2.25
871.28	0.25
872.018	-0.75
872.755	2.25
873.492	1.25
874.229	0.25
874.967	2.25
875.703	2.25
876.44	2.25
877.177	1.25
877.914	0.25
878.651	1.25
879.387	-0.75
880.124	-0.75
880.86	2.25
881.597	1.25
882.333	0.25
883.069	3.25
883.806	0.25
884.542	-1.75
885.278	3.25
886.014	1.25
886.749	2.25
887.485	1.25
888.221	-0.75
888.957	1.25
889.692	0.25
890.428	2.25
891.163	0.25
891.899	0.25
892.634	2.25
893.369	2.25
894.104	1.25
894.839	1.25
895.574	2.25
896.309	2.25
897.044	0.25
897.779	1.25
898.514	-0.75
899.248	1.25
899.983	0.25
900.717	1.25
901.452	1.25
902.186	1.25
902.92	0.25
903.654	-1.75
904.389	-0.75
905.123	-0.75
905.857	2.25
906.59	0.25
907.324	0.25
908.058	3.25
908.792	0.25
909.525	1.25
910.259	1.25
910.992	-1.75
911.726	2.25
912.459	-0.75
913.192	1.25
913.925	0.25
914.658	-1.75
915.391	0.25
916.124	0.25
916.857	0.25
917.59	1.25
918.323	0.25
919.055	1.25
919.788	-0.75
920.521	0.25
921.253	0.25
921.985	2.25
922.718	0.25
923.45	0.25
924.182	1.25
924.914	2.25
925.646	-1.75
926.378	-0.75
927.11	1.25
927.841	0.25
928.573	1.25
929.305	-0.75
930.036	-1.75
930.768	-0.75
931.499	1.25
932.23	-1.75
932.962	0.25
933.693	1.25
934.424	0.25
935.155	0.25
935.886	-0.75
936.617	-0.75
937.348	-0.75
938.078	0.25
938.809	0.25
939.54	2.25
940.27	0.25
941.001	0.25
941.731	0.25
942.461	1.25
943.191	1.25
943.922	-1.75
944.652	1.25
945.382	2.25
946.112	1.25
946.841	2.25
947.571	2.25
948.301	0.25
949.031	0.25
949.76	0.25
950.49	1.25
951.219	1.25
951.948	0.25
952.678	0.25
953.407	1.25
954.136	0.25
954.865	0.25
955.594	-0.75
956.323	0.25
957.052	0.25
957.78	-0.75
958.509	-0.75
959.238	-0.75
959.966	-0.75
960.695	1.25
961.423	1.25
962.151	1.25
962.88	4.25
963.608	-0.75
964.336	0.25
965.064	0.25
965.792	-2.75
966.52	-0.75
967.247	2.25
967.975	2.25
968.703	0.25
969.43	1.25
970.158	0.25
970.885	-0.75
971.613	-0.75
972.34	-0.75
973.067	-0.75
973.794	-1.75
974.521	0.25
975.248	-1.75
975.975	0.25
976.702	1.25
977.429	3.25
978.156	0.25
978.882	0.25
979.609	-0.75
980.335	1.25
981.062	-0.75
981.788	-1.75
982.514	-1.75
983.24	1.25
983.967	0.25
984.693	0.25
985.419	0.25
986.144	-2.75
986.87	0.25
987.596	-0.75
988.322	0.25
989.047	-0.75
989.773	-0.75
990.498	0.25
991.224	1.25
991.949	2.25
992.674	-0.75
993.399	0.25
994.124	-0.75
994.849	0.25
995.574	0.25
996.299	0.25
997.024	2.25
997.749	-1.75
998.473	0.25
999.198	0.25
999.922	-1.75
1000.647	0.25
1001.371	4.25
1002.095	-0.75
1002.82	-1.75
1003.544	-2.75
1004.268	1.25
1004.992	1.25
1005.716	1.25
1006.439	3.25
1007.163	0.25
1007.887	3.25
1008.611	0.25
1009.334	-0.75
1010.058	-3.75
1010.781	-0.75
1011.504	2.25
1012.228	-0.75
1012.951	-0.75
1013.674	2.25
1014.397	-0.75
1015.12	0.25
