节点500_425_QEPB04081__600__15-58-17-429.txt的数据

Date: Wed Nov 12 15:58:17 CST 2025
User: PC
Spectrometer: QEPB0408
触发模式: 0
积分时间 (秒): 1.000000E-2
Scans to average: 1
启用暗噪声校正: true
启用非线性校正: false
滑动平均宽度: 0
X轴模式: Wavelengths
Number of Pixels in Spectrum: 1044
>>>>>Begin Spectral Data<<<<<
220.843	2.62
221.644	2.62
222.444	3.62
223.244	2.62
224.045	5.62
224.845	5.62
225.645	2.62
226.445	4.62
227.245	4.62
228.045	4.62
228.845	2.62
229.645	5.62
230.444	4.62
231.244	5.62
232.043	6.62
232.843	6.62
233.642	6.62
234.442	5.62
235.241	3.62
236.04	4.62
236.839	6.62
237.638	7.62
238.437	6.62
239.236	6.62
240.035	5.62
240.833	5.62
241.632	7.62
242.43	7.62
243.229	6.62
244.027	9.62
244.826	7.62
245.624	8.62
246.422	7.62
247.22	6.62
248.018	10.62
248.816	7.62
249.614	10.62
250.412	8.62
251.21	11.62
252.007	10.62
252.805	10.62
253.602	8.62
254.4	11.62
255.197	10.62
255.994	9.62
256.791	10.62
257.589	10.62
258.386	12.62
259.183	12.62
259.979	11.62
260.776	16.62
261.573	14.62
262.37	13.62
263.166	14.62
263.963	12.62
264.759	12.62
265.556	14.62
266.352	14.62
267.148	18.62
267.944	17.62
268.74	18.62
269.536	18.62
270.332	17.62
271.128	17.62
271.924	19.62
272.719	21.62
273.515	17.62
274.311	20.62
275.106	20.62
275.901	22.62
276.697	20.62
277.492	20.62
278.287	24.62
279.082	20.62
279.877	23.62
280.672	21.62
281.467	23.62
282.262	24.62
283.056	21.62
283.851	23.62
284.646	24.62
285.44	22.62
286.234	20.62
287.029	20.62
287.823	24.62
288.617	22.62
289.411	23.62
290.205	21.62
290.999	22.62
291.793	18.62
292.587	18.62
293.381	21.62
294.174	19.62
294.968	19.62
295.761	18.62
296.555	19.62
297.348	18.62
298.141	16.62
298.935	20.62
299.728	19.62
300.521	18.62
301.314	16.62
302.107	16.62
302.899	17.62
303.692	15.62
304.485	16.62
305.277	13.62
306.07	16.62
306.862	13.62
307.655	16.62
308.447	15.62
309.239	15.62
310.031	14.62
310.823	15.62
311.615	12.62
312.407	14.62
313.199	11.62
313.991	10.62
314.783	12.62
315.574	12.62
316.366	10.62
317.157	9.62
317.949	12.62
318.74	10.62
319.531	9.62
320.322	12.62
321.113	9.62
321.904	9.62
322.695	13.62
323.486	8.62
324.277	9.62
325.068	10.62
325.858	11.62
326.649	10.62
327.439	7.62
328.23	11.62
329.02	6.62
329.81	8.62
330.6	8.62
331.391	7.62
332.181	10.62
332.971	10.62
333.76	7.62
334.55	7.62
335.34	6.62
336.13	6.62
336.919	8.62
337.709	7.62
338.498	6.62
339.287	9.62
340.077	8.62
340.866	8.62
341.655	7.62
342.444	8.62
343.233	7.62
344.022	8.62
344.811	10.62
345.6	7.62
346.388	9.62
347.177	8.62
347.965	9.62
348.754	7.62
349.542	5.62
350.33	8.62
351.119	9.62
351.907	8.62
352.695	9.62
353.483	7.62
354.271	8.62
355.059	7.62
355.846	9.62
356.634	8.62
357.422	8.62
358.209	4.62
358.997	6.62
359.784	8.62
360.571	6.62
361.359	8.62
362.146	7.62
362.933	7.62
363.72	9.62
364.507	6.62
365.294	6.62
366.081	6.62
366.867	6.62
367.654	6.62
368.44	6.62
369.227	6.62
370.013	5.62
370.8	8.62
371.586	3.62
372.372	6.62
373.158	7.62
373.944	5.62
374.73	5.62
375.516	8.62
376.302	6.62
377.088	7.62
377.873	9.62
378.659	7.62
379.445	7.62
380.23	8.62
381.015	7.62
381.801	7.62
382.586	8.62
383.371	6.62
384.156	6.62
384.941	8.62
385.726	7.62
386.511	7.62
387.296	6.62
388.08	6.62
388.865	6.62
389.649	7.62
390.434	9.62
391.218	7.62
392.003	8.62
392.787	6.62
393.571	7.62
394.355	7.62
395.139	9.62
395.923	8.62
396.707	7.62
397.491	8.62
398.274	11.62
399.058	9.62
399.842	7.62
400.625	7.62
401.408	8.62
402.192	10.62
402.975	9.62
403.758	10.62
404.541	10.62
405.324	9.62
406.107	9.62
406.89	11.62
407.673	10.62
408.456	11.62
409.238	10.62
410.021	10.62
410.803	10.62
411.586	11.62
412.368	11.62
413.151	12.62
413.933	12.62
414.715	13.62
415.497	11.62
416.279	12.62
417.061	11.62
417.843	13.62
418.624	14.62
419.406	12.62
420.188	14.62
420.969	9.62
421.751	17.62
422.532	14.62
423.313	12.62
424.095	14.62
424.876	17.62
425.657	14.62
426.438	16.62
427.219	19.62
428	14.62
428.78	17.62
429.561	20.62
430.342	18.62
431.122	20.62
431.903	18.62
432.683	20.62
433.464	22.62
434.244	22.62
435.024	23.62
435.804	23.62
436.584	28.62
437.364	26.62
438.144	30.62
438.924	32.62
439.704	34.62
440.483	36.62
441.263	38.62
442.042	39.62
442.822	42.62
443.601	46.62
444.38	47.62
445.16	51.62
445.939	52.62
446.718	59.62
447.497	67.62
448.276	72.62
449.054	78.62
449.833	84.62
450.612	90.62
451.391	101.62
452.169	110.62
452.948	119.62
453.726	134.62
454.504	150.62
455.282	167.62
456.061	184.62
456.839	206.62
457.617	230.62
458.395	252.62
459.172	285.62
459.95	313.62
460.728	353.62
461.506	389.62
462.283	434.62
463.061	483.62
463.838	537.62
464.615	605.62
465.393	662.62
466.17	740.62
466.947	818.62
467.724	904.62
468.501	994.62
469.278	1098.62
470.055	1223.62
470.831	1351.62
471.608	1476.62
472.385	1625.62
473.161	1801.62
473.938	1972.62
474.714	2179.62
475.49	2371.62
476.266	2604.62
477.043	2832.62
477.819	3093.62
478.595	3392.62
479.371	3735.62
480.146	4058.62
480.922	4397.62
481.698	4824.62
482.473	5248.62
483.249	5701.62
484.024	6238.62
484.8	6786.62
485.575	7317.62
486.35	7950.62
487.126	8619.62
487.901	9366.62
488.676	10095.62
489.451	10916.62
490.225	11833.62
491	12745.62
491.775	13792.62
492.55	14784.62
493.324	15907.62
494.099	16942.62
494.873	18070.62
495.647	19308.62
496.422	20501.62
497.196	21810.62
497.97	23121.62
498.744	24359.62
499.518	25613.62
500.292	26792.62
501.066	27940.62
501.839	28990.62
502.613	29927.62
503.387	30736.62
504.16	31376.62
504.934	31921.62
505.707	32314.62
506.48	32474.62
507.253	32421.62
508.027	32376.62
508.8	32125.62
509.573	31784.62
510.346	31237.62
511.118	30587.62
511.891	29843.62
512.664	29001.62
513.437	28028.62
514.209	27037.62
514.982	26193.62
515.754	25235.62
516.526	24343.62
517.298	23308.62
518.071	22369.62
518.843	21484.62
519.615	20633.62
520.387	19786.62
521.159	19027.62
521.93	18320.62
522.702	17558.62
523.474	16922.62
524.245	16253.62
525.017	15528.62
525.788	14842.62
526.56	14264.62
527.331	13605.62
528.102	13000.62
528.873	12420.62
529.644	11886.62
530.415	11360.62
531.186	10876.62
531.957	10307.62
532.728	9810.62
533.498	9273.62
534.269	8786.62
535.039	8356.62
535.81	7915.62
536.58	7445.62
537.351	7059.62
538.121	6713.62
538.891	6334.62
539.661	5968.62
540.431	5680.62
541.201	5380.62
541.971	5087.62
542.741	4829.62
543.51	4587.62
544.28	4337.62
545.05	4161.62
545.819	3952.62
546.588	3778.62
547.358	3561.62
548.127	3389.62
548.896	3223.62
549.665	3064.62
550.434	2932.62
551.203	2747.62
551.972	2616.62
552.741	2482.62
553.51	2347.62
554.278	2218.62
555.047	2091.62
555.815	1976.62
556.584	1868.62
557.352	1771.62
558.121	1661.62
558.889	1562.62
559.657	1485.62
560.425	1406.62
561.193	1336.62
561.961	1277.62
562.729	1200.62
563.496	1126.62
564.264	1060.62
565.032	1013.62
565.799	962.62
566.567	912.62
567.334	854.62
568.101	803.62
568.869	761.62
569.636	721.62
570.403	676.62
571.17	633.62
571.937	604.62
572.704	578.62
573.471	529.62
574.237	508.62
575.004	482.62
575.771	454.62
576.537	422.62
577.303	404.62
578.07	379.62
578.836	353.62
579.602	337.62
580.368	319.62
581.134	306.62
581.9	285.62
582.666	267.62
583.432	257.62
584.198	252.62
584.964	229.62
585.729	225.62
586.495	211.62
587.26	196.62
588.025	186.62
588.791	182.62
589.556	172.62
590.321	160.62
591.086	149.62
591.851	144.62
592.616	136.62
593.381	133.62
594.146	122.62
594.911	124.62
595.675	112.62
596.44	105.62
597.204	104.62
597.969	98.62
598.733	95.62
599.497	86.62
600.261	84.62
601.025	82.62
601.79	76.62
602.553	75.62
603.317	71.62
604.081	72.62
604.845	68.62
605.609	61.62
606.372	60.62
607.136	59.62
607.899	57.62
608.662	53.62
609.426	52.62
610.189	48.62
610.952	46.62
611.715	44.62
612.478	42.62
613.241	45.62
614.004	38.62
614.767	41.62
615.529	39.62
616.292	33.62
617.055	38.62
617.817	35.62
618.579	29.62
619.342	32.62
620.104	31.62
620.866	33.62
621.628	27.62
622.39	27.62
623.152	22.62
623.914	25.62
624.676	24.62
625.438	24.62
626.199	25.62
626.961	23.62
627.722	21.62
628.484	20.62
629.245	18.62
630.006	21.62
630.768	20.62
631.529	22.62
632.29	16.62
633.051	16.62
633.812	17.62
634.573	18.62
635.333	15.62
636.094	14.62
636.855	13.62
637.615	17.62
638.376	11.62
639.136	12.62
639.896	12.62
640.657	13.62
641.417	13.62
642.177	12.62
642.937	10.62
643.697	11.62
644.457	12.62
645.216	11.62
645.976	10.62
646.736	11.62
647.495	11.62
648.255	10.62
649.014	10.62
649.774	10.62
650.533	8.62
651.292	10.62
652.051	9.62
652.81	9.62
653.569	9.62
654.328	6.62
655.087	8.62
655.846	7.62
656.604	8.62
657.363	10.62
658.121	9.62
658.88	7.62
659.638	7.62
660.397	8.62
661.155	8.62
661.913	8.62
662.671	8.62
663.429	7.62
664.187	7.62
664.945	7.62
665.703	8.62
666.46	7.62
667.218	5.62
667.976	6.62
668.733	7.62
669.49	8.62
670.248	4.62
671.005	5.62
671.762	5.62
672.519	7.62
673.276	6.62
674.033	4.62
674.79	6.62
675.547	8.62
676.304	6.62
677.06	7.62
677.817	5.62
678.574	6.62
679.33	7.62
680.086	7.62
680.843	4.62
681.599	4.62
682.355	6.62
683.111	5.62
683.867	5.62
684.623	6.62
685.379	7.62
686.135	3.62
686.89	5.62
687.646	7.62
688.402	4.62
689.157	4.62
689.912	3.62
690.668	5.62
691.423	7.62
692.178	3.62
692.933	7.62
693.688	5.62
694.443	5.62
695.198	2.62
695.953	5.62
696.708	4.62
697.462	4.62
698.217	5.62
698.972	4.62
699.726	3.62
700.48	3.62
701.235	6.62
701.989	2.62
702.743	7.62
703.497	5.62
704.251	4.62
705.005	2.62
705.759	6.62
706.513	5.62
707.266	4.62
708.02	2.62
708.774	5.62
709.527	5.62
710.28	6.62
711.034	7.62
711.787	6.62
712.54	5.62
713.293	5.62
714.046	4.62
714.799	5.62
715.552	4.62
716.305	8.62
717.058	4.62
717.81	4.62
718.563	8.62
719.315	3.62
720.068	5.62
720.82	4.62
721.573	7.62
722.325	4.62
723.077	3.62
723.829	6.62
724.581	4.62
725.333	6.62
726.085	5.62
726.836	4.62
727.588	4.62
728.34	4.62
729.091	4.62
729.843	5.62
730.594	7.62
731.346	6.62
732.097	3.62
732.848	3.62
733.599	6.62
734.35	5.62
735.101	7.62
735.852	5.62
736.603	4.62
737.354	5.62
738.104	5.62
738.855	5.62
739.605	3.62
740.356	6.62
741.106	6.62
741.856	6.62
742.607	4.62
743.357	6.62
744.107	8.62
744.857	5.62
745.607	6.62
746.357	5.62
747.106	8.62
747.856	6.62
748.606	7.62
749.355	5.62
750.105	5.62
750.854	7.62
751.603	4.62
752.353	6.62
753.102	6.62
753.851	8.62
754.6	8.62
755.349	5.62
756.098	6.62
756.847	7.62
757.595	6.62
758.344	8.62
759.093	4.62
759.841	5.62
760.589	8.62
761.338	7.62
762.086	7.62
762.834	7.62
763.582	6.62
764.331	5.62
765.079	8.62
765.826	7.62
766.574	11.62
767.322	7.62
768.07	8.62
768.817	10.62
769.565	8.62
770.312	12.62
771.06	9.62
771.807	9.62
772.554	9.62
773.302	8.62
774.049	10.62
774.796	7.62
775.543	9.62
776.29	9.62
777.036	10.62
777.783	8.62
778.53	7.62
779.276	10.62
780.023	9.62
780.769	10.62
781.516	11.62
782.262	8.62
783.008	10.62
783.754	10.62
784.5	9.62
785.246	9.62
785.992	10.62
786.738	10.62
787.484	11.62
788.23	11.62
788.975	10.62
789.721	11.62
790.466	12.62
791.212	7.62
791.957	11.62
792.702	9.62
793.447	10.62
794.193	9.62
794.938	11.62
795.683	10.62
796.427	9.62
797.172	10.62
797.917	10.62
798.662	9.62
799.406	9.62
800.151	5.62
800.895	7.62
801.64	10.62
802.384	11.62
803.128	7.62
803.872	9.62
804.616	7.62
805.36	7.62
806.104	10.62
806.848	7.62
807.592	8.62
808.336	8.62
809.079	7.62
809.823	9.62
810.566	8.62
811.31	5.62
812.053	6.62
812.796	5.62
813.539	6.62
814.283	5.62
815.026	7.62
815.769	5.62
816.511	7.62
817.254	5.62
817.997	5.62
818.74	6.62
819.482	3.62
820.225	5.62
820.967	5.62
821.71	6.62
822.452	4.62
823.194	6.62
823.936	4.62
824.678	5.62
825.42	4.62
826.162	2.62
826.904	8.62
827.646	5.62
828.388	5.62
829.129	3.62
829.871	7.62
830.612	6.62
831.354	4.62
832.095	7.62
832.836	4.62
833.577	5.62
834.319	5.62
835.06	3.62
835.801	4.62
836.542	7.62
837.282	4.62
838.023	7.62
838.764	4.62
839.504	4.62
840.245	5.62
840.985	3.62
841.726	6.62
842.466	2.62
843.206	4.62
843.946	3.62
844.687	2.62
845.427	4.62
846.166	4.62
846.906	5.62
847.646	5.62
848.386	4.62
849.125	3.62
849.865	5.62
850.605	4.62
851.344	2.62
852.083	6.62
852.823	1.62
853.562	5.62
854.301	4.62
855.04	2.62
855.779	4.62
856.518	2.62
857.257	2.62
857.995	3.62
858.734	3.62
859.473	2.62
860.211	1.62
860.95	3.62
861.688	2.62
862.426	4.62
863.165	4.62
863.903	2.62
864.641	5.62
865.379	3.62
866.117	0.62
866.855	2.62
867.593	3.62
868.33	2.62
869.068	3.62
869.806	1.62
870.543	3.62
871.28	-0.38
872.018	1.62
872.755	0.62
873.492	4.62
874.229	0.62
874.967	2.62
875.703	2.62
876.44	0.62
877.177	2.62
877.914	0.62
878.651	2.62
879.387	2.62
880.124	3.62
880.86	1.62
881.597	0.62
882.333	1.62
883.069	1.62
883.806	2.62
884.542	2.62
885.278	-0.38
886.014	2.62
886.749	3.62
887.485	0.62
888.221	0.62
888.957	2.62
889.692	0.62
890.428	1.62
891.163	2.62
891.899	1.62
892.634	2.62
893.369	1.62
894.104	1.62
894.839	0.62
895.574	0.62
896.309	1.62
897.044	0.62
897.779	1.62
898.514	0.62
899.248	0.62
899.983	2.62
900.717	1.62
901.452	1.62
902.186	-0.38
902.92	1.62
903.654	1.62
904.389	2.62
905.123	3.62
905.857	-1.38
906.59	-1.38
907.324	0.62
908.058	0.62
908.792	0.62
909.525	0.62
910.259	-1.38
910.992	0.62
911.726	0.62
912.459	3.62
913.192	1.62
913.925	-0.38
914.658	0.62
915.391	1.62
916.124	2.62
916.857	0.62
917.59	0.62
918.323	-1.38
919.055	0.62
919.788	2.62
920.521	1.62
921.253	1.62
921.985	1.62
922.718	0.62
923.45	0.62
924.182	0.62
924.914	-0.38
925.646	-0.38
926.378	1.62
927.11	2.62
927.841	-0.38
928.573	0.62
929.305	0.62
930.036	0.62
930.768	-0.38
931.499	1.62
932.23	-0.38
932.962	0.62
933.693	-2.38
934.424	-0.38
935.155	1.62
935.886	-1.38
936.617	0.62
937.348	2.62
938.078	0.62
938.809	1.62
939.54	-1.38
940.27	1.62
941.001	-0.38
941.731	2.62
942.461	-0.38
943.191	0.62
943.922	3.62
944.652	0.62
945.382	-0.38
946.112	-0.38
946.841	1.62
947.571	3.62
948.301	-0.38
949.031	1.62
949.76	-1.38
950.49	1.62
951.219	0.62
951.948	0.62
952.678	-0.38
953.407	-1.38
954.136	0.62
954.865	-0.38
955.594	0.62
956.323	2.62
957.052	2.62
957.78	1.62
958.509	0.62
959.238	-0.38
959.966	0.62
960.695	-0.38
961.423	1.62
962.151	1.62
962.88	-0.38
963.608	1.62
964.336	-0.38
965.064	0.62
965.792	-0.38
966.52	1.62
967.247	1.62
967.975	-0.38
968.703	1.62
969.43	1.62
970.158	2.62
970.885	-0.38
971.613	-1.38
972.34	0.62
973.067	0.62
973.794	1.62
974.521	-0.38
975.248	1.62
975.975	0.62
976.702	2.62
977.429	-0.38
978.156	0.62
978.882	1.62
979.609	0.62
980.335	0.62
981.062	-1.38
981.788	-0.38
982.514	0.62
983.24	-0.38
983.967	3.62
984.693	-1.38
985.419	1.62
986.144	0.62
986.87	0.62
987.596	2.62
988.322	3.62
989.047	0.62
989.773	1.62
990.498	-0.38
991.224	-0.38
991.949	-3.38
992.674	0.62
993.399	-2.38
994.124	-0.38
994.849	1.62
995.574	1.62
996.299	1.62
997.024	-1.38
997.749	1.62
998.473	0.62
999.198	-1.38
999.922	3.62
1000.647	1.62
1001.371	3.62
1002.095	-1.38
1002.82	-1.38
1003.544	-1.38
1004.268	2.62
1004.992	1.62
1005.716	1.62
1006.439	2.62
1007.163	3.62
1007.887	2.62
1008.611	0.62
1009.334	0.62
1010.058	3.62
1010.781	2.62
1011.504	-0.38
1012.228	2.62
1012.951	-0.38
1013.674	-1.38
1014.397	0.62
1015.12	1.62
