节点500_425_QEPB04081__266__15-52-43-979.txt的数据

Date: Wed Nov 12 15:52:43 CST 2025
User: PC
Spectrometer: QEPB0408
触发模式: 0
积分时间 (秒): 1.000000E-2
Scans to average: 1
启用暗噪声校正: true
启用非线性校正: false
滑动平均宽度: 0
X轴模式: Wavelengths
Number of Pixels in Spectrum: 1044
>>>>>Begin Spectral Data<<<<<
220.843	4.25
221.644	4.25
222.444	0.25
223.244	2.25
224.045	3.25
224.845	5.25
225.645	2.25
226.445	6.25
227.245	4.25
228.045	5.25
228.845	1.25
229.645	6.25
230.444	6.25
231.244	6.25
232.043	4.25
232.843	3.25
233.642	7.25
234.442	5.25
235.241	5.25
236.04	7.25
236.839	7.25
237.638	9.25
238.437	6.25
239.236	5.25
240.035	5.25
240.833	7.25
241.632	8.25
242.43	5.25
243.229	7.25
244.027	10.25
244.826	9.25
245.624	8.25
246.422	9.25
247.22	10.25
248.018	5.25
248.816	8.25
249.614	9.25
250.412	10.25
251.21	11.25
252.007	9.25
252.805	9.25
253.602	10.25
254.4	11.25
255.197	10.25
255.994	10.25
256.791	14.25
257.589	13.25
258.386	15.25
259.183	16.25
259.979	14.25
260.776	13.25
261.573	15.25
262.37	12.25
263.166	14.25
263.963	17.25
264.759	18.25
265.556	18.25
266.352	20.25
267.148	16.25
267.944	18.25
268.74	22.25
269.536	18.25
270.332	22.25
271.128	21.25
271.924	21.25
272.719	20.25
273.515	22.25
274.311	22.25
275.106	20.25
275.901	23.25
276.697	24.25
277.492	24.25
278.287	26.25
279.082	24.25
279.877	23.25
280.672	24.25
281.467	22.25
282.262	28.25
283.056	23.25
283.851	26.25
284.646	25.25
285.44	23.25
286.234	26.25
287.029	28.25
287.823	25.25
288.617	21.25
289.411	24.25
290.205	23.25
290.999	25.25
291.793	24.25
292.587	24.25
293.381	23.25
294.174	23.25
294.968	22.25
295.761	20.25
296.555	19.25
297.348	19.25
298.141	17.25
298.935	23.25
299.728	19.25
300.521	21.25
301.314	18.25
302.107	17.25
302.899	19.25
303.692	18.25
304.485	17.25
305.277	19.25
306.07	13.25
306.862	19.25
307.655	18.25
308.447	18.25
309.239	16.25
310.031	14.25
310.823	15.25
311.615	13.25
312.407	11.25
313.199	13.25
313.991	14.25
314.783	12.25
315.574	10.25
316.366	14.25
317.157	11.25
317.949	13.25
318.74	9.25
319.531	12.25
320.322	12.25
321.113	9.25
321.904	11.25
322.695	6.25
323.486	9.25
324.277	8.25
325.068	9.25
325.858	8.25
326.649	8.25
327.439	8.25
328.23	10.25
329.02	9.25
329.81	8.25
330.6	8.25
331.391	9.25
332.181	6.25
332.971	10.25
333.76	9.25
334.55	8.25
335.34	7.25
336.13	6.25
336.919	9.25
337.709	9.25
338.498	8.25
339.287	8.25
340.077	8.25
340.866	7.25
341.655	8.25
342.444	10.25
343.233	9.25
344.022	8.25
344.811	8.25
345.6	9.25
346.388	7.25
347.177	9.25
347.965	7.25
348.754	8.25
349.542	6.25
350.33	7.25
351.119	6.25
351.907	9.25
352.695	7.25
353.483	7.25
354.271	4.25
355.059	7.25
355.846	8.25
356.634	6.25
357.422	8.25
358.209	8.25
358.997	7.25
359.784	6.25
360.571	7.25
361.359	8.25
362.146	8.25
362.933	7.25
363.72	8.25
364.507	7.25
365.294	7.25
366.081	7.25
366.867	6.25
367.654	9.25
368.44	6.25
369.227	5.25
370.013	8.25
370.8	8.25
371.586	6.25
372.372	6.25
373.158	7.25
373.944	7.25
374.73	9.25
375.516	5.25
376.302	7.25
377.088	7.25
377.873	5.25
378.659	6.25
379.445	4.25
380.23	8.25
381.015	7.25
381.801	7.25
382.586	9.25
383.371	8.25
384.156	8.25
384.941	6.25
385.726	8.25
386.511	9.25
387.296	8.25
388.08	5.25
388.865	5.25
389.649	10.25
390.434	6.25
391.218	7.25
392.003	6.25
392.787	8.25
393.571	10.25
394.355	8.25
395.139	8.25
395.923	7.25
396.707	7.25
397.491	12.25
398.274	11.25
399.058	9.25
399.842	8.25
400.625	9.25
401.408	8.25
402.192	11.25
402.975	10.25
403.758	8.25
404.541	10.25
405.324	9.25
406.107	10.25
406.89	10.25
407.673	8.25
408.456	11.25
409.238	11.25
410.021	9.25
410.803	12.25
411.586	11.25
412.368	12.25
413.151	14.25
413.933	14.25
414.715	12.25
415.497	13.25
416.279	11.25
417.061	10.25
417.843	14.25
418.624	13.25
419.406	14.25
420.188	15.25
420.969	14.25
421.751	15.25
422.532	14.25
423.313	13.25
424.095	13.25
424.876	15.25
425.657	13.25
426.438	14.25
427.219	20.25
428	20.25
428.78	18.25
429.561	17.25
430.342	21.25
431.122	21.25
431.903	22.25
432.683	20.25
433.464	22.25
434.244	24.25
435.024	24.25
435.804	27.25
436.584	28.25
437.364	25.25
438.144	27.25
438.924	30.25
439.704	34.25
440.483	34.25
441.263	40.25
442.042	39.25
442.822	44.25
443.601	43.25
444.38	46.25
445.16	46.25
445.939	52.25
446.718	55.25
447.497	59.25
448.276	69.25
449.054	70.25
449.833	82.25
450.612	82.25
451.391	91.25
452.169	98.25
452.948	110.25
453.726	124.25
454.504	138.25
455.282	158.25
456.061	169.25
456.839	177.25
457.617	206.25
458.395	226.25
459.172	253.25
459.95	282.25
460.728	318.25
461.506	352.25
462.283	396.25
463.061	449.25
463.838	495.25
464.615	555.25
465.393	624.25
466.17	694.25
466.947	759.25
467.724	835.25
468.501	951.25
469.278	1046.25
470.055	1158.25
470.831	1289.25
471.608	1431.25
472.385	1596.25
473.161	1758.25
473.938	1945.25
474.714	2149.25
475.49	2357.25
476.266	2611.25
477.043	2894.25
477.819	3185.25
478.595	3512.25
479.371	3851.25
480.146	4240.25
480.922	4640.25
481.698	5111.25
482.473	5599.25
483.249	6141.25
484.024	6733.25
484.8	7394.25
485.575	8022.25
486.35	8784.25
487.126	9581.25
487.901	10441.25
488.676	11409.25
489.451	12383.25
490.225	13473.25
491	14616.25
491.775	15846.25
492.55	17010.25
493.324	18347.25
494.099	19790.25
494.873	21067.25
495.647	22506.25
496.422	23955.25
497.196	25394.25
497.97	26891.25
498.744	28341.25
499.518	29644.25
500.292	30879.25
501.066	32026.25
501.839	33143.25
502.613	33973.25
503.387	34687.25
504.16	35170.25
504.934	35576.25
505.707	35559.25
506.48	35412.25
507.253	35075.25
508.027	34661.25
508.8	34106.25
509.573	33314.25
510.346	32591.25
511.118	31530.25
511.891	30559.25
512.664	29458.25
513.437	28296.25
514.209	27090.25
514.982	26061.25
515.754	25056.25
516.526	23915.25
517.298	22886.25
518.071	21907.25
518.843	21072.25
519.615	20221.25
520.387	19348.25
521.159	18675.25
521.93	17986.25
522.702	17221.25
523.474	16539.25
524.245	15828.25
525.017	15168.25
525.788	14466.25
526.56	13795.25
527.331	13153.25
528.102	12535.25
528.873	11957.25
529.644	11381.25
530.415	10812.25
531.186	10325.25
531.957	9798.25
532.728	9293.25
533.498	8746.25
534.269	8270.25
535.039	7839.25
535.81	7392.25
536.58	6974.25
537.351	6561.25
538.121	6211.25
538.891	5855.25
539.661	5591.25
540.431	5294.25
541.201	5013.25
541.971	4762.25
542.741	4493.25
543.51	4280.25
544.28	4082.25
545.05	3858.25
545.819	3700.25
546.588	3518.25
547.358	3327.25
548.127	3151.25
548.896	2964.25
549.665	2836.25
550.434	2688.25
551.203	2548.25
551.972	2416.25
552.741	2298.25
553.51	2167.25
554.278	2022.25
555.047	1919.25
555.815	1822.25
556.584	1714.25
557.352	1600.25
558.121	1527.25
558.889	1450.25
559.657	1370.25
560.425	1288.25
561.193	1202.25
561.961	1151.25
562.729	1086.25
563.496	1028.25
564.264	972.25
565.032	915.25
565.799	874.25
566.567	817.25
567.334	777.25
568.101	735.25
568.869	692.25
569.636	648.25
570.403	613.25
571.17	569.25
571.937	555.25
572.704	521.25
573.471	489.25
574.237	458.25
575.004	431.25
575.771	416.25
576.537	378.25
577.303	368.25
578.07	344.25
578.836	322.25
579.602	301.25
580.368	289.25
581.134	274.25
581.9	267.25
582.666	243.25
583.432	237.25
584.198	220.25
584.964	208.25
585.729	199.25
586.495	192.25
587.26	184.25
588.025	170.25
588.791	160.25
589.556	146.25
590.321	150.25
591.086	138.25
591.851	131.25
592.616	123.25
593.381	116.25
594.146	111.25
594.911	104.25
595.675	105.25
596.44	98.25
597.204	91.25
597.969	90.25
598.733	90.25
599.497	81.25
600.261	80.25
601.025	71.25
601.79	75.25
602.553	70.25
603.317	66.25
604.081	67.25
604.845	63.25
605.609	58.25
606.372	56.25
607.136	52.25
607.899	52.25
608.662	48.25
609.426	47.25
610.189	45.25
610.952	45.25
611.715	43.25
612.478	41.25
613.241	41.25
614.004	35.25
614.767	37.25
615.529	35.25
616.292	36.25
617.055	34.25
617.817	31.25
618.579	30.25
619.342	29.25
620.104	29.25
620.866	25.25
621.628	25.25
622.39	25.25
623.152	25.25
623.914	26.25
624.676	21.25
625.438	23.25
626.199	25.25
626.961	20.25
627.722	21.25
628.484	23.25
629.245	20.25
630.006	18.25
630.768	19.25
631.529	20.25
632.29	17.25
633.051	18.25
633.812	15.25
634.573	14.25
635.333	16.25
636.094	13.25
636.855	13.25
637.615	12.25
638.376	15.25
639.136	14.25
639.896	9.25
640.657	14.25
641.417	10.25
642.177	13.25
642.937	11.25
643.697	13.25
644.457	13.25
645.216	9.25
645.976	14.25
646.736	9.25
647.495	9.25
648.255	12.25
649.014	8.25
649.774	10.25
650.533	9.25
651.292	10.25
652.051	8.25
652.81	9.25
653.569	10.25
654.328	10.25
655.087	11.25
655.846	8.25
656.604	8.25
657.363	8.25
658.121	9.25
658.88	10.25
659.638	9.25
660.397	10.25
661.155	7.25
661.913	7.25
662.671	8.25
663.429	4.25
664.187	7.25
664.945	6.25
665.703	9.25
666.46	7.25
667.218	5.25
667.976	4.25
668.733	6.25
669.49	5.25
670.248	7.25
671.005	4.25
671.762	7.25
672.519	6.25
673.276	6.25
674.033	6.25
674.79	7.25
675.547	6.25
676.304	5.25
677.06	5.25
677.817	3.25
678.574	6.25
679.33	6.25
680.086	7.25
680.843	4.25
681.599	5.25
682.355	5.25
683.111	6.25
683.867	6.25
684.623	4.25
685.379	5.25
686.135	7.25
686.89	2.25
687.646	4.25
688.402	4.25
689.157	4.25
689.912	4.25
690.668	5.25
691.423	5.25
692.178	2.25
692.933	5.25
693.688	4.25
694.443	4.25
695.198	6.25
695.953	4.25
696.708	6.25
697.462	5.25
698.217	5.25
698.972	6.25
699.726	4.25
700.48	6.25
701.235	4.25
701.989	5.25
702.743	4.25
703.497	5.25
704.251	5.25
705.005	5.25
705.759	6.25
706.513	6.25
707.266	1.25
708.02	5.25
708.774	1.25
709.527	5.25
710.28	2.25
711.034	4.25
711.787	5.25
712.54	4.25
713.293	5.25
714.046	4.25
714.799	6.25
715.552	6.25
716.305	4.25
717.058	5.25
717.81	5.25
718.563	6.25
719.315	7.25
720.068	7.25
720.82	2.25
721.573	4.25
722.325	7.25
723.077	5.25
723.829	6.25
724.581	4.25
725.333	3.25
726.085	4.25
726.836	5.25
727.588	4.25
728.34	4.25
729.091	4.25
729.843	5.25
730.594	5.25
731.346	7.25
732.097	4.25
732.848	5.25
733.599	7.25
734.35	6.25
735.101	7.25
735.852	4.25
736.603	7.25
737.354	6.25
738.104	6.25
738.855	7.25
739.605	5.25
740.356	8.25
741.106	4.25
741.856	6.25
742.607	5.25
743.357	4.25
744.107	8.25
744.857	6.25
745.607	6.25
746.357	5.25
747.106	7.25
747.856	8.25
748.606	5.25
749.355	8.25
750.105	7.25
750.854	6.25
751.603	5.25
752.353	8.25
753.102	7.25
753.851	7.25
754.6	10.25
755.349	9.25
756.098	8.25
756.847	6.25
757.595	8.25
758.344	10.25
759.093	9.25
759.841	11.25
760.589	10.25
761.338	10.25
762.086	10.25
762.834	9.25
763.582	8.25
764.331	8.25
765.079	10.25
765.826	8.25
766.574	11.25
767.322	10.25
768.07	10.25
768.817	10.25
769.565	8.25
770.312	8.25
771.06	9.25
771.807	10.25
772.554	10.25
773.302	11.25
774.049	11.25
774.796	10.25
775.543	10.25
776.29	12.25
777.036	10.25
777.783	9.25
778.53	10.25
779.276	9.25
780.023	12.25
780.769	12.25
781.516	11.25
782.262	10.25
783.008	13.25
783.754	11.25
784.5	12.25
785.246	13.25
785.992	12.25
786.738	12.25
787.484	10.25
788.23	11.25
788.975	12.25
789.721	14.25
790.466	11.25
791.212	11.25
791.957	11.25
792.702	10.25
793.447	10.25
794.193	10.25
794.938	13.25
795.683	8.25
796.427	9.25
797.172	10.25
797.917	11.25
798.662	9.25
799.406	8.25
800.151	10.25
800.895	9.25
801.64	8.25
802.384	7.25
803.128	10.25
803.872	11.25
804.616	8.25
805.36	9.25
806.104	7.25
806.848	8.25
807.592	6.25
808.336	8.25
809.079	8.25
809.823	8.25
810.566	6.25
811.31	8.25
812.053	8.25
812.796	5.25
813.539	6.25
814.283	7.25
815.026	5.25
815.769	4.25
816.511	8.25
817.254	9.25
817.997	5.25
818.74	6.25
819.482	6.25
820.225	5.25
820.967	7.25
821.71	4.25
822.452	8.25
823.194	2.25
823.936	5.25
824.678	6.25
825.42	5.25
826.162	7.25
826.904	3.25
827.646	6.25
828.388	5.25
829.129	2.25
829.871	5.25
830.612	5.25
831.354	4.25
832.095	3.25
832.836	5.25
833.577	6.25
834.319	4.25
835.06	5.25
835.801	8.25
836.542	5.25
837.282	4.25
838.023	5.25
838.764	5.25
839.504	2.25
840.245	6.25
840.985	4.25
841.726	4.25
842.466	4.25
843.206	4.25
843.946	4.25
844.687	2.25
845.427	5.25
846.166	4.25
846.906	2.25
847.646	4.25
848.386	4.25
849.125	3.25
849.865	2.25
850.605	2.25
851.344	2.25
852.083	4.25
852.823	3.25
853.562	2.25
854.301	4.25
855.04	3.25
855.779	3.25
856.518	2.25
857.257	2.25
857.995	3.25
858.734	3.25
859.473	2.25
860.211	5.25
860.95	3.25
861.688	2.25
862.426	2.25
863.165	2.25
863.903	2.25
864.641	2.25
865.379	1.25
866.117	2.25
866.855	3.25
867.593	2.25
868.33	2.25
869.068	5.25
869.806	1.25
870.543	2.25
871.28	0.25
872.018	2.25
872.755	3.25
873.492	2.25
874.229	1.25
874.967	0.25
875.703	2.25
876.44	0.25
877.177	0.25
877.914	2.25
878.651	1.25
879.387	2.25
880.124	1.25
880.86	1.25
881.597	3.25
882.333	1.25
883.069	1.25
883.806	0.25
884.542	2.25
885.278	0.25
886.014	3.25
886.749	0.25
887.485	1.25
888.221	1.25
888.957	0.25
889.692	-0.75
890.428	3.25
891.163	1.25
891.899	3.25
892.634	-1.75
893.369	1.25
894.104	1.25
894.839	1.25
895.574	1.25
896.309	1.25
897.044	2.25
897.779	0.25
898.514	2.25
899.248	2.25
899.983	0.25
900.717	0.25
901.452	1.25
902.186	1.25
902.92	0.25
903.654	2.25
904.389	-1.75
905.123	2.25
905.857	3.25
906.59	0.25
907.324	0.25
908.058	1.25
908.792	2.25
909.525	0.25
910.259	1.25
910.992	1.25
911.726	2.25
912.459	3.25
913.192	-0.75
913.925	1.25
914.658	1.25
915.391	-0.75
916.124	0.25
916.857	0.25
917.59	0.25
918.323	0.25
919.055	-0.75
919.788	2.25
920.521	-1.75
921.253	1.25
921.985	0.25
922.718	-0.75
923.45	1.25
924.182	0.25
924.914	0.25
925.646	2.25
926.378	2.25
927.11	1.25
927.841	-0.75
928.573	-0.75
929.305	2.25
930.036	-0.75
930.768	-1.75
931.499	0.25
932.23	1.25
932.962	1.25
933.693	1.25
934.424	0.25
935.155	0.25
935.886	1.25
936.617	2.25
937.348	-0.75
938.078	-0.75
938.809	0.25
939.54	-0.75
940.27	-1.75
941.001	-0.75
941.731	-1.75
942.461	1.25
943.191	-0.75
943.922	1.25
944.652	0.25
945.382	-0.75
946.112	1.25
946.841	-1.75
947.571	0.25
948.301	1.25
949.031	0.25
949.76	0.25
950.49	-1.75
951.219	0.25
951.948	0.25
952.678	1.25
953.407	-1.75
954.136	1.25
954.865	1.25
955.594	1.25
956.323	-0.75
957.052	2.25
957.78	-0.75
958.509	0.25
959.238	0.25
959.966	1.25
960.695	-1.75
961.423	1.25
962.151	1.25
962.88	-0.75
963.608	-0.75
964.336	1.25
965.064	1.25
965.792	1.25
966.52	-0.75
967.247	-1.75
967.975	-1.75
968.703	1.25
969.43	-0.75
970.158	2.25
970.885	-1.75
971.613	0.25
972.34	1.25
973.067	0.25
973.794	0.25
974.521	-0.75
975.248	1.25
975.975	1.25
976.702	1.25
977.429	2.25
978.156	-0.75
978.882	2.25
979.609	0.25
980.335	-0.75
981.062	0.25
981.788	-0.75
982.514	0.25
983.24	-1.75
983.967	1.25
984.693	0.25
985.419	-1.75
986.144	-0.75
986.87	-1.75
987.596	0.25
988.322	0.25
989.047	0.25
989.773	0.25
990.498	1.25
991.224	-0.75
991.949	-0.75
992.674	0.25
993.399	1.25
994.124	0.25
994.849	2.25
995.574	0.25
996.299	1.25
997.024	-0.75
997.749	1.25
998.473	0.25
999.198	1.25
999.922	-0.75
1000.647	1.25
1001.371	4.25
1002.095	1.25
1002.82	-1.75
1003.544	-2.75
1004.268	3.25
1004.992	0.25
1005.716	-0.75
1006.439	5.25
1007.163	3.25
1007.887	2.25
1008.611	0.25
1009.334	1.25
1010.058	1.25
1010.781	2.25
1011.504	-0.75
1012.228	2.25
1012.951	-1.75
1013.674	1.25
1014.397	1.25
1015.12	-1.75
