节点500_425_QEPB04081__345__15-54-02-796.txt的数据

Date: Wed Nov 12 15:54:02 CST 2025
User: PC
Spectrometer: QEPB0408
触发模式: 0
积分时间 (秒): 1.000000E-2
Scans to average: 1
启用暗噪声校正: true
启用非线性校正: false
滑动平均宽度: 0
X轴模式: Wavelengths
Number of Pixels in Spectrum: 1044
>>>>>Begin Spectral Data<<<<<
220.843	0.25
221.644	2.25
222.444	2.25
223.244	1.25
224.045	1.25
224.845	2.25
225.645	2.25
226.445	3.25
227.245	2.25
228.045	4.25
228.845	3.25
229.645	3.25
230.444	2.25
231.244	4.25
232.043	5.25
232.843	4.25
233.642	2.25
234.442	4.25
235.241	5.25
236.04	7.25
236.839	3.25
237.638	6.25
238.437	3.25
239.236	6.25
240.035	1.25
240.833	7.25
241.632	2.25
242.43	4.25
243.229	6.25
244.027	6.25
244.826	7.25
245.624	7.25
246.422	6.25
247.22	9.25
248.018	8.25
248.816	8.25
249.614	6.25
250.412	8.25
251.21	10.25
252.007	7.25
252.805	11.25
253.602	9.25
254.4	12.25
255.197	7.25
255.994	10.25
256.791	11.25
257.589	12.25
258.386	11.25
259.183	11.25
259.979	14.25
260.776	13.25
261.573	14.25
262.37	12.25
263.166	15.25
263.963	14.25
264.759	15.25
265.556	15.25
266.352	17.25
267.148	17.25
267.944	19.25
268.74	16.25
269.536	18.25
270.332	20.25
271.128	20.25
271.924	21.25
272.719	21.25
273.515	20.25
274.311	20.25
275.106	24.25
275.901	19.25
276.697	21.25
277.492	23.25
278.287	24.25
279.082	23.25
279.877	22.25
280.672	22.25
281.467	21.25
282.262	22.25
283.056	21.25
283.851	22.25
284.646	24.25
285.44	24.25
286.234	22.25
287.029	24.25
287.823	23.25
288.617	23.25
289.411	23.25
290.205	21.25
290.999	22.25
291.793	22.25
292.587	22.25
293.381	21.25
294.174	22.25
294.968	22.25
295.761	17.25
296.555	19.25
297.348	18.25
298.141	19.25
298.935	20.25
299.728	19.25
300.521	18.25
301.314	16.25
302.107	13.25
302.899	17.25
303.692	15.25
304.485	16.25
305.277	18.25
306.07	14.25
306.862	15.25
307.655	16.25
308.447	14.25
309.239	11.25
310.031	15.25
310.823	10.25
311.615	10.25
312.407	11.25
313.199	12.25
313.991	10.25
314.783	13.25
315.574	10.25
316.366	10.25
317.157	10.25
317.949	8.25
318.74	11.25
319.531	9.25
320.322	8.25
321.113	10.25
321.904	9.25
322.695	11.25
323.486	7.25
324.277	9.25
325.068	8.25
325.858	10.25
326.649	7.25
327.439	7.25
328.23	8.25
329.02	8.25
329.81	6.25
330.6	10.25
331.391	7.25
332.181	8.25
332.971	9.25
333.76	6.25
334.55	5.25
335.34	7.25
336.13	7.25
336.919	8.25
337.709	8.25
338.498	7.25
339.287	6.25
340.077	9.25
340.866	4.25
341.655	7.25
342.444	7.25
343.233	8.25
344.022	6.25
344.811	6.25
345.6	7.25
346.388	8.25
347.177	8.25
347.965	6.25
348.754	5.25
349.542	7.25
350.33	6.25
351.119	6.25
351.907	7.25
352.695	6.25
353.483	7.25
354.271	7.25
355.059	8.25
355.846	6.25
356.634	5.25
357.422	5.25
358.209	5.25
358.997	6.25
359.784	5.25
360.571	7.25
361.359	5.25
362.146	5.25
362.933	6.25
363.72	5.25
364.507	3.25
365.294	3.25
366.081	6.25
366.867	4.25
367.654	5.25
368.44	7.25
369.227	4.25
370.013	5.25
370.8	5.25
371.586	5.25
372.372	6.25
373.158	6.25
373.944	6.25
374.73	6.25
375.516	5.25
376.302	5.25
377.088	5.25
377.873	6.25
378.659	5.25
379.445	5.25
380.23	6.25
381.015	5.25
381.801	6.25
382.586	3.25
383.371	7.25
384.156	5.25
384.941	5.25
385.726	7.25
386.511	6.25
387.296	9.25
388.08	4.25
388.865	7.25
389.649	6.25
390.434	8.25
391.218	6.25
392.003	5.25
392.787	9.25
393.571	5.25
394.355	5.25
395.139	4.25
395.923	8.25
396.707	9.25
397.491	6.25
398.274	9.25
399.058	7.25
399.842	9.25
400.625	7.25
401.408	8.25
402.192	10.25
402.975	11.25
403.758	7.25
404.541	8.25
405.324	6.25
406.107	8.25
406.89	8.25
407.673	10.25
408.456	9.25
409.238	9.25
410.021	8.25
410.803	9.25
411.586	12.25
412.368	10.25
413.151	10.25
413.933	12.25
414.715	13.25
415.497	10.25
416.279	9.25
417.061	13.25
417.843	11.25
418.624	11.25
419.406	14.25
420.188	13.25
420.969	15.25
421.751	14.25
422.532	16.25
423.313	14.25
424.095	16.25
424.876	15.25
425.657	12.25
426.438	18.25
427.219	16.25
428	17.25
428.78	19.25
429.561	14.25
430.342	18.25
431.122	17.25
431.903	17.25
432.683	20.25
433.464	23.25
434.244	20.25
435.024	22.25
435.804	29.25
436.584	23.25
437.364	27.25
438.144	28.25
438.924	28.25
439.704	32.25
440.483	32.25
441.263	33.25
442.042	38.25
442.822	41.25
443.601	45.25
444.38	41.25
445.16	48.25
445.939	50.25
446.718	59.25
447.497	61.25
448.276	64.25
449.054	72.25
449.833	79.25
450.612	85.25
451.391	90.25
452.169	102.25
452.948	114.25
453.726	120.25
454.504	140.25
455.282	155.25
456.061	168.25
456.839	192.25
457.617	210.25
458.395	232.25
459.172	256.25
459.95	291.25
460.728	323.25
461.506	359.25
462.283	409.25
463.061	448.25
463.838	505.25
464.615	554.25
465.393	627.25
466.17	691.25
466.947	778.25
467.724	866.25
468.501	954.25
469.278	1049.25
470.055	1176.25
470.831	1292.25
471.608	1443.25
472.385	1605.25
473.161	1775.25
473.938	1965.25
474.714	2166.25
475.49	2377.25
476.266	2607.25
477.043	2875.25
477.819	3162.25
478.595	3497.25
479.371	3837.25
480.146	4199.25
480.922	4572.25
481.698	5033.25
482.473	5471.25
483.249	6043.25
484.024	6608.25
484.8	7215.25
485.575	7876.25
486.35	8576.25
487.126	9335.25
487.901	10168.25
488.676	11049.25
489.451	12091.25
490.225	13038.25
491	14133.25
491.775	15359.25
492.55	16501.25
493.324	17834.25
494.099	19044.25
494.873	20406.25
495.647	21701.25
496.422	23116.25
497.196	24585.25
497.97	26027.25
498.744	27365.25
499.518	28741.25
500.292	29906.25
501.066	30990.25
501.839	32195.25
502.613	33109.25
503.387	33874.25
504.16	34386.25
504.934	34833.25
505.707	34879.25
506.48	34738.25
507.253	34560.25
508.027	34301.25
508.8	33729.25
509.573	33082.25
510.346	32251.25
511.118	31369.25
511.891	30374.25
512.664	29370.25
513.437	28266.25
514.209	27140.25
514.982	26130.25
515.754	25101.25
516.526	24050.25
517.298	23009.25
518.071	22100.25
518.843	21172.25
519.615	20291.25
520.387	19502.25
521.159	18720.25
521.93	18001.25
522.702	17339.25
523.474	16627.25
524.245	16017.25
525.017	15276.25
525.788	14572.25
526.56	13915.25
527.331	13248.25
528.102	12629.25
528.873	12074.25
529.644	11519.25
530.415	11015.25
531.186	10457.25
531.957	9926.25
532.728	9378.25
533.498	8875.25
534.269	8377.25
535.039	7916.25
535.81	7486.25
536.58	7100.25
537.351	6656.25
538.121	6310.25
538.891	5992.25
539.661	5694.25
540.431	5398.25
541.201	5104.25
541.971	4853.25
542.741	4566.25
543.51	4367.25
544.28	4121.25
545.05	3935.25
545.819	3755.25
546.588	3529.25
547.358	3369.25
548.127	3198.25
548.896	3036.25
549.665	2877.25
550.434	2753.25
551.203	2575.25
551.972	2451.25
552.741	2333.25
553.51	2179.25
554.278	2070.25
555.047	1978.25
555.815	1853.25
556.584	1753.25
557.352	1651.25
558.121	1547.25
558.889	1475.25
559.657	1388.25
560.425	1310.25
561.193	1241.25
561.961	1171.25
562.729	1115.25
563.496	1048.25
564.264	989.25
565.032	940.25
565.799	889.25
566.567	838.25
567.334	800.25
568.101	752.25
568.869	711.25
569.636	680.25
570.403	621.25
571.17	589.25
571.937	559.25
572.704	523.25
573.471	502.25
574.237	469.25
575.004	437.25
575.771	413.25
576.537	402.25
577.303	370.25
578.07	345.25
578.836	334.25
579.602	311.25
580.368	291.25
581.134	279.25
581.9	265.25
582.666	252.25
583.432	238.25
584.198	228.25
584.964	216.25
585.729	203.25
586.495	187.25
587.26	180.25
588.025	173.25
588.791	165.25
589.556	153.25
590.321	147.25
591.086	138.25
591.851	132.25
592.616	129.25
593.381	121.25
594.146	109.25
594.911	114.25
595.675	105.25
596.44	96.25
597.204	95.25
597.969	90.25
598.733	88.25
599.497	85.25
600.261	80.25
601.025	78.25
601.79	69.25
602.553	71.25
603.317	66.25
604.081	65.25
604.845	61.25
605.609	57.25
606.372	58.25
607.136	52.25
607.899	49.25
608.662	52.25
609.426	47.25
610.189	45.25
610.952	39.25
611.715	40.25
612.478	37.25
613.241	40.25
614.004	39.25
614.767	37.25
615.529	36.25
616.292	35.25
617.055	33.25
617.817	32.25
618.579	30.25
619.342	31.25
620.104	25.25
620.866	29.25
621.628	27.25
622.39	24.25
623.152	24.25
623.914	24.25
624.676	25.25
625.438	23.25
626.199	21.25
626.961	22.25
627.722	19.25
628.484	21.25
629.245	19.25
630.006	17.25
630.768	19.25
631.529	16.25
632.29	18.25
633.051	17.25
633.812	15.25
634.573	16.25
635.333	14.25
636.094	15.25
636.855	11.25
637.615	13.25
638.376	14.25
639.136	13.25
639.896	13.25
640.657	12.25
641.417	11.25
642.177	11.25
642.937	9.25
643.697	13.25
644.457	11.25
645.216	10.25
645.976	10.25
646.736	12.25
647.495	9.25
648.255	10.25
649.014	13.25
649.774	9.25
650.533	8.25
651.292	8.25
652.051	8.25
652.81	9.25
653.569	9.25
654.328	9.25
655.087	6.25
655.846	7.25
656.604	7.25
657.363	8.25
658.121	9.25
658.88	8.25
659.638	9.25
660.397	7.25
661.155	7.25
661.913	9.25
662.671	5.25
663.429	9.25
664.187	6.25
664.945	7.25
665.703	5.25
666.46	3.25
667.218	7.25
667.976	9.25
668.733	4.25
669.49	7.25
670.248	8.25
671.005	4.25
671.762	4.25
672.519	7.25
673.276	4.25
674.033	4.25
674.79	3.25
675.547	4.25
676.304	4.25
677.06	3.25
677.817	5.25
678.574	5.25
679.33	3.25
680.086	5.25
680.843	3.25
681.599	5.25
682.355	6.25
683.111	6.25
683.867	1.25
684.623	6.25
685.379	4.25
686.135	4.25
686.89	6.25
687.646	3.25
688.402	5.25
689.157	5.25
689.912	3.25
690.668	5.25
691.423	4.25
692.178	3.25
692.933	4.25
693.688	6.25
694.443	5.25
695.198	3.25
695.953	3.25
696.708	3.25
697.462	5.25
698.217	4.25
698.972	2.25
699.726	3.25
700.48	2.25
701.235	5.25
701.989	4.25
702.743	5.25
703.497	3.25
704.251	4.25
705.005	4.25
705.759	4.25
706.513	2.25
707.266	4.25
708.02	4.25
708.774	4.25
709.527	2.25
710.28	8.25
711.034	-0.75
711.787	5.25
712.54	4.25
713.293	3.25
714.046	6.25
714.799	1.25
715.552	3.25
716.305	3.25
717.058	2.25
717.81	3.25
718.563	3.25
719.315	6.25
720.068	5.25
720.82	5.25
721.573	5.25
722.325	5.25
723.077	5.25
723.829	3.25
724.581	3.25
725.333	5.25
726.085	3.25
726.836	5.25
727.588	5.25
728.34	3.25
729.091	3.25
729.843	3.25
730.594	4.25
731.346	3.25
732.097	4.25
732.848	6.25
733.599	5.25
734.35	4.25
735.101	4.25
735.852	5.25
736.603	3.25
737.354	5.25
738.104	2.25
738.855	5.25
739.605	5.25
740.356	6.25
741.106	5.25
741.856	4.25
742.607	7.25
743.357	5.25
744.107	6.25
744.857	4.25
745.607	6.25
746.357	4.25
747.106	6.25
747.856	6.25
748.606	5.25
749.355	7.25
750.105	5.25
750.854	5.25
751.603	8.25
752.353	5.25
753.102	6.25
753.851	6.25
754.6	6.25
755.349	8.25
756.098	4.25
756.847	8.25
757.595	6.25
758.344	8.25
759.093	5.25
759.841	6.25
760.589	8.25
761.338	7.25
762.086	7.25
762.834	8.25
763.582	6.25
764.331	5.25
765.079	8.25
765.826	8.25
766.574	10.25
767.322	12.25
768.07	7.25
768.817	5.25
769.565	9.25
770.312	9.25
771.06	9.25
771.807	10.25
772.554	10.25
773.302	10.25
774.049	8.25
774.796	10.25
775.543	10.25
776.29	11.25
777.036	11.25
777.783	10.25
778.53	11.25
779.276	8.25
780.023	9.25
780.769	9.25
781.516	9.25
782.262	11.25
783.008	11.25
783.754	10.25
784.5	9.25
785.246	12.25
785.992	12.25
786.738	8.25
787.484	13.25
788.23	10.25
788.975	10.25
789.721	12.25
790.466	9.25
791.212	10.25
791.957	11.25
792.702	10.25
793.447	9.25
794.193	11.25
794.938	8.25
795.683	9.25
796.427	11.25
797.172	11.25
797.917	9.25
798.662	8.25
799.406	10.25
800.151	9.25
800.895	7.25
801.64	9.25
802.384	5.25
803.128	9.25
803.872	5.25
804.616	6.25
805.36	7.25
806.104	8.25
806.848	7.25
807.592	8.25
808.336	7.25
809.079	8.25
809.823	6.25
810.566	3.25
811.31	5.25
812.053	6.25
812.796	5.25
813.539	5.25
814.283	6.25
815.026	4.25
815.769	6.25
816.511	3.25
817.254	5.25
817.997	6.25
818.74	3.25
819.482	6.25
820.225	4.25
820.967	5.25
821.71	5.25
822.452	5.25
823.194	4.25
823.936	5.25
824.678	4.25
825.42	4.25
826.162	4.25
826.904	4.25
827.646	6.25
828.388	5.25
829.129	4.25
829.871	5.25
830.612	2.25
831.354	3.25
832.095	4.25
832.836	1.25
833.577	4.25
834.319	4.25
835.06	0.25
835.801	3.25
836.542	2.25
837.282	2.25
838.023	1.25
838.764	2.25
839.504	1.25
840.245	6.25
840.985	2.25
841.726	4.25
842.466	4.25
843.206	2.25
843.946	2.25
844.687	2.25
845.427	3.25
846.166	3.25
846.906	2.25
847.646	6.25
848.386	2.25
849.125	2.25
849.865	1.25
850.605	3.25
851.344	1.25
852.083	3.25
852.823	1.25
853.562	2.25
854.301	1.25
855.04	4.25
855.779	3.25
856.518	4.25
857.257	1.25
857.995	3.25
858.734	3.25
859.473	3.25
860.211	0.25
860.95	2.25
861.688	1.25
862.426	1.25
863.165	2.25
863.903	0.25
864.641	2.25
865.379	2.25
866.117	1.25
866.855	1.25
867.593	-0.75
868.33	0.25
869.068	1.25
869.806	0.25
870.543	0.25
871.28	2.25
872.018	-0.75
872.755	1.25
873.492	2.25
874.229	1.25
874.967	1.25
875.703	0.25
876.44	3.25
877.177	-2.75
877.914	0.25
878.651	1.25
879.387	0.25
880.124	1.25
880.86	-2.75
881.597	1.25
882.333	0.25
883.069	3.25
883.806	-0.75
884.542	2.25
885.278	1.25
886.014	0.25
886.749	0.25
887.485	1.25
888.221	2.25
888.957	-1.75
889.692	0.25
890.428	1.25
891.163	0.25
891.899	-0.75
892.634	0.25
893.369	0.25
894.104	1.25
894.839	-0.75
895.574	1.25
896.309	-0.75
897.044	-0.75
897.779	2.25
898.514	0.25
899.248	-0.75
899.983	0.25
900.717	-0.75
901.452	0.25
902.186	0.25
902.92	-0.75
903.654	-2.75
904.389	1.25
905.123	-0.75
905.857	-0.75
906.59	-0.75
907.324	0.25
908.058	-0.75
908.792	0.25
909.525	-0.75
910.259	-1.75
910.992	-2.75
911.726	-2.75
912.459	-0.75
913.192	0.25
913.925	1.25
914.658	2.25
915.391	0.25
916.124	-1.75
916.857	-1.75
917.59	-1.75
918.323	-0.75
919.055	-1.75
919.788	0.25
920.521	0.25
921.253	-0.75
921.985	-1.75
922.718	0.25
923.45	-1.75
924.182	1.25
924.914	-0.75
925.646	-1.75
926.378	-3.75
927.11	-2.75
927.841	-0.75
928.573	-2.75
929.305	-0.75
930.036	0.25
930.768	0.25
931.499	-1.75
932.23	0.25
932.962	0.25
933.693	-1.75
934.424	-4.75
935.155	-2.75
935.886	0.25
936.617	1.25
937.348	-1.75
938.078	0.25
938.809	-1.75
939.54	1.25
940.27	-2.75
941.001	-1.75
941.731	-0.75
942.461	0.25
943.191	0.25
943.922	-0.75
944.652	2.25
945.382	-0.75
946.112	-0.75
946.841	0.25
947.571	-0.75
948.301	-1.75
949.031	-1.75
949.76	0.25
950.49	-0.75
951.219	-1.75
951.948	0.25
952.678	0.25
953.407	0.25
954.136	0.25
954.865	-0.75
955.594	-1.75
956.323	-1.75
957.052	0.25
957.78	-1.75
958.509	-0.75
959.238	-0.75
959.966	-1.75
960.695	-0.75
961.423	-2.75
962.151	0.25
962.88	-1.75
963.608	-0.75
964.336	-0.75
965.064	-0.75
965.792	1.25
966.52	-2.75
967.247	-1.75
967.975	0.25
968.703	-0.75
969.43	-0.75
970.158	-1.75
970.885	-2.75
971.613	-0.75
972.34	-1.75
973.067	-0.75
973.794	-1.75
974.521	-2.75
975.248	0.25
975.975	-1.75
976.702	-0.75
977.429	0.25
978.156	-1.75
978.882	-0.75
979.609	1.25
980.335	-0.75
981.062	-2.75
981.788	-0.75
982.514	-1.75
983.24	-1.75
983.967	-1.75
984.693	-0.75
985.419	-0.75
986.144	-2.75
986.87	-0.75
987.596	-0.75
988.322	-1.75
989.047	1.25
989.773	0.25
990.498	-1.75
991.224	-0.75
991.949	0.25
992.674	-0.75
993.399	0.25
994.124	-2.75
994.849	-3.75
995.574	-0.75
996.299	0.25
997.024	-2.75
997.749	-0.75
998.473	-0.75
999.198	-0.75
999.922	-1.75
1000.647	-0.75
1001.371	1.25
1002.095	-0.75
1002.82	0.25
1003.544	-0.75
1004.268	0.25
1004.992	0.25
1005.716	2.25
1006.439	1.25
1007.163	2.25
1007.887	2.25
1008.611	1.25
1009.334	0.25
1010.058	-0.75
1010.781	0.25
1011.504	0.25
1012.228	1.25
1012.951	-0.75
1013.674	1.25
1014.397	0.25
1015.12	-0.75
