节点500_425_QEPB04081__265__15-52-42-980.txt的数据

Date: Wed Nov 12 15:52:42 CST 2025
User: PC
Spectrometer: QEPB0408
触发模式: 0
积分时间 (秒): 1.000000E-2
Scans to average: 1
启用暗噪声校正: true
启用非线性校正: false
滑动平均宽度: 0
X轴模式: Wavelengths
Number of Pixels in Spectrum: 1044
>>>>>Begin Spectral Data<<<<<
220.843	0.38
221.644	3.38
222.444	2.38
223.244	2.38
224.045	4.38
224.845	5.38
225.645	4.38
226.445	3.38
227.245	3.38
228.045	4.38
228.845	3.38
229.645	6.38
230.444	4.38
231.244	9.38
232.043	2.38
232.843	5.38
233.642	6.38
234.442	5.38
235.241	3.38
236.04	4.38
236.839	3.38
237.638	4.38
238.437	8.38
239.236	6.38
240.035	8.38
240.833	7.38
241.632	7.38
242.43	8.38
243.229	6.38
244.027	7.38
244.826	9.38
245.624	8.38
246.422	9.38
247.22	11.38
248.018	10.38
248.816	7.38
249.614	10.38
250.412	9.38
251.21	11.38
252.007	9.38
252.805	10.38
253.602	10.38
254.4	10.38
255.197	10.38
255.994	11.38
256.791	14.38
257.589	11.38
258.386	14.38
259.183	13.38
259.979	18.38
260.776	14.38
261.573	15.38
262.37	14.38
263.166	14.38
263.963	17.38
264.759	17.38
265.556	16.38
266.352	17.38
267.148	16.38
267.944	18.38
268.74	19.38
269.536	20.38
270.332	20.38
271.128	19.38
271.924	22.38
272.719	19.38
273.515	24.38
274.311	21.38
275.106	23.38
275.901	24.38
276.697	25.38
277.492	26.38
278.287	22.38
279.082	26.38
279.877	24.38
280.672	23.38
281.467	23.38
282.262	24.38
283.056	26.38
283.851	26.38
284.646	24.38
285.44	25.38
286.234	26.38
287.029	25.38
287.823	25.38
288.617	25.38
289.411	24.38
290.205	22.38
290.999	25.38
291.793	22.38
292.587	24.38
293.381	24.38
294.174	20.38
294.968	23.38
295.761	21.38
296.555	20.38
297.348	18.38
298.141	20.38
298.935	19.38
299.728	20.38
300.521	22.38
301.314	18.38
302.107	18.38
302.899	15.38
303.692	15.38
304.485	17.38
305.277	18.38
306.07	19.38
306.862	18.38
307.655	15.38
308.447	17.38
309.239	14.38
310.031	19.38
310.823	13.38
311.615	15.38
312.407	14.38
313.199	13.38
313.991	13.38
314.783	11.38
315.574	13.38
316.366	11.38
317.157	10.38
317.949	11.38
318.74	10.38
319.531	10.38
320.322	9.38
321.113	12.38
321.904	10.38
322.695	10.38
323.486	9.38
324.277	8.38
325.068	10.38
325.858	11.38
326.649	11.38
327.439	9.38
328.23	9.38
329.02	9.38
329.81	8.38
330.6	8.38
331.391	8.38
332.181	10.38
332.971	10.38
333.76	8.38
334.55	9.38
335.34	7.38
336.13	8.38
336.919	7.38
337.709	10.38
338.498	9.38
339.287	8.38
340.077	8.38
340.866	9.38
341.655	9.38
342.444	7.38
343.233	9.38
344.022	9.38
344.811	7.38
345.6	7.38
346.388	8.38
347.177	9.38
347.965	11.38
348.754	9.38
349.542	8.38
350.33	8.38
351.119	8.38
351.907	9.38
352.695	7.38
353.483	8.38
354.271	7.38
355.059	8.38
355.846	8.38
356.634	11.38
357.422	6.38
358.209	5.38
358.997	6.38
359.784	6.38
360.571	8.38
361.359	8.38
362.146	6.38
362.933	10.38
363.72	9.38
364.507	7.38
365.294	7.38
366.081	5.38
366.867	7.38
367.654	6.38
368.44	9.38
369.227	9.38
370.013	6.38
370.8	7.38
371.586	3.38
372.372	8.38
373.158	8.38
373.944	7.38
374.73	5.38
375.516	7.38
376.302	7.38
377.088	6.38
377.873	8.38
378.659	5.38
379.445	7.38
380.23	6.38
381.015	7.38
381.801	9.38
382.586	7.38
383.371	9.38
384.156	7.38
384.941	8.38
385.726	6.38
386.511	8.38
387.296	4.38
388.08	7.38
388.865	7.38
389.649	9.38
390.434	5.38
391.218	7.38
392.003	8.38
392.787	7.38
393.571	9.38
394.355	7.38
395.139	8.38
395.923	8.38
396.707	10.38
397.491	11.38
398.274	11.38
399.058	10.38
399.842	9.38
400.625	11.38
401.408	9.38
402.192	12.38
402.975	11.38
403.758	9.38
404.541	11.38
405.324	8.38
406.107	10.38
406.89	9.38
407.673	9.38
408.456	10.38
409.238	10.38
410.021	10.38
410.803	12.38
411.586	13.38
412.368	12.38
413.151	11.38
413.933	12.38
414.715	13.38
415.497	14.38
416.279	13.38
417.061	14.38
417.843	14.38
418.624	11.38
419.406	14.38
420.188	10.38
420.969	14.38
421.751	12.38
422.532	16.38
423.313	17.38
424.095	18.38
424.876	16.38
425.657	15.38
426.438	17.38
427.219	19.38
428	16.38
428.78	18.38
429.561	20.38
430.342	20.38
431.122	21.38
431.903	20.38
432.683	21.38
433.464	24.38
434.244	22.38
435.024	21.38
435.804	24.38
436.584	24.38
437.364	28.38
438.144	29.38
438.924	31.38
439.704	33.38
440.483	34.38
441.263	36.38
442.042	38.38
442.822	39.38
443.601	42.38
444.38	44.38
445.16	47.38
445.939	53.38
446.718	55.38
447.497	58.38
448.276	65.38
449.054	75.38
449.833	76.38
450.612	83.38
451.391	91.38
452.169	102.38
452.948	114.38
453.726	123.38
454.504	139.38
455.282	157.38
456.061	164.38
456.839	192.38
457.617	208.38
458.395	231.38
459.172	255.38
459.95	281.38
460.728	316.38
461.506	358.38
462.283	397.38
463.061	447.38
463.838	493.38
464.615	554.38
465.393	612.38
466.17	680.38
466.947	758.38
467.724	844.38
468.501	945.38
469.278	1051.38
470.055	1154.38
470.831	1295.38
471.608	1421.38
472.385	1577.38
473.161	1761.38
473.938	1936.38
474.714	2144.38
475.49	2364.38
476.266	2610.38
477.043	2876.38
477.819	3186.38
478.595	3536.38
479.371	3862.38
480.146	4242.38
480.922	4664.38
481.698	5066.38
482.473	5593.38
483.249	6135.38
484.024	6709.38
484.8	7360.38
485.575	8064.38
486.35	8802.38
487.126	9570.38
487.901	10492.38
488.676	11381.38
489.451	12376.38
490.225	13453.38
491	14624.38
491.775	15859.38
492.55	17090.38
493.324	18426.38
494.099	19722.38
494.873	21069.38
495.647	22528.38
496.422	23947.38
497.196	25429.38
497.97	26948.38
498.744	28328.38
499.518	29710.38
500.292	30882.38
501.066	31985.38
501.839	33177.38
502.613	34044.38
503.387	34736.38
504.16	35284.38
504.934	35493.38
505.707	35486.38
506.48	35436.38
507.253	35054.38
508.027	34663.38
508.8	34138.38
509.573	33387.38
510.346	32518.38
511.118	31587.38
511.891	30586.38
512.664	29448.38
513.437	28225.38
514.209	27078.38
514.982	26092.38
515.754	25027.38
516.526	23974.38
517.298	22974.38
518.071	21963.38
518.843	21076.38
519.615	20183.38
520.387	19389.38
521.159	18596.38
521.93	17993.38
522.702	17223.38
523.474	16545.38
524.245	15906.38
525.017	15147.38
525.788	14430.38
526.56	13790.38
527.331	13148.38
528.102	12606.38
528.873	11966.38
529.644	11374.38
530.415	10873.38
531.186	10303.38
531.957	9804.38
532.728	9251.38
533.498	8706.38
534.269	8286.38
535.039	7835.38
535.81	7431.38
536.58	7006.38
537.351	6580.38
538.121	6257.38
538.891	5867.38
539.661	5601.38
540.431	5314.38
541.201	5019.38
541.971	4756.38
542.741	4502.38
543.51	4295.38
544.28	4062.38
545.05	3867.38
545.819	3714.38
546.588	3516.38
547.358	3296.38
548.127	3156.38
548.896	2976.38
549.665	2853.38
550.434	2693.38
551.203	2549.38
551.972	2412.38
552.741	2287.38
553.51	2152.38
554.278	2029.38
555.047	1918.38
555.815	1802.38
556.584	1711.38
557.352	1620.38
558.121	1532.38
558.889	1450.38
559.657	1374.38
560.425	1278.38
561.193	1209.38
561.961	1147.38
562.729	1099.38
563.496	1033.38
564.264	970.38
565.032	914.38
565.799	865.38
566.567	830.38
567.334	779.38
568.101	733.38
568.869	698.38
569.636	656.38
570.403	615.38
571.17	575.38
571.937	550.38
572.704	526.38
573.471	486.38
574.237	458.38
575.004	439.38
575.771	410.38
576.537	385.38
577.303	360.38
578.07	335.38
578.836	332.38
579.602	305.38
580.368	287.38
581.134	272.38
581.9	262.38
582.666	242.38
583.432	232.38
584.198	222.38
584.964	209.38
585.729	206.38
586.495	188.38
587.26	173.38
588.025	169.38
588.791	162.38
589.556	153.38
590.321	145.38
591.086	135.38
591.851	130.38
592.616	125.38
593.381	122.38
594.146	114.38
594.911	103.38
595.675	104.38
596.44	97.38
597.204	90.38
597.969	90.38
598.733	86.38
599.497	86.38
600.261	78.38
601.025	75.38
601.79	73.38
602.553	69.38
603.317	64.38
604.081	62.38
604.845	63.38
605.609	58.38
606.372	53.38
607.136	52.38
607.899	52.38
608.662	49.38
609.426	50.38
610.189	41.38
610.952	44.38
611.715	42.38
612.478	44.38
613.241	37.38
614.004	37.38
614.767	34.38
615.529	35.38
616.292	34.38
617.055	29.38
617.817	31.38
618.579	30.38
619.342	28.38
620.104	30.38
620.866	27.38
621.628	29.38
622.39	28.38
623.152	26.38
623.914	24.38
624.676	26.38
625.438	23.38
626.199	22.38
626.961	23.38
627.722	22.38
628.484	19.38
629.245	16.38
630.006	19.38
630.768	20.38
631.529	18.38
632.29	15.38
633.051	17.38
633.812	16.38
634.573	14.38
635.333	14.38
636.094	16.38
636.855	13.38
637.615	14.38
638.376	16.38
639.136	14.38
639.896	13.38
640.657	13.38
641.417	13.38
642.177	10.38
642.937	12.38
643.697	11.38
644.457	10.38
645.216	10.38
645.976	8.38
646.736	12.38
647.495	11.38
648.255	10.38
649.014	10.38
649.774	8.38
650.533	10.38
651.292	10.38
652.051	8.38
652.81	10.38
653.569	7.38
654.328	10.38
655.087	8.38
655.846	8.38
656.604	7.38
657.363	7.38
658.121	9.38
658.88	9.38
659.638	9.38
660.397	8.38
661.155	6.38
661.913	5.38
662.671	7.38
663.429	8.38
664.187	6.38
664.945	5.38
665.703	6.38
666.46	6.38
667.218	7.38
667.976	4.38
668.733	8.38
669.49	4.38
670.248	4.38
671.005	7.38
671.762	7.38
672.519	5.38
673.276	6.38
674.033	6.38
674.79	3.38
675.547	6.38
676.304	5.38
677.06	4.38
677.817	5.38
678.574	6.38
679.33	5.38
680.086	4.38
680.843	8.38
681.599	5.38
682.355	8.38
683.111	7.38
683.867	7.38
684.623	3.38
685.379	7.38
686.135	4.38
686.89	6.38
687.646	4.38
688.402	7.38
689.157	5.38
689.912	6.38
690.668	4.38
691.423	5.38
692.178	7.38
692.933	4.38
693.688	4.38
694.443	6.38
695.198	4.38
695.953	5.38
696.708	4.38
697.462	6.38
698.217	3.38
698.972	5.38
699.726	2.38
700.48	4.38
701.235	5.38
701.989	4.38
702.743	2.38
703.497	7.38
704.251	4.38
705.005	6.38
705.759	4.38
706.513	5.38
707.266	4.38
708.02	4.38
708.774	6.38
709.527	7.38
710.28	7.38
711.034	5.38
711.787	2.38
712.54	8.38
713.293	3.38
714.046	6.38
714.799	4.38
715.552	5.38
716.305	6.38
717.058	2.38
717.81	4.38
718.563	5.38
719.315	7.38
720.068	5.38
720.82	4.38
721.573	3.38
722.325	5.38
723.077	6.38
723.829	4.38
724.581	5.38
725.333	4.38
726.085	6.38
726.836	7.38
727.588	5.38
728.34	7.38
729.091	5.38
729.843	3.38
730.594	5.38
731.346	7.38
732.097	6.38
732.848	5.38
733.599	6.38
734.35	4.38
735.101	6.38
735.852	8.38
736.603	7.38
737.354	6.38
738.104	3.38
738.855	4.38
739.605	8.38
740.356	5.38
741.106	7.38
741.856	6.38
742.607	6.38
743.357	8.38
744.107	6.38
744.857	4.38
745.607	8.38
746.357	7.38
747.106	7.38
747.856	6.38
748.606	7.38
749.355	8.38
750.105	5.38
750.854	4.38
751.603	8.38
752.353	7.38
753.102	7.38
753.851	10.38
754.6	7.38
755.349	10.38
756.098	9.38
756.847	7.38
757.595	9.38
758.344	5.38
759.093	8.38
759.841	7.38
760.589	8.38
761.338	8.38
762.086	9.38
762.834	10.38
763.582	12.38
764.331	7.38
765.079	10.38
765.826	9.38
766.574	9.38
767.322	9.38
768.07	10.38
768.817	7.38
769.565	10.38
770.312	10.38
771.06	10.38
771.807	12.38
772.554	10.38
773.302	11.38
774.049	10.38
774.796	10.38
775.543	11.38
776.29	9.38
777.036	11.38
777.783	13.38
778.53	9.38
779.276	8.38
780.023	12.38
780.769	13.38
781.516	12.38
782.262	13.38
783.008	10.38
783.754	13.38
784.5	11.38
785.246	10.38
785.992	10.38
786.738	11.38
787.484	13.38
788.23	10.38
788.975	11.38
789.721	10.38
790.466	12.38
791.212	11.38
791.957	10.38
792.702	8.38
793.447	10.38
794.193	10.38
794.938	11.38
795.683	9.38
796.427	12.38
797.172	9.38
797.917	7.38
798.662	11.38
799.406	8.38
800.151	10.38
800.895	9.38
801.64	10.38
802.384	9.38
803.128	9.38
803.872	9.38
804.616	9.38
805.36	9.38
806.104	9.38
806.848	9.38
807.592	7.38
808.336	9.38
809.079	8.38
809.823	7.38
810.566	5.38
811.31	7.38
812.053	6.38
812.796	7.38
813.539	7.38
814.283	7.38
815.026	5.38
815.769	3.38
816.511	7.38
817.254	6.38
817.997	5.38
818.74	7.38
819.482	4.38
820.225	4.38
820.967	5.38
821.71	3.38
822.452	4.38
823.194	8.38
823.936	5.38
824.678	4.38
825.42	7.38
826.162	4.38
826.904	6.38
827.646	5.38
828.388	4.38
829.129	5.38
829.871	5.38
830.612	5.38
831.354	3.38
832.095	5.38
832.836	2.38
833.577	3.38
834.319	5.38
835.06	5.38
835.801	6.38
836.542	3.38
837.282	5.38
838.023	6.38
838.764	6.38
839.504	3.38
840.245	2.38
840.985	4.38
841.726	5.38
842.466	4.38
843.206	4.38
843.946	1.38
844.687	4.38
845.427	4.38
846.166	3.38
846.906	5.38
847.646	3.38
848.386	4.38
849.125	1.38
849.865	3.38
850.605	4.38
851.344	5.38
852.083	2.38
852.823	2.38
853.562	3.38
854.301	3.38
855.04	1.38
855.779	4.38
856.518	1.38
857.257	4.38
857.995	4.38
858.734	1.38
859.473	2.38
860.211	2.38
860.95	2.38
861.688	1.38
862.426	2.38
863.165	3.38
863.903	1.38
864.641	3.38
865.379	2.38
866.117	1.38
866.855	4.38
867.593	2.38
868.33	1.38
869.068	1.38
869.806	2.38
870.543	1.38
871.28	3.38
872.018	0.38
872.755	2.38
873.492	1.38
874.229	3.38
874.967	3.38
875.703	3.38
876.44	3.38
877.177	1.38
877.914	0.38
878.651	1.38
879.387	-0.62
880.124	2.38
880.86	1.38
881.597	0.38
882.333	0.38
883.069	0.38
883.806	0.38
884.542	1.38
885.278	0.38
886.014	1.38
886.749	0.38
887.485	0.38
888.221	0.38
888.957	1.38
889.692	0.38
890.428	0.38
891.163	2.38
891.899	0.38
892.634	1.38
893.369	0.38
894.104	0.38
894.839	0.38
895.574	0.38
896.309	2.38
897.044	1.38
897.779	1.38
898.514	-0.62
899.248	2.38
899.983	0.38
900.717	1.38
901.452	1.38
902.186	1.38
902.92	-1.62
903.654	-0.62
904.389	-0.62
905.123	1.38
905.857	-1.62
906.59	1.38
907.324	2.38
908.058	-1.62
908.792	3.38
909.525	1.38
910.259	0.38
910.992	1.38
911.726	1.38
912.459	2.38
913.192	0.38
913.925	-0.62
914.658	-1.62
915.391	-0.62
916.124	0.38
916.857	-0.62
917.59	-0.62
918.323	-0.62
919.055	2.38
919.788	1.38
920.521	0.38
921.253	-1.62
921.985	-0.62
922.718	0.38
923.45	-0.62
924.182	1.38
924.914	0.38
925.646	1.38
926.378	1.38
927.11	-1.62
927.841	0.38
928.573	-1.62
929.305	-0.62
930.036	0.38
930.768	0.38
931.499	2.38
932.23	0.38
932.962	0.38
933.693	1.38
934.424	-0.62
935.155	0.38
935.886	-0.62
936.617	-0.62
937.348	0.38
938.078	0.38
938.809	-0.62
939.54	-1.62
940.27	1.38
941.001	1.38
941.731	0.38
942.461	2.38
943.191	0.38
943.922	0.38
944.652	1.38
945.382	2.38
946.112	-1.62
946.841	0.38
947.571	-1.62
948.301	0.38
949.031	-0.62
949.76	-1.62
950.49	-0.62
951.219	0.38
951.948	-0.62
952.678	1.38
953.407	0.38
954.136	1.38
954.865	0.38
955.594	1.38
956.323	0.38
957.052	-1.62
957.78	2.38
958.509	1.38
959.238	2.38
959.966	0.38
960.695	0.38
961.423	0.38
962.151	1.38
962.88	-0.62
963.608	0.38
964.336	1.38
965.064	1.38
965.792	0.38
966.52	2.38
967.247	0.38
967.975	2.38
968.703	0.38
969.43	1.38
970.158	0.38
970.885	0.38
971.613	0.38
972.34	-1.62
973.067	1.38
973.794	0.38
974.521	0.38
975.248	-0.62
975.975	-0.62
976.702	2.38
977.429	-0.62
978.156	1.38
978.882	1.38
979.609	0.38
980.335	2.38
981.062	-0.62
981.788	1.38
982.514	-1.62
983.24	-1.62
983.967	-0.62
984.693	-0.62
985.419	1.38
986.144	-0.62
986.87	-0.62
987.596	1.38
988.322	-0.62
989.047	0.38
989.773	-1.62
990.498	0.38
991.224	0.38
991.949	2.38
992.674	-0.62
993.399	0.38
994.124	1.38
994.849	0.38
995.574	1.38
996.299	0.38
997.024	0.38
997.749	0.38
998.473	0.38
999.198	-1.62
999.922	1.38
1000.647	1.38
1001.371	3.38
1002.095	-1.62
1002.82	-0.62
1003.544	-1.62
1004.268	2.38
1004.992	2.38
1005.716	3.38
1006.439	3.38
1007.163	3.38
1007.887	3.38
1008.611	-0.62
1009.334	0.38
1010.058	0.38
1010.781	-1.62
1011.504	3.38
1012.228	1.38
1012.951	0.38
1013.674	-1.62
1014.397	-0.62
1015.12	2.38
