节点500_425_QEPB04081__510__15-56-47-583.txt的数据

Date: Wed Nov 12 15:56:47 CST 2025
User: PC
Spectrometer: QEPB0408
触发模式: 0
积分时间 (秒): 1.000000E-2
Scans to average: 1
启用暗噪声校正: true
启用非线性校正: false
滑动平均宽度: 0
X轴模式: Wavelengths
Number of Pixels in Spectrum: 1044
>>>>>Begin Spectral Data<<<<<
220.843	2.25
221.644	2.25
222.444	2.25
223.244	3.25
224.045	1.25
224.845	3.25
225.645	4.25
226.445	5.25
227.245	4.25
228.045	2.25
228.845	3.25
229.645	4.25
230.444	5.25
231.244	5.25
232.043	3.25
232.843	7.25
233.642	4.25
234.442	5.25
235.241	7.25
236.04	6.25
236.839	8.25
237.638	5.25
238.437	6.25
239.236	5.25
240.035	5.25
240.833	5.25
241.632	6.25
242.43	8.25
243.229	5.25
244.027	9.25
244.826	7.25
245.624	8.25
246.422	9.25
247.22	5.25
248.018	7.25
248.816	7.25
249.614	8.25
250.412	12.25
251.21	9.25
252.007	11.25
252.805	7.25
253.602	8.25
254.4	10.25
255.197	12.25
255.994	10.25
256.791	10.25
257.589	13.25
258.386	14.25
259.183	14.25
259.979	13.25
260.776	11.25
261.573	13.25
262.37	14.25
263.166	15.25
263.963	13.25
264.759	13.25
265.556	16.25
266.352	16.25
267.148	16.25
267.944	16.25
268.74	17.25
269.536	17.25
270.332	17.25
271.128	20.25
271.924	21.25
272.719	22.25
273.515	18.25
274.311	22.25
275.106	19.25
275.901	19.25
276.697	24.25
277.492	21.25
278.287	22.25
279.082	23.25
279.877	24.25
280.672	24.25
281.467	20.25
282.262	24.25
283.056	22.25
283.851	26.25
284.646	24.25
285.44	22.25
286.234	22.25
287.029	21.25
287.823	27.25
288.617	22.25
289.411	20.25
290.205	22.25
290.999	23.25
291.793	23.25
292.587	24.25
293.381	21.25
294.174	21.25
294.968	23.25
295.761	19.25
296.555	20.25
297.348	19.25
298.141	18.25
298.935	19.25
299.728	17.25
300.521	17.25
301.314	20.25
302.107	18.25
302.899	16.25
303.692	17.25
304.485	14.25
305.277	17.25
306.07	15.25
306.862	16.25
307.655	14.25
308.447	15.25
309.239	13.25
310.031	11.25
310.823	14.25
311.615	13.25
312.407	12.25
313.199	13.25
313.991	11.25
314.783	11.25
315.574	10.25
316.366	11.25
317.157	10.25
317.949	10.25
318.74	11.25
319.531	11.25
320.322	12.25
321.113	8.25
321.904	8.25
322.695	9.25
323.486	8.25
324.277	8.25
325.068	9.25
325.858	10.25
326.649	10.25
327.439	10.25
328.23	8.25
329.02	7.25
329.81	9.25
330.6	10.25
331.391	9.25
332.181	6.25
332.971	6.25
333.76	9.25
334.55	7.25
335.34	7.25
336.13	8.25
336.919	9.25
337.709	10.25
338.498	7.25
339.287	7.25
340.077	10.25
340.866	9.25
341.655	9.25
342.444	6.25
343.233	8.25
344.022	11.25
344.811	8.25
345.6	8.25
346.388	10.25
347.177	7.25
347.965	8.25
348.754	9.25
349.542	7.25
350.33	8.25
351.119	9.25
351.907	7.25
352.695	6.25
353.483	9.25
354.271	6.25
355.059	5.25
355.846	7.25
356.634	9.25
357.422	8.25
358.209	6.25
358.997	3.25
359.784	5.25
360.571	6.25
361.359	5.25
362.146	7.25
362.933	4.25
363.72	6.25
364.507	8.25
365.294	6.25
366.081	7.25
366.867	4.25
367.654	5.25
368.44	7.25
369.227	6.25
370.013	6.25
370.8	4.25
371.586	5.25
372.372	8.25
373.158	8.25
373.944	6.25
374.73	6.25
375.516	7.25
376.302	7.25
377.088	7.25
377.873	4.25
378.659	5.25
379.445	7.25
380.23	8.25
381.015	9.25
381.801	7.25
382.586	7.25
383.371	5.25
384.156	6.25
384.941	6.25
385.726	4.25
386.511	7.25
387.296	7.25
388.08	9.25
388.865	8.25
389.649	9.25
390.434	5.25
391.218	7.25
392.003	9.25
392.787	9.25
393.571	7.25
394.355	7.25
395.139	7.25
395.923	8.25
396.707	6.25
397.491	8.25
398.274	11.25
399.058	6.25
399.842	11.25
400.625	10.25
401.408	10.25
402.192	8.25
402.975	8.25
403.758	10.25
404.541	13.25
405.324	11.25
406.107	9.25
406.89	12.25
407.673	9.25
408.456	12.25
409.238	11.25
410.021	10.25
410.803	11.25
411.586	11.25
412.368	10.25
413.151	10.25
413.933	11.25
414.715	14.25
415.497	13.25
416.279	13.25
417.061	10.25
417.843	13.25
418.624	13.25
419.406	13.25
420.188	14.25
420.969	13.25
421.751	12.25
422.532	16.25
423.313	13.25
424.095	16.25
424.876	14.25
425.657	16.25
426.438	17.25
427.219	17.25
428	18.25
428.78	18.25
429.561	18.25
430.342	18.25
431.122	18.25
431.903	22.25
432.683	22.25
433.464	24.25
434.244	24.25
435.024	24.25
435.804	24.25
436.584	27.25
437.364	30.25
438.144	31.25
438.924	32.25
439.704	34.25
440.483	34.25
441.263	34.25
442.042	39.25
442.822	39.25
443.601	43.25
444.38	48.25
445.16	52.25
445.939	55.25
446.718	61.25
447.497	60.25
448.276	74.25
449.054	76.25
449.833	85.25
450.612	93.25
451.391	99.25
452.169	107.25
452.948	121.25
453.726	133.25
454.504	147.25
455.282	164.25
456.061	178.25
456.839	199.25
457.617	224.25
458.395	251.25
459.172	281.25
459.95	305.25
460.728	350.25
461.506	384.25
462.283	429.25
463.061	479.25
463.838	536.25
464.615	592.25
465.393	654.25
466.17	729.25
466.947	798.25
467.724	891.25
468.501	995.25
469.278	1093.25
470.055	1227.25
470.831	1337.25
471.608	1479.25
472.385	1619.25
473.161	1776.25
473.938	1958.25
474.714	2161.25
475.49	2385.25
476.266	2625.25
477.043	2860.25
477.819	3139.25
478.595	3440.25
479.371	3774.25
480.146	4092.25
480.922	4458.25
481.698	4868.25
482.473	5298.25
483.249	5815.25
484.024	6344.25
484.8	6898.25
485.575	7493.25
486.35	8111.25
487.126	8802.25
487.901	9577.25
488.676	10356.25
489.451	11228.25
490.225	12093.25
491	13156.25
491.775	14167.25
492.55	15246.25
493.324	16430.25
494.099	17497.25
494.873	18669.25
495.647	19997.25
496.422	21219.25
497.196	22474.25
497.97	23886.25
498.744	25123.25
499.518	26523.25
500.292	27629.25
501.066	28730.25
501.839	29840.25
502.613	30798.25
503.387	31528.25
504.16	32246.25
504.934	32753.25
505.707	32980.25
506.48	33037.25
507.253	33014.25
508.027	32865.25
508.8	32692.25
509.573	32138.25
510.346	31560.25
511.118	30819.25
511.891	30016.25
512.664	29076.25
513.437	28068.25
514.209	27040.25
514.982	26151.25
515.754	25209.25
516.526	24173.25
517.298	23231.25
518.071	22262.25
518.843	21373.25
519.615	20533.25
520.387	19736.25
521.159	18951.25
521.93	18235.25
522.702	17533.25
523.474	16853.25
524.245	16149.25
525.017	15440.25
525.788	14775.25
526.56	14123.25
527.331	13517.25
528.102	12886.25
528.873	12335.25
529.644	11732.25
530.415	11235.25
531.186	10776.25
531.957	10224.25
532.728	9664.25
533.498	9156.25
534.269	8653.25
535.039	8215.25
535.81	7792.25
536.58	7348.25
537.351	6953.25
538.121	6537.25
538.891	6250.25
539.661	5888.25
540.431	5598.25
541.201	5297.25
541.971	5009.25
542.741	4749.25
543.51	4516.25
544.28	4287.25
545.05	4064.25
545.819	3890.25
546.588	3711.25
547.358	3518.25
548.127	3328.25
548.896	3180.25
549.665	3014.25
550.434	2851.25
551.203	2698.25
551.972	2555.25
552.741	2427.25
553.51	2298.25
554.278	2155.25
555.047	2063.25
555.815	1938.25
556.584	1830.25
557.352	1729.25
558.121	1638.25
558.889	1537.25
559.657	1451.25
560.425	1374.25
561.193	1307.25
561.961	1230.25
562.729	1173.25
563.496	1095.25
564.264	1048.25
565.032	984.25
565.799	936.25
566.567	879.25
567.334	833.25
568.101	794.25
568.869	756.25
569.636	706.25
570.403	651.25
571.17	625.25
571.937	584.25
572.704	561.25
573.471	522.25
574.237	501.25
575.004	458.25
575.771	440.25
576.537	409.25
577.303	384.25
578.07	372.25
578.836	344.25
579.602	327.25
580.368	313.25
581.134	300.25
581.9	277.25
582.666	262.25
583.432	249.25
584.198	241.25
584.964	221.25
585.729	216.25
586.495	212.25
587.26	189.25
588.025	180.25
588.791	170.25
589.556	161.25
590.321	158.25
591.086	151.25
591.851	144.25
592.616	132.25
593.381	129.25
594.146	123.25
594.911	114.25
595.675	112.25
596.44	105.25
597.204	100.25
597.969	97.25
598.733	92.25
599.497	89.25
600.261	83.25
601.025	84.25
601.79	75.25
602.553	72.25
603.317	68.25
604.081	63.25
604.845	63.25
605.609	63.25
606.372	62.25
607.136	55.25
607.899	53.25
608.662	53.25
609.426	51.25
610.189	47.25
610.952	46.25
611.715	46.25
612.478	39.25
613.241	44.25
614.004	41.25
614.767	39.25
615.529	35.25
616.292	32.25
617.055	33.25
617.817	32.25
618.579	30.25
619.342	32.25
620.104	28.25
620.866	28.25
621.628	26.25
622.39	25.25
623.152	26.25
623.914	24.25
624.676	23.25
625.438	25.25
626.199	21.25
626.961	24.25
627.722	23.25
628.484	20.25
629.245	19.25
630.006	21.25
630.768	17.25
631.529	20.25
632.29	17.25
633.051	16.25
633.812	18.25
634.573	19.25
635.333	14.25
636.094	17.25
636.855	16.25
637.615	15.25
638.376	12.25
639.136	16.25
639.896	13.25
640.657	13.25
641.417	14.25
642.177	13.25
642.937	14.25
643.697	10.25
644.457	10.25
645.216	12.25
645.976	11.25
646.736	10.25
647.495	11.25
648.255	10.25
649.014	10.25
649.774	9.25
650.533	10.25
651.292	10.25
652.051	10.25
652.81	8.25
653.569	9.25
654.328	9.25
655.087	9.25
655.846	11.25
656.604	9.25
657.363	8.25
658.121	9.25
658.88	7.25
659.638	8.25
660.397	9.25
661.155	7.25
661.913	7.25
662.671	9.25
663.429	7.25
664.187	8.25
664.945	6.25
665.703	5.25
666.46	9.25
667.218	6.25
667.976	7.25
668.733	6.25
669.49	7.25
670.248	6.25
671.005	7.25
671.762	4.25
672.519	6.25
673.276	7.25
674.033	5.25
674.79	4.25
675.547	4.25
676.304	4.25
677.06	6.25
677.817	5.25
678.574	3.25
679.33	8.25
680.086	4.25
680.843	3.25
681.599	4.25
682.355	5.25
683.111	5.25
683.867	6.25
684.623	6.25
685.379	3.25
686.135	3.25
686.89	6.25
687.646	6.25
688.402	5.25
689.157	4.25
689.912	7.25
690.668	4.25
691.423	7.25
692.178	6.25
692.933	4.25
693.688	8.25
694.443	6.25
695.198	5.25
695.953	6.25
696.708	6.25
697.462	7.25
698.217	2.25
698.972	4.25
699.726	6.25
700.48	5.25
701.235	6.25
701.989	5.25
702.743	5.25
703.497	5.25
704.251	7.25
705.005	6.25
705.759	4.25
706.513	7.25
707.266	5.25
708.02	4.25
708.774	6.25
709.527	7.25
710.28	5.25
711.034	5.25
711.787	3.25
712.54	3.25
713.293	4.25
714.046	4.25
714.799	4.25
715.552	7.25
716.305	4.25
717.058	4.25
717.81	4.25
718.563	6.25
719.315	5.25
720.068	7.25
720.82	4.25
721.573	4.25
722.325	5.25
723.077	3.25
723.829	5.25
724.581	4.25
725.333	4.25
726.085	6.25
726.836	5.25
727.588	5.25
728.34	5.25
729.091	6.25
729.843	6.25
730.594	3.25
731.346	6.25
732.097	5.25
732.848	4.25
733.599	10.25
734.35	5.25
735.101	5.25
735.852	5.25
736.603	7.25
737.354	7.25
738.104	6.25
738.855	7.25
739.605	6.25
740.356	7.25
741.106	5.25
741.856	6.25
742.607	8.25
743.357	5.25
744.107	4.25
744.857	7.25
745.607	6.25
746.357	6.25
747.106	5.25
747.856	9.25
748.606	6.25
749.355	7.25
750.105	3.25
750.854	7.25
751.603	4.25
752.353	10.25
753.102	6.25
753.851	8.25
754.6	8.25
755.349	7.25
756.098	7.25
756.847	7.25
757.595	7.25
758.344	7.25
759.093	7.25
759.841	7.25
760.589	8.25
761.338	7.25
762.086	8.25
762.834	9.25
763.582	9.25
764.331	10.25
765.079	7.25
765.826	9.25
766.574	9.25
767.322	10.25
768.07	6.25
768.817	9.25
769.565	9.25
770.312	8.25
771.06	10.25
771.807	9.25
772.554	11.25
773.302	9.25
774.049	8.25
774.796	10.25
775.543	11.25
776.29	9.25
777.036	12.25
777.783	9.25
778.53	10.25
779.276	10.25
780.023	10.25
780.769	12.25
781.516	9.25
782.262	11.25
783.008	11.25
783.754	13.25
784.5	10.25
785.246	10.25
785.992	10.25
786.738	14.25
787.484	9.25
788.23	9.25
788.975	10.25
789.721	9.25
790.466	10.25
791.212	10.25
791.957	13.25
792.702	8.25
793.447	8.25
794.193	10.25
794.938	10.25
795.683	9.25
796.427	8.25
797.172	10.25
797.917	10.25
798.662	8.25
799.406	11.25
800.151	8.25
800.895	8.25
801.64	7.25
802.384	8.25
803.128	8.25
803.872	8.25
804.616	8.25
805.36	8.25
806.104	6.25
806.848	7.25
807.592	7.25
808.336	8.25
809.079	7.25
809.823	5.25
810.566	7.25
811.31	4.25
812.053	6.25
812.796	5.25
813.539	8.25
814.283	4.25
815.026	7.25
815.769	7.25
816.511	7.25
817.254	7.25
817.997	7.25
818.74	5.25
819.482	7.25
820.225	5.25
820.967	4.25
821.71	4.25
822.452	6.25
823.194	6.25
823.936	6.25
824.678	6.25
825.42	4.25
826.162	4.25
826.904	4.25
827.646	6.25
828.388	4.25
829.129	3.25
829.871	5.25
830.612	2.25
831.354	7.25
832.095	3.25
832.836	4.25
833.577	6.25
834.319	6.25
835.06	4.25
835.801	5.25
836.542	4.25
837.282	4.25
838.023	4.25
838.764	2.25
839.504	3.25
840.245	3.25
840.985	5.25
841.726	2.25
842.466	5.25
843.206	2.25
843.946	5.25
844.687	7.25
845.427	4.25
846.166	4.25
846.906	6.25
847.646	3.25
848.386	1.25
849.125	4.25
849.865	2.25
850.605	4.25
851.344	5.25
852.083	1.25
852.823	4.25
853.562	4.25
854.301	2.25
855.04	5.25
855.779	0.25
856.518	3.25
857.257	1.25
857.995	3.25
858.734	3.25
859.473	2.25
860.211	3.25
860.95	2.25
861.688	4.25
862.426	1.25
863.165	2.25
863.903	1.25
864.641	3.25
865.379	2.25
866.117	2.25
866.855	4.25
867.593	2.25
868.33	2.25
869.068	1.25
869.806	0.25
870.543	2.25
871.28	3.25
872.018	1.25
872.755	2.25
873.492	-0.75
874.229	4.25
874.967	2.25
875.703	3.25
876.44	2.25
877.177	1.25
877.914	1.25
878.651	1.25
879.387	2.25
880.124	2.25
880.86	2.25
881.597	2.25
882.333	0.25
883.069	4.25
883.806	1.25
884.542	1.25
885.278	3.25
886.014	2.25
886.749	2.25
887.485	2.25
888.221	1.25
888.957	-1.75
889.692	2.25
890.428	3.25
891.163	2.25
891.899	1.25
892.634	0.25
893.369	2.25
894.104	3.25
894.839	2.25
895.574	0.25
896.309	2.25
897.044	3.25
897.779	1.25
898.514	0.25
899.248	-0.75
899.983	-1.75
900.717	3.25
901.452	0.25
902.186	0.25
902.92	1.25
903.654	3.25
904.389	1.25
905.123	-0.75
905.857	0.25
906.59	0.25
907.324	2.25
908.058	0.25
908.792	0.25
909.525	0.25
910.259	0.25
910.992	2.25
911.726	1.25
912.459	-1.75
913.192	3.25
913.925	-1.75
914.658	0.25
915.391	2.25
916.124	0.25
916.857	2.25
917.59	1.25
918.323	1.25
919.055	0.25
919.788	2.25
920.521	-0.75
921.253	0.25
921.985	0.25
922.718	0.25
923.45	2.25
924.182	0.25
924.914	0.25
925.646	1.25
926.378	-0.75
927.11	-0.75
927.841	-1.75
928.573	2.25
929.305	-0.75
930.036	1.25
930.768	0.25
931.499	-0.75
932.23	2.25
932.962	0.25
933.693	1.25
934.424	1.25
935.155	0.25
935.886	0.25
936.617	0.25
937.348	-0.75
938.078	0.25
938.809	0.25
939.54	-0.75
940.27	-1.75
941.001	0.25
941.731	-1.75
942.461	-0.75
943.191	0.25
943.922	-1.75
944.652	2.25
945.382	0.25
946.112	0.25
946.841	0.25
947.571	2.25
948.301	0.25
949.031	0.25
949.76	1.25
950.49	1.25
951.219	0.25
951.948	0.25
952.678	2.25
953.407	0.25
954.136	1.25
954.865	0.25
955.594	0.25
956.323	1.25
957.052	1.25
957.78	-0.75
958.509	3.25
959.238	-1.75
959.966	-0.75
960.695	1.25
961.423	1.25
962.151	0.25
962.88	2.25
963.608	-0.75
964.336	0.25
965.064	2.25
965.792	-1.75
966.52	-0.75
967.247	0.25
967.975	-0.75
968.703	3.25
969.43	2.25
970.158	2.25
970.885	0.25
971.613	0.25
972.34	-1.75
973.067	-0.75
973.794	2.25
974.521	-1.75
975.248	0.25
975.975	-0.75
976.702	1.25
977.429	2.25
978.156	1.25
978.882	1.25
979.609	0.25
980.335	0.25
981.062	2.25
981.788	-0.75
982.514	1.25
983.24	-1.75
983.967	-0.75
984.693	0.25
985.419	1.25
986.144	-0.75
986.87	-0.75
987.596	0.25
988.322	1.25
989.047	2.25
989.773	1.25
990.498	1.25
991.224	0.25
991.949	0.25
992.674	0.25
993.399	0.25
994.124	-2.75
994.849	1.25
995.574	1.25
996.299	0.25
997.024	0.25
997.749	-1.75
998.473	2.25
999.198	0.25
999.922	2.25
1000.647	-1.75
1001.371	2.25
1002.095	-1.75
1002.82	1.25
1003.544	-1.75
1004.268	4.25
1004.992	2.25
1005.716	3.25
1006.439	0.25
1007.163	4.25
1007.887	3.25
1008.611	0.25
1009.334	0.25
1010.058	-0.75
1010.781	2.25
1011.504	-0.75
1012.228	0.25
1012.951	1.25
1013.674	1.25
1014.397	-0.75
1015.12	-1.75
