节点500_425_QEPB04081__367__15-54-24-745.txt的数据

Date: Wed Nov 12 15:54:24 CST 2025
User: PC
Spectrometer: QEPB0408
触发模式: 0
积分时间 (秒): 1.000000E-2
Scans to average: 1
启用暗噪声校正: true
启用非线性校正: false
滑动平均宽度: 0
X轴模式: Wavelengths
Number of Pixels in Spectrum: 1044
>>>>>Begin Spectral Data<<<<<
220.843	3.5
221.644	2.5
222.444	2.5
223.244	5.5
224.045	3.5
224.845	5.5
225.645	5.5
226.445	3.5
227.245	5.5
228.045	1.5
228.845	5.5
229.645	3.5
230.444	4.5
231.244	4.5
232.043	5.5
232.843	5.5
233.642	3.5
234.442	5.5
235.241	6.5
236.04	4.5
236.839	6.5
237.638	6.5
238.437	5.5
239.236	7.5
240.035	7.5
240.833	7.5
241.632	4.5
242.43	10.5
243.229	8.5
244.027	8.5
244.826	8.5
245.624	9.5
246.422	10.5
247.22	7.5
248.018	11.5
248.816	10.5
249.614	8.5
250.412	9.5
251.21	8.5
252.007	9.5
252.805	9.5
253.602	10.5
254.4	11.5
255.197	8.5
255.994	8.5
256.791	10.5
257.589	11.5
258.386	14.5
259.183	13.5
259.979	14.5
260.776	14.5
261.573	13.5
262.37	13.5
263.166	18.5
263.963	18.5
264.759	14.5
265.556	16.5
266.352	16.5
267.148	17.5
267.944	17.5
268.74	18.5
269.536	19.5
270.332	17.5
271.128	20.5
271.924	17.5
272.719	18.5
273.515	21.5
274.311	21.5
275.106	24.5
275.901	21.5
276.697	24.5
277.492	23.5
278.287	25.5
279.082	22.5
279.877	21.5
280.672	25.5
281.467	23.5
282.262	26.5
283.056	26.5
283.851	25.5
284.646	28.5
285.44	23.5
286.234	24.5
287.029	19.5
287.823	25.5
288.617	23.5
289.411	23.5
290.205	25.5
290.999	20.5
291.793	24.5
292.587	23.5
293.381	22.5
294.174	24.5
294.968	21.5
295.761	20.5
296.555	22.5
297.348	19.5
298.141	21.5
298.935	21.5
299.728	18.5
300.521	17.5
301.314	18.5
302.107	17.5
302.899	18.5
303.692	16.5
304.485	17.5
305.277	17.5
306.07	17.5
306.862	16.5
307.655	14.5
308.447	14.5
309.239	15.5
310.031	13.5
310.823	13.5
311.615	16.5
312.407	13.5
313.199	13.5
313.991	10.5
314.783	13.5
315.574	14.5
316.366	11.5
317.157	10.5
317.949	10.5
318.74	9.5
319.531	10.5
320.322	10.5
321.113	10.5
321.904	12.5
322.695	10.5
323.486	10.5
324.277	10.5
325.068	10.5
325.858	9.5
326.649	10.5
327.439	10.5
328.23	9.5
329.02	9.5
329.81	8.5
330.6	10.5
331.391	7.5
332.181	5.5
332.971	7.5
333.76	10.5
334.55	8.5
335.34	8.5
336.13	9.5
336.919	6.5
337.709	10.5
338.498	6.5
339.287	10.5
340.077	7.5
340.866	8.5
341.655	6.5
342.444	9.5
343.233	8.5
344.022	7.5
344.811	9.5
345.6	7.5
346.388	5.5
347.177	11.5
347.965	10.5
348.754	7.5
349.542	8.5
350.33	9.5
351.119	9.5
351.907	7.5
352.695	8.5
353.483	8.5
354.271	6.5
355.059	8.5
355.846	8.5
356.634	5.5
357.422	8.5
358.209	6.5
358.997	8.5
359.784	7.5
360.571	8.5
361.359	5.5
362.146	8.5
362.933	8.5
363.72	7.5
364.507	7.5
365.294	4.5
366.081	9.5
366.867	7.5
367.654	6.5
368.44	5.5
369.227	6.5
370.013	7.5
370.8	8.5
371.586	8.5
372.372	5.5
373.158	8.5
373.944	7.5
374.73	5.5
375.516	7.5
376.302	8.5
377.088	7.5
377.873	6.5
378.659	8.5
379.445	7.5
380.23	5.5
381.015	8.5
381.801	6.5
382.586	7.5
383.371	7.5
384.156	4.5
384.941	8.5
385.726	6.5
386.511	8.5
387.296	8.5
388.08	9.5
388.865	7.5
389.649	6.5
390.434	8.5
391.218	7.5
392.003	9.5
392.787	8.5
393.571	8.5
394.355	6.5
395.139	8.5
395.923	9.5
396.707	9.5
397.491	9.5
398.274	10.5
399.058	8.5
399.842	9.5
400.625	8.5
401.408	8.5
402.192	8.5
402.975	11.5
403.758	11.5
404.541	8.5
405.324	8.5
406.107	9.5
406.89	9.5
407.673	11.5
408.456	10.5
409.238	10.5
410.021	10.5
410.803	12.5
411.586	11.5
412.368	10.5
413.151	12.5
413.933	13.5
414.715	11.5
415.497	12.5
416.279	10.5
417.061	12.5
417.843	13.5
418.624	14.5
419.406	11.5
420.188	14.5
420.969	12.5
421.751	14.5
422.532	15.5
423.313	17.5
424.095	14.5
424.876	16.5
425.657	17.5
426.438	15.5
427.219	17.5
428	19.5
428.78	17.5
429.561	21.5
430.342	18.5
431.122	17.5
431.903	23.5
432.683	19.5
433.464	21.5
434.244	24.5
435.024	24.5
435.804	26.5
436.584	27.5
437.364	28.5
438.144	28.5
438.924	31.5
439.704	32.5
440.483	36.5
441.263	35.5
442.042	35.5
442.822	41.5
443.601	44.5
444.38	44.5
445.16	47.5
445.939	53.5
446.718	54.5
447.497	59.5
448.276	70.5
449.054	73.5
449.833	78.5
450.612	89.5
451.391	93.5
452.169	107.5
452.948	111.5
453.726	125.5
454.504	141.5
455.282	155.5
456.061	172.5
456.839	186.5
457.617	215.5
458.395	230.5
459.172	261.5
459.95	298.5
460.728	328.5
461.506	354.5
462.283	402.5
463.061	459.5
463.838	503.5
464.615	565.5
465.393	622.5
466.17	701.5
466.947	782.5
467.724	863.5
468.501	964.5
469.278	1069.5
470.055	1168.5
470.831	1315.5
471.608	1440.5
472.385	1609.5
473.161	1767.5
473.938	1952.5
474.714	2144.5
475.49	2368.5
476.266	2613.5
477.043	2865.5
477.819	3148.5
478.595	3476.5
479.371	3826.5
480.146	4167.5
480.922	4569.5
481.698	5005.5
482.473	5490.5
483.249	5996.5
484.024	6552.5
484.8	7203.5
485.575	7826.5
486.35	8518.5
487.126	9258.5
487.901	10136.5
488.676	10997.5
489.451	11967.5
490.225	12948.5
491	14031.5
491.775	15138.5
492.55	16358.5
493.324	17634.5
494.099	18802.5
494.873	20138.5
495.647	21465.5
496.422	22862.5
497.196	24282.5
497.97	25734.5
498.744	27092.5
499.518	28448.5
500.292	29639.5
501.066	30735.5
501.839	31864.5
502.613	32779.5
503.387	33623.5
504.16	34175.5
504.934	34476.5
505.707	34643.5
506.48	34573.5
507.253	34297.5
508.027	34082.5
508.8	33727.5
509.573	32942.5
510.346	32177.5
511.118	31259.5
511.891	30332.5
512.664	29263.5
513.437	28274.5
514.209	27185.5
514.982	26125.5
515.754	25064.5
516.526	23958.5
517.298	23032.5
518.071	22073.5
518.843	21137.5
519.615	20296.5
520.387	19457.5
521.159	18758.5
521.93	18076.5
522.702	17313.5
523.474	16662.5
524.245	15997.5
525.017	15285.5
525.788	14555.5
526.56	13909.5
527.331	13310.5
528.102	12687.5
528.873	12097.5
529.644	11526.5
530.415	10974.5
531.186	10466.5
531.957	9966.5
532.728	9391.5
533.498	8887.5
534.269	8410.5
535.039	8004.5
535.81	7558.5
536.58	7123.5
537.351	6692.5
538.121	6341.5
538.891	5979.5
539.661	5722.5
540.431	5410.5
541.201	5110.5
541.971	4876.5
542.741	4578.5
543.51	4333.5
544.28	4126.5
545.05	3935.5
545.819	3761.5
546.588	3565.5
547.358	3386.5
548.127	3201.5
548.896	3049.5
549.665	2891.5
550.434	2744.5
551.203	2601.5
551.972	2474.5
552.741	2313.5
553.51	2214.5
554.278	2069.5
555.047	1964.5
555.815	1863.5
556.584	1769.5
557.352	1657.5
558.121	1559.5
558.889	1466.5
559.657	1409.5
560.425	1312.5
561.193	1236.5
561.961	1182.5
562.729	1127.5
563.496	1056.5
564.264	996.5
565.032	949.5
565.799	901.5
566.567	854.5
567.334	798.5
568.101	756.5
568.869	729.5
569.636	672.5
570.403	627.5
571.17	605.5
571.937	571.5
572.704	541.5
573.471	503.5
574.237	478.5
575.004	440.5
575.771	413.5
576.537	404.5
577.303	380.5
578.07	355.5
578.836	330.5
579.602	304.5
580.368	293.5
581.134	282.5
581.9	269.5
582.666	257.5
583.432	249.5
584.198	228.5
584.964	211.5
585.729	211.5
586.495	196.5
587.26	185.5
588.025	176.5
588.791	170.5
589.556	156.5
590.321	153.5
591.086	140.5
591.851	138.5
592.616	128.5
593.381	122.5
594.146	115.5
594.911	116.5
595.675	106.5
596.44	100.5
597.204	100.5
597.969	91.5
598.733	88.5
599.497	85.5
600.261	81.5
601.025	74.5
601.79	73.5
602.553	72.5
603.317	66.5
604.081	64.5
604.845	61.5
605.609	57.5
606.372	57.5
607.136	52.5
607.899	49.5
608.662	50.5
609.426	49.5
610.189	47.5
610.952	45.5
611.715	44.5
612.478	42.5
613.241	40.5
614.004	38.5
614.767	35.5
615.529	35.5
616.292	33.5
617.055	32.5
617.817	32.5
618.579	32.5
619.342	32.5
620.104	32.5
620.866	28.5
621.628	23.5
622.39	26.5
623.152	23.5
623.914	27.5
624.676	22.5
625.438	21.5
626.199	22.5
626.961	21.5
627.722	21.5
628.484	21.5
629.245	20.5
630.006	22.5
630.768	20.5
631.529	18.5
632.29	18.5
633.051	14.5
633.812	15.5
634.573	16.5
635.333	14.5
636.094	13.5
636.855	12.5
637.615	14.5
638.376	14.5
639.136	14.5
639.896	14.5
640.657	15.5
641.417	12.5
642.177	15.5
642.937	13.5
643.697	13.5
644.457	13.5
645.216	10.5
645.976	10.5
646.736	11.5
647.495	12.5
648.255	10.5
649.014	9.5
649.774	11.5
650.533	11.5
651.292	11.5
652.051	8.5
652.81	9.5
653.569	10.5
654.328	10.5
655.087	8.5
655.846	10.5
656.604	11.5
657.363	8.5
658.121	7.5
658.88	9.5
659.638	8.5
660.397	6.5
661.155	8.5
661.913	7.5
662.671	8.5
663.429	5.5
664.187	8.5
664.945	8.5
665.703	6.5
666.46	9.5
667.218	7.5
667.976	5.5
668.733	5.5
669.49	6.5
670.248	6.5
671.005	7.5
671.762	7.5
672.519	6.5
673.276	6.5
674.033	6.5
674.79	6.5
675.547	8.5
676.304	5.5
677.06	4.5
677.817	5.5
678.574	6.5
679.33	5.5
680.086	4.5
680.843	6.5
681.599	4.5
682.355	6.5
683.111	5.5
683.867	6.5
684.623	5.5
685.379	7.5
686.135	5.5
686.89	5.5
687.646	5.5
688.402	4.5
689.157	6.5
689.912	6.5
690.668	4.5
691.423	5.5
692.178	5.5
692.933	6.5
693.688	7.5
694.443	5.5
695.198	7.5
695.953	4.5
696.708	7.5
697.462	4.5
698.217	5.5
698.972	7.5
699.726	5.5
700.48	3.5
701.235	4.5
701.989	4.5
702.743	5.5
703.497	4.5
704.251	6.5
705.005	4.5
705.759	6.5
706.513	5.5
707.266	6.5
708.02	4.5
708.774	6.5
709.527	3.5
710.28	5.5
711.034	4.5
711.787	4.5
712.54	3.5
713.293	4.5
714.046	4.5
714.799	4.5
715.552	5.5
716.305	5.5
717.058	4.5
717.81	4.5
718.563	7.5
719.315	4.5
720.068	6.5
720.82	7.5
721.573	5.5
722.325	6.5
723.077	2.5
723.829	4.5
724.581	4.5
725.333	3.5
726.085	7.5
726.836	4.5
727.588	4.5
728.34	6.5
729.091	3.5
729.843	6.5
730.594	5.5
731.346	5.5
732.097	4.5
732.848	6.5
733.599	6.5
734.35	6.5
735.101	4.5
735.852	5.5
736.603	4.5
737.354	5.5
738.104	7.5
738.855	5.5
739.605	5.5
740.356	7.5
741.106	4.5
741.856	7.5
742.607	7.5
743.357	7.5
744.107	6.5
744.857	6.5
745.607	9.5
746.357	6.5
747.106	6.5
747.856	5.5
748.606	7.5
749.355	8.5
750.105	6.5
750.854	9.5
751.603	6.5
752.353	10.5
753.102	9.5
753.851	9.5
754.6	8.5
755.349	7.5
756.098	7.5
756.847	9.5
757.595	8.5
758.344	8.5
759.093	8.5
759.841	8.5
760.589	7.5
761.338	8.5
762.086	11.5
762.834	7.5
763.582	8.5
764.331	11.5
765.079	9.5
765.826	11.5
766.574	11.5
767.322	9.5
768.07	10.5
768.817	12.5
769.565	6.5
770.312	11.5
771.06	8.5
771.807	10.5
772.554	10.5
773.302	9.5
774.049	13.5
774.796	12.5
775.543	9.5
776.29	10.5
777.036	8.5
777.783	13.5
778.53	11.5
779.276	12.5
780.023	9.5
780.769	12.5
781.516	10.5
782.262	12.5
783.008	10.5
783.754	11.5
784.5	9.5
785.246	12.5
785.992	10.5
786.738	13.5
787.484	9.5
788.23	13.5
788.975	11.5
789.721	11.5
790.466	9.5
791.212	8.5
791.957	12.5
792.702	10.5
793.447	11.5
794.193	10.5
794.938	9.5
795.683	10.5
796.427	8.5
797.172	12.5
797.917	10.5
798.662	10.5
799.406	10.5
800.151	9.5
800.895	10.5
801.64	7.5
802.384	8.5
803.128	7.5
803.872	8.5
804.616	12.5
805.36	7.5
806.104	9.5
806.848	7.5
807.592	8.5
808.336	7.5
809.079	8.5
809.823	7.5
810.566	8.5
811.31	6.5
812.053	7.5
812.796	7.5
813.539	7.5
814.283	6.5
815.026	6.5
815.769	7.5
816.511	7.5
817.254	7.5
817.997	5.5
818.74	5.5
819.482	6.5
820.225	7.5
820.967	4.5
821.71	6.5
822.452	7.5
823.194	6.5
823.936	5.5
824.678	5.5
825.42	3.5
826.162	4.5
826.904	4.5
827.646	6.5
828.388	5.5
829.129	6.5
829.871	6.5
830.612	3.5
831.354	6.5
832.095	3.5
832.836	4.5
833.577	2.5
834.319	5.5
835.06	4.5
835.801	2.5
836.542	7.5
837.282	6.5
838.023	5.5
838.764	3.5
839.504	2.5
840.245	1.5
840.985	3.5
841.726	4.5
842.466	5.5
843.206	2.5
843.946	4.5
844.687	2.5
845.427	6.5
846.166	6.5
846.906	1.5
847.646	6.5
848.386	4.5
849.125	2.5
849.865	3.5
850.605	3.5
851.344	4.5
852.083	3.5
852.823	3.5
853.562	4.5
854.301	4.5
855.04	2.5
855.779	2.5
856.518	1.5
857.257	1.5
857.995	5.5
858.734	1.5
859.473	1.5
860.211	0.5
860.95	4.5
861.688	2.5
862.426	3.5
863.165	2.5
863.903	2.5
864.641	2.5
865.379	2.5
866.117	2.5
866.855	2.5
867.593	0.5
868.33	2.5
869.068	2.5
869.806	2.5
870.543	1.5
871.28	0.5
872.018	2.5
872.755	2.5
873.492	3.5
874.229	1.5
874.967	0.5
875.703	2.5
876.44	-0.5
877.177	2.5
877.914	1.5
878.651	0.5
879.387	0.5
880.124	2.5
880.86	2.5
881.597	2.5
882.333	2.5
883.069	0.5
883.806	0.5
884.542	-0.5
885.278	1.5
886.014	3.5
886.749	0.5
887.485	0.5
888.221	1.5
888.957	-0.5
889.692	0.5
890.428	-0.5
891.163	0.5
891.899	0.5
892.634	0.5
893.369	-0.5
894.104	-1.5
894.839	1.5
895.574	1.5
896.309	0.5
897.044	1.5
897.779	2.5
898.514	0.5
899.248	-1.5
899.983	0.5
900.717	-0.5
901.452	0.5
902.186	0.5
902.92	2.5
903.654	1.5
904.389	-1.5
905.123	0.5
905.857	1.5
906.59	1.5
907.324	2.5
908.058	0.5
908.792	-0.5
909.525	4.5
910.259	0.5
910.992	-1.5
911.726	0.5
912.459	0.5
913.192	0.5
913.925	0.5
914.658	1.5
915.391	-0.5
916.124	-0.5
916.857	1.5
917.59	-0.5
918.323	0.5
919.055	0.5
919.788	-0.5
920.521	-0.5
921.253	2.5
921.985	1.5
922.718	2.5
923.45	1.5
924.182	1.5
924.914	-0.5
925.646	2.5
926.378	-1.5
927.11	1.5
927.841	0.5
928.573	1.5
929.305	1.5
930.036	1.5
930.768	-0.5
931.499	0.5
932.23	0.5
932.962	1.5
933.693	-0.5
934.424	-0.5
935.155	2.5
935.886	-0.5
936.617	-1.5
937.348	2.5
938.078	1.5
938.809	0.5
939.54	0.5
940.27	2.5
941.001	-0.5
941.731	0.5
942.461	1.5
943.191	0.5
943.922	1.5
944.652	1.5
945.382	-0.5
946.112	0.5
946.841	0.5
947.571	1.5
948.301	0.5
949.031	0.5
949.76	-1.5
950.49	-0.5
951.219	2.5
951.948	0.5
952.678	2.5
953.407	1.5
954.136	2.5
954.865	1.5
955.594	-1.5
956.323	-0.5
957.052	-0.5
957.78	0.5
958.509	0.5
959.238	0.5
959.966	1.5
960.695	0.5
961.423	1.5
962.151	0.5
962.88	-1.5
963.608	0.5
964.336	-0.5
965.064	0.5
965.792	-1.5
966.52	0.5
967.247	0.5
967.975	0.5
968.703	0.5
969.43	0.5
970.158	-1.5
970.885	1.5
971.613	1.5
972.34	0.5
973.067	0.5
973.794	0.5
974.521	-2.5
975.248	1.5
975.975	-1.5
976.702	1.5
977.429	0.5
978.156	-1.5
978.882	0.5
979.609	0.5
980.335	-1.5
981.062	0.5
981.788	1.5
982.514	2.5
983.24	1.5
983.967	1.5
984.693	-0.5
985.419	0.5
986.144	0.5
986.87	0.5
987.596	-0.5
988.322	-0.5
989.047	1.5
989.773	0.5
990.498	-0.5
991.224	0.5
991.949	0.5
992.674	0.5
993.399	1.5
994.124	1.5
994.849	0.5
995.574	0.5
996.299	2.5
997.024	-0.5
997.749	0.5
998.473	-0.5
999.198	-0.5
999.922	1.5
1000.647	0.5
1001.371	4.5
1002.095	-1.5
1002.82	-0.5
1003.544	-0.5
1004.268	0.5
1004.992	2.5
1005.716	3.5
1006.439	3.5
1007.163	6.5
1007.887	3.5
1008.611	1.5
1009.334	-0.5
1010.058	0.5
1010.781	0.5
1011.504	0.5
1012.228	2.5
1012.951	-1.5
1013.674	-0.5
1014.397	0.5
1015.12	-0.5
