节点500_425_QEPB04081__541__15-57-18-529.txt的数据

Date: Wed Nov 12 15:57:18 CST 2025
User: PC
Spectrometer: QEPB0408
触发模式: 0
积分时间 (秒): 1.000000E-2
Scans to average: 1
启用暗噪声校正: true
启用非线性校正: false
滑动平均宽度: 0
X轴模式: Wavelengths
Number of Pixels in Spectrum: 1044
>>>>>Begin Spectral Data<<<<<
220.843	1.75
221.644	2.75
222.444	2.75
223.244	3.75
224.045	4.75
224.845	2.75
225.645	4.75
226.445	4.75
227.245	4.75
228.045	3.75
228.845	6.75
229.645	5.75
230.444	4.75
231.244	5.75
232.043	4.75
232.843	5.75
233.642	8.75
234.442	4.75
235.241	4.75
236.04	6.75
236.839	7.75
237.638	5.75
238.437	3.75
239.236	7.75
240.035	8.75
240.833	6.75
241.632	6.75
242.43	6.75
243.229	7.75
244.027	7.75
244.826	8.75
245.624	8.75
246.422	7.75
247.22	8.75
248.018	7.75
248.816	8.75
249.614	10.75
250.412	9.75
251.21	7.75
252.007	9.75
252.805	8.75
253.602	8.75
254.4	10.75
255.197	13.75
255.994	8.75
256.791	12.75
257.589	12.75
258.386	12.75
259.183	12.75
259.979	12.75
260.776	13.75
261.573	14.75
262.37	14.75
263.166	13.75
263.963	13.75
264.759	14.75
265.556	14.75
266.352	19.75
267.148	16.75
267.944	17.75
268.74	16.75
269.536	15.75
270.332	19.75
271.128	17.75
271.924	20.75
272.719	16.75
273.515	20.75
274.311	21.75
275.106	20.75
275.901	20.75
276.697	19.75
277.492	20.75
278.287	21.75
279.082	21.75
279.877	23.75
280.672	22.75
281.467	25.75
282.262	24.75
283.056	24.75
283.851	21.75
284.646	23.75
285.44	22.75
286.234	22.75
287.029	23.75
287.823	23.75
288.617	23.75
289.411	23.75
290.205	23.75
290.999	24.75
291.793	24.75
292.587	21.75
293.381	21.75
294.174	20.75
294.968	23.75
295.761	22.75
296.555	19.75
297.348	21.75
298.141	16.75
298.935	21.75
299.728	20.75
300.521	19.75
301.314	18.75
302.107	19.75
302.899	16.75
303.692	16.75
304.485	16.75
305.277	16.75
306.07	17.75
306.862	13.75
307.655	13.75
308.447	15.75
309.239	12.75
310.031	15.75
310.823	14.75
311.615	13.75
312.407	11.75
313.199	11.75
313.991	10.75
314.783	12.75
315.574	11.75
316.366	12.75
317.157	11.75
317.949	13.75
318.74	9.75
319.531	12.75
320.322	9.75
321.113	10.75
321.904	9.75
322.695	8.75
323.486	9.75
324.277	11.75
325.068	10.75
325.858	10.75
326.649	9.75
327.439	9.75
328.23	7.75
329.02	9.75
329.81	9.75
330.6	8.75
331.391	9.75
332.181	5.75
332.971	8.75
333.76	8.75
334.55	8.75
335.34	8.75
336.13	7.75
336.919	9.75
337.709	6.75
338.498	7.75
339.287	9.75
340.077	8.75
340.866	6.75
341.655	8.75
342.444	7.75
343.233	9.75
344.022	6.75
344.811	6.75
345.6	7.75
346.388	8.75
347.177	7.75
347.965	8.75
348.754	6.75
349.542	8.75
350.33	7.75
351.119	9.75
351.907	7.75
352.695	5.75
353.483	7.75
354.271	7.75
355.059	6.75
355.846	7.75
356.634	5.75
357.422	8.75
358.209	5.75
358.997	6.75
359.784	8.75
360.571	7.75
361.359	4.75
362.146	7.75
362.933	7.75
363.72	5.75
364.507	4.75
365.294	8.75
366.081	4.75
366.867	5.75
367.654	7.75
368.44	6.75
369.227	6.75
370.013	5.75
370.8	7.75
371.586	6.75
372.372	8.75
373.158	3.75
373.944	6.75
374.73	5.75
375.516	8.75
376.302	6.75
377.088	7.75
377.873	8.75
378.659	7.75
379.445	5.75
380.23	4.75
381.015	8.75
381.801	5.75
382.586	7.75
383.371	6.75
384.156	9.75
384.941	7.75
385.726	5.75
386.511	5.75
387.296	5.75
388.08	7.75
388.865	6.75
389.649	9.75
390.434	5.75
391.218	8.75
392.003	7.75
392.787	10.75
393.571	6.75
394.355	6.75
395.139	7.75
395.923	6.75
396.707	7.75
397.491	7.75
398.274	9.75
399.058	9.75
399.842	9.75
400.625	10.75
401.408	10.75
402.192	8.75
402.975	9.75
403.758	7.75
404.541	9.75
405.324	8.75
406.107	10.75
406.89	14.75
407.673	10.75
408.456	10.75
409.238	12.75
410.021	10.75
410.803	11.75
411.586	10.75
412.368	11.75
413.151	10.75
413.933	12.75
414.715	11.75
415.497	9.75
416.279	10.75
417.061	12.75
417.843	12.75
418.624	13.75
419.406	14.75
420.188	12.75
420.969	14.75
421.751	12.75
422.532	14.75
423.313	17.75
424.095	14.75
424.876	14.75
425.657	16.75
426.438	15.75
427.219	15.75
428	16.75
428.78	18.75
429.561	19.75
430.342	21.75
431.122	21.75
431.903	20.75
432.683	21.75
433.464	22.75
434.244	23.75
435.024	26.75
435.804	26.75
436.584	24.75
437.364	26.75
438.144	30.75
438.924	30.75
439.704	33.75
440.483	32.75
441.263	33.75
442.042	40.75
442.822	38.75
443.601	44.75
444.38	48.75
445.16	49.75
445.939	57.75
446.718	57.75
447.497	66.75
448.276	72.75
449.054	75.75
449.833	86.75
450.612	91.75
451.391	100.75
452.169	113.75
452.948	126.75
453.726	138.75
454.504	145.75
455.282	165.75
456.061	182.75
456.839	202.75
457.617	226.75
458.395	252.75
459.172	286.75
459.95	311.75
460.728	347.75
461.506	389.75
462.283	431.75
463.061	481.75
463.838	529.75
464.615	588.75
465.393	659.75
466.17	720.75
466.947	797.75
467.724	901.75
468.501	985.75
469.278	1107.75
470.055	1213.75
470.831	1331.75
471.608	1476.75
472.385	1627.75
473.161	1781.75
473.938	1975.75
474.714	2162.75
475.49	2372.75
476.266	2611.75
477.043	2852.75
477.819	3117.75
478.595	3424.75
479.371	3732.75
480.146	4021.75
480.922	4443.75
481.698	4845.75
482.473	5285.75
483.249	5749.75
484.024	6264.75
484.8	6843.75
485.575	7401.75
486.35	8012.75
487.126	8705.75
487.901	9440.75
488.676	10230.75
489.451	11061.75
490.225	11949.75
491	12884.75
491.775	13929.75
492.55	14997.75
493.324	16104.75
494.099	17147.75
494.873	18324.75
495.647	19560.75
496.422	20844.75
497.196	22072.75
497.97	23459.75
498.744	24635.75
499.518	25918.75
500.292	27079.75
501.066	28117.75
501.839	29312.75
502.613	30314.75
503.387	31032.75
504.16	31790.75
504.934	32243.75
505.707	32580.75
506.48	32677.75
507.253	32695.75
508.027	32634.75
508.8	32348.75
509.573	31880.75
510.346	31369.75
511.118	30679.75
511.891	29898.75
512.664	28999.75
513.437	28001.75
514.209	27037.75
514.982	26222.75
515.754	25224.75
516.526	24275.75
517.298	23305.75
518.071	22313.75
518.843	21453.75
519.615	20572.75
520.387	19754.75
521.159	18978.75
521.93	18289.75
522.702	17574.75
523.474	16912.75
524.245	16190.75
525.017	15533.75
525.788	14822.75
526.56	14200.75
527.331	13572.75
528.102	12990.75
528.873	12356.75
529.644	11816.75
530.415	11317.75
531.186	10811.75
531.957	10287.75
532.728	9777.75
533.498	9248.75
534.269	8743.75
535.039	8316.75
535.81	7818.75
536.58	7475.75
537.351	6978.75
538.121	6604.75
538.891	6257.75
539.661	5950.75
540.431	5639.75
541.201	5358.75
541.971	5028.75
542.741	4791.75
543.51	4543.75
544.28	4341.75
545.05	4111.75
545.819	3946.75
546.588	3740.75
547.358	3542.75
548.127	3339.75
548.896	3177.75
549.665	3045.75
550.434	2892.75
551.203	2740.75
551.972	2614.75
552.741	2447.75
553.51	2345.75
554.278	2205.75
555.047	2064.75
555.815	1967.75
556.584	1876.75
557.352	1740.75
558.121	1640.75
558.889	1570.75
559.657	1476.75
560.425	1396.75
561.193	1320.75
561.961	1251.75
562.729	1175.75
563.496	1120.75
564.264	1049.75
565.032	1005.75
565.799	948.75
566.567	903.75
567.334	839.75
568.101	795.75
568.869	770.75
569.636	707.75
570.403	669.75
571.17	621.75
571.937	601.75
572.704	568.75
573.471	536.75
574.237	496.75
575.004	467.75
575.771	451.75
576.537	410.75
577.303	396.75
578.07	366.75
578.836	342.75
579.602	333.75
580.368	315.75
581.134	302.75
581.9	285.75
582.666	264.75
583.432	253.75
584.198	238.75
584.964	231.75
585.729	217.75
586.495	204.75
587.26	193.75
588.025	187.75
588.791	178.75
589.556	166.75
590.321	155.75
591.086	150.75
591.851	150.75
592.616	138.75
593.381	122.75
594.146	122.75
594.911	119.75
595.675	110.75
596.44	109.75
597.204	101.75
597.969	102.75
598.733	93.75
599.497	89.75
600.261	84.75
601.025	80.75
601.79	76.75
602.553	72.75
603.317	73.75
604.081	70.75
604.845	63.75
605.609	62.75
606.372	61.75
607.136	58.75
607.899	54.75
608.662	52.75
609.426	50.75
610.189	50.75
610.952	48.75
611.715	44.75
612.478	42.75
613.241	44.75
614.004	39.75
614.767	41.75
615.529	37.75
616.292	37.75
617.055	33.75
617.817	34.75
618.579	32.75
619.342	33.75
620.104	32.75
620.866	29.75
621.628	29.75
622.39	29.75
623.152	27.75
623.914	25.75
624.676	22.75
625.438	25.75
626.199	20.75
626.961	21.75
627.722	22.75
628.484	21.75
629.245	19.75
630.006	23.75
630.768	20.75
631.529	16.75
632.29	19.75
633.051	17.75
633.812	18.75
634.573	17.75
635.333	17.75
636.094	16.75
636.855	14.75
637.615	16.75
638.376	13.75
639.136	15.75
639.896	11.75
640.657	14.75
641.417	11.75
642.177	12.75
642.937	10.75
643.697	13.75
644.457	10.75
645.216	11.75
645.976	10.75
646.736	8.75
647.495	12.75
648.255	10.75
649.014	11.75
649.774	9.75
650.533	10.75
651.292	9.75
652.051	8.75
652.81	11.75
653.569	9.75
654.328	7.75
655.087	12.75
655.846	7.75
656.604	11.75
657.363	9.75
658.121	7.75
658.88	6.75
659.638	7.75
660.397	9.75
661.155	5.75
661.913	7.75
662.671	8.75
663.429	5.75
664.187	4.75
664.945	5.75
665.703	8.75
666.46	8.75
667.218	4.75
667.976	4.75
668.733	6.75
669.49	7.75
670.248	6.75
671.005	6.75
671.762	7.75
672.519	6.75
673.276	6.75
674.033	3.75
674.79	8.75
675.547	7.75
676.304	5.75
677.06	4.75
677.817	8.75
678.574	5.75
679.33	6.75
680.086	5.75
680.843	5.75
681.599	7.75
682.355	4.75
683.111	4.75
683.867	6.75
684.623	5.75
685.379	5.75
686.135	7.75
686.89	6.75
687.646	6.75
688.402	5.75
689.157	5.75
689.912	6.75
690.668	7.75
691.423	4.75
692.178	3.75
692.933	6.75
693.688	5.75
694.443	3.75
695.198	6.75
695.953	5.75
696.708	4.75
697.462	5.75
698.217	6.75
698.972	6.75
699.726	6.75
700.48	5.75
701.235	5.75
701.989	6.75
702.743	4.75
703.497	6.75
704.251	6.75
705.005	5.75
705.759	6.75
706.513	5.75
707.266	5.75
708.02	7.75
708.774	4.75
709.527	5.75
710.28	3.75
711.034	6.75
711.787	3.75
712.54	5.75
713.293	6.75
714.046	5.75
714.799	4.75
715.552	5.75
716.305	7.75
717.058	5.75
717.81	5.75
718.563	4.75
719.315	2.75
720.068	5.75
720.82	6.75
721.573	4.75
722.325	6.75
723.077	5.75
723.829	7.75
724.581	4.75
725.333	5.75
726.085	5.75
726.836	4.75
727.588	7.75
728.34	5.75
729.091	5.75
729.843	5.75
730.594	3.75
731.346	4.75
732.097	7.75
732.848	6.75
733.599	6.75
734.35	7.75
735.101	6.75
735.852	7.75
736.603	4.75
737.354	3.75
738.104	5.75
738.855	8.75
739.605	6.75
740.356	6.75
741.106	5.75
741.856	6.75
742.607	6.75
743.357	5.75
744.107	4.75
744.857	5.75
745.607	7.75
746.357	7.75
747.106	9.75
747.856	6.75
748.606	7.75
749.355	7.75
750.105	4.75
750.854	8.75
751.603	8.75
752.353	7.75
753.102	4.75
753.851	9.75
754.6	4.75
755.349	8.75
756.098	7.75
756.847	6.75
757.595	7.75
758.344	4.75
759.093	8.75
759.841	6.75
760.589	6.75
761.338	7.75
762.086	10.75
762.834	8.75
763.582	8.75
764.331	8.75
765.079	10.75
765.826	9.75
766.574	10.75
767.322	9.75
768.07	8.75
768.817	7.75
769.565	8.75
770.312	9.75
771.06	7.75
771.807	12.75
772.554	9.75
773.302	9.75
774.049	7.75
774.796	10.75
775.543	12.75
776.29	9.75
777.036	7.75
777.783	11.75
778.53	10.75
779.276	10.75
780.023	10.75
780.769	9.75
781.516	10.75
782.262	7.75
783.008	10.75
783.754	8.75
784.5	11.75
785.246	10.75
785.992	12.75
786.738	11.75
787.484	10.75
788.23	9.75
788.975	10.75
789.721	9.75
790.466	9.75
791.212	11.75
791.957	11.75
792.702	10.75
793.447	9.75
794.193	9.75
794.938	13.75
795.683	10.75
796.427	10.75
797.172	10.75
797.917	10.75
798.662	10.75
799.406	9.75
800.151	10.75
800.895	6.75
801.64	9.75
802.384	10.75
803.128	11.75
803.872	8.75
804.616	8.75
805.36	7.75
806.104	7.75
806.848	7.75
807.592	8.75
808.336	7.75
809.079	7.75
809.823	5.75
810.566	7.75
811.31	8.75
812.053	8.75
812.796	6.75
813.539	7.75
814.283	7.75
815.026	4.75
815.769	6.75
816.511	8.75
817.254	4.75
817.997	6.75
818.74	6.75
819.482	6.75
820.225	7.75
820.967	4.75
821.71	3.75
822.452	2.75
823.194	4.75
823.936	6.75
824.678	5.75
825.42	6.75
826.162	5.75
826.904	3.75
827.646	3.75
828.388	4.75
829.129	4.75
829.871	5.75
830.612	6.75
831.354	6.75
832.095	5.75
832.836	5.75
833.577	2.75
834.319	6.75
835.06	4.75
835.801	5.75
836.542	4.75
837.282	6.75
838.023	2.75
838.764	5.75
839.504	2.75
840.245	3.75
840.985	4.75
841.726	4.75
842.466	3.75
843.206	3.75
843.946	4.75
844.687	6.75
845.427	5.75
846.166	3.75
846.906	3.75
847.646	3.75
848.386	5.75
849.125	4.75
849.865	6.75
850.605	4.75
851.344	6.75
852.083	3.75
852.823	4.75
853.562	5.75
854.301	2.75
855.04	2.75
855.779	4.75
856.518	1.75
857.257	2.75
857.995	2.75
858.734	3.75
859.473	2.75
860.211	1.75
860.95	4.75
861.688	4.75
862.426	4.75
863.165	2.75
863.903	5.75
864.641	2.75
865.379	1.75
866.117	2.75
866.855	0.75
867.593	3.75
868.33	1.75
869.068	2.75
869.806	2.75
870.543	2.75
871.28	2.75
872.018	4.75
872.755	2.75
873.492	4.75
874.229	-0.25
874.967	1.75
875.703	2.75
876.44	0.75
877.177	2.75
877.914	1.75
878.651	2.75
879.387	1.75
880.124	1.75
880.86	1.75
881.597	2.75
882.333	1.75
883.069	1.75
883.806	2.75
884.542	0.75
885.278	2.75
886.014	-1.25
886.749	0.75
887.485	1.75
888.221	0.75
888.957	0.75
889.692	-0.25
890.428	2.75
891.163	1.75
891.899	2.75
892.634	0.75
893.369	0.75
894.104	0.75
894.839	1.75
895.574	-1.25
896.309	3.75
897.044	1.75
897.779	1.75
898.514	1.75
899.248	2.75
899.983	1.75
900.717	0.75
901.452	2.75
902.186	-0.25
902.92	1.75
903.654	1.75
904.389	0.75
905.123	-0.25
905.857	1.75
906.59	0.75
907.324	2.75
908.058	2.75
908.792	1.75
909.525	1.75
910.259	2.75
910.992	0.75
911.726	0.75
912.459	1.75
913.192	0.75
913.925	2.75
914.658	-1.25
915.391	0.75
916.124	1.75
916.857	-0.25
917.59	-0.25
918.323	0.75
919.055	1.75
919.788	-1.25
920.521	1.75
921.253	1.75
921.985	-0.25
922.718	0.75
923.45	0.75
924.182	-0.25
924.914	0.75
925.646	0.75
926.378	1.75
927.11	-0.25
927.841	3.75
928.573	-0.25
929.305	-0.25
930.036	1.75
930.768	-0.25
931.499	0.75
932.23	-1.25
932.962	2.75
933.693	1.75
934.424	1.75
935.155	0.75
935.886	2.75
936.617	1.75
937.348	1.75
938.078	-1.25
938.809	0.75
939.54	-0.25
940.27	1.75
941.001	-0.25
941.731	0.75
942.461	-0.25
943.191	-0.25
943.922	0.75
944.652	2.75
945.382	-1.25
946.112	-0.25
946.841	0.75
947.571	0.75
948.301	-1.25
949.031	-1.25
949.76	-0.25
950.49	0.75
951.219	0.75
951.948	1.75
952.678	-0.25
953.407	-0.25
954.136	2.75
954.865	1.75
955.594	0.75
956.323	-0.25
957.052	-0.25
957.78	2.75
958.509	-1.25
959.238	2.75
959.966	-0.25
960.695	-0.25
961.423	-0.25
962.151	0.75
962.88	-0.25
963.608	2.75
964.336	0.75
965.064	0.75
965.792	0.75
966.52	-0.25
967.247	0.75
967.975	-0.25
968.703	1.75
969.43	-0.25
970.158	1.75
970.885	0.75
971.613	-0.25
972.34	0.75
973.067	0.75
973.794	0.75
974.521	0.75
975.248	1.75
975.975	0.75
976.702	-2.25
977.429	-1.25
978.156	-0.25
978.882	-1.25
979.609	-0.25
980.335	2.75
981.062	0.75
981.788	0.75
982.514	-0.25
983.24	-0.25
983.967	2.75
984.693	0.75
985.419	0.75
986.144	-1.25
986.87	0.75
987.596	-0.25
988.322	0.75
989.047	1.75
989.773	0.75
990.498	1.75
991.224	1.75
991.949	-1.25
992.674	0.75
993.399	2.75
994.124	0.75
994.849	3.75
995.574	0.75
996.299	0.75
997.024	-0.25
997.749	1.75
998.473	4.75
999.198	-1.25
999.922	0.75
1000.647	-0.25
1001.371	2.75
1002.095	-0.25
1002.82	-0.25
1003.544	-1.25
1004.268	4.75
1004.992	2.75
1005.716	3.75
1006.439	1.75
1007.163	3.75
1007.887	2.75
1008.611	1.75
1009.334	2.75
1010.058	0.75
1010.781	0.75
1011.504	0.75
1012.228	1.75
1012.951	-0.25
1013.674	-0.25
1014.397	0.75
1015.12	-1.25
