节点500_425_QEPB04081__163__15-51-01-194.txt的数据

Date: Wed Nov 12 15:51:01 CST 2025
User: PC
Spectrometer: QEPB0408
触发模式: 0
积分时间 (秒): 1.000000E-2
Scans to average: 1
启用暗噪声校正: true
启用非线性校正: false
滑动平均宽度: 0
X轴模式: Wavelengths
Number of Pixels in Spectrum: 1044
>>>>>Begin Spectral Data<<<<<
220.843	1.62
221.644	3.62
222.444	5.62
223.244	4.62
224.045	3.62
224.845	5.62
225.645	4.62
226.445	3.62
227.245	2.62
228.045	4.62
228.845	6.62
229.645	2.62
230.444	6.62
231.244	3.62
232.043	6.62
232.843	5.62
233.642	7.62
234.442	4.62
235.241	9.62
236.04	4.62
236.839	8.62
237.638	6.62
238.437	9.62
239.236	6.62
240.035	7.62
240.833	8.62
241.632	9.62
242.43	8.62
243.229	8.62
244.027	6.62
244.826	5.62
245.624	8.62
246.422	10.62
247.22	9.62
248.018	11.62
248.816	7.62
249.614	8.62
250.412	10.62
251.21	12.62
252.007	11.62
252.805	10.62
253.602	12.62
254.4	9.62
255.197	14.62
255.994	14.62
256.791	13.62
257.589	13.62
258.386	12.62
259.183	14.62
259.979	10.62
260.776	15.62
261.573	13.62
262.37	17.62
263.166	15.62
263.963	18.62
264.759	17.62
265.556	20.62
266.352	21.62
267.148	20.62
267.944	16.62
268.74	18.62
269.536	21.62
270.332	23.62
271.128	20.62
271.924	24.62
272.719	26.62
273.515	24.62
274.311	25.62
275.106	24.62
275.901	25.62
276.697	24.62
277.492	23.62
278.287	26.62
279.082	24.62
279.877	27.62
280.672	25.62
281.467	24.62
282.262	26.62
283.056	26.62
283.851	26.62
284.646	24.62
285.44	25.62
286.234	24.62
287.029	24.62
287.823	25.62
288.617	24.62
289.411	24.62
290.205	24.62
290.999	26.62
291.793	25.62
292.587	25.62
293.381	26.62
294.174	24.62
294.968	25.62
295.761	20.62
296.555	21.62
297.348	18.62
298.141	19.62
298.935	22.62
299.728	19.62
300.521	21.62
301.314	18.62
302.107	16.62
302.899	16.62
303.692	18.62
304.485	15.62
305.277	17.62
306.07	16.62
306.862	17.62
307.655	16.62
308.447	17.62
309.239	14.62
310.031	17.62
310.823	11.62
311.615	14.62
312.407	11.62
313.199	14.62
313.991	12.62
314.783	10.62
315.574	11.62
316.366	10.62
317.157	10.62
317.949	11.62
318.74	11.62
319.531	9.62
320.322	10.62
321.113	12.62
321.904	10.62
322.695	10.62
323.486	12.62
324.277	10.62
325.068	11.62
325.858	10.62
326.649	8.62
327.439	9.62
328.23	9.62
329.02	8.62
329.81	8.62
330.6	7.62
331.391	8.62
332.181	9.62
332.971	6.62
333.76	10.62
334.55	9.62
335.34	8.62
336.13	10.62
336.919	9.62
337.709	9.62
338.498	8.62
339.287	9.62
340.077	7.62
340.866	8.62
341.655	6.62
342.444	7.62
343.233	8.62
344.022	11.62
344.811	9.62
345.6	7.62
346.388	8.62
347.177	10.62
347.965	9.62
348.754	8.62
349.542	10.62
350.33	7.62
351.119	9.62
351.907	10.62
352.695	6.62
353.483	10.62
354.271	8.62
355.059	6.62
355.846	10.62
356.634	7.62
357.422	7.62
358.209	10.62
358.997	7.62
359.784	8.62
360.571	8.62
361.359	8.62
362.146	6.62
362.933	8.62
363.72	7.62
364.507	6.62
365.294	6.62
366.081	8.62
366.867	5.62
367.654	7.62
368.44	6.62
369.227	6.62
370.013	6.62
370.8	7.62
371.586	9.62
372.372	6.62
373.158	8.62
373.944	6.62
374.73	10.62
375.516	8.62
376.302	7.62
377.088	7.62
377.873	7.62
378.659	7.62
379.445	7.62
380.23	7.62
381.015	7.62
381.801	7.62
382.586	7.62
383.371	5.62
384.156	8.62
384.941	7.62
385.726	6.62
386.511	8.62
387.296	7.62
388.08	6.62
388.865	6.62
389.649	10.62
390.434	8.62
391.218	12.62
392.003	7.62
392.787	9.62
393.571	8.62
394.355	8.62
395.139	8.62
395.923	9.62
396.707	10.62
397.491	11.62
398.274	8.62
399.058	11.62
399.842	11.62
400.625	10.62
401.408	9.62
402.192	8.62
402.975	11.62
403.758	8.62
404.541	8.62
405.324	12.62
406.107	12.62
406.89	10.62
407.673	11.62
408.456	8.62
409.238	9.62
410.021	11.62
410.803	12.62
411.586	12.62
412.368	12.62
413.151	11.62
413.933	12.62
414.715	14.62
415.497	11.62
416.279	9.62
417.061	12.62
417.843	12.62
418.624	13.62
419.406	16.62
420.188	15.62
420.969	15.62
421.751	18.62
422.532	14.62
423.313	16.62
424.095	15.62
424.876	14.62
425.657	16.62
426.438	16.62
427.219	18.62
428	15.62
428.78	22.62
429.561	18.62
430.342	19.62
431.122	24.62
431.903	21.62
432.683	22.62
433.464	23.62
434.244	23.62
435.024	24.62
435.804	24.62
436.584	26.62
437.364	24.62
438.144	28.62
438.924	31.62
439.704	29.62
440.483	35.62
441.263	33.62
442.042	36.62
442.822	40.62
443.601	40.62
444.38	43.62
445.16	48.62
445.939	53.62
446.718	55.62
447.497	60.62
448.276	62.62
449.054	68.62
449.833	80.62
450.612	78.62
451.391	90.62
452.169	99.62
452.948	108.62
453.726	118.62
454.504	126.62
455.282	146.62
456.061	161.62
456.839	172.62
457.617	193.62
458.395	220.62
459.172	248.62
459.95	268.62
460.728	312.62
461.506	345.62
462.283	380.62
463.061	423.62
463.838	494.62
464.615	548.62
465.393	589.62
466.17	669.62
466.947	746.62
467.724	840.62
468.501	927.62
469.278	1030.62
470.055	1154.62
470.831	1269.62
471.608	1405.62
472.385	1580.62
473.161	1750.62
473.938	1934.62
474.714	2147.62
475.49	2380.62
476.266	2626.62
477.043	2883.62
477.819	3202.62
478.595	3541.62
479.371	3907.62
480.146	4279.62
480.922	4719.62
481.698	5178.62
482.473	5724.62
483.249	6258.62
484.024	6888.62
484.8	7565.62
485.575	8273.62
486.35	9085.62
487.126	9900.62
487.901	10861.62
488.676	11810.62
489.451	12882.62
490.225	13998.62
491	15201.62
491.775	16495.62
492.55	17839.62
493.324	19221.62
494.099	20671.62
494.873	22097.62
495.647	23607.62
496.422	25033.62
497.196	26606.62
497.97	28235.62
498.744	29693.62
499.518	30943.62
500.292	32234.62
501.066	33344.62
501.839	34460.62
502.613	35320.62
503.387	35941.62
504.16	36348.62
504.934	36516.62
505.707	36500.62
506.48	36285.62
507.253	35814.62
508.027	35351.62
508.8	34663.62
509.573	33786.62
510.346	32822.62
511.118	31844.62
511.891	30717.62
512.664	29617.62
513.437	28244.62
514.209	27149.62
514.982	26056.62
515.754	24991.62
516.526	23865.62
517.298	22865.62
518.071	21877.62
518.843	20976.62
519.615	20092.62
520.387	19288.62
521.159	18583.62
521.93	17860.62
522.702	17152.62
523.474	16460.62
524.245	15801.62
525.017	15070.62
525.788	14307.62
526.56	13690.62
527.331	13047.62
528.102	12459.62
528.873	11827.62
529.644	11225.62
530.415	10694.62
531.186	10172.62
531.957	9659.62
532.728	9122.62
533.498	8629.62
534.269	8148.62
535.039	7698.62
535.81	7265.62
536.58	6841.62
537.351	6425.62
538.121	6080.62
538.891	5777.62
539.661	5481.62
540.431	5209.62
541.201	4947.62
541.971	4677.62
542.741	4421.62
543.51	4195.62
544.28	3995.62
545.05	3798.62
545.819	3609.62
546.588	3439.62
547.358	3219.62
548.127	3071.62
548.896	2911.62
549.665	2778.62
550.434	2637.62
551.203	2494.62
551.972	2336.62
552.741	2222.62
553.51	2126.62
554.278	1994.62
555.047	1872.62
555.815	1758.62
556.584	1664.62
557.352	1586.62
558.121	1476.62
558.889	1412.62
559.657	1328.62
560.425	1239.62
561.193	1188.62
561.961	1131.62
562.729	1057.62
563.496	989.62
564.264	949.62
565.032	888.62
565.799	840.62
566.567	807.62
567.334	757.62
568.101	727.62
568.869	675.62
569.636	638.62
570.403	595.62
571.17	567.62
571.937	536.62
572.704	507.62
573.471	482.62
574.237	448.62
575.004	417.62
575.771	401.62
576.537	370.62
577.303	343.62
578.07	332.62
578.836	319.62
579.602	298.62
580.368	282.62
581.134	264.62
581.9	250.62
582.666	237.62
583.432	223.62
584.198	213.62
584.964	206.62
585.729	194.62
586.495	188.62
587.26	171.62
588.025	163.62
588.791	162.62
589.556	148.62
590.321	145.62
591.086	134.62
591.851	124.62
592.616	120.62
593.381	112.62
594.146	107.62
594.911	102.62
595.675	102.62
596.44	96.62
597.204	97.62
597.969	87.62
598.733	82.62
599.497	80.62
600.261	80.62
601.025	72.62
601.79	67.62
602.553	66.62
603.317	64.62
604.081	59.62
604.845	58.62
605.609	59.62
606.372	57.62
607.136	53.62
607.899	49.62
608.662	49.62
609.426	45.62
610.189	48.62
610.952	41.62
611.715	43.62
612.478	39.62
613.241	37.62
614.004	36.62
614.767	36.62
615.529	34.62
616.292	31.62
617.055	35.62
617.817	30.62
618.579	30.62
619.342	30.62
620.104	26.62
620.866	26.62
621.628	28.62
622.39	23.62
623.152	23.62
623.914	24.62
624.676	21.62
625.438	23.62
626.199	22.62
626.961	21.62
627.722	20.62
628.484	19.62
629.245	19.62
630.006	19.62
630.768	19.62
631.529	16.62
632.29	17.62
633.051	17.62
633.812	17.62
634.573	17.62
635.333	12.62
636.094	16.62
636.855	16.62
637.615	16.62
638.376	12.62
639.136	14.62
639.896	12.62
640.657	13.62
641.417	14.62
642.177	13.62
642.937	11.62
643.697	11.62
644.457	12.62
645.216	12.62
645.976	14.62
646.736	10.62
647.495	11.62
648.255	10.62
649.014	9.62
649.774	10.62
650.533	10.62
651.292	8.62
652.051	9.62
652.81	9.62
653.569	9.62
654.328	10.62
655.087	10.62
655.846	8.62
656.604	7.62
657.363	7.62
658.121	9.62
658.88	7.62
659.638	9.62
660.397	10.62
661.155	6.62
661.913	9.62
662.671	5.62
663.429	9.62
664.187	6.62
664.945	7.62
665.703	5.62
666.46	5.62
667.218	9.62
667.976	5.62
668.733	7.62
669.49	7.62
670.248	5.62
671.005	7.62
671.762	3.62
672.519	8.62
673.276	5.62
674.033	7.62
674.79	7.62
675.547	4.62
676.304	8.62
677.06	6.62
677.817	6.62
678.574	6.62
679.33	7.62
680.086	3.62
680.843	5.62
681.599	8.62
682.355	5.62
683.111	5.62
683.867	6.62
684.623	5.62
685.379	4.62
686.135	5.62
686.89	4.62
687.646	8.62
688.402	5.62
689.157	5.62
689.912	3.62
690.668	7.62
691.423	6.62
692.178	4.62
692.933	4.62
693.688	4.62
694.443	6.62
695.198	4.62
695.953	6.62
696.708	5.62
697.462	5.62
698.217	7.62
698.972	4.62
699.726	6.62
700.48	6.62
701.235	7.62
701.989	7.62
702.743	4.62
703.497	5.62
704.251	5.62
705.005	4.62
705.759	3.62
706.513	4.62
707.266	4.62
708.02	4.62
708.774	5.62
709.527	6.62
710.28	5.62
711.034	3.62
711.787	3.62
712.54	4.62
713.293	4.62
714.046	7.62
714.799	5.62
715.552	4.62
716.305	4.62
717.058	6.62
717.81	3.62
718.563	4.62
719.315	5.62
720.068	3.62
720.82	6.62
721.573	5.62
722.325	4.62
723.077	6.62
723.829	5.62
724.581	3.62
725.333	6.62
726.085	6.62
726.836	6.62
727.588	4.62
728.34	6.62
729.091	5.62
729.843	7.62
730.594	7.62
731.346	6.62
732.097	6.62
732.848	6.62
733.599	6.62
734.35	4.62
735.101	6.62
735.852	6.62
736.603	6.62
737.354	8.62
738.104	6.62
738.855	6.62
739.605	6.62
740.356	6.62
741.106	6.62
741.856	8.62
742.607	7.62
743.357	8.62
744.107	7.62
744.857	7.62
745.607	7.62
746.357	8.62
747.106	6.62
747.856	7.62
748.606	8.62
749.355	8.62
750.105	5.62
750.854	7.62
751.603	8.62
752.353	7.62
753.102	8.62
753.851	9.62
754.6	8.62
755.349	9.62
756.098	6.62
756.847	8.62
757.595	9.62
758.344	8.62
759.093	9.62
759.841	4.62
760.589	9.62
761.338	8.62
762.086	10.62
762.834	6.62
763.582	7.62
764.331	10.62
765.079	8.62
765.826	10.62
766.574	10.62
767.322	10.62
768.07	8.62
768.817	11.62
769.565	11.62
770.312	12.62
771.06	8.62
771.807	12.62
772.554	12.62
773.302	11.62
774.049	9.62
774.796	13.62
775.543	14.62
776.29	11.62
777.036	11.62
777.783	9.62
778.53	10.62
779.276	11.62
780.023	11.62
780.769	13.62
781.516	10.62
782.262	7.62
783.008	12.62
783.754	11.62
784.5	11.62
785.246	13.62
785.992	11.62
786.738	10.62
787.484	12.62
788.23	12.62
788.975	11.62
789.721	11.62
790.466	9.62
791.212	12.62
791.957	12.62
792.702	10.62
793.447	10.62
794.193	9.62
794.938	9.62
795.683	10.62
796.427	10.62
797.172	9.62
797.917	8.62
798.662	11.62
799.406	9.62
800.151	9.62
800.895	8.62
801.64	10.62
802.384	11.62
803.128	10.62
803.872	4.62
804.616	8.62
805.36	8.62
806.104	9.62
806.848	9.62
807.592	6.62
808.336	7.62
809.079	8.62
809.823	6.62
810.566	8.62
811.31	7.62
812.053	5.62
812.796	6.62
813.539	4.62
814.283	5.62
815.026	6.62
815.769	6.62
816.511	5.62
817.254	7.62
817.997	7.62
818.74	1.62
819.482	7.62
820.225	6.62
820.967	2.62
821.71	6.62
822.452	5.62
823.194	7.62
823.936	6.62
824.678	7.62
825.42	7.62
826.162	6.62
826.904	6.62
827.646	3.62
828.388	3.62
829.129	4.62
829.871	5.62
830.612	4.62
831.354	6.62
832.095	4.62
832.836	5.62
833.577	6.62
834.319	4.62
835.06	4.62
835.801	4.62
836.542	3.62
837.282	5.62
838.023	2.62
838.764	6.62
839.504	5.62
840.245	3.62
840.985	3.62
841.726	2.62
842.466	2.62
843.206	2.62
843.946	6.62
844.687	5.62
845.427	5.62
846.166	2.62
846.906	4.62
847.646	5.62
848.386	4.62
849.125	5.62
849.865	6.62
850.605	3.62
851.344	2.62
852.083	1.62
852.823	3.62
853.562	4.62
854.301	1.62
855.04	5.62
855.779	2.62
856.518	5.62
857.257	4.62
857.995	5.62
858.734	2.62
859.473	3.62
860.211	4.62
860.95	2.62
861.688	4.62
862.426	1.62
863.165	4.62
863.903	2.62
864.641	1.62
865.379	2.62
866.117	2.62
866.855	3.62
867.593	2.62
868.33	2.62
869.068	4.62
869.806	0.62
870.543	3.62
871.28	0.62
872.018	3.62
872.755	2.62
873.492	1.62
874.229	1.62
874.967	0.62
875.703	2.62
876.44	1.62
877.177	0.62
877.914	0.62
878.651	2.62
879.387	2.62
880.124	3.62
880.86	3.62
881.597	-0.38
882.333	1.62
883.069	2.62
883.806	-0.38
884.542	1.62
885.278	0.62
886.014	0.62
886.749	1.62
887.485	3.62
888.221	3.62
888.957	2.62
889.692	0.62
890.428	0.62
891.163	-2.38
891.899	3.62
892.634	2.62
893.369	1.62
894.104	2.62
894.839	1.62
895.574	1.62
896.309	2.62
897.044	2.62
897.779	-0.38
898.514	1.62
899.248	1.62
899.983	-1.38
900.717	0.62
901.452	-2.38
902.186	3.62
902.92	0.62
903.654	3.62
904.389	2.62
905.123	1.62
905.857	2.62
906.59	2.62
907.324	0.62
908.058	2.62
908.792	0.62
909.525	0.62
910.259	0.62
910.992	1.62
911.726	-0.38
912.459	-0.38
913.192	-1.38
913.925	0.62
914.658	3.62
915.391	3.62
916.124	0.62
916.857	-0.38
917.59	-0.38
918.323	-0.38
919.055	1.62
919.788	1.62
920.521	0.62
921.253	0.62
921.985	0.62
922.718	-0.38
923.45	3.62
924.182	0.62
924.914	0.62
925.646	0.62
926.378	-0.38
927.11	1.62
927.841	2.62
928.573	0.62
929.305	0.62
930.036	1.62
930.768	1.62
931.499	1.62
932.23	-0.38
932.962	-0.38
933.693	0.62
934.424	2.62
935.155	-1.38
935.886	1.62
936.617	0.62
937.348	0.62
938.078	0.62
938.809	-0.38
939.54	-1.38
940.27	-0.38
941.001	1.62
941.731	-0.38
942.461	0.62
943.191	2.62
943.922	1.62
944.652	0.62
945.382	0.62
946.112	0.62
946.841	0.62
947.571	-0.38
948.301	0.62
949.031	-1.38
949.76	2.62
950.49	-0.38
951.219	0.62
951.948	1.62
952.678	0.62
953.407	2.62
954.136	-2.38
954.865	-0.38
955.594	-0.38
956.323	1.62
957.052	1.62
957.78	2.62
958.509	0.62
959.238	0.62
959.966	0.62
960.695	3.62
961.423	-1.38
962.151	-0.38
962.88	-2.38
963.608	1.62
964.336	-1.38
965.064	0.62
965.792	-0.38
966.52	2.62
967.247	1.62
967.975	0.62
968.703	1.62
969.43	1.62
970.158	-0.38
970.885	-0.38
971.613	-0.38
972.34	0.62
973.067	0.62
973.794	1.62
974.521	0.62
975.248	-0.38
975.975	0.62
976.702	-0.38
977.429	0.62
978.156	1.62
978.882	1.62
979.609	1.62
980.335	0.62
981.062	0.62
981.788	-1.38
982.514	2.62
983.24	-2.38
983.967	2.62
984.693	0.62
985.419	2.62
986.144	1.62
986.87	-0.38
987.596	-1.38
988.322	-0.38
989.047	-2.38
989.773	0.62
990.498	1.62
991.224	-0.38
991.949	-1.38
992.674	-0.38
993.399	-0.38
994.124	-1.38
994.849	-0.38
995.574	0.62
996.299	2.62
997.024	0.62
997.749	0.62
998.473	-0.38
999.198	0.62
999.922	2.62
1000.647	1.62
1001.371	3.62
1002.095	-0.38
1002.82	-1.38
1003.544	-0.38
1004.268	3.62
1004.992	3.62
1005.716	4.62
1006.439	2.62
1007.163	0.62
1007.887	2.62
1008.611	-0.38
1009.334	1.62
1010.058	0.62
1010.781	0.62
1011.504	-1.38
1012.228	0.62
1012.951	-0.38
1013.674	-1.38
1014.397	0.62
1015.12	-0.38
