节点500_425_QEPB04081__320__15-53-37-840.txt的数据

Date: Wed Nov 12 15:53:37 CST 2025
User: PC
Spectrometer: QEPB0408
触发模式: 0
积分时间 (秒): 1.000000E-2
Scans to average: 1
启用暗噪声校正: true
启用非线性校正: false
滑动平均宽度: 0
X轴模式: Wavelengths
Number of Pixels in Spectrum: 1044
>>>>>Begin Spectral Data<<<<<
220.843	2.88
221.644	1.88
222.444	2.88
223.244	5.88
224.045	4.88
224.845	4.88
225.645	4.88
226.445	1.88
227.245	3.88
228.045	7.88
228.845	3.88
229.645	6.88
230.444	6.88
231.244	3.88
232.043	6.88
232.843	3.88
233.642	6.88
234.442	5.88
235.241	5.88
236.04	5.88
236.839	5.88
237.638	6.88
238.437	7.88
239.236	8.88
240.035	7.88
240.833	7.88
241.632	6.88
242.43	6.88
243.229	8.88
244.027	5.88
244.826	6.88
245.624	10.88
246.422	8.88
247.22	9.88
248.018	7.88
248.816	10.88
249.614	9.88
250.412	7.88
251.21	11.88
252.007	8.88
252.805	10.88
253.602	10.88
254.4	12.88
255.197	11.88
255.994	12.88
256.791	10.88
257.589	14.88
258.386	14.88
259.183	13.88
259.979	15.88
260.776	14.88
261.573	14.88
262.37	13.88
263.166	14.88
263.963	16.88
264.759	19.88
265.556	16.88
266.352	21.88
267.148	16.88
267.944	21.88
268.74	21.88
269.536	18.88
270.332	20.88
271.128	18.88
271.924	22.88
272.719	21.88
273.515	23.88
274.311	23.88
275.106	24.88
275.901	24.88
276.697	20.88
277.492	25.88
278.287	24.88
279.082	23.88
279.877	23.88
280.672	24.88
281.467	24.88
282.262	24.88
283.056	23.88
283.851	23.88
284.646	25.88
285.44	24.88
286.234	21.88
287.029	26.88
287.823	24.88
288.617	23.88
289.411	23.88
290.205	22.88
290.999	24.88
291.793	24.88
292.587	24.88
293.381	20.88
294.174	21.88
294.968	19.88
295.761	24.88
296.555	18.88
297.348	19.88
298.141	23.88
298.935	22.88
299.728	19.88
300.521	16.88
301.314	19.88
302.107	19.88
302.899	15.88
303.692	15.88
304.485	14.88
305.277	18.88
306.07	18.88
306.862	15.88
307.655	18.88
308.447	14.88
309.239	12.88
310.031	14.88
310.823	14.88
311.615	16.88
312.407	9.88
313.199	12.88
313.991	14.88
314.783	12.88
315.574	11.88
316.366	13.88
317.157	12.88
317.949	12.88
318.74	9.88
319.531	9.88
320.322	10.88
321.113	9.88
321.904	9.88
322.695	12.88
323.486	11.88
324.277	9.88
325.068	11.88
325.858	8.88
326.649	9.88
327.439	9.88
328.23	7.88
329.02	9.88
329.81	8.88
330.6	8.88
331.391	9.88
332.181	8.88
332.971	9.88
333.76	8.88
334.55	9.88
335.34	7.88
336.13	8.88
336.919	8.88
337.709	7.88
338.498	9.88
339.287	8.88
340.077	7.88
340.866	10.88
341.655	9.88
342.444	8.88
343.233	7.88
344.022	7.88
344.811	8.88
345.6	9.88
346.388	8.88
347.177	8.88
347.965	6.88
348.754	9.88
349.542	9.88
350.33	6.88
351.119	8.88
351.907	8.88
352.695	6.88
353.483	6.88
354.271	7.88
355.059	8.88
355.846	6.88
356.634	6.88
357.422	9.88
358.209	9.88
358.997	8.88
359.784	6.88
360.571	7.88
361.359	8.88
362.146	5.88
362.933	9.88
363.72	8.88
364.507	9.88
365.294	5.88
366.081	8.88
366.867	8.88
367.654	6.88
368.44	7.88
369.227	4.88
370.013	8.88
370.8	5.88
371.586	8.88
372.372	7.88
373.158	7.88
373.944	4.88
374.73	7.88
375.516	9.88
376.302	5.88
377.088	5.88
377.873	7.88
378.659	3.88
379.445	6.88
380.23	7.88
381.015	5.88
381.801	6.88
382.586	6.88
383.371	5.88
384.156	8.88
384.941	8.88
385.726	6.88
386.511	7.88
387.296	7.88
388.08	9.88
388.865	6.88
389.649	8.88
390.434	7.88
391.218	7.88
392.003	7.88
392.787	7.88
393.571	8.88
394.355	6.88
395.139	7.88
395.923	8.88
396.707	8.88
397.491	7.88
398.274	9.88
399.058	5.88
399.842	10.88
400.625	11.88
401.408	7.88
402.192	11.88
402.975	10.88
403.758	10.88
404.541	12.88
405.324	9.88
406.107	11.88
406.89	9.88
407.673	11.88
408.456	11.88
409.238	10.88
410.021	10.88
410.803	11.88
411.586	10.88
412.368	9.88
413.151	12.88
413.933	14.88
414.715	13.88
415.497	10.88
416.279	12.88
417.061	10.88
417.843	12.88
418.624	15.88
419.406	13.88
420.188	14.88
420.969	14.88
421.751	16.88
422.532	16.88
423.313	13.88
424.095	17.88
424.876	14.88
425.657	13.88
426.438	20.88
427.219	18.88
428	17.88
428.78	16.88
429.561	19.88
430.342	20.88
431.122	21.88
431.903	18.88
432.683	21.88
433.464	21.88
434.244	20.88
435.024	22.88
435.804	24.88
436.584	24.88
437.364	27.88
438.144	29.88
438.924	31.88
439.704	32.88
440.483	33.88
441.263	37.88
442.042	34.88
442.822	38.88
443.601	40.88
444.38	46.88
445.16	49.88
445.939	54.88
446.718	58.88
447.497	64.88
448.276	63.88
449.054	74.88
449.833	77.88
450.612	81.88
451.391	94.88
452.169	99.88
452.948	114.88
453.726	123.88
454.504	134.88
455.282	155.88
456.061	171.88
456.839	188.88
457.617	200.88
458.395	233.88
459.172	256.88
459.95	290.88
460.728	318.88
461.506	356.88
462.283	403.88
463.061	444.88
463.838	498.88
464.615	553.88
465.393	621.88
466.17	697.88
466.947	776.88
467.724	869.88
468.501	946.88
469.278	1057.88
470.055	1175.88
470.831	1306.88
471.608	1447.88
472.385	1599.88
473.161	1772.88
473.938	1936.88
474.714	2155.88
475.49	2368.88
476.266	2625.88
477.043	2868.88
477.819	3169.88
478.595	3493.88
479.371	3858.88
480.146	4200.88
480.922	4591.88
481.698	5047.88
482.473	5538.88
483.249	6062.88
484.024	6625.88
484.8	7297.88
485.575	7889.88
486.35	8654.88
487.126	9403.88
487.901	10279.88
488.676	11213.88
489.451	12175.88
490.225	13171.88
491	14256.88
491.775	15500.88
492.55	16735.88
493.324	18054.88
494.099	19318.88
494.873	20541.88
495.647	21982.88
496.422	23352.88
497.196	24814.88
497.97	26301.88
498.744	27705.88
499.518	29055.88
500.292	30334.88
501.066	31389.88
501.839	32494.88
502.613	33391.88
503.387	34136.88
504.16	34664.88
504.934	35035.88
505.707	35094.88
506.48	34966.88
507.253	34725.88
508.027	34415.88
508.8	33941.88
509.573	33182.88
510.346	32439.88
511.118	31431.88
511.891	30452.88
512.664	29367.88
513.437	28218.88
514.209	27162.88
514.982	26084.88
515.754	25085.88
516.526	23955.88
517.298	22953.88
518.071	21978.88
518.843	21103.88
519.615	20201.88
520.387	19453.88
521.159	18695.88
521.93	18037.88
522.702	17302.88
523.474	16585.88
524.245	15959.88
525.017	15229.88
525.788	14480.88
526.56	13878.88
527.331	13264.88
528.102	12653.88
528.873	12048.88
529.644	11471.88
530.415	10970.88
531.186	10377.88
531.957	9820.88
532.728	9363.88
533.498	8812.88
534.269	8346.88
535.039	7898.88
535.81	7474.88
536.58	7056.88
537.351	6661.88
538.121	6294.88
538.891	5950.88
539.661	5660.88
540.431	5340.88
541.201	5057.88
541.971	4785.88
542.741	4548.88
543.51	4322.88
544.28	4105.88
545.05	3919.88
545.819	3725.88
546.588	3534.88
547.358	3319.88
548.127	3192.88
548.896	3012.88
549.665	2854.88
550.434	2718.88
551.203	2585.88
551.972	2450.88
552.741	2304.88
553.51	2189.88
554.278	2075.88
555.047	1937.88
555.815	1840.88
556.584	1735.88
557.352	1622.88
558.121	1526.88
558.889	1468.88
559.657	1387.88
560.425	1298.88
561.193	1216.88
561.961	1156.88
562.729	1101.88
563.496	1029.88
564.264	980.88
565.032	935.88
565.799	879.88
566.567	833.88
567.334	777.88
568.101	744.88
568.869	707.88
569.636	660.88
570.403	629.88
571.17	593.88
571.937	559.88
572.704	526.88
573.471	496.88
574.237	469.88
575.004	443.88
575.771	416.88
576.537	387.88
577.303	359.88
578.07	350.88
578.836	330.88
579.602	306.88
580.368	290.88
581.134	276.88
581.9	265.88
582.666	247.88
583.432	239.88
584.198	232.88
584.964	214.88
585.729	205.88
586.495	189.88
587.26	178.88
588.025	179.88
588.791	161.88
589.556	152.88
590.321	150.88
591.086	139.88
591.851	135.88
592.616	124.88
593.381	124.88
594.146	115.88
594.911	108.88
595.675	104.88
596.44	100.88
597.204	95.88
597.969	93.88
598.733	88.88
599.497	82.88
600.261	82.88
601.025	76.88
601.79	76.88
602.553	64.88
603.317	69.88
604.081	61.88
604.845	62.88
605.609	55.88
606.372	60.88
607.136	58.88
607.899	50.88
608.662	51.88
609.426	45.88
610.189	46.88
610.952	47.88
611.715	44.88
612.478	42.88
613.241	36.88
614.004	39.88
614.767	37.88
615.529	38.88
616.292	34.88
617.055	29.88
617.817	31.88
618.579	28.88
619.342	29.88
620.104	26.88
620.866	31.88
621.628	26.88
622.39	23.88
623.152	27.88
623.914	24.88
624.676	23.88
625.438	23.88
626.199	21.88
626.961	21.88
627.722	17.88
628.484	21.88
629.245	19.88
630.006	18.88
630.768	16.88
631.529	16.88
632.29	20.88
633.051	17.88
633.812	19.88
634.573	17.88
635.333	16.88
636.094	18.88
636.855	13.88
637.615	13.88
638.376	18.88
639.136	13.88
639.896	11.88
640.657	11.88
641.417	14.88
642.177	11.88
642.937	14.88
643.697	12.88
644.457	10.88
645.216	11.88
645.976	10.88
646.736	10.88
647.495	9.88
648.255	10.88
649.014	9.88
649.774	9.88
650.533	9.88
651.292	7.88
652.051	10.88
652.81	8.88
653.569	9.88
654.328	10.88
655.087	11.88
655.846	8.88
656.604	6.88
657.363	8.88
658.121	8.88
658.88	10.88
659.638	7.88
660.397	8.88
661.155	7.88
661.913	8.88
662.671	7.88
663.429	7.88
664.187	7.88
664.945	8.88
665.703	8.88
666.46	5.88
667.218	6.88
667.976	5.88
668.733	9.88
669.49	5.88
670.248	5.88
671.005	7.88
671.762	9.88
672.519	8.88
673.276	7.88
674.033	6.88
674.79	6.88
675.547	6.88
676.304	4.88
677.06	6.88
677.817	6.88
678.574	4.88
679.33	4.88
680.086	4.88
680.843	3.88
681.599	5.88
682.355	5.88
683.111	6.88
683.867	4.88
684.623	7.88
685.379	5.88
686.135	6.88
686.89	6.88
687.646	4.88
688.402	7.88
689.157	5.88
689.912	3.88
690.668	4.88
691.423	7.88
692.178	4.88
692.933	3.88
693.688	6.88
694.443	6.88
695.198	6.88
695.953	6.88
696.708	5.88
697.462	5.88
698.217	6.88
698.972	5.88
699.726	3.88
700.48	5.88
701.235	4.88
701.989	7.88
702.743	5.88
703.497	4.88
704.251	5.88
705.005	5.88
705.759	4.88
706.513	4.88
707.266	2.88
708.02	5.88
708.774	4.88
709.527	5.88
710.28	6.88
711.034	4.88
711.787	3.88
712.54	4.88
713.293	6.88
714.046	4.88
714.799	4.88
715.552	6.88
716.305	6.88
717.058	4.88
717.81	6.88
718.563	6.88
719.315	4.88
720.068	2.88
720.82	3.88
721.573	7.88
722.325	4.88
723.077	3.88
723.829	6.88
724.581	6.88
725.333	2.88
726.085	3.88
726.836	8.88
727.588	3.88
728.34	7.88
729.091	7.88
729.843	3.88
730.594	5.88
731.346	6.88
732.097	4.88
732.848	4.88
733.599	3.88
734.35	5.88
735.101	9.88
735.852	3.88
736.603	5.88
737.354	5.88
738.104	4.88
738.855	6.88
739.605	6.88
740.356	7.88
741.106	7.88
741.856	5.88
742.607	4.88
743.357	5.88
744.107	7.88
744.857	6.88
745.607	7.88
746.357	6.88
747.106	7.88
747.856	6.88
748.606	6.88
749.355	4.88
750.105	7.88
750.854	8.88
751.603	8.88
752.353	7.88
753.102	5.88
753.851	8.88
754.6	5.88
755.349	8.88
756.098	6.88
756.847	7.88
757.595	8.88
758.344	8.88
759.093	7.88
759.841	9.88
760.589	7.88
761.338	7.88
762.086	8.88
762.834	8.88
763.582	8.88
764.331	8.88
765.079	8.88
765.826	8.88
766.574	9.88
767.322	8.88
768.07	8.88
768.817	8.88
769.565	9.88
770.312	10.88
771.06	11.88
771.807	10.88
772.554	10.88
773.302	10.88
774.049	10.88
774.796	9.88
775.543	9.88
776.29	10.88
777.036	9.88
777.783	12.88
778.53	13.88
779.276	11.88
780.023	13.88
780.769	12.88
781.516	12.88
782.262	10.88
783.008	11.88
783.754	13.88
784.5	9.88
785.246	9.88
785.992	9.88
786.738	12.88
787.484	11.88
788.23	12.88
788.975	12.88
789.721	14.88
790.466	11.88
791.212	15.88
791.957	11.88
792.702	13.88
793.447	9.88
794.193	12.88
794.938	9.88
795.683	9.88
796.427	9.88
797.172	10.88
797.917	9.88
798.662	9.88
799.406	10.88
800.151	10.88
800.895	9.88
801.64	11.88
802.384	9.88
803.128	9.88
803.872	9.88
804.616	8.88
805.36	8.88
806.104	9.88
806.848	8.88
807.592	6.88
808.336	6.88
809.079	8.88
809.823	6.88
810.566	9.88
811.31	7.88
812.053	8.88
812.796	7.88
813.539	7.88
814.283	8.88
815.026	5.88
815.769	5.88
816.511	7.88
817.254	6.88
817.997	7.88
818.74	6.88
819.482	5.88
820.225	4.88
820.967	5.88
821.71	5.88
822.452	3.88
823.194	5.88
823.936	5.88
824.678	8.88
825.42	2.88
826.162	5.88
826.904	3.88
827.646	4.88
828.388	5.88
829.129	3.88
829.871	5.88
830.612	4.88
831.354	5.88
832.095	5.88
832.836	6.88
833.577	7.88
834.319	4.88
835.06	5.88
835.801	5.88
836.542	4.88
837.282	3.88
838.023	3.88
838.764	4.88
839.504	4.88
840.245	5.88
840.985	2.88
841.726	4.88
842.466	3.88
843.206	3.88
843.946	4.88
844.687	2.88
845.427	0.88
846.166	4.88
846.906	4.88
847.646	5.88
848.386	2.88
849.125	4.88
849.865	2.88
850.605	2.88
851.344	5.88
852.083	3.88
852.823	1.88
853.562	3.88
854.301	3.88
855.04	2.88
855.779	1.88
856.518	3.88
857.257	2.88
857.995	4.88
858.734	2.88
859.473	1.88
860.211	4.88
860.95	2.88
861.688	3.88
862.426	5.88
863.165	2.88
863.903	1.88
864.641	2.88
865.379	4.88
866.117	2.88
866.855	4.88
867.593	0.88
868.33	2.88
869.068	0.88
869.806	-0.12
870.543	2.88
871.28	4.88
872.018	1.88
872.755	1.88
873.492	1.88
874.229	1.88
874.967	2.88
875.703	2.88
876.44	1.88
877.177	-0.12
877.914	2.88
878.651	-1.12
879.387	1.88
880.124	0.88
880.86	1.88
881.597	0.88
882.333	0.88
883.069	2.88
883.806	3.88
884.542	2.88
885.278	-1.12
886.014	-0.12
886.749	1.88
887.485	-1.12
888.221	1.88
888.957	0.88
889.692	0.88
890.428	1.88
891.163	1.88
891.899	0.88
892.634	0.88
893.369	2.88
894.104	-0.12
894.839	1.88
895.574	0.88
896.309	2.88
897.044	0.88
897.779	1.88
898.514	1.88
899.248	2.88
899.983	-1.12
900.717	1.88
901.452	0.88
902.186	0.88
902.92	-0.12
903.654	0.88
904.389	0.88
905.123	0.88
905.857	-0.12
906.59	0.88
907.324	2.88
908.058	2.88
908.792	-0.12
909.525	0.88
910.259	-0.12
910.992	1.88
911.726	0.88
912.459	0.88
913.192	1.88
913.925	-1.12
914.658	0.88
915.391	0.88
916.124	-0.12
916.857	0.88
917.59	-1.12
918.323	1.88
919.055	1.88
919.788	1.88
920.521	1.88
921.253	0.88
921.985	0.88
922.718	-1.12
923.45	0.88
924.182	-0.12
924.914	2.88
925.646	2.88
926.378	-0.12
927.11	0.88
927.841	-0.12
928.573	0.88
929.305	0.88
930.036	0.88
930.768	0.88
931.499	2.88
932.23	2.88
932.962	-1.12
933.693	2.88
934.424	-1.12
935.155	0.88
935.886	0.88
936.617	-0.12
937.348	0.88
938.078	0.88
938.809	0.88
939.54	-0.12
940.27	-1.12
941.001	1.88
941.731	0.88
942.461	1.88
943.191	-1.12
943.922	1.88
944.652	0.88
945.382	0.88
946.112	1.88
946.841	0.88
947.571	2.88
948.301	0.88
949.031	-0.12
949.76	-1.12
950.49	0.88
951.219	1.88
951.948	-3.12
952.678	-0.12
953.407	1.88
954.136	1.88
954.865	-1.12
955.594	0.88
956.323	0.88
957.052	-1.12
957.78	-0.12
958.509	2.88
959.238	2.88
959.966	-0.12
960.695	1.88
961.423	0.88
962.151	0.88
962.88	0.88
963.608	-0.12
964.336	1.88
965.064	0.88
965.792	-0.12
966.52	0.88
967.247	0.88
967.975	-1.12
968.703	0.88
969.43	3.88
970.158	-0.12
970.885	0.88
971.613	-0.12
972.34	1.88
973.067	0.88
973.794	1.88
974.521	0.88
975.248	0.88
975.975	0.88
976.702	-2.12
977.429	2.88
978.156	-0.12
978.882	-0.12
979.609	0.88
980.335	0.88
981.062	-0.12
981.788	2.88
982.514	1.88
983.24	-0.12
983.967	1.88
984.693	1.88
985.419	-0.12
986.144	0.88
986.87	-0.12
987.596	-0.12
988.322	2.88
989.047	0.88
989.773	3.88
990.498	2.88
991.224	0.88
991.949	-1.12
992.674	1.88
993.399	-1.12
994.124	0.88
994.849	0.88
995.574	1.88
996.299	0.88
997.024	-1.12
997.749	0.88
998.473	4.88
999.198	-0.12
999.922	0.88
1000.647	-1.12
1001.371	2.88
1002.095	-1.12
1002.82	-0.12
1003.544	0.88
1004.268	4.88
1004.992	1.88
1005.716	1.88
1006.439	1.88
1007.163	1.88
1007.887	3.88
1008.611	0.88
1009.334	1.88
1010.058	0.88
1010.781	0.88
1011.504	-1.12
1012.228	0.88
1012.951	-1.12
1013.674	-1.12
1014.397	-0.12
1015.12	-0.12
