节点500_425_QEPB04081__495__15-56-32-595.txt的数据

Date: Wed Nov 12 15:56:32 CST 2025
User: PC
Spectrometer: QEPB0408
触发模式: 0
积分时间 (秒): 1.000000E-2
Scans to average: 1
启用暗噪声校正: true
启用非线性校正: false
滑动平均宽度: 0
X轴模式: Wavelengths
Number of Pixels in Spectrum: 1044
>>>>>Begin Spectral Data<<<<<
220.843	4
221.644	2
222.444	4
223.244	4
224.045	2
224.845	2
225.645	3
226.445	3
227.245	5
228.045	4
228.845	2
229.645	3
230.444	5
231.244	4
232.043	6
232.843	2
233.642	3
234.442	6
235.241	7
236.04	6
236.839	4
237.638	6
238.437	8
239.236	7
240.035	7
240.833	5
241.632	8
242.43	8
243.229	6
244.027	4
244.826	8
245.624	8
246.422	9
247.22	8
248.018	7
248.816	7
249.614	9
250.412	10
251.21	11
252.007	7
252.805	9
253.602	9
254.4	10
255.197	9
255.994	10
256.791	13
257.589	12
258.386	11
259.183	14
259.979	13
260.776	12
261.573	12
262.37	15
263.166	17
263.963	14
264.759	16
265.556	14
266.352	17
267.148	15
267.944	16
268.74	21
269.536	18
270.332	16
271.128	18
271.924	18
272.719	24
273.515	20
274.311	22
275.106	23
275.901	22
276.697	21
277.492	21
278.287	24
279.082	21
279.877	19
280.672	24
281.467	24
282.262	19
283.056	23
283.851	22
284.646	21
285.44	21
286.234	23
287.029	23
287.823	23
288.617	22
289.411	22
290.205	22
290.999	23
291.793	21
292.587	22
293.381	22
294.174	21
294.968	20
295.761	22
296.555	17
297.348	20
298.141	19
298.935	19
299.728	19
300.521	19
301.314	18
302.107	16
302.899	18
303.692	16
304.485	20
305.277	17
306.07	18
306.862	14
307.655	14
308.447	15
309.239	16
310.031	16
310.823	15
311.615	12
312.407	13
313.199	11
313.991	10
314.783	14
315.574	14
316.366	13
317.157	11
317.949	12
318.74	12
319.531	8
320.322	12
321.113	12
321.904	11
322.695	8
323.486	7
324.277	12
325.068	8
325.858	9
326.649	9
327.439	7
328.23	9
329.02	8
329.81	9
330.6	8
331.391	9
332.181	9
332.971	8
333.76	8
334.55	6
335.34	9
336.13	7
336.919	8
337.709	9
338.498	8
339.287	8
340.077	7
340.866	7
341.655	9
342.444	7
343.233	7
344.022	8
344.811	8
345.6	7
346.388	8
347.177	8
347.965	8
348.754	8
349.542	8
350.33	8
351.119	9
351.907	8
352.695	8
353.483	7
354.271	9
355.059	7
355.846	8
356.634	8
357.422	5
358.209	8
358.997	6
359.784	7
360.571	6
361.359	7
362.146	8
362.933	9
363.72	8
364.507	6
365.294	5
366.081	7
366.867	7
367.654	7
368.44	4
369.227	8
370.013	7
370.8	6
371.586	5
372.372	6
373.158	8
373.944	4
374.73	7
375.516	6
376.302	7
377.088	8
377.873	5
378.659	8
379.445	4
380.23	5
381.015	5
381.801	5
382.586	9
383.371	7
384.156	8
384.941	8
385.726	5
386.511	8
387.296	5
388.08	9
388.865	10
389.649	7
390.434	7
391.218	4
392.003	10
392.787	7
393.571	7
394.355	10
395.139	8
395.923	10
396.707	8
397.491	6
398.274	11
399.058	7
399.842	10
400.625	7
401.408	9
402.192	10
402.975	8
403.758	10
404.541	11
405.324	12
406.107	10
406.89	10
407.673	12
408.456	7
409.238	12
410.021	8
410.803	14
411.586	9
412.368	11
413.151	13
413.933	8
414.715	12
415.497	13
416.279	11
417.061	14
417.843	13
418.624	14
419.406	15
420.188	13
420.969	12
421.751	14
422.532	13
423.313	16
424.095	16
424.876	15
425.657	14
426.438	18
427.219	15
428	16
428.78	21
429.561	17
430.342	17
431.122	20
431.903	22
432.683	21
433.464	23
434.244	21
435.024	24
435.804	24
436.584	26
437.364	26
438.144	31
438.924	31
439.704	28
440.483	36
441.263	34
442.042	36
442.822	42
443.601	43
444.38	44
445.16	50
445.939	55
446.718	57
447.497	64
448.276	71
449.054	76
449.833	83
450.612	92
451.391	98
452.169	112
452.948	122
453.726	136
454.504	144
455.282	166
456.061	184
456.839	201
457.617	228
458.395	248
459.172	280
459.95	308
460.728	339
461.506	384
462.283	425
463.061	482
463.838	523
464.615	584
465.393	653
466.17	731
466.947	802
467.724	894
468.501	987
469.278	1086
470.055	1216
470.831	1338
471.608	1468
472.385	1622
473.161	1779
473.938	1960
474.714	2157
475.49	2379
476.266	2625
477.043	2864
477.819	3157
478.595	3446
479.371	3770
480.146	4118
480.922	4477
481.698	4925
482.473	5348
483.249	5821
484.024	6342
484.8	6950
485.575	7547
486.35	8146
487.126	8863
487.901	9639
488.676	10447
489.451	11365
490.225	12260
491	13268
491.775	14348
492.55	15411
493.324	16616
494.099	17705
494.873	18903
495.647	20199
496.422	21470
497.196	22819
497.97	24204
498.744	25512
499.518	26739
500.292	27829
501.066	29015
501.839	30191
502.613	31193
503.387	31949
504.16	32547
504.934	33058
505.707	33319
506.48	33375
507.253	33193
508.027	33191
508.8	32793
509.573	32303
510.346	31713
511.118	30948
511.891	30162
512.664	29202
513.437	28137
514.209	27146
514.982	26292
515.754	25267
516.526	24234
517.298	23311
518.071	22281
518.843	21420
519.615	20500
520.387	19740
521.159	18987
521.93	18253
522.702	17517
523.474	16848
524.245	16237
525.017	15475
525.788	14822
526.56	14126
527.331	13559
528.102	12954
528.873	12379
529.644	11773
530.415	11264
531.186	10727
531.957	10186
532.728	9646
533.498	9174
534.269	8629
535.039	8208
535.81	7775
536.58	7381
537.351	6905
538.121	6550
538.891	6215
539.661	5897
540.431	5596
541.201	5259
541.971	5005
542.741	4752
543.51	4509
544.28	4281
545.05	4078
545.819	3885
546.588	3701
547.358	3490
548.127	3325
548.896	3159
549.665	3006
550.434	2851
551.203	2706
551.972	2551
552.741	2429
553.51	2283
554.278	2155
555.047	2046
555.815	1937
556.584	1840
557.352	1719
558.121	1637
558.889	1539
559.657	1451
560.425	1387
561.193	1301
561.961	1236
562.729	1174
563.496	1104
564.264	1041
565.032	982
565.799	926
566.567	874
567.334	839
568.101	790
568.869	736
569.636	710
570.403	656
571.17	618
571.937	588
572.704	549
573.471	524
574.237	496
575.004	462
575.771	428
576.537	417
577.303	397
578.07	366
578.836	343
579.602	325
580.368	315
581.134	297
581.9	289
582.666	270
583.432	248
584.198	235
584.964	224
585.729	212
586.495	201
587.26	193
588.025	182
588.791	175
589.556	162
590.321	153
591.086	147
591.851	138
592.616	136
593.381	130
594.146	121
594.911	118
595.675	110
596.44	105
597.204	101
597.969	96
598.733	90
599.497	86
600.261	81
601.025	80
601.79	77
602.553	71
603.317	68
604.081	69
604.845	63
605.609	58
606.372	57
607.136	59
607.899	54
608.662	54
609.426	48
610.189	47
610.952	45
611.715	42
612.478	43
613.241	41
614.004	41
614.767	38
615.529	34
616.292	37
617.055	37
617.817	34
618.579	29
619.342	32
620.104	31
620.866	31
621.628	26
622.39	26
623.152	25
623.914	23
624.676	24
625.438	22
626.199	23
626.961	20
627.722	23
628.484	22
629.245	17
630.006	22
630.768	16
631.529	18
632.29	18
633.051	19
633.812	15
634.573	17
635.333	18
636.094	15
636.855	16
637.615	16
638.376	13
639.136	14
639.896	14
640.657	15
641.417	13
642.177	10
642.937	14
643.697	12
644.457	13
645.216	12
645.976	10
646.736	12
647.495	9
648.255	10
649.014	12
649.774	9
650.533	12
651.292	9
652.051	10
652.81	8
653.569	10
654.328	10
655.087	7
655.846	10
656.604	8
657.363	10
658.121	8
658.88	8
659.638	6
660.397	6
661.155	8
661.913	9
662.671	7
663.429	8
664.187	6
664.945	6
665.703	6
666.46	6
667.218	6
667.976	6
668.733	8
669.49	4
670.248	6
671.005	7
671.762	9
672.519	6
673.276	6
674.033	8
674.79	6
675.547	6
676.304	6
677.06	7
677.817	7
678.574	6
679.33	4
680.086	5
680.843	7
681.599	5
682.355	7
683.111	7
683.867	6
684.623	7
685.379	6
686.135	7
686.89	2
687.646	7
688.402	5
689.157	3
689.912	5
690.668	4
691.423	5
692.178	6
692.933	5
693.688	5
694.443	3
695.198	5
695.953	5
696.708	6
697.462	6
698.217	5
698.972	4
699.726	2
700.48	3
701.235	4
701.989	4
702.743	4
703.497	3
704.251	5
705.005	6
705.759	5
706.513	0
707.266	5
708.02	5
708.774	4
709.527	5
710.28	2
711.034	5
711.787	3
712.54	4
713.293	6
714.046	5
714.799	5
715.552	6
716.305	4
717.058	6
717.81	5
718.563	7
719.315	4
720.068	4
720.82	6
721.573	6
722.325	3
723.077	8
723.829	5
724.581	5
725.333	4
726.085	7
726.836	4
727.588	5
728.34	3
729.091	4
729.843	8
730.594	5
731.346	5
732.097	6
732.848	6
733.599	6
734.35	6
735.101	6
735.852	4
736.603	4
737.354	6
738.104	5
738.855	7
739.605	9
740.356	7
741.106	5
741.856	6
742.607	7
743.357	3
744.107	6
744.857	3
745.607	6
746.357	5
747.106	3
747.856	7
748.606	7
749.355	7
750.105	7
750.854	6
751.603	8
752.353	8
753.102	5
753.851	6
754.6	10
755.349	10
756.098	6
756.847	10
757.595	8
758.344	8
759.093	6
759.841	8
760.589	6
761.338	7
762.086	10
762.834	8
763.582	10
764.331	6
765.079	6
765.826	10
766.574	8
767.322	10
768.07	8
768.817	7
769.565	9
770.312	10
771.06	9
771.807	9
772.554	9
773.302	10
774.049	8
774.796	9
775.543	5
776.29	7
777.036	10
777.783	11
778.53	9
779.276	12
780.023	10
780.769	8
781.516	12
782.262	10
783.008	8
783.754	11
784.5	7
785.246	13
785.992	9
786.738	10
787.484	11
788.23	12
788.975	12
789.721	9
790.466	11
791.212	12
791.957	9
792.702	10
793.447	11
794.193	10
794.938	8
795.683	9
796.427	10
797.172	10
797.917	9
798.662	8
799.406	10
800.151	8
800.895	10
801.64	9
802.384	8
803.128	8
803.872	10
804.616	7
805.36	6
806.104	8
806.848	7
807.592	9
808.336	10
809.079	6
809.823	7
810.566	7
811.31	5
812.053	8
812.796	6
813.539	7
814.283	10
815.026	5
815.769	6
816.511	4
817.254	6
817.997	7
818.74	4
819.482	6
820.225	3
820.967	7
821.71	5
822.452	4
823.194	5
823.936	5
824.678	4
825.42	2
826.162	4
826.904	7
827.646	5
828.388	8
829.129	3
829.871	3
830.612	5
831.354	4
832.095	4
832.836	4
833.577	7
834.319	4
835.06	7
835.801	6
836.542	5
837.282	6
838.023	3
838.764	4
839.504	5
840.245	5
840.985	3
841.726	4
842.466	4
843.206	3
843.946	3
844.687	4
845.427	3
846.166	4
846.906	4
847.646	2
848.386	3
849.125	2
849.865	6
850.605	2
851.344	4
852.083	5
852.823	4
853.562	4
854.301	1
855.04	2
855.779	2
856.518	5
857.257	3
857.995	4
858.734	2
859.473	3
860.211	2
860.95	5
861.688	5
862.426	1
863.165	2
863.903	2
864.641	1
865.379	4
866.117	4
866.855	3
867.593	3
868.33	2
869.068	1
869.806	0
870.543	2
871.28	3
872.018	1
872.755	1
873.492	1
874.229	2
874.967	2
875.703	2
876.44	1
877.177	2
877.914	1
878.651	-1
879.387	1
880.124	3
880.86	1
881.597	3
882.333	1
883.069	3
883.806	3
884.542	1
885.278	1
886.014	-2
886.749	1
887.485	0
888.221	0
888.957	2
889.692	1
890.428	1
891.163	0
891.899	4
892.634	0
893.369	1
894.104	1
894.839	1
895.574	1
896.309	2
897.044	1
897.779	0
898.514	1
899.248	0
899.983	-3
900.717	2
901.452	1
902.186	1
902.92	1
903.654	0
904.389	-2
905.123	-1
905.857	0
906.59	2
907.324	1
908.058	3
908.792	-1
909.525	-1
910.259	-1
910.992	1
911.726	0
912.459	0
913.192	0
913.925	2
914.658	-1
915.391	0
916.124	0
916.857	0
917.59	-3
918.323	0
919.055	3
919.788	1
920.521	1
921.253	-1
921.985	1
922.718	1
923.45	0
924.182	2
924.914	0
925.646	2
926.378	-2
927.11	2
927.841	0
928.573	-1
929.305	-1
930.036	0
930.768	2
931.499	0
932.23	0
932.962	0
933.693	1
934.424	0
935.155	-1
935.886	2
936.617	1
937.348	1
938.078	-2
938.809	-1
939.54	0
940.27	0
941.001	0
941.731	-1
942.461	0
943.191	2
943.922	-1
944.652	2
945.382	2
946.112	3
946.841	0
947.571	-2
948.301	0
949.031	-1
949.76	0
950.49	1
951.219	-1
951.948	-1
952.678	0
953.407	2
954.136	0
954.865	2
955.594	0
956.323	-4
957.052	1
957.78	0
958.509	0
959.238	-1
959.966	-1
960.695	0
961.423	0
962.151	2
962.88	1
963.608	2
964.336	-1
965.064	1
965.792	2
966.52	2
967.247	-1
967.975	1
968.703	0
969.43	-3
970.158	0
970.885	2
971.613	2
972.34	-2
973.067	-1
973.794	0
974.521	0
975.248	1
975.975	2
976.702	0
977.429	-1
978.156	2
978.882	0
979.609	1
980.335	-1
981.062	2
981.788	-2
982.514	0
983.24	1
983.967	0
984.693	2
985.419	-2
986.144	0
986.87	1
987.596	2
988.322	1
989.047	1
989.773	2
990.498	1
991.224	-2
991.949	1
992.674	0
993.399	1
994.124	3
994.849	0
995.574	0
996.299	-2
997.024	1
997.749	-1
998.473	0
999.198	-1
999.922	1
1000.647	-1
1001.371	3
1002.095	-2
1002.82	-2
1003.544	0
1004.268	2
1004.992	3
1005.716	0
1006.439	3
1007.163	4
1007.887	3
1008.611	0
1009.334	3
1010.058	2
1010.781	0
1011.504	-2
1012.228	0
1012.951	-1
1013.674	-2
1014.397	3
1015.12	1
