节点500_425_QEPB04081__227__15-52-05-060.txt的数据

Date: Wed Nov 12 15:52:05 CST 2025
User: PC
Spectrometer: QEPB0408
触发模式: 0
积分时间 (秒): 1.000000E-2
Scans to average: 1
启用暗噪声校正: true
启用非线性校正: false
滑动平均宽度: 0
X轴模式: Wavelengths
Number of Pixels in Spectrum: 1044
>>>>>Begin Spectral Data<<<<<
220.843	3.25
221.644	3.25
222.444	4.25
223.244	3.25
224.045	2.25
224.845	2.25
225.645	2.25
226.445	4.25
227.245	2.25
228.045	4.25
228.845	1.25
229.645	6.25
230.444	4.25
231.244	6.25
232.043	7.25
232.843	1.25
233.642	4.25
234.442	5.25
235.241	7.25
236.04	6.25
236.839	5.25
237.638	2.25
238.437	4.25
239.236	9.25
240.035	8.25
240.833	10.25
241.632	7.25
242.43	6.25
243.229	7.25
244.027	5.25
244.826	10.25
245.624	8.25
246.422	8.25
247.22	10.25
248.018	7.25
248.816	10.25
249.614	8.25
250.412	10.25
251.21	9.25
252.007	10.25
252.805	9.25
253.602	11.25
254.4	12.25
255.197	9.25
255.994	11.25
256.791	12.25
257.589	11.25
258.386	13.25
259.183	12.25
259.979	16.25
260.776	14.25
261.573	16.25
262.37	16.25
263.166	15.25
263.963	17.25
264.759	14.25
265.556	17.25
266.352	18.25
267.148	19.25
267.944	21.25
268.74	17.25
269.536	20.25
270.332	20.25
271.128	20.25
271.924	20.25
272.719	22.25
273.515	21.25
274.311	21.25
275.106	26.25
275.901	23.25
276.697	25.25
277.492	26.25
278.287	26.25
279.082	22.25
279.877	26.25
280.672	23.25
281.467	26.25
282.262	24.25
283.056	26.25
283.851	24.25
284.646	24.25
285.44	27.25
286.234	23.25
287.029	24.25
287.823	25.25
288.617	25.25
289.411	26.25
290.205	25.25
290.999	23.25
291.793	23.25
292.587	24.25
293.381	24.25
294.174	23.25
294.968	22.25
295.761	21.25
296.555	18.25
297.348	20.25
298.141	20.25
298.935	26.25
299.728	18.25
300.521	18.25
301.314	17.25
302.107	19.25
302.899	17.25
303.692	13.25
304.485	16.25
305.277	17.25
306.07	18.25
306.862	14.25
307.655	15.25
308.447	13.25
309.239	15.25
310.031	18.25
310.823	14.25
311.615	14.25
312.407	11.25
313.199	14.25
313.991	11.25
314.783	11.25
315.574	12.25
316.366	8.25
317.157	14.25
317.949	14.25
318.74	12.25
319.531	11.25
320.322	10.25
321.113	9.25
321.904	8.25
322.695	11.25
323.486	10.25
324.277	9.25
325.068	9.25
325.858	9.25
326.649	10.25
327.439	9.25
328.23	7.25
329.02	9.25
329.81	8.25
330.6	7.25
331.391	8.25
332.181	9.25
332.971	8.25
333.76	8.25
334.55	8.25
335.34	9.25
336.13	10.25
336.919	8.25
337.709	6.25
338.498	10.25
339.287	6.25
340.077	7.25
340.866	8.25
341.655	9.25
342.444	8.25
343.233	10.25
344.022	7.25
344.811	7.25
345.6	7.25
346.388	8.25
347.177	9.25
347.965	8.25
348.754	9.25
349.542	10.25
350.33	6.25
351.119	11.25
351.907	7.25
352.695	8.25
353.483	7.25
354.271	7.25
355.059	8.25
355.846	6.25
356.634	8.25
357.422	8.25
358.209	10.25
358.997	9.25
359.784	8.25
360.571	5.25
361.359	6.25
362.146	8.25
362.933	6.25
363.72	6.25
364.507	8.25
365.294	6.25
366.081	8.25
366.867	5.25
367.654	7.25
368.44	7.25
369.227	6.25
370.013	6.25
370.8	6.25
371.586	7.25
372.372	7.25
373.158	6.25
373.944	6.25
374.73	4.25
375.516	9.25
376.302	7.25
377.088	6.25
377.873	5.25
378.659	5.25
379.445	6.25
380.23	6.25
381.015	6.25
381.801	8.25
382.586	6.25
383.371	8.25
384.156	6.25
384.941	7.25
385.726	7.25
386.511	7.25
387.296	7.25
388.08	7.25
388.865	5.25
389.649	9.25
390.434	8.25
391.218	10.25
392.003	5.25
392.787	8.25
393.571	9.25
394.355	9.25
395.139	7.25
395.923	10.25
396.707	8.25
397.491	6.25
398.274	8.25
399.058	11.25
399.842	7.25
400.625	11.25
401.408	10.25
402.192	10.25
402.975	9.25
403.758	8.25
404.541	8.25
405.324	11.25
406.107	9.25
406.89	9.25
407.673	11.25
408.456	12.25
409.238	12.25
410.021	9.25
410.803	14.25
411.586	12.25
412.368	9.25
413.151	12.25
413.933	10.25
414.715	11.25
415.497	11.25
416.279	11.25
417.061	14.25
417.843	12.25
418.624	14.25
419.406	12.25
420.188	12.25
420.969	13.25
421.751	14.25
422.532	14.25
423.313	16.25
424.095	14.25
424.876	16.25
425.657	15.25
426.438	15.25
427.219	18.25
428	20.25
428.78	17.25
429.561	19.25
430.342	18.25
431.122	18.25
431.903	22.25
432.683	20.25
433.464	21.25
434.244	25.25
435.024	23.25
435.804	23.25
436.584	25.25
437.364	26.25
438.144	26.25
438.924	31.25
439.704	32.25
440.483	30.25
441.263	37.25
442.042	35.25
442.822	39.25
443.601	44.25
444.38	49.25
445.16	46.25
445.939	52.25
446.718	57.25
447.497	59.25
448.276	66.25
449.054	69.25
449.833	77.25
450.612	82.25
451.391	89.25
452.169	100.25
452.948	112.25
453.726	116.25
454.504	132.25
455.282	154.25
456.061	167.25
456.839	183.25
457.617	202.25
458.395	223.25
459.172	253.25
459.95	278.25
460.728	312.25
461.506	358.25
462.283	393.25
463.061	439.25
463.838	488.25
464.615	543.25
465.393	612.25
466.17	680.25
466.947	750.25
467.724	842.25
468.501	937.25
469.278	1047.25
470.055	1157.25
470.831	1286.25
471.608	1439.25
472.385	1585.25
473.161	1752.25
473.938	1937.25
474.714	2142.25
475.49	2370.25
476.266	2634.25
477.043	2878.25
477.819	3195.25
478.595	3519.25
479.371	3886.25
480.146	4280.25
480.922	4679.25
481.698	5116.25
482.473	5647.25
483.249	6204.25
484.024	6811.25
484.8	7466.25
485.575	8114.25
486.35	8852.25
487.126	9671.25
487.901	10593.25
488.676	11589.25
489.451	12605.25
490.225	13634.25
491	14793.25
491.775	16125.25
492.55	17344.25
493.324	18744.25
494.099	20109.25
494.873	21444.25
495.647	22926.25
496.422	24334.25
497.196	25881.25
497.97	27401.25
498.744	28811.25
499.518	30202.25
500.292	31346.25
501.066	32554.25
501.839	33648.25
502.613	34525.25
503.387	35198.25
504.16	35661.25
504.934	35918.25
505.707	35995.25
506.48	35838.25
507.253	35413.25
508.027	35047.25
508.8	34339.25
509.573	33634.25
510.346	32756.25
511.118	31702.25
511.891	30738.25
512.664	29532.25
513.437	28340.25
514.209	27120.25
514.982	26239.25
515.754	25068.25
516.526	23927.25
517.298	22960.25
518.071	21959.25
518.843	21101.25
519.615	20197.25
520.387	19377.25
521.159	18660.25
521.93	17932.25
522.702	17240.25
523.474	16584.25
524.245	15889.25
525.017	15166.25
525.788	14441.25
526.56	13806.25
527.331	13189.25
528.102	12564.25
528.873	11967.25
529.644	11388.25
530.415	10792.25
531.186	10303.25
531.957	9716.25
532.728	9253.25
533.498	8716.25
534.269	8250.25
535.039	7821.25
535.81	7414.25
536.58	6946.25
537.351	6516.25
538.121	6204.25
538.891	5874.25
539.661	5563.25
540.431	5284.25
541.201	4995.25
541.971	4721.25
542.741	4503.25
543.51	4287.25
544.28	4049.25
545.05	3853.25
545.819	3671.25
546.588	3479.25
547.358	3313.25
548.127	3125.25
548.896	2987.25
549.665	2818.25
550.434	2683.25
551.203	2537.25
551.972	2400.25
552.741	2270.25
553.51	2160.25
554.278	2009.25
555.047	1908.25
555.815	1795.25
556.584	1706.25
557.352	1604.25
558.121	1506.25
558.889	1434.25
559.657	1355.25
560.425	1286.25
561.193	1209.25
561.961	1134.25
562.729	1075.25
563.496	1024.25
564.264	959.25
565.032	914.25
565.799	858.25
566.567	812.25
567.334	768.25
568.101	736.25
568.869	690.25
569.636	653.25
570.403	610.25
571.17	575.25
571.937	554.25
572.704	519.25
573.471	483.25
574.237	460.25
575.004	429.25
575.771	408.25
576.537	378.25
577.303	358.25
578.07	330.25
578.836	312.25
579.602	302.25
580.368	288.25
581.134	275.25
581.9	260.25
582.666	247.25
583.432	226.25
584.198	222.25
584.964	206.25
585.729	199.25
586.495	193.25
587.26	186.25
588.025	175.25
588.791	162.25
589.556	151.25
590.321	147.25
591.086	136.25
591.851	129.25
592.616	123.25
593.381	119.25
594.146	112.25
594.911	104.25
595.675	103.25
596.44	98.25
597.204	93.25
597.969	89.25
598.733	86.25
599.497	78.25
600.261	74.25
601.025	71.25
601.79	74.25
602.553	66.25
603.317	65.25
604.081	62.25
604.845	59.25
605.609	55.25
606.372	58.25
607.136	53.25
607.899	53.25
608.662	48.25
609.426	46.25
610.189	43.25
610.952	41.25
611.715	42.25
612.478	44.25
613.241	40.25
614.004	36.25
614.767	36.25
615.529	35.25
616.292	34.25
617.055	33.25
617.817	30.25
618.579	31.25
619.342	30.25
620.104	28.25
620.866	28.25
621.628	28.25
622.39	24.25
623.152	28.25
623.914	22.25
624.676	25.25
625.438	25.25
626.199	19.25
626.961	22.25
627.722	22.25
628.484	20.25
629.245	18.25
630.006	22.25
630.768	19.25
631.529	17.25
632.29	15.25
633.051	16.25
633.812	19.25
634.573	17.25
635.333	16.25
636.094	16.25
636.855	14.25
637.615	18.25
638.376	14.25
639.136	12.25
639.896	13.25
640.657	12.25
641.417	13.25
642.177	12.25
642.937	12.25
643.697	12.25
644.457	12.25
645.216	11.25
645.976	10.25
646.736	12.25
647.495	12.25
648.255	8.25
649.014	11.25
649.774	10.25
650.533	10.25
651.292	10.25
652.051	9.25
652.81	10.25
653.569	9.25
654.328	9.25
655.087	7.25
655.846	8.25
656.604	8.25
657.363	9.25
658.121	9.25
658.88	9.25
659.638	8.25
660.397	8.25
661.155	7.25
661.913	7.25
662.671	6.25
663.429	7.25
664.187	7.25
664.945	5.25
665.703	5.25
666.46	5.25
667.218	7.25
667.976	6.25
668.733	6.25
669.49	8.25
670.248	7.25
671.005	7.25
671.762	6.25
672.519	6.25
673.276	5.25
674.033	6.25
674.79	7.25
675.547	6.25
676.304	6.25
677.06	5.25
677.817	6.25
678.574	7.25
679.33	8.25
680.086	6.25
680.843	5.25
681.599	6.25
682.355	4.25
683.111	7.25
683.867	6.25
684.623	4.25
685.379	6.25
686.135	5.25
686.89	4.25
687.646	6.25
688.402	7.25
689.157	4.25
689.912	6.25
690.668	3.25
691.423	4.25
692.178	6.25
692.933	2.25
693.688	7.25
694.443	6.25
695.198	5.25
695.953	4.25
696.708	3.25
697.462	7.25
698.217	4.25
698.972	5.25
699.726	3.25
700.48	4.25
701.235	4.25
701.989	6.25
702.743	4.25
703.497	5.25
704.251	4.25
705.005	8.25
705.759	5.25
706.513	6.25
707.266	5.25
708.02	5.25
708.774	4.25
709.527	5.25
710.28	4.25
711.034	5.25
711.787	3.25
712.54	6.25
713.293	4.25
714.046	5.25
714.799	7.25
715.552	6.25
716.305	4.25
717.058	4.25
717.81	5.25
718.563	6.25
719.315	8.25
720.068	6.25
720.82	3.25
721.573	5.25
722.325	4.25
723.077	6.25
723.829	5.25
724.581	7.25
725.333	2.25
726.085	7.25
726.836	6.25
727.588	7.25
728.34	6.25
729.091	5.25
729.843	6.25
730.594	4.25
731.346	7.25
732.097	4.25
732.848	6.25
733.599	5.25
734.35	2.25
735.101	8.25
735.852	5.25
736.603	8.25
737.354	6.25
738.104	5.25
738.855	8.25
739.605	7.25
740.356	5.25
741.106	8.25
741.856	6.25
742.607	7.25
743.357	8.25
744.107	8.25
744.857	7.25
745.607	7.25
746.357	7.25
747.106	4.25
747.856	7.25
748.606	6.25
749.355	7.25
750.105	6.25
750.854	8.25
751.603	8.25
752.353	9.25
753.102	7.25
753.851	6.25
754.6	9.25
755.349	9.25
756.098	8.25
756.847	4.25
757.595	9.25
758.344	9.25
759.093	8.25
759.841	6.25
760.589	8.25
761.338	9.25
762.086	7.25
762.834	10.25
763.582	9.25
764.331	8.25
765.079	9.25
765.826	11.25
766.574	10.25
767.322	7.25
768.07	12.25
768.817	9.25
769.565	10.25
770.312	11.25
771.06	11.25
771.807	10.25
772.554	7.25
773.302	13.25
774.049	9.25
774.796	8.25
775.543	10.25
776.29	10.25
777.036	11.25
777.783	10.25
778.53	14.25
779.276	10.25
780.023	10.25
780.769	10.25
781.516	11.25
782.262	12.25
783.008	13.25
783.754	13.25
784.5	12.25
785.246	11.25
785.992	12.25
786.738	12.25
787.484	12.25
788.23	12.25
788.975	11.25
789.721	9.25
790.466	8.25
791.212	12.25
791.957	11.25
792.702	12.25
793.447	10.25
794.193	12.25
794.938	9.25
795.683	8.25
796.427	10.25
797.172	10.25
797.917	10.25
798.662	10.25
799.406	10.25
800.151	9.25
800.895	10.25
801.64	7.25
802.384	9.25
803.128	6.25
803.872	9.25
804.616	9.25
805.36	10.25
806.104	8.25
806.848	9.25
807.592	6.25
808.336	7.25
809.079	6.25
809.823	4.25
810.566	8.25
811.31	6.25
812.053	7.25
812.796	6.25
813.539	6.25
814.283	7.25
815.026	5.25
815.769	6.25
816.511	7.25
817.254	6.25
817.997	8.25
818.74	4.25
819.482	5.25
820.225	6.25
820.967	6.25
821.71	7.25
822.452	5.25
823.194	7.25
823.936	5.25
824.678	7.25
825.42	4.25
826.162	4.25
826.904	4.25
827.646	6.25
828.388	7.25
829.129	4.25
829.871	2.25
830.612	3.25
831.354	4.25
832.095	5.25
832.836	5.25
833.577	4.25
834.319	4.25
835.06	6.25
835.801	4.25
836.542	3.25
837.282	5.25
838.023	1.25
838.764	5.25
839.504	4.25
840.245	2.25
840.985	5.25
841.726	2.25
842.466	4.25
843.206	3.25
843.946	3.25
844.687	4.25
845.427	3.25
846.166	3.25
846.906	4.25
847.646	6.25
848.386	5.25
849.125	3.25
849.865	5.25
850.605	2.25
851.344	3.25
852.083	3.25
852.823	3.25
853.562	4.25
854.301	3.25
855.04	3.25
855.779	4.25
856.518	2.25
857.257	3.25
857.995	1.25
858.734	1.25
859.473	1.25
860.211	2.25
860.95	4.25
861.688	2.25
862.426	2.25
863.165	2.25
863.903	1.25
864.641	2.25
865.379	1.25
866.117	4.25
866.855	0.25
867.593	2.25
868.33	-0.75
869.068	1.25
869.806	2.25
870.543	2.25
871.28	0.25
872.018	2.25
872.755	1.25
873.492	2.25
874.229	0.25
874.967	0.25
875.703	0.25
876.44	2.25
877.177	0.25
877.914	1.25
878.651	2.25
879.387	1.25
880.124	1.25
880.86	1.25
881.597	0.25
882.333	4.25
883.069	2.25
883.806	1.25
884.542	2.25
885.278	1.25
886.014	0.25
886.749	1.25
887.485	0.25
888.221	2.25
888.957	1.25
889.692	1.25
890.428	0.25
891.163	0.25
891.899	0.25
892.634	0.25
893.369	1.25
894.104	1.25
894.839	0.25
895.574	2.25
896.309	0.25
897.044	0.25
897.779	-1.75
898.514	-0.75
899.248	1.25
899.983	2.25
900.717	1.25
901.452	1.25
902.186	-2.75
902.92	0.25
903.654	-1.75
904.389	0.25
905.123	1.25
905.857	0.25
906.59	2.25
907.324	1.25
908.058	-0.75
908.792	1.25
909.525	1.25
910.259	-0.75
910.992	-0.75
911.726	2.25
912.459	-1.75
913.192	0.25
913.925	1.25
914.658	0.25
915.391	-0.75
916.124	-2.75
916.857	-0.75
917.59	-0.75
918.323	1.25
919.055	0.25
919.788	1.25
920.521	-0.75
921.253	0.25
921.985	0.25
922.718	-1.75
923.45	1.25
924.182	3.25
924.914	1.25
925.646	2.25
926.378	-0.75
927.11	0.25
927.841	-0.75
928.573	-0.75
929.305	1.25
930.036	2.25
930.768	0.25
931.499	-0.75
932.23	-0.75
932.962	1.25
933.693	2.25
934.424	0.25
935.155	0.25
935.886	2.25
936.617	-1.75
937.348	0.25
938.078	-0.75
938.809	0.25
939.54	1.25
940.27	-0.75
941.001	1.25
941.731	2.25
942.461	1.25
943.191	1.25
943.922	1.25
944.652	0.25
945.382	-0.75
946.112	1.25
946.841	-0.75
947.571	-0.75
948.301	0.25
949.031	-0.75
949.76	0.25
950.49	-0.75
951.219	0.25
951.948	0.25
952.678	0.25
953.407	0.25
954.136	1.25
954.865	0.25
955.594	2.25
956.323	0.25
957.052	-0.75
957.78	0.25
958.509	0.25
959.238	2.25
959.966	-0.75
960.695	2.25
961.423	0.25
962.151	0.25
962.88	0.25
963.608	0.25
964.336	0.25
965.064	2.25
965.792	2.25
966.52	0.25
967.247	-2.75
967.975	0.25
968.703	0.25
969.43	-0.75
970.158	0.25
970.885	3.25
971.613	-0.75
972.34	0.25
973.067	0.25
973.794	-0.75
974.521	0.25
975.248	-1.75
975.975	0.25
976.702	0.25
977.429	1.25
978.156	-1.75
978.882	1.25
979.609	1.25
980.335	-0.75
981.062	1.25
981.788	1.25
982.514	1.25
983.24	3.25
983.967	-0.75
984.693	0.25
985.419	1.25
986.144	0.25
986.87	-0.75
987.596	0.25
988.322	-1.75
989.047	-1.75
989.773	0.25
990.498	-1.75
991.224	1.25
991.949	1.25
992.674	-0.75
993.399	0.25
994.124	-0.75
994.849	0.25
995.574	0.25
996.299	-1.75
997.024	0.25
997.749	-0.75
998.473	1.25
999.198	-1.75
999.922	0.25
1000.647	-0.75
1001.371	3.25
1002.095	-0.75
1002.82	-0.75
1003.544	-1.75
1004.268	2.25
1004.992	2.25
1005.716	1.25
1006.439	2.25
1007.163	0.25
1007.887	2.25
1008.611	-0.75
1009.334	0.25
1010.058	0.25
1010.781	2.25
1011.504	-0.75
1012.228	-0.75
1012.951	-0.75
1013.674	-1.75
1014.397	0.25
1015.12	2.25
