节点500_425_QEPB04081__100__15-49-58-346.txt的数据

Date: Wed Nov 12 15:49:58 CST 2025
User: PC
Spectrometer: QEPB0408
触发模式: 0
积分时间 (秒): 1.000000E-2
Scans to average: 1
启用暗噪声校正: true
启用非线性校正: false
滑动平均宽度: 0
X轴模式: Wavelengths
Number of Pixels in Spectrum: 1044
>>>>>Begin Spectral Data<<<<<
220.843	2.12
221.644	3.12
222.444	4.12
223.244	2.12
224.045	4.12
224.845	4.12
225.645	5.12
226.445	5.12
227.245	3.12
228.045	4.12
228.845	4.12
229.645	4.12
230.444	3.12
231.244	6.12
232.043	8.12
232.843	7.12
233.642	8.12
234.442	8.12
235.241	6.12
236.04	3.12
236.839	6.12
237.638	7.12
238.437	5.12
239.236	6.12
240.035	6.12
240.833	10.12
241.632	9.12
242.43	8.12
243.229	8.12
244.027	10.12
244.826	9.12
245.624	8.12
246.422	8.12
247.22	9.12
248.018	8.12
248.816	10.12
249.614	10.12
250.412	12.12
251.21	12.12
252.007	11.12
252.805	8.12
253.602	9.12
254.4	11.12
255.197	10.12
255.994	13.12
256.791	13.12
257.589	13.12
258.386	14.12
259.183	15.12
259.979	14.12
260.776	17.12
261.573	18.12
262.37	16.12
263.166	17.12
263.963	18.12
264.759	17.12
265.556	18.12
266.352	19.12
267.148	19.12
267.944	19.12
268.74	18.12
269.536	18.12
270.332	25.12
271.128	24.12
271.924	21.12
272.719	23.12
273.515	23.12
274.311	24.12
275.106	24.12
275.901	25.12
276.697	26.12
277.492	26.12
278.287	23.12
279.082	26.12
279.877	29.12
280.672	25.12
281.467	24.12
282.262	23.12
283.056	26.12
283.851	24.12
284.646	29.12
285.44	28.12
286.234	28.12
287.029	25.12
287.823	25.12
288.617	24.12
289.411	22.12
290.205	27.12
290.999	25.12
291.793	28.12
292.587	24.12
293.381	22.12
294.174	25.12
294.968	24.12
295.761	21.12
296.555	20.12
297.348	21.12
298.141	22.12
298.935	22.12
299.728	21.12
300.521	18.12
301.314	21.12
302.107	14.12
302.899	17.12
303.692	16.12
304.485	16.12
305.277	16.12
306.07	15.12
306.862	18.12
307.655	14.12
308.447	16.12
309.239	17.12
310.031	14.12
310.823	14.12
311.615	13.12
312.407	10.12
313.199	12.12
313.991	14.12
314.783	11.12
315.574	10.12
316.366	11.12
317.157	9.12
317.949	8.12
318.74	10.12
319.531	12.12
320.322	10.12
321.113	8.12
321.904	10.12
322.695	13.12
323.486	7.12
324.277	12.12
325.068	10.12
325.858	10.12
326.649	9.12
327.439	8.12
328.23	9.12
329.02	7.12
329.81	12.12
330.6	10.12
331.391	8.12
332.181	9.12
332.971	8.12
333.76	10.12
334.55	9.12
335.34	9.12
336.13	10.12
336.919	9.12
337.709	9.12
338.498	9.12
339.287	7.12
340.077	9.12
340.866	8.12
341.655	9.12
342.444	8.12
343.233	7.12
344.022	8.12
344.811	7.12
345.6	8.12
346.388	9.12
347.177	6.12
347.965	7.12
348.754	8.12
349.542	7.12
350.33	9.12
351.119	8.12
351.907	5.12
352.695	8.12
353.483	8.12
354.271	8.12
355.059	6.12
355.846	9.12
356.634	7.12
357.422	8.12
358.209	8.12
358.997	6.12
359.784	6.12
360.571	7.12
361.359	6.12
362.146	7.12
362.933	7.12
363.72	9.12
364.507	7.12
365.294	6.12
366.081	5.12
366.867	8.12
367.654	8.12
368.44	6.12
369.227	5.12
370.013	7.12
370.8	6.12
371.586	9.12
372.372	7.12
373.158	6.12
373.944	5.12
374.73	8.12
375.516	6.12
376.302	7.12
377.088	7.12
377.873	8.12
378.659	8.12
379.445	8.12
380.23	6.12
381.015	8.12
381.801	4.12
382.586	8.12
383.371	6.12
384.156	8.12
384.941	9.12
385.726	5.12
386.511	8.12
387.296	6.12
388.08	7.12
388.865	9.12
389.649	7.12
390.434	8.12
391.218	9.12
392.003	9.12
392.787	8.12
393.571	8.12
394.355	10.12
395.139	10.12
395.923	10.12
396.707	10.12
397.491	10.12
398.274	8.12
399.058	10.12
399.842	12.12
400.625	9.12
401.408	11.12
402.192	10.12
402.975	9.12
403.758	10.12
404.541	11.12
405.324	8.12
406.107	9.12
406.89	12.12
407.673	13.12
408.456	12.12
409.238	12.12
410.021	9.12
410.803	9.12
411.586	12.12
412.368	12.12
413.151	13.12
413.933	14.12
414.715	12.12
415.497	14.12
416.279	14.12
417.061	13.12
417.843	12.12
418.624	14.12
419.406	13.12
420.188	14.12
420.969	14.12
421.751	13.12
422.532	16.12
423.313	14.12
424.095	18.12
424.876	18.12
425.657	16.12
426.438	19.12
427.219	16.12
428	17.12
428.78	18.12
429.561	20.12
430.342	21.12
431.122	18.12
431.903	22.12
432.683	21.12
433.464	23.12
434.244	23.12
435.024	27.12
435.804	23.12
436.584	27.12
437.364	27.12
438.144	28.12
438.924	29.12
439.704	30.12
440.483	31.12
441.263	34.12
442.042	36.12
442.822	42.12
443.601	44.12
444.38	45.12
445.16	46.12
445.939	50.12
446.718	53.12
447.497	63.12
448.276	66.12
449.054	69.12
449.833	76.12
450.612	82.12
451.391	90.12
452.169	98.12
452.948	108.12
453.726	121.12
454.504	127.12
455.282	145.12
456.061	158.12
456.839	178.12
457.617	202.12
458.395	221.12
459.172	250.12
459.95	267.12
460.728	300.12
461.506	333.12
462.283	376.12
463.061	416.12
463.838	472.12
464.615	526.12
465.393	594.12
466.17	658.12
466.947	736.12
467.724	813.12
468.501	917.12
469.278	1013.12
470.055	1122.12
470.831	1258.12
471.608	1396.12
472.385	1562.12
473.161	1746.12
473.938	1934.12
474.714	2148.12
475.49	2370.12
476.266	2609.12
477.043	2880.12
477.819	3226.12
478.595	3534.12
479.371	3900.12
480.146	4323.12
480.922	4741.12
481.698	5269.12
482.473	5763.12
483.249	6324.12
484.024	6978.12
484.8	7668.12
485.575	8438.12
486.35	9213.12
487.126	10064.12
487.901	10995.12
488.676	12084.12
489.451	13165.12
490.225	14280.12
491	15592.12
491.775	16900.12
492.55	18348.12
493.324	19713.12
494.099	21202.12
494.873	22613.12
495.647	24156.12
496.422	25653.12
497.196	27306.12
497.97	28904.12
498.744	30372.12
499.518	31729.12
500.292	33080.12
501.066	34056.12
501.839	35151.12
502.613	36002.12
503.387	36559.12
504.16	36971.12
504.934	37055.12
505.707	36999.12
506.48	36660.12
507.253	36144.12
508.027	35592.12
508.8	34910.12
509.573	33927.12
510.346	32848.12
511.118	31826.12
511.891	30715.12
512.664	29503.12
513.437	28262.12
514.209	26958.12
514.982	25963.12
515.754	24794.12
516.526	23749.12
517.298	22709.12
518.071	21709.12
518.843	20881.12
519.615	19984.12
520.387	19142.12
521.159	18445.12
521.93	17768.12
522.702	17040.12
523.474	16388.12
524.245	15686.12
525.017	14954.12
525.788	14282.12
526.56	13627.12
527.331	12958.12
528.102	12346.12
528.873	11721.12
529.644	11140.12
530.415	10608.12
531.186	10059.12
531.957	9517.12
532.728	9005.12
533.498	8494.12
534.269	7983.12
535.039	7581.12
535.81	7181.12
536.58	6741.12
537.351	6367.12
538.121	6010.12
538.891	5704.12
539.661	5400.12
540.431	5104.12
541.201	4856.12
541.971	4582.12
542.741	4351.12
543.51	4124.12
544.28	3940.12
545.05	3745.12
545.819	3559.12
546.588	3392.12
547.358	3200.12
548.127	3068.12
548.896	2886.12
549.665	2714.12
550.434	2587.12
551.203	2459.12
551.972	2326.12
552.741	2202.12
553.51	2076.12
554.278	1966.12
555.047	1832.12
555.815	1734.12
556.584	1651.12
557.352	1541.12
558.121	1453.12
558.889	1371.12
559.657	1307.12
560.425	1228.12
561.193	1162.12
561.961	1116.12
562.729	1036.12
563.496	984.12
564.264	940.12
565.032	887.12
565.799	840.12
566.567	777.12
567.334	736.12
568.101	706.12
568.869	662.12
569.636	628.12
570.403	585.12
571.17	554.12
571.937	530.12
572.704	497.12
573.471	469.12
574.237	443.12
575.004	413.12
575.771	391.12
576.537	368.12
577.303	340.12
578.07	327.12
578.836	315.12
579.602	291.12
580.368	283.12
581.134	262.12
581.9	250.12
582.666	238.12
583.432	224.12
584.198	218.12
584.964	196.12
585.729	193.12
586.495	182.12
587.26	175.12
588.025	168.12
588.791	154.12
589.556	146.12
590.321	141.12
591.086	134.12
591.851	129.12
592.616	119.12
593.381	115.12
594.146	106.12
594.911	103.12
595.675	99.12
596.44	94.12
597.204	92.12
597.969	87.12
598.733	82.12
599.497	82.12
600.261	74.12
601.025	76.12
601.79	68.12
602.553	67.12
603.317	67.12
604.081	62.12
604.845	58.12
605.609	57.12
606.372	53.12
607.136	51.12
607.899	49.12
608.662	47.12
609.426	48.12
610.189	45.12
610.952	41.12
611.715	43.12
612.478	38.12
613.241	39.12
614.004	36.12
614.767	36.12
615.529	33.12
616.292	34.12
617.055	34.12
617.817	30.12
618.579	31.12
619.342	27.12
620.104	31.12
620.866	26.12
621.628	27.12
622.39	26.12
623.152	23.12
623.914	26.12
624.676	22.12
625.438	21.12
626.199	22.12
626.961	20.12
627.722	20.12
628.484	20.12
629.245	17.12
630.006	21.12
630.768	18.12
631.529	17.12
632.29	15.12
633.051	18.12
633.812	16.12
634.573	16.12
635.333	15.12
636.094	15.12
636.855	15.12
637.615	13.12
638.376	14.12
639.136	12.12
639.896	13.12
640.657	17.12
641.417	12.12
642.177	12.12
642.937	11.12
643.697	10.12
644.457	12.12
645.216	10.12
645.976	11.12
646.736	10.12
647.495	8.12
648.255	11.12
649.014	10.12
649.774	9.12
650.533	8.12
651.292	9.12
652.051	7.12
652.81	7.12
653.569	8.12
654.328	8.12
655.087	10.12
655.846	8.12
656.604	10.12
657.363	7.12
658.121	8.12
658.88	8.12
659.638	7.12
660.397	8.12
661.155	8.12
661.913	5.12
662.671	8.12
663.429	6.12
664.187	7.12
664.945	7.12
665.703	8.12
666.46	8.12
667.218	6.12
667.976	8.12
668.733	5.12
669.49	7.12
670.248	6.12
671.005	7.12
671.762	8.12
672.519	4.12
673.276	7.12
674.033	8.12
674.79	8.12
675.547	7.12
676.304	5.12
677.06	5.12
677.817	5.12
678.574	6.12
679.33	7.12
680.086	5.12
680.843	5.12
681.599	5.12
682.355	4.12
683.111	5.12
683.867	5.12
684.623	5.12
685.379	5.12
686.135	5.12
686.89	3.12
687.646	6.12
688.402	4.12
689.157	6.12
689.912	6.12
690.668	3.12
691.423	4.12
692.178	7.12
692.933	4.12
693.688	5.12
694.443	6.12
695.198	4.12
695.953	2.12
696.708	5.12
697.462	3.12
698.217	5.12
698.972	4.12
699.726	4.12
700.48	6.12
701.235	2.12
701.989	5.12
702.743	6.12
703.497	4.12
704.251	6.12
705.005	5.12
705.759	4.12
706.513	7.12
707.266	7.12
708.02	6.12
708.774	2.12
709.527	9.12
710.28	5.12
711.034	3.12
711.787	6.12
712.54	6.12
713.293	5.12
714.046	-0.88
714.799	5.12
715.552	4.12
716.305	6.12
717.058	7.12
717.81	5.12
718.563	8.12
719.315	3.12
720.068	4.12
720.82	4.12
721.573	5.12
722.325	8.12
723.077	4.12
723.829	5.12
724.581	4.12
725.333	5.12
726.085	7.12
726.836	5.12
727.588	7.12
728.34	3.12
729.091	5.12
729.843	5.12
730.594	4.12
731.346	4.12
732.097	8.12
732.848	4.12
733.599	6.12
734.35	6.12
735.101	4.12
735.852	5.12
736.603	8.12
737.354	8.12
738.104	7.12
738.855	6.12
739.605	5.12
740.356	7.12
741.106	5.12
741.856	6.12
742.607	8.12
743.357	7.12
744.107	7.12
744.857	5.12
745.607	7.12
746.357	6.12
747.106	7.12
747.856	4.12
748.606	7.12
749.355	7.12
750.105	5.12
750.854	7.12
751.603	8.12
752.353	9.12
753.102	8.12
753.851	6.12
754.6	10.12
755.349	6.12
756.098	10.12
756.847	10.12
757.595	8.12
758.344	8.12
759.093	7.12
759.841	11.12
760.589	10.12
761.338	12.12
762.086	9.12
762.834	9.12
763.582	9.12
764.331	11.12
765.079	10.12
765.826	10.12
766.574	7.12
767.322	10.12
768.07	8.12
768.817	12.12
769.565	9.12
770.312	12.12
771.06	11.12
771.807	10.12
772.554	12.12
773.302	12.12
774.049	9.12
774.796	13.12
775.543	11.12
776.29	13.12
777.036	11.12
777.783	12.12
778.53	10.12
779.276	10.12
780.023	10.12
780.769	11.12
781.516	13.12
782.262	13.12
783.008	12.12
783.754	13.12
784.5	13.12
785.246	11.12
785.992	10.12
786.738	15.12
787.484	9.12
788.23	15.12
788.975	10.12
789.721	11.12
790.466	12.12
791.212	9.12
791.957	11.12
792.702	10.12
793.447	12.12
794.193	9.12
794.938	10.12
795.683	13.12
796.427	11.12
797.172	12.12
797.917	9.12
798.662	12.12
799.406	6.12
800.151	8.12
800.895	10.12
801.64	7.12
802.384	11.12
803.128	10.12
803.872	8.12
804.616	8.12
805.36	9.12
806.104	9.12
806.848	5.12
807.592	6.12
808.336	6.12
809.079	8.12
809.823	7.12
810.566	7.12
811.31	7.12
812.053	9.12
812.796	6.12
813.539	9.12
814.283	6.12
815.026	7.12
815.769	6.12
816.511	7.12
817.254	5.12
817.997	6.12
818.74	7.12
819.482	6.12
820.225	8.12
820.967	5.12
821.71	6.12
822.452	7.12
823.194	5.12
823.936	6.12
824.678	7.12
825.42	6.12
826.162	5.12
826.904	6.12
827.646	5.12
828.388	7.12
829.129	7.12
829.871	2.12
830.612	5.12
831.354	3.12
832.095	5.12
832.836	5.12
833.577	5.12
834.319	5.12
835.06	5.12
835.801	6.12
836.542	4.12
837.282	4.12
838.023	5.12
838.764	1.12
839.504	4.12
840.245	5.12
840.985	5.12
841.726	2.12
842.466	3.12
843.206	4.12
843.946	1.12
844.687	3.12
845.427	4.12
846.166	2.12
846.906	3.12
847.646	3.12
848.386	3.12
849.125	3.12
849.865	0.12
850.605	3.12
851.344	4.12
852.083	4.12
852.823	2.12
853.562	3.12
854.301	3.12
855.04	2.12
855.779	4.12
856.518	1.12
857.257	4.12
857.995	3.12
858.734	2.12
859.473	4.12
860.211	2.12
860.95	2.12
861.688	3.12
862.426	5.12
863.165	2.12
863.903	2.12
864.641	2.12
865.379	0.12
866.117	2.12
866.855	3.12
867.593	4.12
868.33	2.12
869.068	2.12
869.806	4.12
870.543	0.12
871.28	3.12
872.018	1.12
872.755	1.12
873.492	2.12
874.229	1.12
874.967	1.12
875.703	3.12
876.44	-0.88
877.177	1.12
877.914	1.12
878.651	1.12
879.387	0.12
880.124	2.12
880.86	2.12
881.597	1.12
882.333	2.12
883.069	2.12
883.806	2.12
884.542	1.12
885.278	1.12
886.014	1.12
886.749	-2.88
887.485	2.12
888.221	2.12
888.957	2.12
889.692	2.12
890.428	0.12
891.163	1.12
891.899	1.12
892.634	1.12
893.369	1.12
894.104	1.12
894.839	0.12
895.574	0.12
896.309	0.12
897.044	1.12
897.779	1.12
898.514	2.12
899.248	1.12
899.983	1.12
900.717	0.12
901.452	1.12
902.186	0.12
902.92	0.12
903.654	0.12
904.389	2.12
905.123	2.12
905.857	0.12
906.59	1.12
907.324	2.12
908.058	0.12
908.792	1.12
909.525	-0.88
910.259	2.12
910.992	-0.88
911.726	1.12
912.459	0.12
913.192	1.12
913.925	3.12
914.658	0.12
915.391	0.12
916.124	1.12
916.857	-0.88
917.59	-0.88
918.323	1.12
919.055	1.12
919.788	0.12
920.521	1.12
921.253	0.12
921.985	0.12
922.718	-0.88
923.45	0.12
924.182	1.12
924.914	0.12
925.646	1.12
926.378	-1.88
927.11	-2.88
927.841	-1.88
928.573	-2.88
929.305	-0.88
930.036	0.12
930.768	2.12
931.499	-0.88
932.23	-1.88
932.962	0.12
933.693	-0.88
934.424	3.12
935.155	0.12
935.886	-0.88
936.617	2.12
937.348	0.12
938.078	-0.88
938.809	-0.88
939.54	0.12
940.27	1.12
941.001	0.12
941.731	0.12
942.461	0.12
943.191	0.12
943.922	-0.88
944.652	-0.88
945.382	1.12
946.112	-0.88
946.841	-0.88
947.571	0.12
948.301	-1.88
949.031	0.12
949.76	0.12
950.49	0.12
951.219	-0.88
951.948	1.12
952.678	0.12
953.407	1.12
954.136	0.12
954.865	0.12
955.594	1.12
956.323	2.12
957.052	0.12
957.78	0.12
958.509	1.12
959.238	-0.88
959.966	-0.88
960.695	1.12
961.423	1.12
962.151	1.12
962.88	0.12
963.608	-1.88
964.336	3.12
965.064	0.12
965.792	1.12
966.52	0.12
967.247	0.12
967.975	0.12
968.703	3.12
969.43	0.12
970.158	-0.88
970.885	0.12
971.613	0.12
972.34	-0.88
973.067	0.12
973.794	2.12
974.521	0.12
975.248	1.12
975.975	-0.88
976.702	1.12
977.429	0.12
978.156	0.12
978.882	-0.88
979.609	0.12
980.335	2.12
981.062	1.12
981.788	1.12
982.514	-1.88
983.24	3.12
983.967	-1.88
984.693	0.12
985.419	0.12
986.144	-0.88
986.87	1.12
987.596	2.12
988.322	1.12
989.047	0.12
989.773	-1.88
990.498	1.12
991.224	2.12
991.949	0.12
992.674	0.12
993.399	-0.88
994.124	2.12
994.849	-0.88
995.574	2.12
996.299	2.12
997.024	1.12
997.749	2.12
998.473	1.12
999.198	1.12
999.922	0.12
1000.647	2.12
1001.371	2.12
1002.095	-1.88
1002.82	-0.88
1003.544	-0.88
1004.268	2.12
1004.992	4.12
1005.716	3.12
1006.439	5.12
1007.163	2.12
1007.887	4.12
1008.611	2.12
1009.334	0.12
1010.058	0.12
1010.781	0.12
1011.504	1.12
1012.228	2.12
1012.951	0.12
1013.674	0.12
1014.397	0.12
1015.12	1.12
