节点500_425_QEPB04081__555__15-57-32-498.txt的数据

Date: Wed Nov 12 15:57:32 CST 2025
User: PC
Spectrometer: QEPB0408
触发模式: 0
积分时间 (秒): 1.000000E-2
Scans to average: 1
启用暗噪声校正: true
启用非线性校正: false
滑动平均宽度: 0
X轴模式: Wavelengths
Number of Pixels in Spectrum: 1044
>>>>>Begin Spectral Data<<<<<
220.843	2.12
221.644	1.12
222.444	2.12
223.244	2.12
224.045	4.12
224.845	3.12
225.645	4.12
226.445	2.12
227.245	4.12
228.045	6.12
228.845	5.12
229.645	4.12
230.444	2.12
231.244	5.12
232.043	5.12
232.843	5.12
233.642	4.12
234.442	3.12
235.241	5.12
236.04	4.12
236.839	6.12
237.638	8.12
238.437	7.12
239.236	6.12
240.035	4.12
240.833	9.12
241.632	6.12
242.43	6.12
243.229	6.12
244.027	5.12
244.826	6.12
245.624	6.12
246.422	6.12
247.22	8.12
248.018	8.12
248.816	10.12
249.614	7.12
250.412	9.12
251.21	8.12
252.007	9.12
252.805	12.12
253.602	11.12
254.4	10.12
255.197	8.12
255.994	12.12
256.791	12.12
257.589	12.12
258.386	10.12
259.183	11.12
259.979	12.12
260.776	10.12
261.573	14.12
262.37	14.12
263.166	14.12
263.963	15.12
264.759	14.12
265.556	13.12
266.352	17.12
267.148	16.12
267.944	14.12
268.74	17.12
269.536	18.12
270.332	17.12
271.128	22.12
271.924	20.12
272.719	18.12
273.515	23.12
274.311	20.12
275.106	20.12
275.901	23.12
276.697	20.12
277.492	22.12
278.287	19.12
279.082	21.12
279.877	23.12
280.672	21.12
281.467	21.12
282.262	23.12
283.056	21.12
283.851	24.12
284.646	20.12
285.44	23.12
286.234	23.12
287.029	23.12
287.823	22.12
288.617	20.12
289.411	23.12
290.205	22.12
290.999	19.12
291.793	20.12
292.587	23.12
293.381	21.12
294.174	22.12
294.968	22.12
295.761	21.12
296.555	18.12
297.348	18.12
298.141	19.12
298.935	21.12
299.728	17.12
300.521	17.12
301.314	18.12
302.107	18.12
302.899	16.12
303.692	15.12
304.485	16.12
305.277	17.12
306.07	17.12
306.862	15.12
307.655	18.12
308.447	12.12
309.239	14.12
310.031	13.12
310.823	12.12
311.615	14.12
312.407	14.12
313.199	13.12
313.991	13.12
314.783	14.12
315.574	10.12
316.366	13.12
317.157	11.12
317.949	10.12
318.74	10.12
319.531	12.12
320.322	10.12
321.113	12.12
321.904	9.12
322.695	8.12
323.486	10.12
324.277	10.12
325.068	8.12
325.858	8.12
326.649	7.12
327.439	9.12
328.23	10.12
329.02	10.12
329.81	7.12
330.6	10.12
331.391	9.12
332.181	9.12
332.971	9.12
333.76	10.12
334.55	8.12
335.34	10.12
336.13	10.12
336.919	8.12
337.709	7.12
338.498	8.12
339.287	7.12
340.077	9.12
340.866	8.12
341.655	8.12
342.444	7.12
343.233	10.12
344.022	10.12
344.811	8.12
345.6	9.12
346.388	8.12
347.177	4.12
347.965	7.12
348.754	7.12
349.542	8.12
350.33	9.12
351.119	8.12
351.907	9.12
352.695	6.12
353.483	8.12
354.271	7.12
355.059	9.12
355.846	6.12
356.634	6.12
357.422	6.12
358.209	5.12
358.997	9.12
359.784	5.12
360.571	7.12
361.359	7.12
362.146	7.12
362.933	6.12
363.72	6.12
364.507	6.12
365.294	7.12
366.081	5.12
366.867	6.12
367.654	6.12
368.44	8.12
369.227	7.12
370.013	6.12
370.8	8.12
371.586	5.12
372.372	8.12
373.158	8.12
373.944	8.12
374.73	7.12
375.516	6.12
376.302	6.12
377.088	7.12
377.873	6.12
378.659	8.12
379.445	7.12
380.23	6.12
381.015	7.12
381.801	8.12
382.586	6.12
383.371	7.12
384.156	8.12
384.941	8.12
385.726	7.12
386.511	5.12
387.296	7.12
388.08	5.12
388.865	11.12
389.649	7.12
390.434	7.12
391.218	8.12
392.003	9.12
392.787	10.12
393.571	6.12
394.355	7.12
395.139	8.12
395.923	10.12
396.707	9.12
397.491	6.12
398.274	8.12
399.058	9.12
399.842	7.12
400.625	8.12
401.408	9.12
402.192	10.12
402.975	8.12
403.758	7.12
404.541	8.12
405.324	9.12
406.107	12.12
406.89	11.12
407.673	8.12
408.456	11.12
409.238	9.12
410.021	9.12
410.803	10.12
411.586	11.12
412.368	14.12
413.151	13.12
413.933	10.12
414.715	9.12
415.497	13.12
416.279	10.12
417.061	11.12
417.843	11.12
418.624	14.12
419.406	11.12
420.188	14.12
420.969	14.12
421.751	14.12
422.532	12.12
423.313	17.12
424.095	15.12
424.876	16.12
425.657	16.12
426.438	19.12
427.219	17.12
428	18.12
428.78	18.12
429.561	16.12
430.342	19.12
431.122	20.12
431.903	19.12
432.683	21.12
433.464	21.12
434.244	21.12
435.024	22.12
435.804	24.12
436.584	30.12
437.364	28.12
438.144	29.12
438.924	29.12
439.704	34.12
440.483	35.12
441.263	39.12
442.042	40.12
442.822	42.12
443.601	46.12
444.38	46.12
445.16	50.12
445.939	54.12
446.718	57.12
447.497	66.12
448.276	68.12
449.054	78.12
449.833	90.12
450.612	94.12
451.391	101.12
452.169	112.12
452.948	125.12
453.726	139.12
454.504	150.12
455.282	161.12
456.061	183.12
456.839	205.12
457.617	228.12
458.395	254.12
459.172	286.12
459.95	318.12
460.728	342.12
461.506	383.12
462.283	432.12
463.061	476.12
463.838	535.12
464.615	605.12
465.393	659.12
466.17	734.12
466.947	818.12
467.724	894.12
468.501	992.12
469.278	1103.12
470.055	1205.12
470.831	1347.12
471.608	1474.12
472.385	1632.12
473.161	1793.12
473.938	1976.12
474.714	2182.12
475.49	2387.12
476.266	2602.12
477.043	2830.12
477.819	3114.12
478.595	3398.12
479.371	3728.12
480.146	4063.12
480.922	4408.12
481.698	4824.12
482.473	5252.12
483.249	5705.12
484.024	6262.12
484.8	6778.12
485.575	7344.12
486.35	7954.12
487.126	8637.12
487.901	9365.12
488.676	10191.12
489.451	10969.12
490.225	11846.12
491	12800.12
491.775	13827.12
492.55	14856.12
493.324	16009.12
494.099	17137.12
494.873	18180.12
495.647	19421.12
496.422	20587.12
497.196	21834.12
497.97	23280.12
498.744	24562.12
499.518	25768.12
500.292	26884.12
501.066	28036.12
501.839	29181.12
502.613	30100.12
503.387	30888.12
504.16	31543.12
504.934	32078.12
505.707	32426.12
506.48	32515.12
507.253	32490.12
508.027	32444.12
508.8	32314.12
509.573	31762.12
510.346	31304.12
511.118	30520.12
511.891	29840.12
512.664	29005.12
513.437	27998.12
514.209	27064.12
514.982	26157.12
515.754	25206.12
516.526	24244.12
517.298	23230.12
518.071	22338.12
518.843	21386.12
519.615	20537.12
520.387	19728.12
521.159	19028.12
521.93	18289.12
522.702	17527.12
523.474	16852.12
524.245	16261.12
525.017	15494.12
525.788	14820.12
526.56	14173.12
527.331	13564.12
528.102	12993.12
528.873	12415.12
529.644	11809.12
530.415	11332.12
531.186	10850.12
531.957	10340.12
532.728	9739.12
533.498	9219.12
534.269	8757.12
535.039	8299.12
535.81	7877.12
536.58	7412.12
537.351	6975.12
538.121	6652.12
538.891	6259.12
539.661	5966.12
540.431	5660.12
541.201	5369.12
541.971	5078.12
542.741	4800.12
543.51	4561.12
544.28	4348.12
545.05	4130.12
545.819	3961.12
546.588	3735.12
547.358	3549.12
548.127	3369.12
548.896	3193.12
549.665	3049.12
550.434	2890.12
551.203	2740.12
551.972	2599.12
552.741	2464.12
553.51	2312.12
554.278	2203.12
555.047	2075.12
555.815	1973.12
556.584	1859.12
557.352	1753.12
558.121	1657.12
558.889	1581.12
559.657	1484.12
560.425	1414.12
561.193	1320.12
561.961	1244.12
562.729	1166.12
563.496	1133.12
564.264	1062.12
565.032	999.12
565.799	958.12
566.567	899.12
567.334	847.12
568.101	805.12
568.869	753.12
569.636	711.12
570.403	667.12
571.17	626.12
571.937	598.12
572.704	575.12
573.471	535.12
574.237	500.12
575.004	474.12
575.771	444.12
576.537	424.12
577.303	396.12
578.07	372.12
578.836	350.12
579.602	337.12
580.368	322.12
581.134	302.12
581.9	291.12
582.666	276.12
583.432	254.12
584.198	246.12
584.964	230.12
585.729	219.12
586.495	204.12
587.26	195.12
588.025	190.12
588.791	180.12
589.556	167.12
590.321	161.12
591.086	149.12
591.851	142.12
592.616	135.12
593.381	130.12
594.146	132.12
594.911	112.12
595.675	113.12
596.44	106.12
597.204	100.12
597.969	97.12
598.733	94.12
599.497	92.12
600.261	84.12
601.025	77.12
601.79	78.12
602.553	70.12
603.317	70.12
604.081	68.12
604.845	68.12
605.609	65.12
606.372	57.12
607.136	58.12
607.899	52.12
608.662	55.12
609.426	51.12
610.189	47.12
610.952	45.12
611.715	45.12
612.478	44.12
613.241	44.12
614.004	41.12
614.767	39.12
615.529	38.12
616.292	34.12
617.055	32.12
617.817	32.12
618.579	32.12
619.342	33.12
620.104	31.12
620.866	29.12
621.628	32.12
622.39	28.12
623.152	27.12
623.914	26.12
624.676	25.12
625.438	27.12
626.199	23.12
626.961	22.12
627.722	19.12
628.484	20.12
629.245	20.12
630.006	20.12
630.768	19.12
631.529	18.12
632.29	16.12
633.051	15.12
633.812	18.12
634.573	16.12
635.333	17.12
636.094	18.12
636.855	18.12
637.615	15.12
638.376	15.12
639.136	12.12
639.896	15.12
640.657	14.12
641.417	13.12
642.177	14.12
642.937	12.12
643.697	11.12
644.457	10.12
645.216	10.12
645.976	12.12
646.736	9.12
647.495	10.12
648.255	8.12
649.014	11.12
649.774	9.12
650.533	11.12
651.292	9.12
652.051	8.12
652.81	9.12
653.569	8.12
654.328	10.12
655.087	9.12
655.846	8.12
656.604	9.12
657.363	7.12
658.121	11.12
658.88	8.12
659.638	8.12
660.397	7.12
661.155	8.12
661.913	7.12
662.671	9.12
663.429	8.12
664.187	6.12
664.945	8.12
665.703	7.12
666.46	6.12
667.218	8.12
667.976	5.12
668.733	7.12
669.49	6.12
670.248	5.12
671.005	8.12
671.762	5.12
672.519	6.12
673.276	7.12
674.033	8.12
674.79	6.12
675.547	5.12
676.304	4.12
677.06	4.12
677.817	6.12
678.574	6.12
679.33	4.12
680.086	6.12
680.843	2.12
681.599	6.12
682.355	7.12
683.111	7.12
683.867	2.12
684.623	5.12
685.379	8.12
686.135	5.12
686.89	5.12
687.646	6.12
688.402	7.12
689.157	6.12
689.912	4.12
690.668	4.12
691.423	4.12
692.178	6.12
692.933	6.12
693.688	5.12
694.443	6.12
695.198	4.12
695.953	5.12
696.708	6.12
697.462	5.12
698.217	3.12
698.972	5.12
699.726	4.12
700.48	5.12
701.235	6.12
701.989	5.12
702.743	2.12
703.497	7.12
704.251	4.12
705.005	2.12
705.759	6.12
706.513	6.12
707.266	4.12
708.02	7.12
708.774	4.12
709.527	6.12
710.28	6.12
711.034	5.12
711.787	3.12
712.54	6.12
713.293	1.12
714.046	4.12
714.799	5.12
715.552	3.12
716.305	4.12
717.058	5.12
717.81	3.12
718.563	3.12
719.315	6.12
720.068	2.12
720.82	6.12
721.573	8.12
722.325	2.12
723.077	5.12
723.829	4.12
724.581	4.12
725.333	4.12
726.085	5.12
726.836	4.12
727.588	6.12
728.34	4.12
729.091	6.12
729.843	4.12
730.594	6.12
731.346	7.12
732.097	5.12
732.848	5.12
733.599	5.12
734.35	5.12
735.101	3.12
735.852	6.12
736.603	3.12
737.354	6.12
738.104	5.12
738.855	4.12
739.605	6.12
740.356	4.12
741.106	7.12
741.856	4.12
742.607	6.12
743.357	5.12
744.107	4.12
744.857	7.12
745.607	5.12
746.357	8.12
747.106	7.12
747.856	6.12
748.606	7.12
749.355	8.12
750.105	5.12
750.854	7.12
751.603	7.12
752.353	8.12
753.102	7.12
753.851	7.12
754.6	7.12
755.349	6.12
756.098	7.12
756.847	9.12
757.595	6.12
758.344	5.12
759.093	7.12
759.841	8.12
760.589	9.12
761.338	4.12
762.086	7.12
762.834	8.12
763.582	8.12
764.331	8.12
765.079	7.12
765.826	9.12
766.574	9.12
767.322	7.12
768.07	9.12
768.817	10.12
769.565	7.12
770.312	9.12
771.06	9.12
771.807	9.12
772.554	7.12
773.302	10.12
774.049	8.12
774.796	10.12
775.543	8.12
776.29	6.12
777.036	11.12
777.783	12.12
778.53	9.12
779.276	10.12
780.023	9.12
780.769	11.12
781.516	11.12
782.262	10.12
783.008	11.12
783.754	11.12
784.5	8.12
785.246	10.12
785.992	11.12
786.738	10.12
787.484	11.12
788.23	9.12
788.975	10.12
789.721	12.12
790.466	10.12
791.212	11.12
791.957	7.12
792.702	11.12
793.447	9.12
794.193	9.12
794.938	8.12
795.683	12.12
796.427	11.12
797.172	12.12
797.917	7.12
798.662	7.12
799.406	8.12
800.151	9.12
800.895	9.12
801.64	7.12
802.384	7.12
803.128	8.12
803.872	9.12
804.616	9.12
805.36	9.12
806.104	6.12
806.848	6.12
807.592	9.12
808.336	6.12
809.079	8.12
809.823	8.12
810.566	6.12
811.31	8.12
812.053	7.12
812.796	6.12
813.539	7.12
814.283	6.12
815.026	5.12
815.769	5.12
816.511	5.12
817.254	6.12
817.997	6.12
818.74	6.12
819.482	7.12
820.225	6.12
820.967	4.12
821.71	4.12
822.452	5.12
823.194	6.12
823.936	4.12
824.678	2.12
825.42	6.12
826.162	3.12
826.904	5.12
827.646	7.12
828.388	6.12
829.129	5.12
829.871	4.12
830.612	6.12
831.354	4.12
832.095	5.12
832.836	3.12
833.577	6.12
834.319	6.12
835.06	6.12
835.801	4.12
836.542	6.12
837.282	4.12
838.023	3.12
838.764	2.12
839.504	3.12
840.245	2.12
840.985	3.12
841.726	3.12
842.466	2.12
843.206	3.12
843.946	2.12
844.687	4.12
845.427	4.12
846.166	3.12
846.906	1.12
847.646	2.12
848.386	5.12
849.125	5.12
849.865	3.12
850.605	3.12
851.344	4.12
852.083	3.12
852.823	3.12
853.562	2.12
854.301	5.12
855.04	2.12
855.779	4.12
856.518	4.12
857.257	2.12
857.995	4.12
858.734	3.12
859.473	3.12
860.211	2.12
860.95	1.12
861.688	2.12
862.426	2.12
863.165	3.12
863.903	2.12
864.641	1.12
865.379	1.12
866.117	-1.88
866.855	-0.88
867.593	2.12
868.33	4.12
869.068	1.12
869.806	3.12
870.543	2.12
871.28	3.12
872.018	2.12
872.755	0.12
873.492	2.12
874.229	2.12
874.967	1.12
875.703	1.12
876.44	1.12
877.177	2.12
877.914	2.12
878.651	2.12
879.387	0.12
880.124	2.12
880.86	2.12
881.597	2.12
882.333	2.12
883.069	0.12
883.806	0.12
884.542	2.12
885.278	4.12
886.014	2.12
886.749	3.12
887.485	3.12
888.221	1.12
888.957	0.12
889.692	2.12
890.428	0.12
891.163	1.12
891.899	1.12
892.634	2.12
893.369	2.12
894.104	0.12
894.839	0.12
895.574	1.12
896.309	2.12
897.044	2.12
897.779	0.12
898.514	0.12
899.248	0.12
899.983	0.12
900.717	-0.88
901.452	1.12
902.186	2.12
902.92	-0.88
903.654	2.12
904.389	0.12
905.123	0.12
905.857	1.12
906.59	1.12
907.324	0.12
908.058	-0.88
908.792	0.12
909.525	3.12
910.259	-0.88
910.992	-0.88
911.726	0.12
912.459	2.12
913.192	1.12
913.925	1.12
914.658	0.12
915.391	1.12
916.124	1.12
916.857	-0.88
917.59	0.12
918.323	-0.88
919.055	0.12
919.788	-1.88
920.521	-0.88
921.253	1.12
921.985	1.12
922.718	2.12
923.45	-0.88
924.182	0.12
924.914	1.12
925.646	1.12
926.378	0.12
927.11	0.12
927.841	-0.88
928.573	1.12
929.305	0.12
930.036	0.12
930.768	-1.88
931.499	2.12
932.23	-2.88
932.962	3.12
933.693	0.12
934.424	0.12
935.155	0.12
935.886	-1.88
936.617	0.12
937.348	-0.88
938.078	0.12
938.809	0.12
939.54	0.12
940.27	3.12
941.001	-0.88
941.731	2.12
942.461	2.12
943.191	-1.88
943.922	-0.88
944.652	-1.88
945.382	0.12
946.112	2.12
946.841	0.12
947.571	-0.88
948.301	1.12
949.031	0.12
949.76	0.12
950.49	-0.88
951.219	0.12
951.948	-0.88
952.678	0.12
953.407	1.12
954.136	1.12
954.865	0.12
955.594	-0.88
956.323	-1.88
957.052	0.12
957.78	1.12
958.509	-0.88
959.238	3.12
959.966	-0.88
960.695	0.12
961.423	2.12
962.151	-0.88
962.88	1.12
963.608	-0.88
964.336	1.12
965.064	1.12
965.792	2.12
966.52	2.12
967.247	0.12
967.975	2.12
968.703	0.12
969.43	1.12
970.158	1.12
970.885	-0.88
971.613	0.12
972.34	0.12
973.067	0.12
973.794	1.12
974.521	1.12
975.248	0.12
975.975	0.12
976.702	2.12
977.429	2.12
978.156	0.12
978.882	0.12
979.609	-0.88
980.335	0.12
981.062	1.12
981.788	-0.88
982.514	-0.88
983.24	-0.88
983.967	1.12
984.693	-1.88
985.419	1.12
986.144	-1.88
986.87	-1.88
987.596	1.12
988.322	0.12
989.047	-0.88
989.773	-0.88
990.498	-1.88
991.224	-0.88
991.949	0.12
992.674	-0.88
993.399	1.12
994.124	-1.88
994.849	-0.88
995.574	1.12
996.299	1.12
997.024	1.12
997.749	0.12
998.473	-0.88
999.198	-1.88
999.922	-0.88
1000.647	0.12
1001.371	4.12
1002.095	-1.88
1002.82	-0.88
1003.544	0.12
1004.268	4.12
1004.992	-0.88
1005.716	2.12
1006.439	2.12
1007.163	2.12
1007.887	2.12
1008.611	2.12
1009.334	1.12
1010.058	1.12
1010.781	-0.88
1011.504	1.12
1012.228	0.12
1012.951	0.12
1013.674	-1.88
1014.397	-1.88
1015.12	2.12
