节点500_425_QEPB04081__416__15-55-13-679.txt的数据

Date: Wed Nov 12 15:55:13 CST 2025
User: PC
Spectrometer: QEPB0408
触发模式: 0
积分时间 (秒): 1.000000E-2
Scans to average: 1
启用暗噪声校正: true
启用非线性校正: false
滑动平均宽度: 0
X轴模式: Wavelengths
Number of Pixels in Spectrum: 1044
>>>>>Begin Spectral Data<<<<<
220.843	1.5
221.644	1.5
222.444	2.5
223.244	0.5
224.045	2.5
224.845	2.5
225.645	1.5
226.445	1.5
227.245	1.5
228.045	2.5
228.845	3.5
229.645	3.5
230.444	3.5
231.244	2.5
232.043	4.5
232.843	1.5
233.642	5.5
234.442	6.5
235.241	5.5
236.04	5.5
236.839	5.5
237.638	7.5
238.437	4.5
239.236	8.5
240.035	4.5
240.833	5.5
241.632	4.5
242.43	6.5
243.229	4.5
244.027	6.5
244.826	6.5
245.624	8.5
246.422	7.5
247.22	7.5
248.018	7.5
248.816	9.5
249.614	7.5
250.412	6.5
251.21	10.5
252.007	9.5
252.805	7.5
253.602	9.5
254.4	8.5
255.197	10.5
255.994	11.5
256.791	11.5
257.589	9.5
258.386	12.5
259.183	13.5
259.979	11.5
260.776	13.5
261.573	15.5
262.37	15.5
263.166	14.5
263.963	15.5
264.759	12.5
265.556	16.5
266.352	18.5
267.148	17.5
267.944	19.5
268.74	17.5
269.536	19.5
270.332	16.5
271.128	19.5
271.924	20.5
272.719	17.5
273.515	19.5
274.311	22.5
275.106	20.5
275.901	19.5
276.697	21.5
277.492	20.5
278.287	20.5
279.082	22.5
279.877	23.5
280.672	23.5
281.467	19.5
282.262	21.5
283.056	21.5
283.851	24.5
284.646	23.5
285.44	25.5
286.234	24.5
287.029	24.5
287.823	23.5
288.617	24.5
289.411	20.5
290.205	23.5
290.999	23.5
291.793	21.5
292.587	21.5
293.381	22.5
294.174	19.5
294.968	19.5
295.761	17.5
296.555	18.5
297.348	16.5
298.141	18.5
298.935	19.5
299.728	18.5
300.521	21.5
301.314	18.5
302.107	15.5
302.899	16.5
303.692	15.5
304.485	14.5
305.277	15.5
306.07	13.5
306.862	15.5
307.655	14.5
308.447	12.5
309.239	12.5
310.031	15.5
310.823	15.5
311.615	12.5
312.407	13.5
313.199	11.5
313.991	12.5
314.783	11.5
315.574	11.5
316.366	7.5
317.157	10.5
317.949	10.5
318.74	9.5
319.531	10.5
320.322	9.5
321.113	8.5
321.904	7.5
322.695	7.5
323.486	9.5
324.277	8.5
325.068	9.5
325.858	8.5
326.649	7.5
327.439	7.5
328.23	7.5
329.02	9.5
329.81	6.5
330.6	7.5
331.391	7.5
332.181	7.5
332.971	7.5
333.76	8.5
334.55	6.5
335.34	8.5
336.13	5.5
336.919	9.5
337.709	8.5
338.498	6.5
339.287	8.5
340.077	8.5
340.866	6.5
341.655	6.5
342.444	7.5
343.233	5.5
344.022	6.5
344.811	8.5
345.6	7.5
346.388	3.5
347.177	7.5
347.965	7.5
348.754	5.5
349.542	7.5
350.33	7.5
351.119	7.5
351.907	5.5
352.695	6.5
353.483	8.5
354.271	6.5
355.059	7.5
355.846	6.5
356.634	5.5
357.422	6.5
358.209	6.5
358.997	10.5
359.784	7.5
360.571	6.5
361.359	6.5
362.146	5.5
362.933	8.5
363.72	4.5
364.507	6.5
365.294	5.5
366.081	2.5
366.867	5.5
367.654	6.5
368.44	5.5
369.227	3.5
370.013	5.5
370.8	8.5
371.586	7.5
372.372	3.5
373.158	3.5
373.944	4.5
374.73	3.5
375.516	6.5
376.302	7.5
377.088	3.5
377.873	8.5
378.659	7.5
379.445	7.5
380.23	6.5
381.015	5.5
381.801	7.5
382.586	7.5
383.371	7.5
384.156	7.5
384.941	5.5
385.726	7.5
386.511	6.5
387.296	7.5
388.08	6.5
388.865	8.5
389.649	7.5
390.434	4.5
391.218	8.5
392.003	5.5
392.787	7.5
393.571	6.5
394.355	7.5
395.139	7.5
395.923	9.5
396.707	6.5
397.491	7.5
398.274	9.5
399.058	9.5
399.842	8.5
400.625	8.5
401.408	6.5
402.192	8.5
402.975	10.5
403.758	6.5
404.541	9.5
405.324	8.5
406.107	9.5
406.89	10.5
407.673	12.5
408.456	10.5
409.238	7.5
410.021	11.5
410.803	10.5
411.586	8.5
412.368	12.5
413.151	9.5
413.933	11.5
414.715	12.5
415.497	12.5
416.279	12.5
417.061	8.5
417.843	10.5
418.624	10.5
419.406	13.5
420.188	12.5
420.969	13.5
421.751	11.5
422.532	13.5
423.313	11.5
424.095	11.5
424.876	15.5
425.657	16.5
426.438	13.5
427.219	17.5
428	16.5
428.78	14.5
429.561	18.5
430.342	18.5
431.122	18.5
431.903	17.5
432.683	20.5
433.464	21.5
434.244	24.5
435.024	23.5
435.804	24.5
436.584	23.5
437.364	28.5
438.144	27.5
438.924	32.5
439.704	30.5
440.483	32.5
441.263	35.5
442.042	35.5
442.822	38.5
443.601	44.5
444.38	47.5
445.16	48.5
445.939	53.5
446.718	53.5
447.497	63.5
448.276	66.5
449.054	75.5
449.833	84.5
450.612	86.5
451.391	96.5
452.169	104.5
452.948	116.5
453.726	123.5
454.504	139.5
455.282	154.5
456.061	177.5
456.839	196.5
457.617	214.5
458.395	244.5
459.172	271.5
459.95	296.5
460.728	328.5
461.506	365.5
462.283	410.5
463.061	453.5
463.838	529.5
464.615	575.5
465.393	647.5
466.17	706.5
466.947	785.5
467.724	866.5
468.501	973.5
469.278	1083.5
470.055	1199.5
470.831	1314.5
471.608	1464.5
472.385	1622.5
473.161	1786.5
473.938	1969.5
474.714	2170.5
475.49	2376.5
476.266	2600.5
477.043	2888.5
477.819	3153.5
478.595	3464.5
479.371	3795.5
480.146	4177.5
480.922	4562.5
481.698	4968.5
482.473	5445.5
483.249	5920.5
484.024	6506.5
484.8	7121.5
485.575	7725.5
486.35	8390.5
487.126	9175.5
487.901	9934.5
488.676	10821.5
489.451	11748.5
490.225	12688.5
491	13787.5
491.775	14892.5
492.55	16038.5
493.324	17215.5
494.099	18433.5
494.873	19718.5
495.647	20992.5
496.422	22352.5
497.196	23762.5
497.97	25223.5
498.744	26535.5
499.518	27878.5
500.292	29111.5
501.066	30137.5
501.839	31252.5
502.613	32272.5
503.387	33029.5
504.16	33562.5
504.934	33975.5
505.707	34207.5
506.48	34203.5
507.253	33936.5
508.027	33777.5
508.8	33406.5
509.573	32755.5
510.346	32089.5
511.118	31295.5
511.891	30404.5
512.664	29273.5
513.437	28348.5
514.209	27193.5
514.982	26263.5
515.754	25240.5
516.526	24099.5
517.298	23179.5
518.071	22219.5
518.843	21298.5
519.615	20443.5
520.387	19604.5
521.159	18901.5
521.93	18188.5
522.702	17397.5
523.474	16790.5
524.245	16074.5
525.017	15345.5
525.788	14675.5
526.56	14032.5
527.331	13365.5
528.102	12765.5
528.873	12197.5
529.644	11610.5
530.415	11092.5
531.186	10613.5
531.957	10046.5
532.728	9560.5
533.498	8993.5
534.269	8525.5
535.039	8095.5
535.81	7610.5
536.58	7186.5
537.351	6800.5
538.121	6432.5
538.891	6087.5
539.661	5779.5
540.431	5485.5
541.201	5180.5
541.971	4917.5
542.741	4653.5
543.51	4406.5
544.28	4186.5
545.05	4001.5
545.819	3793.5
546.588	3619.5
547.358	3409.5
548.127	3266.5
548.896	3088.5
549.665	2941.5
550.434	2787.5
551.203	2644.5
551.972	2501.5
552.741	2381.5
553.51	2243.5
554.278	2118.5
555.047	1989.5
555.815	1891.5
556.584	1786.5
557.352	1674.5
558.121	1567.5
558.889	1498.5
559.657	1407.5
560.425	1346.5
561.193	1271.5
561.961	1199.5
562.729	1133.5
563.496	1076.5
564.264	1024.5
565.032	949.5
565.799	908.5
566.567	857.5
567.334	820.5
568.101	756.5
568.869	711.5
569.636	676.5
570.403	645.5
571.17	600.5
571.937	574.5
572.704	541.5
573.471	515.5
574.237	486.5
575.004	452.5
575.771	419.5
576.537	398.5
577.303	378.5
578.07	360.5
578.836	337.5
579.602	308.5
580.368	301.5
581.134	285.5
581.9	275.5
582.666	256.5
583.432	246.5
584.198	224.5
584.964	222.5
585.729	212.5
586.495	196.5
587.26	189.5
588.025	176.5
588.791	167.5
589.556	162.5
590.321	150.5
591.086	143.5
591.851	130.5
592.616	131.5
593.381	120.5
594.146	119.5
594.911	108.5
595.675	105.5
596.44	102.5
597.204	99.5
597.969	91.5
598.733	92.5
599.497	85.5
600.261	81.5
601.025	77.5
601.79	76.5
602.553	73.5
603.317	68.5
604.081	65.5
604.845	61.5
605.609	61.5
606.372	55.5
607.136	57.5
607.899	50.5
608.662	50.5
609.426	49.5
610.189	44.5
610.952	44.5
611.715	43.5
612.478	39.5
613.241	42.5
614.004	37.5
614.767	36.5
615.529	37.5
616.292	36.5
617.055	31.5
617.817	31.5
618.579	34.5
619.342	30.5
620.104	27.5
620.866	28.5
621.628	27.5
622.39	27.5
623.152	25.5
623.914	25.5
624.676	24.5
625.438	23.5
626.199	22.5
626.961	21.5
627.722	17.5
628.484	20.5
629.245	21.5
630.006	18.5
630.768	17.5
631.529	17.5
632.29	19.5
633.051	17.5
633.812	15.5
634.573	15.5
635.333	15.5
636.094	14.5
636.855	14.5
637.615	14.5
638.376	13.5
639.136	14.5
639.896	12.5
640.657	11.5
641.417	8.5
642.177	10.5
642.937	9.5
643.697	11.5
644.457	11.5
645.216	11.5
645.976	12.5
646.736	11.5
647.495	11.5
648.255	8.5
649.014	11.5
649.774	9.5
650.533	8.5
651.292	9.5
652.051	9.5
652.81	9.5
653.569	6.5
654.328	8.5
655.087	5.5
655.846	6.5
656.604	7.5
657.363	6.5
658.121	7.5
658.88	6.5
659.638	6.5
660.397	9.5
661.155	8.5
661.913	6.5
662.671	4.5
663.429	5.5
664.187	5.5
664.945	5.5
665.703	6.5
666.46	6.5
667.218	6.5
667.976	6.5
668.733	3.5
669.49	6.5
670.248	7.5
671.005	4.5
671.762	4.5
672.519	6.5
673.276	4.5
674.033	4.5
674.79	3.5
675.547	5.5
676.304	5.5
677.06	3.5
677.817	6.5
678.574	3.5
679.33	3.5
680.086	5.5
680.843	3.5
681.599	5.5
682.355	3.5
683.111	6.5
683.867	5.5
684.623	4.5
685.379	4.5
686.135	4.5
686.89	5.5
687.646	4.5
688.402	4.5
689.157	5.5
689.912	5.5
690.668	4.5
691.423	5.5
692.178	6.5
692.933	2.5
693.688	3.5
694.443	3.5
695.198	1.5
695.953	4.5
696.708	5.5
697.462	4.5
698.217	3.5
698.972	3.5
699.726	4.5
700.48	2.5
701.235	5.5
701.989	5.5
702.743	2.5
703.497	4.5
704.251	2.5
705.005	5.5
705.759	3.5
706.513	4.5
707.266	2.5
708.02	3.5
708.774	2.5
709.527	2.5
710.28	3.5
711.034	5.5
711.787	5.5
712.54	7.5
713.293	1.5
714.046	3.5
714.799	3.5
715.552	4.5
716.305	6.5
717.058	5.5
717.81	5.5
718.563	2.5
719.315	6.5
720.068	2.5
720.82	4.5
721.573	6.5
722.325	3.5
723.077	5.5
723.829	3.5
724.581	4.5
725.333	6.5
726.085	3.5
726.836	5.5
727.588	5.5
728.34	6.5
729.091	3.5
729.843	4.5
730.594	6.5
731.346	3.5
732.097	5.5
732.848	5.5
733.599	3.5
734.35	4.5
735.101	3.5
735.852	3.5
736.603	2.5
737.354	5.5
738.104	3.5
738.855	5.5
739.605	6.5
740.356	4.5
741.106	5.5
741.856	5.5
742.607	7.5
743.357	4.5
744.107	4.5
744.857	5.5
745.607	6.5
746.357	5.5
747.106	4.5
747.856	7.5
748.606	5.5
749.355	5.5
750.105	7.5
750.854	4.5
751.603	6.5
752.353	5.5
753.102	6.5
753.851	7.5
754.6	6.5
755.349	6.5
756.098	6.5
756.847	7.5
757.595	6.5
758.344	6.5
759.093	7.5
759.841	6.5
760.589	6.5
761.338	6.5
762.086	5.5
762.834	7.5
763.582	7.5
764.331	8.5
765.079	6.5
765.826	10.5
766.574	9.5
767.322	5.5
768.07	8.5
768.817	9.5
769.565	9.5
770.312	8.5
771.06	8.5
771.807	9.5
772.554	8.5
773.302	9.5
774.049	9.5
774.796	10.5
775.543	8.5
776.29	7.5
777.036	8.5
777.783	12.5
778.53	9.5
779.276	10.5
780.023	10.5
780.769	9.5
781.516	10.5
782.262	9.5
783.008	10.5
783.754	11.5
784.5	11.5
785.246	9.5
785.992	11.5
786.738	10.5
787.484	11.5
788.23	11.5
788.975	11.5
789.721	9.5
790.466	9.5
791.212	11.5
791.957	10.5
792.702	11.5
793.447	11.5
794.193	8.5
794.938	9.5
795.683	7.5
796.427	7.5
797.172	9.5
797.917	9.5
798.662	9.5
799.406	6.5
800.151	10.5
800.895	10.5
801.64	11.5
802.384	11.5
803.128	5.5
803.872	6.5
804.616	8.5
805.36	11.5
806.104	8.5
806.848	6.5
807.592	8.5
808.336	5.5
809.079	7.5
809.823	6.5
810.566	7.5
811.31	6.5
812.053	7.5
812.796	5.5
813.539	5.5
814.283	6.5
815.026	4.5
815.769	4.5
816.511	4.5
817.254	6.5
817.997	4.5
818.74	3.5
819.482	4.5
820.225	6.5
820.967	4.5
821.71	4.5
822.452	3.5
823.194	4.5
823.936	5.5
824.678	3.5
825.42	5.5
826.162	4.5
826.904	4.5
827.646	4.5
828.388	4.5
829.129	4.5
829.871	3.5
830.612	3.5
831.354	3.5
832.095	5.5
832.836	8.5
833.577	4.5
834.319	4.5
835.06	4.5
835.801	5.5
836.542	5.5
837.282	3.5
838.023	3.5
838.764	2.5
839.504	3.5
840.245	2.5
840.985	2.5
841.726	1.5
842.466	2.5
843.206	3.5
843.946	3.5
844.687	3.5
845.427	3.5
846.166	4.5
846.906	3.5
847.646	1.5
848.386	3.5
849.125	3.5
849.865	2.5
850.605	3.5
851.344	3.5
852.083	1.5
852.823	1.5
853.562	1.5
854.301	2.5
855.04	2.5
855.779	2.5
856.518	1.5
857.257	3.5
857.995	1.5
858.734	1.5
859.473	1.5
860.211	2.5
860.95	4.5
861.688	1.5
862.426	2.5
863.165	2.5
863.903	1.5
864.641	2.5
865.379	0.5
866.117	1.5
866.855	1.5
867.593	2.5
868.33	-1.5
869.068	1.5
869.806	-0.5
870.543	-1.5
871.28	0.5
872.018	1.5
872.755	1.5
873.492	2.5
874.229	1.5
874.967	2.5
875.703	1.5
876.44	2.5
877.177	1.5
877.914	0.5
878.651	-0.5
879.387	-1.5
880.124	2.5
880.86	-1.5
881.597	0.5
882.333	-0.5
883.069	1.5
883.806	1.5
884.542	0.5
885.278	0.5
886.014	-1.5
886.749	1.5
887.485	1.5
888.221	-0.5
888.957	0.5
889.692	1.5
890.428	1.5
891.163	-0.5
891.899	0.5
892.634	-0.5
893.369	1.5
894.104	1.5
894.839	-0.5
895.574	-0.5
896.309	-1.5
897.044	-0.5
897.779	0.5
898.514	0.5
899.248	0.5
899.983	-0.5
900.717	-2.5
901.452	-0.5
902.186	0.5
902.92	-1.5
903.654	1.5
904.389	-1.5
905.123	-0.5
905.857	-2.5
906.59	-2.5
907.324	1.5
908.058	0.5
908.792	-2.5
909.525	0.5
910.259	1.5
910.992	-0.5
911.726	0.5
912.459	-0.5
913.192	0.5
913.925	-1.5
914.658	-0.5
915.391	0.5
916.124	0.5
916.857	-1.5
917.59	-0.5
918.323	-0.5
919.055	0.5
919.788	-0.5
920.521	-0.5
921.253	-1.5
921.985	-0.5
922.718	-0.5
923.45	-1.5
924.182	-1.5
924.914	0.5
925.646	-3.5
926.378	-1.5
927.11	0.5
927.841	0.5
928.573	-1.5
929.305	0.5
930.036	-0.5
930.768	1.5
931.499	-0.5
932.23	-1.5
932.962	1.5
933.693	-0.5
934.424	0.5
935.155	-0.5
935.886	-1.5
936.617	-2.5
937.348	-0.5
938.078	-1.5
938.809	0.5
939.54	0.5
940.27	-2.5
941.001	-2.5
941.731	-0.5
942.461	1.5
943.191	-1.5
943.922	0.5
944.652	0.5
945.382	-0.5
946.112	-0.5
946.841	0.5
947.571	-2.5
948.301	1.5
949.031	-3.5
949.76	-0.5
950.49	0.5
951.219	-3.5
951.948	0.5
952.678	-1.5
953.407	-0.5
954.136	-1.5
954.865	-2.5
955.594	1.5
956.323	-0.5
957.052	-0.5
957.78	-0.5
958.509	-2.5
959.238	-0.5
959.966	0.5
960.695	-0.5
961.423	-0.5
962.151	-2.5
962.88	-0.5
963.608	-0.5
964.336	-0.5
965.064	-0.5
965.792	-0.5
966.52	-4.5
967.247	-0.5
967.975	-0.5
968.703	0.5
969.43	0.5
970.158	-0.5
970.885	0.5
971.613	-0.5
972.34	-1.5
973.067	-0.5
973.794	-0.5
974.521	-1.5
975.248	-1.5
975.975	-0.5
976.702	1.5
977.429	0.5
978.156	0.5
978.882	-0.5
979.609	-0.5
980.335	-0.5
981.062	-0.5
981.788	0.5
982.514	-1.5
983.24	-0.5
983.967	-0.5
984.693	-0.5
985.419	1.5
986.144	-1.5
986.87	-0.5
987.596	-1.5
988.322	0.5
989.047	-0.5
989.773	-0.5
990.498	-1.5
991.224	-0.5
991.949	0.5
992.674	-0.5
993.399	-0.5
994.124	-2.5
994.849	-0.5
995.574	-0.5
996.299	1.5
997.024	0.5
997.749	1.5
998.473	-2.5
999.198	-1.5
999.922	-4.5
1000.647	-0.5
1001.371	3.5
1002.095	-1.5
1002.82	-0.5
1003.544	-2.5
1004.268	1.5
1004.992	1.5
1005.716	1.5
1006.439	1.5
1007.163	2.5
1007.887	2.5
1008.611	-0.5
1009.334	-0.5
1010.058	-0.5
1010.781	0.5
1011.504	1.5
1012.228	0.5
1012.951	0.5
1013.674	1.5
1014.397	-0.5
1015.12	-0.5
