节点500_425_QEPB04081__212__15-51-50-100.txt的数据

Date: Wed Nov 12 15:51:50 CST 2025
User: PC
Spectrometer: QEPB0408
触发模式: 0
积分时间 (秒): 1.000000E-2
Scans to average: 1
启用暗噪声校正: true
启用非线性校正: false
滑动平均宽度: 0
X轴模式: Wavelengths
Number of Pixels in Spectrum: 1044
>>>>>Begin Spectral Data<<<<<
220.843	3.5
221.644	5.5
222.444	1.5
223.244	2.5
224.045	4.5
224.845	4.5
225.645	4.5
226.445	6.5
227.245	5.5
228.045	4.5
228.845	4.5
229.645	6.5
230.444	2.5
231.244	8.5
232.043	4.5
232.843	6.5
233.642	5.5
234.442	7.5
235.241	5.5
236.04	4.5
236.839	5.5
237.638	5.5
238.437	6.5
239.236	5.5
240.035	7.5
240.833	8.5
241.632	5.5
242.43	9.5
243.229	8.5
244.027	9.5
244.826	7.5
245.624	8.5
246.422	9.5
247.22	7.5
248.018	8.5
248.816	6.5
249.614	8.5
250.412	9.5
251.21	11.5
252.007	8.5
252.805	12.5
253.602	11.5
254.4	10.5
255.197	14.5
255.994	13.5
256.791	15.5
257.589	12.5
258.386	12.5
259.183	15.5
259.979	15.5
260.776	15.5
261.573	15.5
262.37	13.5
263.166	15.5
263.963	14.5
264.759	19.5
265.556	19.5
266.352	17.5
267.148	21.5
267.944	19.5
268.74	19.5
269.536	22.5
270.332	21.5
271.128	21.5
271.924	22.5
272.719	23.5
273.515	23.5
274.311	22.5
275.106	23.5
275.901	22.5
276.697	26.5
277.492	26.5
278.287	24.5
279.082	24.5
279.877	24.5
280.672	25.5
281.467	25.5
282.262	24.5
283.056	22.5
283.851	26.5
284.646	26.5
285.44	27.5
286.234	27.5
287.029	23.5
287.823	23.5
288.617	23.5
289.411	23.5
290.205	24.5
290.999	21.5
291.793	24.5
292.587	23.5
293.381	24.5
294.174	22.5
294.968	22.5
295.761	22.5
296.555	23.5
297.348	20.5
298.141	18.5
298.935	19.5
299.728	18.5
300.521	19.5
301.314	20.5
302.107	16.5
302.899	17.5
303.692	17.5
304.485	14.5
305.277	17.5
306.07	19.5
306.862	17.5
307.655	16.5
308.447	13.5
309.239	15.5
310.031	17.5
310.823	13.5
311.615	14.5
312.407	15.5
313.199	13.5
313.991	14.5
314.783	12.5
315.574	11.5
316.366	13.5
317.157	10.5
317.949	12.5
318.74	11.5
319.531	12.5
320.322	9.5
321.113	10.5
321.904	11.5
322.695	9.5
323.486	8.5
324.277	9.5
325.068	6.5
325.858	7.5
326.649	11.5
327.439	8.5
328.23	8.5
329.02	7.5
329.81	10.5
330.6	10.5
331.391	7.5
332.181	9.5
332.971	7.5
333.76	9.5
334.55	10.5
335.34	10.5
336.13	10.5
336.919	9.5
337.709	9.5
338.498	6.5
339.287	8.5
340.077	9.5
340.866	8.5
341.655	8.5
342.444	6.5
343.233	8.5
344.022	6.5
344.811	8.5
345.6	6.5
346.388	8.5
347.177	10.5
347.965	9.5
348.754	8.5
349.542	8.5
350.33	9.5
351.119	9.5
351.907	8.5
352.695	9.5
353.483	5.5
354.271	8.5
355.059	7.5
355.846	9.5
356.634	9.5
357.422	7.5
358.209	7.5
358.997	4.5
359.784	7.5
360.571	7.5
361.359	7.5
362.146	9.5
362.933	10.5
363.72	8.5
364.507	8.5
365.294	7.5
366.081	8.5
366.867	6.5
367.654	7.5
368.44	7.5
369.227	6.5
370.013	7.5
370.8	5.5
371.586	8.5
372.372	8.5
373.158	8.5
373.944	8.5
374.73	7.5
375.516	6.5
376.302	6.5
377.088	8.5
377.873	8.5
378.659	6.5
379.445	9.5
380.23	9.5
381.015	6.5
381.801	9.5
382.586	7.5
383.371	7.5
384.156	8.5
384.941	8.5
385.726	8.5
386.511	9.5
387.296	5.5
388.08	9.5
388.865	7.5
389.649	7.5
390.434	11.5
391.218	7.5
392.003	7.5
392.787	9.5
393.571	8.5
394.355	7.5
395.139	8.5
395.923	11.5
396.707	9.5
397.491	10.5
398.274	8.5
399.058	6.5
399.842	11.5
400.625	10.5
401.408	10.5
402.192	8.5
402.975	8.5
403.758	11.5
404.541	10.5
405.324	11.5
406.107	8.5
406.89	10.5
407.673	10.5
408.456	9.5
409.238	10.5
410.021	11.5
410.803	11.5
411.586	11.5
412.368	12.5
413.151	12.5
413.933	13.5
414.715	14.5
415.497	12.5
416.279	13.5
417.061	13.5
417.843	12.5
418.624	14.5
419.406	13.5
420.188	14.5
420.969	16.5
421.751	13.5
422.532	16.5
423.313	16.5
424.095	17.5
424.876	14.5
425.657	16.5
426.438	21.5
427.219	19.5
428	18.5
428.78	15.5
429.561	21.5
430.342	22.5
431.122	16.5
431.903	18.5
432.683	23.5
433.464	23.5
434.244	23.5
435.024	24.5
435.804	26.5
436.584	26.5
437.364	28.5
438.144	28.5
438.924	32.5
439.704	32.5
440.483	32.5
441.263	39.5
442.042	38.5
442.822	39.5
443.601	42.5
444.38	43.5
445.16	49.5
445.939	50.5
446.718	57.5
447.497	58.5
448.276	62.5
449.054	69.5
449.833	77.5
450.612	86.5
451.391	92.5
452.169	99.5
452.948	108.5
453.726	120.5
454.504	131.5
455.282	144.5
456.061	169.5
456.839	182.5
457.617	203.5
458.395	232.5
459.172	251.5
459.95	277.5
460.728	314.5
461.506	348.5
462.283	388.5
463.061	438.5
463.838	493.5
464.615	536.5
465.393	609.5
466.17	684.5
466.947	762.5
467.724	847.5
468.501	933.5
469.278	1052.5
470.055	1152.5
470.831	1293.5
471.608	1433.5
472.385	1590.5
473.161	1753.5
473.938	1942.5
474.714	2153.5
475.49	2382.5
476.266	2621.5
477.043	2897.5
477.819	3188.5
478.595	3531.5
479.371	3885.5
480.146	4244.5
480.922	4693.5
481.698	5128.5
482.473	5653.5
483.249	6189.5
484.024	6781.5
484.8	7468.5
485.575	8172.5
486.35	8894.5
487.126	9763.5
487.901	10600.5
488.676	11682.5
489.451	12644.5
490.225	13682.5
491	14869.5
491.775	16168.5
492.55	17454.5
493.324	18853.5
494.099	20151.5
494.873	21591.5
495.647	23014.5
496.422	24449.5
497.196	25953.5
497.97	27581.5
498.744	28917.5
499.518	30348.5
500.292	31498.5
501.066	32625.5
501.839	33780.5
502.613	34681.5
503.387	35302.5
504.16	35809.5
504.934	36140.5
505.707	36118.5
506.48	35799.5
507.253	35533.5
508.027	35066.5
508.8	34504.5
509.573	33624.5
510.346	32720.5
511.118	31782.5
511.891	30625.5
512.664	29568.5
513.437	28357.5
514.209	27122.5
514.982	26175.5
515.754	25101.5
516.526	23895.5
517.298	22951.5
518.071	21971.5
518.843	21034.5
519.615	20263.5
520.387	19411.5
521.159	18650.5
521.93	17918.5
522.702	17201.5
523.474	16559.5
524.245	15879.5
525.017	15136.5
525.788	14402.5
526.56	13771.5
527.331	13168.5
528.102	12516.5
528.873	11929.5
529.644	11329.5
530.415	10829.5
531.186	10331.5
531.957	9701.5
532.728	9250.5
533.498	8685.5
534.269	8232.5
535.039	7801.5
535.81	7367.5
536.58	6959.5
537.351	6523.5
538.121	6200.5
538.891	5848.5
539.661	5531.5
540.431	5248.5
541.201	4987.5
541.971	4743.5
542.741	4475.5
543.51	4260.5
544.28	4026.5
545.05	3846.5
545.819	3634.5
546.588	3489.5
547.358	3291.5
548.127	3110.5
548.896	2992.5
549.665	2812.5
550.434	2667.5
551.203	2516.5
551.972	2403.5
552.741	2259.5
553.51	2139.5
554.278	2022.5
555.047	1923.5
555.815	1808.5
556.584	1713.5
557.352	1598.5
558.121	1512.5
558.889	1425.5
559.657	1343.5
560.425	1266.5
561.193	1193.5
561.961	1138.5
562.729	1082.5
563.496	1019.5
564.264	961.5
565.032	910.5
565.799	863.5
566.567	808.5
567.334	765.5
568.101	728.5
568.869	683.5
569.636	645.5
570.403	603.5
571.17	581.5
571.937	539.5
572.704	515.5
573.471	490.5
574.237	458.5
575.004	431.5
575.771	404.5
576.537	383.5
577.303	366.5
578.07	347.5
578.836	316.5
579.602	300.5
580.368	291.5
581.134	278.5
581.9	258.5
582.666	241.5
583.432	237.5
584.198	216.5
584.964	210.5
585.729	199.5
586.495	183.5
587.26	178.5
588.025	165.5
588.791	156.5
589.556	157.5
590.321	146.5
591.086	136.5
591.851	130.5
592.616	122.5
593.381	120.5
594.146	113.5
594.911	112.5
595.675	106.5
596.44	97.5
597.204	92.5
597.969	85.5
598.733	86.5
599.497	80.5
600.261	77.5
601.025	76.5
601.79	72.5
602.553	69.5
603.317	66.5
604.081	63.5
604.845	61.5
605.609	57.5
606.372	54.5
607.136	50.5
607.899	50.5
608.662	50.5
609.426	48.5
610.189	45.5
610.952	44.5
611.715	45.5
612.478	39.5
613.241	40.5
614.004	40.5
614.767	35.5
615.529	35.5
616.292	34.5
617.055	33.5
617.817	28.5
618.579	30.5
619.342	30.5
620.104	25.5
620.866	24.5
621.628	27.5
622.39	28.5
623.152	28.5
623.914	23.5
624.676	24.5
625.438	25.5
626.199	22.5
626.961	22.5
627.722	20.5
628.484	20.5
629.245	20.5
630.006	18.5
630.768	18.5
631.529	16.5
632.29	17.5
633.051	17.5
633.812	16.5
634.573	15.5
635.333	15.5
636.094	15.5
636.855	15.5
637.615	16.5
638.376	13.5
639.136	14.5
639.896	12.5
640.657	12.5
641.417	10.5
642.177	14.5
642.937	10.5
643.697	11.5
644.457	10.5
645.216	11.5
645.976	14.5
646.736	12.5
647.495	10.5
648.255	10.5
649.014	9.5
649.774	7.5
650.533	10.5
651.292	10.5
652.051	10.5
652.81	7.5
653.569	8.5
654.328	10.5
655.087	9.5
655.846	11.5
656.604	8.5
657.363	7.5
658.121	7.5
658.88	8.5
659.638	8.5
660.397	9.5
661.155	7.5
661.913	6.5
662.671	7.5
663.429	7.5
664.187	7.5
664.945	7.5
665.703	7.5
666.46	7.5
667.218	5.5
667.976	5.5
668.733	6.5
669.49	8.5
670.248	8.5
671.005	7.5
671.762	8.5
672.519	7.5
673.276	10.5
674.033	7.5
674.79	6.5
675.547	6.5
676.304	5.5
677.06	5.5
677.817	6.5
678.574	6.5
679.33	5.5
680.086	5.5
680.843	7.5
681.599	3.5
682.355	8.5
683.111	7.5
683.867	7.5
684.623	4.5
685.379	3.5
686.135	5.5
686.89	6.5
687.646	5.5
688.402	5.5
689.157	6.5
689.912	7.5
690.668	6.5
691.423	7.5
692.178	3.5
692.933	5.5
693.688	4.5
694.443	7.5
695.198	5.5
695.953	7.5
696.708	4.5
697.462	6.5
698.217	4.5
698.972	8.5
699.726	6.5
700.48	6.5
701.235	4.5
701.989	6.5
702.743	3.5
703.497	3.5
704.251	4.5
705.005	4.5
705.759	5.5
706.513	3.5
707.266	4.5
708.02	5.5
708.774	5.5
709.527	6.5
710.28	5.5
711.034	5.5
711.787	2.5
712.54	4.5
713.293	3.5
714.046	6.5
714.799	3.5
715.552	4.5
716.305	6.5
717.058	6.5
717.81	5.5
718.563	5.5
719.315	4.5
720.068	4.5
720.82	4.5
721.573	6.5
722.325	6.5
723.077	1.5
723.829	6.5
724.581	5.5
725.333	4.5
726.085	7.5
726.836	6.5
727.588	4.5
728.34	3.5
729.091	5.5
729.843	4.5
730.594	6.5
731.346	7.5
732.097	6.5
732.848	5.5
733.599	5.5
734.35	5.5
735.101	6.5
735.852	7.5
736.603	7.5
737.354	4.5
738.104	6.5
738.855	4.5
739.605	4.5
740.356	8.5
741.106	5.5
741.856	6.5
742.607	7.5
743.357	6.5
744.107	7.5
744.857	7.5
745.607	9.5
746.357	6.5
747.106	7.5
747.856	6.5
748.606	5.5
749.355	9.5
750.105	6.5
750.854	8.5
751.603	7.5
752.353	8.5
753.102	8.5
753.851	6.5
754.6	8.5
755.349	9.5
756.098	10.5
756.847	9.5
757.595	6.5
758.344	7.5
759.093	8.5
759.841	10.5
760.589	11.5
761.338	7.5
762.086	9.5
762.834	7.5
763.582	9.5
764.331	9.5
765.079	9.5
765.826	10.5
766.574	8.5
767.322	8.5
768.07	9.5
768.817	10.5
769.565	12.5
770.312	9.5
771.06	9.5
771.807	8.5
772.554	10.5
773.302	10.5
774.049	12.5
774.796	12.5
775.543	9.5
776.29	10.5
777.036	10.5
777.783	9.5
778.53	10.5
779.276	11.5
780.023	10.5
780.769	12.5
781.516	10.5
782.262	12.5
783.008	14.5
783.754	10.5
784.5	13.5
785.246	13.5
785.992	10.5
786.738	8.5
787.484	10.5
788.23	12.5
788.975	10.5
789.721	11.5
790.466	10.5
791.212	12.5
791.957	13.5
792.702	10.5
793.447	10.5
794.193	10.5
794.938	9.5
795.683	11.5
796.427	10.5
797.172	9.5
797.917	10.5
798.662	9.5
799.406	12.5
800.151	11.5
800.895	10.5
801.64	12.5
802.384	8.5
803.128	7.5
803.872	9.5
804.616	11.5
805.36	9.5
806.104	6.5
806.848	8.5
807.592	9.5
808.336	8.5
809.079	7.5
809.823	9.5
810.566	8.5
811.31	8.5
812.053	9.5
812.796	8.5
813.539	7.5
814.283	6.5
815.026	5.5
815.769	5.5
816.511	9.5
817.254	8.5
817.997	8.5
818.74	8.5
819.482	5.5
820.225	5.5
820.967	6.5
821.71	5.5
822.452	7.5
823.194	7.5
823.936	5.5
824.678	6.5
825.42	8.5
826.162	6.5
826.904	5.5
827.646	4.5
828.388	5.5
829.129	4.5
829.871	5.5
830.612	2.5
831.354	5.5
832.095	6.5
832.836	6.5
833.577	6.5
834.319	2.5
835.06	4.5
835.801	2.5
836.542	5.5
837.282	5.5
838.023	3.5
838.764	4.5
839.504	4.5
840.245	4.5
840.985	3.5
841.726	5.5
842.466	4.5
843.206	4.5
843.946	3.5
844.687	4.5
845.427	4.5
846.166	3.5
846.906	2.5
847.646	3.5
848.386	3.5
849.125	4.5
849.865	3.5
850.605	2.5
851.344	4.5
852.083	2.5
852.823	3.5
853.562	2.5
854.301	3.5
855.04	2.5
855.779	3.5
856.518	3.5
857.257	4.5
857.995	4.5
858.734	5.5
859.473	3.5
860.211	3.5
860.95	1.5
861.688	2.5
862.426	3.5
863.165	3.5
863.903	2.5
864.641	0.5
865.379	3.5
866.117	2.5
866.855	3.5
867.593	2.5
868.33	3.5
869.068	3.5
869.806	2.5
870.543	3.5
871.28	0.5
872.018	2.5
872.755	1.5
873.492	2.5
874.229	1.5
874.967	1.5
875.703	2.5
876.44	1.5
877.177	3.5
877.914	2.5
878.651	3.5
879.387	0.5
880.124	2.5
880.86	2.5
881.597	3.5
882.333	2.5
883.069	3.5
883.806	2.5
884.542	2.5
885.278	2.5
886.014	0.5
886.749	-0.5
887.485	0.5
888.221	4.5
888.957	-1.5
889.692	2.5
890.428	3.5
891.163	1.5
891.899	0.5
892.634	0.5
893.369	1.5
894.104	1.5
894.839	0.5
895.574	2.5
896.309	3.5
897.044	1.5
897.779	-0.5
898.514	3.5
899.248	0.5
899.983	0.5
900.717	0.5
901.452	2.5
902.186	2.5
902.92	0.5
903.654	1.5
904.389	3.5
905.123	-0.5
905.857	-0.5
906.59	-0.5
907.324	0.5
908.058	0.5
908.792	0.5
909.525	2.5
910.259	1.5
910.992	1.5
911.726	-0.5
912.459	2.5
913.192	-0.5
913.925	-0.5
914.658	1.5
915.391	1.5
916.124	1.5
916.857	-0.5
917.59	0.5
918.323	1.5
919.055	0.5
919.788	2.5
920.521	-1.5
921.253	2.5
921.985	1.5
922.718	0.5
923.45	0.5
924.182	1.5
924.914	2.5
925.646	1.5
926.378	-0.5
927.11	0.5
927.841	0.5
928.573	1.5
929.305	1.5
930.036	2.5
930.768	0.5
931.499	2.5
932.23	1.5
932.962	1.5
933.693	0.5
934.424	-0.5
935.155	2.5
935.886	0.5
936.617	-0.5
937.348	-0.5
938.078	1.5
938.809	2.5
939.54	0.5
940.27	1.5
941.001	1.5
941.731	1.5
942.461	1.5
943.191	-2.5
943.922	1.5
944.652	0.5
945.382	0.5
946.112	0.5
946.841	1.5
947.571	-2.5
948.301	-3.5
949.031	0.5
949.76	1.5
950.49	1.5
951.219	0.5
951.948	-0.5
952.678	1.5
953.407	-0.5
954.136	-1.5
954.865	0.5
955.594	-1.5
956.323	2.5
957.052	2.5
957.78	2.5
958.509	0.5
959.238	0.5
959.966	2.5
960.695	0.5
961.423	1.5
962.151	-0.5
962.88	0.5
963.608	-1.5
964.336	1.5
965.064	2.5
965.792	0.5
966.52	1.5
967.247	1.5
967.975	-1.5
968.703	0.5
969.43	-1.5
970.158	-0.5
970.885	-0.5
971.613	0.5
972.34	-0.5
973.067	-1.5
973.794	-0.5
974.521	-0.5
975.248	2.5
975.975	1.5
976.702	0.5
977.429	0.5
978.156	0.5
978.882	0.5
979.609	2.5
980.335	0.5
981.062	0.5
981.788	-1.5
982.514	0.5
983.24	0.5
983.967	2.5
984.693	-0.5
985.419	0.5
986.144	-0.5
986.87	-1.5
987.596	0.5
988.322	-0.5
989.047	1.5
989.773	1.5
990.498	-0.5
991.224	-1.5
991.949	-2.5
992.674	2.5
993.399	-1.5
994.124	-0.5
994.849	0.5
995.574	1.5
996.299	0.5
997.024	0.5
997.749	-0.5
998.473	-0.5
999.198	-1.5
999.922	2.5
1000.647	0.5
1001.371	2.5
1002.095	0.5
1002.82	-1.5
1003.544	-1.5
1004.268	1.5
1004.992	3.5
1005.716	3.5
1006.439	2.5
1007.163	5.5
1007.887	1.5
1008.611	3.5
1009.334	-0.5
1010.058	-0.5
1010.781	1.5
1011.504	0.5
1012.228	1.5
1012.951	0.5
1013.674	-1.5
1014.397	0.5
1015.12	0.5
