节点500_425_QEPB04081__164__15-51-02-183.txt的数据

Date: Wed Nov 12 15:51:02 CST 2025
User: PC
Spectrometer: QEPB0408
触发模式: 0
积分时间 (秒): 1.000000E-2
Scans to average: 1
启用暗噪声校正: true
启用非线性校正: false
滑动平均宽度: 0
X轴模式: Wavelengths
Number of Pixels in Spectrum: 1044
>>>>>Begin Spectral Data<<<<<
220.843	1.62
221.644	1.62
222.444	3.62
223.244	3.62
224.045	4.62
224.845	3.62
225.645	4.62
226.445	3.62
227.245	2.62
228.045	4.62
228.845	4.62
229.645	2.62
230.444	3.62
231.244	2.62
232.043	5.62
232.843	5.62
233.642	6.62
234.442	6.62
235.241	5.62
236.04	7.62
236.839	3.62
237.638	8.62
238.437	6.62
239.236	7.62
240.035	8.62
240.833	7.62
241.632	6.62
242.43	9.62
243.229	7.62
244.027	7.62
244.826	8.62
245.624	7.62
246.422	9.62
247.22	7.62
248.018	6.62
248.816	9.62
249.614	9.62
250.412	9.62
251.21	10.62
252.007	12.62
252.805	13.62
253.602	10.62
254.4	11.62
255.197	12.62
255.994	11.62
256.791	15.62
257.589	13.62
258.386	13.62
259.183	15.62
259.979	16.62
260.776	14.62
261.573	14.62
262.37	16.62
263.166	19.62
263.963	18.62
264.759	17.62
265.556	16.62
266.352	22.62
267.148	21.62
267.944	18.62
268.74	20.62
269.536	20.62
270.332	20.62
271.128	21.62
271.924	20.62
272.719	22.62
273.515	22.62
274.311	21.62
275.106	23.62
275.901	24.62
276.697	24.62
277.492	25.62
278.287	26.62
279.082	23.62
279.877	28.62
280.672	24.62
281.467	27.62
282.262	27.62
283.056	26.62
283.851	26.62
284.646	25.62
285.44	25.62
286.234	29.62
287.029	27.62
287.823	24.62
288.617	26.62
289.411	23.62
290.205	25.62
290.999	20.62
291.793	23.62
292.587	25.62
293.381	25.62
294.174	22.62
294.968	21.62
295.761	20.62
296.555	22.62
297.348	22.62
298.141	22.62
298.935	22.62
299.728	21.62
300.521	18.62
301.314	17.62
302.107	18.62
302.899	17.62
303.692	16.62
304.485	16.62
305.277	17.62
306.07	17.62
306.862	17.62
307.655	17.62
308.447	15.62
309.239	13.62
310.031	14.62
310.823	13.62
311.615	16.62
312.407	16.62
313.199	13.62
313.991	11.62
314.783	14.62
315.574	14.62
316.366	10.62
317.157	15.62
317.949	10.62
318.74	10.62
319.531	12.62
320.322	7.62
321.113	10.62
321.904	10.62
322.695	8.62
323.486	10.62
324.277	9.62
325.068	8.62
325.858	9.62
326.649	8.62
327.439	10.62
328.23	9.62
329.02	10.62
329.81	10.62
330.6	9.62
331.391	11.62
332.181	9.62
332.971	10.62
333.76	8.62
334.55	11.62
335.34	10.62
336.13	8.62
336.919	7.62
337.709	7.62
338.498	10.62
339.287	10.62
340.077	7.62
340.866	8.62
341.655	8.62
342.444	8.62
343.233	9.62
344.022	8.62
344.811	6.62
345.6	8.62
346.388	11.62
347.177	6.62
347.965	8.62
348.754	9.62
349.542	11.62
350.33	8.62
351.119	8.62
351.907	9.62
352.695	6.62
353.483	7.62
354.271	6.62
355.059	6.62
355.846	10.62
356.634	9.62
357.422	8.62
358.209	6.62
358.997	8.62
359.784	6.62
360.571	10.62
361.359	8.62
362.146	6.62
362.933	8.62
363.72	6.62
364.507	6.62
365.294	6.62
366.081	7.62
366.867	6.62
367.654	7.62
368.44	5.62
369.227	6.62
370.013	6.62
370.8	5.62
371.586	3.62
372.372	9.62
373.158	6.62
373.944	6.62
374.73	9.62
375.516	5.62
376.302	7.62
377.088	7.62
377.873	8.62
378.659	8.62
379.445	6.62
380.23	7.62
381.015	6.62
381.801	7.62
382.586	6.62
383.371	7.62
384.156	9.62
384.941	5.62
385.726	6.62
386.511	8.62
387.296	7.62
388.08	9.62
388.865	9.62
389.649	6.62
390.434	8.62
391.218	6.62
392.003	8.62
392.787	10.62
393.571	6.62
394.355	10.62
395.139	11.62
395.923	8.62
396.707	7.62
397.491	10.62
398.274	10.62
399.058	8.62
399.842	8.62
400.625	10.62
401.408	8.62
402.192	11.62
402.975	11.62
403.758	8.62
404.541	11.62
405.324	12.62
406.107	9.62
406.89	12.62
407.673	12.62
408.456	11.62
409.238	10.62
410.021	13.62
410.803	12.62
411.586	13.62
412.368	14.62
413.151	10.62
413.933	14.62
414.715	13.62
415.497	13.62
416.279	12.62
417.061	14.62
417.843	12.62
418.624	14.62
419.406	14.62
420.188	14.62
420.969	15.62
421.751	14.62
422.532	14.62
423.313	16.62
424.095	14.62
424.876	15.62
425.657	15.62
426.438	16.62
427.219	17.62
428	16.62
428.78	19.62
429.561	20.62
430.342	19.62
431.122	19.62
431.903	20.62
432.683	22.62
433.464	23.62
434.244	24.62
435.024	24.62
435.804	24.62
436.584	28.62
437.364	28.62
438.144	29.62
438.924	32.62
439.704	35.62
440.483	32.62
441.263	37.62
442.042	37.62
442.822	42.62
443.601	41.62
444.38	45.62
445.16	48.62
445.939	52.62
446.718	58.62
447.497	56.62
448.276	63.62
449.054	71.62
449.833	73.62
450.612	83.62
451.391	94.62
452.169	96.62
452.948	105.62
453.726	117.62
454.504	127.62
455.282	146.62
456.061	162.62
456.839	177.62
457.617	191.62
458.395	219.62
459.172	244.62
459.95	278.62
460.728	302.62
461.506	338.62
462.283	381.62
463.061	423.62
463.838	488.62
464.615	539.62
465.393	602.62
466.17	678.62
466.947	733.62
467.724	836.62
468.501	935.62
469.278	1029.62
470.055	1145.62
470.831	1273.62
471.608	1427.62
472.385	1575.62
473.161	1738.62
473.938	1948.62
474.714	2165.62
475.49	2375.62
476.266	2627.62
477.043	2900.62
477.819	3174.62
478.595	3541.62
479.371	3891.62
480.146	4286.62
480.922	4715.62
481.698	5201.62
482.473	5720.62
483.249	6252.62
484.024	6865.62
484.8	7575.62
485.575	8274.62
486.35	9028.62
487.126	9883.62
487.901	10880.62
488.676	11856.62
489.451	12878.62
490.225	14017.62
491	15200.62
491.775	16516.62
492.55	17780.62
493.324	19243.62
494.099	20704.62
494.873	22016.62
495.647	23599.62
496.422	25090.62
497.196	26610.62
497.97	28235.62
498.744	29616.62
499.518	31021.62
500.292	32224.62
501.066	33292.62
501.839	34464.62
502.613	35359.62
503.387	35934.62
504.16	36422.62
504.934	36517.62
505.707	36466.62
506.48	36213.62
507.253	35889.62
508.027	35286.62
508.8	34695.62
509.573	33806.62
510.346	32800.62
511.118	31753.62
511.891	30722.62
512.664	29536.62
513.437	28256.62
514.209	27149.62
514.982	26109.62
515.754	24980.62
516.526	23831.62
517.298	22821.62
518.071	21811.62
518.843	20979.62
519.615	20068.62
520.387	19287.62
521.159	18558.62
521.93	17880.62
522.702	17148.62
523.474	16453.62
524.245	15798.62
525.017	15100.62
525.788	14386.62
526.56	13691.62
527.331	13080.62
528.102	12441.62
528.873	11777.62
529.644	11209.62
530.415	10734.62
531.186	10244.62
531.957	9630.62
532.728	9147.62
533.498	8573.62
534.269	8125.62
535.039	7706.62
535.81	7298.62
536.58	6858.62
537.351	6436.62
538.121	6113.62
538.891	5771.62
539.661	5480.62
540.431	5199.62
541.201	4894.62
541.971	4630.62
542.741	4429.62
543.51	4186.62
544.28	4006.62
545.05	3797.62
545.819	3629.62
546.588	3446.62
547.358	3251.62
548.127	3083.62
548.896	2924.62
549.665	2773.62
550.434	2636.62
551.203	2478.62
551.972	2359.62
552.741	2226.62
553.51	2147.62
554.278	1983.62
555.047	1870.62
555.815	1780.62
556.584	1663.62
557.352	1572.62
558.121	1487.62
558.889	1402.62
559.657	1329.62
560.425	1254.62
561.193	1193.62
561.961	1133.62
562.729	1056.62
563.496	1005.62
564.264	951.62
565.032	903.62
565.799	853.62
566.567	805.62
567.334	756.62
568.101	719.62
568.869	671.62
569.636	643.62
570.403	595.62
571.17	564.62
571.937	536.62
572.704	516.62
573.471	490.62
574.237	458.62
575.004	411.62
575.771	396.62
576.537	379.62
577.303	348.62
578.07	333.62
578.836	316.62
579.602	295.62
580.368	284.62
581.134	267.62
581.9	249.62
582.666	240.62
583.432	231.62
584.198	216.62
584.964	207.62
585.729	201.62
586.495	185.62
587.26	179.62
588.025	165.62
588.791	157.62
589.556	148.62
590.321	142.62
591.086	130.62
591.851	126.62
592.616	120.62
593.381	114.62
594.146	111.62
594.911	106.62
595.675	101.62
596.44	96.62
597.204	96.62
597.969	87.62
598.733	76.62
599.497	80.62
600.261	74.62
601.025	71.62
601.79	66.62
602.553	65.62
603.317	66.62
604.081	59.62
604.845	58.62
605.609	59.62
606.372	54.62
607.136	49.62
607.899	50.62
608.662	47.62
609.426	46.62
610.189	47.62
610.952	44.62
611.715	43.62
612.478	39.62
613.241	39.62
614.004	38.62
614.767	36.62
615.529	36.62
616.292	35.62
617.055	33.62
617.817	32.62
618.579	28.62
619.342	29.62
620.104	30.62
620.866	29.62
621.628	27.62
622.39	23.62
623.152	27.62
623.914	25.62
624.676	24.62
625.438	23.62
626.199	21.62
626.961	19.62
627.722	19.62
628.484	21.62
629.245	20.62
630.006	18.62
630.768	19.62
631.529	16.62
632.29	18.62
633.051	15.62
633.812	21.62
634.573	15.62
635.333	12.62
636.094	15.62
636.855	14.62
637.615	14.62
638.376	12.62
639.136	13.62
639.896	10.62
640.657	13.62
641.417	13.62
642.177	12.62
642.937	13.62
643.697	10.62
644.457	11.62
645.216	12.62
645.976	8.62
646.736	14.62
647.495	11.62
648.255	11.62
649.014	11.62
649.774	8.62
650.533	9.62
651.292	8.62
652.051	9.62
652.81	11.62
653.569	9.62
654.328	9.62
655.087	5.62
655.846	9.62
656.604	11.62
657.363	7.62
658.121	6.62
658.88	8.62
659.638	5.62
660.397	8.62
661.155	7.62
661.913	7.62
662.671	7.62
663.429	9.62
664.187	5.62
664.945	8.62
665.703	8.62
666.46	6.62
667.218	7.62
667.976	5.62
668.733	6.62
669.49	4.62
670.248	7.62
671.005	4.62
671.762	4.62
672.519	6.62
673.276	6.62
674.033	5.62
674.79	7.62
675.547	5.62
676.304	7.62
677.06	4.62
677.817	7.62
678.574	5.62
679.33	6.62
680.086	5.62
680.843	7.62
681.599	4.62
682.355	7.62
683.111	7.62
683.867	4.62
684.623	6.62
685.379	3.62
686.135	4.62
686.89	5.62
687.646	6.62
688.402	4.62
689.157	4.62
689.912	6.62
690.668	4.62
691.423	5.62
692.178	4.62
692.933	4.62
693.688	7.62
694.443	4.62
695.198	6.62
695.953	3.62
696.708	5.62
697.462	6.62
698.217	6.62
698.972	5.62
699.726	4.62
700.48	2.62
701.235	4.62
701.989	4.62
702.743	5.62
703.497	4.62
704.251	6.62
705.005	4.62
705.759	3.62
706.513	4.62
707.266	7.62
708.02	4.62
708.774	6.62
709.527	4.62
710.28	6.62
711.034	4.62
711.787	7.62
712.54	4.62
713.293	8.62
714.046	5.62
714.799	4.62
715.552	5.62
716.305	4.62
717.058	6.62
717.81	6.62
718.563	5.62
719.315	5.62
720.068	4.62
720.82	4.62
721.573	5.62
722.325	4.62
723.077	4.62
723.829	4.62
724.581	7.62
725.333	6.62
726.085	5.62
726.836	5.62
727.588	4.62
728.34	5.62
729.091	3.62
729.843	5.62
730.594	3.62
731.346	5.62
732.097	7.62
732.848	5.62
733.599	6.62
734.35	7.62
735.101	6.62
735.852	7.62
736.603	6.62
737.354	7.62
738.104	5.62
738.855	7.62
739.605	4.62
740.356	5.62
741.106	8.62
741.856	6.62
742.607	7.62
743.357	4.62
744.107	8.62
744.857	8.62
745.607	5.62
746.357	6.62
747.106	6.62
747.856	9.62
748.606	8.62
749.355	6.62
750.105	7.62
750.854	7.62
751.603	7.62
752.353	8.62
753.102	8.62
753.851	8.62
754.6	9.62
755.349	9.62
756.098	7.62
756.847	9.62
757.595	8.62
758.344	10.62
759.093	9.62
759.841	10.62
760.589	6.62
761.338	7.62
762.086	8.62
762.834	10.62
763.582	9.62
764.331	8.62
765.079	9.62
765.826	9.62
766.574	9.62
767.322	7.62
768.07	9.62
768.817	8.62
769.565	11.62
770.312	13.62
771.06	9.62
771.807	12.62
772.554	10.62
773.302	8.62
774.049	8.62
774.796	12.62
775.543	10.62
776.29	11.62
777.036	12.62
777.783	10.62
778.53	12.62
779.276	12.62
780.023	13.62
780.769	9.62
781.516	12.62
782.262	12.62
783.008	11.62
783.754	14.62
784.5	11.62
785.246	14.62
785.992	10.62
786.738	12.62
787.484	11.62
788.23	8.62
788.975	10.62
789.721	11.62
790.466	15.62
791.212	9.62
791.957	9.62
792.702	12.62
793.447	10.62
794.193	10.62
794.938	12.62
795.683	9.62
796.427	11.62
797.172	11.62
797.917	9.62
798.662	9.62
799.406	11.62
800.151	9.62
800.895	8.62
801.64	10.62
802.384	7.62
803.128	9.62
803.872	11.62
804.616	9.62
805.36	7.62
806.104	8.62
806.848	8.62
807.592	7.62
808.336	8.62
809.079	8.62
809.823	6.62
810.566	6.62
811.31	8.62
812.053	9.62
812.796	5.62
813.539	7.62
814.283	6.62
815.026	6.62
815.769	8.62
816.511	3.62
817.254	5.62
817.997	6.62
818.74	5.62
819.482	7.62
820.225	6.62
820.967	8.62
821.71	2.62
822.452	6.62
823.194	5.62
823.936	5.62
824.678	4.62
825.42	4.62
826.162	5.62
826.904	4.62
827.646	4.62
828.388	5.62
829.129	2.62
829.871	6.62
830.612	4.62
831.354	2.62
832.095	5.62
832.836	4.62
833.577	6.62
834.319	6.62
835.06	5.62
835.801	2.62
836.542	4.62
837.282	7.62
838.023	4.62
838.764	5.62
839.504	4.62
840.245	2.62
840.985	3.62
841.726	2.62
842.466	5.62
843.206	5.62
843.946	4.62
844.687	1.62
845.427	4.62
846.166	5.62
846.906	1.62
847.646	2.62
848.386	6.62
849.125	2.62
849.865	2.62
850.605	5.62
851.344	3.62
852.083	3.62
852.823	2.62
853.562	2.62
854.301	2.62
855.04	4.62
855.779	0.62
856.518	6.62
857.257	2.62
857.995	5.62
858.734	3.62
859.473	2.62
860.211	2.62
860.95	2.62
861.688	3.62
862.426	3.62
863.165	3.62
863.903	2.62
864.641	0.62
865.379	4.62
866.117	1.62
866.855	1.62
867.593	1.62
868.33	1.62
869.068	1.62
869.806	2.62
870.543	3.62
871.28	2.62
872.018	1.62
872.755	1.62
873.492	2.62
874.229	1.62
874.967	-0.38
875.703	2.62
876.44	2.62
877.177	1.62
877.914	1.62
878.651	1.62
879.387	1.62
880.124	1.62
880.86	2.62
881.597	2.62
882.333	1.62
883.069	0.62
883.806	0.62
884.542	0.62
885.278	0.62
886.014	-0.38
886.749	0.62
887.485	2.62
888.221	1.62
888.957	2.62
889.692	2.62
890.428	-0.38
891.163	1.62
891.899	1.62
892.634	1.62
893.369	-1.38
894.104	2.62
894.839	1.62
895.574	2.62
896.309	2.62
897.044	-0.38
897.779	2.62
898.514	1.62
899.248	1.62
899.983	1.62
900.717	0.62
901.452	0.62
902.186	1.62
902.92	1.62
903.654	-0.38
904.389	0.62
905.123	0.62
905.857	0.62
906.59	0.62
907.324	1.62
908.058	0.62
908.792	-1.38
909.525	0.62
910.259	-1.38
910.992	0.62
911.726	-0.38
912.459	-0.38
913.192	1.62
913.925	0.62
914.658	-1.38
915.391	1.62
916.124	0.62
916.857	0.62
917.59	2.62
918.323	0.62
919.055	-0.38
919.788	-0.38
920.521	-1.38
921.253	0.62
921.985	0.62
922.718	1.62
923.45	0.62
924.182	0.62
924.914	1.62
925.646	1.62
926.378	-1.38
927.11	0.62
927.841	-2.38
928.573	1.62
929.305	1.62
930.036	0.62
930.768	0.62
931.499	0.62
932.23	1.62
932.962	0.62
933.693	-0.38
934.424	1.62
935.155	0.62
935.886	-0.38
936.617	0.62
937.348	0.62
938.078	0.62
938.809	-0.38
939.54	0.62
940.27	0.62
941.001	-0.38
941.731	1.62
942.461	1.62
943.191	-2.38
943.922	1.62
944.652	1.62
945.382	0.62
946.112	0.62
946.841	0.62
947.571	-1.38
948.301	-0.38
949.031	-1.38
949.76	-0.38
950.49	-1.38
951.219	-0.38
951.948	-0.38
952.678	-0.38
953.407	1.62
954.136	0.62
954.865	2.62
955.594	0.62
956.323	-2.38
957.052	1.62
957.78	2.62
958.509	1.62
959.238	-1.38
959.966	1.62
960.695	0.62
961.423	-1.38
962.151	1.62
962.88	-0.38
963.608	2.62
964.336	1.62
965.064	2.62
965.792	-0.38
966.52	1.62
967.247	0.62
967.975	0.62
968.703	-0.38
969.43	-1.38
970.158	-0.38
970.885	0.62
971.613	1.62
972.34	2.62
973.067	0.62
973.794	-1.38
974.521	0.62
975.248	-0.38
975.975	3.62
976.702	-0.38
977.429	0.62
978.156	-1.38
978.882	-1.38
979.609	0.62
980.335	-0.38
981.062	1.62
981.788	-1.38
982.514	0.62
983.24	0.62
983.967	2.62
984.693	-0.38
985.419	-1.38
986.144	2.62
986.87	-1.38
987.596	1.62
988.322	1.62
989.047	0.62
989.773	3.62
990.498	-0.38
991.224	-0.38
991.949	-1.38
992.674	-0.38
993.399	0.62
994.124	2.62
994.849	0.62
995.574	1.62
996.299	0.62
997.024	0.62
997.749	-1.38
998.473	-1.38
999.198	-1.38
999.922	1.62
1000.647	1.62
1001.371	2.62
1002.095	-0.38
1002.82	0.62
1003.544	-1.38
1004.268	2.62
1004.992	2.62
1005.716	3.62
1006.439	2.62
1007.163	2.62
1007.887	4.62
1008.611	0.62
1009.334	0.62
1010.058	1.62
1010.781	0.62
1011.504	-0.38
1012.228	1.62
1012.951	0.62
1013.674	-2.38
1014.397	0.62
1015.12	-0.38
