节点500_425_QEPB04081__225__15-52-03-045.txt的数据

Date: Wed Nov 12 15:52:03 CST 2025
User: PC
Spectrometer: QEPB0408
触发模式: 0
积分时间 (秒): 1.000000E-2
Scans to average: 1
启用暗噪声校正: true
启用非线性校正: false
滑动平均宽度: 0
X轴模式: Wavelengths
Number of Pixels in Spectrum: 1044
>>>>>Begin Spectral Data<<<<<
220.843	4.62
221.644	2.62
222.444	2.62
223.244	3.62
224.045	5.62
224.845	2.62
225.645	4.62
226.445	3.62
227.245	2.62
228.045	5.62
228.845	5.62
229.645	4.62
230.444	5.62
231.244	4.62
232.043	4.62
232.843	3.62
233.642	3.62
234.442	6.62
235.241	6.62
236.04	8.62
236.839	4.62
237.638	10.62
238.437	5.62
239.236	7.62
240.035	6.62
240.833	6.62
241.632	8.62
242.43	6.62
243.229	5.62
244.027	9.62
244.826	5.62
245.624	9.62
246.422	4.62
247.22	9.62
248.018	8.62
248.816	9.62
249.614	10.62
250.412	7.62
251.21	10.62
252.007	10.62
252.805	10.62
253.602	11.62
254.4	11.62
255.197	12.62
255.994	12.62
256.791	13.62
257.589	12.62
258.386	12.62
259.183	14.62
259.979	14.62
260.776	16.62
261.573	13.62
262.37	18.62
263.166	17.62
263.963	17.62
264.759	17.62
265.556	17.62
266.352	19.62
267.148	18.62
267.944	19.62
268.74	18.62
269.536	21.62
270.332	21.62
271.128	21.62
271.924	21.62
272.719	22.62
273.515	23.62
274.311	26.62
275.106	23.62
275.901	26.62
276.697	23.62
277.492	25.62
278.287	26.62
279.082	27.62
279.877	27.62
280.672	26.62
281.467	28.62
282.262	26.62
283.056	26.62
283.851	22.62
284.646	24.62
285.44	28.62
286.234	25.62
287.029	23.62
287.823	23.62
288.617	25.62
289.411	25.62
290.205	23.62
290.999	24.62
291.793	25.62
292.587	25.62
293.381	20.62
294.174	22.62
294.968	24.62
295.761	19.62
296.555	22.62
297.348	22.62
298.141	18.62
298.935	21.62
299.728	18.62
300.521	18.62
301.314	19.62
302.107	18.62
302.899	16.62
303.692	17.62
304.485	19.62
305.277	17.62
306.07	18.62
306.862	15.62
307.655	13.62
308.447	16.62
309.239	15.62
310.031	14.62
310.823	10.62
311.615	13.62
312.407	12.62
313.199	10.62
313.991	12.62
314.783	12.62
315.574	11.62
316.366	11.62
317.157	11.62
317.949	10.62
318.74	9.62
319.531	10.62
320.322	10.62
321.113	10.62
321.904	12.62
322.695	11.62
323.486	12.62
324.277	8.62
325.068	7.62
325.858	8.62
326.649	9.62
327.439	10.62
328.23	10.62
329.02	11.62
329.81	7.62
330.6	7.62
331.391	10.62
332.181	7.62
332.971	9.62
333.76	5.62
334.55	8.62
335.34	9.62
336.13	5.62
336.919	7.62
337.709	9.62
338.498	8.62
339.287	9.62
340.077	8.62
340.866	12.62
341.655	7.62
342.444	9.62
343.233	9.62
344.022	8.62
344.811	7.62
345.6	8.62
346.388	8.62
347.177	4.62
347.965	9.62
348.754	7.62
349.542	6.62
350.33	8.62
351.119	7.62
351.907	9.62
352.695	8.62
353.483	7.62
354.271	7.62
355.059	7.62
355.846	8.62
356.634	8.62
357.422	5.62
358.209	8.62
358.997	7.62
359.784	6.62
360.571	8.62
361.359	8.62
362.146	6.62
362.933	5.62
363.72	7.62
364.507	6.62
365.294	6.62
366.081	8.62
366.867	8.62
367.654	7.62
368.44	4.62
369.227	9.62
370.013	6.62
370.8	6.62
371.586	6.62
372.372	4.62
373.158	7.62
373.944	7.62
374.73	7.62
375.516	9.62
376.302	6.62
377.088	7.62
377.873	4.62
378.659	7.62
379.445	7.62
380.23	8.62
381.015	8.62
381.801	8.62
382.586	9.62
383.371	6.62
384.156	7.62
384.941	7.62
385.726	7.62
386.511	6.62
387.296	5.62
388.08	8.62
388.865	7.62
389.649	9.62
390.434	9.62
391.218	8.62
392.003	7.62
392.787	5.62
393.571	7.62
394.355	7.62
395.139	8.62
395.923	9.62
396.707	6.62
397.491	9.62
398.274	8.62
399.058	9.62
399.842	9.62
400.625	7.62
401.408	9.62
402.192	9.62
402.975	10.62
403.758	9.62
404.541	11.62
405.324	10.62
406.107	11.62
406.89	12.62
407.673	8.62
408.456	9.62
409.238	8.62
410.021	10.62
410.803	11.62
411.586	10.62
412.368	12.62
413.151	12.62
413.933	10.62
414.715	13.62
415.497	12.62
416.279	13.62
417.061	12.62
417.843	15.62
418.624	14.62
419.406	10.62
420.188	14.62
420.969	14.62
421.751	16.62
422.532	14.62
423.313	16.62
424.095	16.62
424.876	16.62
425.657	19.62
426.438	16.62
427.219	16.62
428	18.62
428.78	19.62
429.561	17.62
430.342	20.62
431.122	21.62
431.903	20.62
432.683	21.62
433.464	22.62
434.244	25.62
435.024	24.62
435.804	28.62
436.584	26.62
437.364	26.62
438.144	29.62
438.924	32.62
439.704	30.62
440.483	31.62
441.263	36.62
442.042	39.62
442.822	38.62
443.601	40.62
444.38	46.62
445.16	49.62
445.939	55.62
446.718	62.62
447.497	59.62
448.276	64.62
449.054	70.62
449.833	77.62
450.612	87.62
451.391	92.62
452.169	101.62
452.948	107.62
453.726	118.62
454.504	132.62
455.282	152.62
456.061	166.62
456.839	185.62
457.617	201.62
458.395	226.62
459.172	254.62
459.95	280.62
460.728	317.62
461.506	354.62
462.283	388.62
463.061	436.62
463.838	491.62
464.615	551.62
465.393	603.62
466.17	668.62
466.947	752.62
467.724	845.62
468.501	946.62
469.278	1044.62
470.055	1161.62
470.831	1282.62
471.608	1448.62
472.385	1582.62
473.161	1749.62
473.938	1944.62
474.714	2154.62
475.49	2389.62
476.266	2614.62
477.043	2891.62
477.819	3186.62
478.595	3531.62
479.371	3876.62
480.146	4251.62
480.922	4650.62
481.698	5149.62
482.473	5637.62
483.249	6185.62
484.024	6797.62
484.8	7448.62
485.575	8128.62
486.35	8868.62
487.126	9701.62
487.901	10605.62
488.676	11555.62
489.451	12570.62
490.225	13676.62
491	14846.62
491.775	16050.62
492.55	17372.62
493.324	18720.62
494.099	20080.62
494.873	21343.62
495.647	22905.62
496.422	24401.62
497.196	25879.62
497.97	27414.62
498.744	28786.62
499.518	30178.62
500.292	31390.62
501.066	32560.62
501.839	33645.62
502.613	34521.62
503.387	35204.62
504.16	35731.62
504.934	35917.62
505.707	35932.62
506.48	35772.62
507.253	35440.62
508.027	35026.62
508.8	34328.62
509.573	33585.62
510.346	32730.62
511.118	31718.62
511.891	30648.62
512.664	29547.62
513.437	28332.62
514.209	27172.62
514.982	26124.62
515.754	25109.62
516.526	24006.62
517.298	22978.62
518.071	21941.62
518.843	21043.62
519.615	20211.62
520.387	19354.62
521.159	18715.62
521.93	17972.62
522.702	17211.62
523.474	16583.62
524.245	15911.62
525.017	15178.62
525.788	14465.62
526.56	13774.62
527.331	13157.62
528.102	12574.62
528.873	11948.62
529.644	11371.62
530.415	10815.62
531.186	10320.62
531.957	9767.62
532.728	9263.62
533.498	8743.62
534.269	8243.62
535.039	7779.62
535.81	7376.62
536.58	6954.62
537.351	6575.62
538.121	6164.62
538.891	5851.62
539.661	5545.62
540.431	5255.62
541.201	5013.62
541.971	4735.62
542.741	4494.62
543.51	4236.62
544.28	4069.62
545.05	3866.62
545.819	3669.62
546.588	3454.62
547.358	3311.62
548.127	3118.62
548.896	2970.62
549.665	2811.62
550.434	2694.62
551.203	2522.62
551.972	2386.62
552.741	2279.62
553.51	2140.62
554.278	2017.62
555.047	1900.62
555.815	1821.62
556.584	1680.62
557.352	1609.62
558.121	1512.62
558.889	1437.62
559.657	1361.62
560.425	1275.62
561.193	1197.62
561.961	1129.62
562.729	1083.62
563.496	1013.62
564.264	975.62
565.032	912.62
565.799	859.62
566.567	823.62
567.334	763.62
568.101	734.62
568.869	695.62
569.636	652.62
570.403	603.62
571.17	564.62
571.937	546.62
572.704	522.62
573.471	490.62
574.237	458.62
575.004	428.62
575.771	405.62
576.537	385.62
577.303	357.62
578.07	338.62
578.836	320.62
579.602	301.62
580.368	289.62
581.134	276.62
581.9	253.62
582.666	248.62
583.432	231.62
584.198	220.62
584.964	209.62
585.729	196.62
586.495	191.62
587.26	178.62
588.025	164.62
588.791	160.62
589.556	154.62
590.321	149.62
591.086	139.62
591.851	130.62
592.616	129.62
593.381	113.62
594.146	110.62
594.911	110.62
595.675	105.62
596.44	94.62
597.204	95.62
597.969	93.62
598.733	84.62
599.497	79.62
600.261	78.62
601.025	77.62
601.79	72.62
602.553	66.62
603.317	65.62
604.081	65.62
604.845	58.62
605.609	60.62
606.372	56.62
607.136	57.62
607.899	55.62
608.662	48.62
609.426	47.62
610.189	44.62
610.952	44.62
611.715	43.62
612.478	40.62
613.241	36.62
614.004	36.62
614.767	36.62
615.529	32.62
616.292	33.62
617.055	34.62
617.817	30.62
618.579	32.62
619.342	26.62
620.104	27.62
620.866	28.62
621.628	26.62
622.39	26.62
623.152	23.62
623.914	24.62
624.676	25.62
625.438	22.62
626.199	21.62
626.961	22.62
627.722	23.62
628.484	21.62
629.245	18.62
630.006	20.62
630.768	18.62
631.529	18.62
632.29	18.62
633.051	18.62
633.812	14.62
634.573	16.62
635.333	13.62
636.094	15.62
636.855	15.62
637.615	16.62
638.376	16.62
639.136	13.62
639.896	12.62
640.657	13.62
641.417	12.62
642.177	14.62
642.937	11.62
643.697	11.62
644.457	10.62
645.216	10.62
645.976	10.62
646.736	11.62
647.495	12.62
648.255	10.62
649.014	11.62
649.774	9.62
650.533	7.62
651.292	10.62
652.051	10.62
652.81	13.62
653.569	9.62
654.328	8.62
655.087	9.62
655.846	9.62
656.604	5.62
657.363	9.62
658.121	8.62
658.88	9.62
659.638	7.62
660.397	11.62
661.155	8.62
661.913	8.62
662.671	7.62
663.429	5.62
664.187	8.62
664.945	5.62
665.703	6.62
666.46	5.62
667.218	7.62
667.976	5.62
668.733	6.62
669.49	6.62
670.248	5.62
671.005	7.62
671.762	9.62
672.519	5.62
673.276	3.62
674.033	3.62
674.79	7.62
675.547	7.62
676.304	4.62
677.06	7.62
677.817	7.62
678.574	8.62
679.33	4.62
680.086	4.62
680.843	4.62
681.599	6.62
682.355	6.62
683.111	3.62
683.867	6.62
684.623	4.62
685.379	4.62
686.135	6.62
686.89	3.62
687.646	5.62
688.402	5.62
689.157	6.62
689.912	6.62
690.668	3.62
691.423	6.62
692.178	4.62
692.933	7.62
693.688	5.62
694.443	6.62
695.198	6.62
695.953	5.62
696.708	5.62
697.462	6.62
698.217	4.62
698.972	5.62
699.726	5.62
700.48	6.62
701.235	4.62
701.989	4.62
702.743	5.62
703.497	3.62
704.251	2.62
705.005	2.62
705.759	6.62
706.513	6.62
707.266	4.62
708.02	4.62
708.774	6.62
709.527	4.62
710.28	5.62
711.034	5.62
711.787	3.62
712.54	6.62
713.293	5.62
714.046	4.62
714.799	6.62
715.552	5.62
716.305	4.62
717.058	3.62
717.81	7.62
718.563	3.62
719.315	5.62
720.068	6.62
720.82	6.62
721.573	6.62
722.325	8.62
723.077	4.62
723.829	6.62
724.581	0.62
725.333	7.62
726.085	5.62
726.836	5.62
727.588	6.62
728.34	7.62
729.091	6.62
729.843	4.62
730.594	6.62
731.346	4.62
732.097	5.62
732.848	7.62
733.599	6.62
734.35	6.62
735.101	7.62
735.852	8.62
736.603	5.62
737.354	4.62
738.104	7.62
738.855	5.62
739.605	6.62
740.356	6.62
741.106	4.62
741.856	5.62
742.607	6.62
743.357	7.62
744.107	6.62
744.857	9.62
745.607	8.62
746.357	6.62
747.106	6.62
747.856	8.62
748.606	8.62
749.355	8.62
750.105	8.62
750.854	8.62
751.603	7.62
752.353	8.62
753.102	8.62
753.851	7.62
754.6	7.62
755.349	6.62
756.098	9.62
756.847	8.62
757.595	9.62
758.344	8.62
759.093	10.62
759.841	10.62
760.589	5.62
761.338	8.62
762.086	9.62
762.834	8.62
763.582	9.62
764.331	8.62
765.079	9.62
765.826	8.62
766.574	10.62
767.322	9.62
768.07	11.62
768.817	13.62
769.565	10.62
770.312	11.62
771.06	9.62
771.807	10.62
772.554	11.62
773.302	11.62
774.049	9.62
774.796	10.62
775.543	8.62
776.29	10.62
777.036	11.62
777.783	10.62
778.53	9.62
779.276	9.62
780.023	10.62
780.769	13.62
781.516	11.62
782.262	14.62
783.008	12.62
783.754	9.62
784.5	12.62
785.246	14.62
785.992	11.62
786.738	13.62
787.484	12.62
788.23	10.62
788.975	12.62
789.721	10.62
790.466	11.62
791.212	11.62
791.957	10.62
792.702	11.62
793.447	12.62
794.193	9.62
794.938	12.62
795.683	10.62
796.427	9.62
797.172	8.62
797.917	9.62
798.662	10.62
799.406	11.62
800.151	10.62
800.895	10.62
801.64	7.62
802.384	11.62
803.128	11.62
803.872	11.62
804.616	7.62
805.36	8.62
806.104	4.62
806.848	7.62
807.592	8.62
808.336	8.62
809.079	6.62
809.823	7.62
810.566	6.62
811.31	8.62
812.053	8.62
812.796	7.62
813.539	4.62
814.283	4.62
815.026	7.62
815.769	6.62
816.511	6.62
817.254	6.62
817.997	6.62
818.74	5.62
819.482	2.62
820.225	7.62
820.967	3.62
821.71	8.62
822.452	4.62
823.194	6.62
823.936	5.62
824.678	4.62
825.42	6.62
826.162	6.62
826.904	4.62
827.646	3.62
828.388	5.62
829.129	7.62
829.871	2.62
830.612	4.62
831.354	3.62
832.095	4.62
832.836	2.62
833.577	5.62
834.319	4.62
835.06	7.62
835.801	3.62
836.542	4.62
837.282	5.62
838.023	5.62
838.764	4.62
839.504	4.62
840.245	2.62
840.985	4.62
841.726	4.62
842.466	3.62
843.206	5.62
843.946	2.62
844.687	4.62
845.427	3.62
846.166	5.62
846.906	4.62
847.646	3.62
848.386	3.62
849.125	2.62
849.865	4.62
850.605	4.62
851.344	2.62
852.083	6.62
852.823	4.62
853.562	2.62
854.301	3.62
855.04	3.62
855.779	2.62
856.518	1.62
857.257	3.62
857.995	3.62
858.734	2.62
859.473	1.62
860.211	2.62
860.95	4.62
861.688	2.62
862.426	6.62
863.165	0.62
863.903	3.62
864.641	3.62
865.379	-0.38
866.117	2.62
866.855	1.62
867.593	0.62
868.33	2.62
869.068	3.62
869.806	2.62
870.543	0.62
871.28	2.62
872.018	1.62
872.755	2.62
873.492	2.62
874.229	2.62
874.967	4.62
875.703	4.62
876.44	1.62
877.177	0.62
877.914	0.62
878.651	2.62
879.387	2.62
880.124	1.62
880.86	2.62
881.597	1.62
882.333	0.62
883.069	-0.38
883.806	3.62
884.542	2.62
885.278	0.62
886.014	-0.38
886.749	0.62
887.485	1.62
888.221	0.62
888.957	0.62
889.692	-0.38
890.428	2.62
891.163	0.62
891.899	0.62
892.634	2.62
893.369	0.62
894.104	-0.38
894.839	-0.38
895.574	0.62
896.309	2.62
897.044	1.62
897.779	-0.38
898.514	2.62
899.248	-0.38
899.983	1.62
900.717	-0.38
901.452	5.62
902.186	0.62
902.92	3.62
903.654	0.62
904.389	1.62
905.123	0.62
905.857	0.62
906.59	1.62
907.324	0.62
908.058	0.62
908.792	1.62
909.525	1.62
910.259	1.62
910.992	1.62
911.726	1.62
912.459	-0.38
913.192	-0.38
913.925	-1.38
914.658	2.62
915.391	2.62
916.124	-1.38
916.857	0.62
917.59	0.62
918.323	-1.38
919.055	0.62
919.788	-0.38
920.521	-0.38
921.253	0.62
921.985	1.62
922.718	-1.38
923.45	0.62
924.182	1.62
924.914	-0.38
925.646	-0.38
926.378	0.62
927.11	0.62
927.841	-0.38
928.573	1.62
929.305	-0.38
930.036	1.62
930.768	-0.38
931.499	1.62
932.23	0.62
932.962	-1.38
933.693	0.62
934.424	0.62
935.155	0.62
935.886	0.62
936.617	1.62
937.348	0.62
938.078	-1.38
938.809	0.62
939.54	0.62
940.27	1.62
941.001	-1.38
941.731	2.62
942.461	-0.38
943.191	-0.38
943.922	0.62
944.652	-0.38
945.382	0.62
946.112	0.62
946.841	0.62
947.571	2.62
948.301	-1.38
949.031	0.62
949.76	-0.38
950.49	0.62
951.219	2.62
951.948	-0.38
952.678	0.62
953.407	-0.38
954.136	-0.38
954.865	-0.38
955.594	0.62
956.323	0.62
957.052	-1.38
957.78	2.62
958.509	-0.38
959.238	0.62
959.966	0.62
960.695	0.62
961.423	0.62
962.151	-0.38
962.88	0.62
963.608	-1.38
964.336	0.62
965.064	-0.38
965.792	0.62
966.52	1.62
967.247	2.62
967.975	0.62
968.703	-0.38
969.43	1.62
970.158	-0.38
970.885	0.62
971.613	-0.38
972.34	-0.38
973.067	-1.38
973.794	-0.38
974.521	0.62
975.248	-0.38
975.975	0.62
976.702	2.62
977.429	-1.38
978.156	-0.38
978.882	0.62
979.609	0.62
980.335	0.62
981.062	-0.38
981.788	1.62
982.514	-1.38
983.24	0.62
983.967	1.62
984.693	-1.38
985.419	0.62
986.144	-0.38
986.87	-1.38
987.596	2.62
988.322	-1.38
989.047	1.62
989.773	-0.38
990.498	1.62
991.224	0.62
991.949	2.62
992.674	0.62
993.399	-1.38
994.124	2.62
994.849	0.62
995.574	0.62
996.299	-0.38
997.024	0.62
997.749	0.62
998.473	-0.38
999.198	2.62
999.922	1.62
1000.647	0.62
1001.371	3.62
1002.095	-0.38
1002.82	-0.38
1003.544	-0.38
1004.268	2.62
1004.992	3.62
1005.716	0.62
1006.439	3.62
1007.163	0.62
1007.887	4.62
1008.611	0.62
1009.334	1.62
1010.058	1.62
1010.781	-1.38
1011.504	1.62
1012.228	0.62
1012.951	-1.38
1013.674	-1.38
1014.397	0.62
1015.12	-0.38
