节点500_425_QEPB04081__299__15-53-16-892.txt的数据

Date: Wed Nov 12 15:53:16 CST 2025
User: PC
Spectrometer: QEPB0408
触发模式: 0
积分时间 (秒): 1.000000E-2
Scans to average: 1
启用暗噪声校正: true
启用非线性校正: false
滑动平均宽度: 0
X轴模式: Wavelengths
Number of Pixels in Spectrum: 1044
>>>>>Begin Spectral Data<<<<<
220.843	3.25
221.644	1.25
222.444	2.25
223.244	2.25
224.045	4.25
224.845	3.25
225.645	5.25
226.445	2.25
227.245	3.25
228.045	4.25
228.845	5.25
229.645	4.25
230.444	4.25
231.244	5.25
232.043	3.25
232.843	7.25
233.642	6.25
234.442	5.25
235.241	6.25
236.04	7.25
236.839	2.25
237.638	7.25
238.437	5.25
239.236	6.25
240.035	5.25
240.833	8.25
241.632	6.25
242.43	8.25
243.229	7.25
244.027	9.25
244.826	8.25
245.624	6.25
246.422	9.25
247.22	8.25
248.018	9.25
248.816	9.25
249.614	11.25
250.412	10.25
251.21	10.25
252.007	10.25
252.805	10.25
253.602	10.25
254.4	12.25
255.197	12.25
255.994	10.25
256.791	12.25
257.589	12.25
258.386	10.25
259.183	14.25
259.979	14.25
260.776	13.25
261.573	14.25
262.37	13.25
263.166	17.25
263.963	18.25
264.759	15.25
265.556	14.25
266.352	19.25
267.148	17.25
267.944	18.25
268.74	19.25
269.536	19.25
270.332	23.25
271.128	22.25
271.924	21.25
272.719	22.25
273.515	23.25
274.311	21.25
275.106	24.25
275.901	24.25
276.697	24.25
277.492	24.25
278.287	23.25
279.082	25.25
279.877	24.25
280.672	26.25
281.467	23.25
282.262	25.25
283.056	24.25
283.851	26.25
284.646	25.25
285.44	23.25
286.234	26.25
287.029	26.25
287.823	26.25
288.617	25.25
289.411	25.25
290.205	23.25
290.999	24.25
291.793	21.25
292.587	25.25
293.381	21.25
294.174	22.25
294.968	22.25
295.761	19.25
296.555	18.25
297.348	20.25
298.141	22.25
298.935	20.25
299.728	16.25
300.521	19.25
301.314	20.25
302.107	15.25
302.899	16.25
303.692	15.25
304.485	15.25
305.277	15.25
306.07	15.25
306.862	15.25
307.655	16.25
308.447	15.25
309.239	17.25
310.031	14.25
310.823	14.25
311.615	13.25
312.407	13.25
313.199	12.25
313.991	12.25
314.783	11.25
315.574	10.25
316.366	11.25
317.157	12.25
317.949	8.25
318.74	10.25
319.531	10.25
320.322	11.25
321.113	9.25
321.904	12.25
322.695	12.25
323.486	11.25
324.277	10.25
325.068	9.25
325.858	9.25
326.649	12.25
327.439	7.25
328.23	8.25
329.02	10.25
329.81	10.25
330.6	9.25
331.391	9.25
332.181	8.25
332.971	10.25
333.76	9.25
334.55	8.25
335.34	10.25
336.13	9.25
336.919	7.25
337.709	9.25
338.498	9.25
339.287	7.25
340.077	9.25
340.866	8.25
341.655	8.25
342.444	8.25
343.233	7.25
344.022	9.25
344.811	7.25
345.6	9.25
346.388	8.25
347.177	9.25
347.965	10.25
348.754	8.25
349.542	8.25
350.33	7.25
351.119	10.25
351.907	8.25
352.695	7.25
353.483	10.25
354.271	8.25
355.059	7.25
355.846	7.25
356.634	6.25
357.422	5.25
358.209	5.25
358.997	4.25
359.784	6.25
360.571	9.25
361.359	7.25
362.146	8.25
362.933	4.25
363.72	5.25
364.507	7.25
365.294	6.25
366.081	7.25
366.867	5.25
367.654	7.25
368.44	8.25
369.227	7.25
370.013	5.25
370.8	6.25
371.586	7.25
372.372	7.25
373.158	7.25
373.944	8.25
374.73	6.25
375.516	6.25
376.302	6.25
377.088	7.25
377.873	8.25
378.659	5.25
379.445	7.25
380.23	7.25
381.015	6.25
381.801	7.25
382.586	7.25
383.371	6.25
384.156	6.25
384.941	7.25
385.726	8.25
386.511	7.25
387.296	8.25
388.08	8.25
388.865	8.25
389.649	7.25
390.434	6.25
391.218	7.25
392.003	9.25
392.787	7.25
393.571	10.25
394.355	9.25
395.139	10.25
395.923	9.25
396.707	9.25
397.491	10.25
398.274	10.25
399.058	8.25
399.842	7.25
400.625	8.25
401.408	13.25
402.192	9.25
402.975	9.25
403.758	8.25
404.541	9.25
405.324	11.25
406.107	9.25
406.89	11.25
407.673	13.25
408.456	10.25
409.238	11.25
410.021	12.25
410.803	12.25
411.586	11.25
412.368	10.25
413.151	9.25
413.933	9.25
414.715	14.25
415.497	13.25
416.279	14.25
417.061	14.25
417.843	10.25
418.624	10.25
419.406	14.25
420.188	12.25
420.969	14.25
421.751	16.25
422.532	13.25
423.313	14.25
424.095	16.25
424.876	17.25
425.657	16.25
426.438	17.25
427.219	17.25
428	18.25
428.78	18.25
429.561	18.25
430.342	18.25
431.122	19.25
431.903	19.25
432.683	20.25
433.464	22.25
434.244	21.25
435.024	23.25
435.804	29.25
436.584	26.25
437.364	27.25
438.144	30.25
438.924	34.25
439.704	30.25
440.483	34.25
441.263	34.25
442.042	39.25
442.822	38.25
443.601	42.25
444.38	46.25
445.16	49.25
445.939	50.25
446.718	58.25
447.497	62.25
448.276	67.25
449.054	70.25
449.833	78.25
450.612	87.25
451.391	92.25
452.169	108.25
452.948	113.25
453.726	126.25
454.504	138.25
455.282	153.25
456.061	166.25
456.839	188.25
457.617	204.25
458.395	230.25
459.172	262.25
459.95	284.25
460.728	314.25
461.506	355.25
462.283	391.25
463.061	448.25
463.838	494.25
464.615	559.25
465.393	624.25
466.17	682.25
466.947	767.25
467.724	857.25
468.501	948.25
469.278	1056.25
470.055	1176.25
470.831	1290.25
471.608	1435.25
472.385	1586.25
473.161	1762.25
473.938	1942.25
474.714	2149.25
475.49	2363.25
476.266	2626.25
477.043	2884.25
477.819	3168.25
478.595	3503.25
479.371	3840.25
480.146	4236.25
480.922	4600.25
481.698	5081.25
482.473	5567.25
483.249	6074.25
484.024	6639.25
484.8	7315.25
485.575	7947.25
486.35	8707.25
487.126	9472.25
487.901	10270.25
488.676	11279.25
489.451	12319.25
490.225	13309.25
491	14410.25
491.775	15684.25
492.55	16879.25
493.324	18170.25
494.099	19470.25
494.873	20748.25
495.647	22255.25
496.422	23541.25
497.196	25116.25
497.97	26528.25
498.744	27974.25
499.518	29355.25
500.292	30470.25
501.066	31647.25
501.839	32709.25
502.613	33632.25
503.387	34332.25
504.16	34930.25
504.934	35218.25
505.707	35277.25
506.48	35181.25
507.253	34906.25
508.027	34496.25
508.8	34043.25
509.573	33343.25
510.346	32385.25
511.118	31477.25
511.891	30531.25
512.664	29387.25
513.437	28275.25
514.209	27136.25
514.982	26053.25
515.754	25027.25
516.526	23919.25
517.298	22947.25
518.071	22010.25
518.843	21114.25
519.615	20267.25
520.387	19504.25
521.159	18672.25
521.93	18010.25
522.702	17252.25
523.474	16588.25
524.245	15941.25
525.017	15233.25
525.788	14492.25
526.56	13866.25
527.331	13241.25
528.102	12608.25
528.873	12006.25
529.644	11389.25
530.415	10919.25
531.186	10373.25
531.957	9851.25
532.728	9310.25
533.498	8835.25
534.269	8338.25
535.039	7915.25
535.81	7447.25
536.58	7040.25
537.351	6627.25
538.121	6255.25
538.891	5919.25
539.661	5602.25
540.431	5342.25
541.201	5043.25
541.971	4779.25
542.741	4534.25
543.51	4310.25
544.28	4117.25
545.05	3894.25
545.819	3701.25
546.588	3517.25
547.358	3344.25
548.127	3161.25
548.896	3026.25
549.665	2859.25
550.434	2734.25
551.203	2574.25
551.972	2443.25
552.741	2311.25
553.51	2188.25
554.278	2042.25
555.047	1935.25
555.815	1823.25
556.584	1727.25
557.352	1640.25
558.121	1548.25
558.889	1440.25
559.657	1368.25
560.425	1298.25
561.193	1226.25
561.961	1173.25
562.729	1096.25
563.496	1038.25
564.264	978.25
565.032	934.25
565.799	882.25
566.567	835.25
567.334	780.25
568.101	736.25
568.869	699.25
569.636	662.25
570.403	620.25
571.17	586.25
571.937	561.25
572.704	518.25
573.471	494.25
574.237	465.25
575.004	425.25
575.771	405.25
576.537	386.25
577.303	363.25
578.07	345.25
578.836	329.25
579.602	306.25
580.368	296.25
581.134	273.25
581.9	266.25
582.666	248.25
583.432	233.25
584.198	221.25
584.964	210.25
585.729	202.25
586.495	186.25
587.26	184.25
588.025	177.25
588.791	167.25
589.556	151.25
590.321	145.25
591.086	137.25
591.851	132.25
592.616	122.25
593.381	122.25
594.146	111.25
594.911	111.25
595.675	103.25
596.44	101.25
597.204	93.25
597.969	91.25
598.733	94.25
599.497	78.25
600.261	77.25
601.025	73.25
601.79	75.25
602.553	71.25
603.317	67.25
604.081	65.25
604.845	60.25
605.609	62.25
606.372	58.25
607.136	52.25
607.899	54.25
608.662	54.25
609.426	48.25
610.189	44.25
610.952	45.25
611.715	42.25
612.478	40.25
613.241	41.25
614.004	36.25
614.767	37.25
615.529	33.25
616.292	34.25
617.055	32.25
617.817	30.25
618.579	29.25
619.342	33.25
620.104	29.25
620.866	26.25
621.628	26.25
622.39	25.25
623.152	25.25
623.914	21.25
624.676	21.25
625.438	22.25
626.199	24.25
626.961	19.25
627.722	23.25
628.484	19.25
629.245	19.25
630.006	20.25
630.768	18.25
631.529	20.25
632.29	16.25
633.051	15.25
633.812	18.25
634.573	17.25
635.333	14.25
636.094	16.25
636.855	16.25
637.615	14.25
638.376	15.25
639.136	13.25
639.896	13.25
640.657	14.25
641.417	12.25
642.177	11.25
642.937	11.25
643.697	11.25
644.457	13.25
645.216	10.25
645.976	11.25
646.736	13.25
647.495	10.25
648.255	11.25
649.014	10.25
649.774	10.25
650.533	9.25
651.292	10.25
652.051	8.25
652.81	10.25
653.569	9.25
654.328	9.25
655.087	8.25
655.846	8.25
656.604	7.25
657.363	6.25
658.121	10.25
658.88	9.25
659.638	8.25
660.397	8.25
661.155	6.25
661.913	6.25
662.671	8.25
663.429	7.25
664.187	7.25
664.945	8.25
665.703	7.25
666.46	8.25
667.218	6.25
667.976	6.25
668.733	5.25
669.49	6.25
670.248	8.25
671.005	5.25
671.762	7.25
672.519	4.25
673.276	5.25
674.033	6.25
674.79	4.25
675.547	8.25
676.304	6.25
677.06	8.25
677.817	6.25
678.574	5.25
679.33	4.25
680.086	4.25
680.843	7.25
681.599	8.25
682.355	6.25
683.111	6.25
683.867	7.25
684.623	4.25
685.379	4.25
686.135	7.25
686.89	6.25
687.646	6.25
688.402	4.25
689.157	5.25
689.912	6.25
690.668	3.25
691.423	6.25
692.178	7.25
692.933	6.25
693.688	5.25
694.443	5.25
695.198	4.25
695.953	4.25
696.708	2.25
697.462	6.25
698.217	3.25
698.972	4.25
699.726	4.25
700.48	5.25
701.235	5.25
701.989	6.25
702.743	4.25
703.497	5.25
704.251	6.25
705.005	6.25
705.759	4.25
706.513	4.25
707.266	6.25
708.02	4.25
708.774	4.25
709.527	5.25
710.28	5.25
711.034	6.25
711.787	5.25
712.54	5.25
713.293	7.25
714.046	4.25
714.799	5.25
715.552	4.25
716.305	4.25
717.058	7.25
717.81	5.25
718.563	5.25
719.315	7.25
720.068	7.25
720.82	7.25
721.573	4.25
722.325	6.25
723.077	4.25
723.829	6.25
724.581	4.25
725.333	6.25
726.085	4.25
726.836	7.25
727.588	3.25
728.34	5.25
729.091	7.25
729.843	8.25
730.594	4.25
731.346	7.25
732.097	7.25
732.848	5.25
733.599	5.25
734.35	6.25
735.101	7.25
735.852	7.25
736.603	6.25
737.354	6.25
738.104	6.25
738.855	5.25
739.605	4.25
740.356	7.25
741.106	6.25
741.856	7.25
742.607	6.25
743.357	6.25
744.107	5.25
744.857	6.25
745.607	6.25
746.357	7.25
747.106	6.25
747.856	5.25
748.606	7.25
749.355	7.25
750.105	6.25
750.854	6.25
751.603	9.25
752.353	7.25
753.102	6.25
753.851	8.25
754.6	9.25
755.349	9.25
756.098	8.25
756.847	7.25
757.595	5.25
758.344	7.25
759.093	10.25
759.841	9.25
760.589	10.25
761.338	9.25
762.086	9.25
762.834	8.25
763.582	11.25
764.331	9.25
765.079	8.25
765.826	9.25
766.574	9.25
767.322	11.25
768.07	10.25
768.817	10.25
769.565	12.25
770.312	11.25
771.06	10.25
771.807	8.25
772.554	12.25
773.302	11.25
774.049	8.25
774.796	10.25
775.543	12.25
776.29	11.25
777.036	8.25
777.783	12.25
778.53	11.25
779.276	10.25
780.023	10.25
780.769	12.25
781.516	13.25
782.262	12.25
783.008	12.25
783.754	10.25
784.5	13.25
785.246	12.25
785.992	11.25
786.738	12.25
787.484	12.25
788.23	12.25
788.975	10.25
789.721	11.25
790.466	11.25
791.212	10.25
791.957	14.25
792.702	10.25
793.447	14.25
794.193	9.25
794.938	9.25
795.683	8.25
796.427	12.25
797.172	12.25
797.917	10.25
798.662	8.25
799.406	11.25
800.151	9.25
800.895	10.25
801.64	10.25
802.384	8.25
803.128	9.25
803.872	7.25
804.616	8.25
805.36	8.25
806.104	9.25
806.848	8.25
807.592	7.25
808.336	6.25
809.079	10.25
809.823	7.25
810.566	8.25
811.31	8.25
812.053	8.25
812.796	8.25
813.539	6.25
814.283	6.25
815.026	6.25
815.769	8.25
816.511	6.25
817.254	4.25
817.997	4.25
818.74	6.25
819.482	5.25
820.225	4.25
820.967	7.25
821.71	3.25
822.452	7.25
823.194	4.25
823.936	5.25
824.678	5.25
825.42	4.25
826.162	6.25
826.904	5.25
827.646	5.25
828.388	2.25
829.129	3.25
829.871	4.25
830.612	3.25
831.354	4.25
832.095	5.25
832.836	4.25
833.577	7.25
834.319	4.25
835.06	4.25
835.801	4.25
836.542	5.25
837.282	2.25
838.023	6.25
838.764	5.25
839.504	2.25
840.245	6.25
840.985	2.25
841.726	4.25
842.466	4.25
843.206	6.25
843.946	4.25
844.687	2.25
845.427	4.25
846.166	2.25
846.906	3.25
847.646	2.25
848.386	2.25
849.125	4.25
849.865	2.25
850.605	5.25
851.344	3.25
852.083	2.25
852.823	3.25
853.562	2.25
854.301	3.25
855.04	2.25
855.779	3.25
856.518	1.25
857.257	2.25
857.995	5.25
858.734	4.25
859.473	2.25
860.211	2.25
860.95	0.25
861.688	2.25
862.426	3.25
863.165	2.25
863.903	4.25
864.641	2.25
865.379	2.25
866.117	0.25
866.855	3.25
867.593	2.25
868.33	1.25
869.068	2.25
869.806	3.25
870.543	4.25
871.28	1.25
872.018	1.25
872.755	3.25
873.492	2.25
874.229	2.25
874.967	0.25
875.703	2.25
876.44	3.25
877.177	1.25
877.914	1.25
878.651	0.25
879.387	1.25
880.124	2.25
880.86	1.25
881.597	1.25
882.333	1.25
883.069	0.25
883.806	-2.75
884.542	1.25
885.278	2.25
886.014	-0.75
886.749	2.25
887.485	0.25
888.221	3.25
888.957	0.25
889.692	2.25
890.428	1.25
891.163	3.25
891.899	1.25
892.634	-0.75
893.369	1.25
894.104	0.25
894.839	0.25
895.574	2.25
896.309	0.25
897.044	1.25
897.779	2.25
898.514	2.25
899.248	0.25
899.983	1.25
900.717	0.25
901.452	0.25
902.186	1.25
902.92	-0.75
903.654	1.25
904.389	0.25
905.123	0.25
905.857	-0.75
906.59	0.25
907.324	2.25
908.058	1.25
908.792	2.25
909.525	1.25
910.259	0.25
910.992	3.25
911.726	-1.75
912.459	0.25
913.192	2.25
913.925	0.25
914.658	-0.75
915.391	-0.75
916.124	-0.75
916.857	-0.75
917.59	0.25
918.323	0.25
919.055	0.25
919.788	2.25
920.521	1.25
921.253	3.25
921.985	1.25
922.718	2.25
923.45	-0.75
924.182	2.25
924.914	-0.75
925.646	2.25
926.378	0.25
927.11	1.25
927.841	-1.75
928.573	2.25
929.305	-1.75
930.036	0.25
930.768	2.25
931.499	0.25
932.23	2.25
932.962	-1.75
933.693	1.25
934.424	1.25
935.155	0.25
935.886	-0.75
936.617	-1.75
937.348	1.25
938.078	1.25
938.809	1.25
939.54	2.25
940.27	0.25
941.001	0.25
941.731	0.25
942.461	0.25
943.191	2.25
943.922	0.25
944.652	0.25
945.382	2.25
946.112	2.25
946.841	1.25
947.571	-1.75
948.301	0.25
949.031	-1.75
949.76	-0.75
950.49	0.25
951.219	0.25
951.948	0.25
952.678	-0.75
953.407	-0.75
954.136	-1.75
954.865	0.25
955.594	1.25
956.323	2.25
957.052	-1.75
957.78	0.25
958.509	-0.75
959.238	1.25
959.966	1.25
960.695	2.25
961.423	1.25
962.151	3.25
962.88	0.25
963.608	0.25
964.336	-1.75
965.064	3.25
965.792	1.25
966.52	-0.75
967.247	2.25
967.975	0.25
968.703	2.25
969.43	1.25
970.158	0.25
970.885	1.25
971.613	0.25
972.34	0.25
973.067	-0.75
973.794	1.25
974.521	0.25
975.248	0.25
975.975	-0.75
976.702	-1.75
977.429	-1.75
978.156	0.25
978.882	1.25
979.609	-0.75
980.335	-0.75
981.062	-0.75
981.788	0.25
982.514	1.25
983.24	-0.75
983.967	0.25
984.693	-1.75
985.419	0.25
986.144	0.25
986.87	2.25
987.596	0.25
988.322	1.25
989.047	0.25
989.773	2.25
990.498	-0.75
991.224	0.25
991.949	1.25
992.674	1.25
993.399	0.25
994.124	0.25
994.849	-0.75
995.574	-1.75
996.299	-1.75
997.024	0.25
997.749	0.25
998.473	-0.75
999.198	-1.75
999.922	2.25
1000.647	0.25
1001.371	2.25
1002.095	-1.75
1002.82	-1.75
1003.544	-1.75
1004.268	4.25
1004.992	1.25
1005.716	1.25
1006.439	0.25
1007.163	3.25
1007.887	4.25
1008.611	0.25
1009.334	-1.75
1010.058	-1.75
1010.781	-0.75
1011.504	0.25
1012.228	-1.75
1012.951	2.25
1013.674	0.25
1014.397	0.25
1015.12	0.25
