节点500_425_QEPB04081__233__15-52-11-026.txt的数据

Date: Wed Nov 12 15:52:11 CST 2025
User: PC
Spectrometer: QEPB0408
触发模式: 0
积分时间 (秒): 1.000000E-2
Scans to average: 1
启用暗噪声校正: true
启用非线性校正: false
滑动平均宽度: 0
X轴模式: Wavelengths
Number of Pixels in Spectrum: 1044
>>>>>Begin Spectral Data<<<<<
220.843	2.12
221.644	3.12
222.444	-0.88
223.244	4.12
224.045	5.12
224.845	2.12
225.645	2.12
226.445	4.12
227.245	2.12
228.045	3.12
228.845	4.12
229.645	3.12
230.444	6.12
231.244	4.12
232.043	5.12
232.843	5.12
233.642	6.12
234.442	6.12
235.241	7.12
236.04	6.12
236.839	7.12
237.638	7.12
238.437	5.12
239.236	8.12
240.035	6.12
240.833	7.12
241.632	7.12
242.43	9.12
243.229	6.12
244.027	9.12
244.826	8.12
245.624	7.12
246.422	6.12
247.22	11.12
248.018	9.12
248.816	10.12
249.614	12.12
250.412	10.12
251.21	11.12
252.007	12.12
252.805	11.12
253.602	11.12
254.4	11.12
255.197	12.12
255.994	9.12
256.791	11.12
257.589	10.12
258.386	14.12
259.183	12.12
259.979	14.12
260.776	14.12
261.573	17.12
262.37	15.12
263.166	15.12
263.963	16.12
264.759	18.12
265.556	16.12
266.352	16.12
267.148	18.12
267.944	19.12
268.74	20.12
269.536	19.12
270.332	16.12
271.128	19.12
271.924	20.12
272.719	22.12
273.515	24.12
274.311	24.12
275.106	22.12
275.901	23.12
276.697	25.12
277.492	25.12
278.287	25.12
279.082	24.12
279.877	24.12
280.672	26.12
281.467	25.12
282.262	28.12
283.056	24.12
283.851	25.12
284.646	26.12
285.44	23.12
286.234	24.12
287.029	28.12
287.823	23.12
288.617	26.12
289.411	23.12
290.205	23.12
290.999	23.12
291.793	26.12
292.587	24.12
293.381	24.12
294.174	23.12
294.968	20.12
295.761	18.12
296.555	20.12
297.348	20.12
298.141	19.12
298.935	21.12
299.728	21.12
300.521	17.12
301.314	18.12
302.107	17.12
302.899	15.12
303.692	19.12
304.485	17.12
305.277	17.12
306.07	12.12
306.862	18.12
307.655	13.12
308.447	16.12
309.239	15.12
310.031	12.12
310.823	14.12
311.615	14.12
312.407	12.12
313.199	10.12
313.991	11.12
314.783	12.12
315.574	9.12
316.366	12.12
317.157	11.12
317.949	10.12
318.74	10.12
319.531	10.12
320.322	10.12
321.113	12.12
321.904	8.12
322.695	8.12
323.486	7.12
324.277	10.12
325.068	8.12
325.858	11.12
326.649	9.12
327.439	10.12
328.23	10.12
329.02	8.12
329.81	11.12
330.6	8.12
331.391	10.12
332.181	8.12
332.971	8.12
333.76	10.12
334.55	9.12
335.34	9.12
336.13	7.12
336.919	7.12
337.709	9.12
338.498	9.12
339.287	9.12
340.077	10.12
340.866	6.12
341.655	6.12
342.444	8.12
343.233	11.12
344.022	10.12
344.811	6.12
345.6	7.12
346.388	8.12
347.177	9.12
347.965	6.12
348.754	10.12
349.542	8.12
350.33	8.12
351.119	7.12
351.907	6.12
352.695	8.12
353.483	8.12
354.271	6.12
355.059	7.12
355.846	7.12
356.634	8.12
357.422	10.12
358.209	8.12
358.997	5.12
359.784	5.12
360.571	8.12
361.359	7.12
362.146	7.12
362.933	7.12
363.72	5.12
364.507	8.12
365.294	4.12
366.081	7.12
366.867	6.12
367.654	6.12
368.44	5.12
369.227	6.12
370.013	8.12
370.8	6.12
371.586	7.12
372.372	4.12
373.158	8.12
373.944	5.12
374.73	7.12
375.516	8.12
376.302	4.12
377.088	7.12
377.873	7.12
378.659	7.12
379.445	8.12
380.23	7.12
381.015	6.12
381.801	6.12
382.586	8.12
383.371	6.12
384.156	8.12
384.941	6.12
385.726	9.12
386.511	5.12
387.296	8.12
388.08	7.12
388.865	7.12
389.649	7.12
390.434	8.12
391.218	2.12
392.003	9.12
392.787	6.12
393.571	7.12
394.355	7.12
395.139	9.12
395.923	8.12
396.707	9.12
397.491	11.12
398.274	10.12
399.058	9.12
399.842	10.12
400.625	9.12
401.408	10.12
402.192	8.12
402.975	11.12
403.758	10.12
404.541	10.12
405.324	9.12
406.107	11.12
406.89	12.12
407.673	10.12
408.456	11.12
409.238	12.12
410.021	10.12
410.803	11.12
411.586	13.12
412.368	12.12
413.151	10.12
413.933	11.12
414.715	12.12
415.497	12.12
416.279	12.12
417.061	13.12
417.843	14.12
418.624	12.12
419.406	12.12
420.188	14.12
420.969	13.12
421.751	14.12
422.532	15.12
423.313	16.12
424.095	16.12
424.876	14.12
425.657	17.12
426.438	19.12
427.219	16.12
428	16.12
428.78	18.12
429.561	18.12
430.342	20.12
431.122	20.12
431.903	20.12
432.683	20.12
433.464	22.12
434.244	24.12
435.024	23.12
435.804	25.12
436.584	27.12
437.364	24.12
438.144	26.12
438.924	28.12
439.704	30.12
440.483	35.12
441.263	37.12
442.042	37.12
442.822	40.12
443.601	44.12
444.38	49.12
445.16	48.12
445.939	53.12
446.718	54.12
447.497	60.12
448.276	68.12
449.054	68.12
449.833	76.12
450.612	83.12
451.391	90.12
452.169	101.12
452.948	109.12
453.726	118.12
454.504	137.12
455.282	148.12
456.061	165.12
456.839	181.12
457.617	208.12
458.395	225.12
459.172	259.12
459.95	280.12
460.728	314.12
461.506	343.12
462.283	391.12
463.061	434.12
463.838	501.12
464.615	548.12
465.393	609.12
466.17	677.12
466.947	756.12
467.724	853.12
468.501	949.12
469.278	1043.12
470.055	1167.12
470.831	1281.12
471.608	1430.12
472.385	1586.12
473.161	1757.12
473.938	1939.12
474.714	2149.12
475.49	2376.12
476.266	2626.12
477.043	2888.12
477.819	3190.12
478.595	3553.12
479.371	3897.12
480.146	4272.12
480.922	4695.12
481.698	5108.12
482.473	5621.12
483.249	6186.12
484.024	6784.12
484.8	7456.12
485.575	8104.12
486.35	8887.12
487.126	9678.12
487.901	10577.12
488.676	11556.12
489.451	12546.12
490.225	13608.12
491	14823.12
491.775	16032.12
492.55	17356.12
493.324	18702.12
494.099	20035.12
494.873	21436.12
495.647	22940.12
496.422	24343.12
497.196	25838.12
497.97	27327.12
498.744	28700.12
499.518	30102.12
500.292	31352.12
501.066	32391.12
501.839	33623.12
502.613	34497.12
503.387	35201.12
504.16	35684.12
504.934	35948.12
505.707	35929.12
506.48	35754.12
507.253	35393.12
508.027	34996.12
508.8	34336.12
509.573	33544.12
510.346	32697.12
511.118	31713.12
511.891	30737.12
512.664	29528.12
513.437	28293.12
514.209	27176.12
514.982	26141.12
515.754	25043.12
516.526	24008.12
517.298	22931.12
518.071	21977.12
518.843	21107.12
519.615	20263.12
520.387	19395.12
521.159	18656.12
521.93	17934.12
522.702	17233.12
523.474	16565.12
524.245	15893.12
525.017	15143.12
525.788	14485.12
526.56	13771.12
527.331	13157.12
528.102	12591.12
528.873	11974.12
529.644	11355.12
530.415	10873.12
531.186	10329.12
531.957	9797.12
532.728	9218.12
533.498	8731.12
534.269	8253.12
535.039	7810.12
535.81	7388.12
536.58	6954.12
537.351	6582.12
538.121	6222.12
538.891	5888.12
539.661	5589.12
540.431	5285.12
541.201	5008.12
541.971	4744.12
542.741	4481.12
543.51	4260.12
544.28	4053.12
545.05	3861.12
545.819	3664.12
546.588	3502.12
547.358	3301.12
548.127	3147.12
548.896	2969.12
549.665	2822.12
550.434	2686.12
551.203	2548.12
551.972	2399.12
552.741	2283.12
553.51	2147.12
554.278	2016.12
555.047	1903.12
555.815	1809.12
556.584	1702.12
557.352	1609.12
558.121	1512.12
558.889	1429.12
559.657	1351.12
560.425	1289.12
561.193	1210.12
561.961	1154.12
562.729	1083.12
563.496	1034.12
564.264	966.12
565.032	909.12
565.799	873.12
566.567	821.12
567.334	776.12
568.101	728.12
568.869	692.12
569.636	652.12
570.403	618.12
571.17	574.12
571.937	544.12
572.704	510.12
573.471	485.12
574.237	453.12
575.004	427.12
575.771	398.12
576.537	381.12
577.303	363.12
578.07	348.12
578.836	323.12
579.602	302.12
580.368	288.12
581.134	278.12
581.9	255.12
582.666	242.12
583.432	234.12
584.198	228.12
584.964	210.12
585.729	195.12
586.495	187.12
587.26	186.12
588.025	169.12
588.791	157.12
589.556	151.12
590.321	141.12
591.086	137.12
591.851	129.12
592.616	125.12
593.381	118.12
594.146	117.12
594.911	105.12
595.675	100.12
596.44	96.12
597.204	92.12
597.969	92.12
598.733	87.12
599.497	81.12
600.261	77.12
601.025	70.12
601.79	71.12
602.553	68.12
603.317	67.12
604.081	65.12
604.845	61.12
605.609	58.12
606.372	53.12
607.136	54.12
607.899	50.12
608.662	49.12
609.426	47.12
610.189	48.12
610.952	46.12
611.715	45.12
612.478	41.12
613.241	37.12
614.004	39.12
614.767	40.12
615.529	34.12
616.292	33.12
617.055	36.12
617.817	30.12
618.579	29.12
619.342	30.12
620.104	27.12
620.866	29.12
621.628	24.12
622.39	29.12
623.152	22.12
623.914	25.12
624.676	22.12
625.438	22.12
626.199	22.12
626.961	22.12
627.722	21.12
628.484	20.12
629.245	19.12
630.006	21.12
630.768	17.12
631.529	17.12
632.29	17.12
633.051	14.12
633.812	18.12
634.573	16.12
635.333	15.12
636.094	15.12
636.855	15.12
637.615	12.12
638.376	13.12
639.136	13.12
639.896	12.12
640.657	12.12
641.417	11.12
642.177	10.12
642.937	15.12
643.697	10.12
644.457	11.12
645.216	10.12
645.976	9.12
646.736	11.12
647.495	10.12
648.255	11.12
649.014	9.12
649.774	10.12
650.533	7.12
651.292	8.12
652.051	10.12
652.81	9.12
653.569	7.12
654.328	10.12
655.087	9.12
655.846	11.12
656.604	8.12
657.363	8.12
658.121	7.12
658.88	10.12
659.638	10.12
660.397	6.12
661.155	7.12
661.913	6.12
662.671	8.12
663.429	6.12
664.187	5.12
664.945	5.12
665.703	6.12
666.46	7.12
667.218	6.12
667.976	9.12
668.733	4.12
669.49	8.12
670.248	6.12
671.005	6.12
671.762	6.12
672.519	5.12
673.276	4.12
674.033	8.12
674.79	6.12
675.547	6.12
676.304	5.12
677.06	4.12
677.817	5.12
678.574	7.12
679.33	6.12
680.086	7.12
680.843	4.12
681.599	6.12
682.355	7.12
683.111	5.12
683.867	5.12
684.623	5.12
685.379	5.12
686.135	5.12
686.89	3.12
687.646	8.12
688.402	6.12
689.157	4.12
689.912	4.12
690.668	6.12
691.423	4.12
692.178	6.12
692.933	6.12
693.688	4.12
694.443	5.12
695.198	4.12
695.953	3.12
696.708	6.12
697.462	5.12
698.217	5.12
698.972	6.12
699.726	5.12
700.48	4.12
701.235	3.12
701.989	4.12
702.743	2.12
703.497	2.12
704.251	6.12
705.005	4.12
705.759	1.12
706.513	7.12
707.266	5.12
708.02	6.12
708.774	8.12
709.527	5.12
710.28	3.12
711.034	2.12
711.787	3.12
712.54	3.12
713.293	7.12
714.046	3.12
714.799	6.12
715.552	5.12
716.305	3.12
717.058	5.12
717.81	5.12
718.563	4.12
719.315	4.12
720.068	7.12
720.82	9.12
721.573	5.12
722.325	6.12
723.077	4.12
723.829	7.12
724.581	7.12
725.333	4.12
726.085	7.12
726.836	4.12
727.588	5.12
728.34	4.12
729.091	7.12
729.843	4.12
730.594	5.12
731.346	8.12
732.097	4.12
732.848	6.12
733.599	8.12
734.35	5.12
735.101	6.12
735.852	6.12
736.603	6.12
737.354	6.12
738.104	5.12
738.855	5.12
739.605	6.12
740.356	6.12
741.106	6.12
741.856	9.12
742.607	11.12
743.357	7.12
744.107	6.12
744.857	9.12
745.607	9.12
746.357	7.12
747.106	5.12
747.856	7.12
748.606	6.12
749.355	7.12
750.105	7.12
750.854	10.12
751.603	8.12
752.353	8.12
753.102	7.12
753.851	9.12
754.6	8.12
755.349	8.12
756.098	8.12
756.847	5.12
757.595	6.12
758.344	8.12
759.093	7.12
759.841	7.12
760.589	9.12
761.338	9.12
762.086	8.12
762.834	8.12
763.582	8.12
764.331	10.12
765.079	11.12
765.826	8.12
766.574	10.12
767.322	11.12
768.07	10.12
768.817	10.12
769.565	9.12
770.312	9.12
771.06	9.12
771.807	11.12
772.554	10.12
773.302	11.12
774.049	12.12
774.796	14.12
775.543	9.12
776.29	12.12
777.036	10.12
777.783	13.12
778.53	9.12
779.276	12.12
780.023	11.12
780.769	9.12
781.516	10.12
782.262	10.12
783.008	13.12
783.754	13.12
784.5	12.12
785.246	14.12
785.992	10.12
786.738	10.12
787.484	10.12
788.23	10.12
788.975	12.12
789.721	9.12
790.466	9.12
791.212	10.12
791.957	11.12
792.702	11.12
793.447	11.12
794.193	11.12
794.938	11.12
795.683	11.12
796.427	9.12
797.172	10.12
797.917	9.12
798.662	10.12
799.406	10.12
800.151	9.12
800.895	10.12
801.64	8.12
802.384	10.12
803.128	12.12
803.872	9.12
804.616	10.12
805.36	7.12
806.104	7.12
806.848	7.12
807.592	7.12
808.336	7.12
809.079	8.12
809.823	5.12
810.566	8.12
811.31	7.12
812.053	6.12
812.796	6.12
813.539	7.12
814.283	6.12
815.026	7.12
815.769	6.12
816.511	7.12
817.254	4.12
817.997	7.12
818.74	5.12
819.482	5.12
820.225	7.12
820.967	5.12
821.71	5.12
822.452	7.12
823.194	5.12
823.936	7.12
824.678	6.12
825.42	4.12
826.162	4.12
826.904	4.12
827.646	5.12
828.388	4.12
829.129	4.12
829.871	4.12
830.612	3.12
831.354	8.12
832.095	2.12
832.836	6.12
833.577	5.12
834.319	3.12
835.06	6.12
835.801	5.12
836.542	4.12
837.282	7.12
838.023	4.12
838.764	5.12
839.504	3.12
840.245	5.12
840.985	4.12
841.726	4.12
842.466	3.12
843.206	4.12
843.946	4.12
844.687	2.12
845.427	3.12
846.166	5.12
846.906	5.12
847.646	4.12
848.386	3.12
849.125	3.12
849.865	5.12
850.605	4.12
851.344	4.12
852.083	4.12
852.823	5.12
853.562	3.12
854.301	2.12
855.04	2.12
855.779	1.12
856.518	4.12
857.257	0.12
857.995	4.12
858.734	2.12
859.473	3.12
860.211	1.12
860.95	1.12
861.688	0.12
862.426	1.12
863.165	1.12
863.903	5.12
864.641	4.12
865.379	2.12
866.117	1.12
866.855	2.12
867.593	2.12
868.33	1.12
869.068	2.12
869.806	0.12
870.543	1.12
871.28	2.12
872.018	1.12
872.755	1.12
873.492	2.12
874.229	1.12
874.967	0.12
875.703	0.12
876.44	2.12
877.177	1.12
877.914	0.12
878.651	0.12
879.387	2.12
880.124	2.12
880.86	1.12
881.597	2.12
882.333	0.12
883.069	1.12
883.806	0.12
884.542	1.12
885.278	1.12
886.014	1.12
886.749	0.12
887.485	0.12
888.221	3.12
888.957	-2.88
889.692	0.12
890.428	2.12
891.163	2.12
891.899	3.12
892.634	0.12
893.369	0.12
894.104	-0.88
894.839	3.12
895.574	-0.88
896.309	1.12
897.044	-1.88
897.779	1.12
898.514	1.12
899.248	0.12
899.983	1.12
900.717	1.12
901.452	0.12
902.186	1.12
902.92	0.12
903.654	1.12
904.389	2.12
905.123	-1.88
905.857	1.12
906.59	1.12
907.324	-0.88
908.058	0.12
908.792	1.12
909.525	1.12
910.259	0.12
910.992	-0.88
911.726	-0.88
912.459	2.12
913.192	1.12
913.925	0.12
914.658	0.12
915.391	-0.88
916.124	1.12
916.857	1.12
917.59	-0.88
918.323	0.12
919.055	0.12
919.788	0.12
920.521	-0.88
921.253	1.12
921.985	1.12
922.718	2.12
923.45	0.12
924.182	0.12
924.914	1.12
925.646	0.12
926.378	0.12
927.11	0.12
927.841	-0.88
928.573	0.12
929.305	-0.88
930.036	3.12
930.768	-0.88
931.499	3.12
932.23	1.12
932.962	1.12
933.693	-0.88
934.424	1.12
935.155	0.12
935.886	2.12
936.617	0.12
937.348	0.12
938.078	-0.88
938.809	0.12
939.54	-1.88
940.27	0.12
941.001	-0.88
941.731	-1.88
942.461	1.12
943.191	0.12
943.922	2.12
944.652	-0.88
945.382	-1.88
946.112	1.12
946.841	-0.88
947.571	0.12
948.301	0.12
949.031	2.12
949.76	-0.88
950.49	0.12
951.219	1.12
951.948	-0.88
952.678	-1.88
953.407	2.12
954.136	0.12
954.865	2.12
955.594	0.12
956.323	1.12
957.052	-1.88
957.78	1.12
958.509	0.12
959.238	0.12
959.966	0.12
960.695	0.12
961.423	-1.88
962.151	0.12
962.88	1.12
963.608	-0.88
964.336	-1.88
965.064	2.12
965.792	-1.88
966.52	0.12
967.247	-0.88
967.975	-1.88
968.703	1.12
969.43	0.12
970.158	1.12
970.885	-0.88
971.613	-1.88
972.34	0.12
973.067	-0.88
973.794	1.12
974.521	-0.88
975.248	1.12
975.975	0.12
976.702	-1.88
977.429	-0.88
978.156	-2.88
978.882	-1.88
979.609	0.12
980.335	0.12
981.062	2.12
981.788	-0.88
982.514	2.12
983.24	1.12
983.967	0.12
984.693	0.12
985.419	-3.88
986.144	0.12
986.87	-0.88
987.596	0.12
988.322	0.12
989.047	1.12
989.773	0.12
990.498	-0.88
991.224	0.12
991.949	-1.88
992.674	2.12
993.399	0.12
994.124	1.12
994.849	-1.88
995.574	-0.88
996.299	0.12
997.024	0.12
997.749	-0.88
998.473	0.12
999.198	-0.88
999.922	2.12
1000.647	-0.88
1001.371	2.12
1002.095	1.12
1002.82	0.12
1003.544	-1.88
1004.268	3.12
1004.992	1.12
1005.716	4.12
1006.439	2.12
1007.163	0.12
1007.887	5.12
1008.611	-0.88
1009.334	-0.88
1010.058	2.12
1010.781	2.12
1011.504	0.12
1012.228	1.12
1012.951	2.12
1013.674	-0.88
1014.397	0.12
1015.12	-2.88
