节点500_425_QEPB04081__218__15-51-56-068.txt的数据

Date: Wed Nov 12 15:51:56 CST 2025
User: PC
Spectrometer: QEPB0408
触发模式: 0
积分时间 (秒): 1.000000E-2
Scans to average: 1
启用暗噪声校正: true
启用非线性校正: false
滑动平均宽度: 0
X轴模式: Wavelengths
Number of Pixels in Spectrum: 1044
>>>>>Begin Spectral Data<<<<<
220.843	2.12
221.644	3.12
222.444	1.12
223.244	4.12
224.045	2.12
224.845	4.12
225.645	3.12
226.445	3.12
227.245	5.12
228.045	4.12
228.845	4.12
229.645	5.12
230.444	5.12
231.244	5.12
232.043	4.12
232.843	5.12
233.642	4.12
234.442	6.12
235.241	7.12
236.04	6.12
236.839	4.12
237.638	5.12
238.437	6.12
239.236	6.12
240.035	7.12
240.833	9.12
241.632	5.12
242.43	6.12
243.229	6.12
244.027	9.12
244.826	6.12
245.624	6.12
246.422	12.12
247.22	8.12
248.018	10.12
248.816	9.12
249.614	9.12
250.412	12.12
251.21	11.12
252.007	14.12
252.805	13.12
253.602	11.12
254.4	12.12
255.197	13.12
255.994	10.12
256.791	11.12
257.589	13.12
258.386	12.12
259.183	17.12
259.979	14.12
260.776	13.12
261.573	12.12
262.37	15.12
263.166	18.12
263.963	16.12
264.759	16.12
265.556	16.12
266.352	18.12
267.148	21.12
267.944	20.12
268.74	20.12
269.536	21.12
270.332	20.12
271.128	24.12
271.924	21.12
272.719	22.12
273.515	21.12
274.311	20.12
275.106	25.12
275.901	22.12
276.697	25.12
277.492	24.12
278.287	28.12
279.082	23.12
279.877	22.12
280.672	24.12
281.467	25.12
282.262	26.12
283.056	24.12
283.851	28.12
284.646	26.12
285.44	23.12
286.234	24.12
287.029	26.12
287.823	24.12
288.617	26.12
289.411	22.12
290.205	23.12
290.999	25.12
291.793	25.12
292.587	23.12
293.381	25.12
294.174	22.12
294.968	19.12
295.761	20.12
296.555	23.12
297.348	19.12
298.141	19.12
298.935	22.12
299.728	20.12
300.521	17.12
301.314	17.12
302.107	15.12
302.899	19.12
303.692	17.12
304.485	16.12
305.277	17.12
306.07	16.12
306.862	14.12
307.655	17.12
308.447	13.12
309.239	18.12
310.031	14.12
310.823	16.12
311.615	12.12
312.407	13.12
313.199	10.12
313.991	10.12
314.783	13.12
315.574	12.12
316.366	8.12
317.157	10.12
317.949	8.12
318.74	10.12
319.531	8.12
320.322	13.12
321.113	9.12
321.904	11.12
322.695	8.12
323.486	9.12
324.277	10.12
325.068	11.12
325.858	8.12
326.649	7.12
327.439	8.12
328.23	8.12
329.02	8.12
329.81	9.12
330.6	8.12
331.391	6.12
332.181	10.12
332.971	9.12
333.76	8.12
334.55	9.12
335.34	7.12
336.13	9.12
336.919	10.12
337.709	8.12
338.498	8.12
339.287	7.12
340.077	7.12
340.866	9.12
341.655	9.12
342.444	7.12
343.233	8.12
344.022	7.12
344.811	8.12
345.6	9.12
346.388	6.12
347.177	7.12
347.965	8.12
348.754	8.12
349.542	8.12
350.33	6.12
351.119	9.12
351.907	5.12
352.695	10.12
353.483	8.12
354.271	9.12
355.059	9.12
355.846	6.12
356.634	8.12
357.422	8.12
358.209	9.12
358.997	7.12
359.784	6.12
360.571	7.12
361.359	6.12
362.146	6.12
362.933	6.12
363.72	5.12
364.507	10.12
365.294	8.12
366.081	7.12
366.867	5.12
367.654	7.12
368.44	7.12
369.227	6.12
370.013	6.12
370.8	6.12
371.586	7.12
372.372	6.12
373.158	4.12
373.944	7.12
374.73	7.12
375.516	8.12
376.302	7.12
377.088	9.12
377.873	7.12
378.659	7.12
379.445	5.12
380.23	4.12
381.015	8.12
381.801	8.12
382.586	5.12
383.371	8.12
384.156	8.12
384.941	6.12
385.726	8.12
386.511	9.12
387.296	7.12
388.08	7.12
388.865	11.12
389.649	7.12
390.434	8.12
391.218	8.12
392.003	8.12
392.787	8.12
393.571	7.12
394.355	9.12
395.139	8.12
395.923	9.12
396.707	6.12
397.491	8.12
398.274	9.12
399.058	7.12
399.842	10.12
400.625	7.12
401.408	10.12
402.192	12.12
402.975	8.12
403.758	10.12
404.541	9.12
405.324	10.12
406.107	9.12
406.89	12.12
407.673	11.12
408.456	10.12
409.238	11.12
410.021	11.12
410.803	9.12
411.586	12.12
412.368	11.12
413.151	13.12
413.933	12.12
414.715	16.12
415.497	11.12
416.279	12.12
417.061	12.12
417.843	13.12
418.624	14.12
419.406	15.12
420.188	14.12
420.969	14.12
421.751	12.12
422.532	17.12
423.313	17.12
424.095	18.12
424.876	17.12
425.657	16.12
426.438	18.12
427.219	16.12
428	17.12
428.78	18.12
429.561	18.12
430.342	21.12
431.122	20.12
431.903	20.12
432.683	21.12
433.464	24.12
434.244	24.12
435.024	23.12
435.804	26.12
436.584	23.12
437.364	29.12
438.144	29.12
438.924	30.12
439.704	33.12
440.483	36.12
441.263	38.12
442.042	38.12
442.822	41.12
443.601	43.12
444.38	46.12
445.16	51.12
445.939	51.12
446.718	54.12
447.497	60.12
448.276	69.12
449.054	74.12
449.833	75.12
450.612	84.12
451.391	91.12
452.169	101.12
452.948	110.12
453.726	120.12
454.504	132.12
455.282	148.12
456.061	166.12
456.839	182.12
457.617	200.12
458.395	227.12
459.172	251.12
459.95	280.12
460.728	308.12
461.506	349.12
462.283	388.12
463.061	438.12
463.838	497.12
464.615	545.12
465.393	613.12
466.17	689.12
466.947	762.12
467.724	847.12
468.501	945.12
469.278	1044.12
470.055	1162.12
470.831	1281.12
471.608	1445.12
472.385	1578.12
473.161	1764.12
473.938	1946.12
474.714	2142.12
475.49	2362.12
476.266	2621.12
477.043	2889.12
477.819	3184.12
478.595	3539.12
479.371	3878.12
480.146	4285.12
480.922	4662.12
481.698	5143.12
482.473	5652.12
483.249	6211.12
484.024	6811.12
484.8	7457.12
485.575	8135.12
486.35	8911.12
487.126	9699.12
487.901	10587.12
488.676	11542.12
489.451	12610.12
490.225	13677.12
491	14858.12
491.775	16141.12
492.55	17444.12
493.324	18863.12
494.099	20101.12
494.873	21466.12
495.647	22875.12
496.422	24421.12
497.196	25951.12
497.97	27447.12
498.744	28896.12
499.518	30252.12
500.292	31432.12
501.066	32651.12
501.839	33726.12
502.613	34612.12
503.387	35319.12
504.16	35793.12
504.934	35974.12
505.707	35884.12
506.48	35889.12
507.253	35509.12
508.027	35087.12
508.8	34452.12
509.573	33641.12
510.346	32701.12
511.118	31683.12
511.891	30704.12
512.664	29547.12
513.437	28337.12
514.209	27236.12
514.982	26132.12
515.754	25132.12
516.526	23936.12
517.298	22993.12
518.071	22000.12
518.843	21105.12
519.615	20176.12
520.387	19421.12
521.159	18656.12
521.93	17931.12
522.702	17223.12
523.474	16562.12
524.245	15912.12
525.017	15160.12
525.788	14439.12
526.56	13821.12
527.331	13121.12
528.102	12555.12
528.873	11983.12
529.644	11355.12
530.415	10838.12
531.186	10324.12
531.957	9762.12
532.728	9227.12
533.498	8722.12
534.269	8221.12
535.039	7810.12
535.81	7418.12
536.58	6924.12
537.351	6564.12
538.121	6195.12
538.891	5849.12
539.661	5578.12
540.431	5272.12
541.201	4971.12
541.971	4737.12
542.741	4468.12
543.51	4255.12
544.28	4027.12
545.05	3846.12
545.819	3641.12
546.588	3496.12
547.358	3304.12
548.127	3133.12
548.896	2955.12
549.665	2817.12
550.434	2684.12
551.203	2543.12
551.972	2382.12
552.741	2264.12
553.51	2162.12
554.278	2019.12
555.047	1900.12
555.815	1808.12
556.584	1706.12
557.352	1599.12
558.121	1503.12
558.889	1427.12
559.657	1346.12
560.425	1269.12
561.193	1208.12
561.961	1151.12
562.729	1095.12
563.496	1021.12
564.264	955.12
565.032	914.12
565.799	869.12
566.567	814.12
567.334	765.12
568.101	727.12
568.869	684.12
569.636	646.12
570.403	605.12
571.17	572.12
571.937	548.12
572.704	515.12
573.471	487.12
574.237	460.12
575.004	431.12
575.771	405.12
576.537	376.12
577.303	355.12
578.07	343.12
578.836	323.12
579.602	295.12
580.368	288.12
581.134	274.12
581.9	255.12
582.666	248.12
583.432	227.12
584.198	229.12
584.964	206.12
585.729	199.12
586.495	190.12
587.26	180.12
588.025	165.12
588.791	159.12
589.556	152.12
590.321	142.12
591.086	132.12
591.851	127.12
592.616	124.12
593.381	119.12
594.146	109.12
594.911	111.12
595.675	100.12
596.44	98.12
597.204	95.12
597.969	90.12
598.733	85.12
599.497	81.12
600.261	77.12
601.025	73.12
601.79	69.12
602.553	68.12
603.317	63.12
604.081	64.12
604.845	61.12
605.609	55.12
606.372	56.12
607.136	49.12
607.899	52.12
608.662	48.12
609.426	51.12
610.189	45.12
610.952	43.12
611.715	43.12
612.478	40.12
613.241	39.12
614.004	37.12
614.767	39.12
615.529	35.12
616.292	35.12
617.055	32.12
617.817	32.12
618.579	33.12
619.342	30.12
620.104	29.12
620.866	26.12
621.628	28.12
622.39	25.12
623.152	28.12
623.914	23.12
624.676	24.12
625.438	21.12
626.199	24.12
626.961	22.12
627.722	17.12
628.484	20.12
629.245	20.12
630.006	18.12
630.768	17.12
631.529	17.12
632.29	19.12
633.051	14.12
633.812	18.12
634.573	14.12
635.333	17.12
636.094	17.12
636.855	16.12
637.615	14.12
638.376	14.12
639.136	14.12
639.896	11.12
640.657	12.12
641.417	14.12
642.177	11.12
642.937	13.12
643.697	8.12
644.457	12.12
645.216	9.12
645.976	12.12
646.736	10.12
647.495	9.12
648.255	10.12
649.014	10.12
649.774	10.12
650.533	11.12
651.292	9.12
652.051	12.12
652.81	8.12
653.569	9.12
654.328	8.12
655.087	8.12
655.846	10.12
656.604	9.12
657.363	11.12
658.121	8.12
658.88	10.12
659.638	8.12
660.397	6.12
661.155	9.12
661.913	5.12
662.671	6.12
663.429	8.12
664.187	4.12
664.945	6.12
665.703	7.12
666.46	9.12
667.218	4.12
667.976	8.12
668.733	6.12
669.49	7.12
670.248	8.12
671.005	6.12
671.762	7.12
672.519	4.12
673.276	6.12
674.033	6.12
674.79	6.12
675.547	7.12
676.304	6.12
677.06	7.12
677.817	5.12
678.574	6.12
679.33	8.12
680.086	5.12
680.843	5.12
681.599	7.12
682.355	3.12
683.111	4.12
683.867	4.12
684.623	4.12
685.379	4.12
686.135	4.12
686.89	5.12
687.646	5.12
688.402	6.12
689.157	3.12
689.912	8.12
690.668	4.12
691.423	6.12
692.178	5.12
692.933	7.12
693.688	4.12
694.443	4.12
695.198	8.12
695.953	5.12
696.708	4.12
697.462	6.12
698.217	5.12
698.972	4.12
699.726	3.12
700.48	4.12
701.235	6.12
701.989	6.12
702.743	1.12
703.497	5.12
704.251	5.12
705.005	5.12
705.759	3.12
706.513	5.12
707.266	6.12
708.02	5.12
708.774	4.12
709.527	3.12
710.28	6.12
711.034	5.12
711.787	7.12
712.54	4.12
713.293	5.12
714.046	6.12
714.799	6.12
715.552	5.12
716.305	5.12
717.058	4.12
717.81	4.12
718.563	6.12
719.315	5.12
720.068	2.12
720.82	5.12
721.573	6.12
722.325	8.12
723.077	5.12
723.829	3.12
724.581	5.12
725.333	7.12
726.085	7.12
726.836	5.12
727.588	6.12
728.34	6.12
729.091	5.12
729.843	8.12
730.594	6.12
731.346	6.12
732.097	7.12
732.848	5.12
733.599	7.12
734.35	4.12
735.101	6.12
735.852	6.12
736.603	5.12
737.354	7.12
738.104	5.12
738.855	5.12
739.605	8.12
740.356	6.12
741.106	4.12
741.856	9.12
742.607	7.12
743.357	5.12
744.107	7.12
744.857	3.12
745.607	8.12
746.357	8.12
747.106	5.12
747.856	8.12
748.606	5.12
749.355	5.12
750.105	6.12
750.854	8.12
751.603	4.12
752.353	6.12
753.102	7.12
753.851	8.12
754.6	9.12
755.349	11.12
756.098	6.12
756.847	7.12
757.595	8.12
758.344	9.12
759.093	8.12
759.841	8.12
760.589	7.12
761.338	10.12
762.086	12.12
762.834	9.12
763.582	8.12
764.331	9.12
765.079	6.12
765.826	9.12
766.574	8.12
767.322	11.12
768.07	10.12
768.817	11.12
769.565	10.12
770.312	10.12
771.06	11.12
771.807	8.12
772.554	12.12
773.302	9.12
774.049	11.12
774.796	10.12
775.543	10.12
776.29	13.12
777.036	13.12
777.783	12.12
778.53	12.12
779.276	14.12
780.023	14.12
780.769	9.12
781.516	12.12
782.262	10.12
783.008	13.12
783.754	11.12
784.5	14.12
785.246	12.12
785.992	11.12
786.738	10.12
787.484	14.12
788.23	10.12
788.975	10.12
789.721	10.12
790.466	10.12
791.212	10.12
791.957	14.12
792.702	11.12
793.447	9.12
794.193	10.12
794.938	11.12
795.683	9.12
796.427	10.12
797.172	8.12
797.917	9.12
798.662	9.12
799.406	9.12
800.151	10.12
800.895	9.12
801.64	9.12
802.384	7.12
803.128	9.12
803.872	9.12
804.616	7.12
805.36	9.12
806.104	7.12
806.848	9.12
807.592	8.12
808.336	7.12
809.079	8.12
809.823	9.12
810.566	7.12
811.31	5.12
812.053	9.12
812.796	5.12
813.539	7.12
814.283	6.12
815.026	5.12
815.769	9.12
816.511	4.12
817.254	6.12
817.997	4.12
818.74	4.12
819.482	5.12
820.225	6.12
820.967	5.12
821.71	3.12
822.452	4.12
823.194	6.12
823.936	4.12
824.678	4.12
825.42	6.12
826.162	6.12
826.904	3.12
827.646	4.12
828.388	5.12
829.129	5.12
829.871	7.12
830.612	4.12
831.354	6.12
832.095	4.12
832.836	5.12
833.577	4.12
834.319	3.12
835.06	5.12
835.801	3.12
836.542	2.12
837.282	2.12
838.023	3.12
838.764	5.12
839.504	3.12
840.245	4.12
840.985	5.12
841.726	3.12
842.466	4.12
843.206	4.12
843.946	6.12
844.687	3.12
845.427	3.12
846.166	4.12
846.906	4.12
847.646	3.12
848.386	3.12
849.125	5.12
849.865	2.12
850.605	2.12
851.344	4.12
852.083	2.12
852.823	3.12
853.562	4.12
854.301	7.12
855.04	4.12
855.779	3.12
856.518	4.12
857.257	2.12
857.995	5.12
858.734	1.12
859.473	1.12
860.211	2.12
860.95	2.12
861.688	1.12
862.426	4.12
863.165	3.12
863.903	5.12
864.641	2.12
865.379	2.12
866.117	2.12
866.855	2.12
867.593	1.12
868.33	1.12
869.068	3.12
869.806	0.12
870.543	1.12
871.28	2.12
872.018	3.12
872.755	2.12
873.492	0.12
874.229	0.12
874.967	0.12
875.703	2.12
876.44	1.12
877.177	2.12
877.914	1.12
878.651	-0.88
879.387	-0.88
880.124	1.12
880.86	0.12
881.597	2.12
882.333	1.12
883.069	3.12
883.806	1.12
884.542	2.12
885.278	2.12
886.014	2.12
886.749	0.12
887.485	-1.88
888.221	3.12
888.957	1.12
889.692	1.12
890.428	0.12
891.163	1.12
891.899	0.12
892.634	-0.88
893.369	1.12
894.104	1.12
894.839	2.12
895.574	-0.88
896.309	0.12
897.044	3.12
897.779	0.12
898.514	2.12
899.248	2.12
899.983	2.12
900.717	3.12
901.452	0.12
902.186	3.12
902.92	0.12
903.654	0.12
904.389	1.12
905.123	1.12
905.857	0.12
906.59	-0.88
907.324	2.12
908.058	-0.88
908.792	0.12
909.525	0.12
910.259	0.12
910.992	-0.88
911.726	2.12
912.459	2.12
913.192	2.12
913.925	0.12
914.658	0.12
915.391	0.12
916.124	-0.88
916.857	1.12
917.59	1.12
918.323	2.12
919.055	-1.88
919.788	2.12
920.521	1.12
921.253	1.12
921.985	0.12
922.718	-0.88
923.45	2.12
924.182	0.12
924.914	0.12
925.646	-0.88
926.378	-0.88
927.11	1.12
927.841	-0.88
928.573	0.12
929.305	-1.88
930.036	-1.88
930.768	0.12
931.499	-1.88
932.23	0.12
932.962	0.12
933.693	0.12
934.424	1.12
935.155	0.12
935.886	1.12
936.617	-1.88
937.348	0.12
938.078	0.12
938.809	3.12
939.54	-1.88
940.27	0.12
941.001	2.12
941.731	-0.88
942.461	0.12
943.191	-0.88
943.922	1.12
944.652	0.12
945.382	-1.88
946.112	-0.88
946.841	0.12
947.571	1.12
948.301	-0.88
949.031	0.12
949.76	1.12
950.49	0.12
951.219	1.12
951.948	0.12
952.678	0.12
953.407	-1.88
954.136	-1.88
954.865	-0.88
955.594	1.12
956.323	1.12
957.052	2.12
957.78	0.12
958.509	1.12
959.238	-0.88
959.966	1.12
960.695	-1.88
961.423	1.12
962.151	-0.88
962.88	-0.88
963.608	1.12
964.336	-0.88
965.064	0.12
965.792	2.12
966.52	0.12
967.247	0.12
967.975	0.12
968.703	3.12
969.43	1.12
970.158	0.12
970.885	0.12
971.613	0.12
972.34	0.12
973.067	-0.88
973.794	0.12
974.521	0.12
975.248	0.12
975.975	1.12
976.702	1.12
977.429	1.12
978.156	1.12
978.882	0.12
979.609	-0.88
980.335	1.12
981.062	-2.88
981.788	0.12
982.514	0.12
983.24	0.12
983.967	-0.88
984.693	-0.88
985.419	-1.88
986.144	-0.88
986.87	3.12
987.596	-1.88
988.322	3.12
989.047	-2.88
989.773	2.12
990.498	-0.88
991.224	0.12
991.949	0.12
992.674	1.12
993.399	0.12
994.124	0.12
994.849	2.12
995.574	2.12
996.299	-0.88
997.024	1.12
997.749	-1.88
998.473	0.12
999.198	-0.88
999.922	1.12
1000.647	2.12
1001.371	2.12
1002.095	1.12
1002.82	-1.88
1003.544	1.12
1004.268	4.12
1004.992	0.12
1005.716	1.12
1006.439	2.12
1007.163	4.12
1007.887	3.12
1008.611	0.12
1009.334	1.12
1010.058	0.12
1010.781	0.12
1011.504	0.12
1012.228	0.12
1012.951	1.12
1013.674	-1.88
1014.397	-0.88
1015.12	-0.88
