节点500_425_QEPB04081__190__15-51-28-113.txt的数据

Date: Wed Nov 12 15:51:28 CST 2025
User: PC
Spectrometer: QEPB0408
触发模式: 0
积分时间 (秒): 1.000000E-2
Scans to average: 1
启用暗噪声校正: true
启用非线性校正: false
滑动平均宽度: 0
X轴模式: Wavelengths
Number of Pixels in Spectrum: 1044
>>>>>Begin Spectral Data<<<<<
220.843	1.5
221.644	3.5
222.444	1.5
223.244	3.5
224.045	2.5
224.845	3.5
225.645	4.5
226.445	4.5
227.245	4.5
228.045	4.5
228.845	3.5
229.645	5.5
230.444	2.5
231.244	4.5
232.043	3.5
232.843	6.5
233.642	7.5
234.442	8.5
235.241	5.5
236.04	5.5
236.839	6.5
237.638	7.5
238.437	7.5
239.236	6.5
240.035	6.5
240.833	7.5
241.632	7.5
242.43	8.5
243.229	7.5
244.027	7.5
244.826	7.5
245.624	6.5
246.422	12.5
247.22	8.5
248.018	11.5
248.816	9.5
249.614	10.5
250.412	10.5
251.21	10.5
252.007	8.5
252.805	11.5
253.602	10.5
254.4	9.5
255.197	8.5
255.994	15.5
256.791	12.5
257.589	11.5
258.386	14.5
259.183	14.5
259.979	12.5
260.776	18.5
261.573	14.5
262.37	17.5
263.166	18.5
263.963	16.5
264.759	17.5
265.556	17.5
266.352	22.5
267.148	21.5
267.944	19.5
268.74	19.5
269.536	23.5
270.332	22.5
271.128	24.5
271.924	23.5
272.719	20.5
273.515	23.5
274.311	22.5
275.106	24.5
275.901	25.5
276.697	22.5
277.492	22.5
278.287	23.5
279.082	24.5
279.877	25.5
280.672	25.5
281.467	24.5
282.262	25.5
283.056	25.5
283.851	26.5
284.646	26.5
285.44	24.5
286.234	25.5
287.029	26.5
287.823	24.5
288.617	27.5
289.411	23.5
290.205	24.5
290.999	23.5
291.793	20.5
292.587	24.5
293.381	21.5
294.174	25.5
294.968	21.5
295.761	19.5
296.555	22.5
297.348	17.5
298.141	20.5
298.935	23.5
299.728	17.5
300.521	21.5
301.314	18.5
302.107	17.5
302.899	18.5
303.692	19.5
304.485	17.5
305.277	18.5
306.07	17.5
306.862	14.5
307.655	15.5
308.447	16.5
309.239	14.5
310.031	16.5
310.823	13.5
311.615	11.5
312.407	12.5
313.199	13.5
313.991	14.5
314.783	11.5
315.574	13.5
316.366	12.5
317.157	11.5
317.949	11.5
318.74	9.5
319.531	12.5
320.322	9.5
321.113	10.5
321.904	12.5
322.695	9.5
323.486	12.5
324.277	8.5
325.068	9.5
325.858	9.5
326.649	8.5
327.439	10.5
328.23	10.5
329.02	9.5
329.81	8.5
330.6	9.5
331.391	8.5
332.181	10.5
332.971	8.5
333.76	7.5
334.55	10.5
335.34	9.5
336.13	10.5
336.919	10.5
337.709	7.5
338.498	9.5
339.287	6.5
340.077	8.5
340.866	8.5
341.655	5.5
342.444	7.5
343.233	9.5
344.022	9.5
344.811	9.5
345.6	8.5
346.388	5.5
347.177	8.5
347.965	9.5
348.754	9.5
349.542	5.5
350.33	6.5
351.119	7.5
351.907	7.5
352.695	7.5
353.483	6.5
354.271	7.5
355.059	8.5
355.846	6.5
356.634	7.5
357.422	7.5
358.209	7.5
358.997	7.5
359.784	7.5
360.571	7.5
361.359	6.5
362.146	5.5
362.933	5.5
363.72	5.5
364.507	10.5
365.294	7.5
366.081	8.5
366.867	7.5
367.654	7.5
368.44	4.5
369.227	6.5
370.013	6.5
370.8	4.5
371.586	8.5
372.372	8.5
373.158	4.5
373.944	7.5
374.73	7.5
375.516	8.5
376.302	8.5
377.088	6.5
377.873	5.5
378.659	6.5
379.445	7.5
380.23	7.5
381.015	5.5
381.801	7.5
382.586	5.5
383.371	7.5
384.156	6.5
384.941	9.5
385.726	6.5
386.511	7.5
387.296	7.5
388.08	5.5
388.865	7.5
389.649	9.5
390.434	4.5
391.218	9.5
392.003	8.5
392.787	9.5
393.571	8.5
394.355	8.5
395.139	8.5
395.923	9.5
396.707	6.5
397.491	9.5
398.274	8.5
399.058	11.5
399.842	8.5
400.625	9.5
401.408	8.5
402.192	9.5
402.975	9.5
403.758	10.5
404.541	8.5
405.324	11.5
406.107	10.5
406.89	8.5
407.673	12.5
408.456	10.5
409.238	10.5
410.021	12.5
410.803	11.5
411.586	14.5
412.368	10.5
413.151	14.5
413.933	13.5
414.715	12.5
415.497	11.5
416.279	11.5
417.061	14.5
417.843	16.5
418.624	16.5
419.406	12.5
420.188	15.5
420.969	17.5
421.751	13.5
422.532	18.5
423.313	16.5
424.095	13.5
424.876	17.5
425.657	16.5
426.438	18.5
427.219	19.5
428	16.5
428.78	16.5
429.561	18.5
430.342	20.5
431.122	20.5
431.903	23.5
432.683	20.5
433.464	23.5
434.244	21.5
435.024	24.5
435.804	25.5
436.584	25.5
437.364	26.5
438.144	30.5
438.924	32.5
439.704	32.5
440.483	31.5
441.263	40.5
442.042	37.5
442.822	41.5
443.601	42.5
444.38	45.5
445.16	46.5
445.939	50.5
446.718	57.5
447.497	61.5
448.276	66.5
449.054	70.5
449.833	73.5
450.612	82.5
451.391	88.5
452.169	96.5
452.948	110.5
453.726	120.5
454.504	133.5
455.282	146.5
456.061	164.5
456.839	183.5
457.617	200.5
458.395	228.5
459.172	254.5
459.95	279.5
460.728	314.5
461.506	343.5
462.283	388.5
463.061	432.5
463.838	484.5
464.615	550.5
465.393	606.5
466.17	667.5
466.947	759.5
467.724	842.5
468.501	931.5
469.278	1044.5
470.055	1165.5
470.831	1285.5
471.608	1432.5
472.385	1574.5
473.161	1767.5
473.938	1942.5
474.714	2160.5
475.49	2378.5
476.266	2636.5
477.043	2895.5
477.819	3194.5
478.595	3530.5
479.371	3920.5
480.146	4285.5
480.922	4703.5
481.698	5162.5
482.473	5675.5
483.249	6225.5
484.024	6850.5
484.8	7505.5
485.575	8188.5
486.35	8938.5
487.126	9770.5
487.901	10719.5
488.676	11697.5
489.451	12682.5
490.225	13819.5
491	15030.5
491.775	16294.5
492.55	17552.5
493.324	18999.5
494.099	20396.5
494.873	21737.5
495.647	23292.5
496.422	24741.5
497.196	26177.5
497.97	27743.5
498.744	29198.5
499.518	30533.5
500.292	31800.5
501.066	32930.5
501.839	33929.5
502.613	34918.5
503.387	35579.5
504.16	35983.5
504.934	36180.5
505.707	36209.5
506.48	36092.5
507.253	35629.5
508.027	35145.5
508.8	34471.5
509.573	33695.5
510.346	32809.5
511.118	31831.5
511.891	30766.5
512.664	29535.5
513.437	28320.5
514.209	27187.5
514.982	26168.5
515.754	25037.5
516.526	23883.5
517.298	22976.5
518.071	21913.5
518.843	21089.5
519.615	20207.5
520.387	19374.5
521.159	18655.5
521.93	17915.5
522.702	17148.5
523.474	16594.5
524.245	15834.5
525.017	15132.5
525.788	14428.5
526.56	13779.5
527.331	13148.5
528.102	12522.5
528.873	11897.5
529.644	11300.5
530.415	10811.5
531.186	10274.5
531.957	9728.5
532.728	9181.5
533.498	8683.5
534.269	8192.5
535.039	7771.5
535.81	7340.5
536.58	6886.5
537.351	6499.5
538.121	6141.5
538.891	5846.5
539.661	5525.5
540.431	5228.5
541.201	4935.5
541.971	4710.5
542.741	4482.5
543.51	4241.5
544.28	4021.5
545.05	3830.5
545.819	3628.5
546.588	3460.5
547.358	3298.5
548.127	3102.5
548.896	2933.5
549.665	2792.5
550.434	2651.5
551.203	2515.5
551.972	2389.5
552.741	2253.5
553.51	2141.5
554.278	2008.5
555.047	1883.5
555.815	1790.5
556.584	1687.5
557.352	1588.5
558.121	1496.5
558.889	1423.5
559.657	1340.5
560.425	1258.5
561.193	1188.5
561.961	1124.5
562.729	1076.5
563.496	1011.5
564.264	958.5
565.032	911.5
565.799	859.5
566.567	806.5
567.334	772.5
568.101	719.5
568.869	684.5
569.636	649.5
570.403	615.5
571.17	565.5
571.937	537.5
572.704	510.5
573.471	482.5
574.237	460.5
575.004	437.5
575.771	411.5
576.537	377.5
577.303	357.5
578.07	336.5
578.836	317.5
579.602	302.5
580.368	281.5
581.134	270.5
581.9	249.5
582.666	236.5
583.432	231.5
584.198	226.5
584.964	211.5
585.729	196.5
586.495	184.5
587.26	173.5
588.025	164.5
588.791	161.5
589.556	150.5
590.321	145.5
591.086	138.5
591.851	124.5
592.616	125.5
593.381	116.5
594.146	113.5
594.911	104.5
595.675	100.5
596.44	97.5
597.204	94.5
597.969	89.5
598.733	84.5
599.497	83.5
600.261	77.5
601.025	73.5
601.79	70.5
602.553	70.5
603.317	66.5
604.081	67.5
604.845	59.5
605.609	56.5
606.372	57.5
607.136	51.5
607.899	53.5
608.662	46.5
609.426	46.5
610.189	43.5
610.952	43.5
611.715	41.5
612.478	38.5
613.241	36.5
614.004	38.5
614.767	36.5
615.529	35.5
616.292	34.5
617.055	31.5
617.817	34.5
618.579	30.5
619.342	28.5
620.104	26.5
620.866	26.5
621.628	23.5
622.39	25.5
623.152	24.5
623.914	23.5
624.676	22.5
625.438	23.5
626.199	21.5
626.961	22.5
627.722	23.5
628.484	20.5
629.245	21.5
630.006	18.5
630.768	17.5
631.529	16.5
632.29	16.5
633.051	15.5
633.812	14.5
634.573	15.5
635.333	16.5
636.094	14.5
636.855	14.5
637.615	15.5
638.376	14.5
639.136	10.5
639.896	12.5
640.657	11.5
641.417	11.5
642.177	14.5
642.937	12.5
643.697	10.5
644.457	14.5
645.216	12.5
645.976	12.5
646.736	10.5
647.495	9.5
648.255	7.5
649.014	12.5
649.774	10.5
650.533	10.5
651.292	8.5
652.051	12.5
652.81	10.5
653.569	6.5
654.328	8.5
655.087	9.5
655.846	8.5
656.604	8.5
657.363	10.5
658.121	7.5
658.88	10.5
659.638	6.5
660.397	9.5
661.155	8.5
661.913	6.5
662.671	7.5
663.429	9.5
664.187	5.5
664.945	9.5
665.703	5.5
666.46	8.5
667.218	5.5
667.976	6.5
668.733	7.5
669.49	4.5
670.248	7.5
671.005	8.5
671.762	5.5
672.519	7.5
673.276	5.5
674.033	6.5
674.79	5.5
675.547	8.5
676.304	6.5
677.06	5.5
677.817	5.5
678.574	4.5
679.33	5.5
680.086	6.5
680.843	4.5
681.599	4.5
682.355	3.5
683.111	5.5
683.867	5.5
684.623	7.5
685.379	9.5
686.135	5.5
686.89	6.5
687.646	5.5
688.402	4.5
689.157	3.5
689.912	4.5
690.668	4.5
691.423	3.5
692.178	4.5
692.933	5.5
693.688	5.5
694.443	6.5
695.198	3.5
695.953	6.5
696.708	5.5
697.462	5.5
698.217	4.5
698.972	6.5
699.726	5.5
700.48	2.5
701.235	5.5
701.989	3.5
702.743	4.5
703.497	5.5
704.251	4.5
705.005	3.5
705.759	4.5
706.513	4.5
707.266	4.5
708.02	6.5
708.774	2.5
709.527	5.5
710.28	6.5
711.034	2.5
711.787	9.5
712.54	5.5
713.293	6.5
714.046	4.5
714.799	7.5
715.552	3.5
716.305	4.5
717.058	7.5
717.81	6.5
718.563	5.5
719.315	4.5
720.068	5.5
720.82	5.5
721.573	5.5
722.325	5.5
723.077	5.5
723.829	4.5
724.581	5.5
725.333	5.5
726.085	8.5
726.836	5.5
727.588	4.5
728.34	6.5
729.091	5.5
729.843	6.5
730.594	4.5
731.346	5.5
732.097	7.5
732.848	5.5
733.599	5.5
734.35	4.5
735.101	6.5
735.852	7.5
736.603	5.5
737.354	7.5
738.104	5.5
738.855	7.5
739.605	6.5
740.356	5.5
741.106	5.5
741.856	6.5
742.607	7.5
743.357	7.5
744.107	7.5
744.857	5.5
745.607	8.5
746.357	7.5
747.106	5.5
747.856	6.5
748.606	6.5
749.355	9.5
750.105	9.5
750.854	4.5
751.603	6.5
752.353	6.5
753.102	5.5
753.851	8.5
754.6	8.5
755.349	4.5
756.098	7.5
756.847	11.5
757.595	8.5
758.344	8.5
759.093	8.5
759.841	9.5
760.589	8.5
761.338	8.5
762.086	8.5
762.834	8.5
763.582	7.5
764.331	8.5
765.079	9.5
765.826	11.5
766.574	10.5
767.322	10.5
768.07	12.5
768.817	10.5
769.565	10.5
770.312	9.5
771.06	9.5
771.807	8.5
772.554	10.5
773.302	11.5
774.049	11.5
774.796	11.5
775.543	10.5
776.29	13.5
777.036	11.5
777.783	11.5
778.53	14.5
779.276	13.5
780.023	12.5
780.769	12.5
781.516	11.5
782.262	10.5
783.008	9.5
783.754	11.5
784.5	11.5
785.246	12.5
785.992	13.5
786.738	12.5
787.484	14.5
788.23	10.5
788.975	10.5
789.721	12.5
790.466	14.5
791.212	10.5
791.957	12.5
792.702	9.5
793.447	10.5
794.193	10.5
794.938	8.5
795.683	8.5
796.427	10.5
797.172	10.5
797.917	11.5
798.662	8.5
799.406	9.5
800.151	8.5
800.895	11.5
801.64	9.5
802.384	8.5
803.128	7.5
803.872	6.5
804.616	7.5
805.36	10.5
806.104	7.5
806.848	9.5
807.592	6.5
808.336	8.5
809.079	6.5
809.823	9.5
810.566	8.5
811.31	7.5
812.053	8.5
812.796	8.5
813.539	3.5
814.283	5.5
815.026	6.5
815.769	6.5
816.511	7.5
817.254	8.5
817.997	7.5
818.74	5.5
819.482	3.5
820.225	5.5
820.967	5.5
821.71	6.5
822.452	5.5
823.194	7.5
823.936	3.5
824.678	5.5
825.42	3.5
826.162	3.5
826.904	4.5
827.646	7.5
828.388	4.5
829.129	5.5
829.871	6.5
830.612	2.5
831.354	3.5
832.095	5.5
832.836	4.5
833.577	2.5
834.319	4.5
835.06	4.5
835.801	4.5
836.542	4.5
837.282	2.5
838.023	2.5
838.764	4.5
839.504	4.5
840.245	4.5
840.985	4.5
841.726	3.5
842.466	4.5
843.206	5.5
843.946	4.5
844.687	5.5
845.427	5.5
846.166	2.5
846.906	4.5
847.646	4.5
848.386	3.5
849.125	2.5
849.865	5.5
850.605	4.5
851.344	3.5
852.083	2.5
852.823	4.5
853.562	1.5
854.301	3.5
855.04	3.5
855.779	2.5
856.518	4.5
857.257	1.5
857.995	2.5
858.734	3.5
859.473	0.5
860.211	4.5
860.95	1.5
861.688	1.5
862.426	2.5
863.165	4.5
863.903	2.5
864.641	1.5
865.379	3.5
866.117	-0.5
866.855	0.5
867.593	2.5
868.33	2.5
869.068	1.5
869.806	3.5
870.543	1.5
871.28	0.5
872.018	2.5
872.755	0.5
873.492	-0.5
874.229	2.5
874.967	2.5
875.703	2.5
876.44	2.5
877.177	-0.5
877.914	1.5
878.651	1.5
879.387	2.5
880.124	-1.5
880.86	0.5
881.597	1.5
882.333	0.5
883.069	2.5
883.806	1.5
884.542	1.5
885.278	2.5
886.014	2.5
886.749	0.5
887.485	0.5
888.221	1.5
888.957	1.5
889.692	2.5
890.428	2.5
891.163	1.5
891.899	2.5
892.634	-1.5
893.369	1.5
894.104	-1.5
894.839	0.5
895.574	0.5
896.309	0.5
897.044	0.5
897.779	0.5
898.514	1.5
899.248	1.5
899.983	0.5
900.717	1.5
901.452	-0.5
902.186	0.5
902.92	-1.5
903.654	1.5
904.389	0.5
905.123	1.5
905.857	3.5
906.59	0.5
907.324	2.5
908.058	1.5
908.792	0.5
909.525	-1.5
910.259	0.5
910.992	3.5
911.726	0.5
912.459	-1.5
913.192	-0.5
913.925	0.5
914.658	-1.5
915.391	-0.5
916.124	-0.5
916.857	-0.5
917.59	-0.5
918.323	2.5
919.055	0.5
919.788	2.5
920.521	-0.5
921.253	-0.5
921.985	1.5
922.718	0.5
923.45	-0.5
924.182	1.5
924.914	2.5
925.646	0.5
926.378	0.5
927.11	-1.5
927.841	-0.5
928.573	1.5
929.305	0.5
930.036	-0.5
930.768	2.5
931.499	-0.5
932.23	0.5
932.962	2.5
933.693	2.5
934.424	-0.5
935.155	1.5
935.886	-0.5
936.617	0.5
937.348	1.5
938.078	2.5
938.809	0.5
939.54	0.5
940.27	-0.5
941.001	0.5
941.731	1.5
942.461	-0.5
943.191	-1.5
943.922	0.5
944.652	-0.5
945.382	-1.5
946.112	0.5
946.841	-0.5
947.571	-1.5
948.301	0.5
949.031	0.5
949.76	1.5
950.49	0.5
951.219	1.5
951.948	0.5
952.678	-0.5
953.407	-1.5
954.136	-1.5
954.865	1.5
955.594	0.5
956.323	1.5
957.052	-0.5
957.78	1.5
958.509	2.5
959.238	0.5
959.966	-0.5
960.695	0.5
961.423	1.5
962.151	-0.5
962.88	-2.5
963.608	0.5
964.336	0.5
965.064	-0.5
965.792	0.5
966.52	-0.5
967.247	1.5
967.975	0.5
968.703	1.5
969.43	-0.5
970.158	0.5
970.885	0.5
971.613	-1.5
972.34	2.5
973.067	1.5
973.794	-1.5
974.521	1.5
975.248	2.5
975.975	2.5
976.702	-2.5
977.429	1.5
978.156	1.5
978.882	-0.5
979.609	1.5
980.335	2.5
981.062	-0.5
981.788	1.5
982.514	-0.5
983.24	-0.5
983.967	-0.5
984.693	0.5
985.419	-2.5
986.144	0.5
986.87	0.5
987.596	-0.5
988.322	0.5
989.047	-0.5
989.773	-1.5
990.498	1.5
991.224	2.5
991.949	-0.5
992.674	-1.5
993.399	-0.5
994.124	-1.5
994.849	0.5
995.574	0.5
996.299	-1.5
997.024	1.5
997.749	-0.5
998.473	0.5
999.198	-0.5
999.922	-0.5
1000.647	0.5
1001.371	2.5
1002.095	-2.5
1002.82	0.5
1003.544	-1.5
1004.268	3.5
1004.992	2.5
1005.716	2.5
1006.439	2.5
1007.163	1.5
1007.887	3.5
1008.611	-1.5
1009.334	-0.5
1010.058	-1.5
1010.781	2.5
1011.504	-0.5
1012.228	-0.5
1012.951	0.5
1013.674	-0.5
1014.397	1.5
1015.12	-0.5
