节点500_425_QEPB04081__280__15-52-57-970.txt的数据

Date: Wed Nov 12 15:52:57 CST 2025
User: PC
Spectrometer: QEPB0408
触发模式: 0
积分时间 (秒): 1.000000E-2
Scans to average: 1
启用暗噪声校正: true
启用非线性校正: false
滑动平均宽度: 0
X轴模式: Wavelengths
Number of Pixels in Spectrum: 1044
>>>>>Begin Spectral Data<<<<<
220.843	3.12
221.644	3.12
222.444	2.12
223.244	4.12
224.045	2.12
224.845	4.12
225.645	2.12
226.445	1.12
227.245	4.12
228.045	5.12
228.845	2.12
229.645	5.12
230.444	5.12
231.244	5.12
232.043	5.12
232.843	5.12
233.642	5.12
234.442	7.12
235.241	6.12
236.04	3.12
236.839	7.12
237.638	7.12
238.437	7.12
239.236	5.12
240.035	9.12
240.833	7.12
241.632	7.12
242.43	8.12
243.229	10.12
244.027	9.12
244.826	8.12
245.624	6.12
246.422	10.12
247.22	8.12
248.018	10.12
248.816	10.12
249.614	9.12
250.412	9.12
251.21	9.12
252.007	8.12
252.805	9.12
253.602	12.12
254.4	10.12
255.197	13.12
255.994	13.12
256.791	12.12
257.589	14.12
258.386	14.12
259.183	13.12
259.979	13.12
260.776	17.12
261.573	15.12
262.37	16.12
263.166	16.12
263.963	17.12
264.759	17.12
265.556	16.12
266.352	18.12
267.148	16.12
267.944	18.12
268.74	19.12
269.536	21.12
270.332	19.12
271.128	20.12
271.924	18.12
272.719	20.12
273.515	25.12
274.311	21.12
275.106	25.12
275.901	23.12
276.697	26.12
277.492	23.12
278.287	26.12
279.082	26.12
279.877	25.12
280.672	24.12
281.467	23.12
282.262	24.12
283.056	29.12
283.851	25.12
284.646	25.12
285.44	26.12
286.234	25.12
287.029	25.12
287.823	25.12
288.617	24.12
289.411	25.12
290.205	24.12
290.999	22.12
291.793	26.12
292.587	26.12
293.381	23.12
294.174	21.12
294.968	21.12
295.761	21.12
296.555	20.12
297.348	18.12
298.141	20.12
298.935	19.12
299.728	20.12
300.521	17.12
301.314	21.12
302.107	17.12
302.899	17.12
303.692	17.12
304.485	16.12
305.277	16.12
306.07	17.12
306.862	16.12
307.655	14.12
308.447	15.12
309.239	19.12
310.031	14.12
310.823	15.12
311.615	14.12
312.407	12.12
313.199	14.12
313.991	11.12
314.783	15.12
315.574	12.12
316.366	11.12
317.157	14.12
317.949	12.12
318.74	12.12
319.531	10.12
320.322	10.12
321.113	12.12
321.904	10.12
322.695	11.12
323.486	10.12
324.277	9.12
325.068	9.12
325.858	9.12
326.649	11.12
327.439	8.12
328.23	9.12
329.02	7.12
329.81	10.12
330.6	10.12
331.391	9.12
332.181	9.12
332.971	9.12
333.76	7.12
334.55	11.12
335.34	5.12
336.13	9.12
336.919	10.12
337.709	8.12
338.498	9.12
339.287	11.12
340.077	9.12
340.866	8.12
341.655	6.12
342.444	6.12
343.233	10.12
344.022	7.12
344.811	8.12
345.6	9.12
346.388	8.12
347.177	11.12
347.965	7.12
348.754	8.12
349.542	10.12
350.33	7.12
351.119	7.12
351.907	9.12
352.695	7.12
353.483	9.12
354.271	7.12
355.059	6.12
355.846	7.12
356.634	6.12
357.422	6.12
358.209	7.12
358.997	9.12
359.784	6.12
360.571	7.12
361.359	5.12
362.146	8.12
362.933	10.12
363.72	7.12
364.507	6.12
365.294	7.12
366.081	8.12
366.867	8.12
367.654	5.12
368.44	8.12
369.227	6.12
370.013	7.12
370.8	9.12
371.586	8.12
372.372	6.12
373.158	8.12
373.944	6.12
374.73	8.12
375.516	7.12
376.302	6.12
377.088	7.12
377.873	9.12
378.659	8.12
379.445	6.12
380.23	6.12
381.015	8.12
381.801	6.12
382.586	8.12
383.371	8.12
384.156	7.12
384.941	6.12
385.726	8.12
386.511	9.12
387.296	9.12
388.08	8.12
388.865	9.12
389.649	7.12
390.434	8.12
391.218	5.12
392.003	9.12
392.787	10.12
393.571	8.12
394.355	8.12
395.139	6.12
395.923	9.12
396.707	10.12
397.491	6.12
398.274	11.12
399.058	7.12
399.842	9.12
400.625	10.12
401.408	11.12
402.192	10.12
402.975	7.12
403.758	9.12
404.541	10.12
405.324	10.12
406.107	10.12
406.89	10.12
407.673	9.12
408.456	10.12
409.238	10.12
410.021	10.12
410.803	10.12
411.586	10.12
412.368	10.12
413.151	11.12
413.933	11.12
414.715	14.12
415.497	14.12
416.279	14.12
417.061	14.12
417.843	12.12
418.624	15.12
419.406	12.12
420.188	16.12
420.969	12.12
421.751	14.12
422.532	14.12
423.313	13.12
424.095	15.12
424.876	17.12
425.657	19.12
426.438	16.12
427.219	14.12
428	18.12
428.78	20.12
429.561	20.12
430.342	18.12
431.122	23.12
431.903	21.12
432.683	21.12
433.464	23.12
434.244	24.12
435.024	22.12
435.804	26.12
436.584	25.12
437.364	30.12
438.144	29.12
438.924	31.12
439.704	30.12
440.483	36.12
441.263	33.12
442.042	35.12
442.822	41.12
443.601	47.12
444.38	48.12
445.16	51.12
445.939	54.12
446.718	57.12
447.497	63.12
448.276	68.12
449.054	71.12
449.833	78.12
450.612	88.12
451.391	96.12
452.169	99.12
452.948	112.12
453.726	126.12
454.504	135.12
455.282	150.12
456.061	166.12
456.839	184.12
457.617	211.12
458.395	227.12
459.172	264.12
459.95	279.12
460.728	316.12
461.506	352.12
462.283	401.12
463.061	445.12
463.838	500.12
464.615	550.12
465.393	620.12
466.17	692.12
466.947	761.12
467.724	845.12
468.501	946.12
469.278	1044.12
470.055	1177.12
470.831	1304.12
471.608	1441.12
472.385	1581.12
473.161	1749.12
473.938	1947.12
474.714	2175.12
475.49	2385.12
476.266	2605.12
477.043	2872.12
477.819	3183.12
478.595	3509.12
479.371	3857.12
480.146	4216.12
480.922	4645.12
481.698	5102.12
482.473	5605.12
483.249	6126.12
484.024	6730.12
484.8	7398.12
485.575	7982.12
486.35	8723.12
487.126	9536.12
487.901	10420.12
488.676	11317.12
489.451	12282.12
490.225	13396.12
491	14524.12
491.775	15681.12
492.55	17001.12
493.324	18344.12
494.099	19640.12
494.873	20992.12
495.647	22391.12
496.422	23806.12
497.196	25200.12
497.97	26715.12
498.744	28143.12
499.518	29512.12
500.292	30748.12
501.066	31817.12
501.839	32903.12
502.613	33888.12
503.387	34514.12
504.16	35038.12
504.934	35373.12
505.707	35437.12
506.48	35280.12
507.253	34962.12
508.027	34629.12
508.8	34056.12
509.573	33290.12
510.346	32494.12
511.118	31530.12
511.891	30545.12
512.664	29414.12
513.437	28250.12
514.209	27108.12
514.982	26078.12
515.754	25042.12
516.526	23926.12
517.298	22987.12
518.071	22000.12
518.843	21163.12
519.615	20247.12
520.387	19406.12
521.159	18708.12
521.93	17971.12
522.702	17242.12
523.474	16633.12
524.245	15939.12
525.017	15134.12
525.788	14409.12
526.56	13818.12
527.331	13244.12
528.102	12629.12
528.873	11984.12
529.644	11401.12
530.415	10885.12
531.186	10361.12
531.957	9822.12
532.728	9305.12
533.498	8761.12
534.269	8312.12
535.039	7866.12
535.81	7401.12
536.58	7038.12
537.351	6570.12
538.121	6223.12
538.891	5937.12
539.661	5604.12
540.431	5328.12
541.201	4998.12
541.971	4794.12
542.741	4537.12
543.51	4292.12
544.28	4057.12
545.05	3872.12
545.819	3708.12
546.588	3503.12
547.358	3336.12
548.127	3147.12
548.896	2994.12
549.665	2850.12
550.434	2678.12
551.203	2554.12
551.972	2412.12
552.741	2285.12
553.51	2150.12
554.278	2033.12
555.047	1929.12
555.815	1841.12
556.584	1728.12
557.352	1628.12
558.121	1537.12
558.889	1437.12
559.657	1364.12
560.425	1293.12
561.193	1222.12
561.961	1147.12
562.729	1095.12
563.496	1030.12
564.264	974.12
565.032	918.12
565.799	874.12
566.567	836.12
567.334	785.12
568.101	743.12
568.869	691.12
569.636	656.12
570.403	614.12
571.17	584.12
571.937	548.12
572.704	524.12
573.471	487.12
574.237	462.12
575.004	434.12
575.771	410.12
576.537	391.12
577.303	356.12
578.07	350.12
578.836	316.12
579.602	304.12
580.368	285.12
581.134	275.12
581.9	260.12
582.666	243.12
583.432	233.12
584.198	224.12
584.964	214.12
585.729	198.12
586.495	192.12
587.26	176.12
588.025	173.12
588.791	161.12
589.556	153.12
590.321	141.12
591.086	138.12
591.851	134.12
592.616	128.12
593.381	115.12
594.146	116.12
594.911	102.12
595.675	99.12
596.44	98.12
597.204	95.12
597.969	91.12
598.733	83.12
599.497	83.12
600.261	79.12
601.025	77.12
601.79	72.12
602.553	68.12
603.317	67.12
604.081	64.12
604.845	60.12
605.609	60.12
606.372	57.12
607.136	52.12
607.899	52.12
608.662	50.12
609.426	49.12
610.189	45.12
610.952	42.12
611.715	44.12
612.478	41.12
613.241	38.12
614.004	39.12
614.767	35.12
615.529	37.12
616.292	34.12
617.055	31.12
617.817	31.12
618.579	33.12
619.342	28.12
620.104	27.12
620.866	27.12
621.628	27.12
622.39	27.12
623.152	23.12
623.914	25.12
624.676	24.12
625.438	23.12
626.199	22.12
626.961	22.12
627.722	21.12
628.484	18.12
629.245	19.12
630.006	18.12
630.768	17.12
631.529	17.12
632.29	18.12
633.051	16.12
633.812	15.12
634.573	15.12
635.333	16.12
636.094	17.12
636.855	14.12
637.615	13.12
638.376	13.12
639.136	11.12
639.896	13.12
640.657	13.12
641.417	12.12
642.177	12.12
642.937	11.12
643.697	14.12
644.457	15.12
645.216	11.12
645.976	9.12
646.736	12.12
647.495	9.12
648.255	12.12
649.014	10.12
649.774	9.12
650.533	11.12
651.292	8.12
652.051	10.12
652.81	10.12
653.569	11.12
654.328	10.12
655.087	8.12
655.846	9.12
656.604	6.12
657.363	9.12
658.121	8.12
658.88	6.12
659.638	6.12
660.397	7.12
661.155	9.12
661.913	7.12
662.671	8.12
663.429	7.12
664.187	7.12
664.945	7.12
665.703	4.12
666.46	7.12
667.218	5.12
667.976	7.12
668.733	8.12
669.49	7.12
670.248	6.12
671.005	7.12
671.762	6.12
672.519	4.12
673.276	7.12
674.033	5.12
674.79	7.12
675.547	6.12
676.304	4.12
677.06	4.12
677.817	7.12
678.574	6.12
679.33	4.12
680.086	7.12
680.843	4.12
681.599	5.12
682.355	5.12
683.111	5.12
683.867	4.12
684.623	6.12
685.379	5.12
686.135	5.12
686.89	5.12
687.646	5.12
688.402	6.12
689.157	5.12
689.912	7.12
690.668	6.12
691.423	4.12
692.178	6.12
692.933	5.12
693.688	4.12
694.443	4.12
695.198	2.12
695.953	5.12
696.708	4.12
697.462	4.12
698.217	3.12
698.972	6.12
699.726	3.12
700.48	7.12
701.235	5.12
701.989	4.12
702.743	3.12
703.497	4.12
704.251	4.12
705.005	5.12
705.759	5.12
706.513	6.12
707.266	4.12
708.02	4.12
708.774	4.12
709.527	6.12
710.28	4.12
711.034	5.12
711.787	3.12
712.54	5.12
713.293	6.12
714.046	4.12
714.799	4.12
715.552	4.12
716.305	5.12
717.058	7.12
717.81	2.12
718.563	5.12
719.315	7.12
720.068	6.12
720.82	4.12
721.573	5.12
722.325	5.12
723.077	5.12
723.829	4.12
724.581	3.12
725.333	6.12
726.085	7.12
726.836	5.12
727.588	4.12
728.34	6.12
729.091	6.12
729.843	4.12
730.594	7.12
731.346	6.12
732.097	6.12
732.848	4.12
733.599	5.12
734.35	6.12
735.101	8.12
735.852	4.12
736.603	5.12
737.354	6.12
738.104	5.12
738.855	7.12
739.605	5.12
740.356	5.12
741.106	4.12
741.856	6.12
742.607	5.12
743.357	5.12
744.107	5.12
744.857	6.12
745.607	9.12
746.357	7.12
747.106	8.12
747.856	6.12
748.606	6.12
749.355	8.12
750.105	8.12
750.854	5.12
751.603	7.12
752.353	6.12
753.102	8.12
753.851	9.12
754.6	8.12
755.349	8.12
756.098	8.12
756.847	9.12
757.595	8.12
758.344	9.12
759.093	8.12
759.841	9.12
760.589	7.12
761.338	9.12
762.086	8.12
762.834	9.12
763.582	9.12
764.331	10.12
765.079	8.12
765.826	9.12
766.574	10.12
767.322	10.12
768.07	8.12
768.817	10.12
769.565	12.12
770.312	9.12
771.06	11.12
771.807	10.12
772.554	11.12
773.302	8.12
774.049	9.12
774.796	10.12
775.543	11.12
776.29	12.12
777.036	12.12
777.783	12.12
778.53	10.12
779.276	9.12
780.023	13.12
780.769	12.12
781.516	11.12
782.262	13.12
783.008	11.12
783.754	10.12
784.5	12.12
785.246	13.12
785.992	11.12
786.738	11.12
787.484	10.12
788.23	10.12
788.975	10.12
789.721	9.12
790.466	11.12
791.212	12.12
791.957	11.12
792.702	12.12
793.447	9.12
794.193	10.12
794.938	12.12
795.683	12.12
796.427	9.12
797.172	8.12
797.917	8.12
798.662	10.12
799.406	9.12
800.151	10.12
800.895	7.12
801.64	12.12
802.384	8.12
803.128	12.12
803.872	6.12
804.616	10.12
805.36	8.12
806.104	9.12
806.848	8.12
807.592	5.12
808.336	10.12
809.079	9.12
809.823	4.12
810.566	8.12
811.31	7.12
812.053	9.12
812.796	6.12
813.539	7.12
814.283	8.12
815.026	7.12
815.769	6.12
816.511	8.12
817.254	7.12
817.997	5.12
818.74	7.12
819.482	6.12
820.225	4.12
820.967	6.12
821.71	4.12
822.452	6.12
823.194	6.12
823.936	5.12
824.678	5.12
825.42	4.12
826.162	6.12
826.904	6.12
827.646	4.12
828.388	4.12
829.129	4.12
829.871	6.12
830.612	4.12
831.354	5.12
832.095	7.12
832.836	3.12
833.577	4.12
834.319	4.12
835.06	3.12
835.801	7.12
836.542	6.12
837.282	4.12
838.023	6.12
838.764	8.12
839.504	4.12
840.245	5.12
840.985	3.12
841.726	4.12
842.466	4.12
843.206	4.12
843.946	3.12
844.687	4.12
845.427	3.12
846.166	4.12
846.906	4.12
847.646	4.12
848.386	2.12
849.125	4.12
849.865	4.12
850.605	3.12
851.344	4.12
852.083	2.12
852.823	2.12
853.562	3.12
854.301	0.12
855.04	4.12
855.779	5.12
856.518	1.12
857.257	1.12
857.995	5.12
858.734	3.12
859.473	2.12
860.211	4.12
860.95	3.12
861.688	3.12
862.426	3.12
863.165	0.12
863.903	2.12
864.641	0.12
865.379	2.12
866.117	1.12
866.855	4.12
867.593	2.12
868.33	1.12
869.068	2.12
869.806	2.12
870.543	-0.88
871.28	1.12
872.018	1.12
872.755	2.12
873.492	3.12
874.229	1.12
874.967	1.12
875.703	3.12
876.44	0.12
877.177	3.12
877.914	1.12
878.651	0.12
879.387	0.12
880.124	2.12
880.86	2.12
881.597	0.12
882.333	2.12
883.069	-0.88
883.806	0.12
884.542	0.12
885.278	-0.88
886.014	2.12
886.749	2.12
887.485	0.12
888.221	-0.88
888.957	2.12
889.692	0.12
890.428	1.12
891.163	0.12
891.899	1.12
892.634	0.12
893.369	0.12
894.104	1.12
894.839	-0.88
895.574	2.12
896.309	1.12
897.044	-0.88
897.779	1.12
898.514	1.12
899.248	0.12
899.983	1.12
900.717	1.12
901.452	1.12
902.186	3.12
902.92	0.12
903.654	0.12
904.389	3.12
905.123	1.12
905.857	2.12
906.59	0.12
907.324	1.12
908.058	1.12
908.792	0.12
909.525	3.12
910.259	-0.88
910.992	1.12
911.726	2.12
912.459	-0.88
913.192	1.12
913.925	-0.88
914.658	2.12
915.391	2.12
916.124	1.12
916.857	2.12
917.59	-0.88
918.323	1.12
919.055	1.12
919.788	2.12
920.521	-0.88
921.253	0.12
921.985	0.12
922.718	-0.88
923.45	-0.88
924.182	-0.88
924.914	2.12
925.646	0.12
926.378	0.12
927.11	0.12
927.841	1.12
928.573	0.12
929.305	-0.88
930.036	0.12
930.768	2.12
931.499	0.12
932.23	1.12
932.962	0.12
933.693	-0.88
934.424	1.12
935.155	1.12
935.886	1.12
936.617	-1.88
937.348	1.12
938.078	-1.88
938.809	-1.88
939.54	1.12
940.27	-1.88
941.001	0.12
941.731	0.12
942.461	1.12
943.191	0.12
943.922	0.12
944.652	0.12
945.382	-1.88
946.112	1.12
946.841	-1.88
947.571	0.12
948.301	0.12
949.031	-0.88
949.76	2.12
950.49	0.12
951.219	1.12
951.948	0.12
952.678	-0.88
953.407	1.12
954.136	0.12
954.865	2.12
955.594	0.12
956.323	0.12
957.052	0.12
957.78	0.12
958.509	0.12
959.238	1.12
959.966	-1.88
960.695	-0.88
961.423	1.12
962.151	0.12
962.88	0.12
963.608	1.12
964.336	-1.88
965.064	0.12
965.792	3.12
966.52	3.12
967.247	1.12
967.975	0.12
968.703	0.12
969.43	0.12
970.158	1.12
970.885	0.12
971.613	0.12
972.34	-1.88
973.067	-0.88
973.794	1.12
974.521	-0.88
975.248	0.12
975.975	1.12
976.702	1.12
977.429	-1.88
978.156	0.12
978.882	-1.88
979.609	1.12
980.335	0.12
981.062	1.12
981.788	2.12
982.514	1.12
983.24	1.12
983.967	-1.88
984.693	2.12
985.419	0.12
986.144	2.12
986.87	-1.88
987.596	1.12
988.322	0.12
989.047	0.12
989.773	-0.88
990.498	0.12
991.224	0.12
991.949	-0.88
992.674	-1.88
993.399	1.12
994.124	0.12
994.849	-1.88
995.574	0.12
996.299	0.12
997.024	-0.88
997.749	-0.88
998.473	0.12
999.198	0.12
999.922	1.12
1000.647	1.12
1001.371	2.12
1002.095	1.12
1002.82	0.12
1003.544	0.12
1004.268	2.12
1004.992	4.12
1005.716	3.12
1006.439	0.12
1007.163	1.12
1007.887	5.12
1008.611	-2.88
1009.334	1.12
1010.058	-0.88
1010.781	0.12
1011.504	0.12
1012.228	0.12
1012.951	-0.88
1013.674	-0.88
1014.397	-0.88
1015.12	-0.88
