节点500_425_QEPB04081__606__15-58-23-394.txt的数据

Date: Wed Nov 12 15:58:23 CST 2025
User: PC
Spectrometer: QEPB0408
触发模式: 0
积分时间 (秒): 1.000000E-2
Scans to average: 1
启用暗噪声校正: true
启用非线性校正: false
滑动平均宽度: 0
X轴模式: Wavelengths
Number of Pixels in Spectrum: 1044
>>>>>Begin Spectral Data<<<<<
220.843	2.88
221.644	1.88
222.444	1.88
223.244	3.88
224.045	3.88
224.845	2.88
225.645	3.88
226.445	2.88
227.245	2.88
228.045	1.88
228.845	1.88
229.645	2.88
230.444	1.88
231.244	3.88
232.043	3.88
232.843	4.88
233.642	7.88
234.442	2.88
235.241	6.88
236.04	1.88
236.839	5.88
237.638	3.88
238.437	2.88
239.236	5.88
240.035	5.88
240.833	6.88
241.632	5.88
242.43	3.88
243.229	6.88
244.027	5.88
244.826	8.88
245.624	5.88
246.422	6.88
247.22	8.88
248.018	5.88
248.816	9.88
249.614	7.88
250.412	9.88
251.21	7.88
252.007	8.88
252.805	8.88
253.602	8.88
254.4	8.88
255.197	8.88
255.994	11.88
256.791	10.88
257.589	11.88
258.386	11.88
259.183	11.88
259.979	13.88
260.776	9.88
261.573	12.88
262.37	15.88
263.166	12.88
263.963	12.88
264.759	13.88
265.556	14.88
266.352	15.88
267.148	17.88
267.944	17.88
268.74	13.88
269.536	15.88
270.332	16.88
271.128	20.88
271.924	22.88
272.719	19.88
273.515	18.88
274.311	17.88
275.106	17.88
275.901	23.88
276.697	18.88
277.492	22.88
278.287	19.88
279.082	21.88
279.877	20.88
280.672	19.88
281.467	22.88
282.262	18.88
283.056	22.88
283.851	24.88
284.646	20.88
285.44	20.88
286.234	23.88
287.029	24.88
287.823	24.88
288.617	21.88
289.411	17.88
290.205	20.88
290.999	22.88
291.793	20.88
292.587	22.88
293.381	20.88
294.174	20.88
294.968	18.88
295.761	18.88
296.555	19.88
297.348	17.88
298.141	20.88
298.935	19.88
299.728	18.88
300.521	18.88
301.314	15.88
302.107	18.88
302.899	14.88
303.692	13.88
304.485	13.88
305.277	16.88
306.07	18.88
306.862	13.88
307.655	13.88
308.447	14.88
309.239	13.88
310.031	17.88
310.823	13.88
311.615	13.88
312.407	12.88
313.199	11.88
313.991	11.88
314.783	12.88
315.574	9.88
316.366	10.88
317.157	11.88
317.949	8.88
318.74	10.88
319.531	7.88
320.322	6.88
321.113	8.88
321.904	8.88
322.695	10.88
323.486	7.88
324.277	8.88
325.068	8.88
325.858	8.88
326.649	7.88
327.439	8.88
328.23	6.88
329.02	7.88
329.81	7.88
330.6	8.88
331.391	7.88
332.181	8.88
332.971	8.88
333.76	7.88
334.55	8.88
335.34	4.88
336.13	8.88
336.919	6.88
337.709	7.88
338.498	9.88
339.287	8.88
340.077	8.88
340.866	8.88
341.655	7.88
342.444	6.88
343.233	6.88
344.022	7.88
344.811	9.88
345.6	7.88
346.388	5.88
347.177	6.88
347.965	8.88
348.754	6.88
349.542	7.88
350.33	8.88
351.119	9.88
351.907	5.88
352.695	6.88
353.483	7.88
354.271	7.88
355.059	7.88
355.846	4.88
356.634	5.88
357.422	5.88
358.209	5.88
358.997	6.88
359.784	8.88
360.571	8.88
361.359	6.88
362.146	4.88
362.933	5.88
363.72	7.88
364.507	6.88
365.294	3.88
366.081	5.88
366.867	6.88
367.654	3.88
368.44	3.88
369.227	6.88
370.013	4.88
370.8	4.88
371.586	5.88
372.372	6.88
373.158	5.88
373.944	4.88
374.73	6.88
375.516	5.88
376.302	3.88
377.088	3.88
377.873	4.88
378.659	5.88
379.445	5.88
380.23	3.88
381.015	7.88
381.801	6.88
382.586	4.88
383.371	5.88
384.156	7.88
384.941	7.88
385.726	4.88
386.511	5.88
387.296	9.88
388.08	7.88
388.865	8.88
389.649	6.88
390.434	9.88
391.218	6.88
392.003	6.88
392.787	6.88
393.571	6.88
394.355	6.88
395.139	9.88
395.923	8.88
396.707	5.88
397.491	6.88
398.274	9.88
399.058	5.88
399.842	6.88
400.625	9.88
401.408	7.88
402.192	13.88
402.975	7.88
403.758	5.88
404.541	9.88
405.324	8.88
406.107	8.88
406.89	8.88
407.673	10.88
408.456	9.88
409.238	10.88
410.021	11.88
410.803	10.88
411.586	11.88
412.368	10.88
413.151	11.88
413.933	8.88
414.715	9.88
415.497	11.88
416.279	7.88
417.061	11.88
417.843	11.88
418.624	13.88
419.406	12.88
420.188	12.88
420.969	11.88
421.751	13.88
422.532	13.88
423.313	15.88
424.095	12.88
424.876	12.88
425.657	16.88
426.438	16.88
427.219	14.88
428	17.88
428.78	17.88
429.561	15.88
430.342	18.88
431.122	19.88
431.903	20.88
432.683	21.88
433.464	21.88
434.244	25.88
435.024	21.88
435.804	26.88
436.584	23.88
437.364	27.88
438.144	27.88
438.924	30.88
439.704	33.88
440.483	33.88
441.263	36.88
442.042	36.88
442.822	43.88
443.601	43.88
444.38	46.88
445.16	49.88
445.939	54.88
446.718	61.88
447.497	64.88
448.276	70.88
449.054	81.88
449.833	85.88
450.612	90.88
451.391	98.88
452.169	112.88
452.948	125.88
453.726	140.88
454.504	151.88
455.282	165.88
456.061	182.88
456.839	206.88
457.617	227.88
458.395	253.88
459.172	286.88
459.95	310.88
460.728	350.88
461.506	384.88
462.283	435.88
463.061	477.88
463.838	539.88
464.615	595.88
465.393	654.88
466.17	732.88
466.947	819.88
467.724	909.88
468.501	1004.88
469.278	1093.88
470.055	1226.88
470.831	1358.88
471.608	1492.88
472.385	1634.88
473.161	1801.88
473.938	1974.88
474.714	2172.88
475.49	2381.88
476.266	2598.88
477.043	2832.88
477.819	3137.88
478.595	3405.88
479.371	3728.88
480.146	4040.88
480.922	4431.88
481.698	4815.88
482.473	5268.88
483.249	5700.88
484.024	6228.88
484.8	6759.88
485.575	7334.88
486.35	7922.88
487.126	8620.88
487.901	9370.88
488.676	10119.88
489.451	10941.88
490.225	11821.88
491	12747.88
491.775	13729.88
492.55	14772.88
493.324	15853.88
494.099	16965.88
494.873	18090.88
495.647	19263.88
496.422	20520.88
497.196	21766.88
497.97	23037.88
498.744	24310.88
499.518	25577.88
500.292	26747.88
501.066	27795.88
501.839	28899.88
502.613	29829.88
503.387	30720.88
504.16	31434.88
504.934	31917.88
505.707	32277.88
506.48	32462.88
507.253	32441.88
508.027	32272.88
508.8	32161.88
509.573	31795.88
510.346	31249.88
511.118	30519.88
511.891	29757.88
512.664	28901.88
513.437	28048.88
514.209	27037.88
514.982	26183.88
515.754	25251.88
516.526	24214.88
517.298	23256.88
518.071	22295.88
518.843	21475.88
519.615	20615.88
520.387	19758.88
521.159	19064.88
521.93	18407.88
522.702	17561.88
523.474	16939.88
524.245	16276.88
525.017	15538.88
525.788	14854.88
526.56	14255.88
527.331	13667.88
528.102	13068.88
528.873	12417.88
529.644	11874.88
530.415	11350.88
531.186	10844.88
531.957	10312.88
532.728	9791.88
533.498	9267.88
534.269	8771.88
535.039	8339.88
535.81	7883.88
536.58	7469.88
537.351	7039.88
538.121	6657.88
538.891	6316.88
539.661	6009.88
540.431	5665.88
541.201	5366.88
541.971	5095.88
542.741	4848.88
543.51	4593.88
544.28	4368.88
545.05	4145.88
545.819	3986.88
546.588	3760.88
547.358	3562.88
548.127	3393.88
548.896	3222.88
549.665	3059.88
550.434	2894.88
551.203	2762.88
551.972	2605.88
552.741	2476.88
553.51	2330.88
554.278	2198.88
555.047	2075.88
555.815	1984.88
556.584	1867.88
557.352	1761.88
558.121	1664.88
558.889	1561.88
559.657	1504.88
560.425	1415.88
561.193	1324.88
561.961	1285.88
562.729	1177.88
563.496	1130.88
564.264	1076.88
565.032	1009.88
565.799	953.88
566.567	896.88
567.334	856.88
568.101	817.88
568.869	760.88
569.636	718.88
570.403	671.88
571.17	635.88
571.937	602.88
572.704	566.88
573.471	534.88
574.237	509.88
575.004	470.88
575.771	450.88
576.537	425.88
577.303	401.88
578.07	369.88
578.836	347.88
579.602	332.88
580.368	316.88
581.134	301.88
581.9	279.88
582.666	275.88
583.432	257.88
584.198	247.88
584.964	228.88
585.729	227.88
586.495	204.88
587.26	194.88
588.025	186.88
588.791	179.88
589.556	167.88
590.321	158.88
591.086	149.88
591.851	141.88
592.616	138.88
593.381	130.88
594.146	122.88
594.911	114.88
595.675	109.88
596.44	104.88
597.204	100.88
597.969	95.88
598.733	93.88
599.497	91.88
600.261	88.88
601.025	82.88
601.79	73.88
602.553	75.88
603.317	72.88
604.081	67.88
604.845	63.88
605.609	61.88
606.372	59.88
607.136	52.88
607.899	58.88
608.662	52.88
609.426	50.88
610.189	47.88
610.952	45.88
611.715	45.88
612.478	44.88
613.241	40.88
614.004	40.88
614.767	39.88
615.529	38.88
616.292	32.88
617.055	38.88
617.817	36.88
618.579	29.88
619.342	30.88
620.104	29.88
620.866	25.88
621.628	26.88
622.39	26.88
623.152	23.88
623.914	23.88
624.676	24.88
625.438	22.88
626.199	22.88
626.961	20.88
627.722	20.88
628.484	21.88
629.245	20.88
630.006	20.88
630.768	21.88
631.529	16.88
632.29	16.88
633.051	14.88
633.812	15.88
634.573	15.88
635.333	15.88
636.094	15.88
636.855	14.88
637.615	15.88
638.376	14.88
639.136	11.88
639.896	14.88
640.657	13.88
641.417	15.88
642.177	9.88
642.937	11.88
643.697	11.88
644.457	10.88
645.216	10.88
645.976	10.88
646.736	11.88
647.495	9.88
648.255	10.88
649.014	8.88
649.774	8.88
650.533	11.88
651.292	8.88
652.051	6.88
652.81	6.88
653.569	5.88
654.328	7.88
655.087	8.88
655.846	8.88
656.604	7.88
657.363	6.88
658.121	9.88
658.88	7.88
659.638	4.88
660.397	6.88
661.155	7.88
661.913	7.88
662.671	6.88
663.429	6.88
664.187	6.88
664.945	8.88
665.703	6.88
666.46	6.88
667.218	6.88
667.976	6.88
668.733	5.88
669.49	6.88
670.248	5.88
671.005	7.88
671.762	6.88
672.519	5.88
673.276	4.88
674.033	4.88
674.79	4.88
675.547	5.88
676.304	4.88
677.06	2.88
677.817	4.88
678.574	4.88
679.33	5.88
680.086	4.88
680.843	2.88
681.599	5.88
682.355	4.88
683.111	2.88
683.867	5.88
684.623	6.88
685.379	6.88
686.135	3.88
686.89	3.88
687.646	3.88
688.402	3.88
689.157	4.88
689.912	5.88
690.668	4.88
691.423	4.88
692.178	6.88
692.933	1.88
693.688	3.88
694.443	1.88
695.198	5.88
695.953	6.88
696.708	4.88
697.462	1.88
698.217	2.88
698.972	4.88
699.726	4.88
700.48	5.88
701.235	6.88
701.989	5.88
702.743	4.88
703.497	4.88
704.251	5.88
705.005	4.88
705.759	3.88
706.513	4.88
707.266	3.88
708.02	4.88
708.774	5.88
709.527	3.88
710.28	3.88
711.034	2.88
711.787	5.88
712.54	3.88
713.293	2.88
714.046	2.88
714.799	4.88
715.552	5.88
716.305	4.88
717.058	3.88
717.81	3.88
718.563	2.88
719.315	4.88
720.068	5.88
720.82	6.88
721.573	3.88
722.325	2.88
723.077	7.88
723.829	4.88
724.581	5.88
725.333	5.88
726.085	2.88
726.836	2.88
727.588	3.88
728.34	5.88
729.091	4.88
729.843	4.88
730.594	3.88
731.346	5.88
732.097	5.88
732.848	3.88
733.599	6.88
734.35	4.88
735.101	3.88
735.852	4.88
736.603	5.88
737.354	4.88
738.104	4.88
738.855	4.88
739.605	3.88
740.356	5.88
741.106	8.88
741.856	5.88
742.607	6.88
743.357	6.88
744.107	6.88
744.857	7.88
745.607	4.88
746.357	5.88
747.106	6.88
747.856	6.88
748.606	4.88
749.355	6.88
750.105	7.88
750.854	6.88
751.603	5.88
752.353	6.88
753.102	7.88
753.851	3.88
754.6	5.88
755.349	5.88
756.098	2.88
756.847	6.88
757.595	5.88
758.344	9.88
759.093	7.88
759.841	8.88
760.589	5.88
761.338	6.88
762.086	7.88
762.834	7.88
763.582	7.88
764.331	7.88
765.079	6.88
765.826	7.88
766.574	7.88
767.322	7.88
768.07	8.88
768.817	4.88
769.565	9.88
770.312	5.88
771.06	8.88
771.807	7.88
772.554	7.88
773.302	9.88
774.049	8.88
774.796	10.88
775.543	8.88
776.29	7.88
777.036	9.88
777.783	8.88
778.53	7.88
779.276	7.88
780.023	10.88
780.769	9.88
781.516	8.88
782.262	9.88
783.008	13.88
783.754	9.88
784.5	9.88
785.246	10.88
785.992	9.88
786.738	9.88
787.484	12.88
788.23	6.88
788.975	10.88
789.721	8.88
790.466	7.88
791.212	8.88
791.957	6.88
792.702	10.88
793.447	9.88
794.193	8.88
794.938	9.88
795.683	7.88
796.427	11.88
797.172	7.88
797.917	8.88
798.662	6.88
799.406	9.88
800.151	7.88
800.895	7.88
801.64	7.88
802.384	7.88
803.128	8.88
803.872	6.88
804.616	5.88
805.36	5.88
806.104	6.88
806.848	7.88
807.592	9.88
808.336	5.88
809.079	5.88
809.823	6.88
810.566	7.88
811.31	2.88
812.053	6.88
812.796	7.88
813.539	3.88
814.283	5.88
815.026	4.88
815.769	6.88
816.511	5.88
817.254	5.88
817.997	3.88
818.74	3.88
819.482	7.88
820.225	5.88
820.967	4.88
821.71	4.88
822.452	5.88
823.194	4.88
823.936	5.88
824.678	5.88
825.42	6.88
826.162	4.88
826.904	4.88
827.646	4.88
828.388	7.88
829.129	3.88
829.871	3.88
830.612	4.88
831.354	5.88
832.095	5.88
832.836	6.88
833.577	0.88
834.319	4.88
835.06	2.88
835.801	3.88
836.542	3.88
837.282	4.88
838.023	4.88
838.764	2.88
839.504	4.88
840.245	1.88
840.985	3.88
841.726	2.88
842.466	2.88
843.206	5.88
843.946	0.88
844.687	4.88
845.427	1.88
846.166	3.88
846.906	2.88
847.646	4.88
848.386	1.88
849.125	4.88
849.865	2.88
850.605	2.88
851.344	4.88
852.083	3.88
852.823	3.88
853.562	1.88
854.301	4.88
855.04	2.88
855.779	3.88
856.518	0.88
857.257	1.88
857.995	2.88
858.734	2.88
859.473	0.88
860.211	2.88
860.95	-0.12
861.688	2.88
862.426	1.88
863.165	-0.12
863.903	1.88
864.641	1.88
865.379	0.88
866.117	3.88
866.855	1.88
867.593	2.88
868.33	1.88
869.068	2.88
869.806	1.88
870.543	1.88
871.28	0.88
872.018	-0.12
872.755	2.88
873.492	-0.12
874.229	1.88
874.967	-1.12
875.703	-0.12
876.44	0.88
877.177	1.88
877.914	2.88
878.651	1.88
879.387	0.88
880.124	3.88
880.86	-1.12
881.597	2.88
882.333	1.88
883.069	0.88
883.806	0.88
884.542	2.88
885.278	0.88
886.014	-0.12
886.749	3.88
887.485	1.88
888.221	-0.12
888.957	1.88
889.692	0.88
890.428	2.88
891.163	-0.12
891.899	0.88
892.634	0.88
893.369	-2.12
894.104	-2.12
894.839	-1.12
895.574	1.88
896.309	1.88
897.044	-0.12
897.779	1.88
898.514	-1.12
899.248	-0.12
899.983	0.88
900.717	-0.12
901.452	-0.12
902.186	-0.12
902.92	1.88
903.654	0.88
904.389	0.88
905.123	-1.12
905.857	2.88
906.59	0.88
907.324	-2.12
908.058	0.88
908.792	-0.12
909.525	-0.12
910.259	-0.12
910.992	-1.12
911.726	-0.12
912.459	-2.12
913.192	0.88
913.925	-0.12
914.658	1.88
915.391	1.88
916.124	0.88
916.857	-0.12
917.59	-0.12
918.323	-1.12
919.055	-0.12
919.788	-1.12
920.521	-0.12
921.253	-1.12
921.985	-1.12
922.718	0.88
923.45	-0.12
924.182	-3.12
924.914	-0.12
925.646	-0.12
926.378	-0.12
927.11	-0.12
927.841	0.88
928.573	1.88
929.305	-1.12
930.036	-3.12
930.768	0.88
931.499	-0.12
932.23	-1.12
932.962	1.88
933.693	-0.12
934.424	-0.12
935.155	-1.12
935.886	-1.12
936.617	-0.12
937.348	-2.12
938.078	-0.12
938.809	-2.12
939.54	-0.12
940.27	-2.12
941.001	-2.12
941.731	-2.12
942.461	-1.12
943.191	-0.12
943.922	-1.12
944.652	-0.12
945.382	0.88
946.112	0.88
946.841	0.88
947.571	-0.12
948.301	-0.12
949.031	-1.12
949.76	0.88
950.49	0.88
951.219	-1.12
951.948	-0.12
952.678	-2.12
953.407	-1.12
954.136	-3.12
954.865	-0.12
955.594	0.88
956.323	-0.12
957.052	0.88
957.78	-2.12
958.509	0.88
959.238	-0.12
959.966	-1.12
960.695	-0.12
961.423	-1.12
962.151	0.88
962.88	0.88
963.608	0.88
964.336	-0.12
965.064	-1.12
965.792	-0.12
966.52	-2.12
967.247	-0.12
967.975	-0.12
968.703	0.88
969.43	-0.12
970.158	-3.12
970.885	1.88
971.613	-2.12
972.34	0.88
973.067	-1.12
973.794	-0.12
974.521	-1.12
975.248	-2.12
975.975	0.88
976.702	0.88
977.429	1.88
978.156	0.88
978.882	-0.12
979.609	-1.12
980.335	-0.12
981.062	1.88
981.788	0.88
982.514	-1.12
983.24	-2.12
983.967	-0.12
984.693	-0.12
985.419	2.88
986.144	-0.12
986.87	-2.12
987.596	1.88
988.322	-1.12
989.047	-1.12
989.773	-1.12
990.498	-0.12
991.224	-0.12
991.949	-0.12
992.674	-0.12
993.399	-1.12
994.124	-0.12
994.849	-0.12
995.574	0.88
996.299	-0.12
997.024	0.88
997.749	0.88
998.473	0.88
999.198	-2.12
999.922	-1.12
1000.647	-2.12
1001.371	3.88
1002.095	-2.12
1002.82	-0.12
1003.544	-3.12
1004.268	3.88
1004.992	3.88
1005.716	2.88
1006.439	3.88
1007.163	2.88
1007.887	1.88
1008.611	-0.12
1009.334	-0.12
1010.058	-0.12
1010.781	-0.12
1011.504	1.88
1012.228	-1.12
1012.951	-0.12
1013.674	-0.12
1014.397	-1.12
1015.12	2.88
