节点500_425_QEPB04081__524__15-57-01-563.txt的数据

Date: Wed Nov 12 15:57:01 CST 2025
User: PC
Spectrometer: QEPB0408
触发模式: 0
积分时间 (秒): 1.000000E-2
Scans to average: 1
启用暗噪声校正: true
启用非线性校正: false
滑动平均宽度: 0
X轴模式: Wavelengths
Number of Pixels in Spectrum: 1044
>>>>>Begin Spectral Data<<<<<
220.843	3
221.644	2
222.444	2
223.244	4
224.045	2
224.845	4
225.645	3
226.445	3
227.245	5
228.045	2
228.845	3
229.645	5
230.444	2
231.244	5
232.043	4
232.843	6
233.642	5
234.442	4
235.241	5
236.04	4
236.839	5
237.638	6
238.437	8
239.236	5
240.035	4
240.833	7
241.632	8
242.43	5
243.229	5
244.027	6
244.826	6
245.624	8
246.422	8
247.22	7
248.018	9
248.816	7
249.614	10
250.412	8
251.21	9
252.007	8
252.805	7
253.602	11
254.4	10
255.197	11
255.994	10
256.791	9
257.589	11
258.386	12
259.183	10
259.979	12
260.776	12
261.573	12
262.37	12
263.166	15
263.963	12
264.759	14
265.556	15
266.352	16
267.148	16
267.944	16
268.74	17
269.536	16
270.332	18
271.128	22
271.924	18
272.719	21
273.515	20
274.311	18
275.106	21
275.901	23
276.697	22
277.492	23
278.287	23
279.082	22
279.877	22
280.672	25
281.467	22
282.262	26
283.056	22
283.851	22
284.646	24
285.44	21
286.234	22
287.029	22
287.823	22
288.617	24
289.411	24
290.205	24
290.999	24
291.793	24
292.587	27
293.381	22
294.174	21
294.968	18
295.761	19
296.555	19
297.348	18
298.141	19
298.935	18
299.728	19
300.521	18
301.314	17
302.107	18
302.899	16
303.692	16
304.485	15
305.277	19
306.07	15
306.862	16
307.655	17
308.447	16
309.239	18
310.031	16
310.823	14
311.615	11
312.407	12
313.199	12
313.991	10
314.783	12
315.574	10
316.366	11
317.157	11
317.949	10
318.74	10
319.531	10
320.322	11
321.113	9
321.904	9
322.695	9
323.486	8
324.277	8
325.068	7
325.858	9
326.649	10
327.439	10
328.23	10
329.02	6
329.81	7
330.6	7
331.391	9
332.181	9
332.971	9
333.76	8
334.55	8
335.34	7
336.13	9
336.919	6
337.709	8
338.498	5
339.287	7
340.077	10
340.866	6
341.655	5
342.444	8
343.233	7
344.022	10
344.811	7
345.6	8
346.388	7
347.177	11
347.965	7
348.754	8
349.542	7
350.33	7
351.119	8
351.907	7
352.695	6
353.483	8
354.271	6
355.059	8
355.846	6
356.634	7
357.422	8
358.209	7
358.997	6
359.784	7
360.571	7
361.359	7
362.146	6
362.933	6
363.72	6
364.507	3
365.294	6
366.081	7
366.867	4
367.654	6
368.44	7
369.227	6
370.013	9
370.8	4
371.586	4
372.372	7
373.158	6
373.944	8
374.73	8
375.516	6
376.302	7
377.088	9
377.873	6
378.659	7
379.445	7
380.23	6
381.015	7
381.801	7
382.586	6
383.371	7
384.156	7
384.941	4
385.726	6
386.511	6
387.296	7
388.08	8
388.865	4
389.649	7
390.434	10
391.218	4
392.003	8
392.787	9
393.571	7
394.355	6
395.139	7
395.923	8
396.707	9
397.491	6
398.274	8
399.058	6
399.842	7
400.625	9
401.408	8
402.192	8
402.975	10
403.758	9
404.541	10
405.324	11
406.107	10
406.89	10
407.673	10
408.456	11
409.238	11
410.021	12
410.803	10
411.586	14
412.368	11
413.151	12
413.933	10
414.715	14
415.497	14
416.279	12
417.061	12
417.843	10
418.624	15
419.406	11
420.188	13
420.969	13
421.751	14
422.532	15
423.313	15
424.095	15
424.876	14
425.657	18
426.438	17
427.219	16
428	18
428.78	17
429.561	16
430.342	18
431.122	19
431.903	21
432.683	17
433.464	22
434.244	22
435.024	24
435.804	24
436.584	29
437.364	27
438.144	29
438.924	30
439.704	35
440.483	33
441.263	36
442.042	35
442.822	42
443.601	45
444.38	49
445.16	48
445.939	54
446.718	65
447.497	63
448.276	68
449.054	75
449.833	84
450.612	90
451.391	101
452.169	112
452.948	123
453.726	135
454.504	147
455.282	164
456.061	178
456.839	204
457.617	225
458.395	253
459.172	275
459.95	307
460.728	345
461.506	378
462.283	429
463.061	484
463.838	535
464.615	588
465.393	655
466.17	732
466.947	819
467.724	892
468.501	1001
469.278	1091
470.055	1206
470.831	1345
471.608	1463
472.385	1626
473.161	1782
473.938	1972
474.714	2176
475.49	2364
476.266	2583
477.043	2862
477.819	3132
478.595	3415
479.371	3743
480.146	4070
480.922	4437
481.698	4888
482.473	5274
483.249	5732
484.024	6286
484.8	6848
485.575	7421
486.35	8025
487.126	8732
487.901	9473
488.676	10258
489.451	11142
490.225	12011
491	13029
491.775	14036
492.55	15075
493.324	16182
494.099	17273
494.873	18393
495.647	19708
496.422	20942
497.196	22158
497.97	23573
498.744	24844
499.518	26078
500.292	27312
501.066	28338
501.839	29463
502.613	30490
503.387	31236
504.16	31945
504.934	32399
505.707	32671
506.48	32853
507.253	32735
508.027	32690
508.8	32393
509.573	32018
510.346	31464
511.118	30601
511.891	29914
512.664	28988
513.437	27987
514.209	27039
514.982	26230
515.754	25167
516.526	24205
517.298	23211
518.071	22330
518.843	21383
519.615	20514
520.387	19688
521.159	19001
521.93	18232
522.702	17547
523.474	16846
524.245	16204
525.017	15496
525.788	14811
526.56	14179
527.331	13538
528.102	12914
528.873	12345
529.644	11806
530.415	11258
531.186	10734
531.957	10198
532.728	9723
533.498	9179
534.269	8694
535.039	8241
535.81	7822
536.58	7407
537.351	6989
538.121	6610
538.891	6248
539.661	5906
540.431	5589
541.201	5324
541.971	5026
542.741	4783
543.51	4548
544.28	4318
545.05	4094
545.819	3892
546.588	3718
547.358	3519
548.127	3355
548.896	3175
549.665	3023
550.434	2876
551.203	2724
551.972	2594
552.741	2456
553.51	2311
554.278	2182
555.047	2059
555.815	1948
556.584	1846
557.352	1738
558.121	1633
558.889	1544
559.657	1482
560.425	1378
561.193	1306
561.961	1247
562.729	1181
563.496	1123
564.264	1050
565.032	995
565.799	942
566.567	895
567.334	840
568.101	809
568.869	753
569.636	710
570.403	665
571.17	628
571.937	584
572.704	563
573.471	540
574.237	495
575.004	469
575.771	437
576.537	413
577.303	394
578.07	368
578.836	343
579.602	331
580.368	310
581.134	302
581.9	280
582.666	270
583.432	257
584.198	245
584.964	229
585.729	216
586.495	204
587.26	191
588.025	180
588.791	179
589.556	166
590.321	157
591.086	148
591.851	137
592.616	137
593.381	127
594.146	120
594.911	118
595.675	111
596.44	109
597.204	100
597.969	98
598.733	92
599.497	88
600.261	82
601.025	84
601.79	77
602.553	72
603.317	69
604.081	71
604.845	64
605.609	61
606.372	59
607.136	56
607.899	57
608.662	48
609.426	47
610.189	50
610.952	48
611.715	45
612.478	41
613.241	43
614.004	41
614.767	36
615.529	40
616.292	34
617.055	35
617.817	32
618.579	32
619.342	34
620.104	30
620.866	29
621.628	24
622.39	27
623.152	26
623.914	26
624.676	26
625.438	21
626.199	23
626.961	24
627.722	25
628.484	19
629.245	19
630.006	20
630.768	19
631.529	18
632.29	18
633.051	16
633.812	17
634.573	17
635.333	14
636.094	16
636.855	15
637.615	15
638.376	13
639.136	14
639.896	12
640.657	12
641.417	14
642.177	11
642.937	11
643.697	13
644.457	13
645.216	11
645.976	11
646.736	12
647.495	10
648.255	10
649.014	9
649.774	8
650.533	12
651.292	7
652.051	7
652.81	7
653.569	7
654.328	9
655.087	10
655.846	8
656.604	9
657.363	10
658.121	7
658.88	9
659.638	10
660.397	9
661.155	5
661.913	7
662.671	7
663.429	7
664.187	7
664.945	9
665.703	5
666.46	8
667.218	5
667.976	6
668.733	6
669.49	4
670.248	7
671.005	5
671.762	5
672.519	4
673.276	5
674.033	6
674.79	2
675.547	6
676.304	5
677.06	5
677.817	6
678.574	5
679.33	7
680.086	5
680.843	4
681.599	6
682.355	4
683.111	4
683.867	4
684.623	9
685.379	5
686.135	4
686.89	6
687.646	5
688.402	4
689.157	6
689.912	6
690.668	2
691.423	7
692.178	4
692.933	5
693.688	6
694.443	4
695.198	4
695.953	3
696.708	4
697.462	4
698.217	4
698.972	5
699.726	3
700.48	5
701.235	4
701.989	5
702.743	5
703.497	7
704.251	6
705.005	5
705.759	5
706.513	6
707.266	4
708.02	4
708.774	4
709.527	7
710.28	5
711.034	5
711.787	5
712.54	6
713.293	3
714.046	6
714.799	6
715.552	5
716.305	2
717.058	5
717.81	4
718.563	4
719.315	4
720.068	5
720.82	5
721.573	4
722.325	5
723.077	5
723.829	4
724.581	5
725.333	5
726.085	5
726.836	6
727.588	3
728.34	4
729.091	4
729.843	7
730.594	6
731.346	3
732.097	5
732.848	5
733.599	5
734.35	5
735.101	6
735.852	6
736.603	6
737.354	4
738.104	5
738.855	5
739.605	5
740.356	7
741.106	5
741.856	6
742.607	4
743.357	6
744.107	7
744.857	7
745.607	5
746.357	4
747.106	6
747.856	8
748.606	9
749.355	5
750.105	6
750.854	6
751.603	7
752.353	6
753.102	9
753.851	6
754.6	6
755.349	5
756.098	6
756.847	5
757.595	8
758.344	6
759.093	5
759.841	6
760.589	7
761.338	7
762.086	7
762.834	7
763.582	7
764.331	8
765.079	8
765.826	9
766.574	8
767.322	8
768.07	7
768.817	7
769.565	9
770.312	11
771.06	9
771.807	9
772.554	11
773.302	7
774.049	9
774.796	9
775.543	8
776.29	12
777.036	9
777.783	11
778.53	9
779.276	8
780.023	11
780.769	11
781.516	9
782.262	9
783.008	13
783.754	11
784.5	10
785.246	11
785.992	10
786.738	10
787.484	11
788.23	10
788.975	9
789.721	10
790.466	11
791.212	10
791.957	7
792.702	10
793.447	9
794.193	10
794.938	7
795.683	8
796.427	8
797.172	9
797.917	9
798.662	9
799.406	9
800.151	9
800.895	8
801.64	10
802.384	10
803.128	7
803.872	9
804.616	5
805.36	8
806.104	7
806.848	10
807.592	7
808.336	9
809.079	7
809.823	5
810.566	6
811.31	3
812.053	7
812.796	6
813.539	3
814.283	5
815.026	5
815.769	8
816.511	6
817.254	7
817.997	5
818.74	4
819.482	6
820.225	5
820.967	7
821.71	5
822.452	4
823.194	4
823.936	7
824.678	5
825.42	4
826.162	7
826.904	7
827.646	5
828.388	5
829.129	4
829.871	5
830.612	4
831.354	2
832.095	4
832.836	4
833.577	4
834.319	6
835.06	6
835.801	4
836.542	4
837.282	3
838.023	4
838.764	3
839.504	3
840.245	4
840.985	4
841.726	4
842.466	4
843.206	2
843.946	5
844.687	4
845.427	2
846.166	5
846.906	4
847.646	5
848.386	4
849.125	2
849.865	5
850.605	3
851.344	5
852.083	3
852.823	3
853.562	3
854.301	4
855.04	6
855.779	4
856.518	4
857.257	2
857.995	3
858.734	3
859.473	2
860.211	4
860.95	4
861.688	3
862.426	2
863.165	1
863.903	5
864.641	1
865.379	2
866.117	3
866.855	3
867.593	0
868.33	1
869.068	3
869.806	2
870.543	3
871.28	2
872.018	0
872.755	1
873.492	2
874.229	1
874.967	2
875.703	2
876.44	3
877.177	0
877.914	4
878.651	2
879.387	5
880.124	0
880.86	2
881.597	-1
882.333	1
883.069	1
883.806	0
884.542	2
885.278	1
886.014	2
886.749	1
887.485	2
888.221	2
888.957	1
889.692	-2
890.428	0
891.163	1
891.899	1
892.634	-1
893.369	1
894.104	1
894.839	0
895.574	2
896.309	0
897.044	4
897.779	0
898.514	2
899.248	0
899.983	1
900.717	-1
901.452	0
902.186	-2
902.92	1
903.654	0
904.389	0
905.123	-1
905.857	1
906.59	-1
907.324	0
908.058	0
908.792	-1
909.525	0
910.259	-1
910.992	0
911.726	-2
912.459	-1
913.192	-1
913.925	-2
914.658	0
915.391	0
916.124	-1
916.857	0
917.59	0
918.323	1
919.055	1
919.788	0
920.521	0
921.253	1
921.985	2
922.718	0
923.45	1
924.182	0
924.914	2
925.646	1
926.378	0
927.11	0
927.841	-2
928.573	-2
929.305	1
930.036	1
930.768	1
931.499	-2
932.23	0
932.962	0
933.693	0
934.424	1
935.155	-1
935.886	-2
936.617	0
937.348	2
938.078	0
938.809	1
939.54	0
940.27	1
941.001	-3
941.731	0
942.461	2
943.191	1
943.922	-2
944.652	-1
945.382	-1
946.112	2
946.841	0
947.571	0
948.301	2
949.031	0
949.76	-1
950.49	-1
951.219	1
951.948	2
952.678	-1
953.407	1
954.136	1
954.865	0
955.594	2
956.323	0
957.052	1
957.78	0
958.509	1
959.238	-2
959.966	-4
960.695	-1
961.423	0
962.151	0
962.88	2
963.608	0
964.336	0
965.064	2
965.792	0
966.52	0
967.247	1
967.975	-1
968.703	-1
969.43	-1
970.158	2
970.885	0
971.613	0
972.34	0
973.067	-1
973.794	-2
974.521	0
975.248	0
975.975	-2
976.702	-1
977.429	2
978.156	1
978.882	-2
979.609	0
980.335	-1
981.062	2
981.788	1
982.514	0
983.24	0
983.967	-1
984.693	-2
985.419	-1
986.144	0
986.87	0
987.596	-1
988.322	0
989.047	1
989.773	0
990.498	1
991.224	-2
991.949	-2
992.674	1
993.399	1
994.124	-1
994.849	1
995.574	-1
996.299	1
997.024	-2
997.749	0
998.473	0
999.198	3
999.922	-1
1000.647	0
1001.371	4
1002.095	2
1002.82	-3
1003.544	0
1004.268	2
1004.992	3
1005.716	1
1006.439	2
1007.163	2
1007.887	3
1008.611	1
1009.334	0
1010.058	-2
1010.781	1
1011.504	-1
1012.228	-2
1012.951	-2
1013.674	0
1014.397	1
1015.12	-2
