节点500_425_QEPB04081__115__15-50-13-309.txt的数据

Date: Wed Nov 12 15:50:13 CST 2025
User: PC
Spectrometer: QEPB0408
触发模式: 0
积分时间 (秒): 1.000000E-2
Scans to average: 1
启用暗噪声校正: true
启用非线性校正: false
滑动平均宽度: 0
X轴模式: Wavelengths
Number of Pixels in Spectrum: 1044
>>>>>Begin Spectral Data<<<<<
220.843	1.62
221.644	1.62
222.444	2.62
223.244	1.62
224.045	2.62
224.845	3.62
225.645	3.62
226.445	4.62
227.245	3.62
228.045	1.62
228.845	6.62
229.645	4.62
230.444	6.62
231.244	4.62
232.043	5.62
232.843	1.62
233.642	4.62
234.442	7.62
235.241	4.62
236.04	5.62
236.839	7.62
237.638	7.62
238.437	8.62
239.236	6.62
240.035	8.62
240.833	6.62
241.632	7.62
242.43	7.62
243.229	6.62
244.027	9.62
244.826	10.62
245.624	9.62
246.422	8.62
247.22	9.62
248.018	9.62
248.816	8.62
249.614	9.62
250.412	13.62
251.21	11.62
252.007	10.62
252.805	13.62
253.602	11.62
254.4	10.62
255.197	12.62
255.994	14.62
256.791	13.62
257.589	14.62
258.386	13.62
259.183	14.62
259.979	14.62
260.776	16.62
261.573	14.62
262.37	16.62
263.166	16.62
263.963	16.62
264.759	18.62
265.556	18.62
266.352	19.62
267.148	19.62
267.944	20.62
268.74	22.62
269.536	21.62
270.332	21.62
271.128	21.62
271.924	23.62
272.719	22.62
273.515	22.62
274.311	23.62
275.106	25.62
275.901	22.62
276.697	28.62
277.492	25.62
278.287	24.62
279.082	25.62
279.877	23.62
280.672	26.62
281.467	28.62
282.262	26.62
283.056	28.62
283.851	22.62
284.646	27.62
285.44	24.62
286.234	27.62
287.029	27.62
287.823	29.62
288.617	25.62
289.411	22.62
290.205	24.62
290.999	23.62
291.793	26.62
292.587	25.62
293.381	23.62
294.174	23.62
294.968	21.62
295.761	22.62
296.555	21.62
297.348	19.62
298.141	21.62
298.935	18.62
299.728	18.62
300.521	18.62
301.314	18.62
302.107	17.62
302.899	19.62
303.692	17.62
304.485	12.62
305.277	17.62
306.07	18.62
306.862	17.62
307.655	14.62
308.447	14.62
309.239	14.62
310.031	13.62
310.823	14.62
311.615	14.62
312.407	14.62
313.199	12.62
313.991	11.62
314.783	12.62
315.574	11.62
316.366	10.62
317.157	12.62
317.949	9.62
318.74	9.62
319.531	10.62
320.322	12.62
321.113	9.62
321.904	10.62
322.695	9.62
323.486	9.62
324.277	9.62
325.068	8.62
325.858	9.62
326.649	9.62
327.439	8.62
328.23	9.62
329.02	10.62
329.81	9.62
330.6	10.62
331.391	9.62
332.181	10.62
332.971	9.62
333.76	9.62
334.55	5.62
335.34	9.62
336.13	7.62
336.919	6.62
337.709	10.62
338.498	8.62
339.287	10.62
340.077	9.62
340.866	7.62
341.655	9.62
342.444	8.62
343.233	8.62
344.022	5.62
344.811	9.62
345.6	7.62
346.388	10.62
347.177	8.62
347.965	8.62
348.754	8.62
349.542	9.62
350.33	6.62
351.119	11.62
351.907	5.62
352.695	9.62
353.483	6.62
354.271	10.62
355.059	8.62
355.846	7.62
356.634	8.62
357.422	7.62
358.209	8.62
358.997	8.62
359.784	8.62
360.571	10.62
361.359	7.62
362.146	5.62
362.933	7.62
363.72	7.62
364.507	6.62
365.294	6.62
366.081	7.62
366.867	7.62
367.654	5.62
368.44	8.62
369.227	5.62
370.013	6.62
370.8	7.62
371.586	7.62
372.372	7.62
373.158	8.62
373.944	8.62
374.73	5.62
375.516	8.62
376.302	8.62
377.088	8.62
377.873	8.62
378.659	6.62
379.445	9.62
380.23	4.62
381.015	9.62
381.801	6.62
382.586	10.62
383.371	7.62
384.156	6.62
384.941	7.62
385.726	9.62
386.511	11.62
387.296	6.62
388.08	7.62
388.865	8.62
389.649	7.62
390.434	9.62
391.218	7.62
392.003	8.62
392.787	9.62
393.571	11.62
394.355	8.62
395.139	7.62
395.923	7.62
396.707	6.62
397.491	10.62
398.274	9.62
399.058	11.62
399.842	10.62
400.625	8.62
401.408	10.62
402.192	10.62
402.975	10.62
403.758	11.62
404.541	9.62
405.324	10.62
406.107	11.62
406.89	10.62
407.673	11.62
408.456	11.62
409.238	10.62
410.021	12.62
410.803	14.62
411.586	12.62
412.368	13.62
413.151	12.62
413.933	9.62
414.715	12.62
415.497	11.62
416.279	12.62
417.061	12.62
417.843	13.62
418.624	13.62
419.406	14.62
420.188	13.62
420.969	13.62
421.751	17.62
422.532	14.62
423.313	19.62
424.095	19.62
424.876	16.62
425.657	16.62
426.438	17.62
427.219	16.62
428	17.62
428.78	17.62
429.561	19.62
430.342	18.62
431.122	21.62
431.903	20.62
432.683	23.62
433.464	22.62
434.244	23.62
435.024	24.62
435.804	25.62
436.584	27.62
437.364	30.62
438.144	28.62
438.924	30.62
439.704	34.62
440.483	34.62
441.263	36.62
442.042	39.62
442.822	38.62
443.601	42.62
444.38	43.62
445.16	50.62
445.939	50.62
446.718	55.62
447.497	58.62
448.276	64.62
449.054	72.62
449.833	77.62
450.612	80.62
451.391	94.62
452.169	96.62
452.948	107.62
453.726	114.62
454.504	126.62
455.282	138.62
456.061	160.62
456.839	175.62
457.617	196.62
458.395	217.62
459.172	254.62
459.95	272.62
460.728	305.62
461.506	336.62
462.283	377.62
463.061	433.62
463.838	474.62
464.615	535.62
465.393	589.62
466.17	658.62
466.947	740.62
467.724	822.62
468.501	920.62
469.278	1031.62
470.055	1127.62
470.831	1256.62
471.608	1401.62
472.385	1565.62
473.161	1741.62
473.938	1930.62
474.714	2128.62
475.49	2352.62
476.266	2634.62
477.043	2882.62
477.819	3217.62
478.595	3542.62
479.371	3916.62
480.146	4299.62
480.922	4750.62
481.698	5245.62
482.473	5744.62
483.249	6316.62
484.024	6969.62
484.8	7645.62
485.575	8341.62
486.35	9154.62
487.126	10040.62
487.901	10954.62
488.676	11999.62
489.451	13067.62
490.225	14207.62
491	15446.62
491.775	16782.62
492.55	18137.62
493.324	19606.62
494.099	21043.62
494.873	22487.62
495.647	23971.62
496.422	25466.62
497.196	27073.62
497.97	28615.62
498.744	30123.62
499.518	31422.62
500.292	32701.62
501.066	33806.62
501.839	34942.62
502.613	35732.62
503.387	36329.62
504.16	36784.62
504.934	36880.62
505.707	36855.62
506.48	36555.62
507.253	36107.62
508.027	35582.62
508.8	34816.62
509.573	33886.62
510.346	32954.62
511.118	31883.62
511.891	30716.62
512.664	29425.62
513.437	28280.62
514.209	26984.62
514.982	25991.62
515.754	24832.62
516.526	23734.62
517.298	22711.62
518.071	21804.62
518.843	20912.62
519.615	20003.62
520.387	19210.62
521.159	18480.62
521.93	17815.62
522.702	17090.62
523.474	16449.62
524.245	15727.62
525.017	15029.62
525.788	14309.62
526.56	13685.62
527.331	12976.62
528.102	12420.62
528.873	11788.62
529.644	11191.62
530.415	10690.62
531.186	10126.62
531.957	9583.62
532.728	9065.62
533.498	8535.62
534.269	8052.62
535.039	7652.62
535.81	7193.62
536.58	6788.62
537.351	6397.62
538.121	6034.62
538.891	5765.62
539.661	5459.62
540.431	5166.62
541.201	4871.62
541.971	4631.62
542.741	4364.62
543.51	4148.62
544.28	3942.62
545.05	3763.62
545.819	3599.62
546.588	3427.62
547.358	3200.62
548.127	3045.62
548.896	2919.62
549.665	2766.62
550.434	2627.62
551.203	2454.62
551.972	2336.62
552.741	2185.62
553.51	2101.62
554.278	1980.62
555.047	1853.62
555.815	1761.62
556.584	1646.62
557.352	1558.62
558.121	1473.62
558.889	1383.62
559.657	1310.62
560.425	1248.62
561.193	1176.62
561.961	1112.62
562.729	1055.62
563.496	988.62
564.264	935.62
565.032	886.62
565.799	846.62
566.567	803.62
567.334	752.62
568.101	711.62
568.869	663.62
569.636	627.62
570.403	598.62
571.17	562.62
571.937	522.62
572.704	499.62
573.471	476.62
574.237	443.62
575.004	418.62
575.771	396.62
576.537	371.62
577.303	344.62
578.07	329.62
578.836	316.62
579.602	294.62
580.368	280.62
581.134	258.62
581.9	247.62
582.666	235.62
583.432	226.62
584.198	210.62
584.964	201.62
585.729	196.62
586.495	180.62
587.26	175.62
588.025	167.62
588.791	156.62
589.556	147.62
590.321	141.62
591.086	137.62
591.851	121.62
592.616	119.62
593.381	112.62
594.146	111.62
594.911	107.62
595.675	99.62
596.44	98.62
597.204	94.62
597.969	86.62
598.733	84.62
599.497	80.62
600.261	78.62
601.025	69.62
601.79	73.62
602.553	67.62
603.317	62.62
604.081	61.62
604.845	59.62
605.609	55.62
606.372	56.62
607.136	50.62
607.899	50.62
608.662	46.62
609.426	47.62
610.189	42.62
610.952	41.62
611.715	41.62
612.478	38.62
613.241	35.62
614.004	34.62
614.767	34.62
615.529	32.62
616.292	32.62
617.055	32.62
617.817	30.62
618.579	34.62
619.342	26.62
620.104	29.62
620.866	27.62
621.628	30.62
622.39	26.62
623.152	23.62
623.914	26.62
624.676	22.62
625.438	22.62
626.199	20.62
626.961	22.62
627.722	17.62
628.484	18.62
629.245	22.62
630.006	18.62
630.768	15.62
631.529	17.62
632.29	12.62
633.051	16.62
633.812	12.62
634.573	18.62
635.333	17.62
636.094	15.62
636.855	16.62
637.615	14.62
638.376	14.62
639.136	14.62
639.896	15.62
640.657	11.62
641.417	11.62
642.177	12.62
642.937	11.62
643.697	12.62
644.457	12.62
645.216	12.62
645.976	12.62
646.736	9.62
647.495	11.62
648.255	10.62
649.014	11.62
649.774	9.62
650.533	8.62
651.292	11.62
652.051	10.62
652.81	7.62
653.569	8.62
654.328	11.62
655.087	9.62
655.846	8.62
656.604	9.62
657.363	7.62
658.121	10.62
658.88	10.62
659.638	9.62
660.397	8.62
661.155	7.62
661.913	7.62
662.671	6.62
663.429	7.62
664.187	7.62
664.945	3.62
665.703	6.62
666.46	5.62
667.218	7.62
667.976	9.62
668.733	4.62
669.49	5.62
670.248	8.62
671.005	7.62
671.762	7.62
672.519	10.62
673.276	5.62
674.033	9.62
674.79	6.62
675.547	5.62
676.304	6.62
677.06	6.62
677.817	4.62
678.574	6.62
679.33	5.62
680.086	6.62
680.843	4.62
681.599	8.62
682.355	5.62
683.111	4.62
683.867	7.62
684.623	7.62
685.379	5.62
686.135	5.62
686.89	5.62
687.646	4.62
688.402	5.62
689.157	5.62
689.912	4.62
690.668	6.62
691.423	6.62
692.178	6.62
692.933	6.62
693.688	5.62
694.443	5.62
695.198	5.62
695.953	5.62
696.708	6.62
697.462	5.62
698.217	7.62
698.972	7.62
699.726	8.62
700.48	4.62
701.235	6.62
701.989	2.62
702.743	5.62
703.497	1.62
704.251	5.62
705.005	3.62
705.759	5.62
706.513	3.62
707.266	8.62
708.02	2.62
708.774	6.62
709.527	4.62
710.28	6.62
711.034	4.62
711.787	5.62
712.54	7.62
713.293	5.62
714.046	5.62
714.799	4.62
715.552	4.62
716.305	3.62
717.058	4.62
717.81	3.62
718.563	7.62
719.315	6.62
720.068	5.62
720.82	5.62
721.573	5.62
722.325	6.62
723.077	4.62
723.829	7.62
724.581	4.62
725.333	6.62
726.085	5.62
726.836	4.62
727.588	6.62
728.34	7.62
729.091	5.62
729.843	9.62
730.594	8.62
731.346	5.62
732.097	5.62
732.848	6.62
733.599	6.62
734.35	7.62
735.101	4.62
735.852	5.62
736.603	7.62
737.354	6.62
738.104	8.62
738.855	6.62
739.605	5.62
740.356	8.62
741.106	6.62
741.856	7.62
742.607	6.62
743.357	8.62
744.107	8.62
744.857	5.62
745.607	9.62
746.357	5.62
747.106	8.62
747.856	6.62
748.606	6.62
749.355	7.62
750.105	8.62
750.854	8.62
751.603	7.62
752.353	8.62
753.102	7.62
753.851	7.62
754.6	7.62
755.349	8.62
756.098	7.62
756.847	9.62
757.595	10.62
758.344	9.62
759.093	8.62
759.841	9.62
760.589	7.62
761.338	7.62
762.086	8.62
762.834	10.62
763.582	10.62
764.331	8.62
765.079	8.62
765.826	12.62
766.574	11.62
767.322	7.62
768.07	12.62
768.817	10.62
769.565	8.62
770.312	9.62
771.06	8.62
771.807	12.62
772.554	9.62
773.302	12.62
774.049	13.62
774.796	10.62
775.543	9.62
776.29	10.62
777.036	11.62
777.783	10.62
778.53	11.62
779.276	12.62
780.023	13.62
780.769	13.62
781.516	14.62
782.262	13.62
783.008	12.62
783.754	11.62
784.5	10.62
785.246	12.62
785.992	14.62
786.738	12.62
787.484	14.62
788.23	11.62
788.975	10.62
789.721	14.62
790.466	13.62
791.212	12.62
791.957	12.62
792.702	13.62
793.447	12.62
794.193	10.62
794.938	10.62
795.683	9.62
796.427	8.62
797.172	11.62
797.917	8.62
798.662	9.62
799.406	9.62
800.151	9.62
800.895	11.62
801.64	12.62
802.384	8.62
803.128	9.62
803.872	9.62
804.616	8.62
805.36	9.62
806.104	8.62
806.848	8.62
807.592	8.62
808.336	7.62
809.079	10.62
809.823	8.62
810.566	8.62
811.31	6.62
812.053	5.62
812.796	6.62
813.539	6.62
814.283	8.62
815.026	5.62
815.769	7.62
816.511	7.62
817.254	6.62
817.997	4.62
818.74	6.62
819.482	5.62
820.225	5.62
820.967	5.62
821.71	7.62
822.452	5.62
823.194	6.62
823.936	6.62
824.678	2.62
825.42	5.62
826.162	4.62
826.904	8.62
827.646	1.62
828.388	4.62
829.129	3.62
829.871	3.62
830.612	6.62
831.354	4.62
832.095	6.62
832.836	5.62
833.577	3.62
834.319	2.62
835.06	2.62
835.801	4.62
836.542	4.62
837.282	5.62
838.023	2.62
838.764	8.62
839.504	5.62
840.245	4.62
840.985	4.62
841.726	4.62
842.466	3.62
843.206	2.62
843.946	3.62
844.687	4.62
845.427	6.62
846.166	5.62
846.906	2.62
847.646	2.62
848.386	3.62
849.125	4.62
849.865	4.62
850.605	4.62
851.344	5.62
852.083	4.62
852.823	3.62
853.562	4.62
854.301	4.62
855.04	2.62
855.779	4.62
856.518	6.62
857.257	2.62
857.995	3.62
858.734	4.62
859.473	2.62
860.211	3.62
860.95	3.62
861.688	2.62
862.426	3.62
863.165	2.62
863.903	1.62
864.641	2.62
865.379	3.62
866.117	2.62
866.855	1.62
867.593	2.62
868.33	3.62
869.068	2.62
869.806	2.62
870.543	3.62
871.28	2.62
872.018	1.62
872.755	3.62
873.492	2.62
874.229	-0.38
874.967	3.62
875.703	2.62
876.44	3.62
877.177	-0.38
877.914	1.62
878.651	0.62
879.387	1.62
880.124	3.62
880.86	0.62
881.597	2.62
882.333	3.62
883.069	1.62
883.806	2.62
884.542	1.62
885.278	1.62
886.014	2.62
886.749	1.62
887.485	2.62
888.221	1.62
888.957	3.62
889.692	-0.38
890.428	2.62
891.163	2.62
891.899	2.62
892.634	1.62
893.369	0.62
894.104	0.62
894.839	0.62
895.574	0.62
896.309	1.62
897.044	0.62
897.779	1.62
898.514	-1.38
899.248	2.62
899.983	0.62
900.717	2.62
901.452	0.62
902.186	-0.38
902.92	0.62
903.654	-0.38
904.389	1.62
905.123	2.62
905.857	-1.38
906.59	3.62
907.324	-0.38
908.058	0.62
908.792	0.62
909.525	0.62
910.259	0.62
910.992	0.62
911.726	2.62
912.459	0.62
913.192	0.62
913.925	1.62
914.658	0.62
915.391	0.62
916.124	-0.38
916.857	1.62
917.59	-1.38
918.323	2.62
919.055	2.62
919.788	0.62
920.521	-0.38
921.253	1.62
921.985	1.62
922.718	0.62
923.45	-0.38
924.182	0.62
924.914	0.62
925.646	1.62
926.378	0.62
927.11	0.62
927.841	0.62
928.573	1.62
929.305	0.62
930.036	-1.38
930.768	2.62
931.499	-1.38
932.23	0.62
932.962	0.62
933.693	0.62
934.424	1.62
935.155	-1.38
935.886	0.62
936.617	1.62
937.348	0.62
938.078	0.62
938.809	1.62
939.54	0.62
940.27	0.62
941.001	-1.38
941.731	1.62
942.461	-1.38
943.191	-1.38
943.922	-0.38
944.652	0.62
945.382	1.62
946.112	1.62
946.841	0.62
947.571	-1.38
948.301	-0.38
949.031	1.62
949.76	0.62
950.49	-0.38
951.219	-1.38
951.948	-0.38
952.678	0.62
953.407	0.62
954.136	2.62
954.865	0.62
955.594	1.62
956.323	2.62
957.052	0.62
957.78	0.62
958.509	1.62
959.238	0.62
959.966	-1.38
960.695	0.62
961.423	-0.38
962.151	0.62
962.88	-1.38
963.608	0.62
964.336	-0.38
965.064	0.62
965.792	-0.38
966.52	-0.38
967.247	0.62
967.975	0.62
968.703	0.62
969.43	0.62
970.158	-1.38
970.885	0.62
971.613	0.62
972.34	0.62
973.067	1.62
973.794	0.62
974.521	0.62
975.248	1.62
975.975	0.62
976.702	0.62
977.429	1.62
978.156	1.62
978.882	0.62
979.609	0.62
980.335	0.62
981.062	1.62
981.788	1.62
982.514	0.62
983.24	1.62
983.967	-1.38
984.693	3.62
985.419	-1.38
986.144	0.62
986.87	0.62
987.596	0.62
988.322	1.62
989.047	-1.38
989.773	1.62
990.498	0.62
991.224	0.62
991.949	0.62
992.674	0.62
993.399	1.62
994.124	0.62
994.849	2.62
995.574	-0.38
996.299	0.62
997.024	4.62
997.749	0.62
998.473	0.62
999.198	1.62
999.922	-1.38
1000.647	0.62
1001.371	3.62
1002.095	-1.38
1002.82	0.62
1003.544	0.62
1004.268	2.62
1004.992	-0.38
1005.716	3.62
1006.439	2.62
1007.163	4.62
1007.887	3.62
1008.611	-0.38
1009.334	1.62
1010.058	-1.38
1010.781	0.62
1011.504	-0.38
1012.228	-0.38
1012.951	0.62
1013.674	-2.38
1014.397	-1.38
1015.12	-0.38
