节点500_425_QEPB04081__186__15-51-24-130.txt的数据

Date: Wed Nov 12 15:51:24 CST 2025
User: PC
Spectrometer: QEPB0408
触发模式: 0
积分时间 (秒): 1.000000E-2
Scans to average: 1
启用暗噪声校正: true
启用非线性校正: false
滑动平均宽度: 0
X轴模式: Wavelengths
Number of Pixels in Spectrum: 1044
>>>>>Begin Spectral Data<<<<<
220.843	0.5
221.644	2.5
222.444	2.5
223.244	6.5
224.045	6.5
224.845	5.5
225.645	5.5
226.445	6.5
227.245	3.5
228.045	5.5
228.845	2.5
229.645	4.5
230.444	2.5
231.244	4.5
232.043	5.5
232.843	6.5
233.642	7.5
234.442	5.5
235.241	6.5
236.04	5.5
236.839	6.5
237.638	6.5
238.437	4.5
239.236	5.5
240.035	6.5
240.833	8.5
241.632	5.5
242.43	10.5
243.229	7.5
244.027	8.5
244.826	10.5
245.624	7.5
246.422	9.5
247.22	10.5
248.018	9.5
248.816	7.5
249.614	6.5
250.412	10.5
251.21	8.5
252.007	9.5
252.805	7.5
253.602	13.5
254.4	12.5
255.197	12.5
255.994	13.5
256.791	14.5
257.589	13.5
258.386	11.5
259.183	13.5
259.979	16.5
260.776	13.5
261.573	16.5
262.37	14.5
263.166	16.5
263.963	17.5
264.759	15.5
265.556	16.5
266.352	18.5
267.148	19.5
267.944	22.5
268.74	21.5
269.536	23.5
270.332	18.5
271.128	24.5
271.924	21.5
272.719	20.5
273.515	23.5
274.311	25.5
275.106	25.5
275.901	23.5
276.697	21.5
277.492	26.5
278.287	26.5
279.082	26.5
279.877	24.5
280.672	25.5
281.467	25.5
282.262	25.5
283.056	26.5
283.851	24.5
284.646	26.5
285.44	26.5
286.234	24.5
287.029	23.5
287.823	24.5
288.617	24.5
289.411	23.5
290.205	25.5
290.999	26.5
291.793	22.5
292.587	23.5
293.381	22.5
294.174	24.5
294.968	21.5
295.761	21.5
296.555	22.5
297.348	20.5
298.141	20.5
298.935	20.5
299.728	21.5
300.521	18.5
301.314	17.5
302.107	18.5
302.899	14.5
303.692	17.5
304.485	17.5
305.277	14.5
306.07	17.5
306.862	13.5
307.655	16.5
308.447	13.5
309.239	16.5
310.031	14.5
310.823	14.5
311.615	15.5
312.407	11.5
313.199	14.5
313.991	9.5
314.783	8.5
315.574	10.5
316.366	11.5
317.157	11.5
317.949	13.5
318.74	11.5
319.531	10.5
320.322	10.5
321.113	10.5
321.904	10.5
322.695	10.5
323.486	10.5
324.277	9.5
325.068	13.5
325.858	11.5
326.649	8.5
327.439	8.5
328.23	10.5
329.02	9.5
329.81	9.5
330.6	7.5
331.391	5.5
332.181	10.5
332.971	9.5
333.76	9.5
334.55	9.5
335.34	8.5
336.13	6.5
336.919	8.5
337.709	9.5
338.498	8.5
339.287	11.5
340.077	8.5
340.866	8.5
341.655	10.5
342.444	9.5
343.233	9.5
344.022	8.5
344.811	5.5
345.6	7.5
346.388	7.5
347.177	9.5
347.965	7.5
348.754	7.5
349.542	9.5
350.33	7.5
351.119	7.5
351.907	7.5
352.695	8.5
353.483	8.5
354.271	5.5
355.059	8.5
355.846	6.5
356.634	5.5
357.422	7.5
358.209	7.5
358.997	8.5
359.784	7.5
360.571	7.5
361.359	5.5
362.146	8.5
362.933	5.5
363.72	9.5
364.507	7.5
365.294	7.5
366.081	7.5
366.867	7.5
367.654	7.5
368.44	5.5
369.227	7.5
370.013	7.5
370.8	5.5
371.586	7.5
372.372	5.5
373.158	8.5
373.944	8.5
374.73	5.5
375.516	5.5
376.302	4.5
377.088	7.5
377.873	7.5
378.659	6.5
379.445	5.5
380.23	6.5
381.015	5.5
381.801	6.5
382.586	8.5
383.371	7.5
384.156	6.5
384.941	6.5
385.726	7.5
386.511	7.5
387.296	8.5
388.08	6.5
388.865	6.5
389.649	7.5
390.434	8.5
391.218	8.5
392.003	6.5
392.787	7.5
393.571	8.5
394.355	7.5
395.139	7.5
395.923	10.5
396.707	10.5
397.491	7.5
398.274	10.5
399.058	8.5
399.842	9.5
400.625	10.5
401.408	8.5
402.192	9.5
402.975	10.5
403.758	10.5
404.541	9.5
405.324	10.5
406.107	9.5
406.89	9.5
407.673	10.5
408.456	12.5
409.238	9.5
410.021	14.5
410.803	10.5
411.586	10.5
412.368	10.5
413.151	15.5
413.933	13.5
414.715	16.5
415.497	13.5
416.279	14.5
417.061	13.5
417.843	11.5
418.624	15.5
419.406	14.5
420.188	14.5
420.969	13.5
421.751	14.5
422.532	15.5
423.313	14.5
424.095	16.5
424.876	14.5
425.657	17.5
426.438	15.5
427.219	16.5
428	17.5
428.78	19.5
429.561	21.5
430.342	21.5
431.122	19.5
431.903	19.5
432.683	20.5
433.464	25.5
434.244	24.5
435.024	26.5
435.804	23.5
436.584	27.5
437.364	30.5
438.144	29.5
438.924	33.5
439.704	29.5
440.483	31.5
441.263	37.5
442.042	37.5
442.822	40.5
443.601	42.5
444.38	46.5
445.16	49.5
445.939	51.5
446.718	57.5
447.497	60.5
448.276	66.5
449.054	69.5
449.833	76.5
450.612	88.5
451.391	93.5
452.169	100.5
452.948	112.5
453.726	121.5
454.504	127.5
455.282	157.5
456.061	167.5
456.839	181.5
457.617	203.5
458.395	225.5
459.172	253.5
459.95	278.5
460.728	310.5
461.506	340.5
462.283	386.5
463.061	435.5
463.838	482.5
464.615	544.5
465.393	612.5
466.17	682.5
466.947	760.5
467.724	842.5
468.501	934.5
469.278	1046.5
470.055	1143.5
470.831	1294.5
471.608	1405.5
472.385	1594.5
473.161	1762.5
473.938	1933.5
474.714	2152.5
475.49	2380.5
476.266	2622.5
477.043	2890.5
477.819	3185.5
478.595	3517.5
479.371	3886.5
480.146	4257.5
480.922	4703.5
481.698	5181.5
482.473	5646.5
483.249	6254.5
484.024	6868.5
484.8	7520.5
485.575	8190.5
486.35	8944.5
487.126	9814.5
487.901	10717.5
488.676	11675.5
489.451	12766.5
490.225	13839.5
491	15083.5
491.775	16367.5
492.55	17648.5
493.324	19046.5
494.099	20413.5
494.873	21776.5
495.647	23298.5
496.422	24799.5
497.196	26247.5
497.97	27782.5
498.744	29218.5
499.518	30709.5
500.292	31897.5
501.066	32890.5
501.839	34119.5
502.613	35024.5
503.387	35597.5
504.16	36152.5
504.934	36284.5
505.707	36276.5
506.48	36046.5
507.253	35668.5
508.027	35274.5
508.8	34556.5
509.573	33748.5
510.346	32861.5
511.118	31793.5
511.891	30754.5
512.664	29584.5
513.437	28354.5
514.209	27195.5
514.982	26126.5
515.754	24979.5
516.526	23916.5
517.298	22935.5
518.071	21929.5
518.843	21015.5
519.615	20162.5
520.387	19376.5
521.159	18609.5
521.93	17909.5
522.702	17220.5
523.474	16521.5
524.245	15900.5
525.017	15132.5
525.788	14428.5
526.56	13765.5
527.331	13116.5
528.102	12469.5
528.873	11912.5
529.644	11324.5
530.415	10781.5
531.186	10266.5
531.957	9729.5
532.728	9210.5
533.498	8714.5
534.269	8222.5
535.039	7783.5
535.81	7329.5
536.58	6908.5
537.351	6504.5
538.121	6119.5
538.891	5850.5
539.661	5542.5
540.431	5251.5
541.201	4938.5
541.971	4695.5
542.741	4456.5
543.51	4237.5
544.28	4011.5
545.05	3830.5
545.819	3643.5
546.588	3489.5
547.358	3275.5
548.127	3101.5
548.896	2961.5
549.665	2782.5
550.434	2662.5
551.203	2520.5
551.972	2378.5
552.741	2260.5
553.51	2153.5
554.278	2010.5
555.047	1902.5
555.815	1806.5
556.584	1691.5
557.352	1594.5
558.121	1503.5
558.889	1424.5
559.657	1335.5
560.425	1256.5
561.193	1192.5
561.961	1126.5
562.729	1076.5
563.496	1006.5
564.264	947.5
565.032	905.5
565.799	853.5
566.567	809.5
567.334	778.5
568.101	732.5
568.869	686.5
569.636	653.5
570.403	602.5
571.17	577.5
571.937	532.5
572.704	507.5
573.471	482.5
574.237	457.5
575.004	428.5
575.771	401.5
576.537	383.5
577.303	352.5
578.07	329.5
578.836	319.5
579.602	308.5
580.368	282.5
581.134	270.5
581.9	252.5
582.666	245.5
583.432	232.5
584.198	212.5
584.964	212.5
585.729	200.5
586.495	182.5
587.26	177.5
588.025	169.5
588.791	159.5
589.556	155.5
590.321	142.5
591.086	131.5
591.851	131.5
592.616	122.5
593.381	121.5
594.146	109.5
594.911	105.5
595.675	106.5
596.44	94.5
597.204	95.5
597.969	87.5
598.733	83.5
599.497	81.5
600.261	80.5
601.025	76.5
601.79	70.5
602.553	67.5
603.317	65.5
604.081	62.5
604.845	62.5
605.609	56.5
606.372	54.5
607.136	51.5
607.899	51.5
608.662	48.5
609.426	46.5
610.189	44.5
610.952	42.5
611.715	43.5
612.478	41.5
613.241	39.5
614.004	39.5
614.767	36.5
615.529	38.5
616.292	35.5
617.055	32.5
617.817	33.5
618.579	30.5
619.342	27.5
620.104	30.5
620.866	24.5
621.628	28.5
622.39	26.5
623.152	27.5
623.914	26.5
624.676	24.5
625.438	22.5
626.199	22.5
626.961	20.5
627.722	20.5
628.484	20.5
629.245	19.5
630.006	17.5
630.768	13.5
631.529	18.5
632.29	15.5
633.051	14.5
633.812	18.5
634.573	16.5
635.333	18.5
636.094	17.5
636.855	13.5
637.615	14.5
638.376	13.5
639.136	14.5
639.896	11.5
640.657	13.5
641.417	14.5
642.177	10.5
642.937	12.5
643.697	13.5
644.457	12.5
645.216	11.5
645.976	13.5
646.736	12.5
647.495	9.5
648.255	12.5
649.014	9.5
649.774	8.5
650.533	10.5
651.292	9.5
652.051	10.5
652.81	8.5
653.569	9.5
654.328	9.5
655.087	10.5
655.846	8.5
656.604	9.5
657.363	10.5
658.121	6.5
658.88	8.5
659.638	9.5
660.397	8.5
661.155	4.5
661.913	6.5
662.671	8.5
663.429	7.5
664.187	6.5
664.945	8.5
665.703	8.5
666.46	7.5
667.218	5.5
667.976	8.5
668.733	7.5
669.49	7.5
670.248	7.5
671.005	7.5
671.762	7.5
672.519	5.5
673.276	9.5
674.033	7.5
674.79	7.5
675.547	8.5
676.304	5.5
677.06	6.5
677.817	3.5
678.574	8.5
679.33	4.5
680.086	6.5
680.843	7.5
681.599	5.5
682.355	8.5
683.111	7.5
683.867	6.5
684.623	4.5
685.379	4.5
686.135	6.5
686.89	6.5
687.646	5.5
688.402	4.5
689.157	4.5
689.912	6.5
690.668	5.5
691.423	6.5
692.178	6.5
692.933	5.5
693.688	5.5
694.443	5.5
695.198	6.5
695.953	4.5
696.708	4.5
697.462	6.5
698.217	3.5
698.972	4.5
699.726	4.5
700.48	4.5
701.235	7.5
701.989	5.5
702.743	7.5
703.497	4.5
704.251	3.5
705.005	4.5
705.759	5.5
706.513	4.5
707.266	4.5
708.02	4.5
708.774	7.5
709.527	4.5
710.28	5.5
711.034	4.5
711.787	5.5
712.54	4.5
713.293	4.5
714.046	4.5
714.799	4.5
715.552	5.5
716.305	4.5
717.058	7.5
717.81	2.5
718.563	5.5
719.315	5.5
720.068	4.5
720.82	5.5
721.573	2.5
722.325	5.5
723.077	5.5
723.829	6.5
724.581	5.5
725.333	3.5
726.085	4.5
726.836	2.5
727.588	7.5
728.34	5.5
729.091	4.5
729.843	4.5
730.594	5.5
731.346	3.5
732.097	4.5
732.848	6.5
733.599	9.5
734.35	4.5
735.101	7.5
735.852	4.5
736.603	5.5
737.354	6.5
738.104	5.5
738.855	8.5
739.605	9.5
740.356	6.5
741.106	5.5
741.856	5.5
742.607	7.5
743.357	4.5
744.107	6.5
744.857	4.5
745.607	7.5
746.357	7.5
747.106	7.5
747.856	6.5
748.606	8.5
749.355	8.5
750.105	8.5
750.854	5.5
751.603	8.5
752.353	6.5
753.102	9.5
753.851	8.5
754.6	8.5
755.349	7.5
756.098	8.5
756.847	8.5
757.595	7.5
758.344	7.5
759.093	10.5
759.841	9.5
760.589	11.5
761.338	7.5
762.086	11.5
762.834	8.5
763.582	10.5
764.331	9.5
765.079	10.5
765.826	8.5
766.574	9.5
767.322	8.5
768.07	9.5
768.817	10.5
769.565	11.5
770.312	10.5
771.06	10.5
771.807	10.5
772.554	9.5
773.302	11.5
774.049	10.5
774.796	12.5
775.543	12.5
776.29	11.5
777.036	9.5
777.783	9.5
778.53	11.5
779.276	9.5
780.023	15.5
780.769	9.5
781.516	11.5
782.262	11.5
783.008	10.5
783.754	11.5
784.5	12.5
785.246	10.5
785.992	12.5
786.738	12.5
787.484	13.5
788.23	10.5
788.975	14.5
789.721	10.5
790.466	13.5
791.212	11.5
791.957	9.5
792.702	11.5
793.447	10.5
794.193	11.5
794.938	12.5
795.683	13.5
796.427	12.5
797.172	7.5
797.917	10.5
798.662	8.5
799.406	12.5
800.151	8.5
800.895	9.5
801.64	10.5
802.384	6.5
803.128	9.5
803.872	9.5
804.616	7.5
805.36	10.5
806.104	8.5
806.848	9.5
807.592	7.5
808.336	6.5
809.079	8.5
809.823	5.5
810.566	8.5
811.31	8.5
812.053	7.5
812.796	7.5
813.539	7.5
814.283	9.5
815.026	8.5
815.769	6.5
816.511	6.5
817.254	7.5
817.997	7.5
818.74	4.5
819.482	6.5
820.225	7.5
820.967	3.5
821.71	7.5
822.452	5.5
823.194	6.5
823.936	4.5
824.678	5.5
825.42	4.5
826.162	5.5
826.904	5.5
827.646	4.5
828.388	6.5
829.129	7.5
829.871	5.5
830.612	5.5
831.354	4.5
832.095	6.5
832.836	4.5
833.577	5.5
834.319	4.5
835.06	5.5
835.801	6.5
836.542	3.5
837.282	5.5
838.023	3.5
838.764	3.5
839.504	2.5
840.245	5.5
840.985	7.5
841.726	3.5
842.466	4.5
843.206	1.5
843.946	4.5
844.687	2.5
845.427	4.5
846.166	7.5
846.906	3.5
847.646	4.5
848.386	1.5
849.125	2.5
849.865	3.5
850.605	3.5
851.344	3.5
852.083	3.5
852.823	3.5
853.562	2.5
854.301	2.5
855.04	2.5
855.779	0.5
856.518	2.5
857.257	4.5
857.995	3.5
858.734	4.5
859.473	3.5
860.211	2.5
860.95	1.5
861.688	4.5
862.426	1.5
863.165	2.5
863.903	3.5
864.641	1.5
865.379	2.5
866.117	1.5
866.855	5.5
867.593	4.5
868.33	1.5
869.068	0.5
869.806	2.5
870.543	2.5
871.28	0.5
872.018	2.5
872.755	2.5
873.492	-0.5
874.229	3.5
874.967	-0.5
875.703	0.5
876.44	0.5
877.177	0.5
877.914	-0.5
878.651	0.5
879.387	2.5
880.124	1.5
880.86	2.5
881.597	1.5
882.333	0.5
883.069	1.5
883.806	3.5
884.542	1.5
885.278	-0.5
886.014	3.5
886.749	0.5
887.485	1.5
888.221	2.5
888.957	0.5
889.692	1.5
890.428	0.5
891.163	3.5
891.899	-0.5
892.634	0.5
893.369	1.5
894.104	0.5
894.839	2.5
895.574	1.5
896.309	-0.5
897.044	-0.5
897.779	0.5
898.514	0.5
899.248	-0.5
899.983	1.5
900.717	0.5
901.452	1.5
902.186	1.5
902.92	0.5
903.654	0.5
904.389	2.5
905.123	1.5
905.857	0.5
906.59	-0.5
907.324	0.5
908.058	0.5
908.792	2.5
909.525	-0.5
910.259	1.5
910.992	3.5
911.726	2.5
912.459	1.5
913.192	2.5
913.925	1.5
914.658	1.5
915.391	-2.5
916.124	0.5
916.857	-1.5
917.59	0.5
918.323	0.5
919.055	0.5
919.788	0.5
920.521	-0.5
921.253	0.5
921.985	1.5
922.718	0.5
923.45	2.5
924.182	0.5
924.914	0.5
925.646	1.5
926.378	0.5
927.11	0.5
927.841	1.5
928.573	0.5
929.305	-1.5
930.036	1.5
930.768	1.5
931.499	1.5
932.23	0.5
932.962	-0.5
933.693	0.5
934.424	0.5
935.155	0.5
935.886	0.5
936.617	2.5
937.348	0.5
938.078	-0.5
938.809	-0.5
939.54	0.5
940.27	0.5
941.001	1.5
941.731	-1.5
942.461	1.5
943.191	-1.5
943.922	0.5
944.652	-0.5
945.382	0.5
946.112	-0.5
946.841	0.5
947.571	0.5
948.301	2.5
949.031	-1.5
949.76	-1.5
950.49	-0.5
951.219	1.5
951.948	0.5
952.678	2.5
953.407	-1.5
954.136	0.5
954.865	1.5
955.594	-0.5
956.323	0.5
957.052	2.5
957.78	0.5
958.509	1.5
959.238	1.5
959.966	-0.5
960.695	-1.5
961.423	0.5
962.151	-0.5
962.88	-0.5
963.608	0.5
964.336	-1.5
965.064	1.5
965.792	2.5
966.52	0.5
967.247	0.5
967.975	0.5
968.703	1.5
969.43	-1.5
970.158	2.5
970.885	1.5
971.613	1.5
972.34	-0.5
973.067	-1.5
973.794	-0.5
974.521	0.5
975.248	1.5
975.975	2.5
976.702	0.5
977.429	-0.5
978.156	0.5
978.882	1.5
979.609	0.5
980.335	0.5
981.062	1.5
981.788	0.5
982.514	1.5
983.24	-0.5
983.967	0.5
984.693	-0.5
985.419	2.5
986.144	-1.5
986.87	0.5
987.596	1.5
988.322	2.5
989.047	2.5
989.773	3.5
990.498	-1.5
991.224	0.5
991.949	0.5
992.674	0.5
993.399	0.5
994.124	-1.5
994.849	0.5
995.574	1.5
996.299	1.5
997.024	-2.5
997.749	0.5
998.473	1.5
999.198	-0.5
999.922	1.5
1000.647	3.5
1001.371	2.5
1002.095	-0.5
1002.82	-0.5
1003.544	-2.5
1004.268	2.5
1004.992	2.5
1005.716	3.5
1006.439	1.5
1007.163	3.5
1007.887	1.5
1008.611	0.5
1009.334	1.5
1010.058	-0.5
1010.781	0.5
1011.504	1.5
1012.228	1.5
1012.951	-0.5
1013.674	0.5
1014.397	0.5
1015.12	0.5
