节点500_425_QEPB04081__253__15-52-31-012.txt的数据

Date: Wed Nov 12 15:52:31 CST 2025
User: PC
Spectrometer: QEPB0408
触发模式: 0
积分时间 (秒): 1.000000E-2
Scans to average: 1
启用暗噪声校正: true
启用非线性校正: false
滑动平均宽度: 0
X轴模式: Wavelengths
Number of Pixels in Spectrum: 1044
>>>>>Begin Spectral Data<<<<<
220.843	1.62
221.644	0.62
222.444	2.62
223.244	2.62
224.045	1.62
224.845	4.62
225.645	3.62
226.445	2.62
227.245	3.62
228.045	2.62
228.845	4.62
229.645	4.62
230.444	5.62
231.244	2.62
232.043	6.62
232.843	3.62
233.642	5.62
234.442	5.62
235.241	6.62
236.04	4.62
236.839	5.62
237.638	3.62
238.437	7.62
239.236	7.62
240.035	7.62
240.833	7.62
241.632	6.62
242.43	4.62
243.229	7.62
244.027	8.62
244.826	7.62
245.624	7.62
246.422	10.62
247.22	7.62
248.018	9.62
248.816	9.62
249.614	6.62
250.412	11.62
251.21	9.62
252.007	9.62
252.805	8.62
253.602	12.62
254.4	12.62
255.197	9.62
255.994	10.62
256.791	12.62
257.589	10.62
258.386	12.62
259.183	13.62
259.979	13.62
260.776	12.62
261.573	13.62
262.37	13.62
263.166	15.62
263.963	16.62
264.759	16.62
265.556	16.62
266.352	18.62
267.148	14.62
267.944	17.62
268.74	22.62
269.536	17.62
270.332	20.62
271.128	23.62
271.924	23.62
272.719	21.62
273.515	23.62
274.311	21.62
275.106	23.62
275.901	20.62
276.697	21.62
277.492	22.62
278.287	22.62
279.082	26.62
279.877	26.62
280.672	24.62
281.467	24.62
282.262	22.62
283.056	25.62
283.851	23.62
284.646	24.62
285.44	23.62
286.234	25.62
287.029	25.62
287.823	23.62
288.617	23.62
289.411	25.62
290.205	23.62
290.999	23.62
291.793	25.62
292.587	20.62
293.381	22.62
294.174	23.62
294.968	20.62
295.761	21.62
296.555	18.62
297.348	19.62
298.141	19.62
298.935	23.62
299.728	16.62
300.521	17.62
301.314	19.62
302.107	18.62
302.899	15.62
303.692	17.62
304.485	15.62
305.277	17.62
306.07	15.62
306.862	15.62
307.655	18.62
308.447	15.62
309.239	15.62
310.031	14.62
310.823	12.62
311.615	10.62
312.407	10.62
313.199	14.62
313.991	10.62
314.783	10.62
315.574	14.62
316.366	9.62
317.157	9.62
317.949	6.62
318.74	9.62
319.531	10.62
320.322	11.62
321.113	8.62
321.904	9.62
322.695	10.62
323.486	8.62
324.277	9.62
325.068	8.62
325.858	8.62
326.649	8.62
327.439	10.62
328.23	9.62
329.02	9.62
329.81	10.62
330.6	9.62
331.391	7.62
332.181	9.62
332.971	6.62
333.76	9.62
334.55	8.62
335.34	8.62
336.13	10.62
336.919	8.62
337.709	7.62
338.498	7.62
339.287	8.62
340.077	7.62
340.866	6.62
341.655	10.62
342.444	5.62
343.233	8.62
344.022	9.62
344.811	7.62
345.6	4.62
346.388	7.62
347.177	7.62
347.965	5.62
348.754	8.62
349.542	7.62
350.33	7.62
351.119	8.62
351.907	7.62
352.695	6.62
353.483	8.62
354.271	6.62
355.059	9.62
355.846	8.62
356.634	7.62
357.422	6.62
358.209	6.62
358.997	6.62
359.784	6.62
360.571	7.62
361.359	6.62
362.146	6.62
362.933	7.62
363.72	5.62
364.507	5.62
365.294	4.62
366.081	5.62
366.867	7.62
367.654	5.62
368.44	7.62
369.227	5.62
370.013	5.62
370.8	5.62
371.586	8.62
372.372	6.62
373.158	6.62
373.944	6.62
374.73	2.62
375.516	6.62
376.302	5.62
377.088	6.62
377.873	6.62
378.659	6.62
379.445	7.62
380.23	6.62
381.015	6.62
381.801	7.62
382.586	6.62
383.371	6.62
384.156	7.62
384.941	6.62
385.726	8.62
386.511	6.62
387.296	5.62
388.08	5.62
388.865	7.62
389.649	5.62
390.434	7.62
391.218	8.62
392.003	6.62
392.787	8.62
393.571	6.62
394.355	6.62
395.139	11.62
395.923	7.62
396.707	7.62
397.491	9.62
398.274	7.62
399.058	7.62
399.842	9.62
400.625	10.62
401.408	9.62
402.192	10.62
402.975	8.62
403.758	8.62
404.541	9.62
405.324	8.62
406.107	11.62
406.89	8.62
407.673	8.62
408.456	11.62
409.238	10.62
410.021	10.62
410.803	9.62
411.586	10.62
412.368	12.62
413.151	9.62
413.933	9.62
414.715	11.62
415.497	12.62
416.279	13.62
417.061	12.62
417.843	10.62
418.624	11.62
419.406	12.62
420.188	15.62
420.969	15.62
421.751	13.62
422.532	13.62
423.313	13.62
424.095	15.62
424.876	14.62
425.657	16.62
426.438	13.62
427.219	16.62
428	16.62
428.78	16.62
429.561	17.62
430.342	19.62
431.122	18.62
431.903	22.62
432.683	18.62
433.464	23.62
434.244	25.62
435.024	21.62
435.804	21.62
436.584	24.62
437.364	29.62
438.144	28.62
438.924	29.62
439.704	31.62
440.483	34.62
441.263	32.62
442.042	35.62
442.822	40.62
443.601	43.62
444.38	45.62
445.16	48.62
445.939	51.62
446.718	57.62
447.497	60.62
448.276	63.62
449.054	73.62
449.833	76.62
450.612	84.62
451.391	89.62
452.169	96.62
452.948	108.62
453.726	124.62
454.504	136.62
455.282	147.62
456.061	169.62
456.839	184.62
457.617	209.62
458.395	227.62
459.172	248.62
459.95	282.62
460.728	314.62
461.506	348.62
462.283	401.62
463.061	436.62
463.838	489.62
464.615	550.62
465.393	611.62
466.17	684.62
466.947	768.62
467.724	844.62
468.501	935.62
469.278	1041.62
470.055	1156.62
470.831	1284.62
471.608	1441.62
472.385	1571.62
473.161	1755.62
473.938	1933.62
474.714	2154.62
475.49	2375.62
476.266	2610.62
477.043	2896.62
477.819	3177.62
478.595	3515.62
479.371	3869.62
480.146	4242.62
480.922	4672.62
481.698	5115.62
482.473	5602.62
483.249	6140.62
484.024	6769.62
484.8	7401.62
485.575	8073.62
486.35	8853.62
487.126	9613.62
487.901	10515.62
488.676	11494.62
489.451	12453.62
490.225	13515.62
491	14750.62
491.775	15997.62
492.55	17211.62
493.324	18539.62
494.099	19873.62
494.873	21232.62
495.647	22733.62
496.422	24113.62
497.196	25638.62
497.97	27125.62
498.744	28596.62
499.518	29898.62
500.292	31109.62
501.066	32285.62
501.839	33325.62
502.613	34279.62
503.387	35012.62
504.16	35494.62
504.934	35734.62
505.707	35705.62
506.48	35542.62
507.253	35187.62
508.027	34756.62
508.8	34167.62
509.573	33432.62
510.346	32595.62
511.118	31585.62
511.891	30624.62
512.664	29445.62
513.437	28218.62
514.209	27144.62
514.982	26057.62
515.754	25009.62
516.526	23920.62
517.298	22956.62
518.071	21924.62
518.843	21028.62
519.615	20129.62
520.387	19393.62
521.159	18685.62
521.93	17922.62
522.702	17183.62
523.474	16528.62
524.245	15834.62
525.017	15168.62
525.788	14458.62
526.56	13795.62
527.331	13129.62
528.102	12538.62
528.873	11941.62
529.644	11343.62
530.415	10836.62
531.186	10303.62
531.957	9741.62
532.728	9224.62
533.498	8717.62
534.269	8263.62
535.039	7820.62
535.81	7383.62
536.58	6977.62
537.351	6542.62
538.121	6216.62
538.891	5864.62
539.661	5543.62
540.431	5263.62
541.201	4988.62
541.971	4727.62
542.741	4468.62
543.51	4275.62
544.28	4047.62
545.05	3829.62
545.819	3672.62
546.588	3480.62
547.358	3298.62
548.127	3120.62
548.896	2966.62
549.665	2806.62
550.434	2690.62
551.203	2550.62
551.972	2375.62
552.741	2277.62
553.51	2151.62
554.278	2011.62
555.047	1904.62
555.815	1795.62
556.584	1691.62
557.352	1611.62
558.121	1523.62
558.889	1431.62
559.657	1356.62
560.425	1281.62
561.193	1206.62
561.961	1151.62
562.729	1084.62
563.496	1029.62
564.264	966.62
565.032	911.62
565.799	866.62
566.567	813.62
567.334	773.62
568.101	730.62
568.869	681.62
569.636	646.62
570.403	607.62
571.17	567.62
571.937	549.62
572.704	518.62
573.471	487.62
574.237	451.62
575.004	429.62
575.771	403.62
576.537	387.62
577.303	363.62
578.07	334.62
578.836	324.62
579.602	303.62
580.368	284.62
581.134	269.62
581.9	259.62
582.666	243.62
583.432	233.62
584.198	220.62
584.964	207.62
585.729	202.62
586.495	190.62
587.26	181.62
588.025	170.62
588.791	158.62
589.556	153.62
590.321	144.62
591.086	132.62
591.851	129.62
592.616	119.62
593.381	126.62
594.146	109.62
594.911	109.62
595.675	104.62
596.44	96.62
597.204	92.62
597.969	88.62
598.733	86.62
599.497	81.62
600.261	74.62
601.025	77.62
601.79	71.62
602.553	67.62
603.317	65.62
604.081	63.62
604.845	60.62
605.609	59.62
606.372	55.62
607.136	50.62
607.899	51.62
608.662	46.62
609.426	50.62
610.189	44.62
610.952	43.62
611.715	42.62
612.478	39.62
613.241	38.62
614.004	37.62
614.767	35.62
615.529	33.62
616.292	33.62
617.055	32.62
617.817	32.62
618.579	27.62
619.342	28.62
620.104	29.62
620.866	29.62
621.628	24.62
622.39	23.62
623.152	27.62
623.914	19.62
624.676	20.62
625.438	24.62
626.199	20.62
626.961	21.62
627.722	19.62
628.484	20.62
629.245	18.62
630.006	19.62
630.768	16.62
631.529	18.62
632.29	18.62
633.051	13.62
633.812	13.62
634.573	17.62
635.333	14.62
636.094	15.62
636.855	11.62
637.615	11.62
638.376	13.62
639.136	13.62
639.896	12.62
640.657	12.62
641.417	11.62
642.177	9.62
642.937	9.62
643.697	11.62
644.457	11.62
645.216	11.62
645.976	11.62
646.736	11.62
647.495	10.62
648.255	11.62
649.014	7.62
649.774	8.62
650.533	7.62
651.292	7.62
652.051	7.62
652.81	8.62
653.569	8.62
654.328	11.62
655.087	6.62
655.846	8.62
656.604	6.62
657.363	7.62
658.121	5.62
658.88	7.62
659.638	8.62
660.397	6.62
661.155	8.62
661.913	7.62
662.671	6.62
663.429	8.62
664.187	6.62
664.945	6.62
665.703	5.62
666.46	5.62
667.218	7.62
667.976	6.62
668.733	8.62
669.49	4.62
670.248	6.62
671.005	7.62
671.762	6.62
672.519	6.62
673.276	4.62
674.033	5.62
674.79	6.62
675.547	4.62
676.304	5.62
677.06	4.62
677.817	5.62
678.574	5.62
679.33	6.62
680.086	7.62
680.843	6.62
681.599	4.62
682.355	4.62
683.111	5.62
683.867	5.62
684.623	7.62
685.379	6.62
686.135	6.62
686.89	5.62
687.646	4.62
688.402	5.62
689.157	3.62
689.912	2.62
690.668	2.62
691.423	5.62
692.178	4.62
692.933	1.62
693.688	3.62
694.443	4.62
695.198	4.62
695.953	3.62
696.708	2.62
697.462	5.62
698.217	5.62
698.972	4.62
699.726	3.62
700.48	5.62
701.235	3.62
701.989	2.62
702.743	3.62
703.497	4.62
704.251	3.62
705.005	5.62
705.759	3.62
706.513	5.62
707.266	5.62
708.02	4.62
708.774	6.62
709.527	4.62
710.28	1.62
711.034	3.62
711.787	3.62
712.54	3.62
713.293	3.62
714.046	5.62
714.799	5.62
715.552	2.62
716.305	5.62
717.058	3.62
717.81	5.62
718.563	6.62
719.315	3.62
720.068	3.62
720.82	3.62
721.573	5.62
722.325	3.62
723.077	4.62
723.829	3.62
724.581	5.62
725.333	3.62
726.085	4.62
726.836	3.62
727.588	3.62
728.34	5.62
729.091	2.62
729.843	2.62
730.594	4.62
731.346	3.62
732.097	4.62
732.848	4.62
733.599	4.62
734.35	5.62
735.101	3.62
735.852	4.62
736.603	3.62
737.354	6.62
738.104	4.62
738.855	5.62
739.605	6.62
740.356	6.62
741.106	6.62
741.856	5.62
742.607	6.62
743.357	4.62
744.107	6.62
744.857	5.62
745.607	5.62
746.357	4.62
747.106	4.62
747.856	8.62
748.606	4.62
749.355	5.62
750.105	7.62
750.854	6.62
751.603	6.62
752.353	5.62
753.102	6.62
753.851	7.62
754.6	6.62
755.349	7.62
756.098	6.62
756.847	9.62
757.595	6.62
758.344	6.62
759.093	9.62
759.841	6.62
760.589	8.62
761.338	10.62
762.086	9.62
762.834	8.62
763.582	7.62
764.331	10.62
765.079	7.62
765.826	7.62
766.574	9.62
767.322	8.62
768.07	9.62
768.817	10.62
769.565	12.62
770.312	10.62
771.06	6.62
771.807	9.62
772.554	9.62
773.302	10.62
774.049	11.62
774.796	10.62
775.543	8.62
776.29	8.62
777.036	7.62
777.783	11.62
778.53	12.62
779.276	9.62
780.023	11.62
780.769	11.62
781.516	8.62
782.262	11.62
783.008	10.62
783.754	9.62
784.5	10.62
785.246	10.62
785.992	12.62
786.738	10.62
787.484	11.62
788.23	11.62
788.975	10.62
789.721	9.62
790.466	11.62
791.212	13.62
791.957	9.62
792.702	11.62
793.447	8.62
794.193	6.62
794.938	10.62
795.683	9.62
796.427	11.62
797.172	9.62
797.917	9.62
798.662	10.62
799.406	10.62
800.151	11.62
800.895	9.62
801.64	9.62
802.384	7.62
803.128	8.62
803.872	8.62
804.616	8.62
805.36	9.62
806.104	7.62
806.848	6.62
807.592	4.62
808.336	5.62
809.079	9.62
809.823	6.62
810.566	6.62
811.31	6.62
812.053	4.62
812.796	7.62
813.539	3.62
814.283	5.62
815.026	4.62
815.769	5.62
816.511	2.62
817.254	4.62
817.997	6.62
818.74	5.62
819.482	6.62
820.225	5.62
820.967	4.62
821.71	5.62
822.452	6.62
823.194	4.62
823.936	3.62
824.678	4.62
825.42	6.62
826.162	5.62
826.904	3.62
827.646	2.62
828.388	5.62
829.129	1.62
829.871	3.62
830.612	5.62
831.354	5.62
832.095	1.62
832.836	4.62
833.577	6.62
834.319	4.62
835.06	4.62
835.801	1.62
836.542	1.62
837.282	5.62
838.023	3.62
838.764	3.62
839.504	3.62
840.245	3.62
840.985	3.62
841.726	5.62
842.466	3.62
843.206	3.62
843.946	4.62
844.687	2.62
845.427	3.62
846.166	5.62
846.906	0.62
847.646	3.62
848.386	2.62
849.125	4.62
849.865	4.62
850.605	1.62
851.344	2.62
852.083	2.62
852.823	3.62
853.562	2.62
854.301	2.62
855.04	1.62
855.779	1.62
856.518	3.62
857.257	3.62
857.995	2.62
858.734	3.62
859.473	3.62
860.211	2.62
860.95	2.62
861.688	2.62
862.426	1.62
863.165	0.62
863.903	0.62
864.641	-1.38
865.379	1.62
866.117	3.62
866.855	3.62
867.593	1.62
868.33	1.62
869.068	0.62
869.806	1.62
870.543	4.62
871.28	0.62
872.018	1.62
872.755	1.62
873.492	-0.38
874.229	1.62
874.967	1.62
875.703	-0.38
876.44	0.62
877.177	1.62
877.914	1.62
878.651	1.62
879.387	-0.38
880.124	1.62
880.86	-1.38
881.597	1.62
882.333	1.62
883.069	0.62
883.806	-0.38
884.542	1.62
885.278	-0.38
886.014	1.62
886.749	-1.38
887.485	-0.38
888.221	0.62
888.957	-1.38
889.692	-2.38
890.428	1.62
891.163	-1.38
891.899	1.62
892.634	0.62
893.369	-0.38
894.104	-0.38
894.839	0.62
895.574	-0.38
896.309	-2.38
897.044	0.62
897.779	1.62
898.514	-0.38
899.248	1.62
899.983	-0.38
900.717	1.62
901.452	-2.38
902.186	1.62
902.92	0.62
903.654	-0.38
904.389	-0.38
905.123	0.62
905.857	-1.38
906.59	1.62
907.324	-2.38
908.058	0.62
908.792	2.62
909.525	-0.38
910.259	0.62
910.992	-0.38
911.726	-1.38
912.459	-2.38
913.192	0.62
913.925	-0.38
914.658	-0.38
915.391	-0.38
916.124	-3.38
916.857	-0.38
917.59	-0.38
918.323	0.62
919.055	0.62
919.788	-2.38
920.521	1.62
921.253	-1.38
921.985	0.62
922.718	1.62
923.45	-0.38
924.182	-0.38
924.914	-0.38
925.646	2.62
926.378	-0.38
927.11	-1.38
927.841	1.62
928.573	-0.38
929.305	0.62
930.036	-1.38
930.768	0.62
931.499	2.62
932.23	0.62
932.962	-2.38
933.693	-0.38
934.424	1.62
935.155	1.62
935.886	0.62
936.617	1.62
937.348	-1.38
938.078	-0.38
938.809	-0.38
939.54	-0.38
940.27	-2.38
941.001	-1.38
941.731	1.62
942.461	-2.38
943.191	-0.38
943.922	2.62
944.652	-0.38
945.382	-1.38
946.112	-0.38
946.841	1.62
947.571	-1.38
948.301	2.62
949.031	-2.38
949.76	-0.38
950.49	-0.38
951.219	-1.38
951.948	-0.38
952.678	-1.38
953.407	-0.38
954.136	0.62
954.865	1.62
955.594	1.62
956.323	-0.38
957.052	-0.38
957.78	-1.38
958.509	-0.38
959.238	-1.38
959.966	-0.38
960.695	-1.38
961.423	-0.38
962.151	0.62
962.88	-2.38
963.608	-2.38
964.336	-1.38
965.064	-1.38
965.792	-1.38
966.52	-1.38
967.247	-0.38
967.975	0.62
968.703	0.62
969.43	-0.38
970.158	-2.38
970.885	0.62
971.613	0.62
972.34	-1.38
973.067	-1.38
973.794	-0.38
974.521	-1.38
975.248	1.62
975.975	0.62
976.702	0.62
977.429	-0.38
978.156	1.62
978.882	1.62
979.609	1.62
980.335	-0.38
981.062	-0.38
981.788	-0.38
982.514	-1.38
983.24	0.62
983.967	-0.38
984.693	0.62
985.419	0.62
986.144	-2.38
986.87	2.62
987.596	-1.38
988.322	0.62
989.047	-0.38
989.773	-0.38
990.498	-0.38
991.224	-1.38
991.949	-0.38
992.674	-0.38
993.399	-1.38
994.124	-2.38
994.849	-1.38
995.574	-1.38
996.299	-2.38
997.024	-1.38
997.749	-0.38
998.473	-1.38
999.198	-0.38
999.922	-0.38
1000.647	1.62
1001.371	2.62
1002.095	-0.38
1002.82	-1.38
1003.544	-1.38
1004.268	4.62
1004.992	-0.38
1005.716	1.62
1006.439	1.62
1007.163	3.62
1007.887	2.62
1008.611	-0.38
1009.334	1.62
1010.058	-0.38
1010.781	-1.38
1011.504	-1.38
1012.228	-0.38
1012.951	1.62
1013.674	0.62
1014.397	-1.38
1015.12	-0.38
