节点500_425_QEPB04081__424__15-55-21-667.txt的数据

Date: Wed Nov 12 15:55:21 CST 2025
User: PC
Spectrometer: QEPB0408
触发模式: 0
积分时间 (秒): 1.000000E-2
Scans to average: 1
启用暗噪声校正: true
启用非线性校正: false
滑动平均宽度: 0
X轴模式: Wavelengths
Number of Pixels in Spectrum: 1044
>>>>>Begin Spectral Data<<<<<
220.843	1.75
221.644	5.75
222.444	2.75
223.244	3.75
224.045	4.75
224.845	4.75
225.645	4.75
226.445	3.75
227.245	2.75
228.045	3.75
228.845	5.75
229.645	4.75
230.444	6.75
231.244	4.75
232.043	5.75
232.843	9.75
233.642	5.75
234.442	6.75
235.241	7.75
236.04	5.75
236.839	6.75
237.638	6.75
238.437	5.75
239.236	4.75
240.035	7.75
240.833	7.75
241.632	7.75
242.43	8.75
243.229	4.75
244.027	6.75
244.826	5.75
245.624	7.75
246.422	7.75
247.22	8.75
248.018	5.75
248.816	8.75
249.614	10.75
250.412	10.75
251.21	8.75
252.007	8.75
252.805	11.75
253.602	10.75
254.4	11.75
255.197	12.75
255.994	10.75
256.791	11.75
257.589	12.75
258.386	13.75
259.183	14.75
259.979	14.75
260.776	15.75
261.573	16.75
262.37	16.75
263.166	14.75
263.963	13.75
264.759	15.75
265.556	13.75
266.352	19.75
267.148	18.75
267.944	20.75
268.74	20.75
269.536	18.75
270.332	22.75
271.128	19.75
271.924	22.75
272.719	20.75
273.515	22.75
274.311	24.75
275.106	21.75
275.901	22.75
276.697	23.75
277.492	20.75
278.287	24.75
279.082	21.75
279.877	24.75
280.672	22.75
281.467	23.75
282.262	23.75
283.056	24.75
283.851	23.75
284.646	25.75
285.44	21.75
286.234	23.75
287.029	24.75
287.823	23.75
288.617	19.75
289.411	24.75
290.205	23.75
290.999	24.75
291.793	24.75
292.587	22.75
293.381	23.75
294.174	23.75
294.968	22.75
295.761	19.75
296.555	17.75
297.348	17.75
298.141	20.75
298.935	24.75
299.728	21.75
300.521	18.75
301.314	17.75
302.107	16.75
302.899	18.75
303.692	17.75
304.485	15.75
305.277	16.75
306.07	16.75
306.862	19.75
307.655	14.75
308.447	15.75
309.239	15.75
310.031	12.75
310.823	12.75
311.615	14.75
312.407	14.75
313.199	13.75
313.991	11.75
314.783	11.75
315.574	9.75
316.366	12.75
317.157	10.75
317.949	14.75
318.74	12.75
319.531	12.75
320.322	10.75
321.113	9.75
321.904	10.75
322.695	9.75
323.486	12.75
324.277	9.75
325.068	9.75
325.858	10.75
326.649	9.75
327.439	9.75
328.23	10.75
329.02	9.75
329.81	8.75
330.6	8.75
331.391	11.75
332.181	11.75
332.971	9.75
333.76	10.75
334.55	9.75
335.34	8.75
336.13	8.75
336.919	8.75
337.709	9.75
338.498	8.75
339.287	9.75
340.077	8.75
340.866	9.75
341.655	9.75
342.444	7.75
343.233	9.75
344.022	5.75
344.811	8.75
345.6	8.75
346.388	8.75
347.177	7.75
347.965	6.75
348.754	9.75
349.542	6.75
350.33	9.75
351.119	7.75
351.907	7.75
352.695	7.75
353.483	6.75
354.271	8.75
355.059	9.75
355.846	9.75
356.634	8.75
357.422	9.75
358.209	9.75
358.997	7.75
359.784	8.75
360.571	6.75
361.359	6.75
362.146	8.75
362.933	7.75
363.72	8.75
364.507	7.75
365.294	8.75
366.081	7.75
366.867	8.75
367.654	6.75
368.44	6.75
369.227	6.75
370.013	7.75
370.8	7.75
371.586	7.75
372.372	6.75
373.158	5.75
373.944	6.75
374.73	6.75
375.516	7.75
376.302	6.75
377.088	7.75
377.873	5.75
378.659	8.75
379.445	7.75
380.23	7.75
381.015	5.75
381.801	5.75
382.586	7.75
383.371	6.75
384.156	7.75
384.941	8.75
385.726	8.75
386.511	7.75
387.296	10.75
388.08	6.75
388.865	6.75
389.649	9.75
390.434	8.75
391.218	7.75
392.003	11.75
392.787	7.75
393.571	9.75
394.355	10.75
395.139	7.75
395.923	10.75
396.707	9.75
397.491	9.75
398.274	7.75
399.058	10.75
399.842	12.75
400.625	7.75
401.408	11.75
402.192	10.75
402.975	9.75
403.758	9.75
404.541	9.75
405.324	9.75
406.107	10.75
406.89	11.75
407.673	9.75
408.456	10.75
409.238	9.75
410.021	10.75
410.803	11.75
411.586	12.75
412.368	13.75
413.151	11.75
413.933	10.75
414.715	10.75
415.497	14.75
416.279	13.75
417.061	14.75
417.843	13.75
418.624	14.75
419.406	12.75
420.188	14.75
420.969	12.75
421.751	12.75
422.532	14.75
423.313	13.75
424.095	17.75
424.876	16.75
425.657	18.75
426.438	14.75
427.219	19.75
428	18.75
428.78	20.75
429.561	19.75
430.342	19.75
431.122	19.75
431.903	20.75
432.683	20.75
433.464	22.75
434.244	23.75
435.024	23.75
435.804	23.75
436.584	24.75
437.364	26.75
438.144	27.75
438.924	32.75
439.704	33.75
440.483	32.75
441.263	37.75
442.042	39.75
442.822	40.75
443.601	41.75
444.38	46.75
445.16	46.75
445.939	53.75
446.718	64.75
447.497	65.75
448.276	67.75
449.054	75.75
449.833	80.75
450.612	87.75
451.391	97.75
452.169	109.75
452.948	117.75
453.726	130.75
454.504	142.75
455.282	164.75
456.061	176.75
456.839	193.75
457.617	217.75
458.395	236.75
459.172	276.75
459.95	299.75
460.728	326.75
461.506	368.75
462.283	416.75
463.061	457.75
463.838	514.75
464.615	576.75
465.393	633.75
466.17	706.75
466.947	783.75
467.724	877.75
468.501	969.75
469.278	1071.75
470.055	1186.75
470.831	1319.75
471.608	1465.75
472.385	1615.75
473.161	1788.75
473.938	1951.75
474.714	2154.75
475.49	2381.75
476.266	2601.75
477.043	2856.75
477.819	3164.75
478.595	3441.75
479.371	3785.75
480.146	4132.75
480.922	4553.75
481.698	4950.75
482.473	5428.75
483.249	5925.75
484.024	6442.75
484.8	7077.75
485.575	7657.75
486.35	8337.75
487.126	9103.75
487.901	9869.75
488.676	10778.75
489.451	11652.75
490.225	12636.75
491	13687.75
491.775	14823.75
492.55	15911.75
493.324	17114.75
494.099	18394.75
494.873	19578.75
495.647	20930.75
496.422	22232.75
497.196	23604.75
497.97	25048.75
498.744	26365.75
499.518	27683.75
500.292	28860.75
501.066	29953.75
501.839	31149.75
502.613	32104.75
503.387	32765.75
504.16	33400.75
504.934	33855.75
505.707	33962.75
506.48	34007.75
507.253	33893.75
508.027	33640.75
508.8	33150.75
509.573	32659.75
510.346	32003.75
511.118	31096.75
511.891	30272.75
512.664	29171.75
513.437	28144.75
514.209	27098.75
514.982	26156.75
515.754	25160.75
516.526	24100.75
517.298	23117.75
518.071	22174.75
518.843	21166.75
519.615	20365.75
520.387	19516.75
521.159	18810.75
521.93	18120.75
522.702	17358.75
523.474	16728.75
524.245	16080.75
525.017	15333.75
525.788	14630.75
526.56	14012.75
527.331	13329.75
528.102	12762.75
528.873	12180.75
529.644	11585.75
530.415	11067.75
531.186	10594.75
531.957	10040.75
532.728	9476.75
533.498	8958.75
534.269	8476.75
535.039	8049.75
535.81	7598.75
536.58	7170.75
537.351	6786.75
538.121	6444.75
538.891	6072.75
539.661	5754.75
540.431	5435.75
541.201	5157.75
541.971	4894.75
542.741	4640.75
543.51	4417.75
544.28	4175.75
545.05	3958.75
545.819	3806.75
546.588	3630.75
547.358	3422.75
548.127	3241.75
548.896	3094.75
549.665	2935.75
550.434	2801.75
551.203	2622.75
551.972	2497.75
552.741	2366.75
553.51	2237.75
554.278	2104.75
555.047	1982.75
555.815	1911.75
556.584	1787.75
557.352	1681.75
558.121	1572.75
558.889	1500.75
559.657	1429.75
560.425	1319.75
561.193	1267.75
561.961	1211.75
562.729	1137.75
563.496	1077.75
564.264	1001.75
565.032	962.75
565.799	904.75
566.567	847.75
567.334	817.75
568.101	775.75
568.869	736.75
569.636	676.75
570.403	640.75
571.17	600.75
571.937	562.75
572.704	544.75
573.471	505.75
574.237	480.75
575.004	451.75
575.771	416.75
576.537	400.75
577.303	374.75
578.07	362.75
578.836	338.75
579.602	316.75
580.368	301.75
581.134	290.75
581.9	268.75
582.666	247.75
583.432	250.75
584.198	234.75
584.964	220.75
585.729	209.75
586.495	202.75
587.26	188.75
588.025	179.75
588.791	173.75
589.556	160.75
590.321	152.75
591.086	145.75
591.851	132.75
592.616	131.75
593.381	123.75
594.146	116.75
594.911	113.75
595.675	104.75
596.44	97.75
597.204	97.75
597.969	92.75
598.733	89.75
599.497	87.75
600.261	81.75
601.025	81.75
601.79	77.75
602.553	68.75
603.317	69.75
604.081	61.75
604.845	60.75
605.609	63.75
606.372	57.75
607.136	58.75
607.899	52.75
608.662	51.75
609.426	48.75
610.189	47.75
610.952	45.75
611.715	41.75
612.478	40.75
613.241	35.75
614.004	37.75
614.767	38.75
615.529	36.75
616.292	32.75
617.055	35.75
617.817	30.75
618.579	33.75
619.342	31.75
620.104	28.75
620.866	28.75
621.628	29.75
622.39	25.75
623.152	24.75
623.914	27.75
624.676	25.75
625.438	24.75
626.199	23.75
626.961	22.75
627.722	22.75
628.484	19.75
629.245	18.75
630.006	18.75
630.768	19.75
631.529	20.75
632.29	17.75
633.051	19.75
633.812	17.75
634.573	18.75
635.333	18.75
636.094	13.75
636.855	12.75
637.615	15.75
638.376	15.75
639.136	12.75
639.896	15.75
640.657	12.75
641.417	12.75
642.177	14.75
642.937	12.75
643.697	11.75
644.457	12.75
645.216	11.75
645.976	13.75
646.736	11.75
647.495	10.75
648.255	11.75
649.014	10.75
649.774	9.75
650.533	9.75
651.292	11.75
652.051	11.75
652.81	11.75
653.569	8.75
654.328	8.75
655.087	10.75
655.846	8.75
656.604	6.75
657.363	8.75
658.121	8.75
658.88	7.75
659.638	6.75
660.397	7.75
661.155	6.75
661.913	9.75
662.671	10.75
663.429	7.75
664.187	6.75
664.945	8.75
665.703	7.75
666.46	8.75
667.218	8.75
667.976	7.75
668.733	5.75
669.49	6.75
670.248	5.75
671.005	8.75
671.762	4.75
672.519	6.75
673.276	4.75
674.033	6.75
674.79	8.75
675.547	7.75
676.304	5.75
677.06	6.75
677.817	4.75
678.574	8.75
679.33	7.75
680.086	10.75
680.843	4.75
681.599	5.75
682.355	7.75
683.111	5.75
683.867	4.75
684.623	6.75
685.379	5.75
686.135	6.75
686.89	6.75
687.646	8.75
688.402	5.75
689.157	4.75
689.912	5.75
690.668	4.75
691.423	3.75
692.178	6.75
692.933	4.75
693.688	5.75
694.443	5.75
695.198	5.75
695.953	1.75
696.708	6.75
697.462	4.75
698.217	3.75
698.972	5.75
699.726	4.75
700.48	6.75
701.235	3.75
701.989	6.75
702.743	4.75
703.497	3.75
704.251	3.75
705.005	4.75
705.759	4.75
706.513	4.75
707.266	7.75
708.02	4.75
708.774	6.75
709.527	4.75
710.28	5.75
711.034	4.75
711.787	3.75
712.54	7.75
713.293	4.75
714.046	4.75
714.799	4.75
715.552	4.75
716.305	4.75
717.058	3.75
717.81	2.75
718.563	5.75
719.315	6.75
720.068	6.75
720.82	3.75
721.573	7.75
722.325	5.75
723.077	4.75
723.829	3.75
724.581	5.75
725.333	6.75
726.085	5.75
726.836	7.75
727.588	4.75
728.34	6.75
729.091	7.75
729.843	6.75
730.594	4.75
731.346	7.75
732.097	4.75
732.848	5.75
733.599	7.75
734.35	5.75
735.101	8.75
735.852	5.75
736.603	7.75
737.354	6.75
738.104	6.75
738.855	4.75
739.605	5.75
740.356	8.75
741.106	5.75
741.856	6.75
742.607	5.75
743.357	7.75
744.107	5.75
744.857	6.75
745.607	7.75
746.357	8.75
747.106	7.75
747.856	5.75
748.606	5.75
749.355	6.75
750.105	7.75
750.854	6.75
751.603	5.75
752.353	8.75
753.102	7.75
753.851	7.75
754.6	8.75
755.349	6.75
756.098	10.75
756.847	6.75
757.595	7.75
758.344	8.75
759.093	7.75
759.841	6.75
760.589	5.75
761.338	9.75
762.086	8.75
762.834	8.75
763.582	9.75
764.331	8.75
765.079	9.75
765.826	8.75
766.574	8.75
767.322	10.75
768.07	7.75
768.817	9.75
769.565	8.75
770.312	8.75
771.06	8.75
771.807	8.75
772.554	10.75
773.302	8.75
774.049	8.75
774.796	12.75
775.543	9.75
776.29	12.75
777.036	8.75
777.783	10.75
778.53	8.75
779.276	11.75
780.023	13.75
780.769	11.75
781.516	10.75
782.262	11.75
783.008	14.75
783.754	11.75
784.5	9.75
785.246	12.75
785.992	9.75
786.738	11.75
787.484	6.75
788.23	13.75
788.975	10.75
789.721	12.75
790.466	10.75
791.212	13.75
791.957	11.75
792.702	7.75
793.447	8.75
794.193	11.75
794.938	8.75
795.683	10.75
796.427	10.75
797.172	9.75
797.917	11.75
798.662	10.75
799.406	7.75
800.151	10.75
800.895	11.75
801.64	8.75
802.384	12.75
803.128	8.75
803.872	8.75
804.616	9.75
805.36	9.75
806.104	10.75
806.848	9.75
807.592	10.75
808.336	7.75
809.079	8.75
809.823	9.75
810.566	7.75
811.31	7.75
812.053	8.75
812.796	7.75
813.539	6.75
814.283	4.75
815.026	8.75
815.769	6.75
816.511	7.75
817.254	6.75
817.997	6.75
818.74	7.75
819.482	5.75
820.225	7.75
820.967	4.75
821.71	5.75
822.452	7.75
823.194	4.75
823.936	5.75
824.678	7.75
825.42	5.75
826.162	5.75
826.904	6.75
827.646	6.75
828.388	6.75
829.129	6.75
829.871	4.75
830.612	4.75
831.354	3.75
832.095	5.75
832.836	5.75
833.577	4.75
834.319	6.75
835.06	5.75
835.801	4.75
836.542	2.75
837.282	2.75
838.023	4.75
838.764	4.75
839.504	5.75
840.245	2.75
840.985	5.75
841.726	4.75
842.466	3.75
843.206	4.75
843.946	3.75
844.687	5.75
845.427	2.75
846.166	2.75
846.906	4.75
847.646	4.75
848.386	4.75
849.125	5.75
849.865	2.75
850.605	4.75
851.344	2.75
852.083	5.75
852.823	3.75
853.562	5.75
854.301	3.75
855.04	1.75
855.779	5.75
856.518	3.75
857.257	4.75
857.995	4.75
858.734	2.75
859.473	1.75
860.211	4.75
860.95	4.75
861.688	2.75
862.426	3.75
863.165	2.75
863.903	2.75
864.641	4.75
865.379	3.75
866.117	4.75
866.855	3.75
867.593	1.75
868.33	2.75
869.068	3.75
869.806	2.75
870.543	1.75
871.28	1.75
872.018	1.75
872.755	1.75
873.492	4.75
874.229	0.75
874.967	0.75
875.703	1.75
876.44	0.75
877.177	1.75
877.914	0.75
878.651	1.75
879.387	1.75
880.124	2.75
880.86	1.75
881.597	2.75
882.333	-0.25
883.069	6.75
883.806	0.75
884.542	0.75
885.278	1.75
886.014	2.75
886.749	1.75
887.485	1.75
888.221	1.75
888.957	2.75
889.692	-1.25
890.428	-0.25
891.163	1.75
891.899	-0.25
892.634	1.75
893.369	2.75
894.104	0.75
894.839	0.75
895.574	1.75
896.309	0.75
897.044	1.75
897.779	-0.25
898.514	1.75
899.248	1.75
899.983	-0.25
900.717	0.75
901.452	1.75
902.186	0.75
902.92	0.75
903.654	1.75
904.389	0.75
905.123	2.75
905.857	-0.25
906.59	1.75
907.324	0.75
908.058	1.75
908.792	-0.25
909.525	2.75
910.259	-0.25
910.992	-1.25
911.726	1.75
912.459	0.75
913.192	0.75
913.925	2.75
914.658	0.75
915.391	1.75
916.124	-1.25
916.857	0.75
917.59	0.75
918.323	1.75
919.055	0.75
919.788	1.75
920.521	-0.25
921.253	0.75
921.985	-0.25
922.718	3.75
923.45	0.75
924.182	-0.25
924.914	1.75
925.646	-0.25
926.378	2.75
927.11	-0.25
927.841	1.75
928.573	3.75
929.305	-1.25
930.036	1.75
930.768	-0.25
931.499	-1.25
932.23	-0.25
932.962	0.75
933.693	0.75
934.424	0.75
935.155	1.75
935.886	-1.25
936.617	1.75
937.348	0.75
938.078	2.75
938.809	1.75
939.54	-1.25
940.27	0.75
941.001	0.75
941.731	0.75
942.461	-0.25
943.191	-0.25
943.922	2.75
944.652	1.75
945.382	0.75
946.112	0.75
946.841	0.75
947.571	1.75
948.301	1.75
949.031	2.75
949.76	-0.25
950.49	0.75
951.219	-0.25
951.948	-2.25
952.678	0.75
953.407	1.75
954.136	-0.25
954.865	1.75
955.594	-0.25
956.323	0.75
957.052	1.75
957.78	0.75
958.509	-0.25
959.238	1.75
959.966	1.75
960.695	0.75
961.423	0.75
962.151	2.75
962.88	-0.25
963.608	-0.25
964.336	1.75
965.064	1.75
965.792	0.75
966.52	1.75
967.247	-0.25
967.975	-0.25
968.703	1.75
969.43	1.75
970.158	0.75
970.885	-0.25
971.613	0.75
972.34	-0.25
973.067	0.75
973.794	1.75
974.521	0.75
975.248	1.75
975.975	0.75
976.702	2.75
977.429	0.75
978.156	-1.25
978.882	0.75
979.609	0.75
980.335	2.75
981.062	-0.25
981.788	2.75
982.514	-1.25
983.24	-1.25
983.967	1.75
984.693	0.75
985.419	1.75
986.144	2.75
986.87	0.75
987.596	0.75
988.322	1.75
989.047	0.75
989.773	-0.25
990.498	-1.25
991.224	0.75
991.949	0.75
992.674	0.75
993.399	-1.25
994.124	1.75
994.849	-1.25
995.574	-0.25
996.299	0.75
997.024	0.75
997.749	1.75
998.473	1.75
999.198	0.75
999.922	1.75
1000.647	0.75
1001.371	3.75
1002.095	-0.25
1002.82	-1.25
1003.544	-0.25
1004.268	3.75
1004.992	2.75
1005.716	2.75
1006.439	1.75
1007.163	3.75
1007.887	3.75
1008.611	0.75
1009.334	-1.25
1010.058	1.75
1010.781	-1.25
1011.504	1.75
1012.228	3.75
1012.951	-1.25
1013.674	-1.25
1014.397	1.75
1015.12	-1.25
