节点500_425_QEPB04081__105__15-50-03-334.txt的数据

Date: Wed Nov 12 15:50:03 CST 2025
User: PC
Spectrometer: QEPB0408
触发模式: 0
积分时间 (秒): 1.000000E-2
Scans to average: 1
启用暗噪声校正: true
启用非线性校正: false
滑动平均宽度: 0
X轴模式: Wavelengths
Number of Pixels in Spectrum: 1044
>>>>>Begin Spectral Data<<<<<
220.843	5.25
221.644	2.25
222.444	4.25
223.244	1.25
224.045	5.25
224.845	4.25
225.645	1.25
226.445	5.25
227.245	3.25
228.045	5.25
228.845	4.25
229.645	5.25
230.444	6.25
231.244	5.25
232.043	5.25
232.843	4.25
233.642	7.25
234.442	5.25
235.241	4.25
236.04	7.25
236.839	7.25
237.638	7.25
238.437	7.25
239.236	5.25
240.035	7.25
240.833	8.25
241.632	6.25
242.43	6.25
243.229	8.25
244.027	9.25
244.826	8.25
245.624	8.25
246.422	11.25
247.22	8.25
248.018	9.25
248.816	10.25
249.614	11.25
250.412	8.25
251.21	10.25
252.007	8.25
252.805	8.25
253.602	9.25
254.4	11.25
255.197	13.25
255.994	13.25
256.791	12.25
257.589	16.25
258.386	17.25
259.183	15.25
259.979	14.25
260.776	17.25
261.573	12.25
262.37	17.25
263.166	16.25
263.963	15.25
264.759	17.25
265.556	21.25
266.352	17.25
267.148	18.25
267.944	21.25
268.74	20.25
269.536	21.25
270.332	24.25
271.128	21.25
271.924	22.25
272.719	21.25
273.515	24.25
274.311	24.25
275.106	23.25
275.901	23.25
276.697	23.25
277.492	24.25
278.287	24.25
279.082	26.25
279.877	26.25
280.672	28.25
281.467	26.25
282.262	28.25
283.056	29.25
283.851	22.25
284.646	23.25
285.44	26.25
286.234	26.25
287.029	28.25
287.823	23.25
288.617	26.25
289.411	25.25
290.205	22.25
290.999	25.25
291.793	25.25
292.587	25.25
293.381	23.25
294.174	25.25
294.968	22.25
295.761	25.25
296.555	21.25
297.348	17.25
298.141	20.25
298.935	24.25
299.728	19.25
300.521	18.25
301.314	16.25
302.107	21.25
302.899	18.25
303.692	17.25
304.485	16.25
305.277	15.25
306.07	16.25
306.862	18.25
307.655	15.25
308.447	16.25
309.239	13.25
310.031	13.25
310.823	14.25
311.615	13.25
312.407	10.25
313.199	13.25
313.991	10.25
314.783	12.25
315.574	12.25
316.366	13.25
317.157	12.25
317.949	12.25
318.74	13.25
319.531	13.25
320.322	12.25
321.113	9.25
321.904	8.25
322.695	10.25
323.486	11.25
324.277	10.25
325.068	10.25
325.858	10.25
326.649	10.25
327.439	7.25
328.23	8.25
329.02	9.25
329.81	7.25
330.6	11.25
331.391	9.25
332.181	7.25
332.971	7.25
333.76	8.25
334.55	8.25
335.34	11.25
336.13	9.25
336.919	8.25
337.709	7.25
338.498	9.25
339.287	8.25
340.077	6.25
340.866	6.25
341.655	7.25
342.444	8.25
343.233	8.25
344.022	6.25
344.811	8.25
345.6	6.25
346.388	10.25
347.177	6.25
347.965	9.25
348.754	10.25
349.542	5.25
350.33	8.25
351.119	7.25
351.907	7.25
352.695	8.25
353.483	9.25
354.271	5.25
355.059	8.25
355.846	7.25
356.634	10.25
357.422	8.25
358.209	7.25
358.997	9.25
359.784	8.25
360.571	8.25
361.359	8.25
362.146	9.25
362.933	9.25
363.72	8.25
364.507	6.25
365.294	8.25
366.081	5.25
366.867	7.25
367.654	5.25
368.44	7.25
369.227	5.25
370.013	8.25
370.8	7.25
371.586	7.25
372.372	7.25
373.158	6.25
373.944	7.25
374.73	7.25
375.516	8.25
376.302	9.25
377.088	6.25
377.873	8.25
378.659	6.25
379.445	8.25
380.23	6.25
381.015	6.25
381.801	8.25
382.586	10.25
383.371	8.25
384.156	5.25
384.941	7.25
385.726	9.25
386.511	7.25
387.296	7.25
388.08	8.25
388.865	10.25
389.649	6.25
390.434	8.25
391.218	7.25
392.003	8.25
392.787	8.25
393.571	8.25
394.355	7.25
395.139	10.25
395.923	8.25
396.707	10.25
397.491	9.25
398.274	10.25
399.058	8.25
399.842	7.25
400.625	10.25
401.408	12.25
402.192	8.25
402.975	10.25
403.758	9.25
404.541	10.25
405.324	8.25
406.107	9.25
406.89	8.25
407.673	12.25
408.456	9.25
409.238	11.25
410.021	13.25
410.803	10.25
411.586	11.25
412.368	10.25
413.151	12.25
413.933	10.25
414.715	13.25
415.497	14.25
416.279	14.25
417.061	12.25
417.843	12.25
418.624	14.25
419.406	13.25
420.188	15.25
420.969	15.25
421.751	15.25
422.532	17.25
423.313	16.25
424.095	14.25
424.876	14.25
425.657	15.25
426.438	19.25
427.219	15.25
428	20.25
428.78	18.25
429.561	19.25
430.342	17.25
431.122	18.25
431.903	21.25
432.683	22.25
433.464	23.25
434.244	23.25
435.024	23.25
435.804	28.25
436.584	25.25
437.364	24.25
438.144	30.25
438.924	30.25
439.704	33.25
440.483	34.25
441.263	38.25
442.042	34.25
442.822	38.25
443.601	43.25
444.38	45.25
445.16	48.25
445.939	48.25
446.718	57.25
447.497	58.25
448.276	60.25
449.054	69.25
449.833	73.25
450.612	84.25
451.391	87.25
452.169	100.25
452.948	108.25
453.726	122.25
454.504	130.25
455.282	144.25
456.061	166.25
456.839	174.25
457.617	198.25
458.395	219.25
459.172	243.25
459.95	264.25
460.728	306.25
461.506	338.25
462.283	375.25
463.061	431.25
463.838	473.25
464.615	529.25
465.393	584.25
466.17	655.25
466.947	728.25
467.724	822.25
468.501	907.25
469.278	1015.25
470.055	1135.25
470.831	1251.25
471.608	1413.25
472.385	1554.25
473.161	1741.25
473.938	1917.25
474.714	2140.25
475.49	2367.25
476.266	2612.25
477.043	2900.25
477.819	3214.25
478.595	3560.25
479.371	3891.25
480.146	4328.25
480.922	4756.25
481.698	5224.25
482.473	5774.25
483.249	6324.25
484.024	6958.25
484.8	7695.25
485.575	8415.25
486.35	9194.25
487.126	10069.25
487.901	11024.25
488.676	12034.25
489.451	13139.25
490.225	14267.25
491	15544.25
491.775	16882.25
492.55	18204.25
493.324	19659.25
494.099	21124.25
494.873	22520.25
495.647	24124.25
496.422	25613.25
497.196	27183.25
497.97	28778.25
498.744	30301.25
499.518	31641.25
500.292	32862.25
501.066	33991.25
501.839	35094.25
502.613	35910.25
503.387	36451.25
504.16	36910.25
504.934	37106.25
505.707	36978.25
506.48	36652.25
507.253	36236.25
508.027	35504.25
508.8	34878.25
509.573	33943.25
510.346	32968.25
511.118	31902.25
511.891	30731.25
512.664	29439.25
513.437	28268.25
514.209	27046.25
514.982	25949.25
515.754	24867.25
516.526	23695.25
517.298	22676.25
518.071	21759.25
518.843	20893.25
519.615	20006.25
520.387	19203.25
521.159	18525.25
521.93	17742.25
522.702	17065.25
523.474	16357.25
524.245	15734.25
525.017	15023.25
525.788	14286.25
526.56	13612.25
527.331	12977.25
528.102	12400.25
528.873	11743.25
529.644	11162.25
530.415	10625.25
531.186	10101.25
531.957	9543.25
532.728	9022.25
533.498	8495.25
534.269	8042.25
535.039	7592.25
535.81	7164.25
536.58	6789.25
537.351	6364.25
538.121	6028.25
538.891	5717.25
539.661	5421.25
540.431	5131.25
541.201	4852.25
541.971	4626.25
542.741	4383.25
543.51	4165.25
544.28	3938.25
545.05	3750.25
545.819	3572.25
546.588	3396.25
547.358	3233.25
548.127	3050.25
548.896	2882.25
549.665	2750.25
550.434	2596.25
551.203	2449.25
551.972	2324.25
552.741	2214.25
553.51	2058.25
554.278	1951.25
555.047	1841.25
555.815	1752.25
556.584	1643.25
557.352	1551.25
558.121	1454.25
558.889	1394.25
559.657	1321.25
560.425	1226.25
561.193	1158.25
561.961	1102.25
562.729	1042.25
563.496	978.25
564.264	951.25
565.032	880.25
565.799	836.25
566.567	790.25
567.334	742.25
568.101	708.25
568.869	668.25
569.636	633.25
570.403	590.25
571.17	564.25
571.937	530.25
572.704	494.25
573.471	463.25
574.237	443.25
575.004	423.25
575.771	397.25
576.537	371.25
577.303	340.25
578.07	331.25
578.836	313.25
579.602	304.25
580.368	283.25
581.134	261.25
581.9	249.25
582.666	239.25
583.432	216.25
584.198	216.25
584.964	199.25
585.729	198.25
586.495	182.25
587.26	172.25
588.025	165.25
588.791	154.25
589.556	147.25
590.321	142.25
591.086	130.25
591.851	130.25
592.616	119.25
593.381	115.25
594.146	104.25
594.911	105.25
595.675	98.25
596.44	95.25
597.204	95.25
597.969	88.25
598.733	87.25
599.497	80.25
600.261	76.25
601.025	72.25
601.79	65.25
602.553	69.25
603.317	65.25
604.081	61.25
604.845	60.25
605.609	54.25
606.372	56.25
607.136	51.25
607.899	48.25
608.662	45.25
609.426	46.25
610.189	44.25
610.952	41.25
611.715	44.25
612.478	38.25
613.241	36.25
614.004	40.25
614.767	35.25
615.529	35.25
616.292	34.25
617.055	31.25
617.817	33.25
618.579	31.25
619.342	30.25
620.104	30.25
620.866	26.25
621.628	24.25
622.39	28.25
623.152	23.25
623.914	22.25
624.676	23.25
625.438	21.25
626.199	21.25
626.961	20.25
627.722	18.25
628.484	20.25
629.245	18.25
630.006	21.25
630.768	18.25
631.529	20.25
632.29	14.25
633.051	15.25
633.812	18.25
634.573	15.25
635.333	15.25
636.094	12.25
636.855	15.25
637.615	16.25
638.376	14.25
639.136	15.25
639.896	14.25
640.657	13.25
641.417	12.25
642.177	10.25
642.937	13.25
643.697	9.25
644.457	13.25
645.216	14.25
645.976	10.25
646.736	9.25
647.495	10.25
648.255	9.25
649.014	10.25
649.774	9.25
650.533	10.25
651.292	8.25
652.051	9.25
652.81	9.25
653.569	10.25
654.328	8.25
655.087	8.25
655.846	9.25
656.604	8.25
657.363	8.25
658.121	8.25
658.88	10.25
659.638	7.25
660.397	9.25
661.155	9.25
661.913	6.25
662.671	7.25
663.429	7.25
664.187	7.25
664.945	6.25
665.703	7.25
666.46	7.25
667.218	7.25
667.976	8.25
668.733	6.25
669.49	8.25
670.248	7.25
671.005	5.25
671.762	9.25
672.519	5.25
673.276	8.25
674.033	4.25
674.79	6.25
675.547	5.25
676.304	6.25
677.06	6.25
677.817	5.25
678.574	6.25
679.33	5.25
680.086	6.25
680.843	5.25
681.599	7.25
682.355	5.25
683.111	5.25
683.867	5.25
684.623	7.25
685.379	6.25
686.135	6.25
686.89	3.25
687.646	5.25
688.402	5.25
689.157	6.25
689.912	6.25
690.668	5.25
691.423	5.25
692.178	6.25
692.933	4.25
693.688	7.25
694.443	5.25
695.198	6.25
695.953	6.25
696.708	5.25
697.462	5.25
698.217	4.25
698.972	4.25
699.726	5.25
700.48	6.25
701.235	5.25
701.989	5.25
702.743	6.25
703.497	4.25
704.251	7.25
705.005	5.25
705.759	6.25
706.513	6.25
707.266	6.25
708.02	6.25
708.774	4.25
709.527	4.25
710.28	5.25
711.034	3.25
711.787	8.25
712.54	4.25
713.293	7.25
714.046	3.25
714.799	5.25
715.552	4.25
716.305	6.25
717.058	3.25
717.81	4.25
718.563	4.25
719.315	4.25
720.068	4.25
720.82	6.25
721.573	5.25
722.325	3.25
723.077	4.25
723.829	5.25
724.581	4.25
725.333	5.25
726.085	6.25
726.836	6.25
727.588	5.25
728.34	8.25
729.091	4.25
729.843	8.25
730.594	5.25
731.346	6.25
732.097	4.25
732.848	6.25
733.599	7.25
734.35	6.25
735.101	7.25
735.852	7.25
736.603	8.25
737.354	8.25
738.104	2.25
738.855	5.25
739.605	6.25
740.356	6.25
741.106	2.25
741.856	7.25
742.607	7.25
743.357	7.25
744.107	5.25
744.857	7.25
745.607	6.25
746.357	8.25
747.106	10.25
747.856	7.25
748.606	7.25
749.355	7.25
750.105	4.25
750.854	6.25
751.603	5.25
752.353	7.25
753.102	9.25
753.851	7.25
754.6	9.25
755.349	6.25
756.098	8.25
756.847	8.25
757.595	9.25
758.344	8.25
759.093	9.25
759.841	8.25
760.589	8.25
761.338	9.25
762.086	10.25
762.834	9.25
763.582	10.25
764.331	10.25
765.079	11.25
765.826	10.25
766.574	13.25
767.322	9.25
768.07	11.25
768.817	10.25
769.565	9.25
770.312	12.25
771.06	11.25
771.807	9.25
772.554	13.25
773.302	12.25
774.049	10.25
774.796	14.25
775.543	8.25
776.29	11.25
777.036	11.25
777.783	11.25
778.53	10.25
779.276	10.25
780.023	13.25
780.769	11.25
781.516	12.25
782.262	10.25
783.008	13.25
783.754	11.25
784.5	11.25
785.246	10.25
785.992	10.25
786.738	12.25
787.484	8.25
788.23	13.25
788.975	11.25
789.721	12.25
790.466	12.25
791.212	10.25
791.957	12.25
792.702	13.25
793.447	8.25
794.193	10.25
794.938	11.25
795.683	11.25
796.427	11.25
797.172	9.25
797.917	9.25
798.662	9.25
799.406	10.25
800.151	10.25
800.895	10.25
801.64	11.25
802.384	9.25
803.128	11.25
803.872	11.25
804.616	8.25
805.36	9.25
806.104	7.25
806.848	12.25
807.592	8.25
808.336	6.25
809.079	7.25
809.823	8.25
810.566	11.25
811.31	8.25
812.053	8.25
812.796	5.25
813.539	6.25
814.283	7.25
815.026	7.25
815.769	5.25
816.511	7.25
817.254	8.25
817.997	6.25
818.74	6.25
819.482	6.25
820.225	5.25
820.967	6.25
821.71	4.25
822.452	6.25
823.194	6.25
823.936	8.25
824.678	6.25
825.42	4.25
826.162	6.25
826.904	4.25
827.646	6.25
828.388	4.25
829.129	5.25
829.871	4.25
830.612	4.25
831.354	2.25
832.095	4.25
832.836	3.25
833.577	5.25
834.319	2.25
835.06	5.25
835.801	3.25
836.542	5.25
837.282	5.25
838.023	3.25
838.764	4.25
839.504	6.25
840.245	4.25
840.985	2.25
841.726	4.25
842.466	4.25
843.206	4.25
843.946	6.25
844.687	3.25
845.427	5.25
846.166	4.25
846.906	2.25
847.646	6.25
848.386	3.25
849.125	5.25
849.865	2.25
850.605	3.25
851.344	4.25
852.083	2.25
852.823	2.25
853.562	2.25
854.301	4.25
855.04	3.25
855.779	1.25
856.518	5.25
857.257	2.25
857.995	3.25
858.734	2.25
859.473	2.25
860.211	0.25
860.95	2.25
861.688	3.25
862.426	2.25
863.165	2.25
863.903	1.25
864.641	4.25
865.379	3.25
866.117	2.25
866.855	2.25
867.593	0.25
868.33	0.25
869.068	0.25
869.806	1.25
870.543	-0.75
871.28	2.25
872.018	2.25
872.755	1.25
873.492	3.25
874.229	2.25
874.967	1.25
875.703	3.25
876.44	0.25
877.177	1.25
877.914	0.25
878.651	0.25
879.387	0.25
880.124	0.25
880.86	-0.75
881.597	-1.75
882.333	3.25
883.069	1.25
883.806	1.25
884.542	1.25
885.278	1.25
886.014	1.25
886.749	1.25
887.485	2.25
888.221	1.25
888.957	1.25
889.692	0.25
890.428	1.25
891.163	1.25
891.899	2.25
892.634	1.25
893.369	-0.75
894.104	-1.75
894.839	0.25
895.574	1.25
896.309	2.25
897.044	-1.75
897.779	2.25
898.514	2.25
899.248	2.25
899.983	2.25
900.717	-0.75
901.452	2.25
902.186	1.25
902.92	0.25
903.654	3.25
904.389	-0.75
905.123	1.25
905.857	0.25
906.59	0.25
907.324	1.25
908.058	0.25
908.792	0.25
909.525	0.25
910.259	2.25
910.992	1.25
911.726	1.25
912.459	0.25
913.192	0.25
913.925	1.25
914.658	1.25
915.391	-0.75
916.124	1.25
916.857	1.25
917.59	-0.75
918.323	1.25
919.055	2.25
919.788	1.25
920.521	-1.75
921.253	1.25
921.985	2.25
922.718	2.25
923.45	0.25
924.182	1.25
924.914	0.25
925.646	-0.75
926.378	2.25
927.11	0.25
927.841	1.25
928.573	2.25
929.305	-0.75
930.036	2.25
930.768	-1.75
931.499	0.25
932.23	2.25
932.962	2.25
933.693	0.25
934.424	1.25
935.155	-0.75
935.886	3.25
936.617	0.25
937.348	-0.75
938.078	-0.75
938.809	0.25
939.54	-0.75
940.27	0.25
941.001	-1.75
941.731	-0.75
942.461	0.25
943.191	0.25
943.922	1.25
944.652	-0.75
945.382	0.25
946.112	0.25
946.841	0.25
947.571	0.25
948.301	0.25
949.031	-1.75
949.76	0.25
950.49	1.25
951.219	-0.75
951.948	1.25
952.678	-0.75
953.407	0.25
954.136	2.25
954.865	2.25
955.594	0.25
956.323	-1.75
957.052	0.25
957.78	0.25
958.509	1.25
959.238	0.25
959.966	0.25
960.695	0.25
961.423	0.25
962.151	-0.75
962.88	1.25
963.608	-0.75
964.336	0.25
965.064	0.25
965.792	-2.75
966.52	0.25
967.247	0.25
967.975	0.25
968.703	-1.75
969.43	0.25
970.158	2.25
970.885	0.25
971.613	-0.75
972.34	1.25
973.067	-0.75
973.794	-0.75
974.521	0.25
975.248	-1.75
975.975	0.25
976.702	1.25
977.429	1.25
978.156	1.25
978.882	0.25
979.609	-1.75
980.335	0.25
981.062	-0.75
981.788	0.25
982.514	-1.75
983.24	1.25
983.967	2.25
984.693	-1.75
985.419	1.25
986.144	0.25
986.87	1.25
987.596	2.25
988.322	0.25
989.047	0.25
989.773	-0.75
990.498	-1.75
991.224	0.25
991.949	-0.75
992.674	0.25
993.399	-0.75
994.124	0.25
994.849	0.25
995.574	2.25
996.299	0.25
997.024	-0.75
997.749	2.25
998.473	2.25
999.198	2.25
999.922	0.25
1000.647	-1.75
1001.371	3.25
1002.095	-0.75
1002.82	-0.75
1003.544	-1.75
1004.268	2.25
1004.992	3.25
1005.716	2.25
1006.439	4.25
1007.163	4.25
1007.887	0.25
1008.611	0.25
1009.334	0.25
1010.058	1.25
1010.781	1.25
1011.504	1.25
1012.228	0.25
1012.951	0.25
1013.674	0.25
1014.397	-0.75
1015.12	0.25
