节点500_425_QEPB04081__562__15-57-39-457.txt的数据

Date: Wed Nov 12 15:57:39 CST 2025
User: PC
Spectrometer: QEPB0408
触发模式: 0
积分时间 (秒): 1.000000E-2
Scans to average: 1
启用暗噪声校正: true
启用非线性校正: false
滑动平均宽度: 0
X轴模式: Wavelengths
Number of Pixels in Spectrum: 1044
>>>>>Begin Spectral Data<<<<<
220.843	4.5
221.644	2.5
222.444	5.5
223.244	6.5
224.045	4.5
224.845	5.5
225.645	6.5
226.445	5.5
227.245	5.5
228.045	5.5
228.845	6.5
229.645	4.5
230.444	5.5
231.244	5.5
232.043	5.5
232.843	4.5
233.642	6.5
234.442	6.5
235.241	6.5
236.04	7.5
236.839	9.5
237.638	7.5
238.437	8.5
239.236	6.5
240.035	7.5
240.833	5.5
241.632	4.5
242.43	7.5
243.229	9.5
244.027	9.5
244.826	7.5
245.624	10.5
246.422	6.5
247.22	9.5
248.018	7.5
248.816	10.5
249.614	8.5
250.412	9.5
251.21	9.5
252.007	6.5
252.805	12.5
253.602	12.5
254.4	12.5
255.197	12.5
255.994	9.5
256.791	12.5
257.589	11.5
258.386	11.5
259.183	10.5
259.979	13.5
260.776	12.5
261.573	13.5
262.37	15.5
263.166	15.5
263.963	14.5
264.759	16.5
265.556	15.5
266.352	16.5
267.148	19.5
267.944	17.5
268.74	20.5
269.536	17.5
270.332	20.5
271.128	18.5
271.924	22.5
272.719	21.5
273.515	22.5
274.311	23.5
275.106	19.5
275.901	23.5
276.697	19.5
277.492	22.5
278.287	25.5
279.082	21.5
279.877	22.5
280.672	23.5
281.467	23.5
282.262	26.5
283.056	22.5
283.851	23.5
284.646	23.5
285.44	25.5
286.234	22.5
287.029	26.5
287.823	23.5
288.617	21.5
289.411	23.5
290.205	27.5
290.999	19.5
291.793	23.5
292.587	21.5
293.381	27.5
294.174	22.5
294.968	21.5
295.761	22.5
296.555	20.5
297.348	22.5
298.141	22.5
298.935	19.5
299.728	21.5
300.521	20.5
301.314	17.5
302.107	18.5
302.899	18.5
303.692	17.5
304.485	19.5
305.277	18.5
306.07	15.5
306.862	17.5
307.655	13.5
308.447	17.5
309.239	16.5
310.031	17.5
310.823	15.5
311.615	16.5
312.407	12.5
313.199	14.5
313.991	14.5
314.783	14.5
315.574	13.5
316.366	11.5
317.157	12.5
317.949	13.5
318.74	11.5
319.531	11.5
320.322	10.5
321.113	11.5
321.904	10.5
322.695	12.5
323.486	10.5
324.277	11.5
325.068	9.5
325.858	9.5
326.649	10.5
327.439	11.5
328.23	7.5
329.02	7.5
329.81	9.5
330.6	9.5
331.391	11.5
332.181	9.5
332.971	11.5
333.76	7.5
334.55	11.5
335.34	11.5
336.13	9.5
336.919	10.5
337.709	9.5
338.498	11.5
339.287	9.5
340.077	5.5
340.866	11.5
341.655	9.5
342.444	9.5
343.233	11.5
344.022	10.5
344.811	8.5
345.6	9.5
346.388	11.5
347.177	11.5
347.965	7.5
348.754	10.5
349.542	8.5
350.33	8.5
351.119	8.5
351.907	8.5
352.695	8.5
353.483	9.5
354.271	8.5
355.059	9.5
355.846	9.5
356.634	9.5
357.422	7.5
358.209	7.5
358.997	8.5
359.784	6.5
360.571	4.5
361.359	10.5
362.146	7.5
362.933	9.5
363.72	7.5
364.507	9.5
365.294	7.5
366.081	7.5
366.867	8.5
367.654	3.5
368.44	8.5
369.227	6.5
370.013	8.5
370.8	8.5
371.586	8.5
372.372	8.5
373.158	5.5
373.944	6.5
374.73	7.5
375.516	6.5
376.302	8.5
377.088	3.5
377.873	8.5
378.659	8.5
379.445	8.5
380.23	7.5
381.015	8.5
381.801	7.5
382.586	7.5
383.371	8.5
384.156	5.5
384.941	6.5
385.726	8.5
386.511	6.5
387.296	8.5
388.08	7.5
388.865	6.5
389.649	8.5
390.434	7.5
391.218	9.5
392.003	9.5
392.787	10.5
393.571	10.5
394.355	8.5
395.139	7.5
395.923	8.5
396.707	8.5
397.491	8.5
398.274	10.5
399.058	8.5
399.842	10.5
400.625	8.5
401.408	10.5
402.192	10.5
402.975	11.5
403.758	9.5
404.541	10.5
405.324	9.5
406.107	9.5
406.89	14.5
407.673	12.5
408.456	13.5
409.238	11.5
410.021	15.5
410.803	10.5
411.586	9.5
412.368	13.5
413.151	11.5
413.933	14.5
414.715	14.5
415.497	11.5
416.279	12.5
417.061	14.5
417.843	14.5
418.624	15.5
419.406	16.5
420.188	13.5
420.969	14.5
421.751	16.5
422.532	13.5
423.313	16.5
424.095	17.5
424.876	15.5
425.657	16.5
426.438	18.5
427.219	18.5
428	18.5
428.78	18.5
429.561	18.5
430.342	21.5
431.122	20.5
431.903	18.5
432.683	21.5
433.464	22.5
434.244	23.5
435.024	29.5
435.804	23.5
436.584	28.5
437.364	30.5
438.144	29.5
438.924	30.5
439.704	34.5
440.483	33.5
441.263	39.5
442.042	42.5
442.822	44.5
443.601	48.5
444.38	48.5
445.16	51.5
445.939	55.5
446.718	61.5
447.497	66.5
448.276	72.5
449.054	78.5
449.833	86.5
450.612	92.5
451.391	102.5
452.169	114.5
452.948	121.5
453.726	137.5
454.504	149.5
455.282	170.5
456.061	186.5
456.839	210.5
457.617	227.5
458.395	255.5
459.172	284.5
459.95	317.5
460.728	348.5
461.506	385.5
462.283	434.5
463.061	481.5
463.838	539.5
464.615	597.5
465.393	671.5
466.17	738.5
466.947	814.5
467.724	899.5
468.501	999.5
469.278	1109.5
470.055	1205.5
470.831	1346.5
471.608	1480.5
472.385	1625.5
473.161	1780.5
473.938	1959.5
474.714	2165.5
475.49	2363.5
476.266	2591.5
477.043	2850.5
477.819	3110.5
478.595	3418.5
479.371	3713.5
480.146	4068.5
480.922	4399.5
481.698	4799.5
482.473	5240.5
483.249	5701.5
484.024	6228.5
484.8	6781.5
485.575	7327.5
486.35	7978.5
487.126	8590.5
487.901	9343.5
488.676	10129.5
489.451	11009.5
490.225	11868.5
491	12841.5
491.775	13803.5
492.55	14858.5
493.324	15938.5
494.099	17069.5
494.873	18143.5
495.647	19386.5
496.422	20616.5
497.196	21846.5
497.97	23212.5
498.744	24452.5
499.518	25727.5
500.292	26879.5
501.066	27918.5
501.839	29058.5
502.613	30096.5
503.387	30776.5
504.16	31564.5
504.934	32039.5
505.707	32372.5
506.48	32449.5
507.253	32468.5
508.027	32435.5
508.8	32163.5
509.573	31795.5
510.346	31124.5
511.118	30508.5
511.891	29886.5
512.664	28931.5
513.437	28078.5
514.209	27038.5
514.982	26182.5
515.754	25217.5
516.526	24225.5
517.298	23243.5
518.071	22271.5
518.843	21396.5
519.615	20527.5
520.387	19722.5
521.159	19039.5
521.93	18321.5
522.702	17594.5
523.474	16885.5
524.245	16203.5
525.017	15523.5
525.788	14813.5
526.56	14174.5
527.331	13593.5
528.102	13010.5
528.873	12396.5
529.644	11831.5
530.415	11340.5
531.186	10843.5
531.957	10290.5
532.728	9775.5
533.498	9210.5
534.269	8769.5
535.039	8297.5
535.81	7845.5
536.58	7412.5
537.351	7033.5
538.121	6635.5
538.891	6284.5
539.661	5958.5
540.431	5665.5
541.201	5344.5
541.971	5072.5
542.741	4816.5
543.51	4603.5
544.28	4335.5
545.05	4123.5
545.819	3929.5
546.588	3760.5
547.358	3541.5
548.127	3368.5
548.896	3192.5
549.665	3047.5
550.434	2903.5
551.203	2742.5
551.972	2587.5
552.741	2478.5
553.51	2332.5
554.278	2215.5
555.047	2075.5
555.815	1980.5
556.584	1866.5
557.352	1759.5
558.121	1658.5
558.889	1559.5
559.657	1500.5
560.425	1409.5
561.193	1326.5
561.961	1246.5
562.729	1200.5
563.496	1119.5
564.264	1056.5
565.032	1007.5
565.799	951.5
566.567	899.5
567.334	854.5
568.101	802.5
568.869	764.5
569.636	706.5
570.403	676.5
571.17	643.5
571.937	589.5
572.704	565.5
573.471	533.5
574.237	503.5
575.004	477.5
575.771	443.5
576.537	426.5
577.303	393.5
578.07	373.5
578.836	357.5
579.602	338.5
580.368	317.5
581.134	300.5
581.9	279.5
582.666	267.5
583.432	258.5
584.198	245.5
584.964	230.5
585.729	220.5
586.495	211.5
587.26	199.5
588.025	187.5
588.791	183.5
589.556	171.5
590.321	161.5
591.086	151.5
591.851	143.5
592.616	137.5
593.381	131.5
594.146	121.5
594.911	118.5
595.675	111.5
596.44	109.5
597.204	104.5
597.969	102.5
598.733	92.5
599.497	94.5
600.261	86.5
601.025	76.5
601.79	77.5
602.553	75.5
603.317	73.5
604.081	70.5
604.845	68.5
605.609	61.5
606.372	59.5
607.136	60.5
607.899	56.5
608.662	51.5
609.426	51.5
610.189	53.5
610.952	51.5
611.715	44.5
612.478	43.5
613.241	45.5
614.004	40.5
614.767	41.5
615.529	38.5
616.292	38.5
617.055	35.5
617.817	36.5
618.579	33.5
619.342	31.5
620.104	32.5
620.866	27.5
621.628	31.5
622.39	30.5
623.152	27.5
623.914	27.5
624.676	24.5
625.438	25.5
626.199	23.5
626.961	22.5
627.722	21.5
628.484	20.5
629.245	21.5
630.006	21.5
630.768	19.5
631.529	19.5
632.29	18.5
633.051	16.5
633.812	19.5
634.573	15.5
635.333	17.5
636.094	13.5
636.855	17.5
637.615	14.5
638.376	15.5
639.136	17.5
639.896	15.5
640.657	13.5
641.417	12.5
642.177	13.5
642.937	15.5
643.697	13.5
644.457	13.5
645.216	14.5
645.976	11.5
646.736	11.5
647.495	13.5
648.255	13.5
649.014	10.5
649.774	11.5
650.533	10.5
651.292	8.5
652.051	8.5
652.81	9.5
653.569	9.5
654.328	9.5
655.087	9.5
655.846	8.5
656.604	10.5
657.363	9.5
658.121	10.5
658.88	9.5
659.638	9.5
660.397	7.5
661.155	10.5
661.913	10.5
662.671	7.5
663.429	9.5
664.187	9.5
664.945	6.5
665.703	8.5
666.46	8.5
667.218	9.5
667.976	4.5
668.733	9.5
669.49	8.5
670.248	8.5
671.005	9.5
671.762	7.5
672.519	6.5
673.276	6.5
674.033	7.5
674.79	8.5
675.547	5.5
676.304	6.5
677.06	4.5
677.817	7.5
678.574	7.5
679.33	6.5
680.086	8.5
680.843	7.5
681.599	5.5
682.355	7.5
683.111	6.5
683.867	8.5
684.623	7.5
685.379	8.5
686.135	8.5
686.89	6.5
687.646	5.5
688.402	5.5
689.157	8.5
689.912	7.5
690.668	5.5
691.423	5.5
692.178	3.5
692.933	6.5
693.688	5.5
694.443	6.5
695.198	5.5
695.953	4.5
696.708	5.5
697.462	7.5
698.217	5.5
698.972	5.5
699.726	4.5
700.48	7.5
701.235	7.5
701.989	6.5
702.743	7.5
703.497	5.5
704.251	6.5
705.005	7.5
705.759	7.5
706.513	6.5
707.266	6.5
708.02	7.5
708.774	6.5
709.527	7.5
710.28	4.5
711.034	6.5
711.787	5.5
712.54	4.5
713.293	5.5
714.046	4.5
714.799	5.5
715.552	6.5
716.305	5.5
717.058	5.5
717.81	5.5
718.563	7.5
719.315	5.5
720.068	6.5
720.82	3.5
721.573	6.5
722.325	7.5
723.077	6.5
723.829	6.5
724.581	5.5
725.333	5.5
726.085	5.5
726.836	6.5
727.588	6.5
728.34	5.5
729.091	7.5
729.843	5.5
730.594	5.5
731.346	5.5
732.097	6.5
732.848	7.5
733.599	6.5
734.35	7.5
735.101	6.5
735.852	6.5
736.603	7.5
737.354	7.5
738.104	6.5
738.855	7.5
739.605	5.5
740.356	7.5
741.106	7.5
741.856	3.5
742.607	6.5
743.357	6.5
744.107	5.5
744.857	6.5
745.607	6.5
746.357	6.5
747.106	9.5
747.856	6.5
748.606	8.5
749.355	9.5
750.105	7.5
750.854	6.5
751.603	7.5
752.353	7.5
753.102	7.5
753.851	7.5
754.6	7.5
755.349	6.5
756.098	9.5
756.847	7.5
757.595	7.5
758.344	9.5
759.093	7.5
759.841	7.5
760.589	7.5
761.338	9.5
762.086	8.5
762.834	8.5
763.582	9.5
764.331	8.5
765.079	13.5
765.826	9.5
766.574	13.5
767.322	11.5
768.07	11.5
768.817	9.5
769.565	10.5
770.312	10.5
771.06	10.5
771.807	8.5
772.554	10.5
773.302	11.5
774.049	10.5
774.796	11.5
775.543	9.5
776.29	11.5
777.036	10.5
777.783	9.5
778.53	12.5
779.276	11.5
780.023	11.5
780.769	12.5
781.516	9.5
782.262	10.5
783.008	10.5
783.754	11.5
784.5	12.5
785.246	11.5
785.992	14.5
786.738	11.5
787.484	11.5
788.23	12.5
788.975	11.5
789.721	11.5
790.466	10.5
791.212	12.5
791.957	12.5
792.702	9.5
793.447	12.5
794.193	13.5
794.938	10.5
795.683	11.5
796.427	14.5
797.172	11.5
797.917	10.5
798.662	9.5
799.406	10.5
800.151	7.5
800.895	11.5
801.64	10.5
802.384	10.5
803.128	9.5
803.872	7.5
804.616	8.5
805.36	10.5
806.104	10.5
806.848	10.5
807.592	9.5
808.336	8.5
809.079	7.5
809.823	8.5
810.566	8.5
811.31	8.5
812.053	7.5
812.796	8.5
813.539	7.5
814.283	9.5
815.026	8.5
815.769	8.5
816.511	6.5
817.254	7.5
817.997	7.5
818.74	8.5
819.482	6.5
820.225	5.5
820.967	7.5
821.71	8.5
822.452	4.5
823.194	6.5
823.936	8.5
824.678	8.5
825.42	6.5
826.162	7.5
826.904	6.5
827.646	7.5
828.388	4.5
829.129	5.5
829.871	4.5
830.612	5.5
831.354	3.5
832.095	4.5
832.836	6.5
833.577	4.5
834.319	4.5
835.06	5.5
835.801	2.5
836.542	5.5
837.282	7.5
838.023	5.5
838.764	7.5
839.504	5.5
840.245	3.5
840.985	5.5
841.726	5.5
842.466	3.5
843.206	5.5
843.946	5.5
844.687	5.5
845.427	4.5
846.166	5.5
846.906	5.5
847.646	5.5
848.386	4.5
849.125	6.5
849.865	3.5
850.605	4.5
851.344	3.5
852.083	4.5
852.823	6.5
853.562	3.5
854.301	5.5
855.04	3.5
855.779	4.5
856.518	5.5
857.257	5.5
857.995	3.5
858.734	3.5
859.473	3.5
860.211	6.5
860.95	4.5
861.688	4.5
862.426	3.5
863.165	5.5
863.903	2.5
864.641	8.5
865.379	2.5
866.117	5.5
866.855	1.5
867.593	1.5
868.33	4.5
869.068	2.5
869.806	2.5
870.543	6.5
871.28	3.5
872.018	2.5
872.755	2.5
873.492	3.5
874.229	3.5
874.967	0.5
875.703	3.5
876.44	1.5
877.177	1.5
877.914	2.5
878.651	2.5
879.387	4.5
880.124	2.5
880.86	3.5
881.597	3.5
882.333	2.5
883.069	3.5
883.806	1.5
884.542	0.5
885.278	1.5
886.014	5.5
886.749	4.5
887.485	1.5
888.221	2.5
888.957	1.5
889.692	3.5
890.428	1.5
891.163	1.5
891.899	4.5
892.634	1.5
893.369	1.5
894.104	1.5
894.839	3.5
895.574	1.5
896.309	2.5
897.044	1.5
897.779	4.5
898.514	3.5
899.248	1.5
899.983	1.5
900.717	4.5
901.452	1.5
902.186	2.5
902.92	3.5
903.654	1.5
904.389	2.5
905.123	2.5
905.857	3.5
906.59	-0.5
907.324	2.5
908.058	0.5
908.792	2.5
909.525	0.5
910.259	2.5
910.992	2.5
911.726	0.5
912.459	1.5
913.192	2.5
913.925	0.5
914.658	-0.5
915.391	0.5
916.124	0.5
916.857	1.5
917.59	3.5
918.323	1.5
919.055	1.5
919.788	2.5
920.521	1.5
921.253	1.5
921.985	2.5
922.718	2.5
923.45	1.5
924.182	0.5
924.914	2.5
925.646	0.5
926.378	0.5
927.11	0.5
927.841	0.5
928.573	2.5
929.305	0.5
930.036	0.5
930.768	2.5
931.499	0.5
932.23	3.5
932.962	-1.5
933.693	2.5
934.424	2.5
935.155	1.5
935.886	2.5
936.617	3.5
937.348	-0.5
938.078	0.5
938.809	2.5
939.54	1.5
940.27	2.5
941.001	2.5
941.731	-0.5
942.461	2.5
943.191	0.5
943.922	1.5
944.652	3.5
945.382	1.5
946.112	1.5
946.841	0.5
947.571	0.5
948.301	1.5
949.031	2.5
949.76	-0.5
950.49	1.5
951.219	1.5
951.948	0.5
952.678	2.5
953.407	2.5
954.136	0.5
954.865	2.5
955.594	0.5
956.323	1.5
957.052	2.5
957.78	1.5
958.509	0.5
959.238	2.5
959.966	2.5
960.695	1.5
961.423	0.5
962.151	1.5
962.88	0.5
963.608	0.5
964.336	1.5
965.064	0.5
965.792	2.5
966.52	1.5
967.247	2.5
967.975	2.5
968.703	2.5
969.43	1.5
970.158	3.5
970.885	1.5
971.613	2.5
972.34	0.5
973.067	-0.5
973.794	0.5
974.521	2.5
975.248	0.5
975.975	0.5
976.702	1.5
977.429	1.5
978.156	-0.5
978.882	0.5
979.609	3.5
980.335	0.5
981.062	2.5
981.788	1.5
982.514	1.5
983.24	1.5
983.967	2.5
984.693	1.5
985.419	0.5
986.144	1.5
986.87	2.5
987.596	0.5
988.322	0.5
989.047	2.5
989.773	2.5
990.498	1.5
991.224	0.5
991.949	2.5
992.674	2.5
993.399	1.5
994.124	1.5
994.849	-1.5
995.574	1.5
996.299	0.5
997.024	-0.5
997.749	3.5
998.473	-0.5
999.198	-0.5
999.922	0.5
1000.647	0.5
1001.371	5.5
1002.095	-2.5
1002.82	-0.5
1003.544	-2.5
1004.268	1.5
1004.992	2.5
1005.716	4.5
1006.439	2.5
1007.163	5.5
1007.887	2.5
1008.611	1.5
1009.334	3.5
1010.058	1.5
1010.781	2.5
1011.504	0.5
1012.228	1.5
1012.951	-0.5
1013.674	-0.5
1014.397	-0.5
1015.12	1.5
