节点500_425_QEPB04081__452__15-55-49-611.txt的数据

Date: Wed Nov 12 15:55:49 CST 2025
User: PC
Spectrometer: QEPB0408
触发模式: 0
积分时间 (秒): 1.000000E-2
Scans to average: 1
启用暗噪声校正: true
启用非线性校正: false
滑动平均宽度: 0
X轴模式: Wavelengths
Number of Pixels in Spectrum: 1044
>>>>>Begin Spectral Data<<<<<
220.843	3.88
221.644	1.88
222.444	-0.12
223.244	2.88
224.045	1.88
224.845	3.88
225.645	1.88
226.445	0.88
227.245	2.88
228.045	2.88
228.845	4.88
229.645	1.88
230.444	4.88
231.244	5.88
232.043	5.88
232.843	5.88
233.642	6.88
234.442	4.88
235.241	5.88
236.04	7.88
236.839	3.88
237.638	5.88
238.437	4.88
239.236	2.88
240.035	6.88
240.833	4.88
241.632	6.88
242.43	5.88
243.229	5.88
244.027	8.88
244.826	9.88
245.624	8.88
246.422	8.88
247.22	8.88
248.018	7.88
248.816	6.88
249.614	6.88
250.412	11.88
251.21	8.88
252.007	7.88
252.805	10.88
253.602	7.88
254.4	9.88
255.197	8.88
255.994	11.88
256.791	10.88
257.589	13.88
258.386	9.88
259.183	10.88
259.979	12.88
260.776	13.88
261.573	10.88
262.37	14.88
263.166	13.88
263.963	15.88
264.759	16.88
265.556	13.88
266.352	18.88
267.148	13.88
267.944	17.88
268.74	17.88
269.536	15.88
270.332	18.88
271.128	19.88
271.924	17.88
272.719	19.88
273.515	19.88
274.311	21.88
275.106	21.88
275.901	20.88
276.697	20.88
277.492	21.88
278.287	22.88
279.082	22.88
279.877	21.88
280.672	21.88
281.467	23.88
282.262	20.88
283.056	23.88
283.851	24.88
284.646	22.88
285.44	24.88
286.234	22.88
287.029	21.88
287.823	20.88
288.617	22.88
289.411	21.88
290.205	21.88
290.999	20.88
291.793	24.88
292.587	21.88
293.381	23.88
294.174	17.88
294.968	22.88
295.761	20.88
296.555	17.88
297.348	19.88
298.141	20.88
298.935	19.88
299.728	17.88
300.521	19.88
301.314	18.88
302.107	14.88
302.899	18.88
303.692	16.88
304.485	13.88
305.277	17.88
306.07	17.88
306.862	13.88
307.655	14.88
308.447	15.88
309.239	15.88
310.031	13.88
310.823	14.88
311.615	12.88
312.407	12.88
313.199	11.88
313.991	10.88
314.783	13.88
315.574	7.88
316.366	8.88
317.157	9.88
317.949	8.88
318.74	10.88
319.531	9.88
320.322	10.88
321.113	11.88
321.904	8.88
322.695	7.88
323.486	10.88
324.277	9.88
325.068	8.88
325.858	7.88
326.649	8.88
327.439	10.88
328.23	7.88
329.02	8.88
329.81	5.88
330.6	6.88
331.391	8.88
332.181	6.88
332.971	8.88
333.76	7.88
334.55	7.88
335.34	5.88
336.13	7.88
336.919	6.88
337.709	8.88
338.498	7.88
339.287	9.88
340.077	8.88
340.866	9.88
341.655	5.88
342.444	6.88
343.233	7.88
344.022	7.88
344.811	8.88
345.6	7.88
346.388	6.88
347.177	5.88
347.965	9.88
348.754	7.88
349.542	5.88
350.33	6.88
351.119	6.88
351.907	9.88
352.695	7.88
353.483	7.88
354.271	4.88
355.059	3.88
355.846	3.88
356.634	7.88
357.422	6.88
358.209	6.88
358.997	8.88
359.784	10.88
360.571	6.88
361.359	6.88
362.146	4.88
362.933	5.88
363.72	5.88
364.507	7.88
365.294	6.88
366.081	1.88
366.867	7.88
367.654	6.88
368.44	6.88
369.227	7.88
370.013	5.88
370.8	6.88
371.586	6.88
372.372	6.88
373.158	6.88
373.944	6.88
374.73	7.88
375.516	4.88
376.302	5.88
377.088	7.88
377.873	5.88
378.659	3.88
379.445	6.88
380.23	6.88
381.015	9.88
381.801	4.88
382.586	8.88
383.371	6.88
384.156	7.88
384.941	6.88
385.726	6.88
386.511	7.88
387.296	5.88
388.08	7.88
388.865	5.88
389.649	8.88
390.434	6.88
391.218	4.88
392.003	9.88
392.787	7.88
393.571	9.88
394.355	7.88
395.139	6.88
395.923	8.88
396.707	5.88
397.491	6.88
398.274	5.88
399.058	8.88
399.842	8.88
400.625	6.88
401.408	9.88
402.192	7.88
402.975	9.88
403.758	9.88
404.541	8.88
405.324	9.88
406.107	7.88
406.89	10.88
407.673	7.88
408.456	8.88
409.238	9.88
410.021	11.88
410.803	10.88
411.586	12.88
412.368	12.88
413.151	9.88
413.933	9.88
414.715	13.88
415.497	11.88
416.279	9.88
417.061	12.88
417.843	12.88
418.624	15.88
419.406	13.88
420.188	9.88
420.969	10.88
421.751	13.88
422.532	13.88
423.313	16.88
424.095	14.88
424.876	17.88
425.657	13.88
426.438	13.88
427.219	14.88
428	14.88
428.78	14.88
429.561	15.88
430.342	18.88
431.122	19.88
431.903	19.88
432.683	18.88
433.464	21.88
434.244	24.88
435.024	23.88
435.804	23.88
436.584	27.88
437.364	27.88
438.144	28.88
438.924	31.88
439.704	28.88
440.483	33.88
441.263	38.88
442.042	37.88
442.822	42.88
443.601	44.88
444.38	45.88
445.16	49.88
445.939	55.88
446.718	58.88
447.497	62.88
448.276	67.88
449.054	73.88
449.833	80.88
450.612	90.88
451.391	97.88
452.169	109.88
452.948	111.88
453.726	129.88
454.504	139.88
455.282	155.88
456.061	173.88
456.839	195.88
457.617	218.88
458.395	241.88
459.172	266.88
459.95	301.88
460.728	334.88
461.506	373.88
462.283	417.88
463.061	462.88
463.838	524.88
464.615	581.88
465.393	649.88
466.17	712.88
466.947	785.88
467.724	876.88
468.501	972.88
469.278	1091.88
470.055	1198.88
470.831	1320.88
471.608	1476.88
472.385	1622.88
473.161	1768.88
473.938	1964.88
474.714	2158.88
475.49	2365.88
476.266	2588.88
477.043	2854.88
477.819	3145.88
478.595	3438.88
479.371	3784.88
480.146	4124.88
480.922	4506.88
481.698	4911.88
482.473	5371.88
483.249	5860.88
484.024	6433.88
484.8	7003.88
485.575	7611.88
486.35	8276.88
487.126	8957.88
487.901	9797.88
488.676	10577.88
489.451	11499.88
490.225	12434.88
491	13429.88
491.775	14598.88
492.55	15677.88
493.324	16862.88
494.099	18009.88
494.873	19279.88
495.647	20482.88
496.422	21801.88
497.196	23183.88
497.97	24662.88
498.744	25952.88
499.518	27182.88
500.292	28388.88
501.066	29436.88
501.839	30620.88
502.613	31525.88
503.387	32291.88
504.16	32936.88
504.934	33341.88
505.707	33637.88
506.48	33701.88
507.253	33543.88
508.027	33341.88
508.8	32930.88
509.573	32462.88
510.346	31763.88
511.118	31004.88
511.891	30149.88
512.664	29188.88
513.437	28200.88
514.209	27087.88
514.982	26185.88
515.754	25180.88
516.526	24179.88
517.298	23131.88
518.071	22203.88
518.843	21264.88
519.615	20359.88
520.387	19558.88
521.159	18827.88
521.93	18168.88
522.702	17395.88
523.474	16759.88
524.245	16042.88
525.017	15361.88
525.788	14670.88
526.56	14079.88
527.331	13408.88
528.102	12823.88
528.873	12241.88
529.644	11671.88
530.415	11129.88
531.186	10655.88
531.957	10096.88
532.728	9571.88
533.498	9032.88
534.269	8573.88
535.039	8120.88
535.81	7665.88
536.58	7235.88
537.351	6847.88
538.121	6492.88
538.891	6128.88
539.661	5797.88
540.431	5508.88
541.201	5215.88
541.971	4924.88
542.741	4675.88
543.51	4445.88
544.28	4225.88
545.05	4022.88
545.819	3850.88
546.588	3660.88
547.358	3459.88
548.127	3266.88
548.896	3126.88
549.665	2959.88
550.434	2825.88
551.203	2680.88
551.972	2525.88
552.741	2381.88
553.51	2249.88
554.278	2119.88
555.047	2011.88
555.815	1897.88
556.584	1805.88
557.352	1695.88
558.121	1594.88
558.889	1517.88
559.657	1423.88
560.425	1339.88
561.193	1273.88
561.961	1220.88
562.729	1142.88
563.496	1089.88
564.264	1036.88
565.032	972.88
565.799	923.88
566.567	870.88
567.334	818.88
568.101	772.88
568.869	737.88
569.636	681.88
570.403	647.88
571.17	607.88
571.937	585.88
572.704	544.88
573.471	519.88
574.237	484.88
575.004	457.88
575.771	434.88
576.537	409.88
577.303	380.88
578.07	358.88
578.836	331.88
579.602	319.88
580.368	300.88
581.134	286.88
581.9	272.88
582.666	257.88
583.432	237.88
584.198	233.88
584.964	229.88
585.729	215.88
586.495	196.88
587.26	189.88
588.025	180.88
588.791	172.88
589.556	159.88
590.321	153.88
591.086	142.88
591.851	135.88
592.616	129.88
593.381	122.88
594.146	118.88
594.911	108.88
595.675	106.88
596.44	104.88
597.204	101.88
597.969	93.88
598.733	87.88
599.497	85.88
600.261	82.88
601.025	77.88
601.79	73.88
602.553	69.88
603.317	67.88
604.081	65.88
604.845	61.88
605.609	58.88
606.372	55.88
607.136	57.88
607.899	51.88
608.662	53.88
609.426	50.88
610.189	48.88
610.952	44.88
611.715	41.88
612.478	43.88
613.241	40.88
614.004	37.88
614.767	33.88
615.529	37.88
616.292	32.88
617.055	32.88
617.817	31.88
618.579	30.88
619.342	29.88
620.104	27.88
620.866	26.88
621.628	27.88
622.39	25.88
623.152	23.88
623.914	26.88
624.676	25.88
625.438	21.88
626.199	23.88
626.961	19.88
627.722	18.88
628.484	20.88
629.245	19.88
630.006	18.88
630.768	18.88
631.529	15.88
632.29	16.88
633.051	16.88
633.812	17.88
634.573	15.88
635.333	15.88
636.094	15.88
636.855	13.88
637.615	13.88
638.376	15.88
639.136	12.88
639.896	11.88
640.657	15.88
641.417	10.88
642.177	12.88
642.937	10.88
643.697	12.88
644.457	12.88
645.216	10.88
645.976	10.88
646.736	9.88
647.495	9.88
648.255	9.88
649.014	11.88
649.774	7.88
650.533	8.88
651.292	9.88
652.051	9.88
652.81	9.88
653.569	8.88
654.328	6.88
655.087	9.88
655.846	6.88
656.604	7.88
657.363	7.88
658.121	8.88
658.88	7.88
659.638	7.88
660.397	7.88
661.155	7.88
661.913	6.88
662.671	4.88
663.429	7.88
664.187	6.88
664.945	7.88
665.703	7.88
666.46	7.88
667.218	5.88
667.976	3.88
668.733	5.88
669.49	4.88
670.248	6.88
671.005	6.88
671.762	6.88
672.519	4.88
673.276	6.88
674.033	5.88
674.79	6.88
675.547	5.88
676.304	3.88
677.06	5.88
677.817	4.88
678.574	5.88
679.33	5.88
680.086	3.88
680.843	4.88
681.599	3.88
682.355	5.88
683.111	4.88
683.867	2.88
684.623	3.88
685.379	5.88
686.135	4.88
686.89	4.88
687.646	4.88
688.402	5.88
689.157	3.88
689.912	4.88
690.668	3.88
691.423	4.88
692.178	4.88
692.933	6.88
693.688	5.88
694.443	3.88
695.198	6.88
695.953	3.88
696.708	5.88
697.462	3.88
698.217	4.88
698.972	5.88
699.726	2.88
700.48	4.88
701.235	3.88
701.989	5.88
702.743	3.88
703.497	3.88
704.251	4.88
705.005	3.88
705.759	4.88
706.513	4.88
707.266	2.88
708.02	4.88
708.774	4.88
709.527	3.88
710.28	3.88
711.034	4.88
711.787	3.88
712.54	3.88
713.293	4.88
714.046	3.88
714.799	3.88
715.552	4.88
716.305	4.88
717.058	6.88
717.81	4.88
718.563	2.88
719.315	3.88
720.068	5.88
720.82	4.88
721.573	1.88
722.325	4.88
723.077	6.88
723.829	5.88
724.581	4.88
725.333	3.88
726.085	5.88
726.836	2.88
727.588	5.88
728.34	5.88
729.091	5.88
729.843	4.88
730.594	2.88
731.346	7.88
732.097	6.88
732.848	3.88
733.599	6.88
734.35	3.88
735.101	5.88
735.852	4.88
736.603	6.88
737.354	3.88
738.104	6.88
738.855	6.88
739.605	5.88
740.356	5.88
741.106	4.88
741.856	8.88
742.607	5.88
743.357	6.88
744.107	5.88
744.857	3.88
745.607	6.88
746.357	6.88
747.106	6.88
747.856	5.88
748.606	7.88
749.355	6.88
750.105	6.88
750.854	6.88
751.603	6.88
752.353	7.88
753.102	5.88
753.851	4.88
754.6	7.88
755.349	6.88
756.098	9.88
756.847	7.88
757.595	7.88
758.344	5.88
759.093	7.88
759.841	7.88
760.589	7.88
761.338	8.88
762.086	8.88
762.834	6.88
763.582	7.88
764.331	5.88
765.079	7.88
765.826	8.88
766.574	8.88
767.322	7.88
768.07	9.88
768.817	8.88
769.565	6.88
770.312	8.88
771.06	8.88
771.807	7.88
772.554	7.88
773.302	8.88
774.049	7.88
774.796	8.88
775.543	8.88
776.29	9.88
777.036	9.88
777.783	9.88
778.53	12.88
779.276	10.88
780.023	9.88
780.769	6.88
781.516	9.88
782.262	10.88
783.008	10.88
783.754	10.88
784.5	11.88
785.246	9.88
785.992	10.88
786.738	11.88
787.484	8.88
788.23	10.88
788.975	9.88
789.721	8.88
790.466	7.88
791.212	7.88
791.957	10.88
792.702	12.88
793.447	11.88
794.193	8.88
794.938	10.88
795.683	10.88
796.427	7.88
797.172	7.88
797.917	6.88
798.662	9.88
799.406	7.88
800.151	7.88
800.895	7.88
801.64	8.88
802.384	8.88
803.128	9.88
803.872	9.88
804.616	6.88
805.36	4.88
806.104	7.88
806.848	6.88
807.592	8.88
808.336	9.88
809.079	5.88
809.823	8.88
810.566	7.88
811.31	7.88
812.053	7.88
812.796	7.88
813.539	6.88
814.283	5.88
815.026	7.88
815.769	4.88
816.511	3.88
817.254	6.88
817.997	3.88
818.74	6.88
819.482	4.88
820.225	3.88
820.967	3.88
821.71	2.88
822.452	4.88
823.194	6.88
823.936	6.88
824.678	2.88
825.42	6.88
826.162	7.88
826.904	4.88
827.646	6.88
828.388	4.88
829.129	3.88
829.871	2.88
830.612	4.88
831.354	6.88
832.095	5.88
832.836	2.88
833.577	7.88
834.319	3.88
835.06	5.88
835.801	2.88
836.542	2.88
837.282	-0.12
838.023	6.88
838.764	2.88
839.504	3.88
840.245	1.88
840.985	3.88
841.726	5.88
842.466	3.88
843.206	2.88
843.946	1.88
844.687	0.88
845.427	5.88
846.166	3.88
846.906	3.88
847.646	7.88
848.386	4.88
849.125	3.88
849.865	3.88
850.605	3.88
851.344	3.88
852.083	3.88
852.823	2.88
853.562	0.88
854.301	3.88
855.04	1.88
855.779	2.88
856.518	1.88
857.257	4.88
857.995	0.88
858.734	3.88
859.473	2.88
860.211	0.88
860.95	2.88
861.688	3.88
862.426	3.88
863.165	2.88
863.903	1.88
864.641	-2.12
865.379	1.88
866.117	2.88
866.855	1.88
867.593	1.88
868.33	1.88
869.068	-0.12
869.806	1.88
870.543	2.88
871.28	0.88
872.018	2.88
872.755	0.88
873.492	1.88
874.229	1.88
874.967	1.88
875.703	1.88
876.44	0.88
877.177	2.88
877.914	0.88
878.651	0.88
879.387	-0.12
880.124	1.88
880.86	2.88
881.597	0.88
882.333	1.88
883.069	-2.12
883.806	0.88
884.542	-0.12
885.278	-0.12
886.014	0.88
886.749	1.88
887.485	2.88
888.221	2.88
888.957	-0.12
889.692	0.88
890.428	0.88
891.163	0.88
891.899	0.88
892.634	1.88
893.369	-0.12
894.104	0.88
894.839	0.88
895.574	-1.12
896.309	-0.12
897.044	0.88
897.779	1.88
898.514	-0.12
899.248	1.88
899.983	2.88
900.717	-0.12
901.452	1.88
902.186	-0.12
902.92	-1.12
903.654	-0.12
904.389	0.88
905.123	-0.12
905.857	0.88
906.59	-2.12
907.324	0.88
908.058	0.88
908.792	-1.12
909.525	-3.12
910.259	0.88
910.992	-1.12
911.726	-0.12
912.459	1.88
913.192	-1.12
913.925	0.88
914.658	-0.12
915.391	-0.12
916.124	0.88
916.857	0.88
917.59	-0.12
918.323	1.88
919.055	1.88
919.788	1.88
920.521	-1.12
921.253	0.88
921.985	-1.12
922.718	0.88
923.45	-1.12
924.182	-2.12
924.914	-1.12
925.646	-0.12
926.378	-1.12
927.11	-0.12
927.841	0.88
928.573	-0.12
929.305	0.88
930.036	1.88
930.768	-0.12
931.499	0.88
932.23	0.88
932.962	-2.12
933.693	-0.12
934.424	-0.12
935.155	-0.12
935.886	-0.12
936.617	1.88
937.348	-0.12
938.078	-0.12
938.809	-0.12
939.54	-1.12
940.27	-1.12
941.001	-2.12
941.731	-1.12
942.461	-0.12
943.191	-2.12
943.922	1.88
944.652	-0.12
945.382	1.88
946.112	-1.12
946.841	0.88
947.571	-0.12
948.301	-0.12
949.031	-0.12
949.76	-1.12
950.49	0.88
951.219	1.88
951.948	-1.12
952.678	0.88
953.407	-0.12
954.136	-0.12
954.865	-0.12
955.594	0.88
956.323	0.88
957.052	-0.12
957.78	-0.12
958.509	0.88
959.238	1.88
959.966	-1.12
960.695	-0.12
961.423	-0.12
962.151	-1.12
962.88	-0.12
963.608	-0.12
964.336	-0.12
965.064	0.88
965.792	-3.12
966.52	-0.12
967.247	-0.12
967.975	-1.12
968.703	0.88
969.43	-1.12
970.158	1.88
970.885	-1.12
971.613	0.88
972.34	-1.12
973.067	-0.12
973.794	-0.12
974.521	0.88
975.248	2.88
975.975	-0.12
976.702	-1.12
977.429	-0.12
978.156	-0.12
978.882	1.88
979.609	-0.12
980.335	-1.12
981.062	0.88
981.788	-0.12
982.514	-0.12
983.24	-2.12
983.967	-0.12
984.693	-1.12
985.419	-2.12
986.144	-0.12
986.87	-3.12
987.596	0.88
988.322	-2.12
989.047	-1.12
989.773	-0.12
990.498	-2.12
991.224	-0.12
991.949	-0.12
992.674	1.88
993.399	-0.12
994.124	0.88
994.849	-0.12
995.574	0.88
996.299	-2.12
997.024	-0.12
997.749	-0.12
998.473	1.88
999.198	-1.12
999.922	-1.12
1000.647	-2.12
1001.371	4.88
1002.095	-0.12
1002.82	-2.12
1003.544	-1.12
1004.268	0.88
1004.992	-0.12
1005.716	-0.12
1006.439	4.88
1007.163	0.88
1007.887	1.88
1008.611	-0.12
1009.334	-1.12
1010.058	1.88
1010.781	0.88
1011.504	-2.12
1012.228	1.88
1012.951	-1.12
1013.674	-0.12
1014.397	0.88
1015.12	-1.12
