节点500_425_QEPB04081__23__15-48-44-426.txt的数据

Date: Wed Nov 12 15:48:44 CST 2025
User: PC
Spectrometer: QEPB0408
触发模式: 0
积分时间 (秒): 1.000000E-2
Scans to average: 1
启用暗噪声校正: true
启用非线性校正: false
滑动平均宽度: 0
X轴模式: Wavelengths
Number of Pixels in Spectrum: 1044
>>>>>Begin Spectral Data<<<<<
220.843	2.75
221.644	2.75
222.444	3.75
223.244	4.75
224.045	4.75
224.845	4.75
225.645	3.75
226.445	5.75
227.245	3.75
228.045	5.75
228.845	4.75
229.645	3.75
230.444	3.75
231.244	4.75
232.043	3.75
232.843	6.75
233.642	3.75
234.442	7.75
235.241	5.75
236.04	5.75
236.839	8.75
237.638	4.75
238.437	9.75
239.236	8.75
240.035	7.75
240.833	6.75
241.632	7.75
242.43	5.75
243.229	7.75
244.027	9.75
244.826	8.75
245.624	8.75
246.422	9.75
247.22	11.75
248.018	8.75
248.816	10.75
249.614	12.75
250.412	10.75
251.21	10.75
252.007	10.75
252.805	12.75
253.602	12.75
254.4	14.75
255.197	14.75
255.994	16.75
256.791	14.75
257.589	15.75
258.386	14.75
259.183	14.75
259.979	17.75
260.776	14.75
261.573	17.75
262.37	18.75
263.166	18.75
263.963	18.75
264.759	18.75
265.556	18.75
266.352	20.75
267.148	21.75
267.944	21.75
268.74	22.75
269.536	22.75
270.332	24.75
271.128	21.75
271.924	19.75
272.719	24.75
273.515	23.75
274.311	26.75
275.106	25.75
275.901	26.75
276.697	26.75
277.492	29.75
278.287	26.75
279.082	26.75
279.877	29.75
280.672	26.75
281.467	27.75
282.262	30.75
283.056	24.75
283.851	27.75
284.646	28.75
285.44	27.75
286.234	27.75
287.029	29.75
287.823	25.75
288.617	27.75
289.411	25.75
290.205	26.75
290.999	23.75
291.793	26.75
292.587	22.75
293.381	24.75
294.174	24.75
294.968	23.75
295.761	20.75
296.555	19.75
297.348	18.75
298.141	18.75
298.935	18.75
299.728	17.75
300.521	19.75
301.314	19.75
302.107	17.75
302.899	18.75
303.692	15.75
304.485	19.75
305.277	17.75
306.07	19.75
306.862	19.75
307.655	16.75
308.447	14.75
309.239	14.75
310.031	15.75
310.823	13.75
311.615	13.75
312.407	12.75
313.199	12.75
313.991	11.75
314.783	10.75
315.574	9.75
316.366	12.75
317.157	13.75
317.949	12.75
318.74	10.75
319.531	9.75
320.322	10.75
321.113	10.75
321.904	7.75
322.695	8.75
323.486	11.75
324.277	7.75
325.068	8.75
325.858	9.75
326.649	11.75
327.439	9.75
328.23	8.75
329.02	9.75
329.81	10.75
330.6	10.75
331.391	8.75
332.181	9.75
332.971	10.75
333.76	8.75
334.55	9.75
335.34	8.75
336.13	9.75
336.919	11.75
337.709	7.75
338.498	11.75
339.287	10.75
340.077	8.75
340.866	10.75
341.655	9.75
342.444	10.75
343.233	9.75
344.022	9.75
344.811	7.75
345.6	5.75
346.388	9.75
347.177	9.75
347.965	10.75
348.754	7.75
349.542	8.75
350.33	8.75
351.119	8.75
351.907	8.75
352.695	9.75
353.483	7.75
354.271	6.75
355.059	8.75
355.846	5.75
356.634	7.75
357.422	8.75
358.209	8.75
358.997	7.75
359.784	8.75
360.571	6.75
361.359	7.75
362.146	5.75
362.933	8.75
363.72	8.75
364.507	5.75
365.294	9.75
366.081	5.75
366.867	8.75
367.654	9.75
368.44	6.75
369.227	4.75
370.013	6.75
370.8	7.75
371.586	6.75
372.372	6.75
373.158	6.75
373.944	7.75
374.73	5.75
375.516	6.75
376.302	6.75
377.088	8.75
377.873	5.75
378.659	9.75
379.445	5.75
380.23	9.75
381.015	4.75
381.801	7.75
382.586	6.75
383.371	5.75
384.156	6.75
384.941	7.75
385.726	6.75
386.511	6.75
387.296	9.75
388.08	8.75
388.865	7.75
389.649	8.75
390.434	6.75
391.218	7.75
392.003	5.75
392.787	9.75
393.571	9.75
394.355	6.75
395.139	9.75
395.923	8.75
396.707	9.75
397.491	8.75
398.274	8.75
399.058	9.75
399.842	11.75
400.625	10.75
401.408	8.75
402.192	8.75
402.975	8.75
403.758	8.75
404.541	10.75
405.324	10.75
406.107	11.75
406.89	10.75
407.673	12.75
408.456	12.75
409.238	11.75
410.021	13.75
410.803	13.75
411.586	11.75
412.368	9.75
413.151	10.75
413.933	14.75
414.715	12.75
415.497	12.75
416.279	11.75
417.061	11.75
417.843	14.75
418.624	12.75
419.406	13.75
420.188	14.75
420.969	17.75
421.751	14.75
422.532	13.75
423.313	14.75
424.095	18.75
424.876	18.75
425.657	18.75
426.438	17.75
427.219	20.75
428	20.75
428.78	22.75
429.561	18.75
430.342	18.75
431.122	21.75
431.903	20.75
432.683	20.75
433.464	22.75
434.244	25.75
435.024	23.75
435.804	25.75
436.584	25.75
437.364	25.75
438.144	29.75
438.924	32.75
439.704	34.75
440.483	32.75
441.263	37.75
442.042	39.75
442.822	38.75
443.601	42.75
444.38	42.75
445.16	49.75
445.939	49.75
446.718	52.75
447.497	56.75
448.276	60.75
449.054	67.75
449.833	74.75
450.612	76.75
451.391	83.75
452.169	96.75
452.948	103.75
453.726	115.75
454.504	125.75
455.282	134.75
456.061	151.75
456.839	168.75
457.617	187.75
458.395	208.75
459.172	228.75
459.95	267.75
460.728	285.75
461.506	322.75
462.283	360.75
463.061	405.75
463.838	456.75
464.615	507.75
465.393	560.75
466.17	636.75
466.947	710.75
467.724	792.75
468.501	892.75
469.278	1004.75
470.055	1106.75
470.831	1234.75
471.608	1363.75
472.385	1531.75
473.161	1698.75
473.938	1910.75
474.714	2111.75
475.49	2343.75
476.266	2591.75
477.043	2870.75
477.819	3202.75
478.595	3518.75
479.371	3939.75
480.146	4341.75
480.922	4807.75
481.698	5316.75
482.473	5812.75
483.249	6445.75
484.024	7117.75
484.8	7873.75
485.575	8645.75
486.35	9447.75
487.126	10365.75
487.901	11402.75
488.676	12509.75
489.451	13682.75
490.225	14906.75
491	16186.75
491.775	17686.75
492.55	19146.75
493.324	20570.75
494.099	22092.75
494.873	23652.75
495.647	25276.75
496.422	26848.75
497.196	28523.75
497.97	30184.75
498.744	31655.75
499.518	33144.75
500.292	34327.75
501.066	35302.75
501.839	36466.75
502.613	37171.75
503.387	37704.75
504.16	38032.75
504.934	38045.75
505.707	37709.75
506.48	37297.75
507.253	36740.75
508.027	36006.75
508.8	35174.75
509.573	34035.75
510.346	32937.75
511.118	31839.75
511.891	30630.75
512.664	29275.75
513.437	28050.75
514.209	26778.75
514.982	25613.75
515.754	24544.75
516.526	23332.75
517.298	22436.75
518.071	21469.75
518.843	20607.75
519.615	19708.75
520.387	18922.75
521.159	18251.75
521.93	17538.75
522.702	16836.75
523.474	16234.75
524.245	15514.75
525.017	14728.75
525.788	14075.75
526.56	13442.75
527.331	12740.75
528.102	12100.75
528.873	11503.75
529.644	10929.75
530.415	10364.75
531.186	9856.75
531.957	9280.75
532.728	8792.75
533.498	8270.75
534.269	7814.75
535.039	7406.75
535.81	6965.75
536.58	6578.75
537.351	6178.75
538.121	5843.75
538.891	5552.75
539.661	5264.75
540.431	5004.75
541.201	4720.75
541.971	4453.75
542.741	4260.75
543.51	4020.75
544.28	3847.75
545.05	3655.75
545.819	3486.75
546.588	3312.75
547.358	3148.75
548.127	2969.75
548.896	2790.75
549.665	2648.75
550.434	2508.75
551.203	2388.75
551.972	2238.75
552.741	2125.75
553.51	2024.75
554.278	1898.75
555.047	1788.75
555.815	1694.75
556.584	1581.75
557.352	1505.75
558.121	1407.75
558.889	1332.75
559.657	1254.75
560.425	1186.75
561.193	1120.75
561.961	1065.75
562.729	1004.75
563.496	948.75
564.264	902.75
565.032	847.75
565.799	801.75
566.567	759.75
567.334	725.75
568.101	682.75
568.869	640.75
569.636	604.75
570.403	571.75
571.17	524.75
571.937	499.75
572.704	486.75
573.471	453.75
574.237	426.75
575.004	402.75
575.771	383.75
576.537	358.75
577.303	335.75
578.07	315.75
578.836	294.75
579.602	280.75
580.368	264.75
581.134	254.75
581.9	246.75
582.666	229.75
583.432	210.75
584.198	207.75
584.964	200.75
585.729	182.75
586.495	171.75
587.26	167.75
588.025	159.75
588.791	150.75
589.556	145.75
590.321	141.75
591.086	130.75
591.851	120.75
592.616	118.75
593.381	109.75
594.146	105.75
594.911	97.75
595.675	103.75
596.44	91.75
597.204	91.75
597.969	84.75
598.733	78.75
599.497	77.75
600.261	73.75
601.025	69.75
601.79	67.75
602.553	62.75
603.317	61.75
604.081	61.75
604.845	54.75
605.609	58.75
606.372	50.75
607.136	51.75
607.899	49.75
608.662	48.75
609.426	44.75
610.189	44.75
610.952	41.75
611.715	42.75
612.478	39.75
613.241	37.75
614.004	36.75
614.767	35.75
615.529	34.75
616.292	31.75
617.055	30.75
617.817	31.75
618.579	30.75
619.342	29.75
620.104	26.75
620.866	26.75
621.628	26.75
622.39	23.75
623.152	25.75
623.914	23.75
624.676	21.75
625.438	22.75
626.199	20.75
626.961	20.75
627.722	22.75
628.484	18.75
629.245	18.75
630.006	17.75
630.768	18.75
631.529	17.75
632.29	16.75
633.051	13.75
633.812	19.75
634.573	17.75
635.333	18.75
636.094	14.75
636.855	14.75
637.615	12.75
638.376	13.75
639.136	12.75
639.896	13.75
640.657	10.75
641.417	12.75
642.177	13.75
642.937	12.75
643.697	12.75
644.457	12.75
645.216	14.75
645.976	11.75
646.736	9.75
647.495	10.75
648.255	8.75
649.014	9.75
649.774	9.75
650.533	8.75
651.292	8.75
652.051	8.75
652.81	7.75
653.569	8.75
654.328	8.75
655.087	10.75
655.846	8.75
656.604	8.75
657.363	8.75
658.121	8.75
658.88	6.75
659.638	9.75
660.397	6.75
661.155	8.75
661.913	5.75
662.671	7.75
663.429	7.75
664.187	8.75
664.945	6.75
665.703	5.75
666.46	6.75
667.218	7.75
667.976	7.75
668.733	6.75
669.49	6.75
670.248	7.75
671.005	4.75
671.762	6.75
672.519	6.75
673.276	8.75
674.033	7.75
674.79	6.75
675.547	5.75
676.304	4.75
677.06	4.75
677.817	6.75
678.574	6.75
679.33	3.75
680.086	3.75
680.843	5.75
681.599	6.75
682.355	7.75
683.111	4.75
683.867	7.75
684.623	4.75
685.379	6.75
686.135	7.75
686.89	6.75
687.646	5.75
688.402	6.75
689.157	3.75
689.912	5.75
690.668	6.75
691.423	5.75
692.178	5.75
692.933	7.75
693.688	8.75
694.443	4.75
695.198	3.75
695.953	4.75
696.708	6.75
697.462	3.75
698.217	2.75
698.972	4.75
699.726	5.75
700.48	3.75
701.235	4.75
701.989	3.75
702.743	5.75
703.497	5.75
704.251	6.75
705.005	3.75
705.759	6.75
706.513	6.75
707.266	5.75
708.02	4.75
708.774	5.75
709.527	5.75
710.28	5.75
711.034	5.75
711.787	4.75
712.54	3.75
713.293	5.75
714.046	5.75
714.799	6.75
715.552	4.75
716.305	3.75
717.058	4.75
717.81	6.75
718.563	7.75
719.315	5.75
720.068	8.75
720.82	5.75
721.573	5.75
722.325	6.75
723.077	6.75
723.829	4.75
724.581	7.75
725.333	4.75
726.085	7.75
726.836	5.75
727.588	7.75
728.34	7.75
729.091	7.75
729.843	8.75
730.594	5.75
731.346	7.75
732.097	6.75
732.848	5.75
733.599	7.75
734.35	7.75
735.101	5.75
735.852	5.75
736.603	6.75
737.354	6.75
738.104	6.75
738.855	5.75
739.605	5.75
740.356	8.75
741.106	8.75
741.856	6.75
742.607	7.75
743.357	4.75
744.107	8.75
744.857	7.75
745.607	8.75
746.357	7.75
747.106	6.75
747.856	5.75
748.606	7.75
749.355	7.75
750.105	9.75
750.854	9.75
751.603	10.75
752.353	6.75
753.102	8.75
753.851	7.75
754.6	9.75
755.349	9.75
756.098	8.75
756.847	9.75
757.595	10.75
758.344	7.75
759.093	8.75
759.841	8.75
760.589	12.75
761.338	9.75
762.086	9.75
762.834	7.75
763.582	10.75
764.331	9.75
765.079	9.75
765.826	9.75
766.574	10.75
767.322	10.75
768.07	8.75
768.817	11.75
769.565	14.75
770.312	9.75
771.06	12.75
771.807	12.75
772.554	11.75
773.302	10.75
774.049	11.75
774.796	9.75
775.543	12.75
776.29	12.75
777.036	13.75
777.783	13.75
778.53	14.75
779.276	12.75
780.023	14.75
780.769	10.75
781.516	11.75
782.262	11.75
783.008	11.75
783.754	10.75
784.5	12.75
785.246	11.75
785.992	12.75
786.738	14.75
787.484	11.75
788.23	13.75
788.975	10.75
789.721	12.75
790.466	11.75
791.212	13.75
791.957	13.75
792.702	10.75
793.447	12.75
794.193	12.75
794.938	12.75
795.683	13.75
796.427	9.75
797.172	9.75
797.917	7.75
798.662	9.75
799.406	10.75
800.151	10.75
800.895	9.75
801.64	7.75
802.384	7.75
803.128	8.75
803.872	7.75
804.616	7.75
805.36	9.75
806.104	9.75
806.848	9.75
807.592	10.75
808.336	8.75
809.079	7.75
809.823	8.75
810.566	6.75
811.31	8.75
812.053	8.75
812.796	5.75
813.539	7.75
814.283	7.75
815.026	10.75
815.769	5.75
816.511	5.75
817.254	6.75
817.997	6.75
818.74	7.75
819.482	5.75
820.225	6.75
820.967	6.75
821.71	6.75
822.452	6.75
823.194	3.75
823.936	8.75
824.678	4.75
825.42	6.75
826.162	6.75
826.904	5.75
827.646	4.75
828.388	5.75
829.129	5.75
829.871	4.75
830.612	6.75
831.354	5.75
832.095	3.75
832.836	5.75
833.577	5.75
834.319	6.75
835.06	4.75
835.801	5.75
836.542	4.75
837.282	5.75
838.023	5.75
838.764	6.75
839.504	4.75
840.245	5.75
840.985	4.75
841.726	4.75
842.466	3.75
843.206	5.75
843.946	4.75
844.687	3.75
845.427	4.75
846.166	3.75
846.906	4.75
847.646	5.75
848.386	3.75
849.125	5.75
849.865	5.75
850.605	2.75
851.344	4.75
852.083	4.75
852.823	3.75
853.562	2.75
854.301	3.75
855.04	1.75
855.779	3.75
856.518	4.75
857.257	4.75
857.995	5.75
858.734	4.75
859.473	0.75
860.211	4.75
860.95	1.75
861.688	4.75
862.426	2.75
863.165	2.75
863.903	2.75
864.641	1.75
865.379	2.75
866.117	1.75
866.855	1.75
867.593	2.75
868.33	2.75
869.068	1.75
869.806	1.75
870.543	-0.25
871.28	1.75
872.018	2.75
872.755	1.75
873.492	3.75
874.229	1.75
874.967	2.75
875.703	0.75
876.44	2.75
877.177	0.75
877.914	0.75
878.651	0.75
879.387	2.75
880.124	3.75
880.86	1.75
881.597	0.75
882.333	2.75
883.069	2.75
883.806	1.75
884.542	1.75
885.278	1.75
886.014	0.75
886.749	0.75
887.485	0.75
888.221	-0.25
888.957	2.75
889.692	1.75
890.428	2.75
891.163	-0.25
891.899	2.75
892.634	2.75
893.369	-0.25
894.104	1.75
894.839	-1.25
895.574	-0.25
896.309	0.75
897.044	0.75
897.779	1.75
898.514	4.75
899.248	0.75
899.983	0.75
900.717	-1.25
901.452	-1.25
902.186	0.75
902.92	0.75
903.654	1.75
904.389	2.75
905.123	0.75
905.857	-2.25
906.59	0.75
907.324	0.75
908.058	1.75
908.792	1.75
909.525	-0.25
910.259	0.75
910.992	0.75
911.726	1.75
912.459	1.75
913.192	2.75
913.925	-1.25
914.658	-1.25
915.391	-0.25
916.124	-0.25
916.857	2.75
917.59	1.75
918.323	-0.25
919.055	2.75
919.788	-1.25
920.521	0.75
921.253	1.75
921.985	-1.25
922.718	-0.25
923.45	0.75
924.182	0.75
924.914	0.75
925.646	1.75
926.378	1.75
927.11	-1.25
927.841	0.75
928.573	-1.25
929.305	-0.25
930.036	1.75
930.768	2.75
931.499	1.75
932.23	-1.25
932.962	1.75
933.693	0.75
934.424	0.75
935.155	2.75
935.886	0.75
936.617	0.75
937.348	-1.25
938.078	1.75
938.809	0.75
939.54	-0.25
940.27	2.75
941.001	1.75
941.731	1.75
942.461	-0.25
943.191	2.75
943.922	2.75
944.652	0.75
945.382	-0.25
946.112	-1.25
946.841	1.75
947.571	1.75
948.301	0.75
949.031	-0.25
949.76	2.75
950.49	0.75
951.219	0.75
951.948	-1.25
952.678	-1.25
953.407	0.75
954.136	1.75
954.865	-2.25
955.594	0.75
956.323	1.75
957.052	0.75
957.78	1.75
958.509	0.75
959.238	-2.25
959.966	-2.25
960.695	1.75
961.423	1.75
962.151	2.75
962.88	0.75
963.608	-3.25
964.336	0.75
965.064	1.75
965.792	0.75
966.52	-1.25
967.247	0.75
967.975	-0.25
968.703	-0.25
969.43	2.75
970.158	1.75
970.885	2.75
971.613	3.75
972.34	2.75
973.067	0.75
973.794	-0.25
974.521	-1.25
975.248	2.75
975.975	0.75
976.702	0.75
977.429	-1.25
978.156	2.75
978.882	0.75
979.609	1.75
980.335	0.75
981.062	-0.25
981.788	1.75
982.514	-0.25
983.24	0.75
983.967	0.75
984.693	-1.25
985.419	-2.25
986.144	-1.25
986.87	1.75
987.596	-1.25
988.322	3.75
989.047	1.75
989.773	-0.25
990.498	1.75
991.224	-0.25
991.949	3.75
992.674	0.75
993.399	1.75
994.124	-0.25
994.849	0.75
995.574	-0.25
996.299	-1.25
997.024	-1.25
997.749	2.75
998.473	-0.25
999.198	0.75
999.922	-0.25
1000.647	1.75
1001.371	1.75
1002.095	-2.25
1002.82	0.75
1003.544	-2.25
1004.268	2.75
1004.992	0.75
1005.716	2.75
1006.439	1.75
1007.163	2.75
1007.887	1.75
1008.611	0.75
1009.334	0.75
1010.058	0.75
1010.781	1.75
1011.504	-0.25
1012.228	-0.25
1012.951	0.75
1013.674	1.75
1014.397	-0.25
1015.12	-0.25
