节点500_425_QEPB04081__316__15-53-33-842.txt的数据

Date: Wed Nov 12 15:53:33 CST 2025
User: PC
Spectrometer: QEPB0408
触发模式: 0
积分时间 (秒): 1.000000E-2
Scans to average: 1
启用暗噪声校正: true
启用非线性校正: false
滑动平均宽度: 0
X轴模式: Wavelengths
Number of Pixels in Spectrum: 1044
>>>>>Begin Spectral Data<<<<<
220.843	0.88
221.644	3.88
222.444	4.88
223.244	4.88
224.045	4.88
224.845	6.88
225.645	2.88
226.445	0.88
227.245	3.88
228.045	3.88
228.845	2.88
229.645	4.88
230.444	4.88
231.244	6.88
232.043	5.88
232.843	5.88
233.642	6.88
234.442	4.88
235.241	6.88
236.04	7.88
236.839	5.88
237.638	5.88
238.437	8.88
239.236	6.88
240.035	8.88
240.833	6.88
241.632	9.88
242.43	6.88
243.229	7.88
244.027	7.88
244.826	7.88
245.624	7.88
246.422	7.88
247.22	7.88
248.018	7.88
248.816	12.88
249.614	9.88
250.412	9.88
251.21	9.88
252.007	11.88
252.805	9.88
253.602	12.88
254.4	10.88
255.197	9.88
255.994	12.88
256.791	14.88
257.589	13.88
258.386	15.88
259.183	14.88
259.979	15.88
260.776	13.88
261.573	16.88
262.37	15.88
263.166	15.88
263.963	15.88
264.759	16.88
265.556	16.88
266.352	16.88
267.148	17.88
267.944	17.88
268.74	20.88
269.536	18.88
270.332	20.88
271.128	23.88
271.924	19.88
272.719	23.88
273.515	21.88
274.311	24.88
275.106	23.88
275.901	23.88
276.697	25.88
277.492	25.88
278.287	22.88
279.082	25.88
279.877	24.88
280.672	21.88
281.467	23.88
282.262	21.88
283.056	24.88
283.851	25.88
284.646	26.88
285.44	24.88
286.234	25.88
287.029	21.88
287.823	24.88
288.617	24.88
289.411	24.88
290.205	23.88
290.999	23.88
291.793	24.88
292.587	21.88
293.381	21.88
294.174	21.88
294.968	22.88
295.761	20.88
296.555	19.88
297.348	20.88
298.141	18.88
298.935	22.88
299.728	16.88
300.521	17.88
301.314	18.88
302.107	17.88
302.899	16.88
303.692	15.88
304.485	15.88
305.277	18.88
306.07	15.88
306.862	17.88
307.655	15.88
308.447	16.88
309.239	16.88
310.031	12.88
310.823	14.88
311.615	11.88
312.407	10.88
313.199	14.88
313.991	10.88
314.783	11.88
315.574	15.88
316.366	13.88
317.157	11.88
317.949	11.88
318.74	10.88
319.531	10.88
320.322	11.88
321.113	11.88
321.904	12.88
322.695	12.88
323.486	10.88
324.277	7.88
325.068	8.88
325.858	9.88
326.649	8.88
327.439	6.88
328.23	10.88
329.02	10.88
329.81	8.88
330.6	8.88
331.391	13.88
332.181	7.88
332.971	8.88
333.76	9.88
334.55	9.88
335.34	9.88
336.13	8.88
336.919	6.88
337.709	9.88
338.498	6.88
339.287	9.88
340.077	9.88
340.866	8.88
341.655	10.88
342.444	6.88
343.233	10.88
344.022	6.88
344.811	9.88
345.6	8.88
346.388	7.88
347.177	7.88
347.965	8.88
348.754	7.88
349.542	7.88
350.33	6.88
351.119	8.88
351.907	9.88
352.695	10.88
353.483	7.88
354.271	7.88
355.059	8.88
355.846	8.88
356.634	7.88
357.422	9.88
358.209	10.88
358.997	7.88
359.784	8.88
360.571	7.88
361.359	9.88
362.146	8.88
362.933	6.88
363.72	7.88
364.507	6.88
365.294	5.88
366.081	8.88
366.867	7.88
367.654	8.88
368.44	7.88
369.227	6.88
370.013	7.88
370.8	5.88
371.586	6.88
372.372	7.88
373.158	9.88
373.944	9.88
374.73	4.88
375.516	7.88
376.302	8.88
377.088	7.88
377.873	7.88
378.659	6.88
379.445	7.88
380.23	8.88
381.015	7.88
381.801	6.88
382.586	6.88
383.371	7.88
384.156	7.88
384.941	8.88
385.726	7.88
386.511	7.88
387.296	9.88
388.08	8.88
388.865	8.88
389.649	7.88
390.434	7.88
391.218	6.88
392.003	10.88
392.787	8.88
393.571	8.88
394.355	9.88
395.139	7.88
395.923	9.88
396.707	8.88
397.491	9.88
398.274	11.88
399.058	7.88
399.842	10.88
400.625	8.88
401.408	8.88
402.192	10.88
402.975	8.88
403.758	11.88
404.541	8.88
405.324	10.88
406.107	12.88
406.89	10.88
407.673	10.88
408.456	10.88
409.238	11.88
410.021	9.88
410.803	10.88
411.586	12.88
412.368	9.88
413.151	13.88
413.933	12.88
414.715	12.88
415.497	11.88
416.279	10.88
417.061	12.88
417.843	13.88
418.624	15.88
419.406	12.88
420.188	14.88
420.969	14.88
421.751	13.88
422.532	16.88
423.313	16.88
424.095	15.88
424.876	14.88
425.657	16.88
426.438	18.88
427.219	14.88
428	19.88
428.78	18.88
429.561	17.88
430.342	18.88
431.122	21.88
431.903	22.88
432.683	19.88
433.464	21.88
434.244	23.88
435.024	24.88
435.804	23.88
436.584	25.88
437.364	26.88
438.144	27.88
438.924	30.88
439.704	34.88
440.483	32.88
441.263	35.88
442.042	35.88
442.822	39.88
443.601	44.88
444.38	45.88
445.16	51.88
445.939	52.88
446.718	59.88
447.497	60.88
448.276	66.88
449.054	74.88
449.833	80.88
450.612	85.88
451.391	94.88
452.169	98.88
452.948	114.88
453.726	121.88
454.504	136.88
455.282	154.88
456.061	167.88
456.839	191.88
457.617	203.88
458.395	229.88
459.172	259.88
459.95	292.88
460.728	317.88
461.506	363.88
462.283	403.88
463.061	456.88
463.838	500.88
464.615	552.88
465.393	622.88
466.17	693.88
466.947	773.88
467.724	869.88
468.501	947.88
469.278	1064.88
470.055	1168.88
470.831	1291.88
471.608	1437.88
472.385	1587.88
473.161	1767.88
473.938	1948.88
474.714	2136.88
475.49	2379.88
476.266	2599.88
477.043	2857.88
477.819	3175.88
478.595	3489.88
479.371	3831.88
480.146	4217.88
480.922	4618.88
481.698	5067.88
482.473	5533.88
483.249	6073.88
484.024	6630.88
484.8	7306.88
485.575	7933.88
486.35	8650.88
487.126	9447.88
487.901	10280.88
488.676	11218.88
489.451	12143.88
490.225	13192.88
491	14313.88
491.775	15519.88
492.55	16751.88
493.324	18010.88
494.099	19279.88
494.873	20599.88
495.647	22073.88
496.422	23412.88
497.196	24866.88
497.97	26387.88
498.744	27760.88
499.518	29095.88
500.292	30272.88
501.066	31393.88
501.839	32584.88
502.613	33522.88
503.387	34076.88
504.16	34678.88
504.934	35081.88
505.707	35058.88
506.48	35014.88
507.253	34738.88
508.027	34434.88
508.8	33910.88
509.573	33238.88
510.346	32306.88
511.118	31430.88
511.891	30423.88
512.664	29311.88
513.437	28225.88
514.209	27068.88
514.982	26110.88
515.754	25096.88
516.526	23941.88
517.298	22967.88
518.071	21948.88
518.843	21112.88
519.615	20226.88
520.387	19416.88
521.159	18671.88
521.93	17961.88
522.702	17250.88
523.474	16562.88
524.245	15969.88
525.017	15208.88
525.788	14531.88
526.56	13870.88
527.331	13201.88
528.102	12622.88
528.873	12003.88
529.644	11431.88
530.415	10943.88
531.186	10406.88
531.957	9854.88
532.728	9364.88
533.498	8798.88
534.269	8350.88
535.039	7909.88
535.81	7458.88
536.58	7015.88
537.351	6665.88
538.121	6289.88
538.891	5933.88
539.661	5623.88
540.431	5320.88
541.201	5055.88
541.971	4802.88
542.741	4547.88
543.51	4321.88
544.28	4110.88
545.05	3893.88
545.819	3720.88
546.588	3557.88
547.358	3341.88
548.127	3160.88
548.896	3012.88
549.665	2861.88
550.434	2718.88
551.203	2572.88
551.972	2439.88
552.741	2305.88
553.51	2187.88
554.278	2073.88
555.047	1941.88
555.815	1838.88
556.584	1738.88
557.352	1639.88
558.121	1522.88
558.889	1451.88
559.657	1374.88
560.425	1284.88
561.193	1221.88
561.961	1165.88
562.729	1105.88
563.496	1046.88
564.264	984.88
565.032	929.88
565.799	888.88
566.567	844.88
567.334	788.88
568.101	732.88
568.869	701.88
569.636	656.88
570.403	626.88
571.17	585.88
571.937	560.88
572.704	524.88
573.471	492.88
574.237	464.88
575.004	440.88
575.771	413.88
576.537	395.88
577.303	354.88
578.07	340.88
578.836	327.88
579.602	315.88
580.368	292.88
581.134	276.88
581.9	261.88
582.666	254.88
583.432	232.88
584.198	227.88
584.964	211.88
585.729	198.88
586.495	189.88
587.26	179.88
588.025	168.88
588.791	163.88
589.556	158.88
590.321	150.88
591.086	142.88
591.851	130.88
592.616	123.88
593.381	117.88
594.146	119.88
594.911	110.88
595.675	105.88
596.44	101.88
597.204	96.88
597.969	93.88
598.733	88.88
599.497	87.88
600.261	82.88
601.025	74.88
601.79	71.88
602.553	70.88
603.317	68.88
604.081	65.88
604.845	59.88
605.609	60.88
606.372	57.88
607.136	52.88
607.899	54.88
608.662	50.88
609.426	47.88
610.189	45.88
610.952	46.88
611.715	40.88
612.478	43.88
613.241	40.88
614.004	39.88
614.767	36.88
615.529	33.88
616.292	38.88
617.055	34.88
617.817	33.88
618.579	30.88
619.342	33.88
620.104	29.88
620.866	31.88
621.628	27.88
622.39	27.88
623.152	25.88
623.914	27.88
624.676	23.88
625.438	21.88
626.199	23.88
626.961	21.88
627.722	23.88
628.484	21.88
629.245	21.88
630.006	14.88
630.768	19.88
631.529	16.88
632.29	16.88
633.051	16.88
633.812	16.88
634.573	19.88
635.333	17.88
636.094	16.88
636.855	14.88
637.615	14.88
638.376	13.88
639.136	14.88
639.896	14.88
640.657	12.88
641.417	12.88
642.177	11.88
642.937	10.88
643.697	12.88
644.457	12.88
645.216	12.88
645.976	11.88
646.736	9.88
647.495	12.88
648.255	13.88
649.014	9.88
649.774	10.88
650.533	9.88
651.292	9.88
652.051	10.88
652.81	8.88
653.569	7.88
654.328	9.88
655.087	8.88
655.846	8.88
656.604	5.88
657.363	8.88
658.121	10.88
658.88	8.88
659.638	6.88
660.397	7.88
661.155	9.88
661.913	7.88
662.671	7.88
663.429	10.88
664.187	7.88
664.945	6.88
665.703	4.88
666.46	9.88
667.218	6.88
667.976	7.88
668.733	7.88
669.49	7.88
670.248	8.88
671.005	5.88
671.762	7.88
672.519	6.88
673.276	9.88
674.033	6.88
674.79	6.88
675.547	6.88
676.304	5.88
677.06	6.88
677.817	4.88
678.574	5.88
679.33	8.88
680.086	5.88
680.843	5.88
681.599	7.88
682.355	5.88
683.111	5.88
683.867	5.88
684.623	7.88
685.379	5.88
686.135	7.88
686.89	5.88
687.646	5.88
688.402	5.88
689.157	5.88
689.912	5.88
690.668	5.88
691.423	5.88
692.178	6.88
692.933	6.88
693.688	6.88
694.443	3.88
695.198	4.88
695.953	5.88
696.708	5.88
697.462	6.88
698.217	7.88
698.972	6.88
699.726	3.88
700.48	4.88
701.235	5.88
701.989	3.88
702.743	4.88
703.497	5.88
704.251	5.88
705.005	4.88
705.759	8.88
706.513	6.88
707.266	5.88
708.02	8.88
708.774	5.88
709.527	5.88
710.28	5.88
711.034	4.88
711.787	4.88
712.54	4.88
713.293	4.88
714.046	5.88
714.799	4.88
715.552	4.88
716.305	2.88
717.058	7.88
717.81	7.88
718.563	7.88
719.315	5.88
720.068	4.88
720.82	6.88
721.573	5.88
722.325	2.88
723.077	6.88
723.829	5.88
724.581	6.88
725.333	3.88
726.085	6.88
726.836	7.88
727.588	10.88
728.34	4.88
729.091	3.88
729.843	4.88
730.594	5.88
731.346	4.88
732.097	7.88
732.848	4.88
733.599	8.88
734.35	3.88
735.101	8.88
735.852	4.88
736.603	6.88
737.354	7.88
738.104	4.88
738.855	7.88
739.605	4.88
740.356	7.88
741.106	6.88
741.856	6.88
742.607	8.88
743.357	3.88
744.107	7.88
744.857	7.88
745.607	6.88
746.357	6.88
747.106	6.88
747.856	7.88
748.606	8.88
749.355	6.88
750.105	7.88
750.854	5.88
751.603	4.88
752.353	6.88
753.102	9.88
753.851	7.88
754.6	8.88
755.349	7.88
756.098	7.88
756.847	7.88
757.595	9.88
758.344	6.88
759.093	11.88
759.841	8.88
760.589	7.88
761.338	11.88
762.086	9.88
762.834	7.88
763.582	9.88
764.331	10.88
765.079	7.88
765.826	11.88
766.574	11.88
767.322	8.88
768.07	9.88
768.817	10.88
769.565	10.88
770.312	10.88
771.06	8.88
771.807	9.88
772.554	10.88
773.302	9.88
774.049	10.88
774.796	12.88
775.543	10.88
776.29	10.88
777.036	12.88
777.783	10.88
778.53	10.88
779.276	12.88
780.023	12.88
780.769	11.88
781.516	12.88
782.262	11.88
783.008	9.88
783.754	12.88
784.5	12.88
785.246	10.88
785.992	12.88
786.738	11.88
787.484	12.88
788.23	10.88
788.975	12.88
789.721	11.88
790.466	10.88
791.212	10.88
791.957	13.88
792.702	14.88
793.447	12.88
794.193	10.88
794.938	8.88
795.683	13.88
796.427	12.88
797.172	11.88
797.917	10.88
798.662	7.88
799.406	10.88
800.151	8.88
800.895	7.88
801.64	8.88
802.384	9.88
803.128	7.88
803.872	6.88
804.616	8.88
805.36	6.88
806.104	8.88
806.848	8.88
807.592	7.88
808.336	7.88
809.079	6.88
809.823	8.88
810.566	6.88
811.31	7.88
812.053	7.88
812.796	6.88
813.539	5.88
814.283	4.88
815.026	6.88
815.769	6.88
816.511	5.88
817.254	7.88
817.997	7.88
818.74	6.88
819.482	9.88
820.225	7.88
820.967	6.88
821.71	5.88
822.452	7.88
823.194	4.88
823.936	6.88
824.678	5.88
825.42	4.88
826.162	5.88
826.904	2.88
827.646	2.88
828.388	4.88
829.129	3.88
829.871	2.88
830.612	6.88
831.354	4.88
832.095	4.88
832.836	4.88
833.577	4.88
834.319	4.88
835.06	5.88
835.801	5.88
836.542	4.88
837.282	4.88
838.023	5.88
838.764	2.88
839.504	2.88
840.245	3.88
840.985	3.88
841.726	4.88
842.466	4.88
843.206	4.88
843.946	4.88
844.687	2.88
845.427	2.88
846.166	4.88
846.906	4.88
847.646	3.88
848.386	2.88
849.125	5.88
849.865	1.88
850.605	1.88
851.344	2.88
852.083	3.88
852.823	2.88
853.562	2.88
854.301	3.88
855.04	2.88
855.779	4.88
856.518	1.88
857.257	1.88
857.995	4.88
858.734	2.88
859.473	2.88
860.211	3.88
860.95	2.88
861.688	4.88
862.426	5.88
863.165	3.88
863.903	2.88
864.641	5.88
865.379	1.88
866.117	2.88
866.855	1.88
867.593	1.88
868.33	0.88
869.068	1.88
869.806	0.88
870.543	2.88
871.28	2.88
872.018	0.88
872.755	2.88
873.492	2.88
874.229	3.88
874.967	1.88
875.703	2.88
876.44	4.88
877.177	2.88
877.914	2.88
878.651	1.88
879.387	2.88
880.124	1.88
880.86	3.88
881.597	3.88
882.333	-0.12
883.069	3.88
883.806	-0.12
884.542	1.88
885.278	0.88
886.014	1.88
886.749	1.88
887.485	0.88
888.221	2.88
888.957	2.88
889.692	2.88
890.428	1.88
891.163	0.88
891.899	0.88
892.634	0.88
893.369	1.88
894.104	2.88
894.839	2.88
895.574	0.88
896.309	0.88
897.044	2.88
897.779	-0.12
898.514	1.88
899.248	0.88
899.983	1.88
900.717	1.88
901.452	0.88
902.186	2.88
902.92	-1.12
903.654	-0.12
904.389	1.88
905.123	1.88
905.857	1.88
906.59	1.88
907.324	2.88
908.058	0.88
908.792	0.88
909.525	1.88
910.259	0.88
910.992	1.88
911.726	-1.12
912.459	-0.12
913.192	-0.12
913.925	1.88
914.658	-0.12
915.391	1.88
916.124	1.88
916.857	0.88
917.59	-1.12
918.323	0.88
919.055	0.88
919.788	2.88
920.521	0.88
921.253	0.88
921.985	1.88
922.718	1.88
923.45	0.88
924.182	1.88
924.914	2.88
925.646	1.88
926.378	2.88
927.11	-1.12
927.841	-1.12
928.573	1.88
929.305	-1.12
930.036	1.88
930.768	-0.12
931.499	1.88
932.23	1.88
932.962	0.88
933.693	1.88
934.424	1.88
935.155	-0.12
935.886	1.88
936.617	0.88
937.348	-0.12
938.078	2.88
938.809	0.88
939.54	2.88
940.27	-0.12
941.001	1.88
941.731	-0.12
942.461	0.88
943.191	0.88
943.922	0.88
944.652	1.88
945.382	-1.12
946.112	1.88
946.841	-0.12
947.571	0.88
948.301	1.88
949.031	-0.12
949.76	2.88
950.49	-1.12
951.219	0.88
951.948	0.88
952.678	1.88
953.407	-0.12
954.136	0.88
954.865	2.88
955.594	0.88
956.323	-1.12
957.052	-0.12
957.78	-1.12
958.509	-1.12
959.238	1.88
959.966	1.88
960.695	-1.12
961.423	-0.12
962.151	-1.12
962.88	-0.12
963.608	1.88
964.336	1.88
965.064	-1.12
965.792	1.88
966.52	1.88
967.247	1.88
967.975	-0.12
968.703	1.88
969.43	1.88
970.158	1.88
970.885	0.88
971.613	-1.12
972.34	0.88
973.067	0.88
973.794	0.88
974.521	0.88
975.248	0.88
975.975	2.88
976.702	0.88
977.429	1.88
978.156	0.88
978.882	0.88
979.609	0.88
980.335	-1.12
981.062	0.88
981.788	-0.12
982.514	-0.12
983.24	-0.12
983.967	-1.12
984.693	3.88
985.419	-0.12
986.144	-0.12
986.87	1.88
987.596	0.88
988.322	-0.12
989.047	-1.12
989.773	0.88
990.498	-0.12
991.224	-1.12
991.949	0.88
992.674	1.88
993.399	1.88
994.124	1.88
994.849	2.88
995.574	1.88
996.299	0.88
997.024	1.88
997.749	0.88
998.473	0.88
999.198	1.88
999.922	0.88
1000.647	2.88
1001.371	0.88
1002.095	-1.12
1002.82	-1.12
1003.544	-2.12
1004.268	2.88
1004.992	0.88
1005.716	2.88
1006.439	1.88
1007.163	3.88
1007.887	2.88
1008.611	0.88
1009.334	2.88
1010.058	0.88
1010.781	1.88
1011.504	1.88
1012.228	0.88
1012.951	0.88
1013.674	0.88
1014.397	2.88
1015.12	-1.12
