节点500_425_QEPB04081__548__15-57-25-510.txt的数据

Date: Wed Nov 12 15:57:25 CST 2025
User: PC
Spectrometer: QEPB0408
触发模式: 0
积分时间 (秒): 1.000000E-2
Scans to average: 1
启用暗噪声校正: true
启用非线性校正: false
滑动平均宽度: 0
X轴模式: Wavelengths
Number of Pixels in Spectrum: 1044
>>>>>Begin Spectral Data<<<<<
220.843	2.25
221.644	0.25
222.444	1.25
223.244	-0.75
224.045	4.25
224.845	3.25
225.645	2.25
226.445	4.25
227.245	4.25
228.045	2.25
228.845	4.25
229.645	5.25
230.444	5.25
231.244	3.25
232.043	7.25
232.843	3.25
233.642	4.25
234.442	6.25
235.241	4.25
236.04	8.25
236.839	6.25
237.638	8.25
238.437	6.25
239.236	5.25
240.035	7.25
240.833	5.25
241.632	7.25
242.43	6.25
243.229	4.25
244.027	6.25
244.826	7.25
245.624	8.25
246.422	7.25
247.22	6.25
248.018	10.25
248.816	7.25
249.614	6.25
250.412	10.25
251.21	6.25
252.007	5.25
252.805	10.25
253.602	8.25
254.4	10.25
255.197	10.25
255.994	9.25
256.791	13.25
257.589	12.25
258.386	11.25
259.183	12.25
259.979	14.25
260.776	13.25
261.573	13.25
262.37	15.25
263.166	14.25
263.963	15.25
264.759	15.25
265.556	15.25
266.352	16.25
267.148	20.25
267.944	15.25
268.74	18.25
269.536	16.25
270.332	18.25
271.128	20.25
271.924	20.25
272.719	18.25
273.515	19.25
274.311	19.25
275.106	19.25
275.901	20.25
276.697	21.25
277.492	20.25
278.287	23.25
279.082	22.25
279.877	24.25
280.672	22.25
281.467	23.25
282.262	24.25
283.056	24.25
283.851	23.25
284.646	21.25
285.44	26.25
286.234	24.25
287.029	21.25
287.823	24.25
288.617	20.25
289.411	23.25
290.205	23.25
290.999	21.25
291.793	21.25
292.587	21.25
293.381	22.25
294.174	19.25
294.968	20.25
295.761	19.25
296.555	18.25
297.348	19.25
298.141	21.25
298.935	19.25
299.728	18.25
300.521	18.25
301.314	17.25
302.107	18.25
302.899	16.25
303.692	16.25
304.485	14.25
305.277	17.25
306.07	14.25
306.862	14.25
307.655	16.25
308.447	16.25
309.239	14.25
310.031	14.25
310.823	13.25
311.615	12.25
312.407	14.25
313.199	14.25
313.991	13.25
314.783	12.25
315.574	9.25
316.366	11.25
317.157	11.25
317.949	12.25
318.74	12.25
319.531	11.25
320.322	6.25
321.113	9.25
321.904	11.25
322.695	8.25
323.486	9.25
324.277	9.25
325.068	7.25
325.858	10.25
326.649	8.25
327.439	11.25
328.23	10.25
329.02	10.25
329.81	10.25
330.6	9.25
331.391	8.25
332.181	7.25
332.971	9.25
333.76	8.25
334.55	10.25
335.34	6.25
336.13	7.25
336.919	8.25
337.709	9.25
338.498	9.25
339.287	10.25
340.077	5.25
340.866	9.25
341.655	8.25
342.444	6.25
343.233	7.25
344.022	8.25
344.811	7.25
345.6	6.25
346.388	9.25
347.177	9.25
347.965	6.25
348.754	6.25
349.542	8.25
350.33	6.25
351.119	7.25
351.907	8.25
352.695	8.25
353.483	7.25
354.271	7.25
355.059	7.25
355.846	6.25
356.634	8.25
357.422	7.25
358.209	6.25
358.997	5.25
359.784	7.25
360.571	5.25
361.359	5.25
362.146	7.25
362.933	6.25
363.72	7.25
364.507	7.25
365.294	5.25
366.081	7.25
366.867	9.25
367.654	6.25
368.44	5.25
369.227	6.25
370.013	4.25
370.8	7.25
371.586	6.25
372.372	6.25
373.158	4.25
373.944	6.25
374.73	6.25
375.516	7.25
376.302	7.25
377.088	8.25
377.873	7.25
378.659	6.25
379.445	6.25
380.23	7.25
381.015	6.25
381.801	6.25
382.586	7.25
383.371	7.25
384.156	7.25
384.941	6.25
385.726	6.25
386.511	8.25
387.296	6.25
388.08	6.25
388.865	8.25
389.649	8.25
390.434	7.25
391.218	8.25
392.003	8.25
392.787	6.25
393.571	6.25
394.355	8.25
395.139	7.25
395.923	7.25
396.707	7.25
397.491	8.25
398.274	9.25
399.058	8.25
399.842	9.25
400.625	10.25
401.408	10.25
402.192	8.25
402.975	8.25
403.758	8.25
404.541	10.25
405.324	10.25
406.107	8.25
406.89	9.25
407.673	12.25
408.456	9.25
409.238	10.25
410.021	10.25
410.803	10.25
411.586	9.25
412.368	11.25
413.151	11.25
413.933	10.25
414.715	10.25
415.497	12.25
416.279	15.25
417.061	12.25
417.843	14.25
418.624	12.25
419.406	14.25
420.188	13.25
420.969	13.25
421.751	16.25
422.532	14.25
423.313	15.25
424.095	18.25
424.876	15.25
425.657	17.25
426.438	16.25
427.219	16.25
428	17.25
428.78	18.25
429.561	19.25
430.342	23.25
431.122	20.25
431.903	22.25
432.683	21.25
433.464	21.25
434.244	24.25
435.024	25.25
435.804	25.25
436.584	25.25
437.364	26.25
438.144	29.25
438.924	31.25
439.704	30.25
440.483	31.25
441.263	34.25
442.042	39.25
442.822	44.25
443.601	42.25
444.38	48.25
445.16	51.25
445.939	61.25
446.718	59.25
447.497	64.25
448.276	72.25
449.054	74.25
449.833	82.25
450.612	89.25
451.391	102.25
452.169	110.25
452.948	122.25
453.726	131.25
454.504	151.25
455.282	164.25
456.061	179.25
456.839	206.25
457.617	229.25
458.395	249.25
459.172	277.25
459.95	308.25
460.728	352.25
461.506	384.25
462.283	433.25
463.061	480.25
463.838	536.25
464.615	607.25
465.393	657.25
466.17	732.25
466.947	816.25
467.724	895.25
468.501	993.25
469.278	1114.25
470.055	1200.25
470.831	1328.25
471.608	1477.25
472.385	1646.25
473.161	1789.25
473.938	1976.25
474.714	2165.25
475.49	2371.25
476.266	2596.25
477.043	2846.25
477.819	3113.25
478.595	3404.25
479.371	3733.25
480.146	4086.25
480.922	4436.25
481.698	4830.25
482.473	5257.25
483.249	5732.25
484.024	6250.25
484.8	6812.25
485.575	7355.25
486.35	7984.25
487.126	8705.25
487.901	9400.25
488.676	10178.25
489.451	11038.25
490.225	11893.25
491	12879.25
491.775	13886.25
492.55	14898.25
493.324	16038.25
494.099	17101.25
494.873	18243.25
495.647	19461.25
496.422	20678.25
497.196	21959.25
497.97	23303.25
498.744	24614.25
499.518	25807.25
500.292	26975.25
501.066	28052.25
501.839	29236.25
502.613	30168.25
503.387	30968.25
504.16	31628.25
504.934	32232.25
505.707	32474.25
506.48	32572.25
507.253	32573.25
508.027	32535.25
508.8	32224.25
509.573	31790.25
510.346	31302.25
511.118	30631.25
511.891	29938.25
512.664	28993.25
513.437	28062.25
514.209	27098.25
514.982	26167.25
515.754	25220.25
516.526	24217.25
517.298	23263.25
518.071	22305.25
518.843	21452.25
519.615	20590.25
520.387	19764.25
521.159	19020.25
521.93	18292.25
522.702	17544.25
523.474	16943.25
524.245	16225.25
525.017	15539.25
525.788	14815.25
526.56	14147.25
527.331	13575.25
528.102	13004.25
528.873	12405.25
529.644	11847.25
530.415	11357.25
531.186	10841.25
531.957	10268.25
532.728	9745.25
533.498	9198.25
534.269	8764.25
535.039	8300.25
535.81	7835.25
536.58	7461.25
537.351	7020.25
538.121	6641.25
538.891	6239.25
539.661	5932.25
540.431	5652.25
541.201	5357.25
541.971	5079.25
542.741	4816.25
543.51	4548.25
544.28	4341.25
545.05	4124.25
545.819	3948.25
546.588	3742.25
547.358	3521.25
548.127	3352.25
548.896	3214.25
549.665	3048.25
550.434	2884.25
551.203	2758.25
551.972	2582.25
552.741	2452.25
553.51	2331.25
554.278	2184.25
555.047	2084.25
555.815	1957.25
556.584	1848.25
557.352	1742.25
558.121	1657.25
558.889	1564.25
559.657	1471.25
560.425	1406.25
561.193	1323.25
561.961	1261.25
562.729	1191.25
563.496	1124.25
564.264	1066.25
565.032	1008.25
565.799	944.25
566.567	891.25
567.334	842.25
568.101	791.25
568.869	759.25
569.636	721.25
570.403	679.25
571.17	629.25
571.937	597.25
572.704	572.25
573.471	534.25
574.237	504.25
575.004	475.25
575.771	453.25
576.537	416.25
577.303	399.25
578.07	380.25
578.836	357.25
579.602	327.25
580.368	312.25
581.134	300.25
581.9	279.25
582.666	270.25
583.432	253.25
584.198	242.25
584.964	231.25
585.729	220.25
586.495	206.25
587.26	190.25
588.025	184.25
588.791	170.25
589.556	165.25
590.321	153.25
591.086	148.25
591.851	143.25
592.616	131.25
593.381	128.25
594.146	125.25
594.911	119.25
595.675	112.25
596.44	106.25
597.204	103.25
597.969	98.25
598.733	95.25
599.497	89.25
600.261	88.25
601.025	82.25
601.79	75.25
602.553	74.25
603.317	75.25
604.081	67.25
604.845	64.25
605.609	62.25
606.372	58.25
607.136	55.25
607.899	53.25
608.662	52.25
609.426	53.25
610.189	49.25
610.952	48.25
611.715	47.25
612.478	44.25
613.241	43.25
614.004	41.25
614.767	37.25
615.529	38.25
616.292	36.25
617.055	36.25
617.817	32.25
618.579	32.25
619.342	31.25
620.104	28.25
620.866	30.25
621.628	28.25
622.39	29.25
623.152	26.25
623.914	25.25
624.676	26.25
625.438	20.25
626.199	23.25
626.961	21.25
627.722	23.25
628.484	22.25
629.245	22.25
630.006	18.25
630.768	22.25
631.529	18.25
632.29	16.25
633.051	19.25
633.812	17.25
634.573	16.25
635.333	18.25
636.094	15.25
636.855	14.25
637.615	14.25
638.376	13.25
639.136	14.25
639.896	12.25
640.657	16.25
641.417	13.25
642.177	10.25
642.937	13.25
643.697	12.25
644.457	11.25
645.216	10.25
645.976	11.25
646.736	10.25
647.495	11.25
648.255	6.25
649.014	11.25
649.774	12.25
650.533	7.25
651.292	9.25
652.051	10.25
652.81	9.25
653.569	11.25
654.328	9.25
655.087	8.25
655.846	10.25
656.604	8.25
657.363	8.25
658.121	9.25
658.88	6.25
659.638	7.25
660.397	9.25
661.155	3.25
661.913	7.25
662.671	8.25
663.429	6.25
664.187	8.25
664.945	7.25
665.703	7.25
666.46	7.25
667.218	5.25
667.976	7.25
668.733	5.25
669.49	7.25
670.248	7.25
671.005	6.25
671.762	4.25
672.519	7.25
673.276	7.25
674.033	5.25
674.79	7.25
675.547	5.25
676.304	4.25
677.06	6.25
677.817	6.25
678.574	8.25
679.33	4.25
680.086	7.25
680.843	4.25
681.599	5.25
682.355	7.25
683.111	4.25
683.867	6.25
684.623	5.25
685.379	7.25
686.135	6.25
686.89	5.25
687.646	4.25
688.402	4.25
689.157	7.25
689.912	4.25
690.668	5.25
691.423	5.25
692.178	6.25
692.933	4.25
693.688	5.25
694.443	5.25
695.198	6.25
695.953	2.25
696.708	6.25
697.462	3.25
698.217	5.25
698.972	5.25
699.726	4.25
700.48	4.25
701.235	5.25
701.989	7.25
702.743	4.25
703.497	4.25
704.251	1.25
705.005	4.25
705.759	5.25
706.513	5.25
707.266	6.25
708.02	7.25
708.774	6.25
709.527	6.25
710.28	4.25
711.034	5.25
711.787	6.25
712.54	5.25
713.293	3.25
714.046	3.25
714.799	4.25
715.552	3.25
716.305	4.25
717.058	4.25
717.81	4.25
718.563	5.25
719.315	5.25
720.068	3.25
720.82	6.25
721.573	5.25
722.325	5.25
723.077	6.25
723.829	4.25
724.581	4.25
725.333	5.25
726.085	6.25
726.836	4.25
727.588	7.25
728.34	7.25
729.091	4.25
729.843	3.25
730.594	7.25
731.346	5.25
732.097	6.25
732.848	6.25
733.599	7.25
734.35	4.25
735.101	5.25
735.852	7.25
736.603	4.25
737.354	6.25
738.104	7.25
738.855	6.25
739.605	5.25
740.356	5.25
741.106	7.25
741.856	6.25
742.607	6.25
743.357	5.25
744.107	9.25
744.857	7.25
745.607	9.25
746.357	4.25
747.106	5.25
747.856	8.25
748.606	8.25
749.355	7.25
750.105	5.25
750.854	8.25
751.603	6.25
752.353	8.25
753.102	8.25
753.851	8.25
754.6	7.25
755.349	7.25
756.098	6.25
756.847	8.25
757.595	9.25
758.344	6.25
759.093	6.25
759.841	8.25
760.589	7.25
761.338	9.25
762.086	8.25
762.834	9.25
763.582	9.25
764.331	7.25
765.079	9.25
765.826	9.25
766.574	9.25
767.322	8.25
768.07	9.25
768.817	12.25
769.565	8.25
770.312	10.25
771.06	8.25
771.807	8.25
772.554	11.25
773.302	6.25
774.049	9.25
774.796	8.25
775.543	12.25
776.29	10.25
777.036	11.25
777.783	9.25
778.53	11.25
779.276	10.25
780.023	10.25
780.769	10.25
781.516	13.25
782.262	11.25
783.008	9.25
783.754	11.25
784.5	12.25
785.246	12.25
785.992	10.25
786.738	11.25
787.484	10.25
788.23	11.25
788.975	10.25
789.721	11.25
790.466	9.25
791.212	9.25
791.957	10.25
792.702	9.25
793.447	9.25
794.193	11.25
794.938	11.25
795.683	10.25
796.427	12.25
797.172	9.25
797.917	10.25
798.662	10.25
799.406	9.25
800.151	11.25
800.895	8.25
801.64	11.25
802.384	10.25
803.128	8.25
803.872	7.25
804.616	11.25
805.36	9.25
806.104	9.25
806.848	9.25
807.592	8.25
808.336	7.25
809.079	7.25
809.823	8.25
810.566	6.25
811.31	7.25
812.053	8.25
812.796	6.25
813.539	9.25
814.283	6.25
815.026	7.25
815.769	7.25
816.511	5.25
817.254	6.25
817.997	7.25
818.74	7.25
819.482	7.25
820.225	7.25
820.967	6.25
821.71	5.25
822.452	4.25
823.194	4.25
823.936	8.25
824.678	5.25
825.42	7.25
826.162	4.25
826.904	6.25
827.646	4.25
828.388	3.25
829.129	4.25
829.871	6.25
830.612	5.25
831.354	4.25
832.095	4.25
832.836	6.25
833.577	5.25
834.319	4.25
835.06	6.25
835.801	4.25
836.542	5.25
837.282	5.25
838.023	4.25
838.764	7.25
839.504	3.25
840.245	7.25
840.985	2.25
841.726	5.25
842.466	4.25
843.206	4.25
843.946	4.25
844.687	3.25
845.427	3.25
846.166	3.25
846.906	3.25
847.646	4.25
848.386	2.25
849.125	3.25
849.865	3.25
850.605	3.25
851.344	4.25
852.083	4.25
852.823	3.25
853.562	2.25
854.301	3.25
855.04	1.25
855.779	4.25
856.518	3.25
857.257	5.25
857.995	6.25
858.734	2.25
859.473	5.25
860.211	4.25
860.95	0.25
861.688	1.25
862.426	2.25
863.165	2.25
863.903	2.25
864.641	4.25
865.379	2.25
866.117	0.25
866.855	0.25
867.593	3.25
868.33	2.25
869.068	4.25
869.806	1.25
870.543	1.25
871.28	0.25
872.018	2.25
872.755	2.25
873.492	0.25
874.229	1.25
874.967	2.25
875.703	1.25
876.44	2.25
877.177	2.25
877.914	2.25
878.651	1.25
879.387	2.25
880.124	3.25
880.86	1.25
881.597	0.25
882.333	0.25
883.069	0.25
883.806	2.25
884.542	2.25
885.278	1.25
886.014	2.25
886.749	-0.75
887.485	-0.75
888.221	2.25
888.957	0.25
889.692	3.25
890.428	0.25
891.163	1.25
891.899	1.25
892.634	0.25
893.369	2.25
894.104	0.25
894.839	2.25
895.574	0.25
896.309	1.25
897.044	1.25
897.779	1.25
898.514	3.25
899.248	-0.75
899.983	1.25
900.717	1.25
901.452	2.25
902.186	1.25
902.92	1.25
903.654	2.25
904.389	2.25
905.123	1.25
905.857	0.25
906.59	0.25
907.324	1.25
908.058	1.25
908.792	2.25
909.525	1.25
910.259	-0.75
910.992	1.25
911.726	0.25
912.459	2.25
913.192	-1.75
913.925	0.25
914.658	0.25
915.391	2.25
916.124	3.25
916.857	1.25
917.59	-0.75
918.323	2.25
919.055	-1.75
919.788	2.25
920.521	1.25
921.253	-0.75
921.985	1.25
922.718	1.25
923.45	0.25
924.182	1.25
924.914	-0.75
925.646	1.25
926.378	2.25
927.11	0.25
927.841	0.25
928.573	-0.75
929.305	0.25
930.036	1.25
930.768	-0.75
931.499	-1.75
932.23	1.25
932.962	-2.75
933.693	1.25
934.424	-0.75
935.155	0.25
935.886	0.25
936.617	0.25
937.348	-1.75
938.078	0.25
938.809	2.25
939.54	0.25
940.27	0.25
941.001	-1.75
941.731	-0.75
942.461	-0.75
943.191	0.25
943.922	0.25
944.652	3.25
945.382	-0.75
946.112	1.25
946.841	1.25
947.571	0.25
948.301	0.25
949.031	2.25
949.76	2.25
950.49	-0.75
951.219	-0.75
951.948	2.25
952.678	0.25
953.407	0.25
954.136	2.25
954.865	0.25
955.594	0.25
956.323	1.25
957.052	0.25
957.78	2.25
958.509	0.25
959.238	-0.75
959.966	1.25
960.695	-0.75
961.423	1.25
962.151	0.25
962.88	1.25
963.608	0.25
964.336	1.25
965.064	-0.75
965.792	2.25
966.52	0.25
967.247	0.25
967.975	0.25
968.703	0.25
969.43	-1.75
970.158	1.25
970.885	0.25
971.613	-1.75
972.34	2.25
973.067	1.25
973.794	1.25
974.521	0.25
975.248	1.25
975.975	-0.75
976.702	2.25
977.429	2.25
978.156	1.25
978.882	1.25
979.609	0.25
980.335	-0.75
981.062	0.25
981.788	0.25
982.514	2.25
983.24	-0.75
983.967	2.25
984.693	0.25
985.419	-0.75
986.144	0.25
986.87	-0.75
987.596	1.25
988.322	0.25
989.047	2.25
989.773	0.25
990.498	-1.75
991.224	1.25
991.949	1.25
992.674	0.25
993.399	0.25
994.124	-0.75
994.849	0.25
995.574	-0.75
996.299	1.25
997.024	2.25
997.749	-1.75
998.473	0.25
999.198	2.25
999.922	-0.75
1000.647	-0.75
1001.371	6.25
1002.095	-1.75
1002.82	-2.75
1003.544	-1.75
1004.268	1.25
1004.992	1.25
1005.716	4.25
1006.439	4.25
1007.163	2.25
1007.887	4.25
1008.611	0.25
1009.334	0.25
1010.058	0.25
1010.781	-2.75
1011.504	1.25
1012.228	-0.75
1012.951	1.25
1013.674	0.25
1014.397	0.25
1015.12	-1.75
