节点500_425_QEPB04081__481__15-56-18-565.txt的数据

Date: Wed Nov 12 15:56:18 CST 2025
User: PC
Spectrometer: QEPB0408
触发模式: 0
积分时间 (秒): 1.000000E-2
Scans to average: 1
启用暗噪声校正: true
启用非线性校正: false
滑动平均宽度: 0
X轴模式: Wavelengths
Number of Pixels in Spectrum: 1044
>>>>>Begin Spectral Data<<<<<
220.843	2.38
221.644	1.38
222.444	2.38
223.244	4.38
224.045	2.38
224.845	1.38
225.645	6.38
226.445	1.38
227.245	4.38
228.045	7.38
228.845	4.38
229.645	4.38
230.444	4.38
231.244	5.38
232.043	2.38
232.843	4.38
233.642	4.38
234.442	4.38
235.241	6.38
236.04	7.38
236.839	3.38
237.638	5.38
238.437	2.38
239.236	6.38
240.035	3.38
240.833	8.38
241.632	6.38
242.43	7.38
243.229	7.38
244.027	5.38
244.826	8.38
245.624	5.38
246.422	8.38
247.22	9.38
248.018	9.38
248.816	7.38
249.614	8.38
250.412	9.38
251.21	10.38
252.007	10.38
252.805	10.38
253.602	9.38
254.4	11.38
255.197	9.38
255.994	13.38
256.791	12.38
257.589	13.38
258.386	13.38
259.183	12.38
259.979	14.38
260.776	15.38
261.573	16.38
262.37	14.38
263.166	11.38
263.963	15.38
264.759	18.38
265.556	17.38
266.352	15.38
267.148	18.38
267.944	16.38
268.74	16.38
269.536	18.38
270.332	19.38
271.128	21.38
271.924	18.38
272.719	21.38
273.515	21.38
274.311	20.38
275.106	25.38
275.901	20.38
276.697	19.38
277.492	19.38
278.287	22.38
279.082	23.38
279.877	23.38
280.672	25.38
281.467	23.38
282.262	23.38
283.056	26.38
283.851	21.38
284.646	23.38
285.44	23.38
286.234	20.38
287.029	20.38
287.823	26.38
288.617	22.38
289.411	24.38
290.205	24.38
290.999	24.38
291.793	23.38
292.587	20.38
293.381	20.38
294.174	19.38
294.968	23.38
295.761	18.38
296.555	20.38
297.348	18.38
298.141	18.38
298.935	21.38
299.728	17.38
300.521	19.38
301.314	18.38
302.107	16.38
302.899	15.38
303.692	17.38
304.485	18.38
305.277	15.38
306.07	17.38
306.862	14.38
307.655	14.38
308.447	13.38
309.239	18.38
310.031	14.38
310.823	15.38
311.615	15.38
312.407	13.38
313.199	16.38
313.991	13.38
314.783	11.38
315.574	11.38
316.366	10.38
317.157	12.38
317.949	10.38
318.74	12.38
319.531	10.38
320.322	9.38
321.113	9.38
321.904	9.38
322.695	10.38
323.486	9.38
324.277	9.38
325.068	10.38
325.858	10.38
326.649	10.38
327.439	10.38
328.23	9.38
329.02	6.38
329.81	9.38
330.6	10.38
331.391	9.38
332.181	10.38
332.971	11.38
333.76	8.38
334.55	8.38
335.34	7.38
336.13	9.38
336.919	7.38
337.709	7.38
338.498	7.38
339.287	8.38
340.077	9.38
340.866	8.38
341.655	8.38
342.444	7.38
343.233	6.38
344.022	8.38
344.811	5.38
345.6	8.38
346.388	10.38
347.177	8.38
347.965	7.38
348.754	5.38
349.542	10.38
350.33	5.38
351.119	11.38
351.907	9.38
352.695	9.38
353.483	8.38
354.271	9.38
355.059	8.38
355.846	8.38
356.634	6.38
357.422	7.38
358.209	7.38
358.997	8.38
359.784	6.38
360.571	8.38
361.359	9.38
362.146	7.38
362.933	6.38
363.72	6.38
364.507	7.38
365.294	5.38
366.081	7.38
366.867	6.38
367.654	8.38
368.44	8.38
369.227	5.38
370.013	8.38
370.8	9.38
371.586	6.38
372.372	7.38
373.158	6.38
373.944	9.38
374.73	7.38
375.516	6.38
376.302	6.38
377.088	6.38
377.873	7.38
378.659	5.38
379.445	8.38
380.23	8.38
381.015	5.38
381.801	8.38
382.586	6.38
383.371	7.38
384.156	6.38
384.941	5.38
385.726	7.38
386.511	6.38
387.296	8.38
388.08	8.38
388.865	5.38
389.649	6.38
390.434	7.38
391.218	7.38
392.003	8.38
392.787	7.38
393.571	7.38
394.355	7.38
395.139	7.38
395.923	7.38
396.707	11.38
397.491	7.38
398.274	8.38
399.058	10.38
399.842	11.38
400.625	9.38
401.408	8.38
402.192	10.38
402.975	9.38
403.758	9.38
404.541	10.38
405.324	7.38
406.107	9.38
406.89	9.38
407.673	12.38
408.456	12.38
409.238	9.38
410.021	11.38
410.803	8.38
411.586	10.38
412.368	13.38
413.151	10.38
413.933	10.38
414.715	12.38
415.497	13.38
416.279	13.38
417.061	10.38
417.843	10.38
418.624	11.38
419.406	17.38
420.188	12.38
420.969	14.38
421.751	15.38
422.532	15.38
423.313	14.38
424.095	14.38
424.876	16.38
425.657	15.38
426.438	17.38
427.219	20.38
428	15.38
428.78	17.38
429.561	17.38
430.342	19.38
431.122	19.38
431.903	21.38
432.683	21.38
433.464	21.38
434.244	24.38
435.024	24.38
435.804	25.38
436.584	28.38
437.364	26.38
438.144	30.38
438.924	28.38
439.704	34.38
440.483	33.38
441.263	34.38
442.042	39.38
442.822	44.38
443.601	42.38
444.38	46.38
445.16	51.38
445.939	53.38
446.718	60.38
447.497	62.38
448.276	70.38
449.054	75.38
449.833	80.38
450.612	89.38
451.391	97.38
452.169	104.38
452.948	118.38
453.726	129.38
454.504	144.38
455.282	165.38
456.061	179.38
456.839	199.38
457.617	227.38
458.395	247.38
459.172	275.38
459.95	310.38
460.728	334.38
461.506	377.38
462.283	421.38
463.061	477.38
463.838	523.38
464.615	588.38
465.393	651.38
466.17	726.38
466.947	788.38
467.724	882.38
468.501	989.38
469.278	1082.38
470.055	1201.38
470.831	1323.38
471.608	1477.38
472.385	1611.38
473.161	1792.38
473.938	1973.38
474.714	2153.38
475.49	2374.38
476.266	2597.38
477.043	2853.38
477.819	3146.38
478.595	3449.38
479.371	3783.38
480.146	4132.38
480.922	4497.38
481.698	4906.38
482.473	5351.38
483.249	5847.38
484.024	6336.38
484.8	6954.38
485.575	7551.38
486.35	8231.38
487.126	8886.38
487.901	9677.38
488.676	10535.38
489.451	11404.38
490.225	12327.38
491	13337.38
491.775	14438.38
492.55	15480.38
493.324	16683.38
494.099	17838.38
494.873	19042.38
495.647	20347.38
496.422	21595.38
497.196	22938.38
497.97	24347.38
498.744	25614.38
499.518	26887.38
500.292	28100.38
501.066	29169.38
501.839	30330.38
502.613	31325.38
503.387	32024.38
504.16	32640.38
504.934	33140.38
505.707	33378.38
506.48	33509.38
507.253	33409.38
508.027	33200.38
508.8	32872.38
509.573	32359.38
510.346	31748.38
511.118	30926.38
511.891	30149.38
512.664	29201.38
513.437	28187.38
514.209	27189.38
514.982	26181.38
515.754	25245.38
516.526	24235.38
517.298	23233.38
518.071	22240.38
518.843	21378.38
519.615	20484.38
520.387	19650.38
521.159	18922.38
521.93	18226.38
522.702	17469.38
523.474	16810.38
524.245	16158.38
525.017	15467.38
525.788	14754.38
526.56	14122.38
527.331	13490.38
528.102	12899.38
528.873	12272.38
529.644	11718.38
530.415	11221.38
531.186	10678.38
531.957	10167.38
532.728	9632.38
533.498	9116.38
534.269	8644.38
535.039	8148.38
535.81	7758.38
536.58	7252.38
537.351	6869.38
538.121	6522.38
538.891	6179.38
539.661	5816.38
540.431	5564.38
541.201	5258.38
541.971	4991.38
542.741	4732.38
543.51	4471.38
544.28	4272.38
545.05	4053.38
545.819	3864.38
546.588	3670.38
547.358	3458.38
548.127	3302.38
548.896	3128.38
549.665	2986.38
550.434	2829.38
551.203	2705.38
551.972	2542.38
552.741	2410.38
553.51	2278.38
554.278	2158.38
555.047	2034.38
555.815	1924.38
556.584	1808.38
557.352	1716.38
558.121	1622.38
558.889	1520.38
559.657	1461.38
560.425	1363.38
561.193	1305.38
561.961	1227.38
562.729	1163.38
563.496	1089.38
564.264	1034.38
565.032	981.38
565.799	926.38
566.567	876.38
567.334	833.38
568.101	784.38
568.869	738.38
569.636	690.38
570.403	669.38
571.17	621.38
571.937	590.38
572.704	551.38
573.471	523.38
574.237	490.38
575.004	463.38
575.771	443.38
576.537	412.38
577.303	385.38
578.07	364.38
578.836	348.38
579.602	322.38
580.368	307.38
581.134	298.38
581.9	283.38
582.666	257.38
583.432	252.38
584.198	237.38
584.964	233.38
585.729	217.38
586.495	203.38
587.26	191.38
588.025	181.38
588.791	178.38
589.556	159.38
590.321	154.38
591.086	148.38
591.851	137.38
592.616	137.38
593.381	124.38
594.146	119.38
594.911	110.38
595.675	111.38
596.44	107.38
597.204	98.38
597.969	100.38
598.733	91.38
599.497	89.38
600.261	84.38
601.025	82.38
601.79	75.38
602.553	74.38
603.317	74.38
604.081	67.38
604.845	60.38
605.609	60.38
606.372	57.38
607.136	56.38
607.899	53.38
608.662	51.38
609.426	48.38
610.189	49.38
610.952	48.38
611.715	47.38
612.478	40.38
613.241	38.38
614.004	36.38
614.767	40.38
615.529	33.38
616.292	35.38
617.055	34.38
617.817	34.38
618.579	33.38
619.342	32.38
620.104	30.38
620.866	29.38
621.628	29.38
622.39	29.38
623.152	27.38
623.914	26.38
624.676	25.38
625.438	25.38
626.199	23.38
626.961	22.38
627.722	20.38
628.484	20.38
629.245	19.38
630.006	17.38
630.768	16.38
631.529	16.38
632.29	19.38
633.051	18.38
633.812	15.38
634.573	14.38
635.333	15.38
636.094	18.38
636.855	14.38
637.615	14.38
638.376	14.38
639.136	12.38
639.896	15.38
640.657	11.38
641.417	14.38
642.177	12.38
642.937	10.38
643.697	10.38
644.457	10.38
645.216	14.38
645.976	13.38
646.736	12.38
647.495	12.38
648.255	9.38
649.014	12.38
649.774	8.38
650.533	10.38
651.292	8.38
652.051	10.38
652.81	10.38
653.569	10.38
654.328	10.38
655.087	10.38
655.846	7.38
656.604	8.38
657.363	8.38
658.121	10.38
658.88	7.38
659.638	6.38
660.397	8.38
661.155	9.38
661.913	8.38
662.671	6.38
663.429	6.38
664.187	7.38
664.945	6.38
665.703	5.38
666.46	6.38
667.218	8.38
667.976	8.38
668.733	7.38
669.49	9.38
670.248	4.38
671.005	7.38
671.762	3.38
672.519	4.38
673.276	8.38
674.033	6.38
674.79	7.38
675.547	7.38
676.304	6.38
677.06	7.38
677.817	7.38
678.574	5.38
679.33	3.38
680.086	6.38
680.843	6.38
681.599	2.38
682.355	5.38
683.111	4.38
683.867	6.38
684.623	3.38
685.379	8.38
686.135	6.38
686.89	4.38
687.646	7.38
688.402	3.38
689.157	7.38
689.912	4.38
690.668	4.38
691.423	6.38
692.178	2.38
692.933	3.38
693.688	5.38
694.443	5.38
695.198	4.38
695.953	4.38
696.708	4.38
697.462	5.38
698.217	3.38
698.972	2.38
699.726	4.38
700.48	5.38
701.235	4.38
701.989	6.38
702.743	6.38
703.497	6.38
704.251	5.38
705.005	3.38
705.759	6.38
706.513	4.38
707.266	5.38
708.02	4.38
708.774	4.38
709.527	5.38
710.28	2.38
711.034	3.38
711.787	3.38
712.54	5.38
713.293	6.38
714.046	3.38
714.799	4.38
715.552	3.38
716.305	7.38
717.058	2.38
717.81	6.38
718.563	3.38
719.315	6.38
720.068	4.38
720.82	4.38
721.573	4.38
722.325	4.38
723.077	5.38
723.829	4.38
724.581	5.38
725.333	4.38
726.085	4.38
726.836	4.38
727.588	5.38
728.34	6.38
729.091	7.38
729.843	6.38
730.594	6.38
731.346	3.38
732.097	6.38
732.848	9.38
733.599	4.38
734.35	5.38
735.101	3.38
735.852	7.38
736.603	5.38
737.354	5.38
738.104	5.38
738.855	4.38
739.605	8.38
740.356	6.38
741.106	7.38
741.856	7.38
742.607	7.38
743.357	7.38
744.107	4.38
744.857	6.38
745.607	6.38
746.357	8.38
747.106	6.38
747.856	5.38
748.606	7.38
749.355	4.38
750.105	8.38
750.854	8.38
751.603	7.38
752.353	6.38
753.102	4.38
753.851	8.38
754.6	8.38
755.349	8.38
756.098	5.38
756.847	7.38
757.595	5.38
758.344	6.38
759.093	7.38
759.841	7.38
760.589	8.38
761.338	6.38
762.086	6.38
762.834	5.38
763.582	10.38
764.331	7.38
765.079	7.38
765.826	8.38
766.574	8.38
767.322	9.38
768.07	10.38
768.817	10.38
769.565	10.38
770.312	12.38
771.06	7.38
771.807	10.38
772.554	9.38
773.302	10.38
774.049	11.38
774.796	7.38
775.543	10.38
776.29	9.38
777.036	11.38
777.783	10.38
778.53	9.38
779.276	11.38
780.023	9.38
780.769	10.38
781.516	10.38
782.262	9.38
783.008	11.38
783.754	12.38
784.5	13.38
785.246	10.38
785.992	13.38
786.738	10.38
787.484	8.38
788.23	10.38
788.975	12.38
789.721	11.38
790.466	9.38
791.212	11.38
791.957	12.38
792.702	9.38
793.447	11.38
794.193	10.38
794.938	9.38
795.683	8.38
796.427	8.38
797.172	8.38
797.917	8.38
798.662	8.38
799.406	9.38
800.151	9.38
800.895	9.38
801.64	10.38
802.384	8.38
803.128	7.38
803.872	8.38
804.616	6.38
805.36	8.38
806.104	8.38
806.848	8.38
807.592	7.38
808.336	6.38
809.079	7.38
809.823	5.38
810.566	6.38
811.31	6.38
812.053	5.38
812.796	7.38
813.539	6.38
814.283	6.38
815.026	5.38
815.769	5.38
816.511	8.38
817.254	5.38
817.997	7.38
818.74	6.38
819.482	4.38
820.225	5.38
820.967	5.38
821.71	6.38
822.452	4.38
823.194	5.38
823.936	6.38
824.678	5.38
825.42	4.38
826.162	5.38
826.904	6.38
827.646	6.38
828.388	5.38
829.129	6.38
829.871	3.38
830.612	6.38
831.354	6.38
832.095	7.38
832.836	3.38
833.577	2.38
834.319	5.38
835.06	1.38
835.801	6.38
836.542	4.38
837.282	5.38
838.023	5.38
838.764	4.38
839.504	3.38
840.245	3.38
840.985	4.38
841.726	4.38
842.466	2.38
843.206	3.38
843.946	0.38
844.687	5.38
845.427	3.38
846.166	3.38
846.906	4.38
847.646	4.38
848.386	4.38
849.125	3.38
849.865	3.38
850.605	2.38
851.344	3.38
852.083	3.38
852.823	2.38
853.562	3.38
854.301	3.38
855.04	5.38
855.779	4.38
856.518	1.38
857.257	3.38
857.995	4.38
858.734	3.38
859.473	2.38
860.211	3.38
860.95	1.38
861.688	1.38
862.426	3.38
863.165	3.38
863.903	3.38
864.641	5.38
865.379	3.38
866.117	2.38
866.855	1.38
867.593	0.38
868.33	0.38
869.068	0.38
869.806	0.38
870.543	3.38
871.28	2.38
872.018	3.38
872.755	3.38
873.492	1.38
874.229	1.38
874.967	-0.62
875.703	0.38
876.44	1.38
877.177	2.38
877.914	1.38
878.651	2.38
879.387	0.38
880.124	1.38
880.86	1.38
881.597	2.38
882.333	0.38
883.069	2.38
883.806	-1.62
884.542	1.38
885.278	2.38
886.014	-0.62
886.749	2.38
887.485	1.38
888.221	0.38
888.957	2.38
889.692	-1.62
890.428	1.38
891.163	0.38
891.899	0.38
892.634	2.38
893.369	0.38
894.104	2.38
894.839	2.38
895.574	0.38
896.309	2.38
897.044	2.38
897.779	1.38
898.514	1.38
899.248	-1.62
899.983	0.38
900.717	-1.62
901.452	2.38
902.186	3.38
902.92	0.38
903.654	0.38
904.389	1.38
905.123	0.38
905.857	-0.62
906.59	1.38
907.324	1.38
908.058	1.38
908.792	-0.62
909.525	0.38
910.259	1.38
910.992	0.38
911.726	0.38
912.459	0.38
913.192	0.38
913.925	0.38
914.658	-0.62
915.391	1.38
916.124	-1.62
916.857	2.38
917.59	0.38
918.323	-0.62
919.055	0.38
919.788	1.38
920.521	2.38
921.253	1.38
921.985	1.38
922.718	-0.62
923.45	-1.62
924.182	-0.62
924.914	-1.62
925.646	0.38
926.378	1.38
927.11	-1.62
927.841	2.38
928.573	-0.62
929.305	1.38
930.036	0.38
930.768	-1.62
931.499	1.38
932.23	-0.62
932.962	2.38
933.693	0.38
934.424	-0.62
935.155	0.38
935.886	-0.62
936.617	0.38
937.348	-0.62
938.078	-1.62
938.809	-0.62
939.54	0.38
940.27	-1.62
941.001	-0.62
941.731	0.38
942.461	1.38
943.191	2.38
943.922	0.38
944.652	-0.62
945.382	1.38
946.112	1.38
946.841	0.38
947.571	0.38
948.301	2.38
949.031	0.38
949.76	-0.62
950.49	2.38
951.219	0.38
951.948	-0.62
952.678	0.38
953.407	-1.62
954.136	0.38
954.865	-1.62
955.594	0.38
956.323	2.38
957.052	-0.62
957.78	-0.62
958.509	1.38
959.238	2.38
959.966	0.38
960.695	1.38
961.423	-0.62
962.151	-2.62
962.88	0.38
963.608	1.38
964.336	-1.62
965.064	0.38
965.792	-1.62
966.52	0.38
967.247	-0.62
967.975	2.38
968.703	-0.62
969.43	2.38
970.158	2.38
970.885	-1.62
971.613	1.38
972.34	1.38
973.067	0.38
973.794	-1.62
974.521	-1.62
975.248	1.38
975.975	0.38
976.702	0.38
977.429	1.38
978.156	0.38
978.882	1.38
979.609	-1.62
980.335	3.38
981.062	0.38
981.788	-0.62
982.514	0.38
983.24	0.38
983.967	0.38
984.693	-0.62
985.419	1.38
986.144	1.38
986.87	0.38
987.596	1.38
988.322	-2.62
989.047	1.38
989.773	2.38
990.498	0.38
991.224	1.38
991.949	0.38
992.674	0.38
993.399	-0.62
994.124	0.38
994.849	-1.62
995.574	2.38
996.299	0.38
997.024	-1.62
997.749	2.38
998.473	-0.62
999.198	-0.62
999.922	1.38
1000.647	0.38
1001.371	4.38
1002.095	-0.62
1002.82	-1.62
1003.544	-2.62
1004.268	4.38
1004.992	2.38
1005.716	2.38
1006.439	3.38
1007.163	1.38
1007.887	2.38
1008.611	0.38
1009.334	1.38
1010.058	2.38
1010.781	0.38
1011.504	0.38
1012.228	0.38
1012.951	-1.62
1013.674	0.38
1014.397	0.38
1015.12	1.38
