节点500_425_QEPB04081__130__15-50-28-302.txt的数据

Date: Wed Nov 12 15:50:28 CST 2025
User: PC
Spectrometer: QEPB0408
触发模式: 0
积分时间 (秒): 1.000000E-2
Scans to average: 1
启用暗噪声校正: true
启用非线性校正: false
滑动平均宽度: 0
X轴模式: Wavelengths
Number of Pixels in Spectrum: 1044
>>>>>Begin Spectral Data<<<<<
220.843	1.12
221.644	5.12
222.444	6.12
223.244	1.12
224.045	2.12
224.845	5.12
225.645	5.12
226.445	2.12
227.245	1.12
228.045	5.12
228.845	2.12
229.645	5.12
230.444	4.12
231.244	4.12
232.043	5.12
232.843	5.12
233.642	5.12
234.442	8.12
235.241	5.12
236.04	5.12
236.839	4.12
237.638	3.12
238.437	2.12
239.236	6.12
240.035	5.12
240.833	9.12
241.632	6.12
242.43	8.12
243.229	6.12
244.027	10.12
244.826	8.12
245.624	7.12
246.422	9.12
247.22	10.12
248.018	9.12
248.816	10.12
249.614	9.12
250.412	9.12
251.21	10.12
252.007	11.12
252.805	10.12
253.602	11.12
254.4	11.12
255.197	10.12
255.994	13.12
256.791	12.12
257.589	13.12
258.386	11.12
259.183	12.12
259.979	16.12
260.776	16.12
261.573	15.12
262.37	16.12
263.166	16.12
263.963	19.12
264.759	17.12
265.556	19.12
266.352	18.12
267.148	17.12
267.944	19.12
268.74	20.12
269.536	19.12
270.332	22.12
271.128	21.12
271.924	23.12
272.719	23.12
273.515	24.12
274.311	22.12
275.106	23.12
275.901	22.12
276.697	23.12
277.492	23.12
278.287	25.12
279.082	24.12
279.877	25.12
280.672	27.12
281.467	25.12
282.262	25.12
283.056	24.12
283.851	22.12
284.646	25.12
285.44	28.12
286.234	24.12
287.029	28.12
287.823	23.12
288.617	27.12
289.411	24.12
290.205	24.12
290.999	22.12
291.793	23.12
292.587	23.12
293.381	23.12
294.174	24.12
294.968	22.12
295.761	22.12
296.555	23.12
297.348	18.12
298.141	22.12
298.935	22.12
299.728	22.12
300.521	15.12
301.314	18.12
302.107	16.12
302.899	20.12
303.692	16.12
304.485	17.12
305.277	19.12
306.07	13.12
306.862	15.12
307.655	16.12
308.447	14.12
309.239	14.12
310.031	14.12
310.823	16.12
311.615	13.12
312.407	10.12
313.199	13.12
313.991	10.12
314.783	13.12
315.574	10.12
316.366	11.12
317.157	12.12
317.949	10.12
318.74	10.12
319.531	11.12
320.322	10.12
321.113	9.12
321.904	9.12
322.695	10.12
323.486	10.12
324.277	8.12
325.068	10.12
325.858	9.12
326.649	11.12
327.439	10.12
328.23	10.12
329.02	10.12
329.81	8.12
330.6	5.12
331.391	6.12
332.181	10.12
332.971	7.12
333.76	5.12
334.55	9.12
335.34	7.12
336.13	10.12
336.919	9.12
337.709	9.12
338.498	8.12
339.287	8.12
340.077	8.12
340.866	7.12
341.655	8.12
342.444	7.12
343.233	8.12
344.022	10.12
344.811	9.12
345.6	7.12
346.388	6.12
347.177	9.12
347.965	8.12
348.754	7.12
349.542	9.12
350.33	7.12
351.119	9.12
351.907	6.12
352.695	4.12
353.483	8.12
354.271	8.12
355.059	6.12
355.846	6.12
356.634	8.12
357.422	9.12
358.209	9.12
358.997	6.12
359.784	4.12
360.571	8.12
361.359	6.12
362.146	8.12
362.933	5.12
363.72	7.12
364.507	7.12
365.294	7.12
366.081	8.12
366.867	8.12
367.654	6.12
368.44	5.12
369.227	8.12
370.013	6.12
370.8	4.12
371.586	7.12
372.372	7.12
373.158	5.12
373.944	6.12
374.73	8.12
375.516	8.12
376.302	6.12
377.088	6.12
377.873	6.12
378.659	8.12
379.445	7.12
380.23	6.12
381.015	6.12
381.801	6.12
382.586	4.12
383.371	8.12
384.156	7.12
384.941	9.12
385.726	8.12
386.511	8.12
387.296	7.12
388.08	7.12
388.865	10.12
389.649	8.12
390.434	8.12
391.218	10.12
392.003	5.12
392.787	9.12
393.571	4.12
394.355	8.12
395.139	9.12
395.923	9.12
396.707	10.12
397.491	7.12
398.274	9.12
399.058	10.12
399.842	10.12
400.625	10.12
401.408	11.12
402.192	14.12
402.975	9.12
403.758	11.12
404.541	11.12
405.324	10.12
406.107	10.12
406.89	8.12
407.673	12.12
408.456	11.12
409.238	12.12
410.021	10.12
410.803	12.12
411.586	12.12
412.368	10.12
413.151	13.12
413.933	10.12
414.715	14.12
415.497	12.12
416.279	12.12
417.061	14.12
417.843	11.12
418.624	14.12
419.406	12.12
420.188	14.12
420.969	16.12
421.751	14.12
422.532	17.12
423.313	14.12
424.095	17.12
424.876	16.12
425.657	15.12
426.438	17.12
427.219	15.12
428	17.12
428.78	17.12
429.561	15.12
430.342	20.12
431.122	18.12
431.903	19.12
432.683	21.12
433.464	23.12
434.244	25.12
435.024	22.12
435.804	27.12
436.584	26.12
437.364	26.12
438.144	26.12
438.924	28.12
439.704	31.12
440.483	33.12
441.263	34.12
442.042	37.12
442.822	40.12
443.601	46.12
444.38	40.12
445.16	46.12
445.939	52.12
446.718	55.12
447.497	62.12
448.276	65.12
449.054	66.12
449.833	74.12
450.612	85.12
451.391	87.12
452.169	102.12
452.948	106.12
453.726	118.12
454.504	132.12
455.282	149.12
456.061	161.12
456.839	174.12
457.617	195.12
458.395	219.12
459.172	245.12
459.95	271.12
460.728	307.12
461.506	350.12
462.283	379.12
463.061	416.12
463.838	489.12
464.615	528.12
465.393	592.12
466.17	672.12
466.947	745.12
467.724	832.12
468.501	941.12
469.278	1009.12
470.055	1140.12
470.831	1272.12
471.608	1415.12
472.385	1565.12
473.161	1743.12
473.938	1934.12
474.714	2145.12
475.49	2377.12
476.266	2613.12
477.043	2910.12
477.819	3227.12
478.595	3581.12
479.371	3891.12
480.146	4304.12
480.922	4716.12
481.698	5213.12
482.473	5745.12
483.249	6292.12
484.024	6944.12
484.8	7640.12
485.575	8326.12
486.35	9085.12
487.126	9984.12
487.901	10929.12
488.676	11923.12
489.451	13017.12
490.225	14093.12
491	15372.12
491.775	16696.12
492.55	18054.12
493.324	19471.12
494.099	20866.12
494.873	22273.12
495.647	23786.12
496.422	25296.12
497.196	26902.12
497.97	28489.12
498.744	29938.12
499.518	31332.12
500.292	32525.12
501.066	33636.12
501.839	34795.12
502.613	35569.12
503.387	36202.12
504.16	36597.12
504.934	36687.12
505.707	36676.12
506.48	36421.12
507.253	36014.12
508.027	35408.12
508.8	34755.12
509.573	33803.12
510.346	32900.12
511.118	31832.12
511.891	30698.12
512.664	29521.12
513.437	28282.12
514.209	27073.12
514.982	26076.12
515.754	24926.12
516.526	23772.12
517.298	22828.12
518.071	21833.12
518.843	20928.12
519.615	20029.12
520.387	19258.12
521.159	18518.12
521.93	17824.12
522.702	17133.12
523.474	16455.12
524.245	15772.12
525.017	15077.12
525.788	14369.12
526.56	13638.12
527.331	13037.12
528.102	12385.12
528.873	11773.12
529.644	11144.12
530.415	10692.12
531.186	10145.12
531.957	9619.12
532.728	9077.12
533.498	8564.12
534.269	8094.12
535.039	7644.12
535.81	7241.12
536.58	6822.12
537.351	6390.12
538.121	6072.12
538.891	5751.12
539.661	5482.12
540.431	5171.12
541.201	4900.12
541.971	4639.12
542.741	4420.12
543.51	4184.12
544.28	3979.12
545.05	3764.12
545.819	3594.12
546.588	3402.12
547.358	3214.12
548.127	3055.12
548.896	2913.12
549.665	2747.12
550.434	2631.12
551.203	2474.12
551.972	2342.12
552.741	2201.12
553.51	2101.12
554.278	1990.12
555.047	1864.12
555.815	1754.12
556.584	1652.12
557.352	1562.12
558.121	1472.12
558.889	1399.12
559.657	1326.12
560.425	1239.12
561.193	1188.12
561.961	1105.12
562.729	1054.12
563.496	994.12
564.264	935.12
565.032	879.12
565.799	850.12
566.567	800.12
567.334	743.12
568.101	709.12
568.869	666.12
569.636	634.12
570.403	600.12
571.17	561.12
571.937	526.12
572.704	498.12
573.471	477.12
574.237	450.12
575.004	421.12
575.771	403.12
576.537	368.12
577.303	352.12
578.07	332.12
578.836	314.12
579.602	292.12
580.368	282.12
581.134	266.12
581.9	258.12
582.666	240.12
583.432	227.12
584.198	215.12
584.964	204.12
585.729	194.12
586.495	177.12
587.26	174.12
588.025	165.12
588.791	156.12
589.556	151.12
590.321	140.12
591.086	141.12
591.851	123.12
592.616	120.12
593.381	117.12
594.146	108.12
594.911	104.12
595.675	103.12
596.44	98.12
597.204	91.12
597.969	91.12
598.733	87.12
599.497	78.12
600.261	75.12
601.025	72.12
601.79	68.12
602.553	65.12
603.317	65.12
604.081	58.12
604.845	61.12
605.609	56.12
606.372	54.12
607.136	53.12
607.899	52.12
608.662	50.12
609.426	48.12
610.189	41.12
610.952	46.12
611.715	42.12
612.478	37.12
613.241	42.12
614.004	42.12
614.767	36.12
615.529	36.12
616.292	36.12
617.055	32.12
617.817	29.12
618.579	30.12
619.342	26.12
620.104	27.12
620.866	28.12
621.628	30.12
622.39	25.12
623.152	28.12
623.914	25.12
624.676	23.12
625.438	22.12
626.199	23.12
626.961	23.12
627.722	20.12
628.484	17.12
629.245	18.12
630.006	20.12
630.768	16.12
631.529	19.12
632.29	16.12
633.051	15.12
633.812	15.12
634.573	12.12
635.333	14.12
636.094	15.12
636.855	14.12
637.615	15.12
638.376	12.12
639.136	13.12
639.896	13.12
640.657	15.12
641.417	10.12
642.177	11.12
642.937	13.12
643.697	10.12
644.457	10.12
645.216	13.12
645.976	13.12
646.736	15.12
647.495	11.12
648.255	10.12
649.014	10.12
649.774	9.12
650.533	8.12
651.292	9.12
652.051	11.12
652.81	11.12
653.569	9.12
654.328	8.12
655.087	7.12
655.846	7.12
656.604	9.12
657.363	7.12
658.121	9.12
658.88	8.12
659.638	7.12
660.397	5.12
661.155	9.12
661.913	7.12
662.671	7.12
663.429	7.12
664.187	6.12
664.945	6.12
665.703	6.12
666.46	4.12
667.218	7.12
667.976	8.12
668.733	8.12
669.49	3.12
670.248	7.12
671.005	7.12
671.762	8.12
672.519	5.12
673.276	5.12
674.033	7.12
674.79	6.12
675.547	4.12
676.304	3.12
677.06	6.12
677.817	7.12
678.574	8.12
679.33	5.12
680.086	7.12
680.843	6.12
681.599	0.12
682.355	5.12
683.111	4.12
683.867	6.12
684.623	5.12
685.379	6.12
686.135	6.12
686.89	4.12
687.646	7.12
688.402	5.12
689.157	6.12
689.912	5.12
690.668	4.12
691.423	6.12
692.178	5.12
692.933	5.12
693.688	5.12
694.443	6.12
695.198	5.12
695.953	4.12
696.708	5.12
697.462	7.12
698.217	6.12
698.972	5.12
699.726	3.12
700.48	6.12
701.235	6.12
701.989	5.12
702.743	7.12
703.497	4.12
704.251	7.12
705.005	3.12
705.759	4.12
706.513	5.12
707.266	5.12
708.02	5.12
708.774	4.12
709.527	4.12
710.28	3.12
711.034	3.12
711.787	5.12
712.54	3.12
713.293	5.12
714.046	5.12
714.799	5.12
715.552	4.12
716.305	5.12
717.058	4.12
717.81	4.12
718.563	6.12
719.315	5.12
720.068	4.12
720.82	5.12
721.573	6.12
722.325	5.12
723.077	5.12
723.829	7.12
724.581	3.12
725.333	5.12
726.085	2.12
726.836	-0.88
727.588	5.12
728.34	6.12
729.091	6.12
729.843	5.12
730.594	8.12
731.346	6.12
732.097	4.12
732.848	5.12
733.599	6.12
734.35	7.12
735.101	4.12
735.852	5.12
736.603	10.12
737.354	5.12
738.104	5.12
738.855	8.12
739.605	7.12
740.356	6.12
741.106	6.12
741.856	7.12
742.607	2.12
743.357	7.12
744.107	7.12
744.857	7.12
745.607	5.12
746.357	4.12
747.106	8.12
747.856	7.12
748.606	7.12
749.355	7.12
750.105	8.12
750.854	8.12
751.603	6.12
752.353	8.12
753.102	8.12
753.851	7.12
754.6	10.12
755.349	8.12
756.098	11.12
756.847	8.12
757.595	9.12
758.344	8.12
759.093	9.12
759.841	8.12
760.589	8.12
761.338	7.12
762.086	9.12
762.834	7.12
763.582	10.12
764.331	9.12
765.079	7.12
765.826	10.12
766.574	11.12
767.322	8.12
768.07	8.12
768.817	8.12
769.565	10.12
770.312	13.12
771.06	12.12
771.807	9.12
772.554	10.12
773.302	9.12
774.049	12.12
774.796	12.12
775.543	10.12
776.29	9.12
777.036	12.12
777.783	11.12
778.53	11.12
779.276	12.12
780.023	9.12
780.769	13.12
781.516	11.12
782.262	11.12
783.008	12.12
783.754	13.12
784.5	12.12
785.246	12.12
785.992	11.12
786.738	12.12
787.484	13.12
788.23	15.12
788.975	10.12
789.721	12.12
790.466	14.12
791.212	8.12
791.957	12.12
792.702	12.12
793.447	11.12
794.193	12.12
794.938	11.12
795.683	9.12
796.427	8.12
797.172	11.12
797.917	11.12
798.662	8.12
799.406	10.12
800.151	8.12
800.895	10.12
801.64	8.12
802.384	8.12
803.128	7.12
803.872	10.12
804.616	5.12
805.36	7.12
806.104	9.12
806.848	8.12
807.592	9.12
808.336	6.12
809.079	8.12
809.823	5.12
810.566	6.12
811.31	7.12
812.053	7.12
812.796	8.12
813.539	5.12
814.283	5.12
815.026	6.12
815.769	7.12
816.511	7.12
817.254	7.12
817.997	4.12
818.74	7.12
819.482	8.12
820.225	5.12
820.967	4.12
821.71	5.12
822.452	5.12
823.194	3.12
823.936	7.12
824.678	5.12
825.42	6.12
826.162	4.12
826.904	5.12
827.646	4.12
828.388	6.12
829.129	5.12
829.871	3.12
830.612	4.12
831.354	5.12
832.095	2.12
832.836	5.12
833.577	4.12
834.319	3.12
835.06	3.12
835.801	4.12
836.542	5.12
837.282	3.12
838.023	4.12
838.764	3.12
839.504	3.12
840.245	5.12
840.985	2.12
841.726	5.12
842.466	5.12
843.206	6.12
843.946	3.12
844.687	0.12
845.427	3.12
846.166	4.12
846.906	3.12
847.646	3.12
848.386	5.12
849.125	3.12
849.865	4.12
850.605	4.12
851.344	4.12
852.083	1.12
852.823	3.12
853.562	2.12
854.301	2.12
855.04	1.12
855.779	4.12
856.518	2.12
857.257	2.12
857.995	2.12
858.734	4.12
859.473	4.12
860.211	2.12
860.95	1.12
861.688	2.12
862.426	2.12
863.165	3.12
863.903	3.12
864.641	3.12
865.379	2.12
866.117	5.12
866.855	1.12
867.593	1.12
868.33	1.12
869.068	2.12
869.806	3.12
870.543	0.12
871.28	3.12
872.018	1.12
872.755	2.12
873.492	1.12
874.229	0.12
874.967	-0.88
875.703	2.12
876.44	1.12
877.177	-1.88
877.914	0.12
878.651	3.12
879.387	2.12
880.124	1.12
880.86	2.12
881.597	-0.88
882.333	4.12
883.069	-0.88
883.806	1.12
884.542	2.12
885.278	3.12
886.014	2.12
886.749	0.12
887.485	2.12
888.221	0.12
888.957	4.12
889.692	1.12
890.428	0.12
891.163	1.12
891.899	1.12
892.634	1.12
893.369	-1.88
894.104	-2.88
894.839	1.12
895.574	-0.88
896.309	0.12
897.044	1.12
897.779	2.12
898.514	1.12
899.248	-0.88
899.983	1.12
900.717	-1.88
901.452	1.12
902.186	0.12
902.92	-0.88
903.654	0.12
904.389	1.12
905.123	1.12
905.857	1.12
906.59	3.12
907.324	-0.88
908.058	-0.88
908.792	1.12
909.525	-0.88
910.259	1.12
910.992	-2.88
911.726	1.12
912.459	0.12
913.192	1.12
913.925	2.12
914.658	0.12
915.391	1.12
916.124	0.12
916.857	0.12
917.59	3.12
918.323	1.12
919.055	1.12
919.788	-0.88
920.521	0.12
921.253	1.12
921.985	0.12
922.718	0.12
923.45	-0.88
924.182	1.12
924.914	0.12
925.646	-1.88
926.378	0.12
927.11	-1.88
927.841	0.12
928.573	0.12
929.305	1.12
930.036	1.12
930.768	-1.88
931.499	0.12
932.23	0.12
932.962	2.12
933.693	-0.88
934.424	-1.88
935.155	0.12
935.886	-1.88
936.617	-0.88
937.348	-2.88
938.078	-1.88
938.809	0.12
939.54	1.12
940.27	1.12
941.001	0.12
941.731	-0.88
942.461	-1.88
943.191	-0.88
943.922	2.12
944.652	-0.88
945.382	-0.88
946.112	-0.88
946.841	0.12
947.571	-0.88
948.301	0.12
949.031	2.12
949.76	0.12
950.49	4.12
951.219	-2.88
951.948	0.12
952.678	-0.88
953.407	0.12
954.136	2.12
954.865	-0.88
955.594	2.12
956.323	-0.88
957.052	0.12
957.78	-1.88
958.509	1.12
959.238	0.12
959.966	0.12
960.695	0.12
961.423	0.12
962.151	-0.88
962.88	0.12
963.608	0.12
964.336	0.12
965.064	2.12
965.792	1.12
966.52	-0.88
967.247	1.12
967.975	0.12
968.703	-1.88
969.43	-0.88
970.158	1.12
970.885	-3.88
971.613	0.12
972.34	-1.88
973.067	0.12
973.794	-1.88
974.521	-0.88
975.248	0.12
975.975	1.12
976.702	0.12
977.429	2.12
978.156	-1.88
978.882	2.12
979.609	1.12
980.335	-0.88
981.062	0.12
981.788	1.12
982.514	0.12
983.24	-0.88
983.967	0.12
984.693	0.12
985.419	0.12
986.144	2.12
986.87	-0.88
987.596	-0.88
988.322	-0.88
989.047	1.12
989.773	-1.88
990.498	0.12
991.224	-0.88
991.949	-1.88
992.674	-0.88
993.399	0.12
994.124	0.12
994.849	1.12
995.574	1.12
996.299	0.12
997.024	0.12
997.749	0.12
998.473	0.12
999.198	1.12
999.922	2.12
1000.647	1.12
1001.371	5.12
1002.095	-1.88
1002.82	0.12
1003.544	-3.88
1004.268	2.12
1004.992	1.12
1005.716	3.12
1006.439	3.12
1007.163	1.12
1007.887	2.12
1008.611	1.12
1009.334	1.12
1010.058	-0.88
1010.781	-0.88
1011.504	0.12
1012.228	-1.88
1012.951	-0.88
1013.674	2.12
1014.397	0.12
1015.12	-0.88
