节点500_425_QEPB04081__222__15-52-00-057.txt的数据

Date: Wed Nov 12 15:52:00 CST 2025
User: PC
Spectrometer: QEPB0408
触发模式: 0
积分时间 (秒): 1.000000E-2
Scans to average: 1
启用暗噪声校正: true
启用非线性校正: false
滑动平均宽度: 0
X轴模式: Wavelengths
Number of Pixels in Spectrum: 1044
>>>>>Begin Spectral Data<<<<<
220.843	1.62
221.644	4.62
222.444	2.62
223.244	4.62
224.045	5.62
224.845	4.62
225.645	4.62
226.445	4.62
227.245	4.62
228.045	4.62
228.845	2.62
229.645	5.62
230.444	5.62
231.244	7.62
232.043	5.62
232.843	6.62
233.642	3.62
234.442	4.62
235.241	6.62
236.04	3.62
236.839	7.62
237.638	5.62
238.437	6.62
239.236	4.62
240.035	6.62
240.833	8.62
241.632	7.62
242.43	8.62
243.229	7.62
244.027	7.62
244.826	8.62
245.624	9.62
246.422	9.62
247.22	10.62
248.018	9.62
248.816	12.62
249.614	8.62
250.412	10.62
251.21	11.62
252.007	11.62
252.805	9.62
253.602	9.62
254.4	10.62
255.197	10.62
255.994	15.62
256.791	14.62
257.589	11.62
258.386	13.62
259.183	15.62
259.979	17.62
260.776	17.62
261.573	15.62
262.37	14.62
263.166	17.62
263.963	17.62
264.759	18.62
265.556	18.62
266.352	18.62
267.148	21.62
267.944	21.62
268.74	18.62
269.536	23.62
270.332	22.62
271.128	21.62
271.924	22.62
272.719	21.62
273.515	23.62
274.311	22.62
275.106	25.62
275.901	23.62
276.697	25.62
277.492	23.62
278.287	24.62
279.082	25.62
279.877	20.62
280.672	29.62
281.467	26.62
282.262	23.62
283.056	24.62
283.851	26.62
284.646	23.62
285.44	25.62
286.234	24.62
287.029	23.62
287.823	24.62
288.617	24.62
289.411	23.62
290.205	25.62
290.999	26.62
291.793	20.62
292.587	21.62
293.381	22.62
294.174	20.62
294.968	23.62
295.761	22.62
296.555	19.62
297.348	18.62
298.141	20.62
298.935	22.62
299.728	20.62
300.521	18.62
301.314	17.62
302.107	16.62
302.899	17.62
303.692	17.62
304.485	17.62
305.277	20.62
306.07	15.62
306.862	15.62
307.655	19.62
308.447	14.62
309.239	16.62
310.031	16.62
310.823	12.62
311.615	14.62
312.407	13.62
313.199	14.62
313.991	12.62
314.783	12.62
315.574	10.62
316.366	13.62
317.157	12.62
317.949	12.62
318.74	13.62
319.531	10.62
320.322	9.62
321.113	10.62
321.904	11.62
322.695	10.62
323.486	11.62
324.277	8.62
325.068	11.62
325.858	11.62
326.649	8.62
327.439	9.62
328.23	10.62
329.02	9.62
329.81	9.62
330.6	10.62
331.391	10.62
332.181	10.62
332.971	12.62
333.76	8.62
334.55	8.62
335.34	7.62
336.13	11.62
336.919	9.62
337.709	10.62
338.498	9.62
339.287	6.62
340.077	8.62
340.866	11.62
341.655	9.62
342.444	10.62
343.233	8.62
344.022	7.62
344.811	5.62
345.6	9.62
346.388	9.62
347.177	10.62
347.965	9.62
348.754	10.62
349.542	7.62
350.33	5.62
351.119	8.62
351.907	7.62
352.695	7.62
353.483	7.62
354.271	7.62
355.059	8.62
355.846	7.62
356.634	8.62
357.422	5.62
358.209	8.62
358.997	7.62
359.784	7.62
360.571	7.62
361.359	8.62
362.146	5.62
362.933	8.62
363.72	4.62
364.507	6.62
365.294	7.62
366.081	9.62
366.867	7.62
367.654	7.62
368.44	7.62
369.227	4.62
370.013	6.62
370.8	8.62
371.586	6.62
372.372	8.62
373.158	7.62
373.944	7.62
374.73	7.62
375.516	8.62
376.302	6.62
377.088	6.62
377.873	5.62
378.659	5.62
379.445	9.62
380.23	6.62
381.015	8.62
381.801	8.62
382.586	6.62
383.371	7.62
384.156	4.62
384.941	8.62
385.726	7.62
386.511	9.62
387.296	7.62
388.08	10.62
388.865	8.62
389.649	7.62
390.434	9.62
391.218	6.62
392.003	10.62
392.787	7.62
393.571	7.62
394.355	9.62
395.139	6.62
395.923	8.62
396.707	8.62
397.491	9.62
398.274	8.62
399.058	8.62
399.842	10.62
400.625	8.62
401.408	9.62
402.192	9.62
402.975	10.62
403.758	11.62
404.541	9.62
405.324	8.62
406.107	11.62
406.89	9.62
407.673	10.62
408.456	9.62
409.238	10.62
410.021	11.62
410.803	9.62
411.586	12.62
412.368	11.62
413.151	11.62
413.933	12.62
414.715	12.62
415.497	14.62
416.279	12.62
417.061	13.62
417.843	13.62
418.624	13.62
419.406	13.62
420.188	13.62
420.969	15.62
421.751	13.62
422.532	15.62
423.313	15.62
424.095	17.62
424.876	16.62
425.657	15.62
426.438	16.62
427.219	16.62
428	18.62
428.78	19.62
429.561	18.62
430.342	20.62
431.122	18.62
431.903	21.62
432.683	21.62
433.464	23.62
434.244	22.62
435.024	24.62
435.804	24.62
436.584	26.62
437.364	27.62
438.144	28.62
438.924	32.62
439.704	33.62
440.483	33.62
441.263	37.62
442.042	40.62
442.822	41.62
443.601	44.62
444.38	45.62
445.16	49.62
445.939	49.62
446.718	57.62
447.497	60.62
448.276	66.62
449.054	72.62
449.833	77.62
450.612	86.62
451.391	91.62
452.169	101.62
452.948	112.62
453.726	122.62
454.504	135.62
455.282	146.62
456.061	168.62
456.839	184.62
457.617	202.62
458.395	220.62
459.172	252.62
459.95	279.62
460.728	314.62
461.506	349.62
462.283	386.62
463.061	441.62
463.838	496.62
464.615	542.62
465.393	608.62
466.17	676.62
466.947	752.62
467.724	846.62
468.501	940.62
469.278	1045.62
470.055	1173.62
470.831	1292.62
471.608	1434.62
472.385	1592.62
473.161	1757.62
473.938	1945.62
474.714	2153.62
475.49	2387.62
476.266	2622.62
477.043	2881.62
477.819	3205.62
478.595	3532.62
479.371	3890.62
480.146	4274.62
480.922	4693.62
481.698	5117.62
482.473	5652.62
483.249	6192.62
484.024	6827.62
484.8	7493.62
485.575	8131.62
486.35	8890.62
487.126	9710.62
487.901	10588.62
488.676	11594.62
489.451	12564.62
490.225	13691.62
491	14852.62
491.775	16134.62
492.55	17413.62
493.324	18724.62
494.099	20098.62
494.873	21420.62
495.647	22912.62
496.422	24378.62
497.196	25887.62
497.97	27397.62
498.744	28810.62
499.518	30232.62
500.292	31409.62
501.066	32576.62
501.839	33756.62
502.613	34520.62
503.387	35183.62
504.16	35795.62
504.934	36006.62
505.707	35932.62
506.48	35785.62
507.253	35500.62
508.027	35083.62
508.8	34370.62
509.573	33610.62
510.346	32695.62
511.118	31690.62
511.891	30724.62
512.664	29601.62
513.437	28368.62
514.209	27186.62
514.982	26167.62
515.754	25069.62
516.526	23948.62
517.298	22953.62
518.071	21945.62
518.843	21065.62
519.615	20223.62
520.387	19391.62
521.159	18682.62
521.93	17975.62
522.702	17225.62
523.474	16538.62
524.245	15912.62
525.017	15176.62
525.788	14413.62
526.56	13769.62
527.331	13192.62
528.102	12583.62
528.873	11960.62
529.644	11341.62
530.415	10818.62
531.186	10295.62
531.957	9703.62
532.728	9234.62
533.498	8722.62
534.269	8249.62
535.039	7779.62
535.81	7369.62
536.58	6955.62
537.351	6559.62
538.121	6199.62
538.891	5873.62
539.661	5588.62
540.431	5242.62
541.201	4991.62
541.971	4717.62
542.741	4486.62
543.51	4272.62
544.28	4052.62
545.05	3844.62
545.819	3671.62
546.588	3474.62
547.358	3303.62
548.127	3115.62
548.896	2974.62
549.665	2815.62
550.434	2675.62
551.203	2529.62
551.972	2394.62
552.741	2272.62
553.51	2143.62
554.278	2012.62
555.047	1897.62
555.815	1800.62
556.584	1713.62
557.352	1616.62
558.121	1515.62
558.889	1426.62
559.657	1342.62
560.425	1280.62
561.193	1206.62
561.961	1144.62
562.729	1092.62
563.496	1015.62
564.264	975.62
565.032	917.62
565.799	858.62
566.567	821.62
567.334	778.62
568.101	725.62
568.869	688.62
569.636	638.62
570.403	606.62
571.17	573.62
571.937	544.62
572.704	524.62
573.471	490.62
574.237	451.62
575.004	427.62
575.771	409.62
576.537	378.62
577.303	355.62
578.07	340.62
578.836	325.62
579.602	298.62
580.368	288.62
581.134	275.62
581.9	260.62
582.666	245.62
583.432	229.62
584.198	221.62
584.964	212.62
585.729	200.62
586.495	185.62
587.26	176.62
588.025	171.62
588.791	161.62
589.556	152.62
590.321	149.62
591.086	142.62
591.851	130.62
592.616	123.62
593.381	118.62
594.146	114.62
594.911	109.62
595.675	100.62
596.44	103.62
597.204	90.62
597.969	89.62
598.733	85.62
599.497	82.62
600.261	79.62
601.025	76.62
601.79	73.62
602.553	69.62
603.317	63.62
604.081	62.62
604.845	59.62
605.609	54.62
606.372	59.62
607.136	53.62
607.899	51.62
608.662	48.62
609.426	45.62
610.189	48.62
610.952	42.62
611.715	43.62
612.478	41.62
613.241	39.62
614.004	40.62
614.767	36.62
615.529	36.62
616.292	37.62
617.055	33.62
617.817	33.62
618.579	27.62
619.342	26.62
620.104	30.62
620.866	28.62
621.628	28.62
622.39	24.62
623.152	28.62
623.914	22.62
624.676	25.62
625.438	21.62
626.199	23.62
626.961	24.62
627.722	18.62
628.484	20.62
629.245	20.62
630.006	22.62
630.768	20.62
631.529	16.62
632.29	19.62
633.051	17.62
633.812	17.62
634.573	14.62
635.333	15.62
636.094	15.62
636.855	15.62
637.615	13.62
638.376	14.62
639.136	14.62
639.896	11.62
640.657	12.62
641.417	13.62
642.177	14.62
642.937	13.62
643.697	12.62
644.457	14.62
645.216	14.62
645.976	12.62
646.736	10.62
647.495	9.62
648.255	11.62
649.014	10.62
649.774	10.62
650.533	10.62
651.292	8.62
652.051	10.62
652.81	7.62
653.569	7.62
654.328	6.62
655.087	8.62
655.846	8.62
656.604	9.62
657.363	10.62
658.121	9.62
658.88	8.62
659.638	7.62
660.397	5.62
661.155	7.62
661.913	7.62
662.671	8.62
663.429	7.62
664.187	7.62
664.945	4.62
665.703	6.62
666.46	7.62
667.218	9.62
667.976	6.62
668.733	7.62
669.49	6.62
670.248	7.62
671.005	4.62
671.762	5.62
672.519	5.62
673.276	8.62
674.033	7.62
674.79	5.62
675.547	6.62
676.304	5.62
677.06	8.62
677.817	6.62
678.574	7.62
679.33	7.62
680.086	4.62
680.843	6.62
681.599	6.62
682.355	8.62
683.111	4.62
683.867	6.62
684.623	5.62
685.379	4.62
686.135	5.62
686.89	4.62
687.646	5.62
688.402	6.62
689.157	4.62
689.912	2.62
690.668	4.62
691.423	6.62
692.178	6.62
692.933	5.62
693.688	7.62
694.443	6.62
695.198	5.62
695.953	7.62
696.708	5.62
697.462	5.62
698.217	5.62
698.972	5.62
699.726	4.62
700.48	7.62
701.235	4.62
701.989	4.62
702.743	6.62
703.497	4.62
704.251	3.62
705.005	6.62
705.759	3.62
706.513	3.62
707.266	4.62
708.02	6.62
708.774	5.62
709.527	6.62
710.28	5.62
711.034	5.62
711.787	5.62
712.54	4.62
713.293	7.62
714.046	4.62
714.799	6.62
715.552	4.62
716.305	4.62
717.058	3.62
717.81	4.62
718.563	8.62
719.315	5.62
720.068	5.62
720.82	6.62
721.573	5.62
722.325	5.62
723.077	6.62
723.829	3.62
724.581	5.62
725.333	4.62
726.085	2.62
726.836	5.62
727.588	6.62
728.34	6.62
729.091	4.62
729.843	5.62
730.594	4.62
731.346	5.62
732.097	6.62
732.848	4.62
733.599	5.62
734.35	4.62
735.101	5.62
735.852	4.62
736.603	8.62
737.354	6.62
738.104	6.62
738.855	7.62
739.605	6.62
740.356	5.62
741.106	5.62
741.856	6.62
742.607	8.62
743.357	6.62
744.107	5.62
744.857	8.62
745.607	7.62
746.357	7.62
747.106	8.62
747.856	5.62
748.606	6.62
749.355	8.62
750.105	8.62
750.854	8.62
751.603	8.62
752.353	8.62
753.102	8.62
753.851	4.62
754.6	7.62
755.349	8.62
756.098	8.62
756.847	8.62
757.595	7.62
758.344	9.62
759.093	9.62
759.841	10.62
760.589	7.62
761.338	9.62
762.086	8.62
762.834	8.62
763.582	12.62
764.331	7.62
765.079	9.62
765.826	10.62
766.574	9.62
767.322	8.62
768.07	8.62
768.817	10.62
769.565	7.62
770.312	10.62
771.06	10.62
771.807	10.62
772.554	9.62
773.302	11.62
774.049	12.62
774.796	13.62
775.543	11.62
776.29	11.62
777.036	10.62
777.783	12.62
778.53	10.62
779.276	10.62
780.023	10.62
780.769	10.62
781.516	12.62
782.262	11.62
783.008	14.62
783.754	12.62
784.5	13.62
785.246	14.62
785.992	12.62
786.738	11.62
787.484	14.62
788.23	9.62
788.975	11.62
789.721	9.62
790.466	11.62
791.212	13.62
791.957	11.62
792.702	10.62
793.447	11.62
794.193	12.62
794.938	10.62
795.683	11.62
796.427	12.62
797.172	10.62
797.917	9.62
798.662	9.62
799.406	8.62
800.151	10.62
800.895	10.62
801.64	11.62
802.384	9.62
803.128	10.62
803.872	7.62
804.616	9.62
805.36	8.62
806.104	7.62
806.848	6.62
807.592	7.62
808.336	9.62
809.079	6.62
809.823	9.62
810.566	7.62
811.31	7.62
812.053	9.62
812.796	8.62
813.539	6.62
814.283	8.62
815.026	5.62
815.769	6.62
816.511	5.62
817.254	7.62
817.997	7.62
818.74	4.62
819.482	6.62
820.225	8.62
820.967	7.62
821.71	6.62
822.452	6.62
823.194	4.62
823.936	5.62
824.678	4.62
825.42	5.62
826.162	4.62
826.904	6.62
827.646	4.62
828.388	4.62
829.129	3.62
829.871	7.62
830.612	3.62
831.354	6.62
832.095	6.62
832.836	5.62
833.577	5.62
834.319	4.62
835.06	4.62
835.801	2.62
836.542	5.62
837.282	5.62
838.023	5.62
838.764	5.62
839.504	2.62
840.245	4.62
840.985	2.62
841.726	4.62
842.466	4.62
843.206	2.62
843.946	3.62
844.687	4.62
845.427	5.62
846.166	3.62
846.906	3.62
847.646	5.62
848.386	2.62
849.125	5.62
849.865	6.62
850.605	3.62
851.344	4.62
852.083	3.62
852.823	3.62
853.562	3.62
854.301	4.62
855.04	2.62
855.779	3.62
856.518	2.62
857.257	3.62
857.995	1.62
858.734	3.62
859.473	3.62
860.211	2.62
860.95	1.62
861.688	3.62
862.426	1.62
863.165	4.62
863.903	1.62
864.641	1.62
865.379	2.62
866.117	2.62
866.855	4.62
867.593	4.62
868.33	3.62
869.068	2.62
869.806	5.62
870.543	4.62
871.28	1.62
872.018	3.62
872.755	1.62
873.492	1.62
874.229	2.62
874.967	0.62
875.703	1.62
876.44	0.62
877.177	2.62
877.914	2.62
878.651	1.62
879.387	2.62
880.124	2.62
880.86	0.62
881.597	2.62
882.333	-0.38
883.069	1.62
883.806	1.62
884.542	1.62
885.278	1.62
886.014	-1.38
886.749	2.62
887.485	-1.38
888.221	2.62
888.957	3.62
889.692	1.62
890.428	-1.38
891.163	-0.38
891.899	0.62
892.634	2.62
893.369	2.62
894.104	0.62
894.839	2.62
895.574	1.62
896.309	0.62
897.044	1.62
897.779	-0.38
898.514	0.62
899.248	1.62
899.983	-1.38
900.717	1.62
901.452	-0.38
902.186	3.62
902.92	2.62
903.654	-1.38
904.389	2.62
905.123	-1.38
905.857	1.62
906.59	1.62
907.324	1.62
908.058	1.62
908.792	0.62
909.525	-0.38
910.259	0.62
910.992	1.62
911.726	0.62
912.459	0.62
913.192	0.62
913.925	0.62
914.658	1.62
915.391	0.62
916.124	2.62
916.857	1.62
917.59	1.62
918.323	-0.38
919.055	-0.38
919.788	0.62
920.521	1.62
921.253	0.62
921.985	2.62
922.718	1.62
923.45	2.62
924.182	-1.38
924.914	1.62
925.646	1.62
926.378	1.62
927.11	1.62
927.841	-1.38
928.573	1.62
929.305	-0.38
930.036	-0.38
930.768	0.62
931.499	1.62
932.23	0.62
932.962	-1.38
933.693	1.62
934.424	-0.38
935.155	-1.38
935.886	0.62
936.617	-0.38
937.348	1.62
938.078	-1.38
938.809	-0.38
939.54	-1.38
940.27	-0.38
941.001	0.62
941.731	1.62
942.461	0.62
943.191	-0.38
943.922	1.62
944.652	-0.38
945.382	-1.38
946.112	1.62
946.841	0.62
947.571	0.62
948.301	-0.38
949.031	0.62
949.76	2.62
950.49	-1.38
951.219	-0.38
951.948	2.62
952.678	0.62
953.407	2.62
954.136	-1.38
954.865	0.62
955.594	-1.38
956.323	0.62
957.052	0.62
957.78	-2.38
958.509	-0.38
959.238	-0.38
959.966	0.62
960.695	-0.38
961.423	0.62
962.151	-1.38
962.88	2.62
963.608	0.62
964.336	1.62
965.064	3.62
965.792	2.62
966.52	2.62
967.247	0.62
967.975	0.62
968.703	1.62
969.43	1.62
970.158	0.62
970.885	0.62
971.613	0.62
972.34	1.62
973.067	0.62
973.794	-1.38
974.521	-0.38
975.248	-0.38
975.975	-0.38
976.702	2.62
977.429	-0.38
978.156	1.62
978.882	0.62
979.609	-0.38
980.335	0.62
981.062	-1.38
981.788	-0.38
982.514	0.62
983.24	0.62
983.967	-0.38
984.693	0.62
985.419	1.62
986.144	0.62
986.87	1.62
987.596	2.62
988.322	0.62
989.047	-1.38
989.773	0.62
990.498	-0.38
991.224	4.62
991.949	1.62
992.674	-0.38
993.399	0.62
994.124	-0.38
994.849	1.62
995.574	-0.38
996.299	0.62
997.024	-1.38
997.749	-0.38
998.473	-1.38
999.198	0.62
999.922	2.62
1000.647	-0.38
1001.371	2.62
1002.095	0.62
1002.82	-2.38
1003.544	-1.38
1004.268	1.62
1004.992	1.62
1005.716	3.62
1006.439	5.62
1007.163	3.62
1007.887	4.62
1008.611	1.62
1009.334	1.62
1010.058	0.62
1010.781	3.62
1011.504	-1.38
1012.228	0.62
1012.951	0.62
1013.674	0.62
1014.397	0.62
1015.12	-1.38
