节点500_425_QEPB04081__506__15-56-43-579.txt的数据

Date: Wed Nov 12 15:56:43 CST 2025
User: PC
Spectrometer: QEPB0408
触发模式: 0
积分时间 (秒): 1.000000E-2
Scans to average: 1
启用暗噪声校正: true
启用非线性校正: false
滑动平均宽度: 0
X轴模式: Wavelengths
Number of Pixels in Spectrum: 1044
>>>>>Begin Spectral Data<<<<<
220.843	0.62
221.644	2.62
222.444	1.62
223.244	2.62
224.045	4.62
224.845	3.62
225.645	0.62
226.445	3.62
227.245	5.62
228.045	4.62
228.845	3.62
229.645	4.62
230.444	4.62
231.244	4.62
232.043	5.62
232.843	5.62
233.642	4.62
234.442	5.62
235.241	5.62
236.04	7.62
236.839	6.62
237.638	7.62
238.437	4.62
239.236	4.62
240.035	7.62
240.833	7.62
241.632	6.62
242.43	6.62
243.229	7.62
244.027	5.62
244.826	6.62
245.624	7.62
246.422	7.62
247.22	9.62
248.018	8.62
248.816	9.62
249.614	8.62
250.412	6.62
251.21	8.62
252.007	7.62
252.805	10.62
253.602	11.62
254.4	10.62
255.197	12.62
255.994	11.62
256.791	8.62
257.589	10.62
258.386	10.62
259.183	10.62
259.979	15.62
260.776	14.62
261.573	11.62
262.37	16.62
263.166	15.62
263.963	16.62
264.759	16.62
265.556	16.62
266.352	16.62
267.148	13.62
267.944	18.62
268.74	18.62
269.536	19.62
270.332	18.62
271.128	20.62
271.924	20.62
272.719	19.62
273.515	18.62
274.311	17.62
275.106	21.62
275.901	20.62
276.697	23.62
277.492	24.62
278.287	21.62
279.082	22.62
279.877	23.62
280.672	22.62
281.467	22.62
282.262	21.62
283.056	21.62
283.851	25.62
284.646	27.62
285.44	23.62
286.234	21.62
287.029	20.62
287.823	21.62
288.617	21.62
289.411	22.62
290.205	22.62
290.999	22.62
291.793	21.62
292.587	21.62
293.381	21.62
294.174	20.62
294.968	20.62
295.761	20.62
296.555	17.62
297.348	18.62
298.141	20.62
298.935	24.62
299.728	20.62
300.521	21.62
301.314	16.62
302.107	16.62
302.899	17.62
303.692	18.62
304.485	17.62
305.277	13.62
306.07	17.62
306.862	13.62
307.655	15.62
308.447	16.62
309.239	16.62
310.031	15.62
310.823	14.62
311.615	16.62
312.407	10.62
313.199	14.62
313.991	14.62
314.783	13.62
315.574	10.62
316.366	10.62
317.157	11.62
317.949	9.62
318.74	11.62
319.531	7.62
320.322	9.62
321.113	10.62
321.904	9.62
322.695	8.62
323.486	10.62
324.277	8.62
325.068	11.62
325.858	7.62
326.649	11.62
327.439	6.62
328.23	12.62
329.02	9.62
329.81	7.62
330.6	8.62
331.391	10.62
332.181	9.62
332.971	8.62
333.76	8.62
334.55	8.62
335.34	7.62
336.13	8.62
336.919	9.62
337.709	9.62
338.498	9.62
339.287	8.62
340.077	9.62
340.866	6.62
341.655	5.62
342.444	7.62
343.233	6.62
344.022	9.62
344.811	7.62
345.6	6.62
346.388	8.62
347.177	7.62
347.965	10.62
348.754	7.62
349.542	7.62
350.33	5.62
351.119	6.62
351.907	8.62
352.695	3.62
353.483	6.62
354.271	7.62
355.059	7.62
355.846	8.62
356.634	9.62
357.422	5.62
358.209	6.62
358.997	6.62
359.784	6.62
360.571	6.62
361.359	8.62
362.146	4.62
362.933	8.62
363.72	5.62
364.507	7.62
365.294	6.62
366.081	7.62
366.867	5.62
367.654	3.62
368.44	7.62
369.227	6.62
370.013	5.62
370.8	7.62
371.586	7.62
372.372	7.62
373.158	4.62
373.944	7.62
374.73	8.62
375.516	6.62
376.302	6.62
377.088	5.62
377.873	4.62
378.659	6.62
379.445	4.62
380.23	9.62
381.015	6.62
381.801	6.62
382.586	5.62
383.371	7.62
384.156	8.62
384.941	9.62
385.726	7.62
386.511	5.62
387.296	6.62
388.08	6.62
388.865	5.62
389.649	10.62
390.434	6.62
391.218	8.62
392.003	7.62
392.787	6.62
393.571	7.62
394.355	5.62
395.139	9.62
395.923	7.62
396.707	10.62
397.491	8.62
398.274	10.62
399.058	9.62
399.842	8.62
400.625	12.62
401.408	8.62
402.192	11.62
402.975	7.62
403.758	8.62
404.541	7.62
405.324	9.62
406.107	10.62
406.89	11.62
407.673	10.62
408.456	9.62
409.238	9.62
410.021	10.62
410.803	9.62
411.586	10.62
412.368	11.62
413.151	12.62
413.933	11.62
414.715	10.62
415.497	13.62
416.279	10.62
417.061	12.62
417.843	12.62
418.624	14.62
419.406	13.62
420.188	11.62
420.969	14.62
421.751	15.62
422.532	12.62
423.313	14.62
424.095	15.62
424.876	16.62
425.657	15.62
426.438	15.62
427.219	18.62
428	16.62
428.78	17.62
429.561	20.62
430.342	17.62
431.122	20.62
431.903	20.62
432.683	23.62
433.464	21.62
434.244	25.62
435.024	23.62
435.804	24.62
436.584	26.62
437.364	26.62
438.144	28.62
438.924	28.62
439.704	31.62
440.483	34.62
441.263	34.62
442.042	34.62
442.822	40.62
443.601	44.62
444.38	47.62
445.16	52.62
445.939	54.62
446.718	61.62
447.497	62.62
448.276	72.62
449.054	77.62
449.833	83.62
450.612	87.62
451.391	104.62
452.169	108.62
452.948	118.62
453.726	135.62
454.504	148.62
455.282	163.62
456.061	180.62
456.839	198.62
457.617	222.62
458.395	245.62
459.172	276.62
459.95	306.62
460.728	338.62
461.506	389.62
462.283	419.62
463.061	478.62
463.838	522.62
464.615	573.62
465.393	639.62
466.17	723.62
466.947	804.62
467.724	889.62
468.501	988.62
469.278	1085.62
470.055	1196.62
470.831	1327.62
471.608	1480.62
472.385	1627.62
473.161	1778.62
473.938	1963.62
474.714	2150.62
475.49	2373.62
476.266	2586.62
477.043	2841.62
477.819	3143.62
478.595	3427.62
479.371	3719.62
480.146	4088.62
480.922	4478.62
481.698	4911.62
482.473	5310.62
483.249	5775.62
484.024	6320.62
484.8	6917.62
485.575	7503.62
486.35	8138.62
487.126	8815.62
487.901	9575.62
488.676	10374.62
489.451	11251.62
490.225	12217.62
491	13188.62
491.775	14201.62
492.55	15299.62
493.324	16451.62
494.099	17582.62
494.873	18783.62
495.647	20061.62
496.422	21339.62
497.196	22585.62
497.97	23969.62
498.744	25211.62
499.518	26536.62
500.292	27621.62
501.066	28853.62
501.839	29963.62
502.613	30925.62
503.387	31627.62
504.16	32312.62
504.934	32851.62
505.707	32980.62
506.48	33207.62
507.253	33059.62
508.027	33031.62
508.8	32641.62
509.573	32142.62
510.346	31598.62
511.118	30804.62
511.891	30044.62
512.664	29078.62
513.437	28068.62
514.209	27075.62
514.982	26258.62
515.754	25218.62
516.526	24151.62
517.298	23170.62
518.071	22198.62
518.843	21346.62
519.615	20542.62
520.387	19685.62
521.159	18954.62
521.93	18251.62
522.702	17445.62
523.474	16818.62
524.245	16180.62
525.017	15430.62
525.788	14726.62
526.56	14133.62
527.331	13477.62
528.102	12878.62
528.873	12326.62
529.644	11765.62
530.415	11246.62
531.186	10707.62
531.957	10158.62
532.728	9623.62
533.498	9116.62
534.269	8632.62
535.039	8249.62
535.81	7756.62
536.58	7334.62
537.351	6900.62
538.121	6542.62
538.891	6198.62
539.661	5880.62
540.431	5566.62
541.201	5305.62
541.971	4993.62
542.741	4756.62
543.51	4490.62
544.28	4275.62
545.05	4074.62
545.819	3896.62
546.588	3692.62
547.358	3508.62
548.127	3314.62
548.896	3133.62
549.665	3000.62
550.434	2831.62
551.203	2692.62
551.972	2562.62
552.741	2425.62
553.51	2297.62
554.278	2172.62
555.047	2049.62
555.815	1958.62
556.584	1835.62
557.352	1724.62
558.121	1617.62
558.889	1530.62
559.657	1464.62
560.425	1381.62
561.193	1297.62
561.961	1233.62
562.729	1165.62
563.496	1115.62
564.264	1046.62
565.032	981.62
565.799	939.62
566.567	879.62
567.334	824.62
568.101	783.62
568.869	740.62
569.636	696.62
570.403	649.62
571.17	627.62
571.937	590.62
572.704	553.62
573.471	530.62
574.237	498.62
575.004	469.62
575.771	442.62
576.537	415.62
577.303	396.62
578.07	370.62
578.836	349.62
579.602	327.62
580.368	316.62
581.134	298.62
581.9	279.62
582.666	266.62
583.432	248.62
584.198	241.62
584.964	226.62
585.729	214.62
586.495	206.62
587.26	188.62
588.025	182.62
588.791	174.62
589.556	166.62
590.321	154.62
591.086	150.62
591.851	138.62
592.616	134.62
593.381	128.62
594.146	120.62
594.911	116.62
595.675	107.62
596.44	108.62
597.204	103.62
597.969	98.62
598.733	91.62
599.497	89.62
600.261	83.62
601.025	80.62
601.79	74.62
602.553	73.62
603.317	73.62
604.081	65.62
604.845	65.62
605.609	62.62
606.372	57.62
607.136	56.62
607.899	53.62
608.662	52.62
609.426	51.62
610.189	44.62
610.952	47.62
611.715	46.62
612.478	41.62
613.241	43.62
614.004	40.62
614.767	36.62
615.529	36.62
616.292	37.62
617.055	33.62
617.817	34.62
618.579	31.62
619.342	33.62
620.104	31.62
620.866	25.62
621.628	30.62
622.39	24.62
623.152	26.62
623.914	26.62
624.676	23.62
625.438	20.62
626.199	23.62
626.961	21.62
627.722	21.62
628.484	22.62
629.245	19.62
630.006	17.62
630.768	20.62
631.529	15.62
632.29	19.62
633.051	17.62
633.812	18.62
634.573	16.62
635.333	14.62
636.094	18.62
636.855	15.62
637.615	16.62
638.376	14.62
639.136	14.62
639.896	12.62
640.657	13.62
641.417	15.62
642.177	13.62
642.937	12.62
643.697	13.62
644.457	15.62
645.216	13.62
645.976	10.62
646.736	10.62
647.495	10.62
648.255	7.62
649.014	11.62
649.774	9.62
650.533	10.62
651.292	11.62
652.051	10.62
652.81	10.62
653.569	5.62
654.328	7.62
655.087	7.62
655.846	7.62
656.604	7.62
657.363	7.62
658.121	9.62
658.88	7.62
659.638	7.62
660.397	7.62
661.155	7.62
661.913	7.62
662.671	6.62
663.429	7.62
664.187	8.62
664.945	4.62
665.703	6.62
666.46	5.62
667.218	7.62
667.976	5.62
668.733	9.62
669.49	8.62
670.248	7.62
671.005	6.62
671.762	4.62
672.519	4.62
673.276	5.62
674.033	6.62
674.79	6.62
675.547	7.62
676.304	6.62
677.06	6.62
677.817	7.62
678.574	3.62
679.33	6.62
680.086	5.62
680.843	6.62
681.599	5.62
682.355	7.62
683.111	5.62
683.867	6.62
684.623	6.62
685.379	8.62
686.135	5.62
686.89	6.62
687.646	5.62
688.402	4.62
689.157	6.62
689.912	4.62
690.668	4.62
691.423	6.62
692.178	3.62
692.933	7.62
693.688	5.62
694.443	4.62
695.198	4.62
695.953	4.62
696.708	2.62
697.462	6.62
698.217	5.62
698.972	5.62
699.726	6.62
700.48	6.62
701.235	3.62
701.989	4.62
702.743	3.62
703.497	4.62
704.251	6.62
705.005	7.62
705.759	5.62
706.513	2.62
707.266	6.62
708.02	5.62
708.774	7.62
709.527	2.62
710.28	3.62
711.034	4.62
711.787	2.62
712.54	5.62
713.293	5.62
714.046	6.62
714.799	4.62
715.552	3.62
716.305	5.62
717.058	3.62
717.81	5.62
718.563	4.62
719.315	3.62
720.068	5.62
720.82	5.62
721.573	5.62
722.325	6.62
723.077	3.62
723.829	5.62
724.581	5.62
725.333	6.62
726.085	5.62
726.836	4.62
727.588	4.62
728.34	3.62
729.091	5.62
729.843	3.62
730.594	6.62
731.346	3.62
732.097	7.62
732.848	6.62
733.599	6.62
734.35	6.62
735.101	5.62
735.852	6.62
736.603	7.62
737.354	4.62
738.104	6.62
738.855	7.62
739.605	7.62
740.356	4.62
741.106	6.62
741.856	6.62
742.607	6.62
743.357	6.62
744.107	7.62
744.857	7.62
745.607	6.62
746.357	3.62
747.106	6.62
747.856	8.62
748.606	4.62
749.355	7.62
750.105	6.62
750.854	5.62
751.603	5.62
752.353	9.62
753.102	5.62
753.851	8.62
754.6	5.62
755.349	9.62
756.098	8.62
756.847	5.62
757.595	9.62
758.344	6.62
759.093	8.62
759.841	7.62
760.589	7.62
761.338	8.62
762.086	9.62
762.834	9.62
763.582	8.62
764.331	7.62
765.079	7.62
765.826	8.62
766.574	10.62
767.322	7.62
768.07	10.62
768.817	10.62
769.565	7.62
770.312	10.62
771.06	11.62
771.807	9.62
772.554	9.62
773.302	10.62
774.049	11.62
774.796	10.62
775.543	10.62
776.29	9.62
777.036	10.62
777.783	10.62
778.53	9.62
779.276	10.62
780.023	10.62
780.769	12.62
781.516	10.62
782.262	11.62
783.008	12.62
783.754	10.62
784.5	11.62
785.246	9.62
785.992	12.62
786.738	9.62
787.484	11.62
788.23	10.62
788.975	8.62
789.721	10.62
790.466	11.62
791.212	9.62
791.957	11.62
792.702	10.62
793.447	9.62
794.193	10.62
794.938	11.62
795.683	9.62
796.427	10.62
797.172	10.62
797.917	6.62
798.662	11.62
799.406	7.62
800.151	9.62
800.895	8.62
801.64	7.62
802.384	6.62
803.128	6.62
803.872	7.62
804.616	7.62
805.36	6.62
806.104	6.62
806.848	7.62
807.592	7.62
808.336	6.62
809.079	6.62
809.823	10.62
810.566	7.62
811.31	6.62
812.053	8.62
812.796	7.62
813.539	7.62
814.283	9.62
815.026	8.62
815.769	6.62
816.511	7.62
817.254	4.62
817.997	7.62
818.74	5.62
819.482	4.62
820.225	5.62
820.967	6.62
821.71	4.62
822.452	4.62
823.194	7.62
823.936	7.62
824.678	4.62
825.42	5.62
826.162	6.62
826.904	4.62
827.646	4.62
828.388	5.62
829.129	4.62
829.871	3.62
830.612	5.62
831.354	7.62
832.095	5.62
832.836	4.62
833.577	6.62
834.319	5.62
835.06	3.62
835.801	6.62
836.542	4.62
837.282	5.62
838.023	5.62
838.764	3.62
839.504	4.62
840.245	4.62
840.985	2.62
841.726	4.62
842.466	3.62
843.206	5.62
843.946	3.62
844.687	1.62
845.427	6.62
846.166	3.62
846.906	3.62
847.646	3.62
848.386	2.62
849.125	3.62
849.865	4.62
850.605	3.62
851.344	3.62
852.083	4.62
852.823	2.62
853.562	2.62
854.301	2.62
855.04	1.62
855.779	2.62
856.518	2.62
857.257	3.62
857.995	0.62
858.734	2.62
859.473	2.62
860.211	2.62
860.95	1.62
861.688	1.62
862.426	1.62
863.165	2.62
863.903	-0.38
864.641	2.62
865.379	1.62
866.117	2.62
866.855	0.62
867.593	1.62
868.33	0.62
869.068	2.62
869.806	2.62
870.543	0.62
871.28	1.62
872.018	2.62
872.755	2.62
873.492	3.62
874.229	0.62
874.967	2.62
875.703	1.62
876.44	4.62
877.177	1.62
877.914	1.62
878.651	4.62
879.387	2.62
880.124	1.62
880.86	1.62
881.597	2.62
882.333	1.62
883.069	1.62
883.806	1.62
884.542	0.62
885.278	1.62
886.014	-1.38
886.749	0.62
887.485	2.62
888.221	-0.38
888.957	0.62
889.692	-1.38
890.428	2.62
891.163	3.62
891.899	1.62
892.634	3.62
893.369	0.62
894.104	1.62
894.839	1.62
895.574	1.62
896.309	4.62
897.044	0.62
897.779	1.62
898.514	-0.38
899.248	1.62
899.983	1.62
900.717	0.62
901.452	-0.38
902.186	2.62
902.92	1.62
903.654	0.62
904.389	2.62
905.123	0.62
905.857	-2.38
906.59	1.62
907.324	0.62
908.058	1.62
908.792	2.62
909.525	1.62
910.259	1.62
910.992	-0.38
911.726	1.62
912.459	-1.38
913.192	-0.38
913.925	1.62
914.658	0.62
915.391	1.62
916.124	0.62
916.857	0.62
917.59	2.62
918.323	0.62
919.055	1.62
919.788	0.62
920.521	0.62
921.253	-2.38
921.985	1.62
922.718	0.62
923.45	0.62
924.182	-0.38
924.914	0.62
925.646	1.62
926.378	0.62
927.11	-0.38
927.841	0.62
928.573	2.62
929.305	2.62
930.036	1.62
930.768	-0.38
931.499	1.62
932.23	0.62
932.962	0.62
933.693	-0.38
934.424	0.62
935.155	2.62
935.886	1.62
936.617	-0.38
937.348	2.62
938.078	1.62
938.809	0.62
939.54	-0.38
940.27	0.62
941.001	-0.38
941.731	0.62
942.461	-1.38
943.191	0.62
943.922	1.62
944.652	-1.38
945.382	0.62
946.112	-1.38
946.841	0.62
947.571	-1.38
948.301	1.62
949.031	0.62
949.76	0.62
950.49	3.62
951.219	0.62
951.948	0.62
952.678	1.62
953.407	-0.38
954.136	1.62
954.865	-1.38
955.594	1.62
956.323	1.62
957.052	0.62
957.78	0.62
958.509	0.62
959.238	0.62
959.966	0.62
960.695	2.62
961.423	2.62
962.151	1.62
962.88	0.62
963.608	0.62
964.336	0.62
965.064	-0.38
965.792	1.62
966.52	-1.38
967.247	1.62
967.975	2.62
968.703	-0.38
969.43	-1.38
970.158	0.62
970.885	0.62
971.613	1.62
972.34	0.62
973.067	0.62
973.794	0.62
974.521	-1.38
975.248	1.62
975.975	-0.38
976.702	0.62
977.429	1.62
978.156	-0.38
978.882	1.62
979.609	-1.38
980.335	-1.38
981.062	1.62
981.788	0.62
982.514	1.62
983.24	0.62
983.967	-1.38
984.693	-1.38
985.419	-0.38
986.144	0.62
986.87	1.62
987.596	1.62
988.322	-0.38
989.047	1.62
989.773	-0.38
990.498	2.62
991.224	1.62
991.949	0.62
992.674	-0.38
993.399	0.62
994.124	0.62
994.849	-1.38
995.574	2.62
996.299	0.62
997.024	-0.38
997.749	0.62
998.473	-0.38
999.198	0.62
999.922	0.62
1000.647	0.62
1001.371	3.62
1002.095	-0.38
1002.82	-0.38
1003.544	-4.38
1004.268	0.62
1004.992	0.62
1005.716	1.62
1006.439	3.62
1007.163	3.62
1007.887	2.62
1008.611	0.62
1009.334	0.62
1010.058	1.62
1010.781	0.62
1011.504	0.62
1012.228	0.62
1012.951	-0.38
1013.674	2.62
1014.397	-1.38
1015.12	0.62
