节点500_425_QEPB04081__454__15-55-51-604.txt的数据

Date: Wed Nov 12 15:55:51 CST 2025
User: PC
Spectrometer: QEPB0408
触发模式: 0
积分时间 (秒): 1.000000E-2
Scans to average: 1
启用暗噪声校正: true
启用非线性校正: false
滑动平均宽度: 0
X轴模式: Wavelengths
Number of Pixels in Spectrum: 1044
>>>>>Begin Spectral Data<<<<<
220.843	3.12
221.644	3.12
222.444	2.12
223.244	6.12
224.045	7.12
224.845	4.12
225.645	6.12
226.445	4.12
227.245	5.12
228.045	6.12
228.845	4.12
229.645	4.12
230.444	2.12
231.244	5.12
232.043	5.12
232.843	6.12
233.642	7.12
234.442	4.12
235.241	5.12
236.04	3.12
236.839	7.12
237.638	6.12
238.437	5.12
239.236	5.12
240.035	6.12
240.833	7.12
241.632	7.12
242.43	4.12
243.229	8.12
244.027	8.12
244.826	8.12
245.624	8.12
246.422	8.12
247.22	9.12
248.018	6.12
248.816	9.12
249.614	8.12
250.412	8.12
251.21	9.12
252.007	9.12
252.805	10.12
253.602	9.12
254.4	10.12
255.197	9.12
255.994	10.12
256.791	11.12
257.589	13.12
258.386	12.12
259.183	10.12
259.979	14.12
260.776	12.12
261.573	11.12
262.37	14.12
263.166	14.12
263.963	16.12
264.759	14.12
265.556	18.12
266.352	20.12
267.148	18.12
267.944	16.12
268.74	18.12
269.536	17.12
270.332	16.12
271.128	21.12
271.924	20.12
272.719	20.12
273.515	22.12
274.311	21.12
275.106	21.12
275.901	24.12
276.697	26.12
277.492	22.12
278.287	23.12
279.082	24.12
279.877	19.12
280.672	25.12
281.467	24.12
282.262	23.12
283.056	24.12
283.851	21.12
284.646	21.12
285.44	23.12
286.234	23.12
287.029	24.12
287.823	25.12
288.617	23.12
289.411	24.12
290.205	24.12
290.999	23.12
291.793	21.12
292.587	23.12
293.381	24.12
294.174	22.12
294.968	20.12
295.761	20.12
296.555	21.12
297.348	18.12
298.141	20.12
298.935	20.12
299.728	18.12
300.521	17.12
301.314	17.12
302.107	16.12
302.899	16.12
303.692	15.12
304.485	19.12
305.277	16.12
306.07	17.12
306.862	14.12
307.655	12.12
308.447	14.12
309.239	14.12
310.031	17.12
310.823	14.12
311.615	13.12
312.407	11.12
313.199	12.12
313.991	12.12
314.783	11.12
315.574	10.12
316.366	10.12
317.157	9.12
317.949	11.12
318.74	8.12
319.531	11.12
320.322	11.12
321.113	11.12
321.904	10.12
322.695	10.12
323.486	9.12
324.277	10.12
325.068	9.12
325.858	8.12
326.649	9.12
327.439	8.12
328.23	7.12
329.02	9.12
329.81	7.12
330.6	10.12
331.391	9.12
332.181	11.12
332.971	9.12
333.76	8.12
334.55	6.12
335.34	7.12
336.13	9.12
336.919	10.12
337.709	7.12
338.498	6.12
339.287	8.12
340.077	8.12
340.866	8.12
341.655	8.12
342.444	9.12
343.233	9.12
344.022	8.12
344.811	9.12
345.6	7.12
346.388	8.12
347.177	8.12
347.965	7.12
348.754	8.12
349.542	6.12
350.33	9.12
351.119	6.12
351.907	6.12
352.695	7.12
353.483	8.12
354.271	8.12
355.059	8.12
355.846	7.12
356.634	4.12
357.422	8.12
358.209	6.12
358.997	8.12
359.784	7.12
360.571	8.12
361.359	8.12
362.146	7.12
362.933	6.12
363.72	7.12
364.507	9.12
365.294	6.12
366.081	6.12
366.867	6.12
367.654	10.12
368.44	7.12
369.227	7.12
370.013	6.12
370.8	7.12
371.586	5.12
372.372	6.12
373.158	7.12
373.944	6.12
374.73	6.12
375.516	6.12
376.302	6.12
377.088	6.12
377.873	6.12
378.659	7.12
379.445	7.12
380.23	7.12
381.015	5.12
381.801	9.12
382.586	8.12
383.371	6.12
384.156	8.12
384.941	8.12
385.726	6.12
386.511	7.12
387.296	9.12
388.08	4.12
388.865	5.12
389.649	8.12
390.434	7.12
391.218	6.12
392.003	5.12
392.787	8.12
393.571	8.12
394.355	6.12
395.139	8.12
395.923	7.12
396.707	8.12
397.491	10.12
398.274	9.12
399.058	8.12
399.842	8.12
400.625	7.12
401.408	9.12
402.192	10.12
402.975	10.12
403.758	10.12
404.541	11.12
405.324	7.12
406.107	8.12
406.89	12.12
407.673	9.12
408.456	11.12
409.238	13.12
410.021	11.12
410.803	7.12
411.586	13.12
412.368	14.12
413.151	11.12
413.933	11.12
414.715	11.12
415.497	12.12
416.279	12.12
417.061	12.12
417.843	13.12
418.624	11.12
419.406	13.12
420.188	12.12
420.969	12.12
421.751	14.12
422.532	14.12
423.313	14.12
424.095	14.12
424.876	14.12
425.657	15.12
426.438	18.12
427.219	15.12
428	16.12
428.78	16.12
429.561	17.12
430.342	20.12
431.122	20.12
431.903	21.12
432.683	19.12
433.464	21.12
434.244	26.12
435.024	23.12
435.804	25.12
436.584	27.12
437.364	27.12
438.144	30.12
438.924	29.12
439.704	35.12
440.483	34.12
441.263	35.12
442.042	37.12
442.822	39.12
443.601	45.12
444.38	48.12
445.16	49.12
445.939	51.12
446.718	60.12
447.497	64.12
448.276	72.12
449.054	79.12
449.833	83.12
450.612	89.12
451.391	96.12
452.169	103.12
452.948	114.12
453.726	135.12
454.504	142.12
455.282	160.12
456.061	181.12
456.839	195.12
457.617	219.12
458.395	244.12
459.172	273.12
459.95	297.12
460.728	337.12
461.506	376.12
462.283	422.12
463.061	470.12
463.838	518.12
464.615	578.12
465.393	656.12
466.17	719.12
466.947	793.12
467.724	877.12
468.501	977.12
469.278	1089.12
470.055	1182.12
470.831	1323.12
471.608	1466.12
472.385	1626.12
473.161	1770.12
473.938	1944.12
474.714	2159.12
475.49	2389.12
476.266	2617.12
477.043	2858.12
477.819	3151.12
478.595	3455.12
479.371	3768.12
480.146	4105.12
480.922	4526.12
481.698	4923.12
482.473	5365.12
483.249	5882.12
484.024	6422.12
484.8	7017.12
485.575	7627.12
486.35	8284.12
487.126	8970.12
487.901	9785.12
488.676	10624.12
489.451	11520.12
490.225	12435.12
491	13496.12
491.775	14555.12
492.55	15680.12
493.324	16911.12
494.099	18075.12
494.873	19223.12
495.647	20556.12
496.422	21904.12
497.196	23221.12
497.97	24580.12
498.744	25911.12
499.518	27194.12
500.292	28462.12
501.066	29531.12
501.839	30698.12
502.613	31602.12
503.387	32330.12
504.16	33046.12
504.934	33386.12
505.707	33566.12
506.48	33753.12
507.253	33566.12
508.027	33357.12
508.8	33041.12
509.573	32475.12
510.346	31776.12
511.118	30983.12
511.891	30153.12
512.664	29157.12
513.437	28222.12
514.209	27114.12
514.982	26182.12
515.754	25267.12
516.526	24144.12
517.298	23138.12
518.071	22119.12
518.843	21353.12
519.615	20483.12
520.387	19571.12
521.159	18927.12
521.93	18154.12
522.702	17439.12
523.474	16831.12
524.245	16120.12
525.017	15413.12
525.788	14654.12
526.56	14053.12
527.331	13459.12
528.102	12816.12
528.873	12268.12
529.644	11669.12
530.415	11138.12
531.186	10656.12
531.957	10056.12
532.728	9556.12
533.498	9065.12
534.269	8540.12
535.039	8144.12
535.81	7699.12
536.58	7280.12
537.351	6834.12
538.121	6461.12
538.891	6141.12
539.661	5854.12
540.431	5517.12
541.201	5217.12
541.971	4956.12
542.741	4708.12
543.51	4463.12
544.28	4253.12
545.05	4020.12
545.819	3856.12
546.588	3662.12
547.358	3470.12
548.127	3266.12
548.896	3130.12
549.665	2963.12
550.434	2816.12
551.203	2681.12
551.972	2524.12
552.741	2385.12
553.51	2264.12
554.278	2143.12
555.047	2014.12
555.815	1923.12
556.584	1816.12
557.352	1695.12
558.121	1610.12
558.889	1522.12
559.657	1440.12
560.425	1361.12
561.193	1282.12
561.961	1219.12
562.729	1148.12
563.496	1088.12
564.264	1013.12
565.032	976.12
565.799	932.12
566.567	876.12
567.334	823.12
568.101	774.12
568.869	743.12
569.636	689.12
570.403	654.12
571.17	608.12
571.937	580.12
572.704	550.12
573.471	521.12
574.237	482.12
575.004	453.12
575.771	429.12
576.537	404.12
577.303	385.12
578.07	358.12
578.836	344.12
579.602	323.12
580.368	313.12
581.134	292.12
581.9	271.12
582.666	259.12
583.432	245.12
584.198	238.12
584.964	218.12
585.729	216.12
586.495	199.12
587.26	192.12
588.025	178.12
588.791	173.12
589.556	161.12
590.321	159.12
591.086	149.12
591.851	137.12
592.616	130.12
593.381	124.12
594.146	117.12
594.911	113.12
595.675	107.12
596.44	102.12
597.204	92.12
597.969	94.12
598.733	90.12
599.497	86.12
600.261	81.12
601.025	76.12
601.79	75.12
602.553	69.12
603.317	66.12
604.081	66.12
604.845	63.12
605.609	62.12
606.372	61.12
607.136	53.12
607.899	51.12
608.662	53.12
609.426	48.12
610.189	44.12
610.952	46.12
611.715	42.12
612.478	43.12
613.241	42.12
614.004	39.12
614.767	39.12
615.529	36.12
616.292	34.12
617.055	33.12
617.817	32.12
618.579	31.12
619.342	30.12
620.104	30.12
620.866	28.12
621.628	27.12
622.39	26.12
623.152	24.12
623.914	24.12
624.676	21.12
625.438	25.12
626.199	22.12
626.961	20.12
627.722	24.12
628.484	21.12
629.245	22.12
630.006	18.12
630.768	18.12
631.529	18.12
632.29	16.12
633.051	18.12
633.812	18.12
634.573	18.12
635.333	14.12
636.094	16.12
636.855	14.12
637.615	14.12
638.376	13.12
639.136	13.12
639.896	15.12
640.657	12.12
641.417	9.12
642.177	11.12
642.937	11.12
643.697	11.12
644.457	10.12
645.216	11.12
645.976	11.12
646.736	10.12
647.495	12.12
648.255	10.12
649.014	8.12
649.774	10.12
650.533	10.12
651.292	9.12
652.051	6.12
652.81	7.12
653.569	7.12
654.328	10.12
655.087	10.12
655.846	10.12
656.604	8.12
657.363	7.12
658.121	8.12
658.88	8.12
659.638	7.12
660.397	10.12
661.155	7.12
661.913	6.12
662.671	6.12
663.429	7.12
664.187	7.12
664.945	6.12
665.703	7.12
666.46	7.12
667.218	6.12
667.976	5.12
668.733	5.12
669.49	3.12
670.248	7.12
671.005	6.12
671.762	7.12
672.519	7.12
673.276	8.12
674.033	4.12
674.79	4.12
675.547	4.12
676.304	4.12
677.06	4.12
677.817	5.12
678.574	6.12
679.33	5.12
680.086	6.12
680.843	4.12
681.599	6.12
682.355	7.12
683.111	7.12
683.867	5.12
684.623	4.12
685.379	5.12
686.135	5.12
686.89	7.12
687.646	5.12
688.402	4.12
689.157	6.12
689.912	5.12
690.668	6.12
691.423	7.12
692.178	6.12
692.933	4.12
693.688	5.12
694.443	4.12
695.198	4.12
695.953	5.12
696.708	5.12
697.462	3.12
698.217	5.12
698.972	4.12
699.726	4.12
700.48	6.12
701.235	3.12
701.989	4.12
702.743	5.12
703.497	4.12
704.251	6.12
705.005	5.12
705.759	4.12
706.513	6.12
707.266	5.12
708.02	4.12
708.774	4.12
709.527	5.12
710.28	3.12
711.034	7.12
711.787	2.12
712.54	6.12
713.293	3.12
714.046	5.12
714.799	5.12
715.552	4.12
716.305	3.12
717.058	1.12
717.81	7.12
718.563	4.12
719.315	5.12
720.068	4.12
720.82	3.12
721.573	6.12
722.325	5.12
723.077	4.12
723.829	6.12
724.581	7.12
725.333	5.12
726.085	1.12
726.836	5.12
727.588	3.12
728.34	6.12
729.091	7.12
729.843	4.12
730.594	7.12
731.346	6.12
732.097	5.12
732.848	4.12
733.599	6.12
734.35	7.12
735.101	6.12
735.852	4.12
736.603	6.12
737.354	5.12
738.104	4.12
738.855	5.12
739.605	7.12
740.356	7.12
741.106	3.12
741.856	5.12
742.607	6.12
743.357	6.12
744.107	4.12
744.857	9.12
745.607	6.12
746.357	6.12
747.106	6.12
747.856	4.12
748.606	5.12
749.355	7.12
750.105	7.12
750.854	6.12
751.603	9.12
752.353	6.12
753.102	7.12
753.851	8.12
754.6	8.12
755.349	7.12
756.098	7.12
756.847	6.12
757.595	8.12
758.344	7.12
759.093	7.12
759.841	7.12
760.589	7.12
761.338	9.12
762.086	6.12
762.834	8.12
763.582	7.12
764.331	10.12
765.079	8.12
765.826	9.12
766.574	10.12
767.322	9.12
768.07	10.12
768.817	10.12
769.565	10.12
770.312	10.12
771.06	10.12
771.807	8.12
772.554	11.12
773.302	8.12
774.049	10.12
774.796	10.12
775.543	9.12
776.29	10.12
777.036	10.12
777.783	10.12
778.53	13.12
779.276	8.12
780.023	10.12
780.769	10.12
781.516	9.12
782.262	13.12
783.008	12.12
783.754	8.12
784.5	13.12
785.246	9.12
785.992	7.12
786.738	10.12
787.484	12.12
788.23	11.12
788.975	7.12
789.721	11.12
790.466	10.12
791.212	11.12
791.957	12.12
792.702	7.12
793.447	11.12
794.193	9.12
794.938	10.12
795.683	10.12
796.427	10.12
797.172	12.12
797.917	8.12
798.662	8.12
799.406	9.12
800.151	9.12
800.895	7.12
801.64	8.12
802.384	9.12
803.128	8.12
803.872	10.12
804.616	5.12
805.36	7.12
806.104	6.12
806.848	7.12
807.592	6.12
808.336	6.12
809.079	7.12
809.823	7.12
810.566	4.12
811.31	4.12
812.053	7.12
812.796	7.12
813.539	4.12
814.283	7.12
815.026	5.12
815.769	7.12
816.511	7.12
817.254	7.12
817.997	6.12
818.74	4.12
819.482	6.12
820.225	6.12
820.967	6.12
821.71	5.12
822.452	6.12
823.194	3.12
823.936	6.12
824.678	3.12
825.42	7.12
826.162	5.12
826.904	5.12
827.646	8.12
828.388	5.12
829.129	5.12
829.871	3.12
830.612	6.12
831.354	3.12
832.095	7.12
832.836	5.12
833.577	3.12
834.319	5.12
835.06	5.12
835.801	6.12
836.542	6.12
837.282	3.12
838.023	5.12
838.764	2.12
839.504	5.12
840.245	3.12
840.985	4.12
841.726	3.12
842.466	2.12
843.206	5.12
843.946	3.12
844.687	7.12
845.427	1.12
846.166	3.12
846.906	2.12
847.646	5.12
848.386	3.12
849.125	3.12
849.865	3.12
850.605	4.12
851.344	2.12
852.083	7.12
852.823	2.12
853.562	5.12
854.301	2.12
855.04	2.12
855.779	4.12
856.518	2.12
857.257	5.12
857.995	3.12
858.734	4.12
859.473	2.12
860.211	-0.88
860.95	4.12
861.688	3.12
862.426	3.12
863.165	2.12
863.903	1.12
864.641	3.12
865.379	1.12
866.117	2.12
866.855	3.12
867.593	0.12
868.33	4.12
869.068	0.12
869.806	2.12
870.543	2.12
871.28	4.12
872.018	2.12
872.755	3.12
873.492	3.12
874.229	2.12
874.967	1.12
875.703	1.12
876.44	0.12
877.177	3.12
877.914	1.12
878.651	1.12
879.387	0.12
880.124	1.12
880.86	1.12
881.597	0.12
882.333	1.12
883.069	2.12
883.806	1.12
884.542	-0.88
885.278	1.12
886.014	0.12
886.749	1.12
887.485	4.12
888.221	-0.88
888.957	2.12
889.692	0.12
890.428	0.12
891.163	1.12
891.899	2.12
892.634	2.12
893.369	0.12
894.104	1.12
894.839	-0.88
895.574	-1.88
896.309	1.12
897.044	2.12
897.779	-0.88
898.514	0.12
899.248	1.12
899.983	2.12
900.717	-1.88
901.452	0.12
902.186	0.12
902.92	1.12
903.654	-0.88
904.389	-0.88
905.123	1.12
905.857	0.12
906.59	0.12
907.324	-1.88
908.058	1.12
908.792	0.12
909.525	0.12
910.259	2.12
910.992	1.12
911.726	-0.88
912.459	1.12
913.192	0.12
913.925	-1.88
914.658	-1.88
915.391	1.12
916.124	1.12
916.857	0.12
917.59	0.12
918.323	-0.88
919.055	2.12
919.788	1.12
920.521	-0.88
921.253	2.12
921.985	-0.88
922.718	1.12
923.45	-1.88
924.182	0.12
924.914	-0.88
925.646	0.12
926.378	1.12
927.11	-0.88
927.841	0.12
928.573	-1.88
929.305	1.12
930.036	0.12
930.768	-0.88
931.499	-1.88
932.23	2.12
932.962	0.12
933.693	-0.88
934.424	2.12
935.155	-0.88
935.886	-0.88
936.617	0.12
937.348	1.12
938.078	-0.88
938.809	-0.88
939.54	1.12
940.27	1.12
941.001	2.12
941.731	0.12
942.461	0.12
943.191	1.12
943.922	0.12
944.652	0.12
945.382	2.12
946.112	1.12
946.841	0.12
947.571	2.12
948.301	0.12
949.031	0.12
949.76	-1.88
950.49	-1.88
951.219	-0.88
951.948	-0.88
952.678	-0.88
953.407	1.12
954.136	0.12
954.865	2.12
955.594	-1.88
956.323	1.12
957.052	-0.88
957.78	1.12
958.509	1.12
959.238	0.12
959.966	1.12
960.695	0.12
961.423	-0.88
962.151	0.12
962.88	-0.88
963.608	-1.88
964.336	0.12
965.064	-0.88
965.792	2.12
966.52	3.12
967.247	0.12
967.975	1.12
968.703	-0.88
969.43	0.12
970.158	1.12
970.885	0.12
971.613	0.12
972.34	0.12
973.067	3.12
973.794	0.12
974.521	-1.88
975.248	0.12
975.975	-1.88
976.702	-0.88
977.429	0.12
978.156	1.12
978.882	0.12
979.609	0.12
980.335	0.12
981.062	-0.88
981.788	0.12
982.514	2.12
983.24	0.12
983.967	-0.88
984.693	-1.88
985.419	0.12
986.144	1.12
986.87	-0.88
987.596	-0.88
988.322	2.12
989.047	0.12
989.773	-0.88
990.498	0.12
991.224	-1.88
991.949	0.12
992.674	1.12
993.399	1.12
994.124	0.12
994.849	1.12
995.574	1.12
996.299	-0.88
997.024	1.12
997.749	1.12
998.473	1.12
999.198	-0.88
999.922	2.12
1000.647	0.12
1001.371	3.12
1002.095	-1.88
1002.82	-0.88
1003.544	-1.88
1004.268	0.12
1004.992	2.12
1005.716	1.12
1006.439	2.12
1007.163	2.12
1007.887	2.12
1008.611	0.12
1009.334	1.12
1010.058	2.12
1010.781	-0.88
1011.504	-1.88
1012.228	0.12
1012.951	1.12
1013.674	0.12
1014.397	-0.88
1015.12	1.12
