节点500_425_QEPB04081__596__15-58-13-449.txt的数据

Date: Wed Nov 12 15:58:13 CST 2025
User: PC
Spectrometer: QEPB0408
触发模式: 0
积分时间 (秒): 1.000000E-2
Scans to average: 1
启用暗噪声校正: true
启用非线性校正: false
滑动平均宽度: 0
X轴模式: Wavelengths
Number of Pixels in Spectrum: 1044
>>>>>Begin Spectral Data<<<<<
220.843	2.38
221.644	4.38
222.444	4.38
223.244	3.38
224.045	2.38
224.845	2.38
225.645	2.38
226.445	5.38
227.245	5.38
228.045	2.38
228.845	5.38
229.645	3.38
230.444	5.38
231.244	2.38
232.043	2.38
232.843	3.38
233.642	7.38
234.442	2.38
235.241	7.38
236.04	6.38
236.839	4.38
237.638	6.38
238.437	4.38
239.236	4.38
240.035	5.38
240.833	5.38
241.632	7.38
242.43	5.38
243.229	8.38
244.027	8.38
244.826	6.38
245.624	8.38
246.422	9.38
247.22	8.38
248.018	8.38
248.816	8.38
249.614	10.38
250.412	8.38
251.21	9.38
252.007	9.38
252.805	10.38
253.602	9.38
254.4	9.38
255.197	10.38
255.994	11.38
256.791	10.38
257.589	12.38
258.386	10.38
259.183	14.38
259.979	13.38
260.776	13.38
261.573	14.38
262.37	14.38
263.166	15.38
263.963	13.38
264.759	16.38
265.556	14.38
266.352	17.38
267.148	18.38
267.944	18.38
268.74	16.38
269.536	19.38
270.332	17.38
271.128	18.38
271.924	20.38
272.719	19.38
273.515	19.38
274.311	21.38
275.106	20.38
275.901	23.38
276.697	21.38
277.492	24.38
278.287	22.38
279.082	23.38
279.877	24.38
280.672	22.38
281.467	23.38
282.262	23.38
283.056	24.38
283.851	24.38
284.646	21.38
285.44	22.38
286.234	23.38
287.029	20.38
287.823	23.38
288.617	21.38
289.411	20.38
290.205	22.38
290.999	23.38
291.793	23.38
292.587	22.38
293.381	23.38
294.174	19.38
294.968	18.38
295.761	20.38
296.555	19.38
297.348	21.38
298.141	20.38
298.935	23.38
299.728	19.38
300.521	17.38
301.314	17.38
302.107	16.38
302.899	17.38
303.692	14.38
304.485	18.38
305.277	16.38
306.07	13.38
306.862	17.38
307.655	17.38
308.447	16.38
309.239	16.38
310.031	12.38
310.823	16.38
311.615	11.38
312.407	12.38
313.199	11.38
313.991	12.38
314.783	13.38
315.574	15.38
316.366	14.38
317.157	12.38
317.949	12.38
318.74	9.38
319.531	11.38
320.322	8.38
321.113	9.38
321.904	12.38
322.695	8.38
323.486	9.38
324.277	11.38
325.068	10.38
325.858	8.38
326.649	8.38
327.439	9.38
328.23	9.38
329.02	9.38
329.81	8.38
330.6	9.38
331.391	7.38
332.181	8.38
332.971	10.38
333.76	9.38
334.55	10.38
335.34	8.38
336.13	9.38
336.919	7.38
337.709	6.38
338.498	9.38
339.287	8.38
340.077	7.38
340.866	7.38
341.655	8.38
342.444	8.38
343.233	6.38
344.022	8.38
344.811	10.38
345.6	7.38
346.388	8.38
347.177	8.38
347.965	8.38
348.754	8.38
349.542	7.38
350.33	7.38
351.119	7.38
351.907	9.38
352.695	6.38
353.483	8.38
354.271	9.38
355.059	8.38
355.846	7.38
356.634	7.38
357.422	6.38
358.209	6.38
358.997	8.38
359.784	6.38
360.571	9.38
361.359	8.38
362.146	8.38
362.933	8.38
363.72	9.38
364.507	6.38
365.294	7.38
366.081	9.38
366.867	8.38
367.654	9.38
368.44	5.38
369.227	8.38
370.013	5.38
370.8	8.38
371.586	7.38
372.372	9.38
373.158	6.38
373.944	5.38
374.73	6.38
375.516	9.38
376.302	7.38
377.088	8.38
377.873	7.38
378.659	6.38
379.445	3.38
380.23	8.38
381.015	3.38
381.801	5.38
382.586	8.38
383.371	6.38
384.156	9.38
384.941	5.38
385.726	5.38
386.511	8.38
387.296	8.38
388.08	6.38
388.865	7.38
389.649	5.38
390.434	10.38
391.218	7.38
392.003	8.38
392.787	5.38
393.571	8.38
394.355	8.38
395.139	8.38
395.923	9.38
396.707	10.38
397.491	8.38
398.274	10.38
399.058	8.38
399.842	9.38
400.625	8.38
401.408	11.38
402.192	9.38
402.975	11.38
403.758	8.38
404.541	10.38
405.324	8.38
406.107	10.38
406.89	11.38
407.673	10.38
408.456	8.38
409.238	11.38
410.021	10.38
410.803	10.38
411.586	10.38
412.368	12.38
413.151	12.38
413.933	13.38
414.715	12.38
415.497	12.38
416.279	13.38
417.061	12.38
417.843	14.38
418.624	12.38
419.406	13.38
420.188	13.38
420.969	14.38
421.751	11.38
422.532	14.38
423.313	12.38
424.095	14.38
424.876	15.38
425.657	15.38
426.438	15.38
427.219	15.38
428	18.38
428.78	17.38
429.561	16.38
430.342	17.38
431.122	22.38
431.903	19.38
432.683	22.38
433.464	22.38
434.244	26.38
435.024	23.38
435.804	25.38
436.584	26.38
437.364	28.38
438.144	30.38
438.924	32.38
439.704	34.38
440.483	32.38
441.263	35.38
442.042	41.38
442.822	42.38
443.601	43.38
444.38	47.38
445.16	55.38
445.939	56.38
446.718	59.38
447.497	67.38
448.276	73.38
449.054	77.38
449.833	86.38
450.612	89.38
451.391	101.38
452.169	113.38
452.948	125.38
453.726	139.38
454.504	149.38
455.282	172.38
456.061	183.38
456.839	208.38
457.617	224.38
458.395	255.38
459.172	286.38
459.95	307.38
460.728	354.38
461.506	391.38
462.283	440.38
463.061	491.38
463.838	543.38
464.615	596.38
465.393	660.38
466.17	750.38
466.947	810.38
467.724	897.38
468.501	998.38
469.278	1093.38
470.055	1209.38
470.831	1339.38
471.608	1476.38
472.385	1635.38
473.161	1815.38
473.938	1972.38
474.714	2164.38
475.49	2377.38
476.266	2626.38
477.043	2837.38
477.819	3115.38
478.595	3422.38
479.371	3739.38
480.146	4066.38
480.922	4436.38
481.698	4829.38
482.473	5257.38
483.249	5717.38
484.024	6222.38
484.8	6792.38
485.575	7364.38
486.35	7928.38
487.126	8596.38
487.901	9347.38
488.676	10143.38
489.451	10938.38
490.225	11833.38
491	12785.38
491.775	13784.38
492.55	14804.38
493.324	15922.38
494.099	16975.38
494.873	18138.38
495.647	19351.38
496.422	20555.38
497.196	21861.38
497.97	23134.38
498.744	24355.38
499.518	25595.38
500.292	26771.38
501.066	27897.38
501.839	28969.38
502.613	30008.38
503.387	30707.38
504.16	31440.38
504.934	32050.38
505.707	32296.38
506.48	32454.38
507.253	32499.38
508.027	32384.38
508.8	32182.38
509.573	31794.38
510.346	31224.38
511.118	30572.38
511.891	29808.38
512.664	28916.38
513.437	28073.38
514.209	27137.38
514.982	26223.38
515.754	25226.38
516.526	24221.38
517.298	23311.38
518.071	22382.38
518.843	21454.38
519.615	20622.38
520.387	19849.38
521.159	19049.38
521.93	18263.38
522.702	17620.38
523.474	16948.38
524.245	16272.38
525.017	15533.38
525.788	14827.38
526.56	14209.38
527.331	13636.38
528.102	13029.38
528.873	12434.38
529.644	11830.38
530.415	11366.38
531.186	10845.38
531.957	10334.38
532.728	9782.38
533.498	9256.38
534.269	8817.38
535.039	8304.38
535.81	7884.38
536.58	7452.38
537.351	7036.38
538.121	6631.38
538.891	6304.38
539.661	6012.38
540.431	5693.38
541.201	5380.38
541.971	5094.38
542.741	4846.38
543.51	4592.38
544.28	4345.38
545.05	4145.38
545.819	3970.38
546.588	3768.38
547.358	3543.38
548.127	3386.38
548.896	3224.38
549.665	3044.38
550.434	2904.38
551.203	2741.38
551.972	2598.38
552.741	2460.38
553.51	2339.38
554.278	2209.38
555.047	2077.38
555.815	1977.38
556.584	1861.38
557.352	1769.38
558.121	1665.38
558.889	1584.38
559.657	1480.38
560.425	1407.38
561.193	1331.38
561.961	1254.38
562.729	1202.38
563.496	1134.38
564.264	1065.38
565.032	1000.38
565.799	954.38
566.567	903.38
567.334	858.38
568.101	800.38
568.869	761.38
569.636	715.38
570.403	667.38
571.17	639.38
571.937	598.38
572.704	568.38
573.471	535.38
574.237	512.38
575.004	484.38
575.771	447.38
576.537	420.38
577.303	405.38
578.07	373.38
578.836	354.38
579.602	338.38
580.368	319.38
581.134	302.38
581.9	281.38
582.666	272.38
583.432	250.38
584.198	247.38
584.964	228.38
585.729	223.38
586.495	209.38
587.26	197.38
588.025	186.38
588.791	171.38
589.556	169.38
590.321	158.38
591.086	151.38
591.851	143.38
592.616	135.38
593.381	126.38
594.146	122.38
594.911	118.38
595.675	110.38
596.44	103.38
597.204	101.38
597.969	95.38
598.733	96.38
599.497	90.38
600.261	86.38
601.025	84.38
601.79	74.38
602.553	76.38
603.317	74.38
604.081	73.38
604.845	66.38
605.609	63.38
606.372	63.38
607.136	60.38
607.899	57.38
608.662	53.38
609.426	51.38
610.189	51.38
610.952	44.38
611.715	47.38
612.478	45.38
613.241	40.38
614.004	39.38
614.767	41.38
615.529	38.38
616.292	36.38
617.055	36.38
617.817	34.38
618.579	30.38
619.342	30.38
620.104	34.38
620.866	32.38
621.628	28.38
622.39	31.38
623.152	24.38
623.914	26.38
624.676	25.38
625.438	22.38
626.199	24.38
626.961	21.38
627.722	20.38
628.484	24.38
629.245	19.38
630.006	19.38
630.768	20.38
631.529	18.38
632.29	16.38
633.051	15.38
633.812	18.38
634.573	18.38
635.333	16.38
636.094	14.38
636.855	15.38
637.615	16.38
638.376	14.38
639.136	12.38
639.896	13.38
640.657	13.38
641.417	13.38
642.177	13.38
642.937	13.38
643.697	12.38
644.457	8.38
645.216	9.38
645.976	10.38
646.736	9.38
647.495	11.38
648.255	10.38
649.014	10.38
649.774	12.38
650.533	8.38
651.292	10.38
652.051	9.38
652.81	9.38
653.569	10.38
654.328	10.38
655.087	11.38
655.846	10.38
656.604	9.38
657.363	9.38
658.121	7.38
658.88	9.38
659.638	7.38
660.397	8.38
661.155	7.38
661.913	7.38
662.671	6.38
663.429	4.38
664.187	8.38
664.945	5.38
665.703	6.38
666.46	6.38
667.218	8.38
667.976	6.38
668.733	7.38
669.49	6.38
670.248	4.38
671.005	6.38
671.762	8.38
672.519	6.38
673.276	8.38
674.033	7.38
674.79	7.38
675.547	3.38
676.304	6.38
677.06	6.38
677.817	2.38
678.574	8.38
679.33	6.38
680.086	3.38
680.843	5.38
681.599	4.38
682.355	6.38
683.111	5.38
683.867	6.38
684.623	5.38
685.379	5.38
686.135	4.38
686.89	2.38
687.646	6.38
688.402	4.38
689.157	5.38
689.912	7.38
690.668	5.38
691.423	7.38
692.178	6.38
692.933	5.38
693.688	4.38
694.443	6.38
695.198	5.38
695.953	5.38
696.708	9.38
697.462	6.38
698.217	5.38
698.972	6.38
699.726	4.38
700.48	5.38
701.235	6.38
701.989	4.38
702.743	5.38
703.497	6.38
704.251	5.38
705.005	3.38
705.759	6.38
706.513	5.38
707.266	4.38
708.02	5.38
708.774	4.38
709.527	4.38
710.28	7.38
711.034	4.38
711.787	4.38
712.54	6.38
713.293	6.38
714.046	3.38
714.799	5.38
715.552	5.38
716.305	5.38
717.058	4.38
717.81	3.38
718.563	6.38
719.315	5.38
720.068	5.38
720.82	5.38
721.573	4.38
722.325	5.38
723.077	3.38
723.829	6.38
724.581	4.38
725.333	6.38
726.085	6.38
726.836	3.38
727.588	6.38
728.34	7.38
729.091	4.38
729.843	5.38
730.594	6.38
731.346	5.38
732.097	4.38
732.848	8.38
733.599	3.38
734.35	4.38
735.101	5.38
735.852	4.38
736.603	8.38
737.354	6.38
738.104	7.38
738.855	6.38
739.605	8.38
740.356	4.38
741.106	7.38
741.856	7.38
742.607	7.38
743.357	7.38
744.107	8.38
744.857	7.38
745.607	9.38
746.357	7.38
747.106	8.38
747.856	6.38
748.606	7.38
749.355	5.38
750.105	5.38
750.854	8.38
751.603	5.38
752.353	7.38
753.102	7.38
753.851	6.38
754.6	6.38
755.349	8.38
756.098	7.38
756.847	6.38
757.595	9.38
758.344	6.38
759.093	6.38
759.841	9.38
760.589	9.38
761.338	10.38
762.086	6.38
762.834	8.38
763.582	8.38
764.331	12.38
765.079	9.38
765.826	7.38
766.574	7.38
767.322	9.38
768.07	7.38
768.817	8.38
769.565	7.38
770.312	7.38
771.06	9.38
771.807	8.38
772.554	10.38
773.302	10.38
774.049	8.38
774.796	8.38
775.543	10.38
776.29	8.38
777.036	8.38
777.783	11.38
778.53	9.38
779.276	12.38
780.023	8.38
780.769	9.38
781.516	11.38
782.262	8.38
783.008	12.38
783.754	10.38
784.5	11.38
785.246	9.38
785.992	9.38
786.738	12.38
787.484	11.38
788.23	7.38
788.975	11.38
789.721	11.38
790.466	11.38
791.212	10.38
791.957	9.38
792.702	9.38
793.447	12.38
794.193	11.38
794.938	10.38
795.683	10.38
796.427	8.38
797.172	9.38
797.917	8.38
798.662	9.38
799.406	10.38
800.151	8.38
800.895	10.38
801.64	8.38
802.384	8.38
803.128	7.38
803.872	8.38
804.616	7.38
805.36	9.38
806.104	9.38
806.848	7.38
807.592	7.38
808.336	9.38
809.079	6.38
809.823	7.38
810.566	6.38
811.31	7.38
812.053	9.38
812.796	4.38
813.539	8.38
814.283	7.38
815.026	8.38
815.769	5.38
816.511	6.38
817.254	7.38
817.997	6.38
818.74	6.38
819.482	4.38
820.225	6.38
820.967	6.38
821.71	6.38
822.452	6.38
823.194	4.38
823.936	7.38
824.678	4.38
825.42	5.38
826.162	4.38
826.904	4.38
827.646	6.38
828.388	3.38
829.129	6.38
829.871	5.38
830.612	6.38
831.354	7.38
832.095	4.38
832.836	5.38
833.577	4.38
834.319	4.38
835.06	5.38
835.801	5.38
836.542	4.38
837.282	6.38
838.023	5.38
838.764	4.38
839.504	4.38
840.245	7.38
840.985	4.38
841.726	5.38
842.466	4.38
843.206	6.38
843.946	3.38
844.687	2.38
845.427	4.38
846.166	4.38
846.906	3.38
847.646	3.38
848.386	2.38
849.125	5.38
849.865	3.38
850.605	2.38
851.344	3.38
852.083	4.38
852.823	4.38
853.562	4.38
854.301	3.38
855.04	2.38
855.779	3.38
856.518	2.38
857.257	3.38
857.995	2.38
858.734	3.38
859.473	4.38
860.211	2.38
860.95	4.38
861.688	4.38
862.426	4.38
863.165	3.38
863.903	1.38
864.641	4.38
865.379	2.38
866.117	1.38
866.855	3.38
867.593	2.38
868.33	1.38
869.068	3.38
869.806	1.38
870.543	3.38
871.28	2.38
872.018	2.38
872.755	-0.62
873.492	3.38
874.229	1.38
874.967	0.38
875.703	0.38
876.44	2.38
877.177	2.38
877.914	3.38
878.651	2.38
879.387	1.38
880.124	2.38
880.86	2.38
881.597	1.38
882.333	1.38
883.069	3.38
883.806	0.38
884.542	1.38
885.278	1.38
886.014	2.38
886.749	3.38
887.485	1.38
888.221	2.38
888.957	0.38
889.692	0.38
890.428	-1.62
891.163	0.38
891.899	1.38
892.634	1.38
893.369	-0.62
894.104	2.38
894.839	0.38
895.574	2.38
896.309	3.38
897.044	0.38
897.779	1.38
898.514	1.38
899.248	-1.62
899.983	1.38
900.717	0.38
901.452	-0.62
902.186	0.38
902.92	-0.62
903.654	0.38
904.389	0.38
905.123	1.38
905.857	0.38
906.59	2.38
907.324	1.38
908.058	0.38
908.792	-1.62
909.525	0.38
910.259	0.38
910.992	1.38
911.726	0.38
912.459	2.38
913.192	-0.62
913.925	2.38
914.658	0.38
915.391	1.38
916.124	0.38
916.857	1.38
917.59	1.38
918.323	2.38
919.055	-0.62
919.788	1.38
920.521	0.38
921.253	1.38
921.985	1.38
922.718	2.38
923.45	0.38
924.182	1.38
924.914	0.38
925.646	-0.62
926.378	0.38
927.11	0.38
927.841	2.38
928.573	0.38
929.305	0.38
930.036	-0.62
930.768	1.38
931.499	2.38
932.23	4.38
932.962	0.38
933.693	2.38
934.424	-1.62
935.155	2.38
935.886	0.38
936.617	0.38
937.348	2.38
938.078	0.38
938.809	0.38
939.54	1.38
940.27	-0.62
941.001	0.38
941.731	-1.62
942.461	-0.62
943.191	-1.62
943.922	0.38
944.652	1.38
945.382	-2.62
946.112	1.38
946.841	0.38
947.571	0.38
948.301	1.38
949.031	1.38
949.76	0.38
950.49	3.38
951.219	0.38
951.948	0.38
952.678	-0.62
953.407	-1.62
954.136	-0.62
954.865	2.38
955.594	1.38
956.323	-1.62
957.052	1.38
957.78	3.38
958.509	-1.62
959.238	-0.62
959.966	0.38
960.695	-1.62
961.423	0.38
962.151	0.38
962.88	-0.62
963.608	0.38
964.336	0.38
965.064	1.38
965.792	2.38
966.52	2.38
967.247	0.38
967.975	1.38
968.703	1.38
969.43	0.38
970.158	1.38
970.885	1.38
971.613	1.38
972.34	-1.62
973.067	1.38
973.794	3.38
974.521	0.38
975.248	0.38
975.975	0.38
976.702	1.38
977.429	1.38
978.156	-0.62
978.882	2.38
979.609	0.38
980.335	-0.62
981.062	0.38
981.788	0.38
982.514	0.38
983.24	0.38
983.967	1.38
984.693	0.38
985.419	1.38
986.144	1.38
986.87	-1.62
987.596	3.38
988.322	1.38
989.047	2.38
989.773	1.38
990.498	0.38
991.224	-0.62
991.949	-1.62
992.674	0.38
993.399	0.38
994.124	1.38
994.849	0.38
995.574	1.38
996.299	1.38
997.024	1.38
997.749	-3.62
998.473	0.38
999.198	-0.62
999.922	0.38
1000.647	0.38
1001.371	5.38
1002.095	0.38
1002.82	-0.62
1003.544	-1.62
1004.268	0.38
1004.992	2.38
1005.716	3.38
1006.439	3.38
1007.163	5.38
1007.887	4.38
1008.611	3.38
1009.334	0.38
1010.058	1.38
1010.781	0.38
1011.504	-0.62
1012.228	2.38
1012.951	-1.62
1013.674	-0.62
1014.397	0.38
1015.12	-1.62
