节点500_425_QEPB04081__16__15-48-37-451.txt的数据

Date: Wed Nov 12 15:48:37 CST 2025
User: PC
Spectrometer: QEPB0408
触发模式: 0
积分时间 (秒): 1.000000E-2
Scans to average: 1
启用暗噪声校正: true
启用非线性校正: false
滑动平均宽度: 0
X轴模式: Wavelengths
Number of Pixels in Spectrum: 1044
>>>>>Begin Spectral Data<<<<<
220.843	1.75
221.644	2.75
222.444	2.75
223.244	0.75
224.045	1.75
224.845	3.75
225.645	2.75
226.445	3.75
227.245	4.75
228.045	1.75
228.845	2.75
229.645	2.75
230.444	4.75
231.244	1.75
232.043	5.75
232.843	4.75
233.642	5.75
234.442	4.75
235.241	5.75
236.04	3.75
236.839	6.75
237.638	3.75
238.437	7.75
239.236	2.75
240.035	6.75
240.833	4.75
241.632	6.75
242.43	6.75
243.229	6.75
244.027	6.75
244.826	4.75
245.624	8.75
246.422	7.75
247.22	7.75
248.018	10.75
248.816	8.75
249.614	7.75
250.412	11.75
251.21	6.75
252.007	9.75
252.805	8.75
253.602	11.75
254.4	9.75
255.197	9.75
255.994	13.75
256.791	9.75
257.589	12.75
258.386	10.75
259.183	13.75
259.979	16.75
260.776	17.75
261.573	15.75
262.37	16.75
263.166	14.75
263.963	18.75
264.759	18.75
265.556	15.75
266.352	18.75
267.148	18.75
267.944	19.75
268.74	22.75
269.536	22.75
270.332	21.75
271.128	20.75
271.924	22.75
272.719	23.75
273.515	22.75
274.311	21.75
275.106	21.75
275.901	23.75
276.697	23.75
277.492	22.75
278.287	21.75
279.082	23.75
279.877	21.75
280.672	28.75
281.467	23.75
282.262	25.75
283.056	23.75
283.851	25.75
284.646	22.75
285.44	25.75
286.234	24.75
287.029	27.75
287.823	23.75
288.617	24.75
289.411	22.75
290.205	24.75
290.999	23.75
291.793	24.75
292.587	25.75
293.381	22.75
294.174	23.75
294.968	19.75
295.761	19.75
296.555	18.75
297.348	18.75
298.141	20.75
298.935	21.75
299.728	18.75
300.521	18.75
301.314	18.75
302.107	17.75
302.899	15.75
303.692	13.75
304.485	18.75
305.277	17.75
306.07	16.75
306.862	17.75
307.655	14.75
308.447	12.75
309.239	15.75
310.031	11.75
310.823	12.75
311.615	9.75
312.407	13.75
313.199	12.75
313.991	13.75
314.783	10.75
315.574	10.75
316.366	11.75
317.157	9.75
317.949	10.75
318.74	9.75
319.531	7.75
320.322	11.75
321.113	10.75
321.904	9.75
322.695	6.75
323.486	7.75
324.277	9.75
325.068	7.75
325.858	9.75
326.649	8.75
327.439	7.75
328.23	7.75
329.02	8.75
329.81	9.75
330.6	7.75
331.391	7.75
332.181	7.75
332.971	8.75
333.76	4.75
334.55	8.75
335.34	9.75
336.13	9.75
336.919	9.75
337.709	7.75
338.498	7.75
339.287	8.75
340.077	7.75
340.866	6.75
341.655	9.75
342.444	6.75
343.233	7.75
344.022	6.75
344.811	7.75
345.6	5.75
346.388	8.75
347.177	6.75
347.965	7.75
348.754	8.75
349.542	8.75
350.33	6.75
351.119	6.75
351.907	6.75
352.695	8.75
353.483	6.75
354.271	6.75
355.059	6.75
355.846	6.75
356.634	5.75
357.422	6.75
358.209	6.75
358.997	3.75
359.784	8.75
360.571	6.75
361.359	5.75
362.146	5.75
362.933	7.75
363.72	7.75
364.507	7.75
365.294	8.75
366.081	7.75
366.867	5.75
367.654	6.75
368.44	3.75
369.227	5.75
370.013	5.75
370.8	5.75
371.586	7.75
372.372	8.75
373.158	6.75
373.944	4.75
374.73	5.75
375.516	5.75
376.302	5.75
377.088	5.75
377.873	3.75
378.659	6.75
379.445	7.75
380.23	5.75
381.015	6.75
381.801	7.75
382.586	8.75
383.371	3.75
384.156	7.75
384.941	5.75
385.726	8.75
386.511	8.75
387.296	5.75
388.08	5.75
388.865	5.75
389.649	7.75
390.434	8.75
391.218	6.75
392.003	6.75
392.787	6.75
393.571	6.75
394.355	6.75
395.139	8.75
395.923	10.75
396.707	6.75
397.491	9.75
398.274	7.75
399.058	7.75
399.842	6.75
400.625	6.75
401.408	11.75
402.192	7.75
402.975	8.75
403.758	6.75
404.541	7.75
405.324	9.75
406.107	10.75
406.89	9.75
407.673	7.75
408.456	10.75
409.238	12.75
410.021	8.75
410.803	11.75
411.586	10.75
412.368	11.75
413.151	13.75
413.933	10.75
414.715	9.75
415.497	11.75
416.279	9.75
417.061	11.75
417.843	10.75
418.624	13.75
419.406	11.75
420.188	13.75
420.969	13.75
421.751	13.75
422.532	16.75
423.313	14.75
424.095	14.75
424.876	16.75
425.657	16.75
426.438	13.75
427.219	17.75
428	21.75
428.78	16.75
429.561	17.75
430.342	17.75
431.122	15.75
431.903	20.75
432.683	21.75
433.464	21.75
434.244	20.75
435.024	22.75
435.804	24.75
436.584	26.75
437.364	24.75
438.144	25.75
438.924	25.75
439.704	27.75
440.483	31.75
441.263	33.75
442.042	34.75
442.822	37.75
443.601	40.75
444.38	42.75
445.16	47.75
445.939	50.75
446.718	49.75
447.497	57.75
448.276	59.75
449.054	59.75
449.833	73.75
450.612	74.75
451.391	82.75
452.169	89.75
452.948	97.75
453.726	109.75
454.504	116.75
455.282	133.75
456.061	140.75
456.839	164.75
457.617	182.75
458.395	196.75
459.172	223.75
459.95	242.75
460.728	279.75
461.506	308.75
462.283	338.75
463.061	385.75
463.838	432.75
464.615	481.75
465.393	543.75
466.17	613.75
466.947	687.75
467.724	767.75
468.501	844.75
469.278	941.75
470.055	1070.75
470.831	1176.75
471.608	1320.75
472.385	1465.75
473.161	1620.75
473.938	1816.75
474.714	2033.75
475.49	2229.75
476.266	2492.75
477.043	2750.75
477.819	3054.75
478.595	3392.75
479.371	3766.75
480.146	4146.75
480.922	4593.75
481.698	5061.75
482.473	5594.75
483.249	6162.75
484.024	6800.75
484.8	7500.75
485.575	8224.75
486.35	9023.75
487.126	9928.75
487.901	10901.75
488.676	11926.75
489.451	13084.75
490.225	14211.75
491	15531.75
491.775	16848.75
492.55	18225.75
493.324	19729.75
494.099	21164.75
494.873	22555.75
495.647	24179.75
496.422	25649.75
497.196	27187.75
497.97	28760.75
498.744	30283.75
499.518	31647.75
500.292	32813.75
501.066	33816.75
501.839	34734.75
502.613	35504.75
503.387	35991.75
504.16	36307.75
504.934	36289.75
505.707	36138.75
506.48	35643.75
507.253	35050.75
508.027	34462.75
508.8	33537.75
509.573	32562.75
510.346	31451.75
511.118	30351.75
511.891	29206.75
512.664	28048.75
513.437	26780.75
514.209	25493.75
514.982	24498.75
515.754	23454.75
516.526	22384.75
517.298	21376.75
518.071	20470.75
518.843	19665.75
519.615	18890.75
520.387	18139.75
521.159	17431.75
521.93	16790.75
522.702	16086.75
523.474	15442.75
524.245	14854.75
525.017	14120.75
525.788	13423.75
526.56	12761.75
527.331	12150.75
528.102	11615.75
528.873	10993.75
529.644	10431.75
530.415	9946.75
531.186	9378.75
531.957	8877.75
532.728	8376.75
533.498	7922.75
534.269	7457.75
535.039	7045.75
535.81	6640.75
536.58	6261.75
537.351	5899.75
538.121	5592.75
538.891	5306.75
539.661	5016.75
540.431	4760.75
541.201	4495.75
541.971	4291.75
542.741	4058.75
543.51	3861.75
544.28	3648.75
545.05	3468.75
545.819	3331.75
546.588	3160.75
547.358	2988.75
548.127	2808.75
548.896	2681.75
549.665	2538.75
550.434	2413.75
551.203	2259.75
551.972	2146.75
552.741	2033.75
553.51	1919.75
554.278	1799.75
555.047	1696.75
555.815	1589.75
556.584	1507.75
557.352	1428.75
558.121	1351.75
558.889	1264.75
559.657	1203.75
560.425	1124.75
561.193	1071.75
561.961	1009.75
562.729	970.75
563.496	885.75
564.264	856.75
565.032	821.75
565.799	767.75
566.567	727.75
567.334	684.75
568.101	651.75
568.869	617.75
569.636	574.75
570.403	542.75
571.17	516.75
571.937	473.75
572.704	454.75
573.471	432.75
574.237	406.75
575.004	377.75
575.771	369.75
576.537	340.75
577.303	316.75
578.07	308.75
578.836	281.75
579.602	268.75
580.368	249.75
581.134	240.75
581.9	228.75
582.666	216.75
583.432	200.75
584.198	198.75
584.964	178.75
585.729	175.75
586.495	166.75
587.26	155.75
588.025	152.75
588.791	150.75
589.556	134.75
590.321	129.75
591.086	117.75
591.851	114.75
592.616	108.75
593.381	104.75
594.146	98.75
594.911	94.75
595.675	93.75
596.44	88.75
597.204	82.75
597.969	78.75
598.733	74.75
599.497	72.75
600.261	70.75
601.025	67.75
601.79	63.75
602.553	60.75
603.317	59.75
604.081	53.75
604.845	53.75
605.609	49.75
606.372	48.75
607.136	49.75
607.899	43.75
608.662	43.75
609.426	40.75
610.189	41.75
610.952	36.75
611.715	37.75
612.478	37.75
613.241	35.75
614.004	33.75
614.767	34.75
615.529	29.75
616.292	31.75
617.055	31.75
617.817	25.75
618.579	25.75
619.342	25.75
620.104	24.75
620.866	24.75
621.628	24.75
622.39	24.75
623.152	21.75
623.914	20.75
624.676	20.75
625.438	21.75
626.199	20.75
626.961	17.75
627.722	20.75
628.484	16.75
629.245	16.75
630.006	16.75
630.768	18.75
631.529	17.75
632.29	18.75
633.051	15.75
633.812	14.75
634.573	15.75
635.333	11.75
636.094	13.75
636.855	13.75
637.615	13.75
638.376	11.75
639.136	11.75
639.896	10.75
640.657	12.75
641.417	12.75
642.177	12.75
642.937	9.75
643.697	10.75
644.457	10.75
645.216	8.75
645.976	10.75
646.736	10.75
647.495	9.75
648.255	9.75
649.014	9.75
649.774	9.75
650.533	9.75
651.292	5.75
652.051	8.75
652.81	9.75
653.569	6.75
654.328	9.75
655.087	5.75
655.846	8.75
656.604	7.75
657.363	8.75
658.121	8.75
658.88	8.75
659.638	8.75
660.397	6.75
661.155	5.75
661.913	6.75
662.671	9.75
663.429	6.75
664.187	8.75
664.945	5.75
665.703	6.75
666.46	6.75
667.218	5.75
667.976	6.75
668.733	7.75
669.49	3.75
670.248	6.75
671.005	7.75
671.762	4.75
672.519	6.75
673.276	3.75
674.033	6.75
674.79	5.75
675.547	5.75
676.304	5.75
677.06	6.75
677.817	5.75
678.574	4.75
679.33	5.75
680.086	6.75
680.843	3.75
681.599	5.75
682.355	6.75
683.111	4.75
683.867	3.75
684.623	4.75
685.379	5.75
686.135	5.75
686.89	4.75
687.646	2.75
688.402	5.75
689.157	4.75
689.912	4.75
690.668	1.75
691.423	4.75
692.178	3.75
692.933	3.75
693.688	4.75
694.443	4.75
695.198	1.75
695.953	4.75
696.708	2.75
697.462	5.75
698.217	4.75
698.972	3.75
699.726	3.75
700.48	3.75
701.235	5.75
701.989	1.75
702.743	4.75
703.497	1.75
704.251	5.75
705.005	5.75
705.759	4.75
706.513	5.75
707.266	4.75
708.02	4.75
708.774	3.75
709.527	3.75
710.28	3.75
711.034	2.75
711.787	4.75
712.54	3.75
713.293	3.75
714.046	4.75
714.799	4.75
715.552	3.75
716.305	4.75
717.058	6.75
717.81	3.75
718.563	4.75
719.315	3.75
720.068	6.75
720.82	4.75
721.573	6.75
722.325	3.75
723.077	3.75
723.829	2.75
724.581	3.75
725.333	2.75
726.085	3.75
726.836	6.75
727.588	5.75
728.34	5.75
729.091	3.75
729.843	6.75
730.594	3.75
731.346	5.75
732.097	5.75
732.848	3.75
733.599	7.75
734.35	1.75
735.101	2.75
735.852	3.75
736.603	5.75
737.354	6.75
738.104	4.75
738.855	5.75
739.605	6.75
740.356	6.75
741.106	4.75
741.856	6.75
742.607	5.75
743.357	5.75
744.107	7.75
744.857	7.75
745.607	6.75
746.357	6.75
747.106	5.75
747.856	8.75
748.606	6.75
749.355	7.75
750.105	3.75
750.854	5.75
751.603	4.75
752.353	6.75
753.102	8.75
753.851	7.75
754.6	9.75
755.349	6.75
756.098	6.75
756.847	8.75
757.595	8.75
758.344	7.75
759.093	8.75
759.841	8.75
760.589	7.75
761.338	8.75
762.086	9.75
762.834	9.75
763.582	9.75
764.331	10.75
765.079	5.75
765.826	9.75
766.574	7.75
767.322	9.75
768.07	8.75
768.817	9.75
769.565	9.75
770.312	9.75
771.06	9.75
771.807	8.75
772.554	11.75
773.302	10.75
774.049	10.75
774.796	14.75
775.543	9.75
776.29	11.75
777.036	10.75
777.783	11.75
778.53	9.75
779.276	12.75
780.023	10.75
780.769	10.75
781.516	11.75
782.262	10.75
783.008	12.75
783.754	10.75
784.5	10.75
785.246	10.75
785.992	10.75
786.738	13.75
787.484	11.75
788.23	10.75
788.975	11.75
789.721	10.75
790.466	10.75
791.212	12.75
791.957	12.75
792.702	10.75
793.447	9.75
794.193	11.75
794.938	8.75
795.683	9.75
796.427	7.75
797.172	8.75
797.917	6.75
798.662	8.75
799.406	9.75
800.151	9.75
800.895	9.75
801.64	10.75
802.384	8.75
803.128	7.75
803.872	7.75
804.616	8.75
805.36	8.75
806.104	8.75
806.848	5.75
807.592	6.75
808.336	6.75
809.079	4.75
809.823	6.75
810.566	5.75
811.31	7.75
812.053	7.75
812.796	4.75
813.539	7.75
814.283	4.75
815.026	7.75
815.769	3.75
816.511	4.75
817.254	3.75
817.997	4.75
818.74	7.75
819.482	6.75
820.225	3.75
820.967	4.75
821.71	3.75
822.452	2.75
823.194	6.75
823.936	3.75
824.678	3.75
825.42	3.75
826.162	3.75
826.904	4.75
827.646	3.75
828.388	3.75
829.129	3.75
829.871	4.75
830.612	3.75
831.354	3.75
832.095	5.75
832.836	4.75
833.577	3.75
834.319	2.75
835.06	5.75
835.801	2.75
836.542	4.75
837.282	3.75
838.023	1.75
838.764	2.75
839.504	2.75
840.245	4.75
840.985	1.75
841.726	5.75
842.466	4.75
843.206	2.75
843.946	2.75
844.687	3.75
845.427	1.75
846.166	3.75
846.906	3.75
847.646	2.75
848.386	3.75
849.125	4.75
849.865	2.75
850.605	3.75
851.344	1.75
852.083	2.75
852.823	2.75
853.562	4.75
854.301	4.75
855.04	0.75
855.779	3.75
856.518	1.75
857.257	2.75
857.995	2.75
858.734	1.75
859.473	3.75
860.211	1.75
860.95	2.75
861.688	3.75
862.426	2.75
863.165	-0.25
863.903	2.75
864.641	2.75
865.379	0.75
866.117	1.75
866.855	2.75
867.593	1.75
868.33	2.75
869.068	1.75
869.806	-0.25
870.543	1.75
871.28	-1.25
872.018	-0.25
872.755	-0.25
873.492	2.75
874.229	2.75
874.967	1.75
875.703	0.75
876.44	0.75
877.177	0.75
877.914	-0.25
878.651	-0.25
879.387	-0.25
880.124	-2.25
880.86	0.75
881.597	-0.25
882.333	0.75
883.069	-0.25
883.806	-0.25
884.542	1.75
885.278	-0.25
886.014	2.75
886.749	0.75
887.485	-0.25
888.221	1.75
888.957	0.75
889.692	-0.25
890.428	-2.25
891.163	2.75
891.899	-0.25
892.634	0.75
893.369	1.75
894.104	0.75
894.839	0.75
895.574	-0.25
896.309	-0.25
897.044	0.75
897.779	1.75
898.514	-0.25
899.248	0.75
899.983	1.75
900.717	-1.25
901.452	0.75
902.186	1.75
902.92	0.75
903.654	1.75
904.389	2.75
905.123	-1.25
905.857	-0.25
906.59	0.75
907.324	-1.25
908.058	-1.25
908.792	0.75
909.525	-1.25
910.259	-0.25
910.992	0.75
911.726	0.75
912.459	-2.25
913.192	-0.25
913.925	1.75
914.658	-0.25
915.391	0.75
916.124	-1.25
916.857	-1.25
917.59	-0.25
918.323	-2.25
919.055	1.75
919.788	0.75
920.521	0.75
921.253	1.75
921.985	-1.25
922.718	-0.25
923.45	-0.25
924.182	3.75
924.914	-2.25
925.646	-0.25
926.378	0.75
927.11	-2.25
927.841	-0.25
928.573	1.75
929.305	0.75
930.036	0.75
930.768	-3.25
931.499	0.75
932.23	-0.25
932.962	-1.25
933.693	-0.25
934.424	0.75
935.155	-0.25
935.886	-1.25
936.617	2.75
937.348	0.75
938.078	-0.25
938.809	-0.25
939.54	-1.25
940.27	-2.25
941.001	-2.25
941.731	-0.25
942.461	-1.25
943.191	-0.25
943.922	0.75
944.652	-0.25
945.382	-0.25
946.112	-0.25
946.841	0.75
947.571	1.75
948.301	-0.25
949.031	-1.25
949.76	-3.25
950.49	0.75
951.219	-1.25
951.948	0.75
952.678	0.75
953.407	-1.25
954.136	-1.25
954.865	-0.25
955.594	-0.25
956.323	1.75
957.052	-2.25
957.78	-1.25
958.509	-0.25
959.238	-2.25
959.966	-1.25
960.695	1.75
961.423	-1.25
962.151	1.75
962.88	-0.25
963.608	-2.25
964.336	0.75
965.064	0.75
965.792	-0.25
966.52	-0.25
967.247	0.75
967.975	-0.25
968.703	-0.25
969.43	-0.25
970.158	1.75
970.885	0.75
971.613	-1.25
972.34	-2.25
973.067	-0.25
973.794	-1.25
974.521	-1.25
975.248	0.75
975.975	-0.25
976.702	-2.25
977.429	-0.25
978.156	1.75
978.882	-0.25
979.609	1.75
980.335	-2.25
981.062	-2.25
981.788	0.75
982.514	-0.25
983.24	0.75
983.967	0.75
984.693	1.75
985.419	-0.25
986.144	-2.25
986.87	-0.25
987.596	0.75
988.322	0.75
989.047	-0.25
989.773	2.75
990.498	-0.25
991.224	-0.25
991.949	0.75
992.674	-0.25
993.399	-0.25
994.124	-0.25
994.849	-0.25
995.574	-0.25
996.299	1.75
997.024	-1.25
997.749	-1.25
998.473	0.75
999.198	-2.25
999.922	-2.25
1000.647	-0.25
1001.371	2.75
1002.095	-1.25
1002.82	0.75
1003.544	-0.25
1004.268	3.75
1004.992	-0.25
1005.716	2.75
1006.439	1.75
1007.163	0.75
1007.887	2.75
1008.611	-0.25
1009.334	-2.25
1010.058	-0.25
1010.781	-1.25
1011.504	-0.25
1012.228	-0.25
1012.951	-0.25
1013.674	-0.25
1014.397	-0.25
1015.12	-1.25
