节点500_425_QEPB04081__539__15-57-16-541.txt的数据

Date: Wed Nov 12 15:57:16 CST 2025
User: PC
Spectrometer: QEPB0408
触发模式: 0
积分时间 (秒): 1.000000E-2
Scans to average: 1
启用暗噪声校正: true
启用非线性校正: false
滑动平均宽度: 0
X轴模式: Wavelengths
Number of Pixels in Spectrum: 1044
>>>>>Begin Spectral Data<<<<<
220.843	5.5
221.644	0.5
222.444	2.5
223.244	3.5
224.045	3.5
224.845	4.5
225.645	2.5
226.445	3.5
227.245	3.5
228.045	3.5
228.845	7.5
229.645	3.5
230.444	5.5
231.244	5.5
232.043	3.5
232.843	3.5
233.642	4.5
234.442	6.5
235.241	5.5
236.04	7.5
236.839	5.5
237.638	3.5
238.437	6.5
239.236	4.5
240.035	9.5
240.833	7.5
241.632	4.5
242.43	8.5
243.229	5.5
244.027	8.5
244.826	5.5
245.624	7.5
246.422	7.5
247.22	7.5
248.018	8.5
248.816	8.5
249.614	8.5
250.412	8.5
251.21	8.5
252.007	9.5
252.805	9.5
253.602	10.5
254.4	11.5
255.197	10.5
255.994	12.5
256.791	10.5
257.589	14.5
258.386	10.5
259.183	13.5
259.979	13.5
260.776	13.5
261.573	12.5
262.37	13.5
263.166	16.5
263.963	16.5
264.759	15.5
265.556	15.5
266.352	14.5
267.148	16.5
267.944	17.5
268.74	16.5
269.536	19.5
270.332	18.5
271.128	20.5
271.924	19.5
272.719	17.5
273.515	20.5
274.311	22.5
275.106	21.5
275.901	22.5
276.697	20.5
277.492	19.5
278.287	21.5
279.082	22.5
279.877	22.5
280.672	22.5
281.467	23.5
282.262	24.5
283.056	24.5
283.851	21.5
284.646	23.5
285.44	23.5
286.234	23.5
287.029	24.5
287.823	23.5
288.617	21.5
289.411	22.5
290.205	24.5
290.999	25.5
291.793	22.5
292.587	20.5
293.381	23.5
294.174	20.5
294.968	20.5
295.761	17.5
296.555	19.5
297.348	19.5
298.141	19.5
298.935	20.5
299.728	19.5
300.521	18.5
301.314	16.5
302.107	16.5
302.899	18.5
303.692	17.5
304.485	17.5
305.277	18.5
306.07	14.5
306.862	17.5
307.655	16.5
308.447	12.5
309.239	16.5
310.031	15.5
310.823	12.5
311.615	12.5
312.407	12.5
313.199	12.5
313.991	13.5
314.783	12.5
315.574	12.5
316.366	12.5
317.157	13.5
317.949	10.5
318.74	11.5
319.531	10.5
320.322	11.5
321.113	10.5
321.904	10.5
322.695	9.5
323.486	10.5
324.277	12.5
325.068	9.5
325.858	9.5
326.649	10.5
327.439	9.5
328.23	10.5
329.02	7.5
329.81	9.5
330.6	7.5
331.391	10.5
332.181	8.5
332.971	7.5
333.76	8.5
334.55	10.5
335.34	8.5
336.13	9.5
336.919	7.5
337.709	6.5
338.498	9.5
339.287	9.5
340.077	9.5
340.866	8.5
341.655	7.5
342.444	9.5
343.233	8.5
344.022	6.5
344.811	8.5
345.6	7.5
346.388	7.5
347.177	10.5
347.965	7.5
348.754	7.5
349.542	5.5
350.33	8.5
351.119	8.5
351.907	7.5
352.695	7.5
353.483	6.5
354.271	8.5
355.059	6.5
355.846	8.5
356.634	6.5
357.422	6.5
358.209	7.5
358.997	9.5
359.784	8.5
360.571	7.5
361.359	7.5
362.146	7.5
362.933	6.5
363.72	8.5
364.507	8.5
365.294	6.5
366.081	6.5
366.867	5.5
367.654	9.5
368.44	5.5
369.227	7.5
370.013	6.5
370.8	6.5
371.586	7.5
372.372	6.5
373.158	6.5
373.944	5.5
374.73	6.5
375.516	4.5
376.302	7.5
377.088	8.5
377.873	5.5
378.659	6.5
379.445	7.5
380.23	7.5
381.015	9.5
381.801	7.5
382.586	6.5
383.371	7.5
384.156	7.5
384.941	8.5
385.726	5.5
386.511	9.5
387.296	7.5
388.08	9.5
388.865	8.5
389.649	7.5
390.434	6.5
391.218	8.5
392.003	8.5
392.787	8.5
393.571	6.5
394.355	7.5
395.139	10.5
395.923	8.5
396.707	6.5
397.491	10.5
398.274	10.5
399.058	8.5
399.842	10.5
400.625	9.5
401.408	9.5
402.192	8.5
402.975	8.5
403.758	10.5
404.541	10.5
405.324	9.5
406.107	11.5
406.89	8.5
407.673	8.5
408.456	10.5
409.238	10.5
410.021	10.5
410.803	10.5
411.586	10.5
412.368	10.5
413.151	10.5
413.933	11.5
414.715	12.5
415.497	9.5
416.279	11.5
417.061	13.5
417.843	12.5
418.624	11.5
419.406	12.5
420.188	12.5
420.969	12.5
421.751	14.5
422.532	15.5
423.313	16.5
424.095	13.5
424.876	16.5
425.657	15.5
426.438	14.5
427.219	18.5
428	17.5
428.78	17.5
429.561	17.5
430.342	17.5
431.122	22.5
431.903	19.5
432.683	20.5
433.464	23.5
434.244	21.5
435.024	24.5
435.804	23.5
436.584	25.5
437.364	28.5
438.144	30.5
438.924	30.5
439.704	31.5
440.483	31.5
441.263	38.5
442.042	37.5
442.822	42.5
443.601	43.5
444.38	44.5
445.16	53.5
445.939	56.5
446.718	58.5
447.497	61.5
448.276	69.5
449.054	77.5
449.833	85.5
450.612	91.5
451.391	101.5
452.169	110.5
452.948	120.5
453.726	138.5
454.504	153.5
455.282	165.5
456.061	185.5
456.839	202.5
457.617	224.5
458.395	254.5
459.172	278.5
459.95	312.5
460.728	342.5
461.506	391.5
462.283	431.5
463.061	474.5
463.838	534.5
464.615	594.5
465.393	666.5
466.17	728.5
466.947	798.5
467.724	904.5
468.501	1000.5
469.278	1098.5
470.055	1221.5
470.831	1348.5
471.608	1473.5
472.385	1628.5
473.161	1783.5
473.938	1972.5
474.714	2176.5
475.49	2375.5
476.266	2596.5
477.043	2827.5
477.819	3153.5
478.595	3425.5
479.371	3730.5
480.146	4086.5
480.922	4471.5
481.698	4855.5
482.473	5266.5
483.249	5741.5
484.024	6264.5
484.8	6824.5
485.575	7411.5
486.35	8011.5
487.126	8703.5
487.901	9468.5
488.676	10213.5
489.451	11079.5
490.225	11937.5
491	12883.5
491.775	13952.5
492.55	14922.5
493.324	16066.5
494.099	17242.5
494.873	18321.5
495.647	19606.5
496.422	20841.5
497.196	22102.5
497.97	23432.5
498.744	24722.5
499.518	25987.5
500.292	27122.5
501.066	28178.5
501.839	29331.5
502.613	30338.5
503.387	31040.5
504.16	31755.5
504.934	32312.5
505.707	32546.5
506.48	32727.5
507.253	32725.5
508.027	32548.5
508.8	32347.5
509.573	31957.5
510.346	31378.5
511.118	30694.5
511.891	29862.5
512.664	29040.5
513.437	28043.5
514.209	27070.5
514.982	26173.5
515.754	25255.5
516.526	24209.5
517.298	23300.5
518.071	22356.5
518.843	21411.5
519.615	20530.5
520.387	19759.5
521.159	19007.5
521.93	18283.5
522.702	17557.5
523.474	16865.5
524.245	16240.5
525.017	15491.5
525.788	14799.5
526.56	14228.5
527.331	13528.5
528.102	12955.5
528.873	12369.5
529.644	11799.5
530.415	11292.5
531.186	10834.5
531.957	10219.5
532.728	9754.5
533.498	9184.5
534.269	8718.5
535.039	8306.5
535.81	7807.5
536.58	7427.5
537.351	6990.5
538.121	6635.5
538.891	6296.5
539.661	5995.5
540.431	5644.5
541.201	5373.5
541.971	5064.5
542.741	4814.5
543.51	4596.5
544.28	4332.5
545.05	4127.5
545.819	3934.5
546.588	3740.5
547.358	3524.5
548.127	3337.5
548.896	3173.5
549.665	3037.5
550.434	2875.5
551.203	2751.5
551.972	2603.5
552.741	2466.5
553.51	2320.5
554.278	2198.5
555.047	2066.5
555.815	1962.5
556.584	1862.5
557.352	1757.5
558.121	1647.5
558.889	1566.5
559.657	1486.5
560.425	1393.5
561.193	1319.5
561.961	1252.5
562.729	1192.5
563.496	1130.5
564.264	1069.5
565.032	1005.5
565.799	953.5
566.567	898.5
567.334	839.5
568.101	798.5
568.869	766.5
569.636	718.5
570.403	659.5
571.17	627.5
571.937	595.5
572.704	569.5
573.471	528.5
574.237	501.5
575.004	477.5
575.771	436.5
576.537	419.5
577.303	398.5
578.07	366.5
578.836	346.5
579.602	342.5
580.368	315.5
581.134	298.5
581.9	291.5
582.666	264.5
583.432	255.5
584.198	243.5
584.964	230.5
585.729	214.5
586.495	203.5
587.26	198.5
588.025	184.5
588.791	178.5
589.556	163.5
590.321	156.5
591.086	150.5
591.851	144.5
592.616	129.5
593.381	127.5
594.146	119.5
594.911	118.5
595.675	110.5
596.44	106.5
597.204	99.5
597.969	96.5
598.733	93.5
599.497	92.5
600.261	84.5
601.025	84.5
601.79	77.5
602.553	72.5
603.317	65.5
604.081	65.5
604.845	69.5
605.609	60.5
606.372	63.5
607.136	57.5
607.899	56.5
608.662	53.5
609.426	55.5
610.189	49.5
610.952	47.5
611.715	47.5
612.478	45.5
613.241	42.5
614.004	39.5
614.767	40.5
615.529	40.5
616.292	35.5
617.055	38.5
617.817	32.5
618.579	35.5
619.342	31.5
620.104	29.5
620.866	29.5
621.628	27.5
622.39	27.5
623.152	21.5
623.914	23.5
624.676	24.5
625.438	24.5
626.199	21.5
626.961	23.5
627.722	21.5
628.484	21.5
629.245	18.5
630.006	18.5
630.768	16.5
631.529	22.5
632.29	19.5
633.051	17.5
633.812	19.5
634.573	14.5
635.333	16.5
636.094	17.5
636.855	13.5
637.615	15.5
638.376	14.5
639.136	13.5
639.896	13.5
640.657	16.5
641.417	13.5
642.177	14.5
642.937	11.5
643.697	12.5
644.457	14.5
645.216	10.5
645.976	12.5
646.736	10.5
647.495	13.5
648.255	11.5
649.014	10.5
649.774	11.5
650.533	11.5
651.292	8.5
652.051	10.5
652.81	10.5
653.569	10.5
654.328	10.5
655.087	8.5
655.846	8.5
656.604	9.5
657.363	8.5
658.121	10.5
658.88	6.5
659.638	7.5
660.397	9.5
661.155	7.5
661.913	7.5
662.671	9.5
663.429	5.5
664.187	7.5
664.945	8.5
665.703	7.5
666.46	4.5
667.218	7.5
667.976	8.5
668.733	6.5
669.49	7.5
670.248	7.5
671.005	9.5
671.762	7.5
672.519	5.5
673.276	9.5
674.033	6.5
674.79	7.5
675.547	7.5
676.304	5.5
677.06	8.5
677.817	4.5
678.574	5.5
679.33	3.5
680.086	5.5
680.843	5.5
681.599	4.5
682.355	5.5
683.111	5.5
683.867	4.5
684.623	6.5
685.379	4.5
686.135	8.5
686.89	7.5
687.646	3.5
688.402	3.5
689.157	4.5
689.912	3.5
690.668	6.5
691.423	6.5
692.178	5.5
692.933	5.5
693.688	5.5
694.443	4.5
695.198	6.5
695.953	2.5
696.708	6.5
697.462	6.5
698.217	4.5
698.972	5.5
699.726	4.5
700.48	6.5
701.235	4.5
701.989	7.5
702.743	4.5
703.497	4.5
704.251	5.5
705.005	4.5
705.759	5.5
706.513	6.5
707.266	4.5
708.02	4.5
708.774	4.5
709.527	6.5
710.28	4.5
711.034	4.5
711.787	6.5
712.54	3.5
713.293	6.5
714.046	5.5
714.799	4.5
715.552	4.5
716.305	4.5
717.058	5.5
717.81	5.5
718.563	4.5
719.315	6.5
720.068	5.5
720.82	2.5
721.573	4.5
722.325	6.5
723.077	3.5
723.829	6.5
724.581	3.5
725.333	6.5
726.085	6.5
726.836	4.5
727.588	6.5
728.34	6.5
729.091	5.5
729.843	2.5
730.594	3.5
731.346	6.5
732.097	7.5
732.848	6.5
733.599	5.5
734.35	4.5
735.101	7.5
735.852	4.5
736.603	6.5
737.354	5.5
738.104	7.5
738.855	8.5
739.605	6.5
740.356	8.5
741.106	5.5
741.856	8.5
742.607	4.5
743.357	6.5
744.107	5.5
744.857	5.5
745.607	7.5
746.357	8.5
747.106	4.5
747.856	5.5
748.606	4.5
749.355	6.5
750.105	6.5
750.854	7.5
751.603	5.5
752.353	8.5
753.102	6.5
753.851	5.5
754.6	8.5
755.349	6.5
756.098	8.5
756.847	7.5
757.595	7.5
758.344	5.5
759.093	7.5
759.841	8.5
760.589	7.5
761.338	8.5
762.086	9.5
762.834	5.5
763.582	8.5
764.331	9.5
765.079	9.5
765.826	8.5
766.574	7.5
767.322	10.5
768.07	6.5
768.817	10.5
769.565	9.5
770.312	9.5
771.06	8.5
771.807	9.5
772.554	10.5
773.302	8.5
774.049	8.5
774.796	10.5
775.543	10.5
776.29	9.5
777.036	10.5
777.783	10.5
778.53	10.5
779.276	13.5
780.023	12.5
780.769	11.5
781.516	9.5
782.262	11.5
783.008	10.5
783.754	10.5
784.5	8.5
785.246	10.5
785.992	10.5
786.738	11.5
787.484	9.5
788.23	10.5
788.975	11.5
789.721	10.5
790.466	9.5
791.212	10.5
791.957	10.5
792.702	11.5
793.447	9.5
794.193	10.5
794.938	10.5
795.683	10.5
796.427	10.5
797.172	8.5
797.917	10.5
798.662	11.5
799.406	8.5
800.151	6.5
800.895	12.5
801.64	8.5
802.384	11.5
803.128	6.5
803.872	7.5
804.616	8.5
805.36	6.5
806.104	8.5
806.848	11.5
807.592	7.5
808.336	8.5
809.079	5.5
809.823	8.5
810.566	6.5
811.31	9.5
812.053	7.5
812.796	6.5
813.539	9.5
814.283	6.5
815.026	6.5
815.769	9.5
816.511	6.5
817.254	6.5
817.997	5.5
818.74	6.5
819.482	6.5
820.225	4.5
820.967	7.5
821.71	6.5
822.452	4.5
823.194	4.5
823.936	5.5
824.678	5.5
825.42	6.5
826.162	2.5
826.904	4.5
827.646	6.5
828.388	6.5
829.129	2.5
829.871	5.5
830.612	4.5
831.354	8.5
832.095	4.5
832.836	5.5
833.577	5.5
834.319	2.5
835.06	5.5
835.801	4.5
836.542	5.5
837.282	5.5
838.023	6.5
838.764	4.5
839.504	5.5
840.245	3.5
840.985	3.5
841.726	2.5
842.466	5.5
843.206	2.5
843.946	5.5
844.687	1.5
845.427	5.5
846.166	4.5
846.906	5.5
847.646	5.5
848.386	7.5
849.125	4.5
849.865	3.5
850.605	5.5
851.344	3.5
852.083	2.5
852.823	3.5
853.562	2.5
854.301	3.5
855.04	4.5
855.779	1.5
856.518	3.5
857.257	2.5
857.995	2.5
858.734	3.5
859.473	4.5
860.211	3.5
860.95	2.5
861.688	2.5
862.426	2.5
863.165	6.5
863.903	0.5
864.641	4.5
865.379	2.5
866.117	2.5
866.855	3.5
867.593	0.5
868.33	2.5
869.068	1.5
869.806	2.5
870.543	2.5
871.28	1.5
872.018	1.5
872.755	3.5
873.492	3.5
874.229	2.5
874.967	1.5
875.703	3.5
876.44	0.5
877.177	1.5
877.914	0.5
878.651	0.5
879.387	1.5
880.124	2.5
880.86	2.5
881.597	1.5
882.333	1.5
883.069	1.5
883.806	2.5
884.542	2.5
885.278	2.5
886.014	1.5
886.749	3.5
887.485	0.5
888.221	2.5
888.957	2.5
889.692	0.5
890.428	1.5
891.163	0.5
891.899	1.5
892.634	0.5
893.369	1.5
894.104	1.5
894.839	0.5
895.574	2.5
896.309	2.5
897.044	1.5
897.779	0.5
898.514	1.5
899.248	0.5
899.983	0.5
900.717	1.5
901.452	-0.5
902.186	3.5
902.92	0.5
903.654	3.5
904.389	0.5
905.123	0.5
905.857	2.5
906.59	-1.5
907.324	1.5
908.058	2.5
908.792	0.5
909.525	0.5
910.259	-0.5
910.992	0.5
911.726	-0.5
912.459	0.5
913.192	1.5
913.925	0.5
914.658	-0.5
915.391	-1.5
916.124	2.5
916.857	1.5
917.59	1.5
918.323	1.5
919.055	0.5
919.788	0.5
920.521	0.5
921.253	1.5
921.985	0.5
922.718	-1.5
923.45	-0.5
924.182	1.5
924.914	1.5
925.646	0.5
926.378	0.5
927.11	1.5
927.841	1.5
928.573	0.5
929.305	0.5
930.036	2.5
930.768	0.5
931.499	1.5
932.23	0.5
932.962	-0.5
933.693	0.5
934.424	2.5
935.155	2.5
935.886	2.5
936.617	0.5
937.348	0.5
938.078	0.5
938.809	1.5
939.54	0.5
940.27	1.5
941.001	1.5
941.731	-0.5
942.461	1.5
943.191	-0.5
943.922	1.5
944.652	1.5
945.382	1.5
946.112	-0.5
946.841	-1.5
947.571	1.5
948.301	0.5
949.031	0.5
949.76	1.5
950.49	-1.5
951.219	-0.5
951.948	1.5
952.678	1.5
953.407	2.5
954.136	0.5
954.865	-1.5
955.594	1.5
956.323	1.5
957.052	0.5
957.78	2.5
958.509	0.5
959.238	0.5
959.966	0.5
960.695	2.5
961.423	1.5
962.151	2.5
962.88	1.5
963.608	-0.5
964.336	0.5
965.064	1.5
965.792	-0.5
966.52	1.5
967.247	2.5
967.975	1.5
968.703	1.5
969.43	-1.5
970.158	1.5
970.885	1.5
971.613	1.5
972.34	1.5
973.067	-0.5
973.794	0.5
974.521	0.5
975.248	0.5
975.975	-1.5
976.702	0.5
977.429	0.5
978.156	1.5
978.882	0.5
979.609	1.5
980.335	-0.5
981.062	0.5
981.788	0.5
982.514	0.5
983.24	1.5
983.967	2.5
984.693	-1.5
985.419	2.5
986.144	0.5
986.87	0.5
987.596	1.5
988.322	-0.5
989.047	1.5
989.773	0.5
990.498	0.5
991.224	1.5
991.949	-0.5
992.674	2.5
993.399	0.5
994.124	-0.5
994.849	-1.5
995.574	-0.5
996.299	1.5
997.024	-0.5
997.749	2.5
998.473	1.5
999.198	-1.5
999.922	2.5
1000.647	-1.5
1001.371	2.5
1002.095	-0.5
1002.82	-2.5
1003.544	0.5
1004.268	2.5
1004.992	3.5
1005.716	-0.5
1006.439	3.5
1007.163	2.5
1007.887	1.5
1008.611	0.5
1009.334	0.5
1010.058	1.5
1010.781	1.5
1011.504	-0.5
1012.228	1.5
1012.951	0.5
1013.674	-0.5
1014.397	-0.5
1015.12	0.5
