节点500_425_QEPB04081__206__15-51-44-103.txt的数据

Date: Wed Nov 12 15:51:44 CST 2025
User: PC
Spectrometer: QEPB0408
触发模式: 0
积分时间 (秒): 1.000000E-2
Scans to average: 1
启用暗噪声校正: true
启用非线性校正: false
滑动平均宽度: 0
X轴模式: Wavelengths
Number of Pixels in Spectrum: 1044
>>>>>Begin Spectral Data<<<<<
220.843	3.12
221.644	4.12
222.444	3.12
223.244	2.12
224.045	3.12
224.845	6.12
225.645	2.12
226.445	3.12
227.245	4.12
228.045	1.12
228.845	5.12
229.645	6.12
230.444	2.12
231.244	4.12
232.043	5.12
232.843	7.12
233.642	4.12
234.442	7.12
235.241	7.12
236.04	4.12
236.839	4.12
237.638	5.12
238.437	5.12
239.236	5.12
240.035	8.12
240.833	7.12
241.632	10.12
242.43	7.12
243.229	8.12
244.027	7.12
244.826	8.12
245.624	9.12
246.422	10.12
247.22	10.12
248.018	9.12
248.816	9.12
249.614	9.12
250.412	8.12
251.21	9.12
252.007	10.12
252.805	9.12
253.602	9.12
254.4	12.12
255.197	14.12
255.994	12.12
256.791	10.12
257.589	15.12
258.386	17.12
259.183	15.12
259.979	15.12
260.776	18.12
261.573	16.12
262.37	15.12
263.166	14.12
263.963	17.12
264.759	15.12
265.556	20.12
266.352	17.12
267.148	20.12
267.944	20.12
268.74	23.12
269.536	20.12
270.332	23.12
271.128	22.12
271.924	22.12
272.719	20.12
273.515	23.12
274.311	24.12
275.106	22.12
275.901	22.12
276.697	26.12
277.492	26.12
278.287	26.12
279.082	26.12
279.877	25.12
280.672	26.12
281.467	25.12
282.262	28.12
283.056	25.12
283.851	26.12
284.646	28.12
285.44	23.12
286.234	25.12
287.029	24.12
287.823	29.12
288.617	27.12
289.411	22.12
290.205	24.12
290.999	23.12
291.793	23.12
292.587	24.12
293.381	25.12
294.174	23.12
294.968	21.12
295.761	23.12
296.555	21.12
297.348	18.12
298.141	17.12
298.935	21.12
299.728	21.12
300.521	18.12
301.314	20.12
302.107	19.12
302.899	18.12
303.692	17.12
304.485	16.12
305.277	17.12
306.07	17.12
306.862	16.12
307.655	16.12
308.447	16.12
309.239	16.12
310.031	12.12
310.823	14.12
311.615	12.12
312.407	11.12
313.199	13.12
313.991	12.12
314.783	14.12
315.574	11.12
316.366	12.12
317.157	11.12
317.949	11.12
318.74	11.12
319.531	9.12
320.322	12.12
321.113	11.12
321.904	11.12
322.695	10.12
323.486	9.12
324.277	10.12
325.068	10.12
325.858	8.12
326.649	6.12
327.439	8.12
328.23	6.12
329.02	10.12
329.81	7.12
330.6	8.12
331.391	9.12
332.181	8.12
332.971	6.12
333.76	6.12
334.55	8.12
335.34	10.12
336.13	7.12
336.919	10.12
337.709	7.12
338.498	11.12
339.287	11.12
340.077	8.12
340.866	9.12
341.655	6.12
342.444	6.12
343.233	8.12
344.022	7.12
344.811	10.12
345.6	6.12
346.388	9.12
347.177	7.12
347.965	8.12
348.754	8.12
349.542	5.12
350.33	7.12
351.119	8.12
351.907	7.12
352.695	9.12
353.483	7.12
354.271	8.12
355.059	9.12
355.846	7.12
356.634	8.12
357.422	8.12
358.209	10.12
358.997	8.12
359.784	10.12
360.571	8.12
361.359	7.12
362.146	10.12
362.933	7.12
363.72	8.12
364.507	6.12
365.294	8.12
366.081	6.12
366.867	8.12
367.654	9.12
368.44	6.12
369.227	7.12
370.013	8.12
370.8	5.12
371.586	7.12
372.372	6.12
373.158	8.12
373.944	9.12
374.73	8.12
375.516	6.12
376.302	6.12
377.088	5.12
377.873	6.12
378.659	6.12
379.445	8.12
380.23	5.12
381.015	6.12
381.801	7.12
382.586	10.12
383.371	7.12
384.156	7.12
384.941	6.12
385.726	6.12
386.511	8.12
387.296	9.12
388.08	6.12
388.865	7.12
389.649	7.12
390.434	9.12
391.218	7.12
392.003	9.12
392.787	11.12
393.571	9.12
394.355	9.12
395.139	9.12
395.923	6.12
396.707	10.12
397.491	10.12
398.274	8.12
399.058	9.12
399.842	9.12
400.625	8.12
401.408	10.12
402.192	8.12
402.975	9.12
403.758	8.12
404.541	9.12
405.324	10.12
406.107	11.12
406.89	9.12
407.673	9.12
408.456	10.12
409.238	12.12
410.021	12.12
410.803	13.12
411.586	12.12
412.368	12.12
413.151	11.12
413.933	12.12
414.715	12.12
415.497	13.12
416.279	11.12
417.061	14.12
417.843	11.12
418.624	13.12
419.406	14.12
420.188	15.12
420.969	15.12
421.751	16.12
422.532	17.12
423.313	14.12
424.095	15.12
424.876	18.12
425.657	18.12
426.438	18.12
427.219	15.12
428	16.12
428.78	17.12
429.561	20.12
430.342	20.12
431.122	20.12
431.903	22.12
432.683	21.12
433.464	23.12
434.244	26.12
435.024	24.12
435.804	24.12
436.584	29.12
437.364	30.12
438.144	30.12
438.924	30.12
439.704	30.12
440.483	32.12
441.263	32.12
442.042	37.12
442.822	39.12
443.601	42.12
444.38	45.12
445.16	50.12
445.939	50.12
446.718	53.12
447.497	61.12
448.276	61.12
449.054	72.12
449.833	80.12
450.612	85.12
451.391	88.12
452.169	100.12
452.948	112.12
453.726	120.12
454.504	130.12
455.282	146.12
456.061	163.12
456.839	181.12
457.617	206.12
458.395	227.12
459.172	254.12
459.95	277.12
460.728	311.12
461.506	351.12
462.283	393.12
463.061	435.12
463.838	489.12
464.615	550.12
465.393	614.12
466.17	681.12
466.947	772.12
467.724	853.12
468.501	942.12
469.278	1040.12
470.055	1154.12
470.831	1277.12
471.608	1438.12
472.385	1581.12
473.161	1742.12
473.938	1949.12
474.714	2159.12
475.49	2371.12
476.266	2625.12
477.043	2912.12
477.819	3209.12
478.595	3520.12
479.371	3886.12
480.146	4261.12
480.922	4703.12
481.698	5154.12
482.473	5666.12
483.249	6205.12
484.024	6816.12
484.8	7494.12
485.575	8162.12
486.35	8907.12
487.126	9774.12
487.901	10647.12
488.676	11637.12
489.451	12686.12
490.225	13769.12
491	14958.12
491.775	16214.12
492.55	17475.12
493.324	18833.12
494.099	20221.12
494.873	21621.12
495.647	23047.12
496.422	24589.12
497.196	26039.12
497.97	27637.12
498.744	29018.12
499.518	30341.12
500.292	31554.12
501.066	32715.12
501.839	33810.12
502.613	34719.12
503.387	35394.12
504.16	35889.12
504.934	36054.12
505.707	36076.12
506.48	35927.12
507.253	35581.12
508.027	35095.12
508.8	34464.12
509.573	33702.12
510.346	32740.12
511.118	31781.12
511.891	30758.12
512.664	29521.12
513.437	28438.12
514.209	27094.12
514.982	26143.12
515.754	25040.12
516.526	23949.12
517.298	22978.12
518.071	22011.12
518.843	21029.12
519.615	20225.12
520.387	19353.12
521.159	18698.12
521.93	17898.12
522.702	17230.12
523.474	16568.12
524.245	15893.12
525.017	15136.12
525.788	14445.12
526.56	13760.12
527.331	13155.12
528.102	12535.12
528.873	11917.12
529.644	11339.12
530.415	10834.12
531.186	10330.12
531.957	9745.12
532.728	9216.12
533.498	8702.12
534.269	8214.12
535.039	7815.12
535.81	7380.12
536.58	6969.12
537.351	6554.12
538.121	6207.12
538.891	5833.12
539.661	5563.12
540.431	5269.12
541.201	4968.12
541.971	4723.12
542.741	4461.12
543.51	4256.12
544.28	4055.12
545.05	3816.12
545.819	3674.12
546.588	3478.12
547.358	3272.12
548.127	3111.12
548.896	2937.12
549.665	2821.12
550.434	2654.12
551.203	2552.12
551.972	2393.12
552.741	2272.12
553.51	2138.12
554.278	2014.12
555.047	1906.12
555.815	1786.12
556.584	1707.12
557.352	1602.12
558.121	1512.12
558.889	1429.12
559.657	1353.12
560.425	1278.12
561.193	1192.12
561.961	1147.12
562.729	1076.12
563.496	1015.12
564.264	966.12
565.032	901.12
565.799	865.12
566.567	822.12
567.334	772.12
568.101	724.12
568.869	687.12
569.636	651.12
570.403	608.12
571.17	571.12
571.937	540.12
572.704	521.12
573.471	486.12
574.237	455.12
575.004	430.12
575.771	401.12
576.537	377.12
577.303	357.12
578.07	337.12
578.836	321.12
579.602	302.12
580.368	288.12
581.134	270.12
581.9	252.12
582.666	247.12
583.432	229.12
584.198	225.12
584.964	208.12
585.729	203.12
586.495	190.12
587.26	182.12
588.025	170.12
588.791	159.12
589.556	154.12
590.321	140.12
591.086	141.12
591.851	131.12
592.616	125.12
593.381	116.12
594.146	112.12
594.911	103.12
595.675	98.12
596.44	98.12
597.204	93.12
597.969	89.12
598.733	82.12
599.497	84.12
600.261	81.12
601.025	74.12
601.79	70.12
602.553	69.12
603.317	66.12
604.081	63.12
604.845	59.12
605.609	58.12
606.372	55.12
607.136	52.12
607.899	52.12
608.662	50.12
609.426	50.12
610.189	42.12
610.952	45.12
611.715	41.12
612.478	42.12
613.241	37.12
614.004	41.12
614.767	36.12
615.529	36.12
616.292	35.12
617.055	33.12
617.817	29.12
618.579	32.12
619.342	29.12
620.104	26.12
620.866	28.12
621.628	26.12
622.39	24.12
623.152	24.12
623.914	25.12
624.676	24.12
625.438	23.12
626.199	20.12
626.961	22.12
627.722	22.12
628.484	21.12
629.245	20.12
630.006	21.12
630.768	16.12
631.529	20.12
632.29	20.12
633.051	18.12
633.812	17.12
634.573	17.12
635.333	13.12
636.094	14.12
636.855	14.12
637.615	15.12
638.376	15.12
639.136	15.12
639.896	14.12
640.657	13.12
641.417	11.12
642.177	11.12
642.937	12.12
643.697	12.12
644.457	10.12
645.216	12.12
645.976	12.12
646.736	12.12
647.495	8.12
648.255	12.12
649.014	8.12
649.774	10.12
650.533	10.12
651.292	9.12
652.051	10.12
652.81	8.12
653.569	7.12
654.328	9.12
655.087	8.12
655.846	10.12
656.604	6.12
657.363	6.12
658.121	9.12
658.88	8.12
659.638	8.12
660.397	7.12
661.155	7.12
661.913	7.12
662.671	8.12
663.429	9.12
664.187	7.12
664.945	7.12
665.703	5.12
666.46	9.12
667.218	5.12
667.976	6.12
668.733	7.12
669.49	7.12
670.248	7.12
671.005	4.12
671.762	6.12
672.519	7.12
673.276	4.12
674.033	8.12
674.79	5.12
675.547	5.12
676.304	8.12
677.06	5.12
677.817	7.12
678.574	4.12
679.33	4.12
680.086	6.12
680.843	5.12
681.599	4.12
682.355	6.12
683.111	5.12
683.867	6.12
684.623	6.12
685.379	4.12
686.135	7.12
686.89	5.12
687.646	5.12
688.402	4.12
689.157	4.12
689.912	3.12
690.668	6.12
691.423	2.12
692.178	4.12
692.933	4.12
693.688	5.12
694.443	4.12
695.198	5.12
695.953	5.12
696.708	4.12
697.462	6.12
698.217	4.12
698.972	5.12
699.726	4.12
700.48	3.12
701.235	4.12
701.989	1.12
702.743	3.12
703.497	4.12
704.251	6.12
705.005	5.12
705.759	6.12
706.513	8.12
707.266	6.12
708.02	7.12
708.774	4.12
709.527	7.12
710.28	4.12
711.034	5.12
711.787	4.12
712.54	5.12
713.293	5.12
714.046	2.12
714.799	4.12
715.552	4.12
716.305	5.12
717.058	7.12
717.81	3.12
718.563	3.12
719.315	4.12
720.068	5.12
720.82	7.12
721.573	7.12
722.325	3.12
723.077	8.12
723.829	4.12
724.581	6.12
725.333	5.12
726.085	8.12
726.836	5.12
727.588	4.12
728.34	6.12
729.091	5.12
729.843	6.12
730.594	6.12
731.346	5.12
732.097	7.12
732.848	4.12
733.599	5.12
734.35	4.12
735.101	7.12
735.852	6.12
736.603	4.12
737.354	7.12
738.104	5.12
738.855	6.12
739.605	8.12
740.356	6.12
741.106	4.12
741.856	7.12
742.607	6.12
743.357	7.12
744.107	9.12
744.857	9.12
745.607	7.12
746.357	7.12
747.106	8.12
747.856	9.12
748.606	6.12
749.355	7.12
750.105	6.12
750.854	8.12
751.603	9.12
752.353	8.12
753.102	7.12
753.851	8.12
754.6	8.12
755.349	9.12
756.098	6.12
756.847	10.12
757.595	9.12
758.344	8.12
759.093	7.12
759.841	7.12
760.589	6.12
761.338	9.12
762.086	9.12
762.834	7.12
763.582	8.12
764.331	10.12
765.079	10.12
765.826	10.12
766.574	9.12
767.322	8.12
768.07	11.12
768.817	10.12
769.565	13.12
770.312	10.12
771.06	11.12
771.807	6.12
772.554	10.12
773.302	14.12
774.049	6.12
774.796	11.12
775.543	10.12
776.29	11.12
777.036	12.12
777.783	7.12
778.53	10.12
779.276	10.12
780.023	11.12
780.769	10.12
781.516	12.12
782.262	12.12
783.008	12.12
783.754	13.12
784.5	13.12
785.246	12.12
785.992	10.12
786.738	10.12
787.484	12.12
788.23	11.12
788.975	11.12
789.721	10.12
790.466	11.12
791.212	10.12
791.957	7.12
792.702	13.12
793.447	9.12
794.193	10.12
794.938	11.12
795.683	10.12
796.427	12.12
797.172	10.12
797.917	12.12
798.662	9.12
799.406	9.12
800.151	9.12
800.895	7.12
801.64	10.12
802.384	12.12
803.128	9.12
803.872	8.12
804.616	8.12
805.36	10.12
806.104	7.12
806.848	8.12
807.592	8.12
808.336	7.12
809.079	9.12
809.823	6.12
810.566	7.12
811.31	8.12
812.053	6.12
812.796	7.12
813.539	6.12
814.283	7.12
815.026	6.12
815.769	6.12
816.511	6.12
817.254	7.12
817.997	4.12
818.74	5.12
819.482	8.12
820.225	5.12
820.967	7.12
821.71	6.12
822.452	4.12
823.194	6.12
823.936	7.12
824.678	4.12
825.42	9.12
826.162	6.12
826.904	7.12
827.646	2.12
828.388	5.12
829.129	3.12
829.871	6.12
830.612	3.12
831.354	2.12
832.095	6.12
832.836	4.12
833.577	4.12
834.319	4.12
835.06	6.12
835.801	4.12
836.542	2.12
837.282	6.12
838.023	4.12
838.764	5.12
839.504	3.12
840.245	-0.88
840.985	6.12
841.726	2.12
842.466	4.12
843.206	6.12
843.946	5.12
844.687	4.12
845.427	2.12
846.166	5.12
846.906	1.12
847.646	3.12
848.386	3.12
849.125	6.12
849.865	3.12
850.605	6.12
851.344	3.12
852.083	3.12
852.823	5.12
853.562	2.12
854.301	4.12
855.04	3.12
855.779	1.12
856.518	4.12
857.257	5.12
857.995	1.12
858.734	2.12
859.473	3.12
860.211	1.12
860.95	2.12
861.688	4.12
862.426	3.12
863.165	2.12
863.903	4.12
864.641	2.12
865.379	3.12
866.117	2.12
866.855	2.12
867.593	2.12
868.33	2.12
869.068	2.12
869.806	2.12
870.543	2.12
871.28	1.12
872.018	1.12
872.755	3.12
873.492	2.12
874.229	2.12
874.967	2.12
875.703	2.12
876.44	2.12
877.177	1.12
877.914	0.12
878.651	1.12
879.387	2.12
880.124	2.12
880.86	2.12
881.597	3.12
882.333	1.12
883.069	0.12
883.806	-0.88
884.542	1.12
885.278	-0.88
886.014	1.12
886.749	2.12
887.485	1.12
888.221	1.12
888.957	2.12
889.692	1.12
890.428	3.12
891.163	0.12
891.899	1.12
892.634	-1.88
893.369	1.12
894.104	-0.88
894.839	2.12
895.574	3.12
896.309	2.12
897.044	1.12
897.779	-0.88
898.514	0.12
899.248	1.12
899.983	0.12
900.717	2.12
901.452	0.12
902.186	1.12
902.92	2.12
903.654	-0.88
904.389	-0.88
905.123	2.12
905.857	0.12
906.59	0.12
907.324	3.12
908.058	1.12
908.792	-0.88
909.525	2.12
910.259	0.12
910.992	2.12
911.726	-0.88
912.459	0.12
913.192	1.12
913.925	0.12
914.658	0.12
915.391	1.12
916.124	1.12
916.857	0.12
917.59	0.12
918.323	0.12
919.055	1.12
919.788	-0.88
920.521	2.12
921.253	1.12
921.985	2.12
922.718	-1.88
923.45	-0.88
924.182	2.12
924.914	-1.88
925.646	0.12
926.378	2.12
927.11	2.12
927.841	-0.88
928.573	0.12
929.305	0.12
930.036	-1.88
930.768	3.12
931.499	-0.88
932.23	1.12
932.962	0.12
933.693	0.12
934.424	0.12
935.155	1.12
935.886	0.12
936.617	0.12
937.348	0.12
938.078	0.12
938.809	-0.88
939.54	0.12
940.27	-1.88
941.001	1.12
941.731	0.12
942.461	0.12
943.191	2.12
943.922	-0.88
944.652	0.12
945.382	2.12
946.112	-0.88
946.841	-0.88
947.571	0.12
948.301	-0.88
949.031	0.12
949.76	0.12
950.49	1.12
951.219	0.12
951.948	1.12
952.678	0.12
953.407	0.12
954.136	2.12
954.865	-0.88
955.594	-0.88
956.323	1.12
957.052	-0.88
957.78	-0.88
958.509	0.12
959.238	1.12
959.966	-0.88
960.695	0.12
961.423	-0.88
962.151	0.12
962.88	2.12
963.608	1.12
964.336	-1.88
965.064	-0.88
965.792	0.12
966.52	0.12
967.247	0.12
967.975	1.12
968.703	1.12
969.43	1.12
970.158	-0.88
970.885	-1.88
971.613	0.12
972.34	1.12
973.067	0.12
973.794	0.12
974.521	2.12
975.248	1.12
975.975	2.12
976.702	2.12
977.429	-0.88
978.156	1.12
978.882	0.12
979.609	0.12
980.335	-0.88
981.062	0.12
981.788	-0.88
982.514	0.12
983.24	0.12
983.967	-1.88
984.693	2.12
985.419	0.12
986.144	0.12
986.87	0.12
987.596	-0.88
988.322	-0.88
989.047	-1.88
989.773	2.12
990.498	1.12
991.224	0.12
991.949	1.12
992.674	0.12
993.399	1.12
994.124	-0.88
994.849	0.12
995.574	1.12
996.299	-0.88
997.024	0.12
997.749	0.12
998.473	1.12
999.198	1.12
999.922	-0.88
1000.647	1.12
1001.371	5.12
1002.095	1.12
1002.82	-1.88
1003.544	-1.88
1004.268	2.12
1004.992	0.12
1005.716	3.12
1006.439	2.12
1007.163	4.12
1007.887	2.12
1008.611	0.12
1009.334	1.12
1010.058	0.12
1010.781	1.12
1011.504	1.12
1012.228	0.12
1012.951	-0.88
1013.674	-1.88
1014.397	0.12
1015.12	0.12
