节点500_425_QEPB04081__129__15-50-27-302.txt的数据

Date: Wed Nov 12 15:50:27 CST 2025
User: PC
Spectrometer: QEPB0408
触发模式: 0
积分时间 (秒): 1.000000E-2
Scans to average: 1
启用暗噪声校正: true
启用非线性校正: false
滑动平均宽度: 0
X轴模式: Wavelengths
Number of Pixels in Spectrum: 1044
>>>>>Begin Spectral Data<<<<<
220.843	4
221.644	2
222.444	1
223.244	2
224.045	4
224.845	2
225.645	4
226.445	2
227.245	4
228.045	4
228.845	7
229.645	4
230.444	3
231.244	4
232.043	2
232.843	4
233.642	7
234.442	5
235.241	6
236.04	5
236.839	7
237.638	7
238.437	4
239.236	7
240.035	7
240.833	6
241.632	7
242.43	8
243.229	9
244.027	7
244.826	8
245.624	8
246.422	7
247.22	9
248.018	9
248.816	8
249.614	9
250.412	10
251.21	8
252.007	10
252.805	10
253.602	11
254.4	13
255.197	11
255.994	13
256.791	13
257.589	12
258.386	15
259.183	14
259.979	16
260.776	16
261.573	17
262.37	15
263.166	16
263.963	18
264.759	16
265.556	16
266.352	18
267.148	19
267.944	17
268.74	20
269.536	22
270.332	19
271.128	24
271.924	20
272.719	22
273.515	22
274.311	24
275.106	24
275.901	26
276.697	24
277.492	22
278.287	24
279.082	22
279.877	26
280.672	28
281.467	24
282.262	24
283.056	23
283.851	27
284.646	30
285.44	26
286.234	26
287.029	27
287.823	24
288.617	23
289.411	27
290.205	26
290.999	25
291.793	24
292.587	24
293.381	23
294.174	22
294.968	21
295.761	21
296.555	22
297.348	20
298.141	19
298.935	23
299.728	19
300.521	20
301.314	18
302.107	14
302.899	16
303.692	16
304.485	15
305.277	17
306.07	18
306.862	17
307.655	16
308.447	13
309.239	16
310.031	15
310.823	15
311.615	14
312.407	11
313.199	12
313.991	12
314.783	10
315.574	12
316.366	14
317.157	13
317.949	10
318.74	12
319.531	11
320.322	9
321.113	10
321.904	11
322.695	10
323.486	8
324.277	12
325.068	11
325.858	9
326.649	8
327.439	8
328.23	8
329.02	10
329.81	11
330.6	9
331.391	9
332.181	10
332.971	8
333.76	6
334.55	9
335.34	11
336.13	8
336.919	6
337.709	7
338.498	7
339.287	9
340.077	8
340.866	7
341.655	8
342.444	8
343.233	8
344.022	7
344.811	8
345.6	7
346.388	11
347.177	8
347.965	8
348.754	10
349.542	8
350.33	7
351.119	10
351.907	6
352.695	8
353.483	6
354.271	8
355.059	8
355.846	6
356.634	8
357.422	7
358.209	10
358.997	8
359.784	6
360.571	8
361.359	4
362.146	8
362.933	8
363.72	7
364.507	7
365.294	7
366.081	5
366.867	6
367.654	7
368.44	6
369.227	7
370.013	8
370.8	7
371.586	9
372.372	7
373.158	6
373.944	8
374.73	8
375.516	6
376.302	4
377.088	7
377.873	5
378.659	7
379.445	8
380.23	8
381.015	9
381.801	7
382.586	9
383.371	8
384.156	9
384.941	6
385.726	8
386.511	7
387.296	7
388.08	8
388.865	7
389.649	9
390.434	10
391.218	6
392.003	10
392.787	9
393.571	10
394.355	9
395.139	8
395.923	8
396.707	10
397.491	9
398.274	6
399.058	9
399.842	8
400.625	10
401.408	9
402.192	10
402.975	9
403.758	8
404.541	10
405.324	10
406.107	10
406.89	15
407.673	10
408.456	12
409.238	9
410.021	10
410.803	14
411.586	12
412.368	13
413.151	12
413.933	13
414.715	12
415.497	12
416.279	13
417.061	12
417.843	12
418.624	17
419.406	14
420.188	14
420.969	14
421.751	15
422.532	15
423.313	16
424.095	14
424.876	18
425.657	16
426.438	17
427.219	18
428	19
428.78	18
429.561	19
430.342	18
431.122	21
431.903	21
432.683	21
433.464	23
434.244	25
435.024	26
435.804	26
436.584	28
437.364	25
438.144	27
438.924	30
439.704	33
440.483	32
441.263	37
442.042	37
442.822	40
443.601	45
444.38	49
445.16	50
445.939	51
446.718	56
447.497	60
448.276	66
449.054	68
449.833	78
450.612	87
451.391	91
452.169	98
452.948	106
453.726	120
454.504	129
455.282	143
456.061	159
456.839	176
457.617	200
458.395	219
459.172	244
459.95	275
460.728	304
461.506	339
462.283	379
463.061	427
463.838	469
464.615	539
465.393	595
466.17	661
466.947	748
467.724	823
468.501	920
469.278	1028
470.055	1142
470.831	1263
471.608	1400
472.385	1570
473.161	1749
473.938	1941
474.714	2141
475.49	2374
476.266	2625
477.043	2896
477.819	3185
478.595	3538
479.371	3905
480.146	4299
480.922	4744
481.698	5193
482.473	5733
483.249	6290
484.024	6910
484.8	7632
485.575	8338
486.35	9101
487.126	9952
487.901	10906
488.676	11911
489.451	12989
490.225	14118
491	15318
491.775	16684
492.55	18041
493.324	19411
494.099	20883
494.873	22311
495.647	23806
496.422	25341
497.196	26793
497.97	28536
498.744	29913
499.518	31280
500.292	32609
501.066	33568
501.839	34786
502.613	35504
503.387	36188
504.16	36625
504.934	36741
505.707	36625
506.48	36444
507.253	36138
508.027	35488
508.8	34749
509.573	33877
510.346	32908
511.118	31819
511.891	30750
512.664	29480
513.437	28296
514.209	27083
514.982	26010
515.754	24937
516.526	23752
517.298	22771
518.071	21762
518.843	20921
519.615	20029
520.387	19243
521.159	18518
521.93	17794
522.702	17095
523.474	16392
524.245	15798
525.017	15024
525.788	14385
526.56	13678
527.331	13010
528.102	12370
528.873	11781
529.644	11235
530.415	10662
531.186	10123
531.957	9591
532.728	9063
533.498	8570
534.269	8080
535.039	7657
535.81	7229
536.58	6810
537.351	6386
538.121	6070
538.891	5765
539.661	5498
540.431	5184
541.201	4885
541.971	4635
542.741	4420
543.51	4174
544.28	3957
545.05	3765
545.819	3613
546.588	3439
547.358	3242
548.127	3055
548.896	2906
549.665	2774
550.434	2588
551.203	2474
551.972	2347
552.741	2226
553.51	2107
554.278	1969
555.047	1857
555.815	1765
556.584	1655
557.352	1560
558.121	1482
558.889	1379
559.657	1310
560.425	1247
561.193	1169
561.961	1097
562.729	1057
563.496	994
564.264	951
565.032	899
565.799	839
566.567	798
567.334	750
568.101	700
568.869	675
569.636	637
570.403	594
571.17	562
571.937	529
572.704	500
573.471	479
574.237	454
575.004	418
575.771	387
576.537	367
577.303	355
578.07	336
578.836	312
579.602	288
580.368	275
581.134	267
581.9	255
582.666	243
583.432	224
584.198	212
584.964	201
585.729	201
586.495	181
587.26	174
588.025	166
588.791	157
589.556	148
590.321	142
591.086	138
591.851	126
592.616	124
593.381	116
594.146	107
594.911	106
595.675	101
596.44	94
597.204	90
597.969	85
598.733	81
599.497	81
600.261	78
601.025	70
601.79	69
602.553	65
603.317	64
604.081	60
604.845	56
605.609	62
606.372	58
607.136	52
607.899	49
608.662	49
609.426	47
610.189	45
610.952	43
611.715	40
612.478	41
613.241	41
614.004	37
614.767	36
615.529	34
616.292	34
617.055	29
617.817	30
618.579	29
619.342	28
620.104	28
620.866	29
621.628	29
622.39	26
623.152	23
623.914	26
624.676	23
625.438	24
626.199	23
626.961	20
627.722	19
628.484	21
629.245	21
630.006	17
630.768	18
631.529	18
632.29	14
633.051	18
633.812	18
634.573	17
635.333	16
636.094	14
636.855	14
637.615	13
638.376	14
639.136	13
639.896	14
640.657	9
641.417	12
642.177	12
642.937	10
643.697	10
644.457	10
645.216	10
645.976	13
646.736	12
647.495	12
648.255	10
649.014	10
649.774	13
650.533	9
651.292	9
652.051	9
652.81	7
653.569	8
654.328	8
655.087	7
655.846	10
656.604	10
657.363	8
658.121	11
658.88	10
659.638	7
660.397	10
661.155	7
661.913	7
662.671	6
663.429	8
664.187	8
664.945	7
665.703	5
666.46	6
667.218	6
667.976	7
668.733	7
669.49	8
670.248	6
671.005	7
671.762	6
672.519	7
673.276	6
674.033	5
674.79	3
675.547	6
676.304	7
677.06	4
677.817	2
678.574	7
679.33	7
680.086	5
680.843	5
681.599	7
682.355	7
683.111	6
683.867	5
684.623	3
685.379	6
686.135	6
686.89	4
687.646	5
688.402	4
689.157	7
689.912	6
690.668	6
691.423	7
692.178	6
692.933	4
693.688	4
694.443	6
695.198	5
695.953	6
696.708	6
697.462	7
698.217	7
698.972	6
699.726	4
700.48	2
701.235	5
701.989	5
702.743	7
703.497	5
704.251	5
705.005	5
705.759	4
706.513	4
707.266	4
708.02	2
708.774	5
709.527	6
710.28	4
711.034	6
711.787	3
712.54	4
713.293	5
714.046	7
714.799	3
715.552	6
716.305	7
717.058	5
717.81	7
718.563	5
719.315	6
720.068	6
720.82	5
721.573	6
722.325	5
723.077	5
723.829	5
724.581	6
725.333	5
726.085	6
726.836	3
727.588	5
728.34	6
729.091	4
729.843	7
730.594	6
731.346	5
732.097	5
732.848	6
733.599	7
734.35	7
735.101	4
735.852	4
736.603	7
737.354	7
738.104	5
738.855	6
739.605	10
740.356	7
741.106	7
741.856	7
742.607	4
743.357	8
744.107	6
744.857	8
745.607	7
746.357	6
747.106	5
747.856	8
748.606	8
749.355	8
750.105	8
750.854	5
751.603	9
752.353	8
753.102	8
753.851	7
754.6	9
755.349	8
756.098	9
756.847	8
757.595	7
758.344	8
759.093	9
759.841	8
760.589	7
761.338	11
762.086	6
762.834	10
763.582	7
764.331	8
765.079	10
765.826	9
766.574	10
767.322	9
768.07	10
768.817	12
769.565	10
770.312	12
771.06	10
771.807	10
772.554	11
773.302	11
774.049	11
774.796	10
775.543	11
776.29	7
777.036	11
777.783	12
778.53	13
779.276	13
780.023	10
780.769	12
781.516	11
782.262	11
783.008	13
783.754	13
784.5	13
785.246	12
785.992	12
786.738	14
787.484	10
788.23	12
788.975	10
789.721	11
790.466	9
791.212	14
791.957	12
792.702	10
793.447	12
794.193	12
794.938	10
795.683	8
796.427	9
797.172	10
797.917	10
798.662	9
799.406	10
800.151	11
800.895	10
801.64	8
802.384	9
803.128	8
803.872	9
804.616	10
805.36	7
806.104	8
806.848	10
807.592	7
808.336	7
809.079	7
809.823	11
810.566	5
811.31	8
812.053	7
812.796	6
813.539	5
814.283	7
815.026	7
815.769	6
816.511	7
817.254	5
817.997	8
818.74	7
819.482	5
820.225	7
820.967	5
821.71	7
822.452	6
823.194	6
823.936	2
824.678	3
825.42	4
826.162	6
826.904	6
827.646	5
828.388	6
829.129	6
829.871	5
830.612	2
831.354	7
832.095	8
832.836	4
833.577	3
834.319	4
835.06	2
835.801	2
836.542	5
837.282	3
838.023	6
838.764	4
839.504	4
840.245	5
840.985	5
841.726	2
842.466	3
843.206	5
843.946	4
844.687	5
845.427	2
846.166	3
846.906	4
847.646	5
848.386	4
849.125	3
849.865	5
850.605	5
851.344	3
852.083	1
852.823	5
853.562	5
854.301	2
855.04	3
855.779	1
856.518	2
857.257	3
857.995	3
858.734	2
859.473	3
860.211	3
860.95	3
861.688	1
862.426	3
863.165	-1
863.903	4
864.641	0
865.379	1
866.117	2
866.855	3
867.593	3
868.33	2
869.068	2
869.806	2
870.543	0
871.28	1
872.018	1
872.755	2
873.492	3
874.229	1
874.967	1
875.703	1
876.44	2
877.177	2
877.914	2
878.651	0
879.387	1
880.124	1
880.86	2
881.597	3
882.333	2
883.069	2
883.806	0
884.542	1
885.278	1
886.014	0
886.749	1
887.485	0
888.221	-2
888.957	1
889.692	-1
890.428	0
891.163	2
891.899	0
892.634	1
893.369	0
894.104	-2
894.839	-2
895.574	-1
896.309	-1
897.044	-1
897.779	1
898.514	-1
899.248	-1
899.983	-1
900.717	0
901.452	0
902.186	-2
902.92	1
903.654	0
904.389	2
905.123	-1
905.857	1
906.59	2
907.324	-2
908.058	1
908.792	1
909.525	1
910.259	1
910.992	2
911.726	1
912.459	1
913.192	0
913.925	1
914.658	0
915.391	0
916.124	0
916.857	1
917.59	0
918.323	2
919.055	1
919.788	-1
920.521	-4
921.253	0
921.985	2
922.718	0
923.45	-1
924.182	0
924.914	-2
925.646	2
926.378	-3
927.11	-1
927.841	2
928.573	0
929.305	-1
930.036	-1
930.768	1
931.499	0
932.23	1
932.962	0
933.693	0
934.424	0
935.155	2
935.886	3
936.617	0
937.348	-2
938.078	3
938.809	-1
939.54	2
940.27	0
941.001	-1
941.731	-2
942.461	-2
943.191	0
943.922	1
944.652	2
945.382	-1
946.112	-2
946.841	-1
947.571	0
948.301	1
949.031	0
949.76	0
950.49	-1
951.219	0
951.948	1
952.678	0
953.407	1
954.136	-1
954.865	-1
955.594	0
956.323	1
957.052	2
957.78	-1
958.509	1
959.238	-1
959.966	0
960.695	1
961.423	0
962.151	1
962.88	-3
963.608	-2
964.336	-1
965.064	-1
965.792	1
966.52	0
967.247	-1
967.975	2
968.703	-2
969.43	-1
970.158	1
970.885	2
971.613	0
972.34	0
973.067	1
973.794	-1
974.521	2
975.248	-1
975.975	-1
976.702	0
977.429	0
978.156	-1
978.882	-1
979.609	1
980.335	0
981.062	2
981.788	2
982.514	1
983.24	0
983.967	-1
984.693	-3
985.419	0
986.144	-3
986.87	1
987.596	0
988.322	0
989.047	-2
989.773	0
990.498	0
991.224	0
991.949	0
992.674	0
993.399	1
994.124	0
994.849	1
995.574	0
996.299	-1
997.024	1
997.749	-2
998.473	1
999.198	-1
999.922	1
1000.647	2
1001.371	2
1002.095	-1
1002.82	-1
1003.544	0
1004.268	2
1004.992	2
1005.716	2
1006.439	3
1007.163	3
1007.887	2
1008.611	1
1009.334	1
1010.058	2
1010.781	-2
1011.504	-1
1012.228	0
1012.951	0
1013.674	-1
1014.397	0
1015.12	1
