节点500_425_QEPB04081__442__15-55-39-595.txt的数据

Date: Wed Nov 12 15:55:39 CST 2025
User: PC
Spectrometer: QEPB0408
触发模式: 0
积分时间 (秒): 1.000000E-2
Scans to average: 1
启用暗噪声校正: true
启用非线性校正: false
滑动平均宽度: 0
X轴模式: Wavelengths
Number of Pixels in Spectrum: 1044
>>>>>Begin Spectral Data<<<<<
220.843	3.62
221.644	3.62
222.444	3.62
223.244	4.62
224.045	3.62
224.845	4.62
225.645	3.62
226.445	3.62
227.245	4.62
228.045	2.62
228.845	4.62
229.645	4.62
230.444	4.62
231.244	4.62
232.043	7.62
232.843	7.62
233.642	7.62
234.442	7.62
235.241	4.62
236.04	8.62
236.839	7.62
237.638	5.62
238.437	7.62
239.236	6.62
240.035	9.62
240.833	7.62
241.632	6.62
242.43	7.62
243.229	6.62
244.027	7.62
244.826	6.62
245.624	9.62
246.422	9.62
247.22	8.62
248.018	11.62
248.816	9.62
249.614	10.62
250.412	11.62
251.21	9.62
252.007	11.62
252.805	10.62
253.602	12.62
254.4	10.62
255.197	10.62
255.994	13.62
256.791	11.62
257.589	13.62
258.386	15.62
259.183	12.62
259.979	13.62
260.776	12.62
261.573	13.62
262.37	15.62
263.166	15.62
263.963	14.62
264.759	16.62
265.556	17.62
266.352	18.62
267.148	19.62
267.944	17.62
268.74	17.62
269.536	21.62
270.332	21.62
271.128	22.62
271.924	21.62
272.719	20.62
273.515	23.62
274.311	22.62
275.106	24.62
275.901	22.62
276.697	23.62
277.492	21.62
278.287	25.62
279.082	23.62
279.877	25.62
280.672	23.62
281.467	25.62
282.262	26.62
283.056	25.62
283.851	26.62
284.646	23.62
285.44	25.62
286.234	24.62
287.029	25.62
287.823	25.62
288.617	25.62
289.411	24.62
290.205	23.62
290.999	24.62
291.793	25.62
292.587	21.62
293.381	25.62
294.174	20.62
294.968	22.62
295.761	24.62
296.555	20.62
297.348	21.62
298.141	20.62
298.935	21.62
299.728	19.62
300.521	19.62
301.314	20.62
302.107	18.62
302.899	17.62
303.692	19.62
304.485	15.62
305.277	17.62
306.07	16.62
306.862	19.62
307.655	15.62
308.447	15.62
309.239	13.62
310.031	18.62
310.823	13.62
311.615	11.62
312.407	14.62
313.199	13.62
313.991	10.62
314.783	14.62
315.574	12.62
316.366	13.62
317.157	12.62
317.949	12.62
318.74	11.62
319.531	13.62
320.322	14.62
321.113	11.62
321.904	11.62
322.695	11.62
323.486	11.62
324.277	10.62
325.068	9.62
325.858	10.62
326.649	10.62
327.439	11.62
328.23	8.62
329.02	10.62
329.81	10.62
330.6	11.62
331.391	10.62
332.181	7.62
332.971	12.62
333.76	11.62
334.55	11.62
335.34	11.62
336.13	10.62
336.919	8.62
337.709	11.62
338.498	10.62
339.287	10.62
340.077	9.62
340.866	9.62
341.655	12.62
342.444	9.62
343.233	13.62
344.022	9.62
344.811	9.62
345.6	7.62
346.388	7.62
347.177	9.62
347.965	8.62
348.754	8.62
349.542	9.62
350.33	9.62
351.119	9.62
351.907	9.62
352.695	8.62
353.483	7.62
354.271	10.62
355.059	8.62
355.846	8.62
356.634	7.62
357.422	8.62
358.209	8.62
358.997	9.62
359.784	7.62
360.571	8.62
361.359	6.62
362.146	9.62
362.933	7.62
363.72	7.62
364.507	7.62
365.294	6.62
366.081	8.62
366.867	8.62
367.654	7.62
368.44	6.62
369.227	7.62
370.013	8.62
370.8	7.62
371.586	7.62
372.372	7.62
373.158	7.62
373.944	8.62
374.73	10.62
375.516	10.62
376.302	8.62
377.088	8.62
377.873	8.62
378.659	7.62
379.445	8.62
380.23	8.62
381.015	7.62
381.801	7.62
382.586	9.62
383.371	8.62
384.156	7.62
384.941	6.62
385.726	8.62
386.511	8.62
387.296	8.62
388.08	6.62
388.865	7.62
389.649	9.62
390.434	9.62
391.218	8.62
392.003	8.62
392.787	8.62
393.571	8.62
394.355	9.62
395.139	8.62
395.923	11.62
396.707	7.62
397.491	9.62
398.274	10.62
399.058	10.62
399.842	9.62
400.625	10.62
401.408	10.62
402.192	10.62
402.975	9.62
403.758	10.62
404.541	11.62
405.324	11.62
406.107	10.62
406.89	12.62
407.673	9.62
408.456	10.62
409.238	11.62
410.021	9.62
410.803	11.62
411.586	9.62
412.368	13.62
413.151	13.62
413.933	12.62
414.715	11.62
415.497	9.62
416.279	15.62
417.061	12.62
417.843	15.62
418.624	15.62
419.406	13.62
420.188	15.62
420.969	15.62
421.751	16.62
422.532	15.62
423.313	16.62
424.095	16.62
424.876	16.62
425.657	16.62
426.438	15.62
427.219	16.62
428	18.62
428.78	18.62
429.561	21.62
430.342	20.62
431.122	22.62
431.903	19.62
432.683	20.62
433.464	22.62
434.244	25.62
435.024	25.62
435.804	26.62
436.584	27.62
437.364	27.62
438.144	26.62
438.924	29.62
439.704	32.62
440.483	34.62
441.263	35.62
442.042	39.62
442.822	40.62
443.601	42.62
444.38	48.62
445.16	52.62
445.939	56.62
446.718	58.62
447.497	61.62
448.276	67.62
449.054	79.62
449.833	83.62
450.612	92.62
451.391	97.62
452.169	107.62
452.948	118.62
453.726	128.62
454.504	145.62
455.282	159.62
456.061	175.62
456.839	202.62
457.617	223.62
458.395	240.62
459.172	275.62
459.95	293.62
460.728	332.62
461.506	377.62
462.283	413.62
463.061	466.62
463.838	523.62
464.615	586.62
465.393	646.62
466.17	712.62
466.947	795.62
467.724	873.62
468.501	971.62
469.278	1084.62
470.055	1206.62
470.831	1318.62
471.608	1456.62
472.385	1630.62
473.161	1767.62
473.938	1963.62
474.714	2164.62
475.49	2380.62
476.266	2602.62
477.043	2851.62
477.819	3159.62
478.595	3454.62
479.371	3769.62
480.146	4164.62
480.922	4531.62
481.698	4948.62
482.473	5384.62
483.249	5891.62
484.024	6419.62
484.8	7067.62
485.575	7653.62
486.35	8319.62
487.126	9020.62
487.901	9833.62
488.676	10674.62
489.451	11572.62
490.225	12525.62
491	13540.62
491.775	14652.62
492.55	15767.62
493.324	16939.62
494.099	18199.62
494.873	19362.62
495.647	20734.62
496.422	22017.62
497.196	23296.62
497.97	24789.62
498.744	26095.62
499.518	27394.62
500.292	28592.62
501.066	29713.62
501.839	30816.62
502.613	31748.62
503.387	32489.62
504.16	33168.62
504.934	33613.62
505.707	33742.62
506.48	33840.62
507.253	33703.62
508.027	33470.62
508.8	33147.62
509.573	32552.62
510.346	31899.62
511.118	31136.62
511.891	30199.62
512.664	29214.62
513.437	28231.62
514.209	27178.62
514.982	26227.62
515.754	25221.62
516.526	24173.62
517.298	23140.62
518.071	22241.62
518.843	21272.62
519.615	20411.62
520.387	19602.62
521.159	18849.62
521.93	18148.62
522.702	17482.62
523.474	16746.62
524.245	16113.62
525.017	15367.62
525.788	14676.62
526.56	14065.62
527.331	13423.62
528.102	12824.62
528.873	12196.62
529.644	11701.62
530.415	11156.62
531.186	10616.62
531.957	10077.62
532.728	9603.62
533.498	9002.62
534.269	8597.62
535.039	8117.62
535.81	7677.62
536.58	7250.62
537.351	6811.62
538.121	6480.62
538.891	6098.62
539.661	5810.62
540.431	5533.62
541.201	5230.62
541.971	4937.62
542.741	4679.62
543.51	4459.62
544.28	4225.62
545.05	4027.62
545.819	3866.62
546.588	3627.62
547.358	3455.62
548.127	3281.62
548.896	3114.62
549.665	2964.62
550.434	2803.62
551.203	2678.62
551.972	2528.62
552.741	2396.62
553.51	2251.62
554.278	2137.62
555.047	2022.62
555.815	1897.62
556.584	1809.62
557.352	1703.62
558.121	1615.62
558.889	1497.62
559.657	1440.62
560.425	1358.62
561.193	1275.62
561.961	1213.62
562.729	1143.62
563.496	1096.62
564.264	1019.62
565.032	971.62
565.799	926.62
566.567	866.62
567.334	824.62
568.101	772.62
568.869	737.62
569.636	694.62
570.403	648.62
571.17	619.62
571.937	578.62
572.704	543.62
573.471	508.62
574.237	480.62
575.004	461.62
575.771	431.62
576.537	416.62
577.303	384.62
578.07	367.62
578.836	337.62
579.602	318.62
580.368	306.62
581.134	295.62
581.9	270.62
582.666	260.62
583.432	249.62
584.198	238.62
584.964	227.62
585.729	211.62
586.495	201.62
587.26	191.62
588.025	182.62
588.791	174.62
589.556	161.62
590.321	156.62
591.086	144.62
591.851	137.62
592.616	132.62
593.381	126.62
594.146	119.62
594.911	110.62
595.675	111.62
596.44	106.62
597.204	96.62
597.969	93.62
598.733	89.62
599.497	85.62
600.261	83.62
601.025	79.62
601.79	75.62
602.553	72.62
603.317	69.62
604.081	68.62
604.845	63.62
605.609	60.62
606.372	59.62
607.136	57.62
607.899	57.62
608.662	53.62
609.426	52.62
610.189	46.62
610.952	48.62
611.715	45.62
612.478	41.62
613.241	44.62
614.004	39.62
614.767	37.62
615.529	39.62
616.292	40.62
617.055	36.62
617.817	33.62
618.579	31.62
619.342	30.62
620.104	32.62
620.866	29.62
621.628	26.62
622.39	31.62
623.152	26.62
623.914	24.62
624.676	25.62
625.438	24.62
626.199	23.62
626.961	23.62
627.722	22.62
628.484	23.62
629.245	20.62
630.006	21.62
630.768	19.62
631.529	20.62
632.29	17.62
633.051	18.62
633.812	16.62
634.573	14.62
635.333	15.62
636.094	17.62
636.855	16.62
637.615	18.62
638.376	15.62
639.136	15.62
639.896	11.62
640.657	16.62
641.417	11.62
642.177	12.62
642.937	14.62
643.697	10.62
644.457	11.62
645.216	10.62
645.976	13.62
646.736	11.62
647.495	11.62
648.255	11.62
649.014	11.62
649.774	11.62
650.533	9.62
651.292	9.62
652.051	10.62
652.81	9.62
653.569	11.62
654.328	9.62
655.087	8.62
655.846	11.62
656.604	9.62
657.363	9.62
658.121	7.62
658.88	11.62
659.638	11.62
660.397	8.62
661.155	9.62
661.913	7.62
662.671	8.62
663.429	9.62
664.187	7.62
664.945	8.62
665.703	5.62
666.46	8.62
667.218	8.62
667.976	9.62
668.733	7.62
669.49	6.62
670.248	7.62
671.005	8.62
671.762	8.62
672.519	6.62
673.276	9.62
674.033	6.62
674.79	7.62
675.547	6.62
676.304	6.62
677.06	8.62
677.817	6.62
678.574	10.62
679.33	7.62
680.086	6.62
680.843	5.62
681.599	5.62
682.355	7.62
683.111	8.62
683.867	6.62
684.623	7.62
685.379	7.62
686.135	8.62
686.89	6.62
687.646	6.62
688.402	3.62
689.157	7.62
689.912	5.62
690.668	7.62
691.423	6.62
692.178	5.62
692.933	7.62
693.688	5.62
694.443	4.62
695.198	6.62
695.953	4.62
696.708	7.62
697.462	5.62
698.217	6.62
698.972	5.62
699.726	5.62
700.48	5.62
701.235	5.62
701.989	6.62
702.743	6.62
703.497	3.62
704.251	7.62
705.005	4.62
705.759	6.62
706.513	5.62
707.266	6.62
708.02	6.62
708.774	7.62
709.527	8.62
710.28	5.62
711.034	8.62
711.787	5.62
712.54	6.62
713.293	5.62
714.046	5.62
714.799	7.62
715.552	6.62
716.305	3.62
717.058	7.62
717.81	5.62
718.563	7.62
719.315	5.62
720.068	6.62
720.82	6.62
721.573	6.62
722.325	6.62
723.077	6.62
723.829	8.62
724.581	7.62
725.333	5.62
726.085	5.62
726.836	3.62
727.588	5.62
728.34	6.62
729.091	5.62
729.843	8.62
730.594	7.62
731.346	7.62
732.097	7.62
732.848	8.62
733.599	8.62
734.35	7.62
735.101	5.62
735.852	7.62
736.603	8.62
737.354	6.62
738.104	6.62
738.855	8.62
739.605	5.62
740.356	6.62
741.106	7.62
741.856	8.62
742.607	6.62
743.357	4.62
744.107	6.62
744.857	6.62
745.607	10.62
746.357	6.62
747.106	8.62
747.856	9.62
748.606	7.62
749.355	8.62
750.105	7.62
750.854	10.62
751.603	8.62
752.353	8.62
753.102	10.62
753.851	7.62
754.6	7.62
755.349	9.62
756.098	6.62
756.847	7.62
757.595	8.62
758.344	8.62
759.093	7.62
759.841	9.62
760.589	5.62
761.338	10.62
762.086	10.62
762.834	9.62
763.582	9.62
764.331	13.62
765.079	9.62
765.826	10.62
766.574	7.62
767.322	9.62
768.07	8.62
768.817	11.62
769.565	11.62
770.312	9.62
771.06	9.62
771.807	10.62
772.554	13.62
773.302	11.62
774.049	10.62
774.796	11.62
775.543	11.62
776.29	9.62
777.036	12.62
777.783	13.62
778.53	9.62
779.276	12.62
780.023	13.62
780.769	10.62
781.516	13.62
782.262	12.62
783.008	13.62
783.754	10.62
784.5	8.62
785.246	13.62
785.992	11.62
786.738	12.62
787.484	11.62
788.23	10.62
788.975	13.62
789.721	13.62
790.466	12.62
791.212	11.62
791.957	10.62
792.702	12.62
793.447	10.62
794.193	9.62
794.938	9.62
795.683	10.62
796.427	10.62
797.172	11.62
797.917	13.62
798.662	11.62
799.406	10.62
800.151	8.62
800.895	8.62
801.64	10.62
802.384	9.62
803.128	10.62
803.872	11.62
804.616	9.62
805.36	7.62
806.104	9.62
806.848	8.62
807.592	7.62
808.336	8.62
809.079	8.62
809.823	7.62
810.566	6.62
811.31	7.62
812.053	8.62
812.796	5.62
813.539	6.62
814.283	6.62
815.026	7.62
815.769	9.62
816.511	6.62
817.254	6.62
817.997	7.62
818.74	7.62
819.482	6.62
820.225	6.62
820.967	7.62
821.71	3.62
822.452	8.62
823.194	7.62
823.936	5.62
824.678	7.62
825.42	6.62
826.162	8.62
826.904	5.62
827.646	8.62
828.388	8.62
829.129	4.62
829.871	5.62
830.612	6.62
831.354	8.62
832.095	8.62
832.836	4.62
833.577	4.62
834.319	4.62
835.06	4.62
835.801	8.62
836.542	6.62
837.282	7.62
838.023	4.62
838.764	6.62
839.504	6.62
840.245	5.62
840.985	4.62
841.726	5.62
842.466	4.62
843.206	4.62
843.946	5.62
844.687	5.62
845.427	3.62
846.166	5.62
846.906	3.62
847.646	5.62
848.386	5.62
849.125	5.62
849.865	6.62
850.605	5.62
851.344	4.62
852.083	7.62
852.823	4.62
853.562	3.62
854.301	5.62
855.04	4.62
855.779	4.62
856.518	1.62
857.257	2.62
857.995	3.62
858.734	3.62
859.473	4.62
860.211	3.62
860.95	5.62
861.688	3.62
862.426	4.62
863.165	5.62
863.903	5.62
864.641	3.62
865.379	4.62
866.117	1.62
866.855	4.62
867.593	1.62
868.33	1.62
869.068	3.62
869.806	2.62
870.543	2.62
871.28	3.62
872.018	3.62
872.755	5.62
873.492	2.62
874.229	5.62
874.967	1.62
875.703	1.62
876.44	4.62
877.177	4.62
877.914	1.62
878.651	2.62
879.387	1.62
880.124	4.62
880.86	1.62
881.597	0.62
882.333	0.62
883.069	2.62
883.806	1.62
884.542	1.62
885.278	3.62
886.014	1.62
886.749	2.62
887.485	2.62
888.221	1.62
888.957	3.62
889.692	0.62
890.428	1.62
891.163	-0.38
891.899	1.62
892.634	2.62
893.369	2.62
894.104	3.62
894.839	4.62
895.574	3.62
896.309	3.62
897.044	1.62
897.779	1.62
898.514	1.62
899.248	2.62
899.983	-0.38
900.717	5.62
901.452	1.62
902.186	1.62
902.92	2.62
903.654	1.62
904.389	0.62
905.123	1.62
905.857	0.62
906.59	1.62
907.324	3.62
908.058	2.62
908.792	1.62
909.525	3.62
910.259	0.62
910.992	3.62
911.726	1.62
912.459	0.62
913.192	1.62
913.925	0.62
914.658	2.62
915.391	0.62
916.124	2.62
916.857	2.62
917.59	2.62
918.323	3.62
919.055	0.62
919.788	3.62
920.521	2.62
921.253	0.62
921.985	2.62
922.718	1.62
923.45	-0.38
924.182	1.62
924.914	1.62
925.646	0.62
926.378	3.62
927.11	-0.38
927.841	-1.38
928.573	0.62
929.305	0.62
930.036	-0.38
930.768	1.62
931.499	1.62
932.23	2.62
932.962	2.62
933.693	1.62
934.424	0.62
935.155	0.62
935.886	3.62
936.617	2.62
937.348	1.62
938.078	2.62
938.809	0.62
939.54	-0.38
940.27	2.62
941.001	-0.38
941.731	1.62
942.461	2.62
943.191	2.62
943.922	2.62
944.652	0.62
945.382	0.62
946.112	1.62
946.841	0.62
947.571	1.62
948.301	0.62
949.031	1.62
949.76	3.62
950.49	-0.38
951.219	1.62
951.948	-0.38
952.678	0.62
953.407	2.62
954.136	1.62
954.865	1.62
955.594	1.62
956.323	0.62
957.052	0.62
957.78	0.62
958.509	0.62
959.238	-0.38
959.966	1.62
960.695	2.62
961.423	1.62
962.151	1.62
962.88	1.62
963.608	2.62
964.336	-0.38
965.064	-0.38
965.792	-0.38
966.52	2.62
967.247	2.62
967.975	-0.38
968.703	0.62
969.43	2.62
970.158	0.62
970.885	1.62
971.613	0.62
972.34	3.62
973.067	0.62
973.794	2.62
974.521	3.62
975.248	-0.38
975.975	1.62
976.702	1.62
977.429	1.62
978.156	1.62
978.882	1.62
979.609	1.62
980.335	-0.38
981.062	1.62
981.788	3.62
982.514	1.62
983.24	1.62
983.967	0.62
984.693	2.62
985.419	-0.38
986.144	0.62
986.87	1.62
987.596	2.62
988.322	1.62
989.047	-0.38
989.773	2.62
990.498	-0.38
991.224	0.62
991.949	0.62
992.674	2.62
993.399	0.62
994.124	2.62
994.849	2.62
995.574	1.62
996.299	0.62
997.024	0.62
997.749	2.62
998.473	3.62
999.198	0.62
999.922	1.62
1000.647	1.62
1001.371	2.62
1002.095	-1.38
1002.82	-0.38
1003.544	-0.38
1004.268	1.62
1004.992	2.62
1005.716	3.62
1006.439	-0.38
1007.163	5.62
1007.887	4.62
1008.611	1.62
1009.334	0.62
1010.058	1.62
1010.781	0.62
1011.504	0.62
1012.228	1.62
1012.951	-0.38
1013.674	-0.38
1014.397	1.62
1015.12	-1.38
