节点500_425_QEPB04081__429__15-55-26-647.txt的数据

Date: Wed Nov 12 15:55:26 CST 2025
User: PC
Spectrometer: QEPB0408
触发模式: 0
积分时间 (秒): 1.000000E-2
Scans to average: 1
启用暗噪声校正: true
启用非线性校正: false
滑动平均宽度: 0
X轴模式: Wavelengths
Number of Pixels in Spectrum: 1044
>>>>>Begin Spectral Data<<<<<
220.843	3.62
221.644	2.62
222.444	4.62
223.244	2.62
224.045	2.62
224.845	3.62
225.645	6.62
226.445	5.62
227.245	3.62
228.045	6.62
228.845	2.62
229.645	3.62
230.444	6.62
231.244	4.62
232.043	4.62
232.843	5.62
233.642	5.62
234.442	5.62
235.241	5.62
236.04	5.62
236.839	4.62
237.638	6.62
238.437	5.62
239.236	8.62
240.035	6.62
240.833	8.62
241.632	6.62
242.43	7.62
243.229	7.62
244.027	4.62
244.826	8.62
245.624	9.62
246.422	9.62
247.22	8.62
248.018	6.62
248.816	8.62
249.614	10.62
250.412	8.62
251.21	13.62
252.007	10.62
252.805	7.62
253.602	10.62
254.4	11.62
255.197	9.62
255.994	9.62
256.791	12.62
257.589	13.62
258.386	14.62
259.183	13.62
259.979	13.62
260.776	14.62
261.573	12.62
262.37	14.62
263.166	13.62
263.963	14.62
264.759	17.62
265.556	14.62
266.352	19.62
267.148	16.62
267.944	17.62
268.74	18.62
269.536	17.62
270.332	21.62
271.128	20.62
271.924	20.62
272.719	21.62
273.515	21.62
274.311	22.62
275.106	20.62
275.901	22.62
276.697	25.62
277.492	22.62
278.287	20.62
279.082	22.62
279.877	22.62
280.672	22.62
281.467	22.62
282.262	25.62
283.056	21.62
283.851	24.62
284.646	23.62
285.44	24.62
286.234	23.62
287.029	22.62
287.823	26.62
288.617	22.62
289.411	23.62
290.205	22.62
290.999	22.62
291.793	23.62
292.587	23.62
293.381	23.62
294.174	22.62
294.968	20.62
295.761	20.62
296.555	17.62
297.348	18.62
298.141	23.62
298.935	19.62
299.728	18.62
300.521	17.62
301.314	19.62
302.107	17.62
302.899	17.62
303.692	14.62
304.485	17.62
305.277	17.62
306.07	14.62
306.862	18.62
307.655	14.62
308.447	18.62
309.239	14.62
310.031	14.62
310.823	13.62
311.615	15.62
312.407	11.62
313.199	13.62
313.991	14.62
314.783	12.62
315.574	11.62
316.366	12.62
317.157	12.62
317.949	11.62
318.74	12.62
319.531	11.62
320.322	11.62
321.113	10.62
321.904	9.62
322.695	10.62
323.486	9.62
324.277	10.62
325.068	10.62
325.858	9.62
326.649	8.62
327.439	12.62
328.23	9.62
329.02	9.62
329.81	10.62
330.6	8.62
331.391	8.62
332.181	9.62
332.971	9.62
333.76	11.62
334.55	9.62
335.34	8.62
336.13	6.62
336.919	7.62
337.709	8.62
338.498	10.62
339.287	8.62
340.077	7.62
340.866	9.62
341.655	9.62
342.444	7.62
343.233	8.62
344.022	6.62
344.811	9.62
345.6	7.62
346.388	8.62
347.177	9.62
347.965	5.62
348.754	10.62
349.542	8.62
350.33	6.62
351.119	9.62
351.907	7.62
352.695	8.62
353.483	7.62
354.271	7.62
355.059	8.62
355.846	10.62
356.634	6.62
357.422	8.62
358.209	7.62
358.997	9.62
359.784	7.62
360.571	8.62
361.359	5.62
362.146	8.62
362.933	7.62
363.72	8.62
364.507	6.62
365.294	8.62
366.081	7.62
366.867	8.62
367.654	5.62
368.44	8.62
369.227	7.62
370.013	6.62
370.8	5.62
371.586	8.62
372.372	5.62
373.158	6.62
373.944	5.62
374.73	7.62
375.516	9.62
376.302	8.62
377.088	7.62
377.873	5.62
378.659	8.62
379.445	7.62
380.23	6.62
381.015	8.62
381.801	5.62
382.586	7.62
383.371	6.62
384.156	8.62
384.941	6.62
385.726	5.62
386.511	8.62
387.296	5.62
388.08	8.62
388.865	8.62
389.649	8.62
390.434	7.62
391.218	9.62
392.003	6.62
392.787	9.62
393.571	9.62
394.355	7.62
395.139	7.62
395.923	9.62
396.707	5.62
397.491	8.62
398.274	9.62
399.058	9.62
399.842	10.62
400.625	8.62
401.408	10.62
402.192	8.62
402.975	9.62
403.758	11.62
404.541	7.62
405.324	9.62
406.107	8.62
406.89	10.62
407.673	10.62
408.456	12.62
409.238	10.62
410.021	9.62
410.803	11.62
411.586	10.62
412.368	10.62
413.151	10.62
413.933	13.62
414.715	11.62
415.497	11.62
416.279	10.62
417.061	12.62
417.843	13.62
418.624	14.62
419.406	13.62
420.188	14.62
420.969	12.62
421.751	13.62
422.532	14.62
423.313	14.62
424.095	16.62
424.876	13.62
425.657	16.62
426.438	18.62
427.219	17.62
428	19.62
428.78	17.62
429.561	18.62
430.342	20.62
431.122	20.62
431.903	22.62
432.683	21.62
433.464	21.62
434.244	21.62
435.024	24.62
435.804	22.62
436.584	25.62
437.364	27.62
438.144	27.62
438.924	31.62
439.704	32.62
440.483	34.62
441.263	33.62
442.042	37.62
442.822	41.62
443.601	45.62
444.38	44.62
445.16	50.62
445.939	53.62
446.718	57.62
447.497	60.62
448.276	69.62
449.054	75.62
449.833	80.62
450.612	87.62
451.391	93.62
452.169	102.62
452.948	114.62
453.726	129.62
454.504	136.62
455.282	156.62
456.061	174.62
456.839	201.62
457.617	214.62
458.395	242.62
459.172	267.62
459.95	297.62
460.728	326.62
461.506	367.62
462.283	416.62
463.061	463.62
463.838	518.62
464.615	571.62
465.393	638.62
466.17	706.62
466.947	797.62
467.724	876.62
468.501	967.62
469.278	1079.62
470.055	1194.62
470.831	1321.62
471.608	1459.62
472.385	1613.62
473.161	1770.62
473.938	1956.62
474.714	2152.62
475.49	2377.62
476.266	2594.62
477.043	2864.62
477.819	3156.62
478.595	3429.62
479.371	3787.62
480.146	4151.62
480.922	4535.62
481.698	4958.62
482.473	5415.62
483.249	5920.62
484.024	6452.62
484.8	7076.62
485.575	7641.62
486.35	8345.62
487.126	9082.62
487.901	9868.62
488.676	10728.62
489.451	11666.62
490.225	12622.62
491	13680.62
491.775	14805.62
492.55	15922.62
493.324	17100.62
494.099	18322.62
494.873	19606.62
495.647	20898.62
496.422	22148.62
497.196	23530.62
497.97	24938.62
498.744	26325.62
499.518	27656.62
500.292	28877.62
501.066	29911.62
501.839	31077.62
502.613	31994.62
503.387	32836.62
504.16	33395.62
504.934	33813.62
505.707	33982.62
506.48	33962.62
507.253	33905.62
508.027	33682.62
508.8	33214.62
509.573	32635.62
510.346	31902.62
511.118	31120.62
511.891	30227.62
512.664	29172.62
513.437	28133.62
514.209	27113.62
514.982	26222.62
515.754	25131.62
516.526	24094.62
517.298	23107.62
518.071	22190.62
518.843	21247.62
519.615	20339.62
520.387	19562.62
521.159	18818.62
521.93	18098.62
522.702	17390.62
523.474	16740.62
524.245	16098.62
525.017	15306.62
525.788	14641.62
526.56	13973.62
527.331	13358.62
528.102	12743.62
528.873	12154.62
529.644	11606.62
530.415	11054.62
531.186	10608.62
531.957	10036.62
532.728	9493.62
533.498	9004.62
534.269	8516.62
535.039	8051.62
535.81	7631.62
536.58	7191.62
537.351	6797.62
538.121	6427.62
538.891	6105.62
539.661	5774.62
540.431	5504.62
541.201	5187.62
541.971	4900.62
542.741	4671.62
543.51	4436.62
544.28	4190.62
545.05	3988.62
545.819	3789.62
546.588	3611.62
547.358	3402.62
548.127	3246.62
548.896	3105.62
549.665	2938.62
550.434	2790.62
551.203	2626.62
551.972	2504.62
552.741	2379.62
553.51	2233.62
554.278	2105.62
555.047	1998.62
555.815	1900.62
556.584	1790.62
557.352	1701.62
558.121	1576.62
558.889	1500.62
559.657	1409.62
560.425	1348.62
561.193	1259.62
561.961	1200.62
562.729	1140.62
563.496	1087.62
564.264	1013.62
565.032	966.62
565.799	910.62
566.567	850.62
567.334	813.62
568.101	774.62
568.869	720.62
569.636	681.62
570.403	645.62
571.17	601.62
571.937	564.62
572.704	552.62
573.471	517.62
574.237	475.62
575.004	453.62
575.771	422.62
576.537	406.62
577.303	381.62
578.07	358.62
578.836	334.62
579.602	312.62
580.368	306.62
581.134	295.62
581.9	268.62
582.666	267.62
583.432	251.62
584.198	235.62
584.964	227.62
585.729	204.62
586.495	198.62
587.26	190.62
588.025	177.62
588.791	170.62
589.556	161.62
590.321	149.62
591.086	145.62
591.851	134.62
592.616	129.62
593.381	122.62
594.146	119.62
594.911	116.62
595.675	107.62
596.44	100.62
597.204	97.62
597.969	95.62
598.733	86.62
599.497	91.62
600.261	80.62
601.025	80.62
601.79	78.62
602.553	75.62
603.317	68.62
604.081	66.62
604.845	61.62
605.609	58.62
606.372	56.62
607.136	57.62
607.899	57.62
608.662	52.62
609.426	50.62
610.189	49.62
610.952	41.62
611.715	45.62
612.478	45.62
613.241	42.62
614.004	39.62
614.767	38.62
615.529	37.62
616.292	32.62
617.055	34.62
617.817	32.62
618.579	33.62
619.342	30.62
620.104	30.62
620.866	29.62
621.628	30.62
622.39	29.62
623.152	26.62
623.914	26.62
624.676	22.62
625.438	24.62
626.199	23.62
626.961	21.62
627.722	21.62
628.484	21.62
629.245	19.62
630.006	20.62
630.768	19.62
631.529	19.62
632.29	19.62
633.051	16.62
633.812	18.62
634.573	16.62
635.333	16.62
636.094	15.62
636.855	16.62
637.615	14.62
638.376	14.62
639.136	16.62
639.896	13.62
640.657	13.62
641.417	11.62
642.177	12.62
642.937	11.62
643.697	12.62
644.457	10.62
645.216	10.62
645.976	12.62
646.736	11.62
647.495	11.62
648.255	10.62
649.014	10.62
649.774	11.62
650.533	9.62
651.292	10.62
652.051	9.62
652.81	9.62
653.569	7.62
654.328	9.62
655.087	8.62
655.846	9.62
656.604	7.62
657.363	8.62
658.121	10.62
658.88	12.62
659.638	7.62
660.397	9.62
661.155	9.62
661.913	8.62
662.671	7.62
663.429	7.62
664.187	5.62
664.945	9.62
665.703	6.62
666.46	7.62
667.218	5.62
667.976	9.62
668.733	6.62
669.49	7.62
670.248	7.62
671.005	6.62
671.762	8.62
672.519	6.62
673.276	7.62
674.033	8.62
674.79	7.62
675.547	5.62
676.304	7.62
677.06	6.62
677.817	5.62
678.574	7.62
679.33	5.62
680.086	5.62
680.843	7.62
681.599	5.62
682.355	4.62
683.111	5.62
683.867	5.62
684.623	6.62
685.379	6.62
686.135	5.62
686.89	6.62
687.646	4.62
688.402	7.62
689.157	4.62
689.912	5.62
690.668	6.62
691.423	8.62
692.178	5.62
692.933	6.62
693.688	5.62
694.443	4.62
695.198	4.62
695.953	6.62
696.708	5.62
697.462	5.62
698.217	6.62
698.972	5.62
699.726	5.62
700.48	3.62
701.235	4.62
701.989	4.62
702.743	4.62
703.497	6.62
704.251	5.62
705.005	4.62
705.759	6.62
706.513	5.62
707.266	6.62
708.02	6.62
708.774	4.62
709.527	2.62
710.28	4.62
711.034	3.62
711.787	4.62
712.54	3.62
713.293	7.62
714.046	2.62
714.799	6.62
715.552	5.62
716.305	6.62
717.058	6.62
717.81	3.62
718.563	6.62
719.315	6.62
720.068	6.62
720.82	4.62
721.573	4.62
722.325	6.62
723.077	6.62
723.829	7.62
724.581	4.62
725.333	6.62
726.085	5.62
726.836	4.62
727.588	4.62
728.34	7.62
729.091	5.62
729.843	6.62
730.594	5.62
731.346	6.62
732.097	3.62
732.848	3.62
733.599	5.62
734.35	7.62
735.101	4.62
735.852	7.62
736.603	7.62
737.354	8.62
738.104	6.62
738.855	9.62
739.605	6.62
740.356	8.62
741.106	7.62
741.856	7.62
742.607	7.62
743.357	5.62
744.107	6.62
744.857	5.62
745.607	5.62
746.357	4.62
747.106	7.62
747.856	6.62
748.606	6.62
749.355	6.62
750.105	6.62
750.854	8.62
751.603	9.62
752.353	7.62
753.102	6.62
753.851	5.62
754.6	6.62
755.349	7.62
756.098	8.62
756.847	9.62
757.595	6.62
758.344	8.62
759.093	6.62
759.841	9.62
760.589	6.62
761.338	8.62
762.086	6.62
762.834	6.62
763.582	9.62
764.331	7.62
765.079	12.62
765.826	7.62
766.574	12.62
767.322	11.62
768.07	7.62
768.817	9.62
769.565	9.62
770.312	9.62
771.06	8.62
771.807	9.62
772.554	11.62
773.302	10.62
774.049	11.62
774.796	11.62
775.543	8.62
776.29	12.62
777.036	8.62
777.783	13.62
778.53	9.62
779.276	8.62
780.023	10.62
780.769	10.62
781.516	13.62
782.262	10.62
783.008	13.62
783.754	12.62
784.5	11.62
785.246	12.62
785.992	8.62
786.738	12.62
787.484	10.62
788.23	10.62
788.975	10.62
789.721	10.62
790.466	10.62
791.212	12.62
791.957	14.62
792.702	10.62
793.447	10.62
794.193	9.62
794.938	9.62
795.683	9.62
796.427	10.62
797.172	9.62
797.917	9.62
798.662	11.62
799.406	8.62
800.151	8.62
800.895	10.62
801.64	7.62
802.384	8.62
803.128	10.62
803.872	9.62
804.616	8.62
805.36	8.62
806.104	7.62
806.848	9.62
807.592	8.62
808.336	7.62
809.079	7.62
809.823	10.62
810.566	7.62
811.31	6.62
812.053	7.62
812.796	6.62
813.539	8.62
814.283	6.62
815.026	6.62
815.769	5.62
816.511	9.62
817.254	5.62
817.997	7.62
818.74	9.62
819.482	7.62
820.225	7.62
820.967	7.62
821.71	6.62
822.452	8.62
823.194	4.62
823.936	4.62
824.678	5.62
825.42	4.62
826.162	5.62
826.904	5.62
827.646	8.62
828.388	6.62
829.129	4.62
829.871	5.62
830.612	3.62
831.354	5.62
832.095	5.62
832.836	3.62
833.577	6.62
834.319	4.62
835.06	4.62
835.801	6.62
836.542	5.62
837.282	5.62
838.023	4.62
838.764	4.62
839.504	3.62
840.245	3.62
840.985	3.62
841.726	7.62
842.466	4.62
843.206	2.62
843.946	5.62
844.687	4.62
845.427	3.62
846.166	4.62
846.906	4.62
847.646	6.62
848.386	2.62
849.125	3.62
849.865	3.62
850.605	4.62
851.344	4.62
852.083	3.62
852.823	2.62
853.562	4.62
854.301	3.62
855.04	0.62
855.779	4.62
856.518	1.62
857.257	0.62
857.995	6.62
858.734	2.62
859.473	3.62
860.211	4.62
860.95	2.62
861.688	1.62
862.426	2.62
863.165	3.62
863.903	4.62
864.641	7.62
865.379	2.62
866.117	2.62
866.855	3.62
867.593	0.62
868.33	1.62
869.068	2.62
869.806	1.62
870.543	2.62
871.28	1.62
872.018	1.62
872.755	1.62
873.492	2.62
874.229	2.62
874.967	2.62
875.703	3.62
876.44	1.62
877.177	3.62
877.914	0.62
878.651	1.62
879.387	2.62
880.124	2.62
880.86	-0.38
881.597	3.62
882.333	0.62
883.069	1.62
883.806	1.62
884.542	2.62
885.278	2.62
886.014	3.62
886.749	2.62
887.485	2.62
888.221	1.62
888.957	0.62
889.692	2.62
890.428	0.62
891.163	1.62
891.899	1.62
892.634	0.62
893.369	0.62
894.104	-0.38
894.839	3.62
895.574	1.62
896.309	0.62
897.044	0.62
897.779	0.62
898.514	-1.38
899.248	-0.38
899.983	0.62
900.717	2.62
901.452	0.62
902.186	1.62
902.92	0.62
903.654	2.62
904.389	0.62
905.123	-0.38
905.857	0.62
906.59	0.62
907.324	0.62
908.058	-0.38
908.792	0.62
909.525	1.62
910.259	-0.38
910.992	1.62
911.726	0.62
912.459	0.62
913.192	2.62
913.925	-0.38
914.658	-0.38
915.391	0.62
916.124	1.62
916.857	2.62
917.59	0.62
918.323	-0.38
919.055	-0.38
919.788	2.62
920.521	2.62
921.253	2.62
921.985	1.62
922.718	2.62
923.45	0.62
924.182	0.62
924.914	-0.38
925.646	1.62
926.378	1.62
927.11	1.62
927.841	1.62
928.573	0.62
929.305	-1.38
930.036	1.62
930.768	0.62
931.499	-0.38
932.23	2.62
932.962	1.62
933.693	1.62
934.424	0.62
935.155	1.62
935.886	0.62
936.617	0.62
937.348	1.62
938.078	-2.38
938.809	0.62
939.54	0.62
940.27	-0.38
941.001	-0.38
941.731	0.62
942.461	1.62
943.191	-0.38
943.922	1.62
944.652	1.62
945.382	-0.38
946.112	0.62
946.841	-0.38
947.571	-0.38
948.301	0.62
949.031	0.62
949.76	-0.38
950.49	-0.38
951.219	0.62
951.948	0.62
952.678	2.62
953.407	1.62
954.136	-1.38
954.865	1.62
955.594	-1.38
956.323	1.62
957.052	-1.38
957.78	1.62
958.509	-0.38
959.238	0.62
959.966	0.62
960.695	0.62
961.423	0.62
962.151	0.62
962.88	0.62
963.608	3.62
964.336	-0.38
965.064	1.62
965.792	2.62
966.52	1.62
967.247	-0.38
967.975	0.62
968.703	0.62
969.43	2.62
970.158	0.62
970.885	0.62
971.613	-0.38
972.34	-1.38
973.067	-0.38
973.794	2.62
974.521	0.62
975.248	2.62
975.975	-0.38
976.702	-1.38
977.429	0.62
978.156	-0.38
978.882	-0.38
979.609	-0.38
980.335	-0.38
981.062	0.62
981.788	-1.38
982.514	1.62
983.24	0.62
983.967	-1.38
984.693	-0.38
985.419	-1.38
986.144	-0.38
986.87	1.62
987.596	2.62
988.322	1.62
989.047	-0.38
989.773	0.62
990.498	1.62
991.224	2.62
991.949	-0.38
992.674	0.62
993.399	0.62
994.124	0.62
994.849	2.62
995.574	1.62
996.299	-1.38
997.024	0.62
997.749	-0.38
998.473	-0.38
999.198	-1.38
999.922	-0.38
1000.647	0.62
1001.371	3.62
1002.095	0.62
1002.82	-1.38
1003.544	-0.38
1004.268	3.62
1004.992	2.62
1005.716	4.62
1006.439	3.62
1007.163	4.62
1007.887	3.62
1008.611	0.62
1009.334	0.62
1010.058	0.62
1010.781	3.62
1011.504	1.62
1012.228	0.62
1012.951	-1.38
1013.674	-2.38
1014.397	0.62
1015.12	0.62
