节点500_425_QEPB04081__607__15-58-24-395.txt的数据

Date: Wed Nov 12 15:58:24 CST 2025
User: PC
Spectrometer: QEPB0408
触发模式: 0
积分时间 (秒): 1.000000E-2
Scans to average: 1
启用暗噪声校正: true
启用非线性校正: false
滑动平均宽度: 0
X轴模式: Wavelengths
Number of Pixels in Spectrum: 1044
>>>>>Begin Spectral Data<<<<<
220.843	2.38
221.644	0.38
222.444	3.38
223.244	2.38
224.045	5.38
224.845	3.38
225.645	3.38
226.445	3.38
227.245	4.38
228.045	2.38
228.845	1.38
229.645	4.38
230.444	5.38
231.244	3.38
232.043	5.38
232.843	3.38
233.642	4.38
234.442	3.38
235.241	4.38
236.04	6.38
236.839	6.38
237.638	5.38
238.437	5.38
239.236	5.38
240.035	4.38
240.833	9.38
241.632	6.38
242.43	7.38
243.229	9.38
244.027	6.38
244.826	6.38
245.624	7.38
246.422	8.38
247.22	7.38
248.018	7.38
248.816	10.38
249.614	8.38
250.412	8.38
251.21	10.38
252.007	9.38
252.805	10.38
253.602	8.38
254.4	10.38
255.197	10.38
255.994	10.38
256.791	10.38
257.589	9.38
258.386	12.38
259.183	10.38
259.979	14.38
260.776	12.38
261.573	13.38
262.37	12.38
263.166	15.38
263.963	13.38
264.759	15.38
265.556	13.38
266.352	15.38
267.148	12.38
267.944	19.38
268.74	14.38
269.536	17.38
270.332	19.38
271.128	16.38
271.924	21.38
272.719	16.38
273.515	21.38
274.311	20.38
275.106	19.38
275.901	19.38
276.697	21.38
277.492	21.38
278.287	22.38
279.082	21.38
279.877	22.38
280.672	24.38
281.467	21.38
282.262	24.38
283.056	24.38
283.851	24.38
284.646	23.38
285.44	24.38
286.234	22.38
287.029	24.38
287.823	22.38
288.617	22.38
289.411	22.38
290.205	22.38
290.999	23.38
291.793	21.38
292.587	22.38
293.381	20.38
294.174	21.38
294.968	21.38
295.761	20.38
296.555	20.38
297.348	18.38
298.141	21.38
298.935	20.38
299.728	16.38
300.521	17.38
301.314	17.38
302.107	19.38
302.899	18.38
303.692	16.38
304.485	17.38
305.277	17.38
306.07	13.38
306.862	14.38
307.655	15.38
308.447	14.38
309.239	15.38
310.031	18.38
310.823	14.38
311.615	14.38
312.407	14.38
313.199	11.38
313.991	14.38
314.783	11.38
315.574	12.38
316.366	12.38
317.157	12.38
317.949	9.38
318.74	11.38
319.531	11.38
320.322	9.38
321.113	11.38
321.904	10.38
322.695	7.38
323.486	11.38
324.277	8.38
325.068	12.38
325.858	8.38
326.649	9.38
327.439	9.38
328.23	10.38
329.02	7.38
329.81	7.38
330.6	9.38
331.391	9.38
332.181	9.38
332.971	6.38
333.76	8.38
334.55	8.38
335.34	11.38
336.13	8.38
336.919	8.38
337.709	6.38
338.498	8.38
339.287	8.38
340.077	8.38
340.866	10.38
341.655	6.38
342.444	8.38
343.233	5.38
344.022	7.38
344.811	5.38
345.6	7.38
346.388	8.38
347.177	8.38
347.965	8.38
348.754	6.38
349.542	8.38
350.33	7.38
351.119	7.38
351.907	9.38
352.695	7.38
353.483	9.38
354.271	7.38
355.059	6.38
355.846	5.38
356.634	8.38
357.422	6.38
358.209	6.38
358.997	7.38
359.784	7.38
360.571	9.38
361.359	6.38
362.146	7.38
362.933	6.38
363.72	7.38
364.507	7.38
365.294	7.38
366.081	6.38
366.867	9.38
367.654	6.38
368.44	7.38
369.227	8.38
370.013	6.38
370.8	5.38
371.586	6.38
372.372	5.38
373.158	7.38
373.944	6.38
374.73	6.38
375.516	8.38
376.302	6.38
377.088	4.38
377.873	6.38
378.659	8.38
379.445	6.38
380.23	8.38
381.015	5.38
381.801	7.38
382.586	8.38
383.371	8.38
384.156	6.38
384.941	7.38
385.726	5.38
386.511	6.38
387.296	10.38
388.08	8.38
388.865	8.38
389.649	9.38
390.434	6.38
391.218	9.38
392.003	7.38
392.787	8.38
393.571	8.38
394.355	9.38
395.139	7.38
395.923	2.38
396.707	10.38
397.491	8.38
398.274	8.38
399.058	8.38
399.842	8.38
400.625	8.38
401.408	9.38
402.192	11.38
402.975	9.38
403.758	7.38
404.541	8.38
405.324	8.38
406.107	10.38
406.89	9.38
407.673	10.38
408.456	8.38
409.238	9.38
410.021	10.38
410.803	10.38
411.586	11.38
412.368	10.38
413.151	10.38
413.933	11.38
414.715	10.38
415.497	10.38
416.279	10.38
417.061	11.38
417.843	13.38
418.624	13.38
419.406	12.38
420.188	10.38
420.969	14.38
421.751	14.38
422.532	15.38
423.313	13.38
424.095	13.38
424.876	14.38
425.657	15.38
426.438	18.38
427.219	17.38
428	15.38
428.78	16.38
429.561	18.38
430.342	17.38
431.122	17.38
431.903	19.38
432.683	22.38
433.464	19.38
434.244	22.38
435.024	21.38
435.804	24.38
436.584	27.38
437.364	28.38
438.144	29.38
438.924	26.38
439.704	33.38
440.483	36.38
441.263	38.38
442.042	38.38
442.822	40.38
443.601	46.38
444.38	48.38
445.16	52.38
445.939	53.38
446.718	59.38
447.497	65.38
448.276	69.38
449.054	75.38
449.833	87.38
450.612	94.38
451.391	103.38
452.169	112.38
452.948	122.38
453.726	137.38
454.504	154.38
455.282	166.38
456.061	186.38
456.839	207.38
457.617	231.38
458.395	258.38
459.172	282.38
459.95	311.38
460.728	348.38
461.506	387.38
462.283	429.38
463.061	478.38
463.838	554.38
464.615	603.38
465.393	662.38
466.17	744.38
466.947	814.38
467.724	896.38
468.501	991.38
469.278	1113.38
470.055	1218.38
470.831	1345.38
471.608	1487.38
472.385	1641.38
473.161	1806.38
473.938	1971.38
474.714	2178.38
475.49	2386.38
476.266	2602.38
477.043	2834.38
477.819	3107.38
478.595	3427.38
479.371	3727.38
480.146	4039.38
480.922	4416.38
481.698	4826.38
482.473	5224.38
483.249	5721.38
484.024	6229.38
484.8	6780.38
485.575	7351.38
486.35	7918.38
487.126	8597.38
487.901	9343.38
488.676	10140.38
489.451	10930.38
490.225	11800.38
491	12705.38
491.775	13769.38
492.55	14775.38
493.324	15863.38
494.099	16942.38
494.873	18007.38
495.647	19260.38
496.422	20452.38
497.196	21775.38
497.97	23050.38
498.744	24298.38
499.518	25563.38
500.292	26722.38
501.066	27818.38
501.839	28931.38
502.613	29919.38
503.387	30720.38
504.16	31427.38
504.934	31959.38
505.707	32275.38
506.48	32303.38
507.253	32433.38
508.027	32367.38
508.8	32149.38
509.573	31814.38
510.346	31196.38
511.118	30565.38
511.891	29826.38
512.664	28937.38
513.437	28066.38
514.209	27049.38
514.982	26232.38
515.754	25204.38
516.526	24287.38
517.298	23294.38
518.071	22354.38
518.843	21489.38
519.615	20579.38
520.387	19842.38
521.159	19059.38
521.93	18336.38
522.702	17606.38
523.474	16923.38
524.245	16263.38
525.017	15523.38
525.788	14857.38
526.56	14234.38
527.331	13615.38
528.102	13050.38
528.873	12452.38
529.644	11867.38
530.415	11351.38
531.186	10857.38
531.957	10322.38
532.728	9820.38
533.498	9283.38
534.269	8802.38
535.039	8360.38
535.81	7896.38
536.58	7480.38
537.351	7054.38
538.121	6644.38
538.891	6339.38
539.661	6014.38
540.431	5667.38
541.201	5405.38
541.971	5100.38
542.741	4823.38
543.51	4610.38
544.28	4364.38
545.05	4162.38
545.819	3958.38
546.588	3762.38
547.358	3543.38
548.127	3393.38
548.896	3225.38
549.665	3076.38
550.434	2902.38
551.203	2770.38
551.972	2619.38
552.741	2496.38
553.51	2341.38
554.278	2216.38
555.047	2069.38
555.815	1973.38
556.584	1884.38
557.352	1775.38
558.121	1665.38
558.889	1570.38
559.657	1505.38
560.425	1405.38
561.193	1316.38
561.961	1270.38
562.729	1209.38
563.496	1117.38
564.264	1066.38
565.032	1023.38
565.799	964.38
566.567	913.38
567.334	856.38
568.101	801.38
568.869	762.38
569.636	715.38
570.403	674.38
571.17	638.38
571.937	602.38
572.704	569.38
573.471	543.38
574.237	512.38
575.004	476.38
575.771	449.38
576.537	422.38
577.303	394.38
578.07	381.38
578.836	354.38
579.602	331.38
580.368	316.38
581.134	298.38
581.9	290.38
582.666	272.38
583.432	262.38
584.198	246.38
584.964	233.38
585.729	223.38
586.495	202.38
587.26	197.38
588.025	191.38
588.791	177.38
589.556	174.38
590.321	161.38
591.086	154.38
591.851	142.38
592.616	141.38
593.381	129.38
594.146	120.38
594.911	116.38
595.675	115.38
596.44	106.38
597.204	104.38
597.969	99.38
598.733	91.38
599.497	91.38
600.261	87.38
601.025	80.38
601.79	75.38
602.553	73.38
603.317	72.38
604.081	67.38
604.845	66.38
605.609	61.38
606.372	58.38
607.136	59.38
607.899	53.38
608.662	56.38
609.426	49.38
610.189	49.38
610.952	49.38
611.715	43.38
612.478	44.38
613.241	41.38
614.004	40.38
614.767	38.38
615.529	36.38
616.292	34.38
617.055	34.38
617.817	36.38
618.579	33.38
619.342	30.38
620.104	30.38
620.866	29.38
621.628	30.38
622.39	29.38
623.152	25.38
623.914	26.38
624.676	25.38
625.438	25.38
626.199	22.38
626.961	24.38
627.722	21.38
628.484	18.38
629.245	19.38
630.006	18.38
630.768	20.38
631.529	20.38
632.29	19.38
633.051	15.38
633.812	18.38
634.573	16.38
635.333	16.38
636.094	14.38
636.855	13.38
637.615	13.38
638.376	13.38
639.136	15.38
639.896	13.38
640.657	13.38
641.417	14.38
642.177	12.38
642.937	11.38
643.697	13.38
644.457	9.38
645.216	11.38
645.976	10.38
646.736	12.38
647.495	9.38
648.255	8.38
649.014	12.38
649.774	8.38
650.533	8.38
651.292	9.38
652.051	10.38
652.81	8.38
653.569	7.38
654.328	7.38
655.087	7.38
655.846	8.38
656.604	8.38
657.363	6.38
658.121	10.38
658.88	8.38
659.638	7.38
660.397	9.38
661.155	7.38
661.913	8.38
662.671	9.38
663.429	7.38
664.187	6.38
664.945	8.38
665.703	8.38
666.46	4.38
667.218	6.38
667.976	6.38
668.733	8.38
669.49	8.38
670.248	5.38
671.005	7.38
671.762	7.38
672.519	6.38
673.276	5.38
674.033	7.38
674.79	7.38
675.547	5.38
676.304	7.38
677.06	5.38
677.817	7.38
678.574	5.38
679.33	5.38
680.086	6.38
680.843	4.38
681.599	3.38
682.355	6.38
683.111	6.38
683.867	6.38
684.623	7.38
685.379	6.38
686.135	2.38
686.89	6.38
687.646	6.38
688.402	2.38
689.157	5.38
689.912	5.38
690.668	6.38
691.423	6.38
692.178	4.38
692.933	7.38
693.688	4.38
694.443	7.38
695.198	4.38
695.953	4.38
696.708	4.38
697.462	4.38
698.217	4.38
698.972	6.38
699.726	3.38
700.48	4.38
701.235	6.38
701.989	2.38
702.743	5.38
703.497	4.38
704.251	4.38
705.005	6.38
705.759	5.38
706.513	2.38
707.266	5.38
708.02	4.38
708.774	4.38
709.527	2.38
710.28	5.38
711.034	6.38
711.787	3.38
712.54	6.38
713.293	2.38
714.046	2.38
714.799	7.38
715.552	3.38
716.305	4.38
717.058	3.38
717.81	7.38
718.563	4.38
719.315	8.38
720.068	6.38
720.82	4.38
721.573	5.38
722.325	5.38
723.077	6.38
723.829	3.38
724.581	4.38
725.333	4.38
726.085	5.38
726.836	5.38
727.588	4.38
728.34	8.38
729.091	5.38
729.843	6.38
730.594	8.38
731.346	3.38
732.097	4.38
732.848	4.38
733.599	7.38
734.35	8.38
735.101	7.38
735.852	5.38
736.603	4.38
737.354	5.38
738.104	5.38
738.855	7.38
739.605	5.38
740.356	4.38
741.106	5.38
741.856	5.38
742.607	5.38
743.357	7.38
744.107	6.38
744.857	6.38
745.607	4.38
746.357	6.38
747.106	5.38
747.856	5.38
748.606	6.38
749.355	6.38
750.105	8.38
750.854	6.38
751.603	6.38
752.353	7.38
753.102	8.38
753.851	8.38
754.6	8.38
755.349	5.38
756.098	7.38
756.847	8.38
757.595	9.38
758.344	5.38
759.093	7.38
759.841	7.38
760.589	8.38
761.338	8.38
762.086	10.38
762.834	8.38
763.582	9.38
764.331	6.38
765.079	11.38
765.826	8.38
766.574	8.38
767.322	9.38
768.07	9.38
768.817	9.38
769.565	8.38
770.312	10.38
771.06	10.38
771.807	9.38
772.554	8.38
773.302	10.38
774.049	9.38
774.796	9.38
775.543	11.38
776.29	7.38
777.036	9.38
777.783	11.38
778.53	12.38
779.276	10.38
780.023	11.38
780.769	9.38
781.516	11.38
782.262	11.38
783.008	8.38
783.754	10.38
784.5	8.38
785.246	10.38
785.992	10.38
786.738	8.38
787.484	13.38
788.23	12.38
788.975	9.38
789.721	10.38
790.466	10.38
791.212	10.38
791.957	8.38
792.702	9.38
793.447	9.38
794.193	10.38
794.938	11.38
795.683	9.38
796.427	10.38
797.172	9.38
797.917	10.38
798.662	9.38
799.406	8.38
800.151	9.38
800.895	7.38
801.64	9.38
802.384	7.38
803.128	7.38
803.872	10.38
804.616	9.38
805.36	10.38
806.104	8.38
806.848	8.38
807.592	6.38
808.336	7.38
809.079	7.38
809.823	8.38
810.566	6.38
811.31	8.38
812.053	6.38
812.796	8.38
813.539	7.38
814.283	8.38
815.026	5.38
815.769	6.38
816.511	7.38
817.254	3.38
817.997	8.38
818.74	3.38
819.482	5.38
820.225	7.38
820.967	5.38
821.71	5.38
822.452	3.38
823.194	5.38
823.936	7.38
824.678	8.38
825.42	4.38
826.162	4.38
826.904	5.38
827.646	5.38
828.388	7.38
829.129	4.38
829.871	5.38
830.612	6.38
831.354	5.38
832.095	6.38
832.836	4.38
833.577	4.38
834.319	7.38
835.06	4.38
835.801	3.38
836.542	5.38
837.282	5.38
838.023	6.38
838.764	3.38
839.504	5.38
840.245	2.38
840.985	4.38
841.726	3.38
842.466	5.38
843.206	2.38
843.946	4.38
844.687	2.38
845.427	0.38
846.166	3.38
846.906	3.38
847.646	1.38
848.386	7.38
849.125	5.38
849.865	4.38
850.605	3.38
851.344	2.38
852.083	3.38
852.823	4.38
853.562	2.38
854.301	2.38
855.04	4.38
855.779	3.38
856.518	2.38
857.257	4.38
857.995	3.38
858.734	3.38
859.473	6.38
860.211	2.38
860.95	-0.62
861.688	1.38
862.426	3.38
863.165	4.38
863.903	2.38
864.641	1.38
865.379	1.38
866.117	2.38
866.855	2.38
867.593	4.38
868.33	1.38
869.068	3.38
869.806	2.38
870.543	2.38
871.28	2.38
872.018	0.38
872.755	-1.62
873.492	1.38
874.229	1.38
874.967	5.38
875.703	1.38
876.44	1.38
877.177	2.38
877.914	1.38
878.651	2.38
879.387	-0.62
880.124	1.38
880.86	2.38
881.597	3.38
882.333	1.38
883.069	1.38
883.806	2.38
884.542	0.38
885.278	0.38
886.014	4.38
886.749	0.38
887.485	1.38
888.221	1.38
888.957	2.38
889.692	0.38
890.428	3.38
891.163	1.38
891.899	0.38
892.634	3.38
893.369	-0.62
894.104	3.38
894.839	1.38
895.574	0.38
896.309	-0.62
897.044	1.38
897.779	2.38
898.514	-2.62
899.248	2.38
899.983	-0.62
900.717	0.38
901.452	-0.62
902.186	0.38
902.92	0.38
903.654	-0.62
904.389	2.38
905.123	0.38
905.857	-1.62
906.59	1.38
907.324	1.38
908.058	0.38
908.792	0.38
909.525	0.38
910.259	0.38
910.992	1.38
911.726	0.38
912.459	3.38
913.192	0.38
913.925	1.38
914.658	-1.62
915.391	1.38
916.124	0.38
916.857	1.38
917.59	-0.62
918.323	2.38
919.055	-2.62
919.788	-1.62
920.521	1.38
921.253	-1.62
921.985	-0.62
922.718	0.38
923.45	-1.62
924.182	1.38
924.914	-0.62
925.646	2.38
926.378	1.38
927.11	3.38
927.841	0.38
928.573	-0.62
929.305	0.38
930.036	0.38
930.768	1.38
931.499	0.38
932.23	-0.62
932.962	0.38
933.693	-0.62
934.424	1.38
935.155	2.38
935.886	-1.62
936.617	-1.62
937.348	-1.62
938.078	3.38
938.809	0.38
939.54	0.38
940.27	0.38
941.001	-1.62
941.731	2.38
942.461	-0.62
943.191	1.38
943.922	0.38
944.652	-0.62
945.382	1.38
946.112	0.38
946.841	2.38
947.571	-0.62
948.301	2.38
949.031	-0.62
949.76	0.38
950.49	0.38
951.219	2.38
951.948	0.38
952.678	-1.62
953.407	2.38
954.136	-0.62
954.865	0.38
955.594	0.38
956.323	-1.62
957.052	2.38
957.78	-0.62
958.509	0.38
959.238	1.38
959.966	-1.62
960.695	0.38
961.423	-0.62
962.151	1.38
962.88	1.38
963.608	0.38
964.336	0.38
965.064	-1.62
965.792	0.38
966.52	-0.62
967.247	0.38
967.975	0.38
968.703	-0.62
969.43	0.38
970.158	1.38
970.885	2.38
971.613	2.38
972.34	1.38
973.067	2.38
973.794	-1.62
974.521	-0.62
975.248	0.38
975.975	2.38
976.702	0.38
977.429	1.38
978.156	0.38
978.882	1.38
979.609	2.38
980.335	-1.62
981.062	-0.62
981.788	0.38
982.514	-2.62
983.24	1.38
983.967	0.38
984.693	-3.62
985.419	-1.62
986.144	-2.62
986.87	-0.62
987.596	1.38
988.322	2.38
989.047	-0.62
989.773	-1.62
990.498	0.38
991.224	-1.62
991.949	1.38
992.674	1.38
993.399	-0.62
994.124	0.38
994.849	-1.62
995.574	1.38
996.299	1.38
997.024	-1.62
997.749	1.38
998.473	-0.62
999.198	0.38
999.922	0.38
1000.647	0.38
1001.371	4.38
1002.095	-1.62
1002.82	0.38
1003.544	-0.62
1004.268	3.38
1004.992	0.38
1005.716	1.38
1006.439	2.38
1007.163	2.38
1007.887	2.38
1008.611	0.38
1009.334	0.38
1010.058	-0.62
1010.781	1.38
1011.504	0.38
1012.228	-0.62
1012.951	0.38
1013.674	0.38
1014.397	-3.62
1015.12	0.38
