节点500_425_QEPB04081__549__15-57-26-508.txt的数据

Date: Wed Nov 12 15:57:26 CST 2025
User: PC
Spectrometer: QEPB0408
触发模式: 0
积分时间 (秒): 1.000000E-2
Scans to average: 1
启用暗噪声校正: true
启用非线性校正: false
滑动平均宽度: 0
X轴模式: Wavelengths
Number of Pixels in Spectrum: 1044
>>>>>Begin Spectral Data<<<<<
220.843	4.38
221.644	2.38
222.444	2.38
223.244	4.38
224.045	3.38
224.845	2.38
225.645	2.38
226.445	3.38
227.245	3.38
228.045	4.38
228.845	4.38
229.645	3.38
230.444	4.38
231.244	2.38
232.043	6.38
232.843	3.38
233.642	4.38
234.442	5.38
235.241	6.38
236.04	6.38
236.839	6.38
237.638	5.38
238.437	6.38
239.236	6.38
240.035	7.38
240.833	6.38
241.632	8.38
242.43	4.38
243.229	8.38
244.027	7.38
244.826	6.38
245.624	7.38
246.422	7.38
247.22	10.38
248.018	11.38
248.816	9.38
249.614	8.38
250.412	8.38
251.21	10.38
252.007	7.38
252.805	9.38
253.602	8.38
254.4	10.38
255.197	15.38
255.994	10.38
256.791	11.38
257.589	12.38
258.386	13.38
259.183	12.38
259.979	11.38
260.776	14.38
261.573	12.38
262.37	14.38
263.166	13.38
263.963	15.38
264.759	15.38
265.556	14.38
266.352	16.38
267.148	16.38
267.944	16.38
268.74	15.38
269.536	16.38
270.332	20.38
271.128	18.38
271.924	18.38
272.719	20.38
273.515	17.38
274.311	21.38
275.106	16.38
275.901	24.38
276.697	22.38
277.492	24.38
278.287	21.38
279.082	24.38
279.877	23.38
280.672	23.38
281.467	20.38
282.262	26.38
283.056	24.38
283.851	24.38
284.646	19.38
285.44	24.38
286.234	21.38
287.029	24.38
287.823	22.38
288.617	21.38
289.411	21.38
290.205	21.38
290.999	24.38
291.793	20.38
292.587	21.38
293.381	21.38
294.174	20.38
294.968	21.38
295.761	19.38
296.555	19.38
297.348	19.38
298.141	20.38
298.935	21.38
299.728	21.38
300.521	18.38
301.314	16.38
302.107	17.38
302.899	14.38
303.692	13.38
304.485	17.38
305.277	15.38
306.07	15.38
306.862	15.38
307.655	15.38
308.447	15.38
309.239	16.38
310.031	16.38
310.823	14.38
311.615	12.38
312.407	11.38
313.199	13.38
313.991	11.38
314.783	13.38
315.574	9.38
316.366	11.38
317.157	9.38
317.949	11.38
318.74	9.38
319.531	8.38
320.322	10.38
321.113	7.38
321.904	10.38
322.695	8.38
323.486	10.38
324.277	8.38
325.068	10.38
325.858	12.38
326.649	8.38
327.439	8.38
328.23	8.38
329.02	8.38
329.81	8.38
330.6	6.38
331.391	9.38
332.181	8.38
332.971	9.38
333.76	7.38
334.55	9.38
335.34	7.38
336.13	10.38
336.919	8.38
337.709	9.38
338.498	7.38
339.287	6.38
340.077	9.38
340.866	8.38
341.655	6.38
342.444	9.38
343.233	8.38
344.022	9.38
344.811	6.38
345.6	8.38
346.388	6.38
347.177	7.38
347.965	8.38
348.754	6.38
349.542	8.38
350.33	9.38
351.119	7.38
351.907	9.38
352.695	7.38
353.483	7.38
354.271	7.38
355.059	7.38
355.846	7.38
356.634	6.38
357.422	7.38
358.209	9.38
358.997	6.38
359.784	7.38
360.571	8.38
361.359	8.38
362.146	8.38
362.933	5.38
363.72	3.38
364.507	6.38
365.294	8.38
366.081	7.38
366.867	6.38
367.654	7.38
368.44	4.38
369.227	6.38
370.013	4.38
370.8	8.38
371.586	5.38
372.372	7.38
373.158	7.38
373.944	6.38
374.73	6.38
375.516	6.38
376.302	6.38
377.088	4.38
377.873	8.38
378.659	7.38
379.445	5.38
380.23	7.38
381.015	6.38
381.801	8.38
382.586	8.38
383.371	5.38
384.156	8.38
384.941	4.38
385.726	5.38
386.511	6.38
387.296	7.38
388.08	9.38
388.865	9.38
389.649	8.38
390.434	8.38
391.218	9.38
392.003	7.38
392.787	8.38
393.571	8.38
394.355	9.38
395.139	8.38
395.923	8.38
396.707	9.38
397.491	8.38
398.274	8.38
399.058	8.38
399.842	9.38
400.625	10.38
401.408	9.38
402.192	8.38
402.975	8.38
403.758	8.38
404.541	10.38
405.324	10.38
406.107	8.38
406.89	9.38
407.673	9.38
408.456	11.38
409.238	10.38
410.021	12.38
410.803	12.38
411.586	10.38
412.368	10.38
413.151	11.38
413.933	11.38
414.715	10.38
415.497	11.38
416.279	10.38
417.061	12.38
417.843	14.38
418.624	13.38
419.406	13.38
420.188	13.38
420.969	17.38
421.751	13.38
422.532	13.38
423.313	14.38
424.095	15.38
424.876	14.38
425.657	16.38
426.438	14.38
427.219	18.38
428	16.38
428.78	18.38
429.561	20.38
430.342	15.38
431.122	21.38
431.903	20.38
432.683	20.38
433.464	22.38
434.244	21.38
435.024	22.38
435.804	22.38
436.584	29.38
437.364	28.38
438.144	30.38
438.924	33.38
439.704	29.38
440.483	36.38
441.263	36.38
442.042	40.38
442.822	44.38
443.601	43.38
444.38	50.38
445.16	54.38
445.939	58.38
446.718	60.38
447.497	66.38
448.276	71.38
449.054	76.38
449.833	87.38
450.612	92.38
451.391	96.38
452.169	108.38
452.948	122.38
453.726	134.38
454.504	150.38
455.282	169.38
456.061	185.38
456.839	208.38
457.617	223.38
458.395	253.38
459.172	279.38
459.95	317.38
460.728	356.38
461.506	388.38
462.283	435.38
463.061	474.38
463.838	535.38
464.615	592.38
465.393	658.38
466.17	737.38
466.947	815.38
467.724	893.38
468.501	995.38
469.278	1106.38
470.055	1209.38
470.831	1346.38
471.608	1484.38
472.385	1638.38
473.161	1802.38
473.938	1972.38
474.714	2162.38
475.49	2380.38
476.266	2584.38
477.043	2860.38
477.819	3132.38
478.595	3415.38
479.371	3709.38
480.146	4077.38
480.922	4434.38
481.698	4855.38
482.473	5256.38
483.249	5692.38
484.024	6230.38
484.8	6822.38
485.575	7405.38
486.35	8008.38
487.126	8629.38
487.901	9407.38
488.676	10191.38
489.451	11010.38
490.225	11921.38
491	12860.38
491.775	13863.38
492.55	14932.38
493.324	15975.38
494.099	17163.38
494.873	18232.38
495.647	19507.38
496.422	20734.38
497.196	22029.38
497.97	23338.38
498.744	24633.38
499.518	25854.38
500.292	26953.38
501.066	28078.38
501.839	29207.38
502.613	30222.38
503.387	30908.38
504.16	31648.38
504.934	32199.38
505.707	32477.38
506.48	32566.38
507.253	32589.38
508.027	32605.38
508.8	32290.38
509.573	31846.38
510.346	31341.38
511.118	30648.38
511.891	29871.38
512.664	29002.38
513.437	28102.38
514.209	27061.38
514.982	26195.38
515.754	25248.38
516.526	24257.38
517.298	23326.38
518.071	22310.38
518.843	21428.38
519.615	20595.38
520.387	19719.38
521.159	19033.38
521.93	18305.38
522.702	17584.38
523.474	16928.38
524.245	16253.38
525.017	15560.38
525.788	14818.38
526.56	14189.38
527.331	13565.38
528.102	13059.38
528.873	12412.38
529.644	11846.38
530.415	11361.38
531.186	10799.38
531.957	10270.38
532.728	9741.38
533.498	9195.38
534.269	8748.38
535.039	8321.38
535.81	7839.38
536.58	7415.38
537.351	7005.38
538.121	6602.38
538.891	6280.38
539.661	6000.38
540.431	5676.38
541.201	5331.38
541.971	5074.38
542.741	4801.38
543.51	4576.38
544.28	4353.38
545.05	4117.38
545.819	3946.38
546.588	3748.38
547.358	3515.38
548.127	3348.38
548.896	3203.38
549.665	3052.38
550.434	2869.38
551.203	2747.38
551.972	2607.38
552.741	2457.38
553.51	2344.38
554.278	2217.38
555.047	2079.38
555.815	1984.38
556.584	1867.38
557.352	1770.38
558.121	1645.38
558.889	1559.38
559.657	1493.38
560.425	1416.38
561.193	1326.38
561.961	1255.38
562.729	1189.38
563.496	1113.38
564.264	1062.38
565.032	1012.38
565.799	942.38
566.567	903.38
567.334	844.38
568.101	797.38
568.869	759.38
569.636	723.38
570.403	679.38
571.17	632.38
571.937	597.38
572.704	568.38
573.471	532.38
574.237	497.38
575.004	467.38
575.771	444.38
576.537	419.38
577.303	396.38
578.07	372.38
578.836	349.38
579.602	330.38
580.368	317.38
581.134	293.38
581.9	290.38
582.666	272.38
583.432	255.38
584.198	238.38
584.964	230.38
585.729	222.38
586.495	209.38
587.26	193.38
588.025	186.38
588.791	177.38
589.556	172.38
590.321	158.38
591.086	153.38
591.851	146.38
592.616	135.38
593.381	130.38
594.146	127.38
594.911	117.38
595.675	114.38
596.44	108.38
597.204	103.38
597.969	94.38
598.733	95.38
599.497	88.38
600.261	84.38
601.025	82.38
601.79	79.38
602.553	70.38
603.317	72.38
604.081	71.38
604.845	66.38
605.609	65.38
606.372	61.38
607.136	55.38
607.899	57.38
608.662	53.38
609.426	51.38
610.189	49.38
610.952	47.38
611.715	45.38
612.478	45.38
613.241	44.38
614.004	38.38
614.767	40.38
615.529	37.38
616.292	36.38
617.055	39.38
617.817	34.38
618.579	32.38
619.342	32.38
620.104	27.38
620.866	29.38
621.628	27.38
622.39	29.38
623.152	28.38
623.914	26.38
624.676	25.38
625.438	24.38
626.199	25.38
626.961	22.38
627.722	22.38
628.484	21.38
629.245	20.38
630.006	20.38
630.768	19.38
631.529	20.38
632.29	16.38
633.051	17.38
633.812	19.38
634.573	17.38
635.333	18.38
636.094	15.38
636.855	15.38
637.615	14.38
638.376	14.38
639.136	16.38
639.896	14.38
640.657	16.38
641.417	13.38
642.177	15.38
642.937	10.38
643.697	12.38
644.457	8.38
645.216	10.38
645.976	10.38
646.736	11.38
647.495	11.38
648.255	9.38
649.014	11.38
649.774	10.38
650.533	8.38
651.292	11.38
652.051	8.38
652.81	9.38
653.569	10.38
654.328	8.38
655.087	8.38
655.846	6.38
656.604	9.38
657.363	8.38
658.121	8.38
658.88	5.38
659.638	7.38
660.397	9.38
661.155	10.38
661.913	10.38
662.671	7.38
663.429	5.38
664.187	7.38
664.945	5.38
665.703	10.38
666.46	7.38
667.218	6.38
667.976	6.38
668.733	6.38
669.49	8.38
670.248	6.38
671.005	6.38
671.762	7.38
672.519	8.38
673.276	5.38
674.033	6.38
674.79	5.38
675.547	7.38
676.304	5.38
677.06	6.38
677.817	6.38
678.574	8.38
679.33	7.38
680.086	5.38
680.843	7.38
681.599	3.38
682.355	5.38
683.111	5.38
683.867	6.38
684.623	7.38
685.379	7.38
686.135	4.38
686.89	6.38
687.646	6.38
688.402	3.38
689.157	5.38
689.912	3.38
690.668	3.38
691.423	5.38
692.178	5.38
692.933	4.38
693.688	7.38
694.443	5.38
695.198	5.38
695.953	4.38
696.708	5.38
697.462	6.38
698.217	5.38
698.972	4.38
699.726	6.38
700.48	6.38
701.235	4.38
701.989	7.38
702.743	6.38
703.497	3.38
704.251	4.38
705.005	4.38
705.759	4.38
706.513	2.38
707.266	4.38
708.02	5.38
708.774	4.38
709.527	6.38
710.28	7.38
711.034	6.38
711.787	5.38
712.54	5.38
713.293	5.38
714.046	5.38
714.799	6.38
715.552	7.38
716.305	7.38
717.058	4.38
717.81	3.38
718.563	5.38
719.315	4.38
720.068	4.38
720.82	6.38
721.573	5.38
722.325	3.38
723.077	5.38
723.829	6.38
724.581	6.38
725.333	4.38
726.085	7.38
726.836	5.38
727.588	3.38
728.34	3.38
729.091	5.38
729.843	4.38
730.594	5.38
731.346	7.38
732.097	5.38
732.848	8.38
733.599	6.38
734.35	5.38
735.101	4.38
735.852	2.38
736.603	6.38
737.354	6.38
738.104	5.38
738.855	4.38
739.605	7.38
740.356	5.38
741.106	8.38
741.856	7.38
742.607	6.38
743.357	4.38
744.107	6.38
744.857	7.38
745.607	8.38
746.357	6.38
747.106	6.38
747.856	7.38
748.606	7.38
749.355	7.38
750.105	8.38
750.854	8.38
751.603	6.38
752.353	8.38
753.102	7.38
753.851	7.38
754.6	5.38
755.349	5.38
756.098	9.38
756.847	7.38
757.595	7.38
758.344	7.38
759.093	9.38
759.841	8.38
760.589	9.38
761.338	8.38
762.086	7.38
762.834	7.38
763.582	8.38
764.331	8.38
765.079	6.38
765.826	8.38
766.574	8.38
767.322	8.38
768.07	7.38
768.817	10.38
769.565	10.38
770.312	9.38
771.06	8.38
771.807	7.38
772.554	10.38
773.302	8.38
774.049	11.38
774.796	9.38
775.543	10.38
776.29	7.38
777.036	11.38
777.783	10.38
778.53	9.38
779.276	9.38
780.023	10.38
780.769	13.38
781.516	8.38
782.262	12.38
783.008	9.38
783.754	10.38
784.5	13.38
785.246	11.38
785.992	11.38
786.738	7.38
787.484	8.38
788.23	10.38
788.975	10.38
789.721	9.38
790.466	8.38
791.212	12.38
791.957	9.38
792.702	8.38
793.447	11.38
794.193	9.38
794.938	11.38
795.683	9.38
796.427	10.38
797.172	7.38
797.917	9.38
798.662	6.38
799.406	8.38
800.151	7.38
800.895	8.38
801.64	8.38
802.384	7.38
803.128	10.38
803.872	7.38
804.616	9.38
805.36	7.38
806.104	8.38
806.848	7.38
807.592	9.38
808.336	9.38
809.079	6.38
809.823	7.38
810.566	8.38
811.31	5.38
812.053	8.38
812.796	6.38
813.539	7.38
814.283	8.38
815.026	6.38
815.769	7.38
816.511	4.38
817.254	8.38
817.997	7.38
818.74	7.38
819.482	5.38
820.225	7.38
820.967	6.38
821.71	5.38
822.452	7.38
823.194	5.38
823.936	7.38
824.678	4.38
825.42	4.38
826.162	6.38
826.904	4.38
827.646	6.38
828.388	5.38
829.129	6.38
829.871	4.38
830.612	8.38
831.354	5.38
832.095	5.38
832.836	5.38
833.577	4.38
834.319	6.38
835.06	3.38
835.801	4.38
836.542	5.38
837.282	3.38
838.023	4.38
838.764	3.38
839.504	4.38
840.245	2.38
840.985	5.38
841.726	5.38
842.466	4.38
843.206	5.38
843.946	3.38
844.687	5.38
845.427	4.38
846.166	3.38
846.906	5.38
847.646	0.38
848.386	3.38
849.125	4.38
849.865	3.38
850.605	4.38
851.344	4.38
852.083	2.38
852.823	4.38
853.562	2.38
854.301	4.38
855.04	3.38
855.779	5.38
856.518	2.38
857.257	3.38
857.995	1.38
858.734	2.38
859.473	3.38
860.211	3.38
860.95	2.38
861.688	4.38
862.426	4.38
863.165	1.38
863.903	2.38
864.641	4.38
865.379	2.38
866.117	3.38
866.855	-0.62
867.593	1.38
868.33	2.38
869.068	1.38
869.806	1.38
870.543	1.38
871.28	-0.62
872.018	2.38
872.755	2.38
873.492	2.38
874.229	1.38
874.967	5.38
875.703	1.38
876.44	4.38
877.177	0.38
877.914	2.38
878.651	3.38
879.387	0.38
880.124	-0.62
880.86	0.38
881.597	1.38
882.333	0.38
883.069	3.38
883.806	0.38
884.542	1.38
885.278	1.38
886.014	2.38
886.749	-0.62
887.485	-0.62
888.221	1.38
888.957	2.38
889.692	1.38
890.428	-0.62
891.163	0.38
891.899	2.38
892.634	-1.62
893.369	-0.62
894.104	-0.62
894.839	0.38
895.574	2.38
896.309	0.38
897.044	2.38
897.779	3.38
898.514	1.38
899.248	1.38
899.983	1.38
900.717	1.38
901.452	0.38
902.186	3.38
902.92	-0.62
903.654	1.38
904.389	-3.62
905.123	2.38
905.857	0.38
906.59	1.38
907.324	0.38
908.058	0.38
908.792	-0.62
909.525	-2.62
910.259	0.38
910.992	3.38
911.726	3.38
912.459	1.38
913.192	1.38
913.925	0.38
914.658	0.38
915.391	-2.62
916.124	1.38
916.857	0.38
917.59	1.38
918.323	0.38
919.055	0.38
919.788	2.38
920.521	1.38
921.253	1.38
921.985	2.38
922.718	-1.62
923.45	1.38
924.182	-1.62
924.914	2.38
925.646	-0.62
926.378	0.38
927.11	1.38
927.841	2.38
928.573	1.38
929.305	0.38
930.036	0.38
930.768	1.38
931.499	2.38
932.23	-0.62
932.962	0.38
933.693	0.38
934.424	-1.62
935.155	2.38
935.886	-0.62
936.617	1.38
937.348	3.38
938.078	2.38
938.809	1.38
939.54	0.38
940.27	1.38
941.001	2.38
941.731	-1.62
942.461	1.38
943.191	0.38
943.922	1.38
944.652	0.38
945.382	-0.62
946.112	2.38
946.841	-0.62
947.571	0.38
948.301	0.38
949.031	1.38
949.76	-1.62
950.49	2.38
951.219	0.38
951.948	0.38
952.678	0.38
953.407	0.38
954.136	-0.62
954.865	0.38
955.594	0.38
956.323	0.38
957.052	0.38
957.78	0.38
958.509	-0.62
959.238	1.38
959.966	2.38
960.695	1.38
961.423	-0.62
962.151	-1.62
962.88	1.38
963.608	-1.62
964.336	0.38
965.064	0.38
965.792	0.38
966.52	0.38
967.247	-0.62
967.975	-1.62
968.703	1.38
969.43	0.38
970.158	2.38
970.885	0.38
971.613	0.38
972.34	1.38
973.067	0.38
973.794	2.38
974.521	-1.62
975.248	0.38
975.975	-0.62
976.702	0.38
977.429	-0.62
978.156	0.38
978.882	1.38
979.609	-2.62
980.335	-0.62
981.062	1.38
981.788	1.38
982.514	1.38
983.24	-1.62
983.967	1.38
984.693	-0.62
985.419	2.38
986.144	1.38
986.87	-0.62
987.596	1.38
988.322	0.38
989.047	2.38
989.773	0.38
990.498	2.38
991.224	-0.62
991.949	1.38
992.674	1.38
993.399	0.38
994.124	-1.62
994.849	0.38
995.574	0.38
996.299	1.38
997.024	-0.62
997.749	0.38
998.473	0.38
999.198	1.38
999.922	2.38
1000.647	0.38
1001.371	2.38
1002.095	-1.62
1002.82	-1.62
1003.544	-1.62
1004.268	3.38
1004.992	-1.62
1005.716	0.38
1006.439	2.38
1007.163	4.38
1007.887	4.38
1008.611	2.38
1009.334	0.38
1010.058	1.38
1010.781	0.38
1011.504	0.38
1012.228	1.38
1012.951	0.38
1013.674	2.38
1014.397	-0.62
1015.12	0.38
