节点500_425_QEPB04081__94__15-49-52-333.txt的数据

Date: Wed Nov 12 15:49:52 CST 2025
User: PC
Spectrometer: QEPB0408
触发模式: 0
积分时间 (秒): 1.000000E-2
Scans to average: 1
启用暗噪声校正: true
启用非线性校正: false
滑动平均宽度: 0
X轴模式: Wavelengths
Number of Pixels in Spectrum: 1044
>>>>>Begin Spectral Data<<<<<
220.843	2.38
221.644	3.38
222.444	4.38
223.244	3.38
224.045	4.38
224.845	4.38
225.645	4.38
226.445	4.38
227.245	4.38
228.045	3.38
228.845	2.38
229.645	4.38
230.444	5.38
231.244	6.38
232.043	5.38
232.843	4.38
233.642	8.38
234.442	4.38
235.241	7.38
236.04	4.38
236.839	6.38
237.638	7.38
238.437	6.38
239.236	7.38
240.035	6.38
240.833	6.38
241.632	6.38
242.43	8.38
243.229	8.38
244.027	7.38
244.826	8.38
245.624	7.38
246.422	6.38
247.22	8.38
248.018	7.38
248.816	10.38
249.614	9.38
250.412	10.38
251.21	9.38
252.007	11.38
252.805	12.38
253.602	12.38
254.4	12.38
255.197	11.38
255.994	14.38
256.791	13.38
257.589	12.38
258.386	16.38
259.183	14.38
259.979	15.38
260.776	15.38
261.573	17.38
262.37	16.38
263.166	17.38
263.963	20.38
264.759	20.38
265.556	22.38
266.352	16.38
267.148	20.38
267.944	22.38
268.74	22.38
269.536	22.38
270.332	22.38
271.128	23.38
271.924	21.38
272.719	20.38
273.515	29.38
274.311	23.38
275.106	24.38
275.901	24.38
276.697	26.38
277.492	28.38
278.287	26.38
279.082	26.38
279.877	27.38
280.672	27.38
281.467	27.38
282.262	24.38
283.056	30.38
283.851	24.38
284.646	28.38
285.44	24.38
286.234	28.38
287.029	25.38
287.823	23.38
288.617	27.38
289.411	26.38
290.205	23.38
290.999	28.38
291.793	24.38
292.587	25.38
293.381	24.38
294.174	23.38
294.968	23.38
295.761	23.38
296.555	20.38
297.348	19.38
298.141	20.38
298.935	20.38
299.728	16.38
300.521	17.38
301.314	16.38
302.107	18.38
302.899	16.38
303.692	19.38
304.485	16.38
305.277	16.38
306.07	16.38
306.862	16.38
307.655	16.38
308.447	16.38
309.239	16.38
310.031	14.38
310.823	12.38
311.615	13.38
312.407	13.38
313.199	14.38
313.991	12.38
314.783	11.38
315.574	14.38
316.366	10.38
317.157	12.38
317.949	14.38
318.74	10.38
319.531	11.38
320.322	9.38
321.113	10.38
321.904	9.38
322.695	9.38
323.486	8.38
324.277	9.38
325.068	11.38
325.858	10.38
326.649	11.38
327.439	9.38
328.23	8.38
329.02	10.38
329.81	7.38
330.6	9.38
331.391	8.38
332.181	8.38
332.971	8.38
333.76	9.38
334.55	9.38
335.34	9.38
336.13	9.38
336.919	8.38
337.709	8.38
338.498	8.38
339.287	9.38
340.077	8.38
340.866	6.38
341.655	8.38
342.444	7.38
343.233	9.38
344.022	9.38
344.811	8.38
345.6	10.38
346.388	7.38
347.177	8.38
347.965	8.38
348.754	7.38
349.542	10.38
350.33	8.38
351.119	9.38
351.907	7.38
352.695	7.38
353.483	8.38
354.271	9.38
355.059	9.38
355.846	6.38
356.634	8.38
357.422	7.38
358.209	6.38
358.997	6.38
359.784	8.38
360.571	8.38
361.359	10.38
362.146	7.38
362.933	6.38
363.72	8.38
364.507	8.38
365.294	9.38
366.081	9.38
366.867	5.38
367.654	5.38
368.44	8.38
369.227	8.38
370.013	7.38
370.8	7.38
371.586	7.38
372.372	6.38
373.158	6.38
373.944	10.38
374.73	6.38
375.516	6.38
376.302	7.38
377.088	7.38
377.873	5.38
378.659	8.38
379.445	8.38
380.23	9.38
381.015	8.38
381.801	6.38
382.586	9.38
383.371	6.38
384.156	9.38
384.941	8.38
385.726	8.38
386.511	7.38
387.296	10.38
388.08	8.38
388.865	8.38
389.649	8.38
390.434	9.38
391.218	7.38
392.003	8.38
392.787	9.38
393.571	10.38
394.355	8.38
395.139	8.38
395.923	5.38
396.707	11.38
397.491	8.38
398.274	11.38
399.058	10.38
399.842	9.38
400.625	8.38
401.408	8.38
402.192	12.38
402.975	12.38
403.758	12.38
404.541	10.38
405.324	11.38
406.107	11.38
406.89	8.38
407.673	10.38
408.456	10.38
409.238	9.38
410.021	10.38
410.803	10.38
411.586	10.38
412.368	14.38
413.151	11.38
413.933	12.38
414.715	12.38
415.497	12.38
416.279	11.38
417.061	13.38
417.843	11.38
418.624	14.38
419.406	15.38
420.188	14.38
420.969	13.38
421.751	15.38
422.532	16.38
423.313	16.38
424.095	18.38
424.876	18.38
425.657	16.38
426.438	18.38
427.219	18.38
428	16.38
428.78	18.38
429.561	20.38
430.342	21.38
431.122	22.38
431.903	21.38
432.683	20.38
433.464	25.38
434.244	23.38
435.024	25.38
435.804	25.38
436.584	25.38
437.364	26.38
438.144	30.38
438.924	32.38
439.704	35.38
440.483	33.38
441.263	36.38
442.042	35.38
442.822	39.38
443.601	44.38
444.38	45.38
445.16	49.38
445.939	48.38
446.718	58.38
447.497	56.38
448.276	59.38
449.054	68.38
449.833	69.38
450.612	79.38
451.391	88.38
452.169	93.38
452.948	108.38
453.726	121.38
454.504	132.38
455.282	144.38
456.061	156.38
456.839	170.38
457.617	198.38
458.395	221.38
459.172	240.38
459.95	266.38
460.728	301.38
461.506	333.38
462.283	370.38
463.061	424.38
463.838	474.38
464.615	519.38
465.393	586.38
466.17	648.38
466.947	737.38
467.724	826.38
468.501	912.38
469.278	1018.38
470.055	1136.38
470.831	1256.38
471.608	1406.38
472.385	1561.38
473.161	1723.38
473.938	1929.38
474.714	2140.38
475.49	2353.38
476.266	2597.38
477.043	2911.38
477.819	3216.38
478.595	3560.38
479.371	3904.38
480.146	4316.38
480.922	4728.38
481.698	5226.38
482.473	5748.38
483.249	6312.38
484.024	6989.38
484.8	7710.38
485.575	8420.38
486.35	9232.38
487.126	10112.38
487.901	10992.38
488.676	12126.38
489.451	13224.38
490.225	14338.38
491	15593.38
491.775	17003.38
492.55	18336.38
493.324	19789.38
494.099	21263.38
494.873	22627.38
495.647	24263.38
496.422	25721.38
497.196	27317.38
497.97	28898.38
498.744	30372.38
499.518	31830.38
500.292	33059.38
501.066	34174.38
501.839	35161.38
502.613	36015.38
503.387	36593.38
504.16	36960.38
504.934	37119.38
505.707	37019.38
506.48	36749.38
507.253	36135.38
508.027	35582.38
508.8	34900.38
509.573	33967.38
510.346	32988.38
511.118	31830.38
511.891	30755.38
512.664	29451.38
513.437	28248.38
514.209	26964.38
514.982	25989.38
515.754	24839.38
516.526	23723.38
517.298	22672.38
518.071	21757.38
518.843	20816.38
519.615	19953.38
520.387	19113.38
521.159	18457.38
521.93	17751.38
522.702	17037.38
523.474	16381.38
524.245	15694.38
525.017	14960.38
525.788	14258.38
526.56	13548.38
527.331	12930.38
528.102	12318.38
528.873	11736.38
529.644	11124.38
530.415	10610.38
531.186	10077.38
531.957	9522.38
532.728	8983.38
533.498	8452.38
534.269	7986.38
535.039	7569.38
535.81	7122.38
536.58	6716.38
537.351	6343.38
538.121	6026.38
538.891	5685.38
539.661	5375.38
540.431	5130.38
541.201	4843.38
541.971	4584.38
542.741	4382.38
543.51	4124.38
544.28	3918.38
545.05	3732.38
545.819	3570.38
546.588	3381.38
547.358	3211.38
548.127	3019.38
548.896	2886.38
549.665	2711.38
550.434	2570.38
551.203	2449.38
551.972	2343.38
552.741	2196.38
553.51	2071.38
554.278	1947.38
555.047	1837.38
555.815	1740.38
556.584	1625.38
557.352	1542.38
558.121	1450.38
558.889	1386.38
559.657	1289.38
560.425	1240.38
561.193	1172.38
561.961	1098.38
562.729	1033.38
563.496	981.38
564.264	923.38
565.032	880.38
565.799	827.38
566.567	783.38
567.334	730.38
568.101	692.38
568.869	666.38
569.636	624.38
570.403	576.38
571.17	558.38
571.937	523.38
572.704	503.38
573.471	465.38
574.237	435.38
575.004	417.38
575.771	394.38
576.537	369.38
577.303	348.38
578.07	329.38
578.836	308.38
579.602	288.38
580.368	281.38
581.134	260.38
581.9	248.38
582.666	239.38
583.432	218.38
584.198	216.38
584.964	198.38
585.729	190.38
586.495	182.38
587.26	174.38
588.025	162.38
588.791	155.38
589.556	147.38
590.321	145.38
591.086	126.38
591.851	123.38
592.616	118.38
593.381	114.38
594.146	106.38
594.911	105.38
595.675	101.38
596.44	93.38
597.204	89.38
597.969	90.38
598.733	86.38
599.497	83.38
600.261	74.38
601.025	71.38
601.79	67.38
602.553	71.38
603.317	61.38
604.081	60.38
604.845	56.38
605.609	59.38
606.372	54.38
607.136	50.38
607.899	50.38
608.662	47.38
609.426	44.38
610.189	42.38
610.952	41.38
611.715	39.38
612.478	38.38
613.241	39.38
614.004	38.38
614.767	33.38
615.529	34.38
616.292	30.38
617.055	32.38
617.817	28.38
618.579	27.38
619.342	29.38
620.104	25.38
620.866	26.38
621.628	29.38
622.39	22.38
623.152	24.38
623.914	23.38
624.676	23.38
625.438	22.38
626.199	22.38
626.961	22.38
627.722	18.38
628.484	19.38
629.245	17.38
630.006	20.38
630.768	19.38
631.529	20.38
632.29	16.38
633.051	17.38
633.812	15.38
634.573	18.38
635.333	16.38
636.094	14.38
636.855	11.38
637.615	14.38
638.376	14.38
639.136	14.38
639.896	9.38
640.657	13.38
641.417	12.38
642.177	9.38
642.937	13.38
643.697	12.38
644.457	11.38
645.216	12.38
645.976	12.38
646.736	12.38
647.495	11.38
648.255	10.38
649.014	8.38
649.774	12.38
650.533	10.38
651.292	8.38
652.051	10.38
652.81	12.38
653.569	11.38
654.328	10.38
655.087	9.38
655.846	10.38
656.604	9.38
657.363	11.38
658.121	9.38
658.88	9.38
659.638	7.38
660.397	10.38
661.155	9.38
661.913	8.38
662.671	6.38
663.429	8.38
664.187	7.38
664.945	7.38
665.703	7.38
666.46	7.38
667.218	8.38
667.976	8.38
668.733	6.38
669.49	7.38
670.248	8.38
671.005	4.38
671.762	5.38
672.519	5.38
673.276	5.38
674.033	6.38
674.79	6.38
675.547	5.38
676.304	6.38
677.06	8.38
677.817	5.38
678.574	5.38
679.33	6.38
680.086	6.38
680.843	6.38
681.599	5.38
682.355	6.38
683.111	6.38
683.867	3.38
684.623	6.38
685.379	5.38
686.135	6.38
686.89	3.38
687.646	3.38
688.402	4.38
689.157	5.38
689.912	4.38
690.668	4.38
691.423	4.38
692.178	6.38
692.933	5.38
693.688	5.38
694.443	2.38
695.198	6.38
695.953	3.38
696.708	5.38
697.462	2.38
698.217	6.38
698.972	5.38
699.726	4.38
700.48	5.38
701.235	5.38
701.989	5.38
702.743	5.38
703.497	5.38
704.251	5.38
705.005	5.38
705.759	6.38
706.513	5.38
707.266	4.38
708.02	5.38
708.774	6.38
709.527	5.38
710.28	7.38
711.034	4.38
711.787	3.38
712.54	4.38
713.293	5.38
714.046	6.38
714.799	4.38
715.552	9.38
716.305	3.38
717.058	7.38
717.81	4.38
718.563	5.38
719.315	3.38
720.068	6.38
720.82	5.38
721.573	4.38
722.325	5.38
723.077	5.38
723.829	6.38
724.581	6.38
725.333	6.38
726.085	6.38
726.836	2.38
727.588	5.38
728.34	6.38
729.091	5.38
729.843	5.38
730.594	5.38
731.346	7.38
732.097	5.38
732.848	6.38
733.599	5.38
734.35	6.38
735.101	6.38
735.852	7.38
736.603	8.38
737.354	6.38
738.104	6.38
738.855	7.38
739.605	8.38
740.356	5.38
741.106	6.38
741.856	8.38
742.607	6.38
743.357	10.38
744.107	9.38
744.857	7.38
745.607	8.38
746.357	7.38
747.106	8.38
747.856	6.38
748.606	7.38
749.355	7.38
750.105	5.38
750.854	8.38
751.603	8.38
752.353	9.38
753.102	7.38
753.851	7.38
754.6	7.38
755.349	9.38
756.098	10.38
756.847	10.38
757.595	8.38
758.344	8.38
759.093	8.38
759.841	10.38
760.589	9.38
761.338	11.38
762.086	10.38
762.834	9.38
763.582	10.38
764.331	8.38
765.079	9.38
765.826	13.38
766.574	11.38
767.322	9.38
768.07	9.38
768.817	10.38
769.565	10.38
770.312	9.38
771.06	11.38
771.807	8.38
772.554	11.38
773.302	10.38
774.049	11.38
774.796	10.38
775.543	11.38
776.29	12.38
777.036	14.38
777.783	12.38
778.53	11.38
779.276	11.38
780.023	14.38
780.769	12.38
781.516	12.38
782.262	14.38
783.008	8.38
783.754	12.38
784.5	12.38
785.246	12.38
785.992	10.38
786.738	10.38
787.484	11.38
788.23	13.38
788.975	13.38
789.721	10.38
790.466	13.38
791.212	10.38
791.957	12.38
792.702	10.38
793.447	12.38
794.193	11.38
794.938	10.38
795.683	10.38
796.427	9.38
797.172	11.38
797.917	9.38
798.662	9.38
799.406	10.38
800.151	8.38
800.895	9.38
801.64	10.38
802.384	9.38
803.128	11.38
803.872	9.38
804.616	7.38
805.36	6.38
806.104	8.38
806.848	8.38
807.592	7.38
808.336	9.38
809.079	7.38
809.823	7.38
810.566	9.38
811.31	7.38
812.053	10.38
812.796	6.38
813.539	6.38
814.283	8.38
815.026	6.38
815.769	6.38
816.511	5.38
817.254	7.38
817.997	6.38
818.74	5.38
819.482	4.38
820.225	4.38
820.967	7.38
821.71	4.38
822.452	6.38
823.194	4.38
823.936	4.38
824.678	4.38
825.42	6.38
826.162	7.38
826.904	5.38
827.646	6.38
828.388	3.38
829.129	7.38
829.871	6.38
830.612	3.38
831.354	4.38
832.095	2.38
832.836	4.38
833.577	4.38
834.319	6.38
835.06	5.38
835.801	4.38
836.542	5.38
837.282	5.38
838.023	4.38
838.764	1.38
839.504	4.38
840.245	6.38
840.985	5.38
841.726	5.38
842.466	3.38
843.206	5.38
843.946	1.38
844.687	2.38
845.427	4.38
846.166	3.38
846.906	5.38
847.646	3.38
848.386	5.38
849.125	4.38
849.865	2.38
850.605	4.38
851.344	4.38
852.083	2.38
852.823	4.38
853.562	4.38
854.301	2.38
855.04	2.38
855.779	7.38
856.518	4.38
857.257	4.38
857.995	2.38
858.734	4.38
859.473	3.38
860.211	2.38
860.95	3.38
861.688	1.38
862.426	4.38
863.165	3.38
863.903	0.38
864.641	3.38
865.379	2.38
866.117	5.38
866.855	2.38
867.593	2.38
868.33	1.38
869.068	3.38
869.806	3.38
870.543	1.38
871.28	2.38
872.018	1.38
872.755	0.38
873.492	3.38
874.229	2.38
874.967	1.38
875.703	2.38
876.44	3.38
877.177	0.38
877.914	0.38
878.651	-0.62
879.387	-1.62
880.124	1.38
880.86	0.38
881.597	1.38
882.333	1.38
883.069	2.38
883.806	0.38
884.542	2.38
885.278	2.38
886.014	0.38
886.749	0.38
887.485	1.38
888.221	1.38
888.957	3.38
889.692	2.38
890.428	1.38
891.163	1.38
891.899	0.38
892.634	1.38
893.369	3.38
894.104	2.38
894.839	1.38
895.574	-1.62
896.309	0.38
897.044	0.38
897.779	2.38
898.514	0.38
899.248	1.38
899.983	2.38
900.717	1.38
901.452	2.38
902.186	2.38
902.92	0.38
903.654	1.38
904.389	-0.62
905.123	0.38
905.857	0.38
906.59	-1.62
907.324	-0.62
908.058	-1.62
908.792	0.38
909.525	0.38
910.259	1.38
910.992	1.38
911.726	0.38
912.459	0.38
913.192	-2.62
913.925	1.38
914.658	-0.62
915.391	-1.62
916.124	1.38
916.857	1.38
917.59	2.38
918.323	-0.62
919.055	0.38
919.788	1.38
920.521	-0.62
921.253	2.38
921.985	-0.62
922.718	0.38
923.45	1.38
924.182	1.38
924.914	1.38
925.646	-0.62
926.378	0.38
927.11	0.38
927.841	0.38
928.573	1.38
929.305	1.38
930.036	-0.62
930.768	2.38
931.499	-0.62
932.23	-0.62
932.962	0.38
933.693	1.38
934.424	-0.62
935.155	-0.62
935.886	-1.62
936.617	0.38
937.348	-1.62
938.078	0.38
938.809	1.38
939.54	0.38
940.27	0.38
941.001	-0.62
941.731	2.38
942.461	0.38
943.191	0.38
943.922	0.38
944.652	-0.62
945.382	-0.62
946.112	0.38
946.841	0.38
947.571	0.38
948.301	0.38
949.031	2.38
949.76	0.38
950.49	1.38
951.219	2.38
951.948	0.38
952.678	0.38
953.407	0.38
954.136	2.38
954.865	0.38
955.594	0.38
956.323	0.38
957.052	-1.62
957.78	2.38
958.509	-1.62
959.238	0.38
959.966	-0.62
960.695	0.38
961.423	1.38
962.151	-0.62
962.88	3.38
963.608	1.38
964.336	0.38
965.064	1.38
965.792	-1.62
966.52	0.38
967.247	-0.62
967.975	-0.62
968.703	0.38
969.43	0.38
970.158	-0.62
970.885	1.38
971.613	0.38
972.34	0.38
973.067	-0.62
973.794	1.38
974.521	-0.62
975.248	0.38
975.975	-0.62
976.702	0.38
977.429	0.38
978.156	0.38
978.882	-0.62
979.609	-0.62
980.335	1.38
981.062	-1.62
981.788	0.38
982.514	2.38
983.24	-0.62
983.967	0.38
984.693	2.38
985.419	0.38
986.144	-0.62
986.87	-1.62
987.596	-0.62
988.322	0.38
989.047	-0.62
989.773	0.38
990.498	1.38
991.224	1.38
991.949	1.38
992.674	0.38
993.399	-1.62
994.124	0.38
994.849	0.38
995.574	-0.62
996.299	1.38
997.024	-1.62
997.749	2.38
998.473	1.38
999.198	0.38
999.922	2.38
1000.647	-3.62
1001.371	5.38
1002.095	-1.62
1002.82	-1.62
1003.544	-1.62
1004.268	0.38
1004.992	0.38
1005.716	1.38
1006.439	5.38
1007.163	1.38
1007.887	5.38
1008.611	3.38
1009.334	1.38
1010.058	0.38
1010.781	1.38
1011.504	0.38
1012.228	0.38
1012.951	-0.62
1013.674	0.38
1014.397	0.38
1015.12	-0.62
