节点500_425_QEPB04081__98__15-49-56-359.txt的数据

Date: Wed Nov 12 15:49:56 CST 2025
User: PC
Spectrometer: QEPB0408
触发模式: 0
积分时间 (秒): 1.000000E-2
Scans to average: 1
启用暗噪声校正: true
启用非线性校正: false
滑动平均宽度: 0
X轴模式: Wavelengths
Number of Pixels in Spectrum: 1044
>>>>>Begin Spectral Data<<<<<
220.843	3.25
221.644	3.25
222.444	2.25
223.244	5.25
224.045	5.25
224.845	4.25
225.645	5.25
226.445	1.25
227.245	5.25
228.045	2.25
228.845	2.25
229.645	5.25
230.444	5.25
231.244	7.25
232.043	5.25
232.843	4.25
233.642	8.25
234.442	5.25
235.241	7.25
236.04	6.25
236.839	4.25
237.638	6.25
238.437	3.25
239.236	8.25
240.035	7.25
240.833	5.25
241.632	9.25
242.43	8.25
243.229	7.25
244.027	10.25
244.826	7.25
245.624	8.25
246.422	8.25
247.22	9.25
248.018	9.25
248.816	10.25
249.614	9.25
250.412	9.25
251.21	12.25
252.007	11.25
252.805	10.25
253.602	11.25
254.4	10.25
255.197	12.25
255.994	13.25
256.791	14.25
257.589	15.25
258.386	14.25
259.183	17.25
259.979	16.25
260.776	14.25
261.573	17.25
262.37	14.25
263.166	18.25
263.963	18.25
264.759	20.25
265.556	20.25
266.352	16.25
267.148	22.25
267.944	18.25
268.74	23.25
269.536	21.25
270.332	22.25
271.128	25.25
271.924	21.25
272.719	26.25
273.515	23.25
274.311	25.25
275.106	26.25
275.901	26.25
276.697	26.25
277.492	23.25
278.287	25.25
279.082	25.25
279.877	25.25
280.672	25.25
281.467	25.25
282.262	28.25
283.056	26.25
283.851	26.25
284.646	27.25
285.44	27.25
286.234	27.25
287.029	25.25
287.823	27.25
288.617	25.25
289.411	23.25
290.205	25.25
290.999	25.25
291.793	25.25
292.587	22.25
293.381	23.25
294.174	22.25
294.968	21.25
295.761	20.25
296.555	21.25
297.348	21.25
298.141	19.25
298.935	21.25
299.728	20.25
300.521	18.25
301.314	20.25
302.107	16.25
302.899	19.25
303.692	14.25
304.485	16.25
305.277	18.25
306.07	14.25
306.862	14.25
307.655	15.25
308.447	17.25
309.239	15.25
310.031	14.25
310.823	10.25
311.615	13.25
312.407	14.25
313.199	11.25
313.991	15.25
314.783	12.25
315.574	12.25
316.366	14.25
317.157	9.25
317.949	10.25
318.74	12.25
319.531	13.25
320.322	13.25
321.113	8.25
321.904	9.25
322.695	10.25
323.486	12.25
324.277	8.25
325.068	9.25
325.858	12.25
326.649	10.25
327.439	11.25
328.23	8.25
329.02	8.25
329.81	9.25
330.6	8.25
331.391	8.25
332.181	6.25
332.971	10.25
333.76	8.25
334.55	8.25
335.34	9.25
336.13	9.25
336.919	10.25
337.709	8.25
338.498	7.25
339.287	9.25
340.077	8.25
340.866	9.25
341.655	10.25
342.444	7.25
343.233	8.25
344.022	9.25
344.811	10.25
345.6	6.25
346.388	8.25
347.177	7.25
347.965	10.25
348.754	8.25
349.542	8.25
350.33	7.25
351.119	10.25
351.907	9.25
352.695	6.25
353.483	6.25
354.271	10.25
355.059	9.25
355.846	7.25
356.634	6.25
357.422	6.25
358.209	8.25
358.997	7.25
359.784	6.25
360.571	6.25
361.359	8.25
362.146	6.25
362.933	7.25
363.72	6.25
364.507	9.25
365.294	8.25
366.081	7.25
366.867	7.25
367.654	6.25
368.44	6.25
369.227	10.25
370.013	5.25
370.8	8.25
371.586	10.25
372.372	8.25
373.158	6.25
373.944	7.25
374.73	7.25
375.516	5.25
376.302	7.25
377.088	7.25
377.873	4.25
378.659	7.25
379.445	7.25
380.23	4.25
381.015	7.25
381.801	8.25
382.586	7.25
383.371	7.25
384.156	8.25
384.941	8.25
385.726	6.25
386.511	8.25
387.296	9.25
388.08	7.25
388.865	8.25
389.649	6.25
390.434	6.25
391.218	10.25
392.003	10.25
392.787	7.25
393.571	10.25
394.355	9.25
395.139	8.25
395.923	10.25
396.707	8.25
397.491	10.25
398.274	11.25
399.058	10.25
399.842	11.25
400.625	8.25
401.408	11.25
402.192	12.25
402.975	12.25
403.758	10.25
404.541	9.25
405.324	10.25
406.107	6.25
406.89	12.25
407.673	6.25
408.456	11.25
409.238	11.25
410.021	11.25
410.803	9.25
411.586	11.25
412.368	12.25
413.151	12.25
413.933	15.25
414.715	12.25
415.497	13.25
416.279	13.25
417.061	13.25
417.843	12.25
418.624	14.25
419.406	14.25
420.188	15.25
420.969	14.25
421.751	16.25
422.532	15.25
423.313	14.25
424.095	16.25
424.876	15.25
425.657	19.25
426.438	14.25
427.219	19.25
428	19.25
428.78	17.25
429.561	19.25
430.342	20.25
431.122	20.25
431.903	23.25
432.683	23.25
433.464	22.25
434.244	21.25
435.024	25.25
435.804	26.25
436.584	28.25
437.364	27.25
438.144	30.25
438.924	30.25
439.704	33.25
440.483	31.25
441.263	34.25
442.042	38.25
442.822	37.25
443.601	43.25
444.38	48.25
445.16	46.25
445.939	48.25
446.718	54.25
447.497	58.25
448.276	61.25
449.054	72.25
449.833	75.25
450.612	82.25
451.391	89.25
452.169	94.25
452.948	104.25
453.726	121.25
454.504	125.25
455.282	140.25
456.061	155.25
456.839	177.25
457.617	193.25
458.395	215.25
459.172	247.25
459.95	263.25
460.728	298.25
461.506	327.25
462.283	377.25
463.061	410.25
463.838	473.25
464.615	529.25
465.393	596.25
466.17	669.25
466.947	740.25
467.724	822.25
468.501	918.25
469.278	1033.25
470.055	1134.25
470.831	1260.25
471.608	1404.25
472.385	1562.25
473.161	1722.25
473.938	1936.25
474.714	2141.25
475.49	2357.25
476.266	2606.25
477.043	2896.25
477.819	3206.25
478.595	3537.25
479.371	3916.25
480.146	4305.25
480.922	4747.25
481.698	5208.25
482.473	5752.25
483.249	6334.25
484.024	7007.25
484.8	7683.25
485.575	8417.25
486.35	9234.25
487.126	10055.25
487.901	11049.25
488.676	12121.25
489.451	13202.25
490.225	14351.25
491	15635.25
491.775	16947.25
492.55	18286.25
493.324	19783.25
494.099	21189.25
494.873	22652.25
495.647	24196.25
496.422	25779.25
497.196	27229.25
497.97	28868.25
498.744	30391.25
499.518	31820.25
500.292	33033.25
501.066	34123.25
501.839	35205.25
502.613	35976.25
503.387	36580.25
504.16	37016.25
504.934	37067.25
505.707	37016.25
506.48	36668.25
507.253	36194.25
508.027	35620.25
508.8	34861.25
509.573	33937.25
510.346	32869.25
511.118	31813.25
511.891	30675.25
512.664	29395.25
513.437	28221.25
514.209	27045.25
514.982	25965.25
515.754	24829.25
516.526	23702.25
517.298	22652.25
518.071	21718.25
518.843	20866.25
519.615	19995.25
520.387	19192.25
521.159	18486.25
521.93	17723.25
522.702	17073.25
523.474	16320.25
524.245	15727.25
525.017	14953.25
525.788	14256.25
526.56	13607.25
527.331	12954.25
528.102	12311.25
528.873	11694.25
529.644	11167.25
530.415	10593.25
531.186	10054.25
531.957	9552.25
532.728	9058.25
533.498	8490.25
534.269	7989.25
535.039	7578.25
535.81	7152.25
536.58	6742.25
537.351	6357.25
538.121	6000.25
538.891	5698.25
539.661	5395.25
540.431	5115.25
541.201	4856.25
541.971	4604.25
542.741	4352.25
543.51	4120.25
544.28	3933.25
545.05	3728.25
545.819	3567.25
546.588	3411.25
547.358	3209.25
548.127	3044.25
548.896	2865.25
549.665	2737.25
550.434	2602.25
551.203	2452.25
551.972	2337.25
552.741	2185.25
553.51	2077.25
554.278	1966.25
555.047	1826.25
555.815	1719.25
556.584	1655.25
557.352	1544.25
558.121	1445.25
558.889	1379.25
559.657	1305.25
560.425	1228.25
561.193	1162.25
561.961	1092.25
562.729	1043.25
563.496	989.25
564.264	924.25
565.032	880.25
565.799	829.25
566.567	793.25
567.334	748.25
568.101	698.25
568.869	664.25
569.636	622.25
570.403	579.25
571.17	556.25
571.937	521.25
572.704	494.25
573.471	462.25
574.237	447.25
575.004	410.25
575.771	397.25
576.537	364.25
577.303	347.25
578.07	328.25
578.836	311.25
579.602	297.25
580.368	278.25
581.134	271.25
581.9	250.25
582.666	238.25
583.432	223.25
584.198	215.25
584.964	197.25
585.729	189.25
586.495	177.25
587.26	169.25
588.025	166.25
588.791	158.25
589.556	153.25
590.321	137.25
591.086	137.25
591.851	126.25
592.616	123.25
593.381	114.25
594.146	111.25
594.911	103.25
595.675	99.25
596.44	96.25
597.204	89.25
597.969	86.25
598.733	84.25
599.497	78.25
600.261	79.25
601.025	74.25
601.79	67.25
602.553	66.25
603.317	63.25
604.081	62.25
604.845	54.25
605.609	58.25
606.372	46.25
607.136	54.25
607.899	54.25
608.662	47.25
609.426	48.25
610.189	44.25
610.952	43.25
611.715	43.25
612.478	39.25
613.241	39.25
614.004	33.25
614.767	35.25
615.529	34.25
616.292	32.25
617.055	33.25
617.817	30.25
618.579	30.25
619.342	31.25
620.104	27.25
620.866	26.25
621.628	26.25
622.39	23.25
623.152	25.25
623.914	25.25
624.676	21.25
625.438	22.25
626.199	23.25
626.961	22.25
627.722	23.25
628.484	19.25
629.245	20.25
630.006	18.25
630.768	20.25
631.529	14.25
632.29	18.25
633.051	16.25
633.812	17.25
634.573	14.25
635.333	16.25
636.094	16.25
636.855	14.25
637.615	14.25
638.376	13.25
639.136	11.25
639.896	13.25
640.657	11.25
641.417	14.25
642.177	12.25
642.937	10.25
643.697	14.25
644.457	10.25
645.216	10.25
645.976	12.25
646.736	11.25
647.495	12.25
648.255	9.25
649.014	11.25
649.774	9.25
650.533	7.25
651.292	7.25
652.051	9.25
652.81	10.25
653.569	12.25
654.328	9.25
655.087	11.25
655.846	7.25
656.604	10.25
657.363	7.25
658.121	10.25
658.88	8.25
659.638	7.25
660.397	6.25
661.155	9.25
661.913	6.25
662.671	7.25
663.429	7.25
664.187	6.25
664.945	8.25
665.703	5.25
666.46	4.25
667.218	8.25
667.976	6.25
668.733	5.25
669.49	5.25
670.248	4.25
671.005	8.25
671.762	5.25
672.519	5.25
673.276	6.25
674.033	5.25
674.79	7.25
675.547	5.25
676.304	7.25
677.06	5.25
677.817	8.25
678.574	6.25
679.33	5.25
680.086	5.25
680.843	3.25
681.599	5.25
682.355	7.25
683.111	6.25
683.867	2.25
684.623	5.25
685.379	5.25
686.135	4.25
686.89	3.25
687.646	4.25
688.402	5.25
689.157	4.25
689.912	5.25
690.668	6.25
691.423	5.25
692.178	6.25
692.933	5.25
693.688	7.25
694.443	7.25
695.198	2.25
695.953	8.25
696.708	7.25
697.462	3.25
698.217	6.25
698.972	4.25
699.726	9.25
700.48	5.25
701.235	6.25
701.989	6.25
702.743	4.25
703.497	4.25
704.251	7.25
705.005	4.25
705.759	4.25
706.513	4.25
707.266	6.25
708.02	5.25
708.774	6.25
709.527	6.25
710.28	4.25
711.034	4.25
711.787	4.25
712.54	7.25
713.293	5.25
714.046	7.25
714.799	6.25
715.552	7.25
716.305	4.25
717.058	4.25
717.81	7.25
718.563	4.25
719.315	2.25
720.068	5.25
720.82	6.25
721.573	6.25
722.325	3.25
723.077	6.25
723.829	6.25
724.581	7.25
725.333	7.25
726.085	4.25
726.836	5.25
727.588	6.25
728.34	5.25
729.091	7.25
729.843	4.25
730.594	8.25
731.346	6.25
732.097	8.25
732.848	5.25
733.599	6.25
734.35	9.25
735.101	5.25
735.852	7.25
736.603	7.25
737.354	7.25
738.104	5.25
738.855	5.25
739.605	7.25
740.356	6.25
741.106	8.25
741.856	4.25
742.607	7.25
743.357	7.25
744.107	6.25
744.857	9.25
745.607	6.25
746.357	8.25
747.106	8.25
747.856	5.25
748.606	8.25
749.355	6.25
750.105	7.25
750.854	5.25
751.603	8.25
752.353	6.25
753.102	7.25
753.851	9.25
754.6	8.25
755.349	9.25
756.098	7.25
756.847	7.25
757.595	10.25
758.344	9.25
759.093	12.25
759.841	8.25
760.589	8.25
761.338	9.25
762.086	7.25
762.834	10.25
763.582	10.25
764.331	10.25
765.079	10.25
765.826	11.25
766.574	10.25
767.322	9.25
768.07	11.25
768.817	10.25
769.565	10.25
770.312	12.25
771.06	8.25
771.807	12.25
772.554	12.25
773.302	10.25
774.049	9.25
774.796	11.25
775.543	13.25
776.29	13.25
777.036	12.25
777.783	11.25
778.53	12.25
779.276	13.25
780.023	10.25
780.769	13.25
781.516	10.25
782.262	12.25
783.008	12.25
783.754	13.25
784.5	12.25
785.246	10.25
785.992	14.25
786.738	9.25
787.484	13.25
788.23	12.25
788.975	12.25
789.721	13.25
790.466	11.25
791.212	11.25
791.957	14.25
792.702	11.25
793.447	11.25
794.193	9.25
794.938	13.25
795.683	10.25
796.427	12.25
797.172	10.25
797.917	10.25
798.662	10.25
799.406	10.25
800.151	11.25
800.895	8.25
801.64	10.25
802.384	10.25
803.128	8.25
803.872	7.25
804.616	8.25
805.36	7.25
806.104	9.25
806.848	9.25
807.592	10.25
808.336	6.25
809.079	8.25
809.823	8.25
810.566	7.25
811.31	6.25
812.053	8.25
812.796	6.25
813.539	5.25
814.283	8.25
815.026	5.25
815.769	6.25
816.511	8.25
817.254	5.25
817.997	5.25
818.74	6.25
819.482	6.25
820.225	7.25
820.967	6.25
821.71	6.25
822.452	7.25
823.194	5.25
823.936	4.25
824.678	6.25
825.42	7.25
826.162	8.25
826.904	5.25
827.646	5.25
828.388	4.25
829.129	3.25
829.871	3.25
830.612	4.25
831.354	4.25
832.095	6.25
832.836	5.25
833.577	4.25
834.319	3.25
835.06	2.25
835.801	6.25
836.542	6.25
837.282	2.25
838.023	5.25
838.764	3.25
839.504	5.25
840.245	5.25
840.985	7.25
841.726	3.25
842.466	3.25
843.206	4.25
843.946	5.25
844.687	5.25
845.427	3.25
846.166	5.25
846.906	2.25
847.646	5.25
848.386	3.25
849.125	2.25
849.865	4.25
850.605	2.25
851.344	5.25
852.083	2.25
852.823	3.25
853.562	5.25
854.301	1.25
855.04	2.25
855.779	3.25
856.518	2.25
857.257	4.25
857.995	2.25
858.734	2.25
859.473	4.25
860.211	2.25
860.95	3.25
861.688	3.25
862.426	3.25
863.165	2.25
863.903	4.25
864.641	2.25
865.379	3.25
866.117	1.25
866.855	-0.75
867.593	0.25
868.33	2.25
869.068	1.25
869.806	1.25
870.543	3.25
871.28	3.25
872.018	2.25
872.755	4.25
873.492	0.25
874.229	0.25
874.967	2.25
875.703	1.25
876.44	1.25
877.177	2.25
877.914	2.25
878.651	-1.75
879.387	3.25
880.124	0.25
880.86	2.25
881.597	2.25
882.333	4.25
883.069	2.25
883.806	2.25
884.542	2.25
885.278	-0.75
886.014	0.25
886.749	3.25
887.485	1.25
888.221	2.25
888.957	2.25
889.692	1.25
890.428	4.25
891.163	-0.75
891.899	1.25
892.634	1.25
893.369	-0.75
894.104	0.25
894.839	1.25
895.574	0.25
896.309	-0.75
897.044	2.25
897.779	2.25
898.514	-3.75
899.248	2.25
899.983	2.25
900.717	-0.75
901.452	-0.75
902.186	2.25
902.92	-0.75
903.654	0.25
904.389	-0.75
905.123	0.25
905.857	2.25
906.59	-0.75
907.324	0.25
908.058	1.25
908.792	1.25
909.525	1.25
910.259	-0.75
910.992	1.25
911.726	2.25
912.459	-1.75
913.192	0.25
913.925	-0.75
914.658	0.25
915.391	0.25
916.124	1.25
916.857	2.25
917.59	2.25
918.323	1.25
919.055	2.25
919.788	0.25
920.521	1.25
921.253	0.25
921.985	2.25
922.718	0.25
923.45	-0.75
924.182	-0.75
924.914	0.25
925.646	0.25
926.378	1.25
927.11	0.25
927.841	2.25
928.573	0.25
929.305	2.25
930.036	0.25
930.768	-2.75
931.499	-1.75
932.23	2.25
932.962	0.25
933.693	0.25
934.424	0.25
935.155	0.25
935.886	0.25
936.617	0.25
937.348	1.25
938.078	0.25
938.809	-0.75
939.54	1.25
940.27	1.25
941.001	0.25
941.731	1.25
942.461	1.25
943.191	0.25
943.922	1.25
944.652	2.25
945.382	-0.75
946.112	-1.75
946.841	1.25
947.571	-2.75
948.301	0.25
949.031	-0.75
949.76	1.25
950.49	1.25
951.219	-1.75
951.948	0.25
952.678	-1.75
953.407	2.25
954.136	-0.75
954.865	1.25
955.594	-0.75
956.323	1.25
957.052	0.25
957.78	-0.75
958.509	0.25
959.238	-0.75
959.966	0.25
960.695	-1.75
961.423	1.25
962.151	1.25
962.88	-0.75
963.608	1.25
964.336	0.25
965.064	0.25
965.792	0.25
966.52	3.25
967.247	-1.75
967.975	1.25
968.703	0.25
969.43	2.25
970.158	-0.75
970.885	0.25
971.613	0.25
972.34	1.25
973.067	0.25
973.794	-0.75
974.521	0.25
975.248	-1.75
975.975	3.25
976.702	-0.75
977.429	-1.75
978.156	0.25
978.882	0.25
979.609	1.25
980.335	0.25
981.062	1.25
981.788	1.25
982.514	-0.75
983.24	0.25
983.967	1.25
984.693	0.25
985.419	0.25
986.144	-0.75
986.87	0.25
987.596	-0.75
988.322	1.25
989.047	0.25
989.773	0.25
990.498	-1.75
991.224	-1.75
991.949	1.25
992.674	0.25
993.399	2.25
994.124	-0.75
994.849	1.25
995.574	-1.75
996.299	0.25
997.024	1.25
997.749	1.25
998.473	0.25
999.198	1.25
999.922	2.25
1000.647	-1.75
1001.371	1.25
1002.095	-0.75
1002.82	-2.75
1003.544	1.25
1004.268	2.25
1004.992	2.25
1005.716	3.25
1006.439	3.25
1007.163	3.25
1007.887	2.25
1008.611	-0.75
1009.334	2.25
1010.058	1.25
1010.781	1.25
1011.504	1.25
1012.228	-0.75
1012.951	1.25
1013.674	-1.75
1014.397	0.25
1015.12	1.25
