节点500_425_QEPB04081__471__15-56-08-572.txt的数据

Date: Wed Nov 12 15:56:08 CST 2025
User: PC
Spectrometer: QEPB0408
触发模式: 0
积分时间 (秒): 1.000000E-2
Scans to average: 1
启用暗噪声校正: true
启用非线性校正: false
滑动平均宽度: 0
X轴模式: Wavelengths
Number of Pixels in Spectrum: 1044
>>>>>Begin Spectral Data<<<<<
220.843	2.5
221.644	2.5
222.444	3.5
223.244	1.5
224.045	5.5
224.845	2.5
225.645	2.5
226.445	3.5
227.245	5.5
228.045	5.5
228.845	2.5
229.645	3.5
230.444	4.5
231.244	4.5
232.043	4.5
232.843	6.5
233.642	5.5
234.442	4.5
235.241	6.5
236.04	4.5
236.839	7.5
237.638	4.5
238.437	6.5
239.236	7.5
240.035	7.5
240.833	8.5
241.632	7.5
242.43	8.5
243.229	9.5
244.027	8.5
244.826	10.5
245.624	4.5
246.422	9.5
247.22	8.5
248.018	10.5
248.816	8.5
249.614	11.5
250.412	9.5
251.21	8.5
252.007	9.5
252.805	7.5
253.602	9.5
254.4	8.5
255.197	13.5
255.994	9.5
256.791	11.5
257.589	13.5
258.386	10.5
259.183	12.5
259.979	13.5
260.776	15.5
261.573	12.5
262.37	16.5
263.166	14.5
263.963	17.5
264.759	15.5
265.556	18.5
266.352	17.5
267.148	17.5
267.944	17.5
268.74	17.5
269.536	18.5
270.332	21.5
271.128	19.5
271.924	22.5
272.719	20.5
273.515	20.5
274.311	21.5
275.106	22.5
275.901	20.5
276.697	22.5
277.492	20.5
278.287	21.5
279.082	22.5
279.877	21.5
280.672	21.5
281.467	23.5
282.262	21.5
283.056	23.5
283.851	23.5
284.646	25.5
285.44	23.5
286.234	27.5
287.029	22.5
287.823	23.5
288.617	22.5
289.411	24.5
290.205	24.5
290.999	19.5
291.793	23.5
292.587	23.5
293.381	19.5
294.174	22.5
294.968	23.5
295.761	22.5
296.555	20.5
297.348	19.5
298.141	18.5
298.935	19.5
299.728	21.5
300.521	18.5
301.314	16.5
302.107	18.5
302.899	16.5
303.692	17.5
304.485	18.5
305.277	17.5
306.07	16.5
306.862	16.5
307.655	17.5
308.447	12.5
309.239	14.5
310.031	14.5
310.823	15.5
311.615	14.5
312.407	11.5
313.199	13.5
313.991	10.5
314.783	16.5
315.574	12.5
316.366	10.5
317.157	9.5
317.949	10.5
318.74	11.5
319.531	10.5
320.322	12.5
321.113	11.5
321.904	7.5
322.695	9.5
323.486	9.5
324.277	9.5
325.068	9.5
325.858	9.5
326.649	10.5
327.439	9.5
328.23	8.5
329.02	8.5
329.81	10.5
330.6	7.5
331.391	8.5
332.181	10.5
332.971	7.5
333.76	7.5
334.55	7.5
335.34	4.5
336.13	8.5
336.919	6.5
337.709	9.5
338.498	9.5
339.287	8.5
340.077	8.5
340.866	8.5
341.655	9.5
342.444	7.5
343.233	9.5
344.022	7.5
344.811	6.5
345.6	10.5
346.388	8.5
347.177	8.5
347.965	9.5
348.754	7.5
349.542	7.5
350.33	6.5
351.119	6.5
351.907	7.5
352.695	7.5
353.483	7.5
354.271	7.5
355.059	9.5
355.846	6.5
356.634	6.5
357.422	6.5
358.209	8.5
358.997	8.5
359.784	9.5
360.571	11.5
361.359	7.5
362.146	8.5
362.933	7.5
363.72	5.5
364.507	6.5
365.294	9.5
366.081	5.5
366.867	7.5
367.654	9.5
368.44	6.5
369.227	8.5
370.013	5.5
370.8	5.5
371.586	7.5
372.372	5.5
373.158	5.5
373.944	7.5
374.73	5.5
375.516	7.5
376.302	5.5
377.088	7.5
377.873	6.5
378.659	5.5
379.445	6.5
380.23	7.5
381.015	7.5
381.801	8.5
382.586	9.5
383.371	6.5
384.156	6.5
384.941	4.5
385.726	6.5
386.511	8.5
387.296	7.5
388.08	6.5
388.865	7.5
389.649	5.5
390.434	9.5
391.218	7.5
392.003	9.5
392.787	8.5
393.571	7.5
394.355	8.5
395.139	7.5
395.923	9.5
396.707	7.5
397.491	8.5
398.274	7.5
399.058	9.5
399.842	9.5
400.625	9.5
401.408	10.5
402.192	12.5
402.975	8.5
403.758	10.5
404.541	8.5
405.324	8.5
406.107	10.5
406.89	10.5
407.673	11.5
408.456	8.5
409.238	8.5
410.021	10.5
410.803	11.5
411.586	11.5
412.368	10.5
413.151	10.5
413.933	12.5
414.715	11.5
415.497	12.5
416.279	9.5
417.061	12.5
417.843	13.5
418.624	13.5
419.406	14.5
420.188	12.5
420.969	12.5
421.751	14.5
422.532	13.5
423.313	15.5
424.095	15.5
424.876	17.5
425.657	16.5
426.438	16.5
427.219	15.5
428	18.5
428.78	17.5
429.561	18.5
430.342	21.5
431.122	22.5
431.903	20.5
432.683	20.5
433.464	18.5
434.244	22.5
435.024	24.5
435.804	26.5
436.584	26.5
437.364	28.5
438.144	25.5
438.924	32.5
439.704	32.5
440.483	32.5
441.263	36.5
442.042	37.5
442.822	42.5
443.601	43.5
444.38	47.5
445.16	52.5
445.939	51.5
446.718	55.5
447.497	63.5
448.276	74.5
449.054	72.5
449.833	82.5
450.612	92.5
451.391	96.5
452.169	109.5
452.948	120.5
453.726	139.5
454.504	144.5
455.282	165.5
456.061	177.5
456.839	190.5
457.617	220.5
458.395	247.5
459.172	273.5
459.95	302.5
460.728	339.5
461.506	381.5
462.283	416.5
463.061	464.5
463.838	514.5
464.615	577.5
465.393	647.5
466.17	715.5
466.947	799.5
467.724	888.5
468.501	983.5
469.278	1072.5
470.055	1195.5
470.831	1329.5
471.608	1463.5
472.385	1603.5
473.161	1766.5
473.938	1959.5
474.714	2153.5
475.49	2356.5
476.266	2614.5
477.043	2854.5
477.819	3143.5
478.595	3439.5
479.371	3786.5
480.146	4109.5
480.922	4507.5
481.698	4927.5
482.473	5374.5
483.249	5863.5
484.024	6402.5
484.8	6974.5
485.575	7549.5
486.35	8213.5
487.126	8976.5
487.901	9699.5
488.676	10582.5
489.451	11453.5
490.225	12405.5
491	13377.5
491.775	14503.5
492.55	15534.5
493.324	16744.5
494.099	17909.5
494.873	19089.5
495.647	20408.5
496.422	21690.5
497.196	23084.5
497.97	24437.5
498.744	25725.5
499.518	27018.5
500.292	28231.5
501.066	29305.5
501.839	30481.5
502.613	31364.5
503.387	32171.5
504.16	32843.5
504.934	33238.5
505.707	33503.5
506.48	33643.5
507.253	33419.5
508.027	33250.5
508.8	32912.5
509.573	32393.5
510.346	31771.5
511.118	31012.5
511.891	30162.5
512.664	29207.5
513.437	28177.5
514.209	27090.5
514.982	26181.5
515.754	25246.5
516.526	24114.5
517.298	23186.5
518.071	22245.5
518.843	21315.5
519.615	20480.5
520.387	19652.5
521.159	18915.5
521.93	18180.5
522.702	17434.5
523.474	16823.5
524.245	16131.5
525.017	15424.5
525.788	14759.5
526.56	14143.5
527.331	13492.5
528.102	12895.5
528.873	12307.5
529.644	11720.5
530.415	11216.5
531.186	10665.5
531.957	10134.5
532.728	9633.5
533.498	9094.5
534.269	8588.5
535.039	8145.5
535.81	7719.5
536.58	7311.5
537.351	6904.5
538.121	6513.5
538.891	6160.5
539.661	5846.5
540.431	5564.5
541.201	5244.5
541.971	4962.5
542.741	4683.5
543.51	4513.5
544.28	4233.5
545.05	4033.5
545.819	3887.5
546.588	3676.5
547.358	3468.5
548.127	3290.5
548.896	3144.5
549.665	2982.5
550.434	2824.5
551.203	2668.5
551.972	2549.5
552.741	2411.5
553.51	2282.5
554.278	2138.5
555.047	2018.5
555.815	1924.5
556.584	1804.5
557.352	1724.5
558.121	1608.5
558.889	1527.5
559.657	1446.5
560.425	1367.5
561.193	1289.5
561.961	1233.5
562.729	1152.5
563.496	1082.5
564.264	1031.5
565.032	976.5
565.799	913.5
566.567	879.5
567.334	834.5
568.101	778.5
568.869	736.5
569.636	690.5
570.403	654.5
571.17	615.5
571.937	580.5
572.704	555.5
573.471	522.5
574.237	495.5
575.004	464.5
575.771	433.5
576.537	408.5
577.303	387.5
578.07	364.5
578.836	345.5
579.602	323.5
580.368	311.5
581.134	297.5
581.9	275.5
582.666	262.5
583.432	246.5
584.198	235.5
584.964	221.5
585.729	216.5
586.495	209.5
587.26	195.5
588.025	183.5
588.791	174.5
589.556	164.5
590.321	152.5
591.086	144.5
591.851	143.5
592.616	134.5
593.381	131.5
594.146	119.5
594.911	110.5
595.675	110.5
596.44	104.5
597.204	99.5
597.969	96.5
598.733	90.5
599.497	88.5
600.261	83.5
601.025	81.5
601.79	76.5
602.553	74.5
603.317	70.5
604.081	66.5
604.845	62.5
605.609	61.5
606.372	57.5
607.136	55.5
607.899	55.5
608.662	50.5
609.426	49.5
610.189	48.5
610.952	48.5
611.715	42.5
612.478	44.5
613.241	41.5
614.004	38.5
614.767	35.5
615.529	35.5
616.292	34.5
617.055	34.5
617.817	32.5
618.579	32.5
619.342	28.5
620.104	26.5
620.866	29.5
621.628	30.5
622.39	25.5
623.152	25.5
623.914	24.5
624.676	26.5
625.438	26.5
626.199	24.5
626.961	20.5
627.722	21.5
628.484	21.5
629.245	21.5
630.006	22.5
630.768	20.5
631.529	17.5
632.29	17.5
633.051	17.5
633.812	17.5
634.573	18.5
635.333	16.5
636.094	16.5
636.855	12.5
637.615	17.5
638.376	13.5
639.136	14.5
639.896	15.5
640.657	13.5
641.417	12.5
642.177	13.5
642.937	12.5
643.697	11.5
644.457	12.5
645.216	10.5
645.976	10.5
646.736	8.5
647.495	10.5
648.255	12.5
649.014	11.5
649.774	10.5
650.533	10.5
651.292	8.5
652.051	10.5
652.81	8.5
653.569	7.5
654.328	10.5
655.087	8.5
655.846	9.5
656.604	6.5
657.363	8.5
658.121	6.5
658.88	8.5
659.638	8.5
660.397	7.5
661.155	8.5
661.913	7.5
662.671	8.5
663.429	10.5
664.187	6.5
664.945	7.5
665.703	8.5
666.46	6.5
667.218	6.5
667.976	8.5
668.733	6.5
669.49	5.5
670.248	7.5
671.005	4.5
671.762	7.5
672.519	8.5
673.276	5.5
674.033	8.5
674.79	5.5
675.547	7.5
676.304	7.5
677.06	5.5
677.817	4.5
678.574	7.5
679.33	4.5
680.086	5.5
680.843	3.5
681.599	6.5
682.355	4.5
683.111	7.5
683.867	4.5
684.623	7.5
685.379	6.5
686.135	8.5
686.89	3.5
687.646	6.5
688.402	5.5
689.157	6.5
689.912	4.5
690.668	2.5
691.423	5.5
692.178	3.5
692.933	3.5
693.688	5.5
694.443	5.5
695.198	5.5
695.953	4.5
696.708	5.5
697.462	5.5
698.217	4.5
698.972	7.5
699.726	4.5
700.48	6.5
701.235	5.5
701.989	3.5
702.743	5.5
703.497	2.5
704.251	5.5
705.005	3.5
705.759	4.5
706.513	6.5
707.266	5.5
708.02	5.5
708.774	2.5
709.527	5.5
710.28	4.5
711.034	5.5
711.787	5.5
712.54	4.5
713.293	6.5
714.046	2.5
714.799	4.5
715.552	5.5
716.305	2.5
717.058	4.5
717.81	5.5
718.563	6.5
719.315	4.5
720.068	2.5
720.82	6.5
721.573	4.5
722.325	7.5
723.077	4.5
723.829	5.5
724.581	6.5
725.333	5.5
726.085	5.5
726.836	5.5
727.588	4.5
728.34	4.5
729.091	4.5
729.843	6.5
730.594	3.5
731.346	5.5
732.097	4.5
732.848	6.5
733.599	6.5
734.35	7.5
735.101	6.5
735.852	4.5
736.603	5.5
737.354	6.5
738.104	4.5
738.855	6.5
739.605	5.5
740.356	8.5
741.106	3.5
741.856	6.5
742.607	8.5
743.357	9.5
744.107	8.5
744.857	6.5
745.607	6.5
746.357	9.5
747.106	5.5
747.856	5.5
748.606	8.5
749.355	4.5
750.105	9.5
750.854	6.5
751.603	5.5
752.353	7.5
753.102	8.5
753.851	6.5
754.6	8.5
755.349	6.5
756.098	7.5
756.847	6.5
757.595	7.5
758.344	9.5
759.093	8.5
759.841	6.5
760.589	4.5
761.338	8.5
762.086	9.5
762.834	6.5
763.582	6.5
764.331	9.5
765.079	7.5
765.826	9.5
766.574	7.5
767.322	11.5
768.07	8.5
768.817	13.5
769.565	12.5
770.312	9.5
771.06	12.5
771.807	10.5
772.554	10.5
773.302	10.5
774.049	9.5
774.796	11.5
775.543	10.5
776.29	11.5
777.036	9.5
777.783	10.5
778.53	10.5
779.276	10.5
780.023	11.5
780.769	9.5
781.516	8.5
782.262	13.5
783.008	10.5
783.754	10.5
784.5	9.5
785.246	11.5
785.992	10.5
786.738	10.5
787.484	12.5
788.23	10.5
788.975	12.5
789.721	11.5
790.466	8.5
791.212	9.5
791.957	8.5
792.702	9.5
793.447	7.5
794.193	10.5
794.938	10.5
795.683	9.5
796.427	8.5
797.172	9.5
797.917	8.5
798.662	9.5
799.406	11.5
800.151	9.5
800.895	9.5
801.64	6.5
802.384	9.5
803.128	8.5
803.872	7.5
804.616	8.5
805.36	7.5
806.104	7.5
806.848	6.5
807.592	8.5
808.336	7.5
809.079	7.5
809.823	4.5
810.566	5.5
811.31	7.5
812.053	9.5
812.796	4.5
813.539	7.5
814.283	7.5
815.026	6.5
815.769	7.5
816.511	4.5
817.254	4.5
817.997	7.5
818.74	2.5
819.482	5.5
820.225	4.5
820.967	5.5
821.71	5.5
822.452	5.5
823.194	4.5
823.936	6.5
824.678	5.5
825.42	5.5
826.162	4.5
826.904	6.5
827.646	5.5
828.388	4.5
829.129	4.5
829.871	7.5
830.612	4.5
831.354	3.5
832.095	6.5
832.836	3.5
833.577	4.5
834.319	7.5
835.06	4.5
835.801	5.5
836.542	3.5
837.282	4.5
838.023	6.5
838.764	5.5
839.504	1.5
840.245	3.5
840.985	4.5
841.726	5.5
842.466	4.5
843.206	5.5
843.946	4.5
844.687	4.5
845.427	6.5
846.166	4.5
846.906	3.5
847.646	5.5
848.386	1.5
849.125	2.5
849.865	4.5
850.605	4.5
851.344	3.5
852.083	4.5
852.823	3.5
853.562	2.5
854.301	5.5
855.04	5.5
855.779	2.5
856.518	3.5
857.257	4.5
857.995	4.5
858.734	2.5
859.473	2.5
860.211	2.5
860.95	3.5
861.688	2.5
862.426	5.5
863.165	3.5
863.903	4.5
864.641	2.5
865.379	3.5
866.117	4.5
866.855	1.5
867.593	1.5
868.33	0.5
869.068	2.5
869.806	0.5
870.543	2.5
871.28	4.5
872.018	1.5
872.755	3.5
873.492	0.5
874.229	3.5
874.967	3.5
875.703	1.5
876.44	0.5
877.177	1.5
877.914	3.5
878.651	-0.5
879.387	2.5
880.124	2.5
880.86	1.5
881.597	0.5
882.333	3.5
883.069	2.5
883.806	0.5
884.542	2.5
885.278	2.5
886.014	0.5
886.749	0.5
887.485	1.5
888.221	-0.5
888.957	0.5
889.692	0.5
890.428	3.5
891.163	0.5
891.899	1.5
892.634	1.5
893.369	1.5
894.104	3.5
894.839	1.5
895.574	1.5
896.309	2.5
897.044	1.5
897.779	1.5
898.514	-0.5
899.248	3.5
899.983	-0.5
900.717	-0.5
901.452	1.5
902.186	-0.5
902.92	3.5
903.654	-0.5
904.389	0.5
905.123	2.5
905.857	1.5
906.59	1.5
907.324	0.5
908.058	1.5
908.792	0.5
909.525	1.5
910.259	-1.5
910.992	3.5
911.726	0.5
912.459	0.5
913.192	2.5
913.925	-0.5
914.658	2.5
915.391	1.5
916.124	-0.5
916.857	1.5
917.59	-1.5
918.323	-0.5
919.055	0.5
919.788	-0.5
920.521	0.5
921.253	-1.5
921.985	-0.5
922.718	-0.5
923.45	-0.5
924.182	0.5
924.914	0.5
925.646	-0.5
926.378	-0.5
927.11	0.5
927.841	1.5
928.573	0.5
929.305	1.5
930.036	2.5
930.768	0.5
931.499	-1.5
932.23	2.5
932.962	1.5
933.693	0.5
934.424	0.5
935.155	0.5
935.886	2.5
936.617	-0.5
937.348	-0.5
938.078	-0.5
938.809	1.5
939.54	1.5
940.27	-0.5
941.001	0.5
941.731	0.5
942.461	0.5
943.191	1.5
943.922	0.5
944.652	1.5
945.382	-3.5
946.112	0.5
946.841	0.5
947.571	3.5
948.301	1.5
949.031	1.5
949.76	-0.5
950.49	0.5
951.219	2.5
951.948	-0.5
952.678	1.5
953.407	1.5
954.136	-1.5
954.865	1.5
955.594	0.5
956.323	-0.5
957.052	0.5
957.78	-1.5
958.509	-0.5
959.238	-0.5
959.966	0.5
960.695	0.5
961.423	0.5
962.151	1.5
962.88	0.5
963.608	-0.5
964.336	1.5
965.064	0.5
965.792	-1.5
966.52	1.5
967.247	-0.5
967.975	-0.5
968.703	-0.5
969.43	2.5
970.158	-0.5
970.885	0.5
971.613	-0.5
972.34	1.5
973.067	0.5
973.794	0.5
974.521	-0.5
975.248	0.5
975.975	0.5
976.702	-0.5
977.429	-0.5
978.156	-0.5
978.882	-0.5
979.609	1.5
980.335	0.5
981.062	0.5
981.788	0.5
982.514	1.5
983.24	0.5
983.967	-1.5
984.693	0.5
985.419	-1.5
986.144	0.5
986.87	-0.5
987.596	0.5
988.322	1.5
989.047	-0.5
989.773	-0.5
990.498	0.5
991.224	0.5
991.949	1.5
992.674	1.5
993.399	-0.5
994.124	-0.5
994.849	1.5
995.574	-0.5
996.299	1.5
997.024	0.5
997.749	-0.5
998.473	-0.5
999.198	0.5
999.922	0.5
1000.647	2.5
1001.371	3.5
1002.095	-0.5
1002.82	-1.5
1003.544	-0.5
1004.268	4.5
1004.992	0.5
1005.716	2.5
1006.439	0.5
1007.163	3.5
1007.887	0.5
1008.611	0.5
1009.334	-0.5
1010.058	-0.5
1010.781	0.5
1011.504	0.5
1012.228	-0.5
1012.951	-0.5
1013.674	-2.5
1014.397	0.5
1015.12	1.5
