节点500_425_QEPB04081__423__15-55-20-664.txt的数据

Date: Wed Nov 12 15:55:20 CST 2025
User: PC
Spectrometer: QEPB0408
触发模式: 0
积分时间 (秒): 1.000000E-2
Scans to average: 1
启用暗噪声校正: true
启用非线性校正: false
滑动平均宽度: 0
X轴模式: Wavelengths
Number of Pixels in Spectrum: 1044
>>>>>Begin Spectral Data<<<<<
220.843	2.38
221.644	2.38
222.444	3.38
223.244	4.38
224.045	0.38
224.845	4.38
225.645	5.38
226.445	3.38
227.245	3.38
228.045	2.38
228.845	3.38
229.645	2.38
230.444	4.38
231.244	5.38
232.043	4.38
232.843	5.38
233.642	6.38
234.442	6.38
235.241	5.38
236.04	5.38
236.839	6.38
237.638	3.38
238.437	7.38
239.236	6.38
240.035	7.38
240.833	8.38
241.632	4.38
242.43	8.38
243.229	8.38
244.027	8.38
244.826	7.38
245.624	8.38
246.422	8.38
247.22	7.38
248.018	9.38
248.816	9.38
249.614	9.38
250.412	10.38
251.21	8.38
252.007	10.38
252.805	11.38
253.602	11.38
254.4	10.38
255.197	10.38
255.994	10.38
256.791	8.38
257.589	13.38
258.386	11.38
259.183	13.38
259.979	13.38
260.776	14.38
261.573	14.38
262.37	15.38
263.166	14.38
263.963	15.38
264.759	17.38
265.556	16.38
266.352	17.38
267.148	15.38
267.944	17.38
268.74	17.38
269.536	16.38
270.332	20.38
271.128	20.38
271.924	18.38
272.719	23.38
273.515	21.38
274.311	22.38
275.106	20.38
275.901	23.38
276.697	22.38
277.492	24.38
278.287	23.38
279.082	26.38
279.877	24.38
280.672	25.38
281.467	24.38
282.262	24.38
283.056	24.38
283.851	23.38
284.646	23.38
285.44	23.38
286.234	21.38
287.029	23.38
287.823	23.38
288.617	22.38
289.411	21.38
290.205	25.38
290.999	23.38
291.793	23.38
292.587	22.38
293.381	21.38
294.174	25.38
294.968	20.38
295.761	22.38
296.555	20.38
297.348	19.38
298.141	17.38
298.935	20.38
299.728	19.38
300.521	19.38
301.314	20.38
302.107	15.38
302.899	18.38
303.692	16.38
304.485	18.38
305.277	14.38
306.07	16.38
306.862	13.38
307.655	15.38
308.447	16.38
309.239	17.38
310.031	15.38
310.823	13.38
311.615	11.38
312.407	13.38
313.199	12.38
313.991	16.38
314.783	13.38
315.574	10.38
316.366	10.38
317.157	11.38
317.949	9.38
318.74	13.38
319.531	13.38
320.322	11.38
321.113	10.38
321.904	9.38
322.695	9.38
323.486	9.38
324.277	11.38
325.068	9.38
325.858	8.38
326.649	8.38
327.439	8.38
328.23	10.38
329.02	9.38
329.81	10.38
330.6	10.38
331.391	9.38
332.181	10.38
332.971	8.38
333.76	7.38
334.55	7.38
335.34	9.38
336.13	9.38
336.919	9.38
337.709	9.38
338.498	7.38
339.287	7.38
340.077	9.38
340.866	7.38
341.655	8.38
342.444	9.38
343.233	8.38
344.022	9.38
344.811	8.38
345.6	5.38
346.388	8.38
347.177	7.38
347.965	10.38
348.754	7.38
349.542	10.38
350.33	8.38
351.119	8.38
351.907	7.38
352.695	7.38
353.483	7.38
354.271	7.38
355.059	9.38
355.846	7.38
356.634	7.38
357.422	6.38
358.209	6.38
358.997	7.38
359.784	7.38
360.571	10.38
361.359	8.38
362.146	7.38
362.933	4.38
363.72	7.38
364.507	8.38
365.294	6.38
366.081	7.38
366.867	5.38
367.654	8.38
368.44	6.38
369.227	7.38
370.013	7.38
370.8	7.38
371.586	6.38
372.372	9.38
373.158	6.38
373.944	6.38
374.73	7.38
375.516	7.38
376.302	4.38
377.088	8.38
377.873	6.38
378.659	9.38
379.445	8.38
380.23	7.38
381.015	8.38
381.801	6.38
382.586	6.38
383.371	7.38
384.156	5.38
384.941	8.38
385.726	6.38
386.511	7.38
387.296	8.38
388.08	6.38
388.865	8.38
389.649	6.38
390.434	8.38
391.218	6.38
392.003	8.38
392.787	6.38
393.571	8.38
394.355	6.38
395.139	7.38
395.923	10.38
396.707	8.38
397.491	8.38
398.274	8.38
399.058	10.38
399.842	8.38
400.625	7.38
401.408	7.38
402.192	9.38
402.975	8.38
403.758	10.38
404.541	10.38
405.324	9.38
406.107	8.38
406.89	11.38
407.673	11.38
408.456	9.38
409.238	11.38
410.021	10.38
410.803	8.38
411.586	10.38
412.368	10.38
413.151	11.38
413.933	10.38
414.715	11.38
415.497	11.38
416.279	15.38
417.061	12.38
417.843	12.38
418.624	13.38
419.406	14.38
420.188	12.38
420.969	15.38
421.751	12.38
422.532	16.38
423.313	15.38
424.095	15.38
424.876	15.38
425.657	15.38
426.438	17.38
427.219	16.38
428	17.38
428.78	17.38
429.561	18.38
430.342	17.38
431.122	18.38
431.903	24.38
432.683	19.38
433.464	21.38
434.244	24.38
435.024	25.38
435.804	23.38
436.584	26.38
437.364	28.38
438.144	32.38
438.924	28.38
439.704	32.38
440.483	32.38
441.263	34.38
442.042	34.38
442.822	41.38
443.601	44.38
444.38	45.38
445.16	49.38
445.939	52.38
446.718	54.38
447.497	61.38
448.276	70.38
449.054	76.38
449.833	74.38
450.612	92.38
451.391	98.38
452.169	108.38
452.948	116.38
453.726	126.38
454.504	137.38
455.282	156.38
456.061	173.38
456.839	196.38
457.617	217.38
458.395	237.38
459.172	265.38
459.95	302.38
460.728	336.38
461.506	367.38
462.283	410.38
463.061	465.38
463.838	510.38
464.615	568.38
465.393	633.38
466.17	710.38
466.947	796.38
467.724	872.38
468.501	977.38
469.278	1073.38
470.055	1182.38
470.831	1314.38
471.608	1445.38
472.385	1605.38
473.161	1781.38
473.938	1953.38
474.714	2154.38
475.49	2359.38
476.266	2598.38
477.043	2851.38
477.819	3161.38
478.595	3442.38
479.371	3783.38
480.146	4157.38
480.922	4540.38
481.698	4961.38
482.473	5420.38
483.249	5898.38
484.024	6458.38
484.8	7104.38
485.575	7676.38
486.35	8327.38
487.126	9079.38
487.901	9919.38
488.676	10772.38
489.451	11705.38
490.225	12666.38
491	13646.38
491.775	14773.38
492.55	15953.38
493.324	17142.38
494.099	18325.38
494.873	19575.38
495.647	20922.38
496.422	22274.38
497.196	23551.38
497.97	25107.38
498.744	26369.38
499.518	27641.38
500.292	28834.38
501.066	29915.38
501.839	31140.38
502.613	32071.38
503.387	32805.38
504.16	33444.38
504.934	33841.38
505.707	33959.38
506.48	34022.38
507.253	33893.38
508.027	33607.38
508.8	33214.38
509.573	32609.38
510.346	31942.38
511.118	31094.38
511.891	30252.38
512.664	29188.38
513.437	28165.38
514.209	27092.38
514.982	26069.38
515.754	25156.38
516.526	24128.38
517.298	23095.38
518.071	22125.38
518.843	21215.38
519.615	20386.38
520.387	19535.38
521.159	18818.38
521.93	18034.38
522.702	17346.38
523.474	16686.38
524.245	16054.38
525.017	15267.38
525.788	14612.38
526.56	14010.38
527.331	13341.38
528.102	12770.38
528.873	12172.38
529.644	11577.38
530.415	11052.38
531.186	10547.38
531.957	10011.38
532.728	9467.38
533.498	8954.38
534.269	8468.38
535.039	8027.38
535.81	7630.38
536.58	7180.38
537.351	6791.38
538.121	6426.38
538.891	6061.38
539.661	5754.38
540.431	5453.38
541.201	5154.38
541.971	4924.38
542.741	4632.38
543.51	4420.38
544.28	4181.38
545.05	3971.38
545.819	3804.38
546.588	3620.38
547.358	3425.38
548.127	3237.38
548.896	3083.38
549.665	2947.38
550.434	2799.38
551.203	2634.38
551.972	2509.38
552.741	2356.38
553.51	2254.38
554.278	2120.38
555.047	1985.38
555.815	1884.38
556.584	1770.38
557.352	1684.38
558.121	1597.38
558.889	1499.38
559.657	1418.38
560.425	1331.38
561.193	1255.38
561.961	1201.38
562.729	1128.38
563.496	1071.38
564.264	1012.38
565.032	953.38
565.799	902.38
566.567	863.38
567.334	808.38
568.101	761.38
568.869	730.38
569.636	684.38
570.403	649.38
571.17	609.38
571.937	575.38
572.704	539.38
573.471	504.38
574.237	479.38
575.004	454.38
575.771	433.38
576.537	396.38
577.303	375.38
578.07	357.38
578.836	333.38
579.602	318.38
580.368	302.38
581.134	283.38
581.9	270.38
582.666	250.38
583.432	245.38
584.198	234.38
584.964	216.38
585.729	205.38
586.495	199.38
587.26	186.38
588.025	179.38
588.791	166.38
589.556	160.38
590.321	149.38
591.086	144.38
591.851	134.38
592.616	129.38
593.381	126.38
594.146	110.38
594.911	113.38
595.675	106.38
596.44	101.38
597.204	95.38
597.969	94.38
598.733	88.38
599.497	86.38
600.261	80.38
601.025	78.38
601.79	74.38
602.553	71.38
603.317	68.38
604.081	64.38
604.845	62.38
605.609	61.38
606.372	60.38
607.136	49.38
607.899	55.38
608.662	49.38
609.426	48.38
610.189	46.38
610.952	45.38
611.715	44.38
612.478	39.38
613.241	40.38
614.004	37.38
614.767	36.38
615.529	38.38
616.292	33.38
617.055	33.38
617.817	31.38
618.579	31.38
619.342	29.38
620.104	27.38
620.866	32.38
621.628	29.38
622.39	29.38
623.152	26.38
623.914	24.38
624.676	22.38
625.438	24.38
626.199	23.38
626.961	24.38
627.722	23.38
628.484	20.38
629.245	21.38
630.006	20.38
630.768	16.38
631.529	18.38
632.29	15.38
633.051	17.38
633.812	14.38
634.573	16.38
635.333	17.38
636.094	15.38
636.855	16.38
637.615	13.38
638.376	15.38
639.136	15.38
639.896	14.38
640.657	12.38
641.417	10.38
642.177	12.38
642.937	15.38
643.697	10.38
644.457	16.38
645.216	12.38
645.976	12.38
646.736	10.38
647.495	11.38
648.255	11.38
649.014	9.38
649.774	10.38
650.533	9.38
651.292	10.38
652.051	9.38
652.81	9.38
653.569	11.38
654.328	10.38
655.087	9.38
655.846	9.38
656.604	9.38
657.363	8.38
658.121	8.38
658.88	7.38
659.638	7.38
660.397	8.38
661.155	5.38
661.913	7.38
662.671	5.38
663.429	8.38
664.187	7.38
664.945	7.38
665.703	4.38
666.46	7.38
667.218	7.38
667.976	6.38
668.733	8.38
669.49	6.38
670.248	6.38
671.005	3.38
671.762	6.38
672.519	6.38
673.276	5.38
674.033	8.38
674.79	6.38
675.547	6.38
676.304	5.38
677.06	7.38
677.817	5.38
678.574	3.38
679.33	8.38
680.086	2.38
680.843	7.38
681.599	5.38
682.355	4.38
683.111	5.38
683.867	5.38
684.623	7.38
685.379	5.38
686.135	5.38
686.89	6.38
687.646	4.38
688.402	5.38
689.157	4.38
689.912	6.38
690.668	3.38
691.423	3.38
692.178	7.38
692.933	4.38
693.688	5.38
694.443	4.38
695.198	4.38
695.953	5.38
696.708	5.38
697.462	4.38
698.217	4.38
698.972	5.38
699.726	6.38
700.48	4.38
701.235	7.38
701.989	6.38
702.743	3.38
703.497	5.38
704.251	5.38
705.005	4.38
705.759	4.38
706.513	5.38
707.266	3.38
708.02	5.38
708.774	5.38
709.527	6.38
710.28	6.38
711.034	4.38
711.787	6.38
712.54	5.38
713.293	4.38
714.046	4.38
714.799	2.38
715.552	4.38
716.305	4.38
717.058	5.38
717.81	5.38
718.563	2.38
719.315	6.38
720.068	3.38
720.82	2.38
721.573	4.38
722.325	2.38
723.077	6.38
723.829	4.38
724.581	5.38
725.333	6.38
726.085	6.38
726.836	6.38
727.588	3.38
728.34	5.38
729.091	6.38
729.843	2.38
730.594	5.38
731.346	6.38
732.097	5.38
732.848	7.38
733.599	3.38
734.35	3.38
735.101	6.38
735.852	6.38
736.603	8.38
737.354	5.38
738.104	6.38
738.855	6.38
739.605	7.38
740.356	6.38
741.106	6.38
741.856	4.38
742.607	4.38
743.357	7.38
744.107	6.38
744.857	6.38
745.607	6.38
746.357	7.38
747.106	8.38
747.856	7.38
748.606	8.38
749.355	7.38
750.105	4.38
750.854	4.38
751.603	7.38
752.353	6.38
753.102	7.38
753.851	9.38
754.6	7.38
755.349	7.38
756.098	8.38
756.847	8.38
757.595	9.38
758.344	8.38
759.093	8.38
759.841	7.38
760.589	7.38
761.338	8.38
762.086	6.38
762.834	7.38
763.582	10.38
764.331	7.38
765.079	12.38
765.826	11.38
766.574	10.38
767.322	9.38
768.07	11.38
768.817	9.38
769.565	8.38
770.312	8.38
771.06	9.38
771.807	8.38
772.554	9.38
773.302	12.38
774.049	9.38
774.796	10.38
775.543	10.38
776.29	10.38
777.036	10.38
777.783	10.38
778.53	11.38
779.276	8.38
780.023	13.38
780.769	10.38
781.516	12.38
782.262	10.38
783.008	9.38
783.754	13.38
784.5	11.38
785.246	9.38
785.992	11.38
786.738	10.38
787.484	13.38
788.23	8.38
788.975	11.38
789.721	11.38
790.466	8.38
791.212	10.38
791.957	11.38
792.702	10.38
793.447	10.38
794.193	11.38
794.938	10.38
795.683	9.38
796.427	10.38
797.172	7.38
797.917	8.38
798.662	8.38
799.406	8.38
800.151	10.38
800.895	9.38
801.64	10.38
802.384	8.38
803.128	8.38
803.872	9.38
804.616	10.38
805.36	8.38
806.104	6.38
806.848	8.38
807.592	8.38
808.336	8.38
809.079	7.38
809.823	6.38
810.566	9.38
811.31	9.38
812.053	7.38
812.796	7.38
813.539	9.38
814.283	5.38
815.026	5.38
815.769	7.38
816.511	8.38
817.254	4.38
817.997	5.38
818.74	3.38
819.482	4.38
820.225	4.38
820.967	5.38
821.71	4.38
822.452	3.38
823.194	5.38
823.936	5.38
824.678	5.38
825.42	7.38
826.162	4.38
826.904	5.38
827.646	5.38
828.388	5.38
829.129	2.38
829.871	5.38
830.612	4.38
831.354	3.38
832.095	2.38
832.836	2.38
833.577	4.38
834.319	4.38
835.06	0.38
835.801	6.38
836.542	5.38
837.282	4.38
838.023	2.38
838.764	4.38
839.504	4.38
840.245	4.38
840.985	3.38
841.726	0.38
842.466	2.38
843.206	3.38
843.946	4.38
844.687	6.38
845.427	0.38
846.166	4.38
846.906	5.38
847.646	4.38
848.386	6.38
849.125	3.38
849.865	3.38
850.605	4.38
851.344	1.38
852.083	4.38
852.823	2.38
853.562	2.38
854.301	1.38
855.04	3.38
855.779	3.38
856.518	2.38
857.257	4.38
857.995	2.38
858.734	3.38
859.473	3.38
860.211	1.38
860.95	2.38
861.688	2.38
862.426	1.38
863.165	2.38
863.903	4.38
864.641	2.38
865.379	3.38
866.117	0.38
866.855	3.38
867.593	1.38
868.33	2.38
869.068	4.38
869.806	2.38
870.543	-0.62
871.28	2.38
872.018	1.38
872.755	2.38
873.492	2.38
874.229	1.38
874.967	1.38
875.703	3.38
876.44	1.38
877.177	0.38
877.914	2.38
878.651	1.38
879.387	0.38
880.124	0.38
880.86	2.38
881.597	1.38
882.333	-0.62
883.069	2.38
883.806	-0.62
884.542	2.38
885.278	3.38
886.014	0.38
886.749	2.38
887.485	-0.62
888.221	1.38
888.957	-0.62
889.692	1.38
890.428	1.38
891.163	1.38
891.899	1.38
892.634	-0.62
893.369	-0.62
894.104	-0.62
894.839	1.38
895.574	2.38
896.309	-0.62
897.044	-1.62
897.779	-1.62
898.514	2.38
899.248	-0.62
899.983	-1.62
900.717	0.38
901.452	0.38
902.186	1.38
902.92	2.38
903.654	2.38
904.389	3.38
905.123	-1.62
905.857	0.38
906.59	1.38
907.324	1.38
908.058	-0.62
908.792	1.38
909.525	0.38
910.259	-0.62
910.992	2.38
911.726	-0.62
912.459	1.38
913.192	2.38
913.925	-0.62
914.658	0.38
915.391	0.38
916.124	0.38
916.857	1.38
917.59	2.38
918.323	0.38
919.055	0.38
919.788	0.38
920.521	0.38
921.253	-0.62
921.985	4.38
922.718	-0.62
923.45	0.38
924.182	-0.62
924.914	1.38
925.646	1.38
926.378	1.38
927.11	2.38
927.841	-1.62
928.573	0.38
929.305	-0.62
930.036	1.38
930.768	0.38
931.499	1.38
932.23	2.38
932.962	-0.62
933.693	0.38
934.424	-0.62
935.155	1.38
935.886	2.38
936.617	0.38
937.348	0.38
938.078	0.38
938.809	0.38
939.54	1.38
940.27	0.38
941.001	2.38
941.731	2.38
942.461	0.38
943.191	-1.62
943.922	0.38
944.652	-0.62
945.382	0.38
946.112	-0.62
946.841	0.38
947.571	-2.62
948.301	1.38
949.031	0.38
949.76	2.38
950.49	-0.62
951.219	0.38
951.948	0.38
952.678	-0.62
953.407	-1.62
954.136	-0.62
954.865	0.38
955.594	0.38
956.323	0.38
957.052	-0.62
957.78	1.38
958.509	1.38
959.238	-0.62
959.966	1.38
960.695	0.38
961.423	0.38
962.151	1.38
962.88	-0.62
963.608	0.38
964.336	1.38
965.064	0.38
965.792	0.38
966.52	2.38
967.247	0.38
967.975	0.38
968.703	0.38
969.43	-0.62
970.158	-1.62
970.885	1.38
971.613	-0.62
972.34	2.38
973.067	-1.62
973.794	0.38
974.521	-0.62
975.248	1.38
975.975	0.38
976.702	-0.62
977.429	0.38
978.156	0.38
978.882	-0.62
979.609	0.38
980.335	-0.62
981.062	0.38
981.788	1.38
982.514	0.38
983.24	-1.62
983.967	0.38
984.693	-1.62
985.419	0.38
986.144	1.38
986.87	-0.62
987.596	-1.62
988.322	0.38
989.047	-0.62
989.773	0.38
990.498	0.38
991.224	1.38
991.949	-0.62
992.674	2.38
993.399	0.38
994.124	0.38
994.849	2.38
995.574	2.38
996.299	2.38
997.024	-1.62
997.749	-0.62
998.473	-1.62
999.198	-1.62
999.922	1.38
1000.647	0.38
1001.371	4.38
1002.095	-0.62
1002.82	-0.62
1003.544	-0.62
1004.268	3.38
1004.992	0.38
1005.716	5.38
1006.439	2.38
1007.163	1.38
1007.887	0.38
1008.611	0.38
1009.334	-0.62
1010.058	1.38
1010.781	1.38
1011.504	-1.62
1012.228	0.38
1012.951	0.38
1013.674	-2.62
1014.397	-1.62
1015.12	1.38
