节点500_425_QEPB04081__363__15-54-20-748.txt的数据

Date: Wed Nov 12 15:54:20 CST 2025
User: PC
Spectrometer: QEPB0408
触发模式: 0
积分时间 (秒): 1.000000E-2
Scans to average: 1
启用暗噪声校正: true
启用非线性校正: false
滑动平均宽度: 0
X轴模式: Wavelengths
Number of Pixels in Spectrum: 1044
>>>>>Begin Spectral Data<<<<<
220.843	1.38
221.644	2.38
222.444	4.38
223.244	5.38
224.045	4.38
224.845	4.38
225.645	4.38
226.445	3.38
227.245	4.38
228.045	3.38
228.845	3.38
229.645	3.38
230.444	2.38
231.244	6.38
232.043	6.38
232.843	4.38
233.642	5.38
234.442	5.38
235.241	7.38
236.04	5.38
236.839	6.38
237.638	5.38
238.437	5.38
239.236	3.38
240.035	6.38
240.833	7.38
241.632	6.38
242.43	6.38
243.229	8.38
244.027	9.38
244.826	6.38
245.624	7.38
246.422	8.38
247.22	8.38
248.018	8.38
248.816	6.38
249.614	10.38
250.412	10.38
251.21	9.38
252.007	10.38
252.805	9.38
253.602	10.38
254.4	11.38
255.197	11.38
255.994	10.38
256.791	13.38
257.589	14.38
258.386	14.38
259.183	13.38
259.979	13.38
260.776	15.38
261.573	13.38
262.37	15.38
263.166	16.38
263.963	17.38
264.759	15.38
265.556	17.38
266.352	18.38
267.148	16.38
267.944	19.38
268.74	19.38
269.536	18.38
270.332	19.38
271.128	19.38
271.924	20.38
272.719	22.38
273.515	21.38
274.311	22.38
275.106	24.38
275.901	21.38
276.697	24.38
277.492	21.38
278.287	23.38
279.082	26.38
279.877	24.38
280.672	23.38
281.467	23.38
282.262	23.38
283.056	21.38
283.851	26.38
284.646	23.38
285.44	25.38
286.234	24.38
287.029	24.38
287.823	25.38
288.617	23.38
289.411	22.38
290.205	23.38
290.999	22.38
291.793	24.38
292.587	22.38
293.381	25.38
294.174	23.38
294.968	22.38
295.761	21.38
296.555	20.38
297.348	24.38
298.141	21.38
298.935	21.38
299.728	19.38
300.521	19.38
301.314	18.38
302.107	20.38
302.899	17.38
303.692	17.38
304.485	15.38
305.277	16.38
306.07	17.38
306.862	17.38
307.655	15.38
308.447	15.38
309.239	14.38
310.031	13.38
310.823	14.38
311.615	14.38
312.407	16.38
313.199	13.38
313.991	10.38
314.783	14.38
315.574	11.38
316.366	10.38
317.157	10.38
317.949	10.38
318.74	12.38
319.531	8.38
320.322	12.38
321.113	10.38
321.904	11.38
322.695	10.38
323.486	11.38
324.277	9.38
325.068	8.38
325.858	8.38
326.649	12.38
327.439	9.38
328.23	9.38
329.02	9.38
329.81	8.38
330.6	8.38
331.391	8.38
332.181	9.38
332.971	9.38
333.76	11.38
334.55	8.38
335.34	7.38
336.13	9.38
336.919	7.38
337.709	7.38
338.498	7.38
339.287	9.38
340.077	7.38
340.866	7.38
341.655	6.38
342.444	6.38
343.233	7.38
344.022	8.38
344.811	10.38
345.6	9.38
346.388	7.38
347.177	10.38
347.965	6.38
348.754	8.38
349.542	9.38
350.33	8.38
351.119	7.38
351.907	7.38
352.695	9.38
353.483	6.38
354.271	6.38
355.059	6.38
355.846	6.38
356.634	6.38
357.422	6.38
358.209	8.38
358.997	8.38
359.784	7.38
360.571	6.38
361.359	5.38
362.146	7.38
362.933	5.38
363.72	8.38
364.507	5.38
365.294	6.38
366.081	4.38
366.867	6.38
367.654	5.38
368.44	9.38
369.227	7.38
370.013	5.38
370.8	3.38
371.586	8.38
372.372	4.38
373.158	4.38
373.944	8.38
374.73	7.38
375.516	5.38
376.302	6.38
377.088	7.38
377.873	7.38
378.659	6.38
379.445	8.38
380.23	9.38
381.015	7.38
381.801	5.38
382.586	6.38
383.371	5.38
384.156	8.38
384.941	6.38
385.726	7.38
386.511	9.38
387.296	6.38
388.08	10.38
388.865	7.38
389.649	6.38
390.434	9.38
391.218	9.38
392.003	8.38
392.787	7.38
393.571	7.38
394.355	6.38
395.139	7.38
395.923	6.38
396.707	7.38
397.491	9.38
398.274	9.38
399.058	9.38
399.842	8.38
400.625	10.38
401.408	8.38
402.192	8.38
402.975	8.38
403.758	11.38
404.541	7.38
405.324	7.38
406.107	10.38
406.89	8.38
407.673	9.38
408.456	10.38
409.238	10.38
410.021	10.38
410.803	12.38
411.586	14.38
412.368	11.38
413.151	12.38
413.933	13.38
414.715	13.38
415.497	10.38
416.279	12.38
417.061	12.38
417.843	9.38
418.624	10.38
419.406	13.38
420.188	12.38
420.969	13.38
421.751	14.38
422.532	14.38
423.313	12.38
424.095	16.38
424.876	16.38
425.657	15.38
426.438	21.38
427.219	15.38
428	16.38
428.78	20.38
429.561	18.38
430.342	18.38
431.122	20.38
431.903	18.38
432.683	22.38
433.464	21.38
434.244	24.38
435.024	25.38
435.804	28.38
436.584	25.38
437.364	30.38
438.144	29.38
438.924	31.38
439.704	33.38
440.483	33.38
441.263	36.38
442.042	37.38
442.822	40.38
443.601	41.38
444.38	45.38
445.16	48.38
445.939	53.38
446.718	57.38
447.497	64.38
448.276	66.38
449.054	72.38
449.833	80.38
450.612	86.38
451.391	92.38
452.169	104.38
452.948	109.38
453.726	126.38
454.504	140.38
455.282	152.38
456.061	168.38
456.839	194.38
457.617	208.38
458.395	228.38
459.172	265.38
459.95	287.38
460.728	322.38
461.506	364.38
462.283	394.38
463.061	458.38
463.838	507.38
464.615	556.38
465.393	634.38
466.17	699.38
466.947	775.38
467.724	852.38
468.501	959.38
469.278	1064.38
470.055	1187.38
470.831	1306.38
471.608	1454.38
472.385	1607.38
473.161	1779.38
473.938	1943.38
474.714	2150.38
475.49	2368.38
476.266	2607.38
477.043	2861.38
477.819	3185.38
478.595	3470.38
479.371	3829.38
480.146	4173.38
480.922	4574.38
481.698	5026.38
482.473	5471.38
483.249	6008.38
484.024	6573.38
484.8	7181.38
485.575	7830.38
486.35	8552.38
487.126	9326.38
487.901	10143.38
488.676	11024.38
489.451	11954.38
490.225	12946.38
491	14053.38
491.775	15212.38
492.55	16397.38
493.324	17614.38
494.099	18887.38
494.873	20178.38
495.647	21530.38
496.422	22945.38
497.196	24298.38
497.97	25711.38
498.744	27159.38
499.518	28457.38
500.292	29751.38
501.066	30755.38
501.839	31934.38
502.613	32834.38
503.387	33557.38
504.16	34244.38
504.934	34518.38
505.707	34640.38
506.48	34619.38
507.253	34348.38
508.027	34074.38
508.8	33551.38
509.573	32978.38
510.346	32212.38
511.118	31215.38
511.891	30304.38
512.664	29253.38
513.437	28203.38
514.209	27110.38
514.982	26109.38
515.754	25042.38
516.526	24029.38
517.298	23040.38
518.071	22079.38
518.843	21170.38
519.615	20274.38
520.387	19485.38
521.159	18748.38
521.93	18037.38
522.702	17262.38
523.474	16600.38
524.245	15985.38
525.017	15217.38
525.788	14561.38
526.56	13928.38
527.331	13310.38
528.102	12745.38
528.873	12092.38
529.644	11534.38
530.415	11008.38
531.186	10480.38
531.957	9997.38
532.728	9411.38
533.498	8906.38
534.269	8405.38
535.039	7952.38
535.81	7517.38
536.58	7104.38
537.351	6708.38
538.121	6321.38
538.891	6011.38
539.661	5675.38
540.431	5380.38
541.201	5060.38
541.971	4834.38
542.741	4576.38
543.51	4332.38
544.28	4142.38
545.05	3926.38
545.819	3748.38
546.588	3554.38
547.358	3359.38
548.127	3209.38
548.896	3024.38
549.665	2885.38
550.434	2737.38
551.203	2608.38
551.972	2459.38
552.741	2340.38
553.51	2212.38
554.278	2082.38
555.047	1956.38
555.815	1855.38
556.584	1757.38
557.352	1649.38
558.121	1558.38
558.889	1472.38
559.657	1394.38
560.425	1316.38
561.193	1252.38
561.961	1191.38
562.729	1107.38
563.496	1043.38
564.264	999.38
565.032	942.38
565.799	893.38
566.567	842.38
567.334	793.38
568.101	753.38
568.869	713.38
569.636	672.38
570.403	630.38
571.17	600.38
571.937	563.38
572.704	536.38
573.471	510.38
574.237	471.38
575.004	445.38
575.771	413.38
576.537	388.38
577.303	369.38
578.07	351.38
578.836	331.38
579.602	305.38
580.368	295.38
581.134	276.38
581.9	274.38
582.666	257.38
583.432	234.38
584.198	222.38
584.964	212.38
585.729	202.38
586.495	192.38
587.26	184.38
588.025	174.38
588.791	166.38
589.556	158.38
590.321	151.38
591.086	137.38
591.851	135.38
592.616	127.38
593.381	124.38
594.146	113.38
594.911	112.38
595.675	106.38
596.44	102.38
597.204	95.38
597.969	90.38
598.733	93.38
599.497	84.38
600.261	82.38
601.025	78.38
601.79	70.38
602.553	69.38
603.317	64.38
604.081	69.38
604.845	62.38
605.609	58.38
606.372	57.38
607.136	52.38
607.899	54.38
608.662	49.38
609.426	49.38
610.189	42.38
610.952	48.38
611.715	44.38
612.478	41.38
613.241	42.38
614.004	39.38
614.767	37.38
615.529	35.38
616.292	35.38
617.055	33.38
617.817	31.38
618.579	30.38
619.342	29.38
620.104	29.38
620.866	28.38
621.628	26.38
622.39	25.38
623.152	26.38
623.914	26.38
624.676	23.38
625.438	23.38
626.199	23.38
626.961	21.38
627.722	21.38
628.484	22.38
629.245	19.38
630.006	17.38
630.768	18.38
631.529	19.38
632.29	17.38
633.051	16.38
633.812	17.38
634.573	15.38
635.333	15.38
636.094	13.38
636.855	17.38
637.615	14.38
638.376	16.38
639.136	14.38
639.896	15.38
640.657	14.38
641.417	14.38
642.177	10.38
642.937	12.38
643.697	8.38
644.457	11.38
645.216	11.38
645.976	12.38
646.736	11.38
647.495	11.38
648.255	12.38
649.014	9.38
649.774	11.38
650.533	10.38
651.292	9.38
652.051	10.38
652.81	9.38
653.569	9.38
654.328	7.38
655.087	10.38
655.846	10.38
656.604	7.38
657.363	8.38
658.121	6.38
658.88	7.38
659.638	7.38
660.397	8.38
661.155	8.38
661.913	8.38
662.671	7.38
663.429	6.38
664.187	7.38
664.945	7.38
665.703	7.38
666.46	5.38
667.218	5.38
667.976	7.38
668.733	6.38
669.49	7.38
670.248	6.38
671.005	8.38
671.762	8.38
672.519	4.38
673.276	8.38
674.033	7.38
674.79	4.38
675.547	7.38
676.304	6.38
677.06	7.38
677.817	4.38
678.574	6.38
679.33	6.38
680.086	5.38
680.843	6.38
681.599	4.38
682.355	4.38
683.111	8.38
683.867	7.38
684.623	4.38
685.379	6.38
686.135	5.38
686.89	6.38
687.646	6.38
688.402	5.38
689.157	5.38
689.912	5.38
690.668	4.38
691.423	6.38
692.178	5.38
692.933	5.38
693.688	6.38
694.443	6.38
695.198	4.38
695.953	3.38
696.708	4.38
697.462	4.38
698.217	4.38
698.972	5.38
699.726	3.38
700.48	6.38
701.235	5.38
701.989	2.38
702.743	4.38
703.497	4.38
704.251	6.38
705.005	4.38
705.759	3.38
706.513	4.38
707.266	5.38
708.02	4.38
708.774	3.38
709.527	4.38
710.28	4.38
711.034	5.38
711.787	5.38
712.54	5.38
713.293	3.38
714.046	4.38
714.799	6.38
715.552	5.38
716.305	4.38
717.058	6.38
717.81	2.38
718.563	7.38
719.315	4.38
720.068	5.38
720.82	8.38
721.573	4.38
722.325	6.38
723.077	5.38
723.829	6.38
724.581	5.38
725.333	5.38
726.085	5.38
726.836	3.38
727.588	6.38
728.34	6.38
729.091	6.38
729.843	7.38
730.594	4.38
731.346	3.38
732.097	5.38
732.848	6.38
733.599	2.38
734.35	6.38
735.101	4.38
735.852	5.38
736.603	4.38
737.354	8.38
738.104	6.38
738.855	8.38
739.605	5.38
740.356	7.38
741.106	4.38
741.856	5.38
742.607	5.38
743.357	6.38
744.107	5.38
744.857	4.38
745.607	6.38
746.357	7.38
747.106	8.38
747.856	6.38
748.606	7.38
749.355	5.38
750.105	5.38
750.854	7.38
751.603	7.38
752.353	8.38
753.102	8.38
753.851	6.38
754.6	7.38
755.349	6.38
756.098	8.38
756.847	6.38
757.595	7.38
758.344	6.38
759.093	8.38
759.841	8.38
760.589	5.38
761.338	10.38
762.086	7.38
762.834	8.38
763.582	8.38
764.331	10.38
765.079	7.38
765.826	8.38
766.574	9.38
767.322	11.38
768.07	7.38
768.817	9.38
769.565	10.38
770.312	10.38
771.06	9.38
771.807	8.38
772.554	8.38
773.302	8.38
774.049	13.38
774.796	9.38
775.543	9.38
776.29	7.38
777.036	14.38
777.783	9.38
778.53	11.38
779.276	11.38
780.023	11.38
780.769	9.38
781.516	11.38
782.262	10.38
783.008	11.38
783.754	13.38
784.5	12.38
785.246	11.38
785.992	11.38
786.738	11.38
787.484	11.38
788.23	14.38
788.975	11.38
789.721	11.38
790.466	11.38
791.212	9.38
791.957	11.38
792.702	12.38
793.447	10.38
794.193	11.38
794.938	9.38
795.683	10.38
796.427	9.38
797.172	12.38
797.917	8.38
798.662	8.38
799.406	9.38
800.151	10.38
800.895	9.38
801.64	9.38
802.384	8.38
803.128	9.38
803.872	8.38
804.616	9.38
805.36	7.38
806.104	10.38
806.848	7.38
807.592	6.38
808.336	10.38
809.079	7.38
809.823	6.38
810.566	6.38
811.31	7.38
812.053	7.38
812.796	6.38
813.539	7.38
814.283	7.38
815.026	7.38
815.769	7.38
816.511	6.38
817.254	7.38
817.997	5.38
818.74	6.38
819.482	7.38
820.225	3.38
820.967	4.38
821.71	4.38
822.452	5.38
823.194	4.38
823.936	6.38
824.678	7.38
825.42	7.38
826.162	3.38
826.904	7.38
827.646	3.38
828.388	6.38
829.129	5.38
829.871	4.38
830.612	4.38
831.354	4.38
832.095	3.38
832.836	4.38
833.577	6.38
834.319	3.38
835.06	4.38
835.801	2.38
836.542	4.38
837.282	5.38
838.023	3.38
838.764	5.38
839.504	4.38
840.245	4.38
840.985	4.38
841.726	6.38
842.466	2.38
843.206	2.38
843.946	4.38
844.687	3.38
845.427	2.38
846.166	4.38
846.906	2.38
847.646	2.38
848.386	3.38
849.125	5.38
849.865	3.38
850.605	4.38
851.344	3.38
852.083	1.38
852.823	4.38
853.562	3.38
854.301	2.38
855.04	4.38
855.779	2.38
856.518	2.38
857.257	2.38
857.995	3.38
858.734	3.38
859.473	1.38
860.211	4.38
860.95	1.38
861.688	3.38
862.426	4.38
863.165	3.38
863.903	2.38
864.641	3.38
865.379	2.38
866.117	0.38
866.855	1.38
867.593	-0.62
868.33	3.38
869.068	3.38
869.806	1.38
870.543	1.38
871.28	0.38
872.018	4.38
872.755	0.38
873.492	0.38
874.229	2.38
874.967	0.38
875.703	3.38
876.44	1.38
877.177	1.38
877.914	2.38
878.651	0.38
879.387	2.38
880.124	2.38
880.86	1.38
881.597	2.38
882.333	1.38
883.069	1.38
883.806	-1.62
884.542	0.38
885.278	0.38
886.014	1.38
886.749	0.38
887.485	-0.62
888.221	2.38
888.957	-0.62
889.692	0.38
890.428	1.38
891.163	0.38
891.899	1.38
892.634	-0.62
893.369	1.38
894.104	0.38
894.839	1.38
895.574	-0.62
896.309	0.38
897.044	-0.62
897.779	0.38
898.514	0.38
899.248	-0.62
899.983	1.38
900.717	1.38
901.452	-0.62
902.186	1.38
902.92	-1.62
903.654	1.38
904.389	0.38
905.123	1.38
905.857	2.38
906.59	0.38
907.324	-1.62
908.058	2.38
908.792	1.38
909.525	1.38
910.259	0.38
910.992	1.38
911.726	0.38
912.459	2.38
913.192	0.38
913.925	0.38
914.658	0.38
915.391	2.38
916.124	-0.62
916.857	1.38
917.59	0.38
918.323	1.38
919.055	1.38
919.788	0.38
920.521	-0.62
921.253	1.38
921.985	0.38
922.718	0.38
923.45	0.38
924.182	0.38
924.914	-0.62
925.646	0.38
926.378	1.38
927.11	1.38
927.841	-1.62
928.573	1.38
929.305	-1.62
930.036	0.38
930.768	0.38
931.499	1.38
932.23	0.38
932.962	-0.62
933.693	0.38
934.424	0.38
935.155	1.38
935.886	0.38
936.617	0.38
937.348	1.38
938.078	2.38
938.809	-0.62
939.54	0.38
940.27	1.38
941.001	0.38
941.731	-0.62
942.461	1.38
943.191	0.38
943.922	0.38
944.652	-0.62
945.382	0.38
946.112	-0.62
946.841	-0.62
947.571	1.38
948.301	-0.62
949.031	2.38
949.76	0.38
950.49	-1.62
951.219	0.38
951.948	1.38
952.678	-0.62
953.407	-1.62
954.136	0.38
954.865	-1.62
955.594	0.38
956.323	0.38
957.052	0.38
957.78	0.38
958.509	1.38
959.238	0.38
959.966	-0.62
960.695	-1.62
961.423	1.38
962.151	1.38
962.88	-0.62
963.608	0.38
964.336	-0.62
965.064	0.38
965.792	0.38
966.52	2.38
967.247	3.38
967.975	1.38
968.703	-0.62
969.43	-1.62
970.158	1.38
970.885	0.38
971.613	0.38
972.34	-1.62
973.067	-1.62
973.794	0.38
974.521	-0.62
975.248	-0.62
975.975	2.38
976.702	0.38
977.429	1.38
978.156	-1.62
978.882	-0.62
979.609	0.38
980.335	-0.62
981.062	0.38
981.788	-0.62
982.514	1.38
983.24	-1.62
983.967	1.38
984.693	-0.62
985.419	2.38
986.144	-0.62
986.87	0.38
987.596	0.38
988.322	-1.62
989.047	-0.62
989.773	-0.62
990.498	-0.62
991.224	2.38
991.949	-0.62
992.674	0.38
993.399	-1.62
994.124	0.38
994.849	1.38
995.574	-1.62
996.299	0.38
997.024	-0.62
997.749	0.38
998.473	0.38
999.198	-0.62
999.922	1.38
1000.647	-0.62
1001.371	2.38
1002.095	-0.62
1002.82	0.38
1003.544	-0.62
1004.268	3.38
1004.992	2.38
1005.716	1.38
1006.439	2.38
1007.163	4.38
1007.887	3.38
1008.611	1.38
1009.334	-0.62
1010.058	1.38
1010.781	1.38
1011.504	0.38
1012.228	0.38
1012.951	-0.62
1013.674	-0.62
1014.397	1.38
1015.12	-1.62
