节点500_425_QEPB04081__526__15-57-03-553.txt的数据

Date: Wed Nov 12 15:57:03 CST 2025
User: PC
Spectrometer: QEPB0408
触发模式: 0
积分时间 (秒): 1.000000E-2
Scans to average: 1
启用暗噪声校正: true
启用非线性校正: false
滑动平均宽度: 0
X轴模式: Wavelengths
Number of Pixels in Spectrum: 1044
>>>>>Begin Spectral Data<<<<<
220.843	3
221.644	2
222.444	2
223.244	2
224.045	4
224.845	4
225.645	3
226.445	4
227.245	4
228.045	4
228.845	4
229.645	3
230.444	4
231.244	3
232.043	2
232.843	6
233.642	4
234.442	5
235.241	7
236.04	7
236.839	7
237.638	4
238.437	4
239.236	5
240.035	5
240.833	4
241.632	8
242.43	9
243.229	6
244.027	4
244.826	6
245.624	9
246.422	9
247.22	7
248.018	8
248.816	9
249.614	10
250.412	7
251.21	9
252.007	8
252.805	6
253.602	11
254.4	9
255.197	12
255.994	9
256.791	13
257.589	12
258.386	10
259.183	12
259.979	12
260.776	14
261.573	10
262.37	15
263.166	14
263.963	12
264.759	16
265.556	14
266.352	19
267.148	16
267.944	14
268.74	17
269.536	17
270.332	18
271.128	18
271.924	19
272.719	18
273.515	20
274.311	20
275.106	21
275.901	20
276.697	23
277.492	20
278.287	20
279.082	24
279.877	25
280.672	21
281.467	21
282.262	24
283.056	22
283.851	24
284.646	24
285.44	23
286.234	23
287.029	23
287.823	25
288.617	22
289.411	21
290.205	23
290.999	25
291.793	21
292.587	19
293.381	21
294.174	23
294.968	21
295.761	20
296.555	18
297.348	16
298.141	18
298.935	23
299.728	19
300.521	15
301.314	17
302.107	16
302.899	16
303.692	16
304.485	14
305.277	16
306.07	14
306.862	16
307.655	17
308.447	17
309.239	15
310.031	14
310.823	15
311.615	13
312.407	14
313.199	11
313.991	13
314.783	11
315.574	13
316.366	12
317.157	10
317.949	9
318.74	14
319.531	10
320.322	9
321.113	10
321.904	10
322.695	9
323.486	11
324.277	11
325.068	7
325.858	9
326.649	9
327.439	8
328.23	8
329.02	10
329.81	8
330.6	10
331.391	9
332.181	8
332.971	10
333.76	8
334.55	7
335.34	10
336.13	7
336.919	8
337.709	7
338.498	7
339.287	8
340.077	7
340.866	12
341.655	7
342.444	8
343.233	10
344.022	8
344.811	6
345.6	8
346.388	7
347.177	7
347.965	7
348.754	7
349.542	9
350.33	5
351.119	6
351.907	7
352.695	8
353.483	7
354.271	6
355.059	10
355.846	6
356.634	7
357.422	9
358.209	6
358.997	9
359.784	6
360.571	7
361.359	7
362.146	9
362.933	9
363.72	7
364.507	11
365.294	7
366.081	6
366.867	6
367.654	4
368.44	4
369.227	6
370.013	6
370.8	6
371.586	6
372.372	7
373.158	7
373.944	6
374.73	4
375.516	6
376.302	7
377.088	6
377.873	8
378.659	5
379.445	6
380.23	8
381.015	6
381.801	7
382.586	6
383.371	8
384.156	7
384.941	6
385.726	5
386.511	7
387.296	4
388.08	9
388.865	8
389.649	5
390.434	6
391.218	7
392.003	7
392.787	8
393.571	9
394.355	7
395.139	9
395.923	7
396.707	8
397.491	7
398.274	7
399.058	8
399.842	8
400.625	6
401.408	9
402.192	8
402.975	9
403.758	9
404.541	10
405.324	10
406.107	10
406.89	8
407.673	10
408.456	11
409.238	11
410.021	7
410.803	13
411.586	10
412.368	12
413.151	12
413.933	10
414.715	13
415.497	10
416.279	12
417.061	11
417.843	12
418.624	16
419.406	12
420.188	14
420.969	10
421.751	13
422.532	13
423.313	14
424.095	18
424.876	15
425.657	16
426.438	16
427.219	16
428	16
428.78	13
429.561	19
430.342	14
431.122	20
431.903	19
432.683	20
433.464	22
434.244	21
435.024	22
435.804	23
436.584	27
437.364	24
438.144	28
438.924	31
439.704	34
440.483	37
441.263	35
442.042	40
442.822	41
443.601	43
444.38	47
445.16	52
445.939	54
446.718	61
447.497	64
448.276	72
449.054	74
449.833	80
450.612	91
451.391	101
452.169	109
452.948	116
453.726	137
454.504	142
455.282	164
456.061	184
456.839	201
457.617	221
458.395	247
459.172	283
459.95	307
460.728	342
461.506	378
462.283	424
463.061	480
463.838	528
464.615	593
465.393	665
466.17	726
466.947	806
467.724	891
468.501	982
469.278	1096
470.055	1213
470.831	1341
471.608	1469
472.385	1619
473.161	1784
473.938	1964
474.714	2142
475.49	2373
476.266	2596
477.043	2850
477.819	3129
478.595	3424
479.371	3722
480.146	4056
480.922	4428
481.698	4869
482.473	5283
483.249	5758
484.024	6270
484.8	6841
485.575	7422
486.35	8030
487.126	8706
487.901	9491
488.676	10285
489.451	11112
490.225	11971
491	12922
491.775	14047
492.55	15047
493.324	16211
494.099	17342
494.873	18463
495.647	19678
496.422	20876
497.196	22207
497.97	23533
498.744	24920
499.518	26098
500.292	27201
501.066	28374
501.839	29481
502.613	30436
503.387	31245
504.16	31937
504.934	32412
505.707	32679
506.48	32736
507.253	32797
508.027	32678
508.8	32394
509.573	31964
510.346	31312
511.118	30679
511.891	29956
512.664	28979
513.437	28039
514.209	26997
514.982	26209
515.754	25198
516.526	24226
517.298	23266
518.071	22259
518.843	21419
519.615	20522
520.387	19717
521.159	19009
521.93	18241
522.702	17537
523.474	16784
524.245	16218
525.017	15513
525.788	14778
526.56	14150
527.331	13548
528.102	12942
528.873	12344
529.644	11774
530.415	11280
531.186	10790
531.957	10195
532.728	9700
533.498	9226
534.269	8732
535.039	8253
535.81	7812
536.58	7397
537.351	6984
538.121	6594
538.891	6280
539.661	5928
540.431	5589
541.201	5326
541.971	5033
542.741	4780
543.51	4529
544.28	4319
545.05	4096
545.819	3926
546.588	3730
547.358	3511
548.127	3340
548.896	3185
549.665	3022
550.434	2888
551.203	2725
551.972	2582
552.741	2452
553.51	2327
554.278	2203
555.047	2054
555.815	1949
556.584	1838
557.352	1739
558.121	1641
558.889	1537
559.657	1478
560.425	1389
561.193	1310
561.961	1253
562.729	1170
563.496	1106
564.264	1054
565.032	1001
565.799	938
566.567	900
567.334	843
568.101	796
568.869	741
569.636	698
570.403	663
571.17	623
571.937	598
572.704	568
573.471	530
574.237	507
575.004	469
575.771	442
576.537	417
577.303	386
578.07	374
578.836	343
579.602	324
580.368	311
581.134	305
581.9	290
582.666	262
583.432	257
584.198	240
584.964	226
585.729	221
586.495	207
587.26	195
588.025	187
588.791	174
589.556	160
590.321	157
591.086	150
591.851	141
592.616	132
593.381	128
594.146	119
594.911	117
595.675	112
596.44	108
597.204	103
597.969	96
598.733	91
599.497	84
600.261	89
601.025	76
601.79	79
602.553	72
603.317	71
604.081	66
604.845	61
605.609	61
606.372	60
607.136	56
607.899	56
608.662	51
609.426	48
610.189	50
610.952	45
611.715	46
612.478	45
613.241	42
614.004	41
614.767	40
615.529	36
616.292	40
617.055	32
617.817	32
618.579	31
619.342	32
620.104	27
620.866	29
621.628	28
622.39	29
623.152	26
623.914	26
624.676	26
625.438	22
626.199	23
626.961	21
627.722	23
628.484	18
629.245	20
630.006	21
630.768	18
631.529	20
632.29	18
633.051	17
633.812	19
634.573	16
635.333	18
636.094	13
636.855	16
637.615	17
638.376	16
639.136	13
639.896	12
640.657	16
641.417	14
642.177	12
642.937	10
643.697	12
644.457	10
645.216	11
645.976	9
646.736	11
647.495	11
648.255	9
649.014	10
649.774	10
650.533	11
651.292	10
652.051	9
652.81	8
653.569	8
654.328	7
655.087	7
655.846	10
656.604	7
657.363	8
658.121	7
658.88	9
659.638	7
660.397	8
661.155	7
661.913	8
662.671	8
663.429	7
664.187	4
664.945	6
665.703	8
666.46	5
667.218	7
667.976	8
668.733	6
669.49	7
670.248	6
671.005	8
671.762	5
672.519	5
673.276	7
674.033	4
674.79	4
675.547	7
676.304	4
677.06	5
677.817	4
678.574	3
679.33	7
680.086	5
680.843	7
681.599	8
682.355	4
683.111	7
683.867	5
684.623	6
685.379	5
686.135	6
686.89	3
687.646	6
688.402	5
689.157	4
689.912	7
690.668	6
691.423	4
692.178	4
692.933	5
693.688	3
694.443	6
695.198	7
695.953	5
696.708	4
697.462	4
698.217	6
698.972	5
699.726	4
700.48	4
701.235	4
701.989	6
702.743	4
703.497	4
704.251	7
705.005	3
705.759	8
706.513	4
707.266	5
708.02	5
708.774	5
709.527	5
710.28	4
711.034	6
711.787	5
712.54	3
713.293	7
714.046	4
714.799	6
715.552	5
716.305	5
717.058	4
717.81	3
718.563	6
719.315	6
720.068	6
720.82	3
721.573	2
722.325	5
723.077	4
723.829	4
724.581	5
725.333	3
726.085	6
726.836	7
727.588	2
728.34	4
729.091	4
729.843	4
730.594	3
731.346	3
732.097	5
732.848	8
733.599	5
734.35	4
735.101	5
735.852	7
736.603	6
737.354	6
738.104	5
738.855	6
739.605	6
740.356	5
741.106	3
741.856	6
742.607	6
743.357	5
744.107	9
744.857	4
745.607	7
746.357	8
747.106	6
747.856	6
748.606	6
749.355	8
750.105	6
750.854	6
751.603	6
752.353	6
753.102	6
753.851	5
754.6	6
755.349	10
756.098	9
756.847	6
757.595	9
758.344	7
759.093	7
759.841	8
760.589	7
761.338	7
762.086	9
762.834	6
763.582	10
764.331	7
765.079	7
765.826	7
766.574	10
767.322	8
768.07	6
768.817	8
769.565	8
770.312	8
771.06	9
771.807	6
772.554	8
773.302	11
774.049	9
774.796	7
775.543	7
776.29	10
777.036	9
777.783	7
778.53	9
779.276	9
780.023	10
780.769	10
781.516	10
782.262	7
783.008	9
783.754	9
784.5	11
785.246	8
785.992	9
786.738	11
787.484	9
788.23	11
788.975	9
789.721	8
790.466	11
791.212	10
791.957	10
792.702	9
793.447	9
794.193	11
794.938	8
795.683	12
796.427	10
797.172	11
797.917	9
798.662	8
799.406	7
800.151	9
800.895	7
801.64	10
802.384	7
803.128	7
803.872	6
804.616	9
805.36	8
806.104	9
806.848	9
807.592	6
808.336	8
809.079	5
809.823	8
810.566	8
811.31	7
812.053	6
812.796	3
813.539	9
814.283	4
815.026	7
815.769	5
816.511	4
817.254	5
817.997	5
818.74	6
819.482	6
820.225	5
820.967	4
821.71	3
822.452	7
823.194	5
823.936	7
824.678	6
825.42	5
826.162	6
826.904	5
827.646	5
828.388	4
829.129	5
829.871	3
830.612	4
831.354	6
832.095	3
832.836	2
833.577	3
834.319	3
835.06	3
835.801	2
836.542	4
837.282	3
838.023	5
838.764	5
839.504	3
840.245	4
840.985	3
841.726	3
842.466	3
843.206	3
843.946	4
844.687	6
845.427	5
846.166	4
846.906	3
847.646	6
848.386	2
849.125	4
849.865	5
850.605	2
851.344	2
852.083	3
852.823	2
853.562	2
854.301	3
855.04	-1
855.779	3
856.518	2
857.257	1
857.995	3
858.734	2
859.473	4
860.211	2
860.95	2
861.688	2
862.426	2
863.165	3
863.903	1
864.641	1
865.379	1
866.117	1
866.855	2
867.593	2
868.33	0
869.068	2
869.806	2
870.543	3
871.28	2
872.018	1
872.755	1
873.492	1
874.229	0
874.967	2
875.703	1
876.44	1
877.177	1
877.914	2
878.651	0
879.387	2
880.124	1
880.86	2
881.597	0
882.333	0
883.069	0
883.806	0
884.542	0
885.278	0
886.014	0
886.749	0
887.485	1
888.221	2
888.957	0
889.692	1
890.428	-1
891.163	1
891.899	-1
892.634	1
893.369	0
894.104	1
894.839	2
895.574	1
896.309	-1
897.044	-1
897.779	0
898.514	2
899.248	-1
899.983	1
900.717	-1
901.452	1
902.186	1
902.92	-2
903.654	0
904.389	0
905.123	-1
905.857	1
906.59	1
907.324	-1
908.058	2
908.792	0
909.525	1
910.259	-2
910.992	2
911.726	0
912.459	0
913.192	0
913.925	-2
914.658	-1
915.391	0
916.124	2
916.857	-1
917.59	1
918.323	2
919.055	-1
919.788	1
920.521	-3
921.253	3
921.985	0
922.718	0
923.45	0
924.182	1
924.914	1
925.646	0
926.378	-1
927.11	2
927.841	0
928.573	1
929.305	-2
930.036	1
930.768	-2
931.499	2
932.23	0
932.962	-1
933.693	1
934.424	-2
935.155	0
935.886	1
936.617	-2
937.348	1
938.078	1
938.809	0
939.54	-1
940.27	-2
941.001	-1
941.731	1
942.461	1
943.191	-1
943.922	1
944.652	1
945.382	0
946.112	1
946.841	-2
947.571	1
948.301	1
949.031	0
949.76	-1
950.49	-2
951.219	-1
951.948	1
952.678	0
953.407	1
954.136	0
954.865	0
955.594	-2
956.323	2
957.052	1
957.78	1
958.509	-2
959.238	-2
959.966	0
960.695	-2
961.423	1
962.151	-2
962.88	0
963.608	-1
964.336	-1
965.064	0
965.792	0
966.52	-1
967.247	0
967.975	1
968.703	-1
969.43	0
970.158	2
970.885	0
971.613	-2
972.34	1
973.067	-1
973.794	-1
974.521	1
975.248	0
975.975	-1
976.702	0
977.429	1
978.156	-1
978.882	-2
979.609	-1
980.335	-1
981.062	0
981.788	-2
982.514	0
983.24	-1
983.967	1
984.693	0
985.419	-2
986.144	2
986.87	-3
987.596	0
988.322	0
989.047	0
989.773	1
990.498	-1
991.224	0
991.949	-1
992.674	-1
993.399	0
994.124	0
994.849	2
995.574	1
996.299	0
997.024	2
997.749	1
998.473	-1
999.198	-1
999.922	0
1000.647	0
1001.371	4
1002.095	-2
1002.82	-1
1003.544	0
1004.268	2
1004.992	4
1005.716	2
1006.439	3
1007.163	1
1007.887	2
1008.611	1
1009.334	0
1010.058	2
1010.781	0
1011.504	-2
1012.228	0
1012.951	1
1013.674	-1
1014.397	0
1015.12	-1
