节点500_425_QEPB04081__428__15-55-25-654.txt的数据

Date: Wed Nov 12 15:55:25 CST 2025
User: PC
Spectrometer: QEPB0408
触发模式: 0
积分时间 (秒): 1.000000E-2
Scans to average: 1
启用暗噪声校正: true
启用非线性校正: false
滑动平均宽度: 0
X轴模式: Wavelengths
Number of Pixels in Spectrum: 1044
>>>>>Begin Spectral Data<<<<<
220.843	2.38
221.644	2.38
222.444	2.38
223.244	3.38
224.045	5.38
224.845	3.38
225.645	4.38
226.445	4.38
227.245	2.38
228.045	2.38
228.845	5.38
229.645	6.38
230.444	4.38
231.244	5.38
232.043	5.38
232.843	5.38
233.642	6.38
234.442	5.38
235.241	7.38
236.04	2.38
236.839	5.38
237.638	5.38
238.437	5.38
239.236	6.38
240.035	6.38
240.833	9.38
241.632	3.38
242.43	7.38
243.229	7.38
244.027	5.38
244.826	7.38
245.624	8.38
246.422	8.38
247.22	7.38
248.018	10.38
248.816	8.38
249.614	9.38
250.412	9.38
251.21	9.38
252.007	10.38
252.805	8.38
253.602	10.38
254.4	11.38
255.197	9.38
255.994	10.38
256.791	11.38
257.589	13.38
258.386	11.38
259.183	13.38
259.979	12.38
260.776	15.38
261.573	13.38
262.37	15.38
263.166	15.38
263.963	16.38
264.759	17.38
265.556	13.38
266.352	14.38
267.148	19.38
267.944	19.38
268.74	17.38
269.536	20.38
270.332	17.38
271.128	21.38
271.924	19.38
272.719	18.38
273.515	21.38
274.311	23.38
275.106	21.38
275.901	23.38
276.697	24.38
277.492	19.38
278.287	24.38
279.082	20.38
279.877	23.38
280.672	25.38
281.467	23.38
282.262	24.38
283.056	24.38
283.851	23.38
284.646	23.38
285.44	24.38
286.234	24.38
287.029	23.38
287.823	25.38
288.617	22.38
289.411	21.38
290.205	22.38
290.999	23.38
291.793	21.38
292.587	21.38
293.381	22.38
294.174	22.38
294.968	21.38
295.761	21.38
296.555	21.38
297.348	20.38
298.141	21.38
298.935	22.38
299.728	20.38
300.521	18.38
301.314	18.38
302.107	18.38
302.899	17.38
303.692	14.38
304.485	15.38
305.277	17.38
306.07	13.38
306.862	14.38
307.655	14.38
308.447	14.38
309.239	17.38
310.031	14.38
310.823	14.38
311.615	12.38
312.407	11.38
313.199	11.38
313.991	12.38
314.783	11.38
315.574	9.38
316.366	13.38
317.157	10.38
317.949	10.38
318.74	13.38
319.531	8.38
320.322	9.38
321.113	10.38
321.904	11.38
322.695	8.38
323.486	7.38
324.277	9.38
325.068	8.38
325.858	10.38
326.649	10.38
327.439	10.38
328.23	8.38
329.02	8.38
329.81	8.38
330.6	10.38
331.391	9.38
332.181	6.38
332.971	8.38
333.76	7.38
334.55	9.38
335.34	7.38
336.13	10.38
336.919	9.38
337.709	8.38
338.498	8.38
339.287	8.38
340.077	7.38
340.866	8.38
341.655	8.38
342.444	7.38
343.233	6.38
344.022	5.38
344.811	6.38
345.6	10.38
346.388	8.38
347.177	8.38
347.965	8.38
348.754	9.38
349.542	8.38
350.33	5.38
351.119	6.38
351.907	7.38
352.695	9.38
353.483	7.38
354.271	6.38
355.059	8.38
355.846	6.38
356.634	7.38
357.422	5.38
358.209	6.38
358.997	9.38
359.784	4.38
360.571	6.38
361.359	7.38
362.146	9.38
362.933	7.38
363.72	9.38
364.507	6.38
365.294	7.38
366.081	7.38
366.867	5.38
367.654	6.38
368.44	8.38
369.227	6.38
370.013	6.38
370.8	7.38
371.586	6.38
372.372	5.38
373.158	8.38
373.944	8.38
374.73	6.38
375.516	7.38
376.302	7.38
377.088	6.38
377.873	8.38
378.659	6.38
379.445	4.38
380.23	6.38
381.015	8.38
381.801	6.38
382.586	7.38
383.371	8.38
384.156	7.38
384.941	7.38
385.726	6.38
386.511	8.38
387.296	8.38
388.08	4.38
388.865	7.38
389.649	7.38
390.434	8.38
391.218	6.38
392.003	6.38
392.787	7.38
393.571	8.38
394.355	7.38
395.139	9.38
395.923	10.38
396.707	8.38
397.491	7.38
398.274	7.38
399.058	6.38
399.842	11.38
400.625	12.38
401.408	9.38
402.192	7.38
402.975	9.38
403.758	10.38
404.541	6.38
405.324	11.38
406.107	12.38
406.89	8.38
407.673	12.38
408.456	9.38
409.238	12.38
410.021	8.38
410.803	10.38
411.586	12.38
412.368	10.38
413.151	10.38
413.933	10.38
414.715	13.38
415.497	14.38
416.279	14.38
417.061	13.38
417.843	12.38
418.624	12.38
419.406	10.38
420.188	15.38
420.969	10.38
421.751	13.38
422.532	16.38
423.313	16.38
424.095	17.38
424.876	15.38
425.657	13.38
426.438	15.38
427.219	17.38
428	17.38
428.78	15.38
429.561	16.38
430.342	18.38
431.122	20.38
431.903	20.38
432.683	21.38
433.464	23.38
434.244	22.38
435.024	24.38
435.804	28.38
436.584	25.38
437.364	24.38
438.144	32.38
438.924	30.38
439.704	31.38
440.483	32.38
441.263	36.38
442.042	40.38
442.822	39.38
443.601	42.38
444.38	44.38
445.16	51.38
445.939	50.38
446.718	59.38
447.497	61.38
448.276	70.38
449.054	74.38
449.833	83.38
450.612	84.38
451.391	97.38
452.169	109.38
452.948	114.38
453.726	131.38
454.504	143.38
455.282	160.38
456.061	178.38
456.839	196.38
457.617	215.38
458.395	237.38
459.172	267.38
459.95	297.38
460.728	331.38
461.506	367.38
462.283	421.38
463.061	463.38
463.838	518.38
464.615	574.38
465.393	632.38
466.17	703.38
466.947	785.38
467.724	877.38
468.501	962.38
469.278	1070.38
470.055	1188.38
470.831	1315.38
471.608	1454.38
472.385	1615.38
473.161	1781.38
473.938	1953.38
474.714	2144.38
475.49	2341.38
476.266	2608.38
477.043	2859.38
477.819	3149.38
478.595	3474.38
479.371	3779.38
480.146	4152.38
480.922	4556.38
481.698	4960.38
482.473	5394.38
483.249	5904.38
484.024	6459.38
484.8	7063.38
485.575	7684.38
486.35	8327.38
487.126	9079.38
487.901	9864.38
488.676	10729.38
489.451	11641.38
490.225	12639.38
491	13738.38
491.775	14844.38
492.55	15940.38
493.324	17075.38
494.099	18297.38
494.873	19622.38
495.647	20836.38
496.422	22209.38
497.196	23552.38
497.97	25017.38
498.744	26316.38
499.518	27639.38
500.292	28844.38
501.066	29937.38
501.839	31054.38
502.613	31955.38
503.387	32768.38
504.16	33392.38
504.934	33814.38
505.707	33885.38
506.48	33968.38
507.253	33828.38
508.027	33625.38
508.8	33226.38
509.573	32597.38
510.346	31918.38
511.118	31106.38
511.891	30244.38
512.664	29195.38
513.437	28174.38
514.209	27102.38
514.982	26182.38
515.754	25118.38
516.526	24083.38
517.298	23075.38
518.071	22145.38
518.843	21225.38
519.615	20357.38
520.387	19553.38
521.159	18855.38
521.93	18082.38
522.702	17380.38
523.474	16708.38
524.245	16087.38
525.017	15329.38
525.788	14620.38
526.56	13981.38
527.331	13359.38
528.102	12774.38
528.873	12169.38
529.644	11610.38
530.415	11076.38
531.186	10581.38
531.957	10003.38
532.728	9490.38
533.498	8959.38
534.269	8506.38
535.039	8042.38
535.81	7598.38
536.58	7219.38
537.351	6793.38
538.121	6432.38
538.891	6067.38
539.661	5754.38
540.431	5479.38
541.201	5150.38
541.971	4910.38
542.741	4650.38
543.51	4424.38
544.28	4197.38
545.05	3981.38
545.819	3812.38
546.588	3623.38
547.358	3432.38
548.127	3252.38
548.896	3087.38
549.665	2930.38
550.434	2788.38
551.203	2653.38
551.972	2499.38
552.741	2366.38
553.51	2254.38
554.278	2113.38
555.047	2005.38
555.815	1890.38
556.584	1786.38
557.352	1691.38
558.121	1583.38
558.889	1509.38
559.657	1417.38
560.425	1334.38
561.193	1260.38
561.961	1201.38
562.729	1139.38
563.496	1091.38
564.264	1013.38
565.032	953.38
565.799	909.38
566.567	857.38
567.334	817.38
568.101	766.38
568.869	721.38
569.636	681.38
570.403	647.38
571.17	598.38
571.937	567.38
572.704	545.38
573.471	508.38
574.237	485.38
575.004	457.38
575.771	426.38
576.537	408.38
577.303	374.38
578.07	359.38
578.836	333.38
579.602	319.38
580.368	303.38
581.134	282.38
581.9	273.38
582.666	261.38
583.432	245.38
584.198	231.38
584.964	227.38
585.729	209.38
586.495	194.38
587.26	187.38
588.025	179.38
588.791	167.38
589.556	160.38
590.321	155.38
591.086	143.38
591.851	138.38
592.616	133.38
593.381	121.38
594.146	119.38
594.911	114.38
595.675	108.38
596.44	104.38
597.204	100.38
597.969	90.38
598.733	88.38
599.497	84.38
600.261	82.38
601.025	74.38
601.79	73.38
602.553	73.38
603.317	69.38
604.081	67.38
604.845	65.38
605.609	62.38
606.372	60.38
607.136	55.38
607.899	51.38
608.662	53.38
609.426	49.38
610.189	46.38
610.952	41.38
611.715	41.38
612.478	41.38
613.241	37.38
614.004	42.38
614.767	37.38
615.529	37.38
616.292	33.38
617.055	34.38
617.817	34.38
618.579	30.38
619.342	31.38
620.104	29.38
620.866	28.38
621.628	27.38
622.39	27.38
623.152	24.38
623.914	25.38
624.676	25.38
625.438	22.38
626.199	23.38
626.961	21.38
627.722	21.38
628.484	21.38
629.245	20.38
630.006	21.38
630.768	20.38
631.529	20.38
632.29	15.38
633.051	17.38
633.812	18.38
634.573	16.38
635.333	16.38
636.094	14.38
636.855	16.38
637.615	16.38
638.376	14.38
639.136	14.38
639.896	14.38
640.657	15.38
641.417	12.38
642.177	10.38
642.937	13.38
643.697	14.38
644.457	10.38
645.216	12.38
645.976	12.38
646.736	10.38
647.495	8.38
648.255	10.38
649.014	8.38
649.774	8.38
650.533	10.38
651.292	9.38
652.051	10.38
652.81	10.38
653.569	11.38
654.328	13.38
655.087	8.38
655.846	13.38
656.604	10.38
657.363	8.38
658.121	10.38
658.88	9.38
659.638	10.38
660.397	7.38
661.155	8.38
661.913	8.38
662.671	8.38
663.429	7.38
664.187	5.38
664.945	9.38
665.703	5.38
666.46	8.38
667.218	7.38
667.976	7.38
668.733	4.38
669.49	4.38
670.248	6.38
671.005	7.38
671.762	6.38
672.519	8.38
673.276	7.38
674.033	6.38
674.79	5.38
675.547	6.38
676.304	4.38
677.06	8.38
677.817	5.38
678.574	6.38
679.33	6.38
680.086	5.38
680.843	6.38
681.599	7.38
682.355	6.38
683.111	4.38
683.867	4.38
684.623	6.38
685.379	7.38
686.135	4.38
686.89	5.38
687.646	6.38
688.402	5.38
689.157	5.38
689.912	5.38
690.668	6.38
691.423	4.38
692.178	5.38
692.933	3.38
693.688	4.38
694.443	4.38
695.198	4.38
695.953	5.38
696.708	5.38
697.462	5.38
698.217	5.38
698.972	4.38
699.726	3.38
700.48	5.38
701.235	4.38
701.989	3.38
702.743	6.38
703.497	4.38
704.251	7.38
705.005	6.38
705.759	6.38
706.513	3.38
707.266	5.38
708.02	4.38
708.774	6.38
709.527	7.38
710.28	2.38
711.034	4.38
711.787	5.38
712.54	3.38
713.293	5.38
714.046	6.38
714.799	7.38
715.552	4.38
716.305	5.38
717.058	5.38
717.81	7.38
718.563	6.38
719.315	7.38
720.068	5.38
720.82	7.38
721.573	5.38
722.325	5.38
723.077	7.38
723.829	2.38
724.581	5.38
725.333	5.38
726.085	6.38
726.836	6.38
727.588	4.38
728.34	7.38
729.091	4.38
729.843	5.38
730.594	6.38
731.346	7.38
732.097	4.38
732.848	4.38
733.599	4.38
734.35	4.38
735.101	5.38
735.852	7.38
736.603	5.38
737.354	7.38
738.104	4.38
738.855	6.38
739.605	5.38
740.356	5.38
741.106	6.38
741.856	5.38
742.607	6.38
743.357	6.38
744.107	7.38
744.857	6.38
745.607	6.38
746.357	7.38
747.106	7.38
747.856	6.38
748.606	5.38
749.355	8.38
750.105	5.38
750.854	5.38
751.603	6.38
752.353	9.38
753.102	7.38
753.851	7.38
754.6	9.38
755.349	7.38
756.098	5.38
756.847	7.38
757.595	8.38
758.344	8.38
759.093	8.38
759.841	8.38
760.589	8.38
761.338	9.38
762.086	9.38
762.834	9.38
763.582	10.38
764.331	9.38
765.079	10.38
765.826	8.38
766.574	6.38
767.322	12.38
768.07	9.38
768.817	7.38
769.565	8.38
770.312	9.38
771.06	7.38
771.807	8.38
772.554	12.38
773.302	11.38
774.049	10.38
774.796	9.38
775.543	10.38
776.29	12.38
777.036	10.38
777.783	11.38
778.53	11.38
779.276	9.38
780.023	11.38
780.769	12.38
781.516	10.38
782.262	12.38
783.008	12.38
783.754	10.38
784.5	9.38
785.246	10.38
785.992	11.38
786.738	12.38
787.484	11.38
788.23	12.38
788.975	10.38
789.721	11.38
790.466	9.38
791.212	8.38
791.957	9.38
792.702	12.38
793.447	6.38
794.193	11.38
794.938	11.38
795.683	11.38
796.427	10.38
797.172	10.38
797.917	7.38
798.662	8.38
799.406	7.38
800.151	8.38
800.895	9.38
801.64	12.38
802.384	6.38
803.128	10.38
803.872	8.38
804.616	8.38
805.36	8.38
806.104	6.38
806.848	8.38
807.592	6.38
808.336	6.38
809.079	7.38
809.823	5.38
810.566	7.38
811.31	5.38
812.053	6.38
812.796	4.38
813.539	7.38
814.283	10.38
815.026	7.38
815.769	6.38
816.511	4.38
817.254	7.38
817.997	7.38
818.74	4.38
819.482	6.38
820.225	3.38
820.967	5.38
821.71	4.38
822.452	5.38
823.194	5.38
823.936	4.38
824.678	5.38
825.42	4.38
826.162	3.38
826.904	4.38
827.646	4.38
828.388	4.38
829.129	4.38
829.871	6.38
830.612	5.38
831.354	5.38
832.095	4.38
832.836	5.38
833.577	2.38
834.319	4.38
835.06	5.38
835.801	5.38
836.542	6.38
837.282	5.38
838.023	3.38
838.764	3.38
839.504	2.38
840.245	6.38
840.985	4.38
841.726	3.38
842.466	2.38
843.206	3.38
843.946	4.38
844.687	2.38
845.427	3.38
846.166	4.38
846.906	3.38
847.646	5.38
848.386	0.38
849.125	4.38
849.865	3.38
850.605	4.38
851.344	1.38
852.083	0.38
852.823	6.38
853.562	4.38
854.301	4.38
855.04	3.38
855.779	2.38
856.518	3.38
857.257	2.38
857.995	5.38
858.734	5.38
859.473	3.38
860.211	5.38
860.95	0.38
861.688	2.38
862.426	1.38
863.165	4.38
863.903	2.38
864.641	2.38
865.379	2.38
866.117	0.38
866.855	4.38
867.593	2.38
868.33	2.38
869.068	2.38
869.806	2.38
870.543	4.38
871.28	3.38
872.018	3.38
872.755	2.38
873.492	0.38
874.229	0.38
874.967	-2.62
875.703	4.38
876.44	2.38
877.177	0.38
877.914	2.38
878.651	-0.62
879.387	0.38
880.124	1.38
880.86	2.38
881.597	3.38
882.333	-0.62
883.069	1.38
883.806	2.38
884.542	0.38
885.278	1.38
886.014	3.38
886.749	0.38
887.485	0.38
888.221	2.38
888.957	1.38
889.692	2.38
890.428	0.38
891.163	-0.62
891.899	1.38
892.634	-0.62
893.369	0.38
894.104	0.38
894.839	2.38
895.574	1.38
896.309	0.38
897.044	0.38
897.779	0.38
898.514	2.38
899.248	1.38
899.983	-0.62
900.717	0.38
901.452	0.38
902.186	0.38
902.92	1.38
903.654	-0.62
904.389	1.38
905.123	0.38
905.857	-0.62
906.59	0.38
907.324	3.38
908.058	3.38
908.792	-0.62
909.525	2.38
910.259	2.38
910.992	1.38
911.726	0.38
912.459	0.38
913.192	0.38
913.925	-0.62
914.658	0.38
915.391	0.38
916.124	0.38
916.857	1.38
917.59	-0.62
918.323	1.38
919.055	-0.62
919.788	2.38
920.521	1.38
921.253	-0.62
921.985	0.38
922.718	1.38
923.45	1.38
924.182	1.38
924.914	1.38
925.646	0.38
926.378	0.38
927.11	1.38
927.841	-0.62
928.573	0.38
929.305	1.38
930.036	0.38
930.768	3.38
931.499	1.38
932.23	2.38
932.962	1.38
933.693	-0.62
934.424	-1.62
935.155	0.38
935.886	2.38
936.617	-1.62
937.348	1.38
938.078	-0.62
938.809	2.38
939.54	-0.62
940.27	-1.62
941.001	1.38
941.731	1.38
942.461	-0.62
943.191	0.38
943.922	-1.62
944.652	1.38
945.382	0.38
946.112	2.38
946.841	-0.62
947.571	0.38
948.301	1.38
949.031	0.38
949.76	1.38
950.49	-0.62
951.219	0.38
951.948	1.38
952.678	-0.62
953.407	1.38
954.136	-0.62
954.865	1.38
955.594	0.38
956.323	0.38
957.052	-1.62
957.78	0.38
958.509	0.38
959.238	0.38
959.966	2.38
960.695	1.38
961.423	0.38
962.151	-1.62
962.88	-1.62
963.608	1.38
964.336	1.38
965.064	-0.62
965.792	0.38
966.52	-0.62
967.247	2.38
967.975	0.38
968.703	2.38
969.43	0.38
970.158	0.38
970.885	1.38
971.613	-1.62
972.34	2.38
973.067	1.38
973.794	3.38
974.521	-0.62
975.248	0.38
975.975	0.38
976.702	1.38
977.429	0.38
978.156	1.38
978.882	0.38
979.609	0.38
980.335	0.38
981.062	-1.62
981.788	0.38
982.514	-0.62
983.24	0.38
983.967	-1.62
984.693	2.38
985.419	-1.62
986.144	-1.62
986.87	-0.62
987.596	0.38
988.322	1.38
989.047	1.38
989.773	0.38
990.498	-0.62
991.224	-1.62
991.949	0.38
992.674	0.38
993.399	1.38
994.124	-0.62
994.849	1.38
995.574	0.38
996.299	-0.62
997.024	0.38
997.749	2.38
998.473	4.38
999.198	0.38
999.922	2.38
1000.647	-1.62
1001.371	2.38
1002.095	-2.62
1002.82	-0.62
1003.544	-1.62
1004.268	2.38
1004.992	1.38
1005.716	2.38
1006.439	2.38
1007.163	4.38
1007.887	2.38
1008.611	0.38
1009.334	0.38
1010.058	-0.62
1010.781	-0.62
1011.504	2.38
1012.228	1.38
1012.951	0.38
1013.674	0.38
1014.397	1.38
1015.12	0.38
