节点500_425_QEPB04081__413__15-55-10-688.txt的数据

Date: Wed Nov 12 15:55:10 CST 2025
User: PC
Spectrometer: QEPB0408
触发模式: 0
积分时间 (秒): 1.000000E-2
Scans to average: 1
启用暗噪声校正: true
启用非线性校正: false
滑动平均宽度: 0
X轴模式: Wavelengths
Number of Pixels in Spectrum: 1044
>>>>>Begin Spectral Data<<<<<
220.843	0
221.644	4
222.444	3
223.244	2
224.045	5
224.845	3
225.645	3
226.445	4
227.245	3
228.045	3
228.845	4
229.645	5
230.444	3
231.244	6
232.043	4
232.843	4
233.642	6
234.442	5
235.241	3
236.04	7
236.839	6
237.638	7
238.437	5
239.236	7
240.035	7
240.833	7
241.632	5
242.43	6
243.229	8
244.027	7
244.826	9
245.624	8
246.422	8
247.22	9
248.018	6
248.816	12
249.614	7
250.412	9
251.21	8
252.007	10
252.805	11
253.602	7
254.4	12
255.197	10
255.994	11
256.791	13
257.589	14
258.386	11
259.183	12
259.979	14
260.776	13
261.573	14
262.37	15
263.166	13
263.963	14
264.759	18
265.556	16
266.352	17
267.148	17
267.944	19
268.74	20
269.536	19
270.332	19
271.128	20
271.924	21
272.719	19
273.515	19
274.311	19
275.106	18
275.901	21
276.697	21
277.492	23
278.287	23
279.082	23
279.877	22
280.672	22
281.467	23
282.262	24
283.056	22
283.851	25
284.646	24
285.44	22
286.234	22
287.029	25
287.823	22
288.617	25
289.411	23
290.205	24
290.999	24
291.793	23
292.587	23
293.381	21
294.174	21
294.968	21
295.761	22
296.555	18
297.348	20
298.141	16
298.935	21
299.728	18
300.521	20
301.314	17
302.107	18
302.899	20
303.692	16
304.485	17
305.277	14
306.07	18
306.862	20
307.655	18
308.447	16
309.239	16
310.031	17
310.823	14
311.615	12
312.407	16
313.199	14
313.991	12
314.783	12
315.574	12
316.366	12
317.157	14
317.949	10
318.74	10
319.531	10
320.322	12
321.113	8
321.904	9
322.695	10
323.486	10
324.277	9
325.068	9
325.858	8
326.649	8
327.439	7
328.23	7
329.02	9
329.81	8
330.6	9
331.391	9
332.181	8
332.971	10
333.76	10
334.55	7
335.34	8
336.13	11
336.919	6
337.709	10
338.498	8
339.287	8
340.077	10
340.866	5
341.655	6
342.444	8
343.233	6
344.022	8
344.811	9
345.6	10
346.388	7
347.177	8
347.965	8
348.754	8
349.542	6
350.33	8
351.119	7
351.907	6
352.695	8
353.483	7
354.271	7
355.059	8
355.846	7
356.634	6
357.422	6
358.209	7
358.997	8
359.784	5
360.571	8
361.359	8
362.146	7
362.933	8
363.72	4
364.507	9
365.294	7
366.081	7
366.867	7
367.654	5
368.44	6
369.227	7
370.013	8
370.8	7
371.586	5
372.372	8
373.158	6
373.944	6
374.73	7
375.516	6
376.302	7
377.088	3
377.873	7
378.659	5
379.445	8
380.23	8
381.015	5
381.801	9
382.586	5
383.371	9
384.156	9
384.941	8
385.726	8
386.511	7
387.296	8
388.08	6
388.865	9
389.649	7
390.434	3
391.218	8
392.003	10
392.787	7
393.571	8
394.355	7
395.139	8
395.923	8
396.707	8
397.491	8
398.274	9
399.058	8
399.842	8
400.625	8
401.408	8
402.192	9
402.975	10
403.758	11
404.541	9
405.324	9
406.107	12
406.89	12
407.673	11
408.456	8
409.238	11
410.021	13
410.803	10
411.586	13
412.368	12
413.151	11
413.933	13
414.715	11
415.497	12
416.279	12
417.061	13
417.843	13
418.624	13
419.406	14
420.188	11
420.969	14
421.751	15
422.532	14
423.313	14
424.095	16
424.876	15
425.657	16
426.438	18
427.219	14
428	17
428.78	18
429.561	17
430.342	21
431.122	19
431.903	19
432.683	19
433.464	20
434.244	23
435.024	25
435.804	25
436.584	26
437.364	28
438.144	28
438.924	29
439.704	33
440.483	32
441.263	33
442.042	38
442.822	38
443.601	44
444.38	44
445.16	50
445.939	51
446.718	60
447.497	64
448.276	68
449.054	74
449.833	85
450.612	87
451.391	98
452.169	103
452.948	118
453.726	130
454.504	145
455.282	165
456.061	174
456.839	193
457.617	215
458.395	238
459.172	267
459.95	294
460.728	324
461.506	367
462.283	412
463.061	461
463.838	517
464.615	569
465.393	629
466.17	707
466.947	784
467.724	876
468.501	964
469.278	1070
470.055	1196
470.831	1315
471.608	1467
472.385	1602
473.161	1781
473.938	1959
474.714	2168
475.49	2372
476.266	2595
477.043	2871
477.819	3122
478.595	3444
479.371	3782
480.146	4130
480.922	4540
481.698	4970
482.473	5412
483.249	5935
484.024	6467
484.8	7094
485.575	7723
486.35	8393
487.126	9074
487.901	9913
488.676	10776
489.451	11728
490.225	12696
491	13704
491.775	14916
492.55	15966
493.324	17256
494.099	18445
494.873	19691
495.647	21061
496.422	22310
497.196	23719
497.97	25163
498.744	26538
499.518	27748
500.292	28934
501.066	30029
501.839	31216
502.613	32172
503.387	32959
504.16	33483
504.934	33878
505.707	34094
506.48	34077
507.253	33937
508.027	33668
508.8	33268
509.573	32701
510.346	32035
511.118	31075
511.891	30229
512.664	29252
513.437	28145
514.209	27090
514.982	26195
515.754	25131
516.526	24089
517.298	23078
518.071	22137
518.843	21220
519.615	20341
520.387	19533
521.159	18786
521.93	18085
522.702	17398
523.474	16738
524.245	16022
525.017	15323
525.788	14616
526.56	13940
527.331	13357
528.102	12769
528.873	12145
529.644	11598
530.415	11074
531.186	10577
531.957	10010
532.728	9537
533.498	8933
534.269	8445
535.039	8013
535.81	7601
536.58	7213
537.351	6803
538.121	6400
538.891	6074
539.661	5760
540.431	5434
541.201	5163
541.971	4877
542.741	4642
543.51	4387
544.28	4213
545.05	3974
545.819	3802
546.588	3628
547.358	3433
548.127	3232
548.896	3101
549.665	2938
550.434	2775
551.203	2638
551.972	2513
552.741	2374
553.51	2239
554.278	2126
555.047	2010
555.815	1878
556.584	1788
557.352	1666
558.121	1580
558.889	1499
559.657	1428
560.425	1329
561.193	1267
561.961	1206
562.729	1144
563.496	1065
564.264	1004
565.032	957
565.799	909
566.567	853
567.334	801
568.101	766
568.869	733
569.636	673
570.403	624
571.17	596
571.937	574
572.704	541
573.471	503
574.237	490
575.004	447
575.771	417
576.537	402
577.303	370
578.07	357
578.836	338
579.602	315
580.368	305
581.134	285
581.9	273
582.666	253
583.432	248
584.198	232
584.964	219
585.729	210
586.495	196
587.26	185
588.025	172
588.791	173
589.556	164
590.321	152
591.086	148
591.851	135
592.616	132
593.381	121
594.146	115
594.911	112
595.675	108
596.44	104
597.204	94
597.969	94
598.733	88
599.497	86
600.261	80
601.025	78
601.79	74
602.553	70
603.317	67
604.081	63
604.845	66
605.609	60
606.372	59
607.136	54
607.899	54
608.662	54
609.426	46
610.189	47
610.952	44
611.715	46
612.478	40
613.241	41
614.004	38
614.767	38
615.529	38
616.292	34
617.055	32
617.817	32
618.579	32
619.342	30
620.104	30
620.866	29
621.628	29
622.39	26
623.152	26
623.914	23
624.676	26
625.438	26
626.199	22
626.961	22
627.722	21
628.484	21
629.245	18
630.006	20
630.768	20
631.529	17
632.29	17
633.051	18
633.812	14
634.573	16
635.333	15
636.094	16
636.855	14
637.615	14
638.376	15
639.136	11
639.896	14
640.657	12
641.417	12
642.177	14
642.937	14
643.697	12
644.457	10
645.216	12
645.976	12
646.736	12
647.495	11
648.255	8
649.014	8
649.774	10
650.533	10
651.292	11
652.051	10
652.81	9
653.569	8
654.328	9
655.087	9
655.846	11
656.604	6
657.363	9
658.121	7
658.88	8
659.638	8
660.397	7
661.155	8
661.913	6
662.671	7
663.429	7
664.187	8
664.945	8
665.703	7
666.46	7
667.218	7
667.976	6
668.733	4
669.49	3
670.248	6
671.005	7
671.762	5
672.519	8
673.276	5
674.033	5
674.79	2
675.547	8
676.304	6
677.06	4
677.817	5
678.574	5
679.33	6
680.086	4
680.843	6
681.599	5
682.355	6
683.111	7
683.867	5
684.623	4
685.379	5
686.135	3
686.89	6
687.646	7
688.402	6
689.157	5
689.912	6
690.668	7
691.423	5
692.178	7
692.933	6
693.688	5
694.443	5
695.198	4
695.953	8
696.708	3
697.462	5
698.217	5
698.972	4
699.726	4
700.48	3
701.235	5
701.989	4
702.743	6
703.497	4
704.251	3
705.005	4
705.759	6
706.513	6
707.266	4
708.02	5
708.774	6
709.527	5
710.28	6
711.034	7
711.787	3
712.54	3
713.293	5
714.046	6
714.799	2
715.552	6
716.305	6
717.058	4
717.81	5
718.563	4
719.315	6
720.068	7
720.82	3
721.573	7
722.325	3
723.077	6
723.829	2
724.581	5
725.333	4
726.085	5
726.836	4
727.588	3
728.34	4
729.091	4
729.843	6
730.594	6
731.346	4
732.097	7
732.848	5
733.599	6
734.35	4
735.101	6
735.852	8
736.603	9
737.354	7
738.104	6
738.855	5
739.605	6
740.356	7
741.106	8
741.856	7
742.607	5
743.357	7
744.107	6
744.857	7
745.607	4
746.357	7
747.106	9
747.856	7
748.606	7
749.355	7
750.105	8
750.854	8
751.603	6
752.353	7
753.102	7
753.851	6
754.6	8
755.349	9
756.098	6
756.847	8
757.595	7
758.344	7
759.093	8
759.841	7
760.589	10
761.338	7
762.086	8
762.834	8
763.582	9
764.331	9
765.079	7
765.826	5
766.574	9
767.322	7
768.07	10
768.817	6
769.565	10
770.312	9
771.06	9
771.807	10
772.554	11
773.302	11
774.049	12
774.796	9
775.543	13
776.29	9
777.036	12
777.783	11
778.53	13
779.276	7
780.023	11
780.769	9
781.516	10
782.262	13
783.008	10
783.754	9
784.5	12
785.246	10
785.992	10
786.738	12
787.484	12
788.23	7
788.975	12
789.721	12
790.466	12
791.212	11
791.957	10
792.702	11
793.447	11
794.193	11
794.938	9
795.683	10
796.427	9
797.172	9
797.917	7
798.662	8
799.406	9
800.151	10
800.895	9
801.64	9
802.384	11
803.128	7
803.872	8
804.616	5
805.36	10
806.104	8
806.848	8
807.592	8
808.336	8
809.079	8
809.823	6
810.566	8
811.31	6
812.053	7
812.796	9
813.539	4
814.283	7
815.026	6
815.769	5
816.511	7
817.254	4
817.997	7
818.74	5
819.482	6
820.225	4
820.967	6
821.71	4
822.452	4
823.194	6
823.936	4
824.678	6
825.42	5
826.162	6
826.904	6
827.646	4
828.388	6
829.129	6
829.871	6
830.612	4
831.354	5
832.095	4
832.836	3
833.577	4
834.319	6
835.06	4
835.801	4
836.542	4
837.282	2
838.023	5
838.764	5
839.504	7
840.245	3
840.985	4
841.726	3
842.466	4
843.206	4
843.946	6
844.687	4
845.427	4
846.166	4
846.906	4
847.646	4
848.386	3
849.125	4
849.865	3
850.605	3
851.344	5
852.083	2
852.823	4
853.562	2
854.301	3
855.04	2
855.779	3
856.518	1
857.257	2
857.995	0
858.734	4
859.473	1
860.211	6
860.95	2
861.688	2
862.426	2
863.165	2
863.903	3
864.641	1
865.379	1
866.117	2
866.855	0
867.593	3
868.33	4
869.068	2
869.806	2
870.543	1
871.28	1
872.018	0
872.755	2
873.492	0
874.229	0
874.967	4
875.703	1
876.44	2
877.177	1
877.914	2
878.651	0
879.387	1
880.124	1
880.86	3
881.597	1
882.333	2
883.069	2
883.806	3
884.542	2
885.278	-1
886.014	2
886.749	3
887.485	1
888.221	0
888.957	1
889.692	1
890.428	2
891.163	-1
891.899	1
892.634	1
893.369	1
894.104	0
894.839	-1
895.574	2
896.309	-1
897.044	2
897.779	2
898.514	0
899.248	1
899.983	1
900.717	-1
901.452	-1
902.186	0
902.92	1
903.654	2
904.389	2
905.123	0
905.857	2
906.59	1
907.324	1
908.058	2
908.792	1
909.525	3
910.259	1
910.992	1
911.726	2
912.459	1
913.192	0
913.925	2
914.658	1
915.391	1
916.124	1
916.857	-1
917.59	0
918.323	-1
919.055	0
919.788	0
920.521	0
921.253	2
921.985	0
922.718	0
923.45	2
924.182	-1
924.914	-1
925.646	0
926.378	-1
927.11	0
927.841	-1
928.573	0
929.305	0
930.036	-2
930.768	-1
931.499	0
932.23	0
932.962	1
933.693	1
934.424	0
935.155	0
935.886	0
936.617	0
937.348	0
938.078	0
938.809	0
939.54	0
940.27	1
941.001	-1
941.731	1
942.461	2
943.191	-2
943.922	-2
944.652	1
945.382	-2
946.112	0
946.841	-1
947.571	-1
948.301	-1
949.031	-1
949.76	0
950.49	0
951.219	0
951.948	1
952.678	1
953.407	1
954.136	-2
954.865	1
955.594	2
956.323	0
957.052	0
957.78	0
958.509	2
959.238	3
959.966	-1
960.695	-1
961.423	0
962.151	0
962.88	1
963.608	1
964.336	-1
965.064	0
965.792	1
966.52	1
967.247	-2
967.975	1
968.703	1
969.43	1
970.158	0
970.885	-1
971.613	3
972.34	0
973.067	0
973.794	0
974.521	-1
975.248	-1
975.975	1
976.702	4
977.429	1
978.156	0
978.882	-1
979.609	-2
980.335	1
981.062	-1
981.788	2
982.514	-2
983.24	-1
983.967	0
984.693	0
985.419	-1
986.144	-1
986.87	-1
987.596	0
988.322	1
989.047	0
989.773	0
990.498	-1
991.224	1
991.949	2
992.674	0
993.399	1
994.124	0
994.849	1
995.574	1
996.299	-1
997.024	2
997.749	-2
998.473	0
999.198	2
999.922	0
1000.647	0
1001.371	2
1002.095	0
1002.82	-2
1003.544	-3
1004.268	4
1004.992	0
1005.716	3
1006.439	3
1007.163	3
1007.887	2
1008.611	-3
1009.334	1
1010.058	-2
1010.781	1
1011.504	2
1012.228	2
1012.951	1
1013.674	0
1014.397	0
1015.12	2
