节点500_425_QEPB04081__485__15-56-22-562.txt的数据

Date: Wed Nov 12 15:56:22 CST 2025
User: PC
Spectrometer: QEPB0408
触发模式: 0
积分时间 (秒): 1.000000E-2
Scans to average: 1
启用暗噪声校正: true
启用非线性校正: false
滑动平均宽度: 0
X轴模式: Wavelengths
Number of Pixels in Spectrum: 1044
>>>>>Begin Spectral Data<<<<<
220.843	2.62
221.644	1.62
222.444	-0.38
223.244	1.62
224.045	3.62
224.845	2.62
225.645	3.62
226.445	2.62
227.245	5.62
228.045	4.62
228.845	4.62
229.645	1.62
230.444	3.62
231.244	4.62
232.043	2.62
232.843	5.62
233.642	2.62
234.442	4.62
235.241	4.62
236.04	5.62
236.839	5.62
237.638	4.62
238.437	6.62
239.236	4.62
240.035	6.62
240.833	4.62
241.632	5.62
242.43	5.62
243.229	5.62
244.027	6.62
244.826	5.62
245.624	6.62
246.422	7.62
247.22	9.62
248.018	8.62
248.816	6.62
249.614	6.62
250.412	6.62
251.21	9.62
252.007	9.62
252.805	7.62
253.602	10.62
254.4	7.62
255.197	9.62
255.994	9.62
256.791	11.62
257.589	13.62
258.386	13.62
259.183	12.62
259.979	15.62
260.776	11.62
261.573	12.62
262.37	12.62
263.166	13.62
263.963	16.62
264.759	16.62
265.556	12.62
266.352	16.62
267.148	16.62
267.944	16.62
268.74	16.62
269.536	15.62
270.332	16.62
271.128	19.62
271.924	18.62
272.719	20.62
273.515	19.62
274.311	18.62
275.106	16.62
275.901	18.62
276.697	21.62
277.492	20.62
278.287	25.62
279.082	19.62
279.877	20.62
280.672	24.62
281.467	22.62
282.262	23.62
283.056	24.62
283.851	22.62
284.646	22.62
285.44	23.62
286.234	21.62
287.029	22.62
287.823	20.62
288.617	21.62
289.411	23.62
290.205	18.62
290.999	21.62
291.793	23.62
292.587	23.62
293.381	22.62
294.174	22.62
294.968	18.62
295.761	20.62
296.555	22.62
297.348	20.62
298.141	17.62
298.935	21.62
299.728	20.62
300.521	13.62
301.314	18.62
302.107	15.62
302.899	12.62
303.692	16.62
304.485	16.62
305.277	13.62
306.07	15.62
306.862	15.62
307.655	13.62
308.447	15.62
309.239	17.62
310.031	14.62
310.823	12.62
311.615	12.62
312.407	7.62
313.199	12.62
313.991	14.62
314.783	12.62
315.574	11.62
316.366	8.62
317.157	9.62
317.949	10.62
318.74	10.62
319.531	8.62
320.322	9.62
321.113	7.62
321.904	9.62
322.695	10.62
323.486	10.62
324.277	9.62
325.068	11.62
325.858	9.62
326.649	6.62
327.439	8.62
328.23	7.62
329.02	5.62
329.81	9.62
330.6	8.62
331.391	7.62
332.181	7.62
332.971	6.62
333.76	6.62
334.55	6.62
335.34	7.62
336.13	7.62
336.919	5.62
337.709	6.62
338.498	6.62
339.287	8.62
340.077	8.62
340.866	4.62
341.655	9.62
342.444	8.62
343.233	10.62
344.022	7.62
344.811	8.62
345.6	5.62
346.388	7.62
347.177	7.62
347.965	5.62
348.754	6.62
349.542	6.62
350.33	6.62
351.119	8.62
351.907	5.62
352.695	6.62
353.483	7.62
354.271	7.62
355.059	8.62
355.846	5.62
356.634	6.62
357.422	4.62
358.209	5.62
358.997	7.62
359.784	6.62
360.571	4.62
361.359	6.62
362.146	8.62
362.933	6.62
363.72	5.62
364.507	4.62
365.294	5.62
366.081	4.62
366.867	3.62
367.654	7.62
368.44	5.62
369.227	6.62
370.013	6.62
370.8	4.62
371.586	5.62
372.372	6.62
373.158	3.62
373.944	6.62
374.73	3.62
375.516	6.62
376.302	6.62
377.088	5.62
377.873	4.62
378.659	8.62
379.445	5.62
380.23	5.62
381.015	4.62
381.801	4.62
382.586	7.62
383.371	5.62
384.156	6.62
384.941	7.62
385.726	3.62
386.511	7.62
387.296	7.62
388.08	6.62
388.865	5.62
389.649	6.62
390.434	7.62
391.218	6.62
392.003	9.62
392.787	7.62
393.571	6.62
394.355	10.62
395.139	5.62
395.923	7.62
396.707	9.62
397.491	6.62
398.274	7.62
399.058	8.62
399.842	10.62
400.625	7.62
401.408	7.62
402.192	7.62
402.975	10.62
403.758	8.62
404.541	6.62
405.324	9.62
406.107	10.62
406.89	9.62
407.673	9.62
408.456	10.62
409.238	8.62
410.021	10.62
410.803	10.62
411.586	11.62
412.368	9.62
413.151	12.62
413.933	9.62
414.715	11.62
415.497	10.62
416.279	13.62
417.061	11.62
417.843	12.62
418.624	13.62
419.406	13.62
420.188	13.62
420.969	15.62
421.751	13.62
422.532	15.62
423.313	13.62
424.095	15.62
424.876	14.62
425.657	13.62
426.438	18.62
427.219	16.62
428	17.62
428.78	17.62
429.561	16.62
430.342	18.62
431.122	16.62
431.903	17.62
432.683	20.62
433.464	20.62
434.244	23.62
435.024	23.62
435.804	24.62
436.584	24.62
437.364	27.62
438.144	30.62
438.924	33.62
439.704	29.62
440.483	35.62
441.263	33.62
442.042	36.62
442.822	39.62
443.601	40.62
444.38	46.62
445.16	51.62
445.939	51.62
446.718	59.62
447.497	64.62
448.276	68.62
449.054	75.62
449.833	81.62
450.612	89.62
451.391	99.62
452.169	110.62
452.948	120.62
453.726	135.62
454.504	141.62
455.282	155.62
456.061	180.62
456.839	197.62
457.617	225.62
458.395	244.62
459.172	278.62
459.95	303.62
460.728	338.62
461.506	378.62
462.283	413.62
463.061	462.62
463.838	525.62
464.615	586.62
465.393	653.62
466.17	719.62
466.947	796.62
467.724	889.62
468.501	968.62
469.278	1090.62
470.055	1199.62
470.831	1336.62
471.608	1452.62
472.385	1615.62
473.161	1777.62
473.938	1955.62
474.714	2167.62
475.49	2369.62
476.266	2598.62
477.043	2855.62
477.819	3121.62
478.595	3445.62
479.371	3764.62
480.146	4112.62
480.922	4525.62
481.698	4903.62
482.473	5373.62
483.249	5825.62
484.024	6377.62
484.8	6970.62
485.575	7526.62
486.35	8220.62
487.126	8906.62
487.901	9661.62
488.676	10466.62
489.451	11347.62
490.225	12272.62
491	13318.62
491.775	14385.62
492.55	15483.62
493.324	16637.62
494.099	17817.62
494.873	18981.62
495.647	20266.62
496.422	21553.62
497.196	22923.62
497.97	24316.62
498.744	25586.62
499.518	26870.62
500.292	28047.62
501.066	29131.62
501.839	30236.62
502.613	31217.62
503.387	32026.62
504.16	32633.62
504.934	33123.62
505.707	33325.62
506.48	33390.62
507.253	33413.62
508.027	33180.62
508.8	32857.62
509.573	32385.62
510.346	31740.62
511.118	30950.62
511.891	30068.62
512.664	29149.62
513.437	28113.62
514.209	27163.62
514.982	26246.62
515.754	25289.62
516.526	24234.62
517.298	23244.62
518.071	22250.62
518.843	21345.62
519.615	20512.62
520.387	19692.62
521.159	18978.62
521.93	18253.62
522.702	17517.62
523.474	16845.62
524.245	16143.62
525.017	15437.62
525.788	14774.62
526.56	14100.62
527.331	13523.62
528.102	12908.62
528.873	12311.62
529.644	11728.62
530.415	11220.62
531.186	10703.62
531.957	10125.62
532.728	9598.62
533.498	9125.62
534.269	8631.62
535.039	8208.62
535.81	7735.62
536.58	7337.62
537.351	6928.62
538.121	6553.62
538.891	6214.62
539.661	5866.62
540.431	5564.62
541.201	5287.62
541.971	4995.62
542.741	4744.62
543.51	4505.62
544.28	4267.62
545.05	4056.62
545.819	3878.62
546.588	3685.62
547.358	3507.62
548.127	3293.62
548.896	3149.62
549.665	2993.62
550.434	2846.62
551.203	2695.62
551.972	2549.62
552.741	2398.62
553.51	2275.62
554.278	2171.62
555.047	2021.62
555.815	1916.62
556.584	1824.62
557.352	1723.62
558.121	1641.62
558.889	1531.62
559.657	1460.62
560.425	1366.62
561.193	1299.62
561.961	1221.62
562.729	1175.62
563.496	1103.62
564.264	1030.62
565.032	986.62
565.799	930.62
566.567	878.62
567.334	826.62
568.101	774.62
568.869	741.62
569.636	689.62
570.403	649.62
571.17	624.62
571.937	587.62
572.704	553.62
573.471	528.62
574.237	494.62
575.004	463.62
575.771	436.62
576.537	406.62
577.303	387.62
578.07	363.62
578.836	346.62
579.602	326.62
580.368	309.62
581.134	292.62
581.9	279.62
582.666	257.62
583.432	247.62
584.198	238.62
584.964	223.62
585.729	217.62
586.495	207.62
587.26	188.62
588.025	183.62
588.791	160.62
589.556	165.62
590.321	155.62
591.086	151.62
591.851	139.62
592.616	133.62
593.381	130.62
594.146	123.62
594.911	114.62
595.675	112.62
596.44	105.62
597.204	98.62
597.969	96.62
598.733	89.62
599.497	84.62
600.261	82.62
601.025	77.62
601.79	73.62
602.553	75.62
603.317	67.62
604.081	67.62
604.845	61.62
605.609	63.62
606.372	58.62
607.136	55.62
607.899	51.62
608.662	50.62
609.426	47.62
610.189	49.62
610.952	45.62
611.715	43.62
612.478	40.62
613.241	38.62
614.004	39.62
614.767	32.62
615.529	36.62
616.292	35.62
617.055	34.62
617.817	29.62
618.579	32.62
619.342	31.62
620.104	27.62
620.866	30.62
621.628	28.62
622.39	28.62
623.152	25.62
623.914	24.62
624.676	23.62
625.438	23.62
626.199	23.62
626.961	21.62
627.722	20.62
628.484	22.62
629.245	17.62
630.006	20.62
630.768	18.62
631.529	18.62
632.29	16.62
633.051	15.62
633.812	16.62
634.573	17.62
635.333	13.62
636.094	16.62
636.855	15.62
637.615	14.62
638.376	11.62
639.136	13.62
639.896	13.62
640.657	13.62
641.417	10.62
642.177	9.62
642.937	12.62
643.697	11.62
644.457	11.62
645.216	7.62
645.976	9.62
646.736	13.62
647.495	10.62
648.255	9.62
649.014	9.62
649.774	9.62
650.533	11.62
651.292	8.62
652.051	9.62
652.81	9.62
653.569	9.62
654.328	9.62
655.087	8.62
655.846	8.62
656.604	6.62
657.363	8.62
658.121	8.62
658.88	6.62
659.638	8.62
660.397	6.62
661.155	5.62
661.913	6.62
662.671	6.62
663.429	6.62
664.187	5.62
664.945	7.62
665.703	3.62
666.46	7.62
667.218	4.62
667.976	8.62
668.733	5.62
669.49	3.62
670.248	6.62
671.005	5.62
671.762	5.62
672.519	5.62
673.276	5.62
674.033	3.62
674.79	4.62
675.547	4.62
676.304	3.62
677.06	4.62
677.817	4.62
678.574	6.62
679.33	3.62
680.086	7.62
680.843	7.62
681.599	4.62
682.355	3.62
683.111	5.62
683.867	3.62
684.623	5.62
685.379	4.62
686.135	4.62
686.89	5.62
687.646	2.62
688.402	4.62
689.157	1.62
689.912	4.62
690.668	6.62
691.423	4.62
692.178	2.62
692.933	3.62
693.688	3.62
694.443	3.62
695.198	3.62
695.953	2.62
696.708	4.62
697.462	2.62
698.217	5.62
698.972	4.62
699.726	4.62
700.48	3.62
701.235	3.62
701.989	2.62
702.743	4.62
703.497	2.62
704.251	5.62
705.005	2.62
705.759	2.62
706.513	4.62
707.266	2.62
708.02	5.62
708.774	6.62
709.527	3.62
710.28	3.62
711.034	2.62
711.787	3.62
712.54	2.62
713.293	2.62
714.046	5.62
714.799	3.62
715.552	5.62
716.305	3.62
717.058	7.62
717.81	5.62
718.563	4.62
719.315	2.62
720.068	4.62
720.82	4.62
721.573	4.62
722.325	5.62
723.077	6.62
723.829	2.62
724.581	3.62
725.333	3.62
726.085	3.62
726.836	3.62
727.588	4.62
728.34	5.62
729.091	4.62
729.843	5.62
730.594	4.62
731.346	5.62
732.097	5.62
732.848	5.62
733.599	3.62
734.35	4.62
735.101	5.62
735.852	7.62
736.603	7.62
737.354	6.62
738.104	3.62
738.855	6.62
739.605	6.62
740.356	4.62
741.106	6.62
741.856	4.62
742.607	6.62
743.357	4.62
744.107	6.62
744.857	9.62
745.607	7.62
746.357	6.62
747.106	5.62
747.856	7.62
748.606	6.62
749.355	6.62
750.105	3.62
750.854	5.62
751.603	6.62
752.353	6.62
753.102	5.62
753.851	7.62
754.6	4.62
755.349	7.62
756.098	6.62
756.847	5.62
757.595	6.62
758.344	6.62
759.093	8.62
759.841	6.62
760.589	9.62
761.338	6.62
762.086	9.62
762.834	6.62
763.582	8.62
764.331	6.62
765.079	6.62
765.826	5.62
766.574	7.62
767.322	8.62
768.07	8.62
768.817	6.62
769.565	8.62
770.312	5.62
771.06	10.62
771.807	7.62
772.554	10.62
773.302	9.62
774.049	6.62
774.796	10.62
775.543	9.62
776.29	11.62
777.036	8.62
777.783	8.62
778.53	9.62
779.276	8.62
780.023	9.62
780.769	9.62
781.516	11.62
782.262	14.62
783.008	9.62
783.754	11.62
784.5	8.62
785.246	10.62
785.992	8.62
786.738	11.62
787.484	11.62
788.23	9.62
788.975	8.62
789.721	12.62
790.466	9.62
791.212	11.62
791.957	8.62
792.702	9.62
793.447	10.62
794.193	12.62
794.938	9.62
795.683	7.62
796.427	10.62
797.172	10.62
797.917	9.62
798.662	9.62
799.406	4.62
800.151	9.62
800.895	7.62
801.64	6.62
802.384	9.62
803.128	9.62
803.872	6.62
804.616	9.62
805.36	7.62
806.104	6.62
806.848	6.62
807.592	4.62
808.336	7.62
809.079	5.62
809.823	5.62
810.566	8.62
811.31	6.62
812.053	7.62
812.796	6.62
813.539	6.62
814.283	6.62
815.026	5.62
815.769	5.62
816.511	4.62
817.254	5.62
817.997	6.62
818.74	3.62
819.482	4.62
820.225	3.62
820.967	3.62
821.71	4.62
822.452	6.62
823.194	3.62
823.936	5.62
824.678	5.62
825.42	2.62
826.162	3.62
826.904	4.62
827.646	3.62
828.388	0.62
829.129	3.62
829.871	4.62
830.612	3.62
831.354	3.62
832.095	4.62
832.836	2.62
833.577	3.62
834.319	4.62
835.06	3.62
835.801	3.62
836.542	3.62
837.282	2.62
838.023	3.62
838.764	3.62
839.504	2.62
840.245	2.62
840.985	3.62
841.726	4.62
842.466	5.62
843.206	2.62
843.946	3.62
844.687	3.62
845.427	3.62
846.166	3.62
846.906	2.62
847.646	3.62
848.386	2.62
849.125	4.62
849.865	5.62
850.605	1.62
851.344	0.62
852.083	3.62
852.823	3.62
853.562	2.62
854.301	1.62
855.04	2.62
855.779	0.62
856.518	0.62
857.257	1.62
857.995	3.62
858.734	1.62
859.473	2.62
860.211	1.62
860.95	-0.38
861.688	4.62
862.426	3.62
863.165	3.62
863.903	0.62
864.641	2.62
865.379	1.62
866.117	1.62
866.855	1.62
867.593	0.62
868.33	0.62
869.068	1.62
869.806	0.62
870.543	1.62
871.28	1.62
872.018	0.62
872.755	-0.38
873.492	1.62
874.229	1.62
874.967	-0.38
875.703	1.62
876.44	0.62
877.177	-1.38
877.914	0.62
878.651	0.62
879.387	0.62
880.124	0.62
880.86	-0.38
881.597	1.62
882.333	2.62
883.069	0.62
883.806	0.62
884.542	0.62
885.278	0.62
886.014	0.62
886.749	-0.38
887.485	0.62
888.221	1.62
888.957	0.62
889.692	2.62
890.428	0.62
891.163	0.62
891.899	-0.38
892.634	-0.38
893.369	-0.38
894.104	-0.38
894.839	0.62
895.574	-0.38
896.309	-0.38
897.044	-0.38
897.779	-0.38
898.514	-1.38
899.248	-1.38
899.983	1.62
900.717	0.62
901.452	-0.38
902.186	1.62
902.92	0.62
903.654	0.62
904.389	0.62
905.123	-1.38
905.857	1.62
906.59	1.62
907.324	-2.38
908.058	-0.38
908.792	1.62
909.525	-0.38
910.259	0.62
910.992	0.62
911.726	1.62
912.459	-0.38
913.192	2.62
913.925	-2.38
914.658	1.62
915.391	-1.38
916.124	-2.38
916.857	-0.38
917.59	-2.38
918.323	0.62
919.055	0.62
919.788	1.62
920.521	0.62
921.253	-1.38
921.985	-0.38
922.718	-1.38
923.45	0.62
924.182	-0.38
924.914	-1.38
925.646	-1.38
926.378	0.62
927.11	-2.38
927.841	-0.38
928.573	-0.38
929.305	-1.38
930.036	-0.38
930.768	0.62
931.499	-2.38
932.23	1.62
932.962	-0.38
933.693	0.62
934.424	-1.38
935.155	-0.38
935.886	1.62
936.617	-1.38
937.348	0.62
938.078	-2.38
938.809	-1.38
939.54	-1.38
940.27	-2.38
941.001	1.62
941.731	-0.38
942.461	-1.38
943.191	0.62
943.922	-0.38
944.652	-2.38
945.382	-2.38
946.112	-0.38
946.841	-1.38
947.571	-1.38
948.301	0.62
949.031	-1.38
949.76	-1.38
950.49	-2.38
951.219	-2.38
951.948	0.62
952.678	-0.38
953.407	-1.38
954.136	-0.38
954.865	0.62
955.594	0.62
956.323	-0.38
957.052	-0.38
957.78	-2.38
958.509	-0.38
959.238	-2.38
959.966	0.62
960.695	-0.38
961.423	0.62
962.151	-1.38
962.88	0.62
963.608	-0.38
964.336	-1.38
965.064	0.62
965.792	-2.38
966.52	-1.38
967.247	-0.38
967.975	-0.38
968.703	-0.38
969.43	-0.38
970.158	-0.38
970.885	-1.38
971.613	-2.38
972.34	-1.38
973.067	0.62
973.794	-1.38
974.521	0.62
975.248	-0.38
975.975	0.62
976.702	-1.38
977.429	-2.38
978.156	0.62
978.882	0.62
979.609	-2.38
980.335	-2.38
981.062	0.62
981.788	0.62
982.514	0.62
983.24	-0.38
983.967	-0.38
984.693	0.62
985.419	0.62
986.144	-0.38
986.87	-0.38
987.596	1.62
988.322	-0.38
989.047	-2.38
989.773	1.62
990.498	-0.38
991.224	-3.38
991.949	0.62
992.674	-1.38
993.399	-0.38
994.124	0.62
994.849	1.62
995.574	-0.38
996.299	-1.38
997.024	0.62
997.749	-1.38
998.473	-1.38
999.198	-0.38
999.922	-0.38
1000.647	-0.38
1001.371	1.62
1002.095	1.62
1002.82	-1.38
1003.544	-2.38
1004.268	0.62
1004.992	-0.38
1005.716	1.62
1006.439	3.62
1007.163	2.62
1007.887	1.62
1008.611	0.62
1009.334	1.62
1010.058	-0.38
1010.781	0.62
1011.504	0.62
1012.228	0.62
1012.951	2.62
1013.674	-3.38
1014.397	2.62
1015.12	-1.38
