节点500_425_QEPB04081__464__15-56-01-580.txt的数据

Date: Wed Nov 12 15:56:01 CST 2025
User: PC
Spectrometer: QEPB0408
触发模式: 0
积分时间 (秒): 1.000000E-2
Scans to average: 1
启用暗噪声校正: true
启用非线性校正: false
滑动平均宽度: 0
X轴模式: Wavelengths
Number of Pixels in Spectrum: 1044
>>>>>Begin Spectral Data<<<<<
220.843	2.88
221.644	1.88
222.444	4.88
223.244	1.88
224.045	1.88
224.845	0.88
225.645	-0.12
226.445	2.88
227.245	2.88
228.045	5.88
228.845	2.88
229.645	3.88
230.444	4.88
231.244	3.88
232.043	5.88
232.843	1.88
233.642	3.88
234.442	4.88
235.241	4.88
236.04	4.88
236.839	4.88
237.638	6.88
238.437	3.88
239.236	5.88
240.035	6.88
240.833	7.88
241.632	6.88
242.43	5.88
243.229	3.88
244.027	6.88
244.826	6.88
245.624	5.88
246.422	5.88
247.22	6.88
248.018	8.88
248.816	9.88
249.614	9.88
250.412	8.88
251.21	8.88
252.007	5.88
252.805	9.88
253.602	9.88
254.4	8.88
255.197	11.88
255.994	11.88
256.791	11.88
257.589	9.88
258.386	14.88
259.183	9.88
259.979	10.88
260.776	13.88
261.573	9.88
262.37	13.88
263.166	13.88
263.963	13.88
264.759	15.88
265.556	14.88
266.352	17.88
267.148	16.88
267.944	16.88
268.74	19.88
269.536	17.88
270.332	18.88
271.128	17.88
271.924	20.88
272.719	19.88
273.515	15.88
274.311	23.88
275.106	19.88
275.901	22.88
276.697	20.88
277.492	23.88
278.287	22.88
279.082	22.88
279.877	21.88
280.672	20.88
281.467	22.88
282.262	23.88
283.056	24.88
283.851	24.88
284.646	22.88
285.44	22.88
286.234	21.88
287.029	23.88
287.823	22.88
288.617	19.88
289.411	22.88
290.205	19.88
290.999	23.88
291.793	22.88
292.587	23.88
293.381	21.88
294.174	20.88
294.968	19.88
295.761	16.88
296.555	17.88
297.348	21.88
298.141	19.88
298.935	19.88
299.728	17.88
300.521	17.88
301.314	15.88
302.107	20.88
302.899	15.88
303.692	15.88
304.485	13.88
305.277	13.88
306.07	15.88
306.862	15.88
307.655	15.88
308.447	16.88
309.239	14.88
310.031	12.88
310.823	13.88
311.615	13.88
312.407	13.88
313.199	13.88
313.991	10.88
314.783	9.88
315.574	10.88
316.366	11.88
317.157	11.88
317.949	9.88
318.74	7.88
319.531	10.88
320.322	8.88
321.113	9.88
321.904	7.88
322.695	9.88
323.486	7.88
324.277	6.88
325.068	10.88
325.858	10.88
326.649	9.88
327.439	8.88
328.23	7.88
329.02	8.88
329.81	7.88
330.6	8.88
331.391	8.88
332.181	8.88
332.971	9.88
333.76	6.88
334.55	7.88
335.34	7.88
336.13	5.88
336.919	7.88
337.709	6.88
338.498	6.88
339.287	8.88
340.077	8.88
340.866	8.88
341.655	5.88
342.444	7.88
343.233	5.88
344.022	8.88
344.811	7.88
345.6	8.88
346.388	6.88
347.177	6.88
347.965	8.88
348.754	8.88
349.542	6.88
350.33	5.88
351.119	6.88
351.907	4.88
352.695	6.88
353.483	7.88
354.271	7.88
355.059	6.88
355.846	9.88
356.634	5.88
357.422	7.88
358.209	6.88
358.997	6.88
359.784	5.88
360.571	8.88
361.359	8.88
362.146	5.88
362.933	7.88
363.72	6.88
364.507	6.88
365.294	6.88
366.081	7.88
366.867	7.88
367.654	7.88
368.44	2.88
369.227	4.88
370.013	5.88
370.8	4.88
371.586	4.88
372.372	5.88
373.158	6.88
373.944	5.88
374.73	4.88
375.516	4.88
376.302	7.88
377.088	7.88
377.873	6.88
378.659	6.88
379.445	6.88
380.23	5.88
381.015	4.88
381.801	6.88
382.586	5.88
383.371	7.88
384.156	7.88
384.941	5.88
385.726	6.88
386.511	7.88
387.296	7.88
388.08	4.88
388.865	5.88
389.649	8.88
390.434	6.88
391.218	7.88
392.003	5.88
392.787	7.88
393.571	6.88
394.355	6.88
395.139	7.88
395.923	8.88
396.707	7.88
397.491	7.88
398.274	6.88
399.058	9.88
399.842	6.88
400.625	9.88
401.408	7.88
402.192	8.88
402.975	8.88
403.758	7.88
404.541	9.88
405.324	8.88
406.107	11.88
406.89	7.88
407.673	9.88
408.456	10.88
409.238	9.88
410.021	9.88
410.803	11.88
411.586	11.88
412.368	10.88
413.151	8.88
413.933	12.88
414.715	9.88
415.497	11.88
416.279	12.88
417.061	12.88
417.843	13.88
418.624	13.88
419.406	11.88
420.188	12.88
420.969	13.88
421.751	10.88
422.532	13.88
423.313	17.88
424.095	17.88
424.876	16.88
425.657	15.88
426.438	13.88
427.219	19.88
428	16.88
428.78	16.88
429.561	17.88
430.342	15.88
431.122	18.88
431.903	21.88
432.683	22.88
433.464	19.88
434.244	22.88
435.024	21.88
435.804	21.88
436.584	26.88
437.364	25.88
438.144	32.88
438.924	31.88
439.704	31.88
440.483	34.88
441.263	33.88
442.042	39.88
442.822	41.88
443.601	40.88
444.38	43.88
445.16	45.88
445.939	53.88
446.718	54.88
447.497	62.88
448.276	66.88
449.054	76.88
449.833	82.88
450.612	86.88
451.391	99.88
452.169	107.88
452.948	121.88
453.726	127.88
454.504	148.88
455.282	160.88
456.061	175.88
456.839	196.88
457.617	217.88
458.395	245.88
459.172	273.88
459.95	307.88
460.728	337.88
461.506	378.88
462.283	423.88
463.061	465.88
463.838	527.88
464.615	583.88
465.393	643.88
466.17	721.88
466.947	794.88
467.724	881.88
468.501	978.88
469.278	1076.88
470.055	1188.88
470.831	1332.88
471.608	1464.88
472.385	1606.88
473.161	1786.88
473.938	1957.88
474.714	2155.88
475.49	2375.88
476.266	2629.88
477.043	2856.88
477.819	3153.88
478.595	3432.88
479.371	3758.88
480.146	4140.88
480.922	4554.88
481.698	4953.88
482.473	5356.88
483.249	5878.88
484.024	6406.88
484.8	6982.88
485.575	7572.88
486.35	8235.88
487.126	8935.88
487.901	9738.88
488.676	10604.88
489.451	11475.88
490.225	12387.88
491	13390.88
491.775	14483.88
492.55	15570.88
493.324	16757.88
494.099	17969.88
494.873	19104.88
495.647	20457.88
496.422	21718.88
497.196	23046.88
497.97	24426.88
498.744	25787.88
499.518	27107.88
500.292	28269.88
501.066	29277.88
501.839	30536.88
502.613	31419.88
503.387	32197.88
504.16	32843.88
504.934	33303.88
505.707	33494.88
506.48	33621.88
507.253	33465.88
508.027	33250.88
508.8	32985.88
509.573	32406.88
510.346	31751.88
511.118	30929.88
511.891	30168.88
512.664	29235.88
513.437	28151.88
514.209	27078.88
514.982	26263.88
515.754	25237.88
516.526	24150.88
517.298	23126.88
518.071	22173.88
518.843	21256.88
519.615	20435.88
520.387	19637.88
521.159	18889.88
521.93	18211.88
522.702	17401.88
523.474	16766.88
524.245	16066.88
525.017	15403.88
525.788	14704.88
526.56	14059.88
527.331	13444.88
528.102	12808.88
528.873	12261.88
529.644	11639.88
530.415	11204.88
531.186	10649.88
531.957	10119.88
532.728	9589.88
533.498	9120.88
534.269	8574.88
535.039	8134.88
535.81	7723.88
536.58	7280.88
537.351	6843.88
538.121	6477.88
538.891	6107.88
539.661	5822.88
540.431	5532.88
541.201	5207.88
541.971	4997.88
542.741	4720.88
543.51	4459.88
544.28	4236.88
545.05	4027.88
545.819	3846.88
546.588	3666.88
547.358	3472.88
548.127	3293.88
548.896	3110.88
549.665	2979.88
550.434	2826.88
551.203	2682.88
551.972	2516.88
552.741	2394.88
553.51	2266.88
554.278	2128.88
555.047	2014.88
555.815	1891.88
556.584	1800.88
557.352	1702.88
558.121	1609.88
558.889	1524.88
559.657	1448.88
560.425	1347.88
561.193	1286.88
561.961	1213.88
562.729	1142.88
563.496	1084.88
564.264	1026.88
565.032	963.88
565.799	917.88
566.567	867.88
567.334	829.88
568.101	775.88
568.869	739.88
569.636	684.88
570.403	655.88
571.17	614.88
571.937	574.88
572.704	558.88
573.471	528.88
574.237	490.88
575.004	458.88
575.771	430.88
576.537	411.88
577.303	383.88
578.07	362.88
578.836	342.88
579.602	320.88
580.368	305.88
581.134	294.88
581.9	280.88
582.666	258.88
583.432	246.88
584.198	231.88
584.964	225.88
585.729	211.88
586.495	203.88
587.26	188.88
588.025	177.88
588.791	172.88
589.556	164.88
590.321	154.88
591.086	146.88
591.851	138.88
592.616	129.88
593.381	123.88
594.146	120.88
594.911	107.88
595.675	108.88
596.44	103.88
597.204	98.88
597.969	92.88
598.733	86.88
599.497	83.88
600.261	83.88
601.025	77.88
601.79	74.88
602.553	64.88
603.317	71.88
604.081	66.88
604.845	59.88
605.609	60.88
606.372	57.88
607.136	54.88
607.899	50.88
608.662	52.88
609.426	46.88
610.189	46.88
610.952	45.88
611.715	45.88
612.478	41.88
613.241	41.88
614.004	40.88
614.767	38.88
615.529	35.88
616.292	35.88
617.055	33.88
617.817	29.88
618.579	31.88
619.342	29.88
620.104	27.88
620.866	27.88
621.628	27.88
622.39	27.88
623.152	26.88
623.914	25.88
624.676	22.88
625.438	22.88
626.199	21.88
626.961	22.88
627.722	23.88
628.484	19.88
629.245	18.88
630.006	17.88
630.768	20.88
631.529	15.88
632.29	14.88
633.051	19.88
633.812	15.88
634.573	16.88
635.333	16.88
636.094	11.88
636.855	16.88
637.615	16.88
638.376	15.88
639.136	12.88
639.896	13.88
640.657	12.88
641.417	13.88
642.177	11.88
642.937	11.88
643.697	13.88
644.457	11.88
645.216	10.88
645.976	8.88
646.736	8.88
647.495	9.88
648.255	9.88
649.014	8.88
649.774	12.88
650.533	11.88
651.292	11.88
652.051	10.88
652.81	7.88
653.569	7.88
654.328	7.88
655.087	5.88
655.846	9.88
656.604	8.88
657.363	4.88
658.121	8.88
658.88	8.88
659.638	10.88
660.397	7.88
661.155	5.88
661.913	6.88
662.671	4.88
663.429	6.88
664.187	7.88
664.945	6.88
665.703	5.88
666.46	3.88
667.218	7.88
667.976	4.88
668.733	5.88
669.49	5.88
670.248	4.88
671.005	3.88
671.762	4.88
672.519	5.88
673.276	3.88
674.033	4.88
674.79	6.88
675.547	4.88
676.304	4.88
677.06	5.88
677.817	6.88
678.574	5.88
679.33	4.88
680.086	3.88
680.843	3.88
681.599	3.88
682.355	5.88
683.111	2.88
683.867	6.88
684.623	5.88
685.379	4.88
686.135	3.88
686.89	5.88
687.646	4.88
688.402	5.88
689.157	5.88
689.912	3.88
690.668	5.88
691.423	6.88
692.178	7.88
692.933	2.88
693.688	4.88
694.443	1.88
695.198	5.88
695.953	7.88
696.708	5.88
697.462	5.88
698.217	3.88
698.972	4.88
699.726	4.88
700.48	4.88
701.235	5.88
701.989	4.88
702.743	4.88
703.497	5.88
704.251	3.88
705.005	3.88
705.759	2.88
706.513	3.88
707.266	4.88
708.02	2.88
708.774	5.88
709.527	3.88
710.28	3.88
711.034	3.88
711.787	1.88
712.54	3.88
713.293	4.88
714.046	5.88
714.799	4.88
715.552	3.88
716.305	5.88
717.058	3.88
717.81	5.88
718.563	3.88
719.315	4.88
720.068	3.88
720.82	2.88
721.573	5.88
722.325	2.88
723.077	4.88
723.829	3.88
724.581	5.88
725.333	4.88
726.085	4.88
726.836	4.88
727.588	3.88
728.34	3.88
729.091	4.88
729.843	1.88
730.594	3.88
731.346	5.88
732.097	5.88
732.848	2.88
733.599	6.88
734.35	6.88
735.101	4.88
735.852	6.88
736.603	7.88
737.354	2.88
738.104	4.88
738.855	2.88
739.605	5.88
740.356	5.88
741.106	3.88
741.856	3.88
742.607	6.88
743.357	6.88
744.107	3.88
744.857	7.88
745.607	3.88
746.357	5.88
747.106	6.88
747.856	4.88
748.606	5.88
749.355	3.88
750.105	5.88
750.854	5.88
751.603	3.88
752.353	7.88
753.102	5.88
753.851	8.88
754.6	7.88
755.349	5.88
756.098	5.88
756.847	5.88
757.595	6.88
758.344	6.88
759.093	10.88
759.841	9.88
760.589	9.88
761.338	5.88
762.086	5.88
762.834	5.88
763.582	6.88
764.331	6.88
765.079	8.88
765.826	7.88
766.574	8.88
767.322	7.88
768.07	7.88
768.817	9.88
769.565	10.88
770.312	9.88
771.06	10.88
771.807	10.88
772.554	7.88
773.302	9.88
774.049	9.88
774.796	8.88
775.543	7.88
776.29	7.88
777.036	8.88
777.783	10.88
778.53	8.88
779.276	9.88
780.023	8.88
780.769	11.88
781.516	9.88
782.262	10.88
783.008	12.88
783.754	11.88
784.5	11.88
785.246	8.88
785.992	12.88
786.738	12.88
787.484	8.88
788.23	9.88
788.975	9.88
789.721	10.88
790.466	9.88
791.212	9.88
791.957	10.88
792.702	9.88
793.447	11.88
794.193	9.88
794.938	8.88
795.683	8.88
796.427	9.88
797.172	9.88
797.917	9.88
798.662	8.88
799.406	7.88
800.151	10.88
800.895	8.88
801.64	7.88
802.384	7.88
803.128	7.88
803.872	5.88
804.616	8.88
805.36	7.88
806.104	6.88
806.848	7.88
807.592	6.88
808.336	7.88
809.079	7.88
809.823	5.88
810.566	6.88
811.31	5.88
812.053	7.88
812.796	5.88
813.539	5.88
814.283	6.88
815.026	5.88
815.769	3.88
816.511	4.88
817.254	5.88
817.997	4.88
818.74	4.88
819.482	3.88
820.225	5.88
820.967	3.88
821.71	5.88
822.452	4.88
823.194	4.88
823.936	3.88
824.678	2.88
825.42	5.88
826.162	3.88
826.904	5.88
827.646	3.88
828.388	3.88
829.129	2.88
829.871	3.88
830.612	6.88
831.354	5.88
832.095	4.88
832.836	3.88
833.577	4.88
834.319	4.88
835.06	3.88
835.801	1.88
836.542	3.88
837.282	2.88
838.023	5.88
838.764	2.88
839.504	6.88
840.245	3.88
840.985	2.88
841.726	3.88
842.466	3.88
843.206	3.88
843.946	1.88
844.687	2.88
845.427	2.88
846.166	3.88
846.906	5.88
847.646	2.88
848.386	3.88
849.125	1.88
849.865	2.88
850.605	4.88
851.344	5.88
852.083	1.88
852.823	0.88
853.562	3.88
854.301	3.88
855.04	4.88
855.779	2.88
856.518	0.88
857.257	1.88
857.995	2.88
858.734	1.88
859.473	0.88
860.211	-0.12
860.95	0.88
861.688	1.88
862.426	1.88
863.165	2.88
863.903	4.88
864.641	2.88
865.379	2.88
866.117	2.88
866.855	-0.12
867.593	0.88
868.33	2.88
869.068	1.88
869.806	3.88
870.543	1.88
871.28	3.88
872.018	0.88
872.755	2.88
873.492	-0.12
874.229	-0.12
874.967	-0.12
875.703	1.88
876.44	0.88
877.177	3.88
877.914	2.88
878.651	-0.12
879.387	-2.12
880.124	1.88
880.86	-1.12
881.597	1.88
882.333	-2.12
883.069	1.88
883.806	1.88
884.542	-1.12
885.278	1.88
886.014	1.88
886.749	-0.12
887.485	-0.12
888.221	-0.12
888.957	-1.12
889.692	-0.12
890.428	-0.12
891.163	1.88
891.899	-2.12
892.634	-0.12
893.369	-2.12
894.104	0.88
894.839	0.88
895.574	0.88
896.309	-1.12
897.044	-2.12
897.779	0.88
898.514	-2.12
899.248	-0.12
899.983	0.88
900.717	-1.12
901.452	1.88
902.186	-1.12
902.92	-1.12
903.654	0.88
904.389	-0.12
905.123	0.88
905.857	-0.12
906.59	-0.12
907.324	-0.12
908.058	0.88
908.792	0.88
909.525	-0.12
910.259	2.88
910.992	-0.12
911.726	-1.12
912.459	1.88
913.192	0.88
913.925	1.88
914.658	1.88
915.391	0.88
916.124	-1.12
916.857	-1.12
917.59	-1.12
918.323	-2.12
919.055	-0.12
919.788	-0.12
920.521	0.88
921.253	0.88
921.985	1.88
922.718	1.88
923.45	-0.12
924.182	2.88
924.914	1.88
925.646	-1.12
926.378	-2.12
927.11	0.88
927.841	0.88
928.573	-0.12
929.305	-0.12
930.036	0.88
930.768	1.88
931.499	-0.12
932.23	-0.12
932.962	-1.12
933.693	0.88
934.424	-1.12
935.155	0.88
935.886	-2.12
936.617	1.88
937.348	-0.12
938.078	0.88
938.809	0.88
939.54	-0.12
940.27	-2.12
941.001	-1.12
941.731	-2.12
942.461	-0.12
943.191	-0.12
943.922	-1.12
944.652	-2.12
945.382	-1.12
946.112	-0.12
946.841	1.88
947.571	-0.12
948.301	-0.12
949.031	-0.12
949.76	0.88
950.49	-1.12
951.219	-0.12
951.948	2.88
952.678	-0.12
953.407	-2.12
954.136	-0.12
954.865	-1.12
955.594	-0.12
956.323	0.88
957.052	-1.12
957.78	-2.12
958.509	-0.12
959.238	-0.12
959.966	-0.12
960.695	0.88
961.423	-0.12
962.151	-0.12
962.88	-1.12
963.608	-2.12
964.336	0.88
965.064	-1.12
965.792	0.88
966.52	-0.12
967.247	-1.12
967.975	-0.12
968.703	0.88
969.43	-0.12
970.158	-3.12
970.885	-0.12
971.613	-0.12
972.34	-1.12
973.067	-0.12
973.794	0.88
974.521	-0.12
975.248	-0.12
975.975	-2.12
976.702	0.88
977.429	0.88
978.156	0.88
978.882	-2.12
979.609	0.88
980.335	-0.12
981.062	-1.12
981.788	-0.12
982.514	-2.12
983.24	0.88
983.967	-0.12
984.693	-0.12
985.419	-2.12
986.144	0.88
986.87	-0.12
987.596	-1.12
988.322	-0.12
989.047	0.88
989.773	-1.12
990.498	0.88
991.224	-1.12
991.949	-1.12
992.674	-0.12
993.399	-1.12
994.124	-2.12
994.849	0.88
995.574	-0.12
996.299	0.88
997.024	-0.12
997.749	1.88
998.473	-0.12
999.198	-0.12
999.922	0.88
1000.647	-0.12
1001.371	1.88
1002.095	0.88
1002.82	-3.12
1003.544	-1.12
1004.268	0.88
1004.992	0.88
1005.716	0.88
1006.439	1.88
1007.163	1.88
1007.887	1.88
1008.611	-0.12
1009.334	-1.12
1010.058	0.88
1010.781	0.88
1011.504	1.88
1012.228	-2.12
1012.951	0.88
1013.674	-0.12
1014.397	-1.12
1015.12	1.88
