节点500_425_QEPB04081__262__15-52-39-994.txt的数据

Date: Wed Nov 12 15:52:39 CST 2025
User: PC
Spectrometer: QEPB0408
触发模式: 0
积分时间 (秒): 1.000000E-2
Scans to average: 1
启用暗噪声校正: true
启用非线性校正: false
滑动平均宽度: 0
X轴模式: Wavelengths
Number of Pixels in Spectrum: 1044
>>>>>Begin Spectral Data<<<<<
220.843	2.25
221.644	2.25
222.444	3.25
223.244	4.25
224.045	5.25
224.845	3.25
225.645	4.25
226.445	5.25
227.245	6.25
228.045	3.25
228.845	5.25
229.645	6.25
230.444	3.25
231.244	3.25
232.043	7.25
232.843	3.25
233.642	5.25
234.442	3.25
235.241	4.25
236.04	5.25
236.839	4.25
237.638	6.25
238.437	7.25
239.236	5.25
240.035	7.25
240.833	6.25
241.632	9.25
242.43	7.25
243.229	9.25
244.027	8.25
244.826	5.25
245.624	10.25
246.422	9.25
247.22	9.25
248.018	10.25
248.816	7.25
249.614	10.25
250.412	11.25
251.21	12.25
252.007	9.25
252.805	11.25
253.602	7.25
254.4	14.25
255.197	12.25
255.994	12.25
256.791	14.25
257.589	11.25
258.386	11.25
259.183	16.25
259.979	13.25
260.776	17.25
261.573	14.25
262.37	16.25
263.166	14.25
263.963	17.25
264.759	17.25
265.556	15.25
266.352	20.25
267.148	19.25
267.944	20.25
268.74	18.25
269.536	20.25
270.332	20.25
271.128	21.25
271.924	21.25
272.719	21.25
273.515	21.25
274.311	22.25
275.106	22.25
275.901	21.25
276.697	26.25
277.492	25.25
278.287	26.25
279.082	26.25
279.877	24.25
280.672	25.25
281.467	23.25
282.262	24.25
283.056	25.25
283.851	24.25
284.646	25.25
285.44	24.25
286.234	26.25
287.029	24.25
287.823	26.25
288.617	22.25
289.411	22.25
290.205	24.25
290.999	25.25
291.793	23.25
292.587	22.25
293.381	23.25
294.174	22.25
294.968	23.25
295.761	19.25
296.555	19.25
297.348	20.25
298.141	20.25
298.935	22.25
299.728	20.25
300.521	16.25
301.314	16.25
302.107	18.25
302.899	19.25
303.692	17.25
304.485	17.25
305.277	18.25
306.07	14.25
306.862	16.25
307.655	17.25
308.447	16.25
309.239	14.25
310.031	15.25
310.823	13.25
311.615	15.25
312.407	12.25
313.199	13.25
313.991	14.25
314.783	10.25
315.574	11.25
316.366	14.25
317.157	10.25
317.949	11.25
318.74	10.25
319.531	10.25
320.322	8.25
321.113	10.25
321.904	11.25
322.695	8.25
323.486	9.25
324.277	12.25
325.068	10.25
325.858	11.25
326.649	7.25
327.439	7.25
328.23	11.25
329.02	10.25
329.81	8.25
330.6	9.25
331.391	9.25
332.181	7.25
332.971	9.25
333.76	9.25
334.55	7.25
335.34	10.25
336.13	8.25
336.919	11.25
337.709	7.25
338.498	9.25
339.287	9.25
340.077	12.25
340.866	8.25
341.655	7.25
342.444	7.25
343.233	7.25
344.022	8.25
344.811	9.25
345.6	7.25
346.388	10.25
347.177	9.25
347.965	10.25
348.754	8.25
349.542	10.25
350.33	7.25
351.119	10.25
351.907	10.25
352.695	8.25
353.483	9.25
354.271	7.25
355.059	7.25
355.846	8.25
356.634	4.25
357.422	8.25
358.209	5.25
358.997	7.25
359.784	6.25
360.571	6.25
361.359	8.25
362.146	8.25
362.933	9.25
363.72	9.25
364.507	4.25
365.294	7.25
366.081	6.25
366.867	4.25
367.654	8.25
368.44	6.25
369.227	8.25
370.013	8.25
370.8	9.25
371.586	8.25
372.372	8.25
373.158	8.25
373.944	8.25
374.73	5.25
375.516	4.25
376.302	10.25
377.088	8.25
377.873	7.25
378.659	7.25
379.445	6.25
380.23	8.25
381.015	7.25
381.801	8.25
382.586	7.25
383.371	6.25
384.156	6.25
384.941	4.25
385.726	9.25
386.511	6.25
387.296	6.25
388.08	6.25
388.865	6.25
389.649	8.25
390.434	8.25
391.218	8.25
392.003	8.25
392.787	7.25
393.571	8.25
394.355	8.25
395.139	10.25
395.923	8.25
396.707	9.25
397.491	7.25
398.274	10.25
399.058	8.25
399.842	8.25
400.625	8.25
401.408	10.25
402.192	9.25
402.975	10.25
403.758	8.25
404.541	8.25
405.324	9.25
406.107	10.25
406.89	9.25
407.673	10.25
408.456	11.25
409.238	8.25
410.021	13.25
410.803	10.25
411.586	11.25
412.368	12.25
413.151	11.25
413.933	14.25
414.715	14.25
415.497	13.25
416.279	12.25
417.061	15.25
417.843	11.25
418.624	15.25
419.406	12.25
420.188	13.25
420.969	12.25
421.751	15.25
422.532	14.25
423.313	15.25
424.095	17.25
424.876	16.25
425.657	15.25
426.438	16.25
427.219	19.25
428	16.25
428.78	17.25
429.561	20.25
430.342	18.25
431.122	20.25
431.903	18.25
432.683	21.25
433.464	22.25
434.244	23.25
435.024	25.25
435.804	26.25
436.584	28.25
437.364	30.25
438.144	32.25
438.924	29.25
439.704	29.25
440.483	30.25
441.263	35.25
442.042	37.25
442.822	40.25
443.601	43.25
444.38	45.25
445.16	48.25
445.939	52.25
446.718	59.25
447.497	57.25
448.276	62.25
449.054	70.25
449.833	80.25
450.612	80.25
451.391	90.25
452.169	101.25
452.948	110.25
453.726	122.25
454.504	135.25
455.282	150.25
456.061	168.25
456.839	180.25
457.617	200.25
458.395	225.25
459.172	258.25
459.95	288.25
460.728	319.25
461.506	353.25
462.283	394.25
463.061	446.25
463.838	501.25
464.615	545.25
465.393	608.25
466.17	691.25
466.947	764.25
467.724	849.25
468.501	954.25
469.278	1052.25
470.055	1153.25
470.831	1292.25
471.608	1430.25
472.385	1590.25
473.161	1753.25
473.938	1953.25
474.714	2147.25
475.49	2371.25
476.266	2612.25
477.043	2861.25
477.819	3189.25
478.595	3511.25
479.371	3856.25
480.146	4233.25
480.922	4634.25
481.698	5106.25
482.473	5567.25
483.249	6132.25
484.024	6743.25
484.8	7377.25
485.575	8058.25
486.35	8822.25
487.126	9613.25
487.901	10459.25
488.676	11424.25
489.451	12346.25
490.225	13497.25
491	14595.25
491.775	15862.25
492.55	17131.25
493.324	18452.25
494.099	19760.25
494.873	21176.25
495.647	22588.25
496.422	24016.25
497.196	25433.25
497.97	27030.25
498.744	28365.25
499.518	29781.25
500.292	30926.25
501.066	32088.25
501.839	33250.25
502.613	34168.25
503.387	34780.25
504.16	35318.25
504.934	35668.25
505.707	35556.25
506.48	35485.25
507.253	35158.25
508.027	34769.25
508.8	34169.25
509.573	33377.25
510.346	32465.25
511.118	31531.25
511.891	30564.25
512.664	29384.25
513.437	28234.25
514.209	27085.25
514.982	26108.25
515.754	25011.25
516.526	23935.25
517.298	22930.25
518.071	21974.25
518.843	21126.25
519.615	20216.25
520.387	19379.25
521.159	18634.25
521.93	17954.25
522.702	17258.25
523.474	16530.25
524.245	15882.25
525.017	15195.25
525.788	14415.25
526.56	13812.25
527.331	13189.25
528.102	12589.25
528.873	11943.25
529.644	11422.25
530.415	10819.25
531.186	10293.25
531.957	9774.25
532.728	9233.25
533.498	8779.25
534.269	8280.25
535.039	7799.25
535.81	7416.25
536.58	6994.25
537.351	6563.25
538.121	6222.25
538.891	5887.25
539.661	5567.25
540.431	5287.25
541.201	5036.25
541.971	4754.25
542.741	4482.25
543.51	4275.25
544.28	4046.25
545.05	3848.25
545.819	3679.25
546.588	3486.25
547.358	3305.25
548.127	3131.25
548.896	2977.25
549.665	2824.25
550.434	2701.25
551.203	2558.25
551.972	2409.25
552.741	2263.25
553.51	2158.25
554.278	2029.25
555.047	1912.25
555.815	1801.25
556.584	1713.25
557.352	1619.25
558.121	1513.25
558.889	1436.25
559.657	1353.25
560.425	1285.25
561.193	1206.25
561.961	1148.25
562.729	1091.25
563.496	1024.25
564.264	973.25
565.032	911.25
565.799	874.25
566.567	814.25
567.334	771.25
568.101	744.25
568.869	696.25
569.636	641.25
570.403	608.25
571.17	574.25
571.937	550.25
572.704	515.25
573.471	489.25
574.237	461.25
575.004	435.25
575.771	414.25
576.537	386.25
577.303	357.25
578.07	339.25
578.836	326.25
579.602	302.25
580.368	287.25
581.134	279.25
581.9	259.25
582.666	246.25
583.432	231.25
584.198	225.25
584.964	209.25
585.729	204.25
586.495	186.25
587.26	177.25
588.025	170.25
588.791	160.25
589.556	151.25
590.321	145.25
591.086	141.25
591.851	133.25
592.616	127.25
593.381	120.25
594.146	110.25
594.911	113.25
595.675	103.25
596.44	100.25
597.204	94.25
597.969	89.25
598.733	87.25
599.497	82.25
600.261	81.25
601.025	76.25
601.79	70.25
602.553	71.25
603.317	66.25
604.081	64.25
604.845	58.25
605.609	56.25
606.372	57.25
607.136	56.25
607.899	50.25
608.662	48.25
609.426	47.25
610.189	42.25
610.952	45.25
611.715	41.25
612.478	39.25
613.241	42.25
614.004	37.25
614.767	37.25
615.529	36.25
616.292	33.25
617.055	32.25
617.817	32.25
618.579	30.25
619.342	30.25
620.104	32.25
620.866	26.25
621.628	26.25
622.39	28.25
623.152	23.25
623.914	24.25
624.676	23.25
625.438	24.25
626.199	20.25
626.961	21.25
627.722	21.25
628.484	19.25
629.245	20.25
630.006	20.25
630.768	20.25
631.529	17.25
632.29	20.25
633.051	17.25
633.812	17.25
634.573	15.25
635.333	16.25
636.094	17.25
636.855	14.25
637.615	13.25
638.376	13.25
639.136	12.25
639.896	12.25
640.657	14.25
641.417	13.25
642.177	12.25
642.937	14.25
643.697	14.25
644.457	11.25
645.216	10.25
645.976	10.25
646.736	8.25
647.495	12.25
648.255	10.25
649.014	11.25
649.774	11.25
650.533	8.25
651.292	11.25
652.051	8.25
652.81	10.25
653.569	10.25
654.328	9.25
655.087	7.25
655.846	5.25
656.604	6.25
657.363	8.25
658.121	8.25
658.88	8.25
659.638	8.25
660.397	8.25
661.155	7.25
661.913	9.25
662.671	4.25
663.429	5.25
664.187	8.25
664.945	5.25
665.703	7.25
666.46	7.25
667.218	6.25
667.976	8.25
668.733	7.25
669.49	7.25
670.248	6.25
671.005	4.25
671.762	7.25
672.519	6.25
673.276	8.25
674.033	6.25
674.79	5.25
675.547	6.25
676.304	4.25
677.06	5.25
677.817	6.25
678.574	10.25
679.33	6.25
680.086	5.25
680.843	4.25
681.599	6.25
682.355	6.25
683.111	6.25
683.867	8.25
684.623	6.25
685.379	7.25
686.135	6.25
686.89	5.25
687.646	6.25
688.402	3.25
689.157	5.25
689.912	4.25
690.668	3.25
691.423	5.25
692.178	4.25
692.933	5.25
693.688	4.25
694.443	6.25
695.198	7.25
695.953	4.25
696.708	7.25
697.462	4.25
698.217	6.25
698.972	5.25
699.726	3.25
700.48	4.25
701.235	6.25
701.989	4.25
702.743	3.25
703.497	3.25
704.251	3.25
705.005	5.25
705.759	5.25
706.513	4.25
707.266	5.25
708.02	4.25
708.774	4.25
709.527	4.25
710.28	3.25
711.034	4.25
711.787	3.25
712.54	7.25
713.293	5.25
714.046	4.25
714.799	3.25
715.552	4.25
716.305	5.25
717.058	5.25
717.81	4.25
718.563	6.25
719.315	6.25
720.068	7.25
720.82	5.25
721.573	4.25
722.325	4.25
723.077	4.25
723.829	8.25
724.581	3.25
725.333	6.25
726.085	4.25
726.836	3.25
727.588	5.25
728.34	4.25
729.091	7.25
729.843	8.25
730.594	7.25
731.346	4.25
732.097	4.25
732.848	5.25
733.599	4.25
734.35	7.25
735.101	7.25
735.852	6.25
736.603	5.25
737.354	6.25
738.104	5.25
738.855	8.25
739.605	6.25
740.356	8.25
741.106	5.25
741.856	6.25
742.607	6.25
743.357	9.25
744.107	6.25
744.857	7.25
745.607	5.25
746.357	4.25
747.106	7.25
747.856	7.25
748.606	8.25
749.355	8.25
750.105	9.25
750.854	9.25
751.603	7.25
752.353	6.25
753.102	8.25
753.851	10.25
754.6	6.25
755.349	5.25
756.098	7.25
756.847	8.25
757.595	7.25
758.344	8.25
759.093	8.25
759.841	11.25
760.589	7.25
761.338	10.25
762.086	10.25
762.834	5.25
763.582	9.25
764.331	10.25
765.079	10.25
765.826	7.25
766.574	8.25
767.322	9.25
768.07	8.25
768.817	10.25
769.565	7.25
770.312	10.25
771.06	10.25
771.807	9.25
772.554	12.25
773.302	12.25
774.049	9.25
774.796	10.25
775.543	12.25
776.29	11.25
777.036	10.25
777.783	14.25
778.53	12.25
779.276	12.25
780.023	13.25
780.769	10.25
781.516	12.25
782.262	11.25
783.008	10.25
783.754	13.25
784.5	12.25
785.246	12.25
785.992	10.25
786.738	13.25
787.484	11.25
788.23	12.25
788.975	13.25
789.721	10.25
790.466	10.25
791.212	9.25
791.957	12.25
792.702	9.25
793.447	13.25
794.193	8.25
794.938	10.25
795.683	13.25
796.427	9.25
797.172	9.25
797.917	11.25
798.662	10.25
799.406	8.25
800.151	9.25
800.895	11.25
801.64	9.25
802.384	11.25
803.128	10.25
803.872	8.25
804.616	9.25
805.36	8.25
806.104	11.25
806.848	8.25
807.592	7.25
808.336	6.25
809.079	6.25
809.823	7.25
810.566	10.25
811.31	9.25
812.053	7.25
812.796	6.25
813.539	7.25
814.283	7.25
815.026	8.25
815.769	8.25
816.511	8.25
817.254	6.25
817.997	7.25
818.74	5.25
819.482	4.25
820.225	4.25
820.967	8.25
821.71	5.25
822.452	6.25
823.194	5.25
823.936	6.25
824.678	5.25
825.42	4.25
826.162	4.25
826.904	4.25
827.646	5.25
828.388	5.25
829.129	3.25
829.871	4.25
830.612	6.25
831.354	4.25
832.095	5.25
832.836	6.25
833.577	2.25
834.319	5.25
835.06	5.25
835.801	3.25
836.542	6.25
837.282	3.25
838.023	6.25
838.764	3.25
839.504	3.25
840.245	5.25
840.985	5.25
841.726	4.25
842.466	2.25
843.206	5.25
843.946	3.25
844.687	2.25
845.427	4.25
846.166	3.25
846.906	6.25
847.646	4.25
848.386	2.25
849.125	5.25
849.865	4.25
850.605	6.25
851.344	2.25
852.083	2.25
852.823	4.25
853.562	3.25
854.301	1.25
855.04	4.25
855.779	3.25
856.518	3.25
857.257	3.25
857.995	3.25
858.734	1.25
859.473	4.25
860.211	2.25
860.95	4.25
861.688	4.25
862.426	2.25
863.165	3.25
863.903	0.25
864.641	3.25
865.379	1.25
866.117	4.25
866.855	1.25
867.593	1.25
868.33	2.25
869.068	1.25
869.806	2.25
870.543	2.25
871.28	2.25
872.018	1.25
872.755	2.25
873.492	4.25
874.229	0.25
874.967	1.25
875.703	2.25
876.44	-0.75
877.177	4.25
877.914	2.25
878.651	1.25
879.387	1.25
880.124	-0.75
880.86	0.25
881.597	1.25
882.333	0.25
883.069	0.25
883.806	2.25
884.542	3.25
885.278	2.25
886.014	3.25
886.749	0.25
887.485	3.25
888.221	2.25
888.957	0.25
889.692	0.25
890.428	1.25
891.163	1.25
891.899	2.25
892.634	1.25
893.369	1.25
894.104	0.25
894.839	2.25
895.574	1.25
896.309	0.25
897.044	1.25
897.779	-0.75
898.514	0.25
899.248	-0.75
899.983	3.25
900.717	2.25
901.452	-3.75
902.186	0.25
902.92	-0.75
903.654	0.25
904.389	1.25
905.123	-0.75
905.857	1.25
906.59	1.25
907.324	3.25
908.058	-0.75
908.792	0.25
909.525	1.25
910.259	3.25
910.992	1.25
911.726	-1.75
912.459	1.25
913.192	-0.75
913.925	1.25
914.658	-0.75
915.391	-1.75
916.124	0.25
916.857	-0.75
917.59	2.25
918.323	0.25
919.055	1.25
919.788	-0.75
920.521	-0.75
921.253	1.25
921.985	0.25
922.718	0.25
923.45	1.25
924.182	0.25
924.914	0.25
925.646	1.25
926.378	0.25
927.11	2.25
927.841	0.25
928.573	0.25
929.305	-1.75
930.036	2.25
930.768	-0.75
931.499	2.25
932.23	-0.75
932.962	1.25
933.693	2.25
934.424	-0.75
935.155	0.25
935.886	0.25
936.617	0.25
937.348	0.25
938.078	-2.75
938.809	-0.75
939.54	-0.75
940.27	1.25
941.001	0.25
941.731	2.25
942.461	-0.75
943.191	-0.75
943.922	1.25
944.652	0.25
945.382	3.25
946.112	1.25
946.841	-0.75
947.571	2.25
948.301	-2.75
949.031	-1.75
949.76	-1.75
950.49	0.25
951.219	0.25
951.948	0.25
952.678	1.25
953.407	1.25
954.136	1.25
954.865	0.25
955.594	-0.75
956.323	1.25
957.052	-1.75
957.78	0.25
958.509	-0.75
959.238	-1.75
959.966	0.25
960.695	-1.75
961.423	1.25
962.151	0.25
962.88	-0.75
963.608	0.25
964.336	1.25
965.064	0.25
965.792	0.25
966.52	-0.75
967.247	-1.75
967.975	-0.75
968.703	0.25
969.43	0.25
970.158	3.25
970.885	0.25
971.613	1.25
972.34	1.25
973.067	0.25
973.794	0.25
974.521	-1.75
975.248	2.25
975.975	1.25
976.702	3.25
977.429	1.25
978.156	-1.75
978.882	3.25
979.609	0.25
980.335	0.25
981.062	2.25
981.788	-1.75
982.514	1.25
983.24	0.25
983.967	1.25
984.693	-0.75
985.419	-1.75
986.144	-0.75
986.87	-1.75
987.596	3.25
988.322	-0.75
989.047	0.25
989.773	-0.75
990.498	1.25
991.224	3.25
991.949	-0.75
992.674	-1.75
993.399	2.25
994.124	1.25
994.849	0.25
995.574	-0.75
996.299	3.25
997.024	-0.75
997.749	0.25
998.473	2.25
999.198	0.25
999.922	3.25
1000.647	-0.75
1001.371	2.25
1002.095	0.25
1002.82	0.25
1003.544	-1.75
1004.268	4.25
1004.992	2.25
1005.716	5.25
1006.439	4.25
1007.163	1.25
1007.887	3.25
1008.611	-0.75
1009.334	1.25
1010.058	0.25
1010.781	0.25
1011.504	0.25
1012.228	0.25
1012.951	-0.75
1013.674	1.25
1014.397	0.25
1015.12	-1.75
