节点500_425_QEPB04081__503__15-56-40-581.txt的数据

Date: Wed Nov 12 15:56:40 CST 2025
User: PC
Spectrometer: QEPB0408
触发模式: 0
积分时间 (秒): 1.000000E-2
Scans to average: 1
启用暗噪声校正: true
启用非线性校正: false
滑动平均宽度: 0
X轴模式: Wavelengths
Number of Pixels in Spectrum: 1044
>>>>>Begin Spectral Data<<<<<
220.843	4.62
221.644	2.62
222.444	4.62
223.244	5.62
224.045	5.62
224.845	3.62
225.645	2.62
226.445	1.62
227.245	3.62
228.045	5.62
228.845	3.62
229.645	5.62
230.444	3.62
231.244	6.62
232.043	5.62
232.843	3.62
233.642	5.62
234.442	5.62
235.241	7.62
236.04	5.62
236.839	7.62
237.638	7.62
238.437	7.62
239.236	6.62
240.035	4.62
240.833	7.62
241.632	7.62
242.43	6.62
243.229	7.62
244.027	5.62
244.826	7.62
245.624	6.62
246.422	7.62
247.22	9.62
248.018	9.62
248.816	8.62
249.614	9.62
250.412	9.62
251.21	10.62
252.007	10.62
252.805	7.62
253.602	8.62
254.4	9.62
255.197	11.62
255.994	12.62
256.791	10.62
257.589	10.62
258.386	11.62
259.183	14.62
259.979	12.62
260.776	14.62
261.573	12.62
262.37	14.62
263.166	14.62
263.963	14.62
264.759	17.62
265.556	15.62
266.352	17.62
267.148	16.62
267.944	19.62
268.74	17.62
269.536	17.62
270.332	19.62
271.128	17.62
271.924	19.62
272.719	19.62
273.515	22.62
274.311	22.62
275.106	22.62
275.901	24.62
276.697	21.62
277.492	22.62
278.287	23.62
279.082	21.62
279.877	22.62
280.672	23.62
281.467	20.62
282.262	21.62
283.056	20.62
283.851	26.62
284.646	24.62
285.44	22.62
286.234	20.62
287.029	24.62
287.823	25.62
288.617	22.62
289.411	23.62
290.205	20.62
290.999	23.62
291.793	24.62
292.587	25.62
293.381	20.62
294.174	21.62
294.968	21.62
295.761	19.62
296.555	21.62
297.348	17.62
298.141	19.62
298.935	17.62
299.728	15.62
300.521	20.62
301.314	16.62
302.107	16.62
302.899	20.62
303.692	14.62
304.485	15.62
305.277	14.62
306.07	18.62
306.862	16.62
307.655	18.62
308.447	13.62
309.239	15.62
310.031	15.62
310.823	12.62
311.615	13.62
312.407	14.62
313.199	12.62
313.991	11.62
314.783	10.62
315.574	12.62
316.366	11.62
317.157	10.62
317.949	10.62
318.74	8.62
319.531	9.62
320.322	8.62
321.113	11.62
321.904	10.62
322.695	10.62
323.486	8.62
324.277	8.62
325.068	9.62
325.858	10.62
326.649	10.62
327.439	7.62
328.23	8.62
329.02	8.62
329.81	9.62
330.6	10.62
331.391	8.62
332.181	9.62
332.971	8.62
333.76	5.62
334.55	9.62
335.34	8.62
336.13	8.62
336.919	9.62
337.709	8.62
338.498	9.62
339.287	9.62
340.077	11.62
340.866	9.62
341.655	9.62
342.444	6.62
343.233	9.62
344.022	9.62
344.811	8.62
345.6	8.62
346.388	8.62
347.177	5.62
347.965	7.62
348.754	7.62
349.542	6.62
350.33	9.62
351.119	7.62
351.907	6.62
352.695	7.62
353.483	9.62
354.271	8.62
355.059	6.62
355.846	6.62
356.634	7.62
357.422	8.62
358.209	5.62
358.997	8.62
359.784	8.62
360.571	7.62
361.359	9.62
362.146	7.62
362.933	9.62
363.72	7.62
364.507	6.62
365.294	7.62
366.081	8.62
366.867	7.62
367.654	8.62
368.44	8.62
369.227	8.62
370.013	6.62
370.8	6.62
371.586	7.62
372.372	7.62
373.158	4.62
373.944	6.62
374.73	5.62
375.516	5.62
376.302	6.62
377.088	6.62
377.873	9.62
378.659	6.62
379.445	4.62
380.23	7.62
381.015	5.62
381.801	9.62
382.586	8.62
383.371	7.62
384.156	7.62
384.941	6.62
385.726	9.62
386.511	7.62
387.296	9.62
388.08	6.62
388.865	6.62
389.649	5.62
390.434	9.62
391.218	7.62
392.003	6.62
392.787	9.62
393.571	6.62
394.355	7.62
395.139	7.62
395.923	7.62
396.707	9.62
397.491	9.62
398.274	6.62
399.058	8.62
399.842	9.62
400.625	8.62
401.408	8.62
402.192	11.62
402.975	8.62
403.758	7.62
404.541	12.62
405.324	8.62
406.107	9.62
406.89	11.62
407.673	9.62
408.456	12.62
409.238	11.62
410.021	13.62
410.803	12.62
411.586	10.62
412.368	13.62
413.151	11.62
413.933	12.62
414.715	10.62
415.497	14.62
416.279	13.62
417.061	13.62
417.843	12.62
418.624	10.62
419.406	12.62
420.188	14.62
420.969	15.62
421.751	14.62
422.532	13.62
423.313	15.62
424.095	14.62
424.876	16.62
425.657	14.62
426.438	16.62
427.219	17.62
428	15.62
428.78	17.62
429.561	18.62
430.342	20.62
431.122	20.62
431.903	21.62
432.683	20.62
433.464	21.62
434.244	24.62
435.024	23.62
435.804	26.62
436.584	23.62
437.364	25.62
438.144	30.62
438.924	31.62
439.704	34.62
440.483	34.62
441.263	38.62
442.042	40.62
442.822	39.62
443.601	49.62
444.38	47.62
445.16	50.62
445.939	56.62
446.718	60.62
447.497	64.62
448.276	69.62
449.054	75.62
449.833	80.62
450.612	93.62
451.391	100.62
452.169	109.62
452.948	122.62
453.726	133.62
454.504	145.62
455.282	165.62
456.061	182.62
456.839	197.62
457.617	232.62
458.395	242.62
459.172	275.62
459.95	307.62
460.728	345.62
461.506	371.62
462.283	424.62
463.061	471.62
463.838	531.62
464.615	595.62
465.393	657.62
466.17	729.62
466.947	804.62
467.724	889.62
468.501	1000.62
469.278	1094.62
470.055	1194.62
470.831	1323.62
471.608	1469.62
472.385	1625.62
473.161	1787.62
473.938	1965.62
474.714	2161.62
475.49	2384.62
476.266	2595.62
477.043	2859.62
477.819	3145.62
478.595	3425.62
479.371	3764.62
480.146	4114.62
480.922	4496.62
481.698	4892.62
482.473	5313.62
483.249	5812.62
484.024	6310.62
484.8	6928.62
485.575	7517.62
486.35	8128.62
487.126	8820.62
487.901	9590.62
488.676	10422.62
489.451	11298.62
490.225	12200.62
491	13177.62
491.775	14256.62
492.55	15335.62
493.324	16488.62
494.099	17610.62
494.873	18810.62
495.647	20090.62
496.422	21372.62
497.196	22606.62
497.97	24014.62
498.744	25303.62
499.518	26653.62
500.292	27719.62
501.066	28859.62
501.839	29968.62
502.613	31028.62
503.387	31755.62
504.16	32420.62
504.934	32850.62
505.707	33084.62
506.48	33186.62
507.253	33125.62
508.027	32870.62
508.8	32734.62
509.573	32233.62
510.346	31642.62
511.118	30797.62
511.891	30038.62
512.664	29087.62
513.437	28070.62
514.209	27109.62
514.982	26215.62
515.754	25195.62
516.526	24185.62
517.298	23233.62
518.071	22264.62
518.843	21313.62
519.615	20441.62
520.387	19631.62
521.159	18976.62
521.93	18252.62
522.702	17505.62
523.474	16792.62
524.245	16189.62
525.017	15451.62
525.788	14746.62
526.56	14119.62
527.331	13477.62
528.102	12926.62
528.873	12294.62
529.644	11756.62
530.415	11200.62
531.186	10729.62
531.957	10165.62
532.728	9648.62
533.498	9111.62
534.269	8635.62
535.039	8222.62
535.81	7753.62
536.58	7365.62
537.351	6893.62
538.121	6529.62
538.891	6204.62
539.661	5878.62
540.431	5585.62
541.201	5262.62
541.971	4989.62
542.741	4742.62
543.51	4518.62
544.28	4283.62
545.05	4048.62
545.819	3871.62
546.588	3695.62
547.358	3502.62
548.127	3313.62
548.896	3143.62
549.665	3006.62
550.434	2855.62
551.203	2713.62
551.972	2561.62
552.741	2412.62
553.51	2287.62
554.278	2150.62
555.047	2042.62
555.815	1937.62
556.584	1829.62
557.352	1720.62
558.121	1618.62
558.889	1534.62
559.657	1466.62
560.425	1369.62
561.193	1301.62
561.961	1246.62
562.729	1171.62
563.496	1089.62
564.264	1044.62
565.032	976.62
565.799	930.62
566.567	887.62
567.334	835.62
568.101	788.62
568.869	740.62
569.636	704.62
570.403	655.62
571.17	617.62
571.937	587.62
572.704	557.62
573.471	527.62
574.237	499.62
575.004	464.62
575.771	442.62
576.537	418.62
577.303	392.62
578.07	371.62
578.836	342.62
579.602	324.62
580.368	303.62
581.134	300.62
581.9	279.62
582.666	269.62
583.432	245.62
584.198	239.62
584.964	220.62
585.729	213.62
586.495	199.62
587.26	193.62
588.025	183.62
588.791	171.62
589.556	166.62
590.321	158.62
591.086	149.62
591.851	138.62
592.616	130.62
593.381	129.62
594.146	122.62
594.911	115.62
595.675	109.62
596.44	107.62
597.204	96.62
597.969	97.62
598.733	91.62
599.497	88.62
600.261	82.62
601.025	78.62
601.79	74.62
602.553	70.62
603.317	69.62
604.081	66.62
604.845	63.62
605.609	58.62
606.372	60.62
607.136	61.62
607.899	53.62
608.662	52.62
609.426	50.62
610.189	51.62
610.952	45.62
611.715	46.62
612.478	45.62
613.241	43.62
614.004	40.62
614.767	37.62
615.529	36.62
616.292	35.62
617.055	34.62
617.817	34.62
618.579	35.62
619.342	29.62
620.104	29.62
620.866	29.62
621.628	26.62
622.39	27.62
623.152	23.62
623.914	25.62
624.676	24.62
625.438	24.62
626.199	25.62
626.961	20.62
627.722	22.62
628.484	19.62
629.245	20.62
630.006	18.62
630.768	18.62
631.529	18.62
632.29	18.62
633.051	18.62
633.812	15.62
634.573	17.62
635.333	17.62
636.094	16.62
636.855	17.62
637.615	14.62
638.376	14.62
639.136	12.62
639.896	14.62
640.657	13.62
641.417	13.62
642.177	15.62
642.937	13.62
643.697	12.62
644.457	11.62
645.216	13.62
645.976	10.62
646.736	12.62
647.495	11.62
648.255	8.62
649.014	12.62
649.774	9.62
650.533	10.62
651.292	11.62
652.051	9.62
652.81	10.62
653.569	10.62
654.328	10.62
655.087	8.62
655.846	8.62
656.604	6.62
657.363	8.62
658.121	9.62
658.88	9.62
659.638	8.62
660.397	8.62
661.155	7.62
661.913	9.62
662.671	6.62
663.429	8.62
664.187	7.62
664.945	8.62
665.703	7.62
666.46	8.62
667.218	9.62
667.976	5.62
668.733	6.62
669.49	7.62
670.248	5.62
671.005	7.62
671.762	4.62
672.519	6.62
673.276	6.62
674.033	4.62
674.79	6.62
675.547	7.62
676.304	6.62
677.06	5.62
677.817	7.62
678.574	7.62
679.33	4.62
680.086	7.62
680.843	4.62
681.599	7.62
682.355	4.62
683.111	4.62
683.867	6.62
684.623	3.62
685.379	3.62
686.135	5.62
686.89	7.62
687.646	5.62
688.402	7.62
689.157	3.62
689.912	6.62
690.668	7.62
691.423	5.62
692.178	4.62
692.933	5.62
693.688	5.62
694.443	5.62
695.198	3.62
695.953	6.62
696.708	8.62
697.462	6.62
698.217	5.62
698.972	5.62
699.726	5.62
700.48	3.62
701.235	5.62
701.989	4.62
702.743	4.62
703.497	2.62
704.251	3.62
705.005	6.62
705.759	5.62
706.513	2.62
707.266	5.62
708.02	4.62
708.774	4.62
709.527	3.62
710.28	4.62
711.034	6.62
711.787	7.62
712.54	5.62
713.293	4.62
714.046	4.62
714.799	7.62
715.552	5.62
716.305	6.62
717.058	4.62
717.81	2.62
718.563	7.62
719.315	4.62
720.068	6.62
720.82	5.62
721.573	7.62
722.325	5.62
723.077	4.62
723.829	4.62
724.581	2.62
725.333	7.62
726.085	5.62
726.836	7.62
727.588	5.62
728.34	7.62
729.091	6.62
729.843	5.62
730.594	7.62
731.346	5.62
732.097	5.62
732.848	5.62
733.599	5.62
734.35	5.62
735.101	6.62
735.852	6.62
736.603	5.62
737.354	7.62
738.104	6.62
738.855	5.62
739.605	8.62
740.356	4.62
741.106	5.62
741.856	7.62
742.607	6.62
743.357	6.62
744.107	7.62
744.857	7.62
745.607	7.62
746.357	6.62
747.106	6.62
747.856	7.62
748.606	6.62
749.355	5.62
750.105	5.62
750.854	6.62
751.603	7.62
752.353	9.62
753.102	7.62
753.851	8.62
754.6	10.62
755.349	6.62
756.098	8.62
756.847	9.62
757.595	6.62
758.344	5.62
759.093	7.62
759.841	8.62
760.589	8.62
761.338	8.62
762.086	9.62
762.834	8.62
763.582	7.62
764.331	8.62
765.079	8.62
765.826	7.62
766.574	8.62
767.322	7.62
768.07	10.62
768.817	8.62
769.565	7.62
770.312	6.62
771.06	8.62
771.807	10.62
772.554	10.62
773.302	10.62
774.049	9.62
774.796	10.62
775.543	9.62
776.29	11.62
777.036	7.62
777.783	11.62
778.53	7.62
779.276	10.62
780.023	9.62
780.769	11.62
781.516	10.62
782.262	10.62
783.008	9.62
783.754	10.62
784.5	10.62
785.246	8.62
785.992	11.62
786.738	12.62
787.484	11.62
788.23	10.62
788.975	10.62
789.721	10.62
790.466	11.62
791.212	10.62
791.957	11.62
792.702	9.62
793.447	9.62
794.193	12.62
794.938	9.62
795.683	9.62
796.427	11.62
797.172	10.62
797.917	9.62
798.662	9.62
799.406	6.62
800.151	11.62
800.895	8.62
801.64	8.62
802.384	9.62
803.128	6.62
803.872	9.62
804.616	9.62
805.36	9.62
806.104	8.62
806.848	6.62
807.592	9.62
808.336	8.62
809.079	6.62
809.823	8.62
810.566	7.62
811.31	6.62
812.053	7.62
812.796	7.62
813.539	4.62
814.283	5.62
815.026	6.62
815.769	4.62
816.511	6.62
817.254	7.62
817.997	5.62
818.74	8.62
819.482	7.62
820.225	6.62
820.967	6.62
821.71	6.62
822.452	3.62
823.194	5.62
823.936	5.62
824.678	6.62
825.42	6.62
826.162	5.62
826.904	6.62
827.646	6.62
828.388	3.62
829.129	5.62
829.871	3.62
830.612	4.62
831.354	8.62
832.095	3.62
832.836	5.62
833.577	6.62
834.319	5.62
835.06	3.62
835.801	4.62
836.542	4.62
837.282	5.62
838.023	3.62
838.764	4.62
839.504	4.62
840.245	1.62
840.985	4.62
841.726	4.62
842.466	5.62
843.206	2.62
843.946	3.62
844.687	4.62
845.427	4.62
846.166	5.62
846.906	3.62
847.646	3.62
848.386	7.62
849.125	6.62
849.865	3.62
850.605	5.62
851.344	5.62
852.083	4.62
852.823	3.62
853.562	4.62
854.301	4.62
855.04	5.62
855.779	4.62
856.518	0.62
857.257	2.62
857.995	2.62
858.734	2.62
859.473	4.62
860.211	3.62
860.95	1.62
861.688	2.62
862.426	3.62
863.165	4.62
863.903	2.62
864.641	2.62
865.379	4.62
866.117	2.62
866.855	1.62
867.593	2.62
868.33	2.62
869.068	0.62
869.806	1.62
870.543	0.62
871.28	2.62
872.018	2.62
872.755	2.62
873.492	2.62
874.229	0.62
874.967	1.62
875.703	1.62
876.44	2.62
877.177	2.62
877.914	-0.38
878.651	1.62
879.387	0.62
880.124	2.62
880.86	3.62
881.597	3.62
882.333	-0.38
883.069	0.62
883.806	2.62
884.542	0.62
885.278	1.62
886.014	0.62
886.749	2.62
887.485	-0.38
888.221	-1.38
888.957	3.62
889.692	-0.38
890.428	2.62
891.163	1.62
891.899	1.62
892.634	0.62
893.369	2.62
894.104	1.62
894.839	2.62
895.574	1.62
896.309	2.62
897.044	1.62
897.779	0.62
898.514	1.62
899.248	2.62
899.983	2.62
900.717	0.62
901.452	0.62
902.186	1.62
902.92	0.62
903.654	2.62
904.389	1.62
905.123	2.62
905.857	-1.38
906.59	1.62
907.324	-0.38
908.058	1.62
908.792	1.62
909.525	1.62
910.259	0.62
910.992	1.62
911.726	0.62
912.459	2.62
913.192	-0.38
913.925	2.62
914.658	-0.38
915.391	1.62
916.124	0.62
916.857	-0.38
917.59	0.62
918.323	0.62
919.055	1.62
919.788	-0.38
920.521	2.62
921.253	-0.38
921.985	-1.38
922.718	2.62
923.45	0.62
924.182	2.62
924.914	0.62
925.646	-2.38
926.378	1.62
927.11	2.62
927.841	-0.38
928.573	-0.38
929.305	0.62
930.036	0.62
930.768	0.62
931.499	0.62
932.23	-1.38
932.962	0.62
933.693	-0.38
934.424	0.62
935.155	-1.38
935.886	-1.38
936.617	1.62
937.348	-1.38
938.078	1.62
938.809	0.62
939.54	1.62
940.27	1.62
941.001	-1.38
941.731	1.62
942.461	-0.38
943.191	0.62
943.922	0.62
944.652	-1.38
945.382	1.62
946.112	0.62
946.841	1.62
947.571	1.62
948.301	1.62
949.031	1.62
949.76	-1.38
950.49	-2.38
951.219	-0.38
951.948	2.62
952.678	-1.38
953.407	0.62
954.136	-0.38
954.865	-1.38
955.594	0.62
956.323	1.62
957.052	-0.38
957.78	0.62
958.509	-0.38
959.238	0.62
959.966	1.62
960.695	1.62
961.423	0.62
962.151	2.62
962.88	0.62
963.608	0.62
964.336	-1.38
965.064	2.62
965.792	-0.38
966.52	1.62
967.247	-1.38
967.975	1.62
968.703	-0.38
969.43	-0.38
970.158	0.62
970.885	0.62
971.613	1.62
972.34	-0.38
973.067	1.62
973.794	-0.38
974.521	-0.38
975.248	3.62
975.975	-2.38
976.702	2.62
977.429	-0.38
978.156	0.62
978.882	1.62
979.609	0.62
980.335	1.62
981.062	-1.38
981.788	0.62
982.514	0.62
983.24	0.62
983.967	0.62
984.693	-0.38
985.419	-0.38
986.144	-1.38
986.87	1.62
987.596	0.62
988.322	2.62
989.047	-1.38
989.773	-1.38
990.498	2.62
991.224	1.62
991.949	0.62
992.674	0.62
993.399	0.62
994.124	-0.38
994.849	-0.38
995.574	2.62
996.299	1.62
997.024	1.62
997.749	0.62
998.473	-0.38
999.198	1.62
999.922	0.62
1000.647	1.62
1001.371	3.62
1002.095	-3.38
1002.82	0.62
1003.544	-1.38
1004.268	2.62
1004.992	2.62
1005.716	3.62
1006.439	2.62
1007.163	1.62
1007.887	3.62
1008.611	1.62
1009.334	-1.38
1010.058	1.62
1010.781	-1.38
1011.504	0.62
1012.228	-0.38
1012.951	1.62
1013.674	-1.38
1014.397	0.62
1015.12	-0.38
