节点500_425_QEPB04081__420__15-55-17-678.txt的数据

Date: Wed Nov 12 15:55:17 CST 2025
User: PC
Spectrometer: QEPB0408
触发模式: 0
积分时间 (秒): 1.000000E-2
Scans to average: 1
启用暗噪声校正: true
启用非线性校正: false
滑动平均宽度: 0
X轴模式: Wavelengths
Number of Pixels in Spectrum: 1044
>>>>>Begin Spectral Data<<<<<
220.843	0.62
221.644	2.62
222.444	3.62
223.244	3.62
224.045	2.62
224.845	5.62
225.645	4.62
226.445	2.62
227.245	7.62
228.045	6.62
228.845	4.62
229.645	5.62
230.444	4.62
231.244	6.62
232.043	2.62
232.843	4.62
233.642	5.62
234.442	6.62
235.241	2.62
236.04	4.62
236.839	6.62
237.638	7.62
238.437	7.62
239.236	4.62
240.035	5.62
240.833	8.62
241.632	6.62
242.43	6.62
243.229	5.62
244.027	8.62
244.826	5.62
245.624	7.62
246.422	7.62
247.22	8.62
248.018	9.62
248.816	10.62
249.614	10.62
250.412	10.62
251.21	9.62
252.007	9.62
252.805	9.62
253.602	10.62
254.4	10.62
255.197	10.62
255.994	11.62
256.791	12.62
257.589	12.62
258.386	14.62
259.183	11.62
259.979	11.62
260.776	11.62
261.573	15.62
262.37	13.62
263.166	14.62
263.963	19.62
264.759	14.62
265.556	18.62
266.352	16.62
267.148	16.62
267.944	18.62
268.74	20.62
269.536	18.62
270.332	18.62
271.128	20.62
271.924	18.62
272.719	20.62
273.515	22.62
274.311	22.62
275.106	22.62
275.901	20.62
276.697	18.62
277.492	24.62
278.287	23.62
279.082	21.62
279.877	23.62
280.672	24.62
281.467	24.62
282.262	25.62
283.056	24.62
283.851	22.62
284.646	25.62
285.44	22.62
286.234	23.62
287.029	27.62
287.823	24.62
288.617	23.62
289.411	22.62
290.205	25.62
290.999	23.62
291.793	24.62
292.587	22.62
293.381	25.62
294.174	20.62
294.968	22.62
295.761	18.62
296.555	17.62
297.348	20.62
298.141	19.62
298.935	19.62
299.728	18.62
300.521	18.62
301.314	19.62
302.107	17.62
302.899	16.62
303.692	18.62
304.485	20.62
305.277	17.62
306.07	16.62
306.862	16.62
307.655	15.62
308.447	13.62
309.239	15.62
310.031	14.62
310.823	14.62
311.615	11.62
312.407	14.62
313.199	13.62
313.991	12.62
314.783	13.62
315.574	9.62
316.366	11.62
317.157	11.62
317.949	10.62
318.74	11.62
319.531	10.62
320.322	11.62
321.113	9.62
321.904	11.62
322.695	11.62
323.486	8.62
324.277	10.62
325.068	10.62
325.858	9.62
326.649	7.62
327.439	6.62
328.23	8.62
329.02	6.62
329.81	7.62
330.6	9.62
331.391	9.62
332.181	8.62
332.971	7.62
333.76	8.62
334.55	8.62
335.34	8.62
336.13	7.62
336.919	6.62
337.709	10.62
338.498	8.62
339.287	8.62
340.077	10.62
340.866	9.62
341.655	10.62
342.444	8.62
343.233	9.62
344.022	8.62
344.811	9.62
345.6	8.62
346.388	7.62
347.177	9.62
347.965	6.62
348.754	7.62
349.542	7.62
350.33	9.62
351.119	8.62
351.907	5.62
352.695	8.62
353.483	6.62
354.271	7.62
355.059	4.62
355.846	9.62
356.634	9.62
357.422	6.62
358.209	7.62
358.997	5.62
359.784	5.62
360.571	9.62
361.359	6.62
362.146	5.62
362.933	4.62
363.72	5.62
364.507	5.62
365.294	5.62
366.081	7.62
366.867	8.62
367.654	7.62
368.44	2.62
369.227	4.62
370.013	8.62
370.8	4.62
371.586	6.62
372.372	7.62
373.158	7.62
373.944	7.62
374.73	10.62
375.516	8.62
376.302	5.62
377.088	6.62
377.873	5.62
378.659	7.62
379.445	6.62
380.23	7.62
381.015	7.62
381.801	7.62
382.586	6.62
383.371	6.62
384.156	7.62
384.941	8.62
385.726	5.62
386.511	6.62
387.296	6.62
388.08	9.62
388.865	8.62
389.649	7.62
390.434	7.62
391.218	6.62
392.003	6.62
392.787	7.62
393.571	8.62
394.355	7.62
395.139	7.62
395.923	8.62
396.707	8.62
397.491	6.62
398.274	9.62
399.058	7.62
399.842	8.62
400.625	10.62
401.408	7.62
402.192	9.62
402.975	8.62
403.758	10.62
404.541	9.62
405.324	11.62
406.107	9.62
406.89	9.62
407.673	10.62
408.456	10.62
409.238	11.62
410.021	10.62
410.803	12.62
411.586	10.62
412.368	13.62
413.151	12.62
413.933	8.62
414.715	13.62
415.497	9.62
416.279	12.62
417.061	13.62
417.843	11.62
418.624	13.62
419.406	12.62
420.188	15.62
420.969	13.62
421.751	13.62
422.532	14.62
423.313	15.62
424.095	14.62
424.876	14.62
425.657	15.62
426.438	17.62
427.219	14.62
428	18.62
428.78	16.62
429.561	20.62
430.342	19.62
431.122	20.62
431.903	23.62
432.683	20.62
433.464	25.62
434.244	20.62
435.024	23.62
435.804	26.62
436.584	23.62
437.364	28.62
438.144	26.62
438.924	35.62
439.704	31.62
440.483	36.62
441.263	36.62
442.042	38.62
442.822	42.62
443.601	42.62
444.38	45.62
445.16	48.62
445.939	53.62
446.718	58.62
447.497	59.62
448.276	66.62
449.054	72.62
449.833	82.62
450.612	89.62
451.391	95.62
452.169	104.62
452.948	117.62
453.726	127.62
454.504	143.62
455.282	153.62
456.061	178.62
456.839	193.62
457.617	217.62
458.395	242.62
459.172	263.62
459.95	296.62
460.728	330.62
461.506	371.62
462.283	407.62
463.061	459.62
463.838	506.62
464.615	576.62
465.393	633.62
466.17	698.62
466.947	781.62
467.724	872.62
468.501	956.62
469.278	1069.62
470.055	1187.62
470.831	1308.62
471.608	1438.62
472.385	1612.62
473.161	1774.62
473.938	1960.62
474.714	2142.62
475.49	2362.62
476.266	2598.62
477.043	2860.62
477.819	3127.62
478.595	3449.62
479.371	3760.62
480.146	4111.62
480.922	4501.62
481.698	4963.62
482.473	5409.62
483.249	5912.62
484.024	6454.62
484.8	7032.62
485.575	7666.62
486.35	8332.62
487.126	9056.62
487.901	9870.62
488.676	10685.62
489.451	11626.62
490.225	12568.62
491	13624.62
491.775	14763.62
492.55	15940.62
493.324	17142.62
494.099	18258.62
494.873	19598.62
495.647	20888.62
496.422	22202.62
497.196	23570.62
497.97	24911.62
498.744	26266.62
499.518	27622.62
500.292	28813.62
501.066	29858.62
501.839	31003.62
502.613	32000.62
503.387	32660.62
504.16	33324.62
504.934	33734.62
505.707	33906.62
506.48	33905.62
507.253	33714.62
508.027	33483.62
508.8	33104.62
509.573	32568.62
510.346	31767.62
511.118	30958.62
511.891	30053.62
512.664	29058.62
513.437	28063.62
514.209	26968.62
514.982	25964.62
515.754	25026.62
516.526	24068.62
517.298	23010.62
518.071	22010.62
518.843	21104.62
519.615	20289.62
520.387	19397.62
521.159	18769.62
521.93	18000.62
522.702	17266.62
523.474	16602.62
524.245	15973.62
525.017	15254.62
525.788	14551.62
526.56	13954.62
527.331	13272.62
528.102	12715.62
528.873	12105.62
529.644	11533.62
530.415	11043.62
531.186	10531.62
531.957	9957.62
532.728	9438.62
533.498	8922.62
534.269	8456.62
535.039	8023.62
535.81	7600.62
536.58	7173.62
537.351	6737.62
538.121	6382.62
538.891	6071.62
539.661	5766.62
540.431	5442.62
541.201	5138.62
541.971	4896.62
542.741	4625.62
543.51	4407.62
544.28	4159.62
545.05	3964.62
545.819	3778.62
546.588	3610.62
547.358	3409.62
548.127	3209.62
548.896	3066.62
549.665	2912.62
550.434	2781.62
551.203	2633.62
551.972	2493.62
552.741	2342.62
553.51	2237.62
554.278	2112.62
555.047	1987.62
555.815	1886.62
556.584	1782.62
557.352	1670.62
558.121	1572.62
558.889	1500.62
559.657	1410.62
560.425	1344.62
561.193	1249.62
561.961	1199.62
562.729	1133.62
563.496	1063.62
564.264	1009.62
565.032	944.62
565.799	905.62
566.567	851.62
567.334	796.62
568.101	764.62
568.869	718.62
569.636	674.62
570.403	641.62
571.17	599.62
571.937	575.62
572.704	537.62
573.471	514.62
574.237	481.62
575.004	449.62
575.771	429.62
576.537	397.62
577.303	381.62
578.07	356.62
578.836	328.62
579.602	311.62
580.368	299.62
581.134	290.62
581.9	274.62
582.666	262.62
583.432	244.62
584.198	230.62
584.964	212.62
585.729	213.62
586.495	202.62
587.26	189.62
588.025	182.62
588.791	164.62
589.556	162.62
590.321	150.62
591.086	139.62
591.851	136.62
592.616	129.62
593.381	122.62
594.146	118.62
594.911	112.62
595.675	106.62
596.44	101.62
597.204	95.62
597.969	94.62
598.733	89.62
599.497	86.62
600.261	80.62
601.025	78.62
601.79	72.62
602.553	74.62
603.317	66.62
604.081	61.62
604.845	63.62
605.609	60.62
606.372	59.62
607.136	55.62
607.899	53.62
608.662	51.62
609.426	48.62
610.189	47.62
610.952	42.62
611.715	45.62
612.478	41.62
613.241	38.62
614.004	39.62
614.767	36.62
615.529	33.62
616.292	33.62
617.055	35.62
617.817	30.62
618.579	32.62
619.342	30.62
620.104	29.62
620.866	28.62
621.628	27.62
622.39	28.62
623.152	26.62
623.914	25.62
624.676	22.62
625.438	23.62
626.199	24.62
626.961	21.62
627.722	22.62
628.484	21.62
629.245	20.62
630.006	19.62
630.768	18.62
631.529	18.62
632.29	18.62
633.051	18.62
633.812	15.62
634.573	15.62
635.333	16.62
636.094	15.62
636.855	15.62
637.615	14.62
638.376	13.62
639.136	14.62
639.896	14.62
640.657	15.62
641.417	14.62
642.177	10.62
642.937	11.62
643.697	10.62
644.457	12.62
645.216	12.62
645.976	10.62
646.736	11.62
647.495	9.62
648.255	12.62
649.014	9.62
649.774	10.62
650.533	10.62
651.292	9.62
652.051	9.62
652.81	9.62
653.569	9.62
654.328	8.62
655.087	9.62
655.846	8.62
656.604	9.62
657.363	11.62
658.121	8.62
658.88	8.62
659.638	7.62
660.397	8.62
661.155	7.62
661.913	8.62
662.671	6.62
663.429	7.62
664.187	7.62
664.945	6.62
665.703	7.62
666.46	7.62
667.218	4.62
667.976	8.62
668.733	9.62
669.49	6.62
670.248	5.62
671.005	7.62
671.762	6.62
672.519	7.62
673.276	4.62
674.033	4.62
674.79	5.62
675.547	8.62
676.304	2.62
677.06	4.62
677.817	5.62
678.574	5.62
679.33	5.62
680.086	6.62
680.843	5.62
681.599	6.62
682.355	6.62
683.111	4.62
683.867	6.62
684.623	5.62
685.379	3.62
686.135	7.62
686.89	5.62
687.646	8.62
688.402	4.62
689.157	5.62
689.912	6.62
690.668	5.62
691.423	6.62
692.178	4.62
692.933	6.62
693.688	4.62
694.443	4.62
695.198	6.62
695.953	6.62
696.708	4.62
697.462	4.62
698.217	4.62
698.972	3.62
699.726	2.62
700.48	4.62
701.235	5.62
701.989	3.62
702.743	5.62
703.497	4.62
704.251	6.62
705.005	6.62
705.759	6.62
706.513	4.62
707.266	5.62
708.02	5.62
708.774	4.62
709.527	6.62
710.28	4.62
711.034	6.62
711.787	6.62
712.54	4.62
713.293	6.62
714.046	5.62
714.799	7.62
715.552	4.62
716.305	5.62
717.058	2.62
717.81	5.62
718.563	5.62
719.315	7.62
720.068	4.62
720.82	6.62
721.573	6.62
722.325	7.62
723.077	4.62
723.829	8.62
724.581	2.62
725.333	5.62
726.085	5.62
726.836	5.62
727.588	3.62
728.34	4.62
729.091	4.62
729.843	6.62
730.594	5.62
731.346	6.62
732.097	4.62
732.848	7.62
733.599	4.62
734.35	7.62
735.101	5.62
735.852	4.62
736.603	8.62
737.354	6.62
738.104	4.62
738.855	7.62
739.605	3.62
740.356	6.62
741.106	7.62
741.856	4.62
742.607	6.62
743.357	7.62
744.107	7.62
744.857	6.62
745.607	9.62
746.357	7.62
747.106	4.62
747.856	4.62
748.606	7.62
749.355	6.62
750.105	5.62
750.854	8.62
751.603	7.62
752.353	7.62
753.102	6.62
753.851	7.62
754.6	8.62
755.349	7.62
756.098	6.62
756.847	8.62
757.595	7.62
758.344	7.62
759.093	6.62
759.841	8.62
760.589	9.62
761.338	7.62
762.086	4.62
762.834	8.62
763.582	10.62
764.331	8.62
765.079	9.62
765.826	8.62
766.574	9.62
767.322	10.62
768.07	8.62
768.817	11.62
769.565	9.62
770.312	9.62
771.06	10.62
771.807	9.62
772.554	8.62
773.302	8.62
774.049	8.62
774.796	9.62
775.543	9.62
776.29	8.62
777.036	10.62
777.783	10.62
778.53	10.62
779.276	11.62
780.023	14.62
780.769	11.62
781.516	10.62
782.262	11.62
783.008	10.62
783.754	10.62
784.5	10.62
785.246	10.62
785.992	7.62
786.738	13.62
787.484	13.62
788.23	11.62
788.975	12.62
789.721	10.62
790.466	10.62
791.212	10.62
791.957	11.62
792.702	11.62
793.447	10.62
794.193	10.62
794.938	10.62
795.683	10.62
796.427	11.62
797.172	11.62
797.917	9.62
798.662	7.62
799.406	9.62
800.151	9.62
800.895	10.62
801.64	10.62
802.384	9.62
803.128	10.62
803.872	7.62
804.616	7.62
805.36	7.62
806.104	9.62
806.848	8.62
807.592	8.62
808.336	8.62
809.079	7.62
809.823	9.62
810.566	8.62
811.31	6.62
812.053	5.62
812.796	6.62
813.539	6.62
814.283	4.62
815.026	5.62
815.769	8.62
816.511	5.62
817.254	6.62
817.997	5.62
818.74	4.62
819.482	3.62
820.225	7.62
820.967	5.62
821.71	7.62
822.452	8.62
823.194	5.62
823.936	5.62
824.678	5.62
825.42	3.62
826.162	6.62
826.904	4.62
827.646	4.62
828.388	6.62
829.129	4.62
829.871	7.62
830.612	4.62
831.354	6.62
832.095	5.62
832.836	6.62
833.577	6.62
834.319	4.62
835.06	4.62
835.801	4.62
836.542	7.62
837.282	4.62
838.023	4.62
838.764	4.62
839.504	2.62
840.245	4.62
840.985	2.62
841.726	6.62
842.466	4.62
843.206	6.62
843.946	4.62
844.687	5.62
845.427	4.62
846.166	6.62
846.906	4.62
847.646	3.62
848.386	2.62
849.125	4.62
849.865	2.62
850.605	3.62
851.344	5.62
852.083	2.62
852.823	5.62
853.562	2.62
854.301	4.62
855.04	2.62
855.779	2.62
856.518	2.62
857.257	1.62
857.995	2.62
858.734	2.62
859.473	3.62
860.211	4.62
860.95	4.62
861.688	4.62
862.426	3.62
863.165	2.62
863.903	2.62
864.641	1.62
865.379	1.62
866.117	0.62
866.855	2.62
867.593	-0.38
868.33	3.62
869.068	3.62
869.806	2.62
870.543	2.62
871.28	1.62
872.018	2.62
872.755	2.62
873.492	1.62
874.229	2.62
874.967	0.62
875.703	1.62
876.44	-1.38
877.177	3.62
877.914	2.62
878.651	0.62
879.387	2.62
880.124	0.62
880.86	0.62
881.597	1.62
882.333	2.62
883.069	1.62
883.806	0.62
884.542	2.62
885.278	-0.38
886.014	0.62
886.749	0.62
887.485	2.62
888.221	2.62
888.957	2.62
889.692	3.62
890.428	2.62
891.163	2.62
891.899	2.62
892.634	2.62
893.369	0.62
894.104	0.62
894.839	1.62
895.574	2.62
896.309	0.62
897.044	1.62
897.779	0.62
898.514	2.62
899.248	1.62
899.983	2.62
900.717	1.62
901.452	-1.38
902.186	-1.38
902.92	-1.38
903.654	1.62
904.389	1.62
905.123	1.62
905.857	1.62
906.59	1.62
907.324	0.62
908.058	1.62
908.792	2.62
909.525	1.62
910.259	2.62
910.992	1.62
911.726	1.62
912.459	1.62
913.192	0.62
913.925	2.62
914.658	1.62
915.391	0.62
916.124	1.62
916.857	0.62
917.59	0.62
918.323	0.62
919.055	-1.38
919.788	0.62
920.521	-1.38
921.253	2.62
921.985	0.62
922.718	0.62
923.45	0.62
924.182	-0.38
924.914	2.62
925.646	-0.38
926.378	-1.38
927.11	0.62
927.841	0.62
928.573	0.62
929.305	-2.38
930.036	2.62
930.768	-0.38
931.499	3.62
932.23	0.62
932.962	-1.38
933.693	-1.38
934.424	0.62
935.155	1.62
935.886	-1.38
936.617	2.62
937.348	-0.38
938.078	0.62
938.809	1.62
939.54	0.62
940.27	-0.38
941.001	0.62
941.731	0.62
942.461	1.62
943.191	-0.38
943.922	1.62
944.652	1.62
945.382	2.62
946.112	-1.38
946.841	0.62
947.571	-0.38
948.301	-1.38
949.031	-0.38
949.76	-0.38
950.49	-0.38
951.219	0.62
951.948	-0.38
952.678	1.62
953.407	-0.38
954.136	0.62
954.865	-0.38
955.594	1.62
956.323	2.62
957.052	-1.38
957.78	2.62
958.509	1.62
959.238	0.62
959.966	0.62
960.695	1.62
961.423	-0.38
962.151	0.62
962.88	0.62
963.608	2.62
964.336	-0.38
965.064	0.62
965.792	-2.38
966.52	-1.38
967.247	2.62
967.975	1.62
968.703	-0.38
969.43	-0.38
970.158	0.62
970.885	0.62
971.613	0.62
972.34	0.62
973.067	-0.38
973.794	1.62
974.521	-1.38
975.248	1.62
975.975	-0.38
976.702	0.62
977.429	-0.38
978.156	1.62
978.882	-0.38
979.609	-0.38
980.335	0.62
981.062	0.62
981.788	-1.38
982.514	0.62
983.24	0.62
983.967	1.62
984.693	0.62
985.419	-0.38
986.144	3.62
986.87	0.62
987.596	-0.38
988.322	1.62
989.047	0.62
989.773	0.62
990.498	0.62
991.224	0.62
991.949	-0.38
992.674	2.62
993.399	-0.38
994.124	0.62
994.849	1.62
995.574	-0.38
996.299	1.62
997.024	-0.38
997.749	1.62
998.473	-0.38
999.198	-0.38
999.922	-0.38
1000.647	0.62
1001.371	2.62
1002.095	-0.38
1002.82	-0.38
1003.544	0.62
1004.268	1.62
1004.992	-1.38
1005.716	2.62
1006.439	3.62
1007.163	4.62
1007.887	4.62
1008.611	0.62
1009.334	0.62
1010.058	-0.38
1010.781	2.62
1011.504	1.62
1012.228	-0.38
1012.951	-1.38
1013.674	-0.38
1014.397	-0.38
1015.12	-0.38
