节点500_425_QEPB04081__93__15-49-51-327.txt的数据

Date: Wed Nov 12 15:49:51 CST 2025
User: PC
Spectrometer: QEPB0408
触发模式: 0
积分时间 (秒): 1.000000E-2
Scans to average: 1
启用暗噪声校正: true
启用非线性校正: false
滑动平均宽度: 0
X轴模式: Wavelengths
Number of Pixels in Spectrum: 1044
>>>>>Begin Spectral Data<<<<<
220.843	3.5
221.644	2.5
222.444	3.5
223.244	1.5
224.045	5.5
224.845	5.5
225.645	3.5
226.445	4.5
227.245	4.5
228.045	2.5
228.845	4.5
229.645	3.5
230.444	7.5
231.244	6.5
232.043	4.5
232.843	7.5
233.642	3.5
234.442	4.5
235.241	5.5
236.04	6.5
236.839	8.5
237.638	5.5
238.437	7.5
239.236	6.5
240.035	8.5
240.833	5.5
241.632	6.5
242.43	9.5
243.229	7.5
244.027	9.5
244.826	7.5
245.624	9.5
246.422	9.5
247.22	9.5
248.018	8.5
248.816	10.5
249.614	12.5
250.412	9.5
251.21	11.5
252.007	11.5
252.805	9.5
253.602	12.5
254.4	10.5
255.197	12.5
255.994	11.5
256.791	10.5
257.589	14.5
258.386	15.5
259.183	15.5
259.979	15.5
260.776	13.5
261.573	14.5
262.37	17.5
263.166	15.5
263.963	18.5
264.759	16.5
265.556	18.5
266.352	19.5
267.148	21.5
267.944	20.5
268.74	23.5
269.536	19.5
270.332	23.5
271.128	23.5
271.924	22.5
272.719	24.5
273.515	24.5
274.311	26.5
275.106	26.5
275.901	23.5
276.697	27.5
277.492	26.5
278.287	27.5
279.082	30.5
279.877	26.5
280.672	27.5
281.467	25.5
282.262	27.5
283.056	23.5
283.851	24.5
284.646	24.5
285.44	25.5
286.234	24.5
287.029	26.5
287.823	24.5
288.617	25.5
289.411	22.5
290.205	24.5
290.999	24.5
291.793	23.5
292.587	24.5
293.381	23.5
294.174	22.5
294.968	21.5
295.761	22.5
296.555	19.5
297.348	21.5
298.141	16.5
298.935	19.5
299.728	20.5
300.521	19.5
301.314	16.5
302.107	16.5
302.899	18.5
303.692	14.5
304.485	18.5
305.277	19.5
306.07	17.5
306.862	16.5
307.655	16.5
308.447	15.5
309.239	15.5
310.031	15.5
310.823	14.5
311.615	12.5
312.407	15.5
313.199	12.5
313.991	10.5
314.783	13.5
315.574	12.5
316.366	11.5
317.157	8.5
317.949	13.5
318.74	10.5
319.531	11.5
320.322	11.5
321.113	10.5
321.904	10.5
322.695	10.5
323.486	7.5
324.277	10.5
325.068	8.5
325.858	10.5
326.649	9.5
327.439	10.5
328.23	10.5
329.02	8.5
329.81	9.5
330.6	8.5
331.391	9.5
332.181	8.5
332.971	9.5
333.76	10.5
334.55	9.5
335.34	7.5
336.13	9.5
336.919	9.5
337.709	6.5
338.498	7.5
339.287	11.5
340.077	11.5
340.866	9.5
341.655	7.5
342.444	8.5
343.233	8.5
344.022	5.5
344.811	9.5
345.6	8.5
346.388	8.5
347.177	7.5
347.965	9.5
348.754	9.5
349.542	8.5
350.33	9.5
351.119	9.5
351.907	8.5
352.695	6.5
353.483	9.5
354.271	6.5
355.059	7.5
355.846	7.5
356.634	7.5
357.422	8.5
358.209	7.5
358.997	6.5
359.784	6.5
360.571	5.5
361.359	9.5
362.146	7.5
362.933	10.5
363.72	7.5
364.507	6.5
365.294	7.5
366.081	6.5
366.867	9.5
367.654	7.5
368.44	8.5
369.227	5.5
370.013	6.5
370.8	6.5
371.586	7.5
372.372	6.5
373.158	8.5
373.944	7.5
374.73	7.5
375.516	6.5
376.302	8.5
377.088	6.5
377.873	5.5
378.659	4.5
379.445	7.5
380.23	9.5
381.015	7.5
381.801	9.5
382.586	9.5
383.371	7.5
384.156	8.5
384.941	6.5
385.726	8.5
386.511	6.5
387.296	9.5
388.08	7.5
388.865	8.5
389.649	7.5
390.434	8.5
391.218	8.5
392.003	8.5
392.787	10.5
393.571	7.5
394.355	9.5
395.139	9.5
395.923	7.5
396.707	10.5
397.491	7.5
398.274	8.5
399.058	9.5
399.842	9.5
400.625	9.5
401.408	11.5
402.192	12.5
402.975	10.5
403.758	8.5
404.541	11.5
405.324	7.5
406.107	9.5
406.89	11.5
407.673	11.5
408.456	11.5
409.238	10.5
410.021	14.5
410.803	14.5
411.586	14.5
412.368	14.5
413.151	9.5
413.933	12.5
414.715	11.5
415.497	14.5
416.279	13.5
417.061	13.5
417.843	12.5
418.624	13.5
419.406	13.5
420.188	15.5
420.969	15.5
421.751	16.5
422.532	13.5
423.313	12.5
424.095	17.5
424.876	17.5
425.657	18.5
426.438	16.5
427.219	16.5
428	17.5
428.78	20.5
429.561	20.5
430.342	17.5
431.122	18.5
431.903	22.5
432.683	21.5
433.464	24.5
434.244	21.5
435.024	25.5
435.804	26.5
436.584	25.5
437.364	26.5
438.144	29.5
438.924	28.5
439.704	32.5
440.483	35.5
441.263	34.5
442.042	38.5
442.822	40.5
443.601	45.5
444.38	42.5
445.16	47.5
445.939	48.5
446.718	55.5
447.497	60.5
448.276	63.5
449.054	69.5
449.833	76.5
450.612	84.5
451.391	92.5
452.169	95.5
452.948	108.5
453.726	120.5
454.504	130.5
455.282	140.5
456.061	155.5
456.839	178.5
457.617	201.5
458.395	219.5
459.172	237.5
459.95	273.5
460.728	300.5
461.506	329.5
462.283	373.5
463.061	418.5
463.838	473.5
464.615	527.5
465.393	585.5
466.17	662.5
466.947	734.5
467.724	811.5
468.501	916.5
469.278	1022.5
470.055	1129.5
470.831	1253.5
471.608	1394.5
472.385	1558.5
473.161	1758.5
473.938	1926.5
474.714	2157.5
475.49	2396.5
476.266	2626.5
477.043	2886.5
477.819	3214.5
478.595	3572.5
479.371	3918.5
480.146	4303.5
480.922	4760.5
481.698	5261.5
482.473	5789.5
483.249	6378.5
484.024	6972.5
484.8	7704.5
485.575	8408.5
486.35	9218.5
487.126	10136.5
487.901	11068.5
488.676	12150.5
489.451	13217.5
490.225	14370.5
491	15643.5
491.775	16987.5
492.55	18372.5
493.324	19800.5
494.099	21273.5
494.873	22776.5
495.647	24272.5
496.422	25791.5
497.196	27426.5
497.97	29004.5
498.744	30481.5
499.518	31775.5
500.292	33168.5
501.066	34272.5
501.839	35278.5
502.613	36144.5
503.387	36621.5
504.16	37026.5
504.934	37193.5
505.707	37137.5
506.48	36777.5
507.253	36341.5
508.027	35742.5
508.8	34972.5
509.573	33981.5
510.346	32934.5
511.118	31934.5
511.891	30676.5
512.664	29519.5
513.437	28310.5
514.209	27071.5
514.982	25936.5
515.754	24909.5
516.526	23718.5
517.298	22711.5
518.071	21779.5
518.843	20828.5
519.615	20024.5
520.387	19199.5
521.159	18506.5
521.93	17807.5
522.702	17028.5
523.474	16357.5
524.245	15699.5
525.017	14969.5
525.788	14273.5
526.56	13603.5
527.331	12960.5
528.102	12336.5
528.873	11735.5
529.644	11132.5
530.415	10607.5
531.186	10122.5
531.957	9517.5
532.728	8988.5
533.498	8493.5
534.269	8009.5
535.039	7598.5
535.81	7145.5
536.58	6773.5
537.351	6377.5
538.121	6009.5
538.891	5678.5
539.661	5416.5
540.431	5119.5
541.201	4849.5
541.971	4600.5
542.741	4393.5
543.51	4144.5
544.28	3941.5
545.05	3744.5
545.819	3564.5
546.588	3381.5
547.358	3178.5
548.127	3047.5
548.896	2880.5
549.665	2711.5
550.434	2599.5
551.203	2458.5
551.972	2335.5
552.741	2200.5
553.51	2078.5
554.278	1951.5
555.047	1849.5
555.815	1744.5
556.584	1646.5
557.352	1560.5
558.121	1455.5
558.889	1375.5
559.657	1297.5
560.425	1219.5
561.193	1158.5
561.961	1112.5
562.729	1022.5
563.496	999.5
564.264	916.5
565.032	880.5
565.799	845.5
566.567	785.5
567.334	744.5
568.101	714.5
568.869	660.5
569.636	621.5
570.403	584.5
571.17	550.5
571.937	526.5
572.704	495.5
573.471	469.5
574.237	440.5
575.004	415.5
575.771	392.5
576.537	357.5
577.303	350.5
578.07	319.5
578.836	308.5
579.602	292.5
580.368	276.5
581.134	260.5
581.9	248.5
582.666	241.5
583.432	221.5
584.198	209.5
584.964	199.5
585.729	196.5
586.495	182.5
587.26	169.5
588.025	157.5
588.791	158.5
589.556	149.5
590.321	140.5
591.086	133.5
591.851	123.5
592.616	118.5
593.381	117.5
594.146	105.5
594.911	102.5
595.675	99.5
596.44	89.5
597.204	88.5
597.969	83.5
598.733	85.5
599.497	78.5
600.261	77.5
601.025	70.5
601.79	73.5
602.553	66.5
603.317	65.5
604.081	61.5
604.845	57.5
605.609	56.5
606.372	50.5
607.136	51.5
607.899	49.5
608.662	49.5
609.426	44.5
610.189	45.5
610.952	45.5
611.715	41.5
612.478	39.5
613.241	38.5
614.004	38.5
614.767	36.5
615.529	31.5
616.292	33.5
617.055	29.5
617.817	32.5
618.579	32.5
619.342	30.5
620.104	30.5
620.866	27.5
621.628	25.5
622.39	26.5
623.152	26.5
623.914	22.5
624.676	22.5
625.438	22.5
626.199	20.5
626.961	22.5
627.722	21.5
628.484	20.5
629.245	18.5
630.006	19.5
630.768	18.5
631.529	17.5
632.29	16.5
633.051	18.5
633.812	17.5
634.573	16.5
635.333	17.5
636.094	17.5
636.855	12.5
637.615	14.5
638.376	15.5
639.136	14.5
639.896	12.5
640.657	12.5
641.417	12.5
642.177	13.5
642.937	12.5
643.697	12.5
644.457	11.5
645.216	12.5
645.976	9.5
646.736	10.5
647.495	10.5
648.255	11.5
649.014	9.5
649.774	10.5
650.533	7.5
651.292	9.5
652.051	8.5
652.81	8.5
653.569	10.5
654.328	11.5
655.087	9.5
655.846	8.5
656.604	8.5
657.363	8.5
658.121	8.5
658.88	10.5
659.638	8.5
660.397	9.5
661.155	9.5
661.913	8.5
662.671	8.5
663.429	9.5
664.187	6.5
664.945	7.5
665.703	8.5
666.46	8.5
667.218	7.5
667.976	7.5
668.733	7.5
669.49	6.5
670.248	8.5
671.005	7.5
671.762	7.5
672.519	7.5
673.276	5.5
674.033	7.5
674.79	4.5
675.547	3.5
676.304	5.5
677.06	4.5
677.817	6.5
678.574	5.5
679.33	6.5
680.086	7.5
680.843	4.5
681.599	7.5
682.355	4.5
683.111	9.5
683.867	6.5
684.623	7.5
685.379	6.5
686.135	5.5
686.89	5.5
687.646	6.5
688.402	4.5
689.157	5.5
689.912	3.5
690.668	2.5
691.423	6.5
692.178	6.5
692.933	6.5
693.688	5.5
694.443	6.5
695.198	2.5
695.953	7.5
696.708	4.5
697.462	5.5
698.217	5.5
698.972	1.5
699.726	6.5
700.48	5.5
701.235	4.5
701.989	2.5
702.743	5.5
703.497	5.5
704.251	6.5
705.005	6.5
705.759	2.5
706.513	7.5
707.266	5.5
708.02	3.5
708.774	4.5
709.527	5.5
710.28	6.5
711.034	4.5
711.787	7.5
712.54	8.5
713.293	5.5
714.046	6.5
714.799	3.5
715.552	5.5
716.305	7.5
717.058	4.5
717.81	6.5
718.563	6.5
719.315	4.5
720.068	5.5
720.82	6.5
721.573	5.5
722.325	2.5
723.077	7.5
723.829	8.5
724.581	6.5
725.333	6.5
726.085	7.5
726.836	4.5
727.588	5.5
728.34	5.5
729.091	5.5
729.843	6.5
730.594	6.5
731.346	7.5
732.097	8.5
732.848	5.5
733.599	7.5
734.35	6.5
735.101	5.5
735.852	7.5
736.603	6.5
737.354	6.5
738.104	2.5
738.855	5.5
739.605	6.5
740.356	7.5
741.106	5.5
741.856	6.5
742.607	6.5
743.357	9.5
744.107	6.5
744.857	7.5
745.607	8.5
746.357	6.5
747.106	7.5
747.856	9.5
748.606	6.5
749.355	7.5
750.105	8.5
750.854	7.5
751.603	6.5
752.353	7.5
753.102	9.5
753.851	9.5
754.6	8.5
755.349	7.5
756.098	10.5
756.847	9.5
757.595	7.5
758.344	8.5
759.093	3.5
759.841	10.5
760.589	8.5
761.338	8.5
762.086	9.5
762.834	10.5
763.582	8.5
764.331	9.5
765.079	10.5
765.826	10.5
766.574	9.5
767.322	13.5
768.07	10.5
768.817	7.5
769.565	10.5
770.312	10.5
771.06	10.5
771.807	11.5
772.554	10.5
773.302	10.5
774.049	10.5
774.796	10.5
775.543	10.5
776.29	13.5
777.036	10.5
777.783	9.5
778.53	11.5
779.276	10.5
780.023	11.5
780.769	12.5
781.516	16.5
782.262	11.5
783.008	11.5
783.754	13.5
784.5	12.5
785.246	15.5
785.992	13.5
786.738	11.5
787.484	13.5
788.23	12.5
788.975	12.5
789.721	12.5
790.466	12.5
791.212	12.5
791.957	8.5
792.702	12.5
793.447	10.5
794.193	13.5
794.938	10.5
795.683	11.5
796.427	13.5
797.172	10.5
797.917	9.5
798.662	10.5
799.406	7.5
800.151	9.5
800.895	9.5
801.64	10.5
802.384	9.5
803.128	9.5
803.872	9.5
804.616	7.5
805.36	7.5
806.104	7.5
806.848	8.5
807.592	9.5
808.336	8.5
809.079	8.5
809.823	9.5
810.566	9.5
811.31	8.5
812.053	7.5
812.796	6.5
813.539	6.5
814.283	7.5
815.026	5.5
815.769	6.5
816.511	4.5
817.254	5.5
817.997	5.5
818.74	3.5
819.482	5.5
820.225	6.5
820.967	6.5
821.71	4.5
822.452	3.5
823.194	5.5
823.936	6.5
824.678	5.5
825.42	5.5
826.162	5.5
826.904	4.5
827.646	5.5
828.388	4.5
829.129	4.5
829.871	5.5
830.612	5.5
831.354	3.5
832.095	5.5
832.836	2.5
833.577	1.5
834.319	0.5
835.06	5.5
835.801	6.5
836.542	4.5
837.282	6.5
838.023	5.5
838.764	4.5
839.504	2.5
840.245	2.5
840.985	5.5
841.726	5.5
842.466	3.5
843.206	3.5
843.946	3.5
844.687	3.5
845.427	3.5
846.166	3.5
846.906	2.5
847.646	4.5
848.386	2.5
849.125	4.5
849.865	5.5
850.605	2.5
851.344	5.5
852.083	2.5
852.823	3.5
853.562	2.5
854.301	0.5
855.04	2.5
855.779	2.5
856.518	2.5
857.257	0.5
857.995	4.5
858.734	2.5
859.473	3.5
860.211	2.5
860.95	2.5
861.688	5.5
862.426	3.5
863.165	1.5
863.903	5.5
864.641	3.5
865.379	3.5
866.117	1.5
866.855	2.5
867.593	2.5
868.33	1.5
869.068	1.5
869.806	0.5
870.543	2.5
871.28	3.5
872.018	2.5
872.755	0.5
873.492	2.5
874.229	2.5
874.967	2.5
875.703	1.5
876.44	-0.5
877.177	2.5
877.914	1.5
878.651	0.5
879.387	2.5
880.124	0.5
880.86	1.5
881.597	-0.5
882.333	1.5
883.069	0.5
883.806	-0.5
884.542	1.5
885.278	0.5
886.014	-0.5
886.749	3.5
887.485	1.5
888.221	3.5
888.957	0.5
889.692	2.5
890.428	0.5
891.163	0.5
891.899	1.5
892.634	1.5
893.369	1.5
894.104	-0.5
894.839	0.5
895.574	2.5
896.309	-0.5
897.044	2.5
897.779	1.5
898.514	-1.5
899.248	0.5
899.983	1.5
900.717	1.5
901.452	1.5
902.186	2.5
902.92	0.5
903.654	2.5
904.389	1.5
905.123	0.5
905.857	1.5
906.59	1.5
907.324	-1.5
908.058	-1.5
908.792	-0.5
909.525	1.5
910.259	0.5
910.992	0.5
911.726	2.5
912.459	1.5
913.192	0.5
913.925	-1.5
914.658	0.5
915.391	1.5
916.124	2.5
916.857	2.5
917.59	-0.5
918.323	0.5
919.055	1.5
919.788	0.5
920.521	1.5
921.253	1.5
921.985	-1.5
922.718	0.5
923.45	1.5
924.182	1.5
924.914	-0.5
925.646	-0.5
926.378	-1.5
927.11	0.5
927.841	0.5
928.573	0.5
929.305	1.5
930.036	0.5
930.768	1.5
931.499	0.5
932.23	0.5
932.962	0.5
933.693	-0.5
934.424	0.5
935.155	-0.5
935.886	-0.5
936.617	-1.5
937.348	-0.5
938.078	-1.5
938.809	-0.5
939.54	0.5
940.27	0.5
941.001	-0.5
941.731	0.5
942.461	0.5
943.191	1.5
943.922	1.5
944.652	0.5
945.382	0.5
946.112	0.5
946.841	0.5
947.571	-0.5
948.301	0.5
949.031	0.5
949.76	-0.5
950.49	1.5
951.219	-1.5
951.948	-2.5
952.678	0.5
953.407	2.5
954.136	-0.5
954.865	0.5
955.594	-2.5
956.323	2.5
957.052	-0.5
957.78	0.5
958.509	2.5
959.238	1.5
959.966	-1.5
960.695	1.5
961.423	0.5
962.151	1.5
962.88	0.5
963.608	2.5
964.336	0.5
965.064	-0.5
965.792	0.5
966.52	-1.5
967.247	-0.5
967.975	-0.5
968.703	2.5
969.43	-0.5
970.158	-1.5
970.885	1.5
971.613	-0.5
972.34	1.5
973.067	1.5
973.794	1.5
974.521	-3.5
975.248	0.5
975.975	-0.5
976.702	0.5
977.429	-0.5
978.156	0.5
978.882	-1.5
979.609	0.5
980.335	-1.5
981.062	0.5
981.788	0.5
982.514	0.5
983.24	1.5
983.967	-0.5
984.693	2.5
985.419	-1.5
986.144	-1.5
986.87	-0.5
987.596	0.5
988.322	1.5
989.047	-0.5
989.773	0.5
990.498	-0.5
991.224	0.5
991.949	0.5
992.674	1.5
993.399	-0.5
994.124	-0.5
994.849	0.5
995.574	-2.5
996.299	1.5
997.024	1.5
997.749	0.5
998.473	0.5
999.198	-0.5
999.922	0.5
1000.647	0.5
1001.371	5.5
1002.095	-1.5
1002.82	-1.5
1003.544	-0.5
1004.268	3.5
1004.992	3.5
1005.716	4.5
1006.439	2.5
1007.163	2.5
1007.887	4.5
1008.611	2.5
1009.334	1.5
1010.058	2.5
1010.781	-0.5
1011.504	-0.5
1012.228	2.5
1012.951	-1.5
1013.674	1.5
1014.397	-0.5
1015.12	-1.5
