节点500_425_QEPB04081__322__15-53-39-838.txt的数据

Date: Wed Nov 12 15:53:39 CST 2025
User: PC
Spectrometer: QEPB0408
触发模式: 0
积分时间 (秒): 1.000000E-2
Scans to average: 1
启用暗噪声校正: true
启用非线性校正: false
滑动平均宽度: 0
X轴模式: Wavelengths
Number of Pixels in Spectrum: 1044
>>>>>Begin Spectral Data<<<<<
220.843	3.75
221.644	0.75
222.444	2.75
223.244	-0.25
224.045	1.75
224.845	3.75
225.645	3.75
226.445	4.75
227.245	0.75
228.045	4.75
228.845	3.75
229.645	3.75
230.444	3.75
231.244	0.75
232.043	4.75
232.843	3.75
233.642	3.75
234.442	2.75
235.241	4.75
236.04	6.75
236.839	4.75
237.638	7.75
238.437	6.75
239.236	5.75
240.035	6.75
240.833	3.75
241.632	7.75
242.43	5.75
243.229	6.75
244.027	7.75
244.826	7.75
245.624	6.75
246.422	7.75
247.22	7.75
248.018	7.75
248.816	5.75
249.614	7.75
250.412	8.75
251.21	7.75
252.007	8.75
252.805	11.75
253.602	10.75
254.4	8.75
255.197	9.75
255.994	7.75
256.791	12.75
257.589	16.75
258.386	14.75
259.183	13.75
259.979	13.75
260.776	14.75
261.573	14.75
262.37	13.75
263.166	15.75
263.963	17.75
264.759	18.75
265.556	17.75
266.352	18.75
267.148	17.75
267.944	19.75
268.74	21.75
269.536	19.75
270.332	21.75
271.128	19.75
271.924	17.75
272.719	20.75
273.515	21.75
274.311	19.75
275.106	21.75
275.901	21.75
276.697	24.75
277.492	23.75
278.287	21.75
279.082	21.75
279.877	25.75
280.672	22.75
281.467	27.75
282.262	25.75
283.056	22.75
283.851	23.75
284.646	22.75
285.44	23.75
286.234	22.75
287.029	25.75
287.823	27.75
288.617	22.75
289.411	21.75
290.205	20.75
290.999	23.75
291.793	21.75
292.587	23.75
293.381	22.75
294.174	22.75
294.968	19.75
295.761	21.75
296.555	20.75
297.348	18.75
298.141	19.75
298.935	19.75
299.728	17.75
300.521	17.75
301.314	16.75
302.107	15.75
302.899	15.75
303.692	15.75
304.485	17.75
305.277	16.75
306.07	15.75
306.862	14.75
307.655	12.75
308.447	13.75
309.239	13.75
310.031	13.75
310.823	12.75
311.615	11.75
312.407	11.75
313.199	10.75
313.991	11.75
314.783	11.75
315.574	11.75
316.366	10.75
317.157	11.75
317.949	10.75
318.74	10.75
319.531	11.75
320.322	9.75
321.113	9.75
321.904	10.75
322.695	10.75
323.486	11.75
324.277	12.75
325.068	9.75
325.858	10.75
326.649	5.75
327.439	9.75
328.23	8.75
329.02	9.75
329.81	4.75
330.6	7.75
331.391	8.75
332.181	7.75
332.971	8.75
333.76	10.75
334.55	9.75
335.34	8.75
336.13	9.75
336.919	7.75
337.709	6.75
338.498	6.75
339.287	6.75
340.077	9.75
340.866	7.75
341.655	7.75
342.444	8.75
343.233	8.75
344.022	6.75
344.811	6.75
345.6	7.75
346.388	7.75
347.177	7.75
347.965	7.75
348.754	7.75
349.542	9.75
350.33	8.75
351.119	4.75
351.907	5.75
352.695	6.75
353.483	6.75
354.271	7.75
355.059	7.75
355.846	5.75
356.634	4.75
357.422	7.75
358.209	7.75
358.997	6.75
359.784	6.75
360.571	5.75
361.359	6.75
362.146	8.75
362.933	8.75
363.72	5.75
364.507	6.75
365.294	6.75
366.081	5.75
366.867	7.75
367.654	6.75
368.44	7.75
369.227	3.75
370.013	5.75
370.8	7.75
371.586	8.75
372.372	6.75
373.158	4.75
373.944	8.75
374.73	4.75
375.516	7.75
376.302	7.75
377.088	7.75
377.873	4.75
378.659	8.75
379.445	5.75
380.23	4.75
381.015	4.75
381.801	8.75
382.586	7.75
383.371	6.75
384.156	7.75
384.941	6.75
385.726	5.75
386.511	7.75
387.296	7.75
388.08	8.75
388.865	6.75
389.649	7.75
390.434	7.75
391.218	6.75
392.003	8.75
392.787	6.75
393.571	8.75
394.355	5.75
395.139	8.75
395.923	8.75
396.707	9.75
397.491	9.75
398.274	5.75
399.058	7.75
399.842	7.75
400.625	9.75
401.408	8.75
402.192	8.75
402.975	9.75
403.758	7.75
404.541	9.75
405.324	9.75
406.107	11.75
406.89	10.75
407.673	8.75
408.456	9.75
409.238	9.75
410.021	13.75
410.803	9.75
411.586	10.75
412.368	9.75
413.151	9.75
413.933	10.75
414.715	9.75
415.497	10.75
416.279	11.75
417.061	11.75
417.843	11.75
418.624	13.75
419.406	14.75
420.188	10.75
420.969	12.75
421.751	12.75
422.532	13.75
423.313	16.75
424.095	13.75
424.876	14.75
425.657	13.75
426.438	14.75
427.219	15.75
428	14.75
428.78	20.75
429.561	17.75
430.342	17.75
431.122	19.75
431.903	18.75
432.683	21.75
433.464	19.75
434.244	23.75
435.024	22.75
435.804	24.75
436.584	28.75
437.364	24.75
438.144	25.75
438.924	27.75
439.704	31.75
440.483	33.75
441.263	36.75
442.042	36.75
442.822	39.75
443.601	44.75
444.38	46.75
445.16	49.75
445.939	49.75
446.718	59.75
447.497	60.75
448.276	65.75
449.054	72.75
449.833	80.75
450.612	84.75
451.391	93.75
452.169	100.75
452.948	116.75
453.726	122.75
454.504	140.75
455.282	150.75
456.061	172.75
456.839	186.75
457.617	208.75
458.395	233.75
459.172	258.75
459.95	283.75
460.728	318.75
461.506	355.75
462.283	402.75
463.061	441.75
463.838	496.75
464.615	559.75
465.393	626.75
466.17	694.75
466.947	770.75
467.724	860.75
468.501	960.75
469.278	1049.75
470.055	1172.75
470.831	1300.75
471.608	1455.75
472.385	1591.75
473.161	1765.75
473.938	1948.75
474.714	2148.75
475.49	2379.75
476.266	2626.75
477.043	2862.75
477.819	3163.75
478.595	3493.75
479.371	3818.75
480.146	4208.75
480.922	4617.75
481.698	5053.75
482.473	5517.75
483.249	6039.75
484.024	6632.75
484.8	7259.75
485.575	7906.75
486.35	8635.75
487.126	9391.75
487.901	10233.75
488.676	11200.75
489.451	12146.75
490.225	13213.75
491	14298.75
491.775	15490.75
492.55	16639.75
493.324	17988.75
494.099	19262.75
494.873	20540.75
495.647	21914.75
496.422	23367.75
497.196	24777.75
497.97	26295.75
498.744	27633.75
499.518	28958.75
500.292	30267.75
501.066	31321.75
501.839	32425.75
502.613	33312.75
503.387	34079.75
504.16	34603.75
504.934	34969.75
505.707	35067.75
506.48	34956.75
507.253	34688.75
508.027	34403.75
508.8	33819.75
509.573	33149.75
510.346	32370.75
511.118	31388.75
511.891	30443.75
512.664	29328.75
513.437	28298.75
514.209	27151.75
514.982	26108.75
515.754	25029.75
516.526	23962.75
517.298	22936.75
518.071	22001.75
518.843	21148.75
519.615	20222.75
520.387	19445.75
521.159	18669.75
521.93	17982.75
522.702	17275.75
523.474	16619.75
524.245	15962.75
525.017	15195.75
525.788	14515.75
526.56	13897.75
527.331	13240.75
528.102	12597.75
528.873	12044.75
529.644	11461.75
530.415	10981.75
531.186	10406.75
531.957	9872.75
532.728	9331.75
533.498	8828.75
534.269	8333.75
535.039	7894.75
535.81	7470.75
536.58	7037.75
537.351	6623.75
538.121	6284.75
538.891	5963.75
539.661	5628.75
540.431	5357.75
541.201	5053.75
541.971	4806.75
542.741	4553.75
543.51	4309.75
544.28	4084.75
545.05	3909.75
545.819	3737.75
546.588	3517.75
547.358	3335.75
548.127	3173.75
548.896	3045.75
549.665	2863.75
550.434	2735.75
551.203	2575.75
551.972	2427.75
552.741	2310.75
553.51	2180.75
554.278	2054.75
555.047	1949.75
555.815	1832.75
556.584	1726.75
557.352	1634.75
558.121	1540.75
558.889	1442.75
559.657	1378.75
560.425	1293.75
561.193	1225.75
561.961	1165.75
562.729	1101.75
563.496	1039.75
564.264	977.75
565.032	930.75
565.799	877.75
566.567	828.75
567.334	784.75
568.101	747.75
568.869	689.75
569.636	663.75
570.403	620.75
571.17	601.75
571.937	554.75
572.704	526.75
573.471	499.75
574.237	475.75
575.004	445.75
575.771	404.75
576.537	389.75
577.303	366.75
578.07	348.75
578.836	327.75
579.602	305.75
580.368	296.75
581.134	280.75
581.9	266.75
582.666	247.75
583.432	236.75
584.198	225.75
584.964	211.75
585.729	202.75
586.495	189.75
587.26	188.75
588.025	175.75
588.791	166.75
589.556	159.75
590.321	146.75
591.086	142.75
591.851	127.75
592.616	124.75
593.381	117.75
594.146	112.75
594.911	111.75
595.675	101.75
596.44	100.75
597.204	93.75
597.969	92.75
598.733	88.75
599.497	81.75
600.261	79.75
601.025	76.75
601.79	75.75
602.553	67.75
603.317	63.75
604.081	66.75
604.845	60.75
605.609	59.75
606.372	52.75
607.136	54.75
607.899	50.75
608.662	49.75
609.426	47.75
610.189	48.75
610.952	43.75
611.715	41.75
612.478	41.75
613.241	38.75
614.004	38.75
614.767	40.75
615.529	36.75
616.292	37.75
617.055	31.75
617.817	29.75
618.579	31.75
619.342	28.75
620.104	29.75
620.866	27.75
621.628	24.75
622.39	27.75
623.152	22.75
623.914	22.75
624.676	23.75
625.438	23.75
626.199	23.75
626.961	19.75
627.722	18.75
628.484	18.75
629.245	21.75
630.006	19.75
630.768	19.75
631.529	17.75
632.29	15.75
633.051	15.75
633.812	17.75
634.573	15.75
635.333	12.75
636.094	15.75
636.855	14.75
637.615	15.75
638.376	14.75
639.136	12.75
639.896	11.75
640.657	14.75
641.417	12.75
642.177	12.75
642.937	11.75
643.697	12.75
644.457	11.75
645.216	9.75
645.976	10.75
646.736	10.75
647.495	11.75
648.255	9.75
649.014	6.75
649.774	10.75
650.533	9.75
651.292	8.75
652.051	7.75
652.81	9.75
653.569	9.75
654.328	9.75
655.087	9.75
655.846	8.75
656.604	9.75
657.363	6.75
658.121	9.75
658.88	9.75
659.638	6.75
660.397	7.75
661.155	5.75
661.913	5.75
662.671	3.75
663.429	7.75
664.187	6.75
664.945	5.75
665.703	5.75
666.46	7.75
667.218	6.75
667.976	6.75
668.733	6.75
669.49	6.75
670.248	8.75
671.005	5.75
671.762	6.75
672.519	5.75
673.276	6.75
674.033	7.75
674.79	6.75
675.547	4.75
676.304	4.75
677.06	5.75
677.817	7.75
678.574	7.75
679.33	4.75
680.086	3.75
680.843	3.75
681.599	3.75
682.355	3.75
683.111	6.75
683.867	3.75
684.623	4.75
685.379	5.75
686.135	3.75
686.89	3.75
687.646	4.75
688.402	2.75
689.157	3.75
689.912	5.75
690.668	5.75
691.423	6.75
692.178	3.75
692.933	3.75
693.688	4.75
694.443	5.75
695.198	1.75
695.953	6.75
696.708	2.75
697.462	1.75
698.217	4.75
698.972	2.75
699.726	5.75
700.48	3.75
701.235	5.75
701.989	5.75
702.743	1.75
703.497	4.75
704.251	5.75
705.005	5.75
705.759	5.75
706.513	3.75
707.266	5.75
708.02	2.75
708.774	5.75
709.527	3.75
710.28	3.75
711.034	5.75
711.787	4.75
712.54	3.75
713.293	3.75
714.046	3.75
714.799	5.75
715.552	6.75
716.305	4.75
717.058	3.75
717.81	2.75
718.563	2.75
719.315	4.75
720.068	1.75
720.82	5.75
721.573	5.75
722.325	4.75
723.077	4.75
723.829	4.75
724.581	6.75
725.333	6.75
726.085	5.75
726.836	5.75
727.588	5.75
728.34	3.75
729.091	3.75
729.843	4.75
730.594	5.75
731.346	5.75
732.097	5.75
732.848	6.75
733.599	4.75
734.35	7.75
735.101	3.75
735.852	5.75
736.603	5.75
737.354	5.75
738.104	3.75
738.855	1.75
739.605	3.75
740.356	5.75
741.106	6.75
741.856	6.75
742.607	8.75
743.357	7.75
744.107	4.75
744.857	6.75
745.607	5.75
746.357	6.75
747.106	5.75
747.856	4.75
748.606	6.75
749.355	7.75
750.105	8.75
750.854	6.75
751.603	8.75
752.353	9.75
753.102	5.75
753.851	4.75
754.6	6.75
755.349	7.75
756.098	7.75
756.847	5.75
757.595	7.75
758.344	7.75
759.093	9.75
759.841	9.75
760.589	8.75
761.338	5.75
762.086	8.75
762.834	8.75
763.582	7.75
764.331	8.75
765.079	10.75
765.826	7.75
766.574	9.75
767.322	9.75
768.07	10.75
768.817	8.75
769.565	11.75
770.312	8.75
771.06	8.75
771.807	9.75
772.554	10.75
773.302	8.75
774.049	8.75
774.796	7.75
775.543	9.75
776.29	9.75
777.036	10.75
777.783	9.75
778.53	12.75
779.276	10.75
780.023	6.75
780.769	13.75
781.516	9.75
782.262	8.75
783.008	12.75
783.754	9.75
784.5	10.75
785.246	10.75
785.992	11.75
786.738	11.75
787.484	8.75
788.23	11.75
788.975	7.75
789.721	10.75
790.466	8.75
791.212	9.75
791.957	12.75
792.702	9.75
793.447	9.75
794.193	9.75
794.938	11.75
795.683	9.75
796.427	9.75
797.172	9.75
797.917	8.75
798.662	7.75
799.406	9.75
800.151	8.75
800.895	9.75
801.64	9.75
802.384	10.75
803.128	7.75
803.872	9.75
804.616	8.75
805.36	6.75
806.104	7.75
806.848	5.75
807.592	5.75
808.336	6.75
809.079	7.75
809.823	5.75
810.566	5.75
811.31	5.75
812.053	6.75
812.796	4.75
813.539	7.75
814.283	3.75
815.026	6.75
815.769	4.75
816.511	7.75
817.254	4.75
817.997	4.75
818.74	5.75
819.482	7.75
820.225	5.75
820.967	3.75
821.71	7.75
822.452	5.75
823.194	7.75
823.936	4.75
824.678	4.75
825.42	4.75
826.162	1.75
826.904	5.75
827.646	6.75
828.388	3.75
829.129	3.75
829.871	3.75
830.612	4.75
831.354	3.75
832.095	5.75
832.836	3.75
833.577	3.75
834.319	6.75
835.06	3.75
835.801	3.75
836.542	2.75
837.282	3.75
838.023	4.75
838.764	3.75
839.504	3.75
840.245	2.75
840.985	1.75
841.726	4.75
842.466	2.75
843.206	3.75
843.946	4.75
844.687	2.75
845.427	3.75
846.166	3.75
846.906	2.75
847.646	2.75
848.386	4.75
849.125	2.75
849.865	3.75
850.605	2.75
851.344	1.75
852.083	4.75
852.823	0.75
853.562	3.75
854.301	1.75
855.04	1.75
855.779	3.75
856.518	1.75
857.257	3.75
857.995	1.75
858.734	3.75
859.473	2.75
860.211	3.75
860.95	1.75
861.688	1.75
862.426	1.75
863.165	1.75
863.903	2.75
864.641	2.75
865.379	1.75
866.117	1.75
866.855	2.75
867.593	2.75
868.33	-0.25
869.068	1.75
869.806	1.75
870.543	0.75
871.28	2.75
872.018	1.75
872.755	-0.25
873.492	2.75
874.229	-1.25
874.967	1.75
875.703	-0.25
876.44	2.75
877.177	0.75
877.914	-1.25
878.651	-0.25
879.387	-0.25
880.124	-0.25
880.86	-1.25
881.597	0.75
882.333	1.75
883.069	-0.25
883.806	0.75
884.542	0.75
885.278	0.75
886.014	0.75
886.749	-0.25
887.485	1.75
888.221	0.75
888.957	-0.25
889.692	1.75
890.428	0.75
891.163	1.75
891.899	1.75
892.634	0.75
893.369	1.75
894.104	1.75
894.839	-0.25
895.574	-1.25
896.309	0.75
897.044	-0.25
897.779	1.75
898.514	0.75
899.248	1.75
899.983	-2.25
900.717	0.75
901.452	-1.25
902.186	0.75
902.92	2.75
903.654	0.75
904.389	0.75
905.123	2.75
905.857	0.75
906.59	-0.25
907.324	0.75
908.058	-0.25
908.792	-1.25
909.525	0.75
910.259	1.75
910.992	0.75
911.726	-1.25
912.459	-1.25
913.192	0.75
913.925	-1.25
914.658	-1.25
915.391	-0.25
916.124	-1.25
916.857	1.75
917.59	-0.25
918.323	-1.25
919.055	2.75
919.788	0.75
920.521	0.75
921.253	-0.25
921.985	-0.25
922.718	-0.25
923.45	1.75
924.182	-1.25
924.914	-1.25
925.646	1.75
926.378	0.75
927.11	-2.25
927.841	0.75
928.573	-2.25
929.305	-3.25
930.036	-1.25
930.768	-0.25
931.499	1.75
932.23	0.75
932.962	-0.25
933.693	-1.25
934.424	-0.25
935.155	-2.25
935.886	-0.25
936.617	0.75
937.348	0.75
938.078	0.75
938.809	-0.25
939.54	0.75
940.27	0.75
941.001	0.75
941.731	-0.25
942.461	-1.25
943.191	-0.25
943.922	0.75
944.652	-1.25
945.382	-1.25
946.112	-1.25
946.841	0.75
947.571	-0.25
948.301	-1.25
949.031	-0.25
949.76	-2.25
950.49	1.75
951.219	-2.25
951.948	-0.25
952.678	0.75
953.407	-0.25
954.136	-0.25
954.865	-0.25
955.594	0.75
956.323	-2.25
957.052	1.75
957.78	-0.25
958.509	0.75
959.238	-0.25
959.966	-0.25
960.695	1.75
961.423	1.75
962.151	-2.25
962.88	0.75
963.608	-0.25
964.336	1.75
965.064	-2.25
965.792	-0.25
966.52	1.75
967.247	-0.25
967.975	-0.25
968.703	-2.25
969.43	0.75
970.158	-1.25
970.885	-0.25
971.613	0.75
972.34	-0.25
973.067	-0.25
973.794	-0.25
974.521	-0.25
975.248	-0.25
975.975	0.75
976.702	-0.25
977.429	-2.25
978.156	-0.25
978.882	-1.25
979.609	-1.25
980.335	-0.25
981.062	0.75
981.788	1.75
982.514	-0.25
983.24	-0.25
983.967	0.75
984.693	0.75
985.419	1.75
986.144	0.75
986.87	-1.25
987.596	0.75
988.322	-1.25
989.047	-0.25
989.773	-0.25
990.498	-1.25
991.224	-0.25
991.949	0.75
992.674	-0.25
993.399	-0.25
994.124	-1.25
994.849	-0.25
995.574	0.75
996.299	-1.25
997.024	-0.25
997.749	-1.25
998.473	0.75
999.198	-0.25
999.922	0.75
1000.647	-0.25
1001.371	3.75
1002.095	-1.25
1002.82	-1.25
1003.544	-0.25
1004.268	0.75
1004.992	0.75
1005.716	1.75
1006.439	1.75
1007.163	3.75
1007.887	1.75
1008.611	-0.25
1009.334	-0.25
1010.058	-1.25
1010.781	-0.25
1011.504	-0.25
1012.228	0.75
1012.951	-0.25
1013.674	0.75
1014.397	-1.25
1015.12	-0.25
