节点500_425_QEPB04081__156__15-50-54-236.txt的数据

Date: Wed Nov 12 15:50:54 CST 2025
User: PC
Spectrometer: QEPB0408
触发模式: 0
积分时间 (秒): 1.000000E-2
Scans to average: 1
启用暗噪声校正: true
启用非线性校正: false
滑动平均宽度: 0
X轴模式: Wavelengths
Number of Pixels in Spectrum: 1044
>>>>>Begin Spectral Data<<<<<
220.843	3.12
221.644	1.12
222.444	4.12
223.244	1.12
224.045	3.12
224.845	4.12
225.645	4.12
226.445	3.12
227.245	2.12
228.045	2.12
228.845	3.12
229.645	4.12
230.444	4.12
231.244	4.12
232.043	4.12
232.843	4.12
233.642	4.12
234.442	7.12
235.241	6.12
236.04	7.12
236.839	6.12
237.638	4.12
238.437	4.12
239.236	6.12
240.035	6.12
240.833	6.12
241.632	7.12
242.43	4.12
243.229	7.12
244.027	5.12
244.826	6.12
245.624	8.12
246.422	9.12
247.22	7.12
248.018	4.12
248.816	10.12
249.614	5.12
250.412	9.12
251.21	9.12
252.007	8.12
252.805	9.12
253.602	11.12
254.4	11.12
255.197	9.12
255.994	10.12
256.791	10.12
257.589	13.12
258.386	14.12
259.183	14.12
259.979	15.12
260.776	16.12
261.573	16.12
262.37	15.12
263.166	16.12
263.963	17.12
264.759	15.12
265.556	19.12
266.352	18.12
267.148	17.12
267.944	21.12
268.74	19.12
269.536	21.12
270.332	22.12
271.128	19.12
271.924	22.12
272.719	22.12
273.515	22.12
274.311	25.12
275.106	22.12
275.901	23.12
276.697	22.12
277.492	23.12
278.287	27.12
279.082	22.12
279.877	23.12
280.672	23.12
281.467	25.12
282.262	25.12
283.056	25.12
283.851	25.12
284.646	25.12
285.44	22.12
286.234	22.12
287.029	24.12
287.823	27.12
288.617	25.12
289.411	23.12
290.205	22.12
290.999	20.12
291.793	24.12
292.587	22.12
293.381	22.12
294.174	19.12
294.968	20.12
295.761	19.12
296.555	20.12
297.348	19.12
298.141	20.12
298.935	20.12
299.728	19.12
300.521	17.12
301.314	16.12
302.107	20.12
302.899	17.12
303.692	15.12
304.485	16.12
305.277	17.12
306.07	15.12
306.862	13.12
307.655	19.12
308.447	14.12
309.239	15.12
310.031	14.12
310.823	13.12
311.615	13.12
312.407	11.12
313.199	12.12
313.991	12.12
314.783	12.12
315.574	12.12
316.366	9.12
317.157	13.12
317.949	12.12
318.74	12.12
319.531	11.12
320.322	7.12
321.113	9.12
321.904	9.12
322.695	9.12
323.486	10.12
324.277	6.12
325.068	7.12
325.858	6.12
326.649	10.12
327.439	8.12
328.23	7.12
329.02	7.12
329.81	8.12
330.6	7.12
331.391	7.12
332.181	7.12
332.971	8.12
333.76	6.12
334.55	6.12
335.34	7.12
336.13	7.12
336.919	7.12
337.709	7.12
338.498	7.12
339.287	6.12
340.077	7.12
340.866	8.12
341.655	7.12
342.444	9.12
343.233	5.12
344.022	8.12
344.811	7.12
345.6	9.12
346.388	7.12
347.177	5.12
347.965	7.12
348.754	4.12
349.542	7.12
350.33	7.12
351.119	8.12
351.907	5.12
352.695	6.12
353.483	7.12
354.271	6.12
355.059	7.12
355.846	6.12
356.634	9.12
357.422	8.12
358.209	6.12
358.997	7.12
359.784	4.12
360.571	7.12
361.359	5.12
362.146	6.12
362.933	5.12
363.72	6.12
364.507	8.12
365.294	7.12
366.081	6.12
366.867	7.12
367.654	8.12
368.44	7.12
369.227	4.12
370.013	7.12
370.8	4.12
371.586	4.12
372.372	4.12
373.158	6.12
373.944	6.12
374.73	6.12
375.516	6.12
376.302	7.12
377.088	5.12
377.873	5.12
378.659	5.12
379.445	5.12
380.23	7.12
381.015	5.12
381.801	4.12
382.586	5.12
383.371	7.12
384.156	6.12
384.941	6.12
385.726	8.12
386.511	6.12
387.296	8.12
388.08	7.12
388.865	6.12
389.649	6.12
390.434	6.12
391.218	7.12
392.003	7.12
392.787	8.12
393.571	8.12
394.355	8.12
395.139	8.12
395.923	8.12
396.707	9.12
397.491	8.12
398.274	7.12
399.058	7.12
399.842	7.12
400.625	8.12
401.408	9.12
402.192	13.12
402.975	9.12
403.758	10.12
404.541	10.12
405.324	7.12
406.107	10.12
406.89	11.12
407.673	9.12
408.456	11.12
409.238	9.12
410.021	11.12
410.803	8.12
411.586	10.12
412.368	12.12
413.151	12.12
413.933	12.12
414.715	8.12
415.497	13.12
416.279	12.12
417.061	13.12
417.843	11.12
418.624	13.12
419.406	15.12
420.188	12.12
420.969	13.12
421.751	15.12
422.532	13.12
423.313	14.12
424.095	16.12
424.876	15.12
425.657	15.12
426.438	15.12
427.219	17.12
428	18.12
428.78	17.12
429.561	19.12
430.342	19.12
431.122	19.12
431.903	20.12
432.683	20.12
433.464	20.12
434.244	20.12
435.024	23.12
435.804	27.12
436.584	28.12
437.364	24.12
438.144	29.12
438.924	29.12
439.704	29.12
440.483	34.12
441.263	33.12
442.042	35.12
442.822	39.12
443.601	38.12
444.38	44.12
445.16	47.12
445.939	51.12
446.718	53.12
447.497	60.12
448.276	64.12
449.054	71.12
449.833	77.12
450.612	81.12
451.391	87.12
452.169	97.12
452.948	111.12
453.726	117.12
454.504	130.12
455.282	146.12
456.061	166.12
456.839	183.12
457.617	201.12
458.395	216.12
459.172	248.12
459.95	277.12
460.728	309.12
461.506	338.12
462.283	388.12
463.061	429.12
463.838	480.12
464.615	525.12
465.393	588.12
466.17	672.12
466.947	745.12
467.724	833.12
468.501	917.12
469.278	1021.12
470.055	1141.12
470.831	1265.12
471.608	1407.12
472.385	1585.12
473.161	1734.12
473.938	1932.12
474.714	2139.12
475.49	2366.12
476.266	2606.12
477.043	2915.12
477.819	3179.12
478.595	3557.12
479.371	3905.12
480.146	4275.12
480.922	4714.12
481.698	5174.12
482.473	5706.12
483.249	6281.12
484.024	6888.12
484.8	7580.12
485.575	8273.12
486.35	9034.12
487.126	9877.12
487.901	10858.12
488.676	11869.12
489.451	12906.12
490.225	14061.12
491	15213.12
491.775	16628.12
492.55	17862.12
493.324	19293.12
494.099	20662.12
494.873	22017.12
495.647	23627.12
496.422	25129.12
497.196	26606.12
497.97	28190.12
498.744	29652.12
499.518	31023.12
500.292	32191.12
501.066	33365.12
501.839	34499.12
502.613	35368.12
503.387	35992.12
504.16	36417.12
504.934	36561.12
505.707	36476.12
506.48	36321.12
507.253	35875.12
508.027	35316.12
508.8	34655.12
509.573	33780.12
510.346	32917.12
511.118	31860.12
511.891	30738.12
512.664	29498.12
513.437	28238.12
514.209	27103.12
514.982	26081.12
515.754	24980.12
516.526	23818.12
517.298	22817.12
518.071	21785.12
518.843	20970.12
519.615	20083.12
520.387	19268.12
521.159	18601.12
521.93	17840.12
522.702	17124.12
523.474	16450.12
524.245	15754.12
525.017	15036.12
525.788	14359.12
526.56	13720.12
527.331	13056.12
528.102	12441.12
528.873	11787.12
529.644	11230.12
530.415	10697.12
531.186	10205.12
531.957	9634.12
532.728	9121.12
533.498	8569.12
534.269	8120.12
535.039	7659.12
535.81	7251.12
536.58	6863.12
537.351	6422.12
538.121	6135.12
538.891	5797.12
539.661	5489.12
540.431	5208.12
541.201	4903.12
541.971	4675.12
542.741	4423.12
543.51	4205.12
544.28	3980.12
545.05	3789.12
545.819	3605.12
546.588	3409.12
547.358	3213.12
548.127	3072.12
548.896	2936.12
549.665	2778.12
550.434	2627.12
551.203	2469.12
551.972	2359.12
552.741	2226.12
553.51	2114.12
554.278	1984.12
555.047	1862.12
555.815	1775.12
556.584	1670.12
557.352	1573.12
558.121	1470.12
558.889	1407.12
559.657	1329.12
560.425	1253.12
561.193	1178.12
561.961	1120.12
562.729	1052.12
563.496	992.12
564.264	951.12
565.032	896.12
565.799	842.12
566.567	803.12
567.334	763.12
568.101	706.12
568.869	669.12
569.636	636.12
570.403	596.12
571.17	569.12
571.937	541.12
572.704	500.12
573.471	477.12
574.237	443.12
575.004	419.12
575.771	403.12
576.537	377.12
577.303	352.12
578.07	332.12
578.836	315.12
579.602	293.12
580.368	278.12
581.134	271.12
581.9	252.12
582.666	241.12
583.432	227.12
584.198	217.12
584.964	201.12
585.729	196.12
586.495	182.12
587.26	180.12
588.025	166.12
588.791	159.12
589.556	148.12
590.321	136.12
591.086	133.12
591.851	127.12
592.616	124.12
593.381	114.12
594.146	109.12
594.911	107.12
595.675	103.12
596.44	95.12
597.204	87.12
597.969	87.12
598.733	83.12
599.497	80.12
600.261	77.12
601.025	72.12
601.79	71.12
602.553	68.12
603.317	63.12
604.081	60.12
604.845	59.12
605.609	54.12
606.372	57.12
607.136	53.12
607.899	50.12
608.662	47.12
609.426	46.12
610.189	43.12
610.952	42.12
611.715	41.12
612.478	40.12
613.241	37.12
614.004	37.12
614.767	35.12
615.529	31.12
616.292	33.12
617.055	29.12
617.817	29.12
618.579	29.12
619.342	27.12
620.104	26.12
620.866	29.12
621.628	23.12
622.39	23.12
623.152	24.12
623.914	23.12
624.676	21.12
625.438	21.12
626.199	22.12
626.961	21.12
627.722	17.12
628.484	16.12
629.245	15.12
630.006	19.12
630.768	17.12
631.529	16.12
632.29	16.12
633.051	16.12
633.812	14.12
634.573	16.12
635.333	13.12
636.094	14.12
636.855	15.12
637.615	13.12
638.376	15.12
639.136	13.12
639.896	10.12
640.657	9.12
641.417	11.12
642.177	10.12
642.937	9.12
643.697	9.12
644.457	12.12
645.216	9.12
645.976	12.12
646.736	9.12
647.495	9.12
648.255	9.12
649.014	11.12
649.774	9.12
650.533	9.12
651.292	7.12
652.051	9.12
652.81	5.12
653.569	8.12
654.328	8.12
655.087	8.12
655.846	7.12
656.604	8.12
657.363	8.12
658.121	6.12
658.88	10.12
659.638	7.12
660.397	6.12
661.155	6.12
661.913	6.12
662.671	6.12
663.429	5.12
664.187	4.12
664.945	7.12
665.703	4.12
666.46	7.12
667.218	7.12
667.976	6.12
668.733	7.12
669.49	8.12
670.248	7.12
671.005	4.12
671.762	7.12
672.519	2.12
673.276	6.12
674.033	7.12
674.79	4.12
675.547	6.12
676.304	5.12
677.06	3.12
677.817	5.12
678.574	4.12
679.33	5.12
680.086	3.12
680.843	7.12
681.599	5.12
682.355	4.12
683.111	5.12
683.867	4.12
684.623	4.12
685.379	4.12
686.135	4.12
686.89	4.12
687.646	5.12
688.402	6.12
689.157	3.12
689.912	3.12
690.668	3.12
691.423	5.12
692.178	4.12
692.933	2.12
693.688	4.12
694.443	6.12
695.198	4.12
695.953	6.12
696.708	6.12
697.462	4.12
698.217	5.12
698.972	3.12
699.726	7.12
700.48	3.12
701.235	5.12
701.989	5.12
702.743	2.12
703.497	5.12
704.251	2.12
705.005	4.12
705.759	4.12
706.513	3.12
707.266	4.12
708.02	2.12
708.774	5.12
709.527	4.12
710.28	3.12
711.034	4.12
711.787	3.12
712.54	5.12
713.293	3.12
714.046	4.12
714.799	4.12
715.552	7.12
716.305	3.12
717.058	5.12
717.81	4.12
718.563	2.12
719.315	3.12
720.068	5.12
720.82	5.12
721.573	4.12
722.325	0.12
723.077	5.12
723.829	5.12
724.581	5.12
725.333	4.12
726.085	3.12
726.836	6.12
727.588	5.12
728.34	6.12
729.091	4.12
729.843	6.12
730.594	4.12
731.346	4.12
732.097	5.12
732.848	6.12
733.599	5.12
734.35	3.12
735.101	5.12
735.852	6.12
736.603	6.12
737.354	5.12
738.104	5.12
738.855	4.12
739.605	8.12
740.356	3.12
741.106	6.12
741.856	7.12
742.607	7.12
743.357	6.12
744.107	6.12
744.857	5.12
745.607	4.12
746.357	6.12
747.106	6.12
747.856	7.12
748.606	6.12
749.355	6.12
750.105	7.12
750.854	5.12
751.603	6.12
752.353	5.12
753.102	9.12
753.851	6.12
754.6	8.12
755.349	8.12
756.098	9.12
756.847	8.12
757.595	9.12
758.344	7.12
759.093	9.12
759.841	8.12
760.589	7.12
761.338	8.12
762.086	9.12
762.834	8.12
763.582	10.12
764.331	8.12
765.079	9.12
765.826	7.12
766.574	8.12
767.322	7.12
768.07	7.12
768.817	7.12
769.565	8.12
770.312	9.12
771.06	11.12
771.807	9.12
772.554	11.12
773.302	10.12
774.049	9.12
774.796	8.12
775.543	9.12
776.29	11.12
777.036	9.12
777.783	11.12
778.53	10.12
779.276	9.12
780.023	10.12
780.769	12.12
781.516	9.12
782.262	12.12
783.008	10.12
783.754	11.12
784.5	12.12
785.246	9.12
785.992	9.12
786.738	9.12
787.484	13.12
788.23	10.12
788.975	12.12
789.721	10.12
790.466	8.12
791.212	10.12
791.957	11.12
792.702	12.12
793.447	10.12
794.193	11.12
794.938	9.12
795.683	9.12
796.427	11.12
797.172	11.12
797.917	12.12
798.662	8.12
799.406	9.12
800.151	8.12
800.895	6.12
801.64	8.12
802.384	10.12
803.128	9.12
803.872	11.12
804.616	8.12
805.36	9.12
806.104	8.12
806.848	7.12
807.592	8.12
808.336	8.12
809.079	6.12
809.823	3.12
810.566	7.12
811.31	6.12
812.053	5.12
812.796	7.12
813.539	5.12
814.283	6.12
815.026	5.12
815.769	6.12
816.511	8.12
817.254	4.12
817.997	8.12
818.74	4.12
819.482	5.12
820.225	5.12
820.967	4.12
821.71	4.12
822.452	4.12
823.194	4.12
823.936	5.12
824.678	3.12
825.42	5.12
826.162	6.12
826.904	4.12
827.646	3.12
828.388	4.12
829.129	6.12
829.871	5.12
830.612	3.12
831.354	4.12
832.095	1.12
832.836	2.12
833.577	4.12
834.319	5.12
835.06	2.12
835.801	5.12
836.542	3.12
837.282	3.12
838.023	1.12
838.764	2.12
839.504	3.12
840.245	1.12
840.985	5.12
841.726	2.12
842.466	4.12
843.206	5.12
843.946	4.12
844.687	3.12
845.427	4.12
846.166	2.12
846.906	0.12
847.646	3.12
848.386	4.12
849.125	4.12
849.865	0.12
850.605	2.12
851.344	3.12
852.083	1.12
852.823	2.12
853.562	3.12
854.301	2.12
855.04	2.12
855.779	1.12
856.518	2.12
857.257	0.12
857.995	1.12
858.734	1.12
859.473	2.12
860.211	0.12
860.95	2.12
861.688	2.12
862.426	2.12
863.165	3.12
863.903	1.12
864.641	-0.88
865.379	1.12
866.117	0.12
866.855	1.12
867.593	0.12
868.33	0.12
869.068	2.12
869.806	2.12
870.543	1.12
871.28	1.12
872.018	2.12
872.755	0.12
873.492	-0.88
874.229	-0.88
874.967	1.12
875.703	-0.88
876.44	0.12
877.177	2.12
877.914	-1.88
878.651	-0.88
879.387	1.12
880.124	1.12
880.86	-1.88
881.597	1.12
882.333	0.12
883.069	-0.88
883.806	0.12
884.542	2.12
885.278	0.12
886.014	0.12
886.749	1.12
887.485	-0.88
888.221	1.12
888.957	0.12
889.692	-1.88
890.428	-0.88
891.163	-0.88
891.899	-0.88
892.634	0.12
893.369	-0.88
894.104	1.12
894.839	-1.88
895.574	1.12
896.309	0.12
897.044	-0.88
897.779	1.12
898.514	1.12
899.248	-1.88
899.983	-2.88
900.717	-0.88
901.452	0.12
902.186	0.12
902.92	0.12
903.654	-1.88
904.389	1.12
905.123	-0.88
905.857	0.12
906.59	1.12
907.324	-1.88
908.058	-1.88
908.792	-0.88
909.525	0.12
910.259	0.12
910.992	0.12
911.726	1.12
912.459	-1.88
913.192	2.12
913.925	1.12
914.658	-0.88
915.391	1.12
916.124	0.12
916.857	-1.88
917.59	-0.88
918.323	0.12
919.055	-1.88
919.788	-2.88
920.521	0.12
921.253	0.12
921.985	0.12
922.718	0.12
923.45	-0.88
924.182	-1.88
924.914	-0.88
925.646	-1.88
926.378	0.12
927.11	0.12
927.841	-0.88
928.573	1.12
929.305	0.12
930.036	-3.88
930.768	-0.88
931.499	-1.88
932.23	0.12
932.962	-0.88
933.693	1.12
934.424	-0.88
935.155	1.12
935.886	-1.88
936.617	-1.88
937.348	0.12
938.078	-0.88
938.809	-2.88
939.54	0.12
940.27	-2.88
941.001	-0.88
941.731	-1.88
942.461	1.12
943.191	-1.88
943.922	-0.88
944.652	-1.88
945.382	-0.88
946.112	-1.88
946.841	-0.88
947.571	-1.88
948.301	0.12
949.031	-2.88
949.76	0.12
950.49	-0.88
951.219	0.12
951.948	-0.88
952.678	-2.88
953.407	0.12
954.136	-0.88
954.865	0.12
955.594	-0.88
956.323	-0.88
957.052	1.12
957.78	-0.88
958.509	0.12
959.238	-0.88
959.966	-1.88
960.695	1.12
961.423	-0.88
962.151	1.12
962.88	-1.88
963.608	0.12
964.336	0.12
965.064	-1.88
965.792	0.12
966.52	-1.88
967.247	-1.88
967.975	-2.88
968.703	-0.88
969.43	-0.88
970.158	0.12
970.885	-1.88
971.613	-0.88
972.34	0.12
973.067	0.12
973.794	-0.88
974.521	0.12
975.248	-0.88
975.975	0.12
976.702	1.12
977.429	0.12
978.156	-1.88
978.882	-0.88
979.609	-2.88
980.335	1.12
981.062	-0.88
981.788	0.12
982.514	0.12
983.24	1.12
983.967	-1.88
984.693	0.12
985.419	-2.88
986.144	-0.88
986.87	1.12
987.596	-0.88
988.322	1.12
989.047	-3.88
989.773	-1.88
990.498	-0.88
991.224	-0.88
991.949	-0.88
992.674	-2.88
993.399	-0.88
994.124	-2.88
994.849	0.12
995.574	-0.88
996.299	0.12
997.024	-1.88
997.749	1.12
998.473	-1.88
999.198	1.12
999.922	-0.88
1000.647	0.12
1001.371	4.12
1002.095	-1.88
1002.82	0.12
1003.544	-0.88
1004.268	1.12
1004.992	0.12
1005.716	0.12
1006.439	1.12
1007.163	2.12
1007.887	2.12
1008.611	-0.88
1009.334	0.12
1010.058	-1.88
1010.781	0.12
1011.504	-0.88
1012.228	-0.88
1012.951	0.12
1013.674	-1.88
1014.397	1.12
1015.12	-0.88
