节点500_425_QEPB04081__561__15-57-38-464.txt的数据

Date: Wed Nov 12 15:57:38 CST 2025
User: PC
Spectrometer: QEPB0408
触发模式: 0
积分时间 (秒): 1.000000E-2
Scans to average: 1
启用暗噪声校正: true
启用非线性校正: false
滑动平均宽度: 0
X轴模式: Wavelengths
Number of Pixels in Spectrum: 1044
>>>>>Begin Spectral Data<<<<<
220.843	2.88
221.644	2.88
222.444	2.88
223.244	3.88
224.045	2.88
224.845	2.88
225.645	0.88
226.445	0.88
227.245	2.88
228.045	1.88
228.845	5.88
229.645	3.88
230.444	2.88
231.244	3.88
232.043	3.88
232.843	4.88
233.642	4.88
234.442	1.88
235.241	4.88
236.04	4.88
236.839	3.88
237.638	4.88
238.437	3.88
239.236	5.88
240.035	3.88
240.833	6.88
241.632	5.88
242.43	7.88
243.229	5.88
244.027	4.88
244.826	9.88
245.624	6.88
246.422	8.88
247.22	8.88
248.018	3.88
248.816	7.88
249.614	8.88
250.412	8.88
251.21	9.88
252.007	7.88
252.805	9.88
253.602	6.88
254.4	12.88
255.197	10.88
255.994	11.88
256.791	11.88
257.589	10.88
258.386	11.88
259.183	12.88
259.979	13.88
260.776	10.88
261.573	13.88
262.37	14.88
263.166	12.88
263.963	13.88
264.759	13.88
265.556	17.88
266.352	14.88
267.148	15.88
267.944	15.88
268.74	16.88
269.536	16.88
270.332	15.88
271.128	21.88
271.924	17.88
272.719	18.88
273.515	19.88
274.311	17.88
275.106	20.88
275.901	21.88
276.697	20.88
277.492	18.88
278.287	19.88
279.082	19.88
279.877	21.88
280.672	20.88
281.467	22.88
282.262	18.88
283.056	19.88
283.851	21.88
284.646	23.88
285.44	21.88
286.234	21.88
287.029	23.88
287.823	22.88
288.617	21.88
289.411	20.88
290.205	20.88
290.999	21.88
291.793	22.88
292.587	20.88
293.381	19.88
294.174	24.88
294.968	19.88
295.761	14.88
296.555	20.88
297.348	19.88
298.141	18.88
298.935	21.88
299.728	16.88
300.521	16.88
301.314	15.88
302.107	20.88
302.899	17.88
303.692	17.88
304.485	15.88
305.277	13.88
306.07	17.88
306.862	14.88
307.655	14.88
308.447	17.88
309.239	13.88
310.031	12.88
310.823	12.88
311.615	12.88
312.407	13.88
313.199	11.88
313.991	12.88
314.783	9.88
315.574	10.88
316.366	8.88
317.157	12.88
317.949	11.88
318.74	9.88
319.531	11.88
320.322	7.88
321.113	8.88
321.904	9.88
322.695	9.88
323.486	8.88
324.277	8.88
325.068	9.88
325.858	7.88
326.649	9.88
327.439	8.88
328.23	7.88
329.02	9.88
329.81	8.88
330.6	8.88
331.391	8.88
332.181	6.88
332.971	8.88
333.76	6.88
334.55	6.88
335.34	8.88
336.13	4.88
336.919	5.88
337.709	8.88
338.498	4.88
339.287	8.88
340.077	7.88
340.866	8.88
341.655	5.88
342.444	7.88
343.233	6.88
344.022	6.88
344.811	8.88
345.6	9.88
346.388	7.88
347.177	3.88
347.965	6.88
348.754	6.88
349.542	8.88
350.33	7.88
351.119	5.88
351.907	6.88
352.695	7.88
353.483	7.88
354.271	8.88
355.059	8.88
355.846	8.88
356.634	5.88
357.422	5.88
358.209	5.88
358.997	5.88
359.784	9.88
360.571	7.88
361.359	6.88
362.146	5.88
362.933	7.88
363.72	6.88
364.507	9.88
365.294	7.88
366.081	5.88
366.867	6.88
367.654	4.88
368.44	8.88
369.227	4.88
370.013	4.88
370.8	5.88
371.586	5.88
372.372	8.88
373.158	5.88
373.944	6.88
374.73	6.88
375.516	5.88
376.302	5.88
377.088	4.88
377.873	6.88
378.659	8.88
379.445	4.88
380.23	3.88
381.015	3.88
381.801	5.88
382.586	5.88
383.371	4.88
384.156	8.88
384.941	3.88
385.726	6.88
386.511	5.88
387.296	7.88
388.08	7.88
388.865	8.88
389.649	6.88
390.434	4.88
391.218	7.88
392.003	7.88
392.787	6.88
393.571	7.88
394.355	6.88
395.139	6.88
395.923	7.88
396.707	7.88
397.491	8.88
398.274	7.88
399.058	5.88
399.842	4.88
400.625	9.88
401.408	7.88
402.192	8.88
402.975	9.88
403.758	8.88
404.541	9.88
405.324	8.88
406.107	10.88
406.89	9.88
407.673	9.88
408.456	8.88
409.238	13.88
410.021	12.88
410.803	9.88
411.586	12.88
412.368	10.88
413.151	8.88
413.933	11.88
414.715	9.88
415.497	12.88
416.279	12.88
417.061	13.88
417.843	12.88
418.624	9.88
419.406	13.88
420.188	12.88
420.969	14.88
421.751	13.88
422.532	11.88
423.313	14.88
424.095	15.88
424.876	16.88
425.657	18.88
426.438	16.88
427.219	15.88
428	15.88
428.78	15.88
429.561	19.88
430.342	18.88
431.122	19.88
431.903	22.88
432.683	22.88
433.464	18.88
434.244	21.88
435.024	22.88
435.804	24.88
436.584	25.88
437.364	28.88
438.144	26.88
438.924	32.88
439.704	35.88
440.483	35.88
441.263	34.88
442.042	38.88
442.822	42.88
443.601	44.88
444.38	44.88
445.16	49.88
445.939	56.88
446.718	60.88
447.497	65.88
448.276	70.88
449.054	72.88
449.833	81.88
450.612	93.88
451.391	101.88
452.169	112.88
452.948	123.88
453.726	138.88
454.504	148.88
455.282	167.88
456.061	181.88
456.839	207.88
457.617	224.88
458.395	246.88
459.172	278.88
459.95	320.88
460.728	351.88
461.506	389.88
462.283	431.88
463.061	481.88
463.838	540.88
464.615	603.88
465.393	665.88
466.17	730.88
466.947	817.88
467.724	906.88
468.501	999.88
469.278	1100.88
470.055	1201.88
470.831	1333.88
471.608	1471.88
472.385	1629.88
473.161	1803.88
473.938	1966.88
474.714	2157.88
475.49	2367.88
476.266	2582.88
477.043	2837.88
477.819	3107.88
478.595	3406.88
479.371	3735.88
480.146	4071.88
480.922	4428.88
481.698	4847.88
482.473	5243.88
483.249	5725.88
484.024	6228.88
484.8	6766.88
485.575	7323.88
486.35	7964.88
487.126	8632.88
487.901	9341.88
488.676	10158.88
489.451	10961.88
490.225	11874.88
491	12808.88
491.775	13824.88
492.55	14832.88
493.324	15921.88
494.099	17086.88
494.873	18181.88
495.647	19377.88
496.422	20659.88
497.196	21925.88
497.97	23247.88
498.744	24539.88
499.518	25709.88
500.292	26918.88
501.066	27946.88
501.839	29145.88
502.613	30053.88
503.387	30902.88
504.16	31587.88
504.934	32074.88
505.707	32364.88
506.48	32529.88
507.253	32483.88
508.027	32468.88
508.8	32170.88
509.573	31871.88
510.346	31190.88
511.118	30586.88
511.891	29838.88
512.664	28931.88
513.437	28047.88
514.209	27023.88
514.982	26195.88
515.754	25215.88
516.526	24197.88
517.298	23235.88
518.071	22330.88
518.843	21462.88
519.615	20558.88
520.387	19779.88
521.159	19003.88
521.93	18261.88
522.702	17573.88
523.474	16935.88
524.245	16258.88
525.017	15534.88
525.788	14864.88
526.56	14185.88
527.331	13544.88
528.102	13031.88
528.873	12395.88
529.644	11846.88
530.415	11335.88
531.186	10813.88
531.957	10286.88
532.728	9744.88
533.498	9245.88
534.269	8720.88
535.039	8321.88
535.81	7872.88
536.58	7454.88
537.351	7014.88
538.121	6644.88
538.891	6317.88
539.661	5976.88
540.431	5673.88
541.201	5361.88
541.971	5065.88
542.741	4830.88
543.51	4605.88
544.28	4326.88
545.05	4137.88
545.819	3924.88
546.588	3762.88
547.358	3567.88
548.127	3358.88
548.896	3205.88
549.665	3061.88
550.434	2911.88
551.203	2720.88
551.972	2623.88
552.741	2467.88
553.51	2332.88
554.278	2203.88
555.047	2069.88
555.815	1956.88
556.584	1861.88
557.352	1754.88
558.121	1665.88
558.889	1567.88
559.657	1487.88
560.425	1403.88
561.193	1325.88
561.961	1266.88
562.729	1191.88
563.496	1132.88
564.264	1060.88
565.032	1004.88
565.799	945.88
566.567	911.88
567.334	845.88
568.101	805.88
568.869	756.88
569.636	711.88
570.403	671.88
571.17	635.88
571.937	591.88
572.704	572.88
573.471	534.88
574.237	505.88
575.004	473.88
575.771	443.88
576.537	421.88
577.303	391.88
578.07	381.88
578.836	349.88
579.602	335.88
580.368	312.88
581.134	305.88
581.9	284.88
582.666	269.88
583.432	254.88
584.198	247.88
584.964	235.88
585.729	217.88
586.495	209.88
587.26	188.88
588.025	187.88
588.791	178.88
589.556	165.88
590.321	159.88
591.086	151.88
591.851	138.88
592.616	134.88
593.381	130.88
594.146	121.88
594.911	114.88
595.675	114.88
596.44	105.88
597.204	96.88
597.969	95.88
598.733	92.88
599.497	87.88
600.261	89.88
601.025	83.88
601.79	75.88
602.553	72.88
603.317	72.88
604.081	68.88
604.845	65.88
605.609	60.88
606.372	56.88
607.136	56.88
607.899	56.88
608.662	50.88
609.426	51.88
610.189	47.88
610.952	46.88
611.715	42.88
612.478	42.88
613.241	41.88
614.004	36.88
614.767	41.88
615.529	34.88
616.292	35.88
617.055	34.88
617.817	33.88
618.579	33.88
619.342	33.88
620.104	31.88
620.866	27.88
621.628	27.88
622.39	27.88
623.152	27.88
623.914	21.88
624.676	21.88
625.438	21.88
626.199	23.88
626.961	20.88
627.722	21.88
628.484	22.88
629.245	20.88
630.006	17.88
630.768	17.88
631.529	15.88
632.29	17.88
633.051	17.88
633.812	16.88
634.573	15.88
635.333	15.88
636.094	15.88
636.855	14.88
637.615	16.88
638.376	13.88
639.136	14.88
639.896	14.88
640.657	13.88
641.417	12.88
642.177	11.88
642.937	11.88
643.697	14.88
644.457	10.88
645.216	11.88
645.976	9.88
646.736	11.88
647.495	9.88
648.255	8.88
649.014	9.88
649.774	10.88
650.533	9.88
651.292	8.88
652.051	8.88
652.81	9.88
653.569	7.88
654.328	9.88
655.087	7.88
655.846	7.88
656.604	7.88
657.363	9.88
658.121	7.88
658.88	6.88
659.638	8.88
660.397	3.88
661.155	7.88
661.913	8.88
662.671	4.88
663.429	9.88
664.187	7.88
664.945	6.88
665.703	5.88
666.46	7.88
667.218	8.88
667.976	5.88
668.733	5.88
669.49	7.88
670.248	5.88
671.005	4.88
671.762	3.88
672.519	7.88
673.276	4.88
674.033	7.88
674.79	5.88
675.547	6.88
676.304	5.88
677.06	2.88
677.817	5.88
678.574	3.88
679.33	4.88
680.086	3.88
680.843	2.88
681.599	6.88
682.355	7.88
683.111	6.88
683.867	4.88
684.623	3.88
685.379	6.88
686.135	4.88
686.89	3.88
687.646	4.88
688.402	4.88
689.157	6.88
689.912	4.88
690.668	5.88
691.423	3.88
692.178	3.88
692.933	5.88
693.688	3.88
694.443	3.88
695.198	4.88
695.953	5.88
696.708	3.88
697.462	3.88
698.217	6.88
698.972	5.88
699.726	3.88
700.48	5.88
701.235	3.88
701.989	7.88
702.743	3.88
703.497	5.88
704.251	2.88
705.005	3.88
705.759	3.88
706.513	3.88
707.266	3.88
708.02	5.88
708.774	3.88
709.527	3.88
710.28	3.88
711.034	5.88
711.787	2.88
712.54	3.88
713.293	3.88
714.046	4.88
714.799	3.88
715.552	4.88
716.305	6.88
717.058	4.88
717.81	4.88
718.563	3.88
719.315	3.88
720.068	7.88
720.82	4.88
721.573	3.88
722.325	5.88
723.077	4.88
723.829	4.88
724.581	4.88
725.333	3.88
726.085	2.88
726.836	2.88
727.588	4.88
728.34	5.88
729.091	1.88
729.843	3.88
730.594	6.88
731.346	4.88
732.097	6.88
732.848	3.88
733.599	4.88
734.35	5.88
735.101	4.88
735.852	6.88
736.603	6.88
737.354	5.88
738.104	5.88
738.855	5.88
739.605	3.88
740.356	5.88
741.106	2.88
741.856	3.88
742.607	5.88
743.357	5.88
744.107	3.88
744.857	6.88
745.607	4.88
746.357	7.88
747.106	5.88
747.856	4.88
748.606	6.88
749.355	5.88
750.105	8.88
750.854	6.88
751.603	4.88
752.353	5.88
753.102	5.88
753.851	6.88
754.6	4.88
755.349	6.88
756.098	8.88
756.847	6.88
757.595	6.88
758.344	6.88
759.093	6.88
759.841	5.88
760.589	8.88
761.338	5.88
762.086	7.88
762.834	5.88
763.582	7.88
764.331	6.88
765.079	8.88
765.826	5.88
766.574	10.88
767.322	5.88
768.07	8.88
768.817	8.88
769.565	9.88
770.312	7.88
771.06	9.88
771.807	9.88
772.554	7.88
773.302	10.88
774.049	7.88
774.796	7.88
775.543	6.88
776.29	8.88
777.036	7.88
777.783	8.88
778.53	9.88
779.276	10.88
780.023	9.88
780.769	10.88
781.516	7.88
782.262	7.88
783.008	8.88
783.754	8.88
784.5	11.88
785.246	8.88
785.992	9.88
786.738	10.88
787.484	8.88
788.23	8.88
788.975	9.88
789.721	9.88
790.466	7.88
791.212	9.88
791.957	9.88
792.702	8.88
793.447	11.88
794.193	6.88
794.938	9.88
795.683	8.88
796.427	9.88
797.172	8.88
797.917	10.88
798.662	7.88
799.406	6.88
800.151	7.88
800.895	7.88
801.64	8.88
802.384	8.88
803.128	7.88
803.872	6.88
804.616	5.88
805.36	8.88
806.104	5.88
806.848	7.88
807.592	6.88
808.336	7.88
809.079	7.88
809.823	6.88
810.566	5.88
811.31	6.88
812.053	6.88
812.796	5.88
813.539	6.88
814.283	4.88
815.026	3.88
815.769	4.88
816.511	5.88
817.254	4.88
817.997	7.88
818.74	6.88
819.482	4.88
820.225	6.88
820.967	5.88
821.71	4.88
822.452	2.88
823.194	6.88
823.936	7.88
824.678	2.88
825.42	5.88
826.162	4.88
826.904	4.88
827.646	3.88
828.388	3.88
829.129	5.88
829.871	3.88
830.612	2.88
831.354	3.88
832.095	3.88
832.836	2.88
833.577	2.88
834.319	1.88
835.06	0.88
835.801	3.88
836.542	4.88
837.282	4.88
838.023	2.88
838.764	3.88
839.504	2.88
840.245	3.88
840.985	6.88
841.726	6.88
842.466	3.88
843.206	3.88
843.946	1.88
844.687	3.88
845.427	3.88
846.166	2.88
846.906	3.88
847.646	1.88
848.386	5.88
849.125	2.88
849.865	3.88
850.605	2.88
851.344	3.88
852.083	2.88
852.823	2.88
853.562	1.88
854.301	1.88
855.04	1.88
855.779	1.88
856.518	1.88
857.257	3.88
857.995	3.88
858.734	2.88
859.473	0.88
860.211	2.88
860.95	1.88
861.688	-0.12
862.426	1.88
863.165	3.88
863.903	3.88
864.641	1.88
865.379	1.88
866.117	-0.12
866.855	2.88
867.593	1.88
868.33	-0.12
869.068	0.88
869.806	1.88
870.543	1.88
871.28	1.88
872.018	1.88
872.755	2.88
873.492	0.88
874.229	-0.12
874.967	2.88
875.703	1.88
876.44	1.88
877.177	1.88
877.914	1.88
878.651	-0.12
879.387	0.88
880.124	1.88
880.86	1.88
881.597	0.88
882.333	-0.12
883.069	-2.12
883.806	1.88
884.542	0.88
885.278	0.88
886.014	1.88
886.749	1.88
887.485	0.88
888.221	0.88
888.957	2.88
889.692	-2.12
890.428	-1.12
891.163	-2.12
891.899	1.88
892.634	-0.12
893.369	-1.12
894.104	1.88
894.839	1.88
895.574	-0.12
896.309	0.88
897.044	1.88
897.779	-0.12
898.514	1.88
899.248	1.88
899.983	-0.12
900.717	-0.12
901.452	-0.12
902.186	-1.12
902.92	1.88
903.654	-1.12
904.389	1.88
905.123	1.88
905.857	-2.12
906.59	-1.12
907.324	-0.12
908.058	-0.12
908.792	-2.12
909.525	-0.12
910.259	0.88
910.992	-1.12
911.726	-1.12
912.459	-1.12
913.192	1.88
913.925	-0.12
914.658	-0.12
915.391	-1.12
916.124	-1.12
916.857	-0.12
917.59	-3.12
918.323	-2.12
919.055	-0.12
919.788	-0.12
920.521	-2.12
921.253	0.88
921.985	-0.12
922.718	1.88
923.45	-0.12
924.182	-0.12
924.914	-1.12
925.646	-0.12
926.378	-1.12
927.11	0.88
927.841	-0.12
928.573	-1.12
929.305	0.88
930.036	1.88
930.768	-0.12
931.499	1.88
932.23	-1.12
932.962	-0.12
933.693	0.88
934.424	0.88
935.155	2.88
935.886	0.88
936.617	-0.12
937.348	-2.12
938.078	1.88
938.809	0.88
939.54	1.88
940.27	-0.12
941.001	0.88
941.731	0.88
942.461	-0.12
943.191	-0.12
943.922	0.88
944.652	-0.12
945.382	-0.12
946.112	0.88
946.841	-0.12
947.571	0.88
948.301	-0.12
949.031	-1.12
949.76	0.88
950.49	1.88
951.219	-0.12
951.948	-0.12
952.678	-0.12
953.407	-0.12
954.136	0.88
954.865	-1.12
955.594	-0.12
956.323	-0.12
957.052	-1.12
957.78	-0.12
958.509	-1.12
959.238	-0.12
959.966	-2.12
960.695	-0.12
961.423	-1.12
962.151	0.88
962.88	-0.12
963.608	-2.12
964.336	1.88
965.064	0.88
965.792	-0.12
966.52	-0.12
967.247	-1.12
967.975	-0.12
968.703	0.88
969.43	0.88
970.158	-0.12
970.885	0.88
971.613	-0.12
972.34	-0.12
973.067	2.88
973.794	-1.12
974.521	-0.12
975.248	-0.12
975.975	-4.12
976.702	0.88
977.429	-0.12
978.156	-0.12
978.882	0.88
979.609	1.88
980.335	0.88
981.062	-0.12
981.788	0.88
982.514	0.88
983.24	-2.12
983.967	1.88
984.693	-2.12
985.419	0.88
986.144	-2.12
986.87	-2.12
987.596	-0.12
988.322	-0.12
989.047	0.88
989.773	0.88
990.498	-1.12
991.224	1.88
991.949	-1.12
992.674	-1.12
993.399	-0.12
994.124	-1.12
994.849	-0.12
995.574	1.88
996.299	0.88
997.024	-0.12
997.749	0.88
998.473	-1.12
999.198	-2.12
999.922	-0.12
1000.647	-2.12
1001.371	4.88
1002.095	-0.12
1002.82	-0.12
1003.544	-2.12
1004.268	-0.12
1004.992	1.88
1005.716	0.88
1006.439	1.88
1007.163	1.88
1007.887	2.88
1008.611	0.88
1009.334	-0.12
1010.058	-1.12
1010.781	0.88
1011.504	-2.12
1012.228	0.88
1012.951	-2.12
1013.674	0.88
1014.397	-0.12
1015.12	-1.12
