节点500_425_QEPB04081__254__15-52-32-015.txt的数据

Date: Wed Nov 12 15:52:32 CST 2025
User: PC
Spectrometer: QEPB0408
触发模式: 0
积分时间 (秒): 1.000000E-2
Scans to average: 1
启用暗噪声校正: true
启用非线性校正: false
滑动平均宽度: 0
X轴模式: Wavelengths
Number of Pixels in Spectrum: 1044
>>>>>Begin Spectral Data<<<<<
220.843	4.62
221.644	4.62
222.444	3.62
223.244	2.62
224.045	4.62
224.845	2.62
225.645	2.62
226.445	6.62
227.245	4.62
228.045	5.62
228.845	3.62
229.645	6.62
230.444	2.62
231.244	6.62
232.043	6.62
232.843	6.62
233.642	6.62
234.442	4.62
235.241	6.62
236.04	8.62
236.839	8.62
237.638	6.62
238.437	6.62
239.236	5.62
240.035	3.62
240.833	5.62
241.632	8.62
242.43	5.62
243.229	7.62
244.027	9.62
244.826	6.62
245.624	7.62
246.422	8.62
247.22	9.62
248.018	10.62
248.816	10.62
249.614	6.62
250.412	10.62
251.21	12.62
252.007	12.62
252.805	11.62
253.602	11.62
254.4	11.62
255.197	13.62
255.994	11.62
256.791	14.62
257.589	12.62
258.386	15.62
259.183	14.62
259.979	14.62
260.776	16.62
261.573	14.62
262.37	15.62
263.166	16.62
263.963	14.62
264.759	17.62
265.556	14.62
266.352	16.62
267.148	18.62
267.944	17.62
268.74	20.62
269.536	20.62
270.332	19.62
271.128	23.62
271.924	21.62
272.719	21.62
273.515	22.62
274.311	24.62
275.106	23.62
275.901	24.62
276.697	25.62
277.492	25.62
278.287	25.62
279.082	26.62
279.877	22.62
280.672	23.62
281.467	26.62
282.262	22.62
283.056	26.62
283.851	23.62
284.646	22.62
285.44	24.62
286.234	24.62
287.029	26.62
287.823	27.62
288.617	25.62
289.411	20.62
290.205	22.62
290.999	22.62
291.793	23.62
292.587	25.62
293.381	23.62
294.174	23.62
294.968	21.62
295.761	23.62
296.555	19.62
297.348	21.62
298.141	20.62
298.935	23.62
299.728	20.62
300.521	17.62
301.314	19.62
302.107	20.62
302.899	16.62
303.692	17.62
304.485	14.62
305.277	15.62
306.07	15.62
306.862	14.62
307.655	14.62
308.447	14.62
309.239	18.62
310.031	17.62
310.823	12.62
311.615	14.62
312.407	11.62
313.199	11.62
313.991	11.62
314.783	10.62
315.574	14.62
316.366	10.62
317.157	12.62
317.949	8.62
318.74	10.62
319.531	9.62
320.322	9.62
321.113	10.62
321.904	9.62
322.695	11.62
323.486	9.62
324.277	9.62
325.068	8.62
325.858	9.62
326.649	6.62
327.439	8.62
328.23	7.62
329.02	10.62
329.81	6.62
330.6	7.62
331.391	11.62
332.181	12.62
332.971	7.62
333.76	6.62
334.55	9.62
335.34	7.62
336.13	7.62
336.919	7.62
337.709	9.62
338.498	9.62
339.287	10.62
340.077	10.62
340.866	7.62
341.655	7.62
342.444	9.62
343.233	6.62
344.022	7.62
344.811	7.62
345.6	8.62
346.388	7.62
347.177	10.62
347.965	8.62
348.754	8.62
349.542	9.62
350.33	8.62
351.119	7.62
351.907	7.62
352.695	6.62
353.483	6.62
354.271	6.62
355.059	7.62
355.846	6.62
356.634	7.62
357.422	8.62
358.209	7.62
358.997	6.62
359.784	9.62
360.571	8.62
361.359	7.62
362.146	7.62
362.933	8.62
363.72	7.62
364.507	9.62
365.294	5.62
366.081	7.62
366.867	9.62
367.654	7.62
368.44	6.62
369.227	6.62
370.013	8.62
370.8	4.62
371.586	4.62
372.372	8.62
373.158	5.62
373.944	7.62
374.73	6.62
375.516	5.62
376.302	7.62
377.088	4.62
377.873	8.62
378.659	6.62
379.445	9.62
380.23	8.62
381.015	10.62
381.801	7.62
382.586	8.62
383.371	7.62
384.156	5.62
384.941	7.62
385.726	6.62
386.511	7.62
387.296	6.62
388.08	7.62
388.865	8.62
389.649	8.62
390.434	8.62
391.218	8.62
392.003	7.62
392.787	8.62
393.571	7.62
394.355	9.62
395.139	7.62
395.923	7.62
396.707	10.62
397.491	8.62
398.274	9.62
399.058	10.62
399.842	6.62
400.625	9.62
401.408	9.62
402.192	10.62
402.975	10.62
403.758	10.62
404.541	12.62
405.324	8.62
406.107	9.62
406.89	9.62
407.673	9.62
408.456	8.62
409.238	8.62
410.021	11.62
410.803	12.62
411.586	11.62
412.368	11.62
413.151	11.62
413.933	10.62
414.715	9.62
415.497	14.62
416.279	10.62
417.061	12.62
417.843	15.62
418.624	14.62
419.406	14.62
420.188	11.62
420.969	14.62
421.751	15.62
422.532	16.62
423.313	14.62
424.095	17.62
424.876	16.62
425.657	16.62
426.438	16.62
427.219	18.62
428	18.62
428.78	20.62
429.561	18.62
430.342	22.62
431.122	20.62
431.903	21.62
432.683	22.62
433.464	22.62
434.244	23.62
435.024	25.62
435.804	23.62
436.584	28.62
437.364	25.62
438.144	28.62
438.924	28.62
439.704	32.62
440.483	31.62
441.263	36.62
442.042	38.62
442.822	38.62
443.601	40.62
444.38	44.62
445.16	47.62
445.939	56.62
446.718	51.62
447.497	62.62
448.276	66.62
449.054	69.62
449.833	79.62
450.612	83.62
451.391	90.62
452.169	98.62
452.948	112.62
453.726	116.62
454.504	137.62
455.282	153.62
456.061	166.62
456.839	183.62
457.617	204.62
458.395	225.62
459.172	248.62
459.95	278.62
460.728	316.62
461.506	354.62
462.283	392.62
463.061	440.62
463.838	495.62
464.615	548.62
465.393	617.62
466.17	685.62
466.947	743.62
467.724	852.62
468.501	940.62
469.278	1038.62
470.055	1171.62
470.831	1277.62
471.608	1428.62
472.385	1589.62
473.161	1749.62
473.938	1932.62
474.714	2126.62
475.49	2367.62
476.266	2599.62
477.043	2887.62
477.819	3168.62
478.595	3511.62
479.371	3837.62
480.146	4247.62
480.922	4638.62
481.698	5097.62
482.473	5586.62
483.249	6129.62
484.024	6742.62
484.8	7389.62
485.575	8076.62
486.35	8823.62
487.126	9631.62
487.901	10481.62
488.676	11457.62
489.451	12448.62
490.225	13525.62
491	14682.62
491.775	15983.62
492.55	17226.62
493.324	18578.62
494.099	19847.62
494.873	21196.62
495.647	22670.62
496.422	24102.62
497.196	25510.62
497.97	27108.62
498.744	28515.62
499.518	29905.62
500.292	31153.62
501.066	32249.62
501.839	33301.62
502.613	34196.62
503.387	34915.62
504.16	35368.62
504.934	35690.62
505.707	35716.62
506.48	35559.62
507.253	35236.62
508.027	34792.62
508.8	34199.62
509.573	33369.62
510.346	32632.62
511.118	31578.62
511.891	30522.62
512.664	29412.62
513.437	28195.62
514.209	27120.62
514.982	26057.62
515.754	25006.62
516.526	23892.62
517.298	22888.62
518.071	21940.62
518.843	21054.62
519.615	20166.62
520.387	19406.62
521.159	18618.62
521.93	17921.62
522.702	17192.62
523.474	16489.62
524.245	15825.62
525.017	15104.62
525.788	14451.62
526.56	13758.62
527.331	13177.62
528.102	12537.62
528.873	11949.62
529.644	11306.62
530.415	10826.62
531.186	10286.62
531.957	9753.62
532.728	9261.62
533.498	8742.62
534.269	8209.62
535.039	7807.62
535.81	7350.62
536.58	6940.62
537.351	6565.62
538.121	6185.62
538.891	5879.62
539.661	5575.62
540.431	5272.62
541.201	4970.62
541.971	4708.62
542.741	4486.62
543.51	4262.62
544.28	4034.62
545.05	3855.62
545.819	3670.62
546.588	3484.62
547.358	3329.62
548.127	3129.62
548.896	2983.62
549.665	2828.62
550.434	2677.62
551.203	2516.62
551.972	2402.62
552.741	2266.62
553.51	2147.62
554.278	2015.62
555.047	1912.62
555.815	1801.62
556.584	1708.62
557.352	1607.62
558.121	1515.62
558.889	1419.62
559.657	1368.62
560.425	1285.62
561.193	1205.62
561.961	1133.62
562.729	1078.62
563.496	1009.62
564.264	964.62
565.032	912.62
565.799	865.62
566.567	816.62
567.334	780.62
568.101	724.62
568.869	698.62
569.636	642.62
570.403	609.62
571.17	578.62
571.937	542.62
572.704	515.62
573.471	502.62
574.237	463.62
575.004	425.62
575.771	412.62
576.537	387.62
577.303	355.62
578.07	348.62
578.836	320.62
579.602	299.62
580.368	289.62
581.134	272.62
581.9	256.62
582.666	244.62
583.432	230.62
584.198	220.62
584.964	211.62
585.729	198.62
586.495	187.62
587.26	181.62
588.025	165.62
588.791	157.62
589.556	157.62
590.321	148.62
591.086	136.62
591.851	128.62
592.616	126.62
593.381	117.62
594.146	111.62
594.911	106.62
595.675	106.62
596.44	98.62
597.204	93.62
597.969	90.62
598.733	83.62
599.497	85.62
600.261	76.62
601.025	77.62
601.79	69.62
602.553	65.62
603.317	64.62
604.081	62.62
604.845	58.62
605.609	57.62
606.372	55.62
607.136	50.62
607.899	48.62
608.662	49.62
609.426	45.62
610.189	44.62
610.952	42.62
611.715	44.62
612.478	40.62
613.241	37.62
614.004	38.62
614.767	35.62
615.529	33.62
616.292	34.62
617.055	33.62
617.817	33.62
618.579	29.62
619.342	31.62
620.104	27.62
620.866	26.62
621.628	27.62
622.39	24.62
623.152	22.62
623.914	22.62
624.676	23.62
625.438	20.62
626.199	22.62
626.961	23.62
627.722	21.62
628.484	21.62
629.245	19.62
630.006	15.62
630.768	21.62
631.529	18.62
632.29	19.62
633.051	18.62
633.812	15.62
634.573	16.62
635.333	14.62
636.094	14.62
636.855	15.62
637.615	17.62
638.376	14.62
639.136	12.62
639.896	14.62
640.657	14.62
641.417	11.62
642.177	12.62
642.937	10.62
643.697	13.62
644.457	11.62
645.216	12.62
645.976	11.62
646.736	14.62
647.495	9.62
648.255	9.62
649.014	12.62
649.774	8.62
650.533	13.62
651.292	10.62
652.051	9.62
652.81	8.62
653.569	7.62
654.328	10.62
655.087	10.62
655.846	7.62
656.604	8.62
657.363	7.62
658.121	6.62
658.88	10.62
659.638	8.62
660.397	9.62
661.155	6.62
661.913	7.62
662.671	8.62
663.429	7.62
664.187	7.62
664.945	6.62
665.703	8.62
666.46	6.62
667.218	8.62
667.976	6.62
668.733	7.62
669.49	5.62
670.248	4.62
671.005	5.62
671.762	7.62
672.519	9.62
673.276	5.62
674.033	6.62
674.79	8.62
675.547	4.62
676.304	6.62
677.06	5.62
677.817	7.62
678.574	5.62
679.33	3.62
680.086	4.62
680.843	4.62
681.599	6.62
682.355	5.62
683.111	5.62
683.867	3.62
684.623	6.62
685.379	8.62
686.135	5.62
686.89	4.62
687.646	4.62
688.402	5.62
689.157	5.62
689.912	4.62
690.668	7.62
691.423	6.62
692.178	4.62
692.933	3.62
693.688	7.62
694.443	4.62
695.198	3.62
695.953	4.62
696.708	5.62
697.462	5.62
698.217	6.62
698.972	4.62
699.726	6.62
700.48	4.62
701.235	4.62
701.989	5.62
702.743	4.62
703.497	4.62
704.251	4.62
705.005	4.62
705.759	5.62
706.513	3.62
707.266	4.62
708.02	3.62
708.774	5.62
709.527	2.62
710.28	5.62
711.034	4.62
711.787	4.62
712.54	7.62
713.293	8.62
714.046	5.62
714.799	4.62
715.552	6.62
716.305	3.62
717.058	3.62
717.81	5.62
718.563	6.62
719.315	7.62
720.068	5.62
720.82	3.62
721.573	4.62
722.325	7.62
723.077	5.62
723.829	6.62
724.581	5.62
725.333	5.62
726.085	3.62
726.836	4.62
727.588	6.62
728.34	7.62
729.091	3.62
729.843	4.62
730.594	5.62
731.346	5.62
732.097	6.62
732.848	6.62
733.599	3.62
734.35	4.62
735.101	5.62
735.852	5.62
736.603	4.62
737.354	7.62
738.104	6.62
738.855	4.62
739.605	7.62
740.356	6.62
741.106	7.62
741.856	8.62
742.607	6.62
743.357	7.62
744.107	6.62
744.857	9.62
745.607	7.62
746.357	7.62
747.106	7.62
747.856	8.62
748.606	8.62
749.355	7.62
750.105	7.62
750.854	7.62
751.603	8.62
752.353	8.62
753.102	9.62
753.851	8.62
754.6	8.62
755.349	8.62
756.098	7.62
756.847	6.62
757.595	7.62
758.344	4.62
759.093	8.62
759.841	9.62
760.589	9.62
761.338	8.62
762.086	8.62
762.834	7.62
763.582	10.62
764.331	9.62
765.079	8.62
765.826	7.62
766.574	8.62
767.322	9.62
768.07	11.62
768.817	10.62
769.565	9.62
770.312	12.62
771.06	10.62
771.807	11.62
772.554	10.62
773.302	11.62
774.049	10.62
774.796	7.62
775.543	11.62
776.29	10.62
777.036	10.62
777.783	11.62
778.53	13.62
779.276	9.62
780.023	11.62
780.769	13.62
781.516	12.62
782.262	11.62
783.008	11.62
783.754	11.62
784.5	13.62
785.246	12.62
785.992	13.62
786.738	10.62
787.484	11.62
788.23	11.62
788.975	10.62
789.721	11.62
790.466	12.62
791.212	8.62
791.957	12.62
792.702	10.62
793.447	13.62
794.193	10.62
794.938	11.62
795.683	11.62
796.427	10.62
797.172	11.62
797.917	7.62
798.662	10.62
799.406	11.62
800.151	8.62
800.895	8.62
801.64	10.62
802.384	9.62
803.128	7.62
803.872	8.62
804.616	9.62
805.36	10.62
806.104	5.62
806.848	7.62
807.592	7.62
808.336	4.62
809.079	6.62
809.823	9.62
810.566	7.62
811.31	8.62
812.053	6.62
812.796	7.62
813.539	5.62
814.283	7.62
815.026	7.62
815.769	5.62
816.511	6.62
817.254	7.62
817.997	6.62
818.74	8.62
819.482	6.62
820.225	9.62
820.967	7.62
821.71	7.62
822.452	4.62
823.194	4.62
823.936	6.62
824.678	4.62
825.42	6.62
826.162	3.62
826.904	5.62
827.646	4.62
828.388	2.62
829.129	5.62
829.871	3.62
830.612	5.62
831.354	5.62
832.095	4.62
832.836	4.62
833.577	2.62
834.319	4.62
835.06	3.62
835.801	5.62
836.542	7.62
837.282	2.62
838.023	5.62
838.764	4.62
839.504	4.62
840.245	4.62
840.985	6.62
841.726	4.62
842.466	2.62
843.206	6.62
843.946	4.62
844.687	4.62
845.427	5.62
846.166	1.62
846.906	1.62
847.646	3.62
848.386	2.62
849.125	5.62
849.865	5.62
850.605	4.62
851.344	2.62
852.083	4.62
852.823	3.62
853.562	5.62
854.301	5.62
855.04	0.62
855.779	5.62
856.518	2.62
857.257	1.62
857.995	2.62
858.734	2.62
859.473	2.62
860.211	1.62
860.95	5.62
861.688	2.62
862.426	2.62
863.165	3.62
863.903	4.62
864.641	0.62
865.379	-1.38
866.117	5.62
866.855	3.62
867.593	3.62
868.33	0.62
869.068	1.62
869.806	2.62
870.543	2.62
871.28	2.62
872.018	0.62
872.755	-1.38
873.492	2.62
874.229	2.62
874.967	1.62
875.703	2.62
876.44	1.62
877.177	1.62
877.914	1.62
878.651	2.62
879.387	0.62
880.124	2.62
880.86	2.62
881.597	2.62
882.333	0.62
883.069	2.62
883.806	2.62
884.542	2.62
885.278	-0.38
886.014	0.62
886.749	1.62
887.485	1.62
888.221	-0.38
888.957	1.62
889.692	0.62
890.428	2.62
891.163	2.62
891.899	-0.38
892.634	-1.38
893.369	0.62
894.104	2.62
894.839	0.62
895.574	0.62
896.309	2.62
897.044	0.62
897.779	-1.38
898.514	1.62
899.248	1.62
899.983	1.62
900.717	-0.38
901.452	2.62
902.186	0.62
902.92	2.62
903.654	1.62
904.389	1.62
905.123	-0.38
905.857	1.62
906.59	1.62
907.324	1.62
908.058	-0.38
908.792	0.62
909.525	0.62
910.259	2.62
910.992	0.62
911.726	2.62
912.459	2.62
913.192	1.62
913.925	2.62
914.658	-1.38
915.391	2.62
916.124	0.62
916.857	-1.38
917.59	1.62
918.323	1.62
919.055	-0.38
919.788	0.62
920.521	2.62
921.253	1.62
921.985	0.62
922.718	-0.38
923.45	1.62
924.182	1.62
924.914	0.62
925.646	-0.38
926.378	2.62
927.11	-2.38
927.841	1.62
928.573	0.62
929.305	0.62
930.036	1.62
930.768	0.62
931.499	1.62
932.23	0.62
932.962	-1.38
933.693	-0.38
934.424	-0.38
935.155	2.62
935.886	-0.38
936.617	2.62
937.348	-1.38
938.078	2.62
938.809	-0.38
939.54	1.62
940.27	0.62
941.001	0.62
941.731	0.62
942.461	0.62
943.191	0.62
943.922	0.62
944.652	-1.38
945.382	-0.38
946.112	0.62
946.841	0.62
947.571	1.62
948.301	0.62
949.031	1.62
949.76	0.62
950.49	2.62
951.219	0.62
951.948	0.62
952.678	-1.38
953.407	-0.38
954.136	-1.38
954.865	2.62
955.594	1.62
956.323	0.62
957.052	-0.38
957.78	1.62
958.509	2.62
959.238	0.62
959.966	-0.38
960.695	2.62
961.423	2.62
962.151	-1.38
962.88	1.62
963.608	2.62
964.336	0.62
965.064	0.62
965.792	0.62
966.52	-0.38
967.247	-1.38
967.975	1.62
968.703	1.62
969.43	-0.38
970.158	1.62
970.885	0.62
971.613	0.62
972.34	-1.38
973.067	0.62
973.794	0.62
974.521	0.62
975.248	1.62
975.975	0.62
976.702	0.62
977.429	1.62
978.156	1.62
978.882	2.62
979.609	1.62
980.335	0.62
981.062	0.62
981.788	1.62
982.514	0.62
983.24	1.62
983.967	-0.38
984.693	-1.38
985.419	0.62
986.144	1.62
986.87	1.62
987.596	1.62
988.322	-2.38
989.047	1.62
989.773	0.62
990.498	-0.38
991.224	1.62
991.949	2.62
992.674	1.62
993.399	-0.38
994.124	-1.38
994.849	1.62
995.574	1.62
996.299	1.62
997.024	2.62
997.749	0.62
998.473	-0.38
999.198	3.62
999.922	-0.38
1000.647	4.62
1001.371	4.62
1002.095	-2.38
1002.82	0.62
1003.544	-1.38
1004.268	3.62
1004.992	4.62
1005.716	1.62
1006.439	3.62
1007.163	1.62
1007.887	3.62
1008.611	2.62
1009.334	0.62
1010.058	1.62
1010.781	1.62
1011.504	1.62
1012.228	-0.38
1012.951	0.62
1013.674	-0.38
1014.397	-1.38
1015.12	-0.38
