节点500_425_QEPB04081__205__15-51-43-112.txt的数据

Date: Wed Nov 12 15:51:43 CST 2025
User: PC
Spectrometer: QEPB0408
触发模式: 0
积分时间 (秒): 1.000000E-2
Scans to average: 1
启用暗噪声校正: true
启用非线性校正: false
滑动平均宽度: 0
X轴模式: Wavelengths
Number of Pixels in Spectrum: 1044
>>>>>Begin Spectral Data<<<<<
220.843	0.88
221.644	1.88
222.444	3.88
223.244	3.88
224.045	3.88
224.845	3.88
225.645	2.88
226.445	4.88
227.245	6.88
228.045	1.88
228.845	6.88
229.645	5.88
230.444	4.88
231.244	6.88
232.043	4.88
232.843	3.88
233.642	3.88
234.442	4.88
235.241	6.88
236.04	4.88
236.839	4.88
237.638	4.88
238.437	3.88
239.236	5.88
240.035	4.88
240.833	5.88
241.632	6.88
242.43	5.88
243.229	7.88
244.027	7.88
244.826	7.88
245.624	6.88
246.422	10.88
247.22	7.88
248.018	9.88
248.816	7.88
249.614	6.88
250.412	10.88
251.21	10.88
252.007	10.88
252.805	10.88
253.602	9.88
254.4	9.88
255.197	10.88
255.994	11.88
256.791	13.88
257.589	12.88
258.386	12.88
259.183	13.88
259.979	14.88
260.776	12.88
261.573	15.88
262.37	15.88
263.166	15.88
263.963	14.88
264.759	15.88
265.556	16.88
266.352	19.88
267.148	18.88
267.944	21.88
268.74	17.88
269.536	20.88
270.332	22.88
271.128	21.88
271.924	21.88
272.719	19.88
273.515	23.88
274.311	24.88
275.106	26.88
275.901	22.88
276.697	22.88
277.492	22.88
278.287	23.88
279.082	26.88
279.877	24.88
280.672	22.88
281.467	26.88
282.262	24.88
283.056	22.88
283.851	25.88
284.646	23.88
285.44	22.88
286.234	25.88
287.029	23.88
287.823	21.88
288.617	25.88
289.411	24.88
290.205	25.88
290.999	23.88
291.793	24.88
292.587	22.88
293.381	22.88
294.174	23.88
294.968	20.88
295.761	18.88
296.555	21.88
297.348	13.88
298.141	18.88
298.935	22.88
299.728	18.88
300.521	21.88
301.314	17.88
302.107	14.88
302.899	15.88
303.692	14.88
304.485	16.88
305.277	15.88
306.07	15.88
306.862	16.88
307.655	13.88
308.447	14.88
309.239	12.88
310.031	16.88
310.823	13.88
311.615	13.88
312.407	12.88
313.199	11.88
313.991	10.88
314.783	10.88
315.574	12.88
316.366	13.88
317.157	10.88
317.949	9.88
318.74	10.88
319.531	12.88
320.322	9.88
321.113	8.88
321.904	11.88
322.695	8.88
323.486	8.88
324.277	10.88
325.068	9.88
325.858	9.88
326.649	6.88
327.439	8.88
328.23	9.88
329.02	8.88
329.81	7.88
330.6	6.88
331.391	8.88
332.181	8.88
332.971	8.88
333.76	7.88
334.55	9.88
335.34	7.88
336.13	8.88
336.919	8.88
337.709	8.88
338.498	8.88
339.287	7.88
340.077	7.88
340.866	9.88
341.655	6.88
342.444	8.88
343.233	6.88
344.022	8.88
344.811	7.88
345.6	5.88
346.388	7.88
347.177	5.88
347.965	8.88
348.754	7.88
349.542	9.88
350.33	6.88
351.119	6.88
351.907	7.88
352.695	7.88
353.483	8.88
354.271	9.88
355.059	6.88
355.846	7.88
356.634	8.88
357.422	8.88
358.209	5.88
358.997	6.88
359.784	5.88
360.571	5.88
361.359	6.88
362.146	6.88
362.933	5.88
363.72	5.88
364.507	5.88
365.294	5.88
366.081	6.88
366.867	6.88
367.654	6.88
368.44	6.88
369.227	6.88
370.013	4.88
370.8	7.88
371.586	5.88
372.372	5.88
373.158	5.88
373.944	6.88
374.73	3.88
375.516	5.88
376.302	6.88
377.088	7.88
377.873	9.88
378.659	8.88
379.445	5.88
380.23	5.88
381.015	6.88
381.801	4.88
382.586	7.88
383.371	5.88
384.156	6.88
384.941	7.88
385.726	8.88
386.511	6.88
387.296	7.88
388.08	7.88
388.865	6.88
389.649	8.88
390.434	5.88
391.218	6.88
392.003	7.88
392.787	9.88
393.571	5.88
394.355	7.88
395.139	8.88
395.923	6.88
396.707	9.88
397.491	6.88
398.274	5.88
399.058	5.88
399.842	7.88
400.625	9.88
401.408	7.88
402.192	8.88
402.975	10.88
403.758	8.88
404.541	8.88
405.324	8.88
406.107	12.88
406.89	8.88
407.673	8.88
408.456	11.88
409.238	8.88
410.021	11.88
410.803	12.88
411.586	12.88
412.368	14.88
413.151	9.88
413.933	11.88
414.715	9.88
415.497	13.88
416.279	9.88
417.061	11.88
417.843	10.88
418.624	13.88
419.406	14.88
420.188	14.88
420.969	14.88
421.751	14.88
422.532	14.88
423.313	15.88
424.095	12.88
424.876	14.88
425.657	14.88
426.438	17.88
427.219	15.88
428	16.88
428.78	19.88
429.561	19.88
430.342	17.88
431.122	21.88
431.903	17.88
432.683	22.88
433.464	19.88
434.244	25.88
435.024	24.88
435.804	23.88
436.584	25.88
437.364	26.88
438.144	30.88
438.924	31.88
439.704	31.88
440.483	33.88
441.263	33.88
442.042	37.88
442.822	38.88
443.601	43.88
444.38	44.88
445.16	48.88
445.939	53.88
446.718	55.88
447.497	60.88
448.276	67.88
449.054	69.88
449.833	73.88
450.612	81.88
451.391	92.88
452.169	101.88
452.948	109.88
453.726	121.88
454.504	135.88
455.282	151.88
456.061	165.88
456.839	181.88
457.617	193.88
458.395	228.88
459.172	250.88
459.95	279.88
460.728	310.88
461.506	342.88
462.283	393.88
463.061	432.88
463.838	488.88
464.615	549.88
465.393	606.88
466.17	667.88
466.947	761.88
467.724	841.88
468.501	945.88
469.278	1044.88
470.055	1159.88
470.831	1283.88
471.608	1427.88
472.385	1587.88
473.161	1766.88
473.938	1951.88
474.714	2145.88
475.49	2374.88
476.266	2636.88
477.043	2879.88
477.819	3186.88
478.595	3540.88
479.371	3894.88
480.146	4278.88
480.922	4686.88
481.698	5146.88
482.473	5656.88
483.249	6184.88
484.024	6828.88
484.8	7514.88
485.575	8185.88
486.35	8935.88
487.126	9735.88
487.901	10645.88
488.676	11657.88
489.451	12678.88
490.225	13731.88
491	14959.88
491.775	16201.88
492.55	17502.88
493.324	18927.88
494.099	20187.88
494.873	21632.88
495.647	23107.88
496.422	24548.88
497.196	26032.88
497.97	27619.88
498.744	28993.88
499.518	30323.88
500.292	31624.88
501.066	32767.88
501.839	33924.88
502.613	34698.88
503.387	35406.88
504.16	35858.88
504.934	36030.88
505.707	36087.88
506.48	35922.88
507.253	35500.88
508.027	35013.88
508.8	34466.88
509.573	33610.88
510.346	32742.88
511.118	31784.88
511.891	30709.88
512.664	29589.88
513.437	28389.88
514.209	27209.88
514.982	26196.88
515.754	25053.88
516.526	23931.88
517.298	22998.88
518.071	21930.88
518.843	21089.88
519.615	20180.88
520.387	19377.88
521.159	18634.88
521.93	17936.88
522.702	17230.88
523.474	16550.88
524.245	15918.88
525.017	15210.88
525.788	14428.88
526.56	13798.88
527.331	13155.88
528.102	12551.88
528.873	11874.88
529.644	11360.88
530.415	10816.88
531.186	10270.88
531.957	9712.88
532.728	9211.88
533.498	8717.88
534.269	8233.88
535.039	7771.88
535.81	7362.88
536.58	6969.88
537.351	6547.88
538.121	6149.88
538.891	5864.88
539.661	5536.88
540.431	5263.88
541.201	4973.88
541.971	4707.88
542.741	4473.88
543.51	4253.88
544.28	4054.88
545.05	3828.88
545.819	3638.88
546.588	3483.88
547.358	3278.88
548.127	3114.88
548.896	2948.88
549.665	2806.88
550.434	2667.88
551.203	2505.88
551.972	2396.88
552.741	2262.88
553.51	2126.88
554.278	2012.88
555.047	1903.88
555.815	1801.88
556.584	1701.88
557.352	1609.88
558.121	1504.88
558.889	1439.88
559.657	1332.88
560.425	1271.88
561.193	1199.88
561.961	1143.88
562.729	1074.88
563.496	1016.88
564.264	960.88
565.032	907.88
565.799	857.88
566.567	813.88
567.334	775.88
568.101	738.88
568.869	687.88
569.636	637.88
570.403	616.88
571.17	569.88
571.937	541.88
572.704	509.88
573.471	481.88
574.237	457.88
575.004	431.88
575.771	400.88
576.537	388.88
577.303	361.88
578.07	339.88
578.836	321.88
579.602	300.88
580.368	285.88
581.134	273.88
581.9	251.88
582.666	245.88
583.432	231.88
584.198	213.88
584.964	209.88
585.729	197.88
586.495	191.88
587.26	176.88
588.025	167.88
588.791	158.88
589.556	148.88
590.321	145.88
591.086	140.88
591.851	125.88
592.616	123.88
593.381	113.88
594.146	115.88
594.911	102.88
595.675	101.88
596.44	99.88
597.204	92.88
597.969	85.88
598.733	85.88
599.497	80.88
600.261	77.88
601.025	71.88
601.79	72.88
602.553	65.88
603.317	65.88
604.081	59.88
604.845	60.88
605.609	59.88
606.372	50.88
607.136	53.88
607.899	46.88
608.662	46.88
609.426	42.88
610.189	43.88
610.952	41.88
611.715	41.88
612.478	38.88
613.241	37.88
614.004	41.88
614.767	37.88
615.529	37.88
616.292	29.88
617.055	33.88
617.817	33.88
618.579	29.88
619.342	28.88
620.104	29.88
620.866	27.88
621.628	26.88
622.39	25.88
623.152	25.88
623.914	23.88
624.676	23.88
625.438	21.88
626.199	17.88
626.961	20.88
627.722	21.88
628.484	19.88
629.245	20.88
630.006	19.88
630.768	19.88
631.529	15.88
632.29	15.88
633.051	15.88
633.812	12.88
634.573	15.88
635.333	12.88
636.094	16.88
636.855	13.88
637.615	13.88
638.376	14.88
639.136	13.88
639.896	11.88
640.657	14.88
641.417	13.88
642.177	10.88
642.937	9.88
643.697	12.88
644.457	9.88
645.216	9.88
645.976	13.88
646.736	11.88
647.495	11.88
648.255	10.88
649.014	10.88
649.774	9.88
650.533	10.88
651.292	7.88
652.051	7.88
652.81	6.88
653.569	7.88
654.328	6.88
655.087	8.88
655.846	8.88
656.604	4.88
657.363	8.88
658.121	9.88
658.88	7.88
659.638	7.88
660.397	5.88
661.155	7.88
661.913	7.88
662.671	4.88
663.429	6.88
664.187	6.88
664.945	5.88
665.703	5.88
666.46	5.88
667.218	5.88
667.976	5.88
668.733	6.88
669.49	8.88
670.248	6.88
671.005	7.88
671.762	3.88
672.519	5.88
673.276	4.88
674.033	6.88
674.79	4.88
675.547	4.88
676.304	6.88
677.06	3.88
677.817	5.88
678.574	3.88
679.33	3.88
680.086	3.88
680.843	5.88
681.599	4.88
682.355	5.88
683.111	4.88
683.867	4.88
684.623	5.88
685.379	6.88
686.135	4.88
686.89	3.88
687.646	4.88
688.402	4.88
689.157	5.88
689.912	5.88
690.668	7.88
691.423	5.88
692.178	2.88
692.933	6.88
693.688	4.88
694.443	5.88
695.198	6.88
695.953	5.88
696.708	3.88
697.462	3.88
698.217	4.88
698.972	3.88
699.726	5.88
700.48	3.88
701.235	5.88
701.989	4.88
702.743	5.88
703.497	4.88
704.251	1.88
705.005	3.88
705.759	3.88
706.513	2.88
707.266	5.88
708.02	3.88
708.774	3.88
709.527	6.88
710.28	6.88
711.034	3.88
711.787	4.88
712.54	5.88
713.293	4.88
714.046	3.88
714.799	3.88
715.552	4.88
716.305	3.88
717.058	4.88
717.81	5.88
718.563	6.88
719.315	3.88
720.068	3.88
720.82	4.88
721.573	4.88
722.325	2.88
723.077	5.88
723.829	5.88
724.581	3.88
725.333	6.88
726.085	4.88
726.836	4.88
727.588	5.88
728.34	2.88
729.091	7.88
729.843	4.88
730.594	5.88
731.346	6.88
732.097	4.88
732.848	6.88
733.599	5.88
734.35	7.88
735.101	6.88
735.852	5.88
736.603	6.88
737.354	4.88
738.104	5.88
738.855	6.88
739.605	6.88
740.356	6.88
741.106	4.88
741.856	6.88
742.607	6.88
743.357	9.88
744.107	6.88
744.857	7.88
745.607	9.88
746.357	5.88
747.106	6.88
747.856	4.88
748.606	7.88
749.355	5.88
750.105	6.88
750.854	8.88
751.603	5.88
752.353	6.88
753.102	6.88
753.851	7.88
754.6	6.88
755.349	4.88
756.098	6.88
756.847	8.88
757.595	6.88
758.344	4.88
759.093	7.88
759.841	7.88
760.589	8.88
761.338	8.88
762.086	7.88
762.834	8.88
763.582	6.88
764.331	9.88
765.079	8.88
765.826	8.88
766.574	8.88
767.322	8.88
768.07	9.88
768.817	6.88
769.565	12.88
770.312	12.88
771.06	9.88
771.807	11.88
772.554	9.88
773.302	10.88
774.049	9.88
774.796	9.88
775.543	11.88
776.29	8.88
777.036	9.88
777.783	10.88
778.53	11.88
779.276	11.88
780.023	8.88
780.769	9.88
781.516	11.88
782.262	9.88
783.008	11.88
783.754	8.88
784.5	10.88
785.246	13.88
785.992	12.88
786.738	11.88
787.484	10.88
788.23	10.88
788.975	7.88
789.721	13.88
790.466	9.88
791.212	12.88
791.957	10.88
792.702	11.88
793.447	11.88
794.193	9.88
794.938	9.88
795.683	9.88
796.427	9.88
797.172	9.88
797.917	8.88
798.662	8.88
799.406	7.88
800.151	9.88
800.895	7.88
801.64	9.88
802.384	9.88
803.128	8.88
803.872	9.88
804.616	5.88
805.36	7.88
806.104	8.88
806.848	7.88
807.592	6.88
808.336	7.88
809.079	6.88
809.823	6.88
810.566	8.88
811.31	5.88
812.053	6.88
812.796	6.88
813.539	8.88
814.283	6.88
815.026	8.88
815.769	6.88
816.511	8.88
817.254	6.88
817.997	5.88
818.74	5.88
819.482	5.88
820.225	5.88
820.967	7.88
821.71	4.88
822.452	3.88
823.194	2.88
823.936	4.88
824.678	5.88
825.42	7.88
826.162	5.88
826.904	6.88
827.646	4.88
828.388	4.88
829.129	5.88
829.871	5.88
830.612	4.88
831.354	2.88
832.095	3.88
832.836	4.88
833.577	4.88
834.319	5.88
835.06	1.88
835.801	5.88
836.542	3.88
837.282	1.88
838.023	5.88
838.764	2.88
839.504	5.88
840.245	6.88
840.985	1.88
841.726	3.88
842.466	3.88
843.206	3.88
843.946	1.88
844.687	3.88
845.427	3.88
846.166	6.88
846.906	2.88
847.646	0.88
848.386	2.88
849.125	1.88
849.865	5.88
850.605	4.88
851.344	4.88
852.083	3.88
852.823	1.88
853.562	4.88
854.301	4.88
855.04	2.88
855.779	2.88
856.518	3.88
857.257	0.88
857.995	0.88
858.734	4.88
859.473	1.88
860.211	1.88
860.95	1.88
861.688	-0.12
862.426	3.88
863.165	1.88
863.903	0.88
864.641	1.88
865.379	1.88
866.117	3.88
866.855	1.88
867.593	1.88
868.33	0.88
869.068	0.88
869.806	0.88
870.543	0.88
871.28	1.88
872.018	1.88
872.755	2.88
873.492	0.88
874.229	1.88
874.967	1.88
875.703	-1.12
876.44	0.88
877.177	2.88
877.914	-0.12
878.651	1.88
879.387	0.88
880.124	1.88
880.86	1.88
881.597	1.88
882.333	1.88
883.069	0.88
883.806	1.88
884.542	-0.12
885.278	-0.12
886.014	0.88
886.749	-0.12
887.485	0.88
888.221	-0.12
888.957	-0.12
889.692	-2.12
890.428	1.88
891.163	1.88
891.899	1.88
892.634	-0.12
893.369	1.88
894.104	-0.12
894.839	0.88
895.574	1.88
896.309	2.88
897.044	-2.12
897.779	2.88
898.514	-0.12
899.248	-0.12
899.983	1.88
900.717	-0.12
901.452	-0.12
902.186	0.88
902.92	0.88
903.654	-1.12
904.389	-1.12
905.123	-0.12
905.857	-2.12
906.59	-0.12
907.324	-1.12
908.058	2.88
908.792	-0.12
909.525	-1.12
910.259	-1.12
910.992	-0.12
911.726	-0.12
912.459	1.88
913.192	0.88
913.925	1.88
914.658	-0.12
915.391	-0.12
916.124	-0.12
916.857	1.88
917.59	0.88
918.323	1.88
919.055	3.88
919.788	1.88
920.521	0.88
921.253	1.88
921.985	-1.12
922.718	-1.12
923.45	0.88
924.182	-1.12
924.914	-0.12
925.646	1.88
926.378	-0.12
927.11	-0.12
927.841	-1.12
928.573	-0.12
929.305	0.88
930.036	0.88
930.768	-1.12
931.499	0.88
932.23	-0.12
932.962	0.88
933.693	-0.12
934.424	0.88
935.155	-0.12
935.886	-0.12
936.617	-1.12
937.348	-0.12
938.078	-0.12
938.809	-0.12
939.54	-0.12
940.27	-0.12
941.001	-1.12
941.731	-0.12
942.461	-0.12
943.191	-0.12
943.922	-0.12
944.652	-2.12
945.382	-0.12
946.112	0.88
946.841	-0.12
947.571	-2.12
948.301	-2.12
949.031	-1.12
949.76	-1.12
950.49	-1.12
951.219	-2.12
951.948	-0.12
952.678	-0.12
953.407	-1.12
954.136	-1.12
954.865	-0.12
955.594	2.88
956.323	-1.12
957.052	-0.12
957.78	-0.12
958.509	-2.12
959.238	-0.12
959.966	-2.12
960.695	-0.12
961.423	-0.12
962.151	0.88
962.88	0.88
963.608	-2.12
964.336	1.88
965.064	-0.12
965.792	-0.12
966.52	-0.12
967.247	0.88
967.975	1.88
968.703	-1.12
969.43	-2.12
970.158	-2.12
970.885	-2.12
971.613	-0.12
972.34	-2.12
973.067	1.88
973.794	-0.12
974.521	0.88
975.248	-0.12
975.975	-1.12
976.702	1.88
977.429	-0.12
978.156	-1.12
978.882	-1.12
979.609	0.88
980.335	1.88
981.062	-0.12
981.788	-0.12
982.514	-0.12
983.24	0.88
983.967	0.88
984.693	-0.12
985.419	-0.12
986.144	-0.12
986.87	0.88
987.596	1.88
988.322	-1.12
989.047	-0.12
989.773	-0.12
990.498	-0.12
991.224	-1.12
991.949	-2.12
992.674	-0.12
993.399	-1.12
994.124	0.88
994.849	-0.12
995.574	1.88
996.299	0.88
997.024	-1.12
997.749	-0.12
998.473	1.88
999.198	-0.12
999.922	-0.12
1000.647	-0.12
1001.371	3.88
1002.095	-2.12
1002.82	-1.12
1003.544	-1.12
1004.268	3.88
1004.992	1.88
1005.716	1.88
1006.439	-0.12
1007.163	-1.12
1007.887	-0.12
1008.611	-2.12
1009.334	-0.12
1010.058	-0.12
1010.781	-1.12
1011.504	-1.12
1012.228	-0.12
1012.951	0.88
1013.674	-0.12
1014.397	-1.12
1015.12	0.88
