节点500_425_QEPB04081__120__15-50-18-292.txt的数据

Date: Wed Nov 12 15:50:18 CST 2025
User: PC
Spectrometer: QEPB0408
触发模式: 0
积分时间 (秒): 1.000000E-2
Scans to average: 1
启用暗噪声校正: true
启用非线性校正: false
滑动平均宽度: 0
X轴模式: Wavelengths
Number of Pixels in Spectrum: 1044
>>>>>Begin Spectral Data<<<<<
220.843	2.5
221.644	5.5
222.444	2.5
223.244	5.5
224.045	4.5
224.845	5.5
225.645	3.5
226.445	4.5
227.245	4.5
228.045	5.5
228.845	5.5
229.645	3.5
230.444	4.5
231.244	6.5
232.043	4.5
232.843	7.5
233.642	6.5
234.442	6.5
235.241	5.5
236.04	5.5
236.839	6.5
237.638	4.5
238.437	6.5
239.236	8.5
240.035	7.5
240.833	8.5
241.632	5.5
242.43	7.5
243.229	7.5
244.027	6.5
244.826	10.5
245.624	10.5
246.422	10.5
247.22	10.5
248.018	8.5
248.816	9.5
249.614	9.5
250.412	10.5
251.21	9.5
252.007	13.5
252.805	11.5
253.602	11.5
254.4	12.5
255.197	11.5
255.994	13.5
256.791	10.5
257.589	14.5
258.386	13.5
259.183	13.5
259.979	17.5
260.776	14.5
261.573	20.5
262.37	14.5
263.166	17.5
263.963	16.5
264.759	17.5
265.556	18.5
266.352	18.5
267.148	21.5
267.944	20.5
268.74	21.5
269.536	22.5
270.332	20.5
271.128	23.5
271.924	21.5
272.719	24.5
273.515	22.5
274.311	22.5
275.106	24.5
275.901	25.5
276.697	26.5
277.492	24.5
278.287	29.5
279.082	25.5
279.877	22.5
280.672	26.5
281.467	27.5
282.262	26.5
283.056	22.5
283.851	26.5
284.646	26.5
285.44	26.5
286.234	26.5
287.029	26.5
287.823	26.5
288.617	25.5
289.411	21.5
290.205	25.5
290.999	25.5
291.793	24.5
292.587	23.5
293.381	22.5
294.174	25.5
294.968	20.5
295.761	18.5
296.555	22.5
297.348	19.5
298.141	17.5
298.935	22.5
299.728	19.5
300.521	18.5
301.314	19.5
302.107	14.5
302.899	16.5
303.692	16.5
304.485	16.5
305.277	15.5
306.07	12.5
306.862	14.5
307.655	17.5
308.447	16.5
309.239	16.5
310.031	16.5
310.823	14.5
311.615	17.5
312.407	13.5
313.199	13.5
313.991	11.5
314.783	12.5
315.574	13.5
316.366	11.5
317.157	12.5
317.949	10.5
318.74	11.5
319.531	10.5
320.322	10.5
321.113	11.5
321.904	10.5
322.695	10.5
323.486	11.5
324.277	10.5
325.068	10.5
325.858	8.5
326.649	10.5
327.439	10.5
328.23	11.5
329.02	8.5
329.81	8.5
330.6	8.5
331.391	11.5
332.181	10.5
332.971	6.5
333.76	10.5
334.55	10.5
335.34	6.5
336.13	8.5
336.919	10.5
337.709	8.5
338.498	8.5
339.287	7.5
340.077	6.5
340.866	7.5
341.655	10.5
342.444	8.5
343.233	9.5
344.022	7.5
344.811	8.5
345.6	8.5
346.388	7.5
347.177	7.5
347.965	10.5
348.754	7.5
349.542	8.5
350.33	7.5
351.119	11.5
351.907	9.5
352.695	7.5
353.483	8.5
354.271	8.5
355.059	9.5
355.846	6.5
356.634	11.5
357.422	6.5
358.209	6.5
358.997	9.5
359.784	10.5
360.571	5.5
361.359	7.5
362.146	7.5
362.933	7.5
363.72	7.5
364.507	8.5
365.294	6.5
366.081	7.5
366.867	7.5
367.654	7.5
368.44	7.5
369.227	7.5
370.013	7.5
370.8	5.5
371.586	7.5
372.372	7.5
373.158	6.5
373.944	6.5
374.73	6.5
375.516	6.5
376.302	8.5
377.088	6.5
377.873	7.5
378.659	4.5
379.445	8.5
380.23	5.5
381.015	7.5
381.801	5.5
382.586	5.5
383.371	7.5
384.156	6.5
384.941	7.5
385.726	6.5
386.511	10.5
387.296	8.5
388.08	9.5
388.865	8.5
389.649	6.5
390.434	8.5
391.218	7.5
392.003	7.5
392.787	8.5
393.571	8.5
394.355	8.5
395.139	9.5
395.923	10.5
396.707	9.5
397.491	10.5
398.274	10.5
399.058	10.5
399.842	9.5
400.625	10.5
401.408	9.5
402.192	10.5
402.975	6.5
403.758	9.5
404.541	8.5
405.324	10.5
406.107	11.5
406.89	12.5
407.673	9.5
408.456	12.5
409.238	11.5
410.021	10.5
410.803	12.5
411.586	12.5
412.368	10.5
413.151	12.5
413.933	9.5
414.715	13.5
415.497	10.5
416.279	12.5
417.061	14.5
417.843	12.5
418.624	16.5
419.406	11.5
420.188	14.5
420.969	13.5
421.751	13.5
422.532	16.5
423.313	16.5
424.095	16.5
424.876	16.5
425.657	16.5
426.438	18.5
427.219	16.5
428	18.5
428.78	16.5
429.561	21.5
430.342	20.5
431.122	19.5
431.903	22.5
432.683	23.5
433.464	24.5
434.244	23.5
435.024	25.5
435.804	24.5
436.584	26.5
437.364	26.5
438.144	27.5
438.924	31.5
439.704	32.5
440.483	36.5
441.263	33.5
442.042	36.5
442.822	42.5
443.601	43.5
444.38	46.5
445.16	47.5
445.939	48.5
446.718	57.5
447.497	57.5
448.276	64.5
449.054	72.5
449.833	73.5
450.612	81.5
451.391	91.5
452.169	99.5
452.948	106.5
453.726	121.5
454.504	133.5
455.282	146.5
456.061	161.5
456.839	180.5
457.617	193.5
458.395	217.5
459.172	242.5
459.95	269.5
460.728	309.5
461.506	339.5
462.283	378.5
463.061	423.5
463.838	474.5
464.615	536.5
465.393	587.5
466.17	659.5
466.947	724.5
467.724	831.5
468.501	926.5
469.278	1019.5
470.055	1141.5
470.831	1262.5
471.608	1397.5
472.385	1568.5
473.161	1736.5
473.938	1931.5
474.714	2147.5
475.49	2367.5
476.266	2601.5
477.043	2905.5
477.819	3204.5
478.595	3545.5
479.371	3925.5
480.146	4289.5
480.922	4697.5
481.698	5223.5
482.473	5720.5
483.249	6314.5
484.024	6959.5
484.8	7614.5
485.575	8386.5
486.35	9126.5
487.126	10000.5
487.901	10919.5
488.676	11952.5
489.451	13108.5
490.225	14167.5
491	15404.5
491.775	16768.5
492.55	18093.5
493.324	19538.5
494.099	20958.5
494.873	22374.5
495.647	23924.5
496.422	25373.5
497.196	26976.5
497.97	28601.5
498.744	29981.5
499.518	31405.5
500.292	32697.5
501.066	33714.5
501.839	34822.5
502.613	35760.5
503.387	36279.5
504.16	36660.5
504.934	36814.5
505.707	36740.5
506.48	36537.5
507.253	36092.5
508.027	35500.5
508.8	34793.5
509.573	33979.5
510.346	32873.5
511.118	31878.5
511.891	30687.5
512.664	29508.5
513.437	28280.5
514.209	27036.5
514.982	25983.5
515.754	24881.5
516.526	23772.5
517.298	22753.5
518.071	21813.5
518.843	20926.5
519.615	20045.5
520.387	19264.5
521.159	18485.5
521.93	17849.5
522.702	17109.5
523.474	16427.5
524.245	15782.5
525.017	15003.5
525.788	14328.5
526.56	13641.5
527.331	12995.5
528.102	12405.5
528.873	11778.5
529.644	11172.5
530.415	10671.5
531.186	10151.5
531.957	9589.5
532.728	9024.5
533.498	8564.5
534.269	8054.5
535.039	7635.5
535.81	7214.5
536.58	6794.5
537.351	6409.5
538.121	6058.5
538.891	5752.5
539.661	5458.5
540.431	5155.5
541.201	4898.5
541.971	4640.5
542.741	4368.5
543.51	4180.5
544.28	3953.5
545.05	3784.5
545.819	3586.5
546.588	3421.5
547.358	3209.5
548.127	3062.5
548.896	2902.5
549.665	2751.5
550.434	2621.5
551.203	2468.5
551.972	2329.5
552.741	2211.5
553.51	2097.5
554.278	1987.5
555.047	1851.5
555.815	1746.5
556.584	1662.5
557.352	1556.5
558.121	1462.5
558.889	1397.5
559.657	1317.5
560.425	1238.5
561.193	1163.5
561.961	1108.5
562.729	1047.5
563.496	999.5
564.264	942.5
565.032	887.5
565.799	837.5
566.567	795.5
567.334	751.5
568.101	707.5
568.869	674.5
569.636	641.5
570.403	596.5
571.17	559.5
571.937	520.5
572.704	505.5
573.471	471.5
574.237	445.5
575.004	429.5
575.771	393.5
576.537	378.5
577.303	346.5
578.07	342.5
578.836	309.5
579.602	297.5
580.368	281.5
581.134	266.5
581.9	249.5
582.666	233.5
583.432	228.5
584.198	219.5
584.964	203.5
585.729	196.5
586.495	186.5
587.26	171.5
588.025	161.5
588.791	158.5
589.556	150.5
590.321	142.5
591.086	134.5
591.851	125.5
592.616	121.5
593.381	114.5
594.146	110.5
594.911	106.5
595.675	102.5
596.44	96.5
597.204	90.5
597.969	86.5
598.733	85.5
599.497	76.5
600.261	80.5
601.025	72.5
601.79	67.5
602.553	65.5
603.317	65.5
604.081	61.5
604.845	58.5
605.609	58.5
606.372	53.5
607.136	49.5
607.899	52.5
608.662	47.5
609.426	46.5
610.189	47.5
610.952	43.5
611.715	41.5
612.478	39.5
613.241	39.5
614.004	39.5
614.767	36.5
615.529	34.5
616.292	34.5
617.055	32.5
617.817	29.5
618.579	31.5
619.342	29.5
620.104	30.5
620.866	29.5
621.628	29.5
622.39	27.5
623.152	26.5
623.914	22.5
624.676	22.5
625.438	24.5
626.199	20.5
626.961	19.5
627.722	18.5
628.484	19.5
629.245	21.5
630.006	19.5
630.768	17.5
631.529	19.5
632.29	17.5
633.051	18.5
633.812	18.5
634.573	16.5
635.333	18.5
636.094	16.5
636.855	16.5
637.615	12.5
638.376	12.5
639.136	13.5
639.896	15.5
640.657	13.5
641.417	9.5
642.177	11.5
642.937	13.5
643.697	13.5
644.457	12.5
645.216	11.5
645.976	12.5
646.736	9.5
647.495	10.5
648.255	11.5
649.014	9.5
649.774	10.5
650.533	8.5
651.292	10.5
652.051	11.5
652.81	7.5
653.569	8.5
654.328	7.5
655.087	10.5
655.846	9.5
656.604	8.5
657.363	9.5
658.121	8.5
658.88	11.5
659.638	5.5
660.397	9.5
661.155	7.5
661.913	7.5
662.671	5.5
663.429	7.5
664.187	7.5
664.945	7.5
665.703	6.5
666.46	6.5
667.218	6.5
667.976	7.5
668.733	7.5
669.49	7.5
670.248	7.5
671.005	7.5
671.762	6.5
672.519	7.5
673.276	5.5
674.033	7.5
674.79	6.5
675.547	5.5
676.304	8.5
677.06	8.5
677.817	5.5
678.574	2.5
679.33	5.5
680.086	3.5
680.843	8.5
681.599	4.5
682.355	5.5
683.111	6.5
683.867	4.5
684.623	6.5
685.379	3.5
686.135	4.5
686.89	4.5
687.646	6.5
688.402	5.5
689.157	4.5
689.912	7.5
690.668	4.5
691.423	5.5
692.178	4.5
692.933	8.5
693.688	2.5
694.443	5.5
695.198	5.5
695.953	2.5
696.708	4.5
697.462	7.5
698.217	4.5
698.972	4.5
699.726	5.5
700.48	4.5
701.235	4.5
701.989	5.5
702.743	4.5
703.497	7.5
704.251	2.5
705.005	5.5
705.759	7.5
706.513	6.5
707.266	6.5
708.02	5.5
708.774	5.5
709.527	4.5
710.28	3.5
711.034	6.5
711.787	4.5
712.54	4.5
713.293	5.5
714.046	4.5
714.799	7.5
715.552	7.5
716.305	4.5
717.058	5.5
717.81	4.5
718.563	9.5
719.315	6.5
720.068	5.5
720.82	5.5
721.573	6.5
722.325	5.5
723.077	4.5
723.829	5.5
724.581	5.5
725.333	7.5
726.085	9.5
726.836	7.5
727.588	5.5
728.34	4.5
729.091	6.5
729.843	6.5
730.594	5.5
731.346	4.5
732.097	4.5
732.848	8.5
733.599	7.5
734.35	4.5
735.101	7.5
735.852	5.5
736.603	6.5
737.354	5.5
738.104	7.5
738.855	7.5
739.605	9.5
740.356	7.5
741.106	7.5
741.856	7.5
742.607	7.5
743.357	6.5
744.107	6.5
744.857	6.5
745.607	6.5
746.357	7.5
747.106	6.5
747.856	7.5
748.606	7.5
749.355	8.5
750.105	10.5
750.854	8.5
751.603	9.5
752.353	7.5
753.102	7.5
753.851	9.5
754.6	9.5
755.349	7.5
756.098	8.5
756.847	9.5
757.595	8.5
758.344	7.5
759.093	8.5
759.841	8.5
760.589	12.5
761.338	10.5
762.086	8.5
762.834	10.5
763.582	11.5
764.331	9.5
765.079	5.5
765.826	8.5
766.574	9.5
767.322	11.5
768.07	9.5
768.817	10.5
769.565	10.5
770.312	9.5
771.06	10.5
771.807	9.5
772.554	10.5
773.302	12.5
774.049	13.5
774.796	12.5
775.543	12.5
776.29	12.5
777.036	13.5
777.783	12.5
778.53	13.5
779.276	11.5
780.023	10.5
780.769	13.5
781.516	14.5
782.262	13.5
783.008	13.5
783.754	12.5
784.5	14.5
785.246	13.5
785.992	12.5
786.738	11.5
787.484	11.5
788.23	13.5
788.975	11.5
789.721	10.5
790.466	10.5
791.212	11.5
791.957	12.5
792.702	8.5
793.447	11.5
794.193	9.5
794.938	11.5
795.683	9.5
796.427	11.5
797.172	10.5
797.917	9.5
798.662	8.5
799.406	10.5
800.151	10.5
800.895	11.5
801.64	10.5
802.384	8.5
803.128	7.5
803.872	9.5
804.616	8.5
805.36	9.5
806.104	10.5
806.848	5.5
807.592	11.5
808.336	8.5
809.079	5.5
809.823	8.5
810.566	7.5
811.31	5.5
812.053	4.5
812.796	8.5
813.539	6.5
814.283	5.5
815.026	7.5
815.769	4.5
816.511	7.5
817.254	4.5
817.997	2.5
818.74	6.5
819.482	6.5
820.225	5.5
820.967	8.5
821.71	5.5
822.452	5.5
823.194	6.5
823.936	8.5
824.678	4.5
825.42	6.5
826.162	6.5
826.904	5.5
827.646	7.5
828.388	2.5
829.129	3.5
829.871	1.5
830.612	5.5
831.354	3.5
832.095	3.5
832.836	3.5
833.577	2.5
834.319	6.5
835.06	2.5
835.801	2.5
836.542	2.5
837.282	4.5
838.023	5.5
838.764	4.5
839.504	5.5
840.245	4.5
840.985	4.5
841.726	6.5
842.466	3.5
843.206	3.5
843.946	5.5
844.687	4.5
845.427	3.5
846.166	0.5
846.906	2.5
847.646	3.5
848.386	3.5
849.125	3.5
849.865	5.5
850.605	2.5
851.344	1.5
852.083	4.5
852.823	2.5
853.562	4.5
854.301	3.5
855.04	3.5
855.779	3.5
856.518	3.5
857.257	4.5
857.995	3.5
858.734	2.5
859.473	2.5
860.211	3.5
860.95	4.5
861.688	2.5
862.426	3.5
863.165	3.5
863.903	3.5
864.641	2.5
865.379	2.5
866.117	2.5
866.855	2.5
867.593	-0.5
868.33	3.5
869.068	3.5
869.806	1.5
870.543	1.5
871.28	0.5
872.018	3.5
872.755	1.5
873.492	2.5
874.229	1.5
874.967	1.5
875.703	0.5
876.44	4.5
877.177	1.5
877.914	0.5
878.651	1.5
879.387	2.5
880.124	-0.5
880.86	2.5
881.597	-0.5
882.333	2.5
883.069	1.5
883.806	2.5
884.542	2.5
885.278	1.5
886.014	2.5
886.749	1.5
887.485	0.5
888.221	1.5
888.957	0.5
889.692	2.5
890.428	1.5
891.163	1.5
891.899	0.5
892.634	0.5
893.369	2.5
894.104	2.5
894.839	1.5
895.574	1.5
896.309	1.5
897.044	1.5
897.779	2.5
898.514	4.5
899.248	2.5
899.983	1.5
900.717	0.5
901.452	2.5
902.186	2.5
902.92	1.5
903.654	3.5
904.389	1.5
905.123	1.5
905.857	-1.5
906.59	1.5
907.324	2.5
908.058	0.5
908.792	1.5
909.525	-0.5
910.259	1.5
910.992	1.5
911.726	1.5
912.459	0.5
913.192	1.5
913.925	0.5
914.658	0.5
915.391	1.5
916.124	0.5
916.857	0.5
917.59	1.5
918.323	-1.5
919.055	-1.5
919.788	1.5
920.521	0.5
921.253	0.5
921.985	0.5
922.718	-0.5
923.45	3.5
924.182	1.5
924.914	1.5
925.646	0.5
926.378	-0.5
927.11	-0.5
927.841	-0.5
928.573	-0.5
929.305	2.5
930.036	2.5
930.768	0.5
931.499	-1.5
932.23	2.5
932.962	2.5
933.693	-2.5
934.424	-0.5
935.155	-0.5
935.886	1.5
936.617	1.5
937.348	0.5
938.078	0.5
938.809	-0.5
939.54	0.5
940.27	0.5
941.001	0.5
941.731	2.5
942.461	0.5
943.191	0.5
943.922	0.5
944.652	-1.5
945.382	0.5
946.112	0.5
946.841	0.5
947.571	0.5
948.301	-0.5
949.031	0.5
949.76	-0.5
950.49	-0.5
951.219	-1.5
951.948	1.5
952.678	1.5
953.407	-0.5
954.136	1.5
954.865	0.5
955.594	2.5
956.323	0.5
957.052	0.5
957.78	-1.5
958.509	0.5
959.238	0.5
959.966	-0.5
960.695	0.5
961.423	1.5
962.151	-0.5
962.88	2.5
963.608	0.5
964.336	0.5
965.064	0.5
965.792	-0.5
966.52	0.5
967.247	0.5
967.975	1.5
968.703	0.5
969.43	1.5
970.158	0.5
970.885	-0.5
971.613	0.5
972.34	0.5
973.067	2.5
973.794	-0.5
974.521	-1.5
975.248	0.5
975.975	0.5
976.702	-0.5
977.429	2.5
978.156	0.5
978.882	0.5
979.609	0.5
980.335	0.5
981.062	0.5
981.788	0.5
982.514	0.5
983.24	0.5
983.967	0.5
984.693	-1.5
985.419	0.5
986.144	0.5
986.87	0.5
987.596	0.5
988.322	0.5
989.047	2.5
989.773	-0.5
990.498	1.5
991.224	1.5
991.949	0.5
992.674	-0.5
993.399	0.5
994.124	0.5
994.849	-0.5
995.574	-0.5
996.299	1.5
997.024	-0.5
997.749	0.5
998.473	-0.5
999.198	2.5
999.922	1.5
1000.647	-1.5
1001.371	3.5
1002.095	-1.5
1002.82	0.5
1003.544	0.5
1004.268	2.5
1004.992	2.5
1005.716	2.5
1006.439	3.5
1007.163	4.5
1007.887	4.5
1008.611	-0.5
1009.334	-0.5
1010.058	-0.5
1010.781	-1.5
1011.504	2.5
1012.228	-0.5
1012.951	0.5
1013.674	-1.5
1014.397	-0.5
1015.12	-1.5
