节点500_425_QEPB04081__297__15-53-14-894.txt的数据

Date: Wed Nov 12 15:53:14 CST 2025
User: PC
Spectrometer: QEPB0408
触发模式: 0
积分时间 (秒): 1.000000E-2
Scans to average: 1
启用暗噪声校正: true
启用非线性校正: false
滑动平均宽度: 0
X轴模式: Wavelengths
Number of Pixels in Spectrum: 1044
>>>>>Begin Spectral Data<<<<<
220.843	2.38
221.644	5.38
222.444	2.38
223.244	2.38
224.045	3.38
224.845	4.38
225.645	2.38
226.445	6.38
227.245	2.38
228.045	3.38
228.845	4.38
229.645	3.38
230.444	7.38
231.244	6.38
232.043	7.38
232.843	5.38
233.642	5.38
234.442	6.38
235.241	4.38
236.04	7.38
236.839	5.38
237.638	5.38
238.437	5.38
239.236	6.38
240.035	4.38
240.833	4.38
241.632	10.38
242.43	7.38
243.229	7.38
244.027	4.38
244.826	8.38
245.624	9.38
246.422	8.38
247.22	9.38
248.018	9.38
248.816	10.38
249.614	9.38
250.412	7.38
251.21	10.38
252.007	10.38
252.805	11.38
253.602	13.38
254.4	11.38
255.197	16.38
255.994	11.38
256.791	13.38
257.589	12.38
258.386	14.38
259.183	12.38
259.979	12.38
260.776	16.38
261.573	15.38
262.37	15.38
263.166	14.38
263.963	15.38
264.759	18.38
265.556	17.38
266.352	19.38
267.148	18.38
267.944	18.38
268.74	17.38
269.536	17.38
270.332	21.38
271.128	21.38
271.924	21.38
272.719	23.38
273.515	21.38
274.311	25.38
275.106	23.38
275.901	22.38
276.697	24.38
277.492	25.38
278.287	24.38
279.082	24.38
279.877	26.38
280.672	25.38
281.467	28.38
282.262	27.38
283.056	23.38
283.851	24.38
284.646	24.38
285.44	26.38
286.234	25.38
287.029	24.38
287.823	23.38
288.617	19.38
289.411	25.38
290.205	25.38
290.999	21.38
291.793	23.38
292.587	23.38
293.381	23.38
294.174	22.38
294.968	18.38
295.761	18.38
296.555	20.38
297.348	17.38
298.141	16.38
298.935	19.38
299.728	20.38
300.521	20.38
301.314	17.38
302.107	15.38
302.899	20.38
303.692	14.38
304.485	16.38
305.277	18.38
306.07	17.38
306.862	15.38
307.655	14.38
308.447	14.38
309.239	13.38
310.031	18.38
310.823	13.38
311.615	11.38
312.407	14.38
313.199	12.38
313.991	12.38
314.783	12.38
315.574	9.38
316.366	10.38
317.157	12.38
317.949	9.38
318.74	12.38
319.531	10.38
320.322	8.38
321.113	10.38
321.904	11.38
322.695	8.38
323.486	12.38
324.277	8.38
325.068	9.38
325.858	9.38
326.649	9.38
327.439	10.38
328.23	8.38
329.02	10.38
329.81	7.38
330.6	7.38
331.391	9.38
332.181	9.38
332.971	7.38
333.76	9.38
334.55	5.38
335.34	8.38
336.13	10.38
336.919	8.38
337.709	9.38
338.498	10.38
339.287	8.38
340.077	8.38
340.866	7.38
341.655	8.38
342.444	10.38
343.233	6.38
344.022	5.38
344.811	7.38
345.6	7.38
346.388	7.38
347.177	7.38
347.965	9.38
348.754	7.38
349.542	7.38
350.33	8.38
351.119	9.38
351.907	11.38
352.695	6.38
353.483	8.38
354.271	7.38
355.059	6.38
355.846	6.38
356.634	9.38
357.422	9.38
358.209	7.38
358.997	7.38
359.784	10.38
360.571	8.38
361.359	8.38
362.146	7.38
362.933	7.38
363.72	5.38
364.507	6.38
365.294	8.38
366.081	8.38
366.867	10.38
367.654	7.38
368.44	6.38
369.227	7.38
370.013	4.38
370.8	7.38
371.586	5.38
372.372	6.38
373.158	5.38
373.944	6.38
374.73	8.38
375.516	7.38
376.302	7.38
377.088	7.38
377.873	8.38
378.659	4.38
379.445	7.38
380.23	8.38
381.015	4.38
381.801	5.38
382.586	4.38
383.371	5.38
384.156	6.38
384.941	7.38
385.726	7.38
386.511	5.38
387.296	6.38
388.08	8.38
388.865	7.38
389.649	7.38
390.434	8.38
391.218	10.38
392.003	9.38
392.787	7.38
393.571	7.38
394.355	8.38
395.139	9.38
395.923	8.38
396.707	9.38
397.491	9.38
398.274	9.38
399.058	10.38
399.842	9.38
400.625	7.38
401.408	8.38
402.192	8.38
402.975	11.38
403.758	10.38
404.541	8.38
405.324	9.38
406.107	8.38
406.89	13.38
407.673	9.38
408.456	13.38
409.238	10.38
410.021	11.38
410.803	11.38
411.586	11.38
412.368	12.38
413.151	9.38
413.933	14.38
414.715	11.38
415.497	12.38
416.279	15.38
417.061	10.38
417.843	13.38
418.624	16.38
419.406	13.38
420.188	12.38
420.969	14.38
421.751	13.38
422.532	14.38
423.313	16.38
424.095	16.38
424.876	16.38
425.657	15.38
426.438	18.38
427.219	19.38
428	19.38
428.78	17.38
429.561	17.38
430.342	19.38
431.122	21.38
431.903	23.38
432.683	21.38
433.464	23.38
434.244	23.38
435.024	25.38
435.804	24.38
436.584	26.38
437.364	27.38
438.144	30.38
438.924	26.38
439.704	30.38
440.483	31.38
441.263	36.38
442.042	37.38
442.822	38.38
443.601	43.38
444.38	48.38
445.16	45.38
445.939	54.38
446.718	52.38
447.497	60.38
448.276	68.38
449.054	73.38
449.833	81.38
450.612	82.38
451.391	96.38
452.169	105.38
452.948	112.38
453.726	117.38
454.504	138.38
455.282	151.38
456.061	167.38
456.839	189.38
457.617	205.38
458.395	229.38
459.172	255.38
459.95	284.38
460.728	313.38
461.506	357.38
462.283	397.38
463.061	455.38
463.838	500.38
464.615	559.38
465.393	615.38
466.17	691.38
466.947	761.38
467.724	858.38
468.501	955.38
469.278	1036.38
470.055	1169.38
470.831	1300.38
471.608	1441.38
472.385	1593.38
473.161	1766.38
473.938	1937.38
474.714	2147.38
475.49	2374.38
476.266	2600.38
477.043	2882.38
477.819	3193.38
478.595	3500.38
479.371	3862.38
480.146	4242.38
480.922	4615.38
481.698	5084.38
482.473	5583.38
483.249	6113.38
484.024	6658.38
484.8	7342.38
485.575	8020.38
486.35	8705.38
487.126	9527.38
487.901	10319.38
488.676	11276.38
489.451	12274.38
490.225	13285.38
491	14456.38
491.775	15615.38
492.55	16857.38
493.324	18176.38
494.099	19468.38
494.873	20805.38
495.647	22237.38
496.422	23657.38
497.196	25146.38
497.97	26621.38
498.744	28020.38
499.518	29343.38
500.292	30488.38
501.066	31653.38
501.839	32791.38
502.613	33716.38
503.387	34436.38
504.16	34965.38
504.934	35239.38
505.707	35284.38
506.48	35183.38
507.253	34876.38
508.027	34570.38
508.8	33960.38
509.573	33287.38
510.346	32442.38
511.118	31468.38
511.891	30503.38
512.664	29357.38
513.437	28273.38
514.209	27033.38
514.982	26129.38
515.754	25042.38
516.526	23980.38
517.298	22978.38
518.071	21996.38
518.843	21090.38
519.615	20230.38
520.387	19434.38
521.159	18698.38
521.93	17993.38
522.702	17318.38
523.474	16608.38
524.245	15918.38
525.017	15196.38
525.788	14505.38
526.56	13824.38
527.331	13222.38
528.102	12583.38
528.873	12008.38
529.644	11421.38
530.415	10935.38
531.186	10420.38
531.957	9834.38
532.728	9291.38
533.498	8820.38
534.269	8332.38
535.039	7869.38
535.81	7461.38
536.58	7018.38
537.351	6626.38
538.121	6277.38
538.891	5908.38
539.661	5603.38
540.431	5340.38
541.201	5072.38
541.971	4775.38
542.741	4542.38
543.51	4312.38
544.28	4098.38
545.05	3886.38
545.819	3711.38
546.588	3531.38
547.358	3344.38
548.127	3147.38
548.896	2996.38
549.665	2861.38
550.434	2716.38
551.203	2568.38
551.972	2445.38
552.741	2297.38
553.51	2163.38
554.278	2037.38
555.047	1933.38
555.815	1820.38
556.584	1727.38
557.352	1615.38
558.121	1542.38
558.889	1451.38
559.657	1374.38
560.425	1293.38
561.193	1216.38
561.961	1170.38
562.729	1097.38
563.496	1039.38
564.264	971.38
565.032	924.38
565.799	881.38
566.567	840.38
567.334	785.38
568.101	742.38
568.869	701.38
569.636	655.38
570.403	614.38
571.17	592.38
571.937	548.38
572.704	520.38
573.471	495.38
574.237	468.38
575.004	435.38
575.771	411.38
576.537	393.38
577.303	374.38
578.07	340.38
578.836	330.38
579.602	298.38
580.368	292.38
581.134	280.38
581.9	263.38
582.666	252.38
583.432	244.38
584.198	219.38
584.964	210.38
585.729	203.38
586.495	190.38
587.26	180.38
588.025	168.38
588.791	163.38
589.556	152.38
590.321	143.38
591.086	141.38
591.851	129.38
592.616	120.38
593.381	119.38
594.146	117.38
594.911	109.38
595.675	106.38
596.44	98.38
597.204	93.38
597.969	92.38
598.733	88.38
599.497	83.38
600.261	78.38
601.025	73.38
601.79	72.38
602.553	69.38
603.317	67.38
604.081	60.38
604.845	61.38
605.609	57.38
606.372	59.38
607.136	53.38
607.899	53.38
608.662	48.38
609.426	46.38
610.189	44.38
610.952	44.38
611.715	45.38
612.478	44.38
613.241	41.38
614.004	37.38
614.767	39.38
615.529	34.38
616.292	33.38
617.055	32.38
617.817	33.38
618.579	27.38
619.342	29.38
620.104	30.38
620.866	26.38
621.628	30.38
622.39	26.38
623.152	25.38
623.914	23.38
624.676	24.38
625.438	22.38
626.199	20.38
626.961	24.38
627.722	19.38
628.484	18.38
629.245	20.38
630.006	17.38
630.768	18.38
631.529	17.38
632.29	19.38
633.051	18.38
633.812	17.38
634.573	16.38
635.333	14.38
636.094	18.38
636.855	13.38
637.615	13.38
638.376	15.38
639.136	14.38
639.896	12.38
640.657	15.38
641.417	12.38
642.177	10.38
642.937	14.38
643.697	12.38
644.457	10.38
645.216	11.38
645.976	11.38
646.736	8.38
647.495	10.38
648.255	12.38
649.014	11.38
649.774	11.38
650.533	10.38
651.292	10.38
652.051	11.38
652.81	10.38
653.569	6.38
654.328	10.38
655.087	10.38
655.846	9.38
656.604	8.38
657.363	8.38
658.121	8.38
658.88	6.38
659.638	9.38
660.397	7.38
661.155	9.38
661.913	7.38
662.671	8.38
663.429	8.38
664.187	6.38
664.945	5.38
665.703	7.38
666.46	7.38
667.218	6.38
667.976	8.38
668.733	6.38
669.49	7.38
670.248	5.38
671.005	8.38
671.762	6.38
672.519	8.38
673.276	7.38
674.033	4.38
674.79	6.38
675.547	5.38
676.304	6.38
677.06	6.38
677.817	7.38
678.574	6.38
679.33	8.38
680.086	6.38
680.843	6.38
681.599	5.38
682.355	4.38
683.111	4.38
683.867	5.38
684.623	5.38
685.379	6.38
686.135	3.38
686.89	3.38
687.646	4.38
688.402	5.38
689.157	7.38
689.912	5.38
690.668	6.38
691.423	9.38
692.178	4.38
692.933	4.38
693.688	6.38
694.443	5.38
695.198	6.38
695.953	5.38
696.708	6.38
697.462	3.38
698.217	4.38
698.972	4.38
699.726	3.38
700.48	4.38
701.235	4.38
701.989	3.38
702.743	3.38
703.497	6.38
704.251	5.38
705.005	4.38
705.759	3.38
706.513	4.38
707.266	6.38
708.02	5.38
708.774	5.38
709.527	5.38
710.28	4.38
711.034	6.38
711.787	4.38
712.54	5.38
713.293	5.38
714.046	4.38
714.799	4.38
715.552	4.38
716.305	4.38
717.058	5.38
717.81	4.38
718.563	5.38
719.315	4.38
720.068	6.38
720.82	5.38
721.573	3.38
722.325	7.38
723.077	5.38
723.829	5.38
724.581	4.38
725.333	5.38
726.085	5.38
726.836	5.38
727.588	3.38
728.34	4.38
729.091	7.38
729.843	3.38
730.594	4.38
731.346	6.38
732.097	6.38
732.848	4.38
733.599	5.38
734.35	5.38
735.101	7.38
735.852	6.38
736.603	6.38
737.354	4.38
738.104	6.38
738.855	7.38
739.605	6.38
740.356	5.38
741.106	5.38
741.856	5.38
742.607	4.38
743.357	6.38
744.107	6.38
744.857	7.38
745.607	8.38
746.357	6.38
747.106	8.38
747.856	7.38
748.606	7.38
749.355	7.38
750.105	7.38
750.854	6.38
751.603	7.38
752.353	6.38
753.102	8.38
753.851	6.38
754.6	7.38
755.349	7.38
756.098	7.38
756.847	7.38
757.595	8.38
758.344	5.38
759.093	8.38
759.841	8.38
760.589	8.38
761.338	9.38
762.086	9.38
762.834	9.38
763.582	9.38
764.331	8.38
765.079	10.38
765.826	12.38
766.574	6.38
767.322	10.38
768.07	10.38
768.817	8.38
769.565	8.38
770.312	9.38
771.06	10.38
771.807	12.38
772.554	11.38
773.302	10.38
774.049	10.38
774.796	12.38
775.543	12.38
776.29	10.38
777.036	8.38
777.783	9.38
778.53	11.38
779.276	11.38
780.023	12.38
780.769	11.38
781.516	11.38
782.262	13.38
783.008	12.38
783.754	10.38
784.5	12.38
785.246	13.38
785.992	11.38
786.738	11.38
787.484	11.38
788.23	10.38
788.975	11.38
789.721	12.38
790.466	13.38
791.212	8.38
791.957	9.38
792.702	12.38
793.447	12.38
794.193	9.38
794.938	10.38
795.683	9.38
796.427	7.38
797.172	11.38
797.917	10.38
798.662	10.38
799.406	10.38
800.151	9.38
800.895	10.38
801.64	8.38
802.384	9.38
803.128	8.38
803.872	7.38
804.616	7.38
805.36	8.38
806.104	8.38
806.848	9.38
807.592	11.38
808.336	6.38
809.079	8.38
809.823	7.38
810.566	8.38
811.31	6.38
812.053	6.38
812.796	10.38
813.539	8.38
814.283	7.38
815.026	7.38
815.769	7.38
816.511	7.38
817.254	8.38
817.997	6.38
818.74	5.38
819.482	5.38
820.225	6.38
820.967	6.38
821.71	5.38
822.452	6.38
823.194	7.38
823.936	6.38
824.678	4.38
825.42	7.38
826.162	4.38
826.904	6.38
827.646	5.38
828.388	4.38
829.129	6.38
829.871	4.38
830.612	6.38
831.354	4.38
832.095	4.38
832.836	6.38
833.577	4.38
834.319	3.38
835.06	4.38
835.801	1.38
836.542	5.38
837.282	2.38
838.023	4.38
838.764	4.38
839.504	2.38
840.245	3.38
840.985	1.38
841.726	5.38
842.466	4.38
843.206	2.38
843.946	4.38
844.687	4.38
845.427	5.38
846.166	2.38
846.906	5.38
847.646	4.38
848.386	2.38
849.125	5.38
849.865	3.38
850.605	3.38
851.344	1.38
852.083	4.38
852.823	5.38
853.562	4.38
854.301	2.38
855.04	2.38
855.779	2.38
856.518	4.38
857.257	3.38
857.995	4.38
858.734	2.38
859.473	3.38
860.211	-0.62
860.95	2.38
861.688	3.38
862.426	4.38
863.165	2.38
863.903	2.38
864.641	3.38
865.379	0.38
866.117	3.38
866.855	1.38
867.593	2.38
868.33	2.38
869.068	0.38
869.806	1.38
870.543	2.38
871.28	2.38
872.018	2.38
872.755	2.38
873.492	3.38
874.229	2.38
874.967	2.38
875.703	2.38
876.44	2.38
877.177	1.38
877.914	0.38
878.651	2.38
879.387	1.38
880.124	2.38
880.86	1.38
881.597	-0.62
882.333	2.38
883.069	0.38
883.806	1.38
884.542	0.38
885.278	2.38
886.014	0.38
886.749	2.38
887.485	2.38
888.221	-0.62
888.957	3.38
889.692	2.38
890.428	1.38
891.163	1.38
891.899	0.38
892.634	3.38
893.369	1.38
894.104	-0.62
894.839	1.38
895.574	0.38
896.309	0.38
897.044	1.38
897.779	0.38
898.514	2.38
899.248	1.38
899.983	1.38
900.717	2.38
901.452	2.38
902.186	0.38
902.92	1.38
903.654	-0.62
904.389	-0.62
905.123	3.38
905.857	-0.62
906.59	2.38
907.324	1.38
908.058	1.38
908.792	0.38
909.525	4.38
910.259	2.38
910.992	0.38
911.726	1.38
912.459	1.38
913.192	1.38
913.925	1.38
914.658	1.38
915.391	1.38
916.124	0.38
916.857	-2.62
917.59	0.38
918.323	1.38
919.055	1.38
919.788	0.38
920.521	-0.62
921.253	0.38
921.985	0.38
922.718	2.38
923.45	0.38
924.182	-0.62
924.914	0.38
925.646	0.38
926.378	0.38
927.11	-0.62
927.841	3.38
928.573	-0.62
929.305	1.38
930.036	-0.62
930.768	1.38
931.499	0.38
932.23	0.38
932.962	-0.62
933.693	0.38
934.424	-1.62
935.155	2.38
935.886	1.38
936.617	-0.62
937.348	1.38
938.078	0.38
938.809	-0.62
939.54	0.38
940.27	-2.62
941.001	0.38
941.731	0.38
942.461	0.38
943.191	0.38
943.922	-2.62
944.652	0.38
945.382	0.38
946.112	-0.62
946.841	-1.62
947.571	-0.62
948.301	0.38
949.031	2.38
949.76	1.38
950.49	2.38
951.219	0.38
951.948	-0.62
952.678	2.38
953.407	-0.62
954.136	0.38
954.865	2.38
955.594	-0.62
956.323	2.38
957.052	-1.62
957.78	1.38
958.509	0.38
959.238	1.38
959.966	1.38
960.695	0.38
961.423	-0.62
962.151	0.38
962.88	0.38
963.608	1.38
964.336	0.38
965.064	2.38
965.792	1.38
966.52	0.38
967.247	0.38
967.975	1.38
968.703	2.38
969.43	-0.62
970.158	1.38
970.885	1.38
971.613	2.38
972.34	3.38
973.067	0.38
973.794	0.38
974.521	0.38
975.248	-0.62
975.975	1.38
976.702	3.38
977.429	0.38
978.156	-0.62
978.882	-0.62
979.609	0.38
980.335	0.38
981.062	0.38
981.788	2.38
982.514	2.38
983.24	2.38
983.967	0.38
984.693	1.38
985.419	1.38
986.144	1.38
986.87	-0.62
987.596	2.38
988.322	0.38
989.047	1.38
989.773	0.38
990.498	-0.62
991.224	0.38
991.949	0.38
992.674	-0.62
993.399	-0.62
994.124	0.38
994.849	-0.62
995.574	1.38
996.299	-0.62
997.024	0.38
997.749	0.38
998.473	-1.62
999.198	2.38
999.922	2.38
1000.647	1.38
1001.371	3.38
1002.095	-1.62
1002.82	0.38
1003.544	1.38
1004.268	1.38
1004.992	2.38
1005.716	0.38
1006.439	2.38
1007.163	1.38
1007.887	3.38
1008.611	1.38
1009.334	0.38
1010.058	-0.62
1010.781	-0.62
1011.504	-1.62
1012.228	2.38
1012.951	0.38
1013.674	-1.62
1014.397	-2.62
1015.12	0.38
