节点500_425_QEPB04081__189__15-51-27-118.txt的数据

Date: Wed Nov 12 15:51:27 CST 2025
User: PC
Spectrometer: QEPB0408
触发模式: 0
积分时间 (秒): 1.000000E-2
Scans to average: 1
启用暗噪声校正: true
启用非线性校正: false
滑动平均宽度: 0
X轴模式: Wavelengths
Number of Pixels in Spectrum: 1044
>>>>>Begin Spectral Data<<<<<
220.843	3.75
221.644	0.75
222.444	2.75
223.244	3.75
224.045	4.75
224.845	1.75
225.645	2.75
226.445	3.75
227.245	1.75
228.045	2.75
228.845	3.75
229.645	5.75
230.444	3.75
231.244	5.75
232.043	6.75
232.843	4.75
233.642	5.75
234.442	5.75
235.241	4.75
236.04	6.75
236.839	3.75
237.638	7.75
238.437	6.75
239.236	6.75
240.035	6.75
240.833	6.75
241.632	5.75
242.43	8.75
243.229	7.75
244.027	5.75
244.826	9.75
245.624	7.75
246.422	4.75
247.22	11.75
248.018	8.75
248.816	7.75
249.614	10.75
250.412	9.75
251.21	9.75
252.007	11.75
252.805	8.75
253.602	9.75
254.4	9.75
255.197	12.75
255.994	10.75
256.791	13.75
257.589	12.75
258.386	14.75
259.183	13.75
259.979	13.75
260.776	14.75
261.573	16.75
262.37	17.75
263.166	17.75
263.963	16.75
264.759	18.75
265.556	15.75
266.352	19.75
267.148	16.75
267.944	19.75
268.74	19.75
269.536	18.75
270.332	20.75
271.128	20.75
271.924	23.75
272.719	23.75
273.515	23.75
274.311	22.75
275.106	20.75
275.901	24.75
276.697	24.75
277.492	23.75
278.287	22.75
279.082	22.75
279.877	21.75
280.672	25.75
281.467	28.75
282.262	23.75
283.056	25.75
283.851	21.75
284.646	24.75
285.44	24.75
286.234	24.75
287.029	25.75
287.823	25.75
288.617	26.75
289.411	21.75
290.205	22.75
290.999	25.75
291.793	21.75
292.587	24.75
293.381	20.75
294.174	23.75
294.968	21.75
295.761	20.75
296.555	19.75
297.348	16.75
298.141	18.75
298.935	21.75
299.728	16.75
300.521	18.75
301.314	16.75
302.107	16.75
302.899	15.75
303.692	16.75
304.485	17.75
305.277	15.75
306.07	15.75
306.862	16.75
307.655	17.75
308.447	17.75
309.239	16.75
310.031	12.75
310.823	15.75
311.615	11.75
312.407	13.75
313.199	10.75
313.991	11.75
314.783	11.75
315.574	11.75
316.366	13.75
317.157	9.75
317.949	12.75
318.74	11.75
319.531	10.75
320.322	9.75
321.113	10.75
321.904	9.75
322.695	8.75
323.486	9.75
324.277	8.75
325.068	11.75
325.858	9.75
326.649	5.75
327.439	6.75
328.23	7.75
329.02	6.75
329.81	7.75
330.6	9.75
331.391	10.75
332.181	7.75
332.971	8.75
333.76	8.75
334.55	8.75
335.34	9.75
336.13	6.75
336.919	9.75
337.709	9.75
338.498	9.75
339.287	8.75
340.077	7.75
340.866	7.75
341.655	7.75
342.444	10.75
343.233	5.75
344.022	9.75
344.811	6.75
345.6	6.75
346.388	8.75
347.177	7.75
347.965	7.75
348.754	7.75
349.542	8.75
350.33	6.75
351.119	8.75
351.907	7.75
352.695	5.75
353.483	6.75
354.271	8.75
355.059	7.75
355.846	8.75
356.634	6.75
357.422	7.75
358.209	6.75
358.997	7.75
359.784	5.75
360.571	6.75
361.359	5.75
362.146	4.75
362.933	6.75
363.72	7.75
364.507	3.75
365.294	8.75
366.081	5.75
366.867	7.75
367.654	7.75
368.44	6.75
369.227	7.75
370.013	4.75
370.8	5.75
371.586	5.75
372.372	5.75
373.158	5.75
373.944	5.75
374.73	6.75
375.516	4.75
376.302	6.75
377.088	5.75
377.873	6.75
378.659	7.75
379.445	4.75
380.23	6.75
381.015	8.75
381.801	6.75
382.586	6.75
383.371	6.75
384.156	9.75
384.941	5.75
385.726	7.75
386.511	7.75
387.296	8.75
388.08	7.75
388.865	5.75
389.649	7.75
390.434	5.75
391.218	6.75
392.003	6.75
392.787	7.75
393.571	5.75
394.355	7.75
395.139	8.75
395.923	7.75
396.707	8.75
397.491	9.75
398.274	5.75
399.058	9.75
399.842	8.75
400.625	10.75
401.408	9.75
402.192	8.75
402.975	10.75
403.758	7.75
404.541	6.75
405.324	9.75
406.107	9.75
406.89	8.75
407.673	7.75
408.456	10.75
409.238	12.75
410.021	8.75
410.803	9.75
411.586	9.75
412.368	9.75
413.151	10.75
413.933	15.75
414.715	15.75
415.497	12.75
416.279	9.75
417.061	11.75
417.843	10.75
418.624	12.75
419.406	17.75
420.188	13.75
420.969	12.75
421.751	14.75
422.532	15.75
423.313	13.75
424.095	12.75
424.876	17.75
425.657	15.75
426.438	14.75
427.219	18.75
428	17.75
428.78	19.75
429.561	17.75
430.342	18.75
431.122	18.75
431.903	21.75
432.683	22.75
433.464	21.75
434.244	25.75
435.024	24.75
435.804	23.75
436.584	27.75
437.364	25.75
438.144	28.75
438.924	32.75
439.704	33.75
440.483	31.75
441.263	33.75
442.042	35.75
442.822	41.75
443.601	41.75
444.38	42.75
445.16	42.75
445.939	53.75
446.718	59.75
447.497	59.75
448.276	61.75
449.054	67.75
449.833	76.75
450.612	82.75
451.391	92.75
452.169	98.75
452.948	108.75
453.726	122.75
454.504	132.75
455.282	145.75
456.061	166.75
456.839	178.75
457.617	200.75
458.395	229.75
459.172	249.75
459.95	277.75
460.728	315.75
461.506	344.75
462.283	377.75
463.061	434.75
463.838	489.75
464.615	537.75
465.393	604.75
466.17	659.75
466.947	756.75
467.724	824.75
468.501	934.75
469.278	1043.75
470.055	1153.75
470.831	1283.75
471.608	1424.75
472.385	1569.75
473.161	1748.75
473.938	1954.75
474.714	2157.75
475.49	2380.75
476.266	2626.75
477.043	2901.75
477.819	3205.75
478.595	3539.75
479.371	3870.75
480.146	4267.75
480.922	4711.75
481.698	5172.75
482.473	5678.75
483.249	6178.75
484.024	6877.75
484.8	7534.75
485.575	8196.75
486.35	8989.75
487.126	9789.75
487.901	10736.75
488.676	11687.75
489.451	12724.75
490.225	13797.75
491	15057.75
491.775	16272.75
492.55	17591.75
493.324	19027.75
494.099	20334.75
494.873	21730.75
495.647	23249.75
496.422	24721.75
497.196	26242.75
497.97	27782.75
498.744	29222.75
499.518	30634.75
500.292	31751.75
501.066	32856.75
501.839	34021.75
502.613	34904.75
503.387	35562.75
504.16	35943.75
504.934	36221.75
505.707	36191.75
506.48	36084.75
507.253	35746.75
508.027	35274.75
508.8	34495.75
509.573	33775.75
510.346	32806.75
511.118	31768.75
511.891	30767.75
512.664	29570.75
513.437	28303.75
514.209	27144.75
514.982	26134.75
515.754	25078.75
516.526	23929.75
517.298	22936.75
518.071	21930.75
518.843	21087.75
519.615	20215.75
520.387	19362.75
521.159	18596.75
521.93	17911.75
522.702	17230.75
523.474	16509.75
524.245	15869.75
525.017	15081.75
525.788	14352.75
526.56	13766.75
527.331	13118.75
528.102	12485.75
528.873	11891.75
529.644	11310.75
530.415	10763.75
531.186	10256.75
531.957	9705.75
532.728	9188.75
533.498	8687.75
534.269	8170.75
535.039	7772.75
535.81	7313.75
536.58	6934.75
537.351	6490.75
538.121	6157.75
538.891	5833.75
539.661	5542.75
540.431	5234.75
541.201	4959.75
541.971	4667.75
542.741	4480.75
543.51	4242.75
544.28	4019.75
545.05	3840.75
545.819	3659.75
546.588	3475.75
547.358	3288.75
548.127	3120.75
548.896	2947.75
549.665	2811.75
550.434	2649.75
551.203	2533.75
551.972	2387.75
552.741	2265.75
553.51	2131.75
554.278	2001.75
555.047	1880.75
555.815	1788.75
556.584	1703.75
557.352	1580.75
558.121	1489.75
558.889	1416.75
559.657	1336.75
560.425	1263.75
561.193	1202.75
561.961	1130.75
562.729	1068.75
563.496	1011.75
564.264	957.75
565.032	892.75
565.799	853.75
566.567	805.75
567.334	756.75
568.101	714.75
568.869	691.75
569.636	645.75
570.403	602.75
571.17	561.75
571.937	534.75
572.704	509.75
573.471	481.75
574.237	448.75
575.004	426.75
575.771	404.75
576.537	378.75
577.303	350.75
578.07	336.75
578.836	308.75
579.602	295.75
580.368	276.75
581.134	269.75
581.9	253.75
582.666	240.75
583.432	233.75
584.198	217.75
584.964	205.75
585.729	193.75
586.495	189.75
587.26	173.75
588.025	165.75
588.791	156.75
589.556	149.75
590.321	141.75
591.086	137.75
591.851	131.75
592.616	118.75
593.381	117.75
594.146	114.75
594.911	109.75
595.675	98.75
596.44	95.75
597.204	88.75
597.969	88.75
598.733	80.75
599.497	77.75
600.261	74.75
601.025	74.75
601.79	68.75
602.553	67.75
603.317	64.75
604.081	61.75
604.845	61.75
605.609	56.75
606.372	51.75
607.136	53.75
607.899	52.75
608.662	45.75
609.426	47.75
610.189	40.75
610.952	42.75
611.715	42.75
612.478	41.75
613.241	39.75
614.004	35.75
614.767	37.75
615.529	35.75
616.292	33.75
617.055	29.75
617.817	29.75
618.579	27.75
619.342	28.75
620.104	28.75
620.866	29.75
621.628	26.75
622.39	23.75
623.152	22.75
623.914	23.75
624.676	22.75
625.438	21.75
626.199	20.75
626.961	19.75
627.722	21.75
628.484	17.75
629.245	21.75
630.006	17.75
630.768	18.75
631.529	17.75
632.29	16.75
633.051	16.75
633.812	17.75
634.573	16.75
635.333	14.75
636.094	13.75
636.855	15.75
637.615	13.75
638.376	14.75
639.136	12.75
639.896	10.75
640.657	12.75
641.417	13.75
642.177	11.75
642.937	11.75
643.697	12.75
644.457	9.75
645.216	9.75
645.976	10.75
646.736	11.75
647.495	11.75
648.255	8.75
649.014	10.75
649.774	8.75
650.533	5.75
651.292	8.75
652.051	9.75
652.81	9.75
653.569	7.75
654.328	8.75
655.087	9.75
655.846	6.75
656.604	6.75
657.363	7.75
658.121	8.75
658.88	6.75
659.638	8.75
660.397	7.75
661.155	6.75
661.913	6.75
662.671	7.75
663.429	3.75
664.187	7.75
664.945	4.75
665.703	7.75
666.46	4.75
667.218	7.75
667.976	4.75
668.733	5.75
669.49	7.75
670.248	6.75
671.005	7.75
671.762	5.75
672.519	6.75
673.276	4.75
674.033	3.75
674.79	6.75
675.547	6.75
676.304	5.75
677.06	4.75
677.817	3.75
678.574	4.75
679.33	5.75
680.086	4.75
680.843	2.75
681.599	4.75
682.355	5.75
683.111	4.75
683.867	4.75
684.623	3.75
685.379	4.75
686.135	4.75
686.89	4.75
687.646	6.75
688.402	4.75
689.157	5.75
689.912	2.75
690.668	3.75
691.423	3.75
692.178	3.75
692.933	6.75
693.688	6.75
694.443	4.75
695.198	2.75
695.953	4.75
696.708	5.75
697.462	2.75
698.217	5.75
698.972	2.75
699.726	4.75
700.48	3.75
701.235	2.75
701.989	5.75
702.743	3.75
703.497	6.75
704.251	3.75
705.005	3.75
705.759	4.75
706.513	3.75
707.266	3.75
708.02	4.75
708.774	5.75
709.527	3.75
710.28	2.75
711.034	7.75
711.787	3.75
712.54	5.75
713.293	3.75
714.046	4.75
714.799	4.75
715.552	4.75
716.305	3.75
717.058	5.75
717.81	5.75
718.563	3.75
719.315	4.75
720.068	3.75
720.82	4.75
721.573	4.75
722.325	3.75
723.077	4.75
723.829	5.75
724.581	1.75
725.333	3.75
726.085	3.75
726.836	4.75
727.588	6.75
728.34	6.75
729.091	5.75
729.843	4.75
730.594	6.75
731.346	5.75
732.097	5.75
732.848	3.75
733.599	6.75
734.35	4.75
735.101	2.75
735.852	4.75
736.603	3.75
737.354	5.75
738.104	6.75
738.855	3.75
739.605	5.75
740.356	5.75
741.106	6.75
741.856	8.75
742.607	5.75
743.357	7.75
744.107	4.75
744.857	6.75
745.607	6.75
746.357	4.75
747.106	6.75
747.856	6.75
748.606	8.75
749.355	5.75
750.105	6.75
750.854	6.75
751.603	6.75
752.353	7.75
753.102	5.75
753.851	7.75
754.6	8.75
755.349	6.75
756.098	10.75
756.847	6.75
757.595	6.75
758.344	8.75
759.093	7.75
759.841	7.75
760.589	8.75
761.338	7.75
762.086	6.75
762.834	7.75
763.582	11.75
764.331	9.75
765.079	11.75
765.826	10.75
766.574	11.75
767.322	9.75
768.07	9.75
768.817	9.75
769.565	12.75
770.312	9.75
771.06	10.75
771.807	7.75
772.554	9.75
773.302	10.75
774.049	12.75
774.796	9.75
775.543	10.75
776.29	11.75
777.036	9.75
777.783	10.75
778.53	12.75
779.276	10.75
780.023	9.75
780.769	10.75
781.516	11.75
782.262	9.75
783.008	9.75
783.754	11.75
784.5	12.75
785.246	10.75
785.992	9.75
786.738	7.75
787.484	10.75
788.23	10.75
788.975	11.75
789.721	11.75
790.466	10.75
791.212	9.75
791.957	11.75
792.702	11.75
793.447	12.75
794.193	7.75
794.938	9.75
795.683	9.75
796.427	11.75
797.172	9.75
797.917	11.75
798.662	10.75
799.406	8.75
800.151	10.75
800.895	9.75
801.64	7.75
802.384	9.75
803.128	5.75
803.872	7.75
804.616	9.75
805.36	8.75
806.104	7.75
806.848	8.75
807.592	4.75
808.336	7.75
809.079	6.75
809.823	6.75
810.566	6.75
811.31	7.75
812.053	5.75
812.796	7.75
813.539	5.75
814.283	7.75
815.026	6.75
815.769	6.75
816.511	4.75
817.254	3.75
817.997	6.75
818.74	5.75
819.482	4.75
820.225	4.75
820.967	4.75
821.71	4.75
822.452	4.75
823.194	6.75
823.936	5.75
824.678	5.75
825.42	2.75
826.162	5.75
826.904	3.75
827.646	4.75
828.388	5.75
829.129	5.75
829.871	3.75
830.612	4.75
831.354	6.75
832.095	3.75
832.836	3.75
833.577	3.75
834.319	1.75
835.06	1.75
835.801	2.75
836.542	3.75
837.282	6.75
838.023	5.75
838.764	4.75
839.504	1.75
840.245	3.75
840.985	3.75
841.726	5.75
842.466	3.75
843.206	3.75
843.946	1.75
844.687	4.75
845.427	4.75
846.166	2.75
846.906	6.75
847.646	3.75
848.386	1.75
849.125	3.75
849.865	1.75
850.605	2.75
851.344	3.75
852.083	3.75
852.823	2.75
853.562	5.75
854.301	1.75
855.04	5.75
855.779	5.75
856.518	2.75
857.257	2.75
857.995	0.75
858.734	3.75
859.473	3.75
860.211	3.75
860.95	2.75
861.688	0.75
862.426	1.75
863.165	2.75
863.903	4.75
864.641	3.75
865.379	2.75
866.117	2.75
866.855	-0.25
867.593	2.75
868.33	0.75
869.068	0.75
869.806	-0.25
870.543	0.75
871.28	3.75
872.018	-0.25
872.755	2.75
873.492	3.75
874.229	2.75
874.967	1.75
875.703	-1.25
876.44	2.75
877.177	0.75
877.914	1.75
878.651	0.75
879.387	1.75
880.124	1.75
880.86	-0.25
881.597	1.75
882.333	2.75
883.069	-2.25
883.806	2.75
884.542	-1.25
885.278	2.75
886.014	-0.25
886.749	0.75
887.485	-2.25
888.221	1.75
888.957	-1.25
889.692	1.75
890.428	1.75
891.163	2.75
891.899	0.75
892.634	0.75
893.369	0.75
894.104	1.75
894.839	1.75
895.574	1.75
896.309	0.75
897.044	-0.25
897.779	0.75
898.514	-1.25
899.248	-0.25
899.983	1.75
900.717	0.75
901.452	0.75
902.186	0.75
902.92	0.75
903.654	-1.25
904.389	-1.25
905.123	1.75
905.857	-0.25
906.59	-2.25
907.324	2.75
908.058	-2.25
908.792	2.75
909.525	-1.25
910.259	0.75
910.992	0.75
911.726	2.75
912.459	-1.25
913.192	-0.25
913.925	-1.25
914.658	1.75
915.391	-0.25
916.124	-2.25
916.857	-1.25
917.59	0.75
918.323	-1.25
919.055	-0.25
919.788	1.75
920.521	-1.25
921.253	-1.25
921.985	0.75
922.718	-0.25
923.45	1.75
924.182	0.75
924.914	-0.25
925.646	0.75
926.378	-0.25
927.11	0.75
927.841	1.75
928.573	-2.25
929.305	1.75
930.036	0.75
930.768	-0.25
931.499	-1.25
932.23	-0.25
932.962	0.75
933.693	0.75
934.424	-1.25
935.155	0.75
935.886	-2.25
936.617	-2.25
937.348	-0.25
938.078	2.75
938.809	-1.25
939.54	-0.25
940.27	-1.25
941.001	-1.25
941.731	0.75
942.461	-0.25
943.191	0.75
943.922	0.75
944.652	-2.25
945.382	-2.25
946.112	-2.25
946.841	0.75
947.571	-0.25
948.301	-0.25
949.031	1.75
949.76	-0.25
950.49	-1.25
951.219	-2.25
951.948	-0.25
952.678	-1.25
953.407	-0.25
954.136	1.75
954.865	-0.25
955.594	2.75
956.323	-1.25
957.052	-0.25
957.78	0.75
958.509	-0.25
959.238	-1.25
959.966	-1.25
960.695	-2.25
961.423	-0.25
962.151	-0.25
962.88	-1.25
963.608	-2.25
964.336	1.75
965.064	-0.25
965.792	-0.25
966.52	-1.25
967.247	-0.25
967.975	-0.25
968.703	-0.25
969.43	0.75
970.158	-0.25
970.885	-0.25
971.613	-0.25
972.34	-2.25
973.067	-1.25
973.794	0.75
974.521	0.75
975.248	-2.25
975.975	-0.25
976.702	-1.25
977.429	0.75
978.156	-1.25
978.882	-0.25
979.609	-0.25
980.335	-2.25
981.062	-0.25
981.788	2.75
982.514	-0.25
983.24	0.75
983.967	-0.25
984.693	-1.25
985.419	-0.25
986.144	-0.25
986.87	-0.25
987.596	-0.25
988.322	0.75
989.047	-0.25
989.773	-1.25
990.498	0.75
991.224	-2.25
991.949	-1.25
992.674	-0.25
993.399	-1.25
994.124	0.75
994.849	-0.25
995.574	0.75
996.299	-0.25
997.024	-1.25
997.749	-0.25
998.473	-2.25
999.198	-1.25
999.922	-0.25
1000.647	1.75
1001.371	0.75
1002.095	-0.25
1002.82	-0.25
1003.544	-0.25
1004.268	1.75
1004.992	2.75
1005.716	-0.25
1006.439	3.75
1007.163	1.75
1007.887	-0.25
1008.611	0.75
1009.334	0.75
1010.058	-2.25
1010.781	-2.25
1011.504	1.75
1012.228	0.75
1012.951	1.75
1013.674	-0.25
1014.397	-0.25
1015.12	-1.25
