节点500_425_QEPB04081__467__15-56-04-572.txt的数据

Date: Wed Nov 12 15:56:04 CST 2025
User: PC
Spectrometer: QEPB0408
触发模式: 0
积分时间 (秒): 1.000000E-2
Scans to average: 1
启用暗噪声校正: true
启用非线性校正: false
滑动平均宽度: 0
X轴模式: Wavelengths
Number of Pixels in Spectrum: 1044
>>>>>Begin Spectral Data<<<<<
220.843	4
221.644	4
222.444	2
223.244	5
224.045	4
224.845	4
225.645	6
226.445	4
227.245	5
228.045	3
228.845	3
229.645	5
230.444	4
231.244	3
232.043	6
232.843	3
233.642	6
234.442	5
235.241	8
236.04	6
236.839	7
237.638	7
238.437	9
239.236	7
240.035	6
240.833	6
241.632	8
242.43	9
243.229	10
244.027	6
244.826	10
245.624	9
246.422	10
247.22	10
248.018	8
248.816	11
249.614	9
250.412	10
251.21	6
252.007	10
252.805	11
253.602	8
254.4	9
255.197	12
255.994	11
256.791	11
257.589	15
258.386	13
259.183	11
259.979	13
260.776	10
261.573	17
262.37	13
263.166	14
263.963	15
264.759	16
265.556	15
266.352	15
267.148	19
267.944	17
268.74	17
269.536	17
270.332	19
271.128	19
271.924	17
272.719	20
273.515	18
274.311	20
275.106	23
275.901	22
276.697	23
277.492	22
278.287	20
279.082	24
279.877	21
280.672	22
281.467	24
282.262	22
283.056	24
283.851	22
284.646	23
285.44	25
286.234	24
287.029	24
287.823	22
288.617	23
289.411	22
290.205	25
290.999	24
291.793	21
292.587	23
293.381	21
294.174	20
294.968	19
295.761	18
296.555	22
297.348	21
298.141	18
298.935	21
299.728	20
300.521	17
301.314	18
302.107	16
302.899	17
303.692	17
304.485	17
305.277	18
306.07	18
306.862	17
307.655	17
308.447	15
309.239	16
310.031	15
310.823	16
311.615	13
312.407	13
313.199	13
313.991	12
314.783	15
315.574	14
316.366	14
317.157	13
317.949	14
318.74	13
319.531	11
320.322	10
321.113	9
321.904	13
322.695	10
323.486	9
324.277	11
325.068	8
325.858	9
326.649	9
327.439	9
328.23	10
329.02	10
329.81	9
330.6	10
331.391	7
332.181	7
332.971	8
333.76	11
334.55	13
335.34	9
336.13	11
336.919	10
337.709	10
338.498	9
339.287	10
340.077	7
340.866	12
341.655	9
342.444	7
343.233	10
344.022	9
344.811	8
345.6	9
346.388	7
347.177	10
347.965	9
348.754	9
349.542	7
350.33	10
351.119	10
351.907	6
352.695	10
353.483	9
354.271	8
355.059	10
355.846	9
356.634	9
357.422	8
358.209	9
358.997	8
359.784	7
360.571	8
361.359	7
362.146	8
362.933	7
363.72	8
364.507	9
365.294	7
366.081	8
366.867	9
367.654	5
368.44	7
369.227	7
370.013	8
370.8	8
371.586	8
372.372	8
373.158	8
373.944	8
374.73	7
375.516	8
376.302	6
377.088	6
377.873	7
378.659	8
379.445	6
380.23	5
381.015	11
381.801	9
382.586	9
383.371	6
384.156	9
384.941	8
385.726	6
386.511	9
387.296	8
388.08	9
388.865	8
389.649	8
390.434	8
391.218	8
392.003	9
392.787	9
393.571	8
394.355	8
395.139	10
395.923	6
396.707	9
397.491	8
398.274	11
399.058	8
399.842	10
400.625	10
401.408	12
402.192	11
402.975	9
403.758	9
404.541	6
405.324	9
406.107	10
406.89	8
407.673	11
408.456	12
409.238	12
410.021	11
410.803	11
411.586	11
412.368	10
413.151	13
413.933	12
414.715	11
415.497	11
416.279	12
417.061	14
417.843	10
418.624	11
419.406	16
420.188	16
420.969	14
421.751	13
422.532	15
423.313	13
424.095	16
424.876	15
425.657	15
426.438	17
427.219	17
428	17
428.78	21
429.561	22
430.342	19
431.122	18
431.903	20
432.683	22
433.464	22
434.244	23
435.024	26
435.804	24
436.584	24
437.364	28
438.144	29
438.924	30
439.704	32
440.483	30
441.263	34
442.042	37
442.822	38
443.601	42
444.38	47
445.16	47
445.939	52
446.718	55
447.497	62
448.276	66
449.054	74
449.833	78
450.612	86
451.391	99
452.169	105
452.948	116
453.726	130
454.504	143
455.282	164
456.061	171
456.839	194
457.617	215
458.395	243
459.172	267
459.95	296
460.728	330
461.506	366
462.283	411
463.061	457
463.838	519
464.615	564
465.393	638
466.17	697
466.947	777
467.724	877
468.501	943
469.278	1051
470.055	1164
470.831	1289
471.608	1430
472.385	1574
473.161	1724
473.938	1905
474.714	2103
475.49	2309
476.266	2529
477.043	2790
477.819	3030
478.595	3350
479.371	3657
480.146	3985
480.922	4363
481.698	4790
482.473	5200
483.249	5704
484.024	6223
484.8	6790
485.575	7376
486.35	8010
487.126	8690
487.901	9458
488.676	10225
489.451	11095
490.225	11979
491	13023
491.775	14056
492.55	15104
493.324	16310
494.099	17408
494.873	18571
495.647	19854
496.422	21156
497.196	22381
497.97	23777
498.744	25061
499.518	26272
500.292	27397
501.066	28474
501.839	29662
502.613	30545
503.387	31279
504.16	31891
504.934	32411
505.707	32521
506.48	32658
507.253	32484
508.027	32392
508.8	32000
509.573	31559
510.346	30872
511.118	30112
511.891	29310
512.664	28327
513.437	27317
514.209	26347
514.982	25513
515.754	24527
516.526	23529
517.298	22504
518.071	21621
518.843	20684
519.615	19903
520.387	19083
521.159	18374
521.93	17647
522.702	16996
523.474	16287
524.245	15675
525.017	14937
525.788	14308
526.56	13647
527.331	13069
528.102	12478
528.873	11861
529.644	11371
530.415	10864
531.186	10343
531.957	9813
532.728	9343
533.498	8811
534.269	8333
535.039	7938
535.81	7499
536.58	7077
537.351	6666
538.121	6296
538.891	6003
539.661	5676
540.431	5396
541.201	5082
541.971	4821
542.741	4600
543.51	4346
544.28	4124
545.05	3889
545.819	3752
546.588	3541
547.358	3352
548.127	3196
548.896	3036
549.665	2869
550.434	2763
551.203	2587
551.972	2477
552.741	2338
553.51	2211
554.278	2095
555.047	1952
555.815	1847
556.584	1771
557.352	1657
558.121	1568
558.889	1479
559.657	1400
560.425	1331
561.193	1248
561.961	1173
562.729	1136
563.496	1068
564.264	1005
565.032	946
565.799	891
566.567	844
567.334	790
568.101	758
568.869	724
569.636	676
570.403	639
571.17	588
571.937	565
572.704	542
573.471	506
574.237	478
575.004	453
575.771	422
576.537	389
577.303	379
578.07	352
578.836	340
579.602	312
580.368	294
581.134	283
581.9	269
582.666	258
583.432	243
584.198	222
584.964	210
585.729	203
586.495	194
587.26	180
588.025	175
588.791	165
589.556	158
590.321	151
591.086	147
591.851	137
592.616	129
593.381	120
594.146	115
594.911	114
595.675	107
596.44	101
597.204	96
597.969	90
598.733	84
599.497	85
600.261	83
601.025	75
601.79	75
602.553	75
603.317	68
604.081	62
604.845	64
605.609	59
606.372	59
607.136	56
607.899	50
608.662	53
609.426	50
610.189	48
610.952	47
611.715	45
612.478	40
613.241	37
614.004	39
614.767	38
615.529	35
616.292	36
617.055	33
617.817	33
618.579	29
619.342	32
620.104	29
620.866	30
621.628	28
622.39	28
623.152	24
623.914	24
624.676	27
625.438	22
626.199	23
626.961	24
627.722	19
628.484	23
629.245	19
630.006	21
630.768	19
631.529	21
632.29	15
633.051	19
633.812	17
634.573	17
635.333	17
636.094	16
636.855	14
637.615	15
638.376	14
639.136	14
639.896	13
640.657	13
641.417	13
642.177	14
642.937	13
643.697	13
644.457	11
645.216	11
645.976	9
646.736	11
647.495	11
648.255	11
649.014	11
649.774	9
650.533	9
651.292	8
652.051	11
652.81	9
653.569	12
654.328	10
655.087	12
655.846	9
656.604	7
657.363	8
658.121	6
658.88	10
659.638	10
660.397	6
661.155	10
661.913	10
662.671	10
663.429	9
664.187	5
664.945	7
665.703	6
666.46	7
667.218	8
667.976	9
668.733	9
669.49	6
670.248	7
671.005	7
671.762	7
672.519	6
673.276	6
674.033	7
674.79	4
675.547	4
676.304	8
677.06	5
677.817	6
678.574	5
679.33	7
680.086	5
680.843	6
681.599	6
682.355	5
683.111	7
683.867	4
684.623	6
685.379	6
686.135	6
686.89	6
687.646	7
688.402	7
689.157	5
689.912	7
690.668	6
691.423	4
692.178	5
692.933	5
693.688	6
694.443	3
695.198	7
695.953	5
696.708	7
697.462	5
698.217	4
698.972	5
699.726	5
700.48	2
701.235	6
701.989	3
702.743	6
703.497	6
704.251	6
705.005	4
705.759	7
706.513	5
707.266	6
708.02	4
708.774	4
709.527	4
710.28	5
711.034	3
711.787	5
712.54	7
713.293	5
714.046	6
714.799	5
715.552	6
716.305	4
717.058	5
717.81	6
718.563	3
719.315	8
720.068	6
720.82	5
721.573	8
722.325	6
723.077	6
723.829	7
724.581	5
725.333	6
726.085	7
726.836	6
727.588	8
728.34	8
729.091	5
729.843	7
730.594	3
731.346	8
732.097	4
732.848	7
733.599	4
734.35	5
735.101	7
735.852	4
736.603	6
737.354	7
738.104	7
738.855	7
739.605	6
740.356	9
741.106	7
741.856	6
742.607	5
743.357	6
744.107	5
744.857	7
745.607	4
746.357	6
747.106	6
747.856	8
748.606	8
749.355	7
750.105	6
750.854	6
751.603	8
752.353	10
753.102	10
753.851	7
754.6	6
755.349	8
756.098	9
756.847	7
757.595	9
758.344	9
759.093	7
759.841	8
760.589	10
761.338	7
762.086	8
762.834	8
763.582	6
764.331	10
765.079	9
765.826	9
766.574	9
767.322	9
768.07	10
768.817	8
769.565	9
770.312	10
771.06	11
771.807	11
772.554	9
773.302	15
774.049	8
774.796	9
775.543	8
776.29	10
777.036	11
777.783	12
778.53	9
779.276	9
780.023	10
780.769	11
781.516	11
782.262	10
783.008	10
783.754	13
784.5	10
785.246	8
785.992	11
786.738	11
787.484	12
788.23	9
788.975	12
789.721	13
790.466	13
791.212	11
791.957	8
792.702	9
793.447	10
794.193	10
794.938	10
795.683	9
796.427	10
797.172	11
797.917	9
798.662	9
799.406	10
800.151	9
800.895	9
801.64	12
802.384	9
803.128	9
803.872	9
804.616	8
805.36	9
806.104	8
806.848	6
807.592	7
808.336	9
809.079	7
809.823	6
810.566	10
811.31	8
812.053	5
812.796	7
813.539	9
814.283	8
815.026	5
815.769	6
816.511	6
817.254	7
817.997	8
818.74	5
819.482	4
820.225	6
820.967	9
821.71	7
822.452	7
823.194	7
823.936	5
824.678	6
825.42	5
826.162	6
826.904	6
827.646	6
828.388	6
829.129	3
829.871	8
830.612	6
831.354	8
832.095	4
832.836	7
833.577	3
834.319	5
835.06	4
835.801	7
836.542	6
837.282	7
838.023	4
838.764	7
839.504	6
840.245	5
840.985	5
841.726	2
842.466	4
843.206	3
843.946	3
844.687	5
845.427	3
846.166	6
846.906	3
847.646	6
848.386	6
849.125	5
849.865	4
850.605	3
851.344	4
852.083	5
852.823	3
853.562	2
854.301	4
855.04	4
855.779	2
856.518	2
857.257	4
857.995	1
858.734	3
859.473	2
860.211	3
860.95	4
861.688	3
862.426	5
863.165	5
863.903	3
864.641	0
865.379	1
866.117	3
866.855	2
867.593	7
868.33	2
869.068	3
869.806	2
870.543	2
871.28	3
872.018	3
872.755	2
873.492	1
874.229	4
874.967	4
875.703	2
876.44	1
877.177	1
877.914	2
878.651	3
879.387	4
880.124	1
880.86	2
881.597	3
882.333	1
883.069	2
883.806	3
884.542	3
885.278	3
886.014	1
886.749	2
887.485	0
888.221	1
888.957	0
889.692	2
890.428	1
891.163	2
891.899	3
892.634	1
893.369	0
894.104	2
894.839	0
895.574	1
896.309	3
897.044	3
897.779	1
898.514	2
899.248	1
899.983	0
900.717	2
901.452	2
902.186	0
902.92	2
903.654	1
904.389	1
905.123	2
905.857	2
906.59	-2
907.324	1
908.058	2
908.792	1
909.525	1
910.259	1
910.992	2
911.726	1
912.459	2
913.192	2
913.925	1
914.658	0
915.391	2
916.124	2
916.857	1
917.59	1
918.323	3
919.055	2
919.788	1
920.521	1
921.253	0
921.985	3
922.718	2
923.45	2
924.182	0
924.914	0
925.646	3
926.378	2
927.11	1
927.841	-2
928.573	1
929.305	0
930.036	3
930.768	1
931.499	3
932.23	1
932.962	1
933.693	2
934.424	1
935.155	1
935.886	3
936.617	2
937.348	2
938.078	1
938.809	1
939.54	3
940.27	1
941.001	2
941.731	2
942.461	1
943.191	2
943.922	3
944.652	3
945.382	1
946.112	1
946.841	0
947.571	1
948.301	3
949.031	-1
949.76	1
950.49	1
951.219	-1
951.948	1
952.678	0
953.407	1
954.136	2
954.865	0
955.594	0
956.323	1
957.052	0
957.78	-1
958.509	1
959.238	1
959.966	1
960.695	2
961.423	-2
962.151	0
962.88	-1
963.608	3
964.336	0
965.064	2
965.792	1
966.52	-1
967.247	0
967.975	3
968.703	0
969.43	2
970.158	-1
970.885	1
971.613	0
972.34	2
973.067	0
973.794	-1
974.521	-3
975.248	0
975.975	-1
976.702	2
977.429	1
978.156	2
978.882	1
979.609	1
980.335	-1
981.062	1
981.788	3
982.514	2
983.24	0
983.967	0
984.693	3
985.419	1
986.144	2
986.87	1
987.596	1
988.322	1
989.047	0
989.773	2
990.498	-1
991.224	1
991.949	2
992.674	0
993.399	2
994.124	2
994.849	0
995.574	2
996.299	1
997.024	2
997.749	0
998.473	3
999.198	2
999.922	1
1000.647	3
1001.371	4
1002.095	-2
1002.82	-1
1003.544	-1
1004.268	1
1004.992	1
1005.716	6
1006.439	4
1007.163	3
1007.887	3
1008.611	-2
1009.334	0
1010.058	0
1010.781	3
1011.504	0
1012.228	0
1012.951	-1
1013.674	1
1014.397	0
1015.12	0
