节点500_425_QEPB04081__4__15-48-25-509.txt的数据

Date: Wed Nov 12 15:48:25 CST 2025
User: PC
Spectrometer: QEPB0408
触发模式: 0
积分时间 (秒): 1.000000E-2
Scans to average: 1
启用暗噪声校正: true
启用非线性校正: false
滑动平均宽度: 0
X轴模式: Wavelengths
Number of Pixels in Spectrum: 1044
>>>>>Begin Spectral Data<<<<<
220.843	2.62
221.644	2.62
222.444	4.62
223.244	2.62
224.045	4.62
224.845	3.62
225.645	4.62
226.445	1.62
227.245	2.62
228.045	2.62
228.845	1.62
229.645	6.62
230.444	5.62
231.244	6.62
232.043	4.62
232.843	6.62
233.642	6.62
234.442	4.62
235.241	6.62
236.04	4.62
236.839	5.62
237.638	6.62
238.437	8.62
239.236	7.62
240.035	5.62
240.833	7.62
241.632	9.62
242.43	8.62
243.229	8.62
244.027	6.62
244.826	10.62
245.624	9.62
246.422	8.62
247.22	10.62
248.018	11.62
248.816	12.62
249.614	10.62
250.412	9.62
251.21	9.62
252.007	12.62
252.805	9.62
253.602	10.62
254.4	12.62
255.197	14.62
255.994	14.62
256.791	16.62
257.589	12.62
258.386	14.62
259.183	14.62
259.979	16.62
260.776	16.62
261.573	18.62
262.37	18.62
263.166	18.62
263.963	22.62
264.759	20.62
265.556	17.62
266.352	20.62
267.148	22.62
267.944	22.62
268.74	18.62
269.536	24.62
270.332	22.62
271.128	24.62
271.924	25.62
272.719	23.62
273.515	26.62
274.311	24.62
275.106	26.62
275.901	23.62
276.697	27.62
277.492	29.62
278.287	25.62
279.082	26.62
279.877	24.62
280.672	27.62
281.467	26.62
282.262	25.62
283.056	27.62
283.851	27.62
284.646	28.62
285.44	25.62
286.234	26.62
287.029	25.62
287.823	29.62
288.617	28.62
289.411	24.62
290.205	27.62
290.999	23.62
291.793	27.62
292.587	23.62
293.381	25.62
294.174	25.62
294.968	22.62
295.761	19.62
296.555	22.62
297.348	19.62
298.141	22.62
298.935	23.62
299.728	22.62
300.521	19.62
301.314	16.62
302.107	18.62
302.899	17.62
303.692	17.62
304.485	15.62
305.277	15.62
306.07	18.62
306.862	17.62
307.655	15.62
308.447	15.62
309.239	18.62
310.031	17.62
310.823	12.62
311.615	14.62
312.407	12.62
313.199	11.62
313.991	13.62
314.783	11.62
315.574	13.62
316.366	14.62
317.157	11.62
317.949	11.62
318.74	11.62
319.531	10.62
320.322	9.62
321.113	11.62
321.904	10.62
322.695	10.62
323.486	8.62
324.277	8.62
325.068	8.62
325.858	9.62
326.649	11.62
327.439	11.62
328.23	10.62
329.02	10.62
329.81	8.62
330.6	8.62
331.391	7.62
332.181	9.62
332.971	6.62
333.76	9.62
334.55	9.62
335.34	10.62
336.13	7.62
336.919	8.62
337.709	9.62
338.498	9.62
339.287	8.62
340.077	8.62
340.866	9.62
341.655	9.62
342.444	9.62
343.233	8.62
344.022	7.62
344.811	9.62
345.6	9.62
346.388	10.62
347.177	10.62
347.965	7.62
348.754	10.62
349.542	8.62
350.33	9.62
351.119	10.62
351.907	9.62
352.695	8.62
353.483	7.62
354.271	5.62
355.059	6.62
355.846	7.62
356.634	8.62
357.422	6.62
358.209	7.62
358.997	8.62
359.784	9.62
360.571	10.62
361.359	8.62
362.146	8.62
362.933	6.62
363.72	8.62
364.507	8.62
365.294	6.62
366.081	7.62
366.867	8.62
367.654	9.62
368.44	8.62
369.227	7.62
370.013	6.62
370.8	5.62
371.586	8.62
372.372	6.62
373.158	7.62
373.944	7.62
374.73	8.62
375.516	8.62
376.302	5.62
377.088	7.62
377.873	8.62
378.659	6.62
379.445	8.62
380.23	6.62
381.015	9.62
381.801	7.62
382.586	7.62
383.371	8.62
384.156	5.62
384.941	6.62
385.726	8.62
386.511	7.62
387.296	8.62
388.08	5.62
388.865	8.62
389.649	8.62
390.434	8.62
391.218	8.62
392.003	10.62
392.787	9.62
393.571	9.62
394.355	9.62
395.139	10.62
395.923	11.62
396.707	10.62
397.491	10.62
398.274	8.62
399.058	10.62
399.842	11.62
400.625	10.62
401.408	10.62
402.192	9.62
402.975	10.62
403.758	10.62
404.541	9.62
405.324	8.62
406.107	11.62
406.89	12.62
407.673	9.62
408.456	11.62
409.238	12.62
410.021	12.62
410.803	14.62
411.586	11.62
412.368	12.62
413.151	11.62
413.933	9.62
414.715	14.62
415.497	12.62
416.279	13.62
417.061	14.62
417.843	15.62
418.624	17.62
419.406	14.62
420.188	15.62
420.969	13.62
421.751	17.62
422.532	16.62
423.313	17.62
424.095	15.62
424.876	17.62
425.657	16.62
426.438	15.62
427.219	20.62
428	19.62
428.78	22.62
429.561	18.62
430.342	17.62
431.122	21.62
431.903	26.62
432.683	22.62
433.464	22.62
434.244	23.62
435.024	26.62
435.804	28.62
436.584	27.62
437.364	27.62
438.144	30.62
438.924	30.62
439.704	33.62
440.483	34.62
441.263	34.62
442.042	36.62
442.822	44.62
443.601	42.62
444.38	44.62
445.16	46.62
445.939	49.62
446.718	54.62
447.497	59.62
448.276	62.62
449.054	66.62
449.833	71.62
450.612	82.62
451.391	85.62
452.169	94.62
452.948	102.62
453.726	112.62
454.504	126.62
455.282	138.62
456.061	154.62
456.839	170.62
457.617	185.62
458.395	206.62
459.172	230.62
459.95	260.62
460.728	289.62
461.506	330.62
462.283	354.62
463.061	416.62
463.838	458.62
464.615	505.62
465.393	571.62
466.17	641.62
466.947	716.62
467.724	805.62
468.501	898.62
469.278	1018.62
470.055	1110.62
470.831	1228.62
471.608	1389.62
472.385	1550.62
473.161	1725.62
473.938	1928.62
474.714	2144.62
475.49	2362.62
476.266	2615.62
477.043	2904.62
477.819	3225.62
478.595	3608.62
479.371	3983.62
480.146	4414.62
480.922	4855.62
481.698	5376.62
482.473	5927.62
483.249	6533.62
484.024	7202.62
484.8	8009.62
485.575	8750.62
486.35	9655.62
487.126	10585.62
487.901	11632.62
488.676	12720.62
489.451	13911.62
490.225	15141.62
491	16500.62
491.775	18009.62
492.55	19511.62
493.324	21059.62
494.099	22581.62
494.873	24054.62
495.647	25799.62
496.422	27370.62
497.196	29070.62
497.97	30754.62
498.744	32238.62
499.518	33734.62
500.292	34984.62
501.066	36035.62
501.839	36979.62
502.613	37798.62
503.387	38254.62
504.16	38599.62
504.934	38596.62
505.707	38293.62
506.48	37818.62
507.253	37172.62
508.027	36442.62
508.8	35564.62
509.573	34456.62
510.346	33378.62
511.118	32100.62
511.891	30820.62
512.664	29550.62
513.437	28297.62
514.209	27091.62
514.982	25895.62
515.754	24791.62
516.526	23659.62
517.298	22574.62
518.071	21778.62
518.843	20742.62
519.615	19905.62
520.387	19145.62
521.159	18467.62
521.93	17709.62
522.702	17035.62
523.474	16332.62
524.245	15650.62
525.017	14885.62
525.788	14181.62
526.56	13470.62
527.331	12813.62
528.102	12201.62
528.873	11581.62
529.644	11019.62
530.415	10470.62
531.186	9890.62
531.957	9369.62
532.728	8845.62
533.498	8339.62
534.269	7858.62
535.039	7445.62
535.81	7029.62
536.58	6579.62
537.351	6205.62
538.121	5905.62
538.891	5575.62
539.661	5308.62
540.431	5026.62
541.201	4737.62
541.971	4509.62
542.741	4253.62
543.51	4064.62
544.28	3859.62
545.05	3686.62
545.819	3495.62
546.588	3311.62
547.358	3138.62
548.127	2964.62
548.896	2804.62
549.665	2662.62
550.434	2525.62
551.203	2396.62
551.972	2264.62
552.741	2129.62
553.51	2008.62
554.278	1908.62
555.047	1780.62
555.815	1677.62
556.584	1603.62
557.352	1500.62
558.121	1411.62
558.889	1339.62
559.657	1263.62
560.425	1177.62
561.193	1118.62
561.961	1067.62
562.729	1005.62
563.496	948.62
564.264	920.62
565.032	849.62
565.799	806.62
566.567	754.62
567.334	709.62
568.101	687.62
568.869	660.62
569.636	604.62
570.403	569.62
571.17	537.62
571.937	508.62
572.704	483.62
573.471	463.62
574.237	432.62
575.004	406.62
575.771	372.62
576.537	359.62
577.303	334.62
578.07	312.62
578.836	297.62
579.602	280.62
580.368	273.62
581.134	250.62
581.9	243.62
582.666	231.62
583.432	214.62
584.198	210.62
584.964	206.62
585.729	184.62
586.495	174.62
587.26	167.62
588.025	160.62
588.791	153.62
589.556	144.62
590.321	131.62
591.086	128.62
591.851	122.62
592.616	120.62
593.381	110.62
594.146	105.62
594.911	103.62
595.675	96.62
596.44	93.62
597.204	89.62
597.969	84.62
598.733	84.62
599.497	81.62
600.261	74.62
601.025	72.62
601.79	66.62
602.553	66.62
603.317	59.62
604.081	61.62
604.845	56.62
605.609	55.62
606.372	54.62
607.136	51.62
607.899	50.62
608.662	46.62
609.426	43.62
610.189	43.62
610.952	46.62
611.715	40.62
612.478	37.62
613.241	38.62
614.004	34.62
614.767	34.62
615.529	33.62
616.292	32.62
617.055	33.62
617.817	31.62
618.579	30.62
619.342	26.62
620.104	26.62
620.866	22.62
621.628	27.62
622.39	24.62
623.152	23.62
623.914	24.62
624.676	22.62
625.438	22.62
626.199	22.62
626.961	19.62
627.722	23.62
628.484	18.62
629.245	20.62
630.006	20.62
630.768	18.62
631.529	19.62
632.29	16.62
633.051	17.62
633.812	17.62
634.573	16.62
635.333	17.62
636.094	14.62
636.855	15.62
637.615	14.62
638.376	13.62
639.136	16.62
639.896	14.62
640.657	12.62
641.417	11.62
642.177	13.62
642.937	11.62
643.697	13.62
644.457	10.62
645.216	11.62
645.976	10.62
646.736	11.62
647.495	11.62
648.255	10.62
649.014	9.62
649.774	10.62
650.533	8.62
651.292	10.62
652.051	10.62
652.81	8.62
653.569	8.62
654.328	11.62
655.087	8.62
655.846	8.62
656.604	8.62
657.363	7.62
658.121	8.62
658.88	9.62
659.638	6.62
660.397	8.62
661.155	6.62
661.913	7.62
662.671	6.62
663.429	9.62
664.187	9.62
664.945	5.62
665.703	6.62
666.46	6.62
667.218	7.62
667.976	7.62
668.733	6.62
669.49	8.62
670.248	7.62
671.005	7.62
671.762	6.62
672.519	4.62
673.276	6.62
674.033	6.62
674.79	7.62
675.547	4.62
676.304	6.62
677.06	8.62
677.817	5.62
678.574	6.62
679.33	5.62
680.086	7.62
680.843	6.62
681.599	7.62
682.355	6.62
683.111	8.62
683.867	4.62
684.623	4.62
685.379	6.62
686.135	2.62
686.89	6.62
687.646	6.62
688.402	7.62
689.157	7.62
689.912	5.62
690.668	5.62
691.423	4.62
692.178	7.62
692.933	4.62
693.688	3.62
694.443	9.62
695.198	6.62
695.953	8.62
696.708	5.62
697.462	5.62
698.217	5.62
698.972	2.62
699.726	5.62
700.48	7.62
701.235	6.62
701.989	3.62
702.743	4.62
703.497	6.62
704.251	2.62
705.005	6.62
705.759	5.62
706.513	5.62
707.266	5.62
708.02	5.62
708.774	6.62
709.527	5.62
710.28	4.62
711.034	6.62
711.787	5.62
712.54	7.62
713.293	5.62
714.046	4.62
714.799	7.62
715.552	3.62
716.305	6.62
717.058	7.62
717.81	8.62
718.563	8.62
719.315	7.62
720.068	6.62
720.82	6.62
721.573	8.62
722.325	8.62
723.077	8.62
723.829	7.62
724.581	5.62
725.333	7.62
726.085	4.62
726.836	5.62
727.588	8.62
728.34	7.62
729.091	5.62
729.843	3.62
730.594	8.62
731.346	6.62
732.097	5.62
732.848	8.62
733.599	6.62
734.35	8.62
735.101	7.62
735.852	7.62
736.603	7.62
737.354	8.62
738.104	6.62
738.855	4.62
739.605	9.62
740.356	7.62
741.106	8.62
741.856	8.62
742.607	5.62
743.357	9.62
744.107	6.62
744.857	6.62
745.607	7.62
746.357	10.62
747.106	6.62
747.856	9.62
748.606	6.62
749.355	7.62
750.105	10.62
750.854	11.62
751.603	9.62
752.353	8.62
753.102	8.62
753.851	8.62
754.6	8.62
755.349	8.62
756.098	8.62
756.847	8.62
757.595	9.62
758.344	7.62
759.093	8.62
759.841	9.62
760.589	8.62
761.338	10.62
762.086	9.62
762.834	11.62
763.582	10.62
764.331	11.62
765.079	10.62
765.826	11.62
766.574	10.62
767.322	9.62
768.07	12.62
768.817	13.62
769.565	12.62
770.312	13.62
771.06	11.62
771.807	12.62
772.554	12.62
773.302	11.62
774.049	11.62
774.796	10.62
775.543	13.62
776.29	9.62
777.036	9.62
777.783	11.62
778.53	14.62
779.276	13.62
780.023	12.62
780.769	12.62
781.516	12.62
782.262	11.62
783.008	13.62
783.754	12.62
784.5	11.62
785.246	14.62
785.992	15.62
786.738	12.62
787.484	11.62
788.23	12.62
788.975	9.62
789.721	12.62
790.466	12.62
791.212	10.62
791.957	10.62
792.702	13.62
793.447	11.62
794.193	12.62
794.938	13.62
795.683	11.62
796.427	10.62
797.172	11.62
797.917	9.62
798.662	11.62
799.406	11.62
800.151	13.62
800.895	8.62
801.64	10.62
802.384	7.62
803.128	8.62
803.872	9.62
804.616	7.62
805.36	8.62
806.104	9.62
806.848	8.62
807.592	9.62
808.336	6.62
809.079	9.62
809.823	9.62
810.566	7.62
811.31	6.62
812.053	8.62
812.796	6.62
813.539	8.62
814.283	8.62
815.026	6.62
815.769	4.62
816.511	7.62
817.254	7.62
817.997	8.62
818.74	6.62
819.482	5.62
820.225	7.62
820.967	7.62
821.71	6.62
822.452	4.62
823.194	9.62
823.936	7.62
824.678	7.62
825.42	6.62
826.162	3.62
826.904	3.62
827.646	4.62
828.388	8.62
829.129	2.62
829.871	7.62
830.612	6.62
831.354	2.62
832.095	4.62
832.836	4.62
833.577	4.62
834.319	4.62
835.06	5.62
835.801	3.62
836.542	5.62
837.282	4.62
838.023	3.62
838.764	5.62
839.504	6.62
840.245	1.62
840.985	5.62
841.726	4.62
842.466	5.62
843.206	2.62
843.946	3.62
844.687	5.62
845.427	3.62
846.166	2.62
846.906	6.62
847.646	4.62
848.386	2.62
849.125	2.62
849.865	6.62
850.605	5.62
851.344	2.62
852.083	2.62
852.823	3.62
853.562	4.62
854.301	3.62
855.04	5.62
855.779	2.62
856.518	2.62
857.257	3.62
857.995	5.62
858.734	1.62
859.473	4.62
860.211	2.62
860.95	0.62
861.688	3.62
862.426	1.62
863.165	1.62
863.903	3.62
864.641	2.62
865.379	2.62
866.117	-0.38
866.855	1.62
867.593	4.62
868.33	2.62
869.068	1.62
869.806	0.62
870.543	1.62
871.28	3.62
872.018	-0.38
872.755	4.62
873.492	2.62
874.229	2.62
874.967	2.62
875.703	2.62
876.44	1.62
877.177	0.62
877.914	1.62
878.651	1.62
879.387	2.62
880.124	3.62
880.86	3.62
881.597	1.62
882.333	1.62
883.069	2.62
883.806	4.62
884.542	0.62
885.278	1.62
886.014	1.62
886.749	1.62
887.485	0.62
888.221	-0.38
888.957	2.62
889.692	0.62
890.428	1.62
891.163	0.62
891.899	3.62
892.634	1.62
893.369	1.62
894.104	1.62
894.839	-1.38
895.574	0.62
896.309	1.62
897.044	-0.38
897.779	2.62
898.514	1.62
899.248	-0.38
899.983	-1.38
900.717	0.62
901.452	0.62
902.186	-0.38
902.92	1.62
903.654	-0.38
904.389	1.62
905.123	0.62
905.857	2.62
906.59	1.62
907.324	1.62
908.058	1.62
908.792	1.62
909.525	4.62
910.259	0.62
910.992	3.62
911.726	1.62
912.459	-0.38
913.192	2.62
913.925	1.62
914.658	2.62
915.391	-1.38
916.124	0.62
916.857	1.62
917.59	-0.38
918.323	0.62
919.055	2.62
919.788	0.62
920.521	1.62
921.253	1.62
921.985	2.62
922.718	-1.38
923.45	1.62
924.182	-1.38
924.914	-0.38
925.646	2.62
926.378	-0.38
927.11	2.62
927.841	2.62
928.573	2.62
929.305	0.62
930.036	0.62
930.768	0.62
931.499	0.62
932.23	3.62
932.962	2.62
933.693	0.62
934.424	-1.38
935.155	-2.38
935.886	2.62
936.617	-1.38
937.348	0.62
938.078	2.62
938.809	0.62
939.54	1.62
940.27	-0.38
941.001	0.62
941.731	1.62
942.461	1.62
943.191	-1.38
943.922	1.62
944.652	2.62
945.382	1.62
946.112	2.62
946.841	2.62
947.571	0.62
948.301	-1.38
949.031	0.62
949.76	0.62
950.49	1.62
951.219	0.62
951.948	1.62
952.678	-0.38
953.407	1.62
954.136	0.62
954.865	1.62
955.594	2.62
956.323	-0.38
957.052	1.62
957.78	-0.38
958.509	2.62
959.238	0.62
959.966	0.62
960.695	1.62
961.423	-0.38
962.151	-0.38
962.88	0.62
963.608	2.62
964.336	0.62
965.064	0.62
965.792	0.62
966.52	0.62
967.247	1.62
967.975	0.62
968.703	2.62
969.43	2.62
970.158	-0.38
970.885	-0.38
971.613	-0.38
972.34	2.62
973.067	-0.38
973.794	1.62
974.521	1.62
975.248	-0.38
975.975	-0.38
976.702	0.62
977.429	2.62
978.156	0.62
978.882	-1.38
979.609	1.62
980.335	-0.38
981.062	0.62
981.788	2.62
982.514	3.62
983.24	0.62
983.967	0.62
984.693	0.62
985.419	0.62
986.144	-2.38
986.87	0.62
987.596	3.62
988.322	0.62
989.047	-3.38
989.773	0.62
990.498	1.62
991.224	2.62
991.949	1.62
992.674	-0.38
993.399	-0.38
994.124	1.62
994.849	-2.38
995.574	2.62
996.299	1.62
997.024	-1.38
997.749	0.62
998.473	0.62
999.198	-0.38
999.922	-0.38
1000.647	0.62
1001.371	3.62
1002.095	-1.38
1002.82	-1.38
1003.544	-1.38
1004.268	3.62
1004.992	2.62
1005.716	2.62
1006.439	1.62
1007.163	3.62
1007.887	4.62
1008.611	1.62
1009.334	0.62
1010.058	0.62
1010.781	0.62
1011.504	-0.38
1012.228	0.62
1012.951	0.62
1013.674	-2.38
1014.397	0.62
1015.12	1.62
