节点500_425_QEPB04081__436__15-55-33-619.txt的数据

Date: Wed Nov 12 15:55:33 CST 2025
User: PC
Spectrometer: QEPB0408
触发模式: 0
积分时间 (秒): 1.000000E-2
Scans to average: 1
启用暗噪声校正: true
启用非线性校正: false
滑动平均宽度: 0
X轴模式: Wavelengths
Number of Pixels in Spectrum: 1044
>>>>>Begin Spectral Data<<<<<
220.843	4.5
221.644	2.5
222.444	5.5
223.244	4.5
224.045	2.5
224.845	2.5
225.645	2.5
226.445	5.5
227.245	3.5
228.045	4.5
228.845	3.5
229.645	4.5
230.444	6.5
231.244	3.5
232.043	6.5
232.843	3.5
233.642	7.5
234.442	6.5
235.241	6.5
236.04	6.5
236.839	6.5
237.638	4.5
238.437	6.5
239.236	7.5
240.035	6.5
240.833	6.5
241.632	6.5
242.43	7.5
243.229	8.5
244.027	7.5
244.826	8.5
245.624	8.5
246.422	9.5
247.22	9.5
248.018	7.5
248.816	9.5
249.614	10.5
250.412	9.5
251.21	10.5
252.007	9.5
252.805	11.5
253.602	12.5
254.4	10.5
255.197	10.5
255.994	9.5
256.791	12.5
257.589	10.5
258.386	12.5
259.183	12.5
259.979	14.5
260.776	14.5
261.573	14.5
262.37	14.5
263.166	14.5
263.963	15.5
264.759	15.5
265.556	16.5
266.352	15.5
267.148	16.5
267.944	16.5
268.74	20.5
269.536	21.5
270.332	21.5
271.128	18.5
271.924	20.5
272.719	21.5
273.515	21.5
274.311	19.5
275.106	19.5
275.901	24.5
276.697	22.5
277.492	22.5
278.287	24.5
279.082	25.5
279.877	26.5
280.672	21.5
281.467	23.5
282.262	23.5
283.056	20.5
283.851	24.5
284.646	23.5
285.44	25.5
286.234	25.5
287.029	25.5
287.823	26.5
288.617	24.5
289.411	23.5
290.205	22.5
290.999	21.5
291.793	23.5
292.587	21.5
293.381	22.5
294.174	20.5
294.968	19.5
295.761	20.5
296.555	17.5
297.348	18.5
298.141	20.5
298.935	20.5
299.728	20.5
300.521	18.5
301.314	18.5
302.107	14.5
302.899	14.5
303.692	16.5
304.485	18.5
305.277	16.5
306.07	16.5
306.862	14.5
307.655	14.5
308.447	14.5
309.239	14.5
310.031	14.5
310.823	16.5
311.615	14.5
312.407	11.5
313.199	12.5
313.991	13.5
314.783	13.5
315.574	12.5
316.366	11.5
317.157	10.5
317.949	9.5
318.74	10.5
319.531	12.5
320.322	9.5
321.113	12.5
321.904	10.5
322.695	6.5
323.486	8.5
324.277	10.5
325.068	11.5
325.858	8.5
326.649	8.5
327.439	10.5
328.23	9.5
329.02	10.5
329.81	7.5
330.6	10.5
331.391	8.5
332.181	7.5
332.971	10.5
333.76	11.5
334.55	8.5
335.34	8.5
336.13	7.5
336.919	8.5
337.709	9.5
338.498	9.5
339.287	8.5
340.077	8.5
340.866	7.5
341.655	9.5
342.444	7.5
343.233	8.5
344.022	9.5
344.811	8.5
345.6	7.5
346.388	10.5
347.177	5.5
347.965	8.5
348.754	8.5
349.542	8.5
350.33	8.5
351.119	8.5
351.907	6.5
352.695	4.5
353.483	5.5
354.271	8.5
355.059	8.5
355.846	5.5
356.634	7.5
357.422	6.5
358.209	9.5
358.997	5.5
359.784	10.5
360.571	7.5
361.359	7.5
362.146	6.5
362.933	9.5
363.72	7.5
364.507	8.5
365.294	7.5
366.081	6.5
366.867	4.5
367.654	7.5
368.44	9.5
369.227	6.5
370.013	6.5
370.8	10.5
371.586	7.5
372.372	5.5
373.158	8.5
373.944	5.5
374.73	8.5
375.516	6.5
376.302	6.5
377.088	6.5
377.873	6.5
378.659	6.5
379.445	8.5
380.23	8.5
381.015	7.5
381.801	6.5
382.586	4.5
383.371	6.5
384.156	9.5
384.941	6.5
385.726	8.5
386.511	9.5
387.296	9.5
388.08	5.5
388.865	6.5
389.649	7.5
390.434	8.5
391.218	8.5
392.003	8.5
392.787	8.5
393.571	8.5
394.355	7.5
395.139	8.5
395.923	7.5
396.707	8.5
397.491	10.5
398.274	7.5
399.058	10.5
399.842	7.5
400.625	9.5
401.408	8.5
402.192	9.5
402.975	10.5
403.758	9.5
404.541	10.5
405.324	10.5
406.107	9.5
406.89	9.5
407.673	13.5
408.456	11.5
409.238	10.5
410.021	12.5
410.803	10.5
411.586	10.5
412.368	12.5
413.151	9.5
413.933	13.5
414.715	14.5
415.497	10.5
416.279	14.5
417.061	12.5
417.843	15.5
418.624	11.5
419.406	14.5
420.188	14.5
420.969	12.5
421.751	14.5
422.532	16.5
423.313	14.5
424.095	16.5
424.876	16.5
425.657	15.5
426.438	13.5
427.219	16.5
428	18.5
428.78	19.5
429.561	17.5
430.342	18.5
431.122	20.5
431.903	19.5
432.683	22.5
433.464	22.5
434.244	21.5
435.024	24.5
435.804	24.5
436.584	22.5
437.364	28.5
438.144	23.5
438.924	30.5
439.704	32.5
440.483	34.5
441.263	36.5
442.042	40.5
442.822	37.5
443.601	44.5
444.38	48.5
445.16	48.5
445.939	53.5
446.718	54.5
447.497	62.5
448.276	69.5
449.054	72.5
449.833	80.5
450.612	89.5
451.391	99.5
452.169	104.5
452.948	116.5
453.726	131.5
454.504	146.5
455.282	159.5
456.061	177.5
456.839	194.5
457.617	219.5
458.395	241.5
459.172	267.5
459.95	304.5
460.728	332.5
461.506	377.5
462.283	420.5
463.061	461.5
463.838	517.5
464.615	574.5
465.393	636.5
466.17	717.5
466.947	792.5
467.724	876.5
468.501	968.5
469.278	1089.5
470.055	1194.5
470.831	1315.5
471.608	1458.5
472.385	1605.5
473.161	1764.5
473.938	1932.5
474.714	2171.5
475.49	2353.5
476.266	2595.5
477.043	2864.5
477.819	3154.5
478.595	3455.5
479.371	3795.5
480.146	4139.5
480.922	4519.5
481.698	4955.5
482.473	5406.5
483.249	5878.5
484.024	6442.5
484.8	7068.5
485.575	7690.5
486.35	8336.5
487.126	9066.5
487.901	9853.5
488.676	10744.5
489.451	11595.5
490.225	12565.5
491	13609.5
491.775	14745.5
492.55	15805.5
493.324	17034.5
494.099	18268.5
494.873	19414.5
495.647	20775.5
496.422	22098.5
497.196	23454.5
497.97	24907.5
498.744	26213.5
499.518	27534.5
500.292	28695.5
501.066	29849.5
501.839	30933.5
502.613	31874.5
503.387	32575.5
504.16	33290.5
504.934	33684.5
505.707	33932.5
506.48	33916.5
507.253	33771.5
508.027	33525.5
508.8	33096.5
509.573	32628.5
510.346	31904.5
511.118	31084.5
511.891	30266.5
512.664	29278.5
513.437	28173.5
514.209	27176.5
514.982	26186.5
515.754	25223.5
516.526	24209.5
517.298	23142.5
518.071	22129.5
518.843	21224.5
519.615	20390.5
520.387	19597.5
521.159	18819.5
521.93	18195.5
522.702	17384.5
523.474	16724.5
524.245	16074.5
525.017	15347.5
525.788	14622.5
526.56	14036.5
527.331	13407.5
528.102	12835.5
528.873	12231.5
529.644	11611.5
530.415	11099.5
531.186	10582.5
531.957	10040.5
532.728	9538.5
533.498	9020.5
534.269	8525.5
535.039	8102.5
535.81	7630.5
536.58	7215.5
537.351	6837.5
538.121	6443.5
538.891	6111.5
539.661	5791.5
540.431	5491.5
541.201	5196.5
541.971	4917.5
542.741	4659.5
543.51	4408.5
544.28	4194.5
545.05	4011.5
545.819	3819.5
546.588	3620.5
547.358	3450.5
548.127	3261.5
548.896	3102.5
549.665	2949.5
550.434	2804.5
551.203	2656.5
551.972	2506.5
552.741	2380.5
553.51	2270.5
554.278	2128.5
555.047	1994.5
555.815	1905.5
556.584	1802.5
557.352	1706.5
558.121	1596.5
558.889	1518.5
559.657	1427.5
560.425	1338.5
561.193	1273.5
561.961	1205.5
562.729	1140.5
563.496	1078.5
564.264	1029.5
565.032	967.5
565.799	906.5
566.567	868.5
567.334	817.5
568.101	779.5
568.869	718.5
569.636	684.5
570.403	647.5
571.17	609.5
571.937	574.5
572.704	552.5
573.471	503.5
574.237	490.5
575.004	452.5
575.771	425.5
576.537	404.5
577.303	377.5
578.07	362.5
578.836	336.5
579.602	313.5
580.368	307.5
581.134	296.5
581.9	278.5
582.666	258.5
583.432	245.5
584.198	235.5
584.964	217.5
585.729	208.5
586.495	195.5
587.26	190.5
588.025	176.5
588.791	168.5
589.556	161.5
590.321	151.5
591.086	143.5
591.851	136.5
592.616	128.5
593.381	122.5
594.146	116.5
594.911	112.5
595.675	104.5
596.44	104.5
597.204	101.5
597.969	94.5
598.733	84.5
599.497	85.5
600.261	81.5
601.025	78.5
601.79	74.5
602.553	71.5
603.317	65.5
604.081	65.5
604.845	63.5
605.609	59.5
606.372	58.5
607.136	56.5
607.899	52.5
608.662	51.5
609.426	49.5
610.189	46.5
610.952	46.5
611.715	44.5
612.478	40.5
613.241	41.5
614.004	41.5
614.767	38.5
615.529	38.5
616.292	38.5
617.055	37.5
617.817	33.5
618.579	32.5
619.342	28.5
620.104	28.5
620.866	28.5
621.628	28.5
622.39	28.5
623.152	25.5
623.914	26.5
624.676	24.5
625.438	24.5
626.199	23.5
626.961	23.5
627.722	18.5
628.484	21.5
629.245	20.5
630.006	20.5
630.768	18.5
631.529	19.5
632.29	17.5
633.051	18.5
633.812	14.5
634.573	18.5
635.333	16.5
636.094	14.5
636.855	14.5
637.615	15.5
638.376	15.5
639.136	15.5
639.896	12.5
640.657	13.5
641.417	13.5
642.177	14.5
642.937	11.5
643.697	12.5
644.457	12.5
645.216	11.5
645.976	12.5
646.736	12.5
647.495	11.5
648.255	10.5
649.014	10.5
649.774	12.5
650.533	10.5
651.292	11.5
652.051	12.5
652.81	9.5
653.569	8.5
654.328	9.5
655.087	8.5
655.846	8.5
656.604	8.5
657.363	9.5
658.121	3.5
658.88	9.5
659.638	7.5
660.397	6.5
661.155	7.5
661.913	9.5
662.671	7.5
663.429	6.5
664.187	8.5
664.945	7.5
665.703	6.5
666.46	4.5
667.218	5.5
667.976	4.5
668.733	6.5
669.49	8.5
670.248	8.5
671.005	8.5
671.762	6.5
672.519	5.5
673.276	4.5
674.033	6.5
674.79	3.5
675.547	7.5
676.304	7.5
677.06	5.5
677.817	5.5
678.574	6.5
679.33	6.5
680.086	6.5
680.843	6.5
681.599	4.5
682.355	7.5
683.111	6.5
683.867	4.5
684.623	5.5
685.379	5.5
686.135	5.5
686.89	5.5
687.646	4.5
688.402	5.5
689.157	7.5
689.912	6.5
690.668	6.5
691.423	4.5
692.178	3.5
692.933	7.5
693.688	5.5
694.443	4.5
695.198	6.5
695.953	6.5
696.708	6.5
697.462	5.5
698.217	5.5
698.972	3.5
699.726	4.5
700.48	5.5
701.235	4.5
701.989	4.5
702.743	6.5
703.497	5.5
704.251	3.5
705.005	6.5
705.759	6.5
706.513	5.5
707.266	4.5
708.02	4.5
708.774	2.5
709.527	8.5
710.28	3.5
711.034	6.5
711.787	5.5
712.54	3.5
713.293	4.5
714.046	5.5
714.799	5.5
715.552	4.5
716.305	6.5
717.058	6.5
717.81	3.5
718.563	6.5
719.315	5.5
720.068	7.5
720.82	3.5
721.573	5.5
722.325	5.5
723.077	5.5
723.829	6.5
724.581	6.5
725.333	7.5
726.085	6.5
726.836	6.5
727.588	7.5
728.34	4.5
729.091	4.5
729.843	4.5
730.594	5.5
731.346	6.5
732.097	3.5
732.848	7.5
733.599	3.5
734.35	7.5
735.101	4.5
735.852	4.5
736.603	6.5
737.354	7.5
738.104	8.5
738.855	5.5
739.605	5.5
740.356	6.5
741.106	5.5
741.856	9.5
742.607	6.5
743.357	7.5
744.107	5.5
744.857	5.5
745.607	7.5
746.357	8.5
747.106	7.5
747.856	6.5
748.606	8.5
749.355	4.5
750.105	7.5
750.854	7.5
751.603	7.5
752.353	6.5
753.102	7.5
753.851	7.5
754.6	9.5
755.349	7.5
756.098	7.5
756.847	7.5
757.595	9.5
758.344	7.5
759.093	7.5
759.841	9.5
760.589	8.5
761.338	9.5
762.086	8.5
762.834	9.5
763.582	8.5
764.331	10.5
765.079	9.5
765.826	8.5
766.574	11.5
767.322	10.5
768.07	6.5
768.817	10.5
769.565	9.5
770.312	12.5
771.06	6.5
771.807	11.5
772.554	11.5
773.302	6.5
774.049	11.5
774.796	9.5
775.543	8.5
776.29	10.5
777.036	11.5
777.783	11.5
778.53	11.5
779.276	11.5
780.023	9.5
780.769	11.5
781.516	12.5
782.262	11.5
783.008	10.5
783.754	8.5
784.5	10.5
785.246	9.5
785.992	10.5
786.738	10.5
787.484	9.5
788.23	12.5
788.975	8.5
789.721	8.5
790.466	12.5
791.212	9.5
791.957	10.5
792.702	9.5
793.447	9.5
794.193	10.5
794.938	10.5
795.683	10.5
796.427	9.5
797.172	8.5
797.917	9.5
798.662	8.5
799.406	8.5
800.151	9.5
800.895	10.5
801.64	10.5
802.384	5.5
803.128	9.5
803.872	9.5
804.616	8.5
805.36	8.5
806.104	7.5
806.848	6.5
807.592	9.5
808.336	7.5
809.079	7.5
809.823	6.5
810.566	8.5
811.31	7.5
812.053	4.5
812.796	6.5
813.539	8.5
814.283	5.5
815.026	3.5
815.769	5.5
816.511	8.5
817.254	5.5
817.997	5.5
818.74	5.5
819.482	5.5
820.225	4.5
820.967	7.5
821.71	5.5
822.452	6.5
823.194	5.5
823.936	7.5
824.678	4.5
825.42	3.5
826.162	7.5
826.904	7.5
827.646	6.5
828.388	6.5
829.129	3.5
829.871	5.5
830.612	5.5
831.354	2.5
832.095	2.5
832.836	6.5
833.577	2.5
834.319	5.5
835.06	7.5
835.801	5.5
836.542	8.5
837.282	5.5
838.023	4.5
838.764	3.5
839.504	2.5
840.245	4.5
840.985	3.5
841.726	6.5
842.466	3.5
843.206	3.5
843.946	4.5
844.687	3.5
845.427	7.5
846.166	5.5
846.906	3.5
847.646	5.5
848.386	3.5
849.125	5.5
849.865	3.5
850.605	5.5
851.344	3.5
852.083	2.5
852.823	4.5
853.562	2.5
854.301	3.5
855.04	1.5
855.779	4.5
856.518	2.5
857.257	4.5
857.995	3.5
858.734	1.5
859.473	5.5
860.211	1.5
860.95	2.5
861.688	4.5
862.426	3.5
863.165	5.5
863.903	1.5
864.641	3.5
865.379	2.5
866.117	4.5
866.855	3.5
867.593	1.5
868.33	2.5
869.068	-0.5
869.806	0.5
870.543	2.5
871.28	2.5
872.018	1.5
872.755	1.5
873.492	3.5
874.229	2.5
874.967	3.5
875.703	1.5
876.44	1.5
877.177	1.5
877.914	2.5
878.651	1.5
879.387	2.5
880.124	0.5
880.86	0.5
881.597	0.5
882.333	0.5
883.069	1.5
883.806	1.5
884.542	1.5
885.278	0.5
886.014	1.5
886.749	0.5
887.485	-0.5
888.221	1.5
888.957	-0.5
889.692	2.5
890.428	2.5
891.163	0.5
891.899	0.5
892.634	1.5
893.369	2.5
894.104	4.5
894.839	0.5
895.574	0.5
896.309	2.5
897.044	2.5
897.779	-0.5
898.514	1.5
899.248	-1.5
899.983	1.5
900.717	2.5
901.452	1.5
902.186	2.5
902.92	1.5
903.654	2.5
904.389	0.5
905.123	2.5
905.857	2.5
906.59	1.5
907.324	1.5
908.058	-0.5
908.792	2.5
909.525	1.5
910.259	0.5
910.992	-0.5
911.726	-0.5
912.459	0.5
913.192	0.5
913.925	0.5
914.658	2.5
915.391	2.5
916.124	2.5
916.857	-1.5
917.59	-1.5
918.323	1.5
919.055	-0.5
919.788	0.5
920.521	0.5
921.253	0.5
921.985	1.5
922.718	0.5
923.45	0.5
924.182	0.5
924.914	0.5
925.646	0.5
926.378	0.5
927.11	-0.5
927.841	0.5
928.573	1.5
929.305	0.5
930.036	2.5
930.768	-0.5
931.499	0.5
932.23	0.5
932.962	1.5
933.693	1.5
934.424	-2.5
935.155	1.5
935.886	0.5
936.617	-1.5
937.348	2.5
938.078	0.5
938.809	1.5
939.54	-1.5
940.27	1.5
941.001	0.5
941.731	-0.5
942.461	-0.5
943.191	1.5
943.922	0.5
944.652	1.5
945.382	-0.5
946.112	2.5
946.841	-1.5
947.571	-1.5
948.301	0.5
949.031	1.5
949.76	1.5
950.49	3.5
951.219	2.5
951.948	-0.5
952.678	0.5
953.407	-1.5
954.136	1.5
954.865	1.5
955.594	-1.5
956.323	3.5
957.052	0.5
957.78	1.5
958.509	0.5
959.238	1.5
959.966	0.5
960.695	1.5
961.423	-0.5
962.151	0.5
962.88	-1.5
963.608	1.5
964.336	-1.5
965.064	1.5
965.792	0.5
966.52	-0.5
967.247	2.5
967.975	1.5
968.703	1.5
969.43	3.5
970.158	0.5
970.885	0.5
971.613	0.5
972.34	-1.5
973.067	-0.5
973.794	1.5
974.521	0.5
975.248	-0.5
975.975	2.5
976.702	1.5
977.429	1.5
978.156	-2.5
978.882	0.5
979.609	2.5
980.335	0.5
981.062	-0.5
981.788	-0.5
982.514	1.5
983.24	1.5
983.967	-0.5
984.693	0.5
985.419	1.5
986.144	0.5
986.87	0.5
987.596	0.5
988.322	0.5
989.047	-0.5
989.773	0.5
990.498	-1.5
991.224	1.5
991.949	-0.5
992.674	0.5
993.399	1.5
994.124	0.5
994.849	-0.5
995.574	0.5
996.299	0.5
997.024	0.5
997.749	3.5
998.473	0.5
999.198	-1.5
999.922	1.5
1000.647	-0.5
1001.371	4.5
1002.095	-2.5
1002.82	-1.5
1003.544	0.5
1004.268	-0.5
1004.992	2.5
1005.716	1.5
1006.439	2.5
1007.163	4.5
1007.887	3.5
1008.611	-0.5
1009.334	1.5
1010.058	0.5
1010.781	0.5
1011.504	2.5
1012.228	0.5
1012.951	-2.5
1013.674	1.5
1014.397	-0.5
1015.12	0.5
