节点500_425_QEPB04081__560__15-57-37-473.txt的数据

Date: Wed Nov 12 15:57:37 CST 2025
User: PC
Spectrometer: QEPB0408
触发模式: 0
积分时间 (秒): 1.000000E-2
Scans to average: 1
启用暗噪声校正: true
启用非线性校正: false
滑动平均宽度: 0
X轴模式: Wavelengths
Number of Pixels in Spectrum: 1044
>>>>>Begin Spectral Data<<<<<
220.843	2.25
221.644	4.25
222.444	3.25
223.244	3.25
224.045	4.25
224.845	5.25
225.645	2.25
226.445	5.25
227.245	3.25
228.045	2.25
228.845	3.25
229.645	4.25
230.444	5.25
231.244	4.25
232.043	6.25
232.843	5.25
233.642	4.25
234.442	5.25
235.241	7.25
236.04	4.25
236.839	6.25
237.638	8.25
238.437	6.25
239.236	3.25
240.035	6.25
240.833	8.25
241.632	7.25
242.43	5.25
243.229	9.25
244.027	5.25
244.826	6.25
245.624	8.25
246.422	6.25
247.22	7.25
248.018	7.25
248.816	8.25
249.614	8.25
250.412	10.25
251.21	9.25
252.007	8.25
252.805	8.25
253.602	8.25
254.4	9.25
255.197	10.25
255.994	11.25
256.791	11.25
257.589	9.25
258.386	10.25
259.183	10.25
259.979	14.25
260.776	8.25
261.573	13.25
262.37	16.25
263.166	12.25
263.963	13.25
264.759	14.25
265.556	17.25
266.352	14.25
267.148	16.25
267.944	17.25
268.74	21.25
269.536	19.25
270.332	18.25
271.128	17.25
271.924	18.25
272.719	16.25
273.515	20.25
274.311	21.25
275.106	18.25
275.901	22.25
276.697	23.25
277.492	21.25
278.287	23.25
279.082	21.25
279.877	22.25
280.672	22.25
281.467	23.25
282.262	23.25
283.056	22.25
283.851	25.25
284.646	26.25
285.44	24.25
286.234	23.25
287.029	24.25
287.823	21.25
288.617	23.25
289.411	23.25
290.205	22.25
290.999	25.25
291.793	22.25
292.587	21.25
293.381	23.25
294.174	21.25
294.968	20.25
295.761	19.25
296.555	20.25
297.348	19.25
298.141	21.25
298.935	21.25
299.728	17.25
300.521	19.25
301.314	17.25
302.107	18.25
302.899	14.25
303.692	14.25
304.485	17.25
305.277	17.25
306.07	12.25
306.862	16.25
307.655	16.25
308.447	15.25
309.239	13.25
310.031	16.25
310.823	15.25
311.615	12.25
312.407	11.25
313.199	10.25
313.991	12.25
314.783	9.25
315.574	11.25
316.366	11.25
317.157	12.25
317.949	12.25
318.74	11.25
319.531	12.25
320.322	11.25
321.113	10.25
321.904	10.25
322.695	9.25
323.486	7.25
324.277	9.25
325.068	11.25
325.858	10.25
326.649	7.25
327.439	9.25
328.23	8.25
329.02	8.25
329.81	8.25
330.6	9.25
331.391	10.25
332.181	9.25
332.971	6.25
333.76	8.25
334.55	10.25
335.34	9.25
336.13	10.25
336.919	8.25
337.709	7.25
338.498	8.25
339.287	8.25
340.077	7.25
340.866	8.25
341.655	9.25
342.444	7.25
343.233	10.25
344.022	7.25
344.811	7.25
345.6	8.25
346.388	9.25
347.177	5.25
347.965	8.25
348.754	6.25
349.542	7.25
350.33	10.25
351.119	8.25
351.907	9.25
352.695	6.25
353.483	7.25
354.271	7.25
355.059	4.25
355.846	8.25
356.634	7.25
357.422	6.25
358.209	7.25
358.997	8.25
359.784	10.25
360.571	7.25
361.359	8.25
362.146	8.25
362.933	6.25
363.72	8.25
364.507	9.25
365.294	7.25
366.081	4.25
366.867	7.25
367.654	4.25
368.44	6.25
369.227	6.25
370.013	8.25
370.8	6.25
371.586	5.25
372.372	9.25
373.158	6.25
373.944	5.25
374.73	7.25
375.516	4.25
376.302	9.25
377.088	5.25
377.873	6.25
378.659	7.25
379.445	5.25
380.23	8.25
381.015	7.25
381.801	8.25
382.586	7.25
383.371	6.25
384.156	6.25
384.941	7.25
385.726	7.25
386.511	7.25
387.296	6.25
388.08	7.25
388.865	8.25
389.649	8.25
390.434	7.25
391.218	8.25
392.003	6.25
392.787	8.25
393.571	6.25
394.355	5.25
395.139	10.25
395.923	7.25
396.707	9.25
397.491	10.25
398.274	5.25
399.058	8.25
399.842	11.25
400.625	8.25
401.408	10.25
402.192	9.25
402.975	11.25
403.758	7.25
404.541	11.25
405.324	10.25
406.107	12.25
406.89	9.25
407.673	9.25
408.456	9.25
409.238	9.25
410.021	11.25
410.803	13.25
411.586	13.25
412.368	12.25
413.151	8.25
413.933	10.25
414.715	9.25
415.497	13.25
416.279	12.25
417.061	12.25
417.843	12.25
418.624	12.25
419.406	14.25
420.188	13.25
420.969	10.25
421.751	15.25
422.532	14.25
423.313	16.25
424.095	16.25
424.876	17.25
425.657	14.25
426.438	16.25
427.219	16.25
428	15.25
428.78	16.25
429.561	18.25
430.342	20.25
431.122	21.25
431.903	20.25
432.683	19.25
433.464	23.25
434.244	23.25
435.024	25.25
435.804	25.25
436.584	25.25
437.364	28.25
438.144	34.25
438.924	30.25
439.704	36.25
440.483	34.25
441.263	33.25
442.042	40.25
442.822	38.25
443.601	46.25
444.38	45.25
445.16	50.25
445.939	57.25
446.718	59.25
447.497	64.25
448.276	66.25
449.054	78.25
449.833	83.25
450.612	94.25
451.391	104.25
452.169	111.25
452.948	122.25
453.726	135.25
454.504	146.25
455.282	163.25
456.061	184.25
456.839	206.25
457.617	229.25
458.395	255.25
459.172	280.25
459.95	315.25
460.728	354.25
461.506	388.25
462.283	434.25
463.061	480.25
463.838	534.25
464.615	590.25
465.393	665.25
466.17	731.25
466.947	814.25
467.724	894.25
468.501	998.25
469.278	1100.25
470.055	1213.25
470.831	1333.25
471.608	1485.25
472.385	1634.25
473.161	1784.25
473.938	1967.25
474.714	2168.25
475.49	2383.25
476.266	2595.25
477.043	2851.25
477.819	3127.25
478.595	3410.25
479.371	3710.25
480.146	4060.25
480.922	4411.25
481.698	4824.25
482.473	5256.25
483.249	5737.25
484.024	6217.25
484.8	6807.25
485.575	7335.25
486.35	7946.25
487.126	8682.25
487.901	9344.25
488.676	10171.25
489.451	11001.25
490.225	11860.25
491	12840.25
491.775	13845.25
492.55	14884.25
493.324	16016.25
494.099	17054.25
494.873	18177.25
495.647	19450.25
496.422	20713.25
497.196	21922.25
497.97	23250.25
498.744	24501.25
499.518	25742.25
500.292	26849.25
501.066	27956.25
501.839	29130.25
502.613	30148.25
503.387	30855.25
504.16	31637.25
504.934	32109.25
505.707	32322.25
506.48	32544.25
507.253	32601.25
508.027	32469.25
508.8	32258.25
509.573	31853.25
510.346	31261.25
511.118	30614.25
511.891	29926.25
512.664	29010.25
513.437	28069.25
514.209	27080.25
514.982	26188.25
515.754	25275.25
516.526	24199.25
517.298	23241.25
518.071	22369.25
518.843	21432.25
519.615	20619.25
520.387	19775.25
521.159	19054.25
521.93	18411.25
522.702	17560.25
523.474	16919.25
524.245	16250.25
525.017	15533.25
525.788	14831.25
526.56	14256.25
527.331	13560.25
528.102	12979.25
528.873	12415.25
529.644	11787.25
530.415	11330.25
531.186	10783.25
531.957	10256.25
532.728	9809.25
533.498	9235.25
534.269	8750.25
535.039	8329.25
535.81	7883.25
536.58	7422.25
537.351	7040.25
538.121	6661.25
538.891	6288.25
539.661	5976.25
540.431	5670.25
541.201	5356.25
541.971	5092.25
542.741	4835.25
543.51	4580.25
544.28	4338.25
545.05	4134.25
545.819	3940.25
546.588	3755.25
547.358	3561.25
548.127	3369.25
548.896	3215.25
549.665	3051.25
550.434	2920.25
551.203	2752.25
551.972	2605.25
552.741	2471.25
553.51	2341.25
554.278	2202.25
555.047	2072.25
555.815	1972.25
556.584	1867.25
557.352	1757.25
558.121	1667.25
558.889	1564.25
559.657	1485.25
560.425	1395.25
561.193	1330.25
561.961	1252.25
562.729	1186.25
563.496	1139.25
564.264	1060.25
565.032	998.25
565.799	957.25
566.567	908.25
567.334	851.25
568.101	807.25
568.869	761.25
569.636	714.25
570.403	673.25
571.17	630.25
571.937	604.25
572.704	567.25
573.471	538.25
574.237	501.25
575.004	472.25
575.771	448.25
576.537	413.25
577.303	402.25
578.07	375.25
578.836	350.25
579.602	331.25
580.368	323.25
581.134	299.25
581.9	289.25
582.666	277.25
583.432	263.25
584.198	246.25
584.964	231.25
585.729	220.25
586.495	206.25
587.26	194.25
588.025	192.25
588.791	175.25
589.556	166.25
590.321	160.25
591.086	152.25
591.851	143.25
592.616	135.25
593.381	130.25
594.146	122.25
594.911	122.25
595.675	112.25
596.44	107.25
597.204	98.25
597.969	96.25
598.733	90.25
599.497	87.25
600.261	85.25
601.025	80.25
601.79	78.25
602.553	74.25
603.317	71.25
604.081	66.25
604.845	63.25
605.609	57.25
606.372	60.25
607.136	60.25
607.899	58.25
608.662	53.25
609.426	50.25
610.189	50.25
610.952	48.25
611.715	45.25
612.478	47.25
613.241	45.25
614.004	38.25
614.767	41.25
615.529	36.25
616.292	37.25
617.055	32.25
617.817	34.25
618.579	36.25
619.342	30.25
620.104	30.25
620.866	29.25
621.628	30.25
622.39	30.25
623.152	25.25
623.914	25.25
624.676	26.25
625.438	25.25
626.199	23.25
626.961	22.25
627.722	22.25
628.484	20.25
629.245	20.25
630.006	20.25
630.768	18.25
631.529	19.25
632.29	17.25
633.051	17.25
633.812	15.25
634.573	19.25
635.333	17.25
636.094	16.25
636.855	14.25
637.615	14.25
638.376	15.25
639.136	14.25
639.896	13.25
640.657	14.25
641.417	12.25
642.177	12.25
642.937	13.25
643.697	13.25
644.457	13.25
645.216	10.25
645.976	10.25
646.736	10.25
647.495	10.25
648.255	11.25
649.014	12.25
649.774	12.25
650.533	10.25
651.292	9.25
652.051	8.25
652.81	10.25
653.569	7.25
654.328	8.25
655.087	10.25
655.846	9.25
656.604	8.25
657.363	8.25
658.121	8.25
658.88	8.25
659.638	8.25
660.397	10.25
661.155	7.25
661.913	6.25
662.671	5.25
663.429	4.25
664.187	7.25
664.945	6.25
665.703	8.25
666.46	6.25
667.218	5.25
667.976	9.25
668.733	6.25
669.49	8.25
670.248	4.25
671.005	7.25
671.762	4.25
672.519	6.25
673.276	8.25
674.033	4.25
674.79	5.25
675.547	4.25
676.304	5.25
677.06	6.25
677.817	5.25
678.574	8.25
679.33	3.25
680.086	5.25
680.843	5.25
681.599	8.25
682.355	8.25
683.111	4.25
683.867	7.25
684.623	7.25
685.379	5.25
686.135	7.25
686.89	7.25
687.646	6.25
688.402	6.25
689.157	2.25
689.912	3.25
690.668	5.25
691.423	2.25
692.178	5.25
692.933	4.25
693.688	3.25
694.443	4.25
695.198	7.25
695.953	5.25
696.708	5.25
697.462	2.25
698.217	5.25
698.972	4.25
699.726	6.25
700.48	5.25
701.235	5.25
701.989	6.25
702.743	7.25
703.497	4.25
704.251	5.25
705.005	3.25
705.759	4.25
706.513	3.25
707.266	5.25
708.02	3.25
708.774	6.25
709.527	5.25
710.28	5.25
711.034	2.25
711.787	4.25
712.54	5.25
713.293	4.25
714.046	5.25
714.799	5.25
715.552	3.25
716.305	4.25
717.058	4.25
717.81	5.25
718.563	4.25
719.315	6.25
720.068	7.25
720.82	4.25
721.573	6.25
722.325	5.25
723.077	4.25
723.829	4.25
724.581	5.25
725.333	4.25
726.085	3.25
726.836	6.25
727.588	6.25
728.34	7.25
729.091	5.25
729.843	4.25
730.594	4.25
731.346	7.25
732.097	5.25
732.848	6.25
733.599	4.25
734.35	4.25
735.101	4.25
735.852	5.25
736.603	4.25
737.354	5.25
738.104	5.25
738.855	4.25
739.605	5.25
740.356	4.25
741.106	6.25
741.856	5.25
742.607	6.25
743.357	7.25
744.107	5.25
744.857	5.25
745.607	4.25
746.357	6.25
747.106	4.25
747.856	5.25
748.606	7.25
749.355	5.25
750.105	6.25
750.854	5.25
751.603	7.25
752.353	8.25
753.102	7.25
753.851	5.25
754.6	6.25
755.349	7.25
756.098	9.25
756.847	9.25
757.595	7.25
758.344	6.25
759.093	8.25
759.841	8.25
760.589	8.25
761.338	10.25
762.086	6.25
762.834	9.25
763.582	8.25
764.331	11.25
765.079	9.25
765.826	8.25
766.574	9.25
767.322	7.25
768.07	8.25
768.817	9.25
769.565	7.25
770.312	10.25
771.06	8.25
771.807	10.25
772.554	9.25
773.302	11.25
774.049	9.25
774.796	7.25
775.543	9.25
776.29	9.25
777.036	11.25
777.783	10.25
778.53	10.25
779.276	9.25
780.023	9.25
780.769	10.25
781.516	14.25
782.262	8.25
783.008	11.25
783.754	11.25
784.5	8.25
785.246	10.25
785.992	12.25
786.738	9.25
787.484	12.25
788.23	8.25
788.975	10.25
789.721	9.25
790.466	10.25
791.212	9.25
791.957	10.25
792.702	10.25
793.447	9.25
794.193	10.25
794.938	9.25
795.683	10.25
796.427	10.25
797.172	9.25
797.917	7.25
798.662	10.25
799.406	8.25
800.151	10.25
800.895	6.25
801.64	8.25
802.384	9.25
803.128	8.25
803.872	6.25
804.616	7.25
805.36	8.25
806.104	7.25
806.848	8.25
807.592	7.25
808.336	8.25
809.079	10.25
809.823	8.25
810.566	6.25
811.31	7.25
812.053	7.25
812.796	6.25
813.539	5.25
814.283	7.25
815.026	6.25
815.769	6.25
816.511	5.25
817.254	5.25
817.997	9.25
818.74	5.25
819.482	4.25
820.225	4.25
820.967	4.25
821.71	6.25
822.452	4.25
823.194	5.25
823.936	7.25
824.678	4.25
825.42	8.25
826.162	5.25
826.904	5.25
827.646	5.25
828.388	6.25
829.129	4.25
829.871	6.25
830.612	4.25
831.354	3.25
832.095	6.25
832.836	5.25
833.577	2.25
834.319	4.25
835.06	4.25
835.801	2.25
836.542	6.25
837.282	6.25
838.023	5.25
838.764	4.25
839.504	7.25
840.245	4.25
840.985	6.25
841.726	3.25
842.466	3.25
843.206	3.25
843.946	5.25
844.687	5.25
845.427	4.25
846.166	5.25
846.906	4.25
847.646	3.25
848.386	7.25
849.125	3.25
849.865	5.25
850.605	5.25
851.344	2.25
852.083	4.25
852.823	2.25
853.562	3.25
854.301	3.25
855.04	3.25
855.779	3.25
856.518	2.25
857.257	2.25
857.995	4.25
858.734	2.25
859.473	3.25
860.211	2.25
860.95	6.25
861.688	2.25
862.426	3.25
863.165	3.25
863.903	3.25
864.641	1.25
865.379	5.25
866.117	1.25
866.855	1.25
867.593	2.25
868.33	2.25
869.068	-0.75
869.806	2.25
870.543	2.25
871.28	4.25
872.018	2.25
872.755	0.25
873.492	-0.75
874.229	1.25
874.967	4.25
875.703	1.25
876.44	0.25
877.177	1.25
877.914	0.25
878.651	2.25
879.387	1.25
880.124	2.25
880.86	1.25
881.597	1.25
882.333	3.25
883.069	0.25
883.806	2.25
884.542	0.25
885.278	0.25
886.014	2.25
886.749	-1.75
887.485	3.25
888.221	-0.75
888.957	0.25
889.692	1.25
890.428	1.25
891.163	2.25
891.899	2.25
892.634	0.25
893.369	2.25
894.104	1.25
894.839	2.25
895.574	1.25
896.309	1.25
897.044	1.25
897.779	1.25
898.514	3.25
899.248	0.25
899.983	0.25
900.717	0.25
901.452	1.25
902.186	1.25
902.92	0.25
903.654	-0.75
904.389	0.25
905.123	1.25
905.857	1.25
906.59	3.25
907.324	0.25
908.058	2.25
908.792	1.25
909.525	0.25
910.259	0.25
910.992	-1.75
911.726	2.25
912.459	2.25
913.192	0.25
913.925	-0.75
914.658	-0.75
915.391	0.25
916.124	-0.75
916.857	-0.75
917.59	2.25
918.323	1.25
919.055	0.25
919.788	-1.75
920.521	1.25
921.253	-0.75
921.985	0.25
922.718	2.25
923.45	1.25
924.182	-0.75
924.914	2.25
925.646	2.25
926.378	-0.75
927.11	0.25
927.841	0.25
928.573	-0.75
929.305	3.25
930.036	-0.75
930.768	-0.75
931.499	1.25
932.23	-1.75
932.962	2.25
933.693	0.25
934.424	0.25
935.155	2.25
935.886	1.25
936.617	0.25
937.348	0.25
938.078	0.25
938.809	1.25
939.54	0.25
940.27	0.25
941.001	-3.75
941.731	-0.75
942.461	-0.75
943.191	1.25
943.922	0.25
944.652	-0.75
945.382	1.25
946.112	-1.75
946.841	-1.75
947.571	0.25
948.301	-0.75
949.031	0.25
949.76	0.25
950.49	0.25
951.219	1.25
951.948	0.25
952.678	2.25
953.407	-0.75
954.136	1.25
954.865	-0.75
955.594	-0.75
956.323	1.25
957.052	-1.75
957.78	0.25
958.509	0.25
959.238	1.25
959.966	0.25
960.695	0.25
961.423	0.25
962.151	0.25
962.88	-0.75
963.608	0.25
964.336	1.25
965.064	-0.75
965.792	0.25
966.52	0.25
967.247	-0.75
967.975	3.25
968.703	-1.75
969.43	0.25
970.158	3.25
970.885	-0.75
971.613	1.25
972.34	1.25
973.067	2.25
973.794	1.25
974.521	0.25
975.248	0.25
975.975	-1.75
976.702	1.25
977.429	-0.75
978.156	1.25
978.882	-1.75
979.609	1.25
980.335	0.25
981.062	-0.75
981.788	1.25
982.514	-0.75
983.24	1.25
983.967	-0.75
984.693	0.25
985.419	2.25
986.144	0.25
986.87	-1.75
987.596	1.25
988.322	0.25
989.047	2.25
989.773	-1.75
990.498	1.25
991.224	3.25
991.949	1.25
992.674	0.25
993.399	2.25
994.124	1.25
994.849	0.25
995.574	1.25
996.299	0.25
997.024	1.25
997.749	-1.75
998.473	0.25
999.198	1.25
999.922	1.25
1000.647	-2.75
1001.371	2.25
1002.095	-1.75
1002.82	-0.75
1003.544	-0.75
1004.268	4.25
1004.992	3.25
1005.716	0.25
1006.439	2.25
1007.163	5.25
1007.887	5.25
1008.611	-0.75
1009.334	0.25
1010.058	2.25
1010.781	0.25
1011.504	0.25
1012.228	-1.75
1012.951	0.25
1013.674	-0.75
1014.397	1.25
1015.12	0.25
