节点500_425_QEPB04081__525__15-57-02-556.txt的数据

Date: Wed Nov 12 15:57:02 CST 2025
User: PC
Spectrometer: QEPB0408
触发模式: 0
积分时间 (秒): 1.000000E-2
Scans to average: 1
启用暗噪声校正: true
启用非线性校正: false
滑动平均宽度: 0
X轴模式: Wavelengths
Number of Pixels in Spectrum: 1044
>>>>>Begin Spectral Data<<<<<
220.843	2.62
221.644	3.62
222.444	3.62
223.244	2.62
224.045	3.62
224.845	2.62
225.645	3.62
226.445	2.62
227.245	5.62
228.045	5.62
228.845	5.62
229.645	5.62
230.444	2.62
231.244	5.62
232.043	5.62
232.843	4.62
233.642	4.62
234.442	1.62
235.241	4.62
236.04	5.62
236.839	7.62
237.638	6.62
238.437	5.62
239.236	4.62
240.035	7.62
240.833	6.62
241.632	9.62
242.43	5.62
243.229	7.62
244.027	6.62
244.826	9.62
245.624	9.62
246.422	8.62
247.22	8.62
248.018	7.62
248.816	10.62
249.614	5.62
250.412	8.62
251.21	10.62
252.007	9.62
252.805	9.62
253.602	8.62
254.4	9.62
255.197	12.62
255.994	12.62
256.791	12.62
257.589	11.62
258.386	11.62
259.183	13.62
259.979	13.62
260.776	14.62
261.573	12.62
262.37	13.62
263.166	15.62
263.963	12.62
264.759	12.62
265.556	16.62
266.352	14.62
267.148	14.62
267.944	16.62
268.74	18.62
269.536	17.62
270.332	18.62
271.128	17.62
271.924	17.62
272.719	21.62
273.515	18.62
274.311	21.62
275.106	23.62
275.901	20.62
276.697	22.62
277.492	23.62
278.287	20.62
279.082	23.62
279.877	20.62
280.672	21.62
281.467	23.62
282.262	22.62
283.056	24.62
283.851	22.62
284.646	21.62
285.44	24.62
286.234	21.62
287.029	24.62
287.823	22.62
288.617	23.62
289.411	21.62
290.205	22.62
290.999	24.62
291.793	21.62
292.587	22.62
293.381	22.62
294.174	23.62
294.968	19.62
295.761	20.62
296.555	20.62
297.348	17.62
298.141	19.62
298.935	23.62
299.728	18.62
300.521	18.62
301.314	17.62
302.107	18.62
302.899	16.62
303.692	19.62
304.485	14.62
305.277	16.62
306.07	18.62
306.862	14.62
307.655	16.62
308.447	14.62
309.239	15.62
310.031	14.62
310.823	13.62
311.615	13.62
312.407	15.62
313.199	13.62
313.991	12.62
314.783	13.62
315.574	13.62
316.366	12.62
317.157	13.62
317.949	12.62
318.74	10.62
319.531	8.62
320.322	10.62
321.113	12.62
321.904	9.62
322.695	9.62
323.486	9.62
324.277	9.62
325.068	11.62
325.858	8.62
326.649	9.62
327.439	7.62
328.23	9.62
329.02	7.62
329.81	10.62
330.6	9.62
331.391	8.62
332.181	8.62
332.971	8.62
333.76	7.62
334.55	8.62
335.34	6.62
336.13	9.62
336.919	7.62
337.709	5.62
338.498	10.62
339.287	10.62
340.077	9.62
340.866	6.62
341.655	7.62
342.444	9.62
343.233	8.62
344.022	8.62
344.811	7.62
345.6	11.62
346.388	5.62
347.177	7.62
347.965	8.62
348.754	6.62
349.542	9.62
350.33	9.62
351.119	9.62
351.907	7.62
352.695	7.62
353.483	9.62
354.271	6.62
355.059	8.62
355.846	7.62
356.634	7.62
357.422	8.62
358.209	7.62
358.997	9.62
359.784	9.62
360.571	7.62
361.359	9.62
362.146	6.62
362.933	6.62
363.72	6.62
364.507	8.62
365.294	9.62
366.081	5.62
366.867	6.62
367.654	4.62
368.44	5.62
369.227	5.62
370.013	6.62
370.8	7.62
371.586	7.62
372.372	6.62
373.158	7.62
373.944	5.62
374.73	6.62
375.516	6.62
376.302	7.62
377.088	5.62
377.873	8.62
378.659	7.62
379.445	6.62
380.23	7.62
381.015	7.62
381.801	6.62
382.586	7.62
383.371	7.62
384.156	7.62
384.941	7.62
385.726	7.62
386.511	5.62
387.296	8.62
388.08	6.62
388.865	6.62
389.649	8.62
390.434	6.62
391.218	9.62
392.003	6.62
392.787	7.62
393.571	8.62
394.355	7.62
395.139	7.62
395.923	8.62
396.707	5.62
397.491	9.62
398.274	11.62
399.058	8.62
399.842	9.62
400.625	9.62
401.408	8.62
402.192	9.62
402.975	11.62
403.758	10.62
404.541	10.62
405.324	11.62
406.107	10.62
406.89	7.62
407.673	11.62
408.456	12.62
409.238	12.62
410.021	9.62
410.803	10.62
411.586	11.62
412.368	12.62
413.151	12.62
413.933	11.62
414.715	9.62
415.497	13.62
416.279	11.62
417.061	12.62
417.843	13.62
418.624	13.62
419.406	12.62
420.188	12.62
420.969	14.62
421.751	13.62
422.532	14.62
423.313	16.62
424.095	17.62
424.876	16.62
425.657	17.62
426.438	14.62
427.219	15.62
428	19.62
428.78	16.62
429.561	16.62
430.342	19.62
431.122	20.62
431.903	19.62
432.683	21.62
433.464	22.62
434.244	23.62
435.024	23.62
435.804	21.62
436.584	25.62
437.364	25.62
438.144	27.62
438.924	31.62
439.704	32.62
440.483	32.62
441.263	37.62
442.042	40.62
442.822	40.62
443.601	46.62
444.38	49.62
445.16	52.62
445.939	54.62
446.718	59.62
447.497	65.62
448.276	68.62
449.054	76.62
449.833	83.62
450.612	95.62
451.391	102.62
452.169	107.62
452.948	119.62
453.726	129.62
454.504	150.62
455.282	162.62
456.061	183.62
456.839	202.62
457.617	230.62
458.395	252.62
459.172	278.62
459.95	314.62
460.728	344.62
461.506	384.62
462.283	434.62
463.061	474.62
463.838	540.62
464.615	592.62
465.393	658.62
466.17	729.62
466.947	800.62
467.724	900.62
468.501	1002.62
469.278	1087.62
470.055	1217.62
470.831	1339.62
471.608	1474.62
472.385	1617.62
473.161	1790.62
473.938	1971.62
474.714	2152.62
475.49	2374.62
476.266	2592.62
477.043	2869.62
477.819	3123.62
478.595	3432.62
479.371	3743.62
480.146	4063.62
480.922	4446.62
481.698	4849.62
482.473	5279.62
483.249	5771.62
484.024	6264.62
484.8	6833.62
485.575	7412.62
486.35	8041.62
487.126	8709.62
487.901	9445.62
488.676	10250.62
489.451	11101.62
490.225	12025.62
491	12996.62
491.775	14021.62
492.55	15076.62
493.324	16237.62
494.099	17318.62
494.873	18446.62
495.647	19720.62
496.422	20969.62
497.196	22216.62
497.97	23601.62
498.744	24876.62
499.518	26146.62
500.292	27297.62
501.066	28393.62
501.839	29488.62
502.613	30462.62
503.387	31226.62
504.16	31881.62
504.934	32402.62
505.707	32679.62
506.48	32843.62
507.253	32816.62
508.027	32705.62
508.8	32445.62
509.573	31998.62
510.346	31401.62
511.118	30660.62
511.891	29970.62
512.664	29055.62
513.437	28086.62
514.209	27127.62
514.982	26212.62
515.754	25202.62
516.526	24179.62
517.298	23241.62
518.071	22341.62
518.843	21359.62
519.615	20537.62
520.387	19722.62
521.159	19010.62
521.93	18321.62
522.702	17534.62
523.474	16879.62
524.245	16202.62
525.017	15498.62
525.788	14796.62
526.56	14142.62
527.331	13522.62
528.102	12962.62
528.873	12354.62
529.644	11769.62
530.415	11225.62
531.186	10748.62
531.957	10247.62
532.728	9701.62
533.498	9220.62
534.269	8726.62
535.039	8241.62
535.81	7824.62
536.58	7409.62
537.351	6980.62
538.121	6599.62
538.891	6247.62
539.661	5938.62
540.431	5614.62
541.201	5336.62
541.971	5062.62
542.741	4786.62
543.51	4530.62
544.28	4277.62
545.05	4117.62
545.819	3922.62
546.588	3723.62
547.358	3521.62
548.127	3362.62
548.896	3184.62
549.665	3014.62
550.434	2869.62
551.203	2737.62
551.972	2582.62
552.741	2426.62
553.51	2326.62
554.278	2189.62
555.047	2071.62
555.815	1939.62
556.584	1854.62
557.352	1756.62
558.121	1651.62
558.889	1552.62
559.657	1483.62
560.425	1369.62
561.193	1311.62
561.961	1259.62
562.729	1184.62
563.496	1119.62
564.264	1048.62
565.032	989.62
565.799	934.62
566.567	895.62
567.334	848.62
568.101	789.62
568.869	736.62
569.636	706.62
570.403	673.62
571.17	624.62
571.937	590.62
572.704	559.62
573.471	531.62
574.237	490.62
575.004	469.62
575.771	439.62
576.537	412.62
577.303	392.62
578.07	383.62
578.836	346.62
579.602	331.62
580.368	314.62
581.134	298.62
581.9	280.62
582.666	266.62
583.432	257.62
584.198	243.62
584.964	228.62
585.729	218.62
586.495	213.62
587.26	190.62
588.025	184.62
588.791	175.62
589.556	164.62
590.321	156.62
591.086	151.62
591.851	139.62
592.616	135.62
593.381	131.62
594.146	120.62
594.911	115.62
595.675	108.62
596.44	104.62
597.204	99.62
597.969	96.62
598.733	91.62
599.497	88.62
600.261	84.62
601.025	79.62
601.79	80.62
602.553	71.62
603.317	70.62
604.081	67.62
604.845	70.62
605.609	64.62
606.372	57.62
607.136	57.62
607.899	53.62
608.662	50.62
609.426	53.62
610.189	48.62
610.952	49.62
611.715	43.62
612.478	41.62
613.241	42.62
614.004	37.62
614.767	38.62
615.529	34.62
616.292	34.62
617.055	32.62
617.817	35.62
618.579	35.62
619.342	28.62
620.104	31.62
620.866	30.62
621.628	29.62
622.39	28.62
623.152	26.62
623.914	25.62
624.676	26.62
625.438	24.62
626.199	22.62
626.961	23.62
627.722	23.62
628.484	20.62
629.245	21.62
630.006	20.62
630.768	21.62
631.529	18.62
632.29	18.62
633.051	16.62
633.812	16.62
634.573	18.62
635.333	17.62
636.094	15.62
636.855	14.62
637.615	14.62
638.376	14.62
639.136	14.62
639.896	14.62
640.657	14.62
641.417	15.62
642.177	14.62
642.937	11.62
643.697	12.62
644.457	11.62
645.216	11.62
645.976	12.62
646.736	12.62
647.495	10.62
648.255	10.62
649.014	12.62
649.774	7.62
650.533	10.62
651.292	9.62
652.051	10.62
652.81	8.62
653.569	7.62
654.328	8.62
655.087	7.62
655.846	9.62
656.604	10.62
657.363	8.62
658.121	6.62
658.88	8.62
659.638	7.62
660.397	6.62
661.155	5.62
661.913	10.62
662.671	10.62
663.429	9.62
664.187	7.62
664.945	10.62
665.703	7.62
666.46	7.62
667.218	8.62
667.976	5.62
668.733	8.62
669.49	7.62
670.248	9.62
671.005	8.62
671.762	5.62
672.519	6.62
673.276	3.62
674.033	5.62
674.79	5.62
675.547	5.62
676.304	6.62
677.06	5.62
677.817	4.62
678.574	5.62
679.33	3.62
680.086	4.62
680.843	4.62
681.599	5.62
682.355	8.62
683.111	5.62
683.867	6.62
684.623	5.62
685.379	6.62
686.135	6.62
686.89	5.62
687.646	7.62
688.402	5.62
689.157	2.62
689.912	6.62
690.668	2.62
691.423	3.62
692.178	7.62
692.933	4.62
693.688	4.62
694.443	5.62
695.198	3.62
695.953	2.62
696.708	4.62
697.462	6.62
698.217	5.62
698.972	4.62
699.726	6.62
700.48	4.62
701.235	6.62
701.989	5.62
702.743	5.62
703.497	2.62
704.251	5.62
705.005	2.62
705.759	7.62
706.513	5.62
707.266	4.62
708.02	5.62
708.774	3.62
709.527	4.62
710.28	4.62
711.034	4.62
711.787	3.62
712.54	6.62
713.293	4.62
714.046	6.62
714.799	3.62
715.552	7.62
716.305	6.62
717.058	4.62
717.81	4.62
718.563	4.62
719.315	2.62
720.068	3.62
720.82	5.62
721.573	4.62
722.325	4.62
723.077	4.62
723.829	6.62
724.581	6.62
725.333	4.62
726.085	7.62
726.836	2.62
727.588	4.62
728.34	5.62
729.091	6.62
729.843	5.62
730.594	6.62
731.346	4.62
732.097	5.62
732.848	6.62
733.599	6.62
734.35	8.62
735.101	4.62
735.852	6.62
736.603	6.62
737.354	6.62
738.104	6.62
738.855	7.62
739.605	7.62
740.356	4.62
741.106	5.62
741.856	8.62
742.607	7.62
743.357	5.62
744.107	6.62
744.857	7.62
745.607	7.62
746.357	10.62
747.106	5.62
747.856	4.62
748.606	9.62
749.355	6.62
750.105	7.62
750.854	6.62
751.603	6.62
752.353	4.62
753.102	6.62
753.851	11.62
754.6	4.62
755.349	9.62
756.098	6.62
756.847	9.62
757.595	7.62
758.344	7.62
759.093	7.62
759.841	5.62
760.589	10.62
761.338	9.62
762.086	8.62
762.834	9.62
763.582	10.62
764.331	9.62
765.079	6.62
765.826	8.62
766.574	7.62
767.322	8.62
768.07	10.62
768.817	9.62
769.565	11.62
770.312	10.62
771.06	9.62
771.807	11.62
772.554	8.62
773.302	12.62
774.049	11.62
774.796	10.62
775.543	10.62
776.29	11.62
777.036	10.62
777.783	11.62
778.53	11.62
779.276	11.62
780.023	10.62
780.769	11.62
781.516	10.62
782.262	9.62
783.008	8.62
783.754	10.62
784.5	10.62
785.246	9.62
785.992	12.62
786.738	7.62
787.484	10.62
788.23	9.62
788.975	10.62
789.721	10.62
790.466	8.62
791.212	12.62
791.957	10.62
792.702	9.62
793.447	10.62
794.193	11.62
794.938	10.62
795.683	10.62
796.427	6.62
797.172	9.62
797.917	7.62
798.662	6.62
799.406	9.62
800.151	10.62
800.895	8.62
801.64	9.62
802.384	9.62
803.128	8.62
803.872	6.62
804.616	8.62
805.36	6.62
806.104	8.62
806.848	7.62
807.592	10.62
808.336	7.62
809.079	8.62
809.823	6.62
810.566	6.62
811.31	8.62
812.053	11.62
812.796	7.62
813.539	6.62
814.283	5.62
815.026	5.62
815.769	8.62
816.511	6.62
817.254	6.62
817.997	6.62
818.74	4.62
819.482	6.62
820.225	5.62
820.967	2.62
821.71	5.62
822.452	6.62
823.194	4.62
823.936	6.62
824.678	4.62
825.42	4.62
826.162	3.62
826.904	5.62
827.646	4.62
828.388	4.62
829.129	2.62
829.871	5.62
830.612	7.62
831.354	1.62
832.095	3.62
832.836	7.62
833.577	4.62
834.319	4.62
835.06	5.62
835.801	2.62
836.542	4.62
837.282	4.62
838.023	5.62
838.764	3.62
839.504	7.62
840.245	2.62
840.985	5.62
841.726	3.62
842.466	2.62
843.206	4.62
843.946	0.62
844.687	2.62
845.427	2.62
846.166	5.62
846.906	4.62
847.646	2.62
848.386	4.62
849.125	2.62
849.865	6.62
850.605	2.62
851.344	2.62
852.083	3.62
852.823	1.62
853.562	4.62
854.301	2.62
855.04	2.62
855.779	1.62
856.518	4.62
857.257	2.62
857.995	2.62
858.734	2.62
859.473	4.62
860.211	2.62
860.95	3.62
861.688	2.62
862.426	3.62
863.165	3.62
863.903	3.62
864.641	5.62
865.379	1.62
866.117	2.62
866.855	1.62
867.593	4.62
868.33	1.62
869.068	2.62
869.806	1.62
870.543	2.62
871.28	2.62
872.018	1.62
872.755	2.62
873.492	1.62
874.229	2.62
874.967	1.62
875.703	1.62
876.44	4.62
877.177	1.62
877.914	3.62
878.651	1.62
879.387	0.62
880.124	2.62
880.86	-0.38
881.597	2.62
882.333	2.62
883.069	3.62
883.806	1.62
884.542	2.62
885.278	3.62
886.014	0.62
886.749	2.62
887.485	3.62
888.221	1.62
888.957	2.62
889.692	1.62
890.428	0.62
891.163	-1.38
891.899	3.62
892.634	0.62
893.369	0.62
894.104	1.62
894.839	0.62
895.574	-0.38
896.309	0.62
897.044	2.62
897.779	0.62
898.514	0.62
899.248	2.62
899.983	-1.38
900.717	3.62
901.452	-0.38
902.186	-0.38
902.92	0.62
903.654	2.62
904.389	1.62
905.123	-0.38
905.857	0.62
906.59	0.62
907.324	0.62
908.058	1.62
908.792	1.62
909.525	1.62
910.259	-0.38
910.992	-1.38
911.726	0.62
912.459	-0.38
913.192	0.62
913.925	2.62
914.658	1.62
915.391	0.62
916.124	1.62
916.857	0.62
917.59	0.62
918.323	-1.38
919.055	-1.38
919.788	-0.38
920.521	1.62
921.253	0.62
921.985	-0.38
922.718	0.62
923.45	-0.38
924.182	0.62
924.914	0.62
925.646	2.62
926.378	0.62
927.11	2.62
927.841	1.62
928.573	0.62
929.305	0.62
930.036	4.62
930.768	-0.38
931.499	0.62
932.23	1.62
932.962	1.62
933.693	2.62
934.424	-0.38
935.155	-0.38
935.886	1.62
936.617	1.62
937.348	0.62
938.078	0.62
938.809	2.62
939.54	-0.38
940.27	2.62
941.001	0.62
941.731	1.62
942.461	-1.38
943.191	-0.38
943.922	0.62
944.652	-0.38
945.382	0.62
946.112	1.62
946.841	1.62
947.571	0.62
948.301	1.62
949.031	-2.38
949.76	-2.38
950.49	1.62
951.219	0.62
951.948	-0.38
952.678	-0.38
953.407	1.62
954.136	0.62
954.865	-1.38
955.594	1.62
956.323	1.62
957.052	-0.38
957.78	2.62
958.509	0.62
959.238	1.62
959.966	1.62
960.695	-0.38
961.423	0.62
962.151	2.62
962.88	-0.38
963.608	-0.38
964.336	0.62
965.064	0.62
965.792	1.62
966.52	0.62
967.247	-0.38
967.975	0.62
968.703	0.62
969.43	0.62
970.158	0.62
970.885	0.62
971.613	-0.38
972.34	-0.38
973.067	1.62
973.794	0.62
974.521	4.62
975.248	1.62
975.975	0.62
976.702	-1.38
977.429	0.62
978.156	2.62
978.882	0.62
979.609	0.62
980.335	0.62
981.062	-0.38
981.788	0.62
982.514	0.62
983.24	0.62
983.967	1.62
984.693	0.62
985.419	1.62
986.144	0.62
986.87	1.62
987.596	-0.38
988.322	1.62
989.047	1.62
989.773	1.62
990.498	1.62
991.224	0.62
991.949	0.62
992.674	0.62
993.399	1.62
994.124	2.62
994.849	0.62
995.574	2.62
996.299	-0.38
997.024	2.62
997.749	0.62
998.473	0.62
999.198	0.62
999.922	0.62
1000.647	-0.38
1001.371	3.62
1002.095	0.62
1002.82	-3.38
1003.544	-2.38
1004.268	4.62
1004.992	2.62
1005.716	2.62
1006.439	2.62
1007.163	3.62
1007.887	3.62
1008.611	1.62
1009.334	0.62
1010.058	0.62
1010.781	0.62
1011.504	2.62
1012.228	0.62
1012.951	0.62
1013.674	-1.38
1014.397	-0.38
1015.12	2.62
