节点500_425_QEPB04081__475__15-56-12-574.txt的数据

Date: Wed Nov 12 15:56:12 CST 2025
User: PC
Spectrometer: QEPB0408
触发模式: 0
积分时间 (秒): 1.000000E-2
Scans to average: 1
启用暗噪声校正: true
启用非线性校正: false
滑动平均宽度: 0
X轴模式: Wavelengths
Number of Pixels in Spectrum: 1044
>>>>>Begin Spectral Data<<<<<
220.843	0.5
221.644	3.5
222.444	0.5
223.244	4.5
224.045	2.5
224.845	2.5
225.645	4.5
226.445	4.5
227.245	2.5
228.045	3.5
228.845	3.5
229.645	5.5
230.444	3.5
231.244	3.5
232.043	3.5
232.843	4.5
233.642	7.5
234.442	5.5
235.241	7.5
236.04	5.5
236.839	5.5
237.638	6.5
238.437	4.5
239.236	7.5
240.035	5.5
240.833	6.5
241.632	5.5
242.43	7.5
243.229	7.5
244.027	5.5
244.826	8.5
245.624	7.5
246.422	9.5
247.22	5.5
248.018	9.5
248.816	9.5
249.614	6.5
250.412	10.5
251.21	7.5
252.007	8.5
252.805	11.5
253.602	10.5
254.4	12.5
255.197	10.5
255.994	12.5
256.791	9.5
257.589	12.5
258.386	11.5
259.183	12.5
259.979	12.5
260.776	12.5
261.573	14.5
262.37	14.5
263.166	16.5
263.963	14.5
264.759	13.5
265.556	15.5
266.352	15.5
267.148	16.5
267.944	17.5
268.74	18.5
269.536	18.5
270.332	18.5
271.128	18.5
271.924	18.5
272.719	18.5
273.515	21.5
274.311	21.5
275.106	21.5
275.901	22.5
276.697	21.5
277.492	22.5
278.287	26.5
279.082	21.5
279.877	22.5
280.672	25.5
281.467	22.5
282.262	22.5
283.056	24.5
283.851	22.5
284.646	25.5
285.44	21.5
286.234	21.5
287.029	27.5
287.823	22.5
288.617	25.5
289.411	20.5
290.205	24.5
290.999	22.5
291.793	23.5
292.587	22.5
293.381	21.5
294.174	22.5
294.968	21.5
295.761	18.5
296.555	19.5
297.348	18.5
298.141	19.5
298.935	21.5
299.728	20.5
300.521	17.5
301.314	15.5
302.107	17.5
302.899	14.5
303.692	17.5
304.485	14.5
305.277	13.5
306.07	17.5
306.862	16.5
307.655	16.5
308.447	14.5
309.239	18.5
310.031	16.5
310.823	14.5
311.615	14.5
312.407	12.5
313.199	13.5
313.991	13.5
314.783	11.5
315.574	10.5
316.366	12.5
317.157	11.5
317.949	12.5
318.74	10.5
319.531	12.5
320.322	11.5
321.113	11.5
321.904	8.5
322.695	9.5
323.486	9.5
324.277	10.5
325.068	9.5
325.858	8.5
326.649	7.5
327.439	8.5
328.23	11.5
329.02	8.5
329.81	12.5
330.6	8.5
331.391	9.5
332.181	8.5
332.971	6.5
333.76	11.5
334.55	7.5
335.34	6.5
336.13	10.5
336.919	8.5
337.709	7.5
338.498	8.5
339.287	5.5
340.077	9.5
340.866	7.5
341.655	10.5
342.444	8.5
343.233	7.5
344.022	8.5
344.811	6.5
345.6	7.5
346.388	8.5
347.177	8.5
347.965	8.5
348.754	7.5
349.542	5.5
350.33	9.5
351.119	7.5
351.907	6.5
352.695	7.5
353.483	7.5
354.271	9.5
355.059	8.5
355.846	8.5
356.634	7.5
357.422	9.5
358.209	8.5
358.997	8.5
359.784	8.5
360.571	6.5
361.359	5.5
362.146	8.5
362.933	6.5
363.72	5.5
364.507	5.5
365.294	5.5
366.081	6.5
366.867	7.5
367.654	7.5
368.44	6.5
369.227	5.5
370.013	6.5
370.8	7.5
371.586	6.5
372.372	5.5
373.158	5.5
373.944	5.5
374.73	7.5
375.516	6.5
376.302	5.5
377.088	6.5
377.873	6.5
378.659	4.5
379.445	7.5
380.23	6.5
381.015	5.5
381.801	10.5
382.586	6.5
383.371	5.5
384.156	7.5
384.941	9.5
385.726	8.5
386.511	9.5
387.296	8.5
388.08	6.5
388.865	6.5
389.649	6.5
390.434	7.5
391.218	6.5
392.003	7.5
392.787	9.5
393.571	8.5
394.355	8.5
395.139	8.5
395.923	10.5
396.707	8.5
397.491	9.5
398.274	8.5
399.058	10.5
399.842	9.5
400.625	6.5
401.408	7.5
402.192	9.5
402.975	11.5
403.758	11.5
404.541	6.5
405.324	9.5
406.107	9.5
406.89	9.5
407.673	7.5
408.456	11.5
409.238	10.5
410.021	12.5
410.803	10.5
411.586	12.5
412.368	10.5
413.151	10.5
413.933	12.5
414.715	10.5
415.497	10.5
416.279	11.5
417.061	12.5
417.843	11.5
418.624	14.5
419.406	14.5
420.188	12.5
420.969	13.5
421.751	12.5
422.532	16.5
423.313	13.5
424.095	15.5
424.876	14.5
425.657	16.5
426.438	15.5
427.219	18.5
428	18.5
428.78	16.5
429.561	16.5
430.342	21.5
431.122	17.5
431.903	19.5
432.683	21.5
433.464	23.5
434.244	23.5
435.024	23.5
435.804	22.5
436.584	24.5
437.364	27.5
438.144	29.5
438.924	33.5
439.704	30.5
440.483	31.5
441.263	36.5
442.042	39.5
442.822	43.5
443.601	47.5
444.38	46.5
445.16	53.5
445.939	55.5
446.718	60.5
447.497	61.5
448.276	66.5
449.054	76.5
449.833	79.5
450.612	89.5
451.391	97.5
452.169	108.5
452.948	118.5
453.726	134.5
454.504	148.5
455.282	158.5
456.061	183.5
456.839	193.5
457.617	224.5
458.395	240.5
459.172	273.5
459.95	308.5
460.728	344.5
461.506	381.5
462.283	420.5
463.061	473.5
463.838	522.5
464.615	593.5
465.393	648.5
466.17	705.5
466.947	796.5
467.724	882.5
468.501	978.5
469.278	1079.5
470.055	1201.5
470.831	1320.5
471.608	1458.5
472.385	1621.5
473.161	1796.5
473.938	1968.5
474.714	2156.5
475.49	2367.5
476.266	2619.5
477.043	2874.5
477.819	3148.5
478.595	3453.5
479.371	3758.5
480.146	4120.5
480.922	4515.5
481.698	4886.5
482.473	5338.5
483.249	5846.5
484.024	6384.5
484.8	6969.5
485.575	7615.5
486.35	8226.5
487.126	8931.5
487.901	9749.5
488.676	10523.5
489.451	11429.5
490.225	12375.5
491	13384.5
491.775	14468.5
492.55	15555.5
493.324	16740.5
494.099	17855.5
494.873	19079.5
495.647	20392.5
496.422	21618.5
497.196	22962.5
497.97	24392.5
498.744	25691.5
499.518	26926.5
500.292	28144.5
501.066	29233.5
501.839	30401.5
502.613	31303.5
503.387	32067.5
504.16	32799.5
504.934	33235.5
505.707	33440.5
506.48	33473.5
507.253	33400.5
508.027	33185.5
508.8	32887.5
509.573	32449.5
510.346	31770.5
511.118	30982.5
511.891	30213.5
512.664	29147.5
513.437	28199.5
514.209	27149.5
514.982	26230.5
515.754	25174.5
516.526	24134.5
517.298	23164.5
518.071	22258.5
518.843	21324.5
519.615	20476.5
520.387	19623.5
521.159	18902.5
521.93	18200.5
522.702	17467.5
523.474	16820.5
524.245	16154.5
525.017	15404.5
525.788	14672.5
526.56	14092.5
527.331	13505.5
528.102	12894.5
528.873	12282.5
529.644	11734.5
530.415	11196.5
531.186	10669.5
531.957	10085.5
532.728	9574.5
533.498	9106.5
534.269	8602.5
535.039	8193.5
535.81	7704.5
536.58	7290.5
537.351	6887.5
538.121	6492.5
538.891	6152.5
539.661	5876.5
540.431	5538.5
541.201	5238.5
541.971	4978.5
542.741	4720.5
543.51	4483.5
544.28	4243.5
545.05	4054.5
545.819	3846.5
546.588	3682.5
547.358	3468.5
548.127	3301.5
548.896	3127.5
549.665	2963.5
550.434	2828.5
551.203	2705.5
551.972	2543.5
552.741	2388.5
553.51	2268.5
554.278	2142.5
555.047	2027.5
555.815	1916.5
556.584	1823.5
557.352	1712.5
558.121	1620.5
558.889	1506.5
559.657	1459.5
560.425	1353.5
561.193	1296.5
561.961	1225.5
562.729	1158.5
563.496	1095.5
564.264	1023.5
565.032	973.5
565.799	935.5
566.567	867.5
567.334	820.5
568.101	786.5
568.869	732.5
569.636	699.5
570.403	656.5
571.17	623.5
571.937	585.5
572.704	548.5
573.471	521.5
574.237	484.5
575.004	457.5
575.771	444.5
576.537	414.5
577.303	390.5
578.07	369.5
578.836	346.5
579.602	318.5
580.368	306.5
581.134	289.5
581.9	273.5
582.666	258.5
583.432	252.5
584.198	237.5
584.964	222.5
585.729	218.5
586.495	203.5
587.26	193.5
588.025	183.5
588.791	176.5
589.556	159.5
590.321	156.5
591.086	143.5
591.851	138.5
592.616	133.5
593.381	122.5
594.146	120.5
594.911	117.5
595.675	114.5
596.44	97.5
597.204	102.5
597.969	93.5
598.733	94.5
599.497	86.5
600.261	83.5
601.025	80.5
601.79	77.5
602.553	72.5
603.317	72.5
604.081	66.5
604.845	61.5
605.609	61.5
606.372	62.5
607.136	55.5
607.899	54.5
608.662	51.5
609.426	52.5
610.189	47.5
610.952	43.5
611.715	46.5
612.478	45.5
613.241	37.5
614.004	40.5
614.767	37.5
615.529	39.5
616.292	36.5
617.055	33.5
617.817	34.5
618.579	29.5
619.342	32.5
620.104	29.5
620.866	28.5
621.628	29.5
622.39	27.5
623.152	24.5
623.914	25.5
624.676	28.5
625.438	22.5
626.199	23.5
626.961	22.5
627.722	22.5
628.484	21.5
629.245	19.5
630.006	17.5
630.768	17.5
631.529	17.5
632.29	18.5
633.051	16.5
633.812	18.5
634.573	16.5
635.333	14.5
636.094	14.5
636.855	14.5
637.615	16.5
638.376	11.5
639.136	12.5
639.896	13.5
640.657	10.5
641.417	10.5
642.177	11.5
642.937	14.5
643.697	12.5
644.457	9.5
645.216	11.5
645.976	9.5
646.736	11.5
647.495	10.5
648.255	8.5
649.014	12.5
649.774	11.5
650.533	11.5
651.292	8.5
652.051	8.5
652.81	9.5
653.569	8.5
654.328	6.5
655.087	8.5
655.846	7.5
656.604	11.5
657.363	8.5
658.121	9.5
658.88	8.5
659.638	6.5
660.397	6.5
661.155	7.5
661.913	7.5
662.671	7.5
663.429	8.5
664.187	8.5
664.945	7.5
665.703	7.5
666.46	6.5
667.218	6.5
667.976	5.5
668.733	7.5
669.49	6.5
670.248	7.5
671.005	7.5
671.762	8.5
672.519	5.5
673.276	5.5
674.033	8.5
674.79	5.5
675.547	6.5
676.304	7.5
677.06	6.5
677.817	7.5
678.574	5.5
679.33	6.5
680.086	6.5
680.843	4.5
681.599	4.5
682.355	6.5
683.111	6.5
683.867	6.5
684.623	6.5
685.379	6.5
686.135	4.5
686.89	6.5
687.646	5.5
688.402	5.5
689.157	5.5
689.912	4.5
690.668	2.5
691.423	6.5
692.178	3.5
692.933	7.5
693.688	5.5
694.443	5.5
695.198	4.5
695.953	4.5
696.708	4.5
697.462	4.5
698.217	4.5
698.972	3.5
699.726	4.5
700.48	4.5
701.235	4.5
701.989	5.5
702.743	5.5
703.497	5.5
704.251	7.5
705.005	5.5
705.759	6.5
706.513	5.5
707.266	5.5
708.02	3.5
708.774	6.5
709.527	4.5
710.28	7.5
711.034	5.5
711.787	5.5
712.54	5.5
713.293	4.5
714.046	5.5
714.799	6.5
715.552	4.5
716.305	3.5
717.058	3.5
717.81	5.5
718.563	5.5
719.315	5.5
720.068	7.5
720.82	5.5
721.573	4.5
722.325	4.5
723.077	2.5
723.829	4.5
724.581	7.5
725.333	3.5
726.085	6.5
726.836	7.5
727.588	6.5
728.34	7.5
729.091	8.5
729.843	6.5
730.594	7.5
731.346	6.5
732.097	6.5
732.848	4.5
733.599	6.5
734.35	6.5
735.101	6.5
735.852	6.5
736.603	7.5
737.354	6.5
738.104	6.5
738.855	7.5
739.605	4.5
740.356	6.5
741.106	6.5
741.856	7.5
742.607	7.5
743.357	4.5
744.107	7.5
744.857	5.5
745.607	9.5
746.357	5.5
747.106	3.5
747.856	7.5
748.606	7.5
749.355	6.5
750.105	5.5
750.854	6.5
751.603	7.5
752.353	7.5
753.102	6.5
753.851	6.5
754.6	8.5
755.349	6.5
756.098	4.5
756.847	10.5
757.595	6.5
758.344	11.5
759.093	9.5
759.841	7.5
760.589	9.5
761.338	8.5
762.086	7.5
762.834	7.5
763.582	8.5
764.331	8.5
765.079	8.5
765.826	8.5
766.574	9.5
767.322	11.5
768.07	7.5
768.817	10.5
769.565	12.5
770.312	9.5
771.06	8.5
771.807	10.5
772.554	11.5
773.302	9.5
774.049	9.5
774.796	10.5
775.543	8.5
776.29	11.5
777.036	8.5
777.783	9.5
778.53	10.5
779.276	8.5
780.023	11.5
780.769	11.5
781.516	12.5
782.262	9.5
783.008	10.5
783.754	11.5
784.5	9.5
785.246	11.5
785.992	10.5
786.738	11.5
787.484	12.5
788.23	9.5
788.975	10.5
789.721	12.5
790.466	10.5
791.212	12.5
791.957	11.5
792.702	10.5
793.447	10.5
794.193	11.5
794.938	11.5
795.683	10.5
796.427	10.5
797.172	8.5
797.917	9.5
798.662	7.5
799.406	9.5
800.151	6.5
800.895	7.5
801.64	8.5
802.384	10.5
803.128	9.5
803.872	9.5
804.616	9.5
805.36	9.5
806.104	8.5
806.848	9.5
807.592	7.5
808.336	8.5
809.079	8.5
809.823	6.5
810.566	7.5
811.31	6.5
812.053	7.5
812.796	8.5
813.539	5.5
814.283	5.5
815.026	7.5
815.769	5.5
816.511	6.5
817.254	6.5
817.997	6.5
818.74	8.5
819.482	4.5
820.225	2.5
820.967	6.5
821.71	5.5
822.452	6.5
823.194	6.5
823.936	5.5
824.678	5.5
825.42	5.5
826.162	5.5
826.904	4.5
827.646	6.5
828.388	6.5
829.129	4.5
829.871	5.5
830.612	3.5
831.354	5.5
832.095	6.5
832.836	3.5
833.577	3.5
834.319	3.5
835.06	3.5
835.801	3.5
836.542	3.5
837.282	4.5
838.023	4.5
838.764	5.5
839.504	2.5
840.245	4.5
840.985	2.5
841.726	2.5
842.466	2.5
843.206	2.5
843.946	3.5
844.687	4.5
845.427	4.5
846.166	5.5
846.906	3.5
847.646	5.5
848.386	5.5
849.125	3.5
849.865	4.5
850.605	2.5
851.344	4.5
852.083	2.5
852.823	2.5
853.562	-0.5
854.301	3.5
855.04	3.5
855.779	2.5
856.518	4.5
857.257	3.5
857.995	3.5
858.734	3.5
859.473	0.5
860.211	2.5
860.95	4.5
861.688	2.5
862.426	2.5
863.165	4.5
863.903	2.5
864.641	3.5
865.379	2.5
866.117	4.5
866.855	1.5
867.593	1.5
868.33	1.5
869.068	3.5
869.806	0.5
870.543	0.5
871.28	2.5
872.018	2.5
872.755	1.5
873.492	2.5
874.229	1.5
874.967	-0.5
875.703	2.5
876.44	6.5
877.177	1.5
877.914	2.5
878.651	1.5
879.387	3.5
880.124	2.5
880.86	1.5
881.597	1.5
882.333	2.5
883.069	2.5
883.806	1.5
884.542	1.5
885.278	4.5
886.014	0.5
886.749	1.5
887.485	2.5
888.221	0.5
888.957	-1.5
889.692	2.5
890.428	1.5
891.163	2.5
891.899	2.5
892.634	0.5
893.369	0.5
894.104	0.5
894.839	-0.5
895.574	2.5
896.309	0.5
897.044	0.5
897.779	1.5
898.514	2.5
899.248	0.5
899.983	1.5
900.717	-0.5
901.452	-0.5
902.186	0.5
902.92	-0.5
903.654	-0.5
904.389	3.5
905.123	-0.5
905.857	1.5
906.59	0.5
907.324	-0.5
908.058	0.5
908.792	1.5
909.525	0.5
910.259	-0.5
910.992	1.5
911.726	0.5
912.459	0.5
913.192	3.5
913.925	1.5
914.658	0.5
915.391	2.5
916.124	-0.5
916.857	-0.5
917.59	1.5
918.323	2.5
919.055	-1.5
919.788	0.5
920.521	0.5
921.253	-0.5
921.985	0.5
922.718	0.5
923.45	0.5
924.182	0.5
924.914	1.5
925.646	1.5
926.378	-0.5
927.11	1.5
927.841	0.5
928.573	1.5
929.305	-1.5
930.036	-0.5
930.768	3.5
931.499	-1.5
932.23	-1.5
932.962	-1.5
933.693	0.5
934.424	0.5
935.155	0.5
935.886	1.5
936.617	-0.5
937.348	0.5
938.078	1.5
938.809	0.5
939.54	-0.5
940.27	-0.5
941.001	0.5
941.731	-2.5
942.461	0.5
943.191	0.5
943.922	-1.5
944.652	1.5
945.382	1.5
946.112	2.5
946.841	0.5
947.571	1.5
948.301	-0.5
949.031	-0.5
949.76	-0.5
950.49	1.5
951.219	-1.5
951.948	0.5
952.678	0.5
953.407	1.5
954.136	-0.5
954.865	0.5
955.594	2.5
956.323	-1.5
957.052	1.5
957.78	-0.5
958.509	1.5
959.238	0.5
959.966	1.5
960.695	0.5
961.423	-1.5
962.151	0.5
962.88	-0.5
963.608	-0.5
964.336	-1.5
965.064	-1.5
965.792	0.5
966.52	-0.5
967.247	0.5
967.975	0.5
968.703	-2.5
969.43	0.5
970.158	0.5
970.885	1.5
971.613	0.5
972.34	0.5
973.067	-0.5
973.794	-1.5
974.521	-0.5
975.248	0.5
975.975	2.5
976.702	-1.5
977.429	-1.5
978.156	-0.5
978.882	-0.5
979.609	0.5
980.335	0.5
981.062	0.5
981.788	-0.5
982.514	-0.5
983.24	0.5
983.967	0.5
984.693	1.5
985.419	-0.5
986.144	3.5
986.87	1.5
987.596	-0.5
988.322	1.5
989.047	1.5
989.773	0.5
990.498	0.5
991.224	1.5
991.949	2.5
992.674	-0.5
993.399	2.5
994.124	-0.5
994.849	1.5
995.574	-1.5
996.299	-0.5
997.024	0.5
997.749	0.5
998.473	-0.5
999.198	0.5
999.922	-1.5
1000.647	-1.5
1001.371	1.5
1002.095	-2.5
1002.82	0.5
1003.544	-1.5
1004.268	1.5
1004.992	2.5
1005.716	2.5
1006.439	1.5
1007.163	5.5
1007.887	3.5
1008.611	1.5
1009.334	0.5
1010.058	0.5
1010.781	0.5
1011.504	0.5
1012.228	-1.5
1012.951	0.5
1013.674	0.5
1014.397	0.5
1015.12	0.5
