节点500_425_QEPB04081__270__15-52-47-959.txt的数据

Date: Wed Nov 12 15:52:47 CST 2025
User: PC
Spectrometer: QEPB0408
触发模式: 0
积分时间 (秒): 1.000000E-2
Scans to average: 1
启用暗噪声校正: true
启用非线性校正: false
滑动平均宽度: 0
X轴模式: Wavelengths
Number of Pixels in Spectrum: 1044
>>>>>Begin Spectral Data<<<<<
220.843	4
221.644	2
222.444	2
223.244	6
224.045	2
224.845	4
225.645	4
226.445	5
227.245	5
228.045	4
228.845	5
229.645	5
230.444	4
231.244	5
232.043	6
232.843	8
233.642	6
234.442	6
235.241	10
236.04	6
236.839	10
237.638	7
238.437	7
239.236	5
240.035	9
240.833	8
241.632	8
242.43	8
243.229	9
244.027	12
244.826	9
245.624	8
246.422	13
247.22	10
248.018	11
248.816	10
249.614	11
250.412	11
251.21	9
252.007	8
252.805	12
253.602	12
254.4	12
255.197	11
255.994	13
256.791	16
257.589	15
258.386	16
259.183	16
259.979	17
260.776	15
261.573	19
262.37	17
263.166	18
263.963	16
264.759	19
265.556	17
266.352	15
267.148	22
267.944	21
268.74	21
269.536	20
270.332	22
271.128	24
271.924	23
272.719	24
273.515	25
274.311	23
275.106	25
275.901	21
276.697	24
277.492	24
278.287	27
279.082	26
279.877	26
280.672	24
281.467	25
282.262	25
283.056	23
283.851	27
284.646	27
285.44	22
286.234	24
287.029	24
287.823	23
288.617	24
289.411	25
290.205	23
290.999	24
291.793	24
292.587	27
293.381	23
294.174	23
294.968	22
295.761	22
296.555	19
297.348	21
298.141	19
298.935	23
299.728	20
300.521	18
301.314	22
302.107	18
302.899	16
303.692	20
304.485	18
305.277	17
306.07	18
306.862	16
307.655	15
308.447	18
309.239	17
310.031	17
310.823	16
311.615	15
312.407	15
313.199	13
313.991	15
314.783	13
315.574	14
316.366	13
317.157	12
317.949	11
318.74	12
319.531	11
320.322	12
321.113	10
321.904	10
322.695	9
323.486	11
324.277	12
325.068	11
325.858	9
326.649	9
327.439	10
328.23	9
329.02	10
329.81	11
330.6	11
331.391	10
332.181	8
332.971	9
333.76	9
334.55	10
335.34	10
336.13	11
336.919	9
337.709	8
338.498	10
339.287	10
340.077	10
340.866	9
341.655	10
342.444	9
343.233	11
344.022	8
344.811	9
345.6	7
346.388	8
347.177	9
347.965	9
348.754	8
349.542	10
350.33	9
351.119	10
351.907	8
352.695	9
353.483	6
354.271	11
355.059	6
355.846	8
356.634	9
357.422	7
358.209	9
358.997	11
359.784	9
360.571	7
361.359	8
362.146	8
362.933	8
363.72	6
364.507	6
365.294	6
366.081	9
366.867	8
367.654	9
368.44	7
369.227	8
370.013	9
370.8	7
371.586	8
372.372	7
373.158	9
373.944	6
374.73	8
375.516	9
376.302	7
377.088	6
377.873	7
378.659	10
379.445	8
380.23	6
381.015	8
381.801	8
382.586	8
383.371	7
384.156	8
384.941	8
385.726	10
386.511	10
387.296	10
388.08	9
388.865	11
389.649	8
390.434	6
391.218	9
392.003	9
392.787	10
393.571	9
394.355	8
395.139	9
395.923	11
396.707	11
397.491	8
398.274	11
399.058	9
399.842	11
400.625	12
401.408	9
402.192	10
402.975	12
403.758	9
404.541	9
405.324	11
406.107	12
406.89	10
407.673	13
408.456	12
409.238	12
410.021	11
410.803	14
411.586	13
412.368	14
413.151	11
413.933	12
414.715	13
415.497	12
416.279	13
417.061	14
417.843	14
418.624	15
419.406	16
420.188	16
420.969	15
421.751	13
422.532	15
423.313	15
424.095	18
424.876	13
425.657	17
426.438	19
427.219	18
428	20
428.78	18
429.561	21
430.342	19
431.122	24
431.903	23
432.683	23
433.464	24
434.244	26
435.024	25
435.804	26
436.584	26
437.364	29
438.144	31
438.924	31
439.704	34
440.483	31
441.263	35
442.042	40
442.822	41
443.601	44
444.38	44
445.16	50
445.939	51
446.718	59
447.497	61
448.276	62
449.054	73
449.833	81
450.612	86
451.391	96
452.169	103
452.948	116
453.726	124
454.504	138
455.282	153
456.061	166
456.839	188
457.617	207
458.395	227
459.172	255
459.95	288
460.728	320
461.506	362
462.283	394
463.061	432
463.838	501
464.615	547
465.393	607
466.17	690
466.947	767
467.724	843
468.501	944
469.278	1053
470.055	1171
470.831	1288
471.608	1432
472.385	1594
473.161	1767
473.938	1945
474.714	2157
475.49	2357
476.266	2617
477.043	2870
477.819	3191
478.595	3518
479.371	3856
480.146	4250
480.922	4648
481.698	5100
482.473	5599
483.249	6113
484.024	6725
484.8	7373
485.575	8035
486.35	8764
487.126	9562
487.901	10434
488.676	11404
489.451	12352
490.225	13414
491	14618
491.775	15823
492.55	17070
493.324	18369
494.099	19724
494.873	20991
495.647	22446
496.422	23909
497.196	25395
497.97	26883
498.744	28386
499.518	29550
500.292	30810
501.066	31875
501.839	33097
502.613	33949
503.387	34636
504.16	35249
504.934	35518
505.707	35528
506.48	35350
507.253	35042
508.027	34649
508.8	34156
509.573	33398
510.346	32525
511.118	31498
511.891	30614
512.664	29387
513.437	28271
514.209	27163
514.982	26083
515.754	25020
516.526	23964
517.298	22995
518.071	21954
518.843	21104
519.615	20193
520.387	19419
521.159	18679
521.93	17989
522.702	17247
523.474	16544
524.245	15890
525.017	15213
525.788	14448
526.56	13841
527.331	13209
528.102	12527
528.873	11998
529.644	11382
530.415	10867
531.186	10377
531.957	9774
532.728	9240
533.498	8761
534.269	8245
535.039	7819
535.81	7403
536.58	7015
537.351	6596
538.121	6216
538.891	5887
539.661	5593
540.431	5287
541.201	4990
541.971	4762
542.741	4495
543.51	4259
544.28	4056
545.05	3857
545.819	3699
546.588	3503
547.358	3313
548.127	3142
548.896	2993
549.665	2831
550.434	2700
551.203	2537
551.972	2442
552.741	2294
553.51	2160
554.278	2057
555.047	1915
555.815	1833
556.584	1719
557.352	1617
558.121	1515
558.889	1451
559.657	1373
560.425	1304
561.193	1204
561.961	1167
562.729	1091
563.496	1021
564.264	959
565.032	914
565.799	879
566.567	825
567.334	782
568.101	734
568.869	695
569.636	659
570.403	623
571.17	584
571.937	553
572.704	527
573.471	491
574.237	469
575.004	439
575.771	419
576.537	393
577.303	373
578.07	338
578.836	326
579.602	302
580.368	292
581.134	273
581.9	261
582.666	248
583.432	236
584.198	227
584.964	209
585.729	199
586.495	192
587.26	178
588.025	172
588.791	166
589.556	153
590.321	144
591.086	139
591.851	134
592.616	126
593.381	120
594.146	113
594.911	109
595.675	107
596.44	99
597.204	96
597.969	92
598.733	91
599.497	85
600.261	83
601.025	80
601.79	71
602.553	71
603.317	67
604.081	64
604.845	62
605.609	59
606.372	58
607.136	56
607.899	52
608.662	48
609.426	50
610.189	49
610.952	45
611.715	45
612.478	41
613.241	37
614.004	41
614.767	35
615.529	37
616.292	35
617.055	34
617.817	32
618.579	31
619.342	31
620.104	29
620.866	30
621.628	27
622.39	29
623.152	26
623.914	25
624.676	21
625.438	24
626.199	21
626.961	21
627.722	23
628.484	23
629.245	22
630.006	20
630.768	19
631.529	21
632.29	19
633.051	15
633.812	19
634.573	18
635.333	17
636.094	15
636.855	17
637.615	15
638.376	13
639.136	14
639.896	14
640.657	12
641.417	13
642.177	13
642.937	15
643.697	15
644.457	14
645.216	13
645.976	13
646.736	14
647.495	12
648.255	9
649.014	12
649.774	11
650.533	10
651.292	11
652.051	12
652.81	11
653.569	9
654.328	9
655.087	10
655.846	10
656.604	11
657.363	9
658.121	7
658.88	5
659.638	11
660.397	9
661.155	9
661.913	6
662.671	9
663.429	7
664.187	6
664.945	8
665.703	7
666.46	10
667.218	6
667.976	9
668.733	7
669.49	5
670.248	9
671.005	8
671.762	7
672.519	9
673.276	6
674.033	7
674.79	5
675.547	7
676.304	8
677.06	7
677.817	5
678.574	4
679.33	9
680.086	7
680.843	5
681.599	6
682.355	8
683.111	6
683.867	7
684.623	7
685.379	7
686.135	5
686.89	5
687.646	4
688.402	8
689.157	6
689.912	7
690.668	7
691.423	5
692.178	7
692.933	5
693.688	6
694.443	6
695.198	5
695.953	6
696.708	6
697.462	8
698.217	4
698.972	6
699.726	5
700.48	5
701.235	5
701.989	5
702.743	7
703.497	6
704.251	6
705.005	6
705.759	7
706.513	6
707.266	6
708.02	4
708.774	7
709.527	5
710.28	6
711.034	7
711.787	6
712.54	6
713.293	7
714.046	7
714.799	4
715.552	8
716.305	5
717.058	7
717.81	6
718.563	4
719.315	7
720.068	3
720.82	5
721.573	5
722.325	6
723.077	6
723.829	4
724.581	5
725.333	6
726.085	6
726.836	6
727.588	6
728.34	7
729.091	7
729.843	7
730.594	6
731.346	5
732.097	8
732.848	8
733.599	9
734.35	7
735.101	7
735.852	10
736.603	6
737.354	8
738.104	8
738.855	9
739.605	7
740.356	7
741.106	7
741.856	6
742.607	9
743.357	9
744.107	10
744.857	8
745.607	7
746.357	9
747.106	8
747.856	9
748.606	10
749.355	9
750.105	9
750.854	7
751.603	8
752.353	9
753.102	6
753.851	10
754.6	7
755.349	10
756.098	11
756.847	7
757.595	11
758.344	8
759.093	12
759.841	11
760.589	12
761.338	12
762.086	9
762.834	11
763.582	8
764.331	11
765.079	9
765.826	11
766.574	8
767.322	10
768.07	10
768.817	12
769.565	14
770.312	11
771.06	10
771.807	10
772.554	10
773.302	10
774.049	9
774.796	12
775.543	11
776.29	11
777.036	12
777.783	13
778.53	12
779.276	11
780.023	11
780.769	15
781.516	12
782.262	12
783.008	13
783.754	11
784.5	10
785.246	13
785.992	12
786.738	11
787.484	12
788.23	12
788.975	15
789.721	11
790.466	10
791.212	11
791.957	15
792.702	11
793.447	11
794.193	11
794.938	11
795.683	11
796.427	11
797.172	7
797.917	10
798.662	13
799.406	11
800.151	10
800.895	10
801.64	10
802.384	11
803.128	9
803.872	12
804.616	8
805.36	9
806.104	8
806.848	10
807.592	11
808.336	7
809.079	9
809.823	8
810.566	11
811.31	9
812.053	8
812.796	7
813.539	10
814.283	8
815.026	7
815.769	7
816.511	8
817.254	8
817.997	8
818.74	7
819.482	10
820.225	8
820.967	5
821.71	7
822.452	3
823.194	8
823.936	5
824.678	8
825.42	7
826.162	7
826.904	7
827.646	5
828.388	7
829.129	7
829.871	7
830.612	5
831.354	7
832.095	6
832.836	5
833.577	6
834.319	4
835.06	6
835.801	6
836.542	5
837.282	5
838.023	5
838.764	3
839.504	5
840.245	7
840.985	4
841.726	5
842.466	4
843.206	4
843.946	5
844.687	6
845.427	5
846.166	5
846.906	5
847.646	5
848.386	5
849.125	6
849.865	2
850.605	5
851.344	6
852.083	2
852.823	5
853.562	7
854.301	2
855.04	1
855.779	5
856.518	3
857.257	4
857.995	3
858.734	3
859.473	4
860.211	3
860.95	4
861.688	2
862.426	3
863.165	3
863.903	2
864.641	3
865.379	2
866.117	2
866.855	3
867.593	3
868.33	3
869.068	3
869.806	5
870.543	2
871.28	4
872.018	3
872.755	2
873.492	1
874.229	3
874.967	1
875.703	1
876.44	4
877.177	2
877.914	3
878.651	1
879.387	4
880.124	2
880.86	1
881.597	3
882.333	4
883.069	2
883.806	2
884.542	3
885.278	2
886.014	2
886.749	1
887.485	3
888.221	3
888.957	2
889.692	1
890.428	3
891.163	2
891.899	3
892.634	3
893.369	1
894.104	3
894.839	0
895.574	4
896.309	1
897.044	3
897.779	1
898.514	0
899.248	2
899.983	2
900.717	2
901.452	3
902.186	1
902.92	1
903.654	0
904.389	2
905.123	1
905.857	3
906.59	0
907.324	1
908.058	-2
908.792	1
909.525	2
910.259	1
910.992	1
911.726	3
912.459	2
913.192	2
913.925	1
914.658	0
915.391	3
916.124	0
916.857	2
917.59	-1
918.323	4
919.055	2
919.788	3
920.521	2
921.253	4
921.985	2
922.718	1
923.45	2
924.182	3
924.914	-1
925.646	2
926.378	0
927.11	0
927.841	3
928.573	3
929.305	3
930.036	2
930.768	1
931.499	1
932.23	1
932.962	1
933.693	0
934.424	1
935.155	0
935.886	1
936.617	1
937.348	1
938.078	1
938.809	0
939.54	-1
940.27	0
941.001	1
941.731	3
942.461	1
943.191	1
943.922	-2
944.652	1
945.382	1
946.112	1
946.841	1
947.571	2
948.301	-1
949.031	2
949.76	4
950.49	1
951.219	2
951.948	1
952.678	3
953.407	2
954.136	2
954.865	2
955.594	1
956.323	0
957.052	4
957.78	1
958.509	1
959.238	0
959.966	2
960.695	0
961.423	1
962.151	2
962.88	0
963.608	0
964.336	1
965.064	1
965.792	1
966.52	3
967.247	2
967.975	2
968.703	1
969.43	2
970.158	0
970.885	2
971.613	0
972.34	0
973.067	2
973.794	2
974.521	0
975.248	1
975.975	3
976.702	2
977.429	1
978.156	1
978.882	1
979.609	2
980.335	2
981.062	2
981.788	2
982.514	0
983.24	1
983.967	2
984.693	1
985.419	2
986.144	0
986.87	2
987.596	3
988.322	4
989.047	1
989.773	0
990.498	1
991.224	0
991.949	1
992.674	3
993.399	1
994.124	1
994.849	-2
995.574	1
996.299	0
997.024	2
997.749	1
998.473	2
999.198	1
999.922	-1
1000.647	-1
1001.371	2
1002.095	1
1002.82	-3
1003.544	-2
1004.268	6
1004.992	4
1005.716	3
1006.439	0
1007.163	5
1007.887	5
1008.611	2
1009.334	1
1010.058	-2
1010.781	0
1011.504	1
1012.228	-2
1012.951	0
1013.674	1
1014.397	2
1015.12	-1
