节点500_425_QEPB04081__630__15-58-47-423.txt的数据

Date: Wed Nov 12 15:58:47 CST 2025
User: PC
Spectrometer: QEPB0408
触发模式: 0
积分时间 (秒): 1.000000E-2
Scans to average: 1
启用暗噪声校正: true
启用非线性校正: false
滑动平均宽度: 0
X轴模式: Wavelengths
Number of Pixels in Spectrum: 1044
>>>>>Begin Spectral Data<<<<<
220.843	1.38
221.644	1.38
222.444	2.38
223.244	2.38
224.045	4.38
224.845	2.38
225.645	3.38
226.445	3.38
227.245	3.38
228.045	3.38
228.845	4.38
229.645	4.38
230.444	4.38
231.244	3.38
232.043	6.38
232.843	5.38
233.642	4.38
234.442	3.38
235.241	3.38
236.04	6.38
236.839	4.38
237.638	6.38
238.437	5.38
239.236	8.38
240.035	8.38
240.833	4.38
241.632	8.38
242.43	5.38
243.229	7.38
244.027	8.38
244.826	5.38
245.624	7.38
246.422	7.38
247.22	9.38
248.018	10.38
248.816	7.38
249.614	8.38
250.412	9.38
251.21	8.38
252.007	6.38
252.805	9.38
253.602	10.38
254.4	9.38
255.197	10.38
255.994	11.38
256.791	12.38
257.589	13.38
258.386	10.38
259.183	13.38
259.979	12.38
260.776	14.38
261.573	15.38
262.37	13.38
263.166	13.38
263.963	12.38
264.759	15.38
265.556	15.38
266.352	14.38
267.148	18.38
267.944	17.38
268.74	17.38
269.536	17.38
270.332	17.38
271.128	17.38
271.924	19.38
272.719	19.38
273.515	19.38
274.311	19.38
275.106	21.38
275.901	17.38
276.697	21.38
277.492	20.38
278.287	19.38
279.082	20.38
279.877	20.38
280.672	24.38
281.467	21.38
282.262	23.38
283.056	22.38
283.851	21.38
284.646	20.38
285.44	25.38
286.234	22.38
287.029	23.38
287.823	24.38
288.617	22.38
289.411	22.38
290.205	21.38
290.999	22.38
291.793	22.38
292.587	22.38
293.381	19.38
294.174	21.38
294.968	19.38
295.761	21.38
296.555	16.38
297.348	20.38
298.141	18.38
298.935	20.38
299.728	18.38
300.521	16.38
301.314	16.38
302.107	16.38
302.899	16.38
303.692	16.38
304.485	13.38
305.277	18.38
306.07	15.38
306.862	16.38
307.655	14.38
308.447	15.38
309.239	14.38
310.031	15.38
310.823	13.38
311.615	10.38
312.407	16.38
313.199	12.38
313.991	14.38
314.783	12.38
315.574	10.38
316.366	9.38
317.157	11.38
317.949	12.38
318.74	9.38
319.531	10.38
320.322	10.38
321.113	8.38
321.904	9.38
322.695	9.38
323.486	10.38
324.277	12.38
325.068	8.38
325.858	8.38
326.649	8.38
327.439	10.38
328.23	7.38
329.02	7.38
329.81	9.38
330.6	7.38
331.391	7.38
332.181	4.38
332.971	8.38
333.76	10.38
334.55	7.38
335.34	9.38
336.13	9.38
336.919	8.38
337.709	7.38
338.498	9.38
339.287	7.38
340.077	7.38
340.866	10.38
341.655	7.38
342.444	9.38
343.233	8.38
344.022	8.38
344.811	9.38
345.6	8.38
346.388	7.38
347.177	7.38
347.965	8.38
348.754	7.38
349.542	9.38
350.33	5.38
351.119	9.38
351.907	7.38
352.695	9.38
353.483	6.38
354.271	9.38
355.059	9.38
355.846	8.38
356.634	6.38
357.422	7.38
358.209	8.38
358.997	6.38
359.784	7.38
360.571	7.38
361.359	6.38
362.146	7.38
362.933	7.38
363.72	8.38
364.507	9.38
365.294	6.38
366.081	6.38
366.867	8.38
367.654	4.38
368.44	6.38
369.227	6.38
370.013	5.38
370.8	7.38
371.586	8.38
372.372	5.38
373.158	9.38
373.944	5.38
374.73	6.38
375.516	7.38
376.302	5.38
377.088	8.38
377.873	3.38
378.659	7.38
379.445	6.38
380.23	7.38
381.015	7.38
381.801	3.38
382.586	7.38
383.371	8.38
384.156	9.38
384.941	6.38
385.726	6.38
386.511	7.38
387.296	7.38
388.08	8.38
388.865	6.38
389.649	6.38
390.434	7.38
391.218	8.38
392.003	8.38
392.787	7.38
393.571	7.38
394.355	8.38
395.139	6.38
395.923	8.38
396.707	8.38
397.491	8.38
398.274	8.38
399.058	10.38
399.842	9.38
400.625	7.38
401.408	10.38
402.192	7.38
402.975	10.38
403.758	9.38
404.541	7.38
405.324	11.38
406.107	11.38
406.89	10.38
407.673	8.38
408.456	10.38
409.238	11.38
410.021	10.38
410.803	12.38
411.586	10.38
412.368	8.38
413.151	9.38
413.933	12.38
414.715	14.38
415.497	12.38
416.279	12.38
417.061	10.38
417.843	10.38
418.624	10.38
419.406	10.38
420.188	14.38
420.969	13.38
421.751	12.38
422.532	13.38
423.313	14.38
424.095	16.38
424.876	16.38
425.657	14.38
426.438	17.38
427.219	17.38
428	18.38
428.78	17.38
429.561	16.38
430.342	20.38
431.122	18.38
431.903	18.38
432.683	20.38
433.464	22.38
434.244	21.38
435.024	26.38
435.804	25.38
436.584	25.38
437.364	29.38
438.144	27.38
438.924	33.38
439.704	35.38
440.483	36.38
441.263	36.38
442.042	38.38
442.822	43.38
443.601	40.38
444.38	49.38
445.16	51.38
445.939	57.38
446.718	64.38
447.497	65.38
448.276	73.38
449.054	74.38
449.833	81.38
450.612	96.38
451.391	100.38
452.169	111.38
452.948	128.38
453.726	138.38
454.504	144.38
455.282	172.38
456.061	184.38
456.839	201.38
457.617	226.38
458.395	250.38
459.172	278.38
459.95	314.38
460.728	340.38
461.506	390.38
462.283	434.38
463.061	486.38
463.838	538.38
464.615	600.38
465.393	660.38
466.17	731.38
466.947	813.38
467.724	896.38
468.501	1012.38
469.278	1098.38
470.055	1221.38
470.831	1351.38
471.608	1493.38
472.385	1639.38
473.161	1816.38
473.938	1972.38
474.714	2178.38
475.49	2378.38
476.266	2604.38
477.043	2856.38
477.819	3100.38
478.595	3417.38
479.371	3706.38
480.146	4062.38
480.922	4443.38
481.698	4831.38
482.473	5249.38
483.249	5713.38
484.024	6224.38
484.8	6785.38
485.575	7296.38
486.35	7946.38
487.126	8608.38
487.901	9378.38
488.676	10117.38
489.451	10912.38
490.225	11811.38
491	12769.38
491.775	13724.38
492.55	14799.38
493.324	15798.38
494.099	16881.38
494.873	18072.38
495.647	19301.38
496.422	20478.38
497.196	21735.38
497.97	23034.38
498.744	24305.38
499.518	25557.38
500.292	26783.38
501.066	27766.38
501.839	28931.38
502.613	29869.38
503.387	30699.38
504.16	31470.38
504.934	31881.38
505.707	32221.38
506.48	32414.38
507.253	32359.38
508.027	32338.38
508.8	32181.38
509.573	31720.38
510.346	31278.38
511.118	30541.38
511.891	29860.38
512.664	28997.38
513.437	28020.38
514.209	27091.38
514.982	26230.38
515.754	25301.38
516.526	24285.38
517.298	23302.38
518.071	22405.38
518.843	21501.38
519.615	20599.38
520.387	19793.38
521.159	19041.38
521.93	18341.38
522.702	17547.38
523.474	16965.38
524.245	16330.38
525.017	15595.38
525.788	14889.38
526.56	14243.38
527.331	13670.38
528.102	13059.38
528.873	12464.38
529.644	11880.38
530.415	11384.38
531.186	10892.38
531.957	10274.38
532.728	9809.38
533.498	9316.38
534.269	8794.38
535.039	8375.38
535.81	7886.38
536.58	7471.38
537.351	7056.38
538.121	6699.38
538.891	6360.38
539.661	6003.38
540.431	5702.38
541.201	5390.38
541.971	5116.38
542.741	4867.38
543.51	4566.38
544.28	4385.38
545.05	4138.38
545.819	3957.38
546.588	3750.38
547.358	3542.38
548.127	3401.38
548.896	3224.38
549.665	3042.38
550.434	2894.38
551.203	2769.38
551.972	2631.38
552.741	2475.38
553.51	2351.38
554.278	2207.38
555.047	2090.38
555.815	1992.38
556.584	1878.38
557.352	1778.38
558.121	1677.38
558.889	1579.38
559.657	1493.38
560.425	1418.38
561.193	1334.38
561.961	1275.38
562.729	1209.38
563.496	1144.38
564.264	1078.38
565.032	1012.38
565.799	958.38
566.567	904.38
567.334	844.38
568.101	812.38
568.869	765.38
569.636	713.38
570.403	673.38
571.17	652.38
571.937	602.38
572.704	577.38
573.471	536.38
574.237	507.38
575.004	483.38
575.771	450.38
576.537	420.38
577.303	393.38
578.07	371.38
578.836	360.38
579.602	335.38
580.368	322.38
581.134	297.38
581.9	284.38
582.666	270.38
583.432	265.38
584.198	240.38
584.964	233.38
585.729	222.38
586.495	211.38
587.26	196.38
588.025	187.38
588.791	174.38
589.556	165.38
590.321	164.38
591.086	151.38
591.851	142.38
592.616	140.38
593.381	130.38
594.146	121.38
594.911	121.38
595.675	114.38
596.44	102.38
597.204	102.38
597.969	96.38
598.733	96.38
599.497	91.38
600.261	86.38
601.025	86.38
601.79	79.38
602.553	75.38
603.317	70.38
604.081	71.38
604.845	63.38
605.609	63.38
606.372	60.38
607.136	57.38
607.899	56.38
608.662	52.38
609.426	53.38
610.189	50.38
610.952	48.38
611.715	42.38
612.478	45.38
613.241	43.38
614.004	43.38
614.767	39.38
615.529	40.38
616.292	33.38
617.055	40.38
617.817	34.38
618.579	29.38
619.342	30.38
620.104	31.38
620.866	29.38
621.628	26.38
622.39	27.38
623.152	25.38
623.914	25.38
624.676	22.38
625.438	26.38
626.199	23.38
626.961	25.38
627.722	25.38
628.484	22.38
629.245	22.38
630.006	20.38
630.768	21.38
631.529	21.38
632.29	16.38
633.051	16.38
633.812	16.38
634.573	16.38
635.333	16.38
636.094	14.38
636.855	15.38
637.615	16.38
638.376	13.38
639.136	13.38
639.896	12.38
640.657	14.38
641.417	13.38
642.177	14.38
642.937	13.38
643.697	11.38
644.457	14.38
645.216	12.38
645.976	12.38
646.736	9.38
647.495	10.38
648.255	11.38
649.014	7.38
649.774	8.38
650.533	8.38
651.292	8.38
652.051	9.38
652.81	8.38
653.569	5.38
654.328	9.38
655.087	10.38
655.846	8.38
656.604	8.38
657.363	7.38
658.121	8.38
658.88	9.38
659.638	4.38
660.397	8.38
661.155	6.38
661.913	7.38
662.671	8.38
663.429	7.38
664.187	8.38
664.945	4.38
665.703	7.38
666.46	6.38
667.218	6.38
667.976	8.38
668.733	6.38
669.49	8.38
670.248	9.38
671.005	6.38
671.762	4.38
672.519	7.38
673.276	5.38
674.033	6.38
674.79	5.38
675.547	4.38
676.304	4.38
677.06	6.38
677.817	4.38
678.574	6.38
679.33	5.38
680.086	5.38
680.843	6.38
681.599	6.38
682.355	5.38
683.111	5.38
683.867	4.38
684.623	3.38
685.379	5.38
686.135	4.38
686.89	4.38
687.646	5.38
688.402	4.38
689.157	7.38
689.912	4.38
690.668	5.38
691.423	4.38
692.178	3.38
692.933	4.38
693.688	3.38
694.443	5.38
695.198	5.38
695.953	4.38
696.708	5.38
697.462	4.38
698.217	5.38
698.972	4.38
699.726	4.38
700.48	4.38
701.235	6.38
701.989	6.38
702.743	3.38
703.497	6.38
704.251	3.38
705.005	3.38
705.759	5.38
706.513	2.38
707.266	6.38
708.02	5.38
708.774	4.38
709.527	4.38
710.28	5.38
711.034	3.38
711.787	3.38
712.54	7.38
713.293	3.38
714.046	5.38
714.799	5.38
715.552	3.38
716.305	7.38
717.058	4.38
717.81	6.38
718.563	6.38
719.315	4.38
720.068	3.38
720.82	3.38
721.573	5.38
722.325	4.38
723.077	4.38
723.829	5.38
724.581	6.38
725.333	3.38
726.085	4.38
726.836	7.38
727.588	4.38
728.34	6.38
729.091	3.38
729.843	6.38
730.594	3.38
731.346	4.38
732.097	4.38
732.848	6.38
733.599	5.38
734.35	6.38
735.101	5.38
735.852	7.38
736.603	6.38
737.354	4.38
738.104	5.38
738.855	7.38
739.605	7.38
740.356	8.38
741.106	4.38
741.856	7.38
742.607	5.38
743.357	6.38
744.107	3.38
744.857	6.38
745.607	8.38
746.357	5.38
747.106	6.38
747.856	4.38
748.606	4.38
749.355	5.38
750.105	6.38
750.854	7.38
751.603	6.38
752.353	6.38
753.102	7.38
753.851	8.38
754.6	7.38
755.349	6.38
756.098	6.38
756.847	7.38
757.595	8.38
758.344	6.38
759.093	10.38
759.841	7.38
760.589	7.38
761.338	8.38
762.086	7.38
762.834	7.38
763.582	6.38
764.331	7.38
765.079	8.38
765.826	6.38
766.574	10.38
767.322	8.38
768.07	9.38
768.817	10.38
769.565	8.38
770.312	6.38
771.06	5.38
771.807	10.38
772.554	7.38
773.302	9.38
774.049	10.38
774.796	10.38
775.543	13.38
776.29	9.38
777.036	9.38
777.783	10.38
778.53	10.38
779.276	9.38
780.023	8.38
780.769	10.38
781.516	9.38
782.262	10.38
783.008	9.38
783.754	8.38
784.5	12.38
785.246	10.38
785.992	13.38
786.738	13.38
787.484	10.38
788.23	11.38
788.975	9.38
789.721	11.38
790.466	10.38
791.212	10.38
791.957	10.38
792.702	9.38
793.447	10.38
794.193	8.38
794.938	10.38
795.683	8.38
796.427	5.38
797.172	9.38
797.917	6.38
798.662	10.38
799.406	10.38
800.151	7.38
800.895	8.38
801.64	8.38
802.384	8.38
803.128	9.38
803.872	9.38
804.616	10.38
805.36	6.38
806.104	8.38
806.848	8.38
807.592	8.38
808.336	3.38
809.079	7.38
809.823	7.38
810.566	7.38
811.31	7.38
812.053	8.38
812.796	6.38
813.539	7.38
814.283	6.38
815.026	7.38
815.769	6.38
816.511	7.38
817.254	6.38
817.997	7.38
818.74	6.38
819.482	6.38
820.225	7.38
820.967	6.38
821.71	6.38
822.452	6.38
823.194	4.38
823.936	5.38
824.678	5.38
825.42	5.38
826.162	6.38
826.904	4.38
827.646	6.38
828.388	5.38
829.129	6.38
829.871	4.38
830.612	8.38
831.354	2.38
832.095	4.38
832.836	5.38
833.577	5.38
834.319	4.38
835.06	7.38
835.801	5.38
836.542	3.38
837.282	3.38
838.023	4.38
838.764	6.38
839.504	5.38
840.245	4.38
840.985	4.38
841.726	5.38
842.466	3.38
843.206	2.38
843.946	4.38
844.687	5.38
845.427	4.38
846.166	4.38
846.906	2.38
847.646	4.38
848.386	3.38
849.125	3.38
849.865	3.38
850.605	3.38
851.344	3.38
852.083	5.38
852.823	4.38
853.562	6.38
854.301	3.38
855.04	1.38
855.779	1.38
856.518	3.38
857.257	4.38
857.995	4.38
858.734	1.38
859.473	4.38
860.211	0.38
860.95	2.38
861.688	4.38
862.426	2.38
863.165	1.38
863.903	3.38
864.641	3.38
865.379	4.38
866.117	3.38
866.855	-0.62
867.593	3.38
868.33	3.38
869.068	0.38
869.806	2.38
870.543	2.38
871.28	0.38
872.018	1.38
872.755	0.38
873.492	0.38
874.229	3.38
874.967	4.38
875.703	3.38
876.44	2.38
877.177	2.38
877.914	-0.62
878.651	3.38
879.387	1.38
880.124	1.38
880.86	2.38
881.597	0.38
882.333	-1.62
883.069	1.38
883.806	0.38
884.542	2.38
885.278	1.38
886.014	1.38
886.749	0.38
887.485	3.38
888.221	0.38
888.957	2.38
889.692	0.38
890.428	0.38
891.163	2.38
891.899	2.38
892.634	1.38
893.369	1.38
894.104	-0.62
894.839	2.38
895.574	1.38
896.309	1.38
897.044	2.38
897.779	3.38
898.514	2.38
899.248	0.38
899.983	0.38
900.717	-0.62
901.452	0.38
902.186	-1.62
902.92	0.38
903.654	2.38
904.389	1.38
905.123	0.38
905.857	0.38
906.59	2.38
907.324	0.38
908.058	-1.62
908.792	0.38
909.525	0.38
910.259	2.38
910.992	1.38
911.726	1.38
912.459	1.38
913.192	0.38
913.925	3.38
914.658	-2.62
915.391	1.38
916.124	1.38
916.857	1.38
917.59	0.38
918.323	-0.62
919.055	3.38
919.788	0.38
920.521	0.38
921.253	1.38
921.985	0.38
922.718	0.38
923.45	0.38
924.182	2.38
924.914	1.38
925.646	-0.62
926.378	0.38
927.11	0.38
927.841	1.38
928.573	1.38
929.305	-0.62
930.036	0.38
930.768	-2.62
931.499	3.38
932.23	1.38
932.962	0.38
933.693	0.38
934.424	-0.62
935.155	1.38
935.886	1.38
936.617	1.38
937.348	-0.62
938.078	0.38
938.809	0.38
939.54	0.38
940.27	0.38
941.001	-0.62
941.731	2.38
942.461	1.38
943.191	-1.62
943.922	1.38
944.652	0.38
945.382	2.38
946.112	2.38
946.841	0.38
947.571	0.38
948.301	-0.62
949.031	0.38
949.76	0.38
950.49	-1.62
951.219	-1.62
951.948	-0.62
952.678	-1.62
953.407	1.38
954.136	-2.62
954.865	0.38
955.594	-0.62
956.323	0.38
957.052	0.38
957.78	2.38
958.509	-1.62
959.238	2.38
959.966	1.38
960.695	-0.62
961.423	-1.62
962.151	-0.62
962.88	0.38
963.608	-0.62
964.336	1.38
965.064	0.38
965.792	0.38
966.52	1.38
967.247	-0.62
967.975	0.38
968.703	0.38
969.43	1.38
970.158	0.38
970.885	0.38
971.613	-1.62
972.34	0.38
973.067	-2.62
973.794	0.38
974.521	-1.62
975.248	2.38
975.975	-0.62
976.702	-1.62
977.429	-1.62
978.156	-1.62
978.882	-1.62
979.609	-0.62
980.335	0.38
981.062	0.38
981.788	1.38
982.514	0.38
983.24	1.38
983.967	0.38
984.693	-1.62
985.419	1.38
986.144	-1.62
986.87	1.38
987.596	1.38
988.322	2.38
989.047	0.38
989.773	1.38
990.498	1.38
991.224	0.38
991.949	-1.62
992.674	2.38
993.399	-1.62
994.124	0.38
994.849	0.38
995.574	-2.62
996.299	-0.62
997.024	0.38
997.749	1.38
998.473	0.38
999.198	-0.62
999.922	1.38
1000.647	0.38
1001.371	3.38
1002.095	-2.62
1002.82	-1.62
1003.544	-0.62
1004.268	2.38
1004.992	1.38
1005.716	1.38
1006.439	2.38
1007.163	1.38
1007.887	5.38
1008.611	1.38
1009.334	0.38
1010.058	2.38
1010.781	0.38
1011.504	1.38
1012.228	1.38
1012.951	0.38
1013.674	0.38
1014.397	0.38
1015.12	0.38
