节点500_425_QEPB04081__183__15-51-21-159.txt的数据

Date: Wed Nov 12 15:51:21 CST 2025
User: PC
Spectrometer: QEPB0408
触发模式: 0
积分时间 (秒): 1.000000E-2
Scans to average: 1
启用暗噪声校正: true
启用非线性校正: false
滑动平均宽度: 0
X轴模式: Wavelengths
Number of Pixels in Spectrum: 1044
>>>>>Begin Spectral Data<<<<<
220.843	2.12
221.644	3.12
222.444	5.12
223.244	4.12
224.045	2.12
224.845	2.12
225.645	2.12
226.445	3.12
227.245	5.12
228.045	3.12
228.845	7.12
229.645	4.12
230.444	3.12
231.244	4.12
232.043	3.12
232.843	4.12
233.642	7.12
234.442	5.12
235.241	7.12
236.04	6.12
236.839	6.12
237.638	6.12
238.437	7.12
239.236	7.12
240.035	5.12
240.833	7.12
241.632	6.12
242.43	7.12
243.229	10.12
244.027	8.12
244.826	11.12
245.624	9.12
246.422	8.12
247.22	8.12
248.018	8.12
248.816	8.12
249.614	10.12
250.412	12.12
251.21	11.12
252.007	9.12
252.805	9.12
253.602	11.12
254.4	12.12
255.197	11.12
255.994	10.12
256.791	12.12
257.589	13.12
258.386	14.12
259.183	12.12
259.979	13.12
260.776	14.12
261.573	16.12
262.37	18.12
263.166	19.12
263.963	19.12
264.759	20.12
265.556	16.12
266.352	19.12
267.148	19.12
267.944	19.12
268.74	20.12
269.536	20.12
270.332	19.12
271.128	24.12
271.924	25.12
272.719	21.12
273.515	25.12
274.311	22.12
275.106	24.12
275.901	26.12
276.697	24.12
277.492	24.12
278.287	25.12
279.082	23.12
279.877	26.12
280.672	26.12
281.467	25.12
282.262	23.12
283.056	30.12
283.851	23.12
284.646	26.12
285.44	26.12
286.234	26.12
287.029	24.12
287.823	27.12
288.617	23.12
289.411	24.12
290.205	25.12
290.999	27.12
291.793	23.12
292.587	26.12
293.381	24.12
294.174	19.12
294.968	25.12
295.761	22.12
296.555	21.12
297.348	19.12
298.141	21.12
298.935	24.12
299.728	23.12
300.521	18.12
301.314	16.12
302.107	16.12
302.899	17.12
303.692	15.12
304.485	14.12
305.277	16.12
306.07	17.12
306.862	15.12
307.655	19.12
308.447	14.12
309.239	14.12
310.031	16.12
310.823	14.12
311.615	12.12
312.407	12.12
313.199	13.12
313.991	14.12
314.783	12.12
315.574	10.12
316.366	10.12
317.157	12.12
317.949	12.12
318.74	10.12
319.531	14.12
320.322	9.12
321.113	11.12
321.904	9.12
322.695	10.12
323.486	9.12
324.277	8.12
325.068	10.12
325.858	9.12
326.649	8.12
327.439	9.12
328.23	10.12
329.02	7.12
329.81	10.12
330.6	10.12
331.391	9.12
332.181	8.12
332.971	7.12
333.76	8.12
334.55	8.12
335.34	10.12
336.13	12.12
336.919	8.12
337.709	9.12
338.498	8.12
339.287	7.12
340.077	11.12
340.866	10.12
341.655	10.12
342.444	10.12
343.233	7.12
344.022	10.12
344.811	6.12
345.6	12.12
346.388	10.12
347.177	9.12
347.965	7.12
348.754	6.12
349.542	8.12
350.33	6.12
351.119	5.12
351.907	9.12
352.695	6.12
353.483	9.12
354.271	7.12
355.059	8.12
355.846	9.12
356.634	6.12
357.422	6.12
358.209	5.12
358.997	10.12
359.784	7.12
360.571	6.12
361.359	6.12
362.146	6.12
362.933	6.12
363.72	8.12
364.507	7.12
365.294	6.12
366.081	10.12
366.867	6.12
367.654	5.12
368.44	4.12
369.227	8.12
370.013	7.12
370.8	7.12
371.586	4.12
372.372	5.12
373.158	8.12
373.944	7.12
374.73	4.12
375.516	5.12
376.302	7.12
377.088	8.12
377.873	9.12
378.659	6.12
379.445	7.12
380.23	6.12
381.015	6.12
381.801	7.12
382.586	9.12
383.371	6.12
384.156	6.12
384.941	6.12
385.726	4.12
386.511	6.12
387.296	8.12
388.08	7.12
388.865	8.12
389.649	8.12
390.434	8.12
391.218	10.12
392.003	9.12
392.787	9.12
393.571	10.12
394.355	9.12
395.139	8.12
395.923	8.12
396.707	8.12
397.491	7.12
398.274	9.12
399.058	10.12
399.842	7.12
400.625	10.12
401.408	9.12
402.192	9.12
402.975	8.12
403.758	11.12
404.541	10.12
405.324	10.12
406.107	9.12
406.89	8.12
407.673	10.12
408.456	8.12
409.238	10.12
410.021	15.12
410.803	10.12
411.586	12.12
412.368	12.12
413.151	13.12
413.933	12.12
414.715	13.12
415.497	11.12
416.279	11.12
417.061	16.12
417.843	13.12
418.624	12.12
419.406	14.12
420.188	14.12
420.969	14.12
421.751	17.12
422.532	16.12
423.313	16.12
424.095	15.12
424.876	18.12
425.657	17.12
426.438	16.12
427.219	19.12
428	17.12
428.78	18.12
429.561	20.12
430.342	20.12
431.122	22.12
431.903	20.12
432.683	22.12
433.464	23.12
434.244	26.12
435.024	25.12
435.804	25.12
436.584	25.12
437.364	26.12
438.144	29.12
438.924	29.12
439.704	34.12
440.483	31.12
441.263	32.12
442.042	40.12
442.822	39.12
443.601	42.12
444.38	40.12
445.16	48.12
445.939	56.12
446.718	56.12
447.497	60.12
448.276	65.12
449.054	70.12
449.833	75.12
450.612	84.12
451.391	91.12
452.169	100.12
452.948	106.12
453.726	117.12
454.504	139.12
455.282	148.12
456.061	162.12
456.839	180.12
457.617	201.12
458.395	232.12
459.172	248.12
459.95	282.12
460.728	313.12
461.506	347.12
462.283	391.12
463.061	430.12
463.838	484.12
464.615	542.12
465.393	595.12
466.17	668.12
466.947	745.12
467.724	832.12
468.501	931.12
469.278	1029.12
470.055	1162.12
470.831	1265.12
471.608	1431.12
472.385	1584.12
473.161	1758.12
473.938	1954.12
474.714	2152.12
475.49	2375.12
476.266	2611.12
477.043	2905.12
477.819	3188.12
478.595	3546.12
479.371	3870.12
480.146	4273.12
480.922	4709.12
481.698	5183.12
482.473	5700.12
483.249	6259.12
484.024	6888.12
484.8	7507.12
485.575	8182.12
486.35	9001.12
487.126	9795.12
487.901	10719.12
488.676	11723.12
489.451	12756.12
490.225	13871.12
491	15056.12
491.775	16343.12
492.55	17661.12
493.324	19028.12
494.099	20417.12
494.873	21778.12
495.647	23297.12
496.422	24817.12
497.196	26327.12
497.97	27826.12
498.744	29325.12
499.518	30636.12
500.292	31904.12
501.066	33043.12
501.839	34084.12
502.613	34945.12
503.387	35693.12
504.16	36117.12
504.934	36292.12
505.707	36170.12
506.48	36087.12
507.253	35736.12
508.027	35242.12
508.8	34591.12
509.573	33754.12
510.346	32798.12
511.118	31756.12
511.891	30746.12
512.664	29554.12
513.437	28275.12
514.209	27118.12
514.982	26174.12
515.754	25010.12
516.526	23916.12
517.298	22891.12
518.071	21907.12
518.843	21020.12
519.615	20128.12
520.387	19323.12
521.159	18616.12
521.93	17937.12
522.702	17190.12
523.474	16521.12
524.245	15876.12
525.017	15144.12
525.788	14392.12
526.56	13746.12
527.331	13097.12
528.102	12506.12
528.873	11882.12
529.644	11328.12
530.415	10783.12
531.186	10295.12
531.957	9716.12
532.728	9165.12
533.498	8671.12
534.269	8194.12
535.039	7753.12
535.81	7332.12
536.58	6932.12
537.351	6484.12
538.121	6140.12
538.891	5834.12
539.661	5532.12
540.431	5218.12
541.201	4960.12
541.971	4700.12
542.741	4452.12
543.51	4221.12
544.28	3988.12
545.05	3830.12
545.819	3631.12
546.588	3452.12
547.358	3278.12
548.127	3106.12
548.896	2960.12
549.665	2786.12
550.434	2674.12
551.203	2483.12
551.972	2379.12
552.741	2246.12
553.51	2144.12
554.278	1980.12
555.047	1885.12
555.815	1787.12
556.584	1686.12
557.352	1587.12
558.121	1510.12
558.889	1413.12
559.657	1328.12
560.425	1257.12
561.193	1204.12
561.961	1154.12
562.729	1075.12
563.496	1020.12
564.264	948.12
565.032	899.12
565.799	855.12
566.567	806.12
567.334	762.12
568.101	722.12
568.869	683.12
569.636	639.12
570.403	609.12
571.17	561.12
571.937	536.12
572.704	517.12
573.471	486.12
574.237	453.12
575.004	428.12
575.771	403.12
576.537	384.12
577.303	357.12
578.07	334.12
578.836	317.12
579.602	304.12
580.368	288.12
581.134	270.12
581.9	254.12
582.666	250.12
583.432	222.12
584.198	218.12
584.964	205.12
585.729	200.12
586.495	188.12
587.26	177.12
588.025	168.12
588.791	157.12
589.556	154.12
590.321	145.12
591.086	142.12
591.851	134.12
592.616	123.12
593.381	115.12
594.146	112.12
594.911	107.12
595.675	104.12
596.44	92.12
597.204	93.12
597.969	89.12
598.733	81.12
599.497	79.12
600.261	80.12
601.025	70.12
601.79	73.12
602.553	68.12
603.317	64.12
604.081	61.12
604.845	62.12
605.609	63.12
606.372	51.12
607.136	50.12
607.899	50.12
608.662	51.12
609.426	46.12
610.189	46.12
610.952	43.12
611.715	39.12
612.478	41.12
613.241	37.12
614.004	37.12
614.767	34.12
615.529	34.12
616.292	35.12
617.055	29.12
617.817	32.12
618.579	31.12
619.342	28.12
620.104	25.12
620.866	28.12
621.628	26.12
622.39	26.12
623.152	26.12
623.914	23.12
624.676	25.12
625.438	26.12
626.199	24.12
626.961	23.12
627.722	20.12
628.484	19.12
629.245	20.12
630.006	19.12
630.768	18.12
631.529	20.12
632.29	16.12
633.051	19.12
633.812	17.12
634.573	18.12
635.333	17.12
636.094	14.12
636.855	14.12
637.615	14.12
638.376	14.12
639.136	14.12
639.896	12.12
640.657	13.12
641.417	13.12
642.177	11.12
642.937	13.12
643.697	12.12
644.457	11.12
645.216	10.12
645.976	9.12
646.736	11.12
647.495	9.12
648.255	11.12
649.014	10.12
649.774	10.12
650.533	9.12
651.292	7.12
652.051	9.12
652.81	9.12
653.569	8.12
654.328	10.12
655.087	10.12
655.846	8.12
656.604	10.12
657.363	9.12
658.121	7.12
658.88	8.12
659.638	7.12
660.397	8.12
661.155	10.12
661.913	6.12
662.671	6.12
663.429	6.12
664.187	6.12
664.945	7.12
665.703	8.12
666.46	7.12
667.218	6.12
667.976	7.12
668.733	7.12
669.49	6.12
670.248	6.12
671.005	7.12
671.762	5.12
672.519	8.12
673.276	4.12
674.033	4.12
674.79	6.12
675.547	8.12
676.304	7.12
677.06	6.12
677.817	7.12
678.574	3.12
679.33	6.12
680.086	7.12
680.843	5.12
681.599	4.12
682.355	5.12
683.111	4.12
683.867	7.12
684.623	8.12
685.379	5.12
686.135	5.12
686.89	7.12
687.646	5.12
688.402	5.12
689.157	3.12
689.912	3.12
690.668	4.12
691.423	4.12
692.178	6.12
692.933	5.12
693.688	6.12
694.443	4.12
695.198	6.12
695.953	4.12
696.708	4.12
697.462	5.12
698.217	5.12
698.972	4.12
699.726	6.12
700.48	4.12
701.235	4.12
701.989	5.12
702.743	5.12
703.497	6.12
704.251	4.12
705.005	6.12
705.759	4.12
706.513	5.12
707.266	4.12
708.02	4.12
708.774	4.12
709.527	4.12
710.28	4.12
711.034	7.12
711.787	8.12
712.54	6.12
713.293	3.12
714.046	6.12
714.799	3.12
715.552	7.12
716.305	5.12
717.058	2.12
717.81	4.12
718.563	4.12
719.315	7.12
720.068	6.12
720.82	6.12
721.573	4.12
722.325	6.12
723.077	6.12
723.829	7.12
724.581	6.12
725.333	4.12
726.085	7.12
726.836	6.12
727.588	6.12
728.34	8.12
729.091	2.12
729.843	4.12
730.594	4.12
731.346	5.12
732.097	7.12
732.848	6.12
733.599	4.12
734.35	5.12
735.101	3.12
735.852	5.12
736.603	6.12
737.354	7.12
738.104	6.12
738.855	4.12
739.605	7.12
740.356	6.12
741.106	7.12
741.856	4.12
742.607	9.12
743.357	5.12
744.107	8.12
744.857	8.12
745.607	8.12
746.357	6.12
747.106	10.12
747.856	7.12
748.606	6.12
749.355	7.12
750.105	5.12
750.854	6.12
751.603	6.12
752.353	8.12
753.102	8.12
753.851	7.12
754.6	9.12
755.349	9.12
756.098	10.12
756.847	8.12
757.595	9.12
758.344	8.12
759.093	11.12
759.841	10.12
760.589	9.12
761.338	9.12
762.086	11.12
762.834	10.12
763.582	11.12
764.331	12.12
765.079	9.12
765.826	8.12
766.574	11.12
767.322	10.12
768.07	10.12
768.817	10.12
769.565	9.12
770.312	10.12
771.06	11.12
771.807	10.12
772.554	9.12
773.302	10.12
774.049	13.12
774.796	12.12
775.543	8.12
776.29	9.12
777.036	10.12
777.783	10.12
778.53	11.12
779.276	11.12
780.023	10.12
780.769	11.12
781.516	10.12
782.262	12.12
783.008	9.12
783.754	13.12
784.5	12.12
785.246	10.12
785.992	11.12
786.738	10.12
787.484	11.12
788.23	11.12
788.975	11.12
789.721	13.12
790.466	11.12
791.212	10.12
791.957	8.12
792.702	10.12
793.447	12.12
794.193	9.12
794.938	10.12
795.683	10.12
796.427	10.12
797.172	12.12
797.917	10.12
798.662	10.12
799.406	11.12
800.151	10.12
800.895	9.12
801.64	10.12
802.384	9.12
803.128	6.12
803.872	9.12
804.616	9.12
805.36	9.12
806.104	8.12
806.848	9.12
807.592	6.12
808.336	9.12
809.079	9.12
809.823	6.12
810.566	7.12
811.31	9.12
812.053	8.12
812.796	5.12
813.539	6.12
814.283	5.12
815.026	9.12
815.769	5.12
816.511	6.12
817.254	5.12
817.997	8.12
818.74	6.12
819.482	6.12
820.225	7.12
820.967	5.12
821.71	5.12
822.452	4.12
823.194	5.12
823.936	4.12
824.678	3.12
825.42	4.12
826.162	4.12
826.904	6.12
827.646	3.12
828.388	5.12
829.129	5.12
829.871	2.12
830.612	4.12
831.354	5.12
832.095	6.12
832.836	7.12
833.577	5.12
834.319	4.12
835.06	3.12
835.801	5.12
836.542	3.12
837.282	4.12
838.023	7.12
838.764	5.12
839.504	5.12
840.245	4.12
840.985	3.12
841.726	3.12
842.466	4.12
843.206	6.12
843.946	3.12
844.687	6.12
845.427	2.12
846.166	5.12
846.906	4.12
847.646	2.12
848.386	4.12
849.125	2.12
849.865	2.12
850.605	4.12
851.344	6.12
852.083	3.12
852.823	3.12
853.562	3.12
854.301	1.12
855.04	5.12
855.779	2.12
856.518	4.12
857.257	2.12
857.995	2.12
858.734	2.12
859.473	1.12
860.211	3.12
860.95	2.12
861.688	2.12
862.426	1.12
863.165	3.12
863.903	2.12
864.641	2.12
865.379	2.12
866.117	3.12
866.855	4.12
867.593	2.12
868.33	2.12
869.068	2.12
869.806	0.12
870.543	5.12
871.28	0.12
872.018	1.12
872.755	6.12
873.492	2.12
874.229	2.12
874.967	2.12
875.703	0.12
876.44	1.12
877.177	1.12
877.914	0.12
878.651	1.12
879.387	4.12
880.124	2.12
880.86	1.12
881.597	2.12
882.333	1.12
883.069	0.12
883.806	0.12
884.542	-0.88
885.278	2.12
886.014	2.12
886.749	1.12
887.485	1.12
888.221	0.12
888.957	1.12
889.692	-0.88
890.428	-0.88
891.163	-0.88
891.899	3.12
892.634	1.12
893.369	1.12
894.104	1.12
894.839	1.12
895.574	1.12
896.309	2.12
897.044	-0.88
897.779	0.12
898.514	0.12
899.248	0.12
899.983	-0.88
900.717	1.12
901.452	0.12
902.186	-0.88
902.92	0.12
903.654	2.12
904.389	1.12
905.123	-0.88
905.857	0.12
906.59	-0.88
907.324	2.12
908.058	4.12
908.792	1.12
909.525	2.12
910.259	-0.88
910.992	-0.88
911.726	0.12
912.459	2.12
913.192	1.12
913.925	1.12
914.658	2.12
915.391	0.12
916.124	1.12
916.857	1.12
917.59	-1.88
918.323	3.12
919.055	-0.88
919.788	-1.88
920.521	-0.88
921.253	-0.88
921.985	1.12
922.718	1.12
923.45	1.12
924.182	0.12
924.914	0.12
925.646	1.12
926.378	0.12
927.11	-0.88
927.841	0.12
928.573	0.12
929.305	1.12
930.036	0.12
930.768	2.12
931.499	0.12
932.23	1.12
932.962	-1.88
933.693	-0.88
934.424	1.12
935.155	-0.88
935.886	1.12
936.617	1.12
937.348	-0.88
938.078	0.12
938.809	-3.88
939.54	2.12
940.27	-0.88
941.001	1.12
941.731	1.12
942.461	-0.88
943.191	-0.88
943.922	1.12
944.652	0.12
945.382	0.12
946.112	1.12
946.841	-0.88
947.571	-1.88
948.301	0.12
949.031	1.12
949.76	1.12
950.49	2.12
951.219	-0.88
951.948	0.12
952.678	0.12
953.407	-0.88
954.136	-0.88
954.865	-1.88
955.594	1.12
956.323	0.12
957.052	3.12
957.78	0.12
958.509	0.12
959.238	1.12
959.966	1.12
960.695	-0.88
961.423	-3.88
962.151	0.12
962.88	0.12
963.608	1.12
964.336	0.12
965.064	0.12
965.792	1.12
966.52	-0.88
967.247	-0.88
967.975	1.12
968.703	-1.88
969.43	0.12
970.158	-1.88
970.885	2.12
971.613	-0.88
972.34	1.12
973.067	0.12
973.794	-0.88
974.521	2.12
975.248	2.12
975.975	-0.88
976.702	0.12
977.429	0.12
978.156	0.12
978.882	1.12
979.609	1.12
980.335	1.12
981.062	2.12
981.788	0.12
982.514	0.12
983.24	2.12
983.967	-0.88
984.693	-0.88
985.419	0.12
986.144	-1.88
986.87	1.12
987.596	0.12
988.322	-1.88
989.047	0.12
989.773	1.12
990.498	-0.88
991.224	0.12
991.949	0.12
992.674	-1.88
993.399	1.12
994.124	0.12
994.849	0.12
995.574	0.12
996.299	0.12
997.024	2.12
997.749	0.12
998.473	-0.88
999.198	1.12
999.922	0.12
1000.647	2.12
1001.371	2.12
1002.095	-0.88
1002.82	-1.88
1003.544	-0.88
1004.268	1.12
1004.992	2.12
1005.716	3.12
1006.439	3.12
1007.163	2.12
1007.887	4.12
1008.611	0.12
1009.334	-0.88
1010.058	-2.88
1010.781	-0.88
1011.504	1.12
1012.228	1.12
1012.951	1.12
1013.674	0.12
1014.397	-0.88
1015.12	1.12
