节点500_425_QEPB04081__587__15-58-04-428.txt的数据

Date: Wed Nov 12 15:58:04 CST 2025
User: PC
Spectrometer: QEPB0408
触发模式: 0
积分时间 (秒): 1.000000E-2
Scans to average: 1
启用暗噪声校正: true
启用非线性校正: false
滑动平均宽度: 0
X轴模式: Wavelengths
Number of Pixels in Spectrum: 1044
>>>>>Begin Spectral Data<<<<<
220.843	1.5
221.644	0.5
222.444	3.5
223.244	2.5
224.045	1.5
224.845	0.5
225.645	0.5
226.445	2.5
227.245	2.5
228.045	2.5
228.845	3.5
229.645	3.5
230.444	2.5
231.244	2.5
232.043	4.5
232.843	2.5
233.642	3.5
234.442	4.5
235.241	4.5
236.04	4.5
236.839	6.5
237.638	7.5
238.437	7.5
239.236	5.5
240.035	5.5
240.833	5.5
241.632	5.5
242.43	7.5
243.229	4.5
244.027	8.5
244.826	8.5
245.624	8.5
246.422	7.5
247.22	6.5
248.018	8.5
248.816	6.5
249.614	6.5
250.412	8.5
251.21	8.5
252.007	8.5
252.805	9.5
253.602	7.5
254.4	8.5
255.197	11.5
255.994	9.5
256.791	8.5
257.589	10.5
258.386	13.5
259.183	10.5
259.979	11.5
260.776	14.5
261.573	13.5
262.37	11.5
263.166	14.5
263.963	15.5
264.759	13.5
265.556	16.5
266.352	12.5
267.148	13.5
267.944	11.5
268.74	15.5
269.536	15.5
270.332	18.5
271.128	18.5
271.924	17.5
272.719	17.5
273.515	18.5
274.311	17.5
275.106	19.5
275.901	18.5
276.697	20.5
277.492	20.5
278.287	20.5
279.082	17.5
279.877	23.5
280.672	21.5
281.467	22.5
282.262	21.5
283.056	20.5
283.851	22.5
284.646	22.5
285.44	21.5
286.234	22.5
287.029	22.5
287.823	23.5
288.617	19.5
289.411	21.5
290.205	20.5
290.999	21.5
291.793	22.5
292.587	19.5
293.381	21.5
294.174	17.5
294.968	20.5
295.761	19.5
296.555	18.5
297.348	16.5
298.141	17.5
298.935	17.5
299.728	16.5
300.521	17.5
301.314	17.5
302.107	15.5
302.899	14.5
303.692	15.5
304.485	15.5
305.277	15.5
306.07	16.5
306.862	15.5
307.655	15.5
308.447	16.5
309.239	13.5
310.031	13.5
310.823	13.5
311.615	14.5
312.407	12.5
313.199	11.5
313.991	11.5
314.783	12.5
315.574	11.5
316.366	9.5
317.157	11.5
317.949	8.5
318.74	8.5
319.531	9.5
320.322	9.5
321.113	7.5
321.904	9.5
322.695	11.5
323.486	8.5
324.277	8.5
325.068	7.5
325.858	4.5
326.649	8.5
327.439	7.5
328.23	7.5
329.02	9.5
329.81	7.5
330.6	6.5
331.391	9.5
332.181	7.5
332.971	8.5
333.76	7.5
334.55	6.5
335.34	8.5
336.13	5.5
336.919	7.5
337.709	6.5
338.498	8.5
339.287	9.5
340.077	7.5
340.866	7.5
341.655	7.5
342.444	7.5
343.233	8.5
344.022	6.5
344.811	6.5
345.6	4.5
346.388	7.5
347.177	5.5
347.965	6.5
348.754	7.5
349.542	5.5
350.33	7.5
351.119	7.5
351.907	7.5
352.695	7.5
353.483	4.5
354.271	8.5
355.059	7.5
355.846	7.5
356.634	6.5
357.422	7.5
358.209	4.5
358.997	5.5
359.784	7.5
360.571	7.5
361.359	6.5
362.146	6.5
362.933	5.5
363.72	6.5
364.507	7.5
365.294	4.5
366.081	7.5
366.867	3.5
367.654	7.5
368.44	5.5
369.227	7.5
370.013	6.5
370.8	6.5
371.586	5.5
372.372	4.5
373.158	4.5
373.944	7.5
374.73	5.5
375.516	5.5
376.302	7.5
377.088	4.5
377.873	4.5
378.659	5.5
379.445	7.5
380.23	5.5
381.015	3.5
381.801	5.5
382.586	5.5
383.371	7.5
384.156	7.5
384.941	4.5
385.726	6.5
386.511	5.5
387.296	8.5
388.08	8.5
388.865	8.5
389.649	6.5
390.434	7.5
391.218	5.5
392.003	7.5
392.787	7.5
393.571	8.5
394.355	7.5
395.139	8.5
395.923	8.5
396.707	6.5
397.491	8.5
398.274	9.5
399.058	5.5
399.842	9.5
400.625	8.5
401.408	7.5
402.192	8.5
402.975	9.5
403.758	7.5
404.541	7.5
405.324	7.5
406.107	7.5
406.89	9.5
407.673	9.5
408.456	7.5
409.238	12.5
410.021	9.5
410.803	10.5
411.586	10.5
412.368	11.5
413.151	9.5
413.933	10.5
414.715	12.5
415.497	8.5
416.279	9.5
417.061	10.5
417.843	10.5
418.624	10.5
419.406	11.5
420.188	14.5
420.969	12.5
421.751	16.5
422.532	10.5
423.313	11.5
424.095	15.5
424.876	15.5
425.657	14.5
426.438	17.5
427.219	14.5
428	19.5
428.78	16.5
429.561	16.5
430.342	16.5
431.122	16.5
431.903	22.5
432.683	21.5
433.464	18.5
434.244	20.5
435.024	24.5
435.804	23.5
436.584	26.5
437.364	27.5
438.144	27.5
438.924	32.5
439.704	31.5
440.483	34.5
441.263	36.5
442.042	35.5
442.822	37.5
443.601	40.5
444.38	49.5
445.16	48.5
445.939	53.5
446.718	61.5
447.497	63.5
448.276	69.5
449.054	74.5
449.833	85.5
450.612	93.5
451.391	99.5
452.169	111.5
452.948	121.5
453.726	131.5
454.504	151.5
455.282	163.5
456.061	177.5
456.839	206.5
457.617	230.5
458.395	252.5
459.172	285.5
459.95	316.5
460.728	347.5
461.506	390.5
462.283	430.5
463.061	471.5
463.838	543.5
464.615	592.5
465.393	657.5
466.17	727.5
466.947	803.5
467.724	893.5
468.501	1005.5
469.278	1098.5
470.055	1220.5
470.831	1342.5
471.608	1473.5
472.385	1628.5
473.161	1808.5
473.938	1981.5
474.714	2167.5
475.49	2376.5
476.266	2598.5
477.043	2860.5
477.819	3121.5
478.595	3433.5
479.371	3751.5
480.146	4042.5
480.922	4427.5
481.698	4805.5
482.473	5257.5
483.249	5720.5
484.024	6232.5
484.8	6767.5
485.575	7347.5
486.35	7940.5
487.126	8615.5
487.901	9346.5
488.676	10144.5
489.451	10966.5
490.225	11838.5
491	12780.5
491.775	13804.5
492.55	14849.5
493.324	15934.5
494.099	17002.5
494.873	18112.5
495.647	19323.5
496.422	20558.5
497.196	21789.5
497.97	23138.5
498.744	24362.5
499.518	25735.5
500.292	26767.5
501.066	27956.5
501.839	29012.5
502.613	29996.5
503.387	30803.5
504.16	31496.5
504.934	32024.5
505.707	32260.5
506.48	32456.5
507.253	32477.5
508.027	32359.5
508.8	32149.5
509.573	31851.5
510.346	31248.5
511.118	30559.5
511.891	29888.5
512.664	29030.5
513.437	28068.5
514.209	27029.5
514.982	26227.5
515.754	25279.5
516.526	24240.5
517.298	23321.5
518.071	22295.5
518.843	21467.5
519.615	20563.5
520.387	19761.5
521.159	19053.5
521.93	18358.5
522.702	17595.5
523.474	16893.5
524.245	16263.5
525.017	15510.5
525.788	14865.5
526.56	14190.5
527.331	13617.5
528.102	12974.5
528.873	12455.5
529.644	11873.5
530.415	11384.5
531.186	10822.5
531.957	10303.5
532.728	9770.5
533.498	9227.5
534.269	8741.5
535.039	8294.5
535.81	7841.5
536.58	7463.5
537.351	7048.5
538.121	6646.5
538.891	6317.5
539.661	5978.5
540.431	5669.5
541.201	5398.5
541.971	5092.5
542.741	4832.5
543.51	4587.5
544.28	4350.5
545.05	4133.5
545.819	3927.5
546.588	3762.5
547.358	3566.5
548.127	3381.5
548.896	3228.5
549.665	3030.5
550.434	2885.5
551.203	2746.5
551.972	2607.5
552.741	2471.5
553.51	2343.5
554.278	2203.5
555.047	2096.5
555.815	1987.5
556.584	1867.5
557.352	1758.5
558.121	1656.5
558.889	1588.5
559.657	1490.5
560.425	1405.5
561.193	1336.5
561.961	1252.5
562.729	1185.5
563.496	1135.5
564.264	1059.5
565.032	1005.5
565.799	939.5
566.567	899.5
567.334	855.5
568.101	807.5
568.869	761.5
569.636	719.5
570.403	668.5
571.17	631.5
571.937	603.5
572.704	567.5
573.471	531.5
574.237	498.5
575.004	476.5
575.771	445.5
576.537	421.5
577.303	395.5
578.07	381.5
578.836	345.5
579.602	333.5
580.368	320.5
581.134	303.5
581.9	289.5
582.666	273.5
583.432	252.5
584.198	243.5
584.964	229.5
585.729	222.5
586.495	204.5
587.26	196.5
588.025	184.5
588.791	172.5
589.556	167.5
590.321	157.5
591.086	153.5
591.851	137.5
592.616	135.5
593.381	128.5
594.146	121.5
594.911	117.5
595.675	113.5
596.44	107.5
597.204	105.5
597.969	96.5
598.733	93.5
599.497	90.5
600.261	90.5
601.025	82.5
601.79	79.5
602.553	77.5
603.317	71.5
604.081	65.5
604.845	62.5
605.609	61.5
606.372	60.5
607.136	57.5
607.899	54.5
608.662	55.5
609.426	50.5
610.189	49.5
610.952	46.5
611.715	43.5
612.478	42.5
613.241	41.5
614.004	37.5
614.767	39.5
615.529	34.5
616.292	36.5
617.055	33.5
617.817	31.5
618.579	32.5
619.342	31.5
620.104	29.5
620.866	27.5
621.628	26.5
622.39	27.5
623.152	24.5
623.914	26.5
624.676	25.5
625.438	20.5
626.199	23.5
626.961	21.5
627.722	18.5
628.484	21.5
629.245	19.5
630.006	19.5
630.768	15.5
631.529	17.5
632.29	14.5
633.051	15.5
633.812	16.5
634.573	14.5
635.333	14.5
636.094	15.5
636.855	13.5
637.615	14.5
638.376	12.5
639.136	15.5
639.896	9.5
640.657	16.5
641.417	12.5
642.177	9.5
642.937	10.5
643.697	11.5
644.457	13.5
645.216	12.5
645.976	10.5
646.736	9.5
647.495	9.5
648.255	7.5
649.014	7.5
649.774	9.5
650.533	9.5
651.292	9.5
652.051	8.5
652.81	8.5
653.569	8.5
654.328	8.5
655.087	7.5
655.846	8.5
656.604	6.5
657.363	6.5
658.121	5.5
658.88	8.5
659.638	9.5
660.397	6.5
661.155	6.5
661.913	9.5
662.671	4.5
663.429	7.5
664.187	6.5
664.945	7.5
665.703	6.5
666.46	7.5
667.218	6.5
667.976	4.5
668.733	3.5
669.49	5.5
670.248	6.5
671.005	5.5
671.762	3.5
672.519	5.5
673.276	5.5
674.033	6.5
674.79	4.5
675.547	5.5
676.304	4.5
677.06	8.5
677.817	1.5
678.574	4.5
679.33	4.5
680.086	6.5
680.843	5.5
681.599	4.5
682.355	5.5
683.111	5.5
683.867	3.5
684.623	4.5
685.379	4.5
686.135	6.5
686.89	5.5
687.646	4.5
688.402	4.5
689.157	5.5
689.912	3.5
690.668	2.5
691.423	8.5
692.178	3.5
692.933	5.5
693.688	3.5
694.443	3.5
695.198	4.5
695.953	4.5
696.708	3.5
697.462	5.5
698.217	3.5
698.972	3.5
699.726	5.5
700.48	4.5
701.235	4.5
701.989	5.5
702.743	3.5
703.497	4.5
704.251	6.5
705.005	0.5
705.759	4.5
706.513	4.5
707.266	3.5
708.02	3.5
708.774	6.5
709.527	3.5
710.28	5.5
711.034	4.5
711.787	4.5
712.54	4.5
713.293	4.5
714.046	3.5
714.799	4.5
715.552	1.5
716.305	3.5
717.058	3.5
717.81	1.5
718.563	5.5
719.315	3.5
720.068	5.5
720.82	3.5
721.573	3.5
722.325	4.5
723.077	3.5
723.829	4.5
724.581	2.5
725.333	5.5
726.085	3.5
726.836	4.5
727.588	5.5
728.34	2.5
729.091	3.5
729.843	3.5
730.594	2.5
731.346	4.5
732.097	5.5
732.848	3.5
733.599	4.5
734.35	4.5
735.101	5.5
735.852	4.5
736.603	3.5
737.354	3.5
738.104	4.5
738.855	6.5
739.605	5.5
740.356	3.5
741.106	2.5
741.856	4.5
742.607	4.5
743.357	6.5
744.107	6.5
744.857	6.5
745.607	6.5
746.357	4.5
747.106	5.5
747.856	7.5
748.606	6.5
749.355	6.5
750.105	5.5
750.854	7.5
751.603	6.5
752.353	6.5
753.102	7.5
753.851	5.5
754.6	5.5
755.349	4.5
756.098	6.5
756.847	4.5
757.595	7.5
758.344	5.5
759.093	4.5
759.841	5.5
760.589	5.5
761.338	7.5
762.086	9.5
762.834	6.5
763.582	8.5
764.331	8.5
765.079	5.5
765.826	5.5
766.574	6.5
767.322	7.5
768.07	7.5
768.817	10.5
769.565	8.5
770.312	7.5
771.06	7.5
771.807	7.5
772.554	9.5
773.302	8.5
774.049	9.5
774.796	8.5
775.543	10.5
776.29	10.5
777.036	6.5
777.783	9.5
778.53	7.5
779.276	8.5
780.023	9.5
780.769	8.5
781.516	10.5
782.262	9.5
783.008	8.5
783.754	9.5
784.5	10.5
785.246	11.5
785.992	8.5
786.738	11.5
787.484	11.5
788.23	7.5
788.975	9.5
789.721	10.5
790.466	8.5
791.212	10.5
791.957	10.5
792.702	10.5
793.447	7.5
794.193	9.5
794.938	7.5
795.683	8.5
796.427	8.5
797.172	9.5
797.917	7.5
798.662	8.5
799.406	7.5
800.151	7.5
800.895	6.5
801.64	6.5
802.384	8.5
803.128	9.5
803.872	7.5
804.616	8.5
805.36	5.5
806.104	8.5
806.848	7.5
807.592	6.5
808.336	5.5
809.079	6.5
809.823	6.5
810.566	8.5
811.31	5.5
812.053	5.5
812.796	4.5
813.539	4.5
814.283	5.5
815.026	5.5
815.769	7.5
816.511	3.5
817.254	3.5
817.997	3.5
818.74	6.5
819.482	7.5
820.225	3.5
820.967	5.5
821.71	2.5
822.452	3.5
823.194	5.5
823.936	5.5
824.678	1.5
825.42	3.5
826.162	2.5
826.904	4.5
827.646	1.5
828.388	5.5
829.129	3.5
829.871	4.5
830.612	1.5
831.354	5.5
832.095	4.5
832.836	5.5
833.577	4.5
834.319	2.5
835.06	4.5
835.801	2.5
836.542	3.5
837.282	3.5
838.023	3.5
838.764	1.5
839.504	1.5
840.245	7.5
840.985	2.5
841.726	3.5
842.466	2.5
843.206	5.5
843.946	4.5
844.687	2.5
845.427	1.5
846.166	1.5
846.906	3.5
847.646	3.5
848.386	1.5
849.125	1.5
849.865	3.5
850.605	2.5
851.344	2.5
852.083	1.5
852.823	3.5
853.562	1.5
854.301	0.5
855.04	0.5
855.779	0.5
856.518	3.5
857.257	0.5
857.995	3.5
858.734	-0.5
859.473	3.5
860.211	2.5
860.95	0.5
861.688	2.5
862.426	0.5
863.165	1.5
863.903	2.5
864.641	1.5
865.379	2.5
866.117	1.5
866.855	-0.5
867.593	1.5
868.33	2.5
869.068	1.5
869.806	1.5
870.543	-0.5
871.28	0.5
872.018	0.5
872.755	0.5
873.492	0.5
874.229	1.5
874.967	-0.5
875.703	-0.5
876.44	-1.5
877.177	1.5
877.914	1.5
878.651	-0.5
879.387	0.5
880.124	0.5
880.86	1.5
881.597	1.5
882.333	0.5
883.069	-1.5
883.806	-0.5
884.542	0.5
885.278	-1.5
886.014	0.5
886.749	-0.5
887.485	1.5
888.221	-1.5
888.957	-0.5
889.692	0.5
890.428	1.5
891.163	-0.5
891.899	2.5
892.634	-1.5
893.369	1.5
894.104	1.5
894.839	0.5
895.574	-0.5
896.309	1.5
897.044	1.5
897.779	-1.5
898.514	-0.5
899.248	-0.5
899.983	0.5
900.717	-0.5
901.452	0.5
902.186	1.5
902.92	0.5
903.654	1.5
904.389	-2.5
905.123	-1.5
905.857	-1.5
906.59	-1.5
907.324	-0.5
908.058	-1.5
908.792	0.5
909.525	-0.5
910.259	2.5
910.992	0.5
911.726	-2.5
912.459	2.5
913.192	-1.5
913.925	-0.5
914.658	-2.5
915.391	-0.5
916.124	-2.5
916.857	-2.5
917.59	0.5
918.323	3.5
919.055	-2.5
919.788	-0.5
920.521	-2.5
921.253	1.5
921.985	-1.5
922.718	0.5
923.45	2.5
924.182	-0.5
924.914	-0.5
925.646	-0.5
926.378	0.5
927.11	-0.5
927.841	-1.5
928.573	0.5
929.305	-0.5
930.036	0.5
930.768	1.5
931.499	1.5
932.23	-0.5
932.962	-1.5
933.693	-0.5
934.424	-0.5
935.155	1.5
935.886	-0.5
936.617	0.5
937.348	0.5
938.078	0.5
938.809	0.5
939.54	0.5
940.27	-1.5
941.001	0.5
941.731	-1.5
942.461	-0.5
943.191	-0.5
943.922	1.5
944.652	-3.5
945.382	-1.5
946.112	1.5
946.841	1.5
947.571	-0.5
948.301	-0.5
949.031	-1.5
949.76	-0.5
950.49	-1.5
951.219	-0.5
951.948	-0.5
952.678	-1.5
953.407	1.5
954.136	-0.5
954.865	0.5
955.594	-2.5
956.323	1.5
957.052	0.5
957.78	-1.5
958.509	-1.5
959.238	-0.5
959.966	-0.5
960.695	-0.5
961.423	0.5
962.151	-3.5
962.88	-1.5
963.608	-0.5
964.336	-2.5
965.064	-0.5
965.792	-2.5
966.52	-2.5
967.247	-1.5
967.975	-1.5
968.703	-1.5
969.43	-2.5
970.158	0.5
970.885	-0.5
971.613	-0.5
972.34	-2.5
973.067	-0.5
973.794	0.5
974.521	-1.5
975.248	-0.5
975.975	-2.5
976.702	-1.5
977.429	-2.5
978.156	-0.5
978.882	0.5
979.609	-2.5
980.335	-0.5
981.062	-0.5
981.788	-0.5
982.514	-0.5
983.24	-2.5
983.967	0.5
984.693	1.5
985.419	-2.5
986.144	-0.5
986.87	-0.5
987.596	-1.5
988.322	-0.5
989.047	-0.5
989.773	0.5
990.498	-2.5
991.224	-0.5
991.949	-2.5
992.674	-0.5
993.399	1.5
994.124	-1.5
994.849	-1.5
995.574	-2.5
996.299	-0.5
997.024	-0.5
997.749	3.5
998.473	1.5
999.198	-1.5
999.922	-0.5
1000.647	0.5
1001.371	2.5
1002.095	-0.5
1002.82	-0.5
1003.544	-1.5
1004.268	2.5
1004.992	1.5
1005.716	2.5
1006.439	0.5
1007.163	2.5
1007.887	0.5
1008.611	2.5
1009.334	-0.5
1010.058	-0.5
1010.781	0.5
1011.504	-0.5
1012.228	1.5
1012.951	1.5
1013.674	-1.5
1014.397	0.5
1015.12	-0.5
