节点500_425_QEPB04081__144__15-50-42-296.txt的数据

Date: Wed Nov 12 15:50:42 CST 2025
User: PC
Spectrometer: QEPB0408
触发模式: 0
积分时间 (秒): 1.000000E-2
Scans to average: 1
启用暗噪声校正: true
启用非线性校正: false
滑动平均宽度: 0
X轴模式: Wavelengths
Number of Pixels in Spectrum: 1044
>>>>>Begin Spectral Data<<<<<
220.843	3.88
221.644	1.88
222.444	2.88
223.244	3.88
224.045	3.88
224.845	4.88
225.645	3.88
226.445	1.88
227.245	2.88
228.045	3.88
228.845	3.88
229.645	3.88
230.444	3.88
231.244	3.88
232.043	5.88
232.843	4.88
233.642	6.88
234.442	5.88
235.241	4.88
236.04	2.88
236.839	2.88
237.638	7.88
238.437	7.88
239.236	5.88
240.035	5.88
240.833	6.88
241.632	6.88
242.43	6.88
243.229	4.88
244.027	7.88
244.826	6.88
245.624	7.88
246.422	7.88
247.22	7.88
248.018	9.88
248.816	10.88
249.614	9.88
250.412	9.88
251.21	8.88
252.007	8.88
252.805	9.88
253.602	8.88
254.4	8.88
255.197	11.88
255.994	10.88
256.791	12.88
257.589	11.88
258.386	10.88
259.183	14.88
259.979	10.88
260.776	13.88
261.573	16.88
262.37	15.88
263.166	13.88
263.963	17.88
264.759	17.88
265.556	17.88
266.352	17.88
267.148	21.88
267.944	17.88
268.74	18.88
269.536	19.88
270.332	19.88
271.128	22.88
271.924	24.88
272.719	18.88
273.515	20.88
274.311	23.88
275.106	22.88
275.901	21.88
276.697	21.88
277.492	21.88
278.287	23.88
279.082	23.88
279.877	26.88
280.672	25.88
281.467	23.88
282.262	28.88
283.056	23.88
283.851	21.88
284.646	24.88
285.44	21.88
286.234	23.88
287.029	25.88
287.823	25.88
288.617	22.88
289.411	25.88
290.205	24.88
290.999	23.88
291.793	20.88
292.587	24.88
293.381	20.88
294.174	23.88
294.968	20.88
295.761	21.88
296.555	19.88
297.348	20.88
298.141	17.88
298.935	19.88
299.728	20.88
300.521	20.88
301.314	18.88
302.107	15.88
302.899	17.88
303.692	16.88
304.485	16.88
305.277	16.88
306.07	13.88
306.862	15.88
307.655	16.88
308.447	13.88
309.239	13.88
310.031	13.88
310.823	13.88
311.615	10.88
312.407	15.88
313.199	12.88
313.991	11.88
314.783	11.88
315.574	7.88
316.366	9.88
317.157	9.88
317.949	9.88
318.74	9.88
319.531	11.88
320.322	11.88
321.113	8.88
321.904	9.88
322.695	8.88
323.486	9.88
324.277	8.88
325.068	8.88
325.858	9.88
326.649	9.88
327.439	8.88
328.23	6.88
329.02	8.88
329.81	6.88
330.6	6.88
331.391	7.88
332.181	7.88
332.971	6.88
333.76	7.88
334.55	8.88
335.34	7.88
336.13	8.88
336.919	9.88
337.709	6.88
338.498	10.88
339.287	5.88
340.077	8.88
340.866	8.88
341.655	8.88
342.444	7.88
343.233	7.88
344.022	7.88
344.811	11.88
345.6	7.88
346.388	7.88
347.177	7.88
347.965	7.88
348.754	9.88
349.542	5.88
350.33	4.88
351.119	7.88
351.907	4.88
352.695	6.88
353.483	5.88
354.271	8.88
355.059	6.88
355.846	8.88
356.634	7.88
357.422	6.88
358.209	6.88
358.997	6.88
359.784	8.88
360.571	5.88
361.359	7.88
362.146	4.88
362.933	4.88
363.72	6.88
364.507	5.88
365.294	7.88
366.081	6.88
366.867	4.88
367.654	6.88
368.44	4.88
369.227	6.88
370.013	6.88
370.8	4.88
371.586	9.88
372.372	7.88
373.158	5.88
373.944	6.88
374.73	4.88
375.516	5.88
376.302	4.88
377.088	7.88
377.873	7.88
378.659	6.88
379.445	8.88
380.23	5.88
381.015	7.88
381.801	6.88
382.586	6.88
383.371	7.88
384.156	7.88
384.941	6.88
385.726	8.88
386.511	6.88
387.296	3.88
388.08	6.88
388.865	7.88
389.649	4.88
390.434	7.88
391.218	8.88
392.003	6.88
392.787	5.88
393.571	7.88
394.355	7.88
395.139	8.88
395.923	7.88
396.707	6.88
397.491	9.88
398.274	7.88
399.058	7.88
399.842	5.88
400.625	9.88
401.408	8.88
402.192	7.88
402.975	9.88
403.758	8.88
404.541	10.88
405.324	9.88
406.107	9.88
406.89	10.88
407.673	9.88
408.456	11.88
409.238	10.88
410.021	9.88
410.803	10.88
411.586	10.88
412.368	11.88
413.151	10.88
413.933	9.88
414.715	11.88
415.497	9.88
416.279	12.88
417.061	12.88
417.843	12.88
418.624	15.88
419.406	13.88
420.188	17.88
420.969	11.88
421.751	13.88
422.532	12.88
423.313	13.88
424.095	15.88
424.876	13.88
425.657	16.88
426.438	16.88
427.219	19.88
428	17.88
428.78	17.88
429.561	18.88
430.342	17.88
431.122	20.88
431.903	18.88
432.683	23.88
433.464	21.88
434.244	23.88
435.024	22.88
435.804	23.88
436.584	27.88
437.364	26.88
438.144	26.88
438.924	25.88
439.704	32.88
440.483	32.88
441.263	33.88
442.042	37.88
442.822	39.88
443.601	43.88
444.38	46.88
445.16	46.88
445.939	50.88
446.718	54.88
447.497	58.88
448.276	64.88
449.054	71.88
449.833	72.88
450.612	82.88
451.391	90.88
452.169	95.88
452.948	109.88
453.726	120.88
454.504	129.88
455.282	141.88
456.061	156.88
456.839	177.88
457.617	199.88
458.395	214.88
459.172	248.88
459.95	273.88
460.728	302.88
461.506	345.88
462.283	380.88
463.061	432.88
463.838	478.88
464.615	535.88
465.393	594.88
466.17	671.88
466.947	745.88
467.724	828.88
468.501	923.88
469.278	1027.88
470.055	1144.88
470.831	1266.88
471.608	1409.88
472.385	1583.88
473.161	1755.88
473.938	1919.88
474.714	2162.88
475.49	2361.88
476.266	2614.88
477.043	2876.88
477.819	3211.88
478.595	3533.88
479.371	3904.88
480.146	4282.88
480.922	4718.88
481.698	5187.88
482.473	5726.88
483.249	6266.88
484.024	6885.88
484.8	7620.88
485.575	8287.88
486.35	9077.88
487.126	9933.88
487.901	10888.88
488.676	11837.88
489.451	12905.88
490.225	14037.88
491	15347.88
491.775	16593.88
492.55	17932.88
493.324	19311.88
494.099	20763.88
494.873	22155.88
495.647	23626.88
496.422	25183.88
497.196	26720.88
497.97	28295.88
498.744	29755.88
499.518	31111.88
500.292	32430.88
501.066	33515.88
501.839	34575.88
502.613	35470.88
503.387	35991.88
504.16	36432.88
504.934	36559.88
505.707	36672.88
506.48	36413.88
507.253	35846.88
508.027	35370.88
508.8	34653.88
509.573	33839.88
510.346	32864.88
511.118	31799.88
511.891	30703.88
512.664	29438.88
513.437	28285.88
514.209	27089.88
514.982	26040.88
515.754	24902.88
516.526	23789.88
517.298	22787.88
518.071	21793.88
518.843	20913.88
519.615	20108.88
520.387	19256.88
521.159	18524.88
521.93	17853.88
522.702	17110.88
523.474	16456.88
524.245	15767.88
525.017	15039.88
525.788	14377.88
526.56	13665.88
527.331	13074.88
528.102	12403.88
528.873	11807.88
529.644	11225.88
530.415	10687.88
531.186	10153.88
531.957	9572.88
532.728	9053.88
533.498	8560.88
534.269	8083.88
535.039	7665.88
535.81	7224.88
536.58	6854.88
537.351	6421.88
538.121	6086.88
538.891	5797.88
539.661	5474.88
540.431	5178.88
541.201	4887.88
541.971	4659.88
542.741	4386.88
543.51	4179.88
544.28	3985.88
545.05	3783.88
545.819	3616.88
546.588	3429.88
547.358	3235.88
548.127	3077.88
548.896	2923.88
549.665	2772.88
550.434	2620.88
551.203	2481.88
551.972	2348.88
552.741	2235.88
553.51	2114.88
554.278	1993.88
555.047	1864.88
555.815	1755.88
556.584	1651.88
557.352	1568.88
558.121	1476.88
558.889	1396.88
559.657	1328.88
560.425	1233.88
561.193	1175.88
561.961	1119.88
562.729	1045.88
563.496	1005.88
564.264	935.88
565.032	891.88
565.799	840.88
566.567	787.88
567.334	758.88
568.101	719.88
568.869	670.88
569.636	633.88
570.403	597.88
571.17	560.88
571.937	529.88
572.704	506.88
573.471	476.88
574.237	443.88
575.004	426.88
575.771	397.88
576.537	368.88
577.303	351.88
578.07	336.88
578.836	320.88
579.602	287.88
580.368	277.88
581.134	270.88
581.9	257.88
582.666	237.88
583.432	225.88
584.198	212.88
584.964	201.88
585.729	193.88
586.495	184.88
587.26	174.88
588.025	161.88
588.791	154.88
589.556	149.88
590.321	138.88
591.086	133.88
591.851	123.88
592.616	121.88
593.381	115.88
594.146	108.88
594.911	105.88
595.675	96.88
596.44	92.88
597.204	92.88
597.969	89.88
598.733	89.88
599.497	78.88
600.261	72.88
601.025	73.88
601.79	72.88
602.553	65.88
603.317	63.88
604.081	61.88
604.845	58.88
605.609	55.88
606.372	52.88
607.136	52.88
607.899	49.88
608.662	44.88
609.426	46.88
610.189	45.88
610.952	42.88
611.715	40.88
612.478	40.88
613.241	37.88
614.004	34.88
614.767	35.88
615.529	33.88
616.292	33.88
617.055	29.88
617.817	32.88
618.579	29.88
619.342	27.88
620.104	29.88
620.866	26.88
621.628	25.88
622.39	26.88
623.152	23.88
623.914	24.88
624.676	21.88
625.438	21.88
626.199	20.88
626.961	19.88
627.722	15.88
628.484	20.88
629.245	17.88
630.006	17.88
630.768	15.88
631.529	18.88
632.29	18.88
633.051	15.88
633.812	16.88
634.573	16.88
635.333	15.88
636.094	14.88
636.855	12.88
637.615	14.88
638.376	12.88
639.136	10.88
639.896	12.88
640.657	14.88
641.417	10.88
642.177	10.88
642.937	11.88
643.697	9.88
644.457	10.88
645.216	9.88
645.976	12.88
646.736	9.88
647.495	12.88
648.255	10.88
649.014	10.88
649.774	7.88
650.533	8.88
651.292	9.88
652.051	5.88
652.81	7.88
653.569	9.88
654.328	10.88
655.087	8.88
655.846	9.88
656.604	8.88
657.363	7.88
658.121	9.88
658.88	6.88
659.638	8.88
660.397	6.88
661.155	6.88
661.913	8.88
662.671	5.88
663.429	7.88
664.187	5.88
664.945	6.88
665.703	4.88
666.46	5.88
667.218	8.88
667.976	6.88
668.733	5.88
669.49	4.88
670.248	7.88
671.005	5.88
671.762	5.88
672.519	5.88
673.276	5.88
674.033	5.88
674.79	5.88
675.547	2.88
676.304	4.88
677.06	3.88
677.817	5.88
678.574	6.88
679.33	5.88
680.086	5.88
680.843	1.88
681.599	4.88
682.355	4.88
683.111	3.88
683.867	3.88
684.623	5.88
685.379	6.88
686.135	3.88
686.89	4.88
687.646	5.88
688.402	5.88
689.157	5.88
689.912	3.88
690.668	2.88
691.423	3.88
692.178	3.88
692.933	4.88
693.688	4.88
694.443	3.88
695.198	5.88
695.953	3.88
696.708	3.88
697.462	2.88
698.217	6.88
698.972	3.88
699.726	3.88
700.48	2.88
701.235	3.88
701.989	4.88
702.743	2.88
703.497	5.88
704.251	3.88
705.005	5.88
705.759	3.88
706.513	6.88
707.266	3.88
708.02	2.88
708.774	4.88
709.527	4.88
710.28	5.88
711.034	3.88
711.787	3.88
712.54	4.88
713.293	5.88
714.046	4.88
714.799	2.88
715.552	5.88
716.305	3.88
717.058	2.88
717.81	5.88
718.563	3.88
719.315	6.88
720.068	4.88
720.82	5.88
721.573	6.88
722.325	1.88
723.077	3.88
723.829	3.88
724.581	5.88
725.333	7.88
726.085	5.88
726.836	5.88
727.588	4.88
728.34	5.88
729.091	5.88
729.843	3.88
730.594	3.88
731.346	5.88
732.097	6.88
732.848	4.88
733.599	5.88
734.35	6.88
735.101	5.88
735.852	5.88
736.603	6.88
737.354	6.88
738.104	5.88
738.855	4.88
739.605	5.88
740.356	4.88
741.106	4.88
741.856	6.88
742.607	5.88
743.357	7.88
744.107	8.88
744.857	7.88
745.607	4.88
746.357	5.88
747.106	6.88
747.856	9.88
748.606	4.88
749.355	7.88
750.105	6.88
750.854	8.88
751.603	6.88
752.353	7.88
753.102	5.88
753.851	5.88
754.6	8.88
755.349	6.88
756.098	7.88
756.847	9.88
757.595	9.88
758.344	6.88
759.093	7.88
759.841	7.88
760.589	8.88
761.338	7.88
762.086	7.88
762.834	9.88
763.582	9.88
764.331	9.88
765.079	9.88
765.826	10.88
766.574	7.88
767.322	10.88
768.07	10.88
768.817	12.88
769.565	9.88
770.312	11.88
771.06	11.88
771.807	8.88
772.554	10.88
773.302	11.88
774.049	11.88
774.796	11.88
775.543	12.88
776.29	9.88
777.036	11.88
777.783	11.88
778.53	11.88
779.276	11.88
780.023	10.88
780.769	11.88
781.516	8.88
782.262	12.88
783.008	10.88
783.754	9.88
784.5	11.88
785.246	12.88
785.992	12.88
786.738	9.88
787.484	10.88
788.23	13.88
788.975	10.88
789.721	12.88
790.466	10.88
791.212	11.88
791.957	8.88
792.702	8.88
793.447	10.88
794.193	7.88
794.938	9.88
795.683	7.88
796.427	9.88
797.172	11.88
797.917	9.88
798.662	11.88
799.406	8.88
800.151	11.88
800.895	9.88
801.64	10.88
802.384	8.88
803.128	6.88
803.872	7.88
804.616	6.88
805.36	8.88
806.104	7.88
806.848	7.88
807.592	9.88
808.336	6.88
809.079	5.88
809.823	5.88
810.566	5.88
811.31	8.88
812.053	4.88
812.796	5.88
813.539	7.88
814.283	7.88
815.026	6.88
815.769	6.88
816.511	3.88
817.254	7.88
817.997	4.88
818.74	6.88
819.482	4.88
820.225	7.88
820.967	4.88
821.71	6.88
822.452	3.88
823.194	7.88
823.936	3.88
824.678	4.88
825.42	3.88
826.162	3.88
826.904	6.88
827.646	5.88
828.388	3.88
829.129	1.88
829.871	3.88
830.612	4.88
831.354	4.88
832.095	2.88
832.836	3.88
833.577	4.88
834.319	3.88
835.06	3.88
835.801	4.88
836.542	3.88
837.282	2.88
838.023	2.88
838.764	2.88
839.504	3.88
840.245	3.88
840.985	2.88
841.726	3.88
842.466	2.88
843.206	2.88
843.946	3.88
844.687	5.88
845.427	3.88
846.166	2.88
846.906	3.88
847.646	0.88
848.386	3.88
849.125	3.88
849.865	2.88
850.605	2.88
851.344	0.88
852.083	2.88
852.823	3.88
853.562	3.88
854.301	2.88
855.04	2.88
855.779	2.88
856.518	0.88
857.257	3.88
857.995	4.88
858.734	0.88
859.473	1.88
860.211	3.88
860.95	0.88
861.688	1.88
862.426	-0.12
863.165	1.88
863.903	1.88
864.641	0.88
865.379	0.88
866.117	2.88
866.855	-1.12
867.593	-0.12
868.33	1.88
869.068	0.88
869.806	1.88
870.543	1.88
871.28	1.88
872.018	1.88
872.755	2.88
873.492	-0.12
874.229	-2.12
874.967	1.88
875.703	-0.12
876.44	2.88
877.177	-0.12
877.914	-0.12
878.651	0.88
879.387	0.88
880.124	0.88
880.86	-0.12
881.597	-0.12
882.333	0.88
883.069	0.88
883.806	0.88
884.542	1.88
885.278	3.88
886.014	0.88
886.749	1.88
887.485	0.88
888.221	-1.12
888.957	1.88
889.692	-0.12
890.428	-0.12
891.163	0.88
891.899	-1.12
892.634	0.88
893.369	-0.12
894.104	-0.12
894.839	0.88
895.574	0.88
896.309	-1.12
897.044	-2.12
897.779	0.88
898.514	-1.12
899.248	0.88
899.983	0.88
900.717	-1.12
901.452	-0.12
902.186	-1.12
902.92	1.88
903.654	0.88
904.389	1.88
905.123	-2.12
905.857	-0.12
906.59	0.88
907.324	-0.12
908.058	-0.12
908.792	-0.12
909.525	-0.12
910.259	0.88
910.992	-2.12
911.726	1.88
912.459	-1.12
913.192	0.88
913.925	-0.12
914.658	-3.12
915.391	0.88
916.124	-0.12
916.857	1.88
917.59	-0.12
918.323	-0.12
919.055	-1.12
919.788	-1.12
920.521	-0.12
921.253	0.88
921.985	-0.12
922.718	-1.12
923.45	-1.12
924.182	-1.12
924.914	-2.12
925.646	0.88
926.378	1.88
927.11	-0.12
927.841	-1.12
928.573	-0.12
929.305	-1.12
930.036	-0.12
930.768	-0.12
931.499	1.88
932.23	0.88
932.962	-0.12
933.693	-0.12
934.424	1.88
935.155	-0.12
935.886	0.88
936.617	-0.12
937.348	-1.12
938.078	0.88
938.809	-0.12
939.54	0.88
940.27	0.88
941.001	-1.12
941.731	1.88
942.461	-0.12
943.191	-0.12
943.922	0.88
944.652	0.88
945.382	0.88
946.112	-0.12
946.841	-0.12
947.571	-0.12
948.301	-2.12
949.031	-0.12
949.76	-2.12
950.49	-0.12
951.219	-1.12
951.948	0.88
952.678	-1.12
953.407	0.88
954.136	0.88
954.865	-1.12
955.594	-0.12
956.323	0.88
957.052	0.88
957.78	-0.12
958.509	-1.12
959.238	0.88
959.966	-1.12
960.695	-1.12
961.423	-1.12
962.151	-0.12
962.88	-2.12
963.608	-0.12
964.336	-0.12
965.064	-0.12
965.792	-0.12
966.52	-0.12
967.247	-0.12
967.975	0.88
968.703	-0.12
969.43	2.88
970.158	-2.12
970.885	0.88
971.613	-2.12
972.34	-1.12
973.067	-1.12
973.794	0.88
974.521	-0.12
975.248	-0.12
975.975	0.88
976.702	-1.12
977.429	-1.12
978.156	-0.12
978.882	-2.12
979.609	0.88
980.335	-0.12
981.062	-1.12
981.788	1.88
982.514	-0.12
983.24	0.88
983.967	-1.12
984.693	-1.12
985.419	-1.12
986.144	-2.12
986.87	-1.12
987.596	-1.12
988.322	-0.12
989.047	-1.12
989.773	1.88
990.498	0.88
991.224	-0.12
991.949	0.88
992.674	-0.12
993.399	0.88
994.124	-1.12
994.849	1.88
995.574	0.88
996.299	-1.12
997.024	0.88
997.749	-2.12
998.473	0.88
999.198	0.88
999.922	-0.12
1000.647	-0.12
1001.371	2.88
1002.095	0.88
1002.82	-4.12
1003.544	-0.12
1004.268	3.88
1004.992	1.88
1005.716	0.88
1006.439	2.88
1007.163	2.88
1007.887	2.88
1008.611	1.88
1009.334	-0.12
1010.058	-0.12
1010.781	-0.12
1011.504	-1.12
1012.228	0.88
1012.951	-0.12
1013.674	-0.12
1014.397	0.88
1015.12	-0.12
