节点500_425_QEPB04081__343__15-54-00-780.txt的数据

Date: Wed Nov 12 15:54:00 CST 2025
User: PC
Spectrometer: QEPB0408
触发模式: 0
积分时间 (秒): 1.000000E-2
Scans to average: 1
启用暗噪声校正: true
启用非线性校正: false
滑动平均宽度: 0
X轴模式: Wavelengths
Number of Pixels in Spectrum: 1044
>>>>>Begin Spectral Data<<<<<
220.843	2
221.644	0
222.444	2
223.244	0
224.045	3
224.845	3
225.645	2
226.445	4
227.245	4
228.045	4
228.845	4
229.645	3
230.444	5
231.244	3
232.043	10
232.843	6
233.642	5
234.442	7
235.241	2
236.04	7
236.839	5
237.638	8
238.437	6
239.236	5
240.035	5
240.833	7
241.632	8
242.43	7
243.229	8
244.027	8
244.826	5
245.624	6
246.422	6
247.22	7
248.018	8
248.816	8
249.614	10
250.412	8
251.21	12
252.007	9
252.805	10
253.602	11
254.4	9
255.197	12
255.994	11
256.791	14
257.589	12
258.386	13
259.183	14
259.979	13
260.776	18
261.573	11
262.37	14
263.166	14
263.963	17
264.759	17
265.556	17
266.352	19
267.148	16
267.944	18
268.74	19
269.536	20
270.332	21
271.128	20
271.924	18
272.719	21
273.515	22
274.311	19
275.106	23
275.901	20
276.697	22
277.492	23
278.287	23
279.082	22
279.877	24
280.672	21
281.467	24
282.262	23
283.056	25
283.851	24
284.646	23
285.44	25
286.234	23
287.029	25
287.823	24
288.617	23
289.411	24
290.205	24
290.999	23
291.793	22
292.587	23
293.381	23
294.174	22
294.968	18
295.761	19
296.555	19
297.348	19
298.141	17
298.935	23
299.728	18
300.521	17
301.314	17
302.107	18
302.899	18
303.692	13
304.485	16
305.277	18
306.07	13
306.862	17
307.655	15
308.447	17
309.239	14
310.031	12
310.823	13
311.615	12
312.407	12
313.199	13
313.991	13
314.783	14
315.574	10
316.366	12
317.157	11
317.949	10
318.74	8
319.531	8
320.322	11
321.113	9
321.904	10
322.695	10
323.486	10
324.277	11
325.068	9
325.858	9
326.649	7
327.439	10
328.23	9
329.02	8
329.81	8
330.6	8
331.391	9
332.181	6
332.971	7
333.76	7
334.55	8
335.34	8
336.13	8
336.919	7
337.709	8
338.498	9
339.287	8
340.077	8
340.866	7
341.655	9
342.444	11
343.233	9
344.022	10
344.811	7
345.6	7
346.388	8
347.177	9
347.965	8
348.754	10
349.542	5
350.33	8
351.119	6
351.907	9
352.695	7
353.483	7
354.271	7
355.059	7
355.846	9
356.634	5
357.422	8
358.209	7
358.997	7
359.784	7
360.571	6
361.359	6
362.146	7
362.933	6
363.72	6
364.507	7
365.294	8
366.081	4
366.867	4
367.654	8
368.44	6
369.227	9
370.013	5
370.8	6
371.586	6
372.372	8
373.158	7
373.944	7
374.73	8
375.516	6
376.302	10
377.088	6
377.873	9
378.659	7
379.445	8
380.23	5
381.015	7
381.801	6
382.586	6
383.371	6
384.156	7
384.941	6
385.726	7
386.511	8
387.296	6
388.08	9
388.865	9
389.649	12
390.434	8
391.218	7
392.003	8
392.787	8
393.571	6
394.355	8
395.139	8
395.923	9
396.707	7
397.491	10
398.274	8
399.058	9
399.842	8
400.625	10
401.408	11
402.192	10
402.975	8
403.758	10
404.541	10
405.324	11
406.107	12
406.89	10
407.673	10
408.456	13
409.238	9
410.021	10
410.803	12
411.586	9
412.368	16
413.151	10
413.933	12
414.715	14
415.497	10
416.279	13
417.061	15
417.843	13
418.624	13
419.406	14
420.188	15
420.969	13
421.751	12
422.532	12
423.313	13
424.095	16
424.876	16
425.657	18
426.438	15
427.219	18
428	15
428.78	15
429.561	17
430.342	20
431.122	19
431.903	18
432.683	22
433.464	21
434.244	24
435.024	25
435.804	25
436.584	25
437.364	25
438.144	30
438.924	31
439.704	33
440.483	35
441.263	37
442.042	39
442.822	41
443.601	40
444.38	48
445.16	48
445.939	52
446.718	54
447.497	60
448.276	68
449.054	72
449.833	81
450.612	83
451.391	100
452.169	104
452.948	115
453.726	123
454.504	136
455.282	150
456.061	164
456.839	190
457.617	208
458.395	234
459.172	264
459.95	290
460.728	324
461.506	364
462.283	402
463.061	451
463.838	498
464.615	562
465.393	626
466.17	692
466.947	772
467.724	865
468.501	960
469.278	1062
470.055	1185
470.831	1310
471.608	1453
472.385	1599
473.161	1771
473.938	1953
474.714	2178
475.49	2366
476.266	2606
477.043	2864
477.819	3175
478.595	3505
479.371	3828
480.146	4187
480.922	4631
481.698	5030
482.473	5492
483.249	6017
484.024	6629
484.8	7230
485.575	7874
486.35	8609
487.126	9346
487.901	10198
488.676	11095
489.451	12072
490.225	13092
491	14185
491.775	15361
492.55	16561
493.324	17858
494.099	19095
494.873	20348
495.647	21793
496.422	23111
497.196	24601
497.97	26088
498.744	27468
499.518	28769
500.292	29913
501.066	31110
501.839	32248
502.613	33177
503.387	33899
504.16	34458
504.934	34809
505.707	34863
506.48	34816
507.253	34663
508.027	34241
508.8	33826
509.573	33142
510.346	32343
511.118	31417
511.891	30527
512.664	29373
513.437	28251
514.209	27165
514.982	26151
515.754	25037
516.526	24070
517.298	23069
518.071	22037
518.843	21154
519.615	20312
520.387	19465
521.159	18775
521.93	18015
522.702	17273
523.474	16629
524.245	15963
525.017	15240
525.788	14524
526.56	13903
527.331	13289
528.102	12647
528.873	12100
529.644	11524
530.415	10975
531.186	10450
531.957	9941
532.728	9373
533.498	8860
534.269	8381
535.039	7935
535.81	7513
536.58	7076
537.351	6660
538.121	6308
538.891	5965
539.661	5683
540.431	5412
541.201	5085
541.971	4844
542.741	4568
543.51	4333
544.28	4127
545.05	3922
545.819	3755
546.588	3560
547.358	3371
548.127	3193
548.896	3039
549.665	2874
550.434	2751
551.203	2598
551.972	2449
552.741	2323
553.51	2211
554.278	2065
555.047	1938
555.815	1853
556.584	1755
557.352	1634
558.121	1556
558.889	1469
559.657	1387
560.425	1320
561.193	1249
561.961	1180
562.729	1106
563.496	1046
564.264	995
565.032	934
565.799	891
566.567	839
567.334	791
568.101	745
568.869	706
569.636	667
570.403	625
571.17	592
571.937	556
572.704	534
573.471	498
574.237	468
575.004	439
575.771	411
576.537	391
577.303	367
578.07	346
578.836	324
579.602	316
580.368	286
581.134	282
581.9	265
582.666	244
583.432	240
584.198	225
584.964	218
585.729	202
586.495	194
587.26	186
588.025	171
588.791	166
589.556	160
590.321	147
591.086	141
591.851	129
592.616	131
593.381	119
594.146	113
594.911	111
595.675	103
596.44	103
597.204	97
597.969	88
598.733	88
599.497	81
600.261	79
601.025	77
601.79	76
602.553	69
603.317	70
604.081	66
604.845	62
605.609	56
606.372	56
607.136	56
607.899	52
608.662	47
609.426	51
610.189	46
610.952	44
611.715	43
612.478	40
613.241	39
614.004	40
614.767	39
615.529	36
616.292	34
617.055	34
617.817	31
618.579	35
619.342	30
620.104	30
620.866	26
621.628	26
622.39	27
623.152	28
623.914	26
624.676	24
625.438	24
626.199	22
626.961	23
627.722	22
628.484	19
629.245	19
630.006	18
630.768	17
631.529	18
632.29	17
633.051	17
633.812	17
634.573	15
635.333	16
636.094	16
636.855	13
637.615	14
638.376	15
639.136	14
639.896	12
640.657	14
641.417	12
642.177	13
642.937	12
643.697	12
644.457	9
645.216	9
645.976	13
646.736	11
647.495	13
648.255	7
649.014	10
649.774	11
650.533	7
651.292	10
652.051	9
652.81	9
653.569	9
654.328	8
655.087	8
655.846	10
656.604	9
657.363	8
658.121	5
658.88	7
659.638	6
660.397	9
661.155	7
661.913	6
662.671	7
663.429	7
664.187	10
664.945	6
665.703	6
666.46	4
667.218	6
667.976	6
668.733	6
669.49	8
670.248	4
671.005	8
671.762	7
672.519	5
673.276	4
674.033	5
674.79	6
675.547	6
676.304	5
677.06	2
677.817	5
678.574	7
679.33	5
680.086	6
680.843	4
681.599	4
682.355	7
683.111	6
683.867	6
684.623	3
685.379	7
686.135	5
686.89	5
687.646	7
688.402	6
689.157	7
689.912	5
690.668	2
691.423	5
692.178	3
692.933	8
693.688	6
694.443	5
695.198	4
695.953	5
696.708	5
697.462	4
698.217	6
698.972	6
699.726	3
700.48	6
701.235	4
701.989	5
702.743	3
703.497	2
704.251	5
705.005	6
705.759	6
706.513	6
707.266	6
708.02	5
708.774	4
709.527	6
710.28	4
711.034	5
711.787	5
712.54	5
713.293	5
714.046	5
714.799	6
715.552	2
716.305	5
717.058	3
717.81	5
718.563	6
719.315	6
720.068	4
720.82	6
721.573	6
722.325	4
723.077	4
723.829	4
724.581	3
725.333	6
726.085	3
726.836	2
727.588	7
728.34	5
729.091	5
729.843	6
730.594	4
731.346	4
732.097	8
732.848	6
733.599	7
734.35	6
735.101	5
735.852	4
736.603	6
737.354	4
738.104	7
738.855	7
739.605	9
740.356	7
741.106	7
741.856	7
742.607	6
743.357	6
744.107	6
744.857	6
745.607	6
746.357	5
747.106	6
747.856	5
748.606	6
749.355	5
750.105	8
750.854	8
751.603	7
752.353	7
753.102	6
753.851	8
754.6	5
755.349	5
756.098	7
756.847	8
757.595	7
758.344	6
759.093	8
759.841	7
760.589	11
761.338	9
762.086	9
762.834	8
763.582	9
764.331	4
765.079	8
765.826	11
766.574	6
767.322	10
768.07	9
768.817	9
769.565	11
770.312	9
771.06	10
771.807	7
772.554	10
773.302	8
774.049	9
774.796	12
775.543	12
776.29	13
777.036	11
777.783	9
778.53	9
779.276	12
780.023	11
780.769	10
781.516	12
782.262	9
783.008	10
783.754	10
784.5	12
785.246	10
785.992	12
786.738	7
787.484	9
788.23	14
788.975	10
789.721	10
790.466	11
791.212	9
791.957	12
792.702	7
793.447	11
794.193	10
794.938	8
795.683	10
796.427	9
797.172	11
797.917	11
798.662	9
799.406	12
800.151	9
800.895	10
801.64	9
802.384	10
803.128	9
803.872	8
804.616	8
805.36	6
806.104	6
806.848	9
807.592	6
808.336	6
809.079	5
809.823	8
810.566	7
811.31	7
812.053	7
812.796	7
813.539	6
814.283	7
815.026	5
815.769	7
816.511	6
817.254	8
817.997	7
818.74	5
819.482	7
820.225	4
820.967	4
821.71	6
822.452	5
823.194	3
823.936	5
824.678	5
825.42	4
826.162	4
826.904	4
827.646	5
828.388	6
829.129	4
829.871	5
830.612	5
831.354	3
832.095	3
832.836	5
833.577	4
834.319	3
835.06	3
835.801	3
836.542	4
837.282	6
838.023	2
838.764	2
839.504	6
840.245	4
840.985	3
841.726	6
842.466	4
843.206	2
843.946	3
844.687	3
845.427	4
846.166	3
846.906	4
847.646	3
848.386	5
849.125	4
849.865	1
850.605	4
851.344	3
852.083	3
852.823	4
853.562	1
854.301	1
855.04	3
855.779	2
856.518	0
857.257	1
857.995	1
858.734	2
859.473	2
860.211	3
860.95	2
861.688	2
862.426	0
863.165	2
863.903	2
864.641	5
865.379	2
866.117	2
866.855	2
867.593	2
868.33	2
869.068	2
869.806	2
870.543	2
871.28	0
872.018	2
872.755	1
873.492	3
874.229	1
874.967	1
875.703	1
876.44	-1
877.177	1
877.914	0
878.651	0
879.387	1
880.124	2
880.86	0
881.597	0
882.333	1
883.069	2
883.806	-1
884.542	1
885.278	1
886.014	3
886.749	2
887.485	4
888.221	0
888.957	1
889.692	1
890.428	1
891.163	3
891.899	0
892.634	0
893.369	0
894.104	-1
894.839	0
895.574	-2
896.309	0
897.044	1
897.779	1
898.514	2
899.248	0
899.983	3
900.717	0
901.452	1
902.186	1
902.92	1
903.654	-2
904.389	1
905.123	1
905.857	0
906.59	1
907.324	0
908.058	0
908.792	1
909.525	0
910.259	2
910.992	-1
911.726	0
912.459	1
913.192	1
913.925	-1
914.658	0
915.391	-1
916.124	1
916.857	0
917.59	0
918.323	1
919.055	1
919.788	1
920.521	0
921.253	2
921.985	0
922.718	1
923.45	1
924.182	1
924.914	1
925.646	-2
926.378	0
927.11	-3
927.841	0
928.573	-2
929.305	-1
930.036	0
930.768	0
931.499	1
932.23	1
932.962	1
933.693	-1
934.424	-1
935.155	-2
935.886	0
936.617	2
937.348	-2
938.078	0
938.809	2
939.54	0
940.27	-1
941.001	0
941.731	0
942.461	0
943.191	2
943.922	0
944.652	0
945.382	2
946.112	0
946.841	0
947.571	1
948.301	3
949.031	0
949.76	0
950.49	1
951.219	-2
951.948	1
952.678	-2
953.407	1
954.136	1
954.865	-1
955.594	0
956.323	1
957.052	0
957.78	-2
958.509	0
959.238	2
959.966	2
960.695	1
961.423	1
962.151	-1
962.88	0
963.608	-2
964.336	1
965.064	0
965.792	0
966.52	-2
967.247	0
967.975	1
968.703	0
969.43	-2
970.158	1
970.885	0
971.613	2
972.34	-3
973.067	2
973.794	0
974.521	-2
975.248	1
975.975	1
976.702	-1
977.429	2
978.156	0
978.882	0
979.609	-2
980.335	3
981.062	-2
981.788	0
982.514	0
983.24	-1
983.967	-1
984.693	0
985.419	1
986.144	-1
986.87	1
987.596	0
988.322	0
989.047	1
989.773	-1
990.498	-2
991.224	-2
991.949	-2
992.674	2
993.399	2
994.124	2
994.849	-2
995.574	1
996.299	0
997.024	-1
997.749	2
998.473	-1
999.198	1
999.922	1
1000.647	1
1001.371	4
1002.095	-1
1002.82	-3
1003.544	-1
1004.268	2
1004.992	3
1005.716	3
1006.439	3
1007.163	2
1007.887	2
1008.611	1
1009.334	1
1010.058	1
1010.781	-1
1011.504	2
1012.228	2
1012.951	1
1013.674	2
1014.397	0
1015.12	-2
