节点500_425_QEPB04081__329__15-53-46-804.txt的数据

Date: Wed Nov 12 15:53:46 CST 2025
User: PC
Spectrometer: QEPB0408
触发模式: 0
积分时间 (秒): 1.000000E-2
Scans to average: 1
启用暗噪声校正: true
启用非线性校正: false
滑动平均宽度: 0
X轴模式: Wavelengths
Number of Pixels in Spectrum: 1044
>>>>>Begin Spectral Data<<<<<
220.843	2
221.644	4
222.444	4
223.244	4
224.045	7
224.845	6
225.645	8
226.445	4
227.245	5
228.045	3
228.845	5
229.645	6
230.444	2
231.244	6
232.043	7
232.843	7
233.642	7
234.442	5
235.241	7
236.04	9
236.839	7
237.638	8
238.437	7
239.236	7
240.035	7
240.833	10
241.632	9
242.43	8
243.229	9
244.027	6
244.826	10
245.624	8
246.422	10
247.22	10
248.018	9
248.816	9
249.614	8
250.412	13
251.21	9
252.007	11
252.805	10
253.602	12
254.4	12
255.197	12
255.994	12
256.791	14
257.589	14
258.386	12
259.183	10
259.979	13
260.776	16
261.573	14
262.37	16
263.166	16
263.963	15
264.759	19
265.556	18
266.352	18
267.148	17
267.944	20
268.74	20
269.536	21
270.332	21
271.128	21
271.924	23
272.719	24
273.515	26
274.311	22
275.106	23
275.901	21
276.697	23
277.492	25
278.287	22
279.082	24
279.877	24
280.672	24
281.467	27
282.262	25
283.056	26
283.851	24
284.646	27
285.44	26
286.234	25
287.029	25
287.823	22
288.617	27
289.411	25
290.205	21
290.999	28
291.793	23
292.587	23
293.381	22
294.174	20
294.968	22
295.761	21
296.555	21
297.348	21
298.141	20
298.935	22
299.728	22
300.521	22
301.314	17
302.107	19
302.899	16
303.692	18
304.485	17
305.277	17
306.07	17
306.862	17
307.655	17
308.447	15
309.239	18
310.031	17
310.823	12
311.615	16
312.407	13
313.199	15
313.991	13
314.783	15
315.574	10
316.366	12
317.157	13
317.949	14
318.74	10
319.531	12
320.322	12
321.113	11
321.904	12
322.695	11
323.486	14
324.277	10
325.068	11
325.858	10
326.649	7
327.439	13
328.23	10
329.02	10
329.81	9
330.6	10
331.391	10
332.181	10
332.971	10
333.76	8
334.55	10
335.34	11
336.13	11
336.919	10
337.709	11
338.498	9
339.287	11
340.077	11
340.866	10
341.655	8
342.444	10
343.233	7
344.022	13
344.811	10
345.6	7
346.388	8
347.177	11
347.965	8
348.754	8
349.542	9
350.33	7
351.119	6
351.907	11
352.695	7
353.483	8
354.271	8
355.059	8
355.846	6
356.634	8
357.422	11
358.209	8
358.997	7
359.784	7
360.571	7
361.359	8
362.146	7
362.933	8
363.72	7
364.507	10
365.294	5
366.081	8
366.867	10
367.654	5
368.44	8
369.227	7
370.013	6
370.8	9
371.586	9
372.372	7
373.158	6
373.944	9
374.73	8
375.516	8
376.302	5
377.088	9
377.873	9
378.659	4
379.445	8
380.23	7
381.015	9
381.801	9
382.586	7
383.371	8
384.156	8
384.941	9
385.726	7
386.511	7
387.296	8
388.08	6
388.865	10
389.649	8
390.434	10
391.218	6
392.003	9
392.787	8
393.571	9
394.355	7
395.139	7
395.923	9
396.707	9
397.491	7
398.274	9
399.058	10
399.842	13
400.625	9
401.408	13
402.192	11
402.975	9
403.758	10
404.541	10
405.324	7
406.107	14
406.89	13
407.673	12
408.456	14
409.238	11
410.021	14
410.803	12
411.586	11
412.368	13
413.151	13
413.933	14
414.715	13
415.497	13
416.279	10
417.061	13
417.843	13
418.624	12
419.406	15
420.188	15
420.969	15
421.751	15
422.532	16
423.313	15
424.095	18
424.876	18
425.657	18
426.438	19
427.219	19
428	18
428.78	21
429.561	22
430.342	17
431.122	19
431.903	21
432.683	24
433.464	25
434.244	24
435.024	24
435.804	27
436.584	25
437.364	29
438.144	31
438.924	33
439.704	32
440.483	34
441.263	36
442.042	38
442.822	41
443.601	42
444.38	44
445.16	50
445.939	51
446.718	57
447.497	65
448.276	66
449.054	75
449.833	78
450.612	87
451.391	95
452.169	103
452.948	114
453.726	130
454.504	140
455.282	151
456.061	169
456.839	184
457.617	213
458.395	237
459.172	259
459.95	292
460.728	315
461.506	354
462.283	405
463.061	449
463.838	501
464.615	563
465.393	619
466.17	681
466.947	777
467.724	861
468.501	959
469.278	1071
470.055	1181
470.831	1303
471.608	1452
472.385	1599
473.161	1769
473.938	1934
474.714	2143
475.49	2383
476.266	2612
477.043	2880
477.819	3180
478.595	3503
479.371	3836
480.146	4208
480.922	4611
481.698	5051
482.473	5520
483.249	6054
484.024	6637
484.8	7274
485.575	7914
486.35	8610
487.126	9401
487.901	10266
488.676	11163
489.451	12126
490.225	13111
491	14263
491.775	15448
492.55	16616
493.324	17910
494.099	19190
494.873	20487
495.647	21873
496.422	23260
497.196	24682
497.97	26229
498.744	27563
499.518	28840
500.292	30131
501.066	31197
501.839	32322
502.613	33274
503.387	33990
504.16	34520
504.934	34890
505.707	35011
506.48	34797
507.253	34676
508.027	34332
508.8	33804
509.573	33116
510.346	32354
511.118	31457
511.891	30421
512.664	29286
513.437	28174
514.209	27147
514.982	26175
515.754	25040
516.526	24006
517.298	22981
518.071	22073
518.843	21173
519.615	20277
520.387	19482
521.159	18745
521.93	18059
522.702	17250
523.474	16637
524.245	15932
525.017	15180
525.788	14537
526.56	13886
527.331	13273
528.102	12666
528.873	12068
529.644	11439
530.415	10975
531.186	10414
531.957	9892
532.728	9381
533.498	8854
534.269	8368
535.039	7931
535.81	7465
536.58	7046
537.351	6664
538.121	6269
538.891	5955
539.661	5676
540.431	5381
541.201	5064
541.971	4789
542.741	4604
543.51	4332
544.28	4125
545.05	3939
545.819	3736
546.588	3564
547.358	3360
548.127	3200
548.896	3027
549.665	2870
550.434	2730
551.203	2579
551.972	2449
552.741	2335
553.51	2192
554.278	2084
555.047	1954
555.815	1843
556.584	1755
557.352	1633
558.121	1548
558.889	1455
559.657	1387
560.425	1300
561.193	1239
561.961	1183
562.729	1101
563.496	1043
564.264	990
565.032	927
565.799	890
566.567	831
567.334	792
568.101	745
568.869	702
569.636	669
570.403	623
571.17	593
571.937	557
572.704	527
573.471	495
574.237	468
575.004	443
575.771	412
576.537	386
577.303	377
578.07	353
578.836	327
579.602	309
580.368	301
581.134	280
581.9	260
582.666	251
583.432	240
584.198	230
584.964	214
585.729	203
586.495	190
587.26	185
588.025	173
588.791	166
589.556	155
590.321	153
591.086	141
591.851	132
592.616	124
593.381	122
594.146	122
594.911	107
595.675	103
596.44	98
597.204	97
597.969	91
598.733	87
599.497	85
600.261	80
601.025	78
601.79	77
602.553	71
603.317	67
604.081	66
604.845	65
605.609	62
606.372	57
607.136	57
607.899	54
608.662	51
609.426	49
610.189	45
610.952	49
611.715	41
612.478	45
613.241	37
614.004	38
614.767	36
615.529	36
616.292	37
617.055	35
617.817	32
618.579	30
619.342	32
620.104	30
620.866	30
621.628	26
622.39	27
623.152	25
623.914	25
624.676	24
625.438	21
626.199	22
626.961	24
627.722	19
628.484	21
629.245	17
630.006	18
630.768	21
631.529	19
632.29	18
633.051	15
633.812	15
634.573	17
635.333	18
636.094	15
636.855	17
637.615	15
638.376	14
639.136	14
639.896	15
640.657	13
641.417	13
642.177	13
642.937	14
643.697	13
644.457	12
645.216	11
645.976	12
646.736	11
647.495	11
648.255	9
649.014	9
649.774	9
650.533	11
651.292	7
652.051	11
652.81	9
653.569	10
654.328	10
655.087	8
655.846	9
656.604	10
657.363	10
658.121	7
658.88	7
659.638	9
660.397	8
661.155	11
661.913	9
662.671	7
663.429	9
664.187	7
664.945	8
665.703	8
666.46	5
667.218	8
667.976	8
668.733	7
669.49	6
670.248	7
671.005	7
671.762	8
672.519	9
673.276	8
674.033	6
674.79	7
675.547	8
676.304	9
677.06	7
677.817	8
678.574	8
679.33	4
680.086	6
680.843	6
681.599	8
682.355	8
683.111	7
683.867	8
684.623	4
685.379	6
686.135	4
686.89	5
687.646	5
688.402	6
689.157	6
689.912	5
690.668	7
691.423	5
692.178	4
692.933	5
693.688	6
694.443	5
695.198	5
695.953	7
696.708	9
697.462	6
698.217	7
698.972	4
699.726	5
700.48	6
701.235	7
701.989	6
702.743	7
703.497	6
704.251	6
705.005	7
705.759	5
706.513	5
707.266	5
708.02	6
708.774	5
709.527	5
710.28	5
711.034	6
711.787	6
712.54	6
713.293	5
714.046	3
714.799	8
715.552	5
716.305	7
717.058	5
717.81	5
718.563	6
719.315	8
720.068	3
720.82	6
721.573	6
722.325	6
723.077	7
723.829	5
724.581	5
725.333	4
726.085	4
726.836	8
727.588	7
728.34	7
729.091	6
729.843	4
730.594	6
731.346	5
732.097	9
732.848	8
733.599	8
734.35	5
735.101	8
735.852	9
736.603	6
737.354	7
738.104	5
738.855	6
739.605	6
740.356	7
741.106	9
741.856	5
742.607	7
743.357	4
744.107	7
744.857	7
745.607	8
746.357	9
747.106	7
747.856	7
748.606	8
749.355	8
750.105	7
750.854	9
751.603	7
752.353	7
753.102	9
753.851	9
754.6	7
755.349	10
756.098	9
756.847	9
757.595	8
758.344	8
759.093	8
759.841	10
760.589	10
761.338	8
762.086	10
762.834	13
763.582	9
764.331	9
765.079	10
765.826	8
766.574	12
767.322	8
768.07	10
768.817	7
769.565	11
770.312	10
771.06	13
771.807	11
772.554	10
773.302	12
774.049	11
774.796	11
775.543	10
776.29	12
777.036	13
777.783	9
778.53	12
779.276	11
780.023	13
780.769	14
781.516	12
782.262	17
783.008	10
783.754	11
784.5	13
785.246	10
785.992	11
786.738	12
787.484	12
788.23	11
788.975	11
789.721	11
790.466	11
791.212	11
791.957	13
792.702	15
793.447	13
794.193	12
794.938	12
795.683	12
796.427	12
797.172	11
797.917	12
798.662	12
799.406	8
800.151	13
800.895	10
801.64	9
802.384	10
803.128	9
803.872	8
804.616	9
805.36	6
806.104	9
806.848	8
807.592	10
808.336	6
809.079	9
809.823	8
810.566	9
811.31	9
812.053	9
812.796	8
813.539	8
814.283	5
815.026	6
815.769	7
816.511	4
817.254	6
817.997	6
818.74	5
819.482	8
820.225	7
820.967	5
821.71	8
822.452	8
823.194	5
823.936	6
824.678	7
825.42	5
826.162	5
826.904	6
827.646	4
828.388	5
829.129	8
829.871	4
830.612	5
831.354	5
832.095	5
832.836	7
833.577	4
834.319	6
835.06	5
835.801	5
836.542	5
837.282	5
838.023	6
838.764	7
839.504	5
840.245	7
840.985	5
841.726	6
842.466	1
843.206	4
843.946	3
844.687	6
845.427	3
846.166	5
846.906	5
847.646	5
848.386	4
849.125	5
849.865	4
850.605	2
851.344	4
852.083	7
852.823	5
853.562	6
854.301	5
855.04	5
855.779	3
856.518	6
857.257	6
857.995	3
858.734	5
859.473	4
860.211	5
860.95	6
861.688	3
862.426	4
863.165	2
863.903	3
864.641	5
865.379	2
866.117	3
866.855	3
867.593	2
868.33	2
869.068	1
869.806	3
870.543	1
871.28	1
872.018	4
872.755	2
873.492	4
874.229	3
874.967	5
875.703	1
876.44	1
877.177	3
877.914	2
878.651	2
879.387	2
880.124	4
880.86	1
881.597	3
882.333	3
883.069	1
883.806	1
884.542	3
885.278	3
886.014	1
886.749	1
887.485	2
888.221	0
888.957	3
889.692	-1
890.428	4
891.163	4
891.899	2
892.634	2
893.369	0
894.104	4
894.839	2
895.574	0
896.309	2
897.044	2
897.779	2
898.514	0
899.248	1
899.983	2
900.717	1
901.452	2
902.186	2
902.92	2
903.654	2
904.389	1
905.123	1
905.857	1
906.59	3
907.324	1
908.058	0
908.792	0
909.525	-2
910.259	3
910.992	0
911.726	0
912.459	-1
913.192	1
913.925	3
914.658	2
915.391	1
916.124	-2
916.857	0
917.59	3
918.323	-1
919.055	3
919.788	0
920.521	2
921.253	1
921.985	3
922.718	-1
923.45	1
924.182	-1
924.914	0
925.646	2
926.378	2
927.11	0
927.841	-1
928.573	1
929.305	3
930.036	2
930.768	3
931.499	2
932.23	0
932.962	2
933.693	-1
934.424	1
935.155	3
935.886	-1
936.617	1
937.348	2
938.078	2
938.809	-1
939.54	1
940.27	2
941.001	0
941.731	1
942.461	2
943.191	3
943.922	3
944.652	-1
945.382	2
946.112	-1
946.841	1
947.571	3
948.301	1
949.031	1
949.76	2
950.49	4
951.219	1
951.948	2
952.678	1
953.407	2
954.136	3
954.865	2
955.594	2
956.323	2
957.052	0
957.78	2
958.509	-1
959.238	1
959.966	2
960.695	-1
961.423	1
962.151	1
962.88	-1
963.608	0
964.336	1
965.064	0
965.792	1
966.52	3
967.247	1
967.975	0
968.703	1
969.43	0
970.158	2
970.885	1
971.613	1
972.34	1
973.067	0
973.794	1
974.521	2
975.248	-2
975.975	-1
976.702	2
977.429	-1
978.156	0
978.882	1
979.609	-1
980.335	1
981.062	1
981.788	2
982.514	0
983.24	1
983.967	1
984.693	0
985.419	1
986.144	-1
986.87	0
987.596	0
988.322	1
989.047	2
989.773	0
990.498	1
991.224	1
991.949	0
992.674	2
993.399	2
994.124	3
994.849	0
995.574	2
996.299	2
997.024	1
997.749	0
998.473	2
999.198	2
999.922	2
1000.647	1
1001.371	5
1002.095	-1
1002.82	-1
1003.544	-1
1004.268	2
1004.992	2
1005.716	3
1006.439	3
1007.163	3
1007.887	6
1008.611	0
1009.334	1
1010.058	1
1010.781	1
1011.504	2
1012.228	3
1012.951	-1
1013.674	-1
1014.397	0
1015.12	0
