节点500_425_QEPB04081__142__15-50-40-295.txt的数据

Date: Wed Nov 12 15:50:40 CST 2025
User: PC
Spectrometer: QEPB0408
触发模式: 0
积分时间 (秒): 1.000000E-2
Scans to average: 1
启用暗噪声校正: true
启用非线性校正: false
滑动平均宽度: 0
X轴模式: Wavelengths
Number of Pixels in Spectrum: 1044
>>>>>Begin Spectral Data<<<<<
220.843	1.25
221.644	2.25
222.444	2.25
223.244	3.25
224.045	4.25
224.845	4.25
225.645	3.25
226.445	0.25
227.245	6.25
228.045	2.25
228.845	5.25
229.645	5.25
230.444	5.25
231.244	2.25
232.043	3.25
232.843	6.25
233.642	6.25
234.442	4.25
235.241	7.25
236.04	8.25
236.839	8.25
237.638	5.25
238.437	6.25
239.236	7.25
240.035	7.25
240.833	7.25
241.632	6.25
242.43	8.25
243.229	6.25
244.027	9.25
244.826	11.25
245.624	6.25
246.422	9.25
247.22	8.25
248.018	10.25
248.816	7.25
249.614	7.25
250.412	9.25
251.21	11.25
252.007	8.25
252.805	9.25
253.602	11.25
254.4	10.25
255.197	9.25
255.994	12.25
256.791	15.25
257.589	15.25
258.386	13.25
259.183	14.25
259.979	15.25
260.776	16.25
261.573	16.25
262.37	12.25
263.166	17.25
263.963	17.25
264.759	20.25
265.556	18.25
266.352	19.25
267.148	21.25
267.944	21.25
268.74	23.25
269.536	19.25
270.332	21.25
271.128	20.25
271.924	20.25
272.719	22.25
273.515	24.25
274.311	26.25
275.106	21.25
275.901	26.25
276.697	27.25
277.492	26.25
278.287	20.25
279.082	22.25
279.877	25.25
280.672	24.25
281.467	26.25
282.262	28.25
283.056	24.25
283.851	24.25
284.646	26.25
285.44	24.25
286.234	26.25
287.029	24.25
287.823	25.25
288.617	23.25
289.411	22.25
290.205	27.25
290.999	24.25
291.793	24.25
292.587	21.25
293.381	26.25
294.174	23.25
294.968	21.25
295.761	23.25
296.555	24.25
297.348	19.25
298.141	20.25
298.935	20.25
299.728	18.25
300.521	19.25
301.314	17.25
302.107	17.25
302.899	16.25
303.692	17.25
304.485	19.25
305.277	15.25
306.07	17.25
306.862	16.25
307.655	15.25
308.447	14.25
309.239	14.25
310.031	17.25
310.823	14.25
311.615	12.25
312.407	13.25
313.199	13.25
313.991	10.25
314.783	13.25
315.574	13.25
316.366	10.25
317.157	13.25
317.949	10.25
318.74	9.25
319.531	10.25
320.322	11.25
321.113	10.25
321.904	12.25
322.695	8.25
323.486	11.25
324.277	10.25
325.068	9.25
325.858	9.25
326.649	7.25
327.439	9.25
328.23	10.25
329.02	7.25
329.81	8.25
330.6	9.25
331.391	8.25
332.181	10.25
332.971	8.25
333.76	7.25
334.55	10.25
335.34	10.25
336.13	11.25
336.919	8.25
337.709	7.25
338.498	5.25
339.287	10.25
340.077	7.25
340.866	10.25
341.655	6.25
342.444	8.25
343.233	8.25
344.022	8.25
344.811	6.25
345.6	10.25
346.388	10.25
347.177	10.25
347.965	8.25
348.754	6.25
349.542	6.25
350.33	8.25
351.119	9.25
351.907	8.25
352.695	8.25
353.483	7.25
354.271	8.25
355.059	9.25
355.846	5.25
356.634	8.25
357.422	6.25
358.209	10.25
358.997	7.25
359.784	9.25
360.571	6.25
361.359	8.25
362.146	6.25
362.933	6.25
363.72	7.25
364.507	6.25
365.294	7.25
366.081	10.25
366.867	6.25
367.654	9.25
368.44	8.25
369.227	7.25
370.013	6.25
370.8	5.25
371.586	8.25
372.372	7.25
373.158	8.25
373.944	6.25
374.73	5.25
375.516	7.25
376.302	6.25
377.088	6.25
377.873	8.25
378.659	7.25
379.445	8.25
380.23	5.25
381.015	7.25
381.801	7.25
382.586	6.25
383.371	5.25
384.156	7.25
384.941	8.25
385.726	7.25
386.511	7.25
387.296	7.25
388.08	10.25
388.865	9.25
389.649	7.25
390.434	9.25
391.218	7.25
392.003	10.25
392.787	8.25
393.571	8.25
394.355	9.25
395.139	10.25
395.923	10.25
396.707	7.25
397.491	10.25
398.274	9.25
399.058	9.25
399.842	9.25
400.625	8.25
401.408	10.25
402.192	7.25
402.975	9.25
403.758	10.25
404.541	11.25
405.324	9.25
406.107	10.25
406.89	12.25
407.673	12.25
408.456	11.25
409.238	10.25
410.021	10.25
410.803	13.25
411.586	8.25
412.368	12.25
413.151	10.25
413.933	14.25
414.715	14.25
415.497	10.25
416.279	13.25
417.061	14.25
417.843	15.25
418.624	15.25
419.406	14.25
420.188	13.25
420.969	12.25
421.751	17.25
422.532	14.25
423.313	12.25
424.095	17.25
424.876	17.25
425.657	17.25
426.438	15.25
427.219	16.25
428	20.25
428.78	20.25
429.561	17.25
430.342	21.25
431.122	20.25
431.903	20.25
432.683	19.25
433.464	23.25
434.244	21.25
435.024	23.25
435.804	27.25
436.584	28.25
437.364	28.25
438.144	29.25
438.924	30.25
439.704	33.25
440.483	33.25
441.263	37.25
442.042	42.25
442.822	39.25
443.601	41.25
444.38	42.25
445.16	44.25
445.939	50.25
446.718	54.25
447.497	60.25
448.276	63.25
449.054	71.25
449.833	78.25
450.612	82.25
451.391	85.25
452.169	99.25
452.948	106.25
453.726	118.25
454.504	136.25
455.282	148.25
456.061	163.25
456.839	174.25
457.617	200.25
458.395	218.25
459.172	246.25
459.95	273.25
460.728	304.25
461.506	337.25
462.283	381.25
463.061	428.25
463.838	478.25
464.615	535.25
465.393	596.25
466.17	673.25
466.947	743.25
467.724	841.25
468.501	926.25
469.278	1032.25
470.055	1136.25
470.831	1270.25
471.608	1419.25
472.385	1564.25
473.161	1752.25
473.938	1941.25
474.714	2146.25
475.49	2380.25
476.266	2615.25
477.043	2886.25
477.819	3212.25
478.595	3543.25
479.371	3919.25
480.146	4279.25
480.922	4738.25
481.698	5196.25
482.473	5723.25
483.249	6280.25
484.024	6898.25
484.8	7569.25
485.575	8278.25
486.35	9068.25
487.126	9957.25
487.901	10841.25
488.676	11892.25
489.451	12902.25
490.225	14069.25
491	15296.25
491.775	16622.25
492.55	17957.25
493.324	19342.25
494.099	20740.25
494.873	22151.25
495.647	23668.25
496.422	25175.25
497.196	26725.25
497.97	28366.25
498.744	29822.25
499.518	31114.25
500.292	32343.25
501.066	33501.25
501.839	34594.25
502.613	35478.25
503.387	36027.25
504.16	36486.25
504.934	36596.25
505.707	36649.25
506.48	36387.25
507.253	35945.25
508.027	35410.25
508.8	34692.25
509.573	33829.25
510.346	32834.25
511.118	31871.25
511.891	30690.25
512.664	29471.25
513.437	28238.25
514.209	27034.25
514.982	26057.25
515.754	24928.25
516.526	23780.25
517.298	22782.25
518.071	21843.25
518.843	20901.25
519.615	20116.25
520.387	19251.25
521.159	18520.25
521.93	17851.25
522.702	17107.25
523.474	16455.25
524.245	15794.25
525.017	15021.25
525.788	14302.25
526.56	13658.25
527.331	13018.25
528.102	12402.25
528.873	11816.25
529.644	11241.25
530.415	10679.25
531.186	10162.25
531.957	9600.25
532.728	9066.25
533.498	8579.25
534.269	8102.25
535.039	7689.25
535.81	7255.25
536.58	6826.25
537.351	6434.25
538.121	6093.25
538.891	5769.25
539.661	5507.25
540.431	5212.25
541.201	4947.25
541.971	4656.25
542.741	4388.25
543.51	4182.25
544.28	3955.25
545.05	3790.25
545.819	3595.25
546.588	3430.25
547.358	3242.25
548.127	3107.25
548.896	2932.25
549.665	2772.25
550.434	2643.25
551.203	2485.25
551.972	2348.25
552.741	2235.25
553.51	2115.25
554.278	1979.25
555.047	1855.25
555.815	1753.25
556.584	1673.25
557.352	1577.25
558.121	1480.25
558.889	1396.25
559.657	1322.25
560.425	1246.25
561.193	1179.25
561.961	1124.25
562.729	1065.25
563.496	1011.25
564.264	944.25
565.032	892.25
565.799	852.25
566.567	789.25
567.334	766.25
568.101	710.25
568.869	677.25
569.636	639.25
570.403	599.25
571.17	567.25
571.937	529.25
572.704	504.25
573.471	471.25
574.237	447.25
575.004	427.25
575.771	401.25
576.537	367.25
577.303	353.25
578.07	332.25
578.836	318.25
579.602	292.25
580.368	281.25
581.134	262.25
581.9	250.25
582.666	240.25
583.432	222.25
584.198	216.25
584.964	205.25
585.729	191.25
586.495	181.25
587.26	171.25
588.025	160.25
588.791	158.25
589.556	151.25
590.321	134.25
591.086	134.25
591.851	129.25
592.616	119.25
593.381	118.25
594.146	113.25
594.911	105.25
595.675	101.25
596.44	98.25
597.204	94.25
597.969	88.25
598.733	83.25
599.497	76.25
600.261	78.25
601.025	74.25
601.79	67.25
602.553	70.25
603.317	63.25
604.081	62.25
604.845	62.25
605.609	55.25
606.372	54.25
607.136	52.25
607.899	51.25
608.662	50.25
609.426	45.25
610.189	45.25
610.952	46.25
611.715	43.25
612.478	40.25
613.241	38.25
614.004	37.25
614.767	36.25
615.529	31.25
616.292	32.25
617.055	32.25
617.817	33.25
618.579	31.25
619.342	26.25
620.104	28.25
620.866	26.25
621.628	26.25
622.39	23.25
623.152	24.25
623.914	22.25
624.676	21.25
625.438	22.25
626.199	20.25
626.961	18.25
627.722	21.25
628.484	17.25
629.245	18.25
630.006	18.25
630.768	18.25
631.529	13.25
632.29	19.25
633.051	19.25
633.812	16.25
634.573	16.25
635.333	19.25
636.094	14.25
636.855	15.25
637.615	16.25
638.376	16.25
639.136	9.25
639.896	14.25
640.657	13.25
641.417	15.25
642.177	14.25
642.937	10.25
643.697	13.25
644.457	12.25
645.216	10.25
645.976	10.25
646.736	11.25
647.495	11.25
648.255	10.25
649.014	12.25
649.774	10.25
650.533	10.25
651.292	8.25
652.051	10.25
652.81	10.25
653.569	9.25
654.328	8.25
655.087	10.25
655.846	7.25
656.604	6.25
657.363	8.25
658.121	7.25
658.88	7.25
659.638	8.25
660.397	8.25
661.155	6.25
661.913	9.25
662.671	6.25
663.429	6.25
664.187	8.25
664.945	9.25
665.703	7.25
666.46	5.25
667.218	9.25
667.976	6.25
668.733	7.25
669.49	6.25
670.248	8.25
671.005	7.25
671.762	7.25
672.519	6.25
673.276	4.25
674.033	6.25
674.79	7.25
675.547	4.25
676.304	6.25
677.06	7.25
677.817	6.25
678.574	3.25
679.33	7.25
680.086	6.25
680.843	8.25
681.599	7.25
682.355	6.25
683.111	6.25
683.867	6.25
684.623	6.25
685.379	6.25
686.135	4.25
686.89	5.25
687.646	4.25
688.402	3.25
689.157	7.25
689.912	5.25
690.668	4.25
691.423	6.25
692.178	2.25
692.933	5.25
693.688	4.25
694.443	5.25
695.198	3.25
695.953	8.25
696.708	5.25
697.462	5.25
698.217	6.25
698.972	3.25
699.726	5.25
700.48	3.25
701.235	5.25
701.989	6.25
702.743	2.25
703.497	5.25
704.251	6.25
705.005	2.25
705.759	4.25
706.513	4.25
707.266	5.25
708.02	4.25
708.774	4.25
709.527	5.25
710.28	4.25
711.034	5.25
711.787	4.25
712.54	5.25
713.293	4.25
714.046	7.25
714.799	3.25
715.552	5.25
716.305	3.25
717.058	4.25
717.81	5.25
718.563	2.25
719.315	5.25
720.068	8.25
720.82	4.25
721.573	5.25
722.325	4.25
723.077	6.25
723.829	4.25
724.581	6.25
725.333	5.25
726.085	6.25
726.836	7.25
727.588	5.25
728.34	7.25
729.091	5.25
729.843	5.25
730.594	6.25
731.346	6.25
732.097	7.25
732.848	5.25
733.599	6.25
734.35	8.25
735.101	6.25
735.852	6.25
736.603	7.25
737.354	6.25
738.104	4.25
738.855	6.25
739.605	5.25
740.356	7.25
741.106	6.25
741.856	7.25
742.607	4.25
743.357	3.25
744.107	7.25
744.857	8.25
745.607	7.25
746.357	6.25
747.106	10.25
747.856	5.25
748.606	8.25
749.355	7.25
750.105	8.25
750.854	8.25
751.603	6.25
752.353	8.25
753.102	6.25
753.851	9.25
754.6	9.25
755.349	8.25
756.098	8.25
756.847	4.25
757.595	10.25
758.344	7.25
759.093	6.25
759.841	9.25
760.589	6.25
761.338	8.25
762.086	9.25
762.834	9.25
763.582	10.25
764.331	10.25
765.079	10.25
765.826	10.25
766.574	7.25
767.322	11.25
768.07	9.25
768.817	10.25
769.565	10.25
770.312	10.25
771.06	14.25
771.807	12.25
772.554	10.25
773.302	12.25
774.049	10.25
774.796	10.25
775.543	10.25
776.29	11.25
777.036	11.25
777.783	10.25
778.53	11.25
779.276	10.25
780.023	10.25
780.769	13.25
781.516	10.25
782.262	12.25
783.008	10.25
783.754	11.25
784.5	10.25
785.246	13.25
785.992	12.25
786.738	10.25
787.484	13.25
788.23	12.25
788.975	9.25
789.721	11.25
790.466	10.25
791.212	13.25
791.957	13.25
792.702	8.25
793.447	13.25
794.193	8.25
794.938	10.25
795.683	10.25
796.427	12.25
797.172	10.25
797.917	10.25
798.662	9.25
799.406	9.25
800.151	12.25
800.895	10.25
801.64	8.25
802.384	9.25
803.128	9.25
803.872	9.25
804.616	7.25
805.36	8.25
806.104	7.25
806.848	7.25
807.592	9.25
808.336	5.25
809.079	7.25
809.823	7.25
810.566	8.25
811.31	10.25
812.053	8.25
812.796	10.25
813.539	8.25
814.283	8.25
815.026	5.25
815.769	6.25
816.511	6.25
817.254	7.25
817.997	4.25
818.74	6.25
819.482	5.25
820.225	4.25
820.967	4.25
821.71	6.25
822.452	6.25
823.194	5.25
823.936	3.25
824.678	6.25
825.42	5.25
826.162	4.25
826.904	5.25
827.646	3.25
828.388	5.25
829.129	5.25
829.871	4.25
830.612	2.25
831.354	6.25
832.095	5.25
832.836	4.25
833.577	4.25
834.319	6.25
835.06	5.25
835.801	5.25
836.542	4.25
837.282	4.25
838.023	3.25
838.764	4.25
839.504	2.25
840.245	4.25
840.985	5.25
841.726	5.25
842.466	4.25
843.206	2.25
843.946	2.25
844.687	4.25
845.427	3.25
846.166	4.25
846.906	1.25
847.646	3.25
848.386	1.25
849.125	1.25
849.865	3.25
850.605	4.25
851.344	4.25
852.083	3.25
852.823	2.25
853.562	2.25
854.301	4.25
855.04	4.25
855.779	4.25
856.518	1.25
857.257	4.25
857.995	2.25
858.734	2.25
859.473	3.25
860.211	1.25
860.95	3.25
861.688	1.25
862.426	4.25
863.165	1.25
863.903	2.25
864.641	2.25
865.379	1.25
866.117	3.25
866.855	1.25
867.593	1.25
868.33	2.25
869.068	1.25
869.806	2.25
870.543	1.25
871.28	1.25
872.018	1.25
872.755	3.25
873.492	0.25
874.229	-1.75
874.967	3.25
875.703	2.25
876.44	0.25
877.177	0.25
877.914	1.25
878.651	2.25
879.387	0.25
880.124	2.25
880.86	-1.75
881.597	-1.75
882.333	0.25
883.069	-0.75
883.806	0.25
884.542	1.25
885.278	1.25
886.014	0.25
886.749	0.25
887.485	2.25
888.221	0.25
888.957	2.25
889.692	0.25
890.428	1.25
891.163	0.25
891.899	1.25
892.634	3.25
893.369	0.25
894.104	1.25
894.839	-0.75
895.574	1.25
896.309	0.25
897.044	0.25
897.779	1.25
898.514	1.25
899.248	2.25
899.983	0.25
900.717	2.25
901.452	0.25
902.186	-0.75
902.92	0.25
903.654	0.25
904.389	-2.75
905.123	0.25
905.857	0.25
906.59	1.25
907.324	-0.75
908.058	0.25
908.792	-0.75
909.525	0.25
910.259	3.25
910.992	0.25
911.726	0.25
912.459	2.25
913.192	-1.75
913.925	0.25
914.658	1.25
915.391	2.25
916.124	1.25
916.857	2.25
917.59	-1.75
918.323	1.25
919.055	2.25
919.788	1.25
920.521	0.25
921.253	0.25
921.985	1.25
922.718	0.25
923.45	0.25
924.182	1.25
924.914	-0.75
925.646	0.25
926.378	0.25
927.11	2.25
927.841	-1.75
928.573	1.25
929.305	0.25
930.036	-0.75
930.768	1.25
931.499	2.25
932.23	2.25
932.962	-0.75
933.693	0.25
934.424	1.25
935.155	-1.75
935.886	0.25
936.617	-0.75
937.348	-1.75
938.078	1.25
938.809	0.25
939.54	0.25
940.27	1.25
941.001	-0.75
941.731	0.25
942.461	-1.75
943.191	1.25
943.922	1.25
944.652	0.25
945.382	1.25
946.112	0.25
946.841	0.25
947.571	0.25
948.301	-0.75
949.031	-0.75
949.76	0.25
950.49	-0.75
951.219	0.25
951.948	0.25
952.678	-0.75
953.407	1.25
954.136	2.25
954.865	-0.75
955.594	0.25
956.323	-0.75
957.052	0.25
957.78	1.25
958.509	0.25
959.238	0.25
959.966	2.25
960.695	1.25
961.423	-0.75
962.151	0.25
962.88	-1.75
963.608	0.25
964.336	1.25
965.064	1.25
965.792	0.25
966.52	0.25
967.247	-0.75
967.975	0.25
968.703	1.25
969.43	0.25
970.158	0.25
970.885	2.25
971.613	2.25
972.34	-0.75
973.067	2.25
973.794	0.25
974.521	1.25
975.248	1.25
975.975	0.25
976.702	-1.75
977.429	0.25
978.156	1.25
978.882	-0.75
979.609	3.25
980.335	1.25
981.062	-0.75
981.788	0.25
982.514	-1.75
983.24	-0.75
983.967	-0.75
984.693	-0.75
985.419	-1.75
986.144	-0.75
986.87	0.25
987.596	0.25
988.322	1.25
989.047	1.25
989.773	0.25
990.498	-0.75
991.224	-1.75
991.949	-0.75
992.674	-1.75
993.399	0.25
994.124	0.25
994.849	0.25
995.574	-0.75
996.299	-0.75
997.024	1.25
997.749	-1.75
998.473	0.25
999.198	1.25
999.922	-0.75
1000.647	1.25
1001.371	3.25
1002.095	-1.75
1002.82	-1.75
1003.544	0.25
1004.268	5.25
1004.992	1.25
1005.716	3.25
1006.439	3.25
1007.163	2.25
1007.887	2.25
1008.611	-0.75
1009.334	0.25
1010.058	-0.75
1010.781	-0.75
1011.504	-1.75
1012.228	-1.75
1012.951	0.25
1013.674	-0.75
1014.397	0.25
1015.12	0.25
