节点500_425_QEPB04081__500__15-56-37-587.txt的数据

Date: Wed Nov 12 15:56:37 CST 2025
User: PC
Spectrometer: QEPB0408
触发模式: 0
积分时间 (秒): 1.000000E-2
Scans to average: 1
启用暗噪声校正: true
启用非线性校正: false
滑动平均宽度: 0
X轴模式: Wavelengths
Number of Pixels in Spectrum: 1044
>>>>>Begin Spectral Data<<<<<
220.843	1.75
221.644	2.75
222.444	0.75
223.244	3.75
224.045	2.75
224.845	-0.25
225.645	1.75
226.445	1.75
227.245	1.75
228.045	3.75
228.845	5.75
229.645	3.75
230.444	3.75
231.244	4.75
232.043	4.75
232.843	3.75
233.642	4.75
234.442	4.75
235.241	2.75
236.04	5.75
236.839	6.75
237.638	4.75
238.437	4.75
239.236	3.75
240.035	3.75
240.833	7.75
241.632	4.75
242.43	3.75
243.229	8.75
244.027	5.75
244.826	3.75
245.624	4.75
246.422	9.75
247.22	5.75
248.018	8.75
248.816	8.75
249.614	6.75
250.412	6.75
251.21	10.75
252.007	8.75
252.805	8.75
253.602	10.75
254.4	10.75
255.197	7.75
255.994	9.75
256.791	9.75
257.589	12.75
258.386	11.75
259.183	12.75
259.979	14.75
260.776	11.75
261.573	12.75
262.37	14.75
263.166	13.75
263.963	12.75
264.759	14.75
265.556	16.75
266.352	15.75
267.148	15.75
267.944	16.75
268.74	16.75
269.536	15.75
270.332	16.75
271.128	20.75
271.924	15.75
272.719	19.75
273.515	18.75
274.311	17.75
275.106	23.75
275.901	22.75
276.697	21.75
277.492	22.75
278.287	19.75
279.082	21.75
279.877	24.75
280.672	23.75
281.467	23.75
282.262	22.75
283.056	19.75
283.851	23.75
284.646	23.75
285.44	21.75
286.234	21.75
287.029	20.75
287.823	18.75
288.617	26.75
289.411	20.75
290.205	22.75
290.999	21.75
291.793	18.75
292.587	21.75
293.381	19.75
294.174	22.75
294.968	21.75
295.761	18.75
296.555	16.75
297.348	17.75
298.141	17.75
298.935	21.75
299.728	17.75
300.521	18.75
301.314	15.75
302.107	15.75
302.899	14.75
303.692	17.75
304.485	13.75
305.277	14.75
306.07	13.75
306.862	14.75
307.655	14.75
308.447	12.75
309.239	14.75
310.031	14.75
310.823	13.75
311.615	15.75
312.407	12.75
313.199	10.75
313.991	9.75
314.783	13.75
315.574	11.75
316.366	12.75
317.157	9.75
317.949	5.75
318.74	9.75
319.531	11.75
320.322	9.75
321.113	9.75
321.904	9.75
322.695	9.75
323.486	7.75
324.277	11.75
325.068	9.75
325.858	7.75
326.649	8.75
327.439	8.75
328.23	8.75
329.02	8.75
329.81	6.75
330.6	9.75
331.391	6.75
332.181	6.75
332.971	8.75
333.76	6.75
334.55	4.75
335.34	8.75
336.13	9.75
336.919	7.75
337.709	7.75
338.498	8.75
339.287	6.75
340.077	7.75
340.866	6.75
341.655	8.75
342.444	3.75
343.233	8.75
344.022	5.75
344.811	8.75
345.6	7.75
346.388	10.75
347.177	8.75
347.965	7.75
348.754	6.75
349.542	8.75
350.33	4.75
351.119	6.75
351.907	6.75
352.695	7.75
353.483	6.75
354.271	6.75
355.059	6.75
355.846	5.75
356.634	5.75
357.422	6.75
358.209	7.75
358.997	7.75
359.784	7.75
360.571	6.75
361.359	5.75
362.146	8.75
362.933	7.75
363.72	4.75
364.507	7.75
365.294	5.75
366.081	7.75
366.867	5.75
367.654	5.75
368.44	4.75
369.227	5.75
370.013	6.75
370.8	7.75
371.586	7.75
372.372	4.75
373.158	6.75
373.944	6.75
374.73	5.75
375.516	6.75
376.302	6.75
377.088	5.75
377.873	8.75
378.659	4.75
379.445	6.75
380.23	7.75
381.015	5.75
381.801	6.75
382.586	4.75
383.371	3.75
384.156	5.75
384.941	5.75
385.726	6.75
386.511	6.75
387.296	6.75
388.08	7.75
388.865	7.75
389.649	6.75
390.434	9.75
391.218	7.75
392.003	6.75
392.787	7.75
393.571	6.75
394.355	5.75
395.139	10.75
395.923	6.75
396.707	7.75
397.491	6.75
398.274	8.75
399.058	8.75
399.842	7.75
400.625	9.75
401.408	7.75
402.192	7.75
402.975	8.75
403.758	7.75
404.541	10.75
405.324	8.75
406.107	7.75
406.89	8.75
407.673	8.75
408.456	8.75
409.238	10.75
410.021	10.75
410.803	13.75
411.586	9.75
412.368	11.75
413.151	12.75
413.933	11.75
414.715	8.75
415.497	9.75
416.279	9.75
417.061	13.75
417.843	9.75
418.624	11.75
419.406	14.75
420.188	13.75
420.969	12.75
421.751	13.75
422.532	12.75
423.313	15.75
424.095	13.75
424.876	15.75
425.657	13.75
426.438	15.75
427.219	17.75
428	16.75
428.78	18.75
429.561	19.75
430.342	18.75
431.122	21.75
431.903	20.75
432.683	19.75
433.464	20.75
434.244	26.75
435.024	24.75
435.804	25.75
436.584	25.75
437.364	25.75
438.144	29.75
438.924	31.75
439.704	30.75
440.483	33.75
441.263	37.75
442.042	35.75
442.822	41.75
443.601	44.75
444.38	44.75
445.16	51.75
445.939	55.75
446.718	56.75
447.497	61.75
448.276	67.75
449.054	73.75
449.833	84.75
450.612	91.75
451.391	98.75
452.169	107.75
452.948	117.75
453.726	131.75
454.504	147.75
455.282	160.75
456.061	174.75
456.839	202.75
457.617	214.75
458.395	248.75
459.172	281.75
459.95	311.75
460.728	337.75
461.506	376.75
462.283	424.75
463.061	472.75
463.838	524.75
464.615	588.75
465.393	649.75
466.17	713.75
466.947	791.75
467.724	881.75
468.501	984.75
469.278	1097.75
470.055	1208.75
470.831	1315.75
471.608	1467.75
472.385	1609.75
473.161	1789.75
473.938	1962.75
474.714	2175.75
475.49	2374.75
476.266	2591.75
477.043	2857.75
477.819	3138.75
478.595	3438.75
479.371	3769.75
480.146	4095.75
480.922	4506.75
481.698	4875.75
482.473	5323.75
483.249	5807.75
484.024	6367.75
484.8	6903.75
485.575	7550.75
486.35	8162.75
487.126	8831.75
487.901	9595.75
488.676	10415.75
489.451	11267.75
490.225	12225.75
491	13257.75
491.775	14268.75
492.55	15388.75
493.324	16560.75
494.099	17701.75
494.873	18840.75
495.647	20095.75
496.422	21338.75
497.196	22705.75
497.97	24032.75
498.744	25371.75
499.518	26640.75
500.292	27790.75
501.066	28816.75
501.839	30080.75
502.613	30955.75
503.387	31770.75
504.16	32416.75
504.934	32912.75
505.707	33128.75
506.48	33230.75
507.253	33225.75
508.027	33039.75
508.8	32735.75
509.573	32251.75
510.346	31601.75
511.118	30850.75
511.891	30004.75
512.664	29089.75
513.437	28137.75
514.209	27083.75
514.982	26195.75
515.754	25235.75
516.526	24237.75
517.298	23173.75
518.071	22219.75
518.843	21350.75
519.615	20516.75
520.387	19686.75
521.159	18995.75
521.93	18266.75
522.702	17496.75
523.474	16767.75
524.245	16154.75
525.017	15467.75
525.788	14704.75
526.56	14104.75
527.331	13446.75
528.102	12907.75
528.873	12296.75
529.644	11709.75
530.415	11249.75
531.186	10726.75
531.957	10148.75
532.728	9653.75
533.498	9145.75
534.269	8655.75
535.039	8201.75
535.81	7739.75
536.58	7318.75
537.351	6923.75
538.121	6528.75
538.891	6203.75
539.661	5890.75
540.431	5590.75
541.201	5272.75
541.971	4991.75
542.741	4743.75
543.51	4520.75
544.28	4299.75
545.05	4097.75
545.819	3903.75
546.588	3666.75
547.358	3463.75
548.127	3287.75
548.896	3168.75
549.665	3015.75
550.434	2853.75
551.203	2715.75
551.972	2556.75
552.741	2415.75
553.51	2290.75
554.278	2158.75
555.047	2033.75
555.815	1938.75
556.584	1839.75
557.352	1714.75
558.121	1604.75
558.889	1518.75
559.657	1457.75
560.425	1359.75
561.193	1307.75
561.961	1237.75
562.729	1176.75
563.496	1099.75
564.264	1041.75
565.032	975.75
565.799	933.75
566.567	886.75
567.334	828.75
568.101	787.75
568.869	748.75
569.636	693.75
570.403	666.75
571.17	616.75
571.937	584.75
572.704	555.75
573.471	529.75
574.237	489.75
575.004	470.75
575.771	439.75
576.537	409.75
577.303	384.75
578.07	368.75
578.836	345.75
579.602	322.75
580.368	311.75
581.134	293.75
581.9	282.75
582.666	269.75
583.432	249.75
584.198	244.75
584.964	219.75
585.729	214.75
586.495	198.75
587.26	193.75
588.025	180.75
588.791	179.75
589.556	165.75
590.321	153.75
591.086	142.75
591.851	136.75
592.616	130.75
593.381	123.75
594.146	119.75
594.911	115.75
595.675	109.75
596.44	107.75
597.204	100.75
597.969	95.75
598.733	90.75
599.497	89.75
600.261	84.75
601.025	77.75
601.79	76.75
602.553	75.75
603.317	68.75
604.081	67.75
604.845	62.75
605.609	63.75
606.372	60.75
607.136	57.75
607.899	55.75
608.662	49.75
609.426	51.75
610.189	49.75
610.952	44.75
611.715	44.75
612.478	42.75
613.241	40.75
614.004	39.75
614.767	38.75
615.529	36.75
616.292	31.75
617.055	33.75
617.817	33.75
618.579	30.75
619.342	29.75
620.104	30.75
620.866	29.75
621.628	27.75
622.39	25.75
623.152	27.75
623.914	25.75
624.676	24.75
625.438	23.75
626.199	18.75
626.961	23.75
627.722	19.75
628.484	21.75
629.245	15.75
630.006	18.75
630.768	17.75
631.529	16.75
632.29	18.75
633.051	15.75
633.812	18.75
634.573	17.75
635.333	15.75
636.094	14.75
636.855	13.75
637.615	13.75
638.376	12.75
639.136	13.75
639.896	12.75
640.657	13.75
641.417	12.75
642.177	12.75
642.937	12.75
643.697	12.75
644.457	9.75
645.216	10.75
645.976	11.75
646.736	13.75
647.495	9.75
648.255	11.75
649.014	9.75
649.774	9.75
650.533	9.75
651.292	9.75
652.051	9.75
652.81	8.75
653.569	7.75
654.328	8.75
655.087	7.75
655.846	7.75
656.604	8.75
657.363	7.75
658.121	7.75
658.88	8.75
659.638	8.75
660.397	6.75
661.155	8.75
661.913	8.75
662.671	6.75
663.429	4.75
664.187	7.75
664.945	6.75
665.703	5.75
666.46	7.75
667.218	6.75
667.976	7.75
668.733	8.75
669.49	1.75
670.248	5.75
671.005	8.75
671.762	6.75
672.519	7.75
673.276	2.75
674.033	5.75
674.79	2.75
675.547	3.75
676.304	5.75
677.06	5.75
677.817	4.75
678.574	4.75
679.33	8.75
680.086	4.75
680.843	6.75
681.599	5.75
682.355	2.75
683.111	5.75
683.867	5.75
684.623	3.75
685.379	6.75
686.135	3.75
686.89	5.75
687.646	5.75
688.402	6.75
689.157	5.75
689.912	5.75
690.668	5.75
691.423	3.75
692.178	3.75
692.933	2.75
693.688	3.75
694.443	4.75
695.198	4.75
695.953	4.75
696.708	3.75
697.462	6.75
698.217	4.75
698.972	4.75
699.726	3.75
700.48	3.75
701.235	5.75
701.989	3.75
702.743	3.75
703.497	5.75
704.251	4.75
705.005	2.75
705.759	5.75
706.513	5.75
707.266	6.75
708.02	1.75
708.774	3.75
709.527	1.75
710.28	4.75
711.034	1.75
711.787	3.75
712.54	3.75
713.293	2.75
714.046	5.75
714.799	3.75
715.552	5.75
716.305	4.75
717.058	4.75
717.81	1.75
718.563	6.75
719.315	2.75
720.068	3.75
720.82	5.75
721.573	5.75
722.325	3.75
723.077	5.75
723.829	3.75
724.581	6.75
725.333	5.75
726.085	3.75
726.836	6.75
727.588	3.75
728.34	4.75
729.091	3.75
729.843	3.75
730.594	4.75
731.346	4.75
732.097	3.75
732.848	4.75
733.599	5.75
734.35	4.75
735.101	5.75
735.852	5.75
736.603	4.75
737.354	4.75
738.104	3.75
738.855	6.75
739.605	2.75
740.356	5.75
741.106	6.75
741.856	2.75
742.607	5.75
743.357	7.75
744.107	6.75
744.857	3.75
745.607	4.75
746.357	6.75
747.106	6.75
747.856	7.75
748.606	7.75
749.355	5.75
750.105	6.75
750.854	5.75
751.603	3.75
752.353	6.75
753.102	4.75
753.851	8.75
754.6	5.75
755.349	7.75
756.098	8.75
756.847	7.75
757.595	8.75
758.344	6.75
759.093	7.75
759.841	7.75
760.589	7.75
761.338	7.75
762.086	6.75
762.834	6.75
763.582	7.75
764.331	7.75
765.079	6.75
765.826	9.75
766.574	7.75
767.322	8.75
768.07	9.75
768.817	7.75
769.565	7.75
770.312	7.75
771.06	8.75
771.807	8.75
772.554	8.75
773.302	9.75
774.049	9.75
774.796	8.75
775.543	9.75
776.29	11.75
777.036	9.75
777.783	8.75
778.53	9.75
779.276	8.75
780.023	9.75
780.769	9.75
781.516	9.75
782.262	10.75
783.008	10.75
783.754	11.75
784.5	9.75
785.246	7.75
785.992	11.75
786.738	10.75
787.484	9.75
788.23	9.75
788.975	10.75
789.721	11.75
790.466	8.75
791.212	9.75
791.957	8.75
792.702	13.75
793.447	8.75
794.193	7.75
794.938	9.75
795.683	9.75
796.427	9.75
797.172	9.75
797.917	8.75
798.662	8.75
799.406	8.75
800.151	7.75
800.895	9.75
801.64	10.75
802.384	8.75
803.128	9.75
803.872	7.75
804.616	7.75
805.36	7.75
806.104	7.75
806.848	5.75
807.592	5.75
808.336	5.75
809.079	8.75
809.823	7.75
810.566	6.75
811.31	6.75
812.053	6.75
812.796	4.75
813.539	5.75
814.283	4.75
815.026	4.75
815.769	5.75
816.511	6.75
817.254	3.75
817.997	4.75
818.74	5.75
819.482	4.75
820.225	2.75
820.967	3.75
821.71	4.75
822.452	4.75
823.194	5.75
823.936	5.75
824.678	3.75
825.42	6.75
826.162	6.75
826.904	4.75
827.646	1.75
828.388	4.75
829.129	2.75
829.871	2.75
830.612	2.75
831.354	1.75
832.095	3.75
832.836	3.75
833.577	1.75
834.319	3.75
835.06	3.75
835.801	5.75
836.542	2.75
837.282	3.75
838.023	2.75
838.764	4.75
839.504	3.75
840.245	3.75
840.985	6.75
841.726	3.75
842.466	3.75
843.206	3.75
843.946	4.75
844.687	3.75
845.427	1.75
846.166	3.75
846.906	1.75
847.646	2.75
848.386	1.75
849.125	2.75
849.865	3.75
850.605	1.75
851.344	1.75
852.083	4.75
852.823	1.75
853.562	4.75
854.301	-0.25
855.04	2.75
855.779	1.75
856.518	3.75
857.257	2.75
857.995	1.75
858.734	1.75
859.473	3.75
860.211	1.75
860.95	4.75
861.688	2.75
862.426	1.75
863.165	0.75
863.903	2.75
864.641	2.75
865.379	3.75
866.117	0.75
866.855	2.75
867.593	1.75
868.33	1.75
869.068	-0.25
869.806	1.75
870.543	0.75
871.28	2.75
872.018	0.75
872.755	-1.25
873.492	0.75
874.229	0.75
874.967	2.75
875.703	1.75
876.44	0.75
877.177	0.75
877.914	1.75
878.651	-0.25
879.387	0.75
880.124	3.75
880.86	-1.25
881.597	3.75
882.333	-1.25
883.069	1.75
883.806	0.75
884.542	-0.25
885.278	1.75
886.014	-0.25
886.749	1.75
887.485	0.75
888.221	-0.25
888.957	1.75
889.692	1.75
890.428	1.75
891.163	-0.25
891.899	-0.25
892.634	-0.25
893.369	-0.25
894.104	1.75
894.839	1.75
895.574	-1.25
896.309	0.75
897.044	-0.25
897.779	-0.25
898.514	1.75
899.248	-0.25
899.983	0.75
900.717	-0.25
901.452	0.75
902.186	-1.25
902.92	1.75
903.654	-0.25
904.389	-0.25
905.123	-1.25
905.857	0.75
906.59	0.75
907.324	-1.25
908.058	0.75
908.792	-1.25
909.525	1.75
910.259	2.75
910.992	-0.25
911.726	-0.25
912.459	-1.25
913.192	-1.25
913.925	-0.25
914.658	0.75
915.391	-0.25
916.124	-0.25
916.857	-1.25
917.59	-0.25
918.323	-0.25
919.055	-0.25
919.788	0.75
920.521	-0.25
921.253	-1.25
921.985	1.75
922.718	-1.25
923.45	-2.25
924.182	-0.25
924.914	-3.25
925.646	0.75
926.378	0.75
927.11	0.75
927.841	0.75
928.573	-1.25
929.305	0.75
930.036	-3.25
930.768	-0.25
931.499	-0.25
932.23	0.75
932.962	0.75
933.693	0.75
934.424	-0.25
935.155	-2.25
935.886	0.75
936.617	-0.25
937.348	-1.25
938.078	0.75
938.809	0.75
939.54	-2.25
940.27	0.75
941.001	-1.25
941.731	-1.25
942.461	-0.25
943.191	-0.25
943.922	-0.25
944.652	3.75
945.382	-0.25
946.112	-0.25
946.841	-0.25
947.571	-1.25
948.301	-1.25
949.031	-0.25
949.76	-0.25
950.49	-0.25
951.219	2.75
951.948	-0.25
952.678	-1.25
953.407	-0.25
954.136	-1.25
954.865	0.75
955.594	1.75
956.323	1.75
957.052	-0.25
957.78	0.75
958.509	1.75
959.238	-0.25
959.966	-1.25
960.695	0.75
961.423	1.75
962.151	0.75
962.88	-1.25
963.608	-0.25
964.336	1.75
965.064	0.75
965.792	0.75
966.52	0.75
967.247	0.75
967.975	-1.25
968.703	-1.25
969.43	0.75
970.158	-2.25
970.885	-0.25
971.613	1.75
972.34	-0.25
973.067	0.75
973.794	0.75
974.521	-1.25
975.248	-1.25
975.975	-2.25
976.702	1.75
977.429	-0.25
978.156	0.75
978.882	-0.25
979.609	-1.25
980.335	-0.25
981.062	-0.25
981.788	-0.25
982.514	-0.25
983.24	-0.25
983.967	-2.25
984.693	0.75
985.419	-1.25
986.144	-2.25
986.87	-0.25
987.596	-0.25
988.322	-0.25
989.047	-1.25
989.773	-0.25
990.498	1.75
991.224	-2.25
991.949	-0.25
992.674	-0.25
993.399	-1.25
994.124	0.75
994.849	-0.25
995.574	0.75
996.299	-2.25
997.024	-0.25
997.749	-0.25
998.473	-0.25
999.198	1.75
999.922	0.75
1000.647	-0.25
1001.371	4.75
1002.095	-2.25
1002.82	0.75
1003.544	-0.25
1004.268	0.75
1004.992	1.75
1005.716	1.75
1006.439	0.75
1007.163	1.75
1007.887	2.75
1008.611	1.75
1009.334	0.75
1010.058	0.75
1010.781	-2.25
1011.504	-0.25
1012.228	1.75
1012.951	1.75
1013.674	-1.25
1014.397	-0.25
1015.12	-3.25
