节点500_425_QEPB04081__7__15-48-28-503.txt的数据

Date: Wed Nov 12 15:48:28 CST 2025
User: PC
Spectrometer: QEPB0408
触发模式: 0
积分时间 (秒): 1.000000E-2
Scans to average: 1
启用暗噪声校正: true
启用非线性校正: false
滑动平均宽度: 0
X轴模式: Wavelengths
Number of Pixels in Spectrum: 1044
>>>>>Begin Spectral Data<<<<<
220.843	1.88
221.644	1.88
222.444	3.88
223.244	1.88
224.045	6.88
224.845	4.88
225.645	4.88
226.445	3.88
227.245	4.88
228.045	3.88
228.845	2.88
229.645	4.88
230.444	4.88
231.244	1.88
232.043	6.88
232.843	3.88
233.642	5.88
234.442	3.88
235.241	2.88
236.04	3.88
236.839	4.88
237.638	6.88
238.437	5.88
239.236	6.88
240.035	6.88
240.833	6.88
241.632	6.88
242.43	6.88
243.229	9.88
244.027	5.88
244.826	9.88
245.624	8.88
246.422	7.88
247.22	9.88
248.018	8.88
248.816	9.88
249.614	9.88
250.412	11.88
251.21	9.88
252.007	9.88
252.805	8.88
253.602	10.88
254.4	13.88
255.197	11.88
255.994	12.88
256.791	12.88
257.589	13.88
258.386	13.88
259.183	15.88
259.979	15.88
260.776	15.88
261.573	16.88
262.37	16.88
263.166	16.88
263.963	17.88
264.759	18.88
265.556	16.88
266.352	19.88
267.148	19.88
267.944	21.88
268.74	21.88
269.536	22.88
270.332	21.88
271.128	22.88
271.924	27.88
272.719	23.88
273.515	19.88
274.311	25.88
275.106	24.88
275.901	26.88
276.697	24.88
277.492	25.88
278.287	28.88
279.082	26.88
279.877	29.88
280.672	28.88
281.467	26.88
282.262	24.88
283.056	26.88
283.851	24.88
284.646	26.88
285.44	27.88
286.234	26.88
287.029	24.88
287.823	25.88
288.617	25.88
289.411	24.88
290.205	27.88
290.999	23.88
291.793	22.88
292.587	23.88
293.381	24.88
294.174	24.88
294.968	25.88
295.761	20.88
296.555	22.88
297.348	18.88
298.141	19.88
298.935	19.88
299.728	18.88
300.521	17.88
301.314	20.88
302.107	15.88
302.899	18.88
303.692	16.88
304.485	14.88
305.277	17.88
306.07	16.88
306.862	17.88
307.655	18.88
308.447	16.88
309.239	14.88
310.031	13.88
310.823	14.88
311.615	14.88
312.407	10.88
313.199	13.88
313.991	11.88
314.783	10.88
315.574	9.88
316.366	10.88
317.157	10.88
317.949	9.88
318.74	9.88
319.531	12.88
320.322	10.88
321.113	8.88
321.904	7.88
322.695	11.88
323.486	9.88
324.277	10.88
325.068	11.88
325.858	10.88
326.649	10.88
327.439	9.88
328.23	7.88
329.02	7.88
329.81	7.88
330.6	7.88
331.391	6.88
332.181	8.88
332.971	7.88
333.76	7.88
334.55	12.88
335.34	6.88
336.13	11.88
336.919	6.88
337.709	9.88
338.498	9.88
339.287	9.88
340.077	7.88
340.866	7.88
341.655	8.88
342.444	7.88
343.233	9.88
344.022	10.88
344.811	8.88
345.6	7.88
346.388	6.88
347.177	8.88
347.965	6.88
348.754	9.88
349.542	6.88
350.33	8.88
351.119	8.88
351.907	7.88
352.695	7.88
353.483	6.88
354.271	6.88
355.059	9.88
355.846	6.88
356.634	8.88
357.422	4.88
358.209	8.88
358.997	5.88
359.784	6.88
360.571	7.88
361.359	7.88
362.146	9.88
362.933	8.88
363.72	5.88
364.507	9.88
365.294	5.88
366.081	6.88
366.867	7.88
367.654	5.88
368.44	6.88
369.227	5.88
370.013	7.88
370.8	5.88
371.586	7.88
372.372	7.88
373.158	6.88
373.944	7.88
374.73	5.88
375.516	8.88
376.302	9.88
377.088	7.88
377.873	5.88
378.659	4.88
379.445	5.88
380.23	4.88
381.015	6.88
381.801	4.88
382.586	7.88
383.371	6.88
384.156	7.88
384.941	5.88
385.726	8.88
386.511	6.88
387.296	8.88
388.08	6.88
388.865	7.88
389.649	6.88
390.434	10.88
391.218	8.88
392.003	9.88
392.787	6.88
393.571	7.88
394.355	8.88
395.139	8.88
395.923	7.88
396.707	6.88
397.491	7.88
398.274	8.88
399.058	9.88
399.842	12.88
400.625	7.88
401.408	10.88
402.192	10.88
402.975	8.88
403.758	9.88
404.541	9.88
405.324	11.88
406.107	9.88
406.89	8.88
407.673	11.88
408.456	10.88
409.238	12.88
410.021	12.88
410.803	11.88
411.586	11.88
412.368	12.88
413.151	9.88
413.933	10.88
414.715	13.88
415.497	11.88
416.279	11.88
417.061	13.88
417.843	16.88
418.624	14.88
419.406	14.88
420.188	15.88
420.969	13.88
421.751	15.88
422.532	13.88
423.313	13.88
424.095	17.88
424.876	19.88
425.657	15.88
426.438	18.88
427.219	19.88
428	17.88
428.78	17.88
429.561	17.88
430.342	19.88
431.122	20.88
431.903	22.88
432.683	22.88
433.464	21.88
434.244	19.88
435.024	24.88
435.804	26.88
436.584	25.88
437.364	25.88
438.144	26.88
438.924	29.88
439.704	31.88
440.483	33.88
441.263	34.88
442.042	35.88
442.822	39.88
443.601	42.88
444.38	46.88
445.16	45.88
445.939	51.88
446.718	50.88
447.497	58.88
448.276	59.88
449.054	69.88
449.833	68.88
450.612	80.88
451.391	86.88
452.169	92.88
452.948	97.88
453.726	119.88
454.504	123.88
455.282	136.88
456.061	150.88
456.839	168.88
457.617	184.88
458.395	208.88
459.172	237.88
459.95	259.88
460.728	284.88
461.506	326.88
462.283	360.88
463.061	403.88
463.838	452.88
464.615	511.88
465.393	571.88
466.17	640.88
466.947	712.88
467.724	811.88
468.501	900.88
469.278	1003.88
470.055	1111.88
470.831	1240.88
471.608	1393.88
472.385	1550.88
473.161	1720.88
473.938	1904.88
474.714	2133.88
475.49	2362.88
476.266	2622.88
477.043	2910.88
477.819	3233.88
478.595	3582.88
479.371	3969.88
480.146	4379.88
480.922	4825.88
481.698	5365.88
482.473	5919.88
483.249	6531.88
484.024	7211.88
484.8	7930.88
485.575	8726.88
486.35	9578.88
487.126	10478.88
487.901	11547.88
488.676	12695.88
489.451	13827.88
490.225	15109.88
491	16414.88
491.775	17859.88
492.55	19324.88
493.324	20889.88
494.099	22414.88
494.873	24015.88
495.647	25557.88
496.422	27225.88
497.196	28863.88
497.97	30539.88
498.744	32066.88
499.518	33473.88
500.292	34702.88
501.066	35810.88
501.839	36831.88
502.613	37610.88
503.387	38006.88
504.16	38368.88
504.934	38450.88
505.707	38096.88
506.48	37686.88
507.253	37078.88
508.027	36313.88
508.8	35504.88
509.573	34459.88
510.346	33282.88
511.118	32049.88
511.891	30809.88
512.664	29560.88
513.437	28255.88
514.209	26979.88
514.982	25882.88
515.754	24730.88
516.526	23641.88
517.298	22596.88
518.071	21666.88
518.843	20779.88
519.615	19874.88
520.387	19073.88
521.159	18419.88
521.93	17764.88
522.702	17011.88
523.474	16308.88
524.245	15618.88
525.017	14871.88
525.788	14183.88
526.56	13520.88
527.331	12820.88
528.102	12194.88
528.873	11582.88
529.644	11013.88
530.415	10489.88
531.186	9915.88
531.957	9392.88
532.728	8825.88
533.498	8339.88
534.269	7886.88
535.039	7417.88
535.81	7033.88
536.58	6578.88
537.351	6202.88
538.121	5861.88
538.891	5562.88
539.661	5310.88
540.431	5021.88
541.201	4741.88
541.971	4526.88
542.741	4294.88
543.51	4051.88
544.28	3832.88
545.05	3657.88
545.819	3508.88
546.588	3330.88
547.358	3139.88
548.127	2962.88
548.896	2812.88
549.665	2651.88
550.434	2545.88
551.203	2400.88
551.972	2267.88
552.741	2129.88
553.51	2016.88
554.278	1902.88
555.047	1792.88
555.815	1681.88
556.584	1617.88
557.352	1499.88
558.121	1426.88
558.889	1328.88
559.657	1276.88
560.425	1191.88
561.193	1135.88
561.961	1070.88
562.729	998.88
563.496	957.88
564.264	911.88
565.032	864.88
565.799	808.88
566.567	773.88
567.334	716.88
568.101	685.88
568.869	652.88
569.636	613.88
570.403	579.88
571.17	545.88
571.937	511.88
572.704	481.88
573.471	448.88
574.237	421.88
575.004	404.88
575.771	383.88
576.537	357.88
577.303	337.88
578.07	309.88
578.836	297.88
579.602	276.88
580.368	269.88
581.134	257.88
581.9	233.88
582.666	225.88
583.432	218.88
584.198	210.88
584.964	198.88
585.729	183.88
586.495	178.88
587.26	168.88
588.025	156.88
588.791	147.88
589.556	142.88
590.321	137.88
591.086	127.88
591.851	119.88
592.616	116.88
593.381	109.88
594.146	105.88
594.911	100.88
595.675	97.88
596.44	93.88
597.204	85.88
597.969	84.88
598.733	81.88
599.497	77.88
600.261	72.88
601.025	70.88
601.79	70.88
602.553	63.88
603.317	61.88
604.081	60.88
604.845	56.88
605.609	57.88
606.372	49.88
607.136	51.88
607.899	45.88
608.662	44.88
609.426	44.88
610.189	43.88
610.952	43.88
611.715	38.88
612.478	37.88
613.241	38.88
614.004	34.88
614.767	34.88
615.529	29.88
616.292	29.88
617.055	31.88
617.817	29.88
618.579	27.88
619.342	28.88
620.104	26.88
620.866	26.88
621.628	25.88
622.39	23.88
623.152	24.88
623.914	24.88
624.676	23.88
625.438	22.88
626.199	19.88
626.961	21.88
627.722	19.88
628.484	17.88
629.245	19.88
630.006	17.88
630.768	18.88
631.529	15.88
632.29	17.88
633.051	15.88
633.812	15.88
634.573	15.88
635.333	15.88
636.094	12.88
636.855	13.88
637.615	13.88
638.376	12.88
639.136	13.88
639.896	13.88
640.657	11.88
641.417	9.88
642.177	11.88
642.937	12.88
643.697	12.88
644.457	11.88
645.216	7.88
645.976	12.88
646.736	10.88
647.495	11.88
648.255	9.88
649.014	11.88
649.774	7.88
650.533	8.88
651.292	9.88
652.051	9.88
652.81	10.88
653.569	8.88
654.328	9.88
655.087	7.88
655.846	5.88
656.604	7.88
657.363	7.88
658.121	7.88
658.88	6.88
659.638	6.88
660.397	7.88
661.155	5.88
661.913	5.88
662.671	5.88
663.429	8.88
664.187	6.88
664.945	7.88
665.703	6.88
666.46	5.88
667.218	5.88
667.976	8.88
668.733	6.88
669.49	6.88
670.248	6.88
671.005	8.88
671.762	5.88
672.519	5.88
673.276	6.88
674.033	5.88
674.79	6.88
675.547	7.88
676.304	6.88
677.06	4.88
677.817	4.88
678.574	2.88
679.33	4.88
680.086	7.88
680.843	4.88
681.599	5.88
682.355	4.88
683.111	3.88
683.867	4.88
684.623	7.88
685.379	6.88
686.135	6.88
686.89	2.88
687.646	4.88
688.402	3.88
689.157	5.88
689.912	5.88
690.668	6.88
691.423	5.88
692.178	4.88
692.933	5.88
693.688	3.88
694.443	3.88
695.198	5.88
695.953	3.88
696.708	4.88
697.462	5.88
698.217	3.88
698.972	3.88
699.726	4.88
700.48	4.88
701.235	2.88
701.989	5.88
702.743	4.88
703.497	4.88
704.251	3.88
705.005	5.88
705.759	2.88
706.513	3.88
707.266	4.88
708.02	3.88
708.774	4.88
709.527	6.88
710.28	5.88
711.034	4.88
711.787	3.88
712.54	4.88
713.293	4.88
714.046	5.88
714.799	6.88
715.552	2.88
716.305	4.88
717.058	3.88
717.81	4.88
718.563	3.88
719.315	4.88
720.068	4.88
720.82	4.88
721.573	4.88
722.325	3.88
723.077	5.88
723.829	3.88
724.581	4.88
725.333	5.88
726.085	5.88
726.836	4.88
727.588	6.88
728.34	5.88
729.091	2.88
729.843	7.88
730.594	5.88
731.346	5.88
732.097	7.88
732.848	6.88
733.599	4.88
734.35	6.88
735.101	4.88
735.852	5.88
736.603	3.88
737.354	5.88
738.104	5.88
738.855	3.88
739.605	6.88
740.356	4.88
741.106	9.88
741.856	6.88
742.607	7.88
743.357	7.88
744.107	5.88
744.857	5.88
745.607	5.88
746.357	8.88
747.106	8.88
747.856	6.88
748.606	6.88
749.355	4.88
750.105	6.88
750.854	5.88
751.603	7.88
752.353	7.88
753.102	9.88
753.851	5.88
754.6	9.88
755.349	9.88
756.098	7.88
756.847	10.88
757.595	11.88
758.344	7.88
759.093	8.88
759.841	8.88
760.589	8.88
761.338	10.88
762.086	9.88
762.834	9.88
763.582	10.88
764.331	11.88
765.079	9.88
765.826	11.88
766.574	8.88
767.322	10.88
768.07	9.88
768.817	8.88
769.565	11.88
770.312	9.88
771.06	9.88
771.807	13.88
772.554	5.88
773.302	11.88
774.049	10.88
774.796	10.88
775.543	10.88
776.29	12.88
777.036	9.88
777.783	11.88
778.53	12.88
779.276	12.88
780.023	12.88
780.769	9.88
781.516	11.88
782.262	13.88
783.008	12.88
783.754	11.88
784.5	14.88
785.246	10.88
785.992	13.88
786.738	11.88
787.484	13.88
788.23	13.88
788.975	10.88
789.721	11.88
790.466	9.88
791.212	12.88
791.957	10.88
792.702	11.88
793.447	8.88
794.193	10.88
794.938	10.88
795.683	9.88
796.427	9.88
797.172	9.88
797.917	9.88
798.662	9.88
799.406	7.88
800.151	9.88
800.895	6.88
801.64	7.88
802.384	8.88
803.128	10.88
803.872	8.88
804.616	6.88
805.36	9.88
806.104	7.88
806.848	10.88
807.592	8.88
808.336	7.88
809.079	6.88
809.823	5.88
810.566	7.88
811.31	7.88
812.053	6.88
812.796	8.88
813.539	6.88
814.283	5.88
815.026	7.88
815.769	7.88
816.511	4.88
817.254	5.88
817.997	4.88
818.74	4.88
819.482	5.88
820.225	6.88
820.967	6.88
821.71	3.88
822.452	5.88
823.194	3.88
823.936	6.88
824.678	5.88
825.42	6.88
826.162	3.88
826.904	7.88
827.646	3.88
828.388	5.88
829.129	3.88
829.871	4.88
830.612	3.88
831.354	4.88
832.095	3.88
832.836	4.88
833.577	5.88
834.319	3.88
835.06	5.88
835.801	1.88
836.542	3.88
837.282	4.88
838.023	3.88
838.764	3.88
839.504	3.88
840.245	4.88
840.985	0.88
841.726	0.88
842.466	5.88
843.206	1.88
843.946	4.88
844.687	5.88
845.427	2.88
846.166	0.88
846.906	2.88
847.646	1.88
848.386	3.88
849.125	1.88
849.865	4.88
850.605	4.88
851.344	1.88
852.083	4.88
852.823	2.88
853.562	4.88
854.301	2.88
855.04	3.88
855.779	1.88
856.518	2.88
857.257	1.88
857.995	4.88
858.734	2.88
859.473	-0.12
860.211	1.88
860.95	0.88
861.688	1.88
862.426	2.88
863.165	1.88
863.903	4.88
864.641	1.88
865.379	3.88
866.117	0.88
866.855	0.88
867.593	4.88
868.33	1.88
869.068	2.88
869.806	0.88
870.543	4.88
871.28	0.88
872.018	0.88
872.755	1.88
873.492	-0.12
874.229	0.88
874.967	0.88
875.703	2.88
876.44	0.88
877.177	-0.12
877.914	3.88
878.651	-0.12
879.387	0.88
880.124	-1.12
880.86	0.88
881.597	-0.12
882.333	2.88
883.069	0.88
883.806	-0.12
884.542	-0.12
885.278	0.88
886.014	-0.12
886.749	1.88
887.485	1.88
888.221	-0.12
888.957	0.88
889.692	0.88
890.428	0.88
891.163	0.88
891.899	0.88
892.634	0.88
893.369	0.88
894.104	-0.12
894.839	1.88
895.574	2.88
896.309	-0.12
897.044	0.88
897.779	0.88
898.514	-1.12
899.248	-0.12
899.983	-2.12
900.717	2.88
901.452	-0.12
902.186	1.88
902.92	0.88
903.654	0.88
904.389	1.88
905.123	0.88
905.857	-2.12
906.59	-0.12
907.324	-0.12
908.058	0.88
908.792	-1.12
909.525	0.88
910.259	0.88
910.992	-0.12
911.726	-1.12
912.459	-0.12
913.192	1.88
913.925	-2.12
914.658	-2.12
915.391	1.88
916.124	1.88
916.857	-0.12
917.59	1.88
918.323	-0.12
919.055	-0.12
919.788	-0.12
920.521	0.88
921.253	1.88
921.985	0.88
922.718	0.88
923.45	-0.12
924.182	-3.12
924.914	-1.12
925.646	0.88
926.378	0.88
927.11	1.88
927.841	-2.12
928.573	1.88
929.305	0.88
930.036	-0.12
930.768	-0.12
931.499	-2.12
932.23	1.88
932.962	1.88
933.693	-0.12
934.424	-0.12
935.155	-0.12
935.886	-0.12
936.617	0.88
937.348	-0.12
938.078	-1.12
938.809	-1.12
939.54	-2.12
940.27	-0.12
941.001	0.88
941.731	-2.12
942.461	-0.12
943.191	-0.12
943.922	-1.12
944.652	1.88
945.382	1.88
946.112	-0.12
946.841	-1.12
947.571	-1.12
948.301	0.88
949.031	-1.12
949.76	0.88
950.49	-1.12
951.219	-1.12
951.948	-1.12
952.678	-1.12
953.407	-0.12
954.136	-2.12
954.865	-0.12
955.594	0.88
956.323	-1.12
957.052	0.88
957.78	-0.12
958.509	0.88
959.238	-2.12
959.966	-0.12
960.695	0.88
961.423	-0.12
962.151	-0.12
962.88	0.88
963.608	-0.12
964.336	2.88
965.064	2.88
965.792	-0.12
966.52	-0.12
967.247	1.88
967.975	-2.12
968.703	0.88
969.43	0.88
970.158	-1.12
970.885	-0.12
971.613	0.88
972.34	1.88
973.067	-0.12
973.794	1.88
974.521	-2.12
975.248	0.88
975.975	-1.12
976.702	-0.12
977.429	1.88
978.156	-0.12
978.882	-0.12
979.609	-1.12
980.335	-0.12
981.062	0.88
981.788	-0.12
982.514	0.88
983.24	1.88
983.967	-0.12
984.693	0.88
985.419	0.88
986.144	-0.12
986.87	0.88
987.596	1.88
988.322	-0.12
989.047	-2.12
989.773	-4.12
990.498	1.88
991.224	1.88
991.949	-0.12
992.674	-0.12
993.399	0.88
994.124	-0.12
994.849	-0.12
995.574	0.88
996.299	-0.12
997.024	-2.12
997.749	-1.12
998.473	0.88
999.198	-2.12
999.922	0.88
1000.647	-0.12
1001.371	3.88
1002.095	-0.12
1002.82	1.88
1003.544	-3.12
1004.268	3.88
1004.992	2.88
1005.716	3.88
1006.439	1.88
1007.163	-0.12
1007.887	3.88
1008.611	2.88
1009.334	-1.12
1010.058	-1.12
1010.781	0.88
1011.504	-0.12
1012.228	1.88
1012.951	-0.12
1013.674	-2.12
1014.397	-1.12
1015.12	0.88
