节点500_425_QEPB04081__515__15-56-52-580.txt的数据

Date: Wed Nov 12 15:56:52 CST 2025
User: PC
Spectrometer: QEPB0408
触发模式: 0
积分时间 (秒): 1.000000E-2
Scans to average: 1
启用暗噪声校正: true
启用非线性校正: false
滑动平均宽度: 0
X轴模式: Wavelengths
Number of Pixels in Spectrum: 1044
>>>>>Begin Spectral Data<<<<<
220.843	1.25
221.644	0.25
222.444	2.25
223.244	2.25
224.045	1.25
224.845	2.25
225.645	4.25
226.445	2.25
227.245	2.25
228.045	4.25
228.845	5.25
229.645	4.25
230.444	4.25
231.244	6.25
232.043	6.25
232.843	4.25
233.642	4.25
234.442	6.25
235.241	5.25
236.04	7.25
236.839	5.25
237.638	2.25
238.437	8.25
239.236	5.25
240.035	7.25
240.833	6.25
241.632	6.25
242.43	5.25
243.229	7.25
244.027	7.25
244.826	4.25
245.624	7.25
246.422	8.25
247.22	8.25
248.018	8.25
248.816	8.25
249.614	11.25
250.412	7.25
251.21	10.25
252.007	9.25
252.805	9.25
253.602	8.25
254.4	10.25
255.197	12.25
255.994	12.25
256.791	9.25
257.589	12.25
258.386	12.25
259.183	11.25
259.979	13.25
260.776	14.25
261.573	13.25
262.37	15.25
263.166	14.25
263.963	13.25
264.759	15.25
265.556	17.25
266.352	15.25
267.148	16.25
267.944	17.25
268.74	19.25
269.536	17.25
270.332	18.25
271.128	18.25
271.924	17.25
272.719	18.25
273.515	17.25
274.311	21.25
275.106	22.25
275.901	18.25
276.697	24.25
277.492	22.25
278.287	21.25
279.082	22.25
279.877	24.25
280.672	23.25
281.467	21.25
282.262	24.25
283.056	23.25
283.851	24.25
284.646	20.25
285.44	24.25
286.234	21.25
287.029	22.25
287.823	20.25
288.617	22.25
289.411	23.25
290.205	23.25
290.999	21.25
291.793	23.25
292.587	22.25
293.381	23.25
294.174	21.25
294.968	18.25
295.761	22.25
296.555	20.25
297.348	18.25
298.141	17.25
298.935	23.25
299.728	19.25
300.521	21.25
301.314	16.25
302.107	17.25
302.899	18.25
303.692	17.25
304.485	18.25
305.277	18.25
306.07	14.25
306.862	15.25
307.655	16.25
308.447	19.25
309.239	14.25
310.031	12.25
310.823	13.25
311.615	14.25
312.407	13.25
313.199	12.25
313.991	14.25
314.783	13.25
315.574	11.25
316.366	14.25
317.157	9.25
317.949	9.25
318.74	10.25
319.531	9.25
320.322	9.25
321.113	10.25
321.904	10.25
322.695	11.25
323.486	10.25
324.277	9.25
325.068	10.25
325.858	10.25
326.649	10.25
327.439	10.25
328.23	9.25
329.02	10.25
329.81	10.25
330.6	7.25
331.391	8.25
332.181	9.25
332.971	9.25
333.76	11.25
334.55	6.25
335.34	7.25
336.13	6.25
336.919	8.25
337.709	9.25
338.498	6.25
339.287	7.25
340.077	7.25
340.866	9.25
341.655	8.25
342.444	6.25
343.233	8.25
344.022	7.25
344.811	8.25
345.6	9.25
346.388	5.25
347.177	9.25
347.965	9.25
348.754	6.25
349.542	7.25
350.33	4.25
351.119	7.25
351.907	9.25
352.695	7.25
353.483	6.25
354.271	8.25
355.059	6.25
355.846	7.25
356.634	7.25
357.422	10.25
358.209	7.25
358.997	6.25
359.784	8.25
360.571	8.25
361.359	7.25
362.146	7.25
362.933	6.25
363.72	8.25
364.507	7.25
365.294	7.25
366.081	6.25
366.867	8.25
367.654	6.25
368.44	6.25
369.227	6.25
370.013	6.25
370.8	8.25
371.586	4.25
372.372	7.25
373.158	5.25
373.944	9.25
374.73	5.25
375.516	8.25
376.302	3.25
377.088	8.25
377.873	4.25
378.659	7.25
379.445	8.25
380.23	8.25
381.015	8.25
381.801	5.25
382.586	8.25
383.371	8.25
384.156	6.25
384.941	7.25
385.726	6.25
386.511	10.25
387.296	5.25
388.08	7.25
388.865	8.25
389.649	9.25
390.434	7.25
391.218	6.25
392.003	9.25
392.787	6.25
393.571	9.25
394.355	7.25
395.139	8.25
395.923	8.25
396.707	8.25
397.491	8.25
398.274	7.25
399.058	7.25
399.842	9.25
400.625	10.25
401.408	7.25
402.192	8.25
402.975	8.25
403.758	8.25
404.541	10.25
405.324	10.25
406.107	10.25
406.89	10.25
407.673	9.25
408.456	11.25
409.238	11.25
410.021	9.25
410.803	13.25
411.586	8.25
412.368	10.25
413.151	9.25
413.933	12.25
414.715	11.25
415.497	12.25
416.279	12.25
417.061	10.25
417.843	14.25
418.624	11.25
419.406	15.25
420.188	15.25
420.969	10.25
421.751	15.25
422.532	15.25
423.313	12.25
424.095	13.25
424.876	14.25
425.657	13.25
426.438	14.25
427.219	18.25
428	16.25
428.78	18.25
429.561	17.25
430.342	18.25
431.122	19.25
431.903	20.25
432.683	20.25
433.464	21.25
434.244	22.25
435.024	26.25
435.804	22.25
436.584	30.25
437.364	26.25
438.144	27.25
438.924	28.25
439.704	30.25
440.483	36.25
441.263	39.25
442.042	37.25
442.822	41.25
443.601	45.25
444.38	44.25
445.16	51.25
445.939	52.25
446.718	58.25
447.497	65.25
448.276	68.25
449.054	75.25
449.833	84.25
450.612	89.25
451.391	103.25
452.169	108.25
452.948	117.25
453.726	134.25
454.504	149.25
455.282	166.25
456.061	183.25
456.839	203.25
457.617	225.25
458.395	249.25
459.172	280.25
459.95	314.25
460.728	342.25
461.506	389.25
462.283	420.25
463.061	479.25
463.838	529.25
464.615	580.25
465.393	661.25
466.17	729.25
466.947	815.25
467.724	894.25
468.501	987.25
469.278	1089.25
470.055	1200.25
470.831	1341.25
471.608	1450.25
472.385	1625.25
473.161	1776.25
473.938	1941.25
474.714	2165.25
475.49	2375.25
476.266	2589.25
477.043	2836.25
477.819	3144.25
478.595	3423.25
479.371	3763.25
480.146	4103.25
480.922	4479.25
481.698	4846.25
482.473	5307.25
483.249	5807.25
484.024	6298.25
484.8	6881.25
485.575	7456.25
486.35	8081.25
487.126	8753.25
487.901	9511.25
488.676	10343.25
489.451	11158.25
490.225	12077.25
491	13129.25
491.775	14102.25
492.55	15190.25
493.324	16288.25
494.099	17452.25
494.873	18596.25
495.647	19889.25
496.422	21073.25
497.196	22416.25
497.97	23735.25
498.744	25031.25
499.518	26310.25
500.292	27482.25
501.066	28540.25
501.839	29658.25
502.613	30682.25
503.387	31443.25
504.16	32116.25
504.934	32559.25
505.707	32881.25
506.48	32954.25
507.253	32928.25
508.027	32822.25
508.8	32467.25
509.573	32142.25
510.346	31500.25
511.118	30769.25
511.891	29985.25
512.664	29059.25
513.437	28103.25
514.209	27057.25
514.982	26162.25
515.754	25167.25
516.526	24228.25
517.298	23184.25
518.071	22310.25
518.843	21402.25
519.615	20553.25
520.387	19736.25
521.159	18950.25
521.93	18274.25
522.702	17517.25
523.474	16846.25
524.245	16194.25
525.017	15473.25
525.788	14820.25
526.56	14136.25
527.331	13565.25
528.102	12946.25
528.873	12355.25
529.644	11782.25
530.415	11266.25
531.186	10718.25
531.957	10197.25
532.728	9694.25
533.498	9192.25
534.269	8697.25
535.039	8220.25
535.81	7765.25
536.58	7373.25
537.351	6934.25
538.121	6555.25
538.891	6231.25
539.661	5922.25
540.431	5600.25
541.201	5293.25
541.971	5035.25
542.741	4770.25
543.51	4523.25
544.28	4304.25
545.05	4078.25
545.819	3892.25
546.588	3713.25
547.358	3490.25
548.127	3320.25
548.896	3155.25
549.665	3019.25
550.434	2877.25
551.203	2708.25
551.972	2583.25
552.741	2435.25
553.51	2321.25
554.278	2176.25
555.047	2058.25
555.815	1955.25
556.584	1824.25
557.352	1748.25
558.121	1640.25
558.889	1548.25
559.657	1457.25
560.425	1390.25
561.193	1311.25
561.961	1226.25
562.729	1163.25
563.496	1122.25
564.264	1040.25
565.032	983.25
565.799	946.25
566.567	900.25
567.334	837.25
568.101	796.25
568.869	745.25
569.636	712.25
570.403	666.25
571.17	631.25
571.937	583.25
572.704	561.25
573.471	529.25
574.237	496.25
575.004	472.25
575.771	445.25
576.537	415.25
577.303	388.25
578.07	372.25
578.836	353.25
579.602	328.25
580.368	312.25
581.134	296.25
581.9	282.25
582.666	267.25
583.432	249.25
584.198	233.25
584.964	226.25
585.729	217.25
586.495	200.25
587.26	192.25
588.025	187.25
588.791	168.25
589.556	164.25
590.321	153.25
591.086	151.25
591.851	142.25
592.616	137.25
593.381	131.25
594.146	122.25
594.911	114.25
595.675	106.25
596.44	107.25
597.204	103.25
597.969	94.25
598.733	97.25
599.497	86.25
600.261	87.25
601.025	79.25
601.79	75.25
602.553	74.25
603.317	69.25
604.081	71.25
604.845	66.25
605.609	61.25
606.372	61.25
607.136	56.25
607.899	54.25
608.662	51.25
609.426	52.25
610.189	50.25
610.952	43.25
611.715	46.25
612.478	41.25
613.241	40.25
614.004	39.25
614.767	38.25
615.529	38.25
616.292	35.25
617.055	33.25
617.817	34.25
618.579	33.25
619.342	30.25
620.104	33.25
620.866	30.25
621.628	29.25
622.39	28.25
623.152	23.25
623.914	26.25
624.676	22.25
625.438	24.25
626.199	22.25
626.961	23.25
627.722	23.25
628.484	21.25
629.245	20.25
630.006	19.25
630.768	19.25
631.529	20.25
632.29	14.25
633.051	17.25
633.812	17.25
634.573	14.25
635.333	15.25
636.094	16.25
636.855	17.25
637.615	13.25
638.376	14.25
639.136	13.25
639.896	12.25
640.657	13.25
641.417	11.25
642.177	13.25
642.937	13.25
643.697	9.25
644.457	10.25
645.216	9.25
645.976	12.25
646.736	13.25
647.495	9.25
648.255	10.25
649.014	9.25
649.774	10.25
650.533	9.25
651.292	11.25
652.051	10.25
652.81	9.25
653.569	9.25
654.328	7.25
655.087	8.25
655.846	7.25
656.604	10.25
657.363	8.25
658.121	8.25
658.88	8.25
659.638	6.25
660.397	8.25
661.155	8.25
661.913	9.25
662.671	8.25
663.429	7.25
664.187	8.25
664.945	5.25
665.703	5.25
666.46	6.25
667.218	5.25
667.976	6.25
668.733	7.25
669.49	8.25
670.248	5.25
671.005	5.25
671.762	7.25
672.519	4.25
673.276	6.25
674.033	6.25
674.79	7.25
675.547	4.25
676.304	5.25
677.06	5.25
677.817	5.25
678.574	6.25
679.33	4.25
680.086	3.25
680.843	5.25
681.599	4.25
682.355	5.25
683.111	4.25
683.867	4.25
684.623	6.25
685.379	7.25
686.135	6.25
686.89	7.25
687.646	6.25
688.402	6.25
689.157	9.25
689.912	6.25
690.668	5.25
691.423	3.25
692.178	4.25
692.933	6.25
693.688	5.25
694.443	6.25
695.198	7.25
695.953	7.25
696.708	6.25
697.462	5.25
698.217	4.25
698.972	4.25
699.726	5.25
700.48	6.25
701.235	5.25
701.989	5.25
702.743	5.25
703.497	6.25
704.251	4.25
705.005	5.25
705.759	4.25
706.513	4.25
707.266	6.25
708.02	4.25
708.774	3.25
709.527	4.25
710.28	3.25
711.034	2.25
711.787	1.25
712.54	3.25
713.293	6.25
714.046	3.25
714.799	5.25
715.552	2.25
716.305	3.25
717.058	6.25
717.81	5.25
718.563	6.25
719.315	4.25
720.068	5.25
720.82	4.25
721.573	6.25
722.325	5.25
723.077	3.25
723.829	5.25
724.581	4.25
725.333	4.25
726.085	5.25
726.836	4.25
727.588	4.25
728.34	5.25
729.091	4.25
729.843	6.25
730.594	6.25
731.346	4.25
732.097	4.25
732.848	6.25
733.599	4.25
734.35	6.25
735.101	6.25
735.852	6.25
736.603	7.25
737.354	6.25
738.104	6.25
738.855	6.25
739.605	5.25
740.356	5.25
741.106	5.25
741.856	7.25
742.607	3.25
743.357	8.25
744.107	6.25
744.857	7.25
745.607	5.25
746.357	5.25
747.106	6.25
747.856	6.25
748.606	6.25
749.355	8.25
750.105	8.25
750.854	8.25
751.603	4.25
752.353	4.25
753.102	5.25
753.851	11.25
754.6	8.25
755.349	8.25
756.098	6.25
756.847	7.25
757.595	9.25
758.344	7.25
759.093	8.25
759.841	7.25
760.589	6.25
761.338	8.25
762.086	6.25
762.834	7.25
763.582	6.25
764.331	9.25
765.079	8.25
765.826	9.25
766.574	9.25
767.322	8.25
768.07	8.25
768.817	8.25
769.565	9.25
770.312	10.25
771.06	7.25
771.807	7.25
772.554	9.25
773.302	11.25
774.049	11.25
774.796	9.25
775.543	10.25
776.29	9.25
777.036	8.25
777.783	9.25
778.53	9.25
779.276	10.25
780.023	9.25
780.769	9.25
781.516	13.25
782.262	11.25
783.008	11.25
783.754	9.25
784.5	10.25
785.246	11.25
785.992	11.25
786.738	9.25
787.484	9.25
788.23	11.25
788.975	11.25
789.721	8.25
790.466	10.25
791.212	10.25
791.957	7.25
792.702	9.25
793.447	9.25
794.193	6.25
794.938	7.25
795.683	9.25
796.427	11.25
797.172	9.25
797.917	8.25
798.662	10.25
799.406	7.25
800.151	9.25
800.895	8.25
801.64	8.25
802.384	9.25
803.128	7.25
803.872	11.25
804.616	7.25
805.36	7.25
806.104	9.25
806.848	5.25
807.592	7.25
808.336	9.25
809.079	8.25
809.823	6.25
810.566	4.25
811.31	5.25
812.053	8.25
812.796	6.25
813.539	7.25
814.283	6.25
815.026	5.25
815.769	5.25
816.511	7.25
817.254	7.25
817.997	6.25
818.74	3.25
819.482	6.25
820.225	4.25
820.967	4.25
821.71	6.25
822.452	1.25
823.194	4.25
823.936	5.25
824.678	4.25
825.42	6.25
826.162	5.25
826.904	6.25
827.646	6.25
828.388	5.25
829.129	8.25
829.871	4.25
830.612	4.25
831.354	6.25
832.095	4.25
832.836	4.25
833.577	3.25
834.319	5.25
835.06	7.25
835.801	4.25
836.542	5.25
837.282	2.25
838.023	5.25
838.764	5.25
839.504	5.25
840.245	6.25
840.985	4.25
841.726	4.25
842.466	3.25
843.206	3.25
843.946	4.25
844.687	4.25
845.427	5.25
846.166	4.25
846.906	3.25
847.646	4.25
848.386	6.25
849.125	4.25
849.865	3.25
850.605	4.25
851.344	1.25
852.083	5.25
852.823	5.25
853.562	2.25
854.301	2.25
855.04	4.25
855.779	3.25
856.518	2.25
857.257	2.25
857.995	2.25
858.734	1.25
859.473	2.25
860.211	3.25
860.95	3.25
861.688	2.25
862.426	3.25
863.165	2.25
863.903	4.25
864.641	1.25
865.379	3.25
866.117	2.25
866.855	3.25
867.593	0.25
868.33	1.25
869.068	1.25
869.806	3.25
870.543	1.25
871.28	2.25
872.018	3.25
872.755	0.25
873.492	2.25
874.229	2.25
874.967	1.25
875.703	2.25
876.44	1.25
877.177	3.25
877.914	0.25
878.651	2.25
879.387	1.25
880.124	3.25
880.86	2.25
881.597	-0.75
882.333	0.25
883.069	0.25
883.806	2.25
884.542	-0.75
885.278	4.25
886.014	-0.75
886.749	1.25
887.485	4.25
888.221	-0.75
888.957	0.25
889.692	0.25
890.428	1.25
891.163	3.25
891.899	1.25
892.634	2.25
893.369	2.25
894.104	1.25
894.839	0.25
895.574	1.25
896.309	2.25
897.044	1.25
897.779	2.25
898.514	2.25
899.248	2.25
899.983	1.25
900.717	-0.75
901.452	-1.75
902.186	-0.75
902.92	1.25
903.654	0.25
904.389	-1.75
905.123	0.25
905.857	0.25
906.59	-0.75
907.324	0.25
908.058	-1.75
908.792	-0.75
909.525	-1.75
910.259	-0.75
910.992	2.25
911.726	0.25
912.459	-0.75
913.192	-0.75
913.925	0.25
914.658	0.25
915.391	1.25
916.124	0.25
916.857	0.25
917.59	-0.75
918.323	0.25
919.055	0.25
919.788	-0.75
920.521	0.25
921.253	-0.75
921.985	-1.75
922.718	0.25
923.45	0.25
924.182	0.25
924.914	0.25
925.646	-0.75
926.378	-1.75
927.11	-1.75
927.841	-0.75
928.573	0.25
929.305	-0.75
930.036	-1.75
930.768	1.25
931.499	1.25
932.23	0.25
932.962	2.25
933.693	0.25
934.424	-0.75
935.155	0.25
935.886	0.25
936.617	-0.75
937.348	1.25
938.078	-0.75
938.809	0.25
939.54	-2.75
940.27	2.25
941.001	0.25
941.731	0.25
942.461	0.25
943.191	-0.75
943.922	0.25
944.652	-0.75
945.382	1.25
946.112	0.25
946.841	0.25
947.571	1.25
948.301	0.25
949.031	0.25
949.76	1.25
950.49	1.25
951.219	-1.75
951.948	-0.75
952.678	0.25
953.407	0.25
954.136	-1.75
954.865	1.25
955.594	-0.75
956.323	-0.75
957.052	0.25
957.78	-1.75
958.509	-1.75
959.238	-0.75
959.966	-1.75
960.695	-0.75
961.423	1.25
962.151	0.25
962.88	3.25
963.608	1.25
964.336	2.25
965.064	0.25
965.792	0.25
966.52	0.25
967.247	0.25
967.975	1.25
968.703	0.25
969.43	1.25
970.158	-0.75
970.885	2.25
971.613	0.25
972.34	0.25
973.067	2.25
973.794	-0.75
974.521	-0.75
975.248	0.25
975.975	-0.75
976.702	0.25
977.429	-1.75
978.156	2.25
978.882	-1.75
979.609	-1.75
980.335	0.25
981.062	1.25
981.788	-0.75
982.514	1.25
983.24	0.25
983.967	-1.75
984.693	-1.75
985.419	1.25
986.144	-1.75
986.87	0.25
987.596	-0.75
988.322	-2.75
989.047	1.25
989.773	0.25
990.498	0.25
991.224	0.25
991.949	1.25
992.674	3.25
993.399	-0.75
994.124	0.25
994.849	-1.75
995.574	0.25
996.299	-0.75
997.024	1.25
997.749	1.25
998.473	-1.75
999.198	0.25
999.922	2.25
1000.647	0.25
1001.371	2.25
1002.095	0.25
1002.82	-0.75
1003.544	-1.75
1004.268	0.25
1004.992	0.25
1005.716	1.25
1006.439	2.25
1007.163	1.25
1007.887	2.25
1008.611	-1.75
1009.334	1.25
1010.058	2.25
1010.781	1.25
1011.504	0.25
1012.228	0.25
1012.951	0.25
1013.674	-0.75
1014.397	-0.75
1015.12	1.25
