节点500_425_QEPB04081__155__15-50-53-244.txt的数据

Date: Wed Nov 12 15:50:53 CST 2025
User: PC
Spectrometer: QEPB0408
触发模式: 0
积分时间 (秒): 1.000000E-2
Scans to average: 1
启用暗噪声校正: true
启用非线性校正: false
滑动平均宽度: 0
X轴模式: Wavelengths
Number of Pixels in Spectrum: 1044
>>>>>Begin Spectral Data<<<<<
220.843	2.88
221.644	2.88
222.444	4.88
223.244	2.88
224.045	4.88
224.845	4.88
225.645	3.88
226.445	3.88
227.245	3.88
228.045	5.88
228.845	6.88
229.645	5.88
230.444	3.88
231.244	7.88
232.043	3.88
232.843	6.88
233.642	7.88
234.442	4.88
235.241	8.88
236.04	4.88
236.839	7.88
237.638	8.88
238.437	7.88
239.236	5.88
240.035	6.88
240.833	6.88
241.632	8.88
242.43	5.88
243.229	8.88
244.027	6.88
244.826	7.88
245.624	9.88
246.422	10.88
247.22	10.88
248.018	10.88
248.816	7.88
249.614	9.88
250.412	9.88
251.21	8.88
252.007	8.88
252.805	10.88
253.602	9.88
254.4	9.88
255.197	11.88
255.994	14.88
256.791	14.88
257.589	12.88
258.386	14.88
259.183	14.88
259.979	15.88
260.776	12.88
261.573	14.88
262.37	15.88
263.166	16.88
263.963	16.88
264.759	16.88
265.556	18.88
266.352	20.88
267.148	19.88
267.944	19.88
268.74	18.88
269.536	22.88
270.332	21.88
271.128	22.88
271.924	22.88
272.719	20.88
273.515	25.88
274.311	23.88
275.106	24.88
275.901	26.88
276.697	23.88
277.492	26.88
278.287	26.88
279.082	26.88
279.877	24.88
280.672	26.88
281.467	25.88
282.262	27.88
283.056	25.88
283.851	28.88
284.646	30.88
285.44	24.88
286.234	22.88
287.029	22.88
287.823	24.88
288.617	26.88
289.411	24.88
290.205	26.88
290.999	24.88
291.793	23.88
292.587	22.88
293.381	23.88
294.174	22.88
294.968	25.88
295.761	21.88
296.555	18.88
297.348	20.88
298.141	19.88
298.935	21.88
299.728	22.88
300.521	21.88
301.314	17.88
302.107	17.88
302.899	16.88
303.692	18.88
304.485	14.88
305.277	16.88
306.07	14.88
306.862	18.88
307.655	17.88
308.447	15.88
309.239	16.88
310.031	18.88
310.823	15.88
311.615	14.88
312.407	13.88
313.199	13.88
313.991	15.88
314.783	12.88
315.574	12.88
316.366	11.88
317.157	12.88
317.949	12.88
318.74	12.88
319.531	12.88
320.322	10.88
321.113	10.88
321.904	9.88
322.695	10.88
323.486	10.88
324.277	9.88
325.068	11.88
325.858	10.88
326.649	11.88
327.439	8.88
328.23	9.88
329.02	8.88
329.81	10.88
330.6	10.88
331.391	5.88
332.181	11.88
332.971	9.88
333.76	8.88
334.55	9.88
335.34	6.88
336.13	9.88
336.919	8.88
337.709	7.88
338.498	6.88
339.287	8.88
340.077	7.88
340.866	6.88
341.655	7.88
342.444	7.88
343.233	10.88
344.022	10.88
344.811	7.88
345.6	6.88
346.388	9.88
347.177	8.88
347.965	8.88
348.754	6.88
349.542	9.88
350.33	8.88
351.119	8.88
351.907	6.88
352.695	8.88
353.483	6.88
354.271	9.88
355.059	8.88
355.846	7.88
356.634	6.88
357.422	10.88
358.209	8.88
358.997	8.88
359.784	6.88
360.571	8.88
361.359	9.88
362.146	7.88
362.933	4.88
363.72	6.88
364.507	6.88
365.294	7.88
366.081	6.88
366.867	4.88
367.654	7.88
368.44	7.88
369.227	7.88
370.013	6.88
370.8	6.88
371.586	8.88
372.372	7.88
373.158	7.88
373.944	4.88
374.73	5.88
375.516	8.88
376.302	8.88
377.088	7.88
377.873	7.88
378.659	6.88
379.445	8.88
380.23	6.88
381.015	8.88
381.801	6.88
382.586	8.88
383.371	5.88
384.156	7.88
384.941	9.88
385.726	7.88
386.511	8.88
387.296	10.88
388.08	5.88
388.865	9.88
389.649	9.88
390.434	10.88
391.218	7.88
392.003	9.88
392.787	8.88
393.571	8.88
394.355	7.88
395.139	8.88
395.923	9.88
396.707	9.88
397.491	6.88
398.274	11.88
399.058	10.88
399.842	8.88
400.625	12.88
401.408	9.88
402.192	6.88
402.975	9.88
403.758	10.88
404.541	10.88
405.324	9.88
406.107	11.88
406.89	9.88
407.673	9.88
408.456	12.88
409.238	9.88
410.021	13.88
410.803	11.88
411.586	9.88
412.368	10.88
413.151	10.88
413.933	9.88
414.715	12.88
415.497	13.88
416.279	12.88
417.061	13.88
417.843	13.88
418.624	13.88
419.406	13.88
420.188	14.88
420.969	14.88
421.751	12.88
422.532	16.88
423.313	17.88
424.095	15.88
424.876	17.88
425.657	18.88
426.438	17.88
427.219	17.88
428	18.88
428.78	18.88
429.561	22.88
430.342	18.88
431.122	20.88
431.903	23.88
432.683	23.88
433.464	23.88
434.244	23.88
435.024	26.88
435.804	24.88
436.584	24.88
437.364	29.88
438.144	29.88
438.924	28.88
439.704	32.88
440.483	33.88
441.263	37.88
442.042	36.88
442.822	40.88
443.601	43.88
444.38	45.88
445.16	48.88
445.939	50.88
446.718	57.88
447.497	57.88
448.276	63.88
449.054	70.88
449.833	72.88
450.612	81.88
451.391	90.88
452.169	98.88
452.948	107.88
453.726	121.88
454.504	130.88
455.282	146.88
456.061	161.88
456.839	181.88
457.617	196.88
458.395	221.88
459.172	241.88
459.95	272.88
460.728	306.88
461.506	342.88
462.283	377.88
463.061	426.88
463.838	479.88
464.615	530.88
465.393	596.88
466.17	660.88
466.947	744.88
467.724	838.88
468.501	925.88
469.278	1034.88
470.055	1137.88
470.831	1276.88
471.608	1408.88
472.385	1561.88
473.161	1735.88
473.938	1940.88
474.714	2147.88
475.49	2384.88
476.266	2628.88
477.043	2899.88
477.819	3191.88
478.595	3539.88
479.371	3916.88
480.146	4287.88
480.922	4718.88
481.698	5207.88
482.473	5692.88
483.249	6285.88
484.024	6897.88
484.8	7597.88
485.575	8286.88
486.35	9080.88
487.126	9900.88
487.901	10872.88
488.676	11818.88
489.451	12912.88
490.225	14039.88
491	15280.88
491.775	16501.88
492.55	17878.88
493.324	19332.88
494.099	20719.88
494.873	22105.88
495.647	23651.88
496.422	25094.88
497.196	26618.88
497.97	28172.88
498.744	29608.88
499.518	31089.88
500.292	32337.88
501.066	33304.88
501.839	34510.88
502.613	35350.88
503.387	35995.88
504.16	36386.88
504.934	36576.88
505.707	36611.88
506.48	36297.88
507.253	35909.88
508.027	35345.88
508.8	34623.88
509.573	33816.88
510.346	32838.88
511.118	31813.88
511.891	30723.88
512.664	29567.88
513.437	28329.88
514.209	27068.88
514.982	26139.88
515.754	24956.88
516.526	23814.88
517.298	22803.88
518.071	21827.88
518.843	20961.88
519.615	20069.88
520.387	19296.88
521.159	18524.88
521.93	17859.88
522.702	17109.88
523.474	16485.88
524.245	15786.88
525.017	15038.88
525.788	14324.88
526.56	13711.88
527.331	13050.88
528.102	12454.88
528.873	11822.88
529.644	11222.88
530.415	10750.88
531.186	10177.88
531.957	9656.88
532.728	9093.88
533.498	8587.88
534.269	8120.88
535.039	7680.88
535.81	7243.88
536.58	6862.88
537.351	6483.88
538.121	6096.88
538.891	5765.88
539.661	5494.88
540.431	5180.88
541.201	4914.88
541.971	4656.88
542.741	4413.88
543.51	4208.88
544.28	3969.88
545.05	3799.88
545.819	3632.88
546.588	3431.88
547.358	3250.88
548.127	3069.88
548.896	2946.88
549.665	2768.88
550.434	2649.88
551.203	2500.88
551.972	2354.88
552.741	2229.88
553.51	2107.88
554.278	1988.88
555.047	1874.88
555.815	1776.88
556.584	1682.88
557.352	1572.88
558.121	1488.88
558.889	1396.88
559.657	1316.88
560.425	1254.88
561.193	1169.88
561.961	1115.88
562.729	1060.88
563.496	1003.88
564.264	943.88
565.032	896.88
565.799	853.88
566.567	803.88
567.334	753.88
568.101	708.88
568.869	676.88
569.636	636.88
570.403	597.88
571.17	565.88
571.937	540.88
572.704	507.88
573.471	479.88
574.237	449.88
575.004	432.88
575.771	392.88
576.537	372.88
577.303	348.88
578.07	339.88
578.836	315.88
579.602	295.88
580.368	282.88
581.134	257.88
581.9	253.88
582.666	238.88
583.432	224.88
584.198	218.88
584.964	200.88
585.729	196.88
586.495	186.88
587.26	173.88
588.025	162.88
588.791	158.88
589.556	147.88
590.321	140.88
591.086	137.88
591.851	128.88
592.616	117.88
593.381	116.88
594.146	110.88
594.911	108.88
595.675	99.88
596.44	97.88
597.204	90.88
597.969	87.88
598.733	83.88
599.497	80.88
600.261	78.88
601.025	75.88
601.79	70.88
602.553	67.88
603.317	62.88
604.081	59.88
604.845	64.88
605.609	57.88
606.372	52.88
607.136	49.88
607.899	50.88
608.662	48.88
609.426	47.88
610.189	46.88
610.952	43.88
611.715	43.88
612.478	38.88
613.241	36.88
614.004	38.88
614.767	37.88
615.529	32.88
616.292	30.88
617.055	30.88
617.817	31.88
618.579	31.88
619.342	31.88
620.104	26.88
620.866	28.88
621.628	26.88
622.39	27.88
623.152	24.88
623.914	24.88
624.676	25.88
625.438	21.88
626.199	21.88
626.961	20.88
627.722	21.88
628.484	20.88
629.245	20.88
630.006	19.88
630.768	18.88
631.529	18.88
632.29	11.88
633.051	21.88
633.812	15.88
634.573	15.88
635.333	17.88
636.094	17.88
636.855	12.88
637.615	12.88
638.376	13.88
639.136	12.88
639.896	11.88
640.657	16.88
641.417	14.88
642.177	10.88
642.937	10.88
643.697	12.88
644.457	12.88
645.216	11.88
645.976	10.88
646.736	13.88
647.495	10.88
648.255	10.88
649.014	12.88
649.774	11.88
650.533	9.88
651.292	9.88
652.051	9.88
652.81	7.88
653.569	12.88
654.328	8.88
655.087	10.88
655.846	8.88
656.604	9.88
657.363	12.88
658.121	8.88
658.88	8.88
659.638	8.88
660.397	6.88
661.155	9.88
661.913	5.88
662.671	8.88
663.429	7.88
664.187	8.88
664.945	8.88
665.703	6.88
666.46	9.88
667.218	4.88
667.976	6.88
668.733	5.88
669.49	5.88
670.248	8.88
671.005	5.88
671.762	7.88
672.519	5.88
673.276	6.88
674.033	6.88
674.79	7.88
675.547	6.88
676.304	5.88
677.06	6.88
677.817	7.88
678.574	7.88
679.33	6.88
680.086	5.88
680.843	6.88
681.599	4.88
682.355	7.88
683.111	5.88
683.867	6.88
684.623	4.88
685.379	5.88
686.135	6.88
686.89	4.88
687.646	4.88
688.402	6.88
689.157	4.88
689.912	2.88
690.668	3.88
691.423	7.88
692.178	6.88
692.933	6.88
693.688	7.88
694.443	5.88
695.198	5.88
695.953	4.88
696.708	5.88
697.462	7.88
698.217	3.88
698.972	4.88
699.726	3.88
700.48	5.88
701.235	4.88
701.989	6.88
702.743	4.88
703.497	3.88
704.251	4.88
705.005	2.88
705.759	6.88
706.513	4.88
707.266	4.88
708.02	4.88
708.774	6.88
709.527	4.88
710.28	4.88
711.034	7.88
711.787	6.88
712.54	4.88
713.293	6.88
714.046	2.88
714.799	5.88
715.552	4.88
716.305	5.88
717.058	4.88
717.81	4.88
718.563	8.88
719.315	5.88
720.068	6.88
720.82	5.88
721.573	7.88
722.325	6.88
723.077	6.88
723.829	6.88
724.581	6.88
725.333	5.88
726.085	5.88
726.836	7.88
727.588	7.88
728.34	5.88
729.091	9.88
729.843	3.88
730.594	6.88
731.346	7.88
732.097	4.88
732.848	8.88
733.599	7.88
734.35	6.88
735.101	6.88
735.852	7.88
736.603	4.88
737.354	6.88
738.104	7.88
738.855	5.88
739.605	7.88
740.356	5.88
741.106	4.88
741.856	8.88
742.607	7.88
743.357	7.88
744.107	6.88
744.857	7.88
745.607	7.88
746.357	6.88
747.106	8.88
747.856	7.88
748.606	5.88
749.355	6.88
750.105	7.88
750.854	7.88
751.603	6.88
752.353	8.88
753.102	8.88
753.851	7.88
754.6	9.88
755.349	6.88
756.098	7.88
756.847	9.88
757.595	9.88
758.344	8.88
759.093	10.88
759.841	8.88
760.589	8.88
761.338	10.88
762.086	10.88
762.834	9.88
763.582	9.88
764.331	9.88
765.079	12.88
765.826	10.88
766.574	11.88
767.322	8.88
768.07	10.88
768.817	12.88
769.565	8.88
770.312	8.88
771.06	11.88
771.807	10.88
772.554	9.88
773.302	10.88
774.049	9.88
774.796	11.88
775.543	13.88
776.29	12.88
777.036	11.88
777.783	9.88
778.53	12.88
779.276	12.88
780.023	10.88
780.769	13.88
781.516	12.88
782.262	12.88
783.008	10.88
783.754	13.88
784.5	11.88
785.246	12.88
785.992	12.88
786.738	11.88
787.484	12.88
788.23	11.88
788.975	13.88
789.721	10.88
790.466	10.88
791.212	10.88
791.957	12.88
792.702	12.88
793.447	10.88
794.193	8.88
794.938	10.88
795.683	10.88
796.427	10.88
797.172	11.88
797.917	9.88
798.662	11.88
799.406	11.88
800.151	11.88
800.895	10.88
801.64	9.88
802.384	8.88
803.128	9.88
803.872	9.88
804.616	8.88
805.36	6.88
806.104	9.88
806.848	9.88
807.592	8.88
808.336	8.88
809.079	6.88
809.823	8.88
810.566	8.88
811.31	10.88
812.053	4.88
812.796	7.88
813.539	5.88
814.283	7.88
815.026	7.88
815.769	4.88
816.511	6.88
817.254	7.88
817.997	6.88
818.74	6.88
819.482	6.88
820.225	9.88
820.967	6.88
821.71	7.88
822.452	5.88
823.194	6.88
823.936	7.88
824.678	6.88
825.42	4.88
826.162	5.88
826.904	5.88
827.646	6.88
828.388	6.88
829.129	5.88
829.871	3.88
830.612	4.88
831.354	2.88
832.095	2.88
832.836	5.88
833.577	1.88
834.319	3.88
835.06	5.88
835.801	6.88
836.542	5.88
837.282	7.88
838.023	5.88
838.764	4.88
839.504	3.88
840.245	6.88
840.985	4.88
841.726	8.88
842.466	4.88
843.206	4.88
843.946	4.88
844.687	4.88
845.427	6.88
846.166	4.88
846.906	3.88
847.646	4.88
848.386	5.88
849.125	4.88
849.865	2.88
850.605	3.88
851.344	3.88
852.083	3.88
852.823	2.88
853.562	1.88
854.301	7.88
855.04	5.88
855.779	5.88
856.518	6.88
857.257	1.88
857.995	3.88
858.734	4.88
859.473	3.88
860.211	3.88
860.95	3.88
861.688	3.88
862.426	0.88
863.165	2.88
863.903	2.88
864.641	2.88
865.379	2.88
866.117	1.88
866.855	1.88
867.593	0.88
868.33	2.88
869.068	3.88
869.806	2.88
870.543	2.88
871.28	2.88
872.018	1.88
872.755	0.88
873.492	2.88
874.229	2.88
874.967	0.88
875.703	3.88
876.44	3.88
877.177	0.88
877.914	-0.12
878.651	0.88
879.387	0.88
880.124	-0.12
880.86	2.88
881.597	0.88
882.333	2.88
883.069	1.88
883.806	1.88
884.542	0.88
885.278	0.88
886.014	1.88
886.749	-0.12
887.485	1.88
888.221	1.88
888.957	1.88
889.692	3.88
890.428	1.88
891.163	1.88
891.899	2.88
892.634	0.88
893.369	2.88
894.104	-1.12
894.839	3.88
895.574	-0.12
896.309	2.88
897.044	0.88
897.779	0.88
898.514	-0.12
899.248	-0.12
899.983	2.88
900.717	1.88
901.452	1.88
902.186	-1.12
902.92	2.88
903.654	1.88
904.389	0.88
905.123	1.88
905.857	0.88
906.59	0.88
907.324	2.88
908.058	1.88
908.792	2.88
909.525	2.88
910.259	1.88
910.992	-0.12
911.726	1.88
912.459	1.88
913.192	-2.12
913.925	2.88
914.658	1.88
915.391	2.88
916.124	0.88
916.857	-1.12
917.59	1.88
918.323	0.88
919.055	-1.12
919.788	2.88
920.521	-0.12
921.253	1.88
921.985	-1.12
922.718	1.88
923.45	0.88
924.182	2.88
924.914	0.88
925.646	-0.12
926.378	2.88
927.11	-0.12
927.841	0.88
928.573	0.88
929.305	-1.12
930.036	-0.12
930.768	-0.12
931.499	0.88
932.23	-0.12
932.962	0.88
933.693	-0.12
934.424	1.88
935.155	0.88
935.886	2.88
936.617	0.88
937.348	0.88
938.078	-0.12
938.809	0.88
939.54	2.88
940.27	0.88
941.001	-1.12
941.731	0.88
942.461	0.88
943.191	0.88
943.922	0.88
944.652	-0.12
945.382	-1.12
946.112	0.88
946.841	2.88
947.571	1.88
948.301	-1.12
949.031	1.88
949.76	2.88
950.49	1.88
951.219	-0.12
951.948	0.88
952.678	0.88
953.407	-1.12
954.136	1.88
954.865	1.88
955.594	-0.12
956.323	-0.12
957.052	0.88
957.78	0.88
958.509	3.88
959.238	1.88
959.966	-0.12
960.695	-1.12
961.423	-0.12
962.151	1.88
962.88	-1.12
963.608	1.88
964.336	1.88
965.064	-0.12
965.792	0.88
966.52	1.88
967.247	2.88
967.975	1.88
968.703	1.88
969.43	0.88
970.158	-1.12
970.885	0.88
971.613	0.88
972.34	-0.12
973.067	1.88
973.794	-1.12
974.521	0.88
975.248	2.88
975.975	-1.12
976.702	0.88
977.429	-1.12
978.156	0.88
978.882	1.88
979.609	-0.12
980.335	-0.12
981.062	-0.12
981.788	0.88
982.514	-0.12
983.24	1.88
983.967	0.88
984.693	-1.12
985.419	0.88
986.144	1.88
986.87	-1.12
987.596	-1.12
988.322	0.88
989.047	1.88
989.773	-2.12
990.498	-0.12
991.224	-2.12
991.949	0.88
992.674	-0.12
993.399	1.88
994.124	1.88
994.849	-0.12
995.574	-1.12
996.299	1.88
997.024	-0.12
997.749	0.88
998.473	-0.12
999.198	0.88
999.922	0.88
1000.647	0.88
1001.371	3.88
1002.095	-1.12
1002.82	-1.12
1003.544	-1.12
1004.268	1.88
1004.992	2.88
1005.716	2.88
1006.439	2.88
1007.163	3.88
1007.887	3.88
1008.611	0.88
1009.334	-0.12
1010.058	1.88
1010.781	0.88
1011.504	0.88
1012.228	0.88
1012.951	0.88
1013.674	1.88
1014.397	-3.12
1015.12	-0.12
