节点500_425_QEPB04081__624__15-58-41-412.txt的数据

Date: Wed Nov 12 15:58:41 CST 2025
User: PC
Spectrometer: QEPB0408
触发模式: 0
积分时间 (秒): 1.000000E-2
Scans to average: 1
启用暗噪声校正: true
启用非线性校正: false
滑动平均宽度: 0
X轴模式: Wavelengths
Number of Pixels in Spectrum: 1044
>>>>>Begin Spectral Data<<<<<
220.843	3.5
221.644	2.5
222.444	2.5
223.244	6.5
224.045	2.5
224.845	4.5
225.645	3.5
226.445	3.5
227.245	3.5
228.045	3.5
228.845	4.5
229.645	4.5
230.444	5.5
231.244	3.5
232.043	5.5
232.843	4.5
233.642	5.5
234.442	3.5
235.241	6.5
236.04	5.5
236.839	5.5
237.638	6.5
238.437	7.5
239.236	6.5
240.035	8.5
240.833	5.5
241.632	5.5
242.43	6.5
243.229	8.5
244.027	6.5
244.826	7.5
245.624	8.5
246.422	4.5
247.22	10.5
248.018	11.5
248.816	9.5
249.614	8.5
250.412	9.5
251.21	10.5
252.007	12.5
252.805	8.5
253.602	10.5
254.4	10.5
255.197	9.5
255.994	11.5
256.791	11.5
257.589	12.5
258.386	11.5
259.183	12.5
259.979	13.5
260.776	13.5
261.573	12.5
262.37	13.5
263.166	13.5
263.963	13.5
264.759	17.5
265.556	14.5
266.352	16.5
267.148	14.5
267.944	15.5
268.74	17.5
269.536	13.5
270.332	17.5
271.128	20.5
271.924	21.5
272.719	21.5
273.515	20.5
274.311	18.5
275.106	21.5
275.901	22.5
276.697	22.5
277.492	19.5
278.287	20.5
279.082	22.5
279.877	21.5
280.672	24.5
281.467	24.5
282.262	25.5
283.056	19.5
283.851	20.5
284.646	22.5
285.44	21.5
286.234	22.5
287.029	22.5
287.823	25.5
288.617	21.5
289.411	22.5
290.205	20.5
290.999	22.5
291.793	24.5
292.587	21.5
293.381	23.5
294.174	22.5
294.968	21.5
295.761	19.5
296.555	15.5
297.348	22.5
298.141	18.5
298.935	22.5
299.728	19.5
300.521	17.5
301.314	21.5
302.107	17.5
302.899	18.5
303.692	15.5
304.485	14.5
305.277	15.5
306.07	14.5
306.862	15.5
307.655	17.5
308.447	15.5
309.239	16.5
310.031	13.5
310.823	14.5
311.615	11.5
312.407	14.5
313.199	15.5
313.991	10.5
314.783	13.5
315.574	9.5
316.366	13.5
317.157	10.5
317.949	11.5
318.74	10.5
319.531	10.5
320.322	12.5
321.113	10.5
321.904	10.5
322.695	8.5
323.486	11.5
324.277	11.5
325.068	8.5
325.858	9.5
326.649	8.5
327.439	9.5
328.23	9.5
329.02	9.5
329.81	6.5
330.6	6.5
331.391	10.5
332.181	7.5
332.971	8.5
333.76	9.5
334.55	8.5
335.34	9.5
336.13	8.5
336.919	8.5
337.709	10.5
338.498	7.5
339.287	9.5
340.077	6.5
340.866	6.5
341.655	8.5
342.444	7.5
343.233	8.5
344.022	7.5
344.811	10.5
345.6	7.5
346.388	7.5
347.177	8.5
347.965	8.5
348.754	7.5
349.542	8.5
350.33	8.5
351.119	8.5
351.907	9.5
352.695	7.5
353.483	6.5
354.271	7.5
355.059	5.5
355.846	8.5
356.634	6.5
357.422	8.5
358.209	5.5
358.997	5.5
359.784	8.5
360.571	6.5
361.359	7.5
362.146	7.5
362.933	8.5
363.72	8.5
364.507	8.5
365.294	8.5
366.081	9.5
366.867	7.5
367.654	6.5
368.44	6.5
369.227	6.5
370.013	5.5
370.8	8.5
371.586	6.5
372.372	7.5
373.158	6.5
373.944	8.5
374.73	5.5
375.516	5.5
376.302	6.5
377.088	8.5
377.873	5.5
378.659	6.5
379.445	8.5
380.23	8.5
381.015	6.5
381.801	7.5
382.586	8.5
383.371	8.5
384.156	7.5
384.941	8.5
385.726	5.5
386.511	7.5
387.296	5.5
388.08	9.5
388.865	7.5
389.649	9.5
390.434	7.5
391.218	4.5
392.003	7.5
392.787	7.5
393.571	10.5
394.355	7.5
395.139	7.5
395.923	8.5
396.707	9.5
397.491	6.5
398.274	7.5
399.058	8.5
399.842	10.5
400.625	8.5
401.408	10.5
402.192	7.5
402.975	10.5
403.758	8.5
404.541	9.5
405.324	11.5
406.107	6.5
406.89	9.5
407.673	9.5
408.456	8.5
409.238	10.5
410.021	8.5
410.803	10.5
411.586	10.5
412.368	10.5
413.151	11.5
413.933	12.5
414.715	11.5
415.497	10.5
416.279	9.5
417.061	15.5
417.843	14.5
418.624	14.5
419.406	10.5
420.188	14.5
420.969	12.5
421.751	13.5
422.532	14.5
423.313	17.5
424.095	13.5
424.876	14.5
425.657	16.5
426.438	15.5
427.219	18.5
428	19.5
428.78	17.5
429.561	18.5
430.342	18.5
431.122	20.5
431.903	19.5
432.683	22.5
433.464	26.5
434.244	24.5
435.024	25.5
435.804	25.5
436.584	25.5
437.364	26.5
438.144	29.5
438.924	30.5
439.704	34.5
440.483	34.5
441.263	36.5
442.042	42.5
442.822	42.5
443.601	45.5
444.38	48.5
445.16	49.5
445.939	56.5
446.718	61.5
447.497	68.5
448.276	74.5
449.054	77.5
449.833	79.5
450.612	95.5
451.391	104.5
452.169	109.5
452.948	127.5
453.726	137.5
454.504	151.5
455.282	166.5
456.061	186.5
456.839	202.5
457.617	228.5
458.395	248.5
459.172	278.5
459.95	313.5
460.728	351.5
461.506	392.5
462.283	439.5
463.061	481.5
463.838	536.5
464.615	596.5
465.393	668.5
466.17	727.5
466.947	832.5
467.724	902.5
468.501	1000.5
469.278	1111.5
470.055	1199.5
470.831	1343.5
471.608	1486.5
472.385	1638.5
473.161	1796.5
473.938	1965.5
474.714	2164.5
475.49	2373.5
476.266	2613.5
477.043	2828.5
477.819	3130.5
478.595	3415.5
479.371	3720.5
480.146	4054.5
480.922	4428.5
481.698	4812.5
482.473	5244.5
483.249	5661.5
484.024	6198.5
484.8	6745.5
485.575	7372.5
486.35	7949.5
487.126	8566.5
487.901	9281.5
488.676	10041.5
489.451	10925.5
490.225	11785.5
491	12703.5
491.775	13702.5
492.55	14770.5
493.324	15883.5
494.099	16970.5
494.873	18078.5
495.647	19287.5
496.422	20436.5
497.196	21694.5
497.97	23024.5
498.744	24279.5
499.518	25542.5
500.292	26696.5
501.066	27786.5
501.839	28851.5
502.613	29899.5
503.387	30702.5
504.16	31391.5
504.934	31863.5
505.707	32249.5
506.48	32387.5
507.253	32348.5
508.027	32333.5
508.8	32100.5
509.573	31656.5
510.346	31270.5
511.118	30523.5
511.891	29811.5
512.664	28960.5
513.437	28017.5
514.209	27017.5
514.982	26138.5
515.754	25220.5
516.526	24268.5
517.298	23311.5
518.071	22309.5
518.843	21426.5
519.615	20602.5
520.387	19821.5
521.159	19011.5
521.93	18354.5
522.702	17568.5
523.474	16940.5
524.245	16262.5
525.017	15573.5
525.788	14886.5
526.56	14223.5
527.331	13639.5
528.102	13008.5
528.873	12437.5
529.644	11893.5
530.415	11364.5
531.186	10834.5
531.957	10307.5
532.728	9776.5
533.498	9287.5
534.269	8798.5
535.039	8366.5
535.81	7941.5
536.58	7485.5
537.351	7068.5
538.121	6676.5
538.891	6314.5
539.661	5998.5
540.431	5679.5
541.201	5386.5
541.971	5099.5
542.741	4855.5
543.51	4600.5
544.28	4370.5
545.05	4162.5
545.819	3974.5
546.588	3752.5
547.358	3552.5
548.127	3413.5
548.896	3213.5
549.665	3080.5
550.434	2905.5
551.203	2770.5
551.972	2608.5
552.741	2490.5
553.51	2338.5
554.278	2213.5
555.047	2110.5
555.815	1992.5
556.584	1876.5
557.352	1769.5
558.121	1667.5
558.889	1601.5
559.657	1494.5
560.425	1420.5
561.193	1330.5
561.961	1270.5
562.729	1200.5
563.496	1130.5
564.264	1065.5
565.032	1004.5
565.799	943.5
566.567	916.5
567.334	862.5
568.101	809.5
568.869	754.5
569.636	724.5
570.403	670.5
571.17	632.5
571.937	602.5
572.704	565.5
573.471	539.5
574.237	509.5
575.004	481.5
575.771	446.5
576.537	418.5
577.303	396.5
578.07	377.5
578.836	356.5
579.602	333.5
580.368	309.5
581.134	305.5
581.9	283.5
582.666	273.5
583.432	260.5
584.198	247.5
584.964	231.5
585.729	224.5
586.495	206.5
587.26	196.5
588.025	189.5
588.791	177.5
589.556	167.5
590.321	165.5
591.086	149.5
591.851	151.5
592.616	141.5
593.381	133.5
594.146	128.5
594.911	116.5
595.675	113.5
596.44	106.5
597.204	104.5
597.969	96.5
598.733	94.5
599.497	89.5
600.261	87.5
601.025	82.5
601.79	74.5
602.553	71.5
603.317	69.5
604.081	72.5
604.845	67.5
605.609	65.5
606.372	58.5
607.136	59.5
607.899	54.5
608.662	54.5
609.426	51.5
610.189	51.5
610.952	48.5
611.715	48.5
612.478	42.5
613.241	43.5
614.004	40.5
614.767	38.5
615.529	34.5
616.292	33.5
617.055	35.5
617.817	31.5
618.579	33.5
619.342	30.5
620.104	30.5
620.866	30.5
621.628	27.5
622.39	25.5
623.152	26.5
623.914	22.5
624.676	26.5
625.438	27.5
626.199	23.5
626.961	25.5
627.722	21.5
628.484	22.5
629.245	23.5
630.006	20.5
630.768	17.5
631.529	18.5
632.29	17.5
633.051	18.5
633.812	18.5
634.573	20.5
635.333	17.5
636.094	15.5
636.855	17.5
637.615	12.5
638.376	14.5
639.136	14.5
639.896	15.5
640.657	12.5
641.417	11.5
642.177	12.5
642.937	12.5
643.697	11.5
644.457	13.5
645.216	11.5
645.976	11.5
646.736	11.5
647.495	13.5
648.255	10.5
649.014	10.5
649.774	14.5
650.533	7.5
651.292	9.5
652.051	10.5
652.81	8.5
653.569	9.5
654.328	8.5
655.087	8.5
655.846	8.5
656.604	10.5
657.363	8.5
658.121	8.5
658.88	9.5
659.638	8.5
660.397	10.5
661.155	8.5
661.913	7.5
662.671	10.5
663.429	6.5
664.187	8.5
664.945	6.5
665.703	8.5
666.46	8.5
667.218	6.5
667.976	5.5
668.733	5.5
669.49	7.5
670.248	7.5
671.005	4.5
671.762	6.5
672.519	7.5
673.276	5.5
674.033	5.5
674.79	8.5
675.547	4.5
676.304	6.5
677.06	7.5
677.817	6.5
678.574	7.5
679.33	6.5
680.086	4.5
680.843	4.5
681.599	5.5
682.355	7.5
683.111	4.5
683.867	6.5
684.623	7.5
685.379	5.5
686.135	5.5
686.89	6.5
687.646	4.5
688.402	7.5
689.157	4.5
689.912	6.5
690.668	5.5
691.423	4.5
692.178	2.5
692.933	6.5
693.688	3.5
694.443	5.5
695.198	6.5
695.953	4.5
696.708	6.5
697.462	5.5
698.217	5.5
698.972	6.5
699.726	6.5
700.48	4.5
701.235	4.5
701.989	4.5
702.743	3.5
703.497	2.5
704.251	7.5
705.005	3.5
705.759	6.5
706.513	6.5
707.266	3.5
708.02	6.5
708.774	6.5
709.527	3.5
710.28	5.5
711.034	5.5
711.787	6.5
712.54	3.5
713.293	6.5
714.046	5.5
714.799	6.5
715.552	5.5
716.305	4.5
717.058	6.5
717.81	4.5
718.563	5.5
719.315	4.5
720.068	3.5
720.82	6.5
721.573	5.5
722.325	4.5
723.077	6.5
723.829	5.5
724.581	3.5
725.333	6.5
726.085	7.5
726.836	6.5
727.588	7.5
728.34	5.5
729.091	6.5
729.843	5.5
730.594	7.5
731.346	5.5
732.097	5.5
732.848	5.5
733.599	8.5
734.35	5.5
735.101	6.5
735.852	5.5
736.603	5.5
737.354	6.5
738.104	7.5
738.855	4.5
739.605	6.5
740.356	7.5
741.106	2.5
741.856	5.5
742.607	7.5
743.357	7.5
744.107	7.5
744.857	4.5
745.607	5.5
746.357	8.5
747.106	4.5
747.856	5.5
748.606	6.5
749.355	6.5
750.105	5.5
750.854	7.5
751.603	8.5
752.353	6.5
753.102	6.5
753.851	6.5
754.6	7.5
755.349	5.5
756.098	8.5
756.847	5.5
757.595	9.5
758.344	6.5
759.093	6.5
759.841	8.5
760.589	5.5
761.338	6.5
762.086	10.5
762.834	7.5
763.582	6.5
764.331	8.5
765.079	8.5
765.826	8.5
766.574	7.5
767.322	8.5
768.07	7.5
768.817	7.5
769.565	8.5
770.312	9.5
771.06	9.5
771.807	8.5
772.554	11.5
773.302	7.5
774.049	7.5
774.796	9.5
775.543	8.5
776.29	12.5
777.036	12.5
777.783	11.5
778.53	8.5
779.276	9.5
780.023	12.5
780.769	10.5
781.516	10.5
782.262	9.5
783.008	12.5
783.754	9.5
784.5	12.5
785.246	12.5
785.992	8.5
786.738	9.5
787.484	10.5
788.23	13.5
788.975	9.5
789.721	8.5
790.466	10.5
791.212	9.5
791.957	11.5
792.702	8.5
793.447	11.5
794.193	10.5
794.938	9.5
795.683	11.5
796.427	8.5
797.172	10.5
797.917	9.5
798.662	8.5
799.406	7.5
800.151	8.5
800.895	10.5
801.64	7.5
802.384	9.5
803.128	10.5
803.872	6.5
804.616	8.5
805.36	6.5
806.104	9.5
806.848	8.5
807.592	7.5
808.336	6.5
809.079	8.5
809.823	7.5
810.566	7.5
811.31	6.5
812.053	8.5
812.796	6.5
813.539	6.5
814.283	6.5
815.026	4.5
815.769	10.5
816.511	7.5
817.254	8.5
817.997	4.5
818.74	5.5
819.482	3.5
820.225	5.5
820.967	3.5
821.71	5.5
822.452	6.5
823.194	5.5
823.936	7.5
824.678	3.5
825.42	5.5
826.162	3.5
826.904	4.5
827.646	7.5
828.388	5.5
829.129	6.5
829.871	5.5
830.612	5.5
831.354	5.5
832.095	4.5
832.836	4.5
833.577	3.5
834.319	3.5
835.06	5.5
835.801	5.5
836.542	7.5
837.282	2.5
838.023	5.5
838.764	2.5
839.504	3.5
840.245	2.5
840.985	2.5
841.726	7.5
842.466	3.5
843.206	3.5
843.946	5.5
844.687	4.5
845.427	4.5
846.166	2.5
846.906	5.5
847.646	5.5
848.386	4.5
849.125	3.5
849.865	2.5
850.605	4.5
851.344	4.5
852.083	4.5
852.823	3.5
853.562	2.5
854.301	3.5
855.04	1.5
855.779	3.5
856.518	1.5
857.257	4.5
857.995	3.5
858.734	1.5
859.473	4.5
860.211	3.5
860.95	2.5
861.688	2.5
862.426	0.5
863.165	0.5
863.903	2.5
864.641	2.5
865.379	2.5
866.117	0.5
866.855	0.5
867.593	4.5
868.33	1.5
869.068	1.5
869.806	1.5
870.543	3.5
871.28	1.5
872.018	0.5
872.755	1.5
873.492	2.5
874.229	2.5
874.967	2.5
875.703	1.5
876.44	2.5
877.177	1.5
877.914	-1.5
878.651	0.5
879.387	1.5
880.124	2.5
880.86	3.5
881.597	1.5
882.333	3.5
883.069	0.5
883.806	-1.5
884.542	0.5
885.278	0.5
886.014	-0.5
886.749	0.5
887.485	1.5
888.221	2.5
888.957	2.5
889.692	0.5
890.428	-1.5
891.163	2.5
891.899	1.5
892.634	1.5
893.369	1.5
894.104	1.5
894.839	1.5
895.574	1.5
896.309	1.5
897.044	2.5
897.779	-0.5
898.514	0.5
899.248	2.5
899.983	0.5
900.717	3.5
901.452	0.5
902.186	2.5
902.92	-0.5
903.654	-0.5
904.389	1.5
905.123	1.5
905.857	1.5
906.59	1.5
907.324	0.5
908.058	-3.5
908.792	2.5
909.525	0.5
910.259	0.5
910.992	0.5
911.726	0.5
912.459	2.5
913.192	1.5
913.925	-2.5
914.658	1.5
915.391	-0.5
916.124	-0.5
916.857	0.5
917.59	0.5
918.323	0.5
919.055	-0.5
919.788	-0.5
920.521	-0.5
921.253	2.5
921.985	-0.5
922.718	1.5
923.45	2.5
924.182	-0.5
924.914	2.5
925.646	0.5
926.378	-0.5
927.11	0.5
927.841	-1.5
928.573	-0.5
929.305	-2.5
930.036	1.5
930.768	0.5
931.499	1.5
932.23	1.5
932.962	2.5
933.693	-0.5
934.424	-0.5
935.155	0.5
935.886	-1.5
936.617	0.5
937.348	0.5
938.078	-0.5
938.809	-0.5
939.54	-0.5
940.27	0.5
941.001	-0.5
941.731	0.5
942.461	1.5
943.191	-0.5
943.922	2.5
944.652	1.5
945.382	1.5
946.112	0.5
946.841	1.5
947.571	-1.5
948.301	0.5
949.031	-0.5
949.76	1.5
950.49	0.5
951.219	0.5
951.948	-0.5
952.678	1.5
953.407	2.5
954.136	1.5
954.865	0.5
955.594	-1.5
956.323	-0.5
957.052	0.5
957.78	-0.5
958.509	0.5
959.238	-0.5
959.966	-0.5
960.695	-2.5
961.423	-0.5
962.151	0.5
962.88	2.5
963.608	2.5
964.336	-0.5
965.064	0.5
965.792	-0.5
966.52	1.5
967.247	0.5
967.975	2.5
968.703	-0.5
969.43	-0.5
970.158	2.5
970.885	1.5
971.613	-0.5
972.34	3.5
973.067	-0.5
973.794	1.5
974.521	-0.5
975.248	2.5
975.975	-1.5
976.702	-1.5
977.429	2.5
978.156	0.5
978.882	0.5
979.609	0.5
980.335	1.5
981.062	0.5
981.788	2.5
982.514	0.5
983.24	-0.5
983.967	-2.5
984.693	0.5
985.419	-2.5
986.144	-0.5
986.87	-1.5
987.596	0.5
988.322	0.5
989.047	0.5
989.773	2.5
990.498	-0.5
991.224	-3.5
991.949	2.5
992.674	1.5
993.399	-0.5
994.124	1.5
994.849	-1.5
995.574	-0.5
996.299	2.5
997.024	1.5
997.749	-1.5
998.473	0.5
999.198	2.5
999.922	2.5
1000.647	-1.5
1001.371	2.5
1002.095	-0.5
1002.82	-2.5
1003.544	1.5
1004.268	2.5
1004.992	2.5
1005.716	0.5
1006.439	2.5
1007.163	-0.5
1007.887	5.5
1008.611	1.5
1009.334	-0.5
1010.058	2.5
1010.781	-0.5
1011.504	-0.5
1012.228	1.5
1012.951	-1.5
1013.674	-0.5
1014.397	0.5
1015.12	0.5
