节点500_425_QEPB04081__478__15-56-15-574.txt的数据

Date: Wed Nov 12 15:56:15 CST 2025
User: PC
Spectrometer: QEPB0408
触发模式: 0
积分时间 (秒): 1.000000E-2
Scans to average: 1
启用暗噪声校正: true
启用非线性校正: false
滑动平均宽度: 0
X轴模式: Wavelengths
Number of Pixels in Spectrum: 1044
>>>>>Begin Spectral Data<<<<<
220.843	3.5
221.644	5.5
222.444	1.5
223.244	3.5
224.045	2.5
224.845	4.5
225.645	5.5
226.445	2.5
227.245	3.5
228.045	7.5
228.845	3.5
229.645	1.5
230.444	3.5
231.244	5.5
232.043	5.5
232.843	7.5
233.642	4.5
234.442	6.5
235.241	5.5
236.04	6.5
236.839	7.5
237.638	6.5
238.437	6.5
239.236	5.5
240.035	8.5
240.833	8.5
241.632	8.5
242.43	8.5
243.229	8.5
244.027	6.5
244.826	8.5
245.624	8.5
246.422	8.5
247.22	9.5
248.018	10.5
248.816	8.5
249.614	8.5
250.412	5.5
251.21	11.5
252.007	9.5
252.805	11.5
253.602	11.5
254.4	8.5
255.197	11.5
255.994	10.5
256.791	11.5
257.589	9.5
258.386	12.5
259.183	14.5
259.979	14.5
260.776	11.5
261.573	14.5
262.37	15.5
263.166	16.5
263.963	15.5
264.759	17.5
265.556	16.5
266.352	14.5
267.148	15.5
267.944	16.5
268.74	18.5
269.536	19.5
270.332	19.5
271.128	18.5
271.924	19.5
272.719	18.5
273.515	21.5
274.311	20.5
275.106	20.5
275.901	22.5
276.697	20.5
277.492	22.5
278.287	21.5
279.082	21.5
279.877	22.5
280.672	23.5
281.467	23.5
282.262	20.5
283.056	23.5
283.851	28.5
284.646	25.5
285.44	24.5
286.234	22.5
287.029	24.5
287.823	27.5
288.617	24.5
289.411	21.5
290.205	20.5
290.999	22.5
291.793	22.5
292.587	22.5
293.381	23.5
294.174	20.5
294.968	22.5
295.761	20.5
296.555	21.5
297.348	21.5
298.141	18.5
298.935	21.5
299.728	20.5
300.521	19.5
301.314	17.5
302.107	17.5
302.899	18.5
303.692	17.5
304.485	18.5
305.277	16.5
306.07	17.5
306.862	14.5
307.655	15.5
308.447	15.5
309.239	14.5
310.031	17.5
310.823	14.5
311.615	13.5
312.407	14.5
313.199	12.5
313.991	14.5
314.783	11.5
315.574	12.5
316.366	12.5
317.157	11.5
317.949	11.5
318.74	10.5
319.531	12.5
320.322	11.5
321.113	13.5
321.904	9.5
322.695	11.5
323.486	12.5
324.277	10.5
325.068	9.5
325.858	7.5
326.649	6.5
327.439	10.5
328.23	8.5
329.02	6.5
329.81	10.5
330.6	10.5
331.391	9.5
332.181	8.5
332.971	9.5
333.76	8.5
334.55	7.5
335.34	9.5
336.13	9.5
336.919	8.5
337.709	7.5
338.498	6.5
339.287	11.5
340.077	7.5
340.866	9.5
341.655	7.5
342.444	8.5
343.233	8.5
344.022	8.5
344.811	7.5
345.6	7.5
346.388	7.5
347.177	9.5
347.965	6.5
348.754	7.5
349.542	6.5
350.33	8.5
351.119	11.5
351.907	10.5
352.695	5.5
353.483	7.5
354.271	8.5
355.059	7.5
355.846	9.5
356.634	8.5
357.422	8.5
358.209	6.5
358.997	8.5
359.784	7.5
360.571	4.5
361.359	8.5
362.146	7.5
362.933	6.5
363.72	8.5
364.507	8.5
365.294	9.5
366.081	7.5
366.867	8.5
367.654	7.5
368.44	6.5
369.227	4.5
370.013	6.5
370.8	7.5
371.586	4.5
372.372	6.5
373.158	6.5
373.944	7.5
374.73	6.5
375.516	4.5
376.302	7.5
377.088	6.5
377.873	6.5
378.659	4.5
379.445	6.5
380.23	5.5
381.015	7.5
381.801	9.5
382.586	7.5
383.371	7.5
384.156	8.5
384.941	6.5
385.726	7.5
386.511	7.5
387.296	7.5
388.08	3.5
388.865	8.5
389.649	7.5
390.434	7.5
391.218	6.5
392.003	8.5
392.787	9.5
393.571	5.5
394.355	6.5
395.139	8.5
395.923	7.5
396.707	8.5
397.491	10.5
398.274	8.5
399.058	9.5
399.842	7.5
400.625	10.5
401.408	8.5
402.192	9.5
402.975	8.5
403.758	10.5
404.541	8.5
405.324	9.5
406.107	9.5
406.89	10.5
407.673	12.5
408.456	9.5
409.238	10.5
410.021	9.5
410.803	11.5
411.586	11.5
412.368	12.5
413.151	9.5
413.933	11.5
414.715	12.5
415.497	12.5
416.279	11.5
417.061	10.5
417.843	11.5
418.624	11.5
419.406	14.5
420.188	12.5
420.969	16.5
421.751	14.5
422.532	13.5
423.313	14.5
424.095	14.5
424.876	15.5
425.657	15.5
426.438	16.5
427.219	17.5
428	17.5
428.78	19.5
429.561	19.5
430.342	19.5
431.122	17.5
431.903	19.5
432.683	24.5
433.464	23.5
434.244	22.5
435.024	22.5
435.804	23.5
436.584	30.5
437.364	31.5
438.144	31.5
438.924	32.5
439.704	35.5
440.483	30.5
441.263	34.5
442.042	41.5
442.822	41.5
443.601	45.5
444.38	46.5
445.16	51.5
445.939	52.5
446.718	57.5
447.497	64.5
448.276	67.5
449.054	80.5
449.833	84.5
450.612	86.5
451.391	97.5
452.169	108.5
452.948	123.5
453.726	136.5
454.504	146.5
455.282	162.5
456.061	174.5
456.839	200.5
457.617	227.5
458.395	255.5
459.172	275.5
459.95	304.5
460.728	344.5
461.506	374.5
462.283	427.5
463.061	474.5
463.838	527.5
464.615	579.5
465.393	654.5
466.17	724.5
466.947	802.5
467.724	904.5
468.501	977.5
469.278	1103.5
470.055	1204.5
470.831	1332.5
471.608	1462.5
472.385	1621.5
473.161	1788.5
473.938	1964.5
474.714	2168.5
475.49	2376.5
476.266	2608.5
477.043	2878.5
477.819	3143.5
478.595	3456.5
479.371	3778.5
480.146	4125.5
480.922	4505.5
481.698	4918.5
482.473	5355.5
483.249	5865.5
484.024	6378.5
484.8	7023.5
485.575	7617.5
486.35	8222.5
487.126	8957.5
487.901	9719.5
488.676	10562.5
489.451	11394.5
490.225	12362.5
491	13388.5
491.775	14485.5
492.55	15562.5
493.324	16750.5
494.099	17940.5
494.873	19082.5
495.647	20411.5
496.422	21692.5
497.196	22986.5
497.97	24384.5
498.744	25673.5
499.518	26979.5
500.292	28160.5
501.066	29249.5
501.839	30448.5
502.613	31397.5
503.387	32145.5
504.16	32833.5
504.934	33245.5
505.707	33502.5
506.48	33568.5
507.253	33448.5
508.027	33280.5
508.8	32988.5
509.573	32450.5
510.346	31802.5
511.118	31045.5
511.891	30224.5
512.664	29259.5
513.437	28260.5
514.209	27200.5
514.982	26269.5
515.754	25270.5
516.526	24210.5
517.298	23254.5
518.071	22214.5
518.843	21373.5
519.615	20579.5
520.387	19748.5
521.159	18956.5
521.93	18282.5
522.702	17488.5
523.474	16875.5
524.245	16185.5
525.017	15489.5
525.788	14761.5
526.56	14107.5
527.331	13497.5
528.102	12897.5
528.873	12268.5
529.644	11731.5
530.415	11226.5
531.186	10686.5
531.957	10194.5
532.728	9648.5
533.498	9133.5
534.269	8642.5
535.039	8184.5
535.81	7739.5
536.58	7331.5
537.351	6894.5
538.121	6544.5
538.891	6193.5
539.661	5838.5
540.431	5578.5
541.201	5284.5
541.971	5000.5
542.741	4723.5
543.51	4501.5
544.28	4290.5
545.05	4055.5
545.819	3870.5
546.588	3674.5
547.358	3469.5
548.127	3312.5
548.896	3137.5
549.665	2975.5
550.434	2847.5
551.203	2703.5
551.972	2561.5
552.741	2414.5
553.51	2282.5
554.278	2158.5
555.047	2049.5
555.815	1922.5
556.584	1825.5
557.352	1720.5
558.121	1624.5
558.889	1531.5
559.657	1441.5
560.425	1361.5
561.193	1290.5
561.961	1205.5
562.729	1183.5
563.496	1092.5
564.264	1033.5
565.032	982.5
565.799	936.5
566.567	870.5
567.334	831.5
568.101	793.5
568.869	740.5
569.636	690.5
570.403	652.5
571.17	621.5
571.937	584.5
572.704	559.5
573.471	529.5
574.237	497.5
575.004	457.5
575.771	447.5
576.537	407.5
577.303	396.5
578.07	366.5
578.836	344.5
579.602	320.5
580.368	306.5
581.134	292.5
581.9	283.5
582.666	259.5
583.432	249.5
584.198	235.5
584.964	224.5
585.729	213.5
586.495	197.5
587.26	193.5
588.025	186.5
588.791	174.5
589.556	164.5
590.321	159.5
591.086	146.5
591.851	137.5
592.616	136.5
593.381	123.5
594.146	121.5
594.911	119.5
595.675	110.5
596.44	108.5
597.204	102.5
597.969	95.5
598.733	89.5
599.497	84.5
600.261	86.5
601.025	81.5
601.79	80.5
602.553	71.5
603.317	71.5
604.081	66.5
604.845	64.5
605.609	58.5
606.372	58.5
607.136	55.5
607.899	54.5
608.662	50.5
609.426	50.5
610.189	48.5
610.952	46.5
611.715	45.5
612.478	46.5
613.241	40.5
614.004	38.5
614.767	39.5
615.529	37.5
616.292	36.5
617.055	32.5
617.817	36.5
618.579	30.5
619.342	29.5
620.104	31.5
620.866	29.5
621.628	31.5
622.39	28.5
623.152	25.5
623.914	26.5
624.676	22.5
625.438	26.5
626.199	23.5
626.961	24.5
627.722	24.5
628.484	21.5
629.245	20.5
630.006	18.5
630.768	19.5
631.529	17.5
632.29	16.5
633.051	15.5
633.812	17.5
634.573	16.5
635.333	15.5
636.094	15.5
636.855	16.5
637.615	14.5
638.376	13.5
639.136	12.5
639.896	14.5
640.657	11.5
641.417	12.5
642.177	12.5
642.937	14.5
643.697	13.5
644.457	10.5
645.216	12.5
645.976	11.5
646.736	11.5
647.495	13.5
648.255	8.5
649.014	12.5
649.774	8.5
650.533	9.5
651.292	10.5
652.051	9.5
652.81	9.5
653.569	8.5
654.328	7.5
655.087	9.5
655.846	4.5
656.604	8.5
657.363	8.5
658.121	10.5
658.88	7.5
659.638	8.5
660.397	6.5
661.155	6.5
661.913	9.5
662.671	6.5
663.429	6.5
664.187	6.5
664.945	8.5
665.703	8.5
666.46	5.5
667.218	7.5
667.976	6.5
668.733	8.5
669.49	7.5
670.248	6.5
671.005	9.5
671.762	3.5
672.519	4.5
673.276	6.5
674.033	4.5
674.79	6.5
675.547	5.5
676.304	5.5
677.06	3.5
677.817	6.5
678.574	8.5
679.33	5.5
680.086	6.5
680.843	5.5
681.599	4.5
682.355	7.5
683.111	5.5
683.867	5.5
684.623	6.5
685.379	5.5
686.135	6.5
686.89	6.5
687.646	4.5
688.402	5.5
689.157	4.5
689.912	6.5
690.668	6.5
691.423	5.5
692.178	5.5
692.933	5.5
693.688	4.5
694.443	4.5
695.198	3.5
695.953	5.5
696.708	6.5
697.462	2.5
698.217	6.5
698.972	4.5
699.726	4.5
700.48	5.5
701.235	5.5
701.989	2.5
702.743	2.5
703.497	5.5
704.251	3.5
705.005	3.5
705.759	6.5
706.513	6.5
707.266	4.5
708.02	4.5
708.774	3.5
709.527	5.5
710.28	3.5
711.034	3.5
711.787	5.5
712.54	5.5
713.293	4.5
714.046	2.5
714.799	6.5
715.552	4.5
716.305	4.5
717.058	4.5
717.81	5.5
718.563	5.5
719.315	4.5
720.068	3.5
720.82	3.5
721.573	6.5
722.325	3.5
723.077	3.5
723.829	3.5
724.581	6.5
725.333	2.5
726.085	4.5
726.836	7.5
727.588	5.5
728.34	6.5
729.091	5.5
729.843	4.5
730.594	7.5
731.346	2.5
732.097	5.5
732.848	3.5
733.599	4.5
734.35	4.5
735.101	4.5
735.852	7.5
736.603	7.5
737.354	5.5
738.104	5.5
738.855	5.5
739.605	4.5
740.356	5.5
741.106	8.5
741.856	7.5
742.607	5.5
743.357	5.5
744.107	4.5
744.857	4.5
745.607	6.5
746.357	6.5
747.106	6.5
747.856	7.5
748.606	6.5
749.355	4.5
750.105	8.5
750.854	6.5
751.603	6.5
752.353	8.5
753.102	6.5
753.851	7.5
754.6	8.5
755.349	7.5
756.098	9.5
756.847	9.5
757.595	5.5
758.344	5.5
759.093	8.5
759.841	7.5
760.589	8.5
761.338	6.5
762.086	8.5
762.834	9.5
763.582	9.5
764.331	9.5
765.079	8.5
765.826	8.5
766.574	6.5
767.322	10.5
768.07	7.5
768.817	10.5
769.565	10.5
770.312	10.5
771.06	8.5
771.807	11.5
772.554	9.5
773.302	10.5
774.049	12.5
774.796	8.5
775.543	10.5
776.29	10.5
777.036	11.5
777.783	9.5
778.53	11.5
779.276	11.5
780.023	9.5
780.769	13.5
781.516	13.5
782.262	10.5
783.008	11.5
783.754	9.5
784.5	11.5
785.246	8.5
785.992	12.5
786.738	11.5
787.484	11.5
788.23	11.5
788.975	9.5
789.721	9.5
790.466	11.5
791.212	10.5
791.957	11.5
792.702	12.5
793.447	11.5
794.193	9.5
794.938	10.5
795.683	9.5
796.427	12.5
797.172	9.5
797.917	8.5
798.662	9.5
799.406	8.5
800.151	7.5
800.895	10.5
801.64	8.5
802.384	7.5
803.128	7.5
803.872	8.5
804.616	6.5
805.36	9.5
806.104	7.5
806.848	7.5
807.592	8.5
808.336	5.5
809.079	7.5
809.823	5.5
810.566	7.5
811.31	5.5
812.053	5.5
812.796	6.5
813.539	7.5
814.283	4.5
815.026	5.5
815.769	4.5
816.511	5.5
817.254	5.5
817.997	5.5
818.74	4.5
819.482	5.5
820.225	7.5
820.967	4.5
821.71	6.5
822.452	5.5
823.194	5.5
823.936	6.5
824.678	5.5
825.42	7.5
826.162	4.5
826.904	6.5
827.646	8.5
828.388	7.5
829.129	7.5
829.871	3.5
830.612	5.5
831.354	4.5
832.095	6.5
832.836	7.5
833.577	2.5
834.319	4.5
835.06	4.5
835.801	5.5
836.542	2.5
837.282	5.5
838.023	5.5
838.764	5.5
839.504	3.5
840.245	5.5
840.985	3.5
841.726	3.5
842.466	5.5
843.206	4.5
843.946	3.5
844.687	4.5
845.427	4.5
846.166	3.5
846.906	5.5
847.646	4.5
848.386	2.5
849.125	2.5
849.865	7.5
850.605	3.5
851.344	6.5
852.083	4.5
852.823	2.5
853.562	4.5
854.301	2.5
855.04	0.5
855.779	6.5
856.518	2.5
857.257	3.5
857.995	5.5
858.734	-0.5
859.473	3.5
860.211	2.5
860.95	3.5
861.688	1.5
862.426	4.5
863.165	0.5
863.903	3.5
864.641	3.5
865.379	1.5
866.117	1.5
866.855	2.5
867.593	2.5
868.33	2.5
869.068	5.5
869.806	1.5
870.543	0.5
871.28	0.5
872.018	3.5
872.755	1.5
873.492	4.5
874.229	0.5
874.967	1.5
875.703	1.5
876.44	3.5
877.177	2.5
877.914	1.5
878.651	1.5
879.387	0.5
880.124	0.5
880.86	2.5
881.597	1.5
882.333	2.5
883.069	1.5
883.806	1.5
884.542	0.5
885.278	2.5
886.014	1.5
886.749	-0.5
887.485	-1.5
888.221	0.5
888.957	1.5
889.692	2.5
890.428	-1.5
891.163	2.5
891.899	-0.5
892.634	3.5
893.369	-0.5
894.104	-0.5
894.839	0.5
895.574	0.5
896.309	1.5
897.044	2.5
897.779	0.5
898.514	0.5
899.248	0.5
899.983	1.5
900.717	0.5
901.452	0.5
902.186	-0.5
902.92	-0.5
903.654	0.5
904.389	-0.5
905.123	0.5
905.857	-1.5
906.59	1.5
907.324	1.5
908.058	0.5
908.792	0.5
909.525	1.5
910.259	1.5
910.992	1.5
911.726	1.5
912.459	-1.5
913.192	1.5
913.925	2.5
914.658	0.5
915.391	1.5
916.124	0.5
916.857	0.5
917.59	1.5
918.323	1.5
919.055	1.5
919.788	1.5
920.521	0.5
921.253	-0.5
921.985	1.5
922.718	0.5
923.45	0.5
924.182	3.5
924.914	-0.5
925.646	0.5
926.378	1.5
927.11	0.5
927.841	2.5
928.573	1.5
929.305	0.5
930.036	-0.5
930.768	0.5
931.499	-1.5
932.23	2.5
932.962	1.5
933.693	0.5
934.424	0.5
935.155	0.5
935.886	0.5
936.617	2.5
937.348	-1.5
938.078	0.5
938.809	-0.5
939.54	1.5
940.27	-2.5
941.001	1.5
941.731	0.5
942.461	0.5
943.191	1.5
943.922	2.5
944.652	-1.5
945.382	0.5
946.112	-0.5
946.841	1.5
947.571	0.5
948.301	-0.5
949.031	1.5
949.76	1.5
950.49	2.5
951.219	-0.5
951.948	0.5
952.678	-1.5
953.407	1.5
954.136	-1.5
954.865	-0.5
955.594	-0.5
956.323	0.5
957.052	1.5
957.78	1.5
958.509	-1.5
959.238	2.5
959.966	0.5
960.695	1.5
961.423	0.5
962.151	-0.5
962.88	0.5
963.608	-1.5
964.336	1.5
965.064	2.5
965.792	1.5
966.52	0.5
967.247	-0.5
967.975	0.5
968.703	-1.5
969.43	3.5
970.158	-1.5
970.885	-2.5
971.613	1.5
972.34	0.5
973.067	-0.5
973.794	0.5
974.521	1.5
975.248	0.5
975.975	-1.5
976.702	0.5
977.429	0.5
978.156	-0.5
978.882	-0.5
979.609	0.5
980.335	1.5
981.062	-0.5
981.788	1.5
982.514	-0.5
983.24	1.5
983.967	0.5
984.693	0.5
985.419	0.5
986.144	1.5
986.87	-2.5
987.596	-0.5
988.322	-1.5
989.047	1.5
989.773	1.5
990.498	0.5
991.224	-0.5
991.949	-0.5
992.674	-2.5
993.399	-0.5
994.124	0.5
994.849	-1.5
995.574	1.5
996.299	2.5
997.024	1.5
997.749	1.5
998.473	-1.5
999.198	0.5
999.922	3.5
1000.647	2.5
1001.371	2.5
1002.095	-2.5
1002.82	1.5
1003.544	0.5
1004.268	3.5
1004.992	0.5
1005.716	0.5
1006.439	4.5
1007.163	4.5
1007.887	1.5
1008.611	-0.5
1009.334	-0.5
1010.058	1.5
1010.781	1.5
1011.504	2.5
1012.228	1.5
1012.951	-0.5
1013.674	-1.5
1014.397	-1.5
1015.12	1.5
