节点500_425_QEPB04081__243__15-52-20-985.txt的数据

Date: Wed Nov 12 15:52:20 CST 2025
User: PC
Spectrometer: QEPB0408
触发模式: 0
积分时间 (秒): 1.000000E-2
Scans to average: 1
启用暗噪声校正: true
启用非线性校正: false
滑动平均宽度: 0
X轴模式: Wavelengths
Number of Pixels in Spectrum: 1044
>>>>>Begin Spectral Data<<<<<
220.843	1.62
221.644	2.62
222.444	2.62
223.244	2.62
224.045	5.62
224.845	4.62
225.645	3.62
226.445	5.62
227.245	1.62
228.045	5.62
228.845	4.62
229.645	6.62
230.444	6.62
231.244	4.62
232.043	6.62
232.843	2.62
233.642	5.62
234.442	4.62
235.241	7.62
236.04	2.62
236.839	6.62
237.638	6.62
238.437	4.62
239.236	5.62
240.035	8.62
240.833	6.62
241.632	7.62
242.43	6.62
243.229	8.62
244.027	7.62
244.826	9.62
245.624	7.62
246.422	9.62
247.22	10.62
248.018	9.62
248.816	10.62
249.614	8.62
250.412	10.62
251.21	9.62
252.007	11.62
252.805	12.62
253.602	10.62
254.4	14.62
255.197	14.62
255.994	14.62
256.791	12.62
257.589	13.62
258.386	13.62
259.183	14.62
259.979	15.62
260.776	16.62
261.573	15.62
262.37	15.62
263.166	14.62
263.963	16.62
264.759	15.62
265.556	18.62
266.352	16.62
267.148	16.62
267.944	17.62
268.74	18.62
269.536	22.62
270.332	21.62
271.128	19.62
271.924	21.62
272.719	22.62
273.515	19.62
274.311	22.62
275.106	23.62
275.901	23.62
276.697	22.62
277.492	23.62
278.287	24.62
279.082	26.62
279.877	25.62
280.672	24.62
281.467	24.62
282.262	23.62
283.056	24.62
283.851	23.62
284.646	29.62
285.44	26.62
286.234	24.62
287.029	27.62
287.823	23.62
288.617	24.62
289.411	25.62
290.205	22.62
290.999	24.62
291.793	25.62
292.587	24.62
293.381	22.62
294.174	21.62
294.968	21.62
295.761	20.62
296.555	18.62
297.348	19.62
298.141	20.62
298.935	23.62
299.728	21.62
300.521	14.62
301.314	18.62
302.107	20.62
302.899	18.62
303.692	16.62
304.485	15.62
305.277	16.62
306.07	20.62
306.862	16.62
307.655	15.62
308.447	16.62
309.239	13.62
310.031	16.62
310.823	13.62
311.615	15.62
312.407	16.62
313.199	14.62
313.991	11.62
314.783	9.62
315.574	11.62
316.366	11.62
317.157	11.62
317.949	10.62
318.74	8.62
319.531	10.62
320.322	10.62
321.113	9.62
321.904	11.62
322.695	8.62
323.486	10.62
324.277	10.62
325.068	10.62
325.858	10.62
326.649	7.62
327.439	10.62
328.23	7.62
329.02	10.62
329.81	7.62
330.6	10.62
331.391	6.62
332.181	9.62
332.971	7.62
333.76	8.62
334.55	9.62
335.34	9.62
336.13	10.62
336.919	10.62
337.709	7.62
338.498	7.62
339.287	9.62
340.077	10.62
340.866	7.62
341.655	9.62
342.444	9.62
343.233	5.62
344.022	8.62
344.811	7.62
345.6	7.62
346.388	8.62
347.177	9.62
347.965	9.62
348.754	9.62
349.542	11.62
350.33	8.62
351.119	5.62
351.907	8.62
352.695	8.62
353.483	8.62
354.271	6.62
355.059	8.62
355.846	6.62
356.634	6.62
357.422	6.62
358.209	4.62
358.997	8.62
359.784	8.62
360.571	7.62
361.359	5.62
362.146	7.62
362.933	9.62
363.72	6.62
364.507	9.62
365.294	8.62
366.081	6.62
366.867	7.62
367.654	5.62
368.44	8.62
369.227	8.62
370.013	7.62
370.8	8.62
371.586	6.62
372.372	6.62
373.158	7.62
373.944	6.62
374.73	7.62
375.516	6.62
376.302	10.62
377.088	7.62
377.873	8.62
378.659	7.62
379.445	7.62
380.23	10.62
381.015	6.62
381.801	9.62
382.586	7.62
383.371	6.62
384.156	8.62
384.941	7.62
385.726	7.62
386.511	4.62
387.296	9.62
388.08	7.62
388.865	8.62
389.649	10.62
390.434	6.62
391.218	9.62
392.003	6.62
392.787	6.62
393.571	8.62
394.355	8.62
395.139	9.62
395.923	5.62
396.707	7.62
397.491	10.62
398.274	8.62
399.058	9.62
399.842	9.62
400.625	10.62
401.408	9.62
402.192	9.62
402.975	9.62
403.758	10.62
404.541	9.62
405.324	7.62
406.107	10.62
406.89	12.62
407.673	11.62
408.456	9.62
409.238	8.62
410.021	11.62
410.803	12.62
411.586	11.62
412.368	11.62
413.151	10.62
413.933	12.62
414.715	14.62
415.497	12.62
416.279	14.62
417.061	16.62
417.843	14.62
418.624	11.62
419.406	14.62
420.188	15.62
420.969	12.62
421.751	15.62
422.532	13.62
423.313	18.62
424.095	14.62
424.876	18.62
425.657	16.62
426.438	19.62
427.219	15.62
428	17.62
428.78	21.62
429.561	20.62
430.342	17.62
431.122	20.62
431.903	20.62
432.683	23.62
433.464	21.62
434.244	25.62
435.024	24.62
435.804	28.62
436.584	29.62
437.364	26.62
438.144	30.62
438.924	29.62
439.704	34.62
440.483	38.62
441.263	36.62
442.042	40.62
442.822	41.62
443.601	41.62
444.38	43.62
445.16	46.62
445.939	50.62
446.718	54.62
447.497	61.62
448.276	64.62
449.054	71.62
449.833	81.62
450.612	82.62
451.391	92.62
452.169	99.62
452.948	110.62
453.726	122.62
454.504	135.62
455.282	151.62
456.061	166.62
456.839	184.62
457.617	202.62
458.395	228.62
459.172	252.62
459.95	274.62
460.728	315.62
461.506	349.62
462.283	389.62
463.061	435.62
463.838	490.62
464.615	542.62
465.393	606.62
466.17	685.62
466.947	768.62
467.724	832.62
468.501	929.62
469.278	1045.62
470.055	1155.62
470.831	1278.62
471.608	1423.62
472.385	1577.62
473.161	1746.62
473.938	1936.62
474.714	2158.62
475.49	2361.62
476.266	2605.62
477.043	2889.62
477.819	3183.62
478.595	3495.62
479.371	3850.62
480.146	4213.62
480.922	4640.62
481.698	5105.62
482.473	5582.62
483.249	6155.62
484.024	6758.62
484.8	7380.62
485.575	8099.62
486.35	8817.62
487.126	9610.62
487.901	10501.62
488.676	11465.62
489.451	12422.62
490.225	13559.62
491	14727.62
491.775	15952.62
492.55	17231.62
493.324	18528.62
494.099	19887.62
494.873	21271.62
495.647	22681.62
496.422	24156.62
497.196	25666.62
497.97	27135.62
498.744	28534.62
499.518	29917.62
500.292	31140.62
501.066	32180.62
501.839	33359.62
502.613	34230.62
503.387	34998.62
504.16	35400.62
504.934	35700.62
505.707	35612.62
506.48	35462.62
507.253	35146.62
508.027	34718.62
508.8	34171.62
509.573	33334.62
510.346	32522.62
511.118	31486.62
511.891	30519.62
512.664	29370.62
513.437	28137.62
514.209	27007.62
514.982	26025.62
515.754	24941.62
516.526	23910.62
517.298	22802.62
518.071	21859.62
518.843	20941.62
519.615	20162.62
520.387	19286.62
521.159	18610.62
521.93	17864.62
522.702	17120.62
523.474	16468.62
524.245	15824.62
525.017	15078.62
525.788	14360.62
526.56	13724.62
527.331	13091.62
528.102	12490.62
528.873	11870.62
529.644	11306.62
530.415	10780.62
531.186	10277.62
531.957	9704.62
532.728	9188.62
533.498	8651.62
534.269	8227.62
535.039	7788.62
535.81	7334.62
536.58	6937.62
537.351	6512.62
538.121	6134.62
538.891	5838.62
539.661	5539.62
540.431	5262.62
541.201	4963.62
541.971	4700.62
542.741	4466.62
543.51	4255.62
544.28	4043.62
545.05	3832.62
545.819	3644.62
546.588	3452.62
547.358	3277.62
548.127	3114.62
548.896	2935.62
549.665	2820.62
550.434	2652.62
551.203	2517.62
551.972	2404.62
552.741	2269.62
553.51	2145.62
554.278	2030.62
555.047	1883.62
555.815	1797.62
556.584	1699.62
557.352	1595.62
558.121	1515.62
558.889	1411.62
559.657	1346.62
560.425	1288.62
561.193	1204.62
561.961	1140.62
562.729	1067.62
563.496	1033.62
564.264	966.62
565.032	907.62
565.799	857.62
566.567	813.62
567.334	764.62
568.101	736.62
568.869	684.62
569.636	644.62
570.403	608.62
571.17	572.62
571.937	537.62
572.704	514.62
573.471	486.62
574.237	458.62
575.004	426.62
575.771	405.62
576.537	376.62
577.303	354.62
578.07	338.62
578.836	322.62
579.602	301.62
580.368	285.62
581.134	271.62
581.9	260.62
582.666	252.62
583.432	228.62
584.198	221.62
584.964	206.62
585.729	200.62
586.495	190.62
587.26	177.62
588.025	171.62
588.791	159.62
589.556	149.62
590.321	144.62
591.086	141.62
591.851	131.62
592.616	123.62
593.381	116.62
594.146	108.62
594.911	108.62
595.675	103.62
596.44	96.62
597.204	92.62
597.969	87.62
598.733	81.62
599.497	82.62
600.261	81.62
601.025	78.62
601.79	71.62
602.553	65.62
603.317	62.62
604.081	59.62
604.845	60.62
605.609	60.62
606.372	57.62
607.136	53.62
607.899	52.62
608.662	48.62
609.426	46.62
610.189	46.62
610.952	40.62
611.715	43.62
612.478	42.62
613.241	37.62
614.004	39.62
614.767	35.62
615.529	34.62
616.292	34.62
617.055	32.62
617.817	32.62
618.579	28.62
619.342	29.62
620.104	29.62
620.866	28.62
621.628	26.62
622.39	26.62
623.152	25.62
623.914	26.62
624.676	22.62
625.438	25.62
626.199	22.62
626.961	21.62
627.722	23.62
628.484	20.62
629.245	18.62
630.006	20.62
630.768	17.62
631.529	18.62
632.29	18.62
633.051	16.62
633.812	16.62
634.573	15.62
635.333	15.62
636.094	14.62
636.855	14.62
637.615	12.62
638.376	15.62
639.136	14.62
639.896	12.62
640.657	13.62
641.417	11.62
642.177	12.62
642.937	13.62
643.697	11.62
644.457	9.62
645.216	12.62
645.976	13.62
646.736	12.62
647.495	9.62
648.255	10.62
649.014	12.62
649.774	12.62
650.533	8.62
651.292	9.62
652.051	9.62
652.81	10.62
653.569	8.62
654.328	11.62
655.087	9.62
655.846	8.62
656.604	9.62
657.363	7.62
658.121	8.62
658.88	8.62
659.638	7.62
660.397	8.62
661.155	7.62
661.913	7.62
662.671	7.62
663.429	7.62
664.187	8.62
664.945	9.62
665.703	7.62
666.46	7.62
667.218	7.62
667.976	5.62
668.733	7.62
669.49	8.62
670.248	8.62
671.005	6.62
671.762	6.62
672.519	5.62
673.276	7.62
674.033	7.62
674.79	6.62
675.547	5.62
676.304	8.62
677.06	5.62
677.817	5.62
678.574	7.62
679.33	5.62
680.086	7.62
680.843	7.62
681.599	7.62
682.355	6.62
683.111	3.62
683.867	7.62
684.623	5.62
685.379	4.62
686.135	2.62
686.89	4.62
687.646	9.62
688.402	6.62
689.157	2.62
689.912	1.62
690.668	5.62
691.423	5.62
692.178	5.62
692.933	5.62
693.688	5.62
694.443	5.62
695.198	5.62
695.953	4.62
696.708	7.62
697.462	4.62
698.217	5.62
698.972	3.62
699.726	6.62
700.48	4.62
701.235	6.62
701.989	7.62
702.743	4.62
703.497	4.62
704.251	5.62
705.005	5.62
705.759	5.62
706.513	5.62
707.266	7.62
708.02	2.62
708.774	6.62
709.527	6.62
710.28	5.62
711.034	6.62
711.787	7.62
712.54	6.62
713.293	5.62
714.046	6.62
714.799	4.62
715.552	7.62
716.305	6.62
717.058	7.62
717.81	4.62
718.563	6.62
719.315	5.62
720.068	5.62
720.82	4.62
721.573	4.62
722.325	5.62
723.077	5.62
723.829	6.62
724.581	6.62
725.333	4.62
726.085	4.62
726.836	8.62
727.588	5.62
728.34	7.62
729.091	4.62
729.843	5.62
730.594	5.62
731.346	6.62
732.097	5.62
732.848	6.62
733.599	6.62
734.35	7.62
735.101	5.62
735.852	8.62
736.603	6.62
737.354	4.62
738.104	7.62
738.855	5.62
739.605	4.62
740.356	4.62
741.106	7.62
741.856	5.62
742.607	7.62
743.357	7.62
744.107	6.62
744.857	8.62
745.607	8.62
746.357	8.62
747.106	6.62
747.856	7.62
748.606	7.62
749.355	8.62
750.105	8.62
750.854	8.62
751.603	6.62
752.353	7.62
753.102	7.62
753.851	7.62
754.6	8.62
755.349	10.62
756.098	8.62
756.847	8.62
757.595	9.62
758.344	8.62
759.093	7.62
759.841	8.62
760.589	8.62
761.338	10.62
762.086	6.62
762.834	10.62
763.582	9.62
764.331	10.62
765.079	9.62
765.826	10.62
766.574	10.62
767.322	7.62
768.07	12.62
768.817	8.62
769.565	10.62
770.312	10.62
771.06	8.62
771.807	11.62
772.554	11.62
773.302	10.62
774.049	9.62
774.796	14.62
775.543	12.62
776.29	10.62
777.036	9.62
777.783	10.62
778.53	11.62
779.276	12.62
780.023	11.62
780.769	14.62
781.516	13.62
782.262	11.62
783.008	12.62
783.754	12.62
784.5	13.62
785.246	10.62
785.992	13.62
786.738	14.62
787.484	13.62
788.23	11.62
788.975	10.62
789.721	10.62
790.466	12.62
791.212	13.62
791.957	11.62
792.702	12.62
793.447	10.62
794.193	11.62
794.938	12.62
795.683	9.62
796.427	11.62
797.172	8.62
797.917	7.62
798.662	9.62
799.406	8.62
800.151	9.62
800.895	9.62
801.64	10.62
802.384	9.62
803.128	10.62
803.872	8.62
804.616	8.62
805.36	8.62
806.104	8.62
806.848	8.62
807.592	8.62
808.336	6.62
809.079	8.62
809.823	7.62
810.566	6.62
811.31	7.62
812.053	6.62
812.796	9.62
813.539	5.62
814.283	5.62
815.026	6.62
815.769	6.62
816.511	4.62
817.254	5.62
817.997	8.62
818.74	5.62
819.482	5.62
820.225	6.62
820.967	6.62
821.71	5.62
822.452	5.62
823.194	2.62
823.936	4.62
824.678	5.62
825.42	8.62
826.162	2.62
826.904	3.62
827.646	4.62
828.388	3.62
829.129	4.62
829.871	4.62
830.612	3.62
831.354	3.62
832.095	5.62
832.836	2.62
833.577	3.62
834.319	4.62
835.06	4.62
835.801	4.62
836.542	3.62
837.282	4.62
838.023	4.62
838.764	6.62
839.504	3.62
840.245	4.62
840.985	5.62
841.726	4.62
842.466	5.62
843.206	5.62
843.946	3.62
844.687	5.62
845.427	3.62
846.166	3.62
846.906	3.62
847.646	3.62
848.386	4.62
849.125	2.62
849.865	2.62
850.605	4.62
851.344	3.62
852.083	4.62
852.823	-0.38
853.562	4.62
854.301	2.62
855.04	5.62
855.779	0.62
856.518	2.62
857.257	2.62
857.995	2.62
858.734	2.62
859.473	3.62
860.211	4.62
860.95	2.62
861.688	0.62
862.426	4.62
863.165	1.62
863.903	3.62
864.641	2.62
865.379	3.62
866.117	2.62
866.855	1.62
867.593	2.62
868.33	1.62
869.068	2.62
869.806	2.62
870.543	1.62
871.28	4.62
872.018	6.62
872.755	0.62
873.492	2.62
874.229	2.62
874.967	4.62
875.703	3.62
876.44	2.62
877.177	2.62
877.914	2.62
878.651	1.62
879.387	1.62
880.124	3.62
880.86	1.62
881.597	1.62
882.333	3.62
883.069	1.62
883.806	1.62
884.542	2.62
885.278	2.62
886.014	3.62
886.749	1.62
887.485	0.62
888.221	-0.38
888.957	1.62
889.692	-0.38
890.428	3.62
891.163	2.62
891.899	1.62
892.634	1.62
893.369	0.62
894.104	1.62
894.839	2.62
895.574	0.62
896.309	2.62
897.044	1.62
897.779	1.62
898.514	0.62
899.248	1.62
899.983	1.62
900.717	1.62
901.452	0.62
902.186	-1.38
902.92	-0.38
903.654	2.62
904.389	-1.38
905.123	0.62
905.857	0.62
906.59	2.62
907.324	1.62
908.058	1.62
908.792	0.62
909.525	-1.38
910.259	0.62
910.992	0.62
911.726	1.62
912.459	1.62
913.192	-1.38
913.925	1.62
914.658	1.62
915.391	0.62
916.124	1.62
916.857	2.62
917.59	1.62
918.323	0.62
919.055	0.62
919.788	-1.38
920.521	0.62
921.253	2.62
921.985	-0.38
922.718	0.62
923.45	0.62
924.182	2.62
924.914	-1.38
925.646	1.62
926.378	-0.38
927.11	1.62
927.841	0.62
928.573	0.62
929.305	-0.38
930.036	-0.38
930.768	-1.38
931.499	-0.38
932.23	1.62
932.962	-0.38
933.693	0.62
934.424	-0.38
935.155	0.62
935.886	-0.38
936.617	1.62
937.348	-0.38
938.078	-0.38
938.809	-0.38
939.54	0.62
940.27	2.62
941.001	1.62
941.731	1.62
942.461	0.62
943.191	4.62
943.922	-0.38
944.652	-0.38
945.382	1.62
946.112	-1.38
946.841	-0.38
947.571	2.62
948.301	0.62
949.031	0.62
949.76	0.62
950.49	0.62
951.219	-0.38
951.948	0.62
952.678	1.62
953.407	-0.38
954.136	-1.38
954.865	0.62
955.594	2.62
956.323	1.62
957.052	1.62
957.78	2.62
958.509	1.62
959.238	-0.38
959.966	0.62
960.695	2.62
961.423	0.62
962.151	0.62
962.88	0.62
963.608	-0.38
964.336	0.62
965.064	1.62
965.792	-0.38
966.52	1.62
967.247	0.62
967.975	2.62
968.703	1.62
969.43	2.62
970.158	1.62
970.885	0.62
971.613	0.62
972.34	1.62
973.067	3.62
973.794	1.62
974.521	0.62
975.248	0.62
975.975	-1.38
976.702	1.62
977.429	-0.38
978.156	1.62
978.882	1.62
979.609	0.62
980.335	2.62
981.062	2.62
981.788	1.62
982.514	1.62
983.24	0.62
983.967	-0.38
984.693	1.62
985.419	0.62
986.144	1.62
986.87	-0.38
987.596	0.62
988.322	1.62
989.047	0.62
989.773	-0.38
990.498	1.62
991.224	1.62
991.949	-0.38
992.674	2.62
993.399	-1.38
994.124	1.62
994.849	1.62
995.574	1.62
996.299	-1.38
997.024	1.62
997.749	0.62
998.473	-1.38
999.198	0.62
999.922	-0.38
1000.647	1.62
1001.371	4.62
1002.095	-0.38
1002.82	-2.38
1003.544	-1.38
1004.268	0.62
1004.992	3.62
1005.716	1.62
1006.439	2.62
1007.163	2.62
1007.887	5.62
1008.611	0.62
1009.334	-0.38
1010.058	0.62
1010.781	1.62
1011.504	1.62
1012.228	0.62
1012.951	-1.38
1013.674	-0.38
1014.397	0.62
1015.12	0.62
