节点500_425_QEPB04081__350__15-54-07-778.txt的数据

Date: Wed Nov 12 15:54:07 CST 2025
User: PC
Spectrometer: QEPB0408
触发模式: 0
积分时间 (秒): 1.000000E-2
Scans to average: 1
启用暗噪声校正: true
启用非线性校正: false
滑动平均宽度: 0
X轴模式: Wavelengths
Number of Pixels in Spectrum: 1044
>>>>>Begin Spectral Data<<<<<
220.843	0.75
221.644	2.75
222.444	2.75
223.244	4.75
224.045	0.75
224.845	3.75
225.645	1.75
226.445	3.75
227.245	4.75
228.045	5.75
228.845	4.75
229.645	4.75
230.444	4.75
231.244	4.75
232.043	3.75
232.843	8.75
233.642	4.75
234.442	3.75
235.241	4.75
236.04	3.75
236.839	5.75
237.638	5.75
238.437	7.75
239.236	3.75
240.035	6.75
240.833	6.75
241.632	7.75
242.43	7.75
243.229	8.75
244.027	4.75
244.826	7.75
245.624	6.75
246.422	7.75
247.22	6.75
248.018	7.75
248.816	8.75
249.614	8.75
250.412	8.75
251.21	7.75
252.007	9.75
252.805	11.75
253.602	9.75
254.4	9.75
255.197	9.75
255.994	13.75
256.791	8.75
257.589	12.75
258.386	11.75
259.183	11.75
259.979	12.75
260.776	12.75
261.573	15.75
262.37	15.75
263.166	12.75
263.963	16.75
264.759	15.75
265.556	16.75
266.352	15.75
267.148	17.75
267.944	16.75
268.74	17.75
269.536	16.75
270.332	17.75
271.128	17.75
271.924	20.75
272.719	22.75
273.515	21.75
274.311	23.75
275.106	19.75
275.901	20.75
276.697	23.75
277.492	25.75
278.287	20.75
279.082	23.75
279.877	22.75
280.672	23.75
281.467	23.75
282.262	23.75
283.056	23.75
283.851	24.75
284.646	22.75
285.44	21.75
286.234	22.75
287.029	24.75
287.823	23.75
288.617	24.75
289.411	21.75
290.205	21.75
290.999	20.75
291.793	22.75
292.587	21.75
293.381	20.75
294.174	22.75
294.968	20.75
295.761	20.75
296.555	16.75
297.348	19.75
298.141	19.75
298.935	18.75
299.728	18.75
300.521	13.75
301.314	17.75
302.107	18.75
302.899	17.75
303.692	17.75
304.485	15.75
305.277	15.75
306.07	17.75
306.862	17.75
307.655	16.75
308.447	13.75
309.239	17.75
310.031	15.75
310.823	13.75
311.615	10.75
312.407	11.75
313.199	11.75
313.991	10.75
314.783	12.75
315.574	9.75
316.366	11.75
317.157	11.75
317.949	10.75
318.74	8.75
319.531	7.75
320.322	10.75
321.113	9.75
321.904	12.75
322.695	7.75
323.486	9.75
324.277	10.75
325.068	10.75
325.858	8.75
326.649	9.75
327.439	7.75
328.23	7.75
329.02	7.75
329.81	9.75
330.6	7.75
331.391	8.75
332.181	7.75
332.971	5.75
333.76	7.75
334.55	6.75
335.34	8.75
336.13	7.75
336.919	6.75
337.709	6.75
338.498	6.75
339.287	7.75
340.077	10.75
340.866	8.75
341.655	7.75
342.444	6.75
343.233	8.75
344.022	6.75
344.811	6.75
345.6	7.75
346.388	6.75
347.177	8.75
347.965	7.75
348.754	7.75
349.542	9.75
350.33	7.75
351.119	7.75
351.907	7.75
352.695	8.75
353.483	5.75
354.271	7.75
355.059	7.75
355.846	6.75
356.634	7.75
357.422	4.75
358.209	6.75
358.997	7.75
359.784	6.75
360.571	5.75
361.359	4.75
362.146	8.75
362.933	7.75
363.72	6.75
364.507	4.75
365.294	6.75
366.081	6.75
366.867	9.75
367.654	7.75
368.44	7.75
369.227	2.75
370.013	6.75
370.8	3.75
371.586	7.75
372.372	6.75
373.158	2.75
373.944	6.75
374.73	5.75
375.516	7.75
376.302	7.75
377.088	5.75
377.873	6.75
378.659	6.75
379.445	7.75
380.23	4.75
381.015	9.75
381.801	5.75
382.586	6.75
383.371	5.75
384.156	3.75
384.941	7.75
385.726	5.75
386.511	4.75
387.296	4.75
388.08	6.75
388.865	7.75
389.649	6.75
390.434	7.75
391.218	7.75
392.003	9.75
392.787	8.75
393.571	5.75
394.355	6.75
395.139	5.75
395.923	10.75
396.707	8.75
397.491	8.75
398.274	9.75
399.058	5.75
399.842	10.75
400.625	6.75
401.408	7.75
402.192	10.75
402.975	8.75
403.758	7.75
404.541	9.75
405.324	8.75
406.107	8.75
406.89	8.75
407.673	7.75
408.456	7.75
409.238	11.75
410.021	10.75
410.803	8.75
411.586	12.75
412.368	5.75
413.151	12.75
413.933	11.75
414.715	9.75
415.497	9.75
416.279	12.75
417.061	13.75
417.843	9.75
418.624	13.75
419.406	13.75
420.188	12.75
420.969	14.75
421.751	14.75
422.532	15.75
423.313	16.75
424.095	16.75
424.876	15.75
425.657	16.75
426.438	16.75
427.219	13.75
428	17.75
428.78	16.75
429.561	15.75
430.342	20.75
431.122	19.75
431.903	19.75
432.683	20.75
433.464	24.75
434.244	24.75
435.024	24.75
435.804	23.75
436.584	24.75
437.364	25.75
438.144	28.75
438.924	33.75
439.704	29.75
440.483	33.75
441.263	33.75
442.042	34.75
442.822	38.75
443.601	44.75
444.38	46.75
445.16	51.75
445.939	51.75
446.718	56.75
447.497	61.75
448.276	61.75
449.054	73.75
449.833	77.75
450.612	84.75
451.391	92.75
452.169	102.75
452.948	111.75
453.726	130.75
454.504	136.75
455.282	152.75
456.061	169.75
456.839	189.75
457.617	213.75
458.395	241.75
459.172	258.75
459.95	292.75
460.728	317.75
461.506	361.75
462.283	407.75
463.061	452.75
463.838	508.75
464.615	560.75
465.393	629.75
466.17	693.75
466.947	771.75
467.724	859.75
468.501	955.75
469.278	1065.75
470.055	1178.75
470.831	1303.75
471.608	1449.75
472.385	1617.75
473.161	1769.75
473.938	1955.75
474.714	2157.75
475.49	2366.75
476.266	2610.75
477.043	2865.75
477.819	3175.75
478.595	3492.75
479.371	3849.75
480.146	4209.75
480.922	4579.75
481.698	5047.75
482.473	5498.75
483.249	5995.75
484.024	6576.75
484.8	7222.75
485.575	7850.75
486.35	8527.75
487.126	9317.75
487.901	10172.75
488.676	11076.75
489.451	12017.75
490.225	13052.75
491	14175.75
491.775	15311.75
492.55	16553.75
493.324	17754.75
494.099	18993.75
494.873	20320.75
495.647	21700.75
496.422	23095.75
497.196	24488.75
497.97	25988.75
498.744	27429.75
499.518	28663.75
500.292	29879.75
501.066	30923.75
501.839	32160.75
502.613	33143.75
503.387	33797.75
504.16	34329.75
504.934	34752.75
505.707	34822.75
506.48	34778.75
507.253	34548.75
508.027	34241.75
508.8	33644.75
509.573	33071.75
510.346	32219.75
511.118	31356.75
511.891	30431.75
512.664	29313.75
513.437	28236.75
514.209	27157.75
514.982	26169.75
515.754	25039.75
516.526	24023.75
517.298	23020.75
518.071	22074.75
518.843	21178.75
519.615	20353.75
520.387	19515.75
521.159	18758.75
521.93	18063.75
522.702	17324.75
523.474	16665.75
524.245	15952.75
525.017	15233.75
525.788	14552.75
526.56	13935.75
527.331	13311.75
528.102	12680.75
528.873	12076.75
529.644	11460.75
530.415	10991.75
531.186	10473.75
531.957	9898.75
532.728	9445.75
533.498	8856.75
534.269	8394.75
535.039	7953.75
535.81	7496.75
536.58	7103.75
537.351	6705.75
538.121	6310.75
538.891	5990.75
539.661	5680.75
540.431	5383.75
541.201	5087.75
541.971	4831.75
542.741	4592.75
543.51	4364.75
544.28	4146.75
545.05	3921.75
545.819	3751.75
546.588	3583.75
547.358	3350.75
548.127	3182.75
548.896	3027.75
549.665	2877.75
550.434	2731.75
551.203	2598.75
551.972	2455.75
552.741	2341.75
553.51	2197.75
554.278	2076.75
555.047	1959.75
555.815	1847.75
556.584	1749.75
557.352	1645.75
558.121	1546.75
558.889	1458.75
559.657	1384.75
560.425	1309.75
561.193	1234.75
561.961	1170.75
562.729	1123.75
563.496	1052.75
564.264	991.75
565.032	931.75
565.799	892.75
566.567	840.75
567.334	791.75
568.101	754.75
568.869	708.75
569.636	664.75
570.403	621.75
571.17	588.75
571.937	557.75
572.704	536.75
573.471	500.75
574.237	466.75
575.004	435.75
575.771	419.75
576.537	394.75
577.303	369.75
578.07	344.75
578.836	325.75
579.602	312.75
580.368	289.75
581.134	280.75
581.9	262.75
582.666	249.75
583.432	241.75
584.198	220.75
584.964	215.75
585.729	205.75
586.495	196.75
587.26	183.75
588.025	169.75
588.791	167.75
589.556	158.75
590.321	146.75
591.086	142.75
591.851	143.75
592.616	130.75
593.381	116.75
594.146	116.75
594.911	108.75
595.675	102.75
596.44	97.75
597.204	92.75
597.969	95.75
598.733	86.75
599.497	81.75
600.261	81.75
601.025	77.75
601.79	70.75
602.553	67.75
603.317	62.75
604.081	63.75
604.845	61.75
605.609	58.75
606.372	57.75
607.136	58.75
607.899	55.75
608.662	49.75
609.426	47.75
610.189	44.75
610.952	46.75
611.715	43.75
612.478	42.75
613.241	40.75
614.004	41.75
614.767	34.75
615.529	38.75
616.292	30.75
617.055	29.75
617.817	33.75
618.579	32.75
619.342	31.75
620.104	28.75
620.866	29.75
621.628	26.75
622.39	28.75
623.152	25.75
623.914	25.75
624.676	23.75
625.438	19.75
626.199	20.75
626.961	19.75
627.722	20.75
628.484	20.75
629.245	19.75
630.006	19.75
630.768	15.75
631.529	19.75
632.29	18.75
633.051	15.75
633.812	13.75
634.573	12.75
635.333	13.75
636.094	16.75
636.855	14.75
637.615	13.75
638.376	17.75
639.136	12.75
639.896	12.75
640.657	11.75
641.417	10.75
642.177	11.75
642.937	10.75
643.697	10.75
644.457	12.75
645.216	9.75
645.976	9.75
646.736	10.75
647.495	9.75
648.255	9.75
649.014	7.75
649.774	9.75
650.533	9.75
651.292	9.75
652.051	8.75
652.81	7.75
653.569	8.75
654.328	7.75
655.087	6.75
655.846	9.75
656.604	7.75
657.363	7.75
658.121	7.75
658.88	9.75
659.638	9.75
660.397	3.75
661.155	10.75
661.913	3.75
662.671	8.75
663.429	5.75
664.187	8.75
664.945	6.75
665.703	5.75
666.46	8.75
667.218	6.75
667.976	7.75
668.733	5.75
669.49	6.75
670.248	6.75
671.005	3.75
671.762	6.75
672.519	7.75
673.276	5.75
674.033	3.75
674.79	4.75
675.547	5.75
676.304	4.75
677.06	4.75
677.817	2.75
678.574	1.75
679.33	4.75
680.086	4.75
680.843	3.75
681.599	4.75
682.355	5.75
683.111	3.75
683.867	3.75
684.623	5.75
685.379	0.75
686.135	4.75
686.89	3.75
687.646	1.75
688.402	4.75
689.157	3.75
689.912	2.75
690.668	6.75
691.423	4.75
692.178	5.75
692.933	4.75
693.688	2.75
694.443	4.75
695.198	3.75
695.953	5.75
696.708	2.75
697.462	5.75
698.217	6.75
698.972	4.75
699.726	1.75
700.48	4.75
701.235	4.75
701.989	3.75
702.743	6.75
703.497	1.75
704.251	5.75
705.005	2.75
705.759	2.75
706.513	6.75
707.266	1.75
708.02	4.75
708.774	6.75
709.527	6.75
710.28	4.75
711.034	2.75
711.787	3.75
712.54	3.75
713.293	2.75
714.046	3.75
714.799	4.75
715.552	4.75
716.305	4.75
717.058	4.75
717.81	3.75
718.563	4.75
719.315	8.75
720.068	6.75
720.82	4.75
721.573	3.75
722.325	3.75
723.077	5.75
723.829	3.75
724.581	3.75
725.333	3.75
726.085	5.75
726.836	4.75
727.588	4.75
728.34	4.75
729.091	4.75
729.843	4.75
730.594	3.75
731.346	8.75
732.097	4.75
732.848	3.75
733.599	6.75
734.35	3.75
735.101	6.75
735.852	5.75
736.603	6.75
737.354	5.75
738.104	6.75
738.855	7.75
739.605	5.75
740.356	8.75
741.106	4.75
741.856	6.75
742.607	5.75
743.357	5.75
744.107	5.75
744.857	4.75
745.607	5.75
746.357	5.75
747.106	7.75
747.856	6.75
748.606	5.75
749.355	7.75
750.105	7.75
750.854	5.75
751.603	5.75
752.353	7.75
753.102	5.75
753.851	7.75
754.6	7.75
755.349	8.75
756.098	5.75
756.847	9.75
757.595	3.75
758.344	7.75
759.093	7.75
759.841	7.75
760.589	3.75
761.338	7.75
762.086	7.75
762.834	6.75
763.582	7.75
764.331	9.75
765.079	11.75
765.826	7.75
766.574	6.75
767.322	9.75
768.07	7.75
768.817	11.75
769.565	10.75
770.312	8.75
771.06	9.75
771.807	9.75
772.554	8.75
773.302	10.75
774.049	11.75
774.796	10.75
775.543	10.75
776.29	9.75
777.036	10.75
777.783	10.75
778.53	10.75
779.276	10.75
780.023	9.75
780.769	8.75
781.516	9.75
782.262	9.75
783.008	11.75
783.754	10.75
784.5	10.75
785.246	7.75
785.992	7.75
786.738	8.75
787.484	9.75
788.23	8.75
788.975	7.75
789.721	9.75
790.466	11.75
791.212	9.75
791.957	11.75
792.702	10.75
793.447	7.75
794.193	10.75
794.938	9.75
795.683	10.75
796.427	10.75
797.172	9.75
797.917	7.75
798.662	9.75
799.406	9.75
800.151	6.75
800.895	11.75
801.64	7.75
802.384	6.75
803.128	7.75
803.872	8.75
804.616	5.75
805.36	7.75
806.104	4.75
806.848	8.75
807.592	9.75
808.336	7.75
809.079	8.75
809.823	7.75
810.566	6.75
811.31	5.75
812.053	6.75
812.796	6.75
813.539	7.75
814.283	5.75
815.026	5.75
815.769	6.75
816.511	4.75
817.254	6.75
817.997	5.75
818.74	3.75
819.482	5.75
820.225	4.75
820.967	3.75
821.71	6.75
822.452	5.75
823.194	4.75
823.936	4.75
824.678	3.75
825.42	5.75
826.162	3.75
826.904	4.75
827.646	5.75
828.388	3.75
829.129	2.75
829.871	4.75
830.612	2.75
831.354	2.75
832.095	5.75
832.836	2.75
833.577	2.75
834.319	3.75
835.06	4.75
835.801	4.75
836.542	3.75
837.282	5.75
838.023	2.75
838.764	3.75
839.504	1.75
840.245	4.75
840.985	1.75
841.726	2.75
842.466	2.75
843.206	3.75
843.946	3.75
844.687	1.75
845.427	3.75
846.166	0.75
846.906	3.75
847.646	4.75
848.386	1.75
849.125	3.75
849.865	-0.25
850.605	2.75
851.344	3.75
852.083	1.75
852.823	3.75
853.562	1.75
854.301	4.75
855.04	2.75
855.779	1.75
856.518	1.75
857.257	1.75
857.995	2.75
858.734	2.75
859.473	3.75
860.211	1.75
860.95	1.75
861.688	2.75
862.426	0.75
863.165	2.75
863.903	0.75
864.641	1.75
865.379	-0.25
866.117	0.75
866.855	2.75
867.593	0.75
868.33	0.75
869.068	1.75
869.806	-0.25
870.543	1.75
871.28	-0.25
872.018	0.75
872.755	0.75
873.492	-0.25
874.229	0.75
874.967	-0.25
875.703	1.75
876.44	0.75
877.177	3.75
877.914	-1.25
878.651	-0.25
879.387	1.75
880.124	1.75
880.86	0.75
881.597	0.75
882.333	1.75
883.069	2.75
883.806	1.75
884.542	-0.25
885.278	-1.25
886.014	0.75
886.749	0.75
887.485	0.75
888.221	1.75
888.957	-0.25
889.692	-0.25
890.428	-1.25
891.163	-2.25
891.899	1.75
892.634	1.75
893.369	0.75
894.104	0.75
894.839	0.75
895.574	-3.25
896.309	-2.25
897.044	0.75
897.779	0.75
898.514	0.75
899.248	-1.25
899.983	-0.25
900.717	-1.25
901.452	0.75
902.186	-1.25
902.92	-0.25
903.654	0.75
904.389	0.75
905.123	0.75
905.857	0.75
906.59	-1.25
907.324	0.75
908.058	-0.25
908.792	0.75
909.525	-0.25
910.259	0.75
910.992	-1.25
911.726	-0.25
912.459	2.75
913.192	1.75
913.925	-1.25
914.658	-0.25
915.391	-1.25
916.124	0.75
916.857	-1.25
917.59	0.75
918.323	-0.25
919.055	0.75
919.788	0.75
920.521	-0.25
921.253	2.75
921.985	-2.25
922.718	1.75
923.45	0.75
924.182	-1.25
924.914	-0.25
925.646	0.75
926.378	-2.25
927.11	0.75
927.841	-0.25
928.573	1.75
929.305	1.75
930.036	-0.25
930.768	-2.25
931.499	-1.25
932.23	0.75
932.962	-1.25
933.693	1.75
934.424	-2.25
935.155	-3.25
935.886	-0.25
936.617	-1.25
937.348	-0.25
938.078	1.75
938.809	-0.25
939.54	-0.25
940.27	-1.25
941.001	-2.25
941.731	-1.25
942.461	-0.25
943.191	0.75
943.922	-0.25
944.652	-0.25
945.382	-1.25
946.112	0.75
946.841	0.75
947.571	-0.25
948.301	-2.25
949.031	0.75
949.76	-1.25
950.49	-1.25
951.219	-1.25
951.948	-1.25
952.678	0.75
953.407	-0.25
954.136	-0.25
954.865	-1.25
955.594	-2.25
956.323	1.75
957.052	1.75
957.78	0.75
958.509	0.75
959.238	-0.25
959.966	0.75
960.695	-2.25
961.423	0.75
962.151	0.75
962.88	0.75
963.608	-1.25
964.336	-0.25
965.064	-2.25
965.792	-1.25
966.52	-0.25
967.247	-3.25
967.975	-1.25
968.703	0.75
969.43	0.75
970.158	1.75
970.885	-2.25
971.613	-2.25
972.34	1.75
973.067	-0.25
973.794	-0.25
974.521	-2.25
975.248	0.75
975.975	-1.25
976.702	1.75
977.429	0.75
978.156	-1.25
978.882	4.75
979.609	0.75
980.335	-0.25
981.062	0.75
981.788	-0.25
982.514	1.75
983.24	-1.25
983.967	1.75
984.693	-0.25
985.419	1.75
986.144	0.75
986.87	0.75
987.596	-0.25
988.322	-0.25
989.047	-0.25
989.773	0.75
990.498	-1.25
991.224	-0.25
991.949	0.75
992.674	-0.25
993.399	-1.25
994.124	-1.25
994.849	-2.25
995.574	-2.25
996.299	1.75
997.024	-2.25
997.749	-1.25
998.473	-0.25
999.198	-0.25
999.922	-1.25
1000.647	-0.25
1001.371	4.75
1002.095	-4.25
1002.82	-0.25
1003.544	-3.25
1004.268	0.75
1004.992	-0.25
1005.716	3.75
1006.439	1.75
1007.163	0.75
1007.887	1.75
1008.611	-0.25
1009.334	-0.25
1010.058	-1.25
1010.781	1.75
1011.504	-2.25
1012.228	1.75
1012.951	1.75
1013.674	0.75
1014.397	1.75
1015.12	-1.25
