节点500_425_QEPB04081__440__15-55-37-604.txt的数据

Date: Wed Nov 12 15:55:37 CST 2025
User: PC
Spectrometer: QEPB0408
触发模式: 0
积分时间 (秒): 1.000000E-2
Scans to average: 1
启用暗噪声校正: true
启用非线性校正: false
滑动平均宽度: 0
X轴模式: Wavelengths
Number of Pixels in Spectrum: 1044
>>>>>Begin Spectral Data<<<<<
220.843	3.88
221.644	2.88
222.444	2.88
223.244	-0.12
224.045	3.88
224.845	3.88
225.645	2.88
226.445	1.88
227.245	3.88
228.045	5.88
228.845	5.88
229.645	4.88
230.444	3.88
231.244	5.88
232.043	6.88
232.843	2.88
233.642	4.88
234.442	4.88
235.241	6.88
236.04	4.88
236.839	5.88
237.638	5.88
238.437	5.88
239.236	6.88
240.035	5.88
240.833	3.88
241.632	6.88
242.43	4.88
243.229	5.88
244.027	3.88
244.826	6.88
245.624	7.88
246.422	8.88
247.22	6.88
248.018	5.88
248.816	6.88
249.614	8.88
250.412	7.88
251.21	9.88
252.007	9.88
252.805	7.88
253.602	7.88
254.4	9.88
255.197	9.88
255.994	9.88
256.791	13.88
257.589	10.88
258.386	10.88
259.183	12.88
259.979	11.88
260.776	12.88
261.573	11.88
262.37	13.88
263.166	15.88
263.963	14.88
264.759	16.88
265.556	12.88
266.352	17.88
267.148	13.88
267.944	15.88
268.74	17.88
269.536	17.88
270.332	18.88
271.128	19.88
271.924	20.88
272.719	20.88
273.515	21.88
274.311	20.88
275.106	19.88
275.901	21.88
276.697	21.88
277.492	22.88
278.287	21.88
279.082	19.88
279.877	21.88
280.672	22.88
281.467	24.88
282.262	23.88
283.056	22.88
283.851	23.88
284.646	21.88
285.44	24.88
286.234	23.88
287.029	26.88
287.823	22.88
288.617	22.88
289.411	23.88
290.205	21.88
290.999	24.88
291.793	21.88
292.587	23.88
293.381	22.88
294.174	20.88
294.968	21.88
295.761	19.88
296.555	17.88
297.348	18.88
298.141	18.88
298.935	21.88
299.728	16.88
300.521	18.88
301.314	16.88
302.107	17.88
302.899	14.88
303.692	16.88
304.485	14.88
305.277	15.88
306.07	16.88
306.862	15.88
307.655	15.88
308.447	11.88
309.239	14.88
310.031	14.88
310.823	11.88
311.615	9.88
312.407	12.88
313.199	11.88
313.991	13.88
314.783	10.88
315.574	10.88
316.366	12.88
317.157	10.88
317.949	8.88
318.74	10.88
319.531	10.88
320.322	10.88
321.113	10.88
321.904	9.88
322.695	8.88
323.486	8.88
324.277	10.88
325.068	12.88
325.858	6.88
326.649	8.88
327.439	9.88
328.23	7.88
329.02	10.88
329.81	5.88
330.6	9.88
331.391	9.88
332.181	6.88
332.971	6.88
333.76	8.88
334.55	8.88
335.34	6.88
336.13	6.88
336.919	8.88
337.709	10.88
338.498	7.88
339.287	4.88
340.077	6.88
340.866	6.88
341.655	8.88
342.444	6.88
343.233	7.88
344.022	10.88
344.811	4.88
345.6	7.88
346.388	7.88
347.177	8.88
347.965	5.88
348.754	7.88
349.542	6.88
350.33	8.88
351.119	5.88
351.907	8.88
352.695	9.88
353.483	4.88
354.271	8.88
355.059	6.88
355.846	6.88
356.634	3.88
357.422	6.88
358.209	6.88
358.997	7.88
359.784	6.88
360.571	5.88
361.359	7.88
362.146	7.88
362.933	5.88
363.72	5.88
364.507	5.88
365.294	6.88
366.081	4.88
366.867	6.88
367.654	3.88
368.44	4.88
369.227	5.88
370.013	6.88
370.8	5.88
371.586	5.88
372.372	6.88
373.158	4.88
373.944	6.88
374.73	5.88
375.516	6.88
376.302	5.88
377.088	6.88
377.873	8.88
378.659	6.88
379.445	5.88
380.23	6.88
381.015	5.88
381.801	8.88
382.586	6.88
383.371	6.88
384.156	4.88
384.941	6.88
385.726	7.88
386.511	5.88
387.296	8.88
388.08	8.88
388.865	7.88
389.649	6.88
390.434	5.88
391.218	4.88
392.003	9.88
392.787	7.88
393.571	8.88
394.355	6.88
395.139	8.88
395.923	6.88
396.707	6.88
397.491	9.88
398.274	7.88
399.058	8.88
399.842	8.88
400.625	8.88
401.408	8.88
402.192	10.88
402.975	8.88
403.758	7.88
404.541	9.88
405.324	8.88
406.107	8.88
406.89	9.88
407.673	8.88
408.456	9.88
409.238	8.88
410.021	9.88
410.803	10.88
411.586	9.88
412.368	11.88
413.151	11.88
413.933	16.88
414.715	8.88
415.497	12.88
416.279	11.88
417.061	12.88
417.843	11.88
418.624	11.88
419.406	12.88
420.188	13.88
420.969	12.88
421.751	13.88
422.532	14.88
423.313	14.88
424.095	13.88
424.876	17.88
425.657	17.88
426.438	14.88
427.219	18.88
428	17.88
428.78	13.88
429.561	20.88
430.342	17.88
431.122	17.88
431.903	20.88
432.683	21.88
433.464	20.88
434.244	23.88
435.024	23.88
435.804	23.88
436.584	26.88
437.364	26.88
438.144	28.88
438.924	29.88
439.704	31.88
440.483	30.88
441.263	33.88
442.042	40.88
442.822	38.88
443.601	44.88
444.38	46.88
445.16	45.88
445.939	53.88
446.718	55.88
447.497	62.88
448.276	70.88
449.054	77.88
449.833	78.88
450.612	85.88
451.391	97.88
452.169	101.88
452.948	114.88
453.726	131.88
454.504	145.88
455.282	150.88
456.061	175.88
456.839	198.88
457.617	220.88
458.395	243.88
459.172	267.88
459.95	293.88
460.728	334.88
461.506	365.88
462.283	416.88
463.061	457.88
463.838	517.88
464.615	574.88
465.393	639.88
466.17	715.88
466.947	788.88
467.724	873.88
468.501	980.88
469.278	1079.88
470.055	1185.88
470.831	1316.88
471.608	1473.88
472.385	1606.88
473.161	1765.88
473.938	1961.88
474.714	2153.88
475.49	2368.88
476.266	2613.88
477.043	2835.88
477.819	3141.88
478.595	3440.88
479.371	3775.88
480.146	4136.88
480.922	4516.88
481.698	4953.88
482.473	5381.88
483.249	5931.88
484.024	6432.88
484.8	7014.88
485.575	7653.88
486.35	8295.88
487.126	8980.88
487.901	9775.88
488.676	10625.88
489.451	11581.88
490.225	12502.88
491	13564.88
491.775	14646.88
492.55	15767.88
493.324	16964.88
494.099	18151.88
494.873	19373.88
495.647	20718.88
496.422	21975.88
497.196	23372.88
497.97	24777.88
498.744	26044.88
499.518	27405.88
500.292	28591.88
501.066	29647.88
501.839	30835.88
502.613	31786.88
503.387	32535.88
504.16	33202.88
504.934	33537.88
505.707	33791.88
506.48	33826.88
507.253	33632.88
508.027	33478.88
508.8	33112.88
509.573	32552.88
510.346	31858.88
511.118	31053.88
511.891	30226.88
512.664	29201.88
513.437	28231.88
514.209	27135.88
514.982	26178.88
515.754	25146.88
516.526	24122.88
517.298	23163.88
518.071	22078.88
518.843	21272.88
519.615	20388.88
520.387	19594.88
521.159	18836.88
521.93	18133.88
522.702	17416.88
523.474	16727.88
524.245	16056.88
525.017	15358.88
525.788	14670.88
526.56	13985.88
527.331	13400.88
528.102	12780.88
528.873	12181.88
529.644	11656.88
530.415	11144.88
531.186	10639.88
531.957	10068.88
532.728	9576.88
533.498	8996.88
534.269	8528.88
535.039	8079.88
535.81	7610.88
536.58	7243.88
537.351	6822.88
538.121	6473.88
538.891	6102.88
539.661	5814.88
540.431	5507.88
541.201	5183.88
541.971	4939.88
542.741	4702.88
543.51	4447.88
544.28	4227.88
545.05	4006.88
545.819	3826.88
546.588	3645.88
547.358	3437.88
548.127	3253.88
548.896	3109.88
549.665	2963.88
550.434	2803.88
551.203	2665.88
551.972	2524.88
552.741	2367.88
553.51	2263.88
554.278	2132.88
555.047	1991.88
555.815	1918.88
556.584	1803.88
557.352	1680.88
558.121	1602.88
558.889	1497.88
559.657	1422.88
560.425	1341.88
561.193	1253.88
561.961	1207.88
562.729	1147.88
563.496	1087.88
564.264	1026.88
565.032	964.88
565.799	909.88
566.567	858.88
567.334	813.88
568.101	769.88
568.869	731.88
569.636	693.88
570.403	633.88
571.17	611.88
571.937	575.88
572.704	544.88
573.471	516.88
574.237	486.88
575.004	452.88
575.771	432.88
576.537	405.88
577.303	377.88
578.07	354.88
578.836	340.88
579.602	318.88
580.368	300.88
581.134	287.88
581.9	270.88
582.666	265.88
583.432	246.88
584.198	234.88
584.964	221.88
585.729	209.88
586.495	203.88
587.26	193.88
588.025	176.88
588.791	176.88
589.556	163.88
590.321	151.88
591.086	146.88
591.851	138.88
592.616	130.88
593.381	121.88
594.146	116.88
594.911	111.88
595.675	106.88
596.44	99.88
597.204	95.88
597.969	89.88
598.733	88.88
599.497	90.88
600.261	81.88
601.025	76.88
601.79	74.88
602.553	71.88
603.317	68.88
604.081	66.88
604.845	61.88
605.609	62.88
606.372	56.88
607.136	54.88
607.899	55.88
608.662	53.88
609.426	46.88
610.189	46.88
610.952	46.88
611.715	44.88
612.478	41.88
613.241	40.88
614.004	42.88
614.767	38.88
615.529	34.88
616.292	33.88
617.055	31.88
617.817	32.88
618.579	31.88
619.342	32.88
620.104	27.88
620.866	28.88
621.628	26.88
622.39	26.88
623.152	21.88
623.914	24.88
624.676	23.88
625.438	23.88
626.199	21.88
626.961	23.88
627.722	21.88
628.484	19.88
629.245	19.88
630.006	18.88
630.768	17.88
631.529	15.88
632.29	17.88
633.051	15.88
633.812	15.88
634.573	17.88
635.333	15.88
636.094	17.88
636.855	13.88
637.615	10.88
638.376	13.88
639.136	11.88
639.896	14.88
640.657	15.88
641.417	12.88
642.177	9.88
642.937	11.88
643.697	13.88
644.457	8.88
645.216	13.88
645.976	13.88
646.736	9.88
647.495	10.88
648.255	9.88
649.014	8.88
649.774	9.88
650.533	8.88
651.292	12.88
652.051	8.88
652.81	9.88
653.569	7.88
654.328	7.88
655.087	7.88
655.846	5.88
656.604	8.88
657.363	5.88
658.121	8.88
658.88	9.88
659.638	6.88
660.397	11.88
661.155	8.88
661.913	7.88
662.671	5.88
663.429	7.88
664.187	6.88
664.945	8.88
665.703	7.88
666.46	4.88
667.218	7.88
667.976	5.88
668.733	4.88
669.49	6.88
670.248	5.88
671.005	5.88
671.762	3.88
672.519	5.88
673.276	5.88
674.033	2.88
674.79	5.88
675.547	3.88
676.304	5.88
677.06	5.88
677.817	3.88
678.574	3.88
679.33	2.88
680.086	5.88
680.843	3.88
681.599	5.88
682.355	3.88
683.111	4.88
683.867	5.88
684.623	3.88
685.379	7.88
686.135	5.88
686.89	4.88
687.646	5.88
688.402	3.88
689.157	5.88
689.912	3.88
690.668	5.88
691.423	1.88
692.178	3.88
692.933	4.88
693.688	3.88
694.443	4.88
695.198	5.88
695.953	3.88
696.708	5.88
697.462	4.88
698.217	5.88
698.972	1.88
699.726	3.88
700.48	4.88
701.235	3.88
701.989	3.88
702.743	1.88
703.497	6.88
704.251	4.88
705.005	3.88
705.759	4.88
706.513	4.88
707.266	5.88
708.02	5.88
708.774	6.88
709.527	5.88
710.28	3.88
711.034	4.88
711.787	1.88
712.54	5.88
713.293	4.88
714.046	3.88
714.799	4.88
715.552	3.88
716.305	4.88
717.058	4.88
717.81	3.88
718.563	7.88
719.315	6.88
720.068	6.88
720.82	4.88
721.573	6.88
722.325	3.88
723.077	5.88
723.829	5.88
724.581	3.88
725.333	4.88
726.085	5.88
726.836	5.88
727.588	5.88
728.34	5.88
729.091	4.88
729.843	5.88
730.594	5.88
731.346	4.88
732.097	4.88
732.848	4.88
733.599	4.88
734.35	5.88
735.101	4.88
735.852	5.88
736.603	4.88
737.354	6.88
738.104	6.88
738.855	6.88
739.605	5.88
740.356	4.88
741.106	6.88
741.856	5.88
742.607	4.88
743.357	5.88
744.107	5.88
744.857	6.88
745.607	4.88
746.357	5.88
747.106	5.88
747.856	6.88
748.606	7.88
749.355	5.88
750.105	5.88
750.854	6.88
751.603	6.88
752.353	6.88
753.102	6.88
753.851	7.88
754.6	4.88
755.349	7.88
756.098	9.88
756.847	3.88
757.595	6.88
758.344	5.88
759.093	5.88
759.841	8.88
760.589	6.88
761.338	7.88
762.086	8.88
762.834	9.88
763.582	6.88
764.331	9.88
765.079	5.88
765.826	6.88
766.574	9.88
767.322	10.88
768.07	8.88
768.817	5.88
769.565	8.88
770.312	11.88
771.06	8.88
771.807	7.88
772.554	9.88
773.302	9.88
774.049	9.88
774.796	8.88
775.543	10.88
776.29	10.88
777.036	10.88
777.783	10.88
778.53	10.88
779.276	11.88
780.023	11.88
780.769	8.88
781.516	10.88
782.262	11.88
783.008	9.88
783.754	11.88
784.5	9.88
785.246	9.88
785.992	11.88
786.738	9.88
787.484	9.88
788.23	11.88
788.975	9.88
789.721	9.88
790.466	10.88
791.212	9.88
791.957	12.88
792.702	6.88
793.447	9.88
794.193	7.88
794.938	11.88
795.683	7.88
796.427	8.88
797.172	9.88
797.917	7.88
798.662	10.88
799.406	6.88
800.151	8.88
800.895	6.88
801.64	10.88
802.384	9.88
803.128	7.88
803.872	5.88
804.616	6.88
805.36	4.88
806.104	7.88
806.848	7.88
807.592	7.88
808.336	7.88
809.079	5.88
809.823	5.88
810.566	7.88
811.31	5.88
812.053	5.88
812.796	6.88
813.539	8.88
814.283	2.88
815.026	6.88
815.769	6.88
816.511	5.88
817.254	5.88
817.997	6.88
818.74	5.88
819.482	3.88
820.225	3.88
820.967	5.88
821.71	4.88
822.452	6.88
823.194	6.88
823.936	5.88
824.678	2.88
825.42	3.88
826.162	4.88
826.904	5.88
827.646	5.88
828.388	4.88
829.129	3.88
829.871	3.88
830.612	5.88
831.354	1.88
832.095	2.88
832.836	3.88
833.577	2.88
834.319	1.88
835.06	2.88
835.801	3.88
836.542	4.88
837.282	6.88
838.023	3.88
838.764	2.88
839.504	5.88
840.245	4.88
840.985	2.88
841.726	3.88
842.466	1.88
843.206	3.88
843.946	4.88
844.687	1.88
845.427	3.88
846.166	2.88
846.906	2.88
847.646	1.88
848.386	3.88
849.125	2.88
849.865	3.88
850.605	3.88
851.344	0.88
852.083	3.88
852.823	1.88
853.562	3.88
854.301	3.88
855.04	1.88
855.779	2.88
856.518	1.88
857.257	3.88
857.995	3.88
858.734	1.88
859.473	3.88
860.211	2.88
860.95	2.88
861.688	1.88
862.426	2.88
863.165	3.88
863.903	2.88
864.641	0.88
865.379	-1.12
866.117	3.88
866.855	3.88
867.593	2.88
868.33	2.88
869.068	0.88
869.806	0.88
870.543	-0.12
871.28	0.88
872.018	2.88
872.755	1.88
873.492	1.88
874.229	0.88
874.967	2.88
875.703	2.88
876.44	-0.12
877.177	1.88
877.914	0.88
878.651	1.88
879.387	0.88
880.124	1.88
880.86	0.88
881.597	2.88
882.333	0.88
883.069	1.88
883.806	2.88
884.542	0.88
885.278	-0.12
886.014	2.88
886.749	1.88
887.485	2.88
888.221	1.88
888.957	0.88
889.692	-0.12
890.428	-0.12
891.163	-0.12
891.899	-0.12
892.634	1.88
893.369	-0.12
894.104	0.88
894.839	0.88
895.574	0.88
896.309	0.88
897.044	-0.12
897.779	-1.12
898.514	0.88
899.248	-0.12
899.983	-0.12
900.717	-1.12
901.452	1.88
902.186	0.88
902.92	1.88
903.654	-2.12
904.389	-1.12
905.123	0.88
905.857	1.88
906.59	1.88
907.324	-1.12
908.058	1.88
908.792	0.88
909.525	1.88
910.259	-1.12
910.992	-1.12
911.726	1.88
912.459	0.88
913.192	1.88
913.925	0.88
914.658	-0.12
915.391	1.88
916.124	-0.12
916.857	-0.12
917.59	-1.12
918.323	0.88
919.055	-1.12
919.788	-0.12
920.521	1.88
921.253	-2.12
921.985	0.88
922.718	0.88
923.45	-2.12
924.182	0.88
924.914	-0.12
925.646	-0.12
926.378	0.88
927.11	0.88
927.841	1.88
928.573	-2.12
929.305	1.88
930.036	-0.12
930.768	-0.12
931.499	0.88
932.23	-0.12
932.962	1.88
933.693	-2.12
934.424	-2.12
935.155	-0.12
935.886	-2.12
936.617	1.88
937.348	1.88
938.078	-2.12
938.809	-0.12
939.54	-2.12
940.27	0.88
941.001	-2.12
941.731	-1.12
942.461	-0.12
943.191	0.88
943.922	-0.12
944.652	-1.12
945.382	0.88
946.112	-1.12
946.841	-1.12
947.571	-0.12
948.301	-0.12
949.031	2.88
949.76	-2.12
950.49	-0.12
951.219	-2.12
951.948	-0.12
952.678	-0.12
953.407	-0.12
954.136	-0.12
954.865	-0.12
955.594	-0.12
956.323	-0.12
957.052	1.88
957.78	1.88
958.509	-2.12
959.238	1.88
959.966	-2.12
960.695	-1.12
961.423	-1.12
962.151	-1.12
962.88	1.88
963.608	-1.12
964.336	-2.12
965.064	1.88
965.792	-0.12
966.52	-0.12
967.247	-2.12
967.975	0.88
968.703	-0.12
969.43	-1.12
970.158	-1.12
970.885	-1.12
971.613	-3.12
972.34	0.88
973.067	-0.12
973.794	-1.12
974.521	-1.12
975.248	0.88
975.975	-0.12
976.702	1.88
977.429	-0.12
978.156	-2.12
978.882	0.88
979.609	0.88
980.335	-2.12
981.062	-0.12
981.788	-0.12
982.514	-0.12
983.24	-1.12
983.967	-1.12
984.693	-2.12
985.419	1.88
986.144	-0.12
986.87	0.88
987.596	-2.12
988.322	-0.12
989.047	-2.12
989.773	-0.12
990.498	0.88
991.224	-2.12
991.949	-2.12
992.674	-0.12
993.399	0.88
994.124	-1.12
994.849	0.88
995.574	0.88
996.299	-0.12
997.024	-0.12
997.749	-0.12
998.473	-0.12
999.198	-1.12
999.922	-2.12
1000.647	-1.12
1001.371	2.88
1002.095	-1.12
1002.82	-1.12
1003.544	-1.12
1004.268	1.88
1004.992	-0.12
1005.716	3.88
1006.439	1.88
1007.163	2.88
1007.887	1.88
1008.611	0.88
1009.334	-0.12
1010.058	-2.12
1010.781	-0.12
1011.504	0.88
1012.228	2.88
1012.951	1.88
1013.674	-0.12
1014.397	-2.12
1015.12	0.88
