节点500_425_QEPB04081__354__15-54-11-774.txt的数据

Date: Wed Nov 12 15:54:11 CST 2025
User: PC
Spectrometer: QEPB0408
触发模式: 0
积分时间 (秒): 1.000000E-2
Scans to average: 1
启用暗噪声校正: true
启用非线性校正: false
滑动平均宽度: 0
X轴模式: Wavelengths
Number of Pixels in Spectrum: 1044
>>>>>Begin Spectral Data<<<<<
220.843	3.12
221.644	6.12
222.444	5.12
223.244	4.12
224.045	6.12
224.845	3.12
225.645	4.12
226.445	4.12
227.245	6.12
228.045	6.12
228.845	7.12
229.645	7.12
230.444	7.12
231.244	4.12
232.043	6.12
232.843	7.12
233.642	5.12
234.442	5.12
235.241	5.12
236.04	7.12
236.839	7.12
237.638	7.12
238.437	5.12
239.236	6.12
240.035	8.12
240.833	8.12
241.632	8.12
242.43	8.12
243.229	8.12
244.027	7.12
244.826	10.12
245.624	10.12
246.422	11.12
247.22	10.12
248.018	9.12
248.816	11.12
249.614	7.12
250.412	12.12
251.21	8.12
252.007	10.12
252.805	11.12
253.602	10.12
254.4	9.12
255.197	13.12
255.994	11.12
256.791	14.12
257.589	12.12
258.386	15.12
259.183	12.12
259.979	16.12
260.776	15.12
261.573	17.12
262.37	17.12
263.166	14.12
263.963	17.12
264.759	17.12
265.556	19.12
266.352	18.12
267.148	21.12
267.944	19.12
268.74	19.12
269.536	20.12
270.332	21.12
271.128	21.12
271.924	23.12
272.719	23.12
273.515	21.12
274.311	22.12
275.106	24.12
275.901	24.12
276.697	21.12
277.492	24.12
278.287	25.12
279.082	24.12
279.877	25.12
280.672	21.12
281.467	25.12
282.262	22.12
283.056	24.12
283.851	25.12
284.646	27.12
285.44	27.12
286.234	26.12
287.029	24.12
287.823	23.12
288.617	28.12
289.411	22.12
290.205	25.12
290.999	25.12
291.793	21.12
292.587	26.12
293.381	23.12
294.174	22.12
294.968	20.12
295.761	23.12
296.555	24.12
297.348	20.12
298.141	20.12
298.935	22.12
299.728	22.12
300.521	18.12
301.314	19.12
302.107	18.12
302.899	20.12
303.692	21.12
304.485	17.12
305.277	19.12
306.07	15.12
306.862	17.12
307.655	17.12
308.447	15.12
309.239	19.12
310.031	20.12
310.823	14.12
311.615	13.12
312.407	17.12
313.199	14.12
313.991	11.12
314.783	13.12
315.574	13.12
316.366	12.12
317.157	14.12
317.949	9.12
318.74	13.12
319.531	11.12
320.322	11.12
321.113	11.12
321.904	10.12
322.695	10.12
323.486	13.12
324.277	10.12
325.068	8.12
325.858	10.12
326.649	10.12
327.439	12.12
328.23	10.12
329.02	10.12
329.81	11.12
330.6	11.12
331.391	8.12
332.181	10.12
332.971	10.12
333.76	8.12
334.55	8.12
335.34	9.12
336.13	11.12
336.919	9.12
337.709	9.12
338.498	10.12
339.287	11.12
340.077	8.12
340.866	7.12
341.655	10.12
342.444	9.12
343.233	10.12
344.022	8.12
344.811	10.12
345.6	11.12
346.388	7.12
347.177	7.12
347.965	10.12
348.754	8.12
349.542	10.12
350.33	8.12
351.119	9.12
351.907	7.12
352.695	6.12
353.483	8.12
354.271	9.12
355.059	9.12
355.846	7.12
356.634	6.12
357.422	7.12
358.209	6.12
358.997	8.12
359.784	8.12
360.571	9.12
361.359	8.12
362.146	9.12
362.933	7.12
363.72	8.12
364.507	8.12
365.294	9.12
366.081	8.12
366.867	7.12
367.654	7.12
368.44	4.12
369.227	8.12
370.013	7.12
370.8	8.12
371.586	8.12
372.372	5.12
373.158	6.12
373.944	6.12
374.73	8.12
375.516	8.12
376.302	8.12
377.088	8.12
377.873	7.12
378.659	6.12
379.445	7.12
380.23	8.12
381.015	7.12
381.801	7.12
382.586	5.12
383.371	8.12
384.156	8.12
384.941	7.12
385.726	9.12
386.511	9.12
387.296	8.12
388.08	9.12
388.865	9.12
389.649	10.12
390.434	8.12
391.218	7.12
392.003	8.12
392.787	8.12
393.571	9.12
394.355	9.12
395.139	9.12
395.923	11.12
396.707	10.12
397.491	10.12
398.274	11.12
399.058	8.12
399.842	9.12
400.625	13.12
401.408	9.12
402.192	8.12
402.975	11.12
403.758	11.12
404.541	11.12
405.324	13.12
406.107	10.12
406.89	11.12
407.673	11.12
408.456	11.12
409.238	10.12
410.021	12.12
410.803	9.12
411.586	15.12
412.368	10.12
413.151	14.12
413.933	13.12
414.715	13.12
415.497	11.12
416.279	11.12
417.061	15.12
417.843	13.12
418.624	12.12
419.406	15.12
420.188	14.12
420.969	14.12
421.751	15.12
422.532	15.12
423.313	14.12
424.095	18.12
424.876	18.12
425.657	14.12
426.438	20.12
427.219	15.12
428	17.12
428.78	21.12
429.561	20.12
430.342	18.12
431.122	19.12
431.903	22.12
432.683	22.12
433.464	23.12
434.244	25.12
435.024	24.12
435.804	28.12
436.584	27.12
437.364	29.12
438.144	32.12
438.924	29.12
439.704	33.12
440.483	32.12
441.263	37.12
442.042	37.12
442.822	41.12
443.601	42.12
444.38	48.12
445.16	49.12
445.939	51.12
446.718	57.12
447.497	63.12
448.276	66.12
449.054	73.12
449.833	82.12
450.612	91.12
451.391	99.12
452.169	109.12
452.948	111.12
453.726	130.12
454.504	136.12
455.282	154.12
456.061	171.12
456.839	195.12
457.617	209.12
458.395	238.12
459.172	263.12
459.95	293.12
460.728	326.12
461.506	360.12
462.283	408.12
463.061	447.12
463.838	506.12
464.615	565.12
465.393	636.12
466.17	710.12
466.947	768.12
467.724	870.12
468.501	970.12
469.278	1066.12
470.055	1185.12
470.831	1305.12
471.608	1459.12
472.385	1624.12
473.161	1783.12
473.938	1945.12
474.714	2156.12
475.49	2373.12
476.266	2598.12
477.043	2855.12
477.819	3162.12
478.595	3486.12
479.371	3829.12
480.146	4191.12
480.922	4629.12
481.698	5039.12
482.473	5514.12
483.249	6049.12
484.024	6587.12
484.8	7252.12
485.575	7863.12
486.35	8540.12
487.126	9292.12
487.901	10163.12
488.676	11061.12
489.451	12022.12
490.225	13014.12
491	14117.12
491.775	15250.12
492.55	16518.12
493.324	17791.12
494.099	18963.12
494.873	20303.12
495.647	21720.12
496.422	23034.12
497.196	24434.12
497.97	25936.12
498.744	27305.12
499.518	28705.12
500.292	29853.12
501.066	30962.12
501.839	32128.12
502.613	33062.12
503.387	33784.12
504.16	34275.12
504.934	34677.12
505.707	34855.12
506.48	34716.12
507.253	34518.12
508.027	34201.12
508.8	33779.12
509.573	33073.12
510.346	32275.12
511.118	31375.12
511.891	30372.12
512.664	29352.12
513.437	28226.12
514.209	27146.12
514.982	26147.12
515.754	25047.12
516.526	24050.12
517.298	23123.12
518.071	22118.12
518.843	21151.12
519.615	20280.12
520.387	19492.12
521.159	18795.12
521.93	18014.12
522.702	17303.12
523.474	16582.12
524.245	15978.12
525.017	15260.12
525.788	14555.12
526.56	13953.12
527.331	13297.12
528.102	12680.12
528.873	12162.12
529.644	11481.12
530.415	11003.12
531.186	10477.12
531.957	9928.12
532.728	9366.12
533.498	8865.12
534.269	8417.12
535.039	7952.12
535.81	7531.12
536.58	7083.12
537.351	6672.12
538.121	6326.12
538.891	6007.12
539.661	5682.12
540.431	5384.12
541.201	5104.12
541.971	4819.12
542.741	4581.12
543.51	4358.12
544.28	4140.12
545.05	3910.12
545.819	3751.12
546.588	3585.12
547.358	3380.12
548.127	3201.12
548.896	3039.12
549.665	2920.12
550.434	2746.12
551.203	2603.12
551.972	2470.12
552.741	2323.12
553.51	2209.12
554.278	2078.12
555.047	1961.12
555.815	1852.12
556.584	1750.12
557.352	1647.12
558.121	1554.12
558.889	1479.12
559.657	1403.12
560.425	1309.12
561.193	1253.12
561.961	1183.12
562.729	1106.12
563.496	1044.12
564.264	1010.12
565.032	935.12
565.799	893.12
566.567	835.12
567.334	790.12
568.101	751.12
568.869	716.12
569.636	661.12
570.403	626.12
571.17	588.12
571.937	560.12
572.704	527.12
573.471	500.12
574.237	475.12
575.004	445.12
575.771	420.12
576.537	398.12
577.303	370.12
578.07	353.12
578.836	334.12
579.602	310.12
580.368	304.12
581.134	282.12
581.9	268.12
582.666	262.12
583.432	236.12
584.198	229.12
584.964	217.12
585.729	205.12
586.495	197.12
587.26	184.12
588.025	172.12
588.791	165.12
589.556	159.12
590.321	146.12
591.086	142.12
591.851	133.12
592.616	121.12
593.381	122.12
594.146	120.12
594.911	111.12
595.675	107.12
596.44	99.12
597.204	94.12
597.969	94.12
598.733	91.12
599.497	84.12
600.261	81.12
601.025	77.12
601.79	78.12
602.553	69.12
603.317	64.12
604.081	68.12
604.845	67.12
605.609	59.12
606.372	58.12
607.136	53.12
607.899	52.12
608.662	48.12
609.426	45.12
610.189	48.12
610.952	45.12
611.715	44.12
612.478	40.12
613.241	40.12
614.004	39.12
614.767	38.12
615.529	34.12
616.292	36.12
617.055	33.12
617.817	33.12
618.579	31.12
619.342	34.12
620.104	32.12
620.866	28.12
621.628	29.12
622.39	26.12
623.152	27.12
623.914	23.12
624.676	25.12
625.438	23.12
626.199	25.12
626.961	25.12
627.722	19.12
628.484	21.12
629.245	17.12
630.006	22.12
630.768	21.12
631.529	21.12
632.29	21.12
633.051	18.12
633.812	17.12
634.573	18.12
635.333	17.12
636.094	15.12
636.855	14.12
637.615	15.12
638.376	14.12
639.136	14.12
639.896	14.12
640.657	14.12
641.417	15.12
642.177	11.12
642.937	11.12
643.697	11.12
644.457	12.12
645.216	15.12
645.976	10.12
646.736	12.12
647.495	9.12
648.255	11.12
649.014	10.12
649.774	12.12
650.533	13.12
651.292	11.12
652.051	10.12
652.81	11.12
653.569	11.12
654.328	10.12
655.087	9.12
655.846	11.12
656.604	10.12
657.363	9.12
658.121	10.12
658.88	8.12
659.638	10.12
660.397	8.12
661.155	10.12
661.913	9.12
662.671	9.12
663.429	10.12
664.187	9.12
664.945	7.12
665.703	7.12
666.46	8.12
667.218	9.12
667.976	5.12
668.733	7.12
669.49	6.12
670.248	8.12
671.005	8.12
671.762	4.12
672.519	7.12
673.276	8.12
674.033	5.12
674.79	6.12
675.547	6.12
676.304	7.12
677.06	9.12
677.817	4.12
678.574	7.12
679.33	8.12
680.086	5.12
680.843	8.12
681.599	9.12
682.355	8.12
683.111	8.12
683.867	8.12
684.623	6.12
685.379	5.12
686.135	8.12
686.89	6.12
687.646	5.12
688.402	5.12
689.157	7.12
689.912	7.12
690.668	5.12
691.423	6.12
692.178	7.12
692.933	4.12
693.688	7.12
694.443	6.12
695.198	5.12
695.953	6.12
696.708	5.12
697.462	9.12
698.217	4.12
698.972	5.12
699.726	4.12
700.48	3.12
701.235	5.12
701.989	6.12
702.743	5.12
703.497	6.12
704.251	6.12
705.005	7.12
705.759	4.12
706.513	9.12
707.266	4.12
708.02	5.12
708.774	7.12
709.527	5.12
710.28	6.12
711.034	4.12
711.787	6.12
712.54	5.12
713.293	6.12
714.046	7.12
714.799	6.12
715.552	6.12
716.305	9.12
717.058	7.12
717.81	6.12
718.563	7.12
719.315	6.12
720.068	3.12
720.82	7.12
721.573	7.12
722.325	7.12
723.077	5.12
723.829	6.12
724.581	5.12
725.333	7.12
726.085	7.12
726.836	6.12
727.588	6.12
728.34	5.12
729.091	6.12
729.843	5.12
730.594	8.12
731.346	2.12
732.097	8.12
732.848	6.12
733.599	6.12
734.35	6.12
735.101	6.12
735.852	6.12
736.603	7.12
737.354	7.12
738.104	7.12
738.855	8.12
739.605	8.12
740.356	9.12
741.106	8.12
741.856	8.12
742.607	7.12
743.357	6.12
744.107	6.12
744.857	6.12
745.607	6.12
746.357	9.12
747.106	7.12
747.856	7.12
748.606	8.12
749.355	7.12
750.105	7.12
750.854	10.12
751.603	8.12
752.353	9.12
753.102	6.12
753.851	10.12
754.6	7.12
755.349	7.12
756.098	10.12
756.847	7.12
757.595	8.12
758.344	8.12
759.093	9.12
759.841	8.12
760.589	9.12
761.338	9.12
762.086	8.12
762.834	9.12
763.582	11.12
764.331	11.12
765.079	11.12
765.826	9.12
766.574	10.12
767.322	11.12
768.07	11.12
768.817	11.12
769.565	10.12
770.312	11.12
771.06	11.12
771.807	12.12
772.554	14.12
773.302	10.12
774.049	10.12
774.796	11.12
775.543	10.12
776.29	13.12
777.036	13.12
777.783	10.12
778.53	12.12
779.276	10.12
780.023	13.12
780.769	11.12
781.516	13.12
782.262	12.12
783.008	10.12
783.754	13.12
784.5	13.12
785.246	15.12
785.992	13.12
786.738	11.12
787.484	13.12
788.23	9.12
788.975	11.12
789.721	12.12
790.466	11.12
791.212	11.12
791.957	11.12
792.702	9.12
793.447	11.12
794.193	11.12
794.938	13.12
795.683	8.12
796.427	14.12
797.172	11.12
797.917	14.12
798.662	10.12
799.406	10.12
800.151	12.12
800.895	9.12
801.64	11.12
802.384	8.12
803.128	9.12
803.872	11.12
804.616	7.12
805.36	10.12
806.104	7.12
806.848	8.12
807.592	7.12
808.336	8.12
809.079	9.12
809.823	8.12
810.566	8.12
811.31	8.12
812.053	8.12
812.796	8.12
813.539	6.12
814.283	7.12
815.026	8.12
815.769	5.12
816.511	6.12
817.254	6.12
817.997	4.12
818.74	6.12
819.482	5.12
820.225	8.12
820.967	7.12
821.71	6.12
822.452	6.12
823.194	5.12
823.936	4.12
824.678	7.12
825.42	3.12
826.162	7.12
826.904	6.12
827.646	4.12
828.388	5.12
829.129	4.12
829.871	4.12
830.612	5.12
831.354	7.12
832.095	5.12
832.836	6.12
833.577	5.12
834.319	5.12
835.06	5.12
835.801	8.12
836.542	2.12
837.282	4.12
838.023	5.12
838.764	7.12
839.504	7.12
840.245	3.12
840.985	6.12
841.726	5.12
842.466	6.12
843.206	4.12
843.946	6.12
844.687	6.12
845.427	4.12
846.166	6.12
846.906	3.12
847.646	7.12
848.386	5.12
849.125	6.12
849.865	5.12
850.605	5.12
851.344	3.12
852.083	5.12
852.823	5.12
853.562	3.12
854.301	4.12
855.04	3.12
855.779	5.12
856.518	4.12
857.257	3.12
857.995	5.12
858.734	4.12
859.473	3.12
860.211	3.12
860.95	3.12
861.688	6.12
862.426	3.12
863.165	3.12
863.903	3.12
864.641	3.12
865.379	3.12
866.117	1.12
866.855	7.12
867.593	6.12
868.33	3.12
869.068	4.12
869.806	1.12
870.543	4.12
871.28	3.12
872.018	3.12
872.755	3.12
873.492	3.12
874.229	4.12
874.967	2.12
875.703	3.12
876.44	1.12
877.177	2.12
877.914	1.12
878.651	3.12
879.387	5.12
880.124	3.12
880.86	2.12
881.597	2.12
882.333	4.12
883.069	3.12
883.806	1.12
884.542	2.12
885.278	2.12
886.014	0.12
886.749	2.12
887.485	3.12
888.221	3.12
888.957	2.12
889.692	2.12
890.428	2.12
891.163	-0.88
891.899	3.12
892.634	2.12
893.369	1.12
894.104	-0.88
894.839	4.12
895.574	2.12
896.309	2.12
897.044	2.12
897.779	2.12
898.514	2.12
899.248	2.12
899.983	2.12
900.717	3.12
901.452	1.12
902.186	1.12
902.92	0.12
903.654	3.12
904.389	1.12
905.123	1.12
905.857	2.12
906.59	1.12
907.324	1.12
908.058	2.12
908.792	1.12
909.525	1.12
910.259	1.12
910.992	2.12
911.726	-0.88
912.459	0.12
913.192	2.12
913.925	1.12
914.658	2.12
915.391	0.12
916.124	0.12
916.857	1.12
917.59	-0.88
918.323	3.12
919.055	2.12
919.788	1.12
920.521	2.12
921.253	3.12
921.985	1.12
922.718	-0.88
923.45	3.12
924.182	0.12
924.914	2.12
925.646	2.12
926.378	0.12
927.11	-0.88
927.841	1.12
928.573	3.12
929.305	2.12
930.036	1.12
930.768	3.12
931.499	1.12
932.23	0.12
932.962	-0.88
933.693	2.12
934.424	2.12
935.155	3.12
935.886	1.12
936.617	1.12
937.348	-0.88
938.078	2.12
938.809	2.12
939.54	1.12
940.27	3.12
941.001	1.12
941.731	0.12
942.461	3.12
943.191	1.12
943.922	1.12
944.652	0.12
945.382	-0.88
946.112	2.12
946.841	0.12
947.571	-0.88
948.301	1.12
949.031	0.12
949.76	0.12
950.49	-0.88
951.219	3.12
951.948	0.12
952.678	1.12
953.407	4.12
954.136	0.12
954.865	1.12
955.594	2.12
956.323	1.12
957.052	0.12
957.78	-0.88
958.509	2.12
959.238	2.12
959.966	-0.88
960.695	1.12
961.423	0.12
962.151	1.12
962.88	0.12
963.608	1.12
964.336	-0.88
965.064	3.12
965.792	-0.88
966.52	2.12
967.247	2.12
967.975	-0.88
968.703	1.12
969.43	1.12
970.158	1.12
970.885	1.12
971.613	0.12
972.34	1.12
973.067	-0.88
973.794	1.12
974.521	2.12
975.248	0.12
975.975	1.12
976.702	1.12
977.429	0.12
978.156	1.12
978.882	1.12
979.609	-0.88
980.335	2.12
981.062	0.12
981.788	0.12
982.514	0.12
983.24	2.12
983.967	2.12
984.693	2.12
985.419	1.12
986.144	0.12
986.87	2.12
987.596	0.12
988.322	1.12
989.047	4.12
989.773	2.12
990.498	-0.88
991.224	1.12
991.949	0.12
992.674	0.12
993.399	2.12
994.124	0.12
994.849	2.12
995.574	0.12
996.299	0.12
997.024	1.12
997.749	3.12
998.473	2.12
999.198	0.12
999.922	2.12
1000.647	1.12
1001.371	4.12
1002.095	2.12
1002.82	-1.88
1003.544	-1.88
1004.268	5.12
1004.992	3.12
1005.716	0.12
1006.439	3.12
1007.163	2.12
1007.887	4.12
1008.611	2.12
1009.334	1.12
1010.058	2.12
1010.781	1.12
1011.504	0.12
1012.228	1.12
1012.951	1.12
1013.674	-2.88
1014.397	0.12
1015.12	-0.88
