节点500_425_QEPB04081__370__15-54-27-748.txt的数据

Date: Wed Nov 12 15:54:27 CST 2025
User: PC
Spectrometer: QEPB0408
触发模式: 0
积分时间 (秒): 1.000000E-2
Scans to average: 1
启用暗噪声校正: true
启用非线性校正: false
滑动平均宽度: 0
X轴模式: Wavelengths
Number of Pixels in Spectrum: 1044
>>>>>Begin Spectral Data<<<<<
220.843	3.75
221.644	3.75
222.444	2.75
223.244	4.75
224.045	3.75
224.845	5.75
225.645	4.75
226.445	4.75
227.245	6.75
228.045	2.75
228.845	2.75
229.645	5.75
230.444	5.75
231.244	6.75
232.043	3.75
232.843	3.75
233.642	5.75
234.442	4.75
235.241	5.75
236.04	8.75
236.839	7.75
237.638	4.75
238.437	7.75
239.236	6.75
240.035	5.75
240.833	7.75
241.632	7.75
242.43	8.75
243.229	6.75
244.027	7.75
244.826	8.75
245.624	5.75
246.422	10.75
247.22	5.75
248.018	6.75
248.816	10.75
249.614	9.75
250.412	10.75
251.21	8.75
252.007	10.75
252.805	8.75
253.602	10.75
254.4	12.75
255.197	10.75
255.994	13.75
256.791	10.75
257.589	13.75
258.386	10.75
259.183	13.75
259.979	14.75
260.776	12.75
261.573	13.75
262.37	16.75
263.166	16.75
263.963	18.75
264.759	18.75
265.556	17.75
266.352	17.75
267.148	18.75
267.944	19.75
268.74	19.75
269.536	15.75
270.332	17.75
271.128	19.75
271.924	21.75
272.719	21.75
273.515	20.75
274.311	21.75
275.106	24.75
275.901	21.75
276.697	25.75
277.492	23.75
278.287	25.75
279.082	23.75
279.877	24.75
280.672	24.75
281.467	22.75
282.262	24.75
283.056	24.75
283.851	25.75
284.646	25.75
285.44	21.75
286.234	24.75
287.029	24.75
287.823	24.75
288.617	23.75
289.411	21.75
290.205	20.75
290.999	21.75
291.793	20.75
292.587	23.75
293.381	19.75
294.174	23.75
294.968	19.75
295.761	22.75
296.555	19.75
297.348	21.75
298.141	21.75
298.935	20.75
299.728	19.75
300.521	21.75
301.314	17.75
302.107	18.75
302.899	14.75
303.692	16.75
304.485	14.75
305.277	16.75
306.07	16.75
306.862	15.75
307.655	15.75
308.447	16.75
309.239	14.75
310.031	15.75
310.823	13.75
311.615	14.75
312.407	11.75
313.199	16.75
313.991	11.75
314.783	14.75
315.574	14.75
316.366	11.75
317.157	10.75
317.949	10.75
318.74	10.75
319.531	10.75
320.322	9.75
321.113	12.75
321.904	10.75
322.695	9.75
323.486	9.75
324.277	10.75
325.068	8.75
325.858	10.75
326.649	10.75
327.439	9.75
328.23	8.75
329.02	8.75
329.81	8.75
330.6	7.75
331.391	8.75
332.181	10.75
332.971	9.75
333.76	9.75
334.55	5.75
335.34	10.75
336.13	11.75
336.919	8.75
337.709	10.75
338.498	9.75
339.287	6.75
340.077	7.75
340.866	11.75
341.655	8.75
342.444	8.75
343.233	9.75
344.022	8.75
344.811	8.75
345.6	5.75
346.388	6.75
347.177	7.75
347.965	7.75
348.754	9.75
349.542	8.75
350.33	8.75
351.119	9.75
351.907	7.75
352.695	8.75
353.483	7.75
354.271	6.75
355.059	7.75
355.846	7.75
356.634	9.75
357.422	6.75
358.209	9.75
358.997	9.75
359.784	7.75
360.571	8.75
361.359	4.75
362.146	7.75
362.933	8.75
363.72	7.75
364.507	8.75
365.294	6.75
366.081	8.75
366.867	6.75
367.654	5.75
368.44	6.75
369.227	5.75
370.013	6.75
370.8	7.75
371.586	6.75
372.372	6.75
373.158	6.75
373.944	5.75
374.73	3.75
375.516	7.75
376.302	7.75
377.088	8.75
377.873	9.75
378.659	8.75
379.445	6.75
380.23	9.75
381.015	8.75
381.801	5.75
382.586	6.75
383.371	6.75
384.156	8.75
384.941	8.75
385.726	8.75
386.511	9.75
387.296	7.75
388.08	7.75
388.865	8.75
389.649	6.75
390.434	7.75
391.218	7.75
392.003	8.75
392.787	9.75
393.571	6.75
394.355	8.75
395.139	8.75
395.923	8.75
396.707	12.75
397.491	9.75
398.274	10.75
399.058	8.75
399.842	9.75
400.625	8.75
401.408	10.75
402.192	9.75
402.975	10.75
403.758	11.75
404.541	7.75
405.324	10.75
406.107	12.75
406.89	8.75
407.673	10.75
408.456	10.75
409.238	10.75
410.021	10.75
410.803	10.75
411.586	13.75
412.368	14.75
413.151	13.75
413.933	10.75
414.715	11.75
415.497	13.75
416.279	10.75
417.061	10.75
417.843	12.75
418.624	13.75
419.406	13.75
420.188	12.75
420.969	14.75
421.751	16.75
422.532	15.75
423.313	14.75
424.095	15.75
424.876	17.75
425.657	17.75
426.438	17.75
427.219	14.75
428	20.75
428.78	20.75
429.561	20.75
430.342	18.75
431.122	19.75
431.903	18.75
432.683	19.75
433.464	25.75
434.244	25.75
435.024	24.75
435.804	26.75
436.584	25.75
437.364	30.75
438.144	27.75
438.924	28.75
439.704	35.75
440.483	32.75
441.263	37.75
442.042	38.75
442.822	36.75
443.601	46.75
444.38	43.75
445.16	50.75
445.939	53.75
446.718	58.75
447.497	63.75
448.276	66.75
449.054	69.75
449.833	82.75
450.612	87.75
451.391	97.75
452.169	108.75
452.948	113.75
453.726	127.75
454.504	142.75
455.282	150.75
456.061	171.75
456.839	190.75
457.617	205.75
458.395	235.75
459.172	261.75
459.95	296.75
460.728	327.75
461.506	355.75
462.283	397.75
463.061	451.75
463.838	504.75
464.615	565.75
465.393	638.75
466.17	702.75
466.947	781.75
467.724	864.75
468.501	970.75
469.278	1061.75
470.055	1178.75
470.831	1311.75
471.608	1445.75
472.385	1604.75
473.161	1770.75
473.938	1954.75
474.714	2147.75
475.49	2359.75
476.266	2597.75
477.043	2874.75
477.819	3147.75
478.595	3480.75
479.371	3829.75
480.146	4169.75
480.922	4554.75
481.698	5022.75
482.473	5480.75
483.249	5981.75
484.024	6544.75
484.8	7170.75
485.575	7790.75
486.35	8517.75
487.126	9273.75
487.901	10062.75
488.676	10967.75
489.451	11883.75
490.225	12907.75
491	13994.75
491.775	15150.75
492.55	16386.75
493.324	17562.75
494.099	18818.75
494.873	20086.75
495.647	21452.75
496.422	22835.75
497.196	24225.75
497.97	25705.75
498.744	27069.75
499.518	28363.75
500.292	29544.75
501.066	30649.75
501.839	31714.75
502.613	32788.75
503.387	33401.75
504.16	34042.75
504.934	34380.75
505.707	34521.75
506.48	34477.75
507.253	34338.75
508.027	34004.75
508.8	33528.75
509.573	32955.75
510.346	32160.75
511.118	31280.75
511.891	30374.75
512.664	29252.75
513.437	28231.75
514.209	27151.75
514.982	26092.75
515.754	25130.75
516.526	24013.75
517.298	23007.75
518.071	22092.75
518.843	21180.75
519.615	20288.75
520.387	19487.75
521.159	18757.75
521.93	18077.75
522.702	17274.75
523.474	16638.75
524.245	15977.75
525.017	15249.75
525.788	14567.75
526.56	13923.75
527.331	13316.75
528.102	12702.75
528.873	12106.75
529.644	11563.75
530.415	11053.75
531.186	10478.75
531.957	9973.75
532.728	9409.75
533.498	8945.75
534.269	8440.75
535.039	7964.75
535.81	7530.75
536.58	7108.75
537.351	6718.75
538.121	6339.75
538.891	6007.75
539.661	5740.75
540.431	5397.75
541.201	5090.75
541.971	4848.75
542.741	4592.75
543.51	4395.75
544.28	4137.75
545.05	3933.75
545.819	3739.75
546.588	3564.75
547.358	3379.75
548.127	3208.75
548.896	3038.75
549.665	2898.75
550.434	2765.75
551.203	2594.75
551.972	2466.75
552.741	2348.75
553.51	2208.75
554.278	2089.75
555.047	1974.75
555.815	1858.75
556.584	1760.75
557.352	1641.75
558.121	1559.75
558.889	1476.75
559.657	1403.75
560.425	1323.75
561.193	1245.75
561.961	1182.75
562.729	1123.75
563.496	1063.75
564.264	997.75
565.032	947.75
565.799	890.75
566.567	845.75
567.334	798.75
568.101	755.75
568.869	723.75
569.636	668.75
570.403	625.75
571.17	596.75
571.937	569.75
572.704	528.75
573.471	501.75
574.237	474.75
575.004	446.75
575.771	422.75
576.537	401.75
577.303	373.75
578.07	348.75
578.836	333.75
579.602	309.75
580.368	298.75
581.134	282.75
581.9	266.75
582.666	255.75
583.432	242.75
584.198	228.75
584.964	218.75
585.729	202.75
586.495	198.75
587.26	182.75
588.025	172.75
588.791	165.75
589.556	156.75
590.321	154.75
591.086	138.75
591.851	131.75
592.616	126.75
593.381	120.75
594.146	115.75
594.911	109.75
595.675	106.75
596.44	98.75
597.204	101.75
597.969	94.75
598.733	88.75
599.497	82.75
600.261	77.75
601.025	81.75
601.79	74.75
602.553	69.75
603.317	66.75
604.081	61.75
604.845	58.75
605.609	61.75
606.372	62.75
607.136	56.75
607.899	51.75
608.662	54.75
609.426	48.75
610.189	47.75
610.952	47.75
611.715	42.75
612.478	41.75
613.241	39.75
614.004	39.75
614.767	39.75
615.529	38.75
616.292	36.75
617.055	36.75
617.817	32.75
618.579	32.75
619.342	31.75
620.104	28.75
620.866	28.75
621.628	29.75
622.39	24.75
623.152	24.75
623.914	24.75
624.676	26.75
625.438	23.75
626.199	21.75
626.961	23.75
627.722	19.75
628.484	20.75
629.245	21.75
630.006	20.75
630.768	19.75
631.529	17.75
632.29	18.75
633.051	15.75
633.812	19.75
634.573	16.75
635.333	15.75
636.094	16.75
636.855	12.75
637.615	15.75
638.376	11.75
639.136	13.75
639.896	13.75
640.657	12.75
641.417	13.75
642.177	13.75
642.937	13.75
643.697	11.75
644.457	11.75
645.216	11.75
645.976	8.75
646.736	12.75
647.495	8.75
648.255	10.75
649.014	11.75
649.774	8.75
650.533	9.75
651.292	11.75
652.051	10.75
652.81	8.75
653.569	9.75
654.328	9.75
655.087	8.75
655.846	9.75
656.604	8.75
657.363	9.75
658.121	5.75
658.88	8.75
659.638	7.75
660.397	7.75
661.155	7.75
661.913	6.75
662.671	9.75
663.429	7.75
664.187	5.75
664.945	7.75
665.703	4.75
666.46	8.75
667.218	7.75
667.976	6.75
668.733	7.75
669.49	9.75
670.248	2.75
671.005	7.75
671.762	6.75
672.519	9.75
673.276	6.75
674.033	6.75
674.79	2.75
675.547	6.75
676.304	6.75
677.06	6.75
677.817	4.75
678.574	6.75
679.33	5.75
680.086	5.75
680.843	6.75
681.599	6.75
682.355	4.75
683.111	8.75
683.867	1.75
684.623	4.75
685.379	5.75
686.135	4.75
686.89	7.75
687.646	5.75
688.402	5.75
689.157	5.75
689.912	6.75
690.668	4.75
691.423	6.75
692.178	4.75
692.933	5.75
693.688	5.75
694.443	6.75
695.198	5.75
695.953	4.75
696.708	3.75
697.462	6.75
698.217	5.75
698.972	3.75
699.726	7.75
700.48	5.75
701.235	5.75
701.989	3.75
702.743	6.75
703.497	4.75
704.251	4.75
705.005	4.75
705.759	5.75
706.513	4.75
707.266	2.75
708.02	5.75
708.774	3.75
709.527	5.75
710.28	7.75
711.034	5.75
711.787	4.75
712.54	5.75
713.293	2.75
714.046	7.75
714.799	5.75
715.552	7.75
716.305	2.75
717.058	6.75
717.81	5.75
718.563	3.75
719.315	3.75
720.068	4.75
720.82	7.75
721.573	5.75
722.325	6.75
723.077	7.75
723.829	4.75
724.581	6.75
725.333	6.75
726.085	7.75
726.836	5.75
727.588	5.75
728.34	6.75
729.091	8.75
729.843	5.75
730.594	7.75
731.346	5.75
732.097	4.75
732.848	7.75
733.599	8.75
734.35	7.75
735.101	7.75
735.852	6.75
736.603	5.75
737.354	5.75
738.104	5.75
738.855	5.75
739.605	6.75
740.356	6.75
741.106	5.75
741.856	5.75
742.607	7.75
743.357	5.75
744.107	6.75
744.857	7.75
745.607	5.75
746.357	7.75
747.106	5.75
747.856	6.75
748.606	7.75
749.355	9.75
750.105	7.75
750.854	6.75
751.603	6.75
752.353	7.75
753.102	7.75
753.851	9.75
754.6	7.75
755.349	4.75
756.098	7.75
756.847	8.75
757.595	7.75
758.344	8.75
759.093	6.75
759.841	7.75
760.589	8.75
761.338	8.75
762.086	9.75
762.834	8.75
763.582	9.75
764.331	8.75
765.079	7.75
765.826	11.75
766.574	8.75
767.322	8.75
768.07	10.75
768.817	9.75
769.565	10.75
770.312	11.75
771.06	11.75
771.807	12.75
772.554	10.75
773.302	12.75
774.049	7.75
774.796	11.75
775.543	12.75
776.29	11.75
777.036	8.75
777.783	9.75
778.53	9.75
779.276	10.75
780.023	14.75
780.769	11.75
781.516	12.75
782.262	12.75
783.008	10.75
783.754	10.75
784.5	10.75
785.246	11.75
785.992	11.75
786.738	11.75
787.484	12.75
788.23	12.75
788.975	11.75
789.721	10.75
790.466	10.75
791.212	12.75
791.957	9.75
792.702	12.75
793.447	10.75
794.193	10.75
794.938	9.75
795.683	10.75
796.427	11.75
797.172	9.75
797.917	9.75
798.662	10.75
799.406	8.75
800.151	10.75
800.895	8.75
801.64	10.75
802.384	9.75
803.128	8.75
803.872	8.75
804.616	6.75
805.36	8.75
806.104	6.75
806.848	7.75
807.592	8.75
808.336	7.75
809.079	6.75
809.823	7.75
810.566	7.75
811.31	7.75
812.053	8.75
812.796	6.75
813.539	8.75
814.283	7.75
815.026	7.75
815.769	10.75
816.511	4.75
817.254	9.75
817.997	7.75
818.74	6.75
819.482	7.75
820.225	4.75
820.967	4.75
821.71	4.75
822.452	5.75
823.194	6.75
823.936	5.75
824.678	6.75
825.42	4.75
826.162	6.75
826.904	5.75
827.646	7.75
828.388	4.75
829.129	3.75
829.871	6.75
830.612	5.75
831.354	3.75
832.095	5.75
832.836	5.75
833.577	4.75
834.319	6.75
835.06	5.75
835.801	3.75
836.542	4.75
837.282	4.75
838.023	5.75
838.764	5.75
839.504	4.75
840.245	4.75
840.985	3.75
841.726	3.75
842.466	5.75
843.206	5.75
843.946	3.75
844.687	4.75
845.427	4.75
846.166	4.75
846.906	2.75
847.646	4.75
848.386	2.75
849.125	6.75
849.865	3.75
850.605	4.75
851.344	3.75
852.083	2.75
852.823	3.75
853.562	2.75
854.301	3.75
855.04	3.75
855.779	2.75
856.518	2.75
857.257	1.75
857.995	2.75
858.734	4.75
859.473	2.75
860.211	2.75
860.95	3.75
861.688	3.75
862.426	3.75
863.165	1.75
863.903	3.75
864.641	0.75
865.379	4.75
866.117	4.75
866.855	3.75
867.593	2.75
868.33	3.75
869.068	0.75
869.806	3.75
870.543	3.75
871.28	2.75
872.018	2.75
872.755	2.75
873.492	1.75
874.229	3.75
874.967	1.75
875.703	2.75
876.44	2.75
877.177	1.75
877.914	2.75
878.651	0.75
879.387	1.75
880.124	2.75
880.86	1.75
881.597	2.75
882.333	0.75
883.069	2.75
883.806	-0.25
884.542	2.75
885.278	1.75
886.014	0.75
886.749	1.75
887.485	2.75
888.221	2.75
888.957	0.75
889.692	2.75
890.428	0.75
891.163	-1.25
891.899	2.75
892.634	0.75
893.369	0.75
894.104	2.75
894.839	-1.25
895.574	2.75
896.309	0.75
897.044	2.75
897.779	-1.25
898.514	1.75
899.248	2.75
899.983	0.75
900.717	1.75
901.452	-0.25
902.186	2.75
902.92	-1.25
903.654	2.75
904.389	1.75
905.123	2.75
905.857	-0.25
906.59	0.75
907.324	0.75
908.058	0.75
908.792	-0.25
909.525	2.75
910.259	0.75
910.992	2.75
911.726	2.75
912.459	1.75
913.192	1.75
913.925	-1.25
914.658	0.75
915.391	0.75
916.124	0.75
916.857	1.75
917.59	2.75
918.323	0.75
919.055	-1.25
919.788	3.75
920.521	1.75
921.253	2.75
921.985	2.75
922.718	1.75
923.45	1.75
924.182	0.75
924.914	0.75
925.646	-1.25
926.378	0.75
927.11	-1.25
927.841	0.75
928.573	1.75
929.305	-2.25
930.036	-1.25
930.768	-0.25
931.499	-0.25
932.23	1.75
932.962	3.75
933.693	-0.25
934.424	0.75
935.155	1.75
935.886	-0.25
936.617	-3.25
937.348	-0.25
938.078	1.75
938.809	-1.25
939.54	2.75
940.27	-1.25
941.001	2.75
941.731	-0.25
942.461	1.75
943.191	1.75
943.922	2.75
944.652	1.75
945.382	0.75
946.112	1.75
946.841	1.75
947.571	-0.25
948.301	1.75
949.031	-1.25
949.76	1.75
950.49	-1.25
951.219	0.75
951.948	1.75
952.678	1.75
953.407	-2.25
954.136	0.75
954.865	1.75
955.594	0.75
956.323	0.75
957.052	2.75
957.78	0.75
958.509	0.75
959.238	-0.25
959.966	2.75
960.695	0.75
961.423	0.75
962.151	0.75
962.88	1.75
963.608	2.75
964.336	-0.25
965.064	-0.25
965.792	0.75
966.52	-1.25
967.247	1.75
967.975	-1.25
968.703	0.75
969.43	0.75
970.158	1.75
970.885	-0.25
971.613	-1.25
972.34	2.75
973.067	-0.25
973.794	1.75
974.521	-1.25
975.248	0.75
975.975	1.75
976.702	-0.25
977.429	2.75
978.156	0.75
978.882	0.75
979.609	2.75
980.335	0.75
981.062	-1.25
981.788	-1.25
982.514	0.75
983.24	0.75
983.967	-0.25
984.693	1.75
985.419	1.75
986.144	0.75
986.87	-1.25
987.596	2.75
988.322	2.75
989.047	-0.25
989.773	0.75
990.498	1.75
991.224	2.75
991.949	-1.25
992.674	1.75
993.399	0.75
994.124	-1.25
994.849	2.75
995.574	-0.25
996.299	-0.25
997.024	0.75
997.749	-1.25
998.473	0.75
999.198	0.75
999.922	0.75
1000.647	0.75
1001.371	1.75
1002.095	-0.25
1002.82	0.75
1003.544	-0.25
1004.268	3.75
1004.992	2.75
1005.716	5.75
1006.439	2.75
1007.163	4.75
1007.887	3.75
1008.611	-0.25
1009.334	0.75
1010.058	0.75
1010.781	-0.25
1011.504	0.75
1012.228	0.75
1012.951	-0.25
1013.674	-2.25
1014.397	0.75
1015.12	-0.25
