节点500_425_QEPB04081__282__15-52-59-964.txt的数据

Date: Wed Nov 12 15:52:59 CST 2025
User: PC
Spectrometer: QEPB0408
触发模式: 0
积分时间 (秒): 1.000000E-2
Scans to average: 1
启用暗噪声校正: true
启用非线性校正: false
滑动平均宽度: 0
X轴模式: Wavelengths
Number of Pixels in Spectrum: 1044
>>>>>Begin Spectral Data<<<<<
220.843	5.75
221.644	3.75
222.444	3.75
223.244	4.75
224.045	2.75
224.845	4.75
225.645	5.75
226.445	3.75
227.245	5.75
228.045	5.75
228.845	3.75
229.645	4.75
230.444	2.75
231.244	4.75
232.043	2.75
232.843	6.75
233.642	7.75
234.442	7.75
235.241	5.75
236.04	5.75
236.839	8.75
237.638	5.75
238.437	6.75
239.236	5.75
240.035	4.75
240.833	6.75
241.632	7.75
242.43	4.75
243.229	7.75
244.027	7.75
244.826	8.75
245.624	8.75
246.422	9.75
247.22	6.75
248.018	9.75
248.816	9.75
249.614	8.75
250.412	7.75
251.21	9.75
252.007	8.75
252.805	10.75
253.602	12.75
254.4	14.75
255.197	11.75
255.994	9.75
256.791	15.75
257.589	12.75
258.386	15.75
259.183	12.75
259.979	12.75
260.776	14.75
261.573	15.75
262.37	14.75
263.166	13.75
263.963	17.75
264.759	16.75
265.556	16.75
266.352	20.75
267.148	20.75
267.944	17.75
268.74	20.75
269.536	20.75
270.332	18.75
271.128	20.75
271.924	21.75
272.719	21.75
273.515	22.75
274.311	20.75
275.106	26.75
275.901	23.75
276.697	22.75
277.492	23.75
278.287	24.75
279.082	25.75
279.877	21.75
280.672	22.75
281.467	28.75
282.262	24.75
283.056	26.75
283.851	23.75
284.646	28.75
285.44	27.75
286.234	24.75
287.029	26.75
287.823	24.75
288.617	24.75
289.411	24.75
290.205	25.75
290.999	27.75
291.793	25.75
292.587	24.75
293.381	22.75
294.174	22.75
294.968	19.75
295.761	19.75
296.555	18.75
297.348	19.75
298.141	18.75
298.935	22.75
299.728	18.75
300.521	18.75
301.314	16.75
302.107	18.75
302.899	16.75
303.692	19.75
304.485	16.75
305.277	18.75
306.07	17.75
306.862	14.75
307.655	14.75
308.447	15.75
309.239	16.75
310.031	14.75
310.823	13.75
311.615	14.75
312.407	14.75
313.199	14.75
313.991	11.75
314.783	13.75
315.574	12.75
316.366	10.75
317.157	11.75
317.949	11.75
318.74	9.75
319.531	9.75
320.322	8.75
321.113	12.75
321.904	9.75
322.695	8.75
323.486	9.75
324.277	9.75
325.068	11.75
325.858	10.75
326.649	10.75
327.439	8.75
328.23	8.75
329.02	7.75
329.81	8.75
330.6	11.75
331.391	8.75
332.181	8.75
332.971	10.75
333.76	9.75
334.55	10.75
335.34	11.75
336.13	10.75
336.919	6.75
337.709	10.75
338.498	7.75
339.287	9.75
340.077	10.75
340.866	7.75
341.655	10.75
342.444	9.75
343.233	9.75
344.022	7.75
344.811	10.75
345.6	8.75
346.388	8.75
347.177	9.75
347.965	8.75
348.754	8.75
349.542	10.75
350.33	10.75
351.119	10.75
351.907	7.75
352.695	8.75
353.483	9.75
354.271	8.75
355.059	8.75
355.846	5.75
356.634	8.75
357.422	7.75
358.209	8.75
358.997	8.75
359.784	6.75
360.571	7.75
361.359	7.75
362.146	7.75
362.933	9.75
363.72	5.75
364.507	5.75
365.294	7.75
366.081	6.75
366.867	7.75
367.654	5.75
368.44	6.75
369.227	4.75
370.013	9.75
370.8	7.75
371.586	7.75
372.372	5.75
373.158	7.75
373.944	5.75
374.73	8.75
375.516	7.75
376.302	7.75
377.088	6.75
377.873	7.75
378.659	6.75
379.445	8.75
380.23	7.75
381.015	7.75
381.801	8.75
382.586	8.75
383.371	8.75
384.156	8.75
384.941	8.75
385.726	8.75
386.511	8.75
387.296	6.75
388.08	9.75
388.865	11.75
389.649	9.75
390.434	10.75
391.218	8.75
392.003	8.75
392.787	8.75
393.571	6.75
394.355	5.75
395.139	8.75
395.923	9.75
396.707	10.75
397.491	5.75
398.274	9.75
399.058	10.75
399.842	9.75
400.625	9.75
401.408	6.75
402.192	10.75
402.975	8.75
403.758	10.75
404.541	9.75
405.324	12.75
406.107	11.75
406.89	9.75
407.673	10.75
408.456	10.75
409.238	12.75
410.021	12.75
410.803	12.75
411.586	13.75
412.368	12.75
413.151	11.75
413.933	13.75
414.715	13.75
415.497	13.75
416.279	11.75
417.061	13.75
417.843	8.75
418.624	15.75
419.406	14.75
420.188	14.75
420.969	14.75
421.751	15.75
422.532	14.75
423.313	17.75
424.095	18.75
424.876	17.75
425.657	14.75
426.438	20.75
427.219	15.75
428	19.75
428.78	19.75
429.561	22.75
430.342	18.75
431.122	22.75
431.903	23.75
432.683	18.75
433.464	23.75
434.244	21.75
435.024	27.75
435.804	26.75
436.584	25.75
437.364	28.75
438.144	30.75
438.924	31.75
439.704	33.75
440.483	33.75
441.263	36.75
442.042	39.75
442.822	40.75
443.601	44.75
444.38	45.75
445.16	46.75
445.939	51.75
446.718	56.75
447.497	63.75
448.276	66.75
449.054	72.75
449.833	76.75
450.612	88.75
451.391	91.75
452.169	101.75
452.948	114.75
453.726	125.75
454.504	139.75
455.282	153.75
456.061	171.75
456.839	183.75
457.617	212.75
458.395	230.75
459.172	253.75
459.95	290.75
460.728	319.75
461.506	358.75
462.283	397.75
463.061	442.75
463.838	500.75
464.615	556.75
465.393	615.75
466.17	689.75
466.947	764.75
467.724	849.75
468.501	948.75
469.278	1049.75
470.055	1168.75
470.831	1297.75
471.608	1433.75
472.385	1604.75
473.161	1762.75
473.938	1941.75
474.714	2153.75
475.49	2382.75
476.266	2609.75
477.043	2883.75
477.819	3185.75
478.595	3513.75
479.371	3854.75
480.146	4254.75
480.922	4634.75
481.698	5098.75
482.473	5584.75
483.249	6056.75
484.024	6680.75
484.8	7324.75
485.575	7966.75
486.35	8727.75
487.126	9535.75
487.901	10358.75
488.676	11298.75
489.451	12304.75
490.225	13366.75
491	14502.75
491.775	15721.75
492.55	16959.75
493.324	18277.75
494.099	19572.75
494.873	20909.75
495.647	22317.75
496.422	23744.75
497.196	25197.75
497.97	26735.75
498.744	28091.75
499.518	29483.75
500.292	30666.75
501.066	31786.75
501.839	32967.75
502.613	33888.75
503.387	34551.75
504.16	35063.75
504.934	35354.75
505.707	35433.75
506.48	35251.75
507.253	34946.75
508.027	34585.75
508.8	34074.75
509.573	33389.75
510.346	32489.75
511.118	31512.75
511.891	30551.75
512.664	29454.75
513.437	28188.75
514.209	27089.75
514.982	26077.75
515.754	24988.75
516.526	23962.75
517.298	22933.75
518.071	22019.75
518.843	21089.75
519.615	20209.75
520.387	19403.75
521.159	18648.75
521.93	17983.75
522.702	17254.75
523.474	16598.75
524.245	15969.75
525.017	15146.75
525.788	14471.75
526.56	13816.75
527.331	13178.75
528.102	12617.75
528.873	12004.75
529.644	11450.75
530.415	10884.75
531.186	10391.75
531.957	9824.75
532.728	9321.75
533.498	8778.75
534.269	8318.75
535.039	7851.75
535.81	7459.75
536.58	7035.75
537.351	6587.75
538.121	6236.75
538.891	5948.75
539.661	5640.75
540.431	5318.75
541.201	5012.75
541.971	4744.75
542.741	4517.75
543.51	4285.75
544.28	4084.75
545.05	3906.75
545.819	3695.75
546.588	3522.75
547.358	3327.75
548.127	3167.75
548.896	2991.75
549.665	2844.75
550.434	2700.75
551.203	2560.75
551.972	2430.75
552.741	2298.75
553.51	2169.75
554.278	2041.75
555.047	1930.75
555.815	1822.75
556.584	1721.75
557.352	1624.75
558.121	1525.75
558.889	1445.75
559.657	1375.75
560.425	1279.75
561.193	1213.75
561.961	1159.75
562.729	1100.75
563.496	1044.75
564.264	984.75
565.032	926.75
565.799	878.75
566.567	826.75
567.334	781.75
568.101	734.75
568.869	694.75
569.636	660.75
570.403	623.75
571.17	586.75
571.937	552.75
572.704	524.75
573.471	500.75
574.237	460.75
575.004	440.75
575.771	421.75
576.537	389.75
577.303	365.75
578.07	348.75
578.836	322.75
579.602	306.75
580.368	295.75
581.134	276.75
581.9	260.75
582.666	251.75
583.432	240.75
584.198	224.75
584.964	212.75
585.729	203.75
586.495	192.75
587.26	188.75
588.025	173.75
588.791	162.75
589.556	155.75
590.321	146.75
591.086	138.75
591.851	129.75
592.616	129.75
593.381	123.75
594.146	113.75
594.911	107.75
595.675	104.75
596.44	100.75
597.204	96.75
597.969	90.75
598.733	87.75
599.497	85.75
600.261	80.75
601.025	76.75
601.79	73.75
602.553	69.75
603.317	66.75
604.081	63.75
604.845	58.75
605.609	59.75
606.372	57.75
607.136	55.75
607.899	49.75
608.662	49.75
609.426	48.75
610.189	47.75
610.952	43.75
611.715	40.75
612.478	41.75
613.241	43.75
614.004	40.75
614.767	34.75
615.529	40.75
616.292	35.75
617.055	30.75
617.817	30.75
618.579	29.75
619.342	33.75
620.104	27.75
620.866	31.75
621.628	27.75
622.39	25.75
623.152	23.75
623.914	25.75
624.676	23.75
625.438	24.75
626.199	24.75
626.961	21.75
627.722	21.75
628.484	20.75
629.245	18.75
630.006	19.75
630.768	18.75
631.529	19.75
632.29	16.75
633.051	16.75
633.812	17.75
634.573	15.75
635.333	17.75
636.094	18.75
636.855	15.75
637.615	14.75
638.376	14.75
639.136	14.75
639.896	12.75
640.657	14.75
641.417	11.75
642.177	14.75
642.937	13.75
643.697	12.75
644.457	13.75
645.216	9.75
645.976	10.75
646.736	10.75
647.495	10.75
648.255	12.75
649.014	11.75
649.774	10.75
650.533	10.75
651.292	8.75
652.051	9.75
652.81	9.75
653.569	9.75
654.328	7.75
655.087	8.75
655.846	11.75
656.604	8.75
657.363	10.75
658.121	8.75
658.88	8.75
659.638	8.75
660.397	9.75
661.155	7.75
661.913	8.75
662.671	6.75
663.429	8.75
664.187	7.75
664.945	7.75
665.703	6.75
666.46	7.75
667.218	4.75
667.976	8.75
668.733	6.75
669.49	7.75
670.248	6.75
671.005	6.75
671.762	5.75
672.519	6.75
673.276	7.75
674.033	7.75
674.79	2.75
675.547	8.75
676.304	5.75
677.06	7.75
677.817	7.75
678.574	6.75
679.33	4.75
680.086	4.75
680.843	6.75
681.599	6.75
682.355	7.75
683.111	7.75
683.867	5.75
684.623	9.75
685.379	5.75
686.135	4.75
686.89	4.75
687.646	5.75
688.402	6.75
689.157	4.75
689.912	7.75
690.668	5.75
691.423	7.75
692.178	6.75
692.933	3.75
693.688	4.75
694.443	4.75
695.198	6.75
695.953	5.75
696.708	5.75
697.462	3.75
698.217	4.75
698.972	6.75
699.726	3.75
700.48	7.75
701.235	5.75
701.989	2.75
702.743	4.75
703.497	2.75
704.251	6.75
705.005	6.75
705.759	5.75
706.513	6.75
707.266	5.75
708.02	7.75
708.774	3.75
709.527	5.75
710.28	5.75
711.034	3.75
711.787	6.75
712.54	3.75
713.293	5.75
714.046	4.75
714.799	7.75
715.552	2.75
716.305	3.75
717.058	5.75
717.81	6.75
718.563	7.75
719.315	6.75
720.068	3.75
720.82	6.75
721.573	4.75
722.325	7.75
723.077	3.75
723.829	5.75
724.581	5.75
725.333	5.75
726.085	4.75
726.836	7.75
727.588	4.75
728.34	6.75
729.091	5.75
729.843	5.75
730.594	6.75
731.346	5.75
732.097	6.75
732.848	4.75
733.599	7.75
734.35	5.75
735.101	8.75
735.852	4.75
736.603	7.75
737.354	9.75
738.104	7.75
738.855	7.75
739.605	8.75
740.356	5.75
741.106	7.75
741.856	7.75
742.607	7.75
743.357	6.75
744.107	7.75
744.857	7.75
745.607	10.75
746.357	9.75
747.106	5.75
747.856	9.75
748.606	7.75
749.355	7.75
750.105	8.75
750.854	8.75
751.603	6.75
752.353	5.75
753.102	8.75
753.851	8.75
754.6	7.75
755.349	6.75
756.098	8.75
756.847	8.75
757.595	9.75
758.344	7.75
759.093	8.75
759.841	5.75
760.589	6.75
761.338	8.75
762.086	8.75
762.834	8.75
763.582	7.75
764.331	6.75
765.079	10.75
765.826	10.75
766.574	9.75
767.322	9.75
768.07	6.75
768.817	10.75
769.565	10.75
770.312	8.75
771.06	9.75
771.807	8.75
772.554	12.75
773.302	11.75
774.049	11.75
774.796	10.75
775.543	8.75
776.29	12.75
777.036	10.75
777.783	12.75
778.53	8.75
779.276	12.75
780.023	12.75
780.769	10.75
781.516	15.75
782.262	9.75
783.008	10.75
783.754	11.75
784.5	9.75
785.246	15.75
785.992	11.75
786.738	10.75
787.484	12.75
788.23	12.75
788.975	14.75
789.721	9.75
790.466	11.75
791.212	12.75
791.957	11.75
792.702	11.75
793.447	7.75
794.193	10.75
794.938	10.75
795.683	12.75
796.427	10.75
797.172	9.75
797.917	10.75
798.662	8.75
799.406	9.75
800.151	12.75
800.895	9.75
801.64	10.75
802.384	10.75
803.128	9.75
803.872	8.75
804.616	9.75
805.36	10.75
806.104	8.75
806.848	9.75
807.592	7.75
808.336	6.75
809.079	8.75
809.823	6.75
810.566	9.75
811.31	7.75
812.053	7.75
812.796	6.75
813.539	8.75
814.283	9.75
815.026	6.75
815.769	7.75
816.511	5.75
817.254	4.75
817.997	5.75
818.74	4.75
819.482	5.75
820.225	5.75
820.967	6.75
821.71	5.75
822.452	10.75
823.194	7.75
823.936	5.75
824.678	6.75
825.42	5.75
826.162	5.75
826.904	4.75
827.646	2.75
828.388	5.75
829.129	3.75
829.871	8.75
830.612	3.75
831.354	5.75
832.095	4.75
832.836	5.75
833.577	4.75
834.319	4.75
835.06	7.75
835.801	7.75
836.542	4.75
837.282	7.75
838.023	3.75
838.764	4.75
839.504	3.75
840.245	5.75
840.985	3.75
841.726	3.75
842.466	5.75
843.206	3.75
843.946	2.75
844.687	3.75
845.427	3.75
846.166	5.75
846.906	2.75
847.646	5.75
848.386	2.75
849.125	6.75
849.865	2.75
850.605	2.75
851.344	3.75
852.083	2.75
852.823	5.75
853.562	2.75
854.301	6.75
855.04	4.75
855.779	2.75
856.518	3.75
857.257	4.75
857.995	1.75
858.734	3.75
859.473	2.75
860.211	2.75
860.95	4.75
861.688	4.75
862.426	3.75
863.165	0.75
863.903	4.75
864.641	1.75
865.379	4.75
866.117	0.75
866.855	2.75
867.593	1.75
868.33	1.75
869.068	2.75
869.806	1.75
870.543	1.75
871.28	-0.25
872.018	1.75
872.755	4.75
873.492	0.75
874.229	2.75
874.967	-0.25
875.703	2.75
876.44	1.75
877.177	1.75
877.914	-0.25
878.651	0.75
879.387	1.75
880.124	2.75
880.86	0.75
881.597	0.75
882.333	0.75
883.069	3.75
883.806	2.75
884.542	2.75
885.278	-0.25
886.014	-1.25
886.749	4.75
887.485	0.75
888.221	0.75
888.957	0.75
889.692	2.75
890.428	2.75
891.163	1.75
891.899	0.75
892.634	0.75
893.369	2.75
894.104	1.75
894.839	1.75
895.574	1.75
896.309	-1.25
897.044	3.75
897.779	3.75
898.514	1.75
899.248	0.75
899.983	1.75
900.717	1.75
901.452	1.75
902.186	2.75
902.92	0.75
903.654	-0.25
904.389	1.75
905.123	-1.25
905.857	2.75
906.59	0.75
907.324	0.75
908.058	2.75
908.792	1.75
909.525	0.75
910.259	-0.25
910.992	2.75
911.726	0.75
912.459	0.75
913.192	2.75
913.925	0.75
914.658	-0.25
915.391	-0.25
916.124	-0.25
916.857	0.75
917.59	0.75
918.323	1.75
919.055	0.75
919.788	3.75
920.521	1.75
921.253	2.75
921.985	2.75
922.718	0.75
923.45	0.75
924.182	0.75
924.914	2.75
925.646	0.75
926.378	0.75
927.11	2.75
927.841	0.75
928.573	0.75
929.305	0.75
930.036	-0.25
930.768	0.75
931.499	0.75
932.23	1.75
932.962	2.75
933.693	1.75
934.424	0.75
935.155	-0.25
935.886	2.75
936.617	-1.25
937.348	0.75
938.078	-1.25
938.809	-0.25
939.54	-1.25
940.27	1.75
941.001	0.75
941.731	-1.25
942.461	1.75
943.191	2.75
943.922	-0.25
944.652	-0.25
945.382	-1.25
946.112	0.75
946.841	0.75
947.571	2.75
948.301	1.75
949.031	0.75
949.76	-0.25
950.49	0.75
951.219	0.75
951.948	1.75
952.678	-3.25
953.407	0.75
954.136	2.75
954.865	1.75
955.594	0.75
956.323	-0.25
957.052	0.75
957.78	-0.25
958.509	-0.25
959.238	-0.25
959.966	-0.25
960.695	0.75
961.423	2.75
962.151	-1.25
962.88	-0.25
963.608	0.75
964.336	-1.25
965.064	2.75
965.792	0.75
966.52	0.75
967.247	1.75
967.975	2.75
968.703	0.75
969.43	0.75
970.158	0.75
970.885	-0.25
971.613	-0.25
972.34	-0.25
973.067	-0.25
973.794	1.75
974.521	2.75
975.248	-0.25
975.975	1.75
976.702	-2.25
977.429	0.75
978.156	2.75
978.882	3.75
979.609	1.75
980.335	0.75
981.062	1.75
981.788	1.75
982.514	2.75
983.24	0.75
983.967	-1.25
984.693	1.75
985.419	0.75
986.144	2.75
986.87	-1.25
987.596	0.75
988.322	1.75
989.047	0.75
989.773	1.75
990.498	-0.25
991.224	1.75
991.949	1.75
992.674	0.75
993.399	-0.25
994.124	-1.25
994.849	0.75
995.574	-0.25
996.299	0.75
997.024	-1.25
997.749	-1.25
998.473	1.75
999.198	-0.25
999.922	1.75
1000.647	1.75
1001.371	5.75
1002.095	-3.25
1002.82	-1.25
1003.544	-1.25
1004.268	4.75
1004.992	1.75
1005.716	3.75
1006.439	2.75
1007.163	2.75
1007.887	-0.25
1008.611	1.75
1009.334	4.75
1010.058	0.75
1010.781	-0.25
1011.504	-0.25
1012.228	0.75
1012.951	0.75
1013.674	-0.25
1014.397	0.75
1015.12	-1.25
