节点500_425_QEPB04081__569__15-57-46-435.txt的数据

Date: Wed Nov 12 15:57:46 CST 2025
User: PC
Spectrometer: QEPB0408
触发模式: 0
积分时间 (秒): 1.000000E-2
Scans to average: 1
启用暗噪声校正: true
启用非线性校正: false
滑动平均宽度: 0
X轴模式: Wavelengths
Number of Pixels in Spectrum: 1044
>>>>>Begin Spectral Data<<<<<
220.843	3.25
221.644	3.25
222.444	1.25
223.244	5.25
224.045	2.25
224.845	2.25
225.645	2.25
226.445	4.25
227.245	2.25
228.045	2.25
228.845	4.25
229.645	2.25
230.444	5.25
231.244	6.25
232.043	4.25
232.843	5.25
233.642	4.25
234.442	6.25
235.241	2.25
236.04	5.25
236.839	7.25
237.638	7.25
238.437	6.25
239.236	4.25
240.035	6.25
240.833	7.25
241.632	6.25
242.43	8.25
243.229	4.25
244.027	6.25
244.826	7.25
245.624	7.25
246.422	7.25
247.22	8.25
248.018	6.25
248.816	8.25
249.614	10.25
250.412	7.25
251.21	8.25
252.007	8.25
252.805	10.25
253.602	11.25
254.4	8.25
255.197	7.25
255.994	12.25
256.791	13.25
257.589	11.25
258.386	14.25
259.183	10.25
259.979	11.25
260.776	12.25
261.573	12.25
262.37	14.25
263.166	13.25
263.963	14.25
264.759	15.25
265.556	13.25
266.352	17.25
267.148	18.25
267.944	17.25
268.74	17.25
269.536	18.25
270.332	16.25
271.128	21.25
271.924	17.25
272.719	20.25
273.515	18.25
274.311	20.25
275.106	22.25
275.901	22.25
276.697	23.25
277.492	21.25
278.287	19.25
279.082	22.25
279.877	22.25
280.672	24.25
281.467	22.25
282.262	21.25
283.056	25.25
283.851	23.25
284.646	24.25
285.44	21.25
286.234	23.25
287.029	21.25
287.823	22.25
288.617	23.25
289.411	22.25
290.205	22.25
290.999	22.25
291.793	24.25
292.587	19.25
293.381	21.25
294.174	22.25
294.968	19.25
295.761	19.25
296.555	17.25
297.348	21.25
298.141	19.25
298.935	24.25
299.728	17.25
300.521	20.25
301.314	19.25
302.107	16.25
302.899	18.25
303.692	18.25
304.485	16.25
305.277	16.25
306.07	17.25
306.862	16.25
307.655	17.25
308.447	15.25
309.239	14.25
310.031	16.25
310.823	13.25
311.615	12.25
312.407	14.25
313.199	13.25
313.991	12.25
314.783	13.25
315.574	11.25
316.366	12.25
317.157	13.25
317.949	8.25
318.74	11.25
319.531	9.25
320.322	11.25
321.113	9.25
321.904	13.25
322.695	11.25
323.486	9.25
324.277	9.25
325.068	10.25
325.858	8.25
326.649	9.25
327.439	11.25
328.23	7.25
329.02	8.25
329.81	10.25
330.6	7.25
331.391	10.25
332.181	10.25
332.971	8.25
333.76	8.25
334.55	7.25
335.34	9.25
336.13	8.25
336.919	8.25
337.709	10.25
338.498	10.25
339.287	8.25
340.077	6.25
340.866	10.25
341.655	7.25
342.444	8.25
343.233	10.25
344.022	7.25
344.811	8.25
345.6	10.25
346.388	8.25
347.177	7.25
347.965	8.25
348.754	7.25
349.542	6.25
350.33	6.25
351.119	6.25
351.907	7.25
352.695	7.25
353.483	7.25
354.271	8.25
355.059	7.25
355.846	7.25
356.634	7.25
357.422	8.25
358.209	5.25
358.997	6.25
359.784	8.25
360.571	5.25
361.359	7.25
362.146	9.25
362.933	6.25
363.72	7.25
364.507	5.25
365.294	6.25
366.081	7.25
366.867	8.25
367.654	4.25
368.44	4.25
369.227	6.25
370.013	8.25
370.8	5.25
371.586	7.25
372.372	3.25
373.158	7.25
373.944	8.25
374.73	7.25
375.516	6.25
376.302	5.25
377.088	6.25
377.873	4.25
378.659	8.25
379.445	6.25
380.23	7.25
381.015	7.25
381.801	8.25
382.586	7.25
383.371	9.25
384.156	9.25
384.941	5.25
385.726	7.25
386.511	7.25
387.296	6.25
388.08	6.25
388.865	7.25
389.649	8.25
390.434	7.25
391.218	9.25
392.003	5.25
392.787	8.25
393.571	8.25
394.355	7.25
395.139	7.25
395.923	6.25
396.707	8.25
397.491	8.25
398.274	9.25
399.058	11.25
399.842	9.25
400.625	6.25
401.408	10.25
402.192	11.25
402.975	10.25
403.758	9.25
404.541	10.25
405.324	7.25
406.107	8.25
406.89	9.25
407.673	9.25
408.456	10.25
409.238	11.25
410.021	9.25
410.803	9.25
411.586	11.25
412.368	10.25
413.151	13.25
413.933	10.25
414.715	10.25
415.497	10.25
416.279	12.25
417.061	12.25
417.843	12.25
418.624	11.25
419.406	12.25
420.188	12.25
420.969	13.25
421.751	13.25
422.532	16.25
423.313	15.25
424.095	14.25
424.876	12.25
425.657	14.25
426.438	17.25
427.219	17.25
428	15.25
428.78	17.25
429.561	18.25
430.342	18.25
431.122	22.25
431.903	20.25
432.683	21.25
433.464	20.25
434.244	21.25
435.024	30.25
435.804	26.25
436.584	27.25
437.364	28.25
438.144	30.25
438.924	31.25
439.704	34.25
440.483	36.25
441.263	35.25
442.042	39.25
442.822	42.25
443.601	42.25
444.38	47.25
445.16	50.25
445.939	54.25
446.718	59.25
447.497	66.25
448.276	68.25
449.054	76.25
449.833	84.25
450.612	91.25
451.391	99.25
452.169	109.25
452.948	125.25
453.726	138.25
454.504	151.25
455.282	164.25
456.061	189.25
456.839	207.25
457.617	226.25
458.395	252.25
459.172	281.25
459.95	318.25
460.728	348.25
461.506	393.25
462.283	435.25
463.061	484.25
463.838	533.25
464.615	595.25
465.393	659.25
466.17	729.25
466.947	810.25
467.724	904.25
468.501	998.25
469.278	1105.25
470.055	1214.25
470.831	1348.25
471.608	1483.25
472.385	1613.25
473.161	1789.25
473.938	1964.25
474.714	2168.25
475.49	2373.25
476.266	2584.25
477.043	2854.25
477.819	3138.25
478.595	3415.25
479.371	3725.25
480.146	4068.25
480.922	4430.25
481.698	4801.25
482.473	5284.25
483.249	5705.25
484.024	6242.25
484.8	6831.25
485.575	7333.25
486.35	7970.25
487.126	8670.25
487.901	9358.25
488.676	10146.25
489.451	10971.25
490.225	11811.25
491	12820.25
491.775	13800.25
492.55	14862.25
493.324	15945.25
494.099	17043.25
494.873	18166.25
495.647	19401.25
496.422	20572.25
497.196	21907.25
497.97	23229.25
498.744	24424.25
499.518	25715.25
500.292	26877.25
501.066	27935.25
501.839	29024.25
502.613	30073.25
503.387	30836.25
504.16	31559.25
504.934	32061.25
505.707	32389.25
506.48	32463.25
507.253	32498.25
508.027	32525.25
508.8	32260.25
509.573	31821.25
510.346	31309.25
511.118	30577.25
511.891	29932.25
512.664	28988.25
513.437	28056.25
514.209	27112.25
514.982	26233.25
515.754	25236.25
516.526	24309.25
517.298	23243.25
518.071	22378.25
518.843	21465.25
519.615	20608.25
520.387	19747.25
521.159	19001.25
521.93	18326.25
522.702	17548.25
523.474	16961.25
524.245	16265.25
525.017	15545.25
525.788	14808.25
526.56	14208.25
527.331	13633.25
528.102	13000.25
528.873	12420.25
529.644	11864.25
530.415	11353.25
531.186	10826.25
531.957	10314.25
532.728	9787.25
533.498	9244.25
534.269	8750.25
535.039	8317.25
535.81	7902.25
536.58	7427.25
537.351	7031.25
538.121	6663.25
538.891	6294.25
539.661	5985.25
540.431	5682.25
541.201	5356.25
541.971	5053.25
542.741	4811.25
543.51	4570.25
544.28	4346.25
545.05	4157.25
545.819	3942.25
546.588	3762.25
547.358	3521.25
548.127	3389.25
548.896	3206.25
549.665	3040.25
550.434	2920.25
551.203	2743.25
551.972	2605.25
552.741	2466.25
553.51	2338.25
554.278	2216.25
555.047	2103.25
555.815	1982.25
556.584	1883.25
557.352	1748.25
558.121	1660.25
558.889	1566.25
559.657	1500.25
560.425	1405.25
561.193	1330.25
561.961	1256.25
562.729	1197.25
563.496	1136.25
564.264	1071.25
565.032	1006.25
565.799	950.25
566.567	910.25
567.334	854.25
568.101	806.25
568.869	762.25
569.636	716.25
570.403	675.25
571.17	637.25
571.937	597.25
572.704	572.25
573.471	536.25
574.237	506.25
575.004	473.25
575.771	441.25
576.537	424.25
577.303	402.25
578.07	378.25
578.836	353.25
579.602	326.25
580.368	315.25
581.134	296.25
581.9	288.25
582.666	273.25
583.432	259.25
584.198	242.25
584.964	233.25
585.729	217.25
586.495	205.25
587.26	197.25
588.025	193.25
588.791	176.25
589.556	168.25
590.321	158.25
591.086	155.25
591.851	148.25
592.616	132.25
593.381	128.25
594.146	119.25
594.911	121.25
595.675	109.25
596.44	109.25
597.204	102.25
597.969	104.25
598.733	92.25
599.497	91.25
600.261	85.25
601.025	80.25
601.79	78.25
602.553	73.25
603.317	71.25
604.081	66.25
604.845	66.25
605.609	66.25
606.372	59.25
607.136	58.25
607.899	58.25
608.662	53.25
609.426	54.25
610.189	50.25
610.952	46.25
611.715	46.25
612.478	41.25
613.241	42.25
614.004	40.25
614.767	40.25
615.529	38.25
616.292	37.25
617.055	35.25
617.817	32.25
618.579	30.25
619.342	32.25
620.104	29.25
620.866	29.25
621.628	28.25
622.39	31.25
623.152	25.25
623.914	28.25
624.676	26.25
625.438	24.25
626.199	24.25
626.961	24.25
627.722	22.25
628.484	22.25
629.245	20.25
630.006	22.25
630.768	18.25
631.529	20.25
632.29	19.25
633.051	18.25
633.812	17.25
634.573	16.25
635.333	17.25
636.094	16.25
636.855	16.25
637.615	15.25
638.376	14.25
639.136	13.25
639.896	12.25
640.657	13.25
641.417	12.25
642.177	14.25
642.937	13.25
643.697	10.25
644.457	14.25
645.216	12.25
645.976	14.25
646.736	10.25
647.495	11.25
648.255	9.25
649.014	10.25
649.774	8.25
650.533	10.25
651.292	7.25
652.051	10.25
652.81	11.25
653.569	10.25
654.328	8.25
655.087	10.25
655.846	7.25
656.604	8.25
657.363	9.25
658.121	6.25
658.88	10.25
659.638	9.25
660.397	8.25
661.155	7.25
661.913	7.25
662.671	7.25
663.429	8.25
664.187	9.25
664.945	4.25
665.703	6.25
666.46	7.25
667.218	5.25
667.976	6.25
668.733	8.25
669.49	6.25
670.248	5.25
671.005	6.25
671.762	5.25
672.519	9.25
673.276	7.25
674.033	7.25
674.79	5.25
675.547	6.25
676.304	5.25
677.06	6.25
677.817	8.25
678.574	3.25
679.33	5.25
680.086	6.25
680.843	7.25
681.599	6.25
682.355	5.25
683.111	4.25
683.867	5.25
684.623	6.25
685.379	4.25
686.135	7.25
686.89	6.25
687.646	6.25
688.402	6.25
689.157	5.25
689.912	7.25
690.668	4.25
691.423	5.25
692.178	4.25
692.933	4.25
693.688	5.25
694.443	2.25
695.198	7.25
695.953	5.25
696.708	3.25
697.462	5.25
698.217	5.25
698.972	8.25
699.726	4.25
700.48	6.25
701.235	4.25
701.989	6.25
702.743	4.25
703.497	5.25
704.251	5.25
705.005	5.25
705.759	5.25
706.513	3.25
707.266	5.25
708.02	5.25
708.774	5.25
709.527	5.25
710.28	5.25
711.034	4.25
711.787	3.25
712.54	4.25
713.293	5.25
714.046	3.25
714.799	5.25
715.552	5.25
716.305	5.25
717.058	5.25
717.81	5.25
718.563	4.25
719.315	5.25
720.068	4.25
720.82	5.25
721.573	4.25
722.325	6.25
723.077	3.25
723.829	2.25
724.581	6.25
725.333	4.25
726.085	4.25
726.836	4.25
727.588	7.25
728.34	3.25
729.091	5.25
729.843	5.25
730.594	5.25
731.346	5.25
732.097	3.25
732.848	4.25
733.599	4.25
734.35	4.25
735.101	4.25
735.852	6.25
736.603	4.25
737.354	6.25
738.104	7.25
738.855	6.25
739.605	5.25
740.356	4.25
741.106	7.25
741.856	7.25
742.607	8.25
743.357	5.25
744.107	7.25
744.857	6.25
745.607	7.25
746.357	5.25
747.106	5.25
747.856	5.25
748.606	5.25
749.355	7.25
750.105	4.25
750.854	6.25
751.603	8.25
752.353	6.25
753.102	7.25
753.851	7.25
754.6	8.25
755.349	5.25
756.098	6.25
756.847	6.25
757.595	6.25
758.344	9.25
759.093	6.25
759.841	8.25
760.589	7.25
761.338	8.25
762.086	5.25
762.834	8.25
763.582	10.25
764.331	7.25
765.079	9.25
765.826	7.25
766.574	7.25
767.322	7.25
768.07	8.25
768.817	7.25
769.565	9.25
770.312	10.25
771.06	11.25
771.807	7.25
772.554	8.25
773.302	8.25
774.049	10.25
774.796	8.25
775.543	10.25
776.29	10.25
777.036	10.25
777.783	8.25
778.53	10.25
779.276	12.25
780.023	9.25
780.769	10.25
781.516	12.25
782.262	7.25
783.008	10.25
783.754	10.25
784.5	7.25
785.246	8.25
785.992	12.25
786.738	11.25
787.484	12.25
788.23	8.25
788.975	11.25
789.721	11.25
790.466	9.25
791.212	7.25
791.957	8.25
792.702	8.25
793.447	9.25
794.193	11.25
794.938	7.25
795.683	9.25
796.427	10.25
797.172	8.25
797.917	10.25
798.662	7.25
799.406	11.25
800.151	8.25
800.895	7.25
801.64	8.25
802.384	7.25
803.128	10.25
803.872	5.25
804.616	8.25
805.36	9.25
806.104	9.25
806.848	9.25
807.592	8.25
808.336	7.25
809.079	7.25
809.823	7.25
810.566	6.25
811.31	7.25
812.053	7.25
812.796	8.25
813.539	7.25
814.283	8.25
815.026	5.25
815.769	7.25
816.511	6.25
817.254	8.25
817.997	4.25
818.74	4.25
819.482	6.25
820.225	5.25
820.967	6.25
821.71	6.25
822.452	5.25
823.194	5.25
823.936	7.25
824.678	5.25
825.42	4.25
826.162	4.25
826.904	3.25
827.646	4.25
828.388	3.25
829.129	4.25
829.871	6.25
830.612	5.25
831.354	5.25
832.095	4.25
832.836	5.25
833.577	4.25
834.319	2.25
835.06	6.25
835.801	7.25
836.542	5.25
837.282	4.25
838.023	4.25
838.764	4.25
839.504	5.25
840.245	5.25
840.985	6.25
841.726	3.25
842.466	5.25
843.206	5.25
843.946	5.25
844.687	1.25
845.427	2.25
846.166	0.25
846.906	6.25
847.646	4.25
848.386	2.25
849.125	4.25
849.865	3.25
850.605	3.25
851.344	3.25
852.083	3.25
852.823	2.25
853.562	3.25
854.301	3.25
855.04	3.25
855.779	2.25
856.518	2.25
857.257	3.25
857.995	2.25
858.734	2.25
859.473	1.25
860.211	4.25
860.95	1.25
861.688	4.25
862.426	2.25
863.165	3.25
863.903	1.25
864.641	2.25
865.379	0.25
866.117	2.25
866.855	4.25
867.593	2.25
868.33	4.25
869.068	0.25
869.806	1.25
870.543	2.25
871.28	1.25
872.018	2.25
872.755	2.25
873.492	1.25
874.229	3.25
874.967	1.25
875.703	2.25
876.44	2.25
877.177	2.25
877.914	0.25
878.651	0.25
879.387	3.25
880.124	1.25
880.86	2.25
881.597	0.25
882.333	2.25
883.069	2.25
883.806	0.25
884.542	0.25
885.278	0.25
886.014	1.25
886.749	2.25
887.485	1.25
888.221	1.25
888.957	1.25
889.692	2.25
890.428	2.25
891.163	0.25
891.899	0.25
892.634	-1.75
893.369	2.25
894.104	2.25
894.839	1.25
895.574	-0.75
896.309	-1.75
897.044	-1.75
897.779	-0.75
898.514	0.25
899.248	0.25
899.983	1.25
900.717	1.25
901.452	0.25
902.186	3.25
902.92	0.25
903.654	1.25
904.389	1.25
905.123	-1.75
905.857	2.25
906.59	-0.75
907.324	1.25
908.058	1.25
908.792	-0.75
909.525	-0.75
910.259	0.25
910.992	1.25
911.726	2.25
912.459	-0.75
913.192	1.25
913.925	0.25
914.658	-0.75
915.391	-2.75
916.124	2.25
916.857	0.25
917.59	0.25
918.323	-2.75
919.055	-0.75
919.788	0.25
920.521	-0.75
921.253	1.25
921.985	2.25
922.718	-0.75
923.45	-0.75
924.182	-3.75
924.914	-0.75
925.646	-0.75
926.378	0.25
927.11	1.25
927.841	1.25
928.573	1.25
929.305	0.25
930.036	1.25
930.768	0.25
931.499	1.25
932.23	0.25
932.962	-0.75
933.693	1.25
934.424	-0.75
935.155	-0.75
935.886	0.25
936.617	-1.75
937.348	-0.75
938.078	1.25
938.809	-0.75
939.54	0.25
940.27	-0.75
941.001	2.25
941.731	0.25
942.461	2.25
943.191	0.25
943.922	-1.75
944.652	2.25
945.382	0.25
946.112	-0.75
946.841	-1.75
947.571	-1.75
948.301	-0.75
949.031	-1.75
949.76	1.25
950.49	-0.75
951.219	1.25
951.948	0.25
952.678	-1.75
953.407	0.25
954.136	0.25
954.865	0.25
955.594	-0.75
956.323	0.25
957.052	-0.75
957.78	0.25
958.509	2.25
959.238	0.25
959.966	0.25
960.695	0.25
961.423	1.25
962.151	1.25
962.88	1.25
963.608	0.25
964.336	0.25
965.064	0.25
965.792	2.25
966.52	0.25
967.247	2.25
967.975	0.25
968.703	0.25
969.43	3.25
970.158	2.25
970.885	1.25
971.613	0.25
972.34	1.25
973.067	-0.75
973.794	1.25
974.521	1.25
975.248	0.25
975.975	0.25
976.702	1.25
977.429	0.25
978.156	-0.75
978.882	2.25
979.609	-0.75
980.335	0.25
981.062	0.25
981.788	0.25
982.514	1.25
983.24	-0.75
983.967	-0.75
984.693	1.25
985.419	-1.75
986.144	3.25
986.87	0.25
987.596	0.25
988.322	1.25
989.047	0.25
989.773	0.25
990.498	0.25
991.224	0.25
991.949	4.25
992.674	0.25
993.399	0.25
994.124	-1.75
994.849	-1.75
995.574	-0.75
996.299	1.25
997.024	-0.75
997.749	-0.75
998.473	1.25
999.198	1.25
999.922	-1.75
1000.647	1.25
1001.371	4.25
1002.095	0.25
1002.82	-2.75
1003.544	-0.75
1004.268	2.25
1004.992	1.25
1005.716	2.25
1006.439	0.25
1007.163	-0.75
1007.887	1.25
1008.611	1.25
1009.334	-0.75
1010.058	-0.75
1010.781	1.25
1011.504	0.25
1012.228	-0.75
1012.951	-0.75
1013.674	-0.75
1014.397	0.25
1015.12	0.25
