节点500_425_QEPB04081__513__15-56-50-589.txt的数据

Date: Wed Nov 12 15:56:50 CST 2025
User: PC
Spectrometer: QEPB0408
触发模式: 0
积分时间 (秒): 1.000000E-2
Scans to average: 1
启用暗噪声校正: true
启用非线性校正: false
滑动平均宽度: 0
X轴模式: Wavelengths
Number of Pixels in Spectrum: 1044
>>>>>Begin Spectral Data<<<<<
220.843	3.12
221.644	2.12
222.444	4.12
223.244	4.12
224.045	2.12
224.845	5.12
225.645	5.12
226.445	1.12
227.245	2.12
228.045	3.12
228.845	4.12
229.645	4.12
230.444	3.12
231.244	3.12
232.043	7.12
232.843	6.12
233.642	5.12
234.442	7.12
235.241	4.12
236.04	7.12
236.839	5.12
237.638	3.12
238.437	6.12
239.236	5.12
240.035	3.12
240.833	7.12
241.632	8.12
242.43	6.12
243.229	6.12
244.027	7.12
244.826	8.12
245.624	9.12
246.422	9.12
247.22	9.12
248.018	9.12
248.816	8.12
249.614	9.12
250.412	8.12
251.21	7.12
252.007	7.12
252.805	8.12
253.602	12.12
254.4	11.12
255.197	8.12
255.994	10.12
256.791	10.12
257.589	12.12
258.386	11.12
259.183	12.12
259.979	10.12
260.776	12.12
261.573	14.12
262.37	14.12
263.166	16.12
263.963	12.12
264.759	16.12
265.556	16.12
266.352	16.12
267.148	17.12
267.944	17.12
268.74	18.12
269.536	16.12
270.332	18.12
271.128	19.12
271.924	20.12
272.719	18.12
273.515	17.12
274.311	19.12
275.106	20.12
275.901	22.12
276.697	22.12
277.492	20.12
278.287	21.12
279.082	22.12
279.877	21.12
280.672	19.12
281.467	25.12
282.262	22.12
283.056	21.12
283.851	23.12
284.646	22.12
285.44	24.12
286.234	24.12
287.029	26.12
287.823	24.12
288.617	24.12
289.411	21.12
290.205	22.12
290.999	22.12
291.793	23.12
292.587	21.12
293.381	22.12
294.174	23.12
294.968	21.12
295.761	17.12
296.555	18.12
297.348	20.12
298.141	20.12
298.935	20.12
299.728	19.12
300.521	17.12
301.314	19.12
302.107	18.12
302.899	18.12
303.692	17.12
304.485	16.12
305.277	16.12
306.07	17.12
306.862	15.12
307.655	16.12
308.447	17.12
309.239	14.12
310.031	16.12
310.823	13.12
311.615	12.12
312.407	12.12
313.199	13.12
313.991	10.12
314.783	11.12
315.574	10.12
316.366	13.12
317.157	11.12
317.949	12.12
318.74	11.12
319.531	9.12
320.322	9.12
321.113	11.12
321.904	11.12
322.695	10.12
323.486	11.12
324.277	9.12
325.068	8.12
325.858	8.12
326.649	9.12
327.439	9.12
328.23	9.12
329.02	9.12
329.81	8.12
330.6	8.12
331.391	10.12
332.181	7.12
332.971	6.12
333.76	7.12
334.55	7.12
335.34	7.12
336.13	10.12
336.919	9.12
337.709	8.12
338.498	7.12
339.287	10.12
340.077	6.12
340.866	8.12
341.655	9.12
342.444	7.12
343.233	7.12
344.022	10.12
344.811	10.12
345.6	8.12
346.388	9.12
347.177	7.12
347.965	6.12
348.754	9.12
349.542	7.12
350.33	7.12
351.119	9.12
351.907	9.12
352.695	8.12
353.483	7.12
354.271	7.12
355.059	7.12
355.846	7.12
356.634	6.12
357.422	6.12
358.209	9.12
358.997	8.12
359.784	9.12
360.571	6.12
361.359	7.12
362.146	8.12
362.933	8.12
363.72	7.12
364.507	6.12
365.294	8.12
366.081	7.12
366.867	6.12
367.654	5.12
368.44	6.12
369.227	7.12
370.013	6.12
370.8	4.12
371.586	6.12
372.372	5.12
373.158	6.12
373.944	8.12
374.73	7.12
375.516	6.12
376.302	3.12
377.088	5.12
377.873	4.12
378.659	9.12
379.445	5.12
380.23	6.12
381.015	5.12
381.801	7.12
382.586	9.12
383.371	10.12
384.156	8.12
384.941	7.12
385.726	5.12
386.511	9.12
387.296	5.12
388.08	6.12
388.865	8.12
389.649	6.12
390.434	9.12
391.218	8.12
392.003	7.12
392.787	9.12
393.571	10.12
394.355	6.12
395.139	7.12
395.923	6.12
396.707	8.12
397.491	8.12
398.274	8.12
399.058	8.12
399.842	10.12
400.625	9.12
401.408	9.12
402.192	9.12
402.975	10.12
403.758	9.12
404.541	7.12
405.324	7.12
406.107	9.12
406.89	8.12
407.673	8.12
408.456	11.12
409.238	9.12
410.021	11.12
410.803	10.12
411.586	12.12
412.368	11.12
413.151	10.12
413.933	11.12
414.715	10.12
415.497	13.12
416.279	10.12
417.061	14.12
417.843	11.12
418.624	10.12
419.406	13.12
420.188	14.12
420.969	12.12
421.751	16.12
422.532	13.12
423.313	13.12
424.095	17.12
424.876	16.12
425.657	17.12
426.438	14.12
427.219	14.12
428	17.12
428.78	18.12
429.561	15.12
430.342	19.12
431.122	20.12
431.903	18.12
432.683	21.12
433.464	22.12
434.244	23.12
435.024	26.12
435.804	28.12
436.584	26.12
437.364	26.12
438.144	29.12
438.924	32.12
439.704	32.12
440.483	31.12
441.263	34.12
442.042	41.12
442.822	42.12
443.601	46.12
444.38	47.12
445.16	53.12
445.939	54.12
446.718	61.12
447.497	62.12
448.276	70.12
449.054	78.12
449.833	82.12
450.612	88.12
451.391	100.12
452.169	110.12
452.948	119.12
453.726	133.12
454.504	145.12
455.282	167.12
456.061	183.12
456.839	201.12
457.617	223.12
458.395	252.12
459.172	281.12
459.95	309.12
460.728	342.12
461.506	383.12
462.283	428.12
463.061	473.12
463.838	531.12
464.615	585.12
465.393	658.12
466.17	725.12
466.947	802.12
467.724	893.12
468.501	1002.12
469.278	1090.12
470.055	1211.12
470.831	1331.12
471.608	1482.12
472.385	1628.12
473.161	1788.12
473.938	1970.12
474.714	2152.12
475.49	2374.12
476.266	2599.12
477.043	2844.12
477.819	3141.12
478.595	3425.12
479.371	3757.12
480.146	4096.12
480.922	4462.12
481.698	4877.12
482.473	5316.12
483.249	5798.12
484.024	6310.12
484.8	6882.12
485.575	7426.12
486.35	8115.12
487.126	8792.12
487.901	9539.12
488.676	10357.12
489.451	11221.12
490.225	12072.12
491	13124.12
491.775	14189.12
492.55	15259.12
493.324	16338.12
494.099	17480.12
494.873	18669.12
495.647	19910.12
496.422	21160.12
497.196	22491.12
497.97	23800.12
498.744	25082.12
499.518	26440.12
500.292	27524.12
501.066	28619.12
501.839	29760.12
502.613	30707.12
503.387	31527.12
504.16	32217.12
504.934	32625.12
505.707	32891.12
506.48	33009.12
507.253	32996.12
508.027	32829.12
508.8	32597.12
509.573	32117.12
510.346	31547.12
511.118	30793.12
511.891	29991.12
512.664	29125.12
513.437	28190.12
514.209	27184.12
514.982	26198.12
515.754	25251.12
516.526	24217.12
517.298	23223.12
518.071	22317.12
518.843	21424.12
519.615	20493.12
520.387	19739.12
521.159	18988.12
521.93	18234.12
522.702	17490.12
523.474	16851.12
524.245	16185.12
525.017	15497.12
525.788	14754.12
526.56	14149.12
527.331	13484.12
528.102	12915.12
528.873	12373.12
529.644	11794.12
530.415	11260.12
531.186	10746.12
531.957	10201.12
532.728	9714.12
533.498	9176.12
534.269	8694.12
535.039	8250.12
535.81	7818.12
536.58	7401.12
537.351	6965.12
538.121	6570.12
538.891	6205.12
539.661	5911.12
540.431	5608.12
541.201	5311.12
541.971	5029.12
542.741	4776.12
543.51	4520.12
544.28	4308.12
545.05	4089.12
545.819	3884.12
546.588	3709.12
547.358	3506.12
548.127	3350.12
548.896	3143.12
549.665	3007.12
550.434	2861.12
551.203	2729.12
551.972	2588.12
552.741	2427.12
553.51	2316.12
554.278	2178.12
555.047	2057.12
555.815	1955.12
556.584	1845.12
557.352	1729.12
558.121	1636.12
558.889	1550.12
559.657	1463.12
560.425	1373.12
561.193	1307.12
561.961	1254.12
562.729	1170.12
563.496	1113.12
564.264	1041.12
565.032	998.12
565.799	937.12
566.567	880.12
567.334	836.12
568.101	794.12
568.869	741.12
569.636	709.12
570.403	659.12
571.17	625.12
571.937	592.12
572.704	571.12
573.471	532.12
574.237	495.12
575.004	469.12
575.771	450.12
576.537	419.12
577.303	386.12
578.07	365.12
578.836	344.12
579.602	326.12
580.368	308.12
581.134	290.12
581.9	284.12
582.666	264.12
583.432	243.12
584.198	240.12
584.964	230.12
585.729	217.12
586.495	204.12
587.26	192.12
588.025	185.12
588.791	170.12
589.556	171.12
590.321	155.12
591.086	149.12
591.851	140.12
592.616	132.12
593.381	132.12
594.146	121.12
594.911	117.12
595.675	112.12
596.44	103.12
597.204	102.12
597.969	98.12
598.733	94.12
599.497	88.12
600.261	83.12
601.025	82.12
601.79	76.12
602.553	70.12
603.317	71.12
604.081	68.12
604.845	62.12
605.609	60.12
606.372	62.12
607.136	56.12
607.899	54.12
608.662	52.12
609.426	50.12
610.189	50.12
610.952	46.12
611.715	46.12
612.478	43.12
613.241	42.12
614.004	39.12
614.767	38.12
615.529	39.12
616.292	36.12
617.055	37.12
617.817	34.12
618.579	28.12
619.342	33.12
620.104	29.12
620.866	30.12
621.628	28.12
622.39	28.12
623.152	24.12
623.914	25.12
624.676	24.12
625.438	22.12
626.199	23.12
626.961	20.12
627.722	21.12
628.484	20.12
629.245	21.12
630.006	20.12
630.768	19.12
631.529	17.12
632.29	19.12
633.051	16.12
633.812	15.12
634.573	14.12
635.333	16.12
636.094	17.12
636.855	14.12
637.615	13.12
638.376	14.12
639.136	14.12
639.896	13.12
640.657	14.12
641.417	14.12
642.177	10.12
642.937	13.12
643.697	9.12
644.457	12.12
645.216	12.12
645.976	12.12
646.736	11.12
647.495	8.12
648.255	13.12
649.014	11.12
649.774	10.12
650.533	9.12
651.292	11.12
652.051	10.12
652.81	8.12
653.569	5.12
654.328	10.12
655.087	10.12
655.846	9.12
656.604	8.12
657.363	8.12
658.121	8.12
658.88	9.12
659.638	9.12
660.397	7.12
661.155	6.12
661.913	7.12
662.671	8.12
663.429	8.12
664.187	7.12
664.945	6.12
665.703	5.12
666.46	7.12
667.218	6.12
667.976	9.12
668.733	7.12
669.49	5.12
670.248	6.12
671.005	6.12
671.762	5.12
672.519	4.12
673.276	6.12
674.033	8.12
674.79	6.12
675.547	5.12
676.304	7.12
677.06	6.12
677.817	7.12
678.574	5.12
679.33	7.12
680.086	5.12
680.843	6.12
681.599	4.12
682.355	5.12
683.111	5.12
683.867	5.12
684.623	5.12
685.379	6.12
686.135	5.12
686.89	5.12
687.646	5.12
688.402	2.12
689.157	4.12
689.912	6.12
690.668	5.12
691.423	5.12
692.178	3.12
692.933	3.12
693.688	6.12
694.443	3.12
695.198	5.12
695.953	4.12
696.708	5.12
697.462	5.12
698.217	4.12
698.972	6.12
699.726	4.12
700.48	2.12
701.235	2.12
701.989	4.12
702.743	4.12
703.497	4.12
704.251	6.12
705.005	6.12
705.759	6.12
706.513	2.12
707.266	5.12
708.02	8.12
708.774	3.12
709.527	5.12
710.28	6.12
711.034	5.12
711.787	4.12
712.54	5.12
713.293	4.12
714.046	6.12
714.799	4.12
715.552	4.12
716.305	4.12
717.058	6.12
717.81	4.12
718.563	6.12
719.315	4.12
720.068	5.12
720.82	5.12
721.573	3.12
722.325	5.12
723.077	5.12
723.829	3.12
724.581	6.12
725.333	4.12
726.085	5.12
726.836	3.12
727.588	3.12
728.34	3.12
729.091	3.12
729.843	7.12
730.594	4.12
731.346	6.12
732.097	4.12
732.848	8.12
733.599	6.12
734.35	5.12
735.101	4.12
735.852	5.12
736.603	7.12
737.354	6.12
738.104	6.12
738.855	5.12
739.605	6.12
740.356	5.12
741.106	5.12
741.856	6.12
742.607	4.12
743.357	7.12
744.107	5.12
744.857	6.12
745.607	7.12
746.357	6.12
747.106	7.12
747.856	7.12
748.606	6.12
749.355	7.12
750.105	7.12
750.854	6.12
751.603	5.12
752.353	5.12
753.102	4.12
753.851	8.12
754.6	9.12
755.349	7.12
756.098	6.12
756.847	8.12
757.595	7.12
758.344	7.12
759.093	6.12
759.841	8.12
760.589	9.12
761.338	8.12
762.086	7.12
762.834	8.12
763.582	8.12
764.331	9.12
765.079	8.12
765.826	9.12
766.574	9.12
767.322	8.12
768.07	10.12
768.817	11.12
769.565	9.12
770.312	10.12
771.06	7.12
771.807	10.12
772.554	9.12
773.302	9.12
774.049	8.12
774.796	11.12
775.543	8.12
776.29	11.12
777.036	9.12
777.783	11.12
778.53	10.12
779.276	10.12
780.023	10.12
780.769	10.12
781.516	10.12
782.262	10.12
783.008	7.12
783.754	10.12
784.5	10.12
785.246	14.12
785.992	8.12
786.738	9.12
787.484	9.12
788.23	11.12
788.975	10.12
789.721	10.12
790.466	12.12
791.212	7.12
791.957	9.12
792.702	12.12
793.447	9.12
794.193	11.12
794.938	8.12
795.683	10.12
796.427	9.12
797.172	10.12
797.917	10.12
798.662	9.12
799.406	9.12
800.151	9.12
800.895	8.12
801.64	9.12
802.384	9.12
803.128	10.12
803.872	8.12
804.616	6.12
805.36	9.12
806.104	6.12
806.848	9.12
807.592	7.12
808.336	8.12
809.079	7.12
809.823	7.12
810.566	7.12
811.31	5.12
812.053	7.12
812.796	7.12
813.539	4.12
814.283	3.12
815.026	6.12
815.769	7.12
816.511	5.12
817.254	7.12
817.997	3.12
818.74	4.12
819.482	5.12
820.225	4.12
820.967	5.12
821.71	6.12
822.452	8.12
823.194	6.12
823.936	6.12
824.678	7.12
825.42	4.12
826.162	4.12
826.904	4.12
827.646	4.12
828.388	7.12
829.129	4.12
829.871	6.12
830.612	7.12
831.354	4.12
832.095	4.12
832.836	6.12
833.577	4.12
834.319	5.12
835.06	4.12
835.801	4.12
836.542	2.12
837.282	2.12
838.023	3.12
838.764	3.12
839.504	4.12
840.245	5.12
840.985	2.12
841.726	4.12
842.466	4.12
843.206	6.12
843.946	5.12
844.687	3.12
845.427	3.12
846.166	4.12
846.906	2.12
847.646	3.12
848.386	4.12
849.125	4.12
849.865	5.12
850.605	5.12
851.344	4.12
852.083	3.12
852.823	4.12
853.562	5.12
854.301	4.12
855.04	3.12
855.779	2.12
856.518	5.12
857.257	3.12
857.995	2.12
858.734	2.12
859.473	3.12
860.211	1.12
860.95	1.12
861.688	3.12
862.426	2.12
863.165	1.12
863.903	4.12
864.641	4.12
865.379	1.12
866.117	2.12
866.855	4.12
867.593	3.12
868.33	3.12
869.068	3.12
869.806	0.12
870.543	2.12
871.28	1.12
872.018	1.12
872.755	0.12
873.492	2.12
874.229	2.12
874.967	-0.88
875.703	3.12
876.44	0.12
877.177	2.12
877.914	2.12
878.651	2.12
879.387	4.12
880.124	2.12
880.86	0.12
881.597	-0.88
882.333	3.12
883.069	1.12
883.806	2.12
884.542	2.12
885.278	2.12
886.014	1.12
886.749	0.12
887.485	1.12
888.221	1.12
888.957	0.12
889.692	0.12
890.428	3.12
891.163	-0.88
891.899	0.12
892.634	0.12
893.369	1.12
894.104	0.12
894.839	2.12
895.574	3.12
896.309	0.12
897.044	1.12
897.779	3.12
898.514	0.12
899.248	-0.88
899.983	1.12
900.717	2.12
901.452	1.12
902.186	1.12
902.92	1.12
903.654	0.12
904.389	0.12
905.123	0.12
905.857	2.12
906.59	0.12
907.324	-0.88
908.058	0.12
908.792	1.12
909.525	0.12
910.259	-0.88
910.992	2.12
911.726	0.12
912.459	0.12
913.192	0.12
913.925	0.12
914.658	0.12
915.391	-2.88
916.124	0.12
916.857	1.12
917.59	-0.88
918.323	-0.88
919.055	-0.88
919.788	2.12
920.521	0.12
921.253	-0.88
921.985	2.12
922.718	0.12
923.45	0.12
924.182	2.12
924.914	-0.88
925.646	-0.88
926.378	1.12
927.11	-0.88
927.841	-1.88
928.573	0.12
929.305	-1.88
930.036	1.12
930.768	1.12
931.499	-0.88
932.23	0.12
932.962	-0.88
933.693	-1.88
934.424	0.12
935.155	1.12
935.886	0.12
936.617	0.12
937.348	0.12
938.078	0.12
938.809	1.12
939.54	-0.88
940.27	-1.88
941.001	1.12
941.731	0.12
942.461	0.12
943.191	-1.88
943.922	2.12
944.652	1.12
945.382	-1.88
946.112	0.12
946.841	-0.88
947.571	0.12
948.301	-0.88
949.031	1.12
949.76	0.12
950.49	-0.88
951.219	0.12
951.948	0.12
952.678	0.12
953.407	-0.88
954.136	-0.88
954.865	0.12
955.594	1.12
956.323	3.12
957.052	2.12
957.78	-0.88
958.509	-0.88
959.238	-0.88
959.966	0.12
960.695	-0.88
961.423	1.12
962.151	2.12
962.88	2.12
963.608	0.12
964.336	0.12
965.064	-0.88
965.792	1.12
966.52	-1.88
967.247	0.12
967.975	0.12
968.703	-0.88
969.43	-0.88
970.158	-1.88
970.885	2.12
971.613	2.12
972.34	-0.88
973.067	0.12
973.794	0.12
974.521	0.12
975.248	-1.88
975.975	1.12
976.702	0.12
977.429	-0.88
978.156	0.12
978.882	-0.88
979.609	-1.88
980.335	-2.88
981.062	0.12
981.788	-1.88
982.514	-0.88
983.24	0.12
983.967	1.12
984.693	0.12
985.419	-1.88
986.144	-0.88
986.87	1.12
987.596	-0.88
988.322	-0.88
989.047	-1.88
989.773	0.12
990.498	0.12
991.224	2.12
991.949	-0.88
992.674	-0.88
993.399	1.12
994.124	1.12
994.849	-1.88
995.574	0.12
996.299	-0.88
997.024	0.12
997.749	0.12
998.473	0.12
999.198	1.12
999.922	0.12
1000.647	-1.88
1001.371	3.12
1002.095	-0.88
1002.82	-3.88
1003.544	1.12
1004.268	0.12
1004.992	1.12
1005.716	1.12
1006.439	2.12
1007.163	3.12
1007.887	2.12
1008.611	-0.88
1009.334	-0.88
1010.058	0.12
1010.781	1.12
1011.504	0.12
1012.228	2.12
1012.951	2.12
1013.674	0.12
1014.397	1.12
1015.12	-2.88
