节点500_425_QEPB04081__237__15-52-15-000.txt的数据

Date: Wed Nov 12 15:52:15 CST 2025
User: PC
Spectrometer: QEPB0408
触发模式: 0
积分时间 (秒): 1.000000E-2
Scans to average: 1
启用暗噪声校正: true
启用非线性校正: false
滑动平均宽度: 0
X轴模式: Wavelengths
Number of Pixels in Spectrum: 1044
>>>>>Begin Spectral Data<<<<<
220.843	4.25
221.644	2.25
222.444	5.25
223.244	3.25
224.045	4.25
224.845	2.25
225.645	1.25
226.445	3.25
227.245	4.25
228.045	4.25
228.845	3.25
229.645	3.25
230.444	5.25
231.244	3.25
232.043	6.25
232.843	4.25
233.642	6.25
234.442	7.25
235.241	5.25
236.04	4.25
236.839	4.25
237.638	7.25
238.437	6.25
239.236	5.25
240.035	4.25
240.833	8.25
241.632	9.25
242.43	9.25
243.229	9.25
244.027	8.25
244.826	6.25
245.624	10.25
246.422	8.25
247.22	10.25
248.018	12.25
248.816	6.25
249.614	14.25
250.412	11.25
251.21	12.25
252.007	10.25
252.805	11.25
253.602	12.25
254.4	10.25
255.197	12.25
255.994	11.25
256.791	12.25
257.589	15.25
258.386	13.25
259.183	13.25
259.979	14.25
260.776	17.25
261.573	13.25
262.37	17.25
263.166	15.25
263.963	15.25
264.759	17.25
265.556	16.25
266.352	19.25
267.148	18.25
267.944	19.25
268.74	20.25
269.536	22.25
270.332	22.25
271.128	21.25
271.924	24.25
272.719	21.25
273.515	25.25
274.311	22.25
275.106	20.25
275.901	24.25
276.697	24.25
277.492	24.25
278.287	23.25
279.082	21.25
279.877	25.25
280.672	24.25
281.467	24.25
282.262	26.25
283.056	25.25
283.851	27.25
284.646	25.25
285.44	26.25
286.234	24.25
287.029	26.25
287.823	26.25
288.617	23.25
289.411	23.25
290.205	22.25
290.999	23.25
291.793	25.25
292.587	21.25
293.381	23.25
294.174	24.25
294.968	21.25
295.761	20.25
296.555	18.25
297.348	24.25
298.141	20.25
298.935	21.25
299.728	18.25
300.521	19.25
301.314	18.25
302.107	21.25
302.899	15.25
303.692	14.25
304.485	16.25
305.277	16.25
306.07	15.25
306.862	19.25
307.655	16.25
308.447	16.25
309.239	15.25
310.031	13.25
310.823	14.25
311.615	11.25
312.407	12.25
313.199	14.25
313.991	13.25
314.783	13.25
315.574	10.25
316.366	13.25
317.157	10.25
317.949	13.25
318.74	12.25
319.531	10.25
320.322	13.25
321.113	8.25
321.904	10.25
322.695	8.25
323.486	9.25
324.277	10.25
325.068	11.25
325.858	11.25
326.649	11.25
327.439	9.25
328.23	10.25
329.02	11.25
329.81	8.25
330.6	10.25
331.391	8.25
332.181	8.25
332.971	9.25
333.76	10.25
334.55	8.25
335.34	9.25
336.13	5.25
336.919	7.25
337.709	8.25
338.498	9.25
339.287	8.25
340.077	6.25
340.866	8.25
341.655	8.25
342.444	9.25
343.233	10.25
344.022	6.25
344.811	8.25
345.6	8.25
346.388	9.25
347.177	8.25
347.965	8.25
348.754	7.25
349.542	7.25
350.33	7.25
351.119	5.25
351.907	6.25
352.695	9.25
353.483	7.25
354.271	9.25
355.059	6.25
355.846	6.25
356.634	8.25
357.422	8.25
358.209	8.25
358.997	10.25
359.784	9.25
360.571	7.25
361.359	8.25
362.146	8.25
362.933	6.25
363.72	7.25
364.507	7.25
365.294	8.25
366.081	6.25
366.867	7.25
367.654	8.25
368.44	5.25
369.227	8.25
370.013	5.25
370.8	7.25
371.586	8.25
372.372	6.25
373.158	6.25
373.944	8.25
374.73	7.25
375.516	6.25
376.302	7.25
377.088	5.25
377.873	7.25
378.659	6.25
379.445	5.25
380.23	8.25
381.015	4.25
381.801	3.25
382.586	7.25
383.371	5.25
384.156	7.25
384.941	8.25
385.726	8.25
386.511	7.25
387.296	6.25
388.08	9.25
388.865	8.25
389.649	8.25
390.434	9.25
391.218	9.25
392.003	9.25
392.787	6.25
393.571	7.25
394.355	7.25
395.139	7.25
395.923	9.25
396.707	5.25
397.491	10.25
398.274	8.25
399.058	9.25
399.842	9.25
400.625	10.25
401.408	8.25
402.192	8.25
402.975	9.25
403.758	14.25
404.541	10.25
405.324	8.25
406.107	11.25
406.89	7.25
407.673	9.25
408.456	10.25
409.238	13.25
410.021	10.25
410.803	10.25
411.586	14.25
412.368	12.25
413.151	10.25
413.933	13.25
414.715	12.25
415.497	13.25
416.279	12.25
417.061	12.25
417.843	14.25
418.624	12.25
419.406	12.25
420.188	18.25
420.969	13.25
421.751	14.25
422.532	16.25
423.313	14.25
424.095	16.25
424.876	18.25
425.657	14.25
426.438	17.25
427.219	19.25
428	16.25
428.78	19.25
429.561	17.25
430.342	19.25
431.122	22.25
431.903	20.25
432.683	23.25
433.464	21.25
434.244	22.25
435.024	26.25
435.804	24.25
436.584	31.25
437.364	25.25
438.144	29.25
438.924	31.25
439.704	30.25
440.483	34.25
441.263	34.25
442.042	40.25
442.822	38.25
443.601	42.25
444.38	45.25
445.16	47.25
445.939	52.25
446.718	57.25
447.497	62.25
448.276	66.25
449.054	69.25
449.833	75.25
450.612	84.25
451.391	91.25
452.169	102.25
452.948	110.25
453.726	123.25
454.504	135.25
455.282	150.25
456.061	165.25
456.839	181.25
457.617	206.25
458.395	227.25
459.172	259.25
459.95	282.25
460.728	309.25
461.506	351.25
462.283	396.25
463.061	441.25
463.838	487.25
464.615	551.25
465.393	610.25
466.17	677.25
466.947	761.25
467.724	844.25
468.501	954.25
469.278	1031.25
470.055	1158.25
470.831	1304.25
471.608	1434.25
472.385	1584.25
473.161	1753.25
473.938	1941.25
474.714	2158.25
475.49	2380.25
476.266	2622.25
477.043	2884.25
477.819	3195.25
478.595	3516.25
479.371	3886.25
480.146	4279.25
480.922	4667.25
481.698	5119.25
482.473	5652.25
483.249	6176.25
484.024	6798.25
484.8	7422.25
485.575	8105.25
486.35	8853.25
487.126	9686.25
487.901	10562.25
488.676	11538.25
489.451	12529.25
490.225	13617.25
491	14826.25
491.775	16030.25
492.55	17310.25
493.324	18722.25
494.099	19997.25
494.873	21363.25
495.647	22868.25
496.422	24270.25
497.196	25765.25
497.97	27316.25
498.744	28782.25
499.518	30098.25
500.292	31305.25
501.066	32464.25
501.839	33523.25
502.613	34497.25
503.387	35199.25
504.16	35589.25
504.934	35849.25
505.707	35921.25
506.48	35736.25
507.253	35368.25
508.027	34994.25
508.8	34335.25
509.573	33601.25
510.346	32672.25
511.118	31650.25
511.891	30678.25
512.664	29497.25
513.437	28318.25
514.209	27168.25
514.982	26150.25
515.754	25067.25
516.526	23971.25
517.298	22907.25
518.071	21959.25
518.843	21064.25
519.615	20241.25
520.387	19429.25
521.159	18676.25
521.93	17949.25
522.702	17209.25
523.474	16566.25
524.245	15946.25
525.017	15187.25
525.788	14454.25
526.56	13827.25
527.331	13115.25
528.102	12576.25
528.873	11967.25
529.644	11353.25
530.415	10810.25
531.186	10327.25
531.957	9811.25
532.728	9247.25
533.498	8695.25
534.269	8288.25
535.039	7806.25
535.81	7399.25
536.58	6956.25
537.351	6553.25
538.121	6197.25
538.891	5912.25
539.661	5571.25
540.431	5283.25
541.201	4964.25
541.971	4741.25
542.741	4468.25
543.51	4244.25
544.28	4060.25
545.05	3848.25
545.819	3686.25
546.588	3473.25
547.358	3332.25
548.127	3118.25
548.896	2971.25
549.665	2825.25
550.434	2682.25
551.203	2537.25
551.972	2416.25
552.741	2275.25
553.51	2136.25
554.278	2030.25
555.047	1912.25
555.815	1817.25
556.584	1704.25
557.352	1613.25
558.121	1503.25
558.889	1439.25
559.657	1355.25
560.425	1275.25
561.193	1205.25
561.961	1143.25
562.729	1086.25
563.496	1019.25
564.264	969.25
565.032	906.25
565.799	874.25
566.567	806.25
567.334	774.25
568.101	724.25
568.869	692.25
569.636	653.25
570.403	613.25
571.17	581.25
571.937	546.25
572.704	521.25
573.471	490.25
574.237	452.25
575.004	436.25
575.771	407.25
576.537	386.25
577.303	362.25
578.07	338.25
578.836	325.25
579.602	304.25
580.368	286.25
581.134	285.25
581.9	260.25
582.666	243.25
583.432	230.25
584.198	221.25
584.964	206.25
585.729	199.25
586.495	195.25
587.26	178.25
588.025	173.25
588.791	159.25
589.556	157.25
590.321	144.25
591.086	136.25
591.851	132.25
592.616	126.25
593.381	117.25
594.146	108.25
594.911	109.25
595.675	104.25
596.44	100.25
597.204	95.25
597.969	91.25
598.733	85.25
599.497	76.25
600.261	79.25
601.025	76.25
601.79	71.25
602.553	74.25
603.317	61.25
604.081	59.25
604.845	59.25
605.609	61.25
606.372	60.25
607.136	50.25
607.899	52.25
608.662	51.25
609.426	48.25
610.189	48.25
610.952	43.25
611.715	41.25
612.478	40.25
613.241	38.25
614.004	36.25
614.767	37.25
615.529	34.25
616.292	33.25
617.055	34.25
617.817	31.25
618.579	33.25
619.342	31.25
620.104	28.25
620.866	27.25
621.628	26.25
622.39	27.25
623.152	22.25
623.914	27.25
624.676	23.25
625.438	21.25
626.199	22.25
626.961	20.25
627.722	19.25
628.484	22.25
629.245	19.25
630.006	16.25
630.768	17.25
631.529	20.25
632.29	15.25
633.051	20.25
633.812	14.25
634.573	17.25
635.333	17.25
636.094	15.25
636.855	13.25
637.615	14.25
638.376	15.25
639.136	12.25
639.896	15.25
640.657	13.25
641.417	10.25
642.177	12.25
642.937	11.25
643.697	10.25
644.457	12.25
645.216	11.25
645.976	11.25
646.736	8.25
647.495	11.25
648.255	11.25
649.014	11.25
649.774	8.25
650.533	8.25
651.292	10.25
652.051	9.25
652.81	8.25
653.569	7.25
654.328	7.25
655.087	10.25
655.846	10.25
656.604	11.25
657.363	8.25
658.121	7.25
658.88	10.25
659.638	7.25
660.397	9.25
661.155	9.25
661.913	7.25
662.671	8.25
663.429	4.25
664.187	7.25
664.945	8.25
665.703	7.25
666.46	5.25
667.218	5.25
667.976	9.25
668.733	7.25
669.49	7.25
670.248	7.25
671.005	7.25
671.762	7.25
672.519	6.25
673.276	5.25
674.033	6.25
674.79	7.25
675.547	6.25
676.304	3.25
677.06	4.25
677.817	3.25
678.574	7.25
679.33	7.25
680.086	6.25
680.843	5.25
681.599	6.25
682.355	4.25
683.111	7.25
683.867	5.25
684.623	4.25
685.379	5.25
686.135	6.25
686.89	3.25
687.646	5.25
688.402	6.25
689.157	5.25
689.912	7.25
690.668	4.25
691.423	5.25
692.178	6.25
692.933	3.25
693.688	5.25
694.443	5.25
695.198	7.25
695.953	5.25
696.708	6.25
697.462	7.25
698.217	3.25
698.972	6.25
699.726	5.25
700.48	7.25
701.235	5.25
701.989	7.25
702.743	5.25
703.497	4.25
704.251	7.25
705.005	4.25
705.759	5.25
706.513	5.25
707.266	4.25
708.02	5.25
708.774	3.25
709.527	6.25
710.28	6.25
711.034	3.25
711.787	4.25
712.54	3.25
713.293	6.25
714.046	4.25
714.799	5.25
715.552	5.25
716.305	3.25
717.058	4.25
717.81	4.25
718.563	3.25
719.315	3.25
720.068	5.25
720.82	4.25
721.573	5.25
722.325	5.25
723.077	2.25
723.829	8.25
724.581	4.25
725.333	5.25
726.085	4.25
726.836	5.25
727.588	5.25
728.34	5.25
729.091	5.25
729.843	6.25
730.594	6.25
731.346	3.25
732.097	6.25
732.848	6.25
733.599	3.25
734.35	7.25
735.101	6.25
735.852	7.25
736.603	6.25
737.354	6.25
738.104	5.25
738.855	6.25
739.605	4.25
740.356	8.25
741.106	5.25
741.856	7.25
742.607	7.25
743.357	5.25
744.107	7.25
744.857	9.25
745.607	8.25
746.357	9.25
747.106	6.25
747.856	4.25
748.606	6.25
749.355	5.25
750.105	6.25
750.854	8.25
751.603	6.25
752.353	7.25
753.102	7.25
753.851	6.25
754.6	8.25
755.349	8.25
756.098	8.25
756.847	9.25
757.595	8.25
758.344	9.25
759.093	8.25
759.841	8.25
760.589	7.25
761.338	8.25
762.086	9.25
762.834	7.25
763.582	7.25
764.331	7.25
765.079	9.25
765.826	10.25
766.574	9.25
767.322	7.25
768.07	12.25
768.817	9.25
769.565	8.25
770.312	9.25
771.06	11.25
771.807	12.25
772.554	9.25
773.302	10.25
774.049	10.25
774.796	10.25
775.543	12.25
776.29	12.25
777.036	11.25
777.783	11.25
778.53	11.25
779.276	11.25
780.023	9.25
780.769	11.25
781.516	11.25
782.262	11.25
783.008	11.25
783.754	10.25
784.5	12.25
785.246	12.25
785.992	12.25
786.738	10.25
787.484	10.25
788.23	10.25
788.975	11.25
789.721	10.25
790.466	12.25
791.212	11.25
791.957	12.25
792.702	11.25
793.447	10.25
794.193	11.25
794.938	11.25
795.683	9.25
796.427	10.25
797.172	14.25
797.917	9.25
798.662	10.25
799.406	10.25
800.151	8.25
800.895	10.25
801.64	8.25
802.384	9.25
803.128	6.25
803.872	6.25
804.616	7.25
805.36	8.25
806.104	7.25
806.848	9.25
807.592	6.25
808.336	9.25
809.079	8.25
809.823	10.25
810.566	8.25
811.31	6.25
812.053	3.25
812.796	6.25
813.539	6.25
814.283	7.25
815.026	8.25
815.769	7.25
816.511	6.25
817.254	7.25
817.997	7.25
818.74	7.25
819.482	4.25
820.225	8.25
820.967	5.25
821.71	2.25
822.452	5.25
823.194	6.25
823.936	7.25
824.678	4.25
825.42	6.25
826.162	5.25
826.904	6.25
827.646	4.25
828.388	4.25
829.129	3.25
829.871	6.25
830.612	3.25
831.354	3.25
832.095	5.25
832.836	7.25
833.577	2.25
834.319	3.25
835.06	4.25
835.801	4.25
836.542	4.25
837.282	3.25
838.023	5.25
838.764	3.25
839.504	5.25
840.245	5.25
840.985	4.25
841.726	4.25
842.466	2.25
843.206	6.25
843.946	6.25
844.687	2.25
845.427	3.25
846.166	3.25
846.906	2.25
847.646	2.25
848.386	3.25
849.125	3.25
849.865	3.25
850.605	7.25
851.344	4.25
852.083	4.25
852.823	2.25
853.562	2.25
854.301	2.25
855.04	1.25
855.779	3.25
856.518	3.25
857.257	0.25
857.995	2.25
858.734	3.25
859.473	3.25
860.211	4.25
860.95	2.25
861.688	3.25
862.426	3.25
863.165	3.25
863.903	1.25
864.641	4.25
865.379	3.25
866.117	2.25
866.855	2.25
867.593	3.25
868.33	2.25
869.068	0.25
869.806	4.25
870.543	-0.75
871.28	2.25
872.018	4.25
872.755	2.25
873.492	0.25
874.229	2.25
874.967	1.25
875.703	4.25
876.44	1.25
877.177	-0.75
877.914	1.25
878.651	3.25
879.387	1.25
880.124	1.25
880.86	1.25
881.597	-0.75
882.333	1.25
883.069	2.25
883.806	0.25
884.542	1.25
885.278	-0.75
886.014	3.25
886.749	1.25
887.485	-0.75
888.221	-0.75
888.957	1.25
889.692	1.25
890.428	0.25
891.163	0.25
891.899	2.25
892.634	-0.75
893.369	0.25
894.104	0.25
894.839	3.25
895.574	0.25
896.309	2.25
897.044	0.25
897.779	0.25
898.514	2.25
899.248	0.25
899.983	0.25
900.717	1.25
901.452	1.25
902.186	1.25
902.92	0.25
903.654	1.25
904.389	1.25
905.123	1.25
905.857	0.25
906.59	0.25
907.324	-1.75
908.058	1.25
908.792	2.25
909.525	2.25
910.259	-0.75
910.992	2.25
911.726	-1.75
912.459	1.25
913.192	-1.75
913.925	1.25
914.658	1.25
915.391	0.25
916.124	1.25
916.857	0.25
917.59	0.25
918.323	2.25
919.055	-0.75
919.788	0.25
920.521	-0.75
921.253	0.25
921.985	0.25
922.718	3.25
923.45	2.25
924.182	0.25
924.914	2.25
925.646	-0.75
926.378	1.25
927.11	3.25
927.841	-1.75
928.573	2.25
929.305	-1.75
930.036	0.25
930.768	0.25
931.499	0.25
932.23	0.25
932.962	1.25
933.693	0.25
934.424	1.25
935.155	0.25
935.886	0.25
936.617	1.25
937.348	-0.75
938.078	-1.75
938.809	-0.75
939.54	-1.75
940.27	-1.75
941.001	-0.75
941.731	1.25
942.461	-0.75
943.191	0.25
943.922	-0.75
944.652	0.25
945.382	0.25
946.112	0.25
946.841	1.25
947.571	-1.75
948.301	1.25
949.031	0.25
949.76	-1.75
950.49	0.25
951.219	0.25
951.948	2.25
952.678	-0.75
953.407	-1.75
954.136	2.25
954.865	2.25
955.594	1.25
956.323	2.25
957.052	-0.75
957.78	0.25
958.509	-0.75
959.238	-0.75
959.966	4.25
960.695	0.25
961.423	-0.75
962.151	0.25
962.88	-0.75
963.608	1.25
964.336	0.25
965.064	0.25
965.792	-1.75
966.52	-0.75
967.247	-1.75
967.975	-0.75
968.703	0.25
969.43	0.25
970.158	0.25
970.885	-3.75
971.613	1.25
972.34	0.25
973.067	1.25
973.794	0.25
974.521	0.25
975.248	2.25
975.975	2.25
976.702	1.25
977.429	1.25
978.156	0.25
978.882	1.25
979.609	-0.75
980.335	0.25
981.062	-0.75
981.788	-0.75
982.514	1.25
983.24	-1.75
983.967	2.25
984.693	0.25
985.419	3.25
986.144	-0.75
986.87	1.25
987.596	2.25
988.322	-0.75
989.047	1.25
989.773	-0.75
990.498	-1.75
991.224	1.25
991.949	-0.75
992.674	2.25
993.399	1.25
994.124	1.25
994.849	-2.75
995.574	4.25
996.299	1.25
997.024	-0.75
997.749	0.25
998.473	0.25
999.198	-0.75
999.922	1.25
1000.647	-0.75
1001.371	4.25
1002.095	-0.75
1002.82	-1.75
1003.544	-0.75
1004.268	2.25
1004.992	2.25
1005.716	1.25
1006.439	5.25
1007.163	2.25
1007.887	2.25
1008.611	-0.75
1009.334	-1.75
1010.058	1.25
1010.781	-2.75
1011.504	1.25
1012.228	1.25
1012.951	0.25
1013.674	-0.75
1014.397	0.25
1015.12	-0.75
