节点500_425_QEPB04081__386__15-54-43-756.txt的数据

Date: Wed Nov 12 15:54:43 CST 2025
User: PC
Spectrometer: QEPB0408
触发模式: 0
积分时间 (秒): 1.000000E-2
Scans to average: 1
启用暗噪声校正: true
启用非线性校正: false
滑动平均宽度: 0
X轴模式: Wavelengths
Number of Pixels in Spectrum: 1044
>>>>>Begin Spectral Data<<<<<
220.843	0
221.644	2
222.444	1
223.244	4
224.045	5
224.845	4
225.645	4
226.445	3
227.245	4
228.045	5
228.845	4
229.645	4
230.444	4
231.244	5
232.043	4
232.843	6
233.642	6
234.442	5
235.241	6
236.04	6
236.839	5
237.638	4
238.437	6
239.236	7
240.035	7
240.833	7
241.632	7
242.43	7
243.229	7
244.027	5
244.826	7
245.624	6
246.422	7
247.22	10
248.018	9
248.816	9
249.614	7
250.412	10
251.21	10
252.007	10
252.805	11
253.602	9
254.4	11
255.197	9
255.994	12
256.791	13
257.589	10
258.386	13
259.183	12
259.979	13
260.776	12
261.573	12
262.37	16
263.166	16
263.963	17
264.759	17
265.556	19
266.352	13
267.148	15
267.944	20
268.74	18
269.536	17
270.332	18
271.128	19
271.924	22
272.719	22
273.515	22
274.311	20
275.106	23
275.901	23
276.697	25
277.492	22
278.287	21
279.082	23
279.877	22
280.672	25
281.467	23
282.262	23
283.056	22
283.851	24
284.646	25
285.44	22
286.234	22
287.029	29
287.823	27
288.617	25
289.411	19
290.205	21
290.999	21
291.793	24
292.587	21
293.381	21
294.174	22
294.968	21
295.761	19
296.555	17
297.348	20
298.141	19
298.935	20
299.728	20
300.521	20
301.314	18
302.107	17
302.899	15
303.692	14
304.485	15
305.277	16
306.07	18
306.862	15
307.655	16
308.447	16
309.239	12
310.031	13
310.823	13
311.615	14
312.407	12
313.199	16
313.991	11
314.783	13
315.574	12
316.366	11
317.157	11
317.949	10
318.74	10
319.531	11
320.322	8
321.113	9
321.904	9
322.695	13
323.486	7
324.277	10
325.068	10
325.858	9
326.649	10
327.439	8
328.23	10
329.02	7
329.81	11
330.6	9
331.391	7
332.181	9
332.971	9
333.76	9
334.55	10
335.34	6
336.13	8
336.919	10
337.709	10
338.498	7
339.287	8
340.077	7
340.866	8
341.655	8
342.444	7
343.233	9
344.022	6
344.811	7
345.6	8
346.388	6
347.177	7
347.965	8
348.754	8
349.542	8
350.33	8
351.119	8
351.907	6
352.695	6
353.483	6
354.271	7
355.059	7
355.846	6
356.634	6
357.422	7
358.209	6
358.997	4
359.784	8
360.571	8
361.359	7
362.146	10
362.933	8
363.72	6
364.507	7
365.294	4
366.081	7
366.867	4
367.654	6
368.44	8
369.227	5
370.013	8
370.8	5
371.586	7
372.372	5
373.158	5
373.944	7
374.73	9
375.516	6
376.302	7
377.088	8
377.873	7
378.659	5
379.445	7
380.23	6
381.015	8
381.801	5
382.586	8
383.371	7
384.156	7
384.941	7
385.726	5
386.511	8
387.296	5
388.08	8
388.865	7
389.649	6
390.434	9
391.218	7
392.003	9
392.787	9
393.571	7
394.355	8
395.139	10
395.923	9
396.707	10
397.491	8
398.274	8
399.058	8
399.842	10
400.625	7
401.408	10
402.192	11
402.975	8
403.758	9
404.541	9
405.324	7
406.107	10
406.89	12
407.673	12
408.456	8
409.238	11
410.021	9
410.803	11
411.586	11
412.368	9
413.151	13
413.933	12
414.715	13
415.497	11
416.279	14
417.061	13
417.843	13
418.624	14
419.406	12
420.188	14
420.969	12
421.751	13
422.532	15
423.313	14
424.095	15
424.876	15
425.657	13
426.438	17
427.219	17
428	18
428.78	20
429.561	17
430.342	19
431.122	21
431.903	20
432.683	20
433.464	21
434.244	23
435.024	24
435.804	22
436.584	25
437.364	28
438.144	25
438.924	32
439.704	34
440.483	31
441.263	39
442.042	38
442.822	39
443.601	42
444.38	51
445.16	46
445.939	53
446.718	57
447.497	60
448.276	71
449.054	71
449.833	78
450.612	88
451.391	94
452.169	106
452.948	116
453.726	127
454.504	141
455.282	157
456.061	169
456.839	184
457.617	214
458.395	246
459.172	265
459.95	298
460.728	325
461.506	364
462.283	407
463.061	455
463.838	512
464.615	571
465.393	631
466.17	698
466.947	788
467.724	875
468.501	957
469.278	1074
470.055	1171
470.831	1309
471.608	1447
472.385	1602
473.161	1748
473.938	1950
474.714	2167
475.49	2361
476.266	2586
477.043	2864
477.819	3154
478.595	3497
479.371	3803
480.146	4176
480.922	4570
481.698	5002
482.473	5442
483.249	5970
484.024	6528
484.8	7135
485.575	7753
486.35	8452
487.126	9192
487.901	10014
488.676	10867
489.451	11786
490.225	12802
491	13855
491.775	14984
492.55	16152
493.324	17418
494.099	18594
494.873	19885
495.647	21233
496.422	22542
497.196	23879
497.97	25380
498.744	26778
499.518	28017
500.292	29282
501.066	30404
501.839	31551
502.613	32518
503.387	33173
504.16	33833
504.934	34210
505.707	34363
506.48	34313
507.253	34176
508.027	33839
508.8	33415
509.573	32882
510.346	32094
511.118	31321
511.891	30365
512.664	29273
513.437	28226
514.209	27134
514.982	26137
515.754	25085
516.526	24069
517.298	23096
518.071	22080
518.843	21253
519.615	20299
520.387	19471
521.159	18784
521.93	18129
522.702	17376
523.474	16697
524.245	16000
525.017	15258
525.788	14612
526.56	13979
527.331	13347
528.102	12748
528.873	12167
529.644	11576
530.415	11013
531.186	10509
531.957	9972
532.728	9454
533.498	8963
534.269	8445
535.039	8028
535.81	7561
536.58	7125
537.351	6748
538.121	6369
538.891	6053
539.661	5727
540.431	5451
541.201	5133
541.971	4855
542.741	4599
543.51	4382
544.28	4158
545.05	3963
545.819	3780
546.588	3598
547.358	3392
548.127	3223
548.896	3071
549.665	2902
550.434	2795
551.203	2620
551.972	2481
552.741	2346
553.51	2221
554.278	2104
555.047	1977
555.815	1877
556.584	1785
557.352	1688
558.121	1560
558.889	1488
559.657	1407
560.425	1337
561.193	1252
561.961	1202
562.729	1120
563.496	1062
564.264	1013
565.032	951
565.799	902
566.567	860
567.334	804
568.101	758
568.869	723
569.636	681
570.403	632
571.17	608
571.937	565
572.704	547
573.471	515
574.237	474
575.004	450
575.771	416
576.537	394
577.303	386
578.07	353
578.836	336
579.602	312
580.368	305
581.134	286
581.9	269
582.666	258
583.432	240
584.198	227
584.964	220
585.729	213
586.495	197
587.26	185
588.025	175
588.791	168
589.556	158
590.321	154
591.086	142
591.851	136
592.616	126
593.381	121
594.146	114
594.911	114
595.675	109
596.44	99
597.204	95
597.969	95
598.733	89
599.497	82
600.261	81
601.025	77
601.79	75
602.553	68
603.317	67
604.081	62
604.845	58
605.609	59
606.372	56
607.136	56
607.899	54
608.662	47
609.426	48
610.189	46
610.952	43
611.715	42
612.478	42
613.241	38
614.004	41
614.767	35
615.529	34
616.292	33
617.055	35
617.817	32
618.579	32
619.342	30
620.104	26
620.866	30
621.628	28
622.39	26
623.152	24
623.914	25
624.676	23
625.438	23
626.199	21
626.961	22
627.722	20
628.484	19
629.245	18
630.006	18
630.768	18
631.529	16
632.29	18
633.051	18
633.812	17
634.573	17
635.333	15
636.094	17
636.855	13
637.615	15
638.376	13
639.136	12
639.896	11
640.657	12
641.417	13
642.177	11
642.937	13
643.697	12
644.457	11
645.216	12
645.976	10
646.736	13
647.495	12
648.255	10
649.014	9
649.774	10
650.533	10
651.292	7
652.051	11
652.81	10
653.569	9
654.328	9
655.087	8
655.846	9
656.604	10
657.363	9
658.121	7
658.88	6
659.638	9
660.397	9
661.155	10
661.913	8
662.671	6
663.429	9
664.187	7
664.945	6
665.703	6
666.46	7
667.218	7
667.976	8
668.733	6
669.49	5
670.248	7
671.005	7
671.762	8
672.519	7
673.276	5
674.033	6
674.79	5
675.547	6
676.304	8
677.06	6
677.817	5
678.574	8
679.33	6
680.086	5
680.843	7
681.599	6
682.355	4
683.111	9
683.867	6
684.623	6
685.379	4
686.135	5
686.89	3
687.646	5
688.402	8
689.157	4
689.912	6
690.668	3
691.423	4
692.178	6
692.933	5
693.688	6
694.443	6
695.198	5
695.953	7
696.708	4
697.462	4
698.217	4
698.972	4
699.726	4
700.48	3
701.235	5
701.989	4
702.743	5
703.497	4
704.251	5
705.005	4
705.759	5
706.513	6
707.266	4
708.02	5
708.774	5
709.527	4
710.28	7
711.034	4
711.787	5
712.54	3
713.293	6
714.046	4
714.799	5
715.552	6
716.305	4
717.058	5
717.81	6
718.563	6
719.315	6
720.068	4
720.82	3
721.573	4
722.325	4
723.077	4
723.829	3
724.581	5
725.333	3
726.085	5
726.836	7
727.588	5
728.34	4
729.091	4
729.843	6
730.594	4
731.346	6
732.097	6
732.848	5
733.599	5
734.35	2
735.101	8
735.852	4
736.603	6
737.354	6
738.104	7
738.855	4
739.605	6
740.356	7
741.106	5
741.856	7
742.607	6
743.357	6
744.107	6
744.857	5
745.607	6
746.357	7
747.106	5
747.856	5
748.606	6
749.355	8
750.105	7
750.854	5
751.603	6
752.353	9
753.102	7
753.851	8
754.6	5
755.349	8
756.098	6
756.847	7
757.595	5
758.344	8
759.093	6
759.841	8
760.589	9
761.338	9
762.086	9
762.834	9
763.582	8
764.331	9
765.079	6
765.826	11
766.574	8
767.322	8
768.07	9
768.817	10
769.565	9
770.312	9
771.06	10
771.807	8
772.554	8
773.302	10
774.049	6
774.796	11
775.543	9
776.29	11
777.036	11
777.783	13
778.53	9
779.276	12
780.023	11
780.769	10
781.516	12
782.262	9
783.008	9
783.754	11
784.5	11
785.246	13
785.992	8
786.738	14
787.484	10
788.23	10
788.975	12
789.721	9
790.466	10
791.212	13
791.957	11
792.702	9
793.447	10
794.193	8
794.938	11
795.683	12
796.427	9
797.172	10
797.917	9
798.662	9
799.406	9
800.151	9
800.895	10
801.64	9
802.384	7
803.128	10
803.872	8
804.616	8
805.36	10
806.104	9
806.848	8
807.592	9
808.336	6
809.079	8
809.823	7
810.566	7
811.31	7
812.053	6
812.796	7
813.539	8
814.283	7
815.026	4
815.769	6
816.511	8
817.254	3
817.997	8
818.74	7
819.482	4
820.225	6
820.967	8
821.71	3
822.452	6
823.194	2
823.936	2
824.678	6
825.42	3
826.162	5
826.904	4
827.646	2
828.388	6
829.129	3
829.871	5
830.612	2
831.354	5
832.095	4
832.836	6
833.577	6
834.319	4
835.06	3
835.801	3
836.542	4
837.282	4
838.023	4
838.764	4
839.504	4
840.245	4
840.985	5
841.726	5
842.466	6
843.206	5
843.946	3
844.687	4
845.427	3
846.166	6
846.906	1
847.646	3
848.386	3
849.125	2
849.865	4
850.605	4
851.344	1
852.083	2
852.823	2
853.562	4
854.301	2
855.04	3
855.779	2
856.518	4
857.257	2
857.995	4
858.734	1
859.473	1
860.211	5
860.95	2
861.688	2
862.426	1
863.165	3
863.903	1
864.641	-2
865.379	5
866.117	1
866.855	3
867.593	0
868.33	2
869.068	0
869.806	0
870.543	1
871.28	-1
872.018	4
872.755	3
873.492	2
874.229	2
874.967	-1
875.703	2
876.44	-1
877.177	1
877.914	1
878.651	1
879.387	0
880.124	2
880.86	2
881.597	2
882.333	0
883.069	2
883.806	0
884.542	2
885.278	-2
886.014	3
886.749	1
887.485	2
888.221	1
888.957	0
889.692	2
890.428	2
891.163	-2
891.899	0
892.634	3
893.369	-1
894.104	0
894.839	0
895.574	0
896.309	1
897.044	0
897.779	1
898.514	0
899.248	1
899.983	-2
900.717	2
901.452	0
902.186	0
902.92	0
903.654	-1
904.389	0
905.123	0
905.857	-1
906.59	2
907.324	1
908.058	-1
908.792	-3
909.525	2
910.259	0
910.992	1
911.726	0
912.459	1
913.192	-1
913.925	0
914.658	0
915.391	0
916.124	-1
916.857	0
917.59	-2
918.323	-1
919.055	0
919.788	2
920.521	1
921.253	0
921.985	2
922.718	1
923.45	0
924.182	-2
924.914	4
925.646	0
926.378	-2
927.11	2
927.841	1
928.573	1
929.305	1
930.036	0
930.768	0
931.499	1
932.23	1
932.962	-1
933.693	0
934.424	1
935.155	-2
935.886	2
936.617	2
937.348	0
938.078	-1
938.809	0
939.54	2
940.27	1
941.001	0
941.731	-1
942.461	-2
943.191	2
943.922	-1
944.652	0
945.382	-1
946.112	-1
946.841	1
947.571	-3
948.301	-2
949.031	-3
949.76	-2
950.49	2
951.219	1
951.948	0
952.678	-1
953.407	2
954.136	1
954.865	-3
955.594	1
956.323	0
957.052	1
957.78	-1
958.509	-2
959.238	-1
959.966	-1
960.695	0
961.423	-2
962.151	0
962.88	-2
963.608	0
964.336	1
965.064	-2
965.792	-2
966.52	0
967.247	-1
967.975	-1
968.703	0
969.43	0
970.158	-1
970.885	-1
971.613	0
972.34	1
973.067	-2
973.794	0
974.521	-2
975.248	2
975.975	1
976.702	0
977.429	2
978.156	1
978.882	-1
979.609	0
980.335	-1
981.062	-2
981.788	-1
982.514	1
983.24	0
983.967	-2
984.693	-1
985.419	-1
986.144	1
986.87	0
987.596	0
988.322	0
989.047	0
989.773	2
990.498	0
991.224	1
991.949	-1
992.674	-1
993.399	1
994.124	-1
994.849	-1
995.574	-3
996.299	2
997.024	0
997.749	-2
998.473	1
999.198	-1
999.922	-1
1000.647	-2
1001.371	6
1002.095	-1
1002.82	-2
1003.544	-3
1004.268	2
1004.992	0
1005.716	2
1006.439	0
1007.163	2
1007.887	2
1008.611	2
1009.334	0
1010.058	-1
1010.781	2
1011.504	0
1012.228	-1
1012.951	0
1013.674	0
1014.397	0
1015.12	0
