节点500_425_QEPB04081__321__15-53-38-844.txt的数据

Date: Wed Nov 12 15:53:38 CST 2025
User: PC
Spectrometer: QEPB0408
触发模式: 0
积分时间 (秒): 1.000000E-2
Scans to average: 1
启用暗噪声校正: true
启用非线性校正: false
滑动平均宽度: 0
X轴模式: Wavelengths
Number of Pixels in Spectrum: 1044
>>>>>Begin Spectral Data<<<<<
220.843	4.25
221.644	2.25
222.444	4.25
223.244	-0.75
224.045	4.25
224.845	4.25
225.645	2.25
226.445	3.25
227.245	3.25
228.045	6.25
228.845	3.25
229.645	5.25
230.444	5.25
231.244	4.25
232.043	6.25
232.843	6.25
233.642	6.25
234.442	4.25
235.241	7.25
236.04	8.25
236.839	5.25
237.638	7.25
238.437	5.25
239.236	7.25
240.035	7.25
240.833	7.25
241.632	7.25
242.43	7.25
243.229	7.25
244.027	4.25
244.826	8.25
245.624	6.25
246.422	7.25
247.22	11.25
248.018	8.25
248.816	7.25
249.614	7.25
250.412	9.25
251.21	12.25
252.007	8.25
252.805	10.25
253.602	7.25
254.4	9.25
255.197	10.25
255.994	10.25
256.791	12.25
257.589	10.25
258.386	12.25
259.183	12.25
259.979	14.25
260.776	12.25
261.573	14.25
262.37	13.25
263.166	17.25
263.963	16.25
264.759	19.25
265.556	13.25
266.352	18.25
267.148	17.25
267.944	18.25
268.74	19.25
269.536	19.25
270.332	22.25
271.128	17.25
271.924	20.25
272.719	20.25
273.515	23.25
274.311	24.25
275.106	24.25
275.901	22.25
276.697	22.25
277.492	23.25
278.287	24.25
279.082	21.25
279.877	22.25
280.672	25.25
281.467	26.25
282.262	26.25
283.056	27.25
283.851	23.25
284.646	22.25
285.44	22.25
286.234	22.25
287.029	23.25
287.823	27.25
288.617	24.25
289.411	23.25
290.205	23.25
290.999	23.25
291.793	24.25
292.587	25.25
293.381	23.25
294.174	22.25
294.968	21.25
295.761	19.25
296.555	20.25
297.348	22.25
298.141	18.25
298.935	21.25
299.728	16.25
300.521	19.25
301.314	18.25
302.107	20.25
302.899	20.25
303.692	16.25
304.485	14.25
305.277	15.25
306.07	19.25
306.862	14.25
307.655	16.25
308.447	16.25
309.239	13.25
310.031	16.25
310.823	11.25
311.615	14.25
312.407	10.25
313.199	13.25
313.991	13.25
314.783	12.25
315.574	11.25
316.366	12.25
317.157	11.25
317.949	14.25
318.74	12.25
319.531	12.25
320.322	8.25
321.113	9.25
321.904	11.25
322.695	10.25
323.486	11.25
324.277	8.25
325.068	9.25
325.858	11.25
326.649	9.25
327.439	9.25
328.23	9.25
329.02	10.25
329.81	7.25
330.6	8.25
331.391	8.25
332.181	8.25
332.971	8.25
333.76	9.25
334.55	7.25
335.34	11.25
336.13	9.25
336.919	9.25
337.709	8.25
338.498	11.25
339.287	9.25
340.077	8.25
340.866	7.25
341.655	4.25
342.444	7.25
343.233	6.25
344.022	7.25
344.811	7.25
345.6	9.25
346.388	9.25
347.177	9.25
347.965	9.25
348.754	8.25
349.542	6.25
350.33	7.25
351.119	7.25
351.907	7.25
352.695	5.25
353.483	6.25
354.271	7.25
355.059	6.25
355.846	8.25
356.634	8.25
357.422	8.25
358.209	8.25
358.997	8.25
359.784	7.25
360.571	9.25
361.359	6.25
362.146	7.25
362.933	9.25
363.72	8.25
364.507	6.25
365.294	7.25
366.081	6.25
366.867	7.25
367.654	7.25
368.44	10.25
369.227	5.25
370.013	5.25
370.8	7.25
371.586	6.25
372.372	6.25
373.158	7.25
373.944	7.25
374.73	5.25
375.516	7.25
376.302	7.25
377.088	7.25
377.873	6.25
378.659	6.25
379.445	6.25
380.23	7.25
381.015	2.25
381.801	8.25
382.586	9.25
383.371	6.25
384.156	8.25
384.941	8.25
385.726	7.25
386.511	7.25
387.296	6.25
388.08	7.25
388.865	7.25
389.649	9.25
390.434	8.25
391.218	6.25
392.003	7.25
392.787	7.25
393.571	10.25
394.355	9.25
395.139	8.25
395.923	9.25
396.707	10.25
397.491	7.25
398.274	7.25
399.058	11.25
399.842	6.25
400.625	12.25
401.408	9.25
402.192	10.25
402.975	7.25
403.758	8.25
404.541	10.25
405.324	7.25
406.107	12.25
406.89	9.25
407.673	10.25
408.456	8.25
409.238	11.25
410.021	12.25
410.803	10.25
411.586	8.25
412.368	12.25
413.151	12.25
413.933	13.25
414.715	12.25
415.497	13.25
416.279	12.25
417.061	13.25
417.843	12.25
418.624	12.25
419.406	12.25
420.188	11.25
420.969	13.25
421.751	16.25
422.532	14.25
423.313	13.25
424.095	12.25
424.876	16.25
425.657	14.25
426.438	19.25
427.219	19.25
428	17.25
428.78	19.25
429.561	19.25
430.342	19.25
431.122	20.25
431.903	18.25
432.683	20.25
433.464	22.25
434.244	26.25
435.024	22.25
435.804	25.25
436.584	26.25
437.364	25.25
438.144	29.25
438.924	31.25
439.704	31.25
440.483	31.25
441.263	35.25
442.042	37.25
442.822	42.25
443.601	44.25
444.38	47.25
445.16	49.25
445.939	52.25
446.718	53.25
447.497	62.25
448.276	69.25
449.054	70.25
449.833	79.25
450.612	89.25
451.391	94.25
452.169	105.25
452.948	117.25
453.726	122.25
454.504	138.25
455.282	151.25
456.061	168.25
456.839	181.25
457.617	205.25
458.395	232.25
459.172	258.25
459.95	293.25
460.728	322.25
461.506	355.25
462.283	398.25
463.061	447.25
463.838	501.25
464.615	558.25
465.393	626.25
466.17	693.25
466.947	755.25
467.724	867.25
468.501	953.25
469.278	1052.25
470.055	1170.25
470.831	1297.25
471.608	1440.25
472.385	1595.25
473.161	1762.25
473.938	1961.25
474.714	2157.25
475.49	2386.25
476.266	2592.25
477.043	2869.25
477.819	3183.25
478.595	3478.25
479.371	3815.25
480.146	4174.25
480.922	4595.25
481.698	5053.25
482.473	5528.25
483.249	6041.25
484.024	6629.25
484.8	7281.25
485.575	7948.25
486.35	8649.25
487.126	9418.25
487.901	10243.25
488.676	11145.25
489.451	12145.25
490.225	13202.25
491	14322.25
491.775	15473.25
492.55	16689.25
493.324	17992.25
494.099	19234.25
494.873	20540.25
495.647	21993.25
496.422	23345.25
497.196	24803.25
497.97	26323.25
498.744	27684.25
499.518	29004.25
500.292	30279.25
501.066	31301.25
501.839	32425.25
502.613	33414.25
503.387	34109.25
504.16	34697.25
504.934	35004.25
505.707	35087.25
506.48	35032.25
507.253	34728.25
508.027	34369.25
508.8	33892.25
509.573	33100.25
510.346	32396.25
511.118	31360.25
511.891	30441.25
512.664	29337.25
513.437	28223.25
514.209	27180.25
514.982	26104.25
515.754	25060.25
516.526	24039.25
517.298	22952.25
518.071	21948.25
518.843	21141.25
519.615	20227.25
520.387	19423.25
521.159	18737.25
521.93	17988.25
522.702	17260.25
523.474	16587.25
524.245	15955.25
525.017	15222.25
525.788	14506.25
526.56	13876.25
527.331	13269.25
528.102	12655.25
528.873	12022.25
529.644	11446.25
530.415	10944.25
531.186	10414.25
531.957	9883.25
532.728	9321.25
533.498	8818.25
534.269	8342.25
535.039	7922.25
535.81	7451.25
536.58	7026.25
537.351	6663.25
538.121	6273.25
538.891	5960.25
539.661	5648.25
540.431	5345.25
541.201	5080.25
541.971	4791.25
542.741	4558.25
543.51	4364.25
544.28	4114.25
545.05	3920.25
545.819	3720.25
546.588	3551.25
547.358	3342.25
548.127	3174.25
548.896	3020.25
549.665	2849.25
550.434	2737.25
551.203	2552.25
551.972	2437.25
552.741	2318.25
553.51	2176.25
554.278	2049.25
555.047	1941.25
555.815	1829.25
556.584	1728.25
557.352	1633.25
558.121	1547.25
558.889	1453.25
559.657	1377.25
560.425	1298.25
561.193	1217.25
561.961	1158.25
562.729	1113.25
563.496	1046.25
564.264	985.25
565.032	921.25
565.799	884.25
566.567	840.25
567.334	783.25
568.101	743.25
568.869	700.25
569.636	658.25
570.403	616.25
571.17	587.25
571.937	564.25
572.704	529.25
573.471	501.25
574.237	465.25
575.004	446.25
575.771	410.25
576.537	391.25
577.303	364.25
578.07	349.25
578.836	321.25
579.602	307.25
580.368	296.25
581.134	280.25
581.9	269.25
582.666	251.25
583.432	236.25
584.198	219.25
584.964	220.25
585.729	199.25
586.495	192.25
587.26	180.25
588.025	170.25
588.791	167.25
589.556	153.25
590.321	145.25
591.086	141.25
591.851	136.25
592.616	126.25
593.381	121.25
594.146	117.25
594.911	109.25
595.675	108.25
596.44	104.25
597.204	93.25
597.969	86.25
598.733	89.25
599.497	86.25
600.261	82.25
601.025	73.25
601.79	70.25
602.553	70.25
603.317	67.25
604.081	63.25
604.845	63.25
605.609	59.25
606.372	55.25
607.136	51.25
607.899	50.25
608.662	52.25
609.426	48.25
610.189	48.25
610.952	46.25
611.715	41.25
612.478	43.25
613.241	40.25
614.004	36.25
614.767	40.25
615.529	37.25
616.292	35.25
617.055	34.25
617.817	34.25
618.579	29.25
619.342	31.25
620.104	28.25
620.866	26.25
621.628	28.25
622.39	27.25
623.152	25.25
623.914	25.25
624.676	24.25
625.438	23.25
626.199	22.25
626.961	21.25
627.722	20.25
628.484	21.25
629.245	19.25
630.006	19.25
630.768	19.25
631.529	18.25
632.29	17.25
633.051	16.25
633.812	14.25
634.573	16.25
635.333	14.25
636.094	15.25
636.855	13.25
637.615	14.25
638.376	14.25
639.136	13.25
639.896	15.25
640.657	11.25
641.417	10.25
642.177	10.25
642.937	12.25
643.697	10.25
644.457	10.25
645.216	8.25
645.976	7.25
646.736	9.25
647.495	11.25
648.255	9.25
649.014	10.25
649.774	12.25
650.533	11.25
651.292	8.25
652.051	12.25
652.81	9.25
653.569	7.25
654.328	8.25
655.087	7.25
655.846	10.25
656.604	7.25
657.363	8.25
658.121	8.25
658.88	6.25
659.638	7.25
660.397	7.25
661.155	7.25
661.913	6.25
662.671	6.25
663.429	7.25
664.187	6.25
664.945	5.25
665.703	8.25
666.46	6.25
667.218	7.25
667.976	6.25
668.733	6.25
669.49	6.25
670.248	4.25
671.005	6.25
671.762	5.25
672.519	7.25
673.276	5.25
674.033	7.25
674.79	5.25
675.547	7.25
676.304	7.25
677.06	5.25
677.817	5.25
678.574	4.25
679.33	7.25
680.086	5.25
680.843	6.25
681.599	8.25
682.355	3.25
683.111	6.25
683.867	5.25
684.623	5.25
685.379	4.25
686.135	5.25
686.89	5.25
687.646	4.25
688.402	6.25
689.157	4.25
689.912	5.25
690.668	3.25
691.423	3.25
692.178	4.25
692.933	4.25
693.688	4.25
694.443	6.25
695.198	5.25
695.953	4.25
696.708	7.25
697.462	5.25
698.217	6.25
698.972	5.25
699.726	2.25
700.48	3.25
701.235	4.25
701.989	7.25
702.743	3.25
703.497	3.25
704.251	7.25
705.005	6.25
705.759	5.25
706.513	7.25
707.266	5.25
708.02	6.25
708.774	4.25
709.527	3.25
710.28	4.25
711.034	4.25
711.787	5.25
712.54	6.25
713.293	3.25
714.046	4.25
714.799	3.25
715.552	7.25
716.305	5.25
717.058	8.25
717.81	7.25
718.563	4.25
719.315	6.25
720.068	3.25
720.82	6.25
721.573	6.25
722.325	6.25
723.077	4.25
723.829	2.25
724.581	5.25
725.333	6.25
726.085	6.25
726.836	6.25
727.588	3.25
728.34	5.25
729.091	5.25
729.843	8.25
730.594	6.25
731.346	6.25
732.097	8.25
732.848	5.25
733.599	8.25
734.35	4.25
735.101	5.25
735.852	6.25
736.603	4.25
737.354	4.25
738.104	5.25
738.855	4.25
739.605	5.25
740.356	5.25
741.106	6.25
741.856	5.25
742.607	8.25
743.357	5.25
744.107	7.25
744.857	5.25
745.607	8.25
746.357	7.25
747.106	6.25
747.856	5.25
748.606	8.25
749.355	9.25
750.105	6.25
750.854	5.25
751.603	8.25
752.353	5.25
753.102	4.25
753.851	8.25
754.6	7.25
755.349	8.25
756.098	7.25
756.847	8.25
757.595	5.25
758.344	10.25
759.093	8.25
759.841	6.25
760.589	6.25
761.338	8.25
762.086	10.25
762.834	8.25
763.582	9.25
764.331	8.25
765.079	8.25
765.826	9.25
766.574	9.25
767.322	10.25
768.07	12.25
768.817	8.25
769.565	12.25
770.312	8.25
771.06	10.25
771.807	10.25
772.554	9.25
773.302	8.25
774.049	8.25
774.796	11.25
775.543	10.25
776.29	10.25
777.036	11.25
777.783	8.25
778.53	10.25
779.276	10.25
780.023	10.25
780.769	10.25
781.516	13.25
782.262	10.25
783.008	13.25
783.754	11.25
784.5	10.25
785.246	13.25
785.992	10.25
786.738	10.25
787.484	12.25
788.23	9.25
788.975	10.25
789.721	12.25
790.466	9.25
791.212	11.25
791.957	12.25
792.702	10.25
793.447	12.25
794.193	10.25
794.938	10.25
795.683	7.25
796.427	12.25
797.172	6.25
797.917	8.25
798.662	10.25
799.406	9.25
800.151	7.25
800.895	8.25
801.64	13.25
802.384	8.25
803.128	10.25
803.872	10.25
804.616	6.25
805.36	8.25
806.104	7.25
806.848	6.25
807.592	8.25
808.336	5.25
809.079	5.25
809.823	9.25
810.566	8.25
811.31	5.25
812.053	8.25
812.796	6.25
813.539	5.25
814.283	7.25
815.026	6.25
815.769	10.25
816.511	6.25
817.254	6.25
817.997	5.25
818.74	8.25
819.482	4.25
820.225	6.25
820.967	7.25
821.71	7.25
822.452	8.25
823.194	8.25
823.936	5.25
824.678	5.25
825.42	7.25
826.162	2.25
826.904	5.25
827.646	4.25
828.388	5.25
829.129	4.25
829.871	5.25
830.612	4.25
831.354	3.25
832.095	6.25
832.836	1.25
833.577	4.25
834.319	4.25
835.06	2.25
835.801	3.25
836.542	4.25
837.282	5.25
838.023	2.25
838.764	6.25
839.504	4.25
840.245	3.25
840.985	4.25
841.726	4.25
842.466	3.25
843.206	5.25
843.946	2.25
844.687	2.25
845.427	3.25
846.166	5.25
846.906	5.25
847.646	2.25
848.386	4.25
849.125	3.25
849.865	4.25
850.605	3.25
851.344	4.25
852.083	2.25
852.823	1.25
853.562	3.25
854.301	1.25
855.04	2.25
855.779	1.25
856.518	4.25
857.257	4.25
857.995	3.25
858.734	4.25
859.473	2.25
860.211	2.25
860.95	2.25
861.688	2.25
862.426	3.25
863.165	4.25
863.903	4.25
864.641	1.25
865.379	2.25
866.117	0.25
866.855	0.25
867.593	2.25
868.33	1.25
869.068	3.25
869.806	2.25
870.543	-0.75
871.28	3.25
872.018	1.25
872.755	2.25
873.492	2.25
874.229	2.25
874.967	1.25
875.703	2.25
876.44	2.25
877.177	0.25
877.914	1.25
878.651	2.25
879.387	-1.75
880.124	1.25
880.86	2.25
881.597	1.25
882.333	1.25
883.069	1.25
883.806	2.25
884.542	4.25
885.278	4.25
886.014	1.25
886.749	1.25
887.485	0.25
888.221	1.25
888.957	0.25
889.692	0.25
890.428	2.25
891.163	-0.75
891.899	0.25
892.634	0.25
893.369	1.25
894.104	2.25
894.839	-0.75
895.574	2.25
896.309	1.25
897.044	2.25
897.779	2.25
898.514	-0.75
899.248	0.25
899.983	2.25
900.717	1.25
901.452	-1.75
902.186	0.25
902.92	2.25
903.654	0.25
904.389	3.25
905.123	1.25
905.857	-0.75
906.59	0.25
907.324	1.25
908.058	3.25
908.792	0.25
909.525	0.25
910.259	0.25
910.992	0.25
911.726	3.25
912.459	-0.75
913.192	0.25
913.925	1.25
914.658	-1.75
915.391	1.25
916.124	0.25
916.857	0.25
917.59	1.25
918.323	2.25
919.055	-0.75
919.788	-0.75
920.521	1.25
921.253	0.25
921.985	0.25
922.718	1.25
923.45	1.25
924.182	2.25
924.914	0.25
925.646	0.25
926.378	-0.75
927.11	0.25
927.841	-1.75
928.573	-0.75
929.305	1.25
930.036	0.25
930.768	2.25
931.499	0.25
932.23	-0.75
932.962	1.25
933.693	2.25
934.424	-0.75
935.155	-1.75
935.886	1.25
936.617	-0.75
937.348	-1.75
938.078	-1.75
938.809	-0.75
939.54	0.25
940.27	0.25
941.001	2.25
941.731	0.25
942.461	-1.75
943.191	2.25
943.922	1.25
944.652	1.25
945.382	2.25
946.112	0.25
946.841	0.25
947.571	-1.75
948.301	2.25
949.031	0.25
949.76	0.25
950.49	0.25
951.219	1.25
951.948	-1.75
952.678	-0.75
953.407	1.25
954.136	0.25
954.865	-0.75
955.594	0.25
956.323	1.25
957.052	3.25
957.78	0.25
958.509	0.25
959.238	0.25
959.966	1.25
960.695	-0.75
961.423	-2.75
962.151	0.25
962.88	2.25
963.608	2.25
964.336	-0.75
965.064	-1.75
965.792	0.25
966.52	1.25
967.247	2.25
967.975	1.25
968.703	2.25
969.43	1.25
970.158	-0.75
970.885	1.25
971.613	0.25
972.34	-0.75
973.067	0.25
973.794	-1.75
974.521	2.25
975.248	0.25
975.975	-1.75
976.702	-1.75
977.429	1.25
978.156	0.25
978.882	0.25
979.609	-0.75
980.335	-3.75
981.062	-0.75
981.788	1.25
982.514	-1.75
983.24	1.25
983.967	-0.75
984.693	0.25
985.419	1.25
986.144	1.25
986.87	0.25
987.596	-0.75
988.322	1.25
989.047	1.25
989.773	0.25
990.498	0.25
991.224	0.25
991.949	0.25
992.674	-0.75
993.399	-1.75
994.124	0.25
994.849	1.25
995.574	0.25
996.299	1.25
997.024	-1.75
997.749	0.25
998.473	-0.75
999.198	2.25
999.922	1.25
1000.647	1.25
1001.371	3.25
1002.095	-1.75
1002.82	-0.75
1003.544	-0.75
1004.268	1.25
1004.992	1.25
1005.716	2.25
1006.439	3.25
1007.163	2.25
1007.887	3.25
1008.611	-0.75
1009.334	0.25
1010.058	0.25
1010.781	-0.75
1011.504	0.25
1012.228	1.25
1012.951	1.25
1013.674	-1.75
1014.397	-0.75
1015.12	1.25
