节点500_425_QEPB04081__114__15-50-12-314.txt的数据

Date: Wed Nov 12 15:50:12 CST 2025
User: PC
Spectrometer: QEPB0408
触发模式: 0
积分时间 (秒): 1.000000E-2
Scans to average: 1
启用暗噪声校正: true
启用非线性校正: false
滑动平均宽度: 0
X轴模式: Wavelengths
Number of Pixels in Spectrum: 1044
>>>>>Begin Spectral Data<<<<<
220.843	2.38
221.644	3.38
222.444	1.38
223.244	1.38
224.045	3.38
224.845	4.38
225.645	1.38
226.445	3.38
227.245	6.38
228.045	3.38
228.845	3.38
229.645	4.38
230.444	4.38
231.244	5.38
232.043	3.38
232.843	3.38
233.642	4.38
234.442	5.38
235.241	4.38
236.04	4.38
236.839	5.38
237.638	4.38
238.437	6.38
239.236	8.38
240.035	7.38
240.833	7.38
241.632	4.38
242.43	6.38
243.229	6.38
244.027	6.38
244.826	9.38
245.624	6.38
246.422	8.38
247.22	4.38
248.018	7.38
248.816	9.38
249.614	9.38
250.412	6.38
251.21	9.38
252.007	10.38
252.805	8.38
253.602	11.38
254.4	11.38
255.197	10.38
255.994	9.38
256.791	12.38
257.589	13.38
258.386	11.38
259.183	11.38
259.979	16.38
260.776	15.38
261.573	14.38
262.37	16.38
263.166	16.38
263.963	14.38
264.759	16.38
265.556	17.38
266.352	17.38
267.148	17.38
267.944	18.38
268.74	18.38
269.536	20.38
270.332	18.38
271.128	24.38
271.924	21.38
272.719	25.38
273.515	21.38
274.311	22.38
275.106	21.38
275.901	24.38
276.697	24.38
277.492	20.38
278.287	24.38
279.082	22.38
279.877	23.38
280.672	23.38
281.467	22.38
282.262	25.38
283.056	24.38
283.851	24.38
284.646	22.38
285.44	22.38
286.234	27.38
287.029	23.38
287.823	23.38
288.617	25.38
289.411	25.38
290.205	24.38
290.999	22.38
291.793	23.38
292.587	24.38
293.381	21.38
294.174	20.38
294.968	20.38
295.761	21.38
296.555	17.38
297.348	20.38
298.141	19.38
298.935	19.38
299.728	19.38
300.521	18.38
301.314	16.38
302.107	19.38
302.899	13.38
303.692	16.38
304.485	15.38
305.277	18.38
306.07	15.38
306.862	15.38
307.655	12.38
308.447	16.38
309.239	14.38
310.031	13.38
310.823	15.38
311.615	15.38
312.407	12.38
313.199	13.38
313.991	10.38
314.783	13.38
315.574	10.38
316.366	10.38
317.157	9.38
317.949	11.38
318.74	11.38
319.531	8.38
320.322	8.38
321.113	10.38
321.904	9.38
322.695	9.38
323.486	7.38
324.277	8.38
325.068	7.38
325.858	11.38
326.649	8.38
327.439	8.38
328.23	6.38
329.02	6.38
329.81	7.38
330.6	6.38
331.391	6.38
332.181	9.38
332.971	9.38
333.76	7.38
334.55	7.38
335.34	9.38
336.13	7.38
336.919	8.38
337.709	9.38
338.498	8.38
339.287	6.38
340.077	9.38
340.866	8.38
341.655	9.38
342.444	8.38
343.233	6.38
344.022	9.38
344.811	7.38
345.6	6.38
346.388	8.38
347.177	6.38
347.965	7.38
348.754	6.38
349.542	6.38
350.33	6.38
351.119	7.38
351.907	6.38
352.695	7.38
353.483	7.38
354.271	5.38
355.059	5.38
355.846	7.38
356.634	6.38
357.422	5.38
358.209	8.38
358.997	7.38
359.784	7.38
360.571	5.38
361.359	5.38
362.146	6.38
362.933	6.38
363.72	5.38
364.507	6.38
365.294	6.38
366.081	7.38
366.867	5.38
367.654	8.38
368.44	5.38
369.227	5.38
370.013	7.38
370.8	7.38
371.586	7.38
372.372	5.38
373.158	6.38
373.944	4.38
374.73	6.38
375.516	8.38
376.302	3.38
377.088	5.38
377.873	4.38
378.659	6.38
379.445	5.38
380.23	4.38
381.015	4.38
381.801	4.38
382.586	7.38
383.371	5.38
384.156	7.38
384.941	6.38
385.726	5.38
386.511	8.38
387.296	7.38
388.08	9.38
388.865	6.38
389.649	5.38
390.434	7.38
391.218	6.38
392.003	7.38
392.787	7.38
393.571	5.38
394.355	6.38
395.139	7.38
395.923	7.38
396.707	6.38
397.491	10.38
398.274	11.38
399.058	9.38
399.842	11.38
400.625	8.38
401.408	9.38
402.192	7.38
402.975	10.38
403.758	9.38
404.541	9.38
405.324	7.38
406.107	10.38
406.89	10.38
407.673	10.38
408.456	13.38
409.238	10.38
410.021	9.38
410.803	12.38
411.586	9.38
412.368	12.38
413.151	12.38
413.933	10.38
414.715	13.38
415.497	11.38
416.279	11.38
417.061	13.38
417.843	11.38
418.624	14.38
419.406	12.38
420.188	12.38
420.969	13.38
421.751	17.38
422.532	15.38
423.313	13.38
424.095	15.38
424.876	15.38
425.657	16.38
426.438	19.38
427.219	17.38
428	17.38
428.78	15.38
429.561	20.38
430.342	16.38
431.122	19.38
431.903	19.38
432.683	21.38
433.464	21.38
434.244	22.38
435.024	21.38
435.804	25.38
436.584	26.38
437.364	25.38
438.144	29.38
438.924	27.38
439.704	32.38
440.483	34.38
441.263	34.38
442.042	35.38
442.822	37.38
443.601	40.38
444.38	46.38
445.16	51.38
445.939	49.38
446.718	54.38
447.497	59.38
448.276	63.38
449.054	67.38
449.833	73.38
450.612	79.38
451.391	90.38
452.169	95.38
452.948	109.38
453.726	118.38
454.504	131.38
455.282	141.38
456.061	159.38
456.839	172.38
457.617	192.38
458.395	220.38
459.172	244.38
459.95	273.38
460.728	300.38
461.506	337.38
462.283	373.38
463.061	437.38
463.838	477.38
464.615	525.38
465.393	588.38
466.17	660.38
466.947	731.38
467.724	832.38
468.501	918.38
469.278	1037.38
470.055	1132.38
470.831	1258.38
471.608	1419.38
472.385	1560.38
473.161	1739.38
473.938	1940.38
474.714	2143.38
475.49	2355.38
476.266	2622.38
477.043	2895.38
477.819	3186.38
478.595	3532.38
479.371	3925.38
480.146	4311.38
480.922	4724.38
481.698	5217.38
482.473	5719.38
483.249	6295.38
484.024	6939.38
484.8	7662.38
485.575	8348.38
486.35	9154.38
487.126	10029.38
487.901	10917.38
488.676	12010.38
489.451	13074.38
490.225	14228.38
491	15450.38
491.775	16857.38
492.55	18152.38
493.324	19604.38
494.099	21000.38
494.873	22440.38
495.647	23988.38
496.422	25499.38
497.196	27055.38
497.97	28658.38
498.744	30103.38
499.518	31482.38
500.292	32721.38
501.066	33837.38
501.839	34969.38
502.613	35811.38
503.387	36403.38
504.16	36815.38
504.934	36941.38
505.707	36849.38
506.48	36545.38
507.253	36153.38
508.027	35541.38
508.8	34837.38
509.573	33933.38
510.346	32864.38
511.118	31788.38
511.891	30723.38
512.664	29518.38
513.437	28329.38
514.209	27052.38
514.982	26038.38
515.754	24896.38
516.526	23777.38
517.298	22750.38
518.071	21744.38
518.843	20910.38
519.615	20073.38
520.387	19228.38
521.159	18484.38
521.93	17829.38
522.702	17049.38
523.474	16446.38
524.245	15746.38
525.017	14982.38
525.788	14316.38
526.56	13629.38
527.331	12945.38
528.102	12438.38
528.873	11775.38
529.644	11195.38
530.415	10648.38
531.186	10131.38
531.957	9580.38
532.728	9031.38
533.498	8564.38
534.269	8040.38
535.039	7629.38
535.81	7184.38
536.58	6797.38
537.351	6404.38
538.121	6037.38
538.891	5733.38
539.661	5453.38
540.431	5176.38
541.201	4873.38
541.971	4630.38
542.741	4399.38
543.51	4162.38
544.28	3961.38
545.05	3785.38
545.819	3590.38
546.588	3408.38
547.358	3216.38
548.127	3065.38
548.896	2899.38
549.665	2743.38
550.434	2604.38
551.203	2461.38
551.972	2335.38
552.741	2220.38
553.51	2075.38
554.278	1962.38
555.047	1863.38
555.815	1743.38
556.584	1636.38
557.352	1560.38
558.121	1473.38
558.889	1390.38
559.657	1317.38
560.425	1235.38
561.193	1156.38
561.961	1103.38
562.729	1042.38
563.496	990.38
564.264	924.38
565.032	889.38
565.799	854.38
566.567	792.38
567.334	743.38
568.101	706.38
568.869	658.38
569.636	629.38
570.403	597.38
571.17	550.38
571.937	526.38
572.704	496.38
573.471	467.38
574.237	444.38
575.004	412.38
575.771	392.38
576.537	370.38
577.303	345.38
578.07	334.38
578.836	311.38
579.602	293.38
580.368	276.38
581.134	269.38
581.9	256.38
582.666	239.38
583.432	228.38
584.198	215.38
584.964	198.38
585.729	196.38
586.495	182.38
587.26	168.38
588.025	161.38
588.791	154.38
589.556	149.38
590.321	140.38
591.086	129.38
591.851	123.38
592.616	123.38
593.381	115.38
594.146	109.38
594.911	103.38
595.675	100.38
596.44	93.38
597.204	93.38
597.969	83.38
598.733	87.38
599.497	79.38
600.261	78.38
601.025	70.38
601.79	67.38
602.553	65.38
603.317	63.38
604.081	58.38
604.845	56.38
605.609	58.38
606.372	52.38
607.136	49.38
607.899	48.38
608.662	44.38
609.426	43.38
610.189	43.38
610.952	41.38
611.715	39.38
612.478	36.38
613.241	36.38
614.004	36.38
614.767	35.38
615.529	33.38
616.292	33.38
617.055	34.38
617.817	27.38
618.579	29.38
619.342	27.38
620.104	26.38
620.866	22.38
621.628	23.38
622.39	23.38
623.152	24.38
623.914	24.38
624.676	24.38
625.438	22.38
626.199	21.38
626.961	19.38
627.722	22.38
628.484	18.38
629.245	17.38
630.006	18.38
630.768	17.38
631.529	18.38
632.29	16.38
633.051	16.38
633.812	15.38
634.573	16.38
635.333	13.38
636.094	14.38
636.855	15.38
637.615	13.38
638.376	13.38
639.136	15.38
639.896	13.38
640.657	11.38
641.417	12.38
642.177	11.38
642.937	9.38
643.697	12.38
644.457	9.38
645.216	10.38
645.976	12.38
646.736	10.38
647.495	11.38
648.255	8.38
649.014	11.38
649.774	9.38
650.533	5.38
651.292	9.38
652.051	5.38
652.81	7.38
653.569	7.38
654.328	8.38
655.087	6.38
655.846	7.38
656.604	9.38
657.363	7.38
658.121	8.38
658.88	5.38
659.638	5.38
660.397	6.38
661.155	5.38
661.913	8.38
662.671	3.38
663.429	5.38
664.187	8.38
664.945	8.38
665.703	6.38
666.46	3.38
667.218	6.38
667.976	4.38
668.733	5.38
669.49	7.38
670.248	6.38
671.005	6.38
671.762	5.38
672.519	6.38
673.276	6.38
674.033	5.38
674.79	6.38
675.547	4.38
676.304	5.38
677.06	4.38
677.817	3.38
678.574	3.38
679.33	3.38
680.086	5.38
680.843	4.38
681.599	5.38
682.355	3.38
683.111	2.38
683.867	6.38
684.623	3.38
685.379	5.38
686.135	5.38
686.89	1.38
687.646	4.38
688.402	4.38
689.157	4.38
689.912	3.38
690.668	4.38
691.423	4.38
692.178	5.38
692.933	4.38
693.688	3.38
694.443	6.38
695.198	5.38
695.953	4.38
696.708	4.38
697.462	3.38
698.217	3.38
698.972	4.38
699.726	5.38
700.48	3.38
701.235	2.38
701.989	5.38
702.743	2.38
703.497	6.38
704.251	2.38
705.005	6.38
705.759	4.38
706.513	3.38
707.266	6.38
708.02	3.38
708.774	5.38
709.527	4.38
710.28	2.38
711.034	5.38
711.787	3.38
712.54	3.38
713.293	5.38
714.046	6.38
714.799	2.38
715.552	3.38
716.305	6.38
717.058	4.38
717.81	6.38
718.563	3.38
719.315	4.38
720.068	5.38
720.82	3.38
721.573	6.38
722.325	5.38
723.077	3.38
723.829	3.38
724.581	5.38
725.333	7.38
726.085	5.38
726.836	4.38
727.588	5.38
728.34	6.38
729.091	6.38
729.843	4.38
730.594	7.38
731.346	4.38
732.097	5.38
732.848	4.38
733.599	5.38
734.35	7.38
735.101	4.38
735.852	7.38
736.603	4.38
737.354	5.38
738.104	5.38
738.855	6.38
739.605	5.38
740.356	4.38
741.106	7.38
741.856	7.38
742.607	4.38
743.357	4.38
744.107	6.38
744.857	6.38
745.607	6.38
746.357	6.38
747.106	5.38
747.856	6.38
748.606	7.38
749.355	5.38
750.105	8.38
750.854	7.38
751.603	5.38
752.353	7.38
753.102	7.38
753.851	6.38
754.6	7.38
755.349	7.38
756.098	6.38
756.847	9.38
757.595	9.38
758.344	6.38
759.093	6.38
759.841	7.38
760.589	8.38
761.338	9.38
762.086	6.38
762.834	6.38
763.582	6.38
764.331	7.38
765.079	9.38
765.826	6.38
766.574	8.38
767.322	8.38
768.07	10.38
768.817	12.38
769.565	11.38
770.312	9.38
771.06	9.38
771.807	12.38
772.554	10.38
773.302	11.38
774.049	8.38
774.796	12.38
775.543	9.38
776.29	12.38
777.036	10.38
777.783	9.38
778.53	11.38
779.276	9.38
780.023	10.38
780.769	12.38
781.516	10.38
782.262	10.38
783.008	12.38
783.754	11.38
784.5	11.38
785.246	11.38
785.992	11.38
786.738	11.38
787.484	11.38
788.23	11.38
788.975	10.38
789.721	10.38
790.466	10.38
791.212	9.38
791.957	9.38
792.702	9.38
793.447	8.38
794.193	10.38
794.938	9.38
795.683	11.38
796.427	11.38
797.172	8.38
797.917	9.38
798.662	9.38
799.406	8.38
800.151	10.38
800.895	9.38
801.64	9.38
802.384	3.38
803.128	7.38
803.872	8.38
804.616	8.38
805.36	6.38
806.104	6.38
806.848	7.38
807.592	7.38
808.336	6.38
809.079	5.38
809.823	5.38
810.566	9.38
811.31	6.38
812.053	6.38
812.796	6.38
813.539	7.38
814.283	6.38
815.026	3.38
815.769	5.38
816.511	5.38
817.254	3.38
817.997	6.38
818.74	4.38
819.482	5.38
820.225	4.38
820.967	4.38
821.71	4.38
822.452	4.38
823.194	4.38
823.936	6.38
824.678	7.38
825.42	3.38
826.162	5.38
826.904	4.38
827.646	3.38
828.388	5.38
829.129	3.38
829.871	2.38
830.612	4.38
831.354	1.38
832.095	3.38
832.836	3.38
833.577	3.38
834.319	3.38
835.06	3.38
835.801	3.38
836.542	5.38
837.282	1.38
838.023	3.38
838.764	3.38
839.504	3.38
840.245	3.38
840.985	4.38
841.726	2.38
842.466	2.38
843.206	2.38
843.946	3.38
844.687	2.38
845.427	5.38
846.166	4.38
846.906	1.38
847.646	3.38
848.386	3.38
849.125	1.38
849.865	1.38
850.605	2.38
851.344	4.38
852.083	3.38
852.823	1.38
853.562	4.38
854.301	-0.62
855.04	1.38
855.779	1.38
856.518	4.38
857.257	0.38
857.995	4.38
858.734	1.38
859.473	2.38
860.211	4.38
860.95	1.38
861.688	-0.62
862.426	2.38
863.165	-0.62
863.903	1.38
864.641	2.38
865.379	2.38
866.117	2.38
866.855	0.38
867.593	1.38
868.33	1.38
869.068	1.38
869.806	-0.62
870.543	2.38
871.28	1.38
872.018	-1.62
872.755	0.38
873.492	1.38
874.229	0.38
874.967	-0.62
875.703	-2.62
876.44	2.38
877.177	1.38
877.914	-1.62
878.651	0.38
879.387	0.38
880.124	1.38
880.86	-0.62
881.597	2.38
882.333	-1.62
883.069	1.38
883.806	-0.62
884.542	-0.62
885.278	1.38
886.014	1.38
886.749	1.38
887.485	0.38
888.221	-0.62
888.957	-0.62
889.692	-1.62
890.428	-0.62
891.163	0.38
891.899	0.38
892.634	1.38
893.369	-1.62
894.104	0.38
894.839	-0.62
895.574	1.38
896.309	0.38
897.044	2.38
897.779	0.38
898.514	-1.62
899.248	-0.62
899.983	0.38
900.717	-0.62
901.452	0.38
902.186	1.38
902.92	0.38
903.654	-0.62
904.389	-0.62
905.123	-1.62
905.857	-0.62
906.59	-1.62
907.324	0.38
908.058	-0.62
908.792	-0.62
909.525	1.38
910.259	0.38
910.992	-0.62
911.726	-1.62
912.459	1.38
913.192	0.38
913.925	0.38
914.658	-0.62
915.391	-1.62
916.124	-1.62
916.857	0.38
917.59	-0.62
918.323	0.38
919.055	0.38
919.788	-1.62
920.521	-0.62
921.253	-2.62
921.985	0.38
922.718	0.38
923.45	-1.62
924.182	1.38
924.914	-0.62
925.646	-0.62
926.378	-2.62
927.11	-1.62
927.841	0.38
928.573	-1.62
929.305	-0.62
930.036	-1.62
930.768	0.38
931.499	0.38
932.23	-0.62
932.962	-0.62
933.693	-2.62
934.424	-0.62
935.155	-0.62
935.886	1.38
936.617	-0.62
937.348	-2.62
938.078	-0.62
938.809	-0.62
939.54	-0.62
940.27	-1.62
941.001	-2.62
941.731	0.38
942.461	-2.62
943.191	0.38
943.922	-0.62
944.652	1.38
945.382	-1.62
946.112	-1.62
946.841	-0.62
947.571	-0.62
948.301	-0.62
949.031	-0.62
949.76	0.38
950.49	-2.62
951.219	-2.62
951.948	-0.62
952.678	-0.62
953.407	-0.62
954.136	-0.62
954.865	0.38
955.594	-2.62
956.323	-2.62
957.052	0.38
957.78	0.38
958.509	-0.62
959.238	1.38
959.966	-3.62
960.695	0.38
961.423	-0.62
962.151	1.38
962.88	-2.62
963.608	0.38
964.336	-0.62
965.064	0.38
965.792	0.38
966.52	0.38
967.247	1.38
967.975	-0.62
968.703	-0.62
969.43	0.38
970.158	-0.62
970.885	-0.62
971.613	0.38
972.34	1.38
973.067	0.38
973.794	-3.62
974.521	0.38
975.248	3.38
975.975	-0.62
976.702	-0.62
977.429	1.38
978.156	1.38
978.882	-2.62
979.609	0.38
980.335	-1.62
981.062	-0.62
981.788	-0.62
982.514	-0.62
983.24	-0.62
983.967	-0.62
984.693	0.38
985.419	0.38
986.144	-1.62
986.87	0.38
987.596	-0.62
988.322	0.38
989.047	0.38
989.773	0.38
990.498	-0.62
991.224	-0.62
991.949	0.38
992.674	-1.62
993.399	0.38
994.124	-0.62
994.849	-0.62
995.574	-2.62
996.299	-1.62
997.024	0.38
997.749	-0.62
998.473	-0.62
999.198	-0.62
999.922	-1.62
1000.647	-1.62
1001.371	1.38
1002.095	-1.62
1002.82	-1.62
1003.544	-0.62
1004.268	-0.62
1004.992	1.38
1005.716	1.38
1006.439	-0.62
1007.163	3.38
1007.887	2.38
1008.611	-0.62
1009.334	1.38
1010.058	-0.62
1010.781	-2.62
1011.504	1.38
1012.228	-2.62
1012.951	1.38
1013.674	-1.62
1014.397	2.38
1015.12	0.38
