节点500_425_QEPB04081__313__15-53-30-855.txt的数据

Date: Wed Nov 12 15:53:30 CST 2025
User: PC
Spectrometer: QEPB0408
触发模式: 0
积分时间 (秒): 1.000000E-2
Scans to average: 1
启用暗噪声校正: true
启用非线性校正: false
滑动平均宽度: 0
X轴模式: Wavelengths
Number of Pixels in Spectrum: 1044
>>>>>Begin Spectral Data<<<<<
220.843	1.62
221.644	4.62
222.444	1.62
223.244	5.62
224.045	4.62
224.845	3.62
225.645	3.62
226.445	2.62
227.245	2.62
228.045	5.62
228.845	5.62
229.645	4.62
230.444	5.62
231.244	6.62
232.043	5.62
232.843	7.62
233.642	4.62
234.442	5.62
235.241	6.62
236.04	2.62
236.839	7.62
237.638	5.62
238.437	7.62
239.236	5.62
240.035	7.62
240.833	10.62
241.632	6.62
242.43	6.62
243.229	7.62
244.027	8.62
244.826	10.62
245.624	6.62
246.422	10.62
247.22	8.62
248.018	8.62
248.816	10.62
249.614	8.62
250.412	10.62
251.21	12.62
252.007	10.62
252.805	13.62
253.602	8.62
254.4	10.62
255.197	10.62
255.994	12.62
256.791	11.62
257.589	12.62
258.386	13.62
259.183	13.62
259.979	14.62
260.776	13.62
261.573	18.62
262.37	14.62
263.166	14.62
263.963	18.62
264.759	18.62
265.556	18.62
266.352	17.62
267.148	19.62
267.944	18.62
268.74	17.62
269.536	20.62
270.332	21.62
271.128	21.62
271.924	22.62
272.719	21.62
273.515	23.62
274.311	21.62
275.106	24.62
275.901	22.62
276.697	21.62
277.492	23.62
278.287	26.62
279.082	24.62
279.877	23.62
280.672	26.62
281.467	25.62
282.262	29.62
283.056	24.62
283.851	23.62
284.646	26.62
285.44	25.62
286.234	24.62
287.029	25.62
287.823	24.62
288.617	25.62
289.411	25.62
290.205	27.62
290.999	26.62
291.793	22.62
292.587	25.62
293.381	19.62
294.174	22.62
294.968	19.62
295.761	22.62
296.555	18.62
297.348	19.62
298.141	18.62
298.935	23.62
299.728	21.62
300.521	19.62
301.314	21.62
302.107	18.62
302.899	16.62
303.692	17.62
304.485	15.62
305.277	16.62
306.07	17.62
306.862	12.62
307.655	14.62
308.447	16.62
309.239	15.62
310.031	14.62
310.823	14.62
311.615	12.62
312.407	14.62
313.199	12.62
313.991	9.62
314.783	10.62
315.574	11.62
316.366	11.62
317.157	11.62
317.949	12.62
318.74	7.62
319.531	10.62
320.322	12.62
321.113	10.62
321.904	8.62
322.695	10.62
323.486	9.62
324.277	8.62
325.068	10.62
325.858	10.62
326.649	10.62
327.439	10.62
328.23	8.62
329.02	7.62
329.81	10.62
330.6	8.62
331.391	9.62
332.181	8.62
332.971	8.62
333.76	10.62
334.55	8.62
335.34	10.62
336.13	9.62
336.919	9.62
337.709	9.62
338.498	10.62
339.287	7.62
340.077	8.62
340.866	8.62
341.655	7.62
342.444	8.62
343.233	9.62
344.022	10.62
344.811	8.62
345.6	10.62
346.388	8.62
347.177	8.62
347.965	9.62
348.754	9.62
349.542	10.62
350.33	7.62
351.119	7.62
351.907	7.62
352.695	7.62
353.483	7.62
354.271	9.62
355.059	7.62
355.846	6.62
356.634	7.62
357.422	7.62
358.209	8.62
358.997	7.62
359.784	6.62
360.571	8.62
361.359	6.62
362.146	8.62
362.933	7.62
363.72	8.62
364.507	7.62
365.294	6.62
366.081	8.62
366.867	6.62
367.654	3.62
368.44	6.62
369.227	6.62
370.013	7.62
370.8	4.62
371.586	7.62
372.372	7.62
373.158	6.62
373.944	5.62
374.73	4.62
375.516	9.62
376.302	7.62
377.088	8.62
377.873	7.62
378.659	10.62
379.445	5.62
380.23	5.62
381.015	9.62
381.801	6.62
382.586	7.62
383.371	8.62
384.156	6.62
384.941	7.62
385.726	5.62
386.511	8.62
387.296	6.62
388.08	7.62
388.865	7.62
389.649	6.62
390.434	8.62
391.218	7.62
392.003	11.62
392.787	7.62
393.571	7.62
394.355	10.62
395.139	7.62
395.923	8.62
396.707	8.62
397.491	9.62
398.274	11.62
399.058	10.62
399.842	8.62
400.625	8.62
401.408	9.62
402.192	8.62
402.975	9.62
403.758	9.62
404.541	8.62
405.324	9.62
406.107	10.62
406.89	10.62
407.673	9.62
408.456	8.62
409.238	10.62
410.021	7.62
410.803	13.62
411.586	11.62
412.368	12.62
413.151	11.62
413.933	12.62
414.715	14.62
415.497	11.62
416.279	12.62
417.061	14.62
417.843	12.62
418.624	12.62
419.406	12.62
420.188	13.62
420.969	15.62
421.751	15.62
422.532	16.62
423.313	13.62
424.095	13.62
424.876	17.62
425.657	18.62
426.438	17.62
427.219	14.62
428	18.62
428.78	20.62
429.561	16.62
430.342	19.62
431.122	18.62
431.903	16.62
432.683	19.62
433.464	24.62
434.244	19.62
435.024	24.62
435.804	22.62
436.584	25.62
437.364	30.62
438.144	28.62
438.924	30.62
439.704	34.62
440.483	33.62
441.263	34.62
442.042	39.62
442.822	44.62
443.601	44.62
444.38	50.62
445.16	48.62
445.939	49.62
446.718	54.62
447.497	64.62
448.276	65.62
449.054	72.62
449.833	79.62
450.612	84.62
451.391	92.62
452.169	104.62
452.948	110.62
453.726	126.62
454.504	136.62
455.282	149.62
456.061	166.62
456.839	184.62
457.617	206.62
458.395	234.62
459.172	252.62
459.95	286.62
460.728	325.62
461.506	358.62
462.283	406.62
463.061	440.62
463.838	505.62
464.615	559.62
465.393	625.62
466.17	698.62
466.947	767.62
467.724	858.62
468.501	944.62
469.278	1059.62
470.055	1173.62
470.831	1297.62
471.608	1453.62
472.385	1589.62
473.161	1757.62
473.938	1926.62
474.714	2160.62
475.49	2374.62
476.266	2624.62
477.043	2860.62
477.819	3160.62
478.595	3493.62
479.371	3856.62
480.146	4198.62
480.922	4601.62
481.698	5078.62
482.473	5567.62
483.249	6062.62
484.024	6661.62
484.8	7328.62
485.575	7967.62
486.35	8642.62
487.126	9424.62
487.901	10284.62
488.676	11245.62
489.451	12221.62
490.225	13214.62
491	14373.62
491.775	15579.62
492.55	16783.62
493.324	18052.62
494.099	19335.62
494.873	20630.62
495.647	22073.62
496.422	23444.62
497.196	24952.62
497.97	26454.62
498.744	27811.62
499.518	29159.62
500.292	30403.62
501.066	31461.62
501.839	32601.62
502.613	33501.62
503.387	34161.62
504.16	34736.62
504.934	35111.62
505.707	35196.62
506.48	35099.62
507.253	34805.62
508.027	34531.62
508.8	33956.62
509.573	33191.62
510.346	32408.62
511.118	31506.62
511.891	30453.62
512.664	29376.62
513.437	28262.62
514.209	27135.62
514.982	26024.62
515.754	25102.62
516.526	23977.62
517.298	22985.62
518.071	21992.62
518.843	21127.62
519.615	20208.62
520.387	19430.62
521.159	18741.62
521.93	17984.62
522.702	17222.62
523.474	16593.62
524.245	15893.62
525.017	15221.62
525.788	14505.62
526.56	13845.62
527.331	13206.62
528.102	12610.62
528.873	12026.62
529.644	11446.62
530.415	10919.62
531.186	10376.62
531.957	9842.62
532.728	9314.62
533.498	8756.62
534.269	8306.62
535.039	7883.62
535.81	7435.62
536.58	7056.62
537.351	6600.62
538.121	6260.62
538.891	5935.62
539.661	5655.62
540.431	5351.62
541.201	5088.62
541.971	4803.62
542.741	4542.62
543.51	4314.62
544.28	4098.62
545.05	3890.62
545.819	3713.62
546.588	3525.62
547.358	3354.62
548.127	3179.62
548.896	3013.62
549.665	2854.62
550.434	2715.62
551.203	2572.62
551.972	2446.62
552.741	2317.62
553.51	2166.62
554.278	2047.62
555.047	1923.62
555.815	1845.62
556.584	1733.62
557.352	1625.62
558.121	1526.62
558.889	1449.62
559.657	1385.62
560.425	1281.62
561.193	1215.62
561.961	1173.62
562.729	1096.62
563.496	1036.62
564.264	982.62
565.032	922.62
565.799	886.62
566.567	835.62
567.334	781.62
568.101	746.62
568.869	693.62
569.636	658.62
570.403	625.62
571.17	584.62
571.937	555.62
572.704	526.62
573.471	500.62
574.237	467.62
575.004	435.62
575.771	417.62
576.537	388.62
577.303	369.62
578.07	347.62
578.836	326.62
579.602	309.62
580.368	290.62
581.134	278.62
581.9	264.62
582.666	252.62
583.432	238.62
584.198	226.62
584.964	215.62
585.729	204.62
586.495	192.62
587.26	183.62
588.025	176.62
588.791	167.62
589.556	161.62
590.321	144.62
591.086	140.62
591.851	128.62
592.616	132.62
593.381	122.62
594.146	116.62
594.911	110.62
595.675	106.62
596.44	94.62
597.204	92.62
597.969	88.62
598.733	83.62
599.497	83.62
600.261	76.62
601.025	74.62
601.79	75.62
602.553	70.62
603.317	66.62
604.081	67.62
604.845	59.62
605.609	58.62
606.372	57.62
607.136	51.62
607.899	55.62
608.662	50.62
609.426	48.62
610.189	46.62
610.952	44.62
611.715	44.62
612.478	40.62
613.241	41.62
614.004	41.62
614.767	37.62
615.529	34.62
616.292	32.62
617.055	35.62
617.817	32.62
618.579	30.62
619.342	32.62
620.104	30.62
620.866	26.62
621.628	26.62
622.39	26.62
623.152	25.62
623.914	25.62
624.676	22.62
625.438	21.62
626.199	21.62
626.961	22.62
627.722	25.62
628.484	18.62
629.245	18.62
630.006	20.62
630.768	18.62
631.529	17.62
632.29	18.62
633.051	16.62
633.812	16.62
634.573	14.62
635.333	16.62
636.094	15.62
636.855	12.62
637.615	14.62
638.376	15.62
639.136	17.62
639.896	13.62
640.657	13.62
641.417	13.62
642.177	11.62
642.937	14.62
643.697	10.62
644.457	13.62
645.216	9.62
645.976	13.62
646.736	9.62
647.495	9.62
648.255	10.62
649.014	10.62
649.774	11.62
650.533	10.62
651.292	8.62
652.051	9.62
652.81	8.62
653.569	9.62
654.328	10.62
655.087	9.62
655.846	7.62
656.604	9.62
657.363	6.62
658.121	9.62
658.88	10.62
659.638	6.62
660.397	6.62
661.155	9.62
661.913	9.62
662.671	8.62
663.429	6.62
664.187	7.62
664.945	5.62
665.703	5.62
666.46	5.62
667.218	7.62
667.976	8.62
668.733	7.62
669.49	7.62
670.248	6.62
671.005	5.62
671.762	5.62
672.519	4.62
673.276	6.62
674.033	8.62
674.79	6.62
675.547	4.62
676.304	4.62
677.06	6.62
677.817	5.62
678.574	5.62
679.33	5.62
680.086	5.62
680.843	5.62
681.599	7.62
682.355	8.62
683.111	5.62
683.867	4.62
684.623	6.62
685.379	5.62
686.135	7.62
686.89	4.62
687.646	4.62
688.402	4.62
689.157	3.62
689.912	5.62
690.668	2.62
691.423	8.62
692.178	4.62
692.933	5.62
693.688	3.62
694.443	4.62
695.198	5.62
695.953	5.62
696.708	6.62
697.462	5.62
698.217	3.62
698.972	3.62
699.726	5.62
700.48	5.62
701.235	4.62
701.989	4.62
702.743	3.62
703.497	7.62
704.251	5.62
705.005	5.62
705.759	5.62
706.513	6.62
707.266	2.62
708.02	4.62
708.774	6.62
709.527	8.62
710.28	6.62
711.034	4.62
711.787	7.62
712.54	5.62
713.293	4.62
714.046	2.62
714.799	7.62
715.552	5.62
716.305	4.62
717.058	4.62
717.81	3.62
718.563	6.62
719.315	3.62
720.068	5.62
720.82	3.62
721.573	4.62
722.325	5.62
723.077	5.62
723.829	4.62
724.581	4.62
725.333	6.62
726.085	7.62
726.836	5.62
727.588	6.62
728.34	5.62
729.091	6.62
729.843	6.62
730.594	4.62
731.346	6.62
732.097	4.62
732.848	6.62
733.599	5.62
734.35	5.62
735.101	6.62
735.852	5.62
736.603	6.62
737.354	5.62
738.104	6.62
738.855	6.62
739.605	6.62
740.356	8.62
741.106	6.62
741.856	5.62
742.607	4.62
743.357	6.62
744.107	5.62
744.857	4.62
745.607	7.62
746.357	8.62
747.106	7.62
747.856	8.62
748.606	5.62
749.355	5.62
750.105	4.62
750.854	7.62
751.603	8.62
752.353	8.62
753.102	8.62
753.851	6.62
754.6	7.62
755.349	4.62
756.098	9.62
756.847	8.62
757.595	9.62
758.344	8.62
759.093	7.62
759.841	7.62
760.589	7.62
761.338	6.62
762.086	10.62
762.834	7.62
763.582	12.62
764.331	8.62
765.079	10.62
765.826	10.62
766.574	9.62
767.322	10.62
768.07	8.62
768.817	12.62
769.565	12.62
770.312	9.62
771.06	8.62
771.807	8.62
772.554	11.62
773.302	11.62
774.049	9.62
774.796	12.62
775.543	9.62
776.29	9.62
777.036	10.62
777.783	11.62
778.53	11.62
779.276	8.62
780.023	11.62
780.769	13.62
781.516	8.62
782.262	10.62
783.008	10.62
783.754	10.62
784.5	12.62
785.246	9.62
785.992	9.62
786.738	10.62
787.484	9.62
788.23	12.62
788.975	8.62
789.721	9.62
790.466	13.62
791.212	10.62
791.957	11.62
792.702	9.62
793.447	10.62
794.193	13.62
794.938	10.62
795.683	9.62
796.427	8.62
797.172	8.62
797.917	11.62
798.662	8.62
799.406	9.62
800.151	7.62
800.895	11.62
801.64	7.62
802.384	11.62
803.128	11.62
803.872	10.62
804.616	7.62
805.36	7.62
806.104	7.62
806.848	10.62
807.592	7.62
808.336	8.62
809.079	5.62
809.823	8.62
810.566	7.62
811.31	8.62
812.053	7.62
812.796	7.62
813.539	7.62
814.283	6.62
815.026	8.62
815.769	6.62
816.511	5.62
817.254	4.62
817.997	5.62
818.74	5.62
819.482	4.62
820.225	6.62
820.967	6.62
821.71	5.62
822.452	5.62
823.194	4.62
823.936	5.62
824.678	3.62
825.42	3.62
826.162	5.62
826.904	4.62
827.646	3.62
828.388	6.62
829.129	6.62
829.871	6.62
830.612	6.62
831.354	2.62
832.095	3.62
832.836	5.62
833.577	4.62
834.319	4.62
835.06	5.62
835.801	3.62
836.542	5.62
837.282	4.62
838.023	5.62
838.764	5.62
839.504	5.62
840.245	3.62
840.985	5.62
841.726	4.62
842.466	5.62
843.206	2.62
843.946	2.62
844.687	5.62
845.427	4.62
846.166	5.62
846.906	4.62
847.646	4.62
848.386	2.62
849.125	5.62
849.865	2.62
850.605	4.62
851.344	3.62
852.083	3.62
852.823	3.62
853.562	4.62
854.301	4.62
855.04	4.62
855.779	3.62
856.518	4.62
857.257	2.62
857.995	4.62
858.734	2.62
859.473	2.62
860.211	2.62
860.95	3.62
861.688	3.62
862.426	2.62
863.165	4.62
863.903	2.62
864.641	2.62
865.379	1.62
866.117	3.62
866.855	0.62
867.593	-0.38
868.33	2.62
869.068	2.62
869.806	1.62
870.543	1.62
871.28	2.62
872.018	3.62
872.755	2.62
873.492	-0.38
874.229	4.62
874.967	1.62
875.703	2.62
876.44	-1.38
877.177	1.62
877.914	-1.38
878.651	1.62
879.387	3.62
880.124	0.62
880.86	4.62
881.597	1.62
882.333	2.62
883.069	2.62
883.806	0.62
884.542	1.62
885.278	2.62
886.014	-0.38
886.749	-0.38
887.485	3.62
888.221	1.62
888.957	1.62
889.692	2.62
890.428	-1.38
891.163	1.62
891.899	3.62
892.634	0.62
893.369	1.62
894.104	2.62
894.839	1.62
895.574	1.62
896.309	0.62
897.044	3.62
897.779	1.62
898.514	1.62
899.248	1.62
899.983	1.62
900.717	0.62
901.452	1.62
902.186	0.62
902.92	0.62
903.654	0.62
904.389	1.62
905.123	2.62
905.857	0.62
906.59	-2.38
907.324	1.62
908.058	0.62
908.792	-0.38
909.525	-0.38
910.259	2.62
910.992	2.62
911.726	0.62
912.459	1.62
913.192	2.62
913.925	1.62
914.658	3.62
915.391	1.62
916.124	2.62
916.857	-1.38
917.59	0.62
918.323	-1.38
919.055	2.62
919.788	0.62
920.521	0.62
921.253	1.62
921.985	0.62
922.718	1.62
923.45	2.62
924.182	-1.38
924.914	2.62
925.646	-3.38
926.378	1.62
927.11	2.62
927.841	1.62
928.573	-1.38
929.305	0.62
930.036	-0.38
930.768	-1.38
931.499	0.62
932.23	0.62
932.962	-0.38
933.693	2.62
934.424	1.62
935.155	0.62
935.886	-1.38
936.617	1.62
937.348	-0.38
938.078	2.62
938.809	0.62
939.54	0.62
940.27	2.62
941.001	1.62
941.731	-0.38
942.461	-0.38
943.191	-1.38
943.922	0.62
944.652	0.62
945.382	0.62
946.112	0.62
946.841	1.62
947.571	-1.38
948.301	-1.38
949.031	0.62
949.76	0.62
950.49	-1.38
951.219	2.62
951.948	-0.38
952.678	0.62
953.407	0.62
954.136	1.62
954.865	0.62
955.594	3.62
956.323	0.62
957.052	-0.38
957.78	0.62
958.509	1.62
959.238	-0.38
959.966	1.62
960.695	-3.38
961.423	2.62
962.151	1.62
962.88	1.62
963.608	0.62
964.336	-0.38
965.064	-0.38
965.792	-1.38
966.52	0.62
967.247	2.62
967.975	-0.38
968.703	0.62
969.43	-1.38
970.158	2.62
970.885	0.62
971.613	0.62
972.34	-1.38
973.067	-1.38
973.794	0.62
974.521	1.62
975.248	1.62
975.975	1.62
976.702	1.62
977.429	1.62
978.156	-2.38
978.882	3.62
979.609	0.62
980.335	0.62
981.062	0.62
981.788	2.62
982.514	1.62
983.24	0.62
983.967	0.62
984.693	0.62
985.419	-1.38
986.144	0.62
986.87	-2.38
987.596	0.62
988.322	1.62
989.047	0.62
989.773	0.62
990.498	-1.38
991.224	2.62
991.949	0.62
992.674	-0.38
993.399	-1.38
994.124	0.62
994.849	1.62
995.574	1.62
996.299	0.62
997.024	0.62
997.749	0.62
998.473	-1.38
999.198	1.62
999.922	-0.38
1000.647	-0.38
1001.371	1.62
1002.095	-1.38
1002.82	-1.38
1003.544	0.62
1004.268	2.62
1004.992	1.62
1005.716	0.62
1006.439	5.62
1007.163	3.62
1007.887	5.62
1008.611	1.62
1009.334	-0.38
1010.058	1.62
1010.781	0.62
1011.504	2.62
1012.228	1.62
1012.951	-1.38
1013.674	-0.38
1014.397	0.62
1015.12	1.62
