节点500_425_QEPB04081__220__15-51-58-069.txt的数据

Date: Wed Nov 12 15:51:58 CST 2025
User: PC
Spectrometer: QEPB0408
触发模式: 0
积分时间 (秒): 1.000000E-2
Scans to average: 1
启用暗噪声校正: true
启用非线性校正: false
滑动平均宽度: 0
X轴模式: Wavelengths
Number of Pixels in Spectrum: 1044
>>>>>Begin Spectral Data<<<<<
220.843	4.5
221.644	2.5
222.444	2.5
223.244	1.5
224.045	5.5
224.845	7.5
225.645	7.5
226.445	5.5
227.245	4.5
228.045	5.5
228.845	7.5
229.645	7.5
230.444	5.5
231.244	6.5
232.043	5.5
232.843	7.5
233.642	6.5
234.442	5.5
235.241	8.5
236.04	6.5
236.839	8.5
237.638	5.5
238.437	8.5
239.236	7.5
240.035	8.5
240.833	8.5
241.632	7.5
242.43	10.5
243.229	8.5
244.027	9.5
244.826	10.5
245.624	9.5
246.422	10.5
247.22	11.5
248.018	10.5
248.816	9.5
249.614	10.5
250.412	11.5
251.21	10.5
252.007	12.5
252.805	11.5
253.602	12.5
254.4	13.5
255.197	11.5
255.994	13.5
256.791	14.5
257.589	15.5
258.386	13.5
259.183	18.5
259.979	16.5
260.776	15.5
261.573	16.5
262.37	15.5
263.166	16.5
263.963	19.5
264.759	17.5
265.556	22.5
266.352	19.5
267.148	21.5
267.944	19.5
268.74	21.5
269.536	22.5
270.332	23.5
271.128	23.5
271.924	23.5
272.719	27.5
273.515	27.5
274.311	26.5
275.106	22.5
275.901	22.5
276.697	24.5
277.492	27.5
278.287	24.5
279.082	27.5
279.877	28.5
280.672	27.5
281.467	27.5
282.262	27.5
283.056	26.5
283.851	28.5
284.646	27.5
285.44	25.5
286.234	26.5
287.029	27.5
287.823	25.5
288.617	26.5
289.411	26.5
290.205	23.5
290.999	24.5
291.793	23.5
292.587	25.5
293.381	24.5
294.174	26.5
294.968	22.5
295.761	25.5
296.555	19.5
297.348	23.5
298.141	22.5
298.935	23.5
299.728	19.5
300.521	19.5
301.314	20.5
302.107	17.5
302.899	19.5
303.692	17.5
304.485	15.5
305.277	20.5
306.07	17.5
306.862	16.5
307.655	16.5
308.447	18.5
309.239	16.5
310.031	13.5
310.823	13.5
311.615	12.5
312.407	15.5
313.199	12.5
313.991	11.5
314.783	12.5
315.574	12.5
316.366	13.5
317.157	11.5
317.949	12.5
318.74	12.5
319.531	14.5
320.322	10.5
321.113	9.5
321.904	11.5
322.695	11.5
323.486	11.5
324.277	11.5
325.068	11.5
325.858	11.5
326.649	10.5
327.439	11.5
328.23	9.5
329.02	6.5
329.81	11.5
330.6	8.5
331.391	10.5
332.181	8.5
332.971	9.5
333.76	9.5
334.55	10.5
335.34	10.5
336.13	9.5
336.919	12.5
337.709	10.5
338.498	8.5
339.287	9.5
340.077	11.5
340.866	11.5
341.655	9.5
342.444	9.5
343.233	9.5
344.022	11.5
344.811	10.5
345.6	7.5
346.388	11.5
347.177	8.5
347.965	6.5
348.754	9.5
349.542	8.5
350.33	9.5
351.119	9.5
351.907	9.5
352.695	8.5
353.483	7.5
354.271	8.5
355.059	8.5
355.846	8.5
356.634	9.5
357.422	10.5
358.209	8.5
358.997	11.5
359.784	10.5
360.571	10.5
361.359	7.5
362.146	8.5
362.933	6.5
363.72	8.5
364.507	8.5
365.294	8.5
366.081	10.5
366.867	9.5
367.654	10.5
368.44	7.5
369.227	8.5
370.013	10.5
370.8	5.5
371.586	7.5
372.372	7.5
373.158	7.5
373.944	8.5
374.73	9.5
375.516	10.5
376.302	6.5
377.088	8.5
377.873	7.5
378.659	9.5
379.445	9.5
380.23	8.5
381.015	8.5
381.801	7.5
382.586	8.5
383.371	8.5
384.156	8.5
384.941	5.5
385.726	9.5
386.511	10.5
387.296	10.5
388.08	9.5
388.865	10.5
389.649	9.5
390.434	8.5
391.218	6.5
392.003	8.5
392.787	9.5
393.571	8.5
394.355	7.5
395.139	9.5
395.923	7.5
396.707	10.5
397.491	10.5
398.274	9.5
399.058	10.5
399.842	11.5
400.625	9.5
401.408	9.5
402.192	9.5
402.975	11.5
403.758	10.5
404.541	9.5
405.324	9.5
406.107	14.5
406.89	12.5
407.673	11.5
408.456	10.5
409.238	15.5
410.021	11.5
410.803	12.5
411.586	14.5
412.368	13.5
413.151	15.5
413.933	15.5
414.715	13.5
415.497	11.5
416.279	15.5
417.061	15.5
417.843	14.5
418.624	14.5
419.406	15.5
420.188	11.5
420.969	16.5
421.751	15.5
422.532	15.5
423.313	16.5
424.095	16.5
424.876	15.5
425.657	16.5
426.438	18.5
427.219	18.5
428	20.5
428.78	18.5
429.561	19.5
430.342	24.5
431.122	23.5
431.903	21.5
432.683	22.5
433.464	24.5
434.244	24.5
435.024	26.5
435.804	25.5
436.584	26.5
437.364	28.5
438.144	31.5
438.924	31.5
439.704	32.5
440.483	34.5
441.263	40.5
442.042	37.5
442.822	42.5
443.601	42.5
444.38	49.5
445.16	50.5
445.939	55.5
446.718	58.5
447.497	66.5
448.276	68.5
449.054	74.5
449.833	80.5
450.612	86.5
451.391	98.5
452.169	102.5
452.948	112.5
453.726	123.5
454.504	137.5
455.282	152.5
456.061	170.5
456.839	182.5
457.617	205.5
458.395	228.5
459.172	249.5
459.95	275.5
460.728	315.5
461.506	352.5
462.283	396.5
463.061	444.5
463.838	491.5
464.615	545.5
465.393	613.5
466.17	668.5
466.947	775.5
467.724	848.5
468.501	936.5
469.278	1048.5
470.055	1170.5
470.831	1281.5
471.608	1439.5
472.385	1577.5
473.161	1760.5
473.938	1945.5
474.714	2144.5
475.49	2371.5
476.266	2637.5
477.043	2893.5
477.819	3187.5
478.595	3546.5
479.371	3894.5
480.146	4268.5
480.922	4682.5
481.698	5160.5
482.473	5677.5
483.249	6197.5
484.024	6817.5
484.8	7469.5
485.575	8137.5
486.35	8898.5
487.126	9728.5
487.901	10634.5
488.676	11599.5
489.451	12585.5
490.225	13666.5
491	14892.5
491.775	16129.5
492.55	17407.5
493.324	18768.5
494.099	20150.5
494.873	21507.5
495.647	22965.5
496.422	24415.5
497.196	25896.5
497.97	27433.5
498.744	28921.5
499.518	30208.5
500.292	31496.5
501.066	32601.5
501.839	33689.5
502.613	34629.5
503.387	35227.5
504.16	35749.5
504.934	36088.5
505.707	35987.5
506.48	35831.5
507.253	35414.5
508.027	35051.5
508.8	34420.5
509.573	33597.5
510.346	32695.5
511.118	31681.5
511.891	30701.5
512.664	29472.5
513.437	28322.5
514.209	27187.5
514.982	26182.5
515.754	25115.5
516.526	23975.5
517.298	22962.5
518.071	21987.5
518.843	21103.5
519.615	20202.5
520.387	19381.5
521.159	18691.5
521.93	17943.5
522.702	17229.5
523.474	16609.5
524.245	15910.5
525.017	15137.5
525.788	14486.5
526.56	13831.5
527.331	13161.5
528.102	12581.5
528.873	11988.5
529.644	11355.5
530.415	10875.5
531.186	10294.5
531.957	9771.5
532.728	9246.5
533.498	8723.5
534.269	8198.5
535.039	7799.5
535.81	7383.5
536.58	6952.5
537.351	6531.5
538.121	6189.5
538.891	5894.5
539.661	5561.5
540.431	5279.5
541.201	4975.5
541.971	4719.5
542.741	4495.5
543.51	4261.5
544.28	4044.5
545.05	3863.5
545.819	3674.5
546.588	3494.5
547.358	3302.5
548.127	3143.5
548.896	2982.5
549.665	2840.5
550.434	2673.5
551.203	2543.5
551.972	2406.5
552.741	2284.5
553.51	2147.5
554.278	2024.5
555.047	1900.5
555.815	1790.5
556.584	1700.5
557.352	1612.5
558.121	1510.5
558.889	1433.5
559.657	1351.5
560.425	1272.5
561.193	1208.5
561.961	1145.5
562.729	1089.5
563.496	1033.5
564.264	958.5
565.032	908.5
565.799	865.5
566.567	814.5
567.334	762.5
568.101	737.5
568.869	689.5
569.636	652.5
570.403	613.5
571.17	584.5
571.937	539.5
572.704	519.5
573.471	490.5
574.237	458.5
575.004	435.5
575.771	410.5
576.537	379.5
577.303	361.5
578.07	336.5
578.836	322.5
579.602	309.5
580.368	292.5
581.134	279.5
581.9	261.5
582.666	247.5
583.432	236.5
584.198	219.5
584.964	212.5
585.729	200.5
586.495	189.5
587.26	181.5
588.025	173.5
588.791	164.5
589.556	148.5
590.321	150.5
591.086	137.5
591.851	135.5
592.616	120.5
593.381	122.5
594.146	109.5
594.911	107.5
595.675	104.5
596.44	100.5
597.204	95.5
597.969	91.5
598.733	88.5
599.497	79.5
600.261	84.5
601.025	75.5
601.79	72.5
602.553	70.5
603.317	65.5
604.081	64.5
604.845	62.5
605.609	58.5
606.372	57.5
607.136	55.5
607.899	53.5
608.662	47.5
609.426	47.5
610.189	50.5
610.952	46.5
611.715	40.5
612.478	39.5
613.241	38.5
614.004	39.5
614.767	39.5
615.529	34.5
616.292	36.5
617.055	31.5
617.817	32.5
618.579	31.5
619.342	30.5
620.104	30.5
620.866	30.5
621.628	29.5
622.39	27.5
623.152	27.5
623.914	24.5
624.676	24.5
625.438	23.5
626.199	24.5
626.961	21.5
627.722	23.5
628.484	19.5
629.245	22.5
630.006	19.5
630.768	19.5
631.529	19.5
632.29	18.5
633.051	17.5
633.812	17.5
634.573	17.5
635.333	17.5
636.094	15.5
636.855	17.5
637.615	17.5
638.376	17.5
639.136	14.5
639.896	11.5
640.657	15.5
641.417	11.5
642.177	13.5
642.937	13.5
643.697	11.5
644.457	12.5
645.216	8.5
645.976	12.5
646.736	11.5
647.495	11.5
648.255	11.5
649.014	11.5
649.774	10.5
650.533	10.5
651.292	10.5
652.051	13.5
652.81	10.5
653.569	11.5
654.328	10.5
655.087	9.5
655.846	9.5
656.604	9.5
657.363	12.5
658.121	8.5
658.88	8.5
659.638	8.5
660.397	5.5
661.155	8.5
661.913	8.5
662.671	11.5
663.429	10.5
664.187	8.5
664.945	8.5
665.703	5.5
666.46	8.5
667.218	8.5
667.976	9.5
668.733	8.5
669.49	8.5
670.248	8.5
671.005	8.5
671.762	8.5
672.519	9.5
673.276	9.5
674.033	5.5
674.79	7.5
675.547	9.5
676.304	7.5
677.06	8.5
677.817	7.5
678.574	8.5
679.33	6.5
680.086	7.5
680.843	7.5
681.599	8.5
682.355	9.5
683.111	5.5
683.867	7.5
684.623	7.5
685.379	5.5
686.135	8.5
686.89	5.5
687.646	4.5
688.402	7.5
689.157	5.5
689.912	9.5
690.668	6.5
691.423	7.5
692.178	6.5
692.933	7.5
693.688	8.5
694.443	4.5
695.198	8.5
695.953	7.5
696.708	7.5
697.462	5.5
698.217	7.5
698.972	4.5
699.726	5.5
700.48	5.5
701.235	7.5
701.989	6.5
702.743	6.5
703.497	7.5
704.251	6.5
705.005	5.5
705.759	7.5
706.513	7.5
707.266	4.5
708.02	7.5
708.774	5.5
709.527	5.5
710.28	5.5
711.034	6.5
711.787	5.5
712.54	7.5
713.293	7.5
714.046	6.5
714.799	8.5
715.552	5.5
716.305	5.5
717.058	7.5
717.81	6.5
718.563	8.5
719.315	7.5
720.068	4.5
720.82	9.5
721.573	3.5
722.325	5.5
723.077	5.5
723.829	7.5
724.581	3.5
725.333	5.5
726.085	7.5
726.836	5.5
727.588	5.5
728.34	8.5
729.091	5.5
729.843	6.5
730.594	7.5
731.346	9.5
732.097	4.5
732.848	5.5
733.599	7.5
734.35	6.5
735.101	5.5
735.852	5.5
736.603	7.5
737.354	8.5
738.104	7.5
738.855	6.5
739.605	8.5
740.356	6.5
741.106	8.5
741.856	8.5
742.607	9.5
743.357	6.5
744.107	11.5
744.857	10.5
745.607	9.5
746.357	8.5
747.106	10.5
747.856	9.5
748.606	10.5
749.355	10.5
750.105	9.5
750.854	7.5
751.603	10.5
752.353	8.5
753.102	9.5
753.851	9.5
754.6	11.5
755.349	10.5
756.098	9.5
756.847	8.5
757.595	9.5
758.344	9.5
759.093	10.5
759.841	13.5
760.589	7.5
761.338	11.5
762.086	9.5
762.834	9.5
763.582	9.5
764.331	9.5
765.079	12.5
765.826	11.5
766.574	9.5
767.322	10.5
768.07	10.5
768.817	9.5
769.565	9.5
770.312	11.5
771.06	12.5
771.807	12.5
772.554	12.5
773.302	13.5
774.049	12.5
774.796	11.5
775.543	13.5
776.29	10.5
777.036	11.5
777.783	13.5
778.53	12.5
779.276	12.5
780.023	12.5
780.769	11.5
781.516	12.5
782.262	13.5
783.008	11.5
783.754	13.5
784.5	13.5
785.246	13.5
785.992	13.5
786.738	13.5
787.484	14.5
788.23	11.5
788.975	15.5
789.721	11.5
790.466	13.5
791.212	13.5
791.957	11.5
792.702	13.5
793.447	10.5
794.193	12.5
794.938	11.5
795.683	13.5
796.427	12.5
797.172	12.5
797.917	11.5
798.662	9.5
799.406	11.5
800.151	11.5
800.895	10.5
801.64	12.5
802.384	11.5
803.128	8.5
803.872	9.5
804.616	9.5
805.36	9.5
806.104	8.5
806.848	6.5
807.592	8.5
808.336	9.5
809.079	10.5
809.823	8.5
810.566	8.5
811.31	9.5
812.053	11.5
812.796	6.5
813.539	8.5
814.283	7.5
815.026	8.5
815.769	9.5
816.511	8.5
817.254	7.5
817.997	8.5
818.74	5.5
819.482	6.5
820.225	6.5
820.967	7.5
821.71	5.5
822.452	6.5
823.194	4.5
823.936	6.5
824.678	7.5
825.42	7.5
826.162	6.5
826.904	9.5
827.646	7.5
828.388	8.5
829.129	6.5
829.871	7.5
830.612	5.5
831.354	7.5
832.095	5.5
832.836	5.5
833.577	8.5
834.319	8.5
835.06	5.5
835.801	6.5
836.542	5.5
837.282	6.5
838.023	5.5
838.764	5.5
839.504	3.5
840.245	6.5
840.985	5.5
841.726	6.5
842.466	7.5
843.206	5.5
843.946	4.5
844.687	6.5
845.427	2.5
846.166	7.5
846.906	4.5
847.646	4.5
848.386	6.5
849.125	5.5
849.865	7.5
850.605	3.5
851.344	5.5
852.083	4.5
852.823	5.5
853.562	6.5
854.301	5.5
855.04	4.5
855.779	4.5
856.518	4.5
857.257	4.5
857.995	1.5
858.734	3.5
859.473	5.5
860.211	2.5
860.95	7.5
861.688	2.5
862.426	3.5
863.165	1.5
863.903	3.5
864.641	2.5
865.379	4.5
866.117	1.5
866.855	3.5
867.593	3.5
868.33	3.5
869.068	4.5
869.806	6.5
870.543	4.5
871.28	2.5
872.018	3.5
872.755	3.5
873.492	3.5
874.229	1.5
874.967	3.5
875.703	5.5
876.44	4.5
877.177	3.5
877.914	3.5
878.651	2.5
879.387	3.5
880.124	2.5
880.86	4.5
881.597	4.5
882.333	0.5
883.069	3.5
883.806	1.5
884.542	3.5
885.278	1.5
886.014	3.5
886.749	2.5
887.485	3.5
888.221	1.5
888.957	1.5
889.692	3.5
890.428	1.5
891.163	1.5
891.899	2.5
892.634	2.5
893.369	2.5
894.104	4.5
894.839	3.5
895.574	2.5
896.309	2.5
897.044	1.5
897.779	-1.5
898.514	2.5
899.248	1.5
899.983	2.5
900.717	1.5
901.452	0.5
902.186	2.5
902.92	1.5
903.654	2.5
904.389	1.5
905.123	1.5
905.857	1.5
906.59	2.5
907.324	2.5
908.058	2.5
908.792	2.5
909.525	2.5
910.259	2.5
910.992	0.5
911.726	1.5
912.459	1.5
913.192	3.5
913.925	2.5
914.658	2.5
915.391	1.5
916.124	1.5
916.857	-0.5
917.59	0.5
918.323	2.5
919.055	1.5
919.788	-0.5
920.521	-0.5
921.253	-0.5
921.985	0.5
922.718	2.5
923.45	1.5
924.182	1.5
924.914	2.5
925.646	2.5
926.378	3.5
927.11	3.5
927.841	0.5
928.573	-0.5
929.305	-0.5
930.036	2.5
930.768	1.5
931.499	1.5
932.23	-0.5
932.962	1.5
933.693	2.5
934.424	-0.5
935.155	3.5
935.886	1.5
936.617	0.5
937.348	1.5
938.078	1.5
938.809	1.5
939.54	1.5
940.27	2.5
941.001	1.5
941.731	2.5
942.461	2.5
943.191	0.5
943.922	0.5
944.652	2.5
945.382	0.5
946.112	1.5
946.841	0.5
947.571	2.5
948.301	1.5
949.031	0.5
949.76	1.5
950.49	-0.5
951.219	2.5
951.948	0.5
952.678	2.5
953.407	1.5
954.136	0.5
954.865	-1.5
955.594	1.5
956.323	1.5
957.052	2.5
957.78	1.5
958.509	1.5
959.238	1.5
959.966	3.5
960.695	1.5
961.423	1.5
962.151	0.5
962.88	1.5
963.608	1.5
964.336	1.5
965.064	0.5
965.792	3.5
966.52	2.5
967.247	1.5
967.975	0.5
968.703	-1.5
969.43	0.5
970.158	1.5
970.885	2.5
971.613	-0.5
972.34	3.5
973.067	1.5
973.794	2.5
974.521	-0.5
975.248	1.5
975.975	1.5
976.702	1.5
977.429	4.5
978.156	4.5
978.882	3.5
979.609	-0.5
980.335	-0.5
981.062	3.5
981.788	1.5
982.514	2.5
983.24	2.5
983.967	3.5
984.693	1.5
985.419	3.5
986.144	2.5
986.87	-1.5
987.596	2.5
988.322	2.5
989.047	1.5
989.773	1.5
990.498	-0.5
991.224	1.5
991.949	2.5
992.674	2.5
993.399	2.5
994.124	1.5
994.849	0.5
995.574	-0.5
996.299	3.5
997.024	0.5
997.749	-0.5
998.473	0.5
999.198	1.5
999.922	1.5
1000.647	3.5
1001.371	3.5
1002.095	-1.5
1002.82	-0.5
1003.544	-2.5
1004.268	3.5
1004.992	5.5
1005.716	3.5
1006.439	3.5
1007.163	3.5
1007.887	1.5
1008.611	2.5
1009.334	0.5
1010.058	1.5
1010.781	3.5
1011.504	0.5
1012.228	2.5
1012.951	0.5
1013.674	0.5
1014.397	0.5
1015.12	-0.5
