节点500_425_QEPB04081__411__15-55-08-693.txt的数据

Date: Wed Nov 12 15:55:08 CST 2025
User: PC
Spectrometer: QEPB0408
触发模式: 0
积分时间 (秒): 1.000000E-2
Scans to average: 1
启用暗噪声校正: true
启用非线性校正: false
滑动平均宽度: 0
X轴模式: Wavelengths
Number of Pixels in Spectrum: 1044
>>>>>Begin Spectral Data<<<<<
220.843	1.88
221.644	3.88
222.444	2.88
223.244	3.88
224.045	3.88
224.845	0.88
225.645	1.88
226.445	4.88
227.245	4.88
228.045	4.88
228.845	2.88
229.645	3.88
230.444	4.88
231.244	5.88
232.043	7.88
232.843	5.88
233.642	8.88
234.442	6.88
235.241	5.88
236.04	7.88
236.839	7.88
237.638	6.88
238.437	8.88
239.236	6.88
240.035	4.88
240.833	6.88
241.632	6.88
242.43	7.88
243.229	5.88
244.027	6.88
244.826	9.88
245.624	7.88
246.422	9.88
247.22	9.88
248.018	8.88
248.816	9.88
249.614	11.88
250.412	10.88
251.21	11.88
252.007	8.88
252.805	8.88
253.602	11.88
254.4	9.88
255.197	13.88
255.994	11.88
256.791	12.88
257.589	13.88
258.386	12.88
259.183	12.88
259.979	12.88
260.776	14.88
261.573	13.88
262.37	15.88
263.166	14.88
263.963	13.88
264.759	15.88
265.556	16.88
266.352	17.88
267.148	20.88
267.944	19.88
268.74	17.88
269.536	19.88
270.332	16.88
271.128	19.88
271.924	20.88
272.719	20.88
273.515	18.88
274.311	22.88
275.106	23.88
275.901	23.88
276.697	23.88
277.492	18.88
278.287	21.88
279.082	22.88
279.877	25.88
280.672	23.88
281.467	26.88
282.262	25.88
283.056	23.88
283.851	25.88
284.646	23.88
285.44	23.88
286.234	23.88
287.029	23.88
287.823	22.88
288.617	24.88
289.411	21.88
290.205	24.88
290.999	24.88
291.793	23.88
292.587	19.88
293.381	24.88
294.174	22.88
294.968	21.88
295.761	20.88
296.555	22.88
297.348	15.88
298.141	20.88
298.935	21.88
299.728	17.88
300.521	18.88
301.314	14.88
302.107	16.88
302.899	17.88
303.692	17.88
304.485	17.88
305.277	14.88
306.07	15.88
306.862	16.88
307.655	11.88
308.447	15.88
309.239	11.88
310.031	13.88
310.823	14.88
311.615	16.88
312.407	14.88
313.199	12.88
313.991	12.88
314.783	11.88
315.574	10.88
316.366	10.88
317.157	8.88
317.949	10.88
318.74	9.88
319.531	11.88
320.322	10.88
321.113	9.88
321.904	8.88
322.695	7.88
323.486	9.88
324.277	8.88
325.068	11.88
325.858	6.88
326.649	9.88
327.439	9.88
328.23	10.88
329.02	8.88
329.81	5.88
330.6	6.88
331.391	9.88
332.181	8.88
332.971	7.88
333.76	7.88
334.55	5.88
335.34	9.88
336.13	9.88
336.919	10.88
337.709	8.88
338.498	10.88
339.287	8.88
340.077	8.88
340.866	8.88
341.655	8.88
342.444	4.88
343.233	8.88
344.022	6.88
344.811	8.88
345.6	6.88
346.388	9.88
347.177	6.88
347.965	10.88
348.754	8.88
349.542	8.88
350.33	7.88
351.119	8.88
351.907	7.88
352.695	9.88
353.483	6.88
354.271	6.88
355.059	6.88
355.846	9.88
356.634	6.88
357.422	9.88
358.209	8.88
358.997	7.88
359.784	8.88
360.571	6.88
361.359	6.88
362.146	6.88
362.933	5.88
363.72	6.88
364.507	8.88
365.294	9.88
366.081	8.88
366.867	8.88
367.654	5.88
368.44	6.88
369.227	6.88
370.013	6.88
370.8	6.88
371.586	8.88
372.372	7.88
373.158	7.88
373.944	6.88
374.73	6.88
375.516	7.88
376.302	7.88
377.088	5.88
377.873	6.88
378.659	6.88
379.445	5.88
380.23	6.88
381.015	7.88
381.801	7.88
382.586	6.88
383.371	5.88
384.156	8.88
384.941	6.88
385.726	8.88
386.511	8.88
387.296	6.88
388.08	9.88
388.865	7.88
389.649	6.88
390.434	7.88
391.218	8.88
392.003	7.88
392.787	7.88
393.571	10.88
394.355	7.88
395.139	9.88
395.923	10.88
396.707	10.88
397.491	7.88
398.274	10.88
399.058	10.88
399.842	10.88
400.625	8.88
401.408	9.88
402.192	8.88
402.975	10.88
403.758	8.88
404.541	8.88
405.324	7.88
406.107	7.88
406.89	8.88
407.673	11.88
408.456	11.88
409.238	10.88
410.021	11.88
410.803	8.88
411.586	10.88
412.368	10.88
413.151	12.88
413.933	12.88
414.715	11.88
415.497	13.88
416.279	14.88
417.061	11.88
417.843	13.88
418.624	14.88
419.406	16.88
420.188	16.88
420.969	14.88
421.751	14.88
422.532	13.88
423.313	16.88
424.095	15.88
424.876	17.88
425.657	14.88
426.438	16.88
427.219	18.88
428	18.88
428.78	19.88
429.561	22.88
430.342	18.88
431.122	22.88
431.903	18.88
432.683	22.88
433.464	20.88
434.244	24.88
435.024	23.88
435.804	25.88
436.584	25.88
437.364	29.88
438.144	30.88
438.924	31.88
439.704	33.88
440.483	36.88
441.263	37.88
442.042	40.88
442.822	42.88
443.601	45.88
444.38	49.88
445.16	47.88
445.939	53.88
446.718	57.88
447.497	63.88
448.276	66.88
449.054	72.88
449.833	83.88
450.612	86.88
451.391	98.88
452.169	104.88
452.948	117.88
453.726	130.88
454.504	141.88
455.282	157.88
456.061	177.88
456.839	195.88
457.617	215.88
458.395	241.88
459.172	266.88
459.95	298.88
460.728	328.88
461.506	376.88
462.283	417.88
463.061	451.88
463.838	513.88
464.615	572.88
465.393	633.88
466.17	704.88
466.947	792.88
467.724	883.88
468.501	971.88
469.278	1080.88
470.055	1190.88
470.831	1305.88
471.608	1447.88
472.385	1609.88
473.161	1775.88
473.938	1949.88
474.714	2169.88
475.49	2384.88
476.266	2590.88
477.043	2858.88
477.819	3157.88
478.595	3460.88
479.371	3797.88
480.146	4165.88
480.922	4561.88
481.698	4954.88
482.473	5415.88
483.249	5960.88
484.024	6485.88
484.8	7111.88
485.575	7710.88
486.35	8355.88
487.126	9135.88
487.901	9916.88
488.676	10807.88
489.451	11716.88
490.225	12685.88
491	13723.88
491.775	14844.88
492.55	16015.88
493.324	17237.88
494.099	18403.88
494.873	19647.88
495.647	21031.88
496.422	22374.88
497.196	23701.88
497.97	25138.88
498.744	26550.88
499.518	27792.88
500.292	29037.88
501.066	30073.88
501.839	31261.88
502.613	32160.88
503.387	32949.88
504.16	33556.88
504.934	33958.88
505.707	34108.88
506.48	34134.88
507.253	33976.88
508.027	33732.88
508.8	33280.88
509.573	32740.88
510.346	31950.88
511.118	31103.88
511.891	30300.88
512.664	29268.88
513.437	28138.88
514.209	27087.88
514.982	26109.88
515.754	25143.88
516.526	24065.88
517.298	23093.88
518.071	22103.88
518.843	21191.88
519.615	20311.88
520.387	19561.88
521.159	18828.88
521.93	18069.88
522.702	17393.88
523.474	16735.88
524.245	16048.88
525.017	15347.88
525.788	14665.88
526.56	13968.88
527.331	13361.88
528.102	12799.88
528.873	12189.88
529.644	11571.88
530.415	11075.88
531.186	10576.88
531.957	9994.88
532.728	9476.88
533.498	8958.88
534.269	8510.88
535.039	8068.88
535.81	7587.88
536.58	7187.88
537.351	6770.88
538.121	6409.88
538.891	6074.88
539.661	5756.88
540.431	5443.88
541.201	5176.88
541.971	4892.88
542.741	4656.88
543.51	4393.88
544.28	4165.88
545.05	3988.88
545.819	3798.88
546.588	3605.88
547.358	3419.88
548.127	3241.88
548.896	3080.88
549.665	2935.88
550.434	2770.88
551.203	2626.88
551.972	2502.88
552.741	2356.88
553.51	2214.88
554.278	2118.88
555.047	1980.88
555.815	1874.88
556.584	1769.88
557.352	1680.88
558.121	1572.88
558.889	1487.88
559.657	1410.88
560.425	1329.88
561.193	1249.88
561.961	1188.88
562.729	1130.88
563.496	1082.88
564.264	1000.88
565.032	966.88
565.799	906.88
566.567	863.88
567.334	803.88
568.101	770.88
568.869	721.88
569.636	679.88
570.403	635.88
571.17	604.88
571.937	573.88
572.704	539.88
573.471	518.88
574.237	476.88
575.004	452.88
575.771	426.88
576.537	398.88
577.303	379.88
578.07	363.88
578.836	333.88
579.602	318.88
580.368	298.88
581.134	285.88
581.9	276.88
582.666	252.88
583.432	242.88
584.198	228.88
584.964	218.88
585.729	210.88
586.495	197.88
587.26	190.88
588.025	174.88
588.791	174.88
589.556	158.88
590.321	151.88
591.086	142.88
591.851	130.88
592.616	129.88
593.381	121.88
594.146	113.88
594.911	115.88
595.675	107.88
596.44	100.88
597.204	94.88
597.969	97.88
598.733	87.88
599.497	90.88
600.261	80.88
601.025	76.88
601.79	71.88
602.553	74.88
603.317	67.88
604.081	63.88
604.845	62.88
605.609	59.88
606.372	58.88
607.136	55.88
607.899	53.88
608.662	49.88
609.426	48.88
610.189	45.88
610.952	47.88
611.715	43.88
612.478	42.88
613.241	41.88
614.004	38.88
614.767	37.88
615.529	33.88
616.292	34.88
617.055	36.88
617.817	32.88
618.579	32.88
619.342	28.88
620.104	25.88
620.866	30.88
621.628	26.88
622.39	28.88
623.152	25.88
623.914	25.88
624.676	23.88
625.438	24.88
626.199	23.88
626.961	23.88
627.722	22.88
628.484	20.88
629.245	20.88
630.006	19.88
630.768	19.88
631.529	18.88
632.29	16.88
633.051	16.88
633.812	17.88
634.573	19.88
635.333	15.88
636.094	18.88
636.855	16.88
637.615	14.88
638.376	14.88
639.136	12.88
639.896	13.88
640.657	14.88
641.417	13.88
642.177	11.88
642.937	12.88
643.697	12.88
644.457	12.88
645.216	13.88
645.976	12.88
646.736	9.88
647.495	12.88
648.255	10.88
649.014	11.88
649.774	9.88
650.533	11.88
651.292	11.88
652.051	9.88
652.81	8.88
653.569	10.88
654.328	7.88
655.087	7.88
655.846	8.88
656.604	9.88
657.363	7.88
658.121	6.88
658.88	10.88
659.638	8.88
660.397	8.88
661.155	9.88
661.913	7.88
662.671	5.88
663.429	8.88
664.187	8.88
664.945	5.88
665.703	5.88
666.46	6.88
667.218	7.88
667.976	6.88
668.733	7.88
669.49	6.88
670.248	4.88
671.005	8.88
671.762	6.88
672.519	7.88
673.276	3.88
674.033	4.88
674.79	9.88
675.547	4.88
676.304	4.88
677.06	5.88
677.817	4.88
678.574	4.88
679.33	4.88
680.086	6.88
680.843	5.88
681.599	7.88
682.355	3.88
683.111	4.88
683.867	6.88
684.623	3.88
685.379	5.88
686.135	6.88
686.89	5.88
687.646	4.88
688.402	6.88
689.157	5.88
689.912	5.88
690.668	8.88
691.423	2.88
692.178	6.88
692.933	5.88
693.688	6.88
694.443	3.88
695.198	7.88
695.953	2.88
696.708	5.88
697.462	6.88
698.217	5.88
698.972	6.88
699.726	5.88
700.48	5.88
701.235	2.88
701.989	2.88
702.743	4.88
703.497	6.88
704.251	5.88
705.005	5.88
705.759	4.88
706.513	6.88
707.266	5.88
708.02	6.88
708.774	4.88
709.527	6.88
710.28	4.88
711.034	5.88
711.787	3.88
712.54	4.88
713.293	3.88
714.046	3.88
714.799	4.88
715.552	5.88
716.305	6.88
717.058	7.88
717.81	7.88
718.563	7.88
719.315	6.88
720.068	5.88
720.82	2.88
721.573	5.88
722.325	5.88
723.077	4.88
723.829	4.88
724.581	4.88
725.333	5.88
726.085	2.88
726.836	6.88
727.588	4.88
728.34	5.88
729.091	5.88
729.843	5.88
730.594	6.88
731.346	5.88
732.097	5.88
732.848	7.88
733.599	4.88
734.35	7.88
735.101	6.88
735.852	4.88
736.603	6.88
737.354	4.88
738.104	6.88
738.855	8.88
739.605	7.88
740.356	5.88
741.106	5.88
741.856	6.88
742.607	6.88
743.357	5.88
744.107	6.88
744.857	7.88
745.607	6.88
746.357	7.88
747.106	7.88
747.856	6.88
748.606	6.88
749.355	5.88
750.105	5.88
750.854	7.88
751.603	4.88
752.353	6.88
753.102	8.88
753.851	9.88
754.6	6.88
755.349	5.88
756.098	8.88
756.847	7.88
757.595	6.88
758.344	8.88
759.093	8.88
759.841	7.88
760.589	7.88
761.338	8.88
762.086	6.88
762.834	7.88
763.582	6.88
764.331	9.88
765.079	10.88
765.826	8.88
766.574	10.88
767.322	10.88
768.07	10.88
768.817	10.88
769.565	10.88
770.312	8.88
771.06	9.88
771.807	11.88
772.554	10.88
773.302	8.88
774.049	9.88
774.796	12.88
775.543	11.88
776.29	9.88
777.036	11.88
777.783	11.88
778.53	10.88
779.276	11.88
780.023	10.88
780.769	10.88
781.516	14.88
782.262	10.88
783.008	9.88
783.754	13.88
784.5	7.88
785.246	14.88
785.992	11.88
786.738	12.88
787.484	11.88
788.23	11.88
788.975	10.88
789.721	10.88
790.466	12.88
791.212	8.88
791.957	8.88
792.702	10.88
793.447	12.88
794.193	12.88
794.938	11.88
795.683	11.88
796.427	10.88
797.172	10.88
797.917	8.88
798.662	10.88
799.406	10.88
800.151	9.88
800.895	9.88
801.64	8.88
802.384	9.88
803.128	10.88
803.872	8.88
804.616	7.88
805.36	8.88
806.104	8.88
806.848	6.88
807.592	8.88
808.336	7.88
809.079	8.88
809.823	8.88
810.566	8.88
811.31	9.88
812.053	7.88
812.796	7.88
813.539	5.88
814.283	8.88
815.026	6.88
815.769	7.88
816.511	7.88
817.254	3.88
817.997	6.88
818.74	4.88
819.482	6.88
820.225	5.88
820.967	3.88
821.71	6.88
822.452	5.88
823.194	2.88
823.936	5.88
824.678	5.88
825.42	3.88
826.162	6.88
826.904	5.88
827.646	4.88
828.388	4.88
829.129	6.88
829.871	3.88
830.612	5.88
831.354	3.88
832.095	4.88
832.836	7.88
833.577	2.88
834.319	6.88
835.06	6.88
835.801	4.88
836.542	4.88
837.282	5.88
838.023	5.88
838.764	3.88
839.504	4.88
840.245	3.88
840.985	4.88
841.726	3.88
842.466	5.88
843.206	5.88
843.946	4.88
844.687	3.88
845.427	4.88
846.166	2.88
846.906	4.88
847.646	1.88
848.386	5.88
849.125	2.88
849.865	4.88
850.605	4.88
851.344	3.88
852.083	2.88
852.823	4.88
853.562	1.88
854.301	2.88
855.04	2.88
855.779	3.88
856.518	2.88
857.257	5.88
857.995	2.88
858.734	0.88
859.473	2.88
860.211	1.88
860.95	2.88
861.688	3.88
862.426	1.88
863.165	4.88
863.903	2.88
864.641	3.88
865.379	3.88
866.117	2.88
866.855	2.88
867.593	1.88
868.33	2.88
869.068	1.88
869.806	2.88
870.543	0.88
871.28	1.88
872.018	1.88
872.755	3.88
873.492	1.88
874.229	0.88
874.967	0.88
875.703	2.88
876.44	1.88
877.177	1.88
877.914	0.88
878.651	1.88
879.387	2.88
880.124	1.88
880.86	0.88
881.597	2.88
882.333	3.88
883.069	1.88
883.806	2.88
884.542	1.88
885.278	0.88
886.014	2.88
886.749	1.88
887.485	0.88
888.221	1.88
888.957	0.88
889.692	0.88
890.428	0.88
891.163	0.88
891.899	1.88
892.634	0.88
893.369	2.88
894.104	1.88
894.839	3.88
895.574	-1.12
896.309	1.88
897.044	0.88
897.779	1.88
898.514	1.88
899.248	1.88
899.983	2.88
900.717	-0.12
901.452	-0.12
902.186	0.88
902.92	-0.12
903.654	-0.12
904.389	2.88
905.123	0.88
905.857	1.88
906.59	0.88
907.324	-1.12
908.058	2.88
908.792	0.88
909.525	1.88
910.259	2.88
910.992	-0.12
911.726	0.88
912.459	0.88
913.192	0.88
913.925	2.88
914.658	0.88
915.391	0.88
916.124	-1.12
916.857	1.88
917.59	0.88
918.323	1.88
919.055	2.88
919.788	1.88
920.521	0.88
921.253	1.88
921.985	0.88
922.718	2.88
923.45	-0.12
924.182	-1.12
924.914	0.88
925.646	0.88
926.378	-0.12
927.11	0.88
927.841	0.88
928.573	1.88
929.305	1.88
930.036	-0.12
930.768	-0.12
931.499	2.88
932.23	-0.12
932.962	2.88
933.693	1.88
934.424	-0.12
935.155	0.88
935.886	1.88
936.617	0.88
937.348	-0.12
938.078	-0.12
938.809	0.88
939.54	-0.12
940.27	0.88
941.001	0.88
941.731	-0.12
942.461	0.88
943.191	-1.12
943.922	1.88
944.652	1.88
945.382	2.88
946.112	0.88
946.841	1.88
947.571	0.88
948.301	-0.12
949.031	2.88
949.76	1.88
950.49	-0.12
951.219	-1.12
951.948	0.88
952.678	-1.12
953.407	-1.12
954.136	0.88
954.865	0.88
955.594	-0.12
956.323	2.88
957.052	1.88
957.78	2.88
958.509	-1.12
959.238	0.88
959.966	0.88
960.695	-0.12
961.423	-1.12
962.151	-1.12
962.88	1.88
963.608	-1.12
964.336	0.88
965.064	-0.12
965.792	-2.12
966.52	0.88
967.247	1.88
967.975	2.88
968.703	-1.12
969.43	-0.12
970.158	0.88
970.885	-0.12
971.613	0.88
972.34	1.88
973.067	0.88
973.794	-1.12
974.521	-1.12
975.248	0.88
975.975	1.88
976.702	0.88
977.429	0.88
978.156	0.88
978.882	0.88
979.609	0.88
980.335	0.88
981.062	1.88
981.788	1.88
982.514	0.88
983.24	2.88
983.967	0.88
984.693	-1.12
985.419	-2.12
986.144	1.88
986.87	2.88
987.596	1.88
988.322	0.88
989.047	0.88
989.773	-1.12
990.498	0.88
991.224	-1.12
991.949	0.88
992.674	0.88
993.399	0.88
994.124	-0.12
994.849	-0.12
995.574	0.88
996.299	2.88
997.024	1.88
997.749	1.88
998.473	-0.12
999.198	-0.12
999.922	-0.12
1000.647	1.88
1001.371	4.88
1002.095	-0.12
1002.82	-0.12
1003.544	-2.12
1004.268	2.88
1004.992	1.88
1005.716	3.88
1006.439	1.88
1007.163	3.88
1007.887	3.88
1008.611	0.88
1009.334	-0.12
1010.058	1.88
1010.781	0.88
1011.504	1.88
1012.228	-0.12
1012.951	-0.12
1013.674	-2.12
1014.397	-1.12
1015.12	0.88
