节点500_425_QEPB04081__392__15-54-49-737.txt的数据

Date: Wed Nov 12 15:54:49 CST 2025
User: PC
Spectrometer: QEPB0408
触发模式: 0
积分时间 (秒): 1.000000E-2
Scans to average: 1
启用暗噪声校正: true
启用非线性校正: false
滑动平均宽度: 0
X轴模式: Wavelengths
Number of Pixels in Spectrum: 1044
>>>>>Begin Spectral Data<<<<<
220.843	3.5
221.644	2.5
222.444	4.5
223.244	1.5
224.045	4.5
224.845	1.5
225.645	1.5
226.445	2.5
227.245	3.5
228.045	3.5
228.845	4.5
229.645	1.5
230.444	3.5
231.244	4.5
232.043	5.5
232.843	0.5
233.642	4.5
234.442	2.5
235.241	3.5
236.04	5.5
236.839	4.5
237.638	5.5
238.437	4.5
239.236	6.5
240.035	6.5
240.833	5.5
241.632	6.5
242.43	6.5
243.229	6.5
244.027	5.5
244.826	7.5
245.624	7.5
246.422	7.5
247.22	9.5
248.018	8.5
248.816	9.5
249.614	9.5
250.412	10.5
251.21	9.5
252.007	7.5
252.805	10.5
253.602	12.5
254.4	10.5
255.197	9.5
255.994	9.5
256.791	11.5
257.589	11.5
258.386	10.5
259.183	13.5
259.979	16.5
260.776	12.5
261.573	11.5
262.37	14.5
263.166	16.5
263.963	12.5
264.759	15.5
265.556	17.5
266.352	17.5
267.148	15.5
267.944	17.5
268.74	17.5
269.536	17.5
270.332	19.5
271.128	19.5
271.924	21.5
272.719	23.5
273.515	19.5
274.311	17.5
275.106	20.5
275.901	20.5
276.697	20.5
277.492	19.5
278.287	22.5
279.082	23.5
279.877	25.5
280.672	23.5
281.467	22.5
282.262	24.5
283.056	25.5
283.851	24.5
284.646	22.5
285.44	23.5
286.234	22.5
287.029	24.5
287.823	24.5
288.617	23.5
289.411	23.5
290.205	22.5
290.999	23.5
291.793	23.5
292.587	22.5
293.381	23.5
294.174	18.5
294.968	24.5
295.761	20.5
296.555	19.5
297.348	20.5
298.141	14.5
298.935	20.5
299.728	18.5
300.521	22.5
301.314	18.5
302.107	17.5
302.899	16.5
303.692	18.5
304.485	16.5
305.277	15.5
306.07	16.5
306.862	14.5
307.655	18.5
308.447	17.5
309.239	13.5
310.031	14.5
310.823	13.5
311.615	13.5
312.407	14.5
313.199	12.5
313.991	11.5
314.783	12.5
315.574	11.5
316.366	10.5
317.157	10.5
317.949	9.5
318.74	9.5
319.531	8.5
320.322	6.5
321.113	9.5
321.904	10.5
322.695	8.5
323.486	6.5
324.277	8.5
325.068	10.5
325.858	9.5
326.649	5.5
327.439	8.5
328.23	7.5
329.02	10.5
329.81	6.5
330.6	7.5
331.391	7.5
332.181	7.5
332.971	5.5
333.76	7.5
334.55	9.5
335.34	7.5
336.13	6.5
336.919	9.5
337.709	5.5
338.498	7.5
339.287	6.5
340.077	8.5
340.866	7.5
341.655	4.5
342.444	8.5
343.233	7.5
344.022	8.5
344.811	8.5
345.6	7.5
346.388	7.5
347.177	6.5
347.965	9.5
348.754	8.5
349.542	7.5
350.33	7.5
351.119	4.5
351.907	9.5
352.695	7.5
353.483	10.5
354.271	7.5
355.059	8.5
355.846	8.5
356.634	6.5
357.422	7.5
358.209	6.5
358.997	7.5
359.784	5.5
360.571	7.5
361.359	5.5
362.146	8.5
362.933	5.5
363.72	6.5
364.507	5.5
365.294	6.5
366.081	5.5
366.867	7.5
367.654	5.5
368.44	3.5
369.227	6.5
370.013	6.5
370.8	6.5
371.586	5.5
372.372	5.5
373.158	9.5
373.944	5.5
374.73	7.5
375.516	5.5
376.302	7.5
377.088	6.5
377.873	4.5
378.659	7.5
379.445	5.5
380.23	5.5
381.015	5.5
381.801	7.5
382.586	7.5
383.371	5.5
384.156	7.5
384.941	4.5
385.726	6.5
386.511	6.5
387.296	8.5
388.08	9.5
388.865	5.5
389.649	7.5
390.434	6.5
391.218	3.5
392.003	5.5
392.787	6.5
393.571	6.5
394.355	5.5
395.139	7.5
395.923	6.5
396.707	7.5
397.491	7.5
398.274	8.5
399.058	8.5
399.842	8.5
400.625	8.5
401.408	7.5
402.192	7.5
402.975	9.5
403.758	7.5
404.541	8.5
405.324	8.5
406.107	10.5
406.89	11.5
407.673	9.5
408.456	8.5
409.238	9.5
410.021	8.5
410.803	11.5
411.586	10.5
412.368	11.5
413.151	8.5
413.933	11.5
414.715	8.5
415.497	11.5
416.279	13.5
417.061	10.5
417.843	13.5
418.624	12.5
419.406	13.5
420.188	13.5
420.969	13.5
421.751	16.5
422.532	14.5
423.313	14.5
424.095	13.5
424.876	14.5
425.657	14.5
426.438	14.5
427.219	17.5
428	16.5
428.78	15.5
429.561	19.5
430.342	17.5
431.122	17.5
431.903	19.5
432.683	21.5
433.464	20.5
434.244	22.5
435.024	22.5
435.804	25.5
436.584	27.5
437.364	27.5
438.144	25.5
438.924	30.5
439.704	30.5
440.483	34.5
441.263	34.5
442.042	37.5
442.822	40.5
443.601	45.5
444.38	44.5
445.16	49.5
445.939	53.5
446.718	57.5
447.497	59.5
448.276	72.5
449.054	73.5
449.833	78.5
450.612	80.5
451.391	96.5
452.169	102.5
452.948	118.5
453.726	125.5
454.504	137.5
455.282	156.5
456.061	171.5
456.839	188.5
457.617	214.5
458.395	240.5
459.172	262.5
459.95	299.5
460.728	334.5
461.506	367.5
462.283	407.5
463.061	460.5
463.838	514.5
464.615	567.5
465.393	628.5
466.17	701.5
466.947	774.5
467.724	867.5
468.501	965.5
469.278	1083.5
470.055	1185.5
470.831	1323.5
471.608	1451.5
472.385	1595.5
473.161	1782.5
473.938	1953.5
474.714	2172.5
475.49	2387.5
476.266	2589.5
477.043	2855.5
477.819	3156.5
478.595	3468.5
479.371	3817.5
480.146	4180.5
480.922	4546.5
481.698	4979.5
482.473	5468.5
483.249	5963.5
484.024	6515.5
484.8	7116.5
485.575	7755.5
486.35	8420.5
487.126	9183.5
487.901	9975.5
488.676	10874.5
489.451	11771.5
490.225	12721.5
491	13868.5
491.775	14970.5
492.55	16117.5
493.324	17367.5
494.099	18550.5
494.873	19848.5
495.647	21156.5
496.422	22479.5
497.196	23920.5
497.97	25386.5
498.744	26647.5
499.518	28039.5
500.292	29175.5
501.066	30305.5
501.839	31482.5
502.613	32367.5
503.387	33093.5
504.16	33752.5
504.934	34101.5
505.707	34237.5
506.48	34252.5
507.253	34089.5
508.027	33798.5
508.8	33380.5
509.573	32733.5
510.346	32049.5
511.118	31149.5
511.891	30421.5
512.664	29274.5
513.437	28259.5
514.209	27123.5
514.982	26168.5
515.754	25123.5
516.526	24051.5
517.298	23120.5
518.071	22128.5
518.843	21225.5
519.615	20350.5
520.387	19592.5
521.159	18785.5
521.93	18135.5
522.702	17339.5
523.474	16716.5
524.245	16043.5
525.017	15350.5
525.788	14529.5
526.56	14001.5
527.331	13375.5
528.102	12737.5
528.873	12162.5
529.644	11574.5
530.415	11016.5
531.186	10519.5
531.957	9990.5
532.728	9488.5
533.498	8946.5
534.269	8470.5
535.039	8019.5
535.81	7589.5
536.58	7163.5
537.351	6759.5
538.121	6371.5
538.891	6021.5
539.661	5734.5
540.431	5472.5
541.201	5157.5
541.971	4871.5
542.741	4644.5
543.51	4410.5
544.28	4193.5
545.05	3974.5
545.819	3773.5
546.588	3578.5
547.358	3412.5
548.127	3211.5
548.896	3077.5
549.665	2912.5
550.434	2771.5
551.203	2632.5
551.972	2496.5
552.741	2369.5
553.51	2208.5
554.278	2105.5
555.047	1988.5
555.815	1874.5
556.584	1786.5
557.352	1683.5
558.121	1579.5
558.889	1481.5
559.657	1403.5
560.425	1344.5
561.193	1253.5
561.961	1186.5
562.729	1129.5
563.496	1062.5
564.264	1000.5
565.032	950.5
565.799	900.5
566.567	858.5
567.334	801.5
568.101	767.5
568.869	717.5
569.636	675.5
570.403	632.5
571.17	595.5
571.937	574.5
572.704	549.5
573.471	507.5
574.237	475.5
575.004	447.5
575.771	413.5
576.537	392.5
577.303	377.5
578.07	356.5
578.836	339.5
579.602	312.5
580.368	297.5
581.134	282.5
581.9	265.5
582.666	250.5
583.432	246.5
584.198	225.5
584.964	225.5
585.729	203.5
586.495	201.5
587.26	188.5
588.025	178.5
588.791	163.5
589.556	153.5
590.321	153.5
591.086	139.5
591.851	132.5
592.616	131.5
593.381	122.5
594.146	113.5
594.911	109.5
595.675	105.5
596.44	98.5
597.204	95.5
597.969	90.5
598.733	88.5
599.497	83.5
600.261	81.5
601.025	75.5
601.79	72.5
602.553	70.5
603.317	65.5
604.081	63.5
604.845	64.5
605.609	59.5
606.372	57.5
607.136	55.5
607.899	53.5
608.662	51.5
609.426	50.5
610.189	44.5
610.952	44.5
611.715	41.5
612.478	45.5
613.241	38.5
614.004	35.5
614.767	35.5
615.529	35.5
616.292	34.5
617.055	35.5
617.817	29.5
618.579	33.5
619.342	28.5
620.104	27.5
620.866	28.5
621.628	25.5
622.39	24.5
623.152	23.5
623.914	23.5
624.676	22.5
625.438	23.5
626.199	21.5
626.961	19.5
627.722	20.5
628.484	19.5
629.245	21.5
630.006	19.5
630.768	19.5
631.529	17.5
632.29	12.5
633.051	16.5
633.812	14.5
634.573	15.5
635.333	14.5
636.094	14.5
636.855	14.5
637.615	13.5
638.376	11.5
639.136	10.5
639.896	13.5
640.657	14.5
641.417	13.5
642.177	11.5
642.937	12.5
643.697	11.5
644.457	10.5
645.216	11.5
645.976	10.5
646.736	11.5
647.495	8.5
648.255	8.5
649.014	11.5
649.774	10.5
650.533	8.5
651.292	8.5
652.051	6.5
652.81	9.5
653.569	7.5
654.328	8.5
655.087	7.5
655.846	7.5
656.604	8.5
657.363	7.5
658.121	6.5
658.88	8.5
659.638	5.5
660.397	7.5
661.155	7.5
661.913	6.5
662.671	5.5
663.429	5.5
664.187	9.5
664.945	7.5
665.703	5.5
666.46	6.5
667.218	6.5
667.976	7.5
668.733	6.5
669.49	3.5
670.248	4.5
671.005	6.5
671.762	5.5
672.519	7.5
673.276	5.5
674.033	4.5
674.79	5.5
675.547	4.5
676.304	6.5
677.06	5.5
677.817	4.5
678.574	5.5
679.33	3.5
680.086	5.5
680.843	5.5
681.599	4.5
682.355	5.5
683.111	5.5
683.867	4.5
684.623	5.5
685.379	4.5
686.135	3.5
686.89	3.5
687.646	4.5
688.402	3.5
689.157	6.5
689.912	6.5
690.668	5.5
691.423	5.5
692.178	3.5
692.933	6.5
693.688	4.5
694.443	4.5
695.198	6.5
695.953	3.5
696.708	1.5
697.462	4.5
698.217	3.5
698.972	4.5
699.726	6.5
700.48	5.5
701.235	3.5
701.989	5.5
702.743	5.5
703.497	4.5
704.251	2.5
705.005	3.5
705.759	4.5
706.513	1.5
707.266	5.5
708.02	1.5
708.774	6.5
709.527	3.5
710.28	5.5
711.034	5.5
711.787	3.5
712.54	3.5
713.293	3.5
714.046	1.5
714.799	5.5
715.552	5.5
716.305	6.5
717.058	6.5
717.81	5.5
718.563	4.5
719.315	3.5
720.068	6.5
720.82	3.5
721.573	3.5
722.325	7.5
723.077	2.5
723.829	2.5
724.581	3.5
725.333	6.5
726.085	6.5
726.836	4.5
727.588	4.5
728.34	3.5
729.091	5.5
729.843	5.5
730.594	6.5
731.346	2.5
732.097	1.5
732.848	3.5
733.599	6.5
734.35	4.5
735.101	5.5
735.852	6.5
736.603	5.5
737.354	5.5
738.104	4.5
738.855	6.5
739.605	6.5
740.356	4.5
741.106	5.5
741.856	5.5
742.607	2.5
743.357	6.5
744.107	4.5
744.857	5.5
745.607	7.5
746.357	4.5
747.106	4.5
747.856	6.5
748.606	7.5
749.355	6.5
750.105	5.5
750.854	6.5
751.603	6.5
752.353	4.5
753.102	9.5
753.851	6.5
754.6	5.5
755.349	9.5
756.098	9.5
756.847	8.5
757.595	6.5
758.344	5.5
759.093	6.5
759.841	8.5
760.589	7.5
761.338	9.5
762.086	6.5
762.834	9.5
763.582	8.5
764.331	7.5
765.079	10.5
765.826	7.5
766.574	9.5
767.322	7.5
768.07	8.5
768.817	8.5
769.565	6.5
770.312	9.5
771.06	9.5
771.807	8.5
772.554	8.5
773.302	8.5
774.049	10.5
774.796	8.5
775.543	9.5
776.29	8.5
777.036	9.5
777.783	10.5
778.53	10.5
779.276	11.5
780.023	8.5
780.769	10.5
781.516	13.5
782.262	10.5
783.008	11.5
783.754	9.5
784.5	10.5
785.246	12.5
785.992	12.5
786.738	12.5
787.484	11.5
788.23	10.5
788.975	10.5
789.721	10.5
790.466	9.5
791.212	9.5
791.957	9.5
792.702	8.5
793.447	8.5
794.193	11.5
794.938	9.5
795.683	7.5
796.427	9.5
797.172	11.5
797.917	7.5
798.662	9.5
799.406	7.5
800.151	7.5
800.895	9.5
801.64	7.5
802.384	7.5
803.128	10.5
803.872	7.5
804.616	7.5
805.36	9.5
806.104	5.5
806.848	5.5
807.592	8.5
808.336	7.5
809.079	8.5
809.823	6.5
810.566	6.5
811.31	7.5
812.053	3.5
812.796	5.5
813.539	7.5
814.283	4.5
815.026	6.5
815.769	7.5
816.511	6.5
817.254	7.5
817.997	5.5
818.74	5.5
819.482	4.5
820.225	7.5
820.967	5.5
821.71	3.5
822.452	7.5
823.194	4.5
823.936	6.5
824.678	4.5
825.42	3.5
826.162	6.5
826.904	6.5
827.646	3.5
828.388	2.5
829.129	4.5
829.871	2.5
830.612	3.5
831.354	4.5
832.095	1.5
832.836	3.5
833.577	3.5
834.319	3.5
835.06	5.5
835.801	4.5
836.542	3.5
837.282	5.5
838.023	2.5
838.764	3.5
839.504	4.5
840.245	2.5
840.985	3.5
841.726	4.5
842.466	1.5
843.206	6.5
843.946	3.5
844.687	2.5
845.427	3.5
846.166	1.5
846.906	4.5
847.646	2.5
848.386	3.5
849.125	3.5
849.865	3.5
850.605	3.5
851.344	1.5
852.083	2.5
852.823	1.5
853.562	4.5
854.301	4.5
855.04	1.5
855.779	1.5
856.518	1.5
857.257	2.5
857.995	1.5
858.734	1.5
859.473	1.5
860.211	1.5
860.95	2.5
861.688	1.5
862.426	3.5
863.165	0.5
863.903	2.5
864.641	2.5
865.379	0.5
866.117	1.5
866.855	0.5
867.593	1.5
868.33	2.5
869.068	0.5
869.806	1.5
870.543	-1.5
871.28	0.5
872.018	1.5
872.755	0.5
873.492	1.5
874.229	-0.5
874.967	2.5
875.703	2.5
876.44	-0.5
877.177	-0.5
877.914	1.5
878.651	1.5
879.387	0.5
880.124	2.5
880.86	1.5
881.597	-1.5
882.333	-0.5
883.069	-1.5
883.806	1.5
884.542	0.5
885.278	-0.5
886.014	1.5
886.749	1.5
887.485	1.5
888.221	-1.5
888.957	2.5
889.692	0.5
890.428	1.5
891.163	-0.5
891.899	-1.5
892.634	0.5
893.369	-1.5
894.104	-0.5
894.839	0.5
895.574	2.5
896.309	0.5
897.044	-0.5
897.779	0.5
898.514	1.5
899.248	-0.5
899.983	-0.5
900.717	0.5
901.452	0.5
902.186	-0.5
902.92	0.5
903.654	-0.5
904.389	0.5
905.123	-1.5
905.857	-1.5
906.59	1.5
907.324	1.5
908.058	-0.5
908.792	0.5
909.525	-0.5
910.259	1.5
910.992	0.5
911.726	-0.5
912.459	1.5
913.192	-2.5
913.925	0.5
914.658	-0.5
915.391	-1.5
916.124	0.5
916.857	0.5
917.59	-0.5
918.323	1.5
919.055	-1.5
919.788	-2.5
920.521	0.5
921.253	0.5
921.985	-0.5
922.718	0.5
923.45	0.5
924.182	-0.5
924.914	0.5
925.646	-0.5
926.378	-0.5
927.11	-2.5
927.841	0.5
928.573	-0.5
929.305	0.5
930.036	1.5
930.768	-1.5
931.499	-0.5
932.23	-0.5
932.962	0.5
933.693	0.5
934.424	0.5
935.155	-2.5
935.886	-0.5
936.617	-1.5
937.348	0.5
938.078	-0.5
938.809	-0.5
939.54	0.5
940.27	-2.5
941.001	-2.5
941.731	-0.5
942.461	0.5
943.191	-0.5
943.922	-0.5
944.652	-0.5
945.382	-2.5
946.112	-0.5
946.841	0.5
947.571	0.5
948.301	-0.5
949.031	-0.5
949.76	-0.5
950.49	-0.5
951.219	0.5
951.948	-2.5
952.678	0.5
953.407	-0.5
954.136	1.5
954.865	-3.5
955.594	-0.5
956.323	-2.5
957.052	-0.5
957.78	1.5
958.509	1.5
959.238	0.5
959.966	-2.5
960.695	0.5
961.423	0.5
962.151	-0.5
962.88	0.5
963.608	-3.5
964.336	0.5
965.064	0.5
965.792	-3.5
966.52	-1.5
967.247	-0.5
967.975	0.5
968.703	-1.5
969.43	1.5
970.158	-0.5
970.885	-1.5
971.613	0.5
972.34	-2.5
973.067	-2.5
973.794	-0.5
974.521	-0.5
975.248	1.5
975.975	-0.5
976.702	-1.5
977.429	-1.5
978.156	0.5
978.882	-1.5
979.609	-1.5
980.335	-0.5
981.062	-1.5
981.788	-0.5
982.514	-2.5
983.24	-1.5
983.967	0.5
984.693	-2.5
985.419	0.5
986.144	-0.5
986.87	-0.5
987.596	-0.5
988.322	-2.5
989.047	-0.5
989.773	0.5
990.498	0.5
991.224	-0.5
991.949	1.5
992.674	0.5
993.399	-3.5
994.124	0.5
994.849	-0.5
995.574	-0.5
996.299	0.5
997.024	-0.5
997.749	0.5
998.473	-1.5
999.198	1.5
999.922	0.5
1000.647	0.5
1001.371	2.5
1002.095	-1.5
1002.82	-1.5
1003.544	-0.5
1004.268	0.5
1004.992	2.5
1005.716	0.5
1006.439	2.5
1007.163	1.5
1007.887	3.5
1008.611	-2.5
1009.334	-0.5
1010.058	2.5
1010.781	-2.5
1011.504	-0.5
1012.228	-0.5
1012.951	1.5
1013.674	-1.5
1014.397	-0.5
1015.12	1.5
