节点500_425_QEPB04081__425__15-55-22-670.txt的数据

Date: Wed Nov 12 15:55:22 CST 2025
User: PC
Spectrometer: QEPB0408
触发模式: 0
积分时间 (秒): 1.000000E-2
Scans to average: 1
启用暗噪声校正: true
启用非线性校正: false
滑动平均宽度: 0
X轴模式: Wavelengths
Number of Pixels in Spectrum: 1044
>>>>>Begin Spectral Data<<<<<
220.843	2.38
221.644	3.38
222.444	2.38
223.244	5.38
224.045	3.38
224.845	5.38
225.645	2.38
226.445	4.38
227.245	4.38
228.045	4.38
228.845	5.38
229.645	2.38
230.444	5.38
231.244	5.38
232.043	2.38
232.843	6.38
233.642	4.38
234.442	6.38
235.241	6.38
236.04	4.38
236.839	5.38
237.638	6.38
238.437	5.38
239.236	5.38
240.035	6.38
240.833	4.38
241.632	7.38
242.43	7.38
243.229	6.38
244.027	9.38
244.826	7.38
245.624	8.38
246.422	9.38
247.22	8.38
248.018	7.38
248.816	9.38
249.614	8.38
250.412	7.38
251.21	9.38
252.007	9.38
252.805	11.38
253.602	8.38
254.4	11.38
255.197	11.38
255.994	11.38
256.791	12.38
257.589	12.38
258.386	11.38
259.183	14.38
259.979	11.38
260.776	14.38
261.573	14.38
262.37	13.38
263.166	14.38
263.963	13.38
264.759	18.38
265.556	16.38
266.352	16.38
267.148	17.38
267.944	21.38
268.74	18.38
269.536	19.38
270.332	19.38
271.128	21.38
271.924	18.38
272.719	19.38
273.515	19.38
274.311	22.38
275.106	20.38
275.901	22.38
276.697	22.38
277.492	23.38
278.287	21.38
279.082	20.38
279.877	23.38
280.672	24.38
281.467	21.38
282.262	24.38
283.056	22.38
283.851	23.38
284.646	24.38
285.44	25.38
286.234	23.38
287.029	21.38
287.823	22.38
288.617	23.38
289.411	21.38
290.205	24.38
290.999	23.38
291.793	24.38
292.587	21.38
293.381	24.38
294.174	20.38
294.968	22.38
295.761	21.38
296.555	21.38
297.348	19.38
298.141	18.38
298.935	19.38
299.728	18.38
300.521	18.38
301.314	19.38
302.107	20.38
302.899	15.38
303.692	15.38
304.485	17.38
305.277	16.38
306.07	13.38
306.862	15.38
307.655	18.38
308.447	16.38
309.239	14.38
310.031	14.38
310.823	12.38
311.615	14.38
312.407	13.38
313.199	10.38
313.991	13.38
314.783	12.38
315.574	11.38
316.366	11.38
317.157	9.38
317.949	12.38
318.74	10.38
319.531	12.38
320.322	12.38
321.113	8.38
321.904	12.38
322.695	11.38
323.486	8.38
324.277	11.38
325.068	8.38
325.858	8.38
326.649	12.38
327.439	9.38
328.23	7.38
329.02	7.38
329.81	7.38
330.6	9.38
331.391	9.38
332.181	10.38
332.971	8.38
333.76	9.38
334.55	9.38
335.34	8.38
336.13	10.38
336.919	9.38
337.709	8.38
338.498	8.38
339.287	9.38
340.077	4.38
340.866	8.38
341.655	10.38
342.444	8.38
343.233	9.38
344.022	8.38
344.811	10.38
345.6	6.38
346.388	8.38
347.177	9.38
347.965	9.38
348.754	9.38
349.542	6.38
350.33	6.38
351.119	8.38
351.907	7.38
352.695	10.38
353.483	6.38
354.271	9.38
355.059	7.38
355.846	6.38
356.634	8.38
357.422	9.38
358.209	8.38
358.997	9.38
359.784	8.38
360.571	5.38
361.359	8.38
362.146	5.38
362.933	6.38
363.72	7.38
364.507	6.38
365.294	8.38
366.081	9.38
366.867	5.38
367.654	6.38
368.44	7.38
369.227	9.38
370.013	5.38
370.8	6.38
371.586	6.38
372.372	5.38
373.158	6.38
373.944	7.38
374.73	7.38
375.516	6.38
376.302	5.38
377.088	6.38
377.873	8.38
378.659	9.38
379.445	7.38
380.23	4.38
381.015	6.38
381.801	6.38
382.586	7.38
383.371	4.38
384.156	6.38
384.941	9.38
385.726	7.38
386.511	6.38
387.296	8.38
388.08	9.38
388.865	7.38
389.649	7.38
390.434	7.38
391.218	7.38
392.003	8.38
392.787	9.38
393.571	7.38
394.355	7.38
395.139	7.38
395.923	8.38
396.707	6.38
397.491	8.38
398.274	6.38
399.058	7.38
399.842	12.38
400.625	9.38
401.408	6.38
402.192	7.38
402.975	9.38
403.758	11.38
404.541	7.38
405.324	8.38
406.107	8.38
406.89	7.38
407.673	9.38
408.456	10.38
409.238	13.38
410.021	11.38
410.803	10.38
411.586	11.38
412.368	11.38
413.151	12.38
413.933	10.38
414.715	13.38
415.497	10.38
416.279	11.38
417.061	13.38
417.843	12.38
418.624	14.38
419.406	11.38
420.188	15.38
420.969	12.38
421.751	16.38
422.532	14.38
423.313	17.38
424.095	15.38
424.876	14.38
425.657	18.38
426.438	14.38
427.219	16.38
428	19.38
428.78	16.38
429.561	19.38
430.342	16.38
431.122	18.38
431.903	19.38
432.683	23.38
433.464	22.38
434.244	26.38
435.024	26.38
435.804	26.38
436.584	26.38
437.364	25.38
438.144	27.38
438.924	30.38
439.704	33.38
440.483	33.38
441.263	34.38
442.042	38.38
442.822	40.38
443.601	43.38
444.38	47.38
445.16	47.38
445.939	54.38
446.718	57.38
447.497	61.38
448.276	66.38
449.054	72.38
449.833	79.38
450.612	85.38
451.391	93.38
452.169	105.38
452.948	119.38
453.726	128.38
454.504	144.38
455.282	157.38
456.061	165.38
456.839	190.38
457.617	216.38
458.395	242.38
459.172	270.38
459.95	295.38
460.728	327.38
461.506	370.38
462.283	416.38
463.061	454.38
463.838	510.38
464.615	569.38
465.393	632.38
466.17	714.38
466.947	788.38
467.724	879.38
468.501	978.38
469.278	1082.38
470.055	1181.38
470.831	1306.38
471.608	1458.38
472.385	1610.38
473.161	1765.38
473.938	1949.38
474.714	2148.38
475.49	2359.38
476.266	2613.38
477.043	2846.38
477.819	3152.38
478.595	3441.38
479.371	3783.38
480.146	4122.38
480.922	4531.38
481.698	4941.38
482.473	5388.38
483.249	5906.38
484.024	6460.38
484.8	7070.38
485.575	7681.38
486.35	8359.38
487.126	9082.38
487.901	9919.38
488.676	10761.38
489.451	11650.38
490.225	12602.38
491	13689.38
491.775	14784.38
492.55	15944.38
493.324	17173.38
494.099	18303.38
494.873	19625.38
495.647	20933.38
496.422	22218.38
497.196	23566.38
497.97	25068.38
498.744	26394.38
499.518	27688.38
500.292	28897.38
501.066	29974.38
501.839	31156.38
502.613	32040.38
503.387	32814.38
504.16	33431.38
504.934	33899.38
505.707	33959.38
506.48	33987.38
507.253	33896.38
508.027	33631.38
508.8	33244.38
509.573	32636.38
510.346	31970.38
511.118	31126.38
511.891	30225.38
512.664	29147.38
513.437	28207.38
514.209	27090.38
514.982	26180.38
515.754	25118.38
516.526	24084.38
517.298	23078.38
518.071	22142.38
518.843	21205.38
519.615	20409.38
520.387	19575.38
521.159	18809.38
521.93	18095.38
522.702	17388.38
523.474	16669.38
524.245	16057.38
525.017	15372.38
525.788	14618.38
526.56	14000.38
527.331	13377.38
528.102	12754.38
528.873	12114.38
529.644	11599.38
530.415	11050.38
531.186	10557.38
531.957	10017.38
532.728	9522.38
533.498	9010.38
534.269	8451.38
535.039	8092.38
535.81	7601.38
536.58	7189.38
537.351	6779.38
538.121	6413.38
538.891	6100.38
539.661	5774.38
540.431	5460.38
541.201	5186.38
541.971	4924.38
542.741	4684.38
543.51	4420.38
544.28	4200.38
545.05	4003.38
545.819	3790.38
546.588	3634.38
547.358	3433.38
548.127	3238.38
548.896	3094.38
549.665	2941.38
550.434	2803.38
551.203	2639.38
551.972	2499.38
552.741	2368.38
553.51	2234.38
554.278	2113.38
555.047	1988.38
555.815	1892.38
556.584	1791.38
557.352	1681.38
558.121	1590.38
558.889	1497.38
559.657	1408.38
560.425	1352.38
561.193	1271.38
561.961	1196.38
562.729	1133.38
563.496	1074.38
564.264	1024.38
565.032	952.38
565.799	909.38
566.567	854.38
567.334	816.38
568.101	766.38
568.869	725.38
569.636	686.38
570.403	641.38
571.17	614.38
571.937	573.38
572.704	548.38
573.471	506.38
574.237	488.38
575.004	456.38
575.771	432.38
576.537	401.38
577.303	383.38
578.07	359.38
578.836	340.38
579.602	315.38
580.368	302.38
581.134	286.38
581.9	268.38
582.666	256.38
583.432	244.38
584.198	228.38
584.964	218.38
585.729	213.38
586.495	198.38
587.26	185.38
588.025	175.38
588.791	169.38
589.556	156.38
590.321	148.38
591.086	140.38
591.851	141.38
592.616	132.38
593.381	123.38
594.146	117.38
594.911	110.38
595.675	107.38
596.44	104.38
597.204	102.38
597.969	93.38
598.733	85.38
599.497	80.38
600.261	80.38
601.025	76.38
601.79	73.38
602.553	69.38
603.317	69.38
604.081	67.38
604.845	64.38
605.609	61.38
606.372	58.38
607.136	52.38
607.899	53.38
608.662	49.38
609.426	48.38
610.189	47.38
610.952	45.38
611.715	45.38
612.478	42.38
613.241	37.38
614.004	38.38
614.767	37.38
615.529	37.38
616.292	35.38
617.055	32.38
617.817	32.38
618.579	33.38
619.342	30.38
620.104	31.38
620.866	30.38
621.628	25.38
622.39	28.38
623.152	26.38
623.914	25.38
624.676	21.38
625.438	25.38
626.199	22.38
626.961	24.38
627.722	21.38
628.484	22.38
629.245	19.38
630.006	18.38
630.768	18.38
631.529	19.38
632.29	17.38
633.051	16.38
633.812	17.38
634.573	18.38
635.333	14.38
636.094	16.38
636.855	16.38
637.615	14.38
638.376	16.38
639.136	14.38
639.896	12.38
640.657	14.38
641.417	10.38
642.177	12.38
642.937	12.38
643.697	12.38
644.457	10.38
645.216	11.38
645.976	12.38
646.736	10.38
647.495	9.38
648.255	11.38
649.014	8.38
649.774	9.38
650.533	8.38
651.292	10.38
652.051	6.38
652.81	9.38
653.569	7.38
654.328	8.38
655.087	11.38
655.846	13.38
656.604	8.38
657.363	9.38
658.121	6.38
658.88	6.38
659.638	8.38
660.397	8.38
661.155	6.38
661.913	5.38
662.671	6.38
663.429	6.38
664.187	8.38
664.945	6.38
665.703	9.38
666.46	6.38
667.218	7.38
667.976	7.38
668.733	8.38
669.49	8.38
670.248	7.38
671.005	9.38
671.762	7.38
672.519	7.38
673.276	8.38
674.033	7.38
674.79	7.38
675.547	6.38
676.304	3.38
677.06	6.38
677.817	5.38
678.574	5.38
679.33	5.38
680.086	5.38
680.843	5.38
681.599	4.38
682.355	6.38
683.111	2.38
683.867	4.38
684.623	6.38
685.379	2.38
686.135	5.38
686.89	5.38
687.646	5.38
688.402	6.38
689.157	6.38
689.912	6.38
690.668	4.38
691.423	6.38
692.178	3.38
692.933	3.38
693.688	5.38
694.443	5.38
695.198	5.38
695.953	5.38
696.708	4.38
697.462	4.38
698.217	3.38
698.972	7.38
699.726	4.38
700.48	5.38
701.235	3.38
701.989	4.38
702.743	2.38
703.497	3.38
704.251	3.38
705.005	6.38
705.759	7.38
706.513	4.38
707.266	6.38
708.02	8.38
708.774	3.38
709.527	4.38
710.28	2.38
711.034	4.38
711.787	4.38
712.54	6.38
713.293	5.38
714.046	3.38
714.799	6.38
715.552	7.38
716.305	5.38
717.058	5.38
717.81	5.38
718.563	6.38
719.315	4.38
720.068	5.38
720.82	4.38
721.573	4.38
722.325	5.38
723.077	3.38
723.829	6.38
724.581	5.38
725.333	5.38
726.085	4.38
726.836	4.38
727.588	6.38
728.34	4.38
729.091	4.38
729.843	5.38
730.594	4.38
731.346	4.38
732.097	7.38
732.848	4.38
733.599	2.38
734.35	6.38
735.101	5.38
735.852	4.38
736.603	6.38
737.354	6.38
738.104	7.38
738.855	7.38
739.605	7.38
740.356	6.38
741.106	4.38
741.856	5.38
742.607	6.38
743.357	6.38
744.107	7.38
744.857	4.38
745.607	6.38
746.357	6.38
747.106	7.38
747.856	5.38
748.606	5.38
749.355	5.38
750.105	7.38
750.854	7.38
751.603	9.38
752.353	9.38
753.102	8.38
753.851	8.38
754.6	7.38
755.349	10.38
756.098	7.38
756.847	6.38
757.595	8.38
758.344	8.38
759.093	7.38
759.841	8.38
760.589	10.38
761.338	8.38
762.086	8.38
762.834	6.38
763.582	7.38
764.331	8.38
765.079	9.38
765.826	6.38
766.574	10.38
767.322	8.38
768.07	8.38
768.817	12.38
769.565	9.38
770.312	8.38
771.06	8.38
771.807	8.38
772.554	9.38
773.302	9.38
774.049	10.38
774.796	10.38
775.543	10.38
776.29	11.38
777.036	8.38
777.783	9.38
778.53	8.38
779.276	9.38
780.023	11.38
780.769	10.38
781.516	10.38
782.262	10.38
783.008	10.38
783.754	8.38
784.5	12.38
785.246	12.38
785.992	9.38
786.738	12.38
787.484	12.38
788.23	12.38
788.975	11.38
789.721	10.38
790.466	11.38
791.212	7.38
791.957	12.38
792.702	11.38
793.447	14.38
794.193	10.38
794.938	8.38
795.683	12.38
796.427	11.38
797.172	9.38
797.917	8.38
798.662	8.38
799.406	11.38
800.151	8.38
800.895	9.38
801.64	7.38
802.384	7.38
803.128	8.38
803.872	8.38
804.616	8.38
805.36	9.38
806.104	7.38
806.848	8.38
807.592	8.38
808.336	4.38
809.079	6.38
809.823	8.38
810.566	5.38
811.31	7.38
812.053	8.38
812.796	8.38
813.539	7.38
814.283	4.38
815.026	6.38
815.769	6.38
816.511	6.38
817.254	5.38
817.997	7.38
818.74	6.38
819.482	4.38
820.225	8.38
820.967	5.38
821.71	5.38
822.452	6.38
823.194	5.38
823.936	4.38
824.678	5.38
825.42	4.38
826.162	5.38
826.904	4.38
827.646	7.38
828.388	3.38
829.129	4.38
829.871	4.38
830.612	4.38
831.354	3.38
832.095	4.38
832.836	6.38
833.577	4.38
834.319	5.38
835.06	6.38
835.801	5.38
836.542	6.38
837.282	4.38
838.023	6.38
838.764	3.38
839.504	5.38
840.245	6.38
840.985	4.38
841.726	4.38
842.466	2.38
843.206	3.38
843.946	2.38
844.687	4.38
845.427	4.38
846.166	2.38
846.906	4.38
847.646	1.38
848.386	4.38
849.125	2.38
849.865	3.38
850.605	5.38
851.344	5.38
852.083	3.38
852.823	5.38
853.562	1.38
854.301	2.38
855.04	2.38
855.779	5.38
856.518	3.38
857.257	2.38
857.995	3.38
858.734	1.38
859.473	4.38
860.211	2.38
860.95	0.38
861.688	4.38
862.426	2.38
863.165	4.38
863.903	0.38
864.641	2.38
865.379	2.38
866.117	1.38
866.855	1.38
867.593	3.38
868.33	2.38
869.068	0.38
869.806	2.38
870.543	2.38
871.28	2.38
872.018	2.38
872.755	3.38
873.492	1.38
874.229	1.38
874.967	2.38
875.703	0.38
876.44	0.38
877.177	1.38
877.914	1.38
878.651	-0.62
879.387	2.38
880.124	1.38
880.86	2.38
881.597	0.38
882.333	-0.62
883.069	2.38
883.806	2.38
884.542	1.38
885.278	-0.62
886.014	0.38
886.749	1.38
887.485	1.38
888.221	1.38
888.957	2.38
889.692	1.38
890.428	0.38
891.163	2.38
891.899	0.38
892.634	2.38
893.369	-0.62
894.104	-0.62
894.839	0.38
895.574	0.38
896.309	-0.62
897.044	0.38
897.779	-0.62
898.514	-0.62
899.248	-2.62
899.983	-0.62
900.717	0.38
901.452	0.38
902.186	2.38
902.92	-0.62
903.654	1.38
904.389	0.38
905.123	0.38
905.857	1.38
906.59	1.38
907.324	2.38
908.058	-0.62
908.792	2.38
909.525	0.38
910.259	1.38
910.992	2.38
911.726	0.38
912.459	2.38
913.192	0.38
913.925	-0.62
914.658	0.38
915.391	2.38
916.124	0.38
916.857	0.38
917.59	0.38
918.323	-1.62
919.055	1.38
919.788	-0.62
920.521	1.38
921.253	1.38
921.985	1.38
922.718	-1.62
923.45	1.38
924.182	1.38
924.914	-0.62
925.646	-0.62
926.378	0.38
927.11	-0.62
927.841	0.38
928.573	0.38
929.305	0.38
930.036	1.38
930.768	2.38
931.499	0.38
932.23	0.38
932.962	0.38
933.693	0.38
934.424	0.38
935.155	0.38
935.886	-0.62
936.617	0.38
937.348	2.38
938.078	-0.62
938.809	-1.62
939.54	1.38
940.27	-0.62
941.001	1.38
941.731	-3.62
942.461	2.38
943.191	0.38
943.922	0.38
944.652	-0.62
945.382	-0.62
946.112	-0.62
946.841	-2.62
947.571	1.38
948.301	0.38
949.031	0.38
949.76	0.38
950.49	0.38
951.219	0.38
951.948	-0.62
952.678	-1.62
953.407	-0.62
954.136	1.38
954.865	1.38
955.594	0.38
956.323	0.38
957.052	0.38
957.78	0.38
958.509	0.38
959.238	1.38
959.966	1.38
960.695	1.38
961.423	-0.62
962.151	-0.62
962.88	-0.62
963.608	2.38
964.336	0.38
965.064	1.38
965.792	1.38
966.52	3.38
967.247	0.38
967.975	0.38
968.703	0.38
969.43	1.38
970.158	0.38
970.885	-0.62
971.613	1.38
972.34	-0.62
973.067	0.38
973.794	-0.62
974.521	2.38
975.248	-0.62
975.975	-0.62
976.702	-0.62
977.429	0.38
978.156	0.38
978.882	0.38
979.609	0.38
980.335	1.38
981.062	-1.62
981.788	-0.62
982.514	0.38
983.24	-0.62
983.967	2.38
984.693	-1.62
985.419	-0.62
986.144	0.38
986.87	-0.62
987.596	0.38
988.322	1.38
989.047	1.38
989.773	1.38
990.498	-0.62
991.224	-0.62
991.949	-0.62
992.674	0.38
993.399	0.38
994.124	-1.62
994.849	1.38
995.574	0.38
996.299	-0.62
997.024	1.38
997.749	1.38
998.473	0.38
999.198	-1.62
999.922	0.38
1000.647	-1.62
1001.371	2.38
1002.095	-1.62
1002.82	0.38
1003.544	-2.62
1004.268	3.38
1004.992	2.38
1005.716	1.38
1006.439	2.38
1007.163	2.38
1007.887	2.38
1008.611	-1.62
1009.334	2.38
1010.058	1.38
1010.781	1.38
1011.504	0.38
1012.228	0.38
1012.951	-0.62
1013.674	0.38
1014.397	1.38
1015.12	0.38
