节点500_425_QEPB04081__81__15-49-39-361.txt的数据

Date: Wed Nov 12 15:49:39 CST 2025
User: PC
Spectrometer: QEPB0408
触发模式: 0
积分时间 (秒): 1.000000E-2
Scans to average: 1
启用暗噪声校正: true
启用非线性校正: false
滑动平均宽度: 0
X轴模式: Wavelengths
Number of Pixels in Spectrum: 1044
>>>>>Begin Spectral Data<<<<<
220.843	4.5
221.644	2.5
222.444	3.5
223.244	1.5
224.045	5.5
224.845	3.5
225.645	4.5
226.445	4.5
227.245	6.5
228.045	6.5
228.845	3.5
229.645	2.5
230.444	5.5
231.244	5.5
232.043	6.5
232.843	7.5
233.642	5.5
234.442	5.5
235.241	4.5
236.04	7.5
236.839	7.5
237.638	6.5
238.437	8.5
239.236	8.5
240.035	6.5
240.833	5.5
241.632	8.5
242.43	8.5
243.229	7.5
244.027	9.5
244.826	7.5
245.624	9.5
246.422	7.5
247.22	12.5
248.018	10.5
248.816	11.5
249.614	10.5
250.412	11.5
251.21	13.5
252.007	10.5
252.805	9.5
253.602	12.5
254.4	10.5
255.197	11.5
255.994	13.5
256.791	13.5
257.589	14.5
258.386	13.5
259.183	17.5
259.979	14.5
260.776	17.5
261.573	15.5
262.37	15.5
263.166	18.5
263.963	17.5
264.759	16.5
265.556	19.5
266.352	19.5
267.148	20.5
267.944	19.5
268.74	22.5
269.536	20.5
270.332	23.5
271.128	22.5
271.924	25.5
272.719	22.5
273.515	22.5
274.311	26.5
275.106	22.5
275.901	26.5
276.697	26.5
277.492	26.5
278.287	25.5
279.082	27.5
279.877	26.5
280.672	26.5
281.467	27.5
282.262	28.5
283.056	25.5
283.851	28.5
284.646	25.5
285.44	23.5
286.234	25.5
287.029	27.5
287.823	26.5
288.617	25.5
289.411	23.5
290.205	24.5
290.999	24.5
291.793	27.5
292.587	24.5
293.381	21.5
294.174	22.5
294.968	23.5
295.761	23.5
296.555	21.5
297.348	18.5
298.141	21.5
298.935	22.5
299.728	19.5
300.521	18.5
301.314	19.5
302.107	15.5
302.899	19.5
303.692	14.5
304.485	18.5
305.277	18.5
306.07	17.5
306.862	18.5
307.655	14.5
308.447	14.5
309.239	14.5
310.031	11.5
310.823	14.5
311.615	11.5
312.407	14.5
313.199	12.5
313.991	14.5
314.783	13.5
315.574	8.5
316.366	13.5
317.157	12.5
317.949	13.5
318.74	11.5
319.531	11.5
320.322	9.5
321.113	8.5
321.904	11.5
322.695	11.5
323.486	9.5
324.277	9.5
325.068	11.5
325.858	12.5
326.649	10.5
327.439	7.5
328.23	8.5
329.02	11.5
329.81	8.5
330.6	8.5
331.391	8.5
332.181	9.5
332.971	10.5
333.76	8.5
334.55	7.5
335.34	10.5
336.13	9.5
336.919	12.5
337.709	8.5
338.498	9.5
339.287	10.5
340.077	6.5
340.866	8.5
341.655	9.5
342.444	8.5
343.233	12.5
344.022	8.5
344.811	8.5
345.6	7.5
346.388	8.5
347.177	10.5
347.965	8.5
348.754	7.5
349.542	6.5
350.33	7.5
351.119	6.5
351.907	8.5
352.695	6.5
353.483	7.5
354.271	10.5
355.059	6.5
355.846	7.5
356.634	6.5
357.422	7.5
358.209	7.5
358.997	7.5
359.784	7.5
360.571	8.5
361.359	9.5
362.146	8.5
362.933	7.5
363.72	8.5
364.507	8.5
365.294	7.5
366.081	5.5
366.867	7.5
367.654	8.5
368.44	8.5
369.227	7.5
370.013	6.5
370.8	4.5
371.586	6.5
372.372	6.5
373.158	8.5
373.944	7.5
374.73	7.5
375.516	8.5
376.302	8.5
377.088	7.5
377.873	6.5
378.659	7.5
379.445	7.5
380.23	8.5
381.015	6.5
381.801	7.5
382.586	7.5
383.371	7.5
384.156	5.5
384.941	8.5
385.726	8.5
386.511	5.5
387.296	7.5
388.08	6.5
388.865	8.5
389.649	8.5
390.434	8.5
391.218	8.5
392.003	8.5
392.787	9.5
393.571	9.5
394.355	11.5
395.139	11.5
395.923	7.5
396.707	10.5
397.491	9.5
398.274	9.5
399.058	11.5
399.842	9.5
400.625	8.5
401.408	7.5
402.192	10.5
402.975	9.5
403.758	11.5
404.541	8.5
405.324	11.5
406.107	10.5
406.89	10.5
407.673	10.5
408.456	10.5
409.238	12.5
410.021	10.5
410.803	12.5
411.586	12.5
412.368	10.5
413.151	9.5
413.933	10.5
414.715	11.5
415.497	13.5
416.279	14.5
417.061	12.5
417.843	12.5
418.624	11.5
419.406	13.5
420.188	17.5
420.969	16.5
421.751	14.5
422.532	14.5
423.313	16.5
424.095	14.5
424.876	17.5
425.657	18.5
426.438	17.5
427.219	18.5
428	18.5
428.78	19.5
429.561	20.5
430.342	20.5
431.122	21.5
431.903	19.5
432.683	24.5
433.464	21.5
434.244	23.5
435.024	26.5
435.804	24.5
436.584	25.5
437.364	26.5
438.144	29.5
438.924	31.5
439.704	32.5
440.483	33.5
441.263	35.5
442.042	37.5
442.822	40.5
443.601	42.5
444.38	45.5
445.16	49.5
445.939	49.5
446.718	51.5
447.497	63.5
448.276	63.5
449.054	69.5
449.833	77.5
450.612	81.5
451.391	87.5
452.169	96.5
452.948	102.5
453.726	119.5
454.504	124.5
455.282	144.5
456.061	154.5
456.839	170.5
457.617	190.5
458.395	215.5
459.172	234.5
459.95	269.5
460.728	301.5
461.506	340.5
462.283	378.5
463.061	418.5
463.838	466.5
464.615	522.5
465.393	584.5
466.17	672.5
466.947	737.5
467.724	817.5
468.501	907.5
469.278	1017.5
470.055	1136.5
470.831	1248.5
471.608	1398.5
472.385	1552.5
473.161	1726.5
473.938	1924.5
474.714	2132.5
475.49	2367.5
476.266	2616.5
477.043	2887.5
477.819	3195.5
478.595	3532.5
479.371	3924.5
480.146	4336.5
480.922	4727.5
481.698	5241.5
482.473	5782.5
483.249	6343.5
484.024	6973.5
484.8	7702.5
485.575	8459.5
486.35	9279.5
487.126	10141.5
487.901	11101.5
488.676	12104.5
489.451	13257.5
490.225	14419.5
491	15707.5
491.775	17067.5
492.55	18439.5
493.324	19898.5
494.099	21282.5
494.873	22791.5
495.647	24356.5
496.422	25891.5
497.196	27490.5
497.97	29081.5
498.744	30517.5
499.518	31961.5
500.292	33239.5
501.066	34284.5
501.839	35366.5
502.613	36160.5
503.387	36737.5
504.16	37197.5
504.934	37283.5
505.707	37119.5
506.48	36737.5
507.253	36376.5
508.027	35725.5
508.8	34944.5
509.573	33907.5
510.346	32855.5
511.118	31847.5
511.891	30689.5
512.664	29471.5
513.437	28217.5
514.209	26947.5
514.982	25861.5
515.754	24813.5
516.526	23661.5
517.298	22619.5
518.071	21720.5
518.843	20836.5
519.615	19921.5
520.387	19131.5
521.159	18392.5
521.93	17750.5
522.702	17046.5
523.474	16337.5
524.245	15697.5
525.017	15013.5
525.788	14267.5
526.56	13586.5
527.331	12902.5
528.102	12295.5
528.873	11731.5
529.644	11126.5
530.415	10598.5
531.186	10008.5
531.957	9491.5
532.728	8987.5
533.498	8479.5
534.269	7974.5
535.039	7545.5
535.81	7140.5
536.58	6749.5
537.351	6321.5
538.121	6008.5
538.891	5672.5
539.661	5375.5
540.431	5106.5
541.201	4822.5
541.971	4553.5
542.741	4337.5
543.51	4127.5
544.28	3891.5
545.05	3717.5
545.819	3557.5
546.588	3369.5
547.358	3206.5
548.127	3050.5
548.896	2867.5
549.665	2730.5
550.434	2577.5
551.203	2445.5
551.972	2315.5
552.741	2186.5
553.51	2075.5
554.278	1949.5
555.047	1833.5
555.815	1730.5
556.584	1635.5
557.352	1543.5
558.121	1452.5
558.889	1364.5
559.657	1297.5
560.425	1226.5
561.193	1155.5
561.961	1090.5
562.729	1050.5
563.496	988.5
564.264	913.5
565.032	880.5
565.799	815.5
566.567	784.5
567.334	740.5
568.101	698.5
568.869	666.5
569.636	625.5
570.403	579.5
571.17	552.5
571.937	523.5
572.704	501.5
573.471	462.5
574.237	437.5
575.004	412.5
575.771	391.5
576.537	367.5
577.303	344.5
578.07	325.5
578.836	309.5
579.602	287.5
580.368	270.5
581.134	258.5
581.9	252.5
582.666	229.5
583.432	228.5
584.198	213.5
584.964	194.5
585.729	187.5
586.495	184.5
587.26	171.5
588.025	164.5
588.791	155.5
589.556	151.5
590.321	145.5
591.086	129.5
591.851	127.5
592.616	119.5
593.381	111.5
594.146	110.5
594.911	101.5
595.675	100.5
596.44	96.5
597.204	90.5
597.969	91.5
598.733	82.5
599.497	81.5
600.261	73.5
601.025	70.5
601.79	67.5
602.553	64.5
603.317	66.5
604.081	62.5
604.845	56.5
605.609	54.5
606.372	52.5
607.136	50.5
607.899	50.5
608.662	48.5
609.426	48.5
610.189	45.5
610.952	41.5
611.715	39.5
612.478	40.5
613.241	37.5
614.004	41.5
614.767	37.5
615.529	35.5
616.292	34.5
617.055	29.5
617.817	30.5
618.579	30.5
619.342	29.5
620.104	26.5
620.866	24.5
621.628	26.5
622.39	23.5
623.152	22.5
623.914	24.5
624.676	23.5
625.438	23.5
626.199	20.5
626.961	20.5
627.722	20.5
628.484	20.5
629.245	19.5
630.006	17.5
630.768	20.5
631.529	15.5
632.29	16.5
633.051	18.5
633.812	17.5
634.573	16.5
635.333	13.5
636.094	17.5
636.855	15.5
637.615	14.5
638.376	14.5
639.136	17.5
639.896	13.5
640.657	11.5
641.417	13.5
642.177	13.5
642.937	12.5
643.697	12.5
644.457	12.5
645.216	11.5
645.976	10.5
646.736	9.5
647.495	9.5
648.255	9.5
649.014	9.5
649.774	9.5
650.533	8.5
651.292	8.5
652.051	8.5
652.81	8.5
653.569	8.5
654.328	9.5
655.087	10.5
655.846	7.5
656.604	9.5
657.363	10.5
658.121	8.5
658.88	4.5
659.638	7.5
660.397	6.5
661.155	6.5
661.913	6.5
662.671	8.5
663.429	9.5
664.187	7.5
664.945	7.5
665.703	6.5
666.46	6.5
667.218	6.5
667.976	7.5
668.733	6.5
669.49	5.5
670.248	7.5
671.005	6.5
671.762	7.5
672.519	5.5
673.276	7.5
674.033	5.5
674.79	5.5
675.547	6.5
676.304	6.5
677.06	4.5
677.817	5.5
678.574	5.5
679.33	4.5
680.086	4.5
680.843	5.5
681.599	7.5
682.355	4.5
683.111	7.5
683.867	7.5
684.623	4.5
685.379	8.5
686.135	2.5
686.89	6.5
687.646	4.5
688.402	4.5
689.157	4.5
689.912	5.5
690.668	6.5
691.423	7.5
692.178	5.5
692.933	4.5
693.688	5.5
694.443	4.5
695.198	5.5
695.953	6.5
696.708	4.5
697.462	5.5
698.217	7.5
698.972	3.5
699.726	5.5
700.48	5.5
701.235	7.5
701.989	6.5
702.743	6.5
703.497	7.5
704.251	3.5
705.005	5.5
705.759	5.5
706.513	5.5
707.266	4.5
708.02	6.5
708.774	6.5
709.527	5.5
710.28	3.5
711.034	5.5
711.787	5.5
712.54	7.5
713.293	4.5
714.046	5.5
714.799	2.5
715.552	3.5
716.305	5.5
717.058	6.5
717.81	7.5
718.563	8.5
719.315	3.5
720.068	4.5
720.82	4.5
721.573	5.5
722.325	4.5
723.077	5.5
723.829	5.5
724.581	6.5
725.333	4.5
726.085	5.5
726.836	7.5
727.588	6.5
728.34	3.5
729.091	6.5
729.843	6.5
730.594	6.5
731.346	9.5
732.097	5.5
732.848	4.5
733.599	6.5
734.35	5.5
735.101	6.5
735.852	7.5
736.603	5.5
737.354	5.5
738.104	7.5
738.855	6.5
739.605	6.5
740.356	7.5
741.106	6.5
741.856	7.5
742.607	8.5
743.357	5.5
744.107	7.5
744.857	4.5
745.607	6.5
746.357	7.5
747.106	6.5
747.856	6.5
748.606	9.5
749.355	6.5
750.105	8.5
750.854	7.5
751.603	8.5
752.353	8.5
753.102	6.5
753.851	6.5
754.6	9.5
755.349	8.5
756.098	5.5
756.847	9.5
757.595	10.5
758.344	6.5
759.093	9.5
759.841	9.5
760.589	9.5
761.338	9.5
762.086	7.5
762.834	9.5
763.582	10.5
764.331	12.5
765.079	8.5
765.826	14.5
766.574	11.5
767.322	11.5
768.07	10.5
768.817	10.5
769.565	11.5
770.312	10.5
771.06	12.5
771.807	13.5
772.554	12.5
773.302	11.5
774.049	9.5
774.796	10.5
775.543	10.5
776.29	11.5
777.036	11.5
777.783	11.5
778.53	10.5
779.276	13.5
780.023	12.5
780.769	9.5
781.516	11.5
782.262	14.5
783.008	13.5
783.754	14.5
784.5	12.5
785.246	13.5
785.992	12.5
786.738	9.5
787.484	12.5
788.23	12.5
788.975	13.5
789.721	12.5
790.466	13.5
791.212	11.5
791.957	10.5
792.702	12.5
793.447	10.5
794.193	10.5
794.938	8.5
795.683	9.5
796.427	8.5
797.172	10.5
797.917	11.5
798.662	9.5
799.406	11.5
800.151	10.5
800.895	7.5
801.64	10.5
802.384	10.5
803.128	8.5
803.872	7.5
804.616	9.5
805.36	9.5
806.104	9.5
806.848	8.5
807.592	7.5
808.336	7.5
809.079	6.5
809.823	7.5
810.566	7.5
811.31	6.5
812.053	8.5
812.796	8.5
813.539	8.5
814.283	9.5
815.026	8.5
815.769	8.5
816.511	6.5
817.254	7.5
817.997	5.5
818.74	4.5
819.482	6.5
820.225	6.5
820.967	6.5
821.71	7.5
822.452	6.5
823.194	7.5
823.936	3.5
824.678	5.5
825.42	4.5
826.162	6.5
826.904	4.5
827.646	4.5
828.388	6.5
829.129	5.5
829.871	5.5
830.612	2.5
831.354	6.5
832.095	6.5
832.836	4.5
833.577	5.5
834.319	5.5
835.06	4.5
835.801	3.5
836.542	3.5
837.282	5.5
838.023	3.5
838.764	4.5
839.504	3.5
840.245	5.5
840.985	2.5
841.726	3.5
842.466	4.5
843.206	3.5
843.946	4.5
844.687	4.5
845.427	2.5
846.166	6.5
846.906	3.5
847.646	5.5
848.386	3.5
849.125	3.5
849.865	4.5
850.605	3.5
851.344	3.5
852.083	1.5
852.823	4.5
853.562	2.5
854.301	2.5
855.04	4.5
855.779	4.5
856.518	3.5
857.257	-0.5
857.995	3.5
858.734	3.5
859.473	2.5
860.211	2.5
860.95	2.5
861.688	4.5
862.426	2.5
863.165	3.5
863.903	5.5
864.641	3.5
865.379	4.5
866.117	3.5
866.855	3.5
867.593	4.5
868.33	4.5
869.068	0.5
869.806	2.5
870.543	2.5
871.28	1.5
872.018	2.5
872.755	1.5
873.492	2.5
874.229	2.5
874.967	0.5
875.703	3.5
876.44	1.5
877.177	1.5
877.914	0.5
878.651	1.5
879.387	1.5
880.124	1.5
880.86	1.5
881.597	0.5
882.333	0.5
883.069	2.5
883.806	2.5
884.542	1.5
885.278	2.5
886.014	0.5
886.749	2.5
887.485	2.5
888.221	0.5
888.957	0.5
889.692	2.5
890.428	0.5
891.163	2.5
891.899	0.5
892.634	2.5
893.369	2.5
894.104	2.5
894.839	0.5
895.574	0.5
896.309	0.5
897.044	1.5
897.779	2.5
898.514	1.5
899.248	2.5
899.983	0.5
900.717	1.5
901.452	-0.5
902.186	0.5
902.92	-0.5
903.654	2.5
904.389	0.5
905.123	0.5
905.857	2.5
906.59	0.5
907.324	1.5
908.058	0.5
908.792	0.5
909.525	0.5
910.259	-1.5
910.992	1.5
911.726	0.5
912.459	-1.5
913.192	0.5
913.925	0.5
914.658	0.5
915.391	-1.5
916.124	-0.5
916.857	-2.5
917.59	1.5
918.323	2.5
919.055	2.5
919.788	2.5
920.521	2.5
921.253	0.5
921.985	-0.5
922.718	-2.5
923.45	1.5
924.182	0.5
924.914	2.5
925.646	-1.5
926.378	1.5
927.11	1.5
927.841	-0.5
928.573	-0.5
929.305	1.5
930.036	1.5
930.768	2.5
931.499	-0.5
932.23	2.5
932.962	-0.5
933.693	3.5
934.424	0.5
935.155	-0.5
935.886	1.5
936.617	-0.5
937.348	0.5
938.078	1.5
938.809	1.5
939.54	-0.5
940.27	-0.5
941.001	-0.5
941.731	0.5
942.461	-0.5
943.191	2.5
943.922	-0.5
944.652	-1.5
945.382	-2.5
946.112	2.5
946.841	1.5
947.571	-0.5
948.301	-1.5
949.031	-0.5
949.76	1.5
950.49	0.5
951.219	0.5
951.948	-0.5
952.678	-0.5
953.407	-0.5
954.136	-0.5
954.865	0.5
955.594	-0.5
956.323	0.5
957.052	0.5
957.78	0.5
958.509	0.5
959.238	-0.5
959.966	0.5
960.695	0.5
961.423	2.5
962.151	-0.5
962.88	0.5
963.608	0.5
964.336	1.5
965.064	-0.5
965.792	0.5
966.52	1.5
967.247	0.5
967.975	2.5
968.703	1.5
969.43	-0.5
970.158	-0.5
970.885	-0.5
971.613	-1.5
972.34	0.5
973.067	0.5
973.794	1.5
974.521	0.5
975.248	-1.5
975.975	-1.5
976.702	1.5
977.429	-0.5
978.156	1.5
978.882	1.5
979.609	0.5
980.335	0.5
981.062	2.5
981.788	0.5
982.514	-0.5
983.24	3.5
983.967	1.5
984.693	0.5
985.419	1.5
986.144	1.5
986.87	-0.5
987.596	1.5
988.322	0.5
989.047	0.5
989.773	1.5
990.498	0.5
991.224	2.5
991.949	0.5
992.674	-1.5
993.399	0.5
994.124	2.5
994.849	0.5
995.574	-1.5
996.299	-0.5
997.024	-2.5
997.749	2.5
998.473	1.5
999.198	-1.5
999.922	2.5
1000.647	0.5
1001.371	4.5
1002.095	0.5
1002.82	-2.5
1003.544	-1.5
1004.268	0.5
1004.992	3.5
1005.716	1.5
1006.439	3.5
1007.163	4.5
1007.887	1.5
1008.611	-1.5
1009.334	1.5
1010.058	1.5
1010.781	0.5
1011.504	0.5
1012.228	2.5
1012.951	-2.5
1013.674	1.5
1014.397	0.5
1015.12	-0.5
