节点500_425_QEPB04081__563__15-57-40-447.txt的数据

Date: Wed Nov 12 15:57:40 CST 2025
User: PC
Spectrometer: QEPB0408
触发模式: 0
积分时间 (秒): 1.000000E-2
Scans to average: 1
启用暗噪声校正: true
启用非线性校正: false
滑动平均宽度: 0
X轴模式: Wavelengths
Number of Pixels in Spectrum: 1044
>>>>>Begin Spectral Data<<<<<
220.843	2.62
221.644	1.62
222.444	1.62
223.244	2.62
224.045	4.62
224.845	4.62
225.645	6.62
226.445	4.62
227.245	6.62
228.045	4.62
228.845	3.62
229.645	2.62
230.444	4.62
231.244	6.62
232.043	4.62
232.843	5.62
233.642	5.62
234.442	6.62
235.241	7.62
236.04	4.62
236.839	5.62
237.638	6.62
238.437	6.62
239.236	6.62
240.035	6.62
240.833	7.62
241.632	5.62
242.43	4.62
243.229	5.62
244.027	6.62
244.826	6.62
245.624	4.62
246.422	8.62
247.22	6.62
248.018	8.62
248.816	8.62
249.614	9.62
250.412	10.62
251.21	9.62
252.007	9.62
252.805	10.62
253.602	10.62
254.4	11.62
255.197	11.62
255.994	10.62
256.791	10.62
257.589	11.62
258.386	12.62
259.183	13.62
259.979	13.62
260.776	12.62
261.573	16.62
262.37	12.62
263.166	14.62
263.963	14.62
264.759	15.62
265.556	16.62
266.352	15.62
267.148	16.62
267.944	15.62
268.74	15.62
269.536	16.62
270.332	16.62
271.128	20.62
271.924	13.62
272.719	25.62
273.515	19.62
274.311	20.62
275.106	22.62
275.901	20.62
276.697	22.62
277.492	21.62
278.287	21.62
279.082	23.62
279.877	21.62
280.672	21.62
281.467	21.62
282.262	22.62
283.056	24.62
283.851	20.62
284.646	20.62
285.44	22.62
286.234	19.62
287.029	24.62
287.823	22.62
288.617	21.62
289.411	22.62
290.205	22.62
290.999	23.62
291.793	23.62
292.587	23.62
293.381	24.62
294.174	21.62
294.968	18.62
295.761	18.62
296.555	21.62
297.348	19.62
298.141	20.62
298.935	21.62
299.728	20.62
300.521	18.62
301.314	18.62
302.107	15.62
302.899	13.62
303.692	17.62
304.485	14.62
305.277	13.62
306.07	16.62
306.862	16.62
307.655	16.62
308.447	16.62
309.239	15.62
310.031	16.62
310.823	12.62
311.615	11.62
312.407	12.62
313.199	13.62
313.991	9.62
314.783	10.62
315.574	12.62
316.366	11.62
317.157	10.62
317.949	8.62
318.74	11.62
319.531	8.62
320.322	10.62
321.113	9.62
321.904	8.62
322.695	10.62
323.486	9.62
324.277	9.62
325.068	7.62
325.858	9.62
326.649	8.62
327.439	11.62
328.23	10.62
329.02	7.62
329.81	7.62
330.6	9.62
331.391	9.62
332.181	7.62
332.971	11.62
333.76	8.62
334.55	9.62
335.34	8.62
336.13	8.62
336.919	7.62
337.709	9.62
338.498	10.62
339.287	6.62
340.077	7.62
340.866	8.62
341.655	8.62
342.444	7.62
343.233	8.62
344.022	3.62
344.811	4.62
345.6	8.62
346.388	7.62
347.177	9.62
347.965	9.62
348.754	7.62
349.542	5.62
350.33	6.62
351.119	6.62
351.907	9.62
352.695	13.62
353.483	4.62
354.271	8.62
355.059	7.62
355.846	4.62
356.634	8.62
357.422	6.62
358.209	7.62
358.997	5.62
359.784	9.62
360.571	8.62
361.359	6.62
362.146	8.62
362.933	6.62
363.72	6.62
364.507	5.62
365.294	6.62
366.081	7.62
366.867	4.62
367.654	6.62
368.44	4.62
369.227	6.62
370.013	6.62
370.8	5.62
371.586	10.62
372.372	6.62
373.158	9.62
373.944	7.62
374.73	6.62
375.516	4.62
376.302	7.62
377.088	8.62
377.873	7.62
378.659	7.62
379.445	7.62
380.23	7.62
381.015	7.62
381.801	7.62
382.586	6.62
383.371	8.62
384.156	6.62
384.941	9.62
385.726	7.62
386.511	8.62
387.296	9.62
388.08	6.62
388.865	7.62
389.649	6.62
390.434	6.62
391.218	6.62
392.003	8.62
392.787	7.62
393.571	7.62
394.355	8.62
395.139	8.62
395.923	8.62
396.707	5.62
397.491	9.62
398.274	8.62
399.058	9.62
399.842	6.62
400.625	8.62
401.408	10.62
402.192	9.62
402.975	9.62
403.758	10.62
404.541	9.62
405.324	10.62
406.107	9.62
406.89	10.62
407.673	9.62
408.456	9.62
409.238	10.62
410.021	10.62
410.803	12.62
411.586	11.62
412.368	7.62
413.151	11.62
413.933	12.62
414.715	10.62
415.497	10.62
416.279	10.62
417.061	13.62
417.843	13.62
418.624	13.62
419.406	14.62
420.188	13.62
420.969	14.62
421.751	15.62
422.532	13.62
423.313	14.62
424.095	16.62
424.876	16.62
425.657	15.62
426.438	15.62
427.219	16.62
428	16.62
428.78	16.62
429.561	17.62
430.342	21.62
431.122	21.62
431.903	21.62
432.683	23.62
433.464	21.62
434.244	24.62
435.024	20.62
435.804	25.62
436.584	26.62
437.364	27.62
438.144	30.62
438.924	29.62
439.704	34.62
440.483	33.62
441.263	38.62
442.042	40.62
442.822	41.62
443.601	43.62
444.38	42.62
445.16	49.62
445.939	54.62
446.718	60.62
447.497	64.62
448.276	71.62
449.054	78.62
449.833	81.62
450.612	93.62
451.391	103.62
452.169	113.62
452.948	122.62
453.726	136.62
454.504	151.62
455.282	168.62
456.061	181.62
456.839	204.62
457.617	228.62
458.395	255.62
459.172	282.62
459.95	314.62
460.728	350.62
461.506	385.62
462.283	432.62
463.061	485.62
463.838	534.62
464.615	605.62
465.393	654.62
466.17	733.62
466.947	815.62
467.724	905.62
468.501	995.62
469.278	1102.62
470.055	1208.62
470.831	1315.62
471.608	1478.62
472.385	1639.62
473.161	1780.62
473.938	1960.62
474.714	2172.62
475.49	2361.62
476.266	2574.62
477.043	2878.62
477.819	3122.62
478.595	3422.62
479.371	3725.62
480.146	4071.62
480.922	4443.62
481.698	4829.62
482.473	5251.62
483.249	5719.62
484.024	6190.62
484.8	6793.62
485.575	7351.62
486.35	7962.62
487.126	8678.62
487.901	9397.62
488.676	10182.62
489.451	10956.62
490.225	11876.62
491	12799.62
491.775	13825.62
492.55	14873.62
493.324	15956.62
494.099	17054.62
494.873	18168.62
495.647	19423.62
496.422	20630.62
497.196	21943.62
497.97	23209.62
498.744	24513.62
499.518	25771.62
500.292	26864.62
501.066	27969.62
501.839	29093.62
502.613	30101.62
503.387	30833.62
504.16	31564.62
504.934	32100.62
505.707	32391.62
506.48	32552.62
507.253	32537.62
508.027	32444.62
508.8	32201.62
509.573	31741.62
510.346	31237.62
511.118	30589.62
511.891	29859.62
512.664	28960.62
513.437	27988.62
514.209	27005.62
514.982	26208.62
515.754	25182.62
516.526	24222.62
517.298	23230.62
518.071	22287.62
518.843	21428.62
519.615	20564.62
520.387	19739.62
521.159	19025.62
521.93	18310.62
522.702	17509.62
523.474	16906.62
524.245	16252.62
525.017	15534.62
525.788	14814.62
526.56	14207.62
527.331	13586.62
528.102	13023.62
528.873	12424.62
529.644	11805.62
530.415	11304.62
531.186	10822.62
531.957	10266.62
532.728	9739.62
533.498	9236.62
534.269	8736.62
535.039	8295.62
535.81	7846.62
536.58	7438.62
537.351	7017.62
538.121	6663.62
538.891	6317.62
539.661	5972.62
540.431	5676.62
541.201	5335.62
541.971	5081.62
542.741	4812.62
543.51	4565.62
544.28	4357.62
545.05	4150.62
545.819	3940.62
546.588	3763.62
547.358	3547.62
548.127	3390.62
548.896	3211.62
549.665	3046.62
550.434	2885.62
551.203	2749.62
551.972	2616.62
552.741	2475.62
553.51	2325.62
554.278	2184.62
555.047	2078.62
555.815	1970.62
556.584	1869.62
557.352	1750.62
558.121	1660.62
558.889	1563.62
559.657	1492.62
560.425	1399.62
561.193	1324.62
561.961	1251.62
562.729	1196.62
563.496	1128.62
564.264	1060.62
565.032	1010.62
565.799	954.62
566.567	900.62
567.334	849.62
568.101	806.62
568.869	757.62
569.636	716.62
570.403	673.62
571.17	640.62
571.937	600.62
572.704	560.62
573.471	536.62
574.237	506.62
575.004	474.62
575.771	447.62
576.537	424.62
577.303	404.62
578.07	383.62
578.836	350.62
579.602	337.62
580.368	316.62
581.134	301.62
581.9	286.62
582.666	275.62
583.432	258.62
584.198	238.62
584.964	230.62
585.729	217.62
586.495	211.62
587.26	195.62
588.025	186.62
588.791	175.62
589.556	170.62
590.321	158.62
591.086	149.62
591.851	141.62
592.616	130.62
593.381	129.62
594.146	126.62
594.911	118.62
595.675	113.62
596.44	110.62
597.204	105.62
597.969	96.62
598.733	96.62
599.497	88.62
600.261	81.62
601.025	83.62
601.79	79.62
602.553	73.62
603.317	70.62
604.081	66.62
604.845	66.62
605.609	62.62
606.372	61.62
607.136	55.62
607.899	59.62
608.662	54.62
609.426	49.62
610.189	47.62
610.952	46.62
611.715	46.62
612.478	43.62
613.241	42.62
614.004	41.62
614.767	36.62
615.529	36.62
616.292	38.62
617.055	37.62
617.817	32.62
618.579	32.62
619.342	31.62
620.104	30.62
620.866	30.62
621.628	29.62
622.39	28.62
623.152	26.62
623.914	25.62
624.676	26.62
625.438	24.62
626.199	22.62
626.961	24.62
627.722	21.62
628.484	22.62
629.245	19.62
630.006	19.62
630.768	18.62
631.529	18.62
632.29	21.62
633.051	17.62
633.812	17.62
634.573	17.62
635.333	17.62
636.094	14.62
636.855	15.62
637.615	15.62
638.376	14.62
639.136	13.62
639.896	14.62
640.657	14.62
641.417	12.62
642.177	14.62
642.937	13.62
643.697	13.62
644.457	11.62
645.216	11.62
645.976	12.62
646.736	9.62
647.495	12.62
648.255	9.62
649.014	10.62
649.774	12.62
650.533	11.62
651.292	8.62
652.051	9.62
652.81	11.62
653.569	7.62
654.328	8.62
655.087	7.62
655.846	6.62
656.604	9.62
657.363	10.62
658.121	7.62
658.88	10.62
659.638	7.62
660.397	6.62
661.155	5.62
661.913	8.62
662.671	8.62
663.429	7.62
664.187	6.62
664.945	8.62
665.703	2.62
666.46	6.62
667.218	4.62
667.976	7.62
668.733	8.62
669.49	5.62
670.248	7.62
671.005	5.62
671.762	6.62
672.519	6.62
673.276	6.62
674.033	6.62
674.79	6.62
675.547	6.62
676.304	5.62
677.06	6.62
677.817	5.62
678.574	5.62
679.33	6.62
680.086	4.62
680.843	7.62
681.599	7.62
682.355	6.62
683.111	2.62
683.867	5.62
684.623	6.62
685.379	4.62
686.135	4.62
686.89	5.62
687.646	5.62
688.402	4.62
689.157	4.62
689.912	5.62
690.668	4.62
691.423	6.62
692.178	7.62
692.933	2.62
693.688	4.62
694.443	5.62
695.198	5.62
695.953	5.62
696.708	5.62
697.462	6.62
698.217	3.62
698.972	4.62
699.726	5.62
700.48	3.62
701.235	1.62
701.989	3.62
702.743	4.62
703.497	3.62
704.251	4.62
705.005	3.62
705.759	5.62
706.513	5.62
707.266	2.62
708.02	5.62
708.774	5.62
709.527	3.62
710.28	4.62
711.034	6.62
711.787	3.62
712.54	3.62
713.293	4.62
714.046	4.62
714.799	6.62
715.552	5.62
716.305	6.62
717.058	4.62
717.81	7.62
718.563	4.62
719.315	3.62
720.068	4.62
720.82	3.62
721.573	4.62
722.325	5.62
723.077	5.62
723.829	7.62
724.581	6.62
725.333	4.62
726.085	3.62
726.836	3.62
727.588	4.62
728.34	7.62
729.091	4.62
729.843	6.62
730.594	5.62
731.346	6.62
732.097	4.62
732.848	4.62
733.599	5.62
734.35	6.62
735.101	7.62
735.852	7.62
736.603	3.62
737.354	5.62
738.104	3.62
738.855	8.62
739.605	6.62
740.356	5.62
741.106	6.62
741.856	6.62
742.607	7.62
743.357	7.62
744.107	4.62
744.857	8.62
745.607	8.62
746.357	7.62
747.106	5.62
747.856	5.62
748.606	7.62
749.355	6.62
750.105	5.62
750.854	6.62
751.603	8.62
752.353	8.62
753.102	6.62
753.851	9.62
754.6	6.62
755.349	6.62
756.098	7.62
756.847	8.62
757.595	8.62
758.344	8.62
759.093	6.62
759.841	7.62
760.589	9.62
761.338	6.62
762.086	9.62
762.834	8.62
763.582	7.62
764.331	10.62
765.079	8.62
765.826	8.62
766.574	6.62
767.322	7.62
768.07	8.62
768.817	10.62
769.565	7.62
770.312	10.62
771.06	11.62
771.807	9.62
772.554	10.62
773.302	8.62
774.049	10.62
774.796	10.62
775.543	8.62
776.29	10.62
777.036	10.62
777.783	9.62
778.53	12.62
779.276	11.62
780.023	10.62
780.769	8.62
781.516	8.62
782.262	10.62
783.008	7.62
783.754	11.62
784.5	10.62
785.246	10.62
785.992	10.62
786.738	11.62
787.484	12.62
788.23	10.62
788.975	11.62
789.721	12.62
790.466	11.62
791.212	9.62
791.957	8.62
792.702	11.62
793.447	12.62
794.193	10.62
794.938	10.62
795.683	9.62
796.427	9.62
797.172	10.62
797.917	10.62
798.662	8.62
799.406	8.62
800.151	10.62
800.895	8.62
801.64	12.62
802.384	8.62
803.128	7.62
803.872	11.62
804.616	8.62
805.36	9.62
806.104	6.62
806.848	9.62
807.592	6.62
808.336	8.62
809.079	6.62
809.823	7.62
810.566	8.62
811.31	5.62
812.053	6.62
812.796	7.62
813.539	5.62
814.283	8.62
815.026	5.62
815.769	7.62
816.511	7.62
817.254	4.62
817.997	6.62
818.74	6.62
819.482	7.62
820.225	7.62
820.967	6.62
821.71	5.62
822.452	5.62
823.194	5.62
823.936	6.62
824.678	8.62
825.42	5.62
826.162	5.62
826.904	5.62
827.646	5.62
828.388	4.62
829.129	5.62
829.871	6.62
830.612	6.62
831.354	5.62
832.095	6.62
832.836	3.62
833.577	3.62
834.319	4.62
835.06	4.62
835.801	3.62
836.542	3.62
837.282	7.62
838.023	5.62
838.764	5.62
839.504	5.62
840.245	2.62
840.985	5.62
841.726	4.62
842.466	4.62
843.206	2.62
843.946	5.62
844.687	6.62
845.427	1.62
846.166	4.62
846.906	3.62
847.646	3.62
848.386	4.62
849.125	5.62
849.865	5.62
850.605	1.62
851.344	4.62
852.083	6.62
852.823	3.62
853.562	3.62
854.301	0.62
855.04	4.62
855.779	4.62
856.518	2.62
857.257	0.62
857.995	3.62
858.734	3.62
859.473	1.62
860.211	4.62
860.95	3.62
861.688	2.62
862.426	1.62
863.165	2.62
863.903	2.62
864.641	2.62
865.379	2.62
866.117	3.62
866.855	2.62
867.593	3.62
868.33	1.62
869.068	3.62
869.806	2.62
870.543	2.62
871.28	2.62
872.018	0.62
872.755	2.62
873.492	2.62
874.229	2.62
874.967	4.62
875.703	2.62
876.44	0.62
877.177	2.62
877.914	3.62
878.651	2.62
879.387	1.62
880.124	1.62
880.86	1.62
881.597	2.62
882.333	0.62
883.069	0.62
883.806	0.62
884.542	2.62
885.278	2.62
886.014	0.62
886.749	2.62
887.485	2.62
888.221	0.62
888.957	-0.38
889.692	-2.38
890.428	0.62
891.163	0.62
891.899	1.62
892.634	0.62
893.369	1.62
894.104	1.62
894.839	0.62
895.574	1.62
896.309	2.62
897.044	2.62
897.779	1.62
898.514	1.62
899.248	0.62
899.983	-0.38
900.717	1.62
901.452	1.62
902.186	1.62
902.92	0.62
903.654	0.62
904.389	1.62
905.123	0.62
905.857	0.62
906.59	1.62
907.324	0.62
908.058	1.62
908.792	0.62
909.525	1.62
910.259	1.62
910.992	0.62
911.726	0.62
912.459	0.62
913.192	2.62
913.925	2.62
914.658	0.62
915.391	-0.38
916.124	0.62
916.857	0.62
917.59	0.62
918.323	-1.38
919.055	-0.38
919.788	0.62
920.521	2.62
921.253	-1.38
921.985	-0.38
922.718	0.62
923.45	2.62
924.182	0.62
924.914	0.62
925.646	1.62
926.378	0.62
927.11	1.62
927.841	1.62
928.573	0.62
929.305	0.62
930.036	0.62
930.768	0.62
931.499	0.62
932.23	3.62
932.962	0.62
933.693	1.62
934.424	-0.38
935.155	1.62
935.886	-0.38
936.617	0.62
937.348	-1.38
938.078	2.62
938.809	-0.38
939.54	1.62
940.27	0.62
941.001	1.62
941.731	1.62
942.461	-0.38
943.191	2.62
943.922	-0.38
944.652	-0.38
945.382	1.62
946.112	1.62
946.841	2.62
947.571	1.62
948.301	0.62
949.031	0.62
949.76	1.62
950.49	0.62
951.219	1.62
951.948	2.62
952.678	-1.38
953.407	0.62
954.136	-1.38
954.865	-1.38
955.594	2.62
956.323	1.62
957.052	1.62
957.78	1.62
958.509	0.62
959.238	-0.38
959.966	1.62
960.695	-0.38
961.423	-0.38
962.151	0.62
962.88	1.62
963.608	-0.38
964.336	-1.38
965.064	-1.38
965.792	1.62
966.52	-2.38
967.247	1.62
967.975	-0.38
968.703	1.62
969.43	-1.38
970.158	1.62
970.885	0.62
971.613	0.62
972.34	0.62
973.067	-1.38
973.794	-0.38
974.521	-0.38
975.248	-0.38
975.975	0.62
976.702	-0.38
977.429	-0.38
978.156	-0.38
978.882	0.62
979.609	0.62
980.335	-1.38
981.062	0.62
981.788	1.62
982.514	0.62
983.24	1.62
983.967	0.62
984.693	0.62
985.419	-0.38
986.144	1.62
986.87	-0.38
987.596	-1.38
988.322	2.62
989.047	0.62
989.773	-2.38
990.498	1.62
991.224	0.62
991.949	-1.38
992.674	-1.38
993.399	0.62
994.124	0.62
994.849	1.62
995.574	0.62
996.299	-1.38
997.024	2.62
997.749	0.62
998.473	0.62
999.198	-1.38
999.922	-2.38
1000.647	3.62
1001.371	1.62
1002.095	-1.38
1002.82	-1.38
1003.544	-0.38
1004.268	2.62
1004.992	2.62
1005.716	3.62
1006.439	3.62
1007.163	4.62
1007.887	5.62
1008.611	0.62
1009.334	-0.38
1010.058	-0.38
1010.781	0.62
1011.504	0.62
1012.228	-0.38
1012.951	0.62
1013.674	1.62
1014.397	-1.38
1015.12	0.62
