节点500_425_QEPB04081__22__15-48-43-433.txt的数据

Date: Wed Nov 12 15:48:43 CST 2025
User: PC
Spectrometer: QEPB0408
触发模式: 0
积分时间 (秒): 1.000000E-2
Scans to average: 1
启用暗噪声校正: true
启用非线性校正: false
滑动平均宽度: 0
X轴模式: Wavelengths
Number of Pixels in Spectrum: 1044
>>>>>Begin Spectral Data<<<<<
220.843	3.25
221.644	2.25
222.444	1.25
223.244	1.25
224.045	3.25
224.845	1.25
225.645	2.25
226.445	5.25
227.245	4.25
228.045	2.25
228.845	4.25
229.645	4.25
230.444	7.25
231.244	5.25
232.043	6.25
232.843	5.25
233.642	6.25
234.442	5.25
235.241	7.25
236.04	3.25
236.839	7.25
237.638	7.25
238.437	6.25
239.236	7.25
240.035	8.25
240.833	8.25
241.632	7.25
242.43	6.25
243.229	6.25
244.027	5.25
244.826	9.25
245.624	9.25
246.422	7.25
247.22	12.25
248.018	9.25
248.816	9.25
249.614	9.25
250.412	9.25
251.21	10.25
252.007	10.25
252.805	10.25
253.602	10.25
254.4	14.25
255.197	12.25
255.994	12.25
256.791	14.25
257.589	13.25
258.386	14.25
259.183	14.25
259.979	19.25
260.776	15.25
261.573	19.25
262.37	17.25
263.166	17.25
263.963	20.25
264.759	19.25
265.556	20.25
266.352	18.25
267.148	20.25
267.944	22.25
268.74	24.25
269.536	23.25
270.332	20.25
271.128	23.25
271.924	22.25
272.719	26.25
273.515	24.25
274.311	26.25
275.106	26.25
275.901	25.25
276.697	25.25
277.492	27.25
278.287	25.25
279.082	26.25
279.877	26.25
280.672	26.25
281.467	28.25
282.262	26.25
283.056	26.25
283.851	26.25
284.646	25.25
285.44	25.25
286.234	24.25
287.029	25.25
287.823	26.25
288.617	27.25
289.411	24.25
290.205	24.25
290.999	23.25
291.793	24.25
292.587	25.25
293.381	22.25
294.174	22.25
294.968	22.25
295.761	22.25
296.555	18.25
297.348	19.25
298.141	20.25
298.935	19.25
299.728	17.25
300.521	21.25
301.314	18.25
302.107	18.25
302.899	19.25
303.692	17.25
304.485	18.25
305.277	17.25
306.07	17.25
306.862	17.25
307.655	18.25
308.447	16.25
309.239	17.25
310.031	15.25
310.823	14.25
311.615	14.25
312.407	14.25
313.199	12.25
313.991	13.25
314.783	14.25
315.574	12.25
316.366	13.25
317.157	13.25
317.949	8.25
318.74	10.25
319.531	10.25
320.322	10.25
321.113	8.25
321.904	7.25
322.695	10.25
323.486	10.25
324.277	9.25
325.068	8.25
325.858	10.25
326.649	11.25
327.439	9.25
328.23	8.25
329.02	8.25
329.81	7.25
330.6	9.25
331.391	4.25
332.181	10.25
332.971	8.25
333.76	11.25
334.55	8.25
335.34	7.25
336.13	8.25
336.919	8.25
337.709	8.25
338.498	9.25
339.287	8.25
340.077	8.25
340.866	7.25
341.655	9.25
342.444	9.25
343.233	10.25
344.022	8.25
344.811	8.25
345.6	7.25
346.388	9.25
347.177	9.25
347.965	11.25
348.754	11.25
349.542	7.25
350.33	5.25
351.119	10.25
351.907	7.25
352.695	7.25
353.483	7.25
354.271	6.25
355.059	7.25
355.846	8.25
356.634	8.25
357.422	9.25
358.209	8.25
358.997	8.25
359.784	10.25
360.571	5.25
361.359	10.25
362.146	6.25
362.933	5.25
363.72	7.25
364.507	8.25
365.294	7.25
366.081	6.25
366.867	7.25
367.654	8.25
368.44	6.25
369.227	9.25
370.013	6.25
370.8	8.25
371.586	8.25
372.372	8.25
373.158	8.25
373.944	9.25
374.73	6.25
375.516	6.25
376.302	7.25
377.088	7.25
377.873	5.25
378.659	8.25
379.445	8.25
380.23	8.25
381.015	7.25
381.801	6.25
382.586	6.25
383.371	7.25
384.156	6.25
384.941	7.25
385.726	8.25
386.511	8.25
387.296	5.25
388.08	9.25
388.865	7.25
389.649	7.25
390.434	7.25
391.218	8.25
392.003	8.25
392.787	10.25
393.571	6.25
394.355	10.25
395.139	9.25
395.923	10.25
396.707	10.25
397.491	9.25
398.274	8.25
399.058	10.25
399.842	9.25
400.625	9.25
401.408	10.25
402.192	10.25
402.975	10.25
403.758	7.25
404.541	9.25
405.324	9.25
406.107	7.25
406.89	12.25
407.673	10.25
408.456	10.25
409.238	11.25
410.021	10.25
410.803	10.25
411.586	13.25
412.368	10.25
413.151	16.25
413.933	14.25
414.715	13.25
415.497	12.25
416.279	14.25
417.061	12.25
417.843	11.25
418.624	12.25
419.406	12.25
420.188	15.25
420.969	16.25
421.751	16.25
422.532	12.25
423.313	16.25
424.095	19.25
424.876	18.25
425.657	15.25
426.438	20.25
427.219	17.25
428	18.25
428.78	17.25
429.561	19.25
430.342	20.25
431.122	21.25
431.903	22.25
432.683	17.25
433.464	20.25
434.244	24.25
435.024	24.25
435.804	22.25
436.584	26.25
437.364	29.25
438.144	28.25
438.924	29.25
439.704	34.25
440.483	30.25
441.263	34.25
442.042	38.25
442.822	39.25
443.601	40.25
444.38	44.25
445.16	46.25
445.939	53.25
446.718	55.25
447.497	55.25
448.276	63.25
449.054	66.25
449.833	73.25
450.612	78.25
451.391	83.25
452.169	96.25
452.948	107.25
453.726	112.25
454.504	126.25
455.282	137.25
456.061	146.25
456.839	165.25
457.617	191.25
458.395	203.25
459.172	230.25
459.95	259.25
460.728	292.25
461.506	329.25
462.283	354.25
463.061	403.25
463.838	453.25
464.615	502.25
465.393	554.25
466.17	637.25
466.947	715.25
467.724	806.25
468.501	895.25
469.278	999.25
470.055	1109.25
470.831	1234.25
471.608	1374.25
472.385	1534.25
473.161	1712.25
473.938	1905.25
474.714	2112.25
475.49	2340.25
476.266	2603.25
477.043	2872.25
477.819	3199.25
478.595	3566.25
479.371	3918.25
480.146	4340.25
480.922	4801.25
481.698	5304.25
482.473	5857.25
483.249	6456.25
484.024	7110.25
484.8	7853.25
485.575	8606.25
486.35	9466.25
487.126	10399.25
487.901	11375.25
488.676	12541.25
489.451	13649.25
490.225	14881.25
491	16229.25
491.775	17645.25
492.55	19104.25
493.324	20627.25
494.099	22167.25
494.873	23659.25
495.647	25256.25
496.422	26879.25
497.196	28481.25
497.97	30158.25
498.744	31640.25
499.518	33132.25
500.292	34342.25
501.066	35408.25
501.839	36387.25
502.613	37231.25
503.387	37694.25
504.16	38018.25
504.934	37993.25
505.707	37767.25
506.48	37395.25
507.253	36644.25
508.027	36043.25
508.8	35164.25
509.573	34128.25
510.346	32982.25
511.118	31743.25
511.891	30630.25
512.664	29287.25
513.437	28065.25
514.209	26741.25
514.982	25669.25
515.754	24477.25
516.526	23428.25
517.298	22326.25
518.071	21446.25
518.843	20600.25
519.615	19714.25
520.387	18930.25
521.159	18227.25
521.93	17518.25
522.702	16868.25
523.474	16131.25
524.245	15485.25
525.017	14738.25
525.788	14060.25
526.56	13456.25
527.331	12798.25
528.102	12138.25
528.873	11514.25
529.644	10919.25
530.415	10392.25
531.186	9873.25
531.957	9285.25
532.728	8781.25
533.498	8252.25
534.269	7815.25
535.039	7365.25
535.81	6962.25
536.58	6549.25
537.351	6151.25
538.121	5828.25
538.891	5543.25
539.661	5276.25
540.431	4974.25
541.201	4734.25
541.971	4478.25
542.741	4260.25
543.51	4011.25
544.28	3804.25
545.05	3660.25
545.819	3466.25
546.588	3287.25
547.358	3112.25
548.127	2939.25
548.896	2790.25
549.665	2638.25
550.434	2524.25
551.203	2384.25
551.972	2258.25
552.741	2119.25
553.51	2023.25
554.278	1902.25
555.047	1786.25
555.815	1688.25
556.584	1575.25
557.352	1505.25
558.121	1394.25
558.889	1329.25
559.657	1260.25
560.425	1185.25
561.193	1128.25
561.961	1053.25
562.729	1001.25
563.496	953.25
564.264	892.25
565.032	864.25
565.799	812.25
566.567	757.25
567.334	714.25
568.101	686.25
568.869	638.25
569.636	605.25
570.403	571.25
571.17	530.25
571.937	500.25
572.704	482.25
573.471	453.25
574.237	428.25
575.004	402.25
575.771	382.25
576.537	354.25
577.303	335.25
578.07	319.25
578.836	302.25
579.602	291.25
580.368	265.25
581.134	253.25
581.9	239.25
582.666	227.25
583.432	218.25
584.198	203.25
584.964	195.25
585.729	188.25
586.495	176.25
587.26	164.25
588.025	163.25
588.791	149.25
589.556	145.25
590.321	133.25
591.086	130.25
591.851	116.25
592.616	119.25
593.381	108.25
594.146	101.25
594.911	99.25
595.675	94.25
596.44	88.25
597.204	89.25
597.969	85.25
598.733	82.25
599.497	77.25
600.261	76.25
601.025	71.25
601.79	70.25
602.553	65.25
603.317	61.25
604.081	61.25
604.845	59.25
605.609	54.25
606.372	50.25
607.136	51.25
607.899	49.25
608.662	47.25
609.426	44.25
610.189	42.25
610.952	40.25
611.715	41.25
612.478	39.25
613.241	37.25
614.004	34.25
614.767	32.25
615.529	34.25
616.292	33.25
617.055	32.25
617.817	29.25
618.579	30.25
619.342	26.25
620.104	28.25
620.866	25.25
621.628	28.25
622.39	25.25
623.152	23.25
623.914	25.25
624.676	20.25
625.438	21.25
626.199	21.25
626.961	17.25
627.722	21.25
628.484	21.25
629.245	20.25
630.006	18.25
630.768	18.25
631.529	17.25
632.29	15.25
633.051	18.25
633.812	17.25
634.573	15.25
635.333	12.25
636.094	14.25
636.855	15.25
637.615	12.25
638.376	13.25
639.136	14.25
639.896	13.25
640.657	10.25
641.417	14.25
642.177	12.25
642.937	11.25
643.697	11.25
644.457	11.25
645.216	10.25
645.976	13.25
646.736	9.25
647.495	10.25
648.255	10.25
649.014	9.25
649.774	9.25
650.533	8.25
651.292	9.25
652.051	7.25
652.81	8.25
653.569	10.25
654.328	8.25
655.087	6.25
655.846	7.25
656.604	10.25
657.363	8.25
658.121	7.25
658.88	5.25
659.638	8.25
660.397	4.25
661.155	8.25
661.913	7.25
662.671	7.25
663.429	8.25
664.187	9.25
664.945	7.25
665.703	6.25
666.46	6.25
667.218	5.25
667.976	7.25
668.733	3.25
669.49	7.25
670.248	5.25
671.005	8.25
671.762	6.25
672.519	7.25
673.276	8.25
674.033	4.25
674.79	8.25
675.547	4.25
676.304	5.25
677.06	5.25
677.817	8.25
678.574	6.25
679.33	6.25
680.086	8.25
680.843	6.25
681.599	4.25
682.355	5.25
683.111	4.25
683.867	7.25
684.623	6.25
685.379	4.25
686.135	4.25
686.89	3.25
687.646	5.25
688.402	7.25
689.157	5.25
689.912	6.25
690.668	5.25
691.423	7.25
692.178	4.25
692.933	7.25
693.688	5.25
694.443	4.25
695.198	7.25
695.953	2.25
696.708	5.25
697.462	3.25
698.217	4.25
698.972	5.25
699.726	5.25
700.48	5.25
701.235	5.25
701.989	4.25
702.743	3.25
703.497	5.25
704.251	8.25
705.005	5.25
705.759	5.25
706.513	5.25
707.266	5.25
708.02	3.25
708.774	5.25
709.527	7.25
710.28	7.25
711.034	6.25
711.787	5.25
712.54	5.25
713.293	4.25
714.046	2.25
714.799	3.25
715.552	4.25
716.305	5.25
717.058	5.25
717.81	6.25
718.563	4.25
719.315	4.25
720.068	3.25
720.82	5.25
721.573	7.25
722.325	5.25
723.077	4.25
723.829	5.25
724.581	6.25
725.333	5.25
726.085	6.25
726.836	6.25
727.588	7.25
728.34	5.25
729.091	6.25
729.843	6.25
730.594	6.25
731.346	6.25
732.097	9.25
732.848	4.25
733.599	6.25
734.35	6.25
735.101	5.25
735.852	5.25
736.603	6.25
737.354	2.25
738.104	6.25
738.855	6.25
739.605	6.25
740.356	7.25
741.106	7.25
741.856	6.25
742.607	8.25
743.357	5.25
744.107	5.25
744.857	7.25
745.607	5.25
746.357	8.25
747.106	7.25
747.856	7.25
748.606	6.25
749.355	7.25
750.105	8.25
750.854	7.25
751.603	8.25
752.353	6.25
753.102	8.25
753.851	8.25
754.6	8.25
755.349	8.25
756.098	7.25
756.847	7.25
757.595	8.25
758.344	5.25
759.093	8.25
759.841	9.25
760.589	6.25
761.338	10.25
762.086	9.25
762.834	9.25
763.582	9.25
764.331	9.25
765.079	10.25
765.826	9.25
766.574	9.25
767.322	10.25
768.07	10.25
768.817	10.25
769.565	11.25
770.312	11.25
771.06	8.25
771.807	10.25
772.554	11.25
773.302	10.25
774.049	11.25
774.796	11.25
775.543	9.25
776.29	11.25
777.036	12.25
777.783	11.25
778.53	12.25
779.276	12.25
780.023	12.25
780.769	14.25
781.516	10.25
782.262	10.25
783.008	12.25
783.754	14.25
784.5	13.25
785.246	11.25
785.992	13.25
786.738	11.25
787.484	12.25
788.23	12.25
788.975	13.25
789.721	13.25
790.466	11.25
791.212	11.25
791.957	10.25
792.702	13.25
793.447	11.25
794.193	9.25
794.938	11.25
795.683	12.25
796.427	14.25
797.172	10.25
797.917	10.25
798.662	10.25
799.406	7.25
800.151	10.25
800.895	10.25
801.64	9.25
802.384	10.25
803.128	9.25
803.872	10.25
804.616	7.25
805.36	8.25
806.104	8.25
806.848	7.25
807.592	9.25
808.336	9.25
809.079	6.25
809.823	5.25
810.566	8.25
811.31	8.25
812.053	6.25
812.796	4.25
813.539	7.25
814.283	6.25
815.026	7.25
815.769	4.25
816.511	9.25
817.254	7.25
817.997	5.25
818.74	4.25
819.482	8.25
820.225	6.25
820.967	5.25
821.71	4.25
822.452	6.25
823.194	4.25
823.936	7.25
824.678	4.25
825.42	3.25
826.162	2.25
826.904	4.25
827.646	6.25
828.388	5.25
829.129	2.25
829.871	3.25
830.612	4.25
831.354	4.25
832.095	5.25
832.836	7.25
833.577	6.25
834.319	5.25
835.06	6.25
835.801	3.25
836.542	5.25
837.282	6.25
838.023	3.25
838.764	6.25
839.504	4.25
840.245	4.25
840.985	6.25
841.726	5.25
842.466	4.25
843.206	3.25
843.946	4.25
844.687	6.25
845.427	2.25
846.166	6.25
846.906	2.25
847.646	5.25
848.386	2.25
849.125	4.25
849.865	3.25
850.605	0.25
851.344	4.25
852.083	3.25
852.823	2.25
853.562	2.25
854.301	4.25
855.04	3.25
855.779	2.25
856.518	4.25
857.257	5.25
857.995	1.25
858.734	2.25
859.473	0.25
860.211	3.25
860.95	1.25
861.688	2.25
862.426	0.25
863.165	1.25
863.903	0.25
864.641	2.25
865.379	2.25
866.117	2.25
866.855	1.25
867.593	3.25
868.33	2.25
869.068	0.25
869.806	1.25
870.543	2.25
871.28	0.25
872.018	2.25
872.755	2.25
873.492	-0.75
874.229	2.25
874.967	-0.75
875.703	0.25
876.44	0.25
877.177	0.25
877.914	1.25
878.651	1.25
879.387	2.25
880.124	2.25
880.86	0.25
881.597	2.25
882.333	0.25
883.069	2.25
883.806	3.25
884.542	1.25
885.278	0.25
886.014	0.25
886.749	2.25
887.485	0.25
888.221	1.25
888.957	-0.75
889.692	2.25
890.428	2.25
891.163	2.25
891.899	2.25
892.634	0.25
893.369	0.25
894.104	2.25
894.839	2.25
895.574	1.25
896.309	2.25
897.044	2.25
897.779	3.25
898.514	1.25
899.248	1.25
899.983	2.25
900.717	2.25
901.452	0.25
902.186	1.25
902.92	2.25
903.654	1.25
904.389	0.25
905.123	-0.75
905.857	0.25
906.59	-0.75
907.324	1.25
908.058	2.25
908.792	2.25
909.525	3.25
910.259	1.25
910.992	1.25
911.726	1.25
912.459	-0.75
913.192	2.25
913.925	-0.75
914.658	0.25
915.391	2.25
916.124	0.25
916.857	1.25
917.59	1.25
918.323	0.25
919.055	2.25
919.788	2.25
920.521	1.25
921.253	2.25
921.985	1.25
922.718	-0.75
923.45	0.25
924.182	0.25
924.914	1.25
925.646	2.25
926.378	1.25
927.11	2.25
927.841	-1.75
928.573	2.25
929.305	1.25
930.036	1.25
930.768	1.25
931.499	0.25
932.23	2.25
932.962	0.25
933.693	1.25
934.424	-1.75
935.155	-0.75
935.886	0.25
936.617	0.25
937.348	0.25
938.078	2.25
938.809	-0.75
939.54	-2.75
940.27	0.25
941.001	0.25
941.731	0.25
942.461	0.25
943.191	0.25
943.922	-1.75
944.652	-1.75
945.382	0.25
946.112	1.25
946.841	0.25
947.571	1.25
948.301	-0.75
949.031	-1.75
949.76	0.25
950.49	0.25
951.219	0.25
951.948	0.25
952.678	1.25
953.407	2.25
954.136	-0.75
954.865	1.25
955.594	-0.75
956.323	2.25
957.052	1.25
957.78	1.25
958.509	1.25
959.238	0.25
959.966	0.25
960.695	1.25
961.423	1.25
962.151	-1.75
962.88	-4.75
963.608	0.25
964.336	2.25
965.064	0.25
965.792	-1.75
966.52	-0.75
967.247	0.25
967.975	-0.75
968.703	1.25
969.43	1.25
970.158	-0.75
970.885	0.25
971.613	-0.75
972.34	-1.75
973.067	0.25
973.794	-1.75
974.521	-1.75
975.248	0.25
975.975	2.25
976.702	-0.75
977.429	2.25
978.156	0.25
978.882	1.25
979.609	-1.75
980.335	1.25
981.062	1.25
981.788	1.25
982.514	0.25
983.24	-0.75
983.967	-0.75
984.693	-1.75
985.419	-1.75
986.144	1.25
986.87	0.25
987.596	1.25
988.322	1.25
989.047	1.25
989.773	0.25
990.498	2.25
991.224	-1.75
991.949	0.25
992.674	-1.75
993.399	0.25
994.124	-1.75
994.849	1.25
995.574	1.25
996.299	0.25
997.024	1.25
997.749	-0.75
998.473	1.25
999.198	-0.75
999.922	1.25
1000.647	1.25
1001.371	4.25
1002.095	-3.75
1002.82	0.25
1003.544	0.25
1004.268	1.25
1004.992	4.25
1005.716	4.25
1006.439	2.25
1007.163	2.25
1007.887	3.25
1008.611	2.25
1009.334	2.25
1010.058	0.25
1010.781	0.25
1011.504	-0.75
1012.228	2.25
1012.951	-0.75
1013.674	-0.75
1014.397	0.25
1015.12	0.25
