节点500_425_QEPB04081__158__15-50-56-217.txt的数据

Date: Wed Nov 12 15:50:56 CST 2025
User: PC
Spectrometer: QEPB0408
触发模式: 0
积分时间 (秒): 1.000000E-2
Scans to average: 1
启用暗噪声校正: true
启用非线性校正: false
滑动平均宽度: 0
X轴模式: Wavelengths
Number of Pixels in Spectrum: 1044
>>>>>Begin Spectral Data<<<<<
220.843	2.88
221.644	1.88
222.444	3.88
223.244	0.88
224.045	0.88
224.845	1.88
225.645	5.88
226.445	5.88
227.245	1.88
228.045	3.88
228.845	4.88
229.645	0.88
230.444	3.88
231.244	4.88
232.043	3.88
232.843	4.88
233.642	4.88
234.442	1.88
235.241	3.88
236.04	6.88
236.839	5.88
237.638	3.88
238.437	4.88
239.236	5.88
240.035	7.88
240.833	3.88
241.632	6.88
242.43	5.88
243.229	7.88
244.027	5.88
244.826	8.88
245.624	7.88
246.422	8.88
247.22	9.88
248.018	7.88
248.816	6.88
249.614	8.88
250.412	7.88
251.21	9.88
252.007	7.88
252.805	9.88
253.602	9.88
254.4	11.88
255.197	13.88
255.994	11.88
256.791	13.88
257.589	11.88
258.386	9.88
259.183	14.88
259.979	11.88
260.776	14.88
261.573	13.88
262.37	15.88
263.166	13.88
263.963	16.88
264.759	15.88
265.556	13.88
266.352	16.88
267.148	17.88
267.944	17.88
268.74	15.88
269.536	19.88
270.332	19.88
271.128	17.88
271.924	18.88
272.719	20.88
273.515	18.88
274.311	20.88
275.106	20.88
275.901	19.88
276.697	20.88
277.492	23.88
278.287	23.88
279.082	22.88
279.877	21.88
280.672	25.88
281.467	22.88
282.262	21.88
283.056	21.88
283.851	20.88
284.646	22.88
285.44	22.88
286.234	25.88
287.029	24.88
287.823	19.88
288.617	21.88
289.411	20.88
290.205	20.88
290.999	21.88
291.793	19.88
292.587	19.88
293.381	19.88
294.174	20.88
294.968	20.88
295.761	17.88
296.555	19.88
297.348	18.88
298.141	17.88
298.935	19.88
299.728	14.88
300.521	17.88
301.314	14.88
302.107	13.88
302.899	15.88
303.692	14.88
304.485	13.88
305.277	13.88
306.07	14.88
306.862	13.88
307.655	14.88
308.447	12.88
309.239	13.88
310.031	13.88
310.823	11.88
311.615	14.88
312.407	11.88
313.199	11.88
313.991	11.88
314.783	9.88
315.574	12.88
316.366	8.88
317.157	11.88
317.949	9.88
318.74	7.88
319.531	7.88
320.322	7.88
321.113	7.88
321.904	9.88
322.695	7.88
323.486	7.88
324.277	8.88
325.068	7.88
325.858	8.88
326.649	6.88
327.439	7.88
328.23	7.88
329.02	7.88
329.81	7.88
330.6	10.88
331.391	6.88
332.181	7.88
332.971	5.88
333.76	6.88
334.55	7.88
335.34	5.88
336.13	5.88
336.919	9.88
337.709	5.88
338.498	7.88
339.287	6.88
340.077	10.88
340.866	7.88
341.655	6.88
342.444	9.88
343.233	6.88
344.022	6.88
344.811	8.88
345.6	5.88
346.388	7.88
347.177	7.88
347.965	5.88
348.754	6.88
349.542	5.88
350.33	5.88
351.119	2.88
351.907	6.88
352.695	5.88
353.483	6.88
354.271	4.88
355.059	7.88
355.846	6.88
356.634	6.88
357.422	7.88
358.209	7.88
358.997	7.88
359.784	3.88
360.571	7.88
361.359	5.88
362.146	5.88
362.933	4.88
363.72	3.88
364.507	7.88
365.294	6.88
366.081	6.88
366.867	6.88
367.654	6.88
368.44	4.88
369.227	7.88
370.013	5.88
370.8	5.88
371.586	3.88
372.372	6.88
373.158	2.88
373.944	5.88
374.73	4.88
375.516	7.88
376.302	4.88
377.088	6.88
377.873	5.88
378.659	6.88
379.445	6.88
380.23	3.88
381.015	5.88
381.801	5.88
382.586	5.88
383.371	5.88
384.156	5.88
384.941	3.88
385.726	8.88
386.511	6.88
387.296	5.88
388.08	6.88
388.865	5.88
389.649	7.88
390.434	5.88
391.218	6.88
392.003	6.88
392.787	8.88
393.571	9.88
394.355	5.88
395.139	8.88
395.923	6.88
396.707	8.88
397.491	7.88
398.274	10.88
399.058	8.88
399.842	7.88
400.625	8.88
401.408	5.88
402.192	7.88
402.975	7.88
403.758	7.88
404.541	9.88
405.324	8.88
406.107	11.88
406.89	9.88
407.673	10.88
408.456	8.88
409.238	11.88
410.021	11.88
410.803	8.88
411.586	10.88
412.368	9.88
413.151	10.88
413.933	10.88
414.715	10.88
415.497	11.88
416.279	9.88
417.061	11.88
417.843	12.88
418.624	12.88
419.406	11.88
420.188	11.88
420.969	12.88
421.751	13.88
422.532	13.88
423.313	12.88
424.095	12.88
424.876	15.88
425.657	14.88
426.438	16.88
427.219	15.88
428	15.88
428.78	17.88
429.561	17.88
430.342	17.88
431.122	20.88
431.903	18.88
432.683	23.88
433.464	20.88
434.244	22.88
435.024	23.88
435.804	23.88
436.584	22.88
437.364	25.88
438.144	26.88
438.924	28.88
439.704	29.88
440.483	28.88
441.263	30.88
442.042	34.88
442.822	35.88
443.601	40.88
444.38	41.88
445.16	40.88
445.939	47.88
446.718	48.88
447.497	51.88
448.276	61.88
449.054	65.88
449.833	69.88
450.612	75.88
451.391	80.88
452.169	87.88
452.948	102.88
453.726	108.88
454.504	120.88
455.282	138.88
456.061	144.88
456.839	163.88
457.617	187.88
458.395	195.88
459.172	225.88
459.95	252.88
460.728	285.88
461.506	308.88
462.283	348.88
463.061	391.88
463.838	441.88
464.615	493.88
465.393	546.88
466.17	612.88
466.947	684.88
467.724	760.88
468.501	851.88
469.278	942.88
470.055	1051.88
470.831	1163.88
471.608	1309.88
472.385	1449.88
473.161	1597.88
473.938	1783.88
474.714	1962.88
475.49	2156.88
476.266	2395.88
477.043	2635.88
477.819	2920.88
478.595	3244.88
479.371	3554.88
480.146	3917.88
480.922	4319.88
481.698	4724.88
482.473	5206.88
483.249	5733.88
484.024	6318.88
484.8	6953.88
485.575	7554.88
486.35	8266.88
487.126	9101.88
487.901	9900.88
488.676	10812.88
489.451	11776.88
490.225	12836.88
491	13911.88
491.775	15201.88
492.55	16329.88
493.324	17635.88
494.099	18899.88
494.873	20167.88
495.647	21593.88
496.422	22942.88
497.196	24319.88
497.97	25784.88
498.744	27047.88
499.518	28356.88
500.292	29514.88
501.066	30539.88
501.839	31558.88
502.613	32238.88
503.387	32828.88
504.16	33300.88
504.934	33390.88
505.707	33411.88
506.48	33216.88
507.253	32842.88
508.027	32295.88
508.8	31616.88
509.573	30878.88
510.346	30028.88
511.118	29075.88
511.891	28064.88
512.664	26984.88
513.437	25878.88
514.209	24743.88
514.982	23805.88
515.754	22807.88
516.526	21721.88
517.298	20907.88
518.071	19936.88
518.843	19172.88
519.615	18371.88
520.387	17642.88
521.159	16977.88
521.93	16310.88
522.702	15657.88
523.474	15069.88
524.245	14401.88
525.017	13772.88
525.788	13129.88
526.56	12459.88
527.331	11925.88
528.102	11360.88
528.873	10803.88
529.644	10276.88
530.415	9809.88
531.186	9305.88
531.957	8805.88
532.728	8318.88
533.498	7872.88
534.269	7403.88
535.039	7026.88
535.81	6637.88
536.58	6236.88
537.351	5903.88
538.121	5575.88
538.891	5268.88
539.661	5016.88
540.431	4749.88
541.201	4484.88
541.971	4241.88
542.741	4037.88
543.51	3823.88
544.28	3638.88
545.05	3484.88
545.819	3307.88
546.588	3118.88
547.358	2944.88
548.127	2812.88
548.896	2663.88
549.665	2533.88
550.434	2404.88
551.203	2277.88
551.972	2163.88
552.741	2052.88
553.51	1922.88
554.278	1799.88
555.047	1701.88
555.815	1610.88
556.584	1524.88
557.352	1449.88
558.121	1353.88
558.889	1287.88
559.657	1205.88
560.425	1139.88
561.193	1074.88
561.961	1019.88
562.729	963.88
563.496	911.88
564.264	855.88
565.032	812.88
565.799	767.88
566.567	728.88
567.334	690.88
568.101	656.88
568.869	608.88
569.636	580.88
570.403	553.88
571.17	514.88
571.937	483.88
572.704	454.88
573.471	446.88
574.237	404.88
575.004	386.88
575.771	363.88
576.537	341.88
577.303	325.88
578.07	308.88
578.836	282.88
579.602	269.88
580.368	256.88
581.134	238.88
581.9	227.88
582.666	219.88
583.432	201.88
584.198	192.88
584.964	184.88
585.729	176.88
586.495	171.88
587.26	157.88
588.025	150.88
588.791	141.88
589.556	137.88
590.321	131.88
591.086	124.88
591.851	115.88
592.616	110.88
593.381	111.88
594.146	95.88
594.911	92.88
595.675	92.88
596.44	83.88
597.204	82.88
597.969	81.88
598.733	76.88
599.497	71.88
600.261	69.88
601.025	67.88
601.79	62.88
602.553	61.88
603.317	59.88
604.081	56.88
604.845	53.88
605.609	50.88
606.372	49.88
607.136	48.88
607.899	46.88
608.662	45.88
609.426	43.88
610.189	38.88
610.952	38.88
611.715	35.88
612.478	37.88
613.241	36.88
614.004	36.88
614.767	32.88
615.529	32.88
616.292	29.88
617.055	31.88
617.817	29.88
618.579	27.88
619.342	23.88
620.104	27.88
620.866	27.88
621.628	23.88
622.39	21.88
623.152	20.88
623.914	21.88
624.676	20.88
625.438	19.88
626.199	18.88
626.961	17.88
627.722	20.88
628.484	16.88
629.245	17.88
630.006	18.88
630.768	13.88
631.529	16.88
632.29	17.88
633.051	13.88
633.812	12.88
634.573	16.88
635.333	14.88
636.094	13.88
636.855	12.88
637.615	13.88
638.376	11.88
639.136	9.88
639.896	11.88
640.657	9.88
641.417	11.88
642.177	10.88
642.937	11.88
643.697	11.88
644.457	9.88
645.216	7.88
645.976	11.88
646.736	8.88
647.495	7.88
648.255	10.88
649.014	7.88
649.774	7.88
650.533	9.88
651.292	6.88
652.051	6.88
652.81	7.88
653.569	7.88
654.328	8.88
655.087	8.88
655.846	8.88
656.604	4.88
657.363	7.88
658.121	7.88
658.88	7.88
659.638	8.88
660.397	6.88
661.155	6.88
661.913	5.88
662.671	7.88
663.429	7.88
664.187	6.88
664.945	7.88
665.703	6.88
666.46	5.88
667.218	5.88
667.976	6.88
668.733	5.88
669.49	3.88
670.248	3.88
671.005	5.88
671.762	4.88
672.519	5.88
673.276	4.88
674.033	3.88
674.79	3.88
675.547	4.88
676.304	5.88
677.06	3.88
677.817	4.88
678.574	4.88
679.33	5.88
680.086	5.88
680.843	4.88
681.599	5.88
682.355	3.88
683.111	4.88
683.867	3.88
684.623	7.88
685.379	4.88
686.135	5.88
686.89	6.88
687.646	3.88
688.402	5.88
689.157	3.88
689.912	3.88
690.668	3.88
691.423	4.88
692.178	1.88
692.933	4.88
693.688	4.88
694.443	2.88
695.198	3.88
695.953	4.88
696.708	3.88
697.462	6.88
698.217	3.88
698.972	3.88
699.726	1.88
700.48	4.88
701.235	4.88
701.989	2.88
702.743	4.88
703.497	3.88
704.251	1.88
705.005	5.88
705.759	2.88
706.513	1.88
707.266	4.88
708.02	4.88
708.774	5.88
709.527	5.88
710.28	3.88
711.034	3.88
711.787	5.88
712.54	5.88
713.293	5.88
714.046	3.88
714.799	0.88
715.552	4.88
716.305	4.88
717.058	6.88
717.81	2.88
718.563	4.88
719.315	6.88
720.068	3.88
720.82	5.88
721.573	5.88
722.325	4.88
723.077	4.88
723.829	3.88
724.581	3.88
725.333	5.88
726.085	7.88
726.836	5.88
727.588	5.88
728.34	4.88
729.091	3.88
729.843	4.88
730.594	7.88
731.346	1.88
732.097	4.88
732.848	4.88
733.599	5.88
734.35	6.88
735.101	5.88
735.852	3.88
736.603	5.88
737.354	4.88
738.104	5.88
738.855	5.88
739.605	6.88
740.356	2.88
741.106	7.88
741.856	4.88
742.607	5.88
743.357	5.88
744.107	6.88
744.857	5.88
745.607	6.88
746.357	5.88
747.106	5.88
747.856	5.88
748.606	5.88
749.355	8.88
750.105	5.88
750.854	6.88
751.603	6.88
752.353	5.88
753.102	6.88
753.851	6.88
754.6	6.88
755.349	6.88
756.098	5.88
756.847	9.88
757.595	7.88
758.344	7.88
759.093	7.88
759.841	7.88
760.589	7.88
761.338	7.88
762.086	6.88
762.834	8.88
763.582	9.88
764.331	7.88
765.079	6.88
765.826	7.88
766.574	6.88
767.322	7.88
768.07	9.88
768.817	11.88
769.565	7.88
770.312	9.88
771.06	8.88
771.807	8.88
772.554	10.88
773.302	5.88
774.049	9.88
774.796	10.88
775.543	12.88
776.29	10.88
777.036	10.88
777.783	8.88
778.53	10.88
779.276	8.88
780.023	10.88
780.769	8.88
781.516	8.88
782.262	7.88
783.008	9.88
783.754	10.88
784.5	7.88
785.246	9.88
785.992	9.88
786.738	10.88
787.484	10.88
788.23	10.88
788.975	9.88
789.721	10.88
790.466	9.88
791.212	10.88
791.957	9.88
792.702	10.88
793.447	9.88
794.193	7.88
794.938	8.88
795.683	9.88
796.427	8.88
797.172	6.88
797.917	8.88
798.662	8.88
799.406	7.88
800.151	7.88
800.895	6.88
801.64	8.88
802.384	9.88
803.128	7.88
803.872	7.88
804.616	5.88
805.36	7.88
806.104	6.88
806.848	5.88
807.592	8.88
808.336	8.88
809.079	5.88
809.823	4.88
810.566	6.88
811.31	4.88
812.053	5.88
812.796	5.88
813.539	5.88
814.283	5.88
815.026	3.88
815.769	4.88
816.511	5.88
817.254	4.88
817.997	5.88
818.74	2.88
819.482	4.88
820.225	5.88
820.967	6.88
821.71	4.88
822.452	2.88
823.194	4.88
823.936	4.88
824.678	3.88
825.42	4.88
826.162	3.88
826.904	5.88
827.646	2.88
828.388	7.88
829.129	3.88
829.871	3.88
830.612	0.88
831.354	1.88
832.095	3.88
832.836	3.88
833.577	5.88
834.319	2.88
835.06	4.88
835.801	3.88
836.542	0.88
837.282	2.88
838.023	3.88
838.764	2.88
839.504	2.88
840.245	4.88
840.985	4.88
841.726	3.88
842.466	3.88
843.206	2.88
843.946	2.88
844.687	2.88
845.427	1.88
846.166	4.88
846.906	1.88
847.646	1.88
848.386	0.88
849.125	1.88
849.865	1.88
850.605	2.88
851.344	1.88
852.083	0.88
852.823	1.88
853.562	2.88
854.301	1.88
855.04	2.88
855.779	2.88
856.518	2.88
857.257	1.88
857.995	3.88
858.734	1.88
859.473	2.88
860.211	1.88
860.95	3.88
861.688	1.88
862.426	1.88
863.165	1.88
863.903	1.88
864.641	2.88
865.379	1.88
866.117	-0.12
866.855	0.88
867.593	1.88
868.33	0.88
869.068	5.88
869.806	1.88
870.543	2.88
871.28	0.88
872.018	-1.12
872.755	1.88
873.492	0.88
874.229	2.88
874.967	0.88
875.703	0.88
876.44	1.88
877.177	1.88
877.914	-1.12
878.651	-1.12
879.387	1.88
880.124	0.88
880.86	0.88
881.597	-0.12
882.333	1.88
883.069	1.88
883.806	1.88
884.542	1.88
885.278	-1.12
886.014	-0.12
886.749	0.88
887.485	-0.12
888.221	-0.12
888.957	2.88
889.692	2.88
890.428	0.88
891.163	-0.12
891.899	1.88
892.634	-1.12
893.369	-0.12
894.104	0.88
894.839	0.88
895.574	-1.12
896.309	1.88
897.044	-0.12
897.779	0.88
898.514	0.88
899.248	-0.12
899.983	1.88
900.717	-2.12
901.452	-0.12
902.186	-0.12
902.92	0.88
903.654	-0.12
904.389	-1.12
905.123	0.88
905.857	1.88
906.59	0.88
907.324	-0.12
908.058	0.88
908.792	-2.12
909.525	-0.12
910.259	1.88
910.992	-0.12
911.726	-0.12
912.459	0.88
913.192	0.88
913.925	0.88
914.658	-0.12
915.391	-0.12
916.124	-0.12
916.857	-0.12
917.59	0.88
918.323	1.88
919.055	-1.12
919.788	0.88
920.521	-0.12
921.253	-0.12
921.985	-0.12
922.718	-0.12
923.45	0.88
924.182	-1.12
924.914	0.88
925.646	-0.12
926.378	-1.12
927.11	-1.12
927.841	-2.12
928.573	0.88
929.305	0.88
930.036	-0.12
930.768	-0.12
931.499	-0.12
932.23	-0.12
932.962	-3.12
933.693	0.88
934.424	-0.12
935.155	-0.12
935.886	-0.12
936.617	-0.12
937.348	0.88
938.078	-0.12
938.809	-0.12
939.54	-0.12
940.27	-0.12
941.001	-0.12
941.731	0.88
942.461	-0.12
943.191	0.88
943.922	-1.12
944.652	0.88
945.382	-2.12
946.112	-0.12
946.841	0.88
947.571	0.88
948.301	0.88
949.031	-0.12
949.76	-0.12
950.49	-0.12
951.219	-2.12
951.948	-0.12
952.678	-0.12
953.407	-1.12
954.136	-0.12
954.865	-2.12
955.594	-0.12
956.323	0.88
957.052	-0.12
957.78	-2.12
958.509	1.88
959.238	0.88
959.966	1.88
960.695	-0.12
961.423	0.88
962.151	-1.12
962.88	-0.12
963.608	-0.12
964.336	0.88
965.064	0.88
965.792	-0.12
966.52	-1.12
967.247	-0.12
967.975	-0.12
968.703	-0.12
969.43	1.88
970.158	-2.12
970.885	-0.12
971.613	-2.12
972.34	-0.12
973.067	-1.12
973.794	1.88
974.521	-1.12
975.248	-1.12
975.975	-1.12
976.702	1.88
977.429	-0.12
978.156	0.88
978.882	-1.12
979.609	-0.12
980.335	-1.12
981.062	-0.12
981.788	-1.12
982.514	0.88
983.24	-0.12
983.967	0.88
984.693	-0.12
985.419	2.88
986.144	0.88
986.87	-0.12
987.596	-0.12
988.322	-1.12
989.047	-0.12
989.773	-2.12
990.498	0.88
991.224	0.88
991.949	-0.12
992.674	0.88
993.399	-0.12
994.124	-1.12
994.849	-0.12
995.574	-3.12
996.299	-1.12
997.024	1.88
997.749	0.88
998.473	1.88
999.198	0.88
999.922	1.88
1000.647	-1.12
1001.371	4.88
1002.095	-1.12
1002.82	-1.12
1003.544	-0.12
1004.268	0.88
1004.992	1.88
1005.716	0.88
1006.439	2.88
1007.163	0.88
1007.887	1.88
1008.611	-0.12
1009.334	0.88
1010.058	0.88
1010.781	-0.12
1011.504	-0.12
1012.228	1.88
1012.951	1.88
1013.674	-0.12
1014.397	-2.12
1015.12	-2.12
