节点500_425_QEPB04081__66__15-49-24-387.txt的数据

Date: Wed Nov 12 15:49:24 CST 2025
User: PC
Spectrometer: QEPB0408
触发模式: 0
积分时间 (秒): 1.000000E-2
Scans to average: 1
启用暗噪声校正: true
启用非线性校正: false
滑动平均宽度: 0
X轴模式: Wavelengths
Number of Pixels in Spectrum: 1044
>>>>>Begin Spectral Data<<<<<
220.843	5
221.644	4
222.444	6
223.244	6
224.045	3
224.845	5
225.645	4
226.445	5
227.245	4
228.045	5
228.845	7
229.645	4
230.444	7
231.244	5
232.043	7
232.843	7
233.642	7
234.442	8
235.241	6
236.04	7
236.839	7
237.638	6
238.437	10
239.236	9
240.035	8
240.833	10
241.632	7
242.43	7
243.229	9
244.027	10
244.826	8
245.624	9
246.422	10
247.22	6
248.018	11
248.816	9
249.614	12
250.412	12
251.21	12
252.007	12
252.805	13
253.602	14
254.4	14
255.197	11
255.994	14
256.791	15
257.589	14
258.386	11
259.183	14
259.979	18
260.776	16
261.573	17
262.37	18
263.166	20
263.963	18
264.759	19
265.556	18
266.352	21
267.148	22
267.944	20
268.74	22
269.536	22
270.332	25
271.128	23
271.924	23
272.719	26
273.515	26
274.311	24
275.106	26
275.901	29
276.697	26
277.492	26
278.287	27
279.082	27
279.877	27
280.672	28
281.467	24
282.262	26
283.056	25
283.851	28
284.646	25
285.44	27
286.234	25
287.029	30
287.823	27
288.617	25
289.411	27
290.205	27
290.999	27
291.793	29
292.587	25
293.381	25
294.174	25
294.968	22
295.761	22
296.555	19
297.348	23
298.141	17
298.935	20
299.728	21
300.521	19
301.314	19
302.107	19
302.899	18
303.692	15
304.485	19
305.277	17
306.07	15
306.862	19
307.655	17
308.447	18
309.239	18
310.031	16
310.823	16
311.615	13
312.407	14
313.199	13
313.991	16
314.783	12
315.574	14
316.366	14
317.157	11
317.949	15
318.74	11
319.531	10
320.322	14
321.113	9
321.904	9
322.695	10
323.486	12
324.277	10
325.068	11
325.858	9
326.649	9
327.439	10
328.23	10
329.02	7
329.81	10
330.6	9
331.391	12
332.181	9
332.971	9
333.76	8
334.55	10
335.34	9
336.13	11
336.919	10
337.709	11
338.498	10
339.287	9
340.077	7
340.866	9
341.655	9
342.444	10
343.233	10
344.022	10
344.811	9
345.6	9
346.388	9
347.177	12
347.965	7
348.754	9
349.542	10
350.33	8
351.119	7
351.907	9
352.695	8
353.483	9
354.271	8
355.059	8
355.846	11
356.634	7
357.422	7
358.209	7
358.997	8
359.784	10
360.571	7
361.359	7
362.146	9
362.933	9
363.72	9
364.507	7
365.294	9
366.081	7
366.867	4
367.654	8
368.44	8
369.227	8
370.013	8
370.8	9
371.586	9
372.372	9
373.158	8
373.944	6
374.73	8
375.516	6
376.302	7
377.088	9
377.873	8
378.659	10
379.445	8
380.23	9
381.015	6
381.801	8
382.586	8
383.371	9
384.156	9
384.941	7
385.726	7
386.511	8
387.296	9
388.08	8
388.865	11
389.649	11
390.434	9
391.218	9
392.003	9
392.787	9
393.571	10
394.355	9
395.139	9
395.923	8
396.707	10
397.491	8
398.274	8
399.058	10
399.842	9
400.625	11
401.408	12
402.192	10
402.975	9
403.758	10
404.541	10
405.324	12
406.107	8
406.89	11
407.673	10
408.456	13
409.238	11
410.021	15
410.803	12
411.586	12
412.368	16
413.151	11
413.933	13
414.715	13
415.497	15
416.279	13
417.061	13
417.843	13
418.624	12
419.406	15
420.188	13
420.969	15
421.751	18
422.532	15
423.313	15
424.095	15
424.876	17
425.657	18
426.438	16
427.219	16
428	19
428.78	20
429.561	19
430.342	19
431.122	21
431.903	19
432.683	22
433.464	23
434.244	27
435.024	22
435.804	29
436.584	26
437.364	30
438.144	28
438.924	32
439.704	36
440.483	32
441.263	35
442.042	39
442.822	38
443.601	44
444.38	44
445.16	52
445.939	51
446.718	53
447.497	57
448.276	61
449.054	70
449.833	77
450.612	81
451.391	89
452.169	95
452.948	105
453.726	118
454.504	130
455.282	139
456.061	153
456.839	176
457.617	194
458.395	213
459.172	244
459.95	265
460.728	298
461.506	328
462.283	372
463.061	418
463.838	465
464.615	526
465.393	578
466.17	651
466.947	725
467.724	806
468.501	905
469.278	1013
470.055	1120
470.831	1254
471.608	1402
472.385	1550
473.161	1717
473.938	1913
474.714	2132
475.49	2359
476.266	2610
477.043	2901
477.819	3198
478.595	3562
479.371	3925
480.146	4327
480.922	4781
481.698	5259
482.473	5777
483.249	6347
484.024	7031
484.8	7733
485.575	8470
486.35	9327
487.126	10210
487.901	11172
488.676	12202
489.451	13328
490.225	14567
491	15827
491.775	17192
492.55	18584
493.324	20050
494.099	21514
494.873	23023
495.647	24593
496.422	26107
497.196	27747
497.97	29370
498.744	30802
499.518	32260
500.292	33515
501.066	34544
501.839	35599
502.613	36361
503.387	37046
504.16	37315
504.934	37499
505.707	37261
506.48	36906
507.253	36381
508.027	35806
508.8	34991
509.573	33963
510.346	32968
511.118	31774
511.891	30716
512.664	29376
513.437	28150
514.209	26978
514.982	25896
515.754	24671
516.526	23676
517.298	22628
518.071	21624
518.843	20748
519.615	19874
520.387	19126
521.159	18354
521.93	17695
522.702	17014
523.474	16343
524.245	15639
525.017	14887
525.788	14249
526.56	13526
527.331	12894
528.102	12251
528.873	11659
529.644	11010
530.415	10529
531.186	10001
531.957	9463
532.728	8933
533.498	8377
534.269	7946
535.039	7490
535.81	7098
536.58	6682
537.351	6312
538.121	5974
538.891	5651
539.661	5363
540.431	5080
541.201	4806
541.971	4564
542.741	4308
543.51	4111
544.28	3906
545.05	3685
545.819	3535
546.588	3389
547.358	3164
548.127	3020
548.896	2859
549.665	2687
550.434	2584
551.203	2451
551.972	2310
552.741	2172
553.51	2061
554.278	1926
555.047	1829
555.815	1725
556.584	1618
557.352	1517
558.121	1438
558.889	1364
559.657	1285
560.425	1217
561.193	1159
561.961	1091
562.729	1019
563.496	972
564.264	926
565.032	877
565.799	811
566.567	774
567.334	734
568.101	696
568.869	653
569.636	624
570.403	582
571.17	544
571.937	521
572.704	483
573.471	462
574.237	433
575.004	410
575.771	385
576.537	361
577.303	347
578.07	322
578.836	304
579.602	279
580.368	275
581.134	262
581.9	241
582.666	235
583.432	223
584.198	207
584.964	203
585.729	190
586.495	181
587.26	169
588.025	164
588.791	154
589.556	142
590.321	145
591.086	131
591.851	125
592.616	121
593.381	110
594.146	111
594.911	107
595.675	102
596.44	93
597.204	91
597.969	86
598.733	85
599.497	81
600.261	77
601.025	72
601.79	71
602.553	63
603.317	63
604.081	61
604.845	54
605.609	56
606.372	56
607.136	47
607.899	48
608.662	46
609.426	47
610.189	45
610.952	42
611.715	38
612.478	40
613.241	40
614.004	37
614.767	36
615.529	34
616.292	33
617.055	31
617.817	30
618.579	33
619.342	31
620.104	29
620.866	28
621.628	28
622.39	25
623.152	26
623.914	29
624.676	25
625.438	23
626.199	23
626.961	21
627.722	18
628.484	22
629.245	21
630.006	20
630.768	18
631.529	19
632.29	19
633.051	16
633.812	19
634.573	16
635.333	13
636.094	17
636.855	17
637.615	15
638.376	15
639.136	15
639.896	17
640.657	15
641.417	13
642.177	12
642.937	12
643.697	13
644.457	13
645.216	12
645.976	11
646.736	11
647.495	11
648.255	9
649.014	13
649.774	10
650.533	13
651.292	10
652.051	9
652.81	9
653.569	10
654.328	8
655.087	10
655.846	12
656.604	8
657.363	8
658.121	11
658.88	8
659.638	9
660.397	8
661.155	8
661.913	10
662.671	8
663.429	8
664.187	8
664.945	8
665.703	7
666.46	7
667.218	9
667.976	8
668.733	7
669.49	8
670.248	8
671.005	7
671.762	5
672.519	7
673.276	10
674.033	7
674.79	7
675.547	7
676.304	9
677.06	5
677.817	7
678.574	6
679.33	8
680.086	6
680.843	6
681.599	3
682.355	5
683.111	6
683.867	6
684.623	8
685.379	5
686.135	7
686.89	9
687.646	3
688.402	6
689.157	7
689.912	8
690.668	5
691.423	5
692.178	7
692.933	6
693.688	6
694.443	5
695.198	5
695.953	8
696.708	4
697.462	8
698.217	6
698.972	3
699.726	5
700.48	3
701.235	6
701.989	4
702.743	4
703.497	6
704.251	5
705.005	5
705.759	5
706.513	7
707.266	5
708.02	7
708.774	6
709.527	4
710.28	5
711.034	4
711.787	5
712.54	5
713.293	6
714.046	5
714.799	6
715.552	6
716.305	5
717.058	5
717.81	4
718.563	6
719.315	7
720.068	5
720.82	5
721.573	6
722.325	5
723.077	3
723.829	6
724.581	8
725.333	6
726.085	5
726.836	6
727.588	8
728.34	5
729.091	6
729.843	8
730.594	5
731.346	6
732.097	3
732.848	6
733.599	7
734.35	6
735.101	8
735.852	8
736.603	6
737.354	8
738.104	7
738.855	9
739.605	6
740.356	9
741.106	8
741.856	8
742.607	8
743.357	8
744.107	10
744.857	8
745.607	10
746.357	8
747.106	8
747.856	10
748.606	9
749.355	7
750.105	7
750.854	8
751.603	8
752.353	7
753.102	8
753.851	8
754.6	12
755.349	11
756.098	8
756.847	11
757.595	9
758.344	10
759.093	8
759.841	11
760.589	12
761.338	10
762.086	9
762.834	7
763.582	11
764.331	11
765.079	11
765.826	10
766.574	10
767.322	11
768.07	11
768.817	11
769.565	10
770.312	10
771.06	15
771.807	11
772.554	13
773.302	13
774.049	14
774.796	9
775.543	10
776.29	13
777.036	11
777.783	14
778.53	11
779.276	14
780.023	12
780.769	11
781.516	15
782.262	11
783.008	12
783.754	14
784.5	13
785.246	13
785.992	15
786.738	11
787.484	14
788.23	13
788.975	14
789.721	14
790.466	12
791.212	13
791.957	13
792.702	11
793.447	13
794.193	11
794.938	11
795.683	13
796.427	14
797.172	11
797.917	10
798.662	9
799.406	10
800.151	10
800.895	11
801.64	11
802.384	10
803.128	11
803.872	8
804.616	10
805.36	10
806.104	7
806.848	9
807.592	8
808.336	8
809.079	8
809.823	9
810.566	8
811.31	11
812.053	8
812.796	7
813.539	9
814.283	8
815.026	5
815.769	8
816.511	7
817.254	7
817.997	7
818.74	7
819.482	6
820.225	6
820.967	6
821.71	8
822.452	7
823.194	4
823.936	8
824.678	5
825.42	6
826.162	6
826.904	6
827.646	6
828.388	8
829.129	6
829.871	5
830.612	6
831.354	7
832.095	3
832.836	3
833.577	6
834.319	4
835.06	4
835.801	3
836.542	6
837.282	3
838.023	6
838.764	3
839.504	5
840.245	8
840.985	3
841.726	7
842.466	6
843.206	1
843.946	6
844.687	3
845.427	4
846.166	1
846.906	4
847.646	6
848.386	3
849.125	5
849.865	1
850.605	5
851.344	3
852.083	3
852.823	3
853.562	4
854.301	3
855.04	2
855.779	6
856.518	5
857.257	6
857.995	3
858.734	3
859.473	4
860.211	1
860.95	1
861.688	2
862.426	2
863.165	3
863.903	5
864.641	4
865.379	2
866.117	4
866.855	2
867.593	0
868.33	5
869.068	3
869.806	3
870.543	5
871.28	2
872.018	2
872.755	1
873.492	1
874.229	3
874.967	1
875.703	2
876.44	1
877.177	3
877.914	1
878.651	3
879.387	4
880.124	0
880.86	2
881.597	4
882.333	3
883.069	1
883.806	3
884.542	3
885.278	2
886.014	3
886.749	1
887.485	2
888.221	1
888.957	1
889.692	1
890.428	2
891.163	4
891.899	-2
892.634	2
893.369	1
894.104	1
894.839	2
895.574	-1
896.309	2
897.044	2
897.779	1
898.514	2
899.248	1
899.983	2
900.717	1
901.452	0
902.186	1
902.92	-1
903.654	2
904.389	0
905.123	3
905.857	2
906.59	0
907.324	-1
908.058	0
908.792	0
909.525	0
910.259	1
910.992	-1
911.726	1
912.459	-1
913.192	1
913.925	3
914.658	2
915.391	0
916.124	3
916.857	-1
917.59	1
918.323	2
919.055	3
919.788	-1
920.521	2
921.253	2
921.985	-1
922.718	2
923.45	1
924.182	1
924.914	0
925.646	2
926.378	-1
927.11	-1
927.841	0
928.573	0
929.305	0
930.036	2
930.768	0
931.499	2
932.23	-1
932.962	1
933.693	1
934.424	2
935.155	0
935.886	1
936.617	-1
937.348	2
938.078	1
938.809	2
939.54	-1
940.27	1
941.001	2
941.731	1
942.461	-1
943.191	-3
943.922	3
944.652	1
945.382	2
946.112	1
946.841	1
947.571	2
948.301	0
949.031	1
949.76	-1
950.49	-1
951.219	2
951.948	1
952.678	2
953.407	1
954.136	1
954.865	2
955.594	-1
956.323	1
957.052	1
957.78	2
958.509	0
959.238	3
959.966	0
960.695	-1
961.423	1
962.151	-2
962.88	3
963.608	1
964.336	0
965.064	1
965.792	2
966.52	1
967.247	1
967.975	3
968.703	0
969.43	1
970.158	2
970.885	2
971.613	2
972.34	-1
973.067	1
973.794	1
974.521	2
975.248	3
975.975	-2
976.702	2
977.429	1
978.156	-3
978.882	0
979.609	0
980.335	1
981.062	1
981.788	0
982.514	0
983.24	1
983.967	1
984.693	-1
985.419	3
986.144	2
986.87	0
987.596	1
988.322	-1
989.047	2
989.773	1
990.498	1
991.224	2
991.949	0
992.674	0
993.399	1
994.124	-1
994.849	2
995.574	1
996.299	1
997.024	-2
997.749	3
998.473	-1
999.198	2
999.922	2
1000.647	1
1001.371	4
1002.095	1
1002.82	-2
1003.544	-2
1004.268	4
1004.992	2
1005.716	3
1006.439	3
1007.163	3
1007.887	4
1008.611	1
1009.334	3
1010.058	4
1010.781	-1
1011.504	2
1012.228	0
1012.951	-3
1013.674	2
1014.397	-1
1015.12	1
