节点500_425_QEPB04081__540__15-57-17-538.txt的数据

Date: Wed Nov 12 15:57:17 CST 2025
User: PC
Spectrometer: QEPB0408
触发模式: 0
积分时间 (秒): 1.000000E-2
Scans to average: 1
启用暗噪声校正: true
启用非线性校正: false
滑动平均宽度: 0
X轴模式: Wavelengths
Number of Pixels in Spectrum: 1044
>>>>>Begin Spectral Data<<<<<
220.843	4.5
221.644	2.5
222.444	2.5
223.244	5.5
224.045	2.5
224.845	1.5
225.645	0.5
226.445	2.5
227.245	4.5
228.045	1.5
228.845	4.5
229.645	6.5
230.444	3.5
231.244	4.5
232.043	4.5
232.843	6.5
233.642	7.5
234.442	7.5
235.241	6.5
236.04	5.5
236.839	4.5
237.638	6.5
238.437	9.5
239.236	4.5
240.035	3.5
240.833	5.5
241.632	7.5
242.43	6.5
243.229	6.5
244.027	6.5
244.826	7.5
245.624	7.5
246.422	9.5
247.22	8.5
248.018	9.5
248.816	8.5
249.614	7.5
250.412	8.5
251.21	9.5
252.007	8.5
252.805	8.5
253.602	11.5
254.4	8.5
255.197	6.5
255.994	11.5
256.791	10.5
257.589	13.5
258.386	13.5
259.183	12.5
259.979	15.5
260.776	12.5
261.573	14.5
262.37	13.5
263.166	12.5
263.963	14.5
264.759	16.5
265.556	14.5
266.352	12.5
267.148	16.5
267.944	16.5
268.74	17.5
269.536	15.5
270.332	17.5
271.128	21.5
271.924	18.5
272.719	21.5
273.515	18.5
274.311	21.5
275.106	23.5
275.901	21.5
276.697	21.5
277.492	24.5
278.287	20.5
279.082	23.5
279.877	21.5
280.672	22.5
281.467	24.5
282.262	24.5
283.056	23.5
283.851	24.5
284.646	22.5
285.44	24.5
286.234	20.5
287.029	21.5
287.823	20.5
288.617	19.5
289.411	21.5
290.205	23.5
290.999	19.5
291.793	23.5
292.587	25.5
293.381	19.5
294.174	22.5
294.968	20.5
295.761	19.5
296.555	18.5
297.348	22.5
298.141	18.5
298.935	20.5
299.728	20.5
300.521	19.5
301.314	20.5
302.107	18.5
302.899	16.5
303.692	16.5
304.485	17.5
305.277	13.5
306.07	13.5
306.862	15.5
307.655	16.5
308.447	15.5
309.239	16.5
310.031	12.5
310.823	13.5
311.615	16.5
312.407	11.5
313.199	15.5
313.991	11.5
314.783	13.5
315.574	12.5
316.366	12.5
317.157	11.5
317.949	7.5
318.74	8.5
319.531	10.5
320.322	10.5
321.113	10.5
321.904	10.5
322.695	9.5
323.486	10.5
324.277	11.5
325.068	11.5
325.858	10.5
326.649	7.5
327.439	10.5
328.23	9.5
329.02	8.5
329.81	8.5
330.6	9.5
331.391	6.5
332.181	8.5
332.971	6.5
333.76	9.5
334.55	9.5
335.34	9.5
336.13	8.5
336.919	7.5
337.709	8.5
338.498	5.5
339.287	8.5
340.077	8.5
340.866	8.5
341.655	8.5
342.444	7.5
343.233	8.5
344.022	6.5
344.811	7.5
345.6	9.5
346.388	8.5
347.177	7.5
347.965	5.5
348.754	6.5
349.542	10.5
350.33	8.5
351.119	6.5
351.907	6.5
352.695	8.5
353.483	5.5
354.271	10.5
355.059	7.5
355.846	6.5
356.634	6.5
357.422	6.5
358.209	8.5
358.997	9.5
359.784	6.5
360.571	7.5
361.359	6.5
362.146	4.5
362.933	6.5
363.72	8.5
364.507	8.5
365.294	8.5
366.081	6.5
366.867	7.5
367.654	10.5
368.44	6.5
369.227	7.5
370.013	3.5
370.8	6.5
371.586	4.5
372.372	7.5
373.158	7.5
373.944	7.5
374.73	8.5
375.516	8.5
376.302	4.5
377.088	5.5
377.873	7.5
378.659	7.5
379.445	6.5
380.23	6.5
381.015	4.5
381.801	6.5
382.586	7.5
383.371	5.5
384.156	7.5
384.941	6.5
385.726	7.5
386.511	8.5
387.296	6.5
388.08	7.5
388.865	8.5
389.649	10.5
390.434	10.5
391.218	6.5
392.003	8.5
392.787	7.5
393.571	7.5
394.355	8.5
395.139	9.5
395.923	7.5
396.707	9.5
397.491	9.5
398.274	7.5
399.058	7.5
399.842	9.5
400.625	8.5
401.408	8.5
402.192	8.5
402.975	8.5
403.758	10.5
404.541	7.5
405.324	11.5
406.107	9.5
406.89	12.5
407.673	8.5
408.456	8.5
409.238	11.5
410.021	10.5
410.803	11.5
411.586	13.5
412.368	9.5
413.151	12.5
413.933	10.5
414.715	12.5
415.497	13.5
416.279	14.5
417.061	12.5
417.843	13.5
418.624	14.5
419.406	12.5
420.188	14.5
420.969	14.5
421.751	14.5
422.532	15.5
423.313	12.5
424.095	17.5
424.876	17.5
425.657	14.5
426.438	15.5
427.219	16.5
428	16.5
428.78	18.5
429.561	17.5
430.342	19.5
431.122	20.5
431.903	23.5
432.683	21.5
433.464	22.5
434.244	21.5
435.024	23.5
435.804	24.5
436.584	25.5
437.364	29.5
438.144	29.5
438.924	31.5
439.704	34.5
440.483	31.5
441.263	33.5
442.042	38.5
442.822	42.5
443.601	45.5
444.38	48.5
445.16	54.5
445.939	55.5
446.718	59.5
447.497	65.5
448.276	66.5
449.054	78.5
449.833	81.5
450.612	93.5
451.391	103.5
452.169	107.5
452.948	121.5
453.726	133.5
454.504	150.5
455.282	165.5
456.061	182.5
456.839	198.5
457.617	229.5
458.395	254.5
459.172	278.5
459.95	314.5
460.728	349.5
461.506	383.5
462.283	431.5
463.061	481.5
463.838	542.5
464.615	598.5
465.393	664.5
466.17	733.5
466.947	807.5
467.724	906.5
468.501	985.5
469.278	1097.5
470.055	1204.5
470.831	1338.5
471.608	1487.5
472.385	1619.5
473.161	1779.5
473.938	1968.5
474.714	2166.5
475.49	2368.5
476.266	2605.5
477.043	2869.5
477.819	3139.5
478.595	3410.5
479.371	3725.5
480.146	4091.5
480.922	4449.5
481.698	4822.5
482.473	5271.5
483.249	5744.5
484.024	6241.5
484.8	6845.5
485.575	7398.5
486.35	7995.5
487.126	8664.5
487.901	9412.5
488.676	10184.5
489.451	11061.5
490.225	11944.5
491	12932.5
491.775	13941.5
492.55	14945.5
493.324	16105.5
494.099	17221.5
494.873	18333.5
495.647	19543.5
496.422	20830.5
497.196	22055.5
497.97	23440.5
498.744	24682.5
499.518	25910.5
500.292	27082.5
501.066	28187.5
501.839	29289.5
502.613	30280.5
503.387	31101.5
504.16	31687.5
504.934	32208.5
505.707	32536.5
506.48	32713.5
507.253	32690.5
508.027	32638.5
508.8	32333.5
509.573	31907.5
510.346	31374.5
511.118	30638.5
511.891	29902.5
512.664	28953.5
513.437	28066.5
514.209	27035.5
514.982	26207.5
515.754	25251.5
516.526	24205.5
517.298	23269.5
518.071	22341.5
518.843	21424.5
519.615	20568.5
520.387	19725.5
521.159	18968.5
521.93	18307.5
522.702	17534.5
523.474	16847.5
524.245	16256.5
525.017	15529.5
525.788	14795.5
526.56	14201.5
527.331	13564.5
528.102	12967.5
528.873	12399.5
529.644	11789.5
530.415	11272.5
531.186	10845.5
531.957	10276.5
532.728	9747.5
533.498	9255.5
534.269	8713.5
535.039	8284.5
535.81	7830.5
536.58	7435.5
537.351	7019.5
538.121	6592.5
538.891	6266.5
539.661	5940.5
540.431	5642.5
541.201	5319.5
541.971	5090.5
542.741	4809.5
543.51	4568.5
544.28	4335.5
545.05	4119.5
545.819	3914.5
546.588	3703.5
547.358	3553.5
548.127	3372.5
548.896	3177.5
549.665	3024.5
550.434	2861.5
551.203	2733.5
551.972	2589.5
552.741	2478.5
553.51	2332.5
554.278	2184.5
555.047	2069.5
555.815	1956.5
556.584	1867.5
557.352	1760.5
558.121	1661.5
558.889	1573.5
559.657	1490.5
560.425	1389.5
561.193	1317.5
561.961	1257.5
562.729	1171.5
563.496	1120.5
564.264	1061.5
565.032	1002.5
565.799	948.5
566.567	902.5
567.334	838.5
568.101	794.5
568.869	760.5
569.636	717.5
570.403	678.5
571.17	626.5
571.937	598.5
572.704	570.5
573.471	537.5
574.237	506.5
575.004	480.5
575.771	444.5
576.537	424.5
577.303	396.5
578.07	378.5
578.836	350.5
579.602	330.5
580.368	319.5
581.134	301.5
581.9	280.5
582.666	268.5
583.432	253.5
584.198	239.5
584.964	230.5
585.729	213.5
586.495	206.5
587.26	193.5
588.025	188.5
588.791	180.5
589.556	170.5
590.321	160.5
591.086	150.5
591.851	142.5
592.616	131.5
593.381	131.5
594.146	122.5
594.911	116.5
595.675	113.5
596.44	105.5
597.204	98.5
597.969	96.5
598.733	95.5
599.497	87.5
600.261	87.5
601.025	78.5
601.79	73.5
602.553	73.5
603.317	74.5
604.081	67.5
604.845	65.5
605.609	66.5
606.372	59.5
607.136	58.5
607.899	56.5
608.662	55.5
609.426	51.5
610.189	48.5
610.952	49.5
611.715	48.5
612.478	44.5
613.241	41.5
614.004	39.5
614.767	36.5
615.529	38.5
616.292	33.5
617.055	34.5
617.817	31.5
618.579	32.5
619.342	30.5
620.104	32.5
620.866	30.5
621.628	27.5
622.39	30.5
623.152	26.5
623.914	27.5
624.676	28.5
625.438	25.5
626.199	25.5
626.961	22.5
627.722	25.5
628.484	20.5
629.245	20.5
630.006	20.5
630.768	19.5
631.529	17.5
632.29	20.5
633.051	17.5
633.812	17.5
634.573	16.5
635.333	16.5
636.094	18.5
636.855	14.5
637.615	12.5
638.376	14.5
639.136	14.5
639.896	11.5
640.657	14.5
641.417	13.5
642.177	13.5
642.937	12.5
643.697	11.5
644.457	13.5
645.216	12.5
645.976	10.5
646.736	10.5
647.495	11.5
648.255	12.5
649.014	8.5
649.774	10.5
650.533	9.5
651.292	10.5
652.051	10.5
652.81	10.5
653.569	11.5
654.328	8.5
655.087	8.5
655.846	9.5
656.604	7.5
657.363	9.5
658.121	7.5
658.88	10.5
659.638	8.5
660.397	6.5
661.155	7.5
661.913	8.5
662.671	7.5
663.429	7.5
664.187	7.5
664.945	9.5
665.703	7.5
666.46	8.5
667.218	7.5
667.976	8.5
668.733	6.5
669.49	5.5
670.248	7.5
671.005	5.5
671.762	7.5
672.519	5.5
673.276	5.5
674.033	6.5
674.79	5.5
675.547	9.5
676.304	4.5
677.06	7.5
677.817	4.5
678.574	5.5
679.33	6.5
680.086	5.5
680.843	6.5
681.599	6.5
682.355	3.5
683.111	4.5
683.867	3.5
684.623	6.5
685.379	5.5
686.135	6.5
686.89	4.5
687.646	5.5
688.402	8.5
689.157	3.5
689.912	6.5
690.668	4.5
691.423	3.5
692.178	5.5
692.933	6.5
693.688	5.5
694.443	5.5
695.198	5.5
695.953	6.5
696.708	5.5
697.462	4.5
698.217	4.5
698.972	4.5
699.726	6.5
700.48	5.5
701.235	6.5
701.989	5.5
702.743	4.5
703.497	6.5
704.251	5.5
705.005	4.5
705.759	5.5
706.513	5.5
707.266	4.5
708.02	4.5
708.774	5.5
709.527	6.5
710.28	5.5
711.034	3.5
711.787	5.5
712.54	5.5
713.293	6.5
714.046	2.5
714.799	6.5
715.552	4.5
716.305	2.5
717.058	4.5
717.81	5.5
718.563	4.5
719.315	2.5
720.068	5.5
720.82	5.5
721.573	4.5
722.325	3.5
723.077	5.5
723.829	6.5
724.581	5.5
725.333	4.5
726.085	5.5
726.836	6.5
727.588	5.5
728.34	5.5
729.091	6.5
729.843	4.5
730.594	5.5
731.346	5.5
732.097	4.5
732.848	7.5
733.599	4.5
734.35	5.5
735.101	5.5
735.852	5.5
736.603	4.5
737.354	6.5
738.104	8.5
738.855	3.5
739.605	5.5
740.356	5.5
741.106	6.5
741.856	7.5
742.607	8.5
743.357	7.5
744.107	5.5
744.857	7.5
745.607	6.5
746.357	7.5
747.106	4.5
747.856	3.5
748.606	7.5
749.355	8.5
750.105	5.5
750.854	5.5
751.603	6.5
752.353	5.5
753.102	6.5
753.851	6.5
754.6	7.5
755.349	4.5
756.098	5.5
756.847	6.5
757.595	7.5
758.344	6.5
759.093	6.5
759.841	5.5
760.589	8.5
761.338	6.5
762.086	9.5
762.834	7.5
763.582	8.5
764.331	7.5
765.079	10.5
765.826	8.5
766.574	9.5
767.322	9.5
768.07	10.5
768.817	8.5
769.565	10.5
770.312	10.5
771.06	8.5
771.807	10.5
772.554	7.5
773.302	8.5
774.049	8.5
774.796	10.5
775.543	9.5
776.29	9.5
777.036	10.5
777.783	10.5
778.53	11.5
779.276	7.5
780.023	10.5
780.769	8.5
781.516	12.5
782.262	11.5
783.008	11.5
783.754	10.5
784.5	10.5
785.246	12.5
785.992	9.5
786.738	8.5
787.484	11.5
788.23	9.5
788.975	14.5
789.721	10.5
790.466	9.5
791.212	10.5
791.957	10.5
792.702	11.5
793.447	10.5
794.193	10.5
794.938	10.5
795.683	9.5
796.427	12.5
797.172	9.5
797.917	9.5
798.662	7.5
799.406	9.5
800.151	10.5
800.895	9.5
801.64	8.5
802.384	9.5
803.128	10.5
803.872	5.5
804.616	8.5
805.36	9.5
806.104	9.5
806.848	8.5
807.592	8.5
808.336	6.5
809.079	5.5
809.823	4.5
810.566	7.5
811.31	5.5
812.053	8.5
812.796	5.5
813.539	5.5
814.283	7.5
815.026	5.5
815.769	7.5
816.511	6.5
817.254	6.5
817.997	5.5
818.74	6.5
819.482	4.5
820.225	5.5
820.967	5.5
821.71	6.5
822.452	5.5
823.194	6.5
823.936	6.5
824.678	6.5
825.42	3.5
826.162	3.5
826.904	7.5
827.646	6.5
828.388	7.5
829.129	3.5
829.871	5.5
830.612	4.5
831.354	5.5
832.095	2.5
832.836	4.5
833.577	4.5
834.319	4.5
835.06	4.5
835.801	3.5
836.542	4.5
837.282	2.5
838.023	5.5
838.764	5.5
839.504	3.5
840.245	4.5
840.985	4.5
841.726	1.5
842.466	2.5
843.206	2.5
843.946	3.5
844.687	4.5
845.427	1.5
846.166	5.5
846.906	1.5
847.646	4.5
848.386	5.5
849.125	4.5
849.865	2.5
850.605	2.5
851.344	4.5
852.083	3.5
852.823	1.5
853.562	4.5
854.301	2.5
855.04	2.5
855.779	0.5
856.518	3.5
857.257	3.5
857.995	3.5
858.734	4.5
859.473	3.5
860.211	2.5
860.95	1.5
861.688	2.5
862.426	2.5
863.165	4.5
863.903	-0.5
864.641	0.5
865.379	2.5
866.117	2.5
866.855	3.5
867.593	5.5
868.33	0.5
869.068	3.5
869.806	2.5
870.543	4.5
871.28	2.5
872.018	1.5
872.755	0.5
873.492	1.5
874.229	2.5
874.967	3.5
875.703	1.5
876.44	2.5
877.177	1.5
877.914	2.5
878.651	1.5
879.387	3.5
880.124	4.5
880.86	0.5
881.597	2.5
882.333	-0.5
883.069	1.5
883.806	2.5
884.542	4.5
885.278	0.5
886.014	0.5
886.749	0.5
887.485	0.5
888.221	1.5
888.957	1.5
889.692	3.5
890.428	2.5
891.163	3.5
891.899	0.5
892.634	1.5
893.369	-0.5
894.104	0.5
894.839	2.5
895.574	3.5
896.309	0.5
897.044	0.5
897.779	1.5
898.514	0.5
899.248	0.5
899.983	0.5
900.717	2.5
901.452	1.5
902.186	0.5
902.92	0.5
903.654	-0.5
904.389	1.5
905.123	0.5
905.857	0.5
906.59	0.5
907.324	0.5
908.058	1.5
908.792	1.5
909.525	-0.5
910.259	1.5
910.992	0.5
911.726	0.5
912.459	1.5
913.192	1.5
913.925	1.5
914.658	-1.5
915.391	0.5
916.124	0.5
916.857	1.5
917.59	-0.5
918.323	2.5
919.055	-0.5
919.788	1.5
920.521	1.5
921.253	0.5
921.985	2.5
922.718	0.5
923.45	0.5
924.182	0.5
924.914	2.5
925.646	0.5
926.378	-0.5
927.11	0.5
927.841	-1.5
928.573	-0.5
929.305	-0.5
930.036	1.5
930.768	0.5
931.499	-0.5
932.23	2.5
932.962	0.5
933.693	0.5
934.424	0.5
935.155	-0.5
935.886	0.5
936.617	0.5
937.348	1.5
938.078	0.5
938.809	1.5
939.54	2.5
940.27	0.5
941.001	0.5
941.731	1.5
942.461	1.5
943.191	0.5
943.922	-0.5
944.652	1.5
945.382	-0.5
946.112	0.5
946.841	-0.5
947.571	0.5
948.301	0.5
949.031	1.5
949.76	0.5
950.49	-1.5
951.219	-1.5
951.948	0.5
952.678	-1.5
953.407	0.5
954.136	-0.5
954.865	0.5
955.594	-0.5
956.323	0.5
957.052	-0.5
957.78	0.5
958.509	0.5
959.238	-1.5
959.966	2.5
960.695	-0.5
961.423	2.5
962.151	-0.5
962.88	0.5
963.608	-0.5
964.336	-1.5
965.064	1.5
965.792	1.5
966.52	-0.5
967.247	-0.5
967.975	-0.5
968.703	2.5
969.43	2.5
970.158	0.5
970.885	0.5
971.613	1.5
972.34	1.5
973.067	1.5
973.794	0.5
974.521	0.5
975.248	-1.5
975.975	0.5
976.702	1.5
977.429	-0.5
978.156	0.5
978.882	0.5
979.609	0.5
980.335	-0.5
981.062	0.5
981.788	-1.5
982.514	1.5
983.24	1.5
983.967	0.5
984.693	-0.5
985.419	-1.5
986.144	0.5
986.87	-1.5
987.596	-0.5
988.322	0.5
989.047	-0.5
989.773	0.5
990.498	1.5
991.224	0.5
991.949	1.5
992.674	0.5
993.399	-0.5
994.124	-0.5
994.849	1.5
995.574	0.5
996.299	-0.5
997.024	-0.5
997.749	-1.5
998.473	0.5
999.198	1.5
999.922	0.5
1000.647	2.5
1001.371	1.5
1002.095	0.5
1002.82	-0.5
1003.544	0.5
1004.268	0.5
1004.992	0.5
1005.716	2.5
1006.439	3.5
1007.163	1.5
1007.887	6.5
1008.611	0.5
1009.334	1.5
1010.058	-1.5
1010.781	-0.5
1011.504	-0.5
1012.228	-1.5
1012.951	0.5
1013.674	-1.5
1014.397	-0.5
1015.12	-0.5
