节点500_425_QEPB04081__406__15-55-03-705.txt的数据

Date: Wed Nov 12 15:55:03 CST 2025
User: PC
Spectrometer: QEPB0408
触发模式: 0
积分时间 (秒): 1.000000E-2
Scans to average: 1
启用暗噪声校正: true
启用非线性校正: false
滑动平均宽度: 0
X轴模式: Wavelengths
Number of Pixels in Spectrum: 1044
>>>>>Begin Spectral Data<<<<<
220.843	0.62
221.644	1.62
222.444	2.62
223.244	1.62
224.045	1.62
224.845	2.62
225.645	4.62
226.445	3.62
227.245	1.62
228.045	3.62
228.845	3.62
229.645	3.62
230.444	4.62
231.244	4.62
232.043	6.62
232.843	4.62
233.642	7.62
234.442	5.62
235.241	5.62
236.04	4.62
236.839	4.62
237.638	4.62
238.437	5.62
239.236	5.62
240.035	6.62
240.833	5.62
241.632	9.62
242.43	2.62
243.229	7.62
244.027	6.62
244.826	5.62
245.624	7.62
246.422	8.62
247.22	5.62
248.018	7.62
248.816	9.62
249.614	9.62
250.412	9.62
251.21	9.62
252.007	9.62
252.805	10.62
253.602	11.62
254.4	7.62
255.197	9.62
255.994	7.62
256.791	11.62
257.589	11.62
258.386	12.62
259.183	10.62
259.979	11.62
260.776	13.62
261.573	13.62
262.37	13.62
263.166	14.62
263.963	14.62
264.759	15.62
265.556	14.62
266.352	15.62
267.148	15.62
267.944	20.62
268.74	19.62
269.536	18.62
270.332	18.62
271.128	17.62
271.924	19.62
272.719	20.62
273.515	20.62
274.311	21.62
275.106	20.62
275.901	19.62
276.697	21.62
277.492	22.62
278.287	22.62
279.082	23.62
279.877	20.62
280.672	19.62
281.467	23.62
282.262	25.62
283.056	18.62
283.851	25.62
284.646	24.62
285.44	21.62
286.234	24.62
287.029	21.62
287.823	21.62
288.617	23.62
289.411	22.62
290.205	21.62
290.999	20.62
291.793	24.62
292.587	23.62
293.381	20.62
294.174	22.62
294.968	18.62
295.761	16.62
296.555	19.62
297.348	16.62
298.141	20.62
298.935	20.62
299.728	19.62
300.521	16.62
301.314	17.62
302.107	16.62
302.899	16.62
303.692	14.62
304.485	15.62
305.277	17.62
306.07	15.62
306.862	16.62
307.655	13.62
308.447	15.62
309.239	12.62
310.031	14.62
310.823	14.62
311.615	13.62
312.407	11.62
313.199	9.62
313.991	11.62
314.783	10.62
315.574	10.62
316.366	9.62
317.157	12.62
317.949	7.62
318.74	9.62
319.531	11.62
320.322	12.62
321.113	10.62
321.904	11.62
322.695	8.62
323.486	6.62
324.277	9.62
325.068	7.62
325.858	7.62
326.649	10.62
327.439	8.62
328.23	8.62
329.02	9.62
329.81	7.62
330.6	8.62
331.391	6.62
332.181	8.62
332.971	8.62
333.76	5.62
334.55	8.62
335.34	7.62
336.13	9.62
336.919	8.62
337.709	6.62
338.498	8.62
339.287	7.62
340.077	9.62
340.866	6.62
341.655	5.62
342.444	5.62
343.233	7.62
344.022	6.62
344.811	7.62
345.6	7.62
346.388	7.62
347.177	5.62
347.965	8.62
348.754	7.62
349.542	8.62
350.33	6.62
351.119	7.62
351.907	5.62
352.695	7.62
353.483	4.62
354.271	8.62
355.059	6.62
355.846	5.62
356.634	5.62
357.422	5.62
358.209	7.62
358.997	5.62
359.784	7.62
360.571	3.62
361.359	5.62
362.146	7.62
362.933	6.62
363.72	6.62
364.507	6.62
365.294	6.62
366.081	5.62
366.867	7.62
367.654	6.62
368.44	4.62
369.227	5.62
370.013	6.62
370.8	4.62
371.586	5.62
372.372	6.62
373.158	5.62
373.944	4.62
374.73	6.62
375.516	5.62
376.302	8.62
377.088	6.62
377.873	5.62
378.659	5.62
379.445	5.62
380.23	5.62
381.015	7.62
381.801	5.62
382.586	4.62
383.371	8.62
384.156	6.62
384.941	6.62
385.726	6.62
386.511	5.62
387.296	7.62
388.08	4.62
388.865	4.62
389.649	3.62
390.434	7.62
391.218	6.62
392.003	7.62
392.787	8.62
393.571	6.62
394.355	5.62
395.139	6.62
395.923	5.62
396.707	9.62
397.491	10.62
398.274	5.62
399.058	7.62
399.842	8.62
400.625	7.62
401.408	9.62
402.192	9.62
402.975	10.62
403.758	8.62
404.541	8.62
405.324	8.62
406.107	9.62
406.89	9.62
407.673	9.62
408.456	8.62
409.238	7.62
410.021	11.62
410.803	10.62
411.586	11.62
412.368	7.62
413.151	10.62
413.933	9.62
414.715	9.62
415.497	10.62
416.279	13.62
417.061	12.62
417.843	12.62
418.624	11.62
419.406	11.62
420.188	13.62
420.969	13.62
421.751	12.62
422.532	13.62
423.313	13.62
424.095	15.62
424.876	15.62
425.657	16.62
426.438	14.62
427.219	16.62
428	16.62
428.78	20.62
429.561	16.62
430.342	19.62
431.122	17.62
431.903	21.62
432.683	21.62
433.464	20.62
434.244	24.62
435.024	24.62
435.804	21.62
436.584	25.62
437.364	23.62
438.144	30.62
438.924	31.62
439.704	33.62
440.483	33.62
441.263	35.62
442.042	39.62
442.822	38.62
443.601	41.62
444.38	43.62
445.16	54.62
445.939	53.62
446.718	56.62
447.497	60.62
448.276	69.62
449.054	75.62
449.833	79.62
450.612	86.62
451.391	95.62
452.169	98.62
452.948	119.62
453.726	123.62
454.504	144.62
455.282	160.62
456.061	166.62
456.839	192.62
457.617	219.62
458.395	241.62
459.172	266.62
459.95	297.62
460.728	332.62
461.506	364.62
462.283	415.62
463.061	462.62
463.838	511.62
464.615	576.62
465.393	626.62
466.17	707.62
466.947	786.62
467.724	866.62
468.501	970.62
469.278	1069.62
470.055	1185.62
470.831	1309.62
471.608	1448.62
472.385	1611.62
473.161	1785.62
473.938	1954.62
474.714	2156.62
475.49	2370.62
476.266	2633.62
477.043	2879.62
477.819	3156.62
478.595	3449.62
479.371	3815.62
480.146	4142.62
480.922	4564.62
481.698	4983.62
482.473	5437.62
483.249	5915.62
484.024	6489.62
484.8	7076.62
485.575	7721.62
486.35	8419.62
487.126	9156.62
487.901	9941.62
488.676	10811.62
489.451	11741.62
490.225	12727.62
491	13763.62
491.775	14890.62
492.55	16094.62
493.324	17294.62
494.099	18483.62
494.873	19714.62
495.647	21091.62
496.422	22390.62
497.196	23765.62
497.97	25217.62
498.744	26613.62
499.518	27945.62
500.292	29120.62
501.066	30192.62
501.839	31373.62
502.613	32200.62
503.387	33056.62
504.16	33600.62
504.934	34108.62
505.707	34217.62
506.48	34232.62
507.253	34035.62
508.027	33786.62
508.8	33340.62
509.573	32774.62
510.346	32088.62
511.118	31194.62
511.891	30335.62
512.664	29281.62
513.437	28252.62
514.209	27149.62
514.982	26252.62
515.754	25162.62
516.526	24147.62
517.298	23121.62
518.071	22164.62
518.843	21314.62
519.615	20381.62
520.387	19602.62
521.159	18856.62
521.93	18151.62
522.702	17387.62
523.474	16725.62
524.245	16080.62
525.017	15353.62
525.788	14657.62
526.56	13983.62
527.331	13372.62
528.102	12780.62
528.873	12161.62
529.644	11593.62
530.415	11123.62
531.186	10604.62
531.957	10018.62
532.728	9482.62
533.498	8975.62
534.269	8520.62
535.039	8048.62
535.81	7625.62
536.58	7217.62
537.351	6782.62
538.121	6423.62
538.891	6092.62
539.661	5738.62
540.431	5460.62
541.201	5184.62
541.971	4928.62
542.741	4648.62
543.51	4414.62
544.28	4182.62
545.05	3973.62
545.819	3816.62
546.588	3631.62
547.358	3410.62
548.127	3247.62
548.896	3093.62
549.665	2933.62
550.434	2782.62
551.203	2623.62
551.972	2489.62
552.741	2353.62
553.51	2243.62
554.278	2109.62
555.047	2005.62
555.815	1885.62
556.584	1789.62
557.352	1679.62
558.121	1573.62
558.889	1499.62
559.657	1417.62
560.425	1335.62
561.193	1269.62
561.961	1185.62
562.729	1128.62
563.496	1075.62
564.264	1011.62
565.032	960.62
565.799	899.62
566.567	853.62
567.334	804.62
568.101	759.62
568.869	715.62
569.636	684.62
570.403	638.62
571.17	598.62
571.937	569.62
572.704	543.62
573.471	511.62
574.237	479.62
575.004	444.62
575.771	421.62
576.537	395.62
577.303	371.62
578.07	360.62
578.836	331.62
579.602	317.62
580.368	303.62
581.134	283.62
581.9	262.62
582.666	259.62
583.432	245.62
584.198	227.62
584.964	219.62
585.729	206.62
586.495	194.62
587.26	187.62
588.025	176.62
588.791	167.62
589.556	155.62
590.321	151.62
591.086	143.62
591.851	138.62
592.616	127.62
593.381	125.62
594.146	120.62
594.911	110.62
595.675	106.62
596.44	101.62
597.204	94.62
597.969	91.62
598.733	89.62
599.497	90.62
600.261	83.62
601.025	78.62
601.79	71.62
602.553	67.62
603.317	65.62
604.081	65.62
604.845	59.62
605.609	57.62
606.372	57.62
607.136	58.62
607.899	53.62
608.662	48.62
609.426	51.62
610.189	44.62
610.952	45.62
611.715	41.62
612.478	45.62
613.241	40.62
614.004	38.62
614.767	36.62
615.529	35.62
616.292	31.62
617.055	33.62
617.817	33.62
618.579	30.62
619.342	30.62
620.104	29.62
620.866	24.62
621.628	29.62
622.39	28.62
623.152	25.62
623.914	27.62
624.676	23.62
625.438	23.62
626.199	25.62
626.961	21.62
627.722	18.62
628.484	19.62
629.245	18.62
630.006	18.62
630.768	15.62
631.529	18.62
632.29	15.62
633.051	15.62
633.812	14.62
634.573	14.62
635.333	15.62
636.094	16.62
636.855	15.62
637.615	15.62
638.376	13.62
639.136	9.62
639.896	11.62
640.657	12.62
641.417	12.62
642.177	11.62
642.937	12.62
643.697	12.62
644.457	9.62
645.216	11.62
645.976	9.62
646.736	10.62
647.495	9.62
648.255	11.62
649.014	10.62
649.774	9.62
650.533	7.62
651.292	8.62
652.051	9.62
652.81	9.62
653.569	10.62
654.328	6.62
655.087	8.62
655.846	7.62
656.604	9.62
657.363	7.62
658.121	5.62
658.88	6.62
659.638	5.62
660.397	8.62
661.155	6.62
661.913	10.62
662.671	5.62
663.429	6.62
664.187	5.62
664.945	5.62
665.703	9.62
666.46	5.62
667.218	5.62
667.976	5.62
668.733	7.62
669.49	6.62
670.248	6.62
671.005	6.62
671.762	6.62
672.519	6.62
673.276	4.62
674.033	5.62
674.79	3.62
675.547	5.62
676.304	6.62
677.06	5.62
677.817	4.62
678.574	4.62
679.33	5.62
680.086	4.62
680.843	4.62
681.599	5.62
682.355	6.62
683.111	6.62
683.867	3.62
684.623	4.62
685.379	6.62
686.135	4.62
686.89	5.62
687.646	4.62
688.402	5.62
689.157	3.62
689.912	3.62
690.668	4.62
691.423	4.62
692.178	5.62
692.933	4.62
693.688	3.62
694.443	5.62
695.198	3.62
695.953	6.62
696.708	2.62
697.462	5.62
698.217	3.62
698.972	4.62
699.726	3.62
700.48	4.62
701.235	4.62
701.989	3.62
702.743	3.62
703.497	2.62
704.251	4.62
705.005	3.62
705.759	4.62
706.513	4.62
707.266	3.62
708.02	4.62
708.774	4.62
709.527	3.62
710.28	4.62
711.034	3.62
711.787	1.62
712.54	1.62
713.293	3.62
714.046	3.62
714.799	4.62
715.552	4.62
716.305	3.62
717.058	5.62
717.81	4.62
718.563	2.62
719.315	4.62
720.068	3.62
720.82	7.62
721.573	2.62
722.325	2.62
723.077	5.62
723.829	5.62
724.581	2.62
725.333	5.62
726.085	3.62
726.836	4.62
727.588	5.62
728.34	5.62
729.091	5.62
729.843	3.62
730.594	4.62
731.346	3.62
732.097	5.62
732.848	5.62
733.599	4.62
734.35	6.62
735.101	4.62
735.852	5.62
736.603	3.62
737.354	5.62
738.104	6.62
738.855	6.62
739.605	6.62
740.356	5.62
741.106	3.62
741.856	5.62
742.607	5.62
743.357	5.62
744.107	4.62
744.857	4.62
745.607	6.62
746.357	6.62
747.106	5.62
747.856	6.62
748.606	7.62
749.355	5.62
750.105	5.62
750.854	6.62
751.603	4.62
752.353	6.62
753.102	5.62
753.851	7.62
754.6	6.62
755.349	8.62
756.098	7.62
756.847	5.62
757.595	7.62
758.344	8.62
759.093	8.62
759.841	4.62
760.589	6.62
761.338	7.62
762.086	7.62
762.834	8.62
763.582	7.62
764.331	9.62
765.079	6.62
765.826	8.62
766.574	9.62
767.322	8.62
768.07	7.62
768.817	7.62
769.565	7.62
770.312	6.62
771.06	7.62
771.807	9.62
772.554	4.62
773.302	6.62
774.049	7.62
774.796	9.62
775.543	9.62
776.29	10.62
777.036	10.62
777.783	10.62
778.53	9.62
779.276	10.62
780.023	11.62
780.769	10.62
781.516	8.62
782.262	10.62
783.008	9.62
783.754	10.62
784.5	11.62
785.246	9.62
785.992	8.62
786.738	12.62
787.484	10.62
788.23	10.62
788.975	8.62
789.721	13.62
790.466	6.62
791.212	10.62
791.957	12.62
792.702	10.62
793.447	11.62
794.193	8.62
794.938	11.62
795.683	8.62
796.427	9.62
797.172	9.62
797.917	6.62
798.662	8.62
799.406	9.62
800.151	8.62
800.895	7.62
801.64	10.62
802.384	8.62
803.128	7.62
803.872	10.62
804.616	7.62
805.36	7.62
806.104	7.62
806.848	6.62
807.592	5.62
808.336	6.62
809.079	5.62
809.823	6.62
810.566	6.62
811.31	7.62
812.053	6.62
812.796	7.62
813.539	6.62
814.283	3.62
815.026	5.62
815.769	5.62
816.511	5.62
817.254	3.62
817.997	6.62
818.74	6.62
819.482	3.62
820.225	4.62
820.967	5.62
821.71	4.62
822.452	4.62
823.194	6.62
823.936	5.62
824.678	6.62
825.42	6.62
826.162	5.62
826.904	3.62
827.646	4.62
828.388	6.62
829.129	3.62
829.871	3.62
830.612	3.62
831.354	4.62
832.095	5.62
832.836	2.62
833.577	4.62
834.319	4.62
835.06	2.62
835.801	4.62
836.542	4.62
837.282	3.62
838.023	3.62
838.764	3.62
839.504	3.62
840.245	3.62
840.985	4.62
841.726	4.62
842.466	3.62
843.206	1.62
843.946	2.62
844.687	3.62
845.427	3.62
846.166	3.62
846.906	2.62
847.646	1.62
848.386	3.62
849.125	1.62
849.865	2.62
850.605	1.62
851.344	2.62
852.083	1.62
852.823	2.62
853.562	3.62
854.301	2.62
855.04	2.62
855.779	1.62
856.518	1.62
857.257	3.62
857.995	3.62
858.734	3.62
859.473	3.62
860.211	0.62
860.95	1.62
861.688	0.62
862.426	0.62
863.165	3.62
863.903	-0.38
864.641	1.62
865.379	-1.38
866.117	1.62
866.855	-2.38
867.593	2.62
868.33	1.62
869.068	3.62
869.806	1.62
870.543	2.62
871.28	1.62
872.018	2.62
872.755	-0.38
873.492	-1.38
874.229	-1.38
874.967	1.62
875.703	-0.38
876.44	1.62
877.177	1.62
877.914	0.62
878.651	-0.38
879.387	-0.38
880.124	0.62
880.86	1.62
881.597	1.62
882.333	1.62
883.069	-0.38
883.806	0.62
884.542	1.62
885.278	1.62
886.014	2.62
886.749	0.62
887.485	-0.38
888.221	-1.38
888.957	1.62
889.692	1.62
890.428	0.62
891.163	0.62
891.899	-0.38
892.634	-0.38
893.369	0.62
894.104	-0.38
894.839	2.62
895.574	1.62
896.309	1.62
897.044	-1.38
897.779	0.62
898.514	1.62
899.248	0.62
899.983	0.62
900.717	-1.38
901.452	0.62
902.186	-1.38
902.92	1.62
903.654	-0.38
904.389	1.62
905.123	-0.38
905.857	-0.38
906.59	-0.38
907.324	0.62
908.058	0.62
908.792	0.62
909.525	-0.38
910.259	-0.38
910.992	-0.38
911.726	1.62
912.459	-0.38
913.192	0.62
913.925	0.62
914.658	-1.38
915.391	0.62
916.124	0.62
916.857	-0.38
917.59	-1.38
918.323	0.62
919.055	-1.38
919.788	0.62
920.521	-1.38
921.253	-0.38
921.985	-0.38
922.718	0.62
923.45	-1.38
924.182	0.62
924.914	-0.38
925.646	-0.38
926.378	-0.38
927.11	-0.38
927.841	-0.38
928.573	-0.38
929.305	0.62
930.036	-1.38
930.768	-0.38
931.499	0.62
932.23	-0.38
932.962	0.62
933.693	-0.38
934.424	-2.38
935.155	-0.38
935.886	-1.38
936.617	0.62
937.348	-0.38
938.078	0.62
938.809	0.62
939.54	-0.38
940.27	0.62
941.001	-2.38
941.731	1.62
942.461	-2.38
943.191	-0.38
943.922	1.62
944.652	0.62
945.382	-2.38
946.112	-2.38
946.841	-0.38
947.571	-0.38
948.301	-0.38
949.031	-0.38
949.76	-2.38
950.49	0.62
951.219	-2.38
951.948	2.62
952.678	-2.38
953.407	-0.38
954.136	0.62
954.865	-0.38
955.594	0.62
956.323	0.62
957.052	0.62
957.78	-0.38
958.509	0.62
959.238	-0.38
959.966	0.62
960.695	-0.38
961.423	0.62
962.151	0.62
962.88	-0.38
963.608	1.62
964.336	1.62
965.064	0.62
965.792	-0.38
966.52	-0.38
967.247	0.62
967.975	-1.38
968.703	-2.38
969.43	-0.38
970.158	0.62
970.885	-0.38
971.613	0.62
972.34	0.62
973.067	1.62
973.794	-0.38
974.521	0.62
975.248	1.62
975.975	-0.38
976.702	-1.38
977.429	-2.38
978.156	-0.38
978.882	-1.38
979.609	-1.38
980.335	-1.38
981.062	0.62
981.788	-1.38
982.514	0.62
983.24	-0.38
983.967	-0.38
984.693	-3.38
985.419	0.62
986.144	-0.38
986.87	-0.38
987.596	0.62
988.322	-0.38
989.047	1.62
989.773	0.62
990.498	0.62
991.224	-0.38
991.949	-0.38
992.674	-2.38
993.399	-0.38
994.124	0.62
994.849	-2.38
995.574	0.62
996.299	-0.38
997.024	-2.38
997.749	-0.38
998.473	-2.38
999.198	0.62
999.922	-3.38
1000.647	-1.38
1001.371	4.62
1002.095	-0.38
1002.82	-2.38
1003.544	-1.38
1004.268	1.62
1004.992	1.62
1005.716	0.62
1006.439	2.62
1007.163	1.62
1007.887	2.62
1008.611	1.62
1009.334	-2.38
1010.058	-0.38
1010.781	-1.38
1011.504	-1.38
1012.228	0.62
1012.951	1.62
1013.674	-0.38
1014.397	-1.38
1015.12	-0.38
