节点500_425_QEPB04081__45__15-49-03-438.txt的数据

Date: Wed Nov 12 15:49:03 CST 2025
User: PC
Spectrometer: QEPB0408
触发模式: 0
积分时间 (秒): 1.000000E-2
Scans to average: 1
启用暗噪声校正: true
启用非线性校正: false
滑动平均宽度: 0
X轴模式: Wavelengths
Number of Pixels in Spectrum: 1044
>>>>>Begin Spectral Data<<<<<
220.843	2.12
221.644	2.12
222.444	2.12
223.244	3.12
224.045	2.12
224.845	2.12
225.645	4.12
226.445	3.12
227.245	3.12
228.045	3.12
228.845	5.12
229.645	3.12
230.444	4.12
231.244	6.12
232.043	4.12
232.843	4.12
233.642	4.12
234.442	9.12
235.241	6.12
236.04	6.12
236.839	8.12
237.638	7.12
238.437	5.12
239.236	8.12
240.035	8.12
240.833	9.12
241.632	6.12
242.43	8.12
243.229	8.12
244.027	8.12
244.826	8.12
245.624	7.12
246.422	7.12
247.22	7.12
248.018	8.12
248.816	7.12
249.614	9.12
250.412	12.12
251.21	9.12
252.007	14.12
252.805	12.12
253.602	11.12
254.4	14.12
255.197	12.12
255.994	11.12
256.791	13.12
257.589	15.12
258.386	12.12
259.183	14.12
259.979	17.12
260.776	16.12
261.573	14.12
262.37	19.12
263.166	18.12
263.963	19.12
264.759	17.12
265.556	20.12
266.352	21.12
267.148	18.12
267.944	21.12
268.74	23.12
269.536	22.12
270.332	21.12
271.128	26.12
271.924	24.12
272.719	23.12
273.515	27.12
274.311	23.12
275.106	26.12
275.901	25.12
276.697	26.12
277.492	24.12
278.287	26.12
279.082	25.12
279.877	26.12
280.672	26.12
281.467	30.12
282.262	27.12
283.056	30.12
283.851	26.12
284.646	26.12
285.44	25.12
286.234	30.12
287.029	25.12
287.823	29.12
288.617	26.12
289.411	23.12
290.205	27.12
290.999	25.12
291.793	24.12
292.587	24.12
293.381	22.12
294.174	24.12
294.968	25.12
295.761	22.12
296.555	18.12
297.348	22.12
298.141	20.12
298.935	22.12
299.728	21.12
300.521	19.12
301.314	17.12
302.107	16.12
302.899	17.12
303.692	17.12
304.485	17.12
305.277	18.12
306.07	16.12
306.862	18.12
307.655	15.12
308.447	18.12
309.239	15.12
310.031	16.12
310.823	16.12
311.615	14.12
312.407	13.12
313.199	14.12
313.991	10.12
314.783	11.12
315.574	12.12
316.366	10.12
317.157	13.12
317.949	11.12
318.74	11.12
319.531	9.12
320.322	11.12
321.113	12.12
321.904	9.12
322.695	10.12
323.486	11.12
324.277	10.12
325.068	11.12
325.858	11.12
326.649	11.12
327.439	9.12
328.23	8.12
329.02	11.12
329.81	8.12
330.6	10.12
331.391	13.12
332.181	9.12
332.971	8.12
333.76	9.12
334.55	8.12
335.34	8.12
336.13	9.12
336.919	7.12
337.709	9.12
338.498	7.12
339.287	9.12
340.077	10.12
340.866	5.12
341.655	9.12
342.444	4.12
343.233	7.12
344.022	8.12
344.811	8.12
345.6	10.12
346.388	6.12
347.177	7.12
347.965	10.12
348.754	9.12
349.542	9.12
350.33	10.12
351.119	10.12
351.907	8.12
352.695	10.12
353.483	7.12
354.271	6.12
355.059	6.12
355.846	7.12
356.634	7.12
357.422	8.12
358.209	8.12
358.997	8.12
359.784	7.12
360.571	9.12
361.359	6.12
362.146	8.12
362.933	7.12
363.72	8.12
364.507	8.12
365.294	8.12
366.081	8.12
366.867	7.12
367.654	5.12
368.44	7.12
369.227	8.12
370.013	8.12
370.8	6.12
371.586	8.12
372.372	4.12
373.158	9.12
373.944	8.12
374.73	8.12
375.516	7.12
376.302	5.12
377.088	6.12
377.873	5.12
378.659	9.12
379.445	8.12
380.23	6.12
381.015	7.12
381.801	6.12
382.586	10.12
383.371	8.12
384.156	9.12
384.941	8.12
385.726	6.12
386.511	6.12
387.296	7.12
388.08	5.12
388.865	7.12
389.649	5.12
390.434	10.12
391.218	10.12
392.003	10.12
392.787	6.12
393.571	8.12
394.355	8.12
395.139	8.12
395.923	9.12
396.707	9.12
397.491	9.12
398.274	9.12
399.058	9.12
399.842	10.12
400.625	8.12
401.408	12.12
402.192	9.12
402.975	10.12
403.758	10.12
404.541	9.12
405.324	11.12
406.107	12.12
406.89	9.12
407.673	12.12
408.456	8.12
409.238	13.12
410.021	13.12
410.803	14.12
411.586	13.12
412.368	11.12
413.151	12.12
413.933	12.12
414.715	14.12
415.497	12.12
416.279	12.12
417.061	12.12
417.843	13.12
418.624	15.12
419.406	10.12
420.188	14.12
420.969	16.12
421.751	16.12
422.532	14.12
423.313	14.12
424.095	16.12
424.876	15.12
425.657	16.12
426.438	16.12
427.219	18.12
428	20.12
428.78	17.12
429.561	20.12
430.342	23.12
431.122	21.12
431.903	22.12
432.683	23.12
433.464	22.12
434.244	23.12
435.024	24.12
435.804	25.12
436.584	30.12
437.364	32.12
438.144	28.12
438.924	28.12
439.704	31.12
440.483	33.12
441.263	35.12
442.042	36.12
442.822	39.12
443.601	43.12
444.38	43.12
445.16	48.12
445.939	53.12
446.718	54.12
447.497	57.12
448.276	62.12
449.054	66.12
449.833	75.12
450.612	82.12
451.391	81.12
452.169	96.12
452.948	105.12
453.726	117.12
454.504	122.12
455.282	138.12
456.061	157.12
456.839	171.12
457.617	194.12
458.395	213.12
459.172	234.12
459.95	267.12
460.728	290.12
461.506	324.12
462.283	365.12
463.061	414.12
463.838	466.12
464.615	517.12
465.393	576.12
466.17	641.12
466.947	722.12
467.724	798.12
468.501	906.12
469.278	1011.12
470.055	1102.12
470.831	1241.12
471.608	1391.12
472.385	1557.12
473.161	1712.12
473.938	1917.12
474.714	2124.12
475.49	2329.12
476.266	2623.12
477.043	2897.12
477.819	3202.12
478.595	3563.12
479.371	3950.12
480.146	4355.12
480.922	4777.12
481.698	5277.12
482.473	5844.12
483.249	6416.12
484.024	7076.12
484.8	7790.12
485.575	8549.12
486.35	9393.12
487.126	10331.12
487.901	11282.12
488.676	12428.12
489.451	13534.12
490.225	14710.12
491	16047.12
491.775	17449.12
492.55	18921.12
493.324	20350.12
494.099	21906.12
494.873	23386.12
495.647	24953.12
496.422	26472.12
497.196	28078.12
497.97	29800.12
498.744	31301.12
499.518	32801.12
500.292	33964.12
501.066	35001.12
501.839	36040.12
502.613	36818.12
503.387	37422.12
504.16	37730.12
504.934	37914.12
505.707	37656.12
506.48	37183.12
507.253	36585.12
508.027	35995.12
508.8	35117.12
509.573	34144.12
510.346	33061.12
511.118	31876.12
511.891	30735.12
512.664	29394.12
513.437	28131.12
514.209	26875.12
514.982	25830.12
515.754	24679.12
516.526	23590.12
517.298	22578.12
518.071	21565.12
518.843	20714.12
519.615	19867.12
520.387	19054.12
521.159	18354.12
521.93	17678.12
522.702	16967.12
523.474	16256.12
524.245	15622.12
525.017	14857.12
525.788	14147.12
526.56	13525.12
527.331	12864.12
528.102	12224.12
528.873	11571.12
529.644	11078.12
530.415	10470.12
531.186	9941.12
531.957	9396.12
532.728	8869.12
533.498	8361.12
534.269	7910.12
535.039	7457.12
535.81	7043.12
536.58	6646.12
537.351	6269.12
538.121	5929.12
538.891	5616.12
539.661	5311.12
540.431	5034.12
541.201	4788.12
541.971	4534.12
542.741	4282.12
543.51	4087.12
544.28	3880.12
545.05	3672.12
545.819	3501.12
546.588	3343.12
547.358	3149.12
548.127	2990.12
548.896	2834.12
549.665	2685.12
550.434	2551.12
551.203	2403.12
551.972	2263.12
552.741	2160.12
553.51	2047.12
554.278	1898.12
555.047	1812.12
555.815	1698.12
556.584	1599.12
557.352	1514.12
558.121	1433.12
558.889	1358.12
559.657	1275.12
560.425	1202.12
561.193	1143.12
561.961	1077.12
562.729	1017.12
563.496	966.12
564.264	911.12
565.032	857.12
565.799	814.12
566.567	769.12
567.334	727.12
568.101	683.12
568.869	652.12
569.636	607.12
570.403	590.12
571.17	546.12
571.937	514.12
572.704	482.12
573.471	457.12
574.237	434.12
575.004	406.12
575.771	382.12
576.537	354.12
577.303	334.12
578.07	322.12
578.836	304.12
579.602	285.12
580.368	266.12
581.134	263.12
581.9	245.12
582.666	226.12
583.432	225.12
584.198	212.12
584.964	197.12
585.729	188.12
586.495	173.12
587.26	169.12
588.025	161.12
588.791	154.12
589.556	148.12
590.321	134.12
591.086	134.12
591.851	127.12
592.616	120.12
593.381	112.12
594.146	109.12
594.911	103.12
595.675	96.12
596.44	94.12
597.204	91.12
597.969	86.12
598.733	81.12
599.497	80.12
600.261	73.12
601.025	69.12
601.79	68.12
602.553	66.12
603.317	61.12
604.081	61.12
604.845	57.12
605.609	52.12
606.372	58.12
607.136	53.12
607.899	49.12
608.662	47.12
609.426	50.12
610.189	41.12
610.952	41.12
611.715	41.12
612.478	40.12
613.241	38.12
614.004	34.12
614.767	35.12
615.529	32.12
616.292	32.12
617.055	32.12
617.817	28.12
618.579	29.12
619.342	28.12
620.104	28.12
620.866	27.12
621.628	27.12
622.39	25.12
623.152	24.12
623.914	23.12
624.676	21.12
625.438	24.12
626.199	20.12
626.961	20.12
627.722	20.12
628.484	22.12
629.245	18.12
630.006	20.12
630.768	20.12
631.529	17.12
632.29	16.12
633.051	18.12
633.812	13.12
634.573	16.12
635.333	16.12
636.094	16.12
636.855	14.12
637.615	14.12
638.376	12.12
639.136	9.12
639.896	12.12
640.657	16.12
641.417	14.12
642.177	11.12
642.937	11.12
643.697	11.12
644.457	12.12
645.216	10.12
645.976	10.12
646.736	10.12
647.495	12.12
648.255	10.12
649.014	8.12
649.774	9.12
650.533	9.12
651.292	11.12
652.051	8.12
652.81	8.12
653.569	10.12
654.328	9.12
655.087	10.12
655.846	9.12
656.604	10.12
657.363	7.12
658.121	9.12
658.88	8.12
659.638	9.12
660.397	8.12
661.155	9.12
661.913	10.12
662.671	6.12
663.429	8.12
664.187	7.12
664.945	6.12
665.703	8.12
666.46	5.12
667.218	4.12
667.976	8.12
668.733	7.12
669.49	5.12
670.248	6.12
671.005	6.12
671.762	6.12
672.519	6.12
673.276	8.12
674.033	6.12
674.79	7.12
675.547	4.12
676.304	5.12
677.06	7.12
677.817	4.12
678.574	7.12
679.33	5.12
680.086	6.12
680.843	5.12
681.599	6.12
682.355	5.12
683.111	4.12
683.867	9.12
684.623	7.12
685.379	7.12
686.135	7.12
686.89	4.12
687.646	6.12
688.402	4.12
689.157	6.12
689.912	7.12
690.668	5.12
691.423	5.12
692.178	5.12
692.933	5.12
693.688	7.12
694.443	6.12
695.198	5.12
695.953	4.12
696.708	5.12
697.462	5.12
698.217	6.12
698.972	4.12
699.726	3.12
700.48	5.12
701.235	3.12
701.989	5.12
702.743	4.12
703.497	2.12
704.251	5.12
705.005	4.12
705.759	7.12
706.513	6.12
707.266	6.12
708.02	6.12
708.774	5.12
709.527	7.12
710.28	5.12
711.034	1.12
711.787	3.12
712.54	7.12
713.293	4.12
714.046	3.12
714.799	7.12
715.552	5.12
716.305	6.12
717.058	4.12
717.81	4.12
718.563	4.12
719.315	6.12
720.068	5.12
720.82	6.12
721.573	7.12
722.325	4.12
723.077	5.12
723.829	6.12
724.581	7.12
725.333	5.12
726.085	4.12
726.836	7.12
727.588	5.12
728.34	4.12
729.091	7.12
729.843	6.12
730.594	6.12
731.346	4.12
732.097	5.12
732.848	8.12
733.599	7.12
734.35	8.12
735.101	5.12
735.852	6.12
736.603	9.12
737.354	9.12
738.104	6.12
738.855	7.12
739.605	7.12
740.356	6.12
741.106	7.12
741.856	8.12
742.607	7.12
743.357	7.12
744.107	7.12
744.857	6.12
745.607	7.12
746.357	7.12
747.106	8.12
747.856	4.12
748.606	7.12
749.355	10.12
750.105	8.12
750.854	11.12
751.603	8.12
752.353	10.12
753.102	7.12
753.851	10.12
754.6	10.12
755.349	10.12
756.098	8.12
756.847	7.12
757.595	9.12
758.344	4.12
759.093	9.12
759.841	10.12
760.589	9.12
761.338	9.12
762.086	7.12
762.834	10.12
763.582	10.12
764.331	11.12
765.079	10.12
765.826	9.12
766.574	10.12
767.322	9.12
768.07	10.12
768.817	9.12
769.565	13.12
770.312	10.12
771.06	10.12
771.807	12.12
772.554	8.12
773.302	11.12
774.049	12.12
774.796	12.12
775.543	11.12
776.29	10.12
777.036	9.12
777.783	16.12
778.53	14.12
779.276	15.12
780.023	12.12
780.769	12.12
781.516	12.12
782.262	12.12
783.008	12.12
783.754	12.12
784.5	11.12
785.246	12.12
785.992	13.12
786.738	14.12
787.484	13.12
788.23	10.12
788.975	12.12
789.721	12.12
790.466	12.12
791.212	14.12
791.957	12.12
792.702	12.12
793.447	11.12
794.193	10.12
794.938	10.12
795.683	10.12
796.427	13.12
797.172	10.12
797.917	10.12
798.662	9.12
799.406	10.12
800.151	9.12
800.895	9.12
801.64	8.12
802.384	9.12
803.128	9.12
803.872	8.12
804.616	8.12
805.36	8.12
806.104	9.12
806.848	7.12
807.592	8.12
808.336	7.12
809.079	4.12
809.823	7.12
810.566	7.12
811.31	8.12
812.053	6.12
812.796	7.12
813.539	6.12
814.283	10.12
815.026	7.12
815.769	7.12
816.511	5.12
817.254	6.12
817.997	7.12
818.74	7.12
819.482	7.12
820.225	7.12
820.967	6.12
821.71	5.12
822.452	4.12
823.194	7.12
823.936	4.12
824.678	3.12
825.42	4.12
826.162	7.12
826.904	5.12
827.646	5.12
828.388	2.12
829.129	7.12
829.871	2.12
830.612	6.12
831.354	5.12
832.095	4.12
832.836	4.12
833.577	5.12
834.319	5.12
835.06	4.12
835.801	5.12
836.542	5.12
837.282	3.12
838.023	4.12
838.764	6.12
839.504	2.12
840.245	4.12
840.985	4.12
841.726	2.12
842.466	5.12
843.206	4.12
843.946	5.12
844.687	4.12
845.427	1.12
846.166	2.12
846.906	3.12
847.646	5.12
848.386	4.12
849.125	3.12
849.865	3.12
850.605	3.12
851.344	4.12
852.083	5.12
852.823	5.12
853.562	3.12
854.301	2.12
855.04	3.12
855.779	4.12
856.518	4.12
857.257	2.12
857.995	4.12
858.734	1.12
859.473	5.12
860.211	5.12
860.95	1.12
861.688	4.12
862.426	2.12
863.165	2.12
863.903	2.12
864.641	1.12
865.379	3.12
866.117	2.12
866.855	3.12
867.593	4.12
868.33	0.12
869.068	4.12
869.806	1.12
870.543	2.12
871.28	-0.88
872.018	1.12
872.755	1.12
873.492	0.12
874.229	2.12
874.967	1.12
875.703	2.12
876.44	2.12
877.177	0.12
877.914	2.12
878.651	3.12
879.387	3.12
880.124	3.12
880.86	0.12
881.597	1.12
882.333	2.12
883.069	2.12
883.806	2.12
884.542	3.12
885.278	3.12
886.014	1.12
886.749	1.12
887.485	0.12
888.221	0.12
888.957	3.12
889.692	1.12
890.428	0.12
891.163	1.12
891.899	0.12
892.634	-0.88
893.369	2.12
894.104	1.12
894.839	3.12
895.574	0.12
896.309	0.12
897.044	1.12
897.779	-1.88
898.514	0.12
899.248	1.12
899.983	0.12
900.717	1.12
901.452	1.12
902.186	0.12
902.92	0.12
903.654	1.12
904.389	3.12
905.123	0.12
905.857	1.12
906.59	2.12
907.324	1.12
908.058	1.12
908.792	-0.88
909.525	2.12
910.259	0.12
910.992	1.12
911.726	0.12
912.459	0.12
913.192	1.12
913.925	0.12
914.658	1.12
915.391	-0.88
916.124	2.12
916.857	-1.88
917.59	3.12
918.323	-0.88
919.055	1.12
919.788	1.12
920.521	-1.88
921.253	0.12
921.985	0.12
922.718	0.12
923.45	0.12
924.182	0.12
924.914	1.12
925.646	-0.88
926.378	1.12
927.11	-0.88
927.841	-1.88
928.573	-0.88
929.305	-0.88
930.036	-0.88
930.768	1.12
931.499	-1.88
932.23	0.12
932.962	-1.88
933.693	1.12
934.424	2.12
935.155	0.12
935.886	1.12
936.617	-0.88
937.348	0.12
938.078	0.12
938.809	0.12
939.54	0.12
940.27	-3.88
941.001	1.12
941.731	0.12
942.461	1.12
943.191	1.12
943.922	0.12
944.652	-0.88
945.382	0.12
946.112	1.12
946.841	0.12
947.571	1.12
948.301	1.12
949.031	0.12
949.76	1.12
950.49	0.12
951.219	-1.88
951.948	0.12
952.678	-0.88
953.407	0.12
954.136	0.12
954.865	1.12
955.594	0.12
956.323	-0.88
957.052	1.12
957.78	1.12
958.509	-0.88
959.238	0.12
959.966	1.12
960.695	2.12
961.423	-0.88
962.151	2.12
962.88	0.12
963.608	-0.88
964.336	2.12
965.064	1.12
965.792	1.12
966.52	-0.88
967.247	-0.88
967.975	-1.88
968.703	2.12
969.43	-0.88
970.158	0.12
970.885	0.12
971.613	-0.88
972.34	1.12
973.067	0.12
973.794	0.12
974.521	0.12
975.248	1.12
975.975	1.12
976.702	0.12
977.429	1.12
978.156	0.12
978.882	1.12
979.609	2.12
980.335	-0.88
981.062	0.12
981.788	-1.88
982.514	2.12
983.24	0.12
983.967	-0.88
984.693	0.12
985.419	-1.88
986.144	1.12
986.87	0.12
987.596	0.12
988.322	1.12
989.047	-0.88
989.773	3.12
990.498	0.12
991.224	-0.88
991.949	0.12
992.674	3.12
993.399	-0.88
994.124	-1.88
994.849	0.12
995.574	1.12
996.299	1.12
997.024	0.12
997.749	1.12
998.473	1.12
999.198	1.12
999.922	1.12
1000.647	1.12
1001.371	3.12
1002.095	0.12
1002.82	0.12
1003.544	-3.88
1004.268	5.12
1004.992	3.12
1005.716	2.12
1006.439	2.12
1007.163	4.12
1007.887	3.12
1008.611	-1.88
1009.334	0.12
1010.058	-1.88
1010.781	-1.88
1011.504	-0.88
1012.228	1.12
1012.951	1.12
1013.674	-0.88
1014.397	0.12
1015.12	0.12
