节点500_425_QEPB04081__37__15-48-56-425.txt的数据

Date: Wed Nov 12 15:48:56 CST 2025
User: PC
Spectrometer: QEPB0408
触发模式: 0
积分时间 (秒): 1.000000E-2
Scans to average: 1
启用暗噪声校正: true
启用非线性校正: false
滑动平均宽度: 0
X轴模式: Wavelengths
Number of Pixels in Spectrum: 1044
>>>>>Begin Spectral Data<<<<<
220.843	3.38
221.644	0.38
222.444	2.38
223.244	2.38
224.045	2.38
224.845	6.38
225.645	5.38
226.445	2.38
227.245	2.38
228.045	4.38
228.845	4.38
229.645	7.38
230.444	4.38
231.244	2.38
232.043	4.38
232.843	4.38
233.642	7.38
234.442	6.38
235.241	5.38
236.04	4.38
236.839	5.38
237.638	6.38
238.437	5.38
239.236	7.38
240.035	5.38
240.833	5.38
241.632	7.38
242.43	8.38
243.229	10.38
244.027	9.38
244.826	8.38
245.624	7.38
246.422	8.38
247.22	10.38
248.018	6.38
248.816	9.38
249.614	11.38
250.412	9.38
251.21	10.38
252.007	11.38
252.805	10.38
253.602	11.38
254.4	12.38
255.197	13.38
255.994	12.38
256.791	17.38
257.589	13.38
258.386	14.38
259.183	16.38
259.979	14.38
260.776	16.38
261.573	16.38
262.37	14.38
263.166	16.38
263.963	19.38
264.759	20.38
265.556	18.38
266.352	21.38
267.148	21.38
267.944	21.38
268.74	22.38
269.536	21.38
270.332	23.38
271.128	19.38
271.924	23.38
272.719	25.38
273.515	24.38
274.311	26.38
275.106	25.38
275.901	26.38
276.697	23.38
277.492	27.38
278.287	25.38
279.082	23.38
279.877	30.38
280.672	26.38
281.467	27.38
282.262	26.38
283.056	27.38
283.851	25.38
284.646	25.38
285.44	26.38
286.234	27.38
287.029	27.38
287.823	27.38
288.617	26.38
289.411	22.38
290.205	24.38
290.999	24.38
291.793	24.38
292.587	25.38
293.381	23.38
294.174	23.38
294.968	21.38
295.761	20.38
296.555	21.38
297.348	18.38
298.141	22.38
298.935	19.38
299.728	21.38
300.521	17.38
301.314	17.38
302.107	17.38
302.899	16.38
303.692	18.38
304.485	18.38
305.277	16.38
306.07	17.38
306.862	17.38
307.655	14.38
308.447	16.38
309.239	15.38
310.031	13.38
310.823	16.38
311.615	13.38
312.407	14.38
313.199	8.38
313.991	14.38
314.783	10.38
315.574	12.38
316.366	12.38
317.157	13.38
317.949	9.38
318.74	12.38
319.531	12.38
320.322	11.38
321.113	11.38
321.904	9.38
322.695	8.38
323.486	9.38
324.277	8.38
325.068	11.38
325.858	10.38
326.649	8.38
327.439	10.38
328.23	8.38
329.02	10.38
329.81	10.38
330.6	8.38
331.391	10.38
332.181	8.38
332.971	10.38
333.76	6.38
334.55	10.38
335.34	9.38
336.13	10.38
336.919	7.38
337.709	7.38
338.498	11.38
339.287	7.38
340.077	8.38
340.866	7.38
341.655	8.38
342.444	8.38
343.233	10.38
344.022	6.38
344.811	8.38
345.6	8.38
346.388	8.38
347.177	9.38
347.965	6.38
348.754	8.38
349.542	9.38
350.33	7.38
351.119	11.38
351.907	8.38
352.695	5.38
353.483	8.38
354.271	7.38
355.059	7.38
355.846	8.38
356.634	8.38
357.422	8.38
358.209	7.38
358.997	6.38
359.784	6.38
360.571	8.38
361.359	8.38
362.146	6.38
362.933	8.38
363.72	6.38
364.507	7.38
365.294	6.38
366.081	7.38
366.867	7.38
367.654	7.38
368.44	7.38
369.227	7.38
370.013	7.38
370.8	6.38
371.586	7.38
372.372	7.38
373.158	7.38
373.944	5.38
374.73	6.38
375.516	7.38
376.302	5.38
377.088	8.38
377.873	8.38
378.659	7.38
379.445	7.38
380.23	5.38
381.015	7.38
381.801	8.38
382.586	6.38
383.371	6.38
384.156	5.38
384.941	9.38
385.726	8.38
386.511	7.38
387.296	8.38
388.08	5.38
388.865	9.38
389.649	9.38
390.434	7.38
391.218	8.38
392.003	9.38
392.787	10.38
393.571	9.38
394.355	7.38
395.139	10.38
395.923	8.38
396.707	11.38
397.491	8.38
398.274	7.38
399.058	9.38
399.842	10.38
400.625	12.38
401.408	10.38
402.192	8.38
402.975	10.38
403.758	8.38
404.541	10.38
405.324	9.38
406.107	9.38
406.89	9.38
407.673	11.38
408.456	9.38
409.238	12.38
410.021	10.38
410.803	12.38
411.586	11.38
412.368	11.38
413.151	13.38
413.933	12.38
414.715	13.38
415.497	11.38
416.279	10.38
417.061	14.38
417.843	13.38
418.624	16.38
419.406	13.38
420.188	16.38
420.969	12.38
421.751	14.38
422.532	14.38
423.313	15.38
424.095	17.38
424.876	15.38
425.657	17.38
426.438	18.38
427.219	16.38
428	17.38
428.78	17.38
429.561	18.38
430.342	19.38
431.122	19.38
431.903	21.38
432.683	21.38
433.464	24.38
434.244	23.38
435.024	23.38
435.804	27.38
436.584	26.38
437.364	29.38
438.144	29.38
438.924	29.38
439.704	34.38
440.483	31.38
441.263	34.38
442.042	38.38
442.822	41.38
443.601	42.38
444.38	47.38
445.16	47.38
445.939	51.38
446.718	51.38
447.497	57.38
448.276	61.38
449.054	66.38
449.833	69.38
450.612	82.38
451.391	85.38
452.169	93.38
452.948	100.38
453.726	109.38
454.504	126.38
455.282	140.38
456.061	152.38
456.839	172.38
457.617	192.38
458.395	211.38
459.172	235.38
459.95	267.38
460.728	296.38
461.506	326.38
462.283	365.38
463.061	413.38
463.838	467.38
464.615	500.38
465.393	582.38
466.17	633.38
466.947	719.38
467.724	805.38
468.501	901.38
469.278	1009.38
470.055	1112.38
470.831	1235.38
471.608	1374.38
472.385	1547.38
473.161	1719.38
473.938	1898.38
474.714	2128.38
475.49	2377.38
476.266	2601.38
477.043	2887.38
477.819	3187.38
478.595	3542.38
479.371	3925.38
480.146	4330.38
480.922	4759.38
481.698	5332.38
482.473	5838.38
483.249	6462.38
484.024	7119.38
484.8	7868.38
485.575	8544.38
486.35	9447.38
487.126	10394.38
487.901	11344.38
488.676	12464.38
489.451	13575.38
490.225	14800.38
491	16157.38
491.775	17611.38
492.55	18995.38
493.324	20425.38
494.099	22012.38
494.873	23499.38
495.647	25113.38
496.422	26651.38
497.196	28303.38
497.97	30014.38
498.744	31492.38
499.518	32849.38
500.292	34184.38
501.066	35188.38
501.839	36277.38
502.613	37072.38
503.387	37481.38
504.16	37881.38
504.934	37901.38
505.707	37764.38
506.48	37183.38
507.253	36716.38
508.027	36033.38
508.8	35152.38
509.573	34110.38
510.346	32977.38
511.118	31874.38
511.891	30688.38
512.664	29337.38
513.437	28074.38
514.209	26887.38
514.982	25723.38
515.754	24660.38
516.526	23501.38
517.298	22521.38
518.071	21496.38
518.843	20633.38
519.615	19843.38
520.387	19006.38
521.159	18320.38
521.93	17627.38
522.702	16903.38
523.474	16272.38
524.245	15544.38
525.017	14808.38
525.788	14096.38
526.56	13446.38
527.331	12786.38
528.102	12154.38
528.873	11586.38
529.644	10955.38
530.415	10449.38
531.186	9914.38
531.957	9382.38
532.728	8854.38
533.498	8331.38
534.269	7866.38
535.039	7456.38
535.81	7003.38
536.58	6603.38
537.351	6207.38
538.121	5901.38
538.891	5596.38
539.661	5309.38
540.431	5038.38
541.201	4746.38
541.971	4506.38
542.741	4251.38
543.51	4036.38
544.28	3866.38
545.05	3711.38
545.819	3491.38
546.588	3314.38
547.358	3139.38
548.127	2979.38
548.896	2826.38
549.665	2675.38
550.434	2539.38
551.203	2398.38
551.972	2283.38
552.741	2139.38
553.51	2021.38
554.278	1918.38
555.047	1783.38
555.815	1711.38
556.584	1610.38
557.352	1512.38
558.121	1426.38
558.889	1338.38
559.657	1284.38
560.425	1194.38
561.193	1129.38
561.961	1071.38
562.729	1017.38
563.496	957.38
564.264	915.38
565.032	844.38
565.799	813.38
566.567	773.38
567.334	732.38
568.101	685.38
568.869	653.38
569.636	605.38
570.403	571.38
571.17	541.38
571.937	510.38
572.704	484.38
573.471	456.38
574.237	433.38
575.004	400.38
575.771	383.38
576.537	356.38
577.303	335.38
578.07	321.38
578.836	300.38
579.602	281.38
580.368	268.38
581.134	260.38
581.9	247.38
582.666	227.38
583.432	216.38
584.198	208.38
584.964	197.38
585.729	191.38
586.495	177.38
587.26	166.38
588.025	157.38
588.791	151.38
589.556	140.38
590.321	135.38
591.086	129.38
591.851	123.38
592.616	120.38
593.381	110.38
594.146	102.38
594.911	100.38
595.675	98.38
596.44	94.38
597.204	83.38
597.969	88.38
598.733	85.38
599.497	80.38
600.261	78.38
601.025	67.38
601.79	66.38
602.553	63.38
603.317	64.38
604.081	60.38
604.845	58.38
605.609	52.38
606.372	53.38
607.136	54.38
607.899	47.38
608.662	47.38
609.426	46.38
610.189	42.38
610.952	42.38
611.715	41.38
612.478	39.38
613.241	36.38
614.004	35.38
614.767	37.38
615.529	34.38
616.292	30.38
617.055	30.38
617.817	31.38
618.579	31.38
619.342	29.38
620.104	28.38
620.866	26.38
621.628	26.38
622.39	29.38
623.152	23.38
623.914	20.38
624.676	23.38
625.438	23.38
626.199	20.38
626.961	21.38
627.722	22.38
628.484	20.38
629.245	18.38
630.006	18.38
630.768	18.38
631.529	19.38
632.29	17.38
633.051	18.38
633.812	18.38
634.573	17.38
635.333	14.38
636.094	13.38
636.855	14.38
637.615	12.38
638.376	14.38
639.136	13.38
639.896	12.38
640.657	12.38
641.417	11.38
642.177	10.38
642.937	11.38
643.697	11.38
644.457	9.38
645.216	11.38
645.976	12.38
646.736	9.38
647.495	9.38
648.255	11.38
649.014	10.38
649.774	11.38
650.533	8.38
651.292	10.38
652.051	8.38
652.81	8.38
653.569	8.38
654.328	7.38
655.087	12.38
655.846	9.38
656.604	7.38
657.363	8.38
658.121	6.38
658.88	9.38
659.638	6.38
660.397	10.38
661.155	5.38
661.913	7.38
662.671	6.38
663.429	7.38
664.187	9.38
664.945	7.38
665.703	7.38
666.46	8.38
667.218	8.38
667.976	7.38
668.733	6.38
669.49	7.38
670.248	6.38
671.005	6.38
671.762	5.38
672.519	7.38
673.276	4.38
674.033	4.38
674.79	5.38
675.547	5.38
676.304	5.38
677.06	6.38
677.817	4.38
678.574	3.38
679.33	5.38
680.086	5.38
680.843	6.38
681.599	5.38
682.355	6.38
683.111	6.38
683.867	6.38
684.623	3.38
685.379	7.38
686.135	4.38
686.89	6.38
687.646	7.38
688.402	2.38
689.157	2.38
689.912	5.38
690.668	3.38
691.423	6.38
692.178	3.38
692.933	6.38
693.688	5.38
694.443	5.38
695.198	6.38
695.953	4.38
696.708	6.38
697.462	5.38
698.217	4.38
698.972	5.38
699.726	6.38
700.48	7.38
701.235	5.38
701.989	3.38
702.743	3.38
703.497	4.38
704.251	4.38
705.005	4.38
705.759	7.38
706.513	6.38
707.266	3.38
708.02	4.38
708.774	5.38
709.527	4.38
710.28	4.38
711.034	4.38
711.787	6.38
712.54	4.38
713.293	3.38
714.046	5.38
714.799	4.38
715.552	4.38
716.305	4.38
717.058	6.38
717.81	8.38
718.563	6.38
719.315	4.38
720.068	4.38
720.82	5.38
721.573	8.38
722.325	3.38
723.077	2.38
723.829	6.38
724.581	3.38
725.333	5.38
726.085	7.38
726.836	5.38
727.588	6.38
728.34	6.38
729.091	6.38
729.843	6.38
730.594	4.38
731.346	5.38
732.097	4.38
732.848	5.38
733.599	5.38
734.35	6.38
735.101	5.38
735.852	6.38
736.603	8.38
737.354	5.38
738.104	7.38
738.855	6.38
739.605	6.38
740.356	7.38
741.106	9.38
741.856	6.38
742.607	5.38
743.357	8.38
744.107	6.38
744.857	7.38
745.607	8.38
746.357	7.38
747.106	7.38
747.856	7.38
748.606	5.38
749.355	6.38
750.105	6.38
750.854	8.38
751.603	9.38
752.353	10.38
753.102	5.38
753.851	8.38
754.6	10.38
755.349	9.38
756.098	8.38
756.847	8.38
757.595	9.38
758.344	7.38
759.093	10.38
759.841	8.38
760.589	8.38
761.338	10.38
762.086	9.38
762.834	11.38
763.582	12.38
764.331	8.38
765.079	10.38
765.826	8.38
766.574	11.38
767.322	11.38
768.07	12.38
768.817	10.38
769.565	10.38
770.312	11.38
771.06	8.38
771.807	10.38
772.554	9.38
773.302	12.38
774.049	11.38
774.796	11.38
775.543	12.38
776.29	12.38
777.036	15.38
777.783	13.38
778.53	13.38
779.276	11.38
780.023	9.38
780.769	14.38
781.516	12.38
782.262	10.38
783.008	11.38
783.754	10.38
784.5	12.38
785.246	12.38
785.992	13.38
786.738	12.38
787.484	12.38
788.23	12.38
788.975	12.38
789.721	11.38
790.466	13.38
791.212	12.38
791.957	13.38
792.702	10.38
793.447	12.38
794.193	13.38
794.938	12.38
795.683	11.38
796.427	11.38
797.172	10.38
797.917	8.38
798.662	11.38
799.406	11.38
800.151	10.38
800.895	9.38
801.64	10.38
802.384	10.38
803.128	7.38
803.872	10.38
804.616	7.38
805.36	9.38
806.104	8.38
806.848	7.38
807.592	8.38
808.336	7.38
809.079	8.38
809.823	7.38
810.566	8.38
811.31	7.38
812.053	4.38
812.796	8.38
813.539	7.38
814.283	8.38
815.026	6.38
815.769	6.38
816.511	5.38
817.254	4.38
817.997	7.38
818.74	8.38
819.482	7.38
820.225	5.38
820.967	4.38
821.71	6.38
822.452	5.38
823.194	5.38
823.936	6.38
824.678	4.38
825.42	8.38
826.162	5.38
826.904	4.38
827.646	5.38
828.388	4.38
829.129	4.38
829.871	4.38
830.612	4.38
831.354	2.38
832.095	4.38
832.836	4.38
833.577	3.38
834.319	2.38
835.06	5.38
835.801	5.38
836.542	6.38
837.282	5.38
838.023	3.38
838.764	4.38
839.504	6.38
840.245	3.38
840.985	4.38
841.726	1.38
842.466	4.38
843.206	5.38
843.946	3.38
844.687	5.38
845.427	4.38
846.166	4.38
846.906	6.38
847.646	5.38
848.386	2.38
849.125	5.38
849.865	3.38
850.605	3.38
851.344	0.38
852.083	0.38
852.823	3.38
853.562	5.38
854.301	5.38
855.04	3.38
855.779	2.38
856.518	4.38
857.257	1.38
857.995	0.38
858.734	3.38
859.473	4.38
860.211	3.38
860.95	1.38
861.688	2.38
862.426	4.38
863.165	0.38
863.903	3.38
864.641	4.38
865.379	1.38
866.117	2.38
866.855	2.38
867.593	2.38
868.33	2.38
869.068	2.38
869.806	1.38
870.543	2.38
871.28	2.38
872.018	3.38
872.755	1.38
873.492	2.38
874.229	1.38
874.967	1.38
875.703	2.38
876.44	2.38
877.177	1.38
877.914	2.38
878.651	3.38
879.387	4.38
880.124	3.38
880.86	1.38
881.597	2.38
882.333	2.38
883.069	2.38
883.806	0.38
884.542	0.38
885.278	2.38
886.014	1.38
886.749	1.38
887.485	-1.62
888.221	1.38
888.957	2.38
889.692	0.38
890.428	1.38
891.163	1.38
891.899	1.38
892.634	0.38
893.369	1.38
894.104	1.38
894.839	0.38
895.574	2.38
896.309	1.38
897.044	1.38
897.779	-0.62
898.514	-0.62
899.248	1.38
899.983	0.38
900.717	1.38
901.452	0.38
902.186	0.38
902.92	3.38
903.654	0.38
904.389	1.38
905.123	-1.62
905.857	0.38
906.59	-0.62
907.324	1.38
908.058	2.38
908.792	-0.62
909.525	0.38
910.259	1.38
910.992	0.38
911.726	1.38
912.459	1.38
913.192	-0.62
913.925	-0.62
914.658	0.38
915.391	1.38
916.124	0.38
916.857	0.38
917.59	-0.62
918.323	2.38
919.055	2.38
919.788	0.38
920.521	0.38
921.253	-0.62
921.985	1.38
922.718	-2.62
923.45	-0.62
924.182	-0.62
924.914	2.38
925.646	1.38
926.378	-0.62
927.11	1.38
927.841	0.38
928.573	0.38
929.305	0.38
930.036	-0.62
930.768	0.38
931.499	-1.62
932.23	1.38
932.962	-0.62
933.693	2.38
934.424	1.38
935.155	2.38
935.886	1.38
936.617	-0.62
937.348	-1.62
938.078	-1.62
938.809	0.38
939.54	1.38
940.27	-1.62
941.001	1.38
941.731	-1.62
942.461	1.38
943.191	2.38
943.922	2.38
944.652	1.38
945.382	-1.62
946.112	-0.62
946.841	0.38
947.571	1.38
948.301	1.38
949.031	-0.62
949.76	2.38
950.49	0.38
951.219	-1.62
951.948	0.38
952.678	0.38
953.407	-0.62
954.136	0.38
954.865	2.38
955.594	0.38
956.323	0.38
957.052	-0.62
957.78	1.38
958.509	1.38
959.238	-2.62
959.966	1.38
960.695	2.38
961.423	-0.62
962.151	1.38
962.88	0.38
963.608	0.38
964.336	0.38
965.064	0.38
965.792	1.38
966.52	0.38
967.247	0.38
967.975	-0.62
968.703	1.38
969.43	1.38
970.158	1.38
970.885	2.38
971.613	0.38
972.34	0.38
973.067	0.38
973.794	0.38
974.521	1.38
975.248	0.38
975.975	0.38
976.702	-2.62
977.429	-0.62
978.156	0.38
978.882	2.38
979.609	0.38
980.335	1.38
981.062	2.38
981.788	-0.62
982.514	0.38
983.24	0.38
983.967	1.38
984.693	-0.62
985.419	0.38
986.144	1.38
986.87	1.38
987.596	-0.62
988.322	1.38
989.047	1.38
989.773	1.38
990.498	2.38
991.224	1.38
991.949	0.38
992.674	-1.62
993.399	1.38
994.124	0.38
994.849	0.38
995.574	0.38
996.299	1.38
997.024	0.38
997.749	1.38
998.473	2.38
999.198	-0.62
999.922	0.38
1000.647	0.38
1001.371	2.38
1002.095	-0.62
1002.82	-1.62
1003.544	-1.62
1004.268	2.38
1004.992	3.38
1005.716	-0.62
1006.439	4.38
1007.163	2.38
1007.887	1.38
1008.611	-1.62
1009.334	2.38
1010.058	0.38
1010.781	-0.62
1011.504	0.38
1012.228	0.38
1012.951	0.38
1013.674	0.38
1014.397	1.38
1015.12	-0.62
