节点500_425_QEPB04081__184__15-51-22-152.txt的数据

Date: Wed Nov 12 15:51:22 CST 2025
User: PC
Spectrometer: QEPB0408
触发模式: 0
积分时间 (秒): 1.000000E-2
Scans to average: 1
启用暗噪声校正: true
启用非线性校正: false
滑动平均宽度: 0
X轴模式: Wavelengths
Number of Pixels in Spectrum: 1044
>>>>>Begin Spectral Data<<<<<
220.843	4.88
221.644	3.88
222.444	1.88
223.244	2.88
224.045	5.88
224.845	5.88
225.645	3.88
226.445	5.88
227.245	5.88
228.045	5.88
228.845	4.88
229.645	4.88
230.444	6.88
231.244	7.88
232.043	4.88
232.843	5.88
233.642	7.88
234.442	7.88
235.241	5.88
236.04	6.88
236.839	6.88
237.638	7.88
238.437	6.88
239.236	5.88
240.035	7.88
240.833	7.88
241.632	6.88
242.43	7.88
243.229	7.88
244.027	9.88
244.826	5.88
245.624	8.88
246.422	9.88
247.22	10.88
248.018	9.88
248.816	8.88
249.614	8.88
250.412	9.88
251.21	11.88
252.007	11.88
252.805	8.88
253.602	11.88
254.4	11.88
255.197	10.88
255.994	12.88
256.791	11.88
257.589	14.88
258.386	13.88
259.183	12.88
259.979	15.88
260.776	14.88
261.573	18.88
262.37	14.88
263.166	16.88
263.963	17.88
264.759	17.88
265.556	22.88
266.352	17.88
267.148	19.88
267.944	20.88
268.74	19.88
269.536	20.88
270.332	20.88
271.128	22.88
271.924	21.88
272.719	21.88
273.515	22.88
274.311	24.88
275.106	25.88
275.901	24.88
276.697	23.88
277.492	23.88
278.287	25.88
279.082	23.88
279.877	24.88
280.672	27.88
281.467	23.88
282.262	25.88
283.056	24.88
283.851	25.88
284.646	26.88
285.44	24.88
286.234	24.88
287.029	22.88
287.823	25.88
288.617	25.88
289.411	28.88
290.205	24.88
290.999	23.88
291.793	24.88
292.587	21.88
293.381	26.88
294.174	22.88
294.968	21.88
295.761	20.88
296.555	19.88
297.348	19.88
298.141	17.88
298.935	19.88
299.728	18.88
300.521	19.88
301.314	18.88
302.107	18.88
302.899	17.88
303.692	18.88
304.485	16.88
305.277	18.88
306.07	17.88
306.862	16.88
307.655	16.88
308.447	16.88
309.239	16.88
310.031	15.88
310.823	13.88
311.615	15.88
312.407	12.88
313.199	13.88
313.991	12.88
314.783	11.88
315.574	11.88
316.366	11.88
317.157	12.88
317.949	9.88
318.74	10.88
319.531	10.88
320.322	12.88
321.113	9.88
321.904	9.88
322.695	10.88
323.486	8.88
324.277	11.88
325.068	7.88
325.858	8.88
326.649	10.88
327.439	9.88
328.23	7.88
329.02	8.88
329.81	8.88
330.6	7.88
331.391	9.88
332.181	8.88
332.971	8.88
333.76	10.88
334.55	10.88
335.34	11.88
336.13	8.88
336.919	7.88
337.709	9.88
338.498	7.88
339.287	9.88
340.077	10.88
340.866	11.88
341.655	7.88
342.444	9.88
343.233	9.88
344.022	7.88
344.811	7.88
345.6	8.88
346.388	8.88
347.177	9.88
347.965	8.88
348.754	9.88
349.542	7.88
350.33	9.88
351.119	8.88
351.907	8.88
352.695	10.88
353.483	10.88
354.271	8.88
355.059	8.88
355.846	7.88
356.634	10.88
357.422	8.88
358.209	6.88
358.997	8.88
359.784	8.88
360.571	8.88
361.359	9.88
362.146	8.88
362.933	4.88
363.72	8.88
364.507	5.88
365.294	6.88
366.081	8.88
366.867	8.88
367.654	6.88
368.44	8.88
369.227	7.88
370.013	8.88
370.8	5.88
371.586	8.88
372.372	6.88
373.158	6.88
373.944	7.88
374.73	5.88
375.516	7.88
376.302	7.88
377.088	8.88
377.873	7.88
378.659	7.88
379.445	7.88
380.23	6.88
381.015	7.88
381.801	5.88
382.586	7.88
383.371	7.88
384.156	9.88
384.941	7.88
385.726	6.88
386.511	8.88
387.296	7.88
388.08	7.88
388.865	9.88
389.649	7.88
390.434	8.88
391.218	5.88
392.003	10.88
392.787	9.88
393.571	8.88
394.355	7.88
395.139	9.88
395.923	10.88
396.707	8.88
397.491	8.88
398.274	9.88
399.058	8.88
399.842	8.88
400.625	8.88
401.408	7.88
402.192	10.88
402.975	9.88
403.758	10.88
404.541	9.88
405.324	8.88
406.107	9.88
406.89	12.88
407.673	12.88
408.456	12.88
409.238	11.88
410.021	8.88
410.803	11.88
411.586	11.88
412.368	12.88
413.151	11.88
413.933	11.88
414.715	12.88
415.497	10.88
416.279	14.88
417.061	13.88
417.843	12.88
418.624	12.88
419.406	13.88
420.188	13.88
420.969	15.88
421.751	15.88
422.532	14.88
423.313	13.88
424.095	18.88
424.876	16.88
425.657	16.88
426.438	15.88
427.219	20.88
428	15.88
428.78	19.88
429.561	19.88
430.342	18.88
431.122	21.88
431.903	22.88
432.683	20.88
433.464	22.88
434.244	24.88
435.024	24.88
435.804	22.88
436.584	26.88
437.364	26.88
438.144	29.88
438.924	31.88
439.704	31.88
440.483	32.88
441.263	37.88
442.042	37.88
442.822	38.88
443.601	42.88
444.38	41.88
445.16	50.88
445.939	50.88
446.718	57.88
447.497	60.88
448.276	65.88
449.054	67.88
449.833	78.88
450.612	83.88
451.391	94.88
452.169	101.88
452.948	109.88
453.726	122.88
454.504	138.88
455.282	146.88
456.061	166.88
456.839	180.88
457.617	201.88
458.395	217.88
459.172	251.88
459.95	281.88
460.728	306.88
461.506	347.88
462.283	386.88
463.061	437.88
463.838	485.88
464.615	550.88
465.393	607.88
466.17	686.88
466.947	755.88
467.724	836.88
468.501	925.88
469.278	1034.88
470.055	1152.88
470.831	1278.88
471.608	1427.88
472.385	1590.88
473.161	1768.88
473.938	1946.88
474.714	2151.88
475.49	2384.88
476.266	2613.88
477.043	2903.88
477.819	3204.88
478.595	3529.88
479.371	3894.88
480.146	4271.88
480.922	4684.88
481.698	5163.88
482.473	5697.88
483.249	6213.88
484.024	6815.88
484.8	7491.88
485.575	8224.88
486.35	8981.88
487.126	9824.88
487.901	10742.88
488.676	11708.88
489.451	12783.88
490.225	13867.88
491	15084.88
491.775	16389.88
492.55	17651.88
493.324	19027.88
494.099	20392.88
494.873	21766.88
495.647	23274.88
496.422	24775.88
497.196	26239.88
497.97	27799.88
498.744	29286.88
499.518	30655.88
500.292	31838.88
501.066	32972.88
501.839	34140.88
502.613	34988.88
503.387	35698.88
504.16	36043.88
504.934	36217.88
505.707	36190.88
506.48	36081.88
507.253	35701.88
508.027	35239.88
508.8	34632.88
509.573	33759.88
510.346	32847.88
511.118	31888.88
511.891	30704.88
512.664	29584.88
513.437	28294.88
514.209	27132.88
514.982	26086.88
515.754	25046.88
516.526	23908.88
517.298	22876.88
518.071	21879.88
518.843	21059.88
519.615	20182.88
520.387	19337.88
521.159	18572.88
521.93	17880.88
522.702	17228.88
523.474	16530.88
524.245	15901.88
525.017	15089.88
525.788	14493.88
526.56	13777.88
527.331	13085.88
528.102	12494.88
528.873	11895.88
529.644	11333.88
530.415	10768.88
531.186	10246.88
531.957	9687.88
532.728	9185.88
533.498	8663.88
534.269	8189.88
535.039	7749.88
535.81	7323.88
536.58	6915.88
537.351	6487.88
538.121	6147.88
538.891	5838.88
539.661	5544.88
540.431	5216.88
541.201	4955.88
541.971	4708.88
542.741	4456.88
543.51	4244.88
544.28	4044.88
545.05	3826.88
545.819	3641.88
546.588	3493.88
547.358	3282.88
548.127	3129.88
548.896	2956.88
549.665	2799.88
550.434	2659.88
551.203	2513.88
551.972	2367.88
552.741	2256.88
553.51	2134.88
554.278	1998.88
555.047	1874.88
555.815	1788.88
556.584	1680.88
557.352	1594.88
558.121	1500.88
558.889	1397.88
559.657	1342.88
560.425	1268.88
561.193	1189.88
561.961	1130.88
562.729	1058.88
563.496	1009.88
564.264	957.88
565.032	909.88
565.799	852.88
566.567	798.88
567.334	770.88
568.101	714.88
568.869	672.88
569.636	648.88
570.403	606.88
571.17	568.88
571.937	541.88
572.704	514.88
573.471	478.88
574.237	453.88
575.004	421.88
575.771	396.88
576.537	385.88
577.303	361.88
578.07	334.88
578.836	324.88
579.602	298.88
580.368	283.88
581.134	267.88
581.9	257.88
582.666	241.88
583.432	228.88
584.198	217.88
584.964	204.88
585.729	205.88
586.495	187.88
587.26	175.88
588.025	164.88
588.791	157.88
589.556	160.88
590.321	143.88
591.086	139.88
591.851	127.88
592.616	121.88
593.381	117.88
594.146	114.88
594.911	112.88
595.675	99.88
596.44	97.88
597.204	90.88
597.969	89.88
598.733	87.88
599.497	80.88
600.261	77.88
601.025	73.88
601.79	73.88
602.553	71.88
603.317	65.88
604.081	63.88
604.845	60.88
605.609	58.88
606.372	53.88
607.136	50.88
607.899	50.88
608.662	49.88
609.426	49.88
610.189	47.88
610.952	40.88
611.715	43.88
612.478	40.88
613.241	38.88
614.004	40.88
614.767	36.88
615.529	34.88
616.292	34.88
617.055	34.88
617.817	32.88
618.579	31.88
619.342	32.88
620.104	29.88
620.866	25.88
621.628	28.88
622.39	24.88
623.152	23.88
623.914	23.88
624.676	23.88
625.438	23.88
626.199	21.88
626.961	22.88
627.722	19.88
628.484	21.88
629.245	20.88
630.006	19.88
630.768	18.88
631.529	16.88
632.29	16.88
633.051	15.88
633.812	15.88
634.573	17.88
635.333	15.88
636.094	14.88
636.855	16.88
637.615	15.88
638.376	13.88
639.136	14.88
639.896	14.88
640.657	17.88
641.417	14.88
642.177	14.88
642.937	11.88
643.697	9.88
644.457	11.88
645.216	9.88
645.976	13.88
646.736	10.88
647.495	13.88
648.255	9.88
649.014	12.88
649.774	12.88
650.533	9.88
651.292	11.88
652.051	8.88
652.81	9.88
653.569	8.88
654.328	9.88
655.087	10.88
655.846	10.88
656.604	8.88
657.363	8.88
658.121	6.88
658.88	9.88
659.638	8.88
660.397	8.88
661.155	6.88
661.913	8.88
662.671	8.88
663.429	7.88
664.187	9.88
664.945	8.88
665.703	7.88
666.46	8.88
667.218	5.88
667.976	8.88
668.733	5.88
669.49	5.88
670.248	4.88
671.005	4.88
671.762	7.88
672.519	3.88
673.276	7.88
674.033	6.88
674.79	7.88
675.547	6.88
676.304	6.88
677.06	6.88
677.817	2.88
678.574	4.88
679.33	7.88
680.086	4.88
680.843	2.88
681.599	5.88
682.355	5.88
683.111	4.88
683.867	5.88
684.623	5.88
685.379	4.88
686.135	4.88
686.89	5.88
687.646	7.88
688.402	2.88
689.157	4.88
689.912	8.88
690.668	4.88
691.423	5.88
692.178	5.88
692.933	4.88
693.688	8.88
694.443	4.88
695.198	5.88
695.953	4.88
696.708	4.88
697.462	6.88
698.217	5.88
698.972	4.88
699.726	5.88
700.48	6.88
701.235	5.88
701.989	6.88
702.743	4.88
703.497	4.88
704.251	5.88
705.005	5.88
705.759	6.88
706.513	5.88
707.266	4.88
708.02	6.88
708.774	4.88
709.527	6.88
710.28	4.88
711.034	4.88
711.787	5.88
712.54	4.88
713.293	6.88
714.046	5.88
714.799	4.88
715.552	5.88
716.305	5.88
717.058	7.88
717.81	5.88
718.563	7.88
719.315	4.88
720.068	5.88
720.82	3.88
721.573	5.88
722.325	9.88
723.077	3.88
723.829	6.88
724.581	6.88
725.333	8.88
726.085	5.88
726.836	7.88
727.588	4.88
728.34	5.88
729.091	5.88
729.843	7.88
730.594	7.88
731.346	5.88
732.097	7.88
732.848	6.88
733.599	7.88
734.35	5.88
735.101	5.88
735.852	6.88
736.603	6.88
737.354	5.88
738.104	7.88
738.855	7.88
739.605	4.88
740.356	7.88
741.106	6.88
741.856	8.88
742.607	6.88
743.357	8.88
744.107	6.88
744.857	7.88
745.607	7.88
746.357	6.88
747.106	9.88
747.856	8.88
748.606	7.88
749.355	7.88
750.105	6.88
750.854	8.88
751.603	6.88
752.353	9.88
753.102	6.88
753.851	7.88
754.6	9.88
755.349	9.88
756.098	8.88
756.847	9.88
757.595	10.88
758.344	9.88
759.093	6.88
759.841	6.88
760.589	7.88
761.338	10.88
762.086	9.88
762.834	10.88
763.582	10.88
764.331	8.88
765.079	11.88
765.826	11.88
766.574	9.88
767.322	12.88
768.07	10.88
768.817	10.88
769.565	10.88
770.312	10.88
771.06	8.88
771.807	9.88
772.554	9.88
773.302	11.88
774.049	13.88
774.796	10.88
775.543	12.88
776.29	12.88
777.036	11.88
777.783	13.88
778.53	10.88
779.276	11.88
780.023	11.88
780.769	12.88
781.516	11.88
782.262	9.88
783.008	12.88
783.754	11.88
784.5	12.88
785.246	12.88
785.992	12.88
786.738	14.88
787.484	14.88
788.23	12.88
788.975	12.88
789.721	13.88
790.466	10.88
791.212	11.88
791.957	10.88
792.702	9.88
793.447	10.88
794.193	8.88
794.938	10.88
795.683	11.88
796.427	9.88
797.172	7.88
797.917	9.88
798.662	8.88
799.406	9.88
800.151	9.88
800.895	13.88
801.64	9.88
802.384	10.88
803.128	9.88
803.872	7.88
804.616	10.88
805.36	7.88
806.104	6.88
806.848	7.88
807.592	7.88
808.336	6.88
809.079	8.88
809.823	8.88
810.566	6.88
811.31	6.88
812.053	6.88
812.796	9.88
813.539	7.88
814.283	5.88
815.026	7.88
815.769	7.88
816.511	5.88
817.254	6.88
817.997	7.88
818.74	7.88
819.482	5.88
820.225	6.88
820.967	6.88
821.71	5.88
822.452	6.88
823.194	6.88
823.936	8.88
824.678	5.88
825.42	5.88
826.162	6.88
826.904	6.88
827.646	8.88
828.388	5.88
829.129	5.88
829.871	3.88
830.612	4.88
831.354	6.88
832.095	4.88
832.836	5.88
833.577	2.88
834.319	5.88
835.06	2.88
835.801	2.88
836.542	5.88
837.282	4.88
838.023	4.88
838.764	6.88
839.504	6.88
840.245	5.88
840.985	5.88
841.726	4.88
842.466	2.88
843.206	4.88
843.946	3.88
844.687	4.88
845.427	6.88
846.166	4.88
846.906	2.88
847.646	4.88
848.386	4.88
849.125	7.88
849.865	6.88
850.605	6.88
851.344	3.88
852.083	2.88
852.823	5.88
853.562	3.88
854.301	2.88
855.04	4.88
855.779	2.88
856.518	4.88
857.257	3.88
857.995	2.88
858.734	2.88
859.473	5.88
860.211	2.88
860.95	4.88
861.688	2.88
862.426	2.88
863.165	2.88
863.903	3.88
864.641	2.88
865.379	4.88
866.117	3.88
866.855	2.88
867.593	0.88
868.33	4.88
869.068	3.88
869.806	3.88
870.543	2.88
871.28	1.88
872.018	1.88
872.755	1.88
873.492	1.88
874.229	3.88
874.967	1.88
875.703	1.88
876.44	-0.12
877.177	2.88
877.914	-0.12
878.651	2.88
879.387	1.88
880.124	-0.12
880.86	2.88
881.597	0.88
882.333	1.88
883.069	2.88
883.806	1.88
884.542	3.88
885.278	2.88
886.014	2.88
886.749	2.88
887.485	1.88
888.221	2.88
888.957	0.88
889.692	2.88
890.428	0.88
891.163	0.88
891.899	-0.12
892.634	0.88
893.369	1.88
894.104	1.88
894.839	2.88
895.574	1.88
896.309	0.88
897.044	2.88
897.779	-0.12
898.514	1.88
899.248	1.88
899.983	0.88
900.717	0.88
901.452	-2.12
902.186	3.88
902.92	-0.12
903.654	3.88
904.389	-0.12
905.123	2.88
905.857	-0.12
906.59	1.88
907.324	0.88
908.058	0.88
908.792	-0.12
909.525	-0.12
910.259	-0.12
910.992	1.88
911.726	2.88
912.459	2.88
913.192	0.88
913.925	2.88
914.658	1.88
915.391	0.88
916.124	1.88
916.857	1.88
917.59	2.88
918.323	1.88
919.055	-0.12
919.788	-0.12
920.521	0.88
921.253	2.88
921.985	1.88
922.718	-1.12
923.45	0.88
924.182	2.88
924.914	1.88
925.646	0.88
926.378	2.88
927.11	0.88
927.841	0.88
928.573	0.88
929.305	0.88
930.036	1.88
930.768	0.88
931.499	1.88
932.23	2.88
932.962	-0.12
933.693	0.88
934.424	1.88
935.155	1.88
935.886	1.88
936.617	2.88
937.348	0.88
938.078	-1.12
938.809	1.88
939.54	-1.12
940.27	0.88
941.001	2.88
941.731	0.88
942.461	0.88
943.191	1.88
943.922	-0.12
944.652	1.88
945.382	1.88
946.112	0.88
946.841	-1.12
947.571	0.88
948.301	-1.12
949.031	1.88
949.76	1.88
950.49	1.88
951.219	-0.12
951.948	0.88
952.678	-0.12
953.407	-0.12
954.136	0.88
954.865	0.88
955.594	1.88
956.323	0.88
957.052	-0.12
957.78	1.88
958.509	1.88
959.238	-1.12
959.966	0.88
960.695	-1.12
961.423	-0.12
962.151	0.88
962.88	2.88
963.608	1.88
964.336	-0.12
965.064	1.88
965.792	-0.12
966.52	1.88
967.247	2.88
967.975	-1.12
968.703	1.88
969.43	-0.12
970.158	0.88
970.885	-0.12
971.613	1.88
972.34	0.88
973.067	-0.12
973.794	1.88
974.521	-1.12
975.248	1.88
975.975	2.88
976.702	1.88
977.429	1.88
978.156	3.88
978.882	0.88
979.609	1.88
980.335	1.88
981.062	1.88
981.788	1.88
982.514	2.88
983.24	-1.12
983.967	0.88
984.693	-0.12
985.419	-0.12
986.144	1.88
986.87	1.88
987.596	0.88
988.322	-0.12
989.047	3.88
989.773	0.88
990.498	1.88
991.224	2.88
991.949	-1.12
992.674	-0.12
993.399	0.88
994.124	-0.12
994.849	2.88
995.574	0.88
996.299	1.88
997.024	0.88
997.749	0.88
998.473	0.88
999.198	-0.12
999.922	2.88
1000.647	-0.12
1001.371	4.88
1002.095	-1.12
1002.82	-0.12
1003.544	-1.12
1004.268	1.88
1004.992	3.88
1005.716	3.88
1006.439	2.88
1007.163	4.88
1007.887	2.88
1008.611	1.88
1009.334	1.88
1010.058	1.88
1010.781	0.88
1011.504	-0.12
1012.228	2.88
1012.951	-2.12
1013.674	-2.12
1014.397	-0.12
1015.12	1.88
