节点500_425_QEPB04081__8__15-48-29-496.txt的数据

Date: Wed Nov 12 15:48:29 CST 2025
User: PC
Spectrometer: QEPB0408
触发模式: 0
积分时间 (秒): 1.000000E-2
Scans to average: 1
启用暗噪声校正: true
启用非线性校正: false
滑动平均宽度: 0
X轴模式: Wavelengths
Number of Pixels in Spectrum: 1044
>>>>>Begin Spectral Data<<<<<
220.843	1.5
221.644	6.5
222.444	2.5
223.244	3.5
224.045	8.5
224.845	3.5
225.645	4.5
226.445	6.5
227.245	5.5
228.045	5.5
228.845	6.5
229.645	4.5
230.444	3.5
231.244	6.5
232.043	6.5
232.843	6.5
233.642	7.5
234.442	5.5
235.241	6.5
236.04	7.5
236.839	6.5
237.638	8.5
238.437	4.5
239.236	9.5
240.035	5.5
240.833	7.5
241.632	10.5
242.43	9.5
243.229	8.5
244.027	10.5
244.826	7.5
245.624	8.5
246.422	9.5
247.22	11.5
248.018	11.5
248.816	9.5
249.614	8.5
250.412	9.5
251.21	11.5
252.007	12.5
252.805	11.5
253.602	8.5
254.4	12.5
255.197	12.5
255.994	14.5
256.791	16.5
257.589	15.5
258.386	12.5
259.183	14.5
259.979	17.5
260.776	15.5
261.573	18.5
262.37	16.5
263.166	14.5
263.963	20.5
264.759	19.5
265.556	20.5
266.352	21.5
267.148	20.5
267.944	20.5
268.74	24.5
269.536	22.5
270.332	22.5
271.128	26.5
271.924	26.5
272.719	25.5
273.515	23.5
274.311	22.5
275.106	25.5
275.901	25.5
276.697	27.5
277.492	25.5
278.287	26.5
279.082	27.5
279.877	28.5
280.672	26.5
281.467	26.5
282.262	24.5
283.056	26.5
283.851	23.5
284.646	27.5
285.44	25.5
286.234	26.5
287.029	25.5
287.823	28.5
288.617	26.5
289.411	21.5
290.205	28.5
290.999	24.5
291.793	24.5
292.587	27.5
293.381	23.5
294.174	24.5
294.968	22.5
295.761	22.5
296.555	21.5
297.348	22.5
298.141	21.5
298.935	21.5
299.728	21.5
300.521	22.5
301.314	17.5
302.107	17.5
302.899	16.5
303.692	18.5
304.485	18.5
305.277	18.5
306.07	19.5
306.862	16.5
307.655	16.5
308.447	17.5
309.239	14.5
310.031	14.5
310.823	14.5
311.615	14.5
312.407	11.5
313.199	12.5
313.991	15.5
314.783	13.5
315.574	13.5
316.366	11.5
317.157	14.5
317.949	11.5
318.74	10.5
319.531	12.5
320.322	8.5
321.113	11.5
321.904	9.5
322.695	11.5
323.486	8.5
324.277	10.5
325.068	8.5
325.858	10.5
326.649	9.5
327.439	9.5
328.23	11.5
329.02	7.5
329.81	9.5
330.6	8.5
331.391	8.5
332.181	9.5
332.971	9.5
333.76	9.5
334.55	9.5
335.34	9.5
336.13	9.5
336.919	8.5
337.709	8.5
338.498	9.5
339.287	12.5
340.077	7.5
340.866	7.5
341.655	8.5
342.444	10.5
343.233	9.5
344.022	9.5
344.811	8.5
345.6	9.5
346.388	8.5
347.177	9.5
347.965	8.5
348.754	8.5
349.542	6.5
350.33	7.5
351.119	7.5
351.907	6.5
352.695	7.5
353.483	7.5
354.271	8.5
355.059	9.5
355.846	9.5
356.634	7.5
357.422	8.5
358.209	9.5
358.997	6.5
359.784	6.5
360.571	9.5
361.359	8.5
362.146	10.5
362.933	7.5
363.72	8.5
364.507	6.5
365.294	8.5
366.081	6.5
366.867	6.5
367.654	6.5
368.44	6.5
369.227	7.5
370.013	7.5
370.8	3.5
371.586	8.5
372.372	5.5
373.158	7.5
373.944	7.5
374.73	6.5
375.516	7.5
376.302	6.5
377.088	7.5
377.873	7.5
378.659	5.5
379.445	8.5
380.23	6.5
381.015	6.5
381.801	9.5
382.586	7.5
383.371	6.5
384.156	8.5
384.941	8.5
385.726	7.5
386.511	10.5
387.296	8.5
388.08	5.5
388.865	5.5
389.649	8.5
390.434	8.5
391.218	7.5
392.003	9.5
392.787	8.5
393.571	10.5
394.355	9.5
395.139	9.5
395.923	9.5
396.707	10.5
397.491	9.5
398.274	12.5
399.058	9.5
399.842	12.5
400.625	7.5
401.408	10.5
402.192	8.5
402.975	8.5
403.758	10.5
404.541	9.5
405.324	9.5
406.107	8.5
406.89	12.5
407.673	13.5
408.456	10.5
409.238	11.5
410.021	10.5
410.803	14.5
411.586	11.5
412.368	11.5
413.151	13.5
413.933	11.5
414.715	15.5
415.497	12.5
416.279	13.5
417.061	13.5
417.843	14.5
418.624	14.5
419.406	13.5
420.188	16.5
420.969	14.5
421.751	15.5
422.532	14.5
423.313	14.5
424.095	14.5
424.876	17.5
425.657	17.5
426.438	16.5
427.219	17.5
428	16.5
428.78	19.5
429.561	21.5
430.342	18.5
431.122	22.5
431.903	23.5
432.683	21.5
433.464	24.5
434.244	21.5
435.024	23.5
435.804	27.5
436.584	28.5
437.364	29.5
438.144	29.5
438.924	31.5
439.704	34.5
440.483	33.5
441.263	37.5
442.042	36.5
442.822	40.5
443.601	41.5
444.38	43.5
445.16	48.5
445.939	50.5
446.718	53.5
447.497	55.5
448.276	66.5
449.054	68.5
449.833	72.5
450.612	75.5
451.391	88.5
452.169	98.5
452.948	100.5
453.726	120.5
454.504	120.5
455.282	138.5
456.061	155.5
456.839	171.5
457.617	190.5
458.395	214.5
459.172	233.5
459.95	259.5
460.728	286.5
461.506	323.5
462.283	360.5
463.061	410.5
463.838	457.5
464.615	522.5
465.393	568.5
466.17	645.5
466.947	723.5
467.724	797.5
468.501	888.5
469.278	1005.5
470.055	1115.5
470.831	1231.5
471.608	1387.5
472.385	1541.5
473.161	1718.5
473.938	1912.5
474.714	2145.5
475.49	2349.5
476.266	2602.5
477.043	2893.5
477.819	3228.5
478.595	3578.5
479.371	3959.5
480.146	4388.5
480.922	4811.5
481.698	5359.5
482.473	5925.5
483.249	6488.5
484.024	7175.5
484.8	7940.5
485.575	8716.5
486.35	9602.5
487.126	10514.5
487.901	11534.5
488.676	12643.5
489.451	13793.5
490.225	15073.5
491	16378.5
491.775	17866.5
492.55	19305.5
493.324	20832.5
494.099	22414.5
494.873	23937.5
495.647	25569.5
496.422	27165.5
497.196	28820.5
497.97	30534.5
498.744	32046.5
499.518	33415.5
500.292	34747.5
501.066	35762.5
501.839	36852.5
502.613	37565.5
503.387	38056.5
504.16	38334.5
504.934	38407.5
505.707	38172.5
506.48	37672.5
507.253	37030.5
508.027	36371.5
508.8	35400.5
509.573	34335.5
510.346	33322.5
511.118	32099.5
511.891	30852.5
512.664	29548.5
513.437	28285.5
514.209	27015.5
514.982	25861.5
515.754	24797.5
516.526	23593.5
517.298	22568.5
518.071	21627.5
518.843	20795.5
519.615	19957.5
520.387	19078.5
521.159	18373.5
521.93	17754.5
522.702	16945.5
523.474	16332.5
524.245	15616.5
525.017	14870.5
525.788	14192.5
526.56	13521.5
527.331	12893.5
528.102	12209.5
528.873	11618.5
529.644	11000.5
530.415	10471.5
531.186	9901.5
531.957	9355.5
532.728	8824.5
533.498	8341.5
534.269	7865.5
535.039	7431.5
535.81	7009.5
536.58	6599.5
537.351	6181.5
538.121	5883.5
538.891	5564.5
539.661	5310.5
540.431	5031.5
541.201	4774.5
541.971	4519.5
542.741	4282.5
543.51	4048.5
544.28	3846.5
545.05	3661.5
545.819	3472.5
546.588	3319.5
547.358	3131.5
548.127	2985.5
548.896	2834.5
549.665	2663.5
550.434	2530.5
551.203	2399.5
551.972	2263.5
552.741	2145.5
553.51	2026.5
554.278	1894.5
555.047	1777.5
555.815	1696.5
556.584	1589.5
557.352	1509.5
558.121	1418.5
558.889	1340.5
559.657	1269.5
560.425	1200.5
561.193	1127.5
561.961	1080.5
562.729	1003.5
563.496	957.5
564.264	906.5
565.032	859.5
565.799	808.5
566.567	767.5
567.334	716.5
568.101	693.5
568.869	638.5
569.636	602.5
570.403	575.5
571.17	541.5
571.937	515.5
572.704	490.5
573.471	453.5
574.237	426.5
575.004	402.5
575.771	375.5
576.537	358.5
577.303	327.5
578.07	314.5
578.836	297.5
579.602	284.5
580.368	266.5
581.134	249.5
581.9	244.5
582.666	231.5
583.432	218.5
584.198	208.5
584.964	194.5
585.729	188.5
586.495	174.5
587.26	166.5
588.025	156.5
588.791	148.5
589.556	142.5
590.321	134.5
591.086	131.5
591.851	122.5
592.616	120.5
593.381	106.5
594.146	104.5
594.911	98.5
595.675	102.5
596.44	96.5
597.204	84.5
597.969	85.5
598.733	81.5
599.497	80.5
600.261	76.5
601.025	73.5
601.79	67.5
602.553	66.5
603.317	65.5
604.081	61.5
604.845	54.5
605.609	51.5
606.372	55.5
607.136	49.5
607.899	52.5
608.662	47.5
609.426	47.5
610.189	44.5
610.952	41.5
611.715	41.5
612.478	42.5
613.241	38.5
614.004	33.5
614.767	34.5
615.529	33.5
616.292	34.5
617.055	31.5
617.817	28.5
618.579	30.5
619.342	28.5
620.104	28.5
620.866	29.5
621.628	29.5
622.39	26.5
623.152	21.5
623.914	25.5
624.676	20.5
625.438	21.5
626.199	20.5
626.961	22.5
627.722	20.5
628.484	19.5
629.245	21.5
630.006	20.5
630.768	18.5
631.529	16.5
632.29	15.5
633.051	15.5
633.812	18.5
634.573	18.5
635.333	14.5
636.094	12.5
636.855	14.5
637.615	12.5
638.376	14.5
639.136	14.5
639.896	15.5
640.657	12.5
641.417	13.5
642.177	14.5
642.937	11.5
643.697	12.5
644.457	11.5
645.216	10.5
645.976	12.5
646.736	10.5
647.495	9.5
648.255	13.5
649.014	10.5
649.774	12.5
650.533	10.5
651.292	10.5
652.051	10.5
652.81	12.5
653.569	10.5
654.328	8.5
655.087	8.5
655.846	8.5
656.604	8.5
657.363	9.5
658.121	9.5
658.88	10.5
659.638	8.5
660.397	8.5
661.155	7.5
661.913	6.5
662.671	7.5
663.429	7.5
664.187	7.5
664.945	6.5
665.703	8.5
666.46	6.5
667.218	6.5
667.976	7.5
668.733	6.5
669.49	7.5
670.248	6.5
671.005	6.5
671.762	5.5
672.519	6.5
673.276	6.5
674.033	4.5
674.79	6.5
675.547	5.5
676.304	6.5
677.06	7.5
677.817	6.5
678.574	5.5
679.33	6.5
680.086	5.5
680.843	7.5
681.599	7.5
682.355	8.5
683.111	6.5
683.867	5.5
684.623	4.5
685.379	7.5
686.135	6.5
686.89	8.5
687.646	6.5
688.402	6.5
689.157	4.5
689.912	5.5
690.668	7.5
691.423	8.5
692.178	4.5
692.933	5.5
693.688	3.5
694.443	6.5
695.198	2.5
695.953	5.5
696.708	4.5
697.462	5.5
698.217	4.5
698.972	3.5
699.726	6.5
700.48	5.5
701.235	6.5
701.989	5.5
702.743	2.5
703.497	3.5
704.251	5.5
705.005	8.5
705.759	7.5
706.513	3.5
707.266	4.5
708.02	6.5
708.774	9.5
709.527	5.5
710.28	4.5
711.034	6.5
711.787	5.5
712.54	7.5
713.293	4.5
714.046	5.5
714.799	6.5
715.552	4.5
716.305	5.5
717.058	6.5
717.81	6.5
718.563	6.5
719.315	4.5
720.068	5.5
720.82	7.5
721.573	7.5
722.325	5.5
723.077	6.5
723.829	5.5
724.581	5.5
725.333	5.5
726.085	5.5
726.836	7.5
727.588	6.5
728.34	4.5
729.091	7.5
729.843	6.5
730.594	6.5
731.346	4.5
732.097	5.5
732.848	4.5
733.599	7.5
734.35	5.5
735.101	8.5
735.852	5.5
736.603	7.5
737.354	7.5
738.104	7.5
738.855	5.5
739.605	6.5
740.356	6.5
741.106	6.5
741.856	6.5
742.607	7.5
743.357	8.5
744.107	8.5
744.857	7.5
745.607	8.5
746.357	7.5
747.106	7.5
747.856	6.5
748.606	8.5
749.355	7.5
750.105	9.5
750.854	7.5
751.603	8.5
752.353	8.5
753.102	9.5
753.851	8.5
754.6	11.5
755.349	9.5
756.098	8.5
756.847	9.5
757.595	8.5
758.344	7.5
759.093	7.5
759.841	10.5
760.589	8.5
761.338	7.5
762.086	7.5
762.834	10.5
763.582	10.5
764.331	12.5
765.079	8.5
765.826	9.5
766.574	7.5
767.322	12.5
768.07	12.5
768.817	10.5
769.565	13.5
770.312	11.5
771.06	12.5
771.807	13.5
772.554	10.5
773.302	12.5
774.049	10.5
774.796	8.5
775.543	10.5
776.29	12.5
777.036	12.5
777.783	11.5
778.53	14.5
779.276	12.5
780.023	13.5
780.769	12.5
781.516	10.5
782.262	15.5
783.008	14.5
783.754	13.5
784.5	12.5
785.246	10.5
785.992	11.5
786.738	12.5
787.484	15.5
788.23	10.5
788.975	13.5
789.721	11.5
790.466	8.5
791.212	11.5
791.957	12.5
792.702	14.5
793.447	10.5
794.193	13.5
794.938	10.5
795.683	8.5
796.427	11.5
797.172	11.5
797.917	10.5
798.662	12.5
799.406	8.5
800.151	10.5
800.895	9.5
801.64	7.5
802.384	10.5
803.128	5.5
803.872	9.5
804.616	8.5
805.36	8.5
806.104	8.5
806.848	9.5
807.592	9.5
808.336	6.5
809.079	7.5
809.823	6.5
810.566	7.5
811.31	7.5
812.053	7.5
812.796	7.5
813.539	6.5
814.283	5.5
815.026	2.5
815.769	5.5
816.511	7.5
817.254	7.5
817.997	7.5
818.74	6.5
819.482	6.5
820.225	5.5
820.967	6.5
821.71	8.5
822.452	6.5
823.194	7.5
823.936	4.5
824.678	5.5
825.42	5.5
826.162	5.5
826.904	5.5
827.646	4.5
828.388	6.5
829.129	4.5
829.871	6.5
830.612	3.5
831.354	4.5
832.095	4.5
832.836	4.5
833.577	4.5
834.319	4.5
835.06	2.5
835.801	5.5
836.542	5.5
837.282	5.5
838.023	6.5
838.764	6.5
839.504	4.5
840.245	8.5
840.985	5.5
841.726	3.5
842.466	4.5
843.206	3.5
843.946	4.5
844.687	1.5
845.427	3.5
846.166	3.5
846.906	5.5
847.646	4.5
848.386	3.5
849.125	4.5
849.865	6.5
850.605	2.5
851.344	3.5
852.083	3.5
852.823	2.5
853.562	3.5
854.301	2.5
855.04	2.5
855.779	6.5
856.518	2.5
857.257	3.5
857.995	2.5
858.734	3.5
859.473	1.5
860.211	2.5
860.95	4.5
861.688	2.5
862.426	4.5
863.165	3.5
863.903	4.5
864.641	2.5
865.379	4.5
866.117	1.5
866.855	3.5
867.593	1.5
868.33	0.5
869.068	2.5
869.806	0.5
870.543	2.5
871.28	3.5
872.018	0.5
872.755	1.5
873.492	2.5
874.229	3.5
874.967	2.5
875.703	1.5
876.44	2.5
877.177	2.5
877.914	1.5
878.651	1.5
879.387	0.5
880.124	1.5
880.86	-1.5
881.597	2.5
882.333	1.5
883.069	2.5
883.806	2.5
884.542	1.5
885.278	0.5
886.014	1.5
886.749	2.5
887.485	3.5
888.221	0.5
888.957	1.5
889.692	1.5
890.428	-0.5
891.163	0.5
891.899	1.5
892.634	-1.5
893.369	1.5
894.104	0.5
894.839	0.5
895.574	2.5
896.309	-0.5
897.044	1.5
897.779	2.5
898.514	0.5
899.248	2.5
899.983	1.5
900.717	2.5
901.452	0.5
902.186	-0.5
902.92	-1.5
903.654	-0.5
904.389	0.5
905.123	-0.5
905.857	1.5
906.59	2.5
907.324	1.5
908.058	0.5
908.792	0.5
909.525	1.5
910.259	0.5
910.992	0.5
911.726	0.5
912.459	2.5
913.192	2.5
913.925	0.5
914.658	0.5
915.391	-0.5
916.124	-1.5
916.857	2.5
917.59	-0.5
918.323	1.5
919.055	0.5
919.788	2.5
920.521	0.5
921.253	0.5
921.985	1.5
922.718	-1.5
923.45	1.5
924.182	-0.5
924.914	-0.5
925.646	1.5
926.378	0.5
927.11	0.5
927.841	0.5
928.573	0.5
929.305	2.5
930.036	2.5
930.768	0.5
931.499	-1.5
932.23	-0.5
932.962	0.5
933.693	0.5
934.424	0.5
935.155	0.5
935.886	1.5
936.617	-0.5
937.348	-0.5
938.078	0.5
938.809	0.5
939.54	1.5
940.27	-0.5
941.001	0.5
941.731	-2.5
942.461	-0.5
943.191	0.5
943.922	2.5
944.652	1.5
945.382	1.5
946.112	0.5
946.841	1.5
947.571	0.5
948.301	0.5
949.031	0.5
949.76	-0.5
950.49	-0.5
951.219	0.5
951.948	2.5
952.678	0.5
953.407	0.5
954.136	-2.5
954.865	-0.5
955.594	0.5
956.323	0.5
957.052	2.5
957.78	0.5
958.509	0.5
959.238	-1.5
959.966	-1.5
960.695	-0.5
961.423	1.5
962.151	-0.5
962.88	-0.5
963.608	2.5
964.336	2.5
965.064	-1.5
965.792	1.5
966.52	1.5
967.247	0.5
967.975	0.5
968.703	2.5
969.43	0.5
970.158	0.5
970.885	0.5
971.613	-1.5
972.34	-0.5
973.067	-1.5
973.794	1.5
974.521	0.5
975.248	-0.5
975.975	-0.5
976.702	-0.5
977.429	1.5
978.156	1.5
978.882	-1.5
979.609	1.5
980.335	-1.5
981.062	0.5
981.788	-2.5
982.514	-1.5
983.24	1.5
983.967	3.5
984.693	-0.5
985.419	0.5
986.144	1.5
986.87	2.5
987.596	1.5
988.322	1.5
989.047	-0.5
989.773	1.5
990.498	0.5
991.224	-0.5
991.949	2.5
992.674	2.5
993.399	2.5
994.124	0.5
994.849	0.5
995.574	-0.5
996.299	3.5
997.024	-0.5
997.749	-1.5
998.473	2.5
999.198	-2.5
999.922	1.5
1000.647	0.5
1001.371	3.5
1002.095	-1.5
1002.82	1.5
1003.544	-3.5
1004.268	3.5
1004.992	3.5
1005.716	3.5
1006.439	4.5
1007.163	2.5
1007.887	3.5
1008.611	1.5
1009.334	-0.5
1010.058	-0.5
1010.781	0.5
1011.504	-1.5
1012.228	2.5
1012.951	0.5
1013.674	0.5
1014.397	-0.5
1015.12	-0.5
