节点500_425_QEPB04081__272__15-52-49-966.txt的数据

Date: Wed Nov 12 15:52:49 CST 2025
User: PC
Spectrometer: QEPB0408
触发模式: 0
积分时间 (秒): 1.000000E-2
Scans to average: 1
启用暗噪声校正: true
启用非线性校正: false
滑动平均宽度: 0
X轴模式: Wavelengths
Number of Pixels in Spectrum: 1044
>>>>>Begin Spectral Data<<<<<
220.843	2.38
221.644	4.38
222.444	3.38
223.244	2.38
224.045	3.38
224.845	2.38
225.645	2.38
226.445	3.38
227.245	0.38
228.045	5.38
228.845	4.38
229.645	5.38
230.444	5.38
231.244	4.38
232.043	3.38
232.843	3.38
233.642	5.38
234.442	4.38
235.241	7.38
236.04	4.38
236.839	3.38
237.638	7.38
238.437	5.38
239.236	5.38
240.035	5.38
240.833	6.38
241.632	7.38
242.43	8.38
243.229	9.38
244.027	10.38
244.826	9.38
245.624	6.38
246.422	9.38
247.22	9.38
248.018	8.38
248.816	9.38
249.614	10.38
250.412	9.38
251.21	11.38
252.007	8.38
252.805	8.38
253.602	10.38
254.4	12.38
255.197	11.38
255.994	9.38
256.791	10.38
257.589	15.38
258.386	13.38
259.183	12.38
259.979	16.38
260.776	15.38
261.573	15.38
262.37	16.38
263.166	15.38
263.963	14.38
264.759	16.38
265.556	15.38
266.352	18.38
267.148	17.38
267.944	18.38
268.74	17.38
269.536	18.38
270.332	21.38
271.128	21.38
271.924	18.38
272.719	23.38
273.515	23.38
274.311	23.38
275.106	21.38
275.901	22.38
276.697	22.38
277.492	24.38
278.287	23.38
279.082	25.38
279.877	27.38
280.672	26.38
281.467	25.38
282.262	26.38
283.056	26.38
283.851	26.38
284.646	25.38
285.44	27.38
286.234	26.38
287.029	24.38
287.823	24.38
288.617	22.38
289.411	25.38
290.205	23.38
290.999	23.38
291.793	20.38
292.587	23.38
293.381	20.38
294.174	21.38
294.968	21.38
295.761	23.38
296.555	20.38
297.348	20.38
298.141	21.38
298.935	22.38
299.728	20.38
300.521	20.38
301.314	17.38
302.107	17.38
302.899	17.38
303.692	16.38
304.485	19.38
305.277	15.38
306.07	16.38
306.862	16.38
307.655	13.38
308.447	16.38
309.239	16.38
310.031	18.38
310.823	15.38
311.615	11.38
312.407	13.38
313.199	13.38
313.991	12.38
314.783	13.38
315.574	11.38
316.366	11.38
317.157	7.38
317.949	10.38
318.74	10.38
319.531	10.38
320.322	10.38
321.113	10.38
321.904	9.38
322.695	10.38
323.486	9.38
324.277	8.38
325.068	12.38
325.858	12.38
326.649	9.38
327.439	9.38
328.23	10.38
329.02	10.38
329.81	8.38
330.6	7.38
331.391	7.38
332.181	6.38
332.971	10.38
333.76	9.38
334.55	7.38
335.34	8.38
336.13	8.38
336.919	9.38
337.709	6.38
338.498	10.38
339.287	10.38
340.077	7.38
340.866	6.38
341.655	8.38
342.444	9.38
343.233	8.38
344.022	8.38
344.811	7.38
345.6	8.38
346.388	8.38
347.177	6.38
347.965	9.38
348.754	6.38
349.542	8.38
350.33	9.38
351.119	7.38
351.907	8.38
352.695	9.38
353.483	7.38
354.271	6.38
355.059	7.38
355.846	8.38
356.634	8.38
357.422	8.38
358.209	7.38
358.997	7.38
359.784	6.38
360.571	7.38
361.359	7.38
362.146	9.38
362.933	7.38
363.72	6.38
364.507	7.38
365.294	7.38
366.081	6.38
366.867	7.38
367.654	5.38
368.44	7.38
369.227	7.38
370.013	7.38
370.8	3.38
371.586	4.38
372.372	9.38
373.158	6.38
373.944	2.38
374.73	8.38
375.516	6.38
376.302	8.38
377.088	6.38
377.873	8.38
378.659	8.38
379.445	6.38
380.23	8.38
381.015	7.38
381.801	7.38
382.586	6.38
383.371	6.38
384.156	8.38
384.941	8.38
385.726	9.38
386.511	8.38
387.296	9.38
388.08	6.38
388.865	6.38
389.649	10.38
390.434	6.38
391.218	5.38
392.003	4.38
392.787	7.38
393.571	6.38
394.355	9.38
395.139	8.38
395.923	8.38
396.707	6.38
397.491	9.38
398.274	7.38
399.058	10.38
399.842	10.38
400.625	10.38
401.408	9.38
402.192	7.38
402.975	9.38
403.758	10.38
404.541	8.38
405.324	10.38
406.107	7.38
406.89	11.38
407.673	8.38
408.456	12.38
409.238	11.38
410.021	9.38
410.803	13.38
411.586	13.38
412.368	13.38
413.151	9.38
413.933	12.38
414.715	13.38
415.497	13.38
416.279	13.38
417.061	12.38
417.843	14.38
418.624	10.38
419.406	13.38
420.188	12.38
420.969	14.38
421.751	14.38
422.532	13.38
423.313	16.38
424.095	16.38
424.876	16.38
425.657	18.38
426.438	16.38
427.219	16.38
428	17.38
428.78	20.38
429.561	17.38
430.342	16.38
431.122	18.38
431.903	20.38
432.683	24.38
433.464	22.38
434.244	25.38
435.024	27.38
435.804	24.38
436.584	27.38
437.364	25.38
438.144	28.38
438.924	32.38
439.704	33.38
440.483	36.38
441.263	37.38
442.042	38.38
442.822	39.38
443.601	40.38
444.38	46.38
445.16	50.38
445.939	52.38
446.718	58.38
447.497	62.38
448.276	67.38
449.054	74.38
449.833	76.38
450.612	82.38
451.391	92.38
452.169	105.38
452.948	112.38
453.726	125.38
454.504	142.38
455.282	157.38
456.061	174.38
456.839	189.38
457.617	205.38
458.395	228.38
459.172	258.38
459.95	290.38
460.728	317.38
461.506	359.38
462.283	392.38
463.061	451.38
463.838	500.38
464.615	560.38
465.393	615.38
466.17	683.38
466.947	767.38
467.724	847.38
468.501	946.38
469.278	1052.38
470.055	1163.38
470.831	1286.38
471.608	1430.38
472.385	1572.38
473.161	1742.38
473.938	1947.38
474.714	2153.38
475.49	2366.38
476.266	2613.38
477.043	2910.38
477.819	3200.38
478.595	3505.38
479.371	3858.38
480.146	4236.38
480.922	4636.38
481.698	5125.38
482.473	5558.38
483.249	6135.38
484.024	6708.38
484.8	7360.38
485.575	8010.38
486.35	8756.38
487.126	9525.38
487.901	10412.38
488.676	11399.38
489.451	12324.38
490.225	13397.38
491	14570.38
491.775	15822.38
492.55	17073.38
493.324	18390.38
494.099	19690.38
494.873	21014.38
495.647	22422.38
496.422	23839.38
497.196	25336.38
497.97	26846.38
498.744	28252.38
499.518	29625.38
500.292	30829.38
501.066	31825.38
501.839	33040.38
502.613	33942.38
503.387	34665.38
504.16	35170.38
504.934	35482.38
505.707	35453.38
506.48	35327.38
507.253	35069.38
508.027	34681.38
508.8	34087.38
509.573	33367.38
510.346	32517.38
511.118	31524.38
511.891	30553.38
512.664	29384.38
513.437	28210.38
514.209	27024.38
514.982	26112.38
515.754	25012.38
516.526	23947.38
517.298	22981.38
518.071	21917.38
518.843	21092.38
519.615	20196.38
520.387	19376.38
521.159	18669.38
521.93	17963.38
522.702	17176.38
523.474	16553.38
524.245	15911.38
525.017	15170.38
525.788	14486.38
526.56	13798.38
527.331	13169.38
528.102	12579.38
528.873	11967.38
529.644	11371.38
530.415	10872.38
531.186	10358.38
531.957	9813.38
532.728	9241.38
533.498	8760.38
534.269	8275.38
535.039	7826.38
535.81	7410.38
536.58	7002.38
537.351	6569.38
538.121	6218.38
538.891	5873.38
539.661	5605.38
540.431	5298.38
541.201	5027.38
541.971	4772.38
542.741	4517.38
543.51	4268.38
544.28	4060.38
545.05	3877.38
545.819	3674.38
546.588	3513.38
547.358	3290.38
548.127	3165.38
548.896	2994.38
549.665	2825.38
550.434	2704.38
551.203	2560.38
551.972	2405.38
552.741	2281.38
553.51	2164.38
554.278	2029.38
555.047	1918.38
555.815	1839.38
556.584	1719.38
557.352	1611.38
558.121	1517.38
558.889	1458.38
559.657	1370.38
560.425	1286.38
561.193	1215.38
561.961	1153.38
562.729	1092.38
563.496	1033.38
564.264	962.38
565.032	912.38
565.799	881.38
566.567	825.38
567.334	780.38
568.101	738.38
568.869	692.38
569.636	654.38
570.403	617.38
571.17	579.38
571.937	548.38
572.704	514.38
573.471	487.38
574.237	465.38
575.004	434.38
575.771	413.38
576.537	384.38
577.303	365.38
578.07	337.38
578.836	324.38
579.602	304.38
580.368	282.38
581.134	278.38
581.9	264.38
582.666	248.38
583.432	240.38
584.198	216.38
584.964	210.38
585.729	205.38
586.495	189.38
587.26	183.38
588.025	169.38
588.791	162.38
589.556	156.38
590.321	145.38
591.086	131.38
591.851	134.38
592.616	125.38
593.381	117.38
594.146	111.38
594.911	113.38
595.675	104.38
596.44	98.38
597.204	94.38
597.969	88.38
598.733	83.38
599.497	83.38
600.261	76.38
601.025	76.38
601.79	71.38
602.553	68.38
603.317	65.38
604.081	64.38
604.845	60.38
605.609	57.38
606.372	57.38
607.136	55.38
607.899	49.38
608.662	51.38
609.426	48.38
610.189	46.38
610.952	46.38
611.715	41.38
612.478	43.38
613.241	38.38
614.004	34.38
614.767	39.38
615.529	34.38
616.292	33.38
617.055	33.38
617.817	32.38
618.579	30.38
619.342	29.38
620.104	32.38
620.866	25.38
621.628	27.38
622.39	25.38
623.152	26.38
623.914	23.38
624.676	25.38
625.438	23.38
626.199	19.38
626.961	20.38
627.722	22.38
628.484	19.38
629.245	22.38
630.006	20.38
630.768	17.38
631.529	16.38
632.29	19.38
633.051	16.38
633.812	14.38
634.573	16.38
635.333	13.38
636.094	15.38
636.855	16.38
637.615	14.38
638.376	15.38
639.136	14.38
639.896	15.38
640.657	13.38
641.417	10.38
642.177	13.38
642.937	14.38
643.697	12.38
644.457	10.38
645.216	11.38
645.976	11.38
646.736	9.38
647.495	12.38
648.255	10.38
649.014	9.38
649.774	8.38
650.533	7.38
651.292	13.38
652.051	9.38
652.81	10.38
653.569	10.38
654.328	9.38
655.087	7.38
655.846	8.38
656.604	9.38
657.363	5.38
658.121	7.38
658.88	7.38
659.638	8.38
660.397	8.38
661.155	5.38
661.913	9.38
662.671	7.38
663.429	7.38
664.187	7.38
664.945	3.38
665.703	5.38
666.46	5.38
667.218	8.38
667.976	6.38
668.733	8.38
669.49	7.38
670.248	9.38
671.005	8.38
671.762	7.38
672.519	5.38
673.276	5.38
674.033	4.38
674.79	4.38
675.547	4.38
676.304	8.38
677.06	6.38
677.817	8.38
678.574	6.38
679.33	5.38
680.086	5.38
680.843	5.38
681.599	6.38
682.355	3.38
683.111	6.38
683.867	6.38
684.623	5.38
685.379	7.38
686.135	4.38
686.89	6.38
687.646	4.38
688.402	6.38
689.157	6.38
689.912	5.38
690.668	5.38
691.423	5.38
692.178	6.38
692.933	5.38
693.688	5.38
694.443	5.38
695.198	5.38
695.953	7.38
696.708	7.38
697.462	3.38
698.217	5.38
698.972	2.38
699.726	4.38
700.48	5.38
701.235	5.38
701.989	3.38
702.743	4.38
703.497	7.38
704.251	2.38
705.005	7.38
705.759	6.38
706.513	3.38
707.266	5.38
708.02	4.38
708.774	5.38
709.527	4.38
710.28	5.38
711.034	4.38
711.787	3.38
712.54	7.38
713.293	5.38
714.046	6.38
714.799	2.38
715.552	4.38
716.305	6.38
717.058	4.38
717.81	4.38
718.563	5.38
719.315	7.38
720.068	5.38
720.82	3.38
721.573	8.38
722.325	4.38
723.077	4.38
723.829	5.38
724.581	4.38
725.333	6.38
726.085	7.38
726.836	7.38
727.588	4.38
728.34	6.38
729.091	4.38
729.843	4.38
730.594	5.38
731.346	7.38
732.097	5.38
732.848	4.38
733.599	5.38
734.35	9.38
735.101	4.38
735.852	6.38
736.603	6.38
737.354	5.38
738.104	5.38
738.855	4.38
739.605	6.38
740.356	4.38
741.106	8.38
741.856	7.38
742.607	5.38
743.357	8.38
744.107	7.38
744.857	7.38
745.607	6.38
746.357	6.38
747.106	6.38
747.856	8.38
748.606	8.38
749.355	4.38
750.105	8.38
750.854	7.38
751.603	6.38
752.353	8.38
753.102	7.38
753.851	9.38
754.6	8.38
755.349	11.38
756.098	8.38
756.847	5.38
757.595	9.38
758.344	8.38
759.093	7.38
759.841	7.38
760.589	7.38
761.338	6.38
762.086	7.38
762.834	9.38
763.582	10.38
764.331	10.38
765.079	10.38
765.826	8.38
766.574	9.38
767.322	8.38
768.07	11.38
768.817	8.38
769.565	9.38
770.312	11.38
771.06	8.38
771.807	11.38
772.554	11.38
773.302	9.38
774.049	10.38
774.796	12.38
775.543	9.38
776.29	11.38
777.036	12.38
777.783	12.38
778.53	12.38
779.276	8.38
780.023	10.38
780.769	10.38
781.516	10.38
782.262	14.38
783.008	10.38
783.754	12.38
784.5	13.38
785.246	12.38
785.992	10.38
786.738	11.38
787.484	13.38
788.23	11.38
788.975	10.38
789.721	12.38
790.466	9.38
791.212	13.38
791.957	10.38
792.702	10.38
793.447	11.38
794.193	9.38
794.938	12.38
795.683	8.38
796.427	10.38
797.172	9.38
797.917	8.38
798.662	10.38
799.406	9.38
800.151	10.38
800.895	12.38
801.64	9.38
802.384	9.38
803.128	10.38
803.872	9.38
804.616	8.38
805.36	6.38
806.104	9.38
806.848	7.38
807.592	7.38
808.336	7.38
809.079	6.38
809.823	8.38
810.566	6.38
811.31	8.38
812.053	6.38
812.796	8.38
813.539	5.38
814.283	8.38
815.026	5.38
815.769	5.38
816.511	7.38
817.254	5.38
817.997	6.38
818.74	5.38
819.482	5.38
820.225	6.38
820.967	3.38
821.71	4.38
822.452	3.38
823.194	4.38
823.936	5.38
824.678	6.38
825.42	5.38
826.162	3.38
826.904	7.38
827.646	5.38
828.388	4.38
829.129	5.38
829.871	6.38
830.612	5.38
831.354	4.38
832.095	5.38
832.836	4.38
833.577	5.38
834.319	4.38
835.06	3.38
835.801	4.38
836.542	5.38
837.282	4.38
838.023	2.38
838.764	4.38
839.504	5.38
840.245	4.38
840.985	3.38
841.726	3.38
842.466	2.38
843.206	3.38
843.946	3.38
844.687	3.38
845.427	5.38
846.166	2.38
846.906	2.38
847.646	5.38
848.386	4.38
849.125	3.38
849.865	4.38
850.605	2.38
851.344	4.38
852.083	2.38
852.823	2.38
853.562	3.38
854.301	3.38
855.04	1.38
855.779	3.38
856.518	2.38
857.257	3.38
857.995	3.38
858.734	5.38
859.473	2.38
860.211	3.38
860.95	0.38
861.688	1.38
862.426	2.38
863.165	3.38
863.903	3.38
864.641	2.38
865.379	2.38
866.117	3.38
866.855	3.38
867.593	2.38
868.33	2.38
869.068	2.38
869.806	1.38
870.543	1.38
871.28	1.38
872.018	2.38
872.755	-0.62
873.492	1.38
874.229	1.38
874.967	1.38
875.703	2.38
876.44	1.38
877.177	2.38
877.914	0.38
878.651	2.38
879.387	1.38
880.124	1.38
880.86	1.38
881.597	1.38
882.333	1.38
883.069	2.38
883.806	1.38
884.542	2.38
885.278	2.38
886.014	1.38
886.749	1.38
887.485	1.38
888.221	0.38
888.957	1.38
889.692	0.38
890.428	2.38
891.163	1.38
891.899	0.38
892.634	1.38
893.369	-1.62
894.104	1.38
894.839	0.38
895.574	0.38
896.309	2.38
897.044	0.38
897.779	3.38
898.514	1.38
899.248	3.38
899.983	0.38
900.717	-0.62
901.452	-0.62
902.186	0.38
902.92	0.38
903.654	0.38
904.389	2.38
905.123	1.38
905.857	0.38
906.59	2.38
907.324	1.38
908.058	1.38
908.792	0.38
909.525	0.38
910.259	1.38
910.992	0.38
911.726	0.38
912.459	0.38
913.192	2.38
913.925	-0.62
914.658	1.38
915.391	2.38
916.124	-0.62
916.857	2.38
917.59	1.38
918.323	0.38
919.055	2.38
919.788	2.38
920.521	0.38
921.253	-0.62
921.985	1.38
922.718	1.38
923.45	-0.62
924.182	1.38
924.914	-0.62
925.646	0.38
926.378	-0.62
927.11	2.38
927.841	0.38
928.573	0.38
929.305	0.38
930.036	0.38
930.768	-0.62
931.499	1.38
932.23	-0.62
932.962	1.38
933.693	0.38
934.424	2.38
935.155	1.38
935.886	0.38
936.617	0.38
937.348	-0.62
938.078	0.38
938.809	0.38
939.54	-0.62
940.27	0.38
941.001	2.38
941.731	2.38
942.461	0.38
943.191	0.38
943.922	0.38
944.652	2.38
945.382	-0.62
946.112	2.38
946.841	-0.62
947.571	-1.62
948.301	2.38
949.031	-0.62
949.76	-1.62
950.49	0.38
951.219	0.38
951.948	1.38
952.678	0.38
953.407	-1.62
954.136	-1.62
954.865	1.38
955.594	2.38
956.323	0.38
957.052	0.38
957.78	-0.62
958.509	-1.62
959.238	1.38
959.966	0.38
960.695	0.38
961.423	-0.62
962.151	1.38
962.88	-1.62
963.608	-0.62
964.336	-0.62
965.064	1.38
965.792	0.38
966.52	-0.62
967.247	-0.62
967.975	3.38
968.703	2.38
969.43	1.38
970.158	0.38
970.885	1.38
971.613	1.38
972.34	0.38
973.067	1.38
973.794	0.38
974.521	-0.62
975.248	0.38
975.975	-0.62
976.702	3.38
977.429	0.38
978.156	1.38
978.882	2.38
979.609	1.38
980.335	0.38
981.062	0.38
981.788	1.38
982.514	-1.62
983.24	1.38
983.967	-1.62
984.693	-1.62
985.419	0.38
986.144	-0.62
986.87	0.38
987.596	0.38
988.322	0.38
989.047	-0.62
989.773	0.38
990.498	-1.62
991.224	0.38
991.949	0.38
992.674	1.38
993.399	0.38
994.124	0.38
994.849	-0.62
995.574	0.38
996.299	0.38
997.024	1.38
997.749	0.38
998.473	1.38
999.198	-1.62
999.922	-1.62
1000.647	-0.62
1001.371	2.38
1002.095	-1.62
1002.82	1.38
1003.544	-1.62
1004.268	5.38
1004.992	2.38
1005.716	2.38
1006.439	3.38
1007.163	3.38
1007.887	1.38
1008.611	0.38
1009.334	0.38
1010.058	0.38
1010.781	0.38
1011.504	2.38
1012.228	0.38
1012.951	-0.62
1013.674	0.38
1014.397	-0.62
1015.12	0.38
