节点500_425_QEPB04081__97__15-49-55-360.txt的数据

Date: Wed Nov 12 15:49:55 CST 2025
User: PC
Spectrometer: QEPB0408
触发模式: 0
积分时间 (秒): 1.000000E-2
Scans to average: 1
启用暗噪声校正: true
启用非线性校正: false
滑动平均宽度: 0
X轴模式: Wavelengths
Number of Pixels in Spectrum: 1044
>>>>>Begin Spectral Data<<<<<
220.843	0.5
221.644	1.5
222.444	3.5
223.244	3.5
224.045	5.5
224.845	5.5
225.645	0.5
226.445	2.5
227.245	6.5
228.045	2.5
228.845	3.5
229.645	7.5
230.444	3.5
231.244	5.5
232.043	6.5
232.843	4.5
233.642	4.5
234.442	4.5
235.241	5.5
236.04	6.5
236.839	5.5
237.638	6.5
238.437	8.5
239.236	5.5
240.035	3.5
240.833	6.5
241.632	5.5
242.43	8.5
243.229	8.5
244.027	7.5
244.826	7.5
245.624	8.5
246.422	8.5
247.22	10.5
248.018	8.5
248.816	8.5
249.614	8.5
250.412	12.5
251.21	10.5
252.007	11.5
252.805	13.5
253.602	10.5
254.4	13.5
255.197	12.5
255.994	14.5
256.791	12.5
257.589	14.5
258.386	13.5
259.183	14.5
259.979	16.5
260.776	14.5
261.573	17.5
262.37	15.5
263.166	17.5
263.963	16.5
264.759	19.5
265.556	17.5
266.352	18.5
267.148	20.5
267.944	21.5
268.74	22.5
269.536	22.5
270.332	20.5
271.128	24.5
271.924	24.5
272.719	22.5
273.515	24.5
274.311	26.5
275.106	26.5
275.901	23.5
276.697	26.5
277.492	24.5
278.287	26.5
279.082	24.5
279.877	26.5
280.672	26.5
281.467	27.5
282.262	26.5
283.056	26.5
283.851	27.5
284.646	30.5
285.44	23.5
286.234	25.5
287.029	25.5
287.823	29.5
288.617	26.5
289.411	23.5
290.205	26.5
290.999	24.5
291.793	25.5
292.587	25.5
293.381	25.5
294.174	25.5
294.968	23.5
295.761	21.5
296.555	23.5
297.348	21.5
298.141	19.5
298.935	22.5
299.728	18.5
300.521	20.5
301.314	19.5
302.107	20.5
302.899	14.5
303.692	18.5
304.485	17.5
305.277	14.5
306.07	15.5
306.862	17.5
307.655	17.5
308.447	12.5
309.239	16.5
310.031	13.5
310.823	15.5
311.615	13.5
312.407	12.5
313.199	15.5
313.991	10.5
314.783	9.5
315.574	14.5
316.366	13.5
317.157	10.5
317.949	10.5
318.74	11.5
319.531	10.5
320.322	9.5
321.113	12.5
321.904	8.5
322.695	9.5
323.486	9.5
324.277	9.5
325.068	10.5
325.858	10.5
326.649	10.5
327.439	7.5
328.23	10.5
329.02	10.5
329.81	7.5
330.6	4.5
331.391	9.5
332.181	8.5
332.971	5.5
333.76	12.5
334.55	9.5
335.34	8.5
336.13	9.5
336.919	10.5
337.709	9.5
338.498	7.5
339.287	10.5
340.077	7.5
340.866	10.5
341.655	11.5
342.444	6.5
343.233	6.5
344.022	6.5
344.811	6.5
345.6	10.5
346.388	9.5
347.177	9.5
347.965	9.5
348.754	7.5
349.542	6.5
350.33	8.5
351.119	8.5
351.907	7.5
352.695	10.5
353.483	10.5
354.271	8.5
355.059	8.5
355.846	9.5
356.634	7.5
357.422	6.5
358.209	7.5
358.997	8.5
359.784	6.5
360.571	7.5
361.359	7.5
362.146	9.5
362.933	8.5
363.72	6.5
364.507	6.5
365.294	6.5
366.081	8.5
366.867	8.5
367.654	6.5
368.44	5.5
369.227	6.5
370.013	8.5
370.8	6.5
371.586	7.5
372.372	7.5
373.158	4.5
373.944	7.5
374.73	8.5
375.516	7.5
376.302	7.5
377.088	8.5
377.873	6.5
378.659	7.5
379.445	10.5
380.23	7.5
381.015	7.5
381.801	8.5
382.586	4.5
383.371	7.5
384.156	4.5
384.941	9.5
385.726	6.5
386.511	7.5
387.296	8.5
388.08	7.5
388.865	8.5
389.649	7.5
390.434	7.5
391.218	8.5
392.003	9.5
392.787	10.5
393.571	7.5
394.355	9.5
395.139	6.5
395.923	10.5
396.707	9.5
397.491	9.5
398.274	8.5
399.058	9.5
399.842	10.5
400.625	8.5
401.408	9.5
402.192	12.5
402.975	11.5
403.758	12.5
404.541	8.5
405.324	10.5
406.107	10.5
406.89	13.5
407.673	10.5
408.456	9.5
409.238	11.5
410.021	12.5
410.803	12.5
411.586	11.5
412.368	10.5
413.151	11.5
413.933	14.5
414.715	10.5
415.497	13.5
416.279	13.5
417.061	13.5
417.843	10.5
418.624	15.5
419.406	13.5
420.188	12.5
420.969	16.5
421.751	15.5
422.532	15.5
423.313	18.5
424.095	14.5
424.876	17.5
425.657	18.5
426.438	17.5
427.219	17.5
428	18.5
428.78	19.5
429.561	19.5
430.342	19.5
431.122	22.5
431.903	21.5
432.683	22.5
433.464	26.5
434.244	23.5
435.024	24.5
435.804	26.5
436.584	26.5
437.364	26.5
438.144	26.5
438.924	30.5
439.704	31.5
440.483	35.5
441.263	34.5
442.042	34.5
442.822	41.5
443.601	45.5
444.38	44.5
445.16	47.5
445.939	53.5
446.718	56.5
447.497	58.5
448.276	64.5
449.054	68.5
449.833	73.5
450.612	84.5
451.391	93.5
452.169	95.5
452.948	106.5
453.726	120.5
454.504	126.5
455.282	139.5
456.061	159.5
456.839	174.5
457.617	191.5
458.395	215.5
459.172	243.5
459.95	266.5
460.728	298.5
461.506	339.5
462.283	371.5
463.061	418.5
463.838	470.5
464.615	528.5
465.393	592.5
466.17	653.5
466.947	744.5
467.724	817.5
468.501	913.5
469.278	1026.5
470.055	1143.5
470.831	1254.5
471.608	1408.5
472.385	1560.5
473.161	1725.5
473.938	1937.5
474.714	2150.5
475.49	2376.5
476.266	2596.5
477.043	2902.5
477.819	3202.5
478.595	3563.5
479.371	3920.5
480.146	4312.5
480.922	4744.5
481.698	5233.5
482.473	5745.5
483.249	6329.5
484.024	6979.5
484.8	7660.5
485.575	8440.5
486.35	9196.5
487.126	10097.5
487.901	11049.5
488.676	12042.5
489.451	13210.5
490.225	14336.5
491	15609.5
491.775	16965.5
492.55	18334.5
493.324	19784.5
494.099	21254.5
494.873	22569.5
495.647	24239.5
496.422	25755.5
497.196	27250.5
497.97	28898.5
498.744	30327.5
499.518	31777.5
500.292	33067.5
501.066	34080.5
501.839	35140.5
502.613	36014.5
503.387	36675.5
504.16	36975.5
504.934	37071.5
505.707	36986.5
506.48	36754.5
507.253	36261.5
508.027	35587.5
508.8	34865.5
509.573	34010.5
510.346	32905.5
511.118	31880.5
511.891	30700.5
512.664	29474.5
513.437	28241.5
514.209	27023.5
514.982	25996.5
515.754	24854.5
516.526	23739.5
517.298	22678.5
518.071	21746.5
518.843	20815.5
519.615	19977.5
520.387	19148.5
521.159	18433.5
521.93	17775.5
522.702	17077.5
523.474	16379.5
524.245	15661.5
525.017	14918.5
525.788	14263.5
526.56	13613.5
527.331	13006.5
528.102	12354.5
528.873	11687.5
529.644	11111.5
530.415	10608.5
531.186	10074.5
531.957	9524.5
532.728	9010.5
533.498	8497.5
534.269	8005.5
535.039	7574.5
535.81	7171.5
536.58	6750.5
537.351	6322.5
538.121	6001.5
538.891	5705.5
539.661	5414.5
540.431	5106.5
541.201	4836.5
541.971	4624.5
542.741	4378.5
543.51	4136.5
544.28	3904.5
545.05	3723.5
545.819	3574.5
546.588	3375.5
547.358	3224.5
548.127	3046.5
548.896	2878.5
549.665	2735.5
550.434	2594.5
551.203	2464.5
551.972	2325.5
552.741	2190.5
553.51	2062.5
554.278	1959.5
555.047	1847.5
555.815	1739.5
556.584	1637.5
557.352	1553.5
558.121	1451.5
558.889	1380.5
559.657	1310.5
560.425	1232.5
561.193	1161.5
561.961	1102.5
562.729	1041.5
563.496	981.5
564.264	936.5
565.032	892.5
565.799	832.5
566.567	794.5
567.334	746.5
568.101	702.5
568.869	653.5
569.636	613.5
570.403	594.5
571.17	553.5
571.937	521.5
572.704	496.5
573.471	472.5
574.237	445.5
575.004	412.5
575.771	396.5
576.537	375.5
577.303	339.5
578.07	329.5
578.836	299.5
579.602	294.5
580.368	277.5
581.134	265.5
581.9	247.5
582.666	233.5
583.432	223.5
584.198	216.5
584.964	201.5
585.729	195.5
586.495	178.5
587.26	174.5
588.025	160.5
588.791	153.5
589.556	144.5
590.321	136.5
591.086	130.5
591.851	128.5
592.616	119.5
593.381	114.5
594.146	107.5
594.911	105.5
595.675	94.5
596.44	97.5
597.204	92.5
597.969	85.5
598.733	82.5
599.497	82.5
600.261	75.5
601.025	74.5
601.79	69.5
602.553	65.5
603.317	63.5
604.081	61.5
604.845	58.5
605.609	53.5
606.372	54.5
607.136	51.5
607.899	49.5
608.662	46.5
609.426	44.5
610.189	38.5
610.952	37.5
611.715	41.5
612.478	36.5
613.241	40.5
614.004	37.5
614.767	33.5
615.529	33.5
616.292	35.5
617.055	33.5
617.817	31.5
618.579	31.5
619.342	30.5
620.104	25.5
620.866	29.5
621.628	26.5
622.39	24.5
623.152	24.5
623.914	24.5
624.676	24.5
625.438	20.5
626.199	19.5
626.961	22.5
627.722	22.5
628.484	18.5
629.245	19.5
630.006	19.5
630.768	16.5
631.529	18.5
632.29	17.5
633.051	17.5
633.812	16.5
634.573	15.5
635.333	13.5
636.094	17.5
636.855	15.5
637.615	14.5
638.376	13.5
639.136	12.5
639.896	10.5
640.657	14.5
641.417	14.5
642.177	12.5
642.937	12.5
643.697	12.5
644.457	10.5
645.216	11.5
645.976	10.5
646.736	14.5
647.495	12.5
648.255	9.5
649.014	10.5
649.774	9.5
650.533	8.5
651.292	10.5
652.051	9.5
652.81	8.5
653.569	6.5
654.328	8.5
655.087	10.5
655.846	8.5
656.604	8.5
657.363	8.5
658.121	7.5
658.88	10.5
659.638	7.5
660.397	9.5
661.155	10.5
661.913	5.5
662.671	7.5
663.429	7.5
664.187	9.5
664.945	6.5
665.703	6.5
666.46	8.5
667.218	7.5
667.976	8.5
668.733	6.5
669.49	8.5
670.248	7.5
671.005	4.5
671.762	7.5
672.519	6.5
673.276	5.5
674.033	7.5
674.79	5.5
675.547	8.5
676.304	5.5
677.06	5.5
677.817	3.5
678.574	4.5
679.33	6.5
680.086	4.5
680.843	6.5
681.599	7.5
682.355	7.5
683.111	5.5
683.867	7.5
684.623	7.5
685.379	5.5
686.135	6.5
686.89	4.5
687.646	9.5
688.402	4.5
689.157	6.5
689.912	7.5
690.668	3.5
691.423	5.5
692.178	5.5
692.933	7.5
693.688	7.5
694.443	6.5
695.198	5.5
695.953	5.5
696.708	5.5
697.462	5.5
698.217	6.5
698.972	5.5
699.726	4.5
700.48	2.5
701.235	5.5
701.989	3.5
702.743	8.5
703.497	6.5
704.251	4.5
705.005	4.5
705.759	5.5
706.513	5.5
707.266	6.5
708.02	4.5
708.774	4.5
709.527	5.5
710.28	5.5
711.034	5.5
711.787	4.5
712.54	4.5
713.293	4.5
714.046	4.5
714.799	5.5
715.552	7.5
716.305	6.5
717.058	3.5
717.81	4.5
718.563	6.5
719.315	5.5
720.068	5.5
720.82	5.5
721.573	3.5
722.325	7.5
723.077	6.5
723.829	5.5
724.581	4.5
725.333	7.5
726.085	3.5
726.836	5.5
727.588	5.5
728.34	4.5
729.091	3.5
729.843	7.5
730.594	5.5
731.346	7.5
732.097	6.5
732.848	5.5
733.599	4.5
734.35	4.5
735.101	4.5
735.852	5.5
736.603	8.5
737.354	6.5
738.104	7.5
738.855	5.5
739.605	7.5
740.356	8.5
741.106	7.5
741.856	6.5
742.607	6.5
743.357	7.5
744.107	7.5
744.857	7.5
745.607	6.5
746.357	7.5
747.106	8.5
747.856	8.5
748.606	7.5
749.355	5.5
750.105	8.5
750.854	9.5
751.603	5.5
752.353	10.5
753.102	7.5
753.851	7.5
754.6	8.5
755.349	9.5
756.098	9.5
756.847	10.5
757.595	9.5
758.344	8.5
759.093	7.5
759.841	8.5
760.589	9.5
761.338	11.5
762.086	8.5
762.834	10.5
763.582	9.5
764.331	10.5
765.079	9.5
765.826	8.5
766.574	10.5
767.322	10.5
768.07	10.5
768.817	11.5
769.565	10.5
770.312	12.5
771.06	11.5
771.807	13.5
772.554	10.5
773.302	9.5
774.049	11.5
774.796	10.5
775.543	13.5
776.29	11.5
777.036	11.5
777.783	11.5
778.53	13.5
779.276	12.5
780.023	11.5
780.769	12.5
781.516	12.5
782.262	12.5
783.008	12.5
783.754	13.5
784.5	13.5
785.246	11.5
785.992	10.5
786.738	12.5
787.484	11.5
788.23	10.5
788.975	11.5
789.721	13.5
790.466	12.5
791.212	12.5
791.957	12.5
792.702	11.5
793.447	11.5
794.193	10.5
794.938	12.5
795.683	11.5
796.427	9.5
797.172	11.5
797.917	7.5
798.662	12.5
799.406	10.5
800.151	9.5
800.895	9.5
801.64	9.5
802.384	8.5
803.128	10.5
803.872	10.5
804.616	9.5
805.36	9.5
806.104	8.5
806.848	5.5
807.592	8.5
808.336	7.5
809.079	8.5
809.823	7.5
810.566	7.5
811.31	9.5
812.053	9.5
812.796	7.5
813.539	9.5
814.283	7.5
815.026	6.5
815.769	6.5
816.511	9.5
817.254	5.5
817.997	6.5
818.74	7.5
819.482	3.5
820.225	8.5
820.967	6.5
821.71	4.5
822.452	6.5
823.194	4.5
823.936	4.5
824.678	4.5
825.42	7.5
826.162	6.5
826.904	5.5
827.646	4.5
828.388	5.5
829.129	4.5
829.871	4.5
830.612	4.5
831.354	6.5
832.095	4.5
832.836	2.5
833.577	5.5
834.319	6.5
835.06	6.5
835.801	4.5
836.542	3.5
837.282	5.5
838.023	5.5
838.764	5.5
839.504	4.5
840.245	6.5
840.985	4.5
841.726	5.5
842.466	4.5
843.206	5.5
843.946	4.5
844.687	3.5
845.427	4.5
846.166	3.5
846.906	4.5
847.646	2.5
848.386	3.5
849.125	2.5
849.865	6.5
850.605	4.5
851.344	3.5
852.083	4.5
852.823	3.5
853.562	4.5
854.301	2.5
855.04	2.5
855.779	6.5
856.518	0.5
857.257	5.5
857.995	2.5
858.734	2.5
859.473	1.5
860.211	2.5
860.95	3.5
861.688	4.5
862.426	5.5
863.165	4.5
863.903	2.5
864.641	2.5
865.379	2.5
866.117	1.5
866.855	2.5
867.593	3.5
868.33	1.5
869.068	2.5
869.806	3.5
870.543	1.5
871.28	1.5
872.018	2.5
872.755	2.5
873.492	2.5
874.229	0.5
874.967	3.5
875.703	1.5
876.44	0.5
877.177	2.5
877.914	-1.5
878.651	2.5
879.387	2.5
880.124	1.5
880.86	1.5
881.597	0.5
882.333	0.5
883.069	2.5
883.806	-0.5
884.542	2.5
885.278	2.5
886.014	0.5
886.749	2.5
887.485	2.5
888.221	1.5
888.957	2.5
889.692	1.5
890.428	-0.5
891.163	2.5
891.899	2.5
892.634	2.5
893.369	0.5
894.104	-0.5
894.839	0.5
895.574	0.5
896.309	2.5
897.044	0.5
897.779	2.5
898.514	2.5
899.248	0.5
899.983	1.5
900.717	-0.5
901.452	2.5
902.186	3.5
902.92	1.5
903.654	1.5
904.389	0.5
905.123	1.5
905.857	-1.5
906.59	0.5
907.324	0.5
908.058	0.5
908.792	0.5
909.525	-1.5
910.259	2.5
910.992	0.5
911.726	0.5
912.459	1.5
913.192	-0.5
913.925	3.5
914.658	0.5
915.391	0.5
916.124	2.5
916.857	-1.5
917.59	2.5
918.323	1.5
919.055	0.5
919.788	0.5
920.521	0.5
921.253	2.5
921.985	0.5
922.718	0.5
923.45	0.5
924.182	2.5
924.914	-1.5
925.646	0.5
926.378	0.5
927.11	-0.5
927.841	2.5
928.573	0.5
929.305	1.5
930.036	0.5
930.768	-0.5
931.499	0.5
932.23	0.5
932.962	1.5
933.693	0.5
934.424	0.5
935.155	0.5
935.886	0.5
936.617	1.5
937.348	1.5
938.078	2.5
938.809	-1.5
939.54	1.5
940.27	0.5
941.001	-1.5
941.731	-0.5
942.461	2.5
943.191	-1.5
943.922	0.5
944.652	-0.5
945.382	3.5
946.112	-1.5
946.841	-1.5
947.571	2.5
948.301	1.5
949.031	1.5
949.76	0.5
950.49	2.5
951.219	1.5
951.948	0.5
952.678	-1.5
953.407	0.5
954.136	-0.5
954.865	2.5
955.594	-0.5
956.323	0.5
957.052	0.5
957.78	1.5
958.509	2.5
959.238	1.5
959.966	1.5
960.695	-0.5
961.423	0.5
962.151	1.5
962.88	0.5
963.608	0.5
964.336	0.5
965.064	0.5
965.792	-0.5
966.52	1.5
967.247	1.5
967.975	-0.5
968.703	1.5
969.43	-1.5
970.158	-0.5
970.885	0.5
971.613	1.5
972.34	-0.5
973.067	0.5
973.794	0.5
974.521	0.5
975.248	1.5
975.975	1.5
976.702	1.5
977.429	0.5
978.156	-0.5
978.882	-0.5
979.609	2.5
980.335	0.5
981.062	1.5
981.788	1.5
982.514	0.5
983.24	1.5
983.967	-0.5
984.693	0.5
985.419	1.5
986.144	1.5
986.87	-1.5
987.596	-0.5
988.322	-1.5
989.047	1.5
989.773	-1.5
990.498	0.5
991.224	2.5
991.949	-0.5
992.674	-0.5
993.399	0.5
994.124	0.5
994.849	-1.5
995.574	-0.5
996.299	0.5
997.024	-0.5
997.749	0.5
998.473	-0.5
999.198	1.5
999.922	1.5
1000.647	-0.5
1001.371	2.5
1002.095	-1.5
1002.82	0.5
1003.544	-1.5
1004.268	1.5
1004.992	2.5
1005.716	3.5
1006.439	0.5
1007.163	5.5
1007.887	4.5
1008.611	0.5
1009.334	0.5
1010.058	1.5
1010.781	-0.5
1011.504	-0.5
1012.228	-0.5
1012.951	0.5
1013.674	-0.5
1014.397	-1.5
1015.12	1.5
