节点500_425_QEPB04081__161__15-50-59-207.txt的数据

Date: Wed Nov 12 15:50:59 CST 2025
User: PC
Spectrometer: QEPB0408
触发模式: 0
积分时间 (秒): 1.000000E-2
Scans to average: 1
启用暗噪声校正: true
启用非线性校正: false
滑动平均宽度: 0
X轴模式: Wavelengths
Number of Pixels in Spectrum: 1044
>>>>>Begin Spectral Data<<<<<
220.843	2.38
221.644	2.38
222.444	4.38
223.244	4.38
224.045	2.38
224.845	3.38
225.645	2.38
226.445	5.38
227.245	3.38
228.045	4.38
228.845	6.38
229.645	5.38
230.444	7.38
231.244	6.38
232.043	6.38
232.843	4.38
233.642	5.38
234.442	8.38
235.241	3.38
236.04	7.38
236.839	4.38
237.638	6.38
238.437	10.38
239.236	6.38
240.035	7.38
240.833	6.38
241.632	4.38
242.43	6.38
243.229	7.38
244.027	7.38
244.826	7.38
245.624	9.38
246.422	10.38
247.22	9.38
248.018	10.38
248.816	10.38
249.614	9.38
250.412	8.38
251.21	9.38
252.007	13.38
252.805	9.38
253.602	13.38
254.4	10.38
255.197	12.38
255.994	13.38
256.791	13.38
257.589	12.38
258.386	13.38
259.183	14.38
259.979	16.38
260.776	15.38
261.573	15.38
262.37	15.38
263.166	14.38
263.963	17.38
264.759	18.38
265.556	18.38
266.352	17.38
267.148	19.38
267.944	21.38
268.74	21.38
269.536	19.38
270.332	25.38
271.128	21.38
271.924	22.38
272.719	24.38
273.515	23.38
274.311	24.38
275.106	22.38
275.901	24.38
276.697	26.38
277.492	22.38
278.287	25.38
279.082	27.38
279.877	24.38
280.672	24.38
281.467	27.38
282.262	25.38
283.056	25.38
283.851	28.38
284.646	25.38
285.44	25.38
286.234	24.38
287.029	23.38
287.823	26.38
288.617	22.38
289.411	26.38
290.205	24.38
290.999	24.38
291.793	26.38
292.587	21.38
293.381	23.38
294.174	21.38
294.968	25.38
295.761	21.38
296.555	18.38
297.348	20.38
298.141	18.38
298.935	20.38
299.728	20.38
300.521	18.38
301.314	18.38
302.107	18.38
302.899	20.38
303.692	18.38
304.485	18.38
305.277	19.38
306.07	16.38
306.862	16.38
307.655	15.38
308.447	16.38
309.239	16.38
310.031	13.38
310.823	12.38
311.615	14.38
312.407	13.38
313.199	12.38
313.991	14.38
314.783	11.38
315.574	9.38
316.366	13.38
317.157	11.38
317.949	11.38
318.74	11.38
319.531	10.38
320.322	12.38
321.113	10.38
321.904	11.38
322.695	10.38
323.486	11.38
324.277	7.38
325.068	8.38
325.858	7.38
326.649	8.38
327.439	9.38
328.23	8.38
329.02	11.38
329.81	10.38
330.6	9.38
331.391	9.38
332.181	6.38
332.971	9.38
333.76	8.38
334.55	8.38
335.34	8.38
336.13	7.38
336.919	8.38
337.709	9.38
338.498	7.38
339.287	10.38
340.077	7.38
340.866	8.38
341.655	8.38
342.444	7.38
343.233	8.38
344.022	8.38
344.811	7.38
345.6	6.38
346.388	5.38
347.177	9.38
347.965	9.38
348.754	9.38
349.542	9.38
350.33	7.38
351.119	8.38
351.907	6.38
352.695	9.38
353.483	6.38
354.271	10.38
355.059	8.38
355.846	7.38
356.634	9.38
357.422	8.38
358.209	5.38
358.997	6.38
359.784	9.38
360.571	6.38
361.359	8.38
362.146	6.38
362.933	8.38
363.72	8.38
364.507	6.38
365.294	7.38
366.081	4.38
366.867	9.38
367.654	7.38
368.44	6.38
369.227	8.38
370.013	6.38
370.8	7.38
371.586	6.38
372.372	5.38
373.158	7.38
373.944	6.38
374.73	7.38
375.516	7.38
376.302	5.38
377.088	6.38
377.873	7.38
378.659	7.38
379.445	6.38
380.23	6.38
381.015	7.38
381.801	6.38
382.586	7.38
383.371	7.38
384.156	6.38
384.941	8.38
385.726	6.38
386.511	8.38
387.296	9.38
388.08	9.38
388.865	4.38
389.649	8.38
390.434	9.38
391.218	7.38
392.003	10.38
392.787	8.38
393.571	7.38
394.355	8.38
395.139	8.38
395.923	9.38
396.707	8.38
397.491	9.38
398.274	9.38
399.058	9.38
399.842	9.38
400.625	9.38
401.408	10.38
402.192	9.38
402.975	11.38
403.758	9.38
404.541	10.38
405.324	9.38
406.107	12.38
406.89	11.38
407.673	8.38
408.456	12.38
409.238	13.38
410.021	12.38
410.803	12.38
411.586	11.38
412.368	14.38
413.151	12.38
413.933	13.38
414.715	12.38
415.497	13.38
416.279	10.38
417.061	13.38
417.843	13.38
418.624	15.38
419.406	16.38
420.188	15.38
420.969	13.38
421.751	15.38
422.532	14.38
423.313	14.38
424.095	15.38
424.876	17.38
425.657	16.38
426.438	15.38
427.219	20.38
428	21.38
428.78	22.38
429.561	19.38
430.342	18.38
431.122	21.38
431.903	17.38
432.683	22.38
433.464	23.38
434.244	22.38
435.024	25.38
435.804	24.38
436.584	27.38
437.364	26.38
438.144	28.38
438.924	29.38
439.704	30.38
440.483	34.38
441.263	37.38
442.042	38.38
442.822	40.38
443.601	40.38
444.38	43.38
445.16	47.38
445.939	51.38
446.718	52.38
447.497	60.38
448.276	65.38
449.054	67.38
449.833	75.38
450.612	80.38
451.391	92.38
452.169	95.38
452.948	104.38
453.726	121.38
454.504	130.38
455.282	143.38
456.061	158.38
456.839	177.38
457.617	198.38
458.395	226.38
459.172	244.38
459.95	273.38
460.728	307.38
461.506	345.38
462.283	375.38
463.061	429.38
463.838	476.38
464.615	542.38
465.393	601.38
466.17	664.38
466.947	753.38
467.724	833.38
468.501	927.38
469.278	1024.38
470.055	1147.38
470.831	1274.38
471.608	1422.38
472.385	1574.38
473.161	1738.38
473.938	1939.38
474.714	2161.38
475.49	2378.38
476.266	2615.38
477.043	2884.38
477.819	3209.38
478.595	3542.38
479.371	3874.38
480.146	4298.38
480.922	4708.38
481.698	5202.38
482.473	5699.38
483.249	6260.38
484.024	6896.38
484.8	7560.38
485.575	8282.38
486.35	9037.38
487.126	9913.38
487.901	10828.38
488.676	11822.38
489.451	12832.38
490.225	14041.38
491	15221.38
491.775	16555.38
492.55	17861.38
493.324	19233.38
494.099	20647.38
494.873	22126.38
495.647	23558.38
496.422	25096.38
497.196	26614.38
497.97	28153.38
498.744	29567.38
499.518	31005.38
500.292	32174.38
501.066	33363.38
501.839	34406.38
502.613	35343.38
503.387	35912.38
504.16	36381.38
504.934	36449.38
505.707	36468.38
506.48	36279.38
507.253	35924.38
508.027	35368.38
508.8	34613.38
509.573	33795.38
510.346	32766.38
511.118	31798.38
511.891	30656.38
512.664	29550.38
513.437	28268.38
514.209	27071.38
514.982	26102.38
515.754	24926.38
516.526	23765.38
517.298	22787.38
518.071	21804.38
518.843	20975.38
519.615	20123.38
520.387	19310.38
521.159	18551.38
521.93	17891.38
522.702	17088.38
523.474	16426.38
524.245	15761.38
525.017	15079.38
525.788	14395.38
526.56	13665.38
527.331	13069.38
528.102	12429.38
528.873	11794.38
529.644	11254.38
530.415	10764.38
531.186	10178.38
531.957	9622.38
532.728	9112.38
533.498	8634.38
534.269	8136.38
535.039	7682.38
535.81	7269.38
536.58	6848.38
537.351	6435.38
538.121	6094.38
538.891	5793.38
539.661	5481.38
540.431	5187.38
541.201	4922.38
541.971	4636.38
542.741	4417.38
543.51	4199.38
544.28	4010.38
545.05	3767.38
545.819	3618.38
546.588	3450.38
547.358	3257.38
548.127	3095.38
548.896	2921.38
549.665	2768.38
550.434	2648.38
551.203	2473.38
551.972	2357.38
552.741	2242.38
553.51	2125.38
554.278	2003.38
555.047	1874.38
555.815	1767.38
556.584	1668.38
557.352	1589.38
558.121	1481.38
558.889	1390.38
559.657	1324.38
560.425	1249.38
561.193	1163.38
561.961	1112.38
562.729	1053.38
563.496	999.38
564.264	953.38
565.032	910.38
565.799	848.38
566.567	791.38
567.334	759.38
568.101	714.38
568.869	672.38
569.636	629.38
570.403	595.38
571.17	562.38
571.937	530.38
572.704	509.38
573.471	471.38
574.237	453.38
575.004	416.38
575.771	399.38
576.537	377.38
577.303	353.38
578.07	332.38
578.836	318.38
579.602	296.38
580.368	280.38
581.134	270.38
581.9	252.38
582.666	236.38
583.432	228.38
584.198	217.38
584.964	207.38
585.729	196.38
586.495	184.38
587.26	181.38
588.025	162.38
588.791	156.38
589.556	150.38
590.321	140.38
591.086	133.38
591.851	124.38
592.616	121.38
593.381	115.38
594.146	115.38
594.911	101.38
595.675	101.38
596.44	100.38
597.204	95.38
597.969	91.38
598.733	85.38
599.497	81.38
600.261	80.38
601.025	72.38
601.79	71.38
602.553	66.38
603.317	67.38
604.081	61.38
604.845	56.38
605.609	54.38
606.372	56.38
607.136	54.38
607.899	50.38
608.662	50.38
609.426	45.38
610.189	43.38
610.952	46.38
611.715	43.38
612.478	40.38
613.241	39.38
614.004	38.38
614.767	36.38
615.529	32.38
616.292	33.38
617.055	30.38
617.817	30.38
618.579	32.38
619.342	29.38
620.104	27.38
620.866	22.38
621.628	28.38
622.39	26.38
623.152	24.38
623.914	22.38
624.676	21.38
625.438	25.38
626.199	20.38
626.961	20.38
627.722	22.38
628.484	18.38
629.245	17.38
630.006	21.38
630.768	20.38
631.529	16.38
632.29	18.38
633.051	14.38
633.812	17.38
634.573	16.38
635.333	18.38
636.094	17.38
636.855	15.38
637.615	12.38
638.376	14.38
639.136	12.38
639.896	14.38
640.657	13.38
641.417	11.38
642.177	13.38
642.937	14.38
643.697	14.38
644.457	12.38
645.216	13.38
645.976	11.38
646.736	9.38
647.495	12.38
648.255	10.38
649.014	11.38
649.774	10.38
650.533	11.38
651.292	8.38
652.051	11.38
652.81	10.38
653.569	9.38
654.328	10.38
655.087	9.38
655.846	8.38
656.604	10.38
657.363	6.38
658.121	8.38
658.88	8.38
659.638	8.38
660.397	7.38
661.155	6.38
661.913	7.38
662.671	7.38
663.429	6.38
664.187	7.38
664.945	5.38
665.703	6.38
666.46	8.38
667.218	7.38
667.976	7.38
668.733	7.38
669.49	5.38
670.248	6.38
671.005	8.38
671.762	6.38
672.519	7.38
673.276	7.38
674.033	7.38
674.79	7.38
675.547	5.38
676.304	6.38
677.06	5.38
677.817	4.38
678.574	8.38
679.33	4.38
680.086	4.38
680.843	5.38
681.599	4.38
682.355	6.38
683.111	5.38
683.867	6.38
684.623	6.38
685.379	5.38
686.135	5.38
686.89	3.38
687.646	7.38
688.402	5.38
689.157	4.38
689.912	3.38
690.668	3.38
691.423	6.38
692.178	5.38
692.933	5.38
693.688	4.38
694.443	4.38
695.198	6.38
695.953	6.38
696.708	7.38
697.462	7.38
698.217	5.38
698.972	4.38
699.726	7.38
700.48	5.38
701.235	6.38
701.989	4.38
702.743	3.38
703.497	6.38
704.251	6.38
705.005	5.38
705.759	4.38
706.513	7.38
707.266	7.38
708.02	4.38
708.774	5.38
709.527	5.38
710.28	5.38
711.034	5.38
711.787	6.38
712.54	7.38
713.293	5.38
714.046	4.38
714.799	4.38
715.552	6.38
716.305	6.38
717.058	4.38
717.81	5.38
718.563	3.38
719.315	6.38
720.068	5.38
720.82	5.38
721.573	5.38
722.325	5.38
723.077	6.38
723.829	5.38
724.581	5.38
725.333	5.38
726.085	6.38
726.836	5.38
727.588	7.38
728.34	4.38
729.091	5.38
729.843	6.38
730.594	7.38
731.346	3.38
732.097	7.38
732.848	5.38
733.599	4.38
734.35	6.38
735.101	4.38
735.852	8.38
736.603	7.38
737.354	6.38
738.104	4.38
738.855	4.38
739.605	10.38
740.356	6.38
741.106	8.38
741.856	6.38
742.607	6.38
743.357	7.38
744.107	6.38
744.857	6.38
745.607	6.38
746.357	6.38
747.106	8.38
747.856	7.38
748.606	8.38
749.355	8.38
750.105	8.38
750.854	9.38
751.603	7.38
752.353	7.38
753.102	7.38
753.851	8.38
754.6	9.38
755.349	10.38
756.098	8.38
756.847	9.38
757.595	10.38
758.344	7.38
759.093	8.38
759.841	8.38
760.589	10.38
761.338	10.38
762.086	7.38
762.834	8.38
763.582	9.38
764.331	10.38
765.079	10.38
765.826	11.38
766.574	8.38
767.322	11.38
768.07	10.38
768.817	9.38
769.565	9.38
770.312	9.38
771.06	12.38
771.807	12.38
772.554	12.38
773.302	11.38
774.049	12.38
774.796	12.38
775.543	13.38
776.29	11.38
777.036	13.38
777.783	11.38
778.53	12.38
779.276	11.38
780.023	14.38
780.769	10.38
781.516	10.38
782.262	11.38
783.008	10.38
783.754	10.38
784.5	12.38
785.246	12.38
785.992	10.38
786.738	10.38
787.484	10.38
788.23	12.38
788.975	12.38
789.721	14.38
790.466	11.38
791.212	10.38
791.957	9.38
792.702	11.38
793.447	9.38
794.193	9.38
794.938	11.38
795.683	12.38
796.427	13.38
797.172	10.38
797.917	7.38
798.662	12.38
799.406	11.38
800.151	11.38
800.895	10.38
801.64	10.38
802.384	9.38
803.128	8.38
803.872	10.38
804.616	8.38
805.36	10.38
806.104	7.38
806.848	6.38
807.592	9.38
808.336	8.38
809.079	7.38
809.823	9.38
810.566	8.38
811.31	8.38
812.053	4.38
812.796	7.38
813.539	7.38
814.283	4.38
815.026	6.38
815.769	2.38
816.511	8.38
817.254	5.38
817.997	6.38
818.74	4.38
819.482	7.38
820.225	5.38
820.967	6.38
821.71	7.38
822.452	4.38
823.194	4.38
823.936	5.38
824.678	6.38
825.42	6.38
826.162	5.38
826.904	5.38
827.646	6.38
828.388	4.38
829.129	5.38
829.871	3.38
830.612	8.38
831.354	5.38
832.095	4.38
832.836	4.38
833.577	5.38
834.319	4.38
835.06	2.38
835.801	3.38
836.542	3.38
837.282	6.38
838.023	3.38
838.764	3.38
839.504	6.38
840.245	5.38
840.985	3.38
841.726	4.38
842.466	4.38
843.206	5.38
843.946	2.38
844.687	3.38
845.427	4.38
846.166	3.38
846.906	4.38
847.646	2.38
848.386	5.38
849.125	2.38
849.865	3.38
850.605	4.38
851.344	4.38
852.083	4.38
852.823	2.38
853.562	4.38
854.301	3.38
855.04	2.38
855.779	5.38
856.518	2.38
857.257	2.38
857.995	2.38
858.734	2.38
859.473	3.38
860.211	3.38
860.95	4.38
861.688	2.38
862.426	2.38
863.165	2.38
863.903	3.38
864.641	0.38
865.379	3.38
866.117	1.38
866.855	2.38
867.593	4.38
868.33	2.38
869.068	-0.62
869.806	1.38
870.543	2.38
871.28	4.38
872.018	-0.62
872.755	3.38
873.492	2.38
874.229	2.38
874.967	1.38
875.703	1.38
876.44	1.38
877.177	1.38
877.914	3.38
878.651	1.38
879.387	1.38
880.124	1.38
880.86	-1.62
881.597	2.38
882.333	3.38
883.069	2.38
883.806	0.38
884.542	1.38
885.278	1.38
886.014	3.38
886.749	2.38
887.485	3.38
888.221	2.38
888.957	3.38
889.692	-0.62
890.428	0.38
891.163	0.38
891.899	0.38
892.634	0.38
893.369	0.38
894.104	1.38
894.839	0.38
895.574	4.38
896.309	1.38
897.044	1.38
897.779	2.38
898.514	-0.62
899.248	1.38
899.983	2.38
900.717	0.38
901.452	-0.62
902.186	-0.62
902.92	-0.62
903.654	1.38
904.389	5.38
905.123	-1.62
905.857	1.38
906.59	1.38
907.324	0.38
908.058	2.38
908.792	0.38
909.525	0.38
910.259	1.38
910.992	-1.62
911.726	3.38
912.459	-1.62
913.192	1.38
913.925	0.38
914.658	-0.62
915.391	-0.62
916.124	1.38
916.857	-1.62
917.59	2.38
918.323	0.38
919.055	0.38
919.788	0.38
920.521	1.38
921.253	-0.62
921.985	-0.62
922.718	-0.62
923.45	0.38
924.182	0.38
924.914	0.38
925.646	0.38
926.378	1.38
927.11	1.38
927.841	-0.62
928.573	-0.62
929.305	-0.62
930.036	0.38
930.768	1.38
931.499	-1.62
932.23	1.38
932.962	-0.62
933.693	-1.62
934.424	-0.62
935.155	2.38
935.886	1.38
936.617	1.38
937.348	-1.62
938.078	1.38
938.809	-0.62
939.54	1.38
940.27	0.38
941.001	1.38
941.731	0.38
942.461	-1.62
943.191	1.38
943.922	1.38
944.652	1.38
945.382	-1.62
946.112	0.38
946.841	0.38
947.571	-1.62
948.301	1.38
949.031	-0.62
949.76	0.38
950.49	-0.62
951.219	-0.62
951.948	1.38
952.678	1.38
953.407	-0.62
954.136	1.38
954.865	1.38
955.594	0.38
956.323	1.38
957.052	1.38
957.78	-0.62
958.509	0.38
959.238	0.38
959.966	-2.62
960.695	1.38
961.423	2.38
962.151	1.38
962.88	0.38
963.608	1.38
964.336	-0.62
965.064	0.38
965.792	2.38
966.52	-2.62
967.247	0.38
967.975	1.38
968.703	0.38
969.43	2.38
970.158	-1.62
970.885	0.38
971.613	-0.62
972.34	-1.62
973.067	1.38
973.794	0.38
974.521	1.38
975.248	1.38
975.975	-0.62
976.702	0.38
977.429	0.38
978.156	0.38
978.882	-1.62
979.609	-0.62
980.335	-1.62
981.062	2.38
981.788	-2.62
982.514	-0.62
983.24	0.38
983.967	0.38
984.693	1.38
985.419	1.38
986.144	-0.62
986.87	-0.62
987.596	0.38
988.322	1.38
989.047	0.38
989.773	0.38
990.498	1.38
991.224	-0.62
991.949	0.38
992.674	0.38
993.399	0.38
994.124	0.38
994.849	-0.62
995.574	2.38
996.299	1.38
997.024	0.38
997.749	-0.62
998.473	0.38
999.198	2.38
999.922	0.38
1000.647	0.38
1001.371	3.38
1002.095	0.38
1002.82	-1.62
1003.544	0.38
1004.268	2.38
1004.992	1.38
1005.716	2.38
1006.439	4.38
1007.163	4.38
1007.887	2.38
1008.611	1.38
1009.334	0.38
1010.058	0.38
1010.781	-1.62
1011.504	0.38
1012.228	1.38
1012.951	-0.62
1013.674	-1.62
1014.397	-0.62
1015.12	0.38
