节点500_425_QEPB04081__405__15-55-02-715.txt的数据

Date: Wed Nov 12 15:55:02 CST 2025
User: PC
Spectrometer: QEPB0408
触发模式: 0
积分时间 (秒): 1.000000E-2
Scans to average: 1
启用暗噪声校正: true
启用非线性校正: false
滑动平均宽度: 0
X轴模式: Wavelengths
Number of Pixels in Spectrum: 1044
>>>>>Begin Spectral Data<<<<<
220.843	0.62
221.644	5.62
222.444	2.62
223.244	3.62
224.045	4.62
224.845	3.62
225.645	4.62
226.445	0.62
227.245	3.62
228.045	3.62
228.845	3.62
229.645	2.62
230.444	2.62
231.244	6.62
232.043	5.62
232.843	5.62
233.642	6.62
234.442	6.62
235.241	7.62
236.04	6.62
236.839	6.62
237.638	5.62
238.437	6.62
239.236	6.62
240.035	6.62
240.833	6.62
241.632	9.62
242.43	8.62
243.229	7.62
244.027	7.62
244.826	7.62
245.624	7.62
246.422	9.62
247.22	6.62
248.018	11.62
248.816	10.62
249.614	7.62
250.412	9.62
251.21	11.62
252.007	11.62
252.805	11.62
253.602	10.62
254.4	11.62
255.197	8.62
255.994	10.62
256.791	12.62
257.589	11.62
258.386	14.62
259.183	14.62
259.979	12.62
260.776	11.62
261.573	13.62
262.37	15.62
263.166	14.62
263.963	15.62
264.759	16.62
265.556	18.62
266.352	15.62
267.148	16.62
267.944	18.62
268.74	17.62
269.536	18.62
270.332	18.62
271.128	20.62
271.924	20.62
272.719	21.62
273.515	20.62
274.311	19.62
275.106	21.62
275.901	22.62
276.697	20.62
277.492	23.62
278.287	22.62
279.082	22.62
279.877	24.62
280.672	26.62
281.467	23.62
282.262	23.62
283.056	26.62
283.851	25.62
284.646	25.62
285.44	24.62
286.234	27.62
287.029	23.62
287.823	21.62
288.617	23.62
289.411	19.62
290.205	24.62
290.999	22.62
291.793	23.62
292.587	24.62
293.381	19.62
294.174	22.62
294.968	22.62
295.761	20.62
296.555	21.62
297.348	20.62
298.141	19.62
298.935	23.62
299.728	17.62
300.521	17.62
301.314	17.62
302.107	16.62
302.899	17.62
303.692	17.62
304.485	14.62
305.277	18.62
306.07	17.62
306.862	17.62
307.655	15.62
308.447	17.62
309.239	15.62
310.031	14.62
310.823	13.62
311.615	13.62
312.407	14.62
313.199	12.62
313.991	14.62
314.783	11.62
315.574	13.62
316.366	11.62
317.157	10.62
317.949	11.62
318.74	10.62
319.531	10.62
320.322	9.62
321.113	10.62
321.904	11.62
322.695	12.62
323.486	9.62
324.277	11.62
325.068	9.62
325.858	8.62
326.649	9.62
327.439	11.62
328.23	6.62
329.02	7.62
329.81	8.62
330.6	9.62
331.391	8.62
332.181	9.62
332.971	9.62
333.76	8.62
334.55	10.62
335.34	7.62
336.13	10.62
336.919	8.62
337.709	8.62
338.498	8.62
339.287	8.62
340.077	6.62
340.866	8.62
341.655	9.62
342.444	9.62
343.233	8.62
344.022	9.62
344.811	9.62
345.6	12.62
346.388	9.62
347.177	8.62
347.965	8.62
348.754	5.62
349.542	7.62
350.33	7.62
351.119	7.62
351.907	9.62
352.695	7.62
353.483	6.62
354.271	7.62
355.059	7.62
355.846	7.62
356.634	6.62
357.422	7.62
358.209	6.62
358.997	6.62
359.784	7.62
360.571	9.62
361.359	5.62
362.146	7.62
362.933	7.62
363.72	6.62
364.507	7.62
365.294	6.62
366.081	5.62
366.867	8.62
367.654	5.62
368.44	4.62
369.227	7.62
370.013	8.62
370.8	7.62
371.586	6.62
372.372	7.62
373.158	7.62
373.944	8.62
374.73	7.62
375.516	8.62
376.302	7.62
377.088	4.62
377.873	5.62
378.659	8.62
379.445	6.62
380.23	4.62
381.015	5.62
381.801	6.62
382.586	6.62
383.371	10.62
384.156	8.62
384.941	7.62
385.726	9.62
386.511	7.62
387.296	6.62
388.08	6.62
388.865	6.62
389.649	6.62
390.434	8.62
391.218	8.62
392.003	8.62
392.787	9.62
393.571	9.62
394.355	8.62
395.139	9.62
395.923	7.62
396.707	9.62
397.491	11.62
398.274	10.62
399.058	8.62
399.842	9.62
400.625	10.62
401.408	9.62
402.192	9.62
402.975	7.62
403.758	9.62
404.541	11.62
405.324	10.62
406.107	10.62
406.89	11.62
407.673	12.62
408.456	10.62
409.238	11.62
410.021	10.62
410.803	8.62
411.586	13.62
412.368	10.62
413.151	12.62
413.933	14.62
414.715	12.62
415.497	12.62
416.279	11.62
417.061	10.62
417.843	11.62
418.624	14.62
419.406	14.62
420.188	13.62
420.969	15.62
421.751	16.62
422.532	14.62
423.313	15.62
424.095	16.62
424.876	14.62
425.657	17.62
426.438	17.62
427.219	16.62
428	19.62
428.78	18.62
429.561	17.62
430.342	22.62
431.122	19.62
431.903	19.62
432.683	21.62
433.464	24.62
434.244	24.62
435.024	24.62
435.804	24.62
436.584	27.62
437.364	27.62
438.144	28.62
438.924	31.62
439.704	34.62
440.483	33.62
441.263	35.62
442.042	40.62
442.822	43.62
443.601	43.62
444.38	45.62
445.16	50.62
445.939	51.62
446.718	55.62
447.497	62.62
448.276	66.62
449.054	74.62
449.833	77.62
450.612	88.62
451.391	97.62
452.169	104.62
452.948	118.62
453.726	131.62
454.504	138.62
455.282	159.62
456.061	177.62
456.839	196.62
457.617	214.62
458.395	239.62
459.172	265.62
459.95	303.62
460.728	333.62
461.506	372.62
462.283	422.62
463.061	468.62
463.838	510.62
464.615	570.62
465.393	643.62
466.17	698.62
466.947	791.62
467.724	871.62
468.501	968.62
469.278	1072.62
470.055	1182.62
470.831	1309.62
471.608	1459.62
472.385	1618.62
473.161	1768.62
473.938	1948.62
474.714	2159.62
475.49	2377.62
476.266	2605.62
477.043	2878.62
477.819	3155.62
478.595	3473.62
479.371	3798.62
480.146	4154.62
480.922	4547.62
481.698	5005.62
482.473	5450.62
483.249	5959.62
484.024	6477.62
484.8	7141.62
485.575	7752.62
486.35	8428.62
487.126	9121.62
487.901	9925.62
488.676	10860.62
489.451	11741.62
490.225	12705.62
491	13776.62
491.775	14938.62
492.55	16078.62
493.324	17327.62
494.099	18514.62
494.873	19848.62
495.647	21131.62
496.422	22459.62
497.196	23761.62
497.97	25215.62
498.744	26589.62
499.518	27918.62
500.292	29135.62
501.066	30270.62
501.839	31299.62
502.613	32243.62
503.387	32959.62
504.16	33590.62
504.934	34065.62
505.707	34186.62
506.48	34190.62
507.253	34013.62
508.027	33776.62
508.8	33345.62
509.573	32812.62
510.346	32083.62
511.118	31222.62
511.891	30311.62
512.664	29272.62
513.437	28247.62
514.209	27148.62
514.982	26235.62
515.754	25118.62
516.526	24103.62
517.298	23099.62
518.071	22135.62
518.843	21255.62
519.615	20319.62
520.387	19552.62
521.159	18820.62
521.93	18088.62
522.702	17438.62
523.474	16745.62
524.245	16062.62
525.017	15294.62
525.788	14598.62
526.56	13986.62
527.331	13367.62
528.102	12784.62
528.873	12141.62
529.644	11613.62
530.415	11089.62
531.186	10545.62
531.957	10040.62
532.728	9526.62
533.498	8963.62
534.269	8526.62
535.039	8014.62
535.81	7602.62
536.58	7202.62
537.351	6789.62
538.121	6401.62
538.891	6087.62
539.661	5766.62
540.431	5489.62
541.201	5181.62
541.971	4903.62
542.741	4639.62
543.51	4399.62
544.28	4186.62
545.05	3977.62
545.819	3787.62
546.588	3617.62
547.358	3420.62
548.127	3246.62
548.896	3098.62
549.665	2936.62
550.434	2771.62
551.203	2641.62
551.972	2512.62
552.741	2366.62
553.51	2225.62
554.278	2122.62
555.047	1999.62
555.815	1881.62
556.584	1777.62
557.352	1663.62
558.121	1583.62
558.889	1488.62
559.657	1417.62
560.425	1335.62
561.193	1260.62
561.961	1211.62
562.729	1148.62
563.496	1074.62
564.264	1024.62
565.032	964.62
565.799	908.62
566.567	849.62
567.334	803.62
568.101	767.62
568.869	725.62
569.636	680.62
570.403	647.62
571.17	596.62
571.937	571.62
572.704	538.62
573.471	510.62
574.237	475.62
575.004	455.62
575.771	427.62
576.537	402.62
577.303	378.62
578.07	360.62
578.836	331.62
579.602	316.62
580.368	302.62
581.134	288.62
581.9	273.62
582.666	254.62
583.432	249.62
584.198	229.62
584.964	215.62
585.729	208.62
586.495	197.62
587.26	189.62
588.025	178.62
588.791	167.62
589.556	163.62
590.321	151.62
591.086	145.62
591.851	136.62
592.616	123.62
593.381	124.62
594.146	117.62
594.911	113.62
595.675	107.62
596.44	100.62
597.204	94.62
597.969	88.62
598.733	90.62
599.497	88.62
600.261	81.62
601.025	75.62
601.79	74.62
602.553	69.62
603.317	72.62
604.081	63.62
604.845	62.62
605.609	60.62
606.372	57.62
607.136	58.62
607.899	49.62
608.662	51.62
609.426	48.62
610.189	46.62
610.952	46.62
611.715	41.62
612.478	44.62
613.241	40.62
614.004	40.62
614.767	38.62
615.529	36.62
616.292	39.62
617.055	30.62
617.817	33.62
618.579	33.62
619.342	29.62
620.104	28.62
620.866	28.62
621.628	26.62
622.39	26.62
623.152	27.62
623.914	24.62
624.676	23.62
625.438	26.62
626.199	22.62
626.961	21.62
627.722	21.62
628.484	20.62
629.245	20.62
630.006	19.62
630.768	17.62
631.529	16.62
632.29	20.62
633.051	16.62
633.812	17.62
634.573	14.62
635.333	15.62
636.094	17.62
636.855	16.62
637.615	14.62
638.376	13.62
639.136	12.62
639.896	13.62
640.657	12.62
641.417	11.62
642.177	14.62
642.937	12.62
643.697	12.62
644.457	8.62
645.216	14.62
645.976	10.62
646.736	12.62
647.495	12.62
648.255	10.62
649.014	12.62
649.774	7.62
650.533	10.62
651.292	9.62
652.051	9.62
652.81	10.62
653.569	8.62
654.328	9.62
655.087	10.62
655.846	7.62
656.604	9.62
657.363	8.62
658.121	6.62
658.88	7.62
659.638	10.62
660.397	9.62
661.155	9.62
661.913	7.62
662.671	8.62
663.429	8.62
664.187	7.62
664.945	6.62
665.703	7.62
666.46	6.62
667.218	7.62
667.976	5.62
668.733	6.62
669.49	7.62
670.248	8.62
671.005	6.62
671.762	5.62
672.519	8.62
673.276	8.62
674.033	7.62
674.79	8.62
675.547	6.62
676.304	7.62
677.06	4.62
677.817	7.62
678.574	4.62
679.33	5.62
680.086	3.62
680.843	6.62
681.599	6.62
682.355	4.62
683.111	6.62
683.867	5.62
684.623	5.62
685.379	6.62
686.135	6.62
686.89	6.62
687.646	6.62
688.402	9.62
689.157	4.62
689.912	4.62
690.668	8.62
691.423	5.62
692.178	4.62
692.933	4.62
693.688	6.62
694.443	4.62
695.198	6.62
695.953	5.62
696.708	3.62
697.462	6.62
698.217	5.62
698.972	3.62
699.726	3.62
700.48	3.62
701.235	6.62
701.989	6.62
702.743	3.62
703.497	5.62
704.251	3.62
705.005	5.62
705.759	2.62
706.513	5.62
707.266	7.62
708.02	6.62
708.774	5.62
709.527	5.62
710.28	8.62
711.034	5.62
711.787	6.62
712.54	5.62
713.293	4.62
714.046	4.62
714.799	3.62
715.552	4.62
716.305	3.62
717.058	6.62
717.81	3.62
718.563	4.62
719.315	5.62
720.068	6.62
720.82	7.62
721.573	6.62
722.325	4.62
723.077	5.62
723.829	3.62
724.581	5.62
725.333	5.62
726.085	5.62
726.836	5.62
727.588	4.62
728.34	4.62
729.091	5.62
729.843	7.62
730.594	5.62
731.346	6.62
732.097	6.62
732.848	4.62
733.599	7.62
734.35	6.62
735.101	4.62
735.852	8.62
736.603	6.62
737.354	5.62
738.104	8.62
738.855	4.62
739.605	5.62
740.356	4.62
741.106	7.62
741.856	6.62
742.607	5.62
743.357	7.62
744.107	7.62
744.857	8.62
745.607	6.62
746.357	6.62
747.106	7.62
747.856	5.62
748.606	5.62
749.355	7.62
750.105	5.62
750.854	6.62
751.603	8.62
752.353	5.62
753.102	8.62
753.851	6.62
754.6	7.62
755.349	8.62
756.098	8.62
756.847	7.62
757.595	10.62
758.344	7.62
759.093	8.62
759.841	4.62
760.589	9.62
761.338	7.62
762.086	10.62
762.834	8.62
763.582	9.62
764.331	9.62
765.079	9.62
765.826	9.62
766.574	9.62
767.322	11.62
768.07	9.62
768.817	8.62
769.565	9.62
770.312	10.62
771.06	10.62
771.807	10.62
772.554	11.62
773.302	12.62
774.049	8.62
774.796	9.62
775.543	11.62
776.29	13.62
777.036	10.62
777.783	10.62
778.53	11.62
779.276	10.62
780.023	12.62
780.769	11.62
781.516	11.62
782.262	11.62
783.008	12.62
783.754	10.62
784.5	10.62
785.246	8.62
785.992	8.62
786.738	10.62
787.484	12.62
788.23	12.62
788.975	8.62
789.721	12.62
790.466	9.62
791.212	8.62
791.957	11.62
792.702	12.62
793.447	12.62
794.193	8.62
794.938	12.62
795.683	10.62
796.427	10.62
797.172	9.62
797.917	10.62
798.662	11.62
799.406	10.62
800.151	10.62
800.895	7.62
801.64	9.62
802.384	8.62
803.128	8.62
803.872	9.62
804.616	7.62
805.36	8.62
806.104	7.62
806.848	6.62
807.592	12.62
808.336	8.62
809.079	8.62
809.823	5.62
810.566	7.62
811.31	8.62
812.053	7.62
812.796	8.62
813.539	6.62
814.283	7.62
815.026	7.62
815.769	6.62
816.511	7.62
817.254	5.62
817.997	6.62
818.74	6.62
819.482	7.62
820.225	4.62
820.967	7.62
821.71	5.62
822.452	3.62
823.194	5.62
823.936	6.62
824.678	6.62
825.42	5.62
826.162	5.62
826.904	6.62
827.646	7.62
828.388	6.62
829.129	7.62
829.871	3.62
830.612	5.62
831.354	3.62
832.095	6.62
832.836	3.62
833.577	5.62
834.319	6.62
835.06	8.62
835.801	7.62
836.542	4.62
837.282	3.62
838.023	4.62
838.764	5.62
839.504	4.62
840.245	4.62
840.985	4.62
841.726	2.62
842.466	4.62
843.206	1.62
843.946	2.62
844.687	3.62
845.427	5.62
846.166	5.62
846.906	2.62
847.646	4.62
848.386	3.62
849.125	2.62
849.865	4.62
850.605	1.62
851.344	3.62
852.083	3.62
852.823	1.62
853.562	2.62
854.301	2.62
855.04	3.62
855.779	3.62
856.518	3.62
857.257	1.62
857.995	3.62
858.734	4.62
859.473	2.62
860.211	3.62
860.95	3.62
861.688	3.62
862.426	2.62
863.165	4.62
863.903	4.62
864.641	6.62
865.379	3.62
866.117	2.62
866.855	2.62
867.593	2.62
868.33	1.62
869.068	2.62
869.806	3.62
870.543	3.62
871.28	0.62
872.018	0.62
872.755	2.62
873.492	2.62
874.229	1.62
874.967	1.62
875.703	0.62
876.44	2.62
877.177	0.62
877.914	1.62
878.651	1.62
879.387	2.62
880.124	0.62
880.86	0.62
881.597	2.62
882.333	-0.38
883.069	3.62
883.806	4.62
884.542	-0.38
885.278	0.62
886.014	3.62
886.749	2.62
887.485	-0.38
888.221	0.62
888.957	3.62
889.692	2.62
890.428	2.62
891.163	1.62
891.899	0.62
892.634	2.62
893.369	-0.38
894.104	2.62
894.839	1.62
895.574	1.62
896.309	1.62
897.044	0.62
897.779	2.62
898.514	1.62
899.248	-0.38
899.983	-0.38
900.717	0.62
901.452	-1.38
902.186	0.62
902.92	0.62
903.654	-1.38
904.389	0.62
905.123	0.62
905.857	0.62
906.59	0.62
907.324	-0.38
908.058	0.62
908.792	2.62
909.525	0.62
910.259	-0.38
910.992	-0.38
911.726	1.62
912.459	-0.38
913.192	0.62
913.925	-1.38
914.658	2.62
915.391	1.62
916.124	0.62
916.857	1.62
917.59	0.62
918.323	0.62
919.055	2.62
919.788	0.62
920.521	-0.38
921.253	0.62
921.985	-0.38
922.718	0.62
923.45	1.62
924.182	0.62
924.914	1.62
925.646	1.62
926.378	-1.38
927.11	2.62
927.841	0.62
928.573	0.62
929.305	-0.38
930.036	-2.38
930.768	1.62
931.499	-1.38
932.23	-1.38
932.962	-1.38
933.693	-0.38
934.424	2.62
935.155	-1.38
935.886	-1.38
936.617	2.62
937.348	0.62
938.078	1.62
938.809	0.62
939.54	2.62
940.27	1.62
941.001	0.62
941.731	-0.38
942.461	-2.38
943.191	1.62
943.922	1.62
944.652	0.62
945.382	-1.38
946.112	1.62
946.841	2.62
947.571	0.62
948.301	1.62
949.031	-1.38
949.76	0.62
950.49	0.62
951.219	1.62
951.948	3.62
952.678	-0.38
953.407	1.62
954.136	0.62
954.865	-1.38
955.594	0.62
956.323	-1.38
957.052	2.62
957.78	0.62
958.509	0.62
959.238	0.62
959.966	-0.38
960.695	1.62
961.423	0.62
962.151	-1.38
962.88	2.62
963.608	1.62
964.336	0.62
965.064	-1.38
965.792	3.62
966.52	1.62
967.247	1.62
967.975	2.62
968.703	0.62
969.43	0.62
970.158	0.62
970.885	1.62
971.613	-1.38
972.34	0.62
973.067	0.62
973.794	-1.38
974.521	-0.38
975.248	-0.38
975.975	-0.38
976.702	-1.38
977.429	1.62
978.156	-0.38
978.882	-0.38
979.609	1.62
980.335	-1.38
981.062	1.62
981.788	-1.38
982.514	-2.38
983.24	0.62
983.967	-0.38
984.693	1.62
985.419	1.62
986.144	1.62
986.87	0.62
987.596	-0.38
988.322	-0.38
989.047	0.62
989.773	0.62
990.498	2.62
991.224	-0.38
991.949	0.62
992.674	-2.38
993.399	1.62
994.124	-0.38
994.849	0.62
995.574	0.62
996.299	2.62
997.024	0.62
997.749	0.62
998.473	1.62
999.198	0.62
999.922	-0.38
1000.647	1.62
1001.371	4.62
1002.095	-1.38
1002.82	-1.38
1003.544	-1.38
1004.268	3.62
1004.992	2.62
1005.716	4.62
1006.439	1.62
1007.163	3.62
1007.887	3.62
1008.611	-0.38
1009.334	0.62
1010.058	1.62
1010.781	-0.38
1011.504	0.62
1012.228	1.62
1012.951	-1.38
1013.674	0.62
1014.397	0.62
1015.12	-0.38
