节点500_425_QEPB04081__123__15-50-21-287.txt的数据

Date: Wed Nov 12 15:50:21 CST 2025
User: PC
Spectrometer: QEPB0408
触发模式: 0
积分时间 (秒): 1.000000E-2
Scans to average: 1
启用暗噪声校正: true
启用非线性校正: false
滑动平均宽度: 0
X轴模式: Wavelengths
Number of Pixels in Spectrum: 1044
>>>>>Begin Spectral Data<<<<<
220.843	0.62
221.644	1.62
222.444	5.62
223.244	2.62
224.045	2.62
224.845	2.62
225.645	5.62
226.445	5.62
227.245	5.62
228.045	2.62
228.845	1.62
229.645	5.62
230.444	5.62
231.244	5.62
232.043	5.62
232.843	4.62
233.642	6.62
234.442	7.62
235.241	6.62
236.04	5.62
236.839	7.62
237.638	4.62
238.437	7.62
239.236	7.62
240.035	5.62
240.833	6.62
241.632	6.62
242.43	8.62
243.229	6.62
244.027	8.62
244.826	6.62
245.624	10.62
246.422	8.62
247.22	10.62
248.018	7.62
248.816	8.62
249.614	10.62
250.412	8.62
251.21	10.62
252.007	10.62
252.805	9.62
253.602	13.62
254.4	11.62
255.197	11.62
255.994	10.62
256.791	14.62
257.589	13.62
258.386	13.62
259.183	11.62
259.979	14.62
260.776	14.62
261.573	13.62
262.37	19.62
263.166	15.62
263.963	20.62
264.759	17.62
265.556	17.62
266.352	16.62
267.148	19.62
267.944	18.62
268.74	20.62
269.536	22.62
270.332	21.62
271.128	22.62
271.924	20.62
272.719	20.62
273.515	25.62
274.311	24.62
275.106	22.62
275.901	25.62
276.697	28.62
277.492	26.62
278.287	28.62
279.082	27.62
279.877	28.62
280.672	25.62
281.467	24.62
282.262	28.62
283.056	30.62
283.851	26.62
284.646	24.62
285.44	25.62
286.234	23.62
287.029	24.62
287.823	25.62
288.617	23.62
289.411	21.62
290.205	24.62
290.999	23.62
291.793	22.62
292.587	26.62
293.381	23.62
294.174	22.62
294.968	20.62
295.761	19.62
296.555	22.62
297.348	21.62
298.141	19.62
298.935	22.62
299.728	21.62
300.521	21.62
301.314	15.62
302.107	20.62
302.899	20.62
303.692	16.62
304.485	19.62
305.277	14.62
306.07	14.62
306.862	16.62
307.655	15.62
308.447	14.62
309.239	17.62
310.031	16.62
310.823	14.62
311.615	17.62
312.407	12.62
313.199	13.62
313.991	15.62
314.783	12.62
315.574	12.62
316.366	11.62
317.157	11.62
317.949	11.62
318.74	10.62
319.531	10.62
320.322	10.62
321.113	13.62
321.904	9.62
322.695	8.62
323.486	10.62
324.277	8.62
325.068	10.62
325.858	9.62
326.649	9.62
327.439	8.62
328.23	7.62
329.02	9.62
329.81	8.62
330.6	12.62
331.391	8.62
332.181	9.62
332.971	10.62
333.76	7.62
334.55	7.62
335.34	9.62
336.13	9.62
336.919	7.62
337.709	9.62
338.498	8.62
339.287	7.62
340.077	8.62
340.866	8.62
341.655	7.62
342.444	8.62
343.233	7.62
344.022	7.62
344.811	8.62
345.6	11.62
346.388	8.62
347.177	8.62
347.965	9.62
348.754	5.62
349.542	8.62
350.33	8.62
351.119	9.62
351.907	9.62
352.695	8.62
353.483	7.62
354.271	4.62
355.059	8.62
355.846	6.62
356.634	8.62
357.422	7.62
358.209	5.62
358.997	10.62
359.784	6.62
360.571	7.62
361.359	8.62
362.146	7.62
362.933	8.62
363.72	8.62
364.507	8.62
365.294	9.62
366.081	7.62
366.867	7.62
367.654	6.62
368.44	6.62
369.227	6.62
370.013	8.62
370.8	6.62
371.586	4.62
372.372	5.62
373.158	8.62
373.944	5.62
374.73	9.62
375.516	6.62
376.302	6.62
377.088	7.62
377.873	7.62
378.659	9.62
379.445	7.62
380.23	7.62
381.015	7.62
381.801	9.62
382.586	4.62
383.371	8.62
384.156	7.62
384.941	9.62
385.726	8.62
386.511	5.62
387.296	8.62
388.08	6.62
388.865	7.62
389.649	6.62
390.434	6.62
391.218	8.62
392.003	7.62
392.787	10.62
393.571	9.62
394.355	8.62
395.139	7.62
395.923	7.62
396.707	9.62
397.491	8.62
398.274	10.62
399.058	8.62
399.842	10.62
400.625	8.62
401.408	8.62
402.192	11.62
402.975	10.62
403.758	8.62
404.541	10.62
405.324	12.62
406.107	10.62
406.89	9.62
407.673	11.62
408.456	11.62
409.238	13.62
410.021	10.62
410.803	10.62
411.586	15.62
412.368	11.62
413.151	10.62
413.933	10.62
414.715	14.62
415.497	15.62
416.279	14.62
417.061	13.62
417.843	14.62
418.624	11.62
419.406	17.62
420.188	13.62
420.969	13.62
421.751	12.62
422.532	16.62
423.313	16.62
424.095	18.62
424.876	17.62
425.657	16.62
426.438	19.62
427.219	18.62
428	19.62
428.78	19.62
429.561	18.62
430.342	20.62
431.122	19.62
431.903	19.62
432.683	20.62
433.464	22.62
434.244	26.62
435.024	26.62
435.804	26.62
436.584	29.62
437.364	28.62
438.144	26.62
438.924	27.62
439.704	33.62
440.483	31.62
441.263	35.62
442.042	39.62
442.822	39.62
443.601	40.62
444.38	43.62
445.16	49.62
445.939	49.62
446.718	58.62
447.497	58.62
448.276	62.62
449.054	70.62
449.833	75.62
450.612	80.62
451.391	89.62
452.169	94.62
452.948	107.62
453.726	115.62
454.504	129.62
455.282	144.62
456.061	160.62
456.839	174.62
457.617	194.62
458.395	218.62
459.172	246.62
459.95	269.62
460.728	307.62
461.506	337.62
462.283	386.62
463.061	422.62
463.838	483.62
464.615	530.62
465.393	584.62
466.17	662.62
466.947	741.62
467.724	833.62
468.501	928.62
469.278	1028.62
470.055	1147.62
470.831	1259.62
471.608	1402.62
472.385	1563.62
473.161	1737.62
473.938	1933.62
474.714	2139.62
475.49	2359.62
476.266	2611.62
477.043	2894.62
477.819	3193.62
478.595	3550.62
479.371	3902.62
480.146	4294.62
480.922	4705.62
481.698	5218.62
482.473	5714.62
483.249	6309.62
484.024	6917.62
484.8	7628.62
485.575	8313.62
486.35	9142.62
487.126	9995.62
487.901	10894.62
488.676	11906.62
489.451	13044.62
490.225	14189.62
491	15454.62
491.775	16730.62
492.55	18069.62
493.324	19463.62
494.099	20892.62
494.873	22359.62
495.647	23854.62
496.422	25431.62
497.196	26946.62
497.97	28512.62
498.744	29969.62
499.518	31357.62
500.292	32570.62
501.066	33691.62
501.839	34732.62
502.613	35646.62
503.387	36288.62
504.16	36670.62
504.934	36736.62
505.707	36719.62
506.48	36555.62
507.253	36100.62
508.027	35494.62
508.8	34737.62
509.573	33804.62
510.346	32894.62
511.118	31781.62
511.891	30675.62
512.664	29512.62
513.437	28229.62
514.209	27060.62
514.982	26059.62
515.754	24951.62
516.526	23813.62
517.298	22770.62
518.071	21850.62
518.843	20855.62
519.615	20081.62
520.387	19180.62
521.159	18492.62
521.93	17755.62
522.702	17129.62
523.474	16428.62
524.245	15691.62
525.017	14998.62
525.788	14371.62
526.56	13648.62
527.331	12969.62
528.102	12430.62
528.873	11763.62
529.644	11188.62
530.415	10646.62
531.186	10132.62
531.957	9584.62
532.728	9069.62
533.498	8585.62
534.269	8059.62
535.039	7633.62
535.81	7181.62
536.58	6773.62
537.351	6424.62
538.121	6088.62
538.891	5775.62
539.661	5456.62
540.431	5161.62
541.201	4895.62
541.971	4636.62
542.741	4405.62
543.51	4142.62
544.28	3953.62
545.05	3772.62
545.819	3598.62
546.588	3422.62
547.358	3221.62
548.127	3040.62
548.896	2891.62
549.665	2740.62
550.434	2613.62
551.203	2457.62
551.972	2341.62
552.741	2218.62
553.51	2103.62
554.278	1966.62
555.047	1858.62
555.815	1759.62
556.584	1659.62
557.352	1573.62
558.121	1474.62
558.889	1390.62
559.657	1326.62
560.425	1233.62
561.193	1164.62
561.961	1106.62
562.729	1037.62
563.496	985.62
564.264	938.62
565.032	893.62
565.799	831.62
566.567	794.62
567.334	755.62
568.101	712.62
568.869	671.62
569.636	625.62
570.403	597.62
571.17	563.62
571.937	527.62
572.704	502.62
573.471	474.62
574.237	449.62
575.004	423.62
575.771	399.62
576.537	370.62
577.303	345.62
578.07	328.62
578.836	309.62
579.602	293.62
580.368	281.62
581.134	261.62
581.9	244.62
582.666	237.62
583.432	220.62
584.198	216.62
584.964	199.62
585.729	199.62
586.495	183.62
587.26	173.62
588.025	161.62
588.791	161.62
589.556	142.62
590.321	141.62
591.086	132.62
591.851	123.62
592.616	120.62
593.381	116.62
594.146	109.62
594.911	106.62
595.675	100.62
596.44	96.62
597.204	91.62
597.969	88.62
598.733	83.62
599.497	79.62
600.261	76.62
601.025	72.62
601.79	69.62
602.553	70.62
603.317	66.62
604.081	58.62
604.845	58.62
605.609	58.62
606.372	51.62
607.136	52.62
607.899	49.62
608.662	49.62
609.426	49.62
610.189	46.62
610.952	41.62
611.715	39.62
612.478	39.62
613.241	38.62
614.004	39.62
614.767	36.62
615.529	37.62
616.292	33.62
617.055	31.62
617.817	29.62
618.579	30.62
619.342	27.62
620.104	26.62
620.866	27.62
621.628	26.62
622.39	25.62
623.152	27.62
623.914	24.62
624.676	22.62
625.438	22.62
626.199	21.62
626.961	22.62
627.722	19.62
628.484	23.62
629.245	17.62
630.006	17.62
630.768	18.62
631.529	15.62
632.29	18.62
633.051	19.62
633.812	20.62
634.573	14.62
635.333	13.62
636.094	15.62
636.855	14.62
637.615	16.62
638.376	10.62
639.136	15.62
639.896	11.62
640.657	15.62
641.417	14.62
642.177	13.62
642.937	12.62
643.697	10.62
644.457	10.62
645.216	10.62
645.976	11.62
646.736	12.62
647.495	11.62
648.255	8.62
649.014	10.62
649.774	9.62
650.533	8.62
651.292	10.62
652.051	10.62
652.81	10.62
653.569	8.62
654.328	10.62
655.087	9.62
655.846	8.62
656.604	8.62
657.363	6.62
658.121	10.62
658.88	8.62
659.638	7.62
660.397	7.62
661.155	7.62
661.913	8.62
662.671	7.62
663.429	6.62
664.187	4.62
664.945	8.62
665.703	5.62
666.46	8.62
667.218	4.62
667.976	7.62
668.733	8.62
669.49	6.62
670.248	8.62
671.005	6.62
671.762	9.62
672.519	6.62
673.276	5.62
674.033	6.62
674.79	4.62
675.547	7.62
676.304	6.62
677.06	6.62
677.817	4.62
678.574	4.62
679.33	7.62
680.086	4.62
680.843	6.62
681.599	7.62
682.355	5.62
683.111	7.62
683.867	3.62
684.623	6.62
685.379	6.62
686.135	5.62
686.89	4.62
687.646	4.62
688.402	7.62
689.157	4.62
689.912	5.62
690.668	4.62
691.423	5.62
692.178	4.62
692.933	5.62
693.688	4.62
694.443	7.62
695.198	6.62
695.953	6.62
696.708	4.62
697.462	4.62
698.217	4.62
698.972	4.62
699.726	7.62
700.48	5.62
701.235	4.62
701.989	3.62
702.743	6.62
703.497	6.62
704.251	5.62
705.005	4.62
705.759	5.62
706.513	5.62
707.266	4.62
708.02	6.62
708.774	5.62
709.527	2.62
710.28	6.62
711.034	7.62
711.787	5.62
712.54	4.62
713.293	6.62
714.046	6.62
714.799	6.62
715.552	6.62
716.305	5.62
717.058	6.62
717.81	4.62
718.563	5.62
719.315	4.62
720.068	5.62
720.82	4.62
721.573	5.62
722.325	6.62
723.077	7.62
723.829	5.62
724.581	8.62
725.333	5.62
726.085	7.62
726.836	5.62
727.588	4.62
728.34	5.62
729.091	6.62
729.843	5.62
730.594	5.62
731.346	4.62
732.097	5.62
732.848	4.62
733.599	6.62
734.35	3.62
735.101	7.62
735.852	4.62
736.603	6.62
737.354	8.62
738.104	6.62
738.855	8.62
739.605	3.62
740.356	8.62
741.106	8.62
741.856	6.62
742.607	7.62
743.357	6.62
744.107	7.62
744.857	7.62
745.607	6.62
746.357	7.62
747.106	7.62
747.856	9.62
748.606	7.62
749.355	9.62
750.105	8.62
750.854	7.62
751.603	7.62
752.353	7.62
753.102	10.62
753.851	9.62
754.6	8.62
755.349	8.62
756.098	10.62
756.847	7.62
757.595	7.62
758.344	9.62
759.093	10.62
759.841	9.62
760.589	9.62
761.338	12.62
762.086	11.62
762.834	9.62
763.582	10.62
764.331	11.62
765.079	9.62
765.826	11.62
766.574	10.62
767.322	9.62
768.07	13.62
768.817	10.62
769.565	10.62
770.312	9.62
771.06	10.62
771.807	9.62
772.554	11.62
773.302	11.62
774.049	10.62
774.796	13.62
775.543	10.62
776.29	10.62
777.036	11.62
777.783	14.62
778.53	10.62
779.276	11.62
780.023	12.62
780.769	11.62
781.516	12.62
782.262	12.62
783.008	12.62
783.754	13.62
784.5	12.62
785.246	11.62
785.992	12.62
786.738	11.62
787.484	11.62
788.23	12.62
788.975	15.62
789.721	14.62
790.466	11.62
791.212	11.62
791.957	11.62
792.702	10.62
793.447	11.62
794.193	9.62
794.938	10.62
795.683	8.62
796.427	9.62
797.172	12.62
797.917	9.62
798.662	10.62
799.406	11.62
800.151	10.62
800.895	8.62
801.64	10.62
802.384	8.62
803.128	9.62
803.872	9.62
804.616	9.62
805.36	8.62
806.104	8.62
806.848	7.62
807.592	7.62
808.336	7.62
809.079	9.62
809.823	7.62
810.566	7.62
811.31	6.62
812.053	7.62
812.796	8.62
813.539	6.62
814.283	6.62
815.026	3.62
815.769	8.62
816.511	3.62
817.254	6.62
817.997	5.62
818.74	9.62
819.482	5.62
820.225	6.62
820.967	6.62
821.71	5.62
822.452	8.62
823.194	2.62
823.936	5.62
824.678	7.62
825.42	4.62
826.162	7.62
826.904	6.62
827.646	5.62
828.388	4.62
829.129	4.62
829.871	5.62
830.612	7.62
831.354	6.62
832.095	5.62
832.836	3.62
833.577	5.62
834.319	4.62
835.06	6.62
835.801	7.62
836.542	3.62
837.282	4.62
838.023	4.62
838.764	6.62
839.504	4.62
840.245	5.62
840.985	5.62
841.726	5.62
842.466	5.62
843.206	3.62
843.946	2.62
844.687	2.62
845.427	5.62
846.166	4.62
846.906	2.62
847.646	2.62
848.386	5.62
849.125	3.62
849.865	3.62
850.605	2.62
851.344	3.62
852.083	4.62
852.823	4.62
853.562	2.62
854.301	2.62
855.04	3.62
855.779	2.62
856.518	3.62
857.257	2.62
857.995	2.62
858.734	3.62
859.473	0.62
860.211	2.62
860.95	1.62
861.688	4.62
862.426	3.62
863.165	2.62
863.903	3.62
864.641	0.62
865.379	1.62
866.117	1.62
866.855	3.62
867.593	0.62
868.33	0.62
869.068	3.62
869.806	0.62
870.543	4.62
871.28	2.62
872.018	2.62
872.755	-0.38
873.492	2.62
874.229	1.62
874.967	3.62
875.703	0.62
876.44	0.62
877.177	1.62
877.914	0.62
878.651	-0.38
879.387	2.62
880.124	0.62
880.86	1.62
881.597	0.62
882.333	-1.38
883.069	1.62
883.806	-0.38
884.542	2.62
885.278	0.62
886.014	1.62
886.749	3.62
887.485	-0.38
888.221	2.62
888.957	-2.38
889.692	1.62
890.428	1.62
891.163	1.62
891.899	1.62
892.634	-1.38
893.369	2.62
894.104	1.62
894.839	0.62
895.574	1.62
896.309	0.62
897.044	1.62
897.779	0.62
898.514	0.62
899.248	1.62
899.983	-0.38
900.717	-0.38
901.452	-0.38
902.186	0.62
902.92	0.62
903.654	2.62
904.389	0.62
905.123	2.62
905.857	-0.38
906.59	1.62
907.324	0.62
908.058	0.62
908.792	1.62
909.525	1.62
910.259	0.62
910.992	3.62
911.726	-0.38
912.459	0.62
913.192	0.62
913.925	-1.38
914.658	2.62
915.391	-0.38
916.124	0.62
916.857	-3.38
917.59	2.62
918.323	-0.38
919.055	1.62
919.788	-0.38
920.521	0.62
921.253	1.62
921.985	1.62
922.718	-0.38
923.45	-1.38
924.182	2.62
924.914	2.62
925.646	-1.38
926.378	1.62
927.11	-0.38
927.841	-0.38
928.573	-1.38
929.305	-1.38
930.036	1.62
930.768	2.62
931.499	-0.38
932.23	-0.38
932.962	-0.38
933.693	1.62
934.424	-0.38
935.155	-0.38
935.886	-1.38
936.617	-0.38
937.348	2.62
938.078	0.62
938.809	0.62
939.54	-0.38
940.27	1.62
941.001	0.62
941.731	-1.38
942.461	1.62
943.191	0.62
943.922	0.62
944.652	1.62
945.382	0.62
946.112	0.62
946.841	-0.38
947.571	0.62
948.301	1.62
949.031	-0.38
949.76	0.62
950.49	0.62
951.219	2.62
951.948	-0.38
952.678	1.62
953.407	1.62
954.136	0.62
954.865	1.62
955.594	-0.38
956.323	0.62
957.052	0.62
957.78	1.62
958.509	0.62
959.238	0.62
959.966	0.62
960.695	-1.38
961.423	1.62
962.151	0.62
962.88	-1.38
963.608	-0.38
964.336	-0.38
965.064	0.62
965.792	0.62
966.52	2.62
967.247	1.62
967.975	-1.38
968.703	-1.38
969.43	-0.38
970.158	1.62
970.885	0.62
971.613	0.62
972.34	-0.38
973.067	-1.38
973.794	1.62
974.521	-0.38
975.248	0.62
975.975	1.62
976.702	1.62
977.429	0.62
978.156	-1.38
978.882	1.62
979.609	-1.38
980.335	1.62
981.062	-1.38
981.788	-1.38
982.514	1.62
983.24	-0.38
983.967	2.62
984.693	0.62
985.419	-0.38
986.144	-0.38
986.87	1.62
987.596	1.62
988.322	-1.38
989.047	1.62
989.773	-0.38
990.498	0.62
991.224	1.62
991.949	0.62
992.674	0.62
993.399	-0.38
994.124	1.62
994.849	-0.38
995.574	-2.38
996.299	1.62
997.024	-1.38
997.749	1.62
998.473	0.62
999.198	-3.38
999.922	-0.38
1000.647	0.62
1001.371	3.62
1002.095	-3.38
1002.82	0.62
1003.544	-1.38
1004.268	1.62
1004.992	0.62
1005.716	1.62
1006.439	2.62
1007.163	1.62
1007.887	3.62
1008.611	-0.38
1009.334	-1.38
1010.058	-0.38
1010.781	0.62
1011.504	-0.38
1012.228	0.62
1012.951	0.62
1013.674	-0.38
1014.397	1.62
1015.12	-1.38
