节点500_425_QEPB04081__402__15-54-59-721.txt的数据

Date: Wed Nov 12 15:54:59 CST 2025
User: PC
Spectrometer: QEPB0408
触发模式: 0
积分时间 (秒): 1.000000E-2
Scans to average: 1
启用暗噪声校正: true
启用非线性校正: false
滑动平均宽度: 0
X轴模式: Wavelengths
Number of Pixels in Spectrum: 1044
>>>>>Begin Spectral Data<<<<<
220.843	1.62
221.644	5.62
222.444	1.62
223.244	3.62
224.045	5.62
224.845	6.62
225.645	6.62
226.445	5.62
227.245	2.62
228.045	6.62
228.845	3.62
229.645	5.62
230.444	2.62
231.244	4.62
232.043	3.62
232.843	5.62
233.642	4.62
234.442	6.62
235.241	6.62
236.04	5.62
236.839	5.62
237.638	5.62
238.437	4.62
239.236	8.62
240.035	6.62
240.833	7.62
241.632	7.62
242.43	6.62
243.229	8.62
244.027	6.62
244.826	6.62
245.624	7.62
246.422	6.62
247.22	10.62
248.018	8.62
248.816	9.62
249.614	7.62
250.412	8.62
251.21	9.62
252.007	11.62
252.805	10.62
253.602	10.62
254.4	10.62
255.197	11.62
255.994	11.62
256.791	10.62
257.589	10.62
258.386	11.62
259.183	11.62
259.979	12.62
260.776	14.62
261.573	15.62
262.37	14.62
263.166	13.62
263.963	18.62
264.759	16.62
265.556	17.62
266.352	16.62
267.148	18.62
267.944	18.62
268.74	19.62
269.536	20.62
270.332	20.62
271.128	22.62
271.924	18.62
272.719	18.62
273.515	23.62
274.311	22.62
275.106	19.62
275.901	21.62
276.697	23.62
277.492	21.62
278.287	26.62
279.082	23.62
279.877	20.62
280.672	24.62
281.467	22.62
282.262	26.62
283.056	26.62
283.851	21.62
284.646	25.62
285.44	21.62
286.234	25.62
287.029	24.62
287.823	25.62
288.617	25.62
289.411	19.62
290.205	22.62
290.999	21.62
291.793	24.62
292.587	23.62
293.381	21.62
294.174	19.62
294.968	18.62
295.761	22.62
296.555	18.62
297.348	20.62
298.141	18.62
298.935	21.62
299.728	19.62
300.521	21.62
301.314	19.62
302.107	17.62
302.899	16.62
303.692	18.62
304.485	16.62
305.277	15.62
306.07	14.62
306.862	16.62
307.655	16.62
308.447	16.62
309.239	18.62
310.031	14.62
310.823	14.62
311.615	16.62
312.407	13.62
313.199	11.62
313.991	13.62
314.783	9.62
315.574	12.62
316.366	12.62
317.157	11.62
317.949	10.62
318.74	12.62
319.531	9.62
320.322	11.62
321.113	11.62
321.904	11.62
322.695	10.62
323.486	10.62
324.277	12.62
325.068	11.62
325.858	9.62
326.649	7.62
327.439	9.62
328.23	8.62
329.02	6.62
329.81	10.62
330.6	8.62
331.391	9.62
332.181	8.62
332.971	6.62
333.76	8.62
334.55	8.62
335.34	9.62
336.13	9.62
336.919	9.62
337.709	9.62
338.498	7.62
339.287	9.62
340.077	8.62
340.866	10.62
341.655	9.62
342.444	9.62
343.233	8.62
344.022	11.62
344.811	8.62
345.6	9.62
346.388	4.62
347.177	8.62
347.965	10.62
348.754	8.62
349.542	9.62
350.33	7.62
351.119	7.62
351.907	6.62
352.695	9.62
353.483	6.62
354.271	5.62
355.059	7.62
355.846	8.62
356.634	7.62
357.422	8.62
358.209	7.62
358.997	8.62
359.784	8.62
360.571	6.62
361.359	8.62
362.146	8.62
362.933	7.62
363.72	7.62
364.507	9.62
365.294	8.62
366.081	7.62
366.867	8.62
367.654	6.62
368.44	7.62
369.227	8.62
370.013	6.62
370.8	4.62
371.586	7.62
372.372	6.62
373.158	6.62
373.944	8.62
374.73	7.62
375.516	7.62
376.302	7.62
377.088	8.62
377.873	7.62
378.659	6.62
379.445	6.62
380.23	8.62
381.015	9.62
381.801	8.62
382.586	10.62
383.371	7.62
384.156	5.62
384.941	7.62
385.726	6.62
386.511	4.62
387.296	6.62
388.08	8.62
388.865	7.62
389.649	5.62
390.434	8.62
391.218	7.62
392.003	9.62
392.787	9.62
393.571	5.62
394.355	9.62
395.139	7.62
395.923	7.62
396.707	9.62
397.491	8.62
398.274	9.62
399.058	8.62
399.842	8.62
400.625	6.62
401.408	11.62
402.192	8.62
402.975	8.62
403.758	10.62
404.541	9.62
405.324	8.62
406.107	9.62
406.89	11.62
407.673	10.62
408.456	10.62
409.238	11.62
410.021	8.62
410.803	12.62
411.586	10.62
412.368	8.62
413.151	13.62
413.933	10.62
414.715	10.62
415.497	14.62
416.279	13.62
417.061	13.62
417.843	12.62
418.624	12.62
419.406	14.62
420.188	13.62
420.969	12.62
421.751	14.62
422.532	16.62
423.313	17.62
424.095	17.62
424.876	17.62
425.657	12.62
426.438	16.62
427.219	16.62
428	18.62
428.78	19.62
429.561	18.62
430.342	21.62
431.122	18.62
431.903	22.62
432.683	22.62
433.464	20.62
434.244	22.62
435.024	25.62
435.804	23.62
436.584	26.62
437.364	29.62
438.144	30.62
438.924	32.62
439.704	33.62
440.483	32.62
441.263	38.62
442.042	35.62
442.822	40.62
443.601	43.62
444.38	43.62
445.16	49.62
445.939	52.62
446.718	57.62
447.497	65.62
448.276	65.62
449.054	76.62
449.833	79.62
450.612	89.62
451.391	99.62
452.169	103.62
452.948	112.62
453.726	128.62
454.504	144.62
455.282	154.62
456.061	178.62
456.839	195.62
457.617	213.62
458.395	238.62
459.172	264.62
459.95	295.62
460.728	329.62
461.506	363.62
462.283	405.62
463.061	462.62
463.838	507.62
464.615	570.62
465.393	634.62
466.17	699.62
466.947	789.62
467.724	880.62
468.501	975.62
469.278	1071.62
470.055	1180.62
470.831	1310.62
471.608	1459.62
472.385	1609.62
473.161	1767.62
473.938	1946.62
474.714	2157.62
475.49	2393.62
476.266	2600.62
477.043	2881.62
477.819	3145.62
478.595	3468.62
479.371	3825.62
480.146	4191.62
480.922	4563.62
481.698	4992.62
482.473	5460.62
483.249	5946.62
484.024	6484.62
484.8	7147.62
485.575	7749.62
486.35	8406.62
487.126	9169.62
487.901	9953.62
488.676	10808.62
489.451	11724.62
490.225	12728.62
491	13855.62
491.775	14947.62
492.55	16030.62
493.324	17340.62
494.099	18513.62
494.873	19813.62
495.647	21089.62
496.422	22441.62
497.196	23772.62
497.97	25292.62
498.744	26614.62
499.518	27954.62
500.292	29143.62
501.066	30232.62
501.839	31343.62
502.613	32261.62
503.387	33031.62
504.16	33669.62
504.934	34013.62
505.707	34233.62
506.48	34202.62
507.253	34050.62
508.027	33794.62
508.8	33292.62
509.573	32794.62
510.346	32057.62
511.118	31201.62
511.891	30309.62
512.664	29267.62
513.437	28176.62
514.209	27130.62
514.982	26176.62
515.754	25179.62
516.526	24104.62
517.298	23096.62
518.071	22101.62
518.843	21216.62
519.615	20348.62
520.387	19575.62
521.159	18806.62
521.93	18125.62
522.702	17363.62
523.474	16714.62
524.245	16071.62
525.017	15304.62
525.788	14628.62
526.56	13949.62
527.331	13393.62
528.102	12766.62
528.873	12124.62
529.644	11618.62
530.415	11062.62
531.186	10570.62
531.957	10001.62
532.728	9512.62
533.498	8933.62
534.269	8464.62
535.039	8054.62
535.81	7620.62
536.58	7158.62
537.351	6784.62
538.121	6406.62
538.891	6060.62
539.661	5748.62
540.431	5454.62
541.201	5175.62
541.971	4908.62
542.741	4634.62
543.51	4413.62
544.28	4176.62
545.05	3963.62
545.819	3789.62
546.588	3601.62
547.358	3428.62
548.127	3228.62
548.896	3077.62
549.665	2950.62
550.434	2779.62
551.203	2640.62
551.972	2480.62
552.741	2358.62
553.51	2227.62
554.278	2097.62
555.047	1981.62
555.815	1884.62
556.584	1772.62
557.352	1688.62
558.121	1597.62
558.889	1488.62
559.657	1413.62
560.425	1354.62
561.193	1250.62
561.961	1190.62
562.729	1140.62
563.496	1064.62
564.264	1014.62
565.032	949.62
565.799	896.62
566.567	869.62
567.334	815.62
568.101	770.62
568.869	717.62
569.636	677.62
570.403	644.62
571.17	605.62
571.937	570.62
572.704	529.62
573.471	510.62
574.237	478.62
575.004	457.62
575.771	428.62
576.537	402.62
577.303	373.62
578.07	352.62
578.836	333.62
579.602	314.62
580.368	301.62
581.134	281.62
581.9	270.62
582.666	256.62
583.432	238.62
584.198	232.62
584.964	215.62
585.729	206.62
586.495	197.62
587.26	186.62
588.025	179.62
588.791	168.62
589.556	158.62
590.321	152.62
591.086	144.62
591.851	131.62
592.616	128.62
593.381	122.62
594.146	117.62
594.911	110.62
595.675	104.62
596.44	101.62
597.204	96.62
597.969	92.62
598.733	91.62
599.497	85.62
600.261	80.62
601.025	72.62
601.79	74.62
602.553	67.62
603.317	67.62
604.081	66.62
604.845	62.62
605.609	61.62
606.372	57.62
607.136	54.62
607.899	54.62
608.662	51.62
609.426	50.62
610.189	46.62
610.952	43.62
611.715	45.62
612.478	41.62
613.241	37.62
614.004	37.62
614.767	35.62
615.529	36.62
616.292	32.62
617.055	34.62
617.817	30.62
618.579	32.62
619.342	31.62
620.104	27.62
620.866	26.62
621.628	28.62
622.39	28.62
623.152	26.62
623.914	22.62
624.676	24.62
625.438	22.62
626.199	23.62
626.961	23.62
627.722	20.62
628.484	22.62
629.245	18.62
630.006	18.62
630.768	16.62
631.529	20.62
632.29	16.62
633.051	18.62
633.812	17.62
634.573	16.62
635.333	16.62
636.094	13.62
636.855	15.62
637.615	14.62
638.376	14.62
639.136	14.62
639.896	16.62
640.657	14.62
641.417	12.62
642.177	13.62
642.937	12.62
643.697	11.62
644.457	10.62
645.216	12.62
645.976	10.62
646.736	13.62
647.495	12.62
648.255	10.62
649.014	10.62
649.774	9.62
650.533	9.62
651.292	9.62
652.051	10.62
652.81	10.62
653.569	7.62
654.328	9.62
655.087	8.62
655.846	8.62
656.604	7.62
657.363	10.62
658.121	6.62
658.88	10.62
659.638	8.62
660.397	8.62
661.155	9.62
661.913	7.62
662.671	5.62
663.429	8.62
664.187	7.62
664.945	6.62
665.703	5.62
666.46	6.62
667.218	8.62
667.976	6.62
668.733	6.62
669.49	3.62
670.248	8.62
671.005	7.62
671.762	6.62
672.519	6.62
673.276	6.62
674.033	6.62
674.79	6.62
675.547	5.62
676.304	2.62
677.06	5.62
677.817	4.62
678.574	5.62
679.33	5.62
680.086	6.62
680.843	6.62
681.599	6.62
682.355	6.62
683.111	4.62
683.867	3.62
684.623	3.62
685.379	5.62
686.135	2.62
686.89	4.62
687.646	3.62
688.402	6.62
689.157	3.62
689.912	6.62
690.668	3.62
691.423	6.62
692.178	6.62
692.933	5.62
693.688	4.62
694.443	4.62
695.198	3.62
695.953	6.62
696.708	7.62
697.462	7.62
698.217	5.62
698.972	4.62
699.726	3.62
700.48	3.62
701.235	4.62
701.989	4.62
702.743	3.62
703.497	4.62
704.251	5.62
705.005	4.62
705.759	4.62
706.513	4.62
707.266	4.62
708.02	4.62
708.774	6.62
709.527	6.62
710.28	4.62
711.034	3.62
711.787	4.62
712.54	3.62
713.293	6.62
714.046	1.62
714.799	5.62
715.552	4.62
716.305	3.62
717.058	4.62
717.81	5.62
718.563	4.62
719.315	6.62
720.068	4.62
720.82	4.62
721.573	4.62
722.325	7.62
723.077	5.62
723.829	5.62
724.581	5.62
725.333	4.62
726.085	4.62
726.836	5.62
727.588	8.62
728.34	7.62
729.091	5.62
729.843	6.62
730.594	6.62
731.346	5.62
732.097	6.62
732.848	2.62
733.599	5.62
734.35	5.62
735.101	4.62
735.852	5.62
736.603	7.62
737.354	6.62
738.104	6.62
738.855	5.62
739.605	4.62
740.356	4.62
741.106	5.62
741.856	5.62
742.607	9.62
743.357	7.62
744.107	8.62
744.857	4.62
745.607	5.62
746.357	6.62
747.106	6.62
747.856	7.62
748.606	6.62
749.355	7.62
750.105	5.62
750.854	8.62
751.603	6.62
752.353	8.62
753.102	7.62
753.851	9.62
754.6	7.62
755.349	8.62
756.098	6.62
756.847	10.62
757.595	8.62
758.344	8.62
759.093	5.62
759.841	8.62
760.589	7.62
761.338	5.62
762.086	9.62
762.834	7.62
763.582	7.62
764.331	9.62
765.079	8.62
765.826	8.62
766.574	8.62
767.322	9.62
768.07	10.62
768.817	8.62
769.565	8.62
770.312	11.62
771.06	10.62
771.807	10.62
772.554	10.62
773.302	8.62
774.049	9.62
774.796	8.62
775.543	9.62
776.29	8.62
777.036	8.62
777.783	12.62
778.53	8.62
779.276	9.62
780.023	11.62
780.769	11.62
781.516	14.62
782.262	13.62
783.008	11.62
783.754	12.62
784.5	10.62
785.246	13.62
785.992	9.62
786.738	10.62
787.484	12.62
788.23	11.62
788.975	12.62
789.721	11.62
790.466	11.62
791.212	10.62
791.957	9.62
792.702	8.62
793.447	10.62
794.193	10.62
794.938	8.62
795.683	11.62
796.427	11.62
797.172	11.62
797.917	10.62
798.662	9.62
799.406	9.62
800.151	9.62
800.895	9.62
801.64	8.62
802.384	10.62
803.128	9.62
803.872	9.62
804.616	8.62
805.36	9.62
806.104	8.62
806.848	9.62
807.592	9.62
808.336	8.62
809.079	7.62
809.823	7.62
810.566	8.62
811.31	7.62
812.053	6.62
812.796	6.62
813.539	6.62
814.283	8.62
815.026	7.62
815.769	9.62
816.511	5.62
817.254	7.62
817.997	6.62
818.74	6.62
819.482	8.62
820.225	4.62
820.967	7.62
821.71	7.62
822.452	4.62
823.194	3.62
823.936	4.62
824.678	6.62
825.42	6.62
826.162	5.62
826.904	6.62
827.646	4.62
828.388	5.62
829.129	4.62
829.871	6.62
830.612	3.62
831.354	2.62
832.095	6.62
832.836	2.62
833.577	3.62
834.319	3.62
835.06	5.62
835.801	5.62
836.542	3.62
837.282	2.62
838.023	2.62
838.764	3.62
839.504	5.62
840.245	3.62
840.985	4.62
841.726	4.62
842.466	2.62
843.206	2.62
843.946	5.62
844.687	4.62
845.427	3.62
846.166	2.62
846.906	4.62
847.646	4.62
848.386	2.62
849.125	3.62
849.865	4.62
850.605	2.62
851.344	4.62
852.083	5.62
852.823	4.62
853.562	4.62
854.301	4.62
855.04	4.62
855.779	3.62
856.518	2.62
857.257	2.62
857.995	2.62
858.734	1.62
859.473	0.62
860.211	3.62
860.95	4.62
861.688	4.62
862.426	3.62
863.165	4.62
863.903	2.62
864.641	2.62
865.379	0.62
866.117	2.62
866.855	2.62
867.593	3.62
868.33	3.62
869.068	3.62
869.806	0.62
870.543	5.62
871.28	0.62
872.018	0.62
872.755	2.62
873.492	-0.38
874.229	2.62
874.967	2.62
875.703	0.62
876.44	-0.38
877.177	2.62
877.914	-0.38
878.651	-1.38
879.387	-0.38
880.124	1.62
880.86	1.62
881.597	2.62
882.333	1.62
883.069	-0.38
883.806	0.62
884.542	0.62
885.278	2.62
886.014	0.62
886.749	1.62
887.485	1.62
888.221	0.62
888.957	2.62
889.692	1.62
890.428	1.62
891.163	-0.38
891.899	1.62
892.634	2.62
893.369	0.62
894.104	0.62
894.839	1.62
895.574	0.62
896.309	0.62
897.044	1.62
897.779	1.62
898.514	0.62
899.248	-1.38
899.983	0.62
900.717	2.62
901.452	1.62
902.186	0.62
902.92	1.62
903.654	-0.38
904.389	-0.38
905.123	-1.38
905.857	0.62
906.59	1.62
907.324	0.62
908.058	1.62
908.792	-0.38
909.525	-0.38
910.259	1.62
910.992	1.62
911.726	0.62
912.459	0.62
913.192	1.62
913.925	-0.38
914.658	0.62
915.391	0.62
916.124	1.62
916.857	-0.38
917.59	-0.38
918.323	1.62
919.055	-0.38
919.788	-0.38
920.521	0.62
921.253	1.62
921.985	3.62
922.718	0.62
923.45	-1.38
924.182	1.62
924.914	0.62
925.646	2.62
926.378	-1.38
927.11	0.62
927.841	0.62
928.573	0.62
929.305	1.62
930.036	-0.38
930.768	2.62
931.499	-1.38
932.23	1.62
932.962	1.62
933.693	-0.38
934.424	0.62
935.155	-1.38
935.886	0.62
936.617	2.62
937.348	0.62
938.078	-0.38
938.809	1.62
939.54	-1.38
940.27	2.62
941.001	2.62
941.731	-0.38
942.461	2.62
943.191	1.62
943.922	-0.38
944.652	1.62
945.382	-0.38
946.112	0.62
946.841	-0.38
947.571	0.62
948.301	-0.38
949.031	2.62
949.76	1.62
950.49	0.62
951.219	-0.38
951.948	1.62
952.678	-0.38
953.407	-0.38
954.136	-1.38
954.865	0.62
955.594	1.62
956.323	-0.38
957.052	0.62
957.78	-0.38
958.509	0.62
959.238	0.62
959.966	-0.38
960.695	0.62
961.423	1.62
962.151	1.62
962.88	2.62
963.608	1.62
964.336	-1.38
965.064	-1.38
965.792	1.62
966.52	-3.38
967.247	0.62
967.975	-0.38
968.703	-0.38
969.43	0.62
970.158	1.62
970.885	1.62
971.613	0.62
972.34	1.62
973.067	-0.38
973.794	-2.38
974.521	0.62
975.248	0.62
975.975	-1.38
976.702	-0.38
977.429	0.62
978.156	0.62
978.882	0.62
979.609	-0.38
980.335	-0.38
981.062	0.62
981.788	-0.38
982.514	-0.38
983.24	2.62
983.967	-1.38
984.693	0.62
985.419	1.62
986.144	2.62
986.87	-0.38
987.596	0.62
988.322	2.62
989.047	-0.38
989.773	0.62
990.498	-0.38
991.224	0.62
991.949	2.62
992.674	-1.38
993.399	2.62
994.124	0.62
994.849	0.62
995.574	-0.38
996.299	-1.38
997.024	0.62
997.749	0.62
998.473	2.62
999.198	-1.38
999.922	2.62
1000.647	-0.38
1001.371	1.62
1002.095	-1.38
1002.82	-1.38
1003.544	-1.38
1004.268	3.62
1004.992	1.62
1005.716	4.62
1006.439	0.62
1007.163	1.62
1007.887	2.62
1008.611	-1.38
1009.334	2.62
1010.058	0.62
1010.781	2.62
1011.504	1.62
1012.228	0.62
1012.951	-0.38
1013.674	-0.38
1014.397	1.62
1015.12	1.62
