节点500_425_QEPB04081__26__15-48-47-413.txt的数据

Date: Wed Nov 12 15:48:47 CST 2025
User: PC
Spectrometer: QEPB0408
触发模式: 0
积分时间 (秒): 1.000000E-2
Scans to average: 1
启用暗噪声校正: true
启用非线性校正: false
滑动平均宽度: 0
X轴模式: Wavelengths
Number of Pixels in Spectrum: 1044
>>>>>Begin Spectral Data<<<<<
220.843	1.12
221.644	1.12
222.444	2.12
223.244	2.12
224.045	3.12
224.845	5.12
225.645	5.12
226.445	1.12
227.245	4.12
228.045	4.12
228.845	4.12
229.645	4.12
230.444	5.12
231.244	6.12
232.043	4.12
232.843	4.12
233.642	6.12
234.442	5.12
235.241	6.12
236.04	4.12
236.839	7.12
237.638	7.12
238.437	6.12
239.236	8.12
240.035	6.12
240.833	6.12
241.632	9.12
242.43	7.12
243.229	9.12
244.027	11.12
244.826	7.12
245.624	7.12
246.422	9.12
247.22	8.12
248.018	11.12
248.816	9.12
249.614	10.12
250.412	7.12
251.21	10.12
252.007	9.12
252.805	14.12
253.602	12.12
254.4	13.12
255.197	11.12
255.994	13.12
256.791	14.12
257.589	12.12
258.386	16.12
259.183	14.12
259.979	13.12
260.776	17.12
261.573	17.12
262.37	18.12
263.166	17.12
263.963	21.12
264.759	18.12
265.556	19.12
266.352	17.12
267.148	18.12
267.944	19.12
268.74	25.12
269.536	20.12
270.332	22.12
271.128	23.12
271.924	25.12
272.719	25.12
273.515	25.12
274.311	23.12
275.106	25.12
275.901	24.12
276.697	27.12
277.492	26.12
278.287	25.12
279.082	23.12
279.877	28.12
280.672	28.12
281.467	27.12
282.262	28.12
283.056	26.12
283.851	28.12
284.646	24.12
285.44	27.12
286.234	26.12
287.029	28.12
287.823	28.12
288.617	26.12
289.411	23.12
290.205	22.12
290.999	25.12
291.793	26.12
292.587	24.12
293.381	25.12
294.174	22.12
294.968	22.12
295.761	21.12
296.555	20.12
297.348	21.12
298.141	17.12
298.935	20.12
299.728	20.12
300.521	20.12
301.314	19.12
302.107	15.12
302.899	18.12
303.692	14.12
304.485	16.12
305.277	14.12
306.07	14.12
306.862	17.12
307.655	14.12
308.447	12.12
309.239	19.12
310.031	16.12
310.823	15.12
311.615	12.12
312.407	15.12
313.199	12.12
313.991	12.12
314.783	9.12
315.574	11.12
316.366	12.12
317.157	8.12
317.949	11.12
318.74	12.12
319.531	9.12
320.322	9.12
321.113	10.12
321.904	10.12
322.695	11.12
323.486	10.12
324.277	8.12
325.068	11.12
325.858	10.12
326.649	9.12
327.439	10.12
328.23	7.12
329.02	6.12
329.81	8.12
330.6	9.12
331.391	8.12
332.181	7.12
332.971	7.12
333.76	7.12
334.55	10.12
335.34	11.12
336.13	9.12
336.919	9.12
337.709	8.12
338.498	8.12
339.287	9.12
340.077	8.12
340.866	9.12
341.655	11.12
342.444	8.12
343.233	13.12
344.022	8.12
344.811	10.12
345.6	6.12
346.388	8.12
347.177	8.12
347.965	9.12
348.754	9.12
349.542	8.12
350.33	7.12
351.119	6.12
351.907	10.12
352.695	8.12
353.483	10.12
354.271	10.12
355.059	8.12
355.846	8.12
356.634	8.12
357.422	8.12
358.209	7.12
358.997	8.12
359.784	6.12
360.571	5.12
361.359	9.12
362.146	7.12
362.933	8.12
363.72	5.12
364.507	5.12
365.294	8.12
366.081	8.12
366.867	8.12
367.654	5.12
368.44	9.12
369.227	6.12
370.013	6.12
370.8	8.12
371.586	5.12
372.372	6.12
373.158	8.12
373.944	7.12
374.73	8.12
375.516	5.12
376.302	8.12
377.088	7.12
377.873	9.12
378.659	7.12
379.445	7.12
380.23	8.12
381.015	8.12
381.801	9.12
382.586	6.12
383.371	7.12
384.156	7.12
384.941	9.12
385.726	8.12
386.511	7.12
387.296	9.12
388.08	7.12
388.865	10.12
389.649	8.12
390.434	7.12
391.218	12.12
392.003	10.12
392.787	9.12
393.571	8.12
394.355	6.12
395.139	9.12
395.923	9.12
396.707	8.12
397.491	7.12
398.274	10.12
399.058	10.12
399.842	12.12
400.625	10.12
401.408	10.12
402.192	11.12
402.975	13.12
403.758	11.12
404.541	10.12
405.324	11.12
406.107	10.12
406.89	12.12
407.673	11.12
408.456	10.12
409.238	13.12
410.021	11.12
410.803	13.12
411.586	12.12
412.368	12.12
413.151	12.12
413.933	12.12
414.715	13.12
415.497	15.12
416.279	12.12
417.061	16.12
417.843	12.12
418.624	13.12
419.406	12.12
420.188	14.12
420.969	15.12
421.751	14.12
422.532	14.12
423.313	16.12
424.095	17.12
424.876	15.12
425.657	18.12
426.438	16.12
427.219	19.12
428	17.12
428.78	19.12
429.561	19.12
430.342	25.12
431.122	23.12
431.903	23.12
432.683	22.12
433.464	26.12
434.244	23.12
435.024	23.12
435.804	25.12
436.584	26.12
437.364	28.12
438.144	28.12
438.924	29.12
439.704	35.12
440.483	33.12
441.263	35.12
442.042	36.12
442.822	38.12
443.601	42.12
444.38	45.12
445.16	47.12
445.939	48.12
446.718	54.12
447.497	56.12
448.276	59.12
449.054	68.12
449.833	76.12
450.612	77.12
451.391	88.12
452.169	89.12
452.948	105.12
453.726	117.12
454.504	122.12
455.282	135.12
456.061	149.12
456.839	166.12
457.617	190.12
458.395	211.12
459.172	226.12
459.95	265.12
460.728	285.12
461.506	323.12
462.283	364.12
463.061	400.12
463.838	461.12
464.615	512.12
465.393	576.12
466.17	631.12
466.947	701.12
467.724	805.12
468.501	883.12
469.278	999.12
470.055	1110.12
470.831	1239.12
471.608	1370.12
472.385	1528.12
473.161	1721.12
473.938	1908.12
474.714	2119.12
475.49	2344.12
476.266	2618.12
477.043	2892.12
477.819	3182.12
478.595	3578.12
479.371	3942.12
480.146	4372.12
480.922	4812.12
481.698	5311.12
482.473	5832.12
483.249	6441.12
484.024	7120.12
484.8	7854.12
485.575	8630.12
486.35	9453.12
487.126	10405.12
487.901	11427.12
488.676	12468.12
489.451	13702.12
490.225	14894.12
491	16227.12
491.775	17668.12
492.55	19097.12
493.324	20620.12
494.099	22104.12
494.873	23637.12
495.647	25260.12
496.422	26826.12
497.196	28492.12
497.97	30183.12
498.744	31679.12
499.518	33039.12
500.292	34331.12
501.066	35318.12
501.839	36339.12
502.613	37167.12
503.387	37620.12
504.16	38035.12
504.934	38035.12
505.707	37773.12
506.48	37309.12
507.253	36709.12
508.027	36012.12
508.8	35124.12
509.573	34171.12
510.346	33024.12
511.118	31821.12
511.891	30590.12
512.664	29335.12
513.437	28004.12
514.209	26823.12
514.982	25691.12
515.754	24586.12
516.526	23463.12
517.298	22417.12
518.071	21476.12
518.843	20602.12
519.615	19766.12
520.387	18974.12
521.159	18285.12
521.93	17583.12
522.702	16878.12
523.474	16214.12
524.245	15523.12
525.017	14812.12
525.788	14094.12
526.56	13405.12
527.331	12756.12
528.102	12201.12
528.873	11525.12
529.644	10938.12
530.415	10405.12
531.186	9877.12
531.957	9331.12
532.728	8774.12
533.498	8292.12
534.269	7845.12
535.039	7374.12
535.81	6966.12
536.58	6530.12
537.351	6186.12
538.121	5844.12
538.891	5586.12
539.661	5253.12
540.431	4973.12
541.201	4738.12
541.971	4462.12
542.741	4248.12
543.51	4042.12
544.28	3857.12
545.05	3667.12
545.819	3482.12
546.588	3285.12
547.358	3139.12
548.127	2941.12
548.896	2807.12
549.665	2652.12
550.434	2518.12
551.203	2394.12
551.972	2249.12
552.741	2117.12
553.51	2001.12
554.278	1886.12
555.047	1766.12
555.815	1696.12
556.584	1585.12
557.352	1507.12
558.121	1410.12
558.889	1325.12
559.657	1259.12
560.425	1191.12
561.193	1130.12
561.961	1060.12
562.729	998.12
563.496	958.12
564.264	892.12
565.032	850.12
565.799	818.12
566.567	757.12
567.334	723.12
568.101	686.12
568.869	645.12
569.636	606.12
570.403	574.12
571.17	538.12
571.937	503.12
572.704	479.12
573.471	445.12
574.237	427.12
575.004	403.12
575.771	376.12
576.537	356.12
577.303	332.12
578.07	313.12
578.836	299.12
579.602	279.12
580.368	262.12
581.134	253.12
581.9	238.12
582.666	225.12
583.432	217.12
584.198	202.12
584.964	191.12
585.729	186.12
586.495	178.12
587.26	169.12
588.025	160.12
588.791	150.12
589.556	145.12
590.321	136.12
591.086	133.12
591.851	118.12
592.616	114.12
593.381	105.12
594.146	110.12
594.911	101.12
595.675	92.12
596.44	93.12
597.204	92.12
597.969	87.12
598.733	82.12
599.497	79.12
600.261	75.12
601.025	72.12
601.79	67.12
602.553	62.12
603.317	63.12
604.081	56.12
604.845	57.12
605.609	56.12
606.372	50.12
607.136	51.12
607.899	49.12
608.662	45.12
609.426	44.12
610.189	43.12
610.952	39.12
611.715	42.12
612.478	40.12
613.241	38.12
614.004	39.12
614.767	36.12
615.529	33.12
616.292	33.12
617.055	32.12
617.817	34.12
618.579	29.12
619.342	28.12
620.104	26.12
620.866	25.12
621.628	26.12
622.39	27.12
623.152	25.12
623.914	23.12
624.676	21.12
625.438	22.12
626.199	22.12
626.961	20.12
627.722	20.12
628.484	19.12
629.245	20.12
630.006	18.12
630.768	15.12
631.529	17.12
632.29	18.12
633.051	15.12
633.812	16.12
634.573	14.12
635.333	17.12
636.094	16.12
636.855	14.12
637.615	13.12
638.376	17.12
639.136	11.12
639.896	13.12
640.657	15.12
641.417	9.12
642.177	13.12
642.937	12.12
643.697	11.12
644.457	8.12
645.216	12.12
645.976	10.12
646.736	12.12
647.495	11.12
648.255	10.12
649.014	11.12
649.774	10.12
650.533	9.12
651.292	8.12
652.051	10.12
652.81	8.12
653.569	9.12
654.328	7.12
655.087	8.12
655.846	9.12
656.604	10.12
657.363	6.12
658.121	8.12
658.88	9.12
659.638	7.12
660.397	8.12
661.155	9.12
661.913	8.12
662.671	7.12
663.429	8.12
664.187	6.12
664.945	6.12
665.703	7.12
666.46	7.12
667.218	4.12
667.976	6.12
668.733	8.12
669.49	6.12
670.248	7.12
671.005	6.12
671.762	8.12
672.519	7.12
673.276	8.12
674.033	6.12
674.79	5.12
675.547	8.12
676.304	7.12
677.06	7.12
677.817	8.12
678.574	5.12
679.33	3.12
680.086	5.12
680.843	4.12
681.599	5.12
682.355	5.12
683.111	6.12
683.867	3.12
684.623	6.12
685.379	6.12
686.135	6.12
686.89	7.12
687.646	6.12
688.402	5.12
689.157	5.12
689.912	5.12
690.668	4.12
691.423	5.12
692.178	6.12
692.933	6.12
693.688	6.12
694.443	4.12
695.198	6.12
695.953	6.12
696.708	6.12
697.462	6.12
698.217	3.12
698.972	4.12
699.726	4.12
700.48	5.12
701.235	4.12
701.989	2.12
702.743	5.12
703.497	5.12
704.251	4.12
705.005	6.12
705.759	4.12
706.513	7.12
707.266	5.12
708.02	4.12
708.774	5.12
709.527	7.12
710.28	3.12
711.034	6.12
711.787	5.12
712.54	4.12
713.293	7.12
714.046	6.12
714.799	6.12
715.552	7.12
716.305	7.12
717.058	5.12
717.81	4.12
718.563	6.12
719.315	6.12
720.068	3.12
720.82	4.12
721.573	4.12
722.325	6.12
723.077	4.12
723.829	2.12
724.581	6.12
725.333	5.12
726.085	4.12
726.836	4.12
727.588	7.12
728.34	8.12
729.091	5.12
729.843	6.12
730.594	6.12
731.346	6.12
732.097	4.12
732.848	5.12
733.599	7.12
734.35	7.12
735.101	8.12
735.852	4.12
736.603	6.12
737.354	5.12
738.104	7.12
738.855	6.12
739.605	6.12
740.356	6.12
741.106	5.12
741.856	10.12
742.607	7.12
743.357	5.12
744.107	8.12
744.857	9.12
745.607	8.12
746.357	8.12
747.106	9.12
747.856	10.12
748.606	8.12
749.355	8.12
750.105	10.12
750.854	7.12
751.603	9.12
752.353	6.12
753.102	7.12
753.851	6.12
754.6	7.12
755.349	10.12
756.098	8.12
756.847	8.12
757.595	8.12
758.344	12.12
759.093	8.12
759.841	8.12
760.589	11.12
761.338	10.12
762.086	10.12
762.834	11.12
763.582	10.12
764.331	9.12
765.079	10.12
765.826	9.12
766.574	10.12
767.322	9.12
768.07	13.12
768.817	10.12
769.565	11.12
770.312	10.12
771.06	10.12
771.807	12.12
772.554	11.12
773.302	11.12
774.049	12.12
774.796	11.12
775.543	13.12
776.29	12.12
777.036	11.12
777.783	11.12
778.53	12.12
779.276	12.12
780.023	9.12
780.769	13.12
781.516	12.12
782.262	11.12
783.008	14.12
783.754	12.12
784.5	12.12
785.246	14.12
785.992	13.12
786.738	12.12
787.484	11.12
788.23	10.12
788.975	12.12
789.721	11.12
790.466	12.12
791.212	10.12
791.957	10.12
792.702	9.12
793.447	11.12
794.193	11.12
794.938	12.12
795.683	10.12
796.427	10.12
797.172	12.12
797.917	10.12
798.662	9.12
799.406	10.12
800.151	10.12
800.895	10.12
801.64	10.12
802.384	12.12
803.128	7.12
803.872	8.12
804.616	6.12
805.36	8.12
806.104	10.12
806.848	9.12
807.592	9.12
808.336	7.12
809.079	7.12
809.823	3.12
810.566	5.12
811.31	11.12
812.053	5.12
812.796	6.12
813.539	6.12
814.283	7.12
815.026	5.12
815.769	6.12
816.511	6.12
817.254	6.12
817.997	7.12
818.74	6.12
819.482	7.12
820.225	6.12
820.967	3.12
821.71	4.12
822.452	9.12
823.194	7.12
823.936	4.12
824.678	4.12
825.42	6.12
826.162	3.12
826.904	4.12
827.646	2.12
828.388	4.12
829.129	6.12
829.871	4.12
830.612	7.12
831.354	5.12
832.095	4.12
832.836	5.12
833.577	5.12
834.319	5.12
835.06	4.12
835.801	4.12
836.542	6.12
837.282	3.12
838.023	6.12
838.764	4.12
839.504	3.12
840.245	5.12
840.985	3.12
841.726	5.12
842.466	5.12
843.206	3.12
843.946	3.12
844.687	5.12
845.427	4.12
846.166	3.12
846.906	4.12
847.646	5.12
848.386	3.12
849.125	4.12
849.865	5.12
850.605	2.12
851.344	2.12
852.083	4.12
852.823	2.12
853.562	6.12
854.301	5.12
855.04	3.12
855.779	3.12
856.518	2.12
857.257	1.12
857.995	5.12
858.734	2.12
859.473	3.12
860.211	3.12
860.95	2.12
861.688	2.12
862.426	4.12
863.165	2.12
863.903	2.12
864.641	2.12
865.379	1.12
866.117	2.12
866.855	2.12
867.593	3.12
868.33	2.12
869.068	1.12
869.806	2.12
870.543	2.12
871.28	2.12
872.018	-0.88
872.755	1.12
873.492	3.12
874.229	0.12
874.967	0.12
875.703	-0.88
876.44	2.12
877.177	2.12
877.914	1.12
878.651	2.12
879.387	1.12
880.124	1.12
880.86	2.12
881.597	2.12
882.333	3.12
883.069	1.12
883.806	1.12
884.542	0.12
885.278	1.12
886.014	1.12
886.749	-1.88
887.485	1.12
888.221	-0.88
888.957	2.12
889.692	1.12
890.428	2.12
891.163	0.12
891.899	1.12
892.634	2.12
893.369	0.12
894.104	1.12
894.839	0.12
895.574	3.12
896.309	3.12
897.044	0.12
897.779	2.12
898.514	0.12
899.248	1.12
899.983	2.12
900.717	0.12
901.452	2.12
902.186	-0.88
902.92	3.12
903.654	-1.88
904.389	1.12
905.123	2.12
905.857	-1.88
906.59	1.12
907.324	0.12
908.058	-1.88
908.792	1.12
909.525	0.12
910.259	1.12
910.992	-1.88
911.726	0.12
912.459	2.12
913.192	0.12
913.925	0.12
914.658	-0.88
915.391	2.12
916.124	0.12
916.857	-0.88
917.59	2.12
918.323	1.12
919.055	3.12
919.788	-1.88
920.521	0.12
921.253	0.12
921.985	2.12
922.718	0.12
923.45	-0.88
924.182	-1.88
924.914	1.12
925.646	-0.88
926.378	0.12
927.11	0.12
927.841	1.12
928.573	1.12
929.305	-0.88
930.036	-0.88
930.768	0.12
931.499	1.12
932.23	0.12
932.962	2.12
933.693	1.12
934.424	2.12
935.155	0.12
935.886	-0.88
936.617	1.12
937.348	-1.88
938.078	0.12
938.809	-0.88
939.54	-1.88
940.27	2.12
941.001	1.12
941.731	1.12
942.461	0.12
943.191	1.12
943.922	-0.88
944.652	1.12
945.382	2.12
946.112	2.12
946.841	1.12
947.571	-1.88
948.301	1.12
949.031	1.12
949.76	-1.88
950.49	0.12
951.219	1.12
951.948	-0.88
952.678	0.12
953.407	0.12
954.136	1.12
954.865	0.12
955.594	0.12
956.323	-0.88
957.052	0.12
957.78	1.12
958.509	1.12
959.238	0.12
959.966	0.12
960.695	1.12
961.423	1.12
962.151	-0.88
962.88	-1.88
963.608	0.12
964.336	-0.88
965.064	0.12
965.792	1.12
966.52	1.12
967.247	1.12
967.975	2.12
968.703	2.12
969.43	0.12
970.158	0.12
970.885	-0.88
971.613	0.12
972.34	1.12
973.067	1.12
973.794	-0.88
974.521	1.12
975.248	0.12
975.975	-2.88
976.702	-0.88
977.429	-1.88
978.156	0.12
978.882	1.12
979.609	-0.88
980.335	-0.88
981.062	-2.88
981.788	0.12
982.514	-0.88
983.24	0.12
983.967	2.12
984.693	-0.88
985.419	0.12
986.144	-1.88
986.87	1.12
987.596	0.12
988.322	0.12
989.047	2.12
989.773	0.12
990.498	0.12
991.224	-1.88
991.949	0.12
992.674	0.12
993.399	1.12
994.124	0.12
994.849	-2.88
995.574	-0.88
996.299	0.12
997.024	-0.88
997.749	0.12
998.473	-0.88
999.198	2.12
999.922	-1.88
1000.647	1.12
1001.371	3.12
1002.095	0.12
1002.82	-1.88
1003.544	-1.88
1004.268	-1.88
1004.992	3.12
1005.716	3.12
1006.439	4.12
1007.163	4.12
1007.887	4.12
1008.611	0.12
1009.334	-0.88
1010.058	-0.88
1010.781	-2.88
1011.504	-0.88
1012.228	-0.88
1012.951	1.12
1013.674	0.12
1014.397	0.12
1015.12	-0.88
