节点500_425_QEPB04081__304__15-53-21-901.txt的数据

Date: Wed Nov 12 15:53:21 CST 2025
User: PC
Spectrometer: QEPB0408
触发模式: 0
积分时间 (秒): 1.000000E-2
Scans to average: 1
启用暗噪声校正: true
启用非线性校正: false
滑动平均宽度: 0
X轴模式: Wavelengths
Number of Pixels in Spectrum: 1044
>>>>>Begin Spectral Data<<<<<
220.843	3.38
221.644	4.38
222.444	1.38
223.244	4.38
224.045	2.38
224.845	2.38
225.645	5.38
226.445	3.38
227.245	4.38
228.045	2.38
228.845	6.38
229.645	2.38
230.444	4.38
231.244	5.38
232.043	5.38
232.843	7.38
233.642	4.38
234.442	6.38
235.241	5.38
236.04	5.38
236.839	7.38
237.638	6.38
238.437	7.38
239.236	6.38
240.035	7.38
240.833	7.38
241.632	7.38
242.43	10.38
243.229	7.38
244.027	7.38
244.826	7.38
245.624	9.38
246.422	10.38
247.22	7.38
248.018	8.38
248.816	7.38
249.614	10.38
250.412	9.38
251.21	8.38
252.007	10.38
252.805	10.38
253.602	12.38
254.4	10.38
255.197	11.38
255.994	13.38
256.791	12.38
257.589	15.38
258.386	15.38
259.183	14.38
259.979	13.38
260.776	12.38
261.573	16.38
262.37	15.38
263.166	20.38
263.963	14.38
264.759	17.38
265.556	19.38
266.352	16.38
267.148	19.38
267.944	16.38
268.74	20.38
269.536	21.38
270.332	20.38
271.128	23.38
271.924	22.38
272.719	20.38
273.515	24.38
274.311	22.38
275.106	24.38
275.901	26.38
276.697	23.38
277.492	24.38
278.287	24.38
279.082	26.38
279.877	24.38
280.672	26.38
281.467	26.38
282.262	25.38
283.056	26.38
283.851	23.38
284.646	25.38
285.44	26.38
286.234	26.38
287.029	23.38
287.823	25.38
288.617	24.38
289.411	24.38
290.205	24.38
290.999	24.38
291.793	23.38
292.587	25.38
293.381	20.38
294.174	22.38
294.968	21.38
295.761	20.38
296.555	20.38
297.348	21.38
298.141	18.38
298.935	22.38
299.728	19.38
300.521	18.38
301.314	17.38
302.107	20.38
302.899	18.38
303.692	14.38
304.485	15.38
305.277	16.38
306.07	16.38
306.862	18.38
307.655	18.38
308.447	15.38
309.239	18.38
310.031	15.38
310.823	16.38
311.615	13.38
312.407	14.38
313.199	12.38
313.991	11.38
314.783	12.38
315.574	13.38
316.366	10.38
317.157	10.38
317.949	8.38
318.74	12.38
319.531	12.38
320.322	8.38
321.113	11.38
321.904	11.38
322.695	13.38
323.486	8.38
324.277	8.38
325.068	10.38
325.858	8.38
326.649	9.38
327.439	10.38
328.23	9.38
329.02	6.38
329.81	11.38
330.6	9.38
331.391	7.38
332.181	8.38
332.971	6.38
333.76	9.38
334.55	10.38
335.34	8.38
336.13	8.38
336.919	9.38
337.709	8.38
338.498	7.38
339.287	8.38
340.077	9.38
340.866	9.38
341.655	6.38
342.444	10.38
343.233	7.38
344.022	8.38
344.811	8.38
345.6	9.38
346.388	8.38
347.177	13.38
347.965	7.38
348.754	8.38
349.542	9.38
350.33	7.38
351.119	9.38
351.907	6.38
352.695	8.38
353.483	6.38
354.271	7.38
355.059	8.38
355.846	7.38
356.634	7.38
357.422	8.38
358.209	5.38
358.997	8.38
359.784	7.38
360.571	8.38
361.359	7.38
362.146	7.38
362.933	10.38
363.72	8.38
364.507	5.38
365.294	7.38
366.081	9.38
366.867	9.38
367.654	8.38
368.44	5.38
369.227	5.38
370.013	6.38
370.8	6.38
371.586	10.38
372.372	9.38
373.158	6.38
373.944	8.38
374.73	7.38
375.516	9.38
376.302	6.38
377.088	7.38
377.873	7.38
378.659	8.38
379.445	7.38
380.23	5.38
381.015	7.38
381.801	8.38
382.586	7.38
383.371	7.38
384.156	8.38
384.941	8.38
385.726	8.38
386.511	8.38
387.296	9.38
388.08	7.38
388.865	7.38
389.649	8.38
390.434	9.38
391.218	11.38
392.003	8.38
392.787	9.38
393.571	7.38
394.355	10.38
395.139	9.38
395.923	10.38
396.707	8.38
397.491	10.38
398.274	10.38
399.058	7.38
399.842	11.38
400.625	8.38
401.408	10.38
402.192	9.38
402.975	8.38
403.758	11.38
404.541	11.38
405.324	9.38
406.107	12.38
406.89	10.38
407.673	13.38
408.456	11.38
409.238	12.38
410.021	9.38
410.803	12.38
411.586	12.38
412.368	12.38
413.151	13.38
413.933	10.38
414.715	12.38
415.497	12.38
416.279	11.38
417.061	15.38
417.843	14.38
418.624	14.38
419.406	14.38
420.188	12.38
420.969	10.38
421.751	14.38
422.532	16.38
423.313	16.38
424.095	16.38
424.876	18.38
425.657	14.38
426.438	17.38
427.219	17.38
428	20.38
428.78	17.38
429.561	17.38
430.342	19.38
431.122	19.38
431.903	21.38
432.683	21.38
433.464	24.38
434.244	24.38
435.024	25.38
435.804	28.38
436.584	26.38
437.364	27.38
438.144	28.38
438.924	30.38
439.704	33.38
440.483	33.38
441.263	35.38
442.042	36.38
442.822	40.38
443.601	43.38
444.38	45.38
445.16	49.38
445.939	55.38
446.718	58.38
447.497	63.38
448.276	67.38
449.054	71.38
449.833	80.38
450.612	89.38
451.391	94.38
452.169	104.38
452.948	114.38
453.726	121.38
454.504	139.38
455.282	155.38
456.061	168.38
456.839	188.38
457.617	207.38
458.395	226.38
459.172	257.38
459.95	282.38
460.728	326.38
461.506	364.38
462.283	399.38
463.061	451.38
463.838	498.38
464.615	558.38
465.393	624.38
466.17	690.38
466.947	767.38
467.724	860.38
468.501	952.38
469.278	1056.38
470.055	1172.38
470.831	1298.38
471.608	1441.38
472.385	1586.38
473.161	1765.38
473.938	1954.38
474.714	2150.38
475.49	2368.38
476.266	2614.38
477.043	2861.38
477.819	3200.38
478.595	3500.38
479.371	3857.38
480.146	4213.38
480.922	4633.38
481.698	5087.38
482.473	5564.38
483.249	6099.38
484.024	6647.38
484.8	7304.38
485.575	7956.38
486.35	8697.38
487.126	9442.38
487.901	10308.38
488.676	11243.38
489.451	12274.38
490.225	13306.38
491	14424.38
491.775	15610.38
492.55	16862.38
493.324	18183.38
494.099	19470.38
494.873	20760.38
495.647	22161.38
496.422	23591.38
497.196	25040.38
497.97	26560.38
498.744	27943.38
499.518	29287.38
500.292	30529.38
501.066	31592.38
501.839	32789.38
502.613	33618.38
503.387	34334.38
504.16	34933.38
504.934	35197.38
505.707	35281.38
506.48	35165.38
507.253	34915.38
508.027	34561.38
508.8	34018.38
509.573	33292.38
510.346	32492.38
511.118	31482.38
511.891	30528.38
512.664	29367.38
513.437	28281.38
514.209	27082.38
514.982	26097.38
515.754	25091.38
516.526	24013.38
517.298	22994.38
518.071	21999.38
518.843	21099.38
519.615	20300.38
520.387	19439.38
521.159	18749.38
521.93	17998.38
522.702	17269.38
523.474	16598.38
524.245	15945.38
525.017	15197.38
525.788	14456.38
526.56	13845.38
527.331	13220.38
528.102	12607.38
528.873	12015.38
529.644	11496.38
530.415	10931.38
531.186	10388.38
531.957	9843.38
532.728	9336.38
533.498	8827.38
534.269	8316.38
535.039	7884.38
535.81	7449.38
536.58	7020.38
537.351	6655.38
538.121	6267.38
538.891	5933.38
539.661	5650.38
540.431	5320.38
541.201	5067.38
541.971	4760.38
542.741	4553.38
543.51	4338.38
544.28	4096.38
545.05	3890.38
545.819	3733.38
546.588	3528.38
547.358	3342.38
548.127	3188.38
548.896	3015.38
549.665	2869.38
550.434	2698.38
551.203	2564.38
551.972	2432.38
552.741	2311.38
553.51	2190.38
554.278	2049.38
555.047	1943.38
555.815	1836.38
556.584	1751.38
557.352	1627.38
558.121	1535.38
558.889	1447.38
559.657	1374.38
560.425	1302.38
561.193	1229.38
561.961	1157.38
562.729	1081.38
563.496	1042.38
564.264	980.38
565.032	923.38
565.799	875.38
566.567	839.38
567.334	784.38
568.101	745.38
568.869	693.38
569.636	664.38
570.403	618.38
571.17	586.38
571.937	548.38
572.704	525.38
573.471	500.38
574.237	459.38
575.004	436.38
575.771	410.38
576.537	386.38
577.303	366.38
578.07	342.38
578.836	320.38
579.602	302.38
580.368	288.38
581.134	280.38
581.9	267.38
582.666	251.38
583.432	236.38
584.198	228.38
584.964	215.38
585.729	198.38
586.495	188.38
587.26	178.38
588.025	176.38
588.791	168.38
589.556	150.38
590.321	144.38
591.086	141.38
591.851	130.38
592.616	131.38
593.381	120.38
594.146	109.38
594.911	107.38
595.675	102.38
596.44	97.38
597.204	95.38
597.969	90.38
598.733	88.38
599.497	85.38
600.261	79.38
601.025	78.38
601.79	73.38
602.553	69.38
603.317	72.38
604.081	61.38
604.845	64.38
605.609	57.38
606.372	53.38
607.136	54.38
607.899	53.38
608.662	50.38
609.426	48.38
610.189	46.38
610.952	42.38
611.715	43.38
612.478	44.38
613.241	38.38
614.004	39.38
614.767	39.38
615.529	36.38
616.292	36.38
617.055	33.38
617.817	32.38
618.579	27.38
619.342	30.38
620.104	27.38
620.866	28.38
621.628	28.38
622.39	24.38
623.152	25.38
623.914	22.38
624.676	25.38
625.438	25.38
626.199	22.38
626.961	23.38
627.722	22.38
628.484	20.38
629.245	20.38
630.006	18.38
630.768	17.38
631.529	19.38
632.29	18.38
633.051	17.38
633.812	17.38
634.573	15.38
635.333	16.38
636.094	16.38
636.855	15.38
637.615	13.38
638.376	14.38
639.136	15.38
639.896	12.38
640.657	14.38
641.417	16.38
642.177	9.38
642.937	13.38
643.697	13.38
644.457	9.38
645.216	12.38
645.976	12.38
646.736	10.38
647.495	12.38
648.255	12.38
649.014	10.38
649.774	9.38
650.533	8.38
651.292	12.38
652.051	10.38
652.81	8.38
653.569	9.38
654.328	9.38
655.087	9.38
655.846	8.38
656.604	9.38
657.363	9.38
658.121	9.38
658.88	4.38
659.638	7.38
660.397	8.38
661.155	7.38
661.913	7.38
662.671	7.38
663.429	6.38
664.187	8.38
664.945	7.38
665.703	7.38
666.46	6.38
667.218	10.38
667.976	5.38
668.733	7.38
669.49	4.38
670.248	7.38
671.005	6.38
671.762	5.38
672.519	7.38
673.276	5.38
674.033	6.38
674.79	5.38
675.547	6.38
676.304	7.38
677.06	7.38
677.817	6.38
678.574	4.38
679.33	6.38
680.086	7.38
680.843	5.38
681.599	5.38
682.355	4.38
683.111	6.38
683.867	4.38
684.623	6.38
685.379	4.38
686.135	6.38
686.89	5.38
687.646	5.38
688.402	5.38
689.157	4.38
689.912	5.38
690.668	4.38
691.423	4.38
692.178	7.38
692.933	5.38
693.688	6.38
694.443	4.38
695.198	5.38
695.953	5.38
696.708	6.38
697.462	7.38
698.217	3.38
698.972	4.38
699.726	5.38
700.48	5.38
701.235	5.38
701.989	6.38
702.743	6.38
703.497	5.38
704.251	5.38
705.005	8.38
705.759	4.38
706.513	6.38
707.266	3.38
708.02	6.38
708.774	7.38
709.527	8.38
710.28	5.38
711.034	3.38
711.787	4.38
712.54	4.38
713.293	5.38
714.046	6.38
714.799	4.38
715.552	4.38
716.305	7.38
717.058	4.38
717.81	5.38
718.563	4.38
719.315	6.38
720.068	6.38
720.82	5.38
721.573	4.38
722.325	6.38
723.077	4.38
723.829	3.38
724.581	6.38
725.333	5.38
726.085	5.38
726.836	5.38
727.588	4.38
728.34	8.38
729.091	6.38
729.843	6.38
730.594	8.38
731.346	6.38
732.097	5.38
732.848	4.38
733.599	6.38
734.35	5.38
735.101	6.38
735.852	3.38
736.603	7.38
737.354	7.38
738.104	5.38
738.855	7.38
739.605	7.38
740.356	6.38
741.106	7.38
741.856	8.38
742.607	7.38
743.357	4.38
744.107	8.38
744.857	8.38
745.607	6.38
746.357	7.38
747.106	5.38
747.856	6.38
748.606	8.38
749.355	7.38
750.105	7.38
750.854	9.38
751.603	10.38
752.353	7.38
753.102	8.38
753.851	6.38
754.6	7.38
755.349	7.38
756.098	7.38
756.847	9.38
757.595	8.38
758.344	7.38
759.093	7.38
759.841	6.38
760.589	8.38
761.338	6.38
762.086	8.38
762.834	7.38
763.582	8.38
764.331	10.38
765.079	10.38
765.826	8.38
766.574	10.38
767.322	10.38
768.07	8.38
768.817	11.38
769.565	12.38
770.312	9.38
771.06	11.38
771.807	11.38
772.554	9.38
773.302	10.38
774.049	10.38
774.796	10.38
775.543	9.38
776.29	12.38
777.036	11.38
777.783	11.38
778.53	9.38
779.276	9.38
780.023	12.38
780.769	12.38
781.516	9.38
782.262	10.38
783.008	12.38
783.754	12.38
784.5	12.38
785.246	13.38
785.992	13.38
786.738	11.38
787.484	11.38
788.23	13.38
788.975	12.38
789.721	11.38
790.466	13.38
791.212	10.38
791.957	12.38
792.702	10.38
793.447	10.38
794.193	10.38
794.938	10.38
795.683	10.38
796.427	8.38
797.172	10.38
797.917	10.38
798.662	8.38
799.406	9.38
800.151	12.38
800.895	9.38
801.64	9.38
802.384	8.38
803.128	9.38
803.872	8.38
804.616	10.38
805.36	9.38
806.104	8.38
806.848	8.38
807.592	6.38
808.336	9.38
809.079	8.38
809.823	8.38
810.566	8.38
811.31	6.38
812.053	6.38
812.796	6.38
813.539	5.38
814.283	5.38
815.026	4.38
815.769	7.38
816.511	6.38
817.254	5.38
817.997	7.38
818.74	7.38
819.482	7.38
820.225	7.38
820.967	8.38
821.71	7.38
822.452	5.38
823.194	6.38
823.936	5.38
824.678	6.38
825.42	5.38
826.162	5.38
826.904	5.38
827.646	4.38
828.388	4.38
829.129	4.38
829.871	4.38
830.612	4.38
831.354	7.38
832.095	4.38
832.836	0.38
833.577	8.38
834.319	5.38
835.06	4.38
835.801	5.38
836.542	5.38
837.282	6.38
838.023	4.38
838.764	4.38
839.504	2.38
840.245	6.38
840.985	2.38
841.726	4.38
842.466	4.38
843.206	2.38
843.946	3.38
844.687	6.38
845.427	6.38
846.166	6.38
846.906	3.38
847.646	2.38
848.386	3.38
849.125	4.38
849.865	5.38
850.605	1.38
851.344	4.38
852.083	3.38
852.823	4.38
853.562	4.38
854.301	2.38
855.04	4.38
855.779	3.38
856.518	4.38
857.257	4.38
857.995	7.38
858.734	2.38
859.473	4.38
860.211	3.38
860.95	2.38
861.688	2.38
862.426	4.38
863.165	1.38
863.903	3.38
864.641	2.38
865.379	4.38
866.117	3.38
866.855	2.38
867.593	4.38
868.33	1.38
869.068	3.38
869.806	1.38
870.543	2.38
871.28	3.38
872.018	1.38
872.755	2.38
873.492	1.38
874.229	0.38
874.967	0.38
875.703	1.38
876.44	2.38
877.177	-1.62
877.914	2.38
878.651	1.38
879.387	1.38
880.124	0.38
880.86	0.38
881.597	2.38
882.333	2.38
883.069	2.38
883.806	0.38
884.542	1.38
885.278	2.38
886.014	3.38
886.749	1.38
887.485	0.38
888.221	-0.62
888.957	1.38
889.692	2.38
890.428	2.38
891.163	0.38
891.899	1.38
892.634	2.38
893.369	2.38
894.104	0.38
894.839	1.38
895.574	-0.62
896.309	0.38
897.044	2.38
897.779	1.38
898.514	1.38
899.248	2.38
899.983	0.38
900.717	-0.62
901.452	1.38
902.186	2.38
902.92	0.38
903.654	1.38
904.389	1.38
905.123	0.38
905.857	-1.62
906.59	1.38
907.324	-0.62
908.058	0.38
908.792	1.38
909.525	-0.62
910.259	4.38
910.992	0.38
911.726	-0.62
912.459	2.38
913.192	1.38
913.925	-0.62
914.658	-0.62
915.391	-0.62
916.124	0.38
916.857	1.38
917.59	-1.62
918.323	0.38
919.055	0.38
919.788	-1.62
920.521	-0.62
921.253	0.38
921.985	0.38
922.718	0.38
923.45	-1.62
924.182	2.38
924.914	-1.62
925.646	-1.62
926.378	1.38
927.11	1.38
927.841	0.38
928.573	0.38
929.305	2.38
930.036	0.38
930.768	0.38
931.499	-0.62
932.23	0.38
932.962	-1.62
933.693	-1.62
934.424	1.38
935.155	0.38
935.886	0.38
936.617	-1.62
937.348	1.38
938.078	-1.62
938.809	2.38
939.54	0.38
940.27	0.38
941.001	-1.62
941.731	-0.62
942.461	0.38
943.191	1.38
943.922	-1.62
944.652	0.38
945.382	2.38
946.112	0.38
946.841	2.38
947.571	-0.62
948.301	-0.62
949.031	-1.62
949.76	-0.62
950.49	0.38
951.219	1.38
951.948	-0.62
952.678	0.38
953.407	0.38
954.136	-1.62
954.865	2.38
955.594	1.38
956.323	0.38
957.052	2.38
957.78	-0.62
958.509	-0.62
959.238	2.38
959.966	-1.62
960.695	0.38
961.423	-2.62
962.151	1.38
962.88	-0.62
963.608	0.38
964.336	0.38
965.064	0.38
965.792	-0.62
966.52	0.38
967.247	1.38
967.975	-0.62
968.703	0.38
969.43	2.38
970.158	-0.62
970.885	0.38
971.613	0.38
972.34	-0.62
973.067	0.38
973.794	-1.62
974.521	-1.62
975.248	0.38
975.975	0.38
976.702	0.38
977.429	0.38
978.156	1.38
978.882	-0.62
979.609	0.38
980.335	1.38
981.062	0.38
981.788	1.38
982.514	-1.62
983.24	-0.62
983.967	-1.62
984.693	0.38
985.419	0.38
986.144	1.38
986.87	0.38
987.596	-0.62
988.322	0.38
989.047	-0.62
989.773	0.38
990.498	-0.62
991.224	0.38
991.949	0.38
992.674	1.38
993.399	1.38
994.124	1.38
994.849	2.38
995.574	0.38
996.299	0.38
997.024	1.38
997.749	1.38
998.473	1.38
999.198	2.38
999.922	-2.62
1000.647	0.38
1001.371	2.38
1002.095	-2.62
1002.82	0.38
1003.544	-0.62
1004.268	2.38
1004.992	2.38
1005.716	0.38
1006.439	0.38
1007.163	3.38
1007.887	2.38
1008.611	0.38
1009.334	1.38
1010.058	1.38
1010.781	-0.62
1011.504	2.38
1012.228	1.38
1012.951	0.38
1013.674	1.38
1014.397	-0.62
1015.12	-0.62
