节点500_425_QEPB04081__458__15-55-55-593.txt的数据

Date: Wed Nov 12 15:55:55 CST 2025
User: PC
Spectrometer: QEPB0408
触发模式: 0
积分时间 (秒): 1.000000E-2
Scans to average: 1
启用暗噪声校正: true
启用非线性校正: false
滑动平均宽度: 0
X轴模式: Wavelengths
Number of Pixels in Spectrum: 1044
>>>>>Begin Spectral Data<<<<<
220.843	1.88
221.644	2.88
222.444	3.88
223.244	3.88
224.045	1.88
224.845	2.88
225.645	2.88
226.445	3.88
227.245	6.88
228.045	5.88
228.845	4.88
229.645	3.88
230.444	3.88
231.244	2.88
232.043	3.88
232.843	6.88
233.642	5.88
234.442	1.88
235.241	5.88
236.04	4.88
236.839	4.88
237.638	5.88
238.437	4.88
239.236	3.88
240.035	4.88
240.833	6.88
241.632	7.88
242.43	7.88
243.229	6.88
244.027	5.88
244.826	3.88
245.624	5.88
246.422	8.88
247.22	9.88
248.018	6.88
248.816	8.88
249.614	8.88
250.412	9.88
251.21	8.88
252.007	9.88
252.805	9.88
253.602	7.88
254.4	11.88
255.197	7.88
255.994	11.88
256.791	11.88
257.589	9.88
258.386	9.88
259.183	12.88
259.979	12.88
260.776	10.88
261.573	12.88
262.37	14.88
263.166	13.88
263.963	14.88
264.759	11.88
265.556	13.88
266.352	13.88
267.148	16.88
267.944	16.88
268.74	15.88
269.536	17.88
270.332	17.88
271.128	16.88
271.924	18.88
272.719	16.88
273.515	21.88
274.311	18.88
275.106	21.88
275.901	20.88
276.697	23.88
277.492	25.88
278.287	20.88
279.082	22.88
279.877	22.88
280.672	23.88
281.467	23.88
282.262	19.88
283.056	20.88
283.851	23.88
284.646	20.88
285.44	23.88
286.234	21.88
287.029	22.88
287.823	21.88
288.617	22.88
289.411	19.88
290.205	21.88
290.999	23.88
291.793	22.88
292.587	20.88
293.381	19.88
294.174	19.88
294.968	21.88
295.761	19.88
296.555	20.88
297.348	17.88
298.141	18.88
298.935	17.88
299.728	19.88
300.521	19.88
301.314	15.88
302.107	16.88
302.899	15.88
303.692	14.88
304.485	16.88
305.277	16.88
306.07	13.88
306.862	14.88
307.655	14.88
308.447	12.88
309.239	16.88
310.031	15.88
310.823	12.88
311.615	15.88
312.407	11.88
313.199	10.88
313.991	10.88
314.783	11.88
315.574	11.88
316.366	10.88
317.157	12.88
317.949	8.88
318.74	10.88
319.531	9.88
320.322	9.88
321.113	6.88
321.904	7.88
322.695	7.88
323.486	9.88
324.277	9.88
325.068	7.88
325.858	8.88
326.649	8.88
327.439	6.88
328.23	8.88
329.02	7.88
329.81	8.88
330.6	7.88
331.391	9.88
332.181	7.88
332.971	6.88
333.76	8.88
334.55	8.88
335.34	5.88
336.13	9.88
336.919	7.88
337.709	6.88
338.498	8.88
339.287	8.88
340.077	4.88
340.866	8.88
341.655	6.88
342.444	6.88
343.233	8.88
344.022	10.88
344.811	6.88
345.6	6.88
346.388	8.88
347.177	6.88
347.965	6.88
348.754	6.88
349.542	6.88
350.33	4.88
351.119	9.88
351.907	4.88
352.695	7.88
353.483	5.88
354.271	5.88
355.059	5.88
355.846	6.88
356.634	7.88
357.422	6.88
358.209	6.88
358.997	4.88
359.784	6.88
360.571	4.88
361.359	5.88
362.146	6.88
362.933	6.88
363.72	6.88
364.507	4.88
365.294	2.88
366.081	7.88
366.867	6.88
367.654	7.88
368.44	7.88
369.227	7.88
370.013	6.88
370.8	8.88
371.586	7.88
372.372	4.88
373.158	4.88
373.944	5.88
374.73	5.88
375.516	6.88
376.302	4.88
377.088	7.88
377.873	5.88
378.659	5.88
379.445	5.88
380.23	4.88
381.015	3.88
381.801	6.88
382.586	5.88
383.371	6.88
384.156	3.88
384.941	6.88
385.726	5.88
386.511	4.88
387.296	5.88
388.08	9.88
388.865	9.88
389.649	7.88
390.434	7.88
391.218	7.88
392.003	4.88
392.787	8.88
393.571	7.88
394.355	6.88
395.139	6.88
395.923	8.88
396.707	9.88
397.491	5.88
398.274	7.88
399.058	8.88
399.842	9.88
400.625	7.88
401.408	8.88
402.192	10.88
402.975	8.88
403.758	9.88
404.541	8.88
405.324	9.88
406.107	8.88
406.89	7.88
407.673	9.88
408.456	11.88
409.238	8.88
410.021	11.88
410.803	11.88
411.586	10.88
412.368	9.88
413.151	12.88
413.933	12.88
414.715	12.88
415.497	11.88
416.279	12.88
417.061	10.88
417.843	12.88
418.624	13.88
419.406	10.88
420.188	14.88
420.969	13.88
421.751	12.88
422.532	15.88
423.313	14.88
424.095	12.88
424.876	13.88
425.657	16.88
426.438	15.88
427.219	15.88
428	17.88
428.78	19.88
429.561	16.88
430.342	17.88
431.122	19.88
431.903	20.88
432.683	20.88
433.464	20.88
434.244	22.88
435.024	23.88
435.804	22.88
436.584	25.88
437.364	26.88
438.144	28.88
438.924	31.88
439.704	32.88
440.483	33.88
441.263	40.88
442.042	36.88
442.822	37.88
443.601	43.88
444.38	46.88
445.16	51.88
445.939	50.88
446.718	56.88
447.497	65.88
448.276	70.88
449.054	74.88
449.833	79.88
450.612	88.88
451.391	91.88
452.169	104.88
452.948	121.88
453.726	131.88
454.504	141.88
455.282	160.88
456.061	174.88
456.839	193.88
457.617	217.88
458.395	244.88
459.172	275.88
459.95	304.88
460.728	337.88
461.506	382.88
462.283	427.88
463.061	467.88
463.838	518.88
464.615	572.88
465.393	642.88
466.17	708.88
466.947	794.88
467.724	886.88
468.501	973.88
469.278	1078.88
470.055	1193.88
470.831	1321.88
471.608	1458.88
472.385	1607.88
473.161	1783.88
473.938	1971.88
474.714	2171.88
475.49	2362.88
476.266	2621.88
477.043	2859.88
477.819	3156.88
478.595	3450.88
479.371	3777.88
480.146	4113.88
480.922	4516.88
481.698	4951.88
482.473	5382.88
483.249	5884.88
484.024	6357.88
484.8	7015.88
485.575	7612.88
486.35	8266.88
487.126	8980.88
487.901	9774.88
488.676	10580.88
489.451	11504.88
490.225	12444.88
491	13469.88
491.775	14554.88
492.55	15603.88
493.324	16815.88
494.099	18027.88
494.873	19206.88
495.647	20501.88
496.422	21874.88
497.196	23134.88
497.97	24581.88
498.744	25904.88
499.518	27188.88
500.292	28400.88
501.066	29400.88
501.839	30554.88
502.613	31535.88
503.387	32274.88
504.16	32983.88
504.934	33373.88
505.707	33562.88
506.48	33641.88
507.253	33537.88
508.027	33317.88
508.8	32973.88
509.573	32493.88
510.346	31813.88
511.118	31026.88
511.891	30135.88
512.664	29211.88
513.437	28142.88
514.209	27136.88
514.982	26197.88
515.754	25197.88
516.526	24153.88
517.298	23189.88
518.071	22149.88
518.843	21274.88
519.615	20457.88
520.387	19629.88
521.159	18917.88
521.93	18214.88
522.702	17409.88
523.474	16796.88
524.245	16107.88
525.017	15401.88
525.788	14714.88
526.56	14084.88
527.331	13437.88
528.102	12851.88
528.873	12251.88
529.644	11680.88
530.415	11170.88
531.186	10702.88
531.957	10097.88
532.728	9569.88
533.498	9059.88
534.269	8562.88
535.039	8132.88
535.81	7719.88
536.58	7260.88
537.351	6884.88
538.121	6484.88
538.891	6098.88
539.661	5821.88
540.431	5547.88
541.201	5223.88
541.971	4966.88
542.741	4695.88
543.51	4461.88
544.28	4248.88
545.05	4036.88
545.819	3845.88
546.588	3654.88
547.358	3466.88
548.127	3265.88
548.896	3132.88
549.665	2968.88
550.434	2801.88
551.203	2659.88
551.972	2529.88
552.741	2398.88
553.51	2263.88
554.278	2133.88
555.047	2020.88
555.815	1928.88
556.584	1810.88
557.352	1697.88
558.121	1614.88
558.889	1527.88
559.657	1440.88
560.425	1353.88
561.193	1291.88
561.961	1213.88
562.729	1158.88
563.496	1081.88
564.264	1023.88
565.032	970.88
565.799	912.88
566.567	861.88
567.334	811.88
568.101	779.88
568.869	732.88
569.636	692.88
570.403	637.88
571.17	616.88
571.937	594.88
572.704	549.88
573.471	518.88
574.237	489.88
575.004	459.88
575.771	431.88
576.537	411.88
577.303	385.88
578.07	361.88
578.836	345.88
579.602	322.88
580.368	304.88
581.134	287.88
581.9	274.88
582.666	262.88
583.432	249.88
584.198	231.88
584.964	222.88
585.729	212.88
586.495	204.88
587.26	188.88
588.025	182.88
588.791	174.88
589.556	168.88
590.321	155.88
591.086	140.88
591.851	135.88
592.616	131.88
593.381	124.88
594.146	119.88
594.911	108.88
595.675	107.88
596.44	103.88
597.204	105.88
597.969	94.88
598.733	93.88
599.497	90.88
600.261	83.88
601.025	78.88
601.79	73.88
602.553	70.88
603.317	69.88
604.081	64.88
604.845	63.88
605.609	59.88
606.372	56.88
607.136	55.88
607.899	56.88
608.662	54.88
609.426	48.88
610.189	47.88
610.952	46.88
611.715	43.88
612.478	42.88
613.241	38.88
614.004	40.88
614.767	36.88
615.529	37.88
616.292	33.88
617.055	36.88
617.817	32.88
618.579	28.88
619.342	33.88
620.104	25.88
620.866	29.88
621.628	24.88
622.39	24.88
623.152	27.88
623.914	23.88
624.676	23.88
625.438	19.88
626.199	22.88
626.961	22.88
627.722	19.88
628.484	19.88
629.245	18.88
630.006	19.88
630.768	19.88
631.529	19.88
632.29	16.88
633.051	12.88
633.812	14.88
634.573	13.88
635.333	14.88
636.094	15.88
636.855	13.88
637.615	13.88
638.376	12.88
639.136	12.88
639.896	12.88
640.657	8.88
641.417	11.88
642.177	13.88
642.937	13.88
643.697	9.88
644.457	10.88
645.216	11.88
645.976	9.88
646.736	9.88
647.495	10.88
648.255	9.88
649.014	11.88
649.774	9.88
650.533	10.88
651.292	7.88
652.051	9.88
652.81	8.88
653.569	9.88
654.328	7.88
655.087	8.88
655.846	6.88
656.604	7.88
657.363	7.88
658.121	7.88
658.88	7.88
659.638	8.88
660.397	5.88
661.155	7.88
661.913	5.88
662.671	7.88
663.429	5.88
664.187	8.88
664.945	8.88
665.703	6.88
666.46	3.88
667.218	5.88
667.976	5.88
668.733	6.88
669.49	5.88
670.248	6.88
671.005	4.88
671.762	5.88
672.519	4.88
673.276	5.88
674.033	4.88
674.79	4.88
675.547	5.88
676.304	4.88
677.06	4.88
677.817	3.88
678.574	2.88
679.33	4.88
680.086	4.88
680.843	6.88
681.599	5.88
682.355	3.88
683.111	4.88
683.867	4.88
684.623	5.88
685.379	4.88
686.135	4.88
686.89	3.88
687.646	3.88
688.402	7.88
689.157	3.88
689.912	4.88
690.668	4.88
691.423	2.88
692.178	6.88
692.933	5.88
693.688	4.88
694.443	4.88
695.198	4.88
695.953	5.88
696.708	4.88
697.462	4.88
698.217	1.88
698.972	4.88
699.726	5.88
700.48	4.88
701.235	4.88
701.989	4.88
702.743	3.88
703.497	4.88
704.251	5.88
705.005	3.88
705.759	3.88
706.513	5.88
707.266	1.88
708.02	1.88
708.774	4.88
709.527	2.88
710.28	5.88
711.034	3.88
711.787	4.88
712.54	3.88
713.293	3.88
714.046	5.88
714.799	4.88
715.552	6.88
716.305	3.88
717.058	6.88
717.81	5.88
718.563	4.88
719.315	5.88
720.068	3.88
720.82	3.88
721.573	4.88
722.325	4.88
723.077	3.88
723.829	3.88
724.581	3.88
725.333	1.88
726.085	4.88
726.836	4.88
727.588	7.88
728.34	2.88
729.091	2.88
729.843	5.88
730.594	6.88
731.346	5.88
732.097	4.88
732.848	2.88
733.599	1.88
734.35	5.88
735.101	3.88
735.852	5.88
736.603	5.88
737.354	6.88
738.104	3.88
738.855	6.88
739.605	4.88
740.356	4.88
741.106	8.88
741.856	6.88
742.607	7.88
743.357	2.88
744.107	7.88
744.857	4.88
745.607	4.88
746.357	7.88
747.106	4.88
747.856	7.88
748.606	5.88
749.355	5.88
750.105	5.88
750.854	5.88
751.603	4.88
752.353	6.88
753.102	5.88
753.851	5.88
754.6	6.88
755.349	6.88
756.098	6.88
756.847	6.88
757.595	6.88
758.344	5.88
759.093	8.88
759.841	7.88
760.589	5.88
761.338	9.88
762.086	6.88
762.834	7.88
763.582	6.88
764.331	9.88
765.079	6.88
765.826	7.88
766.574	7.88
767.322	10.88
768.07	9.88
768.817	8.88
769.565	8.88
770.312	9.88
771.06	10.88
771.807	10.88
772.554	8.88
773.302	10.88
774.049	8.88
774.796	9.88
775.543	10.88
776.29	9.88
777.036	7.88
777.783	9.88
778.53	11.88
779.276	10.88
780.023	11.88
780.769	8.88
781.516	6.88
782.262	10.88
783.008	8.88
783.754	11.88
784.5	12.88
785.246	9.88
785.992	11.88
786.738	9.88
787.484	9.88
788.23	9.88
788.975	12.88
789.721	11.88
790.466	8.88
791.212	10.88
791.957	10.88
792.702	11.88
793.447	9.88
794.193	10.88
794.938	9.88
795.683	6.88
796.427	8.88
797.172	8.88
797.917	9.88
798.662	8.88
799.406	9.88
800.151	8.88
800.895	9.88
801.64	8.88
802.384	5.88
803.128	8.88
803.872	8.88
804.616	6.88
805.36	9.88
806.104	8.88
806.848	6.88
807.592	8.88
808.336	5.88
809.079	6.88
809.823	6.88
810.566	4.88
811.31	6.88
812.053	2.88
812.796	7.88
813.539	5.88
814.283	4.88
815.026	4.88
815.769	8.88
816.511	4.88
817.254	5.88
817.997	6.88
818.74	3.88
819.482	5.88
820.225	4.88
820.967	6.88
821.71	3.88
822.452	3.88
823.194	5.88
823.936	5.88
824.678	4.88
825.42	3.88
826.162	4.88
826.904	4.88
827.646	4.88
828.388	4.88
829.129	7.88
829.871	4.88
830.612	2.88
831.354	1.88
832.095	2.88
832.836	2.88
833.577	3.88
834.319	4.88
835.06	4.88
835.801	4.88
836.542	3.88
837.282	5.88
838.023	3.88
838.764	1.88
839.504	1.88
840.245	3.88
840.985	2.88
841.726	1.88
842.466	3.88
843.206	1.88
843.946	2.88
844.687	3.88
845.427	3.88
846.166	2.88
846.906	1.88
847.646	0.88
848.386	6.88
849.125	4.88
849.865	2.88
850.605	4.88
851.344	5.88
852.083	3.88
852.823	2.88
853.562	5.88
854.301	1.88
855.04	1.88
855.779	1.88
856.518	3.88
857.257	0.88
857.995	-1.12
858.734	0.88
859.473	3.88
860.211	2.88
860.95	0.88
861.688	1.88
862.426	2.88
863.165	1.88
863.903	3.88
864.641	1.88
865.379	2.88
866.117	0.88
866.855	-0.12
867.593	1.88
868.33	-0.12
869.068	0.88
869.806	-0.12
870.543	2.88
871.28	1.88
872.018	-0.12
872.755	0.88
873.492	1.88
874.229	-0.12
874.967	1.88
875.703	-0.12
876.44	-0.12
877.177	0.88
877.914	1.88
878.651	-0.12
879.387	-0.12
880.124	1.88
880.86	1.88
881.597	3.88
882.333	0.88
883.069	2.88
883.806	-0.12
884.542	-0.12
885.278	0.88
886.014	1.88
886.749	0.88
887.485	-0.12
888.221	1.88
888.957	-0.12
889.692	0.88
890.428	1.88
891.163	0.88
891.899	0.88
892.634	1.88
893.369	-0.12
894.104	0.88
894.839	-0.12
895.574	0.88
896.309	0.88
897.044	-0.12
897.779	-0.12
898.514	-0.12
899.248	2.88
899.983	0.88
900.717	1.88
901.452	2.88
902.186	-1.12
902.92	0.88
903.654	0.88
904.389	-0.12
905.123	0.88
905.857	2.88
906.59	-2.12
907.324	-2.12
908.058	-0.12
908.792	-2.12
909.525	-1.12
910.259	-0.12
910.992	0.88
911.726	-0.12
912.459	-2.12
913.192	1.88
913.925	-1.12
914.658	0.88
915.391	-0.12
916.124	-2.12
916.857	1.88
917.59	-0.12
918.323	0.88
919.055	-1.12
919.788	-0.12
920.521	-2.12
921.253	-1.12
921.985	-0.12
922.718	-1.12
923.45	0.88
924.182	-0.12
924.914	0.88
925.646	-0.12
926.378	-2.12
927.11	0.88
927.841	-0.12
928.573	-0.12
929.305	-0.12
930.036	-0.12
930.768	-1.12
931.499	-2.12
932.23	-0.12
932.962	0.88
933.693	0.88
934.424	-1.12
935.155	-0.12
935.886	-0.12
936.617	1.88
937.348	0.88
938.078	-0.12
938.809	-0.12
939.54	-0.12
940.27	-2.12
941.001	-1.12
941.731	-1.12
942.461	-0.12
943.191	0.88
943.922	-1.12
944.652	-0.12
945.382	-0.12
946.112	-2.12
946.841	1.88
947.571	-1.12
948.301	0.88
949.031	-0.12
949.76	-2.12
950.49	-2.12
951.219	0.88
951.948	-2.12
952.678	-0.12
953.407	-0.12
954.136	-1.12
954.865	0.88
955.594	-1.12
956.323	-0.12
957.052	-1.12
957.78	-2.12
958.509	0.88
959.238	-0.12
959.966	1.88
960.695	-0.12
961.423	0.88
962.151	-0.12
962.88	-0.12
963.608	-1.12
964.336	0.88
965.064	-1.12
965.792	1.88
966.52	0.88
967.247	-0.12
967.975	0.88
968.703	0.88
969.43	-0.12
970.158	0.88
970.885	1.88
971.613	-2.12
972.34	0.88
973.067	-1.12
973.794	-2.12
974.521	-0.12
975.248	-2.12
975.975	-0.12
976.702	1.88
977.429	-0.12
978.156	-0.12
978.882	0.88
979.609	-2.12
980.335	-1.12
981.062	-0.12
981.788	-0.12
982.514	1.88
983.24	0.88
983.967	-2.12
984.693	0.88
985.419	-0.12
986.144	-1.12
986.87	-0.12
987.596	-0.12
988.322	1.88
989.047	-1.12
989.773	-0.12
990.498	0.88
991.224	-1.12
991.949	-1.12
992.674	-0.12
993.399	-0.12
994.124	0.88
994.849	-0.12
995.574	-0.12
996.299	-1.12
997.024	0.88
997.749	-2.12
998.473	0.88
999.198	-0.12
999.922	-3.12
1000.647	0.88
1001.371	1.88
1002.095	-2.12
1002.82	-0.12
1003.544	-0.12
1004.268	1.88
1004.992	1.88
1005.716	1.88
1006.439	2.88
1007.163	1.88
1007.887	1.88
1008.611	-1.12
1009.334	0.88
1010.058	-0.12
1010.781	-1.12
1011.504	-0.12
1012.228	0.88
1012.951	0.88
1013.674	-1.12
1014.397	-0.12
1015.12	0.88
