节点500_425_QEPB04081__546__15-57-23-504.txt的数据

Date: Wed Nov 12 15:57:23 CST 2025
User: PC
Spectrometer: QEPB0408
触发模式: 0
积分时间 (秒): 1.000000E-2
Scans to average: 1
启用暗噪声校正: true
启用非线性校正: false
滑动平均宽度: 0
X轴模式: Wavelengths
Number of Pixels in Spectrum: 1044
>>>>>Begin Spectral Data<<<<<
220.843	3.12
221.644	4.12
222.444	4.12
223.244	3.12
224.045	1.12
224.845	2.12
225.645	2.12
226.445	4.12
227.245	2.12
228.045	3.12
228.845	4.12
229.645	3.12
230.444	7.12
231.244	5.12
232.043	4.12
232.843	1.12
233.642	6.12
234.442	7.12
235.241	5.12
236.04	8.12
236.839	3.12
237.638	6.12
238.437	8.12
239.236	5.12
240.035	6.12
240.833	6.12
241.632	8.12
242.43	8.12
243.229	5.12
244.027	7.12
244.826	7.12
245.624	9.12
246.422	8.12
247.22	9.12
248.018	8.12
248.816	7.12
249.614	9.12
250.412	7.12
251.21	11.12
252.007	8.12
252.805	11.12
253.602	10.12
254.4	9.12
255.197	10.12
255.994	9.12
256.791	12.12
257.589	11.12
258.386	10.12
259.183	14.12
259.979	11.12
260.776	12.12
261.573	14.12
262.37	14.12
263.166	15.12
263.963	14.12
264.759	15.12
265.556	14.12
266.352	18.12
267.148	14.12
267.944	19.12
268.74	17.12
269.536	17.12
270.332	18.12
271.128	18.12
271.924	18.12
272.719	20.12
273.515	19.12
274.311	19.12
275.106	19.12
275.901	21.12
276.697	19.12
277.492	21.12
278.287	22.12
279.082	20.12
279.877	22.12
280.672	18.12
281.467	24.12
282.262	20.12
283.056	19.12
283.851	22.12
284.646	22.12
285.44	22.12
286.234	22.12
287.029	21.12
287.823	22.12
288.617	23.12
289.411	23.12
290.205	20.12
290.999	24.12
291.793	21.12
292.587	22.12
293.381	21.12
294.174	23.12
294.968	22.12
295.761	19.12
296.555	18.12
297.348	19.12
298.141	18.12
298.935	20.12
299.728	18.12
300.521	18.12
301.314	18.12
302.107	16.12
302.899	18.12
303.692	14.12
304.485	16.12
305.277	15.12
306.07	16.12
306.862	18.12
307.655	16.12
308.447	15.12
309.239	16.12
310.031	14.12
310.823	14.12
311.615	14.12
312.407	15.12
313.199	14.12
313.991	14.12
314.783	14.12
315.574	12.12
316.366	11.12
317.157	12.12
317.949	9.12
318.74	10.12
319.531	12.12
320.322	9.12
321.113	13.12
321.904	10.12
322.695	8.12
323.486	11.12
324.277	9.12
325.068	8.12
325.858	10.12
326.649	7.12
327.439	12.12
328.23	7.12
329.02	10.12
329.81	7.12
330.6	6.12
331.391	9.12
332.181	8.12
332.971	9.12
333.76	7.12
334.55	8.12
335.34	5.12
336.13	8.12
336.919	6.12
337.709	8.12
338.498	9.12
339.287	9.12
340.077	8.12
340.866	9.12
341.655	7.12
342.444	7.12
343.233	7.12
344.022	7.12
344.811	10.12
345.6	9.12
346.388	9.12
347.177	7.12
347.965	10.12
348.754	9.12
349.542	10.12
350.33	5.12
351.119	7.12
351.907	8.12
352.695	7.12
353.483	7.12
354.271	9.12
355.059	8.12
355.846	8.12
356.634	8.12
357.422	8.12
358.209	8.12
358.997	9.12
359.784	7.12
360.571	5.12
361.359	8.12
362.146	5.12
362.933	8.12
363.72	7.12
364.507	6.12
365.294	5.12
366.081	7.12
366.867	7.12
367.654	5.12
368.44	7.12
369.227	4.12
370.013	6.12
370.8	7.12
371.586	4.12
372.372	6.12
373.158	4.12
373.944	5.12
374.73	7.12
375.516	6.12
376.302	6.12
377.088	6.12
377.873	6.12
378.659	7.12
379.445	5.12
380.23	7.12
381.015	4.12
381.801	5.12
382.586	7.12
383.371	4.12
384.156	5.12
384.941	8.12
385.726	7.12
386.511	7.12
387.296	6.12
388.08	6.12
388.865	6.12
389.649	10.12
390.434	8.12
391.218	8.12
392.003	8.12
392.787	7.12
393.571	7.12
394.355	8.12
395.139	9.12
395.923	4.12
396.707	10.12
397.491	11.12
398.274	8.12
399.058	7.12
399.842	9.12
400.625	8.12
401.408	8.12
402.192	9.12
402.975	10.12
403.758	9.12
404.541	8.12
405.324	7.12
406.107	8.12
406.89	11.12
407.673	8.12
408.456	11.12
409.238	10.12
410.021	12.12
410.803	12.12
411.586	11.12
412.368	9.12
413.151	10.12
413.933	13.12
414.715	11.12
415.497	13.12
416.279	12.12
417.061	10.12
417.843	15.12
418.624	10.12
419.406	15.12
420.188	16.12
420.969	15.12
421.751	13.12
422.532	14.12
423.313	15.12
424.095	13.12
424.876	15.12
425.657	15.12
426.438	15.12
427.219	16.12
428	16.12
428.78	17.12
429.561	17.12
430.342	18.12
431.122	20.12
431.903	21.12
432.683	20.12
433.464	23.12
434.244	24.12
435.024	24.12
435.804	22.12
436.584	28.12
437.364	23.12
438.144	28.12
438.924	32.12
439.704	32.12
440.483	34.12
441.263	35.12
442.042	41.12
442.822	43.12
443.601	44.12
444.38	48.12
445.16	48.12
445.939	53.12
446.718	57.12
447.497	67.12
448.276	70.12
449.054	74.12
449.833	84.12
450.612	88.12
451.391	100.12
452.169	113.12
452.948	121.12
453.726	137.12
454.504	156.12
455.282	167.12
456.061	183.12
456.839	213.12
457.617	224.12
458.395	258.12
459.172	275.12
459.95	311.12
460.728	347.12
461.506	390.12
462.283	433.12
463.061	480.12
463.838	543.12
464.615	598.12
465.393	664.12
466.17	732.12
466.947	809.12
467.724	902.12
468.501	996.12
469.278	1106.12
470.055	1208.12
470.831	1338.12
471.608	1458.12
472.385	1610.12
473.161	1798.12
473.938	1952.12
474.714	2170.12
475.49	2374.12
476.266	2595.12
477.043	2846.12
477.819	3117.12
478.595	3428.12
479.371	3731.12
480.146	4086.12
480.922	4427.12
481.698	4824.12
482.473	5259.12
483.249	5740.12
484.024	6270.12
484.8	6838.12
485.575	7374.12
486.35	7976.12
487.126	8661.12
487.901	9416.12
488.676	10205.12
489.451	11039.12
490.225	11920.12
491	12858.12
491.775	13871.12
492.55	14930.12
493.324	16059.12
494.099	17094.12
494.873	18273.12
495.647	19511.12
496.422	20730.12
497.196	22066.12
497.97	23340.12
498.744	24622.12
499.518	25850.12
500.292	27020.12
501.066	28184.12
501.839	29264.12
502.613	30189.12
503.387	31032.12
504.16	31605.12
504.934	32199.12
505.707	32503.12
506.48	32663.12
507.253	32621.12
508.027	32579.12
508.8	32284.12
509.573	31823.12
510.346	31334.12
511.118	30621.12
511.891	29964.12
512.664	28994.12
513.437	28058.12
514.209	27063.12
514.982	26169.12
515.754	25240.12
516.526	24292.12
517.298	23327.12
518.071	22345.12
518.843	21428.12
519.615	20580.12
520.387	19758.12
521.159	19003.12
521.93	18374.12
522.702	17551.12
523.474	16869.12
524.245	16214.12
525.017	15586.12
525.788	14831.12
526.56	14194.12
527.331	13601.12
528.102	12969.12
528.873	12372.12
529.644	11821.12
530.415	11327.12
531.186	10829.12
531.957	10282.12
532.728	9753.12
533.498	9208.12
534.269	8734.12
535.039	8314.12
535.81	7830.12
536.58	7429.12
537.351	7023.12
538.121	6675.12
538.891	6281.12
539.661	5944.12
540.431	5650.12
541.201	5336.12
541.971	5093.12
542.741	4810.12
543.51	4558.12
544.28	4332.12
545.05	4108.12
545.819	3916.12
546.588	3739.12
547.358	3547.12
548.127	3366.12
548.896	3205.12
549.665	3039.12
550.434	2902.12
551.203	2753.12
551.972	2607.12
552.741	2479.12
553.51	2332.12
554.278	2201.12
555.047	2068.12
555.815	1977.12
556.584	1863.12
557.352	1752.12
558.121	1656.12
558.889	1568.12
559.657	1497.12
560.425	1408.12
561.193	1325.12
561.961	1248.12
562.729	1188.12
563.496	1126.12
564.264	1051.12
565.032	997.12
565.799	949.12
566.567	891.12
567.334	844.12
568.101	810.12
568.869	762.12
569.636	708.12
570.403	675.12
571.17	629.12
571.937	597.12
572.704	569.12
573.471	531.12
574.237	502.12
575.004	466.12
575.771	446.12
576.537	421.12
577.303	399.12
578.07	378.12
578.836	355.12
579.602	331.12
580.368	312.12
581.134	306.12
581.9	285.12
582.666	270.12
583.432	260.12
584.198	240.12
584.964	232.12
585.729	219.12
586.495	206.12
587.26	193.12
588.025	185.12
588.791	174.12
589.556	170.12
590.321	159.12
591.086	156.12
591.851	140.12
592.616	139.12
593.381	130.12
594.146	127.12
594.911	120.12
595.675	109.12
596.44	106.12
597.204	105.12
597.969	96.12
598.733	92.12
599.497	89.12
600.261	84.12
601.025	79.12
601.79	79.12
602.553	73.12
603.317	70.12
604.081	67.12
604.845	66.12
605.609	62.12
606.372	58.12
607.136	56.12
607.899	55.12
608.662	57.12
609.426	54.12
610.189	46.12
610.952	46.12
611.715	40.12
612.478	42.12
613.241	42.12
614.004	40.12
614.767	39.12
615.529	41.12
616.292	37.12
617.055	35.12
617.817	37.12
618.579	35.12
619.342	32.12
620.104	29.12
620.866	29.12
621.628	28.12
622.39	27.12
623.152	24.12
623.914	27.12
624.676	21.12
625.438	22.12
626.199	23.12
626.961	21.12
627.722	18.12
628.484	23.12
629.245	21.12
630.006	19.12
630.768	21.12
631.529	18.12
632.29	16.12
633.051	16.12
633.812	17.12
634.573	18.12
635.333	15.12
636.094	17.12
636.855	17.12
637.615	14.12
638.376	17.12
639.136	14.12
639.896	14.12
640.657	13.12
641.417	13.12
642.177	12.12
642.937	13.12
643.697	11.12
644.457	10.12
645.216	11.12
645.976	10.12
646.736	10.12
647.495	9.12
648.255	10.12
649.014	11.12
649.774	10.12
650.533	7.12
651.292	10.12
652.051	11.12
652.81	9.12
653.569	8.12
654.328	6.12
655.087	9.12
655.846	8.12
656.604	8.12
657.363	7.12
658.121	6.12
658.88	9.12
659.638	6.12
660.397	7.12
661.155	7.12
661.913	8.12
662.671	7.12
663.429	7.12
664.187	7.12
664.945	6.12
665.703	5.12
666.46	7.12
667.218	6.12
667.976	7.12
668.733	6.12
669.49	6.12
670.248	7.12
671.005	5.12
671.762	6.12
672.519	7.12
673.276	4.12
674.033	6.12
674.79	5.12
675.547	5.12
676.304	7.12
677.06	4.12
677.817	6.12
678.574	3.12
679.33	5.12
680.086	7.12
680.843	5.12
681.599	7.12
682.355	5.12
683.111	4.12
683.867	5.12
684.623	6.12
685.379	5.12
686.135	7.12
686.89	2.12
687.646	5.12
688.402	3.12
689.157	5.12
689.912	6.12
690.668	6.12
691.423	3.12
692.178	3.12
692.933	7.12
693.688	4.12
694.443	4.12
695.198	7.12
695.953	6.12
696.708	5.12
697.462	2.12
698.217	6.12
698.972	5.12
699.726	5.12
700.48	4.12
701.235	2.12
701.989	7.12
702.743	6.12
703.497	4.12
704.251	4.12
705.005	5.12
705.759	3.12
706.513	5.12
707.266	5.12
708.02	6.12
708.774	5.12
709.527	3.12
710.28	6.12
711.034	3.12
711.787	5.12
712.54	6.12
713.293	4.12
714.046	4.12
714.799	5.12
715.552	4.12
716.305	6.12
717.058	2.12
717.81	6.12
718.563	2.12
719.315	5.12
720.068	6.12
720.82	4.12
721.573	4.12
722.325	6.12
723.077	4.12
723.829	4.12
724.581	5.12
725.333	4.12
726.085	6.12
726.836	7.12
727.588	5.12
728.34	5.12
729.091	6.12
729.843	5.12
730.594	6.12
731.346	3.12
732.097	5.12
732.848	5.12
733.599	2.12
734.35	4.12
735.101	5.12
735.852	5.12
736.603	7.12
737.354	3.12
738.104	8.12
738.855	4.12
739.605	6.12
740.356	6.12
741.106	7.12
741.856	6.12
742.607	6.12
743.357	6.12
744.107	7.12
744.857	4.12
745.607	6.12
746.357	6.12
747.106	6.12
747.856	4.12
748.606	6.12
749.355	7.12
750.105	7.12
750.854	6.12
751.603	6.12
752.353	7.12
753.102	5.12
753.851	8.12
754.6	7.12
755.349	6.12
756.098	5.12
756.847	8.12
757.595	8.12
758.344	7.12
759.093	7.12
759.841	8.12
760.589	6.12
761.338	10.12
762.086	8.12
762.834	5.12
763.582	6.12
764.331	7.12
765.079	8.12
765.826	8.12
766.574	9.12
767.322	8.12
768.07	9.12
768.817	6.12
769.565	8.12
770.312	11.12
771.06	8.12
771.807	8.12
772.554	10.12
773.302	8.12
774.049	8.12
774.796	7.12
775.543	10.12
776.29	13.12
777.036	10.12
777.783	11.12
778.53	11.12
779.276	12.12
780.023	10.12
780.769	10.12
781.516	8.12
782.262	10.12
783.008	10.12
783.754	8.12
784.5	10.12
785.246	10.12
785.992	10.12
786.738	13.12
787.484	9.12
788.23	9.12
788.975	8.12
789.721	9.12
790.466	11.12
791.212	12.12
791.957	7.12
792.702	7.12
793.447	9.12
794.193	12.12
794.938	9.12
795.683	10.12
796.427	9.12
797.172	9.12
797.917	7.12
798.662	10.12
799.406	10.12
800.151	9.12
800.895	11.12
801.64	8.12
802.384	8.12
803.128	11.12
803.872	10.12
804.616	6.12
805.36	7.12
806.104	5.12
806.848	7.12
807.592	9.12
808.336	6.12
809.079	7.12
809.823	7.12
810.566	8.12
811.31	6.12
812.053	6.12
812.796	6.12
813.539	8.12
814.283	7.12
815.026	5.12
815.769	5.12
816.511	4.12
817.254	7.12
817.997	5.12
818.74	7.12
819.482	6.12
820.225	7.12
820.967	4.12
821.71	5.12
822.452	5.12
823.194	3.12
823.936	3.12
824.678	6.12
825.42	5.12
826.162	5.12
826.904	4.12
827.646	5.12
828.388	6.12
829.129	5.12
829.871	4.12
830.612	3.12
831.354	5.12
832.095	5.12
832.836	6.12
833.577	5.12
834.319	6.12
835.06	4.12
835.801	4.12
836.542	5.12
837.282	4.12
838.023	3.12
838.764	3.12
839.504	3.12
840.245	3.12
840.985	4.12
841.726	4.12
842.466	4.12
843.206	4.12
843.946	5.12
844.687	2.12
845.427	4.12
846.166	2.12
846.906	4.12
847.646	4.12
848.386	4.12
849.125	4.12
849.865	4.12
850.605	4.12
851.344	4.12
852.083	5.12
852.823	2.12
853.562	3.12
854.301	4.12
855.04	4.12
855.779	4.12
856.518	1.12
857.257	2.12
857.995	2.12
858.734	3.12
859.473	3.12
860.211	3.12
860.95	4.12
861.688	2.12
862.426	3.12
863.165	3.12
863.903	1.12
864.641	2.12
865.379	3.12
866.117	2.12
866.855	1.12
867.593	2.12
868.33	3.12
869.068	2.12
869.806	5.12
870.543	0.12
871.28	2.12
872.018	3.12
872.755	0.12
873.492	1.12
874.229	3.12
874.967	0.12
875.703	0.12
876.44	2.12
877.177	3.12
877.914	0.12
878.651	4.12
879.387	3.12
880.124	-0.88
880.86	2.12
881.597	1.12
882.333	2.12
883.069	2.12
883.806	1.12
884.542	2.12
885.278	0.12
886.014	2.12
886.749	2.12
887.485	3.12
888.221	2.12
888.957	2.12
889.692	1.12
890.428	0.12
891.163	1.12
891.899	1.12
892.634	2.12
893.369	0.12
894.104	2.12
894.839	1.12
895.574	-0.88
896.309	3.12
897.044	2.12
897.779	-1.88
898.514	3.12
899.248	-0.88
899.983	0.12
900.717	1.12
901.452	1.12
902.186	0.12
902.92	0.12
903.654	0.12
904.389	0.12
905.123	0.12
905.857	-1.88
906.59	0.12
907.324	0.12
908.058	0.12
908.792	2.12
909.525	1.12
910.259	0.12
910.992	1.12
911.726	0.12
912.459	1.12
913.192	1.12
913.925	1.12
914.658	0.12
915.391	1.12
916.124	1.12
916.857	-0.88
917.59	1.12
918.323	1.12
919.055	-0.88
919.788	0.12
920.521	-0.88
921.253	-0.88
921.985	-1.88
922.718	0.12
923.45	-0.88
924.182	1.12
924.914	-1.88
925.646	-1.88
926.378	2.12
927.11	2.12
927.841	2.12
928.573	-0.88
929.305	-1.88
930.036	1.12
930.768	1.12
931.499	1.12
932.23	0.12
932.962	0.12
933.693	1.12
934.424	-1.88
935.155	0.12
935.886	-1.88
936.617	-0.88
937.348	0.12
938.078	0.12
938.809	0.12
939.54	-1.88
940.27	0.12
941.001	-0.88
941.731	1.12
942.461	-0.88
943.191	-0.88
943.922	0.12
944.652	0.12
945.382	-1.88
946.112	1.12
946.841	2.12
947.571	0.12
948.301	-1.88
949.031	1.12
949.76	-1.88
950.49	0.12
951.219	0.12
951.948	-0.88
952.678	3.12
953.407	-1.88
954.136	1.12
954.865	0.12
955.594	1.12
956.323	0.12
957.052	-0.88
957.78	1.12
958.509	3.12
959.238	1.12
959.966	0.12
960.695	0.12
961.423	-0.88
962.151	-0.88
962.88	1.12
963.608	-0.88
964.336	1.12
965.064	-0.88
965.792	-1.88
966.52	2.12
967.247	-0.88
967.975	0.12
968.703	0.12
969.43	0.12
970.158	0.12
970.885	0.12
971.613	0.12
972.34	1.12
973.067	0.12
973.794	-1.88
974.521	1.12
975.248	-0.88
975.975	-1.88
976.702	0.12
977.429	-0.88
978.156	-1.88
978.882	-0.88
979.609	-1.88
980.335	1.12
981.062	0.12
981.788	2.12
982.514	0.12
983.24	0.12
983.967	1.12
984.693	-0.88
985.419	0.12
986.144	1.12
986.87	0.12
987.596	1.12
988.322	-0.88
989.047	0.12
989.773	0.12
990.498	1.12
991.224	-0.88
991.949	2.12
992.674	1.12
993.399	0.12
994.124	2.12
994.849	1.12
995.574	-1.88
996.299	0.12
997.024	-0.88
997.749	1.12
998.473	1.12
999.198	0.12
999.922	1.12
1000.647	2.12
1001.371	2.12
1002.095	-0.88
1002.82	0.12
1003.544	-0.88
1004.268	1.12
1004.992	2.12
1005.716	1.12
1006.439	3.12
1007.163	3.12
1007.887	0.12
1008.611	0.12
1009.334	1.12
1010.058	1.12
1010.781	-0.88
1011.504	-1.88
1012.228	1.12
1012.951	-2.88
1013.674	0.12
1014.397	1.12
1015.12	1.12
