节点500_425_QEPB04081__102__15-50-00-347.txt的数据

Date: Wed Nov 12 15:50:00 CST 2025
User: PC
Spectrometer: QEPB0408
触发模式: 0
积分时间 (秒): 1.000000E-2
Scans to average: 1
启用暗噪声校正: true
启用非线性校正: false
滑动平均宽度: 0
X轴模式: Wavelengths
Number of Pixels in Spectrum: 1044
>>>>>Begin Spectral Data<<<<<
220.843	0.88
221.644	3.88
222.444	1.88
223.244	3.88
224.045	2.88
224.845	4.88
225.645	3.88
226.445	2.88
227.245	4.88
228.045	2.88
228.845	4.88
229.645	3.88
230.444	3.88
231.244	5.88
232.043	4.88
232.843	4.88
233.642	3.88
234.442	6.88
235.241	6.88
236.04	6.88
236.839	5.88
237.638	6.88
238.437	5.88
239.236	5.88
240.035	8.88
240.833	7.88
241.632	6.88
242.43	9.88
243.229	8.88
244.027	4.88
244.826	7.88
245.624	6.88
246.422	10.88
247.22	9.88
248.018	7.88
248.816	11.88
249.614	9.88
250.412	9.88
251.21	9.88
252.007	12.88
252.805	9.88
253.602	11.88
254.4	11.88
255.197	13.88
255.994	14.88
256.791	11.88
257.589	11.88
258.386	17.88
259.183	13.88
259.979	13.88
260.776	14.88
261.573	13.88
262.37	15.88
263.166	18.88
263.963	19.88
264.759	16.88
265.556	20.88
266.352	18.88
267.148	19.88
267.944	18.88
268.74	21.88
269.536	22.88
270.332	20.88
271.128	21.88
271.924	23.88
272.719	22.88
273.515	23.88
274.311	22.88
275.106	25.88
275.901	22.88
276.697	25.88
277.492	23.88
278.287	25.88
279.082	25.88
279.877	26.88
280.672	24.88
281.467	24.88
282.262	25.88
283.056	25.88
283.851	27.88
284.646	26.88
285.44	23.88
286.234	24.88
287.029	23.88
287.823	24.88
288.617	26.88
289.411	25.88
290.205	27.88
290.999	24.88
291.793	25.88
292.587	24.88
293.381	21.88
294.174	20.88
294.968	17.88
295.761	20.88
296.555	17.88
297.348	17.88
298.141	20.88
298.935	19.88
299.728	20.88
300.521	17.88
301.314	18.88
302.107	18.88
302.899	17.88
303.692	17.88
304.485	12.88
305.277	16.88
306.07	16.88
306.862	15.88
307.655	14.88
308.447	15.88
309.239	14.88
310.031	13.88
310.823	13.88
311.615	12.88
312.407	11.88
313.199	12.88
313.991	11.88
314.783	11.88
315.574	10.88
316.366	10.88
317.157	9.88
317.949	8.88
318.74	12.88
319.531	7.88
320.322	10.88
321.113	10.88
321.904	8.88
322.695	6.88
323.486	11.88
324.277	9.88
325.068	8.88
325.858	9.88
326.649	9.88
327.439	8.88
328.23	7.88
329.02	9.88
329.81	8.88
330.6	7.88
331.391	8.88
332.181	8.88
332.971	7.88
333.76	10.88
334.55	6.88
335.34	7.88
336.13	7.88
336.919	8.88
337.709	6.88
338.498	8.88
339.287	9.88
340.077	7.88
340.866	8.88
341.655	7.88
342.444	7.88
343.233	7.88
344.022	8.88
344.811	7.88
345.6	9.88
346.388	8.88
347.177	6.88
347.965	9.88
348.754	5.88
349.542	8.88
350.33	5.88
351.119	5.88
351.907	6.88
352.695	6.88
353.483	8.88
354.271	7.88
355.059	8.88
355.846	8.88
356.634	7.88
357.422	8.88
358.209	7.88
358.997	5.88
359.784	7.88
360.571	8.88
361.359	5.88
362.146	7.88
362.933	5.88
363.72	7.88
364.507	6.88
365.294	7.88
366.081	5.88
366.867	7.88
367.654	9.88
368.44	7.88
369.227	5.88
370.013	8.88
370.8	6.88
371.586	5.88
372.372	6.88
373.158	5.88
373.944	7.88
374.73	6.88
375.516	9.88
376.302	6.88
377.088	7.88
377.873	6.88
378.659	5.88
379.445	6.88
380.23	3.88
381.015	6.88
381.801	7.88
382.586	9.88
383.371	7.88
384.156	7.88
384.941	5.88
385.726	7.88
386.511	7.88
387.296	6.88
388.08	6.88
388.865	4.88
389.649	7.88
390.434	6.88
391.218	4.88
392.003	9.88
392.787	7.88
393.571	8.88
394.355	6.88
395.139	6.88
395.923	9.88
396.707	7.88
397.491	8.88
398.274	9.88
399.058	11.88
399.842	9.88
400.625	7.88
401.408	10.88
402.192	9.88
402.975	10.88
403.758	10.88
404.541	8.88
405.324	11.88
406.107	12.88
406.89	9.88
407.673	11.88
408.456	9.88
409.238	9.88
410.021	9.88
410.803	12.88
411.586	10.88
412.368	11.88
413.151	12.88
413.933	10.88
414.715	11.88
415.497	14.88
416.279	10.88
417.061	11.88
417.843	15.88
418.624	12.88
419.406	11.88
420.188	16.88
420.969	15.88
421.751	14.88
422.532	15.88
423.313	13.88
424.095	15.88
424.876	16.88
425.657	16.88
426.438	17.88
427.219	17.88
428	16.88
428.78	16.88
429.561	20.88
430.342	16.88
431.122	21.88
431.903	18.88
432.683	19.88
433.464	21.88
434.244	24.88
435.024	25.88
435.804	26.88
436.584	26.88
437.364	27.88
438.144	29.88
438.924	30.88
439.704	31.88
440.483	30.88
441.263	33.88
442.042	36.88
442.822	38.88
443.601	42.88
444.38	44.88
445.16	51.88
445.939	51.88
446.718	54.88
447.497	59.88
448.276	60.88
449.054	67.88
449.833	75.88
450.612	78.88
451.391	86.88
452.169	95.88
452.948	101.88
453.726	119.88
454.504	127.88
455.282	142.88
456.061	157.88
456.839	168.88
457.617	196.88
458.395	217.88
459.172	241.88
459.95	274.88
460.728	296.88
461.506	340.88
462.283	373.88
463.061	424.88
463.838	466.88
464.615	536.88
465.393	588.88
466.17	655.88
466.947	731.88
467.724	818.88
468.501	907.88
469.278	1033.88
470.055	1138.88
470.831	1256.88
471.608	1414.88
472.385	1553.88
473.161	1747.88
473.938	1933.88
474.714	2129.88
475.49	2356.88
476.266	2621.88
477.043	2899.88
477.819	3219.88
478.595	3559.88
479.371	3903.88
480.146	4278.88
480.922	4752.88
481.698	5250.88
482.473	5783.88
483.249	6311.88
484.024	6955.88
484.8	7671.88
485.575	8398.88
486.35	9186.88
487.126	10079.88
487.901	11053.88
488.676	12066.88
489.451	13137.88
490.225	14325.88
491	15515.88
491.775	16899.88
492.55	18286.88
493.324	19719.88
494.099	21179.88
494.873	22635.88
495.647	24130.88
496.422	25663.88
497.196	27235.88
497.97	28842.88
498.744	30344.88
499.518	31783.88
500.292	32947.88
501.066	34080.88
501.839	35149.88
502.613	35946.88
503.387	36514.88
504.16	36915.88
504.934	37064.88
505.707	36935.88
506.48	36726.88
507.253	36174.88
508.027	35634.88
508.8	34803.88
509.573	33931.88
510.346	32893.88
511.118	31778.88
511.891	30734.88
512.664	29460.88
513.437	28223.88
514.209	27016.88
514.982	25869.88
515.754	24877.88
516.526	23769.88
517.298	22729.88
518.071	21737.88
518.843	20895.88
519.615	20038.88
520.387	19118.88
521.159	18477.88
521.93	17754.88
522.702	17051.88
523.474	16390.88
524.245	15697.88
525.017	14987.88
525.788	14317.88
526.56	13665.88
527.331	12998.88
528.102	12353.88
528.873	11715.88
529.644	11162.88
530.415	10637.88
531.186	10141.88
531.957	9539.88
532.728	8972.88
533.498	8517.88
534.269	8015.88
535.039	7590.88
535.81	7189.88
536.58	6763.88
537.351	6351.88
538.121	6016.88
538.891	5694.88
539.661	5424.88
540.431	5121.88
541.201	4846.88
541.971	4605.88
542.741	4368.88
543.51	4140.88
544.28	3935.88
545.05	3741.88
545.819	3585.88
546.588	3379.88
547.358	3201.88
548.127	3066.88
548.896	2880.88
549.665	2732.88
550.434	2594.88
551.203	2448.88
551.972	2322.88
552.741	2193.88
553.51	2084.88
554.278	1941.88
555.047	1856.88
555.815	1728.88
556.584	1640.88
557.352	1541.88
558.121	1467.88
558.889	1378.88
559.657	1307.88
560.425	1236.88
561.193	1157.88
561.961	1112.88
562.729	1039.88
563.496	993.88
564.264	924.88
565.032	873.88
565.799	829.88
566.567	794.88
567.334	740.88
568.101	697.88
568.869	664.88
569.636	622.88
570.403	604.88
571.17	552.88
571.937	509.88
572.704	501.88
573.471	471.88
574.237	440.88
575.004	415.88
575.771	390.88
576.537	367.88
577.303	346.88
578.07	327.88
578.836	307.88
579.602	294.88
580.368	280.88
581.134	266.88
581.9	248.88
582.666	235.88
583.432	231.88
584.198	209.88
584.964	203.88
585.729	191.88
586.495	182.88
587.26	173.88
588.025	165.88
588.791	156.88
589.556	152.88
590.321	139.88
591.086	134.88
591.851	124.88
592.616	121.88
593.381	115.88
594.146	106.88
594.911	101.88
595.675	95.88
596.44	94.88
597.204	93.88
597.969	87.88
598.733	79.88
599.497	77.88
600.261	77.88
601.025	71.88
601.79	66.88
602.553	65.88
603.317	63.88
604.081	61.88
604.845	58.88
605.609	58.88
606.372	50.88
607.136	52.88
607.899	48.88
608.662	47.88
609.426	45.88
610.189	44.88
610.952	41.88
611.715	36.88
612.478	37.88
613.241	39.88
614.004	38.88
614.767	35.88
615.529	31.88
616.292	32.88
617.055	29.88
617.817	31.88
618.579	27.88
619.342	25.88
620.104	26.88
620.866	24.88
621.628	26.88
622.39	24.88
623.152	23.88
623.914	24.88
624.676	21.88
625.438	24.88
626.199	20.88
626.961	19.88
627.722	20.88
628.484	17.88
629.245	18.88
630.006	18.88
630.768	17.88
631.529	19.88
632.29	19.88
633.051	17.88
633.812	15.88
634.573	14.88
635.333	14.88
636.094	15.88
636.855	13.88
637.615	13.88
638.376	13.88
639.136	14.88
639.896	13.88
640.657	10.88
641.417	10.88
642.177	9.88
642.937	12.88
643.697	12.88
644.457	10.88
645.216	12.88
645.976	9.88
646.736	10.88
647.495	9.88
648.255	10.88
649.014	7.88
649.774	9.88
650.533	12.88
651.292	8.88
652.051	7.88
652.81	10.88
653.569	8.88
654.328	7.88
655.087	10.88
655.846	7.88
656.604	9.88
657.363	6.88
658.121	8.88
658.88	8.88
659.638	8.88
660.397	8.88
661.155	8.88
661.913	4.88
662.671	4.88
663.429	3.88
664.187	7.88
664.945	4.88
665.703	5.88
666.46	7.88
667.218	6.88
667.976	4.88
668.733	4.88
669.49	5.88
670.248	5.88
671.005	6.88
671.762	4.88
672.519	4.88
673.276	8.88
674.033	2.88
674.79	6.88
675.547	6.88
676.304	7.88
677.06	5.88
677.817	4.88
678.574	6.88
679.33	3.88
680.086	4.88
680.843	5.88
681.599	4.88
682.355	5.88
683.111	4.88
683.867	3.88
684.623	4.88
685.379	3.88
686.135	3.88
686.89	6.88
687.646	3.88
688.402	6.88
689.157	4.88
689.912	4.88
690.668	3.88
691.423	5.88
692.178	4.88
692.933	4.88
693.688	5.88
694.443	5.88
695.198	4.88
695.953	3.88
696.708	6.88
697.462	3.88
698.217	4.88
698.972	5.88
699.726	2.88
700.48	4.88
701.235	2.88
701.989	3.88
702.743	4.88
703.497	4.88
704.251	6.88
705.005	1.88
705.759	6.88
706.513	5.88
707.266	5.88
708.02	4.88
708.774	3.88
709.527	4.88
710.28	3.88
711.034	5.88
711.787	3.88
712.54	4.88
713.293	4.88
714.046	5.88
714.799	3.88
715.552	2.88
716.305	4.88
717.058	4.88
717.81	4.88
718.563	5.88
719.315	4.88
720.068	3.88
720.82	5.88
721.573	5.88
722.325	5.88
723.077	4.88
723.829	6.88
724.581	6.88
725.333	4.88
726.085	6.88
726.836	6.88
727.588	4.88
728.34	6.88
729.091	4.88
729.843	4.88
730.594	6.88
731.346	7.88
732.097	6.88
732.848	3.88
733.599	7.88
734.35	4.88
735.101	6.88
735.852	6.88
736.603	5.88
737.354	5.88
738.104	6.88
738.855	5.88
739.605	5.88
740.356	7.88
741.106	6.88
741.856	7.88
742.607	6.88
743.357	6.88
744.107	5.88
744.857	5.88
745.607	7.88
746.357	5.88
747.106	6.88
747.856	8.88
748.606	5.88
749.355	7.88
750.105	4.88
750.854	7.88
751.603	5.88
752.353	5.88
753.102	7.88
753.851	8.88
754.6	7.88
755.349	8.88
756.098	6.88
756.847	7.88
757.595	8.88
758.344	6.88
759.093	9.88
759.841	7.88
760.589	8.88
761.338	9.88
762.086	11.88
762.834	11.88
763.582	8.88
764.331	9.88
765.079	9.88
765.826	8.88
766.574	12.88
767.322	13.88
768.07	8.88
768.817	12.88
769.565	9.88
770.312	10.88
771.06	7.88
771.807	11.88
772.554	10.88
773.302	10.88
774.049	9.88
774.796	10.88
775.543	9.88
776.29	11.88
777.036	11.88
777.783	11.88
778.53	9.88
779.276	12.88
780.023	10.88
780.769	9.88
781.516	11.88
782.262	9.88
783.008	10.88
783.754	11.88
784.5	14.88
785.246	11.88
785.992	9.88
786.738	11.88
787.484	12.88
788.23	13.88
788.975	9.88
789.721	11.88
790.466	11.88
791.212	13.88
791.957	8.88
792.702	9.88
793.447	9.88
794.193	10.88
794.938	11.88
795.683	9.88
796.427	9.88
797.172	10.88
797.917	9.88
798.662	9.88
799.406	7.88
800.151	6.88
800.895	10.88
801.64	6.88
802.384	7.88
803.128	7.88
803.872	9.88
804.616	8.88
805.36	6.88
806.104	7.88
806.848	7.88
807.592	7.88
808.336	7.88
809.079	7.88
809.823	6.88
810.566	4.88
811.31	6.88
812.053	6.88
812.796	7.88
813.539	7.88
814.283	6.88
815.026	7.88
815.769	5.88
816.511	3.88
817.254	6.88
817.997	6.88
818.74	7.88
819.482	4.88
820.225	3.88
820.967	4.88
821.71	5.88
822.452	4.88
823.194	4.88
823.936	5.88
824.678	5.88
825.42	4.88
826.162	6.88
826.904	3.88
827.646	5.88
828.388	5.88
829.129	2.88
829.871	3.88
830.612	6.88
831.354	3.88
832.095	3.88
832.836	3.88
833.577	4.88
834.319	4.88
835.06	5.88
835.801	3.88
836.542	5.88
837.282	4.88
838.023	1.88
838.764	0.88
839.504	3.88
840.245	3.88
840.985	4.88
841.726	4.88
842.466	2.88
843.206	2.88
843.946	4.88
844.687	4.88
845.427	4.88
846.166	2.88
846.906	3.88
847.646	2.88
848.386	2.88
849.125	3.88
849.865	4.88
850.605	4.88
851.344	1.88
852.083	0.88
852.823	2.88
853.562	3.88
854.301	3.88
855.04	2.88
855.779	2.88
856.518	5.88
857.257	3.88
857.995	-0.12
858.734	3.88
859.473	1.88
860.211	-0.12
860.95	0.88
861.688	1.88
862.426	1.88
863.165	1.88
863.903	1.88
864.641	1.88
865.379	0.88
866.117	1.88
866.855	-0.12
867.593	1.88
868.33	1.88
869.068	0.88
869.806	0.88
870.543	2.88
871.28	1.88
872.018	0.88
872.755	1.88
873.492	3.88
874.229	-0.12
874.967	3.88
875.703	-0.12
876.44	1.88
877.177	1.88
877.914	1.88
878.651	0.88
879.387	0.88
880.124	0.88
880.86	1.88
881.597	-0.12
882.333	1.88
883.069	-0.12
883.806	1.88
884.542	0.88
885.278	1.88
886.014	1.88
886.749	-0.12
887.485	1.88
888.221	-0.12
888.957	-0.12
889.692	-0.12
890.428	0.88
891.163	3.88
891.899	-1.12
892.634	-0.12
893.369	-0.12
894.104	0.88
894.839	-0.12
895.574	1.88
896.309	0.88
897.044	-0.12
897.779	0.88
898.514	0.88
899.248	1.88
899.983	1.88
900.717	-0.12
901.452	-1.12
902.186	-1.12
902.92	0.88
903.654	0.88
904.389	1.88
905.123	0.88
905.857	-2.12
906.59	-0.12
907.324	-0.12
908.058	-0.12
908.792	0.88
909.525	-0.12
910.259	-0.12
910.992	-1.12
911.726	1.88
912.459	1.88
913.192	-0.12
913.925	1.88
914.658	-0.12
915.391	-0.12
916.124	-0.12
916.857	1.88
917.59	0.88
918.323	1.88
919.055	1.88
919.788	-0.12
920.521	0.88
921.253	-1.12
921.985	0.88
922.718	-0.12
923.45	-0.12
924.182	1.88
924.914	1.88
925.646	-0.12
926.378	-0.12
927.11	0.88
927.841	-2.12
928.573	-0.12
929.305	1.88
930.036	-2.12
930.768	1.88
931.499	0.88
932.23	-1.12
932.962	-2.12
933.693	0.88
934.424	0.88
935.155	-2.12
935.886	-0.12
936.617	-2.12
937.348	-1.12
938.078	-0.12
938.809	-0.12
939.54	-0.12
940.27	-1.12
941.001	0.88
941.731	0.88
942.461	-1.12
943.191	-0.12
943.922	-0.12
944.652	0.88
945.382	-1.12
946.112	0.88
946.841	0.88
947.571	-1.12
948.301	1.88
949.031	-2.12
949.76	-2.12
950.49	-2.12
951.219	-0.12
951.948	-0.12
952.678	-2.12
953.407	1.88
954.136	-0.12
954.865	-0.12
955.594	-0.12
956.323	-1.12
957.052	1.88
957.78	-0.12
958.509	1.88
959.238	0.88
959.966	-0.12
960.695	-2.12
961.423	-1.12
962.151	-1.12
962.88	-1.12
963.608	-0.12
964.336	-0.12
965.064	-1.12
965.792	-0.12
966.52	-0.12
967.247	-4.12
967.975	0.88
968.703	-1.12
969.43	0.88
970.158	-0.12
970.885	-0.12
971.613	1.88
972.34	-0.12
973.067	-1.12
973.794	0.88
974.521	0.88
975.248	-0.12
975.975	-1.12
976.702	-0.12
977.429	-0.12
978.156	1.88
978.882	-1.12
979.609	-0.12
980.335	-0.12
981.062	1.88
981.788	0.88
982.514	-0.12
983.24	1.88
983.967	-0.12
984.693	0.88
985.419	-0.12
986.144	-1.12
986.87	0.88
987.596	-1.12
988.322	-0.12
989.047	-0.12
989.773	-1.12
990.498	-0.12
991.224	-0.12
991.949	-0.12
992.674	-1.12
993.399	-0.12
994.124	0.88
994.849	0.88
995.574	0.88
996.299	-0.12
997.024	0.88
997.749	-2.12
998.473	-1.12
999.198	-0.12
999.922	-0.12
1000.647	1.88
1001.371	2.88
1002.095	0.88
1002.82	-2.12
1003.544	-2.12
1004.268	3.88
1004.992	3.88
1005.716	3.88
1006.439	0.88
1007.163	0.88
1007.887	2.88
1008.611	-0.12
1009.334	-0.12
1010.058	-0.12
1010.781	-1.12
1011.504	-1.12
1012.228	-2.12
1012.951	0.88
1013.674	0.88
1014.397	-2.12
1015.12	0.88
