节点500_425_QEPB04081__593__15-58-10-421.txt的数据

Date: Wed Nov 12 15:58:10 CST 2025
User: PC
Spectrometer: QEPB0408
触发模式: 0
积分时间 (秒): 1.000000E-2
Scans to average: 1
启用暗噪声校正: true
启用非线性校正: false
滑动平均宽度: 0
X轴模式: Wavelengths
Number of Pixels in Spectrum: 1044
>>>>>Begin Spectral Data<<<<<
220.843	1.88
221.644	2.88
222.444	0.88
223.244	1.88
224.045	4.88
224.845	4.88
225.645	2.88
226.445	2.88
227.245	3.88
228.045	4.88
228.845	4.88
229.645	2.88
230.444	4.88
231.244	5.88
232.043	4.88
232.843	6.88
233.642	5.88
234.442	5.88
235.241	4.88
236.04	4.88
236.839	5.88
237.638	6.88
238.437	6.88
239.236	7.88
240.035	7.88
240.833	5.88
241.632	7.88
242.43	7.88
243.229	5.88
244.027	9.88
244.826	8.88
245.624	5.88
246.422	6.88
247.22	9.88
248.018	11.88
248.816	8.88
249.614	9.88
250.412	7.88
251.21	9.88
252.007	7.88
252.805	11.88
253.602	10.88
254.4	8.88
255.197	11.88
255.994	10.88
256.791	12.88
257.589	11.88
258.386	10.88
259.183	12.88
259.979	12.88
260.776	12.88
261.573	13.88
262.37	13.88
263.166	13.88
263.963	16.88
264.759	14.88
265.556	17.88
266.352	16.88
267.148	18.88
267.944	20.88
268.74	19.88
269.536	15.88
270.332	19.88
271.128	18.88
271.924	20.88
272.719	21.88
273.515	18.88
274.311	19.88
275.106	23.88
275.901	18.88
276.697	21.88
277.492	21.88
278.287	24.88
279.082	20.88
279.877	20.88
280.672	23.88
281.467	22.88
282.262	23.88
283.056	21.88
283.851	20.88
284.646	20.88
285.44	23.88
286.234	24.88
287.029	19.88
287.823	24.88
288.617	23.88
289.411	23.88
290.205	23.88
290.999	21.88
291.793	23.88
292.587	19.88
293.381	19.88
294.174	20.88
294.968	19.88
295.761	21.88
296.555	18.88
297.348	18.88
298.141	19.88
298.935	18.88
299.728	18.88
300.521	18.88
301.314	18.88
302.107	17.88
302.899	17.88
303.692	18.88
304.485	14.88
305.277	16.88
306.07	17.88
306.862	16.88
307.655	16.88
308.447	14.88
309.239	16.88
310.031	13.88
310.823	15.88
311.615	13.88
312.407	13.88
313.199	16.88
313.991	12.88
314.783	13.88
315.574	9.88
316.366	10.88
317.157	10.88
317.949	9.88
318.74	13.88
319.531	12.88
320.322	10.88
321.113	8.88
321.904	8.88
322.695	8.88
323.486	10.88
324.277	10.88
325.068	7.88
325.858	11.88
326.649	10.88
327.439	10.88
328.23	10.88
329.02	8.88
329.81	10.88
330.6	8.88
331.391	8.88
332.181	10.88
332.971	6.88
333.76	10.88
334.55	6.88
335.34	10.88
336.13	8.88
336.919	7.88
337.709	6.88
338.498	7.88
339.287	10.88
340.077	8.88
340.866	8.88
341.655	10.88
342.444	8.88
343.233	8.88
344.022	5.88
344.811	8.88
345.6	9.88
346.388	7.88
347.177	8.88
347.965	8.88
348.754	8.88
349.542	6.88
350.33	9.88
351.119	9.88
351.907	6.88
352.695	9.88
353.483	7.88
354.271	6.88
355.059	7.88
355.846	5.88
356.634	6.88
357.422	7.88
358.209	7.88
358.997	6.88
359.784	6.88
360.571	7.88
361.359	4.88
362.146	5.88
362.933	7.88
363.72	6.88
364.507	5.88
365.294	7.88
366.081	9.88
366.867	6.88
367.654	5.88
368.44	4.88
369.227	5.88
370.013	7.88
370.8	7.88
371.586	8.88
372.372	8.88
373.158	10.88
373.944	5.88
374.73	8.88
375.516	5.88
376.302	7.88
377.088	7.88
377.873	5.88
378.659	7.88
379.445	6.88
380.23	6.88
381.015	7.88
381.801	6.88
382.586	6.88
383.371	6.88
384.156	9.88
384.941	7.88
385.726	7.88
386.511	6.88
387.296	5.88
388.08	8.88
388.865	6.88
389.649	7.88
390.434	8.88
391.218	7.88
392.003	8.88
392.787	6.88
393.571	7.88
394.355	8.88
395.139	7.88
395.923	8.88
396.707	7.88
397.491	7.88
398.274	10.88
399.058	7.88
399.842	11.88
400.625	8.88
401.408	9.88
402.192	8.88
402.975	10.88
403.758	8.88
404.541	10.88
405.324	11.88
406.107	9.88
406.89	10.88
407.673	12.88
408.456	9.88
409.238	8.88
410.021	11.88
410.803	10.88
411.586	9.88
412.368	11.88
413.151	9.88
413.933	14.88
414.715	12.88
415.497	12.88
416.279	13.88
417.061	14.88
417.843	12.88
418.624	10.88
419.406	10.88
420.188	13.88
420.969	11.88
421.751	17.88
422.532	13.88
423.313	13.88
424.095	14.88
424.876	12.88
425.657	17.88
426.438	18.88
427.219	17.88
428	17.88
428.78	15.88
429.561	21.88
430.342	19.88
431.122	21.88
431.903	20.88
432.683	23.88
433.464	23.88
434.244	24.88
435.024	24.88
435.804	26.88
436.584	26.88
437.364	28.88
438.144	31.88
438.924	32.88
439.704	33.88
440.483	35.88
441.263	36.88
442.042	39.88
442.822	42.88
443.601	43.88
444.38	47.88
445.16	55.88
445.939	53.88
446.718	61.88
447.497	66.88
448.276	71.88
449.054	74.88
449.833	86.88
450.612	91.88
451.391	104.88
452.169	111.88
452.948	122.88
453.726	142.88
454.504	144.88
455.282	161.88
456.061	183.88
456.839	202.88
457.617	232.88
458.395	251.88
459.172	286.88
459.95	316.88
460.728	344.88
461.506	392.88
462.283	432.88
463.061	484.88
463.838	534.88
464.615	598.88
465.393	663.88
466.17	739.88
466.947	817.88
467.724	910.88
468.501	1004.88
469.278	1113.88
470.055	1222.88
470.831	1353.88
471.608	1469.88
472.385	1630.88
473.161	1805.88
473.938	1976.88
474.714	2156.88
475.49	2368.88
476.266	2611.88
477.043	2856.88
477.819	3124.88
478.595	3414.88
479.371	3728.88
480.146	4073.88
480.922	4410.88
481.698	4814.88
482.473	5232.88
483.249	5710.88
484.024	6227.88
484.8	6778.88
485.575	7332.88
486.35	7953.88
487.126	8649.88
487.901	9347.88
488.676	10136.88
489.451	10957.88
490.225	11821.88
491	12760.88
491.775	13738.88
492.55	14849.88
493.324	15875.88
494.099	17002.88
494.873	18171.88
495.647	19364.88
496.422	20524.88
497.196	21776.88
497.97	23133.88
498.744	24331.88
499.518	25643.88
500.292	26798.88
501.066	27825.88
501.839	29024.88
502.613	29956.88
503.387	30761.88
504.16	31441.88
504.934	31937.88
505.707	32292.88
506.48	32395.88
507.253	32424.88
508.027	32384.88
508.8	32174.88
509.573	31780.88
510.346	31232.88
511.118	30584.88
511.891	29810.88
512.664	28958.88
513.437	28040.88
514.209	27084.88
514.982	26167.88
515.754	25288.88
516.526	24270.88
517.298	23283.88
518.071	22392.88
518.843	21478.88
519.615	20583.88
520.387	19762.88
521.159	19095.88
521.93	18320.88
522.702	17608.88
523.474	16905.88
524.245	16279.88
525.017	15596.88
525.788	14853.88
526.56	14215.88
527.331	13596.88
528.102	13052.88
528.873	12456.88
529.644	11879.88
530.415	11339.88
531.186	10889.88
531.957	10302.88
532.728	9768.88
533.498	9250.88
534.269	8800.88
535.039	8318.88
535.81	7881.88
536.58	7475.88
537.351	7030.88
538.121	6677.88
538.891	6312.88
539.661	5981.88
540.431	5696.88
541.201	5386.88
541.971	5065.88
542.741	4822.88
543.51	4606.88
544.28	4355.88
545.05	4138.88
545.819	3958.88
546.588	3750.88
547.358	3570.88
548.127	3374.88
548.896	3225.88
549.665	3058.88
550.434	2909.88
551.203	2748.88
551.972	2625.88
552.741	2469.88
553.51	2330.88
554.278	2218.88
555.047	2082.88
555.815	1979.88
556.584	1868.88
557.352	1771.88
558.121	1666.88
558.889	1570.88
559.657	1493.88
560.425	1406.88
561.193	1337.88
561.961	1256.88
562.729	1185.88
563.496	1142.88
564.264	1075.88
565.032	1020.88
565.799	956.88
566.567	905.88
567.334	855.88
568.101	798.88
568.869	758.88
569.636	724.88
570.403	682.88
571.17	631.88
571.937	597.88
572.704	566.88
573.471	542.88
574.237	508.88
575.004	476.88
575.771	448.88
576.537	423.88
577.303	396.88
578.07	379.88
578.836	351.88
579.602	335.88
580.368	320.88
581.134	297.88
581.9	282.88
582.666	267.88
583.432	256.88
584.198	244.88
584.964	231.88
585.729	220.88
586.495	211.88
587.26	197.88
588.025	183.88
588.791	180.88
589.556	176.88
590.321	161.88
591.086	152.88
591.851	142.88
592.616	135.88
593.381	133.88
594.146	121.88
594.911	117.88
595.675	115.88
596.44	106.88
597.204	101.88
597.969	99.88
598.733	92.88
599.497	89.88
600.261	89.88
601.025	83.88
601.79	77.88
602.553	75.88
603.317	70.88
604.081	68.88
604.845	63.88
605.609	62.88
606.372	62.88
607.136	58.88
607.899	56.88
608.662	54.88
609.426	51.88
610.189	47.88
610.952	47.88
611.715	49.88
612.478	48.88
613.241	41.88
614.004	39.88
614.767	37.88
615.529	36.88
616.292	37.88
617.055	34.88
617.817	34.88
618.579	32.88
619.342	32.88
620.104	26.88
620.866	30.88
621.628	27.88
622.39	27.88
623.152	27.88
623.914	25.88
624.676	24.88
625.438	21.88
626.199	23.88
626.961	22.88
627.722	23.88
628.484	21.88
629.245	18.88
630.006	20.88
630.768	18.88
631.529	18.88
632.29	18.88
633.051	19.88
633.812	17.88
634.573	16.88
635.333	18.88
636.094	16.88
636.855	14.88
637.615	15.88
638.376	16.88
639.136	16.88
639.896	12.88
640.657	13.88
641.417	12.88
642.177	12.88
642.937	11.88
643.697	10.88
644.457	14.88
645.216	12.88
645.976	10.88
646.736	10.88
647.495	10.88
648.255	13.88
649.014	9.88
649.774	13.88
650.533	9.88
651.292	9.88
652.051	9.88
652.81	7.88
653.569	8.88
654.328	8.88
655.087	8.88
655.846	8.88
656.604	8.88
657.363	9.88
658.121	7.88
658.88	10.88
659.638	8.88
660.397	9.88
661.155	5.88
661.913	7.88
662.671	6.88
663.429	7.88
664.187	7.88
664.945	8.88
665.703	7.88
666.46	7.88
667.218	5.88
667.976	5.88
668.733	4.88
669.49	4.88
670.248	5.88
671.005	6.88
671.762	9.88
672.519	4.88
673.276	6.88
674.033	7.88
674.79	4.88
675.547	6.88
676.304	5.88
677.06	5.88
677.817	5.88
678.574	5.88
679.33	4.88
680.086	4.88
680.843	3.88
681.599	4.88
682.355	6.88
683.111	3.88
683.867	5.88
684.623	5.88
685.379	3.88
686.135	7.88
686.89	7.88
687.646	5.88
688.402	6.88
689.157	4.88
689.912	7.88
690.668	4.88
691.423	4.88
692.178	6.88
692.933	5.88
693.688	3.88
694.443	5.88
695.198	5.88
695.953	6.88
696.708	6.88
697.462	6.88
698.217	5.88
698.972	6.88
699.726	2.88
700.48	5.88
701.235	5.88
701.989	5.88
702.743	4.88
703.497	5.88
704.251	5.88
705.005	6.88
705.759	4.88
706.513	3.88
707.266	4.88
708.02	5.88
708.774	6.88
709.527	4.88
710.28	3.88
711.034	2.88
711.787	4.88
712.54	4.88
713.293	6.88
714.046	4.88
714.799	3.88
715.552	4.88
716.305	2.88
717.058	6.88
717.81	5.88
718.563	5.88
719.315	8.88
720.068	3.88
720.82	5.88
721.573	4.88
722.325	4.88
723.077	4.88
723.829	7.88
724.581	3.88
725.333	3.88
726.085	6.88
726.836	3.88
727.588	5.88
728.34	6.88
729.091	5.88
729.843	4.88
730.594	5.88
731.346	5.88
732.097	6.88
732.848	6.88
733.599	2.88
734.35	4.88
735.101	2.88
735.852	4.88
736.603	4.88
737.354	3.88
738.104	6.88
738.855	5.88
739.605	4.88
740.356	7.88
741.106	6.88
741.856	7.88
742.607	4.88
743.357	6.88
744.107	5.88
744.857	7.88
745.607	7.88
746.357	5.88
747.106	7.88
747.856	6.88
748.606	6.88
749.355	5.88
750.105	8.88
750.854	6.88
751.603	5.88
752.353	6.88
753.102	6.88
753.851	5.88
754.6	8.88
755.349	4.88
756.098	9.88
756.847	8.88
757.595	4.88
758.344	7.88
759.093	5.88
759.841	7.88
760.589	6.88
761.338	7.88
762.086	6.88
762.834	6.88
763.582	8.88
764.331	7.88
765.079	7.88
765.826	7.88
766.574	7.88
767.322	8.88
768.07	9.88
768.817	10.88
769.565	8.88
770.312	7.88
771.06	10.88
771.807	9.88
772.554	9.88
773.302	7.88
774.049	8.88
774.796	6.88
775.543	8.88
776.29	10.88
777.036	11.88
777.783	10.88
778.53	9.88
779.276	8.88
780.023	10.88
780.769	12.88
781.516	10.88
782.262	10.88
783.008	10.88
783.754	10.88
784.5	9.88
785.246	11.88
785.992	8.88
786.738	11.88
787.484	9.88
788.23	11.88
788.975	7.88
789.721	8.88
790.466	9.88
791.212	9.88
791.957	13.88
792.702	12.88
793.447	10.88
794.193	12.88
794.938	9.88
795.683	13.88
796.427	10.88
797.172	11.88
797.917	10.88
798.662	8.88
799.406	9.88
800.151	7.88
800.895	7.88
801.64	7.88
802.384	9.88
803.128	8.88
803.872	9.88
804.616	9.88
805.36	8.88
806.104	7.88
806.848	9.88
807.592	10.88
808.336	9.88
809.079	5.88
809.823	9.88
810.566	8.88
811.31	5.88
812.053	8.88
812.796	4.88
813.539	7.88
814.283	5.88
815.026	4.88
815.769	6.88
816.511	6.88
817.254	5.88
817.997	6.88
818.74	7.88
819.482	6.88
820.225	7.88
820.967	8.88
821.71	1.88
822.452	6.88
823.194	3.88
823.936	6.88
824.678	4.88
825.42	6.88
826.162	5.88
826.904	4.88
827.646	7.88
828.388	6.88
829.129	4.88
829.871	5.88
830.612	3.88
831.354	5.88
832.095	4.88
832.836	5.88
833.577	5.88
834.319	5.88
835.06	2.88
835.801	2.88
836.542	4.88
837.282	4.88
838.023	3.88
838.764	4.88
839.504	4.88
840.245	6.88
840.985	3.88
841.726	3.88
842.466	2.88
843.206	0.88
843.946	5.88
844.687	0.88
845.427	3.88
846.166	3.88
846.906	5.88
847.646	3.88
848.386	5.88
849.125	1.88
849.865	4.88
850.605	3.88
851.344	2.88
852.083	1.88
852.823	5.88
853.562	1.88
854.301	2.88
855.04	4.88
855.779	4.88
856.518	3.88
857.257	0.88
857.995	3.88
858.734	3.88
859.473	3.88
860.211	2.88
860.95	3.88
861.688	5.88
862.426	1.88
863.165	2.88
863.903	1.88
864.641	3.88
865.379	2.88
866.117	2.88
866.855	3.88
867.593	3.88
868.33	2.88
869.068	3.88
869.806	1.88
870.543	2.88
871.28	1.88
872.018	4.88
872.755	1.88
873.492	1.88
874.229	2.88
874.967	-0.12
875.703	2.88
876.44	-0.12
877.177	2.88
877.914	-0.12
878.651	2.88
879.387	2.88
880.124	2.88
880.86	2.88
881.597	0.88
882.333	1.88
883.069	2.88
883.806	0.88
884.542	0.88
885.278	1.88
886.014	3.88
886.749	2.88
887.485	2.88
888.221	1.88
888.957	1.88
889.692	0.88
890.428	2.88
891.163	-0.12
891.899	2.88
892.634	0.88
893.369	1.88
894.104	-1.12
894.839	1.88
895.574	1.88
896.309	0.88
897.044	0.88
897.779	2.88
898.514	0.88
899.248	1.88
899.983	-1.12
900.717	2.88
901.452	1.88
902.186	-0.12
902.92	3.88
903.654	-0.12
904.389	1.88
905.123	1.88
905.857	1.88
906.59	-0.12
907.324	2.88
908.058	1.88
908.792	0.88
909.525	1.88
910.259	0.88
910.992	0.88
911.726	1.88
912.459	1.88
913.192	1.88
913.925	2.88
914.658	1.88
915.391	0.88
916.124	3.88
916.857	-1.12
917.59	-0.12
918.323	0.88
919.055	-0.12
919.788	-0.12
920.521	0.88
921.253	0.88
921.985	1.88
922.718	-1.12
923.45	-0.12
924.182	1.88
924.914	2.88
925.646	1.88
926.378	-1.12
927.11	0.88
927.841	-1.12
928.573	2.88
929.305	-0.12
930.036	-1.12
930.768	1.88
931.499	-0.12
932.23	-0.12
932.962	0.88
933.693	2.88
934.424	0.88
935.155	-0.12
935.886	2.88
936.617	-0.12
937.348	3.88
938.078	0.88
938.809	-1.12
939.54	1.88
940.27	-0.12
941.001	-1.12
941.731	2.88
942.461	0.88
943.191	-0.12
943.922	-0.12
944.652	0.88
945.382	0.88
946.112	2.88
946.841	-0.12
947.571	0.88
948.301	-0.12
949.031	2.88
949.76	0.88
950.49	0.88
951.219	-0.12
951.948	-2.12
952.678	-0.12
953.407	0.88
954.136	-0.12
954.865	-0.12
955.594	0.88
956.323	0.88
957.052	1.88
957.78	0.88
958.509	0.88
959.238	-1.12
959.966	-2.12
960.695	1.88
961.423	-0.12
962.151	0.88
962.88	0.88
963.608	1.88
964.336	0.88
965.064	0.88
965.792	2.88
966.52	0.88
967.247	1.88
967.975	-1.12
968.703	-0.12
969.43	0.88
970.158	-0.12
970.885	0.88
971.613	0.88
972.34	0.88
973.067	-0.12
973.794	0.88
974.521	0.88
975.248	0.88
975.975	-0.12
976.702	0.88
977.429	-0.12
978.156	0.88
978.882	1.88
979.609	-0.12
980.335	0.88
981.062	0.88
981.788	0.88
982.514	0.88
983.24	2.88
983.967	1.88
984.693	0.88
985.419	2.88
986.144	-1.12
986.87	0.88
987.596	0.88
988.322	-0.12
989.047	-0.12
989.773	2.88
990.498	-0.12
991.224	0.88
991.949	-0.12
992.674	-1.12
993.399	-0.12
994.124	1.88
994.849	-0.12
995.574	1.88
996.299	1.88
997.024	0.88
997.749	2.88
998.473	2.88
999.198	-1.12
999.922	-1.12
1000.647	-1.12
1001.371	1.88
1002.095	-1.12
1002.82	-1.12
1003.544	-0.12
1004.268	2.88
1004.992	1.88
1005.716	2.88
1006.439	2.88
1007.163	5.88
1007.887	3.88
1008.611	2.88
1009.334	1.88
1010.058	-2.12
1010.781	0.88
1011.504	1.88
1012.228	0.88
1012.951	0.88
1013.674	-0.12
1014.397	-0.12
1015.12	-0.12
