节点500_425_QEPB04081__275__15-52-52-967.txt的数据

Date: Wed Nov 12 15:52:52 CST 2025
User: PC
Spectrometer: QEPB0408
触发模式: 0
积分时间 (秒): 1.000000E-2
Scans to average: 1
启用暗噪声校正: true
启用非线性校正: false
滑动平均宽度: 0
X轴模式: Wavelengths
Number of Pixels in Spectrum: 1044
>>>>>Begin Spectral Data<<<<<
220.843	0.38
221.644	4.38
222.444	2.38
223.244	2.38
224.045	3.38
224.845	1.38
225.645	2.38
226.445	3.38
227.245	4.38
228.045	2.38
228.845	5.38
229.645	7.38
230.444	2.38
231.244	5.38
232.043	5.38
232.843	6.38
233.642	5.38
234.442	4.38
235.241	6.38
236.04	4.38
236.839	7.38
237.638	8.38
238.437	8.38
239.236	6.38
240.035	5.38
240.833	8.38
241.632	8.38
242.43	8.38
243.229	7.38
244.027	7.38
244.826	10.38
245.624	8.38
246.422	8.38
247.22	9.38
248.018	9.38
248.816	10.38
249.614	8.38
250.412	10.38
251.21	9.38
252.007	9.38
252.805	10.38
253.602	13.38
254.4	12.38
255.197	12.38
255.994	10.38
256.791	10.38
257.589	12.38
258.386	12.38
259.183	13.38
259.979	15.38
260.776	12.38
261.573	15.38
262.37	13.38
263.166	15.38
263.963	16.38
264.759	14.38
265.556	17.38
266.352	17.38
267.148	18.38
267.944	18.38
268.74	20.38
269.536	23.38
270.332	20.38
271.128	20.38
271.924	19.38
272.719	21.38
273.515	21.38
274.311	24.38
275.106	23.38
275.901	23.38
276.697	21.38
277.492	24.38
278.287	23.38
279.082	26.38
279.877	23.38
280.672	24.38
281.467	24.38
282.262	26.38
283.056	26.38
283.851	24.38
284.646	27.38
285.44	22.38
286.234	22.38
287.029	26.38
287.823	22.38
288.617	24.38
289.411	25.38
290.205	25.38
290.999	23.38
291.793	26.38
292.587	20.38
293.381	23.38
294.174	24.38
294.968	19.38
295.761	22.38
296.555	20.38
297.348	19.38
298.141	21.38
298.935	18.38
299.728	20.38
300.521	18.38
301.314	19.38
302.107	17.38
302.899	16.38
303.692	17.38
304.485	15.38
305.277	14.38
306.07	17.38
306.862	16.38
307.655	15.38
308.447	16.38
309.239	14.38
310.031	14.38
310.823	16.38
311.615	12.38
312.407	12.38
313.199	13.38
313.991	13.38
314.783	13.38
315.574	9.38
316.366	9.38
317.157	12.38
317.949	10.38
318.74	12.38
319.531	9.38
320.322	11.38
321.113	10.38
321.904	10.38
322.695	8.38
323.486	11.38
324.277	12.38
325.068	10.38
325.858	8.38
326.649	10.38
327.439	8.38
328.23	10.38
329.02	9.38
329.81	9.38
330.6	6.38
331.391	9.38
332.181	9.38
332.971	9.38
333.76	8.38
334.55	8.38
335.34	8.38
336.13	10.38
336.919	8.38
337.709	9.38
338.498	10.38
339.287	7.38
340.077	9.38
340.866	10.38
341.655	5.38
342.444	5.38
343.233	7.38
344.022	8.38
344.811	7.38
345.6	9.38
346.388	8.38
347.177	7.38
347.965	7.38
348.754	8.38
349.542	8.38
350.33	7.38
351.119	9.38
351.907	6.38
352.695	8.38
353.483	7.38
354.271	7.38
355.059	6.38
355.846	6.38
356.634	6.38
357.422	8.38
358.209	7.38
358.997	6.38
359.784	8.38
360.571	6.38
361.359	7.38
362.146	7.38
362.933	7.38
363.72	6.38
364.507	8.38
365.294	5.38
366.081	6.38
366.867	6.38
367.654	7.38
368.44	6.38
369.227	4.38
370.013	8.38
370.8	4.38
371.586	7.38
372.372	4.38
373.158	6.38
373.944	2.38
374.73	7.38
375.516	6.38
376.302	6.38
377.088	5.38
377.873	5.38
378.659	6.38
379.445	8.38
380.23	5.38
381.015	7.38
381.801	7.38
382.586	7.38
383.371	5.38
384.156	5.38
384.941	7.38
385.726	8.38
386.511	7.38
387.296	6.38
388.08	9.38
388.865	8.38
389.649	9.38
390.434	8.38
391.218	8.38
392.003	6.38
392.787	9.38
393.571	7.38
394.355	9.38
395.139	8.38
395.923	11.38
396.707	9.38
397.491	8.38
398.274	9.38
399.058	9.38
399.842	10.38
400.625	10.38
401.408	10.38
402.192	7.38
402.975	9.38
403.758	12.38
404.541	9.38
405.324	10.38
406.107	9.38
406.89	11.38
407.673	9.38
408.456	10.38
409.238	12.38
410.021	11.38
410.803	12.38
411.586	12.38
412.368	10.38
413.151	11.38
413.933	13.38
414.715	13.38
415.497	12.38
416.279	11.38
417.061	12.38
417.843	12.38
418.624	16.38
419.406	14.38
420.188	14.38
420.969	13.38
421.751	14.38
422.532	14.38
423.313	14.38
424.095	16.38
424.876	15.38
425.657	17.38
426.438	16.38
427.219	16.38
428	17.38
428.78	18.38
429.561	19.38
430.342	20.38
431.122	20.38
431.903	20.38
432.683	19.38
433.464	23.38
434.244	23.38
435.024	23.38
435.804	25.38
436.584	25.38
437.364	28.38
438.144	28.38
438.924	32.38
439.704	34.38
440.483	31.38
441.263	34.38
442.042	36.38
442.822	41.38
443.601	44.38
444.38	44.38
445.16	50.38
445.939	52.38
446.718	57.38
447.497	60.38
448.276	64.38
449.054	70.38
449.833	78.38
450.612	87.38
451.391	93.38
452.169	105.38
452.948	112.38
453.726	126.38
454.504	139.38
455.282	147.38
456.061	167.38
456.839	192.38
457.617	206.38
458.395	224.38
459.172	251.38
459.95	287.38
460.728	316.38
461.506	356.38
462.283	401.38
463.061	450.38
463.838	500.38
464.615	552.38
465.393	617.38
466.17	684.38
466.947	757.38
467.724	856.38
468.501	945.38
469.278	1041.38
470.055	1182.38
470.831	1285.38
471.608	1434.38
472.385	1592.38
473.161	1765.38
473.938	1940.38
474.714	2142.38
475.49	2362.38
476.266	2611.38
477.043	2888.38
477.819	3179.38
478.595	3506.38
479.371	3833.38
480.146	4208.38
480.922	4647.38
481.698	5067.38
482.473	5586.38
483.249	6092.38
484.024	6702.38
484.8	7374.38
485.575	8024.38
486.35	8745.38
487.126	9520.38
487.901	10417.38
488.676	11380.38
489.451	12336.38
490.225	13401.38
491	14577.38
491.775	15762.38
492.55	16992.38
493.324	18324.38
494.099	19632.38
494.873	20988.38
495.647	22391.38
496.422	23891.38
497.196	25279.38
497.97	26833.38
498.744	28236.38
499.518	29595.38
500.292	30800.38
501.066	31901.38
501.839	33029.38
502.613	33889.38
503.387	34513.38
504.16	35104.38
504.934	35419.38
505.707	35375.38
506.48	35283.38
507.253	35015.38
508.027	34671.38
508.8	34112.38
509.573	33376.38
510.346	32448.38
511.118	31586.38
511.891	30524.38
512.664	29396.38
513.437	28253.38
514.209	27103.38
514.982	26074.38
515.754	25059.38
516.526	23971.38
517.298	22952.38
518.071	21981.38
518.843	21064.38
519.615	20222.38
520.387	19441.38
521.159	18678.38
521.93	17923.38
522.702	17249.38
523.474	16568.38
524.245	15895.38
525.017	15125.38
525.788	14464.38
526.56	13831.38
527.331	13180.38
528.102	12575.38
528.873	11967.38
529.644	11450.38
530.415	10884.38
531.186	10329.38
531.957	9787.38
532.728	9294.38
533.498	8783.38
534.269	8285.38
535.039	7860.38
535.81	7429.38
536.58	7002.38
537.351	6592.38
538.121	6230.38
538.891	5900.38
539.661	5623.38
540.431	5294.38
541.201	5030.38
541.971	4756.38
542.741	4510.38
543.51	4280.38
544.28	4081.38
545.05	3884.38
545.819	3686.38
546.588	3496.38
547.358	3323.38
548.127	3151.38
548.896	2981.38
549.665	2874.38
550.434	2694.38
551.203	2559.38
551.972	2417.38
552.741	2287.38
553.51	2168.38
554.278	2039.38
555.047	1912.38
555.815	1820.38
556.584	1716.38
557.352	1613.38
558.121	1530.38
558.889	1447.38
559.657	1373.38
560.425	1288.38
561.193	1223.38
561.961	1144.38
562.729	1099.38
563.496	1021.38
564.264	960.38
565.032	934.38
565.799	861.38
566.567	820.38
567.334	781.38
568.101	738.38
568.869	698.38
569.636	657.38
570.403	621.38
571.17	584.38
571.937	555.38
572.704	525.38
573.471	503.38
574.237	463.38
575.004	445.38
575.771	410.38
576.537	384.38
577.303	366.38
578.07	348.38
578.836	328.38
579.602	306.38
580.368	284.38
581.134	275.38
581.9	266.38
582.666	245.38
583.432	232.38
584.198	221.38
584.964	215.38
585.729	201.38
586.495	192.38
587.26	180.38
588.025	178.38
588.791	164.38
589.556	155.38
590.321	147.38
591.086	143.38
591.851	133.38
592.616	120.38
593.381	119.38
594.146	116.38
594.911	106.38
595.675	101.38
596.44	96.38
597.204	95.38
597.969	90.38
598.733	89.38
599.497	80.38
600.261	77.38
601.025	76.38
601.79	69.38
602.553	75.38
603.317	65.38
604.081	59.38
604.845	63.38
605.609	56.38
606.372	56.38
607.136	54.38
607.899	53.38
608.662	46.38
609.426	44.38
610.189	45.38
610.952	43.38
611.715	43.38
612.478	38.38
613.241	41.38
614.004	36.38
614.767	36.38
615.529	37.38
616.292	34.38
617.055	33.38
617.817	33.38
618.579	29.38
619.342	30.38
620.104	30.38
620.866	29.38
621.628	26.38
622.39	26.38
623.152	24.38
623.914	21.38
624.676	22.38
625.438	23.38
626.199	20.38
626.961	22.38
627.722	20.38
628.484	19.38
629.245	17.38
630.006	18.38
630.768	18.38
631.529	15.38
632.29	18.38
633.051	17.38
633.812	16.38
634.573	12.38
635.333	16.38
636.094	14.38
636.855	14.38
637.615	15.38
638.376	13.38
639.136	14.38
639.896	14.38
640.657	13.38
641.417	12.38
642.177	12.38
642.937	11.38
643.697	11.38
644.457	10.38
645.216	9.38
645.976	12.38
646.736	12.38
647.495	11.38
648.255	10.38
649.014	8.38
649.774	10.38
650.533	9.38
651.292	6.38
652.051	10.38
652.81	7.38
653.569	9.38
654.328	9.38
655.087	6.38
655.846	9.38
656.604	8.38
657.363	8.38
658.121	8.38
658.88	7.38
659.638	8.38
660.397	7.38
661.155	7.38
661.913	7.38
662.671	9.38
663.429	8.38
664.187	8.38
664.945	6.38
665.703	6.38
666.46	7.38
667.218	4.38
667.976	6.38
668.733	7.38
669.49	7.38
670.248	7.38
671.005	8.38
671.762	8.38
672.519	6.38
673.276	7.38
674.033	7.38
674.79	7.38
675.547	7.38
676.304	5.38
677.06	6.38
677.817	5.38
678.574	6.38
679.33	4.38
680.086	6.38
680.843	5.38
681.599	6.38
682.355	4.38
683.111	4.38
683.867	4.38
684.623	8.38
685.379	7.38
686.135	5.38
686.89	7.38
687.646	4.38
688.402	6.38
689.157	2.38
689.912	3.38
690.668	5.38
691.423	4.38
692.178	5.38
692.933	4.38
693.688	6.38
694.443	4.38
695.198	5.38
695.953	5.38
696.708	4.38
697.462	5.38
698.217	2.38
698.972	4.38
699.726	7.38
700.48	7.38
701.235	5.38
701.989	4.38
702.743	4.38
703.497	5.38
704.251	6.38
705.005	5.38
705.759	5.38
706.513	2.38
707.266	3.38
708.02	5.38
708.774	6.38
709.527	5.38
710.28	6.38
711.034	5.38
711.787	4.38
712.54	6.38
713.293	6.38
714.046	4.38
714.799	3.38
715.552	6.38
716.305	6.38
717.058	7.38
717.81	3.38
718.563	5.38
719.315	7.38
720.068	5.38
720.82	5.38
721.573	7.38
722.325	4.38
723.077	8.38
723.829	3.38
724.581	5.38
725.333	5.38
726.085	7.38
726.836	5.38
727.588	5.38
728.34	6.38
729.091	5.38
729.843	6.38
730.594	6.38
731.346	4.38
732.097	5.38
732.848	7.38
733.599	6.38
734.35	5.38
735.101	8.38
735.852	5.38
736.603	4.38
737.354	6.38
738.104	6.38
738.855	7.38
739.605	7.38
740.356	5.38
741.106	6.38
741.856	7.38
742.607	6.38
743.357	7.38
744.107	6.38
744.857	6.38
745.607	9.38
746.357	8.38
747.106	5.38
747.856	7.38
748.606	8.38
749.355	7.38
750.105	6.38
750.854	6.38
751.603	7.38
752.353	7.38
753.102	8.38
753.851	6.38
754.6	10.38
755.349	8.38
756.098	9.38
756.847	11.38
757.595	10.38
758.344	8.38
759.093	8.38
759.841	7.38
760.589	8.38
761.338	7.38
762.086	8.38
762.834	10.38
763.582	8.38
764.331	9.38
765.079	9.38
765.826	9.38
766.574	8.38
767.322	10.38
768.07	10.38
768.817	8.38
769.565	9.38
770.312	9.38
771.06	8.38
771.807	10.38
772.554	10.38
773.302	12.38
774.049	9.38
774.796	10.38
775.543	13.38
776.29	10.38
777.036	10.38
777.783	11.38
778.53	12.38
779.276	9.38
780.023	13.38
780.769	11.38
781.516	12.38
782.262	9.38
783.008	11.38
783.754	12.38
784.5	9.38
785.246	10.38
785.992	12.38
786.738	11.38
787.484	13.38
788.23	10.38
788.975	11.38
789.721	10.38
790.466	14.38
791.212	11.38
791.957	8.38
792.702	11.38
793.447	10.38
794.193	7.38
794.938	9.38
795.683	10.38
796.427	9.38
797.172	9.38
797.917	10.38
798.662	8.38
799.406	8.38
800.151	8.38
800.895	7.38
801.64	10.38
802.384	10.38
803.128	10.38
803.872	11.38
804.616	10.38
805.36	10.38
806.104	8.38
806.848	8.38
807.592	8.38
808.336	7.38
809.079	5.38
809.823	6.38
810.566	8.38
811.31	6.38
812.053	8.38
812.796	6.38
813.539	5.38
814.283	8.38
815.026	8.38
815.769	9.38
816.511	5.38
817.254	7.38
817.997	9.38
818.74	3.38
819.482	6.38
820.225	5.38
820.967	6.38
821.71	7.38
822.452	4.38
823.194	5.38
823.936	7.38
824.678	6.38
825.42	5.38
826.162	5.38
826.904	4.38
827.646	4.38
828.388	6.38
829.129	5.38
829.871	5.38
830.612	6.38
831.354	1.38
832.095	3.38
832.836	4.38
833.577	3.38
834.319	5.38
835.06	3.38
835.801	4.38
836.542	4.38
837.282	5.38
838.023	4.38
838.764	3.38
839.504	4.38
840.245	4.38
840.985	6.38
841.726	5.38
842.466	3.38
843.206	3.38
843.946	6.38
844.687	2.38
845.427	2.38
846.166	5.38
846.906	2.38
847.646	5.38
848.386	2.38
849.125	3.38
849.865	4.38
850.605	3.38
851.344	2.38
852.083	4.38
852.823	3.38
853.562	2.38
854.301	1.38
855.04	2.38
855.779	4.38
856.518	4.38
857.257	3.38
857.995	4.38
858.734	4.38
859.473	2.38
860.211	4.38
860.95	3.38
861.688	4.38
862.426	1.38
863.165	0.38
863.903	3.38
864.641	2.38
865.379	2.38
866.117	2.38
866.855	2.38
867.593	2.38
868.33	3.38
869.068	3.38
869.806	3.38
870.543	3.38
871.28	2.38
872.018	2.38
872.755	1.38
873.492	2.38
874.229	1.38
874.967	0.38
875.703	0.38
876.44	1.38
877.177	-0.62
877.914	1.38
878.651	-0.62
879.387	1.38
880.124	-0.62
880.86	0.38
881.597	3.38
882.333	0.38
883.069	0.38
883.806	-0.62
884.542	1.38
885.278	1.38
886.014	1.38
886.749	2.38
887.485	0.38
888.221	-0.62
888.957	1.38
889.692	2.38
890.428	0.38
891.163	1.38
891.899	0.38
892.634	2.38
893.369	-0.62
894.104	0.38
894.839	-0.62
895.574	0.38
896.309	0.38
897.044	0.38
897.779	-0.62
898.514	0.38
899.248	2.38
899.983	0.38
900.717	2.38
901.452	0.38
902.186	0.38
902.92	2.38
903.654	1.38
904.389	1.38
905.123	-0.62
905.857	0.38
906.59	0.38
907.324	1.38
908.058	1.38
908.792	1.38
909.525	0.38
910.259	2.38
910.992	0.38
911.726	0.38
912.459	1.38
913.192	-0.62
913.925	-0.62
914.658	-1.62
915.391	1.38
916.124	0.38
916.857	1.38
917.59	0.38
918.323	1.38
919.055	0.38
919.788	-0.62
920.521	4.38
921.253	-0.62
921.985	0.38
922.718	-1.62
923.45	2.38
924.182	1.38
924.914	-1.62
925.646	0.38
926.378	-0.62
927.11	-0.62
927.841	-1.62
928.573	-0.62
929.305	-0.62
930.036	-0.62
930.768	0.38
931.499	-1.62
932.23	1.38
932.962	0.38
933.693	0.38
934.424	1.38
935.155	-1.62
935.886	2.38
936.617	1.38
937.348	-1.62
938.078	1.38
938.809	-0.62
939.54	-1.62
940.27	0.38
941.001	-0.62
941.731	1.38
942.461	1.38
943.191	0.38
943.922	1.38
944.652	-0.62
945.382	0.38
946.112	1.38
946.841	0.38
947.571	1.38
948.301	1.38
949.031	-1.62
949.76	-0.62
950.49	0.38
951.219	1.38
951.948	-1.62
952.678	2.38
953.407	1.38
954.136	1.38
954.865	0.38
955.594	-0.62
956.323	0.38
957.052	2.38
957.78	0.38
958.509	0.38
959.238	1.38
959.966	0.38
960.695	-0.62
961.423	1.38
962.151	0.38
962.88	1.38
963.608	-0.62
964.336	-1.62
965.064	-0.62
965.792	1.38
966.52	-1.62
967.247	-1.62
967.975	-1.62
968.703	-0.62
969.43	0.38
970.158	0.38
970.885	2.38
971.613	-0.62
972.34	1.38
973.067	3.38
973.794	-0.62
974.521	-1.62
975.248	0.38
975.975	0.38
976.702	0.38
977.429	1.38
978.156	0.38
978.882	1.38
979.609	1.38
980.335	0.38
981.062	-0.62
981.788	2.38
982.514	1.38
983.24	1.38
983.967	-0.62
984.693	1.38
985.419	-1.62
986.144	1.38
986.87	0.38
987.596	0.38
988.322	0.38
989.047	2.38
989.773	1.38
990.498	-1.62
991.224	1.38
991.949	0.38
992.674	0.38
993.399	1.38
994.124	0.38
994.849	-0.62
995.574	0.38
996.299	0.38
997.024	-0.62
997.749	1.38
998.473	1.38
999.198	2.38
999.922	-1.62
1000.647	0.38
1001.371	2.38
1002.095	-1.62
1002.82	0.38
1003.544	-2.62
1004.268	1.38
1004.992	-0.62
1005.716	1.38
1006.439	2.38
1007.163	2.38
1007.887	3.38
1008.611	-0.62
1009.334	0.38
1010.058	-0.62
1010.781	0.38
1011.504	0.38
1012.228	-0.62
1012.951	1.38
1013.674	-0.62
1014.397	1.38
1015.12	-0.62
