节点500_425_QEPB04081__547__15-57-24-505.txt的数据

Date: Wed Nov 12 15:57:24 CST 2025
User: PC
Spectrometer: QEPB0408
触发模式: 0
积分时间 (秒): 1.000000E-2
Scans to average: 1
启用暗噪声校正: true
启用非线性校正: false
滑动平均宽度: 0
X轴模式: Wavelengths
Number of Pixels in Spectrum: 1044
>>>>>Begin Spectral Data<<<<<
220.843	2.88
221.644	1.88
222.444	1.88
223.244	1.88
224.045	1.88
224.845	2.88
225.645	2.88
226.445	1.88
227.245	5.88
228.045	2.88
228.845	3.88
229.645	2.88
230.444	4.88
231.244	4.88
232.043	5.88
232.843	4.88
233.642	3.88
234.442	6.88
235.241	4.88
236.04	3.88
236.839	6.88
237.638	5.88
238.437	3.88
239.236	3.88
240.035	5.88
240.833	5.88
241.632	3.88
242.43	6.88
243.229	6.88
244.027	5.88
244.826	6.88
245.624	7.88
246.422	7.88
247.22	5.88
248.018	8.88
248.816	7.88
249.614	8.88
250.412	7.88
251.21	8.88
252.007	11.88
252.805	9.88
253.602	10.88
254.4	8.88
255.197	9.88
255.994	8.88
256.791	11.88
257.589	10.88
258.386	12.88
259.183	11.88
259.979	11.88
260.776	15.88
261.573	11.88
262.37	10.88
263.166	14.88
263.963	14.88
264.759	16.88
265.556	12.88
266.352	16.88
267.148	14.88
267.944	14.88
268.74	16.88
269.536	18.88
270.332	18.88
271.128	16.88
271.924	20.88
272.719	20.88
273.515	17.88
274.311	18.88
275.106	16.88
275.901	21.88
276.697	17.88
277.492	21.88
278.287	20.88
279.082	19.88
279.877	18.88
280.672	21.88
281.467	20.88
282.262	18.88
283.056	21.88
283.851	23.88
284.646	20.88
285.44	23.88
286.234	22.88
287.029	23.88
287.823	22.88
288.617	23.88
289.411	24.88
290.205	20.88
290.999	21.88
291.793	20.88
292.587	21.88
293.381	21.88
294.174	20.88
294.968	21.88
295.761	18.88
296.555	18.88
297.348	17.88
298.141	17.88
298.935	19.88
299.728	19.88
300.521	17.88
301.314	17.88
302.107	15.88
302.899	16.88
303.692	15.88
304.485	12.88
305.277	13.88
306.07	17.88
306.862	16.88
307.655	16.88
308.447	15.88
309.239	10.88
310.031	15.88
310.823	12.88
311.615	8.88
312.407	12.88
313.199	11.88
313.991	10.88
314.783	10.88
315.574	9.88
316.366	9.88
317.157	10.88
317.949	11.88
318.74	10.88
319.531	12.88
320.322	10.88
321.113	7.88
321.904	9.88
322.695	8.88
323.486	9.88
324.277	6.88
325.068	7.88
325.858	8.88
326.649	6.88
327.439	7.88
328.23	5.88
329.02	8.88
329.81	7.88
330.6	8.88
331.391	6.88
332.181	9.88
332.971	8.88
333.76	6.88
334.55	6.88
335.34	6.88
336.13	8.88
336.919	5.88
337.709	7.88
338.498	8.88
339.287	7.88
340.077	8.88
340.866	6.88
341.655	6.88
342.444	6.88
343.233	6.88
344.022	5.88
344.811	7.88
345.6	7.88
346.388	8.88
347.177	7.88
347.965	6.88
348.754	5.88
349.542	7.88
350.33	7.88
351.119	3.88
351.907	8.88
352.695	7.88
353.483	7.88
354.271	5.88
355.059	7.88
355.846	5.88
356.634	7.88
357.422	5.88
358.209	7.88
358.997	6.88
359.784	8.88
360.571	6.88
361.359	5.88
362.146	6.88
362.933	4.88
363.72	5.88
364.507	7.88
365.294	7.88
366.081	5.88
366.867	6.88
367.654	4.88
368.44	6.88
369.227	6.88
370.013	5.88
370.8	7.88
371.586	7.88
372.372	5.88
373.158	6.88
373.944	2.88
374.73	5.88
375.516	3.88
376.302	5.88
377.088	6.88
377.873	5.88
378.659	7.88
379.445	6.88
380.23	6.88
381.015	4.88
381.801	6.88
382.586	5.88
383.371	5.88
384.156	5.88
384.941	5.88
385.726	7.88
386.511	3.88
387.296	6.88
388.08	6.88
388.865	6.88
389.649	6.88
390.434	7.88
391.218	7.88
392.003	7.88
392.787	7.88
393.571	7.88
394.355	8.88
395.139	5.88
395.923	8.88
396.707	6.88
397.491	7.88
398.274	6.88
399.058	10.88
399.842	6.88
400.625	6.88
401.408	9.88
402.192	7.88
402.975	9.88
403.758	6.88
404.541	8.88
405.324	7.88
406.107	9.88
406.89	10.88
407.673	10.88
408.456	11.88
409.238	12.88
410.021	9.88
410.803	11.88
411.586	12.88
412.368	7.88
413.151	10.88
413.933	10.88
414.715	8.88
415.497	10.88
416.279	13.88
417.061	11.88
417.843	10.88
418.624	11.88
419.406	10.88
420.188	12.88
420.969	15.88
421.751	14.88
422.532	13.88
423.313	15.88
424.095	13.88
424.876	16.88
425.657	16.88
426.438	13.88
427.219	15.88
428	15.88
428.78	17.88
429.561	18.88
430.342	18.88
431.122	17.88
431.903	21.88
432.683	19.88
433.464	19.88
434.244	22.88
435.024	24.88
435.804	23.88
436.584	26.88
437.364	26.88
438.144	26.88
438.924	31.88
439.704	28.88
440.483	31.88
441.263	33.88
442.042	37.88
442.822	40.88
443.601	42.88
444.38	49.88
445.16	46.88
445.939	53.88
446.718	57.88
447.497	61.88
448.276	69.88
449.054	73.88
449.833	83.88
450.612	90.88
451.391	102.88
452.169	113.88
452.948	124.88
453.726	133.88
454.504	141.88
455.282	168.88
456.061	183.88
456.839	208.88
457.617	227.88
458.395	256.88
459.172	281.88
459.95	309.88
460.728	343.88
461.506	389.88
462.283	433.88
463.061	479.88
463.838	532.88
464.615	601.88
465.393	654.88
466.17	721.88
466.947	811.88
467.724	904.88
468.501	999.88
469.278	1101.88
470.055	1225.88
470.831	1337.88
471.608	1477.88
472.385	1618.88
473.161	1794.88
473.938	1957.88
474.714	2177.88
475.49	2366.88
476.266	2593.88
477.043	2849.88
477.819	3114.88
478.595	3416.88
479.371	3722.88
480.146	4041.88
480.922	4427.88
481.698	4843.88
482.473	5265.88
483.249	5726.88
484.024	6248.88
484.8	6836.88
485.575	7359.88
486.35	7984.88
487.126	8674.88
487.901	9404.88
488.676	10206.88
489.451	11047.88
490.225	11955.88
491	12873.88
491.775	13876.88
492.55	14927.88
493.324	16045.88
494.099	17130.88
494.873	18192.88
495.647	19501.88
496.422	20750.88
497.196	21936.88
497.97	23335.88
498.744	24549.88
499.518	25845.88
500.292	27016.88
501.066	28120.88
501.839	29208.88
502.613	30205.88
503.387	30916.88
504.16	31715.88
504.934	32160.88
505.707	32511.88
506.48	32629.88
507.253	32618.88
508.027	32531.88
508.8	32259.88
509.573	31890.88
510.346	31294.88
511.118	30591.88
511.891	29850.88
512.664	28951.88
513.437	28074.88
514.209	27103.88
514.982	26210.88
515.754	25276.88
516.526	24220.88
517.298	23249.88
518.071	22289.88
518.843	21446.88
519.615	20575.88
520.387	19742.88
521.159	19002.88
521.93	18324.88
522.702	17580.88
523.474	16836.88
524.245	16250.88
525.017	15522.88
525.788	14805.88
526.56	14191.88
527.331	13564.88
528.102	12989.88
528.873	12400.88
529.644	11797.88
530.415	11267.88
531.186	10778.88
531.957	10253.88
532.728	9742.88
533.498	9210.88
534.269	8759.88
535.039	8281.88
535.81	7836.88
536.58	7440.88
537.351	6998.88
538.121	6627.88
538.891	6286.88
539.661	5957.88
540.431	5639.88
541.201	5336.88
541.971	5050.88
542.741	4795.88
543.51	4572.88
544.28	4352.88
545.05	4109.88
545.819	3926.88
546.588	3737.88
547.358	3541.88
548.127	3342.88
548.896	3177.88
549.665	3062.88
550.434	2884.88
551.203	2743.88
551.972	2592.88
552.741	2432.88
553.51	2330.88
554.278	2213.88
555.047	2070.88
555.815	1965.88
556.584	1862.88
557.352	1756.88
558.121	1641.88
558.889	1573.88
559.657	1479.88
560.425	1387.88
561.193	1331.88
561.961	1247.88
562.729	1178.88
563.496	1126.88
564.264	1067.88
565.032	999.88
565.799	962.88
566.567	889.88
567.334	850.88
568.101	799.88
568.869	751.88
569.636	710.88
570.403	657.88
571.17	630.88
571.937	603.88
572.704	567.88
573.471	538.88
574.237	510.88
575.004	466.88
575.771	438.88
576.537	421.88
577.303	396.88
578.07	367.88
578.836	348.88
579.602	330.88
580.368	313.88
581.134	308.88
581.9	285.88
582.666	270.88
583.432	249.88
584.198	237.88
584.964	231.88
585.729	217.88
586.495	212.88
587.26	201.88
588.025	186.88
588.791	177.88
589.556	164.88
590.321	157.88
591.086	147.88
591.851	142.88
592.616	136.88
593.381	132.88
594.146	118.88
594.911	117.88
595.675	114.88
596.44	106.88
597.204	100.88
597.969	99.88
598.733	96.88
599.497	90.88
600.261	89.88
601.025	80.88
601.79	77.88
602.553	73.88
603.317	69.88
604.081	63.88
604.845	67.88
605.609	63.88
606.372	60.88
607.136	55.88
607.899	52.88
608.662	50.88
609.426	47.88
610.189	47.88
610.952	46.88
611.715	46.88
612.478	39.88
613.241	40.88
614.004	39.88
614.767	37.88
615.529	38.88
616.292	35.88
617.055	31.88
617.817	34.88
618.579	34.88
619.342	31.88
620.104	29.88
620.866	26.88
621.628	27.88
622.39	25.88
623.152	25.88
623.914	23.88
624.676	24.88
625.438	22.88
626.199	24.88
626.961	22.88
627.722	21.88
628.484	20.88
629.245	21.88
630.006	17.88
630.768	20.88
631.529	17.88
632.29	16.88
633.051	16.88
633.812	15.88
634.573	16.88
635.333	12.88
636.094	16.88
636.855	17.88
637.615	12.88
638.376	13.88
639.136	13.88
639.896	13.88
640.657	12.88
641.417	10.88
642.177	15.88
642.937	11.88
643.697	11.88
644.457	9.88
645.216	12.88
645.976	10.88
646.736	8.88
647.495	10.88
648.255	10.88
649.014	8.88
649.774	9.88
650.533	6.88
651.292	9.88
652.051	7.88
652.81	11.88
653.569	9.88
654.328	6.88
655.087	8.88
655.846	8.88
656.604	7.88
657.363	6.88
658.121	5.88
658.88	9.88
659.638	9.88
660.397	8.88
661.155	8.88
661.913	5.88
662.671	7.88
663.429	5.88
664.187	9.88
664.945	3.88
665.703	7.88
666.46	5.88
667.218	7.88
667.976	7.88
668.733	5.88
669.49	7.88
670.248	5.88
671.005	7.88
671.762	6.88
672.519	5.88
673.276	5.88
674.033	2.88
674.79	6.88
675.547	4.88
676.304	5.88
677.06	4.88
677.817	5.88
678.574	5.88
679.33	4.88
680.086	6.88
680.843	6.88
681.599	3.88
682.355	7.88
683.111	5.88
683.867	5.88
684.623	3.88
685.379	4.88
686.135	5.88
686.89	4.88
687.646	4.88
688.402	3.88
689.157	5.88
689.912	7.88
690.668	3.88
691.423	5.88
692.178	4.88
692.933	3.88
693.688	3.88
694.443	4.88
695.198	4.88
695.953	3.88
696.708	4.88
697.462	4.88
698.217	3.88
698.972	4.88
699.726	5.88
700.48	1.88
701.235	5.88
701.989	6.88
702.743	3.88
703.497	3.88
704.251	5.88
705.005	2.88
705.759	4.88
706.513	4.88
707.266	4.88
708.02	5.88
708.774	1.88
709.527	4.88
710.28	4.88
711.034	1.88
711.787	1.88
712.54	4.88
713.293	4.88
714.046	2.88
714.799	3.88
715.552	4.88
716.305	5.88
717.058	2.88
717.81	3.88
718.563	4.88
719.315	3.88
720.068	5.88
720.82	4.88
721.573	2.88
722.325	5.88
723.077	2.88
723.829	4.88
724.581	2.88
725.333	3.88
726.085	5.88
726.836	1.88
727.588	5.88
728.34	4.88
729.091	6.88
729.843	3.88
730.594	3.88
731.346	3.88
732.097	6.88
732.848	4.88
733.599	6.88
734.35	5.88
735.101	5.88
735.852	5.88
736.603	5.88
737.354	4.88
738.104	3.88
738.855	6.88
739.605	5.88
740.356	6.88
741.106	5.88
741.856	7.88
742.607	6.88
743.357	4.88
744.107	4.88
744.857	5.88
745.607	4.88
746.357	3.88
747.106	5.88
747.856	5.88
748.606	5.88
749.355	7.88
750.105	6.88
750.854	6.88
751.603	9.88
752.353	4.88
753.102	7.88
753.851	5.88
754.6	8.88
755.349	5.88
756.098	6.88
756.847	5.88
757.595	5.88
758.344	6.88
759.093	6.88
759.841	7.88
760.589	3.88
761.338	6.88
762.086	7.88
762.834	5.88
763.582	6.88
764.331	7.88
765.079	6.88
765.826	6.88
766.574	7.88
767.322	7.88
768.07	7.88
768.817	9.88
769.565	6.88
770.312	9.88
771.06	11.88
771.807	7.88
772.554	7.88
773.302	8.88
774.049	6.88
774.796	8.88
775.543	7.88
776.29	12.88
777.036	8.88
777.783	8.88
778.53	7.88
779.276	9.88
780.023	9.88
780.769	11.88
781.516	9.88
782.262	8.88
783.008	11.88
783.754	10.88
784.5	10.88
785.246	8.88
785.992	10.88
786.738	8.88
787.484	9.88
788.23	8.88
788.975	10.88
789.721	7.88
790.466	9.88
791.212	9.88
791.957	9.88
792.702	11.88
793.447	10.88
794.193	9.88
794.938	9.88
795.683	11.88
796.427	8.88
797.172	11.88
797.917	6.88
798.662	7.88
799.406	7.88
800.151	7.88
800.895	8.88
801.64	8.88
802.384	7.88
803.128	5.88
803.872	8.88
804.616	7.88
805.36	7.88
806.104	8.88
806.848	6.88
807.592	7.88
808.336	6.88
809.079	5.88
809.823	5.88
810.566	5.88
811.31	4.88
812.053	6.88
812.796	6.88
813.539	7.88
814.283	7.88
815.026	5.88
815.769	6.88
816.511	6.88
817.254	5.88
817.997	6.88
818.74	6.88
819.482	3.88
820.225	7.88
820.967	3.88
821.71	5.88
822.452	5.88
823.194	3.88
823.936	3.88
824.678	4.88
825.42	4.88
826.162	3.88
826.904	4.88
827.646	5.88
828.388	3.88
829.129	3.88
829.871	3.88
830.612	3.88
831.354	6.88
832.095	4.88
832.836	4.88
833.577	5.88
834.319	4.88
835.06	2.88
835.801	5.88
836.542	3.88
837.282	2.88
838.023	2.88
838.764	3.88
839.504	3.88
840.245	6.88
840.985	3.88
841.726	1.88
842.466	4.88
843.206	1.88
843.946	3.88
844.687	3.88
845.427	1.88
846.166	3.88
846.906	3.88
847.646	1.88
848.386	4.88
849.125	3.88
849.865	0.88
850.605	5.88
851.344	2.88
852.083	0.88
852.823	5.88
853.562	1.88
854.301	1.88
855.04	2.88
855.779	4.88
856.518	0.88
857.257	4.88
857.995	4.88
858.734	-1.12
859.473	0.88
860.211	3.88
860.95	2.88
861.688	1.88
862.426	3.88
863.165	1.88
863.903	1.88
864.641	3.88
865.379	0.88
866.117	1.88
866.855	2.88
867.593	1.88
868.33	1.88
869.068	0.88
869.806	3.88
870.543	0.88
871.28	-1.12
872.018	2.88
872.755	0.88
873.492	-0.12
874.229	1.88
874.967	0.88
875.703	2.88
876.44	0.88
877.177	0.88
877.914	2.88
878.651	0.88
879.387	0.88
880.124	-0.12
880.86	2.88
881.597	0.88
882.333	-2.12
883.069	0.88
883.806	1.88
884.542	-0.12
885.278	0.88
886.014	1.88
886.749	1.88
887.485	-1.12
888.221	-0.12
888.957	-1.12
889.692	0.88
890.428	-0.12
891.163	-0.12
891.899	-0.12
892.634	-1.12
893.369	0.88
894.104	-0.12
894.839	-0.12
895.574	0.88
896.309	-1.12
897.044	1.88
897.779	0.88
898.514	1.88
899.248	1.88
899.983	0.88
900.717	0.88
901.452	0.88
902.186	-0.12
902.92	-0.12
903.654	0.88
904.389	-0.12
905.123	2.88
905.857	0.88
906.59	-0.12
907.324	1.88
908.058	0.88
908.792	0.88
909.525	0.88
910.259	-0.12
910.992	0.88
911.726	-0.12
912.459	-1.12
913.192	0.88
913.925	-0.12
914.658	-0.12
915.391	-2.12
916.124	-0.12
916.857	-0.12
917.59	-0.12
918.323	-0.12
919.055	-0.12
919.788	0.88
920.521	-0.12
921.253	-2.12
921.985	1.88
922.718	-1.12
923.45	-0.12
924.182	-1.12
924.914	-1.12
925.646	0.88
926.378	1.88
927.11	2.88
927.841	0.88
928.573	1.88
929.305	-0.12
930.036	0.88
930.768	-3.12
931.499	-1.12
932.23	-2.12
932.962	-0.12
933.693	-0.12
934.424	-1.12
935.155	-1.12
935.886	-0.12
936.617	0.88
937.348	1.88
938.078	-2.12
938.809	-0.12
939.54	0.88
940.27	-0.12
941.001	0.88
941.731	1.88
942.461	1.88
943.191	-1.12
943.922	-0.12
944.652	0.88
945.382	-0.12
946.112	1.88
946.841	-1.12
947.571	1.88
948.301	-1.12
949.031	-0.12
949.76	-0.12
950.49	-0.12
951.219	-0.12
951.948	-2.12
952.678	1.88
953.407	1.88
954.136	0.88
954.865	1.88
955.594	-1.12
956.323	-1.12
957.052	-1.12
957.78	-1.12
958.509	-1.12
959.238	-1.12
959.966	-2.12
960.695	-1.12
961.423	-1.12
962.151	-0.12
962.88	-0.12
963.608	-2.12
964.336	-2.12
965.064	-0.12
965.792	-1.12
966.52	-2.12
967.247	-0.12
967.975	-1.12
968.703	-0.12
969.43	1.88
970.158	0.88
970.885	-0.12
971.613	-0.12
972.34	0.88
973.067	-1.12
973.794	-1.12
974.521	-0.12
975.248	1.88
975.975	-1.12
976.702	-0.12
977.429	-2.12
978.156	-0.12
978.882	-0.12
979.609	-0.12
980.335	0.88
981.062	-2.12
981.788	0.88
982.514	-0.12
983.24	-2.12
983.967	0.88
984.693	-0.12
985.419	-0.12
986.144	-0.12
986.87	-3.12
987.596	0.88
988.322	-0.12
989.047	-0.12
989.773	-3.12
990.498	1.88
991.224	0.88
991.949	-0.12
992.674	1.88
993.399	-0.12
994.124	-0.12
994.849	0.88
995.574	-1.12
996.299	-0.12
997.024	0.88
997.749	-1.12
998.473	-2.12
999.198	-1.12
999.922	-0.12
1000.647	-2.12
1001.371	2.88
1002.095	-0.12
1002.82	-1.12
1003.544	-0.12
1004.268	1.88
1004.992	-0.12
1005.716	3.88
1006.439	2.88
1007.163	1.88
1007.887	3.88
1008.611	-0.12
1009.334	-0.12
1010.058	-1.12
1010.781	0.88
1011.504	-0.12
1012.228	-2.12
1012.951	-0.12
1013.674	0.88
1014.397	-2.12
1015.12	-0.12
