节点500_425_QEPB04081__192__15-51-30-124.txt的数据

Date: Wed Nov 12 15:51:30 CST 2025
User: PC
Spectrometer: QEPB0408
触发模式: 0
积分时间 (秒): 1.000000E-2
Scans to average: 1
启用暗噪声校正: true
启用非线性校正: false
滑动平均宽度: 0
X轴模式: Wavelengths
Number of Pixels in Spectrum: 1044
>>>>>Begin Spectral Data<<<<<
220.843	2.38
221.644	2.38
222.444	3.38
223.244	5.38
224.045	4.38
224.845	4.38
225.645	3.38
226.445	5.38
227.245	4.38
228.045	4.38
228.845	6.38
229.645	3.38
230.444	6.38
231.244	6.38
232.043	5.38
232.843	6.38
233.642	6.38
234.442	8.38
235.241	6.38
236.04	5.38
236.839	6.38
237.638	5.38
238.437	8.38
239.236	7.38
240.035	6.38
240.833	8.38
241.632	6.38
242.43	6.38
243.229	9.38
244.027	8.38
244.826	6.38
245.624	7.38
246.422	10.38
247.22	7.38
248.018	9.38
248.816	8.38
249.614	10.38
250.412	9.38
251.21	11.38
252.007	11.38
252.805	8.38
253.602	13.38
254.4	10.38
255.197	12.38
255.994	13.38
256.791	10.38
257.589	13.38
258.386	13.38
259.183	12.38
259.979	15.38
260.776	18.38
261.573	18.38
262.37	15.38
263.166	15.38
263.963	17.38
264.759	17.38
265.556	19.38
266.352	19.38
267.148	16.38
267.944	19.38
268.74	18.38
269.536	19.38
270.332	21.38
271.128	22.38
271.924	22.38
272.719	22.38
273.515	23.38
274.311	23.38
275.106	24.38
275.901	23.38
276.697	26.38
277.492	23.38
278.287	26.38
279.082	27.38
279.877	24.38
280.672	25.38
281.467	26.38
282.262	26.38
283.056	23.38
283.851	24.38
284.646	23.38
285.44	28.38
286.234	26.38
287.029	23.38
287.823	22.38
288.617	26.38
289.411	23.38
290.205	26.38
290.999	22.38
291.793	24.38
292.587	23.38
293.381	23.38
294.174	22.38
294.968	21.38
295.761	21.38
296.555	21.38
297.348	21.38
298.141	20.38
298.935	22.38
299.728	20.38
300.521	20.38
301.314	18.38
302.107	18.38
302.899	15.38
303.692	18.38
304.485	16.38
305.277	15.38
306.07	17.38
306.862	18.38
307.655	15.38
308.447	14.38
309.239	14.38
310.031	19.38
310.823	14.38
311.615	13.38
312.407	11.38
313.199	11.38
313.991	12.38
314.783	11.38
315.574	14.38
316.366	13.38
317.157	10.38
317.949	10.38
318.74	13.38
319.531	11.38
320.322	11.38
321.113	11.38
321.904	10.38
322.695	11.38
323.486	9.38
324.277	11.38
325.068	12.38
325.858	11.38
326.649	10.38
327.439	7.38
328.23	10.38
329.02	8.38
329.81	7.38
330.6	10.38
331.391	8.38
332.181	8.38
332.971	8.38
333.76	8.38
334.55	10.38
335.34	9.38
336.13	7.38
336.919	8.38
337.709	9.38
338.498	10.38
339.287	10.38
340.077	8.38
340.866	7.38
341.655	8.38
342.444	8.38
343.233	9.38
344.022	6.38
344.811	9.38
345.6	8.38
346.388	7.38
347.177	9.38
347.965	10.38
348.754	8.38
349.542	8.38
350.33	10.38
351.119	8.38
351.907	8.38
352.695	9.38
353.483	8.38
354.271	8.38
355.059	5.38
355.846	7.38
356.634	8.38
357.422	6.38
358.209	4.38
358.997	8.38
359.784	4.38
360.571	6.38
361.359	7.38
362.146	7.38
362.933	6.38
363.72	8.38
364.507	6.38
365.294	6.38
366.081	9.38
366.867	4.38
367.654	6.38
368.44	7.38
369.227	8.38
370.013	7.38
370.8	7.38
371.586	7.38
372.372	6.38
373.158	7.38
373.944	7.38
374.73	6.38
375.516	6.38
376.302	6.38
377.088	9.38
377.873	7.38
378.659	3.38
379.445	7.38
380.23	8.38
381.015	6.38
381.801	7.38
382.586	9.38
383.371	9.38
384.156	8.38
384.941	9.38
385.726	6.38
386.511	8.38
387.296	8.38
388.08	7.38
388.865	7.38
389.649	6.38
390.434	8.38
391.218	6.38
392.003	8.38
392.787	6.38
393.571	8.38
394.355	10.38
395.139	8.38
395.923	8.38
396.707	8.38
397.491	9.38
398.274	7.38
399.058	9.38
399.842	10.38
400.625	7.38
401.408	10.38
402.192	8.38
402.975	9.38
403.758	11.38
404.541	7.38
405.324	13.38
406.107	10.38
406.89	10.38
407.673	9.38
408.456	11.38
409.238	12.38
410.021	10.38
410.803	10.38
411.586	11.38
412.368	12.38
413.151	10.38
413.933	10.38
414.715	14.38
415.497	12.38
416.279	14.38
417.061	12.38
417.843	12.38
418.624	14.38
419.406	14.38
420.188	13.38
420.969	14.38
421.751	16.38
422.532	18.38
423.313	15.38
424.095	14.38
424.876	16.38
425.657	17.38
426.438	17.38
427.219	18.38
428	18.38
428.78	18.38
429.561	20.38
430.342	19.38
431.122	20.38
431.903	22.38
432.683	20.38
433.464	23.38
434.244	24.38
435.024	25.38
435.804	29.38
436.584	26.38
437.364	27.38
438.144	29.38
438.924	32.38
439.704	33.38
440.483	35.38
441.263	36.38
442.042	38.38
442.822	40.38
443.601	41.38
444.38	44.38
445.16	49.38
445.939	52.38
446.718	56.38
447.497	58.38
448.276	66.38
449.054	70.38
449.833	75.38
450.612	80.38
451.391	93.38
452.169	101.38
452.948	110.38
453.726	124.38
454.504	135.38
455.282	147.38
456.061	164.38
456.839	183.38
457.617	203.38
458.395	227.38
459.172	246.38
459.95	280.38
460.728	314.38
461.506	348.38
462.283	389.38
463.061	430.38
463.838	487.38
464.615	542.38
465.393	606.38
466.17	676.38
466.947	756.38
467.724	842.38
468.501	930.38
469.278	1035.38
470.055	1151.38
470.831	1279.38
471.608	1435.38
472.385	1581.38
473.161	1759.38
473.938	1933.38
474.714	2156.38
475.49	2371.38
476.266	2627.38
477.043	2879.38
477.819	3198.38
478.595	3519.38
479.371	3892.38
480.146	4308.38
480.922	4709.38
481.698	5157.38
482.473	5666.38
483.249	6184.38
484.024	6850.38
484.8	7548.38
485.575	8169.38
486.35	8929.38
487.126	9781.38
487.901	10683.38
488.676	11704.38
489.451	12762.38
490.225	13851.38
491	15022.38
491.775	16274.38
492.55	17527.38
493.324	18979.38
494.099	20348.38
494.873	21726.38
495.647	23232.38
496.422	24692.38
497.196	26223.38
497.97	27745.38
498.744	29187.38
499.518	30518.38
500.292	31749.38
501.066	32785.38
501.839	34030.38
502.613	34872.38
503.387	35527.38
504.16	36021.38
504.934	36199.38
505.707	36178.38
506.48	36011.38
507.253	35643.38
508.027	35198.38
508.8	34514.38
509.573	33656.38
510.346	32810.38
511.118	31763.38
511.891	30750.38
512.664	29533.38
513.437	28396.38
514.209	27114.38
514.982	26225.38
515.754	25065.38
516.526	23915.38
517.298	22952.38
518.071	21911.38
518.843	21040.38
519.615	20173.38
520.387	19358.38
521.159	18633.38
521.93	17886.38
522.702	17223.38
523.474	16552.38
524.245	15809.38
525.017	15103.38
525.788	14438.38
526.56	13774.38
527.331	13154.38
528.102	12539.38
528.873	11916.38
529.644	11341.38
530.415	10828.38
531.186	10248.38
531.957	9705.38
532.728	9206.38
533.498	8678.38
534.269	8193.38
535.039	7806.38
535.81	7310.38
536.58	6938.38
537.351	6494.38
538.121	6178.38
538.891	5843.38
539.661	5549.38
540.431	5256.38
541.201	4975.38
541.971	4711.38
542.741	4458.38
543.51	4240.38
544.28	4015.38
545.05	3822.38
545.819	3649.38
546.588	3475.38
547.358	3293.38
548.127	3115.38
548.896	2938.38
549.665	2790.38
550.434	2664.38
551.203	2510.38
551.972	2374.38
552.741	2258.38
553.51	2132.38
554.278	2008.38
555.047	1900.38
555.815	1801.38
556.584	1676.38
557.352	1597.38
558.121	1507.38
558.889	1415.38
559.657	1349.38
560.425	1271.38
561.193	1198.38
561.961	1127.38
562.729	1082.38
563.496	1014.38
564.264	970.38
565.032	908.38
565.799	856.38
566.567	821.38
567.334	773.38
568.101	725.38
568.869	685.38
569.636	644.38
570.403	605.38
571.17	578.38
571.937	543.38
572.704	518.38
573.471	481.38
574.237	462.38
575.004	430.38
575.771	406.38
576.537	379.38
577.303	362.38
578.07	345.38
578.836	321.38
579.602	302.38
580.368	286.38
581.134	266.38
581.9	256.38
582.666	247.38
583.432	231.38
584.198	215.38
584.964	209.38
585.729	199.38
586.495	187.38
587.26	179.38
588.025	172.38
588.791	163.38
589.556	151.38
590.321	147.38
591.086	136.38
591.851	126.38
592.616	124.38
593.381	119.38
594.146	113.38
594.911	106.38
595.675	100.38
596.44	95.38
597.204	92.38
597.969	88.38
598.733	88.38
599.497	77.38
600.261	72.38
601.025	70.38
601.79	69.38
602.553	68.38
603.317	66.38
604.081	63.38
604.845	61.38
605.609	60.38
606.372	55.38
607.136	54.38
607.899	50.38
608.662	44.38
609.426	46.38
610.189	47.38
610.952	41.38
611.715	43.38
612.478	40.38
613.241	39.38
614.004	38.38
614.767	37.38
615.529	38.38
616.292	33.38
617.055	31.38
617.817	30.38
618.579	29.38
619.342	28.38
620.104	25.38
620.866	28.38
621.628	25.38
622.39	24.38
623.152	25.38
623.914	25.38
624.676	23.38
625.438	22.38
626.199	21.38
626.961	21.38
627.722	19.38
628.484	21.38
629.245	16.38
630.006	18.38
630.768	18.38
631.529	17.38
632.29	17.38
633.051	16.38
633.812	18.38
634.573	15.38
635.333	14.38
636.094	13.38
636.855	16.38
637.615	14.38
638.376	14.38
639.136	13.38
639.896	11.38
640.657	13.38
641.417	12.38
642.177	12.38
642.937	11.38
643.697	12.38
644.457	11.38
645.216	10.38
645.976	13.38
646.736	11.38
647.495	11.38
648.255	10.38
649.014	10.38
649.774	10.38
650.533	9.38
651.292	8.38
652.051	11.38
652.81	8.38
653.569	8.38
654.328	9.38
655.087	8.38
655.846	9.38
656.604	8.38
657.363	8.38
658.121	8.38
658.88	9.38
659.638	8.38
660.397	12.38
661.155	5.38
661.913	6.38
662.671	10.38
663.429	4.38
664.187	8.38
664.945	7.38
665.703	7.38
666.46	9.38
667.218	6.38
667.976	8.38
668.733	8.38
669.49	7.38
670.248	5.38
671.005	5.38
671.762	6.38
672.519	4.38
673.276	4.38
674.033	6.38
674.79	8.38
675.547	8.38
676.304	6.38
677.06	6.38
677.817	7.38
678.574	6.38
679.33	4.38
680.086	7.38
680.843	5.38
681.599	4.38
682.355	7.38
683.111	6.38
683.867	7.38
684.623	5.38
685.379	6.38
686.135	6.38
686.89	4.38
687.646	6.38
688.402	5.38
689.157	5.38
689.912	7.38
690.668	2.38
691.423	7.38
692.178	6.38
692.933	5.38
693.688	2.38
694.443	6.38
695.198	5.38
695.953	7.38
696.708	8.38
697.462	4.38
698.217	1.38
698.972	4.38
699.726	3.38
700.48	5.38
701.235	4.38
701.989	2.38
702.743	4.38
703.497	4.38
704.251	7.38
705.005	4.38
705.759	4.38
706.513	4.38
707.266	5.38
708.02	6.38
708.774	6.38
709.527	5.38
710.28	5.38
711.034	7.38
711.787	5.38
712.54	5.38
713.293	5.38
714.046	3.38
714.799	6.38
715.552	5.38
716.305	7.38
717.058	6.38
717.81	3.38
718.563	7.38
719.315	6.38
720.068	5.38
720.82	6.38
721.573	6.38
722.325	4.38
723.077	4.38
723.829	6.38
724.581	6.38
725.333	5.38
726.085	6.38
726.836	7.38
727.588	6.38
728.34	4.38
729.091	6.38
729.843	5.38
730.594	7.38
731.346	4.38
732.097	7.38
732.848	4.38
733.599	6.38
734.35	6.38
735.101	5.38
735.852	6.38
736.603	6.38
737.354	7.38
738.104	7.38
738.855	5.38
739.605	5.38
740.356	6.38
741.106	7.38
741.856	9.38
742.607	8.38
743.357	4.38
744.107	4.38
744.857	5.38
745.607	6.38
746.357	4.38
747.106	8.38
747.856	4.38
748.606	8.38
749.355	8.38
750.105	6.38
750.854	8.38
751.603	10.38
752.353	8.38
753.102	8.38
753.851	5.38
754.6	4.38
755.349	8.38
756.098	8.38
756.847	8.38
757.595	10.38
758.344	9.38
759.093	4.38
759.841	9.38
760.589	10.38
761.338	6.38
762.086	9.38
762.834	7.38
763.582	10.38
764.331	9.38
765.079	10.38
765.826	8.38
766.574	11.38
767.322	11.38
768.07	8.38
768.817	12.38
769.565	9.38
770.312	10.38
771.06	11.38
771.807	9.38
772.554	11.38
773.302	10.38
774.049	12.38
774.796	11.38
775.543	12.38
776.29	12.38
777.036	10.38
777.783	14.38
778.53	12.38
779.276	12.38
780.023	11.38
780.769	10.38
781.516	11.38
782.262	13.38
783.008	14.38
783.754	14.38
784.5	13.38
785.246	14.38
785.992	10.38
786.738	13.38
787.484	11.38
788.23	10.38
788.975	13.38
789.721	11.38
790.466	13.38
791.212	10.38
791.957	11.38
792.702	11.38
793.447	12.38
794.193	11.38
794.938	9.38
795.683	8.38
796.427	12.38
797.172	8.38
797.917	9.38
798.662	10.38
799.406	11.38
800.151	9.38
800.895	7.38
801.64	8.38
802.384	7.38
803.128	11.38
803.872	7.38
804.616	10.38
805.36	9.38
806.104	9.38
806.848	7.38
807.592	6.38
808.336	5.38
809.079	6.38
809.823	8.38
810.566	8.38
811.31	8.38
812.053	7.38
812.796	7.38
813.539	7.38
814.283	10.38
815.026	6.38
815.769	5.38
816.511	7.38
817.254	7.38
817.997	6.38
818.74	5.38
819.482	4.38
820.225	4.38
820.967	6.38
821.71	4.38
822.452	6.38
823.194	4.38
823.936	5.38
824.678	6.38
825.42	5.38
826.162	7.38
826.904	2.38
827.646	6.38
828.388	4.38
829.129	2.38
829.871	5.38
830.612	5.38
831.354	5.38
832.095	4.38
832.836	1.38
833.577	6.38
834.319	3.38
835.06	4.38
835.801	2.38
836.542	3.38
837.282	6.38
838.023	4.38
838.764	4.38
839.504	4.38
840.245	7.38
840.985	3.38
841.726	6.38
842.466	6.38
843.206	4.38
843.946	5.38
844.687	4.38
845.427	4.38
846.166	3.38
846.906	6.38
847.646	5.38
848.386	4.38
849.125	4.38
849.865	1.38
850.605	4.38
851.344	3.38
852.083	4.38
852.823	4.38
853.562	2.38
854.301	2.38
855.04	4.38
855.779	2.38
856.518	2.38
857.257	3.38
857.995	3.38
858.734	2.38
859.473	3.38
860.211	2.38
860.95	3.38
861.688	2.38
862.426	2.38
863.165	3.38
863.903	2.38
864.641	3.38
865.379	1.38
866.117	3.38
866.855	4.38
867.593	1.38
868.33	2.38
869.068	0.38
869.806	3.38
870.543	2.38
871.28	0.38
872.018	2.38
872.755	2.38
873.492	0.38
874.229	1.38
874.967	3.38
875.703	3.38
876.44	3.38
877.177	2.38
877.914	2.38
878.651	0.38
879.387	0.38
880.124	2.38
880.86	2.38
881.597	2.38
882.333	3.38
883.069	1.38
883.806	3.38
884.542	3.38
885.278	-1.62
886.014	3.38
886.749	0.38
887.485	0.38
888.221	1.38
888.957	1.38
889.692	1.38
890.428	0.38
891.163	2.38
891.899	1.38
892.634	0.38
893.369	0.38
894.104	0.38
894.839	3.38
895.574	0.38
896.309	1.38
897.044	1.38
897.779	0.38
898.514	-1.62
899.248	0.38
899.983	1.38
900.717	1.38
901.452	0.38
902.186	0.38
902.92	1.38
903.654	2.38
904.389	0.38
905.123	0.38
905.857	1.38
906.59	1.38
907.324	2.38
908.058	1.38
908.792	1.38
909.525	1.38
910.259	1.38
910.992	3.38
911.726	0.38
912.459	1.38
913.192	-1.62
913.925	-0.62
914.658	1.38
915.391	1.38
916.124	0.38
916.857	-0.62
917.59	2.38
918.323	2.38
919.055	2.38
919.788	1.38
920.521	0.38
921.253	2.38
921.985	1.38
922.718	0.38
923.45	1.38
924.182	-0.62
924.914	1.38
925.646	1.38
926.378	0.38
927.11	-1.62
927.841	2.38
928.573	1.38
929.305	1.38
930.036	2.38
930.768	0.38
931.499	-0.62
932.23	0.38
932.962	-0.62
933.693	-1.62
934.424	0.38
935.155	-0.62
935.886	-0.62
936.617	0.38
937.348	1.38
938.078	0.38
938.809	0.38
939.54	-0.62
940.27	0.38
941.001	-0.62
941.731	1.38
942.461	-0.62
943.191	2.38
943.922	-1.62
944.652	-2.62
945.382	2.38
946.112	1.38
946.841	2.38
947.571	0.38
948.301	-1.62
949.031	1.38
949.76	0.38
950.49	-0.62
951.219	-0.62
951.948	-0.62
952.678	0.38
953.407	0.38
954.136	-0.62
954.865	-1.62
955.594	1.38
956.323	1.38
957.052	-1.62
957.78	0.38
958.509	2.38
959.238	-0.62
959.966	0.38
960.695	1.38
961.423	0.38
962.151	0.38
962.88	0.38
963.608	0.38
964.336	0.38
965.064	0.38
965.792	0.38
966.52	0.38
967.247	2.38
967.975	2.38
968.703	0.38
969.43	0.38
970.158	-0.62
970.885	1.38
971.613	0.38
972.34	1.38
973.067	-0.62
973.794	-1.62
974.521	-0.62
975.248	0.38
975.975	-0.62
976.702	-1.62
977.429	1.38
978.156	1.38
978.882	1.38
979.609	-1.62
980.335	2.38
981.062	-0.62
981.788	1.38
982.514	1.38
983.24	-3.62
983.967	1.38
984.693	0.38
985.419	0.38
986.144	1.38
986.87	1.38
987.596	1.38
988.322	0.38
989.047	0.38
989.773	1.38
990.498	1.38
991.224	1.38
991.949	-1.62
992.674	1.38
993.399	0.38
994.124	-0.62
994.849	0.38
995.574	0.38
996.299	2.38
997.024	-1.62
997.749	-0.62
998.473	-1.62
999.198	-0.62
999.922	-0.62
1000.647	1.38
1001.371	5.38
1002.095	0.38
1002.82	-0.62
1003.544	0.38
1004.268	2.38
1004.992	2.38
1005.716	2.38
1006.439	5.38
1007.163	4.38
1007.887	4.38
1008.611	1.38
1009.334	-0.62
1010.058	-0.62
1010.781	1.38
1011.504	0.38
1012.228	-1.62
1012.951	-2.62
1013.674	-0.62
1014.397	-0.62
1015.12	-1.62
