节点500_425_QEPB04081__381__15-54-38-743.txt的数据

Date: Wed Nov 12 15:54:38 CST 2025
User: PC
Spectrometer: QEPB0408
触发模式: 0
积分时间 (秒): 1.000000E-2
Scans to average: 1
启用暗噪声校正: true
启用非线性校正: false
滑动平均宽度: 0
X轴模式: Wavelengths
Number of Pixels in Spectrum: 1044
>>>>>Begin Spectral Data<<<<<
220.843	5.5
221.644	2.5
222.444	4.5
223.244	2.5
224.045	3.5
224.845	3.5
225.645	4.5
226.445	3.5
227.245	2.5
228.045	4.5
228.845	4.5
229.645	5.5
230.444	6.5
231.244	4.5
232.043	5.5
232.843	3.5
233.642	4.5
234.442	4.5
235.241	5.5
236.04	6.5
236.839	6.5
237.638	6.5
238.437	6.5
239.236	8.5
240.035	8.5
240.833	6.5
241.632	6.5
242.43	6.5
243.229	5.5
244.027	7.5
244.826	7.5
245.624	8.5
246.422	9.5
247.22	8.5
248.018	10.5
248.816	7.5
249.614	9.5
250.412	7.5
251.21	8.5
252.007	10.5
252.805	11.5
253.602	10.5
254.4	8.5
255.197	12.5
255.994	11.5
256.791	10.5
257.589	11.5
258.386	14.5
259.183	12.5
259.979	14.5
260.776	17.5
261.573	13.5
262.37	16.5
263.166	12.5
263.963	16.5
264.759	16.5
265.556	16.5
266.352	17.5
267.148	16.5
267.944	19.5
268.74	18.5
269.536	19.5
270.332	20.5
271.128	17.5
271.924	20.5
272.719	21.5
273.515	22.5
274.311	21.5
275.106	23.5
275.901	22.5
276.697	22.5
277.492	23.5
278.287	19.5
279.082	24.5
279.877	24.5
280.672	25.5
281.467	25.5
282.262	26.5
283.056	23.5
283.851	24.5
284.646	21.5
285.44	26.5
286.234	22.5
287.029	22.5
287.823	25.5
288.617	26.5
289.411	23.5
290.205	20.5
290.999	23.5
291.793	22.5
292.587	22.5
293.381	22.5
294.174	20.5
294.968	21.5
295.761	19.5
296.555	22.5
297.348	17.5
298.141	20.5
298.935	20.5
299.728	18.5
300.521	20.5
301.314	18.5
302.107	20.5
302.899	17.5
303.692	15.5
304.485	19.5
305.277	16.5
306.07	17.5
306.862	16.5
307.655	16.5
308.447	16.5
309.239	14.5
310.031	15.5
310.823	13.5
311.615	12.5
312.407	13.5
313.199	11.5
313.991	13.5
314.783	9.5
315.574	11.5
316.366	10.5
317.157	13.5
317.949	9.5
318.74	11.5
319.531	10.5
320.322	10.5
321.113	11.5
321.904	9.5
322.695	9.5
323.486	9.5
324.277	7.5
325.068	9.5
325.858	11.5
326.649	10.5
327.439	8.5
328.23	8.5
329.02	11.5
329.81	8.5
330.6	9.5
331.391	6.5
332.181	8.5
332.971	9.5
333.76	8.5
334.55	8.5
335.34	9.5
336.13	8.5
336.919	7.5
337.709	8.5
338.498	9.5
339.287	6.5
340.077	11.5
340.866	9.5
341.655	8.5
342.444	9.5
343.233	7.5
344.022	9.5
344.811	8.5
345.6	5.5
346.388	8.5
347.177	7.5
347.965	9.5
348.754	7.5
349.542	8.5
350.33	5.5
351.119	5.5
351.907	6.5
352.695	7.5
353.483	9.5
354.271	7.5
355.059	7.5
355.846	9.5
356.634	8.5
357.422	10.5
358.209	4.5
358.997	4.5
359.784	5.5
360.571	5.5
361.359	8.5
362.146	8.5
362.933	7.5
363.72	7.5
364.507	7.5
365.294	7.5
366.081	5.5
366.867	7.5
367.654	6.5
368.44	6.5
369.227	4.5
370.013	7.5
370.8	9.5
371.586	6.5
372.372	6.5
373.158	8.5
373.944	5.5
374.73	6.5
375.516	6.5
376.302	5.5
377.088	6.5
377.873	8.5
378.659	5.5
379.445	7.5
380.23	6.5
381.015	5.5
381.801	6.5
382.586	5.5
383.371	7.5
384.156	8.5
384.941	8.5
385.726	7.5
386.511	6.5
387.296	10.5
388.08	6.5
388.865	9.5
389.649	6.5
390.434	5.5
391.218	7.5
392.003	9.5
392.787	8.5
393.571	6.5
394.355	7.5
395.139	8.5
395.923	7.5
396.707	10.5
397.491	8.5
398.274	7.5
399.058	7.5
399.842	9.5
400.625	10.5
401.408	10.5
402.192	9.5
402.975	8.5
403.758	8.5
404.541	8.5
405.324	10.5
406.107	12.5
406.89	11.5
407.673	9.5
408.456	9.5
409.238	8.5
410.021	11.5
410.803	9.5
411.586	11.5
412.368	12.5
413.151	10.5
413.933	11.5
414.715	12.5
415.497	10.5
416.279	13.5
417.061	14.5
417.843	15.5
418.624	14.5
419.406	14.5
420.188	11.5
420.969	15.5
421.751	13.5
422.532	14.5
423.313	14.5
424.095	14.5
424.876	14.5
425.657	15.5
426.438	16.5
427.219	18.5
428	18.5
428.78	17.5
429.561	19.5
430.342	19.5
431.122	19.5
431.903	21.5
432.683	19.5
433.464	21.5
434.244	23.5
435.024	22.5
435.804	27.5
436.584	29.5
437.364	30.5
438.144	31.5
438.924	32.5
439.704	34.5
440.483	33.5
441.263	34.5
442.042	39.5
442.822	40.5
443.601	43.5
444.38	45.5
445.16	50.5
445.939	52.5
446.718	54.5
447.497	63.5
448.276	66.5
449.054	77.5
449.833	80.5
450.612	83.5
451.391	95.5
452.169	106.5
452.948	113.5
453.726	124.5
454.504	143.5
455.282	154.5
456.061	171.5
456.839	190.5
457.617	212.5
458.395	238.5
459.172	272.5
459.95	291.5
460.728	327.5
461.506	373.5
462.283	407.5
463.061	458.5
463.838	512.5
464.615	576.5
465.393	628.5
466.17	702.5
466.947	778.5
467.724	865.5
468.501	979.5
469.278	1067.5
470.055	1182.5
470.831	1304.5
471.608	1462.5
472.385	1597.5
473.161	1773.5
473.938	1958.5
474.714	2159.5
475.49	2377.5
476.266	2590.5
477.043	2863.5
477.819	3137.5
478.595	3470.5
479.371	3809.5
480.146	4168.5
480.922	4561.5
481.698	4986.5
482.473	5461.5
483.249	6008.5
484.024	6561.5
484.8	7138.5
485.575	7784.5
486.35	8459.5
487.126	9203.5
487.901	10025.5
488.676	10908.5
489.451	11781.5
490.225	12860.5
491	13940.5
491.775	15059.5
492.55	16206.5
493.324	17478.5
494.099	18678.5
494.873	19899.5
495.647	21299.5
496.422	22607.5
497.196	24010.5
497.97	25461.5
498.744	26852.5
499.518	28210.5
500.292	29374.5
501.066	30511.5
501.839	31685.5
502.613	32522.5
503.387	33276.5
504.16	33902.5
504.934	34238.5
505.707	34431.5
506.48	34387.5
507.253	34199.5
508.027	33908.5
508.8	33452.5
509.573	32862.5
510.346	32111.5
511.118	31210.5
511.891	30343.5
512.664	29233.5
513.437	28213.5
514.209	27108.5
514.982	26160.5
515.754	25148.5
516.526	24112.5
517.298	23017.5
518.071	22126.5
518.843	21221.5
519.615	20367.5
520.387	19505.5
521.159	18776.5
521.93	18102.5
522.702	17386.5
523.474	16712.5
524.245	16014.5
525.017	15281.5
525.788	14637.5
526.56	14025.5
527.331	13338.5
528.102	12727.5
528.873	12161.5
529.644	11585.5
530.415	11022.5
531.186	10525.5
531.957	9956.5
532.728	9463.5
533.498	8920.5
534.269	8470.5
535.039	8042.5
535.81	7592.5
536.58	7156.5
537.351	6750.5
538.121	6357.5
538.891	6045.5
539.661	5721.5
540.431	5419.5
541.201	5158.5
541.971	4865.5
542.741	4625.5
543.51	4385.5
544.28	4174.5
545.05	3953.5
545.819	3776.5
546.588	3589.5
547.358	3380.5
548.127	3222.5
548.896	3084.5
549.665	2912.5
550.434	2751.5
551.203	2633.5
551.972	2469.5
552.741	2330.5
553.51	2207.5
554.278	2109.5
555.047	1972.5
555.815	1878.5
556.584	1758.5
557.352	1660.5
558.121	1579.5
558.889	1481.5
559.657	1401.5
560.425	1320.5
561.193	1269.5
561.961	1184.5
562.729	1127.5
563.496	1072.5
564.264	999.5
565.032	947.5
565.799	906.5
566.567	850.5
567.334	818.5
568.101	759.5
568.869	712.5
569.636	678.5
570.403	632.5
571.17	617.5
571.937	561.5
572.704	528.5
573.471	509.5
574.237	488.5
575.004	452.5
575.771	420.5
576.537	400.5
577.303	379.5
578.07	353.5
578.836	336.5
579.602	318.5
580.368	295.5
581.134	278.5
581.9	271.5
582.666	263.5
583.432	246.5
584.198	229.5
584.964	223.5
585.729	202.5
586.495	196.5
587.26	185.5
588.025	176.5
588.791	163.5
589.556	164.5
590.321	152.5
591.086	141.5
591.851	138.5
592.616	129.5
593.381	120.5
594.146	117.5
594.911	110.5
595.675	103.5
596.44	101.5
597.204	97.5
597.969	96.5
598.733	89.5
599.497	87.5
600.261	81.5
601.025	80.5
601.79	78.5
602.553	71.5
603.317	63.5
604.081	64.5
604.845	65.5
605.609	59.5
606.372	56.5
607.136	55.5
607.899	51.5
608.662	51.5
609.426	50.5
610.189	44.5
610.952	42.5
611.715	42.5
612.478	44.5
613.241	40.5
614.004	39.5
614.767	34.5
615.529	34.5
616.292	34.5
617.055	35.5
617.817	30.5
618.579	30.5
619.342	30.5
620.104	31.5
620.866	29.5
621.628	28.5
622.39	26.5
623.152	26.5
623.914	24.5
624.676	24.5
625.438	22.5
626.199	23.5
626.961	21.5
627.722	20.5
628.484	21.5
629.245	18.5
630.006	21.5
630.768	20.5
631.529	18.5
632.29	20.5
633.051	17.5
633.812	17.5
634.573	17.5
635.333	15.5
636.094	14.5
636.855	12.5
637.615	17.5
638.376	10.5
639.136	14.5
639.896	12.5
640.657	14.5
641.417	14.5
642.177	14.5
642.937	13.5
643.697	12.5
644.457	11.5
645.216	10.5
645.976	11.5
646.736	10.5
647.495	8.5
648.255	11.5
649.014	11.5
649.774	10.5
650.533	8.5
651.292	8.5
652.051	9.5
652.81	10.5
653.569	7.5
654.328	9.5
655.087	8.5
655.846	9.5
656.604	7.5
657.363	10.5
658.121	9.5
658.88	6.5
659.638	8.5
660.397	9.5
661.155	6.5
661.913	5.5
662.671	7.5
663.429	4.5
664.187	7.5
664.945	7.5
665.703	7.5
666.46	5.5
667.218	6.5
667.976	5.5
668.733	8.5
669.49	5.5
670.248	7.5
671.005	6.5
671.762	5.5
672.519	6.5
673.276	6.5
674.033	7.5
674.79	7.5
675.547	5.5
676.304	6.5
677.06	5.5
677.817	8.5
678.574	4.5
679.33	7.5
680.086	6.5
680.843	6.5
681.599	5.5
682.355	5.5
683.111	2.5
683.867	4.5
684.623	7.5
685.379	6.5
686.135	7.5
686.89	1.5
687.646	5.5
688.402	6.5
689.157	6.5
689.912	6.5
690.668	5.5
691.423	5.5
692.178	5.5
692.933	4.5
693.688	5.5
694.443	5.5
695.198	3.5
695.953	8.5
696.708	3.5
697.462	4.5
698.217	6.5
698.972	5.5
699.726	3.5
700.48	5.5
701.235	3.5
701.989	4.5
702.743	4.5
703.497	5.5
704.251	4.5
705.005	6.5
705.759	3.5
706.513	5.5
707.266	6.5
708.02	5.5
708.774	4.5
709.527	6.5
710.28	5.5
711.034	6.5
711.787	4.5
712.54	4.5
713.293	6.5
714.046	4.5
714.799	5.5
715.552	4.5
716.305	5.5
717.058	4.5
717.81	4.5
718.563	4.5
719.315	7.5
720.068	3.5
720.82	4.5
721.573	7.5
722.325	4.5
723.077	5.5
723.829	6.5
724.581	5.5
725.333	4.5
726.085	3.5
726.836	3.5
727.588	4.5
728.34	4.5
729.091	6.5
729.843	6.5
730.594	3.5
731.346	4.5
732.097	3.5
732.848	4.5
733.599	7.5
734.35	6.5
735.101	6.5
735.852	5.5
736.603	5.5
737.354	8.5
738.104	6.5
738.855	4.5
739.605	4.5
740.356	4.5
741.106	4.5
741.856	4.5
742.607	7.5
743.357	4.5
744.107	6.5
744.857	7.5
745.607	6.5
746.357	6.5
747.106	8.5
747.856	8.5
748.606	5.5
749.355	5.5
750.105	6.5
750.854	6.5
751.603	8.5
752.353	7.5
753.102	7.5
753.851	6.5
754.6	9.5
755.349	10.5
756.098	8.5
756.847	8.5
757.595	8.5
758.344	6.5
759.093	8.5
759.841	7.5
760.589	9.5
761.338	6.5
762.086	9.5
762.834	9.5
763.582	9.5
764.331	6.5
765.079	7.5
765.826	10.5
766.574	9.5
767.322	9.5
768.07	9.5
768.817	7.5
769.565	9.5
770.312	9.5
771.06	9.5
771.807	10.5
772.554	9.5
773.302	8.5
774.049	9.5
774.796	11.5
775.543	13.5
776.29	11.5
777.036	10.5
777.783	10.5
778.53	12.5
779.276	10.5
780.023	11.5
780.769	12.5
781.516	12.5
782.262	10.5
783.008	11.5
783.754	12.5
784.5	11.5
785.246	11.5
785.992	10.5
786.738	10.5
787.484	8.5
788.23	13.5
788.975	12.5
789.721	9.5
790.466	10.5
791.212	10.5
791.957	9.5
792.702	11.5
793.447	10.5
794.193	11.5
794.938	10.5
795.683	12.5
796.427	10.5
797.172	9.5
797.917	10.5
798.662	10.5
799.406	8.5
800.151	11.5
800.895	9.5
801.64	7.5
802.384	9.5
803.128	8.5
803.872	9.5
804.616	7.5
805.36	9.5
806.104	8.5
806.848	7.5
807.592	8.5
808.336	7.5
809.079	6.5
809.823	8.5
810.566	8.5
811.31	5.5
812.053	9.5
812.796	7.5
813.539	8.5
814.283	6.5
815.026	5.5
815.769	6.5
816.511	5.5
817.254	8.5
817.997	5.5
818.74	7.5
819.482	4.5
820.225	5.5
820.967	7.5
821.71	6.5
822.452	5.5
823.194	6.5
823.936	5.5
824.678	5.5
825.42	6.5
826.162	8.5
826.904	2.5
827.646	6.5
828.388	4.5
829.129	4.5
829.871	5.5
830.612	4.5
831.354	5.5
832.095	5.5
832.836	3.5
833.577	5.5
834.319	4.5
835.06	5.5
835.801	3.5
836.542	4.5
837.282	2.5
838.023	5.5
838.764	3.5
839.504	4.5
840.245	3.5
840.985	2.5
841.726	3.5
842.466	6.5
843.206	3.5
843.946	6.5
844.687	4.5
845.427	4.5
846.166	3.5
846.906	2.5
847.646	3.5
848.386	4.5
849.125	6.5
849.865	4.5
850.605	3.5
851.344	3.5
852.083	3.5
852.823	3.5
853.562	3.5
854.301	3.5
855.04	4.5
855.779	0.5
856.518	3.5
857.257	1.5
857.995	5.5
858.734	2.5
859.473	2.5
860.211	6.5
860.95	2.5
861.688	4.5
862.426	2.5
863.165	2.5
863.903	2.5
864.641	2.5
865.379	2.5
866.117	0.5
866.855	0.5
867.593	2.5
868.33	1.5
869.068	2.5
869.806	3.5
870.543	1.5
871.28	1.5
872.018	2.5
872.755	2.5
873.492	2.5
874.229	1.5
874.967	2.5
875.703	2.5
876.44	1.5
877.177	1.5
877.914	2.5
878.651	0.5
879.387	0.5
880.124	2.5
880.86	3.5
881.597	1.5
882.333	1.5
883.069	-0.5
883.806	0.5
884.542	1.5
885.278	1.5
886.014	1.5
886.749	1.5
887.485	-0.5
888.221	2.5
888.957	1.5
889.692	0.5
890.428	1.5
891.163	1.5
891.899	0.5
892.634	-0.5
893.369	2.5
894.104	1.5
894.839	1.5
895.574	2.5
896.309	1.5
897.044	0.5
897.779	0.5
898.514	1.5
899.248	2.5
899.983	1.5
900.717	1.5
901.452	1.5
902.186	2.5
902.92	-0.5
903.654	0.5
904.389	1.5
905.123	-1.5
905.857	0.5
906.59	1.5
907.324	0.5
908.058	0.5
908.792	1.5
909.525	0.5
910.259	0.5
910.992	0.5
911.726	0.5
912.459	0.5
913.192	-1.5
913.925	-0.5
914.658	1.5
915.391	-3.5
916.124	1.5
916.857	0.5
917.59	0.5
918.323	-1.5
919.055	0.5
919.788	-0.5
920.521	-1.5
921.253	0.5
921.985	2.5
922.718	-1.5
923.45	-0.5
924.182	-0.5
924.914	-0.5
925.646	0.5
926.378	1.5
927.11	0.5
927.841	-0.5
928.573	0.5
929.305	0.5
930.036	2.5
930.768	1.5
931.499	1.5
932.23	2.5
932.962	1.5
933.693	0.5
934.424	-0.5
935.155	-2.5
935.886	0.5
936.617	3.5
937.348	1.5
938.078	-0.5
938.809	1.5
939.54	1.5
940.27	0.5
941.001	0.5
941.731	-0.5
942.461	0.5
943.191	-0.5
943.922	-0.5
944.652	2.5
945.382	-1.5
946.112	0.5
946.841	1.5
947.571	0.5
948.301	1.5
949.031	0.5
949.76	-0.5
950.49	0.5
951.219	0.5
951.948	1.5
952.678	0.5
953.407	0.5
954.136	-1.5
954.865	0.5
955.594	1.5
956.323	2.5
957.052	0.5
957.78	-1.5
958.509	1.5
959.238	-3.5
959.966	0.5
960.695	0.5
961.423	-0.5
962.151	1.5
962.88	-0.5
963.608	-0.5
964.336	0.5
965.064	-0.5
965.792	1.5
966.52	0.5
967.247	1.5
967.975	-0.5
968.703	0.5
969.43	4.5
970.158	0.5
970.885	-1.5
971.613	2.5
972.34	-1.5
973.067	-0.5
973.794	0.5
974.521	-0.5
975.248	0.5
975.975	0.5
976.702	0.5
977.429	-1.5
978.156	0.5
978.882	0.5
979.609	0.5
980.335	-0.5
981.062	-0.5
981.788	1.5
982.514	0.5
983.24	0.5
983.967	-1.5
984.693	2.5
985.419	0.5
986.144	-0.5
986.87	1.5
987.596	0.5
988.322	0.5
989.047	0.5
989.773	-0.5
990.498	2.5
991.224	1.5
991.949	0.5
992.674	-0.5
993.399	1.5
994.124	1.5
994.849	1.5
995.574	-1.5
996.299	-0.5
997.024	2.5
997.749	-0.5
998.473	0.5
999.198	1.5
999.922	1.5
1000.647	3.5
1001.371	3.5
1002.095	-1.5
1002.82	-2.5
1003.544	-1.5
1004.268	2.5
1004.992	3.5
1005.716	2.5
1006.439	2.5
1007.163	0.5
1007.887	5.5
1008.611	-0.5
1009.334	1.5
1010.058	-1.5
1010.781	0.5
1011.504	0.5
1012.228	-0.5
1012.951	0.5
1013.674	-0.5
1014.397	-0.5
1015.12	2.5
