节点500_425_QEPB04081__473__15-56-10-582.txt的数据

Date: Wed Nov 12 15:56:10 CST 2025
User: PC
Spectrometer: QEPB0408
触发模式: 0
积分时间 (秒): 1.000000E-2
Scans to average: 1
启用暗噪声校正: true
启用非线性校正: false
滑动平均宽度: 0
X轴模式: Wavelengths
Number of Pixels in Spectrum: 1044
>>>>>Begin Spectral Data<<<<<
220.843	5.75
221.644	0.75
222.444	5.75
223.244	4.75
224.045	6.75
224.845	6.75
225.645	3.75
226.445	6.75
227.245	1.75
228.045	5.75
228.845	6.75
229.645	4.75
230.444	5.75
231.244	3.75
232.043	6.75
232.843	4.75
233.642	5.75
234.442	5.75
235.241	5.75
236.04	8.75
236.839	6.75
237.638	6.75
238.437	8.75
239.236	4.75
240.035	5.75
240.833	6.75
241.632	8.75
242.43	8.75
243.229	6.75
244.027	6.75
244.826	7.75
245.624	7.75
246.422	7.75
247.22	6.75
248.018	9.75
248.816	8.75
249.614	11.75
250.412	8.75
251.21	10.75
252.007	10.75
252.805	10.75
253.602	8.75
254.4	11.75
255.197	9.75
255.994	12.75
256.791	9.75
257.589	12.75
258.386	12.75
259.183	11.75
259.979	13.75
260.776	13.75
261.573	13.75
262.37	12.75
263.166	14.75
263.963	13.75
264.759	14.75
265.556	16.75
266.352	17.75
267.148	18.75
267.944	15.75
268.74	16.75
269.536	18.75
270.332	17.75
271.128	19.75
271.924	19.75
272.719	18.75
273.515	22.75
274.311	22.75
275.106	20.75
275.901	20.75
276.697	21.75
277.492	22.75
278.287	24.75
279.082	21.75
279.877	23.75
280.672	24.75
281.467	22.75
282.262	23.75
283.056	21.75
283.851	26.75
284.646	21.75
285.44	22.75
286.234	26.75
287.029	21.75
287.823	23.75
288.617	20.75
289.411	24.75
290.205	21.75
290.999	22.75
291.793	22.75
292.587	21.75
293.381	23.75
294.174	23.75
294.968	20.75
295.761	20.75
296.555	20.75
297.348	19.75
298.141	19.75
298.935	23.75
299.728	19.75
300.521	19.75
301.314	19.75
302.107	14.75
302.899	14.75
303.692	18.75
304.485	16.75
305.277	15.75
306.07	16.75
306.862	19.75
307.655	14.75
308.447	14.75
309.239	17.75
310.031	18.75
310.823	13.75
311.615	14.75
312.407	11.75
313.199	13.75
313.991	14.75
314.783	13.75
315.574	10.75
316.366	12.75
317.157	12.75
317.949	10.75
318.74	9.75
319.531	9.75
320.322	9.75
321.113	10.75
321.904	7.75
322.695	8.75
323.486	9.75
324.277	10.75
325.068	10.75
325.858	12.75
326.649	8.75
327.439	10.75
328.23	10.75
329.02	9.75
329.81	10.75
330.6	7.75
331.391	7.75
332.181	10.75
332.971	8.75
333.76	6.75
334.55	7.75
335.34	8.75
336.13	12.75
336.919	9.75
337.709	10.75
338.498	10.75
339.287	9.75
340.077	8.75
340.866	7.75
341.655	5.75
342.444	8.75
343.233	8.75
344.022	7.75
344.811	10.75
345.6	9.75
346.388	11.75
347.177	4.75
347.965	6.75
348.754	7.75
349.542	7.75
350.33	6.75
351.119	6.75
351.907	9.75
352.695	8.75
353.483	6.75
354.271	6.75
355.059	8.75
355.846	9.75
356.634	7.75
357.422	6.75
358.209	6.75
358.997	6.75
359.784	5.75
360.571	7.75
361.359	5.75
362.146	5.75
362.933	5.75
363.72	8.75
364.507	4.75
365.294	8.75
366.081	7.75
366.867	7.75
367.654	7.75
368.44	8.75
369.227	4.75
370.013	7.75
370.8	7.75
371.586	8.75
372.372	5.75
373.158	7.75
373.944	5.75
374.73	7.75
375.516	8.75
376.302	6.75
377.088	8.75
377.873	4.75
378.659	7.75
379.445	6.75
380.23	8.75
381.015	7.75
381.801	5.75
382.586	8.75
383.371	6.75
384.156	9.75
384.941	8.75
385.726	7.75
386.511	8.75
387.296	8.75
388.08	8.75
388.865	8.75
389.649	7.75
390.434	7.75
391.218	8.75
392.003	8.75
392.787	8.75
393.571	6.75
394.355	5.75
395.139	8.75
395.923	8.75
396.707	8.75
397.491	10.75
398.274	7.75
399.058	10.75
399.842	7.75
400.625	7.75
401.408	10.75
402.192	7.75
402.975	9.75
403.758	8.75
404.541	10.75
405.324	10.75
406.107	8.75
406.89	10.75
407.673	8.75
408.456	9.75
409.238	11.75
410.021	12.75
410.803	11.75
411.586	10.75
412.368	12.75
413.151	10.75
413.933	13.75
414.715	12.75
415.497	10.75
416.279	15.75
417.061	13.75
417.843	14.75
418.624	13.75
419.406	10.75
420.188	13.75
420.969	13.75
421.751	16.75
422.532	15.75
423.313	19.75
424.095	15.75
424.876	13.75
425.657	15.75
426.438	14.75
427.219	17.75
428	16.75
428.78	16.75
429.561	19.75
430.342	19.75
431.122	19.75
431.903	20.75
432.683	19.75
433.464	24.75
434.244	25.75
435.024	25.75
435.804	25.75
436.584	26.75
437.364	28.75
438.144	29.75
438.924	31.75
439.704	32.75
440.483	34.75
441.263	38.75
442.042	37.75
442.822	40.75
443.601	40.75
444.38	44.75
445.16	56.75
445.939	56.75
446.718	64.75
447.497	60.75
448.276	65.75
449.054	77.75
449.833	81.75
450.612	90.75
451.391	100.75
452.169	109.75
452.948	117.75
453.726	133.75
454.504	144.75
455.282	166.75
456.061	180.75
456.839	199.75
457.617	222.75
458.395	246.75
459.172	275.75
459.95	302.75
460.728	341.75
461.506	379.75
462.283	422.75
463.061	478.75
463.838	521.75
464.615	580.75
465.393	646.75
466.17	712.75
466.947	794.75
467.724	881.75
468.501	981.75
469.278	1094.75
470.055	1202.75
470.831	1319.75
471.608	1470.75
472.385	1620.75
473.161	1770.75
473.938	1971.75
474.714	2162.75
475.49	2379.75
476.266	2606.75
477.043	2857.75
477.819	3155.75
478.595	3455.75
479.371	3770.75
480.146	4132.75
480.922	4498.75
481.698	4950.75
482.473	5352.75
483.249	5838.75
484.024	6366.75
484.8	6969.75
485.575	7592.75
486.35	8231.75
487.126	8952.75
487.901	9721.75
488.676	10570.75
489.451	11419.75
490.225	12350.75
491	13420.75
491.775	14453.75
492.55	15558.75
493.324	16730.75
494.099	17883.75
494.873	19097.75
495.647	20424.75
496.422	21718.75
497.196	22986.75
497.97	24397.75
498.744	25691.75
499.518	27033.75
500.292	28199.75
501.066	29275.75
501.839	30441.75
502.613	31414.75
503.387	32077.75
504.16	32853.75
504.934	33342.75
505.707	33527.75
506.48	33499.75
507.253	33498.75
508.027	33324.75
508.8	32976.75
509.573	32428.75
510.346	31787.75
511.118	30994.75
511.891	30276.75
512.664	29158.75
513.437	28214.75
514.209	27150.75
514.982	26214.75
515.754	25201.75
516.526	24155.75
517.298	23271.75
518.071	22263.75
518.843	21373.75
519.615	20544.75
520.387	19642.75
521.159	18937.75
521.93	18231.75
522.702	17543.75
523.474	16765.75
524.245	16168.75
525.017	15427.75
525.788	14690.75
526.56	14083.75
527.331	13452.75
528.102	12884.75
528.873	12281.75
529.644	11715.75
530.415	11227.75
531.186	10734.75
531.957	10112.75
532.728	9607.75
533.498	9093.75
534.269	8616.75
535.039	8177.75
535.81	7717.75
536.58	7326.75
537.351	6858.75
538.121	6498.75
538.891	6195.75
539.661	5859.75
540.431	5549.75
541.201	5245.75
541.971	4976.75
542.741	4700.75
543.51	4504.75
544.28	4260.75
545.05	4041.75
545.819	3877.75
546.588	3669.75
547.358	3489.75
548.127	3315.75
548.896	3137.75
549.665	2976.75
550.434	2812.75
551.203	2668.75
551.972	2545.75
552.741	2394.75
553.51	2292.75
554.278	2153.75
555.047	2028.75
555.815	1919.75
556.584	1809.75
557.352	1724.75
558.121	1612.75
558.889	1528.75
559.657	1451.75
560.425	1370.75
561.193	1293.75
561.961	1224.75
562.729	1164.75
563.496	1099.75
564.264	1027.75
565.032	988.75
565.799	943.75
566.567	876.75
567.334	821.75
568.101	787.75
568.869	732.75
569.636	685.75
570.403	649.75
571.17	618.75
571.937	592.75
572.704	541.75
573.471	509.75
574.237	492.75
575.004	458.75
575.771	431.75
576.537	416.75
577.303	383.75
578.07	360.75
578.836	349.75
579.602	317.75
580.368	311.75
581.134	294.75
581.9	281.75
582.666	266.75
583.432	256.75
584.198	238.75
584.964	225.75
585.729	215.75
586.495	204.75
587.26	188.75
588.025	190.75
588.791	173.75
589.556	169.75
590.321	160.75
591.086	145.75
591.851	141.75
592.616	127.75
593.381	124.75
594.146	120.75
594.911	113.75
595.675	109.75
596.44	104.75
597.204	101.75
597.969	92.75
598.733	93.75
599.497	87.75
600.261	79.75
601.025	81.75
601.79	73.75
602.553	72.75
603.317	64.75
604.081	63.75
604.845	65.75
605.609	57.75
606.372	59.75
607.136	57.75
607.899	56.75
608.662	52.75
609.426	51.75
610.189	45.75
610.952	43.75
611.715	45.75
612.478	44.75
613.241	39.75
614.004	41.75
614.767	38.75
615.529	34.75
616.292	38.75
617.055	33.75
617.817	34.75
618.579	31.75
619.342	34.75
620.104	26.75
620.866	28.75
621.628	28.75
622.39	31.75
623.152	24.75
623.914	26.75
624.676	20.75
625.438	23.75
626.199	23.75
626.961	17.75
627.722	22.75
628.484	19.75
629.245	23.75
630.006	19.75
630.768	20.75
631.529	20.75
632.29	18.75
633.051	18.75
633.812	15.75
634.573	16.75
635.333	14.75
636.094	15.75
636.855	15.75
637.615	12.75
638.376	17.75
639.136	15.75
639.896	12.75
640.657	12.75
641.417	14.75
642.177	13.75
642.937	10.75
643.697	10.75
644.457	12.75
645.216	11.75
645.976	13.75
646.736	11.75
647.495	10.75
648.255	11.75
649.014	12.75
649.774	8.75
650.533	9.75
651.292	9.75
652.051	8.75
652.81	10.75
653.569	8.75
654.328	6.75
655.087	10.75
655.846	8.75
656.604	5.75
657.363	12.75
658.121	7.75
658.88	8.75
659.638	7.75
660.397	9.75
661.155	8.75
661.913	8.75
662.671	7.75
663.429	6.75
664.187	8.75
664.945	6.75
665.703	7.75
666.46	9.75
667.218	5.75
667.976	7.75
668.733	8.75
669.49	9.75
670.248	7.75
671.005	6.75
671.762	6.75
672.519	5.75
673.276	8.75
674.033	5.75
674.79	9.75
675.547	6.75
676.304	5.75
677.06	4.75
677.817	5.75
678.574	8.75
679.33	5.75
680.086	4.75
680.843	5.75
681.599	4.75
682.355	8.75
683.111	6.75
683.867	5.75
684.623	5.75
685.379	6.75
686.135	5.75
686.89	5.75
687.646	8.75
688.402	4.75
689.157	5.75
689.912	5.75
690.668	3.75
691.423	4.75
692.178	4.75
692.933	4.75
693.688	4.75
694.443	5.75
695.198	5.75
695.953	5.75
696.708	6.75
697.462	4.75
698.217	3.75
698.972	4.75
699.726	5.75
700.48	5.75
701.235	5.75
701.989	6.75
702.743	6.75
703.497	7.75
704.251	5.75
705.005	5.75
705.759	4.75
706.513	5.75
707.266	6.75
708.02	3.75
708.774	5.75
709.527	4.75
710.28	4.75
711.034	4.75
711.787	4.75
712.54	4.75
713.293	1.75
714.046	7.75
714.799	1.75
715.552	3.75
716.305	4.75
717.058	6.75
717.81	2.75
718.563	5.75
719.315	2.75
720.068	3.75
720.82	5.75
721.573	2.75
722.325	4.75
723.077	4.75
723.829	6.75
724.581	4.75
725.333	4.75
726.085	4.75
726.836	6.75
727.588	3.75
728.34	4.75
729.091	5.75
729.843	7.75
730.594	6.75
731.346	4.75
732.097	5.75
732.848	6.75
733.599	6.75
734.35	6.75
735.101	6.75
735.852	5.75
736.603	8.75
737.354	5.75
738.104	6.75
738.855	9.75
739.605	6.75
740.356	5.75
741.106	6.75
741.856	7.75
742.607	5.75
743.357	8.75
744.107	6.75
744.857	6.75
745.607	8.75
746.357	6.75
747.106	6.75
747.856	4.75
748.606	5.75
749.355	7.75
750.105	7.75
750.854	9.75
751.603	6.75
752.353	6.75
753.102	6.75
753.851	6.75
754.6	6.75
755.349	6.75
756.098	7.75
756.847	7.75
757.595	5.75
758.344	9.75
759.093	4.75
759.841	7.75
760.589	9.75
761.338	6.75
762.086	9.75
762.834	8.75
763.582	8.75
764.331	6.75
765.079	7.75
765.826	11.75
766.574	9.75
767.322	10.75
768.07	10.75
768.817	11.75
769.565	7.75
770.312	10.75
771.06	9.75
771.807	8.75
772.554	10.75
773.302	9.75
774.049	8.75
774.796	11.75
775.543	10.75
776.29	11.75
777.036	11.75
777.783	11.75
778.53	11.75
779.276	11.75
780.023	9.75
780.769	11.75
781.516	12.75
782.262	9.75
783.008	11.75
783.754	10.75
784.5	12.75
785.246	11.75
785.992	9.75
786.738	10.75
787.484	9.75
788.23	9.75
788.975	12.75
789.721	10.75
790.466	10.75
791.212	9.75
791.957	9.75
792.702	8.75
793.447	8.75
794.193	10.75
794.938	11.75
795.683	9.75
796.427	10.75
797.172	9.75
797.917	8.75
798.662	8.75
799.406	6.75
800.151	8.75
800.895	10.75
801.64	9.75
802.384	9.75
803.128	10.75
803.872	6.75
804.616	11.75
805.36	7.75
806.104	8.75
806.848	8.75
807.592	7.75
808.336	8.75
809.079	6.75
809.823	6.75
810.566	8.75
811.31	5.75
812.053	7.75
812.796	4.75
813.539	7.75
814.283	8.75
815.026	7.75
815.769	6.75
816.511	4.75
817.254	6.75
817.997	6.75
818.74	4.75
819.482	6.75
820.225	7.75
820.967	5.75
821.71	3.75
822.452	6.75
823.194	3.75
823.936	7.75
824.678	7.75
825.42	4.75
826.162	6.75
826.904	3.75
827.646	5.75
828.388	6.75
829.129	5.75
829.871	4.75
830.612	4.75
831.354	6.75
832.095	4.75
832.836	5.75
833.577	4.75
834.319	3.75
835.06	5.75
835.801	5.75
836.542	5.75
837.282	2.75
838.023	7.75
838.764	3.75
839.504	4.75
840.245	6.75
840.985	3.75
841.726	4.75
842.466	3.75
843.206	5.75
843.946	6.75
844.687	1.75
845.427	3.75
846.166	5.75
846.906	4.75
847.646	4.75
848.386	3.75
849.125	5.75
849.865	1.75
850.605	2.75
851.344	3.75
852.083	3.75
852.823	3.75
853.562	0.75
854.301	4.75
855.04	2.75
855.779	1.75
856.518	1.75
857.257	-0.25
857.995	4.75
858.734	1.75
859.473	1.75
860.211	4.75
860.95	1.75
861.688	2.75
862.426	2.75
863.165	4.75
863.903	4.75
864.641	2.75
865.379	4.75
866.117	2.75
866.855	2.75
867.593	3.75
868.33	2.75
869.068	2.75
869.806	4.75
870.543	2.75
871.28	0.75
872.018	3.75
872.755	1.75
873.492	2.75
874.229	2.75
874.967	2.75
875.703	2.75
876.44	3.75
877.177	2.75
877.914	0.75
878.651	1.75
879.387	2.75
880.124	0.75
880.86	0.75
881.597	0.75
882.333	0.75
883.069	2.75
883.806	1.75
884.542	3.75
885.278	0.75
886.014	0.75
886.749	1.75
887.485	0.75
888.221	0.75
888.957	1.75
889.692	0.75
890.428	3.75
891.163	1.75
891.899	2.75
892.634	0.75
893.369	2.75
894.104	0.75
894.839	0.75
895.574	1.75
896.309	0.75
897.044	1.75
897.779	0.75
898.514	2.75
899.248	1.75
899.983	0.75
900.717	0.75
901.452	1.75
902.186	2.75
902.92	-0.25
903.654	2.75
904.389	1.75
905.123	1.75
905.857	1.75
906.59	-0.25
907.324	0.75
908.058	0.75
908.792	1.75
909.525	0.75
910.259	-0.25
910.992	0.75
911.726	1.75
912.459	0.75
913.192	2.75
913.925	-1.25
914.658	-0.25
915.391	0.75
916.124	1.75
916.857	1.75
917.59	2.75
918.323	0.75
919.055	-1.25
919.788	2.75
920.521	0.75
921.253	0.75
921.985	0.75
922.718	1.75
923.45	0.75
924.182	1.75
924.914	1.75
925.646	0.75
926.378	-0.25
927.11	0.75
927.841	-1.25
928.573	1.75
929.305	0.75
930.036	2.75
930.768	0.75
931.499	-1.25
932.23	-0.25
932.962	0.75
933.693	-1.25
934.424	-1.25
935.155	0.75
935.886	1.75
936.617	-0.25
937.348	0.75
938.078	0.75
938.809	0.75
939.54	0.75
940.27	1.75
941.001	1.75
941.731	-0.25
942.461	1.75
943.191	2.75
943.922	3.75
944.652	0.75
945.382	1.75
946.112	1.75
946.841	-0.25
947.571	1.75
948.301	1.75
949.031	-1.25
949.76	0.75
950.49	-0.25
951.219	1.75
951.948	-0.25
952.678	-1.25
953.407	2.75
954.136	1.75
954.865	1.75
955.594	-1.25
956.323	1.75
957.052	0.75
957.78	-0.25
958.509	-1.25
959.238	1.75
959.966	-0.25
960.695	-0.25
961.423	1.75
962.151	2.75
962.88	0.75
963.608	0.75
964.336	-1.25
965.064	0.75
965.792	3.75
966.52	0.75
967.247	0.75
967.975	-0.25
968.703	-0.25
969.43	4.75
970.158	0.75
970.885	2.75
971.613	0.75
972.34	1.75
973.067	1.75
973.794	1.75
974.521	-0.25
975.248	-1.25
975.975	-1.25
976.702	1.75
977.429	-2.25
978.156	2.75
978.882	0.75
979.609	2.75
980.335	-1.25
981.062	0.75
981.788	-1.25
982.514	2.75
983.24	0.75
983.967	-1.25
984.693	-0.25
985.419	1.75
986.144	-0.25
986.87	0.75
987.596	0.75
988.322	1.75
989.047	-0.25
989.773	0.75
990.498	-1.25
991.224	2.75
991.949	-1.25
992.674	1.75
993.399	0.75
994.124	-1.25
994.849	1.75
995.574	0.75
996.299	1.75
997.024	-0.25
997.749	2.75
998.473	0.75
999.198	0.75
999.922	1.75
1000.647	1.75
1001.371	4.75
1002.095	-1.25
1002.82	0.75
1003.544	-0.25
1004.268	3.75
1004.992	2.75
1005.716	2.75
1006.439	2.75
1007.163	4.75
1007.887	0.75
1008.611	-0.25
1009.334	0.75
1010.058	1.75
1010.781	1.75
1011.504	0.75
1012.228	1.75
1012.951	-1.25
1013.674	-0.25
1014.397	-1.25
1015.12	-1.25
