节点500_425_QEPB04081__219__15-51-57-059.txt的数据

Date: Wed Nov 12 15:51:57 CST 2025
User: PC
Spectrometer: QEPB0408
触发模式: 0
积分时间 (秒): 1.000000E-2
Scans to average: 1
启用暗噪声校正: true
启用非线性校正: false
滑动平均宽度: 0
X轴模式: Wavelengths
Number of Pixels in Spectrum: 1044
>>>>>Begin Spectral Data<<<<<
220.843	4.5
221.644	2.5
222.444	5.5
223.244	3.5
224.045	4.5
224.845	3.5
225.645	3.5
226.445	2.5
227.245	2.5
228.045	6.5
228.845	4.5
229.645	4.5
230.444	5.5
231.244	3.5
232.043	5.5
232.843	5.5
233.642	6.5
234.442	7.5
235.241	5.5
236.04	6.5
236.839	5.5
237.638	6.5
238.437	6.5
239.236	6.5
240.035	5.5
240.833	7.5
241.632	9.5
242.43	10.5
243.229	8.5
244.027	7.5
244.826	9.5
245.624	7.5
246.422	8.5
247.22	10.5
248.018	10.5
248.816	10.5
249.614	10.5
250.412	7.5
251.21	9.5
252.007	8.5
252.805	9.5
253.602	10.5
254.4	12.5
255.197	13.5
255.994	12.5
256.791	13.5
257.589	12.5
258.386	15.5
259.183	15.5
259.979	14.5
260.776	16.5
261.573	15.5
262.37	15.5
263.166	15.5
263.963	17.5
264.759	20.5
265.556	18.5
266.352	18.5
267.148	17.5
267.944	18.5
268.74	22.5
269.536	24.5
270.332	20.5
271.128	21.5
271.924	21.5
272.719	24.5
273.515	24.5
274.311	26.5
275.106	22.5
275.901	23.5
276.697	24.5
277.492	23.5
278.287	22.5
279.082	25.5
279.877	26.5
280.672	23.5
281.467	27.5
282.262	25.5
283.056	26.5
283.851	25.5
284.646	21.5
285.44	25.5
286.234	24.5
287.029	26.5
287.823	25.5
288.617	24.5
289.411	27.5
290.205	28.5
290.999	24.5
291.793	25.5
292.587	22.5
293.381	22.5
294.174	22.5
294.968	22.5
295.761	21.5
296.555	19.5
297.348	20.5
298.141	17.5
298.935	23.5
299.728	18.5
300.521	20.5
301.314	18.5
302.107	20.5
302.899	17.5
303.692	17.5
304.485	18.5
305.277	14.5
306.07	15.5
306.862	16.5
307.655	14.5
308.447	17.5
309.239	16.5
310.031	15.5
310.823	14.5
311.615	13.5
312.407	12.5
313.199	13.5
313.991	14.5
314.783	14.5
315.574	12.5
316.366	13.5
317.157	12.5
317.949	12.5
318.74	10.5
319.531	13.5
320.322	10.5
321.113	9.5
321.904	9.5
322.695	13.5
323.486	10.5
324.277	9.5
325.068	9.5
325.858	8.5
326.649	7.5
327.439	10.5
328.23	7.5
329.02	8.5
329.81	11.5
330.6	9.5
331.391	10.5
332.181	8.5
332.971	10.5
333.76	8.5
334.55	8.5
335.34	11.5
336.13	9.5
336.919	8.5
337.709	9.5
338.498	8.5
339.287	6.5
340.077	8.5
340.866	5.5
341.655	8.5
342.444	6.5
343.233	6.5
344.022	9.5
344.811	8.5
345.6	7.5
346.388	6.5
347.177	7.5
347.965	9.5
348.754	7.5
349.542	8.5
350.33	10.5
351.119	9.5
351.907	7.5
352.695	6.5
353.483	8.5
354.271	7.5
355.059	7.5
355.846	8.5
356.634	6.5
357.422	8.5
358.209	6.5
358.997	8.5
359.784	7.5
360.571	7.5
361.359	9.5
362.146	7.5
362.933	8.5
363.72	7.5
364.507	7.5
365.294	9.5
366.081	7.5
366.867	8.5
367.654	7.5
368.44	6.5
369.227	6.5
370.013	8.5
370.8	8.5
371.586	6.5
372.372	8.5
373.158	6.5
373.944	7.5
374.73	7.5
375.516	5.5
376.302	7.5
377.088	6.5
377.873	7.5
378.659	6.5
379.445	8.5
380.23	9.5
381.015	7.5
381.801	8.5
382.586	4.5
383.371	5.5
384.156	6.5
384.941	11.5
385.726	8.5
386.511	6.5
387.296	9.5
388.08	9.5
388.865	10.5
389.649	9.5
390.434	10.5
391.218	9.5
392.003	8.5
392.787	8.5
393.571	9.5
394.355	8.5
395.139	9.5
395.923	7.5
396.707	6.5
397.491	12.5
398.274	8.5
399.058	10.5
399.842	8.5
400.625	10.5
401.408	8.5
402.192	9.5
402.975	8.5
403.758	10.5
404.541	9.5
405.324	7.5
406.107	9.5
406.89	10.5
407.673	13.5
408.456	12.5
409.238	13.5
410.021	11.5
410.803	10.5
411.586	13.5
412.368	10.5
413.151	10.5
413.933	14.5
414.715	10.5
415.497	12.5
416.279	13.5
417.061	14.5
417.843	12.5
418.624	13.5
419.406	13.5
420.188	13.5
420.969	16.5
421.751	14.5
422.532	13.5
423.313	12.5
424.095	15.5
424.876	14.5
425.657	16.5
426.438	14.5
427.219	17.5
428	18.5
428.78	19.5
429.561	17.5
430.342	21.5
431.122	19.5
431.903	21.5
432.683	21.5
433.464	20.5
434.244	24.5
435.024	25.5
435.804	27.5
436.584	28.5
437.364	30.5
438.144	30.5
438.924	28.5
439.704	31.5
440.483	34.5
441.263	37.5
442.042	40.5
442.822	37.5
443.601	46.5
444.38	46.5
445.16	53.5
445.939	51.5
446.718	57.5
447.497	60.5
448.276	62.5
449.054	72.5
449.833	78.5
450.612	83.5
451.391	92.5
452.169	102.5
452.948	110.5
453.726	119.5
454.504	135.5
455.282	150.5
456.061	160.5
456.839	180.5
457.617	199.5
458.395	234.5
459.172	250.5
459.95	281.5
460.728	310.5
461.506	352.5
462.283	389.5
463.061	443.5
463.838	495.5
464.615	546.5
465.393	607.5
466.17	672.5
466.947	762.5
467.724	848.5
468.501	938.5
469.278	1041.5
470.055	1160.5
470.831	1279.5
471.608	1431.5
472.385	1578.5
473.161	1753.5
473.938	1942.5
474.714	2156.5
475.49	2374.5
476.266	2617.5
477.043	2901.5
477.819	3211.5
478.595	3538.5
479.371	3898.5
480.146	4260.5
480.922	4660.5
481.698	5156.5
482.473	5658.5
483.249	6192.5
484.024	6830.5
484.8	7473.5
485.575	8138.5
486.35	8916.5
487.126	9690.5
487.901	10629.5
488.676	11616.5
489.451	12659.5
490.225	13718.5
491	14824.5
491.775	16157.5
492.55	17424.5
493.324	18778.5
494.099	20078.5
494.873	21452.5
495.647	22979.5
496.422	24423.5
497.196	25870.5
497.97	27460.5
498.744	28802.5
499.518	30211.5
500.292	31474.5
501.066	32546.5
501.839	33689.5
502.613	34637.5
503.387	35269.5
504.16	35785.5
504.934	36015.5
505.707	35988.5
506.48	35802.5
507.253	35476.5
508.027	35039.5
508.8	34354.5
509.573	33632.5
510.346	32820.5
511.118	31748.5
511.891	30648.5
512.664	29512.5
513.437	28341.5
514.209	27199.5
514.982	26142.5
515.754	25079.5
516.526	23991.5
517.298	22910.5
518.071	22020.5
518.843	21071.5
519.615	20185.5
520.387	19365.5
521.159	18640.5
521.93	17966.5
522.702	17231.5
523.474	16578.5
524.245	15842.5
525.017	15139.5
525.788	14471.5
526.56	13805.5
527.331	13148.5
528.102	12552.5
528.873	11957.5
529.644	11365.5
530.415	10835.5
531.186	10316.5
531.957	9723.5
532.728	9229.5
533.498	8721.5
534.269	8239.5
535.039	7759.5
535.81	7339.5
536.58	6930.5
537.351	6544.5
538.121	6187.5
538.891	5868.5
539.661	5578.5
540.431	5283.5
541.201	4986.5
541.971	4731.5
542.741	4482.5
543.51	4242.5
544.28	4051.5
545.05	3851.5
545.819	3644.5
546.588	3487.5
547.358	3285.5
548.127	3151.5
548.896	2966.5
549.665	2821.5
550.434	2677.5
551.203	2515.5
551.972	2399.5
552.741	2264.5
553.51	2158.5
554.278	2005.5
555.047	1897.5
555.815	1809.5
556.584	1713.5
557.352	1609.5
558.121	1501.5
558.889	1436.5
559.657	1357.5
560.425	1265.5
561.193	1201.5
561.961	1145.5
562.729	1090.5
563.496	1024.5
564.264	962.5
565.032	911.5
565.799	856.5
566.567	816.5
567.334	771.5
568.101	732.5
568.869	686.5
569.636	652.5
570.403	614.5
571.17	569.5
571.937	546.5
572.704	512.5
573.471	481.5
574.237	462.5
575.004	442.5
575.771	411.5
576.537	376.5
577.303	364.5
578.07	337.5
578.836	324.5
579.602	302.5
580.368	289.5
581.134	269.5
581.9	257.5
582.666	241.5
583.432	229.5
584.198	221.5
584.964	208.5
585.729	197.5
586.495	191.5
587.26	181.5
588.025	166.5
588.791	162.5
589.556	150.5
590.321	145.5
591.086	138.5
591.851	132.5
592.616	124.5
593.381	117.5
594.146	116.5
594.911	110.5
595.675	103.5
596.44	96.5
597.204	94.5
597.969	88.5
598.733	82.5
599.497	80.5
600.261	79.5
601.025	72.5
601.79	74.5
602.553	67.5
603.317	69.5
604.081	60.5
604.845	60.5
605.609	56.5
606.372	52.5
607.136	54.5
607.899	52.5
608.662	49.5
609.426	49.5
610.189	48.5
610.952	45.5
611.715	43.5
612.478	41.5
613.241	40.5
614.004	36.5
614.767	35.5
615.529	32.5
616.292	39.5
617.055	31.5
617.817	32.5
618.579	31.5
619.342	28.5
620.104	27.5
620.866	26.5
621.628	29.5
622.39	26.5
623.152	25.5
623.914	25.5
624.676	19.5
625.438	23.5
626.199	22.5
626.961	22.5
627.722	23.5
628.484	20.5
629.245	21.5
630.006	19.5
630.768	14.5
631.529	17.5
632.29	18.5
633.051	16.5
633.812	16.5
634.573	14.5
635.333	17.5
636.094	17.5
636.855	14.5
637.615	12.5
638.376	16.5
639.136	14.5
639.896	14.5
640.657	13.5
641.417	13.5
642.177	10.5
642.937	11.5
643.697	12.5
644.457	9.5
645.216	14.5
645.976	12.5
646.736	9.5
647.495	10.5
648.255	11.5
649.014	11.5
649.774	9.5
650.533	9.5
651.292	8.5
652.051	10.5
652.81	10.5
653.569	9.5
654.328	9.5
655.087	9.5
655.846	9.5
656.604	8.5
657.363	7.5
658.121	6.5
658.88	8.5
659.638	8.5
660.397	5.5
661.155	6.5
661.913	7.5
662.671	8.5
663.429	10.5
664.187	8.5
664.945	7.5
665.703	9.5
666.46	5.5
667.218	7.5
667.976	6.5
668.733	8.5
669.49	6.5
670.248	7.5
671.005	6.5
671.762	6.5
672.519	5.5
673.276	6.5
674.033	4.5
674.79	8.5
675.547	5.5
676.304	7.5
677.06	7.5
677.817	7.5
678.574	6.5
679.33	4.5
680.086	5.5
680.843	7.5
681.599	4.5
682.355	5.5
683.111	5.5
683.867	4.5
684.623	4.5
685.379	6.5
686.135	4.5
686.89	6.5
687.646	5.5
688.402	3.5
689.157	6.5
689.912	4.5
690.668	6.5
691.423	4.5
692.178	5.5
692.933	5.5
693.688	4.5
694.443	4.5
695.198	5.5
695.953	6.5
696.708	4.5
697.462	5.5
698.217	6.5
698.972	4.5
699.726	4.5
700.48	4.5
701.235	5.5
701.989	6.5
702.743	5.5
703.497	5.5
704.251	3.5
705.005	2.5
705.759	4.5
706.513	5.5
707.266	6.5
708.02	3.5
708.774	6.5
709.527	4.5
710.28	5.5
711.034	5.5
711.787	5.5
712.54	4.5
713.293	5.5
714.046	3.5
714.799	2.5
715.552	6.5
716.305	5.5
717.058	6.5
717.81	4.5
718.563	2.5
719.315	6.5
720.068	6.5
720.82	4.5
721.573	6.5
722.325	6.5
723.077	6.5
723.829	4.5
724.581	6.5
725.333	5.5
726.085	6.5
726.836	8.5
727.588	7.5
728.34	5.5
729.091	6.5
729.843	6.5
730.594	6.5
731.346	6.5
732.097	7.5
732.848	4.5
733.599	7.5
734.35	5.5
735.101	5.5
735.852	5.5
736.603	6.5
737.354	4.5
738.104	5.5
738.855	6.5
739.605	5.5
740.356	5.5
741.106	5.5
741.856	6.5
742.607	6.5
743.357	7.5
744.107	5.5
744.857	7.5
745.607	6.5
746.357	6.5
747.106	5.5
747.856	8.5
748.606	7.5
749.355	4.5
750.105	9.5
750.854	6.5
751.603	8.5
752.353	10.5
753.102	8.5
753.851	10.5
754.6	5.5
755.349	7.5
756.098	9.5
756.847	8.5
757.595	8.5
758.344	7.5
759.093	8.5
759.841	10.5
760.589	8.5
761.338	10.5
762.086	9.5
762.834	11.5
763.582	7.5
764.331	11.5
765.079	10.5
765.826	10.5
766.574	8.5
767.322	10.5
768.07	10.5
768.817	10.5
769.565	10.5
770.312	11.5
771.06	10.5
771.807	11.5
772.554	8.5
773.302	9.5
774.049	10.5
774.796	12.5
775.543	12.5
776.29	9.5
777.036	13.5
777.783	11.5
778.53	12.5
779.276	12.5
780.023	9.5
780.769	13.5
781.516	9.5
782.262	12.5
783.008	13.5
783.754	11.5
784.5	14.5
785.246	10.5
785.992	12.5
786.738	11.5
787.484	10.5
788.23	12.5
788.975	13.5
789.721	12.5
790.466	9.5
791.212	12.5
791.957	12.5
792.702	11.5
793.447	10.5
794.193	10.5
794.938	9.5
795.683	12.5
796.427	12.5
797.172	9.5
797.917	9.5
798.662	9.5
799.406	11.5
800.151	9.5
800.895	10.5
801.64	9.5
802.384	10.5
803.128	9.5
803.872	8.5
804.616	9.5
805.36	6.5
806.104	8.5
806.848	8.5
807.592	8.5
808.336	7.5
809.079	6.5
809.823	8.5
810.566	4.5
811.31	7.5
812.053	4.5
812.796	8.5
813.539	6.5
814.283	8.5
815.026	9.5
815.769	5.5
816.511	6.5
817.254	4.5
817.997	8.5
818.74	4.5
819.482	8.5
820.225	4.5
820.967	4.5
821.71	4.5
822.452	6.5
823.194	6.5
823.936	7.5
824.678	5.5
825.42	8.5
826.162	5.5
826.904	5.5
827.646	7.5
828.388	6.5
829.129	5.5
829.871	6.5
830.612	6.5
831.354	5.5
832.095	3.5
832.836	3.5
833.577	3.5
834.319	4.5
835.06	4.5
835.801	4.5
836.542	6.5
837.282	2.5
838.023	5.5
838.764	5.5
839.504	4.5
840.245	2.5
840.985	4.5
841.726	3.5
842.466	5.5
843.206	3.5
843.946	3.5
844.687	2.5
845.427	3.5
846.166	6.5
846.906	3.5
847.646	4.5
848.386	5.5
849.125	4.5
849.865	4.5
850.605	4.5
851.344	2.5
852.083	3.5
852.823	4.5
853.562	1.5
854.301	4.5
855.04	3.5
855.779	3.5
856.518	1.5
857.257	3.5
857.995	4.5
858.734	2.5
859.473	4.5
860.211	3.5
860.95	4.5
861.688	2.5
862.426	5.5
863.165	2.5
863.903	3.5
864.641	2.5
865.379	2.5
866.117	2.5
866.855	2.5
867.593	2.5
868.33	3.5
869.068	2.5
869.806	0.5
870.543	1.5
871.28	2.5
872.018	3.5
872.755	2.5
873.492	2.5
874.229	1.5
874.967	2.5
875.703	-0.5
876.44	0.5
877.177	2.5
877.914	1.5
878.651	1.5
879.387	0.5
880.124	1.5
880.86	2.5
881.597	2.5
882.333	2.5
883.069	1.5
883.806	0.5
884.542	0.5
885.278	2.5
886.014	2.5
886.749	0.5
887.485	3.5
888.221	1.5
888.957	3.5
889.692	-1.5
890.428	2.5
891.163	-1.5
891.899	-2.5
892.634	1.5
893.369	0.5
894.104	1.5
894.839	0.5
895.574	-1.5
896.309	0.5
897.044	2.5
897.779	0.5
898.514	2.5
899.248	4.5
899.983	1.5
900.717	2.5
901.452	1.5
902.186	0.5
902.92	3.5
903.654	0.5
904.389	-0.5
905.123	0.5
905.857	1.5
906.59	1.5
907.324	0.5
908.058	0.5
908.792	1.5
909.525	-0.5
910.259	1.5
910.992	2.5
911.726	2.5
912.459	2.5
913.192	-0.5
913.925	0.5
914.658	2.5
915.391	1.5
916.124	2.5
916.857	1.5
917.59	2.5
918.323	2.5
919.055	0.5
919.788	-0.5
920.521	0.5
921.253	-1.5
921.985	-0.5
922.718	1.5
923.45	0.5
924.182	-1.5
924.914	0.5
925.646	1.5
926.378	-1.5
927.11	-1.5
927.841	1.5
928.573	-1.5
929.305	0.5
930.036	0.5
930.768	0.5
931.499	0.5
932.23	0.5
932.962	2.5
933.693	-1.5
934.424	1.5
935.155	1.5
935.886	1.5
936.617	-0.5
937.348	-0.5
938.078	0.5
938.809	-1.5
939.54	0.5
940.27	0.5
941.001	2.5
941.731	0.5
942.461	-0.5
943.191	-1.5
943.922	1.5
944.652	2.5
945.382	1.5
946.112	-0.5
946.841	1.5
947.571	0.5
948.301	0.5
949.031	1.5
949.76	2.5
950.49	0.5
951.219	-0.5
951.948	3.5
952.678	-0.5
953.407	-1.5
954.136	0.5
954.865	-1.5
955.594	0.5
956.323	1.5
957.052	2.5
957.78	0.5
958.509	-1.5
959.238	-0.5
959.966	-1.5
960.695	-0.5
961.423	1.5
962.151	0.5
962.88	2.5
963.608	2.5
964.336	1.5
965.064	-2.5
965.792	0.5
966.52	0.5
967.247	1.5
967.975	0.5
968.703	-0.5
969.43	-0.5
970.158	0.5
970.885	0.5
971.613	-1.5
972.34	-0.5
973.067	0.5
973.794	-1.5
974.521	1.5
975.248	-0.5
975.975	1.5
976.702	-0.5
977.429	0.5
978.156	-0.5
978.882	-1.5
979.609	0.5
980.335	-1.5
981.062	0.5
981.788	0.5
982.514	-0.5
983.24	0.5
983.967	1.5
984.693	2.5
985.419	-1.5
986.144	1.5
986.87	0.5
987.596	1.5
988.322	1.5
989.047	1.5
989.773	0.5
990.498	-1.5
991.224	1.5
991.949	1.5
992.674	1.5
993.399	1.5
994.124	-0.5
994.849	0.5
995.574	0.5
996.299	1.5
997.024	1.5
997.749	2.5
998.473	1.5
999.198	2.5
999.922	0.5
1000.647	0.5
1001.371	3.5
1002.095	-1.5
1002.82	0.5
1003.544	-2.5
1004.268	1.5
1004.992	2.5
1005.716	2.5
1006.439	5.5
1007.163	0.5
1007.887	0.5
1008.611	1.5
1009.334	-1.5
1010.058	-1.5
1010.781	-0.5
1011.504	1.5
1012.228	-0.5
1012.951	-1.5
1013.674	0.5
1014.397	-0.5
1015.12	1.5
