节点500_425_QEPB04081__486__15-56-23-575.txt的数据

Date: Wed Nov 12 15:56:23 CST 2025
User: PC
Spectrometer: QEPB0408
触发模式: 0
积分时间 (秒): 1.000000E-2
Scans to average: 1
启用暗噪声校正: true
启用非线性校正: false
滑动平均宽度: 0
X轴模式: Wavelengths
Number of Pixels in Spectrum: 1044
>>>>>Begin Spectral Data<<<<<
220.843	2.25
221.644	1.25
222.444	4.25
223.244	2.25
224.045	1.25
224.845	1.25
225.645	1.25
226.445	1.25
227.245	1.25
228.045	3.25
228.845	6.25
229.645	3.25
230.444	3.25
231.244	2.25
232.043	0.25
232.843	2.25
233.642	3.25
234.442	4.25
235.241	4.25
236.04	6.25
236.839	4.25
237.638	6.25
238.437	5.25
239.236	6.25
240.035	6.25
240.833	4.25
241.632	8.25
242.43	6.25
243.229	6.25
244.027	4.25
244.826	7.25
245.624	5.25
246.422	9.25
247.22	10.25
248.018	5.25
248.816	7.25
249.614	9.25
250.412	7.25
251.21	9.25
252.007	8.25
252.805	10.25
253.602	11.25
254.4	7.25
255.197	11.25
255.994	11.25
256.791	12.25
257.589	10.25
258.386	9.25
259.183	11.25
259.979	10.25
260.776	13.25
261.573	10.25
262.37	13.25
263.166	13.25
263.963	13.25
264.759	14.25
265.556	13.25
266.352	16.25
267.148	16.25
267.944	16.25
268.74	16.25
269.536	20.25
270.332	18.25
271.128	19.25
271.924	22.25
272.719	22.25
273.515	19.25
274.311	20.25
275.106	19.25
275.901	23.25
276.697	20.25
277.492	21.25
278.287	21.25
279.082	19.25
279.877	23.25
280.672	25.25
281.467	20.25
282.262	21.25
283.056	22.25
283.851	23.25
284.646	22.25
285.44	23.25
286.234	23.25
287.029	23.25
287.823	21.25
288.617	20.25
289.411	23.25
290.205	19.25
290.999	21.25
291.793	21.25
292.587	23.25
293.381	19.25
294.174	21.25
294.968	19.25
295.761	20.25
296.555	18.25
297.348	19.25
298.141	18.25
298.935	20.25
299.728	18.25
300.521	15.25
301.314	16.25
302.107	15.25
302.899	17.25
303.692	18.25
304.485	15.25
305.277	16.25
306.07	15.25
306.862	14.25
307.655	14.25
308.447	15.25
309.239	12.25
310.031	15.25
310.823	12.25
311.615	13.25
312.407	11.25
313.199	9.25
313.991	12.25
314.783	8.25
315.574	11.25
316.366	11.25
317.157	9.25
317.949	9.25
318.74	9.25
319.531	9.25
320.322	8.25
321.113	9.25
321.904	9.25
322.695	7.25
323.486	8.25
324.277	9.25
325.068	9.25
325.858	8.25
326.649	9.25
327.439	11.25
328.23	9.25
329.02	8.25
329.81	7.25
330.6	7.25
331.391	7.25
332.181	9.25
332.971	8.25
333.76	8.25
334.55	8.25
335.34	6.25
336.13	7.25
336.919	8.25
337.709	4.25
338.498	9.25
339.287	8.25
340.077	7.25
340.866	7.25
341.655	8.25
342.444	10.25
343.233	7.25
344.022	6.25
344.811	5.25
345.6	7.25
346.388	7.25
347.177	7.25
347.965	9.25
348.754	8.25
349.542	8.25
350.33	7.25
351.119	6.25
351.907	7.25
352.695	6.25
353.483	9.25
354.271	6.25
355.059	6.25
355.846	9.25
356.634	8.25
357.422	7.25
358.209	6.25
358.997	5.25
359.784	5.25
360.571	6.25
361.359	7.25
362.146	5.25
362.933	8.25
363.72	5.25
364.507	4.25
365.294	5.25
366.081	4.25
366.867	6.25
367.654	6.25
368.44	4.25
369.227	5.25
370.013	6.25
370.8	7.25
371.586	4.25
372.372	5.25
373.158	3.25
373.944	5.25
374.73	6.25
375.516	5.25
376.302	6.25
377.088	6.25
377.873	7.25
378.659	5.25
379.445	6.25
380.23	8.25
381.015	7.25
381.801	6.25
382.586	5.25
383.371	6.25
384.156	3.25
384.941	8.25
385.726	8.25
386.511	6.25
387.296	5.25
388.08	6.25
388.865	6.25
389.649	5.25
390.434	7.25
391.218	9.25
392.003	6.25
392.787	6.25
393.571	6.25
394.355	4.25
395.139	9.25
395.923	7.25
396.707	9.25
397.491	7.25
398.274	6.25
399.058	9.25
399.842	7.25
400.625	8.25
401.408	8.25
402.192	8.25
402.975	9.25
403.758	7.25
404.541	9.25
405.324	8.25
406.107	8.25
406.89	8.25
407.673	8.25
408.456	6.25
409.238	9.25
410.021	10.25
410.803	11.25
411.586	9.25
412.368	13.25
413.151	10.25
413.933	11.25
414.715	10.25
415.497	11.25
416.279	9.25
417.061	11.25
417.843	13.25
418.624	12.25
419.406	11.25
420.188	10.25
420.969	14.25
421.751	16.25
422.532	13.25
423.313	16.25
424.095	15.25
424.876	15.25
425.657	15.25
426.438	14.25
427.219	16.25
428	16.25
428.78	16.25
429.561	17.25
430.342	18.25
431.122	20.25
431.903	19.25
432.683	19.25
433.464	20.25
434.244	22.25
435.024	23.25
435.804	26.25
436.584	26.25
437.364	26.25
438.144	26.25
438.924	26.25
439.704	29.25
440.483	32.25
441.263	36.25
442.042	41.25
442.822	41.25
443.601	44.25
444.38	45.25
445.16	49.25
445.939	50.25
446.718	60.25
447.497	62.25
448.276	68.25
449.054	78.25
449.833	84.25
450.612	86.25
451.391	98.25
452.169	110.25
452.948	123.25
453.726	131.25
454.504	145.25
455.282	158.25
456.061	181.25
456.839	199.25
457.617	212.25
458.395	249.25
459.172	272.25
459.95	311.25
460.728	342.25
461.506	379.25
462.283	415.25
463.061	464.25
463.838	523.25
464.615	576.25
465.393	650.25
466.17	718.25
466.947	795.25
467.724	893.25
468.501	980.25
469.278	1090.25
470.055	1194.25
470.831	1331.25
471.608	1475.25
472.385	1630.25
473.161	1789.25
473.938	1981.25
474.714	2175.25
475.49	2382.25
476.266	2612.25
477.043	2855.25
477.819	3138.25
478.595	3443.25
479.371	3772.25
480.146	4126.25
480.922	4491.25
481.698	4887.25
482.473	5346.25
483.249	5852.25
484.024	6384.25
484.8	6945.25
485.575	7558.25
486.35	8194.25
487.126	8892.25
487.901	9654.25
488.676	10487.25
489.451	11377.25
490.225	12289.25
491	13296.25
491.775	14363.25
492.55	15464.25
493.324	16637.25
494.099	17787.25
494.873	18963.25
495.647	20283.25
496.422	21550.25
497.196	22884.25
497.97	24229.25
498.744	25576.25
499.518	26909.25
500.292	28030.25
501.066	29164.25
501.839	30198.25
502.613	31223.25
503.387	31959.25
504.16	32584.25
504.934	33108.25
505.707	33332.25
506.48	33405.25
507.253	33415.25
508.027	33155.25
508.8	32870.25
509.573	32370.25
510.346	31798.25
511.118	30934.25
511.891	30168.25
512.664	29196.25
513.437	28134.25
514.209	27192.25
514.982	26175.25
515.754	25280.25
516.526	24188.25
517.298	23190.25
518.071	22231.25
518.843	21404.25
519.615	20517.25
520.387	19703.25
521.159	19019.25
521.93	18262.25
522.702	17517.25
523.474	16837.25
524.245	16180.25
525.017	15424.25
525.788	14703.25
526.56	14115.25
527.331	13511.25
528.102	12885.25
528.873	12361.25
529.644	11710.25
530.415	11209.25
531.186	10693.25
531.957	10207.25
532.728	9657.25
533.498	9110.25
534.269	8638.25
535.039	8202.25
535.81	7787.25
536.58	7325.25
537.351	6903.25
538.121	6557.25
538.891	6227.25
539.661	5875.25
540.431	5568.25
541.201	5277.25
541.971	5013.25
542.741	4734.25
543.51	4498.25
544.28	4285.25
545.05	4049.25
545.819	3884.25
546.588	3694.25
547.358	3498.25
548.127	3331.25
548.896	3161.25
549.665	3014.25
550.434	2846.25
551.203	2695.25
551.972	2555.25
552.741	2405.25
553.51	2284.25
554.278	2163.25
555.047	2039.25
555.815	1929.25
556.584	1818.25
557.352	1731.25
558.121	1622.25
558.889	1517.25
559.657	1449.25
560.425	1359.25
561.193	1297.25
561.961	1229.25
562.729	1174.25
563.496	1096.25
564.264	1046.25
565.032	983.25
565.799	939.25
566.567	878.25
567.334	819.25
568.101	781.25
568.869	744.25
569.636	684.25
570.403	656.25
571.17	628.25
571.937	573.25
572.704	558.25
573.471	523.25
574.237	494.25
575.004	464.25
575.771	439.25
576.537	417.25
577.303	383.25
578.07	365.25
578.836	339.25
579.602	323.25
580.368	302.25
581.134	297.25
581.9	280.25
582.666	256.25
583.432	257.25
584.198	240.25
584.964	222.25
585.729	211.25
586.495	200.25
587.26	191.25
588.025	182.25
588.791	171.25
589.556	160.25
590.321	156.25
591.086	152.25
591.851	139.25
592.616	129.25
593.381	129.25
594.146	119.25
594.911	114.25
595.675	108.25
596.44	102.25
597.204	97.25
597.969	96.25
598.733	89.25
599.497	86.25
600.261	83.25
601.025	80.25
601.79	75.25
602.553	70.25
603.317	66.25
604.081	65.25
604.845	63.25
605.609	59.25
606.372	56.25
607.136	57.25
607.899	54.25
608.662	48.25
609.426	48.25
610.189	46.25
610.952	44.25
611.715	43.25
612.478	44.25
613.241	38.25
614.004	40.25
614.767	36.25
615.529	34.25
616.292	35.25
617.055	36.25
617.817	34.25
618.579	31.25
619.342	29.25
620.104	32.25
620.866	28.25
621.628	29.25
622.39	25.25
623.152	25.25
623.914	25.25
624.676	22.25
625.438	23.25
626.199	22.25
626.961	22.25
627.722	21.25
628.484	19.25
629.245	19.25
630.006	19.25
630.768	19.25
631.529	19.25
632.29	16.25
633.051	18.25
633.812	15.25
634.573	16.25
635.333	15.25
636.094	14.25
636.855	16.25
637.615	13.25
638.376	16.25
639.136	10.25
639.896	11.25
640.657	12.25
641.417	12.25
642.177	10.25
642.937	11.25
643.697	12.25
644.457	13.25
645.216	11.25
645.976	11.25
646.736	11.25
647.495	8.25
648.255	10.25
649.014	10.25
649.774	11.25
650.533	11.25
651.292	10.25
652.051	8.25
652.81	10.25
653.569	6.25
654.328	9.25
655.087	6.25
655.846	7.25
656.604	8.25
657.363	8.25
658.121	6.25
658.88	7.25
659.638	8.25
660.397	7.25
661.155	7.25
661.913	9.25
662.671	5.25
663.429	7.25
664.187	6.25
664.945	5.25
665.703	5.25
666.46	4.25
667.218	10.25
667.976	6.25
668.733	3.25
669.49	5.25
670.248	4.25
671.005	6.25
671.762	5.25
672.519	3.25
673.276	5.25
674.033	5.25
674.79	4.25
675.547	4.25
676.304	5.25
677.06	3.25
677.817	6.25
678.574	4.25
679.33	3.25
680.086	6.25
680.843	3.25
681.599	4.25
682.355	5.25
683.111	4.25
683.867	4.25
684.623	6.25
685.379	3.25
686.135	4.25
686.89	5.25
687.646	5.25
688.402	3.25
689.157	6.25
689.912	5.25
690.668	4.25
691.423	3.25
692.178	1.25
692.933	3.25
693.688	4.25
694.443	4.25
695.198	5.25
695.953	3.25
696.708	2.25
697.462	1.25
698.217	5.25
698.972	1.25
699.726	6.25
700.48	4.25
701.235	3.25
701.989	4.25
702.743	5.25
703.497	3.25
704.251	4.25
705.005	2.25
705.759	4.25
706.513	3.25
707.266	4.25
708.02	3.25
708.774	2.25
709.527	4.25
710.28	1.25
711.034	4.25
711.787	3.25
712.54	4.25
713.293	3.25
714.046	3.25
714.799	3.25
715.552	3.25
716.305	6.25
717.058	2.25
717.81	5.25
718.563	5.25
719.315	3.25
720.068	5.25
720.82	5.25
721.573	3.25
722.325	6.25
723.077	3.25
723.829	5.25
724.581	4.25
725.333	6.25
726.085	3.25
726.836	4.25
727.588	3.25
728.34	5.25
729.091	3.25
729.843	4.25
730.594	5.25
731.346	3.25
732.097	4.25
732.848	4.25
733.599	5.25
734.35	5.25
735.101	7.25
735.852	6.25
736.603	5.25
737.354	4.25
738.104	6.25
738.855	4.25
739.605	5.25
740.356	5.25
741.106	4.25
741.856	1.25
742.607	5.25
743.357	6.25
744.107	6.25
744.857	3.25
745.607	6.25
746.357	3.25
747.106	8.25
747.856	7.25
748.606	4.25
749.355	7.25
750.105	7.25
750.854	7.25
751.603	3.25
752.353	6.25
753.102	5.25
753.851	8.25
754.6	7.25
755.349	4.25
756.098	7.25
756.847	7.25
757.595	4.25
758.344	9.25
759.093	6.25
759.841	4.25
760.589	5.25
761.338	7.25
762.086	6.25
762.834	8.25
763.582	5.25
764.331	6.25
765.079	5.25
765.826	9.25
766.574	10.25
767.322	7.25
768.07	6.25
768.817	8.25
769.565	9.25
770.312	11.25
771.06	8.25
771.807	9.25
772.554	8.25
773.302	8.25
774.049	10.25
774.796	11.25
775.543	8.25
776.29	10.25
777.036	8.25
777.783	10.25
778.53	7.25
779.276	9.25
780.023	9.25
780.769	11.25
781.516	9.25
782.262	9.25
783.008	9.25
783.754	8.25
784.5	9.25
785.246	12.25
785.992	10.25
786.738	7.25
787.484	8.25
788.23	10.25
788.975	9.25
789.721	9.25
790.466	9.25
791.212	9.25
791.957	10.25
792.702	10.25
793.447	9.25
794.193	9.25
794.938	9.25
795.683	9.25
796.427	9.25
797.172	11.25
797.917	8.25
798.662	9.25
799.406	7.25
800.151	9.25
800.895	9.25
801.64	7.25
802.384	7.25
803.128	7.25
803.872	6.25
804.616	6.25
805.36	7.25
806.104	6.25
806.848	7.25
807.592	7.25
808.336	5.25
809.079	6.25
809.823	6.25
810.566	3.25
811.31	5.25
812.053	5.25
812.796	5.25
813.539	9.25
814.283	3.25
815.026	6.25
815.769	5.25
816.511	5.25
817.254	5.25
817.997	3.25
818.74	5.25
819.482	4.25
820.225	6.25
820.967	4.25
821.71	6.25
822.452	5.25
823.194	3.25
823.936	6.25
824.678	3.25
825.42	3.25
826.162	4.25
826.904	5.25
827.646	4.25
828.388	3.25
829.129	6.25
829.871	4.25
830.612	1.25
831.354	3.25
832.095	3.25
832.836	5.25
833.577	2.25
834.319	3.25
835.06	4.25
835.801	2.25
836.542	4.25
837.282	2.25
838.023	6.25
838.764	1.25
839.504	4.25
840.245	2.25
840.985	2.25
841.726	4.25
842.466	3.25
843.206	2.25
843.946	3.25
844.687	2.25
845.427	4.25
846.166	2.25
846.906	3.25
847.646	4.25
848.386	3.25
849.125	5.25
849.865	4.25
850.605	2.25
851.344	4.25
852.083	1.25
852.823	2.25
853.562	1.25
854.301	1.25
855.04	2.25
855.779	2.25
856.518	1.25
857.257	0.25
857.995	1.25
858.734	1.25
859.473	3.25
860.211	1.25
860.95	1.25
861.688	1.25
862.426	2.25
863.165	3.25
863.903	2.25
864.641	2.25
865.379	-0.75
866.117	1.25
866.855	1.25
867.593	-0.75
868.33	1.25
869.068	0.25
869.806	0.25
870.543	1.25
871.28	0.25
872.018	1.25
872.755	0.25
873.492	2.25
874.229	2.25
874.967	1.25
875.703	-0.75
876.44	0.25
877.177	3.25
877.914	-0.75
878.651	2.25
879.387	1.25
880.124	0.25
880.86	1.25
881.597	0.25
882.333	1.25
883.069	0.25
883.806	0.25
884.542	-0.75
885.278	-0.75
886.014	1.25
886.749	2.25
887.485	2.25
888.221	-0.75
888.957	0.25
889.692	-2.75
890.428	-0.75
891.163	1.25
891.899	-2.75
892.634	1.25
893.369	0.25
894.104	0.25
894.839	2.25
895.574	0.25
896.309	2.25
897.044	1.25
897.779	0.25
898.514	1.25
899.248	2.25
899.983	-0.75
900.717	0.25
901.452	-0.75
902.186	-1.75
902.92	-1.75
903.654	0.25
904.389	0.25
905.123	-1.75
905.857	0.25
906.59	0.25
907.324	-1.75
908.058	-1.75
908.792	-1.75
909.525	2.25
910.259	3.25
910.992	-2.75
911.726	-0.75
912.459	0.25
913.192	-1.75
913.925	-1.75
914.658	-0.75
915.391	0.25
916.124	-0.75
916.857	0.25
917.59	-0.75
918.323	-0.75
919.055	0.25
919.788	-0.75
920.521	-0.75
921.253	-0.75
921.985	-0.75
922.718	0.25
923.45	-1.75
924.182	-0.75
924.914	-1.75
925.646	0.25
926.378	-0.75
927.11	1.25
927.841	-1.75
928.573	0.25
929.305	-0.75
930.036	1.25
930.768	-3.75
931.499	-0.75
932.23	-2.75
932.962	-2.75
933.693	0.25
934.424	-2.75
935.155	-0.75
935.886	1.25
936.617	-0.75
937.348	-0.75
938.078	-0.75
938.809	-0.75
939.54	-2.75
940.27	-0.75
941.001	-0.75
941.731	0.25
942.461	0.25
943.191	-1.75
943.922	1.25
944.652	2.25
945.382	-0.75
946.112	-1.75
946.841	-3.75
947.571	0.25
948.301	-1.75
949.031	-1.75
949.76	-0.75
950.49	1.25
951.219	-2.75
951.948	-2.75
952.678	-0.75
953.407	-1.75
954.136	-1.75
954.865	0.25
955.594	-0.75
956.323	0.25
957.052	-2.75
957.78	0.25
958.509	1.25
959.238	-0.75
959.966	0.25
960.695	-2.75
961.423	0.25
962.151	0.25
962.88	1.25
963.608	0.25
964.336	0.25
965.064	-0.75
965.792	-1.75
966.52	1.25
967.247	-0.75
967.975	-0.75
968.703	0.25
969.43	-0.75
970.158	0.25
970.885	-0.75
971.613	0.25
972.34	-1.75
973.067	-2.75
973.794	1.25
974.521	-0.75
975.248	1.25
975.975	-2.75
976.702	-0.75
977.429	-0.75
978.156	-2.75
978.882	-1.75
979.609	1.25
980.335	0.25
981.062	1.25
981.788	-0.75
982.514	-0.75
983.24	-2.75
983.967	-0.75
984.693	0.25
985.419	0.25
986.144	0.25
986.87	-1.75
987.596	0.25
988.322	-0.75
989.047	-0.75
989.773	-0.75
990.498	-2.75
991.224	-1.75
991.949	-0.75
992.674	1.25
993.399	-0.75
994.124	1.25
994.849	-0.75
995.574	-1.75
996.299	-0.75
997.024	-1.75
997.749	-0.75
998.473	0.25
999.198	-1.75
999.922	-0.75
1000.647	-1.75
1001.371	3.25
1002.095	0.25
1002.82	-0.75
1003.544	0.25
1004.268	2.25
1004.992	3.25
1005.716	-0.75
1006.439	3.25
1007.163	2.25
1007.887	5.25
1008.611	-0.75
1009.334	0.25
1010.058	-0.75
1010.781	-0.75
1011.504	-2.75
1012.228	0.25
1012.951	-0.75
1013.674	-0.75
1014.397	-1.75
1015.12	0.25
