节点500_425_QEPB04081__31__15-48-51-430.txt的数据

Date: Wed Nov 12 15:48:51 CST 2025
User: PC
Spectrometer: QEPB0408
触发模式: 0
积分时间 (秒): 1.000000E-2
Scans to average: 1
启用暗噪声校正: true
启用非线性校正: false
滑动平均宽度: 0
X轴模式: Wavelengths
Number of Pixels in Spectrum: 1044
>>>>>Begin Spectral Data<<<<<
220.843	2
221.644	5
222.444	3
223.244	2
224.045	4
224.845	2
225.645	3
226.445	2
227.245	3
228.045	4
228.845	5
229.645	4
230.444	3
231.244	5
232.043	7
232.843	5
233.642	8
234.442	2
235.241	5
236.04	7
236.839	6
237.638	6
238.437	5
239.236	9
240.035	6
240.833	10
241.632	4
242.43	8
243.229	7
244.027	5
244.826	8
245.624	8
246.422	7
247.22	8
248.018	10
248.816	8
249.614	8
250.412	11
251.21	12
252.007	11
252.805	9
253.602	12
254.4	14
255.197	11
255.994	12
256.791	13
257.589	16
258.386	14
259.183	15
259.979	13
260.776	16
261.573	17
262.37	18
263.166	18
263.963	17
264.759	19
265.556	20
266.352	21
267.148	21
267.944	20
268.74	22
269.536	22
270.332	23
271.128	22
271.924	23
272.719	24
273.515	24
274.311	25
275.106	26
275.901	26
276.697	27
277.492	28
278.287	26
279.082	26
279.877	27
280.672	28
281.467	26
282.262	26
283.056	26
283.851	26
284.646	24
285.44	25
286.234	28
287.029	25
287.823	26
288.617	27
289.411	25
290.205	26
290.999	25
291.793	23
292.587	29
293.381	20
294.174	24
294.968	21
295.761	20
296.555	19
297.348	20
298.141	23
298.935	21
299.728	19
300.521	21
301.314	18
302.107	17
302.899	17
303.692	16
304.485	15
305.277	18
306.07	17
306.862	17
307.655	13
308.447	14
309.239	16
310.031	16
310.823	12
311.615	14
312.407	12
313.199	12
313.991	12
314.783	14
315.574	10
316.366	11
317.157	11
317.949	9
318.74	11
319.531	9
320.322	8
321.113	9
321.904	8
322.695	10
323.486	10
324.277	9
325.068	10
325.858	10
326.649	11
327.439	11
328.23	10
329.02	9
329.81	8
330.6	10
331.391	7
332.181	7
332.971	6
333.76	7
334.55	7
335.34	8
336.13	10
336.919	9
337.709	8
338.498	9
339.287	9
340.077	6
340.866	8
341.655	6
342.444	8
343.233	10
344.022	9
344.811	11
345.6	7
346.388	7
347.177	7
347.965	9
348.754	10
349.542	8
350.33	11
351.119	6
351.907	7
352.695	10
353.483	8
354.271	8
355.059	7
355.846	9
356.634	8
357.422	7
358.209	8
358.997	10
359.784	8
360.571	8
361.359	9
362.146	5
362.933	9
363.72	7
364.507	6
365.294	6
366.081	8
366.867	5
367.654	9
368.44	6
369.227	2
370.013	6
370.8	7
371.586	7
372.372	5
373.158	5
373.944	7
374.73	7
375.516	8
376.302	8
377.088	9
377.873	4
378.659	8
379.445	7
380.23	6
381.015	7
381.801	8
382.586	7
383.371	9
384.156	7
384.941	7
385.726	4
386.511	5
387.296	7
388.08	9
388.865	9
389.649	5
390.434	7
391.218	11
392.003	6
392.787	6
393.571	8
394.355	9
395.139	8
395.923	8
396.707	8
397.491	11
398.274	12
399.058	9
399.842	10
400.625	7
401.408	10
402.192	10
402.975	11
403.758	8
404.541	10
405.324	9
406.107	13
406.89	11
407.673	9
408.456	10
409.238	12
410.021	10
410.803	16
411.586	10
412.368	14
413.151	10
413.933	9
414.715	12
415.497	13
416.279	13
417.061	12
417.843	14
418.624	14
419.406	13
420.188	16
420.969	16
421.751	17
422.532	16
423.313	14
424.095	15
424.876	16
425.657	18
426.438	14
427.219	17
428	18
428.78	18
429.561	21
430.342	18
431.122	23
431.903	20
432.683	23
433.464	24
434.244	22
435.024	26
435.804	25
436.584	26
437.364	27
438.144	25
438.924	29
439.704	31
440.483	35
441.263	37
442.042	39
442.822	38
443.601	42
444.38	44
445.16	45
445.939	46
446.718	55
447.497	58
448.276	62
449.054	64
449.833	72
450.612	81
451.391	88
452.169	91
452.948	100
453.726	110
454.504	126
455.282	134
456.061	152
456.839	168
457.617	191
458.395	208
459.172	232
459.95	260
460.728	291
461.506	326
462.283	357
463.061	410
463.838	457
464.615	508
465.393	567
466.17	631
466.947	715
467.724	799
468.501	892
469.278	987
470.055	1115
470.831	1235
471.608	1389
472.385	1553
473.161	1692
473.938	1885
474.714	2121
475.49	2364
476.266	2596
477.043	2891
477.819	3194
478.595	3560
479.371	3924
480.146	4354
480.922	4806
481.698	5297
482.473	5842
483.249	6445
484.024	7135
484.8	7855
485.575	8596
486.35	9460
487.126	10394
487.901	11376
488.676	12480
489.451	13629
490.225	14893
491	16220
491.775	17603
492.55	19121
493.324	20542
494.099	22106
494.873	23623
495.647	25192
496.422	26819
497.196	28440
497.97	30080
498.744	31604
499.518	33014
500.292	34279
501.066	35292
501.839	36345
502.613	37147
503.387	37675
504.16	38015
504.934	37954
505.707	37794
506.48	37386
507.253	36730
508.027	35995
508.8	35129
509.573	34110
510.346	33005
511.118	31850
511.891	30683
512.664	29374
513.437	28120
514.209	26854
514.982	25765
515.754	24606
516.526	23460
517.298	22477
518.071	21531
518.843	20671
519.615	19807
520.387	18992
521.159	18273
521.93	17596
522.702	16906
523.474	16225
524.245	15495
525.017	14785
525.788	14074
526.56	13409
527.331	12815
528.102	12158
528.873	11506
529.644	10973
530.415	10429
531.186	9885
531.957	9370
532.728	8827
533.498	8298
534.269	7831
535.039	7385
535.81	6995
536.58	6577
537.351	6205
538.121	5882
538.891	5560
539.661	5301
540.431	5005
541.201	4745
541.971	4498
542.741	4248
543.51	4039
544.28	3842
545.05	3627
545.819	3486
546.588	3313
547.358	3120
548.127	2959
548.896	2802
549.665	2647
550.434	2531
551.203	2378
551.972	2263
552.741	2140
553.51	2020
554.278	1890
555.047	1793
555.815	1677
556.584	1592
557.352	1495
558.121	1406
558.889	1339
559.657	1262
560.425	1199
561.193	1131
561.961	1067
562.729	1011
563.496	960
564.264	906
565.032	863
565.799	806
566.567	757
567.334	721
568.101	682
568.869	649
569.636	608
570.403	571
571.17	541
571.937	518
572.704	483
573.471	452
574.237	429
575.004	401
575.771	374
576.537	357
577.303	331
578.07	312
578.836	297
579.602	285
580.368	274
581.134	258
581.9	246
582.666	229
583.432	213
584.198	206
584.964	192
585.729	183
586.495	169
587.26	170
588.025	162
588.791	152
589.556	144
590.321	135
591.086	130
591.851	125
592.616	118
593.381	112
594.146	101
594.911	100
595.675	92
596.44	90
597.204	87
597.969	82
598.733	80
599.497	78
600.261	77
601.025	68
601.79	69
602.553	66
603.317	62
604.081	58
604.845	55
605.609	55
606.372	53
607.136	52
607.899	49
608.662	48
609.426	44
610.189	42
610.952	39
611.715	42
612.478	39
613.241	36
614.004	34
614.767	36
615.529	34
616.292	30
617.055	31
617.817	30
618.579	26
619.342	27
620.104	26
620.866	24
621.628	25
622.39	27
623.152	22
623.914	22
624.676	19
625.438	22
626.199	22
626.961	18
627.722	20
628.484	17
629.245	18
630.006	18
630.768	20
631.529	19
632.29	18
633.051	18
633.812	15
634.573	16
635.333	14
636.094	14
636.855	15
637.615	16
638.376	14
639.136	11
639.896	15
640.657	12
641.417	11
642.177	14
642.937	10
643.697	11
644.457	12
645.216	10
645.976	8
646.736	10
647.495	11
648.255	9
649.014	9
649.774	10
650.533	8
651.292	12
652.051	9
652.81	8
653.569	9
654.328	9
655.087	9
655.846	8
656.604	6
657.363	8
658.121	10
658.88	6
659.638	8
660.397	7
661.155	7
661.913	9
662.671	8
663.429	8
664.187	5
664.945	7
665.703	6
666.46	6
667.218	7
667.976	7
668.733	7
669.49	7
670.248	6
671.005	7
671.762	2
672.519	7
673.276	3
674.033	5
674.79	6
675.547	4
676.304	7
677.06	6
677.817	5
678.574	5
679.33	4
680.086	6
680.843	4
681.599	6
682.355	7
683.111	3
683.867	7
684.623	6
685.379	7
686.135	6
686.89	7
687.646	4
688.402	4
689.157	3
689.912	3
690.668	5
691.423	4
692.178	4
692.933	5
693.688	4
694.443	4
695.198	6
695.953	5
696.708	8
697.462	5
698.217	5
698.972	4
699.726	7
700.48	5
701.235	4
701.989	5
702.743	4
703.497	7
704.251	3
705.005	6
705.759	5
706.513	6
707.266	8
708.02	5
708.774	6
709.527	2
710.28	2
711.034	4
711.787	5
712.54	3
713.293	5
714.046	2
714.799	6
715.552	3
716.305	4
717.058	1
717.81	6
718.563	3
719.315	7
720.068	5
720.82	6
721.573	4
722.325	7
723.077	5
723.829	5
724.581	6
725.333	2
726.085	5
726.836	8
727.588	2
728.34	6
729.091	8
729.843	4
730.594	7
731.346	6
732.097	5
732.848	6
733.599	6
734.35	6
735.101	7
735.852	5
736.603	7
737.354	6
738.104	7
738.855	8
739.605	7
740.356	6
741.106	6
741.856	8
742.607	8
743.357	5
744.107	9
744.857	9
745.607	5
746.357	8
747.106	7
747.856	6
748.606	7
749.355	8
750.105	7
750.854	6
751.603	10
752.353	8
753.102	8
753.851	8
754.6	8
755.349	7
756.098	9
756.847	7
757.595	7
758.344	8
759.093	9
759.841	8
760.589	10
761.338	10
762.086	8
762.834	10
763.582	7
764.331	10
765.079	10
765.826	10
766.574	10
767.322	12
768.07	9
768.817	9
769.565	11
770.312	10
771.06	10
771.807	10
772.554	8
773.302	14
774.049	11
774.796	11
775.543	11
776.29	13
777.036	12
777.783	12
778.53	12
779.276	11
780.023	16
780.769	12
781.516	12
782.262	12
783.008	12
783.754	12
784.5	10
785.246	12
785.992	15
786.738	9
787.484	14
788.23	12
788.975	13
789.721	13
790.466	12
791.212	13
791.957	12
792.702	12
793.447	10
794.193	12
794.938	10
795.683	11
796.427	11
797.172	10
797.917	11
798.662	10
799.406	9
800.151	9
800.895	9
801.64	8
802.384	8
803.128	9
803.872	7
804.616	8
805.36	8
806.104	10
806.848	9
807.592	9
808.336	8
809.079	8
809.823	4
810.566	4
811.31	7
812.053	9
812.796	6
813.539	8
814.283	5
815.026	5
815.769	8
816.511	4
817.254	5
817.997	7
818.74	5
819.482	8
820.225	4
820.967	4
821.71	6
822.452	7
823.194	6
823.936	4
824.678	6
825.42	5
826.162	7
826.904	4
827.646	4
828.388	6
829.129	3
829.871	4
830.612	4
831.354	4
832.095	4
832.836	5
833.577	4
834.319	5
835.06	4
835.801	4
836.542	2
837.282	4
838.023	4
838.764	5
839.504	1
840.245	4
840.985	5
841.726	5
842.466	3
843.206	4
843.946	3
844.687	3
845.427	1
846.166	5
846.906	1
847.646	5
848.386	5
849.125	4
849.865	3
850.605	1
851.344	4
852.083	4
852.823	2
853.562	2
854.301	2
855.04	2
855.779	2
856.518	2
857.257	4
857.995	1
858.734	5
859.473	2
860.211	1
860.95	2
861.688	3
862.426	2
863.165	1
863.903	4
864.641	2
865.379	3
866.117	1
866.855	0
867.593	2
868.33	3
869.068	2
869.806	1
870.543	3
871.28	3
872.018	3
872.755	-1
873.492	1
874.229	1
874.967	2
875.703	1
876.44	2
877.177	-2
877.914	2
878.651	1
879.387	3
880.124	3
880.86	2
881.597	-1
882.333	2
883.069	3
883.806	1
884.542	1
885.278	3
886.014	1
886.749	1
887.485	1
888.221	-1
888.957	-1
889.692	2
890.428	1
891.163	1
891.899	0
892.634	0
893.369	1
894.104	0
894.839	0
895.574	1
896.309	0
897.044	3
897.779	2
898.514	0
899.248	2
899.983	-1
900.717	2
901.452	-2
902.186	1
902.92	2
903.654	-1
904.389	0
905.123	2
905.857	0
906.59	0
907.324	2
908.058	-1
908.792	1
909.525	1
910.259	1
910.992	2
911.726	0
912.459	-1
913.192	0
913.925	0
914.658	0
915.391	-2
916.124	2
916.857	1
917.59	0
918.323	1
919.055	0
919.788	0
920.521	1
921.253	1
921.985	0
922.718	-1
923.45	0
924.182	-1
924.914	1
925.646	3
926.378	0
927.11	1
927.841	2
928.573	1
929.305	-1
930.036	-2
930.768	1
931.499	-2
932.23	0
932.962	-2
933.693	0
934.424	0
935.155	-1
935.886	-1
936.617	-2
937.348	1
938.078	0
938.809	0
939.54	0
940.27	0
941.001	-1
941.731	1
942.461	2
943.191	-3
943.922	0
944.652	-1
945.382	-1
946.112	1
946.841	-2
947.571	-1
948.301	1
949.031	0
949.76	2
950.49	-1
951.219	0
951.948	-1
952.678	-1
953.407	0
954.136	2
954.865	-2
955.594	1
956.323	1
957.052	0
957.78	-4
958.509	0
959.238	0
959.966	0
960.695	-1
961.423	-1
962.151	-1
962.88	1
963.608	1
964.336	-1
965.064	1
965.792	0
966.52	0
967.247	1
967.975	0
968.703	0
969.43	2
970.158	-2
970.885	-2
971.613	-2
972.34	-1
973.067	0
973.794	0
974.521	1
975.248	0
975.975	1
976.702	1
977.429	0
978.156	-1
978.882	0
979.609	0
980.335	-1
981.062	2
981.788	-1
982.514	0
983.24	0
983.967	2
984.693	1
985.419	0
986.144	0
986.87	-1
987.596	0
988.322	-1
989.047	0
989.773	0
990.498	-1
991.224	-1
991.949	0
992.674	0
993.399	-1
994.124	-2
994.849	-2
995.574	-1
996.299	0
997.024	1
997.749	-2
998.473	-2
999.198	-2
999.922	-1
1000.647	0
1001.371	3
1002.095	-2
1002.82	1
1003.544	-2
1004.268	2
1004.992	1
1005.716	3
1006.439	1
1007.163	2
1007.887	7
1008.611	0
1009.334	-2
1010.058	2
1010.781	1
1011.504	1
1012.228	2
1012.951	-1
1013.674	0
1014.397	1
1015.12	0
