节点500_425_QEPB04081__417__15-55-14-677.txt的数据

Date: Wed Nov 12 15:55:14 CST 2025
User: PC
Spectrometer: QEPB0408
触发模式: 0
积分时间 (秒): 1.000000E-2
Scans to average: 1
启用暗噪声校正: true
启用非线性校正: false
滑动平均宽度: 0
X轴模式: Wavelengths
Number of Pixels in Spectrum: 1044
>>>>>Begin Spectral Data<<<<<
220.843	3.38
221.644	4.38
222.444	2.38
223.244	4.38
224.045	4.38
224.845	4.38
225.645	7.38
226.445	4.38
227.245	3.38
228.045	6.38
228.845	5.38
229.645	5.38
230.444	4.38
231.244	4.38
232.043	8.38
232.843	6.38
233.642	7.38
234.442	5.38
235.241	7.38
236.04	5.38
236.839	8.38
237.638	8.38
238.437	7.38
239.236	7.38
240.035	10.38
240.833	8.38
241.632	7.38
242.43	5.38
243.229	9.38
244.027	6.38
244.826	7.38
245.624	10.38
246.422	8.38
247.22	10.38
248.018	7.38
248.816	9.38
249.614	9.38
250.412	10.38
251.21	11.38
252.007	11.38
252.805	11.38
253.602	11.38
254.4	12.38
255.197	10.38
255.994	10.38
256.791	15.38
257.589	11.38
258.386	13.38
259.183	12.38
259.979	10.38
260.776	15.38
261.573	15.38
262.37	16.38
263.166	17.38
263.963	17.38
264.759	16.38
265.556	14.38
266.352	16.38
267.148	15.38
267.944	20.38
268.74	18.38
269.536	18.38
270.332	21.38
271.128	21.38
271.924	23.38
272.719	21.38
273.515	22.38
274.311	22.38
275.106	23.38
275.901	24.38
276.697	25.38
277.492	23.38
278.287	23.38
279.082	23.38
279.877	26.38
280.672	24.38
281.467	21.38
282.262	27.38
283.056	23.38
283.851	23.38
284.646	26.38
285.44	25.38
286.234	23.38
287.029	26.38
287.823	27.38
288.617	23.38
289.411	21.38
290.205	22.38
290.999	24.38
291.793	24.38
292.587	23.38
293.381	22.38
294.174	23.38
294.968	23.38
295.761	20.38
296.555	20.38
297.348	18.38
298.141	19.38
298.935	22.38
299.728	20.38
300.521	21.38
301.314	19.38
302.107	19.38
302.899	18.38
303.692	16.38
304.485	17.38
305.277	16.38
306.07	20.38
306.862	17.38
307.655	15.38
308.447	17.38
309.239	17.38
310.031	16.38
310.823	15.38
311.615	16.38
312.407	13.38
313.199	12.38
313.991	15.38
314.783	12.38
315.574	11.38
316.366	12.38
317.157	9.38
317.949	12.38
318.74	12.38
319.531	14.38
320.322	11.38
321.113	9.38
321.904	11.38
322.695	11.38
323.486	10.38
324.277	11.38
325.068	9.38
325.858	9.38
326.649	9.38
327.439	10.38
328.23	8.38
329.02	11.38
329.81	8.38
330.6	10.38
331.391	9.38
332.181	7.38
332.971	9.38
333.76	12.38
334.55	12.38
335.34	7.38
336.13	8.38
336.919	11.38
337.709	9.38
338.498	9.38
339.287	9.38
340.077	9.38
340.866	6.38
341.655	9.38
342.444	8.38
343.233	9.38
344.022	11.38
344.811	10.38
345.6	7.38
346.388	9.38
347.177	9.38
347.965	11.38
348.754	7.38
349.542	7.38
350.33	7.38
351.119	7.38
351.907	7.38
352.695	9.38
353.483	8.38
354.271	6.38
355.059	9.38
355.846	8.38
356.634	8.38
357.422	11.38
358.209	5.38
358.997	7.38
359.784	9.38
360.571	8.38
361.359	7.38
362.146	9.38
362.933	7.38
363.72	8.38
364.507	10.38
365.294	8.38
366.081	8.38
366.867	7.38
367.654	7.38
368.44	7.38
369.227	7.38
370.013	8.38
370.8	8.38
371.586	8.38
372.372	5.38
373.158	7.38
373.944	7.38
374.73	8.38
375.516	8.38
376.302	9.38
377.088	6.38
377.873	8.38
378.659	7.38
379.445	7.38
380.23	10.38
381.015	6.38
381.801	7.38
382.586	7.38
383.371	6.38
384.156	11.38
384.941	7.38
385.726	7.38
386.511	8.38
387.296	9.38
388.08	13.38
388.865	8.38
389.649	9.38
390.434	8.38
391.218	9.38
392.003	7.38
392.787	10.38
393.571	7.38
394.355	8.38
395.139	7.38
395.923	9.38
396.707	10.38
397.491	10.38
398.274	10.38
399.058	9.38
399.842	10.38
400.625	9.38
401.408	11.38
402.192	10.38
402.975	10.38
403.758	8.38
404.541	12.38
405.324	11.38
406.107	11.38
406.89	9.38
407.673	11.38
408.456	12.38
409.238	11.38
410.021	10.38
410.803	12.38
411.586	12.38
412.368	13.38
413.151	12.38
413.933	14.38
414.715	11.38
415.497	13.38
416.279	13.38
417.061	12.38
417.843	14.38
418.624	15.38
419.406	15.38
420.188	13.38
420.969	13.38
421.751	15.38
422.532	16.38
423.313	18.38
424.095	16.38
424.876	15.38
425.657	18.38
426.438	16.38
427.219	19.38
428	16.38
428.78	19.38
429.561	18.38
430.342	19.38
431.122	20.38
431.903	18.38
432.683	24.38
433.464	22.38
434.244	25.38
435.024	25.38
435.804	25.38
436.584	26.38
437.364	27.38
438.144	30.38
438.924	32.38
439.704	34.38
440.483	36.38
441.263	35.38
442.042	41.38
442.822	41.38
443.601	43.38
444.38	50.38
445.16	47.38
445.939	53.38
446.718	57.38
447.497	64.38
448.276	70.38
449.054	73.38
449.833	82.38
450.612	88.38
451.391	99.38
452.169	107.38
452.948	116.38
453.726	131.38
454.504	147.38
455.282	159.38
456.061	180.38
456.839	196.38
457.617	220.38
458.395	240.38
459.172	266.38
459.95	300.38
460.728	332.38
461.506	373.38
462.283	407.38
463.061	458.38
463.838	517.38
464.615	586.38
465.393	642.38
466.17	709.38
466.947	787.38
467.724	879.38
468.501	962.38
469.278	1073.38
470.055	1183.38
470.831	1322.38
471.608	1462.38
472.385	1617.38
473.161	1763.38
473.938	1942.38
474.714	2159.38
475.49	2366.38
476.266	2594.38
477.043	2850.38
477.819	3127.38
478.595	3459.38
479.371	3824.38
480.146	4148.38
480.922	4541.38
481.698	4985.38
482.473	5424.38
483.249	5951.38
484.024	6448.38
484.8	7078.38
485.575	7728.38
486.35	8374.38
487.126	9074.38
487.901	9891.38
488.676	10759.38
489.451	11710.38
490.225	12663.38
491	13700.38
491.775	14827.38
492.55	15964.38
493.324	17178.38
494.099	18318.38
494.873	19632.38
495.647	20972.38
496.422	22241.38
497.196	23699.38
497.97	25084.38
498.744	26399.38
499.518	27763.38
500.292	28981.38
501.066	30068.38
501.839	31188.38
502.613	32236.38
503.387	32856.38
504.16	33501.38
504.934	33929.38
505.707	34008.38
506.48	34059.38
507.253	33908.38
508.027	33735.38
508.8	33268.38
509.573	32691.38
510.346	31910.38
511.118	31094.38
511.891	30266.38
512.664	29203.38
513.437	28131.38
514.209	27106.38
514.982	26191.38
515.754	25104.38
516.526	24068.38
517.298	23065.38
518.071	22102.38
518.843	21186.38
519.615	20417.38
520.387	19565.38
521.159	18793.38
521.93	18155.38
522.702	17341.38
523.474	16729.38
524.245	16014.38
525.017	15281.38
525.788	14642.38
526.56	13968.38
527.331	13300.38
528.102	12744.38
528.873	12155.38
529.644	11632.38
530.415	11111.38
531.186	10591.38
531.957	10029.38
532.728	9534.38
533.498	8961.38
534.269	8480.38
535.039	8094.38
535.81	7623.38
536.58	7170.38
537.351	6789.38
538.121	6422.38
538.891	6061.38
539.661	5753.38
540.431	5454.38
541.201	5165.38
541.971	4870.38
542.741	4636.38
543.51	4427.38
544.28	4181.38
545.05	3990.38
545.819	3806.38
546.588	3618.38
547.358	3422.38
548.127	3256.38
548.896	3101.38
549.665	2894.38
550.434	2780.38
551.203	2627.38
551.972	2503.38
552.741	2363.38
553.51	2224.38
554.278	2125.38
555.047	1997.38
555.815	1893.38
556.584	1768.38
557.352	1693.38
558.121	1577.38
558.889	1490.38
559.657	1426.38
560.425	1336.38
561.193	1254.38
561.961	1201.38
562.729	1132.38
563.496	1065.38
564.264	1012.38
565.032	951.38
565.799	913.38
566.567	861.38
567.334	806.38
568.101	764.38
568.869	717.38
569.636	676.38
570.403	644.38
571.17	603.38
571.937	564.38
572.704	545.38
573.471	506.38
574.237	489.38
575.004	448.38
575.771	426.38
576.537	392.38
577.303	385.38
578.07	361.38
578.836	333.38
579.602	315.38
580.368	301.38
581.134	286.38
581.9	270.38
582.666	258.38
583.432	251.38
584.198	230.38
584.964	219.38
585.729	214.38
586.495	197.38
587.26	190.38
588.025	174.38
588.791	163.38
589.556	158.38
590.321	151.38
591.086	145.38
591.851	136.38
592.616	131.38
593.381	129.38
594.146	119.38
594.911	115.38
595.675	108.38
596.44	100.38
597.204	95.38
597.969	98.38
598.733	86.38
599.497	87.38
600.261	85.38
601.025	81.38
601.79	74.38
602.553	70.38
603.317	66.38
604.081	66.38
604.845	61.38
605.609	64.38
606.372	59.38
607.136	59.38
607.899	53.38
608.662	54.38
609.426	49.38
610.189	48.38
610.952	44.38
611.715	45.38
612.478	43.38
613.241	42.38
614.004	42.38
614.767	39.38
615.529	37.38
616.292	35.38
617.055	37.38
617.817	33.38
618.579	31.38
619.342	29.38
620.104	27.38
620.866	27.38
621.628	30.38
622.39	28.38
623.152	27.38
623.914	25.38
624.676	26.38
625.438	26.38
626.199	22.38
626.961	22.38
627.722	21.38
628.484	19.38
629.245	20.38
630.006	19.38
630.768	19.38
631.529	20.38
632.29	15.38
633.051	20.38
633.812	18.38
634.573	19.38
635.333	17.38
636.094	17.38
636.855	16.38
637.615	14.38
638.376	13.38
639.136	14.38
639.896	15.38
640.657	13.38
641.417	14.38
642.177	12.38
642.937	14.38
643.697	13.38
644.457	15.38
645.216	11.38
645.976	12.38
646.736	10.38
647.495	10.38
648.255	12.38
649.014	12.38
649.774	10.38
650.533	10.38
651.292	10.38
652.051	11.38
652.81	11.38
653.569	11.38
654.328	8.38
655.087	9.38
655.846	10.38
656.604	10.38
657.363	11.38
658.121	9.38
658.88	11.38
659.638	8.38
660.397	8.38
661.155	8.38
661.913	8.38
662.671	9.38
663.429	8.38
664.187	8.38
664.945	7.38
665.703	7.38
666.46	10.38
667.218	8.38
667.976	5.38
668.733	6.38
669.49	9.38
670.248	5.38
671.005	7.38
671.762	10.38
672.519	6.38
673.276	7.38
674.033	3.38
674.79	6.38
675.547	5.38
676.304	5.38
677.06	8.38
677.817	5.38
678.574	6.38
679.33	7.38
680.086	9.38
680.843	3.38
681.599	5.38
682.355	7.38
683.111	5.38
683.867	8.38
684.623	6.38
685.379	8.38
686.135	5.38
686.89	5.38
687.646	7.38
688.402	7.38
689.157	6.38
689.912	7.38
690.668	5.38
691.423	6.38
692.178	7.38
692.933	8.38
693.688	6.38
694.443	7.38
695.198	5.38
695.953	7.38
696.708	6.38
697.462	7.38
698.217	6.38
698.972	7.38
699.726	5.38
700.48	4.38
701.235	5.38
701.989	7.38
702.743	4.38
703.497	8.38
704.251	6.38
705.005	7.38
705.759	6.38
706.513	6.38
707.266	6.38
708.02	7.38
708.774	5.38
709.527	5.38
710.28	5.38
711.034	8.38
711.787	3.38
712.54	8.38
713.293	6.38
714.046	4.38
714.799	6.38
715.552	5.38
716.305	8.38
717.058	5.38
717.81	5.38
718.563	8.38
719.315	5.38
720.068	7.38
720.82	4.38
721.573	6.38
722.325	5.38
723.077	6.38
723.829	8.38
724.581	5.38
725.333	5.38
726.085	4.38
726.836	3.38
727.588	8.38
728.34	7.38
729.091	5.38
729.843	7.38
730.594	5.38
731.346	4.38
732.097	7.38
732.848	6.38
733.599	6.38
734.35	8.38
735.101	7.38
735.852	8.38
736.603	4.38
737.354	8.38
738.104	8.38
738.855	8.38
739.605	8.38
740.356	6.38
741.106	8.38
741.856	9.38
742.607	8.38
743.357	7.38
744.107	6.38
744.857	6.38
745.607	7.38
746.357	7.38
747.106	10.38
747.856	6.38
748.606	8.38
749.355	6.38
750.105	8.38
750.854	7.38
751.603	8.38
752.353	5.38
753.102	10.38
753.851	9.38
754.6	8.38
755.349	8.38
756.098	10.38
756.847	7.38
757.595	10.38
758.344	5.38
759.093	9.38
759.841	9.38
760.589	10.38
761.338	10.38
762.086	11.38
762.834	8.38
763.582	9.38
764.331	12.38
765.079	11.38
765.826	8.38
766.574	11.38
767.322	7.38
768.07	10.38
768.817	9.38
769.565	9.38
770.312	11.38
771.06	7.38
771.807	11.38
772.554	11.38
773.302	10.38
774.049	10.38
774.796	11.38
775.543	13.38
776.29	8.38
777.036	13.38
777.783	12.38
778.53	10.38
779.276	11.38
780.023	13.38
780.769	13.38
781.516	11.38
782.262	11.38
783.008	13.38
783.754	12.38
784.5	11.38
785.246	13.38
785.992	13.38
786.738	11.38
787.484	15.38
788.23	13.38
788.975	11.38
789.721	11.38
790.466	10.38
791.212	11.38
791.957	12.38
792.702	11.38
793.447	10.38
794.193	10.38
794.938	9.38
795.683	10.38
796.427	11.38
797.172	9.38
797.917	12.38
798.662	11.38
799.406	12.38
800.151	10.38
800.895	12.38
801.64	8.38
802.384	9.38
803.128	8.38
803.872	9.38
804.616	8.38
805.36	8.38
806.104	11.38
806.848	9.38
807.592	9.38
808.336	7.38
809.079	9.38
809.823	9.38
810.566	9.38
811.31	9.38
812.053	8.38
812.796	7.38
813.539	5.38
814.283	5.38
815.026	5.38
815.769	7.38
816.511	8.38
817.254	7.38
817.997	6.38
818.74	6.38
819.482	6.38
820.225	7.38
820.967	6.38
821.71	6.38
822.452	6.38
823.194	7.38
823.936	5.38
824.678	7.38
825.42	6.38
826.162	5.38
826.904	5.38
827.646	5.38
828.388	4.38
829.129	8.38
829.871	5.38
830.612	4.38
831.354	7.38
832.095	6.38
832.836	3.38
833.577	6.38
834.319	5.38
835.06	4.38
835.801	5.38
836.542	5.38
837.282	4.38
838.023	4.38
838.764	4.38
839.504	5.38
840.245	5.38
840.985	6.38
841.726	5.38
842.466	6.38
843.206	4.38
843.946	6.38
844.687	6.38
845.427	4.38
846.166	3.38
846.906	6.38
847.646	3.38
848.386	4.38
849.125	5.38
849.865	6.38
850.605	4.38
851.344	3.38
852.083	3.38
852.823	5.38
853.562	6.38
854.301	3.38
855.04	2.38
855.779	3.38
856.518	3.38
857.257	6.38
857.995	5.38
858.734	3.38
859.473	3.38
860.211	2.38
860.95	4.38
861.688	5.38
862.426	3.38
863.165	4.38
863.903	2.38
864.641	3.38
865.379	2.38
866.117	2.38
866.855	1.38
867.593	6.38
868.33	3.38
869.068	1.38
869.806	3.38
870.543	3.38
871.28	3.38
872.018	3.38
872.755	2.38
873.492	3.38
874.229	1.38
874.967	5.38
875.703	2.38
876.44	1.38
877.177	2.38
877.914	2.38
878.651	2.38
879.387	3.38
880.124	1.38
880.86	1.38
881.597	2.38
882.333	1.38
883.069	1.38
883.806	1.38
884.542	2.38
885.278	2.38
886.014	3.38
886.749	2.38
887.485	0.38
888.221	1.38
888.957	3.38
889.692	1.38
890.428	2.38
891.163	2.38
891.899	2.38
892.634	2.38
893.369	1.38
894.104	1.38
894.839	1.38
895.574	2.38
896.309	-0.62
897.044	1.38
897.779	3.38
898.514	2.38
899.248	0.38
899.983	1.38
900.717	0.38
901.452	2.38
902.186	0.38
902.92	2.38
903.654	1.38
904.389	2.38
905.123	-0.62
905.857	1.38
906.59	1.38
907.324	2.38
908.058	2.38
908.792	2.38
909.525	1.38
910.259	3.38
910.992	3.38
911.726	0.38
912.459	1.38
913.192	1.38
913.925	3.38
914.658	2.38
915.391	2.38
916.124	-0.62
916.857	1.38
917.59	2.38
918.323	1.38
919.055	2.38
919.788	0.38
920.521	0.38
921.253	3.38
921.985	3.38
922.718	2.38
923.45	1.38
924.182	1.38
924.914	4.38
925.646	1.38
926.378	0.38
927.11	1.38
927.841	2.38
928.573	-1.62
929.305	1.38
930.036	2.38
930.768	0.38
931.499	0.38
932.23	0.38
932.962	3.38
933.693	1.38
934.424	0.38
935.155	-0.62
935.886	-0.62
936.617	2.38
937.348	0.38
938.078	1.38
938.809	4.38
939.54	-0.62
940.27	-0.62
941.001	1.38
941.731	3.38
942.461	1.38
943.191	-0.62
943.922	2.38
944.652	0.38
945.382	1.38
946.112	0.38
946.841	3.38
947.571	2.38
948.301	0.38
949.031	1.38
949.76	-0.62
950.49	1.38
951.219	1.38
951.948	1.38
952.678	1.38
953.407	-0.62
954.136	0.38
954.865	0.38
955.594	2.38
956.323	0.38
957.052	3.38
957.78	1.38
958.509	-0.62
959.238	1.38
959.966	1.38
960.695	0.38
961.423	1.38
962.151	0.38
962.88	1.38
963.608	2.38
964.336	-0.62
965.064	0.38
965.792	0.38
966.52	-0.62
967.247	1.38
967.975	2.38
968.703	3.38
969.43	4.38
970.158	-1.62
970.885	1.38
971.613	2.38
972.34	0.38
973.067	2.38
973.794	3.38
974.521	1.38
975.248	0.38
975.975	-0.62
976.702	1.38
977.429	0.38
978.156	1.38
978.882	2.38
979.609	-0.62
980.335	2.38
981.062	3.38
981.788	4.38
982.514	2.38
983.24	-0.62
983.967	-1.62
984.693	2.38
985.419	2.38
986.144	2.38
986.87	-0.62
987.596	4.38
988.322	0.38
989.047	2.38
989.773	0.38
990.498	3.38
991.224	0.38
991.949	1.38
992.674	1.38
993.399	-0.62
994.124	3.38
994.849	2.38
995.574	2.38
996.299	2.38
997.024	1.38
997.749	2.38
998.473	1.38
999.198	0.38
999.922	1.38
1000.647	1.38
1001.371	3.38
1002.095	-1.62
1002.82	-0.62
1003.544	-0.62
1004.268	6.38
1004.992	5.38
1005.716	2.38
1006.439	3.38
1007.163	2.38
1007.887	7.38
1008.611	1.38
1009.334	-0.62
1010.058	-0.62
1010.781	1.38
1011.504	2.38
1012.228	0.38
1012.951	-0.62
1013.674	0.38
1014.397	-1.62
1015.12	1.38
