节点500_425_QEPB04081__364__15-54-21-750.txt的数据

Date: Wed Nov 12 15:54:21 CST 2025
User: PC
Spectrometer: QEPB0408
触发模式: 0
积分时间 (秒): 1.000000E-2
Scans to average: 1
启用暗噪声校正: true
启用非线性校正: false
滑动平均宽度: 0
X轴模式: Wavelengths
Number of Pixels in Spectrum: 1044
>>>>>Begin Spectral Data<<<<<
220.843	1.25
221.644	2.25
222.444	2.25
223.244	2.25
224.045	2.25
224.845	5.25
225.645	4.25
226.445	6.25
227.245	2.25
228.045	3.25
228.845	4.25
229.645	6.25
230.444	6.25
231.244	3.25
232.043	6.25
232.843	4.25
233.642	7.25
234.442	7.25
235.241	5.25
236.04	7.25
236.839	5.25
237.638	6.25
238.437	6.25
239.236	6.25
240.035	9.25
240.833	6.25
241.632	6.25
242.43	8.25
243.229	7.25
244.027	7.25
244.826	8.25
245.624	9.25
246.422	9.25
247.22	10.25
248.018	7.25
248.816	9.25
249.614	7.25
250.412	9.25
251.21	9.25
252.007	10.25
252.805	10.25
253.602	10.25
254.4	12.25
255.197	10.25
255.994	13.25
256.791	11.25
257.589	12.25
258.386	14.25
259.183	13.25
259.979	14.25
260.776	13.25
261.573	12.25
262.37	16.25
263.166	16.25
263.963	15.25
264.759	14.25
265.556	12.25
266.352	19.25
267.148	16.25
267.944	18.25
268.74	18.25
269.536	18.25
270.332	17.25
271.128	18.25
271.924	22.25
272.719	21.25
273.515	19.25
274.311	23.25
275.106	23.25
275.901	23.25
276.697	24.25
277.492	23.25
278.287	24.25
279.082	24.25
279.877	22.25
280.672	23.25
281.467	23.25
282.262	25.25
283.056	22.25
283.851	25.25
284.646	24.25
285.44	23.25
286.234	23.25
287.029	24.25
287.823	25.25
288.617	24.25
289.411	24.25
290.205	22.25
290.999	23.25
291.793	22.25
292.587	20.25
293.381	24.25
294.174	18.25
294.968	20.25
295.761	22.25
296.555	18.25
297.348	16.25
298.141	18.25
298.935	21.25
299.728	20.25
300.521	19.25
301.314	20.25
302.107	16.25
302.899	16.25
303.692	13.25
304.485	16.25
305.277	17.25
306.07	12.25
306.862	17.25
307.655	14.25
308.447	16.25
309.239	13.25
310.031	17.25
310.823	12.25
311.615	12.25
312.407	12.25
313.199	13.25
313.991	16.25
314.783	11.25
315.574	10.25
316.366	10.25
317.157	11.25
317.949	13.25
318.74	8.25
319.531	11.25
320.322	11.25
321.113	12.25
321.904	11.25
322.695	8.25
323.486	10.25
324.277	9.25
325.068	8.25
325.858	10.25
326.649	9.25
327.439	10.25
328.23	7.25
329.02	9.25
329.81	7.25
330.6	8.25
331.391	7.25
332.181	6.25
332.971	10.25
333.76	5.25
334.55	10.25
335.34	9.25
336.13	10.25
336.919	10.25
337.709	10.25
338.498	8.25
339.287	8.25
340.077	8.25
340.866	7.25
341.655	8.25
342.444	7.25
343.233	6.25
344.022	7.25
344.811	9.25
345.6	10.25
346.388	9.25
347.177	10.25
347.965	7.25
348.754	7.25
349.542	9.25
350.33	7.25
351.119	6.25
351.907	7.25
352.695	4.25
353.483	8.25
354.271	7.25
355.059	7.25
355.846	8.25
356.634	9.25
357.422	6.25
358.209	7.25
358.997	7.25
359.784	6.25
360.571	7.25
361.359	7.25
362.146	6.25
362.933	6.25
363.72	7.25
364.507	5.25
365.294	4.25
366.081	7.25
366.867	6.25
367.654	4.25
368.44	6.25
369.227	6.25
370.013	7.25
370.8	7.25
371.586	6.25
372.372	6.25
373.158	6.25
373.944	8.25
374.73	5.25
375.516	5.25
376.302	6.25
377.088	6.25
377.873	7.25
378.659	6.25
379.445	8.25
380.23	9.25
381.015	6.25
381.801	6.25
382.586	7.25
383.371	6.25
384.156	9.25
384.941	6.25
385.726	7.25
386.511	6.25
387.296	8.25
388.08	7.25
388.865	5.25
389.649	8.25
390.434	7.25
391.218	11.25
392.003	6.25
392.787	5.25
393.571	9.25
394.355	8.25
395.139	9.25
395.923	8.25
396.707	7.25
397.491	10.25
398.274	8.25
399.058	8.25
399.842	5.25
400.625	10.25
401.408	8.25
402.192	8.25
402.975	10.25
403.758	9.25
404.541	8.25
405.324	9.25
406.107	10.25
406.89	9.25
407.673	11.25
408.456	11.25
409.238	12.25
410.021	10.25
410.803	12.25
411.586	11.25
412.368	12.25
413.151	11.25
413.933	11.25
414.715	12.25
415.497	12.25
416.279	13.25
417.061	12.25
417.843	12.25
418.624	13.25
419.406	14.25
420.188	15.25
420.969	16.25
421.751	14.25
422.532	13.25
423.313	16.25
424.095	17.25
424.876	15.25
425.657	15.25
426.438	16.25
427.219	14.25
428	16.25
428.78	19.25
429.561	18.25
430.342	18.25
431.122	21.25
431.903	22.25
432.683	23.25
433.464	21.25
434.244	24.25
435.024	27.25
435.804	24.25
436.584	27.25
437.364	26.25
438.144	27.25
438.924	30.25
439.704	30.25
440.483	33.25
441.263	32.25
442.042	35.25
442.822	37.25
443.601	44.25
444.38	42.25
445.16	49.25
445.939	56.25
446.718	56.25
447.497	59.25
448.276	67.25
449.054	73.25
449.833	81.25
450.612	85.25
451.391	94.25
452.169	103.25
452.948	118.25
453.726	128.25
454.504	138.25
455.282	153.25
456.061	170.25
456.839	187.25
457.617	211.25
458.395	236.25
459.172	265.25
459.95	294.25
460.728	321.25
461.506	370.25
462.283	407.25
463.061	443.25
463.838	508.25
464.615	564.25
465.393	634.25
466.17	704.25
466.947	780.25
467.724	866.25
468.501	955.25
469.278	1066.25
470.055	1172.25
470.831	1299.25
471.608	1432.25
472.385	1605.25
473.161	1778.25
473.938	1944.25
474.714	2144.25
475.49	2380.25
476.266	2600.25
477.043	2864.25
477.819	3168.25
478.595	3493.25
479.371	3807.25
480.146	4169.25
480.922	4590.25
481.698	5009.25
482.473	5481.25
483.249	5986.25
484.024	6556.25
484.8	7201.25
485.575	7820.25
486.35	8523.25
487.126	9251.25
487.901	10095.25
488.676	10985.25
489.451	11952.25
490.225	12967.25
491	14085.25
491.775	15205.25
492.55	16368.25
493.324	17639.25
494.099	18919.25
494.873	20191.25
495.647	21503.25
496.422	22853.25
497.196	24312.25
497.97	25815.25
498.744	27105.25
499.518	28441.25
500.292	29658.25
501.066	30770.25
501.839	31897.25
502.613	32878.25
503.387	33549.25
504.16	34153.25
504.934	34516.25
505.707	34670.25
506.48	34569.25
507.253	34395.25
508.027	34086.25
508.8	33530.25
509.573	32988.25
510.346	32215.25
511.118	31250.25
511.891	30383.25
512.664	29266.25
513.437	28186.25
514.209	27073.25
514.982	26179.25
515.754	25042.25
516.526	24045.25
517.298	22941.25
518.071	21998.25
518.843	21230.25
519.615	20272.25
520.387	19479.25
521.159	18747.25
521.93	18066.25
522.702	17318.25
523.474	16630.25
524.245	15980.25
525.017	15263.25
525.788	14532.25
526.56	13926.25
527.331	13305.25
528.102	12698.25
528.873	12102.25
529.644	11527.25
530.415	10974.25
531.186	10468.25
531.957	9882.25
532.728	9424.25
533.498	8872.25
534.269	8377.25
535.039	7922.25
535.81	7516.25
536.58	7099.25
537.351	6712.25
538.121	6355.25
538.891	6003.25
539.661	5689.25
540.431	5386.25
541.201	5072.25
541.971	4848.25
542.741	4590.25
543.51	4377.25
544.28	4150.25
545.05	3928.25
545.819	3755.25
546.588	3560.25
547.358	3377.25
548.127	3201.25
548.896	3050.25
549.665	2901.25
550.434	2739.25
551.203	2586.25
551.972	2468.25
552.741	2354.25
553.51	2209.25
554.278	2082.25
555.047	1968.25
555.815	1837.25
556.584	1758.25
557.352	1656.25
558.121	1558.25
558.889	1466.25
559.657	1396.25
560.425	1303.25
561.193	1243.25
561.961	1183.25
562.729	1126.25
563.496	1056.25
564.264	994.25
565.032	930.25
565.799	895.25
566.567	843.25
567.334	801.25
568.101	757.25
568.869	706.25
569.636	667.25
570.403	628.25
571.17	581.25
571.937	569.25
572.704	530.25
573.471	492.25
574.237	476.25
575.004	450.25
575.771	422.25
576.537	394.25
577.303	367.25
578.07	356.25
578.836	327.25
579.602	317.25
580.368	302.25
581.134	272.25
581.9	271.25
582.666	260.25
583.432	242.25
584.198	231.25
584.964	218.25
585.729	205.25
586.495	196.25
587.26	181.25
588.025	171.25
588.791	164.25
589.556	158.25
590.321	146.25
591.086	143.25
591.851	132.25
592.616	126.25
593.381	119.25
594.146	116.25
594.911	110.25
595.675	102.25
596.44	101.25
597.204	101.25
597.969	91.25
598.733	90.25
599.497	87.25
600.261	83.25
601.025	76.25
601.79	73.25
602.553	71.25
603.317	65.25
604.081	60.25
604.845	59.25
605.609	60.25
606.372	57.25
607.136	54.25
607.899	54.25
608.662	50.25
609.426	46.25
610.189	45.25
610.952	44.25
611.715	43.25
612.478	41.25
613.241	41.25
614.004	39.25
614.767	36.25
615.529	32.25
616.292	33.25
617.055	33.25
617.817	34.25
618.579	32.25
619.342	31.25
620.104	28.25
620.866	27.25
621.628	30.25
622.39	25.25
623.152	24.25
623.914	24.25
624.676	27.25
625.438	21.25
626.199	22.25
626.961	21.25
627.722	21.25
628.484	18.25
629.245	17.25
630.006	19.25
630.768	19.25
631.529	17.25
632.29	16.25
633.051	17.25
633.812	16.25
634.573	17.25
635.333	18.25
636.094	18.25
636.855	15.25
637.615	14.25
638.376	15.25
639.136	12.25
639.896	15.25
640.657	12.25
641.417	11.25
642.177	10.25
642.937	12.25
643.697	12.25
644.457	10.25
645.216	12.25
645.976	7.25
646.736	13.25
647.495	9.25
648.255	10.25
649.014	11.25
649.774	11.25
650.533	8.25
651.292	7.25
652.051	9.25
652.81	9.25
653.569	8.25
654.328	9.25
655.087	10.25
655.846	9.25
656.604	9.25
657.363	8.25
658.121	8.25
658.88	6.25
659.638	8.25
660.397	8.25
661.155	6.25
661.913	7.25
662.671	6.25
663.429	7.25
664.187	8.25
664.945	6.25
665.703	6.25
666.46	6.25
667.218	6.25
667.976	7.25
668.733	7.25
669.49	8.25
670.248	4.25
671.005	6.25
671.762	7.25
672.519	5.25
673.276	6.25
674.033	7.25
674.79	3.25
675.547	7.25
676.304	7.25
677.06	2.25
677.817	5.25
678.574	5.25
679.33	5.25
680.086	2.25
680.843	4.25
681.599	5.25
682.355	5.25
683.111	4.25
683.867	5.25
684.623	4.25
685.379	5.25
686.135	4.25
686.89	7.25
687.646	5.25
688.402	4.25
689.157	5.25
689.912	4.25
690.668	3.25
691.423	4.25
692.178	7.25
692.933	4.25
693.688	3.25
694.443	5.25
695.198	5.25
695.953	5.25
696.708	4.25
697.462	4.25
698.217	3.25
698.972	5.25
699.726	6.25
700.48	4.25
701.235	4.25
701.989	5.25
702.743	4.25
703.497	4.25
704.251	3.25
705.005	6.25
705.759	6.25
706.513	4.25
707.266	4.25
708.02	5.25
708.774	7.25
709.527	2.25
710.28	7.25
711.034	4.25
711.787	3.25
712.54	4.25
713.293	4.25
714.046	6.25
714.799	3.25
715.552	3.25
716.305	3.25
717.058	2.25
717.81	3.25
718.563	5.25
719.315	6.25
720.068	6.25
720.82	6.25
721.573	4.25
722.325	4.25
723.077	5.25
723.829	4.25
724.581	7.25
725.333	5.25
726.085	7.25
726.836	5.25
727.588	3.25
728.34	5.25
729.091	6.25
729.843	9.25
730.594	6.25
731.346	3.25
732.097	6.25
732.848	4.25
733.599	5.25
734.35	5.25
735.101	5.25
735.852	8.25
736.603	3.25
737.354	6.25
738.104	5.25
738.855	7.25
739.605	9.25
740.356	6.25
741.106	6.25
741.856	5.25
742.607	7.25
743.357	4.25
744.107	7.25
744.857	8.25
745.607	6.25
746.357	7.25
747.106	4.25
747.856	7.25
748.606	6.25
749.355	5.25
750.105	10.25
750.854	4.25
751.603	8.25
752.353	6.25
753.102	7.25
753.851	7.25
754.6	6.25
755.349	7.25
756.098	6.25
756.847	8.25
757.595	6.25
758.344	8.25
759.093	7.25
759.841	6.25
760.589	8.25
761.338	8.25
762.086	8.25
762.834	9.25
763.582	8.25
764.331	9.25
765.079	7.25
765.826	8.25
766.574	9.25
767.322	9.25
768.07	10.25
768.817	10.25
769.565	9.25
770.312	8.25
771.06	12.25
771.807	10.25
772.554	7.25
773.302	9.25
774.049	8.25
774.796	10.25
775.543	8.25
776.29	10.25
777.036	10.25
777.783	10.25
778.53	12.25
779.276	10.25
780.023	9.25
780.769	11.25
781.516	11.25
782.262	12.25
783.008	8.25
783.754	13.25
784.5	13.25
785.246	11.25
785.992	10.25
786.738	11.25
787.484	13.25
788.23	10.25
788.975	12.25
789.721	9.25
790.466	10.25
791.212	12.25
791.957	10.25
792.702	10.25
793.447	9.25
794.193	10.25
794.938	11.25
795.683	10.25
796.427	9.25
797.172	9.25
797.917	11.25
798.662	10.25
799.406	9.25
800.151	9.25
800.895	8.25
801.64	10.25
802.384	7.25
803.128	10.25
803.872	6.25
804.616	8.25
805.36	7.25
806.104	4.25
806.848	8.25
807.592	9.25
808.336	7.25
809.079	9.25
809.823	6.25
810.566	7.25
811.31	6.25
812.053	7.25
812.796	6.25
813.539	5.25
814.283	7.25
815.026	4.25
815.769	7.25
816.511	7.25
817.254	3.25
817.997	7.25
818.74	4.25
819.482	6.25
820.225	7.25
820.967	4.25
821.71	3.25
822.452	5.25
823.194	6.25
823.936	1.25
824.678	6.25
825.42	5.25
826.162	5.25
826.904	4.25
827.646	3.25
828.388	3.25
829.129	4.25
829.871	4.25
830.612	5.25
831.354	3.25
832.095	4.25
832.836	4.25
833.577	6.25
834.319	5.25
835.06	5.25
835.801	3.25
836.542	4.25
837.282	4.25
838.023	6.25
838.764	3.25
839.504	3.25
840.245	4.25
840.985	4.25
841.726	5.25
842.466	4.25
843.206	4.25
843.946	2.25
844.687	2.25
845.427	4.25
846.166	4.25
846.906	3.25
847.646	4.25
848.386	4.25
849.125	2.25
849.865	4.25
850.605	2.25
851.344	2.25
852.083	3.25
852.823	1.25
853.562	1.25
854.301	3.25
855.04	6.25
855.779	2.25
856.518	3.25
857.257	0.25
857.995	1.25
858.734	2.25
859.473	3.25
860.211	5.25
860.95	1.25
861.688	-0.75
862.426	0.25
863.165	2.25
863.903	1.25
864.641	2.25
865.379	2.25
866.117	2.25
866.855	2.25
867.593	3.25
868.33	3.25
869.068	2.25
869.806	1.25
870.543	0.25
871.28	0.25
872.018	1.25
872.755	0.25
873.492	0.25
874.229	2.25
874.967	2.25
875.703	0.25
876.44	1.25
877.177	-0.75
877.914	4.25
878.651	0.25
879.387	0.25
880.124	0.25
880.86	0.25
881.597	2.25
882.333	2.25
883.069	1.25
883.806	0.25
884.542	2.25
885.278	2.25
886.014	1.25
886.749	1.25
887.485	0.25
888.221	1.25
888.957	0.25
889.692	-0.75
890.428	2.25
891.163	2.25
891.899	0.25
892.634	2.25
893.369	2.25
894.104	-0.75
894.839	-0.75
895.574	0.25
896.309	0.25
897.044	0.25
897.779	3.25
898.514	-0.75
899.248	2.25
899.983	-0.75
900.717	-0.75
901.452	0.25
902.186	0.25
902.92	1.25
903.654	0.25
904.389	1.25
905.123	-0.75
905.857	-0.75
906.59	1.25
907.324	-0.75
908.058	-2.75
908.792	-0.75
909.525	1.25
910.259	0.25
910.992	1.25
911.726	0.25
912.459	-0.75
913.192	2.25
913.925	0.25
914.658	0.25
915.391	0.25
916.124	1.25
916.857	-0.75
917.59	1.25
918.323	-1.75
919.055	1.25
919.788	0.25
920.521	1.25
921.253	-1.75
921.985	-0.75
922.718	1.25
923.45	-1.75
924.182	1.25
924.914	0.25
925.646	0.25
926.378	0.25
927.11	-0.75
927.841	0.25
928.573	-2.75
929.305	-0.75
930.036	1.25
930.768	-0.75
931.499	0.25
932.23	2.25
932.962	-1.75
933.693	1.25
934.424	-1.75
935.155	1.25
935.886	1.25
936.617	0.25
937.348	0.25
938.078	1.25
938.809	-2.75
939.54	0.25
940.27	0.25
941.001	1.25
941.731	1.25
942.461	0.25
943.191	0.25
943.922	-1.75
944.652	0.25
945.382	2.25
946.112	-1.75
946.841	1.25
947.571	-0.75
948.301	1.25
949.031	-0.75
949.76	0.25
950.49	3.25
951.219	0.25
951.948	0.25
952.678	1.25
953.407	2.25
954.136	0.25
954.865	0.25
955.594	-1.75
956.323	-1.75
957.052	1.25
957.78	0.25
958.509	0.25
959.238	0.25
959.966	-1.75
960.695	0.25
961.423	0.25
962.151	0.25
962.88	0.25
963.608	-0.75
964.336	0.25
965.064	-0.75
965.792	1.25
966.52	-0.75
967.247	1.25
967.975	1.25
968.703	0.25
969.43	2.25
970.158	-0.75
970.885	1.25
971.613	-1.75
972.34	2.25
973.067	0.25
973.794	0.25
974.521	1.25
975.248	-0.75
975.975	0.25
976.702	-0.75
977.429	-1.75
978.156	2.25
978.882	0.25
979.609	0.25
980.335	-0.75
981.062	1.25
981.788	-0.75
982.514	0.25
983.24	2.25
983.967	0.25
984.693	-0.75
985.419	0.25
986.144	-0.75
986.87	-0.75
987.596	-0.75
988.322	0.25
989.047	-0.75
989.773	0.25
990.498	0.25
991.224	0.25
991.949	2.25
992.674	0.25
993.399	1.25
994.124	0.25
994.849	-1.75
995.574	1.25
996.299	0.25
997.024	-0.75
997.749	0.25
998.473	0.25
999.198	-0.75
999.922	-1.75
1000.647	1.25
1001.371	3.25
1002.095	-0.75
1002.82	-0.75
1003.544	0.25
1004.268	1.25
1004.992	4.25
1005.716	-0.75
1006.439	2.25
1007.163	0.25
1007.887	3.25
1008.611	-1.75
1009.334	0.25
1010.058	0.25
1010.781	2.25
1011.504	0.25
1012.228	1.25
1012.951	1.25
1013.674	-1.75
1014.397	-1.75
1015.12	0.25
