节点500_425_QEPB04081__496__15-56-33-588.txt的数据

Date: Wed Nov 12 15:56:33 CST 2025
User: PC
Spectrometer: QEPB0408
触发模式: 0
积分时间 (秒): 1.000000E-2
Scans to average: 1
启用暗噪声校正: true
启用非线性校正: false
滑动平均宽度: 0
X轴模式: Wavelengths
Number of Pixels in Spectrum: 1044
>>>>>Begin Spectral Data<<<<<
220.843	2.62
221.644	5.62
222.444	3.62
223.244	5.62
224.045	4.62
224.845	4.62
225.645	4.62
226.445	3.62
227.245	3.62
228.045	6.62
228.845	4.62
229.645	6.62
230.444	5.62
231.244	5.62
232.043	4.62
232.843	7.62
233.642	7.62
234.442	6.62
235.241	7.62
236.04	4.62
236.839	6.62
237.638	8.62
238.437	8.62
239.236	7.62
240.035	6.62
240.833	5.62
241.632	7.62
242.43	6.62
243.229	8.62
244.027	8.62
244.826	9.62
245.624	6.62
246.422	7.62
247.22	10.62
248.018	8.62
248.816	9.62
249.614	9.62
250.412	5.62
251.21	8.62
252.007	9.62
252.805	10.62
253.602	10.62
254.4	12.62
255.197	13.62
255.994	10.62
256.791	10.62
257.589	11.62
258.386	14.62
259.183	11.62
259.979	13.62
260.776	14.62
261.573	13.62
262.37	13.62
263.166	13.62
263.963	15.62
264.759	13.62
265.556	15.62
266.352	15.62
267.148	15.62
267.944	16.62
268.74	18.62
269.536	18.62
270.332	19.62
271.128	21.62
271.924	20.62
272.719	20.62
273.515	21.62
274.311	20.62
275.106	21.62
275.901	21.62
276.697	22.62
277.492	21.62
278.287	20.62
279.082	21.62
279.877	23.62
280.672	23.62
281.467	20.62
282.262	22.62
283.056	24.62
283.851	23.62
284.646	25.62
285.44	23.62
286.234	23.62
287.029	20.62
287.823	21.62
288.617	23.62
289.411	21.62
290.205	21.62
290.999	23.62
291.793	19.62
292.587	23.62
293.381	19.62
294.174	21.62
294.968	20.62
295.761	18.62
296.555	16.62
297.348	17.62
298.141	17.62
298.935	19.62
299.728	18.62
300.521	17.62
301.314	16.62
302.107	18.62
302.899	17.62
303.692	17.62
304.485	16.62
305.277	15.62
306.07	17.62
306.862	14.62
307.655	17.62
308.447	15.62
309.239	15.62
310.031	11.62
310.823	12.62
311.615	15.62
312.407	13.62
313.199	11.62
313.991	13.62
314.783	13.62
315.574	15.62
316.366	13.62
317.157	13.62
317.949	13.62
318.74	10.62
319.531	10.62
320.322	11.62
321.113	11.62
321.904	11.62
322.695	12.62
323.486	11.62
324.277	10.62
325.068	12.62
325.858	7.62
326.649	9.62
327.439	8.62
328.23	10.62
329.02	11.62
329.81	8.62
330.6	8.62
331.391	9.62
332.181	8.62
332.971	9.62
333.76	10.62
334.55	10.62
335.34	9.62
336.13	10.62
336.919	9.62
337.709	8.62
338.498	8.62
339.287	9.62
340.077	12.62
340.866	8.62
341.655	10.62
342.444	7.62
343.233	8.62
344.022	9.62
344.811	9.62
345.6	9.62
346.388	8.62
347.177	9.62
347.965	8.62
348.754	6.62
349.542	6.62
350.33	10.62
351.119	5.62
351.907	10.62
352.695	8.62
353.483	9.62
354.271	7.62
355.059	8.62
355.846	7.62
356.634	5.62
357.422	5.62
358.209	7.62
358.997	9.62
359.784	8.62
360.571	8.62
361.359	7.62
362.146	6.62
362.933	9.62
363.72	6.62
364.507	7.62
365.294	7.62
366.081	7.62
366.867	8.62
367.654	8.62
368.44	7.62
369.227	5.62
370.013	4.62
370.8	5.62
371.586	8.62
372.372	8.62
373.158	6.62
373.944	7.62
374.73	10.62
375.516	7.62
376.302	5.62
377.088	4.62
377.873	7.62
378.659	6.62
379.445	8.62
380.23	5.62
381.015	8.62
381.801	10.62
382.586	8.62
383.371	8.62
384.156	7.62
384.941	6.62
385.726	8.62
386.511	7.62
387.296	5.62
388.08	10.62
388.865	8.62
389.649	10.62
390.434	8.62
391.218	7.62
392.003	9.62
392.787	9.62
393.571	11.62
394.355	9.62
395.139	6.62
395.923	7.62
396.707	8.62
397.491	10.62
398.274	8.62
399.058	9.62
399.842	10.62
400.625	10.62
401.408	7.62
402.192	10.62
402.975	9.62
403.758	9.62
404.541	11.62
405.324	12.62
406.107	8.62
406.89	8.62
407.673	11.62
408.456	9.62
409.238	11.62
410.021	12.62
410.803	10.62
411.586	10.62
412.368	11.62
413.151	10.62
413.933	11.62
414.715	13.62
415.497	11.62
416.279	13.62
417.061	12.62
417.843	11.62
418.624	13.62
419.406	13.62
420.188	12.62
420.969	12.62
421.751	14.62
422.532	15.62
423.313	14.62
424.095	15.62
424.876	18.62
425.657	12.62
426.438	17.62
427.219	17.62
428	16.62
428.78	15.62
429.561	15.62
430.342	18.62
431.122	19.62
431.903	20.62
432.683	21.62
433.464	21.62
434.244	24.62
435.024	24.62
435.804	25.62
436.584	26.62
437.364	24.62
438.144	28.62
438.924	31.62
439.704	33.62
440.483	33.62
441.263	35.62
442.042	36.62
442.822	37.62
443.601	42.62
444.38	44.62
445.16	47.62
445.939	53.62
446.718	57.62
447.497	61.62
448.276	65.62
449.054	71.62
449.833	77.62
450.612	81.62
451.391	99.62
452.169	102.62
452.948	112.62
453.726	127.62
454.504	141.62
455.282	156.62
456.061	171.62
456.839	184.62
457.617	209.62
458.395	235.62
459.172	259.62
459.95	286.62
460.728	319.62
461.506	369.62
462.283	397.62
463.061	442.62
463.838	490.62
464.615	547.62
465.393	605.62
466.17	677.62
466.947	740.62
467.724	835.62
468.501	925.62
469.278	1007.62
470.055	1128.62
470.831	1247.62
471.608	1377.62
472.385	1520.62
473.161	1674.62
473.938	1844.62
474.714	2027.62
475.49	2213.62
476.266	2433.62
477.043	2676.62
477.819	2912.62
478.595	3215.62
479.371	3517.62
480.146	3837.62
480.922	4209.62
481.698	4583.62
482.473	4995.62
483.249	5487.62
484.024	5951.62
484.8	6510.62
485.575	7030.62
486.35	7636.62
487.126	8288.62
487.901	9027.62
488.676	9773.62
489.451	10596.62
490.225	11479.62
491	12381.62
491.775	13335.62
492.55	14381.62
493.324	15490.62
494.099	16491.62
494.873	17620.62
495.647	18846.62
496.422	19980.62
497.196	21189.62
497.97	22523.62
498.744	23756.62
499.518	24985.62
500.292	26029.62
501.066	26986.62
501.839	28125.62
502.613	29080.62
503.387	29766.62
504.16	30359.62
504.934	30771.62
505.707	30951.62
506.48	31129.62
507.253	31052.62
508.027	30904.62
508.8	30564.62
509.573	30107.62
510.346	29570.62
511.118	28816.62
511.891	28126.62
512.664	27151.62
513.437	26212.62
514.209	25278.62
514.982	24514.62
515.754	23518.62
516.526	22593.62
517.298	21699.62
518.071	20786.62
518.843	19945.62
519.615	19132.62
520.387	18355.62
521.159	17681.62
521.93	17023.62
522.702	16356.62
523.474	15663.62
524.245	15100.62
525.017	14392.62
525.788	13777.62
526.56	13170.62
527.331	12600.62
528.102	12001.62
528.873	11495.62
529.644	10938.62
530.415	10455.62
531.186	9997.62
531.957	9517.62
532.728	9015.62
533.498	8501.62
534.269	8056.62
535.039	7635.62
535.81	7248.62
536.58	6807.62
537.351	6441.62
538.121	6107.62
538.891	5793.62
539.661	5498.62
540.431	5213.62
541.201	4906.62
541.971	4659.62
542.741	4448.62
543.51	4212.62
544.28	3995.62
545.05	3784.62
545.819	3617.62
546.588	3435.62
547.358	3235.62
548.127	3079.62
548.896	2955.62
549.665	2778.62
550.434	2656.62
551.203	2531.62
551.972	2399.62
552.741	2261.62
553.51	2130.62
554.278	2012.62
555.047	1920.62
555.815	1811.62
556.584	1700.62
557.352	1615.62
558.121	1525.62
558.889	1450.62
559.657	1365.62
560.425	1279.62
561.193	1206.62
561.961	1146.62
562.729	1089.62
563.496	1040.62
564.264	967.62
565.032	915.62
565.799	870.62
566.567	829.62
567.334	788.62
568.101	727.62
568.869	688.62
569.636	645.62
570.403	620.62
571.17	577.62
571.937	545.62
572.704	518.62
573.471	495.62
574.237	456.62
575.004	441.62
575.771	399.62
576.537	380.62
577.303	358.62
578.07	344.62
578.836	323.62
579.602	305.62
580.368	288.62
581.134	278.62
581.9	261.62
582.666	247.62
583.432	235.62
584.198	225.62
584.964	207.62
585.729	197.62
586.495	187.62
587.26	179.62
588.025	172.62
588.791	159.62
589.556	154.62
590.321	143.62
591.086	140.62
591.851	131.62
592.616	126.62
593.381	119.62
594.146	113.62
594.911	108.62
595.675	102.62
596.44	98.62
597.204	90.62
597.969	90.62
598.733	87.62
599.497	82.62
600.261	81.62
601.025	75.62
601.79	70.62
602.553	66.62
603.317	63.62
604.081	65.62
604.845	56.62
605.609	58.62
606.372	53.62
607.136	57.62
607.899	52.62
608.662	53.62
609.426	45.62
610.189	44.62
610.952	45.62
611.715	42.62
612.478	41.62
613.241	40.62
614.004	40.62
614.767	36.62
615.529	34.62
616.292	33.62
617.055	32.62
617.817	34.62
618.579	31.62
619.342	30.62
620.104	29.62
620.866	27.62
621.628	28.62
622.39	24.62
623.152	24.62
623.914	25.62
624.676	23.62
625.438	23.62
626.199	24.62
626.961	26.62
627.722	21.62
628.484	22.62
629.245	19.62
630.006	20.62
630.768	19.62
631.529	20.62
632.29	17.62
633.051	19.62
633.812	17.62
634.573	15.62
635.333	13.62
636.094	16.62
636.855	14.62
637.615	15.62
638.376	15.62
639.136	15.62
639.896	15.62
640.657	14.62
641.417	15.62
642.177	14.62
642.937	13.62
643.697	13.62
644.457	11.62
645.216	13.62
645.976	13.62
646.736	9.62
647.495	10.62
648.255	13.62
649.014	8.62
649.774	9.62
650.533	9.62
651.292	7.62
652.051	10.62
652.81	9.62
653.569	7.62
654.328	9.62
655.087	9.62
655.846	10.62
656.604	9.62
657.363	8.62
658.121	9.62
658.88	7.62
659.638	8.62
660.397	8.62
661.155	10.62
661.913	6.62
662.671	7.62
663.429	6.62
664.187	7.62
664.945	6.62
665.703	7.62
666.46	5.62
667.218	5.62
667.976	8.62
668.733	7.62
669.49	6.62
670.248	6.62
671.005	8.62
671.762	7.62
672.519	7.62
673.276	7.62
674.033	6.62
674.79	4.62
675.547	4.62
676.304	8.62
677.06	6.62
677.817	7.62
678.574	6.62
679.33	5.62
680.086	6.62
680.843	6.62
681.599	8.62
682.355	5.62
683.111	4.62
683.867	7.62
684.623	6.62
685.379	6.62
686.135	5.62
686.89	6.62
687.646	6.62
688.402	5.62
689.157	6.62
689.912	7.62
690.668	4.62
691.423	6.62
692.178	4.62
692.933	7.62
693.688	5.62
694.443	5.62
695.198	7.62
695.953	4.62
696.708	3.62
697.462	3.62
698.217	5.62
698.972	3.62
699.726	5.62
700.48	5.62
701.235	6.62
701.989	4.62
702.743	4.62
703.497	6.62
704.251	6.62
705.005	7.62
705.759	6.62
706.513	5.62
707.266	7.62
708.02	2.62
708.774	3.62
709.527	7.62
710.28	8.62
711.034	6.62
711.787	6.62
712.54	6.62
713.293	3.62
714.046	7.62
714.799	6.62
715.552	6.62
716.305	4.62
717.058	6.62
717.81	6.62
718.563	3.62
719.315	5.62
720.068	5.62
720.82	4.62
721.573	8.62
722.325	7.62
723.077	7.62
723.829	5.62
724.581	5.62
725.333	7.62
726.085	6.62
726.836	7.62
727.588	7.62
728.34	7.62
729.091	7.62
729.843	5.62
730.594	6.62
731.346	8.62
732.097	6.62
732.848	8.62
733.599	5.62
734.35	8.62
735.101	7.62
735.852	9.62
736.603	7.62
737.354	5.62
738.104	6.62
738.855	6.62
739.605	8.62
740.356	4.62
741.106	8.62
741.856	6.62
742.607	4.62
743.357	6.62
744.107	7.62
744.857	7.62
745.607	8.62
746.357	7.62
747.106	8.62
747.856	5.62
748.606	6.62
749.355	7.62
750.105	7.62
750.854	5.62
751.603	6.62
752.353	10.62
753.102	7.62
753.851	8.62
754.6	9.62
755.349	7.62
756.098	11.62
756.847	8.62
757.595	7.62
758.344	8.62
759.093	7.62
759.841	9.62
760.589	7.62
761.338	9.62
762.086	8.62
762.834	10.62
763.582	7.62
764.331	8.62
765.079	11.62
765.826	7.62
766.574	10.62
767.322	12.62
768.07	10.62
768.817	10.62
769.565	9.62
770.312	10.62
771.06	10.62
771.807	10.62
772.554	9.62
773.302	9.62
774.049	11.62
774.796	10.62
775.543	11.62
776.29	10.62
777.036	11.62
777.783	9.62
778.53	9.62
779.276	11.62
780.023	10.62
780.769	10.62
781.516	10.62
782.262	12.62
783.008	12.62
783.754	10.62
784.5	12.62
785.246	10.62
785.992	11.62
786.738	10.62
787.484	10.62
788.23	10.62
788.975	11.62
789.721	13.62
790.466	12.62
791.212	10.62
791.957	12.62
792.702	10.62
793.447	11.62
794.193	11.62
794.938	12.62
795.683	10.62
796.427	8.62
797.172	9.62
797.917	10.62
798.662	9.62
799.406	9.62
800.151	8.62
800.895	10.62
801.64	7.62
802.384	9.62
803.128	9.62
803.872	8.62
804.616	8.62
805.36	8.62
806.104	7.62
806.848	10.62
807.592	8.62
808.336	9.62
809.079	7.62
809.823	8.62
810.566	4.62
811.31	8.62
812.053	6.62
812.796	7.62
813.539	5.62
814.283	7.62
815.026	6.62
815.769	5.62
816.511	7.62
817.254	6.62
817.997	7.62
818.74	5.62
819.482	7.62
820.225	7.62
820.967	6.62
821.71	8.62
822.452	6.62
823.194	7.62
823.936	7.62
824.678	6.62
825.42	8.62
826.162	6.62
826.904	6.62
827.646	7.62
828.388	3.62
829.129	7.62
829.871	5.62
830.612	8.62
831.354	6.62
832.095	5.62
832.836	6.62
833.577	4.62
834.319	5.62
835.06	5.62
835.801	4.62
836.542	4.62
837.282	6.62
838.023	3.62
838.764	5.62
839.504	6.62
840.245	6.62
840.985	5.62
841.726	7.62
842.466	5.62
843.206	4.62
843.946	4.62
844.687	4.62
845.427	2.62
846.166	3.62
846.906	5.62
847.646	4.62
848.386	6.62
849.125	3.62
849.865	1.62
850.605	5.62
851.344	3.62
852.083	4.62
852.823	4.62
853.562	4.62
854.301	3.62
855.04	4.62
855.779	5.62
856.518	4.62
857.257	3.62
857.995	4.62
858.734	3.62
859.473	5.62
860.211	3.62
860.95	5.62
861.688	3.62
862.426	2.62
863.165	3.62
863.903	0.62
864.641	5.62
865.379	1.62
866.117	3.62
866.855	3.62
867.593	4.62
868.33	4.62
869.068	2.62
869.806	2.62
870.543	3.62
871.28	4.62
872.018	2.62
872.755	1.62
873.492	3.62
874.229	0.62
874.967	1.62
875.703	1.62
876.44	2.62
877.177	3.62
877.914	1.62
878.651	4.62
879.387	3.62
880.124	2.62
880.86	1.62
881.597	1.62
882.333	3.62
883.069	1.62
883.806	4.62
884.542	-0.38
885.278	3.62
886.014	3.62
886.749	1.62
887.485	1.62
888.221	2.62
888.957	3.62
889.692	1.62
890.428	3.62
891.163	1.62
891.899	1.62
892.634	1.62
893.369	3.62
894.104	3.62
894.839	3.62
895.574	1.62
896.309	2.62
897.044	0.62
897.779	2.62
898.514	1.62
899.248	2.62
899.983	0.62
900.717	0.62
901.452	2.62
902.186	1.62
902.92	3.62
903.654	1.62
904.389	0.62
905.123	1.62
905.857	1.62
906.59	3.62
907.324	2.62
908.058	0.62
908.792	2.62
909.525	-0.38
910.259	2.62
910.992	-0.38
911.726	1.62
912.459	1.62
913.192	1.62
913.925	2.62
914.658	1.62
915.391	2.62
916.124	-0.38
916.857	0.62
917.59	3.62
918.323	3.62
919.055	3.62
919.788	1.62
920.521	1.62
921.253	2.62
921.985	1.62
922.718	1.62
923.45	2.62
924.182	0.62
924.914	1.62
925.646	1.62
926.378	0.62
927.11	0.62
927.841	1.62
928.573	1.62
929.305	-1.38
930.036	1.62
930.768	1.62
931.499	3.62
932.23	1.62
932.962	2.62
933.693	1.62
934.424	-0.38
935.155	0.62
935.886	1.62
936.617	3.62
937.348	1.62
938.078	1.62
938.809	0.62
939.54	0.62
940.27	2.62
941.001	0.62
941.731	0.62
942.461	-0.38
943.191	2.62
943.922	1.62
944.652	2.62
945.382	3.62
946.112	3.62
946.841	1.62
947.571	3.62
948.301	0.62
949.031	2.62
949.76	3.62
950.49	0.62
951.219	0.62
951.948	0.62
952.678	2.62
953.407	0.62
954.136	4.62
954.865	-0.38
955.594	1.62
956.323	3.62
957.052	0.62
957.78	1.62
958.509	2.62
959.238	1.62
959.966	1.62
960.695	-0.38
961.423	3.62
962.151	2.62
962.88	5.62
963.608	0.62
964.336	-0.38
965.064	1.62
965.792	-1.38
966.52	1.62
967.247	2.62
967.975	3.62
968.703	-0.38
969.43	0.62
970.158	4.62
970.885	0.62
971.613	2.62
972.34	1.62
973.067	-0.38
973.794	-0.38
974.521	1.62
975.248	1.62
975.975	1.62
976.702	3.62
977.429	0.62
978.156	1.62
978.882	1.62
979.609	1.62
980.335	0.62
981.062	2.62
981.788	1.62
982.514	1.62
983.24	2.62
983.967	1.62
984.693	3.62
985.419	0.62
986.144	3.62
986.87	1.62
987.596	0.62
988.322	2.62
989.047	4.62
989.773	0.62
990.498	1.62
991.224	1.62
991.949	0.62
992.674	-0.38
993.399	0.62
994.124	5.62
994.849	-0.38
995.574	0.62
996.299	3.62
997.024	0.62
997.749	1.62
998.473	-0.38
999.198	-0.38
999.922	3.62
1000.647	-0.38
1001.371	4.62
1002.095	-1.38
1002.82	-0.38
1003.544	-0.38
1004.268	3.62
1004.992	2.62
1005.716	0.62
1006.439	3.62
1007.163	3.62
1007.887	4.62
1008.611	3.62
1009.334	2.62
1010.058	3.62
1010.781	2.62
1011.504	1.62
1012.228	0.62
1012.951	0.62
1013.674	1.62
1014.397	-3.38
1015.12	-1.38
