节点500_425_QEPB04081__385__15-54-42-755.txt的数据

Date: Wed Nov 12 15:54:42 CST 2025
User: PC
Spectrometer: QEPB0408
触发模式: 0
积分时间 (秒): 1.000000E-2
Scans to average: 1
启用暗噪声校正: true
启用非线性校正: false
滑动平均宽度: 0
X轴模式: Wavelengths
Number of Pixels in Spectrum: 1044
>>>>>Begin Spectral Data<<<<<
220.843	0.88
221.644	-0.12
222.444	4.88
223.244	2.88
224.045	4.88
224.845	0.88
225.645	3.88
226.445	5.88
227.245	2.88
228.045	4.88
228.845	-0.12
229.645	1.88
230.444	3.88
231.244	4.88
232.043	5.88
232.843	4.88
233.642	2.88
234.442	4.88
235.241	5.88
236.04	5.88
236.839	4.88
237.638	5.88
238.437	4.88
239.236	6.88
240.035	7.88
240.833	5.88
241.632	6.88
242.43	4.88
243.229	5.88
244.027	7.88
244.826	9.88
245.624	6.88
246.422	5.88
247.22	9.88
248.018	6.88
248.816	7.88
249.614	8.88
250.412	6.88
251.21	9.88
252.007	10.88
252.805	10.88
253.602	10.88
254.4	9.88
255.197	9.88
255.994	9.88
256.791	9.88
257.589	10.88
258.386	13.88
259.183	11.88
259.979	13.88
260.776	14.88
261.573	12.88
262.37	13.88
263.166	15.88
263.963	15.88
264.759	13.88
265.556	17.88
266.352	18.88
267.148	14.88
267.944	19.88
268.74	19.88
269.536	14.88
270.332	19.88
271.128	17.88
271.924	17.88
272.719	17.88
273.515	20.88
274.311	19.88
275.106	23.88
275.901	21.88
276.697	20.88
277.492	22.88
278.287	21.88
279.082	21.88
279.877	25.88
280.672	23.88
281.467	25.88
282.262	21.88
283.056	25.88
283.851	24.88
284.646	23.88
285.44	21.88
286.234	19.88
287.029	23.88
287.823	23.88
288.617	22.88
289.411	20.88
290.205	17.88
290.999	22.88
291.793	23.88
292.587	22.88
293.381	20.88
294.174	21.88
294.968	21.88
295.761	20.88
296.555	19.88
297.348	18.88
298.141	19.88
298.935	19.88
299.728	16.88
300.521	20.88
301.314	16.88
302.107	18.88
302.899	15.88
303.692	13.88
304.485	16.88
305.277	17.88
306.07	16.88
306.862	10.88
307.655	15.88
308.447	15.88
309.239	17.88
310.031	14.88
310.823	14.88
311.615	12.88
312.407	13.88
313.199	12.88
313.991	9.88
314.783	9.88
315.574	9.88
316.366	9.88
317.157	9.88
317.949	8.88
318.74	10.88
319.531	9.88
320.322	8.88
321.113	10.88
321.904	7.88
322.695	9.88
323.486	8.88
324.277	9.88
325.068	10.88
325.858	6.88
326.649	9.88
327.439	11.88
328.23	9.88
329.02	8.88
329.81	9.88
330.6	7.88
331.391	7.88
332.181	10.88
332.971	8.88
333.76	7.88
334.55	8.88
335.34	5.88
336.13	9.88
336.919	8.88
337.709	9.88
338.498	8.88
339.287	6.88
340.077	6.88
340.866	7.88
341.655	8.88
342.444	7.88
343.233	6.88
344.022	7.88
344.811	6.88
345.6	6.88
346.388	7.88
347.177	5.88
347.965	8.88
348.754	6.88
349.542	9.88
350.33	6.88
351.119	9.88
351.907	5.88
352.695	6.88
353.483	7.88
354.271	5.88
355.059	6.88
355.846	8.88
356.634	5.88
357.422	6.88
358.209	5.88
358.997	4.88
359.784	7.88
360.571	6.88
361.359	6.88
362.146	6.88
362.933	6.88
363.72	6.88
364.507	7.88
365.294	5.88
366.081	6.88
366.867	6.88
367.654	2.88
368.44	5.88
369.227	7.88
370.013	9.88
370.8	8.88
371.586	3.88
372.372	6.88
373.158	6.88
373.944	6.88
374.73	6.88
375.516	3.88
376.302	3.88
377.088	5.88
377.873	5.88
378.659	7.88
379.445	6.88
380.23	4.88
381.015	5.88
381.801	7.88
382.586	6.88
383.371	6.88
384.156	6.88
384.941	8.88
385.726	6.88
386.511	3.88
387.296	7.88
388.08	7.88
388.865	6.88
389.649	4.88
390.434	6.88
391.218	5.88
392.003	6.88
392.787	7.88
393.571	6.88
394.355	6.88
395.139	7.88
395.923	8.88
396.707	8.88
397.491	7.88
398.274	8.88
399.058	8.88
399.842	8.88
400.625	7.88
401.408	9.88
402.192	10.88
402.975	11.88
403.758	7.88
404.541	9.88
405.324	6.88
406.107	11.88
406.89	8.88
407.673	10.88
408.456	9.88
409.238	8.88
410.021	11.88
410.803	9.88
411.586	13.88
412.368	11.88
413.151	12.88
413.933	10.88
414.715	7.88
415.497	11.88
416.279	9.88
417.061	11.88
417.843	11.88
418.624	10.88
419.406	13.88
420.188	13.88
420.969	15.88
421.751	12.88
422.532	13.88
423.313	15.88
424.095	14.88
424.876	15.88
425.657	15.88
426.438	16.88
427.219	15.88
428	15.88
428.78	19.88
429.561	16.88
430.342	17.88
431.122	18.88
431.903	19.88
432.683	19.88
433.464	19.88
434.244	21.88
435.024	23.88
435.804	27.88
436.584	25.88
437.364	26.88
438.144	28.88
438.924	26.88
439.704	30.88
440.483	32.88
441.263	34.88
442.042	37.88
442.822	39.88
443.601	42.88
444.38	45.88
445.16	47.88
445.939	56.88
446.718	56.88
447.497	57.88
448.276	67.88
449.054	76.88
449.833	78.88
450.612	84.88
451.391	93.88
452.169	104.88
452.948	115.88
453.726	125.88
454.504	137.88
455.282	149.88
456.061	172.88
456.839	188.88
457.617	214.88
458.395	236.88
459.172	261.88
459.95	293.88
460.728	331.88
461.506	363.88
462.283	411.88
463.061	454.88
463.838	503.88
464.615	575.88
465.393	627.88
466.17	699.88
466.947	782.88
467.724	873.88
468.501	963.88
469.278	1061.88
470.055	1172.88
470.831	1290.88
471.608	1451.88
472.385	1601.88
473.161	1782.88
473.938	1967.88
474.714	2155.88
475.49	2372.88
476.266	2604.88
477.043	2860.88
477.819	3146.88
478.595	3470.88
479.371	3786.88
480.146	4162.88
480.922	4564.88
481.698	4981.88
482.473	5452.88
483.249	5959.88
484.024	6522.88
484.8	7148.88
485.575	7761.88
486.35	8457.88
487.126	9173.88
487.901	10021.88
488.676	10899.88
489.451	11839.88
490.225	12814.88
491	13840.88
491.775	14979.88
492.55	16155.88
493.324	17448.88
494.099	18669.88
494.873	19905.88
495.647	21282.88
496.422	22572.88
497.196	23921.88
497.97	25433.88
498.744	26824.88
499.518	28065.88
500.292	29283.88
501.066	30419.88
501.839	31557.88
502.613	32460.88
503.387	33201.88
504.16	33820.88
504.934	34296.88
505.707	34395.88
506.48	34353.88
507.253	34150.88
508.027	33929.88
508.8	33489.88
509.573	32854.88
510.346	32117.88
511.118	31224.88
511.891	30343.88
512.664	29238.88
513.437	28225.88
514.209	27112.88
514.982	26154.88
515.754	25098.88
516.526	24023.88
517.298	23038.88
518.071	22076.88
518.843	21227.88
519.615	20273.88
520.387	19527.88
521.159	18786.88
521.93	18125.88
522.702	17380.88
523.474	16664.88
524.245	16061.88
525.017	15259.88
525.788	14559.88
526.56	13968.88
527.331	13341.88
528.102	12742.88
528.873	12175.88
529.644	11566.88
530.415	11064.88
531.186	10528.88
531.957	9944.88
532.728	9453.88
533.498	8931.88
534.269	8463.88
535.039	8012.88
535.81	7560.88
536.58	7175.88
537.351	6756.88
538.121	6386.88
538.891	6063.88
539.661	5685.88
540.431	5428.88
541.201	5159.88
541.971	4891.88
542.741	4604.88
543.51	4398.88
544.28	4169.88
545.05	3953.88
545.819	3772.88
546.588	3609.88
547.358	3381.88
548.127	3224.88
548.896	3053.88
549.665	2910.88
550.434	2774.88
551.203	2632.88
551.972	2488.88
552.741	2349.88
553.51	2221.88
554.278	2091.88
555.047	1962.88
555.815	1879.88
556.584	1760.88
557.352	1666.88
558.121	1579.88
558.889	1483.88
559.657	1401.88
560.425	1326.88
561.193	1250.88
561.961	1198.88
562.729	1127.88
563.496	1066.88
564.264	1009.88
565.032	948.88
565.799	893.88
566.567	846.88
567.334	797.88
568.101	766.88
568.869	717.88
569.636	673.88
570.403	637.88
571.17	600.88
571.937	570.88
572.704	546.88
573.471	512.88
574.237	475.88
575.004	442.88
575.771	422.88
576.537	384.88
577.303	379.88
578.07	352.88
578.836	336.88
579.602	315.88
580.368	294.88
581.134	278.88
581.9	267.88
582.666	250.88
583.432	242.88
584.198	233.88
584.964	220.88
585.729	207.88
586.495	195.88
587.26	185.88
588.025	175.88
588.791	165.88
589.556	159.88
590.321	150.88
591.086	145.88
591.851	137.88
592.616	132.88
593.381	119.88
594.146	114.88
594.911	110.88
595.675	106.88
596.44	100.88
597.204	95.88
597.969	96.88
598.733	87.88
599.497	83.88
600.261	84.88
601.025	77.88
601.79	76.88
602.553	70.88
603.317	69.88
604.081	63.88
604.845	60.88
605.609	58.88
606.372	57.88
607.136	54.88
607.899	47.88
608.662	52.88
609.426	46.88
610.189	44.88
610.952	39.88
611.715	42.88
612.478	43.88
613.241	35.88
614.004	40.88
614.767	35.88
615.529	32.88
616.292	33.88
617.055	34.88
617.817	32.88
618.579	30.88
619.342	30.88
620.104	29.88
620.866	27.88
621.628	28.88
622.39	28.88
623.152	23.88
623.914	24.88
624.676	21.88
625.438	24.88
626.199	22.88
626.961	23.88
627.722	20.88
628.484	19.88
629.245	14.88
630.006	17.88
630.768	17.88
631.529	15.88
632.29	16.88
633.051	16.88
633.812	15.88
634.573	16.88
635.333	15.88
636.094	14.88
636.855	14.88
637.615	9.88
638.376	10.88
639.136	13.88
639.896	12.88
640.657	14.88
641.417	11.88
642.177	13.88
642.937	10.88
643.697	11.88
644.457	7.88
645.216	11.88
645.976	10.88
646.736	9.88
647.495	8.88
648.255	7.88
649.014	10.88
649.774	9.88
650.533	9.88
651.292	8.88
652.051	9.88
652.81	7.88
653.569	8.88
654.328	10.88
655.087	6.88
655.846	7.88
656.604	7.88
657.363	8.88
658.121	7.88
658.88	6.88
659.638	9.88
660.397	6.88
661.155	5.88
661.913	5.88
662.671	6.88
663.429	7.88
664.187	6.88
664.945	5.88
665.703	8.88
666.46	7.88
667.218	7.88
667.976	5.88
668.733	5.88
669.49	6.88
670.248	6.88
671.005	8.88
671.762	4.88
672.519	5.88
673.276	4.88
674.033	4.88
674.79	4.88
675.547	5.88
676.304	3.88
677.06	3.88
677.817	4.88
678.574	3.88
679.33	6.88
680.086	5.88
680.843	5.88
681.599	6.88
682.355	3.88
683.111	5.88
683.867	3.88
684.623	3.88
685.379	5.88
686.135	3.88
686.89	7.88
687.646	4.88
688.402	5.88
689.157	3.88
689.912	2.88
690.668	4.88
691.423	1.88
692.178	6.88
692.933	4.88
693.688	3.88
694.443	5.88
695.198	2.88
695.953	3.88
696.708	1.88
697.462	5.88
698.217	3.88
698.972	2.88
699.726	5.88
700.48	3.88
701.235	3.88
701.989	3.88
702.743	2.88
703.497	3.88
704.251	5.88
705.005	4.88
705.759	6.88
706.513	3.88
707.266	4.88
708.02	4.88
708.774	3.88
709.527	4.88
710.28	5.88
711.034	5.88
711.787	3.88
712.54	3.88
713.293	4.88
714.046	7.88
714.799	3.88
715.552	4.88
716.305	6.88
717.058	4.88
717.81	6.88
718.563	2.88
719.315	2.88
720.068	5.88
720.82	4.88
721.573	6.88
722.325	2.88
723.077	5.88
723.829	4.88
724.581	7.88
725.333	4.88
726.085	5.88
726.836	3.88
727.588	3.88
728.34	3.88
729.091	5.88
729.843	5.88
730.594	5.88
731.346	1.88
732.097	4.88
732.848	6.88
733.599	6.88
734.35	6.88
735.101	4.88
735.852	5.88
736.603	4.88
737.354	6.88
738.104	6.88
738.855	3.88
739.605	5.88
740.356	4.88
741.106	6.88
741.856	6.88
742.607	7.88
743.357	5.88
744.107	6.88
744.857	4.88
745.607	3.88
746.357	5.88
747.106	5.88
747.856	5.88
748.606	8.88
749.355	6.88
750.105	5.88
750.854	7.88
751.603	6.88
752.353	6.88
753.102	7.88
753.851	9.88
754.6	5.88
755.349	6.88
756.098	3.88
756.847	6.88
757.595	7.88
758.344	5.88
759.093	7.88
759.841	7.88
760.589	3.88
761.338	8.88
762.086	5.88
762.834	5.88
763.582	8.88
764.331	7.88
765.079	8.88
765.826	9.88
766.574	8.88
767.322	8.88
768.07	9.88
768.817	8.88
769.565	8.88
770.312	9.88
771.06	8.88
771.807	9.88
772.554	8.88
773.302	10.88
774.049	9.88
774.796	9.88
775.543	10.88
776.29	10.88
777.036	10.88
777.783	5.88
778.53	9.88
779.276	9.88
780.023	10.88
780.769	8.88
781.516	10.88
782.262	10.88
783.008	9.88
783.754	9.88
784.5	7.88
785.246	11.88
785.992	11.88
786.738	9.88
787.484	9.88
788.23	10.88
788.975	11.88
789.721	10.88
790.466	8.88
791.212	11.88
791.957	9.88
792.702	11.88
793.447	11.88
794.193	8.88
794.938	12.88
795.683	9.88
796.427	11.88
797.172	8.88
797.917	7.88
798.662	8.88
799.406	7.88
800.151	9.88
800.895	8.88
801.64	7.88
802.384	7.88
803.128	7.88
803.872	6.88
804.616	6.88
805.36	7.88
806.104	7.88
806.848	7.88
807.592	7.88
808.336	6.88
809.079	7.88
809.823	6.88
810.566	4.88
811.31	6.88
812.053	6.88
812.796	9.88
813.539	6.88
814.283	4.88
815.026	7.88
815.769	5.88
816.511	3.88
817.254	6.88
817.997	5.88
818.74	3.88
819.482	5.88
820.225	3.88
820.967	6.88
821.71	6.88
822.452	2.88
823.194	3.88
823.936	2.88
824.678	4.88
825.42	4.88
826.162	6.88
826.904	3.88
827.646	4.88
828.388	4.88
829.129	3.88
829.871	3.88
830.612	3.88
831.354	5.88
832.095	2.88
832.836	3.88
833.577	4.88
834.319	4.88
835.06	4.88
835.801	3.88
836.542	2.88
837.282	4.88
838.023	3.88
838.764	3.88
839.504	3.88
840.245	1.88
840.985	4.88
841.726	2.88
842.466	2.88
843.206	3.88
843.946	1.88
844.687	2.88
845.427	-0.12
846.166	5.88
846.906	3.88
847.646	2.88
848.386	2.88
849.125	1.88
849.865	2.88
850.605	4.88
851.344	1.88
852.083	3.88
852.823	2.88
853.562	2.88
854.301	1.88
855.04	1.88
855.779	0.88
856.518	1.88
857.257	1.88
857.995	1.88
858.734	2.88
859.473	1.88
860.211	2.88
860.95	1.88
861.688	3.88
862.426	1.88
863.165	2.88
863.903	2.88
864.641	1.88
865.379	2.88
866.117	1.88
866.855	0.88
867.593	2.88
868.33	-0.12
869.068	2.88
869.806	1.88
870.543	3.88
871.28	2.88
872.018	2.88
872.755	2.88
873.492	0.88
874.229	0.88
874.967	1.88
875.703	-0.12
876.44	1.88
877.177	2.88
877.914	1.88
878.651	2.88
879.387	1.88
880.124	1.88
880.86	1.88
881.597	-0.12
882.333	-1.12
883.069	-0.12
883.806	-0.12
884.542	-0.12
885.278	0.88
886.014	-0.12
886.749	-0.12
887.485	0.88
888.221	2.88
888.957	-1.12
889.692	1.88
890.428	1.88
891.163	1.88
891.899	-0.12
892.634	-2.12
893.369	-0.12
894.104	1.88
894.839	-1.12
895.574	1.88
896.309	0.88
897.044	-0.12
897.779	1.88
898.514	-0.12
899.248	0.88
899.983	0.88
900.717	1.88
901.452	-1.12
902.186	-0.12
902.92	-1.12
903.654	-0.12
904.389	0.88
905.123	0.88
905.857	0.88
906.59	-1.12
907.324	0.88
908.058	-0.12
908.792	0.88
909.525	0.88
910.259	-1.12
910.992	-1.12
911.726	-2.12
912.459	0.88
913.192	-0.12
913.925	-0.12
914.658	-0.12
915.391	-0.12
916.124	-2.12
916.857	2.88
917.59	-2.12
918.323	-0.12
919.055	0.88
919.788	0.88
920.521	0.88
921.253	-0.12
921.985	0.88
922.718	-2.12
923.45	-1.12
924.182	-0.12
924.914	-1.12
925.646	1.88
926.378	1.88
927.11	-2.12
927.841	0.88
928.573	-1.12
929.305	-0.12
930.036	-2.12
930.768	0.88
931.499	-0.12
932.23	-0.12
932.962	0.88
933.693	1.88
934.424	0.88
935.155	-1.12
935.886	-0.12
936.617	-0.12
937.348	-3.12
938.078	-2.12
938.809	-0.12
939.54	-1.12
940.27	0.88
941.001	-1.12
941.731	0.88
942.461	-0.12
943.191	0.88
943.922	-0.12
944.652	-0.12
945.382	-1.12
946.112	-0.12
946.841	-0.12
947.571	-0.12
948.301	-1.12
949.031	-0.12
949.76	-1.12
950.49	-0.12
951.219	-1.12
951.948	-0.12
952.678	-4.12
953.407	2.88
954.136	0.88
954.865	-3.12
955.594	-0.12
956.323	0.88
957.052	-0.12
957.78	-0.12
958.509	-1.12
959.238	-0.12
959.966	-0.12
960.695	-1.12
961.423	0.88
962.151	0.88
962.88	-0.12
963.608	1.88
964.336	-1.12
965.064	0.88
965.792	-0.12
966.52	0.88
967.247	1.88
967.975	-0.12
968.703	-1.12
969.43	-0.12
970.158	-2.12
970.885	0.88
971.613	-0.12
972.34	-0.12
973.067	-0.12
973.794	-2.12
974.521	-1.12
975.248	0.88
975.975	0.88
976.702	2.88
977.429	-2.12
978.156	0.88
978.882	-0.12
979.609	-1.12
980.335	-1.12
981.062	0.88
981.788	-0.12
982.514	0.88
983.24	0.88
983.967	-2.12
984.693	0.88
985.419	0.88
986.144	0.88
986.87	0.88
987.596	1.88
988.322	0.88
989.047	-1.12
989.773	0.88
990.498	0.88
991.224	-0.12
991.949	-2.12
992.674	0.88
993.399	-0.12
994.124	-0.12
994.849	-0.12
995.574	0.88
996.299	0.88
997.024	1.88
997.749	-1.12
998.473	-0.12
999.198	-0.12
999.922	0.88
1000.647	1.88
1001.371	3.88
1002.095	-1.12
1002.82	0.88
1003.544	-3.12
1004.268	1.88
1004.992	2.88
1005.716	1.88
1006.439	1.88
1007.163	0.88
1007.887	3.88
1008.611	-2.12
1009.334	-0.12
1010.058	-0.12
1010.781	-2.12
1011.504	-2.12
1012.228	-0.12
1012.951	0.88
1013.674	-1.12
1014.397	-0.12
1015.12	-0.12
