节点500_425_QEPB04081__494__15-56-31-581.txt的数据

Date: Wed Nov 12 15:56:31 CST 2025
User: PC
Spectrometer: QEPB0408
触发模式: 0
积分时间 (秒): 1.000000E-2
Scans to average: 1
启用暗噪声校正: true
启用非线性校正: false
滑动平均宽度: 0
X轴模式: Wavelengths
Number of Pixels in Spectrum: 1044
>>>>>Begin Spectral Data<<<<<
220.843	5.62
221.644	3.62
222.444	4.62
223.244	3.62
224.045	4.62
224.845	4.62
225.645	2.62
226.445	2.62
227.245	4.62
228.045	4.62
228.845	4.62
229.645	3.62
230.444	4.62
231.244	7.62
232.043	4.62
232.843	5.62
233.642	3.62
234.442	6.62
235.241	4.62
236.04	7.62
236.839	5.62
237.638	4.62
238.437	5.62
239.236	6.62
240.035	6.62
240.833	6.62
241.632	6.62
242.43	5.62
243.229	5.62
244.027	7.62
244.826	7.62
245.624	8.62
246.422	7.62
247.22	8.62
248.018	7.62
248.816	7.62
249.614	11.62
250.412	8.62
251.21	10.62
252.007	7.62
252.805	9.62
253.602	10.62
254.4	10.62
255.197	10.62
255.994	12.62
256.791	9.62
257.589	11.62
258.386	9.62
259.183	12.62
259.979	12.62
260.776	13.62
261.573	14.62
262.37	12.62
263.166	16.62
263.963	14.62
264.759	14.62
265.556	14.62
266.352	16.62
267.148	18.62
267.944	16.62
268.74	19.62
269.536	18.62
270.332	18.62
271.128	18.62
271.924	20.62
272.719	19.62
273.515	19.62
274.311	19.62
275.106	19.62
275.901	22.62
276.697	24.62
277.492	21.62
278.287	23.62
279.082	21.62
279.877	24.62
280.672	24.62
281.467	20.62
282.262	20.62
283.056	22.62
283.851	23.62
284.646	22.62
285.44	24.62
286.234	21.62
287.029	20.62
287.823	25.62
288.617	21.62
289.411	23.62
290.205	25.62
290.999	24.62
291.793	22.62
292.587	22.62
293.381	21.62
294.174	22.62
294.968	23.62
295.761	19.62
296.555	18.62
297.348	20.62
298.141	19.62
298.935	21.62
299.728	20.62
300.521	23.62
301.314	18.62
302.107	19.62
302.899	17.62
303.692	17.62
304.485	18.62
305.277	15.62
306.07	14.62
306.862	17.62
307.655	18.62
308.447	16.62
309.239	14.62
310.031	15.62
310.823	12.62
311.615	12.62
312.407	15.62
313.199	12.62
313.991	11.62
314.783	12.62
315.574	10.62
316.366	12.62
317.157	10.62
317.949	10.62
318.74	12.62
319.531	9.62
320.322	11.62
321.113	10.62
321.904	9.62
322.695	10.62
323.486	9.62
324.277	10.62
325.068	8.62
325.858	10.62
326.649	9.62
327.439	8.62
328.23	9.62
329.02	10.62
329.81	9.62
330.6	10.62
331.391	7.62
332.181	9.62
332.971	8.62
333.76	7.62
334.55	8.62
335.34	7.62
336.13	9.62
336.919	10.62
337.709	7.62
338.498	8.62
339.287	9.62
340.077	10.62
340.866	9.62
341.655	7.62
342.444	9.62
343.233	8.62
344.022	4.62
344.811	8.62
345.6	8.62
346.388	9.62
347.177	6.62
347.965	9.62
348.754	7.62
349.542	9.62
350.33	6.62
351.119	9.62
351.907	6.62
352.695	8.62
353.483	4.62
354.271	8.62
355.059	9.62
355.846	7.62
356.634	6.62
357.422	8.62
358.209	6.62
358.997	7.62
359.784	7.62
360.571	8.62
361.359	7.62
362.146	7.62
362.933	7.62
363.72	7.62
364.507	8.62
365.294	5.62
366.081	6.62
366.867	7.62
367.654	5.62
368.44	7.62
369.227	5.62
370.013	8.62
370.8	6.62
371.586	7.62
372.372	6.62
373.158	9.62
373.944	7.62
374.73	7.62
375.516	6.62
376.302	6.62
377.088	8.62
377.873	7.62
378.659	7.62
379.445	6.62
380.23	7.62
381.015	6.62
381.801	8.62
382.586	8.62
383.371	7.62
384.156	7.62
384.941	7.62
385.726	8.62
386.511	8.62
387.296	7.62
388.08	7.62
388.865	7.62
389.649	7.62
390.434	9.62
391.218	5.62
392.003	8.62
392.787	8.62
393.571	9.62
394.355	8.62
395.139	7.62
395.923	7.62
396.707	8.62
397.491	9.62
398.274	9.62
399.058	11.62
399.842	8.62
400.625	7.62
401.408	10.62
402.192	10.62
402.975	9.62
403.758	9.62
404.541	10.62
405.324	9.62
406.107	9.62
406.89	10.62
407.673	9.62
408.456	12.62
409.238	12.62
410.021	9.62
410.803	10.62
411.586	10.62
412.368	10.62
413.151	13.62
413.933	12.62
414.715	12.62
415.497	11.62
416.279	12.62
417.061	12.62
417.843	13.62
418.624	12.62
419.406	12.62
420.188	13.62
420.969	14.62
421.751	13.62
422.532	16.62
423.313	13.62
424.095	16.62
424.876	14.62
425.657	16.62
426.438	15.62
427.219	18.62
428	15.62
428.78	17.62
429.561	18.62
430.342	18.62
431.122	21.62
431.903	24.62
432.683	19.62
433.464	19.62
434.244	26.62
435.024	22.62
435.804	27.62
436.584	25.62
437.364	26.62
438.144	28.62
438.924	30.62
439.704	32.62
440.483	34.62
441.263	35.62
442.042	38.62
442.822	41.62
443.601	44.62
444.38	48.62
445.16	51.62
445.939	53.62
446.718	62.62
447.497	62.62
448.276	71.62
449.054	77.62
449.833	83.62
450.612	90.62
451.391	101.62
452.169	107.62
452.948	120.62
453.726	134.62
454.504	148.62
455.282	163.62
456.061	179.62
456.839	199.62
457.617	230.62
458.395	244.62
459.172	276.62
459.95	305.62
460.728	338.62
461.506	380.62
462.283	423.62
463.061	476.62
463.838	526.62
464.615	588.62
465.393	652.62
466.17	722.62
466.947	808.62
467.724	890.62
468.501	990.62
469.278	1086.62
470.055	1204.62
470.831	1328.62
471.608	1460.62
472.385	1619.62
473.161	1782.62
473.938	1970.62
474.714	2168.62
475.49	2365.62
476.266	2621.62
477.043	2873.62
477.819	3135.62
478.595	3451.62
479.371	3767.62
480.146	4114.62
480.922	4509.62
481.698	4943.62
482.473	5345.62
483.249	5829.62
484.024	6371.62
484.8	6928.62
485.575	7536.62
486.35	8196.62
487.126	8863.62
487.901	9644.62
488.676	10425.62
489.451	11336.62
490.225	12253.62
491	13250.62
491.775	14315.62
492.55	15419.62
493.324	16611.62
494.099	17721.62
494.873	18855.62
495.647	20228.62
496.422	21471.62
497.196	22778.62
497.97	24164.62
498.744	25463.62
499.518	26729.62
500.292	27917.62
501.066	28979.62
501.839	30191.62
502.613	31220.62
503.387	31873.62
504.16	32601.62
504.934	33011.62
505.707	33309.62
506.48	33349.62
507.253	33194.62
508.027	33179.62
508.8	32799.62
509.573	32318.62
510.346	31669.62
511.118	30897.62
511.891	30123.62
512.664	29160.62
513.437	28181.62
514.209	27155.62
514.982	26229.62
515.754	25313.62
516.526	24249.62
517.298	23226.62
518.071	22284.62
518.843	21460.62
519.615	20581.62
520.387	19704.62
521.159	18905.62
521.93	18295.62
522.702	17551.62
523.474	16836.62
524.245	16193.62
525.017	15458.62
525.788	14790.62
526.56	14124.62
527.331	13493.62
528.102	12929.62
528.873	12354.62
529.644	11757.62
530.415	11218.62
531.186	10697.62
531.957	10212.62
532.728	9662.62
533.498	9126.62
534.269	8682.62
535.039	8188.62
535.81	7768.62
536.58	7334.62
537.351	6930.62
538.121	6524.62
538.891	6173.62
539.661	5899.62
540.431	5574.62
541.201	5281.62
541.971	5020.62
542.741	4751.62
543.51	4508.62
544.28	4272.62
545.05	4073.62
545.819	3865.62
546.588	3676.62
547.358	3482.62
548.127	3316.62
548.896	3148.62
549.665	3004.62
550.434	2836.62
551.203	2718.62
551.972	2554.62
552.741	2409.62
553.51	2296.62
554.278	2154.62
555.047	2051.62
555.815	1944.62
556.584	1826.62
557.352	1709.62
558.121	1635.62
558.889	1526.62
559.657	1453.62
560.425	1380.62
561.193	1298.62
561.961	1237.62
562.729	1163.62
563.496	1099.62
564.264	1033.62
565.032	987.62
565.799	932.62
566.567	874.62
567.334	833.62
568.101	780.62
568.869	740.62
569.636	701.62
570.403	671.62
571.17	634.62
571.937	591.62
572.704	557.62
573.471	532.62
574.237	496.62
575.004	469.62
575.771	436.62
576.537	418.62
577.303	394.62
578.07	369.62
578.836	342.62
579.602	324.62
580.368	317.62
581.134	290.62
581.9	283.62
582.666	266.62
583.432	249.62
584.198	243.62
584.964	223.62
585.729	219.62
586.495	200.62
587.26	190.62
588.025	186.62
588.791	168.62
589.556	165.62
590.321	146.62
591.086	141.62
591.851	141.62
592.616	132.62
593.381	125.62
594.146	121.62
594.911	117.62
595.675	112.62
596.44	106.62
597.204	95.62
597.969	97.62
598.733	95.62
599.497	85.62
600.261	80.62
601.025	80.62
601.79	74.62
602.553	74.62
603.317	72.62
604.081	63.62
604.845	61.62
605.609	62.62
606.372	58.62
607.136	53.62
607.899	57.62
608.662	52.62
609.426	48.62
610.189	47.62
610.952	43.62
611.715	45.62
612.478	43.62
613.241	41.62
614.004	37.62
614.767	38.62
615.529	37.62
616.292	33.62
617.055	37.62
617.817	34.62
618.579	34.62
619.342	30.62
620.104	29.62
620.866	31.62
621.628	27.62
622.39	26.62
623.152	26.62
623.914	26.62
624.676	25.62
625.438	24.62
626.199	25.62
626.961	21.62
627.722	21.62
628.484	23.62
629.245	21.62
630.006	18.62
630.768	18.62
631.529	19.62
632.29	16.62
633.051	18.62
633.812	19.62
634.573	14.62
635.333	17.62
636.094	16.62
636.855	15.62
637.615	15.62
638.376	13.62
639.136	16.62
639.896	12.62
640.657	15.62
641.417	10.62
642.177	14.62
642.937	10.62
643.697	11.62
644.457	9.62
645.216	9.62
645.976	10.62
646.736	13.62
647.495	13.62
648.255	10.62
649.014	9.62
649.774	9.62
650.533	8.62
651.292	9.62
652.051	8.62
652.81	11.62
653.569	12.62
654.328	9.62
655.087	8.62
655.846	9.62
656.604	8.62
657.363	9.62
658.121	7.62
658.88	5.62
659.638	7.62
660.397	7.62
661.155	7.62
661.913	8.62
662.671	7.62
663.429	8.62
664.187	7.62
664.945	8.62
665.703	8.62
666.46	5.62
667.218	4.62
667.976	8.62
668.733	7.62
669.49	8.62
670.248	6.62
671.005	6.62
671.762	8.62
672.519	7.62
673.276	6.62
674.033	7.62
674.79	6.62
675.547	8.62
676.304	7.62
677.06	7.62
677.817	3.62
678.574	6.62
679.33	5.62
680.086	6.62
680.843	6.62
681.599	5.62
682.355	6.62
683.111	3.62
683.867	4.62
684.623	5.62
685.379	6.62
686.135	6.62
686.89	4.62
687.646	5.62
688.402	4.62
689.157	2.62
689.912	4.62
690.668	3.62
691.423	6.62
692.178	7.62
692.933	5.62
693.688	6.62
694.443	6.62
695.198	5.62
695.953	3.62
696.708	6.62
697.462	7.62
698.217	4.62
698.972	6.62
699.726	6.62
700.48	5.62
701.235	4.62
701.989	5.62
702.743	3.62
703.497	4.62
704.251	5.62
705.005	4.62
705.759	4.62
706.513	4.62
707.266	5.62
708.02	7.62
708.774	5.62
709.527	4.62
710.28	6.62
711.034	2.62
711.787	5.62
712.54	4.62
713.293	2.62
714.046	4.62
714.799	5.62
715.552	3.62
716.305	6.62
717.058	4.62
717.81	5.62
718.563	5.62
719.315	4.62
720.068	6.62
720.82	8.62
721.573	3.62
722.325	3.62
723.077	3.62
723.829	4.62
724.581	5.62
725.333	3.62
726.085	3.62
726.836	5.62
727.588	4.62
728.34	5.62
729.091	3.62
729.843	7.62
730.594	6.62
731.346	6.62
732.097	4.62
732.848	5.62
733.599	7.62
734.35	4.62
735.101	5.62
735.852	6.62
736.603	5.62
737.354	6.62
738.104	4.62
738.855	4.62
739.605	4.62
740.356	5.62
741.106	6.62
741.856	8.62
742.607	6.62
743.357	6.62
744.107	7.62
744.857	6.62
745.607	6.62
746.357	7.62
747.106	4.62
747.856	5.62
748.606	7.62
749.355	9.62
750.105	6.62
750.854	8.62
751.603	6.62
752.353	7.62
753.102	7.62
753.851	7.62
754.6	7.62
755.349	6.62
756.098	3.62
756.847	6.62
757.595	6.62
758.344	6.62
759.093	6.62
759.841	9.62
760.589	6.62
761.338	10.62
762.086	9.62
762.834	8.62
763.582	7.62
764.331	7.62
765.079	9.62
765.826	8.62
766.574	5.62
767.322	9.62
768.07	7.62
768.817	8.62
769.565	9.62
770.312	12.62
771.06	8.62
771.807	7.62
772.554	9.62
773.302	6.62
774.049	10.62
774.796	9.62
775.543	11.62
776.29	9.62
777.036	8.62
777.783	11.62
778.53	9.62
779.276	10.62
780.023	10.62
780.769	12.62
781.516	9.62
782.262	10.62
783.008	11.62
783.754	9.62
784.5	10.62
785.246	15.62
785.992	10.62
786.738	7.62
787.484	10.62
788.23	11.62
788.975	10.62
789.721	11.62
790.466	10.62
791.212	10.62
791.957	12.62
792.702	10.62
793.447	9.62
794.193	10.62
794.938	9.62
795.683	9.62
796.427	13.62
797.172	11.62
797.917	9.62
798.662	8.62
799.406	8.62
800.151	11.62
800.895	10.62
801.64	9.62
802.384	8.62
803.128	10.62
803.872	9.62
804.616	8.62
805.36	7.62
806.104	7.62
806.848	7.62
807.592	8.62
808.336	6.62
809.079	8.62
809.823	8.62
810.566	6.62
811.31	6.62
812.053	6.62
812.796	6.62
813.539	8.62
814.283	6.62
815.026	6.62
815.769	8.62
816.511	8.62
817.254	4.62
817.997	4.62
818.74	7.62
819.482	4.62
820.225	5.62
820.967	7.62
821.71	3.62
822.452	7.62
823.194	3.62
823.936	5.62
824.678	3.62
825.42	4.62
826.162	7.62
826.904	4.62
827.646	4.62
828.388	5.62
829.129	7.62
829.871	3.62
830.612	4.62
831.354	6.62
832.095	5.62
832.836	3.62
833.577	4.62
834.319	2.62
835.06	4.62
835.801	3.62
836.542	3.62
837.282	5.62
838.023	3.62
838.764	6.62
839.504	5.62
840.245	4.62
840.985	3.62
841.726	4.62
842.466	4.62
843.206	5.62
843.946	5.62
844.687	3.62
845.427	8.62
846.166	5.62
846.906	3.62
847.646	4.62
848.386	3.62
849.125	4.62
849.865	3.62
850.605	3.62
851.344	1.62
852.083	3.62
852.823	2.62
853.562	2.62
854.301	4.62
855.04	5.62
855.779	3.62
856.518	1.62
857.257	2.62
857.995	4.62
858.734	1.62
859.473	0.62
860.211	4.62
860.95	2.62
861.688	3.62
862.426	3.62
863.165	3.62
863.903	3.62
864.641	1.62
865.379	5.62
866.117	2.62
866.855	1.62
867.593	3.62
868.33	2.62
869.068	3.62
869.806	2.62
870.543	1.62
871.28	1.62
872.018	2.62
872.755	2.62
873.492	0.62
874.229	1.62
874.967	0.62
875.703	3.62
876.44	1.62
877.177	3.62
877.914	2.62
878.651	1.62
879.387	2.62
880.124	1.62
880.86	3.62
881.597	0.62
882.333	0.62
883.069	0.62
883.806	0.62
884.542	3.62
885.278	3.62
886.014	-0.38
886.749	1.62
887.485	-1.38
888.221	0.62
888.957	2.62
889.692	1.62
890.428	1.62
891.163	0.62
891.899	0.62
892.634	-1.38
893.369	3.62
894.104	-1.38
894.839	2.62
895.574	0.62
896.309	0.62
897.044	2.62
897.779	-1.38
898.514	1.62
899.248	-0.38
899.983	1.62
900.717	1.62
901.452	-1.38
902.186	2.62
902.92	-0.38
903.654	0.62
904.389	0.62
905.123	0.62
905.857	0.62
906.59	0.62
907.324	2.62
908.058	0.62
908.792	0.62
909.525	1.62
910.259	0.62
910.992	2.62
911.726	1.62
912.459	-0.38
913.192	2.62
913.925	-0.38
914.658	2.62
915.391	-0.38
916.124	0.62
916.857	0.62
917.59	1.62
918.323	0.62
919.055	-1.38
919.788	2.62
920.521	2.62
921.253	0.62
921.985	-1.38
922.718	0.62
923.45	1.62
924.182	0.62
924.914	2.62
925.646	0.62
926.378	1.62
927.11	0.62
927.841	-2.38
928.573	2.62
929.305	-1.38
930.036	0.62
930.768	0.62
931.499	0.62
932.23	0.62
932.962	0.62
933.693	0.62
934.424	0.62
935.155	0.62
935.886	-0.38
936.617	-2.38
937.348	0.62
938.078	-0.38
938.809	-1.38
939.54	-0.38
940.27	-0.38
941.001	2.62
941.731	-1.38
942.461	-0.38
943.191	0.62
943.922	-0.38
944.652	-0.38
945.382	0.62
946.112	-0.38
946.841	-1.38
947.571	0.62
948.301	2.62
949.031	0.62
949.76	0.62
950.49	1.62
951.219	0.62
951.948	0.62
952.678	0.62
953.407	1.62
954.136	-0.38
954.865	-0.38
955.594	-2.38
956.323	1.62
957.052	-0.38
957.78	1.62
958.509	1.62
959.238	1.62
959.966	0.62
960.695	2.62
961.423	1.62
962.151	1.62
962.88	1.62
963.608	-0.38
964.336	0.62
965.064	-0.38
965.792	0.62
966.52	-0.38
967.247	1.62
967.975	-0.38
968.703	1.62
969.43	0.62
970.158	-1.38
970.885	0.62
971.613	-2.38
972.34	1.62
973.067	-0.38
973.794	1.62
974.521	0.62
975.248	-0.38
975.975	-1.38
976.702	-0.38
977.429	3.62
978.156	0.62
978.882	0.62
979.609	-0.38
980.335	0.62
981.062	0.62
981.788	-0.38
982.514	-0.38
983.24	-1.38
983.967	-1.38
984.693	0.62
985.419	0.62
986.144	-0.38
986.87	0.62
987.596	1.62
988.322	0.62
989.047	0.62
989.773	0.62
990.498	0.62
991.224	0.62
991.949	1.62
992.674	-1.38
993.399	-0.38
994.124	0.62
994.849	-0.38
995.574	1.62
996.299	-0.38
997.024	0.62
997.749	1.62
998.473	0.62
999.198	-1.38
999.922	1.62
1000.647	2.62
1001.371	4.62
1002.095	-1.38
1002.82	-1.38
1003.544	-1.38
1004.268	2.62
1004.992	0.62
1005.716	3.62
1006.439	1.62
1007.163	3.62
1007.887	3.62
1008.611	0.62
1009.334	1.62
1010.058	-0.38
1010.781	0.62
1011.504	-0.38
1012.228	-1.38
1012.951	-0.38
1013.674	-1.38
1014.397	2.62
1015.12	-1.38
