节点500_425_QEPB04081__199__15-51-37-106.txt的数据

Date: Wed Nov 12 15:51:37 CST 2025
User: PC
Spectrometer: QEPB0408
触发模式: 0
积分时间 (秒): 1.000000E-2
Scans to average: 1
启用暗噪声校正: true
启用非线性校正: false
滑动平均宽度: 0
X轴模式: Wavelengths
Number of Pixels in Spectrum: 1044
>>>>>Begin Spectral Data<<<<<
220.843	4.38
221.644	5.38
222.444	5.38
223.244	5.38
224.045	5.38
224.845	2.38
225.645	4.38
226.445	3.38
227.245	3.38
228.045	5.38
228.845	2.38
229.645	5.38
230.444	4.38
231.244	3.38
232.043	5.38
232.843	6.38
233.642	5.38
234.442	5.38
235.241	6.38
236.04	3.38
236.839	6.38
237.638	7.38
238.437	6.38
239.236	5.38
240.035	7.38
240.833	6.38
241.632	7.38
242.43	9.38
243.229	10.38
244.027	8.38
244.826	6.38
245.624	7.38
246.422	10.38
247.22	10.38
248.018	7.38
248.816	7.38
249.614	10.38
250.412	9.38
251.21	9.38
252.007	10.38
252.805	5.38
253.602	11.38
254.4	13.38
255.197	11.38
255.994	10.38
256.791	11.38
257.589	16.38
258.386	13.38
259.183	13.38
259.979	16.38
260.776	16.38
261.573	14.38
262.37	15.38
263.166	15.38
263.963	18.38
264.759	14.38
265.556	19.38
266.352	14.38
267.148	19.38
267.944	17.38
268.74	21.38
269.536	22.38
270.332	21.38
271.128	21.38
271.924	22.38
272.719	21.38
273.515	22.38
274.311	22.38
275.106	23.38
275.901	21.38
276.697	21.38
277.492	24.38
278.287	25.38
279.082	25.38
279.877	27.38
280.672	26.38
281.467	26.38
282.262	27.38
283.056	27.38
283.851	24.38
284.646	25.38
285.44	25.38
286.234	26.38
287.029	26.38
287.823	26.38
288.617	26.38
289.411	24.38
290.205	24.38
290.999	25.38
291.793	26.38
292.587	22.38
293.381	23.38
294.174	24.38
294.968	20.38
295.761	20.38
296.555	20.38
297.348	19.38
298.141	20.38
298.935	22.38
299.728	21.38
300.521	18.38
301.314	17.38
302.107	17.38
302.899	14.38
303.692	19.38
304.485	18.38
305.277	16.38
306.07	15.38
306.862	18.38
307.655	15.38
308.447	14.38
309.239	13.38
310.031	17.38
310.823	14.38
311.615	14.38
312.407	12.38
313.199	15.38
313.991	13.38
314.783	13.38
315.574	12.38
316.366	8.38
317.157	11.38
317.949	11.38
318.74	12.38
319.531	9.38
320.322	11.38
321.113	10.38
321.904	10.38
322.695	9.38
323.486	9.38
324.277	12.38
325.068	12.38
325.858	8.38
326.649	8.38
327.439	9.38
328.23	8.38
329.02	9.38
329.81	9.38
330.6	10.38
331.391	8.38
332.181	8.38
332.971	9.38
333.76	9.38
334.55	7.38
335.34	8.38
336.13	9.38
336.919	7.38
337.709	8.38
338.498	8.38
339.287	8.38
340.077	11.38
340.866	9.38
341.655	8.38
342.444	9.38
343.233	10.38
344.022	7.38
344.811	7.38
345.6	10.38
346.388	7.38
347.177	9.38
347.965	7.38
348.754	9.38
349.542	10.38
350.33	10.38
351.119	8.38
351.907	8.38
352.695	8.38
353.483	11.38
354.271	4.38
355.059	8.38
355.846	6.38
356.634	8.38
357.422	6.38
358.209	6.38
358.997	7.38
359.784	5.38
360.571	8.38
361.359	5.38
362.146	8.38
362.933	7.38
363.72	8.38
364.507	8.38
365.294	4.38
366.081	7.38
366.867	6.38
367.654	8.38
368.44	4.38
369.227	7.38
370.013	7.38
370.8	6.38
371.586	7.38
372.372	6.38
373.158	6.38
373.944	8.38
374.73	7.38
375.516	7.38
376.302	6.38
377.088	6.38
377.873	6.38
378.659	5.38
379.445	6.38
380.23	7.38
381.015	6.38
381.801	7.38
382.586	9.38
383.371	9.38
384.156	5.38
384.941	9.38
385.726	9.38
386.511	8.38
387.296	6.38
388.08	7.38
388.865	6.38
389.649	6.38
390.434	12.38
391.218	8.38
392.003	8.38
392.787	7.38
393.571	9.38
394.355	8.38
395.139	7.38
395.923	7.38
396.707	8.38
397.491	8.38
398.274	8.38
399.058	8.38
399.842	8.38
400.625	8.38
401.408	9.38
402.192	9.38
402.975	10.38
403.758	9.38
404.541	12.38
405.324	10.38
406.107	9.38
406.89	8.38
407.673	10.38
408.456	13.38
409.238	13.38
410.021	12.38
410.803	13.38
411.586	11.38
412.368	11.38
413.151	14.38
413.933	10.38
414.715	13.38
415.497	11.38
416.279	13.38
417.061	12.38
417.843	12.38
418.624	14.38
419.406	13.38
420.188	12.38
420.969	14.38
421.751	11.38
422.532	16.38
423.313	14.38
424.095	16.38
424.876	15.38
425.657	15.38
426.438	16.38
427.219	17.38
428	22.38
428.78	20.38
429.561	18.38
430.342	21.38
431.122	20.38
431.903	20.38
432.683	24.38
433.464	23.38
434.244	23.38
435.024	23.38
435.804	27.38
436.584	26.38
437.364	29.38
438.144	30.38
438.924	30.38
439.704	32.38
440.483	31.38
441.263	35.38
442.042	39.38
442.822	36.38
443.601	41.38
444.38	40.38
445.16	49.38
445.939	55.38
446.718	55.38
447.497	58.38
448.276	63.38
449.054	72.38
449.833	76.38
450.612	85.38
451.391	91.38
452.169	100.38
452.948	116.38
453.726	122.38
454.504	131.38
455.282	148.38
456.061	165.38
456.839	183.38
457.617	204.38
458.395	222.38
459.172	254.38
459.95	284.38
460.728	309.38
461.506	354.38
462.283	392.38
463.061	434.38
463.838	485.38
464.615	549.38
465.393	601.38
466.17	680.38
466.947	760.38
467.724	852.38
468.501	937.38
469.278	1029.38
470.055	1152.38
470.831	1286.38
471.608	1420.38
472.385	1584.38
473.161	1747.38
473.938	1927.38
474.714	2163.38
475.49	2371.38
476.266	2606.38
477.043	2881.38
477.819	3179.38
478.595	3527.38
479.371	3891.38
480.146	4272.38
480.922	4699.38
481.698	5147.38
482.473	5650.38
483.249	6208.38
484.024	6838.38
484.8	7504.38
485.575	8194.38
486.35	8961.38
487.126	9800.38
487.901	10692.38
488.676	11625.38
489.451	12666.38
490.225	13799.38
491	14960.38
491.775	16255.38
492.55	17513.38
493.324	18881.38
494.099	20266.38
494.873	21649.38
495.647	23222.38
496.422	24533.38
497.196	26104.38
497.97	27678.38
498.744	29066.38
499.518	30457.38
500.292	31676.38
501.066	32822.38
501.839	33952.38
502.613	34823.38
503.387	35530.38
504.16	35943.38
504.934	36129.38
505.707	36073.38
506.48	35973.38
507.253	35556.38
508.027	35148.38
508.8	34505.38
509.573	33612.38
510.346	32736.38
511.118	31821.38
511.891	30770.38
512.664	29554.38
513.437	28398.38
514.209	27177.38
514.982	26174.38
515.754	25056.38
516.526	23945.38
517.298	22931.38
518.071	21975.38
518.843	21063.38
519.615	20203.38
520.387	19374.38
521.159	18663.38
521.93	17894.38
522.702	17231.38
523.474	16528.38
524.245	15926.38
525.017	15135.38
525.788	14430.38
526.56	13748.38
527.331	13154.38
528.102	12572.38
528.873	11862.38
529.644	11315.38
530.415	10856.38
531.186	10254.38
531.957	9717.38
532.728	9213.38
533.498	8692.38
534.269	8209.38
535.039	7740.38
535.81	7372.38
536.58	6922.38
537.351	6528.38
538.121	6153.38
538.891	5845.38
539.661	5540.38
540.431	5248.38
541.201	4954.38
541.971	4706.38
542.741	4484.38
543.51	4242.38
544.28	4043.38
545.05	3851.38
545.819	3683.38
546.588	3454.38
547.358	3305.38
548.127	3110.38
548.896	2949.38
549.665	2818.38
550.434	2658.38
551.203	2531.38
551.972	2377.38
552.741	2259.38
553.51	2144.38
554.278	2015.38
555.047	1904.38
555.815	1800.38
556.584	1703.38
557.352	1608.38
558.121	1506.38
558.889	1412.38
559.657	1340.38
560.425	1265.38
561.193	1192.38
561.961	1132.38
562.729	1073.38
563.496	1014.38
564.264	940.38
565.032	910.38
565.799	858.38
566.567	817.38
567.334	765.38
568.101	728.38
568.869	676.38
569.636	636.38
570.403	612.38
571.17	574.38
571.937	548.38
572.704	516.38
573.471	487.38
574.237	452.38
575.004	435.38
575.771	396.38
576.537	375.38
577.303	355.38
578.07	337.38
578.836	318.38
579.602	300.38
580.368	292.38
581.134	273.38
581.9	258.38
582.666	247.38
583.432	224.38
584.198	225.38
584.964	208.38
585.729	196.38
586.495	192.38
587.26	176.38
588.025	166.38
588.791	161.38
589.556	150.38
590.321	148.38
591.086	138.38
591.851	128.38
592.616	121.38
593.381	116.38
594.146	116.38
594.911	113.38
595.675	101.38
596.44	95.38
597.204	93.38
597.969	87.38
598.733	82.38
599.497	82.38
600.261	78.38
601.025	75.38
601.79	74.38
602.553	68.38
603.317	66.38
604.081	61.38
604.845	63.38
605.609	57.38
606.372	56.38
607.136	52.38
607.899	53.38
608.662	50.38
609.426	45.38
610.189	49.38
610.952	42.38
611.715	40.38
612.478	40.38
613.241	40.38
614.004	39.38
614.767	35.38
615.529	34.38
616.292	37.38
617.055	30.38
617.817	35.38
618.579	30.38
619.342	30.38
620.104	24.38
620.866	27.38
621.628	27.38
622.39	24.38
623.152	26.38
623.914	24.38
624.676	23.38
625.438	21.38
626.199	21.38
626.961	20.38
627.722	19.38
628.484	20.38
629.245	18.38
630.006	20.38
630.768	18.38
631.529	18.38
632.29	18.38
633.051	16.38
633.812	17.38
634.573	11.38
635.333	14.38
636.094	16.38
636.855	14.38
637.615	14.38
638.376	14.38
639.136	14.38
639.896	13.38
640.657	13.38
641.417	13.38
642.177	11.38
642.937	10.38
643.697	12.38
644.457	13.38
645.216	14.38
645.976	11.38
646.736	12.38
647.495	11.38
648.255	11.38
649.014	9.38
649.774	10.38
650.533	11.38
651.292	7.38
652.051	8.38
652.81	9.38
653.569	10.38
654.328	12.38
655.087	8.38
655.846	9.38
656.604	10.38
657.363	7.38
658.121	7.38
658.88	4.38
659.638	9.38
660.397	8.38
661.155	9.38
661.913	8.38
662.671	6.38
663.429	6.38
664.187	8.38
664.945	10.38
665.703	7.38
666.46	7.38
667.218	8.38
667.976	6.38
668.733	7.38
669.49	5.38
670.248	8.38
671.005	6.38
671.762	6.38
672.519	6.38
673.276	4.38
674.033	8.38
674.79	4.38
675.547	7.38
676.304	8.38
677.06	7.38
677.817	6.38
678.574	6.38
679.33	4.38
680.086	4.38
680.843	4.38
681.599	6.38
682.355	3.38
683.111	6.38
683.867	6.38
684.623	7.38
685.379	4.38
686.135	3.38
686.89	6.38
687.646	5.38
688.402	7.38
689.157	6.38
689.912	5.38
690.668	4.38
691.423	4.38
692.178	5.38
692.933	4.38
693.688	6.38
694.443	6.38
695.198	3.38
695.953	4.38
696.708	6.38
697.462	5.38
698.217	4.38
698.972	5.38
699.726	5.38
700.48	5.38
701.235	6.38
701.989	3.38
702.743	5.38
703.497	4.38
704.251	4.38
705.005	4.38
705.759	5.38
706.513	5.38
707.266	6.38
708.02	5.38
708.774	6.38
709.527	5.38
710.28	5.38
711.034	2.38
711.787	4.38
712.54	4.38
713.293	2.38
714.046	6.38
714.799	3.38
715.552	4.38
716.305	4.38
717.058	5.38
717.81	2.38
718.563	3.38
719.315	4.38
720.068	7.38
720.82	8.38
721.573	5.38
722.325	5.38
723.077	6.38
723.829	6.38
724.581	5.38
725.333	5.38
726.085	7.38
726.836	5.38
727.588	5.38
728.34	8.38
729.091	4.38
729.843	6.38
730.594	7.38
731.346	8.38
732.097	8.38
732.848	4.38
733.599	7.38
734.35	6.38
735.101	9.38
735.852	4.38
736.603	4.38
737.354	8.38
738.104	6.38
738.855	8.38
739.605	6.38
740.356	6.38
741.106	7.38
741.856	7.38
742.607	7.38
743.357	9.38
744.107	8.38
744.857	8.38
745.607	8.38
746.357	9.38
747.106	8.38
747.856	9.38
748.606	9.38
749.355	5.38
750.105	6.38
750.854	7.38
751.603	6.38
752.353	8.38
753.102	6.38
753.851	6.38
754.6	7.38
755.349	9.38
756.098	11.38
756.847	11.38
757.595	7.38
758.344	6.38
759.093	11.38
759.841	6.38
760.589	7.38
761.338	10.38
762.086	9.38
762.834	9.38
763.582	8.38
764.331	10.38
765.079	7.38
765.826	10.38
766.574	9.38
767.322	11.38
768.07	11.38
768.817	10.38
769.565	9.38
770.312	12.38
771.06	10.38
771.807	11.38
772.554	12.38
773.302	12.38
774.049	8.38
774.796	11.38
775.543	12.38
776.29	11.38
777.036	10.38
777.783	12.38
778.53	10.38
779.276	12.38
780.023	11.38
780.769	10.38
781.516	10.38
782.262	12.38
783.008	11.38
783.754	12.38
784.5	10.38
785.246	10.38
785.992	11.38
786.738	9.38
787.484	11.38
788.23	12.38
788.975	11.38
789.721	11.38
790.466	10.38
791.212	12.38
791.957	12.38
792.702	11.38
793.447	10.38
794.193	7.38
794.938	13.38
795.683	12.38
796.427	9.38
797.172	7.38
797.917	10.38
798.662	10.38
799.406	10.38
800.151	10.38
800.895	8.38
801.64	11.38
802.384	10.38
803.128	11.38
803.872	10.38
804.616	9.38
805.36	7.38
806.104	8.38
806.848	8.38
807.592	5.38
808.336	9.38
809.079	8.38
809.823	9.38
810.566	7.38
811.31	8.38
812.053	7.38
812.796	6.38
813.539	6.38
814.283	8.38
815.026	9.38
815.769	8.38
816.511	5.38
817.254	5.38
817.997	6.38
818.74	5.38
819.482	7.38
820.225	4.38
820.967	6.38
821.71	8.38
822.452	3.38
823.194	5.38
823.936	6.38
824.678	8.38
825.42	4.38
826.162	5.38
826.904	4.38
827.646	5.38
828.388	5.38
829.129	5.38
829.871	3.38
830.612	5.38
831.354	2.38
832.095	3.38
832.836	6.38
833.577	6.38
834.319	7.38
835.06	2.38
835.801	6.38
836.542	4.38
837.282	6.38
838.023	5.38
838.764	4.38
839.504	5.38
840.245	4.38
840.985	5.38
841.726	4.38
842.466	5.38
843.206	2.38
843.946	1.38
844.687	4.38
845.427	3.38
846.166	4.38
846.906	4.38
847.646	4.38
848.386	5.38
849.125	3.38
849.865	3.38
850.605	2.38
851.344	1.38
852.083	5.38
852.823	1.38
853.562	4.38
854.301	2.38
855.04	4.38
855.779	2.38
856.518	0.38
857.257	3.38
857.995	2.38
858.734	1.38
859.473	1.38
860.211	3.38
860.95	3.38
861.688	2.38
862.426	1.38
863.165	2.38
863.903	1.38
864.641	3.38
865.379	3.38
866.117	3.38
866.855	1.38
867.593	2.38
868.33	0.38
869.068	2.38
869.806	1.38
870.543	3.38
871.28	1.38
872.018	1.38
872.755	1.38
873.492	3.38
874.229	0.38
874.967	0.38
875.703	2.38
876.44	3.38
877.177	3.38
877.914	0.38
878.651	1.38
879.387	-1.62
880.124	3.38
880.86	0.38
881.597	1.38
882.333	0.38
883.069	4.38
883.806	2.38
884.542	2.38
885.278	1.38
886.014	0.38
886.749	2.38
887.485	2.38
888.221	3.38
888.957	1.38
889.692	1.38
890.428	-0.62
891.163	0.38
891.899	4.38
892.634	2.38
893.369	0.38
894.104	1.38
894.839	1.38
895.574	1.38
896.309	1.38
897.044	1.38
897.779	0.38
898.514	3.38
899.248	1.38
899.983	0.38
900.717	3.38
901.452	1.38
902.186	-0.62
902.92	-0.62
903.654	0.38
904.389	3.38
905.123	1.38
905.857	0.38
906.59	2.38
907.324	0.38
908.058	0.38
908.792	0.38
909.525	2.38
910.259	2.38
910.992	0.38
911.726	2.38
912.459	0.38
913.192	0.38
913.925	0.38
914.658	3.38
915.391	1.38
916.124	-0.62
916.857	-0.62
917.59	0.38
918.323	0.38
919.055	3.38
919.788	0.38
920.521	1.38
921.253	-2.62
921.985	0.38
922.718	0.38
923.45	0.38
924.182	1.38
924.914	-1.62
925.646	-1.62
926.378	-0.62
927.11	0.38
927.841	2.38
928.573	2.38
929.305	1.38
930.036	-0.62
930.768	0.38
931.499	0.38
932.23	1.38
932.962	1.38
933.693	0.38
934.424	1.38
935.155	-0.62
935.886	1.38
936.617	-0.62
937.348	1.38
938.078	-0.62
938.809	-2.62
939.54	3.38
940.27	0.38
941.001	1.38
941.731	0.38
942.461	1.38
943.191	0.38
943.922	2.38
944.652	-1.62
945.382	2.38
946.112	-0.62
946.841	1.38
947.571	-0.62
948.301	0.38
949.031	1.38
949.76	1.38
950.49	0.38
951.219	-0.62
951.948	0.38
952.678	0.38
953.407	0.38
954.136	1.38
954.865	-0.62
955.594	0.38
956.323	-0.62
957.052	1.38
957.78	0.38
958.509	1.38
959.238	0.38
959.966	-0.62
960.695	-0.62
961.423	1.38
962.151	-1.62
962.88	0.38
963.608	1.38
964.336	-0.62
965.064	-0.62
965.792	1.38
966.52	-0.62
967.247	-0.62
967.975	1.38
968.703	0.38
969.43	2.38
970.158	1.38
970.885	2.38
971.613	-0.62
972.34	-0.62
973.067	0.38
973.794	0.38
974.521	2.38
975.248	-0.62
975.975	4.38
976.702	0.38
977.429	-1.62
978.156	2.38
978.882	0.38
979.609	1.38
980.335	0.38
981.062	1.38
981.788	-0.62
982.514	1.38
983.24	-0.62
983.967	2.38
984.693	-0.62
985.419	2.38
986.144	-1.62
986.87	0.38
987.596	0.38
988.322	2.38
989.047	0.38
989.773	2.38
990.498	-1.62
991.224	0.38
991.949	2.38
992.674	0.38
993.399	0.38
994.124	1.38
994.849	1.38
995.574	0.38
996.299	0.38
997.024	-0.62
997.749	0.38
998.473	0.38
999.198	-1.62
999.922	-0.62
1000.647	0.38
1001.371	4.38
1002.095	-1.62
1002.82	-1.62
1003.544	-1.62
1004.268	5.38
1004.992	-0.62
1005.716	3.38
1006.439	3.38
1007.163	2.38
1007.887	3.38
1008.611	0.38
1009.334	2.38
1010.058	1.38
1010.781	0.38
1011.504	0.38
1012.228	-1.62
1012.951	2.38
1013.674	0.38
1014.397	0.38
1015.12	-2.62
