节点500_425_QEPB04081__284__15-53-01-959.txt的数据

Date: Wed Nov 12 15:53:01 CST 2025
User: PC
Spectrometer: QEPB0408
触发模式: 0
积分时间 (秒): 1.000000E-2
Scans to average: 1
启用暗噪声校正: true
启用非线性校正: false
滑动平均宽度: 0
X轴模式: Wavelengths
Number of Pixels in Spectrum: 1044
>>>>>Begin Spectral Data<<<<<
220.843	4.12
221.644	2.12
222.444	2.12
223.244	5.12
224.045	1.12
224.845	5.12
225.645	4.12
226.445	4.12
227.245	3.12
228.045	3.12
228.845	5.12
229.645	5.12
230.444	4.12
231.244	4.12
232.043	5.12
232.843	4.12
233.642	4.12
234.442	7.12
235.241	5.12
236.04	6.12
236.839	4.12
237.638	6.12
238.437	5.12
239.236	6.12
240.035	5.12
240.833	6.12
241.632	6.12
242.43	7.12
243.229	6.12
244.027	9.12
244.826	6.12
245.624	7.12
246.422	7.12
247.22	7.12
248.018	9.12
248.816	9.12
249.614	10.12
250.412	12.12
251.21	10.12
252.007	9.12
252.805	8.12
253.602	11.12
254.4	9.12
255.197	12.12
255.994	12.12
256.791	12.12
257.589	12.12
258.386	11.12
259.183	14.12
259.979	15.12
260.776	14.12
261.573	15.12
262.37	15.12
263.166	14.12
263.963	18.12
264.759	18.12
265.556	16.12
266.352	15.12
267.148	17.12
267.944	18.12
268.74	20.12
269.536	20.12
270.332	20.12
271.128	20.12
271.924	19.12
272.719	23.12
273.515	20.12
274.311	22.12
275.106	20.12
275.901	24.12
276.697	23.12
277.492	24.12
278.287	24.12
279.082	26.12
279.877	22.12
280.672	25.12
281.467	24.12
282.262	25.12
283.056	26.12
283.851	23.12
284.646	25.12
285.44	26.12
286.234	23.12
287.029	24.12
287.823	28.12
288.617	26.12
289.411	20.12
290.205	23.12
290.999	20.12
291.793	26.12
292.587	23.12
293.381	22.12
294.174	23.12
294.968	22.12
295.761	22.12
296.555	19.12
297.348	21.12
298.141	21.12
298.935	23.12
299.728	21.12
300.521	17.12
301.314	19.12
302.107	16.12
302.899	17.12
303.692	17.12
304.485	20.12
305.277	17.12
306.07	16.12
306.862	16.12
307.655	15.12
308.447	14.12
309.239	16.12
310.031	15.12
310.823	15.12
311.615	11.12
312.407	11.12
313.199	12.12
313.991	11.12
314.783	12.12
315.574	10.12
316.366	12.12
317.157	11.12
317.949	10.12
318.74	11.12
319.531	9.12
320.322	9.12
321.113	10.12
321.904	11.12
322.695	10.12
323.486	10.12
324.277	11.12
325.068	6.12
325.858	9.12
326.649	9.12
327.439	7.12
328.23	8.12
329.02	10.12
329.81	9.12
330.6	8.12
331.391	10.12
332.181	7.12
332.971	12.12
333.76	9.12
334.55	9.12
335.34	9.12
336.13	9.12
336.919	10.12
337.709	10.12
338.498	7.12
339.287	10.12
340.077	9.12
340.866	9.12
341.655	5.12
342.444	6.12
343.233	8.12
344.022	7.12
344.811	9.12
345.6	8.12
346.388	7.12
347.177	6.12
347.965	9.12
348.754	7.12
349.542	9.12
350.33	5.12
351.119	9.12
351.907	5.12
352.695	7.12
353.483	8.12
354.271	10.12
355.059	7.12
355.846	8.12
356.634	8.12
357.422	9.12
358.209	6.12
358.997	5.12
359.784	6.12
360.571	6.12
361.359	5.12
362.146	5.12
362.933	5.12
363.72	8.12
364.507	5.12
365.294	8.12
366.081	6.12
366.867	5.12
367.654	6.12
368.44	5.12
369.227	6.12
370.013	6.12
370.8	6.12
371.586	6.12
372.372	7.12
373.158	7.12
373.944	9.12
374.73	8.12
375.516	5.12
376.302	7.12
377.088	7.12
377.873	6.12
378.659	8.12
379.445	6.12
380.23	7.12
381.015	7.12
381.801	6.12
382.586	6.12
383.371	5.12
384.156	6.12
384.941	8.12
385.726	2.12
386.511	8.12
387.296	7.12
388.08	8.12
388.865	8.12
389.649	9.12
390.434	7.12
391.218	6.12
392.003	8.12
392.787	7.12
393.571	9.12
394.355	7.12
395.139	9.12
395.923	9.12
396.707	10.12
397.491	9.12
398.274	9.12
399.058	8.12
399.842	10.12
400.625	11.12
401.408	11.12
402.192	9.12
402.975	9.12
403.758	8.12
404.541	10.12
405.324	12.12
406.107	10.12
406.89	10.12
407.673	9.12
408.456	11.12
409.238	10.12
410.021	10.12
410.803	12.12
411.586	11.12
412.368	13.12
413.151	10.12
413.933	11.12
414.715	12.12
415.497	12.12
416.279	10.12
417.061	12.12
417.843	15.12
418.624	14.12
419.406	13.12
420.188	13.12
420.969	14.12
421.751	16.12
422.532	15.12
423.313	15.12
424.095	15.12
424.876	15.12
425.657	16.12
426.438	17.12
427.219	19.12
428	16.12
428.78	16.12
429.561	16.12
430.342	21.12
431.122	20.12
431.903	23.12
432.683	21.12
433.464	22.12
434.244	24.12
435.024	22.12
435.804	23.12
436.584	25.12
437.364	26.12
438.144	28.12
438.924	33.12
439.704	33.12
440.483	39.12
441.263	35.12
442.042	37.12
442.822	42.12
443.601	43.12
444.38	45.12
445.16	46.12
445.939	53.12
446.718	58.12
447.497	60.12
448.276	66.12
449.054	71.12
449.833	80.12
450.612	83.12
451.391	90.12
452.169	103.12
452.948	108.12
453.726	122.12
454.504	135.12
455.282	151.12
456.061	166.12
456.839	180.12
457.617	203.12
458.395	231.12
459.172	254.12
459.95	287.12
460.728	321.12
461.506	354.12
462.283	397.12
463.061	442.12
463.838	504.12
464.615	558.12
465.393	624.12
466.17	691.12
466.947	763.12
467.724	848.12
468.501	948.12
469.278	1044.12
470.055	1148.12
470.831	1294.12
471.608	1443.12
472.385	1582.12
473.161	1768.12
473.938	1933.12
474.714	2140.12
475.49	2370.12
476.266	2616.12
477.043	2899.12
477.819	3192.12
478.595	3492.12
479.371	3838.12
480.146	4236.12
480.922	4620.12
481.698	5084.12
482.473	5546.12
483.249	6096.12
484.024	6722.12
484.8	7329.12
485.575	8054.12
486.35	8723.12
487.126	9541.12
487.901	10404.12
488.676	11352.12
489.451	12323.12
490.225	13319.12
491	14497.12
491.775	15770.12
492.55	16940.12
493.324	18302.12
494.099	19548.12
494.873	20922.12
495.647	22318.12
496.422	23742.12
497.196	25173.12
497.97	26686.12
498.744	28176.12
499.518	29452.12
500.292	30616.12
501.066	31777.12
501.839	32909.12
502.613	33856.12
503.387	34503.12
504.16	35099.12
504.934	35333.12
505.707	35471.12
506.48	35204.12
507.253	34916.12
508.027	34660.12
508.8	33967.12
509.573	33328.12
510.346	32453.12
511.118	31462.12
511.891	30546.12
512.664	29399.12
513.437	28221.12
514.209	27150.12
514.982	26136.12
515.754	25032.12
516.526	23979.12
517.298	23005.12
518.071	22036.12
518.843	21148.12
519.615	20264.12
520.387	19396.12
521.159	18713.12
521.93	18030.12
522.702	17237.12
523.474	16595.12
524.245	15947.12
525.017	15196.12
525.788	14477.12
526.56	13830.12
527.331	13168.12
528.102	12586.12
528.873	12042.12
529.644	11406.12
530.415	10913.12
531.186	10363.12
531.957	9812.12
532.728	9285.12
533.498	8768.12
534.269	8331.12
535.039	7876.12
535.81	7445.12
536.58	7032.12
537.351	6570.12
538.121	6265.12
538.891	5915.12
539.661	5595.12
540.431	5315.12
541.201	5022.12
541.971	4784.12
542.741	4505.12
543.51	4302.12
544.28	4092.12
545.05	3874.12
545.819	3700.12
546.588	3533.12
547.358	3326.12
548.127	3150.12
548.896	3007.12
549.665	2850.12
550.434	2720.12
551.203	2544.12
551.972	2424.12
552.741	2296.12
553.51	2179.12
554.278	2052.12
555.047	1934.12
555.815	1833.12
556.584	1718.12
557.352	1615.12
558.121	1529.12
558.889	1440.12
559.657	1377.12
560.425	1298.12
561.193	1210.12
561.961	1171.12
562.729	1090.12
563.496	1023.12
564.264	967.12
565.032	914.12
565.799	886.12
566.567	832.12
567.334	780.12
568.101	741.12
568.869	681.12
569.636	666.12
570.403	611.12
571.17	593.12
571.937	553.12
572.704	524.12
573.471	493.12
574.237	462.12
575.004	432.12
575.771	406.12
576.537	378.12
577.303	362.12
578.07	342.12
578.836	324.12
579.602	302.12
580.368	287.12
581.134	269.12
581.9	263.12
582.666	249.12
583.432	234.12
584.198	225.12
584.964	207.12
585.729	203.12
586.495	191.12
587.26	181.12
588.025	167.12
588.791	160.12
589.556	157.12
590.321	145.12
591.086	138.12
591.851	128.12
592.616	126.12
593.381	120.12
594.146	110.12
594.911	107.12
595.675	102.12
596.44	101.12
597.204	95.12
597.969	83.12
598.733	85.12
599.497	80.12
600.261	82.12
601.025	76.12
601.79	72.12
602.553	68.12
603.317	67.12
604.081	63.12
604.845	60.12
605.609	56.12
606.372	55.12
607.136	51.12
607.899	54.12
608.662	50.12
609.426	46.12
610.189	45.12
610.952	43.12
611.715	42.12
612.478	38.12
613.241	40.12
614.004	40.12
614.767	34.12
615.529	33.12
616.292	31.12
617.055	34.12
617.817	31.12
618.579	30.12
619.342	32.12
620.104	28.12
620.866	29.12
621.628	26.12
622.39	24.12
623.152	20.12
623.914	24.12
624.676	22.12
625.438	19.12
626.199	22.12
626.961	21.12
627.722	21.12
628.484	19.12
629.245	19.12
630.006	20.12
630.768	18.12
631.529	16.12
632.29	17.12
633.051	16.12
633.812	18.12
634.573	14.12
635.333	17.12
636.094	14.12
636.855	14.12
637.615	14.12
638.376	13.12
639.136	17.12
639.896	16.12
640.657	10.12
641.417	12.12
642.177	12.12
642.937	14.12
643.697	11.12
644.457	12.12
645.216	12.12
645.976	9.12
646.736	10.12
647.495	10.12
648.255	12.12
649.014	10.12
649.774	7.12
650.533	8.12
651.292	10.12
652.051	8.12
652.81	9.12
653.569	10.12
654.328	6.12
655.087	6.12
655.846	7.12
656.604	6.12
657.363	9.12
658.121	8.12
658.88	8.12
659.638	10.12
660.397	9.12
661.155	10.12
661.913	8.12
662.671	7.12
663.429	7.12
664.187	5.12
664.945	6.12
665.703	7.12
666.46	7.12
667.218	6.12
667.976	8.12
668.733	7.12
669.49	6.12
670.248	4.12
671.005	4.12
671.762	9.12
672.519	5.12
673.276	7.12
674.033	4.12
674.79	6.12
675.547	7.12
676.304	5.12
677.06	6.12
677.817	7.12
678.574	6.12
679.33	5.12
680.086	7.12
680.843	6.12
681.599	5.12
682.355	3.12
683.111	4.12
683.867	3.12
684.623	6.12
685.379	5.12
686.135	4.12
686.89	8.12
687.646	4.12
688.402	5.12
689.157	4.12
689.912	7.12
690.668	6.12
691.423	5.12
692.178	4.12
692.933	3.12
693.688	6.12
694.443	4.12
695.198	4.12
695.953	6.12
696.708	3.12
697.462	5.12
698.217	5.12
698.972	6.12
699.726	5.12
700.48	4.12
701.235	3.12
701.989	4.12
702.743	5.12
703.497	5.12
704.251	4.12
705.005	3.12
705.759	5.12
706.513	6.12
707.266	3.12
708.02	6.12
708.774	6.12
709.527	6.12
710.28	4.12
711.034	5.12
711.787	5.12
712.54	5.12
713.293	5.12
714.046	5.12
714.799	5.12
715.552	6.12
716.305	4.12
717.058	5.12
717.81	2.12
718.563	5.12
719.315	3.12
720.068	3.12
720.82	5.12
721.573	6.12
722.325	4.12
723.077	6.12
723.829	5.12
724.581	7.12
725.333	6.12
726.085	6.12
726.836	4.12
727.588	6.12
728.34	5.12
729.091	5.12
729.843	7.12
730.594	6.12
731.346	4.12
732.097	6.12
732.848	3.12
733.599	5.12
734.35	7.12
735.101	6.12
735.852	6.12
736.603	7.12
737.354	6.12
738.104	5.12
738.855	6.12
739.605	7.12
740.356	6.12
741.106	6.12
741.856	6.12
742.607	4.12
743.357	6.12
744.107	5.12
744.857	5.12
745.607	9.12
746.357	4.12
747.106	4.12
747.856	8.12
748.606	6.12
749.355	7.12
750.105	6.12
750.854	6.12
751.603	8.12
752.353	6.12
753.102	8.12
753.851	6.12
754.6	8.12
755.349	5.12
756.098	8.12
756.847	9.12
757.595	6.12
758.344	8.12
759.093	8.12
759.841	6.12
760.589	7.12
761.338	6.12
762.086	9.12
762.834	5.12
763.582	10.12
764.331	9.12
765.079	9.12
765.826	9.12
766.574	8.12
767.322	6.12
768.07	10.12
768.817	9.12
769.565	12.12
770.312	8.12
771.06	11.12
771.807	8.12
772.554	12.12
773.302	10.12
774.049	10.12
774.796	12.12
775.543	9.12
776.29	11.12
777.036	10.12
777.783	9.12
778.53	8.12
779.276	8.12
780.023	8.12
780.769	11.12
781.516	11.12
782.262	11.12
783.008	10.12
783.754	9.12
784.5	8.12
785.246	13.12
785.992	11.12
786.738	13.12
787.484	12.12
788.23	10.12
788.975	10.12
789.721	10.12
790.466	12.12
791.212	11.12
791.957	9.12
792.702	12.12
793.447	11.12
794.193	12.12
794.938	9.12
795.683	11.12
796.427	10.12
797.172	9.12
797.917	9.12
798.662	8.12
799.406	7.12
800.151	9.12
800.895	10.12
801.64	8.12
802.384	9.12
803.128	12.12
803.872	9.12
804.616	9.12
805.36	6.12
806.104	7.12
806.848	6.12
807.592	5.12
808.336	11.12
809.079	5.12
809.823	6.12
810.566	7.12
811.31	6.12
812.053	6.12
812.796	6.12
813.539	8.12
814.283	5.12
815.026	6.12
815.769	5.12
816.511	5.12
817.254	8.12
817.997	6.12
818.74	4.12
819.482	7.12
820.225	4.12
820.967	5.12
821.71	6.12
822.452	3.12
823.194	4.12
823.936	6.12
824.678	5.12
825.42	4.12
826.162	5.12
826.904	4.12
827.646	7.12
828.388	6.12
829.129	4.12
829.871	4.12
830.612	5.12
831.354	5.12
832.095	7.12
832.836	5.12
833.577	3.12
834.319	4.12
835.06	5.12
835.801	4.12
836.542	4.12
837.282	4.12
838.023	3.12
838.764	4.12
839.504	4.12
840.245	4.12
840.985	4.12
841.726	4.12
842.466	6.12
843.206	4.12
843.946	6.12
844.687	4.12
845.427	3.12
846.166	3.12
846.906	2.12
847.646	3.12
848.386	3.12
849.125	4.12
849.865	0.12
850.605	3.12
851.344	3.12
852.083	2.12
852.823	4.12
853.562	0.12
854.301	2.12
855.04	4.12
855.779	3.12
856.518	2.12
857.257	2.12
857.995	3.12
858.734	5.12
859.473	4.12
860.211	3.12
860.95	4.12
861.688	4.12
862.426	2.12
863.165	2.12
863.903	4.12
864.641	2.12
865.379	4.12
866.117	0.12
866.855	4.12
867.593	1.12
868.33	2.12
869.068	2.12
869.806	1.12
870.543	0.12
871.28	0.12
872.018	3.12
872.755	-0.88
873.492	2.12
874.229	3.12
874.967	2.12
875.703	2.12
876.44	3.12
877.177	0.12
877.914	1.12
878.651	0.12
879.387	2.12
880.124	1.12
880.86	0.12
881.597	1.12
882.333	-0.88
883.069	2.12
883.806	-0.88
884.542	0.12
885.278	-0.88
886.014	0.12
886.749	2.12
887.485	-0.88
888.221	3.12
888.957	1.12
889.692	0.12
890.428	-1.88
891.163	1.12
891.899	1.12
892.634	1.12
893.369	2.12
894.104	0.12
894.839	1.12
895.574	0.12
896.309	0.12
897.044	1.12
897.779	1.12
898.514	0.12
899.248	1.12
899.983	-0.88
900.717	0.12
901.452	-0.88
902.186	-0.88
902.92	2.12
903.654	-0.88
904.389	0.12
905.123	1.12
905.857	0.12
906.59	-1.88
907.324	0.12
908.058	-0.88
908.792	0.12
909.525	-0.88
910.259	0.12
910.992	1.12
911.726	0.12
912.459	0.12
913.192	0.12
913.925	-0.88
914.658	1.12
915.391	0.12
916.124	0.12
916.857	-1.88
917.59	-1.88
918.323	2.12
919.055	-0.88
919.788	2.12
920.521	0.12
921.253	-0.88
921.985	3.12
922.718	1.12
923.45	-1.88
924.182	1.12
924.914	0.12
925.646	2.12
926.378	0.12
927.11	-0.88
927.841	-3.88
928.573	1.12
929.305	-0.88
930.036	3.12
930.768	2.12
931.499	0.12
932.23	1.12
932.962	-0.88
933.693	1.12
934.424	0.12
935.155	-0.88
935.886	0.12
936.617	-1.88
937.348	2.12
938.078	0.12
938.809	-0.88
939.54	1.12
940.27	-0.88
941.001	2.12
941.731	1.12
942.461	1.12
943.191	0.12
943.922	0.12
944.652	0.12
945.382	1.12
946.112	0.12
946.841	3.12
947.571	0.12
948.301	1.12
949.031	-1.88
949.76	2.12
950.49	3.12
951.219	-0.88
951.948	-0.88
952.678	1.12
953.407	1.12
954.136	-0.88
954.865	-0.88
955.594	-0.88
956.323	0.12
957.052	0.12
957.78	-0.88
958.509	2.12
959.238	2.12
959.966	1.12
960.695	0.12
961.423	-1.88
962.151	-0.88
962.88	1.12
963.608	1.12
964.336	-2.88
965.064	0.12
965.792	-0.88
966.52	1.12
967.247	1.12
967.975	-2.88
968.703	0.12
969.43	-1.88
970.158	1.12
970.885	-0.88
971.613	0.12
972.34	0.12
973.067	-0.88
973.794	1.12
974.521	1.12
975.248	-0.88
975.975	0.12
976.702	0.12
977.429	0.12
978.156	1.12
978.882	1.12
979.609	-0.88
980.335	1.12
981.062	1.12
981.788	-0.88
982.514	0.12
983.24	0.12
983.967	0.12
984.693	0.12
985.419	-1.88
986.144	0.12
986.87	-2.88
987.596	-0.88
988.322	1.12
989.047	0.12
989.773	0.12
990.498	-0.88
991.224	-0.88
991.949	0.12
992.674	-0.88
993.399	3.12
994.124	-1.88
994.849	0.12
995.574	0.12
996.299	-0.88
997.024	-0.88
997.749	2.12
998.473	0.12
999.198	1.12
999.922	1.12
1000.647	0.12
1001.371	4.12
1002.095	1.12
1002.82	-1.88
1003.544	0.12
1004.268	2.12
1004.992	1.12
1005.716	-0.88
1006.439	2.12
1007.163	4.12
1007.887	0.12
1008.611	1.12
1009.334	0.12
1010.058	0.12
1010.781	1.12
1011.504	-0.88
1012.228	-0.88
1012.951	-1.88
1013.674	-0.88
1014.397	0.12
1015.12	-0.88
