节点500_425_QEPB04081__292__15-53-09-927.txt的数据

Date: Wed Nov 12 15:53:09 CST 2025
User: PC
Spectrometer: QEPB0408
触发模式: 0
积分时间 (秒): 1.000000E-2
Scans to average: 1
启用暗噪声校正: true
启用非线性校正: false
滑动平均宽度: 0
X轴模式: Wavelengths
Number of Pixels in Spectrum: 1044
>>>>>Begin Spectral Data<<<<<
220.843	1.12
221.644	4.12
222.444	2.12
223.244	4.12
224.045	3.12
224.845	2.12
225.645	5.12
226.445	2.12
227.245	2.12
228.045	6.12
228.845	5.12
229.645	4.12
230.444	5.12
231.244	4.12
232.043	3.12
232.843	4.12
233.642	7.12
234.442	5.12
235.241	6.12
236.04	2.12
236.839	7.12
237.638	7.12
238.437	8.12
239.236	6.12
240.035	5.12
240.833	6.12
241.632	4.12
242.43	9.12
243.229	8.12
244.027	5.12
244.826	8.12
245.624	6.12
246.422	10.12
247.22	7.12
248.018	6.12
248.816	8.12
249.614	10.12
250.412	7.12
251.21	11.12
252.007	11.12
252.805	10.12
253.602	12.12
254.4	11.12
255.197	10.12
255.994	11.12
256.791	12.12
257.589	13.12
258.386	13.12
259.183	13.12
259.979	14.12
260.776	14.12
261.573	15.12
262.37	15.12
263.166	15.12
263.963	17.12
264.759	14.12
265.556	16.12
266.352	16.12
267.148	19.12
267.944	17.12
268.74	21.12
269.536	18.12
270.332	19.12
271.128	21.12
271.924	20.12
272.719	21.12
273.515	20.12
274.311	22.12
275.106	21.12
275.901	23.12
276.697	22.12
277.492	22.12
278.287	27.12
279.082	25.12
279.877	25.12
280.672	24.12
281.467	22.12
282.262	25.12
283.056	26.12
283.851	25.12
284.646	25.12
285.44	23.12
286.234	25.12
287.029	27.12
287.823	25.12
288.617	22.12
289.411	24.12
290.205	24.12
290.999	21.12
291.793	24.12
292.587	24.12
293.381	22.12
294.174	22.12
294.968	21.12
295.761	21.12
296.555	20.12
297.348	22.12
298.141	16.12
298.935	19.12
299.728	22.12
300.521	17.12
301.314	17.12
302.107	16.12
302.899	20.12
303.692	18.12
304.485	14.12
305.277	15.12
306.07	18.12
306.862	16.12
307.655	15.12
308.447	16.12
309.239	14.12
310.031	15.12
310.823	13.12
311.615	14.12
312.407	10.12
313.199	12.12
313.991	12.12
314.783	12.12
315.574	12.12
316.366	12.12
317.157	12.12
317.949	12.12
318.74	12.12
319.531	13.12
320.322	11.12
321.113	10.12
321.904	10.12
322.695	10.12
323.486	9.12
324.277	11.12
325.068	8.12
325.858	10.12
326.649	9.12
327.439	9.12
328.23	10.12
329.02	6.12
329.81	8.12
330.6	9.12
331.391	7.12
332.181	9.12
332.971	10.12
333.76	8.12
334.55	8.12
335.34	10.12
336.13	8.12
336.919	7.12
337.709	8.12
338.498	9.12
339.287	11.12
340.077	9.12
340.866	8.12
341.655	9.12
342.444	6.12
343.233	8.12
344.022	9.12
344.811	6.12
345.6	6.12
346.388	8.12
347.177	10.12
347.965	8.12
348.754	10.12
349.542	6.12
350.33	8.12
351.119	6.12
351.907	7.12
352.695	7.12
353.483	8.12
354.271	7.12
355.059	9.12
355.846	4.12
356.634	8.12
357.422	8.12
358.209	8.12
358.997	7.12
359.784	9.12
360.571	7.12
361.359	9.12
362.146	7.12
362.933	7.12
363.72	6.12
364.507	7.12
365.294	7.12
366.081	5.12
366.867	6.12
367.654	8.12
368.44	6.12
369.227	6.12
370.013	7.12
370.8	7.12
371.586	8.12
372.372	7.12
373.158	8.12
373.944	6.12
374.73	9.12
375.516	7.12
376.302	6.12
377.088	9.12
377.873	5.12
378.659	9.12
379.445	7.12
380.23	7.12
381.015	8.12
381.801	7.12
382.586	8.12
383.371	5.12
384.156	8.12
384.941	7.12
385.726	5.12
386.511	7.12
387.296	7.12
388.08	6.12
388.865	8.12
389.649	8.12
390.434	10.12
391.218	6.12
392.003	8.12
392.787	7.12
393.571	8.12
394.355	6.12
395.139	10.12
395.923	11.12
396.707	8.12
397.491	8.12
398.274	9.12
399.058	9.12
399.842	10.12
400.625	8.12
401.408	10.12
402.192	9.12
402.975	10.12
403.758	7.12
404.541	9.12
405.324	10.12
406.107	10.12
406.89	11.12
407.673	11.12
408.456	8.12
409.238	9.12
410.021	10.12
410.803	12.12
411.586	10.12
412.368	12.12
413.151	13.12
413.933	12.12
414.715	14.12
415.497	13.12
416.279	13.12
417.061	12.12
417.843	11.12
418.624	13.12
419.406	11.12
420.188	14.12
420.969	10.12
421.751	16.12
422.532	14.12
423.313	15.12
424.095	17.12
424.876	16.12
425.657	16.12
426.438	17.12
427.219	15.12
428	20.12
428.78	20.12
429.561	18.12
430.342	20.12
431.122	22.12
431.903	21.12
432.683	19.12
433.464	23.12
434.244	22.12
435.024	23.12
435.804	24.12
436.584	28.12
437.364	26.12
438.144	27.12
438.924	35.12
439.704	31.12
440.483	34.12
441.263	37.12
442.042	39.12
442.822	39.12
443.601	44.12
444.38	50.12
445.16	50.12
445.939	51.12
446.718	56.12
447.497	63.12
448.276	72.12
449.054	77.12
449.833	77.12
450.612	87.12
451.391	97.12
452.169	104.12
452.948	113.12
453.726	126.12
454.504	137.12
455.282	144.12
456.061	174.12
456.839	185.12
457.617	210.12
458.395	238.12
459.172	260.12
459.95	286.12
460.728	320.12
461.506	351.12
462.283	397.12
463.061	446.12
463.838	487.12
464.615	560.12
465.393	623.12
466.17	689.12
466.947	764.12
467.724	850.12
468.501	948.12
469.278	1047.12
470.055	1175.12
470.831	1295.12
471.608	1437.12
472.385	1590.12
473.161	1747.12
473.938	1950.12
474.714	2159.12
475.49	2344.12
476.266	2614.12
477.043	2890.12
477.819	3192.12
478.595	3496.12
479.371	3856.12
480.146	4225.12
480.922	4623.12
481.698	5089.12
482.473	5561.12
483.249	6093.12
484.024	6668.12
484.8	7320.12
485.575	8000.12
486.35	8718.12
487.126	9503.12
487.901	10349.12
488.676	11302.12
489.451	12308.12
490.225	13301.12
491	14466.12
491.775	15684.12
492.55	16916.12
493.324	18222.12
494.099	19468.12
494.873	20860.12
495.647	22277.12
496.422	23684.12
497.196	25104.12
497.97	26652.12
498.744	28046.12
499.518	29281.12
500.292	30627.12
501.066	31712.12
501.839	32760.12
502.613	33807.12
503.387	34396.12
504.16	34951.12
504.934	35362.12
505.707	35403.12
506.48	35255.12
507.253	34950.12
508.027	34489.12
508.8	33971.12
509.573	33278.12
510.346	32446.12
511.118	31525.12
511.891	30566.12
512.664	29356.12
513.437	28219.12
514.209	27103.12
514.982	26102.12
515.754	25034.12
516.526	23988.12
517.298	22972.12
518.071	22009.12
518.843	21076.12
519.615	20261.12
520.387	19399.12
521.159	18694.12
521.93	17970.12
522.702	17256.12
523.474	16599.12
524.245	15947.12
525.017	15141.12
525.788	14464.12
526.56	13806.12
527.331	13207.12
528.102	12539.12
528.873	12033.12
529.644	11380.12
530.415	10906.12
531.186	10370.12
531.957	9845.12
532.728	9317.12
533.498	8801.12
534.269	8324.12
535.039	7846.12
535.81	7412.12
536.58	7029.12
537.351	6588.12
538.121	6261.12
538.891	5922.12
539.661	5609.12
540.431	5349.12
541.201	5024.12
541.971	4767.12
542.741	4512.12
543.51	4283.12
544.28	4113.12
545.05	3879.12
545.819	3714.12
546.588	3517.12
547.358	3324.12
548.127	3145.12
548.896	2994.12
549.665	2856.12
550.434	2734.12
551.203	2570.12
551.972	2434.12
552.741	2287.12
553.51	2168.12
554.278	2049.12
555.047	1926.12
555.815	1822.12
556.584	1739.12
557.352	1617.12
558.121	1527.12
558.889	1444.12
559.657	1378.12
560.425	1302.12
561.193	1219.12
561.961	1163.12
562.729	1095.12
563.496	1039.12
564.264	980.12
565.032	926.12
565.799	882.12
566.567	829.12
567.334	785.12
568.101	750.12
568.869	691.12
569.636	655.12
570.403	612.12
571.17	584.12
571.937	554.12
572.704	524.12
573.471	501.12
574.237	463.12
575.004	442.12
575.771	409.12
576.537	385.12
577.303	359.12
578.07	338.12
578.836	322.12
579.602	304.12
580.368	296.12
581.134	280.12
581.9	260.12
582.666	251.12
583.432	234.12
584.198	217.12
584.964	208.12
585.729	199.12
586.495	188.12
587.26	177.12
588.025	170.12
588.791	161.12
589.556	158.12
590.321	148.12
591.086	136.12
591.851	133.12
592.616	122.12
593.381	122.12
594.146	113.12
594.911	110.12
595.675	108.12
596.44	102.12
597.204	99.12
597.969	94.12
598.733	87.12
599.497	79.12
600.261	78.12
601.025	73.12
601.79	72.12
602.553	71.12
603.317	69.12
604.081	60.12
604.845	62.12
605.609	58.12
606.372	55.12
607.136	52.12
607.899	51.12
608.662	51.12
609.426	47.12
610.189	45.12
610.952	42.12
611.715	40.12
612.478	41.12
613.241	42.12
614.004	39.12
614.767	38.12
615.529	34.12
616.292	32.12
617.055	35.12
617.817	33.12
618.579	30.12
619.342	30.12
620.104	27.12
620.866	28.12
621.628	28.12
622.39	26.12
623.152	25.12
623.914	24.12
624.676	24.12
625.438	22.12
626.199	24.12
626.961	22.12
627.722	20.12
628.484	19.12
629.245	18.12
630.006	21.12
630.768	20.12
631.529	20.12
632.29	16.12
633.051	18.12
633.812	16.12
634.573	15.12
635.333	18.12
636.094	15.12
636.855	13.12
637.615	14.12
638.376	12.12
639.136	12.12
639.896	13.12
640.657	11.12
641.417	14.12
642.177	10.12
642.937	13.12
643.697	9.12
644.457	12.12
645.216	13.12
645.976	13.12
646.736	12.12
647.495	8.12
648.255	11.12
649.014	9.12
649.774	10.12
650.533	8.12
651.292	9.12
652.051	9.12
652.81	8.12
653.569	9.12
654.328	8.12
655.087	8.12
655.846	8.12
656.604	8.12
657.363	9.12
658.121	6.12
658.88	9.12
659.638	7.12
660.397	7.12
661.155	7.12
661.913	6.12
662.671	8.12
663.429	6.12
664.187	9.12
664.945	8.12
665.703	8.12
666.46	8.12
667.218	6.12
667.976	7.12
668.733	6.12
669.49	8.12
670.248	6.12
671.005	6.12
671.762	4.12
672.519	6.12
673.276	9.12
674.033	5.12
674.79	2.12
675.547	4.12
676.304	5.12
677.06	6.12
677.817	7.12
678.574	4.12
679.33	6.12
680.086	4.12
680.843	5.12
681.599	5.12
682.355	7.12
683.111	6.12
683.867	6.12
684.623	4.12
685.379	4.12
686.135	6.12
686.89	4.12
687.646	5.12
688.402	7.12
689.157	4.12
689.912	4.12
690.668	6.12
691.423	5.12
692.178	4.12
692.933	6.12
693.688	5.12
694.443	3.12
695.198	4.12
695.953	6.12
696.708	5.12
697.462	7.12
698.217	4.12
698.972	6.12
699.726	4.12
700.48	6.12
701.235	7.12
701.989	4.12
702.743	7.12
703.497	3.12
704.251	4.12
705.005	5.12
705.759	5.12
706.513	6.12
707.266	5.12
708.02	4.12
708.774	4.12
709.527	5.12
710.28	4.12
711.034	6.12
711.787	4.12
712.54	5.12
713.293	7.12
714.046	5.12
714.799	5.12
715.552	4.12
716.305	6.12
717.058	5.12
717.81	5.12
718.563	7.12
719.315	5.12
720.068	6.12
720.82	6.12
721.573	3.12
722.325	5.12
723.077	5.12
723.829	5.12
724.581	5.12
725.333	4.12
726.085	6.12
726.836	6.12
727.588	7.12
728.34	6.12
729.091	7.12
729.843	5.12
730.594	8.12
731.346	6.12
732.097	4.12
732.848	4.12
733.599	8.12
734.35	5.12
735.101	4.12
735.852	6.12
736.603	7.12
737.354	6.12
738.104	6.12
738.855	9.12
739.605	6.12
740.356	5.12
741.106	8.12
741.856	6.12
742.607	6.12
743.357	5.12
744.107	4.12
744.857	8.12
745.607	6.12
746.357	7.12
747.106	7.12
747.856	7.12
748.606	4.12
749.355	7.12
750.105	6.12
750.854	7.12
751.603	9.12
752.353	8.12
753.102	5.12
753.851	6.12
754.6	6.12
755.349	5.12
756.098	7.12
756.847	9.12
757.595	6.12
758.344	11.12
759.093	9.12
759.841	8.12
760.589	10.12
761.338	8.12
762.086	7.12
762.834	8.12
763.582	9.12
764.331	9.12
765.079	7.12
765.826	9.12
766.574	9.12
767.322	11.12
768.07	8.12
768.817	11.12
769.565	8.12
770.312	11.12
771.06	9.12
771.807	11.12
772.554	12.12
773.302	11.12
774.049	9.12
774.796	12.12
775.543	12.12
776.29	12.12
777.036	10.12
777.783	12.12
778.53	15.12
779.276	13.12
780.023	11.12
780.769	11.12
781.516	12.12
782.262	12.12
783.008	11.12
783.754	12.12
784.5	12.12
785.246	10.12
785.992	10.12
786.738	11.12
787.484	10.12
788.23	11.12
788.975	10.12
789.721	10.12
790.466	9.12
791.212	9.12
791.957	14.12
792.702	11.12
793.447	11.12
794.193	13.12
794.938	11.12
795.683	11.12
796.427	12.12
797.172	8.12
797.917	8.12
798.662	10.12
799.406	9.12
800.151	10.12
800.895	10.12
801.64	8.12
802.384	8.12
803.128	10.12
803.872	9.12
804.616	9.12
805.36	8.12
806.104	7.12
806.848	6.12
807.592	6.12
808.336	5.12
809.079	9.12
809.823	8.12
810.566	7.12
811.31	5.12
812.053	9.12
812.796	6.12
813.539	7.12
814.283	6.12
815.026	5.12
815.769	6.12
816.511	5.12
817.254	7.12
817.997	4.12
818.74	6.12
819.482	4.12
820.225	5.12
820.967	7.12
821.71	3.12
822.452	6.12
823.194	5.12
823.936	7.12
824.678	7.12
825.42	3.12
826.162	5.12
826.904	5.12
827.646	4.12
828.388	5.12
829.129	4.12
829.871	4.12
830.612	4.12
831.354	6.12
832.095	4.12
832.836	3.12
833.577	6.12
834.319	6.12
835.06	6.12
835.801	5.12
836.542	5.12
837.282	4.12
838.023	3.12
838.764	5.12
839.504	2.12
840.245	5.12
840.985	5.12
841.726	3.12
842.466	4.12
843.206	3.12
843.946	4.12
844.687	4.12
845.427	4.12
846.166	4.12
846.906	3.12
847.646	3.12
848.386	2.12
849.125	2.12
849.865	2.12
850.605	3.12
851.344	2.12
852.083	2.12
852.823	4.12
853.562	4.12
854.301	3.12
855.04	2.12
855.779	1.12
856.518	3.12
857.257	2.12
857.995	4.12
858.734	4.12
859.473	4.12
860.211	0.12
860.95	-0.88
861.688	3.12
862.426	2.12
863.165	3.12
863.903	1.12
864.641	2.12
865.379	1.12
866.117	2.12
866.855	5.12
867.593	3.12
868.33	1.12
869.068	3.12
869.806	0.12
870.543	2.12
871.28	2.12
872.018	2.12
872.755	1.12
873.492	3.12
874.229	4.12
874.967	2.12
875.703	2.12
876.44	1.12
877.177	1.12
877.914	3.12
878.651	0.12
879.387	2.12
880.124	1.12
880.86	0.12
881.597	1.12
882.333	2.12
883.069	1.12
883.806	-0.88
884.542	3.12
885.278	2.12
886.014	3.12
886.749	0.12
887.485	-0.88
888.221	3.12
888.957	1.12
889.692	2.12
890.428	2.12
891.163	0.12
891.899	1.12
892.634	3.12
893.369	4.12
894.104	0.12
894.839	1.12
895.574	0.12
896.309	3.12
897.044	2.12
897.779	2.12
898.514	1.12
899.248	1.12
899.983	3.12
900.717	4.12
901.452	2.12
902.186	1.12
902.92	1.12
903.654	0.12
904.389	0.12
905.123	0.12
905.857	2.12
906.59	-1.88
907.324	0.12
908.058	0.12
908.792	0.12
909.525	0.12
910.259	1.12
910.992	2.12
911.726	0.12
912.459	0.12
913.192	0.12
913.925	1.12
914.658	1.12
915.391	-0.88
916.124	0.12
916.857	0.12
917.59	0.12
918.323	0.12
919.055	0.12
919.788	3.12
920.521	-0.88
921.253	0.12
921.985	1.12
922.718	0.12
923.45	2.12
924.182	-1.88
924.914	1.12
925.646	0.12
926.378	1.12
927.11	1.12
927.841	0.12
928.573	2.12
929.305	0.12
930.036	1.12
930.768	-0.88
931.499	0.12
932.23	3.12
932.962	1.12
933.693	0.12
934.424	0.12
935.155	0.12
935.886	1.12
936.617	-0.88
937.348	0.12
938.078	-0.88
938.809	0.12
939.54	2.12
940.27	0.12
941.001	1.12
941.731	0.12
942.461	0.12
943.191	-0.88
943.922	1.12
944.652	0.12
945.382	-2.88
946.112	1.12
946.841	0.12
947.571	1.12
948.301	-0.88
949.031	1.12
949.76	0.12
950.49	-0.88
951.219	-1.88
951.948	-0.88
952.678	1.12
953.407	1.12
954.136	0.12
954.865	-0.88
955.594	-0.88
956.323	0.12
957.052	0.12
957.78	2.12
958.509	-1.88
959.238	0.12
959.966	-1.88
960.695	1.12
961.423	1.12
962.151	0.12
962.88	0.12
963.608	0.12
964.336	0.12
965.064	0.12
965.792	0.12
966.52	0.12
967.247	-0.88
967.975	0.12
968.703	0.12
969.43	-0.88
970.158	1.12
970.885	1.12
971.613	0.12
972.34	0.12
973.067	-0.88
973.794	1.12
974.521	1.12
975.248	0.12
975.975	2.12
976.702	0.12
977.429	2.12
978.156	-0.88
978.882	0.12
979.609	-1.88
980.335	-0.88
981.062	-0.88
981.788	0.12
982.514	-0.88
983.24	0.12
983.967	0.12
984.693	0.12
985.419	-0.88
986.144	3.12
986.87	-1.88
987.596	-0.88
988.322	1.12
989.047	0.12
989.773	4.12
990.498	-0.88
991.224	2.12
991.949	0.12
992.674	0.12
993.399	1.12
994.124	-0.88
994.849	0.12
995.574	-1.88
996.299	0.12
997.024	-0.88
997.749	0.12
998.473	0.12
999.198	1.12
999.922	0.12
1000.647	2.12
1001.371	2.12
1002.095	-0.88
1002.82	-0.88
1003.544	-0.88
1004.268	3.12
1004.992	0.12
1005.716	2.12
1006.439	1.12
1007.163	4.12
1007.887	1.12
1008.611	1.12
1009.334	1.12
1010.058	0.12
1010.781	0.12
1011.504	-0.88
1012.228	1.12
1012.951	0.12
1013.674	-1.88
1014.397	3.12
1015.12	-0.88
