节点500_425_QEPB04081__27__15-48-48-412.txt的数据

Date: Wed Nov 12 15:48:48 CST 2025
User: PC
Spectrometer: QEPB0408
触发模式: 0
积分时间 (秒): 1.000000E-2
Scans to average: 1
启用暗噪声校正: true
启用非线性校正: false
滑动平均宽度: 0
X轴模式: Wavelengths
Number of Pixels in Spectrum: 1044
>>>>>Begin Spectral Data<<<<<
220.843	3.62
221.644	2.62
222.444	3.62
223.244	4.62
224.045	3.62
224.845	5.62
225.645	2.62
226.445	4.62
227.245	2.62
228.045	7.62
228.845	5.62
229.645	3.62
230.444	5.62
231.244	5.62
232.043	6.62
232.843	7.62
233.642	6.62
234.442	6.62
235.241	6.62
236.04	6.62
236.839	4.62
237.638	5.62
238.437	8.62
239.236	8.62
240.035	8.62
240.833	6.62
241.632	8.62
242.43	7.62
243.229	7.62
244.027	8.62
244.826	8.62
245.624	11.62
246.422	8.62
247.22	11.62
248.018	10.62
248.816	10.62
249.614	9.62
250.412	8.62
251.21	9.62
252.007	10.62
252.805	11.62
253.602	12.62
254.4	12.62
255.197	15.62
255.994	12.62
256.791	17.62
257.589	14.62
258.386	14.62
259.183	14.62
259.979	17.62
260.776	16.62
261.573	17.62
262.37	17.62
263.166	17.62
263.963	19.62
264.759	20.62
265.556	18.62
266.352	19.62
267.148	23.62
267.944	21.62
268.74	20.62
269.536	22.62
270.332	25.62
271.128	24.62
271.924	21.62
272.719	25.62
273.515	25.62
274.311	24.62
275.106	23.62
275.901	24.62
276.697	24.62
277.492	27.62
278.287	28.62
279.082	25.62
279.877	26.62
280.672	24.62
281.467	26.62
282.262	26.62
283.056	29.62
283.851	26.62
284.646	26.62
285.44	26.62
286.234	25.62
287.029	28.62
287.823	25.62
288.617	25.62
289.411	26.62
290.205	24.62
290.999	26.62
291.793	22.62
292.587	26.62
293.381	22.62
294.174	24.62
294.968	23.62
295.761	23.62
296.555	22.62
297.348	18.62
298.141	20.62
298.935	21.62
299.728	17.62
300.521	19.62
301.314	17.62
302.107	18.62
302.899	15.62
303.692	15.62
304.485	18.62
305.277	14.62
306.07	18.62
306.862	12.62
307.655	15.62
308.447	15.62
309.239	15.62
310.031	13.62
310.823	14.62
311.615	14.62
312.407	14.62
313.199	12.62
313.991	13.62
314.783	10.62
315.574	10.62
316.366	11.62
317.157	12.62
317.949	9.62
318.74	10.62
319.531	11.62
320.322	11.62
321.113	10.62
321.904	12.62
322.695	7.62
323.486	10.62
324.277	10.62
325.068	9.62
325.858	9.62
326.649	8.62
327.439	9.62
328.23	6.62
329.02	9.62
329.81	7.62
330.6	9.62
331.391	9.62
332.181	8.62
332.971	9.62
333.76	8.62
334.55	12.62
335.34	7.62
336.13	7.62
336.919	9.62
337.709	5.62
338.498	8.62
339.287	6.62
340.077	6.62
340.866	7.62
341.655	8.62
342.444	9.62
343.233	6.62
344.022	6.62
344.811	8.62
345.6	11.62
346.388	8.62
347.177	8.62
347.965	9.62
348.754	9.62
349.542	8.62
350.33	8.62
351.119	7.62
351.907	6.62
352.695	5.62
353.483	7.62
354.271	4.62
355.059	8.62
355.846	9.62
356.634	8.62
357.422	8.62
358.209	7.62
358.997	8.62
359.784	7.62
360.571	5.62
361.359	6.62
362.146	7.62
362.933	8.62
363.72	7.62
364.507	7.62
365.294	7.62
366.081	5.62
366.867	7.62
367.654	3.62
368.44	8.62
369.227	7.62
370.013	7.62
370.8	6.62
371.586	8.62
372.372	5.62
373.158	7.62
373.944	9.62
374.73	6.62
375.516	9.62
376.302	6.62
377.088	6.62
377.873	6.62
378.659	8.62
379.445	4.62
380.23	6.62
381.015	8.62
381.801	7.62
382.586	10.62
383.371	10.62
384.156	9.62
384.941	8.62
385.726	7.62
386.511	9.62
387.296	7.62
388.08	7.62
388.865	9.62
389.649	11.62
390.434	9.62
391.218	8.62
392.003	7.62
392.787	8.62
393.571	8.62
394.355	8.62
395.139	9.62
395.923	7.62
396.707	10.62
397.491	9.62
398.274	9.62
399.058	9.62
399.842	7.62
400.625	10.62
401.408	12.62
402.192	11.62
402.975	8.62
403.758	12.62
404.541	9.62
405.324	10.62
406.107	11.62
406.89	9.62
407.673	11.62
408.456	9.62
409.238	12.62
410.021	10.62
410.803	13.62
411.586	12.62
412.368	10.62
413.151	10.62
413.933	13.62
414.715	12.62
415.497	12.62
416.279	13.62
417.061	12.62
417.843	12.62
418.624	10.62
419.406	13.62
420.188	13.62
420.969	17.62
421.751	14.62
422.532	17.62
423.313	18.62
424.095	18.62
424.876	16.62
425.657	16.62
426.438	15.62
427.219	16.62
428	16.62
428.78	17.62
429.561	21.62
430.342	22.62
431.122	22.62
431.903	20.62
432.683	22.62
433.464	24.62
434.244	25.62
435.024	23.62
435.804	24.62
436.584	27.62
437.364	27.62
438.144	29.62
438.924	30.62
439.704	29.62
440.483	34.62
441.263	35.62
442.042	39.62
442.822	41.62
443.601	45.62
444.38	43.62
445.16	45.62
445.939	49.62
446.718	51.62
447.497	59.62
448.276	59.62
449.054	69.62
449.833	73.62
450.612	78.62
451.391	86.62
452.169	94.62
452.948	103.62
453.726	113.62
454.504	120.62
455.282	139.62
456.061	155.62
456.839	170.62
457.617	185.62
458.395	208.62
459.172	228.62
459.95	259.62
460.728	292.62
461.506	318.62
462.283	358.62
463.061	406.62
463.838	460.62
464.615	516.62
465.393	573.62
466.17	641.62
466.947	697.62
467.724	794.62
468.501	898.62
469.278	1003.62
470.055	1112.62
470.831	1246.62
471.608	1365.62
472.385	1555.62
473.161	1714.62
473.938	1896.62
474.714	2115.62
475.49	2341.62
476.266	2610.62
477.043	2869.62
477.819	3186.62
478.595	3570.62
479.371	3938.62
480.146	4337.62
480.922	4807.62
481.698	5313.62
482.473	5860.62
483.249	6452.62
484.024	7130.62
484.8	7859.62
485.575	8626.62
486.35	9448.62
487.126	10354.62
487.901	11390.62
488.676	12516.62
489.451	13664.62
490.225	14879.62
491	16190.62
491.775	17638.62
492.55	19115.62
493.324	20572.62
494.099	22120.62
494.873	23669.62
495.647	25202.62
496.422	26857.62
497.196	28428.62
497.97	30111.62
498.744	31685.62
499.518	33042.62
500.292	34338.62
501.066	35353.62
501.839	36342.62
502.613	37156.62
503.387	37694.62
504.16	38013.62
504.934	38018.62
505.707	37746.62
506.48	37255.62
507.253	36650.62
508.027	36013.62
508.8	35094.62
509.573	34193.62
510.346	32972.62
511.118	31754.62
511.891	30664.62
512.664	29294.62
513.437	28078.62
514.209	26770.62
514.982	25714.62
515.754	24557.62
516.526	23441.62
517.298	22422.62
518.071	21451.62
518.843	20629.62
519.615	19772.62
520.387	18960.62
521.159	18277.62
521.93	17609.62
522.702	16866.62
523.474	16235.62
524.245	15519.62
525.017	14744.62
525.788	14106.62
526.56	13469.62
527.331	12798.62
528.102	12158.62
528.873	11534.62
529.644	10957.62
530.415	10448.62
531.186	9868.62
531.957	9309.62
532.728	8818.62
533.498	8272.62
534.269	7843.62
535.039	7409.62
535.81	6972.62
536.58	6573.62
537.351	6208.62
538.121	5871.62
538.891	5538.62
539.661	5281.62
540.431	4981.62
541.201	4696.62
541.971	4493.62
542.741	4257.62
543.51	4033.62
544.28	3836.62
545.05	3654.62
545.819	3487.62
546.588	3309.62
547.358	3122.62
548.127	2966.62
548.896	2802.62
549.665	2647.62
550.434	2523.62
551.203	2407.62
551.972	2241.62
552.741	2122.62
553.51	2006.62
554.278	1898.62
555.047	1785.62
555.815	1684.62
556.584	1579.62
557.352	1509.62
558.121	1406.62
558.889	1337.62
559.657	1269.62
560.425	1193.62
561.193	1121.62
561.961	1064.62
562.729	1004.62
563.496	949.62
564.264	900.62
565.032	853.62
565.799	807.62
566.567	768.62
567.334	726.62
568.101	681.62
568.869	645.62
569.636	599.62
570.403	568.62
571.17	543.62
571.937	507.62
572.704	490.62
573.471	451.62
574.237	420.62
575.004	404.62
575.771	378.62
576.537	361.62
577.303	337.62
578.07	312.62
578.836	302.62
579.602	286.62
580.368	270.62
581.134	253.62
581.9	237.62
582.666	226.62
583.432	213.62
584.198	200.62
584.964	192.62
585.729	184.62
586.495	167.62
587.26	166.62
588.025	159.62
588.791	147.62
589.556	139.62
590.321	128.62
591.086	127.62
591.851	122.62
592.616	118.62
593.381	111.62
594.146	102.62
594.911	100.62
595.675	94.62
596.44	92.62
597.204	84.62
597.969	82.62
598.733	81.62
599.497	79.62
600.261	71.62
601.025	70.62
601.79	64.62
602.553	64.62
603.317	65.62
604.081	59.62
604.845	57.62
605.609	55.62
606.372	49.62
607.136	51.62
607.899	45.62
608.662	45.62
609.426	45.62
610.189	42.62
610.952	41.62
611.715	37.62
612.478	39.62
613.241	37.62
614.004	36.62
614.767	36.62
615.529	34.62
616.292	31.62
617.055	31.62
617.817	27.62
618.579	28.62
619.342	28.62
620.104	25.62
620.866	28.62
621.628	26.62
622.39	26.62
623.152	21.62
623.914	25.62
624.676	20.62
625.438	20.62
626.199	24.62
626.961	19.62
627.722	20.62
628.484	21.62
629.245	16.62
630.006	21.62
630.768	17.62
631.529	18.62
632.29	17.62
633.051	18.62
633.812	16.62
634.573	16.62
635.333	15.62
636.094	16.62
636.855	14.62
637.615	15.62
638.376	15.62
639.136	14.62
639.896	11.62
640.657	12.62
641.417	14.62
642.177	14.62
642.937	12.62
643.697	12.62
644.457	11.62
645.216	9.62
645.976	11.62
646.736	14.62
647.495	12.62
648.255	10.62
649.014	8.62
649.774	11.62
650.533	10.62
651.292	12.62
652.051	9.62
652.81	7.62
653.569	8.62
654.328	7.62
655.087	10.62
655.846	8.62
656.604	7.62
657.363	5.62
658.121	9.62
658.88	9.62
659.638	9.62
660.397	8.62
661.155	7.62
661.913	7.62
662.671	7.62
663.429	8.62
664.187	9.62
664.945	6.62
665.703	7.62
666.46	4.62
667.218	7.62
667.976	7.62
668.733	6.62
669.49	7.62
670.248	8.62
671.005	5.62
671.762	7.62
672.519	6.62
673.276	8.62
674.033	6.62
674.79	6.62
675.547	5.62
676.304	5.62
677.06	6.62
677.817	5.62
678.574	5.62
679.33	7.62
680.086	6.62
680.843	6.62
681.599	7.62
682.355	5.62
683.111	6.62
683.867	5.62
684.623	5.62
685.379	5.62
686.135	4.62
686.89	5.62
687.646	6.62
688.402	7.62
689.157	7.62
689.912	6.62
690.668	6.62
691.423	4.62
692.178	3.62
692.933	4.62
693.688	2.62
694.443	4.62
695.198	6.62
695.953	5.62
696.708	7.62
697.462	6.62
698.217	3.62
698.972	5.62
699.726	4.62
700.48	5.62
701.235	3.62
701.989	5.62
702.743	4.62
703.497	4.62
704.251	4.62
705.005	6.62
705.759	4.62
706.513	5.62
707.266	5.62
708.02	5.62
708.774	6.62
709.527	6.62
710.28	5.62
711.034	6.62
711.787	2.62
712.54	4.62
713.293	4.62
714.046	4.62
714.799	5.62
715.552	6.62
716.305	5.62
717.058	5.62
717.81	5.62
718.563	4.62
719.315	4.62
720.068	5.62
720.82	4.62
721.573	5.62
722.325	5.62
723.077	4.62
723.829	7.62
724.581	5.62
725.333	3.62
726.085	7.62
726.836	5.62
727.588	5.62
728.34	5.62
729.091	6.62
729.843	3.62
730.594	5.62
731.346	6.62
732.097	4.62
732.848	7.62
733.599	5.62
734.35	5.62
735.101	9.62
735.852	5.62
736.603	7.62
737.354	5.62
738.104	7.62
738.855	5.62
739.605	10.62
740.356	7.62
741.106	9.62
741.856	8.62
742.607	7.62
743.357	7.62
744.107	5.62
744.857	6.62
745.607	5.62
746.357	7.62
747.106	6.62
747.856	5.62
748.606	10.62
749.355	10.62
750.105	7.62
750.854	8.62
751.603	9.62
752.353	9.62
753.102	6.62
753.851	9.62
754.6	7.62
755.349	9.62
756.098	9.62
756.847	10.62
757.595	8.62
758.344	9.62
759.093	7.62
759.841	10.62
760.589	7.62
761.338	10.62
762.086	10.62
762.834	8.62
763.582	10.62
764.331	9.62
765.079	10.62
765.826	11.62
766.574	13.62
767.322	10.62
768.07	11.62
768.817	10.62
769.565	10.62
770.312	11.62
771.06	10.62
771.807	9.62
772.554	11.62
773.302	9.62
774.049	12.62
774.796	11.62
775.543	11.62
776.29	14.62
777.036	11.62
777.783	12.62
778.53	13.62
779.276	12.62
780.023	10.62
780.769	13.62
781.516	12.62
782.262	13.62
783.008	11.62
783.754	12.62
784.5	11.62
785.246	10.62
785.992	12.62
786.738	12.62
787.484	13.62
788.23	11.62
788.975	14.62
789.721	12.62
790.466	11.62
791.212	12.62
791.957	13.62
792.702	10.62
793.447	14.62
794.193	12.62
794.938	9.62
795.683	8.62
796.427	12.62
797.172	11.62
797.917	9.62
798.662	10.62
799.406	8.62
800.151	10.62
800.895	9.62
801.64	9.62
802.384	8.62
803.128	10.62
803.872	9.62
804.616	8.62
805.36	9.62
806.104	10.62
806.848	7.62
807.592	8.62
808.336	9.62
809.079	6.62
809.823	6.62
810.566	7.62
811.31	6.62
812.053	8.62
812.796	5.62
813.539	7.62
814.283	8.62
815.026	7.62
815.769	5.62
816.511	6.62
817.254	5.62
817.997	4.62
818.74	6.62
819.482	7.62
820.225	7.62
820.967	9.62
821.71	5.62
822.452	3.62
823.194	8.62
823.936	5.62
824.678	4.62
825.42	6.62
826.162	2.62
826.904	7.62
827.646	4.62
828.388	6.62
829.129	2.62
829.871	4.62
830.612	4.62
831.354	5.62
832.095	7.62
832.836	5.62
833.577	5.62
834.319	5.62
835.06	3.62
835.801	6.62
836.542	5.62
837.282	6.62
838.023	4.62
838.764	3.62
839.504	4.62
840.245	2.62
840.985	8.62
841.726	2.62
842.466	4.62
843.206	4.62
843.946	2.62
844.687	6.62
845.427	4.62
846.166	3.62
846.906	4.62
847.646	4.62
848.386	3.62
849.125	3.62
849.865	2.62
850.605	5.62
851.344	2.62
852.083	5.62
852.823	3.62
853.562	3.62
854.301	2.62
855.04	5.62
855.779	5.62
856.518	1.62
857.257	3.62
857.995	3.62
858.734	4.62
859.473	0.62
860.211	2.62
860.95	1.62
861.688	1.62
862.426	5.62
863.165	2.62
863.903	2.62
864.641	4.62
865.379	2.62
866.117	2.62
866.855	2.62
867.593	4.62
868.33	2.62
869.068	3.62
869.806	0.62
870.543	1.62
871.28	2.62
872.018	2.62
872.755	3.62
873.492	3.62
874.229	1.62
874.967	2.62
875.703	0.62
876.44	3.62
877.177	2.62
877.914	1.62
878.651	-0.38
879.387	2.62
880.124	0.62
880.86	0.62
881.597	2.62
882.333	2.62
883.069	1.62
883.806	0.62
884.542	1.62
885.278	0.62
886.014	3.62
886.749	-0.38
887.485	1.62
888.221	0.62
888.957	2.62
889.692	1.62
890.428	2.62
891.163	2.62
891.899	-0.38
892.634	0.62
893.369	0.62
894.104	0.62
894.839	0.62
895.574	0.62
896.309	4.62
897.044	1.62
897.779	1.62
898.514	1.62
899.248	2.62
899.983	2.62
900.717	1.62
901.452	0.62
902.186	-0.38
902.92	0.62
903.654	0.62
904.389	1.62
905.123	0.62
905.857	0.62
906.59	-0.38
907.324	1.62
908.058	1.62
908.792	1.62
909.525	3.62
910.259	0.62
910.992	1.62
911.726	2.62
912.459	-0.38
913.192	-1.38
913.925	0.62
914.658	0.62
915.391	-0.38
916.124	-0.38
916.857	1.62
917.59	0.62
918.323	2.62
919.055	1.62
919.788	0.62
920.521	0.62
921.253	2.62
921.985	-0.38
922.718	-1.38
923.45	3.62
924.182	0.62
924.914	-1.38
925.646	1.62
926.378	1.62
927.11	2.62
927.841	-0.38
928.573	1.62
929.305	-1.38
930.036	0.62
930.768	1.62
931.499	1.62
932.23	-1.38
932.962	2.62
933.693	0.62
934.424	-1.38
935.155	1.62
935.886	0.62
936.617	1.62
937.348	0.62
938.078	1.62
938.809	0.62
939.54	0.62
940.27	-2.38
941.001	1.62
941.731	0.62
942.461	-0.38
943.191	-0.38
943.922	0.62
944.652	-1.38
945.382	0.62
946.112	-0.38
946.841	0.62
947.571	1.62
948.301	1.62
949.031	2.62
949.76	2.62
950.49	0.62
951.219	-0.38
951.948	0.62
952.678	0.62
953.407	1.62
954.136	1.62
954.865	1.62
955.594	1.62
956.323	0.62
957.052	2.62
957.78	1.62
958.509	2.62
959.238	1.62
959.966	-3.38
960.695	-0.38
961.423	-1.38
962.151	1.62
962.88	1.62
963.608	2.62
964.336	3.62
965.064	-0.38
965.792	0.62
966.52	-1.38
967.247	1.62
967.975	-0.38
968.703	-0.38
969.43	2.62
970.158	0.62
970.885	1.62
971.613	0.62
972.34	0.62
973.067	0.62
973.794	0.62
974.521	0.62
975.248	0.62
975.975	1.62
976.702	0.62
977.429	0.62
978.156	0.62
978.882	0.62
979.609	2.62
980.335	1.62
981.062	2.62
981.788	1.62
982.514	1.62
983.24	0.62
983.967	-0.38
984.693	3.62
985.419	-0.38
986.144	0.62
986.87	0.62
987.596	-3.38
988.322	2.62
989.047	0.62
989.773	0.62
990.498	-0.38
991.224	2.62
991.949	0.62
992.674	-0.38
993.399	1.62
994.124	-0.38
994.849	0.62
995.574	2.62
996.299	0.62
997.024	0.62
997.749	-1.38
998.473	0.62
999.198	0.62
999.922	-0.38
1000.647	-1.38
1001.371	3.62
1002.095	-0.38
1002.82	0.62
1003.544	-0.38
1004.268	2.62
1004.992	1.62
1005.716	2.62
1006.439	2.62
1007.163	3.62
1007.887	5.62
1008.611	0.62
1009.334	1.62
1010.058	-1.38
1010.781	0.62
1011.504	-1.38
1012.228	0.62
1012.951	-1.38
1013.674	-3.38
1014.397	-0.38
1015.12	1.62
