节点500_425_QEPB04081__327__15-53-44-824.txt的数据

Date: Wed Nov 12 15:53:44 CST 2025
User: PC
Spectrometer: QEPB0408
触发模式: 0
积分时间 (秒): 1.000000E-2
Scans to average: 1
启用暗噪声校正: true
启用非线性校正: false
滑动平均宽度: 0
X轴模式: Wavelengths
Number of Pixels in Spectrum: 1044
>>>>>Begin Spectral Data<<<<<
220.843	1.88
221.644	1.88
222.444	1.88
223.244	1.88
224.045	3.88
224.845	4.88
225.645	4.88
226.445	2.88
227.245	3.88
228.045	2.88
228.845	2.88
229.645	3.88
230.444	3.88
231.244	4.88
232.043	4.88
232.843	4.88
233.642	4.88
234.442	4.88
235.241	5.88
236.04	5.88
236.839	5.88
237.638	4.88
238.437	4.88
239.236	5.88
240.035	6.88
240.833	6.88
241.632	4.88
242.43	5.88
243.229	6.88
244.027	6.88
244.826	6.88
245.624	5.88
246.422	6.88
247.22	8.88
248.018	7.88
248.816	7.88
249.614	5.88
250.412	8.88
251.21	9.88
252.007	12.88
252.805	9.88
253.602	8.88
254.4	12.88
255.197	9.88
255.994	10.88
256.791	12.88
257.589	13.88
258.386	11.88
259.183	11.88
259.979	14.88
260.776	12.88
261.573	14.88
262.37	14.88
263.166	13.88
263.963	15.88
264.759	15.88
265.556	15.88
266.352	17.88
267.148	18.88
267.944	17.88
268.74	15.88
269.536	16.88
270.332	18.88
271.128	19.88
271.924	19.88
272.719	20.88
273.515	20.88
274.311	21.88
275.106	22.88
275.901	23.88
276.697	19.88
277.492	23.88
278.287	23.88
279.082	22.88
279.877	23.88
280.672	23.88
281.467	23.88
282.262	23.88
283.056	25.88
283.851	23.88
284.646	23.88
285.44	23.88
286.234	26.88
287.029	24.88
287.823	23.88
288.617	23.88
289.411	25.88
290.205	25.88
290.999	22.88
291.793	21.88
292.587	21.88
293.381	20.88
294.174	22.88
294.968	20.88
295.761	18.88
296.555	18.88
297.348	17.88
298.141	16.88
298.935	19.88
299.728	19.88
300.521	19.88
301.314	14.88
302.107	17.88
302.899	15.88
303.692	16.88
304.485	17.88
305.277	15.88
306.07	13.88
306.862	13.88
307.655	13.88
308.447	16.88
309.239	14.88
310.031	14.88
310.823	11.88
311.615	13.88
312.407	11.88
313.199	14.88
313.991	12.88
314.783	11.88
315.574	10.88
316.366	9.88
317.157	9.88
317.949	8.88
318.74	11.88
319.531	7.88
320.322	10.88
321.113	9.88
321.904	7.88
322.695	9.88
323.486	10.88
324.277	11.88
325.068	11.88
325.858	8.88
326.649	8.88
327.439	7.88
328.23	8.88
329.02	9.88
329.81	7.88
330.6	7.88
331.391	7.88
332.181	8.88
332.971	8.88
333.76	8.88
334.55	8.88
335.34	5.88
336.13	6.88
336.919	7.88
337.709	5.88
338.498	7.88
339.287	5.88
340.077	9.88
340.866	6.88
341.655	8.88
342.444	8.88
343.233	7.88
344.022	6.88
344.811	4.88
345.6	8.88
346.388	9.88
347.177	6.88
347.965	5.88
348.754	6.88
349.542	9.88
350.33	8.88
351.119	6.88
351.907	7.88
352.695	7.88
353.483	7.88
354.271	7.88
355.059	7.88
355.846	7.88
356.634	7.88
357.422	5.88
358.209	9.88
358.997	6.88
359.784	6.88
360.571	8.88
361.359	7.88
362.146	4.88
362.933	6.88
363.72	5.88
364.507	7.88
365.294	7.88
366.081	5.88
366.867	5.88
367.654	5.88
368.44	6.88
369.227	7.88
370.013	5.88
370.8	7.88
371.586	5.88
372.372	7.88
373.158	6.88
373.944	5.88
374.73	4.88
375.516	7.88
376.302	6.88
377.088	4.88
377.873	6.88
378.659	5.88
379.445	6.88
380.23	8.88
381.015	6.88
381.801	7.88
382.586	6.88
383.371	4.88
384.156	6.88
384.941	7.88
385.726	5.88
386.511	7.88
387.296	7.88
388.08	5.88
388.865	5.88
389.649	7.88
390.434	7.88
391.218	6.88
392.003	6.88
392.787	6.88
393.571	8.88
394.355	8.88
395.139	7.88
395.923	7.88
396.707	7.88
397.491	7.88
398.274	7.88
399.058	7.88
399.842	9.88
400.625	9.88
401.408	6.88
402.192	9.88
402.975	8.88
403.758	9.88
404.541	9.88
405.324	8.88
406.107	9.88
406.89	8.88
407.673	9.88
408.456	9.88
409.238	8.88
410.021	10.88
410.803	10.88
411.586	10.88
412.368	11.88
413.151	11.88
413.933	12.88
414.715	11.88
415.497	13.88
416.279	9.88
417.061	15.88
417.843	11.88
418.624	14.88
419.406	11.88
420.188	11.88
420.969	13.88
421.751	11.88
422.532	16.88
423.313	13.88
424.095	14.88
424.876	14.88
425.657	13.88
426.438	17.88
427.219	18.88
428	16.88
428.78	17.88
429.561	17.88
430.342	16.88
431.122	19.88
431.903	20.88
432.683	19.88
433.464	20.88
434.244	23.88
435.024	25.88
435.804	25.88
436.584	24.88
437.364	26.88
438.144	32.88
438.924	28.88
439.704	31.88
440.483	32.88
441.263	32.88
442.042	37.88
442.822	40.88
443.601	42.88
444.38	43.88
445.16	50.88
445.939	49.88
446.718	55.88
447.497	60.88
448.276	65.88
449.054	71.88
449.833	80.88
450.612	82.88
451.391	93.88
452.169	102.88
452.948	112.88
453.726	124.88
454.504	140.88
455.282	155.88
456.061	170.88
456.839	190.88
457.617	213.88
458.395	228.88
459.172	259.88
459.95	295.88
460.728	324.88
461.506	358.88
462.283	400.88
463.061	450.88
463.838	500.88
464.615	550.88
465.393	618.88
466.17	695.88
466.947	783.88
467.724	861.88
468.501	952.88
469.278	1060.88
470.055	1193.88
470.831	1292.88
471.608	1446.88
472.385	1590.88
473.161	1766.88
473.938	1958.88
474.714	2149.88
475.49	2369.88
476.266	2614.88
477.043	2871.88
477.819	3157.88
478.595	3481.88
479.371	3856.88
480.146	4186.88
480.922	4595.88
481.698	5053.88
482.473	5495.88
483.249	6057.88
484.024	6617.88
484.8	7252.88
485.575	7898.88
486.35	8649.88
487.126	9350.88
487.901	10223.88
488.676	11156.88
489.451	12104.88
490.225	13112.88
491	14294.88
491.775	15422.88
492.55	16628.88
493.324	17959.88
494.099	19255.88
494.873	20520.88
495.647	21891.88
496.422	23277.88
497.196	24662.88
497.97	26171.88
498.744	27531.88
499.518	28951.88
500.292	30083.88
501.066	31228.88
501.839	32369.88
502.613	33243.88
503.387	33983.88
504.16	34528.88
504.934	34937.88
505.707	34906.88
506.48	34904.88
507.253	34739.88
508.027	34329.88
508.8	33803.88
509.573	33128.88
510.346	32369.88
511.118	31450.88
511.891	30435.88
512.664	29339.88
513.437	28214.88
514.209	27024.88
514.982	26097.88
515.754	25097.88
516.526	23996.88
517.298	22992.88
518.071	21972.88
518.843	21118.88
519.615	20271.88
520.387	19484.88
521.159	18800.88
521.93	18003.88
522.702	17323.88
523.474	16638.88
524.245	15895.88
525.017	15250.88
525.788	14490.88
526.56	13807.88
527.331	13259.88
528.102	12653.88
528.873	12022.88
529.644	11443.88
530.415	10943.88
531.186	10410.88
531.957	9846.88
532.728	9330.88
533.498	8844.88
534.269	8355.88
535.039	7902.88
535.81	7486.88
536.58	7020.88
537.351	6672.88
538.121	6284.88
538.891	5966.88
539.661	5647.88
540.431	5384.88
541.201	5055.88
541.971	4795.88
542.741	4578.88
543.51	4359.88
544.28	4124.88
545.05	3886.88
545.819	3757.88
546.588	3545.88
547.358	3348.88
548.127	3170.88
548.896	3008.88
549.665	2871.88
550.434	2732.88
551.203	2586.88
551.972	2460.88
552.741	2314.88
553.51	2173.88
554.278	2061.88
555.047	1947.88
555.815	1834.88
556.584	1729.88
557.352	1649.88
558.121	1541.88
558.889	1471.88
559.657	1387.88
560.425	1309.88
561.193	1231.88
561.961	1170.88
562.729	1106.88
563.496	1054.88
564.264	990.88
565.032	929.88
565.799	883.88
566.567	833.88
567.334	785.88
568.101	750.88
568.869	706.88
569.636	667.88
570.403	623.88
571.17	586.88
571.937	565.88
572.704	531.88
573.471	500.88
574.237	468.88
575.004	442.88
575.771	419.88
576.537	396.88
577.303	366.88
578.07	347.88
578.836	333.88
579.602	317.88
580.368	284.88
581.134	273.88
581.9	260.88
582.666	249.88
583.432	238.88
584.198	223.88
584.964	219.88
585.729	200.88
586.495	196.88
587.26	183.88
588.025	175.88
588.791	163.88
589.556	153.88
590.321	150.88
591.086	137.88
591.851	135.88
592.616	127.88
593.381	119.88
594.146	114.88
594.911	111.88
595.675	105.88
596.44	100.88
597.204	94.88
597.969	87.88
598.733	89.88
599.497	82.88
600.261	80.88
601.025	76.88
601.79	67.88
602.553	69.88
603.317	64.88
604.081	63.88
604.845	60.88
605.609	56.88
606.372	55.88
607.136	56.88
607.899	50.88
608.662	48.88
609.426	47.88
610.189	46.88
610.952	47.88
611.715	41.88
612.478	38.88
613.241	37.88
614.004	36.88
614.767	37.88
615.529	32.88
616.292	34.88
617.055	31.88
617.817	33.88
618.579	28.88
619.342	31.88
620.104	29.88
620.866	28.88
621.628	26.88
622.39	27.88
623.152	25.88
623.914	23.88
624.676	21.88
625.438	23.88
626.199	22.88
626.961	21.88
627.722	19.88
628.484	22.88
629.245	19.88
630.006	20.88
630.768	17.88
631.529	17.88
632.29	15.88
633.051	15.88
633.812	13.88
634.573	13.88
635.333	13.88
636.094	17.88
636.855	17.88
637.615	14.88
638.376	11.88
639.136	13.88
639.896	11.88
640.657	13.88
641.417	12.88
642.177	13.88
642.937	12.88
643.697	11.88
644.457	10.88
645.216	9.88
645.976	11.88
646.736	9.88
647.495	11.88
648.255	8.88
649.014	9.88
649.774	10.88
650.533	9.88
651.292	8.88
652.051	8.88
652.81	8.88
653.569	9.88
654.328	10.88
655.087	6.88
655.846	8.88
656.604	6.88
657.363	7.88
658.121	7.88
658.88	6.88
659.638	10.88
660.397	6.88
661.155	7.88
661.913	2.88
662.671	4.88
663.429	7.88
664.187	8.88
664.945	7.88
665.703	7.88
666.46	6.88
667.218	6.88
667.976	6.88
668.733	6.88
669.49	4.88
670.248	7.88
671.005	5.88
671.762	5.88
672.519	3.88
673.276	6.88
674.033	7.88
674.79	6.88
675.547	4.88
676.304	6.88
677.06	3.88
677.817	5.88
678.574	6.88
679.33	4.88
680.086	5.88
680.843	3.88
681.599	6.88
682.355	3.88
683.111	7.88
683.867	3.88
684.623	4.88
685.379	4.88
686.135	3.88
686.89	5.88
687.646	4.88
688.402	7.88
689.157	5.88
689.912	1.88
690.668	3.88
691.423	4.88
692.178	4.88
692.933	6.88
693.688	4.88
694.443	5.88
695.198	4.88
695.953	3.88
696.708	4.88
697.462	3.88
698.217	7.88
698.972	3.88
699.726	3.88
700.48	4.88
701.235	5.88
701.989	5.88
702.743	5.88
703.497	4.88
704.251	5.88
705.005	2.88
705.759	3.88
706.513	4.88
707.266	5.88
708.02	4.88
708.774	5.88
709.527	3.88
710.28	3.88
711.034	5.88
711.787	4.88
712.54	2.88
713.293	1.88
714.046	6.88
714.799	4.88
715.552	1.88
716.305	5.88
717.058	2.88
717.81	5.88
718.563	3.88
719.315	7.88
720.068	3.88
720.82	4.88
721.573	3.88
722.325	4.88
723.077	5.88
723.829	5.88
724.581	4.88
725.333	6.88
726.085	4.88
726.836	2.88
727.588	4.88
728.34	6.88
729.091	1.88
729.843	4.88
730.594	5.88
731.346	4.88
732.097	3.88
732.848	5.88
733.599	8.88
734.35	4.88
735.101	6.88
735.852	6.88
736.603	4.88
737.354	5.88
738.104	4.88
738.855	3.88
739.605	4.88
740.356	4.88
741.106	3.88
741.856	3.88
742.607	4.88
743.357	3.88
744.107	3.88
744.857	7.88
745.607	6.88
746.357	7.88
747.106	7.88
747.856	6.88
748.606	5.88
749.355	7.88
750.105	6.88
750.854	5.88
751.603	7.88
752.353	8.88
753.102	5.88
753.851	6.88
754.6	4.88
755.349	6.88
756.098	8.88
756.847	5.88
757.595	7.88
758.344	8.88
759.093	10.88
759.841	7.88
760.589	8.88
761.338	7.88
762.086	8.88
762.834	7.88
763.582	5.88
764.331	7.88
765.079	7.88
765.826	7.88
766.574	7.88
767.322	7.88
768.07	7.88
768.817	9.88
769.565	8.88
770.312	7.88
771.06	11.88
771.807	9.88
772.554	9.88
773.302	6.88
774.049	5.88
774.796	8.88
775.543	10.88
776.29	11.88
777.036	11.88
777.783	9.88
778.53	12.88
779.276	8.88
780.023	8.88
780.769	12.88
781.516	10.88
782.262	10.88
783.008	9.88
783.754	10.88
784.5	11.88
785.246	11.88
785.992	9.88
786.738	10.88
787.484	10.88
788.23	10.88
788.975	10.88
789.721	9.88
790.466	8.88
791.212	14.88
791.957	10.88
792.702	10.88
793.447	11.88
794.193	8.88
794.938	10.88
795.683	9.88
796.427	9.88
797.172	8.88
797.917	8.88
798.662	9.88
799.406	9.88
800.151	10.88
800.895	9.88
801.64	5.88
802.384	8.88
803.128	7.88
803.872	6.88
804.616	7.88
805.36	6.88
806.104	8.88
806.848	7.88
807.592	9.88
808.336	3.88
809.079	7.88
809.823	5.88
810.566	6.88
811.31	3.88
812.053	3.88
812.796	7.88
813.539	8.88
814.283	3.88
815.026	5.88
815.769	6.88
816.511	5.88
817.254	4.88
817.997	4.88
818.74	5.88
819.482	5.88
820.225	5.88
820.967	5.88
821.71	5.88
822.452	6.88
823.194	7.88
823.936	4.88
824.678	5.88
825.42	6.88
826.162	2.88
826.904	4.88
827.646	4.88
828.388	3.88
829.129	3.88
829.871	4.88
830.612	4.88
831.354	3.88
832.095	3.88
832.836	4.88
833.577	4.88
834.319	1.88
835.06	2.88
835.801	6.88
836.542	1.88
837.282	6.88
838.023	2.88
838.764	6.88
839.504	3.88
840.245	2.88
840.985	3.88
841.726	3.88
842.466	3.88
843.206	3.88
843.946	3.88
844.687	5.88
845.427	2.88
846.166	2.88
846.906	2.88
847.646	4.88
848.386	1.88
849.125	2.88
849.865	3.88
850.605	2.88
851.344	3.88
852.083	1.88
852.823	3.88
853.562	3.88
854.301	1.88
855.04	3.88
855.779	0.88
856.518	3.88
857.257	1.88
857.995	3.88
858.734	1.88
859.473	1.88
860.211	2.88
860.95	1.88
861.688	2.88
862.426	3.88
863.165	-2.12
863.903	2.88
864.641	-0.12
865.379	0.88
866.117	1.88
866.855	1.88
867.593	0.88
868.33	0.88
869.068	4.88
869.806	2.88
870.543	-0.12
871.28	3.88
872.018	-0.12
872.755	-0.12
873.492	1.88
874.229	1.88
874.967	2.88
875.703	2.88
876.44	1.88
877.177	2.88
877.914	1.88
878.651	1.88
879.387	2.88
880.124	1.88
880.86	-0.12
881.597	0.88
882.333	1.88
883.069	-1.12
883.806	1.88
884.542	-0.12
885.278	-0.12
886.014	1.88
886.749	0.88
887.485	-0.12
888.221	-1.12
888.957	-0.12
889.692	0.88
890.428	-0.12
891.163	-0.12
891.899	-1.12
892.634	-1.12
893.369	1.88
894.104	-0.12
894.839	0.88
895.574	0.88
896.309	-0.12
897.044	0.88
897.779	0.88
898.514	-0.12
899.248	2.88
899.983	-0.12
900.717	-0.12
901.452	1.88
902.186	0.88
902.92	3.88
903.654	-0.12
904.389	2.88
905.123	0.88
905.857	-0.12
906.59	2.88
907.324	-4.12
908.058	1.88
908.792	-0.12
909.525	-0.12
910.259	1.88
910.992	-0.12
911.726	-0.12
912.459	-0.12
913.192	-0.12
913.925	-1.12
914.658	-0.12
915.391	0.88
916.124	-0.12
916.857	0.88
917.59	-0.12
918.323	-0.12
919.055	0.88
919.788	0.88
920.521	1.88
921.253	-0.12
921.985	-0.12
922.718	0.88
923.45	-0.12
924.182	-0.12
924.914	-2.12
925.646	-1.12
926.378	-1.12
927.11	0.88
927.841	-0.12
928.573	-2.12
929.305	-0.12
930.036	-1.12
930.768	0.88
931.499	-0.12
932.23	-1.12
932.962	1.88
933.693	-1.12
934.424	0.88
935.155	-0.12
935.886	0.88
936.617	-0.12
937.348	-0.12
938.078	1.88
938.809	-1.12
939.54	0.88
940.27	-0.12
941.001	-0.12
941.731	2.88
942.461	-2.12
943.191	0.88
943.922	0.88
944.652	-1.12
945.382	0.88
946.112	-1.12
946.841	0.88
947.571	-0.12
948.301	-1.12
949.031	0.88
949.76	2.88
950.49	-0.12
951.219	-2.12
951.948	0.88
952.678	-2.12
953.407	1.88
954.136	0.88
954.865	-1.12
955.594	-0.12
956.323	-2.12
957.052	-0.12
957.78	-1.12
958.509	-0.12
959.238	0.88
959.966	-1.12
960.695	-1.12
961.423	-1.12
962.151	0.88
962.88	-1.12
963.608	-2.12
964.336	-0.12
965.064	-1.12
965.792	-1.12
966.52	0.88
967.247	1.88
967.975	0.88
968.703	-0.12
969.43	0.88
970.158	-2.12
970.885	1.88
971.613	0.88
972.34	-0.12
973.067	1.88
973.794	-1.12
974.521	0.88
975.248	-0.12
975.975	-0.12
976.702	1.88
977.429	-0.12
978.156	-0.12
978.882	-0.12
979.609	1.88
980.335	0.88
981.062	1.88
981.788	-2.12
982.514	-0.12
983.24	-2.12
983.967	0.88
984.693	-0.12
985.419	-1.12
986.144	-0.12
986.87	-0.12
987.596	-3.12
988.322	-0.12
989.047	-1.12
989.773	-0.12
990.498	-0.12
991.224	-1.12
991.949	-1.12
992.674	-0.12
993.399	1.88
994.124	-1.12
994.849	0.88
995.574	0.88
996.299	-1.12
997.024	0.88
997.749	-1.12
998.473	-1.12
999.198	1.88
999.922	-0.12
1000.647	-1.12
1001.371	3.88
1002.095	-2.12
1002.82	-0.12
1003.544	-0.12
1004.268	0.88
1004.992	-0.12
1005.716	2.88
1006.439	0.88
1007.163	0.88
1007.887	2.88
1008.611	-0.12
1009.334	-0.12
1010.058	-0.12
1010.781	0.88
1011.504	-0.12
1012.228	-2.12
1012.951	0.88
1013.674	-1.12
1014.397	-1.12
1015.12	-0.12
