节点500_425_QEPB04081__85__15-49-43-350.txt的数据

Date: Wed Nov 12 15:49:43 CST 2025
User: PC
Spectrometer: QEPB0408
触发模式: 0
积分时间 (秒): 1.000000E-2
Scans to average: 1
启用暗噪声校正: true
启用非线性校正: false
滑动平均宽度: 0
X轴模式: Wavelengths
Number of Pixels in Spectrum: 1044
>>>>>Begin Spectral Data<<<<<
220.843	1
221.644	3
222.444	2
223.244	3
224.045	5
224.845	4
225.645	4
226.445	4
227.245	4
228.045	4
228.845	3
229.645	7
230.444	2
231.244	4
232.043	5
232.843	6
233.642	8
234.442	4
235.241	5
236.04	4
236.839	7
237.638	5
238.437	8
239.236	11
240.035	8
240.833	8
241.632	5
242.43	9
243.229	9
244.027	6
244.826	8
245.624	10
246.422	11
247.22	9
248.018	7
248.816	10
249.614	8
250.412	11
251.21	10
252.007	10
252.805	11
253.602	13
254.4	12
255.197	12
255.994	14
256.791	11
257.589	12
258.386	15
259.183	13
259.979	16
260.776	19
261.573	16
262.37	17
263.166	15
263.963	19
264.759	17
265.556	21
266.352	23
267.148	19
267.944	20
268.74	19
269.536	23
270.332	21
271.128	24
271.924	24
272.719	25
273.515	29
274.311	21
275.106	27
275.901	26
276.697	24
277.492	26
278.287	25
279.082	26
279.877	23
280.672	30
281.467	27
282.262	26
283.056	28
283.851	23
284.646	26
285.44	27
286.234	26
287.029	22
287.823	22
288.617	27
289.411	23
290.205	20
290.999	24
291.793	26
292.587	22
293.381	24
294.174	22
294.968	24
295.761	23
296.555	22
297.348	19
298.141	20
298.935	20
299.728	16
300.521	20
301.314	18
302.107	17
302.899	16
303.692	18
304.485	17
305.277	18
306.07	17
306.862	14
307.655	18
308.447	15
309.239	16
310.031	12
310.823	14
311.615	12
312.407	13
313.199	13
313.991	13
314.783	11
315.574	10
316.366	13
317.157	13
317.949	10
318.74	10
319.531	8
320.322	11
321.113	9
321.904	11
322.695	9
323.486	9
324.277	10
325.068	8
325.858	12
326.649	8
327.439	10
328.23	11
329.02	5
329.81	9
330.6	8
331.391	9
332.181	9
332.971	10
333.76	7
334.55	10
335.34	7
336.13	9
336.919	10
337.709	12
338.498	9
339.287	10
340.077	10
340.866	7
341.655	9
342.444	8
343.233	7
344.022	8
344.811	7
345.6	8
346.388	5
347.177	8
347.965	7
348.754	10
349.542	10
350.33	8
351.119	9
351.907	7
352.695	9
353.483	7
354.271	10
355.059	9
355.846	7
356.634	6
357.422	8
358.209	7
358.997	8
359.784	10
360.571	7
361.359	6
362.146	8
362.933	8
363.72	8
364.507	8
365.294	8
366.081	8
366.867	6
367.654	10
368.44	8
369.227	7
370.013	8
370.8	6
371.586	7
372.372	4
373.158	7
373.944	8
374.73	7
375.516	8
376.302	7
377.088	6
377.873	8
378.659	9
379.445	8
380.23	5
381.015	7
381.801	8
382.586	9
383.371	7
384.156	9
384.941	9
385.726	8
386.511	7
387.296	8
388.08	7
388.865	9
389.649	9
390.434	8
391.218	7
392.003	6
392.787	9
393.571	8
394.355	10
395.139	10
395.923	8
396.707	9
397.491	10
398.274	11
399.058	9
399.842	10
400.625	11
401.408	12
402.192	11
402.975	10
403.758	8
404.541	10
405.324	10
406.107	9
406.89	10
407.673	8
408.456	10
409.238	10
410.021	11
410.803	12
411.586	11
412.368	12
413.151	11
413.933	11
414.715	13
415.497	12
416.279	14
417.061	13
417.843	13
418.624	15
419.406	12
420.188	16
420.969	14
421.751	14
422.532	14
423.313	15
424.095	18
424.876	20
425.657	17
426.438	15
427.219	19
428	20
428.78	14
429.561	21
430.342	21
431.122	20
431.903	23
432.683	23
433.464	23
434.244	24
435.024	26
435.804	24
436.584	25
437.364	30
438.144	30
438.924	32
439.704	35
440.483	30
441.263	34
442.042	38
442.822	38
443.601	40
444.38	46
445.16	48
445.939	49
446.718	55
447.497	56
448.276	66
449.054	69
449.833	71
450.612	81
451.391	89
452.169	97
452.948	106
453.726	116
454.504	129
455.282	140
456.061	157
456.839	173
457.617	196
458.395	215
459.172	239
459.95	258
460.728	299
461.506	330
462.283	370
463.061	425
463.838	478
464.615	533
465.393	585
466.17	649
466.947	734
467.724	820
468.501	926
469.278	1024
470.055	1129
470.831	1256
471.608	1394
472.385	1565
473.161	1728
473.938	1910
474.714	2135
475.49	2362
476.266	2603
477.043	2890
477.819	3221
478.595	3532
479.371	3927
480.146	4327
480.922	4747
481.698	5263
482.473	5778
483.249	6360
484.024	6997
484.8	7701
485.575	8412
486.35	9209
487.126	10096
487.901	11030
488.676	12126
489.451	13252
490.225	14410
491	15631
491.775	17033
492.55	18404
493.324	19868
494.099	21231
494.873	22769
495.647	24336
496.422	25892
497.196	27381
497.97	29093
498.744	30540
499.518	31935
500.292	33152
501.066	34258
501.839	35391
502.613	36178
503.387	36700
504.16	37128
504.934	37155
505.707	36982
506.48	36780
507.253	36279
508.027	35752
508.8	34883
509.573	33919
510.346	32893
511.118	31849
511.891	30715
512.664	29480
513.437	28106
514.209	26987
514.982	25862
515.754	24757
516.526	23700
517.298	22649
518.071	21681
518.843	20810
519.615	19960
520.387	19155
521.159	18429
521.93	17677
522.702	17016
523.474	16385
524.245	15709
525.017	14927
525.788	14295
526.56	13586
527.331	12950
528.102	12330
528.873	11696
529.644	11155
530.415	10583
531.186	10077
531.957	9500
532.728	8978
533.498	8449
534.269	7969
535.039	7539
535.81	7105
536.58	6733
537.351	6332
538.121	5988
538.891	5687
539.661	5381
540.431	5132
541.201	4867
541.971	4561
542.741	4331
543.51	4115
544.28	3930
545.05	3738
545.819	3561
546.588	3371
547.358	3203
548.127	3013
548.896	2863
549.665	2720
550.434	2592
551.203	2436
551.972	2312
552.741	2191
553.51	2072
554.278	1960
555.047	1827
555.815	1716
556.584	1637
557.352	1540
558.121	1450
558.889	1355
559.657	1309
560.425	1225
561.193	1146
561.961	1091
562.729	1033
563.496	978
564.264	935
565.032	874
565.799	833
566.567	789
567.334	744
568.101	702
568.869	658
569.636	623
570.403	583
571.17	554
571.937	517
572.704	505
573.471	465
574.237	431
575.004	422
575.771	390
576.537	364
577.303	337
578.07	326
578.836	303
579.602	286
580.368	276
581.134	264
581.9	246
582.666	228
583.432	226
584.198	214
584.964	199
585.729	192
586.495	181
587.26	165
588.025	164
588.791	158
589.556	146
590.321	138
591.086	131
591.851	132
592.616	119
593.381	114
594.146	104
594.911	102
595.675	99
596.44	95
597.204	92
597.969	91
598.733	78
599.497	76
600.261	76
601.025	73
601.79	66
602.553	67
603.317	60
604.081	61
604.845	57
605.609	59
606.372	54
607.136	53
607.899	49
608.662	46
609.426	48
610.189	45
610.952	43
611.715	39
612.478	40
613.241	38
614.004	39
614.767	37
615.529	34
616.292	32
617.055	29
617.817	34
618.579	30
619.342	28
620.104	25
620.866	25
621.628	26
622.39	24
623.152	26
623.914	24
624.676	24
625.438	21
626.199	18
626.961	17
627.722	19
628.484	18
629.245	19
630.006	18
630.768	18
631.529	20
632.29	16
633.051	17
633.812	19
634.573	14
635.333	14
636.094	15
636.855	14
637.615	15
638.376	14
639.136	12
639.896	14
640.657	12
641.417	10
642.177	12
642.937	11
643.697	10
644.457	13
645.216	13
645.976	10
646.736	10
647.495	11
648.255	8
649.014	9
649.774	9
650.533	9
651.292	11
652.051	8
652.81	9
653.569	9
654.328	9
655.087	9
655.846	6
656.604	11
657.363	8
658.121	8
658.88	9
659.638	7
660.397	8
661.155	11
661.913	8
662.671	9
663.429	8
664.187	4
664.945	8
665.703	8
666.46	7
667.218	6
667.976	9
668.733	5
669.49	5
670.248	6
671.005	6
671.762	8
672.519	5
673.276	6
674.033	6
674.79	9
675.547	5
676.304	8
677.06	6
677.817	6
678.574	6
679.33	3
680.086	5
680.843	8
681.599	4
682.355	6
683.111	7
683.867	4
684.623	4
685.379	6
686.135	6
686.89	4
687.646	6
688.402	5
689.157	7
689.912	4
690.668	4
691.423	7
692.178	7
692.933	3
693.688	5
694.443	4
695.198	4
695.953	5
696.708	3
697.462	4
698.217	6
698.972	3
699.726	3
700.48	6
701.235	6
701.989	6
702.743	6
703.497	3
704.251	5
705.005	4
705.759	5
706.513	5
707.266	4
708.02	7
708.774	5
709.527	6
710.28	5
711.034	7
711.787	5
712.54	5
713.293	5
714.046	6
714.799	8
715.552	5
716.305	2
717.058	4
717.81	4
718.563	6
719.315	4
720.068	6
720.82	4
721.573	6
722.325	7
723.077	5
723.829	4
724.581	7
725.333	5
726.085	3
726.836	6
727.588	7
728.34	5
729.091	8
729.843	7
730.594	7
731.346	8
732.097	5
732.848	5
733.599	8
734.35	9
735.101	7
735.852	7
736.603	7
737.354	6
738.104	6
738.855	6
739.605	7
740.356	7
741.106	6
741.856	9
742.607	8
743.357	11
744.107	7
744.857	7
745.607	9
746.357	7
747.106	7
747.856	6
748.606	7
749.355	8
750.105	8
750.854	9
751.603	6
752.353	8
753.102	6
753.851	8
754.6	7
755.349	7
756.098	9
756.847	10
757.595	9
758.344	8
759.093	11
759.841	9
760.589	9
761.338	8
762.086	9
762.834	9
763.582	8
764.331	11
765.079	11
765.826	8
766.574	9
767.322	11
768.07	10
768.817	9
769.565	10
770.312	10
771.06	9
771.807	9
772.554	10
773.302	10
774.049	10
774.796	11
775.543	12
776.29	11
777.036	12
777.783	12
778.53	11
779.276	13
780.023	9
780.769	14
781.516	11
782.262	12
783.008	12
783.754	13
784.5	13
785.246	10
785.992	12
786.738	11
787.484	13
788.23	11
788.975	10
789.721	9
790.466	13
791.212	13
791.957	13
792.702	14
793.447	11
794.193	13
794.938	10
795.683	12
796.427	10
797.172	10
797.917	11
798.662	10
799.406	9
800.151	8
800.895	10
801.64	10
802.384	9
803.128	9
803.872	8
804.616	9
805.36	10
806.104	10
806.848	8
807.592	11
808.336	8
809.079	10
809.823	8
810.566	9
811.31	6
812.053	6
812.796	8
813.539	6
814.283	8
815.026	6
815.769	3
816.511	8
817.254	7
817.997	6
818.74	7
819.482	4
820.225	4
820.967	5
821.71	6
822.452	4
823.194	3
823.936	6
824.678	5
825.42	7
826.162	4
826.904	6
827.646	7
828.388	5
829.129	7
829.871	6
830.612	4
831.354	4
832.095	5
832.836	4
833.577	3
834.319	6
835.06	5
835.801	4
836.542	4
837.282	4
838.023	3
838.764	3
839.504	5
840.245	4
840.985	7
841.726	5
842.466	3
843.206	4
843.946	4
844.687	5
845.427	2
846.166	3
846.906	5
847.646	2
848.386	1
849.125	3
849.865	3
850.605	4
851.344	1
852.083	4
852.823	2
853.562	0
854.301	4
855.04	3
855.779	3
856.518	4
857.257	2
857.995	3
858.734	3
859.473	5
860.211	5
860.95	1
861.688	3
862.426	2
863.165	0
863.903	2
864.641	2
865.379	3
866.117	2
866.855	3
867.593	2
868.33	2
869.068	2
869.806	2
870.543	1
871.28	0
872.018	1
872.755	2
873.492	3
874.229	2
874.967	2
875.703	1
876.44	-1
877.177	3
877.914	0
878.651	0
879.387	0
880.124	2
880.86	-1
881.597	4
882.333	3
883.069	1
883.806	2
884.542	0
885.278	2
886.014	0
886.749	-1
887.485	0
888.221	1
888.957	0
889.692	1
890.428	2
891.163	-2
891.899	0
892.634	1
893.369	1
894.104	1
894.839	0
895.574	2
896.309	2
897.044	2
897.779	-1
898.514	-1
899.248	1
899.983	0
900.717	2
901.452	0
902.186	1
902.92	0
903.654	1
904.389	2
905.123	1
905.857	-1
906.59	0
907.324	1
908.058	1
908.792	2
909.525	0
910.259	-1
910.992	-2
911.726	1
912.459	0
913.192	2
913.925	-2
914.658	0
915.391	1
916.124	-1
916.857	0
917.59	0
918.323	2
919.055	0
919.788	-2
920.521	-1
921.253	0
921.985	1
922.718	1
923.45	1
924.182	1
924.914	0
925.646	0
926.378	0
927.11	0
927.841	2
928.573	1
929.305	0
930.036	0
930.768	0
931.499	0
932.23	0
932.962	1
933.693	-1
934.424	0
935.155	-1
935.886	-1
936.617	1
937.348	1
938.078	-1
938.809	-2
939.54	1
940.27	-3
941.001	0
941.731	-2
942.461	0
943.191	0
943.922	-2
944.652	0
945.382	2
946.112	-1
946.841	-1
947.571	-1
948.301	1
949.031	0
949.76	2
950.49	0
951.219	0
951.948	2
952.678	1
953.407	0
954.136	0
954.865	2
955.594	1
956.323	3
957.052	0
957.78	-1
958.509	-2
959.238	-1
959.966	-2
960.695	2
961.423	-1
962.151	1
962.88	0
963.608	0
964.336	1
965.064	-1
965.792	2
966.52	1
967.247	0
967.975	0
968.703	0
969.43	-1
970.158	-2
970.885	0
971.613	0
972.34	1
973.067	0
973.794	-2
974.521	1
975.248	1
975.975	0
976.702	1
977.429	0
978.156	0
978.882	0
979.609	1
980.335	0
981.062	3
981.788	1
982.514	0
983.24	0
983.967	-1
984.693	-1
985.419	-1
986.144	0
986.87	1
987.596	1
988.322	-1
989.047	-2
989.773	-1
990.498	1
991.224	-1
991.949	-1
992.674	0
993.399	0
994.124	1
994.849	0
995.574	0
996.299	-2
997.024	0
997.749	0
998.473	0
999.198	-2
999.922	1
1000.647	0
1001.371	2
1002.095	1
1002.82	-1
1003.544	-2
1004.268	2
1004.992	3
1005.716	3
1006.439	3
1007.163	4
1007.887	2
1008.611	4
1009.334	1
1010.058	0
1010.781	2
1011.504	2
1012.228	-2
1012.951	1
1013.674	-2
1014.397	1
1015.12	0
