节点500_425_QEPB04081__351__15-54-08-772.txt的数据

Date: Wed Nov 12 15:54:08 CST 2025
User: PC
Spectrometer: QEPB0408
触发模式: 0
积分时间 (秒): 1.000000E-2
Scans to average: 1
启用暗噪声校正: true
启用非线性校正: false
滑动平均宽度: 0
X轴模式: Wavelengths
Number of Pixels in Spectrum: 1044
>>>>>Begin Spectral Data<<<<<
220.843	4.75
221.644	1.75
222.444	3.75
223.244	2.75
224.045	2.75
224.845	6.75
225.645	3.75
226.445	3.75
227.245	4.75
228.045	1.75
228.845	3.75
229.645	2.75
230.444	4.75
231.244	6.75
232.043	4.75
232.843	6.75
233.642	2.75
234.442	5.75
235.241	2.75
236.04	6.75
236.839	4.75
237.638	5.75
238.437	5.75
239.236	6.75
240.035	7.75
240.833	8.75
241.632	7.75
242.43	9.75
243.229	6.75
244.027	9.75
244.826	7.75
245.624	7.75
246.422	8.75
247.22	7.75
248.018	8.75
248.816	7.75
249.614	9.75
250.412	11.75
251.21	11.75
252.007	12.75
252.805	8.75
253.602	12.75
254.4	8.75
255.197	11.75
255.994	10.75
256.791	10.75
257.589	10.75
258.386	11.75
259.183	15.75
259.979	13.75
260.776	15.75
261.573	14.75
262.37	17.75
263.166	16.75
263.963	15.75
264.759	16.75
265.556	18.75
266.352	16.75
267.148	18.75
267.944	17.75
268.74	19.75
269.536	17.75
270.332	19.75
271.128	20.75
271.924	18.75
272.719	23.75
273.515	22.75
274.311	22.75
275.106	19.75
275.901	21.75
276.697	20.75
277.492	20.75
278.287	20.75
279.082	24.75
279.877	25.75
280.672	23.75
281.467	25.75
282.262	24.75
283.056	25.75
283.851	25.75
284.646	25.75
285.44	22.75
286.234	24.75
287.029	23.75
287.823	25.75
288.617	23.75
289.411	23.75
290.205	22.75
290.999	18.75
291.793	25.75
292.587	21.75
293.381	25.75
294.174	19.75
294.968	20.75
295.761	20.75
296.555	17.75
297.348	22.75
298.141	20.75
298.935	20.75
299.728	18.75
300.521	17.75
301.314	17.75
302.107	18.75
302.899	18.75
303.692	17.75
304.485	14.75
305.277	18.75
306.07	17.75
306.862	16.75
307.655	15.75
308.447	17.75
309.239	12.75
310.031	14.75
310.823	14.75
311.615	12.75
312.407	14.75
313.199	16.75
313.991	14.75
314.783	10.75
315.574	12.75
316.366	9.75
317.157	10.75
317.949	9.75
318.74	10.75
319.531	11.75
320.322	11.75
321.113	7.75
321.904	12.75
322.695	13.75
323.486	9.75
324.277	11.75
325.068	9.75
325.858	9.75
326.649	9.75
327.439	10.75
328.23	10.75
329.02	8.75
329.81	11.75
330.6	6.75
331.391	8.75
332.181	10.75
332.971	8.75
333.76	7.75
334.55	5.75
335.34	8.75
336.13	9.75
336.919	10.75
337.709	5.75
338.498	4.75
339.287	7.75
340.077	10.75
340.866	8.75
341.655	7.75
342.444	10.75
343.233	8.75
344.022	8.75
344.811	10.75
345.6	8.75
346.388	8.75
347.177	7.75
347.965	7.75
348.754	9.75
349.542	6.75
350.33	6.75
351.119	9.75
351.907	10.75
352.695	8.75
353.483	4.75
354.271	7.75
355.059	9.75
355.846	6.75
356.634	8.75
357.422	5.75
358.209	7.75
358.997	7.75
359.784	7.75
360.571	8.75
361.359	9.75
362.146	7.75
362.933	7.75
363.72	7.75
364.507	6.75
365.294	6.75
366.081	5.75
366.867	6.75
367.654	7.75
368.44	6.75
369.227	7.75
370.013	7.75
370.8	6.75
371.586	6.75
372.372	7.75
373.158	7.75
373.944	8.75
374.73	7.75
375.516	7.75
376.302	4.75
377.088	6.75
377.873	5.75
378.659	7.75
379.445	7.75
380.23	6.75
381.015	5.75
381.801	5.75
382.586	7.75
383.371	6.75
384.156	8.75
384.941	9.75
385.726	8.75
386.511	10.75
387.296	7.75
388.08	7.75
388.865	9.75
389.649	8.75
390.434	7.75
391.218	10.75
392.003	7.75
392.787	7.75
393.571	8.75
394.355	7.75
395.139	9.75
395.923	9.75
396.707	8.75
397.491	8.75
398.274	9.75
399.058	8.75
399.842	8.75
400.625	12.75
401.408	9.75
402.192	6.75
402.975	10.75
403.758	7.75
404.541	10.75
405.324	11.75
406.107	8.75
406.89	12.75
407.673	8.75
408.456	12.75
409.238	9.75
410.021	9.75
410.803	10.75
411.586	11.75
412.368	14.75
413.151	10.75
413.933	11.75
414.715	12.75
415.497	14.75
416.279	14.75
417.061	11.75
417.843	14.75
418.624	10.75
419.406	13.75
420.188	13.75
420.969	13.75
421.751	15.75
422.532	14.75
423.313	15.75
424.095	16.75
424.876	16.75
425.657	16.75
426.438	16.75
427.219	20.75
428	16.75
428.78	16.75
429.561	18.75
430.342	20.75
431.122	21.75
431.903	20.75
432.683	21.75
433.464	24.75
434.244	23.75
435.024	24.75
435.804	26.75
436.584	27.75
437.364	30.75
438.144	27.75
438.924	31.75
439.704	31.75
440.483	35.75
441.263	33.75
442.042	38.75
442.822	43.75
443.601	42.75
444.38	45.75
445.16	49.75
445.939	52.75
446.718	58.75
447.497	61.75
448.276	68.75
449.054	70.75
449.833	81.75
450.612	90.75
451.391	93.75
452.169	102.75
452.948	117.75
453.726	123.75
454.504	137.75
455.282	159.75
456.061	166.75
456.839	193.75
457.617	212.75
458.395	234.75
459.172	260.75
459.95	294.75
460.728	324.75
461.506	363.75
462.283	410.75
463.061	448.75
463.838	499.75
464.615	570.75
465.393	624.75
466.17	706.75
466.947	770.75
467.724	865.75
468.501	958.75
469.278	1058.75
470.055	1176.75
470.831	1315.75
471.608	1448.75
472.385	1597.75
473.161	1767.75
473.938	1950.75
474.714	2167.75
475.49	2361.75
476.266	2595.75
477.043	2894.75
477.819	3175.75
478.595	3478.75
479.371	3822.75
480.146	4189.75
480.922	4623.75
481.698	5049.75
482.473	5495.75
483.249	6009.75
484.024	6595.75
484.8	7237.75
485.575	7863.75
486.35	8541.75
487.126	9318.75
487.901	10156.75
488.676	11075.75
489.451	11975.75
490.225	13033.75
491	14173.75
491.775	15307.75
492.55	16516.75
493.324	17764.75
494.099	19050.75
494.873	20348.75
495.647	21747.75
496.422	23046.75
497.196	24493.75
497.97	26000.75
498.744	27379.75
499.518	28709.75
500.292	29886.75
501.066	30976.75
501.839	32151.75
502.613	33024.75
503.387	33810.75
504.16	34304.75
504.934	34764.75
505.707	34847.75
506.48	34738.75
507.253	34501.75
508.027	34197.75
508.8	33737.75
509.573	33017.75
510.346	32321.75
511.118	31343.75
511.891	30431.75
512.664	29357.75
513.437	28239.75
514.209	27105.75
514.982	26192.75
515.754	25060.75
516.526	24036.75
517.298	23013.75
518.071	22053.75
518.843	21221.75
519.615	20282.75
520.387	19508.75
521.159	18790.75
521.93	18021.75
522.702	17331.75
523.474	16622.75
524.245	15938.75
525.017	15208.75
525.788	14558.75
526.56	13935.75
527.331	13301.75
528.102	12698.75
528.873	12092.75
529.644	11515.75
530.415	10993.75
531.186	10473.75
531.957	9899.75
532.728	9415.75
533.498	8878.75
534.269	8398.75
535.039	7964.75
535.81	7486.75
536.58	7143.75
537.351	6689.75
538.121	6323.75
538.891	6000.75
539.661	5713.75
540.431	5410.75
541.201	5094.75
541.971	4838.75
542.741	4564.75
543.51	4311.75
544.28	4135.75
545.05	3905.75
545.819	3762.75
546.588	3556.75
547.358	3374.75
548.127	3181.75
548.896	3050.75
549.665	2868.75
550.434	2764.75
551.203	2594.75
551.972	2473.75
552.741	2306.75
553.51	2198.75
554.278	2080.75
555.047	1965.75
555.815	1845.75
556.584	1739.75
557.352	1655.75
558.121	1560.75
558.889	1478.75
559.657	1396.75
560.425	1308.75
561.193	1238.75
561.961	1180.75
562.729	1114.75
563.496	1046.75
564.264	985.75
565.032	949.75
565.799	884.75
566.567	839.75
567.334	799.75
568.101	751.75
568.869	712.75
569.636	671.75
570.403	623.75
571.17	593.75
571.937	559.75
572.704	535.75
573.471	497.75
574.237	464.75
575.004	447.75
575.771	416.75
576.537	404.75
577.303	372.75
578.07	348.75
578.836	336.75
579.602	312.75
580.368	296.75
581.134	277.75
581.9	268.75
582.666	251.75
583.432	242.75
584.198	229.75
584.964	212.75
585.729	205.75
586.495	192.75
587.26	189.75
588.025	174.75
588.791	168.75
589.556	161.75
590.321	152.75
591.086	140.75
591.851	137.75
592.616	126.75
593.381	120.75
594.146	113.75
594.911	110.75
595.675	107.75
596.44	101.75
597.204	93.75
597.969	93.75
598.733	86.75
599.497	81.75
600.261	82.75
601.025	76.75
601.79	73.75
602.553	69.75
603.317	65.75
604.081	66.75
604.845	58.75
605.609	59.75
606.372	57.75
607.136	51.75
607.899	50.75
608.662	50.75
609.426	51.75
610.189	48.75
610.952	43.75
611.715	42.75
612.478	40.75
613.241	39.75
614.004	38.75
614.767	36.75
615.529	38.75
616.292	35.75
617.055	33.75
617.817	33.75
618.579	32.75
619.342	28.75
620.104	30.75
620.866	27.75
621.628	26.75
622.39	27.75
623.152	25.75
623.914	26.75
624.676	24.75
625.438	23.75
626.199	22.75
626.961	21.75
627.722	21.75
628.484	20.75
629.245	18.75
630.006	17.75
630.768	14.75
631.529	17.75
632.29	17.75
633.051	20.75
633.812	17.75
634.573	19.75
635.333	16.75
636.094	12.75
636.855	15.75
637.615	14.75
638.376	14.75
639.136	14.75
639.896	16.75
640.657	14.75
641.417	12.75
642.177	10.75
642.937	10.75
643.697	12.75
644.457	11.75
645.216	10.75
645.976	13.75
646.736	11.75
647.495	11.75
648.255	12.75
649.014	9.75
649.774	10.75
650.533	9.75
651.292	9.75
652.051	13.75
652.81	5.75
653.569	11.75
654.328	6.75
655.087	9.75
655.846	7.75
656.604	9.75
657.363	7.75
658.121	9.75
658.88	8.75
659.638	8.75
660.397	7.75
661.155	6.75
661.913	7.75
662.671	7.75
663.429	7.75
664.187	6.75
664.945	9.75
665.703	6.75
666.46	7.75
667.218	5.75
667.976	6.75
668.733	7.75
669.49	9.75
670.248	3.75
671.005	7.75
671.762	6.75
672.519	5.75
673.276	4.75
674.033	6.75
674.79	8.75
675.547	9.75
676.304	4.75
677.06	5.75
677.817	4.75
678.574	6.75
679.33	4.75
680.086	6.75
680.843	6.75
681.599	7.75
682.355	6.75
683.111	5.75
683.867	5.75
684.623	6.75
685.379	4.75
686.135	4.75
686.89	4.75
687.646	5.75
688.402	4.75
689.157	6.75
689.912	4.75
690.668	8.75
691.423	5.75
692.178	2.75
692.933	4.75
693.688	4.75
694.443	4.75
695.198	4.75
695.953	4.75
696.708	5.75
697.462	1.75
698.217	4.75
698.972	4.75
699.726	6.75
700.48	3.75
701.235	4.75
701.989	5.75
702.743	5.75
703.497	4.75
704.251	4.75
705.005	3.75
705.759	4.75
706.513	5.75
707.266	6.75
708.02	4.75
708.774	4.75
709.527	5.75
710.28	4.75
711.034	6.75
711.787	2.75
712.54	6.75
713.293	4.75
714.046	3.75
714.799	5.75
715.552	5.75
716.305	5.75
717.058	4.75
717.81	4.75
718.563	4.75
719.315	5.75
720.068	4.75
720.82	4.75
721.573	5.75
722.325	6.75
723.077	5.75
723.829	6.75
724.581	4.75
725.333	7.75
726.085	4.75
726.836	3.75
727.588	6.75
728.34	5.75
729.091	7.75
729.843	4.75
730.594	6.75
731.346	5.75
732.097	7.75
732.848	6.75
733.599	6.75
734.35	4.75
735.101	5.75
735.852	7.75
736.603	7.75
737.354	3.75
738.104	4.75
738.855	6.75
739.605	5.75
740.356	4.75
741.106	9.75
741.856	5.75
742.607	4.75
743.357	6.75
744.107	5.75
744.857	5.75
745.607	8.75
746.357	7.75
747.106	9.75
747.856	6.75
748.606	7.75
749.355	8.75
750.105	6.75
750.854	8.75
751.603	8.75
752.353	5.75
753.102	6.75
753.851	9.75
754.6	8.75
755.349	7.75
756.098	7.75
756.847	6.75
757.595	8.75
758.344	7.75
759.093	7.75
759.841	6.75
760.589	11.75
761.338	10.75
762.086	9.75
762.834	10.75
763.582	11.75
764.331	9.75
765.079	11.75
765.826	9.75
766.574	10.75
767.322	10.75
768.07	9.75
768.817	8.75
769.565	9.75
770.312	10.75
771.06	9.75
771.807	12.75
772.554	8.75
773.302	8.75
774.049	12.75
774.796	12.75
775.543	10.75
776.29	12.75
777.036	9.75
777.783	10.75
778.53	11.75
779.276	11.75
780.023	12.75
780.769	12.75
781.516	12.75
782.262	9.75
783.008	12.75
783.754	11.75
784.5	12.75
785.246	12.75
785.992	10.75
786.738	10.75
787.484	12.75
788.23	10.75
788.975	10.75
789.721	8.75
790.466	10.75
791.212	10.75
791.957	10.75
792.702	10.75
793.447	12.75
794.193	11.75
794.938	10.75
795.683	9.75
796.427	10.75
797.172	9.75
797.917	6.75
798.662	9.75
799.406	8.75
800.151	7.75
800.895	7.75
801.64	8.75
802.384	8.75
803.128	8.75
803.872	8.75
804.616	10.75
805.36	10.75
806.104	9.75
806.848	7.75
807.592	8.75
808.336	7.75
809.079	9.75
809.823	11.75
810.566	6.75
811.31	8.75
812.053	7.75
812.796	6.75
813.539	7.75
814.283	5.75
815.026	6.75
815.769	7.75
816.511	6.75
817.254	5.75
817.997	8.75
818.74	6.75
819.482	4.75
820.225	6.75
820.967	5.75
821.71	5.75
822.452	3.75
823.194	5.75
823.936	6.75
824.678	6.75
825.42	3.75
826.162	2.75
826.904	5.75
827.646	5.75
828.388	3.75
829.129	5.75
829.871	5.75
830.612	3.75
831.354	3.75
832.095	4.75
832.836	2.75
833.577	6.75
834.319	2.75
835.06	6.75
835.801	5.75
836.542	5.75
837.282	4.75
838.023	6.75
838.764	4.75
839.504	6.75
840.245	3.75
840.985	2.75
841.726	3.75
842.466	2.75
843.206	4.75
843.946	4.75
844.687	5.75
845.427	3.75
846.166	4.75
846.906	3.75
847.646	2.75
848.386	6.75
849.125	4.75
849.865	4.75
850.605	5.75
851.344	4.75
852.083	3.75
852.823	2.75
853.562	1.75
854.301	4.75
855.04	4.75
855.779	4.75
856.518	2.75
857.257	2.75
857.995	2.75
858.734	3.75
859.473	3.75
860.211	4.75
860.95	2.75
861.688	2.75
862.426	3.75
863.165	2.75
863.903	2.75
864.641	7.75
865.379	2.75
866.117	3.75
866.855	1.75
867.593	1.75
868.33	1.75
869.068	1.75
869.806	0.75
870.543	1.75
871.28	3.75
872.018	2.75
872.755	4.75
873.492	5.75
874.229	-1.25
874.967	2.75
875.703	-0.25
876.44	0.75
877.177	0.75
877.914	0.75
878.651	1.75
879.387	0.75
880.124	3.75
880.86	-0.25
881.597	-0.25
882.333	2.75
883.069	0.75
883.806	2.75
884.542	2.75
885.278	0.75
886.014	-1.25
886.749	1.75
887.485	2.75
888.221	2.75
888.957	1.75
889.692	0.75
890.428	1.75
891.163	2.75
891.899	1.75
892.634	1.75
893.369	0.75
894.104	2.75
894.839	0.75
895.574	0.75
896.309	2.75
897.044	0.75
897.779	-0.25
898.514	2.75
899.248	0.75
899.983	1.75
900.717	-2.25
901.452	1.75
902.186	2.75
902.92	2.75
903.654	2.75
904.389	1.75
905.123	-0.25
905.857	-0.25
906.59	1.75
907.324	0.75
908.058	-0.25
908.792	0.75
909.525	-0.25
910.259	4.75
910.992	0.75
911.726	0.75
912.459	1.75
913.192	-0.25
913.925	0.75
914.658	-1.25
915.391	-0.25
916.124	0.75
916.857	-0.25
917.59	1.75
918.323	0.75
919.055	1.75
919.788	-0.25
920.521	-0.25
921.253	0.75
921.985	0.75
922.718	0.75
923.45	1.75
924.182	1.75
924.914	1.75
925.646	-1.25
926.378	-0.25
927.11	1.75
927.841	0.75
928.573	0.75
929.305	0.75
930.036	-0.25
930.768	0.75
931.499	-0.25
932.23	-1.25
932.962	2.75
933.693	0.75
934.424	0.75
935.155	0.75
935.886	0.75
936.617	0.75
937.348	0.75
938.078	2.75
938.809	1.75
939.54	2.75
940.27	-0.25
941.001	-1.25
941.731	0.75
942.461	2.75
943.191	0.75
943.922	0.75
944.652	-1.25
945.382	2.75
946.112	-0.25
946.841	2.75
947.571	0.75
948.301	-0.25
949.031	-1.25
949.76	0.75
950.49	2.75
951.219	0.75
951.948	-0.25
952.678	1.75
953.407	0.75
954.136	-0.25
954.865	-0.25
955.594	0.75
956.323	-1.25
957.052	0.75
957.78	-0.25
958.509	-0.25
959.238	0.75
959.966	0.75
960.695	2.75
961.423	0.75
962.151	0.75
962.88	0.75
963.608	0.75
964.336	0.75
965.064	-0.25
965.792	-1.25
966.52	1.75
967.247	-1.25
967.975	1.75
968.703	-1.25
969.43	1.75
970.158	1.75
970.885	-0.25
971.613	0.75
972.34	0.75
973.067	1.75
973.794	0.75
974.521	-1.25
975.248	-0.25
975.975	-2.25
976.702	-0.25
977.429	-2.25
978.156	-2.25
978.882	0.75
979.609	1.75
980.335	1.75
981.062	-1.25
981.788	2.75
982.514	0.75
983.24	2.75
983.967	-0.25
984.693	-0.25
985.419	1.75
986.144	0.75
986.87	0.75
987.596	-1.25
988.322	0.75
989.047	0.75
989.773	-1.25
990.498	1.75
991.224	-0.25
991.949	2.75
992.674	-0.25
993.399	0.75
994.124	0.75
994.849	-1.25
995.574	0.75
996.299	-0.25
997.024	-2.25
997.749	2.75
998.473	-1.25
999.198	-0.25
999.922	-0.25
1000.647	-1.25
1001.371	2.75
1002.095	-0.25
1002.82	-1.25
1003.544	-0.25
1004.268	4.75
1004.992	3.75
1005.716	3.75
1006.439	1.75
1007.163	5.75
1007.887	3.75
1008.611	-0.25
1009.334	-0.25
1010.058	1.75
1010.781	-0.25
1011.504	1.75
1012.228	0.75
1012.951	-0.25
1013.674	0.75
1014.397	-2.25
1015.12	0.75
