节点500_425_QEPB04081__325__15-53-42-819.txt的数据

Date: Wed Nov 12 15:53:42 CST 2025
User: PC
Spectrometer: QEPB0408
触发模式: 0
积分时间 (秒): 1.000000E-2
Scans to average: 1
启用暗噪声校正: true
启用非线性校正: false
滑动平均宽度: 0
X轴模式: Wavelengths
Number of Pixels in Spectrum: 1044
>>>>>Begin Spectral Data<<<<<
220.843	2.62
221.644	2.62
222.444	2.62
223.244	4.62
224.045	2.62
224.845	3.62
225.645	2.62
226.445	4.62
227.245	5.62
228.045	4.62
228.845	4.62
229.645	5.62
230.444	5.62
231.244	7.62
232.043	4.62
232.843	7.62
233.642	6.62
234.442	5.62
235.241	5.62
236.04	7.62
236.839	7.62
237.638	9.62
238.437	10.62
239.236	7.62
240.035	7.62
240.833	7.62
241.632	5.62
242.43	10.62
243.229	6.62
244.027	5.62
244.826	8.62
245.624	7.62
246.422	7.62
247.22	10.62
248.018	9.62
248.816	8.62
249.614	7.62
250.412	8.62
251.21	10.62
252.007	10.62
252.805	10.62
253.602	10.62
254.4	9.62
255.197	10.62
255.994	12.62
256.791	11.62
257.589	14.62
258.386	12.62
259.183	11.62
259.979	12.62
260.776	15.62
261.573	15.62
262.37	14.62
263.166	17.62
263.963	14.62
264.759	15.62
265.556	18.62
266.352	18.62
267.148	19.62
267.944	19.62
268.74	18.62
269.536	16.62
270.332	20.62
271.128	18.62
271.924	21.62
272.719	23.62
273.515	21.62
274.311	23.62
275.106	22.62
275.901	23.62
276.697	21.62
277.492	23.62
278.287	26.62
279.082	24.62
279.877	24.62
280.672	24.62
281.467	27.62
282.262	24.62
283.056	24.62
283.851	26.62
284.646	24.62
285.44	26.62
286.234	26.62
287.029	22.62
287.823	26.62
288.617	24.62
289.411	23.62
290.205	25.62
290.999	22.62
291.793	24.62
292.587	24.62
293.381	22.62
294.174	22.62
294.968	20.62
295.761	23.62
296.555	19.62
297.348	18.62
298.141	21.62
298.935	21.62
299.728	19.62
300.521	17.62
301.314	20.62
302.107	18.62
302.899	17.62
303.692	16.62
304.485	13.62
305.277	15.62
306.07	14.62
306.862	19.62
307.655	15.62
308.447	14.62
309.239	14.62
310.031	14.62
310.823	15.62
311.615	13.62
312.407	13.62
313.199	15.62
313.991	13.62
314.783	11.62
315.574	10.62
316.366	13.62
317.157	12.62
317.949	12.62
318.74	11.62
319.531	9.62
320.322	11.62
321.113	8.62
321.904	12.62
322.695	10.62
323.486	7.62
324.277	9.62
325.068	10.62
325.858	10.62
326.649	7.62
327.439	9.62
328.23	11.62
329.02	8.62
329.81	9.62
330.6	6.62
331.391	10.62
332.181	10.62
332.971	9.62
333.76	8.62
334.55	7.62
335.34	9.62
336.13	8.62
336.919	6.62
337.709	7.62
338.498	7.62
339.287	8.62
340.077	5.62
340.866	7.62
341.655	8.62
342.444	8.62
343.233	9.62
344.022	8.62
344.811	9.62
345.6	6.62
346.388	8.62
347.177	6.62
347.965	10.62
348.754	9.62
349.542	9.62
350.33	6.62
351.119	7.62
351.907	8.62
352.695	8.62
353.483	6.62
354.271	9.62
355.059	9.62
355.846	8.62
356.634	4.62
357.422	7.62
358.209	7.62
358.997	6.62
359.784	8.62
360.571	8.62
361.359	7.62
362.146	6.62
362.933	6.62
363.72	9.62
364.507	4.62
365.294	5.62
366.081	5.62
366.867	8.62
367.654	7.62
368.44	7.62
369.227	5.62
370.013	7.62
370.8	6.62
371.586	7.62
372.372	7.62
373.158	6.62
373.944	4.62
374.73	7.62
375.516	7.62
376.302	6.62
377.088	9.62
377.873	5.62
378.659	6.62
379.445	8.62
380.23	6.62
381.015	5.62
381.801	6.62
382.586	6.62
383.371	5.62
384.156	9.62
384.941	8.62
385.726	7.62
386.511	7.62
387.296	7.62
388.08	8.62
388.865	7.62
389.649	7.62
390.434	10.62
391.218	7.62
392.003	7.62
392.787	5.62
393.571	7.62
394.355	8.62
395.139	6.62
395.923	9.62
396.707	8.62
397.491	7.62
398.274	11.62
399.058	8.62
399.842	10.62
400.625	8.62
401.408	8.62
402.192	10.62
402.975	10.62
403.758	11.62
404.541	9.62
405.324	10.62
406.107	9.62
406.89	8.62
407.673	9.62
408.456	11.62
409.238	11.62
410.021	9.62
410.803	11.62
411.586	10.62
412.368	13.62
413.151	12.62
413.933	13.62
414.715	14.62
415.497	10.62
416.279	13.62
417.061	13.62
417.843	12.62
418.624	14.62
419.406	10.62
420.188	12.62
420.969	12.62
421.751	14.62
422.532	13.62
423.313	16.62
424.095	13.62
424.876	16.62
425.657	17.62
426.438	16.62
427.219	18.62
428	17.62
428.78	18.62
429.561	20.62
430.342	22.62
431.122	18.62
431.903	20.62
432.683	18.62
433.464	22.62
434.244	20.62
435.024	25.62
435.804	27.62
436.584	29.62
437.364	26.62
438.144	28.62
438.924	28.62
439.704	32.62
440.483	36.62
441.263	35.62
442.042	40.62
442.822	40.62
443.601	42.62
444.38	44.62
445.16	45.62
445.939	55.62
446.718	57.62
447.497	61.62
448.276	65.62
449.054	71.62
449.833	73.62
450.612	87.62
451.391	93.62
452.169	102.62
452.948	107.62
453.726	127.62
454.504	141.62
455.282	155.62
456.061	170.62
456.839	187.62
457.617	206.62
458.395	228.62
459.172	260.62
459.95	286.62
460.728	318.62
461.506	365.62
462.283	407.62
463.061	450.62
463.838	501.62
464.615	553.62
465.393	625.62
466.17	685.62
466.947	782.62
467.724	863.62
468.501	963.62
469.278	1059.62
470.055	1174.62
470.831	1292.62
471.608	1438.62
472.385	1596.62
473.161	1736.62
473.938	1962.62
474.714	2175.62
475.49	2379.62
476.266	2615.62
477.043	2878.62
477.819	3162.62
478.595	3491.62
479.371	3822.62
480.146	4200.62
480.922	4585.62
481.698	5050.62
482.473	5514.62
483.249	6034.62
484.024	6620.62
484.8	7253.62
485.575	7936.62
486.35	8584.62
487.126	9417.62
487.901	10251.62
488.676	11159.62
489.451	12117.62
490.225	13128.62
491	14276.62
491.775	15407.62
492.55	16717.62
493.324	17920.62
494.099	19199.62
494.873	20489.62
495.647	21888.62
496.422	23260.62
497.196	24734.62
497.97	26206.62
498.744	27547.62
499.518	28938.62
500.292	30145.62
501.066	31206.62
501.839	32362.62
502.613	33326.62
503.387	34058.62
504.16	34541.62
504.934	34882.62
505.707	34977.62
506.48	34985.62
507.253	34611.62
508.027	34324.62
508.8	33852.62
509.573	33194.62
510.346	32339.62
511.118	31316.62
511.891	30438.62
512.664	29316.62
513.437	28209.62
514.209	27030.62
514.982	26169.62
515.754	25054.62
516.526	23961.62
517.298	22965.62
518.071	22000.62
518.843	21155.62
519.615	20264.62
520.387	19429.62
521.159	18716.62
521.93	17965.62
522.702	17301.62
523.474	16571.62
524.245	15945.62
525.017	15198.62
525.788	14541.62
526.56	13854.62
527.331	13256.62
528.102	12644.62
528.873	12050.62
529.644	11449.62
530.415	10908.62
531.186	10415.62
531.957	9854.62
532.728	9349.62
533.498	8880.62
534.269	8348.62
535.039	7926.62
535.81	7458.62
536.58	7073.62
537.351	6644.62
538.121	6304.62
538.891	5970.62
539.661	5639.62
540.431	5373.62
541.201	5067.62
541.971	4802.62
542.741	4564.62
543.51	4343.62
544.28	4134.62
545.05	3900.62
545.819	3734.62
546.588	3539.62
547.358	3351.62
548.127	3176.62
548.896	3010.62
549.665	2846.62
550.434	2717.62
551.203	2569.62
551.972	2438.62
552.741	2302.62
553.51	2173.62
554.278	2066.62
555.047	1946.62
555.815	1838.62
556.584	1738.62
557.352	1643.62
558.121	1546.62
558.889	1461.62
559.657	1378.62
560.425	1304.62
561.193	1226.62
561.961	1155.62
562.729	1100.62
563.496	1042.62
564.264	978.62
565.032	938.62
565.799	876.62
566.567	840.62
567.334	792.62
568.101	746.62
568.869	701.62
569.636	660.62
570.403	621.62
571.17	587.62
571.937	555.62
572.704	522.62
573.471	501.62
574.237	461.62
575.004	442.62
575.771	421.62
576.537	393.62
577.303	367.62
578.07	346.62
578.836	326.62
579.602	312.62
580.368	299.62
581.134	279.62
581.9	262.62
582.666	252.62
583.432	242.62
584.198	224.62
584.964	213.62
585.729	207.62
586.495	195.62
587.26	182.62
588.025	170.62
588.791	162.62
589.556	156.62
590.321	151.62
591.086	139.62
591.851	137.62
592.616	126.62
593.381	120.62
594.146	113.62
594.911	104.62
595.675	107.62
596.44	98.62
597.204	93.62
597.969	90.62
598.733	87.62
599.497	81.62
600.261	78.62
601.025	73.62
601.79	71.62
602.553	72.62
603.317	66.62
604.081	64.62
604.845	62.62
605.609	59.62
606.372	59.62
607.136	53.62
607.899	54.62
608.662	51.62
609.426	49.62
610.189	46.62
610.952	44.62
611.715	46.62
612.478	39.62
613.241	36.62
614.004	37.62
614.767	38.62
615.529	33.62
616.292	33.62
617.055	33.62
617.817	29.62
618.579	33.62
619.342	30.62
620.104	28.62
620.866	25.62
621.628	28.62
622.39	27.62
623.152	26.62
623.914	26.62
624.676	23.62
625.438	22.62
626.199	22.62
626.961	20.62
627.722	21.62
628.484	18.62
629.245	20.62
630.006	19.62
630.768	17.62
631.529	17.62
632.29	16.62
633.051	15.62
633.812	16.62
634.573	14.62
635.333	17.62
636.094	14.62
636.855	14.62
637.615	14.62
638.376	14.62
639.136	15.62
639.896	12.62
640.657	13.62
641.417	13.62
642.177	13.62
642.937	13.62
643.697	11.62
644.457	15.62
645.216	9.62
645.976	9.62
646.736	8.62
647.495	11.62
648.255	9.62
649.014	10.62
649.774	12.62
650.533	9.62
651.292	11.62
652.051	9.62
652.81	11.62
653.569	8.62
654.328	10.62
655.087	7.62
655.846	6.62
656.604	7.62
657.363	8.62
658.121	7.62
658.88	9.62
659.638	7.62
660.397	13.62
661.155	6.62
661.913	8.62
662.671	8.62
663.429	8.62
664.187	7.62
664.945	7.62
665.703	8.62
666.46	8.62
667.218	6.62
667.976	8.62
668.733	6.62
669.49	6.62
670.248	5.62
671.005	6.62
671.762	7.62
672.519	6.62
673.276	6.62
674.033	6.62
674.79	4.62
675.547	8.62
676.304	4.62
677.06	5.62
677.817	5.62
678.574	6.62
679.33	6.62
680.086	6.62
680.843	4.62
681.599	5.62
682.355	5.62
683.111	6.62
683.867	4.62
684.623	7.62
685.379	6.62
686.135	3.62
686.89	5.62
687.646	3.62
688.402	4.62
689.157	6.62
689.912	4.62
690.668	5.62
691.423	5.62
692.178	2.62
692.933	6.62
693.688	6.62
694.443	4.62
695.198	7.62
695.953	3.62
696.708	4.62
697.462	5.62
698.217	7.62
698.972	7.62
699.726	4.62
700.48	6.62
701.235	5.62
701.989	7.62
702.743	4.62
703.497	7.62
704.251	3.62
705.005	8.62
705.759	8.62
706.513	1.62
707.266	5.62
708.02	3.62
708.774	3.62
709.527	4.62
710.28	5.62
711.034	7.62
711.787	5.62
712.54	4.62
713.293	2.62
714.046	6.62
714.799	6.62
715.552	4.62
716.305	8.62
717.058	6.62
717.81	4.62
718.563	7.62
719.315	3.62
720.068	4.62
720.82	4.62
721.573	5.62
722.325	5.62
723.077	5.62
723.829	6.62
724.581	1.62
725.333	6.62
726.085	5.62
726.836	4.62
727.588	6.62
728.34	7.62
729.091	4.62
729.843	7.62
730.594	7.62
731.346	4.62
732.097	7.62
732.848	6.62
733.599	5.62
734.35	6.62
735.101	4.62
735.852	4.62
736.603	6.62
737.354	5.62
738.104	7.62
738.855	5.62
739.605	7.62
740.356	6.62
741.106	7.62
741.856	7.62
742.607	8.62
743.357	8.62
744.107	7.62
744.857	7.62
745.607	7.62
746.357	6.62
747.106	8.62
747.856	8.62
748.606	7.62
749.355	9.62
750.105	6.62
750.854	7.62
751.603	6.62
752.353	9.62
753.102	9.62
753.851	8.62
754.6	7.62
755.349	5.62
756.098	8.62
756.847	8.62
757.595	9.62
758.344	8.62
759.093	9.62
759.841	10.62
760.589	10.62
761.338	8.62
762.086	8.62
762.834	8.62
763.582	9.62
764.331	8.62
765.079	10.62
765.826	10.62
766.574	10.62
767.322	8.62
768.07	9.62
768.817	12.62
769.565	9.62
770.312	11.62
771.06	10.62
771.807	12.62
772.554	12.62
773.302	10.62
774.049	9.62
774.796	9.62
775.543	7.62
776.29	13.62
777.036	6.62
777.783	11.62
778.53	11.62
779.276	10.62
780.023	12.62
780.769	12.62
781.516	10.62
782.262	11.62
783.008	12.62
783.754	12.62
784.5	12.62
785.246	11.62
785.992	11.62
786.738	11.62
787.484	10.62
788.23	14.62
788.975	11.62
789.721	13.62
790.466	10.62
791.212	9.62
791.957	12.62
792.702	9.62
793.447	10.62
794.193	12.62
794.938	10.62
795.683	11.62
796.427	10.62
797.172	11.62
797.917	10.62
798.662	10.62
799.406	9.62
800.151	7.62
800.895	9.62
801.64	7.62
802.384	10.62
803.128	9.62
803.872	8.62
804.616	7.62
805.36	8.62
806.104	9.62
806.848	8.62
807.592	10.62
808.336	6.62
809.079	5.62
809.823	9.62
810.566	7.62
811.31	10.62
812.053	6.62
812.796	8.62
813.539	7.62
814.283	5.62
815.026	7.62
815.769	7.62
816.511	5.62
817.254	7.62
817.997	7.62
818.74	6.62
819.482	5.62
820.225	5.62
820.967	5.62
821.71	4.62
822.452	3.62
823.194	2.62
823.936	4.62
824.678	5.62
825.42	6.62
826.162	6.62
826.904	5.62
827.646	5.62
828.388	5.62
829.129	6.62
829.871	3.62
830.612	6.62
831.354	5.62
832.095	4.62
832.836	6.62
833.577	4.62
834.319	4.62
835.06	3.62
835.801	3.62
836.542	5.62
837.282	3.62
838.023	3.62
838.764	7.62
839.504	4.62
840.245	3.62
840.985	5.62
841.726	5.62
842.466	3.62
843.206	4.62
843.946	3.62
844.687	2.62
845.427	4.62
846.166	2.62
846.906	2.62
847.646	4.62
848.386	5.62
849.125	3.62
849.865	4.62
850.605	4.62
851.344	4.62
852.083	5.62
852.823	2.62
853.562	4.62
854.301	1.62
855.04	3.62
855.779	3.62
856.518	3.62
857.257	3.62
857.995	1.62
858.734	3.62
859.473	2.62
860.211	4.62
860.95	2.62
861.688	4.62
862.426	2.62
863.165	4.62
863.903	3.62
864.641	0.62
865.379	2.62
866.117	4.62
866.855	3.62
867.593	2.62
868.33	3.62
869.068	1.62
869.806	2.62
870.543	4.62
871.28	1.62
872.018	3.62
872.755	1.62
873.492	2.62
874.229	2.62
874.967	2.62
875.703	1.62
876.44	0.62
877.177	1.62
877.914	0.62
878.651	1.62
879.387	-0.38
880.124	-0.38
880.86	0.62
881.597	0.62
882.333	2.62
883.069	2.62
883.806	-0.38
884.542	3.62
885.278	1.62
886.014	1.62
886.749	3.62
887.485	1.62
888.221	3.62
888.957	2.62
889.692	1.62
890.428	-0.38
891.163	3.62
891.899	2.62
892.634	1.62
893.369	4.62
894.104	1.62
894.839	1.62
895.574	-0.38
896.309	2.62
897.044	1.62
897.779	-0.38
898.514	2.62
899.248	1.62
899.983	2.62
900.717	2.62
901.452	-0.38
902.186	1.62
902.92	1.62
903.654	0.62
904.389	2.62
905.123	0.62
905.857	0.62
906.59	3.62
907.324	0.62
908.058	1.62
908.792	2.62
909.525	2.62
910.259	-0.38
910.992	1.62
911.726	0.62
912.459	2.62
913.192	0.62
913.925	0.62
914.658	0.62
915.391	2.62
916.124	0.62
916.857	-1.38
917.59	0.62
918.323	1.62
919.055	0.62
919.788	0.62
920.521	0.62
921.253	1.62
921.985	1.62
922.718	2.62
923.45	0.62
924.182	0.62
924.914	0.62
925.646	2.62
926.378	-0.38
927.11	2.62
927.841	1.62
928.573	1.62
929.305	1.62
930.036	1.62
930.768	-2.38
931.499	0.62
932.23	2.62
932.962	1.62
933.693	0.62
934.424	-0.38
935.155	-0.38
935.886	-1.38
936.617	1.62
937.348	0.62
938.078	-0.38
938.809	0.62
939.54	-0.38
940.27	-0.38
941.001	0.62
941.731	1.62
942.461	0.62
943.191	0.62
943.922	0.62
944.652	1.62
945.382	-0.38
946.112	3.62
946.841	1.62
947.571	-0.38
948.301	1.62
949.031	0.62
949.76	-1.38
950.49	0.62
951.219	1.62
951.948	0.62
952.678	0.62
953.407	-0.38
954.136	1.62
954.865	4.62
955.594	0.62
956.323	0.62
957.052	1.62
957.78	1.62
958.509	-0.38
959.238	0.62
959.966	-0.38
960.695	0.62
961.423	0.62
962.151	-1.38
962.88	1.62
963.608	0.62
964.336	-2.38
965.064	0.62
965.792	2.62
966.52	0.62
967.247	-0.38
967.975	1.62
968.703	-0.38
969.43	-1.38
970.158	1.62
970.885	-1.38
971.613	1.62
972.34	0.62
973.067	-0.38
973.794	1.62
974.521	1.62
975.248	1.62
975.975	1.62
976.702	0.62
977.429	0.62
978.156	-1.38
978.882	1.62
979.609	1.62
980.335	1.62
981.062	1.62
981.788	0.62
982.514	0.62
983.24	-1.38
983.967	1.62
984.693	0.62
985.419	2.62
986.144	0.62
986.87	0.62
987.596	-0.38
988.322	0.62
989.047	2.62
989.773	-0.38
990.498	1.62
991.224	-0.38
991.949	0.62
992.674	-1.38
993.399	-0.38
994.124	0.62
994.849	-0.38
995.574	0.62
996.299	-1.38
997.024	2.62
997.749	0.62
998.473	0.62
999.198	0.62
999.922	1.62
1000.647	-1.38
1001.371	3.62
1002.095	-1.38
1002.82	-0.38
1003.544	0.62
1004.268	3.62
1004.992	3.62
1005.716	2.62
1006.439	0.62
1007.163	2.62
1007.887	2.62
1008.611	2.62
1009.334	-0.38
1010.058	2.62
1010.781	-2.38
1011.504	0.62
1012.228	1.62
1012.951	-0.38
1013.674	0.62
1014.397	-0.38
1015.12	-2.38
