节点500_425_QEPB04081__568__15-57-45-433.txt的数据

Date: Wed Nov 12 15:57:45 CST 2025
User: PC
Spectrometer: QEPB0408
触发模式: 0
积分时间 (秒): 1.000000E-2
Scans to average: 1
启用暗噪声校正: true
启用非线性校正: false
滑动平均宽度: 0
X轴模式: Wavelengths
Number of Pixels in Spectrum: 1044
>>>>>Begin Spectral Data<<<<<
220.843	4.38
221.644	4.38
222.444	7.38
223.244	4.38
224.045	3.38
224.845	1.38
225.645	4.38
226.445	6.38
227.245	5.38
228.045	2.38
228.845	4.38
229.645	3.38
230.444	5.38
231.244	8.38
232.043	3.38
232.843	7.38
233.642	5.38
234.442	6.38
235.241	8.38
236.04	8.38
236.839	7.38
237.638	5.38
238.437	6.38
239.236	7.38
240.035	6.38
240.833	9.38
241.632	8.38
242.43	7.38
243.229	9.38
244.027	8.38
244.826	10.38
245.624	7.38
246.422	11.38
247.22	7.38
248.018	11.38
248.816	10.38
249.614	6.38
250.412	10.38
251.21	12.38
252.007	13.38
252.805	9.38
253.602	10.38
254.4	11.38
255.197	9.38
255.994	11.38
256.791	8.38
257.589	12.38
258.386	12.38
259.183	11.38
259.979	15.38
260.776	14.38
261.573	16.38
262.37	14.38
263.166	13.38
263.963	15.38
264.759	15.38
265.556	16.38
266.352	17.38
267.148	18.38
267.944	18.38
268.74	14.38
269.536	17.38
270.332	17.38
271.128	20.38
271.924	20.38
272.719	21.38
273.515	21.38
274.311	21.38
275.106	24.38
275.901	25.38
276.697	21.38
277.492	23.38
278.287	23.38
279.082	22.38
279.877	25.38
280.672	26.38
281.467	21.38
282.262	25.38
283.056	24.38
283.851	23.38
284.646	23.38
285.44	25.38
286.234	25.38
287.029	25.38
287.823	23.38
288.617	24.38
289.411	22.38
290.205	25.38
290.999	23.38
291.793	23.38
292.587	21.38
293.381	22.38
294.174	20.38
294.968	21.38
295.761	20.38
296.555	19.38
297.348	18.38
298.141	19.38
298.935	23.38
299.728	23.38
300.521	19.38
301.314	19.38
302.107	19.38
302.899	16.38
303.692	17.38
304.485	16.38
305.277	17.38
306.07	18.38
306.862	15.38
307.655	16.38
308.447	16.38
309.239	14.38
310.031	17.38
310.823	13.38
311.615	16.38
312.407	14.38
313.199	15.38
313.991	13.38
314.783	13.38
315.574	12.38
316.366	13.38
317.157	15.38
317.949	11.38
318.74	12.38
319.531	13.38
320.322	10.38
321.113	10.38
321.904	13.38
322.695	13.38
323.486	12.38
324.277	11.38
325.068	11.38
325.858	10.38
326.649	11.38
327.439	10.38
328.23	12.38
329.02	10.38
329.81	11.38
330.6	9.38
331.391	11.38
332.181	6.38
332.971	10.38
333.76	8.38
334.55	11.38
335.34	11.38
336.13	8.38
336.919	8.38
337.709	8.38
338.498	9.38
339.287	10.38
340.077	10.38
340.866	8.38
341.655	9.38
342.444	9.38
343.233	9.38
344.022	9.38
344.811	8.38
345.6	10.38
346.388	7.38
347.177	9.38
347.965	7.38
348.754	9.38
349.542	10.38
350.33	11.38
351.119	9.38
351.907	8.38
352.695	9.38
353.483	9.38
354.271	7.38
355.059	10.38
355.846	6.38
356.634	10.38
357.422	7.38
358.209	5.38
358.997	7.38
359.784	7.38
360.571	8.38
361.359	8.38
362.146	9.38
362.933	9.38
363.72	10.38
364.507	8.38
365.294	7.38
366.081	7.38
366.867	7.38
367.654	9.38
368.44	6.38
369.227	4.38
370.013	7.38
370.8	7.38
371.586	7.38
372.372	7.38
373.158	5.38
373.944	7.38
374.73	9.38
375.516	7.38
376.302	8.38
377.088	7.38
377.873	7.38
378.659	6.38
379.445	7.38
380.23	7.38
381.015	9.38
381.801	7.38
382.586	8.38
383.371	7.38
384.156	8.38
384.941	11.38
385.726	8.38
386.511	8.38
387.296	9.38
388.08	7.38
388.865	9.38
389.649	8.38
390.434	7.38
391.218	9.38
392.003	8.38
392.787	10.38
393.571	8.38
394.355	8.38
395.139	12.38
395.923	10.38
396.707	9.38
397.491	9.38
398.274	10.38
399.058	8.38
399.842	9.38
400.625	10.38
401.408	8.38
402.192	11.38
402.975	10.38
403.758	9.38
404.541	8.38
405.324	10.38
406.107	10.38
406.89	10.38
407.673	10.38
408.456	11.38
409.238	10.38
410.021	12.38
410.803	10.38
411.586	10.38
412.368	13.38
413.151	13.38
413.933	14.38
414.715	13.38
415.497	14.38
416.279	13.38
417.061	12.38
417.843	10.38
418.624	12.38
419.406	15.38
420.188	11.38
420.969	14.38
421.751	14.38
422.532	15.38
423.313	17.38
424.095	13.38
424.876	19.38
425.657	16.38
426.438	16.38
427.219	15.38
428	17.38
428.78	20.38
429.561	18.38
430.342	19.38
431.122	19.38
431.903	21.38
432.683	22.38
433.464	19.38
434.244	24.38
435.024	25.38
435.804	26.38
436.584	27.38
437.364	29.38
438.144	31.38
438.924	32.38
439.704	33.38
440.483	30.38
441.263	38.38
442.042	39.38
442.822	41.38
443.601	44.38
444.38	48.38
445.16	54.38
445.939	60.38
446.718	63.38
447.497	66.38
448.276	71.38
449.054	78.38
449.833	88.38
450.612	92.38
451.391	103.38
452.169	109.38
452.948	123.38
453.726	139.38
454.504	155.38
455.282	168.38
456.061	186.38
456.839	215.38
457.617	229.38
458.395	250.38
459.172	283.38
459.95	314.38
460.728	356.38
461.506	386.38
462.283	430.38
463.061	476.38
463.838	539.38
464.615	602.38
465.393	662.38
466.17	737.38
466.947	801.38
467.724	917.38
468.501	997.38
469.278	1104.38
470.055	1225.38
470.831	1336.38
471.608	1482.38
472.385	1636.38
473.161	1808.38
473.938	1981.38
474.714	2159.38
475.49	2386.38
476.266	2608.38
477.043	2871.38
477.819	3135.38
478.595	3428.38
479.371	3728.38
480.146	4035.38
480.922	4445.38
481.698	4814.38
482.473	5272.38
483.249	5710.38
484.024	6238.38
484.8	6814.38
485.575	7352.38
486.35	8010.38
487.126	8642.38
487.901	9357.38
488.676	10192.38
489.451	11017.38
490.225	11826.38
491	12831.38
491.775	13799.38
492.55	14929.38
493.324	15996.38
494.099	17014.38
494.873	18202.38
495.647	19400.38
496.422	20637.38
497.196	21868.38
497.97	23233.38
498.744	24529.38
499.518	25784.38
500.292	26960.38
501.066	27959.38
501.839	29106.38
502.613	30066.38
503.387	30856.38
504.16	31536.38
504.934	32062.38
505.707	32390.38
506.48	32517.38
507.253	32532.38
508.027	32504.38
508.8	32293.38
509.573	31828.38
510.346	31271.38
511.118	30565.38
511.891	29915.38
512.664	29047.38
513.437	28003.38
514.209	27060.38
514.982	26228.38
515.754	25236.38
516.526	24301.38
517.298	23312.38
518.071	22408.38
518.843	21432.38
519.615	20579.38
520.387	19746.38
521.159	19044.38
521.93	18312.38
522.702	17544.38
523.474	16916.38
524.245	16275.38
525.017	15547.38
525.788	14812.38
526.56	14246.38
527.331	13595.38
528.102	13054.38
528.873	12458.38
529.644	11847.38
530.415	11362.38
531.186	10858.38
531.957	10283.38
532.728	9786.38
533.498	9236.38
534.269	8759.38
535.039	8324.38
535.81	7884.38
536.58	7430.38
537.351	7026.38
538.121	6665.38
538.891	6329.38
539.661	5979.38
540.431	5655.38
541.201	5363.38
541.971	5067.38
542.741	4823.38
543.51	4600.38
544.28	4323.38
545.05	4118.38
545.819	3978.38
546.588	3747.38
547.358	3546.38
548.127	3374.38
548.896	3206.38
549.665	3037.38
550.434	2893.38
551.203	2743.38
551.972	2602.38
552.741	2466.38
553.51	2344.38
554.278	2201.38
555.047	2072.38
555.815	1976.38
556.584	1876.38
557.352	1775.38
558.121	1665.38
558.889	1581.38
559.657	1500.38
560.425	1417.38
561.193	1326.38
561.961	1251.38
562.729	1193.38
563.496	1124.38
564.264	1066.38
565.032	1008.38
565.799	959.38
566.567	903.38
567.334	845.38
568.101	799.38
568.869	754.38
569.636	720.38
570.403	678.38
571.17	637.38
571.937	599.38
572.704	570.38
573.471	539.38
574.237	502.38
575.004	478.38
575.771	443.38
576.537	423.38
577.303	401.38
578.07	380.38
578.836	357.38
579.602	338.38
580.368	320.38
581.134	302.38
581.9	286.38
582.666	270.38
583.432	254.38
584.198	243.38
584.964	233.38
585.729	215.38
586.495	209.38
587.26	197.38
588.025	189.38
588.791	182.38
589.556	172.38
590.321	155.38
591.086	151.38
591.851	143.38
592.616	136.38
593.381	126.38
594.146	125.38
594.911	119.38
595.675	115.38
596.44	108.38
597.204	103.38
597.969	104.38
598.733	97.38
599.497	94.38
600.261	88.38
601.025	81.38
601.79	77.38
602.553	78.38
603.317	74.38
604.081	69.38
604.845	65.38
605.609	62.38
606.372	64.38
607.136	56.38
607.899	57.38
608.662	53.38
609.426	52.38
610.189	47.38
610.952	46.38
611.715	46.38
612.478	47.38
613.241	42.38
614.004	44.38
614.767	39.38
615.529	39.38
616.292	36.38
617.055	37.38
617.817	35.38
618.579	33.38
619.342	35.38
620.104	30.38
620.866	32.38
621.628	29.38
622.39	28.38
623.152	28.38
623.914	25.38
624.676	26.38
625.438	26.38
626.199	23.38
626.961	24.38
627.722	20.38
628.484	23.38
629.245	22.38
630.006	22.38
630.768	20.38
631.529	19.38
632.29	21.38
633.051	16.38
633.812	19.38
634.573	18.38
635.333	17.38
636.094	17.38
636.855	15.38
637.615	15.38
638.376	14.38
639.136	15.38
639.896	13.38
640.657	12.38
641.417	15.38
642.177	12.38
642.937	15.38
643.697	14.38
644.457	14.38
645.216	11.38
645.976	11.38
646.736	11.38
647.495	12.38
648.255	12.38
649.014	12.38
649.774	10.38
650.533	10.38
651.292	9.38
652.051	11.38
652.81	10.38
653.569	9.38
654.328	10.38
655.087	8.38
655.846	11.38
656.604	10.38
657.363	9.38
658.121	8.38
658.88	6.38
659.638	8.38
660.397	10.38
661.155	8.38
661.913	9.38
662.671	8.38
663.429	9.38
664.187	8.38
664.945	9.38
665.703	6.38
666.46	8.38
667.218	9.38
667.976	7.38
668.733	8.38
669.49	8.38
670.248	8.38
671.005	9.38
671.762	5.38
672.519	8.38
673.276	7.38
674.033	10.38
674.79	7.38
675.547	8.38
676.304	7.38
677.06	7.38
677.817	8.38
678.574	7.38
679.33	6.38
680.086	6.38
680.843	4.38
681.599	8.38
682.355	5.38
683.111	9.38
683.867	5.38
684.623	7.38
685.379	6.38
686.135	6.38
686.89	7.38
687.646	7.38
688.402	7.38
689.157	5.38
689.912	4.38
690.668	5.38
691.423	2.38
692.178	5.38
692.933	7.38
693.688	7.38
694.443	6.38
695.198	5.38
695.953	7.38
696.708	6.38
697.462	6.38
698.217	5.38
698.972	5.38
699.726	5.38
700.48	5.38
701.235	7.38
701.989	6.38
702.743	7.38
703.497	4.38
704.251	8.38
705.005	5.38
705.759	3.38
706.513	7.38
707.266	5.38
708.02	5.38
708.774	5.38
709.527	6.38
710.28	6.38
711.034	7.38
711.787	7.38
712.54	6.38
713.293	7.38
714.046	8.38
714.799	4.38
715.552	7.38
716.305	4.38
717.058	8.38
717.81	7.38
718.563	5.38
719.315	6.38
720.068	6.38
720.82	5.38
721.573	5.38
722.325	6.38
723.077	6.38
723.829	6.38
724.581	5.38
725.333	6.38
726.085	5.38
726.836	4.38
727.588	6.38
728.34	4.38
729.091	5.38
729.843	6.38
730.594	5.38
731.346	4.38
732.097	7.38
732.848	7.38
733.599	9.38
734.35	7.38
735.101	8.38
735.852	7.38
736.603	7.38
737.354	7.38
738.104	7.38
738.855	7.38
739.605	7.38
740.356	8.38
741.106	9.38
741.856	6.38
742.607	7.38
743.357	8.38
744.107	9.38
744.857	7.38
745.607	7.38
746.357	7.38
747.106	9.38
747.856	6.38
748.606	6.38
749.355	6.38
750.105	8.38
750.854	7.38
751.603	8.38
752.353	9.38
753.102	8.38
753.851	7.38
754.6	5.38
755.349	7.38
756.098	7.38
756.847	10.38
757.595	7.38
758.344	7.38
759.093	6.38
759.841	8.38
760.589	7.38
761.338	8.38
762.086	7.38
762.834	9.38
763.582	8.38
764.331	10.38
765.079	7.38
765.826	8.38
766.574	10.38
767.322	11.38
768.07	9.38
768.817	9.38
769.565	9.38
770.312	12.38
771.06	12.38
771.807	10.38
772.554	11.38
773.302	11.38
774.049	8.38
774.796	11.38
775.543	11.38
776.29	9.38
777.036	11.38
777.783	9.38
778.53	14.38
779.276	11.38
780.023	10.38
780.769	14.38
781.516	9.38
782.262	14.38
783.008	7.38
783.754	13.38
784.5	10.38
785.246	12.38
785.992	13.38
786.738	11.38
787.484	11.38
788.23	12.38
788.975	11.38
789.721	13.38
790.466	10.38
791.212	12.38
791.957	10.38
792.702	11.38
793.447	11.38
794.193	9.38
794.938	11.38
795.683	9.38
796.427	11.38
797.172	10.38
797.917	9.38
798.662	9.38
799.406	8.38
800.151	11.38
800.895	10.38
801.64	9.38
802.384	10.38
803.128	11.38
803.872	9.38
804.616	10.38
805.36	7.38
806.104	10.38
806.848	9.38
807.592	10.38
808.336	10.38
809.079	8.38
809.823	5.38
810.566	8.38
811.31	5.38
812.053	8.38
812.796	9.38
813.539	6.38
814.283	9.38
815.026	6.38
815.769	7.38
816.511	8.38
817.254	8.38
817.997	7.38
818.74	4.38
819.482	7.38
820.225	7.38
820.967	6.38
821.71	6.38
822.452	7.38
823.194	7.38
823.936	7.38
824.678	7.38
825.42	5.38
826.162	5.38
826.904	5.38
827.646	7.38
828.388	4.38
829.129	5.38
829.871	7.38
830.612	3.38
831.354	4.38
832.095	5.38
832.836	7.38
833.577	5.38
834.319	5.38
835.06	6.38
835.801	5.38
836.542	5.38
837.282	4.38
838.023	3.38
838.764	5.38
839.504	9.38
840.245	5.38
840.985	5.38
841.726	3.38
842.466	5.38
843.206	5.38
843.946	6.38
844.687	4.38
845.427	3.38
846.166	6.38
846.906	5.38
847.646	3.38
848.386	3.38
849.125	6.38
849.865	5.38
850.605	6.38
851.344	7.38
852.083	4.38
852.823	2.38
853.562	4.38
854.301	4.38
855.04	3.38
855.779	6.38
856.518	3.38
857.257	5.38
857.995	3.38
858.734	4.38
859.473	5.38
860.211	4.38
860.95	2.38
861.688	5.38
862.426	5.38
863.165	2.38
863.903	3.38
864.641	2.38
865.379	3.38
866.117	4.38
866.855	3.38
867.593	3.38
868.33	2.38
869.068	1.38
869.806	2.38
870.543	3.38
871.28	5.38
872.018	3.38
872.755	2.38
873.492	5.38
874.229	2.38
874.967	2.38
875.703	3.38
876.44	0.38
877.177	2.38
877.914	3.38
878.651	2.38
879.387	2.38
880.124	2.38
880.86	2.38
881.597	2.38
882.333	2.38
883.069	2.38
883.806	1.38
884.542	0.38
885.278	2.38
886.014	2.38
886.749	1.38
887.485	2.38
888.221	2.38
888.957	2.38
889.692	1.38
890.428	1.38
891.163	-0.62
891.899	3.38
892.634	2.38
893.369	2.38
894.104	2.38
894.839	4.38
895.574	3.38
896.309	3.38
897.044	4.38
897.779	0.38
898.514	2.38
899.248	3.38
899.983	2.38
900.717	3.38
901.452	0.38
902.186	0.38
902.92	2.38
903.654	1.38
904.389	2.38
905.123	1.38
905.857	1.38
906.59	3.38
907.324	2.38
908.058	2.38
908.792	0.38
909.525	4.38
910.259	-0.62
910.992	1.38
911.726	3.38
912.459	1.38
913.192	2.38
913.925	-0.62
914.658	-0.62
915.391	1.38
916.124	2.38
916.857	2.38
917.59	1.38
918.323	1.38
919.055	1.38
919.788	1.38
920.521	1.38
921.253	-0.62
921.985	2.38
922.718	2.38
923.45	1.38
924.182	2.38
924.914	-0.62
925.646	0.38
926.378	1.38
927.11	1.38
927.841	2.38
928.573	0.38
929.305	1.38
930.036	3.38
930.768	0.38
931.499	-0.62
932.23	2.38
932.962	3.38
933.693	0.38
934.424	-0.62
935.155	1.38
935.886	1.38
936.617	1.38
937.348	0.38
938.078	0.38
938.809	0.38
939.54	1.38
940.27	1.38
941.001	-0.62
941.731	0.38
942.461	0.38
943.191	3.38
943.922	-0.62
944.652	1.38
945.382	-0.62
946.112	1.38
946.841	0.38
947.571	0.38
948.301	2.38
949.031	-0.62
949.76	0.38
950.49	1.38
951.219	1.38
951.948	1.38
952.678	1.38
953.407	1.38
954.136	2.38
954.865	1.38
955.594	-0.62
956.323	-0.62
957.052	1.38
957.78	0.38
958.509	1.38
959.238	1.38
959.966	1.38
960.695	0.38
961.423	0.38
962.151	1.38
962.88	1.38
963.608	0.38
964.336	1.38
965.064	2.38
965.792	3.38
966.52	1.38
967.247	-0.62
967.975	0.38
968.703	2.38
969.43	1.38
970.158	1.38
970.885	3.38
971.613	1.38
972.34	1.38
973.067	2.38
973.794	0.38
974.521	1.38
975.248	0.38
975.975	2.38
976.702	2.38
977.429	1.38
978.156	1.38
978.882	-0.62
979.609	2.38
980.335	0.38
981.062	2.38
981.788	1.38
982.514	-0.62
983.24	1.38
983.967	2.38
984.693	3.38
985.419	2.38
986.144	1.38
986.87	0.38
987.596	-0.62
988.322	0.38
989.047	1.38
989.773	2.38
990.498	1.38
991.224	0.38
991.949	2.38
992.674	1.38
993.399	1.38
994.124	1.38
994.849	2.38
995.574	2.38
996.299	0.38
997.024	1.38
997.749	0.38
998.473	3.38
999.198	2.38
999.922	2.38
1000.647	3.38
1001.371	2.38
1002.095	0.38
1002.82	-0.62
1003.544	-1.62
1004.268	5.38
1004.992	3.38
1005.716	5.38
1006.439	3.38
1007.163	3.38
1007.887	2.38
1008.611	-0.62
1009.334	0.38
1010.058	0.38
1010.781	0.38
1011.504	1.38
1012.228	1.38
1012.951	0.38
1013.674	-0.62
1014.397	1.38
1015.12	-1.62
