节点500_425_QEPB04081__300__15-53-17-890.txt的数据

Date: Wed Nov 12 15:53:17 CST 2025
User: PC
Spectrometer: QEPB0408
触发模式: 0
积分时间 (秒): 1.000000E-2
Scans to average: 1
启用暗噪声校正: true
启用非线性校正: false
滑动平均宽度: 0
X轴模式: Wavelengths
Number of Pixels in Spectrum: 1044
>>>>>Begin Spectral Data<<<<<
220.843	2.25
221.644	2.25
222.444	3.25
223.244	3.25
224.045	5.25
224.845	5.25
225.645	4.25
226.445	3.25
227.245	4.25
228.045	1.25
228.845	5.25
229.645	4.25
230.444	4.25
231.244	5.25
232.043	5.25
232.843	2.25
233.642	7.25
234.442	5.25
235.241	5.25
236.04	6.25
236.839	7.25
237.638	6.25
238.437	3.25
239.236	6.25
240.035	5.25
240.833	7.25
241.632	5.25
242.43	8.25
243.229	9.25
244.027	8.25
244.826	10.25
245.624	4.25
246.422	7.25
247.22	8.25
248.018	10.25
248.816	10.25
249.614	7.25
250.412	8.25
251.21	10.25
252.007	11.25
252.805	10.25
253.602	11.25
254.4	11.25
255.197	11.25
255.994	10.25
256.791	12.25
257.589	11.25
258.386	13.25
259.183	16.25
259.979	12.25
260.776	13.25
261.573	12.25
262.37	16.25
263.166	17.25
263.963	19.25
264.759	18.25
265.556	17.25
266.352	16.25
267.148	19.25
267.944	18.25
268.74	18.25
269.536	20.25
270.332	21.25
271.128	22.25
271.924	20.25
272.719	22.25
273.515	19.25
274.311	24.25
275.106	24.25
275.901	22.25
276.697	24.25
277.492	21.25
278.287	23.25
279.082	24.25
279.877	22.25
280.672	25.25
281.467	22.25
282.262	26.25
283.056	24.25
283.851	25.25
284.646	23.25
285.44	26.25
286.234	26.25
287.029	22.25
287.823	25.25
288.617	26.25
289.411	24.25
290.205	22.25
290.999	21.25
291.793	24.25
292.587	23.25
293.381	22.25
294.174	24.25
294.968	21.25
295.761	22.25
296.555	18.25
297.348	21.25
298.141	18.25
298.935	23.25
299.728	20.25
300.521	19.25
301.314	17.25
302.107	18.25
302.899	18.25
303.692	18.25
304.485	14.25
305.277	14.25
306.07	17.25
306.862	17.25
307.655	14.25
308.447	18.25
309.239	14.25
310.031	15.25
310.823	14.25
311.615	16.25
312.407	13.25
313.199	12.25
313.991	10.25
314.783	10.25
315.574	12.25
316.366	11.25
317.157	11.25
317.949	10.25
318.74	10.25
319.531	12.25
320.322	12.25
321.113	12.25
321.904	11.25
322.695	12.25
323.486	10.25
324.277	10.25
325.068	9.25
325.858	7.25
326.649	8.25
327.439	7.25
328.23	9.25
329.02	9.25
329.81	8.25
330.6	5.25
331.391	8.25
332.181	9.25
332.971	6.25
333.76	9.25
334.55	10.25
335.34	10.25
336.13	6.25
336.919	8.25
337.709	8.25
338.498	7.25
339.287	8.25
340.077	8.25
340.866	9.25
341.655	8.25
342.444	6.25
343.233	7.25
344.022	7.25
344.811	8.25
345.6	8.25
346.388	7.25
347.177	11.25
347.965	5.25
348.754	8.25
349.542	8.25
350.33	8.25
351.119	10.25
351.907	6.25
352.695	8.25
353.483	5.25
354.271	6.25
355.059	9.25
355.846	9.25
356.634	7.25
357.422	7.25
358.209	8.25
358.997	7.25
359.784	6.25
360.571	9.25
361.359	5.25
362.146	8.25
362.933	6.25
363.72	6.25
364.507	5.25
365.294	5.25
366.081	6.25
366.867	5.25
367.654	5.25
368.44	6.25
369.227	7.25
370.013	7.25
370.8	5.25
371.586	7.25
372.372	3.25
373.158	5.25
373.944	7.25
374.73	6.25
375.516	9.25
376.302	6.25
377.088	6.25
377.873	6.25
378.659	6.25
379.445	8.25
380.23	6.25
381.015	7.25
381.801	5.25
382.586	6.25
383.371	7.25
384.156	7.25
384.941	8.25
385.726	5.25
386.511	8.25
387.296	5.25
388.08	6.25
388.865	7.25
389.649	6.25
390.434	8.25
391.218	9.25
392.003	6.25
392.787	9.25
393.571	7.25
394.355	10.25
395.139	8.25
395.923	9.25
396.707	9.25
397.491	8.25
398.274	9.25
399.058	8.25
399.842	12.25
400.625	8.25
401.408	11.25
402.192	9.25
402.975	8.25
403.758	8.25
404.541	8.25
405.324	11.25
406.107	8.25
406.89	8.25
407.673	9.25
408.456	9.25
409.238	10.25
410.021	13.25
410.803	13.25
411.586	10.25
412.368	13.25
413.151	12.25
413.933	10.25
414.715	13.25
415.497	10.25
416.279	12.25
417.061	13.25
417.843	11.25
418.624	11.25
419.406	12.25
420.188	15.25
420.969	16.25
421.751	15.25
422.532	17.25
423.313	15.25
424.095	14.25
424.876	14.25
425.657	16.25
426.438	14.25
427.219	18.25
428	18.25
428.78	17.25
429.561	20.25
430.342	21.25
431.122	20.25
431.903	19.25
432.683	19.25
433.464	22.25
434.244	21.25
435.024	25.25
435.804	27.25
436.584	27.25
437.364	27.25
438.144	26.25
438.924	31.25
439.704	31.25
440.483	33.25
441.263	37.25
442.042	36.25
442.822	41.25
443.601	39.25
444.38	46.25
445.16	48.25
445.939	53.25
446.718	56.25
447.497	59.25
448.276	67.25
449.054	70.25
449.833	75.25
450.612	87.25
451.391	92.25
452.169	104.25
452.948	109.25
453.726	124.25
454.504	134.25
455.282	151.25
456.061	167.25
456.839	185.25
457.617	203.25
458.395	232.25
459.172	250.25
459.95	290.25
460.728	318.25
461.506	353.25
462.283	407.25
463.061	452.25
463.838	494.25
464.615	557.25
465.393	613.25
466.17	698.25
466.947	772.25
467.724	849.25
468.501	947.25
469.278	1064.25
470.055	1163.25
470.831	1300.25
471.608	1446.25
472.385	1586.25
473.161	1751.25
473.938	1939.25
474.714	2157.25
475.49	2365.25
476.266	2618.25
477.043	2892.25
477.819	3178.25
478.595	3490.25
479.371	3830.25
480.146	4213.25
480.922	4632.25
481.698	5056.25
482.473	5551.25
483.249	6060.25
484.024	6651.25
484.8	7322.25
485.575	7959.25
486.35	8709.25
487.126	9479.25
487.901	10342.25
488.676	11234.25
489.451	12273.25
490.225	13316.25
491	14407.25
491.775	15606.25
492.55	16873.25
493.324	18094.25
494.099	19464.25
494.873	20732.25
495.647	22174.25
496.422	23576.25
497.196	24994.25
497.97	26494.25
498.744	27956.25
499.518	29328.25
500.292	30527.25
501.066	31630.25
501.839	32740.25
502.613	33638.25
503.387	34277.25
504.16	34856.25
504.934	35257.25
505.707	35315.25
506.48	35167.25
507.253	34964.25
508.027	34555.25
508.8	33959.25
509.573	33273.25
510.346	32467.25
511.118	31465.25
511.891	30559.25
512.664	29325.25
513.437	28304.25
514.209	27046.25
514.982	26142.25
515.754	24994.25
516.526	23912.25
517.298	22948.25
518.071	22022.25
518.843	21109.25
519.615	20257.25
520.387	19497.25
521.159	18663.25
521.93	18021.25
522.702	17266.25
523.474	16573.25
524.245	15918.25
525.017	15198.25
525.788	14507.25
526.56	13864.25
527.331	13208.25
528.102	12574.25
528.873	12001.25
529.644	11418.25
530.415	10920.25
531.186	10418.25
531.957	9851.25
532.728	9308.25
533.498	8802.25
534.269	8325.25
535.039	7877.25
535.81	7454.25
536.58	7054.25
537.351	6600.25
538.121	6252.25
538.891	5933.25
539.661	5631.25
540.431	5343.25
541.201	5038.25
541.971	4782.25
542.741	4521.25
543.51	4306.25
544.28	4104.25
545.05	3869.25
545.819	3708.25
546.588	3511.25
547.358	3333.25
548.127	3155.25
548.896	2988.25
549.665	2853.25
550.434	2714.25
551.203	2564.25
551.972	2426.25
552.741	2281.25
553.51	2179.25
554.278	2035.25
555.047	1939.25
555.815	1817.25
556.584	1728.25
557.352	1641.25
558.121	1529.25
558.889	1456.25
559.657	1385.25
560.425	1290.25
561.193	1217.25
561.961	1163.25
562.729	1105.25
563.496	1051.25
564.264	986.25
565.032	926.25
565.799	884.25
566.567	827.25
567.334	785.25
568.101	743.25
568.869	697.25
569.636	659.25
570.403	606.25
571.17	577.25
571.937	562.25
572.704	532.25
573.471	496.25
574.237	467.25
575.004	439.25
575.771	406.25
576.537	393.25
577.303	369.25
578.07	349.25
578.836	328.25
579.602	303.25
580.368	293.25
581.134	278.25
581.9	254.25
582.666	247.25
583.432	236.25
584.198	225.25
584.964	208.25
585.729	197.25
586.495	192.25
587.26	184.25
588.025	174.25
588.791	161.25
589.556	156.25
590.321	147.25
591.086	137.25
591.851	131.25
592.616	125.25
593.381	121.25
594.146	109.25
594.911	109.25
595.675	103.25
596.44	94.25
597.204	91.25
597.969	91.25
598.733	86.25
599.497	85.25
600.261	83.25
601.025	73.25
601.79	71.25
602.553	67.25
603.317	67.25
604.081	64.25
604.845	62.25
605.609	58.25
606.372	58.25
607.136	57.25
607.899	49.25
608.662	48.25
609.426	46.25
610.189	46.25
610.952	45.25
611.715	42.25
612.478	38.25
613.241	39.25
614.004	38.25
614.767	37.25
615.529	37.25
616.292	34.25
617.055	33.25
617.817	33.25
618.579	28.25
619.342	32.25
620.104	28.25
620.866	31.25
621.628	24.25
622.39	27.25
623.152	24.25
623.914	22.25
624.676	23.25
625.438	23.25
626.199	20.25
626.961	22.25
627.722	21.25
628.484	20.25
629.245	19.25
630.006	20.25
630.768	16.25
631.529	19.25
632.29	16.25
633.051	18.25
633.812	17.25
634.573	14.25
635.333	15.25
636.094	14.25
636.855	12.25
637.615	13.25
638.376	12.25
639.136	14.25
639.896	14.25
640.657	13.25
641.417	15.25
642.177	10.25
642.937	12.25
643.697	11.25
644.457	13.25
645.216	14.25
645.976	11.25
646.736	10.25
647.495	13.25
648.255	12.25
649.014	9.25
649.774	10.25
650.533	10.25
651.292	9.25
652.051	9.25
652.81	10.25
653.569	9.25
654.328	8.25
655.087	10.25
655.846	10.25
656.604	10.25
657.363	9.25
658.121	8.25
658.88	10.25
659.638	10.25
660.397	7.25
661.155	11.25
661.913	8.25
662.671	6.25
663.429	8.25
664.187	8.25
664.945	8.25
665.703	6.25
666.46	5.25
667.218	4.25
667.976	6.25
668.733	8.25
669.49	7.25
670.248	8.25
671.005	4.25
671.762	5.25
672.519	6.25
673.276	5.25
674.033	7.25
674.79	5.25
675.547	5.25
676.304	6.25
677.06	6.25
677.817	4.25
678.574	4.25
679.33	4.25
680.086	3.25
680.843	4.25
681.599	3.25
682.355	5.25
683.111	4.25
683.867	5.25
684.623	6.25
685.379	3.25
686.135	6.25
686.89	5.25
687.646	5.25
688.402	2.25
689.157	3.25
689.912	5.25
690.668	3.25
691.423	4.25
692.178	5.25
692.933	6.25
693.688	8.25
694.443	6.25
695.198	5.25
695.953	3.25
696.708	3.25
697.462	6.25
698.217	5.25
698.972	6.25
699.726	5.25
700.48	6.25
701.235	5.25
701.989	4.25
702.743	6.25
703.497	3.25
704.251	7.25
705.005	4.25
705.759	6.25
706.513	5.25
707.266	4.25
708.02	2.25
708.774	5.25
709.527	4.25
710.28	7.25
711.034	4.25
711.787	6.25
712.54	4.25
713.293	6.25
714.046	5.25
714.799	5.25
715.552	6.25
716.305	5.25
717.058	5.25
717.81	5.25
718.563	5.25
719.315	6.25
720.068	5.25
720.82	6.25
721.573	5.25
722.325	6.25
723.077	6.25
723.829	6.25
724.581	4.25
725.333	5.25
726.085	6.25
726.836	5.25
727.588	2.25
728.34	6.25
729.091	3.25
729.843	5.25
730.594	5.25
731.346	6.25
732.097	6.25
732.848	5.25
733.599	7.25
734.35	5.25
735.101	6.25
735.852	4.25
736.603	4.25
737.354	4.25
738.104	6.25
738.855	6.25
739.605	7.25
740.356	6.25
741.106	6.25
741.856	7.25
742.607	6.25
743.357	6.25
744.107	6.25
744.857	6.25
745.607	9.25
746.357	7.25
747.106	8.25
747.856	7.25
748.606	6.25
749.355	8.25
750.105	9.25
750.854	8.25
751.603	7.25
752.353	7.25
753.102	6.25
753.851	6.25
754.6	8.25
755.349	10.25
756.098	9.25
756.847	7.25
757.595	6.25
758.344	7.25
759.093	7.25
759.841	6.25
760.589	9.25
761.338	8.25
762.086	7.25
762.834	10.25
763.582	10.25
764.331	9.25
765.079	9.25
765.826	9.25
766.574	9.25
767.322	8.25
768.07	9.25
768.817	10.25
769.565	9.25
770.312	10.25
771.06	8.25
771.807	9.25
772.554	11.25
773.302	11.25
774.049	12.25
774.796	11.25
775.543	10.25
776.29	12.25
777.036	11.25
777.783	12.25
778.53	11.25
779.276	12.25
780.023	10.25
780.769	10.25
781.516	12.25
782.262	11.25
783.008	13.25
783.754	12.25
784.5	11.25
785.246	11.25
785.992	11.25
786.738	12.25
787.484	10.25
788.23	12.25
788.975	13.25
789.721	12.25
790.466	12.25
791.212	11.25
791.957	12.25
792.702	14.25
793.447	9.25
794.193	12.25
794.938	9.25
795.683	10.25
796.427	10.25
797.172	9.25
797.917	9.25
798.662	8.25
799.406	8.25
800.151	10.25
800.895	10.25
801.64	9.25
802.384	10.25
803.128	9.25
803.872	7.25
804.616	10.25
805.36	8.25
806.104	8.25
806.848	9.25
807.592	5.25
808.336	9.25
809.079	8.25
809.823	9.25
810.566	7.25
811.31	5.25
812.053	8.25
812.796	4.25
813.539	10.25
814.283	5.25
815.026	6.25
815.769	6.25
816.511	5.25
817.254	5.25
817.997	5.25
818.74	6.25
819.482	4.25
820.225	7.25
820.967	6.25
821.71	4.25
822.452	7.25
823.194	3.25
823.936	6.25
824.678	5.25
825.42	5.25
826.162	3.25
826.904	4.25
827.646	2.25
828.388	7.25
829.129	7.25
829.871	3.25
830.612	4.25
831.354	6.25
832.095	4.25
832.836	4.25
833.577	7.25
834.319	3.25
835.06	5.25
835.801	3.25
836.542	3.25
837.282	2.25
838.023	7.25
838.764	3.25
839.504	4.25
840.245	4.25
840.985	3.25
841.726	4.25
842.466	5.25
843.206	2.25
843.946	2.25
844.687	1.25
845.427	2.25
846.166	4.25
846.906	4.25
847.646	3.25
848.386	4.25
849.125	4.25
849.865	3.25
850.605	6.25
851.344	3.25
852.083	5.25
852.823	5.25
853.562	5.25
854.301	3.25
855.04	1.25
855.779	2.25
856.518	4.25
857.257	2.25
857.995	3.25
858.734	3.25
859.473	1.25
860.211	5.25
860.95	0.25
861.688	3.25
862.426	5.25
863.165	2.25
863.903	0.25
864.641	3.25
865.379	4.25
866.117	2.25
866.855	2.25
867.593	1.25
868.33	3.25
869.068	1.25
869.806	0.25
870.543	4.25
871.28	3.25
872.018	2.25
872.755	2.25
873.492	3.25
874.229	1.25
874.967	2.25
875.703	2.25
876.44	2.25
877.177	2.25
877.914	0.25
878.651	0.25
879.387	1.25
880.124	2.25
880.86	2.25
881.597	1.25
882.333	0.25
883.069	-0.75
883.806	0.25
884.542	1.25
885.278	2.25
886.014	2.25
886.749	3.25
887.485	-0.75
888.221	4.25
888.957	0.25
889.692	1.25
890.428	2.25
891.163	1.25
891.899	3.25
892.634	5.25
893.369	1.25
894.104	3.25
894.839	-0.75
895.574	0.25
896.309	0.25
897.044	0.25
897.779	-0.75
898.514	0.25
899.248	-0.75
899.983	0.25
900.717	1.25
901.452	0.25
902.186	0.25
902.92	1.25
903.654	2.25
904.389	2.25
905.123	-0.75
905.857	1.25
906.59	0.25
907.324	2.25
908.058	-0.75
908.792	1.25
909.525	1.25
910.259	-0.75
910.992	2.25
911.726	2.25
912.459	-0.75
913.192	0.25
913.925	0.25
914.658	0.25
915.391	0.25
916.124	1.25
916.857	1.25
917.59	-0.75
918.323	0.25
919.055	-0.75
919.788	0.25
920.521	0.25
921.253	0.25
921.985	0.25
922.718	0.25
923.45	2.25
924.182	0.25
924.914	1.25
925.646	2.25
926.378	-0.75
927.11	-0.75
927.841	-1.75
928.573	2.25
929.305	0.25
930.036	1.25
930.768	0.25
931.499	-0.75
932.23	1.25
932.962	-0.75
933.693	0.25
934.424	0.25
935.155	2.25
935.886	0.25
936.617	-0.75
937.348	0.25
938.078	-0.75
938.809	2.25
939.54	0.25
940.27	1.25
941.001	1.25
941.731	-0.75
942.461	0.25
943.191	0.25
943.922	-0.75
944.652	-0.75
945.382	-1.75
946.112	0.25
946.841	0.25
947.571	1.25
948.301	1.25
949.031	-0.75
949.76	2.25
950.49	-1.75
951.219	-1.75
951.948	0.25
952.678	-1.75
953.407	0.25
954.136	0.25
954.865	0.25
955.594	-1.75
956.323	0.25
957.052	-0.75
957.78	-1.75
958.509	1.25
959.238	0.25
959.966	0.25
960.695	0.25
961.423	2.25
962.151	1.25
962.88	-1.75
963.608	-0.75
964.336	-0.75
965.064	0.25
965.792	0.25
966.52	-1.75
967.247	2.25
967.975	0.25
968.703	1.25
969.43	3.25
970.158	-0.75
970.885	-1.75
971.613	-3.75
972.34	-0.75
973.067	0.25
973.794	1.25
974.521	-1.75
975.248	0.25
975.975	1.25
976.702	-0.75
977.429	0.25
978.156	-0.75
978.882	-1.75
979.609	0.25
980.335	0.25
981.062	1.25
981.788	-0.75
982.514	-1.75
983.24	-0.75
983.967	0.25
984.693	-0.75
985.419	-0.75
986.144	0.25
986.87	-1.75
987.596	-1.75
988.322	0.25
989.047	-1.75
989.773	1.25
990.498	0.25
991.224	1.25
991.949	1.25
992.674	-0.75
993.399	2.25
994.124	-0.75
994.849	1.25
995.574	0.25
996.299	-0.75
997.024	2.25
997.749	-0.75
998.473	-0.75
999.198	1.25
999.922	-0.75
1000.647	0.25
1001.371	2.25
1002.095	-0.75
1002.82	-3.75
1003.544	-0.75
1004.268	3.25
1004.992	1.25
1005.716	2.25
1006.439	1.25
1007.163	5.25
1007.887	3.25
1008.611	0.25
1009.334	1.25
1010.058	0.25
1010.781	1.25
1011.504	1.25
1012.228	0.25
1012.951	2.25
1013.674	-0.75
1014.397	1.25
1015.12	0.25
