节点500_425_QEPB04081__430__15-55-27-639.txt的数据

Date: Wed Nov 12 15:55:27 CST 2025
User: PC
Spectrometer: QEPB0408
触发模式: 0
积分时间 (秒): 1.000000E-2
Scans to average: 1
启用暗噪声校正: true
启用非线性校正: false
滑动平均宽度: 0
X轴模式: Wavelengths
Number of Pixels in Spectrum: 1044
>>>>>Begin Spectral Data<<<<<
220.843	3.75
221.644	2.75
222.444	2.75
223.244	1.75
224.045	4.75
224.845	3.75
225.645	4.75
226.445	2.75
227.245	3.75
228.045	5.75
228.845	3.75
229.645	4.75
230.444	3.75
231.244	4.75
232.043	4.75
232.843	2.75
233.642	7.75
234.442	4.75
235.241	6.75
236.04	5.75
236.839	5.75
237.638	3.75
238.437	6.75
239.236	6.75
240.035	6.75
240.833	4.75
241.632	7.75
242.43	8.75
243.229	7.75
244.027	7.75
244.826	8.75
245.624	7.75
246.422	7.75
247.22	6.75
248.018	8.75
248.816	10.75
249.614	9.75
250.412	10.75
251.21	9.75
252.007	9.75
252.805	10.75
253.602	8.75
254.4	12.75
255.197	10.75
255.994	11.75
256.791	12.75
257.589	9.75
258.386	11.75
259.183	13.75
259.979	16.75
260.776	14.75
261.573	14.75
262.37	14.75
263.166	15.75
263.963	16.75
264.759	15.75
265.556	16.75
266.352	18.75
267.148	16.75
267.944	17.75
268.74	17.75
269.536	19.75
270.332	16.75
271.128	18.75
271.924	19.75
272.719	22.75
273.515	22.75
274.311	20.75
275.106	22.75
275.901	22.75
276.697	23.75
277.492	23.75
278.287	22.75
279.082	22.75
279.877	23.75
280.672	24.75
281.467	23.75
282.262	23.75
283.056	25.75
283.851	22.75
284.646	22.75
285.44	22.75
286.234	23.75
287.029	22.75
287.823	24.75
288.617	20.75
289.411	24.75
290.205	22.75
290.999	24.75
291.793	24.75
292.587	24.75
293.381	20.75
294.174	20.75
294.968	20.75
295.761	19.75
296.555	18.75
297.348	19.75
298.141	20.75
298.935	20.75
299.728	19.75
300.521	17.75
301.314	18.75
302.107	20.75
302.899	21.75
303.692	16.75
304.485	17.75
305.277	15.75
306.07	16.75
306.862	16.75
307.655	16.75
308.447	13.75
309.239	15.75
310.031	17.75
310.823	12.75
311.615	15.75
312.407	14.75
313.199	12.75
313.991	11.75
314.783	11.75
315.574	13.75
316.366	9.75
317.157	11.75
317.949	10.75
318.74	10.75
319.531	10.75
320.322	8.75
321.113	8.75
321.904	10.75
322.695	11.75
323.486	9.75
324.277	8.75
325.068	9.75
325.858	8.75
326.649	8.75
327.439	7.75
328.23	8.75
329.02	9.75
329.81	10.75
330.6	7.75
331.391	8.75
332.181	9.75
332.971	9.75
333.76	10.75
334.55	9.75
335.34	9.75
336.13	11.75
336.919	9.75
337.709	9.75
338.498	9.75
339.287	7.75
340.077	10.75
340.866	9.75
341.655	6.75
342.444	7.75
343.233	8.75
344.022	9.75
344.811	7.75
345.6	7.75
346.388	9.75
347.177	7.75
347.965	9.75
348.754	8.75
349.542	8.75
350.33	8.75
351.119	8.75
351.907	6.75
352.695	4.75
353.483	7.75
354.271	7.75
355.059	7.75
355.846	7.75
356.634	8.75
357.422	6.75
358.209	7.75
358.997	9.75
359.784	8.75
360.571	6.75
361.359	4.75
362.146	6.75
362.933	7.75
363.72	5.75
364.507	7.75
365.294	8.75
366.081	5.75
366.867	7.75
367.654	5.75
368.44	7.75
369.227	5.75
370.013	6.75
370.8	6.75
371.586	7.75
372.372	7.75
373.158	6.75
373.944	7.75
374.73	6.75
375.516	7.75
376.302	7.75
377.088	7.75
377.873	6.75
378.659	5.75
379.445	5.75
380.23	7.75
381.015	6.75
381.801	6.75
382.586	6.75
383.371	6.75
384.156	5.75
384.941	6.75
385.726	8.75
386.511	7.75
387.296	7.75
388.08	9.75
388.865	5.75
389.649	7.75
390.434	6.75
391.218	10.75
392.003	8.75
392.787	6.75
393.571	10.75
394.355	7.75
395.139	8.75
395.923	7.75
396.707	8.75
397.491	9.75
398.274	7.75
399.058	5.75
399.842	8.75
400.625	9.75
401.408	10.75
402.192	10.75
402.975	10.75
403.758	10.75
404.541	11.75
405.324	10.75
406.107	12.75
406.89	8.75
407.673	9.75
408.456	9.75
409.238	8.75
410.021	11.75
410.803	10.75
411.586	13.75
412.368	11.75
413.151	10.75
413.933	11.75
414.715	11.75
415.497	12.75
416.279	11.75
417.061	14.75
417.843	14.75
418.624	13.75
419.406	12.75
420.188	11.75
420.969	14.75
421.751	14.75
422.532	16.75
423.313	15.75
424.095	14.75
424.876	14.75
425.657	16.75
426.438	16.75
427.219	16.75
428	16.75
428.78	20.75
429.561	19.75
430.342	20.75
431.122	17.75
431.903	22.75
432.683	22.75
433.464	21.75
434.244	24.75
435.024	22.75
435.804	25.75
436.584	27.75
437.364	26.75
438.144	30.75
438.924	29.75
439.704	33.75
440.483	34.75
441.263	36.75
442.042	39.75
442.822	40.75
443.601	45.75
444.38	46.75
445.16	51.75
445.939	53.75
446.718	59.75
447.497	63.75
448.276	67.75
449.054	71.75
449.833	78.75
450.612	87.75
451.391	94.75
452.169	106.75
452.948	116.75
453.726	128.75
454.504	145.75
455.282	158.75
456.061	176.75
456.839	195.75
457.617	217.75
458.395	238.75
459.172	273.75
459.95	300.75
460.728	336.75
461.506	373.75
462.283	415.75
463.061	457.75
463.838	511.75
464.615	572.75
465.393	628.75
466.17	709.75
466.947	787.75
467.724	868.75
468.501	956.75
469.278	1068.75
470.055	1190.75
470.831	1306.75
471.608	1455.75
472.385	1622.75
473.161	1780.75
473.938	1945.75
474.714	2172.75
475.49	2380.75
476.266	2593.75
477.043	2859.75
477.819	3136.75
478.595	3467.75
479.371	3792.75
480.146	4139.75
480.922	4505.75
481.698	4984.75
482.473	5406.75
483.249	5930.75
484.024	6438.75
484.8	7083.75
485.575	7641.75
486.35	8352.75
487.126	9086.75
487.901	9860.75
488.676	10758.75
489.451	11630.75
490.225	12610.75
491	13656.75
491.775	14731.75
492.55	15917.75
493.324	17161.75
494.099	18312.75
494.873	19510.75
495.647	20910.75
496.422	22179.75
497.196	23613.75
497.97	24981.75
498.744	26375.75
499.518	27566.75
500.292	28760.75
501.066	29941.75
501.839	31038.75
502.613	32003.75
503.387	32755.75
504.16	33332.75
504.934	33784.75
505.707	34039.75
506.48	33987.75
507.253	33905.75
508.027	33623.75
508.8	33209.75
509.573	32553.75
510.346	31963.75
511.118	31031.75
511.891	30243.75
512.664	29249.75
513.437	28192.75
514.209	27062.75
514.982	26144.75
515.754	25182.75
516.526	24099.75
517.298	23041.75
518.071	22136.75
518.843	21206.75
519.615	20397.75
520.387	19603.75
521.159	18814.75
521.93	18114.75
522.702	17391.75
523.474	16729.75
524.245	16084.75
525.017	15313.75
525.788	14613.75
526.56	13981.75
527.331	13379.75
528.102	12794.75
528.873	12177.75
529.644	11594.75
530.415	11105.75
531.186	10593.75
531.957	10041.75
532.728	9536.75
533.498	8980.75
534.269	8526.75
535.039	8040.75
535.81	7626.75
536.58	7171.75
537.351	6824.75
538.121	6430.75
538.891	6079.75
539.661	5785.75
540.431	5491.75
541.201	5164.75
541.971	4945.75
542.741	4702.75
543.51	4442.75
544.28	4200.75
545.05	3996.75
545.819	3823.75
546.588	3601.75
547.358	3408.75
548.127	3258.75
548.896	3106.75
549.665	2943.75
550.434	2777.75
551.203	2645.75
551.972	2513.75
552.741	2370.75
553.51	2256.75
554.278	2122.75
555.047	1997.75
555.815	1890.75
556.584	1772.75
557.352	1694.75
558.121	1582.75
558.889	1492.75
559.657	1408.75
560.425	1339.75
561.193	1276.75
561.961	1204.75
562.729	1138.75
563.496	1084.75
564.264	1012.75
565.032	958.75
565.799	907.75
566.567	859.75
567.334	807.75
568.101	770.75
568.869	723.75
569.636	685.75
570.403	642.75
571.17	600.75
571.937	578.75
572.704	542.75
573.471	512.75
574.237	486.75
575.004	448.75
575.771	428.75
576.537	402.75
577.303	371.75
578.07	361.75
578.836	338.75
579.602	323.75
580.368	300.75
581.134	290.75
581.9	274.75
582.666	258.75
583.432	246.75
584.198	234.75
584.964	222.75
585.729	208.75
586.495	202.75
587.26	190.75
588.025	178.75
588.791	169.75
589.556	162.75
590.321	153.75
591.086	143.75
591.851	136.75
592.616	131.75
593.381	129.75
594.146	117.75
594.911	114.75
595.675	104.75
596.44	105.75
597.204	95.75
597.969	99.75
598.733	89.75
599.497	88.75
600.261	79.75
601.025	76.75
601.79	76.75
602.553	75.75
603.317	66.75
604.081	62.75
604.845	61.75
605.609	61.75
606.372	58.75
607.136	59.75
607.899	53.75
608.662	53.75
609.426	52.75
610.189	49.75
610.952	47.75
611.715	43.75
612.478	42.75
613.241	39.75
614.004	42.75
614.767	39.75
615.529	30.75
616.292	38.75
617.055	31.75
617.817	31.75
618.579	33.75
619.342	30.75
620.104	30.75
620.866	26.75
621.628	28.75
622.39	28.75
623.152	28.75
623.914	25.75
624.676	23.75
625.438	22.75
626.199	20.75
626.961	22.75
627.722	23.75
628.484	22.75
629.245	20.75
630.006	20.75
630.768	18.75
631.529	16.75
632.29	18.75
633.051	18.75
633.812	14.75
634.573	15.75
635.333	15.75
636.094	13.75
636.855	14.75
637.615	14.75
638.376	16.75
639.136	15.75
639.896	14.75
640.657	11.75
641.417	13.75
642.177	14.75
642.937	13.75
643.697	13.75
644.457	13.75
645.216	12.75
645.976	11.75
646.736	10.75
647.495	13.75
648.255	10.75
649.014	9.75
649.774	10.75
650.533	9.75
651.292	10.75
652.051	8.75
652.81	8.75
653.569	8.75
654.328	10.75
655.087	9.75
655.846	7.75
656.604	9.75
657.363	8.75
658.121	9.75
658.88	8.75
659.638	8.75
660.397	6.75
661.155	5.75
661.913	8.75
662.671	7.75
663.429	8.75
664.187	10.75
664.945	7.75
665.703	7.75
666.46	6.75
667.218	5.75
667.976	7.75
668.733	6.75
669.49	5.75
670.248	6.75
671.005	7.75
671.762	7.75
672.519	6.75
673.276	4.75
674.033	5.75
674.79	7.75
675.547	6.75
676.304	6.75
677.06	6.75
677.817	5.75
678.574	5.75
679.33	5.75
680.086	6.75
680.843	3.75
681.599	6.75
682.355	5.75
683.111	5.75
683.867	6.75
684.623	5.75
685.379	6.75
686.135	6.75
686.89	11.75
687.646	3.75
688.402	6.75
689.157	6.75
689.912	3.75
690.668	5.75
691.423	5.75
692.178	5.75
692.933	3.75
693.688	4.75
694.443	4.75
695.198	4.75
695.953	5.75
696.708	2.75
697.462	7.75
698.217	6.75
698.972	5.75
699.726	5.75
700.48	4.75
701.235	5.75
701.989	6.75
702.743	4.75
703.497	3.75
704.251	2.75
705.005	5.75
705.759	5.75
706.513	5.75
707.266	4.75
708.02	5.75
708.774	8.75
709.527	2.75
710.28	5.75
711.034	3.75
711.787	4.75
712.54	5.75
713.293	4.75
714.046	5.75
714.799	3.75
715.552	6.75
716.305	5.75
717.058	6.75
717.81	6.75
718.563	3.75
719.315	6.75
720.068	3.75
720.82	4.75
721.573	6.75
722.325	3.75
723.077	8.75
723.829	5.75
724.581	7.75
725.333	6.75
726.085	5.75
726.836	5.75
727.588	5.75
728.34	8.75
729.091	5.75
729.843	7.75
730.594	5.75
731.346	5.75
732.097	7.75
732.848	6.75
733.599	7.75
734.35	4.75
735.101	5.75
735.852	5.75
736.603	5.75
737.354	5.75
738.104	4.75
738.855	7.75
739.605	3.75
740.356	7.75
741.106	7.75
741.856	6.75
742.607	7.75
743.357	7.75
744.107	9.75
744.857	6.75
745.607	4.75
746.357	8.75
747.106	6.75
747.856	8.75
748.606	7.75
749.355	6.75
750.105	9.75
750.854	7.75
751.603	7.75
752.353	5.75
753.102	7.75
753.851	9.75
754.6	7.75
755.349	6.75
756.098	8.75
756.847	7.75
757.595	10.75
758.344	7.75
759.093	8.75
759.841	6.75
760.589	7.75
761.338	7.75
762.086	7.75
762.834	6.75
763.582	7.75
764.331	10.75
765.079	7.75
765.826	12.75
766.574	10.75
767.322	10.75
768.07	7.75
768.817	8.75
769.565	8.75
770.312	9.75
771.06	8.75
771.807	8.75
772.554	9.75
773.302	10.75
774.049	9.75
774.796	9.75
775.543	11.75
776.29	10.75
777.036	8.75
777.783	12.75
778.53	11.75
779.276	10.75
780.023	10.75
780.769	10.75
781.516	10.75
782.262	14.75
783.008	10.75
783.754	13.75
784.5	8.75
785.246	12.75
785.992	10.75
786.738	10.75
787.484	12.75
788.23	8.75
788.975	11.75
789.721	12.75
790.466	10.75
791.212	8.75
791.957	9.75
792.702	10.75
793.447	13.75
794.193	7.75
794.938	11.75
795.683	9.75
796.427	8.75
797.172	11.75
797.917	8.75
798.662	9.75
799.406	9.75
800.151	8.75
800.895	7.75
801.64	10.75
802.384	9.75
803.128	7.75
803.872	9.75
804.616	7.75
805.36	7.75
806.104	7.75
806.848	6.75
807.592	6.75
808.336	5.75
809.079	8.75
809.823	7.75
810.566	6.75
811.31	8.75
812.053	8.75
812.796	8.75
813.539	8.75
814.283	7.75
815.026	5.75
815.769	7.75
816.511	4.75
817.254	5.75
817.997	6.75
818.74	7.75
819.482	8.75
820.225	6.75
820.967	5.75
821.71	6.75
822.452	5.75
823.194	6.75
823.936	6.75
824.678	7.75
825.42	6.75
826.162	6.75
826.904	5.75
827.646	2.75
828.388	6.75
829.129	6.75
829.871	5.75
830.612	5.75
831.354	3.75
832.095	6.75
832.836	5.75
833.577	5.75
834.319	2.75
835.06	3.75
835.801	6.75
836.542	5.75
837.282	7.75
838.023	6.75
838.764	2.75
839.504	4.75
840.245	3.75
840.985	4.75
841.726	6.75
842.466	3.75
843.206	4.75
843.946	3.75
844.687	3.75
845.427	4.75
846.166	4.75
846.906	4.75
847.646	2.75
848.386	4.75
849.125	3.75
849.865	4.75
850.605	2.75
851.344	3.75
852.083	2.75
852.823	1.75
853.562	4.75
854.301	2.75
855.04	4.75
855.779	2.75
856.518	4.75
857.257	4.75
857.995	4.75
858.734	3.75
859.473	4.75
860.211	4.75
860.95	4.75
861.688	2.75
862.426	2.75
863.165	1.75
863.903	6.75
864.641	3.75
865.379	0.75
866.117	2.75
866.855	3.75
867.593	1.75
868.33	1.75
869.068	1.75
869.806	3.75
870.543	1.75
871.28	0.75
872.018	1.75
872.755	2.75
873.492	1.75
874.229	0.75
874.967	1.75
875.703	3.75
876.44	4.75
877.177	2.75
877.914	2.75
878.651	3.75
879.387	-1.25
880.124	1.75
880.86	2.75
881.597	3.75
882.333	1.75
883.069	1.75
883.806	3.75
884.542	2.75
885.278	4.75
886.014	1.75
886.749	2.75
887.485	4.75
888.221	1.75
888.957	2.75
889.692	0.75
890.428	1.75
891.163	2.75
891.899	2.75
892.634	2.75
893.369	1.75
894.104	2.75
894.839	2.75
895.574	0.75
896.309	2.75
897.044	1.75
897.779	2.75
898.514	-1.25
899.248	3.75
899.983	0.75
900.717	-0.25
901.452	0.75
902.186	0.75
902.92	1.75
903.654	-1.25
904.389	1.75
905.123	1.75
905.857	0.75
906.59	0.75
907.324	-0.25
908.058	1.75
908.792	0.75
909.525	0.75
910.259	-0.25
910.992	-0.25
911.726	1.75
912.459	1.75
913.192	-1.25
913.925	0.75
914.658	1.75
915.391	0.75
916.124	-0.25
916.857	1.75
917.59	2.75
918.323	-1.25
919.055	1.75
919.788	-0.25
920.521	0.75
921.253	-0.25
921.985	2.75
922.718	-0.25
923.45	1.75
924.182	-0.25
924.914	0.75
925.646	2.75
926.378	1.75
927.11	2.75
927.841	1.75
928.573	-0.25
929.305	2.75
930.036	-0.25
930.768	0.75
931.499	2.75
932.23	0.75
932.962	0.75
933.693	-1.25
934.424	1.75
935.155	-0.25
935.886	-1.25
936.617	0.75
937.348	1.75
938.078	2.75
938.809	2.75
939.54	0.75
940.27	0.75
941.001	-0.25
941.731	2.75
942.461	0.75
943.191	0.75
943.922	0.75
944.652	1.75
945.382	0.75
946.112	-0.25
946.841	0.75
947.571	-0.25
948.301	-0.25
949.031	0.75
949.76	-0.25
950.49	0.75
951.219	-0.25
951.948	0.75
952.678	-0.25
953.407	0.75
954.136	-0.25
954.865	-0.25
955.594	0.75
956.323	0.75
957.052	-0.25
957.78	2.75
958.509	-0.25
959.238	0.75
959.966	-1.25
960.695	2.75
961.423	2.75
962.151	1.75
962.88	2.75
963.608	0.75
964.336	1.75
965.064	1.75
965.792	0.75
966.52	1.75
967.247	0.75
967.975	1.75
968.703	-0.25
969.43	1.75
970.158	0.75
970.885	0.75
971.613	0.75
972.34	0.75
973.067	-0.25
973.794	0.75
974.521	0.75
975.248	1.75
975.975	-1.25
976.702	1.75
977.429	0.75
978.156	-0.25
978.882	0.75
979.609	0.75
980.335	-2.25
981.062	-0.25
981.788	0.75
982.514	0.75
983.24	0.75
983.967	1.75
984.693	-0.25
985.419	-2.25
986.144	0.75
986.87	1.75
987.596	2.75
988.322	1.75
989.047	1.75
989.773	-0.25
990.498	1.75
991.224	-1.25
991.949	0.75
992.674	0.75
993.399	0.75
994.124	0.75
994.849	-0.25
995.574	0.75
996.299	-0.25
997.024	3.75
997.749	1.75
998.473	-0.25
999.198	0.75
999.922	0.75
1000.647	0.75
1001.371	3.75
1002.095	-1.25
1002.82	-3.25
1003.544	-0.25
1004.268	3.75
1004.992	3.75
1005.716	2.75
1006.439	3.75
1007.163	4.75
1007.887	2.75
1008.611	1.75
1009.334	-1.25
1010.058	0.75
1010.781	0.75
1011.504	3.75
1012.228	0.75
1012.951	2.75
1013.674	0.75
1014.397	0.75
1015.12	-3.25
