节点500_425_QEPB04081__576__15-57-53-428.txt的数据

Date: Wed Nov 12 15:57:53 CST 2025
User: PC
Spectrometer: QEPB0408
触发模式: 0
积分时间 (秒): 1.000000E-2
Scans to average: 1
启用暗噪声校正: true
启用非线性校正: false
滑动平均宽度: 0
X轴模式: Wavelengths
Number of Pixels in Spectrum: 1044
>>>>>Begin Spectral Data<<<<<
220.843	1.62
221.644	1.62
222.444	3.62
223.244	3.62
224.045	3.62
224.845	6.62
225.645	4.62
226.445	3.62
227.245	3.62
228.045	4.62
228.845	3.62
229.645	5.62
230.444	6.62
231.244	4.62
232.043	6.62
232.843	4.62
233.642	6.62
234.442	4.62
235.241	5.62
236.04	5.62
236.839	5.62
237.638	8.62
238.437	3.62
239.236	6.62
240.035	7.62
240.833	6.62
241.632	5.62
242.43	6.62
243.229	7.62
244.027	7.62
244.826	5.62
245.624	8.62
246.422	5.62
247.22	8.62
248.018	8.62
248.816	9.62
249.614	9.62
250.412	9.62
251.21	11.62
252.007	9.62
252.805	9.62
253.602	11.62
254.4	11.62
255.197	9.62
255.994	9.62
256.791	13.62
257.589	10.62
258.386	11.62
259.183	11.62
259.979	13.62
260.776	13.62
261.573	14.62
262.37	12.62
263.166	16.62
263.963	15.62
264.759	13.62
265.556	14.62
266.352	16.62
267.148	15.62
267.944	16.62
268.74	16.62
269.536	19.62
270.332	19.62
271.128	18.62
271.924	14.62
272.719	18.62
273.515	17.62
274.311	20.62
275.106	19.62
275.901	22.62
276.697	21.62
277.492	23.62
278.287	21.62
279.082	21.62
279.877	19.62
280.672	21.62
281.467	22.62
282.262	20.62
283.056	20.62
283.851	21.62
284.646	20.62
285.44	22.62
286.234	20.62
287.029	23.62
287.823	21.62
288.617	24.62
289.411	20.62
290.205	19.62
290.999	22.62
291.793	23.62
292.587	23.62
293.381	21.62
294.174	20.62
294.968	21.62
295.761	19.62
296.555	21.62
297.348	18.62
298.141	17.62
298.935	20.62
299.728	18.62
300.521	17.62
301.314	19.62
302.107	18.62
302.899	16.62
303.692	14.62
304.485	17.62
305.277	16.62
306.07	18.62
306.862	16.62
307.655	18.62
308.447	14.62
309.239	16.62
310.031	16.62
310.823	13.62
311.615	14.62
312.407	12.62
313.199	11.62
313.991	12.62
314.783	10.62
315.574	12.62
316.366	11.62
317.157	9.62
317.949	9.62
318.74	11.62
319.531	11.62
320.322	12.62
321.113	8.62
321.904	11.62
322.695	9.62
323.486	12.62
324.277	10.62
325.068	8.62
325.858	9.62
326.649	10.62
327.439	7.62
328.23	9.62
329.02	10.62
329.81	9.62
330.6	11.62
331.391	8.62
332.181	8.62
332.971	10.62
333.76	7.62
334.55	9.62
335.34	8.62
336.13	6.62
336.919	6.62
337.709	7.62
338.498	9.62
339.287	8.62
340.077	7.62
340.866	7.62
341.655	9.62
342.444	10.62
343.233	6.62
344.022	7.62
344.811	8.62
345.6	7.62
346.388	8.62
347.177	9.62
347.965	8.62
348.754	8.62
349.542	8.62
350.33	8.62
351.119	6.62
351.907	9.62
352.695	9.62
353.483	9.62
354.271	7.62
355.059	7.62
355.846	7.62
356.634	7.62
357.422	5.62
358.209	6.62
358.997	9.62
359.784	4.62
360.571	7.62
361.359	8.62
362.146	7.62
362.933	5.62
363.72	8.62
364.507	7.62
365.294	5.62
366.081	8.62
366.867	5.62
367.654	6.62
368.44	4.62
369.227	7.62
370.013	6.62
370.8	7.62
371.586	8.62
372.372	8.62
373.158	7.62
373.944	5.62
374.73	5.62
375.516	7.62
376.302	8.62
377.088	7.62
377.873	6.62
378.659	6.62
379.445	4.62
380.23	8.62
381.015	8.62
381.801	8.62
382.586	5.62
383.371	6.62
384.156	6.62
384.941	7.62
385.726	5.62
386.511	7.62
387.296	6.62
388.08	6.62
388.865	7.62
389.649	6.62
390.434	8.62
391.218	7.62
392.003	8.62
392.787	4.62
393.571	8.62
394.355	6.62
395.139	6.62
395.923	7.62
396.707	7.62
397.491	8.62
398.274	8.62
399.058	8.62
399.842	10.62
400.625	10.62
401.408	8.62
402.192	8.62
402.975	8.62
403.758	7.62
404.541	9.62
405.324	11.62
406.107	9.62
406.89	9.62
407.673	9.62
408.456	10.62
409.238	11.62
410.021	10.62
410.803	11.62
411.586	10.62
412.368	13.62
413.151	10.62
413.933	12.62
414.715	10.62
415.497	12.62
416.279	12.62
417.061	11.62
417.843	14.62
418.624	14.62
419.406	14.62
420.188	13.62
420.969	11.62
421.751	14.62
422.532	14.62
423.313	15.62
424.095	14.62
424.876	14.62
425.657	16.62
426.438	14.62
427.219	18.62
428	14.62
428.78	17.62
429.561	20.62
430.342	20.62
431.122	17.62
431.903	19.62
432.683	17.62
433.464	23.62
434.244	23.62
435.024	24.62
435.804	23.62
436.584	26.62
437.364	27.62
438.144	29.62
438.924	30.62
439.704	35.62
440.483	36.62
441.263	35.62
442.042	38.62
442.822	41.62
443.601	46.62
444.38	43.62
445.16	48.62
445.939	54.62
446.718	61.62
447.497	65.62
448.276	70.62
449.054	77.62
449.833	83.62
450.612	87.62
451.391	100.62
452.169	109.62
452.948	120.62
453.726	135.62
454.504	146.62
455.282	172.62
456.061	177.62
456.839	201.62
457.617	231.62
458.395	256.62
459.172	286.62
459.95	312.62
460.728	357.62
461.506	392.62
462.283	433.62
463.061	484.62
463.838	546.62
464.615	590.62
465.393	662.62
466.17	728.62
466.947	825.62
467.724	902.62
468.501	1001.62
469.278	1109.62
470.055	1214.62
470.831	1343.62
471.608	1473.62
472.385	1632.62
473.161	1802.62
473.938	1958.62
474.714	2182.62
475.49	2366.62
476.266	2599.62
477.043	2847.62
477.819	3132.62
478.595	3416.62
479.371	3734.62
480.146	4067.62
480.922	4426.62
481.698	4832.62
482.473	5272.62
483.249	5722.62
484.024	6220.62
484.8	6792.62
485.575	7360.62
486.35	7966.62
487.126	8653.62
487.901	9349.62
488.676	10164.62
489.451	10940.62
490.225	11850.62
491	12855.62
491.775	13832.62
492.55	14842.62
493.324	15965.62
494.099	17001.62
494.873	18165.62
495.647	19409.62
496.422	20597.62
497.196	21832.62
497.97	23167.62
498.744	24400.62
499.518	25724.62
500.292	26817.62
501.066	27929.62
501.839	29082.62
502.613	30058.62
503.387	30792.62
504.16	31589.62
504.934	32029.62
505.707	32364.62
506.48	32528.62
507.253	32595.62
508.027	32439.62
508.8	32257.62
509.573	31827.62
510.346	31275.62
511.118	30575.62
511.891	29883.62
512.664	28980.62
513.437	28062.62
514.209	27136.62
514.982	26164.62
515.754	25219.62
516.526	24217.62
517.298	23341.62
518.071	22357.62
518.843	21473.62
519.615	20621.62
520.387	19775.62
521.159	19047.62
521.93	18302.62
522.702	17581.62
523.474	16931.62
524.245	16267.62
525.017	15503.62
525.788	14802.62
526.56	14236.62
527.331	13590.62
528.102	13019.62
528.873	12403.62
529.644	11858.62
530.415	11312.62
531.186	10842.62
531.957	10242.62
532.728	9781.62
533.498	9289.62
534.269	8784.62
535.039	8314.62
535.81	7864.62
536.58	7430.62
537.351	7029.62
538.121	6618.62
538.891	6322.62
539.661	5975.62
540.431	5679.62
541.201	5345.62
541.971	5075.62
542.741	4811.62
543.51	4584.62
544.28	4336.62
545.05	4124.62
545.819	3961.62
546.588	3764.62
547.358	3548.62
548.127	3368.62
548.896	3212.62
549.665	3046.62
550.434	2895.62
551.203	2754.62
551.972	2610.62
552.741	2465.62
553.51	2330.62
554.278	2196.62
555.047	2070.62
555.815	1975.62
556.584	1874.62
557.352	1761.62
558.121	1665.62
558.889	1570.62
559.657	1482.62
560.425	1418.62
561.193	1328.62
561.961	1270.62
562.729	1197.62
563.496	1130.62
564.264	1063.62
565.032	1013.62
565.799	950.62
566.567	895.62
567.334	847.62
568.101	805.62
568.869	755.62
569.636	714.62
570.403	675.62
571.17	635.62
571.937	595.62
572.704	567.62
573.471	546.62
574.237	508.62
575.004	477.62
575.771	448.62
576.537	424.62
577.303	401.62
578.07	378.62
578.836	352.62
579.602	331.62
580.368	316.62
581.134	292.62
581.9	287.62
582.666	273.62
583.432	261.62
584.198	241.62
584.964	233.62
585.729	219.62
586.495	208.62
587.26	196.62
588.025	188.62
588.791	170.62
589.556	167.62
590.321	161.62
591.086	150.62
591.851	144.62
592.616	139.62
593.381	129.62
594.146	124.62
594.911	114.62
595.675	107.62
596.44	109.62
597.204	103.62
597.969	99.62
598.733	93.62
599.497	91.62
600.261	87.62
601.025	80.62
601.79	81.62
602.553	75.62
603.317	71.62
604.081	69.62
604.845	66.62
605.609	67.62
606.372	62.62
607.136	62.62
607.899	53.62
608.662	54.62
609.426	51.62
610.189	46.62
610.952	46.62
611.715	43.62
612.478	42.62
613.241	40.62
614.004	45.62
614.767	40.62
615.529	35.62
616.292	37.62
617.055	33.62
617.817	35.62
618.579	30.62
619.342	31.62
620.104	29.62
620.866	29.62
621.628	26.62
622.39	28.62
623.152	26.62
623.914	24.62
624.676	23.62
625.438	27.62
626.199	24.62
626.961	24.62
627.722	22.62
628.484	17.62
629.245	20.62
630.006	20.62
630.768	18.62
631.529	20.62
632.29	17.62
633.051	20.62
633.812	19.62
634.573	18.62
635.333	15.62
636.094	16.62
636.855	16.62
637.615	12.62
638.376	15.62
639.136	13.62
639.896	13.62
640.657	13.62
641.417	12.62
642.177	12.62
642.937	11.62
643.697	10.62
644.457	10.62
645.216	12.62
645.976	12.62
646.736	10.62
647.495	11.62
648.255	10.62
649.014	8.62
649.774	12.62
650.533	8.62
651.292	10.62
652.051	9.62
652.81	10.62
653.569	10.62
654.328	7.62
655.087	9.62
655.846	10.62
656.604	8.62
657.363	8.62
658.121	8.62
658.88	7.62
659.638	6.62
660.397	8.62
661.155	8.62
661.913	7.62
662.671	7.62
663.429	7.62
664.187	11.62
664.945	7.62
665.703	7.62
666.46	4.62
667.218	7.62
667.976	5.62
668.733	7.62
669.49	5.62
670.248	7.62
671.005	8.62
671.762	6.62
672.519	7.62
673.276	6.62
674.033	4.62
674.79	8.62
675.547	6.62
676.304	5.62
677.06	5.62
677.817	5.62
678.574	5.62
679.33	6.62
680.086	6.62
680.843	5.62
681.599	3.62
682.355	5.62
683.111	4.62
683.867	4.62
684.623	5.62
685.379	4.62
686.135	3.62
686.89	5.62
687.646	7.62
688.402	6.62
689.157	6.62
689.912	5.62
690.668	7.62
691.423	5.62
692.178	2.62
692.933	2.62
693.688	4.62
694.443	2.62
695.198	5.62
695.953	7.62
696.708	6.62
697.462	8.62
698.217	4.62
698.972	6.62
699.726	6.62
700.48	6.62
701.235	4.62
701.989	5.62
702.743	6.62
703.497	4.62
704.251	7.62
705.005	6.62
705.759	7.62
706.513	7.62
707.266	5.62
708.02	5.62
708.774	3.62
709.527	7.62
710.28	2.62
711.034	6.62
711.787	6.62
712.54	4.62
713.293	5.62
714.046	5.62
714.799	3.62
715.552	2.62
716.305	5.62
717.058	4.62
717.81	4.62
718.563	7.62
719.315	3.62
720.068	4.62
720.82	4.62
721.573	4.62
722.325	4.62
723.077	6.62
723.829	5.62
724.581	5.62
725.333	5.62
726.085	4.62
726.836	4.62
727.588	5.62
728.34	5.62
729.091	7.62
729.843	3.62
730.594	6.62
731.346	7.62
732.097	4.62
732.848	4.62
733.599	5.62
734.35	5.62
735.101	7.62
735.852	5.62
736.603	7.62
737.354	4.62
738.104	6.62
738.855	3.62
739.605	6.62
740.356	8.62
741.106	6.62
741.856	8.62
742.607	5.62
743.357	4.62
744.107	4.62
744.857	5.62
745.607	7.62
746.357	3.62
747.106	7.62
747.856	4.62
748.606	6.62
749.355	5.62
750.105	5.62
750.854	8.62
751.603	6.62
752.353	6.62
753.102	7.62
753.851	4.62
754.6	7.62
755.349	7.62
756.098	6.62
756.847	8.62
757.595	6.62
758.344	8.62
759.093	7.62
759.841	8.62
760.589	8.62
761.338	6.62
762.086	6.62
762.834	7.62
763.582	7.62
764.331	7.62
765.079	8.62
765.826	7.62
766.574	11.62
767.322	8.62
768.07	10.62
768.817	10.62
769.565	7.62
770.312	9.62
771.06	8.62
771.807	7.62
772.554	8.62
773.302	10.62
774.049	10.62
774.796	11.62
775.543	8.62
776.29	7.62
777.036	8.62
777.783	11.62
778.53	8.62
779.276	12.62
780.023	10.62
780.769	9.62
781.516	10.62
782.262	11.62
783.008	12.62
783.754	9.62
784.5	10.62
785.246	10.62
785.992	9.62
786.738	10.62
787.484	9.62
788.23	11.62
788.975	9.62
789.721	7.62
790.466	11.62
791.212	9.62
791.957	10.62
792.702	11.62
793.447	11.62
794.193	9.62
794.938	9.62
795.683	10.62
796.427	11.62
797.172	10.62
797.917	9.62
798.662	5.62
799.406	11.62
800.151	6.62
800.895	10.62
801.64	8.62
802.384	8.62
803.128	6.62
803.872	7.62
804.616	9.62
805.36	6.62
806.104	9.62
806.848	7.62
807.592	8.62
808.336	8.62
809.079	6.62
809.823	6.62
810.566	8.62
811.31	9.62
812.053	7.62
812.796	6.62
813.539	5.62
814.283	8.62
815.026	4.62
815.769	8.62
816.511	5.62
817.254	6.62
817.997	5.62
818.74	5.62
819.482	4.62
820.225	5.62
820.967	5.62
821.71	7.62
822.452	5.62
823.194	7.62
823.936	6.62
824.678	5.62
825.42	4.62
826.162	5.62
826.904	3.62
827.646	7.62
828.388	4.62
829.129	6.62
829.871	5.62
830.612	5.62
831.354	4.62
832.095	4.62
832.836	7.62
833.577	5.62
834.319	5.62
835.06	3.62
835.801	4.62
836.542	5.62
837.282	2.62
838.023	2.62
838.764	4.62
839.504	3.62
840.245	2.62
840.985	3.62
841.726	4.62
842.466	3.62
843.206	3.62
843.946	4.62
844.687	5.62
845.427	2.62
846.166	2.62
846.906	4.62
847.646	2.62
848.386	3.62
849.125	2.62
849.865	4.62
850.605	2.62
851.344	3.62
852.083	1.62
852.823	2.62
853.562	1.62
854.301	4.62
855.04	1.62
855.779	2.62
856.518	1.62
857.257	2.62
857.995	2.62
858.734	2.62
859.473	3.62
860.211	3.62
860.95	1.62
861.688	3.62
862.426	4.62
863.165	2.62
863.903	3.62
864.641	0.62
865.379	1.62
866.117	2.62
866.855	2.62
867.593	1.62
868.33	6.62
869.068	1.62
869.806	0.62
870.543	2.62
871.28	1.62
872.018	1.62
872.755	0.62
873.492	2.62
874.229	2.62
874.967	2.62
875.703	-0.38
876.44	0.62
877.177	2.62
877.914	1.62
878.651	2.62
879.387	1.62
880.124	2.62
880.86	1.62
881.597	0.62
882.333	1.62
883.069	1.62
883.806	-0.38
884.542	1.62
885.278	-1.38
886.014	3.62
886.749	-1.38
887.485	1.62
888.221	1.62
888.957	0.62
889.692	2.62
890.428	2.62
891.163	1.62
891.899	0.62
892.634	0.62
893.369	0.62
894.104	5.62
894.839	1.62
895.574	0.62
896.309	1.62
897.044	0.62
897.779	0.62
898.514	0.62
899.248	0.62
899.983	2.62
900.717	-2.38
901.452	1.62
902.186	2.62
902.92	-0.38
903.654	2.62
904.389	-0.38
905.123	1.62
905.857	0.62
906.59	1.62
907.324	0.62
908.058	-1.38
908.792	0.62
909.525	0.62
910.259	2.62
910.992	0.62
911.726	1.62
912.459	2.62
913.192	-0.38
913.925	-0.38
914.658	1.62
915.391	0.62
916.124	1.62
916.857	1.62
917.59	-1.38
918.323	-0.38
919.055	-0.38
919.788	1.62
920.521	-1.38
921.253	0.62
921.985	0.62
922.718	2.62
923.45	0.62
924.182	0.62
924.914	2.62
925.646	-0.38
926.378	-1.38
927.11	-0.38
927.841	1.62
928.573	-0.38
929.305	-1.38
930.036	0.62
930.768	-0.38
931.499	2.62
932.23	0.62
932.962	0.62
933.693	1.62
934.424	-1.38
935.155	0.62
935.886	0.62
936.617	1.62
937.348	1.62
938.078	-2.38
938.809	2.62
939.54	0.62
940.27	0.62
941.001	0.62
941.731	0.62
942.461	0.62
943.191	-0.38
943.922	0.62
944.652	0.62
945.382	-1.38
946.112	-1.38
946.841	-1.38
947.571	0.62
948.301	-0.38
949.031	-0.38
949.76	1.62
950.49	0.62
951.219	0.62
951.948	-0.38
952.678	0.62
953.407	0.62
954.136	-0.38
954.865	1.62
955.594	4.62
956.323	0.62
957.052	-1.38
957.78	0.62
958.509	1.62
959.238	-2.38
959.966	1.62
960.695	-0.38
961.423	-0.38
962.151	0.62
962.88	0.62
963.608	0.62
964.336	-1.38
965.064	4.62
965.792	0.62
966.52	-2.38
967.247	-0.38
967.975	0.62
968.703	-0.38
969.43	-0.38
970.158	1.62
970.885	1.62
971.613	0.62
972.34	-0.38
973.067	0.62
973.794	2.62
974.521	-0.38
975.248	-0.38
975.975	0.62
976.702	0.62
977.429	0.62
978.156	-0.38
978.882	-0.38
979.609	-0.38
980.335	1.62
981.062	-1.38
981.788	-1.38
982.514	0.62
983.24	0.62
983.967	2.62
984.693	-0.38
985.419	0.62
986.144	0.62
986.87	0.62
987.596	0.62
988.322	2.62
989.047	1.62
989.773	-1.38
990.498	-0.38
991.224	2.62
991.949	0.62
992.674	1.62
993.399	1.62
994.124	0.62
994.849	0.62
995.574	0.62
996.299	2.62
997.024	0.62
997.749	1.62
998.473	-0.38
999.198	0.62
999.922	-0.38
1000.647	2.62
1001.371	4.62
1002.095	-1.38
1002.82	-1.38
1003.544	-0.38
1004.268	1.62
1004.992	2.62
1005.716	2.62
1006.439	4.62
1007.163	0.62
1007.887	2.62
1008.611	0.62
1009.334	0.62
1010.058	0.62
1010.781	1.62
1011.504	0.62
1012.228	1.62
1012.951	-0.38
1013.674	-0.38
1014.397	0.62
1015.12	-1.38
