节点500_425_QEPB04081__421__15-55-18-672.txt的数据

Date: Wed Nov 12 15:55:18 CST 2025
User: PC
Spectrometer: QEPB0408
触发模式: 0
积分时间 (秒): 1.000000E-2
Scans to average: 1
启用暗噪声校正: true
启用非线性校正: false
滑动平均宽度: 0
X轴模式: Wavelengths
Number of Pixels in Spectrum: 1044
>>>>>Begin Spectral Data<<<<<
220.843	2.12
221.644	1.12
222.444	2.12
223.244	2.12
224.045	4.12
224.845	3.12
225.645	7.12
226.445	3.12
227.245	4.12
228.045	4.12
228.845	2.12
229.645	3.12
230.444	4.12
231.244	4.12
232.043	4.12
232.843	4.12
233.642	8.12
234.442	5.12
235.241	6.12
236.04	3.12
236.839	6.12
237.638	9.12
238.437	7.12
239.236	7.12
240.035	7.12
240.833	8.12
241.632	7.12
242.43	7.12
243.229	8.12
244.027	8.12
244.826	7.12
245.624	7.12
246.422	9.12
247.22	9.12
248.018	10.12
248.816	8.12
249.614	8.12
250.412	9.12
251.21	9.12
252.007	8.12
252.805	9.12
253.602	10.12
254.4	10.12
255.197	11.12
255.994	9.12
256.791	14.12
257.589	10.12
258.386	12.12
259.183	10.12
259.979	12.12
260.776	14.12
261.573	14.12
262.37	14.12
263.166	12.12
263.963	15.12
264.759	16.12
265.556	19.12
266.352	19.12
267.148	17.12
267.944	16.12
268.74	17.12
269.536	20.12
270.332	16.12
271.128	17.12
271.924	23.12
272.719	22.12
273.515	21.12
274.311	22.12
275.106	22.12
275.901	23.12
276.697	21.12
277.492	24.12
278.287	23.12
279.082	21.12
279.877	27.12
280.672	24.12
281.467	24.12
282.262	24.12
283.056	24.12
283.851	24.12
284.646	24.12
285.44	22.12
286.234	22.12
287.029	27.12
287.823	23.12
288.617	21.12
289.411	23.12
290.205	25.12
290.999	23.12
291.793	22.12
292.587	22.12
293.381	22.12
294.174	23.12
294.968	20.12
295.761	18.12
296.555	21.12
297.348	18.12
298.141	19.12
298.935	24.12
299.728	14.12
300.521	21.12
301.314	17.12
302.107	17.12
302.899	16.12
303.692	18.12
304.485	14.12
305.277	15.12
306.07	16.12
306.862	14.12
307.655	14.12
308.447	16.12
309.239	13.12
310.031	15.12
310.823	14.12
311.615	14.12
312.407	15.12
313.199	15.12
313.991	12.12
314.783	14.12
315.574	10.12
316.366	12.12
317.157	11.12
317.949	11.12
318.74	9.12
319.531	9.12
320.322	10.12
321.113	9.12
321.904	8.12
322.695	8.12
323.486	7.12
324.277	8.12
325.068	9.12
325.858	8.12
326.649	9.12
327.439	10.12
328.23	8.12
329.02	11.12
329.81	9.12
330.6	9.12
331.391	8.12
332.181	10.12
332.971	11.12
333.76	8.12
334.55	10.12
335.34	9.12
336.13	8.12
336.919	9.12
337.709	6.12
338.498	8.12
339.287	8.12
340.077	8.12
340.866	8.12
341.655	10.12
342.444	7.12
343.233	7.12
344.022	10.12
344.811	7.12
345.6	7.12
346.388	9.12
347.177	9.12
347.965	5.12
348.754	8.12
349.542	9.12
350.33	9.12
351.119	8.12
351.907	7.12
352.695	6.12
353.483	6.12
354.271	6.12
355.059	8.12
355.846	7.12
356.634	7.12
357.422	6.12
358.209	7.12
358.997	7.12
359.784	7.12
360.571	7.12
361.359	7.12
362.146	5.12
362.933	8.12
363.72	8.12
364.507	4.12
365.294	7.12
366.081	5.12
366.867	7.12
367.654	7.12
368.44	6.12
369.227	7.12
370.013	7.12
370.8	4.12
371.586	5.12
372.372	9.12
373.158	7.12
373.944	5.12
374.73	5.12
375.516	5.12
376.302	8.12
377.088	4.12
377.873	6.12
378.659	4.12
379.445	8.12
380.23	6.12
381.015	5.12
381.801	8.12
382.586	6.12
383.371	6.12
384.156	5.12
384.941	6.12
385.726	7.12
386.511	8.12
387.296	6.12
388.08	6.12
388.865	7.12
389.649	5.12
390.434	8.12
391.218	6.12
392.003	8.12
392.787	9.12
393.571	8.12
394.355	6.12
395.139	10.12
395.923	8.12
396.707	7.12
397.491	9.12
398.274	8.12
399.058	10.12
399.842	7.12
400.625	8.12
401.408	10.12
402.192	8.12
402.975	8.12
403.758	11.12
404.541	10.12
405.324	10.12
406.107	8.12
406.89	8.12
407.673	8.12
408.456	12.12
409.238	10.12
410.021	10.12
410.803	10.12
411.586	12.12
412.368	11.12
413.151	11.12
413.933	12.12
414.715	12.12
415.497	11.12
416.279	8.12
417.061	12.12
417.843	10.12
418.624	11.12
419.406	15.12
420.188	13.12
420.969	15.12
421.751	14.12
422.532	15.12
423.313	14.12
424.095	15.12
424.876	18.12
425.657	15.12
426.438	15.12
427.219	17.12
428	14.12
428.78	18.12
429.561	17.12
430.342	18.12
431.122	20.12
431.903	19.12
432.683	22.12
433.464	24.12
434.244	24.12
435.024	24.12
435.804	23.12
436.584	25.12
437.364	28.12
438.144	30.12
438.924	31.12
439.704	32.12
440.483	32.12
441.263	34.12
442.042	41.12
442.822	44.12
443.601	44.12
444.38	51.12
445.16	47.12
445.939	52.12
446.718	59.12
447.497	61.12
448.276	66.12
449.054	74.12
449.833	82.12
450.612	85.12
451.391	99.12
452.169	104.12
452.948	114.12
453.726	129.12
454.504	142.12
455.282	151.12
456.061	176.12
456.839	192.12
457.617	216.12
458.395	236.12
459.172	274.12
459.95	291.12
460.728	331.12
461.506	366.12
462.283	413.12
463.061	455.12
463.838	514.12
464.615	567.12
465.393	632.12
466.17	708.12
466.947	788.12
467.724	873.12
468.501	965.12
469.278	1069.12
470.055	1182.12
470.831	1305.12
471.608	1457.12
472.385	1609.12
473.161	1783.12
473.938	1953.12
474.714	2160.12
475.49	2368.12
476.266	2613.12
477.043	2857.12
477.819	3142.12
478.595	3458.12
479.371	3780.12
480.146	4126.12
480.922	4521.12
481.698	4961.12
482.473	5412.12
483.249	5896.12
484.024	6492.12
484.8	7082.12
485.575	7678.12
486.35	8352.12
487.126	9093.12
487.901	9847.12
488.676	10763.12
489.451	11633.12
490.225	12610.12
491	13660.12
491.775	14758.12
492.55	15940.12
493.324	17118.12
494.099	18364.12
494.873	19601.12
495.647	20980.12
496.422	22182.12
497.196	23588.12
497.97	25011.12
498.744	26391.12
499.518	27709.12
500.292	28883.12
501.066	29924.12
501.839	31053.12
502.613	32063.12
503.387	32846.12
504.16	33450.12
504.934	33769.12
505.707	33986.12
506.48	33898.12
507.253	33858.12
508.027	33550.12
508.8	33151.12
509.573	32615.12
510.346	31872.12
511.118	30988.12
511.891	30147.12
512.664	29117.12
513.437	28128.12
514.209	27045.12
514.982	26100.12
515.754	25019.12
516.526	24058.12
517.298	23050.12
518.071	22039.12
518.843	21207.12
519.615	20338.12
520.387	19532.12
521.159	18791.12
521.93	18065.12
522.702	17368.12
523.474	16649.12
524.245	15974.12
525.017	15298.12
525.788	14613.12
526.56	13948.12
527.331	13334.12
528.102	12726.12
528.873	12158.12
529.644	11561.12
530.415	11040.12
531.186	10500.12
531.957	10033.12
532.728	9446.12
533.498	8970.12
534.269	8469.12
535.039	8040.12
535.81	7623.12
536.58	7186.12
537.351	6757.12
538.121	6426.12
538.891	6060.12
539.661	5761.12
540.431	5435.12
541.201	5135.12
541.971	4909.12
542.741	4617.12
543.51	4407.12
544.28	4179.12
545.05	3976.12
545.819	3798.12
546.588	3594.12
547.358	3425.12
548.127	3219.12
548.896	3077.12
549.665	2914.12
550.434	2773.12
551.203	2637.12
551.972	2501.12
552.741	2377.12
553.51	2252.12
554.278	2104.12
555.047	1982.12
555.815	1898.12
556.584	1784.12
557.352	1670.12
558.121	1583.12
558.889	1497.12
559.657	1417.12
560.425	1327.12
561.193	1266.12
561.961	1201.12
562.729	1127.12
563.496	1067.12
564.264	1009.12
565.032	951.12
565.799	899.12
566.567	854.12
567.334	800.12
568.101	773.12
568.869	722.12
569.636	674.12
570.403	644.12
571.17	597.12
571.937	573.12
572.704	534.12
573.471	511.12
574.237	481.12
575.004	455.12
575.771	419.12
576.537	406.12
577.303	372.12
578.07	361.12
578.836	339.12
579.602	325.12
580.368	299.12
581.134	295.12
581.9	270.12
582.666	263.12
583.432	241.12
584.198	235.12
584.964	217.12
585.729	210.12
586.495	198.12
587.26	188.12
588.025	175.12
588.791	165.12
589.556	162.12
590.321	150.12
591.086	144.12
591.851	135.12
592.616	134.12
593.381	123.12
594.146	115.12
594.911	114.12
595.675	103.12
596.44	102.12
597.204	95.12
597.969	93.12
598.733	87.12
599.497	81.12
600.261	85.12
601.025	76.12
601.79	68.12
602.553	72.12
603.317	72.12
604.081	65.12
604.845	61.12
605.609	60.12
606.372	54.12
607.136	56.12
607.899	50.12
608.662	54.12
609.426	46.12
610.189	45.12
610.952	45.12
611.715	45.12
612.478	41.12
613.241	38.12
614.004	38.12
614.767	37.12
615.529	35.12
616.292	36.12
617.055	33.12
617.817	31.12
618.579	32.12
619.342	28.12
620.104	31.12
620.866	29.12
621.628	31.12
622.39	26.12
623.152	24.12
623.914	27.12
624.676	25.12
625.438	22.12
626.199	21.12
626.961	23.12
627.722	20.12
628.484	18.12
629.245	20.12
630.006	18.12
630.768	19.12
631.529	17.12
632.29	18.12
633.051	16.12
633.812	14.12
634.573	16.12
635.333	13.12
636.094	18.12
636.855	16.12
637.615	13.12
638.376	13.12
639.136	15.12
639.896	13.12
640.657	13.12
641.417	13.12
642.177	10.12
642.937	11.12
643.697	13.12
644.457	10.12
645.216	10.12
645.976	12.12
646.736	13.12
647.495	10.12
648.255	10.12
649.014	11.12
649.774	9.12
650.533	8.12
651.292	9.12
652.051	6.12
652.81	9.12
653.569	10.12
654.328	12.12
655.087	10.12
655.846	8.12
656.604	9.12
657.363	8.12
658.121	9.12
658.88	6.12
659.638	9.12
660.397	9.12
661.155	9.12
661.913	5.12
662.671	7.12
663.429	9.12
664.187	7.12
664.945	5.12
665.703	7.12
666.46	7.12
667.218	6.12
667.976	5.12
668.733	8.12
669.49	5.12
670.248	6.12
671.005	8.12
671.762	5.12
672.519	7.12
673.276	5.12
674.033	6.12
674.79	7.12
675.547	6.12
676.304	6.12
677.06	4.12
677.817	5.12
678.574	6.12
679.33	6.12
680.086	5.12
680.843	5.12
681.599	5.12
682.355	6.12
683.111	7.12
683.867	6.12
684.623	3.12
685.379	6.12
686.135	4.12
686.89	6.12
687.646	5.12
688.402	6.12
689.157	7.12
689.912	6.12
690.668	6.12
691.423	4.12
692.178	3.12
692.933	4.12
693.688	6.12
694.443	5.12
695.198	5.12
695.953	7.12
696.708	4.12
697.462	4.12
698.217	3.12
698.972	2.12
699.726	6.12
700.48	2.12
701.235	3.12
701.989	4.12
702.743	3.12
703.497	6.12
704.251	5.12
705.005	5.12
705.759	4.12
706.513	3.12
707.266	6.12
708.02	2.12
708.774	4.12
709.527	4.12
710.28	5.12
711.034	2.12
711.787	5.12
712.54	4.12
713.293	6.12
714.046	8.12
714.799	5.12
715.552	6.12
716.305	6.12
717.058	4.12
717.81	5.12
718.563	4.12
719.315	4.12
720.068	4.12
720.82	5.12
721.573	5.12
722.325	6.12
723.077	6.12
723.829	6.12
724.581	4.12
725.333	6.12
726.085	3.12
726.836	5.12
727.588	2.12
728.34	5.12
729.091	4.12
729.843	5.12
730.594	6.12
731.346	6.12
732.097	4.12
732.848	4.12
733.599	6.12
734.35	6.12
735.101	1.12
735.852	7.12
736.603	5.12
737.354	6.12
738.104	6.12
738.855	9.12
739.605	6.12
740.356	6.12
741.106	9.12
741.856	6.12
742.607	6.12
743.357	9.12
744.107	7.12
744.857	9.12
745.607	5.12
746.357	3.12
747.106	5.12
747.856	11.12
748.606	4.12
749.355	7.12
750.105	6.12
750.854	8.12
751.603	7.12
752.353	5.12
753.102	8.12
753.851	8.12
754.6	6.12
755.349	6.12
756.098	6.12
756.847	9.12
757.595	6.12
758.344	7.12
759.093	7.12
759.841	6.12
760.589	8.12
761.338	9.12
762.086	7.12
762.834	10.12
763.582	8.12
764.331	8.12
765.079	10.12
765.826	8.12
766.574	9.12
767.322	7.12
768.07	8.12
768.817	7.12
769.565	9.12
770.312	14.12
771.06	10.12
771.807	11.12
772.554	9.12
773.302	11.12
774.049	9.12
774.796	9.12
775.543	9.12
776.29	11.12
777.036	11.12
777.783	11.12
778.53	11.12
779.276	10.12
780.023	10.12
780.769	9.12
781.516	10.12
782.262	11.12
783.008	9.12
783.754	9.12
784.5	12.12
785.246	13.12
785.992	11.12
786.738	9.12
787.484	11.12
788.23	10.12
788.975	13.12
789.721	10.12
790.466	11.12
791.212	12.12
791.957	10.12
792.702	11.12
793.447	11.12
794.193	8.12
794.938	9.12
795.683	11.12
796.427	11.12
797.172	10.12
797.917	7.12
798.662	10.12
799.406	8.12
800.151	9.12
800.895	11.12
801.64	10.12
802.384	9.12
803.128	6.12
803.872	10.12
804.616	9.12
805.36	8.12
806.104	9.12
806.848	7.12
807.592	8.12
808.336	8.12
809.079	9.12
809.823	5.12
810.566	8.12
811.31	7.12
812.053	6.12
812.796	7.12
813.539	5.12
814.283	7.12
815.026	7.12
815.769	4.12
816.511	4.12
817.254	6.12
817.997	4.12
818.74	9.12
819.482	3.12
820.225	6.12
820.967	5.12
821.71	6.12
822.452	5.12
823.194	4.12
823.936	8.12
824.678	5.12
825.42	8.12
826.162	5.12
826.904	5.12
827.646	4.12
828.388	6.12
829.129	6.12
829.871	4.12
830.612	5.12
831.354	5.12
832.095	3.12
832.836	5.12
833.577	4.12
834.319	3.12
835.06	3.12
835.801	6.12
836.542	3.12
837.282	4.12
838.023	1.12
838.764	4.12
839.504	5.12
840.245	4.12
840.985	2.12
841.726	3.12
842.466	1.12
843.206	3.12
843.946	4.12
844.687	2.12
845.427	4.12
846.166	3.12
846.906	3.12
847.646	4.12
848.386	5.12
849.125	5.12
849.865	4.12
850.605	5.12
851.344	3.12
852.083	3.12
852.823	0.12
853.562	5.12
854.301	-0.88
855.04	2.12
855.779	3.12
856.518	2.12
857.257	2.12
857.995	1.12
858.734	2.12
859.473	3.12
860.211	1.12
860.95	4.12
861.688	0.12
862.426	2.12
863.165	2.12
863.903	3.12
864.641	2.12
865.379	4.12
866.117	2.12
866.855	2.12
867.593	1.12
868.33	1.12
869.068	2.12
869.806	2.12
870.543	0.12
871.28	1.12
872.018	0.12
872.755	5.12
873.492	2.12
874.229	1.12
874.967	3.12
875.703	0.12
876.44	0.12
877.177	3.12
877.914	1.12
878.651	-0.88
879.387	2.12
880.124	2.12
880.86	1.12
881.597	1.12
882.333	2.12
883.069	0.12
883.806	2.12
884.542	1.12
885.278	0.12
886.014	2.12
886.749	2.12
887.485	1.12
888.221	1.12
888.957	1.12
889.692	2.12
890.428	-0.88
891.163	1.12
891.899	1.12
892.634	2.12
893.369	1.12
894.104	0.12
894.839	0.12
895.574	3.12
896.309	1.12
897.044	0.12
897.779	0.12
898.514	0.12
899.248	2.12
899.983	-0.88
900.717	-1.88
901.452	2.12
902.186	2.12
902.92	0.12
903.654	2.12
904.389	0.12
905.123	1.12
905.857	-0.88
906.59	0.12
907.324	0.12
908.058	3.12
908.792	3.12
909.525	0.12
910.259	2.12
910.992	-2.88
911.726	0.12
912.459	0.12
913.192	0.12
913.925	1.12
914.658	0.12
915.391	1.12
916.124	0.12
916.857	1.12
917.59	0.12
918.323	0.12
919.055	3.12
919.788	1.12
920.521	1.12
921.253	1.12
921.985	1.12
922.718	-3.88
923.45	0.12
924.182	1.12
924.914	0.12
925.646	1.12
926.378	-0.88
927.11	2.12
927.841	-0.88
928.573	1.12
929.305	-0.88
930.036	2.12
930.768	1.12
931.499	-0.88
932.23	-0.88
932.962	0.12
933.693	-0.88
934.424	1.12
935.155	-0.88
935.886	-1.88
936.617	0.12
937.348	1.12
938.078	0.12
938.809	-1.88
939.54	2.12
940.27	1.12
941.001	-0.88
941.731	0.12
942.461	0.12
943.191	1.12
943.922	-1.88
944.652	0.12
945.382	0.12
946.112	-0.88
946.841	-1.88
947.571	-0.88
948.301	0.12
949.031	-0.88
949.76	-0.88
950.49	3.12
951.219	-1.88
951.948	0.12
952.678	-1.88
953.407	1.12
954.136	0.12
954.865	0.12
955.594	0.12
956.323	-0.88
957.052	1.12
957.78	1.12
958.509	0.12
959.238	0.12
959.966	-1.88
960.695	1.12
961.423	-0.88
962.151	-0.88
962.88	2.12
963.608	0.12
964.336	2.12
965.064	-0.88
965.792	1.12
966.52	0.12
967.247	0.12
967.975	0.12
968.703	-0.88
969.43	-0.88
970.158	2.12
970.885	0.12
971.613	1.12
972.34	0.12
973.067	-0.88
973.794	2.12
974.521	2.12
975.248	1.12
975.975	0.12
976.702	-0.88
977.429	-1.88
978.156	0.12
978.882	0.12
979.609	-0.88
980.335	0.12
981.062	0.12
981.788	2.12
982.514	0.12
983.24	1.12
983.967	0.12
984.693	0.12
985.419	1.12
986.144	-0.88
986.87	2.12
987.596	-0.88
988.322	1.12
989.047	0.12
989.773	-0.88
990.498	-1.88
991.224	-1.88
991.949	2.12
992.674	0.12
993.399	1.12
994.124	0.12
994.849	1.12
995.574	2.12
996.299	-0.88
997.024	0.12
997.749	0.12
998.473	0.12
999.198	0.12
999.922	0.12
1000.647	1.12
1001.371	3.12
1002.095	-1.88
1002.82	-0.88
1003.544	-0.88
1004.268	2.12
1004.992	2.12
1005.716	2.12
1006.439	1.12
1007.163	2.12
1007.887	2.12
1008.611	0.12
1009.334	0.12
1010.058	1.12
1010.781	-0.88
1011.504	1.12
1012.228	-0.88
1012.951	0.12
1013.674	0.12
1014.397	-0.88
1015.12	1.12
