节点500_425_QEPB04081__509__15-56-46-586.txt的数据

Date: Wed Nov 12 15:56:46 CST 2025
User: PC
Spectrometer: QEPB0408
触发模式: 0
积分时间 (秒): 1.000000E-2
Scans to average: 1
启用暗噪声校正: true
启用非线性校正: false
滑动平均宽度: 0
X轴模式: Wavelengths
Number of Pixels in Spectrum: 1044
>>>>>Begin Spectral Data<<<<<
220.843	3.25
221.644	3.25
222.444	5.25
223.244	2.25
224.045	4.25
224.845	4.25
225.645	3.25
226.445	3.25
227.245	6.25
228.045	2.25
228.845	2.25
229.645	5.25
230.444	3.25
231.244	6.25
232.043	3.25
232.843	5.25
233.642	6.25
234.442	6.25
235.241	4.25
236.04	6.25
236.839	8.25
237.638	8.25
238.437	5.25
239.236	5.25
240.035	4.25
240.833	5.25
241.632	9.25
242.43	6.25
243.229	6.25
244.027	11.25
244.826	10.25
245.624	6.25
246.422	9.25
247.22	6.25
248.018	9.25
248.816	9.25
249.614	8.25
250.412	8.25
251.21	9.25
252.007	11.25
252.805	11.25
253.602	9.25
254.4	11.25
255.197	8.25
255.994	12.25
256.791	9.25
257.589	12.25
258.386	12.25
259.183	11.25
259.979	15.25
260.776	14.25
261.573	12.25
262.37	13.25
263.166	12.25
263.963	14.25
264.759	13.25
265.556	15.25
266.352	16.25
267.148	15.25
267.944	14.25
268.74	18.25
269.536	17.25
270.332	19.25
271.128	18.25
271.924	20.25
272.719	20.25
273.515	22.25
274.311	22.25
275.106	21.25
275.901	18.25
276.697	20.25
277.492	23.25
278.287	19.25
279.082	22.25
279.877	22.25
280.672	20.25
281.467	23.25
282.262	22.25
283.056	24.25
283.851	24.25
284.646	23.25
285.44	20.25
286.234	23.25
287.029	25.25
287.823	19.25
288.617	20.25
289.411	24.25
290.205	24.25
290.999	20.25
291.793	22.25
292.587	23.25
293.381	20.25
294.174	24.25
294.968	19.25
295.761	18.25
296.555	23.25
297.348	19.25
298.141	20.25
298.935	19.25
299.728	19.25
300.521	21.25
301.314	16.25
302.107	18.25
302.899	17.25
303.692	16.25
304.485	15.25
305.277	16.25
306.07	18.25
306.862	14.25
307.655	16.25
308.447	14.25
309.239	15.25
310.031	12.25
310.823	13.25
311.615	15.25
312.407	12.25
313.199	13.25
313.991	14.25
314.783	11.25
315.574	12.25
316.366	14.25
317.157	10.25
317.949	11.25
318.74	11.25
319.531	11.25
320.322	10.25
321.113	11.25
321.904	9.25
322.695	7.25
323.486	7.25
324.277	8.25
325.068	10.25
325.858	8.25
326.649	11.25
327.439	9.25
328.23	7.25
329.02	8.25
329.81	9.25
330.6	10.25
331.391	8.25
332.181	8.25
332.971	10.25
333.76	9.25
334.55	8.25
335.34	8.25
336.13	11.25
336.919	8.25
337.709	7.25
338.498	9.25
339.287	8.25
340.077	10.25
340.866	8.25
341.655	12.25
342.444	10.25
343.233	7.25
344.022	7.25
344.811	7.25
345.6	11.25
346.388	6.25
347.177	7.25
347.965	6.25
348.754	9.25
349.542	9.25
350.33	7.25
351.119	8.25
351.907	8.25
352.695	8.25
353.483	6.25
354.271	8.25
355.059	7.25
355.846	6.25
356.634	8.25
357.422	6.25
358.209	7.25
358.997	8.25
359.784	7.25
360.571	8.25
361.359	7.25
362.146	7.25
362.933	8.25
363.72	6.25
364.507	7.25
365.294	7.25
366.081	6.25
366.867	6.25
367.654	7.25
368.44	7.25
369.227	8.25
370.013	8.25
370.8	5.25
371.586	8.25
372.372	6.25
373.158	6.25
373.944	6.25
374.73	5.25
375.516	6.25
376.302	8.25
377.088	5.25
377.873	7.25
378.659	7.25
379.445	5.25
380.23	5.25
381.015	5.25
381.801	7.25
382.586	7.25
383.371	8.25
384.156	9.25
384.941	8.25
385.726	6.25
386.511	7.25
387.296	6.25
388.08	7.25
388.865	8.25
389.649	7.25
390.434	6.25
391.218	7.25
392.003	7.25
392.787	9.25
393.571	7.25
394.355	8.25
395.139	9.25
395.923	8.25
396.707	10.25
397.491	8.25
398.274	9.25
399.058	10.25
399.842	10.25
400.625	11.25
401.408	9.25
402.192	12.25
402.975	7.25
403.758	8.25
404.541	10.25
405.324	10.25
406.107	12.25
406.89	9.25
407.673	10.25
408.456	8.25
409.238	13.25
410.021	10.25
410.803	10.25
411.586	11.25
412.368	9.25
413.151	11.25
413.933	10.25
414.715	12.25
415.497	11.25
416.279	10.25
417.061	14.25
417.843	12.25
418.624	12.25
419.406	11.25
420.188	15.25
420.969	14.25
421.751	13.25
422.532	15.25
423.313	12.25
424.095	15.25
424.876	15.25
425.657	13.25
426.438	18.25
427.219	16.25
428	19.25
428.78	16.25
429.561	18.25
430.342	20.25
431.122	22.25
431.903	21.25
432.683	20.25
433.464	21.25
434.244	25.25
435.024	22.25
435.804	29.25
436.584	26.25
437.364	26.25
438.144	30.25
438.924	31.25
439.704	34.25
440.483	34.25
441.263	37.25
442.042	39.25
442.822	43.25
443.601	45.25
444.38	48.25
445.16	52.25
445.939	53.25
446.718	62.25
447.497	66.25
448.276	74.25
449.054	78.25
449.833	84.25
450.612	89.25
451.391	98.25
452.169	105.25
452.948	119.25
453.726	128.25
454.504	149.25
455.282	158.25
456.061	178.25
456.839	205.25
457.617	222.25
458.395	250.25
459.172	276.25
459.95	309.25
460.728	338.25
461.506	386.25
462.283	427.25
463.061	471.25
463.838	528.25
464.615	590.25
465.393	646.25
466.17	714.25
466.947	799.25
467.724	891.25
468.501	997.25
469.278	1085.25
470.055	1197.25
470.831	1337.25
471.608	1462.25
472.385	1636.25
473.161	1789.25
473.938	1961.25
474.714	2171.25
475.49	2378.25
476.266	2609.25
477.043	2854.25
477.819	3151.25
478.595	3442.25
479.371	3746.25
480.146	4094.25
480.922	4462.25
481.698	4904.25
482.473	5316.25
483.249	5783.25
484.024	6295.25
484.8	6883.25
485.575	7461.25
486.35	8091.25
487.126	8783.25
487.901	9574.25
488.676	10362.25
489.451	11213.25
490.225	12163.25
491	13104.25
491.775	14172.25
492.55	15290.25
493.324	16427.25
494.099	17574.25
494.873	18660.25
495.647	19921.25
496.422	21121.25
497.196	22497.25
497.97	23906.25
498.744	25178.25
499.518	26464.25
500.292	27660.25
501.066	28707.25
501.839	29847.25
502.613	30795.25
503.387	31621.25
504.16	32244.25
504.934	32722.25
505.707	32999.25
506.48	33108.25
507.253	33018.25
508.027	32932.25
508.8	32602.25
509.573	32146.25
510.346	31524.25
511.118	30738.25
511.891	30042.25
512.664	29051.25
513.437	28111.25
514.209	27038.25
514.982	26231.25
515.754	25207.25
516.526	24135.25
517.298	23222.25
518.071	22265.25
518.843	21321.25
519.615	20488.25
520.387	19717.25
521.159	18922.25
521.93	18221.25
522.702	17513.25
523.474	16796.25
524.245	16157.25
525.017	15434.25
525.788	14778.25
526.56	14130.25
527.331	13539.25
528.102	12951.25
528.873	12289.25
529.644	11753.25
530.415	11274.25
531.186	10744.25
531.957	10174.25
532.728	9635.25
533.498	9148.25
534.269	8654.25
535.039	8218.25
535.81	7775.25
536.58	7349.25
537.351	6916.25
538.121	6563.25
538.891	6226.25
539.661	5890.25
540.431	5608.25
541.201	5269.25
541.971	5034.25
542.741	4743.25
543.51	4507.25
544.28	4253.25
545.05	4082.25
545.819	3874.25
546.588	3703.25
547.358	3505.25
548.127	3339.25
548.896	3162.25
549.665	3032.25
550.434	2888.25
551.203	2709.25
551.972	2571.25
552.741	2387.25
553.51	2296.25
554.278	2171.25
555.047	2037.25
555.815	1926.25
556.584	1833.25
557.352	1728.25
558.121	1639.25
558.889	1550.25
559.657	1468.25
560.425	1390.25
561.193	1290.25
561.961	1233.25
562.729	1173.25
563.496	1091.25
564.264	1033.25
565.032	984.25
565.799	936.25
566.567	888.25
567.334	839.25
568.101	784.25
568.869	747.25
569.636	693.25
570.403	652.25
571.17	615.25
571.937	589.25
572.704	552.25
573.471	525.25
574.237	493.25
575.004	479.25
575.771	439.25
576.537	414.25
577.303	397.25
578.07	366.25
578.836	351.25
579.602	329.25
580.368	314.25
581.134	296.25
581.9	280.25
582.666	265.25
583.432	255.25
584.198	234.25
584.964	230.25
585.729	216.25
586.495	207.25
587.26	188.25
588.025	183.25
588.791	180.25
589.556	162.25
590.321	157.25
591.086	148.25
591.851	139.25
592.616	132.25
593.381	129.25
594.146	124.25
594.911	115.25
595.675	115.25
596.44	107.25
597.204	100.25
597.969	94.25
598.733	92.25
599.497	90.25
600.261	86.25
601.025	81.25
601.79	74.25
602.553	72.25
603.317	72.25
604.081	67.25
604.845	65.25
605.609	59.25
606.372	58.25
607.136	55.25
607.899	51.25
608.662	54.25
609.426	49.25
610.189	53.25
610.952	48.25
611.715	46.25
612.478	43.25
613.241	37.25
614.004	41.25
614.767	41.25
615.529	39.25
616.292	35.25
617.055	33.25
617.817	32.25
618.579	37.25
619.342	32.25
620.104	31.25
620.866	33.25
621.628	31.25
622.39	25.25
623.152	28.25
623.914	22.25
624.676	24.25
625.438	26.25
626.199	21.25
626.961	24.25
627.722	21.25
628.484	19.25
629.245	22.25
630.006	15.25
630.768	21.25
631.529	18.25
632.29	21.25
633.051	18.25
633.812	16.25
634.573	17.25
635.333	15.25
636.094	17.25
636.855	17.25
637.615	14.25
638.376	14.25
639.136	11.25
639.896	14.25
640.657	15.25
641.417	14.25
642.177	14.25
642.937	13.25
643.697	12.25
644.457	11.25
645.216	10.25
645.976	10.25
646.736	10.25
647.495	12.25
648.255	8.25
649.014	10.25
649.774	11.25
650.533	8.25
651.292	7.25
652.051	9.25
652.81	8.25
653.569	6.25
654.328	8.25
655.087	8.25
655.846	10.25
656.604	9.25
657.363	7.25
658.121	6.25
658.88	8.25
659.638	8.25
660.397	8.25
661.155	9.25
661.913	9.25
662.671	5.25
663.429	6.25
664.187	7.25
664.945	7.25
665.703	7.25
666.46	7.25
667.218	6.25
667.976	7.25
668.733	7.25
669.49	6.25
670.248	8.25
671.005	6.25
671.762	5.25
672.519	9.25
673.276	7.25
674.033	7.25
674.79	8.25
675.547	7.25
676.304	6.25
677.06	6.25
677.817	9.25
678.574	7.25
679.33	6.25
680.086	6.25
680.843	5.25
681.599	7.25
682.355	5.25
683.111	7.25
683.867	6.25
684.623	6.25
685.379	4.25
686.135	5.25
686.89	6.25
687.646	4.25
688.402	6.25
689.157	5.25
689.912	6.25
690.668	5.25
691.423	6.25
692.178	7.25
692.933	5.25
693.688	6.25
694.443	6.25
695.198	5.25
695.953	4.25
696.708	5.25
697.462	7.25
698.217	6.25
698.972	5.25
699.726	7.25
700.48	4.25
701.235	5.25
701.989	4.25
702.743	2.25
703.497	4.25
704.251	3.25
705.005	6.25
705.759	4.25
706.513	6.25
707.266	3.25
708.02	3.25
708.774	3.25
709.527	5.25
710.28	7.25
711.034	4.25
711.787	4.25
712.54	5.25
713.293	5.25
714.046	4.25
714.799	5.25
715.552	6.25
716.305	6.25
717.058	5.25
717.81	4.25
718.563	5.25
719.315	6.25
720.068	5.25
720.82	7.25
721.573	6.25
722.325	4.25
723.077	3.25
723.829	4.25
724.581	3.25
725.333	5.25
726.085	5.25
726.836	7.25
727.588	7.25
728.34	4.25
729.091	5.25
729.843	5.25
730.594	6.25
731.346	5.25
732.097	4.25
732.848	8.25
733.599	4.25
734.35	6.25
735.101	4.25
735.852	8.25
736.603	5.25
737.354	5.25
738.104	6.25
738.855	10.25
739.605	5.25
740.356	6.25
741.106	4.25
741.856	6.25
742.607	9.25
743.357	6.25
744.107	6.25
744.857	5.25
745.607	4.25
746.357	5.25
747.106	5.25
747.856	5.25
748.606	7.25
749.355	5.25
750.105	7.25
750.854	5.25
751.603	7.25
752.353	7.25
753.102	6.25
753.851	8.25
754.6	5.25
755.349	6.25
756.098	6.25
756.847	7.25
757.595	8.25
758.344	8.25
759.093	8.25
759.841	8.25
760.589	9.25
761.338	10.25
762.086	7.25
762.834	6.25
763.582	6.25
764.331	7.25
765.079	9.25
765.826	8.25
766.574	9.25
767.322	9.25
768.07	9.25
768.817	7.25
769.565	9.25
770.312	8.25
771.06	9.25
771.807	10.25
772.554	9.25
773.302	9.25
774.049	9.25
774.796	13.25
775.543	10.25
776.29	11.25
777.036	8.25
777.783	10.25
778.53	10.25
779.276	10.25
780.023	8.25
780.769	11.25
781.516	10.25
782.262	14.25
783.008	9.25
783.754	10.25
784.5	14.25
785.246	11.25
785.992	11.25
786.738	11.25
787.484	12.25
788.23	12.25
788.975	10.25
789.721	12.25
790.466	9.25
791.212	13.25
791.957	10.25
792.702	9.25
793.447	10.25
794.193	10.25
794.938	12.25
795.683	8.25
796.427	10.25
797.172	6.25
797.917	9.25
798.662	10.25
799.406	8.25
800.151	9.25
800.895	10.25
801.64	10.25
802.384	8.25
803.128	8.25
803.872	7.25
804.616	9.25
805.36	11.25
806.104	8.25
806.848	7.25
807.592	8.25
808.336	7.25
809.079	7.25
809.823	8.25
810.566	6.25
811.31	6.25
812.053	8.25
812.796	6.25
813.539	8.25
814.283	5.25
815.026	5.25
815.769	6.25
816.511	5.25
817.254	5.25
817.997	6.25
818.74	7.25
819.482	8.25
820.225	5.25
820.967	5.25
821.71	5.25
822.452	5.25
823.194	6.25
823.936	6.25
824.678	4.25
825.42	3.25
826.162	2.25
826.904	4.25
827.646	5.25
828.388	5.25
829.129	5.25
829.871	4.25
830.612	5.25
831.354	5.25
832.095	6.25
832.836	5.25
833.577	4.25
834.319	4.25
835.06	4.25
835.801	7.25
836.542	4.25
837.282	5.25
838.023	5.25
838.764	3.25
839.504	5.25
840.245	1.25
840.985	3.25
841.726	3.25
842.466	4.25
843.206	5.25
843.946	2.25
844.687	4.25
845.427	0.25
846.166	4.25
846.906	2.25
847.646	4.25
848.386	5.25
849.125	2.25
849.865	6.25
850.605	5.25
851.344	3.25
852.083	4.25
852.823	2.25
853.562	3.25
854.301	2.25
855.04	1.25
855.779	0.25
856.518	2.25
857.257	5.25
857.995	3.25
858.734	0.25
859.473	2.25
860.211	2.25
860.95	3.25
861.688	4.25
862.426	4.25
863.165	2.25
863.903	4.25
864.641	3.25
865.379	2.25
866.117	1.25
866.855	3.25
867.593	3.25
868.33	3.25
869.068	2.25
869.806	4.25
870.543	3.25
871.28	2.25
872.018	2.25
872.755	3.25
873.492	2.25
874.229	-0.75
874.967	0.25
875.703	2.25
876.44	1.25
877.177	3.25
877.914	0.25
878.651	2.25
879.387	2.25
880.124	1.25
880.86	2.25
881.597	1.25
882.333	2.25
883.069	0.25
883.806	2.25
884.542	0.25
885.278	3.25
886.014	0.25
886.749	3.25
887.485	2.25
888.221	3.25
888.957	1.25
889.692	2.25
890.428	1.25
891.163	1.25
891.899	3.25
892.634	2.25
893.369	0.25
894.104	2.25
894.839	1.25
895.574	1.25
896.309	1.25
897.044	0.25
897.779	1.25
898.514	-1.75
899.248	0.25
899.983	1.25
900.717	-0.75
901.452	0.25
902.186	-1.75
902.92	0.25
903.654	2.25
904.389	1.25
905.123	0.25
905.857	0.25
906.59	-0.75
907.324	0.25
908.058	1.25
908.792	1.25
909.525	0.25
910.259	0.25
910.992	-0.75
911.726	3.25
912.459	1.25
913.192	-0.75
913.925	1.25
914.658	-1.75
915.391	2.25
916.124	1.25
916.857	2.25
917.59	-1.75
918.323	0.25
919.055	2.25
919.788	1.25
920.521	-0.75
921.253	1.25
921.985	0.25
922.718	-1.75
923.45	1.25
924.182	1.25
924.914	0.25
925.646	3.25
926.378	0.25
927.11	-0.75
927.841	2.25
928.573	0.25
929.305	1.25
930.036	3.25
930.768	0.25
931.499	-2.75
932.23	2.25
932.962	-1.75
933.693	1.25
934.424	1.25
935.155	0.25
935.886	1.25
936.617	2.25
937.348	-1.75
938.078	0.25
938.809	-0.75
939.54	-1.75
940.27	0.25
941.001	0.25
941.731	1.25
942.461	1.25
943.191	1.25
943.922	1.25
944.652	1.25
945.382	-0.75
946.112	0.25
946.841	-0.75
947.571	0.25
948.301	0.25
949.031	0.25
949.76	0.25
950.49	-0.75
951.219	0.25
951.948	0.25
952.678	0.25
953.407	0.25
954.136	2.25
954.865	0.25
955.594	-0.75
956.323	1.25
957.052	1.25
957.78	-0.75
958.509	1.25
959.238	0.25
959.966	-1.75
960.695	-0.75
961.423	-1.75
962.151	-0.75
962.88	0.25
963.608	-0.75
964.336	-1.75
965.064	-0.75
965.792	-1.75
966.52	1.25
967.247	-0.75
967.975	-0.75
968.703	-0.75
969.43	1.25
970.158	-1.75
970.885	0.25
971.613	-2.75
972.34	1.25
973.067	1.25
973.794	-1.75
974.521	-1.75
975.248	1.25
975.975	0.25
976.702	0.25
977.429	-0.75
978.156	1.25
978.882	1.25
979.609	0.25
980.335	1.25
981.062	-1.75
981.788	2.25
982.514	-1.75
983.24	-0.75
983.967	2.25
984.693	2.25
985.419	1.25
986.144	1.25
986.87	0.25
987.596	-1.75
988.322	1.25
989.047	-1.75
989.773	1.25
990.498	1.25
991.224	-1.75
991.949	1.25
992.674	-0.75
993.399	1.25
994.124	0.25
994.849	0.25
995.574	1.25
996.299	-1.75
997.024	0.25
997.749	0.25
998.473	0.25
999.198	0.25
999.922	0.25
1000.647	-1.75
1001.371	4.25
1002.095	-1.75
1002.82	1.25
1003.544	-1.75
1004.268	1.25
1004.992	1.25
1005.716	3.25
1006.439	2.25
1007.163	1.25
1007.887	2.25
1008.611	2.25
1009.334	0.25
1010.058	2.25
1010.781	-0.75
1011.504	-1.75
1012.228	-0.75
1012.951	0.25
1013.674	0.25
1014.397	-1.75
1015.12	-0.75
