节点500_425_QEPB04081__104__15-50-02-334.txt的数据

Date: Wed Nov 12 15:50:02 CST 2025
User: PC
Spectrometer: QEPB0408
触发模式: 0
积分时间 (秒): 1.000000E-2
Scans to average: 1
启用暗噪声校正: true
启用非线性校正: false
滑动平均宽度: 0
X轴模式: Wavelengths
Number of Pixels in Spectrum: 1044
>>>>>Begin Spectral Data<<<<<
220.843	1.75
221.644	2.75
222.444	3.75
223.244	5.75
224.045	3.75
224.845	4.75
225.645	4.75
226.445	4.75
227.245	3.75
228.045	4.75
228.845	4.75
229.645	2.75
230.444	4.75
231.244	5.75
232.043	7.75
232.843	4.75
233.642	4.75
234.442	5.75
235.241	6.75
236.04	6.75
236.839	6.75
237.638	6.75
238.437	9.75
239.236	6.75
240.035	8.75
240.833	7.75
241.632	8.75
242.43	10.75
243.229	8.75
244.027	9.75
244.826	10.75
245.624	8.75
246.422	8.75
247.22	8.75
248.018	11.75
248.816	8.75
249.614	10.75
250.412	10.75
251.21	6.75
252.007	11.75
252.805	11.75
253.602	12.75
254.4	11.75
255.197	10.75
255.994	12.75
256.791	10.75
257.589	12.75
258.386	14.75
259.183	15.75
259.979	13.75
260.776	15.75
261.573	16.75
262.37	17.75
263.166	17.75
263.963	18.75
264.759	18.75
265.556	17.75
266.352	18.75
267.148	20.75
267.944	21.75
268.74	24.75
269.536	22.75
270.332	21.75
271.128	22.75
271.924	23.75
272.719	26.75
273.515	25.75
274.311	26.75
275.106	26.75
275.901	24.75
276.697	26.75
277.492	23.75
278.287	24.75
279.082	26.75
279.877	22.75
280.672	29.75
281.467	27.75
282.262	26.75
283.056	24.75
283.851	26.75
284.646	28.75
285.44	25.75
286.234	25.75
287.029	26.75
287.823	26.75
288.617	25.75
289.411	24.75
290.205	23.75
290.999	24.75
291.793	25.75
292.587	26.75
293.381	23.75
294.174	24.75
294.968	22.75
295.761	20.75
296.555	19.75
297.348	18.75
298.141	21.75
298.935	23.75
299.728	21.75
300.521	16.75
301.314	19.75
302.107	20.75
302.899	16.75
303.692	18.75
304.485	17.75
305.277	15.75
306.07	16.75
306.862	17.75
307.655	16.75
308.447	18.75
309.239	17.75
310.031	12.75
310.823	16.75
311.615	11.75
312.407	14.75
313.199	13.75
313.991	11.75
314.783	14.75
315.574	10.75
316.366	12.75
317.157	10.75
317.949	12.75
318.74	10.75
319.531	9.75
320.322	10.75
321.113	7.75
321.904	9.75
322.695	9.75
323.486	10.75
324.277	9.75
325.068	8.75
325.858	10.75
326.649	9.75
327.439	10.75
328.23	11.75
329.02	9.75
329.81	8.75
330.6	5.75
331.391	8.75
332.181	10.75
332.971	8.75
333.76	8.75
334.55	11.75
335.34	9.75
336.13	7.75
336.919	7.75
337.709	6.75
338.498	8.75
339.287	7.75
340.077	10.75
340.866	10.75
341.655	8.75
342.444	9.75
343.233	8.75
344.022	8.75
344.811	10.75
345.6	7.75
346.388	10.75
347.177	10.75
347.965	8.75
348.754	9.75
349.542	9.75
350.33	7.75
351.119	10.75
351.907	6.75
352.695	8.75
353.483	6.75
354.271	8.75
355.059	10.75
355.846	7.75
356.634	5.75
357.422	9.75
358.209	10.75
358.997	8.75
359.784	7.75
360.571	5.75
361.359	6.75
362.146	8.75
362.933	8.75
363.72	8.75
364.507	6.75
365.294	7.75
366.081	8.75
366.867	7.75
367.654	7.75
368.44	5.75
369.227	7.75
370.013	6.75
370.8	6.75
371.586	7.75
372.372	7.75
373.158	7.75
373.944	8.75
374.73	6.75
375.516	7.75
376.302	6.75
377.088	7.75
377.873	5.75
378.659	5.75
379.445	8.75
380.23	8.75
381.015	6.75
381.801	4.75
382.586	9.75
383.371	5.75
384.156	8.75
384.941	9.75
385.726	7.75
386.511	8.75
387.296	7.75
388.08	8.75
388.865	5.75
389.649	9.75
390.434	7.75
391.218	7.75
392.003	9.75
392.787	7.75
393.571	8.75
394.355	8.75
395.139	9.75
395.923	7.75
396.707	9.75
397.491	11.75
398.274	10.75
399.058	7.75
399.842	9.75
400.625	8.75
401.408	9.75
402.192	7.75
402.975	9.75
403.758	12.75
404.541	10.75
405.324	10.75
406.107	10.75
406.89	11.75
407.673	10.75
408.456	8.75
409.238	10.75
410.021	11.75
410.803	12.75
411.586	9.75
412.368	12.75
413.151	13.75
413.933	11.75
414.715	12.75
415.497	16.75
416.279	13.75
417.061	13.75
417.843	15.75
418.624	12.75
419.406	14.75
420.188	15.75
420.969	15.75
421.751	15.75
422.532	15.75
423.313	14.75
424.095	14.75
424.876	15.75
425.657	15.75
426.438	18.75
427.219	17.75
428	16.75
428.78	18.75
429.561	19.75
430.342	18.75
431.122	21.75
431.903	18.75
432.683	22.75
433.464	25.75
434.244	26.75
435.024	25.75
435.804	26.75
436.584	26.75
437.364	27.75
438.144	31.75
438.924	32.75
439.704	30.75
440.483	32.75
441.263	36.75
442.042	34.75
442.822	39.75
443.601	43.75
444.38	44.75
445.16	48.75
445.939	53.75
446.718	52.75
447.497	54.75
448.276	65.75
449.054	72.75
449.833	73.75
450.612	76.75
451.391	86.75
452.169	97.75
452.948	105.75
453.726	113.75
454.504	132.75
455.282	144.75
456.061	162.75
456.839	180.75
457.617	200.75
458.395	220.75
459.172	242.75
459.95	263.75
460.728	302.75
461.506	327.75
462.283	374.75
463.061	424.75
463.838	476.75
464.615	526.75
465.393	584.75
466.17	664.75
466.947	751.75
467.724	814.75
468.501	908.75
469.278	1018.75
470.055	1128.75
470.831	1254.75
471.608	1394.75
472.385	1570.75
473.161	1745.75
473.938	1921.75
474.714	2154.75
475.49	2346.75
476.266	2600.75
477.043	2903.75
477.819	3196.75
478.595	3537.75
479.371	3913.75
480.146	4318.75
480.922	4739.75
481.698	5234.75
482.473	5761.75
483.249	6333.75
484.024	6970.75
484.8	7670.75
485.575	8382.75
486.35	9173.75
487.126	10077.75
487.901	11022.75
488.676	12072.75
489.451	13133.75
490.225	14305.75
491	15572.75
491.775	16890.75
492.55	18302.75
493.324	19727.75
494.099	21197.75
494.873	22601.75
495.647	24113.75
496.422	25659.75
497.196	27264.75
497.97	28758.75
498.744	30314.75
499.518	31687.75
500.292	32954.75
501.066	34009.75
501.839	35037.75
502.613	35979.75
503.387	36557.75
504.16	36936.75
504.934	37075.75
505.707	36842.75
506.48	36642.75
507.253	36145.75
508.027	35622.75
508.8	34901.75
509.573	33929.75
510.346	32952.75
511.118	31866.75
511.891	30704.75
512.664	29478.75
513.437	28265.75
514.209	26959.75
514.982	26031.75
515.754	24855.75
516.526	23711.75
517.298	22733.75
518.071	21757.75
518.843	20864.75
519.615	19944.75
520.387	19173.75
521.159	18446.75
521.93	17745.75
522.702	17036.75
523.474	16457.75
524.245	15717.75
525.017	14983.75
525.788	14294.75
526.56	13642.75
527.331	12963.75
528.102	12383.75
528.873	11713.75
529.644	11139.75
530.415	10645.75
531.186	10087.75
531.957	9546.75
532.728	9010.75
533.498	8496.75
534.269	8059.75
535.039	7592.75
535.81	7156.75
536.58	6785.75
537.351	6371.75
538.121	6017.75
538.891	5713.75
539.661	5419.75
540.431	5140.75
541.201	4886.75
541.971	4596.75
542.741	4377.75
543.51	4174.75
544.28	3933.75
545.05	3754.75
545.819	3575.75
546.588	3397.75
547.358	3208.75
548.127	3054.75
548.896	2886.75
549.665	2742.75
550.434	2597.75
551.203	2446.75
551.972	2329.75
552.741	2201.75
553.51	2092.75
554.278	1951.75
555.047	1833.75
555.815	1741.75
556.584	1631.75
557.352	1549.75
558.121	1468.75
558.889	1383.75
559.657	1309.75
560.425	1211.75
561.193	1170.75
561.961	1099.75
562.729	1046.75
563.496	979.75
564.264	931.75
565.032	878.75
565.799	837.75
566.567	779.75
567.334	750.75
568.101	705.75
568.869	665.75
569.636	625.75
570.403	590.75
571.17	553.75
571.937	519.75
572.704	510.75
573.471	473.75
574.237	445.75
575.004	424.75
575.771	397.75
576.537	372.75
577.303	350.75
578.07	330.75
578.836	307.75
579.602	297.75
580.368	283.75
581.134	265.75
581.9	247.75
582.666	231.75
583.432	223.75
584.198	210.75
584.964	203.75
585.729	190.75
586.495	183.75
587.26	172.75
588.025	164.75
588.791	155.75
589.556	150.75
590.321	144.75
591.086	131.75
591.851	128.75
592.616	125.75
593.381	113.75
594.146	110.75
594.911	103.75
595.675	100.75
596.44	92.75
597.204	90.75
597.969	89.75
598.733	89.75
599.497	78.75
600.261	77.75
601.025	72.75
601.79	70.75
602.553	67.75
603.317	64.75
604.081	65.75
604.845	60.75
605.609	56.75
606.372	54.75
607.136	51.75
607.899	47.75
608.662	50.75
609.426	48.75
610.189	46.75
610.952	46.75
611.715	43.75
612.478	40.75
613.241	38.75
614.004	37.75
614.767	34.75
615.529	36.75
616.292	34.75
617.055	32.75
617.817	29.75
618.579	28.75
619.342	27.75
620.104	28.75
620.866	25.75
621.628	29.75
622.39	27.75
623.152	22.75
623.914	24.75
624.676	22.75
625.438	23.75
626.199	20.75
626.961	19.75
627.722	20.75
628.484	20.75
629.245	19.75
630.006	17.75
630.768	18.75
631.529	20.75
632.29	19.75
633.051	13.75
633.812	14.75
634.573	18.75
635.333	15.75
636.094	14.75
636.855	16.75
637.615	13.75
638.376	14.75
639.136	13.75
639.896	15.75
640.657	14.75
641.417	11.75
642.177	12.75
642.937	12.75
643.697	12.75
644.457	11.75
645.216	11.75
645.976	10.75
646.736	14.75
647.495	11.75
648.255	9.75
649.014	9.75
649.774	9.75
650.533	7.75
651.292	12.75
652.051	10.75
652.81	10.75
653.569	7.75
654.328	9.75
655.087	9.75
655.846	10.75
656.604	10.75
657.363	9.75
658.121	8.75
658.88	9.75
659.638	8.75
660.397	9.75
661.155	9.75
661.913	9.75
662.671	7.75
663.429	9.75
664.187	7.75
664.945	7.75
665.703	6.75
666.46	7.75
667.218	8.75
667.976	7.75
668.733	7.75
669.49	5.75
670.248	6.75
671.005	6.75
671.762	5.75
672.519	8.75
673.276	7.75
674.033	4.75
674.79	4.75
675.547	5.75
676.304	5.75
677.06	7.75
677.817	8.75
678.574	6.75
679.33	3.75
680.086	4.75
680.843	4.75
681.599	5.75
682.355	6.75
683.111	8.75
683.867	6.75
684.623	6.75
685.379	5.75
686.135	4.75
686.89	6.75
687.646	5.75
688.402	2.75
689.157	5.75
689.912	5.75
690.668	6.75
691.423	4.75
692.178	4.75
692.933	3.75
693.688	4.75
694.443	5.75
695.198	7.75
695.953	5.75
696.708	5.75
697.462	5.75
698.217	6.75
698.972	3.75
699.726	5.75
700.48	2.75
701.235	8.75
701.989	3.75
702.743	5.75
703.497	5.75
704.251	5.75
705.005	7.75
705.759	3.75
706.513	6.75
707.266	4.75
708.02	4.75
708.774	4.75
709.527	6.75
710.28	7.75
711.034	3.75
711.787	6.75
712.54	7.75
713.293	4.75
714.046	4.75
714.799	5.75
715.552	4.75
716.305	4.75
717.058	5.75
717.81	6.75
718.563	4.75
719.315	6.75
720.068	5.75
720.82	4.75
721.573	8.75
722.325	6.75
723.077	4.75
723.829	5.75
724.581	5.75
725.333	5.75
726.085	5.75
726.836	6.75
727.588	5.75
728.34	4.75
729.091	4.75
729.843	6.75
730.594	3.75
731.346	6.75
732.097	5.75
732.848	5.75
733.599	7.75
734.35	6.75
735.101	8.75
735.852	7.75
736.603	6.75
737.354	6.75
738.104	7.75
738.855	8.75
739.605	6.75
740.356	7.75
741.106	7.75
741.856	6.75
742.607	8.75
743.357	4.75
744.107	6.75
744.857	6.75
745.607	7.75
746.357	8.75
747.106	7.75
747.856	7.75
748.606	9.75
749.355	8.75
750.105	4.75
750.854	7.75
751.603	7.75
752.353	10.75
753.102	7.75
753.851	8.75
754.6	7.75
755.349	10.75
756.098	8.75
756.847	8.75
757.595	11.75
758.344	6.75
759.093	7.75
759.841	9.75
760.589	7.75
761.338	7.75
762.086	9.75
762.834	11.75
763.582	9.75
764.331	11.75
765.079	8.75
765.826	8.75
766.574	10.75
767.322	12.75
768.07	9.75
768.817	10.75
769.565	10.75
770.312	8.75
771.06	12.75
771.807	12.75
772.554	10.75
773.302	10.75
774.049	11.75
774.796	12.75
775.543	9.75
776.29	10.75
777.036	10.75
777.783	12.75
778.53	13.75
779.276	14.75
780.023	11.75
780.769	13.75
781.516	11.75
782.262	14.75
783.008	14.75
783.754	11.75
784.5	14.75
785.246	11.75
785.992	15.75
786.738	13.75
787.484	13.75
788.23	11.75
788.975	13.75
789.721	13.75
790.466	11.75
791.212	13.75
791.957	10.75
792.702	13.75
793.447	12.75
794.193	11.75
794.938	11.75
795.683	8.75
796.427	10.75
797.172	8.75
797.917	11.75
798.662	9.75
799.406	10.75
800.151	9.75
800.895	9.75
801.64	10.75
802.384	11.75
803.128	9.75
803.872	8.75
804.616	9.75
805.36	10.75
806.104	8.75
806.848	10.75
807.592	9.75
808.336	8.75
809.079	8.75
809.823	5.75
810.566	8.75
811.31	8.75
812.053	8.75
812.796	9.75
813.539	8.75
814.283	7.75
815.026	7.75
815.769	9.75
816.511	7.75
817.254	4.75
817.997	9.75
818.74	2.75
819.482	7.75
820.225	7.75
820.967	3.75
821.71	6.75
822.452	5.75
823.194	6.75
823.936	4.75
824.678	8.75
825.42	7.75
826.162	4.75
826.904	5.75
827.646	4.75
828.388	2.75
829.129	4.75
829.871	6.75
830.612	5.75
831.354	5.75
832.095	6.75
832.836	5.75
833.577	6.75
834.319	5.75
835.06	3.75
835.801	6.75
836.542	3.75
837.282	4.75
838.023	4.75
838.764	5.75
839.504	3.75
840.245	5.75
840.985	4.75
841.726	2.75
842.466	4.75
843.206	4.75
843.946	6.75
844.687	5.75
845.427	2.75
846.166	4.75
846.906	5.75
847.646	4.75
848.386	6.75
849.125	2.75
849.865	2.75
850.605	4.75
851.344	4.75
852.083	2.75
852.823	2.75
853.562	3.75
854.301	4.75
855.04	3.75
855.779	2.75
856.518	1.75
857.257	3.75
857.995	3.75
858.734	1.75
859.473	1.75
860.211	2.75
860.95	3.75
861.688	3.75
862.426	2.75
863.165	1.75
863.903	1.75
864.641	3.75
865.379	2.75
866.117	1.75
866.855	0.75
867.593	2.75
868.33	2.75
869.068	1.75
869.806	0.75
870.543	2.75
871.28	2.75
872.018	0.75
872.755	-0.25
873.492	0.75
874.229	2.75
874.967	3.75
875.703	1.75
876.44	2.75
877.177	0.75
877.914	3.75
878.651	-0.25
879.387	3.75
880.124	2.75
880.86	0.75
881.597	2.75
882.333	0.75
883.069	2.75
883.806	2.75
884.542	2.75
885.278	1.75
886.014	1.75
886.749	0.75
887.485	0.75
888.221	-0.25
888.957	1.75
889.692	-1.25
890.428	1.75
891.163	1.75
891.899	0.75
892.634	0.75
893.369	3.75
894.104	1.75
894.839	2.75
895.574	1.75
896.309	2.75
897.044	1.75
897.779	1.75
898.514	0.75
899.248	1.75
899.983	1.75
900.717	-0.25
901.452	-0.25
902.186	1.75
902.92	0.75
903.654	-1.25
904.389	2.75
905.123	-1.25
905.857	0.75
906.59	2.75
907.324	-0.25
908.058	1.75
908.792	1.75
909.525	-0.25
910.259	1.75
910.992	-1.25
911.726	1.75
912.459	-0.25
913.192	0.75
913.925	0.75
914.658	2.75
915.391	-0.25
916.124	0.75
916.857	3.75
917.59	-2.25
918.323	-0.25
919.055	0.75
919.788	0.75
920.521	2.75
921.253	-1.25
921.985	1.75
922.718	0.75
923.45	2.75
924.182	-0.25
924.914	-1.25
925.646	0.75
926.378	-1.25
927.11	1.75
927.841	0.75
928.573	-1.25
929.305	-0.25
930.036	0.75
930.768	0.75
931.499	1.75
932.23	2.75
932.962	0.75
933.693	0.75
934.424	0.75
935.155	-0.25
935.886	-0.25
936.617	2.75
937.348	1.75
938.078	2.75
938.809	0.75
939.54	-0.25
940.27	1.75
941.001	2.75
941.731	0.75
942.461	1.75
943.191	-0.25
943.922	0.75
944.652	1.75
945.382	-0.25
946.112	3.75
946.841	-0.25
947.571	0.75
948.301	1.75
949.031	-1.25
949.76	1.75
950.49	0.75
951.219	1.75
951.948	-0.25
952.678	-0.25
953.407	0.75
954.136	1.75
954.865	-0.25
955.594	-0.25
956.323	-0.25
957.052	-0.25
957.78	-0.25
958.509	-1.25
959.238	-0.25
959.966	2.75
960.695	1.75
961.423	-1.25
962.151	-0.25
962.88	1.75
963.608	-1.25
964.336	1.75
965.064	0.75
965.792	-0.25
966.52	0.75
967.247	0.75
967.975	1.75
968.703	0.75
969.43	2.75
970.158	-0.25
970.885	1.75
971.613	-1.25
972.34	1.75
973.067	-0.25
973.794	1.75
974.521	-0.25
975.248	0.75
975.975	-0.25
976.702	0.75
977.429	1.75
978.156	-0.25
978.882	0.75
979.609	0.75
980.335	-0.25
981.062	3.75
981.788	1.75
982.514	0.75
983.24	0.75
983.967	-0.25
984.693	2.75
985.419	0.75
986.144	3.75
986.87	-0.25
987.596	0.75
988.322	1.75
989.047	-0.25
989.773	-0.25
990.498	2.75
991.224	1.75
991.949	1.75
992.674	0.75
993.399	1.75
994.124	-1.25
994.849	1.75
995.574	-0.25
996.299	2.75
997.024	0.75
997.749	-2.25
998.473	1.75
999.198	1.75
999.922	0.75
1000.647	0.75
1001.371	3.75
1002.095	-3.25
1002.82	-1.25
1003.544	-2.25
1004.268	4.75
1004.992	2.75
1005.716	5.75
1006.439	1.75
1007.163	3.75
1007.887	1.75
1008.611	-0.25
1009.334	0.75
1010.058	-0.25
1010.781	-1.25
1011.504	-1.25
1012.228	0.75
1012.951	2.75
1013.674	-1.25
1014.397	2.75
1015.12	-1.25
