节点500_425_QEPB04081__538__15-57-15-524.txt的数据

Date: Wed Nov 12 15:57:15 CST 2025
User: PC
Spectrometer: QEPB0408
触发模式: 0
积分时间 (秒): 1.000000E-2
Scans to average: 1
启用暗噪声校正: true
启用非线性校正: false
滑动平均宽度: 0
X轴模式: Wavelengths
Number of Pixels in Spectrum: 1044
>>>>>Begin Spectral Data<<<<<
220.843	1.25
221.644	2.25
222.444	2.25
223.244	2.25
224.045	2.25
224.845	3.25
225.645	3.25
226.445	5.25
227.245	2.25
228.045	4.25
228.845	5.25
229.645	2.25
230.444	5.25
231.244	2.25
232.043	4.25
232.843	6.25
233.642	3.25
234.442	6.25
235.241	5.25
236.04	4.25
236.839	6.25
237.638	4.25
238.437	6.25
239.236	6.25
240.035	6.25
240.833	5.25
241.632	7.25
242.43	6.25
243.229	7.25
244.027	6.25
244.826	7.25
245.624	8.25
246.422	6.25
247.22	7.25
248.018	10.25
248.816	9.25
249.614	9.25
250.412	10.25
251.21	11.25
252.007	8.25
252.805	13.25
253.602	10.25
254.4	8.25
255.197	9.25
255.994	10.25
256.791	8.25
257.589	11.25
258.386	10.25
259.183	12.25
259.979	14.25
260.776	13.25
261.573	15.25
262.37	14.25
263.166	15.25
263.963	14.25
264.759	17.25
265.556	14.25
266.352	17.25
267.148	14.25
267.944	17.25
268.74	20.25
269.536	18.25
270.332	20.25
271.128	20.25
271.924	21.25
272.719	20.25
273.515	22.25
274.311	21.25
275.106	17.25
275.901	16.25
276.697	20.25
277.492	19.25
278.287	22.25
279.082	21.25
279.877	23.25
280.672	21.25
281.467	21.25
282.262	21.25
283.056	23.25
283.851	23.25
284.646	24.25
285.44	20.25
286.234	22.25
287.029	23.25
287.823	22.25
288.617	24.25
289.411	21.25
290.205	22.25
290.999	21.25
291.793	19.25
292.587	22.25
293.381	23.25
294.174	21.25
294.968	21.25
295.761	21.25
296.555	22.25
297.348	20.25
298.141	18.25
298.935	22.25
299.728	17.25
300.521	20.25
301.314	19.25
302.107	12.25
302.899	18.25
303.692	16.25
304.485	14.25
305.277	14.25
306.07	16.25
306.862	17.25
307.655	16.25
308.447	16.25
309.239	14.25
310.031	16.25
310.823	13.25
311.615	12.25
312.407	16.25
313.199	13.25
313.991	12.25
314.783	11.25
315.574	15.25
316.366	12.25
317.157	8.25
317.949	11.25
318.74	11.25
319.531	9.25
320.322	8.25
321.113	10.25
321.904	10.25
322.695	6.25
323.486	10.25
324.277	10.25
325.068	9.25
325.858	10.25
326.649	12.25
327.439	9.25
328.23	10.25
329.02	9.25
329.81	9.25
330.6	8.25
331.391	8.25
332.181	7.25
332.971	8.25
333.76	10.25
334.55	6.25
335.34	8.25
336.13	8.25
336.919	6.25
337.709	7.25
338.498	10.25
339.287	7.25
340.077	7.25
340.866	8.25
341.655	8.25
342.444	8.25
343.233	6.25
344.022	9.25
344.811	8.25
345.6	6.25
346.388	7.25
347.177	8.25
347.965	10.25
348.754	7.25
349.542	9.25
350.33	8.25
351.119	7.25
351.907	10.25
352.695	10.25
353.483	9.25
354.271	8.25
355.059	5.25
355.846	7.25
356.634	4.25
357.422	8.25
358.209	7.25
358.997	6.25
359.784	6.25
360.571	5.25
361.359	6.25
362.146	8.25
362.933	6.25
363.72	6.25
364.507	4.25
365.294	9.25
366.081	5.25
366.867	5.25
367.654	5.25
368.44	7.25
369.227	5.25
370.013	7.25
370.8	7.25
371.586	6.25
372.372	7.25
373.158	5.25
373.944	5.25
374.73	7.25
375.516	6.25
376.302	10.25
377.088	7.25
377.873	8.25
378.659	5.25
379.445	7.25
380.23	5.25
381.015	5.25
381.801	6.25
382.586	8.25
383.371	5.25
384.156	7.25
384.941	8.25
385.726	6.25
386.511	8.25
387.296	7.25
388.08	7.25
388.865	5.25
389.649	6.25
390.434	8.25
391.218	9.25
392.003	10.25
392.787	9.25
393.571	9.25
394.355	9.25
395.139	11.25
395.923	7.25
396.707	7.25
397.491	7.25
398.274	7.25
399.058	10.25
399.842	8.25
400.625	8.25
401.408	10.25
402.192	8.25
402.975	7.25
403.758	8.25
404.541	11.25
405.324	10.25
406.107	8.25
406.89	10.25
407.673	8.25
408.456	10.25
409.238	9.25
410.021	10.25
410.803	11.25
411.586	10.25
412.368	12.25
413.151	10.25
413.933	14.25
414.715	13.25
415.497	13.25
416.279	11.25
417.061	13.25
417.843	12.25
418.624	11.25
419.406	11.25
420.188	13.25
420.969	11.25
421.751	14.25
422.532	12.25
423.313	16.25
424.095	14.25
424.876	16.25
425.657	14.25
426.438	16.25
427.219	19.25
428	15.25
428.78	20.25
429.561	17.25
430.342	15.25
431.122	18.25
431.903	17.25
432.683	23.25
433.464	19.25
434.244	24.25
435.024	22.25
435.804	22.25
436.584	26.25
437.364	26.25
438.144	30.25
438.924	29.25
439.704	30.25
440.483	34.25
441.263	36.25
442.042	38.25
442.822	42.25
443.601	41.25
444.38	45.25
445.16	52.25
445.939	55.25
446.718	57.25
447.497	64.25
448.276	68.25
449.054	72.25
449.833	83.25
450.612	91.25
451.391	101.25
452.169	112.25
452.948	121.25
453.726	138.25
454.504	146.25
455.282	164.25
456.061	183.25
456.839	199.25
457.617	228.25
458.395	250.25
459.172	279.25
459.95	310.25
460.728	346.25
461.506	384.25
462.283	429.25
463.061	474.25
463.838	536.25
464.615	597.25
465.393	660.25
466.17	727.25
466.947	811.25
467.724	900.25
468.501	1005.25
469.278	1085.25
470.055	1211.25
470.831	1334.25
471.608	1474.25
472.385	1628.25
473.161	1802.25
473.938	1957.25
474.714	2175.25
475.49	2370.25
476.266	2611.25
477.043	2855.25
477.819	3136.25
478.595	3429.25
479.371	3743.25
480.146	4075.25
480.922	4450.25
481.698	4837.25
482.473	5268.25
483.249	5773.25
484.024	6239.25
484.8	6800.25
485.575	7410.25
486.35	8013.25
487.126	8698.25
487.901	9397.25
488.676	10248.25
489.451	11075.25
490.225	11974.25
491	12945.25
491.775	13964.25
492.55	14983.25
493.324	16130.25
494.099	17232.25
494.873	18360.25
495.647	19637.25
496.422	20796.25
497.196	22070.25
497.97	23481.25
498.744	24705.25
499.518	25971.25
500.292	27114.25
501.066	28118.25
501.839	29423.25
502.613	30304.25
503.387	31096.25
504.16	31792.25
504.934	32356.25
505.707	32553.25
506.48	32744.25
507.253	32700.25
508.027	32662.25
508.8	32386.25
509.573	31918.25
510.346	31397.25
511.118	30757.25
511.891	29923.25
512.664	28975.25
513.437	28051.25
514.209	27097.25
514.982	26234.25
515.754	25268.25
516.526	24185.25
517.298	23268.25
518.071	22316.25
518.843	21400.25
519.615	20560.25
520.387	19706.25
521.159	18984.25
521.93	18256.25
522.702	17607.25
523.474	16851.25
524.245	16204.25
525.017	15499.25
525.788	14727.25
526.56	14214.25
527.331	13540.25
528.102	12928.25
528.873	12353.25
529.644	11805.25
530.415	11283.25
531.186	10800.25
531.957	10255.25
532.728	9774.25
533.498	9211.25
534.269	8714.25
535.039	8263.25
535.81	7846.25
536.58	7398.25
537.351	7012.25
538.121	6627.25
538.891	6245.25
539.661	5981.25
540.431	5632.25
541.201	5344.25
541.971	5083.25
542.741	4814.25
543.51	4562.25
544.28	4329.25
545.05	4139.25
545.819	3901.25
546.588	3741.25
547.358	3529.25
548.127	3351.25
548.896	3178.25
549.665	3026.25
550.434	2879.25
551.203	2744.25
551.972	2596.25
552.741	2452.25
553.51	2318.25
554.278	2190.25
555.047	2078.25
555.815	1959.25
556.584	1835.25
557.352	1759.25
558.121	1663.25
558.889	1553.25
559.657	1490.25
560.425	1383.25
561.193	1324.25
561.961	1235.25
562.729	1185.25
563.496	1123.25
564.264	1055.25
565.032	998.25
565.799	946.25
566.567	897.25
567.334	842.25
568.101	805.25
568.869	747.25
569.636	706.25
570.403	660.25
571.17	629.25
571.937	597.25
572.704	561.25
573.471	536.25
574.237	506.25
575.004	471.25
575.771	442.25
576.537	424.25
577.303	394.25
578.07	373.25
578.836	345.25
579.602	328.25
580.368	309.25
581.134	303.25
581.9	284.25
582.666	262.25
583.432	255.25
584.198	242.25
584.964	230.25
585.729	221.25
586.495	205.25
587.26	196.25
588.025	189.25
588.791	179.25
589.556	171.25
590.321	157.25
591.086	146.25
591.851	139.25
592.616	134.25
593.381	132.25
594.146	122.25
594.911	120.25
595.675	109.25
596.44	105.25
597.204	99.25
597.969	97.25
598.733	92.25
599.497	90.25
600.261	87.25
601.025	84.25
601.79	79.25
602.553	73.25
603.317	70.25
604.081	70.25
604.845	62.25
605.609	66.25
606.372	57.25
607.136	59.25
607.899	53.25
608.662	55.25
609.426	52.25
610.189	49.25
610.952	49.25
611.715	43.25
612.478	41.25
613.241	42.25
614.004	42.25
614.767	39.25
615.529	38.25
616.292	37.25
617.055	36.25
617.817	34.25
618.579	34.25
619.342	29.25
620.104	30.25
620.866	30.25
621.628	25.25
622.39	26.25
623.152	23.25
623.914	28.25
624.676	25.25
625.438	23.25
626.199	24.25
626.961	20.25
627.722	20.25
628.484	18.25
629.245	22.25
630.006	19.25
630.768	18.25
631.529	19.25
632.29	16.25
633.051	19.25
633.812	18.25
634.573	18.25
635.333	14.25
636.094	17.25
636.855	17.25
637.615	14.25
638.376	15.25
639.136	16.25
639.896	12.25
640.657	12.25
641.417	14.25
642.177	13.25
642.937	10.25
643.697	11.25
644.457	12.25
645.216	14.25
645.976	10.25
646.736	9.25
647.495	10.25
648.255	12.25
649.014	10.25
649.774	8.25
650.533	8.25
651.292	11.25
652.051	9.25
652.81	7.25
653.569	10.25
654.328	11.25
655.087	10.25
655.846	7.25
656.604	9.25
657.363	9.25
658.121	9.25
658.88	6.25
659.638	3.25
660.397	6.25
661.155	9.25
661.913	9.25
662.671	8.25
663.429	5.25
664.187	5.25
664.945	7.25
665.703	7.25
666.46	4.25
667.218	4.25
667.976	7.25
668.733	7.25
669.49	7.25
670.248	6.25
671.005	5.25
671.762	6.25
672.519	8.25
673.276	5.25
674.033	5.25
674.79	5.25
675.547	4.25
676.304	6.25
677.06	7.25
677.817	6.25
678.574	6.25
679.33	4.25
680.086	7.25
680.843	5.25
681.599	6.25
682.355	3.25
683.111	5.25
683.867	5.25
684.623	4.25
685.379	5.25
686.135	7.25
686.89	5.25
687.646	4.25
688.402	6.25
689.157	4.25
689.912	5.25
690.668	5.25
691.423	2.25
692.178	5.25
692.933	2.25
693.688	5.25
694.443	4.25
695.198	7.25
695.953	4.25
696.708	5.25
697.462	3.25
698.217	6.25
698.972	4.25
699.726	5.25
700.48	8.25
701.235	5.25
701.989	5.25
702.743	5.25
703.497	4.25
704.251	3.25
705.005	5.25
705.759	6.25
706.513	8.25
707.266	4.25
708.02	4.25
708.774	6.25
709.527	4.25
710.28	4.25
711.034	4.25
711.787	6.25
712.54	5.25
713.293	5.25
714.046	4.25
714.799	4.25
715.552	4.25
716.305	6.25
717.058	4.25
717.81	7.25
718.563	5.25
719.315	4.25
720.068	4.25
720.82	4.25
721.573	5.25
722.325	5.25
723.077	5.25
723.829	5.25
724.581	3.25
725.333	7.25
726.085	6.25
726.836	4.25
727.588	5.25
728.34	5.25
729.091	5.25
729.843	3.25
730.594	6.25
731.346	5.25
732.097	3.25
732.848	5.25
733.599	4.25
734.35	4.25
735.101	3.25
735.852	7.25
736.603	3.25
737.354	5.25
738.104	5.25
738.855	4.25
739.605	9.25
740.356	5.25
741.106	7.25
741.856	5.25
742.607	6.25
743.357	7.25
744.107	5.25
744.857	8.25
745.607	3.25
746.357	7.25
747.106	6.25
747.856	6.25
748.606	9.25
749.355	7.25
750.105	6.25
750.854	7.25
751.603	6.25
752.353	7.25
753.102	7.25
753.851	8.25
754.6	7.25
755.349	6.25
756.098	7.25
756.847	7.25
757.595	8.25
758.344	7.25
759.093	6.25
759.841	7.25
760.589	7.25
761.338	5.25
762.086	8.25
762.834	9.25
763.582	8.25
764.331	7.25
765.079	7.25
765.826	7.25
766.574	7.25
767.322	6.25
768.07	9.25
768.817	10.25
769.565	7.25
770.312	9.25
771.06	8.25
771.807	10.25
772.554	9.25
773.302	8.25
774.049	8.25
774.796	11.25
775.543	11.25
776.29	10.25
777.036	8.25
777.783	9.25
778.53	9.25
779.276	10.25
780.023	11.25
780.769	10.25
781.516	9.25
782.262	12.25
783.008	10.25
783.754	9.25
784.5	10.25
785.246	11.25
785.992	11.25
786.738	10.25
787.484	7.25
788.23	11.25
788.975	12.25
789.721	11.25
790.466	9.25
791.212	10.25
791.957	10.25
792.702	9.25
793.447	13.25
794.193	10.25
794.938	10.25
795.683	9.25
796.427	8.25
797.172	10.25
797.917	9.25
798.662	8.25
799.406	11.25
800.151	8.25
800.895	10.25
801.64	7.25
802.384	9.25
803.128	8.25
803.872	6.25
804.616	8.25
805.36	9.25
806.104	7.25
806.848	8.25
807.592	11.25
808.336	5.25
809.079	8.25
809.823	4.25
810.566	4.25
811.31	8.25
812.053	8.25
812.796	5.25
813.539	7.25
814.283	5.25
815.026	9.25
815.769	6.25
816.511	7.25
817.254	6.25
817.997	5.25
818.74	6.25
819.482	5.25
820.225	5.25
820.967	4.25
821.71	2.25
822.452	6.25
823.194	2.25
823.936	6.25
824.678	6.25
825.42	6.25
826.162	5.25
826.904	5.25
827.646	6.25
828.388	3.25
829.129	4.25
829.871	6.25
830.612	4.25
831.354	4.25
832.095	5.25
832.836	2.25
833.577	3.25
834.319	4.25
835.06	3.25
835.801	3.25
836.542	6.25
837.282	4.25
838.023	3.25
838.764	4.25
839.504	4.25
840.245	5.25
840.985	2.25
841.726	6.25
842.466	4.25
843.206	3.25
843.946	4.25
844.687	3.25
845.427	3.25
846.166	3.25
846.906	4.25
847.646	7.25
848.386	2.25
849.125	4.25
849.865	0.25
850.605	4.25
851.344	2.25
852.083	3.25
852.823	2.25
853.562	4.25
854.301	3.25
855.04	3.25
855.779	4.25
856.518	3.25
857.257	2.25
857.995	4.25
858.734	4.25
859.473	4.25
860.211	2.25
860.95	3.25
861.688	1.25
862.426	4.25
863.165	4.25
863.903	1.25
864.641	2.25
865.379	3.25
866.117	2.25
866.855	1.25
867.593	0.25
868.33	1.25
869.068	3.25
869.806	1.25
870.543	2.25
871.28	1.25
872.018	2.25
872.755	2.25
873.492	0.25
874.229	1.25
874.967	2.25
875.703	3.25
876.44	1.25
877.177	5.25
877.914	1.25
878.651	2.25
879.387	2.25
880.124	-0.75
880.86	0.25
881.597	1.25
882.333	1.25
883.069	1.25
883.806	0.25
884.542	1.25
885.278	1.25
886.014	1.25
886.749	1.25
887.485	0.25
888.221	1.25
888.957	1.25
889.692	2.25
890.428	-0.75
891.163	1.25
891.899	3.25
892.634	0.25
893.369	0.25
894.104	0.25
894.839	4.25
895.574	0.25
896.309	2.25
897.044	2.25
897.779	1.25
898.514	0.25
899.248	2.25
899.983	1.25
900.717	1.25
901.452	2.25
902.186	2.25
902.92	-1.75
903.654	2.25
904.389	-0.75
905.123	2.25
905.857	1.25
906.59	-0.75
907.324	0.25
908.058	-1.75
908.792	1.25
909.525	0.25
910.259	1.25
910.992	0.25
911.726	-0.75
912.459	0.25
913.192	-0.75
913.925	1.25
914.658	1.25
915.391	-1.75
916.124	-0.75
916.857	-1.75
917.59	2.25
918.323	1.25
919.055	0.25
919.788	0.25
920.521	-1.75
921.253	0.25
921.985	0.25
922.718	1.25
923.45	0.25
924.182	-0.75
924.914	1.25
925.646	0.25
926.378	1.25
927.11	-1.75
927.841	0.25
928.573	1.25
929.305	-0.75
930.036	1.25
930.768	-0.75
931.499	2.25
932.23	-0.75
932.962	1.25
933.693	1.25
934.424	-1.75
935.155	2.25
935.886	2.25
936.617	1.25
937.348	0.25
938.078	1.25
938.809	0.25
939.54	0.25
940.27	3.25
941.001	0.25
941.731	-0.75
942.461	0.25
943.191	1.25
943.922	2.25
944.652	-0.75
945.382	0.25
946.112	1.25
946.841	0.25
947.571	0.25
948.301	0.25
949.031	2.25
949.76	-1.75
950.49	-0.75
951.219	-1.75
951.948	-2.75
952.678	-1.75
953.407	-1.75
954.136	-0.75
954.865	1.25
955.594	-1.75
956.323	-1.75
957.052	0.25
957.78	2.25
958.509	-1.75
959.238	0.25
959.966	-0.75
960.695	-1.75
961.423	1.25
962.151	-0.75
962.88	-0.75
963.608	1.25
964.336	0.25
965.064	0.25
965.792	0.25
966.52	1.25
967.247	-0.75
967.975	0.25
968.703	1.25
969.43	-0.75
970.158	-0.75
970.885	-1.75
971.613	0.25
972.34	1.25
973.067	-1.75
973.794	0.25
974.521	-0.75
975.248	2.25
975.975	-0.75
976.702	2.25
977.429	-0.75
978.156	-1.75
978.882	-1.75
979.609	-0.75
980.335	-1.75
981.062	0.25
981.788	1.25
982.514	2.25
983.24	0.25
983.967	0.25
984.693	-0.75
985.419	1.25
986.144	-0.75
986.87	-1.75
987.596	0.25
988.322	0.25
989.047	1.25
989.773	1.25
990.498	-0.75
991.224	0.25
991.949	-1.75
992.674	1.25
993.399	-0.75
994.124	2.25
994.849	1.25
995.574	0.25
996.299	1.25
997.024	0.25
997.749	-1.75
998.473	2.25
999.198	2.25
999.922	1.25
1000.647	-0.75
1001.371	5.25
1002.095	-0.75
1002.82	-2.75
1003.544	-1.75
1004.268	2.25
1004.992	4.25
1005.716	2.25
1006.439	4.25
1007.163	2.25
1007.887	3.25
1008.611	1.25
1009.334	-1.75
1010.058	-1.75
1010.781	1.25
1011.504	0.25
1012.228	1.25
1012.951	1.25
1013.674	-0.75
1014.397	0.25
1015.12	-0.75
