节点500_425_QEPB04081__2__15-48-23-513.txt的数据

Date: Wed Nov 12 15:48:23 CST 2025
User: PC
Spectrometer: QEPB0408
触发模式: 0
积分时间 (秒): 1.000000E-2
Scans to average: 1
启用暗噪声校正: true
启用非线性校正: false
滑动平均宽度: 0
X轴模式: Wavelengths
Number of Pixels in Spectrum: 1044
>>>>>Begin Spectral Data<<<<<
220.843	1.38
221.644	-2.62
222.444	-5.62
223.244	-1.62
224.045	-3.62
224.845	0.38
225.645	-3.62
226.445	-1.62
227.245	-0.62
228.045	-3.62
228.845	-4.62
229.645	-1.62
230.444	0.38
231.244	-0.62
232.043	-0.62
232.843	-1.62
233.642	-2.62
234.442	1.38
235.241	-2.62
236.04	-0.62
236.839	-0.62
237.638	-1.62
238.437	-0.62
239.236	-1.62
240.035	-0.62
240.833	-1.62
241.632	-3.62
242.43	-1.62
243.229	-3.62
244.027	-1.62
244.826	-1.62
245.624	0.38
246.422	0.38
247.22	-0.62
248.018	-1.62
248.816	-1.62
249.614	-2.62
250.412	-1.62
251.21	-1.62
252.007	-0.62
252.805	-0.62
253.602	0.38
254.4	0.38
255.197	-2.62
255.994	-3.62
256.791	-1.62
257.589	-1.62
258.386	-2.62
259.183	-1.62
259.979	-1.62
260.776	-1.62
261.573	1.38
262.37	-1.62
263.166	0.38
263.963	-2.62
264.759	-0.62
265.556	-1.62
266.352	-1.62
267.148	-1.62
267.944	-0.62
268.74	1.38
269.536	-0.62
270.332	-2.62
271.128	-1.62
271.924	-0.62
272.719	0.38
273.515	-2.62
274.311	0.38
275.106	-1.62
275.901	0.38
276.697	-1.62
277.492	0.38
278.287	-1.62
279.082	-1.62
279.877	-2.62
280.672	-0.62
281.467	-1.62
282.262	0.38
283.056	-3.62
283.851	1.38
284.646	-1.62
285.44	-0.62
286.234	0.38
287.029	-0.62
287.823	-0.62
288.617	-1.62
289.411	-1.62
290.205	2.38
290.999	-1.62
291.793	-1.62
292.587	-1.62
293.381	0.38
294.174	1.38
294.968	-0.62
295.761	-0.62
296.555	-0.62
297.348	-2.62
298.141	0.38
298.935	-1.62
299.728	-0.62
300.521	-1.62
301.314	-1.62
302.107	0.38
302.899	1.38
303.692	-1.62
304.485	-2.62
305.277	1.38
306.07	1.38
306.862	0.38
307.655	-1.62
308.447	1.38
309.239	-0.62
310.031	2.38
310.823	0.38
311.615	-2.62
312.407	-0.62
313.199	-0.62
313.991	-1.62
314.783	1.38
315.574	-1.62
316.366	-1.62
317.157	0.38
317.949	-1.62
318.74	-1.62
319.531	0.38
320.322	-0.62
321.113	-2.62
321.904	0.38
322.695	-4.62
323.486	-0.62
324.277	0.38
325.068	-1.62
325.858	1.38
326.649	-2.62
327.439	0.38
328.23	0.38
329.02	0.38
329.81	-0.62
330.6	-1.62
331.391	-1.62
332.181	-1.62
332.971	-0.62
333.76	-0.62
334.55	-2.62
335.34	-1.62
336.13	0.38
336.919	0.38
337.709	-1.62
338.498	0.38
339.287	0.38
340.077	-1.62
340.866	0.38
341.655	-3.62
342.444	0.38
343.233	1.38
344.022	-0.62
344.811	-0.62
345.6	-1.62
346.388	1.38
347.177	-0.62
347.965	0.38
348.754	0.38
349.542	0.38
350.33	-0.62
351.119	-0.62
351.907	-0.62
352.695	-2.62
353.483	-1.62
354.271	-1.62
355.059	0.38
355.846	0.38
356.634	0.38
357.422	0.38
358.209	0.38
358.997	-1.62
359.784	1.38
360.571	-2.62
361.359	0.38
362.146	-0.62
362.933	-0.62
363.72	1.38
364.507	-0.62
365.294	0.38
366.081	0.38
366.867	-1.62
367.654	-2.62
368.44	0.38
369.227	-1.62
370.013	0.38
370.8	-1.62
371.586	-2.62
372.372	1.38
373.158	2.38
373.944	-1.62
374.73	1.38
375.516	1.38
376.302	1.38
377.088	-0.62
377.873	0.38
378.659	0.38
379.445	-0.62
380.23	-1.62
381.015	1.38
381.801	-1.62
382.586	0.38
383.371	-1.62
384.156	-0.62
384.941	-1.62
385.726	-1.62
386.511	1.38
387.296	0.38
388.08	-2.62
388.865	-1.62
389.649	1.38
390.434	0.38
391.218	-0.62
392.003	-1.62
392.787	-1.62
393.571	-0.62
394.355	-0.62
395.139	0.38
395.923	0.38
396.707	-2.62
397.491	-1.62
398.274	-1.62
399.058	2.38
399.842	-1.62
400.625	-0.62
401.408	0.38
402.192	0.38
402.975	-0.62
403.758	0.38
404.541	-0.62
405.324	-0.62
406.107	-0.62
406.89	1.38
407.673	1.38
408.456	0.38
409.238	-1.62
410.021	-1.62
410.803	1.38
411.586	0.38
412.368	-1.62
413.151	-0.62
413.933	1.38
414.715	0.38
415.497	0.38
416.279	-0.62
417.061	-1.62
417.843	-0.62
418.624	-0.62
419.406	1.38
420.188	-0.62
420.969	-0.62
421.751	-0.62
422.532	-1.62
423.313	-1.62
424.095	0.38
424.876	-1.62
425.657	-1.62
426.438	-1.62
427.219	2.38
428	-1.62
428.78	0.38
429.561	-0.62
430.342	-2.62
431.122	-0.62
431.903	-1.62
432.683	0.38
433.464	-0.62
434.244	0.38
435.024	1.38
435.804	1.38
436.584	-0.62
437.364	0.38
438.144	0.38
438.924	0.38
439.704	-2.62
440.483	0.38
441.263	-0.62
442.042	0.38
442.822	0.38
443.601	0.38
444.38	0.38
445.16	-1.62
445.939	-0.62
446.718	0.38
447.497	0.38
448.276	0.38
449.054	1.38
449.833	-0.62
450.612	-0.62
451.391	2.38
452.169	0.38
452.948	-1.62
453.726	0.38
454.504	-0.62
455.282	-0.62
456.061	-0.62
456.839	1.38
457.617	1.38
458.395	0.38
459.172	-0.62
459.95	0.38
460.728	-1.62
461.506	-0.62
462.283	2.38
463.061	-1.62
463.838	-1.62
464.615	0.38
465.393	-1.62
466.17	-2.62
466.947	-0.62
467.724	0.38
468.501	-0.62
469.278	-1.62
470.055	2.38
470.831	-1.62
471.608	0.38
472.385	0.38
473.161	-1.62
473.938	0.38
474.714	-0.62
475.49	0.38
476.266	-1.62
477.043	-0.62
477.819	0.38
478.595	-1.62
479.371	0.38
480.146	-1.62
480.922	1.38
481.698	-1.62
482.473	-2.62
483.249	-0.62
484.024	0.38
484.8	-2.62
485.575	0.38
486.35	1.38
487.126	-0.62
487.901	0.38
488.676	1.38
489.451	-0.62
490.225	0.38
491	0.38
491.775	0.38
492.55	-0.62
493.324	0.38
494.099	-0.62
494.873	-0.62
495.647	-0.62
496.422	-1.62
497.196	-1.62
497.97	-1.62
498.744	-1.62
499.518	-1.62
500.292	-0.62
501.066	-0.62
501.839	1.38
502.613	-0.62
503.387	-0.62
504.16	-0.62
504.934	-0.62
505.707	-1.62
506.48	-1.62
507.253	0.38
508.027	-1.62
508.8	-1.62
509.573	-0.62
510.346	0.38
511.118	2.38
511.891	-2.62
512.664	1.38
513.437	-0.62
514.209	-1.62
514.982	-1.62
515.754	-0.62
516.526	0.38
517.298	-1.62
518.071	0.38
518.843	-0.62
519.615	1.38
520.387	0.38
521.159	-1.62
521.93	-1.62
522.702	-0.62
523.474	0.38
524.245	-1.62
525.017	-0.62
525.788	-0.62
526.56	-1.62
527.331	1.38
528.102	0.38
528.873	1.38
529.644	-1.62
530.415	-2.62
531.186	1.38
531.957	-2.62
532.728	0.38
533.498	-0.62
534.269	-0.62
535.039	0.38
535.81	0.38
536.58	1.38
537.351	-0.62
538.121	-0.62
538.891	0.38
539.661	-0.62
540.431	1.38
541.201	-0.62
541.971	0.38
542.741	-2.62
543.51	-1.62
544.28	-0.62
545.05	-0.62
545.819	-0.62
546.588	0.38
547.358	-0.62
548.127	0.38
548.896	0.38
549.665	1.38
550.434	0.38
551.203	0.38
551.972	1.38
552.741	0.38
553.51	0.38
554.278	0.38
555.047	0.38
555.815	-0.62
556.584	1.38
557.352	0.38
558.121	-1.62
558.889	1.38
559.657	-1.62
560.425	-0.62
561.193	0.38
561.961	-1.62
562.729	1.38
563.496	-0.62
564.264	-0.62
565.032	-1.62
565.799	0.38
566.567	-1.62
567.334	0.38
568.101	-0.62
568.869	-0.62
569.636	2.38
570.403	0.38
571.17	-0.62
571.937	0.38
572.704	0.38
573.471	1.38
574.237	-0.62
575.004	0.38
575.771	-0.62
576.537	-0.62
577.303	1.38
578.07	-2.62
578.836	0.38
579.602	-0.62
580.368	-1.62
581.134	0.38
581.9	-1.62
582.666	0.38
583.432	1.38
584.198	0.38
584.964	-0.62
585.729	2.38
586.495	0.38
587.26	0.38
588.025	1.38
588.791	0.38
589.556	2.38
590.321	0.38
591.086	0.38
591.851	2.38
592.616	2.38
593.381	1.38
594.146	1.38
594.911	-0.62
595.675	-1.62
596.44	-3.62
597.204	-0.62
597.969	-1.62
598.733	0.38
599.497	1.38
600.261	0.38
601.025	-1.62
601.79	0.38
602.553	-0.62
603.317	-0.62
604.081	0.38
604.845	-1.62
605.609	-1.62
606.372	0.38
607.136	0.38
607.899	0.38
608.662	-0.62
609.426	0.38
610.189	1.38
610.952	-0.62
611.715	0.38
612.478	0.38
613.241	1.38
614.004	0.38
614.767	-1.62
615.529	-0.62
616.292	-0.62
617.055	0.38
617.817	-1.62
618.579	0.38
619.342	1.38
620.104	-1.62
620.866	2.38
621.628	0.38
622.39	0.38
623.152	0.38
623.914	-1.62
624.676	-0.62
625.438	-1.62
626.199	2.38
626.961	-2.62
627.722	1.38
628.484	0.38
629.245	-1.62
630.006	-1.62
630.768	0.38
631.529	-1.62
632.29	0.38
633.051	1.38
633.812	0.38
634.573	-0.62
635.333	2.38
636.094	0.38
636.855	0.38
637.615	0.38
638.376	-1.62
639.136	-0.62
639.896	-2.62
640.657	0.38
641.417	0.38
642.177	-1.62
642.937	0.38
643.697	-1.62
644.457	-0.62
645.216	-1.62
645.976	-0.62
646.736	2.38
647.495	-0.62
648.255	-2.62
649.014	0.38
649.774	0.38
650.533	1.38
651.292	-1.62
652.051	1.38
652.81	-0.62
653.569	-1.62
654.328	-1.62
655.087	0.38
655.846	-1.62
656.604	1.38
657.363	0.38
658.121	-2.62
658.88	-1.62
659.638	-1.62
660.397	-1.62
661.155	1.38
661.913	0.38
662.671	2.38
663.429	0.38
664.187	1.38
664.945	0.38
665.703	-1.62
666.46	-0.62
667.218	-1.62
667.976	1.38
668.733	0.38
669.49	-0.62
670.248	-1.62
671.005	1.38
671.762	-0.62
672.519	-3.62
673.276	0.38
674.033	-0.62
674.79	-0.62
675.547	-0.62
676.304	0.38
677.06	2.38
677.817	0.38
678.574	1.38
679.33	-0.62
680.086	-0.62
680.843	0.38
681.599	0.38
682.355	-1.62
683.111	0.38
683.867	-2.62
684.623	0.38
685.379	-0.62
686.135	0.38
686.89	0.38
687.646	1.38
688.402	1.38
689.157	-0.62
689.912	0.38
690.668	1.38
691.423	-0.62
692.178	-0.62
692.933	2.38
693.688	1.38
694.443	-1.62
695.198	0.38
695.953	-1.62
696.708	0.38
697.462	1.38
698.217	1.38
698.972	0.38
699.726	-1.62
700.48	0.38
701.235	0.38
701.989	-2.62
702.743	-0.62
703.497	0.38
704.251	0.38
705.005	0.38
705.759	2.38
706.513	0.38
707.266	-1.62
708.02	-0.62
708.774	-1.62
709.527	0.38
710.28	-0.62
711.034	0.38
711.787	1.38
712.54	-0.62
713.293	-0.62
714.046	0.38
714.799	-0.62
715.552	-1.62
716.305	2.38
717.058	0.38
717.81	-0.62
718.563	-0.62
719.315	-0.62
720.068	-0.62
720.82	1.38
721.573	0.38
722.325	-1.62
723.077	-2.62
723.829	-0.62
724.581	0.38
725.333	1.38
726.085	0.38
726.836	-1.62
727.588	0.38
728.34	-2.62
729.091	1.38
729.843	-0.62
730.594	0.38
731.346	-1.62
732.097	0.38
732.848	-0.62
733.599	0.38
734.35	-0.62
735.101	-0.62
735.852	-0.62
736.603	0.38
737.354	-2.62
738.104	0.38
738.855	-0.62
739.605	-0.62
740.356	0.38
741.106	-0.62
741.856	0.38
742.607	-0.62
743.357	1.38
744.107	1.38
744.857	1.38
745.607	0.38
746.357	-1.62
747.106	-0.62
747.856	0.38
748.606	0.38
749.355	0.38
750.105	-0.62
750.854	0.38
751.603	-0.62
752.353	-0.62
753.102	-1.62
753.851	0.38
754.6	-0.62
755.349	1.38
756.098	2.38
756.847	0.38
757.595	1.38
758.344	-1.62
759.093	1.38
759.841	0.38
760.589	-0.62
761.338	-0.62
762.086	1.38
762.834	0.38
763.582	1.38
764.331	-1.62
765.079	0.38
765.826	-1.62
766.574	0.38
767.322	-1.62
768.07	-1.62
768.817	0.38
769.565	0.38
770.312	1.38
771.06	0.38
771.807	0.38
772.554	1.38
773.302	-3.62
774.049	1.38
774.796	-0.62
775.543	0.38
776.29	1.38
777.036	1.38
777.783	0.38
778.53	0.38
779.276	0.38
780.023	0.38
780.769	-0.62
781.516	-0.62
782.262	-0.62
783.008	1.38
783.754	-1.62
784.5	-0.62
785.246	0.38
785.992	-1.62
786.738	0.38
787.484	0.38
788.23	0.38
788.975	-0.62
789.721	-0.62
790.466	0.38
791.212	0.38
791.957	1.38
792.702	0.38
793.447	1.38
794.193	0.38
794.938	-0.62
795.683	1.38
796.427	-1.62
797.172	0.38
797.917	1.38
798.662	0.38
799.406	0.38
800.151	-0.62
800.895	2.38
801.64	0.38
802.384	-0.62
803.128	-1.62
803.872	-0.62
804.616	0.38
805.36	-0.62
806.104	0.38
806.848	-0.62
807.592	0.38
808.336	0.38
809.079	0.38
809.823	0.38
810.566	-1.62
811.31	0.38
812.053	-0.62
812.796	0.38
813.539	-1.62
814.283	-0.62
815.026	1.38
815.769	0.38
816.511	0.38
817.254	0.38
817.997	2.38
818.74	1.38
819.482	0.38
820.225	1.38
820.967	0.38
821.71	1.38
822.452	-0.62
823.194	-0.62
823.936	1.38
824.678	-1.62
825.42	-0.62
826.162	1.38
826.904	-0.62
827.646	0.38
828.388	0.38
829.129	-0.62
829.871	-0.62
830.612	-1.62
831.354	0.38
832.095	-1.62
832.836	-0.62
833.577	-0.62
834.319	1.38
835.06	0.38
835.801	-1.62
836.542	0.38
837.282	-1.62
838.023	-0.62
838.764	-0.62
839.504	2.38
840.245	1.38
840.985	-0.62
841.726	-0.62
842.466	-1.62
843.206	-0.62
843.946	-1.62
844.687	0.38
845.427	1.38
846.166	1.38
846.906	2.38
847.646	-1.62
848.386	2.38
849.125	0.38
849.865	0.38
850.605	-0.62
851.344	0.38
852.083	-0.62
852.823	0.38
853.562	0.38
854.301	0.38
855.04	0.38
855.779	1.38
856.518	-1.62
857.257	-0.62
857.995	2.38
858.734	-1.62
859.473	3.38
860.211	-1.62
860.95	0.38
861.688	-1.62
862.426	-0.62
863.165	-0.62
863.903	0.38
864.641	1.38
865.379	0.38
866.117	1.38
866.855	1.38
867.593	0.38
868.33	0.38
869.068	-0.62
869.806	1.38
870.543	2.38
871.28	0.38
872.018	0.38
872.755	-1.62
873.492	-0.62
874.229	-1.62
874.967	-1.62
875.703	-0.62
876.44	-2.62
877.177	2.38
877.914	-0.62
878.651	-1.62
879.387	-0.62
880.124	0.38
880.86	0.38
881.597	1.38
882.333	0.38
883.069	-1.62
883.806	-0.62
884.542	1.38
885.278	0.38
886.014	1.38
886.749	1.38
887.485	0.38
888.221	-0.62
888.957	-1.62
889.692	0.38
890.428	0.38
891.163	-1.62
891.899	-1.62
892.634	-0.62
893.369	-0.62
894.104	1.38
894.839	1.38
895.574	1.38
896.309	1.38
897.044	2.38
897.779	-0.62
898.514	-0.62
899.248	0.38
899.983	-0.62
900.717	0.38
901.452	-1.62
902.186	-1.62
902.92	1.38
903.654	-0.62
904.389	-1.62
905.123	2.38
905.857	-3.62
906.59	1.38
907.324	-0.62
908.058	-1.62
908.792	-1.62
909.525	1.38
910.259	-0.62
910.992	1.38
911.726	1.38
912.459	2.38
913.192	2.38
913.925	2.38
914.658	-1.62
915.391	1.38
916.124	-1.62
916.857	1.38
917.59	0.38
918.323	0.38
919.055	-2.62
919.788	-1.62
920.521	1.38
921.253	0.38
921.985	2.38
922.718	0.38
923.45	-0.62
924.182	0.38
924.914	-0.62
925.646	0.38
926.378	1.38
927.11	1.38
927.841	0.38
928.573	-2.62
929.305	0.38
930.036	-1.62
930.768	1.38
931.499	-1.62
932.23	1.38
932.962	-2.62
933.693	-0.62
934.424	0.38
935.155	0.38
935.886	-1.62
936.617	0.38
937.348	-1.62
938.078	1.38
938.809	-2.62
939.54	0.38
940.27	-0.62
941.001	-1.62
941.731	0.38
942.461	-0.62
943.191	0.38
943.922	1.38
944.652	-1.62
945.382	-0.62
946.112	0.38
946.841	1.38
947.571	-1.62
948.301	0.38
949.031	0.38
949.76	-0.62
950.49	0.38
951.219	-2.62
951.948	0.38
952.678	-0.62
953.407	1.38
954.136	0.38
954.865	-1.62
955.594	0.38
956.323	1.38
957.052	1.38
957.78	0.38
958.509	-1.62
959.238	1.38
959.966	0.38
960.695	-0.62
961.423	0.38
962.151	-0.62
962.88	0.38
963.608	0.38
964.336	1.38
965.064	-0.62
965.792	0.38
966.52	1.38
967.247	0.38
967.975	0.38
968.703	-0.62
969.43	3.38
970.158	-0.62
970.885	-1.62
971.613	-0.62
972.34	-0.62
973.067	-0.62
973.794	-0.62
974.521	-0.62
975.248	-1.62
975.975	-0.62
976.702	0.38
977.429	-0.62
978.156	-0.62
978.882	0.38
979.609	-0.62
980.335	0.38
981.062	1.38
981.788	-1.62
982.514	-0.62
983.24	-0.62
983.967	-1.62
984.693	-0.62
985.419	2.38
986.144	-1.62
986.87	-1.62
987.596	0.38
988.322	1.38
989.047	0.38
989.773	-1.62
990.498	0.38
991.224	-0.62
991.949	0.38
992.674	-0.62
993.399	0.38
994.124	1.38
994.849	-0.62
995.574	-1.62
996.299	1.38
997.024	1.38
997.749	0.38
998.473	-1.62
999.198	-1.62
999.922	-1.62
1000.647	-1.62
1001.371	3.38
1002.095	-1.62
1002.82	-2.62
1003.544	-0.62
1004.268	-1.62
1004.992	-3.62
1005.716	-1.62
1006.439	-3.62
1007.163	-2.62
1007.887	-0.62
1008.611	-0.62
1009.334	0.38
1010.058	1.38
1010.781	-0.62
1011.504	0.38
1012.228	1.38
1012.951	1.38
1013.674	0.38
1014.397	0.38
1015.12	-0.62
