节点500_425_QEPB04081__353__15-54-10-774.txt的数据

Date: Wed Nov 12 15:54:10 CST 2025
User: PC
Spectrometer: QEPB0408
触发模式: 0
积分时间 (秒): 1.000000E-2
Scans to average: 1
启用暗噪声校正: true
启用非线性校正: false
滑动平均宽度: 0
X轴模式: Wavelengths
Number of Pixels in Spectrum: 1044
>>>>>Begin Spectral Data<<<<<
220.843	3.38
221.644	1.38
222.444	3.38
223.244	2.38
224.045	3.38
224.845	6.38
225.645	2.38
226.445	2.38
227.245	5.38
228.045	4.38
228.845	2.38
229.645	4.38
230.444	4.38
231.244	5.38
232.043	6.38
232.843	3.38
233.642	6.38
234.442	3.38
235.241	4.38
236.04	5.38
236.839	6.38
237.638	4.38
238.437	6.38
239.236	7.38
240.035	7.38
240.833	6.38
241.632	6.38
242.43	7.38
243.229	7.38
244.027	7.38
244.826	10.38
245.624	10.38
246.422	8.38
247.22	10.38
248.018	8.38
248.816	7.38
249.614	7.38
250.412	9.38
251.21	10.38
252.007	9.38
252.805	11.38
253.602	10.38
254.4	9.38
255.197	10.38
255.994	9.38
256.791	11.38
257.589	14.38
258.386	10.38
259.183	14.38
259.979	13.38
260.776	15.38
261.573	14.38
262.37	13.38
263.166	14.38
263.963	16.38
264.759	17.38
265.556	14.38
266.352	16.38
267.148	17.38
267.944	17.38
268.74	20.38
269.536	18.38
270.332	21.38
271.128	20.38
271.924	19.38
272.719	23.38
273.515	18.38
274.311	25.38
275.106	23.38
275.901	22.38
276.697	22.38
277.492	22.38
278.287	23.38
279.082	23.38
279.877	22.38
280.672	25.38
281.467	24.38
282.262	24.38
283.056	23.38
283.851	21.38
284.646	24.38
285.44	23.38
286.234	23.38
287.029	23.38
287.823	25.38
288.617	21.38
289.411	21.38
290.205	25.38
290.999	21.38
291.793	20.38
292.587	22.38
293.381	23.38
294.174	23.38
294.968	22.38
295.761	19.38
296.555	18.38
297.348	20.38
298.141	21.38
298.935	21.38
299.728	20.38
300.521	17.38
301.314	17.38
302.107	17.38
302.899	18.38
303.692	16.38
304.485	14.38
305.277	17.38
306.07	15.38
306.862	17.38
307.655	16.38
308.447	15.38
309.239	15.38
310.031	13.38
310.823	15.38
311.615	13.38
312.407	15.38
313.199	10.38
313.991	12.38
314.783	11.38
315.574	11.38
316.366	13.38
317.157	11.38
317.949	11.38
318.74	9.38
319.531	11.38
320.322	8.38
321.113	11.38
321.904	12.38
322.695	11.38
323.486	11.38
324.277	11.38
325.068	10.38
325.858	9.38
326.649	8.38
327.439	7.38
328.23	10.38
329.02	8.38
329.81	8.38
330.6	5.38
331.391	10.38
332.181	8.38
332.971	8.38
333.76	10.38
334.55	5.38
335.34	10.38
336.13	9.38
336.919	11.38
337.709	9.38
338.498	7.38
339.287	8.38
340.077	7.38
340.866	7.38
341.655	10.38
342.444	6.38
343.233	10.38
344.022	8.38
344.811	9.38
345.6	8.38
346.388	7.38
347.177	8.38
347.965	7.38
348.754	7.38
349.542	7.38
350.33	7.38
351.119	7.38
351.907	8.38
352.695	7.38
353.483	8.38
354.271	8.38
355.059	7.38
355.846	8.38
356.634	8.38
357.422	8.38
358.209	6.38
358.997	6.38
359.784	7.38
360.571	6.38
361.359	7.38
362.146	4.38
362.933	8.38
363.72	7.38
364.507	6.38
365.294	6.38
366.081	9.38
366.867	7.38
367.654	4.38
368.44	6.38
369.227	9.38
370.013	7.38
370.8	6.38
371.586	5.38
372.372	7.38
373.158	6.38
373.944	7.38
374.73	5.38
375.516	5.38
376.302	8.38
377.088	6.38
377.873	4.38
378.659	7.38
379.445	6.38
380.23	7.38
381.015	5.38
381.801	5.38
382.586	6.38
383.371	5.38
384.156	9.38
384.941	5.38
385.726	7.38
386.511	6.38
387.296	2.38
388.08	8.38
388.865	8.38
389.649	7.38
390.434	5.38
391.218	8.38
392.003	6.38
392.787	10.38
393.571	9.38
394.355	7.38
395.139	7.38
395.923	10.38
396.707	10.38
397.491	11.38
398.274	11.38
399.058	10.38
399.842	9.38
400.625	8.38
401.408	9.38
402.192	10.38
402.975	8.38
403.758	8.38
404.541	8.38
405.324	10.38
406.107	9.38
406.89	8.38
407.673	10.38
408.456	11.38
409.238	10.38
410.021	10.38
410.803	10.38
411.586	14.38
412.368	11.38
413.151	12.38
413.933	11.38
414.715	12.38
415.497	12.38
416.279	13.38
417.061	10.38
417.843	13.38
418.624	14.38
419.406	13.38
420.188	13.38
420.969	16.38
421.751	15.38
422.532	14.38
423.313	17.38
424.095	14.38
424.876	15.38
425.657	18.38
426.438	15.38
427.219	19.38
428	19.38
428.78	16.38
429.561	20.38
430.342	17.38
431.122	21.38
431.903	20.38
432.683	23.38
433.464	22.38
434.244	24.38
435.024	26.38
435.804	23.38
436.584	28.38
437.364	26.38
438.144	29.38
438.924	30.38
439.704	31.38
440.483	36.38
441.263	36.38
442.042	36.38
442.822	40.38
443.601	40.38
444.38	46.38
445.16	47.38
445.939	52.38
446.718	54.38
447.497	63.38
448.276	65.38
449.054	72.38
449.833	80.38
450.612	85.38
451.391	93.38
452.169	105.38
452.948	109.38
453.726	126.38
454.504	142.38
455.282	154.38
456.061	172.38
456.839	193.38
457.617	209.38
458.395	238.38
459.172	266.38
459.95	289.38
460.728	326.38
461.506	361.38
462.283	396.38
463.061	451.38
463.838	505.38
464.615	558.38
465.393	626.38
466.17	692.38
466.947	772.38
467.724	871.38
468.501	966.38
469.278	1051.38
470.055	1175.38
470.831	1317.38
471.608	1451.38
472.385	1609.38
473.161	1766.38
473.938	1955.38
474.714	2137.38
475.49	2390.38
476.266	2615.38
477.043	2867.38
477.819	3175.38
478.595	3480.38
479.371	3832.38
480.146	4194.38
480.922	4581.38
481.698	5022.38
482.473	5504.38
483.249	6050.38
484.024	6578.38
484.8	7227.38
485.575	7859.38
486.35	8553.38
487.126	9327.38
487.901	10156.38
488.676	11040.38
489.451	12036.38
490.225	13037.38
491	14100.38
491.775	15279.38
492.55	16509.38
493.324	17779.38
494.099	18992.38
494.873	20284.38
495.647	21670.38
496.422	23058.38
497.196	24401.38
497.97	25961.38
498.744	27321.38
499.518	28682.38
500.292	29930.38
501.066	30934.38
501.839	32118.38
502.613	32969.38
503.387	33771.38
504.16	34367.38
504.934	34641.38
505.707	34736.38
506.48	34633.38
507.253	34501.38
508.027	34210.38
508.8	33722.38
509.573	33090.38
510.346	32311.38
511.118	31400.38
511.891	30467.38
512.664	29371.38
513.437	28251.38
514.209	27137.38
514.982	26124.38
515.754	25093.38
516.526	24069.38
517.298	23019.38
518.071	22102.38
518.843	21184.38
519.615	20284.38
520.387	19542.38
521.159	18770.38
521.93	18079.38
522.702	17332.38
523.474	16634.38
524.245	15951.38
525.017	15266.38
525.788	14555.38
526.56	13915.38
527.331	13288.38
528.102	12678.38
528.873	12078.38
529.644	11514.38
530.415	10984.38
531.186	10467.38
531.957	9944.38
532.728	9386.38
533.498	8884.38
534.269	8387.38
535.039	7961.38
535.81	7503.38
536.58	7105.38
537.351	6683.38
538.121	6309.38
538.891	6005.38
539.661	5713.38
540.431	5406.38
541.201	5067.38
541.971	4850.38
542.741	4591.38
543.51	4373.38
544.28	4130.38
545.05	3904.38
545.819	3753.38
546.588	3560.38
547.358	3355.38
548.127	3184.38
548.896	3038.38
549.665	2880.38
550.434	2745.38
551.203	2609.38
551.972	2473.38
552.741	2331.38
553.51	2200.38
554.278	2066.38
555.047	1961.38
555.815	1861.38
556.584	1749.38
557.352	1641.38
558.121	1547.38
558.889	1475.38
559.657	1407.38
560.425	1308.38
561.193	1228.38
561.961	1166.38
562.729	1101.38
563.496	1060.38
564.264	993.38
565.032	934.38
565.799	877.38
566.567	846.38
567.334	804.38
568.101	758.38
568.869	708.38
569.636	665.38
570.403	629.38
571.17	590.38
571.937	565.38
572.704	538.38
573.471	496.38
574.237	473.38
575.004	450.38
575.771	409.38
576.537	399.38
577.303	369.38
578.07	349.38
578.836	329.38
579.602	311.38
580.368	294.38
581.134	282.38
581.9	268.38
582.666	252.38
583.432	239.38
584.198	226.38
584.964	217.38
585.729	208.38
586.495	192.38
587.26	184.38
588.025	173.38
588.791	168.38
589.556	163.38
590.321	149.38
591.086	142.38
591.851	130.38
592.616	131.38
593.381	121.38
594.146	112.38
594.911	108.38
595.675	103.38
596.44	98.38
597.204	94.38
597.969	94.38
598.733	86.38
599.497	84.38
600.261	81.38
601.025	78.38
601.79	72.38
602.553	72.38
603.317	69.38
604.081	64.38
604.845	58.38
605.609	60.38
606.372	56.38
607.136	55.38
607.899	53.38
608.662	50.38
609.426	48.38
610.189	46.38
610.952	44.38
611.715	39.38
612.478	42.38
613.241	37.38
614.004	38.38
614.767	37.38
615.529	35.38
616.292	33.38
617.055	34.38
617.817	32.38
618.579	30.38
619.342	30.38
620.104	31.38
620.866	25.38
621.628	27.38
622.39	22.38
623.152	22.38
623.914	27.38
624.676	24.38
625.438	24.38
626.199	25.38
626.961	20.38
627.722	19.38
628.484	22.38
629.245	23.38
630.006	18.38
630.768	16.38
631.529	18.38
632.29	18.38
633.051	19.38
633.812	18.38
634.573	18.38
635.333	16.38
636.094	13.38
636.855	14.38
637.615	11.38
638.376	14.38
639.136	13.38
639.896	14.38
640.657	16.38
641.417	9.38
642.177	13.38
642.937	8.38
643.697	13.38
644.457	11.38
645.216	12.38
645.976	11.38
646.736	10.38
647.495	10.38
648.255	10.38
649.014	9.38
649.774	10.38
650.533	12.38
651.292	10.38
652.051	8.38
652.81	9.38
653.569	8.38
654.328	5.38
655.087	8.38
655.846	7.38
656.604	12.38
657.363	5.38
658.121	8.38
658.88	7.38
659.638	6.38
660.397	10.38
661.155	9.38
661.913	5.38
662.671	8.38
663.429	6.38
664.187	5.38
664.945	6.38
665.703	6.38
666.46	5.38
667.218	7.38
667.976	8.38
668.733	5.38
669.49	7.38
670.248	5.38
671.005	8.38
671.762	6.38
672.519	5.38
673.276	7.38
674.033	6.38
674.79	6.38
675.547	5.38
676.304	6.38
677.06	8.38
677.817	6.38
678.574	6.38
679.33	5.38
680.086	3.38
680.843	5.38
681.599	2.38
682.355	6.38
683.111	6.38
683.867	7.38
684.623	4.38
685.379	3.38
686.135	5.38
686.89	6.38
687.646	5.38
688.402	4.38
689.157	6.38
689.912	5.38
690.668	7.38
691.423	6.38
692.178	2.38
692.933	7.38
693.688	2.38
694.443	6.38
695.198	3.38
695.953	4.38
696.708	5.38
697.462	6.38
698.217	4.38
698.972	4.38
699.726	2.38
700.48	6.38
701.235	4.38
701.989	6.38
702.743	5.38
703.497	5.38
704.251	4.38
705.005	6.38
705.759	5.38
706.513	5.38
707.266	8.38
708.02	3.38
708.774	4.38
709.527	6.38
710.28	4.38
711.034	5.38
711.787	3.38
712.54	7.38
713.293	3.38
714.046	4.38
714.799	5.38
715.552	3.38
716.305	6.38
717.058	4.38
717.81	5.38
718.563	5.38
719.315	4.38
720.068	7.38
720.82	6.38
721.573	4.38
722.325	5.38
723.077	6.38
723.829	3.38
724.581	6.38
725.333	8.38
726.085	7.38
726.836	6.38
727.588	7.38
728.34	4.38
729.091	9.38
729.843	4.38
730.594	4.38
731.346	8.38
732.097	6.38
732.848	5.38
733.599	3.38
734.35	6.38
735.101	4.38
735.852	8.38
736.603	5.38
737.354	4.38
738.104	5.38
738.855	4.38
739.605	7.38
740.356	6.38
741.106	3.38
741.856	6.38
742.607	6.38
743.357	8.38
744.107	6.38
744.857	9.38
745.607	7.38
746.357	4.38
747.106	6.38
747.856	7.38
748.606	7.38
749.355	5.38
750.105	8.38
750.854	9.38
751.603	8.38
752.353	8.38
753.102	7.38
753.851	8.38
754.6	10.38
755.349	7.38
756.098	8.38
756.847	7.38
757.595	6.38
758.344	6.38
759.093	8.38
759.841	6.38
760.589	6.38
761.338	8.38
762.086	8.38
762.834	10.38
763.582	9.38
764.331	11.38
765.079	10.38
765.826	9.38
766.574	9.38
767.322	7.38
768.07	8.38
768.817	10.38
769.565	12.38
770.312	10.38
771.06	8.38
771.807	9.38
772.554	10.38
773.302	10.38
774.049	10.38
774.796	10.38
775.543	13.38
776.29	10.38
777.036	10.38
777.783	11.38
778.53	11.38
779.276	10.38
780.023	11.38
780.769	9.38
781.516	9.38
782.262	10.38
783.008	13.38
783.754	11.38
784.5	10.38
785.246	8.38
785.992	13.38
786.738	11.38
787.484	8.38
788.23	10.38
788.975	10.38
789.721	10.38
790.466	11.38
791.212	12.38
791.957	9.38
792.702	10.38
793.447	12.38
794.193	14.38
794.938	11.38
795.683	9.38
796.427	8.38
797.172	11.38
797.917	8.38
798.662	12.38
799.406	10.38
800.151	11.38
800.895	11.38
801.64	9.38
802.384	7.38
803.128	10.38
803.872	7.38
804.616	10.38
805.36	9.38
806.104	10.38
806.848	8.38
807.592	7.38
808.336	8.38
809.079	9.38
809.823	8.38
810.566	8.38
811.31	4.38
812.053	5.38
812.796	6.38
813.539	9.38
814.283	6.38
815.026	7.38
815.769	6.38
816.511	9.38
817.254	5.38
817.997	5.38
818.74	6.38
819.482	4.38
820.225	6.38
820.967	5.38
821.71	4.38
822.452	4.38
823.194	5.38
823.936	6.38
824.678	5.38
825.42	5.38
826.162	5.38
826.904	4.38
827.646	3.38
828.388	5.38
829.129	5.38
829.871	3.38
830.612	7.38
831.354	4.38
832.095	6.38
832.836	6.38
833.577	3.38
834.319	3.38
835.06	3.38
835.801	3.38
836.542	4.38
837.282	3.38
838.023	4.38
838.764	5.38
839.504	3.38
840.245	3.38
840.985	4.38
841.726	4.38
842.466	4.38
843.206	4.38
843.946	2.38
844.687	5.38
845.427	4.38
846.166	4.38
846.906	4.38
847.646	2.38
848.386	4.38
849.125	3.38
849.865	5.38
850.605	8.38
851.344	2.38
852.083	4.38
852.823	2.38
853.562	3.38
854.301	2.38
855.04	4.38
855.779	1.38
856.518	3.38
857.257	4.38
857.995	1.38
858.734	3.38
859.473	3.38
860.211	2.38
860.95	1.38
861.688	2.38
862.426	3.38
863.165	2.38
863.903	0.38
864.641	2.38
865.379	2.38
866.117	2.38
866.855	2.38
867.593	3.38
868.33	1.38
869.068	2.38
869.806	1.38
870.543	1.38
871.28	1.38
872.018	2.38
872.755	1.38
873.492	0.38
874.229	2.38
874.967	1.38
875.703	2.38
876.44	2.38
877.177	0.38
877.914	2.38
878.651	-0.62
879.387	-0.62
880.124	0.38
880.86	1.38
881.597	2.38
882.333	1.38
883.069	2.38
883.806	1.38
884.542	1.38
885.278	0.38
886.014	3.38
886.749	1.38
887.485	2.38
888.221	1.38
888.957	0.38
889.692	1.38
890.428	0.38
891.163	0.38
891.899	-0.62
892.634	1.38
893.369	1.38
894.104	0.38
894.839	2.38
895.574	0.38
896.309	0.38
897.044	0.38
897.779	2.38
898.514	-0.62
899.248	1.38
899.983	0.38
900.717	-0.62
901.452	2.38
902.186	0.38
902.92	-0.62
903.654	0.38
904.389	-1.62
905.123	2.38
905.857	-1.62
906.59	3.38
907.324	1.38
908.058	1.38
908.792	-0.62
909.525	0.38
910.259	0.38
910.992	-0.62
911.726	2.38
912.459	-1.62
913.192	-0.62
913.925	-0.62
914.658	-0.62
915.391	3.38
916.124	1.38
916.857	0.38
917.59	3.38
918.323	1.38
919.055	-1.62
919.788	-0.62
920.521	0.38
921.253	0.38
921.985	-0.62
922.718	0.38
923.45	1.38
924.182	0.38
924.914	1.38
925.646	0.38
926.378	-1.62
927.11	1.38
927.841	0.38
928.573	-0.62
929.305	0.38
930.036	-0.62
930.768	-0.62
931.499	0.38
932.23	2.38
932.962	1.38
933.693	0.38
934.424	0.38
935.155	-1.62
935.886	0.38
936.617	1.38
937.348	1.38
938.078	0.38
938.809	1.38
939.54	2.38
940.27	0.38
941.001	-1.62
941.731	0.38
942.461	0.38
943.191	1.38
943.922	0.38
944.652	2.38
945.382	1.38
946.112	1.38
946.841	-0.62
947.571	1.38
948.301	1.38
949.031	-0.62
949.76	-0.62
950.49	0.38
951.219	1.38
951.948	1.38
952.678	-0.62
953.407	1.38
954.136	-0.62
954.865	0.38
955.594	-0.62
956.323	-1.62
957.052	0.38
957.78	1.38
958.509	-0.62
959.238	0.38
959.966	0.38
960.695	0.38
961.423	3.38
962.151	0.38
962.88	2.38
963.608	-1.62
964.336	1.38
965.064	0.38
965.792	-0.62
966.52	-0.62
967.247	1.38
967.975	1.38
968.703	0.38
969.43	1.38
970.158	0.38
970.885	0.38
971.613	1.38
972.34	-1.62
973.067	2.38
973.794	2.38
974.521	-0.62
975.248	0.38
975.975	-0.62
976.702	-0.62
977.429	0.38
978.156	0.38
978.882	-0.62
979.609	2.38
980.335	1.38
981.062	0.38
981.788	2.38
982.514	0.38
983.24	-0.62
983.967	2.38
984.693	-0.62
985.419	-0.62
986.144	0.38
986.87	0.38
987.596	-1.62
988.322	-0.62
989.047	-0.62
989.773	-1.62
990.498	1.38
991.224	1.38
991.949	1.38
992.674	-1.62
993.399	0.38
994.124	1.38
994.849	-0.62
995.574	-0.62
996.299	0.38
997.024	2.38
997.749	-0.62
998.473	-1.62
999.198	1.38
999.922	1.38
1000.647	1.38
1001.371	3.38
1002.095	0.38
1002.82	-1.62
1003.544	0.38
1004.268	1.38
1004.992	1.38
1005.716	0.38
1006.439	3.38
1007.163	3.38
1007.887	1.38
1008.611	1.38
1009.334	0.38
1010.058	-0.62
1010.781	-1.62
1011.504	-1.62
1012.228	0.38
1012.951	-0.62
1013.674	0.38
1014.397	-1.62
1015.12	-0.62
