节点500_425_QEPB04081__138__15-50-36-292.txt的数据

Date: Wed Nov 12 15:50:36 CST 2025
User: PC
Spectrometer: QEPB0408
触发模式: 0
积分时间 (秒): 1.000000E-2
Scans to average: 1
启用暗噪声校正: true
启用非线性校正: false
滑动平均宽度: 0
X轴模式: Wavelengths
Number of Pixels in Spectrum: 1044
>>>>>Begin Spectral Data<<<<<
220.843	2.25
221.644	1.25
222.444	1.25
223.244	1.25
224.045	3.25
224.845	5.25
225.645	3.25
226.445	2.25
227.245	3.25
228.045	5.25
228.845	5.25
229.645	5.25
230.444	6.25
231.244	6.25
232.043	6.25
232.843	5.25
233.642	6.25
234.442	4.25
235.241	5.25
236.04	6.25
236.839	5.25
237.638	4.25
238.437	6.25
239.236	5.25
240.035	9.25
240.833	7.25
241.632	7.25
242.43	5.25
243.229	8.25
244.027	7.25
244.826	6.25
245.624	10.25
246.422	8.25
247.22	12.25
248.018	7.25
248.816	11.25
249.614	10.25
250.412	9.25
251.21	9.25
252.007	10.25
252.805	11.25
253.602	10.25
254.4	14.25
255.197	16.25
255.994	14.25
256.791	13.25
257.589	12.25
258.386	15.25
259.183	17.25
259.979	15.25
260.776	14.25
261.573	14.25
262.37	18.25
263.166	16.25
263.963	18.25
264.759	18.25
265.556	17.25
266.352	21.25
267.148	16.25
267.944	19.25
268.74	22.25
269.536	22.25
270.332	20.25
271.128	21.25
271.924	20.25
272.719	20.25
273.515	23.25
274.311	22.25
275.106	25.25
275.901	23.25
276.697	22.25
277.492	25.25
278.287	26.25
279.082	26.25
279.877	26.25
280.672	24.25
281.467	28.25
282.262	25.25
283.056	25.25
283.851	25.25
284.646	23.25
285.44	26.25
286.234	24.25
287.029	26.25
287.823	24.25
288.617	28.25
289.411	27.25
290.205	24.25
290.999	24.25
291.793	23.25
292.587	22.25
293.381	20.25
294.174	20.25
294.968	20.25
295.761	18.25
296.555	21.25
297.348	19.25
298.141	21.25
298.935	20.25
299.728	20.25
300.521	22.25
301.314	20.25
302.107	19.25
302.899	16.25
303.692	17.25
304.485	17.25
305.277	19.25
306.07	15.25
306.862	14.25
307.655	14.25
308.447	13.25
309.239	15.25
310.031	14.25
310.823	14.25
311.615	12.25
312.407	12.25
313.199	12.25
313.991	13.25
314.783	12.25
315.574	12.25
316.366	11.25
317.157	11.25
317.949	11.25
318.74	12.25
319.531	8.25
320.322	10.25
321.113	9.25
321.904	10.25
322.695	8.25
323.486	12.25
324.277	10.25
325.068	10.25
325.858	9.25
326.649	9.25
327.439	8.25
328.23	9.25
329.02	7.25
329.81	10.25
330.6	9.25
331.391	8.25
332.181	9.25
332.971	7.25
333.76	8.25
334.55	8.25
335.34	6.25
336.13	9.25
336.919	6.25
337.709	7.25
338.498	10.25
339.287	7.25
340.077	8.25
340.866	8.25
341.655	7.25
342.444	7.25
343.233	8.25
344.022	10.25
344.811	8.25
345.6	7.25
346.388	7.25
347.177	7.25
347.965	8.25
348.754	6.25
349.542	8.25
350.33	6.25
351.119	9.25
351.907	7.25
352.695	7.25
353.483	6.25
354.271	7.25
355.059	9.25
355.846	8.25
356.634	9.25
357.422	8.25
358.209	6.25
358.997	7.25
359.784	7.25
360.571	8.25
361.359	8.25
362.146	6.25
362.933	8.25
363.72	7.25
364.507	7.25
365.294	7.25
366.081	7.25
366.867	8.25
367.654	4.25
368.44	8.25
369.227	8.25
370.013	9.25
370.8	6.25
371.586	6.25
372.372	6.25
373.158	4.25
373.944	6.25
374.73	9.25
375.516	6.25
376.302	5.25
377.088	7.25
377.873	7.25
378.659	6.25
379.445	5.25
380.23	8.25
381.015	6.25
381.801	7.25
382.586	5.25
383.371	8.25
384.156	6.25
384.941	7.25
385.726	8.25
386.511	8.25
387.296	5.25
388.08	8.25
388.865	7.25
389.649	8.25
390.434	8.25
391.218	10.25
392.003	5.25
392.787	7.25
393.571	7.25
394.355	9.25
395.139	9.25
395.923	9.25
396.707	10.25
397.491	8.25
398.274	10.25
399.058	10.25
399.842	8.25
400.625	10.25
401.408	6.25
402.192	10.25
402.975	8.25
403.758	9.25
404.541	10.25
405.324	13.25
406.107	10.25
406.89	10.25
407.673	13.25
408.456	12.25
409.238	11.25
410.021	14.25
410.803	10.25
411.586	12.25
412.368	12.25
413.151	11.25
413.933	13.25
414.715	12.25
415.497	13.25
416.279	11.25
417.061	15.25
417.843	12.25
418.624	13.25
419.406	14.25
420.188	12.25
420.969	14.25
421.751	16.25
422.532	16.25
423.313	15.25
424.095	13.25
424.876	16.25
425.657	17.25
426.438	16.25
427.219	18.25
428	20.25
428.78	17.25
429.561	17.25
430.342	18.25
431.122	20.25
431.903	23.25
432.683	22.25
433.464	21.25
434.244	22.25
435.024	22.25
435.804	24.25
436.584	25.25
437.364	29.25
438.144	29.25
438.924	27.25
439.704	29.25
440.483	35.25
441.263	34.25
442.042	39.25
442.822	39.25
443.601	43.25
444.38	46.25
445.16	46.25
445.939	50.25
446.718	57.25
447.497	57.25
448.276	61.25
449.054	65.25
449.833	73.25
450.612	82.25
451.391	92.25
452.169	98.25
452.948	106.25
453.726	117.25
454.504	130.25
455.282	145.25
456.061	160.25
456.839	177.25
457.617	201.25
458.395	225.25
459.172	251.25
459.95	277.25
460.728	300.25
461.506	343.25
462.283	379.25
463.061	430.25
463.838	482.25
464.615	526.25
465.393	590.25
466.17	662.25
466.947	747.25
467.724	819.25
468.501	921.25
469.278	1023.25
470.055	1142.25
470.831	1265.25
471.608	1413.25
472.385	1561.25
473.161	1748.25
473.938	1948.25
474.714	2153.25
475.49	2364.25
476.266	2636.25
477.043	2900.25
477.819	3214.25
478.595	3552.25
479.371	3889.25
480.146	4291.25
480.922	4724.25
481.698	5202.25
482.473	5730.25
483.249	6293.25
484.024	6914.25
484.8	7605.25
485.575	8307.25
486.35	9104.25
487.126	9921.25
487.901	10870.25
488.676	11919.25
489.451	12988.25
490.225	14114.25
491	15306.25
491.775	16647.25
492.55	17951.25
493.324	19378.25
494.099	20777.25
494.873	22163.25
495.647	23704.25
496.422	25254.25
497.196	26759.25
497.97	28428.25
498.744	29805.25
499.518	31210.25
500.292	32333.25
501.066	33524.25
501.839	34684.25
502.613	35484.25
503.387	36060.25
504.16	36516.25
504.934	36715.25
505.707	36558.25
506.48	36435.25
507.253	35971.25
508.027	35415.25
508.8	34641.25
509.573	33819.25
510.346	32881.25
511.118	31886.25
511.891	30751.25
512.664	29574.25
513.437	28295.25
514.209	27084.25
514.982	26023.25
515.754	24941.25
516.526	23781.25
517.298	22772.25
518.071	21854.25
518.843	20911.25
519.615	20054.25
520.387	19258.25
521.159	18488.25
521.93	17828.25
522.702	17066.25
523.474	16456.25
524.245	15790.25
525.017	15034.25
525.788	14385.25
526.56	13612.25
527.331	13040.25
528.102	12421.25
528.873	11791.25
529.644	11218.25
530.415	10712.25
531.186	10175.25
531.957	9596.25
532.728	9100.25
533.498	8587.25
534.269	8090.25
535.039	7674.25
535.81	7268.25
536.58	6815.25
537.351	6422.25
538.121	6077.25
538.891	5784.25
539.661	5505.25
540.431	5197.25
541.201	4866.25
541.971	4657.25
542.741	4415.25
543.51	4187.25
544.28	3950.25
545.05	3803.25
545.819	3591.25
546.588	3422.25
547.358	3226.25
548.127	3050.25
548.896	2905.25
549.665	2747.25
550.434	2615.25
551.203	2494.25
551.972	2341.25
552.741	2229.25
553.51	2116.25
554.278	1984.25
555.047	1856.25
555.815	1770.25
556.584	1663.25
557.352	1574.25
558.121	1481.25
558.889	1398.25
559.657	1331.25
560.425	1245.25
561.193	1182.25
561.961	1109.25
562.729	1061.25
563.496	1002.25
564.264	950.25
565.032	898.25
565.799	858.25
566.567	802.25
567.334	750.25
568.101	706.25
568.869	667.25
569.636	634.25
570.403	604.25
571.17	551.25
571.937	534.25
572.704	505.25
573.471	477.25
574.237	454.25
575.004	422.25
575.771	401.25
576.537	369.25
577.303	348.25
578.07	329.25
578.836	317.25
579.602	293.25
580.368	281.25
581.134	263.25
581.9	253.25
582.666	231.25
583.432	223.25
584.198	211.25
584.964	208.25
585.729	195.25
586.495	185.25
587.26	174.25
588.025	171.25
588.791	160.25
589.556	150.25
590.321	141.25
591.086	136.25
591.851	126.25
592.616	121.25
593.381	119.25
594.146	108.25
594.911	100.25
595.675	101.25
596.44	99.25
597.204	91.25
597.969	89.25
598.733	84.25
599.497	77.25
600.261	73.25
601.025	75.25
601.79	70.25
602.553	67.25
603.317	66.25
604.081	61.25
604.845	61.25
605.609	54.25
606.372	54.25
607.136	52.25
607.899	45.25
608.662	49.25
609.426	45.25
610.189	49.25
610.952	44.25
611.715	42.25
612.478	40.25
613.241	39.25
614.004	38.25
614.767	35.25
615.529	34.25
616.292	35.25
617.055	29.25
617.817	29.25
618.579	28.25
619.342	27.25
620.104	29.25
620.866	27.25
621.628	27.25
622.39	23.25
623.152	23.25
623.914	20.25
624.676	24.25
625.438	22.25
626.199	22.25
626.961	21.25
627.722	21.25
628.484	19.25
629.245	19.25
630.006	20.25
630.768	18.25
631.529	16.25
632.29	18.25
633.051	14.25
633.812	17.25
634.573	14.25
635.333	15.25
636.094	15.25
636.855	13.25
637.615	14.25
638.376	13.25
639.136	12.25
639.896	12.25
640.657	11.25
641.417	12.25
642.177	12.25
642.937	12.25
643.697	10.25
644.457	10.25
645.216	9.25
645.976	7.25
646.736	12.25
647.495	10.25
648.255	10.25
649.014	10.25
649.774	10.25
650.533	9.25
651.292	8.25
652.051	9.25
652.81	11.25
653.569	8.25
654.328	6.25
655.087	8.25
655.846	10.25
656.604	5.25
657.363	8.25
658.121	10.25
658.88	5.25
659.638	9.25
660.397	7.25
661.155	6.25
661.913	6.25
662.671	8.25
663.429	7.25
664.187	10.25
664.945	8.25
665.703	6.25
666.46	6.25
667.218	7.25
667.976	7.25
668.733	7.25
669.49	5.25
670.248	9.25
671.005	6.25
671.762	7.25
672.519	3.25
673.276	6.25
674.033	7.25
674.79	6.25
675.547	5.25
676.304	6.25
677.06	7.25
677.817	6.25
678.574	6.25
679.33	5.25
680.086	4.25
680.843	6.25
681.599	4.25
682.355	4.25
683.111	7.25
683.867	5.25
684.623	5.25
685.379	5.25
686.135	4.25
686.89	6.25
687.646	6.25
688.402	7.25
689.157	4.25
689.912	4.25
690.668	6.25
691.423	7.25
692.178	3.25
692.933	5.25
693.688	4.25
694.443	5.25
695.198	6.25
695.953	3.25
696.708	3.25
697.462	5.25
698.217	2.25
698.972	5.25
699.726	4.25
700.48	2.25
701.235	6.25
701.989	4.25
702.743	2.25
703.497	5.25
704.251	4.25
705.005	5.25
705.759	5.25
706.513	7.25
707.266	2.25
708.02	6.25
708.774	5.25
709.527	6.25
710.28	7.25
711.034	3.25
711.787	5.25
712.54	6.25
713.293	6.25
714.046	6.25
714.799	6.25
715.552	5.25
716.305	4.25
717.058	3.25
717.81	3.25
718.563	6.25
719.315	6.25
720.068	3.25
720.82	7.25
721.573	5.25
722.325	7.25
723.077	6.25
723.829	6.25
724.581	6.25
725.333	4.25
726.085	5.25
726.836	7.25
727.588	3.25
728.34	5.25
729.091	4.25
729.843	7.25
730.594	3.25
731.346	7.25
732.097	5.25
732.848	4.25
733.599	8.25
734.35	6.25
735.101	6.25
735.852	5.25
736.603	7.25
737.354	6.25
738.104	6.25
738.855	6.25
739.605	7.25
740.356	8.25
741.106	7.25
741.856	7.25
742.607	8.25
743.357	7.25
744.107	8.25
744.857	5.25
745.607	8.25
746.357	6.25
747.106	5.25
747.856	7.25
748.606	5.25
749.355	5.25
750.105	7.25
750.854	7.25
751.603	6.25
752.353	7.25
753.102	7.25
753.851	7.25
754.6	9.25
755.349	8.25
756.098	9.25
756.847	9.25
757.595	8.25
758.344	10.25
759.093	7.25
759.841	8.25
760.589	9.25
761.338	10.25
762.086	8.25
762.834	9.25
763.582	10.25
764.331	9.25
765.079	8.25
765.826	9.25
766.574	8.25
767.322	10.25
768.07	10.25
768.817	10.25
769.565	8.25
770.312	12.25
771.06	8.25
771.807	12.25
772.554	9.25
773.302	12.25
774.049	8.25
774.796	10.25
775.543	12.25
776.29	10.25
777.036	9.25
777.783	9.25
778.53	13.25
779.276	12.25
780.023	11.25
780.769	12.25
781.516	12.25
782.262	12.25
783.008	12.25
783.754	12.25
784.5	10.25
785.246	11.25
785.992	11.25
786.738	11.25
787.484	12.25
788.23	9.25
788.975	12.25
789.721	10.25
790.466	13.25
791.212	11.25
791.957	9.25
792.702	12.25
793.447	8.25
794.193	10.25
794.938	10.25
795.683	11.25
796.427	10.25
797.172	13.25
797.917	10.25
798.662	8.25
799.406	11.25
800.151	9.25
800.895	10.25
801.64	10.25
802.384	8.25
803.128	9.25
803.872	9.25
804.616	9.25
805.36	10.25
806.104	9.25
806.848	7.25
807.592	8.25
808.336	8.25
809.079	7.25
809.823	8.25
810.566	8.25
811.31	6.25
812.053	7.25
812.796	2.25
813.539	7.25
814.283	5.25
815.026	6.25
815.769	5.25
816.511	5.25
817.254	8.25
817.997	3.25
818.74	7.25
819.482	6.25
820.225	5.25
820.967	8.25
821.71	5.25
822.452	5.25
823.194	4.25
823.936	4.25
824.678	6.25
825.42	3.25
826.162	4.25
826.904	5.25
827.646	5.25
828.388	4.25
829.129	5.25
829.871	6.25
830.612	3.25
831.354	6.25
832.095	5.25
832.836	3.25
833.577	3.25
834.319	3.25
835.06	4.25
835.801	3.25
836.542	4.25
837.282	5.25
838.023	5.25
838.764	6.25
839.504	2.25
840.245	5.25
840.985	5.25
841.726	4.25
842.466	3.25
843.206	4.25
843.946	3.25
844.687	1.25
845.427	3.25
846.166	3.25
846.906	1.25
847.646	3.25
848.386	4.25
849.125	4.25
849.865	2.25
850.605	4.25
851.344	1.25
852.083	4.25
852.823	1.25
853.562	1.25
854.301	3.25
855.04	3.25
855.779	2.25
856.518	2.25
857.257	0.25
857.995	2.25
858.734	2.25
859.473	0.25
860.211	2.25
860.95	0.25
861.688	2.25
862.426	1.25
863.165	2.25
863.903	1.25
864.641	1.25
865.379	2.25
866.117	1.25
866.855	2.25
867.593	3.25
868.33	-0.75
869.068	1.25
869.806	2.25
870.543	1.25
871.28	3.25
872.018	0.25
872.755	1.25
873.492	1.25
874.229	3.25
874.967	3.25
875.703	2.25
876.44	3.25
877.177	2.25
877.914	2.25
878.651	2.25
879.387	1.25
880.124	2.25
880.86	2.25
881.597	0.25
882.333	2.25
883.069	2.25
883.806	1.25
884.542	1.25
885.278	2.25
886.014	1.25
886.749	2.25
887.485	2.25
888.221	2.25
888.957	0.25
889.692	1.25
890.428	2.25
891.163	2.25
891.899	2.25
892.634	0.25
893.369	1.25
894.104	1.25
894.839	3.25
895.574	1.25
896.309	-0.75
897.044	0.25
897.779	2.25
898.514	1.25
899.248	-0.75
899.983	2.25
900.717	-0.75
901.452	-1.75
902.186	1.25
902.92	-0.75
903.654	0.25
904.389	0.25
905.123	3.25
905.857	-0.75
906.59	1.25
907.324	2.25
908.058	0.25
908.792	0.25
909.525	0.25
910.259	1.25
910.992	1.25
911.726	1.25
912.459	1.25
913.192	1.25
913.925	-1.75
914.658	2.25
915.391	1.25
916.124	2.25
916.857	0.25
917.59	-0.75
918.323	-2.75
919.055	-1.75
919.788	0.25
920.521	0.25
921.253	0.25
921.985	2.25
922.718	0.25
923.45	0.25
924.182	-1.75
924.914	1.25
925.646	1.25
926.378	2.25
927.11	-1.75
927.841	0.25
928.573	0.25
929.305	0.25
930.036	-0.75
930.768	1.25
931.499	-1.75
932.23	-0.75
932.962	0.25
933.693	0.25
934.424	-1.75
935.155	1.25
935.886	0.25
936.617	-0.75
937.348	-0.75
938.078	-0.75
938.809	1.25
939.54	-0.75
940.27	-1.75
941.001	0.25
941.731	0.25
942.461	-0.75
943.191	-0.75
943.922	-0.75
944.652	-1.75
945.382	-0.75
946.112	2.25
946.841	-1.75
947.571	1.25
948.301	-0.75
949.031	0.25
949.76	1.25
950.49	0.25
951.219	0.25
951.948	0.25
952.678	1.25
953.407	-0.75
954.136	0.25
954.865	0.25
955.594	-1.75
956.323	4.25
957.052	-0.75
957.78	1.25
958.509	2.25
959.238	0.25
959.966	-0.75
960.695	0.25
961.423	2.25
962.151	-1.75
962.88	2.25
963.608	-1.75
964.336	0.25
965.064	0.25
965.792	-0.75
966.52	0.25
967.247	-0.75
967.975	-0.75
968.703	-0.75
969.43	-0.75
970.158	2.25
970.885	-1.75
971.613	2.25
972.34	1.25
973.067	-1.75
973.794	1.25
974.521	0.25
975.248	2.25
975.975	-0.75
976.702	-1.75
977.429	0.25
978.156	0.25
978.882	-1.75
979.609	-1.75
980.335	1.25
981.062	1.25
981.788	0.25
982.514	0.25
983.24	1.25
983.967	0.25
984.693	1.25
985.419	2.25
986.144	1.25
986.87	2.25
987.596	0.25
988.322	-1.75
989.047	-1.75
989.773	0.25
990.498	0.25
991.224	-0.75
991.949	0.25
992.674	-0.75
993.399	2.25
994.124	1.25
994.849	-0.75
995.574	-0.75
996.299	0.25
997.024	-2.75
997.749	1.25
998.473	-1.75
999.198	0.25
999.922	0.25
1000.647	-0.75
1001.371	4.25
1002.095	0.25
1002.82	-1.75
1003.544	-1.75
1004.268	3.25
1004.992	2.25
1005.716	2.25
1006.439	2.25
1007.163	3.25
1007.887	2.25
1008.611	1.25
1009.334	1.25
1010.058	1.25
1010.781	2.25
1011.504	0.25
1012.228	2.25
1012.951	0.25
1013.674	0.25
1014.397	-1.75
1015.12	0.25
