节点500_425_QEPB04081__336__15-53-53-802.txt的数据

Date: Wed Nov 12 15:53:53 CST 2025
User: PC
Spectrometer: QEPB0408
触发模式: 0
积分时间 (秒): 1.000000E-2
Scans to average: 1
启用暗噪声校正: true
启用非线性校正: false
滑动平均宽度: 0
X轴模式: Wavelengths
Number of Pixels in Spectrum: 1044
>>>>>Begin Spectral Data<<<<<
220.843	3.62
221.644	2.62
222.444	0.62
223.244	4.62
224.045	2.62
224.845	3.62
225.645	5.62
226.445	2.62
227.245	4.62
228.045	2.62
228.845	4.62
229.645	3.62
230.444	3.62
231.244	5.62
232.043	6.62
232.843	8.62
233.642	5.62
234.442	5.62
235.241	5.62
236.04	6.62
236.839	4.62
237.638	5.62
238.437	9.62
239.236	8.62
240.035	7.62
240.833	4.62
241.632	5.62
242.43	5.62
243.229	7.62
244.027	7.62
244.826	7.62
245.624	10.62
246.422	6.62
247.22	8.62
248.018	8.62
248.816	7.62
249.614	12.62
250.412	9.62
251.21	11.62
252.007	9.62
252.805	10.62
253.602	11.62
254.4	12.62
255.197	11.62
255.994	11.62
256.791	13.62
257.589	12.62
258.386	11.62
259.183	14.62
259.979	14.62
260.776	14.62
261.573	14.62
262.37	11.62
263.166	14.62
263.963	17.62
264.759	13.62
265.556	16.62
266.352	20.62
267.148	19.62
267.944	18.62
268.74	19.62
269.536	20.62
270.332	20.62
271.128	21.62
271.924	20.62
272.719	22.62
273.515	21.62
274.311	22.62
275.106	22.62
275.901	23.62
276.697	23.62
277.492	22.62
278.287	24.62
279.082	24.62
279.877	24.62
280.672	23.62
281.467	23.62
282.262	26.62
283.056	25.62
283.851	27.62
284.646	26.62
285.44	24.62
286.234	24.62
287.029	22.62
287.823	23.62
288.617	25.62
289.411	25.62
290.205	22.62
290.999	24.62
291.793	25.62
292.587	24.62
293.381	20.62
294.174	23.62
294.968	20.62
295.761	22.62
296.555	19.62
297.348	18.62
298.141	22.62
298.935	20.62
299.728	18.62
300.521	17.62
301.314	17.62
302.107	17.62
302.899	17.62
303.692	19.62
304.485	11.62
305.277	17.62
306.07	14.62
306.862	17.62
307.655	14.62
308.447	15.62
309.239	16.62
310.031	14.62
310.823	16.62
311.615	13.62
312.407	12.62
313.199	14.62
313.991	13.62
314.783	13.62
315.574	10.62
316.366	11.62
317.157	13.62
317.949	13.62
318.74	11.62
319.531	8.62
320.322	11.62
321.113	10.62
321.904	12.62
322.695	11.62
323.486	10.62
324.277	11.62
325.068	10.62
325.858	9.62
326.649	9.62
327.439	8.62
328.23	9.62
329.02	9.62
329.81	11.62
330.6	9.62
331.391	12.62
332.181	9.62
332.971	7.62
333.76	9.62
334.55	7.62
335.34	8.62
336.13	10.62
336.919	10.62
337.709	7.62
338.498	7.62
339.287	8.62
340.077	9.62
340.866	9.62
341.655	7.62
342.444	8.62
343.233	8.62
344.022	7.62
344.811	8.62
345.6	9.62
346.388	8.62
347.177	8.62
347.965	7.62
348.754	7.62
349.542	7.62
350.33	7.62
351.119	8.62
351.907	8.62
352.695	7.62
353.483	5.62
354.271	7.62
355.059	9.62
355.846	9.62
356.634	7.62
357.422	7.62
358.209	9.62
358.997	6.62
359.784	8.62
360.571	6.62
361.359	9.62
362.146	4.62
362.933	5.62
363.72	8.62
364.507	8.62
365.294	7.62
366.081	7.62
366.867	6.62
367.654	9.62
368.44	7.62
369.227	10.62
370.013	7.62
370.8	5.62
371.586	6.62
372.372	6.62
373.158	7.62
373.944	6.62
374.73	6.62
375.516	6.62
376.302	5.62
377.088	9.62
377.873	3.62
378.659	8.62
379.445	6.62
380.23	6.62
381.015	9.62
381.801	5.62
382.586	8.62
383.371	8.62
384.156	7.62
384.941	7.62
385.726	7.62
386.511	10.62
387.296	5.62
388.08	8.62
388.865	5.62
389.649	7.62
390.434	8.62
391.218	7.62
392.003	8.62
392.787	8.62
393.571	8.62
394.355	7.62
395.139	10.62
395.923	9.62
396.707	8.62
397.491	9.62
398.274	8.62
399.058	7.62
399.842	9.62
400.625	10.62
401.408	7.62
402.192	9.62
402.975	9.62
403.758	9.62
404.541	10.62
405.324	8.62
406.107	6.62
406.89	12.62
407.673	11.62
408.456	11.62
409.238	11.62
410.021	11.62
410.803	11.62
411.586	10.62
412.368	10.62
413.151	11.62
413.933	12.62
414.715	13.62
415.497	11.62
416.279	14.62
417.061	11.62
417.843	13.62
418.624	13.62
419.406	14.62
420.188	16.62
420.969	13.62
421.751	12.62
422.532	14.62
423.313	16.62
424.095	15.62
424.876	16.62
425.657	16.62
426.438	15.62
427.219	17.62
428	14.62
428.78	19.62
429.561	18.62
430.342	16.62
431.122	18.62
431.903	23.62
432.683	19.62
433.464	22.62
434.244	24.62
435.024	28.62
435.804	26.62
436.584	26.62
437.364	28.62
438.144	28.62
438.924	30.62
439.704	35.62
440.483	35.62
441.263	36.62
442.042	40.62
442.822	42.62
443.601	43.62
444.38	48.62
445.16	49.62
445.939	54.62
446.718	56.62
447.497	66.62
448.276	68.62
449.054	74.62
449.833	82.62
450.612	86.62
451.391	96.62
452.169	101.62
452.948	113.62
453.726	121.62
454.504	138.62
455.282	152.62
456.061	172.62
456.839	188.62
457.617	212.62
458.395	228.62
459.172	262.62
459.95	295.62
460.728	321.62
461.506	358.62
462.283	400.62
463.061	450.62
463.838	506.62
464.615	564.62
465.393	620.62
466.17	702.62
466.947	775.62
467.724	872.62
468.501	952.62
469.278	1065.62
470.055	1174.62
470.831	1305.62
471.608	1447.62
472.385	1600.62
473.161	1760.62
473.938	1955.62
474.714	2157.62
475.49	2371.62
476.266	2630.62
477.043	2891.62
477.819	3167.62
478.595	3472.62
479.371	3828.62
480.146	4201.62
480.922	4596.62
481.698	5038.62
482.473	5524.62
483.249	6048.62
484.024	6603.62
484.8	7230.62
485.575	7922.62
486.35	8600.62
487.126	9393.62
487.901	10191.62
488.676	11093.62
489.451	12067.62
490.225	13110.62
491	14200.62
491.775	15347.62
492.55	16603.62
493.324	17871.62
494.099	19114.62
494.873	20429.62
495.647	21864.62
496.422	23139.62
497.196	24624.62
497.97	26154.62
498.744	27465.62
499.518	28804.62
500.292	30074.62
501.066	31213.62
501.839	32320.62
502.613	33237.62
503.387	33870.62
504.16	34541.62
504.934	34859.62
505.707	34883.62
506.48	34887.62
507.253	34651.62
508.027	34329.62
508.8	33747.62
509.573	33163.62
510.346	32331.62
511.118	31365.62
511.891	30486.62
512.664	29396.62
513.437	28307.62
514.209	27176.62
514.982	26122.62
515.754	25128.62
516.526	24007.62
517.298	23067.62
518.071	22044.62
518.843	21115.62
519.615	20261.62
520.387	19482.62
521.159	18742.62
521.93	18061.62
522.702	17304.62
523.474	16642.62
524.245	15980.62
525.017	15231.62
525.788	14548.62
526.56	13885.62
527.331	13244.62
528.102	12694.62
528.873	12071.62
529.644	11471.62
530.415	10971.62
531.186	10440.62
531.957	9888.62
532.728	9397.62
533.498	8852.62
534.269	8401.62
535.039	7938.62
535.81	7492.62
536.58	7064.62
537.351	6678.62
538.121	6314.62
538.891	6000.62
539.661	5648.62
540.431	5393.62
541.201	5074.62
541.971	4848.62
542.741	4569.62
543.51	4351.62
544.28	4142.62
545.05	3920.62
545.819	3732.62
546.588	3554.62
547.358	3374.62
548.127	3180.62
548.896	3036.62
549.665	2889.62
550.434	2750.62
551.203	2608.62
551.972	2458.62
552.741	2318.62
553.51	2194.62
554.278	2068.62
555.047	1949.62
555.815	1844.62
556.584	1758.62
557.352	1653.62
558.121	1544.62
558.889	1452.62
559.657	1379.62
560.425	1305.62
561.193	1234.62
561.961	1170.62
562.729	1113.62
563.496	1048.62
564.264	989.62
565.032	942.62
565.799	883.62
566.567	849.62
567.334	795.62
568.101	749.62
568.869	707.62
569.636	661.62
570.403	625.62
571.17	591.62
571.937	555.62
572.704	523.62
573.471	496.62
574.237	469.62
575.004	441.62
575.771	420.62
576.537	394.62
577.303	378.62
578.07	346.62
578.836	325.62
579.602	312.62
580.368	298.62
581.134	285.62
581.9	272.62
582.666	253.62
583.432	245.62
584.198	225.62
584.964	221.62
585.729	204.62
586.495	192.62
587.26	180.62
588.025	176.62
588.791	172.62
589.556	152.62
590.321	148.62
591.086	142.62
591.851	134.62
592.616	126.62
593.381	121.62
594.146	113.62
594.911	108.62
595.675	102.62
596.44	97.62
597.204	95.62
597.969	90.62
598.733	90.62
599.497	81.62
600.261	80.62
601.025	78.62
601.79	74.62
602.553	72.62
603.317	64.62
604.081	67.62
604.845	61.62
605.609	58.62
606.372	59.62
607.136	52.62
607.899	49.62
608.662	50.62
609.426	47.62
610.189	46.62
610.952	45.62
611.715	45.62
612.478	43.62
613.241	36.62
614.004	35.62
614.767	38.62
615.529	36.62
616.292	36.62
617.055	34.62
617.817	29.62
618.579	34.62
619.342	30.62
620.104	28.62
620.866	28.62
621.628	28.62
622.39	28.62
623.152	25.62
623.914	24.62
624.676	25.62
625.438	20.62
626.199	23.62
626.961	20.62
627.722	19.62
628.484	20.62
629.245	19.62
630.006	19.62
630.768	18.62
631.529	15.62
632.29	20.62
633.051	16.62
633.812	15.62
634.573	16.62
635.333	16.62
636.094	14.62
636.855	18.62
637.615	12.62
638.376	16.62
639.136	14.62
639.896	12.62
640.657	12.62
641.417	14.62
642.177	10.62
642.937	14.62
643.697	13.62
644.457	11.62
645.216	14.62
645.976	9.62
646.736	12.62
647.495	11.62
648.255	11.62
649.014	11.62
649.774	12.62
650.533	12.62
651.292	8.62
652.051	13.62
652.81	13.62
653.569	8.62
654.328	8.62
655.087	9.62
655.846	8.62
656.604	9.62
657.363	8.62
658.121	7.62
658.88	9.62
659.638	6.62
660.397	6.62
661.155	10.62
661.913	7.62
662.671	7.62
663.429	9.62
664.187	9.62
664.945	6.62
665.703	10.62
666.46	9.62
667.218	6.62
667.976	5.62
668.733	4.62
669.49	7.62
670.248	8.62
671.005	7.62
671.762	3.62
672.519	8.62
673.276	5.62
674.033	7.62
674.79	5.62
675.547	5.62
676.304	6.62
677.06	4.62
677.817	6.62
678.574	5.62
679.33	6.62
680.086	6.62
680.843	6.62
681.599	6.62
682.355	5.62
683.111	5.62
683.867	5.62
684.623	4.62
685.379	7.62
686.135	4.62
686.89	4.62
687.646	4.62
688.402	5.62
689.157	4.62
689.912	6.62
690.668	4.62
691.423	6.62
692.178	5.62
692.933	5.62
693.688	3.62
694.443	5.62
695.198	7.62
695.953	5.62
696.708	4.62
697.462	4.62
698.217	4.62
698.972	5.62
699.726	3.62
700.48	4.62
701.235	6.62
701.989	4.62
702.743	5.62
703.497	5.62
704.251	2.62
705.005	3.62
705.759	7.62
706.513	4.62
707.266	7.62
708.02	7.62
708.774	3.62
709.527	4.62
710.28	5.62
711.034	6.62
711.787	4.62
712.54	5.62
713.293	4.62
714.046	4.62
714.799	7.62
715.552	6.62
716.305	8.62
717.058	4.62
717.81	5.62
718.563	7.62
719.315	4.62
720.068	6.62
720.82	6.62
721.573	3.62
722.325	4.62
723.077	3.62
723.829	6.62
724.581	4.62
725.333	6.62
726.085	5.62
726.836	5.62
727.588	5.62
728.34	6.62
729.091	6.62
729.843	3.62
730.594	5.62
731.346	4.62
732.097	4.62
732.848	5.62
733.599	5.62
734.35	5.62
735.101	6.62
735.852	4.62
736.603	7.62
737.354	5.62
738.104	7.62
738.855	5.62
739.605	7.62
740.356	4.62
741.106	6.62
741.856	4.62
742.607	7.62
743.357	7.62
744.107	7.62
744.857	6.62
745.607	4.62
746.357	9.62
747.106	10.62
747.856	8.62
748.606	7.62
749.355	7.62
750.105	6.62
750.854	7.62
751.603	5.62
752.353	9.62
753.102	8.62
753.851	7.62
754.6	8.62
755.349	8.62
756.098	10.62
756.847	8.62
757.595	8.62
758.344	7.62
759.093	7.62
759.841	8.62
760.589	9.62
761.338	9.62
762.086	7.62
762.834	9.62
763.582	10.62
764.331	10.62
765.079	8.62
765.826	11.62
766.574	10.62
767.322	9.62
768.07	7.62
768.817	11.62
769.565	11.62
770.312	10.62
771.06	10.62
771.807	7.62
772.554	9.62
773.302	12.62
774.049	8.62
774.796	11.62
775.543	12.62
776.29	12.62
777.036	9.62
777.783	11.62
778.53	10.62
779.276	11.62
780.023	13.62
780.769	12.62
781.516	10.62
782.262	10.62
783.008	12.62
783.754	11.62
784.5	12.62
785.246	11.62
785.992	12.62
786.738	12.62
787.484	12.62
788.23	11.62
788.975	11.62
789.721	10.62
790.466	11.62
791.212	12.62
791.957	10.62
792.702	11.62
793.447	13.62
794.193	9.62
794.938	9.62
795.683	10.62
796.427	10.62
797.172	9.62
797.917	10.62
798.662	8.62
799.406	11.62
800.151	10.62
800.895	10.62
801.64	10.62
802.384	8.62
803.128	10.62
803.872	7.62
804.616	9.62
805.36	8.62
806.104	9.62
806.848	9.62
807.592	7.62
808.336	8.62
809.079	9.62
809.823	6.62
810.566	8.62
811.31	8.62
812.053	6.62
812.796	6.62
813.539	8.62
814.283	5.62
815.026	8.62
815.769	8.62
816.511	4.62
817.254	6.62
817.997	5.62
818.74	5.62
819.482	4.62
820.225	6.62
820.967	5.62
821.71	5.62
822.452	6.62
823.194	6.62
823.936	6.62
824.678	3.62
825.42	4.62
826.162	6.62
826.904	5.62
827.646	5.62
828.388	5.62
829.129	5.62
829.871	4.62
830.612	3.62
831.354	4.62
832.095	5.62
832.836	6.62
833.577	3.62
834.319	4.62
835.06	5.62
835.801	5.62
836.542	3.62
837.282	5.62
838.023	4.62
838.764	5.62
839.504	4.62
840.245	5.62
840.985	5.62
841.726	2.62
842.466	4.62
843.206	3.62
843.946	4.62
844.687	4.62
845.427	3.62
846.166	4.62
846.906	4.62
847.646	3.62
848.386	4.62
849.125	4.62
849.865	3.62
850.605	3.62
851.344	3.62
852.083	4.62
852.823	4.62
853.562	2.62
854.301	4.62
855.04	0.62
855.779	1.62
856.518	3.62
857.257	3.62
857.995	3.62
858.734	4.62
859.473	5.62
860.211	4.62
860.95	1.62
861.688	3.62
862.426	2.62
863.165	4.62
863.903	0.62
864.641	1.62
865.379	1.62
866.117	3.62
866.855	3.62
867.593	3.62
868.33	3.62
869.068	3.62
869.806	1.62
870.543	1.62
871.28	2.62
872.018	1.62
872.755	0.62
873.492	3.62
874.229	0.62
874.967	0.62
875.703	1.62
876.44	0.62
877.177	1.62
877.914	-1.38
878.651	1.62
879.387	2.62
880.124	0.62
880.86	1.62
881.597	4.62
882.333	3.62
883.069	2.62
883.806	-0.38
884.542	1.62
885.278	1.62
886.014	0.62
886.749	0.62
887.485	0.62
888.221	1.62
888.957	0.62
889.692	1.62
890.428	1.62
891.163	2.62
891.899	-0.38
892.634	1.62
893.369	2.62
894.104	0.62
894.839	0.62
895.574	0.62
896.309	1.62
897.044	2.62
897.779	0.62
898.514	3.62
899.248	1.62
899.983	0.62
900.717	0.62
901.452	2.62
902.186	1.62
902.92	0.62
903.654	0.62
904.389	0.62
905.123	0.62
905.857	1.62
906.59	0.62
907.324	2.62
908.058	1.62
908.792	2.62
909.525	1.62
910.259	-0.38
910.992	0.62
911.726	2.62
912.459	1.62
913.192	0.62
913.925	-0.38
914.658	1.62
915.391	-2.38
916.124	0.62
916.857	0.62
917.59	0.62
918.323	-0.38
919.055	-0.38
919.788	1.62
920.521	0.62
921.253	0.62
921.985	1.62
922.718	0.62
923.45	0.62
924.182	-1.38
924.914	1.62
925.646	0.62
926.378	1.62
927.11	-1.38
927.841	1.62
928.573	1.62
929.305	0.62
930.036	1.62
930.768	-0.38
931.499	0.62
932.23	1.62
932.962	-0.38
933.693	1.62
934.424	0.62
935.155	1.62
935.886	0.62
936.617	-0.38
937.348	0.62
938.078	0.62
938.809	1.62
939.54	-0.38
940.27	-0.38
941.001	0.62
941.731	-0.38
942.461	1.62
943.191	-0.38
943.922	1.62
944.652	1.62
945.382	-1.38
946.112	-0.38
946.841	1.62
947.571	-1.38
948.301	1.62
949.031	2.62
949.76	0.62
950.49	-1.38
951.219	1.62
951.948	-1.38
952.678	2.62
953.407	0.62
954.136	-1.38
954.865	-1.38
955.594	0.62
956.323	2.62
957.052	0.62
957.78	2.62
958.509	1.62
959.238	0.62
959.966	-1.38
960.695	-0.38
961.423	-0.38
962.151	-0.38
962.88	-2.38
963.608	0.62
964.336	0.62
965.064	0.62
965.792	0.62
966.52	1.62
967.247	-1.38
967.975	-0.38
968.703	3.62
969.43	-0.38
970.158	1.62
970.885	0.62
971.613	-1.38
972.34	-1.38
973.067	0.62
973.794	1.62
974.521	-0.38
975.248	-1.38
975.975	0.62
976.702	0.62
977.429	1.62
978.156	-1.38
978.882	2.62
979.609	0.62
980.335	0.62
981.062	1.62
981.788	-0.38
982.514	1.62
983.24	2.62
983.967	0.62
984.693	-0.38
985.419	-0.38
986.144	-2.38
986.87	-0.38
987.596	1.62
988.322	0.62
989.047	0.62
989.773	0.62
990.498	0.62
991.224	0.62
991.949	1.62
992.674	1.62
993.399	2.62
994.124	0.62
994.849	-0.38
995.574	-0.38
996.299	1.62
997.024	-1.38
997.749	-0.38
998.473	-1.38
999.198	2.62
999.922	-0.38
1000.647	-1.38
1001.371	1.62
1002.095	1.62
1002.82	-1.38
1003.544	0.62
1004.268	2.62
1004.992	1.62
1005.716	1.62
1006.439	0.62
1007.163	2.62
1007.887	4.62
1008.611	0.62
1009.334	1.62
1010.058	-0.38
1010.781	0.62
1011.504	1.62
1012.228	3.62
1012.951	-0.38
1013.674	0.62
1014.397	-3.38
1015.12	0.62
