节点500_425_QEPB04081__632__15-58-49-425.txt的数据

Date: Wed Nov 12 15:58:49 CST 2025
User: PC
Spectrometer: QEPB0408
触发模式: 0
积分时间 (秒): 1.000000E-2
Scans to average: 1
启用暗噪声校正: true
启用非线性校正: false
滑动平均宽度: 0
X轴模式: Wavelengths
Number of Pixels in Spectrum: 1044
>>>>>Begin Spectral Data<<<<<
220.843	0.88
221.644	3.88
222.444	2.88
223.244	3.88
224.045	2.88
224.845	3.88
225.645	3.88
226.445	4.88
227.245	4.88
228.045	4.88
228.845	4.88
229.645	4.88
230.444	6.88
231.244	5.88
232.043	6.88
232.843	3.88
233.642	4.88
234.442	6.88
235.241	6.88
236.04	5.88
236.839	7.88
237.638	4.88
238.437	4.88
239.236	7.88
240.035	6.88
240.833	6.88
241.632	4.88
242.43	6.88
243.229	6.88
244.027	8.88
244.826	6.88
245.624	6.88
246.422	10.88
247.22	8.88
248.018	8.88
248.816	9.88
249.614	8.88
250.412	8.88
251.21	10.88
252.007	10.88
252.805	9.88
253.602	10.88
254.4	10.88
255.197	13.88
255.994	12.88
256.791	11.88
257.589	11.88
258.386	12.88
259.183	10.88
259.979	12.88
260.776	13.88
261.573	13.88
262.37	13.88
263.166	13.88
263.963	12.88
264.759	15.88
265.556	13.88
266.352	15.88
267.148	14.88
267.944	17.88
268.74	15.88
269.536	18.88
270.332	17.88
271.128	18.88
271.924	18.88
272.719	17.88
273.515	20.88
274.311	20.88
275.106	21.88
275.901	21.88
276.697	20.88
277.492	18.88
278.287	21.88
279.082	24.88
279.877	22.88
280.672	18.88
281.467	21.88
282.262	21.88
283.056	21.88
283.851	23.88
284.646	26.88
285.44	23.88
286.234	22.88
287.029	21.88
287.823	22.88
288.617	23.88
289.411	24.88
290.205	21.88
290.999	21.88
291.793	18.88
292.587	21.88
293.381	19.88
294.174	22.88
294.968	21.88
295.761	20.88
296.555	22.88
297.348	20.88
298.141	18.88
298.935	20.88
299.728	15.88
300.521	16.88
301.314	18.88
302.107	14.88
302.899	15.88
303.692	17.88
304.485	17.88
305.277	17.88
306.07	16.88
306.862	14.88
307.655	15.88
308.447	15.88
309.239	12.88
310.031	15.88
310.823	13.88
311.615	13.88
312.407	15.88
313.199	12.88
313.991	13.88
314.783	12.88
315.574	13.88
316.366	8.88
317.157	14.88
317.949	10.88
318.74	9.88
319.531	11.88
320.322	8.88
321.113	12.88
321.904	9.88
322.695	9.88
323.486	9.88
324.277	9.88
325.068	9.88
325.858	7.88
326.649	10.88
327.439	8.88
328.23	8.88
329.02	8.88
329.81	9.88
330.6	10.88
331.391	8.88
332.181	7.88
332.971	7.88
333.76	9.88
334.55	9.88
335.34	7.88
336.13	9.88
336.919	6.88
337.709	9.88
338.498	9.88
339.287	5.88
340.077	8.88
340.866	8.88
341.655	6.88
342.444	8.88
343.233	6.88
344.022	8.88
344.811	7.88
345.6	6.88
346.388	6.88
347.177	7.88
347.965	11.88
348.754	8.88
349.542	6.88
350.33	7.88
351.119	9.88
351.907	6.88
352.695	7.88
353.483	6.88
354.271	8.88
355.059	9.88
355.846	8.88
356.634	5.88
357.422	5.88
358.209	6.88
358.997	7.88
359.784	6.88
360.571	9.88
361.359	4.88
362.146	5.88
362.933	8.88
363.72	7.88
364.507	8.88
365.294	5.88
366.081	5.88
366.867	7.88
367.654	3.88
368.44	8.88
369.227	7.88
370.013	6.88
370.8	3.88
371.586	4.88
372.372	6.88
373.158	5.88
373.944	7.88
374.73	7.88
375.516	7.88
376.302	8.88
377.088	5.88
377.873	8.88
378.659	6.88
379.445	7.88
380.23	8.88
381.015	6.88
381.801	8.88
382.586	7.88
383.371	8.88
384.156	6.88
384.941	6.88
385.726	6.88
386.511	5.88
387.296	8.88
388.08	7.88
388.865	6.88
389.649	8.88
390.434	8.88
391.218	8.88
392.003	6.88
392.787	7.88
393.571	7.88
394.355	7.88
395.139	8.88
395.923	5.88
396.707	10.88
397.491	9.88
398.274	12.88
399.058	10.88
399.842	6.88
400.625	8.88
401.408	9.88
402.192	8.88
402.975	7.88
403.758	7.88
404.541	9.88
405.324	7.88
406.107	11.88
406.89	10.88
407.673	13.88
408.456	12.88
409.238	9.88
410.021	10.88
410.803	9.88
411.586	11.88
412.368	10.88
413.151	11.88
413.933	12.88
414.715	11.88
415.497	13.88
416.279	12.88
417.061	13.88
417.843	10.88
418.624	13.88
419.406	12.88
420.188	15.88
420.969	13.88
421.751	15.88
422.532	13.88
423.313	16.88
424.095	12.88
424.876	15.88
425.657	15.88
426.438	17.88
427.219	16.88
428	16.88
428.78	19.88
429.561	16.88
430.342	18.88
431.122	20.88
431.903	19.88
432.683	21.88
433.464	21.88
434.244	21.88
435.024	22.88
435.804	25.88
436.584	28.88
437.364	29.88
438.144	25.88
438.924	31.88
439.704	35.88
440.483	33.88
441.263	40.88
442.042	42.88
442.822	43.88
443.601	43.88
444.38	46.88
445.16	51.88
445.939	56.88
446.718	62.88
447.497	65.88
448.276	69.88
449.054	77.88
449.833	87.88
450.612	95.88
451.391	105.88
452.169	109.88
452.948	122.88
453.726	135.88
454.504	154.88
455.282	167.88
456.061	182.88
456.839	200.88
457.617	232.88
458.395	250.88
459.172	278.88
459.95	320.88
460.728	347.88
461.506	389.88
462.283	433.88
463.061	481.88
463.838	548.88
464.615	601.88
465.393	662.88
466.17	746.88
466.947	812.88
467.724	901.88
468.501	998.88
469.278	1106.88
470.055	1209.88
470.831	1346.88
471.608	1490.88
472.385	1622.88
473.161	1805.88
473.938	1963.88
474.714	2167.88
475.49	2361.88
476.266	2590.88
477.043	2835.88
477.819	3132.88
478.595	3410.88
479.371	3725.88
480.146	4044.88
480.922	4427.88
481.698	4826.88
482.473	5223.88
483.249	5698.88
484.024	6210.88
484.8	6771.88
485.575	7310.88
486.35	7933.88
487.126	8580.88
487.901	9309.88
488.676	10097.88
489.451	10888.88
490.225	11774.88
491	12719.88
491.775	13742.88
492.55	14782.88
493.324	15817.88
494.099	16961.88
494.873	18004.88
495.647	19251.88
496.422	20409.88
497.196	21679.88
497.97	22977.88
498.744	24222.88
499.518	25500.88
500.292	26688.88
501.066	27668.88
501.839	28839.88
502.613	29854.88
503.387	30569.88
504.16	31383.88
504.934	31909.88
505.707	32108.88
506.48	32305.88
507.253	32381.88
508.027	32286.88
508.8	32079.88
509.573	31731.88
510.346	31150.88
511.118	30491.88
511.891	29815.88
512.664	28899.88
513.437	28060.88
514.209	27010.88
514.982	26092.88
515.754	25209.88
516.526	24233.88
517.298	23279.88
518.071	22393.88
518.843	21424.88
519.615	20632.88
520.387	19808.88
521.159	18991.88
521.93	18332.88
522.702	17590.88
523.474	16936.88
524.245	16288.88
525.017	15550.88
525.788	14859.88
526.56	14250.88
527.331	13611.88
528.102	13047.88
528.873	12486.88
529.644	11881.88
530.415	11361.88
531.186	10815.88
531.957	10340.88
532.728	9794.88
533.498	9254.88
534.269	8780.88
535.039	8328.88
535.81	7916.88
536.58	7470.88
537.351	7072.88
538.121	6701.88
538.891	6306.88
539.661	5986.88
540.431	5678.88
541.201	5346.88
541.971	5099.88
542.741	4842.88
543.51	4589.88
544.28	4367.88
545.05	4162.88
545.819	3941.88
546.588	3778.88
547.358	3563.88
548.127	3390.88
548.896	3226.88
549.665	3057.88
550.434	2892.88
551.203	2763.88
551.972	2616.88
552.741	2478.88
553.51	2343.88
554.278	2228.88
555.047	2087.88
555.815	1991.88
556.584	1858.88
557.352	1765.88
558.121	1661.88
558.889	1579.88
559.657	1494.88
560.425	1420.88
561.193	1322.88
561.961	1273.88
562.729	1203.88
563.496	1137.88
564.264	1075.88
565.032	1015.88
565.799	961.88
566.567	897.88
567.334	855.88
568.101	814.88
568.869	760.88
569.636	718.88
570.403	683.88
571.17	643.88
571.937	603.88
572.704	560.88
573.471	554.88
574.237	505.88
575.004	471.88
575.771	450.88
576.537	417.88
577.303	393.88
578.07	372.88
578.836	356.88
579.602	336.88
580.368	314.88
581.134	303.88
581.9	283.88
582.666	268.88
583.432	260.88
584.198	249.88
584.964	238.88
585.729	221.88
586.495	209.88
587.26	201.88
588.025	187.88
588.791	173.88
589.556	171.88
590.321	158.88
591.086	154.88
591.851	143.88
592.616	137.88
593.381	132.88
594.146	125.88
594.911	118.88
595.675	112.88
596.44	104.88
597.204	101.88
597.969	97.88
598.733	94.88
599.497	90.88
600.261	85.88
601.025	82.88
601.79	80.88
602.553	73.88
603.317	72.88
604.081	65.88
604.845	63.88
605.609	63.88
606.372	63.88
607.136	56.88
607.899	53.88
608.662	54.88
609.426	52.88
610.189	49.88
610.952	51.88
611.715	45.88
612.478	43.88
613.241	40.88
614.004	41.88
614.767	38.88
615.529	38.88
616.292	37.88
617.055	34.88
617.817	35.88
618.579	32.88
619.342	29.88
620.104	31.88
620.866	30.88
621.628	29.88
622.39	24.88
623.152	25.88
623.914	28.88
624.676	26.88
625.438	24.88
626.199	20.88
626.961	23.88
627.722	22.88
628.484	20.88
629.245	21.88
630.006	18.88
630.768	16.88
631.529	15.88
632.29	16.88
633.051	17.88
633.812	17.88
634.573	15.88
635.333	16.88
636.094	14.88
636.855	14.88
637.615	14.88
638.376	17.88
639.136	15.88
639.896	14.88
640.657	13.88
641.417	14.88
642.177	13.88
642.937	13.88
643.697	11.88
644.457	11.88
645.216	11.88
645.976	9.88
646.736	10.88
647.495	9.88
648.255	12.88
649.014	9.88
649.774	9.88
650.533	10.88
651.292	9.88
652.051	8.88
652.81	11.88
653.569	9.88
654.328	10.88
655.087	7.88
655.846	8.88
656.604	6.88
657.363	7.88
658.121	6.88
658.88	8.88
659.638	8.88
660.397	7.88
661.155	7.88
661.913	6.88
662.671	6.88
663.429	7.88
664.187	5.88
664.945	7.88
665.703	8.88
666.46	4.88
667.218	2.88
667.976	7.88
668.733	11.88
669.49	5.88
670.248	5.88
671.005	6.88
671.762	5.88
672.519	4.88
673.276	5.88
674.033	5.88
674.79	5.88
675.547	5.88
676.304	7.88
677.06	7.88
677.817	5.88
678.574	6.88
679.33	4.88
680.086	6.88
680.843	3.88
681.599	5.88
682.355	4.88
683.111	5.88
683.867	5.88
684.623	7.88
685.379	4.88
686.135	7.88
686.89	4.88
687.646	4.88
688.402	4.88
689.157	5.88
689.912	5.88
690.668	4.88
691.423	3.88
692.178	4.88
692.933	3.88
693.688	4.88
694.443	6.88
695.198	5.88
695.953	6.88
696.708	4.88
697.462	5.88
698.217	2.88
698.972	5.88
699.726	4.88
700.48	4.88
701.235	5.88
701.989	2.88
702.743	6.88
703.497	6.88
704.251	4.88
705.005	1.88
705.759	3.88
706.513	4.88
707.266	5.88
708.02	5.88
708.774	5.88
709.527	5.88
710.28	3.88
711.034	3.88
711.787	4.88
712.54	6.88
713.293	2.88
714.046	4.88
714.799	5.88
715.552	6.88
716.305	5.88
717.058	3.88
717.81	4.88
718.563	6.88
719.315	3.88
720.068	1.88
720.82	6.88
721.573	5.88
722.325	5.88
723.077	3.88
723.829	3.88
724.581	4.88
725.333	3.88
726.085	3.88
726.836	6.88
727.588	6.88
728.34	4.88
729.091	6.88
729.843	6.88
730.594	4.88
731.346	3.88
732.097	5.88
732.848	4.88
733.599	4.88
734.35	7.88
735.101	6.88
735.852	4.88
736.603	3.88
737.354	6.88
738.104	3.88
738.855	7.88
739.605	4.88
740.356	6.88
741.106	7.88
741.856	6.88
742.607	8.88
743.357	4.88
744.107	7.88
744.857	5.88
745.607	4.88
746.357	7.88
747.106	4.88
747.856	7.88
748.606	6.88
749.355	5.88
750.105	6.88
750.854	5.88
751.603	6.88
752.353	7.88
753.102	8.88
753.851	6.88
754.6	7.88
755.349	9.88
756.098	6.88
756.847	9.88
757.595	7.88
758.344	9.88
759.093	9.88
759.841	9.88
760.589	8.88
761.338	8.88
762.086	10.88
762.834	7.88
763.582	7.88
764.331	9.88
765.079	6.88
765.826	8.88
766.574	9.88
767.322	10.88
768.07	9.88
768.817	9.88
769.565	8.88
770.312	6.88
771.06	8.88
771.807	10.88
772.554	9.88
773.302	8.88
774.049	6.88
774.796	9.88
775.543	10.88
776.29	11.88
777.036	9.88
777.783	9.88
778.53	10.88
779.276	9.88
780.023	9.88
780.769	9.88
781.516	11.88
782.262	11.88
783.008	11.88
783.754	12.88
784.5	11.88
785.246	11.88
785.992	10.88
786.738	10.88
787.484	12.88
788.23	11.88
788.975	10.88
789.721	11.88
790.466	11.88
791.212	9.88
791.957	10.88
792.702	9.88
793.447	9.88
794.193	10.88
794.938	9.88
795.683	9.88
796.427	8.88
797.172	10.88
797.917	11.88
798.662	8.88
799.406	9.88
800.151	8.88
800.895	7.88
801.64	10.88
802.384	9.88
803.128	9.88
803.872	7.88
804.616	8.88
805.36	8.88
806.104	6.88
806.848	5.88
807.592	7.88
808.336	5.88
809.079	6.88
809.823	8.88
810.566	5.88
811.31	7.88
812.053	5.88
812.796	6.88
813.539	5.88
814.283	7.88
815.026	6.88
815.769	6.88
816.511	4.88
817.254	5.88
817.997	7.88
818.74	5.88
819.482	7.88
820.225	3.88
820.967	5.88
821.71	6.88
822.452	5.88
823.194	7.88
823.936	5.88
824.678	7.88
825.42	3.88
826.162	5.88
826.904	6.88
827.646	3.88
828.388	7.88
829.129	4.88
829.871	4.88
830.612	3.88
831.354	3.88
832.095	4.88
832.836	5.88
833.577	6.88
834.319	3.88
835.06	3.88
835.801	2.88
836.542	3.88
837.282	5.88
838.023	7.88
838.764	5.88
839.504	4.88
840.245	5.88
840.985	0.88
841.726	1.88
842.466	2.88
843.206	4.88
843.946	4.88
844.687	3.88
845.427	4.88
846.166	3.88
846.906	3.88
847.646	4.88
848.386	2.88
849.125	4.88
849.865	4.88
850.605	1.88
851.344	4.88
852.083	2.88
852.823	2.88
853.562	5.88
854.301	5.88
855.04	4.88
855.779	1.88
856.518	4.88
857.257	4.88
857.995	2.88
858.734	4.88
859.473	4.88
860.211	3.88
860.95	1.88
861.688	0.88
862.426	2.88
863.165	3.88
863.903	0.88
864.641	2.88
865.379	3.88
866.117	2.88
866.855	-0.12
867.593	2.88
868.33	4.88
869.068	4.88
869.806	2.88
870.543	2.88
871.28	1.88
872.018	2.88
872.755	3.88
873.492	2.88
874.229	3.88
874.967	1.88
875.703	2.88
876.44	0.88
877.177	2.88
877.914	2.88
878.651	0.88
879.387	1.88
880.124	3.88
880.86	1.88
881.597	1.88
882.333	1.88
883.069	1.88
883.806	-0.12
884.542	1.88
885.278	1.88
886.014	2.88
886.749	0.88
887.485	0.88
888.221	0.88
888.957	0.88
889.692	0.88
890.428	2.88
891.163	0.88
891.899	1.88
892.634	-1.12
893.369	1.88
894.104	-2.12
894.839	0.88
895.574	0.88
896.309	-2.12
897.044	1.88
897.779	1.88
898.514	2.88
899.248	-0.12
899.983	-0.12
900.717	1.88
901.452	-0.12
902.186	1.88
902.92	-0.12
903.654	3.88
904.389	1.88
905.123	-1.12
905.857	3.88
906.59	1.88
907.324	1.88
908.058	1.88
908.792	-0.12
909.525	2.88
910.259	-0.12
910.992	1.88
911.726	1.88
912.459	2.88
913.192	2.88
913.925	2.88
914.658	-0.12
915.391	4.88
916.124	-0.12
916.857	1.88
917.59	0.88
918.323	-0.12
919.055	-0.12
919.788	0.88
920.521	1.88
921.253	0.88
921.985	1.88
922.718	-2.12
923.45	-1.12
924.182	-0.12
924.914	-0.12
925.646	-1.12
926.378	1.88
927.11	1.88
927.841	1.88
928.573	0.88
929.305	1.88
930.036	0.88
930.768	-0.12
931.499	-0.12
932.23	0.88
932.962	-0.12
933.693	0.88
934.424	0.88
935.155	1.88
935.886	0.88
936.617	-0.12
937.348	0.88
938.078	0.88
938.809	-1.12
939.54	-0.12
940.27	-0.12
941.001	-1.12
941.731	0.88
942.461	1.88
943.191	-1.12
943.922	0.88
944.652	0.88
945.382	-1.12
946.112	2.88
946.841	1.88
947.571	0.88
948.301	2.88
949.031	-0.12
949.76	-0.12
950.49	1.88
951.219	-1.12
951.948	-0.12
952.678	1.88
953.407	0.88
954.136	1.88
954.865	0.88
955.594	1.88
956.323	-1.12
957.052	0.88
957.78	-0.12
958.509	0.88
959.238	-0.12
959.966	1.88
960.695	-1.12
961.423	0.88
962.151	0.88
962.88	-1.12
963.608	0.88
964.336	0.88
965.064	-0.12
965.792	1.88
966.52	-0.12
967.247	0.88
967.975	1.88
968.703	2.88
969.43	0.88
970.158	-0.12
970.885	-0.12
971.613	0.88
972.34	-1.12
973.067	-1.12
973.794	0.88
974.521	0.88
975.248	-0.12
975.975	1.88
976.702	0.88
977.429	-0.12
978.156	2.88
978.882	-0.12
979.609	-0.12
980.335	-0.12
981.062	2.88
981.788	-0.12
982.514	0.88
983.24	-1.12
983.967	-1.12
984.693	-0.12
985.419	-1.12
986.144	0.88
986.87	0.88
987.596	0.88
988.322	0.88
989.047	-2.12
989.773	2.88
990.498	-1.12
991.224	0.88
991.949	0.88
992.674	-0.12
993.399	0.88
994.124	0.88
994.849	0.88
995.574	-0.12
996.299	0.88
997.024	-0.12
997.749	0.88
998.473	1.88
999.198	0.88
999.922	1.88
1000.647	-0.12
1001.371	3.88
1002.095	-1.12
1002.82	0.88
1003.544	-1.12
1004.268	1.88
1004.992	2.88
1005.716	2.88
1006.439	-0.12
1007.163	2.88
1007.887	2.88
1008.611	-1.12
1009.334	1.88
1010.058	2.88
1010.781	0.88
1011.504	-0.12
1012.228	-0.12
1012.951	0.88
1013.674	-2.12
1014.397	-0.12
1015.12	-1.12
