节点500_425_QEPB04081__72__15-49-30-372.txt的数据

Date: Wed Nov 12 15:49:30 CST 2025
User: PC
Spectrometer: QEPB0408
触发模式: 0
积分时间 (秒): 1.000000E-2
Scans to average: 1
启用暗噪声校正: true
启用非线性校正: false
滑动平均宽度: 0
X轴模式: Wavelengths
Number of Pixels in Spectrum: 1044
>>>>>Begin Spectral Data<<<<<
220.843	4.62
221.644	2.62
222.444	3.62
223.244	4.62
224.045	4.62
224.845	2.62
225.645	3.62
226.445	6.62
227.245	2.62
228.045	6.62
228.845	2.62
229.645	5.62
230.444	4.62
231.244	3.62
232.043	5.62
232.843	3.62
233.642	5.62
234.442	7.62
235.241	7.62
236.04	7.62
236.839	6.62
237.638	9.62
238.437	8.62
239.236	5.62
240.035	10.62
240.833	6.62
241.632	7.62
242.43	8.62
243.229	8.62
244.027	8.62
244.826	7.62
245.624	9.62
246.422	7.62
247.22	8.62
248.018	9.62
248.816	9.62
249.614	10.62
250.412	9.62
251.21	11.62
252.007	10.62
252.805	11.62
253.602	12.62
254.4	12.62
255.197	12.62
255.994	12.62
256.791	13.62
257.589	12.62
258.386	15.62
259.183	16.62
259.979	16.62
260.776	17.62
261.573	15.62
262.37	17.62
263.166	16.62
263.963	18.62
264.759	18.62
265.556	16.62
266.352	19.62
267.148	18.62
267.944	18.62
268.74	23.62
269.536	22.62
270.332	23.62
271.128	21.62
271.924	23.62
272.719	21.62
273.515	26.62
274.311	22.62
275.106	26.62
275.901	26.62
276.697	26.62
277.492	25.62
278.287	26.62
279.082	26.62
279.877	26.62
280.672	25.62
281.467	27.62
282.262	30.62
283.056	29.62
283.851	26.62
284.646	24.62
285.44	24.62
286.234	26.62
287.029	26.62
287.823	24.62
288.617	23.62
289.411	26.62
290.205	23.62
290.999	24.62
291.793	23.62
292.587	24.62
293.381	25.62
294.174	24.62
294.968	23.62
295.761	19.62
296.555	18.62
297.348	18.62
298.141	18.62
298.935	25.62
299.728	17.62
300.521	20.62
301.314	16.62
302.107	13.62
302.899	15.62
303.692	15.62
304.485	17.62
305.277	16.62
306.07	17.62
306.862	15.62
307.655	18.62
308.447	16.62
309.239	14.62
310.031	17.62
310.823	15.62
311.615	14.62
312.407	14.62
313.199	13.62
313.991	12.62
314.783	13.62
315.574	10.62
316.366	10.62
317.157	12.62
317.949	11.62
318.74	11.62
319.531	9.62
320.322	8.62
321.113	9.62
321.904	11.62
322.695	7.62
323.486	10.62
324.277	8.62
325.068	10.62
325.858	10.62
326.649	10.62
327.439	9.62
328.23	10.62
329.02	9.62
329.81	8.62
330.6	13.62
331.391	9.62
332.181	10.62
332.971	12.62
333.76	10.62
334.55	8.62
335.34	8.62
336.13	10.62
336.919	8.62
337.709	9.62
338.498	9.62
339.287	8.62
340.077	7.62
340.866	7.62
341.655	8.62
342.444	7.62
343.233	8.62
344.022	8.62
344.811	6.62
345.6	8.62
346.388	7.62
347.177	6.62
347.965	8.62
348.754	8.62
349.542	8.62
350.33	8.62
351.119	9.62
351.907	9.62
352.695	7.62
353.483	9.62
354.271	8.62
355.059	9.62
355.846	7.62
356.634	6.62
357.422	10.62
358.209	8.62
358.997	6.62
359.784	8.62
360.571	9.62
361.359	4.62
362.146	8.62
362.933	7.62
363.72	8.62
364.507	11.62
365.294	7.62
366.081	8.62
366.867	8.62
367.654	5.62
368.44	7.62
369.227	5.62
370.013	8.62
370.8	6.62
371.586	5.62
372.372	7.62
373.158	5.62
373.944	7.62
374.73	6.62
375.516	9.62
376.302	6.62
377.088	7.62
377.873	8.62
378.659	6.62
379.445	6.62
380.23	8.62
381.015	8.62
381.801	6.62
382.586	7.62
383.371	8.62
384.156	5.62
384.941	8.62
385.726	7.62
386.511	6.62
387.296	8.62
388.08	8.62
388.865	9.62
389.649	7.62
390.434	8.62
391.218	8.62
392.003	10.62
392.787	7.62
393.571	9.62
394.355	7.62
395.139	10.62
395.923	8.62
396.707	8.62
397.491	6.62
398.274	8.62
399.058	7.62
399.842	11.62
400.625	10.62
401.408	10.62
402.192	7.62
402.975	9.62
403.758	10.62
404.541	10.62
405.324	8.62
406.107	9.62
406.89	10.62
407.673	12.62
408.456	12.62
409.238	12.62
410.021	12.62
410.803	10.62
411.586	12.62
412.368	12.62
413.151	11.62
413.933	12.62
414.715	11.62
415.497	12.62
416.279	12.62
417.061	17.62
417.843	15.62
418.624	13.62
419.406	15.62
420.188	15.62
420.969	14.62
421.751	14.62
422.532	17.62
423.313	14.62
424.095	16.62
424.876	17.62
425.657	15.62
426.438	15.62
427.219	17.62
428	18.62
428.78	17.62
429.561	21.62
430.342	21.62
431.122	21.62
431.903	19.62
432.683	20.62
433.464	23.62
434.244	24.62
435.024	22.62
435.804	26.62
436.584	24.62
437.364	28.62
438.144	30.62
438.924	32.62
439.704	31.62
440.483	33.62
441.263	37.62
442.042	36.62
442.822	40.62
443.601	42.62
444.38	45.62
445.16	48.62
445.939	53.62
446.718	56.62
447.497	61.62
448.276	62.62
449.054	71.62
449.833	71.62
450.612	79.62
451.391	87.62
452.169	94.62
452.948	107.62
453.726	118.62
454.504	130.62
455.282	144.62
456.061	156.62
456.839	175.62
457.617	189.62
458.395	216.62
459.172	242.62
459.95	272.62
460.728	302.62
461.506	332.62
462.283	378.62
463.061	412.62
463.838	476.62
464.615	527.62
465.393	582.62
466.17	656.62
466.947	723.62
467.724	815.62
468.501	912.62
469.278	1010.62
470.055	1117.62
470.831	1243.62
471.608	1404.62
472.385	1555.62
473.161	1737.62
473.938	1937.62
474.714	2129.62
475.49	2365.62
476.266	2610.62
477.043	2869.62
477.819	3198.62
478.595	3584.62
479.371	3912.62
480.146	4344.62
480.922	4752.62
481.698	5257.62
482.473	5783.62
483.249	6371.62
484.024	7049.62
484.8	7728.62
485.575	8456.62
486.35	9222.62
487.126	10172.62
487.901	11098.62
488.676	12147.62
489.451	13337.62
490.225	14534.62
491	15703.62
491.775	17124.62
492.55	18521.62
493.324	19997.62
494.099	21494.62
494.873	22959.62
495.647	24526.62
496.422	26100.62
497.196	27629.62
497.97	29237.62
498.744	30809.62
499.518	32201.62
500.292	33410.62
501.066	34452.62
501.839	35513.62
502.613	36350.62
503.387	36908.62
504.16	37322.62
504.934	37358.62
505.707	37215.62
506.48	36808.62
507.253	36343.62
508.027	35767.62
508.8	34938.62
509.573	33968.62
510.346	32947.62
511.118	31858.62
511.891	30680.62
512.664	29470.62
513.437	28223.62
514.209	26989.62
514.982	25898.62
515.754	24781.62
516.526	23694.62
517.298	22670.62
518.071	21691.62
518.843	20748.62
519.615	19966.62
520.387	19135.62
521.159	18455.62
521.93	17769.62
522.702	17070.62
523.474	16280.62
524.245	15622.62
525.017	14903.62
525.788	14229.62
526.56	13570.62
527.331	12901.62
528.102	12252.62
528.873	11650.62
529.644	11082.62
530.415	10591.62
531.186	10033.62
531.957	9441.62
532.728	8948.62
533.498	8420.62
534.269	8003.62
535.039	7525.62
535.81	7091.62
536.58	6719.62
537.351	6319.62
538.121	5970.62
538.891	5691.62
539.661	5374.62
540.431	5106.62
541.201	4819.62
541.971	4562.62
542.741	4328.62
543.51	4126.62
544.28	3943.62
545.05	3714.62
545.819	3557.62
546.588	3366.62
547.358	3189.62
548.127	3022.62
548.896	2856.62
549.665	2698.62
550.434	2561.62
551.203	2435.62
551.972	2296.62
552.741	2188.62
553.51	2059.62
554.278	1954.62
555.047	1826.62
555.815	1736.62
556.584	1608.62
557.352	1530.62
558.121	1433.62
558.889	1372.62
559.657	1301.62
560.425	1207.62
561.193	1150.62
561.961	1083.62
562.729	1040.62
563.496	971.62
564.264	911.62
565.032	867.62
565.799	830.62
566.567	786.62
567.334	731.62
568.101	701.62
568.869	650.62
569.636	614.62
570.403	592.62
571.17	551.62
571.937	509.62
572.704	483.62
573.471	473.62
574.237	433.62
575.004	415.62
575.771	385.62
576.537	367.62
577.303	340.62
578.07	326.62
578.836	306.62
579.602	287.62
580.368	279.62
581.134	254.62
581.9	245.62
582.666	239.62
583.432	221.62
584.198	204.62
584.964	202.62
585.729	188.62
586.495	185.62
587.26	169.62
588.025	165.62
588.791	153.62
589.556	144.62
590.321	138.62
591.086	130.62
591.851	127.62
592.616	116.62
593.381	110.62
594.146	110.62
594.911	107.62
595.675	96.62
596.44	94.62
597.204	87.62
597.969	86.62
598.733	82.62
599.497	77.62
600.261	72.62
601.025	74.62
601.79	69.62
602.553	68.62
603.317	60.62
604.081	62.62
604.845	56.62
605.609	55.62
606.372	51.62
607.136	51.62
607.899	49.62
608.662	45.62
609.426	43.62
610.189	46.62
610.952	44.62
611.715	44.62
612.478	38.62
613.241	36.62
614.004	37.62
614.767	37.62
615.529	32.62
616.292	33.62
617.055	32.62
617.817	31.62
618.579	31.62
619.342	30.62
620.104	25.62
620.866	30.62
621.628	26.62
622.39	26.62
623.152	22.62
623.914	25.62
624.676	22.62
625.438	19.62
626.199	21.62
626.961	20.62
627.722	23.62
628.484	21.62
629.245	22.62
630.006	21.62
630.768	17.62
631.529	16.62
632.29	17.62
633.051	18.62
633.812	17.62
634.573	17.62
635.333	11.62
636.094	14.62
636.855	14.62
637.615	14.62
638.376	14.62
639.136	12.62
639.896	14.62
640.657	14.62
641.417	12.62
642.177	13.62
642.937	12.62
643.697	13.62
644.457	11.62
645.216	9.62
645.976	11.62
646.736	10.62
647.495	14.62
648.255	11.62
649.014	9.62
649.774	12.62
650.533	11.62
651.292	5.62
652.051	9.62
652.81	10.62
653.569	9.62
654.328	6.62
655.087	8.62
655.846	8.62
656.604	9.62
657.363	9.62
658.121	8.62
658.88	6.62
659.638	8.62
660.397	7.62
661.155	9.62
661.913	9.62
662.671	3.62
663.429	4.62
664.187	9.62
664.945	7.62
665.703	8.62
666.46	7.62
667.218	6.62
667.976	6.62
668.733	4.62
669.49	8.62
670.248	6.62
671.005	7.62
671.762	5.62
672.519	8.62
673.276	5.62
674.033	5.62
674.79	6.62
675.547	8.62
676.304	7.62
677.06	3.62
677.817	4.62
678.574	8.62
679.33	6.62
680.086	7.62
680.843	5.62
681.599	8.62
682.355	7.62
683.111	5.62
683.867	3.62
684.623	7.62
685.379	3.62
686.135	5.62
686.89	4.62
687.646	5.62
688.402	4.62
689.157	5.62
689.912	4.62
690.668	4.62
691.423	6.62
692.178	6.62
692.933	4.62
693.688	4.62
694.443	4.62
695.198	6.62
695.953	2.62
696.708	6.62
697.462	3.62
698.217	4.62
698.972	8.62
699.726	6.62
700.48	3.62
701.235	5.62
701.989	6.62
702.743	5.62
703.497	4.62
704.251	4.62
705.005	4.62
705.759	4.62
706.513	4.62
707.266	4.62
708.02	6.62
708.774	3.62
709.527	3.62
710.28	4.62
711.034	4.62
711.787	4.62
712.54	3.62
713.293	4.62
714.046	3.62
714.799	4.62
715.552	5.62
716.305	5.62
717.058	6.62
717.81	5.62
718.563	4.62
719.315	6.62
720.068	4.62
720.82	6.62
721.573	6.62
722.325	2.62
723.077	3.62
723.829	6.62
724.581	5.62
725.333	4.62
726.085	7.62
726.836	4.62
727.588	5.62
728.34	7.62
729.091	7.62
729.843	5.62
730.594	8.62
731.346	4.62
732.097	3.62
732.848	6.62
733.599	7.62
734.35	7.62
735.101	6.62
735.852	5.62
736.603	5.62
737.354	3.62
738.104	7.62
738.855	4.62
739.605	7.62
740.356	5.62
741.106	7.62
741.856	8.62
742.607	5.62
743.357	6.62
744.107	8.62
744.857	5.62
745.607	6.62
746.357	8.62
747.106	6.62
747.856	7.62
748.606	5.62
749.355	7.62
750.105	8.62
750.854	8.62
751.603	8.62
752.353	8.62
753.102	8.62
753.851	9.62
754.6	8.62
755.349	9.62
756.098	9.62
756.847	8.62
757.595	9.62
758.344	9.62
759.093	9.62
759.841	10.62
760.589	9.62
761.338	9.62
762.086	10.62
762.834	8.62
763.582	7.62
764.331	10.62
765.079	8.62
765.826	9.62
766.574	9.62
767.322	9.62
768.07	11.62
768.817	10.62
769.565	9.62
770.312	9.62
771.06	12.62
771.807	11.62
772.554	11.62
773.302	11.62
774.049	12.62
774.796	10.62
775.543	12.62
776.29	14.62
777.036	10.62
777.783	11.62
778.53	12.62
779.276	13.62
780.023	8.62
780.769	14.62
781.516	12.62
782.262	11.62
783.008	13.62
783.754	8.62
784.5	12.62
785.246	13.62
785.992	12.62
786.738	13.62
787.484	10.62
788.23	11.62
788.975	9.62
789.721	13.62
790.466	12.62
791.212	11.62
791.957	12.62
792.702	11.62
793.447	11.62
794.193	11.62
794.938	12.62
795.683	13.62
796.427	8.62
797.172	10.62
797.917	9.62
798.662	10.62
799.406	12.62
800.151	8.62
800.895	8.62
801.64	11.62
802.384	10.62
803.128	10.62
803.872	9.62
804.616	8.62
805.36	8.62
806.104	10.62
806.848	8.62
807.592	9.62
808.336	7.62
809.079	7.62
809.823	7.62
810.566	8.62
811.31	8.62
812.053	5.62
812.796	7.62
813.539	6.62
814.283	7.62
815.026	6.62
815.769	7.62
816.511	6.62
817.254	7.62
817.997	5.62
818.74	4.62
819.482	5.62
820.225	6.62
820.967	5.62
821.71	4.62
822.452	3.62
823.194	4.62
823.936	5.62
824.678	3.62
825.42	7.62
826.162	6.62
826.904	4.62
827.646	5.62
828.388	4.62
829.129	5.62
829.871	5.62
830.612	6.62
831.354	6.62
832.095	5.62
832.836	5.62
833.577	4.62
834.319	5.62
835.06	6.62
835.801	3.62
836.542	5.62
837.282	4.62
838.023	2.62
838.764	3.62
839.504	4.62
840.245	3.62
840.985	0.62
841.726	4.62
842.466	0.62
843.206	4.62
843.946	2.62
844.687	6.62
845.427	3.62
846.166	5.62
846.906	2.62
847.646	2.62
848.386	2.62
849.125	4.62
849.865	1.62
850.605	2.62
851.344	3.62
852.083	5.62
852.823	1.62
853.562	4.62
854.301	4.62
855.04	2.62
855.779	3.62
856.518	2.62
857.257	2.62
857.995	2.62
858.734	4.62
859.473	1.62
860.211	5.62
860.95	1.62
861.688	1.62
862.426	1.62
863.165	2.62
863.903	3.62
864.641	2.62
865.379	4.62
866.117	1.62
866.855	4.62
867.593	3.62
868.33	3.62
869.068	1.62
869.806	1.62
870.543	-0.38
871.28	2.62
872.018	3.62
872.755	1.62
873.492	-0.38
874.229	4.62
874.967	2.62
875.703	3.62
876.44	3.62
877.177	2.62
877.914	2.62
878.651	1.62
879.387	-0.38
880.124	0.62
880.86	0.62
881.597	2.62
882.333	0.62
883.069	2.62
883.806	0.62
884.542	3.62
885.278	3.62
886.014	-1.38
886.749	1.62
887.485	2.62
888.221	2.62
888.957	0.62
889.692	-1.38
890.428	1.62
891.163	2.62
891.899	1.62
892.634	1.62
893.369	1.62
894.104	1.62
894.839	1.62
895.574	1.62
896.309	0.62
897.044	2.62
897.779	2.62
898.514	-0.38
899.248	1.62
899.983	2.62
900.717	1.62
901.452	0.62
902.186	0.62
902.92	-0.38
903.654	-0.38
904.389	0.62
905.123	0.62
905.857	1.62
906.59	-0.38
907.324	-0.38
908.058	1.62
908.792	2.62
909.525	2.62
910.259	0.62
910.992	2.62
911.726	2.62
912.459	1.62
913.192	4.62
913.925	1.62
914.658	0.62
915.391	2.62
916.124	-1.38
916.857	1.62
917.59	1.62
918.323	1.62
919.055	-0.38
919.788	-0.38
920.521	0.62
921.253	-0.38
921.985	2.62
922.718	0.62
923.45	0.62
924.182	2.62
924.914	-1.38
925.646	0.62
926.378	1.62
927.11	0.62
927.841	-0.38
928.573	0.62
929.305	0.62
930.036	-1.38
930.768	2.62
931.499	1.62
932.23	-0.38
932.962	0.62
933.693	-1.38
934.424	1.62
935.155	-0.38
935.886	0.62
936.617	-1.38
937.348	0.62
938.078	1.62
938.809	-0.38
939.54	1.62
940.27	2.62
941.001	2.62
941.731	0.62
942.461	-0.38
943.191	0.62
943.922	-2.38
944.652	0.62
945.382	0.62
946.112	1.62
946.841	-0.38
947.571	-0.38
948.301	3.62
949.031	-0.38
949.76	-0.38
950.49	1.62
951.219	0.62
951.948	0.62
952.678	0.62
953.407	0.62
954.136	-1.38
954.865	2.62
955.594	1.62
956.323	1.62
957.052	-0.38
957.78	2.62
958.509	0.62
959.238	0.62
959.966	1.62
960.695	0.62
961.423	-1.38
962.151	0.62
962.88	1.62
963.608	0.62
964.336	0.62
965.064	-1.38
965.792	0.62
966.52	-0.38
967.247	1.62
967.975	1.62
968.703	0.62
969.43	-0.38
970.158	0.62
970.885	0.62
971.613	0.62
972.34	0.62
973.067	0.62
973.794	1.62
974.521	0.62
975.248	0.62
975.975	1.62
976.702	-1.38
977.429	-0.38
978.156	1.62
978.882	1.62
979.609	-0.38
980.335	0.62
981.062	-1.38
981.788	0.62
982.514	1.62
983.24	1.62
983.967	-0.38
984.693	0.62
985.419	-0.38
986.144	1.62
986.87	1.62
987.596	-0.38
988.322	0.62
989.047	-1.38
989.773	0.62
990.498	-0.38
991.224	-1.38
991.949	0.62
992.674	1.62
993.399	0.62
994.124	0.62
994.849	0.62
995.574	-0.38
996.299	-1.38
997.024	0.62
997.749	0.62
998.473	2.62
999.198	0.62
999.922	-1.38
1000.647	1.62
1001.371	4.62
1002.095	-0.38
1002.82	-0.38
1003.544	-1.38
1004.268	3.62
1004.992	3.62
1005.716	2.62
1006.439	4.62
1007.163	1.62
1007.887	4.62
1008.611	0.62
1009.334	0.62
1010.058	2.62
1010.781	0.62
1011.504	1.62
1012.228	-0.38
1012.951	0.62
1013.674	-2.38
1014.397	-0.38
1015.12	-0.38
