节点500_425_QEPB04081__347__15-54-04-789.txt的数据

Date: Wed Nov 12 15:54:04 CST 2025
User: PC
Spectrometer: QEPB0408
触发模式: 0
积分时间 (秒): 1.000000E-2
Scans to average: 1
启用暗噪声校正: true
启用非线性校正: false
滑动平均宽度: 0
X轴模式: Wavelengths
Number of Pixels in Spectrum: 1044
>>>>>Begin Spectral Data<<<<<
220.843	6.75
221.644	1.75
222.444	3.75
223.244	3.75
224.045	4.75
224.845	3.75
225.645	5.75
226.445	4.75
227.245	4.75
228.045	5.75
228.845	4.75
229.645	6.75
230.444	6.75
231.244	2.75
232.043	2.75
232.843	6.75
233.642	3.75
234.442	6.75
235.241	4.75
236.04	5.75
236.839	5.75
237.638	5.75
238.437	7.75
239.236	7.75
240.035	5.75
240.833	6.75
241.632	7.75
242.43	6.75
243.229	7.75
244.027	4.75
244.826	6.75
245.624	6.75
246.422	9.75
247.22	9.75
248.018	7.75
248.816	11.75
249.614	8.75
250.412	9.75
251.21	7.75
252.007	8.75
252.805	10.75
253.602	10.75
254.4	10.75
255.197	10.75
255.994	10.75
256.791	9.75
257.589	12.75
258.386	16.75
259.183	12.75
259.979	13.75
260.776	15.75
261.573	13.75
262.37	14.75
263.166	14.75
263.963	17.75
264.759	18.75
265.556	19.75
266.352	18.75
267.148	18.75
267.944	19.75
268.74	16.75
269.536	21.75
270.332	20.75
271.128	19.75
271.924	22.75
272.719	20.75
273.515	24.75
274.311	20.75
275.106	25.75
275.901	23.75
276.697	22.75
277.492	23.75
278.287	25.75
279.082	27.75
279.877	22.75
280.672	25.75
281.467	28.75
282.262	23.75
283.056	24.75
283.851	28.75
284.646	23.75
285.44	23.75
286.234	25.75
287.029	25.75
287.823	25.75
288.617	25.75
289.411	24.75
290.205	23.75
290.999	22.75
291.793	22.75
292.587	22.75
293.381	23.75
294.174	20.75
294.968	21.75
295.761	18.75
296.555	19.75
297.348	18.75
298.141	19.75
298.935	17.75
299.728	18.75
300.521	19.75
301.314	17.75
302.107	18.75
302.899	16.75
303.692	16.75
304.485	18.75
305.277	16.75
306.07	18.75
306.862	16.75
307.655	15.75
308.447	16.75
309.239	16.75
310.031	14.75
310.823	12.75
311.615	12.75
312.407	11.75
313.199	11.75
313.991	12.75
314.783	12.75
315.574	16.75
316.366	12.75
317.157	11.75
317.949	10.75
318.74	10.75
319.531	10.75
320.322	10.75
321.113	9.75
321.904	10.75
322.695	10.75
323.486	9.75
324.277	9.75
325.068	10.75
325.858	9.75
326.649	9.75
327.439	8.75
328.23	7.75
329.02	9.75
329.81	6.75
330.6	8.75
331.391	9.75
332.181	9.75
332.971	7.75
333.76	7.75
334.55	8.75
335.34	7.75
336.13	9.75
336.919	10.75
337.709	9.75
338.498	8.75
339.287	6.75
340.077	10.75
340.866	9.75
341.655	10.75
342.444	6.75
343.233	9.75
344.022	10.75
344.811	7.75
345.6	11.75
346.388	7.75
347.177	8.75
347.965	7.75
348.754	4.75
349.542	7.75
350.33	8.75
351.119	11.75
351.907	5.75
352.695	7.75
353.483	8.75
354.271	5.75
355.059	7.75
355.846	7.75
356.634	6.75
357.422	7.75
358.209	7.75
358.997	9.75
359.784	6.75
360.571	8.75
361.359	9.75
362.146	6.75
362.933	6.75
363.72	7.75
364.507	7.75
365.294	6.75
366.081	7.75
366.867	5.75
367.654	7.75
368.44	7.75
369.227	7.75
370.013	7.75
370.8	6.75
371.586	8.75
372.372	7.75
373.158	6.75
373.944	7.75
374.73	7.75
375.516	8.75
376.302	7.75
377.088	7.75
377.873	5.75
378.659	8.75
379.445	7.75
380.23	7.75
381.015	7.75
381.801	5.75
382.586	6.75
383.371	9.75
384.156	8.75
384.941	6.75
385.726	5.75
386.511	5.75
387.296	7.75
388.08	6.75
388.865	8.75
389.649	8.75
390.434	9.75
391.218	9.75
392.003	6.75
392.787	9.75
393.571	9.75
394.355	8.75
395.139	9.75
395.923	10.75
396.707	8.75
397.491	10.75
398.274	7.75
399.058	7.75
399.842	8.75
400.625	8.75
401.408	7.75
402.192	10.75
402.975	10.75
403.758	6.75
404.541	10.75
405.324	11.75
406.107	11.75
406.89	11.75
407.673	10.75
408.456	10.75
409.238	12.75
410.021	11.75
410.803	11.75
411.586	13.75
412.368	10.75
413.151	13.75
413.933	13.75
414.715	10.75
415.497	14.75
416.279	13.75
417.061	13.75
417.843	13.75
418.624	13.75
419.406	14.75
420.188	13.75
420.969	14.75
421.751	13.75
422.532	14.75
423.313	14.75
424.095	16.75
424.876	16.75
425.657	13.75
426.438	16.75
427.219	19.75
428	16.75
428.78	17.75
429.561	21.75
430.342	18.75
431.122	20.75
431.903	20.75
432.683	23.75
433.464	22.75
434.244	24.75
435.024	24.75
435.804	26.75
436.584	26.75
437.364	29.75
438.144	30.75
438.924	32.75
439.704	33.75
440.483	35.75
441.263	35.75
442.042	38.75
442.822	40.75
443.601	42.75
444.38	45.75
445.16	51.75
445.939	53.75
446.718	59.75
447.497	61.75
448.276	67.75
449.054	73.75
449.833	79.75
450.612	82.75
451.391	95.75
452.169	103.75
452.948	116.75
453.726	127.75
454.504	142.75
455.282	150.75
456.061	169.75
456.839	190.75
457.617	209.75
458.395	231.75
459.172	256.75
459.95	295.75
460.728	321.75
461.506	364.75
462.283	407.75
463.061	444.75
463.838	501.75
464.615	554.75
465.393	623.75
466.17	708.75
466.947	776.75
467.724	866.75
468.501	957.75
469.278	1062.75
470.055	1170.75
470.831	1317.75
471.608	1455.75
472.385	1596.75
473.161	1779.75
473.938	1950.75
474.714	2150.75
475.49	2385.75
476.266	2610.75
477.043	2896.75
477.819	3192.75
478.595	3468.75
479.371	3832.75
480.146	4186.75
480.922	4580.75
481.698	5044.75
482.473	5556.75
483.249	6035.75
484.024	6604.75
484.8	7242.75
485.575	7870.75
486.35	8586.75
487.126	9355.75
487.901	10187.75
488.676	11098.75
489.451	12041.75
490.225	13089.75
491	14166.75
491.775	15366.75
492.55	16530.75
493.324	17774.75
494.099	18985.75
494.873	20383.75
495.647	21798.75
496.422	23074.75
497.196	24591.75
497.97	26025.75
498.744	27433.75
499.518	28787.75
500.292	29924.75
501.066	31030.75
501.839	32217.75
502.613	33147.75
503.387	33843.75
504.16	34399.75
504.934	34660.75
505.707	34856.75
506.48	34800.75
507.253	34553.75
508.027	34186.75
508.8	33798.75
509.573	33084.75
510.346	32338.75
511.118	31435.75
511.891	30432.75
512.664	29371.75
513.437	28279.75
514.209	27119.75
514.982	26174.75
515.754	25101.75
516.526	24068.75
517.298	23042.75
518.071	22036.75
518.843	21188.75
519.615	20322.75
520.387	19483.75
521.159	18756.75
521.93	18035.75
522.702	17310.75
523.474	16666.75
524.245	16012.75
525.017	15256.75
525.788	14551.75
526.56	13917.75
527.331	13304.75
528.102	12706.75
528.873	12100.75
529.644	11518.75
530.415	11011.75
531.186	10459.75
531.957	9912.75
532.728	9391.75
533.498	8881.75
534.269	8396.75
535.039	7930.75
535.81	7503.75
536.58	7109.75
537.351	6679.75
538.121	6336.75
538.891	5970.75
539.661	5687.75
540.431	5368.75
541.201	5075.75
541.971	4845.75
542.741	4581.75
543.51	4366.75
544.28	4120.75
545.05	3931.75
545.819	3744.75
546.588	3556.75
547.358	3363.75
548.127	3199.75
548.896	3048.75
549.665	2903.75
550.434	2735.75
551.203	2598.75
551.972	2465.75
552.741	2311.75
553.51	2192.75
554.278	2070.75
555.047	1950.75
555.815	1838.75
556.584	1744.75
557.352	1654.75
558.121	1560.75
558.889	1465.75
559.657	1397.75
560.425	1305.75
561.193	1236.75
561.961	1172.75
562.729	1103.75
563.496	1049.75
564.264	999.75
565.032	949.75
565.799	894.75
566.567	852.75
567.334	794.75
568.101	756.75
568.869	711.75
569.636	664.75
570.403	627.75
571.17	579.75
571.937	558.75
572.704	523.75
573.471	500.75
574.237	471.75
575.004	441.75
575.771	414.75
576.537	392.75
577.303	379.75
578.07	354.75
578.836	323.75
579.602	311.75
580.368	296.75
581.134	280.75
581.9	264.75
582.666	258.75
583.432	239.75
584.198	233.75
584.964	215.75
585.729	206.75
586.495	192.75
587.26	182.75
588.025	176.75
588.791	163.75
589.556	150.75
590.321	148.75
591.086	140.75
591.851	130.75
592.616	125.75
593.381	120.75
594.146	115.75
594.911	110.75
595.675	106.75
596.44	101.75
597.204	97.75
597.969	93.75
598.733	91.75
599.497	83.75
600.261	80.75
601.025	79.75
601.79	71.75
602.553	70.75
603.317	66.75
604.081	62.75
604.845	58.75
605.609	60.75
606.372	61.75
607.136	58.75
607.899	50.75
608.662	49.75
609.426	46.75
610.189	46.75
610.952	49.75
611.715	43.75
612.478	42.75
613.241	40.75
614.004	41.75
614.767	35.75
615.529	38.75
616.292	35.75
617.055	32.75
617.817	34.75
618.579	30.75
619.342	31.75
620.104	28.75
620.866	28.75
621.628	28.75
622.39	26.75
623.152	27.75
623.914	24.75
624.676	24.75
625.438	22.75
626.199	22.75
626.961	22.75
627.722	20.75
628.484	19.75
629.245	20.75
630.006	20.75
630.768	21.75
631.529	16.75
632.29	22.75
633.051	20.75
633.812	18.75
634.573	17.75
635.333	16.75
636.094	16.75
636.855	14.75
637.615	15.75
638.376	14.75
639.136	12.75
639.896	13.75
640.657	12.75
641.417	13.75
642.177	13.75
642.937	13.75
643.697	11.75
644.457	11.75
645.216	10.75
645.976	10.75
646.736	10.75
647.495	10.75
648.255	9.75
649.014	11.75
649.774	9.75
650.533	10.75
651.292	9.75
652.051	9.75
652.81	6.75
653.569	8.75
654.328	8.75
655.087	6.75
655.846	7.75
656.604	8.75
657.363	10.75
658.121	8.75
658.88	9.75
659.638	9.75
660.397	6.75
661.155	7.75
661.913	6.75
662.671	7.75
663.429	8.75
664.187	5.75
664.945	6.75
665.703	8.75
666.46	6.75
667.218	6.75
667.976	6.75
668.733	7.75
669.49	7.75
670.248	7.75
671.005	4.75
671.762	4.75
672.519	6.75
673.276	5.75
674.033	6.75
674.79	7.75
675.547	4.75
676.304	5.75
677.06	5.75
677.817	7.75
678.574	6.75
679.33	7.75
680.086	5.75
680.843	6.75
681.599	5.75
682.355	7.75
683.111	7.75
683.867	5.75
684.623	5.75
685.379	5.75
686.135	4.75
686.89	6.75
687.646	5.75
688.402	6.75
689.157	5.75
689.912	4.75
690.668	7.75
691.423	5.75
692.178	6.75
692.933	5.75
693.688	5.75
694.443	4.75
695.198	5.75
695.953	3.75
696.708	5.75
697.462	4.75
698.217	4.75
698.972	7.75
699.726	6.75
700.48	5.75
701.235	5.75
701.989	4.75
702.743	4.75
703.497	4.75
704.251	4.75
705.005	5.75
705.759	5.75
706.513	7.75
707.266	4.75
708.02	3.75
708.774	8.75
709.527	5.75
710.28	6.75
711.034	4.75
711.787	2.75
712.54	4.75
713.293	4.75
714.046	3.75
714.799	3.75
715.552	6.75
716.305	7.75
717.058	4.75
717.81	6.75
718.563	4.75
719.315	6.75
720.068	4.75
720.82	7.75
721.573	5.75
722.325	5.75
723.077	4.75
723.829	3.75
724.581	7.75
725.333	4.75
726.085	3.75
726.836	5.75
727.588	2.75
728.34	7.75
729.091	7.75
729.843	4.75
730.594	5.75
731.346	5.75
732.097	6.75
732.848	6.75
733.599	5.75
734.35	5.75
735.101	6.75
735.852	7.75
736.603	6.75
737.354	5.75
738.104	6.75
738.855	6.75
739.605	7.75
740.356	5.75
741.106	8.75
741.856	7.75
742.607	6.75
743.357	6.75
744.107	6.75
744.857	6.75
745.607	2.75
746.357	5.75
747.106	7.75
747.856	7.75
748.606	7.75
749.355	4.75
750.105	7.75
750.854	9.75
751.603	8.75
752.353	5.75
753.102	7.75
753.851	9.75
754.6	5.75
755.349	8.75
756.098	5.75
756.847	7.75
757.595	7.75
758.344	8.75
759.093	6.75
759.841	9.75
760.589	9.75
761.338	9.75
762.086	9.75
762.834	10.75
763.582	9.75
764.331	10.75
765.079	6.75
765.826	10.75
766.574	10.75
767.322	9.75
768.07	10.75
768.817	11.75
769.565	8.75
770.312	10.75
771.06	10.75
771.807	9.75
772.554	11.75
773.302	11.75
774.049	9.75
774.796	11.75
775.543	8.75
776.29	9.75
777.036	12.75
777.783	8.75
778.53	9.75
779.276	11.75
780.023	10.75
780.769	11.75
781.516	10.75
782.262	12.75
783.008	11.75
783.754	12.75
784.5	10.75
785.246	10.75
785.992	11.75
786.738	12.75
787.484	9.75
788.23	11.75
788.975	10.75
789.721	11.75
790.466	13.75
791.212	12.75
791.957	10.75
792.702	11.75
793.447	9.75
794.193	9.75
794.938	11.75
795.683	8.75
796.427	10.75
797.172	10.75
797.917	9.75
798.662	9.75
799.406	10.75
800.151	10.75
800.895	9.75
801.64	9.75
802.384	11.75
803.128	9.75
803.872	9.75
804.616	9.75
805.36	8.75
806.104	8.75
806.848	6.75
807.592	6.75
808.336	6.75
809.079	5.75
809.823	7.75
810.566	6.75
811.31	6.75
812.053	7.75
812.796	6.75
813.539	7.75
814.283	7.75
815.026	3.75
815.769	8.75
816.511	6.75
817.254	4.75
817.997	8.75
818.74	6.75
819.482	7.75
820.225	5.75
820.967	8.75
821.71	6.75
822.452	5.75
823.194	8.75
823.936	4.75
824.678	6.75
825.42	5.75
826.162	4.75
826.904	5.75
827.646	4.75
828.388	7.75
829.129	4.75
829.871	5.75
830.612	4.75
831.354	2.75
832.095	7.75
832.836	3.75
833.577	5.75
834.319	3.75
835.06	4.75
835.801	6.75
836.542	5.75
837.282	3.75
838.023	2.75
838.764	4.75
839.504	6.75
840.245	3.75
840.985	4.75
841.726	5.75
842.466	6.75
843.206	2.75
843.946	3.75
844.687	4.75
845.427	4.75
846.166	6.75
846.906	2.75
847.646	2.75
848.386	3.75
849.125	4.75
849.865	4.75
850.605	2.75
851.344	3.75
852.083	2.75
852.823	2.75
853.562	4.75
854.301	2.75
855.04	3.75
855.779	3.75
856.518	4.75
857.257	2.75
857.995	4.75
858.734	2.75
859.473	2.75
860.211	2.75
860.95	2.75
861.688	4.75
862.426	4.75
863.165	1.75
863.903	3.75
864.641	1.75
865.379	0.75
866.117	4.75
866.855	0.75
867.593	2.75
868.33	1.75
869.068	1.75
869.806	3.75
870.543	3.75
871.28	-0.25
872.018	2.75
872.755	1.75
873.492	1.75
874.229	0.75
874.967	3.75
875.703	0.75
876.44	1.75
877.177	2.75
877.914	1.75
878.651	0.75
879.387	1.75
880.124	1.75
880.86	2.75
881.597	1.75
882.333	1.75
883.069	1.75
883.806	1.75
884.542	-1.25
885.278	3.75
886.014	0.75
886.749	1.75
887.485	0.75
888.221	1.75
888.957	2.75
889.692	1.75
890.428	1.75
891.163	1.75
891.899	3.75
892.634	2.75
893.369	-0.25
894.104	1.75
894.839	1.75
895.574	1.75
896.309	2.75
897.044	-0.25
897.779	0.75
898.514	1.75
899.248	1.75
899.983	0.75
900.717	1.75
901.452	1.75
902.186	1.75
902.92	1.75
903.654	-0.25
904.389	2.75
905.123	1.75
905.857	1.75
906.59	0.75
907.324	-0.25
908.058	0.75
908.792	2.75
909.525	1.75
910.259	0.75
910.992	0.75
911.726	1.75
912.459	1.75
913.192	1.75
913.925	-1.25
914.658	0.75
915.391	-1.25
916.124	0.75
916.857	0.75
917.59	1.75
918.323	2.75
919.055	0.75
919.788	-2.25
920.521	0.75
921.253	1.75
921.985	1.75
922.718	0.75
923.45	-0.25
924.182	0.75
924.914	1.75
925.646	0.75
926.378	0.75
927.11	2.75
927.841	-0.25
928.573	1.75
929.305	0.75
930.036	0.75
930.768	1.75
931.499	0.75
932.23	2.75
932.962	-0.25
933.693	-0.25
934.424	-1.25
935.155	0.75
935.886	1.75
936.617	0.75
937.348	-0.25
938.078	2.75
938.809	0.75
939.54	-0.25
940.27	-1.25
941.001	1.75
941.731	-0.25
942.461	-0.25
943.191	2.75
943.922	-0.25
944.652	3.75
945.382	-1.25
946.112	-0.25
946.841	2.75
947.571	-1.25
948.301	-2.25
949.031	-0.25
949.76	0.75
950.49	-1.25
951.219	0.75
951.948	-0.25
952.678	-0.25
953.407	4.75
954.136	1.75
954.865	-0.25
955.594	-0.25
956.323	1.75
957.052	1.75
957.78	-0.25
958.509	1.75
959.238	-1.25
959.966	1.75
960.695	-1.25
961.423	-0.25
962.151	2.75
962.88	-0.25
963.608	-0.25
964.336	1.75
965.064	-0.25
965.792	1.75
966.52	2.75
967.247	0.75
967.975	0.75
968.703	1.75
969.43	2.75
970.158	-0.25
970.885	0.75
971.613	-0.25
972.34	1.75
973.067	2.75
973.794	-1.25
974.521	0.75
975.248	0.75
975.975	-0.25
976.702	1.75
977.429	2.75
978.156	-0.25
978.882	-0.25
979.609	0.75
980.335	0.75
981.062	-0.25
981.788	0.75
982.514	-0.25
983.24	0.75
983.967	-1.25
984.693	-0.25
985.419	-1.25
986.144	1.75
986.87	-0.25
987.596	-0.25
988.322	0.75
989.047	-2.25
989.773	0.75
990.498	0.75
991.224	1.75
991.949	0.75
992.674	2.75
993.399	-0.25
994.124	-1.25
994.849	1.75
995.574	1.75
996.299	-1.25
997.024	-0.25
997.749	1.75
998.473	1.75
999.198	-0.25
999.922	2.75
1000.647	1.75
1001.371	0.75
1002.095	-1.25
1002.82	-0.25
1003.544	-1.25
1004.268	0.75
1004.992	2.75
1005.716	1.75
1006.439	3.75
1007.163	0.75
1007.887	5.75
1008.611	-0.25
1009.334	0.75
1010.058	0.75
1010.781	1.75
1011.504	1.75
1012.228	0.75
1012.951	0.75
1013.674	-0.25
1014.397	1.75
1015.12	-0.25
