节点500_425_QEPB04081__133__15-50-31-297.txt的数据

Date: Wed Nov 12 15:50:31 CST 2025
User: PC
Spectrometer: QEPB0408
触发模式: 0
积分时间 (秒): 1.000000E-2
Scans to average: 1
启用暗噪声校正: true
启用非线性校正: false
滑动平均宽度: 0
X轴模式: Wavelengths
Number of Pixels in Spectrum: 1044
>>>>>Begin Spectral Data<<<<<
220.843	1.5
221.644	3.5
222.444	4.5
223.244	1.5
224.045	4.5
224.845	1.5
225.645	5.5
226.445	2.5
227.245	4.5
228.045	3.5
228.845	4.5
229.645	4.5
230.444	2.5
231.244	3.5
232.043	6.5
232.843	6.5
233.642	5.5
234.442	6.5
235.241	7.5
236.04	2.5
236.839	5.5
237.638	5.5
238.437	4.5
239.236	3.5
240.035	7.5
240.833	5.5
241.632	5.5
242.43	5.5
243.229	5.5
244.027	7.5
244.826	8.5
245.624	9.5
246.422	9.5
247.22	7.5
248.018	7.5
248.816	7.5
249.614	10.5
250.412	8.5
251.21	9.5
252.007	9.5
252.805	9.5
253.602	11.5
254.4	13.5
255.197	11.5
255.994	13.5
256.791	11.5
257.589	12.5
258.386	16.5
259.183	12.5
259.979	16.5
260.776	14.5
261.573	17.5
262.37	14.5
263.166	17.5
263.963	15.5
264.759	14.5
265.556	18.5
266.352	16.5
267.148	17.5
267.944	18.5
268.74	17.5
269.536	20.5
270.332	21.5
271.128	21.5
271.924	23.5
272.719	19.5
273.515	25.5
274.311	25.5
275.106	26.5
275.901	25.5
276.697	24.5
277.492	25.5
278.287	25.5
279.082	22.5
279.877	25.5
280.672	25.5
281.467	27.5
282.262	29.5
283.056	27.5
283.851	28.5
284.646	26.5
285.44	27.5
286.234	29.5
287.029	26.5
287.823	25.5
288.617	24.5
289.411	23.5
290.205	22.5
290.999	25.5
291.793	25.5
292.587	24.5
293.381	21.5
294.174	21.5
294.968	21.5
295.761	17.5
296.555	18.5
297.348	18.5
298.141	19.5
298.935	23.5
299.728	18.5
300.521	19.5
301.314	17.5
302.107	18.5
302.899	16.5
303.692	18.5
304.485	16.5
305.277	17.5
306.07	13.5
306.862	15.5
307.655	16.5
308.447	16.5
309.239	14.5
310.031	13.5
310.823	12.5
311.615	11.5
312.407	14.5
313.199	14.5
313.991	12.5
314.783	13.5
315.574	12.5
316.366	10.5
317.157	9.5
317.949	10.5
318.74	9.5
319.531	11.5
320.322	11.5
321.113	11.5
321.904	7.5
322.695	7.5
323.486	9.5
324.277	11.5
325.068	9.5
325.858	9.5
326.649	7.5
327.439	6.5
328.23	7.5
329.02	7.5
329.81	7.5
330.6	7.5
331.391	10.5
332.181	6.5
332.971	7.5
333.76	7.5
334.55	7.5
335.34	7.5
336.13	11.5
336.919	6.5
337.709	4.5
338.498	8.5
339.287	9.5
340.077	7.5
340.866	8.5
341.655	7.5
342.444	5.5
343.233	8.5
344.022	9.5
344.811	9.5
345.6	9.5
346.388	8.5
347.177	11.5
347.965	7.5
348.754	10.5
349.542	8.5
350.33	7.5
351.119	7.5
351.907	7.5
352.695	8.5
353.483	5.5
354.271	6.5
355.059	6.5
355.846	8.5
356.634	6.5
357.422	8.5
358.209	5.5
358.997	7.5
359.784	6.5
360.571	5.5
361.359	8.5
362.146	6.5
362.933	4.5
363.72	7.5
364.507	6.5
365.294	4.5
366.081	8.5
366.867	5.5
367.654	4.5
368.44	6.5
369.227	5.5
370.013	6.5
370.8	6.5
371.586	6.5
372.372	5.5
373.158	7.5
373.944	5.5
374.73	7.5
375.516	6.5
376.302	6.5
377.088	6.5
377.873	7.5
378.659	6.5
379.445	8.5
380.23	6.5
381.015	6.5
381.801	5.5
382.586	6.5
383.371	6.5
384.156	7.5
384.941	6.5
385.726	5.5
386.511	6.5
387.296	5.5
388.08	8.5
388.865	8.5
389.649	7.5
390.434	5.5
391.218	7.5
392.003	7.5
392.787	7.5
393.571	9.5
394.355	9.5
395.139	7.5
395.923	9.5
396.707	9.5
397.491	7.5
398.274	6.5
399.058	8.5
399.842	10.5
400.625	8.5
401.408	9.5
402.192	7.5
402.975	9.5
403.758	11.5
404.541	11.5
405.324	9.5
406.107	9.5
406.89	10.5
407.673	9.5
408.456	9.5
409.238	10.5
410.021	9.5
410.803	9.5
411.586	12.5
412.368	13.5
413.151	10.5
413.933	11.5
414.715	11.5
415.497	10.5
416.279	13.5
417.061	12.5
417.843	13.5
418.624	13.5
419.406	12.5
420.188	13.5
420.969	13.5
421.751	13.5
422.532	13.5
423.313	13.5
424.095	13.5
424.876	13.5
425.657	17.5
426.438	16.5
427.219	17.5
428	16.5
428.78	15.5
429.561	18.5
430.342	17.5
431.122	18.5
431.903	21.5
432.683	21.5
433.464	23.5
434.244	23.5
435.024	24.5
435.804	24.5
436.584	27.5
437.364	28.5
438.144	28.5
438.924	29.5
439.704	32.5
440.483	35.5
441.263	34.5
442.042	34.5
442.822	38.5
443.601	39.5
444.38	43.5
445.16	44.5
445.939	52.5
446.718	54.5
447.497	56.5
448.276	62.5
449.054	68.5
449.833	75.5
450.612	80.5
451.391	92.5
452.169	101.5
452.948	104.5
453.726	118.5
454.504	130.5
455.282	151.5
456.061	158.5
456.839	173.5
457.617	201.5
458.395	216.5
459.172	245.5
459.95	276.5
460.728	303.5
461.506	342.5
462.283	378.5
463.061	422.5
463.838	479.5
464.615	532.5
465.393	586.5
466.17	664.5
466.947	739.5
467.724	825.5
468.501	923.5
469.278	1026.5
470.055	1144.5
470.831	1283.5
471.608	1418.5
472.385	1567.5
473.161	1738.5
473.938	1934.5
474.714	2150.5
475.49	2369.5
476.266	2608.5
477.043	2878.5
477.819	3193.5
478.595	3538.5
479.371	3896.5
480.146	4315.5
480.922	4739.5
481.698	5204.5
482.473	5718.5
483.249	6266.5
484.024	6890.5
484.8	7604.5
485.575	8301.5
486.35	9092.5
487.126	9946.5
487.901	10918.5
488.676	11929.5
489.451	12971.5
490.225	14084.5
491	15328.5
491.775	16664.5
492.55	18005.5
493.324	19446.5
494.099	20840.5
494.873	22257.5
495.647	23735.5
496.422	25307.5
497.196	26883.5
497.97	28383.5
498.744	29915.5
499.518	31206.5
500.292	32478.5
501.066	33585.5
501.839	34662.5
502.613	35554.5
503.387	36163.5
504.16	36595.5
504.934	36730.5
505.707	36623.5
506.48	36371.5
507.253	36026.5
508.027	35466.5
508.8	34798.5
509.573	33874.5
510.346	32892.5
511.118	31836.5
511.891	30703.5
512.664	29442.5
513.437	28304.5
514.209	27104.5
514.982	26028.5
515.754	24880.5
516.526	23829.5
517.298	22757.5
518.071	21844.5
518.843	20904.5
519.615	20036.5
520.387	19271.5
521.159	18517.5
521.93	17765.5
522.702	17123.5
523.474	16455.5
524.245	15809.5
525.017	14977.5
525.788	14362.5
526.56	13694.5
527.331	12996.5
528.102	12371.5
528.873	11797.5
529.644	11225.5
530.415	10690.5
531.186	10164.5
531.957	9615.5
532.728	9062.5
533.498	8556.5
534.269	8086.5
535.039	7650.5
535.81	7261.5
536.58	6815.5
537.351	6444.5
538.121	6095.5
538.891	5751.5
539.661	5481.5
540.431	5135.5
541.201	4891.5
541.971	4658.5
542.741	4378.5
543.51	4184.5
544.28	3959.5
545.05	3758.5
545.819	3608.5
546.588	3424.5
547.358	3243.5
548.127	3079.5
548.896	2899.5
549.665	2747.5
550.434	2608.5
551.203	2481.5
551.972	2341.5
552.741	2212.5
553.51	2094.5
554.278	1962.5
555.047	1856.5
555.815	1749.5
556.584	1656.5
557.352	1560.5
558.121	1473.5
558.889	1405.5
559.657	1308.5
560.425	1244.5
561.193	1192.5
561.961	1112.5
562.729	1048.5
563.496	988.5
564.264	932.5
565.032	887.5
565.799	840.5
566.567	785.5
567.334	756.5
568.101	714.5
568.869	676.5
569.636	637.5
570.403	601.5
571.17	574.5
571.937	541.5
572.704	500.5
573.471	481.5
574.237	443.5
575.004	414.5
575.771	396.5
576.537	372.5
577.303	347.5
578.07	330.5
578.836	307.5
579.602	296.5
580.368	281.5
581.134	264.5
581.9	249.5
582.666	240.5
583.432	223.5
584.198	218.5
584.964	200.5
585.729	194.5
586.495	185.5
587.26	169.5
588.025	162.5
588.791	156.5
589.556	149.5
590.321	141.5
591.086	135.5
591.851	124.5
592.616	120.5
593.381	119.5
594.146	109.5
594.911	102.5
595.675	98.5
596.44	93.5
597.204	87.5
597.969	84.5
598.733	80.5
599.497	81.5
600.261	78.5
601.025	72.5
601.79	69.5
602.553	68.5
603.317	62.5
604.081	60.5
604.845	58.5
605.609	57.5
606.372	53.5
607.136	50.5
607.899	49.5
608.662	48.5
609.426	46.5
610.189	47.5
610.952	42.5
611.715	40.5
612.478	37.5
613.241	37.5
614.004	33.5
614.767	39.5
615.529	33.5
616.292	30.5
617.055	29.5
617.817	28.5
618.579	29.5
619.342	28.5
620.104	29.5
620.866	27.5
621.628	28.5
622.39	26.5
623.152	24.5
623.914	24.5
624.676	21.5
625.438	21.5
626.199	17.5
626.961	20.5
627.722	17.5
628.484	18.5
629.245	19.5
630.006	19.5
630.768	15.5
631.529	18.5
632.29	16.5
633.051	16.5
633.812	13.5
634.573	14.5
635.333	14.5
636.094	17.5
636.855	15.5
637.615	14.5
638.376	12.5
639.136	12.5
639.896	11.5
640.657	11.5
641.417	10.5
642.177	12.5
642.937	13.5
643.697	9.5
644.457	11.5
645.216	10.5
645.976	8.5
646.736	9.5
647.495	11.5
648.255	6.5
649.014	7.5
649.774	9.5
650.533	9.5
651.292	9.5
652.051	7.5
652.81	9.5
653.569	10.5
654.328	7.5
655.087	8.5
655.846	7.5
656.604	6.5
657.363	7.5
658.121	7.5
658.88	7.5
659.638	5.5
660.397	8.5
661.155	5.5
661.913	5.5
662.671	8.5
663.429	3.5
664.187	8.5
664.945	5.5
665.703	7.5
666.46	4.5
667.218	7.5
667.976	4.5
668.733	3.5
669.49	6.5
670.248	4.5
671.005	4.5
671.762	4.5
672.519	2.5
673.276	5.5
674.033	6.5
674.79	4.5
675.547	5.5
676.304	7.5
677.06	5.5
677.817	3.5
678.574	6.5
679.33	4.5
680.086	6.5
680.843	3.5
681.599	7.5
682.355	6.5
683.111	2.5
683.867	5.5
684.623	4.5
685.379	5.5
686.135	4.5
686.89	4.5
687.646	4.5
688.402	4.5
689.157	4.5
689.912	3.5
690.668	3.5
691.423	5.5
692.178	6.5
692.933	4.5
693.688	1.5
694.443	3.5
695.198	2.5
695.953	4.5
696.708	4.5
697.462	2.5
698.217	1.5
698.972	3.5
699.726	5.5
700.48	3.5
701.235	4.5
701.989	2.5
702.743	2.5
703.497	7.5
704.251	4.5
705.005	6.5
705.759	4.5
706.513	2.5
707.266	6.5
708.02	6.5
708.774	5.5
709.527	4.5
710.28	4.5
711.034	3.5
711.787	5.5
712.54	6.5
713.293	2.5
714.046	2.5
714.799	5.5
715.552	4.5
716.305	4.5
717.058	3.5
717.81	3.5
718.563	4.5
719.315	4.5
720.068	6.5
720.82	2.5
721.573	4.5
722.325	3.5
723.077	2.5
723.829	5.5
724.581	3.5
725.333	3.5
726.085	2.5
726.836	7.5
727.588	4.5
728.34	5.5
729.091	3.5
729.843	6.5
730.594	3.5
731.346	5.5
732.097	6.5
732.848	6.5
733.599	3.5
734.35	5.5
735.101	4.5
735.852	4.5
736.603	6.5
737.354	5.5
738.104	6.5
738.855	5.5
739.605	5.5
740.356	2.5
741.106	6.5
741.856	5.5
742.607	5.5
743.357	6.5
744.107	4.5
744.857	6.5
745.607	7.5
746.357	6.5
747.106	6.5
747.856	5.5
748.606	11.5
749.355	8.5
750.105	7.5
750.854	8.5
751.603	6.5
752.353	6.5
753.102	9.5
753.851	7.5
754.6	8.5
755.349	8.5
756.098	7.5
756.847	5.5
757.595	9.5
758.344	4.5
759.093	6.5
759.841	5.5
760.589	9.5
761.338	7.5
762.086	9.5
762.834	10.5
763.582	10.5
764.331	8.5
765.079	7.5
765.826	6.5
766.574	8.5
767.322	8.5
768.07	9.5
768.817	8.5
769.565	10.5
770.312	11.5
771.06	8.5
771.807	11.5
772.554	9.5
773.302	9.5
774.049	9.5
774.796	11.5
775.543	13.5
776.29	11.5
777.036	13.5
777.783	10.5
778.53	10.5
779.276	13.5
780.023	11.5
780.769	9.5
781.516	11.5
782.262	8.5
783.008	13.5
783.754	10.5
784.5	13.5
785.246	11.5
785.992	13.5
786.738	10.5
787.484	12.5
788.23	11.5
788.975	12.5
789.721	9.5
790.466	9.5
791.212	8.5
791.957	9.5
792.702	13.5
793.447	10.5
794.193	9.5
794.938	9.5
795.683	11.5
796.427	12.5
797.172	9.5
797.917	8.5
798.662	9.5
799.406	8.5
800.151	10.5
800.895	8.5
801.64	7.5
802.384	7.5
803.128	8.5
803.872	10.5
804.616	8.5
805.36	7.5
806.104	7.5
806.848	7.5
807.592	7.5
808.336	7.5
809.079	5.5
809.823	7.5
810.566	4.5
811.31	6.5
812.053	8.5
812.796	6.5
813.539	4.5
814.283	6.5
815.026	5.5
815.769	4.5
816.511	4.5
817.254	4.5
817.997	8.5
818.74	6.5
819.482	3.5
820.225	5.5
820.967	6.5
821.71	6.5
822.452	4.5
823.194	4.5
823.936	5.5
824.678	3.5
825.42	6.5
826.162	4.5
826.904	3.5
827.646	5.5
828.388	4.5
829.129	1.5
829.871	6.5
830.612	4.5
831.354	4.5
832.095	4.5
832.836	3.5
833.577	2.5
834.319	4.5
835.06	4.5
835.801	5.5
836.542	3.5
837.282	2.5
838.023	3.5
838.764	3.5
839.504	2.5
840.245	4.5
840.985	2.5
841.726	1.5
842.466	4.5
843.206	3.5
843.946	2.5
844.687	1.5
845.427	4.5
846.166	2.5
846.906	5.5
847.646	3.5
848.386	3.5
849.125	1.5
849.865	2.5
850.605	4.5
851.344	4.5
852.083	2.5
852.823	-0.5
853.562	4.5
854.301	1.5
855.04	3.5
855.779	4.5
856.518	3.5
857.257	1.5
857.995	2.5
858.734	2.5
859.473	2.5
860.211	1.5
860.95	3.5
861.688	3.5
862.426	2.5
863.165	0.5
863.903	1.5
864.641	2.5
865.379	0.5
866.117	2.5
866.855	1.5
867.593	0.5
868.33	5.5
869.068	1.5
869.806	2.5
870.543	-0.5
871.28	-0.5
872.018	3.5
872.755	0.5
873.492	3.5
874.229	1.5
874.967	0.5
875.703	3.5
876.44	0.5
877.177	0.5
877.914	-0.5
878.651	2.5
879.387	-2.5
880.124	-0.5
880.86	0.5
881.597	1.5
882.333	0.5
883.069	1.5
883.806	-0.5
884.542	1.5
885.278	-0.5
886.014	-0.5
886.749	0.5
887.485	1.5
888.221	-0.5
888.957	0.5
889.692	0.5
890.428	-0.5
891.163	2.5
891.899	1.5
892.634	-0.5
893.369	-2.5
894.104	0.5
894.839	1.5
895.574	-0.5
896.309	-0.5
897.044	-1.5
897.779	1.5
898.514	-2.5
899.248	0.5
899.983	1.5
900.717	-1.5
901.452	-0.5
902.186	0.5
902.92	-1.5
903.654	-0.5
904.389	-1.5
905.123	0.5
905.857	-3.5
906.59	1.5
907.324	-1.5
908.058	0.5
908.792	-2.5
909.525	0.5
910.259	-0.5
910.992	-1.5
911.726	0.5
912.459	-1.5
913.192	0.5
913.925	0.5
914.658	-0.5
915.391	0.5
916.124	-1.5
916.857	0.5
917.59	-2.5
918.323	-0.5
919.055	1.5
919.788	0.5
920.521	-1.5
921.253	0.5
921.985	-0.5
922.718	0.5
923.45	-1.5
924.182	-2.5
924.914	-2.5
925.646	0.5
926.378	-1.5
927.11	-1.5
927.841	-0.5
928.573	-0.5
929.305	1.5
930.036	0.5
930.768	1.5
931.499	1.5
932.23	-0.5
932.962	1.5
933.693	-0.5
934.424	0.5
935.155	-3.5
935.886	-3.5
936.617	-1.5
937.348	-3.5
938.078	-0.5
938.809	-2.5
939.54	1.5
940.27	0.5
941.001	-0.5
941.731	1.5
942.461	-2.5
943.191	0.5
943.922	-2.5
944.652	-0.5
945.382	-0.5
946.112	-0.5
946.841	0.5
947.571	-1.5
948.301	1.5
949.031	-0.5
949.76	-1.5
950.49	-1.5
951.219	-1.5
951.948	2.5
952.678	-1.5
953.407	-0.5
954.136	-0.5
954.865	2.5
955.594	-1.5
956.323	-1.5
957.052	0.5
957.78	0.5
958.509	-1.5
959.238	0.5
959.966	1.5
960.695	1.5
961.423	1.5
962.151	-1.5
962.88	-2.5
963.608	-1.5
964.336	-0.5
965.064	-0.5
965.792	1.5
966.52	-2.5
967.247	-0.5
967.975	1.5
968.703	-0.5
969.43	-1.5
970.158	-1.5
970.885	-0.5
971.613	-2.5
972.34	-1.5
973.067	-0.5
973.794	-1.5
974.521	-0.5
975.248	-2.5
975.975	-0.5
976.702	0.5
977.429	-0.5
978.156	-0.5
978.882	-1.5
979.609	-0.5
980.335	-2.5
981.062	-0.5
981.788	-0.5
982.514	0.5
983.24	0.5
983.967	-0.5
984.693	-1.5
985.419	-0.5
986.144	-1.5
986.87	1.5
987.596	-2.5
988.322	-0.5
989.047	-0.5
989.773	-0.5
990.498	0.5
991.224	-0.5
991.949	1.5
992.674	-2.5
993.399	-1.5
994.124	-0.5
994.849	-2.5
995.574	-0.5
996.299	-0.5
997.024	-1.5
997.749	-0.5
998.473	-0.5
999.198	-0.5
999.922	0.5
1000.647	-0.5
1001.371	2.5
1002.095	-0.5
1002.82	-0.5
1003.544	-1.5
1004.268	1.5
1004.992	0.5
1005.716	2.5
1006.439	1.5
1007.163	2.5
1007.887	1.5
1008.611	-0.5
1009.334	0.5
1010.058	-1.5
1010.781	1.5
1011.504	0.5
1012.228	-1.5
1012.951	1.5
1013.674	-0.5
1014.397	-0.5
1015.12	-0.5
