节点500_425_QEPB04081__65__15-49-23-387.txt的数据

Date: Wed Nov 12 15:49:23 CST 2025
User: PC
Spectrometer: QEPB0408
触发模式: 0
积分时间 (秒): 1.000000E-2
Scans to average: 1
启用暗噪声校正: true
启用非线性校正: false
滑动平均宽度: 0
X轴模式: Wavelengths
Number of Pixels in Spectrum: 1044
>>>>>Begin Spectral Data<<<<<
220.843	1
221.644	2
222.444	4
223.244	2
224.045	5
224.845	5
225.645	2
226.445	3
227.245	5
228.045	6
228.845	6
229.645	5
230.444	6
231.244	6
232.043	5
232.843	6
233.642	7
234.442	5
235.241	3
236.04	5
236.839	6
237.638	6
238.437	9
239.236	7
240.035	7
240.833	9
241.632	7
242.43	6
243.229	6
244.027	7
244.826	9
245.624	9
246.422	9
247.22	8
248.018	12
248.816	11
249.614	8
250.412	7
251.21	12
252.007	11
252.805	10
253.602	13
254.4	11
255.197	11
255.994	14
256.791	12
257.589	13
258.386	13
259.183	16
259.979	14
260.776	16
261.573	16
262.37	16
263.166	15
263.963	21
264.759	20
265.556	22
266.352	17
267.148	18
267.944	19
268.74	21
269.536	19
270.332	20
271.128	20
271.924	19
272.719	25
273.515	21
274.311	23
275.106	24
275.901	23
276.697	24
277.492	27
278.287	28
279.082	26
279.877	27
280.672	29
281.467	25
282.262	25
283.056	23
283.851	27
284.646	26
285.44	25
286.234	26
287.029	25
287.823	25
288.617	24
289.411	26
290.205	25
290.999	24
291.793	25
292.587	25
293.381	23
294.174	23
294.968	23
295.761	22
296.555	19
297.348	20
298.141	21
298.935	26
299.728	15
300.521	19
301.314	22
302.107	16
302.899	15
303.692	14
304.485	16
305.277	19
306.07	14
306.862	16
307.655	14
308.447	15
309.239	15
310.031	15
310.823	12
311.615	13
312.407	14
313.199	13
313.991	11
314.783	13
315.574	11
316.366	12
317.157	12
317.949	10
318.74	9
319.531	10
320.322	8
321.113	10
321.904	12
322.695	8
323.486	10
324.277	9
325.068	8
325.858	10
326.649	9
327.439	8
328.23	8
329.02	8
329.81	11
330.6	8
331.391	8
332.181	7
332.971	7
333.76	8
334.55	7
335.34	10
336.13	10
336.919	8
337.709	10
338.498	6
339.287	9
340.077	6
340.866	7
341.655	8
342.444	8
343.233	9
344.022	7
344.811	8
345.6	9
346.388	8
347.177	9
347.965	10
348.754	6
349.542	8
350.33	9
351.119	9
351.907	8
352.695	8
353.483	6
354.271	10
355.059	7
355.846	8
356.634	7
357.422	6
358.209	10
358.997	6
359.784	7
360.571	8
361.359	9
362.146	4
362.933	7
363.72	8
364.507	7
365.294	6
366.081	9
366.867	5
367.654	6
368.44	6
369.227	9
370.013	8
370.8	5
371.586	5
372.372	6
373.158	7
373.944	9
374.73	6
375.516	8
376.302	8
377.088	6
377.873	7
378.659	9
379.445	7
380.23	8
381.015	6
381.801	10
382.586	6
383.371	7
384.156	7
384.941	6
385.726	8
386.511	7
387.296	6
388.08	9
388.865	7
389.649	9
390.434	10
391.218	10
392.003	11
392.787	9
393.571	10
394.355	10
395.139	7
395.923	8
396.707	10
397.491	8
398.274	8
399.058	8
399.842	9
400.625	10
401.408	9
402.192	8
402.975	9
403.758	10
404.541	12
405.324	12
406.107	9
406.89	12
407.673	10
408.456	10
409.238	10
410.021	11
410.803	12
411.586	9
412.368	12
413.151	13
413.933	14
414.715	13
415.497	13
416.279	14
417.061	13
417.843	16
418.624	14
419.406	13
420.188	17
420.969	13
421.751	16
422.532	14
423.313	16
424.095	18
424.876	19
425.657	18
426.438	19
427.219	18
428	18
428.78	18
429.561	18
430.342	18
431.122	23
431.903	21
432.683	23
433.464	24
434.244	23
435.024	22
435.804	27
436.584	24
437.364	29
438.144	30
438.924	32
439.704	31
440.483	36
441.263	34
442.042	39
442.822	36
443.601	42
444.38	46
445.16	48
445.939	50
446.718	51
447.497	61
448.276	64
449.054	68
449.833	75
450.612	77
451.391	85
452.169	96
452.948	104
453.726	119
454.504	124
455.282	136
456.061	158
456.839	178
457.617	196
458.395	214
459.172	237
459.95	267
460.728	297
461.506	323
462.283	370
463.061	410
463.838	468
464.615	522
465.393	578
466.17	657
466.947	736
467.724	814
468.501	902
469.278	1001
470.055	1121
470.831	1260
471.608	1387
472.385	1545
473.161	1728
473.938	1911
474.714	2143
475.49	2364
476.266	2607
477.043	2892
477.819	3199
478.595	3537
479.371	3910
480.146	4324
480.922	4785
481.698	5253
482.473	5812
483.249	6361
484.024	7042
484.8	7759
485.575	8475
486.35	9270
487.126	10190
487.901	11167
488.676	12268
489.451	13335
490.225	14525
491	15774
491.775	17204
492.55	18599
493.324	20099
494.099	21510
494.873	23060
495.647	24609
496.422	26130
497.196	27706
497.97	29348
498.744	30882
499.518	32264
500.292	33526
501.066	34669
501.839	35686
502.613	36410
503.387	36948
504.16	37423
504.934	37465
505.707	37286
506.48	36896
507.253	36408
508.027	35748
508.8	34989
509.573	33910
510.346	32950
511.118	31837
511.891	30679
512.664	29510
513.437	28147
514.209	26855
514.982	25900
515.754	24740
516.526	23630
517.298	22633
518.071	21654
518.843	20706
519.615	19893
520.387	19112
521.159	18375
521.93	17726
522.702	16950
523.474	16322
524.245	15647
525.017	14902
525.788	14228
526.56	13558
527.331	12923
528.102	12250
528.873	11674
529.644	11014
530.415	10531
531.186	10036
531.957	9430
532.728	8912
533.498	8414
534.269	7958
535.039	7517
535.81	7094
536.58	6692
537.351	6312
538.121	5959
538.891	5672
539.661	5368
540.431	5067
541.201	4792
541.971	4556
542.741	4314
543.51	4095
544.28	3889
545.05	3731
545.819	3517
546.588	3346
547.358	3185
548.127	3002
548.896	2839
549.665	2694
550.434	2574
551.203	2434
551.972	2306
552.741	2174
553.51	2051
554.278	1919
555.047	1810
555.815	1719
556.584	1628
557.352	1517
558.121	1427
558.889	1338
559.657	1290
560.425	1201
561.193	1142
561.961	1098
562.729	1022
563.496	977
564.264	917
565.032	878
565.799	817
566.567	778
567.334	737
568.101	691
568.869	656
569.636	617
570.403	580
571.17	543
571.937	515
572.704	494
573.471	453
574.237	432
575.004	411
575.771	388
576.537	362
577.303	342
578.07	322
578.836	306
579.602	286
580.368	268
581.134	258
581.9	252
582.666	229
583.432	224
584.198	211
584.964	205
585.729	188
586.495	185
587.26	167
588.025	163
588.791	155
589.556	139
590.321	140
591.086	131
591.851	129
592.616	118
593.381	114
594.146	111
594.911	100
595.675	102
596.44	93
597.204	92
597.969	86
598.733	84
599.497	80
600.261	74
601.025	71
601.79	69
602.553	69
603.317	62
604.081	59
604.845	59
605.609	53
606.372	53
607.136	48
607.899	49
608.662	44
609.426	44
610.189	42
610.952	44
611.715	39
612.478	43
613.241	38
614.004	33
614.767	37
615.529	35
616.292	34
617.055	32
617.817	31
618.579	30
619.342	31
620.104	26
620.866	27
621.628	25
622.39	23
623.152	24
623.914	23
624.676	21
625.438	24
626.199	20
626.961	24
627.722	20
628.484	19
629.245	18
630.006	16
630.768	19
631.529	17
632.29	18
633.051	18
633.812	14
634.573	15
635.333	15
636.094	17
636.855	14
637.615	14
638.376	14
639.136	10
639.896	12
640.657	12
641.417	12
642.177	12
642.937	10
643.697	10
644.457	11
645.216	10
645.976	8
646.736	9
647.495	9
648.255	11
649.014	12
649.774	10
650.533	12
651.292	8
652.051	8
652.81	9
653.569	7
654.328	9
655.087	9
655.846	9
656.604	6
657.363	6
658.121	8
658.88	8
659.638	6
660.397	9
661.155	7
661.913	7
662.671	10
663.429	9
664.187	6
664.945	5
665.703	6
666.46	5
667.218	7
667.976	4
668.733	8
669.49	6
670.248	6
671.005	7
671.762	5
672.519	8
673.276	6
674.033	6
674.79	4
675.547	3
676.304	5
677.06	5
677.817	8
678.574	7
679.33	5
680.086	6
680.843	9
681.599	7
682.355	5
683.111	7
683.867	7
684.623	8
685.379	6
686.135	3
686.89	6
687.646	5
688.402	5
689.157	4
689.912	7
690.668	5
691.423	5
692.178	4
692.933	7
693.688	5
694.443	6
695.198	4
695.953	5
696.708	6
697.462	5
698.217	4
698.972	3
699.726	4
700.48	5
701.235	5
701.989	5
702.743	3
703.497	6
704.251	5
705.005	5
705.759	6
706.513	6
707.266	2
708.02	5
708.774	5
709.527	6
710.28	4
711.034	6
711.787	4
712.54	6
713.293	3
714.046	7
714.799	6
715.552	4
716.305	6
717.058	5
717.81	4
718.563	4
719.315	4
720.068	4
720.82	5
721.573	6
722.325	4
723.077	6
723.829	5
724.581	6
725.333	4
726.085	5
726.836	5
727.588	5
728.34	8
729.091	5
729.843	5
730.594	8
731.346	3
732.097	6
732.848	5
733.599	8
734.35	4
735.101	5
735.852	6
736.603	6
737.354	8
738.104	5
738.855	5
739.605	7
740.356	7
741.106	7
741.856	5
742.607	7
743.357	6
744.107	6
744.857	7
745.607	7
746.357	7
747.106	7
747.856	6
748.606	7
749.355	8
750.105	9
750.854	7
751.603	7
752.353	7
753.102	6
753.851	11
754.6	7
755.349	10
756.098	8
756.847	9
757.595	10
758.344	9
759.093	8
759.841	8
760.589	8
761.338	10
762.086	9
762.834	10
763.582	8
764.331	8
765.079	10
765.826	9
766.574	9
767.322	11
768.07	10
768.817	10
769.565	12
770.312	10
771.06	10
771.807	12
772.554	11
773.302	11
774.049	10
774.796	10
775.543	12
776.29	11
777.036	14
777.783	10
778.53	12
779.276	13
780.023	11
780.769	14
781.516	10
782.262	13
783.008	13
783.754	12
784.5	9
785.246	10
785.992	11
786.738	11
787.484	10
788.23	12
788.975	13
789.721	13
790.466	9
791.212	11
791.957	10
792.702	12
793.447	8
794.193	10
794.938	10
795.683	10
796.427	13
797.172	12
797.917	11
798.662	12
799.406	9
800.151	10
800.895	8
801.64	6
802.384	8
803.128	9
803.872	7
804.616	8
805.36	10
806.104	9
806.848	6
807.592	9
808.336	6
809.079	8
809.823	7
810.566	6
811.31	7
812.053	8
812.796	6
813.539	7
814.283	7
815.026	5
815.769	6
816.511	8
817.254	3
817.997	5
818.74	6
819.482	6
820.225	5
820.967	5
821.71	5
822.452	6
823.194	4
823.936	4
824.678	4
825.42	7
826.162	5
826.904	5
827.646	5
828.388	4
829.129	6
829.871	5
830.612	5
831.354	3
832.095	4
832.836	3
833.577	6
834.319	4
835.06	6
835.801	2
836.542	3
837.282	3
838.023	4
838.764	4
839.504	4
840.245	5
840.985	4
841.726	4
842.466	4
843.206	3
843.946	3
844.687	4
845.427	5
846.166	3
846.906	3
847.646	3
848.386	3
849.125	3
849.865	4
850.605	5
851.344	4
852.083	1
852.823	2
853.562	3
854.301	0
855.04	4
855.779	2
856.518	3
857.257	3
857.995	3
858.734	2
859.473	2
860.211	4
860.95	2
861.688	2
862.426	2
863.165	3
863.903	1
864.641	3
865.379	0
866.117	2
866.855	2
867.593	0
868.33	1
869.068	2
869.806	-2
870.543	2
871.28	1
872.018	1
872.755	0
873.492	-1
874.229	3
874.967	3
875.703	1
876.44	1
877.177	-1
877.914	0
878.651	3
879.387	3
880.124	1
880.86	-1
881.597	3
882.333	1
883.069	2
883.806	-1
884.542	-1
885.278	1
886.014	0
886.749	1
887.485	-1
888.221	2
888.957	1
889.692	0
890.428	2
891.163	0
891.899	-1
892.634	2
893.369	1
894.104	0
894.839	1
895.574	1
896.309	-1
897.044	1
897.779	-2
898.514	1
899.248	2
899.983	0
900.717	4
901.452	1
902.186	-2
902.92	0
903.654	1
904.389	0
905.123	0
905.857	0
906.59	2
907.324	0
908.058	-2
908.792	1
909.525	1
910.259	1
910.992	1
911.726	1
912.459	-1
913.192	0
913.925	1
914.658	2
915.391	1
916.124	3
916.857	-1
917.59	1
918.323	2
919.055	1
919.788	0
920.521	0
921.253	0
921.985	0
922.718	-1
923.45	2
924.182	0
924.914	0
925.646	-2
926.378	0
927.11	-1
927.841	-1
928.573	0
929.305	-1
930.036	-1
930.768	1
931.499	0
932.23	-2
932.962	0
933.693	0
934.424	0
935.155	0
935.886	1
936.617	-2
937.348	-1
938.078	0
938.809	1
939.54	1
940.27	0
941.001	0
941.731	-1
942.461	-1
943.191	1
943.922	0
944.652	-2
945.382	0
946.112	2
946.841	0
947.571	0
948.301	1
949.031	0
949.76	1
950.49	0
951.219	2
951.948	0
952.678	0
953.407	0
954.136	-2
954.865	1
955.594	0
956.323	1
957.052	2
957.78	-1
958.509	0
959.238	0
959.966	2
960.695	-2
961.423	3
962.151	0
962.88	0
963.608	1
964.336	0
965.064	-1
965.792	-1
966.52	0
967.247	-1
967.975	0
968.703	1
969.43	0
970.158	2
970.885	1
971.613	0
972.34	0
973.067	-1
973.794	1
974.521	-2
975.248	0
975.975	0
976.702	-2
977.429	1
978.156	-2
978.882	3
979.609	-1
980.335	0
981.062	2
981.788	0
982.514	1
983.24	0
983.967	-1
984.693	1
985.419	0
986.144	-1
986.87	-1
987.596	1
988.322	-2
989.047	2
989.773	2
990.498	-2
991.224	-2
991.949	1
992.674	0
993.399	0
994.124	-2
994.849	1
995.574	-3
996.299	2
997.024	-1
997.749	1
998.473	1
999.198	1
999.922	0
1000.647	0
1001.371	4
1002.095	-2
1002.82	-2
1003.544	0
1004.268	3
1004.992	0
1005.716	3
1006.439	2
1007.163	3
1007.887	3
1008.611	-1
1009.334	0
1010.058	1
1010.781	0
1011.504	0
1012.228	0
1012.951	1
1013.674	-1
1014.397	-1
1015.12	1
