节点500_425_QEPB04081__70__15-49-28-379.txt的数据

Date: Wed Nov 12 15:49:28 CST 2025
User: PC
Spectrometer: QEPB0408
触发模式: 0
积分时间 (秒): 1.000000E-2
Scans to average: 1
启用暗噪声校正: true
启用非线性校正: false
滑动平均宽度: 0
X轴模式: Wavelengths
Number of Pixels in Spectrum: 1044
>>>>>Begin Spectral Data<<<<<
220.843	3
221.644	3
222.444	4
223.244	6
224.045	3
224.845	4
225.645	5
226.445	3
227.245	3
228.045	6
228.845	6
229.645	8
230.444	6
231.244	6
232.043	6
232.843	5
233.642	7
234.442	5
235.241	7
236.04	5
236.839	6
237.638	7
238.437	8
239.236	7
240.035	5
240.833	9
241.632	7
242.43	7
243.229	6
244.027	8
244.826	8
245.624	11
246.422	7
247.22	9
248.018	11
248.816	11
249.614	9
250.412	9
251.21	12
252.007	12
252.805	10
253.602	12
254.4	10
255.197	12
255.994	11
256.791	15
257.589	12
258.386	15
259.183	16
259.979	15
260.776	14
261.573	16
262.37	19
263.166	20
263.963	19
264.759	21
265.556	17
266.352	21
267.148	20
267.944	24
268.74	21
269.536	25
270.332	23
271.128	22
271.924	23
272.719	26
273.515	23
274.311	28
275.106	24
275.901	27
276.697	28
277.492	28
278.287	28
279.082	31
279.877	26
280.672	24
281.467	26
282.262	22
283.056	26
283.851	28
284.646	25
285.44	26
286.234	27
287.029	29
287.823	26
288.617	24
289.411	25
290.205	25
290.999	27
291.793	26
292.587	27
293.381	26
294.174	24
294.968	26
295.761	21
296.555	21
297.348	22
298.141	21
298.935	21
299.728	19
300.521	19
301.314	18
302.107	19
302.899	19
303.692	15
304.485	19
305.277	19
306.07	16
306.862	17
307.655	13
308.447	15
309.239	16
310.031	16
310.823	14
311.615	16
312.407	14
313.199	16
313.991	14
314.783	11
315.574	12
316.366	8
317.157	12
317.949	10
318.74	10
319.531	13
320.322	10
321.113	10
321.904	11
322.695	9
323.486	11
324.277	10
325.068	10
325.858	10
326.649	11
327.439	9
328.23	10
329.02	9
329.81	10
330.6	8
331.391	11
332.181	8
332.971	12
333.76	9
334.55	10
335.34	11
336.13	9
336.919	11
337.709	8
338.498	7
339.287	9
340.077	11
340.866	11
341.655	11
342.444	8
343.233	7
344.022	10
344.811	7
345.6	8
346.388	10
347.177	8
347.965	10
348.754	9
349.542	10
350.33	9
351.119	11
351.907	9
352.695	9
353.483	6
354.271	7
355.059	10
355.846	7
356.634	7
357.422	7
358.209	8
358.997	9
359.784	7
360.571	7
361.359	7
362.146	5
362.933	9
363.72	8
364.507	7
365.294	9
366.081	8
366.867	6
367.654	7
368.44	7
369.227	8
370.013	5
370.8	9
371.586	6
372.372	6
373.158	9
373.944	6
374.73	8
375.516	8
376.302	8
377.088	8
377.873	8
378.659	7
379.445	6
380.23	8
381.015	7
381.801	10
382.586	8
383.371	8
384.156	8
384.941	6
385.726	10
386.511	9
387.296	9
388.08	8
388.865	7
389.649	9
390.434	8
391.218	9
392.003	8
392.787	11
393.571	9
394.355	9
395.139	9
395.923	7
396.707	11
397.491	6
398.274	8
399.058	11
399.842	10
400.625	10
401.408	11
402.192	12
402.975	11
403.758	8
404.541	10
405.324	9
406.107	13
406.89	11
407.673	11
408.456	12
409.238	11
410.021	13
410.803	14
411.586	16
412.368	13
413.151	11
413.933	12
414.715	13
415.497	16
416.279	11
417.061	15
417.843	17
418.624	14
419.406	13
420.188	13
420.969	14
421.751	17
422.532	16
423.313	17
424.095	18
424.876	19
425.657	17
426.438	20
427.219	17
428	18
428.78	19
429.561	19
430.342	19
431.122	22
431.903	22
432.683	23
433.464	26
434.244	25
435.024	25
435.804	27
436.584	29
437.364	28
438.144	31
438.924	30
439.704	38
440.483	34
441.263	37
442.042	38
442.822	40
443.601	42
444.38	46
445.16	47
445.939	54
446.718	56
447.497	61
448.276	63
449.054	67
449.833	75
450.612	83
451.391	91
452.169	96
452.948	105
453.726	115
454.504	131
455.282	145
456.061	158
456.839	172
457.617	192
458.395	217
459.172	243
459.95	271
460.728	296
461.506	336
462.283	373
463.061	413
463.838	472
464.615	520
465.393	584
466.17	662
466.947	723
467.724	826
468.501	913
469.278	1026
470.055	1139
470.831	1241
471.608	1404
472.385	1570
473.161	1721
473.938	1923
474.714	2130
475.49	2348
476.266	2641
477.043	2909
477.819	3211
478.595	3578
479.371	3921
480.146	4326
480.922	4781
481.698	5263
482.473	5788
483.249	6335
484.024	7006
484.8	7738
485.575	8460
486.35	9297
487.126	10185
487.901	11141
488.676	12187
489.451	13352
490.225	14502
491	15779
491.775	17149
492.55	18560
493.324	20040
494.099	21501
494.873	22966
495.647	24535
496.422	26103
497.196	27656
497.97	29269
498.744	30758
499.518	32184
500.292	33478
501.066	34493
501.839	35614
502.613	36419
503.387	36917
504.16	37268
504.934	37436
505.707	37208
506.48	36882
507.253	36359
508.027	35767
508.8	34996
509.573	34027
510.346	33039
511.118	31823
511.891	30674
512.664	29470
513.437	28182
514.209	26970
514.982	25924
515.754	24719
516.526	23635
517.298	22616
518.071	21627
518.843	20807
519.615	19903
520.387	19114
521.159	18436
521.93	17669
522.702	16958
523.474	16350
524.245	15633
525.017	14936
525.788	14176
526.56	13503
527.331	12924
528.102	12277
528.873	11679
529.644	11084
530.415	10509
531.186	10049
531.957	9439
532.728	8943
533.498	8428
534.269	7961
535.039	7520
535.81	7110
536.58	6691
537.351	6321
538.121	5966
538.891	5643
539.661	5409
540.431	5085
541.201	4812
541.971	4574
542.741	4338
543.51	4115
544.28	3881
545.05	3709
545.819	3527
546.588	3375
547.358	3172
548.127	3014
548.896	2853
549.665	2692
550.434	2584
551.203	2456
551.972	2295
552.741	2171
553.51	2072
554.278	1943
555.047	1818
555.815	1716
556.584	1622
557.352	1543
558.121	1438
558.889	1368
559.657	1298
560.425	1233
561.193	1147
561.961	1094
562.729	1028
563.496	987
564.264	923
565.032	874
565.799	819
566.567	781
567.334	745
568.101	705
568.869	646
569.636	615
570.403	575
571.17	543
571.937	512
572.704	501
573.471	473
574.237	437
575.004	414
575.771	388
576.537	361
577.303	347
578.07	323
578.836	302
579.602	290
580.368	274
581.134	271
581.9	251
582.666	232
583.432	220
584.198	211
584.964	201
585.729	194
586.495	184
587.26	170
588.025	165
588.791	155
589.556	143
590.321	138
591.086	132
591.851	126
592.616	118
593.381	114
594.146	109
594.911	102
595.675	98
596.44	95
597.204	95
597.969	85
598.733	81
599.497	81
600.261	76
601.025	73
601.79	66
602.553	63
603.317	62
604.081	61
604.845	58
605.609	53
606.372	55
607.136	51
607.899	48
608.662	46
609.426	46
610.189	43
610.952	44
611.715	42
612.478	41
613.241	40
614.004	38
614.767	35
615.529	35
616.292	34
617.055	32
617.817	29
618.579	31
619.342	31
620.104	29
620.866	28
621.628	24
622.39	27
623.152	25
623.914	25
624.676	26
625.438	22
626.199	24
626.961	21
627.722	23
628.484	18
629.245	19
630.006	21
630.768	19
631.529	20
632.29	15
633.051	15
633.812	17
634.573	18
635.333	17
636.094	18
636.855	13
637.615	18
638.376	14
639.136	14
639.896	15
640.657	14
641.417	14
642.177	10
642.937	13
643.697	11
644.457	13
645.216	11
645.976	12
646.736	10
647.495	11
648.255	13
649.014	9
649.774	9
650.533	11
651.292	10
652.051	11
652.81	11
653.569	10
654.328	8
655.087	8
655.846	11
656.604	9
657.363	9
658.121	9
658.88	9
659.638	7
660.397	7
661.155	8
661.913	7
662.671	9
663.429	8
664.187	8
664.945	6
665.703	7
666.46	10
667.218	7
667.976	6
668.733	9
669.49	9
670.248	8
671.005	5
671.762	8
672.519	6
673.276	6
674.033	7
674.79	6
675.547	9
676.304	9
677.06	6
677.817	7
678.574	5
679.33	5
680.086	7
680.843	8
681.599	6
682.355	5
683.111	7
683.867	7
684.623	4
685.379	6
686.135	6
686.89	5
687.646	5
688.402	7
689.157	5
689.912	5
690.668	4
691.423	6
692.178	5
692.933	6
693.688	7
694.443	6
695.198	7
695.953	6
696.708	7
697.462	6
698.217	7
698.972	5
699.726	5
700.48	5
701.235	6
701.989	6
702.743	5
703.497	6
704.251	6
705.005	7
705.759	8
706.513	8
707.266	6
708.02	6
708.774	6
709.527	7
710.28	3
711.034	6
711.787	5
712.54	7
713.293	4
714.046	5
714.799	3
715.552	7
716.305	6
717.058	5
717.81	6
718.563	6
719.315	6
720.068	4
720.82	3
721.573	7
722.325	6
723.077	9
723.829	6
724.581	8
725.333	8
726.085	8
726.836	6
727.588	8
728.34	7
729.091	7
729.843	7
730.594	6
731.346	5
732.097	8
732.848	6
733.599	7
734.35	6
735.101	6
735.852	6
736.603	7
737.354	7
738.104	5
738.855	7
739.605	7
740.356	5
741.106	6
741.856	8
742.607	6
743.357	6
744.107	7
744.857	9
745.607	8
746.357	8
747.106	9
747.856	7
748.606	7
749.355	8
750.105	10
750.854	9
751.603	10
752.353	8
753.102	7
753.851	9
754.6	11
755.349	8
756.098	8
756.847	10
757.595	12
758.344	7
759.093	7
759.841	9
760.589	8
761.338	9
762.086	10
762.834	10
763.582	9
764.331	12
765.079	12
765.826	11
766.574	9
767.322	11
768.07	11
768.817	13
769.565	12
770.312	11
771.06	10
771.807	8
772.554	13
773.302	10
774.049	12
774.796	13
775.543	9
776.29	14
777.036	13
777.783	10
778.53	13
779.276	12
780.023	11
780.769	13
781.516	14
782.262	11
783.008	13
783.754	11
784.5	12
785.246	15
785.992	14
786.738	12
787.484	12
788.23	12
788.975	13
789.721	12
790.466	13
791.212	12
791.957	14
792.702	10
793.447	12
794.193	11
794.938	13
795.683	13
796.427	10
797.172	11
797.917	10
798.662	11
799.406	12
800.151	9
800.895	12
801.64	11
802.384	10
803.128	9
803.872	7
804.616	7
805.36	9
806.104	10
806.848	9
807.592	7
808.336	9
809.079	8
809.823	7
810.566	5
811.31	8
812.053	7
812.796	8
813.539	7
814.283	8
815.026	7
815.769	7
816.511	7
817.254	8
817.997	5
818.74	6
819.482	8
820.225	5
820.967	6
821.71	7
822.452	9
823.194	8
823.936	6
824.678	6
825.42	8
826.162	7
826.904	4
827.646	7
828.388	4
829.129	10
829.871	5
830.612	5
831.354	6
832.095	6
832.836	5
833.577	7
834.319	5
835.06	7
835.801	5
836.542	4
837.282	5
838.023	4
838.764	3
839.504	4
840.245	7
840.985	7
841.726	5
842.466	5
843.206	7
843.946	6
844.687	3
845.427	6
846.166	4
846.906	4
847.646	5
848.386	6
849.125	5
849.865	6
850.605	4
851.344	2
852.083	6
852.823	3
853.562	4
854.301	5
855.04	3
855.779	4
856.518	3
857.257	6
857.995	5
858.734	3
859.473	3
860.211	2
860.95	2
861.688	4
862.426	4
863.165	3
863.903	4
864.641	1
865.379	2
866.117	3
866.855	2
867.593	1
868.33	3
869.068	3
869.806	1
870.543	3
871.28	2
872.018	3
872.755	0
873.492	5
874.229	1
874.967	4
875.703	3
876.44	-1
877.177	3
877.914	4
878.651	2
879.387	3
880.124	2
880.86	4
881.597	1
882.333	2
883.069	3
883.806	1
884.542	2
885.278	2
886.014	2
886.749	2
887.485	3
888.221	1
888.957	2
889.692	3
890.428	0
891.163	2
891.899	0
892.634	2
893.369	1
894.104	-1
894.839	0
895.574	1
896.309	3
897.044	2
897.779	2
898.514	3
899.248	0
899.983	2
900.717	-2
901.452	3
902.186	2
902.92	-1
903.654	1
904.389	4
905.123	2
905.857	2
906.59	5
907.324	2
908.058	-1
908.792	2
909.525	1
910.259	3
910.992	1
911.726	1
912.459	3
913.192	2
913.925	1
914.658	1
915.391	0
916.124	2
916.857	2
917.59	3
918.323	1
919.055	2
919.788	1
920.521	1
921.253	0
921.985	0
922.718	1
923.45	1
924.182	1
924.914	1
925.646	2
926.378	3
927.11	2
927.841	2
928.573	0
929.305	-1
930.036	-1
930.768	1
931.499	2
932.23	4
932.962	2
933.693	2
934.424	1
935.155	3
935.886	-1
936.617	1
937.348	1
938.078	2
938.809	1
939.54	0
940.27	1
941.001	1
941.731	2
942.461	1
943.191	0
943.922	3
944.652	1
945.382	1
946.112	0
946.841	1
947.571	0
948.301	0
949.031	2
949.76	1
950.49	2
951.219	2
951.948	0
952.678	1
953.407	0
954.136	2
954.865	1
955.594	3
956.323	1
957.052	3
957.78	2
958.509	0
959.238	1
959.966	2
960.695	2
961.423	1
962.151	-1
962.88	1
963.608	2
964.336	1
965.064	1
965.792	-2
966.52	3
967.247	0
967.975	0
968.703	-1
969.43	0
970.158	3
970.885	2
971.613	3
972.34	2
973.067	3
973.794	0
974.521	-2
975.248	2
975.975	-1
976.702	2
977.429	2
978.156	-1
978.882	0
979.609	-2
980.335	2
981.062	-1
981.788	0
982.514	-1
983.24	2
983.967	1
984.693	-2
985.419	3
986.144	-1
986.87	0
987.596	-1
988.322	1
989.047	1
989.773	-1
990.498	3
991.224	1
991.949	1
992.674	2
993.399	1
994.124	2
994.849	1
995.574	-1
996.299	1
997.024	-1
997.749	2
998.473	0
999.198	3
999.922	1
1000.647	2
1001.371	3
1002.095	1
1002.82	-1
1003.544	-2
1004.268	3
1004.992	4
1005.716	3
1006.439	3
1007.163	2
1007.887	3
1008.611	0
1009.334	0
1010.058	1
1010.781	2
1011.504	1
1012.228	3
1012.951	0
1013.674	0
1014.397	0
1015.12	-1
