节点500_425_QEPB04081__166__15-51-04-186.txt的数据

Date: Wed Nov 12 15:51:04 CST 2025
User: PC
Spectrometer: QEPB0408
触发模式: 0
积分时间 (秒): 1.000000E-2
Scans to average: 1
启用暗噪声校正: true
启用非线性校正: false
滑动平均宽度: 0
X轴模式: Wavelengths
Number of Pixels in Spectrum: 1044
>>>>>Begin Spectral Data<<<<<
220.843	3.62
221.644	3.62
222.444	2.62
223.244	1.62
224.045	8.62
224.845	5.62
225.645	5.62
226.445	3.62
227.245	3.62
228.045	2.62
228.845	4.62
229.645	5.62
230.444	3.62
231.244	6.62
232.043	6.62
232.843	4.62
233.642	6.62
234.442	5.62
235.241	7.62
236.04	7.62
236.839	9.62
237.638	8.62
238.437	6.62
239.236	6.62
240.035	7.62
240.833	6.62
241.632	7.62
242.43	8.62
243.229	7.62
244.027	7.62
244.826	10.62
245.624	7.62
246.422	7.62
247.22	11.62
248.018	9.62
248.816	7.62
249.614	8.62
250.412	9.62
251.21	9.62
252.007	11.62
252.805	10.62
253.602	10.62
254.4	12.62
255.197	10.62
255.994	11.62
256.791	11.62
257.589	13.62
258.386	11.62
259.183	13.62
259.979	15.62
260.776	17.62
261.573	18.62
262.37	18.62
263.166	17.62
263.963	14.62
264.759	18.62
265.556	21.62
266.352	19.62
267.148	20.62
267.944	19.62
268.74	19.62
269.536	22.62
270.332	23.62
271.128	25.62
271.924	24.62
272.719	21.62
273.515	24.62
274.311	20.62
275.106	21.62
275.901	24.62
276.697	25.62
277.492	24.62
278.287	24.62
279.082	23.62
279.877	24.62
280.672	24.62
281.467	26.62
282.262	27.62
283.056	26.62
283.851	27.62
284.646	26.62
285.44	27.62
286.234	27.62
287.029	25.62
287.823	25.62
288.617	26.62
289.411	22.62
290.205	28.62
290.999	25.62
291.793	24.62
292.587	24.62
293.381	23.62
294.174	22.62
294.968	20.62
295.761	21.62
296.555	20.62
297.348	21.62
298.141	21.62
298.935	18.62
299.728	17.62
300.521	19.62
301.314	21.62
302.107	21.62
302.899	14.62
303.692	17.62
304.485	13.62
305.277	17.62
306.07	14.62
306.862	15.62
307.655	15.62
308.447	14.62
309.239	19.62
310.031	14.62
310.823	12.62
311.615	14.62
312.407	12.62
313.199	11.62
313.991	11.62
314.783	14.62
315.574	11.62
316.366	12.62
317.157	10.62
317.949	9.62
318.74	12.62
319.531	11.62
320.322	10.62
321.113	12.62
321.904	11.62
322.695	12.62
323.486	10.62
324.277	8.62
325.068	10.62
325.858	10.62
326.649	7.62
327.439	8.62
328.23	11.62
329.02	9.62
329.81	10.62
330.6	10.62
331.391	6.62
332.181	10.62
332.971	8.62
333.76	7.62
334.55	9.62
335.34	9.62
336.13	8.62
336.919	7.62
337.709	8.62
338.498	7.62
339.287	7.62
340.077	6.62
340.866	7.62
341.655	9.62
342.444	8.62
343.233	9.62
344.022	9.62
344.811	7.62
345.6	8.62
346.388	7.62
347.177	8.62
347.965	7.62
348.754	7.62
349.542	7.62
350.33	7.62
351.119	6.62
351.907	7.62
352.695	8.62
353.483	7.62
354.271	7.62
355.059	7.62
355.846	8.62
356.634	8.62
357.422	5.62
358.209	11.62
358.997	8.62
359.784	8.62
360.571	7.62
361.359	8.62
362.146	8.62
362.933	7.62
363.72	8.62
364.507	7.62
365.294	8.62
366.081	10.62
366.867	9.62
367.654	8.62
368.44	7.62
369.227	5.62
370.013	6.62
370.8	7.62
371.586	7.62
372.372	8.62
373.158	8.62
373.944	7.62
374.73	6.62
375.516	9.62
376.302	6.62
377.088	6.62
377.873	6.62
378.659	7.62
379.445	7.62
380.23	9.62
381.015	5.62
381.801	7.62
382.586	8.62
383.371	8.62
384.156	8.62
384.941	8.62
385.726	6.62
386.511	7.62
387.296	7.62
388.08	5.62
388.865	8.62
389.649	6.62
390.434	7.62
391.218	9.62
392.003	7.62
392.787	8.62
393.571	7.62
394.355	9.62
395.139	10.62
395.923	8.62
396.707	9.62
397.491	10.62
398.274	12.62
399.058	10.62
399.842	10.62
400.625	11.62
401.408	7.62
402.192	11.62
402.975	10.62
403.758	12.62
404.541	11.62
405.324	9.62
406.107	10.62
406.89	11.62
407.673	12.62
408.456	11.62
409.238	12.62
410.021	14.62
410.803	10.62
411.586	10.62
412.368	11.62
413.151	13.62
413.933	13.62
414.715	13.62
415.497	12.62
416.279	11.62
417.061	12.62
417.843	12.62
418.624	13.62
419.406	14.62
420.188	14.62
420.969	12.62
421.751	14.62
422.532	14.62
423.313	16.62
424.095	16.62
424.876	16.62
425.657	18.62
426.438	18.62
427.219	21.62
428	17.62
428.78	17.62
429.561	20.62
430.342	18.62
431.122	19.62
431.903	21.62
432.683	23.62
433.464	23.62
434.244	21.62
435.024	26.62
435.804	27.62
436.584	25.62
437.364	28.62
438.144	28.62
438.924	31.62
439.704	30.62
440.483	32.62
441.263	37.62
442.042	36.62
442.822	40.62
443.601	41.62
444.38	44.62
445.16	49.62
445.939	51.62
446.718	56.62
447.497	58.62
448.276	66.62
449.054	71.62
449.833	72.62
450.612	86.62
451.391	94.62
452.169	100.62
452.948	109.62
453.726	123.62
454.504	132.62
455.282	148.62
456.061	161.62
456.839	178.62
457.617	209.62
458.395	226.62
459.172	254.62
459.95	273.62
460.728	307.62
461.506	337.62
462.283	388.62
463.061	426.62
463.838	486.62
464.615	537.62
465.393	597.62
466.17	673.62
466.947	742.62
467.724	828.62
468.501	925.62
469.278	1033.62
470.055	1168.62
470.831	1267.62
471.608	1411.62
472.385	1563.62
473.161	1757.62
473.938	1937.62
474.714	2161.62
475.49	2370.62
476.266	2635.62
477.043	2910.62
477.819	3211.62
478.595	3535.62
479.371	3911.62
480.146	4279.62
480.922	4716.62
481.698	5188.62
482.473	5680.62
483.249	6281.62
484.024	6844.62
484.8	7559.62
485.575	8252.62
486.35	9038.62
487.126	9864.62
487.901	10792.62
488.676	11787.62
489.451	12893.62
490.225	13946.62
491	15237.62
491.775	16535.62
492.55	17837.62
493.324	19285.62
494.099	20658.62
494.873	22010.62
495.647	23536.62
496.422	25080.62
497.196	26570.62
497.97	28195.62
498.744	29657.62
499.518	30935.62
500.292	32233.62
501.066	33300.62
501.839	34418.62
502.613	35357.62
503.387	35874.62
504.16	36328.62
504.934	36534.62
505.707	36464.62
506.48	36294.62
507.253	35841.62
508.027	35391.62
508.8	34618.62
509.573	33747.62
510.346	32856.62
511.118	31848.62
511.891	30722.62
512.664	29536.62
513.437	28257.62
514.209	27068.62
514.982	26031.62
515.754	25001.62
516.526	23806.62
517.298	22884.62
518.071	21886.62
518.843	21011.62
519.615	20148.62
520.387	19330.62
521.159	18565.62
521.93	17914.62
522.702	17143.62
523.474	16468.62
524.245	15782.62
525.017	15017.62
525.788	14396.62
526.56	13740.62
527.331	13062.62
528.102	12453.62
528.873	11851.62
529.644	11275.62
530.415	10739.62
531.186	10203.62
531.957	9618.62
532.728	9128.62
533.498	8634.62
534.269	8138.62
535.039	7716.62
535.81	7262.62
536.58	6856.62
537.351	6467.62
538.121	6100.62
538.891	5807.62
539.661	5511.62
540.431	5228.62
541.201	4922.62
541.971	4644.62
542.741	4435.62
543.51	4209.62
544.28	4001.62
545.05	3766.62
545.819	3631.62
546.588	3433.62
547.358	3251.62
548.127	3083.62
548.896	2922.62
549.665	2784.62
550.434	2640.62
551.203	2494.62
551.972	2348.62
552.741	2213.62
553.51	2106.62
554.278	1989.62
555.047	1886.62
555.815	1770.62
556.584	1674.62
557.352	1574.62
558.121	1491.62
558.889	1396.62
559.657	1336.62
560.425	1262.62
561.193	1188.62
561.961	1122.62
562.729	1062.62
563.496	998.62
564.264	950.62
565.032	898.62
565.799	850.62
566.567	805.62
567.334	760.62
568.101	706.62
568.869	668.62
569.636	636.62
570.403	605.62
571.17	569.62
571.937	539.62
572.704	506.62
573.471	480.62
574.237	450.62
575.004	421.62
575.771	398.62
576.537	374.62
577.303	356.62
578.07	325.62
578.836	312.62
579.602	299.62
580.368	278.62
581.134	271.62
581.9	251.62
582.666	242.62
583.432	225.62
584.198	212.62
584.964	204.62
585.729	196.62
586.495	183.62
587.26	177.62
588.025	166.62
588.791	162.62
589.556	152.62
590.321	141.62
591.086	136.62
591.851	128.62
592.616	121.62
593.381	117.62
594.146	108.62
594.911	107.62
595.675	98.62
596.44	97.62
597.204	90.62
597.969	87.62
598.733	88.62
599.497	84.62
600.261	76.62
601.025	76.62
601.79	74.62
602.553	67.62
603.317	67.62
604.081	61.62
604.845	59.62
605.609	55.62
606.372	58.62
607.136	54.62
607.899	50.62
608.662	51.62
609.426	48.62
610.189	43.62
610.952	44.62
611.715	43.62
612.478	38.62
613.241	40.62
614.004	38.62
614.767	35.62
615.529	37.62
616.292	33.62
617.055	31.62
617.817	32.62
618.579	30.62
619.342	28.62
620.104	26.62
620.866	30.62
621.628	26.62
622.39	24.62
623.152	23.62
623.914	22.62
624.676	22.62
625.438	23.62
626.199	21.62
626.961	22.62
627.722	18.62
628.484	19.62
629.245	17.62
630.006	20.62
630.768	15.62
631.529	19.62
632.29	18.62
633.051	15.62
633.812	18.62
634.573	13.62
635.333	15.62
636.094	14.62
636.855	15.62
637.615	14.62
638.376	15.62
639.136	14.62
639.896	11.62
640.657	12.62
641.417	12.62
642.177	14.62
642.937	11.62
643.697	14.62
644.457	9.62
645.216	10.62
645.976	10.62
646.736	12.62
647.495	8.62
648.255	13.62
649.014	9.62
649.774	9.62
650.533	9.62
651.292	10.62
652.051	10.62
652.81	9.62
653.569	9.62
654.328	10.62
655.087	10.62
655.846	9.62
656.604	8.62
657.363	7.62
658.121	7.62
658.88	7.62
659.638	7.62
660.397	6.62
661.155	7.62
661.913	6.62
662.671	7.62
663.429	7.62
664.187	6.62
664.945	5.62
665.703	7.62
666.46	6.62
667.218	4.62
667.976	5.62
668.733	6.62
669.49	5.62
670.248	8.62
671.005	7.62
671.762	5.62
672.519	6.62
673.276	3.62
674.033	6.62
674.79	5.62
675.547	4.62
676.304	4.62
677.06	7.62
677.817	6.62
678.574	6.62
679.33	6.62
680.086	5.62
680.843	3.62
681.599	7.62
682.355	7.62
683.111	7.62
683.867	6.62
684.623	7.62
685.379	4.62
686.135	5.62
686.89	4.62
687.646	6.62
688.402	7.62
689.157	4.62
689.912	6.62
690.668	3.62
691.423	4.62
692.178	7.62
692.933	7.62
693.688	4.62
694.443	7.62
695.198	2.62
695.953	5.62
696.708	4.62
697.462	4.62
698.217	4.62
698.972	4.62
699.726	5.62
700.48	3.62
701.235	6.62
701.989	3.62
702.743	8.62
703.497	2.62
704.251	3.62
705.005	5.62
705.759	4.62
706.513	7.62
707.266	5.62
708.02	5.62
708.774	6.62
709.527	3.62
710.28	3.62
711.034	2.62
711.787	6.62
712.54	4.62
713.293	4.62
714.046	3.62
714.799	5.62
715.552	5.62
716.305	6.62
717.058	6.62
717.81	4.62
718.563	3.62
719.315	5.62
720.068	5.62
720.82	5.62
721.573	4.62
722.325	4.62
723.077	5.62
723.829	4.62
724.581	6.62
725.333	7.62
726.085	5.62
726.836	7.62
727.588	5.62
728.34	7.62
729.091	5.62
729.843	4.62
730.594	3.62
731.346	7.62
732.097	9.62
732.848	4.62
733.599	4.62
734.35	4.62
735.101	7.62
735.852	5.62
736.603	5.62
737.354	5.62
738.104	5.62
738.855	5.62
739.605	6.62
740.356	5.62
741.106	7.62
741.856	7.62
742.607	8.62
743.357	8.62
744.107	7.62
744.857	8.62
745.607	5.62
746.357	7.62
747.106	5.62
747.856	7.62
748.606	6.62
749.355	8.62
750.105	5.62
750.854	6.62
751.603	8.62
752.353	6.62
753.102	7.62
753.851	8.62
754.6	9.62
755.349	6.62
756.098	7.62
756.847	6.62
757.595	7.62
758.344	11.62
759.093	7.62
759.841	9.62
760.589	9.62
761.338	7.62
762.086	10.62
762.834	10.62
763.582	9.62
764.331	9.62
765.079	9.62
765.826	12.62
766.574	10.62
767.322	8.62
768.07	9.62
768.817	12.62
769.565	10.62
770.312	10.62
771.06	11.62
771.807	8.62
772.554	10.62
773.302	12.62
774.049	10.62
774.796	10.62
775.543	11.62
776.29	12.62
777.036	10.62
777.783	10.62
778.53	12.62
779.276	10.62
780.023	12.62
780.769	11.62
781.516	12.62
782.262	10.62
783.008	10.62
783.754	12.62
784.5	12.62
785.246	10.62
785.992	12.62
786.738	10.62
787.484	11.62
788.23	9.62
788.975	12.62
789.721	13.62
790.466	14.62
791.212	11.62
791.957	10.62
792.702	12.62
793.447	11.62
794.193	10.62
794.938	10.62
795.683	10.62
796.427	12.62
797.172	10.62
797.917	7.62
798.662	8.62
799.406	11.62
800.151	9.62
800.895	8.62
801.64	10.62
802.384	10.62
803.128	5.62
803.872	7.62
804.616	10.62
805.36	9.62
806.104	6.62
806.848	6.62
807.592	7.62
808.336	8.62
809.079	6.62
809.823	7.62
810.566	8.62
811.31	6.62
812.053	9.62
812.796	7.62
813.539	10.62
814.283	7.62
815.026	5.62
815.769	6.62
816.511	5.62
817.254	7.62
817.997	5.62
818.74	5.62
819.482	5.62
820.225	5.62
820.967	4.62
821.71	4.62
822.452	5.62
823.194	5.62
823.936	7.62
824.678	4.62
825.42	2.62
826.162	4.62
826.904	4.62
827.646	7.62
828.388	6.62
829.129	4.62
829.871	3.62
830.612	4.62
831.354	2.62
832.095	2.62
832.836	5.62
833.577	5.62
834.319	2.62
835.06	5.62
835.801	7.62
836.542	4.62
837.282	5.62
838.023	4.62
838.764	5.62
839.504	3.62
840.245	6.62
840.985	4.62
841.726	3.62
842.466	3.62
843.206	2.62
843.946	5.62
844.687	2.62
845.427	6.62
846.166	3.62
846.906	2.62
847.646	4.62
848.386	5.62
849.125	3.62
849.865	2.62
850.605	3.62
851.344	3.62
852.083	3.62
852.823	5.62
853.562	2.62
854.301	5.62
855.04	2.62
855.779	1.62
856.518	3.62
857.257	2.62
857.995	3.62
858.734	2.62
859.473	3.62
860.211	3.62
860.95	3.62
861.688	3.62
862.426	2.62
863.165	3.62
863.903	3.62
864.641	1.62
865.379	0.62
866.117	1.62
866.855	1.62
867.593	2.62
868.33	2.62
869.068	2.62
869.806	2.62
870.543	3.62
871.28	0.62
872.018	2.62
872.755	2.62
873.492	1.62
874.229	2.62
874.967	0.62
875.703	3.62
876.44	1.62
877.177	2.62
877.914	1.62
878.651	0.62
879.387	3.62
880.124	-0.38
880.86	3.62
881.597	1.62
882.333	1.62
883.069	-0.38
883.806	0.62
884.542	1.62
885.278	1.62
886.014	2.62
886.749	1.62
887.485	0.62
888.221	1.62
888.957	-0.38
889.692	0.62
890.428	-1.38
891.163	1.62
891.899	1.62
892.634	-0.38
893.369	1.62
894.104	0.62
894.839	2.62
895.574	0.62
896.309	1.62
897.044	2.62
897.779	0.62
898.514	1.62
899.248	-0.38
899.983	0.62
900.717	1.62
901.452	-1.38
902.186	0.62
902.92	-1.38
903.654	-0.38
904.389	-0.38
905.123	0.62
905.857	2.62
906.59	0.62
907.324	2.62
908.058	0.62
908.792	1.62
909.525	1.62
910.259	-0.38
910.992	2.62
911.726	1.62
912.459	0.62
913.192	-0.38
913.925	2.62
914.658	0.62
915.391	-1.38
916.124	0.62
916.857	1.62
917.59	0.62
918.323	1.62
919.055	-0.38
919.788	0.62
920.521	0.62
921.253	1.62
921.985	0.62
922.718	1.62
923.45	0.62
924.182	0.62
924.914	1.62
925.646	3.62
926.378	0.62
927.11	4.62
927.841	-1.38
928.573	1.62
929.305	-0.38
930.036	0.62
930.768	-0.38
931.499	1.62
932.23	0.62
932.962	0.62
933.693	2.62
934.424	-1.38
935.155	0.62
935.886	1.62
936.617	-1.38
937.348	-0.38
938.078	-1.38
938.809	-0.38
939.54	0.62
940.27	0.62
941.001	0.62
941.731	-1.38
942.461	0.62
943.191	-1.38
943.922	0.62
944.652	2.62
945.382	-0.38
946.112	2.62
946.841	-1.38
947.571	2.62
948.301	0.62
949.031	2.62
949.76	-1.38
950.49	-0.38
951.219	0.62
951.948	0.62
952.678	1.62
953.407	1.62
954.136	0.62
954.865	1.62
955.594	0.62
956.323	-0.38
957.052	0.62
957.78	-0.38
958.509	-1.38
959.238	-1.38
959.966	2.62
960.695	-0.38
961.423	0.62
962.151	1.62
962.88	-3.38
963.608	1.62
964.336	-0.38
965.064	0.62
965.792	-1.38
966.52	0.62
967.247	-0.38
967.975	0.62
968.703	3.62
969.43	-1.38
970.158	0.62
970.885	1.62
971.613	1.62
972.34	2.62
973.067	-0.38
973.794	-0.38
974.521	2.62
975.248	-0.38
975.975	-0.38
976.702	1.62
977.429	0.62
978.156	2.62
978.882	1.62
979.609	2.62
980.335	-2.38
981.062	2.62
981.788	-0.38
982.514	2.62
983.24	0.62
983.967	1.62
984.693	-1.38
985.419	0.62
986.144	-1.38
986.87	-1.38
987.596	2.62
988.322	0.62
989.047	-0.38
989.773	3.62
990.498	0.62
991.224	2.62
991.949	-1.38
992.674	1.62
993.399	0.62
994.124	1.62
994.849	0.62
995.574	-1.38
996.299	1.62
997.024	-1.38
997.749	1.62
998.473	0.62
999.198	0.62
999.922	0.62
1000.647	0.62
1001.371	2.62
1002.095	-3.38
1002.82	1.62
1003.544	0.62
1004.268	2.62
1004.992	2.62
1005.716	3.62
1006.439	2.62
1007.163	4.62
1007.887	4.62
1008.611	2.62
1009.334	0.62
1010.058	0.62
1010.781	3.62
1011.504	0.62
1012.228	-0.38
1012.951	-2.38
1013.674	1.62
1014.397	-0.38
1015.12	-0.38
