节点500_425_QEPB04081__453__15-55-50-614.txt的数据

Date: Wed Nov 12 15:55:50 CST 2025
User: PC
Spectrometer: QEPB0408
触发模式: 0
积分时间 (秒): 1.000000E-2
Scans to average: 1
启用暗噪声校正: true
启用非线性校正: false
滑动平均宽度: 0
X轴模式: Wavelengths
Number of Pixels in Spectrum: 1044
>>>>>Begin Spectral Data<<<<<
220.843	1.88
221.644	1.88
222.444	-0.12
223.244	2.88
224.045	2.88
224.845	0.88
225.645	4.88
226.445	2.88
227.245	2.88
228.045	5.88
228.845	2.88
229.645	3.88
230.444	2.88
231.244	6.88
232.043	4.88
232.843	2.88
233.642	4.88
234.442	3.88
235.241	4.88
236.04	5.88
236.839	6.88
237.638	5.88
238.437	4.88
239.236	5.88
240.035	6.88
240.833	6.88
241.632	6.88
242.43	7.88
243.229	7.88
244.027	5.88
244.826	6.88
245.624	5.88
246.422	8.88
247.22	7.88
248.018	10.88
248.816	9.88
249.614	7.88
250.412	6.88
251.21	7.88
252.007	11.88
252.805	3.88
253.602	8.88
254.4	9.88
255.197	11.88
255.994	10.88
256.791	11.88
257.589	13.88
258.386	9.88
259.183	11.88
259.979	14.88
260.776	13.88
261.573	14.88
262.37	9.88
263.166	13.88
263.963	12.88
264.759	12.88
265.556	15.88
266.352	16.88
267.148	17.88
267.944	17.88
268.74	17.88
269.536	16.88
270.332	18.88
271.128	17.88
271.924	18.88
272.719	18.88
273.515	20.88
274.311	19.88
275.106	20.88
275.901	22.88
276.697	23.88
277.492	21.88
278.287	20.88
279.082	21.88
279.877	19.88
280.672	26.88
281.467	20.88
282.262	23.88
283.056	22.88
283.851	23.88
284.646	23.88
285.44	20.88
286.234	24.88
287.029	23.88
287.823	20.88
288.617	21.88
289.411	21.88
290.205	23.88
290.999	22.88
291.793	24.88
292.587	22.88
293.381	19.88
294.174	21.88
294.968	18.88
295.761	19.88
296.555	17.88
297.348	17.88
298.141	17.88
298.935	21.88
299.728	19.88
300.521	18.88
301.314	19.88
302.107	18.88
302.899	16.88
303.692	14.88
304.485	16.88
305.277	13.88
306.07	13.88
306.862	16.88
307.655	14.88
308.447	13.88
309.239	16.88
310.031	11.88
310.823	14.88
311.615	12.88
312.407	12.88
313.199	15.88
313.991	11.88
314.783	12.88
315.574	11.88
316.366	7.88
317.157	7.88
317.949	10.88
318.74	7.88
319.531	9.88
320.322	10.88
321.113	9.88
321.904	8.88
322.695	7.88
323.486	6.88
324.277	9.88
325.068	7.88
325.858	9.88
326.649	9.88
327.439	5.88
328.23	5.88
329.02	9.88
329.81	8.88
330.6	8.88
331.391	7.88
332.181	7.88
332.971	6.88
333.76	7.88
334.55	8.88
335.34	8.88
336.13	4.88
336.919	5.88
337.709	7.88
338.498	6.88
339.287	5.88
340.077	9.88
340.866	7.88
341.655	9.88
342.444	6.88
343.233	7.88
344.022	7.88
344.811	6.88
345.6	6.88
346.388	7.88
347.177	8.88
347.965	6.88
348.754	10.88
349.542	5.88
350.33	7.88
351.119	8.88
351.907	6.88
352.695	6.88
353.483	6.88
354.271	8.88
355.059	6.88
355.846	5.88
356.634	7.88
357.422	4.88
358.209	8.88
358.997	6.88
359.784	5.88
360.571	6.88
361.359	5.88
362.146	5.88
362.933	5.88
363.72	5.88
364.507	4.88
365.294	5.88
366.081	9.88
366.867	5.88
367.654	7.88
368.44	7.88
369.227	4.88
370.013	5.88
370.8	5.88
371.586	7.88
372.372	5.88
373.158	6.88
373.944	6.88
374.73	6.88
375.516	6.88
376.302	6.88
377.088	7.88
377.873	7.88
378.659	7.88
379.445	6.88
380.23	6.88
381.015	6.88
381.801	5.88
382.586	7.88
383.371	7.88
384.156	7.88
384.941	6.88
385.726	6.88
386.511	4.88
387.296	7.88
388.08	5.88
388.865	9.88
389.649	6.88
390.434	7.88
391.218	4.88
392.003	7.88
392.787	7.88
393.571	8.88
394.355	8.88
395.139	4.88
395.923	8.88
396.707	6.88
397.491	6.88
398.274	9.88
399.058	6.88
399.842	9.88
400.625	8.88
401.408	7.88
402.192	8.88
402.975	8.88
403.758	9.88
404.541	9.88
405.324	9.88
406.107	9.88
406.89	8.88
407.673	8.88
408.456	12.88
409.238	9.88
410.021	10.88
410.803	9.88
411.586	12.88
412.368	10.88
413.151	10.88
413.933	10.88
414.715	9.88
415.497	10.88
416.279	9.88
417.061	11.88
417.843	13.88
418.624	12.88
419.406	15.88
420.188	12.88
420.969	13.88
421.751	11.88
422.532	14.88
423.313	13.88
424.095	14.88
424.876	15.88
425.657	15.88
426.438	17.88
427.219	16.88
428	15.88
428.78	16.88
429.561	15.88
430.342	16.88
431.122	18.88
431.903	22.88
432.683	19.88
433.464	22.88
434.244	21.88
435.024	21.88
435.804	26.88
436.584	24.88
437.364	31.88
438.144	26.88
438.924	26.88
439.704	33.88
440.483	33.88
441.263	34.88
442.042	38.88
442.822	41.88
443.601	45.88
444.38	45.88
445.16	54.88
445.939	51.88
446.718	58.88
447.497	62.88
448.276	68.88
449.054	73.88
449.833	80.88
450.612	85.88
451.391	100.88
452.169	109.88
452.948	115.88
453.726	129.88
454.504	144.88
455.282	155.88
456.061	179.88
456.839	201.88
457.617	217.88
458.395	237.88
459.172	272.88
459.95	297.88
460.728	332.88
461.506	382.88
462.283	418.88
463.061	460.88
463.838	527.88
464.615	582.88
465.393	651.88
466.17	723.88
466.947	784.88
467.724	876.88
468.501	983.88
469.278	1086.88
470.055	1193.88
470.831	1318.88
471.608	1476.88
472.385	1638.88
473.161	1782.88
473.938	1963.88
474.714	2172.88
475.49	2373.88
476.266	2615.88
477.043	2844.88
477.819	3152.88
478.595	3453.88
479.371	3775.88
480.146	4121.88
480.922	4497.88
481.698	4940.88
482.473	5389.88
483.249	5845.88
484.024	6419.88
484.8	7019.88
485.575	7620.88
486.35	8266.88
487.126	8996.88
487.901	9768.88
488.676	10621.88
489.451	11523.88
490.225	12417.88
491	13463.88
491.775	14553.88
492.55	15687.88
493.324	16866.88
494.099	17999.88
494.873	19240.88
495.647	20532.88
496.422	21871.88
497.196	23108.88
497.97	24591.88
498.744	25904.88
499.518	27170.88
500.292	28418.88
501.066	29523.88
501.839	30568.88
502.613	31590.88
503.387	32363.88
504.16	32983.88
504.934	33449.88
505.707	33647.88
506.48	33651.88
507.253	33553.88
508.027	33372.88
508.8	33054.88
509.573	32507.88
510.346	31798.88
511.118	31017.88
511.891	30198.88
512.664	29162.88
513.437	28187.88
514.209	27122.88
514.982	26217.88
515.754	25156.88
516.526	24133.88
517.298	23178.88
518.071	22180.88
518.843	21256.88
519.615	20470.88
520.387	19651.88
521.159	18904.88
521.93	18175.88
522.702	17465.88
523.474	16770.88
524.245	16116.88
525.017	15325.88
525.788	14645.88
526.56	14069.88
527.331	13415.88
528.102	12839.88
528.873	12248.88
529.644	11704.88
530.415	11171.88
531.186	10667.88
531.957	10079.88
532.728	9588.88
533.498	9061.88
534.269	8613.88
535.039	8132.88
535.81	7699.88
536.58	7257.88
537.351	6855.88
538.121	6474.88
538.891	6139.88
539.661	5819.88
540.431	5505.88
541.201	5194.88
541.971	4930.88
542.741	4682.88
543.51	4458.88
544.28	4230.88
545.05	4000.88
545.819	3844.88
546.588	3660.88
547.358	3441.88
548.127	3279.88
548.896	3113.88
549.665	2968.88
550.434	2820.88
551.203	2670.88
551.972	2545.88
552.741	2388.88
553.51	2276.88
554.278	2132.88
555.047	2005.88
555.815	1924.88
556.584	1799.88
557.352	1700.88
558.121	1612.88
558.889	1524.88
559.657	1445.88
560.425	1353.88
561.193	1295.88
561.961	1205.88
562.729	1157.88
563.496	1085.88
564.264	1028.88
565.032	968.88
565.799	911.88
566.567	869.88
567.334	814.88
568.101	772.88
568.869	732.88
569.636	682.88
570.403	660.88
571.17	608.88
571.937	579.88
572.704	544.88
573.471	521.88
574.237	481.88
575.004	460.88
575.771	425.88
576.537	404.88
577.303	383.88
578.07	358.88
578.836	341.88
579.602	325.88
580.368	304.88
581.134	283.88
581.9	276.88
582.666	257.88
583.432	244.88
584.198	239.88
584.964	219.88
585.729	205.88
586.495	200.88
587.26	188.88
588.025	178.88
588.791	174.88
589.556	163.88
590.321	155.88
591.086	139.88
591.851	140.88
592.616	130.88
593.381	126.88
594.146	117.88
594.911	111.88
595.675	108.88
596.44	105.88
597.204	101.88
597.969	94.88
598.733	87.88
599.497	90.88
600.261	81.88
601.025	74.88
601.79	74.88
602.553	71.88
603.317	70.88
604.081	65.88
604.845	61.88
605.609	58.88
606.372	59.88
607.136	56.88
607.899	55.88
608.662	47.88
609.426	51.88
610.189	48.88
610.952	44.88
611.715	43.88
612.478	42.88
613.241	40.88
614.004	38.88
614.767	38.88
615.529	35.88
616.292	34.88
617.055	35.88
617.817	36.88
618.579	30.88
619.342	30.88
620.104	26.88
620.866	26.88
621.628	29.88
622.39	27.88
623.152	24.88
623.914	23.88
624.676	25.88
625.438	22.88
626.199	23.88
626.961	22.88
627.722	22.88
628.484	20.88
629.245	17.88
630.006	16.88
630.768	17.88
631.529	16.88
632.29	18.88
633.051	16.88
633.812	15.88
634.573	17.88
635.333	18.88
636.094	15.88
636.855	13.88
637.615	12.88
638.376	13.88
639.136	12.88
639.896	14.88
640.657	10.88
641.417	12.88
642.177	11.88
642.937	12.88
643.697	11.88
644.457	10.88
645.216	11.88
645.976	10.88
646.736	11.88
647.495	10.88
648.255	12.88
649.014	12.88
649.774	10.88
650.533	8.88
651.292	9.88
652.051	6.88
652.81	8.88
653.569	10.88
654.328	7.88
655.087	7.88
655.846	9.88
656.604	7.88
657.363	9.88
658.121	8.88
658.88	7.88
659.638	6.88
660.397	4.88
661.155	8.88
661.913	4.88
662.671	8.88
663.429	4.88
664.187	6.88
664.945	8.88
665.703	2.88
666.46	6.88
667.218	7.88
667.976	3.88
668.733	7.88
669.49	4.88
670.248	5.88
671.005	6.88
671.762	6.88
672.519	4.88
673.276	2.88
674.033	6.88
674.79	5.88
675.547	5.88
676.304	4.88
677.06	4.88
677.817	7.88
678.574	7.88
679.33	5.88
680.086	5.88
680.843	8.88
681.599	6.88
682.355	4.88
683.111	5.88
683.867	2.88
684.623	4.88
685.379	5.88
686.135	5.88
686.89	7.88
687.646	4.88
688.402	5.88
689.157	5.88
689.912	3.88
690.668	5.88
691.423	5.88
692.178	2.88
692.933	2.88
693.688	4.88
694.443	5.88
695.198	2.88
695.953	5.88
696.708	2.88
697.462	6.88
698.217	6.88
698.972	4.88
699.726	6.88
700.48	4.88
701.235	5.88
701.989	4.88
702.743	4.88
703.497	3.88
704.251	4.88
705.005	3.88
705.759	4.88
706.513	3.88
707.266	3.88
708.02	4.88
708.774	5.88
709.527	3.88
710.28	4.88
711.034	1.88
711.787	2.88
712.54	4.88
713.293	5.88
714.046	3.88
714.799	6.88
715.552	3.88
716.305	4.88
717.058	5.88
717.81	6.88
718.563	4.88
719.315	7.88
720.068	5.88
720.82	4.88
721.573	2.88
722.325	4.88
723.077	3.88
723.829	4.88
724.581	3.88
725.333	3.88
726.085	2.88
726.836	4.88
727.588	1.88
728.34	5.88
729.091	2.88
729.843	5.88
730.594	4.88
731.346	5.88
732.097	5.88
732.848	4.88
733.599	5.88
734.35	5.88
735.101	6.88
735.852	4.88
736.603	6.88
737.354	5.88
738.104	3.88
738.855	4.88
739.605	4.88
740.356	4.88
741.106	6.88
741.856	6.88
742.607	7.88
743.357	4.88
744.107	4.88
744.857	6.88
745.607	3.88
746.357	6.88
747.106	4.88
747.856	8.88
748.606	6.88
749.355	5.88
750.105	6.88
750.854	2.88
751.603	6.88
752.353	6.88
753.102	7.88
753.851	7.88
754.6	5.88
755.349	8.88
756.098	5.88
756.847	8.88
757.595	7.88
758.344	7.88
759.093	6.88
759.841	6.88
760.589	5.88
761.338	7.88
762.086	8.88
762.834	6.88
763.582	6.88
764.331	9.88
765.079	6.88
765.826	9.88
766.574	7.88
767.322	8.88
768.07	7.88
768.817	6.88
769.565	6.88
770.312	5.88
771.06	8.88
771.807	9.88
772.554	8.88
773.302	9.88
774.049	7.88
774.796	11.88
775.543	8.88
776.29	10.88
777.036	10.88
777.783	11.88
778.53	8.88
779.276	11.88
780.023	10.88
780.769	8.88
781.516	11.88
782.262	10.88
783.008	9.88
783.754	9.88
784.5	12.88
785.246	13.88
785.992	9.88
786.738	8.88
787.484	9.88
788.23	9.88
788.975	12.88
789.721	11.88
790.466	9.88
791.212	11.88
791.957	9.88
792.702	9.88
793.447	9.88
794.193	8.88
794.938	10.88
795.683	9.88
796.427	9.88
797.172	6.88
797.917	7.88
798.662	7.88
799.406	5.88
800.151	7.88
800.895	7.88
801.64	7.88
802.384	7.88
803.128	6.88
803.872	8.88
804.616	7.88
805.36	6.88
806.104	4.88
806.848	6.88
807.592	6.88
808.336	6.88
809.079	9.88
809.823	7.88
810.566	4.88
811.31	7.88
812.053	5.88
812.796	5.88
813.539	6.88
814.283	6.88
815.026	3.88
815.769	6.88
816.511	7.88
817.254	7.88
817.997	5.88
818.74	3.88
819.482	3.88
820.225	4.88
820.967	5.88
821.71	5.88
822.452	5.88
823.194	3.88
823.936	1.88
824.678	5.88
825.42	6.88
826.162	5.88
826.904	4.88
827.646	4.88
828.388	4.88
829.129	5.88
829.871	4.88
830.612	0.88
831.354	2.88
832.095	3.88
832.836	1.88
833.577	5.88
834.319	2.88
835.06	4.88
835.801	3.88
836.542	5.88
837.282	3.88
838.023	2.88
838.764	2.88
839.504	1.88
840.245	3.88
840.985	4.88
841.726	2.88
842.466	4.88
843.206	3.88
843.946	4.88
844.687	2.88
845.427	1.88
846.166	2.88
846.906	2.88
847.646	3.88
848.386	2.88
849.125	2.88
849.865	5.88
850.605	1.88
851.344	3.88
852.083	1.88
852.823	1.88
853.562	3.88
854.301	2.88
855.04	1.88
855.779	1.88
856.518	1.88
857.257	1.88
857.995	4.88
858.734	2.88
859.473	1.88
860.211	3.88
860.95	2.88
861.688	2.88
862.426	1.88
863.165	3.88
863.903	2.88
864.641	1.88
865.379	1.88
866.117	2.88
866.855	2.88
867.593	2.88
868.33	-0.12
869.068	2.88
869.806	3.88
870.543	1.88
871.28	2.88
872.018	2.88
872.755	0.88
873.492	1.88
874.229	2.88
874.967	1.88
875.703	2.88
876.44	1.88
877.177	1.88
877.914	1.88
878.651	0.88
879.387	0.88
880.124	1.88
880.86	1.88
881.597	-0.12
882.333	-2.12
883.069	1.88
883.806	1.88
884.542	1.88
885.278	-1.12
886.014	0.88
886.749	-1.12
887.485	-1.12
888.221	0.88
888.957	1.88
889.692	-1.12
890.428	1.88
891.163	1.88
891.899	1.88
892.634	-0.12
893.369	1.88
894.104	0.88
894.839	-1.12
895.574	-0.12
896.309	1.88
897.044	0.88
897.779	0.88
898.514	-1.12
899.248	1.88
899.983	0.88
900.717	3.88
901.452	-0.12
902.186	0.88
902.92	-0.12
903.654	-1.12
904.389	-1.12
905.123	0.88
905.857	-0.12
906.59	0.88
907.324	-0.12
908.058	-1.12
908.792	1.88
909.525	2.88
910.259	-2.12
910.992	1.88
911.726	0.88
912.459	-0.12
913.192	2.88
913.925	-0.12
914.658	0.88
915.391	-1.12
916.124	-0.12
916.857	0.88
917.59	0.88
918.323	0.88
919.055	1.88
919.788	-2.12
920.521	-1.12
921.253	0.88
921.985	1.88
922.718	-0.12
923.45	0.88
924.182	2.88
924.914	0.88
925.646	-0.12
926.378	-2.12
927.11	0.88
927.841	-1.12
928.573	-0.12
929.305	-3.12
930.036	-0.12
930.768	1.88
931.499	0.88
932.23	-0.12
932.962	-1.12
933.693	-0.12
934.424	0.88
935.155	-0.12
935.886	-0.12
936.617	-1.12
937.348	-1.12
938.078	-1.12
938.809	0.88
939.54	-0.12
940.27	-2.12
941.001	1.88
941.731	-0.12
942.461	-1.12
943.191	0.88
943.922	-1.12
944.652	0.88
945.382	1.88
946.112	-2.12
946.841	-0.12
947.571	-2.12
948.301	0.88
949.031	-1.12
949.76	0.88
950.49	-0.12
951.219	-0.12
951.948	2.88
952.678	0.88
953.407	-1.12
954.136	-0.12
954.865	0.88
955.594	-1.12
956.323	-0.12
957.052	-0.12
957.78	-1.12
958.509	-0.12
959.238	1.88
959.966	-2.12
960.695	1.88
961.423	1.88
962.151	-2.12
962.88	-1.12
963.608	-0.12
964.336	0.88
965.064	0.88
965.792	-0.12
966.52	-0.12
967.247	-0.12
967.975	-0.12
968.703	-0.12
969.43	0.88
970.158	-0.12
970.885	-0.12
971.613	0.88
972.34	-0.12
973.067	1.88
973.794	-0.12
974.521	0.88
975.248	-1.12
975.975	-1.12
976.702	0.88
977.429	-1.12
978.156	-0.12
978.882	0.88
979.609	-1.12
980.335	-2.12
981.062	0.88
981.788	-1.12
982.514	-0.12
983.24	-1.12
983.967	-1.12
984.693	-0.12
985.419	-0.12
986.144	-2.12
986.87	0.88
987.596	-0.12
988.322	-0.12
989.047	-1.12
989.773	-0.12
990.498	-0.12
991.224	-2.12
991.949	-1.12
992.674	0.88
993.399	-0.12
994.124	-1.12
994.849	-1.12
995.574	0.88
996.299	-1.12
997.024	-0.12
997.749	0.88
998.473	1.88
999.198	0.88
999.922	0.88
1000.647	0.88
1001.371	1.88
1002.095	-0.12
1002.82	-1.12
1003.544	-2.12
1004.268	3.88
1004.992	3.88
1005.716	0.88
1006.439	1.88
1007.163	3.88
1007.887	3.88
1008.611	0.88
1009.334	0.88
1010.058	-0.12
1010.781	-3.12
1011.504	0.88
1012.228	-2.12
1012.951	0.88
1013.674	-0.12
1014.397	-0.12
1015.12	0.88
