节点500_425_QEPB04081__518__15-56-55-562.txt的数据

Date: Wed Nov 12 15:56:55 CST 2025
User: PC
Spectrometer: QEPB0408
触发模式: 0
积分时间 (秒): 1.000000E-2
Scans to average: 1
启用暗噪声校正: true
启用非线性校正: false
滑动平均宽度: 0
X轴模式: Wavelengths
Number of Pixels in Spectrum: 1044
>>>>>Begin Spectral Data<<<<<
220.843	3.62
221.644	3.62
222.444	4.62
223.244	4.62
224.045	3.62
224.845	3.62
225.645	2.62
226.445	4.62
227.245	5.62
228.045	2.62
228.845	6.62
229.645	5.62
230.444	6.62
231.244	5.62
232.043	4.62
232.843	4.62
233.642	5.62
234.442	5.62
235.241	6.62
236.04	5.62
236.839	5.62
237.638	4.62
238.437	6.62
239.236	6.62
240.035	5.62
240.833	5.62
241.632	6.62
242.43	8.62
243.229	4.62
244.027	7.62
244.826	6.62
245.624	8.62
246.422	9.62
247.22	7.62
248.018	8.62
248.816	5.62
249.614	7.62
250.412	8.62
251.21	7.62
252.007	8.62
252.805	9.62
253.602	10.62
254.4	9.62
255.197	9.62
255.994	12.62
256.791	11.62
257.589	14.62
258.386	10.62
259.183	14.62
259.979	12.62
260.776	13.62
261.573	12.62
262.37	15.62
263.166	15.62
263.963	12.62
264.759	15.62
265.556	16.62
266.352	16.62
267.148	18.62
267.944	15.62
268.74	17.62
269.536	17.62
270.332	18.62
271.128	18.62
271.924	17.62
272.719	18.62
273.515	19.62
274.311	21.62
275.106	22.62
275.901	24.62
276.697	22.62
277.492	20.62
278.287	22.62
279.082	18.62
279.877	23.62
280.672	22.62
281.467	19.62
282.262	22.62
283.056	20.62
283.851	24.62
284.646	23.62
285.44	22.62
286.234	24.62
287.029	22.62
287.823	23.62
288.617	24.62
289.411	24.62
290.205	24.62
290.999	23.62
291.793	24.62
292.587	23.62
293.381	22.62
294.174	21.62
294.968	19.62
295.761	19.62
296.555	18.62
297.348	17.62
298.141	20.62
298.935	20.62
299.728	19.62
300.521	19.62
301.314	16.62
302.107	18.62
302.899	16.62
303.692	16.62
304.485	15.62
305.277	18.62
306.07	15.62
306.862	17.62
307.655	15.62
308.447	17.62
309.239	14.62
310.031	13.62
310.823	12.62
311.615	12.62
312.407	14.62
313.199	12.62
313.991	13.62
314.783	12.62
315.574	9.62
316.366	10.62
317.157	11.62
317.949	12.62
318.74	10.62
319.531	9.62
320.322	10.62
321.113	10.62
321.904	10.62
322.695	8.62
323.486	9.62
324.277	10.62
325.068	8.62
325.858	11.62
326.649	9.62
327.439	7.62
328.23	9.62
329.02	10.62
329.81	8.62
330.6	9.62
331.391	8.62
332.181	7.62
332.971	7.62
333.76	12.62
334.55	7.62
335.34	8.62
336.13	8.62
336.919	7.62
337.709	8.62
338.498	7.62
339.287	8.62
340.077	8.62
340.866	10.62
341.655	6.62
342.444	7.62
343.233	10.62
344.022	9.62
344.811	8.62
345.6	9.62
346.388	10.62
347.177	6.62
347.965	8.62
348.754	11.62
349.542	7.62
350.33	8.62
351.119	6.62
351.907	8.62
352.695	9.62
353.483	9.62
354.271	8.62
355.059	6.62
355.846	8.62
356.634	6.62
357.422	9.62
358.209	6.62
358.997	7.62
359.784	5.62
360.571	6.62
361.359	6.62
362.146	7.62
362.933	7.62
363.72	10.62
364.507	7.62
365.294	6.62
366.081	7.62
366.867	8.62
367.654	7.62
368.44	4.62
369.227	6.62
370.013	4.62
370.8	5.62
371.586	7.62
372.372	5.62
373.158	6.62
373.944	6.62
374.73	7.62
375.516	7.62
376.302	7.62
377.088	8.62
377.873	6.62
378.659	7.62
379.445	3.62
380.23	6.62
381.015	4.62
381.801	5.62
382.586	7.62
383.371	7.62
384.156	7.62
384.941	6.62
385.726	6.62
386.511	7.62
387.296	8.62
388.08	8.62
388.865	6.62
389.649	8.62
390.434	5.62
391.218	7.62
392.003	9.62
392.787	6.62
393.571	9.62
394.355	10.62
395.139	7.62
395.923	7.62
396.707	7.62
397.491	9.62
398.274	7.62
399.058	9.62
399.842	8.62
400.625	9.62
401.408	10.62
402.192	9.62
402.975	7.62
403.758	8.62
404.541	7.62
405.324	8.62
406.107	10.62
406.89	10.62
407.673	8.62
408.456	9.62
409.238	13.62
410.021	11.62
410.803	12.62
411.586	10.62
412.368	11.62
413.151	10.62
413.933	13.62
414.715	12.62
415.497	15.62
416.279	12.62
417.061	10.62
417.843	12.62
418.624	13.62
419.406	14.62
420.188	14.62
420.969	14.62
421.751	14.62
422.532	12.62
423.313	16.62
424.095	16.62
424.876	15.62
425.657	14.62
426.438	16.62
427.219	15.62
428	15.62
428.78	17.62
429.561	19.62
430.342	18.62
431.122	22.62
431.903	21.62
432.683	22.62
433.464	23.62
434.244	23.62
435.024	23.62
435.804	24.62
436.584	26.62
437.364	26.62
438.144	31.62
438.924	33.62
439.704	33.62
440.483	35.62
441.263	36.62
442.042	42.62
442.822	42.62
443.601	44.62
444.38	46.62
445.16	48.62
445.939	55.62
446.718	58.62
447.497	62.62
448.276	67.62
449.054	76.62
449.833	82.62
450.612	89.62
451.391	99.62
452.169	111.62
452.948	121.62
453.726	136.62
454.504	143.62
455.282	167.62
456.061	177.62
456.839	199.62
457.617	223.62
458.395	242.62
459.172	281.62
459.95	310.62
460.728	349.62
461.506	377.62
462.283	427.62
463.061	477.62
463.838	523.62
464.615	596.62
465.393	653.62
466.17	726.62
466.947	808.62
467.724	904.62
468.501	985.62
469.278	1091.62
470.055	1202.62
470.831	1329.62
471.608	1465.62
472.385	1621.62
473.161	1793.62
473.938	1956.62
474.714	2161.62
475.49	2358.62
476.266	2606.62
477.043	2828.62
477.819	3159.62
478.595	3437.62
479.371	3741.62
480.146	4089.62
480.922	4460.62
481.698	4878.62
482.473	5308.62
483.249	5769.62
484.024	6282.62
484.8	6880.62
485.575	7438.62
486.35	8060.62
487.126	8760.62
487.901	9470.62
488.676	10304.62
489.451	11170.62
490.225	12050.62
491	13024.62
491.775	14063.62
492.55	15129.62
493.324	16309.62
494.099	17376.62
494.873	18499.62
495.647	19782.62
496.422	21028.62
497.196	22264.62
497.97	23649.62
498.744	24937.62
499.518	26211.62
500.292	27390.62
501.066	28537.62
501.839	29558.62
502.613	30584.62
503.387	31360.62
504.16	32114.62
504.934	32484.62
505.707	32769.62
506.48	32919.62
507.253	32904.62
508.027	32749.62
508.8	32490.62
509.573	32054.62
510.346	31412.62
511.118	30658.62
511.891	29950.62
512.664	29077.62
513.437	28022.62
514.209	26992.62
514.982	26157.62
515.754	25222.62
516.526	24146.62
517.298	23218.62
518.071	22258.62
518.843	21377.62
519.615	20466.62
520.387	19707.62
521.159	18964.62
521.93	18286.62
522.702	17518.62
523.474	16824.62
524.245	16138.62
525.017	15443.62
525.788	14756.62
526.56	14082.62
527.331	13497.62
528.102	12933.62
528.873	12383.62
529.644	11761.62
530.415	11280.62
531.186	10776.62
531.957	10209.62
532.728	9712.62
533.498	9182.62
534.269	8668.62
535.039	8231.62
535.81	7784.62
536.58	7382.62
537.351	6949.62
538.121	6614.62
538.891	6225.62
539.661	5959.62
540.431	5603.62
541.201	5305.62
541.971	5009.62
542.741	4754.62
543.51	4553.62
544.28	4284.62
545.05	4089.62
545.819	3884.62
546.588	3698.62
547.358	3508.62
548.127	3338.62
548.896	3152.62
549.665	3018.62
550.434	2870.62
551.203	2716.62
551.972	2571.62
552.741	2413.62
553.51	2301.62
554.278	2183.62
555.047	2073.62
555.815	1940.62
556.584	1826.62
557.352	1737.62
558.121	1651.62
558.889	1546.62
559.657	1477.62
560.425	1386.62
561.193	1305.62
561.961	1244.62
562.729	1173.62
563.496	1112.62
564.264	1040.62
565.032	994.62
565.799	934.62
566.567	890.62
567.334	832.62
568.101	792.62
568.869	752.62
569.636	705.62
570.403	666.62
571.17	627.62
571.937	580.62
572.704	563.62
573.471	535.62
574.237	493.62
575.004	472.62
575.771	442.62
576.537	410.62
577.303	398.62
578.07	371.62
578.836	338.62
579.602	331.62
580.368	312.62
581.134	294.62
581.9	285.62
582.666	263.62
583.432	251.62
584.198	237.62
584.964	227.62
585.729	214.62
586.495	209.62
587.26	192.62
588.025	182.62
588.791	175.62
589.556	161.62
590.321	155.62
591.086	148.62
591.851	137.62
592.616	135.62
593.381	126.62
594.146	118.62
594.911	117.62
595.675	110.62
596.44	110.62
597.204	100.62
597.969	94.62
598.733	93.62
599.497	85.62
600.261	90.62
601.025	80.62
601.79	78.62
602.553	72.62
603.317	69.62
604.081	63.62
604.845	65.62
605.609	60.62
606.372	59.62
607.136	58.62
607.899	53.62
608.662	49.62
609.426	49.62
610.189	45.62
610.952	49.62
611.715	46.62
612.478	43.62
613.241	41.62
614.004	39.62
614.767	42.62
615.529	36.62
616.292	36.62
617.055	32.62
617.817	30.62
618.579	31.62
619.342	32.62
620.104	29.62
620.866	27.62
621.628	25.62
622.39	24.62
623.152	27.62
623.914	25.62
624.676	26.62
625.438	20.62
626.199	23.62
626.961	26.62
627.722	21.62
628.484	18.62
629.245	23.62
630.006	18.62
630.768	19.62
631.529	18.62
632.29	15.62
633.051	21.62
633.812	18.62
634.573	18.62
635.333	14.62
636.094	16.62
636.855	16.62
637.615	18.62
638.376	16.62
639.136	14.62
639.896	11.62
640.657	15.62
641.417	10.62
642.177	14.62
642.937	12.62
643.697	14.62
644.457	12.62
645.216	10.62
645.976	10.62
646.736	9.62
647.495	8.62
648.255	11.62
649.014	12.62
649.774	9.62
650.533	9.62
651.292	8.62
652.051	10.62
652.81	11.62
653.569	7.62
654.328	8.62
655.087	10.62
655.846	6.62
656.604	11.62
657.363	10.62
658.121	8.62
658.88	7.62
659.638	6.62
660.397	8.62
661.155	7.62
661.913	7.62
662.671	9.62
663.429	5.62
664.187	7.62
664.945	6.62
665.703	8.62
666.46	7.62
667.218	8.62
667.976	6.62
668.733	6.62
669.49	6.62
670.248	7.62
671.005	6.62
671.762	5.62
672.519	7.62
673.276	6.62
674.033	3.62
674.79	6.62
675.547	7.62
676.304	5.62
677.06	2.62
677.817	4.62
678.574	6.62
679.33	4.62
680.086	8.62
680.843	6.62
681.599	6.62
682.355	5.62
683.111	4.62
683.867	6.62
684.623	7.62
685.379	4.62
686.135	4.62
686.89	4.62
687.646	8.62
688.402	3.62
689.157	6.62
689.912	4.62
690.668	6.62
691.423	4.62
692.178	5.62
692.933	5.62
693.688	8.62
694.443	6.62
695.198	6.62
695.953	2.62
696.708	5.62
697.462	4.62
698.217	6.62
698.972	5.62
699.726	4.62
700.48	4.62
701.235	4.62
701.989	6.62
702.743	4.62
703.497	6.62
704.251	5.62
705.005	5.62
705.759	4.62
706.513	2.62
707.266	5.62
708.02	4.62
708.774	5.62
709.527	3.62
710.28	5.62
711.034	4.62
711.787	3.62
712.54	5.62
713.293	4.62
714.046	6.62
714.799	6.62
715.552	5.62
716.305	5.62
717.058	5.62
717.81	5.62
718.563	4.62
719.315	3.62
720.068	5.62
720.82	4.62
721.573	6.62
722.325	3.62
723.077	3.62
723.829	9.62
724.581	2.62
725.333	4.62
726.085	6.62
726.836	4.62
727.588	5.62
728.34	3.62
729.091	4.62
729.843	6.62
730.594	4.62
731.346	4.62
732.097	6.62
732.848	6.62
733.599	8.62
734.35	4.62
735.101	6.62
735.852	6.62
736.603	3.62
737.354	5.62
738.104	7.62
738.855	7.62
739.605	8.62
740.356	8.62
741.106	5.62
741.856	5.62
742.607	3.62
743.357	6.62
744.107	6.62
744.857	5.62
745.607	8.62
746.357	4.62
747.106	5.62
747.856	7.62
748.606	8.62
749.355	7.62
750.105	3.62
750.854	6.62
751.603	5.62
752.353	8.62
753.102	7.62
753.851	5.62
754.6	7.62
755.349	9.62
756.098	8.62
756.847	7.62
757.595	8.62
758.344	9.62
759.093	6.62
759.841	6.62
760.589	7.62
761.338	7.62
762.086	6.62
762.834	6.62
763.582	4.62
764.331	6.62
765.079	11.62
765.826	7.62
766.574	9.62
767.322	9.62
768.07	7.62
768.817	9.62
769.565	8.62
770.312	11.62
771.06	8.62
771.807	9.62
772.554	8.62
773.302	9.62
774.049	9.62
774.796	9.62
775.543	8.62
776.29	9.62
777.036	8.62
777.783	8.62
778.53	10.62
779.276	13.62
780.023	12.62
780.769	9.62
781.516	9.62
782.262	10.62
783.008	12.62
783.754	9.62
784.5	12.62
785.246	10.62
785.992	10.62
786.738	12.62
787.484	8.62
788.23	11.62
788.975	10.62
789.721	10.62
790.466	11.62
791.212	6.62
791.957	13.62
792.702	12.62
793.447	11.62
794.193	9.62
794.938	10.62
795.683	11.62
796.427	9.62
797.172	10.62
797.917	6.62
798.662	9.62
799.406	8.62
800.151	9.62
800.895	8.62
801.64	9.62
802.384	7.62
803.128	8.62
803.872	6.62
804.616	8.62
805.36	6.62
806.104	9.62
806.848	8.62
807.592	5.62
808.336	4.62
809.079	7.62
809.823	8.62
810.566	6.62
811.31	7.62
812.053	5.62
812.796	6.62
813.539	8.62
814.283	4.62
815.026	9.62
815.769	6.62
816.511	6.62
817.254	7.62
817.997	5.62
818.74	6.62
819.482	7.62
820.225	6.62
820.967	2.62
821.71	4.62
822.452	5.62
823.194	4.62
823.936	5.62
824.678	6.62
825.42	3.62
826.162	4.62
826.904	5.62
827.646	5.62
828.388	6.62
829.129	5.62
829.871	3.62
830.612	5.62
831.354	2.62
832.095	2.62
832.836	3.62
833.577	2.62
834.319	2.62
835.06	2.62
835.801	5.62
836.542	4.62
837.282	4.62
838.023	5.62
838.764	4.62
839.504	5.62
840.245	4.62
840.985	4.62
841.726	7.62
842.466	3.62
843.206	2.62
843.946	1.62
844.687	4.62
845.427	3.62
846.166	6.62
846.906	5.62
847.646	2.62
848.386	3.62
849.125	5.62
849.865	2.62
850.605	4.62
851.344	0.62
852.083	4.62
852.823	3.62
853.562	4.62
854.301	2.62
855.04	4.62
855.779	3.62
856.518	3.62
857.257	2.62
857.995	2.62
858.734	1.62
859.473	4.62
860.211	2.62
860.95	2.62
861.688	1.62
862.426	0.62
863.165	3.62
863.903	1.62
864.641	2.62
865.379	5.62
866.117	2.62
866.855	2.62
867.593	0.62
868.33	1.62
869.068	3.62
869.806	0.62
870.543	0.62
871.28	2.62
872.018	0.62
872.755	3.62
873.492	1.62
874.229	2.62
874.967	3.62
875.703	1.62
876.44	1.62
877.177	4.62
877.914	1.62
878.651	1.62
879.387	0.62
880.124	2.62
880.86	0.62
881.597	1.62
882.333	2.62
883.069	1.62
883.806	1.62
884.542	1.62
885.278	-0.38
886.014	0.62
886.749	1.62
887.485	1.62
888.221	0.62
888.957	1.62
889.692	-0.38
890.428	-2.38
891.163	0.62
891.899	-0.38
892.634	3.62
893.369	4.62
894.104	2.62
894.839	0.62
895.574	0.62
896.309	3.62
897.044	0.62
897.779	0.62
898.514	-0.38
899.248	0.62
899.983	0.62
900.717	-0.38
901.452	1.62
902.186	1.62
902.92	1.62
903.654	2.62
904.389	0.62
905.123	0.62
905.857	1.62
906.59	1.62
907.324	1.62
908.058	-0.38
908.792	2.62
909.525	-0.38
910.259	-1.38
910.992	2.62
911.726	-0.38
912.459	1.62
913.192	0.62
913.925	0.62
914.658	-1.38
915.391	1.62
916.124	0.62
916.857	0.62
917.59	1.62
918.323	0.62
919.055	2.62
919.788	1.62
920.521	1.62
921.253	1.62
921.985	-1.38
922.718	1.62
923.45	-0.38
924.182	1.62
924.914	0.62
925.646	-3.38
926.378	1.62
927.11	0.62
927.841	1.62
928.573	-0.38
929.305	-0.38
930.036	0.62
930.768	-0.38
931.499	1.62
932.23	-1.38
932.962	0.62
933.693	2.62
934.424	-0.38
935.155	2.62
935.886	-0.38
936.617	0.62
937.348	-0.38
938.078	-1.38
938.809	3.62
939.54	-1.38
940.27	0.62
941.001	-1.38
941.731	0.62
942.461	1.62
943.191	1.62
943.922	1.62
944.652	-1.38
945.382	-0.38
946.112	0.62
946.841	0.62
947.571	0.62
948.301	-1.38
949.031	-1.38
949.76	-1.38
950.49	1.62
951.219	2.62
951.948	-1.38
952.678	2.62
953.407	0.62
954.136	-0.38
954.865	1.62
955.594	-2.38
956.323	1.62
957.052	1.62
957.78	1.62
958.509	-0.38
959.238	-0.38
959.966	0.62
960.695	-1.38
961.423	2.62
962.151	0.62
962.88	-1.38
963.608	-1.38
964.336	1.62
965.064	-1.38
965.792	-0.38
966.52	0.62
967.247	0.62
967.975	-1.38
968.703	0.62
969.43	-1.38
970.158	1.62
970.885	-0.38
971.613	0.62
972.34	0.62
973.067	-0.38
973.794	-0.38
974.521	-1.38
975.248	-0.38
975.975	1.62
976.702	-1.38
977.429	2.62
978.156	-0.38
978.882	-1.38
979.609	-1.38
980.335	0.62
981.062	2.62
981.788	-1.38
982.514	0.62
983.24	-0.38
983.967	2.62
984.693	0.62
985.419	1.62
986.144	1.62
986.87	-1.38
987.596	1.62
988.322	1.62
989.047	-0.38
989.773	0.62
990.498	2.62
991.224	1.62
991.949	1.62
992.674	2.62
993.399	1.62
994.124	0.62
994.849	1.62
995.574	-0.38
996.299	1.62
997.024	1.62
997.749	1.62
998.473	-1.38
999.198	0.62
999.922	1.62
1000.647	0.62
1001.371	1.62
1002.095	0.62
1002.82	-1.38
1003.544	-0.38
1004.268	1.62
1004.992	1.62
1005.716	0.62
1006.439	0.62
1007.163	2.62
1007.887	2.62
1008.611	-1.38
1009.334	-3.38
1010.058	2.62
1010.781	-1.38
1011.504	0.62
1012.228	-1.38
1012.951	-0.38
1013.674	1.62
1014.397	-1.38
1015.12	-0.38
