节点500_425_QEPB04081__137__15-50-35-303.txt的数据

Date: Wed Nov 12 15:50:35 CST 2025
User: PC
Spectrometer: QEPB0408
触发模式: 0
积分时间 (秒): 1.000000E-2
Scans to average: 1
启用暗噪声校正: true
启用非线性校正: false
滑动平均宽度: 0
X轴模式: Wavelengths
Number of Pixels in Spectrum: 1044
>>>>>Begin Spectral Data<<<<<
220.843	6.25
221.644	5.25
222.444	4.25
223.244	6.25
224.045	4.25
224.845	5.25
225.645	5.25
226.445	4.25
227.245	5.25
228.045	7.25
228.845	5.25
229.645	6.25
230.444	8.25
231.244	6.25
232.043	6.25
232.843	7.25
233.642	5.25
234.442	6.25
235.241	6.25
236.04	7.25
236.839	9.25
237.638	8.25
238.437	8.25
239.236	8.25
240.035	6.25
240.833	5.25
241.632	5.25
242.43	8.25
243.229	6.25
244.027	7.25
244.826	7.25
245.624	10.25
246.422	11.25
247.22	14.25
248.018	6.25
248.816	9.25
249.614	11.25
250.412	11.25
251.21	11.25
252.007	13.25
252.805	9.25
253.602	12.25
254.4	13.25
255.197	15.25
255.994	14.25
256.791	14.25
257.589	13.25
258.386	15.25
259.183	13.25
259.979	17.25
260.776	17.25
261.573	17.25
262.37	19.25
263.166	18.25
263.963	17.25
264.759	21.25
265.556	20.25
266.352	21.25
267.148	22.25
267.944	21.25
268.74	22.25
269.536	23.25
270.332	21.25
271.128	21.25
271.924	24.25
272.719	24.25
273.515	23.25
274.311	24.25
275.106	25.25
275.901	26.25
276.697	25.25
277.492	25.25
278.287	27.25
279.082	24.25
279.877	28.25
280.672	27.25
281.467	25.25
282.262	26.25
283.056	26.25
283.851	27.25
284.646	27.25
285.44	26.25
286.234	28.25
287.029	26.25
287.823	27.25
288.617	30.25
289.411	25.25
290.205	24.25
290.999	24.25
291.793	27.25
292.587	26.25
293.381	25.25
294.174	23.25
294.968	26.25
295.761	22.25
296.555	21.25
297.348	23.25
298.141	20.25
298.935	22.25
299.728	19.25
300.521	19.25
301.314	20.25
302.107	17.25
302.899	20.25
303.692	18.25
304.485	18.25
305.277	17.25
306.07	16.25
306.862	18.25
307.655	19.25
308.447	20.25
309.239	17.25
310.031	16.25
310.823	15.25
311.615	12.25
312.407	14.25
313.199	15.25
313.991	12.25
314.783	15.25
315.574	13.25
316.366	15.25
317.157	10.25
317.949	14.25
318.74	14.25
319.531	13.25
320.322	12.25
321.113	9.25
321.904	11.25
322.695	11.25
323.486	13.25
324.277	10.25
325.068	11.25
325.858	10.25
326.649	9.25
327.439	9.25
328.23	9.25
329.02	10.25
329.81	5.25
330.6	10.25
331.391	12.25
332.181	10.25
332.971	10.25
333.76	11.25
334.55	9.25
335.34	8.25
336.13	12.25
336.919	9.25
337.709	11.25
338.498	11.25
339.287	10.25
340.077	8.25
340.866	10.25
341.655	8.25
342.444	9.25
343.233	7.25
344.022	8.25
344.811	9.25
345.6	7.25
346.388	11.25
347.177	9.25
347.965	10.25
348.754	11.25
349.542	7.25
350.33	8.25
351.119	9.25
351.907	11.25
352.695	7.25
353.483	8.25
354.271	8.25
355.059	7.25
355.846	10.25
356.634	10.25
357.422	7.25
358.209	8.25
358.997	7.25
359.784	9.25
360.571	9.25
361.359	10.25
362.146	9.25
362.933	6.25
363.72	8.25
364.507	8.25
365.294	6.25
366.081	9.25
366.867	8.25
367.654	8.25
368.44	9.25
369.227	7.25
370.013	7.25
370.8	7.25
371.586	6.25
372.372	5.25
373.158	9.25
373.944	6.25
374.73	9.25
375.516	9.25
376.302	9.25
377.088	8.25
377.873	6.25
378.659	7.25
379.445	7.25
380.23	8.25
381.015	9.25
381.801	5.25
382.586	6.25
383.371	8.25
384.156	9.25
384.941	8.25
385.726	11.25
386.511	9.25
387.296	9.25
388.08	9.25
388.865	9.25
389.649	8.25
390.434	8.25
391.218	9.25
392.003	11.25
392.787	10.25
393.571	10.25
394.355	9.25
395.139	7.25
395.923	9.25
396.707	11.25
397.491	11.25
398.274	10.25
399.058	7.25
399.842	12.25
400.625	10.25
401.408	10.25
402.192	10.25
402.975	12.25
403.758	12.25
404.541	8.25
405.324	12.25
406.107	10.25
406.89	11.25
407.673	12.25
408.456	11.25
409.238	12.25
410.021	11.25
410.803	13.25
411.586	12.25
412.368	15.25
413.151	14.25
413.933	14.25
414.715	15.25
415.497	12.25
416.279	16.25
417.061	14.25
417.843	13.25
418.624	13.25
419.406	15.25
420.188	15.25
420.969	15.25
421.751	19.25
422.532	16.25
423.313	14.25
424.095	17.25
424.876	15.25
425.657	19.25
426.438	15.25
427.219	18.25
428	17.25
428.78	20.25
429.561	19.25
430.342	21.25
431.122	21.25
431.903	24.25
432.683	23.25
433.464	24.25
434.244	25.25
435.024	27.25
435.804	25.25
436.584	30.25
437.364	29.25
438.144	30.25
438.924	31.25
439.704	33.25
440.483	37.25
441.263	38.25
442.042	41.25
442.822	42.25
443.601	42.25
444.38	47.25
445.16	49.25
445.939	52.25
446.718	54.25
447.497	59.25
448.276	64.25
449.054	69.25
449.833	72.25
450.612	87.25
451.391	87.25
452.169	97.25
452.948	111.25
453.726	120.25
454.504	129.25
455.282	144.25
456.061	160.25
456.839	179.25
457.617	193.25
458.395	223.25
459.172	249.25
459.95	274.25
460.728	304.25
461.506	341.25
462.283	386.25
463.061	428.25
463.838	473.25
464.615	542.25
465.393	591.25
466.17	667.25
466.947	753.25
467.724	834.25
468.501	935.25
469.278	1034.25
470.055	1158.25
470.831	1257.25
471.608	1426.25
472.385	1586.25
473.161	1732.25
473.938	1946.25
474.714	2138.25
475.49	2354.25
476.266	2635.25
477.043	2902.25
477.819	3211.25
478.595	3583.25
479.371	3922.25
480.146	4306.25
480.922	4702.25
481.698	5205.25
482.473	5724.25
483.249	6275.25
484.024	6911.25
484.8	7613.25
485.575	8283.25
486.35	9069.25
487.126	9943.25
487.901	10880.25
488.676	11873.25
489.451	12980.25
490.225	14102.25
491	15331.25
491.775	16684.25
492.55	17983.25
493.324	19401.25
494.099	20794.25
494.873	22212.25
495.647	23707.25
496.422	25226.25
497.196	26718.25
497.97	28349.25
498.744	29807.25
499.518	31234.25
500.292	32429.25
501.066	33551.25
501.839	34592.25
502.613	35500.25
503.387	36075.25
504.16	36508.25
504.934	36777.25
505.707	36605.25
506.48	36483.25
507.253	35937.25
508.027	35423.25
508.8	34723.25
509.573	33849.25
510.346	32862.25
511.118	31860.25
511.891	30720.25
512.664	29459.25
513.437	28310.25
514.209	27114.25
514.982	26046.25
515.754	24895.25
516.526	23873.25
517.298	22756.25
518.071	21834.25
518.843	20901.25
519.615	20108.25
520.387	19239.25
521.159	18498.25
521.93	17804.25
522.702	17099.25
523.474	16459.25
524.245	15813.25
525.017	15022.25
525.788	14369.25
526.56	13641.25
527.331	13042.25
528.102	12369.25
528.873	11772.25
529.644	11227.25
530.415	10712.25
531.186	10153.25
531.957	9627.25
532.728	9069.25
533.498	8592.25
534.269	8114.25
535.039	7652.25
535.81	7228.25
536.58	6854.25
537.351	6453.25
538.121	6068.25
538.891	5765.25
539.661	5471.25
540.431	5164.25
541.201	4875.25
541.971	4636.25
542.741	4416.25
543.51	4180.25
544.28	3985.25
545.05	3776.25
545.819	3615.25
546.588	3401.25
547.358	3225.25
548.127	3071.25
548.896	2911.25
549.665	2753.25
550.434	2617.25
551.203	2476.25
551.972	2371.25
552.741	2214.25
553.51	2117.25
554.278	1978.25
555.047	1850.25
555.815	1756.25
556.584	1665.25
557.352	1571.25
558.121	1472.25
558.889	1413.25
559.657	1327.25
560.425	1235.25
561.193	1186.25
561.961	1115.25
562.729	1057.25
563.496	995.25
564.264	941.25
565.032	892.25
565.799	846.25
566.567	796.25
567.334	746.25
568.101	708.25
568.869	672.25
569.636	642.25
570.403	600.25
571.17	570.25
571.937	539.25
572.704	504.25
573.471	478.25
574.237	453.25
575.004	427.25
575.771	390.25
576.537	374.25
577.303	346.25
578.07	326.25
578.836	314.25
579.602	305.25
580.368	284.25
581.134	270.25
581.9	255.25
582.666	244.25
583.432	226.25
584.198	216.25
584.964	205.25
585.729	197.25
586.495	182.25
587.26	178.25
588.025	166.25
588.791	160.25
589.556	154.25
590.321	138.25
591.086	135.25
591.851	128.25
592.616	117.25
593.381	119.25
594.146	113.25
594.911	103.25
595.675	98.25
596.44	99.25
597.204	93.25
597.969	87.25
598.733	84.25
599.497	76.25
600.261	80.25
601.025	74.25
601.79	69.25
602.553	67.25
603.317	66.25
604.081	60.25
604.845	61.25
605.609	60.25
606.372	54.25
607.136	54.25
607.899	49.25
608.662	48.25
609.426	48.25
610.189	45.25
610.952	41.25
611.715	45.25
612.478	41.25
613.241	39.25
614.004	37.25
614.767	39.25
615.529	38.25
616.292	35.25
617.055	38.25
617.817	30.25
618.579	32.25
619.342	29.25
620.104	29.25
620.866	29.25
621.628	28.25
622.39	27.25
623.152	26.25
623.914	24.25
624.676	22.25
625.438	26.25
626.199	23.25
626.961	20.25
627.722	22.25
628.484	23.25
629.245	19.25
630.006	19.25
630.768	18.25
631.529	18.25
632.29	16.25
633.051	19.25
633.812	14.25
634.573	16.25
635.333	18.25
636.094	16.25
636.855	16.25
637.615	15.25
638.376	18.25
639.136	15.25
639.896	14.25
640.657	13.25
641.417	13.25
642.177	13.25
642.937	10.25
643.697	13.25
644.457	11.25
645.216	12.25
645.976	13.25
646.736	9.25
647.495	10.25
648.255	10.25
649.014	10.25
649.774	11.25
650.533	10.25
651.292	10.25
652.051	11.25
652.81	12.25
653.569	8.25
654.328	9.25
655.087	11.25
655.846	8.25
656.604	8.25
657.363	9.25
658.121	11.25
658.88	9.25
659.638	8.25
660.397	9.25
661.155	6.25
661.913	11.25
662.671	6.25
663.429	8.25
664.187	9.25
664.945	7.25
665.703	9.25
666.46	6.25
667.218	8.25
667.976	8.25
668.733	7.25
669.49	7.25
670.248	6.25
671.005	8.25
671.762	9.25
672.519	6.25
673.276	6.25
674.033	6.25
674.79	7.25
675.547	6.25
676.304	5.25
677.06	5.25
677.817	7.25
678.574	6.25
679.33	5.25
680.086	5.25
680.843	8.25
681.599	6.25
682.355	6.25
683.111	7.25
683.867	6.25
684.623	4.25
685.379	6.25
686.135	6.25
686.89	6.25
687.646	6.25
688.402	5.25
689.157	7.25
689.912	5.25
690.668	7.25
691.423	4.25
692.178	7.25
692.933	4.25
693.688	7.25
694.443	6.25
695.198	5.25
695.953	6.25
696.708	6.25
697.462	5.25
698.217	6.25
698.972	5.25
699.726	5.25
700.48	5.25
701.235	3.25
701.989	6.25
702.743	6.25
703.497	8.25
704.251	5.25
705.005	7.25
705.759	6.25
706.513	6.25
707.266	6.25
708.02	6.25
708.774	6.25
709.527	8.25
710.28	4.25
711.034	4.25
711.787	3.25
712.54	5.25
713.293	5.25
714.046	8.25
714.799	6.25
715.552	5.25
716.305	7.25
717.058	4.25
717.81	8.25
718.563	6.25
719.315	6.25
720.068	8.25
720.82	5.25
721.573	5.25
722.325	6.25
723.077	4.25
723.829	7.25
724.581	4.25
725.333	6.25
726.085	8.25
726.836	6.25
727.588	6.25
728.34	6.25
729.091	7.25
729.843	6.25
730.594	8.25
731.346	8.25
732.097	7.25
732.848	5.25
733.599	8.25
734.35	6.25
735.101	7.25
735.852	8.25
736.603	9.25
737.354	8.25
738.104	7.25
738.855	7.25
739.605	8.25
740.356	10.25
741.106	7.25
741.856	5.25
742.607	8.25
743.357	6.25
744.107	5.25
744.857	9.25
745.607	7.25
746.357	8.25
747.106	8.25
747.856	6.25
748.606	7.25
749.355	8.25
750.105	10.25
750.854	6.25
751.603	9.25
752.353	7.25
753.102	8.25
753.851	9.25
754.6	8.25
755.349	10.25
756.098	11.25
756.847	8.25
757.595	9.25
758.344	8.25
759.093	9.25
759.841	9.25
760.589	8.25
761.338	11.25
762.086	9.25
762.834	12.25
763.582	10.25
764.331	11.25
765.079	11.25
765.826	9.25
766.574	11.25
767.322	9.25
768.07	11.25
768.817	11.25
769.565	10.25
770.312	11.25
771.06	10.25
771.807	13.25
772.554	11.25
773.302	11.25
774.049	14.25
774.796	9.25
775.543	12.25
776.29	13.25
777.036	15.25
777.783	12.25
778.53	14.25
779.276	14.25
780.023	10.25
780.769	14.25
781.516	11.25
782.262	13.25
783.008	14.25
783.754	14.25
784.5	15.25
785.246	14.25
785.992	15.25
786.738	13.25
787.484	14.25
788.23	14.25
788.975	13.25
789.721	13.25
790.466	14.25
791.212	12.25
791.957	13.25
792.702	12.25
793.447	13.25
794.193	10.25
794.938	12.25
795.683	11.25
796.427	11.25
797.172	11.25
797.917	10.25
798.662	11.25
799.406	9.25
800.151	11.25
800.895	12.25
801.64	8.25
802.384	10.25
803.128	10.25
803.872	9.25
804.616	9.25
805.36	10.25
806.104	9.25
806.848	8.25
807.592	6.25
808.336	5.25
809.079	9.25
809.823	7.25
810.566	8.25
811.31	8.25
812.053	7.25
812.796	9.25
813.539	5.25
814.283	7.25
815.026	8.25
815.769	7.25
816.511	8.25
817.254	7.25
817.997	10.25
818.74	7.25
819.482	3.25
820.225	7.25
820.967	4.25
821.71	5.25
822.452	8.25
823.194	7.25
823.936	7.25
824.678	5.25
825.42	5.25
826.162	5.25
826.904	8.25
827.646	5.25
828.388	5.25
829.129	7.25
829.871	5.25
830.612	7.25
831.354	7.25
832.095	7.25
832.836	3.25
833.577	6.25
834.319	5.25
835.06	3.25
835.801	9.25
836.542	4.25
837.282	6.25
838.023	6.25
838.764	7.25
839.504	4.25
840.245	2.25
840.985	5.25
841.726	5.25
842.466	7.25
843.206	3.25
843.946	2.25
844.687	5.25
845.427	4.25
846.166	4.25
846.906	5.25
847.646	3.25
848.386	5.25
849.125	2.25
849.865	7.25
850.605	2.25
851.344	3.25
852.083	2.25
852.823	3.25
853.562	6.25
854.301	5.25
855.04	3.25
855.779	4.25
856.518	4.25
857.257	5.25
857.995	4.25
858.734	3.25
859.473	3.25
860.211	3.25
860.95	3.25
861.688	3.25
862.426	4.25
863.165	2.25
863.903	5.25
864.641	4.25
865.379	1.25
866.117	2.25
866.855	3.25
867.593	2.25
868.33	4.25
869.068	3.25
869.806	3.25
870.543	2.25
871.28	1.25
872.018	2.25
872.755	3.25
873.492	2.25
874.229	4.25
874.967	2.25
875.703	1.25
876.44	2.25
877.177	3.25
877.914	3.25
878.651	2.25
879.387	1.25
880.124	2.25
880.86	1.25
881.597	1.25
882.333	3.25
883.069	1.25
883.806	2.25
884.542	2.25
885.278	5.25
886.014	2.25
886.749	1.25
887.485	1.25
888.221	2.25
888.957	1.25
889.692	3.25
890.428	3.25
891.163	2.25
891.899	2.25
892.634	2.25
893.369	1.25
894.104	4.25
894.839	1.25
895.574	1.25
896.309	3.25
897.044	2.25
897.779	1.25
898.514	5.25
899.248	3.25
899.983	1.25
900.717	0.25
901.452	2.25
902.186	2.25
902.92	3.25
903.654	1.25
904.389	1.25
905.123	1.25
905.857	3.25
906.59	2.25
907.324	2.25
908.058	2.25
908.792	1.25
909.525	0.25
910.259	1.25
910.992	2.25
911.726	1.25
912.459	0.25
913.192	-0.75
913.925	1.25
914.658	1.25
915.391	2.25
916.124	1.25
916.857	2.25
917.59	2.25
918.323	1.25
919.055	4.25
919.788	-0.75
920.521	3.25
921.253	1.25
921.985	2.25
922.718	1.25
923.45	0.25
924.182	2.25
924.914	0.25
925.646	1.25
926.378	-0.75
927.11	0.25
927.841	0.25
928.573	0.25
929.305	3.25
930.036	1.25
930.768	1.25
931.499	1.25
932.23	1.25
932.962	2.25
933.693	1.25
934.424	4.25
935.155	1.25
935.886	0.25
936.617	3.25
937.348	0.25
938.078	-0.75
938.809	-1.75
939.54	2.25
940.27	0.25
941.001	4.25
941.731	1.25
942.461	3.25
943.191	2.25
943.922	0.25
944.652	2.25
945.382	3.25
946.112	2.25
946.841	2.25
947.571	2.25
948.301	2.25
949.031	1.25
949.76	2.25
950.49	3.25
951.219	-1.75
951.948	0.25
952.678	0.25
953.407	3.25
954.136	0.25
954.865	2.25
955.594	1.25
956.323	1.25
957.052	3.25
957.78	1.25
958.509	2.25
959.238	1.25
959.966	1.25
960.695	0.25
961.423	2.25
962.151	2.25
962.88	1.25
963.608	-0.75
964.336	1.25
965.064	2.25
965.792	2.25
966.52	1.25
967.247	1.25
967.975	3.25
968.703	4.25
969.43	2.25
970.158	-0.75
970.885	0.25
971.613	1.25
972.34	-0.75
973.067	0.25
973.794	1.25
974.521	1.25
975.248	-1.75
975.975	-0.75
976.702	0.25
977.429	1.25
978.156	1.25
978.882	2.25
979.609	0.25
980.335	0.25
981.062	1.25
981.788	2.25
982.514	-0.75
983.24	2.25
983.967	0.25
984.693	1.25
985.419	-0.75
986.144	2.25
986.87	0.25
987.596	-0.75
988.322	1.25
989.047	-0.75
989.773	3.25
990.498	2.25
991.224	1.25
991.949	3.25
992.674	1.25
993.399	1.25
994.124	0.25
994.849	2.25
995.574	2.25
996.299	0.25
997.024	2.25
997.749	-0.75
998.473	0.25
999.198	1.25
999.922	1.25
1000.647	3.25
1001.371	2.25
1002.095	1.25
1002.82	-1.75
1003.544	0.25
1004.268	2.25
1004.992	3.25
1005.716	3.25
1006.439	3.25
1007.163	3.25
1007.887	4.25
1008.611	1.25
1009.334	2.25
1010.058	2.25
1010.781	2.25
1011.504	1.25
1012.228	1.25
1012.951	0.25
1013.674	0.25
1014.397	0.25
1015.12	-2.75
