节点500_425_QEPB04081__572__15-57-49-442.txt的数据

Date: Wed Nov 12 15:57:49 CST 2025
User: PC
Spectrometer: QEPB0408
触发模式: 0
积分时间 (秒): 1.000000E-2
Scans to average: 1
启用暗噪声校正: true
启用非线性校正: false
滑动平均宽度: 0
X轴模式: Wavelengths
Number of Pixels in Spectrum: 1044
>>>>>Begin Spectral Data<<<<<
220.843	3
221.644	3
222.444	5
223.244	4
224.045	3
224.845	3
225.645	3
226.445	5
227.245	3
228.045	4
228.845	7
229.645	4
230.444	5
231.244	8
232.043	4
232.843	5
233.642	7
234.442	7
235.241	7
236.04	8
236.839	7
237.638	6
238.437	6
239.236	7
240.035	8
240.833	6
241.632	8
242.43	8
243.229	8
244.027	9
244.826	7
245.624	8
246.422	9
247.22	10
248.018	10
248.816	8
249.614	10
250.412	7
251.21	12
252.007	11
252.805	11
253.602	10
254.4	11
255.197	10
255.994	13
256.791	12
257.589	13
258.386	12
259.183	13
259.979	15
260.776	13
261.573	16
262.37	11
263.166	17
263.963	15
264.759	15
265.556	18
266.352	15
267.148	19
267.944	15
268.74	21
269.536	19
270.332	18
271.128	19
271.924	19
272.719	19
273.515	22
274.311	20
275.106	19
275.901	22
276.697	23
277.492	24
278.287	23
279.082	26
279.877	24
280.672	25
281.467	25
282.262	23
283.056	24
283.851	23
284.646	25
285.44	24
286.234	24
287.029	26
287.823	26
288.617	22
289.411	22
290.205	24
290.999	23
291.793	24
292.587	24
293.381	26
294.174	25
294.968	22
295.761	19
296.555	21
297.348	22
298.141	16
298.935	22
299.728	19
300.521	21
301.314	19
302.107	18
302.899	19
303.692	17
304.485	14
305.277	18
306.07	16
306.862	16
307.655	17
308.447	17
309.239	15
310.031	15
310.823	15
311.615	17
312.407	13
313.199	14
313.991	14
314.783	11
315.574	11
316.366	14
317.157	12
317.949	11
318.74	11
319.531	12
320.322	11
321.113	11
321.904	11
322.695	10
323.486	9
324.277	10
325.068	11
325.858	9
326.649	11
327.439	11
328.23	10
329.02	8
329.81	10
330.6	7
331.391	11
332.181	10
332.971	9
333.76	8
334.55	10
335.34	11
336.13	10
336.919	12
337.709	10
338.498	11
339.287	6
340.077	9
340.866	7
341.655	8
342.444	11
343.233	9
344.022	8
344.811	9
345.6	7
346.388	8
347.177	7
347.965	10
348.754	9
349.542	6
350.33	10
351.119	7
351.907	10
352.695	6
353.483	8
354.271	9
355.059	9
355.846	7
356.634	9
357.422	8
358.209	8
358.997	6
359.784	6
360.571	8
361.359	9
362.146	8
362.933	7
363.72	5
364.507	8
365.294	9
366.081	6
366.867	6
367.654	7
368.44	7
369.227	8
370.013	9
370.8	8
371.586	7
372.372	7
373.158	9
373.944	6
374.73	10
375.516	9
376.302	6
377.088	7
377.873	8
378.659	7
379.445	9
380.23	6
381.015	6
381.801	8
382.586	7
383.371	5
384.156	8
384.941	6
385.726	8
386.511	10
387.296	7
388.08	8
388.865	7
389.649	9
390.434	8
391.218	8
392.003	8
392.787	9
393.571	9
394.355	6
395.139	9
395.923	9
396.707	6
397.491	11
398.274	9
399.058	9
399.842	10
400.625	9
401.408	11
402.192	8
402.975	9
403.758	9
404.541	10
405.324	11
406.107	9
406.89	13
407.673	10
408.456	11
409.238	11
410.021	10
410.803	13
411.586	11
412.368	12
413.151	11
413.933	14
414.715	14
415.497	12
416.279	12
417.061	12
417.843	11
418.624	12
419.406	12
420.188	15
420.969	13
421.751	14
422.532	12
423.313	17
424.095	18
424.876	17
425.657	18
426.438	19
427.219	16
428	17
428.78	17
429.561	19
430.342	18
431.122	20
431.903	19
432.683	23
433.464	21
434.244	23
435.024	24
435.804	28
436.584	28
437.364	30
438.144	27
438.924	29
439.704	32
440.483	38
441.263	38
442.042	41
442.822	44
443.601	49
444.38	49
445.16	55
445.939	59
446.718	63
447.497	65
448.276	70
449.054	79
449.833	85
450.612	93
451.391	103
452.169	114
452.948	126
453.726	141
454.504	149
455.282	167
456.061	183
456.839	205
457.617	232
458.395	255
459.172	282
459.95	310
460.728	351
461.506	386
462.283	428
463.061	478
463.838	537
464.615	601
465.393	667
466.17	732
466.947	815
467.724	907
468.501	1005
469.278	1105
470.055	1215
470.831	1340
471.608	1487
472.385	1643
473.161	1793
473.938	1971
474.714	2170
475.49	2369
476.266	2582
477.043	2845
477.819	3128
478.595	3402
479.371	3732
480.146	4073
480.922	4426
481.698	4819
482.473	5272
483.249	5725
484.024	6283
484.8	6787
485.575	7369
486.35	7982
487.126	8645
487.901	9392
488.676	10156
489.451	10975
490.225	11848
491	12838
491.775	13864
492.55	14877
493.324	16000
494.099	17076
494.873	18180
495.647	19428
496.422	20655
497.196	21906
497.97	23187
498.744	24489
499.518	25770
500.292	26898
501.066	27973
501.839	29100
502.613	30072
503.387	30827
504.16	31543
504.934	32101
505.707	32379
506.48	32536
507.253	32563
508.027	32432
508.8	32176
509.573	31775
510.346	31253
511.118	30635
511.891	29882
512.664	28968
513.437	28095
514.209	27094
514.982	26277
515.754	25309
516.526	24331
517.298	23330
518.071	22300
518.843	21514
519.615	20596
520.387	19829
521.159	19018
521.93	18312
522.702	17631
523.474	16935
524.245	16285
525.017	15542
525.788	14863
526.56	14224
527.331	13617
528.102	13026
528.873	12421
529.644	11878
530.415	11353
531.186	10846
531.957	10308
532.728	9782
533.498	9253
534.269	8764
535.039	8338
535.81	7913
536.58	7467
537.351	7044
538.121	6662
538.891	6325
539.661	6003
540.431	5670
541.201	5393
541.971	5069
542.741	4817
543.51	4596
544.28	4347
545.05	4153
545.819	3947
546.588	3738
547.358	3547
548.127	3373
548.896	3221
549.665	3047
550.434	2909
551.203	2738
551.972	2598
552.741	2471
553.51	2351
554.278	2210
555.047	2106
555.815	1964
556.584	1868
557.352	1765
558.121	1660
558.889	1564
559.657	1491
560.425	1406
561.193	1322
561.961	1266
562.729	1185
563.496	1130
564.264	1071
565.032	997
565.799	945
566.567	898
567.334	865
568.101	809
568.869	754
569.636	725
570.403	670
571.17	632
571.937	602
572.704	567
573.471	539
574.237	502
575.004	475
575.771	456
576.537	423
577.303	392
578.07	371
578.836	350
579.602	335
580.368	311
581.134	300
581.9	288
582.666	274
583.432	263
584.198	246
584.964	227
585.729	222
586.495	209
587.26	209
588.025	186
588.791	177
589.556	169
590.321	161
591.086	151
591.851	146
592.616	137
593.381	128
594.146	118
594.911	116
595.675	113
596.44	114
597.204	106
597.969	98
598.733	96
599.497	90
600.261	87
601.025	81
601.79	79
602.553	75
603.317	69
604.081	72
604.845	69
605.609	65
606.372	60
607.136	61
607.899	56
608.662	55
609.426	51
610.189	51
610.952	49
611.715	45
612.478	45
613.241	41
614.004	44
614.767	41
615.529	34
616.292	37
617.055	35
617.817	35
618.579	33
619.342	33
620.104	31
620.866	28
621.628	29
622.39	28
623.152	27
623.914	27
624.676	25
625.438	26
626.199	23
626.961	23
627.722	22
628.484	19
629.245	23
630.006	20
630.768	19
631.529	21
632.29	19
633.051	20
633.812	17
634.573	18
635.333	18
636.094	17
636.855	15
637.615	13
638.376	15
639.136	14
639.896	13
640.657	16
641.417	11
642.177	15
642.937	12
643.697	14
644.457	14
645.216	13
645.976	13
646.736	10
647.495	11
648.255	13
649.014	11
649.774	13
650.533	14
651.292	12
652.051	10
652.81	11
653.569	10
654.328	10
655.087	9
655.846	12
656.604	11
657.363	9
658.121	9
658.88	7
659.638	7
660.397	9
661.155	8
661.913	11
662.671	8
663.429	7
664.187	8
664.945	8
665.703	9
666.46	7
667.218	9
667.976	6
668.733	4
669.49	6
670.248	4
671.005	6
671.762	8
672.519	9
673.276	7
674.033	6
674.79	8
675.547	8
676.304	7
677.06	5
677.817	7
678.574	9
679.33	5
680.086	8
680.843	7
681.599	5
682.355	7
683.111	6
683.867	6
684.623	9
685.379	7
686.135	6
686.89	7
687.646	7
688.402	7
689.157	7
689.912	7
690.668	6
691.423	4
692.178	7
692.933	5
693.688	5
694.443	7
695.198	6
695.953	5
696.708	5
697.462	6
698.217	5
698.972	8
699.726	4
700.48	8
701.235	3
701.989	7
702.743	7
703.497	5
704.251	4
705.005	6
705.759	5
706.513	6
707.266	7
708.02	5
708.774	3
709.527	5
710.28	4
711.034	7
711.787	6
712.54	5
713.293	7
714.046	6
714.799	6
715.552	3
716.305	6
717.058	5
717.81	5
718.563	6
719.315	6
720.068	4
720.82	3
721.573	7
722.325	5
723.077	7
723.829	8
724.581	5
725.333	6
726.085	8
726.836	4
727.588	5
728.34	6
729.091	8
729.843	5
730.594	7
731.346	4
732.097	4
732.848	6
733.599	8
734.35	6
735.101	4
735.852	6
736.603	6
737.354	7
738.104	4
738.855	8
739.605	6
740.356	6
741.106	6
741.856	8
742.607	5
743.357	7
744.107	7
744.857	5
745.607	6
746.357	8
747.106	6
747.856	8
748.606	7
749.355	4
750.105	6
750.854	9
751.603	6
752.353	9
753.102	11
753.851	7
754.6	7
755.349	6
756.098	7
756.847	8
757.595	8
758.344	9
759.093	7
759.841	9
760.589	7
761.338	8
762.086	7
762.834	8
763.582	9
764.331	9
765.079	10
765.826	10
766.574	8
767.322	8
768.07	10
768.817	10
769.565	11
770.312	11
771.06	9
771.807	9
772.554	11
773.302	10
774.049	12
774.796	10
775.543	9
776.29	11
777.036	10
777.783	11
778.53	12
779.276	10
780.023	10
780.769	10
781.516	12
782.262	11
783.008	13
783.754	12
784.5	10
785.246	11
785.992	10
786.738	11
787.484	13
788.23	11
788.975	12
789.721	10
790.466	12
791.212	12
791.957	10
792.702	12
793.447	14
794.193	13
794.938	11
795.683	11
796.427	11
797.172	12
797.917	9
798.662	8
799.406	10
800.151	10
800.895	10
801.64	10
802.384	11
803.128	9
803.872	9
804.616	9
805.36	8
806.104	9
806.848	8
807.592	9
808.336	8
809.079	8
809.823	10
810.566	9
811.31	9
812.053	6
812.796	8
813.539	9
814.283	5
815.026	6
815.769	10
816.511	8
817.254	8
817.997	5
818.74	9
819.482	7
820.225	4
820.967	4
821.71	4
822.452	5
823.194	5
823.936	5
824.678	4
825.42	6
826.162	5
826.904	6
827.646	7
828.388	7
829.129	6
829.871	5
830.612	3
831.354	5
832.095	7
832.836	5
833.577	5
834.319	6
835.06	5
835.801	5
836.542	7
837.282	6
838.023	5
838.764	5
839.504	2
840.245	8
840.985	6
841.726	7
842.466	5
843.206	4
843.946	3
844.687	3
845.427	7
846.166	5
846.906	6
847.646	5
848.386	4
849.125	3
849.865	4
850.605	5
851.344	3
852.083	6
852.823	6
853.562	7
854.301	5
855.04	3
855.779	5
856.518	7
857.257	4
857.995	4
858.734	3
859.473	7
860.211	5
860.95	1
861.688	2
862.426	4
863.165	1
863.903	3
864.641	2
865.379	3
866.117	1
866.855	3
867.593	3
868.33	2
869.068	3
869.806	2
870.543	2
871.28	2
872.018	5
872.755	2
873.492	3
874.229	2
874.967	4
875.703	2
876.44	1
877.177	2
877.914	1
878.651	2
879.387	3
880.124	4
880.86	2
881.597	1
882.333	5
883.069	4
883.806	2
884.542	1
885.278	1
886.014	2
886.749	0
887.485	0
888.221	2
888.957	2
889.692	2
890.428	3
891.163	3
891.899	4
892.634	-1
893.369	0
894.104	1
894.839	1
895.574	2
896.309	2
897.044	1
897.779	1
898.514	2
899.248	-1
899.983	1
900.717	2
901.452	0
902.186	3
902.92	-1
903.654	0
904.389	1
905.123	0
905.857	1
906.59	3
907.324	1
908.058	2
908.792	4
909.525	2
910.259	0
910.992	1
911.726	3
912.459	4
913.192	-1
913.925	1
914.658	0
915.391	2
916.124	2
916.857	1
917.59	2
918.323	-1
919.055	2
919.788	0
920.521	0
921.253	2
921.985	3
922.718	2
923.45	-1
924.182	1
924.914	2
925.646	1
926.378	1
927.11	0
927.841	0
928.573	-2
929.305	-1
930.036	1
930.768	3
931.499	2
932.23	1
932.962	0
933.693	0
934.424	2
935.155	2
935.886	2
936.617	-1
937.348	2
938.078	0
938.809	1
939.54	1
940.27	1
941.001	1
941.731	1
942.461	3
943.191	1
943.922	3
944.652	2
945.382	0
946.112	0
946.841	2
947.571	-1
948.301	1
949.031	1
949.76	1
950.49	-1
951.219	3
951.948	1
952.678	1
953.407	2
954.136	2
954.865	2
955.594	1
956.323	3
957.052	1
957.78	0
958.509	-1
959.238	2
959.966	2
960.695	0
961.423	1
962.151	1
962.88	-1
963.608	1
964.336	0
965.064	2
965.792	-1
966.52	1
967.247	2
967.975	1
968.703	0
969.43	1
970.158	-1
970.885	1
971.613	0
972.34	0
973.067	1
973.794	1
974.521	1
975.248	1
975.975	0
976.702	2
977.429	2
978.156	-1
978.882	1
979.609	2
980.335	-1
981.062	-1
981.788	-2
982.514	2
983.24	-1
983.967	2
984.693	1
985.419	1
986.144	-1
986.87	0
987.596	2
988.322	0
989.047	0
989.773	1
990.498	-1
991.224	1
991.949	1
992.674	1
993.399	0
994.124	-1
994.849	1
995.574	1
996.299	-2
997.024	2
997.749	1
998.473	0
999.198	-1
999.922	1
1000.647	0
1001.371	3
1002.095	2
1002.82	-2
1003.544	-1
1004.268	2
1004.992	4
1005.716	4
1006.439	2
1007.163	4
1007.887	3
1008.611	1
1009.334	2
1010.058	0
1010.781	1
1011.504	2
1012.228	1
1012.951	1
1013.674	-2
1014.397	-1
1015.12	0
