节点500_425_QEPB04081__38__15-48-57-440.txt的数据

Date: Wed Nov 12 15:48:57 CST 2025
User: PC
Spectrometer: QEPB0408
触发模式: 0
积分时间 (秒): 1.000000E-2
Scans to average: 1
启用暗噪声校正: true
启用非线性校正: false
滑动平均宽度: 0
X轴模式: Wavelengths
Number of Pixels in Spectrum: 1044
>>>>>Begin Spectral Data<<<<<
220.843	4.75
221.644	3.75
222.444	5.75
223.244	5.75
224.045	2.75
224.845	3.75
225.645	4.75
226.445	3.75
227.245	4.75
228.045	5.75
228.845	5.75
229.645	4.75
230.444	5.75
231.244	3.75
232.043	5.75
232.843	3.75
233.642	7.75
234.442	5.75
235.241	7.75
236.04	7.75
236.839	6.75
237.638	6.75
238.437	6.75
239.236	5.75
240.035	7.75
240.833	4.75
241.632	6.75
242.43	6.75
243.229	5.75
244.027	10.75
244.826	10.75
245.624	10.75
246.422	8.75
247.22	10.75
248.018	9.75
248.816	8.75
249.614	11.75
250.412	9.75
251.21	9.75
252.007	12.75
252.805	9.75
253.602	10.75
254.4	13.75
255.197	10.75
255.994	13.75
256.791	13.75
257.589	14.75
258.386	14.75
259.183	15.75
259.979	18.75
260.776	17.75
261.573	19.75
262.37	19.75
263.166	20.75
263.963	20.75
264.759	18.75
265.556	20.75
266.352	22.75
267.148	19.75
267.944	21.75
268.74	21.75
269.536	26.75
270.332	22.75
271.128	24.75
271.924	22.75
272.719	24.75
273.515	24.75
274.311	25.75
275.106	26.75
275.901	25.75
276.697	26.75
277.492	25.75
278.287	30.75
279.082	26.75
279.877	26.75
280.672	28.75
281.467	27.75
282.262	25.75
283.056	28.75
283.851	23.75
284.646	27.75
285.44	28.75
286.234	28.75
287.029	27.75
287.823	26.75
288.617	25.75
289.411	27.75
290.205	27.75
290.999	25.75
291.793	26.75
292.587	24.75
293.381	22.75
294.174	23.75
294.968	21.75
295.761	20.75
296.555	22.75
297.348	18.75
298.141	19.75
298.935	26.75
299.728	18.75
300.521	16.75
301.314	19.75
302.107	14.75
302.899	19.75
303.692	18.75
304.485	15.75
305.277	18.75
306.07	13.75
306.862	14.75
307.655	14.75
308.447	17.75
309.239	14.75
310.031	15.75
310.823	16.75
311.615	13.75
312.407	13.75
313.199	11.75
313.991	10.75
314.783	13.75
315.574	13.75
316.366	10.75
317.157	10.75
317.949	9.75
318.74	11.75
319.531	10.75
320.322	9.75
321.113	11.75
321.904	10.75
322.695	9.75
323.486	8.75
324.277	11.75
325.068	11.75
325.858	8.75
326.649	12.75
327.439	6.75
328.23	11.75
329.02	8.75
329.81	10.75
330.6	9.75
331.391	6.75
332.181	8.75
332.971	9.75
333.76	9.75
334.55	10.75
335.34	7.75
336.13	8.75
336.919	7.75
337.709	8.75
338.498	6.75
339.287	9.75
340.077	10.75
340.866	10.75
341.655	9.75
342.444	8.75
343.233	6.75
344.022	8.75
344.811	8.75
345.6	9.75
346.388	9.75
347.177	7.75
347.965	7.75
348.754	10.75
349.542	10.75
350.33	6.75
351.119	8.75
351.907	9.75
352.695	9.75
353.483	7.75
354.271	8.75
355.059	10.75
355.846	5.75
356.634	9.75
357.422	8.75
358.209	8.75
358.997	7.75
359.784	6.75
360.571	8.75
361.359	7.75
362.146	8.75
362.933	7.75
363.72	7.75
364.507	6.75
365.294	6.75
366.081	3.75
366.867	8.75
367.654	7.75
368.44	7.75
369.227	7.75
370.013	7.75
370.8	5.75
371.586	9.75
372.372	7.75
373.158	6.75
373.944	9.75
374.73	6.75
375.516	5.75
376.302	7.75
377.088	7.75
377.873	6.75
378.659	7.75
379.445	7.75
380.23	5.75
381.015	8.75
381.801	8.75
382.586	9.75
383.371	7.75
384.156	7.75
384.941	7.75
385.726	6.75
386.511	8.75
387.296	10.75
388.08	6.75
388.865	9.75
389.649	9.75
390.434	8.75
391.218	9.75
392.003	9.75
392.787	10.75
393.571	7.75
394.355	9.75
395.139	10.75
395.923	9.75
396.707	11.75
397.491	10.75
398.274	9.75
399.058	8.75
399.842	12.75
400.625	10.75
401.408	8.75
402.192	11.75
402.975	9.75
403.758	12.75
404.541	8.75
405.324	11.75
406.107	10.75
406.89	10.75
407.673	11.75
408.456	12.75
409.238	12.75
410.021	10.75
410.803	14.75
411.586	10.75
412.368	12.75
413.151	12.75
413.933	14.75
414.715	14.75
415.497	14.75
416.279	12.75
417.061	13.75
417.843	13.75
418.624	13.75
419.406	13.75
420.188	14.75
420.969	16.75
421.751	17.75
422.532	16.75
423.313	12.75
424.095	15.75
424.876	16.75
425.657	21.75
426.438	17.75
427.219	17.75
428	19.75
428.78	19.75
429.561	20.75
430.342	19.75
431.122	20.75
431.903	21.75
432.683	24.75
433.464	22.75
434.244	22.75
435.024	25.75
435.804	26.75
436.584	27.75
437.364	30.75
438.144	28.75
438.924	29.75
439.704	32.75
440.483	34.75
441.263	37.75
442.042	36.75
442.822	38.75
443.601	41.75
444.38	45.75
445.16	47.75
445.939	50.75
446.718	55.75
447.497	57.75
448.276	66.75
449.054	69.75
449.833	75.75
450.612	79.75
451.391	86.75
452.169	98.75
452.948	106.75
453.726	113.75
454.504	126.75
455.282	138.75
456.061	159.75
456.839	168.75
457.617	198.75
458.395	207.75
459.172	236.75
459.95	264.75
460.728	289.75
461.506	322.75
462.283	363.75
463.061	411.75
463.838	466.75
464.615	513.75
465.393	574.75
466.17	643.75
466.947	719.75
467.724	806.75
468.501	912.75
469.278	992.75
470.055	1125.75
470.831	1247.75
471.608	1390.75
472.385	1527.75
473.161	1718.75
473.938	1908.75
474.714	2118.75
475.49	2346.75
476.266	2615.75
477.043	2872.75
477.819	3214.75
478.595	3539.75
479.371	3942.75
480.146	4334.75
480.922	4777.75
481.698	5287.75
482.473	5844.75
483.249	6431.75
484.024	7081.75
484.8	7810.75
485.575	8602.75
486.35	9434.75
487.126	10334.75
487.901	11328.75
488.676	12440.75
489.451	13608.75
490.225	14800.75
491	16147.75
491.775	17522.75
492.55	18959.75
493.324	20478.75
494.099	22007.75
494.873	23428.75
495.647	25068.75
496.422	26730.75
497.196	28385.75
497.97	30007.75
498.744	31468.75
499.518	32834.75
500.292	34115.75
501.066	35186.75
501.839	36217.75
502.613	37028.75
503.387	37475.75
504.16	37951.75
504.934	37971.75
505.707	37658.75
506.48	37313.75
507.253	36660.75
508.027	36038.75
508.8	35204.75
509.573	34119.75
510.346	33035.75
511.118	31897.75
511.891	30681.75
512.664	29381.75
513.437	28109.75
514.209	26802.75
514.982	25721.75
515.754	24664.75
516.526	23569.75
517.298	22510.75
518.071	21562.75
518.843	20729.75
519.615	19834.75
520.387	19031.75
521.159	18308.75
521.93	17617.75
522.702	16967.75
523.474	16257.75
524.245	15628.75
525.017	14846.75
525.788	14160.75
526.56	13497.75
527.331	12851.75
528.102	12203.75
528.873	11558.75
529.644	10973.75
530.415	10464.75
531.186	9950.75
531.957	9365.75
532.728	8887.75
533.498	8355.75
534.269	7873.75
535.039	7437.75
535.81	7023.75
536.58	6632.75
537.351	6244.75
538.121	5900.75
538.891	5619.75
539.661	5293.75
540.431	5026.75
541.201	4771.75
541.971	4525.75
542.741	4285.75
543.51	4084.75
544.28	3871.75
545.05	3678.75
545.819	3490.75
546.588	3335.75
547.358	3116.75
548.127	2991.75
548.896	2829.75
549.665	2692.75
550.434	2536.75
551.203	2402.75
551.972	2273.75
552.741	2160.75
553.51	2014.75
554.278	1912.75
555.047	1802.75
555.815	1692.75
556.584	1610.75
557.352	1491.75
558.121	1421.75
558.889	1331.75
559.657	1258.75
560.425	1188.75
561.193	1132.75
561.961	1079.75
562.729	1012.75
563.496	968.75
564.264	900.75
565.032	850.75
565.799	814.75
566.567	763.75
567.334	724.75
568.101	677.75
568.869	656.75
569.636	607.75
570.403	579.75
571.17	553.75
571.937	511.75
572.704	477.75
573.471	462.75
574.237	429.75
575.004	398.75
575.771	388.75
576.537	356.75
577.303	332.75
578.07	320.75
578.836	297.75
579.602	281.75
580.368	273.75
581.134	257.75
581.9	244.75
582.666	234.75
583.432	216.75
584.198	206.75
584.964	196.75
585.729	191.75
586.495	177.75
587.26	168.75
588.025	156.75
588.791	155.75
589.556	145.75
590.321	134.75
591.086	126.75
591.851	124.75
592.616	120.75
593.381	110.75
594.146	103.75
594.911	102.75
595.675	96.75
596.44	90.75
597.204	86.75
597.969	87.75
598.733	80.75
599.497	78.75
600.261	78.75
601.025	73.75
601.79	68.75
602.553	62.75
603.317	63.75
604.081	60.75
604.845	61.75
605.609	53.75
606.372	51.75
607.136	54.75
607.899	48.75
608.662	47.75
609.426	44.75
610.189	40.75
610.952	42.75
611.715	42.75
612.478	37.75
613.241	33.75
614.004	38.75
614.767	36.75
615.529	36.75
616.292	33.75
617.055	29.75
617.817	30.75
618.579	30.75
619.342	27.75
620.104	30.75
620.866	26.75
621.628	28.75
622.39	24.75
623.152	23.75
623.914	21.75
624.676	21.75
625.438	21.75
626.199	22.75
626.961	21.75
627.722	20.75
628.484	20.75
629.245	19.75
630.006	21.75
630.768	20.75
631.529	18.75
632.29	15.75
633.051	20.75
633.812	15.75
634.573	17.75
635.333	14.75
636.094	14.75
636.855	16.75
637.615	15.75
638.376	14.75
639.136	14.75
639.896	14.75
640.657	12.75
641.417	13.75
642.177	11.75
642.937	10.75
643.697	12.75
644.457	9.75
645.216	11.75
645.976	12.75
646.736	13.75
647.495	7.75
648.255	9.75
649.014	10.75
649.774	11.75
650.533	11.75
651.292	10.75
652.051	12.75
652.81	10.75
653.569	11.75
654.328	10.75
655.087	9.75
655.846	9.75
656.604	11.75
657.363	9.75
658.121	6.75
658.88	8.75
659.638	8.75
660.397	7.75
661.155	5.75
661.913	9.75
662.671	6.75
663.429	9.75
664.187	7.75
664.945	6.75
665.703	10.75
666.46	8.75
667.218	6.75
667.976	7.75
668.733	7.75
669.49	7.75
670.248	6.75
671.005	6.75
671.762	6.75
672.519	10.75
673.276	6.75
674.033	7.75
674.79	5.75
675.547	6.75
676.304	7.75
677.06	5.75
677.817	4.75
678.574	7.75
679.33	5.75
680.086	7.75
680.843	6.75
681.599	5.75
682.355	5.75
683.111	5.75
683.867	7.75
684.623	8.75
685.379	6.75
686.135	5.75
686.89	5.75
687.646	4.75
688.402	5.75
689.157	4.75
689.912	4.75
690.668	4.75
691.423	4.75
692.178	4.75
692.933	6.75
693.688	5.75
694.443	5.75
695.198	5.75
695.953	4.75
696.708	5.75
697.462	3.75
698.217	5.75
698.972	4.75
699.726	4.75
700.48	5.75
701.235	6.75
701.989	6.75
702.743	4.75
703.497	4.75
704.251	5.75
705.005	3.75
705.759	4.75
706.513	5.75
707.266	6.75
708.02	5.75
708.774	5.75
709.527	5.75
710.28	7.75
711.034	5.75
711.787	6.75
712.54	4.75
713.293	5.75
714.046	4.75
714.799	5.75
715.552	4.75
716.305	4.75
717.058	5.75
717.81	6.75
718.563	4.75
719.315	7.75
720.068	7.75
720.82	7.75
721.573	7.75
722.325	4.75
723.077	3.75
723.829	5.75
724.581	5.75
725.333	3.75
726.085	5.75
726.836	6.75
727.588	6.75
728.34	6.75
729.091	7.75
729.843	7.75
730.594	5.75
731.346	6.75
732.097	7.75
732.848	8.75
733.599	6.75
734.35	7.75
735.101	7.75
735.852	7.75
736.603	6.75
737.354	8.75
738.104	8.75
738.855	7.75
739.605	8.75
740.356	6.75
741.106	7.75
741.856	6.75
742.607	6.75
743.357	7.75
744.107	9.75
744.857	6.75
745.607	5.75
746.357	10.75
747.106	7.75
747.856	8.75
748.606	5.75
749.355	8.75
750.105	5.75
750.854	8.75
751.603	9.75
752.353	8.75
753.102	9.75
753.851	8.75
754.6	9.75
755.349	10.75
756.098	8.75
756.847	10.75
757.595	8.75
758.344	8.75
759.093	9.75
759.841	8.75
760.589	8.75
761.338	10.75
762.086	9.75
762.834	10.75
763.582	7.75
764.331	12.75
765.079	9.75
765.826	12.75
766.574	10.75
767.322	12.75
768.07	8.75
768.817	12.75
769.565	12.75
770.312	12.75
771.06	12.75
771.807	13.75
772.554	15.75
773.302	12.75
774.049	13.75
774.796	10.75
775.543	10.75
776.29	10.75
777.036	14.75
777.783	9.75
778.53	13.75
779.276	12.75
780.023	12.75
780.769	13.75
781.516	14.75
782.262	10.75
783.008	12.75
783.754	12.75
784.5	11.75
785.246	12.75
785.992	15.75
786.738	11.75
787.484	10.75
788.23	10.75
788.975	12.75
789.721	12.75
790.466	12.75
791.212	10.75
791.957	11.75
792.702	13.75
793.447	10.75
794.193	14.75
794.938	11.75
795.683	8.75
796.427	9.75
797.172	10.75
797.917	11.75
798.662	11.75
799.406	9.75
800.151	9.75
800.895	9.75
801.64	9.75
802.384	9.75
803.128	8.75
803.872	10.75
804.616	7.75
805.36	8.75
806.104	9.75
806.848	8.75
807.592	8.75
808.336	9.75
809.079	8.75
809.823	8.75
810.566	9.75
811.31	6.75
812.053	7.75
812.796	6.75
813.539	6.75
814.283	7.75
815.026	5.75
815.769	6.75
816.511	6.75
817.254	6.75
817.997	5.75
818.74	7.75
819.482	5.75
820.225	3.75
820.967	7.75
821.71	6.75
822.452	5.75
823.194	5.75
823.936	3.75
824.678	5.75
825.42	7.75
826.162	6.75
826.904	8.75
827.646	5.75
828.388	5.75
829.129	3.75
829.871	7.75
830.612	4.75
831.354	3.75
832.095	4.75
832.836	3.75
833.577	7.75
834.319	5.75
835.06	6.75
835.801	4.75
836.542	4.75
837.282	5.75
838.023	2.75
838.764	4.75
839.504	4.75
840.245	3.75
840.985	6.75
841.726	5.75
842.466	3.75
843.206	5.75
843.946	5.75
844.687	4.75
845.427	4.75
846.166	2.75
846.906	3.75
847.646	3.75
848.386	2.75
849.125	4.75
849.865	4.75
850.605	3.75
851.344	4.75
852.083	5.75
852.823	5.75
853.562	2.75
854.301	3.75
855.04	4.75
855.779	3.75
856.518	2.75
857.257	3.75
857.995	4.75
858.734	1.75
859.473	2.75
860.211	2.75
860.95	-0.25
861.688	2.75
862.426	2.75
863.165	3.75
863.903	4.75
864.641	1.75
865.379	2.75
866.117	4.75
866.855	3.75
867.593	0.75
868.33	2.75
869.068	1.75
869.806	1.75
870.543	3.75
871.28	2.75
872.018	0.75
872.755	1.75
873.492	0.75
874.229	2.75
874.967	1.75
875.703	0.75
876.44	-0.25
877.177	0.75
877.914	1.75
878.651	1.75
879.387	1.75
880.124	2.75
880.86	-0.25
881.597	0.75
882.333	0.75
883.069	2.75
883.806	0.75
884.542	3.75
885.278	1.75
886.014	3.75
886.749	1.75
887.485	2.75
888.221	2.75
888.957	0.75
889.692	1.75
890.428	0.75
891.163	1.75
891.899	1.75
892.634	0.75
893.369	4.75
894.104	0.75
894.839	-0.25
895.574	1.75
896.309	0.75
897.044	0.75
897.779	0.75
898.514	0.75
899.248	2.75
899.983	2.75
900.717	1.75
901.452	1.75
902.186	3.75
902.92	-1.25
903.654	1.75
904.389	-0.25
905.123	2.75
905.857	0.75
906.59	0.75
907.324	-0.25
908.058	-0.25
908.792	1.75
909.525	1.75
910.259	-0.25
910.992	2.75
911.726	-1.25
912.459	1.75
913.192	-0.25
913.925	2.75
914.658	0.75
915.391	0.75
916.124	0.75
916.857	0.75
917.59	-0.25
918.323	2.75
919.055	1.75
919.788	2.75
920.521	0.75
921.253	0.75
921.985	2.75
922.718	2.75
923.45	0.75
924.182	-0.25
924.914	2.75
925.646	1.75
926.378	1.75
927.11	-0.25
927.841	1.75
928.573	1.75
929.305	0.75
930.036	-0.25
930.768	3.75
931.499	0.75
932.23	1.75
932.962	1.75
933.693	1.75
934.424	1.75
935.155	1.75
935.886	1.75
936.617	0.75
937.348	0.75
938.078	-2.25
938.809	1.75
939.54	0.75
940.27	-0.25
941.001	0.75
941.731	-0.25
942.461	0.75
943.191	0.75
943.922	0.75
944.652	0.75
945.382	3.75
946.112	0.75
946.841	1.75
947.571	0.75
948.301	2.75
949.031	-0.25
949.76	1.75
950.49	-1.25
951.219	1.75
951.948	-0.25
952.678	-1.25
953.407	-0.25
954.136	0.75
954.865	1.75
955.594	0.75
956.323	1.75
957.052	1.75
957.78	1.75
958.509	2.75
959.238	0.75
959.966	0.75
960.695	-1.25
961.423	2.75
962.151	0.75
962.88	0.75
963.608	-0.25
964.336	-1.25
965.064	2.75
965.792	-0.25
966.52	-0.25
967.247	3.75
967.975	-1.25
968.703	0.75
969.43	2.75
970.158	1.75
970.885	0.75
971.613	1.75
972.34	0.75
973.067	1.75
973.794	1.75
974.521	0.75
975.248	2.75
975.975	0.75
976.702	1.75
977.429	0.75
978.156	0.75
978.882	0.75
979.609	-0.25
980.335	-0.25
981.062	1.75
981.788	-0.25
982.514	2.75
983.24	2.75
983.967	0.75
984.693	0.75
985.419	0.75
986.144	3.75
986.87	0.75
987.596	0.75
988.322	0.75
989.047	-1.25
989.773	0.75
990.498	1.75
991.224	1.75
991.949	2.75
992.674	0.75
993.399	1.75
994.124	1.75
994.849	0.75
995.574	-1.25
996.299	-2.25
997.024	2.75
997.749	0.75
998.473	-0.25
999.198	0.75
999.922	0.75
1000.647	0.75
1001.371	2.75
1002.095	-1.25
1002.82	-0.25
1003.544	-1.25
1004.268	2.75
1004.992	3.75
1005.716	2.75
1006.439	2.75
1007.163	0.75
1007.887	4.75
1008.611	2.75
1009.334	-0.25
1010.058	0.75
1010.781	1.75
1011.504	1.75
1012.228	2.75
1012.951	-0.25
1013.674	-1.25
1014.397	-0.25
1015.12	1.75
