节点500_425_QEPB04081__122__15-50-20-289.txt的数据

Date: Wed Nov 12 15:50:20 CST 2025
User: PC
Spectrometer: QEPB0408
触发模式: 0
积分时间 (秒): 1.000000E-2
Scans to average: 1
启用暗噪声校正: true
启用非线性校正: false
滑动平均宽度: 0
X轴模式: Wavelengths
Number of Pixels in Spectrum: 1044
>>>>>Begin Spectral Data<<<<<
220.843	3
221.644	2
222.444	4
223.244	4
224.045	4
224.845	5
225.645	5
226.445	5
227.245	4
228.045	3
228.845	4
229.645	5
230.444	6
231.244	5
232.043	3
232.843	3
233.642	6
234.442	8
235.241	6
236.04	3
236.839	4
237.638	5
238.437	7
239.236	4
240.035	7
240.833	7
241.632	7
242.43	7
243.229	10
244.027	10
244.826	9
245.624	9
246.422	8
247.22	6
248.018	8
248.816	8
249.614	11
250.412	12
251.21	10
252.007	11
252.805	10
253.602	10
254.4	10
255.197	13
255.994	12
256.791	14
257.589	14
258.386	14
259.183	12
259.979	14
260.776	13
261.573	18
262.37	15
263.166	16
263.963	15
264.759	19
265.556	20
266.352	20
267.148	18
267.944	18
268.74	22
269.536	22
270.332	20
271.128	20
271.924	24
272.719	22
273.515	27
274.311	22
275.106	22
275.901	26
276.697	24
277.492	24
278.287	24
279.082	27
279.877	23
280.672	25
281.467	25
282.262	26
283.056	24
283.851	26
284.646	26
285.44	23
286.234	26
287.029	28
287.823	27
288.617	22
289.411	24
290.205	28
290.999	24
291.793	25
292.587	22
293.381	23
294.174	22
294.968	22
295.761	22
296.555	22
297.348	22
298.141	19
298.935	22
299.728	22
300.521	17
301.314	17
302.107	21
302.899	18
303.692	16
304.485	17
305.277	14
306.07	12
306.862	17
307.655	16
308.447	16
309.239	13
310.031	12
310.823	14
311.615	13
312.407	17
313.199	12
313.991	11
314.783	14
315.574	12
316.366	13
317.157	9
317.949	12
318.74	9
319.531	10
320.322	10
321.113	10
321.904	12
322.695	10
323.486	10
324.277	9
325.068	8
325.858	10
326.649	10
327.439	8
328.23	9
329.02	9
329.81	10
330.6	8
331.391	10
332.181	6
332.971	9
333.76	11
334.55	9
335.34	10
336.13	8
336.919	6
337.709	8
338.498	7
339.287	9
340.077	8
340.866	8
341.655	5
342.444	9
343.233	10
344.022	7
344.811	9
345.6	9
346.388	7
347.177	8
347.965	8
348.754	9
349.542	7
350.33	7
351.119	9
351.907	7
352.695	7
353.483	7
354.271	9
355.059	7
355.846	8
356.634	7
357.422	6
358.209	8
358.997	7
359.784	10
360.571	7
361.359	4
362.146	8
362.933	7
363.72	6
364.507	9
365.294	8
366.081	6
366.867	9
367.654	6
368.44	5
369.227	5
370.013	7
370.8	6
371.586	6
372.372	7
373.158	5
373.944	7
374.73	5
375.516	5
376.302	5
377.088	4
377.873	8
378.659	8
379.445	9
380.23	4
381.015	7
381.801	7
382.586	9
383.371	6
384.156	8
384.941	8
385.726	6
386.511	8
387.296	6
388.08	9
388.865	10
389.649	8
390.434	8
391.218	7
392.003	7
392.787	5
393.571	10
394.355	11
395.139	8
395.923	10
396.707	8
397.491	10
398.274	9
399.058	9
399.842	7
400.625	9
401.408	10
402.192	11
402.975	10
403.758	10
404.541	12
405.324	10
406.107	9
406.89	9
407.673	13
408.456	10
409.238	9
410.021	8
410.803	12
411.586	10
412.368	11
413.151	11
413.933	10
414.715	14
415.497	12
416.279	12
417.061	14
417.843	13
418.624	14
419.406	16
420.188	17
420.969	15
421.751	18
422.532	16
423.313	15
424.095	15
424.876	14
425.657	19
426.438	17
427.219	19
428	18
428.78	20
429.561	20
430.342	22
431.122	18
431.903	21
432.683	21
433.464	21
434.244	23
435.024	25
435.804	25
436.584	29
437.364	28
438.144	28
438.924	33
439.704	33
440.483	33
441.263	33
442.042	39
442.822	39
443.601	42
444.38	44
445.16	47
445.939	51
446.718	54
447.497	58
448.276	64
449.054	73
449.833	79
450.612	82
451.391	92
452.169	98
452.948	108
453.726	119
454.504	129
455.282	147
456.061	160
456.839	179
457.617	190
458.395	221
459.172	251
459.95	269
460.728	309
461.506	346
462.283	378
463.061	420
463.838	474
464.615	537
465.393	587
466.17	659
466.947	742
467.724	823
468.501	920
469.278	1021
470.055	1143
470.831	1267
471.608	1414
472.385	1586
473.161	1750
473.938	1929
474.714	2153
475.49	2366
476.266	2642
477.043	2876
477.819	3225
478.595	3566
479.371	3894
480.146	4289
480.922	4721
481.698	5220
482.473	5718
483.249	6293
484.024	6932
484.8	7665
485.575	8336
486.35	9083
487.126	10033
487.901	10923
488.676	11965
489.451	13056
490.225	14174
491	15413
491.775	16731
492.55	18089
493.324	19464
494.099	20974
494.873	22341
495.647	23850
496.422	25401
497.196	26957
497.97	28497
498.744	30012
499.518	31365
500.292	32635
501.066	33709
501.839	34862
502.613	35765
503.387	36257
504.16	36688
504.934	36783
505.707	36677
506.48	36496
507.253	36094
508.027	35521
508.8	34764
509.573	33846
510.346	32899
511.118	31895
511.891	30749
512.664	29476
513.437	28264
514.209	27055
514.982	25956
515.754	24902
516.526	23794
517.298	22781
518.071	21805
518.843	20929
519.615	20037
520.387	19225
521.159	18512
521.93	17834
522.702	17129
523.474	16454
524.245	15773
525.017	15040
525.788	14349
526.56	13666
527.331	13032
528.102	12417
528.873	11754
529.644	11199
530.415	10685
531.186	10134
531.957	9576
532.728	9045
533.498	8519
534.269	8064
535.039	7660
535.81	7204
536.58	6818
537.351	6409
538.121	6058
538.891	5750
539.661	5453
540.431	5152
541.201	4879
541.971	4627
542.741	4390
543.51	4183
544.28	3935
545.05	3784
545.819	3614
546.588	3428
547.358	3230
548.127	3049
548.896	2900
549.665	2736
550.434	2601
551.203	2472
551.972	2322
552.741	2211
553.51	2092
554.278	1965
555.047	1850
555.815	1774
556.584	1659
557.352	1565
558.121	1482
558.889	1400
559.657	1319
560.425	1244
561.193	1173
561.961	1105
562.729	1054
563.496	992
564.264	948
565.032	894
565.799	836
566.567	806
567.334	750
568.101	709
568.869	674
569.636	632
570.403	592
571.17	563
571.937	527
572.704	504
573.471	480
574.237	453
575.004	417
575.771	404
576.537	368
577.303	346
578.07	333
578.836	315
579.602	294
580.368	280
581.134	265
581.9	248
582.666	240
583.432	229
584.198	208
584.964	210
585.729	195
586.495	185
587.26	175
588.025	160
588.791	153
589.556	150
590.321	146
591.086	135
591.851	126
592.616	118
593.381	115
594.146	112
594.911	103
595.675	100
596.44	97
597.204	89
597.969	84
598.733	82
599.497	82
600.261	81
601.025	71
601.79	73
602.553	66
603.317	63
604.081	61
604.845	60
605.609	56
606.372	52
607.136	52
607.899	47
608.662	47
609.426	47
610.189	44
610.952	42
611.715	42
612.478	41
613.241	39
614.004	34
614.767	33
615.529	38
616.292	34
617.055	34
617.817	31
618.579	27
619.342	27
620.104	27
620.866	24
621.628	30
622.39	26
623.152	28
623.914	24
624.676	20
625.438	21
626.199	23
626.961	20
627.722	19
628.484	20
629.245	19
630.006	18
630.768	19
631.529	17
632.29	18
633.051	19
633.812	16
634.573	18
635.333	16
636.094	18
636.855	17
637.615	12
638.376	13
639.136	14
639.896	15
640.657	15
641.417	11
642.177	12
642.937	12
643.697	12
644.457	9
645.216	11
645.976	12
646.736	10
647.495	10
648.255	9
649.014	11
649.774	11
650.533	10
651.292	10
652.051	9
652.81	9
653.569	8
654.328	9
655.087	8
655.846	6
656.604	8
657.363	6
658.121	11
658.88	6
659.638	9
660.397	7
661.155	8
661.913	7
662.671	7
663.429	7
664.187	7
664.945	8
665.703	8
666.46	6
667.218	8
667.976	5
668.733	8
669.49	8
670.248	9
671.005	9
671.762	4
672.519	5
673.276	7
674.033	4
674.79	7
675.547	5
676.304	5
677.06	7
677.817	6
678.574	4
679.33	2
680.086	5
680.843	6
681.599	5
682.355	6
683.111	7
683.867	4
684.623	3
685.379	4
686.135	6
686.89	4
687.646	5
688.402	5
689.157	8
689.912	5
690.668	4
691.423	5
692.178	7
692.933	6
693.688	5
694.443	6
695.198	4
695.953	6
696.708	5
697.462	6
698.217	8
698.972	3
699.726	5
700.48	8
701.235	2
701.989	3
702.743	4
703.497	4
704.251	6
705.005	5
705.759	6
706.513	4
707.266	5
708.02	5
708.774	6
709.527	5
710.28	2
711.034	7
711.787	3
712.54	7
713.293	7
714.046	5
714.799	6
715.552	4
716.305	6
717.058	5
717.81	7
718.563	3
719.315	3
720.068	5
720.82	7
721.573	6
722.325	6
723.077	6
723.829	6
724.581	6
725.333	7
726.085	6
726.836	7
727.588	4
728.34	6
729.091	5
729.843	7
730.594	8
731.346	4
732.097	6
732.848	6
733.599	7
734.35	6
735.101	4
735.852	8
736.603	5
737.354	9
738.104	5
738.855	5
739.605	7
740.356	5
741.106	7
741.856	6
742.607	9
743.357	6
744.107	7
744.857	7
745.607	5
746.357	8
747.106	6
747.856	8
748.606	7
749.355	7
750.105	7
750.854	6
751.603	6
752.353	7
753.102	8
753.851	10
754.6	7
755.349	7
756.098	8
756.847	8
757.595	10
758.344	8
759.093	8
759.841	7
760.589	10
761.338	7
762.086	8
762.834	8
763.582	8
764.331	9
765.079	9
765.826	11
766.574	10
767.322	11
768.07	11
768.817	9
769.565	11
770.312	9
771.06	8
771.807	12
772.554	9
773.302	12
774.049	10
774.796	12
775.543	10
776.29	9
777.036	11
777.783	11
778.53	14
779.276	10
780.023	11
780.769	11
781.516	10
782.262	10
783.008	9
783.754	12
784.5	12
785.246	10
785.992	11
786.738	9
787.484	9
788.23	12
788.975	14
789.721	11
790.466	10
791.212	10
791.957	10
792.702	12
793.447	9
794.193	9
794.938	10
795.683	11
796.427	9
797.172	11
797.917	10
798.662	9
799.406	9
800.151	9
800.895	5
801.64	13
802.384	7
803.128	9
803.872	10
804.616	7
805.36	10
806.104	9
806.848	6
807.592	6
808.336	9
809.079	8
809.823	6
810.566	9
811.31	7
812.053	8
812.796	9
813.539	6
814.283	6
815.026	6
815.769	7
816.511	7
817.254	6
817.997	4
818.74	5
819.482	5
820.225	5
820.967	6
821.71	5
822.452	3
823.194	6
823.936	5
824.678	4
825.42	3
826.162	6
826.904	6
827.646	2
828.388	4
829.129	4
829.871	5
830.612	4
831.354	5
832.095	4
832.836	5
833.577	2
834.319	6
835.06	5
835.801	5
836.542	3
837.282	3
838.023	3
838.764	5
839.504	5
840.245	4
840.985	4
841.726	5
842.466	3
843.206	5
843.946	3
844.687	4
845.427	2
846.166	4
846.906	4
847.646	5
848.386	3
849.125	2
849.865	4
850.605	2
851.344	3
852.083	6
852.823	3
853.562	3
854.301	4
855.04	4
855.779	3
856.518	4
857.257	3
857.995	0
858.734	0
859.473	2
860.211	2
860.95	2
861.688	2
862.426	1
863.165	1
863.903	3
864.641	1
865.379	1
866.117	2
866.855	2
867.593	2
868.33	1
869.068	2
869.806	4
870.543	2
871.28	1
872.018	1
872.755	3
873.492	1
874.229	2
874.967	0
875.703	1
876.44	0
877.177	-1
877.914	0
878.651	2
879.387	1
880.124	-1
880.86	0
881.597	2
882.333	1
883.069	1
883.806	0
884.542	-1
885.278	0
886.014	-1
886.749	2
887.485	2
888.221	-1
888.957	1
889.692	0
890.428	0
891.163	1
891.899	0
892.634	2
893.369	1
894.104	1
894.839	0
895.574	1
896.309	2
897.044	2
897.779	1
898.514	1
899.248	-1
899.983	0
900.717	2
901.452	1
902.186	1
902.92	0
903.654	0
904.389	1
905.123	0
905.857	0
906.59	0
907.324	0
908.058	5
908.792	-1
909.525	0
910.259	1
910.992	2
911.726	2
912.459	-2
913.192	0
913.925	1
914.658	-1
915.391	2
916.124	-2
916.857	1
917.59	-2
918.323	2
919.055	1
919.788	3
920.521	0
921.253	-1
921.985	1
922.718	2
923.45	0
924.182	0
924.914	-3
925.646	0
926.378	0
927.11	0
927.841	0
928.573	-1
929.305	-1
930.036	0
930.768	1
931.499	1
932.23	1
932.962	-1
933.693	-1
934.424	0
935.155	1
935.886	0
936.617	0
937.348	2
938.078	0
938.809	0
939.54	-1
940.27	3
941.001	0
941.731	-1
942.461	2
943.191	0
943.922	1
944.652	1
945.382	-2
946.112	0
946.841	2
947.571	0
948.301	2
949.031	1
949.76	-1
950.49	1
951.219	1
951.948	0
952.678	-2
953.407	0
954.136	1
954.865	1
955.594	0
956.323	0
957.052	1
957.78	1
958.509	1
959.238	1
959.966	-1
960.695	2
961.423	0
962.151	3
962.88	-1
963.608	3
964.336	-1
965.064	1
965.792	0
966.52	-2
967.247	1
967.975	2
968.703	-1
969.43	0
970.158	1
970.885	-1
971.613	-1
972.34	1
973.067	-1
973.794	-2
974.521	0
975.248	-2
975.975	0
976.702	2
977.429	-1
978.156	1
978.882	-1
979.609	2
980.335	0
981.062	0
981.788	0
982.514	2
983.24	-1
983.967	-1
984.693	2
985.419	-1
986.144	0
986.87	2
987.596	0
988.322	-1
989.047	-1
989.773	1
990.498	0
991.224	-1
991.949	0
992.674	-2
993.399	-1
994.124	-1
994.849	-1
995.574	1
996.299	1
997.024	0
997.749	2
998.473	0
999.198	0
999.922	0
1000.647	1
1001.371	4
1002.095	0
1002.82	-2
1003.544	0
1004.268	3
1004.992	2
1005.716	3
1006.439	1
1007.163	3
1007.887	0
1008.611	0
1009.334	1
1010.058	1
1010.781	1
1011.504	1
1012.228	-1
1012.951	0
1013.674	0
1014.397	-1
1015.12	-1
