节点500_425_QEPB04081__274__15-52-51-974.txt的数据

Date: Wed Nov 12 15:52:51 CST 2025
User: PC
Spectrometer: QEPB0408
触发模式: 0
积分时间 (秒): 1.000000E-2
Scans to average: 1
启用暗噪声校正: true
启用非线性校正: false
滑动平均宽度: 0
X轴模式: Wavelengths
Number of Pixels in Spectrum: 1044
>>>>>Begin Spectral Data<<<<<
220.843	-0.75
221.644	0.25
222.444	2.25
223.244	1.25
224.045	-0.75
224.845	2.25
225.645	1.25
226.445	3.25
227.245	3.25
228.045	2.25
228.845	3.25
229.645	4.25
230.444	4.25
231.244	3.25
232.043	5.25
232.843	2.25
233.642	6.25
234.442	6.25
235.241	4.25
236.04	5.25
236.839	4.25
237.638	4.25
238.437	5.25
239.236	3.25
240.035	8.25
240.833	6.25
241.632	6.25
242.43	5.25
243.229	5.25
244.027	7.25
244.826	6.25
245.624	9.25
246.422	8.25
247.22	9.25
248.018	9.25
248.816	6.25
249.614	9.25
250.412	8.25
251.21	11.25
252.007	9.25
252.805	10.25
253.602	10.25
254.4	8.25
255.197	12.25
255.994	11.25
256.791	9.25
257.589	12.25
258.386	13.25
259.183	12.25
259.979	11.25
260.776	13.25
261.573	14.25
262.37	11.25
263.166	14.25
263.963	16.25
264.759	17.25
265.556	18.25
266.352	16.25
267.148	15.25
267.944	18.25
268.74	17.25
269.536	16.25
270.332	21.25
271.128	19.25
271.924	21.25
272.719	24.25
273.515	21.25
274.311	21.25
275.106	22.25
275.901	21.25
276.697	23.25
277.492	25.25
278.287	24.25
279.082	21.25
279.877	23.25
280.672	25.25
281.467	25.25
282.262	23.25
283.056	23.25
283.851	23.25
284.646	26.25
285.44	23.25
286.234	23.25
287.029	27.25
287.823	26.25
288.617	22.25
289.411	20.25
290.205	20.25
290.999	24.25
291.793	23.25
292.587	21.25
293.381	24.25
294.174	22.25
294.968	21.25
295.761	21.25
296.555	19.25
297.348	15.25
298.141	18.25
298.935	18.25
299.728	18.25
300.521	16.25
301.314	16.25
302.107	14.25
302.899	16.25
303.692	16.25
304.485	16.25
305.277	17.25
306.07	17.25
306.862	16.25
307.655	12.25
308.447	13.25
309.239	12.25
310.031	14.25
310.823	13.25
311.615	11.25
312.407	13.25
313.199	12.25
313.991	10.25
314.783	11.25
315.574	11.25
316.366	10.25
317.157	10.25
317.949	11.25
318.74	11.25
319.531	10.25
320.322	7.25
321.113	9.25
321.904	9.25
322.695	7.25
323.486	8.25
324.277	10.25
325.068	9.25
325.858	9.25
326.649	8.25
327.439	9.25
328.23	6.25
329.02	8.25
329.81	5.25
330.6	7.25
331.391	7.25
332.181	8.25
332.971	9.25
333.76	9.25
334.55	9.25
335.34	7.25
336.13	7.25
336.919	7.25
337.709	7.25
338.498	8.25
339.287	5.25
340.077	9.25
340.866	8.25
341.655	9.25
342.444	8.25
343.233	6.25
344.022	9.25
344.811	8.25
345.6	7.25
346.388	9.25
347.177	7.25
347.965	6.25
348.754	9.25
349.542	6.25
350.33	7.25
351.119	5.25
351.907	6.25
352.695	5.25
353.483	7.25
354.271	8.25
355.059	6.25
355.846	7.25
356.634	4.25
357.422	5.25
358.209	6.25
358.997	5.25
359.784	6.25
360.571	4.25
361.359	6.25
362.146	7.25
362.933	5.25
363.72	8.25
364.507	8.25
365.294	8.25
366.081	4.25
366.867	6.25
367.654	3.25
368.44	2.25
369.227	7.25
370.013	4.25
370.8	5.25
371.586	6.25
372.372	6.25
373.158	6.25
373.944	7.25
374.73	8.25
375.516	6.25
376.302	6.25
377.088	5.25
377.873	8.25
378.659	6.25
379.445	5.25
380.23	6.25
381.015	6.25
381.801	5.25
382.586	9.25
383.371	3.25
384.156	8.25
384.941	5.25
385.726	7.25
386.511	8.25
387.296	7.25
388.08	7.25
388.865	6.25
389.649	7.25
390.434	5.25
391.218	8.25
392.003	7.25
392.787	6.25
393.571	5.25
394.355	6.25
395.139	9.25
395.923	7.25
396.707	7.25
397.491	7.25
398.274	6.25
399.058	9.25
399.842	8.25
400.625	8.25
401.408	10.25
402.192	10.25
402.975	10.25
403.758	8.25
404.541	9.25
405.324	12.25
406.107	13.25
406.89	10.25
407.673	9.25
408.456	8.25
409.238	10.25
410.021	10.25
410.803	11.25
411.586	7.25
412.368	13.25
413.151	8.25
413.933	10.25
414.715	11.25
415.497	10.25
416.279	14.25
417.061	13.25
417.843	12.25
418.624	13.25
419.406	14.25
420.188	14.25
420.969	13.25
421.751	13.25
422.532	13.25
423.313	15.25
424.095	14.25
424.876	13.25
425.657	16.25
426.438	15.25
427.219	15.25
428	18.25
428.78	16.25
429.561	16.25
430.342	21.25
431.122	22.25
431.903	20.25
432.683	20.25
433.464	23.25
434.244	21.25
435.024	25.25
435.804	21.25
436.584	28.25
437.364	26.25
438.144	29.25
438.924	34.25
439.704	29.25
440.483	33.25
441.263	32.25
442.042	34.25
442.822	39.25
443.601	41.25
444.38	43.25
445.16	46.25
445.939	53.25
446.718	59.25
447.497	58.25
448.276	67.25
449.054	72.25
449.833	78.25
450.612	81.25
451.391	91.25
452.169	100.25
452.948	113.25
453.726	125.25
454.504	134.25
455.282	156.25
456.061	162.25
456.839	186.25
457.617	203.25
458.395	227.25
459.172	257.25
459.95	288.25
460.728	322.25
461.506	351.25
462.283	404.25
463.061	442.25
463.838	501.25
464.615	552.25
465.393	612.25
466.17	696.25
466.947	763.25
467.724	842.25
468.501	934.25
469.278	1047.25
470.055	1157.25
470.831	1289.25
471.608	1442.25
472.385	1595.25
473.161	1760.25
473.938	1936.25
474.714	2154.25
475.49	2373.25
476.266	2613.25
477.043	2881.25
477.819	3170.25
478.595	3510.25
479.371	3853.25
480.146	4237.25
480.922	4618.25
481.698	5086.25
482.473	5597.25
483.249	6113.25
484.024	6709.25
484.8	7330.25
485.575	8012.25
486.35	8719.25
487.126	9520.25
487.901	10412.25
488.676	11382.25
489.451	12300.25
490.225	13411.25
491	14570.25
491.775	15780.25
492.55	17025.25
493.324	18335.25
494.099	19615.25
494.873	20977.25
495.647	22415.25
496.422	23830.25
497.196	25268.25
497.97	26751.25
498.744	28250.25
499.518	29576.25
500.292	30838.25
501.066	31933.25
501.839	32986.25
502.613	33954.25
503.387	34620.25
504.16	35073.25
504.934	35457.25
505.707	35476.25
506.48	35342.25
507.253	35008.25
508.027	34654.25
508.8	34087.25
509.573	33390.25
510.346	32451.25
511.118	31573.25
511.891	30532.25
512.664	29441.25
513.437	28225.25
514.209	27112.25
514.982	26084.25
515.754	25039.25
516.526	23924.25
517.298	22933.25
518.071	22022.25
518.843	21073.25
519.615	20255.25
520.387	19399.25
521.159	18707.25
521.93	17969.25
522.702	17240.25
523.474	16556.25
524.245	15844.25
525.017	15135.25
525.788	14489.25
526.56	13803.25
527.331	13184.25
528.102	12611.25
528.873	11974.25
529.644	11381.25
530.415	10900.25
531.186	10352.25
531.957	9817.25
532.728	9307.25
533.498	8763.25
534.269	8264.25
535.039	7853.25
535.81	7387.25
536.58	6990.25
537.351	6607.25
538.121	6229.25
538.891	5895.25
539.661	5599.25
540.431	5323.25
541.201	5041.25
541.971	4761.25
542.741	4511.25
543.51	4262.25
544.28	4060.25
545.05	3867.25
545.819	3685.25
546.588	3510.25
547.358	3317.25
548.127	3150.25
548.896	2998.25
549.665	2837.25
550.434	2709.25
551.203	2556.25
551.972	2418.25
552.741	2284.25
553.51	2154.25
554.278	2013.25
555.047	1918.25
555.815	1820.25
556.584	1724.25
557.352	1608.25
558.121	1526.25
558.889	1446.25
559.657	1373.25
560.425	1283.25
561.193	1209.25
561.961	1152.25
562.729	1093.25
563.496	1023.25
564.264	969.25
565.032	928.25
565.799	869.25
566.567	830.25
567.334	780.25
568.101	739.25
568.869	701.25
569.636	653.25
570.403	614.25
571.17	577.25
571.937	553.25
572.704	527.25
573.471	499.25
574.237	452.25
575.004	436.25
575.771	418.25
576.537	383.25
577.303	358.25
578.07	338.25
578.836	324.25
579.602	306.25
580.368	287.25
581.134	275.25
581.9	263.25
582.666	247.25
583.432	237.25
584.198	217.25
584.964	210.25
585.729	205.25
586.495	186.25
587.26	178.25
588.025	169.25
588.791	162.25
589.556	151.25
590.321	141.25
591.086	134.25
591.851	127.25
592.616	125.25
593.381	115.25
594.146	114.25
594.911	105.25
595.675	100.25
596.44	99.25
597.204	96.25
597.969	88.25
598.733	86.25
599.497	83.25
600.261	79.25
601.025	75.25
601.79	73.25
602.553	69.25
603.317	63.25
604.081	61.25
604.845	59.25
605.609	57.25
606.372	53.25
607.136	54.25
607.899	48.25
608.662	48.25
609.426	45.25
610.189	45.25
610.952	43.25
611.715	41.25
612.478	40.25
613.241	39.25
614.004	37.25
614.767	38.25
615.529	37.25
616.292	34.25
617.055	34.25
617.817	30.25
618.579	31.25
619.342	26.25
620.104	28.25
620.866	27.25
621.628	26.25
622.39	27.25
623.152	24.25
623.914	25.25
624.676	23.25
625.438	24.25
626.199	22.25
626.961	19.25
627.722	20.25
628.484	19.25
629.245	19.25
630.006	17.25
630.768	20.25
631.529	18.25
632.29	16.25
633.051	17.25
633.812	15.25
634.573	15.25
635.333	17.25
636.094	14.25
636.855	16.25
637.615	14.25
638.376	13.25
639.136	12.25
639.896	11.25
640.657	12.25
641.417	10.25
642.177	14.25
642.937	12.25
643.697	10.25
644.457	10.25
645.216	9.25
645.976	11.25
646.736	9.25
647.495	11.25
648.255	10.25
649.014	8.25
649.774	11.25
650.533	8.25
651.292	8.25
652.051	8.25
652.81	6.25
653.569	6.25
654.328	7.25
655.087	7.25
655.846	9.25
656.604	6.25
657.363	6.25
658.121	8.25
658.88	8.25
659.638	7.25
660.397	6.25
661.155	7.25
661.913	6.25
662.671	6.25
663.429	7.25
664.187	8.25
664.945	5.25
665.703	7.25
666.46	7.25
667.218	6.25
667.976	4.25
668.733	6.25
669.49	7.25
670.248	5.25
671.005	7.25
671.762	5.25
672.519	5.25
673.276	7.25
674.033	4.25
674.79	5.25
675.547	4.25
676.304	4.25
677.06	5.25
677.817	4.25
678.574	5.25
679.33	2.25
680.086	6.25
680.843	3.25
681.599	6.25
682.355	2.25
683.111	6.25
683.867	6.25
684.623	4.25
685.379	5.25
686.135	5.25
686.89	5.25
687.646	5.25
688.402	2.25
689.157	3.25
689.912	3.25
690.668	2.25
691.423	3.25
692.178	4.25
692.933	4.25
693.688	4.25
694.443	3.25
695.198	4.25
695.953	4.25
696.708	6.25
697.462	4.25
698.217	4.25
698.972	4.25
699.726	4.25
700.48	4.25
701.235	2.25
701.989	4.25
702.743	5.25
703.497	3.25
704.251	2.25
705.005	3.25
705.759	5.25
706.513	5.25
707.266	3.25
708.02	5.25
708.774	5.25
709.527	2.25
710.28	3.25
711.034	7.25
711.787	5.25
712.54	4.25
713.293	5.25
714.046	4.25
714.799	6.25
715.552	4.25
716.305	4.25
717.058	2.25
717.81	2.25
718.563	3.25
719.315	4.25
720.068	5.25
720.82	7.25
721.573	3.25
722.325	5.25
723.077	3.25
723.829	3.25
724.581	7.25
725.333	5.25
726.085	3.25
726.836	5.25
727.588	3.25
728.34	5.25
729.091	3.25
729.843	5.25
730.594	5.25
731.346	2.25
732.097	4.25
732.848	5.25
733.599	6.25
734.35	4.25
735.101	5.25
735.852	3.25
736.603	5.25
737.354	4.25
738.104	5.25
738.855	7.25
739.605	4.25
740.356	6.25
741.106	6.25
741.856	7.25
742.607	6.25
743.357	8.25
744.107	8.25
744.857	5.25
745.607	6.25
746.357	3.25
747.106	5.25
747.856	4.25
748.606	7.25
749.355	5.25
750.105	6.25
750.854	8.25
751.603	5.25
752.353	9.25
753.102	5.25
753.851	5.25
754.6	8.25
755.349	6.25
756.098	7.25
756.847	4.25
757.595	6.25
758.344	5.25
759.093	8.25
759.841	8.25
760.589	7.25
761.338	9.25
762.086	8.25
762.834	7.25
763.582	8.25
764.331	9.25
765.079	9.25
765.826	8.25
766.574	8.25
767.322	9.25
768.07	9.25
768.817	10.25
769.565	9.25
770.312	9.25
771.06	9.25
771.807	6.25
772.554	10.25
773.302	11.25
774.049	8.25
774.796	10.25
775.543	9.25
776.29	9.25
777.036	10.25
777.783	11.25
778.53	9.25
779.276	10.25
780.023	8.25
780.769	9.25
781.516	10.25
782.262	10.25
783.008	10.25
783.754	14.25
784.5	8.25
785.246	11.25
785.992	9.25
786.738	10.25
787.484	11.25
788.23	12.25
788.975	10.25
789.721	8.25
790.466	9.25
791.212	11.25
791.957	9.25
792.702	10.25
793.447	13.25
794.193	10.25
794.938	9.25
795.683	11.25
796.427	7.25
797.172	12.25
797.917	8.25
798.662	8.25
799.406	9.25
800.151	7.25
800.895	9.25
801.64	7.25
802.384	8.25
803.128	8.25
803.872	8.25
804.616	8.25
805.36	8.25
806.104	9.25
806.848	7.25
807.592	7.25
808.336	8.25
809.079	3.25
809.823	6.25
810.566	6.25
811.31	7.25
812.053	4.25
812.796	4.25
813.539	5.25
814.283	4.25
815.026	6.25
815.769	6.25
816.511	2.25
817.254	4.25
817.997	6.25
818.74	6.25
819.482	5.25
820.225	5.25
820.967	5.25
821.71	3.25
822.452	2.25
823.194	0.25
823.936	5.25
824.678	4.25
825.42	2.25
826.162	4.25
826.904	4.25
827.646	3.25
828.388	7.25
829.129	7.25
829.871	3.25
830.612	4.25
831.354	2.25
832.095	4.25
832.836	5.25
833.577	2.25
834.319	0.25
835.06	2.25
835.801	4.25
836.542	3.25
837.282	3.25
838.023	4.25
838.764	3.25
839.504	4.25
840.245	6.25
840.985	1.25
841.726	4.25
842.466	2.25
843.206	3.25
843.946	6.25
844.687	2.25
845.427	2.25
846.166	4.25
846.906	3.25
847.646	1.25
848.386	4.25
849.125	2.25
849.865	4.25
850.605	2.25
851.344	4.25
852.083	2.25
852.823	1.25
853.562	1.25
854.301	2.25
855.04	4.25
855.779	4.25
856.518	2.25
857.257	3.25
857.995	2.25
858.734	1.25
859.473	3.25
860.211	1.25
860.95	0.25
861.688	2.25
862.426	1.25
863.165	1.25
863.903	2.25
864.641	3.25
865.379	0.25
866.117	2.25
866.855	2.25
867.593	0.25
868.33	0.25
869.068	0.25
869.806	-0.75
870.543	1.25
871.28	-1.75
872.018	-1.75
872.755	0.25
873.492	1.25
874.229	2.25
874.967	-1.75
875.703	-0.75
876.44	-0.75
877.177	2.25
877.914	-0.75
878.651	1.25
879.387	1.25
880.124	0.25
880.86	1.25
881.597	3.25
882.333	1.25
883.069	1.25
883.806	-0.75
884.542	0.25
885.278	-0.75
886.014	3.25
886.749	1.25
887.485	-1.75
888.221	0.25
888.957	-2.75
889.692	-1.75
890.428	-0.75
891.163	-0.75
891.899	0.25
892.634	2.25
893.369	-0.75
894.104	1.25
894.839	1.25
895.574	1.25
896.309	2.25
897.044	-0.75
897.779	-1.75
898.514	0.25
899.248	-0.75
899.983	0.25
900.717	1.25
901.452	0.25
902.186	-1.75
902.92	1.25
903.654	-0.75
904.389	-2.75
905.123	0.25
905.857	0.25
906.59	-0.75
907.324	0.25
908.058	-2.75
908.792	0.25
909.525	2.25
910.259	-0.75
910.992	-2.75
911.726	0.25
912.459	0.25
913.192	-2.75
913.925	-0.75
914.658	-1.75
915.391	-1.75
916.124	-1.75
916.857	-0.75
917.59	-1.75
918.323	0.25
919.055	-0.75
919.788	0.25
920.521	0.25
921.253	-0.75
921.985	-2.75
922.718	0.25
923.45	0.25
924.182	1.25
924.914	-1.75
925.646	-2.75
926.378	0.25
927.11	-0.75
927.841	-0.75
928.573	0.25
929.305	-0.75
930.036	0.25
930.768	-0.75
931.499	-1.75
932.23	-1.75
932.962	0.25
933.693	-1.75
934.424	-1.75
935.155	-1.75
935.886	-2.75
936.617	1.25
937.348	0.25
938.078	-0.75
938.809	-0.75
939.54	-1.75
940.27	-0.75
941.001	-1.75
941.731	-1.75
942.461	-0.75
943.191	-2.75
943.922	0.25
944.652	0.25
945.382	-1.75
946.112	-0.75
946.841	-0.75
947.571	-2.75
948.301	-1.75
949.031	0.25
949.76	0.25
950.49	-1.75
951.219	-0.75
951.948	1.25
952.678	-1.75
953.407	-0.75
954.136	-0.75
954.865	-0.75
955.594	1.25
956.323	0.25
957.052	0.25
957.78	-2.75
958.509	1.25
959.238	-1.75
959.966	-1.75
960.695	-0.75
961.423	0.25
962.151	-0.75
962.88	-0.75
963.608	1.25
964.336	-1.75
965.064	-0.75
965.792	-0.75
966.52	-1.75
967.247	-1.75
967.975	-0.75
968.703	-2.75
969.43	-1.75
970.158	-2.75
970.885	-0.75
971.613	-1.75
972.34	-0.75
973.067	1.25
973.794	1.25
974.521	-1.75
975.248	-0.75
975.975	-0.75
976.702	1.25
977.429	-3.75
978.156	-1.75
978.882	-0.75
979.609	-0.75
980.335	-0.75
981.062	-0.75
981.788	1.25
982.514	0.25
983.24	-3.75
983.967	1.25
984.693	0.25
985.419	-1.75
986.144	0.25
986.87	-0.75
987.596	0.25
988.322	-0.75
989.047	1.25
989.773	-0.75
990.498	-0.75
991.224	-0.75
991.949	-2.75
992.674	1.25
993.399	-0.75
994.124	-2.75
994.849	-0.75
995.574	-0.75
996.299	0.25
997.024	0.25
997.749	1.25
998.473	0.25
999.198	0.25
999.922	-1.75
1000.647	-0.75
1001.371	5.25
1002.095	-0.75
1002.82	-2.75
1003.544	-1.75
1004.268	-0.75
1004.992	0.25
1005.716	0.25
1006.439	3.25
1007.163	5.25
1007.887	2.25
1008.611	2.25
1009.334	-0.75
1010.058	0.25
1010.781	1.25
1011.504	0.25
1012.228	0.25
1012.951	0.25
1013.674	1.25
1014.397	-0.75
1015.12	-0.75
