节点500_425_QEPB04081__409__15-55-06-701.txt的数据

Date: Wed Nov 12 15:55:06 CST 2025
User: PC
Spectrometer: QEPB0408
触发模式: 0
积分时间 (秒): 1.000000E-2
Scans to average: 1
启用暗噪声校正: true
启用非线性校正: false
滑动平均宽度: 0
X轴模式: Wavelengths
Number of Pixels in Spectrum: 1044
>>>>>Begin Spectral Data<<<<<
220.843	7.12
221.644	4.12
222.444	4.12
223.244	4.12
224.045	4.12
224.845	4.12
225.645	4.12
226.445	5.12
227.245	4.12
228.045	4.12
228.845	5.12
229.645	5.12
230.444	8.12
231.244	6.12
232.043	6.12
232.843	6.12
233.642	6.12
234.442	6.12
235.241	6.12
236.04	8.12
236.839	9.12
237.638	8.12
238.437	7.12
239.236	7.12
240.035	7.12
240.833	7.12
241.632	6.12
242.43	6.12
243.229	6.12
244.027	9.12
244.826	9.12
245.624	11.12
246.422	7.12
247.22	7.12
248.018	8.12
248.816	8.12
249.614	9.12
250.412	8.12
251.21	8.12
252.007	11.12
252.805	11.12
253.602	9.12
254.4	10.12
255.197	12.12
255.994	16.12
256.791	14.12
257.589	13.12
258.386	12.12
259.183	17.12
259.979	15.12
260.776	15.12
261.573	14.12
262.37	15.12
263.166	19.12
263.963	15.12
264.759	16.12
265.556	17.12
266.352	17.12
267.148	17.12
267.944	19.12
268.74	21.12
269.536	18.12
270.332	21.12
271.128	18.12
271.924	19.12
272.719	22.12
273.515	20.12
274.311	21.12
275.106	23.12
275.901	23.12
276.697	21.12
277.492	25.12
278.287	23.12
279.082	26.12
279.877	24.12
280.672	24.12
281.467	22.12
282.262	26.12
283.056	24.12
283.851	23.12
284.646	25.12
285.44	24.12
286.234	27.12
287.029	25.12
287.823	28.12
288.617	23.12
289.411	26.12
290.205	23.12
290.999	23.12
291.793	25.12
292.587	22.12
293.381	25.12
294.174	25.12
294.968	21.12
295.761	19.12
296.555	20.12
297.348	21.12
298.141	22.12
298.935	23.12
299.728	20.12
300.521	20.12
301.314	20.12
302.107	17.12
302.899	17.12
303.692	19.12
304.485	17.12
305.277	20.12
306.07	18.12
306.862	18.12
307.655	16.12
308.447	15.12
309.239	14.12
310.031	14.12
310.823	17.12
311.615	15.12
312.407	15.12
313.199	14.12
313.991	11.12
314.783	14.12
315.574	12.12
316.366	13.12
317.157	11.12
317.949	12.12
318.74	12.12
319.531	11.12
320.322	11.12
321.113	12.12
321.904	6.12
322.695	11.12
323.486	9.12
324.277	12.12
325.068	11.12
325.858	10.12
326.649	9.12
327.439	11.12
328.23	11.12
329.02	8.12
329.81	13.12
330.6	11.12
331.391	10.12
332.181	11.12
332.971	7.12
333.76	9.12
334.55	9.12
335.34	9.12
336.13	7.12
336.919	11.12
337.709	8.12
338.498	10.12
339.287	11.12
340.077	6.12
340.866	9.12
341.655	11.12
342.444	8.12
343.233	9.12
344.022	10.12
344.811	9.12
345.6	11.12
346.388	8.12
347.177	9.12
347.965	9.12
348.754	10.12
349.542	5.12
350.33	10.12
351.119	9.12
351.907	8.12
352.695	6.12
353.483	9.12
354.271	7.12
355.059	8.12
355.846	7.12
356.634	8.12
357.422	9.12
358.209	7.12
358.997	7.12
359.784	8.12
360.571	9.12
361.359	9.12
362.146	8.12
362.933	10.12
363.72	9.12
364.507	9.12
365.294	7.12
366.081	9.12
366.867	6.12
367.654	8.12
368.44	4.12
369.227	4.12
370.013	8.12
370.8	8.12
371.586	7.12
372.372	7.12
373.158	10.12
373.944	9.12
374.73	7.12
375.516	6.12
376.302	8.12
377.088	6.12
377.873	5.12
378.659	6.12
379.445	7.12
380.23	8.12
381.015	9.12
381.801	6.12
382.586	8.12
383.371	7.12
384.156	7.12
384.941	8.12
385.726	7.12
386.511	10.12
387.296	9.12
388.08	9.12
388.865	8.12
389.649	6.12
390.434	8.12
391.218	7.12
392.003	12.12
392.787	8.12
393.571	10.12
394.355	8.12
395.139	10.12
395.923	12.12
396.707	10.12
397.491	11.12
398.274	10.12
399.058	10.12
399.842	11.12
400.625	9.12
401.408	11.12
402.192	11.12
402.975	13.12
403.758	11.12
404.541	9.12
405.324	11.12
406.107	10.12
406.89	8.12
407.673	10.12
408.456	13.12
409.238	13.12
410.021	10.12
410.803	13.12
411.586	11.12
412.368	14.12
413.151	12.12
413.933	13.12
414.715	13.12
415.497	11.12
416.279	12.12
417.061	13.12
417.843	12.12
418.624	14.12
419.406	15.12
420.188	15.12
420.969	16.12
421.751	18.12
422.532	14.12
423.313	14.12
424.095	17.12
424.876	15.12
425.657	18.12
426.438	17.12
427.219	17.12
428	18.12
428.78	16.12
429.561	20.12
430.342	19.12
431.122	20.12
431.903	22.12
432.683	19.12
433.464	23.12
434.244	25.12
435.024	27.12
435.804	28.12
436.584	27.12
437.364	29.12
438.144	28.12
438.924	31.12
439.704	35.12
440.483	35.12
441.263	35.12
442.042	39.12
442.822	40.12
443.601	46.12
444.38	47.12
445.16	51.12
445.939	53.12
446.718	57.12
447.497	61.12
448.276	70.12
449.054	73.12
449.833	79.12
450.612	87.12
451.391	95.12
452.169	106.12
452.948	116.12
453.726	134.12
454.504	144.12
455.282	157.12
456.061	176.12
456.839	190.12
457.617	213.12
458.395	243.12
459.172	268.12
459.95	296.12
460.728	330.12
461.506	378.12
462.283	411.12
463.061	454.12
463.838	517.12
464.615	573.12
465.393	627.12
466.17	709.12
466.947	778.12
467.724	870.12
468.501	972.12
469.278	1063.12
470.055	1188.12
470.831	1322.12
471.608	1444.12
472.385	1595.12
473.161	1785.12
473.938	1962.12
474.714	2161.12
475.49	2374.12
476.266	2608.12
477.043	2859.12
477.819	3171.12
478.595	3445.12
479.371	3813.12
480.146	4155.12
480.922	4511.12
481.698	5006.12
482.473	5422.12
483.249	5951.12
484.024	6482.12
484.8	7094.12
485.575	7691.12
486.35	8381.12
487.126	9115.12
487.901	9935.12
488.676	10859.12
489.451	11687.12
490.225	12680.12
491	13757.12
491.775	14885.12
492.55	16046.12
493.324	17239.12
494.099	18417.12
494.873	19712.12
495.647	21018.12
496.422	22382.12
497.196	23722.12
497.97	25188.12
498.744	26527.12
499.518	27820.12
500.292	29026.12
501.066	30198.12
501.839	31218.12
502.613	32225.12
503.387	32957.12
504.16	33596.12
504.934	33958.12
505.707	34177.12
506.48	34046.12
507.253	34018.12
508.027	33773.12
508.8	33343.12
509.573	32738.12
510.346	32023.12
511.118	31181.12
511.891	30252.12
512.664	29246.12
513.437	28187.12
514.209	27027.12
514.982	26147.12
515.754	25104.12
516.526	24087.12
517.298	23154.12
518.071	22091.12
518.843	21238.12
519.615	20379.12
520.387	19572.12
521.159	18883.12
521.93	18061.12
522.702	17416.12
523.474	16720.12
524.245	16078.12
525.017	15329.12
525.788	14641.12
526.56	13982.12
527.331	13376.12
528.102	12751.12
528.873	12151.12
529.644	11577.12
530.415	11085.12
531.186	10541.12
531.957	10003.12
532.728	9510.12
533.498	8987.12
534.269	8470.12
535.039	8031.12
535.81	7632.12
536.58	7187.12
537.351	6795.12
538.121	6395.12
538.891	6064.12
539.661	5754.12
540.431	5457.12
541.201	5184.12
541.971	4910.12
542.741	4654.12
543.51	4424.12
544.28	4170.12
545.05	3960.12
545.819	3787.12
546.588	3634.12
547.358	3405.12
548.127	3244.12
548.896	3076.12
549.665	2928.12
550.434	2778.12
551.203	2645.12
551.972	2491.12
552.741	2372.12
553.51	2229.12
554.278	2127.12
555.047	1992.12
555.815	1873.12
556.584	1785.12
557.352	1687.12
558.121	1588.12
558.889	1498.12
559.657	1411.12
560.425	1349.12
561.193	1253.12
561.961	1202.12
562.729	1126.12
563.496	1075.12
564.264	1007.12
565.032	960.12
565.799	906.12
566.567	860.12
567.334	806.12
568.101	771.12
568.869	723.12
569.636	676.12
570.403	647.12
571.17	605.12
571.937	563.12
572.704	537.12
573.471	518.12
574.237	485.12
575.004	450.12
575.771	425.12
576.537	394.12
577.303	375.12
578.07	359.12
578.836	337.12
579.602	320.12
580.368	302.12
581.134	287.12
581.9	274.12
582.666	258.12
583.432	244.12
584.198	236.12
584.964	219.12
585.729	210.12
586.495	194.12
587.26	185.12
588.025	173.12
588.791	170.12
589.556	167.12
590.321	151.12
591.086	146.12
591.851	138.12
592.616	131.12
593.381	122.12
594.146	121.12
594.911	115.12
595.675	109.12
596.44	107.12
597.204	98.12
597.969	96.12
598.733	95.12
599.497	84.12
600.261	82.12
601.025	75.12
601.79	77.12
602.553	71.12
603.317	67.12
604.081	68.12
604.845	66.12
605.609	62.12
606.372	59.12
607.136	53.12
607.899	53.12
608.662	51.12
609.426	48.12
610.189	47.12
610.952	46.12
611.715	48.12
612.478	41.12
613.241	41.12
614.004	39.12
614.767	41.12
615.529	39.12
616.292	37.12
617.055	34.12
617.817	33.12
618.579	33.12
619.342	32.12
620.104	32.12
620.866	31.12
621.628	27.12
622.39	28.12
623.152	28.12
623.914	25.12
624.676	25.12
625.438	22.12
626.199	24.12
626.961	22.12
627.722	21.12
628.484	20.12
629.245	19.12
630.006	20.12
630.768	19.12
631.529	22.12
632.29	17.12
633.051	18.12
633.812	15.12
634.573	19.12
635.333	16.12
636.094	14.12
636.855	15.12
637.615	18.12
638.376	15.12
639.136	13.12
639.896	12.12
640.657	18.12
641.417	13.12
642.177	14.12
642.937	13.12
643.697	13.12
644.457	13.12
645.216	10.12
645.976	12.12
646.736	12.12
647.495	11.12
648.255	12.12
649.014	11.12
649.774	9.12
650.533	10.12
651.292	11.12
652.051	12.12
652.81	9.12
653.569	7.12
654.328	9.12
655.087	9.12
655.846	9.12
656.604	9.12
657.363	7.12
658.121	9.12
658.88	10.12
659.638	7.12
660.397	7.12
661.155	10.12
661.913	9.12
662.671	8.12
663.429	9.12
664.187	10.12
664.945	9.12
665.703	7.12
666.46	8.12
667.218	8.12
667.976	8.12
668.733	9.12
669.49	8.12
670.248	9.12
671.005	8.12
671.762	9.12
672.519	8.12
673.276	8.12
674.033	5.12
674.79	7.12
675.547	7.12
676.304	6.12
677.06	6.12
677.817	7.12
678.574	7.12
679.33	6.12
680.086	5.12
680.843	5.12
681.599	5.12
682.355	5.12
683.111	6.12
683.867	6.12
684.623	6.12
685.379	5.12
686.135	4.12
686.89	3.12
687.646	7.12
688.402	4.12
689.157	7.12
689.912	6.12
690.668	6.12
691.423	5.12
692.178	5.12
692.933	6.12
693.688	5.12
694.443	5.12
695.198	7.12
695.953	7.12
696.708	6.12
697.462	7.12
698.217	6.12
698.972	5.12
699.726	5.12
700.48	5.12
701.235	5.12
701.989	5.12
702.743	5.12
703.497	3.12
704.251	5.12
705.005	6.12
705.759	6.12
706.513	5.12
707.266	4.12
708.02	5.12
708.774	5.12
709.527	5.12
710.28	6.12
711.034	7.12
711.787	4.12
712.54	4.12
713.293	6.12
714.046	4.12
714.799	4.12
715.552	5.12
716.305	7.12
717.058	6.12
717.81	7.12
718.563	7.12
719.315	6.12
720.068	5.12
720.82	8.12
721.573	7.12
722.325	7.12
723.077	5.12
723.829	5.12
724.581	7.12
725.333	4.12
726.085	6.12
726.836	7.12
727.588	6.12
728.34	6.12
729.091	7.12
729.843	8.12
730.594	4.12
731.346	6.12
732.097	7.12
732.848	7.12
733.599	8.12
734.35	7.12
735.101	7.12
735.852	5.12
736.603	7.12
737.354	5.12
738.104	7.12
738.855	7.12
739.605	7.12
740.356	8.12
741.106	7.12
741.856	8.12
742.607	5.12
743.357	6.12
744.107	8.12
744.857	6.12
745.607	7.12
746.357	8.12
747.106	7.12
747.856	9.12
748.606	7.12
749.355	8.12
750.105	8.12
750.854	9.12
751.603	8.12
752.353	8.12
753.102	10.12
753.851	8.12
754.6	10.12
755.349	9.12
756.098	10.12
756.847	10.12
757.595	10.12
758.344	9.12
759.093	5.12
759.841	9.12
760.589	9.12
761.338	8.12
762.086	8.12
762.834	9.12
763.582	10.12
764.331	9.12
765.079	10.12
765.826	11.12
766.574	8.12
767.322	10.12
768.07	12.12
768.817	11.12
769.565	10.12
770.312	14.12
771.06	8.12
771.807	8.12
772.554	9.12
773.302	11.12
774.049	12.12
774.796	9.12
775.543	12.12
776.29	11.12
777.036	9.12
777.783	13.12
778.53	13.12
779.276	8.12
780.023	12.12
780.769	13.12
781.516	10.12
782.262	11.12
783.008	13.12
783.754	12.12
784.5	11.12
785.246	13.12
785.992	8.12
786.738	12.12
787.484	13.12
788.23	15.12
788.975	14.12
789.721	13.12
790.466	10.12
791.212	11.12
791.957	12.12
792.702	11.12
793.447	13.12
794.193	10.12
794.938	10.12
795.683	11.12
796.427	10.12
797.172	10.12
797.917	12.12
798.662	11.12
799.406	11.12
800.151	10.12
800.895	9.12
801.64	10.12
802.384	10.12
803.128	8.12
803.872	7.12
804.616	10.12
805.36	7.12
806.104	9.12
806.848	10.12
807.592	8.12
808.336	8.12
809.079	8.12
809.823	7.12
810.566	7.12
811.31	9.12
812.053	9.12
812.796	8.12
813.539	9.12
814.283	5.12
815.026	5.12
815.769	9.12
816.511	6.12
817.254	8.12
817.997	6.12
818.74	7.12
819.482	6.12
820.225	9.12
820.967	5.12
821.71	6.12
822.452	8.12
823.194	6.12
823.936	7.12
824.678	7.12
825.42	7.12
826.162	6.12
826.904	4.12
827.646	5.12
828.388	5.12
829.129	7.12
829.871	5.12
830.612	5.12
831.354	5.12
832.095	7.12
832.836	7.12
833.577	7.12
834.319	5.12
835.06	3.12
835.801	7.12
836.542	5.12
837.282	7.12
838.023	6.12
838.764	4.12
839.504	4.12
840.245	4.12
840.985	3.12
841.726	5.12
842.466	5.12
843.206	5.12
843.946	5.12
844.687	4.12
845.427	3.12
846.166	5.12
846.906	6.12
847.646	3.12
848.386	4.12
849.125	5.12
849.865	4.12
850.605	6.12
851.344	4.12
852.083	4.12
852.823	4.12
853.562	4.12
854.301	4.12
855.04	2.12
855.779	6.12
856.518	3.12
857.257	4.12
857.995	4.12
858.734	3.12
859.473	5.12
860.211	3.12
860.95	5.12
861.688	5.12
862.426	2.12
863.165	5.12
863.903	4.12
864.641	5.12
865.379	4.12
866.117	5.12
866.855	3.12
867.593	1.12
868.33	2.12
869.068	0.12
869.806	3.12
870.543	4.12
871.28	3.12
872.018	4.12
872.755	3.12
873.492	2.12
874.229	1.12
874.967	1.12
875.703	2.12
876.44	3.12
877.177	2.12
877.914	3.12
878.651	3.12
879.387	2.12
880.124	4.12
880.86	2.12
881.597	3.12
882.333	3.12
883.069	2.12
883.806	0.12
884.542	3.12
885.278	-1.88
886.014	3.12
886.749	2.12
887.485	1.12
888.221	2.12
888.957	2.12
889.692	1.12
890.428	1.12
891.163	-0.88
891.899	2.12
892.634	1.12
893.369	2.12
894.104	1.12
894.839	3.12
895.574	1.12
896.309	1.12
897.044	2.12
897.779	2.12
898.514	1.12
899.248	1.12
899.983	0.12
900.717	0.12
901.452	3.12
902.186	2.12
902.92	-0.88
903.654	2.12
904.389	1.12
905.123	1.12
905.857	-0.88
906.59	2.12
907.324	2.12
908.058	1.12
908.792	0.12
909.525	1.12
910.259	1.12
910.992	1.12
911.726	1.12
912.459	1.12
913.192	2.12
913.925	3.12
914.658	4.12
915.391	0.12
916.124	1.12
916.857	1.12
917.59	2.12
918.323	1.12
919.055	2.12
919.788	2.12
920.521	-0.88
921.253	2.12
921.985	1.12
922.718	1.12
923.45	1.12
924.182	0.12
924.914	1.12
925.646	1.12
926.378	2.12
927.11	0.12
927.841	-0.88
928.573	0.12
929.305	0.12
930.036	2.12
930.768	1.12
931.499	3.12
932.23	1.12
932.962	0.12
933.693	1.12
934.424	1.12
935.155	-1.88
935.886	1.12
936.617	-1.88
937.348	3.12
938.078	4.12
938.809	3.12
939.54	-0.88
940.27	2.12
941.001	0.12
941.731	0.12
942.461	3.12
943.191	1.12
943.922	1.12
944.652	1.12
945.382	0.12
946.112	0.12
946.841	0.12
947.571	3.12
948.301	-0.88
949.031	3.12
949.76	0.12
950.49	4.12
951.219	1.12
951.948	-0.88
952.678	3.12
953.407	2.12
954.136	2.12
954.865	1.12
955.594	1.12
956.323	2.12
957.052	0.12
957.78	1.12
958.509	3.12
959.238	1.12
959.966	1.12
960.695	0.12
961.423	1.12
962.151	1.12
962.88	1.12
963.608	1.12
964.336	1.12
965.064	1.12
965.792	-0.88
966.52	2.12
967.247	0.12
967.975	0.12
968.703	3.12
969.43	1.12
970.158	0.12
970.885	2.12
971.613	1.12
972.34	0.12
973.067	-0.88
973.794	2.12
974.521	0.12
975.248	-0.88
975.975	1.12
976.702	-0.88
977.429	0.12
978.156	0.12
978.882	0.12
979.609	1.12
980.335	1.12
981.062	1.12
981.788	0.12
982.514	0.12
983.24	-0.88
983.967	1.12
984.693	0.12
985.419	-0.88
986.144	1.12
986.87	2.12
987.596	-0.88
988.322	1.12
989.047	1.12
989.773	1.12
990.498	1.12
991.224	2.12
991.949	1.12
992.674	1.12
993.399	0.12
994.124	1.12
994.849	3.12
995.574	-0.88
996.299	0.12
997.024	-0.88
997.749	0.12
998.473	1.12
999.198	0.12
999.922	2.12
1000.647	-0.88
1001.371	3.12
1002.095	0.12
1002.82	-2.88
1003.544	0.12
1004.268	3.12
1004.992	3.12
1005.716	3.12
1006.439	2.12
1007.163	4.12
1007.887	1.12
1008.611	3.12
1009.334	2.12
1010.058	0.12
1010.781	3.12
1011.504	-0.88
1012.228	2.12
1012.951	1.12
1013.674	1.12
1014.397	-0.88
1015.12	-1.88
