节点500_425_QEPB04081__296__15-53-13-899.txt的数据

Date: Wed Nov 12 15:53:13 CST 2025
User: PC
Spectrometer: QEPB0408
触发模式: 0
积分时间 (秒): 1.000000E-2
Scans to average: 1
启用暗噪声校正: true
启用非线性校正: false
滑动平均宽度: 0
X轴模式: Wavelengths
Number of Pixels in Spectrum: 1044
>>>>>Begin Spectral Data<<<<<
220.843	0.62
221.644	3.62
222.444	2.62
223.244	2.62
224.045	5.62
224.845	5.62
225.645	4.62
226.445	2.62
227.245	5.62
228.045	6.62
228.845	4.62
229.645	3.62
230.444	6.62
231.244	3.62
232.043	3.62
232.843	4.62
233.642	6.62
234.442	4.62
235.241	6.62
236.04	4.62
236.839	5.62
237.638	3.62
238.437	9.62
239.236	5.62
240.035	7.62
240.833	5.62
241.632	6.62
242.43	8.62
243.229	6.62
244.027	8.62
244.826	6.62
245.624	10.62
246.422	10.62
247.22	8.62
248.018	9.62
248.816	8.62
249.614	9.62
250.412	10.62
251.21	11.62
252.007	10.62
252.805	11.62
253.602	10.62
254.4	10.62
255.197	9.62
255.994	14.62
256.791	11.62
257.589	12.62
258.386	14.62
259.183	12.62
259.979	14.62
260.776	14.62
261.573	16.62
262.37	14.62
263.166	14.62
263.963	16.62
264.759	15.62
265.556	14.62
266.352	17.62
267.148	18.62
267.944	18.62
268.74	18.62
269.536	22.62
270.332	20.62
271.128	23.62
271.924	21.62
272.719	21.62
273.515	23.62
274.311	21.62
275.106	22.62
275.901	24.62
276.697	25.62
277.492	26.62
278.287	23.62
279.082	24.62
279.877	24.62
280.672	25.62
281.467	23.62
282.262	23.62
283.056	23.62
283.851	26.62
284.646	24.62
285.44	24.62
286.234	27.62
287.029	24.62
287.823	24.62
288.617	23.62
289.411	25.62
290.205	24.62
290.999	22.62
291.793	25.62
292.587	25.62
293.381	24.62
294.174	20.62
294.968	26.62
295.761	22.62
296.555	21.62
297.348	20.62
298.141	17.62
298.935	20.62
299.728	19.62
300.521	19.62
301.314	20.62
302.107	16.62
302.899	15.62
303.692	16.62
304.485	14.62
305.277	16.62
306.07	17.62
306.862	18.62
307.655	16.62
308.447	13.62
309.239	18.62
310.031	15.62
310.823	16.62
311.615	11.62
312.407	13.62
313.199	12.62
313.991	10.62
314.783	15.62
315.574	11.62
316.366	10.62
317.157	14.62
317.949	11.62
318.74	14.62
319.531	12.62
320.322	10.62
321.113	10.62
321.904	8.62
322.695	12.62
323.486	10.62
324.277	12.62
325.068	10.62
325.858	8.62
326.649	10.62
327.439	8.62
328.23	10.62
329.02	9.62
329.81	9.62
330.6	9.62
331.391	8.62
332.181	8.62
332.971	5.62
333.76	9.62
334.55	8.62
335.34	9.62
336.13	9.62
336.919	8.62
337.709	8.62
338.498	8.62
339.287	7.62
340.077	7.62
340.866	7.62
341.655	9.62
342.444	6.62
343.233	7.62
344.022	5.62
344.811	9.62
345.6	9.62
346.388	8.62
347.177	9.62
347.965	7.62
348.754	6.62
349.542	8.62
350.33	6.62
351.119	7.62
351.907	8.62
352.695	8.62
353.483	8.62
354.271	6.62
355.059	6.62
355.846	7.62
356.634	8.62
357.422	7.62
358.209	9.62
358.997	6.62
359.784	4.62
360.571	6.62
361.359	7.62
362.146	10.62
362.933	6.62
363.72	6.62
364.507	8.62
365.294	7.62
366.081	6.62
366.867	4.62
367.654	6.62
368.44	8.62
369.227	5.62
370.013	5.62
370.8	4.62
371.586	7.62
372.372	4.62
373.158	4.62
373.944	7.62
374.73	6.62
375.516	6.62
376.302	7.62
377.088	6.62
377.873	5.62
378.659	8.62
379.445	7.62
380.23	6.62
381.015	7.62
381.801	7.62
382.586	8.62
383.371	8.62
384.156	9.62
384.941	8.62
385.726	6.62
386.511	8.62
387.296	9.62
388.08	9.62
388.865	8.62
389.649	10.62
390.434	11.62
391.218	8.62
392.003	8.62
392.787	8.62
393.571	8.62
394.355	10.62
395.139	9.62
395.923	7.62
396.707	7.62
397.491	9.62
398.274	11.62
399.058	6.62
399.842	10.62
400.625	8.62
401.408	5.62
402.192	9.62
402.975	9.62
403.758	9.62
404.541	7.62
405.324	11.62
406.107	11.62
406.89	10.62
407.673	10.62
408.456	13.62
409.238	11.62
410.021	10.62
410.803	11.62
411.586	13.62
412.368	11.62
413.151	13.62
413.933	12.62
414.715	10.62
415.497	13.62
416.279	13.62
417.061	15.62
417.843	14.62
418.624	13.62
419.406	10.62
420.188	12.62
420.969	16.62
421.751	14.62
422.532	14.62
423.313	15.62
424.095	14.62
424.876	18.62
425.657	14.62
426.438	18.62
427.219	16.62
428	16.62
428.78	19.62
429.561	17.62
430.342	20.62
431.122	20.62
431.903	19.62
432.683	22.62
433.464	23.62
434.244	27.62
435.024	21.62
435.804	26.62
436.584	26.62
437.364	29.62
438.144	30.62
438.924	31.62
439.704	34.62
440.483	34.62
441.263	34.62
442.042	38.62
442.822	39.62
443.601	43.62
444.38	45.62
445.16	50.62
445.939	54.62
446.718	56.62
447.497	59.62
448.276	64.62
449.054	70.62
449.833	81.62
450.612	89.62
451.391	91.62
452.169	99.62
452.948	113.62
453.726	125.62
454.504	131.62
455.282	152.62
456.061	167.62
456.839	185.62
457.617	208.62
458.395	235.62
459.172	256.62
459.95	292.62
460.728	321.62
461.506	353.62
462.283	400.62
463.061	445.62
463.838	485.62
464.615	552.62
465.393	610.62
466.17	682.62
466.947	779.62
467.724	848.62
468.501	961.62
469.278	1057.62
470.055	1156.62
470.831	1294.62
471.608	1429.62
472.385	1613.62
473.161	1752.62
473.938	1946.62
474.714	2149.62
475.49	2348.62
476.266	2616.62
477.043	2887.62
477.819	3176.62
478.595	3515.62
479.371	3843.62
480.146	4234.62
480.922	4640.62
481.698	5098.62
482.473	5540.62
483.249	6088.62
484.024	6661.62
484.8	7355.62
485.575	8006.62
486.35	8725.62
487.126	9496.62
487.901	10323.62
488.676	11258.62
489.451	12274.62
490.225	13298.62
491	14492.62
491.775	15695.62
492.55	16897.62
493.324	18199.62
494.099	19535.62
494.873	20799.62
495.647	22234.62
496.422	23637.62
497.196	25087.62
497.97	26573.62
498.744	28008.62
499.518	29314.62
500.292	30607.62
501.066	31629.62
501.839	32894.62
502.613	33682.62
503.387	34370.62
504.16	34994.62
504.934	35291.62
505.707	35312.62
506.48	35151.62
507.253	34918.62
508.027	34596.62
508.8	34067.62
509.573	33241.62
510.346	32440.62
511.118	31579.62
511.891	30502.62
512.664	29419.62
513.437	28248.62
514.209	27165.62
514.982	26176.62
515.754	25118.62
516.526	23996.62
517.298	22964.62
518.071	22043.62
518.843	21109.62
519.615	20213.62
520.387	19474.62
521.159	18726.62
521.93	17963.62
522.702	17246.62
523.474	16610.62
524.245	15941.62
525.017	15154.62
525.788	14523.62
526.56	13841.62
527.331	13169.62
528.102	12608.62
528.873	12018.62
529.644	11463.62
530.415	10888.62
531.186	10358.62
531.957	9818.62
532.728	9301.62
533.498	8770.62
534.269	8289.62
535.039	7836.62
535.81	7402.62
536.58	7023.62
537.351	6602.62
538.121	6256.62
538.891	5921.62
539.661	5628.62
540.431	5349.62
541.201	5051.62
541.971	4770.62
542.741	4550.62
543.51	4318.62
544.28	4087.62
545.05	3907.62
545.819	3691.62
546.588	3513.62
547.358	3346.62
548.127	3152.62
548.896	3010.62
549.665	2842.62
550.434	2724.62
551.203	2570.62
551.972	2433.62
552.741	2296.62
553.51	2161.62
554.278	2060.62
555.047	1923.62
555.815	1829.62
556.584	1729.62
557.352	1622.62
558.121	1534.62
558.889	1451.62
559.657	1381.62
560.425	1274.62
561.193	1224.62
561.961	1146.62
562.729	1094.62
563.496	1026.62
564.264	970.62
565.032	925.62
565.799	870.62
566.567	818.62
567.334	785.62
568.101	735.62
568.869	698.62
569.636	656.62
570.403	619.62
571.17	587.62
571.937	551.62
572.704	524.62
573.471	489.62
574.237	463.62
575.004	434.62
575.771	412.62
576.537	388.62
577.303	363.62
578.07	350.62
578.836	325.62
579.602	305.62
580.368	290.62
581.134	274.62
581.9	254.62
582.666	247.62
583.432	236.62
584.198	228.62
584.964	213.62
585.729	200.62
586.495	187.62
587.26	183.62
588.025	177.62
588.791	165.62
589.556	149.62
590.321	147.62
591.086	137.62
591.851	135.62
592.616	126.62
593.381	120.62
594.146	118.62
594.911	109.62
595.675	100.62
596.44	99.62
597.204	95.62
597.969	90.62
598.733	86.62
599.497	81.62
600.261	82.62
601.025	74.62
601.79	75.62
602.553	71.62
603.317	65.62
604.081	60.62
604.845	59.62
605.609	59.62
606.372	58.62
607.136	53.62
607.899	49.62
608.662	49.62
609.426	48.62
610.189	46.62
610.952	38.62
611.715	42.62
612.478	40.62
613.241	38.62
614.004	38.62
614.767	37.62
615.529	33.62
616.292	30.62
617.055	34.62
617.817	31.62
618.579	32.62
619.342	32.62
620.104	29.62
620.866	30.62
621.628	27.62
622.39	30.62
623.152	25.62
623.914	25.62
624.676	22.62
625.438	19.62
626.199	22.62
626.961	23.62
627.722	23.62
628.484	22.62
629.245	18.62
630.006	17.62
630.768	21.62
631.529	20.62
632.29	18.62
633.051	18.62
633.812	18.62
634.573	16.62
635.333	14.62
636.094	15.62
636.855	15.62
637.615	15.62
638.376	15.62
639.136	11.62
639.896	10.62
640.657	12.62
641.417	11.62
642.177	11.62
642.937	12.62
643.697	12.62
644.457	12.62
645.216	11.62
645.976	12.62
646.736	10.62
647.495	8.62
648.255	11.62
649.014	10.62
649.774	10.62
650.533	10.62
651.292	11.62
652.051	10.62
652.81	6.62
653.569	8.62
654.328	8.62
655.087	8.62
655.846	9.62
656.604	8.62
657.363	9.62
658.121	4.62
658.88	8.62
659.638	7.62
660.397	8.62
661.155	8.62
661.913	7.62
662.671	7.62
663.429	10.62
664.187	7.62
664.945	7.62
665.703	7.62
666.46	9.62
667.218	6.62
667.976	6.62
668.733	8.62
669.49	7.62
670.248	6.62
671.005	7.62
671.762	8.62
672.519	6.62
673.276	4.62
674.033	6.62
674.79	5.62
675.547	5.62
676.304	4.62
677.06	8.62
677.817	4.62
678.574	6.62
679.33	3.62
680.086	4.62
680.843	8.62
681.599	4.62
682.355	6.62
683.111	5.62
683.867	3.62
684.623	6.62
685.379	4.62
686.135	6.62
686.89	4.62
687.646	5.62
688.402	4.62
689.157	2.62
689.912	5.62
690.668	5.62
691.423	2.62
692.178	5.62
692.933	8.62
693.688	3.62
694.443	5.62
695.198	5.62
695.953	5.62
696.708	3.62
697.462	7.62
698.217	4.62
698.972	5.62
699.726	5.62
700.48	4.62
701.235	4.62
701.989	3.62
702.743	5.62
703.497	3.62
704.251	3.62
705.005	2.62
705.759	7.62
706.513	6.62
707.266	5.62
708.02	5.62
708.774	8.62
709.527	5.62
710.28	5.62
711.034	2.62
711.787	5.62
712.54	5.62
713.293	4.62
714.046	7.62
714.799	4.62
715.552	5.62
716.305	3.62
717.058	3.62
717.81	5.62
718.563	5.62
719.315	6.62
720.068	3.62
720.82	7.62
721.573	5.62
722.325	6.62
723.077	4.62
723.829	2.62
724.581	6.62
725.333	6.62
726.085	5.62
726.836	7.62
727.588	6.62
728.34	6.62
729.091	3.62
729.843	5.62
730.594	7.62
731.346	7.62
732.097	6.62
732.848	6.62
733.599	8.62
734.35	5.62
735.101	7.62
735.852	4.62
736.603	5.62
737.354	8.62
738.104	4.62
738.855	8.62
739.605	6.62
740.356	6.62
741.106	6.62
741.856	7.62
742.607	9.62
743.357	7.62
744.107	7.62
744.857	6.62
745.607	2.62
746.357	7.62
747.106	7.62
747.856	7.62
748.606	7.62
749.355	11.62
750.105	7.62
750.854	7.62
751.603	8.62
752.353	7.62
753.102	8.62
753.851	9.62
754.6	7.62
755.349	8.62
756.098	8.62
756.847	10.62
757.595	9.62
758.344	7.62
759.093	8.62
759.841	8.62
760.589	9.62
761.338	9.62
762.086	9.62
762.834	10.62
763.582	8.62
764.331	10.62
765.079	9.62
765.826	9.62
766.574	9.62
767.322	9.62
768.07	9.62
768.817	8.62
769.565	8.62
770.312	9.62
771.06	13.62
771.807	10.62
772.554	7.62
773.302	10.62
774.049	10.62
774.796	10.62
775.543	10.62
776.29	12.62
777.036	10.62
777.783	9.62
778.53	10.62
779.276	11.62
780.023	13.62
780.769	12.62
781.516	12.62
782.262	11.62
783.008	7.62
783.754	12.62
784.5	14.62
785.246	13.62
785.992	13.62
786.738	11.62
787.484	11.62
788.23	9.62
788.975	11.62
789.721	14.62
790.466	12.62
791.212	9.62
791.957	12.62
792.702	11.62
793.447	10.62
794.193	10.62
794.938	10.62
795.683	12.62
796.427	10.62
797.172	9.62
797.917	11.62
798.662	9.62
799.406	10.62
800.151	11.62
800.895	9.62
801.64	11.62
802.384	9.62
803.128	11.62
803.872	8.62
804.616	9.62
805.36	11.62
806.104	7.62
806.848	8.62
807.592	8.62
808.336	7.62
809.079	6.62
809.823	7.62
810.566	5.62
811.31	4.62
812.053	7.62
812.796	6.62
813.539	4.62
814.283	6.62
815.026	6.62
815.769	5.62
816.511	6.62
817.254	5.62
817.997	4.62
818.74	6.62
819.482	5.62
820.225	9.62
820.967	7.62
821.71	3.62
822.452	7.62
823.194	5.62
823.936	3.62
824.678	5.62
825.42	4.62
826.162	4.62
826.904	6.62
827.646	5.62
828.388	4.62
829.129	5.62
829.871	4.62
830.612	3.62
831.354	6.62
832.095	3.62
832.836	5.62
833.577	6.62
834.319	3.62
835.06	3.62
835.801	6.62
836.542	6.62
837.282	3.62
838.023	3.62
838.764	6.62
839.504	3.62
840.245	5.62
840.985	4.62
841.726	5.62
842.466	4.62
843.206	3.62
843.946	3.62
844.687	4.62
845.427	2.62
846.166	4.62
846.906	4.62
847.646	5.62
848.386	4.62
849.125	3.62
849.865	4.62
850.605	3.62
851.344	4.62
852.083	2.62
852.823	3.62
853.562	3.62
854.301	3.62
855.04	2.62
855.779	4.62
856.518	2.62
857.257	3.62
857.995	4.62
858.734	5.62
859.473	3.62
860.211	4.62
860.95	2.62
861.688	3.62
862.426	3.62
863.165	0.62
863.903	3.62
864.641	2.62
865.379	3.62
866.117	2.62
866.855	5.62
867.593	0.62
868.33	1.62
869.068	2.62
869.806	0.62
870.543	1.62
871.28	0.62
872.018	2.62
872.755	3.62
873.492	1.62
874.229	1.62
874.967	1.62
875.703	2.62
876.44	3.62
877.177	2.62
877.914	1.62
878.651	1.62
879.387	1.62
880.124	1.62
880.86	1.62
881.597	0.62
882.333	0.62
883.069	0.62
883.806	-0.38
884.542	0.62
885.278	2.62
886.014	0.62
886.749	0.62
887.485	2.62
888.221	0.62
888.957	0.62
889.692	1.62
890.428	3.62
891.163	4.62
891.899	2.62
892.634	0.62
893.369	1.62
894.104	0.62
894.839	2.62
895.574	1.62
896.309	2.62
897.044	0.62
897.779	-0.38
898.514	2.62
899.248	0.62
899.983	0.62
900.717	0.62
901.452	1.62
902.186	-1.38
902.92	1.62
903.654	0.62
904.389	1.62
905.123	-1.38
905.857	1.62
906.59	0.62
907.324	0.62
908.058	0.62
908.792	3.62
909.525	1.62
910.259	2.62
910.992	1.62
911.726	2.62
912.459	0.62
913.192	0.62
913.925	0.62
914.658	0.62
915.391	1.62
916.124	0.62
916.857	0.62
917.59	1.62
918.323	1.62
919.055	-1.38
919.788	0.62
920.521	0.62
921.253	1.62
921.985	0.62
922.718	2.62
923.45	1.62
924.182	-1.38
924.914	1.62
925.646	1.62
926.378	1.62
927.11	3.62
927.841	-0.38
928.573	-1.38
929.305	-1.38
930.036	-0.38
930.768	-0.38
931.499	1.62
932.23	0.62
932.962	0.62
933.693	-1.38
934.424	2.62
935.155	-0.38
935.886	0.62
936.617	0.62
937.348	1.62
938.078	0.62
938.809	2.62
939.54	-0.38
940.27	0.62
941.001	1.62
941.731	-0.38
942.461	-0.38
943.191	2.62
943.922	0.62
944.652	0.62
945.382	-0.38
946.112	0.62
946.841	-1.38
947.571	1.62
948.301	0.62
949.031	-1.38
949.76	0.62
950.49	-0.38
951.219	1.62
951.948	-0.38
952.678	-0.38
953.407	1.62
954.136	-1.38
954.865	1.62
955.594	-1.38
956.323	1.62
957.052	1.62
957.78	2.62
958.509	-0.38
959.238	1.62
959.966	1.62
960.695	0.62
961.423	0.62
962.151	-0.38
962.88	-0.38
963.608	-1.38
964.336	-0.38
965.064	0.62
965.792	1.62
966.52	-1.38
967.247	0.62
967.975	-2.38
968.703	0.62
969.43	-2.38
970.158	1.62
970.885	1.62
971.613	0.62
972.34	1.62
973.067	-3.38
973.794	1.62
974.521	-1.38
975.248	-0.38
975.975	1.62
976.702	1.62
977.429	0.62
978.156	-1.38
978.882	1.62
979.609	-1.38
980.335	-0.38
981.062	0.62
981.788	-1.38
982.514	2.62
983.24	0.62
983.967	0.62
984.693	-2.38
985.419	1.62
986.144	3.62
986.87	0.62
987.596	0.62
988.322	0.62
989.047	-2.38
989.773	1.62
990.498	-0.38
991.224	1.62
991.949	-0.38
992.674	0.62
993.399	0.62
994.124	0.62
994.849	1.62
995.574	-1.38
996.299	1.62
997.024	1.62
997.749	-1.38
998.473	2.62
999.198	-0.38
999.922	0.62
1000.647	-0.38
1001.371	2.62
1002.095	0.62
1002.82	-1.38
1003.544	-2.38
1004.268	2.62
1004.992	0.62
1005.716	1.62
1006.439	4.62
1007.163	0.62
1007.887	4.62
1008.611	0.62
1009.334	0.62
1010.058	-2.38
1010.781	3.62
1011.504	2.62
1012.228	1.62
1012.951	0.62
1013.674	0.62
1014.397	0.62
1015.12	-1.38
