节点500_425_QEPB04081__249__15-52-26-984.txt的数据

Date: Wed Nov 12 15:52:26 CST 2025
User: PC
Spectrometer: QEPB0408
触发模式: 0
积分时间 (秒): 1.000000E-2
Scans to average: 1
启用暗噪声校正: true
启用非线性校正: false
滑动平均宽度: 0
X轴模式: Wavelengths
Number of Pixels in Spectrum: 1044
>>>>>Begin Spectral Data<<<<<
220.843	2.5
221.644	1.5
222.444	3.5
223.244	1.5
224.045	2.5
224.845	3.5
225.645	3.5
226.445	0.5
227.245	3.5
228.045	7.5
228.845	2.5
229.645	4.5
230.444	4.5
231.244	5.5
232.043	4.5
232.843	4.5
233.642	6.5
234.442	8.5
235.241	7.5
236.04	6.5
236.839	7.5
237.638	6.5
238.437	6.5
239.236	6.5
240.035	6.5
240.833	5.5
241.632	7.5
242.43	7.5
243.229	5.5
244.027	9.5
244.826	9.5
245.624	7.5
246.422	8.5
247.22	8.5
248.018	7.5
248.816	9.5
249.614	8.5
250.412	8.5
251.21	10.5
252.007	10.5
252.805	8.5
253.602	9.5
254.4	10.5
255.197	12.5
255.994	14.5
256.791	11.5
257.589	12.5
258.386	14.5
259.183	11.5
259.979	17.5
260.776	13.5
261.573	17.5
262.37	15.5
263.166	17.5
263.963	16.5
264.759	20.5
265.556	19.5
266.352	17.5
267.148	20.5
267.944	15.5
268.74	20.5
269.536	20.5
270.332	19.5
271.128	20.5
271.924	22.5
272.719	22.5
273.515	25.5
274.311	22.5
275.106	25.5
275.901	26.5
276.697	24.5
277.492	24.5
278.287	24.5
279.082	25.5
279.877	23.5
280.672	25.5
281.467	25.5
282.262	21.5
283.056	26.5
283.851	24.5
284.646	27.5
285.44	25.5
286.234	26.5
287.029	26.5
287.823	23.5
288.617	25.5
289.411	22.5
290.205	25.5
290.999	25.5
291.793	24.5
292.587	24.5
293.381	24.5
294.174	22.5
294.968	22.5
295.761	21.5
296.555	20.5
297.348	15.5
298.141	18.5
298.935	19.5
299.728	19.5
300.521	18.5
301.314	18.5
302.107	17.5
302.899	16.5
303.692	18.5
304.485	16.5
305.277	16.5
306.07	15.5
306.862	13.5
307.655	12.5
308.447	17.5
309.239	19.5
310.031	13.5
310.823	11.5
311.615	13.5
312.407	12.5
313.199	12.5
313.991	13.5
314.783	11.5
315.574	10.5
316.366	10.5
317.157	12.5
317.949	12.5
318.74	10.5
319.531	12.5
320.322	10.5
321.113	10.5
321.904	8.5
322.695	11.5
323.486	7.5
324.277	10.5
325.068	10.5
325.858	6.5
326.649	10.5
327.439	9.5
328.23	9.5
329.02	8.5
329.81	8.5
330.6	9.5
331.391	10.5
332.181	10.5
332.971	10.5
333.76	7.5
334.55	9.5
335.34	9.5
336.13	8.5
336.919	10.5
337.709	8.5
338.498	6.5
339.287	8.5
340.077	8.5
340.866	7.5
341.655	7.5
342.444	8.5
343.233	9.5
344.022	10.5
344.811	8.5
345.6	6.5
346.388	9.5
347.177	7.5
347.965	7.5
348.754	4.5
349.542	9.5
350.33	6.5
351.119	8.5
351.907	8.5
352.695	5.5
353.483	8.5
354.271	8.5
355.059	6.5
355.846	7.5
356.634	7.5
357.422	6.5
358.209	6.5
358.997	7.5
359.784	6.5
360.571	8.5
361.359	6.5
362.146	6.5
362.933	7.5
363.72	7.5
364.507	9.5
365.294	6.5
366.081	5.5
366.867	7.5
367.654	3.5
368.44	6.5
369.227	5.5
370.013	8.5
370.8	8.5
371.586	6.5
372.372	10.5
373.158	6.5
373.944	7.5
374.73	7.5
375.516	7.5
376.302	5.5
377.088	6.5
377.873	8.5
378.659	8.5
379.445	7.5
380.23	7.5
381.015	6.5
381.801	8.5
382.586	5.5
383.371	9.5
384.156	9.5
384.941	9.5
385.726	7.5
386.511	7.5
387.296	7.5
388.08	6.5
388.865	9.5
389.649	6.5
390.434	5.5
391.218	9.5
392.003	7.5
392.787	10.5
393.571	8.5
394.355	10.5
395.139	7.5
395.923	8.5
396.707	8.5
397.491	7.5
398.274	8.5
399.058	11.5
399.842	7.5
400.625	8.5
401.408	9.5
402.192	10.5
402.975	10.5
403.758	9.5
404.541	10.5
405.324	8.5
406.107	9.5
406.89	10.5
407.673	11.5
408.456	12.5
409.238	11.5
410.021	8.5
410.803	13.5
411.586	10.5
412.368	11.5
413.151	14.5
413.933	9.5
414.715	10.5
415.497	12.5
416.279	11.5
417.061	14.5
417.843	13.5
418.624	12.5
419.406	11.5
420.188	13.5
420.969	16.5
421.751	14.5
422.532	16.5
423.313	13.5
424.095	14.5
424.876	17.5
425.657	15.5
426.438	16.5
427.219	15.5
428	15.5
428.78	18.5
429.561	17.5
430.342	21.5
431.122	22.5
431.903	21.5
432.683	20.5
433.464	21.5
434.244	25.5
435.024	26.5
435.804	26.5
436.584	26.5
437.364	26.5
438.144	27.5
438.924	28.5
439.704	30.5
440.483	32.5
441.263	34.5
442.042	40.5
442.822	41.5
443.601	40.5
444.38	42.5
445.16	48.5
445.939	52.5
446.718	57.5
447.497	60.5
448.276	63.5
449.054	69.5
449.833	75.5
450.612	88.5
451.391	94.5
452.169	101.5
452.948	109.5
453.726	119.5
454.504	133.5
455.282	149.5
456.061	165.5
456.839	180.5
457.617	199.5
458.395	230.5
459.172	259.5
459.95	284.5
460.728	318.5
461.506	346.5
462.283	391.5
463.061	442.5
463.838	494.5
464.615	548.5
465.393	609.5
466.17	676.5
466.947	765.5
467.724	842.5
468.501	946.5
469.278	1043.5
470.055	1154.5
470.831	1279.5
471.608	1424.5
472.385	1580.5
473.161	1754.5
473.938	1949.5
474.714	2146.5
475.49	2375.5
476.266	2605.5
477.043	2868.5
477.819	3200.5
478.595	3497.5
479.371	3846.5
480.146	4243.5
480.922	4659.5
481.698	5099.5
482.473	5616.5
483.249	6149.5
484.024	6750.5
484.8	7395.5
485.575	8093.5
486.35	8827.5
487.126	9613.5
487.901	10551.5
488.676	11489.5
489.451	12485.5
490.225	13554.5
491	14729.5
491.775	15964.5
492.55	17215.5
493.324	18613.5
494.099	19886.5
494.873	21335.5
495.647	22745.5
496.422	24146.5
497.196	25645.5
497.97	27188.5
498.744	28616.5
499.518	29891.5
500.292	31149.5
501.066	32242.5
501.839	33458.5
502.613	34302.5
503.387	35027.5
504.16	35541.5
504.934	35741.5
505.707	35682.5
506.48	35626.5
507.253	35254.5
508.027	34847.5
508.8	34194.5
509.573	33404.5
510.346	32526.5
511.118	31642.5
511.891	30565.5
512.664	29422.5
513.437	28235.5
514.209	27099.5
514.982	26035.5
515.754	25026.5
516.526	23940.5
517.298	22910.5
518.071	21891.5
518.843	20958.5
519.615	20222.5
520.387	19292.5
521.159	18675.5
521.93	17937.5
522.702	17148.5
523.474	16488.5
524.245	15876.5
525.017	15101.5
525.788	14382.5
526.56	13789.5
527.331	13151.5
528.102	12538.5
528.873	11890.5
529.644	11320.5
530.415	10805.5
531.186	10316.5
531.957	9749.5
532.728	9246.5
533.498	8692.5
534.269	8241.5
535.039	7802.5
535.81	7364.5
536.58	6953.5
537.351	6556.5
538.121	6174.5
538.891	5829.5
539.661	5578.5
540.431	5286.5
541.201	4991.5
541.971	4743.5
542.741	4480.5
543.51	4262.5
544.28	4038.5
545.05	3848.5
545.819	3683.5
546.588	3454.5
547.358	3305.5
548.127	3114.5
548.896	2985.5
549.665	2811.5
550.434	2669.5
551.203	2542.5
551.972	2398.5
552.741	2251.5
553.51	2124.5
554.278	2016.5
555.047	1917.5
555.815	1805.5
556.584	1707.5
557.352	1608.5
558.121	1510.5
558.889	1423.5
559.657	1347.5
560.425	1285.5
561.193	1204.5
561.961	1140.5
562.729	1083.5
563.496	1032.5
564.264	964.5
565.032	924.5
565.799	869.5
566.567	810.5
567.334	771.5
568.101	729.5
568.869	688.5
569.636	644.5
570.403	602.5
571.17	572.5
571.937	546.5
572.704	520.5
573.471	496.5
574.237	470.5
575.004	435.5
575.771	401.5
576.537	389.5
577.303	360.5
578.07	341.5
578.836	316.5
579.602	299.5
580.368	290.5
581.134	267.5
581.9	258.5
582.666	246.5
583.432	230.5
584.198	218.5
584.964	216.5
585.729	194.5
586.495	187.5
587.26	177.5
588.025	169.5
588.791	162.5
589.556	152.5
590.321	142.5
591.086	134.5
591.851	128.5
592.616	127.5
593.381	118.5
594.146	112.5
594.911	105.5
595.675	103.5
596.44	100.5
597.204	90.5
597.969	90.5
598.733	83.5
599.497	79.5
600.261	78.5
601.025	75.5
601.79	71.5
602.553	68.5
603.317	66.5
604.081	61.5
604.845	58.5
605.609	58.5
606.372	57.5
607.136	54.5
607.899	50.5
608.662	47.5
609.426	46.5
610.189	45.5
610.952	43.5
611.715	42.5
612.478	45.5
613.241	38.5
614.004	38.5
614.767	37.5
615.529	31.5
616.292	33.5
617.055	30.5
617.817	34.5
618.579	31.5
619.342	29.5
620.104	27.5
620.866	30.5
621.628	27.5
622.39	24.5
623.152	24.5
623.914	24.5
624.676	22.5
625.438	22.5
626.199	22.5
626.961	19.5
627.722	20.5
628.484	20.5
629.245	18.5
630.006	19.5
630.768	17.5
631.529	17.5
632.29	19.5
633.051	16.5
633.812	15.5
634.573	18.5
635.333	13.5
636.094	15.5
636.855	14.5
637.615	15.5
638.376	14.5
639.136	12.5
639.896	16.5
640.657	12.5
641.417	15.5
642.177	10.5
642.937	10.5
643.697	14.5
644.457	9.5
645.216	12.5
645.976	10.5
646.736	11.5
647.495	8.5
648.255	11.5
649.014	9.5
649.774	7.5
650.533	12.5
651.292	8.5
652.051	9.5
652.81	11.5
653.569	8.5
654.328	10.5
655.087	9.5
655.846	9.5
656.604	7.5
657.363	6.5
658.121	7.5
658.88	8.5
659.638	7.5
660.397	5.5
661.155	5.5
661.913	7.5
662.671	6.5
663.429	8.5
664.187	5.5
664.945	6.5
665.703	7.5
666.46	7.5
667.218	7.5
667.976	7.5
668.733	9.5
669.49	4.5
670.248	7.5
671.005	8.5
671.762	6.5
672.519	7.5
673.276	5.5
674.033	5.5
674.79	4.5
675.547	4.5
676.304	4.5
677.06	7.5
677.817	6.5
678.574	6.5
679.33	4.5
680.086	5.5
680.843	4.5
681.599	8.5
682.355	6.5
683.111	5.5
683.867	5.5
684.623	4.5
685.379	7.5
686.135	5.5
686.89	4.5
687.646	5.5
688.402	6.5
689.157	5.5
689.912	5.5
690.668	5.5
691.423	4.5
692.178	4.5
692.933	5.5
693.688	2.5
694.443	6.5
695.198	2.5
695.953	6.5
696.708	1.5
697.462	8.5
698.217	5.5
698.972	5.5
699.726	6.5
700.48	3.5
701.235	4.5
701.989	7.5
702.743	5.5
703.497	3.5
704.251	5.5
705.005	6.5
705.759	6.5
706.513	3.5
707.266	8.5
708.02	3.5
708.774	5.5
709.527	3.5
710.28	6.5
711.034	4.5
711.787	5.5
712.54	5.5
713.293	3.5
714.046	5.5
714.799	5.5
715.552	4.5
716.305	8.5
717.058	5.5
717.81	2.5
718.563	4.5
719.315	4.5
720.068	4.5
720.82	5.5
721.573	5.5
722.325	7.5
723.077	6.5
723.829	5.5
724.581	6.5
725.333	4.5
726.085	5.5
726.836	4.5
727.588	4.5
728.34	3.5
729.091	4.5
729.843	7.5
730.594	7.5
731.346	3.5
732.097	5.5
732.848	5.5
733.599	6.5
734.35	4.5
735.101	3.5
735.852	5.5
736.603	6.5
737.354	5.5
738.104	5.5
738.855	5.5
739.605	5.5
740.356	5.5
741.106	7.5
741.856	9.5
742.607	7.5
743.357	9.5
744.107	7.5
744.857	7.5
745.607	7.5
746.357	8.5
747.106	7.5
747.856	7.5
748.606	7.5
749.355	7.5
750.105	5.5
750.854	7.5
751.603	9.5
752.353	9.5
753.102	6.5
753.851	6.5
754.6	6.5
755.349	8.5
756.098	8.5
756.847	8.5
757.595	7.5
758.344	6.5
759.093	11.5
759.841	8.5
760.589	6.5
761.338	8.5
762.086	7.5
762.834	10.5
763.582	9.5
764.331	9.5
765.079	8.5
765.826	10.5
766.574	8.5
767.322	10.5
768.07	14.5
768.817	11.5
769.565	9.5
770.312	11.5
771.06	10.5
771.807	10.5
772.554	10.5
773.302	12.5
774.049	13.5
774.796	11.5
775.543	11.5
776.29	10.5
777.036	13.5
777.783	11.5
778.53	11.5
779.276	12.5
780.023	14.5
780.769	10.5
781.516	9.5
782.262	10.5
783.008	12.5
783.754	10.5
784.5	12.5
785.246	13.5
785.992	11.5
786.738	10.5
787.484	10.5
788.23	10.5
788.975	9.5
789.721	11.5
790.466	12.5
791.212	13.5
791.957	12.5
792.702	10.5
793.447	10.5
794.193	8.5
794.938	11.5
795.683	10.5
796.427	12.5
797.172	10.5
797.917	11.5
798.662	10.5
799.406	9.5
800.151	10.5
800.895	9.5
801.64	9.5
802.384	11.5
803.128	10.5
803.872	12.5
804.616	7.5
805.36	8.5
806.104	6.5
806.848	8.5
807.592	5.5
808.336	4.5
809.079	7.5
809.823	6.5
810.566	9.5
811.31	8.5
812.053	7.5
812.796	7.5
813.539	6.5
814.283	8.5
815.026	5.5
815.769	7.5
816.511	6.5
817.254	7.5
817.997	6.5
818.74	7.5
819.482	4.5
820.225	2.5
820.967	4.5
821.71	6.5
822.452	4.5
823.194	6.5
823.936	6.5
824.678	7.5
825.42	5.5
826.162	5.5
826.904	5.5
827.646	4.5
828.388	2.5
829.129	5.5
829.871	1.5
830.612	5.5
831.354	7.5
832.095	4.5
832.836	4.5
833.577	4.5
834.319	5.5
835.06	6.5
835.801	3.5
836.542	4.5
837.282	3.5
838.023	2.5
838.764	3.5
839.504	5.5
840.245	5.5
840.985	3.5
841.726	4.5
842.466	3.5
843.206	1.5
843.946	3.5
844.687	6.5
845.427	3.5
846.166	3.5
846.906	2.5
847.646	4.5
848.386	4.5
849.125	2.5
849.865	3.5
850.605	4.5
851.344	4.5
852.083	5.5
852.823	2.5
853.562	1.5
854.301	3.5
855.04	5.5
855.779	4.5
856.518	2.5
857.257	3.5
857.995	2.5
858.734	1.5
859.473	1.5
860.211	2.5
860.95	0.5
861.688	2.5
862.426	3.5
863.165	0.5
863.903	2.5
864.641	1.5
865.379	2.5
866.117	2.5
866.855	1.5
867.593	0.5
868.33	1.5
869.068	2.5
869.806	2.5
870.543	3.5
871.28	1.5
872.018	1.5
872.755	1.5
873.492	2.5
874.229	1.5
874.967	2.5
875.703	1.5
876.44	1.5
877.177	0.5
877.914	1.5
878.651	3.5
879.387	2.5
880.124	2.5
880.86	1.5
881.597	0.5
882.333	2.5
883.069	0.5
883.806	2.5
884.542	0.5
885.278	0.5
886.014	-0.5
886.749	0.5
887.485	2.5
888.221	1.5
888.957	0.5
889.692	-0.5
890.428	0.5
891.163	0.5
891.899	0.5
892.634	1.5
893.369	0.5
894.104	3.5
894.839	0.5
895.574	0.5
896.309	-1.5
897.044	1.5
897.779	1.5
898.514	1.5
899.248	1.5
899.983	0.5
900.717	-0.5
901.452	0.5
902.186	-0.5
902.92	1.5
903.654	1.5
904.389	3.5
905.123	1.5
905.857	-0.5
906.59	1.5
907.324	-0.5
908.058	4.5
908.792	0.5
909.525	0.5
910.259	0.5
910.992	-1.5
911.726	1.5
912.459	1.5
913.192	1.5
913.925	1.5
914.658	0.5
915.391	-1.5
916.124	1.5
916.857	2.5
917.59	0.5
918.323	1.5
919.055	0.5
919.788	-1.5
920.521	1.5
921.253	0.5
921.985	1.5
922.718	-1.5
923.45	1.5
924.182	2.5
924.914	-0.5
925.646	2.5
926.378	-2.5
927.11	-0.5
927.841	1.5
928.573	-1.5
929.305	1.5
930.036	-0.5
930.768	0.5
931.499	0.5
932.23	0.5
932.962	0.5
933.693	-0.5
934.424	-1.5
935.155	2.5
935.886	0.5
936.617	0.5
937.348	-1.5
938.078	1.5
938.809	0.5
939.54	1.5
940.27	1.5
941.001	0.5
941.731	-0.5
942.461	-0.5
943.191	1.5
943.922	-0.5
944.652	-0.5
945.382	1.5
946.112	-1.5
946.841	0.5
947.571	1.5
948.301	-1.5
949.031	-0.5
949.76	2.5
950.49	-1.5
951.219	0.5
951.948	0.5
952.678	-0.5
953.407	0.5
954.136	0.5
954.865	-0.5
955.594	1.5
956.323	0.5
957.052	0.5
957.78	-0.5
958.509	-0.5
959.238	0.5
959.966	-1.5
960.695	0.5
961.423	-0.5
962.151	0.5
962.88	0.5
963.608	0.5
964.336	-0.5
965.064	0.5
965.792	2.5
966.52	-0.5
967.247	0.5
967.975	0.5
968.703	-0.5
969.43	2.5
970.158	0.5
970.885	-1.5
971.613	1.5
972.34	-0.5
973.067	-1.5
973.794	-1.5
974.521	1.5
975.248	-0.5
975.975	-0.5
976.702	-0.5
977.429	-0.5
978.156	2.5
978.882	-1.5
979.609	-0.5
980.335	1.5
981.062	-0.5
981.788	0.5
982.514	0.5
983.24	0.5
983.967	1.5
984.693	0.5
985.419	-1.5
986.144	1.5
986.87	1.5
987.596	-0.5
988.322	2.5
989.047	0.5
989.773	0.5
990.498	-0.5
991.224	0.5
991.949	-0.5
992.674	0.5
993.399	-1.5
994.124	0.5
994.849	-0.5
995.574	1.5
996.299	0.5
997.024	0.5
997.749	2.5
998.473	-2.5
999.198	2.5
999.922	-0.5
1000.647	0.5
1001.371	2.5
1002.095	-1.5
1002.82	-0.5
1003.544	-1.5
1004.268	4.5
1004.992	4.5
1005.716	0.5
1006.439	2.5
1007.163	2.5
1007.887	4.5
1008.611	0.5
1009.334	-1.5
1010.058	-0.5
1010.781	0.5
1011.504	0.5
1012.228	0.5
1012.951	0.5
1013.674	0.5
1014.397	-0.5
1015.12	0.5
