节点500_425_QEPB04081__514__15-56-51-584.txt的数据

Date: Wed Nov 12 15:56:51 CST 2025
User: PC
Spectrometer: QEPB0408
触发模式: 0
积分时间 (秒): 1.000000E-2
Scans to average: 1
启用暗噪声校正: true
启用非线性校正: false
滑动平均宽度: 0
X轴模式: Wavelengths
Number of Pixels in Spectrum: 1044
>>>>>Begin Spectral Data<<<<<
220.843	1.75
221.644	1.75
222.444	2.75
223.244	3.75
224.045	2.75
224.845	3.75
225.645	3.75
226.445	1.75
227.245	0.75
228.045	1.75
228.845	6.75
229.645	1.75
230.444	3.75
231.244	2.75
232.043	4.75
232.843	2.75
233.642	6.75
234.442	5.75
235.241	4.75
236.04	3.75
236.839	4.75
237.638	5.75
238.437	6.75
239.236	3.75
240.035	7.75
240.833	4.75
241.632	4.75
242.43	7.75
243.229	6.75
244.027	3.75
244.826	6.75
245.624	6.75
246.422	5.75
247.22	9.75
248.018	7.75
248.816	7.75
249.614	9.75
250.412	8.75
251.21	7.75
252.007	8.75
252.805	6.75
253.602	11.75
254.4	8.75
255.197	8.75
255.994	7.75
256.791	9.75
257.589	9.75
258.386	12.75
259.183	12.75
259.979	11.75
260.776	10.75
261.573	10.75
262.37	12.75
263.166	14.75
263.963	14.75
264.759	17.75
265.556	15.75
266.352	11.75
267.148	17.75
267.944	15.75
268.74	17.75
269.536	18.75
270.332	15.75
271.128	19.75
271.924	17.75
272.719	18.75
273.515	20.75
274.311	20.75
275.106	20.75
275.901	17.75
276.697	18.75
277.492	17.75
278.287	21.75
279.082	19.75
279.877	20.75
280.672	21.75
281.467	21.75
282.262	22.75
283.056	19.75
283.851	23.75
284.646	19.75
285.44	25.75
286.234	23.75
287.029	20.75
287.823	21.75
288.617	24.75
289.411	21.75
290.205	20.75
290.999	23.75
291.793	23.75
292.587	20.75
293.381	22.75
294.174	19.75
294.968	19.75
295.761	19.75
296.555	19.75
297.348	21.75
298.141	17.75
298.935	20.75
299.728	17.75
300.521	15.75
301.314	16.75
302.107	15.75
302.899	13.75
303.692	14.75
304.485	14.75
305.277	16.75
306.07	14.75
306.862	15.75
307.655	13.75
308.447	15.75
309.239	14.75
310.031	15.75
310.823	13.75
311.615	12.75
312.407	14.75
313.199	12.75
313.991	12.75
314.783	15.75
315.574	11.75
316.366	11.75
317.157	12.75
317.949	5.75
318.74	10.75
319.531	10.75
320.322	11.75
321.113	7.75
321.904	9.75
322.695	10.75
323.486	8.75
324.277	8.75
325.068	7.75
325.858	9.75
326.649	7.75
327.439	9.75
328.23	7.75
329.02	10.75
329.81	7.75
330.6	8.75
331.391	8.75
332.181	7.75
332.971	9.75
333.76	8.75
334.55	8.75
335.34	6.75
336.13	8.75
336.919	7.75
337.709	7.75
338.498	9.75
339.287	7.75
340.077	6.75
340.866	7.75
341.655	9.75
342.444	5.75
343.233	5.75
344.022	6.75
344.811	7.75
345.6	6.75
346.388	6.75
347.177	6.75
347.965	9.75
348.754	9.75
349.542	5.75
350.33	5.75
351.119	7.75
351.907	7.75
352.695	9.75
353.483	5.75
354.271	6.75
355.059	6.75
355.846	6.75
356.634	9.75
357.422	7.75
358.209	5.75
358.997	7.75
359.784	7.75
360.571	6.75
361.359	5.75
362.146	5.75
362.933	5.75
363.72	6.75
364.507	6.75
365.294	7.75
366.081	4.75
366.867	3.75
367.654	8.75
368.44	5.75
369.227	5.75
370.013	5.75
370.8	6.75
371.586	5.75
372.372	4.75
373.158	7.75
373.944	6.75
374.73	7.75
375.516	3.75
376.302	4.75
377.088	5.75
377.873	8.75
378.659	6.75
379.445	6.75
380.23	8.75
381.015	4.75
381.801	6.75
382.586	7.75
383.371	2.75
384.156	5.75
384.941	7.75
385.726	5.75
386.511	6.75
387.296	6.75
388.08	6.75
388.865	6.75
389.649	10.75
390.434	5.75
391.218	7.75
392.003	9.75
392.787	5.75
393.571	8.75
394.355	8.75
395.139	6.75
395.923	5.75
396.707	5.75
397.491	7.75
398.274	5.75
399.058	8.75
399.842	9.75
400.625	8.75
401.408	8.75
402.192	7.75
402.975	9.75
403.758	6.75
404.541	7.75
405.324	7.75
406.107	9.75
406.89	8.75
407.673	7.75
408.456	9.75
409.238	8.75
410.021	8.75
410.803	11.75
411.586	9.75
412.368	11.75
413.151	9.75
413.933	11.75
414.715	12.75
415.497	8.75
416.279	11.75
417.061	12.75
417.843	14.75
418.624	11.75
419.406	16.75
420.188	14.75
420.969	12.75
421.751	13.75
422.532	11.75
423.313	13.75
424.095	14.75
424.876	16.75
425.657	17.75
426.438	17.75
427.219	16.75
428	15.75
428.78	18.75
429.561	19.75
430.342	18.75
431.122	18.75
431.903	18.75
432.683	20.75
433.464	20.75
434.244	25.75
435.024	24.75
435.804	23.75
436.584	25.75
437.364	29.75
438.144	32.75
438.924	30.75
439.704	33.75
440.483	33.75
441.263	34.75
442.042	38.75
442.822	38.75
443.601	43.75
444.38	41.75
445.16	51.75
445.939	56.75
446.718	56.75
447.497	59.75
448.276	68.75
449.054	76.75
449.833	85.75
450.612	89.75
451.391	101.75
452.169	108.75
452.948	116.75
453.726	133.75
454.504	147.75
455.282	164.75
456.061	182.75
456.839	199.75
457.617	227.75
458.395	249.75
459.172	276.75
459.95	307.75
460.728	349.75
461.506	379.75
462.283	423.75
463.061	468.75
463.838	531.75
464.615	590.75
465.393	659.75
466.17	720.75
466.947	805.75
467.724	883.75
468.501	995.75
469.278	1092.75
470.055	1197.75
470.831	1342.75
471.608	1470.75
472.385	1607.75
473.161	1794.75
473.938	1954.75
474.714	2156.75
475.49	2366.75
476.266	2608.75
477.043	2827.75
477.819	3132.75
478.595	3404.75
479.371	3750.75
480.146	4092.75
480.922	4488.75
481.698	4869.75
482.473	5314.75
483.249	5775.75
484.024	6310.75
484.8	6905.75
485.575	7453.75
486.35	8086.75
487.126	8763.75
487.901	9495.75
488.676	10289.75
489.451	11237.75
490.225	12109.75
491	13044.75
491.775	14170.75
492.55	15220.75
493.324	16344.75
494.099	17448.75
494.873	18592.75
495.647	19899.75
496.422	21127.75
497.196	22451.75
497.97	23724.75
498.744	25039.75
499.518	26332.75
500.292	27553.75
501.066	28547.75
501.839	29692.75
502.613	30685.75
503.387	31435.75
504.16	32114.75
504.934	32637.75
505.707	32878.75
506.48	32987.75
507.253	32860.75
508.027	32824.75
508.8	32593.75
509.573	32033.75
510.346	31442.75
511.118	30740.75
511.891	29951.75
512.664	29001.75
513.437	28098.75
514.209	27053.75
514.982	26217.75
515.754	25201.75
516.526	24187.75
517.298	23211.75
518.071	22219.75
518.843	21388.75
519.615	20504.75
520.387	19707.75
521.159	19008.75
521.93	18237.75
522.702	17494.75
523.474	16841.75
524.245	16211.75
525.017	15444.75
525.788	14745.75
526.56	14134.75
527.331	13538.75
528.102	12962.75
528.873	12355.75
529.644	11739.75
530.415	11244.75
531.186	10754.75
531.957	10201.75
532.728	9708.75
533.498	9190.75
534.269	8672.75
535.039	8221.75
535.81	7805.75
536.58	7363.75
537.351	6959.75
538.121	6550.75
538.891	6211.75
539.661	5944.75
540.431	5615.75
541.201	5304.75
541.971	5015.75
542.741	4752.75
543.51	4530.75
544.28	4281.75
545.05	4101.75
545.819	3898.75
546.588	3709.75
547.358	3520.75
548.127	3342.75
548.896	3168.75
549.665	3012.75
550.434	2862.75
551.203	2713.75
551.972	2578.75
552.741	2435.75
553.51	2294.75
554.278	2184.75
555.047	2051.75
555.815	1951.75
556.584	1843.75
557.352	1735.75
558.121	1632.75
558.889	1548.75
559.657	1456.75
560.425	1377.75
561.193	1306.75
561.961	1239.75
562.729	1179.75
563.496	1104.75
564.264	1032.75
565.032	985.75
565.799	929.75
566.567	891.75
567.334	847.75
568.101	794.75
568.869	747.75
569.636	704.75
570.403	663.75
571.17	612.75
571.937	596.75
572.704	561.75
573.471	525.75
574.237	493.75
575.004	473.75
575.771	438.75
576.537	421.75
577.303	392.75
578.07	369.75
578.836	342.75
579.602	324.75
580.368	308.75
581.134	291.75
581.9	286.75
582.666	259.75
583.432	251.75
584.198	239.75
584.964	226.75
585.729	217.75
586.495	206.75
587.26	200.75
588.025	185.75
588.791	174.75
589.556	167.75
590.321	149.75
591.086	150.75
591.851	140.75
592.616	135.75
593.381	127.75
594.146	119.75
594.911	111.75
595.675	107.75
596.44	107.75
597.204	96.75
597.969	92.75
598.733	90.75
599.497	86.75
600.261	83.75
601.025	80.75
601.79	74.75
602.553	70.75
603.317	64.75
604.081	65.75
604.845	65.75
605.609	60.75
606.372	58.75
607.136	56.75
607.899	52.75
608.662	51.75
609.426	51.75
610.189	46.75
610.952	44.75
611.715	43.75
612.478	43.75
613.241	38.75
614.004	36.75
614.767	36.75
615.529	37.75
616.292	34.75
617.055	35.75
617.817	28.75
618.579	33.75
619.342	34.75
620.104	29.75
620.866	29.75
621.628	25.75
622.39	27.75
623.152	25.75
623.914	24.75
624.676	25.75
625.438	22.75
626.199	23.75
626.961	22.75
627.722	22.75
628.484	19.75
629.245	17.75
630.006	19.75
630.768	17.75
631.529	17.75
632.29	16.75
633.051	18.75
633.812	18.75
634.573	15.75
635.333	16.75
636.094	14.75
636.855	14.75
637.615	13.75
638.376	13.75
639.136	14.75
639.896	11.75
640.657	14.75
641.417	12.75
642.177	14.75
642.937	13.75
643.697	8.75
644.457	13.75
645.216	9.75
645.976	10.75
646.736	11.75
647.495	10.75
648.255	9.75
649.014	9.75
649.774	9.75
650.533	9.75
651.292	11.75
652.051	9.75
652.81	6.75
653.569	9.75
654.328	6.75
655.087	6.75
655.846	7.75
656.604	7.75
657.363	7.75
658.121	7.75
658.88	7.75
659.638	6.75
660.397	9.75
661.155	7.75
661.913	5.75
662.671	5.75
663.429	5.75
664.187	5.75
664.945	4.75
665.703	5.75
666.46	6.75
667.218	8.75
667.976	3.75
668.733	5.75
669.49	5.75
670.248	7.75
671.005	6.75
671.762	7.75
672.519	4.75
673.276	7.75
674.033	5.75
674.79	6.75
675.547	3.75
676.304	4.75
677.06	5.75
677.817	5.75
678.574	3.75
679.33	4.75
680.086	3.75
680.843	4.75
681.599	3.75
682.355	5.75
683.111	7.75
683.867	4.75
684.623	3.75
685.379	6.75
686.135	5.75
686.89	4.75
687.646	4.75
688.402	6.75
689.157	1.75
689.912	4.75
690.668	3.75
691.423	5.75
692.178	4.75
692.933	4.75
693.688	3.75
694.443	3.75
695.198	4.75
695.953	4.75
696.708	4.75
697.462	3.75
698.217	3.75
698.972	4.75
699.726	3.75
700.48	6.75
701.235	5.75
701.989	3.75
702.743	4.75
703.497	4.75
704.251	4.75
705.005	2.75
705.759	5.75
706.513	2.75
707.266	3.75
708.02	2.75
708.774	4.75
709.527	4.75
710.28	3.75
711.034	4.75
711.787	3.75
712.54	1.75
713.293	6.75
714.046	3.75
714.799	6.75
715.552	3.75
716.305	5.75
717.058	3.75
717.81	4.75
718.563	5.75
719.315	4.75
720.068	5.75
720.82	4.75
721.573	3.75
722.325	5.75
723.077	1.75
723.829	5.75
724.581	2.75
725.333	4.75
726.085	4.75
726.836	2.75
727.588	5.75
728.34	2.75
729.091	4.75
729.843	5.75
730.594	1.75
731.346	5.75
732.097	3.75
732.848	6.75
733.599	2.75
734.35	5.75
735.101	6.75
735.852	3.75
736.603	6.75
737.354	5.75
738.104	5.75
738.855	7.75
739.605	5.75
740.356	5.75
741.106	4.75
741.856	6.75
742.607	5.75
743.357	6.75
744.107	5.75
744.857	7.75
745.607	5.75
746.357	6.75
747.106	4.75
747.856	5.75
748.606	5.75
749.355	7.75
750.105	4.75
750.854	6.75
751.603	6.75
752.353	4.75
753.102	6.75
753.851	5.75
754.6	4.75
755.349	8.75
756.098	5.75
756.847	5.75
757.595	6.75
758.344	7.75
759.093	7.75
759.841	7.75
760.589	6.75
761.338	6.75
762.086	7.75
762.834	5.75
763.582	8.75
764.331	7.75
765.079	9.75
765.826	7.75
766.574	7.75
767.322	9.75
768.07	9.75
768.817	9.75
769.565	4.75
770.312	7.75
771.06	10.75
771.807	11.75
772.554	8.75
773.302	6.75
774.049	9.75
774.796	9.75
775.543	10.75
776.29	9.75
777.036	9.75
777.783	9.75
778.53	8.75
779.276	7.75
780.023	8.75
780.769	9.75
781.516	10.75
782.262	7.75
783.008	9.75
783.754	10.75
784.5	7.75
785.246	9.75
785.992	11.75
786.738	9.75
787.484	10.75
788.23	11.75
788.975	9.75
789.721	11.75
790.466	9.75
791.212	7.75
791.957	10.75
792.702	8.75
793.447	9.75
794.193	13.75
794.938	8.75
795.683	9.75
796.427	8.75
797.172	8.75
797.917	6.75
798.662	8.75
799.406	9.75
800.151	8.75
800.895	6.75
801.64	5.75
802.384	8.75
803.128	8.75
803.872	6.75
804.616	8.75
805.36	7.75
806.104	7.75
806.848	5.75
807.592	4.75
808.336	6.75
809.079	4.75
809.823	7.75
810.566	7.75
811.31	4.75
812.053	6.75
812.796	7.75
813.539	6.75
814.283	7.75
815.026	3.75
815.769	4.75
816.511	7.75
817.254	5.75
817.997	5.75
818.74	2.75
819.482	4.75
820.225	4.75
820.967	7.75
821.71	3.75
822.452	3.75
823.194	4.75
823.936	5.75
824.678	3.75
825.42	6.75
826.162	4.75
826.904	4.75
827.646	5.75
828.388	4.75
829.129	3.75
829.871	5.75
830.612	3.75
831.354	5.75
832.095	6.75
832.836	4.75
833.577	2.75
834.319	4.75
835.06	2.75
835.801	3.75
836.542	6.75
837.282	3.75
838.023	5.75
838.764	4.75
839.504	3.75
840.245	2.75
840.985	5.75
841.726	1.75
842.466	0.75
843.206	3.75
843.946	4.75
844.687	3.75
845.427	2.75
846.166	0.75
846.906	2.75
847.646	4.75
848.386	1.75
849.125	5.75
849.865	3.75
850.605	3.75
851.344	3.75
852.083	4.75
852.823	2.75
853.562	2.75
854.301	3.75
855.04	4.75
855.779	1.75
856.518	3.75
857.257	1.75
857.995	1.75
858.734	0.75
859.473	1.75
860.211	2.75
860.95	2.75
861.688	1.75
862.426	5.75
863.165	3.75
863.903	1.75
864.641	3.75
865.379	0.75
866.117	1.75
866.855	2.75
867.593	3.75
868.33	2.75
869.068	-1.25
869.806	0.75
870.543	-0.25
871.28	0.75
872.018	1.75
872.755	1.75
873.492	0.75
874.229	2.75
874.967	0.75
875.703	2.75
876.44	-0.25
877.177	0.75
877.914	-0.25
878.651	-0.25
879.387	-2.25
880.124	0.75
880.86	1.75
881.597	1.75
882.333	-0.25
883.069	3.75
883.806	-0.25
884.542	1.75
885.278	-0.25
886.014	1.75
886.749	0.75
887.485	-0.25
888.221	2.75
888.957	0.75
889.692	0.75
890.428	-1.25
891.163	-0.25
891.899	1.75
892.634	-1.25
893.369	1.75
894.104	-0.25
894.839	-0.25
895.574	1.75
896.309	0.75
897.044	-0.25
897.779	-1.25
898.514	-0.25
899.248	-1.25
899.983	0.75
900.717	1.75
901.452	0.75
902.186	1.75
902.92	0.75
903.654	-1.25
904.389	-0.25
905.123	1.75
905.857	0.75
906.59	-0.25
907.324	1.75
908.058	-0.25
908.792	-1.25
909.525	0.75
910.259	-0.25
910.992	1.75
911.726	-0.25
912.459	-0.25
913.192	-0.25
913.925	-0.25
914.658	0.75
915.391	1.75
916.124	0.75
916.857	1.75
917.59	-0.25
918.323	0.75
919.055	-1.25
919.788	-0.25
920.521	-3.25
921.253	-0.25
921.985	-0.25
922.718	-1.25
923.45	-0.25
924.182	0.75
924.914	-1.25
925.646	-2.25
926.378	-0.25
927.11	-0.25
927.841	-2.25
928.573	-0.25
929.305	-0.25
930.036	-0.25
930.768	-0.25
931.499	-0.25
932.23	-0.25
932.962	-0.25
933.693	0.75
934.424	-2.25
935.155	-1.25
935.886	1.75
936.617	-1.25
937.348	-0.25
938.078	-1.25
938.809	-1.25
939.54	-0.25
940.27	-2.25
941.001	-2.25
941.731	0.75
942.461	-0.25
943.191	-1.25
943.922	0.75
944.652	1.75
945.382	0.75
946.112	0.75
946.841	-0.25
947.571	0.75
948.301	-1.25
949.031	-0.25
949.76	-0.25
950.49	-1.25
951.219	-0.25
951.948	-1.25
952.678	0.75
953.407	-0.25
954.136	-0.25
954.865	1.75
955.594	-2.25
956.323	0.75
957.052	-0.25
957.78	0.75
958.509	0.75
959.238	-1.25
959.966	0.75
960.695	-2.25
961.423	0.75
962.151	-0.25
962.88	-0.25
963.608	1.75
964.336	-2.25
965.064	-1.25
965.792	0.75
966.52	3.75
967.247	0.75
967.975	-1.25
968.703	-0.25
969.43	-0.25
970.158	-0.25
970.885	-0.25
971.613	-2.25
972.34	-1.25
973.067	-0.25
973.794	-0.25
974.521	-2.25
975.248	0.75
975.975	-0.25
976.702	-1.25
977.429	0.75
978.156	-0.25
978.882	-1.25
979.609	-1.25
980.335	-0.25
981.062	1.75
981.788	-1.25
982.514	0.75
983.24	0.75
983.967	0.75
984.693	-0.25
985.419	-0.25
986.144	-0.25
986.87	-0.25
987.596	1.75
988.322	-0.25
989.047	-1.25
989.773	-0.25
990.498	0.75
991.224	0.75
991.949	-0.25
992.674	-1.25
993.399	-0.25
994.124	0.75
994.849	0.75
995.574	-1.25
996.299	-0.25
997.024	0.75
997.749	-0.25
998.473	-1.25
999.198	-0.25
999.922	1.75
1000.647	-2.25
1001.371	1.75
1002.095	-0.25
1002.82	-2.25
1003.544	-1.25
1004.268	3.75
1004.992	3.75
1005.716	-0.25
1006.439	0.75
1007.163	3.75
1007.887	1.75
1008.611	-0.25
1009.334	1.75
1010.058	-1.25
1010.781	-0.25
1011.504	-1.25
1012.228	0.75
1012.951	-0.25
1013.674	1.75
1014.397	0.75
1015.12	-0.25
