节点500_425_QEPB04081__610__15-58-27-401.txt的数据

Date: Wed Nov 12 15:58:27 CST 2025
User: PC
Spectrometer: QEPB0408
触发模式: 0
积分时间 (秒): 1.000000E-2
Scans to average: 1
启用暗噪声校正: true
启用非线性校正: false
滑动平均宽度: 0
X轴模式: Wavelengths
Number of Pixels in Spectrum: 1044
>>>>>Begin Spectral Data<<<<<
220.843	3.5
221.644	3.5
222.444	0.5
223.244	0.5
224.045	2.5
224.845	1.5
225.645	1.5
226.445	-0.5
227.245	5.5
228.045	1.5
228.845	6.5
229.645	1.5
230.444	6.5
231.244	5.5
232.043	2.5
232.843	4.5
233.642	5.5
234.442	4.5
235.241	5.5
236.04	6.5
236.839	5.5
237.638	6.5
238.437	5.5
239.236	4.5
240.035	6.5
240.833	8.5
241.632	6.5
242.43	10.5
243.229	9.5
244.027	6.5
244.826	8.5
245.624	8.5
246.422	8.5
247.22	6.5
248.018	7.5
248.816	6.5
249.614	11.5
250.412	7.5
251.21	12.5
252.007	10.5
252.805	7.5
253.602	7.5
254.4	7.5
255.197	9.5
255.994	9.5
256.791	9.5
257.589	14.5
258.386	13.5
259.183	16.5
259.979	11.5
260.776	13.5
261.573	14.5
262.37	13.5
263.166	15.5
263.963	13.5
264.759	16.5
265.556	17.5
266.352	15.5
267.148	15.5
267.944	20.5
268.74	19.5
269.536	16.5
270.332	15.5
271.128	19.5
271.924	18.5
272.719	20.5
273.515	21.5
274.311	19.5
275.106	22.5
275.901	18.5
276.697	19.5
277.492	20.5
278.287	22.5
279.082	19.5
279.877	20.5
280.672	20.5
281.467	23.5
282.262	23.5
283.056	24.5
283.851	22.5
284.646	22.5
285.44	23.5
286.234	22.5
287.029	22.5
287.823	24.5
288.617	21.5
289.411	20.5
290.205	20.5
290.999	22.5
291.793	22.5
292.587	20.5
293.381	20.5
294.174	22.5
294.968	18.5
295.761	19.5
296.555	18.5
297.348	19.5
298.141	20.5
298.935	19.5
299.728	16.5
300.521	17.5
301.314	19.5
302.107	16.5
302.899	16.5
303.692	15.5
304.485	17.5
305.277	15.5
306.07	15.5
306.862	17.5
307.655	16.5
308.447	14.5
309.239	13.5
310.031	14.5
310.823	13.5
311.615	11.5
312.407	14.5
313.199	13.5
313.991	11.5
314.783	9.5
315.574	10.5
316.366	10.5
317.157	11.5
317.949	12.5
318.74	10.5
319.531	9.5
320.322	10.5
321.113	9.5
321.904	10.5
322.695	11.5
323.486	9.5
324.277	8.5
325.068	7.5
325.858	9.5
326.649	12.5
327.439	9.5
328.23	5.5
329.02	8.5
329.81	8.5
330.6	8.5
331.391	8.5
332.181	5.5
332.971	7.5
333.76	10.5
334.55	8.5
335.34	8.5
336.13	6.5
336.919	6.5
337.709	7.5
338.498	9.5
339.287	8.5
340.077	6.5
340.866	6.5
341.655	9.5
342.444	10.5
343.233	8.5
344.022	8.5
344.811	7.5
345.6	7.5
346.388	8.5
347.177	8.5
347.965	4.5
348.754	10.5
349.542	8.5
350.33	7.5
351.119	9.5
351.907	7.5
352.695	7.5
353.483	5.5
354.271	8.5
355.059	7.5
355.846	8.5
356.634	6.5
357.422	9.5
358.209	7.5
358.997	8.5
359.784	7.5
360.571	6.5
361.359	7.5
362.146	7.5
362.933	2.5
363.72	9.5
364.507	6.5
365.294	6.5
366.081	6.5
366.867	5.5
367.654	6.5
368.44	7.5
369.227	6.5
370.013	7.5
370.8	7.5
371.586	7.5
372.372	4.5
373.158	6.5
373.944	6.5
374.73	6.5
375.516	5.5
376.302	6.5
377.088	7.5
377.873	7.5
378.659	8.5
379.445	4.5
380.23	5.5
381.015	5.5
381.801	7.5
382.586	7.5
383.371	5.5
384.156	7.5
384.941	7.5
385.726	8.5
386.511	7.5
387.296	8.5
388.08	7.5
388.865	6.5
389.649	7.5
390.434	7.5
391.218	7.5
392.003	7.5
392.787	6.5
393.571	6.5
394.355	8.5
395.139	6.5
395.923	9.5
396.707	9.5
397.491	9.5
398.274	9.5
399.058	8.5
399.842	12.5
400.625	9.5
401.408	9.5
402.192	8.5
402.975	10.5
403.758	8.5
404.541	10.5
405.324	8.5
406.107	9.5
406.89	10.5
407.673	8.5
408.456	10.5
409.238	9.5
410.021	9.5
410.803	10.5
411.586	9.5
412.368	9.5
413.151	10.5
413.933	8.5
414.715	11.5
415.497	11.5
416.279	9.5
417.061	10.5
417.843	9.5
418.624	14.5
419.406	12.5
420.188	14.5
420.969	15.5
421.751	14.5
422.532	11.5
423.313	11.5
424.095	16.5
424.876	14.5
425.657	15.5
426.438	18.5
427.219	16.5
428	16.5
428.78	16.5
429.561	20.5
430.342	19.5
431.122	19.5
431.903	23.5
432.683	22.5
433.464	24.5
434.244	24.5
435.024	25.5
435.804	24.5
436.584	23.5
437.364	27.5
438.144	28.5
438.924	33.5
439.704	32.5
440.483	30.5
441.263	34.5
442.042	38.5
442.822	40.5
443.601	45.5
444.38	48.5
445.16	55.5
445.939	54.5
446.718	60.5
447.497	62.5
448.276	73.5
449.054	76.5
449.833	84.5
450.612	92.5
451.391	101.5
452.169	114.5
452.948	120.5
453.726	132.5
454.504	154.5
455.282	172.5
456.061	188.5
456.839	203.5
457.617	228.5
458.395	254.5
459.172	278.5
459.95	322.5
460.728	347.5
461.506	384.5
462.283	437.5
463.061	488.5
463.838	539.5
464.615	608.5
465.393	661.5
466.17	733.5
466.947	816.5
467.724	893.5
468.501	1001.5
469.278	1099.5
470.055	1211.5
470.831	1334.5
471.608	1484.5
472.385	1630.5
473.161	1800.5
473.938	1964.5
474.714	2180.5
475.49	2374.5
476.266	2611.5
477.043	2834.5
477.819	3137.5
478.595	3394.5
479.371	3711.5
480.146	4064.5
480.922	4446.5
481.698	4814.5
482.473	5246.5
483.249	5722.5
484.024	6185.5
484.8	6772.5
485.575	7306.5
486.35	7927.5
487.126	8592.5
487.901	9312.5
488.676	10071.5
489.451	10878.5
490.225	11799.5
491	12680.5
491.775	13722.5
492.55	14775.5
493.324	15805.5
494.099	16922.5
494.873	18045.5
495.647	19221.5
496.422	20393.5
497.196	21676.5
497.97	23012.5
498.744	24246.5
499.518	25482.5
500.292	26716.5
501.066	27764.5
501.839	28832.5
502.613	29822.5
503.387	30694.5
504.16	31249.5
504.934	31808.5
505.707	32167.5
506.48	32349.5
507.253	32344.5
508.027	32280.5
508.8	32094.5
509.573	31721.5
510.346	31040.5
511.118	30441.5
511.891	29773.5
512.664	28910.5
513.437	28024.5
514.209	27019.5
514.982	26201.5
515.754	25218.5
516.526	24232.5
517.298	23262.5
518.071	22397.5
518.843	21437.5
519.615	20628.5
520.387	19804.5
521.159	19017.5
521.93	18278.5
522.702	17561.5
523.474	16866.5
524.245	16281.5
525.017	15540.5
525.788	14824.5
526.56	14183.5
527.331	13606.5
528.102	12988.5
528.873	12452.5
529.644	11851.5
530.415	11365.5
531.186	10843.5
531.957	10304.5
532.728	9753.5
533.498	9253.5
534.269	8782.5
535.039	8342.5
535.81	7869.5
536.58	7465.5
537.351	7072.5
538.121	6674.5
538.891	6304.5
539.661	5967.5
540.431	5674.5
541.201	5380.5
541.971	5088.5
542.741	4829.5
543.51	4595.5
544.28	4330.5
545.05	4161.5
545.819	3953.5
546.588	3770.5
547.358	3559.5
548.127	3390.5
548.896	3200.5
549.665	3068.5
550.434	2920.5
551.203	2753.5
551.972	2636.5
552.741	2458.5
553.51	2347.5
554.278	2189.5
555.047	2098.5
555.815	2002.5
556.584	1874.5
557.352	1764.5
558.121	1673.5
558.889	1576.5
559.657	1493.5
560.425	1420.5
561.193	1332.5
561.961	1261.5
562.729	1202.5
563.496	1131.5
564.264	1065.5
565.032	1012.5
565.799	956.5
566.567	899.5
567.334	837.5
568.101	814.5
568.869	759.5
569.636	719.5
570.403	671.5
571.17	636.5
571.937	601.5
572.704	568.5
573.471	539.5
574.237	505.5
575.004	479.5
575.771	446.5
576.537	419.5
577.303	403.5
578.07	370.5
578.836	355.5
579.602	338.5
580.368	316.5
581.134	302.5
581.9	287.5
582.666	275.5
583.432	262.5
584.198	242.5
584.964	228.5
585.729	217.5
586.495	207.5
587.26	197.5
588.025	181.5
588.791	176.5
589.556	168.5
590.321	157.5
591.086	154.5
591.851	146.5
592.616	134.5
593.381	132.5
594.146	126.5
594.911	117.5
595.675	116.5
596.44	106.5
597.204	107.5
597.969	99.5
598.733	92.5
599.497	90.5
600.261	85.5
601.025	84.5
601.79	76.5
602.553	72.5
603.317	72.5
604.081	68.5
604.845	64.5
605.609	63.5
606.372	59.5
607.136	56.5
607.899	57.5
608.662	55.5
609.426	56.5
610.189	50.5
610.952	48.5
611.715	45.5
612.478	44.5
613.241	43.5
614.004	37.5
614.767	40.5
615.529	36.5
616.292	38.5
617.055	33.5
617.817	33.5
618.579	33.5
619.342	30.5
620.104	30.5
620.866	31.5
621.628	25.5
622.39	28.5
623.152	25.5
623.914	25.5
624.676	25.5
625.438	23.5
626.199	24.5
626.961	24.5
627.722	21.5
628.484	19.5
629.245	19.5
630.006	19.5
630.768	21.5
631.529	18.5
632.29	18.5
633.051	18.5
633.812	18.5
634.573	13.5
635.333	16.5
636.094	15.5
636.855	14.5
637.615	13.5
638.376	14.5
639.136	16.5
639.896	12.5
640.657	14.5
641.417	12.5
642.177	10.5
642.937	12.5
643.697	10.5
644.457	14.5
645.216	9.5
645.976	12.5
646.736	14.5
647.495	12.5
648.255	9.5
649.014	10.5
649.774	10.5
650.533	10.5
651.292	10.5
652.051	11.5
652.81	8.5
653.569	10.5
654.328	10.5
655.087	8.5
655.846	8.5
656.604	6.5
657.363	8.5
658.121	7.5
658.88	6.5
659.638	7.5
660.397	6.5
661.155	7.5
661.913	8.5
662.671	8.5
663.429	7.5
664.187	6.5
664.945	7.5
665.703	7.5
666.46	6.5
667.218	6.5
667.976	6.5
668.733	3.5
669.49	5.5
670.248	7.5
671.005	5.5
671.762	6.5
672.519	6.5
673.276	5.5
674.033	8.5
674.79	6.5
675.547	6.5
676.304	5.5
677.06	7.5
677.817	4.5
678.574	5.5
679.33	6.5
680.086	5.5
680.843	5.5
681.599	4.5
682.355	6.5
683.111	6.5
683.867	4.5
684.623	6.5
685.379	4.5
686.135	4.5
686.89	7.5
687.646	3.5
688.402	4.5
689.157	5.5
689.912	5.5
690.668	6.5
691.423	7.5
692.178	5.5
692.933	5.5
693.688	5.5
694.443	4.5
695.198	5.5
695.953	3.5
696.708	7.5
697.462	6.5
698.217	4.5
698.972	2.5
699.726	3.5
700.48	5.5
701.235	5.5
701.989	4.5
702.743	6.5
703.497	3.5
704.251	3.5
705.005	4.5
705.759	5.5
706.513	7.5
707.266	3.5
708.02	6.5
708.774	5.5
709.527	4.5
710.28	5.5
711.034	4.5
711.787	5.5
712.54	3.5
713.293	3.5
714.046	7.5
714.799	5.5
715.552	4.5
716.305	5.5
717.058	4.5
717.81	2.5
718.563	6.5
719.315	5.5
720.068	5.5
720.82	5.5
721.573	4.5
722.325	3.5
723.077	3.5
723.829	5.5
724.581	3.5
725.333	4.5
726.085	2.5
726.836	6.5
727.588	5.5
728.34	5.5
729.091	5.5
729.843	5.5
730.594	5.5
731.346	5.5
732.097	5.5
732.848	6.5
733.599	4.5
734.35	3.5
735.101	6.5
735.852	4.5
736.603	4.5
737.354	6.5
738.104	5.5
738.855	7.5
739.605	7.5
740.356	6.5
741.106	7.5
741.856	6.5
742.607	7.5
743.357	5.5
744.107	5.5
744.857	3.5
745.607	5.5
746.357	5.5
747.106	5.5
747.856	6.5
748.606	6.5
749.355	8.5
750.105	7.5
750.854	7.5
751.603	6.5
752.353	7.5
753.102	6.5
753.851	6.5
754.6	6.5
755.349	9.5
756.098	8.5
756.847	7.5
757.595	8.5
758.344	7.5
759.093	4.5
759.841	8.5
760.589	7.5
761.338	8.5
762.086	7.5
762.834	6.5
763.582	11.5
764.331	8.5
765.079	9.5
765.826	10.5
766.574	10.5
767.322	9.5
768.07	8.5
768.817	9.5
769.565	7.5
770.312	9.5
771.06	8.5
771.807	9.5
772.554	12.5
773.302	10.5
774.049	9.5
774.796	12.5
775.543	10.5
776.29	8.5
777.036	9.5
777.783	11.5
778.53	11.5
779.276	10.5
780.023	9.5
780.769	10.5
781.516	11.5
782.262	6.5
783.008	11.5
783.754	12.5
784.5	10.5
785.246	9.5
785.992	11.5
786.738	10.5
787.484	13.5
788.23	8.5
788.975	11.5
789.721	8.5
790.466	12.5
791.212	9.5
791.957	8.5
792.702	13.5
793.447	7.5
794.193	8.5
794.938	8.5
795.683	10.5
796.427	12.5
797.172	9.5
797.917	9.5
798.662	8.5
799.406	8.5
800.151	9.5
800.895	7.5
801.64	9.5
802.384	9.5
803.128	8.5
803.872	8.5
804.616	8.5
805.36	8.5
806.104	6.5
806.848	6.5
807.592	6.5
808.336	9.5
809.079	7.5
809.823	8.5
810.566	8.5
811.31	5.5
812.053	6.5
812.796	6.5
813.539	6.5
814.283	7.5
815.026	5.5
815.769	5.5
816.511	7.5
817.254	6.5
817.997	4.5
818.74	7.5
819.482	6.5
820.225	5.5
820.967	5.5
821.71	5.5
822.452	5.5
823.194	7.5
823.936	4.5
824.678	6.5
825.42	7.5
826.162	4.5
826.904	3.5
827.646	5.5
828.388	5.5
829.129	5.5
829.871	5.5
830.612	2.5
831.354	2.5
832.095	3.5
832.836	6.5
833.577	4.5
834.319	4.5
835.06	4.5
835.801	2.5
836.542	5.5
837.282	3.5
838.023	5.5
838.764	5.5
839.504	0.5
840.245	4.5
840.985	4.5
841.726	5.5
842.466	4.5
843.206	3.5
843.946	6.5
844.687	4.5
845.427	4.5
846.166	3.5
846.906	2.5
847.646	3.5
848.386	4.5
849.125	3.5
849.865	3.5
850.605	5.5
851.344	4.5
852.083	6.5
852.823	1.5
853.562	3.5
854.301	4.5
855.04	2.5
855.779	4.5
856.518	5.5
857.257	3.5
857.995	2.5
858.734	4.5
859.473	2.5
860.211	2.5
860.95	4.5
861.688	1.5
862.426	2.5
863.165	3.5
863.903	0.5
864.641	3.5
865.379	1.5
866.117	1.5
866.855	0.5
867.593	1.5
868.33	2.5
869.068	2.5
869.806	2.5
870.543	1.5
871.28	0.5
872.018	4.5
872.755	1.5
873.492	2.5
874.229	1.5
874.967	2.5
875.703	1.5
876.44	2.5
877.177	0.5
877.914	-0.5
878.651	1.5
879.387	-0.5
880.124	-0.5
880.86	1.5
881.597	2.5
882.333	1.5
883.069	1.5
883.806	0.5
884.542	2.5
885.278	1.5
886.014	-0.5
886.749	1.5
887.485	2.5
888.221	0.5
888.957	1.5
889.692	0.5
890.428	0.5
891.163	1.5
891.899	0.5
892.634	0.5
893.369	1.5
894.104	-0.5
894.839	1.5
895.574	0.5
896.309	1.5
897.044	1.5
897.779	0.5
898.514	1.5
899.248	2.5
899.983	0.5
900.717	0.5
901.452	1.5
902.186	1.5
902.92	1.5
903.654	-0.5
904.389	0.5
905.123	0.5
905.857	-0.5
906.59	0.5
907.324	1.5
908.058	-0.5
908.792	0.5
909.525	1.5
910.259	-1.5
910.992	1.5
911.726	-2.5
912.459	0.5
913.192	0.5
913.925	-1.5
914.658	-3.5
915.391	-0.5
916.124	0.5
916.857	1.5
917.59	-0.5
918.323	1.5
919.055	-1.5
919.788	2.5
920.521	1.5
921.253	0.5
921.985	0.5
922.718	0.5
923.45	-1.5
924.182	-0.5
924.914	0.5
925.646	2.5
926.378	1.5
927.11	0.5
927.841	-0.5
928.573	1.5
929.305	-0.5
930.036	-0.5
930.768	2.5
931.499	-0.5
932.23	0.5
932.962	-1.5
933.693	2.5
934.424	-0.5
935.155	-0.5
935.886	0.5
936.617	-2.5
937.348	0.5
938.078	0.5
938.809	1.5
939.54	-2.5
940.27	0.5
941.001	0.5
941.731	1.5
942.461	2.5
943.191	2.5
943.922	-0.5
944.652	-0.5
945.382	0.5
946.112	1.5
946.841	-0.5
947.571	0.5
948.301	1.5
949.031	-0.5
949.76	2.5
950.49	1.5
951.219	0.5
951.948	0.5
952.678	0.5
953.407	-2.5
954.136	-1.5
954.865	-1.5
955.594	1.5
956.323	1.5
957.052	-0.5
957.78	0.5
958.509	-0.5
959.238	0.5
959.966	0.5
960.695	1.5
961.423	-1.5
962.151	0.5
962.88	-1.5
963.608	1.5
964.336	-1.5
965.064	2.5
965.792	-0.5
966.52	-0.5
967.247	0.5
967.975	0.5
968.703	2.5
969.43	-0.5
970.158	-0.5
970.885	0.5
971.613	0.5
972.34	1.5
973.067	0.5
973.794	1.5
974.521	0.5
975.248	-0.5
975.975	0.5
976.702	1.5
977.429	0.5
978.156	0.5
978.882	2.5
979.609	1.5
980.335	1.5
981.062	1.5
981.788	1.5
982.514	0.5
983.24	-1.5
983.967	-0.5
984.693	0.5
985.419	-1.5
986.144	-0.5
986.87	0.5
987.596	0.5
988.322	0.5
989.047	1.5
989.773	0.5
990.498	0.5
991.224	2.5
991.949	0.5
992.674	0.5
993.399	2.5
994.124	0.5
994.849	0.5
995.574	0.5
996.299	-0.5
997.024	1.5
997.749	0.5
998.473	2.5
999.198	0.5
999.922	0.5
1000.647	0.5
1001.371	2.5
1002.095	-0.5
1002.82	-2.5
1003.544	-1.5
1004.268	3.5
1004.992	2.5
1005.716	3.5
1006.439	2.5
1007.163	2.5
1007.887	3.5
1008.611	1.5
1009.334	-0.5
1010.058	0.5
1010.781	1.5
1011.504	2.5
1012.228	-1.5
1012.951	0.5
1013.674	-0.5
1014.397	1.5
1015.12	0.5
