节点500_425_QEPB04081__536__15-57-13-541.txt的数据

Date: Wed Nov 12 15:57:13 CST 2025
User: PC
Spectrometer: QEPB0408
触发模式: 0
积分时间 (秒): 1.000000E-2
Scans to average: 1
启用暗噪声校正: true
启用非线性校正: false
滑动平均宽度: 0
X轴模式: Wavelengths
Number of Pixels in Spectrum: 1044
>>>>>Begin Spectral Data<<<<<
220.843	-1.12
221.644	1.88
222.444	0.88
223.244	2.88
224.045	1.88
224.845	4.88
225.645	1.88
226.445	1.88
227.245	4.88
228.045	1.88
228.845	0.88
229.645	3.88
230.444	3.88
231.244	4.88
232.043	2.88
232.843	1.88
233.642	3.88
234.442	3.88
235.241	5.88
236.04	6.88
236.839	5.88
237.638	7.88
238.437	6.88
239.236	5.88
240.035	5.88
240.833	8.88
241.632	8.88
242.43	5.88
243.229	3.88
244.027	5.88
244.826	7.88
245.624	7.88
246.422	8.88
247.22	8.88
248.018	7.88
248.816	7.88
249.614	6.88
250.412	6.88
251.21	9.88
252.007	8.88
252.805	8.88
253.602	8.88
254.4	10.88
255.197	8.88
255.994	8.88
256.791	11.88
257.589	12.88
258.386	9.88
259.183	12.88
259.979	12.88
260.776	13.88
261.573	13.88
262.37	10.88
263.166	13.88
263.963	16.88
264.759	13.88
265.556	16.88
266.352	14.88
267.148	16.88
267.944	15.88
268.74	16.88
269.536	16.88
270.332	15.88
271.128	15.88
271.924	16.88
272.719	17.88
273.515	15.88
274.311	22.88
275.106	16.88
275.901	21.88
276.697	20.88
277.492	20.88
278.287	22.88
279.082	20.88
279.877	22.88
280.672	21.88
281.467	19.88
282.262	20.88
283.056	21.88
283.851	23.88
284.646	24.88
285.44	23.88
286.234	20.88
287.029	24.88
287.823	21.88
288.617	23.88
289.411	23.88
290.205	19.88
290.999	20.88
291.793	21.88
292.587	24.88
293.381	18.88
294.174	18.88
294.968	21.88
295.761	17.88
296.555	19.88
297.348	13.88
298.141	19.88
298.935	21.88
299.728	19.88
300.521	17.88
301.314	16.88
302.107	17.88
302.899	15.88
303.692	16.88
304.485	14.88
305.277	13.88
306.07	17.88
306.862	12.88
307.655	15.88
308.447	15.88
309.239	12.88
310.031	15.88
310.823	12.88
311.615	12.88
312.407	12.88
313.199	13.88
313.991	9.88
314.783	10.88
315.574	11.88
316.366	9.88
317.157	10.88
317.949	11.88
318.74	9.88
319.531	10.88
320.322	8.88
321.113	9.88
321.904	9.88
322.695	9.88
323.486	6.88
324.277	11.88
325.068	7.88
325.858	7.88
326.649	7.88
327.439	7.88
328.23	7.88
329.02	7.88
329.81	8.88
330.6	9.88
331.391	7.88
332.181	9.88
332.971	7.88
333.76	7.88
334.55	8.88
335.34	8.88
336.13	9.88
336.919	7.88
337.709	6.88
338.498	6.88
339.287	5.88
340.077	7.88
340.866	8.88
341.655	7.88
342.444	5.88
343.233	5.88
344.022	6.88
344.811	5.88
345.6	8.88
346.388	7.88
347.177	5.88
347.965	6.88
348.754	6.88
349.542	8.88
350.33	8.88
351.119	6.88
351.907	4.88
352.695	6.88
353.483	7.88
354.271	4.88
355.059	5.88
355.846	6.88
356.634	6.88
357.422	6.88
358.209	5.88
358.997	8.88
359.784	5.88
360.571	8.88
361.359	8.88
362.146	6.88
362.933	7.88
363.72	4.88
364.507	6.88
365.294	5.88
366.081	5.88
366.867	8.88
367.654	4.88
368.44	6.88
369.227	4.88
370.013	3.88
370.8	3.88
371.586	9.88
372.372	5.88
373.158	6.88
373.944	5.88
374.73	4.88
375.516	6.88
376.302	7.88
377.088	5.88
377.873	6.88
378.659	6.88
379.445	4.88
380.23	5.88
381.015	4.88
381.801	7.88
382.586	6.88
383.371	6.88
384.156	6.88
384.941	4.88
385.726	7.88
386.511	6.88
387.296	5.88
388.08	6.88
388.865	6.88
389.649	6.88
390.434	5.88
391.218	7.88
392.003	5.88
392.787	7.88
393.571	5.88
394.355	7.88
395.139	7.88
395.923	7.88
396.707	7.88
397.491	7.88
398.274	6.88
399.058	9.88
399.842	7.88
400.625	8.88
401.408	5.88
402.192	9.88
402.975	5.88
403.758	8.88
404.541	8.88
405.324	8.88
406.107	10.88
406.89	9.88
407.673	10.88
408.456	10.88
409.238	9.88
410.021	10.88
410.803	9.88
411.586	9.88
412.368	10.88
413.151	11.88
413.933	10.88
414.715	9.88
415.497	12.88
416.279	10.88
417.061	11.88
417.843	13.88
418.624	10.88
419.406	13.88
420.188	11.88
420.969	11.88
421.751	12.88
422.532	13.88
423.313	14.88
424.095	13.88
424.876	15.88
425.657	15.88
426.438	15.88
427.219	13.88
428	18.88
428.78	17.88
429.561	13.88
430.342	17.88
431.122	16.88
431.903	20.88
432.683	21.88
433.464	19.88
434.244	20.88
435.024	24.88
435.804	24.88
436.584	26.88
437.364	28.88
438.144	30.88
438.924	29.88
439.704	35.88
440.483	31.88
441.263	35.88
442.042	37.88
442.822	40.88
443.601	45.88
444.38	47.88
445.16	51.88
445.939	54.88
446.718	59.88
447.497	61.88
448.276	66.88
449.054	80.88
449.833	78.88
450.612	89.88
451.391	97.88
452.169	105.88
452.948	123.88
453.726	132.88
454.504	143.88
455.282	166.88
456.061	178.88
456.839	205.88
457.617	225.88
458.395	252.88
459.172	275.88
459.95	307.88
460.728	345.88
461.506	380.88
462.283	433.88
463.061	471.88
463.838	527.88
464.615	595.88
465.393	659.88
466.17	725.88
466.947	809.88
467.724	885.88
468.501	987.88
469.278	1074.88
470.055	1213.88
470.831	1329.88
471.608	1484.88
472.385	1608.88
473.161	1782.88
473.938	1960.88
474.714	2173.88
475.49	2375.88
476.266	2577.88
477.043	2835.88
477.819	3124.88
478.595	3409.88
479.371	3715.88
480.146	4083.88
480.922	4427.88
481.698	4843.88
482.473	5259.88
483.249	5739.88
484.024	6257.88
484.8	6854.88
485.575	7418.88
486.35	8039.88
487.126	8713.88
487.901	9463.88
488.676	10256.88
489.451	11085.88
490.225	11936.88
491	12897.88
491.775	13982.88
492.55	14991.88
493.324	16119.88
494.099	17248.88
494.873	18362.88
495.647	19568.88
496.422	20848.88
497.196	22103.88
497.97	23490.88
498.744	24682.88
499.518	25926.88
500.292	27153.88
501.066	28227.88
501.839	29303.88
502.613	30327.88
503.387	31132.88
504.16	31817.88
504.934	32343.88
505.707	32517.88
506.48	32694.88
507.253	32724.88
508.027	32521.88
508.8	32369.88
509.573	31890.88
510.346	31337.88
511.118	30617.88
511.891	29928.88
512.664	28967.88
513.437	28097.88
514.209	27036.88
514.982	26191.88
515.754	25227.88
516.526	24227.88
517.298	23240.88
518.071	22312.88
518.843	21437.88
519.615	20542.88
520.387	19741.88
521.159	19007.88
521.93	18281.88
522.702	17512.88
523.474	16865.88
524.245	16216.88
525.017	15507.88
525.788	14779.88
526.56	14153.88
527.331	13548.88
528.102	12989.88
528.873	12343.88
529.644	11818.88
530.415	11305.88
531.186	10785.88
531.957	10283.88
532.728	9736.88
533.498	9189.88
534.269	8740.88
535.039	8292.88
535.81	7806.88
536.58	7415.88
537.351	6980.88
538.121	6598.88
538.891	6262.88
539.661	5946.88
540.431	5637.88
541.201	5335.88
541.971	5057.88
542.741	4778.88
543.51	4545.88
544.28	4331.88
545.05	4095.88
545.819	3917.88
546.588	3738.88
547.358	3533.88
548.127	3343.88
548.896	3176.88
549.665	3039.88
550.434	2881.88
551.203	2738.88
551.972	2599.88
552.741	2454.88
553.51	2315.88
554.278	2190.88
555.047	2085.88
555.815	1966.88
556.584	1859.88
557.352	1747.88
558.121	1632.88
558.889	1571.88
559.657	1467.88
560.425	1381.88
561.193	1307.88
561.961	1248.88
562.729	1183.88
563.496	1123.88
564.264	1058.88
565.032	1001.88
565.799	950.88
566.567	887.88
567.334	845.88
568.101	800.88
568.869	761.88
569.636	703.88
570.403	665.88
571.17	625.88
571.937	589.88
572.704	571.88
573.471	538.88
574.237	505.88
575.004	475.88
575.771	439.88
576.537	419.88
577.303	389.88
578.07	371.88
578.836	351.88
579.602	324.88
580.368	310.88
581.134	296.88
581.9	289.88
582.666	267.88
583.432	248.88
584.198	247.88
584.964	225.88
585.729	220.88
586.495	210.88
587.26	193.88
588.025	184.88
588.791	173.88
589.556	166.88
590.321	153.88
591.086	150.88
591.851	143.88
592.616	134.88
593.381	127.88
594.146	118.88
594.911	115.88
595.675	108.88
596.44	102.88
597.204	104.88
597.969	96.88
598.733	91.88
599.497	86.88
600.261	83.88
601.025	80.88
601.79	78.88
602.553	72.88
603.317	71.88
604.081	66.88
604.845	63.88
605.609	62.88
606.372	61.88
607.136	55.88
607.899	55.88
608.662	56.88
609.426	49.88
610.189	47.88
610.952	47.88
611.715	44.88
612.478	44.88
613.241	39.88
614.004	39.88
614.767	40.88
615.529	37.88
616.292	34.88
617.055	34.88
617.817	34.88
618.579	31.88
619.342	31.88
620.104	30.88
620.866	27.88
621.628	29.88
622.39	28.88
623.152	24.88
623.914	24.88
624.676	22.88
625.438	20.88
626.199	21.88
626.961	21.88
627.722	21.88
628.484	22.88
629.245	19.88
630.006	20.88
630.768	20.88
631.529	18.88
632.29	19.88
633.051	17.88
633.812	17.88
634.573	12.88
635.333	15.88
636.094	13.88
636.855	11.88
637.615	13.88
638.376	11.88
639.136	12.88
639.896	14.88
640.657	12.88
641.417	11.88
642.177	12.88
642.937	12.88
643.697	12.88
644.457	9.88
645.216	10.88
645.976	10.88
646.736	9.88
647.495	7.88
648.255	9.88
649.014	9.88
649.774	9.88
650.533	8.88
651.292	7.88
652.051	9.88
652.81	8.88
653.569	7.88
654.328	7.88
655.087	7.88
655.846	7.88
656.604	9.88
657.363	6.88
658.121	8.88
658.88	7.88
659.638	11.88
660.397	3.88
661.155	5.88
661.913	3.88
662.671	6.88
663.429	6.88
664.187	8.88
664.945	7.88
665.703	5.88
666.46	6.88
667.218	7.88
667.976	6.88
668.733	6.88
669.49	5.88
670.248	4.88
671.005	5.88
671.762	7.88
672.519	5.88
673.276	7.88
674.033	3.88
674.79	4.88
675.547	4.88
676.304	2.88
677.06	3.88
677.817	3.88
678.574	5.88
679.33	5.88
680.086	6.88
680.843	5.88
681.599	4.88
682.355	3.88
683.111	5.88
683.867	5.88
684.623	6.88
685.379	6.88
686.135	3.88
686.89	3.88
687.646	4.88
688.402	5.88
689.157	4.88
689.912	3.88
690.668	4.88
691.423	5.88
692.178	4.88
692.933	5.88
693.688	3.88
694.443	4.88
695.198	4.88
695.953	3.88
696.708	-0.12
697.462	5.88
698.217	3.88
698.972	6.88
699.726	4.88
700.48	3.88
701.235	4.88
701.989	3.88
702.743	3.88
703.497	2.88
704.251	4.88
705.005	1.88
705.759	3.88
706.513	3.88
707.266	5.88
708.02	5.88
708.774	4.88
709.527	5.88
710.28	4.88
711.034	3.88
711.787	4.88
712.54	3.88
713.293	3.88
714.046	4.88
714.799	3.88
715.552	3.88
716.305	1.88
717.058	2.88
717.81	2.88
718.563	3.88
719.315	3.88
720.068	4.88
720.82	3.88
721.573	4.88
722.325	2.88
723.077	3.88
723.829	4.88
724.581	5.88
725.333	3.88
726.085	4.88
726.836	4.88
727.588	4.88
728.34	4.88
729.091	4.88
729.843	4.88
730.594	3.88
731.346	3.88
732.097	4.88
732.848	2.88
733.599	5.88
734.35	3.88
735.101	2.88
735.852	5.88
736.603	5.88
737.354	3.88
738.104	3.88
738.855	4.88
739.605	6.88
740.356	7.88
741.106	4.88
741.856	5.88
742.607	5.88
743.357	5.88
744.107	6.88
744.857	6.88
745.607	6.88
746.357	4.88
747.106	3.88
747.856	5.88
748.606	7.88
749.355	6.88
750.105	6.88
750.854	5.88
751.603	8.88
752.353	4.88
753.102	7.88
753.851	5.88
754.6	4.88
755.349	4.88
756.098	4.88
756.847	6.88
757.595	4.88
758.344	6.88
759.093	7.88
759.841	6.88
760.589	5.88
761.338	4.88
762.086	6.88
762.834	8.88
763.582	8.88
764.331	7.88
765.079	7.88
765.826	7.88
766.574	8.88
767.322	6.88
768.07	10.88
768.817	8.88
769.565	10.88
770.312	7.88
771.06	9.88
771.807	9.88
772.554	8.88
773.302	11.88
774.049	6.88
774.796	8.88
775.543	9.88
776.29	11.88
777.036	11.88
777.783	8.88
778.53	11.88
779.276	9.88
780.023	9.88
780.769	11.88
781.516	9.88
782.262	6.88
783.008	8.88
783.754	8.88
784.5	10.88
785.246	8.88
785.992	9.88
786.738	8.88
787.484	10.88
788.23	8.88
788.975	10.88
789.721	9.88
790.466	10.88
791.212	9.88
791.957	9.88
792.702	10.88
793.447	8.88
794.193	9.88
794.938	9.88
795.683	8.88
796.427	9.88
797.172	8.88
797.917	8.88
798.662	9.88
799.406	9.88
800.151	8.88
800.895	7.88
801.64	5.88
802.384	7.88
803.128	7.88
803.872	5.88
804.616	7.88
805.36	7.88
806.104	6.88
806.848	6.88
807.592	4.88
808.336	3.88
809.079	5.88
809.823	6.88
810.566	6.88
811.31	6.88
812.053	7.88
812.796	6.88
813.539	6.88
814.283	1.88
815.026	4.88
815.769	5.88
816.511	5.88
817.254	4.88
817.997	7.88
818.74	5.88
819.482	5.88
820.225	1.88
820.967	3.88
821.71	5.88
822.452	4.88
823.194	4.88
823.936	3.88
824.678	3.88
825.42	3.88
826.162	4.88
826.904	3.88
827.646	3.88
828.388	4.88
829.129	3.88
829.871	3.88
830.612	3.88
831.354	3.88
832.095	4.88
832.836	4.88
833.577	4.88
834.319	3.88
835.06	5.88
835.801	3.88
836.542	5.88
837.282	6.88
838.023	3.88
838.764	4.88
839.504	4.88
840.245	3.88
840.985	3.88
841.726	3.88
842.466	3.88
843.206	4.88
843.946	1.88
844.687	4.88
845.427	1.88
846.166	4.88
846.906	3.88
847.646	3.88
848.386	4.88
849.125	1.88
849.865	1.88
850.605	1.88
851.344	1.88
852.083	3.88
852.823	2.88
853.562	1.88
854.301	3.88
855.04	1.88
855.779	2.88
856.518	3.88
857.257	3.88
857.995	6.88
858.734	3.88
859.473	-0.12
860.211	1.88
860.95	0.88
861.688	2.88
862.426	1.88
863.165	0.88
863.903	4.88
864.641	1.88
865.379	2.88
866.117	1.88
866.855	0.88
867.593	0.88
868.33	1.88
869.068	0.88
869.806	1.88
870.543	3.88
871.28	-0.12
872.018	2.88
872.755	0.88
873.492	1.88
874.229	2.88
874.967	4.88
875.703	-0.12
876.44	4.88
877.177	-2.12
877.914	1.88
878.651	1.88
879.387	1.88
880.124	1.88
880.86	0.88
881.597	-2.12
882.333	0.88
883.069	1.88
883.806	0.88
884.542	0.88
885.278	2.88
886.014	0.88
886.749	0.88
887.485	0.88
888.221	-0.12
888.957	-2.12
889.692	0.88
890.428	-0.12
891.163	1.88
891.899	0.88
892.634	0.88
893.369	-1.12
894.104	2.88
894.839	-1.12
895.574	0.88
896.309	1.88
897.044	-0.12
897.779	0.88
898.514	-1.12
899.248	-1.12
899.983	-1.12
900.717	-0.12
901.452	-0.12
902.186	-1.12
902.92	1.88
903.654	-1.12
904.389	1.88
905.123	-1.12
905.857	-2.12
906.59	-0.12
907.324	-0.12
908.058	-1.12
908.792	0.88
909.525	0.88
910.259	-3.12
910.992	-1.12
911.726	0.88
912.459	0.88
913.192	1.88
913.925	-2.12
914.658	-0.12
915.391	0.88
916.124	-0.12
916.857	-0.12
917.59	-0.12
918.323	-0.12
919.055	-2.12
919.788	-0.12
920.521	-1.12
921.253	0.88
921.985	0.88
922.718	0.88
923.45	-0.12
924.182	-0.12
924.914	-0.12
925.646	-1.12
926.378	-0.12
927.11	-1.12
927.841	1.88
928.573	-2.12
929.305	0.88
930.036	1.88
930.768	-1.12
931.499	-1.12
932.23	-0.12
932.962	0.88
933.693	-0.12
934.424	1.88
935.155	0.88
935.886	-2.12
936.617	-0.12
937.348	-4.12
938.078	-1.12
938.809	-1.12
939.54	-0.12
940.27	1.88
941.001	-0.12
941.731	-0.12
942.461	-1.12
943.191	-0.12
943.922	0.88
944.652	-0.12
945.382	-0.12
946.112	-1.12
946.841	1.88
947.571	-2.12
948.301	-1.12
949.031	-0.12
949.76	1.88
950.49	-0.12
951.219	-1.12
951.948	0.88
952.678	-2.12
953.407	0.88
954.136	-0.12
954.865	1.88
955.594	-0.12
956.323	-2.12
957.052	-0.12
957.78	1.88
958.509	-0.12
959.238	-1.12
959.966	-0.12
960.695	-2.12
961.423	-0.12
962.151	-0.12
962.88	-1.12
963.608	-0.12
964.336	-2.12
965.064	-2.12
965.792	0.88
966.52	0.88
967.247	-3.12
967.975	-3.12
968.703	1.88
969.43	0.88
970.158	-1.12
970.885	0.88
971.613	-0.12
972.34	-0.12
973.067	-0.12
973.794	-1.12
974.521	-2.12
975.248	-1.12
975.975	-0.12
976.702	-1.12
977.429	-0.12
978.156	-0.12
978.882	0.88
979.609	-0.12
980.335	-2.12
981.062	-3.12
981.788	1.88
982.514	-1.12
983.24	-1.12
983.967	-0.12
984.693	-0.12
985.419	-2.12
986.144	-1.12
986.87	-1.12
987.596	-0.12
988.322	-0.12
989.047	-0.12
989.773	-2.12
990.498	1.88
991.224	-1.12
991.949	-2.12
992.674	1.88
993.399	0.88
994.124	-2.12
994.849	0.88
995.574	-0.12
996.299	-0.12
997.024	-0.12
997.749	-0.12
998.473	-0.12
999.198	2.88
999.922	-1.12
1000.647	-0.12
1001.371	1.88
1002.095	-2.12
1002.82	-2.12
1003.544	0.88
1004.268	-0.12
1004.992	1.88
1005.716	2.88
1006.439	5.88
1007.163	2.88
1007.887	4.88
1008.611	-0.12
1009.334	-0.12
1010.058	-0.12
1010.781	-1.12
1011.504	-0.12
1012.228	-2.12
1012.951	0.88
1013.674	-1.12
1014.397	1.88
1015.12	-0.12
