节点500_425_QEPB04081__232__15-52-10-034.txt的数据

Date: Wed Nov 12 15:52:10 CST 2025
User: PC
Spectrometer: QEPB0408
触发模式: 0
积分时间 (秒): 1.000000E-2
Scans to average: 1
启用暗噪声校正: true
启用非线性校正: false
滑动平均宽度: 0
X轴模式: Wavelengths
Number of Pixels in Spectrum: 1044
>>>>>Begin Spectral Data<<<<<
220.843	2.62
221.644	1.62
222.444	3.62
223.244	4.62
224.045	3.62
224.845	5.62
225.645	3.62
226.445	5.62
227.245	4.62
228.045	4.62
228.845	5.62
229.645	4.62
230.444	4.62
231.244	6.62
232.043	2.62
232.843	5.62
233.642	5.62
234.442	7.62
235.241	7.62
236.04	5.62
236.839	6.62
237.638	6.62
238.437	5.62
239.236	8.62
240.035	6.62
240.833	7.62
241.632	5.62
242.43	7.62
243.229	8.62
244.027	10.62
244.826	7.62
245.624	8.62
246.422	10.62
247.22	9.62
248.018	9.62
248.816	10.62
249.614	8.62
250.412	11.62
251.21	8.62
252.007	10.62
252.805	10.62
253.602	12.62
254.4	10.62
255.197	10.62
255.994	12.62
256.791	12.62
257.589	13.62
258.386	13.62
259.183	17.62
259.979	13.62
260.776	15.62
261.573	17.62
262.37	13.62
263.166	14.62
263.963	17.62
264.759	19.62
265.556	20.62
266.352	17.62
267.148	16.62
267.944	17.62
268.74	19.62
269.536	22.62
270.332	19.62
271.128	18.62
271.924	20.62
272.719	23.62
273.515	21.62
274.311	22.62
275.106	24.62
275.901	23.62
276.697	25.62
277.492	24.62
278.287	26.62
279.082	24.62
279.877	22.62
280.672	25.62
281.467	23.62
282.262	25.62
283.056	28.62
283.851	26.62
284.646	25.62
285.44	25.62
286.234	23.62
287.029	22.62
287.823	28.62
288.617	26.62
289.411	26.62
290.205	22.62
290.999	24.62
291.793	25.62
292.587	24.62
293.381	25.62
294.174	21.62
294.968	19.62
295.761	22.62
296.555	20.62
297.348	21.62
298.141	18.62
298.935	22.62
299.728	18.62
300.521	18.62
301.314	18.62
302.107	15.62
302.899	17.62
303.692	17.62
304.485	14.62
305.277	18.62
306.07	14.62
306.862	14.62
307.655	17.62
308.447	16.62
309.239	13.62
310.031	13.62
310.823	11.62
311.615	12.62
312.407	12.62
313.199	14.62
313.991	13.62
314.783	11.62
315.574	11.62
316.366	12.62
317.157	10.62
317.949	13.62
318.74	10.62
319.531	10.62
320.322	10.62
321.113	8.62
321.904	8.62
322.695	10.62
323.486	11.62
324.277	9.62
325.068	9.62
325.858	8.62
326.649	9.62
327.439	10.62
328.23	9.62
329.02	7.62
329.81	10.62
330.6	8.62
331.391	9.62
332.181	7.62
332.971	7.62
333.76	11.62
334.55	9.62
335.34	9.62
336.13	9.62
336.919	9.62
337.709	8.62
338.498	7.62
339.287	8.62
340.077	8.62
340.866	10.62
341.655	10.62
342.444	6.62
343.233	9.62
344.022	10.62
344.811	7.62
345.6	7.62
346.388	6.62
347.177	6.62
347.965	7.62
348.754	8.62
349.542	4.62
350.33	10.62
351.119	10.62
351.907	7.62
352.695	7.62
353.483	7.62
354.271	9.62
355.059	10.62
355.846	9.62
356.634	6.62
357.422	6.62
358.209	9.62
358.997	5.62
359.784	4.62
360.571	7.62
361.359	6.62
362.146	10.62
362.933	7.62
363.72	8.62
364.507	3.62
365.294	6.62
366.081	5.62
366.867	7.62
367.654	5.62
368.44	7.62
369.227	6.62
370.013	8.62
370.8	7.62
371.586	7.62
372.372	8.62
373.158	6.62
373.944	6.62
374.73	7.62
375.516	8.62
376.302	5.62
377.088	8.62
377.873	5.62
378.659	7.62
379.445	8.62
380.23	7.62
381.015	6.62
381.801	7.62
382.586	9.62
383.371	5.62
384.156	8.62
384.941	6.62
385.726	8.62
386.511	10.62
387.296	8.62
388.08	9.62
388.865	8.62
389.649	8.62
390.434	7.62
391.218	9.62
392.003	10.62
392.787	8.62
393.571	8.62
394.355	8.62
395.139	7.62
395.923	8.62
396.707	11.62
397.491	10.62
398.274	9.62
399.058	8.62
399.842	8.62
400.625	9.62
401.408	12.62
402.192	10.62
402.975	9.62
403.758	11.62
404.541	8.62
405.324	11.62
406.107	11.62
406.89	13.62
407.673	12.62
408.456	10.62
409.238	11.62
410.021	12.62
410.803	12.62
411.586	11.62
412.368	12.62
413.151	10.62
413.933	10.62
414.715	12.62
415.497	9.62
416.279	14.62
417.061	14.62
417.843	12.62
418.624	13.62
419.406	12.62
420.188	12.62
420.969	14.62
421.751	16.62
422.532	17.62
423.313	15.62
424.095	16.62
424.876	15.62
425.657	15.62
426.438	17.62
427.219	14.62
428	20.62
428.78	19.62
429.561	18.62
430.342	17.62
431.122	18.62
431.903	18.62
432.683	22.62
433.464	23.62
434.244	25.62
435.024	26.62
435.804	23.62
436.584	26.62
437.364	28.62
438.144	28.62
438.924	28.62
439.704	32.62
440.483	32.62
441.263	38.62
442.042	38.62
442.822	40.62
443.601	42.62
444.38	46.62
445.16	52.62
445.939	55.62
446.718	54.62
447.497	58.62
448.276	67.62
449.054	70.62
449.833	79.62
450.612	85.62
451.391	92.62
452.169	98.62
452.948	111.62
453.726	121.62
454.504	135.62
455.282	146.62
456.061	169.62
456.839	178.62
457.617	204.62
458.395	231.62
459.172	252.62
459.95	283.62
460.728	316.62
461.506	348.62
462.283	392.62
463.061	436.62
463.838	491.62
464.615	547.62
465.393	615.62
466.17	684.62
466.947	759.62
467.724	837.62
468.501	944.62
469.278	1051.62
470.055	1155.62
470.831	1297.62
471.608	1438.62
472.385	1586.62
473.161	1776.62
473.938	1945.62
474.714	2156.62
475.49	2379.62
476.266	2618.62
477.043	2887.62
477.819	3189.62
478.595	3508.62
479.371	3875.62
480.146	4264.62
480.922	4670.62
481.698	5149.62
482.473	5644.62
483.249	6199.62
484.024	6790.62
484.8	7442.62
485.575	8156.62
486.35	8858.62
487.126	9710.62
487.901	10601.62
488.676	11571.62
489.451	12546.62
490.225	13609.62
491	14840.62
491.775	16040.62
492.55	17347.62
493.324	18709.62
494.099	20038.62
494.873	21386.62
495.647	22893.62
496.422	24325.62
497.196	25819.62
497.97	27328.62
498.744	28770.62
499.518	30114.62
500.292	31367.62
501.066	32509.62
501.839	33566.62
502.613	34533.62
503.387	35168.62
504.16	35666.62
504.934	35924.62
505.707	35932.62
506.48	35738.62
507.253	35386.62
508.027	34948.62
508.8	34303.62
509.573	33568.62
510.346	32712.62
511.118	31770.62
511.891	30684.62
512.664	29568.62
513.437	28379.62
514.209	27146.62
514.982	26186.62
515.754	25031.62
516.526	24023.62
517.298	22898.62
518.071	21967.62
518.843	21033.62
519.615	20197.62
520.387	19378.62
521.159	18734.62
521.93	18014.62
522.702	17262.62
523.474	16583.62
524.245	15899.62
525.017	15129.62
525.788	14447.62
526.56	13802.62
527.331	13151.62
528.102	12588.62
528.873	11990.62
529.644	11382.62
530.415	10834.62
531.186	10302.62
531.957	9758.62
532.728	9229.62
533.498	8727.62
534.269	8233.62
535.039	7816.62
535.81	7357.62
536.58	6929.62
537.351	6575.62
538.121	6214.62
538.891	5882.62
539.661	5566.62
540.431	5292.62
541.201	5009.62
541.971	4728.62
542.741	4497.62
543.51	4269.62
544.28	4051.62
545.05	3840.62
545.819	3665.62
546.588	3485.62
547.358	3309.62
548.127	3121.62
548.896	2988.62
549.665	2828.62
550.434	2688.62
551.203	2536.62
551.972	2413.62
552.741	2260.62
553.51	2142.62
554.278	2018.62
555.047	1907.62
555.815	1814.62
556.584	1707.62
557.352	1609.62
558.121	1522.62
558.889	1444.62
559.657	1348.62
560.425	1278.62
561.193	1197.62
561.961	1147.62
562.729	1085.62
563.496	1022.62
564.264	977.62
565.032	911.62
565.799	872.62
566.567	813.62
567.334	785.62
568.101	731.62
568.869	683.62
569.636	646.62
570.403	614.62
571.17	579.62
571.937	534.62
572.704	517.62
573.471	498.62
574.237	454.62
575.004	429.62
575.771	414.62
576.537	378.62
577.303	360.62
578.07	341.62
578.836	318.62
579.602	300.62
580.368	287.62
581.134	274.62
581.9	253.62
582.666	246.62
583.432	236.62
584.198	221.62
584.964	211.62
585.729	200.62
586.495	186.62
587.26	176.62
588.025	170.62
588.791	162.62
589.556	155.62
590.321	147.62
591.086	144.62
591.851	130.62
592.616	124.62
593.381	117.62
594.146	113.62
594.911	107.62
595.675	105.62
596.44	94.62
597.204	92.62
597.969	90.62
598.733	85.62
599.497	80.62
600.261	79.62
601.025	73.62
601.79	65.62
602.553	69.62
603.317	66.62
604.081	63.62
604.845	62.62
605.609	56.62
606.372	54.62
607.136	53.62
607.899	54.62
608.662	50.62
609.426	48.62
610.189	45.62
610.952	42.62
611.715	43.62
612.478	39.62
613.241	36.62
614.004	39.62
614.767	38.62
615.529	33.62
616.292	36.62
617.055	33.62
617.817	32.62
618.579	29.62
619.342	33.62
620.104	30.62
620.866	26.62
621.628	24.62
622.39	24.62
623.152	25.62
623.914	25.62
624.676	21.62
625.438	21.62
626.199	25.62
626.961	20.62
627.722	23.62
628.484	19.62
629.245	18.62
630.006	21.62
630.768	17.62
631.529	17.62
632.29	17.62
633.051	17.62
633.812	18.62
634.573	15.62
635.333	13.62
636.094	14.62
636.855	17.62
637.615	15.62
638.376	16.62
639.136	13.62
639.896	10.62
640.657	13.62
641.417	11.62
642.177	14.62
642.937	11.62
643.697	11.62
644.457	12.62
645.216	10.62
645.976	13.62
646.736	11.62
647.495	11.62
648.255	11.62
649.014	10.62
649.774	10.62
650.533	10.62
651.292	10.62
652.051	7.62
652.81	8.62
653.569	8.62
654.328	10.62
655.087	11.62
655.846	7.62
656.604	9.62
657.363	10.62
658.121	8.62
658.88	9.62
659.638	10.62
660.397	7.62
661.155	8.62
661.913	6.62
662.671	7.62
663.429	6.62
664.187	8.62
664.945	8.62
665.703	4.62
666.46	7.62
667.218	4.62
667.976	9.62
668.733	6.62
669.49	7.62
670.248	6.62
671.005	4.62
671.762	6.62
672.519	5.62
673.276	7.62
674.033	7.62
674.79	5.62
675.547	7.62
676.304	5.62
677.06	5.62
677.817	5.62
678.574	5.62
679.33	7.62
680.086	7.62
680.843	3.62
681.599	6.62
682.355	4.62
683.111	7.62
683.867	7.62
684.623	6.62
685.379	6.62
686.135	6.62
686.89	4.62
687.646	7.62
688.402	5.62
689.157	4.62
689.912	6.62
690.668	5.62
691.423	6.62
692.178	5.62
692.933	5.62
693.688	8.62
694.443	5.62
695.198	6.62
695.953	5.62
696.708	7.62
697.462	4.62
698.217	5.62
698.972	5.62
699.726	6.62
700.48	8.62
701.235	5.62
701.989	4.62
702.743	6.62
703.497	6.62
704.251	4.62
705.005	5.62
705.759	6.62
706.513	3.62
707.266	5.62
708.02	5.62
708.774	4.62
709.527	5.62
710.28	5.62
711.034	4.62
711.787	3.62
712.54	5.62
713.293	5.62
714.046	4.62
714.799	5.62
715.552	6.62
716.305	5.62
717.058	6.62
717.81	3.62
718.563	6.62
719.315	4.62
720.068	8.62
720.82	5.62
721.573	4.62
722.325	4.62
723.077	6.62
723.829	6.62
724.581	5.62
725.333	4.62
726.085	3.62
726.836	5.62
727.588	5.62
728.34	5.62
729.091	5.62
729.843	6.62
730.594	4.62
731.346	6.62
732.097	5.62
732.848	8.62
733.599	6.62
734.35	6.62
735.101	5.62
735.852	5.62
736.603	4.62
737.354	7.62
738.104	6.62
738.855	7.62
739.605	5.62
740.356	7.62
741.106	7.62
741.856	7.62
742.607	6.62
743.357	7.62
744.107	7.62
744.857	4.62
745.607	9.62
746.357	7.62
747.106	6.62
747.856	8.62
748.606	8.62
749.355	6.62
750.105	8.62
750.854	9.62
751.603	5.62
752.353	8.62
753.102	7.62
753.851	7.62
754.6	9.62
755.349	7.62
756.098	7.62
756.847	8.62
757.595	5.62
758.344	6.62
759.093	8.62
759.841	9.62
760.589	9.62
761.338	8.62
762.086	9.62
762.834	8.62
763.582	8.62
764.331	10.62
765.079	10.62
765.826	8.62
766.574	10.62
767.322	8.62
768.07	9.62
768.817	11.62
769.565	10.62
770.312	11.62
771.06	10.62
771.807	10.62
772.554	11.62
773.302	11.62
774.049	11.62
774.796	10.62
775.543	10.62
776.29	10.62
777.036	11.62
777.783	13.62
778.53	11.62
779.276	10.62
780.023	10.62
780.769	10.62
781.516	13.62
782.262	11.62
783.008	13.62
783.754	13.62
784.5	10.62
785.246	13.62
785.992	11.62
786.738	10.62
787.484	12.62
788.23	10.62
788.975	12.62
789.721	13.62
790.466	11.62
791.212	12.62
791.957	11.62
792.702	11.62
793.447	10.62
794.193	9.62
794.938	9.62
795.683	10.62
796.427	9.62
797.172	9.62
797.917	11.62
798.662	8.62
799.406	10.62
800.151	9.62
800.895	9.62
801.64	10.62
802.384	7.62
803.128	9.62
803.872	7.62
804.616	9.62
805.36	9.62
806.104	6.62
806.848	9.62
807.592	4.62
808.336	7.62
809.079	8.62
809.823	7.62
810.566	7.62
811.31	6.62
812.053	7.62
812.796	7.62
813.539	5.62
814.283	6.62
815.026	5.62
815.769	8.62
816.511	6.62
817.254	6.62
817.997	6.62
818.74	5.62
819.482	6.62
820.225	9.62
820.967	6.62
821.71	6.62
822.452	8.62
823.194	7.62
823.936	7.62
824.678	7.62
825.42	7.62
826.162	6.62
826.904	5.62
827.646	3.62
828.388	6.62
829.129	3.62
829.871	3.62
830.612	4.62
831.354	5.62
832.095	3.62
832.836	6.62
833.577	4.62
834.319	4.62
835.06	6.62
835.801	2.62
836.542	2.62
837.282	6.62
838.023	4.62
838.764	4.62
839.504	5.62
840.245	6.62
840.985	4.62
841.726	5.62
842.466	5.62
843.206	3.62
843.946	4.62
844.687	4.62
845.427	3.62
846.166	3.62
846.906	0.62
847.646	5.62
848.386	1.62
849.125	5.62
849.865	3.62
850.605	4.62
851.344	2.62
852.083	4.62
852.823	3.62
853.562	1.62
854.301	2.62
855.04	2.62
855.779	2.62
856.518	2.62
857.257	3.62
857.995	2.62
858.734	1.62
859.473	2.62
860.211	3.62
860.95	-0.38
861.688	3.62
862.426	1.62
863.165	2.62
863.903	4.62
864.641	2.62
865.379	3.62
866.117	1.62
866.855	1.62
867.593	1.62
868.33	3.62
869.068	4.62
869.806	2.62
870.543	3.62
871.28	1.62
872.018	1.62
872.755	-0.38
873.492	2.62
874.229	0.62
874.967	0.62
875.703	3.62
876.44	0.62
877.177	0.62
877.914	1.62
878.651	-0.38
879.387	2.62
880.124	2.62
880.86	1.62
881.597	1.62
882.333	1.62
883.069	1.62
883.806	1.62
884.542	1.62
885.278	1.62
886.014	2.62
886.749	1.62
887.485	0.62
888.221	1.62
888.957	0.62
889.692	1.62
890.428	1.62
891.163	2.62
891.899	0.62
892.634	2.62
893.369	-1.38
894.104	1.62
894.839	1.62
895.574	-0.38
896.309	0.62
897.044	0.62
897.779	0.62
898.514	2.62
899.248	0.62
899.983	-0.38
900.717	0.62
901.452	0.62
902.186	-0.38
902.92	0.62
903.654	0.62
904.389	0.62
905.123	-0.38
905.857	2.62
906.59	-1.38
907.324	-0.38
908.058	0.62
908.792	-0.38
909.525	1.62
910.259	0.62
910.992	1.62
911.726	-0.38
912.459	0.62
913.192	-1.38
913.925	-0.38
914.658	0.62
915.391	0.62
916.124	1.62
916.857	0.62
917.59	1.62
918.323	2.62
919.055	-0.38
919.788	1.62
920.521	0.62
921.253	1.62
921.985	0.62
922.718	0.62
923.45	0.62
924.182	0.62
924.914	2.62
925.646	0.62
926.378	4.62
927.11	2.62
927.841	0.62
928.573	2.62
929.305	-1.38
930.036	0.62
930.768	-0.38
931.499	1.62
932.23	-0.38
932.962	0.62
933.693	0.62
934.424	-1.38
935.155	2.62
935.886	0.62
936.617	0.62
937.348	0.62
938.078	-1.38
938.809	-0.38
939.54	-0.38
940.27	1.62
941.001	-0.38
941.731	1.62
942.461	0.62
943.191	-1.38
943.922	0.62
944.652	-1.38
945.382	0.62
946.112	-0.38
946.841	-1.38
947.571	2.62
948.301	-1.38
949.031	0.62
949.76	2.62
950.49	0.62
951.219	2.62
951.948	-0.38
952.678	1.62
953.407	0.62
954.136	2.62
954.865	0.62
955.594	1.62
956.323	1.62
957.052	1.62
957.78	-0.38
958.509	0.62
959.238	-0.38
959.966	-1.38
960.695	-0.38
961.423	-1.38
962.151	-0.38
962.88	0.62
963.608	1.62
964.336	-1.38
965.064	1.62
965.792	0.62
966.52	2.62
967.247	0.62
967.975	0.62
968.703	-0.38
969.43	-2.38
970.158	0.62
970.885	0.62
971.613	-0.38
972.34	1.62
973.067	1.62
973.794	0.62
974.521	-0.38
975.248	0.62
975.975	0.62
976.702	-0.38
977.429	-0.38
978.156	1.62
978.882	0.62
979.609	1.62
980.335	-0.38
981.062	0.62
981.788	0.62
982.514	0.62
983.24	1.62
983.967	-0.38
984.693	1.62
985.419	0.62
986.144	1.62
986.87	0.62
987.596	1.62
988.322	-0.38
989.047	0.62
989.773	0.62
990.498	1.62
991.224	0.62
991.949	-1.38
992.674	2.62
993.399	0.62
994.124	-0.38
994.849	-1.38
995.574	0.62
996.299	-2.38
997.024	-1.38
997.749	0.62
998.473	0.62
999.198	-1.38
999.922	0.62
1000.647	-1.38
1001.371	2.62
1002.095	-0.38
1002.82	0.62
1003.544	-1.38
1004.268	4.62
1004.992	0.62
1005.716	4.62
1006.439	1.62
1007.163	3.62
1007.887	3.62
1008.611	2.62
1009.334	0.62
1010.058	0.62
1010.781	1.62
1011.504	0.62
1012.228	-0.38
1012.951	1.62
1013.674	2.62
1014.397	-1.38
1015.12	-4.38
