节点500_425_QEPB04081__226__15-52-04-060.txt的数据

Date: Wed Nov 12 15:52:04 CST 2025
User: PC
Spectrometer: QEPB0408
触发模式: 0
积分时间 (秒): 1.000000E-2
Scans to average: 1
启用暗噪声校正: true
启用非线性校正: false
滑动平均宽度: 0
X轴模式: Wavelengths
Number of Pixels in Spectrum: 1044
>>>>>Begin Spectral Data<<<<<
220.843	1.88
221.644	3.88
222.444	2.88
223.244	4.88
224.045	5.88
224.845	4.88
225.645	4.88
226.445	5.88
227.245	1.88
228.045	5.88
228.845	4.88
229.645	4.88
230.444	4.88
231.244	9.88
232.043	4.88
232.843	5.88
233.642	7.88
234.442	5.88
235.241	6.88
236.04	4.88
236.839	5.88
237.638	7.88
238.437	5.88
239.236	6.88
240.035	7.88
240.833	8.88
241.632	6.88
242.43	6.88
243.229	9.88
244.027	7.88
244.826	6.88
245.624	9.88
246.422	9.88
247.22	9.88
248.018	11.88
248.816	9.88
249.614	9.88
250.412	10.88
251.21	8.88
252.007	9.88
252.805	11.88
253.602	13.88
254.4	12.88
255.197	13.88
255.994	12.88
256.791	12.88
257.589	14.88
258.386	10.88
259.183	16.88
259.979	14.88
260.776	12.88
261.573	17.88
262.37	16.88
263.166	15.88
263.963	19.88
264.759	18.88
265.556	20.88
266.352	19.88
267.148	20.88
267.944	19.88
268.74	21.88
269.536	20.88
270.332	20.88
271.128	20.88
271.924	21.88
272.719	21.88
273.515	20.88
274.311	20.88
275.106	25.88
275.901	24.88
276.697	24.88
277.492	22.88
278.287	25.88
279.082	26.88
279.877	25.88
280.672	25.88
281.467	26.88
282.262	24.88
283.056	26.88
283.851	24.88
284.646	25.88
285.44	28.88
286.234	25.88
287.029	22.88
287.823	27.88
288.617	21.88
289.411	23.88
290.205	25.88
290.999	23.88
291.793	21.88
292.587	25.88
293.381	24.88
294.174	23.88
294.968	19.88
295.761	21.88
296.555	21.88
297.348	18.88
298.141	21.88
298.935	21.88
299.728	20.88
300.521	17.88
301.314	17.88
302.107	20.88
302.899	17.88
303.692	17.88
304.485	16.88
305.277	16.88
306.07	14.88
306.862	14.88
307.655	16.88
308.447	16.88
309.239	15.88
310.031	16.88
310.823	13.88
311.615	13.88
312.407	12.88
313.199	12.88
313.991	13.88
314.783	14.88
315.574	14.88
316.366	12.88
317.157	10.88
317.949	11.88
318.74	11.88
319.531	11.88
320.322	9.88
321.113	11.88
321.904	8.88
322.695	10.88
323.486	10.88
324.277	10.88
325.068	10.88
325.858	7.88
326.649	9.88
327.439	10.88
328.23	9.88
329.02	8.88
329.81	7.88
330.6	7.88
331.391	10.88
332.181	9.88
332.971	12.88
333.76	10.88
334.55	10.88
335.34	12.88
336.13	11.88
336.919	8.88
337.709	9.88
338.498	9.88
339.287	8.88
340.077	10.88
340.866	8.88
341.655	10.88
342.444	8.88
343.233	4.88
344.022	6.88
344.811	7.88
345.6	7.88
346.388	8.88
347.177	8.88
347.965	10.88
348.754	7.88
349.542	8.88
350.33	7.88
351.119	8.88
351.907	9.88
352.695	7.88
353.483	9.88
354.271	9.88
355.059	9.88
355.846	8.88
356.634	7.88
357.422	9.88
358.209	6.88
358.997	8.88
359.784	9.88
360.571	5.88
361.359	6.88
362.146	6.88
362.933	9.88
363.72	5.88
364.507	6.88
365.294	6.88
366.081	9.88
366.867	7.88
367.654	7.88
368.44	8.88
369.227	5.88
370.013	6.88
370.8	8.88
371.586	6.88
372.372	7.88
373.158	6.88
373.944	8.88
374.73	7.88
375.516	6.88
376.302	6.88
377.088	6.88
377.873	8.88
378.659	8.88
379.445	6.88
380.23	6.88
381.015	6.88
381.801	6.88
382.586	10.88
383.371	7.88
384.156	6.88
384.941	9.88
385.726	8.88
386.511	6.88
387.296	8.88
388.08	7.88
388.865	9.88
389.649	6.88
390.434	8.88
391.218	9.88
392.003	10.88
392.787	10.88
393.571	9.88
394.355	8.88
395.139	7.88
395.923	7.88
396.707	10.88
397.491	10.88
398.274	13.88
399.058	9.88
399.842	10.88
400.625	10.88
401.408	11.88
402.192	12.88
402.975	9.88
403.758	10.88
404.541	8.88
405.324	11.88
406.107	11.88
406.89	7.88
407.673	11.88
408.456	11.88
409.238	13.88
410.021	12.88
410.803	11.88
411.586	12.88
412.368	11.88
413.151	12.88
413.933	12.88
414.715	14.88
415.497	13.88
416.279	12.88
417.061	14.88
417.843	13.88
418.624	15.88
419.406	13.88
420.188	12.88
420.969	14.88
421.751	14.88
422.532	15.88
423.313	14.88
424.095	14.88
424.876	17.88
425.657	18.88
426.438	17.88
427.219	15.88
428	19.88
428.78	18.88
429.561	18.88
430.342	19.88
431.122	20.88
431.903	20.88
432.683	21.88
433.464	21.88
434.244	24.88
435.024	24.88
435.804	27.88
436.584	23.88
437.364	28.88
438.144	30.88
438.924	32.88
439.704	33.88
440.483	32.88
441.263	36.88
442.042	40.88
442.822	41.88
443.601	43.88
444.38	48.88
445.16	50.88
445.939	51.88
446.718	59.88
447.497	61.88
448.276	65.88
449.054	66.88
449.833	72.88
450.612	82.88
451.391	91.88
452.169	103.88
452.948	114.88
453.726	117.88
454.504	135.88
455.282	153.88
456.061	166.88
456.839	186.88
457.617	201.88
458.395	226.88
459.172	253.88
459.95	284.88
460.728	308.88
461.506	344.88
462.283	394.88
463.061	449.88
463.838	491.88
464.615	556.88
465.393	620.88
466.17	679.88
466.947	760.88
467.724	853.88
468.501	930.88
469.278	1044.88
470.055	1172.88
470.831	1284.88
471.608	1432.88
472.385	1572.88
473.161	1751.88
473.938	1946.88
474.714	2158.88
475.49	2354.88
476.266	2627.88
477.043	2896.88
477.819	3199.88
478.595	3546.88
479.371	3871.88
480.146	4262.88
480.922	4670.88
481.698	5145.88
482.473	5630.88
483.249	6197.88
484.024	6807.88
484.8	7442.88
485.575	8165.88
486.35	8867.88
487.126	9674.88
487.901	10620.88
488.676	11535.88
489.451	12551.88
490.225	13695.88
491	14779.88
491.775	16100.88
492.55	17360.88
493.324	18795.88
494.099	20113.88
494.873	21454.88
495.647	22951.88
496.422	24304.88
497.196	25851.88
497.97	27450.88
498.744	28815.88
499.518	30148.88
500.292	31408.88
501.066	32520.88
501.839	33631.88
502.613	34593.88
503.387	35237.88
504.16	35727.88
504.934	35981.88
505.707	35891.88
506.48	35772.88
507.253	35410.88
508.027	35028.88
508.8	34366.88
509.573	33588.88
510.346	32711.88
511.118	31751.88
511.891	30692.88
512.664	29483.88
513.437	28332.88
514.209	27192.88
514.982	26174.88
515.754	25144.88
516.526	23926.88
517.298	22947.88
518.071	22012.88
518.843	21106.88
519.615	20212.88
520.387	19395.88
521.159	18640.88
521.93	17966.88
522.702	17203.88
523.474	16521.88
524.245	15875.88
525.017	15167.88
525.788	14419.88
526.56	13785.88
527.331	13183.88
528.102	12531.88
528.873	11946.88
529.644	11387.88
530.415	10798.88
531.186	10296.88
531.957	9746.88
532.728	9250.88
533.498	8730.88
534.269	8202.88
535.039	7807.88
535.81	7404.88
536.58	6971.88
537.351	6562.88
538.121	6198.88
538.891	5885.88
539.661	5569.88
540.431	5282.88
541.201	4960.88
541.971	4738.88
542.741	4496.88
543.51	4275.88
544.28	4055.88
545.05	3852.88
545.819	3667.88
546.588	3490.88
547.358	3298.88
548.127	3136.88
548.896	2977.88
549.665	2831.88
550.434	2691.88
551.203	2557.88
551.972	2402.88
552.741	2268.88
553.51	2130.88
554.278	2024.88
555.047	1902.88
555.815	1799.88
556.584	1710.88
557.352	1611.88
558.121	1520.88
558.889	1428.88
559.657	1365.88
560.425	1278.88
561.193	1209.88
561.961	1152.88
562.729	1075.88
563.496	1025.88
564.264	965.88
565.032	906.88
565.799	864.88
566.567	819.88
567.334	780.88
568.101	722.88
568.869	688.88
569.636	662.88
570.403	607.88
571.17	576.88
571.937	539.88
572.704	516.88
573.471	484.88
574.237	461.88
575.004	436.88
575.771	403.88
576.537	386.88
577.303	360.88
578.07	341.88
578.836	322.88
579.602	306.88
580.368	284.88
581.134	271.88
581.9	262.88
582.666	242.88
583.432	232.88
584.198	217.88
584.964	206.88
585.729	195.88
586.495	195.88
587.26	176.88
588.025	170.88
588.791	156.88
589.556	152.88
590.321	142.88
591.086	135.88
591.851	127.88
592.616	123.88
593.381	117.88
594.146	111.88
594.911	105.88
595.675	103.88
596.44	101.88
597.204	91.88
597.969	88.88
598.733	84.88
599.497	82.88
600.261	78.88
601.025	77.88
601.79	72.88
602.553	70.88
603.317	62.88
604.081	63.88
604.845	58.88
605.609	58.88
606.372	57.88
607.136	58.88
607.899	51.88
608.662	54.88
609.426	48.88
610.189	44.88
610.952	41.88
611.715	40.88
612.478	40.88
613.241	37.88
614.004	37.88
614.767	35.88
615.529	34.88
616.292	37.88
617.055	33.88
617.817	29.88
618.579	31.88
619.342	30.88
620.104	29.88
620.866	26.88
621.628	24.88
622.39	24.88
623.152	25.88
623.914	24.88
624.676	23.88
625.438	26.88
626.199	22.88
626.961	23.88
627.722	19.88
628.484	23.88
629.245	17.88
630.006	22.88
630.768	18.88
631.529	19.88
632.29	18.88
633.051	17.88
633.812	17.88
634.573	16.88
635.333	15.88
636.094	14.88
636.855	13.88
637.615	14.88
638.376	12.88
639.136	14.88
639.896	12.88
640.657	12.88
641.417	12.88
642.177	11.88
642.937	12.88
643.697	13.88
644.457	12.88
645.216	14.88
645.976	12.88
646.736	11.88
647.495	8.88
648.255	10.88
649.014	12.88
649.774	10.88
650.533	10.88
651.292	10.88
652.051	11.88
652.81	10.88
653.569	10.88
654.328	7.88
655.087	8.88
655.846	9.88
656.604	5.88
657.363	9.88
658.121	9.88
658.88	7.88
659.638	10.88
660.397	10.88
661.155	8.88
661.913	7.88
662.671	7.88
663.429	7.88
664.187	7.88
664.945	8.88
665.703	7.88
666.46	6.88
667.218	6.88
667.976	5.88
668.733	8.88
669.49	6.88
670.248	4.88
671.005	5.88
671.762	7.88
672.519	7.88
673.276	6.88
674.033	7.88
674.79	5.88
675.547	5.88
676.304	4.88
677.06	6.88
677.817	5.88
678.574	7.88
679.33	5.88
680.086	5.88
680.843	7.88
681.599	6.88
682.355	7.88
683.111	7.88
683.867	6.88
684.623	6.88
685.379	5.88
686.135	3.88
686.89	5.88
687.646	5.88
688.402	7.88
689.157	5.88
689.912	7.88
690.668	5.88
691.423	4.88
692.178	5.88
692.933	4.88
693.688	6.88
694.443	5.88
695.198	7.88
695.953	7.88
696.708	5.88
697.462	5.88
698.217	4.88
698.972	6.88
699.726	4.88
700.48	3.88
701.235	4.88
701.989	5.88
702.743	5.88
703.497	2.88
704.251	6.88
705.005	3.88
705.759	4.88
706.513	6.88
707.266	4.88
708.02	3.88
708.774	5.88
709.527	4.88
710.28	6.88
711.034	2.88
711.787	7.88
712.54	5.88
713.293	6.88
714.046	5.88
714.799	4.88
715.552	7.88
716.305	3.88
717.058	6.88
717.81	3.88
718.563	6.88
719.315	4.88
720.068	4.88
720.82	6.88
721.573	6.88
722.325	6.88
723.077	7.88
723.829	7.88
724.581	5.88
725.333	2.88
726.085	7.88
726.836	5.88
727.588	5.88
728.34	5.88
729.091	4.88
729.843	6.88
730.594	5.88
731.346	5.88
732.097	4.88
732.848	8.88
733.599	7.88
734.35	5.88
735.101	6.88
735.852	6.88
736.603	4.88
737.354	8.88
738.104	3.88
738.855	6.88
739.605	4.88
740.356	6.88
741.106	6.88
741.856	6.88
742.607	7.88
743.357	3.88
744.107	7.88
744.857	8.88
745.607	6.88
746.357	8.88
747.106	9.88
747.856	7.88
748.606	8.88
749.355	7.88
750.105	8.88
750.854	7.88
751.603	8.88
752.353	8.88
753.102	9.88
753.851	10.88
754.6	7.88
755.349	8.88
756.098	7.88
756.847	9.88
757.595	6.88
758.344	9.88
759.093	9.88
759.841	9.88
760.589	10.88
761.338	5.88
762.086	9.88
762.834	9.88
763.582	10.88
764.331	10.88
765.079	9.88
765.826	11.88
766.574	9.88
767.322	8.88
768.07	12.88
768.817	10.88
769.565	10.88
770.312	10.88
771.06	10.88
771.807	9.88
772.554	11.88
773.302	13.88
774.049	10.88
774.796	10.88
775.543	12.88
776.29	12.88
777.036	12.88
777.783	12.88
778.53	12.88
779.276	10.88
780.023	11.88
780.769	11.88
781.516	11.88
782.262	12.88
783.008	10.88
783.754	12.88
784.5	10.88
785.246	13.88
785.992	10.88
786.738	12.88
787.484	12.88
788.23	12.88
788.975	12.88
789.721	12.88
790.466	12.88
791.212	11.88
791.957	10.88
792.702	10.88
793.447	9.88
794.193	12.88
794.938	9.88
795.683	11.88
796.427	12.88
797.172	7.88
797.917	10.88
798.662	10.88
799.406	10.88
800.151	9.88
800.895	9.88
801.64	10.88
802.384	9.88
803.128	10.88
803.872	8.88
804.616	7.88
805.36	10.88
806.104	9.88
806.848	8.88
807.592	8.88
808.336	8.88
809.079	8.88
809.823	6.88
810.566	6.88
811.31	6.88
812.053	6.88
812.796	5.88
813.539	5.88
814.283	5.88
815.026	6.88
815.769	7.88
816.511	7.88
817.254	5.88
817.997	5.88
818.74	6.88
819.482	5.88
820.225	7.88
820.967	8.88
821.71	5.88
822.452	7.88
823.194	5.88
823.936	5.88
824.678	5.88
825.42	6.88
826.162	5.88
826.904	7.88
827.646	4.88
828.388	2.88
829.129	4.88
829.871	5.88
830.612	4.88
831.354	4.88
832.095	5.88
832.836	4.88
833.577	7.88
834.319	3.88
835.06	4.88
835.801	5.88
836.542	2.88
837.282	5.88
838.023	6.88
838.764	4.88
839.504	4.88
840.245	5.88
840.985	5.88
841.726	2.88
842.466	4.88
843.206	3.88
843.946	5.88
844.687	4.88
845.427	5.88
846.166	4.88
846.906	3.88
847.646	4.88
848.386	3.88
849.125	4.88
849.865	4.88
850.605	3.88
851.344	4.88
852.083	2.88
852.823	3.88
853.562	5.88
854.301	1.88
855.04	5.88
855.779	2.88
856.518	4.88
857.257	4.88
857.995	5.88
858.734	3.88
859.473	2.88
860.211	5.88
860.95	1.88
861.688	2.88
862.426	3.88
863.165	2.88
863.903	4.88
864.641	3.88
865.379	2.88
866.117	2.88
866.855	1.88
867.593	2.88
868.33	2.88
869.068	4.88
869.806	2.88
870.543	3.88
871.28	4.88
872.018	0.88
872.755	1.88
873.492	2.88
874.229	3.88
874.967	2.88
875.703	1.88
876.44	0.88
877.177	2.88
877.914	0.88
878.651	1.88
879.387	1.88
880.124	3.88
880.86	-0.12
881.597	1.88
882.333	1.88
883.069	2.88
883.806	0.88
884.542	1.88
885.278	-0.12
886.014	0.88
886.749	3.88
887.485	1.88
888.221	3.88
888.957	2.88
889.692	1.88
890.428	2.88
891.163	-0.12
891.899	1.88
892.634	-1.12
893.369	1.88
894.104	2.88
894.839	2.88
895.574	-0.12
896.309	0.88
897.044	0.88
897.779	0.88
898.514	0.88
899.248	0.88
899.983	-0.12
900.717	2.88
901.452	-1.12
902.186	1.88
902.92	1.88
903.654	0.88
904.389	-0.12
905.123	-1.12
905.857	1.88
906.59	1.88
907.324	0.88
908.058	1.88
908.792	-0.12
909.525	2.88
910.259	1.88
910.992	2.88
911.726	-0.12
912.459	1.88
913.192	-0.12
913.925	1.88
914.658	0.88
915.391	0.88
916.124	1.88
916.857	2.88
917.59	-0.12
918.323	1.88
919.055	1.88
919.788	2.88
920.521	1.88
921.253	-1.12
921.985	0.88
922.718	0.88
923.45	3.88
924.182	-0.12
924.914	1.88
925.646	1.88
926.378	0.88
927.11	2.88
927.841	-0.12
928.573	1.88
929.305	0.88
930.036	0.88
930.768	2.88
931.499	0.88
932.23	0.88
932.962	0.88
933.693	0.88
934.424	1.88
935.155	0.88
935.886	-0.12
936.617	1.88
937.348	1.88
938.078	0.88
938.809	1.88
939.54	0.88
940.27	1.88
941.001	1.88
941.731	-1.12
942.461	-1.12
943.191	2.88
943.922	-1.12
944.652	0.88
945.382	0.88
946.112	2.88
946.841	0.88
947.571	1.88
948.301	-1.12
949.031	1.88
949.76	1.88
950.49	0.88
951.219	0.88
951.948	2.88
952.678	-0.12
953.407	1.88
954.136	1.88
954.865	0.88
955.594	0.88
956.323	0.88
957.052	0.88
957.78	-0.12
958.509	0.88
959.238	-2.12
959.966	-0.12
960.695	1.88
961.423	0.88
962.151	0.88
962.88	0.88
963.608	1.88
964.336	-0.12
965.064	1.88
965.792	0.88
966.52	1.88
967.247	0.88
967.975	0.88
968.703	1.88
969.43	2.88
970.158	1.88
970.885	1.88
971.613	1.88
972.34	1.88
973.067	0.88
973.794	1.88
974.521	1.88
975.248	0.88
975.975	0.88
976.702	0.88
977.429	-0.12
978.156	0.88
978.882	1.88
979.609	-1.12
980.335	1.88
981.062	0.88
981.788	-1.12
982.514	-1.12
983.24	-0.12
983.967	1.88
984.693	1.88
985.419	0.88
986.144	0.88
986.87	1.88
987.596	0.88
988.322	1.88
989.047	-1.12
989.773	0.88
990.498	1.88
991.224	1.88
991.949	0.88
992.674	-0.12
993.399	2.88
994.124	-2.12
994.849	-0.12
995.574	0.88
996.299	0.88
997.024	1.88
997.749	0.88
998.473	0.88
999.198	-1.12
999.922	2.88
1000.647	0.88
1001.371	2.88
1002.095	-1.12
1002.82	-1.12
1003.544	-1.12
1004.268	0.88
1004.992	1.88
1005.716	3.88
1006.439	4.88
1007.163	2.88
1007.887	3.88
1008.611	0.88
1009.334	0.88
1010.058	0.88
1010.781	-0.12
1011.504	-1.12
1012.228	3.88
1012.951	0.88
1013.674	-1.12
1014.397	-0.12
1015.12	0.88
