节点500_425_QEPB04081__84__15-49-42-332.txt的数据

Date: Wed Nov 12 15:49:42 CST 2025
User: PC
Spectrometer: QEPB0408
触发模式: 0
积分时间 (秒): 1.000000E-2
Scans to average: 1
启用暗噪声校正: true
启用非线性校正: false
滑动平均宽度: 0
X轴模式: Wavelengths
Number of Pixels in Spectrum: 1044
>>>>>Begin Spectral Data<<<<<
220.843	1.75
221.644	2.75
222.444	3.75
223.244	4.75
224.045	3.75
224.845	4.75
225.645	3.75
226.445	5.75
227.245	3.75
228.045	4.75
228.845	5.75
229.645	2.75
230.444	5.75
231.244	6.75
232.043	3.75
232.843	5.75
233.642	3.75
234.442	5.75
235.241	7.75
236.04	6.75
236.839	7.75
237.638	6.75
238.437	4.75
239.236	7.75
240.035	8.75
240.833	9.75
241.632	7.75
242.43	8.75
243.229	8.75
244.027	6.75
244.826	8.75
245.624	8.75
246.422	10.75
247.22	7.75
248.018	10.75
248.816	9.75
249.614	10.75
250.412	11.75
251.21	9.75
252.007	12.75
252.805	11.75
253.602	10.75
254.4	11.75
255.197	10.75
255.994	13.75
256.791	10.75
257.589	12.75
258.386	15.75
259.183	14.75
259.979	17.75
260.776	15.75
261.573	17.75
262.37	17.75
263.166	18.75
263.963	18.75
264.759	19.75
265.556	20.75
266.352	18.75
267.148	18.75
267.944	24.75
268.74	20.75
269.536	25.75
270.332	22.75
271.128	22.75
271.924	22.75
272.719	23.75
273.515	23.75
274.311	25.75
275.106	22.75
275.901	26.75
276.697	25.75
277.492	26.75
278.287	26.75
279.082	25.75
279.877	23.75
280.672	25.75
281.467	24.75
282.262	24.75
283.056	25.75
283.851	23.75
284.646	27.75
285.44	24.75
286.234	24.75
287.029	23.75
287.823	29.75
288.617	25.75
289.411	24.75
290.205	27.75
290.999	23.75
291.793	23.75
292.587	22.75
293.381	23.75
294.174	22.75
294.968	24.75
295.761	23.75
296.555	17.75
297.348	21.75
298.141	19.75
298.935	21.75
299.728	18.75
300.521	17.75
301.314	17.75
302.107	18.75
302.899	18.75
303.692	17.75
304.485	13.75
305.277	18.75
306.07	12.75
306.862	18.75
307.655	16.75
308.447	16.75
309.239	14.75
310.031	14.75
310.823	16.75
311.615	15.75
312.407	13.75
313.199	12.75
313.991	11.75
314.783	10.75
315.574	11.75
316.366	13.75
317.157	10.75
317.949	11.75
318.74	10.75
319.531	9.75
320.322	11.75
321.113	11.75
321.904	11.75
322.695	10.75
323.486	10.75
324.277	9.75
325.068	9.75
325.858	8.75
326.649	7.75
327.439	10.75
328.23	9.75
329.02	8.75
329.81	7.75
330.6	8.75
331.391	12.75
332.181	9.75
332.971	10.75
333.76	8.75
334.55	7.75
335.34	9.75
336.13	8.75
336.919	9.75
337.709	9.75
338.498	8.75
339.287	9.75
340.077	8.75
340.866	9.75
341.655	9.75
342.444	7.75
343.233	8.75
344.022	9.75
344.811	7.75
345.6	9.75
346.388	8.75
347.177	10.75
347.965	8.75
348.754	8.75
349.542	6.75
350.33	7.75
351.119	9.75
351.907	7.75
352.695	7.75
353.483	7.75
354.271	8.75
355.059	8.75
355.846	8.75
356.634	7.75
357.422	6.75
358.209	7.75
358.997	6.75
359.784	6.75
360.571	7.75
361.359	5.75
362.146	7.75
362.933	8.75
363.72	7.75
364.507	7.75
365.294	6.75
366.081	4.75
366.867	8.75
367.654	6.75
368.44	7.75
369.227	6.75
370.013	7.75
370.8	6.75
371.586	7.75
372.372	8.75
373.158	8.75
373.944	5.75
374.73	7.75
375.516	9.75
376.302	8.75
377.088	8.75
377.873	5.75
378.659	8.75
379.445	6.75
380.23	5.75
381.015	8.75
381.801	5.75
382.586	9.75
383.371	5.75
384.156	6.75
384.941	8.75
385.726	7.75
386.511	5.75
387.296	5.75
388.08	9.75
388.865	8.75
389.649	7.75
390.434	8.75
391.218	9.75
392.003	8.75
392.787	6.75
393.571	8.75
394.355	9.75
395.139	10.75
395.923	10.75
396.707	7.75
397.491	9.75
398.274	10.75
399.058	10.75
399.842	11.75
400.625	8.75
401.408	8.75
402.192	6.75
402.975	7.75
403.758	10.75
404.541	11.75
405.324	11.75
406.107	9.75
406.89	11.75
407.673	10.75
408.456	12.75
409.238	12.75
410.021	10.75
410.803	10.75
411.586	10.75
412.368	9.75
413.151	12.75
413.933	12.75
414.715	12.75
415.497	12.75
416.279	12.75
417.061	13.75
417.843	14.75
418.624	14.75
419.406	15.75
420.188	15.75
420.969	17.75
421.751	16.75
422.532	15.75
423.313	16.75
424.095	16.75
424.876	16.75
425.657	15.75
426.438	18.75
427.219	18.75
428	21.75
428.78	17.75
429.561	19.75
430.342	20.75
431.122	20.75
431.903	21.75
432.683	22.75
433.464	22.75
434.244	24.75
435.024	26.75
435.804	22.75
436.584	28.75
437.364	30.75
438.144	27.75
438.924	29.75
439.704	30.75
440.483	34.75
441.263	34.75
442.042	38.75
442.822	34.75
443.601	46.75
444.38	43.75
445.16	50.75
445.939	50.75
446.718	54.75
447.497	58.75
448.276	63.75
449.054	67.75
449.833	75.75
450.612	81.75
451.391	87.75
452.169	97.75
452.948	108.75
453.726	112.75
454.504	131.75
455.282	145.75
456.061	152.75
456.839	172.75
457.617	197.75
458.395	211.75
459.172	242.75
459.95	269.75
460.728	301.75
461.506	335.75
462.283	379.75
463.061	415.75
463.838	471.75
464.615	527.75
465.393	584.75
466.17	655.75
466.947	734.75
467.724	812.75
468.501	910.75
469.278	1010.75
470.055	1135.75
470.831	1256.75
471.608	1364.75
472.385	1568.75
473.161	1730.75
473.938	1932.75
474.714	2139.75
475.49	2364.75
476.266	2610.75
477.043	2876.75
477.819	3193.75
478.595	3539.75
479.371	3928.75
480.146	4316.75
480.922	4734.75
481.698	5271.75
482.473	5767.75
483.249	6334.75
484.024	7006.75
484.8	7729.75
485.575	8416.75
486.35	9289.75
487.126	10152.75
487.901	11084.75
488.676	12127.75
489.451	13210.75
490.225	14427.75
491	15630.75
491.775	17000.75
492.55	18379.75
493.324	19877.75
494.099	21299.75
494.873	22727.75
495.647	24294.75
496.422	25777.75
497.196	27425.75
497.97	29033.75
498.744	30500.75
499.518	31984.75
500.292	33187.75
501.066	34333.75
501.839	35319.75
502.613	36109.75
503.387	36695.75
504.16	37092.75
504.934	37151.75
505.707	36987.75
506.48	36770.75
507.253	36274.75
508.027	35654.75
508.8	34920.75
509.573	34002.75
510.346	32983.75
511.118	31841.75
511.891	30737.75
512.664	29473.75
513.437	28212.75
514.209	26965.75
514.982	25946.75
515.754	24853.75
516.526	23665.75
517.298	22690.75
518.071	21670.75
518.843	20854.75
519.615	19982.75
520.387	19165.75
521.159	18410.75
521.93	17732.75
522.702	17074.75
523.474	16371.75
524.245	15694.75
525.017	14957.75
525.788	14199.75
526.56	13593.75
527.331	12928.75
528.102	12261.75
528.873	11698.75
529.644	11100.75
530.415	10566.75
531.186	10054.75
531.957	9518.75
532.728	9016.75
533.498	8435.75
534.269	7983.75
535.039	7546.75
535.81	7117.75
536.58	6682.75
537.351	6308.75
538.121	5999.75
538.891	5706.75
539.661	5411.75
540.431	5116.75
541.201	4830.75
541.971	4586.75
542.741	4325.75
543.51	4130.75
544.28	3912.75
545.05	3721.75
545.819	3558.75
546.588	3374.75
547.358	3185.75
548.127	3003.75
548.896	2884.75
549.665	2731.75
550.434	2572.75
551.203	2450.75
551.972	2316.75
552.741	2200.75
553.51	2078.75
554.278	1945.75
555.047	1818.75
555.815	1725.75
556.584	1641.75
557.352	1543.75
558.121	1466.75
558.889	1365.75
559.657	1308.75
560.425	1221.75
561.193	1149.75
561.961	1102.75
562.729	1037.75
563.496	979.75
564.264	933.75
565.032	881.75
565.799	828.75
566.567	777.75
567.334	739.75
568.101	696.75
568.869	660.75
569.636	628.75
570.403	594.75
571.17	548.75
571.937	528.75
572.704	489.75
573.471	466.75
574.237	437.75
575.004	404.75
575.771	388.75
576.537	367.75
577.303	345.75
578.07	327.75
578.836	312.75
579.602	289.75
580.368	276.75
581.134	265.75
581.9	246.75
582.666	238.75
583.432	222.75
584.198	208.75
584.964	206.75
585.729	191.75
586.495	183.75
587.26	169.75
588.025	162.75
588.791	150.75
589.556	147.75
590.321	143.75
591.086	130.75
591.851	127.75
592.616	118.75
593.381	113.75
594.146	108.75
594.911	98.75
595.675	100.75
596.44	94.75
597.204	84.75
597.969	84.75
598.733	82.75
599.497	84.75
600.261	74.75
601.025	71.75
601.79	67.75
602.553	65.75
603.317	66.75
604.081	61.75
604.845	56.75
605.609	55.75
606.372	53.75
607.136	54.75
607.899	49.75
608.662	48.75
609.426	44.75
610.189	44.75
610.952	44.75
611.715	39.75
612.478	39.75
613.241	38.75
614.004	38.75
614.767	36.75
615.529	33.75
616.292	37.75
617.055	32.75
617.817	30.75
618.579	31.75
619.342	29.75
620.104	29.75
620.866	27.75
621.628	25.75
622.39	24.75
623.152	26.75
623.914	26.75
624.676	22.75
625.438	23.75
626.199	19.75
626.961	19.75
627.722	22.75
628.484	21.75
629.245	20.75
630.006	20.75
630.768	19.75
631.529	17.75
632.29	19.75
633.051	18.75
633.812	16.75
634.573	16.75
635.333	14.75
636.094	17.75
636.855	13.75
637.615	15.75
638.376	13.75
639.136	12.75
639.896	14.75
640.657	12.75
641.417	14.75
642.177	13.75
642.937	11.75
643.697	11.75
644.457	11.75
645.216	10.75
645.976	10.75
646.736	11.75
647.495	8.75
648.255	9.75
649.014	12.75
649.774	12.75
650.533	11.75
651.292	8.75
652.051	10.75
652.81	8.75
653.569	6.75
654.328	10.75
655.087	7.75
655.846	8.75
656.604	6.75
657.363	9.75
658.121	7.75
658.88	8.75
659.638	8.75
660.397	10.75
661.155	7.75
661.913	7.75
662.671	6.75
663.429	7.75
664.187	7.75
664.945	7.75
665.703	5.75
666.46	6.75
667.218	7.75
667.976	6.75
668.733	6.75
669.49	7.75
670.248	4.75
671.005	6.75
671.762	4.75
672.519	9.75
673.276	7.75
674.033	6.75
674.79	7.75
675.547	6.75
676.304	8.75
677.06	7.75
677.817	5.75
678.574	6.75
679.33	6.75
680.086	5.75
680.843	6.75
681.599	5.75
682.355	5.75
683.111	5.75
683.867	8.75
684.623	6.75
685.379	5.75
686.135	4.75
686.89	6.75
687.646	5.75
688.402	3.75
689.157	7.75
689.912	4.75
690.668	5.75
691.423	5.75
692.178	4.75
692.933	4.75
693.688	6.75
694.443	4.75
695.198	5.75
695.953	6.75
696.708	5.75
697.462	4.75
698.217	4.75
698.972	1.75
699.726	6.75
700.48	3.75
701.235	6.75
701.989	6.75
702.743	4.75
703.497	6.75
704.251	6.75
705.005	5.75
705.759	4.75
706.513	6.75
707.266	5.75
708.02	5.75
708.774	6.75
709.527	3.75
710.28	3.75
711.034	6.75
711.787	3.75
712.54	6.75
713.293	3.75
714.046	4.75
714.799	3.75
715.552	2.75
716.305	7.75
717.058	4.75
717.81	7.75
718.563	4.75
719.315	3.75
720.068	5.75
720.82	5.75
721.573	3.75
722.325	6.75
723.077	5.75
723.829	7.75
724.581	5.75
725.333	6.75
726.085	4.75
726.836	7.75
727.588	2.75
728.34	5.75
729.091	5.75
729.843	4.75
730.594	6.75
731.346	5.75
732.097	7.75
732.848	4.75
733.599	6.75
734.35	7.75
735.101	7.75
735.852	6.75
736.603	6.75
737.354	6.75
738.104	5.75
738.855	7.75
739.605	8.75
740.356	8.75
741.106	7.75
741.856	5.75
742.607	10.75
743.357	6.75
744.107	6.75
744.857	9.75
745.607	7.75
746.357	8.75
747.106	4.75
747.856	6.75
748.606	6.75
749.355	8.75
750.105	7.75
750.854	7.75
751.603	9.75
752.353	10.75
753.102	7.75
753.851	6.75
754.6	6.75
755.349	11.75
756.098	10.75
756.847	8.75
757.595	8.75
758.344	9.75
759.093	8.75
759.841	9.75
760.589	8.75
761.338	8.75
762.086	7.75
762.834	9.75
763.582	8.75
764.331	8.75
765.079	10.75
765.826	10.75
766.574	9.75
767.322	10.75
768.07	11.75
768.817	9.75
769.565	8.75
770.312	8.75
771.06	11.75
771.807	10.75
772.554	11.75
773.302	11.75
774.049	9.75
774.796	14.75
775.543	13.75
776.29	12.75
777.036	10.75
777.783	11.75
778.53	13.75
779.276	10.75
780.023	14.75
780.769	14.75
781.516	12.75
782.262	14.75
783.008	10.75
783.754	14.75
784.5	12.75
785.246	13.75
785.992	13.75
786.738	13.75
787.484	11.75
788.23	12.75
788.975	12.75
789.721	12.75
790.466	11.75
791.212	11.75
791.957	12.75
792.702	12.75
793.447	10.75
794.193	11.75
794.938	10.75
795.683	10.75
796.427	9.75
797.172	9.75
797.917	9.75
798.662	10.75
799.406	8.75
800.151	10.75
800.895	11.75
801.64	8.75
802.384	9.75
803.128	8.75
803.872	9.75
804.616	9.75
805.36	9.75
806.104	8.75
806.848	7.75
807.592	5.75
808.336	6.75
809.079	7.75
809.823	8.75
810.566	8.75
811.31	7.75
812.053	6.75
812.796	8.75
813.539	8.75
814.283	7.75
815.026	6.75
815.769	9.75
816.511	5.75
817.254	7.75
817.997	8.75
818.74	6.75
819.482	6.75
820.225	5.75
820.967	6.75
821.71	4.75
822.452	4.75
823.194	5.75
823.936	6.75
824.678	4.75
825.42	6.75
826.162	4.75
826.904	4.75
827.646	4.75
828.388	7.75
829.129	5.75
829.871	5.75
830.612	3.75
831.354	4.75
832.095	6.75
832.836	5.75
833.577	3.75
834.319	1.75
835.06	3.75
835.801	5.75
836.542	3.75
837.282	5.75
838.023	3.75
838.764	3.75
839.504	4.75
840.245	6.75
840.985	2.75
841.726	3.75
842.466	4.75
843.206	2.75
843.946	4.75
844.687	3.75
845.427	1.75
846.166	5.75
846.906	3.75
847.646	5.75
848.386	3.75
849.125	2.75
849.865	3.75
850.605	2.75
851.344	5.75
852.083	2.75
852.823	4.75
853.562	4.75
854.301	2.75
855.04	5.75
855.779	1.75
856.518	4.75
857.257	4.75
857.995	4.75
858.734	2.75
859.473	1.75
860.211	3.75
860.95	1.75
861.688	0.75
862.426	2.75
863.165	3.75
863.903	2.75
864.641	2.75
865.379	2.75
866.117	0.75
866.855	3.75
867.593	2.75
868.33	1.75
869.068	4.75
869.806	0.75
870.543	2.75
871.28	2.75
872.018	2.75
872.755	3.75
873.492	3.75
874.229	1.75
874.967	2.75
875.703	4.75
876.44	0.75
877.177	1.75
877.914	2.75
878.651	4.75
879.387	2.75
880.124	2.75
880.86	2.75
881.597	2.75
882.333	1.75
883.069	2.75
883.806	2.75
884.542	0.75
885.278	-0.25
886.014	-2.25
886.749	1.75
887.485	1.75
888.221	1.75
888.957	1.75
889.692	2.75
890.428	3.75
891.163	-1.25
891.899	2.75
892.634	0.75
893.369	-0.25
894.104	2.75
894.839	1.75
895.574	1.75
896.309	1.75
897.044	1.75
897.779	1.75
898.514	0.75
899.248	1.75
899.983	1.75
900.717	0.75
901.452	0.75
902.186	0.75
902.92	1.75
903.654	0.75
904.389	2.75
905.123	0.75
905.857	-0.25
906.59	1.75
907.324	0.75
908.058	1.75
908.792	1.75
909.525	2.75
910.259	0.75
910.992	-0.25
911.726	2.75
912.459	0.75
913.192	2.75
913.925	-0.25
914.658	0.75
915.391	1.75
916.124	1.75
916.857	1.75
917.59	-1.25
918.323	0.75
919.055	0.75
919.788	0.75
920.521	0.75
921.253	2.75
921.985	0.75
922.718	-0.25
923.45	0.75
924.182	2.75
924.914	1.75
925.646	0.75
926.378	-0.25
927.11	0.75
927.841	0.75
928.573	3.75
929.305	2.75
930.036	0.75
930.768	-0.25
931.499	-0.25
932.23	2.75
932.962	-0.25
933.693	0.75
934.424	-0.25
935.155	1.75
935.886	-0.25
936.617	0.75
937.348	0.75
938.078	-0.25
938.809	2.75
939.54	2.75
940.27	2.75
941.001	0.75
941.731	1.75
942.461	0.75
943.191	0.75
943.922	2.75
944.652	-0.25
945.382	-1.25
946.112	2.75
946.841	-1.25
947.571	0.75
948.301	1.75
949.031	0.75
949.76	-0.25
950.49	0.75
951.219	1.75
951.948	2.75
952.678	2.75
953.407	0.75
954.136	-1.25
954.865	1.75
955.594	0.75
956.323	-0.25
957.052	0.75
957.78	0.75
958.509	-1.25
959.238	-0.25
959.966	-1.25
960.695	-0.25
961.423	-0.25
962.151	2.75
962.88	-1.25
963.608	1.75
964.336	-0.25
965.064	0.75
965.792	2.75
966.52	0.75
967.247	0.75
967.975	-1.25
968.703	1.75
969.43	-0.25
970.158	0.75
970.885	0.75
971.613	-2.25
972.34	-0.25
973.067	-0.25
973.794	0.75
974.521	-0.25
975.248	1.75
975.975	0.75
976.702	1.75
977.429	1.75
978.156	-0.25
978.882	0.75
979.609	1.75
980.335	0.75
981.062	0.75
981.788	-0.25
982.514	-0.25
983.24	0.75
983.967	-0.25
984.693	0.75
985.419	1.75
986.144	-1.25
986.87	0.75
987.596	1.75
988.322	0.75
989.047	0.75
989.773	0.75
990.498	-1.25
991.224	1.75
991.949	1.75
992.674	0.75
993.399	2.75
994.124	2.75
994.849	-0.25
995.574	0.75
996.299	3.75
997.024	1.75
997.749	2.75
998.473	-0.25
999.198	1.75
999.922	0.75
1000.647	0.75
1001.371	4.75
1002.095	-1.25
1002.82	-1.25
1003.544	-1.25
1004.268	3.75
1004.992	4.75
1005.716	3.75
1006.439	1.75
1007.163	2.75
1007.887	5.75
1008.611	0.75
1009.334	-0.25
1010.058	1.75
1010.781	2.75
1011.504	0.75
1012.228	1.75
1012.951	-0.25
1013.674	-0.25
1014.397	2.75
1015.12	-3.25
