节点500_425_QEPB04081__451__15-55-48-612.txt的数据

Date: Wed Nov 12 15:55:48 CST 2025
User: PC
Spectrometer: QEPB0408
触发模式: 0
积分时间 (秒): 1.000000E-2
Scans to average: 1
启用暗噪声校正: true
启用非线性校正: false
滑动平均宽度: 0
X轴模式: Wavelengths
Number of Pixels in Spectrum: 1044
>>>>>Begin Spectral Data<<<<<
220.843	4.12
221.644	2.12
222.444	3.12
223.244	2.12
224.045	5.12
224.845	2.12
225.645	3.12
226.445	1.12
227.245	5.12
228.045	4.12
228.845	2.12
229.645	3.12
230.444	4.12
231.244	5.12
232.043	5.12
232.843	3.12
233.642	6.12
234.442	2.12
235.241	4.12
236.04	4.12
236.839	9.12
237.638	4.12
238.437	6.12
239.236	6.12
240.035	7.12
240.833	8.12
241.632	7.12
242.43	6.12
243.229	8.12
244.027	6.12
244.826	8.12
245.624	7.12
246.422	6.12
247.22	9.12
248.018	9.12
248.816	7.12
249.614	9.12
250.412	8.12
251.21	8.12
252.007	7.12
252.805	10.12
253.602	8.12
254.4	8.12
255.197	10.12
255.994	9.12
256.791	14.12
257.589	11.12
258.386	12.12
259.183	14.12
259.979	14.12
260.776	11.12
261.573	12.12
262.37	13.12
263.166	12.12
263.963	17.12
264.759	19.12
265.556	14.12
266.352	17.12
267.148	14.12
267.944	18.12
268.74	17.12
269.536	19.12
270.332	19.12
271.128	23.12
271.924	18.12
272.719	18.12
273.515	20.12
274.311	21.12
275.106	21.12
275.901	21.12
276.697	22.12
277.492	24.12
278.287	22.12
279.082	23.12
279.877	23.12
280.672	21.12
281.467	24.12
282.262	23.12
283.056	27.12
283.851	22.12
284.646	25.12
285.44	24.12
286.234	22.12
287.029	22.12
287.823	23.12
288.617	20.12
289.411	23.12
290.205	22.12
290.999	23.12
291.793	21.12
292.587	22.12
293.381	21.12
294.174	21.12
294.968	18.12
295.761	20.12
296.555	19.12
297.348	18.12
298.141	19.12
298.935	20.12
299.728	19.12
300.521	20.12
301.314	20.12
302.107	18.12
302.899	18.12
303.692	18.12
304.485	14.12
305.277	16.12
306.07	17.12
306.862	14.12
307.655	14.12
308.447	16.12
309.239	16.12
310.031	17.12
310.823	12.12
311.615	14.12
312.407	12.12
313.199	12.12
313.991	11.12
314.783	14.12
315.574	14.12
316.366	12.12
317.157	12.12
317.949	9.12
318.74	9.12
319.531	8.12
320.322	10.12
321.113	12.12
321.904	10.12
322.695	12.12
323.486	10.12
324.277	11.12
325.068	11.12
325.858	7.12
326.649	10.12
327.439	10.12
328.23	8.12
329.02	8.12
329.81	10.12
330.6	10.12
331.391	7.12
332.181	8.12
332.971	8.12
333.76	10.12
334.55	8.12
335.34	7.12
336.13	9.12
336.919	8.12
337.709	11.12
338.498	10.12
339.287	10.12
340.077	7.12
340.866	8.12
341.655	8.12
342.444	10.12
343.233	5.12
344.022	9.12
344.811	7.12
345.6	8.12
346.388	7.12
347.177	7.12
347.965	6.12
348.754	7.12
349.542	9.12
350.33	8.12
351.119	10.12
351.907	6.12
352.695	6.12
353.483	9.12
354.271	5.12
355.059	8.12
355.846	6.12
356.634	7.12
357.422	8.12
358.209	7.12
358.997	7.12
359.784	7.12
360.571	6.12
361.359	6.12
362.146	8.12
362.933	7.12
363.72	7.12
364.507	8.12
365.294	7.12
366.081	6.12
366.867	7.12
367.654	4.12
368.44	8.12
369.227	6.12
370.013	6.12
370.8	6.12
371.586	7.12
372.372	7.12
373.158	5.12
373.944	6.12
374.73	6.12
375.516	7.12
376.302	6.12
377.088	6.12
377.873	8.12
378.659	5.12
379.445	6.12
380.23	6.12
381.015	7.12
381.801	5.12
382.586	7.12
383.371	6.12
384.156	5.12
384.941	7.12
385.726	7.12
386.511	8.12
387.296	8.12
388.08	7.12
388.865	6.12
389.649	8.12
390.434	8.12
391.218	7.12
392.003	5.12
392.787	6.12
393.571	8.12
394.355	5.12
395.139	7.12
395.923	7.12
396.707	7.12
397.491	7.12
398.274	10.12
399.058	9.12
399.842	8.12
400.625	10.12
401.408	6.12
402.192	9.12
402.975	11.12
403.758	10.12
404.541	9.12
405.324	9.12
406.107	12.12
406.89	11.12
407.673	12.12
408.456	8.12
409.238	11.12
410.021	11.12
410.803	10.12
411.586	8.12
412.368	10.12
413.151	10.12
413.933	13.12
414.715	11.12
415.497	12.12
416.279	12.12
417.061	12.12
417.843	13.12
418.624	11.12
419.406	12.12
420.188	14.12
420.969	15.12
421.751	12.12
422.532	14.12
423.313	16.12
424.095	15.12
424.876	15.12
425.657	14.12
426.438	18.12
427.219	16.12
428	16.12
428.78	17.12
429.561	18.12
430.342	20.12
431.122	17.12
431.903	21.12
432.683	19.12
433.464	22.12
434.244	24.12
435.024	24.12
435.804	24.12
436.584	26.12
437.364	25.12
438.144	26.12
438.924	28.12
439.704	32.12
440.483	33.12
441.263	34.12
442.042	37.12
442.822	38.12
443.601	39.12
444.38	45.12
445.16	46.12
445.939	52.12
446.718	57.12
447.497	63.12
448.276	71.12
449.054	80.12
449.833	80.12
450.612	87.12
451.391	97.12
452.169	104.12
452.948	119.12
453.726	125.12
454.504	143.12
455.282	161.12
456.061	179.12
456.839	200.12
457.617	217.12
458.395	249.12
459.172	268.12
459.95	303.12
460.728	331.12
461.506	374.12
462.283	418.12
463.061	470.12
463.838	522.12
464.615	589.12
465.393	650.12
466.17	710.12
466.947	795.12
467.724	884.12
468.501	981.12
469.278	1080.12
470.055	1194.12
470.831	1301.12
471.608	1468.12
472.385	1622.12
473.161	1785.12
473.938	1968.12
474.714	2172.12
475.49	2392.12
476.266	2596.12
477.043	2853.12
477.819	3141.12
478.595	3446.12
479.371	3770.12
480.146	4102.12
480.922	4521.12
481.698	4945.12
482.473	5377.12
483.249	5882.12
484.024	6444.12
484.8	7012.12
485.575	7606.12
486.35	8269.12
487.126	8998.12
487.901	9759.12
488.676	10634.12
489.451	11514.12
490.225	12426.12
491	13475.12
491.775	14581.12
492.55	15662.12
493.324	16888.12
494.099	18083.12
494.873	19245.12
495.647	20555.12
496.422	21823.12
497.196	23231.12
497.97	24568.12
498.744	25898.12
499.518	27235.12
500.292	28443.12
501.066	29494.12
501.839	30605.12
502.613	31516.12
503.387	32297.12
504.16	33013.12
504.934	33392.12
505.707	33563.12
506.48	33634.12
507.253	33630.12
508.027	33402.12
508.8	33041.12
509.573	32436.12
510.346	31842.12
511.118	30959.12
511.891	30140.12
512.664	29168.12
513.437	28093.12
514.209	27047.12
514.982	26233.12
515.754	25158.12
516.526	24147.12
517.298	23151.12
518.071	22227.12
518.843	21306.12
519.615	20436.12
520.387	19574.12
521.159	18887.12
521.93	18140.12
522.702	17370.12
523.474	16754.12
524.245	16176.12
525.017	15416.12
525.788	14665.12
526.56	14020.12
527.331	13420.12
528.102	12798.12
528.873	12224.12
529.644	11643.12
530.415	11168.12
531.186	10606.12
531.957	10071.12
532.728	9550.12
533.498	9049.12
534.269	8573.12
535.039	8141.12
535.81	7703.12
536.58	7251.12
537.351	6825.12
538.121	6497.12
538.891	6132.12
539.661	5817.12
540.431	5492.12
541.201	5230.12
541.971	4952.12
542.741	4662.12
543.51	4443.12
544.28	4251.12
545.05	4046.12
545.819	3854.12
546.588	3637.12
547.358	3449.12
548.127	3284.12
548.896	3114.12
549.665	2965.12
550.434	2816.12
551.203	2666.12
551.972	2533.12
552.741	2392.12
553.51	2278.12
554.278	2128.12
555.047	2015.12
555.815	1915.12
556.584	1801.12
557.352	1695.12
558.121	1599.12
558.889	1514.12
559.657	1431.12
560.425	1351.12
561.193	1272.12
561.961	1214.12
562.729	1148.12
563.496	1090.12
564.264	1021.12
565.032	949.12
565.799	932.12
566.567	870.12
567.334	822.12
568.101	781.12
568.869	744.12
569.636	690.12
570.403	643.12
571.17	613.12
571.937	573.12
572.704	557.12
573.471	517.12
574.237	476.12
575.004	463.12
575.771	429.12
576.537	413.12
577.303	386.12
578.07	361.12
578.836	342.12
579.602	319.12
580.368	309.12
581.134	288.12
581.9	277.12
582.666	258.12
583.432	244.12
584.198	238.12
584.964	219.12
585.729	208.12
586.495	197.12
587.26	192.12
588.025	177.12
588.791	167.12
589.556	163.12
590.321	149.12
591.086	145.12
591.851	137.12
592.616	130.12
593.381	125.12
594.146	117.12
594.911	112.12
595.675	111.12
596.44	105.12
597.204	99.12
597.969	93.12
598.733	89.12
599.497	86.12
600.261	85.12
601.025	78.12
601.79	74.12
602.553	72.12
603.317	69.12
604.081	66.12
604.845	62.12
605.609	59.12
606.372	60.12
607.136	57.12
607.899	52.12
608.662	48.12
609.426	48.12
610.189	51.12
610.952	46.12
611.715	44.12
612.478	46.12
613.241	42.12
614.004	40.12
614.767	40.12
615.529	37.12
616.292	34.12
617.055	33.12
617.817	32.12
618.579	30.12
619.342	32.12
620.104	30.12
620.866	27.12
621.628	29.12
622.39	25.12
623.152	25.12
623.914	25.12
624.676	27.12
625.438	23.12
626.199	25.12
626.961	23.12
627.722	19.12
628.484	20.12
629.245	22.12
630.006	19.12
630.768	18.12
631.529	17.12
632.29	18.12
633.051	18.12
633.812	16.12
634.573	17.12
635.333	14.12
636.094	13.12
636.855	11.12
637.615	16.12
638.376	14.12
639.136	13.12
639.896	14.12
640.657	10.12
641.417	12.12
642.177	12.12
642.937	12.12
643.697	9.12
644.457	13.12
645.216	13.12
645.976	8.12
646.736	10.12
647.495	9.12
648.255	11.12
649.014	12.12
649.774	9.12
650.533	9.12
651.292	10.12
652.051	11.12
652.81	10.12
653.569	10.12
654.328	8.12
655.087	7.12
655.846	9.12
656.604	8.12
657.363	8.12
658.121	8.12
658.88	8.12
659.638	10.12
660.397	8.12
661.155	8.12
661.913	8.12
662.671	10.12
663.429	8.12
664.187	6.12
664.945	7.12
665.703	8.12
666.46	5.12
667.218	7.12
667.976	4.12
668.733	7.12
669.49	8.12
670.248	6.12
671.005	5.12
671.762	7.12
672.519	6.12
673.276	5.12
674.033	6.12
674.79	6.12
675.547	7.12
676.304	5.12
677.06	4.12
677.817	6.12
678.574	6.12
679.33	5.12
680.086	6.12
680.843	6.12
681.599	7.12
682.355	3.12
683.111	7.12
683.867	7.12
684.623	5.12
685.379	5.12
686.135	5.12
686.89	6.12
687.646	5.12
688.402	7.12
689.157	5.12
689.912	7.12
690.668	6.12
691.423	4.12
692.178	8.12
692.933	5.12
693.688	5.12
694.443	4.12
695.198	6.12
695.953	2.12
696.708	6.12
697.462	6.12
698.217	7.12
698.972	5.12
699.726	6.12
700.48	4.12
701.235	6.12
701.989	2.12
702.743	6.12
703.497	4.12
704.251	5.12
705.005	4.12
705.759	3.12
706.513	5.12
707.266	6.12
708.02	9.12
708.774	5.12
709.527	4.12
710.28	5.12
711.034	4.12
711.787	4.12
712.54	5.12
713.293	4.12
714.046	5.12
714.799	1.12
715.552	6.12
716.305	5.12
717.058	6.12
717.81	6.12
718.563	4.12
719.315	5.12
720.068	4.12
720.82	5.12
721.573	6.12
722.325	4.12
723.077	6.12
723.829	4.12
724.581	5.12
725.333	2.12
726.085	7.12
726.836	6.12
727.588	6.12
728.34	3.12
729.091	7.12
729.843	4.12
730.594	4.12
731.346	5.12
732.097	7.12
732.848	5.12
733.599	7.12
734.35	4.12
735.101	6.12
735.852	7.12
736.603	7.12
737.354	6.12
738.104	6.12
738.855	7.12
739.605	7.12
740.356	7.12
741.106	5.12
741.856	5.12
742.607	6.12
743.357	5.12
744.107	4.12
744.857	8.12
745.607	7.12
746.357	7.12
747.106	3.12
747.856	7.12
748.606	7.12
749.355	7.12
750.105	6.12
750.854	8.12
751.603	6.12
752.353	6.12
753.102	9.12
753.851	8.12
754.6	8.12
755.349	6.12
756.098	6.12
756.847	8.12
757.595	7.12
758.344	9.12
759.093	7.12
759.841	8.12
760.589	8.12
761.338	8.12
762.086	9.12
762.834	9.12
763.582	9.12
764.331	6.12
765.079	9.12
765.826	8.12
766.574	9.12
767.322	6.12
768.07	11.12
768.817	7.12
769.565	9.12
770.312	10.12
771.06	10.12
771.807	8.12
772.554	9.12
773.302	8.12
774.049	10.12
774.796	7.12
775.543	10.12
776.29	8.12
777.036	10.12
777.783	10.12
778.53	13.12
779.276	10.12
780.023	12.12
780.769	9.12
781.516	9.12
782.262	10.12
783.008	10.12
783.754	10.12
784.5	12.12
785.246	12.12
785.992	12.12
786.738	10.12
787.484	10.12
788.23	10.12
788.975	8.12
789.721	7.12
790.466	12.12
791.212	10.12
791.957	9.12
792.702	13.12
793.447	14.12
794.193	12.12
794.938	10.12
795.683	6.12
796.427	11.12
797.172	8.12
797.917	10.12
798.662	10.12
799.406	9.12
800.151	10.12
800.895	9.12
801.64	8.12
802.384	10.12
803.128	8.12
803.872	8.12
804.616	8.12
805.36	8.12
806.104	8.12
806.848	10.12
807.592	8.12
808.336	6.12
809.079	7.12
809.823	6.12
810.566	6.12
811.31	7.12
812.053	6.12
812.796	8.12
813.539	4.12
814.283	7.12
815.026	5.12
815.769	6.12
816.511	6.12
817.254	6.12
817.997	6.12
818.74	5.12
819.482	7.12
820.225	4.12
820.967	5.12
821.71	4.12
822.452	5.12
823.194	4.12
823.936	2.12
824.678	6.12
825.42	6.12
826.162	3.12
826.904	5.12
827.646	4.12
828.388	7.12
829.129	5.12
829.871	5.12
830.612	3.12
831.354	4.12
832.095	5.12
832.836	5.12
833.577	6.12
834.319	5.12
835.06	3.12
835.801	4.12
836.542	2.12
837.282	6.12
838.023	5.12
838.764	3.12
839.504	5.12
840.245	4.12
840.985	3.12
841.726	2.12
842.466	6.12
843.206	2.12
843.946	2.12
844.687	4.12
845.427	0.12
846.166	5.12
846.906	5.12
847.646	3.12
848.386	6.12
849.125	3.12
849.865	3.12
850.605	3.12
851.344	3.12
852.083	2.12
852.823	2.12
853.562	3.12
854.301	4.12
855.04	4.12
855.779	3.12
856.518	3.12
857.257	3.12
857.995	2.12
858.734	4.12
859.473	2.12
860.211	4.12
860.95	5.12
861.688	2.12
862.426	1.12
863.165	0.12
863.903	1.12
864.641	3.12
865.379	3.12
866.117	1.12
866.855	2.12
867.593	2.12
868.33	0.12
869.068	4.12
869.806	2.12
870.543	0.12
871.28	1.12
872.018	1.12
872.755	-0.88
873.492	2.12
874.229	3.12
874.967	5.12
875.703	1.12
876.44	2.12
877.177	-1.88
877.914	1.12
878.651	0.12
879.387	4.12
880.124	2.12
880.86	2.12
881.597	1.12
882.333	0.12
883.069	1.12
883.806	2.12
884.542	1.12
885.278	1.12
886.014	2.12
886.749	2.12
887.485	1.12
888.221	0.12
888.957	1.12
889.692	1.12
890.428	1.12
891.163	1.12
891.899	2.12
892.634	0.12
893.369	-0.88
894.104	0.12
894.839	2.12
895.574	0.12
896.309	3.12
897.044	0.12
897.779	-0.88
898.514	0.12
899.248	1.12
899.983	-0.88
900.717	-1.88
901.452	0.12
902.186	0.12
902.92	2.12
903.654	2.12
904.389	0.12
905.123	1.12
905.857	1.12
906.59	-0.88
907.324	1.12
908.058	1.12
908.792	-1.88
909.525	0.12
910.259	0.12
910.992	0.12
911.726	0.12
912.459	-0.88
913.192	2.12
913.925	0.12
914.658	-0.88
915.391	1.12
916.124	-2.88
916.857	-0.88
917.59	1.12
918.323	0.12
919.055	1.12
919.788	-1.88
920.521	3.12
921.253	-1.88
921.985	0.12
922.718	-0.88
923.45	-1.88
924.182	1.12
924.914	-0.88
925.646	0.12
926.378	1.12
927.11	1.12
927.841	3.12
928.573	0.12
929.305	0.12
930.036	2.12
930.768	0.12
931.499	0.12
932.23	2.12
932.962	1.12
933.693	-0.88
934.424	1.12
935.155	0.12
935.886	1.12
936.617	0.12
937.348	1.12
938.078	0.12
938.809	1.12
939.54	1.12
940.27	1.12
941.001	1.12
941.731	1.12
942.461	0.12
943.191	0.12
943.922	-0.88
944.652	0.12
945.382	1.12
946.112	0.12
946.841	0.12
947.571	0.12
948.301	2.12
949.031	0.12
949.76	-0.88
950.49	-1.88
951.219	-0.88
951.948	-0.88
952.678	-1.88
953.407	2.12
954.136	-0.88
954.865	-0.88
955.594	1.12
956.323	0.12
957.052	1.12
957.78	-0.88
958.509	0.12
959.238	-0.88
959.966	-1.88
960.695	0.12
961.423	-1.88
962.151	0.12
962.88	-0.88
963.608	0.12
964.336	1.12
965.064	-1.88
965.792	-0.88
966.52	-0.88
967.247	1.12
967.975	0.12
968.703	-0.88
969.43	-1.88
970.158	0.12
970.885	-0.88
971.613	0.12
972.34	0.12
973.067	1.12
973.794	-2.88
974.521	2.12
975.248	-0.88
975.975	1.12
976.702	0.12
977.429	-0.88
978.156	0.12
978.882	-0.88
979.609	0.12
980.335	1.12
981.062	1.12
981.788	1.12
982.514	1.12
983.24	-0.88
983.967	0.12
984.693	3.12
985.419	-1.88
986.144	0.12
986.87	0.12
987.596	-0.88
988.322	2.12
989.047	-0.88
989.773	-0.88
990.498	0.12
991.224	0.12
991.949	-1.88
992.674	1.12
993.399	2.12
994.124	-0.88
994.849	2.12
995.574	1.12
996.299	0.12
997.024	0.12
997.749	-2.88
998.473	-0.88
999.198	1.12
999.922	0.12
1000.647	0.12
1001.371	3.12
1002.095	0.12
1002.82	-0.88
1003.544	0.12
1004.268	2.12
1004.992	1.12
1005.716	3.12
1006.439	2.12
1007.163	1.12
1007.887	7.12
1008.611	2.12
1009.334	0.12
1010.058	1.12
1010.781	0.12
1011.504	-0.88
1012.228	-0.88
1012.951	0.12
1013.674	-1.88
1014.397	-1.88
1015.12	1.12
