节点500_425_QEPB04081__60__15-49-18-398.txt的数据

Date: Wed Nov 12 15:49:18 CST 2025
User: PC
Spectrometer: QEPB0408
触发模式: 0
积分时间 (秒): 1.000000E-2
Scans to average: 1
启用暗噪声校正: true
启用非线性校正: false
滑动平均宽度: 0
X轴模式: Wavelengths
Number of Pixels in Spectrum: 1044
>>>>>Begin Spectral Data<<<<<
220.843	3.5
221.644	3.5
222.444	1.5
223.244	2.5
224.045	1.5
224.845	5.5
225.645	3.5
226.445	4.5
227.245	3.5
228.045	2.5
228.845	3.5
229.645	5.5
230.444	5.5
231.244	3.5
232.043	1.5
232.843	7.5
233.642	6.5
234.442	6.5
235.241	6.5
236.04	7.5
236.839	4.5
237.638	4.5
238.437	7.5
239.236	7.5
240.035	6.5
240.833	7.5
241.632	7.5
242.43	7.5
243.229	8.5
244.027	8.5
244.826	9.5
245.624	6.5
246.422	10.5
247.22	9.5
248.018	11.5
248.816	8.5
249.614	11.5
250.412	10.5
251.21	8.5
252.007	9.5
252.805	11.5
253.602	11.5
254.4	14.5
255.197	12.5
255.994	14.5
256.791	12.5
257.589	13.5
258.386	13.5
259.183	17.5
259.979	15.5
260.776	14.5
261.573	16.5
262.37	15.5
263.166	19.5
263.963	20.5
264.759	17.5
265.556	20.5
266.352	19.5
267.148	20.5
267.944	19.5
268.74	19.5
269.536	23.5
270.332	21.5
271.128	23.5
271.924	23.5
272.719	23.5
273.515	25.5
274.311	24.5
275.106	25.5
275.901	24.5
276.697	25.5
277.492	25.5
278.287	27.5
279.082	25.5
279.877	29.5
280.672	27.5
281.467	26.5
282.262	26.5
283.056	25.5
283.851	24.5
284.646	25.5
285.44	26.5
286.234	26.5
287.029	25.5
287.823	25.5
288.617	24.5
289.411	28.5
290.205	25.5
290.999	25.5
291.793	26.5
292.587	23.5
293.381	22.5
294.174	22.5
294.968	23.5
295.761	21.5
296.555	20.5
297.348	19.5
298.141	20.5
298.935	20.5
299.728	20.5
300.521	19.5
301.314	19.5
302.107	18.5
302.899	16.5
303.692	15.5
304.485	19.5
305.277	15.5
306.07	14.5
306.862	14.5
307.655	14.5
308.447	17.5
309.239	16.5
310.031	14.5
310.823	15.5
311.615	13.5
312.407	15.5
313.199	10.5
313.991	11.5
314.783	13.5
315.574	10.5
316.366	11.5
317.157	8.5
317.949	10.5
318.74	9.5
319.531	11.5
320.322	11.5
321.113	11.5
321.904	11.5
322.695	9.5
323.486	7.5
324.277	10.5
325.068	11.5
325.858	8.5
326.649	10.5
327.439	9.5
328.23	11.5
329.02	9.5
329.81	6.5
330.6	8.5
331.391	7.5
332.181	10.5
332.971	7.5
333.76	10.5
334.55	8.5
335.34	10.5
336.13	8.5
336.919	9.5
337.709	7.5
338.498	8.5
339.287	10.5
340.077	6.5
340.866	8.5
341.655	9.5
342.444	8.5
343.233	6.5
344.022	9.5
344.811	9.5
345.6	8.5
346.388	10.5
347.177	10.5
347.965	9.5
348.754	7.5
349.542	7.5
350.33	7.5
351.119	6.5
351.907	7.5
352.695	9.5
353.483	6.5
354.271	8.5
355.059	6.5
355.846	9.5
356.634	8.5
357.422	6.5
358.209	9.5
358.997	5.5
359.784	8.5
360.571	7.5
361.359	7.5
362.146	8.5
362.933	3.5
363.72	8.5
364.507	8.5
365.294	6.5
366.081	7.5
366.867	6.5
367.654	6.5
368.44	6.5
369.227	5.5
370.013	5.5
370.8	7.5
371.586	6.5
372.372	6.5
373.158	10.5
373.944	7.5
374.73	7.5
375.516	6.5
376.302	8.5
377.088	8.5
377.873	6.5
378.659	7.5
379.445	5.5
380.23	10.5
381.015	8.5
381.801	6.5
382.586	8.5
383.371	6.5
384.156	9.5
384.941	8.5
385.726	7.5
386.511	8.5
387.296	7.5
388.08	9.5
388.865	10.5
389.649	6.5
390.434	8.5
391.218	10.5
392.003	8.5
392.787	8.5
393.571	8.5
394.355	8.5
395.139	9.5
395.923	8.5
396.707	7.5
397.491	9.5
398.274	9.5
399.058	9.5
399.842	10.5
400.625	9.5
401.408	10.5
402.192	10.5
402.975	10.5
403.758	11.5
404.541	9.5
405.324	8.5
406.107	10.5
406.89	11.5
407.673	10.5
408.456	11.5
409.238	11.5
410.021	9.5
410.803	11.5
411.586	13.5
412.368	12.5
413.151	13.5
413.933	14.5
414.715	12.5
415.497	13.5
416.279	12.5
417.061	11.5
417.843	12.5
418.624	15.5
419.406	12.5
420.188	13.5
420.969	12.5
421.751	15.5
422.532	16.5
423.313	13.5
424.095	15.5
424.876	17.5
425.657	16.5
426.438	16.5
427.219	17.5
428	19.5
428.78	23.5
429.561	21.5
430.342	17.5
431.122	22.5
431.903	20.5
432.683	21.5
433.464	21.5
434.244	25.5
435.024	27.5
435.804	25.5
436.584	28.5
437.364	28.5
438.144	30.5
438.924	28.5
439.704	31.5
440.483	32.5
441.263	35.5
442.042	34.5
442.822	38.5
443.601	41.5
444.38	41.5
445.16	49.5
445.939	52.5
446.718	52.5
447.497	61.5
448.276	61.5
449.054	64.5
449.833	74.5
450.612	76.5
451.391	90.5
452.169	95.5
452.948	103.5
453.726	116.5
454.504	124.5
455.282	135.5
456.061	154.5
456.839	171.5
457.617	188.5
458.395	211.5
459.172	240.5
459.95	259.5
460.728	294.5
461.506	328.5
462.283	372.5
463.061	417.5
463.838	461.5
464.615	519.5
465.393	585.5
466.17	649.5
466.947	735.5
467.724	808.5
468.501	897.5
469.278	1006.5
470.055	1125.5
470.831	1247.5
471.608	1389.5
472.385	1548.5
473.161	1733.5
473.938	1911.5
474.714	2128.5
475.49	2350.5
476.266	2614.5
477.043	2874.5
477.819	3195.5
478.595	3541.5
479.371	3921.5
480.146	4334.5
480.922	4760.5
481.698	5235.5
482.473	5788.5
483.249	6388.5
484.024	7067.5
484.8	7777.5
485.575	8524.5
486.35	9322.5
487.126	10214.5
487.901	11235.5
488.676	12262.5
489.451	13411.5
490.225	14622.5
491	15834.5
491.775	17212.5
492.55	18628.5
493.324	20084.5
494.099	21589.5
494.873	23010.5
495.647	24623.5
496.422	26221.5
497.196	27855.5
497.97	29422.5
498.744	30910.5
499.518	32377.5
500.292	33623.5
501.066	34677.5
501.839	35732.5
502.613	36576.5
503.387	37133.5
504.16	37431.5
504.934	37454.5
505.707	37413.5
506.48	36904.5
507.253	36495.5
508.027	35865.5
508.8	35003.5
509.573	34051.5
510.346	32894.5
511.118	31847.5
511.891	30677.5
512.664	29306.5
513.437	28141.5
514.209	26955.5
514.982	25773.5
515.754	24652.5
516.526	23548.5
517.298	22582.5
518.071	21633.5
518.843	20688.5
519.615	19885.5
520.387	19077.5
521.159	18410.5
521.93	17724.5
522.702	16957.5
523.474	16307.5
524.245	15609.5
525.017	14886.5
525.788	14196.5
526.56	13529.5
527.331	12829.5
528.102	12231.5
528.873	11603.5
529.644	11041.5
530.415	10463.5
531.186	9970.5
531.957	9487.5
532.728	8845.5
533.498	8396.5
534.269	7913.5
535.039	7513.5
535.81	7051.5
536.58	6674.5
537.351	6289.5
538.121	5950.5
538.891	5652.5
539.661	5347.5
540.431	5045.5
541.201	4807.5
541.971	4561.5
542.741	4318.5
543.51	4105.5
544.28	3904.5
545.05	3704.5
545.819	3512.5
546.588	3355.5
547.358	3185.5
548.127	3004.5
548.896	2849.5
549.665	2699.5
550.434	2585.5
551.203	2432.5
551.972	2278.5
552.741	2162.5
553.51	2047.5
554.278	1926.5
555.047	1815.5
555.815	1724.5
556.584	1621.5
557.352	1512.5
558.121	1443.5
558.889	1350.5
559.657	1281.5
560.425	1198.5
561.193	1158.5
561.961	1083.5
562.729	1028.5
563.496	968.5
564.264	906.5
565.032	861.5
565.799	814.5
566.567	769.5
567.334	733.5
568.101	683.5
568.869	652.5
569.636	617.5
570.403	577.5
571.17	546.5
571.937	513.5
572.704	491.5
573.471	463.5
574.237	438.5
575.004	406.5
575.771	376.5
576.537	361.5
577.303	341.5
578.07	322.5
578.836	307.5
579.602	293.5
580.368	272.5
581.134	257.5
581.9	242.5
582.666	231.5
583.432	223.5
584.198	204.5
584.964	197.5
585.729	191.5
586.495	173.5
587.26	166.5
588.025	158.5
588.791	156.5
589.556	140.5
590.321	138.5
591.086	131.5
591.851	121.5
592.616	121.5
593.381	112.5
594.146	110.5
594.911	106.5
595.675	99.5
596.44	94.5
597.204	88.5
597.969	84.5
598.733	81.5
599.497	83.5
600.261	76.5
601.025	68.5
601.79	62.5
602.553	66.5
603.317	61.5
604.081	63.5
604.845	56.5
605.609	55.5
606.372	53.5
607.136	55.5
607.899	47.5
608.662	48.5
609.426	44.5
610.189	46.5
610.952	43.5
611.715	39.5
612.478	37.5
613.241	38.5
614.004	36.5
614.767	37.5
615.529	33.5
616.292	33.5
617.055	31.5
617.817	33.5
618.579	30.5
619.342	29.5
620.104	28.5
620.866	25.5
621.628	27.5
622.39	24.5
623.152	26.5
623.914	25.5
624.676	22.5
625.438	20.5
626.199	21.5
626.961	21.5
627.722	21.5
628.484	22.5
629.245	19.5
630.006	19.5
630.768	18.5
631.529	14.5
632.29	18.5
633.051	18.5
633.812	14.5
634.573	16.5
635.333	15.5
636.094	15.5
636.855	15.5
637.615	14.5
638.376	11.5
639.136	13.5
639.896	14.5
640.657	13.5
641.417	11.5
642.177	11.5
642.937	10.5
643.697	10.5
644.457	9.5
645.216	12.5
645.976	12.5
646.736	10.5
647.495	10.5
648.255	9.5
649.014	9.5
649.774	8.5
650.533	9.5
651.292	10.5
652.051	8.5
652.81	10.5
653.569	10.5
654.328	8.5
655.087	9.5
655.846	8.5
656.604	10.5
657.363	6.5
658.121	10.5
658.88	7.5
659.638	7.5
660.397	7.5
661.155	9.5
661.913	7.5
662.671	8.5
663.429	7.5
664.187	7.5
664.945	7.5
665.703	6.5
666.46	7.5
667.218	7.5
667.976	6.5
668.733	6.5
669.49	4.5
670.248	4.5
671.005	9.5
671.762	6.5
672.519	8.5
673.276	4.5
674.033	5.5
674.79	5.5
675.547	6.5
676.304	2.5
677.06	4.5
677.817	7.5
678.574	6.5
679.33	5.5
680.086	6.5
680.843	4.5
681.599	6.5
682.355	6.5
683.111	4.5
683.867	6.5
684.623	4.5
685.379	5.5
686.135	5.5
686.89	4.5
687.646	5.5
688.402	4.5
689.157	4.5
689.912	4.5
690.668	6.5
691.423	5.5
692.178	4.5
692.933	5.5
693.688	4.5
694.443	5.5
695.198	6.5
695.953	5.5
696.708	4.5
697.462	7.5
698.217	4.5
698.972	4.5
699.726	7.5
700.48	4.5
701.235	5.5
701.989	4.5
702.743	4.5
703.497	4.5
704.251	7.5
705.005	5.5
705.759	4.5
706.513	6.5
707.266	2.5
708.02	7.5
708.774	4.5
709.527	4.5
710.28	4.5
711.034	5.5
711.787	4.5
712.54	4.5
713.293	5.5
714.046	3.5
714.799	3.5
715.552	5.5
716.305	4.5
717.058	5.5
717.81	7.5
718.563	4.5
719.315	5.5
720.068	3.5
720.82	6.5
721.573	5.5
722.325	5.5
723.077	5.5
723.829	4.5
724.581	4.5
725.333	4.5
726.085	6.5
726.836	8.5
727.588	3.5
728.34	4.5
729.091	4.5
729.843	4.5
730.594	6.5
731.346	3.5
732.097	4.5
732.848	7.5
733.599	5.5
734.35	6.5
735.101	7.5
735.852	7.5
736.603	6.5
737.354	7.5
738.104	6.5
738.855	8.5
739.605	6.5
740.356	6.5
741.106	6.5
741.856	4.5
742.607	5.5
743.357	5.5
744.107	8.5
744.857	5.5
745.607	8.5
746.357	8.5
747.106	9.5
747.856	5.5
748.606	5.5
749.355	7.5
750.105	5.5
750.854	8.5
751.603	7.5
752.353	7.5
753.102	7.5
753.851	9.5
754.6	8.5
755.349	8.5
756.098	6.5
756.847	12.5
757.595	8.5
758.344	8.5
759.093	9.5
759.841	9.5
760.589	8.5
761.338	7.5
762.086	9.5
762.834	7.5
763.582	8.5
764.331	10.5
765.079	11.5
765.826	9.5
766.574	10.5
767.322	12.5
768.07	13.5
768.817	12.5
769.565	12.5
770.312	10.5
771.06	10.5
771.807	11.5
772.554	12.5
773.302	12.5
774.049	8.5
774.796	11.5
775.543	12.5
776.29	13.5
777.036	12.5
777.783	15.5
778.53	11.5
779.276	11.5
780.023	12.5
780.769	13.5
781.516	11.5
782.262	14.5
783.008	12.5
783.754	11.5
784.5	11.5
785.246	10.5
785.992	12.5
786.738	12.5
787.484	11.5
788.23	11.5
788.975	14.5
789.721	12.5
790.466	12.5
791.212	10.5
791.957	10.5
792.702	9.5
793.447	11.5
794.193	12.5
794.938	8.5
795.683	10.5
796.427	14.5
797.172	11.5
797.917	10.5
798.662	9.5
799.406	11.5
800.151	9.5
800.895	11.5
801.64	8.5
802.384	7.5
803.128	9.5
803.872	8.5
804.616	9.5
805.36	8.5
806.104	9.5
806.848	8.5
807.592	7.5
808.336	7.5
809.079	8.5
809.823	9.5
810.566	10.5
811.31	7.5
812.053	6.5
812.796	6.5
813.539	8.5
814.283	3.5
815.026	6.5
815.769	5.5
816.511	7.5
817.254	5.5
817.997	6.5
818.74	7.5
819.482	7.5
820.225	5.5
820.967	6.5
821.71	5.5
822.452	4.5
823.194	5.5
823.936	4.5
824.678	4.5
825.42	5.5
826.162	6.5
826.904	4.5
827.646	7.5
828.388	6.5
829.129	4.5
829.871	4.5
830.612	2.5
831.354	5.5
832.095	4.5
832.836	4.5
833.577	5.5
834.319	4.5
835.06	5.5
835.801	4.5
836.542	3.5
837.282	4.5
838.023	4.5
838.764	4.5
839.504	5.5
840.245	4.5
840.985	4.5
841.726	3.5
842.466	4.5
843.206	4.5
843.946	3.5
844.687	1.5
845.427	3.5
846.166	3.5
846.906	2.5
847.646	5.5
848.386	2.5
849.125	2.5
849.865	3.5
850.605	3.5
851.344	6.5
852.083	4.5
852.823	4.5
853.562	2.5
854.301	5.5
855.04	2.5
855.779	3.5
856.518	5.5
857.257	0.5
857.995	4.5
858.734	3.5
859.473	5.5
860.211	5.5
860.95	6.5
861.688	3.5
862.426	2.5
863.165	3.5
863.903	0.5
864.641	0.5
865.379	2.5
866.117	2.5
866.855	2.5
867.593	4.5
868.33	1.5
869.068	1.5
869.806	2.5
870.543	4.5
871.28	2.5
872.018	0.5
872.755	1.5
873.492	2.5
874.229	3.5
874.967	2.5
875.703	3.5
876.44	1.5
877.177	3.5
877.914	1.5
878.651	0.5
879.387	1.5
880.124	1.5
880.86	2.5
881.597	-0.5
882.333	1.5
883.069	1.5
883.806	0.5
884.542	2.5
885.278	-0.5
886.014	-0.5
886.749	1.5
887.485	0.5
888.221	2.5
888.957	0.5
889.692	1.5
890.428	-0.5
891.163	0.5
891.899	2.5
892.634	1.5
893.369	0.5
894.104	1.5
894.839	2.5
895.574	1.5
896.309	1.5
897.044	0.5
897.779	2.5
898.514	1.5
899.248	0.5
899.983	3.5
900.717	-0.5
901.452	0.5
902.186	1.5
902.92	-1.5
903.654	2.5
904.389	1.5
905.123	-1.5
905.857	0.5
906.59	-0.5
907.324	0.5
908.058	-0.5
908.792	0.5
909.525	0.5
910.259	1.5
910.992	2.5
911.726	1.5
912.459	2.5
913.192	0.5
913.925	0.5
914.658	1.5
915.391	-0.5
916.124	0.5
916.857	-1.5
917.59	2.5
918.323	0.5
919.055	1.5
919.788	2.5
920.521	0.5
921.253	2.5
921.985	0.5
922.718	-0.5
923.45	0.5
924.182	1.5
924.914	-0.5
925.646	1.5
926.378	0.5
927.11	0.5
927.841	0.5
928.573	1.5
929.305	-1.5
930.036	0.5
930.768	2.5
931.499	0.5
932.23	-0.5
932.962	0.5
933.693	-1.5
934.424	3.5
935.155	0.5
935.886	0.5
936.617	1.5
937.348	1.5
938.078	-0.5
938.809	0.5
939.54	-1.5
940.27	0.5
941.001	-0.5
941.731	-0.5
942.461	0.5
943.191	0.5
943.922	0.5
944.652	1.5
945.382	0.5
946.112	2.5
946.841	-1.5
947.571	2.5
948.301	0.5
949.031	-0.5
949.76	0.5
950.49	1.5
951.219	0.5
951.948	-1.5
952.678	1.5
953.407	-0.5
954.136	-0.5
954.865	1.5
955.594	0.5
956.323	1.5
957.052	-1.5
957.78	1.5
958.509	2.5
959.238	0.5
959.966	1.5
960.695	0.5
961.423	-0.5
962.151	-0.5
962.88	0.5
963.608	1.5
964.336	0.5
965.064	0.5
965.792	0.5
966.52	2.5
967.247	-1.5
967.975	-0.5
968.703	1.5
969.43	0.5
970.158	0.5
970.885	0.5
971.613	0.5
972.34	0.5
973.067	1.5
973.794	2.5
974.521	-0.5
975.248	0.5
975.975	1.5
976.702	0.5
977.429	-2.5
978.156	0.5
978.882	2.5
979.609	0.5
980.335	1.5
981.062	-0.5
981.788	0.5
982.514	1.5
983.24	1.5
983.967	0.5
984.693	0.5
985.419	1.5
986.144	-0.5
986.87	0.5
987.596	-0.5
988.322	1.5
989.047	0.5
989.773	-0.5
990.498	-1.5
991.224	0.5
991.949	0.5
992.674	0.5
993.399	1.5
994.124	1.5
994.849	-1.5
995.574	0.5
996.299	0.5
997.024	-1.5
997.749	1.5
998.473	0.5
999.198	0.5
999.922	0.5
1000.647	-1.5
1001.371	2.5
1002.095	0.5
1002.82	-1.5
1003.544	0.5
1004.268	1.5
1004.992	2.5
1005.716	2.5
1006.439	3.5
1007.163	4.5
1007.887	2.5
1008.611	1.5
1009.334	0.5
1010.058	0.5
1010.781	2.5
1011.504	1.5
1012.228	1.5
1012.951	-1.5
1013.674	0.5
1014.397	-0.5
1015.12	-0.5
