节点500_425_QEPB04081__107__15-50-05-318.txt的数据

Date: Wed Nov 12 15:50:05 CST 2025
User: PC
Spectrometer: QEPB0408
触发模式: 0
积分时间 (秒): 1.000000E-2
Scans to average: 1
启用暗噪声校正: true
启用非线性校正: false
滑动平均宽度: 0
X轴模式: Wavelengths
Number of Pixels in Spectrum: 1044
>>>>>Begin Spectral Data<<<<<
220.843	1.88
221.644	1.88
222.444	1.88
223.244	3.88
224.045	3.88
224.845	6.88
225.645	5.88
226.445	4.88
227.245	6.88
228.045	6.88
228.845	3.88
229.645	3.88
230.444	3.88
231.244	5.88
232.043	5.88
232.843	5.88
233.642	5.88
234.442	5.88
235.241	7.88
236.04	8.88
236.839	7.88
237.638	5.88
238.437	5.88
239.236	4.88
240.035	8.88
240.833	6.88
241.632	7.88
242.43	6.88
243.229	7.88
244.027	5.88
244.826	9.88
245.624	7.88
246.422	8.88
247.22	9.88
248.018	7.88
248.816	9.88
249.614	9.88
250.412	10.88
251.21	7.88
252.007	9.88
252.805	10.88
253.602	9.88
254.4	12.88
255.197	12.88
255.994	11.88
256.791	16.88
257.589	14.88
258.386	15.88
259.183	13.88
259.979	14.88
260.776	16.88
261.573	16.88
262.37	17.88
263.166	13.88
263.963	17.88
264.759	17.88
265.556	18.88
266.352	22.88
267.148	16.88
267.944	21.88
268.74	19.88
269.536	21.88
270.332	20.88
271.128	22.88
271.924	23.88
272.719	24.88
273.515	23.88
274.311	24.88
275.106	25.88
275.901	22.88
276.697	23.88
277.492	22.88
278.287	24.88
279.082	27.88
279.877	25.88
280.672	27.88
281.467	26.88
282.262	25.88
283.056	25.88
283.851	25.88
284.646	28.88
285.44	27.88
286.234	25.88
287.029	25.88
287.823	21.88
288.617	25.88
289.411	26.88
290.205	24.88
290.999	24.88
291.793	25.88
292.587	23.88
293.381	24.88
294.174	25.88
294.968	22.88
295.761	20.88
296.555	21.88
297.348	20.88
298.141	19.88
298.935	21.88
299.728	18.88
300.521	22.88
301.314	15.88
302.107	19.88
302.899	17.88
303.692	18.88
304.485	17.88
305.277	17.88
306.07	16.88
306.862	15.88
307.655	15.88
308.447	13.88
309.239	15.88
310.031	14.88
310.823	13.88
311.615	12.88
312.407	13.88
313.199	16.88
313.991	12.88
314.783	10.88
315.574	14.88
316.366	12.88
317.157	11.88
317.949	9.88
318.74	11.88
319.531	11.88
320.322	10.88
321.113	9.88
321.904	9.88
322.695	12.88
323.486	10.88
324.277	10.88
325.068	10.88
325.858	9.88
326.649	10.88
327.439	8.88
328.23	10.88
329.02	10.88
329.81	7.88
330.6	8.88
331.391	8.88
332.181	8.88
332.971	9.88
333.76	13.88
334.55	8.88
335.34	8.88
336.13	10.88
336.919	9.88
337.709	10.88
338.498	8.88
339.287	8.88
340.077	8.88
340.866	8.88
341.655	7.88
342.444	8.88
343.233	8.88
344.022	9.88
344.811	7.88
345.6	8.88
346.388	8.88
347.177	8.88
347.965	8.88
348.754	8.88
349.542	7.88
350.33	7.88
351.119	9.88
351.907	7.88
352.695	8.88
353.483	7.88
354.271	9.88
355.059	6.88
355.846	6.88
356.634	9.88
357.422	8.88
358.209	8.88
358.997	9.88
359.784	5.88
360.571	4.88
361.359	6.88
362.146	8.88
362.933	7.88
363.72	5.88
364.507	8.88
365.294	6.88
366.081	7.88
366.867	8.88
367.654	7.88
368.44	6.88
369.227	7.88
370.013	8.88
370.8	5.88
371.586	7.88
372.372	7.88
373.158	7.88
373.944	7.88
374.73	6.88
375.516	7.88
376.302	6.88
377.088	8.88
377.873	7.88
378.659	6.88
379.445	6.88
380.23	7.88
381.015	7.88
381.801	7.88
382.586	9.88
383.371	6.88
384.156	7.88
384.941	9.88
385.726	7.88
386.511	6.88
387.296	6.88
388.08	6.88
388.865	5.88
389.649	7.88
390.434	8.88
391.218	10.88
392.003	8.88
392.787	9.88
393.571	7.88
394.355	10.88
395.139	8.88
395.923	10.88
396.707	9.88
397.491	9.88
398.274	8.88
399.058	8.88
399.842	12.88
400.625	9.88
401.408	9.88
402.192	10.88
402.975	8.88
403.758	10.88
404.541	9.88
405.324	12.88
406.107	9.88
406.89	13.88
407.673	10.88
408.456	10.88
409.238	11.88
410.021	11.88
410.803	12.88
411.586	12.88
412.368	12.88
413.151	12.88
413.933	11.88
414.715	12.88
415.497	11.88
416.279	14.88
417.061	12.88
417.843	14.88
418.624	13.88
419.406	16.88
420.188	14.88
420.969	17.88
421.751	13.88
422.532	15.88
423.313	14.88
424.095	16.88
424.876	16.88
425.657	16.88
426.438	16.88
427.219	16.88
428	18.88
428.78	21.88
429.561	19.88
430.342	18.88
431.122	20.88
431.903	19.88
432.683	19.88
433.464	23.88
434.244	21.88
435.024	21.88
435.804	25.88
436.584	29.88
437.364	26.88
438.144	28.88
438.924	32.88
439.704	33.88
440.483	33.88
441.263	34.88
442.042	38.88
442.822	40.88
443.601	43.88
444.38	44.88
445.16	49.88
445.939	53.88
446.718	54.88
447.497	60.88
448.276	63.88
449.054	67.88
449.833	75.88
450.612	84.88
451.391	88.88
452.169	98.88
452.948	103.88
453.726	112.88
454.504	129.88
455.282	140.88
456.061	156.88
456.839	178.88
457.617	198.88
458.395	220.88
459.172	243.88
459.95	273.88
460.728	305.88
461.506	332.88
462.283	378.88
463.061	432.88
463.838	481.88
464.615	534.88
465.393	600.88
466.17	662.88
466.947	740.88
467.724	822.88
468.501	931.88
469.278	1016.88
470.055	1130.88
470.831	1267.88
471.608	1403.88
472.385	1564.88
473.161	1746.88
473.938	1922.88
474.714	2149.88
475.49	2377.88
476.266	2604.88
477.043	2885.88
477.819	3223.88
478.595	3567.88
479.371	3917.88
480.146	4315.88
480.922	4750.88
481.698	5247.88
482.473	5750.88
483.249	6316.88
484.024	7023.88
484.8	7686.88
485.575	8408.88
486.35	9188.88
487.126	10068.88
487.901	11034.88
488.676	12008.88
489.451	13172.88
490.225	14276.88
491	15539.88
491.775	16879.88
492.55	18257.88
493.324	19692.88
494.099	21156.88
494.873	22547.88
495.647	24105.88
496.422	25621.88
497.196	27129.88
497.97	28727.88
498.744	30299.88
499.518	31702.88
500.292	32919.88
501.066	33983.88
501.839	35104.88
502.613	35895.88
503.387	36420.88
504.16	36805.88
504.934	37022.88
505.707	36923.88
506.48	36665.88
507.253	36265.88
508.027	35686.88
508.8	34799.88
509.573	33972.88
510.346	32944.88
511.118	31837.88
511.891	30742.88
512.664	29505.88
513.437	28243.88
514.209	27000.88
514.982	25998.88
515.754	24947.88
516.526	23754.88
517.298	22710.88
518.071	21768.88
518.843	20884.88
519.615	20016.88
520.387	19142.88
521.159	18519.88
521.93	17825.88
522.702	17061.88
523.474	16444.88
524.245	15735.88
525.017	15023.88
525.788	14310.88
526.56	13656.88
527.331	12988.88
528.102	12387.88
528.873	11776.88
529.644	11157.88
530.415	10659.88
531.186	10075.88
531.957	9592.88
532.728	9020.88
533.498	8537.88
534.269	8053.88
535.039	7614.88
535.81	7180.88
536.58	6764.88
537.351	6354.88
538.121	6020.88
538.891	5715.88
539.661	5430.88
540.431	5137.88
541.201	4858.88
541.971	4633.88
542.741	4386.88
543.51	4160.88
544.28	3953.88
545.05	3756.88
545.819	3604.88
546.588	3415.88
547.358	3214.88
548.127	3028.88
548.896	2890.88
549.665	2734.88
550.434	2601.88
551.203	2467.88
551.972	2333.88
552.741	2201.88
553.51	2078.88
554.278	1950.88
555.047	1837.88
555.815	1751.88
556.584	1654.88
557.352	1545.88
558.121	1454.88
558.889	1389.88
559.657	1302.88
560.425	1239.88
561.193	1162.88
561.961	1098.88
562.729	1040.88
563.496	1004.88
564.264	937.88
565.032	885.88
565.799	832.88
566.567	788.88
567.334	748.88
568.101	693.88
568.869	668.88
569.636	638.88
570.403	581.88
571.17	552.88
571.937	526.88
572.704	498.88
573.471	469.88
574.237	443.88
575.004	419.88
575.771	392.88
576.537	376.88
577.303	354.88
578.07	320.88
578.836	310.88
579.602	288.88
580.368	275.88
581.134	268.88
581.9	259.88
582.666	243.88
583.432	220.88
584.198	215.88
584.964	202.88
585.729	196.88
586.495	184.88
587.26	167.88
588.025	163.88
588.791	156.88
589.556	150.88
590.321	139.88
591.086	133.88
591.851	128.88
592.616	125.88
593.381	112.88
594.146	111.88
594.911	103.88
595.675	98.88
596.44	94.88
597.204	87.88
597.969	84.88
598.733	81.88
599.497	79.88
600.261	81.88
601.025	76.88
601.79	67.88
602.553	68.88
603.317	61.88
604.081	60.88
604.845	61.88
605.609	58.88
606.372	55.88
607.136	52.88
607.899	53.88
608.662	47.88
609.426	45.88
610.189	43.88
610.952	41.88
611.715	43.88
612.478	38.88
613.241	40.88
614.004	37.88
614.767	34.88
615.529	33.88
616.292	33.88
617.055	34.88
617.817	31.88
618.579	30.88
619.342	29.88
620.104	29.88
620.866	29.88
621.628	25.88
622.39	25.88
623.152	26.88
623.914	21.88
624.676	24.88
625.438	23.88
626.199	24.88
626.961	20.88
627.722	20.88
628.484	19.88
629.245	18.88
630.006	20.88
630.768	16.88
631.529	18.88
632.29	20.88
633.051	18.88
633.812	15.88
634.573	15.88
635.333	17.88
636.094	15.88
636.855	14.88
637.615	13.88
638.376	12.88
639.136	12.88
639.896	12.88
640.657	11.88
641.417	12.88
642.177	12.88
642.937	10.88
643.697	12.88
644.457	10.88
645.216	10.88
645.976	11.88
646.736	8.88
647.495	10.88
648.255	10.88
649.014	10.88
649.774	11.88
650.533	12.88
651.292	10.88
652.051	11.88
652.81	9.88
653.569	10.88
654.328	8.88
655.087	8.88
655.846	10.88
656.604	10.88
657.363	9.88
658.121	6.88
658.88	6.88
659.638	9.88
660.397	8.88
661.155	7.88
661.913	6.88
662.671	6.88
663.429	7.88
664.187	8.88
664.945	8.88
665.703	7.88
666.46	6.88
667.218	8.88
667.976	6.88
668.733	5.88
669.49	8.88
670.248	7.88
671.005	6.88
671.762	7.88
672.519	5.88
673.276	7.88
674.033	3.88
674.79	5.88
675.547	5.88
676.304	6.88
677.06	7.88
677.817	4.88
678.574	6.88
679.33	5.88
680.086	7.88
680.843	4.88
681.599	7.88
682.355	4.88
683.111	4.88
683.867	8.88
684.623	7.88
685.379	5.88
686.135	4.88
686.89	5.88
687.646	6.88
688.402	4.88
689.157	2.88
689.912	5.88
690.668	5.88
691.423	6.88
692.178	5.88
692.933	4.88
693.688	4.88
694.443	4.88
695.198	8.88
695.953	3.88
696.708	5.88
697.462	7.88
698.217	3.88
698.972	3.88
699.726	4.88
700.48	6.88
701.235	5.88
701.989	6.88
702.743	5.88
703.497	3.88
704.251	5.88
705.005	4.88
705.759	5.88
706.513	5.88
707.266	3.88
708.02	6.88
708.774	5.88
709.527	3.88
710.28	5.88
711.034	4.88
711.787	5.88
712.54	5.88
713.293	5.88
714.046	4.88
714.799	4.88
715.552	5.88
716.305	6.88
717.058	4.88
717.81	4.88
718.563	4.88
719.315	4.88
720.068	5.88
720.82	6.88
721.573	4.88
722.325	4.88
723.077	4.88
723.829	8.88
724.581	5.88
725.333	5.88
726.085	6.88
726.836	4.88
727.588	4.88
728.34	6.88
729.091	8.88
729.843	7.88
730.594	4.88
731.346	5.88
732.097	4.88
732.848	7.88
733.599	5.88
734.35	6.88
735.101	4.88
735.852	4.88
736.603	3.88
737.354	5.88
738.104	7.88
738.855	5.88
739.605	6.88
740.356	6.88
741.106	6.88
741.856	7.88
742.607	6.88
743.357	7.88
744.107	7.88
744.857	6.88
745.607	8.88
746.357	7.88
747.106	8.88
747.856	5.88
748.606	8.88
749.355	9.88
750.105	7.88
750.854	5.88
751.603	5.88
752.353	7.88
753.102	9.88
753.851	8.88
754.6	10.88
755.349	8.88
756.098	8.88
756.847	8.88
757.595	11.88
758.344	10.88
759.093	10.88
759.841	11.88
760.589	4.88
761.338	7.88
762.086	8.88
762.834	10.88
763.582	10.88
764.331	8.88
765.079	12.88
765.826	9.88
766.574	12.88
767.322	13.88
768.07	10.88
768.817	11.88
769.565	8.88
770.312	11.88
771.06	9.88
771.807	10.88
772.554	10.88
773.302	10.88
774.049	11.88
774.796	11.88
775.543	12.88
776.29	14.88
777.036	10.88
777.783	10.88
778.53	10.88
779.276	12.88
780.023	11.88
780.769	11.88
781.516	12.88
782.262	11.88
783.008	11.88
783.754	12.88
784.5	12.88
785.246	12.88
785.992	14.88
786.738	10.88
787.484	11.88
788.23	11.88
788.975	13.88
789.721	12.88
790.466	12.88
791.212	9.88
791.957	11.88
792.702	11.88
793.447	12.88
794.193	9.88
794.938	11.88
795.683	9.88
796.427	10.88
797.172	12.88
797.917	8.88
798.662	7.88
799.406	11.88
800.151	7.88
800.895	9.88
801.64	9.88
802.384	8.88
803.128	9.88
803.872	10.88
804.616	7.88
805.36	7.88
806.104	8.88
806.848	7.88
807.592	7.88
808.336	8.88
809.079	6.88
809.823	6.88
810.566	5.88
811.31	7.88
812.053	5.88
812.796	8.88
813.539	7.88
814.283	7.88
815.026	8.88
815.769	5.88
816.511	6.88
817.254	6.88
817.997	5.88
818.74	5.88
819.482	6.88
820.225	5.88
820.967	3.88
821.71	6.88
822.452	6.88
823.194	6.88
823.936	7.88
824.678	2.88
825.42	6.88
826.162	6.88
826.904	5.88
827.646	5.88
828.388	6.88
829.129	6.88
829.871	4.88
830.612	5.88
831.354	5.88
832.095	4.88
832.836	4.88
833.577	4.88
834.319	4.88
835.06	5.88
835.801	4.88
836.542	7.88
837.282	4.88
838.023	5.88
838.764	3.88
839.504	4.88
840.245	6.88
840.985	5.88
841.726	2.88
842.466	1.88
843.206	5.88
843.946	2.88
844.687	5.88
845.427	5.88
846.166	6.88
846.906	5.88
847.646	2.88
848.386	6.88
849.125	-0.12
849.865	2.88
850.605	1.88
851.344	1.88
852.083	1.88
852.823	6.88
853.562	4.88
854.301	6.88
855.04	0.88
855.779	4.88
856.518	2.88
857.257	1.88
857.995	4.88
858.734	5.88
859.473	3.88
860.211	0.88
860.95	2.88
861.688	4.88
862.426	2.88
863.165	2.88
863.903	1.88
864.641	3.88
865.379	2.88
866.117	2.88
866.855	0.88
867.593	1.88
868.33	2.88
869.068	0.88
869.806	1.88
870.543	0.88
871.28	3.88
872.018	1.88
872.755	1.88
873.492	0.88
874.229	1.88
874.967	0.88
875.703	1.88
876.44	1.88
877.177	0.88
877.914	0.88
878.651	2.88
879.387	0.88
880.124	2.88
880.86	2.88
881.597	0.88
882.333	-0.12
883.069	1.88
883.806	3.88
884.542	0.88
885.278	-0.12
886.014	0.88
886.749	0.88
887.485	1.88
888.221	1.88
888.957	1.88
889.692	1.88
890.428	-0.12
891.163	-1.12
891.899	0.88
892.634	2.88
893.369	2.88
894.104	-0.12
894.839	1.88
895.574	1.88
896.309	2.88
897.044	0.88
897.779	1.88
898.514	0.88
899.248	0.88
899.983	0.88
900.717	2.88
901.452	3.88
902.186	-1.12
902.92	-0.12
903.654	1.88
904.389	-0.12
905.123	0.88
905.857	-1.12
906.59	0.88
907.324	-0.12
908.058	0.88
908.792	0.88
909.525	-1.12
910.259	1.88
910.992	0.88
911.726	1.88
912.459	0.88
913.192	1.88
913.925	1.88
914.658	-2.12
915.391	-1.12
916.124	-0.12
916.857	1.88
917.59	2.88
918.323	0.88
919.055	1.88
919.788	0.88
920.521	1.88
921.253	-0.12
921.985	0.88
922.718	1.88
923.45	0.88
924.182	1.88
924.914	0.88
925.646	0.88
926.378	0.88
927.11	-1.12
927.841	0.88
928.573	-0.12
929.305	1.88
930.036	-0.12
930.768	1.88
931.499	2.88
932.23	2.88
932.962	0.88
933.693	-2.12
934.424	-1.12
935.155	0.88
935.886	0.88
936.617	-0.12
937.348	-1.12
938.078	1.88
938.809	-0.12
939.54	0.88
940.27	2.88
941.001	-0.12
941.731	1.88
942.461	0.88
943.191	2.88
943.922	-1.12
944.652	-2.12
945.382	1.88
946.112	-0.12
946.841	0.88
947.571	0.88
948.301	1.88
949.031	-0.12
949.76	-0.12
950.49	1.88
951.219	-0.12
951.948	2.88
952.678	-0.12
953.407	-1.12
954.136	0.88
954.865	1.88
955.594	0.88
956.323	1.88
957.052	0.88
957.78	-1.12
958.509	1.88
959.238	-0.12
959.966	-0.12
960.695	-0.12
961.423	0.88
962.151	1.88
962.88	0.88
963.608	-0.12
964.336	-0.12
965.064	-0.12
965.792	1.88
966.52	1.88
967.247	-1.12
967.975	0.88
968.703	0.88
969.43	-1.12
970.158	-0.12
970.885	-0.12
971.613	0.88
972.34	-2.12
973.067	0.88
973.794	0.88
974.521	0.88
975.248	1.88
975.975	0.88
976.702	0.88
977.429	1.88
978.156	2.88
978.882	-0.12
979.609	-1.12
980.335	-0.12
981.062	-0.12
981.788	0.88
982.514	2.88
983.24	0.88
983.967	2.88
984.693	1.88
985.419	0.88
986.144	-0.12
986.87	0.88
987.596	0.88
988.322	1.88
989.047	-0.12
989.773	-1.12
990.498	-0.12
991.224	-1.12
991.949	1.88
992.674	-0.12
993.399	0.88
994.124	0.88
994.849	0.88
995.574	-0.12
996.299	2.88
997.024	-2.12
997.749	-1.12
998.473	-2.12
999.198	0.88
999.922	0.88
1000.647	0.88
1001.371	3.88
1002.095	-2.12
1002.82	-0.12
1003.544	-2.12
1004.268	2.88
1004.992	2.88
1005.716	3.88
1006.439	2.88
1007.163	1.88
1007.887	3.88
1008.611	1.88
1009.334	1.88
1010.058	-0.12
1010.781	1.88
1011.504	0.88
1012.228	0.88
1012.951	-1.12
1013.674	1.88
1014.397	-2.12
1015.12	1.88
