节点500_425_QEPB04081__252__15-52-30-006.txt的数据

Date: Wed Nov 12 15:52:30 CST 2025
User: PC
Spectrometer: QEPB0408
触发模式: 0
积分时间 (秒): 1.000000E-2
Scans to average: 1
启用暗噪声校正: true
启用非线性校正: false
滑动平均宽度: 0
X轴模式: Wavelengths
Number of Pixels in Spectrum: 1044
>>>>>Begin Spectral Data<<<<<
220.843	3.38
221.644	3.38
222.444	5.38
223.244	6.38
224.045	3.38
224.845	2.38
225.645	4.38
226.445	3.38
227.245	3.38
228.045	2.38
228.845	4.38
229.645	3.38
230.444	5.38
231.244	5.38
232.043	6.38
232.843	6.38
233.642	7.38
234.442	6.38
235.241	7.38
236.04	5.38
236.839	7.38
237.638	7.38
238.437	7.38
239.236	6.38
240.035	6.38
240.833	7.38
241.632	7.38
242.43	8.38
243.229	8.38
244.027	8.38
244.826	8.38
245.624	7.38
246.422	8.38
247.22	9.38
248.018	9.38
248.816	10.38
249.614	9.38
250.412	11.38
251.21	8.38
252.007	10.38
252.805	8.38
253.602	8.38
254.4	10.38
255.197	8.38
255.994	14.38
256.791	13.38
257.589	10.38
258.386	11.38
259.183	15.38
259.979	12.38
260.776	14.38
261.573	15.38
262.37	14.38
263.166	19.38
263.963	14.38
264.759	14.38
265.556	18.38
266.352	17.38
267.148	20.38
267.944	16.38
268.74	20.38
269.536	20.38
270.332	24.38
271.128	22.38
271.924	22.38
272.719	21.38
273.515	23.38
274.311	22.38
275.106	24.38
275.901	23.38
276.697	26.38
277.492	25.38
278.287	26.38
279.082	22.38
279.877	25.38
280.672	24.38
281.467	25.38
282.262	27.38
283.056	26.38
283.851	25.38
284.646	24.38
285.44	28.38
286.234	26.38
287.029	22.38
287.823	24.38
288.617	25.38
289.411	27.38
290.205	21.38
290.999	20.38
291.793	25.38
292.587	25.38
293.381	23.38
294.174	21.38
294.968	18.38
295.761	22.38
296.555	21.38
297.348	18.38
298.141	22.38
298.935	22.38
299.728	19.38
300.521	19.38
301.314	17.38
302.107	17.38
302.899	16.38
303.692	18.38
304.485	17.38
305.277	14.38
306.07	13.38
306.862	16.38
307.655	14.38
308.447	16.38
309.239	16.38
310.031	16.38
310.823	16.38
311.615	14.38
312.407	11.38
313.199	14.38
313.991	15.38
314.783	10.38
315.574	13.38
316.366	10.38
317.157	11.38
317.949	10.38
318.74	10.38
319.531	10.38
320.322	8.38
321.113	10.38
321.904	9.38
322.695	8.38
323.486	9.38
324.277	10.38
325.068	13.38
325.858	9.38
326.649	8.38
327.439	8.38
328.23	8.38
329.02	6.38
329.81	10.38
330.6	8.38
331.391	7.38
332.181	8.38
332.971	8.38
333.76	7.38
334.55	7.38
335.34	8.38
336.13	9.38
336.919	7.38
337.709	10.38
338.498	10.38
339.287	10.38
340.077	7.38
340.866	10.38
341.655	10.38
342.444	8.38
343.233	7.38
344.022	8.38
344.811	6.38
345.6	10.38
346.388	8.38
347.177	8.38
347.965	9.38
348.754	8.38
349.542	9.38
350.33	7.38
351.119	7.38
351.907	6.38
352.695	6.38
353.483	8.38
354.271	6.38
355.059	10.38
355.846	8.38
356.634	7.38
357.422	8.38
358.209	10.38
358.997	8.38
359.784	5.38
360.571	6.38
361.359	8.38
362.146	7.38
362.933	6.38
363.72	5.38
364.507	7.38
365.294	6.38
366.081	7.38
366.867	8.38
367.654	6.38
368.44	7.38
369.227	7.38
370.013	6.38
370.8	8.38
371.586	8.38
372.372	8.38
373.158	5.38
373.944	9.38
374.73	5.38
375.516	7.38
376.302	6.38
377.088	7.38
377.873	7.38
378.659	7.38
379.445	7.38
380.23	7.38
381.015	5.38
381.801	7.38
382.586	7.38
383.371	8.38
384.156	7.38
384.941	7.38
385.726	6.38
386.511	7.38
387.296	6.38
388.08	8.38
388.865	8.38
389.649	6.38
390.434	9.38
391.218	7.38
392.003	7.38
392.787	9.38
393.571	8.38
394.355	8.38
395.139	10.38
395.923	9.38
396.707	8.38
397.491	8.38
398.274	11.38
399.058	6.38
399.842	8.38
400.625	9.38
401.408	11.38
402.192	8.38
402.975	9.38
403.758	9.38
404.541	10.38
405.324	10.38
406.107	8.38
406.89	10.38
407.673	12.38
408.456	12.38
409.238	10.38
410.021	11.38
410.803	11.38
411.586	13.38
412.368	11.38
413.151	12.38
413.933	12.38
414.715	11.38
415.497	11.38
416.279	12.38
417.061	13.38
417.843	11.38
418.624	11.38
419.406	15.38
420.188	14.38
420.969	13.38
421.751	14.38
422.532	17.38
423.313	16.38
424.095	15.38
424.876	14.38
425.657	17.38
426.438	18.38
427.219	16.38
428	18.38
428.78	19.38
429.561	20.38
430.342	19.38
431.122	18.38
431.903	20.38
432.683	24.38
433.464	19.38
434.244	24.38
435.024	22.38
435.804	27.38
436.584	28.38
437.364	30.38
438.144	29.38
438.924	29.38
439.704	32.38
440.483	34.38
441.263	36.38
442.042	38.38
442.822	39.38
443.601	41.38
444.38	44.38
445.16	51.38
445.939	55.38
446.718	57.38
447.497	58.38
448.276	65.38
449.054	71.38
449.833	76.38
450.612	84.38
451.391	91.38
452.169	98.38
452.948	111.38
453.726	128.38
454.504	134.38
455.282	143.38
456.061	167.38
456.839	186.38
457.617	203.38
458.395	225.38
459.172	254.38
459.95	284.38
460.728	317.38
461.506	349.38
462.283	390.38
463.061	437.38
463.838	493.38
464.615	551.38
465.393	613.38
466.17	679.38
466.947	753.38
467.724	841.38
468.501	933.38
469.278	1052.38
470.055	1164.38
470.831	1290.38
471.608	1424.38
472.385	1566.38
473.161	1756.38
473.938	1936.38
474.714	2144.38
475.49	2392.38
476.266	2601.38
477.043	2891.38
477.819	3172.38
478.595	3517.38
479.371	3850.38
480.146	4241.38
480.922	4634.38
481.698	5110.38
482.473	5597.38
483.249	6120.38
484.024	6723.38
484.8	7406.38
485.575	8078.38
486.35	8818.38
487.126	9625.38
487.901	10492.38
488.676	11464.38
489.451	12475.38
490.225	13508.38
491	14655.38
491.775	15900.38
492.55	17218.38
493.324	18559.38
494.099	19896.38
494.873	21276.38
495.647	22609.38
496.422	24134.38
497.196	25582.38
497.97	27140.38
498.744	28535.38
499.518	29888.38
500.292	31102.38
501.066	32241.38
501.839	33376.38
502.613	34222.38
503.387	34935.38
504.16	35471.38
504.934	35722.38
505.707	35603.38
506.48	35512.38
507.253	35156.38
508.027	34782.38
508.8	34147.38
509.573	33408.38
510.346	32583.38
511.118	31545.38
511.891	30572.38
512.664	29420.38
513.437	28265.38
514.209	27043.38
514.982	26057.38
515.754	24981.38
516.526	23877.38
517.298	22930.38
518.071	21914.38
518.843	20978.38
519.615	20175.38
520.387	19315.38
521.159	18685.38
521.93	17960.38
522.702	17194.38
523.474	16514.38
524.245	15838.38
525.017	15096.38
525.788	14383.38
526.56	13760.38
527.331	13145.38
528.102	12504.38
528.873	11934.38
529.644	11374.38
530.415	10841.38
531.186	10294.38
531.957	9795.38
532.728	9230.38
533.498	8722.38
534.269	8263.38
535.039	7830.38
535.81	7385.38
536.58	6953.38
537.351	6552.38
538.121	6182.38
538.891	5857.38
539.661	5576.38
540.431	5294.38
541.201	5006.38
541.971	4702.38
542.741	4486.38
543.51	4264.38
544.28	4034.38
545.05	3862.38
545.819	3665.38
546.588	3489.38
547.358	3296.38
548.127	3139.38
548.896	2971.38
549.665	2821.38
550.434	2674.38
551.203	2551.38
551.972	2403.38
552.741	2269.38
553.51	2138.38
554.278	2020.38
555.047	1898.38
555.815	1791.38
556.584	1717.38
557.352	1614.38
558.121	1509.38
558.889	1428.38
559.657	1360.38
560.425	1267.38
561.193	1203.38
561.961	1144.38
562.729	1084.38
563.496	1015.38
564.264	973.38
565.032	919.38
565.799	859.38
566.567	821.38
567.334	765.38
568.101	732.38
568.869	683.38
569.636	634.38
570.403	610.38
571.17	572.38
571.937	542.38
572.704	521.38
573.471	485.38
574.237	467.38
575.004	430.38
575.771	412.38
576.537	382.38
577.303	364.38
578.07	345.38
578.836	315.38
579.602	305.38
580.368	291.38
581.134	272.38
581.9	255.38
582.666	244.38
583.432	231.38
584.198	224.38
584.964	202.38
585.729	199.38
586.495	192.38
587.26	184.38
588.025	164.38
588.791	157.38
589.556	154.38
590.321	146.38
591.086	138.38
591.851	131.38
592.616	120.38
593.381	119.38
594.146	111.38
594.911	109.38
595.675	104.38
596.44	98.38
597.204	94.38
597.969	93.38
598.733	85.38
599.497	82.38
600.261	80.38
601.025	74.38
601.79	70.38
602.553	69.38
603.317	67.38
604.081	64.38
604.845	61.38
605.609	56.38
606.372	55.38
607.136	55.38
607.899	53.38
608.662	49.38
609.426	47.38
610.189	48.38
610.952	44.38
611.715	41.38
612.478	40.38
613.241	38.38
614.004	39.38
614.767	36.38
615.529	37.38
616.292	35.38
617.055	31.38
617.817	31.38
618.579	30.38
619.342	30.38
620.104	28.38
620.866	29.38
621.628	26.38
622.39	25.38
623.152	25.38
623.914	22.38
624.676	24.38
625.438	24.38
626.199	21.38
626.961	21.38
627.722	19.38
628.484	19.38
629.245	20.38
630.006	19.38
630.768	19.38
631.529	19.38
632.29	14.38
633.051	20.38
633.812	16.38
634.573	15.38
635.333	16.38
636.094	14.38
636.855	14.38
637.615	14.38
638.376	16.38
639.136	15.38
639.896	13.38
640.657	12.38
641.417	14.38
642.177	10.38
642.937	10.38
643.697	12.38
644.457	11.38
645.216	15.38
645.976	10.38
646.736	13.38
647.495	9.38
648.255	13.38
649.014	9.38
649.774	10.38
650.533	12.38
651.292	8.38
652.051	10.38
652.81	9.38
653.569	7.38
654.328	6.38
655.087	9.38
655.846	8.38
656.604	7.38
657.363	8.38
658.121	8.38
658.88	8.38
659.638	8.38
660.397	9.38
661.155	7.38
661.913	6.38
662.671	6.38
663.429	8.38
664.187	6.38
664.945	7.38
665.703	7.38
666.46	7.38
667.218	5.38
667.976	6.38
668.733	7.38
669.49	6.38
670.248	5.38
671.005	7.38
671.762	7.38
672.519	6.38
673.276	4.38
674.033	8.38
674.79	7.38
675.547	7.38
676.304	8.38
677.06	7.38
677.817	7.38
678.574	5.38
679.33	6.38
680.086	8.38
680.843	4.38
681.599	5.38
682.355	6.38
683.111	8.38
683.867	7.38
684.623	5.38
685.379	8.38
686.135	4.38
686.89	5.38
687.646	3.38
688.402	4.38
689.157	5.38
689.912	4.38
690.668	7.38
691.423	5.38
692.178	4.38
692.933	6.38
693.688	6.38
694.443	7.38
695.198	5.38
695.953	3.38
696.708	5.38
697.462	7.38
698.217	4.38
698.972	5.38
699.726	3.38
700.48	2.38
701.235	6.38
701.989	6.38
702.743	5.38
703.497	5.38
704.251	6.38
705.005	6.38
705.759	7.38
706.513	4.38
707.266	3.38
708.02	5.38
708.774	5.38
709.527	6.38
710.28	4.38
711.034	7.38
711.787	5.38
712.54	4.38
713.293	5.38
714.046	4.38
714.799	4.38
715.552	7.38
716.305	4.38
717.058	5.38
717.81	5.38
718.563	4.38
719.315	6.38
720.068	5.38
720.82	4.38
721.573	5.38
722.325	5.38
723.077	5.38
723.829	5.38
724.581	7.38
725.333	3.38
726.085	7.38
726.836	5.38
727.588	4.38
728.34	4.38
729.091	4.38
729.843	3.38
730.594	5.38
731.346	7.38
732.097	4.38
732.848	6.38
733.599	8.38
734.35	6.38
735.101	6.38
735.852	6.38
736.603	6.38
737.354	5.38
738.104	6.38
738.855	7.38
739.605	6.38
740.356	4.38
741.106	8.38
741.856	6.38
742.607	6.38
743.357	10.38
744.107	7.38
744.857	6.38
745.607	6.38
746.357	9.38
747.106	6.38
747.856	6.38
748.606	5.38
749.355	7.38
750.105	7.38
750.854	7.38
751.603	8.38
752.353	9.38
753.102	7.38
753.851	7.38
754.6	7.38
755.349	7.38
756.098	9.38
756.847	6.38
757.595	9.38
758.344	6.38
759.093	7.38
759.841	6.38
760.589	9.38
761.338	10.38
762.086	8.38
762.834	10.38
763.582	9.38
764.331	9.38
765.079	8.38
765.826	11.38
766.574	6.38
767.322	10.38
768.07	8.38
768.817	10.38
769.565	8.38
770.312	10.38
771.06	11.38
771.807	8.38
772.554	9.38
773.302	12.38
774.049	12.38
774.796	12.38
775.543	13.38
776.29	12.38
777.036	11.38
777.783	13.38
778.53	12.38
779.276	10.38
780.023	12.38
780.769	11.38
781.516	11.38
782.262	14.38
783.008	11.38
783.754	12.38
784.5	11.38
785.246	12.38
785.992	12.38
786.738	10.38
787.484	10.38
788.23	12.38
788.975	11.38
789.721	11.38
790.466	11.38
791.212	9.38
791.957	10.38
792.702	11.38
793.447	12.38
794.193	12.38
794.938	11.38
795.683	8.38
796.427	11.38
797.172	10.38
797.917	8.38
798.662	10.38
799.406	8.38
800.151	10.38
800.895	7.38
801.64	10.38
802.384	11.38
803.128	12.38
803.872	6.38
804.616	7.38
805.36	9.38
806.104	8.38
806.848	9.38
807.592	6.38
808.336	9.38
809.079	6.38
809.823	5.38
810.566	7.38
811.31	6.38
812.053	8.38
812.796	8.38
813.539	6.38
814.283	8.38
815.026	5.38
815.769	9.38
816.511	4.38
817.254	5.38
817.997	9.38
818.74	5.38
819.482	5.38
820.225	5.38
820.967	6.38
821.71	3.38
822.452	4.38
823.194	5.38
823.936	5.38
824.678	7.38
825.42	6.38
826.162	6.38
826.904	5.38
827.646	5.38
828.388	4.38
829.129	3.38
829.871	5.38
830.612	2.38
831.354	2.38
832.095	6.38
832.836	5.38
833.577	6.38
834.319	1.38
835.06	3.38
835.801	4.38
836.542	1.38
837.282	6.38
838.023	5.38
838.764	4.38
839.504	2.38
840.245	3.38
840.985	6.38
841.726	4.38
842.466	4.38
843.206	2.38
843.946	4.38
844.687	1.38
845.427	4.38
846.166	3.38
846.906	5.38
847.646	4.38
848.386	2.38
849.125	3.38
849.865	4.38
850.605	1.38
851.344	3.38
852.083	4.38
852.823	5.38
853.562	5.38
854.301	3.38
855.04	4.38
855.779	3.38
856.518	4.38
857.257	2.38
857.995	3.38
858.734	2.38
859.473	2.38
860.211	0.38
860.95	2.38
861.688	0.38
862.426	4.38
863.165	1.38
863.903	4.38
864.641	2.38
865.379	3.38
866.117	0.38
866.855	2.38
867.593	0.38
868.33	0.38
869.068	2.38
869.806	1.38
870.543	2.38
871.28	2.38
872.018	1.38
872.755	-1.62
873.492	3.38
874.229	4.38
874.967	2.38
875.703	3.38
876.44	3.38
877.177	0.38
877.914	0.38
878.651	0.38
879.387	1.38
880.124	3.38
880.86	0.38
881.597	0.38
882.333	1.38
883.069	0.38
883.806	4.38
884.542	1.38
885.278	1.38
886.014	1.38
886.749	1.38
887.485	-0.62
888.221	1.38
888.957	1.38
889.692	1.38
890.428	0.38
891.163	1.38
891.899	2.38
892.634	2.38
893.369	0.38
894.104	-0.62
894.839	1.38
895.574	2.38
896.309	0.38
897.044	-3.62
897.779	-0.62
898.514	0.38
899.248	1.38
899.983	1.38
900.717	0.38
901.452	-0.62
902.186	-0.62
902.92	2.38
903.654	0.38
904.389	-0.62
905.123	0.38
905.857	0.38
906.59	2.38
907.324	-0.62
908.058	-1.62
908.792	0.38
909.525	0.38
910.259	-0.62
910.992	0.38
911.726	0.38
912.459	-0.62
913.192	0.38
913.925	-0.62
914.658	1.38
915.391	0.38
916.124	1.38
916.857	-2.62
917.59	0.38
918.323	0.38
919.055	-0.62
919.788	2.38
920.521	0.38
921.253	-0.62
921.985	-0.62
922.718	-1.62
923.45	-0.62
924.182	1.38
924.914	-1.62
925.646	1.38
926.378	1.38
927.11	-0.62
927.841	-1.62
928.573	1.38
929.305	2.38
930.036	1.38
930.768	0.38
931.499	0.38
932.23	0.38
932.962	-0.62
933.693	-0.62
934.424	1.38
935.155	1.38
935.886	1.38
936.617	-1.62
937.348	2.38
938.078	1.38
938.809	-1.62
939.54	0.38
940.27	0.38
941.001	0.38
941.731	0.38
942.461	-2.62
943.191	1.38
943.922	1.38
944.652	0.38
945.382	0.38
946.112	1.38
946.841	2.38
947.571	1.38
948.301	2.38
949.031	-0.62
949.76	-0.62
950.49	0.38
951.219	1.38
951.948	0.38
952.678	0.38
953.407	-1.62
954.136	-0.62
954.865	-1.62
955.594	4.38
956.323	0.38
957.052	1.38
957.78	-0.62
958.509	0.38
959.238	-0.62
959.966	-0.62
960.695	-0.62
961.423	0.38
962.151	0.38
962.88	-0.62
963.608	-1.62
964.336	0.38
965.064	0.38
965.792	0.38
966.52	0.38
967.247	-0.62
967.975	2.38
968.703	-0.62
969.43	1.38
970.158	0.38
970.885	1.38
971.613	-0.62
972.34	-0.62
973.067	0.38
973.794	1.38
974.521	0.38
975.248	-0.62
975.975	-1.62
976.702	0.38
977.429	0.38
978.156	0.38
978.882	-1.62
979.609	0.38
980.335	-0.62
981.062	0.38
981.788	-1.62
982.514	1.38
983.24	-0.62
983.967	1.38
984.693	1.38
985.419	1.38
986.144	-3.62
986.87	0.38
987.596	1.38
988.322	1.38
989.047	0.38
989.773	0.38
990.498	-0.62
991.224	0.38
991.949	0.38
992.674	-2.62
993.399	1.38
994.124	0.38
994.849	0.38
995.574	2.38
996.299	1.38
997.024	-0.62
997.749	0.38
998.473	-0.62
999.198	1.38
999.922	0.38
1000.647	-0.62
1001.371	0.38
1002.095	-0.62
1002.82	0.38
1003.544	-1.62
1004.268	1.38
1004.992	1.38
1005.716	0.38
1006.439	3.38
1007.163	2.38
1007.887	2.38
1008.611	0.38
1009.334	-1.62
1010.058	1.38
1010.781	0.38
1011.504	-0.62
1012.228	1.38
1012.951	0.38
1013.674	0.38
1014.397	0.38
1015.12	0.38
