节点500_425_QEPB04081__17__15-48-38-463.txt的数据

Date: Wed Nov 12 15:48:38 CST 2025
User: PC
Spectrometer: QEPB0408
触发模式: 0
积分时间 (秒): 1.000000E-2
Scans to average: 1
启用暗噪声校正: true
启用非线性校正: false
滑动平均宽度: 0
X轴模式: Wavelengths
Number of Pixels in Spectrum: 1044
>>>>>Begin Spectral Data<<<<<
220.843	3.75
221.644	3.75
222.444	0.75
223.244	2.75
224.045	3.75
224.845	2.75
225.645	6.75
226.445	2.75
227.245	2.75
228.045	1.75
228.845	2.75
229.645	1.75
230.444	1.75
231.244	4.75
232.043	3.75
232.843	3.75
233.642	6.75
234.442	6.75
235.241	5.75
236.04	6.75
236.839	5.75
237.638	3.75
238.437	3.75
239.236	9.75
240.035	4.75
240.833	8.75
241.632	5.75
242.43	5.75
243.229	6.75
244.027	8.75
244.826	10.75
245.624	8.75
246.422	8.75
247.22	7.75
248.018	8.75
248.816	8.75
249.614	9.75
250.412	8.75
251.21	11.75
252.007	7.75
252.805	10.75
253.602	8.75
254.4	8.75
255.197	9.75
255.994	11.75
256.791	15.75
257.589	11.75
258.386	12.75
259.183	16.75
259.979	13.75
260.776	13.75
261.573	15.75
262.37	15.75
263.166	15.75
263.963	18.75
264.759	20.75
265.556	20.75
266.352	19.75
267.148	17.75
267.944	22.75
268.74	20.75
269.536	19.75
270.332	21.75
271.128	20.75
271.924	22.75
272.719	19.75
273.515	23.75
274.311	21.75
275.106	24.75
275.901	23.75
276.697	24.75
277.492	23.75
278.287	23.75
279.082	23.75
279.877	24.75
280.672	25.75
281.467	25.75
282.262	25.75
283.056	27.75
283.851	24.75
284.646	25.75
285.44	27.75
286.234	25.75
287.029	27.75
287.823	23.75
288.617	23.75
289.411	22.75
290.205	24.75
290.999	25.75
291.793	24.75
292.587	23.75
293.381	20.75
294.174	22.75
294.968	24.75
295.761	22.75
296.555	18.75
297.348	19.75
298.141	17.75
298.935	17.75
299.728	17.75
300.521	19.75
301.314	17.75
302.107	16.75
302.899	16.75
303.692	13.75
304.485	16.75
305.277	13.75
306.07	16.75
306.862	15.75
307.655	16.75
308.447	13.75
309.239	13.75
310.031	14.75
310.823	11.75
311.615	11.75
312.407	12.75
313.199	12.75
313.991	11.75
314.783	11.75
315.574	9.75
316.366	6.75
317.157	12.75
317.949	8.75
318.74	9.75
319.531	9.75
320.322	9.75
321.113	10.75
321.904	10.75
322.695	8.75
323.486	8.75
324.277	10.75
325.068	7.75
325.858	8.75
326.649	8.75
327.439	7.75
328.23	10.75
329.02	6.75
329.81	6.75
330.6	6.75
331.391	4.75
332.181	8.75
332.971	7.75
333.76	7.75
334.55	8.75
335.34	8.75
336.13	8.75
336.919	8.75
337.709	9.75
338.498	7.75
339.287	7.75
340.077	8.75
340.866	7.75
341.655	8.75
342.444	7.75
343.233	6.75
344.022	5.75
344.811	5.75
345.6	7.75
346.388	6.75
347.177	9.75
347.965	6.75
348.754	6.75
349.542	8.75
350.33	4.75
351.119	8.75
351.907	6.75
352.695	7.75
353.483	7.75
354.271	7.75
355.059	7.75
355.846	7.75
356.634	10.75
357.422	7.75
358.209	8.75
358.997	8.75
359.784	6.75
360.571	7.75
361.359	7.75
362.146	7.75
362.933	5.75
363.72	6.75
364.507	8.75
365.294	4.75
366.081	8.75
366.867	7.75
367.654	6.75
368.44	4.75
369.227	5.75
370.013	7.75
370.8	3.75
371.586	4.75
372.372	5.75
373.158	5.75
373.944	6.75
374.73	5.75
375.516	8.75
376.302	6.75
377.088	8.75
377.873	7.75
378.659	4.75
379.445	4.75
380.23	5.75
381.015	6.75
381.801	4.75
382.586	7.75
383.371	5.75
384.156	6.75
384.941	7.75
385.726	8.75
386.511	6.75
387.296	7.75
388.08	4.75
388.865	7.75
389.649	6.75
390.434	7.75
391.218	7.75
392.003	9.75
392.787	6.75
393.571	7.75
394.355	7.75
395.139	6.75
395.923	8.75
396.707	7.75
397.491	7.75
398.274	10.75
399.058	7.75
399.842	11.75
400.625	7.75
401.408	9.75
402.192	10.75
402.975	10.75
403.758	8.75
404.541	9.75
405.324	10.75
406.107	8.75
406.89	9.75
407.673	11.75
408.456	9.75
409.238	11.75
410.021	11.75
410.803	10.75
411.586	10.75
412.368	10.75
413.151	11.75
413.933	11.75
414.715	12.75
415.497	12.75
416.279	11.75
417.061	13.75
417.843	10.75
418.624	13.75
419.406	11.75
420.188	13.75
420.969	15.75
421.751	12.75
422.532	14.75
423.313	12.75
424.095	16.75
424.876	15.75
425.657	17.75
426.438	16.75
427.219	17.75
428	16.75
428.78	16.75
429.561	22.75
430.342	18.75
431.122	19.75
431.903	19.75
432.683	19.75
433.464	20.75
434.244	21.75
435.024	22.75
435.804	26.75
436.584	26.75
437.364	26.75
438.144	25.75
438.924	32.75
439.704	30.75
440.483	35.75
441.263	35.75
442.042	36.75
442.822	39.75
443.601	41.75
444.38	41.75
445.16	41.75
445.939	43.75
446.718	50.75
447.497	56.75
448.276	60.75
449.054	63.75
449.833	71.75
450.612	73.75
451.391	83.75
452.169	91.75
452.948	99.75
453.726	108.75
454.504	119.75
455.282	131.75
456.061	149.75
456.839	162.75
457.617	188.75
458.395	200.75
459.172	226.75
459.95	251.75
460.728	281.75
461.506	309.75
462.283	348.75
463.061	391.75
463.838	441.75
464.615	489.75
465.393	551.75
466.17	617.75
466.947	687.75
467.724	776.75
468.501	867.75
469.278	970.75
470.055	1075.75
470.831	1190.75
471.608	1334.75
472.385	1487.75
473.161	1651.75
473.938	1853.75
474.714	2027.75
475.49	2264.75
476.266	2525.75
477.043	2797.75
477.819	3092.75
478.595	3466.75
479.371	3832.75
480.146	4221.75
480.922	4621.75
481.698	5109.75
482.473	5686.75
483.249	6260.75
484.024	6948.75
484.8	7649.75
485.575	8356.75
486.35	9213.75
487.126	10078.75
487.901	11084.75
488.676	12160.75
489.451	13264.75
490.225	14506.75
491	15778.75
491.775	17176.75
492.55	18570.75
493.324	20028.75
494.099	21540.75
494.873	22975.75
495.647	24608.75
496.422	26103.75
497.196	27697.75
497.97	29324.75
498.744	30805.75
499.518	32140.75
500.292	33340.75
501.066	34397.75
501.839	35318.75
502.613	36144.75
503.387	36604.75
504.16	36905.75
504.934	36898.75
505.707	36662.75
506.48	36307.75
507.253	35652.75
508.027	34941.75
508.8	34136.75
509.573	33175.75
510.346	32114.75
511.118	30913.75
511.891	29715.75
512.664	28525.75
513.437	27214.75
514.209	26013.75
514.982	24930.75
515.754	23825.75
516.526	22742.75
517.298	21760.75
518.071	20818.75
518.843	19967.75
519.615	19129.75
520.387	18387.75
521.159	17705.75
521.93	17073.75
522.702	16377.75
523.474	15717.75
524.245	15098.75
525.017	14329.75
525.788	13659.75
526.56	12995.75
527.331	12400.75
528.102	11728.75
528.873	11171.75
529.644	10567.75
530.415	10121.75
531.186	9520.75
531.957	9055.75
532.728	8550.75
533.498	8028.75
534.269	7576.75
535.039	7191.75
535.81	6770.75
536.58	6394.75
537.351	6008.75
538.121	5714.75
538.891	5389.75
539.661	5112.75
540.431	4812.75
541.201	4582.75
541.971	4371.75
542.741	4115.75
543.51	3918.75
544.28	3717.75
545.05	3537.75
545.819	3351.75
546.588	3195.75
547.358	3028.75
548.127	2861.75
548.896	2708.75
549.665	2567.75
550.434	2449.75
551.203	2305.75
551.972	2186.75
552.741	2059.75
553.51	1964.75
554.278	1830.75
555.047	1721.75
555.815	1621.75
556.584	1548.75
557.352	1458.75
558.121	1367.75
558.889	1284.75
559.657	1230.75
560.425	1145.75
561.193	1091.75
561.961	1035.75
562.729	968.75
563.496	925.75
564.264	879.75
565.032	827.75
565.799	776.75
566.567	747.75
567.334	688.75
568.101	663.75
568.869	618.75
569.636	580.75
570.403	549.75
571.17	520.75
571.937	492.75
572.704	463.75
573.471	442.75
574.237	408.75
575.004	386.75
575.771	368.75
576.537	350.75
577.303	320.75
578.07	299.75
578.836	290.75
579.602	273.75
580.368	262.75
581.134	239.75
581.9	231.75
582.666	221.75
583.432	213.75
584.198	202.75
584.964	185.75
585.729	182.75
586.495	170.75
587.26	159.75
588.025	155.75
588.791	146.75
589.556	135.75
590.321	130.75
591.086	127.75
591.851	115.75
592.616	109.75
593.381	106.75
594.146	100.75
594.911	96.75
595.675	94.75
596.44	89.75
597.204	82.75
597.969	77.75
598.733	77.75
599.497	73.75
600.261	72.75
601.025	66.75
601.79	68.75
602.553	61.75
603.317	59.75
604.081	55.75
604.845	56.75
605.609	52.75
606.372	51.75
607.136	47.75
607.899	48.75
608.662	40.75
609.426	44.75
610.189	41.75
610.952	39.75
611.715	38.75
612.478	38.75
613.241	37.75
614.004	31.75
614.767	35.75
615.529	32.75
616.292	30.75
617.055	31.75
617.817	29.75
618.579	27.75
619.342	25.75
620.104	24.75
620.866	23.75
621.628	26.75
622.39	23.75
623.152	22.75
623.914	22.75
624.676	19.75
625.438	21.75
626.199	18.75
626.961	20.75
627.722	20.75
628.484	17.75
629.245	15.75
630.006	14.75
630.768	14.75
631.529	17.75
632.29	13.75
633.051	15.75
633.812	16.75
634.573	13.75
635.333	14.75
636.094	11.75
636.855	14.75
637.615	13.75
638.376	11.75
639.136	12.75
639.896	11.75
640.657	13.75
641.417	10.75
642.177	10.75
642.937	9.75
643.697	10.75
644.457	9.75
645.216	9.75
645.976	9.75
646.736	9.75
647.495	10.75
648.255	6.75
649.014	8.75
649.774	8.75
650.533	5.75
651.292	6.75
652.051	8.75
652.81	10.75
653.569	9.75
654.328	8.75
655.087	8.75
655.846	7.75
656.604	11.75
657.363	6.75
658.121	8.75
658.88	5.75
659.638	4.75
660.397	7.75
661.155	5.75
661.913	6.75
662.671	7.75
663.429	6.75
664.187	6.75
664.945	6.75
665.703	5.75
666.46	4.75
667.218	6.75
667.976	8.75
668.733	6.75
669.49	7.75
670.248	2.75
671.005	5.75
671.762	3.75
672.519	6.75
673.276	5.75
674.033	4.75
674.79	6.75
675.547	6.75
676.304	3.75
677.06	4.75
677.817	3.75
678.574	5.75
679.33	5.75
680.086	5.75
680.843	5.75
681.599	4.75
682.355	4.75
683.111	3.75
683.867	3.75
684.623	3.75
685.379	4.75
686.135	4.75
686.89	4.75
687.646	4.75
688.402	4.75
689.157	4.75
689.912	5.75
690.668	4.75
691.423	4.75
692.178	4.75
692.933	4.75
693.688	0.75
694.443	4.75
695.198	4.75
695.953	5.75
696.708	4.75
697.462	1.75
698.217	4.75
698.972	4.75
699.726	3.75
700.48	5.75
701.235	4.75
701.989	3.75
702.743	1.75
703.497	2.75
704.251	1.75
705.005	3.75
705.759	5.75
706.513	4.75
707.266	1.75
708.02	4.75
708.774	3.75
709.527	4.75
710.28	3.75
711.034	6.75
711.787	1.75
712.54	4.75
713.293	2.75
714.046	3.75
714.799	1.75
715.552	4.75
716.305	5.75
717.058	3.75
717.81	3.75
718.563	5.75
719.315	3.75
720.068	5.75
720.82	4.75
721.573	3.75
722.325	5.75
723.077	6.75
723.829	3.75
724.581	4.75
725.333	6.75
726.085	4.75
726.836	5.75
727.588	5.75
728.34	6.75
729.091	5.75
729.843	5.75
730.594	6.75
731.346	4.75
732.097	4.75
732.848	5.75
733.599	5.75
734.35	4.75
735.101	4.75
735.852	6.75
736.603	3.75
737.354	7.75
738.104	5.75
738.855	2.75
739.605	7.75
740.356	6.75
741.106	6.75
741.856	5.75
742.607	6.75
743.357	6.75
744.107	4.75
744.857	5.75
745.607	5.75
746.357	6.75
747.106	8.75
747.856	7.75
748.606	7.75
749.355	7.75
750.105	7.75
750.854	6.75
751.603	7.75
752.353	7.75
753.102	7.75
753.851	7.75
754.6	3.75
755.349	7.75
756.098	9.75
756.847	5.75
757.595	9.75
758.344	5.75
759.093	7.75
759.841	8.75
760.589	9.75
761.338	9.75
762.086	9.75
762.834	9.75
763.582	8.75
764.331	8.75
765.079	10.75
765.826	9.75
766.574	10.75
767.322	9.75
768.07	8.75
768.817	10.75
769.565	11.75
770.312	10.75
771.06	6.75
771.807	7.75
772.554	9.75
773.302	9.75
774.049	8.75
774.796	11.75
775.543	10.75
776.29	9.75
777.036	11.75
777.783	11.75
778.53	11.75
779.276	10.75
780.023	9.75
780.769	13.75
781.516	11.75
782.262	9.75
783.008	11.75
783.754	10.75
784.5	11.75
785.246	10.75
785.992	10.75
786.738	11.75
787.484	10.75
788.23	12.75
788.975	11.75
789.721	11.75
790.466	10.75
791.212	11.75
791.957	10.75
792.702	8.75
793.447	9.75
794.193	10.75
794.938	10.75
795.683	11.75
796.427	8.75
797.172	8.75
797.917	10.75
798.662	10.75
799.406	9.75
800.151	7.75
800.895	8.75
801.64	7.75
802.384	9.75
803.128	8.75
803.872	7.75
804.616	6.75
805.36	5.75
806.104	5.75
806.848	8.75
807.592	6.75
808.336	7.75
809.079	6.75
809.823	6.75
810.566	7.75
811.31	8.75
812.053	6.75
812.796	6.75
813.539	6.75
814.283	8.75
815.026	4.75
815.769	5.75
816.511	4.75
817.254	4.75
817.997	5.75
818.74	6.75
819.482	3.75
820.225	5.75
820.967	4.75
821.71	4.75
822.452	4.75
823.194	5.75
823.936	2.75
824.678	7.75
825.42	4.75
826.162	3.75
826.904	6.75
827.646	3.75
828.388	7.75
829.129	3.75
829.871	4.75
830.612	4.75
831.354	3.75
832.095	2.75
832.836	2.75
833.577	5.75
834.319	1.75
835.06	4.75
835.801	4.75
836.542	0.75
837.282	1.75
838.023	3.75
838.764	6.75
839.504	1.75
840.245	3.75
840.985	2.75
841.726	1.75
842.466	2.75
843.206	1.75
843.946	2.75
844.687	2.75
845.427	3.75
846.166	2.75
846.906	2.75
847.646	0.75
848.386	4.75
849.125	3.75
849.865	2.75
850.605	1.75
851.344	3.75
852.083	2.75
852.823	1.75
853.562	2.75
854.301	1.75
855.04	0.75
855.779	2.75
856.518	3.75
857.257	4.75
857.995	2.75
858.734	3.75
859.473	1.75
860.211	1.75
860.95	2.75
861.688	2.75
862.426	0.75
863.165	1.75
863.903	1.75
864.641	1.75
865.379	1.75
866.117	0.75
866.855	1.75
867.593	3.75
868.33	-0.25
869.068	4.75
869.806	-1.25
870.543	0.75
871.28	0.75
872.018	-0.25
872.755	0.75
873.492	-0.25
874.229	1.75
874.967	-1.25
875.703	1.75
876.44	1.75
877.177	-0.25
877.914	-0.25
878.651	-0.25
879.387	-0.25
880.124	-0.25
880.86	1.75
881.597	0.75
882.333	-0.25
883.069	-0.25
883.806	-0.25
884.542	-1.25
885.278	1.75
886.014	-0.25
886.749	1.75
887.485	0.75
888.221	0.75
888.957	0.75
889.692	-0.25
890.428	0.75
891.163	-0.25
891.899	2.75
892.634	-0.25
893.369	1.75
894.104	2.75
894.839	2.75
895.574	-0.25
896.309	-0.25
897.044	-0.25
897.779	0.75
898.514	-1.25
899.248	-0.25
899.983	-0.25
900.717	1.75
901.452	-1.25
902.186	2.75
902.92	-0.25
903.654	-0.25
904.389	-0.25
905.123	-0.25
905.857	0.75
906.59	-2.25
907.324	2.75
908.058	1.75
908.792	-1.25
909.525	0.75
910.259	-0.25
910.992	-0.25
911.726	0.75
912.459	-1.25
913.192	-0.25
913.925	-1.25
914.658	-0.25
915.391	-0.25
916.124	0.75
916.857	1.75
917.59	-0.25
918.323	0.75
919.055	-2.25
919.788	-0.25
920.521	-0.25
921.253	-0.25
921.985	0.75
922.718	-1.25
923.45	-0.25
924.182	-0.25
924.914	-0.25
925.646	-0.25
926.378	0.75
927.11	-0.25
927.841	0.75
928.573	-0.25
929.305	-0.25
930.036	-2.25
930.768	-1.25
931.499	-0.25
932.23	-0.25
932.962	-0.25
933.693	-0.25
934.424	0.75
935.155	0.75
935.886	0.75
936.617	-0.25
937.348	0.75
938.078	-0.25
938.809	-1.25
939.54	-2.25
940.27	0.75
941.001	0.75
941.731	-1.25
942.461	-4.25
943.191	1.75
943.922	-1.25
944.652	0.75
945.382	1.75
946.112	-0.25
946.841	0.75
947.571	0.75
948.301	0.75
949.031	0.75
949.76	-0.25
950.49	-0.25
951.219	-3.25
951.948	-1.25
952.678	-0.25
953.407	-2.25
954.136	-1.25
954.865	0.75
955.594	0.75
956.323	0.75
957.052	-0.25
957.78	-1.25
958.509	-1.25
959.238	-2.25
959.966	-1.25
960.695	-0.25
961.423	-0.25
962.151	-0.25
962.88	-1.25
963.608	-0.25
964.336	-2.25
965.064	-1.25
965.792	-0.25
966.52	-1.25
967.247	-0.25
967.975	-0.25
968.703	-0.25
969.43	-0.25
970.158	-0.25
970.885	0.75
971.613	1.75
972.34	-1.25
973.067	-0.25
973.794	1.75
974.521	-0.25
975.248	-0.25
975.975	-0.25
976.702	-0.25
977.429	-0.25
978.156	1.75
978.882	-2.25
979.609	-1.25
980.335	-0.25
981.062	0.75
981.788	-1.25
982.514	0.75
983.24	-0.25
983.967	0.75
984.693	-0.25
985.419	1.75
986.144	-0.25
986.87	0.75
987.596	0.75
988.322	-0.25
989.047	-1.25
989.773	1.75
990.498	0.75
991.224	0.75
991.949	-1.25
992.674	-0.25
993.399	-0.25
994.124	2.75
994.849	-0.25
995.574	-0.25
996.299	1.75
997.024	-0.25
997.749	-0.25
998.473	0.75
999.198	-2.25
999.922	-0.25
1000.647	0.75
1001.371	4.75
1002.095	-2.25
1002.82	-0.25
1003.544	-2.25
1004.268	1.75
1004.992	-0.25
1005.716	1.75
1006.439	0.75
1007.163	1.75
1007.887	3.75
1008.611	2.75
1009.334	-1.25
1010.058	-0.25
1010.781	0.75
1011.504	-1.25
1012.228	0.75
1012.951	1.75
1013.674	-0.25
1014.397	-1.25
1015.12	-0.25
