节点500_425_QEPB04081__217__15-51-55-075.txt的数据

Date: Wed Nov 12 15:51:55 CST 2025
User: PC
Spectrometer: QEPB0408
触发模式: 0
积分时间 (秒): 1.000000E-2
Scans to average: 1
启用暗噪声校正: true
启用非线性校正: false
滑动平均宽度: 0
X轴模式: Wavelengths
Number of Pixels in Spectrum: 1044
>>>>>Begin Spectral Data<<<<<
220.843	3.5
221.644	1.5
222.444	1.5
223.244	3.5
224.045	4.5
224.845	2.5
225.645	3.5
226.445	5.5
227.245	5.5
228.045	6.5
228.845	2.5
229.645	4.5
230.444	1.5
231.244	5.5
232.043	6.5
232.843	6.5
233.642	6.5
234.442	6.5
235.241	6.5
236.04	7.5
236.839	10.5
237.638	6.5
238.437	4.5
239.236	9.5
240.035	7.5
240.833	8.5
241.632	8.5
242.43	8.5
243.229	8.5
244.027	7.5
244.826	8.5
245.624	7.5
246.422	10.5
247.22	10.5
248.018	9.5
248.816	9.5
249.614	12.5
250.412	10.5
251.21	10.5
252.007	10.5
252.805	10.5
253.602	11.5
254.4	12.5
255.197	11.5
255.994	11.5
256.791	13.5
257.589	11.5
258.386	14.5
259.183	14.5
259.979	14.5
260.776	14.5
261.573	14.5
262.37	18.5
263.166	17.5
263.963	19.5
264.759	18.5
265.556	19.5
266.352	19.5
267.148	18.5
267.944	18.5
268.74	19.5
269.536	19.5
270.332	22.5
271.128	22.5
271.924	21.5
272.719	24.5
273.515	21.5
274.311	23.5
275.106	21.5
275.901	24.5
276.697	23.5
277.492	25.5
278.287	23.5
279.082	23.5
279.877	26.5
280.672	26.5
281.467	27.5
282.262	25.5
283.056	26.5
283.851	26.5
284.646	25.5
285.44	26.5
286.234	24.5
287.029	24.5
287.823	25.5
288.617	25.5
289.411	24.5
290.205	27.5
290.999	25.5
291.793	24.5
292.587	21.5
293.381	24.5
294.174	22.5
294.968	22.5
295.761	19.5
296.555	20.5
297.348	18.5
298.141	20.5
298.935	24.5
299.728	22.5
300.521	17.5
301.314	17.5
302.107	19.5
302.899	16.5
303.692	17.5
304.485	16.5
305.277	16.5
306.07	17.5
306.862	16.5
307.655	16.5
308.447	17.5
309.239	13.5
310.031	18.5
310.823	15.5
311.615	11.5
312.407	10.5
313.199	14.5
313.991	11.5
314.783	11.5
315.574	14.5
316.366	10.5
317.157	14.5
317.949	12.5
318.74	11.5
319.531	11.5
320.322	10.5
321.113	10.5
321.904	9.5
322.695	10.5
323.486	8.5
324.277	9.5
325.068	9.5
325.858	7.5
326.649	10.5
327.439	10.5
328.23	9.5
329.02	9.5
329.81	9.5
330.6	10.5
331.391	7.5
332.181	10.5
332.971	8.5
333.76	10.5
334.55	9.5
335.34	10.5
336.13	10.5
336.919	8.5
337.709	8.5
338.498	9.5
339.287	9.5
340.077	9.5
340.866	9.5
341.655	8.5
342.444	10.5
343.233	6.5
344.022	10.5
344.811	10.5
345.6	9.5
346.388	8.5
347.177	8.5
347.965	10.5
348.754	7.5
349.542	7.5
350.33	8.5
351.119	10.5
351.907	8.5
352.695	8.5
353.483	8.5
354.271	6.5
355.059	9.5
355.846	5.5
356.634	9.5
357.422	8.5
358.209	7.5
358.997	7.5
359.784	7.5
360.571	10.5
361.359	6.5
362.146	7.5
362.933	9.5
363.72	5.5
364.507	8.5
365.294	6.5
366.081	8.5
366.867	8.5
367.654	8.5
368.44	5.5
369.227	5.5
370.013	8.5
370.8	7.5
371.586	8.5
372.372	7.5
373.158	5.5
373.944	10.5
374.73	5.5
375.516	6.5
376.302	8.5
377.088	9.5
377.873	6.5
378.659	4.5
379.445	6.5
380.23	6.5
381.015	7.5
381.801	7.5
382.586	4.5
383.371	6.5
384.156	8.5
384.941	6.5
385.726	6.5
386.511	7.5
387.296	8.5
388.08	8.5
388.865	8.5
389.649	6.5
390.434	10.5
391.218	8.5
392.003	7.5
392.787	10.5
393.571	9.5
394.355	10.5
395.139	9.5
395.923	8.5
396.707	9.5
397.491	7.5
398.274	8.5
399.058	7.5
399.842	9.5
400.625	8.5
401.408	8.5
402.192	9.5
402.975	7.5
403.758	8.5
404.541	11.5
405.324	11.5
406.107	8.5
406.89	9.5
407.673	12.5
408.456	9.5
409.238	10.5
410.021	8.5
410.803	12.5
411.586	14.5
412.368	13.5
413.151	14.5
413.933	13.5
414.715	9.5
415.497	14.5
416.279	10.5
417.061	12.5
417.843	11.5
418.624	13.5
419.406	13.5
420.188	12.5
420.969	14.5
421.751	17.5
422.532	14.5
423.313	17.5
424.095	14.5
424.876	14.5
425.657	16.5
426.438	17.5
427.219	16.5
428	16.5
428.78	18.5
429.561	19.5
430.342	21.5
431.122	20.5
431.903	24.5
432.683	21.5
433.464	19.5
434.244	24.5
435.024	23.5
435.804	25.5
436.584	29.5
437.364	27.5
438.144	30.5
438.924	30.5
439.704	30.5
440.483	35.5
441.263	37.5
442.042	42.5
442.822	40.5
443.601	40.5
444.38	44.5
445.16	52.5
445.939	48.5
446.718	55.5
447.497	62.5
448.276	64.5
449.054	75.5
449.833	78.5
450.612	83.5
451.391	91.5
452.169	100.5
452.948	109.5
453.726	117.5
454.504	140.5
455.282	152.5
456.061	164.5
456.839	181.5
457.617	206.5
458.395	228.5
459.172	252.5
459.95	280.5
460.728	314.5
461.506	349.5
462.283	405.5
463.061	440.5
463.838	486.5
464.615	548.5
465.393	609.5
466.17	681.5
466.947	750.5
467.724	845.5
468.501	942.5
469.278	1045.5
470.055	1157.5
470.831	1291.5
471.608	1420.5
472.385	1585.5
473.161	1764.5
473.938	1957.5
474.714	2148.5
475.49	2378.5
476.266	2643.5
477.043	2889.5
477.819	3197.5
478.595	3522.5
479.371	3897.5
480.146	4262.5
480.922	4682.5
481.698	5146.5
482.473	5656.5
483.249	6202.5
484.024	6781.5
484.8	7467.5
485.575	8142.5
486.35	8863.5
487.126	9697.5
487.901	10554.5
488.676	11610.5
489.451	12590.5
490.225	13670.5
491	14839.5
491.775	16156.5
492.55	17410.5
493.324	18763.5
494.099	20087.5
494.873	21470.5
495.647	22968.5
496.422	24431.5
497.196	25964.5
497.97	27422.5
498.744	28968.5
499.518	30228.5
500.292	31466.5
501.066	32585.5
501.839	33725.5
502.613	34630.5
503.387	35309.5
504.16	35732.5
504.934	36008.5
505.707	36051.5
506.48	35837.5
507.253	35516.5
508.027	35038.5
508.8	34432.5
509.573	33609.5
510.346	32701.5
511.118	31756.5
511.891	30686.5
512.664	29514.5
513.437	28304.5
514.209	27154.5
514.982	26109.5
515.754	25066.5
516.526	23981.5
517.298	22973.5
518.071	21954.5
518.843	21097.5
519.615	20226.5
520.387	19485.5
521.159	18690.5
521.93	17969.5
522.702	17266.5
523.474	16544.5
524.245	15844.5
525.017	15118.5
525.788	14455.5
526.56	13819.5
527.331	13143.5
528.102	12509.5
528.873	11968.5
529.644	11374.5
530.415	10886.5
531.186	10264.5
531.957	9776.5
532.728	9223.5
533.498	8697.5
534.269	8201.5
535.039	7798.5
535.81	7367.5
536.58	6969.5
537.351	6566.5
538.121	6170.5
538.891	5828.5
539.661	5564.5
540.431	5260.5
541.201	4960.5
541.971	4725.5
542.741	4460.5
543.51	4260.5
544.28	4032.5
545.05	3848.5
545.819	3694.5
546.588	3491.5
547.358	3301.5
548.127	3115.5
548.896	2961.5
549.665	2813.5
550.434	2692.5
551.203	2527.5
551.972	2380.5
552.741	2281.5
553.51	2149.5
554.278	2027.5
555.047	1893.5
555.815	1805.5
556.584	1709.5
557.352	1595.5
558.121	1508.5
558.889	1430.5
559.657	1356.5
560.425	1273.5
561.193	1207.5
561.961	1140.5
562.729	1078.5
563.496	1032.5
564.264	974.5
565.032	908.5
565.799	866.5
566.567	809.5
567.334	783.5
568.101	727.5
568.869	678.5
569.636	651.5
570.403	609.5
571.17	581.5
571.937	546.5
572.704	513.5
573.471	494.5
574.237	445.5
575.004	427.5
575.771	404.5
576.537	381.5
577.303	361.5
578.07	341.5
578.836	324.5
579.602	302.5
580.368	287.5
581.134	268.5
581.9	269.5
582.666	246.5
583.432	230.5
584.198	220.5
584.964	209.5
585.729	198.5
586.495	185.5
587.26	176.5
588.025	171.5
588.791	157.5
589.556	151.5
590.321	142.5
591.086	132.5
591.851	133.5
592.616	128.5
593.381	120.5
594.146	114.5
594.911	103.5
595.675	101.5
596.44	98.5
597.204	94.5
597.969	89.5
598.733	85.5
599.497	80.5
600.261	78.5
601.025	75.5
601.79	69.5
602.553	67.5
603.317	67.5
604.081	62.5
604.845	62.5
605.609	55.5
606.372	52.5
607.136	53.5
607.899	47.5
608.662	50.5
609.426	48.5
610.189	44.5
610.952	45.5
611.715	45.5
612.478	42.5
613.241	36.5
614.004	44.5
614.767	36.5
615.529	37.5
616.292	36.5
617.055	30.5
617.817	30.5
618.579	33.5
619.342	28.5
620.104	27.5
620.866	26.5
621.628	28.5
622.39	25.5
623.152	28.5
623.914	21.5
624.676	24.5
625.438	20.5
626.199	20.5
626.961	18.5
627.722	20.5
628.484	18.5
629.245	18.5
630.006	19.5
630.768	17.5
631.529	16.5
632.29	16.5
633.051	16.5
633.812	15.5
634.573	17.5
635.333	17.5
636.094	16.5
636.855	14.5
637.615	14.5
638.376	16.5
639.136	14.5
639.896	11.5
640.657	12.5
641.417	15.5
642.177	13.5
642.937	13.5
643.697	12.5
644.457	11.5
645.216	9.5
645.976	10.5
646.736	11.5
647.495	10.5
648.255	12.5
649.014	9.5
649.774	9.5
650.533	7.5
651.292	11.5
652.051	9.5
652.81	8.5
653.569	9.5
654.328	10.5
655.087	7.5
655.846	10.5
656.604	9.5
657.363	8.5
658.121	7.5
658.88	9.5
659.638	9.5
660.397	7.5
661.155	6.5
661.913	8.5
662.671	6.5
663.429	9.5
664.187	9.5
664.945	8.5
665.703	4.5
666.46	5.5
667.218	6.5
667.976	7.5
668.733	8.5
669.49	9.5
670.248	6.5
671.005	7.5
671.762	6.5
672.519	6.5
673.276	5.5
674.033	5.5
674.79	6.5
675.547	7.5
676.304	4.5
677.06	6.5
677.817	9.5
678.574	6.5
679.33	7.5
680.086	3.5
680.843	7.5
681.599	7.5
682.355	6.5
683.111	5.5
683.867	5.5
684.623	7.5
685.379	5.5
686.135	3.5
686.89	5.5
687.646	4.5
688.402	6.5
689.157	4.5
689.912	6.5
690.668	8.5
691.423	8.5
692.178	6.5
692.933	5.5
693.688	7.5
694.443	5.5
695.198	5.5
695.953	4.5
696.708	4.5
697.462	6.5
698.217	7.5
698.972	3.5
699.726	6.5
700.48	4.5
701.235	7.5
701.989	1.5
702.743	4.5
703.497	6.5
704.251	4.5
705.005	4.5
705.759	4.5
706.513	4.5
707.266	5.5
708.02	4.5
708.774	6.5
709.527	4.5
710.28	6.5
711.034	5.5
711.787	7.5
712.54	6.5
713.293	5.5
714.046	3.5
714.799	3.5
715.552	4.5
716.305	5.5
717.058	6.5
717.81	4.5
718.563	6.5
719.315	4.5
720.068	5.5
720.82	4.5
721.573	5.5
722.325	3.5
723.077	6.5
723.829	3.5
724.581	8.5
725.333	5.5
726.085	4.5
726.836	6.5
727.588	5.5
728.34	9.5
729.091	4.5
729.843	4.5
730.594	5.5
731.346	3.5
732.097	7.5
732.848	7.5
733.599	5.5
734.35	7.5
735.101	5.5
735.852	5.5
736.603	5.5
737.354	6.5
738.104	5.5
738.855	8.5
739.605	5.5
740.356	4.5
741.106	6.5
741.856	6.5
742.607	6.5
743.357	7.5
744.107	8.5
744.857	8.5
745.607	4.5
746.357	6.5
747.106	5.5
747.856	7.5
748.606	6.5
749.355	5.5
750.105	8.5
750.854	7.5
751.603	7.5
752.353	6.5
753.102	6.5
753.851	9.5
754.6	9.5
755.349	8.5
756.098	9.5
756.847	8.5
757.595	9.5
758.344	8.5
759.093	8.5
759.841	10.5
760.589	8.5
761.338	7.5
762.086	9.5
762.834	11.5
763.582	6.5
764.331	9.5
765.079	9.5
765.826	10.5
766.574	11.5
767.322	10.5
768.07	10.5
768.817	10.5
769.565	12.5
770.312	11.5
771.06	12.5
771.807	8.5
772.554	12.5
773.302	9.5
774.049	10.5
774.796	13.5
775.543	11.5
776.29	10.5
777.036	10.5
777.783	12.5
778.53	11.5
779.276	11.5
780.023	14.5
780.769	12.5
781.516	11.5
782.262	11.5
783.008	9.5
783.754	10.5
784.5	12.5
785.246	8.5
785.992	10.5
786.738	12.5
787.484	12.5
788.23	9.5
788.975	11.5
789.721	11.5
790.466	13.5
791.212	14.5
791.957	9.5
792.702	11.5
793.447	11.5
794.193	10.5
794.938	10.5
795.683	12.5
796.427	11.5
797.172	8.5
797.917	11.5
798.662	10.5
799.406	10.5
800.151	10.5
800.895	9.5
801.64	10.5
802.384	8.5
803.128	9.5
803.872	10.5
804.616	7.5
805.36	7.5
806.104	8.5
806.848	8.5
807.592	7.5
808.336	6.5
809.079	7.5
809.823	6.5
810.566	10.5
811.31	5.5
812.053	6.5
812.796	7.5
813.539	9.5
814.283	5.5
815.026	4.5
815.769	6.5
816.511	7.5
817.254	5.5
817.997	5.5
818.74	6.5
819.482	8.5
820.225	5.5
820.967	5.5
821.71	4.5
822.452	5.5
823.194	7.5
823.936	4.5
824.678	6.5
825.42	6.5
826.162	5.5
826.904	3.5
827.646	4.5
828.388	4.5
829.129	8.5
829.871	4.5
830.612	4.5
831.354	7.5
832.095	3.5
832.836	6.5
833.577	6.5
834.319	4.5
835.06	6.5
835.801	5.5
836.542	3.5
837.282	5.5
838.023	4.5
838.764	5.5
839.504	3.5
840.245	4.5
840.985	8.5
841.726	3.5
842.466	5.5
843.206	2.5
843.946	3.5
844.687	3.5
845.427	2.5
846.166	4.5
846.906	2.5
847.646	4.5
848.386	5.5
849.125	2.5
849.865	3.5
850.605	4.5
851.344	3.5
852.083	5.5
852.823	4.5
853.562	2.5
854.301	3.5
855.04	3.5
855.779	2.5
856.518	4.5
857.257	4.5
857.995	3.5
858.734	3.5
859.473	1.5
860.211	3.5
860.95	2.5
861.688	4.5
862.426	1.5
863.165	2.5
863.903	3.5
864.641	0.5
865.379	2.5
866.117	0.5
866.855	2.5
867.593	1.5
868.33	0.5
869.068	2.5
869.806	2.5
870.543	4.5
871.28	2.5
872.018	3.5
872.755	3.5
873.492	2.5
874.229	2.5
874.967	4.5
875.703	0.5
876.44	0.5
877.177	-1.5
877.914	3.5
878.651	1.5
879.387	0.5
880.124	1.5
880.86	1.5
881.597	4.5
882.333	1.5
883.069	1.5
883.806	2.5
884.542	2.5
885.278	1.5
886.014	0.5
886.749	2.5
887.485	2.5
888.221	1.5
888.957	1.5
889.692	-0.5
890.428	4.5
891.163	0.5
891.899	-0.5
892.634	0.5
893.369	1.5
894.104	1.5
894.839	1.5
895.574	0.5
896.309	1.5
897.044	1.5
897.779	0.5
898.514	2.5
899.248	2.5
899.983	0.5
900.717	1.5
901.452	0.5
902.186	0.5
902.92	1.5
903.654	2.5
904.389	0.5
905.123	1.5
905.857	2.5
906.59	0.5
907.324	1.5
908.058	1.5
908.792	0.5
909.525	1.5
910.259	0.5
910.992	0.5
911.726	2.5
912.459	0.5
913.192	-0.5
913.925	-0.5
914.658	1.5
915.391	-0.5
916.124	1.5
916.857	-1.5
917.59	0.5
918.323	1.5
919.055	1.5
919.788	1.5
920.521	0.5
921.253	0.5
921.985	0.5
922.718	-0.5
923.45	1.5
924.182	1.5
924.914	0.5
925.646	-1.5
926.378	-1.5
927.11	0.5
927.841	0.5
928.573	0.5
929.305	0.5
930.036	-1.5
930.768	-2.5
931.499	0.5
932.23	0.5
932.962	0.5
933.693	-1.5
934.424	1.5
935.155	0.5
935.886	-1.5
936.617	1.5
937.348	0.5
938.078	1.5
938.809	-0.5
939.54	0.5
940.27	0.5
941.001	1.5
941.731	1.5
942.461	0.5
943.191	-0.5
943.922	-0.5
944.652	0.5
945.382	-0.5
946.112	-0.5
946.841	3.5
947.571	2.5
948.301	0.5
949.031	1.5
949.76	0.5
950.49	-0.5
951.219	1.5
951.948	0.5
952.678	-0.5
953.407	1.5
954.136	-0.5
954.865	0.5
955.594	1.5
956.323	-0.5
957.052	0.5
957.78	-0.5
958.509	-1.5
959.238	0.5
959.966	1.5
960.695	0.5
961.423	0.5
962.151	-0.5
962.88	0.5
963.608	2.5
964.336	0.5
965.064	1.5
965.792	-0.5
966.52	0.5
967.247	-0.5
967.975	-0.5
968.703	-0.5
969.43	-1.5
970.158	0.5
970.885	1.5
971.613	2.5
972.34	-0.5
973.067	1.5
973.794	0.5
974.521	0.5
975.248	2.5
975.975	0.5
976.702	1.5
977.429	1.5
978.156	0.5
978.882	-0.5
979.609	1.5
980.335	1.5
981.062	0.5
981.788	0.5
982.514	0.5
983.24	1.5
983.967	0.5
984.693	0.5
985.419	0.5
986.144	1.5
986.87	0.5
987.596	1.5
988.322	2.5
989.047	0.5
989.773	0.5
990.498	-0.5
991.224	-0.5
991.949	2.5
992.674	-0.5
993.399	1.5
994.124	1.5
994.849	1.5
995.574	0.5
996.299	-1.5
997.024	0.5
997.749	-1.5
998.473	0.5
999.198	2.5
999.922	0.5
1000.647	3.5
1001.371	5.5
1002.095	-2.5
1002.82	-3.5
1003.544	-3.5
1004.268	1.5
1004.992	0.5
1005.716	2.5
1006.439	2.5
1007.163	0.5
1007.887	4.5
1008.611	0.5
1009.334	-1.5
1010.058	0.5
1010.781	1.5
1011.504	1.5
1012.228	-0.5
1012.951	1.5
1013.674	0.5
1014.397	1.5
1015.12	0.5
