节点500_425_QEPB04081__491__15-56-28-576.txt的数据

Date: Wed Nov 12 15:56:28 CST 2025
User: PC
Spectrometer: QEPB0408
触发模式: 0
积分时间 (秒): 1.000000E-2
Scans to average: 1
启用暗噪声校正: true
启用非线性校正: false
滑动平均宽度: 0
X轴模式: Wavelengths
Number of Pixels in Spectrum: 1044
>>>>>Begin Spectral Data<<<<<
220.843	3.38
221.644	4.38
222.444	3.38
223.244	3.38
224.045	3.38
224.845	2.38
225.645	3.38
226.445	3.38
227.245	3.38
228.045	4.38
228.845	3.38
229.645	3.38
230.444	5.38
231.244	4.38
232.043	3.38
232.843	6.38
233.642	3.38
234.442	6.38
235.241	3.38
236.04	4.38
236.839	5.38
237.638	3.38
238.437	4.38
239.236	7.38
240.035	4.38
240.833	7.38
241.632	6.38
242.43	8.38
243.229	6.38
244.027	8.38
244.826	9.38
245.624	9.38
246.422	8.38
247.22	10.38
248.018	8.38
248.816	8.38
249.614	7.38
250.412	8.38
251.21	8.38
252.007	8.38
252.805	10.38
253.602	10.38
254.4	10.38
255.197	9.38
255.994	12.38
256.791	12.38
257.589	14.38
258.386	12.38
259.183	13.38
259.979	13.38
260.776	12.38
261.573	14.38
262.37	12.38
263.166	13.38
263.963	12.38
264.759	13.38
265.556	17.38
266.352	16.38
267.148	16.38
267.944	15.38
268.74	18.38
269.536	18.38
270.332	18.38
271.128	18.38
271.924	17.38
272.719	21.38
273.515	20.38
274.311	21.38
275.106	23.38
275.901	21.38
276.697	21.38
277.492	20.38
278.287	23.38
279.082	22.38
279.877	25.38
280.672	23.38
281.467	20.38
282.262	23.38
283.056	24.38
283.851	24.38
284.646	22.38
285.44	24.38
286.234	23.38
287.029	22.38
287.823	26.38
288.617	24.38
289.411	24.38
290.205	23.38
290.999	20.38
291.793	20.38
292.587	21.38
293.381	24.38
294.174	23.38
294.968	17.38
295.761	18.38
296.555	19.38
297.348	22.38
298.141	18.38
298.935	20.38
299.728	18.38
300.521	17.38
301.314	17.38
302.107	18.38
302.899	14.38
303.692	15.38
304.485	17.38
305.277	16.38
306.07	17.38
306.862	15.38
307.655	16.38
308.447	16.38
309.239	15.38
310.031	11.38
310.823	13.38
311.615	12.38
312.407	12.38
313.199	14.38
313.991	13.38
314.783	14.38
315.574	12.38
316.366	12.38
317.157	10.38
317.949	13.38
318.74	12.38
319.531	9.38
320.322	11.38
321.113	9.38
321.904	9.38
322.695	10.38
323.486	10.38
324.277	10.38
325.068	11.38
325.858	10.38
326.649	8.38
327.439	7.38
328.23	8.38
329.02	7.38
329.81	7.38
330.6	8.38
331.391	9.38
332.181	8.38
332.971	9.38
333.76	9.38
334.55	8.38
335.34	9.38
336.13	6.38
336.919	9.38
337.709	10.38
338.498	8.38
339.287	9.38
340.077	11.38
340.866	8.38
341.655	6.38
342.444	7.38
343.233	10.38
344.022	7.38
344.811	8.38
345.6	8.38
346.388	6.38
347.177	11.38
347.965	8.38
348.754	9.38
349.542	7.38
350.33	6.38
351.119	6.38
351.907	7.38
352.695	9.38
353.483	5.38
354.271	5.38
355.059	8.38
355.846	7.38
356.634	8.38
357.422	4.38
358.209	6.38
358.997	4.38
359.784	8.38
360.571	5.38
361.359	6.38
362.146	4.38
362.933	7.38
363.72	9.38
364.507	10.38
365.294	6.38
366.081	5.38
366.867	5.38
367.654	7.38
368.44	6.38
369.227	7.38
370.013	6.38
370.8	8.38
371.586	6.38
372.372	6.38
373.158	6.38
373.944	9.38
374.73	7.38
375.516	8.38
376.302	7.38
377.088	5.38
377.873	6.38
378.659	8.38
379.445	8.38
380.23	5.38
381.015	7.38
381.801	8.38
382.586	5.38
383.371	7.38
384.156	8.38
384.941	5.38
385.726	6.38
386.511	7.38
387.296	6.38
388.08	8.38
388.865	6.38
389.649	8.38
390.434	5.38
391.218	9.38
392.003	7.38
392.787	7.38
393.571	4.38
394.355	6.38
395.139	5.38
395.923	9.38
396.707	8.38
397.491	9.38
398.274	8.38
399.058	7.38
399.842	9.38
400.625	8.38
401.408	7.38
402.192	11.38
402.975	8.38
403.758	8.38
404.541	8.38
405.324	9.38
406.107	8.38
406.89	13.38
407.673	8.38
408.456	12.38
409.238	13.38
410.021	13.38
410.803	12.38
411.586	10.38
412.368	10.38
413.151	12.38
413.933	10.38
414.715	12.38
415.497	10.38
416.279	12.38
417.061	14.38
417.843	11.38
418.624	14.38
419.406	12.38
420.188	15.38
420.969	12.38
421.751	14.38
422.532	15.38
423.313	15.38
424.095	18.38
424.876	14.38
425.657	17.38
426.438	18.38
427.219	15.38
428	15.38
428.78	18.38
429.561	16.38
430.342	17.38
431.122	20.38
431.903	19.38
432.683	21.38
433.464	23.38
434.244	23.38
435.024	24.38
435.804	24.38
436.584	26.38
437.364	26.38
438.144	30.38
438.924	31.38
439.704	33.38
440.483	34.38
441.263	36.38
442.042	41.38
442.822	42.38
443.601	42.38
444.38	49.38
445.16	50.38
445.939	53.38
446.718	55.38
447.497	65.38
448.276	71.38
449.054	74.38
449.833	81.38
450.612	92.38
451.391	98.38
452.169	114.38
452.948	115.38
453.726	134.38
454.504	142.38
455.282	161.38
456.061	183.38
456.839	196.38
457.617	221.38
458.395	246.38
459.172	277.38
459.95	305.38
460.728	344.38
461.506	377.38
462.283	425.38
463.061	478.38
463.838	529.38
464.615	585.38
465.393	653.38
466.17	725.38
466.947	799.38
467.724	899.38
468.501	981.38
469.278	1086.38
470.055	1197.38
470.831	1336.38
471.608	1459.38
472.385	1618.38
473.161	1786.38
473.938	1962.38
474.714	2149.38
475.49	2387.38
476.266	2613.38
477.043	2861.38
477.819	3142.38
478.595	3457.38
479.371	3746.38
480.146	4131.38
480.922	4507.38
481.698	4929.38
482.473	5371.38
483.249	5815.38
484.024	6355.38
484.8	6971.38
485.575	7556.38
486.35	8194.38
487.126	8909.38
487.901	9643.38
488.676	10507.38
489.451	11400.38
490.225	12265.38
491	13256.38
491.775	14370.38
492.55	15456.38
493.324	16596.38
494.099	17756.38
494.873	18960.38
495.647	20217.38
496.422	21494.38
497.196	22862.38
497.97	24206.38
498.744	25495.38
499.518	26810.38
500.292	27901.38
501.066	29059.38
501.839	30157.38
502.613	31142.38
503.387	31913.38
504.16	32619.38
504.934	32986.38
505.707	33276.38
506.48	33394.38
507.253	33234.38
508.027	33108.38
508.8	32822.38
509.573	32441.38
510.346	31771.38
511.118	30994.38
511.891	30152.38
512.664	29246.38
513.437	28122.38
514.209	27148.38
514.982	26237.38
515.754	25244.38
516.526	24198.38
517.298	23258.38
518.071	22350.38
518.843	21438.38
519.615	20532.38
520.387	19737.38
521.159	18973.38
521.93	18279.38
522.702	17507.38
523.474	16910.38
524.245	16192.38
525.017	15500.38
525.788	14722.38
526.56	14164.38
527.331	13526.38
528.102	12912.38
528.873	12310.38
529.644	11703.38
530.415	11223.38
531.186	10761.38
531.957	10188.38
532.728	9627.38
533.498	9138.38
534.269	8654.38
535.039	8223.38
535.81	7738.38
536.58	7364.38
537.351	6924.38
538.121	6547.38
538.891	6196.38
539.661	5896.38
540.431	5583.38
541.201	5278.38
541.971	5019.38
542.741	4718.38
543.51	4538.38
544.28	4280.38
545.05	4059.38
545.819	3882.38
546.588	3690.38
547.358	3490.38
548.127	3320.38
548.896	3163.38
549.665	2990.38
550.434	2852.38
551.203	2696.38
551.972	2569.38
552.741	2427.38
553.51	2287.38
554.278	2163.38
555.047	2039.38
555.815	1930.38
556.584	1836.38
557.352	1729.38
558.121	1630.38
558.889	1534.38
559.657	1464.38
560.425	1367.38
561.193	1301.38
561.961	1228.38
562.729	1165.38
563.496	1104.38
564.264	1031.38
565.032	978.38
565.799	923.38
566.567	875.38
567.334	838.38
568.101	786.38
568.869	732.38
569.636	688.38
570.403	658.38
571.17	611.38
571.937	585.38
572.704	557.38
573.471	535.38
574.237	496.38
575.004	463.38
575.771	432.38
576.537	405.38
577.303	393.38
578.07	362.38
578.836	344.38
579.602	326.38
580.368	302.38
581.134	297.38
581.9	284.38
582.666	265.38
583.432	253.38
584.198	244.38
584.964	226.38
585.729	216.38
586.495	202.38
587.26	190.38
588.025	185.38
588.791	171.38
589.556	163.38
590.321	154.38
591.086	148.38
591.851	139.38
592.616	133.38
593.381	122.38
594.146	121.38
594.911	115.38
595.675	109.38
596.44	106.38
597.204	99.38
597.969	94.38
598.733	89.38
599.497	85.38
600.261	87.38
601.025	82.38
601.79	73.38
602.553	73.38
603.317	67.38
604.081	63.38
604.845	60.38
605.609	59.38
606.372	60.38
607.136	53.38
607.899	55.38
608.662	51.38
609.426	49.38
610.189	49.38
610.952	46.38
611.715	43.38
612.478	44.38
613.241	45.38
614.004	38.38
614.767	40.38
615.529	36.38
616.292	36.38
617.055	34.38
617.817	33.38
618.579	32.38
619.342	30.38
620.104	28.38
620.866	30.38
621.628	26.38
622.39	26.38
623.152	27.38
623.914	26.38
624.676	24.38
625.438	24.38
626.199	24.38
626.961	21.38
627.722	24.38
628.484	22.38
629.245	20.38
630.006	19.38
630.768	20.38
631.529	18.38
632.29	16.38
633.051	16.38
633.812	17.38
634.573	14.38
635.333	17.38
636.094	17.38
636.855	15.38
637.615	15.38
638.376	13.38
639.136	13.38
639.896	14.38
640.657	15.38
641.417	11.38
642.177	12.38
642.937	14.38
643.697	13.38
644.457	14.38
645.216	11.38
645.976	10.38
646.736	10.38
647.495	10.38
648.255	10.38
649.014	12.38
649.774	10.38
650.533	8.38
651.292	8.38
652.051	8.38
652.81	7.38
653.569	8.38
654.328	8.38
655.087	8.38
655.846	8.38
656.604	8.38
657.363	8.38
658.121	8.38
658.88	8.38
659.638	6.38
660.397	9.38
661.155	6.38
661.913	8.38
662.671	9.38
663.429	7.38
664.187	6.38
664.945	7.38
665.703	7.38
666.46	7.38
667.218	8.38
667.976	7.38
668.733	6.38
669.49	4.38
670.248	7.38
671.005	5.38
671.762	7.38
672.519	6.38
673.276	6.38
674.033	5.38
674.79	5.38
675.547	6.38
676.304	7.38
677.06	6.38
677.817	6.38
678.574	4.38
679.33	6.38
680.086	5.38
680.843	6.38
681.599	4.38
682.355	6.38
683.111	5.38
683.867	4.38
684.623	5.38
685.379	4.38
686.135	6.38
686.89	5.38
687.646	5.38
688.402	5.38
689.157	5.38
689.912	6.38
690.668	3.38
691.423	4.38
692.178	6.38
692.933	2.38
693.688	4.38
694.443	3.38
695.198	6.38
695.953	5.38
696.708	4.38
697.462	3.38
698.217	4.38
698.972	8.38
699.726	4.38
700.48	5.38
701.235	5.38
701.989	6.38
702.743	5.38
703.497	3.38
704.251	3.38
705.005	4.38
705.759	3.38
706.513	4.38
707.266	4.38
708.02	4.38
708.774	4.38
709.527	6.38
710.28	6.38
711.034	7.38
711.787	5.38
712.54	4.38
713.293	3.38
714.046	3.38
714.799	4.38
715.552	4.38
716.305	3.38
717.058	4.38
717.81	4.38
718.563	3.38
719.315	4.38
720.068	4.38
720.82	4.38
721.573	5.38
722.325	3.38
723.077	5.38
723.829	5.38
724.581	4.38
725.333	3.38
726.085	4.38
726.836	5.38
727.588	4.38
728.34	4.38
729.091	5.38
729.843	4.38
730.594	4.38
731.346	7.38
732.097	7.38
732.848	5.38
733.599	6.38
734.35	6.38
735.101	6.38
735.852	6.38
736.603	7.38
737.354	6.38
738.104	4.38
738.855	5.38
739.605	6.38
740.356	6.38
741.106	6.38
741.856	6.38
742.607	7.38
743.357	5.38
744.107	7.38
744.857	5.38
745.607	8.38
746.357	6.38
747.106	7.38
747.856	6.38
748.606	6.38
749.355	10.38
750.105	6.38
750.854	7.38
751.603	7.38
752.353	8.38
753.102	7.38
753.851	8.38
754.6	7.38
755.349	8.38
756.098	5.38
756.847	6.38
757.595	5.38
758.344	8.38
759.093	7.38
759.841	8.38
760.589	8.38
761.338	6.38
762.086	9.38
762.834	10.38
763.582	8.38
764.331	8.38
765.079	7.38
765.826	10.38
766.574	8.38
767.322	8.38
768.07	9.38
768.817	10.38
769.565	8.38
770.312	9.38
771.06	8.38
771.807	9.38
772.554	7.38
773.302	10.38
774.049	8.38
774.796	9.38
775.543	10.38
776.29	8.38
777.036	9.38
777.783	10.38
778.53	12.38
779.276	8.38
780.023	10.38
780.769	11.38
781.516	10.38
782.262	10.38
783.008	11.38
783.754	10.38
784.5	9.38
785.246	9.38
785.992	12.38
786.738	9.38
787.484	12.38
788.23	10.38
788.975	11.38
789.721	9.38
790.466	8.38
791.212	12.38
791.957	9.38
792.702	11.38
793.447	10.38
794.193	9.38
794.938	9.38
795.683	9.38
796.427	8.38
797.172	9.38
797.917	12.38
798.662	8.38
799.406	7.38
800.151	8.38
800.895	7.38
801.64	8.38
802.384	8.38
803.128	10.38
803.872	7.38
804.616	7.38
805.36	9.38
806.104	8.38
806.848	7.38
807.592	6.38
808.336	8.38
809.079	7.38
809.823	9.38
810.566	8.38
811.31	6.38
812.053	6.38
812.796	5.38
813.539	6.38
814.283	7.38
815.026	5.38
815.769	7.38
816.511	7.38
817.254	7.38
817.997	7.38
818.74	7.38
819.482	4.38
820.225	2.38
820.967	7.38
821.71	6.38
822.452	4.38
823.194	6.38
823.936	3.38
824.678	5.38
825.42	2.38
826.162	8.38
826.904	4.38
827.646	5.38
828.388	5.38
829.129	2.38
829.871	6.38
830.612	3.38
831.354	6.38
832.095	6.38
832.836	5.38
833.577	5.38
834.319	2.38
835.06	6.38
835.801	3.38
836.542	4.38
837.282	2.38
838.023	6.38
838.764	6.38
839.504	5.38
840.245	7.38
840.985	4.38
841.726	1.38
842.466	3.38
843.206	6.38
843.946	6.38
844.687	5.38
845.427	3.38
846.166	5.38
846.906	2.38
847.646	3.38
848.386	3.38
849.125	3.38
849.865	4.38
850.605	2.38
851.344	2.38
852.083	3.38
852.823	2.38
853.562	2.38
854.301	2.38
855.04	2.38
855.779	0.38
856.518	3.38
857.257	4.38
857.995	3.38
858.734	3.38
859.473	3.38
860.211	2.38
860.95	2.38
861.688	3.38
862.426	0.38
863.165	2.38
863.903	3.38
864.641	1.38
865.379	2.38
866.117	1.38
866.855	2.38
867.593	4.38
868.33	1.38
869.068	2.38
869.806	1.38
870.543	2.38
871.28	1.38
872.018	2.38
872.755	-1.62
873.492	1.38
874.229	2.38
874.967	3.38
875.703	4.38
876.44	0.38
877.177	2.38
877.914	1.38
878.651	1.38
879.387	2.38
880.124	1.38
880.86	1.38
881.597	-0.62
882.333	-1.62
883.069	2.38
883.806	1.38
884.542	0.38
885.278	1.38
886.014	1.38
886.749	1.38
887.485	0.38
888.221	0.38
888.957	0.38
889.692	1.38
890.428	0.38
891.163	1.38
891.899	3.38
892.634	2.38
893.369	0.38
894.104	-0.62
894.839	1.38
895.574	1.38
896.309	-1.62
897.044	0.38
897.779	1.38
898.514	1.38
899.248	2.38
899.983	-0.62
900.717	0.38
901.452	0.38
902.186	1.38
902.92	2.38
903.654	-0.62
904.389	1.38
905.123	-0.62
905.857	1.38
906.59	0.38
907.324	1.38
908.058	0.38
908.792	0.38
909.525	1.38
910.259	0.38
910.992	-0.62
911.726	0.38
912.459	0.38
913.192	-0.62
913.925	0.38
914.658	2.38
915.391	1.38
916.124	2.38
916.857	0.38
917.59	-0.62
918.323	1.38
919.055	0.38
919.788	3.38
920.521	-1.62
921.253	1.38
921.985	-1.62
922.718	0.38
923.45	2.38
924.182	-1.62
924.914	-0.62
925.646	1.38
926.378	0.38
927.11	3.38
927.841	-2.62
928.573	0.38
929.305	0.38
930.036	4.38
930.768	0.38
931.499	-0.62
932.23	0.38
932.962	-1.62
933.693	0.38
934.424	0.38
935.155	1.38
935.886	0.38
936.617	-0.62
937.348	0.38
938.078	0.38
938.809	-0.62
939.54	0.38
940.27	0.38
941.001	0.38
941.731	-0.62
942.461	0.38
943.191	0.38
943.922	0.38
944.652	-0.62
945.382	0.38
946.112	1.38
946.841	0.38
947.571	2.38
948.301	1.38
949.031	0.38
949.76	0.38
950.49	1.38
951.219	0.38
951.948	2.38
952.678	-0.62
953.407	-2.62
954.136	0.38
954.865	-1.62
955.594	-0.62
956.323	0.38
957.052	-0.62
957.78	-0.62
958.509	-0.62
959.238	-1.62
959.966	-0.62
960.695	-1.62
961.423	-0.62
962.151	-2.62
962.88	0.38
963.608	0.38
964.336	-1.62
965.064	-1.62
965.792	-0.62
966.52	-1.62
967.247	1.38
967.975	-0.62
968.703	-0.62
969.43	0.38
970.158	-1.62
970.885	1.38
971.613	0.38
972.34	0.38
973.067	0.38
973.794	-0.62
974.521	-0.62
975.248	-0.62
975.975	0.38
976.702	-0.62
977.429	-1.62
978.156	0.38
978.882	0.38
979.609	-0.62
980.335	0.38
981.062	-0.62
981.788	2.38
982.514	1.38
983.24	0.38
983.967	-0.62
984.693	0.38
985.419	-1.62
986.144	0.38
986.87	-1.62
987.596	2.38
988.322	-1.62
989.047	-0.62
989.773	-0.62
990.498	-1.62
991.224	-0.62
991.949	0.38
992.674	-0.62
993.399	0.38
994.124	-0.62
994.849	1.38
995.574	-0.62
996.299	-0.62
997.024	-0.62
997.749	-0.62
998.473	1.38
999.198	-0.62
999.922	0.38
1000.647	1.38
1001.371	3.38
1002.095	-0.62
1002.82	-1.62
1003.544	0.38
1004.268	5.38
1004.992	2.38
1005.716	0.38
1006.439	5.38
1007.163	2.38
1007.887	3.38
1008.611	1.38
1009.334	0.38
1010.058	0.38
1010.781	0.38
1011.504	1.38
1012.228	1.38
1012.951	2.38
1013.674	-1.62
1014.397	-0.62
1015.12	-1.62
