节点500_425_QEPB04081__179__15-51-17-149.txt的数据

Date: Wed Nov 12 15:51:17 CST 2025
User: PC
Spectrometer: QEPB0408
触发模式: 0
积分时间 (秒): 1.000000E-2
Scans to average: 1
启用暗噪声校正: true
启用非线性校正: false
滑动平均宽度: 0
X轴模式: Wavelengths
Number of Pixels in Spectrum: 1044
>>>>>Begin Spectral Data<<<<<
220.843	3.5
221.644	3.5
222.444	3.5
223.244	4.5
224.045	1.5
224.845	4.5
225.645	5.5
226.445	4.5
227.245	4.5
228.045	5.5
228.845	5.5
229.645	3.5
230.444	3.5
231.244	4.5
232.043	4.5
232.843	4.5
233.642	7.5
234.442	7.5
235.241	5.5
236.04	4.5
236.839	7.5
237.638	5.5
238.437	7.5
239.236	4.5
240.035	8.5
240.833	7.5
241.632	5.5
242.43	7.5
243.229	7.5
244.027	8.5
244.826	9.5
245.624	6.5
246.422	9.5
247.22	7.5
248.018	11.5
248.816	9.5
249.614	7.5
250.412	10.5
251.21	9.5
252.007	12.5
252.805	11.5
253.602	11.5
254.4	11.5
255.197	12.5
255.994	11.5
256.791	11.5
257.589	14.5
258.386	13.5
259.183	15.5
259.979	15.5
260.776	17.5
261.573	18.5
262.37	16.5
263.166	17.5
263.963	15.5
264.759	19.5
265.556	20.5
266.352	18.5
267.148	22.5
267.944	17.5
268.74	20.5
269.536	20.5
270.332	22.5
271.128	24.5
271.924	26.5
272.719	23.5
273.515	22.5
274.311	25.5
275.106	23.5
275.901	25.5
276.697	26.5
277.492	27.5
278.287	24.5
279.082	26.5
279.877	24.5
280.672	27.5
281.467	25.5
282.262	28.5
283.056	26.5
283.851	25.5
284.646	25.5
285.44	25.5
286.234	26.5
287.029	26.5
287.823	25.5
288.617	26.5
289.411	25.5
290.205	23.5
290.999	25.5
291.793	25.5
292.587	22.5
293.381	22.5
294.174	22.5
294.968	20.5
295.761	22.5
296.555	18.5
297.348	21.5
298.141	21.5
298.935	20.5
299.728	20.5
300.521	20.5
301.314	20.5
302.107	19.5
302.899	20.5
303.692	18.5
304.485	16.5
305.277	17.5
306.07	17.5
306.862	15.5
307.655	14.5
308.447	14.5
309.239	16.5
310.031	16.5
310.823	18.5
311.615	13.5
312.407	13.5
313.199	14.5
313.991	11.5
314.783	16.5
315.574	10.5
316.366	13.5
317.157	10.5
317.949	9.5
318.74	9.5
319.531	12.5
320.322	9.5
321.113	12.5
321.904	11.5
322.695	8.5
323.486	8.5
324.277	12.5
325.068	8.5
325.858	8.5
326.649	9.5
327.439	9.5
328.23	8.5
329.02	9.5
329.81	10.5
330.6	11.5
331.391	8.5
332.181	10.5
332.971	8.5
333.76	9.5
334.55	8.5
335.34	10.5
336.13	10.5
336.919	9.5
337.709	8.5
338.498	10.5
339.287	10.5
340.077	10.5
340.866	8.5
341.655	8.5
342.444	8.5
343.233	8.5
344.022	7.5
344.811	7.5
345.6	10.5
346.388	4.5
347.177	9.5
347.965	8.5
348.754	8.5
349.542	9.5
350.33	7.5
351.119	6.5
351.907	8.5
352.695	10.5
353.483	7.5
354.271	10.5
355.059	9.5
355.846	6.5
356.634	7.5
357.422	8.5
358.209	7.5
358.997	6.5
359.784	8.5
360.571	8.5
361.359	6.5
362.146	7.5
362.933	8.5
363.72	5.5
364.507	9.5
365.294	7.5
366.081	8.5
366.867	7.5
367.654	5.5
368.44	6.5
369.227	6.5
370.013	5.5
370.8	6.5
371.586	9.5
372.372	4.5
373.158	8.5
373.944	5.5
374.73	6.5
375.516	7.5
376.302	6.5
377.088	9.5
377.873	6.5
378.659	8.5
379.445	7.5
380.23	8.5
381.015	7.5
381.801	5.5
382.586	10.5
383.371	6.5
384.156	7.5
384.941	5.5
385.726	6.5
386.511	6.5
387.296	9.5
388.08	7.5
388.865	7.5
389.649	7.5
390.434	8.5
391.218	9.5
392.003	8.5
392.787	7.5
393.571	9.5
394.355	7.5
395.139	8.5
395.923	8.5
396.707	8.5
397.491	8.5
398.274	8.5
399.058	8.5
399.842	8.5
400.625	8.5
401.408	9.5
402.192	11.5
402.975	10.5
403.758	10.5
404.541	10.5
405.324	9.5
406.107	9.5
406.89	10.5
407.673	11.5
408.456	13.5
409.238	10.5
410.021	10.5
410.803	12.5
411.586	12.5
412.368	12.5
413.151	14.5
413.933	12.5
414.715	13.5
415.497	13.5
416.279	15.5
417.061	12.5
417.843	14.5
418.624	12.5
419.406	13.5
420.188	18.5
420.969	15.5
421.751	13.5
422.532	18.5
423.313	16.5
424.095	18.5
424.876	15.5
425.657	16.5
426.438	15.5
427.219	15.5
428	17.5
428.78	20.5
429.561	20.5
430.342	19.5
431.122	23.5
431.903	18.5
432.683	20.5
433.464	21.5
434.244	22.5
435.024	27.5
435.804	27.5
436.584	29.5
437.364	29.5
438.144	30.5
438.924	31.5
439.704	34.5
440.483	33.5
441.263	38.5
442.042	37.5
442.822	41.5
443.601	40.5
444.38	47.5
445.16	50.5
445.939	53.5
446.718	55.5
447.497	58.5
448.276	67.5
449.054	69.5
449.833	74.5
450.612	84.5
451.391	91.5
452.169	97.5
452.948	111.5
453.726	123.5
454.504	130.5
455.282	145.5
456.061	165.5
456.839	180.5
457.617	206.5
458.395	227.5
459.172	247.5
459.95	283.5
460.728	309.5
461.506	343.5
462.283	388.5
463.061	432.5
463.838	491.5
464.615	542.5
465.393	600.5
466.17	669.5
466.947	755.5
467.724	849.5
468.501	934.5
469.278	1032.5
470.055	1144.5
470.831	1263.5
471.608	1422.5
472.385	1586.5
473.161	1764.5
473.938	1945.5
474.714	2168.5
475.49	2372.5
476.266	2610.5
477.043	2900.5
477.819	3210.5
478.595	3579.5
479.371	3890.5
480.146	4303.5
480.922	4715.5
481.698	5198.5
482.473	5720.5
483.249	6251.5
484.024	6867.5
484.8	7551.5
485.575	8194.5
486.35	9000.5
487.126	9871.5
487.901	10748.5
488.676	11742.5
489.451	12816.5
490.225	13916.5
491	15164.5
491.775	16404.5
492.55	17737.5
493.324	19144.5
494.099	20484.5
494.873	21891.5
495.647	23425.5
496.422	24911.5
497.196	26363.5
497.97	27906.5
498.744	29431.5
499.518	30791.5
500.292	31974.5
501.066	33117.5
501.839	34251.5
502.613	35030.5
503.387	35706.5
504.16	36298.5
504.934	36373.5
505.707	36419.5
506.48	36157.5
507.253	35834.5
508.027	35290.5
508.8	34659.5
509.573	33824.5
510.346	32933.5
511.118	31873.5
511.891	30792.5
512.664	29594.5
513.437	28399.5
514.209	27222.5
514.982	26135.5
515.754	25131.5
516.526	23969.5
517.298	22984.5
518.071	21903.5
518.843	20995.5
519.615	20216.5
520.387	19365.5
521.159	18636.5
521.93	17912.5
522.702	17181.5
523.474	16516.5
524.245	15845.5
525.017	15110.5
525.788	14411.5
526.56	13746.5
527.331	13131.5
528.102	12496.5
528.873	11904.5
529.644	11323.5
530.415	10794.5
531.186	10272.5
531.957	9717.5
532.728	9156.5
533.498	8634.5
534.269	8193.5
535.039	7777.5
535.81	7316.5
536.58	6902.5
537.351	6505.5
538.121	6140.5
538.891	5830.5
539.661	5548.5
540.431	5228.5
541.201	4959.5
541.971	4722.5
542.741	4448.5
543.51	4224.5
544.28	4029.5
545.05	3822.5
545.819	3639.5
546.588	3443.5
547.358	3287.5
548.127	3105.5
548.896	2957.5
549.665	2800.5
550.434	2648.5
551.203	2510.5
551.972	2381.5
552.741	2224.5
553.51	2129.5
554.278	2010.5
555.047	1890.5
555.815	1793.5
556.584	1673.5
557.352	1581.5
558.121	1486.5
558.889	1409.5
559.657	1340.5
560.425	1275.5
561.193	1208.5
561.961	1143.5
562.729	1079.5
563.496	1017.5
564.264	956.5
565.032	909.5
565.799	850.5
566.567	817.5
567.334	771.5
568.101	717.5
568.869	679.5
569.636	636.5
570.403	610.5
571.17	565.5
571.937	533.5
572.704	510.5
573.471	489.5
574.237	456.5
575.004	421.5
575.771	400.5
576.537	374.5
577.303	355.5
578.07	339.5
578.836	317.5
579.602	301.5
580.368	282.5
581.134	270.5
581.9	255.5
582.666	239.5
583.432	231.5
584.198	222.5
584.964	209.5
585.729	193.5
586.495	183.5
587.26	182.5
588.025	170.5
588.791	160.5
589.556	154.5
590.321	142.5
591.086	132.5
591.851	128.5
592.616	125.5
593.381	113.5
594.146	106.5
594.911	110.5
595.675	101.5
596.44	93.5
597.204	90.5
597.969	90.5
598.733	86.5
599.497	80.5
600.261	78.5
601.025	74.5
601.79	71.5
602.553	68.5
603.317	66.5
604.081	62.5
604.845	61.5
605.609	58.5
606.372	54.5
607.136	57.5
607.899	53.5
608.662	47.5
609.426	49.5
610.189	49.5
610.952	44.5
611.715	41.5
612.478	41.5
613.241	41.5
614.004	34.5
614.767	37.5
615.529	37.5
616.292	29.5
617.055	32.5
617.817	32.5
618.579	28.5
619.342	28.5
620.104	29.5
620.866	28.5
621.628	27.5
622.39	24.5
623.152	26.5
623.914	28.5
624.676	23.5
625.438	21.5
626.199	22.5
626.961	20.5
627.722	20.5
628.484	20.5
629.245	18.5
630.006	16.5
630.768	17.5
631.529	17.5
632.29	16.5
633.051	16.5
633.812	16.5
634.573	14.5
635.333	16.5
636.094	14.5
636.855	14.5
637.615	15.5
638.376	12.5
639.136	15.5
639.896	12.5
640.657	15.5
641.417	13.5
642.177	12.5
642.937	10.5
643.697	10.5
644.457	11.5
645.216	9.5
645.976	12.5
646.736	12.5
647.495	12.5
648.255	11.5
649.014	10.5
649.774	10.5
650.533	8.5
651.292	9.5
652.051	9.5
652.81	11.5
653.569	10.5
654.328	7.5
655.087	8.5
655.846	8.5
656.604	9.5
657.363	7.5
658.121	7.5
658.88	8.5
659.638	6.5
660.397	7.5
661.155	6.5
661.913	8.5
662.671	6.5
663.429	4.5
664.187	8.5
664.945	6.5
665.703	7.5
666.46	7.5
667.218	5.5
667.976	8.5
668.733	4.5
669.49	6.5
670.248	6.5
671.005	5.5
671.762	7.5
672.519	7.5
673.276	4.5
674.033	6.5
674.79	7.5
675.547	7.5
676.304	7.5
677.06	6.5
677.817	6.5
678.574	7.5
679.33	5.5
680.086	5.5
680.843	4.5
681.599	6.5
682.355	7.5
683.111	4.5
683.867	5.5
684.623	6.5
685.379	5.5
686.135	6.5
686.89	5.5
687.646	3.5
688.402	5.5
689.157	6.5
689.912	6.5
690.668	6.5
691.423	5.5
692.178	5.5
692.933	6.5
693.688	6.5
694.443	4.5
695.198	6.5
695.953	4.5
696.708	6.5
697.462	6.5
698.217	4.5
698.972	5.5
699.726	3.5
700.48	6.5
701.235	4.5
701.989	5.5
702.743	6.5
703.497	2.5
704.251	4.5
705.005	7.5
705.759	4.5
706.513	3.5
707.266	6.5
708.02	5.5
708.774	5.5
709.527	7.5
710.28	4.5
711.034	5.5
711.787	4.5
712.54	6.5
713.293	7.5
714.046	4.5
714.799	8.5
715.552	5.5
716.305	4.5
717.058	5.5
717.81	3.5
718.563	5.5
719.315	6.5
720.068	5.5
720.82	5.5
721.573	6.5
722.325	6.5
723.077	7.5
723.829	7.5
724.581	7.5
725.333	6.5
726.085	5.5
726.836	7.5
727.588	5.5
728.34	3.5
729.091	5.5
729.843	7.5
730.594	6.5
731.346	8.5
732.097	8.5
732.848	6.5
733.599	5.5
734.35	8.5
735.101	5.5
735.852	5.5
736.603	8.5
737.354	4.5
738.104	8.5
738.855	4.5
739.605	6.5
740.356	5.5
741.106	5.5
741.856	7.5
742.607	5.5
743.357	8.5
744.107	5.5
744.857	7.5
745.607	7.5
746.357	7.5
747.106	6.5
747.856	6.5
748.606	6.5
749.355	7.5
750.105	10.5
750.854	6.5
751.603	8.5
752.353	9.5
753.102	7.5
753.851	10.5
754.6	6.5
755.349	7.5
756.098	11.5
756.847	8.5
757.595	8.5
758.344	9.5
759.093	6.5
759.841	9.5
760.589	10.5
761.338	8.5
762.086	6.5
762.834	10.5
763.582	8.5
764.331	9.5
765.079	10.5
765.826	11.5
766.574	11.5
767.322	11.5
768.07	10.5
768.817	9.5
769.565	8.5
770.312	11.5
771.06	10.5
771.807	10.5
772.554	11.5
773.302	9.5
774.049	10.5
774.796	11.5
775.543	12.5
776.29	12.5
777.036	11.5
777.783	12.5
778.53	10.5
779.276	12.5
780.023	12.5
780.769	10.5
781.516	10.5
782.262	13.5
783.008	12.5
783.754	12.5
784.5	12.5
785.246	11.5
785.992	14.5
786.738	11.5
787.484	11.5
788.23	13.5
788.975	9.5
789.721	12.5
790.466	13.5
791.212	11.5
791.957	12.5
792.702	10.5
793.447	12.5
794.193	10.5
794.938	9.5
795.683	11.5
796.427	9.5
797.172	9.5
797.917	11.5
798.662	9.5
799.406	11.5
800.151	10.5
800.895	12.5
801.64	7.5
802.384	8.5
803.128	10.5
803.872	8.5
804.616	9.5
805.36	5.5
806.104	8.5
806.848	6.5
807.592	9.5
808.336	6.5
809.079	7.5
809.823	10.5
810.566	9.5
811.31	5.5
812.053	6.5
812.796	4.5
813.539	7.5
814.283	8.5
815.026	7.5
815.769	7.5
816.511	5.5
817.254	7.5
817.997	6.5
818.74	6.5
819.482	5.5
820.225	7.5
820.967	7.5
821.71	8.5
822.452	5.5
823.194	4.5
823.936	6.5
824.678	6.5
825.42	5.5
826.162	5.5
826.904	4.5
827.646	3.5
828.388	5.5
829.129	5.5
829.871	5.5
830.612	4.5
831.354	4.5
832.095	3.5
832.836	4.5
833.577	4.5
834.319	5.5
835.06	4.5
835.801	5.5
836.542	6.5
837.282	3.5
838.023	3.5
838.764	4.5
839.504	2.5
840.245	4.5
840.985	5.5
841.726	4.5
842.466	3.5
843.206	4.5
843.946	5.5
844.687	3.5
845.427	2.5
846.166	5.5
846.906	4.5
847.646	2.5
848.386	3.5
849.125	5.5
849.865	2.5
850.605	2.5
851.344	3.5
852.083	4.5
852.823	2.5
853.562	4.5
854.301	3.5
855.04	2.5
855.779	3.5
856.518	2.5
857.257	3.5
857.995	4.5
858.734	3.5
859.473	4.5
860.211	1.5
860.95	2.5
861.688	2.5
862.426	3.5
863.165	2.5
863.903	1.5
864.641	1.5
865.379	3.5
866.117	2.5
866.855	2.5
867.593	0.5
868.33	2.5
869.068	1.5
869.806	0.5
870.543	1.5
871.28	2.5
872.018	1.5
872.755	0.5
873.492	2.5
874.229	4.5
874.967	1.5
875.703	0.5
876.44	1.5
877.177	2.5
877.914	2.5
878.651	1.5
879.387	0.5
880.124	2.5
880.86	1.5
881.597	1.5
882.333	3.5
883.069	0.5
883.806	3.5
884.542	0.5
885.278	1.5
886.014	1.5
886.749	1.5
887.485	1.5
888.221	-0.5
888.957	-1.5
889.692	0.5
890.428	0.5
891.163	0.5
891.899	1.5
892.634	1.5
893.369	2.5
894.104	-0.5
894.839	1.5
895.574	0.5
896.309	3.5
897.044	-0.5
897.779	2.5
898.514	2.5
899.248	-0.5
899.983	0.5
900.717	-0.5
901.452	3.5
902.186	0.5
902.92	1.5
903.654	1.5
904.389	0.5
905.123	0.5
905.857	-0.5
906.59	1.5
907.324	2.5
908.058	1.5
908.792	0.5
909.525	1.5
910.259	1.5
910.992	1.5
911.726	0.5
912.459	0.5
913.192	-0.5
913.925	0.5
914.658	-0.5
915.391	0.5
916.124	-1.5
916.857	1.5
917.59	0.5
918.323	-0.5
919.055	1.5
919.788	0.5
920.521	2.5
921.253	2.5
921.985	0.5
922.718	1.5
923.45	0.5
924.182	-0.5
924.914	-0.5
925.646	3.5
926.378	0.5
927.11	0.5
927.841	1.5
928.573	-0.5
929.305	1.5
930.036	0.5
930.768	1.5
931.499	1.5
932.23	2.5
932.962	1.5
933.693	0.5
934.424	2.5
935.155	0.5
935.886	-0.5
936.617	2.5
937.348	-0.5
938.078	0.5
938.809	-1.5
939.54	-0.5
940.27	2.5
941.001	0.5
941.731	-0.5
942.461	0.5
943.191	0.5
943.922	1.5
944.652	1.5
945.382	0.5
946.112	0.5
946.841	2.5
947.571	0.5
948.301	-1.5
949.031	0.5
949.76	-1.5
950.49	-0.5
951.219	-0.5
951.948	-0.5
952.678	0.5
953.407	0.5
954.136	1.5
954.865	0.5
955.594	0.5
956.323	1.5
957.052	2.5
957.78	2.5
958.509	1.5
959.238	0.5
959.966	-0.5
960.695	-1.5
961.423	2.5
962.151	-0.5
962.88	1.5
963.608	-0.5
964.336	1.5
965.064	-1.5
965.792	0.5
966.52	1.5
967.247	0.5
967.975	2.5
968.703	-1.5
969.43	1.5
970.158	0.5
970.885	-1.5
971.613	2.5
972.34	1.5
973.067	0.5
973.794	0.5
974.521	-1.5
975.248	1.5
975.975	0.5
976.702	0.5
977.429	-0.5
978.156	1.5
978.882	0.5
979.609	-0.5
980.335	0.5
981.062	-0.5
981.788	0.5
982.514	1.5
983.24	0.5
983.967	-0.5
984.693	0.5
985.419	0.5
986.144	2.5
986.87	0.5
987.596	0.5
988.322	0.5
989.047	2.5
989.773	1.5
990.498	1.5
991.224	-1.5
991.949	2.5
992.674	2.5
993.399	-1.5
994.124	0.5
994.849	0.5
995.574	-0.5
996.299	1.5
997.024	-1.5
997.749	-2.5
998.473	3.5
999.198	0.5
999.922	0.5
1000.647	0.5
1001.371	4.5
1002.095	-1.5
1002.82	-2.5
1003.544	-0.5
1004.268	5.5
1004.992	1.5
1005.716	1.5
1006.439	2.5
1007.163	2.5
1007.887	2.5
1008.611	2.5
1009.334	-0.5
1010.058	0.5
1010.781	-1.5
1011.504	1.5
1012.228	1.5
1012.951	-0.5
1013.674	-0.5
1014.397	-0.5
1015.12	1.5
