节点500_425_QEPB04081__543__15-57-20-523.txt的数据

Date: Wed Nov 12 15:57:20 CST 2025
User: PC
Spectrometer: QEPB0408
触发模式: 0
积分时间 (秒): 1.000000E-2
Scans to average: 1
启用暗噪声校正: true
启用非线性校正: false
滑动平均宽度: 0
X轴模式: Wavelengths
Number of Pixels in Spectrum: 1044
>>>>>Begin Spectral Data<<<<<
220.843	6.62
221.644	2.62
222.444	2.62
223.244	4.62
224.045	3.62
224.845	5.62
225.645	3.62
226.445	1.62
227.245	5.62
228.045	3.62
228.845	4.62
229.645	5.62
230.444	6.62
231.244	6.62
232.043	5.62
232.843	6.62
233.642	4.62
234.442	7.62
235.241	4.62
236.04	7.62
236.839	4.62
237.638	6.62
238.437	5.62
239.236	5.62
240.035	4.62
240.833	9.62
241.632	8.62
242.43	5.62
243.229	8.62
244.027	6.62
244.826	6.62
245.624	8.62
246.422	8.62
247.22	6.62
248.018	5.62
248.816	6.62
249.614	10.62
250.412	8.62
251.21	10.62
252.007	9.62
252.805	8.62
253.602	9.62
254.4	9.62
255.197	11.62
255.994	12.62
256.791	9.62
257.589	8.62
258.386	11.62
259.183	14.62
259.979	14.62
260.776	14.62
261.573	13.62
262.37	16.62
263.166	16.62
263.963	16.62
264.759	16.62
265.556	18.62
266.352	15.62
267.148	16.62
267.944	16.62
268.74	18.62
269.536	18.62
270.332	20.62
271.128	16.62
271.924	19.62
272.719	20.62
273.515	18.62
274.311	20.62
275.106	18.62
275.901	18.62
276.697	20.62
277.492	19.62
278.287	23.62
279.082	22.62
279.877	22.62
280.672	20.62
281.467	22.62
282.262	22.62
283.056	22.62
283.851	22.62
284.646	25.62
285.44	24.62
286.234	23.62
287.029	21.62
287.823	22.62
288.617	21.62
289.411	22.62
290.205	20.62
290.999	23.62
291.793	24.62
292.587	20.62
293.381	22.62
294.174	20.62
294.968	21.62
295.761	20.62
296.555	23.62
297.348	20.62
298.141	20.62
298.935	22.62
299.728	20.62
300.521	18.62
301.314	18.62
302.107	15.62
302.899	16.62
303.692	18.62
304.485	17.62
305.277	14.62
306.07	15.62
306.862	14.62
307.655	14.62
308.447	18.62
309.239	14.62
310.031	14.62
310.823	15.62
311.615	10.62
312.407	14.62
313.199	10.62
313.991	11.62
314.783	14.62
315.574	10.62
316.366	11.62
317.157	10.62
317.949	12.62
318.74	11.62
319.531	10.62
320.322	8.62
321.113	8.62
321.904	10.62
322.695	10.62
323.486	11.62
324.277	11.62
325.068	8.62
325.858	8.62
326.649	9.62
327.439	8.62
328.23	8.62
329.02	10.62
329.81	9.62
330.6	6.62
331.391	10.62
332.181	8.62
332.971	6.62
333.76	7.62
334.55	9.62
335.34	8.62
336.13	7.62
336.919	11.62
337.709	10.62
338.498	10.62
339.287	10.62
340.077	7.62
340.866	9.62
341.655	8.62
342.444	8.62
343.233	10.62
344.022	7.62
344.811	9.62
345.6	8.62
346.388	9.62
347.177	8.62
347.965	8.62
348.754	8.62
349.542	7.62
350.33	8.62
351.119	8.62
351.907	8.62
352.695	8.62
353.483	8.62
354.271	8.62
355.059	8.62
355.846	6.62
356.634	7.62
357.422	7.62
358.209	7.62
358.997	8.62
359.784	7.62
360.571	6.62
361.359	7.62
362.146	6.62
362.933	5.62
363.72	8.62
364.507	6.62
365.294	7.62
366.081	7.62
366.867	5.62
367.654	7.62
368.44	4.62
369.227	8.62
370.013	7.62
370.8	6.62
371.586	5.62
372.372	7.62
373.158	7.62
373.944	7.62
374.73	7.62
375.516	5.62
376.302	7.62
377.088	6.62
377.873	6.62
378.659	8.62
379.445	7.62
380.23	5.62
381.015	6.62
381.801	8.62
382.586	7.62
383.371	7.62
384.156	7.62
384.941	7.62
385.726	5.62
386.511	6.62
387.296	4.62
388.08	9.62
388.865	7.62
389.649	7.62
390.434	7.62
391.218	5.62
392.003	7.62
392.787	9.62
393.571	8.62
394.355	8.62
395.139	6.62
395.923	9.62
396.707	8.62
397.491	7.62
398.274	7.62
399.058	6.62
399.842	10.62
400.625	7.62
401.408	7.62
402.192	9.62
402.975	10.62
403.758	10.62
404.541	10.62
405.324	10.62
406.107	11.62
406.89	10.62
407.673	9.62
408.456	9.62
409.238	12.62
410.021	9.62
410.803	13.62
411.586	11.62
412.368	12.62
413.151	11.62
413.933	12.62
414.715	9.62
415.497	14.62
416.279	10.62
417.061	9.62
417.843	10.62
418.624	12.62
419.406	14.62
420.188	14.62
420.969	12.62
421.751	14.62
422.532	14.62
423.313	14.62
424.095	14.62
424.876	14.62
425.657	17.62
426.438	14.62
427.219	16.62
428	16.62
428.78	16.62
429.561	18.62
430.342	18.62
431.122	20.62
431.903	18.62
432.683	20.62
433.464	23.62
434.244	22.62
435.024	20.62
435.804	26.62
436.584	25.62
437.364	28.62
438.144	29.62
438.924	30.62
439.704	33.62
440.483	35.62
441.263	37.62
442.042	39.62
442.822	41.62
443.601	47.62
444.38	49.62
445.16	50.62
445.939	53.62
446.718	61.62
447.497	63.62
448.276	69.62
449.054	75.62
449.833	84.62
450.612	92.62
451.391	99.62
452.169	111.62
452.948	123.62
453.726	139.62
454.504	147.62
455.282	166.62
456.061	188.62
456.839	205.62
457.617	226.62
458.395	253.62
459.172	284.62
459.95	308.62
460.728	343.62
461.506	388.62
462.283	425.62
463.061	485.62
463.838	538.62
464.615	593.62
465.393	656.62
466.17	733.62
466.947	812.62
467.724	890.62
468.501	999.62
469.278	1102.62
470.055	1204.62
470.831	1327.62
471.608	1476.62
472.385	1615.62
473.161	1797.62
473.938	1968.62
474.714	2160.62
475.49	2365.62
476.266	2604.62
477.043	2862.62
477.819	3133.62
478.595	3434.62
479.371	3718.62
480.146	4064.62
480.922	4445.62
481.698	4852.62
482.473	5269.62
483.249	5758.62
484.024	6244.62
484.8	6791.62
485.575	7384.62
486.35	8020.62
487.126	8672.62
487.901	9406.62
488.676	10228.62
489.451	11059.62
490.225	11930.62
491	12910.62
491.775	13915.62
492.55	14934.62
493.324	16038.62
494.099	17177.62
494.873	18291.62
495.647	19561.62
496.422	20724.62
497.196	22101.62
497.97	23399.62
498.744	24644.62
499.518	25948.62
500.292	27077.62
501.066	28090.62
501.839	29294.62
502.613	30263.62
503.387	31008.62
504.16	31751.62
504.934	32256.62
505.707	32527.62
506.48	32648.62
507.253	32616.62
508.027	32584.62
508.8	32339.62
509.573	31847.62
510.346	31338.62
511.118	30641.62
511.891	29868.62
512.664	29003.62
513.437	27981.62
514.209	27050.62
514.982	26160.62
515.754	25208.62
516.526	24246.62
517.298	23233.62
518.071	22260.62
518.843	21385.62
519.615	20615.62
520.387	19770.62
521.159	19054.62
521.93	18254.62
522.702	17559.62
523.474	16854.62
524.245	16270.62
525.017	15503.62
525.788	14806.62
526.56	14216.62
527.331	13617.62
528.102	12972.62
528.873	12421.62
529.644	11830.62
530.415	11366.62
531.186	10811.62
531.957	10255.62
532.728	9734.62
533.498	9233.62
534.269	8736.62
535.039	8286.62
535.81	7865.62
536.58	7463.62
537.351	6988.62
538.121	6621.62
538.891	6280.62
539.661	5930.62
540.431	5646.62
541.201	5355.62
541.971	5067.62
542.741	4798.62
543.51	4555.62
544.28	4324.62
545.05	4118.62
545.819	3944.62
546.588	3745.62
547.358	3532.62
548.127	3354.62
548.896	3209.62
549.665	3035.62
550.434	2882.62
551.203	2738.62
551.972	2605.62
552.741	2469.62
553.51	2317.62
554.278	2204.62
555.047	2074.62
555.815	1969.62
556.584	1852.62
557.352	1753.62
558.121	1658.62
558.889	1556.62
559.657	1479.62
560.425	1388.62
561.193	1314.62
561.961	1254.62
562.729	1178.62
563.496	1128.62
564.264	1055.62
565.032	1005.62
565.799	950.62
566.567	877.62
567.334	845.62
568.101	789.62
568.869	759.62
569.636	714.62
570.403	666.62
571.17	634.62
571.937	593.62
572.704	563.62
573.471	531.62
574.237	502.62
575.004	476.62
575.771	442.62
576.537	421.62
577.303	391.62
578.07	376.62
578.836	354.62
579.602	331.62
580.368	316.62
581.134	301.62
581.9	288.62
582.666	274.62
583.432	258.62
584.198	238.62
584.964	225.62
585.729	220.62
586.495	206.62
587.26	199.62
588.025	188.62
588.791	175.62
589.556	166.62
590.321	156.62
591.086	148.62
591.851	141.62
592.616	136.62
593.381	132.62
594.146	121.62
594.911	114.62
595.675	113.62
596.44	104.62
597.204	98.62
597.969	99.62
598.733	92.62
599.497	86.62
600.261	82.62
601.025	80.62
601.79	76.62
602.553	74.62
603.317	69.62
604.081	68.62
604.845	68.62
605.609	61.62
606.372	59.62
607.136	57.62
607.899	53.62
608.662	54.62
609.426	49.62
610.189	46.62
610.952	50.62
611.715	46.62
612.478	44.62
613.241	41.62
614.004	38.62
614.767	40.62
615.529	40.62
616.292	36.62
617.055	33.62
617.817	35.62
618.579	31.62
619.342	30.62
620.104	29.62
620.866	30.62
621.628	26.62
622.39	29.62
623.152	27.62
623.914	25.62
624.676	24.62
625.438	26.62
626.199	22.62
626.961	18.62
627.722	21.62
628.484	23.62
629.245	19.62
630.006	21.62
630.768	18.62
631.529	18.62
632.29	18.62
633.051	14.62
633.812	17.62
634.573	14.62
635.333	18.62
636.094	14.62
636.855	17.62
637.615	15.62
638.376	14.62
639.136	15.62
639.896	12.62
640.657	16.62
641.417	11.62
642.177	12.62
642.937	12.62
643.697	13.62
644.457	12.62
645.216	12.62
645.976	11.62
646.736	11.62
647.495	9.62
648.255	10.62
649.014	10.62
649.774	9.62
650.533	8.62
651.292	6.62
652.051	10.62
652.81	11.62
653.569	9.62
654.328	10.62
655.087	9.62
655.846	10.62
656.604	8.62
657.363	5.62
658.121	8.62
658.88	11.62
659.638	7.62
660.397	6.62
661.155	4.62
661.913	8.62
662.671	6.62
663.429	9.62
664.187	10.62
664.945	6.62
665.703	7.62
666.46	5.62
667.218	6.62
667.976	9.62
668.733	5.62
669.49	8.62
670.248	8.62
671.005	5.62
671.762	8.62
672.519	6.62
673.276	7.62
674.033	4.62
674.79	5.62
675.547	6.62
676.304	6.62
677.06	7.62
677.817	6.62
678.574	7.62
679.33	6.62
680.086	4.62
680.843	5.62
681.599	6.62
682.355	5.62
683.111	7.62
683.867	6.62
684.623	7.62
685.379	5.62
686.135	4.62
686.89	5.62
687.646	7.62
688.402	4.62
689.157	5.62
689.912	6.62
690.668	4.62
691.423	5.62
692.178	6.62
692.933	5.62
693.688	5.62
694.443	4.62
695.198	6.62
695.953	3.62
696.708	5.62
697.462	6.62
698.217	5.62
698.972	6.62
699.726	2.62
700.48	6.62
701.235	4.62
701.989	5.62
702.743	7.62
703.497	4.62
704.251	5.62
705.005	2.62
705.759	7.62
706.513	6.62
707.266	5.62
708.02	5.62
708.774	3.62
709.527	5.62
710.28	6.62
711.034	5.62
711.787	4.62
712.54	3.62
713.293	4.62
714.046	5.62
714.799	7.62
715.552	2.62
716.305	4.62
717.058	4.62
717.81	4.62
718.563	5.62
719.315	6.62
720.068	5.62
720.82	6.62
721.573	4.62
722.325	3.62
723.077	6.62
723.829	5.62
724.581	4.62
725.333	7.62
726.085	5.62
726.836	6.62
727.588	5.62
728.34	5.62
729.091	5.62
729.843	7.62
730.594	8.62
731.346	5.62
732.097	5.62
732.848	5.62
733.599	5.62
734.35	6.62
735.101	6.62
735.852	4.62
736.603	6.62
737.354	6.62
738.104	7.62
738.855	7.62
739.605	4.62
740.356	7.62
741.106	3.62
741.856	4.62
742.607	4.62
743.357	5.62
744.107	4.62
744.857	7.62
745.607	6.62
746.357	6.62
747.106	5.62
747.856	4.62
748.606	7.62
749.355	9.62
750.105	8.62
750.854	10.62
751.603	8.62
752.353	8.62
753.102	7.62
753.851	7.62
754.6	8.62
755.349	4.62
756.098	4.62
756.847	6.62
757.595	8.62
758.344	7.62
759.093	8.62
759.841	8.62
760.589	5.62
761.338	8.62
762.086	9.62
762.834	6.62
763.582	7.62
764.331	9.62
765.079	7.62
765.826	8.62
766.574	9.62
767.322	8.62
768.07	6.62
768.817	8.62
769.565	9.62
770.312	9.62
771.06	6.62
771.807	8.62
772.554	10.62
773.302	11.62
774.049	10.62
774.796	10.62
775.543	8.62
776.29	11.62
777.036	8.62
777.783	10.62
778.53	12.62
779.276	8.62
780.023	10.62
780.769	10.62
781.516	11.62
782.262	10.62
783.008	10.62
783.754	8.62
784.5	9.62
785.246	11.62
785.992	12.62
786.738	12.62
787.484	12.62
788.23	11.62
788.975	10.62
789.721	9.62
790.466	10.62
791.212	9.62
791.957	8.62
792.702	9.62
793.447	10.62
794.193	9.62
794.938	8.62
795.683	10.62
796.427	9.62
797.172	9.62
797.917	9.62
798.662	9.62
799.406	10.62
800.151	9.62
800.895	7.62
801.64	8.62
802.384	8.62
803.128	10.62
803.872	9.62
804.616	10.62
805.36	8.62
806.104	7.62
806.848	6.62
807.592	8.62
808.336	7.62
809.079	8.62
809.823	6.62
810.566	9.62
811.31	7.62
812.053	6.62
812.796	6.62
813.539	8.62
814.283	6.62
815.026	7.62
815.769	7.62
816.511	6.62
817.254	5.62
817.997	4.62
818.74	4.62
819.482	6.62
820.225	6.62
820.967	7.62
821.71	6.62
822.452	6.62
823.194	3.62
823.936	4.62
824.678	4.62
825.42	5.62
826.162	7.62
826.904	7.62
827.646	3.62
828.388	7.62
829.129	4.62
829.871	5.62
830.612	3.62
831.354	5.62
832.095	4.62
832.836	6.62
833.577	4.62
834.319	4.62
835.06	7.62
835.801	6.62
836.542	4.62
837.282	5.62
838.023	2.62
838.764	6.62
839.504	4.62
840.245	3.62
840.985	2.62
841.726	7.62
842.466	4.62
843.206	2.62
843.946	3.62
844.687	5.62
845.427	5.62
846.166	5.62
846.906	4.62
847.646	2.62
848.386	2.62
849.125	3.62
849.865	3.62
850.605	3.62
851.344	5.62
852.083	3.62
852.823	2.62
853.562	1.62
854.301	1.62
855.04	4.62
855.779	4.62
856.518	5.62
857.257	3.62
857.995	5.62
858.734	0.62
859.473	4.62
860.211	4.62
860.95	4.62
861.688	2.62
862.426	2.62
863.165	3.62
863.903	4.62
864.641	2.62
865.379	2.62
866.117	3.62
866.855	4.62
867.593	0.62
868.33	5.62
869.068	2.62
869.806	0.62
870.543	2.62
871.28	0.62
872.018	0.62
872.755	2.62
873.492	2.62
874.229	2.62
874.967	1.62
875.703	4.62
876.44	2.62
877.177	1.62
877.914	3.62
878.651	1.62
879.387	1.62
880.124	0.62
880.86	2.62
881.597	2.62
882.333	-0.38
883.069	0.62
883.806	-0.38
884.542	2.62
885.278	1.62
886.014	3.62
886.749	0.62
887.485	-1.38
888.221	2.62
888.957	2.62
889.692	0.62
890.428	2.62
891.163	0.62
891.899	2.62
892.634	0.62
893.369	1.62
894.104	-0.38
894.839	2.62
895.574	-1.38
896.309	1.62
897.044	1.62
897.779	1.62
898.514	2.62
899.248	1.62
899.983	-0.38
900.717	1.62
901.452	1.62
902.186	1.62
902.92	1.62
903.654	2.62
904.389	0.62
905.123	2.62
905.857	2.62
906.59	0.62
907.324	0.62
908.058	2.62
908.792	1.62
909.525	2.62
910.259	1.62
910.992	0.62
911.726	0.62
912.459	0.62
913.192	0.62
913.925	-0.38
914.658	0.62
915.391	0.62
916.124	1.62
916.857	1.62
917.59	0.62
918.323	0.62
919.055	2.62
919.788	0.62
920.521	-0.38
921.253	1.62
921.985	0.62
922.718	2.62
923.45	0.62
924.182	0.62
924.914	1.62
925.646	1.62
926.378	1.62
927.11	1.62
927.841	-0.38
928.573	2.62
929.305	-2.38
930.036	2.62
930.768	0.62
931.499	0.62
932.23	-0.38
932.962	-0.38
933.693	-0.38
934.424	-0.38
935.155	0.62
935.886	0.62
936.617	1.62
937.348	1.62
938.078	1.62
938.809	1.62
939.54	0.62
940.27	0.62
941.001	2.62
941.731	-0.38
942.461	1.62
943.191	1.62
943.922	1.62
944.652	1.62
945.382	-1.38
946.112	1.62
946.841	0.62
947.571	0.62
948.301	-0.38
949.031	0.62
949.76	-0.38
950.49	1.62
951.219	-0.38
951.948	0.62
952.678	0.62
953.407	2.62
954.136	-0.38
954.865	0.62
955.594	-0.38
956.323	1.62
957.052	-0.38
957.78	-1.38
958.509	0.62
959.238	-0.38
959.966	1.62
960.695	2.62
961.423	1.62
962.151	0.62
962.88	0.62
963.608	0.62
964.336	-1.38
965.064	1.62
965.792	-2.38
966.52	0.62
967.247	0.62
967.975	0.62
968.703	1.62
969.43	1.62
970.158	0.62
970.885	2.62
971.613	-1.38
972.34	0.62
973.067	-1.38
973.794	1.62
974.521	0.62
975.248	2.62
975.975	-0.38
976.702	-0.38
977.429	0.62
978.156	0.62
978.882	2.62
979.609	0.62
980.335	0.62
981.062	0.62
981.788	-1.38
982.514	2.62
983.24	-0.38
983.967	0.62
984.693	1.62
985.419	-0.38
986.144	0.62
986.87	0.62
987.596	1.62
988.322	0.62
989.047	1.62
989.773	1.62
990.498	1.62
991.224	1.62
991.949	1.62
992.674	0.62
993.399	0.62
994.124	0.62
994.849	0.62
995.574	1.62
996.299	1.62
997.024	2.62
997.749	0.62
998.473	-1.38
999.198	1.62
999.922	2.62
1000.647	0.62
1001.371	3.62
1002.095	-0.38
1002.82	-1.38
1003.544	-0.38
1004.268	0.62
1004.992	1.62
1005.716	3.62
1006.439	0.62
1007.163	2.62
1007.887	4.62
1008.611	0.62
1009.334	0.62
1010.058	0.62
1010.781	0.62
1011.504	0.62
1012.228	0.62
1012.951	0.62
1013.674	-2.38
1014.397	0.62
1015.12	-0.38
