节点500_425_QEPB04081__553__15-57-30-505.txt的数据

Date: Wed Nov 12 15:57:30 CST 2025
User: PC
Spectrometer: QEPB0408
触发模式: 0
积分时间 (秒): 1.000000E-2
Scans to average: 1
启用暗噪声校正: true
启用非线性校正: false
滑动平均宽度: 0
X轴模式: Wavelengths
Number of Pixels in Spectrum: 1044
>>>>>Begin Spectral Data<<<<<
220.843	2.75
221.644	1.75
222.444	1.75
223.244	4.75
224.045	1.75
224.845	3.75
225.645	3.75
226.445	3.75
227.245	3.75
228.045	1.75
228.845	2.75
229.645	3.75
230.444	4.75
231.244	1.75
232.043	3.75
232.843	5.75
233.642	5.75
234.442	7.75
235.241	5.75
236.04	4.75
236.839	6.75
237.638	5.75
238.437	5.75
239.236	5.75
240.035	3.75
240.833	7.75
241.632	3.75
242.43	6.75
243.229	6.75
244.027	8.75
244.826	7.75
245.624	6.75
246.422	7.75
247.22	7.75
248.018	9.75
248.816	7.75
249.614	7.75
250.412	7.75
251.21	10.75
252.007	7.75
252.805	8.75
253.602	10.75
254.4	7.75
255.197	7.75
255.994	10.75
256.791	11.75
257.589	9.75
258.386	10.75
259.183	12.75
259.979	8.75
260.776	12.75
261.573	12.75
262.37	12.75
263.166	13.75
263.963	13.75
264.759	15.75
265.556	13.75
266.352	14.75
267.148	15.75
267.944	19.75
268.74	18.75
269.536	15.75
270.332	17.75
271.128	19.75
271.924	19.75
272.719	17.75
273.515	16.75
274.311	20.75
275.106	19.75
275.901	18.75
276.697	21.75
277.492	18.75
278.287	21.75
279.082	20.75
279.877	22.75
280.672	23.75
281.467	22.75
282.262	23.75
283.056	21.75
283.851	23.75
284.646	24.75
285.44	19.75
286.234	23.75
287.029	21.75
287.823	23.75
288.617	22.75
289.411	21.75
290.205	22.75
290.999	23.75
291.793	24.75
292.587	19.75
293.381	21.75
294.174	21.75
294.968	20.75
295.761	19.75
296.555	18.75
297.348	18.75
298.141	21.75
298.935	20.75
299.728	17.75
300.521	15.75
301.314	16.75
302.107	15.75
302.899	17.75
303.692	12.75
304.485	15.75
305.277	13.75
306.07	14.75
306.862	16.75
307.655	13.75
308.447	14.75
309.239	15.75
310.031	13.75
310.823	16.75
311.615	12.75
312.407	11.75
313.199	9.75
313.991	12.75
314.783	10.75
315.574	10.75
316.366	10.75
317.157	7.75
317.949	9.75
318.74	11.75
319.531	8.75
320.322	9.75
321.113	8.75
321.904	8.75
322.695	11.75
323.486	6.75
324.277	8.75
325.068	8.75
325.858	9.75
326.649	6.75
327.439	6.75
328.23	9.75
329.02	7.75
329.81	8.75
330.6	7.75
331.391	10.75
332.181	8.75
332.971	6.75
333.76	8.75
334.55	6.75
335.34	8.75
336.13	4.75
336.919	7.75
337.709	7.75
338.498	6.75
339.287	8.75
340.077	8.75
340.866	8.75
341.655	9.75
342.444	7.75
343.233	7.75
344.022	8.75
344.811	7.75
345.6	4.75
346.388	4.75
347.177	6.75
347.965	8.75
348.754	7.75
349.542	5.75
350.33	7.75
351.119	6.75
351.907	6.75
352.695	7.75
353.483	6.75
354.271	7.75
355.059	6.75
355.846	9.75
356.634	6.75
357.422	6.75
358.209	6.75
358.997	6.75
359.784	4.75
360.571	4.75
361.359	7.75
362.146	4.75
362.933	4.75
363.72	7.75
364.507	9.75
365.294	6.75
366.081	5.75
366.867	6.75
367.654	6.75
368.44	4.75
369.227	6.75
370.013	3.75
370.8	3.75
371.586	7.75
372.372	4.75
373.158	4.75
373.944	6.75
374.73	6.75
375.516	5.75
376.302	3.75
377.088	6.75
377.873	5.75
378.659	4.75
379.445	5.75
380.23	7.75
381.015	7.75
381.801	4.75
382.586	6.75
383.371	6.75
384.156	6.75
384.941	6.75
385.726	4.75
386.511	7.75
387.296	6.75
388.08	7.75
388.865	5.75
389.649	7.75
390.434	7.75
391.218	8.75
392.003	7.75
392.787	7.75
393.571	8.75
394.355	9.75
395.139	6.75
395.923	7.75
396.707	9.75
397.491	8.75
398.274	7.75
399.058	7.75
399.842	6.75
400.625	8.75
401.408	7.75
402.192	8.75
402.975	9.75
403.758	9.75
404.541	9.75
405.324	7.75
406.107	9.75
406.89	11.75
407.673	9.75
408.456	10.75
409.238	9.75
410.021	8.75
410.803	7.75
411.586	11.75
412.368	9.75
413.151	10.75
413.933	10.75
414.715	12.75
415.497	10.75
416.279	11.75
417.061	14.75
417.843	14.75
418.624	10.75
419.406	11.75
420.188	12.75
420.969	12.75
421.751	12.75
422.532	15.75
423.313	12.75
424.095	14.75
424.876	16.75
425.657	17.75
426.438	14.75
427.219	16.75
428	15.75
428.78	17.75
429.561	17.75
430.342	18.75
431.122	19.75
431.903	19.75
432.683	21.75
433.464	22.75
434.244	23.75
435.024	22.75
435.804	22.75
436.584	25.75
437.364	27.75
438.144	32.75
438.924	28.75
439.704	32.75
440.483	35.75
441.263	35.75
442.042	37.75
442.822	39.75
443.601	42.75
444.38	47.75
445.16	48.75
445.939	55.75
446.718	61.75
447.497	65.75
448.276	72.75
449.054	75.75
449.833	82.75
450.612	93.75
451.391	102.75
452.169	109.75
452.948	122.75
453.726	135.75
454.504	148.75
455.282	163.75
456.061	183.75
456.839	202.75
457.617	229.75
458.395	249.75
459.172	283.75
459.95	309.75
460.728	338.75
461.506	387.75
462.283	432.75
463.061	481.75
463.838	532.75
464.615	599.75
465.393	654.75
466.17	730.75
466.947	812.75
467.724	899.75
468.501	995.75
469.278	1082.75
470.055	1225.75
470.831	1349.75
471.608	1487.75
472.385	1613.75
473.161	1796.75
473.938	1951.75
474.714	2183.75
475.49	2376.75
476.266	2593.75
477.043	2845.75
477.819	3118.75
478.595	3420.75
479.371	3735.75
480.146	4064.75
480.922	4424.75
481.698	4847.75
482.473	5253.75
483.249	5740.75
484.024	6235.75
484.8	6817.75
485.575	7389.75
486.35	7964.75
487.126	8659.75
487.901	9358.75
488.676	10146.75
489.451	11021.75
490.225	11850.75
491	12872.75
491.775	13861.75
492.55	14829.75
493.324	16023.75
494.099	17102.75
494.873	18234.75
495.647	19505.75
496.422	20669.75
497.196	21961.75
497.97	23230.75
498.744	24517.75
499.518	25751.75
500.292	26888.75
501.066	28045.75
501.839	29098.75
502.613	30162.75
503.387	30929.75
504.16	31613.75
504.934	32145.75
505.707	32455.75
506.48	32536.75
507.253	32619.75
508.027	32489.75
508.8	32250.75
509.573	31858.75
510.346	31238.75
511.118	30592.75
511.891	29926.75
512.664	28993.75
513.437	28048.75
514.209	27029.75
514.982	26163.75
515.754	25257.75
516.526	24232.75
517.298	23260.75
518.071	22363.75
518.843	21383.75
519.615	20530.75
520.387	19767.75
521.159	19047.75
521.93	18305.75
522.702	17573.75
523.474	16888.75
524.245	16201.75
525.017	15511.75
525.788	14815.75
526.56	14210.75
527.331	13607.75
528.102	13020.75
528.873	12372.75
529.644	11818.75
530.415	11337.75
531.186	10822.75
531.957	10282.75
532.728	9696.75
533.498	9208.75
534.269	8739.75
535.039	8312.75
535.81	7879.75
536.58	7413.75
537.351	7027.75
538.121	6654.75
538.891	6281.75
539.661	5929.75
540.431	5665.75
541.201	5355.75
541.971	5057.75
542.741	4818.75
543.51	4558.75
544.28	4319.75
545.05	4130.75
545.819	3921.75
546.588	3741.75
547.358	3544.75
548.127	3362.75
548.896	3189.75
549.665	3036.75
550.434	2903.75
551.203	2754.75
551.972	2591.75
552.741	2471.75
553.51	2308.75
554.278	2213.75
555.047	2079.75
555.815	1963.75
556.584	1876.75
557.352	1760.75
558.121	1657.75
558.889	1569.75
559.657	1477.75
560.425	1401.75
561.193	1329.75
561.961	1263.75
562.729	1201.75
563.496	1120.75
564.264	1059.75
565.032	1001.75
565.799	949.75
566.567	898.75
567.334	863.75
568.101	793.75
568.869	766.75
569.636	715.75
570.403	666.75
571.17	641.75
571.937	606.75
572.704	560.75
573.471	526.75
574.237	504.75
575.004	463.75
575.771	447.75
576.537	420.75
577.303	394.75
578.07	369.75
578.836	348.75
579.602	329.75
580.368	313.75
581.134	301.75
581.9	287.75
582.666	271.75
583.432	255.75
584.198	240.75
584.964	229.75
585.729	216.75
586.495	202.75
587.26	195.75
588.025	187.75
588.791	176.75
589.556	165.75
590.321	155.75
591.086	148.75
591.851	144.75
592.616	130.75
593.381	129.75
594.146	119.75
594.911	116.75
595.675	107.75
596.44	105.75
597.204	97.75
597.969	96.75
598.733	92.75
599.497	85.75
600.261	84.75
601.025	80.75
601.79	77.75
602.553	75.75
603.317	70.75
604.081	69.75
604.845	64.75
605.609	60.75
606.372	58.75
607.136	58.75
607.899	50.75
608.662	51.75
609.426	50.75
610.189	47.75
610.952	48.75
611.715	47.75
612.478	42.75
613.241	39.75
614.004	39.75
614.767	37.75
615.529	38.75
616.292	37.75
617.055	33.75
617.817	32.75
618.579	30.75
619.342	31.75
620.104	28.75
620.866	31.75
621.628	26.75
622.39	25.75
623.152	27.75
623.914	24.75
624.676	24.75
625.438	22.75
626.199	20.75
626.961	23.75
627.722	19.75
628.484	20.75
629.245	16.75
630.006	20.75
630.768	17.75
631.529	16.75
632.29	17.75
633.051	16.75
633.812	17.75
634.573	15.75
635.333	14.75
636.094	13.75
636.855	14.75
637.615	16.75
638.376	12.75
639.136	15.75
639.896	11.75
640.657	10.75
641.417	10.75
642.177	10.75
642.937	11.75
643.697	12.75
644.457	12.75
645.216	10.75
645.976	8.75
646.736	11.75
647.495	9.75
648.255	11.75
649.014	6.75
649.774	9.75
650.533	5.75
651.292	9.75
652.051	7.75
652.81	7.75
653.569	6.75
654.328	7.75
655.087	8.75
655.846	7.75
656.604	9.75
657.363	9.75
658.121	7.75
658.88	8.75
659.638	4.75
660.397	9.75
661.155	7.75
661.913	5.75
662.671	9.75
663.429	6.75
664.187	7.75
664.945	6.75
665.703	7.75
666.46	6.75
667.218	7.75
667.976	4.75
668.733	3.75
669.49	3.75
670.248	4.75
671.005	6.75
671.762	6.75
672.519	2.75
673.276	6.75
674.033	5.75
674.79	3.75
675.547	7.75
676.304	3.75
677.06	5.75
677.817	3.75
678.574	7.75
679.33	5.75
680.086	4.75
680.843	6.75
681.599	5.75
682.355	5.75
683.111	5.75
683.867	4.75
684.623	6.75
685.379	3.75
686.135	6.75
686.89	4.75
687.646	5.75
688.402	4.75
689.157	3.75
689.912	4.75
690.668	5.75
691.423	5.75
692.178	4.75
692.933	4.75
693.688	7.75
694.443	4.75
695.198	5.75
695.953	5.75
696.708	2.75
697.462	3.75
698.217	1.75
698.972	3.75
699.726	3.75
700.48	5.75
701.235	5.75
701.989	5.75
702.743	2.75
703.497	2.75
704.251	5.75
705.005	3.75
705.759	2.75
706.513	3.75
707.266	5.75
708.02	2.75
708.774	4.75
709.527	3.75
710.28	2.75
711.034	1.75
711.787	6.75
712.54	2.75
713.293	3.75
714.046	5.75
714.799	3.75
715.552	1.75
716.305	6.75
717.058	6.75
717.81	4.75
718.563	6.75
719.315	4.75
720.068	4.75
720.82	5.75
721.573	4.75
722.325	5.75
723.077	4.75
723.829	3.75
724.581	7.75
725.333	2.75
726.085	3.75
726.836	4.75
727.588	6.75
728.34	4.75
729.091	3.75
729.843	5.75
730.594	4.75
731.346	3.75
732.097	6.75
732.848	5.75
733.599	4.75
734.35	4.75
735.101	3.75
735.852	3.75
736.603	5.75
737.354	4.75
738.104	4.75
738.855	4.75
739.605	3.75
740.356	5.75
741.106	5.75
741.856	3.75
742.607	5.75
743.357	4.75
744.107	4.75
744.857	6.75
745.607	4.75
746.357	6.75
747.106	5.75
747.856	5.75
748.606	4.75
749.355	7.75
750.105	5.75
750.854	7.75
751.603	3.75
752.353	6.75
753.102	5.75
753.851	6.75
754.6	3.75
755.349	6.75
756.098	6.75
756.847	7.75
757.595	4.75
758.344	6.75
759.093	5.75
759.841	7.75
760.589	6.75
761.338	6.75
762.086	7.75
762.834	5.75
763.582	7.75
764.331	7.75
765.079	6.75
765.826	9.75
766.574	6.75
767.322	6.75
768.07	6.75
768.817	8.75
769.565	6.75
770.312	8.75
771.06	9.75
771.807	6.75
772.554	7.75
773.302	7.75
774.049	9.75
774.796	7.75
775.543	9.75
776.29	10.75
777.036	10.75
777.783	9.75
778.53	8.75
779.276	7.75
780.023	7.75
780.769	6.75
781.516	9.75
782.262	7.75
783.008	8.75
783.754	9.75
784.5	9.75
785.246	9.75
785.992	7.75
786.738	12.75
787.484	9.75
788.23	10.75
788.975	7.75
789.721	8.75
790.466	10.75
791.212	10.75
791.957	8.75
792.702	11.75
793.447	8.75
794.193	12.75
794.938	7.75
795.683	9.75
796.427	9.75
797.172	7.75
797.917	9.75
798.662	6.75
799.406	9.75
800.151	8.75
800.895	7.75
801.64	10.75
802.384	7.75
803.128	7.75
803.872	6.75
804.616	9.75
805.36	8.75
806.104	7.75
806.848	5.75
807.592	5.75
808.336	7.75
809.079	6.75
809.823	6.75
810.566	5.75
811.31	4.75
812.053	5.75
812.796	6.75
813.539	6.75
814.283	4.75
815.026	5.75
815.769	6.75
816.511	4.75
817.254	4.75
817.997	6.75
818.74	4.75
819.482	4.75
820.225	3.75
820.967	5.75
821.71	4.75
822.452	4.75
823.194	2.75
823.936	5.75
824.678	5.75
825.42	3.75
826.162	5.75
826.904	6.75
827.646	3.75
828.388	2.75
829.129	1.75
829.871	3.75
830.612	3.75
831.354	5.75
832.095	3.75
832.836	4.75
833.577	5.75
834.319	2.75
835.06	4.75
835.801	1.75
836.542	2.75
837.282	4.75
838.023	4.75
838.764	4.75
839.504	3.75
840.245	6.75
840.985	3.75
841.726	2.75
842.466	4.75
843.206	3.75
843.946	4.75
844.687	1.75
845.427	4.75
846.166	3.75
846.906	0.75
847.646	3.75
848.386	3.75
849.125	2.75
849.865	2.75
850.605	3.75
851.344	1.75
852.083	2.75
852.823	3.75
853.562	2.75
854.301	4.75
855.04	2.75
855.779	0.75
856.518	1.75
857.257	1.75
857.995	3.75
858.734	-0.25
859.473	2.75
860.211	1.75
860.95	2.75
861.688	1.75
862.426	1.75
863.165	1.75
863.903	3.75
864.641	0.75
865.379	-0.25
866.117	-0.25
866.855	3.75
867.593	0.75
868.33	1.75
869.068	0.75
869.806	1.75
870.543	1.75
871.28	-0.25
872.018	1.75
872.755	0.75
873.492	2.75
874.229	1.75
874.967	1.75
875.703	2.75
876.44	-0.25
877.177	1.75
877.914	-0.25
878.651	-1.25
879.387	2.75
880.124	-0.25
880.86	2.75
881.597	2.75
882.333	-2.25
883.069	1.75
883.806	-3.25
884.542	0.75
885.278	-0.25
886.014	1.75
886.749	-0.25
887.485	-0.25
888.221	1.75
888.957	2.75
889.692	0.75
890.428	1.75
891.163	1.75
891.899	-0.25
892.634	-0.25
893.369	1.75
894.104	-2.25
894.839	0.75
895.574	-0.25
896.309	0.75
897.044	0.75
897.779	0.75
898.514	1.75
899.248	0.75
899.983	0.75
900.717	-0.25
901.452	0.75
902.186	-1.25
902.92	-1.25
903.654	0.75
904.389	-1.25
905.123	-0.25
905.857	-0.25
906.59	-1.25
907.324	0.75
908.058	0.75
908.792	-0.25
909.525	-2.25
910.259	-1.25
910.992	-0.25
911.726	-2.25
912.459	2.75
913.192	0.75
913.925	-2.25
914.658	-1.25
915.391	-0.25
916.124	-0.25
916.857	-1.25
917.59	-1.25
918.323	2.75
919.055	-0.25
919.788	-0.25
920.521	-2.25
921.253	-0.25
921.985	-0.25
922.718	-2.25
923.45	-0.25
924.182	-0.25
924.914	-0.25
925.646	1.75
926.378	-1.25
927.11	-0.25
927.841	-2.25
928.573	-0.25
929.305	-2.25
930.036	0.75
930.768	0.75
931.499	0.75
932.23	-0.25
932.962	0.75
933.693	-1.25
934.424	1.75
935.155	0.75
935.886	-1.25
936.617	-1.25
937.348	-2.25
938.078	-1.25
938.809	0.75
939.54	1.75
940.27	-2.25
941.001	-0.25
941.731	-1.25
942.461	0.75
943.191	0.75
943.922	-0.25
944.652	1.75
945.382	-2.25
946.112	-0.25
946.841	-2.25
947.571	0.75
948.301	-1.25
949.031	0.75
949.76	-1.25
950.49	-2.25
951.219	-0.25
951.948	-1.25
952.678	0.75
953.407	-2.25
954.136	-0.25
954.865	-0.25
955.594	-2.25
956.323	-2.25
957.052	-1.25
957.78	-1.25
958.509	-1.25
959.238	-3.25
959.966	0.75
960.695	-2.25
961.423	-0.25
962.151	-4.25
962.88	-2.25
963.608	-1.25
964.336	-1.25
965.064	-0.25
965.792	-1.25
966.52	-0.25
967.247	-1.25
967.975	-1.25
968.703	0.75
969.43	-1.25
970.158	-0.25
970.885	-0.25
971.613	0.75
972.34	-1.25
973.067	1.75
973.794	-0.25
974.521	-0.25
975.248	-0.25
975.975	-0.25
976.702	-1.25
977.429	-0.25
978.156	0.75
978.882	-0.25
979.609	-1.25
980.335	1.75
981.062	-1.25
981.788	-1.25
982.514	-0.25
983.24	-0.25
983.967	0.75
984.693	0.75
985.419	-0.25
986.144	-0.25
986.87	-0.25
987.596	-0.25
988.322	-0.25
989.047	-0.25
989.773	-2.25
990.498	-0.25
991.224	1.75
991.949	-0.25
992.674	-1.25
993.399	-0.25
994.124	-0.25
994.849	0.75
995.574	1.75
996.299	0.75
997.024	0.75
997.749	-3.25
998.473	-0.25
999.198	-2.25
999.922	1.75
1000.647	-0.25
1001.371	5.75
1002.095	-1.25
1002.82	-2.25
1003.544	-1.25
1004.268	1.75
1004.992	-0.25
1005.716	1.75
1006.439	2.75
1007.163	4.75
1007.887	2.75
1008.611	0.75
1009.334	1.75
1010.058	-1.25
1010.781	0.75
1011.504	-0.25
1012.228	0.75
1012.951	-0.25
1013.674	-1.25
1014.397	-0.25
1015.12	0.75
