节点500_425_QEPB04081__533__15-57-10-535.txt的数据

Date: Wed Nov 12 15:57:10 CST 2025
User: PC
Spectrometer: QEPB0408
触发模式: 0
积分时间 (秒): 1.000000E-2
Scans to average: 1
启用暗噪声校正: true
启用非线性校正: false
滑动平均宽度: 0
X轴模式: Wavelengths
Number of Pixels in Spectrum: 1044
>>>>>Begin Spectral Data<<<<<
220.843	2.25
221.644	2.25
222.444	4.25
223.244	3.25
224.045	5.25
224.845	4.25
225.645	3.25
226.445	4.25
227.245	4.25
228.045	4.25
228.845	4.25
229.645	6.25
230.444	5.25
231.244	6.25
232.043	5.25
232.843	5.25
233.642	6.25
234.442	5.25
235.241	5.25
236.04	4.25
236.839	5.25
237.638	3.25
238.437	5.25
239.236	4.25
240.035	5.25
240.833	7.25
241.632	6.25
242.43	6.25
243.229	6.25
244.027	7.25
244.826	8.25
245.624	7.25
246.422	7.25
247.22	8.25
248.018	6.25
248.816	8.25
249.614	7.25
250.412	9.25
251.21	9.25
252.007	11.25
252.805	10.25
253.602	10.25
254.4	10.25
255.197	11.25
255.994	13.25
256.791	8.25
257.589	13.25
258.386	11.25
259.183	12.25
259.979	14.25
260.776	11.25
261.573	11.25
262.37	13.25
263.166	14.25
263.963	16.25
264.759	14.25
265.556	18.25
266.352	13.25
267.148	16.25
267.944	18.25
268.74	18.25
269.536	18.25
270.332	17.25
271.128	17.25
271.924	21.25
272.719	17.25
273.515	22.25
274.311	17.25
275.106	18.25
275.901	19.25
276.697	21.25
277.492	23.25
278.287	24.25
279.082	23.25
279.877	23.25
280.672	24.25
281.467	21.25
282.262	23.25
283.056	20.25
283.851	22.25
284.646	27.25
285.44	22.25
286.234	23.25
287.029	21.25
287.823	22.25
288.617	23.25
289.411	20.25
290.205	22.25
290.999	26.25
291.793	22.25
292.587	19.25
293.381	22.25
294.174	20.25
294.968	18.25
295.761	21.25
296.555	19.25
297.348	18.25
298.141	18.25
298.935	21.25
299.728	19.25
300.521	18.25
301.314	16.25
302.107	18.25
302.899	18.25
303.692	17.25
304.485	18.25
305.277	18.25
306.07	17.25
306.862	16.25
307.655	14.25
308.447	14.25
309.239	15.25
310.031	13.25
310.823	14.25
311.615	13.25
312.407	15.25
313.199	15.25
313.991	12.25
314.783	15.25
315.574	12.25
316.366	10.25
317.157	13.25
317.949	8.25
318.74	10.25
319.531	10.25
320.322	10.25
321.113	11.25
321.904	10.25
322.695	9.25
323.486	10.25
324.277	9.25
325.068	10.25
325.858	8.25
326.649	9.25
327.439	10.25
328.23	10.25
329.02	11.25
329.81	9.25
330.6	9.25
331.391	8.25
332.181	10.25
332.971	7.25
333.76	10.25
334.55	8.25
335.34	8.25
336.13	8.25
336.919	7.25
337.709	9.25
338.498	8.25
339.287	7.25
340.077	8.25
340.866	7.25
341.655	7.25
342.444	8.25
343.233	9.25
344.022	7.25
344.811	7.25
345.6	9.25
346.388	5.25
347.177	8.25
347.965	9.25
348.754	9.25
349.542	9.25
350.33	8.25
351.119	8.25
351.907	5.25
352.695	8.25
353.483	8.25
354.271	9.25
355.059	8.25
355.846	7.25
356.634	7.25
357.422	7.25
358.209	7.25
358.997	8.25
359.784	6.25
360.571	9.25
361.359	6.25
362.146	8.25
362.933	7.25
363.72	7.25
364.507	6.25
365.294	2.25
366.081	4.25
366.867	8.25
367.654	8.25
368.44	6.25
369.227	4.25
370.013	7.25
370.8	5.25
371.586	6.25
372.372	6.25
373.158	8.25
373.944	5.25
374.73	7.25
375.516	5.25
376.302	6.25
377.088	6.25
377.873	6.25
378.659	8.25
379.445	7.25
380.23	6.25
381.015	8.25
381.801	5.25
382.586	8.25
383.371	6.25
384.156	8.25
384.941	7.25
385.726	6.25
386.511	6.25
387.296	8.25
388.08	7.25
388.865	4.25
389.649	6.25
390.434	7.25
391.218	6.25
392.003	6.25
392.787	8.25
393.571	5.25
394.355	9.25
395.139	8.25
395.923	8.25
396.707	7.25
397.491	7.25
398.274	8.25
399.058	9.25
399.842	9.25
400.625	10.25
401.408	9.25
402.192	13.25
402.975	9.25
403.758	8.25
404.541	9.25
405.324	10.25
406.107	12.25
406.89	10.25
407.673	8.25
408.456	10.25
409.238	12.25
410.021	8.25
410.803	11.25
411.586	10.25
412.368	12.25
413.151	12.25
413.933	9.25
414.715	12.25
415.497	12.25
416.279	10.25
417.061	12.25
417.843	10.25
418.624	13.25
419.406	12.25
420.188	11.25
420.969	16.25
421.751	13.25
422.532	14.25
423.313	16.25
424.095	16.25
424.876	16.25
425.657	13.25
426.438	15.25
427.219	17.25
428	17.25
428.78	19.25
429.561	19.25
430.342	21.25
431.122	20.25
431.903	22.25
432.683	22.25
433.464	24.25
434.244	23.25
435.024	21.25
435.804	28.25
436.584	27.25
437.364	29.25
438.144	27.25
438.924	32.25
439.704	31.25
440.483	33.25
441.263	35.25
442.042	39.25
442.822	42.25
443.601	44.25
444.38	49.25
445.16	52.25
445.939	53.25
446.718	60.25
447.497	67.25
448.276	71.25
449.054	75.25
449.833	85.25
450.612	92.25
451.391	100.25
452.169	110.25
452.948	123.25
453.726	133.25
454.504	148.25
455.282	165.25
456.061	182.25
456.839	202.25
457.617	228.25
458.395	256.25
459.172	276.25
459.95	309.25
460.728	350.25
461.506	378.25
462.283	429.25
463.061	473.25
463.838	532.25
464.615	591.25
465.393	654.25
466.17	737.25
466.947	821.25
467.724	902.25
468.501	988.25
469.278	1102.25
470.055	1193.25
470.831	1329.25
471.608	1489.25
472.385	1612.25
473.161	1778.25
473.938	1967.25
474.714	2156.25
475.49	2381.25
476.266	2610.25
477.043	2844.25
477.819	3121.25
478.595	3415.25
479.371	3728.25
480.146	4071.25
480.922	4439.25
481.698	4868.25
482.473	5305.25
483.249	5751.25
484.024	6237.25
484.8	6794.25
485.575	7380.25
486.35	7980.25
487.126	8702.25
487.901	9406.25
488.676	10232.25
489.451	11074.25
490.225	11981.25
491	12938.25
491.775	13973.25
492.55	15041.25
493.324	16174.25
494.099	17247.25
494.873	18370.25
495.647	19532.25
496.422	20861.25
497.196	22130.25
497.97	23410.25
498.744	24707.25
499.518	25980.25
500.292	27153.25
501.066	28257.25
501.839	29405.25
502.613	30426.25
503.387	31087.25
504.16	31799.25
504.934	32292.25
505.707	32560.25
506.48	32643.25
507.253	32705.25
508.027	32609.25
508.8	32349.25
509.573	31956.25
510.346	31310.25
511.118	30638.25
511.891	29864.25
512.664	28978.25
513.437	28067.25
514.209	27105.25
514.982	26166.25
515.754	25233.25
516.526	24214.25
517.298	23198.25
518.071	22285.25
518.843	21426.25
519.615	20524.25
520.387	19743.25
521.159	18969.25
521.93	18293.25
522.702	17513.25
523.474	16847.25
524.245	16234.25
525.017	15490.25
525.788	14812.25
526.56	14135.25
527.331	13544.25
528.102	12962.25
528.873	12333.25
529.644	11764.25
530.415	11276.25
531.186	10798.25
531.957	10252.25
532.728	9727.25
533.498	9196.25
534.269	8714.25
535.039	8264.25
535.81	7835.25
536.58	7429.25
537.351	6963.25
538.121	6609.25
538.891	6270.25
539.661	5979.25
540.431	5643.25
541.201	5327.25
541.971	5077.25
542.741	4804.25
543.51	4573.25
544.28	4328.25
545.05	4105.25
545.819	3910.25
546.588	3717.25
547.358	3537.25
548.127	3352.25
548.896	3169.25
549.665	3035.25
550.434	2851.25
551.203	2722.25
551.972	2597.25
552.741	2455.25
553.51	2316.25
554.278	2194.25
555.047	2078.25
555.815	1946.25
556.584	1843.25
557.352	1750.25
558.121	1644.25
558.889	1566.25
559.657	1464.25
560.425	1392.25
561.193	1321.25
561.961	1244.25
562.729	1172.25
563.496	1112.25
564.264	1050.25
565.032	1002.25
565.799	940.25
566.567	897.25
567.334	844.25
568.101	804.25
568.869	748.25
569.636	726.25
570.403	673.25
571.17	625.25
571.937	599.25
572.704	562.25
573.471	530.25
574.237	507.25
575.004	464.25
575.771	445.25
576.537	411.25
577.303	392.25
578.07	367.25
578.836	349.25
579.602	328.25
580.368	311.25
581.134	299.25
581.9	282.25
582.666	278.25
583.432	255.25
584.198	241.25
584.964	230.25
585.729	216.25
586.495	209.25
587.26	198.25
588.025	185.25
588.791	174.25
589.556	163.25
590.321	160.25
591.086	145.25
591.851	143.25
592.616	137.25
593.381	126.25
594.146	125.25
594.911	115.25
595.675	117.25
596.44	109.25
597.204	102.25
597.969	95.25
598.733	89.25
599.497	87.25
600.261	86.25
601.025	84.25
601.79	76.25
602.553	76.25
603.317	70.25
604.081	66.25
604.845	66.25
605.609	59.25
606.372	61.25
607.136	58.25
607.899	55.25
608.662	52.25
609.426	50.25
610.189	49.25
610.952	44.25
611.715	45.25
612.478	45.25
613.241	39.25
614.004	40.25
614.767	38.25
615.529	37.25
616.292	36.25
617.055	35.25
617.817	34.25
618.579	30.25
619.342	32.25
620.104	29.25
620.866	28.25
621.628	30.25
622.39	26.25
623.152	30.25
623.914	25.25
624.676	25.25
625.438	24.25
626.199	21.25
626.961	22.25
627.722	21.25
628.484	19.25
629.245	20.25
630.006	20.25
630.768	19.25
631.529	16.25
632.29	19.25
633.051	17.25
633.812	18.25
634.573	18.25
635.333	14.25
636.094	17.25
636.855	16.25
637.615	13.25
638.376	14.25
639.136	13.25
639.896	12.25
640.657	14.25
641.417	14.25
642.177	9.25
642.937	12.25
643.697	11.25
644.457	12.25
645.216	13.25
645.976	12.25
646.736	13.25
647.495	7.25
648.255	10.25
649.014	10.25
649.774	10.25
650.533	12.25
651.292	8.25
652.051	10.25
652.81	7.25
653.569	7.25
654.328	8.25
655.087	9.25
655.846	10.25
656.604	9.25
657.363	6.25
658.121	6.25
658.88	8.25
659.638	8.25
660.397	7.25
661.155	10.25
661.913	5.25
662.671	7.25
663.429	9.25
664.187	8.25
664.945	8.25
665.703	7.25
666.46	7.25
667.218	6.25
667.976	7.25
668.733	6.25
669.49	4.25
670.248	8.25
671.005	6.25
671.762	7.25
672.519	6.25
673.276	7.25
674.033	4.25
674.79	7.25
675.547	6.25
676.304	6.25
677.06	3.25
677.817	7.25
678.574	5.25
679.33	8.25
680.086	5.25
680.843	7.25
681.599	5.25
682.355	4.25
683.111	6.25
683.867	7.25
684.623	5.25
685.379	6.25
686.135	6.25
686.89	6.25
687.646	7.25
688.402	6.25
689.157	5.25
689.912	5.25
690.668	6.25
691.423	4.25
692.178	8.25
692.933	7.25
693.688	2.25
694.443	7.25
695.198	6.25
695.953	4.25
696.708	6.25
697.462	4.25
698.217	3.25
698.972	6.25
699.726	5.25
700.48	4.25
701.235	4.25
701.989	3.25
702.743	3.25
703.497	2.25
704.251	3.25
705.005	6.25
705.759	5.25
706.513	6.25
707.266	4.25
708.02	3.25
708.774	3.25
709.527	4.25
710.28	8.25
711.034	5.25
711.787	5.25
712.54	2.25
713.293	4.25
714.046	4.25
714.799	3.25
715.552	6.25
716.305	4.25
717.058	6.25
717.81	7.25
718.563	3.25
719.315	5.25
720.068	4.25
720.82	5.25
721.573	5.25
722.325	5.25
723.077	5.25
723.829	5.25
724.581	5.25
725.333	4.25
726.085	7.25
726.836	4.25
727.588	4.25
728.34	5.25
729.091	3.25
729.843	4.25
730.594	5.25
731.346	5.25
732.097	6.25
732.848	6.25
733.599	7.25
734.35	7.25
735.101	5.25
735.852	4.25
736.603	2.25
737.354	7.25
738.104	4.25
738.855	4.25
739.605	6.25
740.356	4.25
741.106	6.25
741.856	4.25
742.607	5.25
743.357	8.25
744.107	6.25
744.857	8.25
745.607	6.25
746.357	7.25
747.106	6.25
747.856	7.25
748.606	6.25
749.355	7.25
750.105	6.25
750.854	5.25
751.603	8.25
752.353	4.25
753.102	7.25
753.851	7.25
754.6	7.25
755.349	11.25
756.098	8.25
756.847	10.25
757.595	8.25
758.344	7.25
759.093	9.25
759.841	7.25
760.589	7.25
761.338	7.25
762.086	8.25
762.834	6.25
763.582	8.25
764.331	9.25
765.079	7.25
765.826	9.25
766.574	8.25
767.322	6.25
768.07	10.25
768.817	11.25
769.565	11.25
770.312	9.25
771.06	11.25
771.807	6.25
772.554	10.25
773.302	11.25
774.049	10.25
774.796	12.25
775.543	10.25
776.29	9.25
777.036	10.25
777.783	8.25
778.53	8.25
779.276	10.25
780.023	12.25
780.769	11.25
781.516	10.25
782.262	13.25
783.008	10.25
783.754	9.25
784.5	14.25
785.246	8.25
785.992	11.25
786.738	11.25
787.484	10.25
788.23	12.25
788.975	8.25
789.721	11.25
790.466	12.25
791.212	12.25
791.957	11.25
792.702	13.25
793.447	9.25
794.193	13.25
794.938	10.25
795.683	9.25
796.427	10.25
797.172	9.25
797.917	10.25
798.662	9.25
799.406	8.25
800.151	7.25
800.895	9.25
801.64	9.25
802.384	10.25
803.128	8.25
803.872	8.25
804.616	8.25
805.36	8.25
806.104	8.25
806.848	7.25
807.592	7.25
808.336	6.25
809.079	7.25
809.823	6.25
810.566	5.25
811.31	6.25
812.053	4.25
812.796	8.25
813.539	3.25
814.283	9.25
815.026	4.25
815.769	7.25
816.511	7.25
817.254	4.25
817.997	7.25
818.74	4.25
819.482	6.25
820.225	6.25
820.967	3.25
821.71	3.25
822.452	5.25
823.194	4.25
823.936	5.25
824.678	8.25
825.42	4.25
826.162	6.25
826.904	6.25
827.646	4.25
828.388	6.25
829.129	4.25
829.871	4.25
830.612	8.25
831.354	2.25
832.095	5.25
832.836	6.25
833.577	5.25
834.319	5.25
835.06	4.25
835.801	5.25
836.542	3.25
837.282	5.25
838.023	5.25
838.764	3.25
839.504	8.25
840.245	4.25
840.985	5.25
841.726	5.25
842.466	4.25
843.206	4.25
843.946	1.25
844.687	3.25
845.427	3.25
846.166	2.25
846.906	4.25
847.646	3.25
848.386	4.25
849.125	3.25
849.865	4.25
850.605	4.25
851.344	4.25
852.083	6.25
852.823	6.25
853.562	3.25
854.301	3.25
855.04	4.25
855.779	2.25
856.518	3.25
857.257	3.25
857.995	1.25
858.734	3.25
859.473	2.25
860.211	2.25
860.95	3.25
861.688	4.25
862.426	4.25
863.165	0.25
863.903	2.25
864.641	2.25
865.379	3.25
866.117	1.25
866.855	2.25
867.593	1.25
868.33	2.25
869.068	2.25
869.806	2.25
870.543	3.25
871.28	0.25
872.018	1.25
872.755	1.25
873.492	0.25
874.229	0.25
874.967	1.25
875.703	-1.75
876.44	-0.75
877.177	3.25
877.914	1.25
878.651	2.25
879.387	0.25
880.124	2.25
880.86	1.25
881.597	0.25
882.333	2.25
883.069	0.25
883.806	2.25
884.542	1.25
885.278	1.25
886.014	0.25
886.749	4.25
887.485	4.25
888.221	1.25
888.957	0.25
889.692	3.25
890.428	1.25
891.163	3.25
891.899	1.25
892.634	3.25
893.369	1.25
894.104	0.25
894.839	-1.75
895.574	-0.75
896.309	1.25
897.044	0.25
897.779	2.25
898.514	2.25
899.248	2.25
899.983	1.25
900.717	0.25
901.452	0.25
902.186	0.25
902.92	0.25
903.654	0.25
904.389	-0.75
905.123	0.25
905.857	0.25
906.59	0.25
907.324	2.25
908.058	0.25
908.792	0.25
909.525	2.25
910.259	-0.75
910.992	1.25
911.726	-1.75
912.459	0.25
913.192	1.25
913.925	-0.75
914.658	2.25
915.391	0.25
916.124	1.25
916.857	-1.75
917.59	-1.75
918.323	0.25
919.055	-1.75
919.788	0.25
920.521	0.25
921.253	0.25
921.985	1.25
922.718	-0.75
923.45	4.25
924.182	-0.75
924.914	-0.75
925.646	-0.75
926.378	-1.75
927.11	0.25
927.841	1.25
928.573	0.25
929.305	1.25
930.036	-0.75
930.768	0.25
931.499	1.25
932.23	1.25
932.962	-0.75
933.693	1.25
934.424	0.25
935.155	0.25
935.886	0.25
936.617	0.25
937.348	-0.75
938.078	0.25
938.809	-0.75
939.54	-1.75
940.27	0.25
941.001	0.25
941.731	1.25
942.461	0.25
943.191	-0.75
943.922	-0.75
944.652	1.25
945.382	0.25
946.112	1.25
946.841	1.25
947.571	0.25
948.301	-0.75
949.031	-0.75
949.76	1.25
950.49	1.25
951.219	-1.75
951.948	-1.75
952.678	0.25
953.407	-0.75
954.136	1.25
954.865	0.25
955.594	0.25
956.323	1.25
957.052	1.25
957.78	0.25
958.509	0.25
959.238	0.25
959.966	0.25
960.695	-1.75
961.423	-1.75
962.151	-0.75
962.88	0.25
963.608	-0.75
964.336	0.25
965.064	2.25
965.792	-0.75
966.52	0.25
967.247	2.25
967.975	-1.75
968.703	-1.75
969.43	-0.75
970.158	0.25
970.885	1.25
971.613	3.25
972.34	1.25
973.067	0.25
973.794	0.25
974.521	-1.75
975.248	-0.75
975.975	-0.75
976.702	1.25
977.429	-0.75
978.156	-0.75
978.882	-1.75
979.609	0.25
980.335	-0.75
981.062	-2.75
981.788	1.25
982.514	-1.75
983.24	0.25
983.967	-0.75
984.693	2.25
985.419	-0.75
986.144	-1.75
986.87	0.25
987.596	-0.75
988.322	0.25
989.047	0.25
989.773	1.25
990.498	0.25
991.224	-0.75
991.949	-0.75
992.674	0.25
993.399	2.25
994.124	1.25
994.849	0.25
995.574	-1.75
996.299	2.25
997.024	0.25
997.749	-1.75
998.473	1.25
999.198	1.25
999.922	-1.75
1000.647	2.25
1001.371	4.25
1002.095	1.25
1002.82	-0.75
1003.544	-2.75
1004.268	2.25
1004.992	0.25
1005.716	2.25
1006.439	4.25
1007.163	4.25
1007.887	1.25
1008.611	0.25
1009.334	-0.75
1010.058	-0.75
1010.781	-1.75
1011.504	-1.75
1012.228	1.25
1012.951	-0.75
1013.674	-1.75
1014.397	0.25
1015.12	0.25
