节点500_425_QEPB04081__162__15-51-00-201.txt的数据

Date: Wed Nov 12 15:51:00 CST 2025
User: PC
Spectrometer: QEPB0408
触发模式: 0
积分时间 (秒): 1.000000E-2
Scans to average: 1
启用暗噪声校正: true
启用非线性校正: false
滑动平均宽度: 0
X轴模式: Wavelengths
Number of Pixels in Spectrum: 1044
>>>>>Begin Spectral Data<<<<<
220.843	1.88
221.644	2.88
222.444	3.88
223.244	3.88
224.045	2.88
224.845	3.88
225.645	4.88
226.445	2.88
227.245	5.88
228.045	4.88
228.845	3.88
229.645	4.88
230.444	5.88
231.244	5.88
232.043	6.88
232.843	6.88
233.642	5.88
234.442	3.88
235.241	4.88
236.04	3.88
236.839	4.88
237.638	5.88
238.437	6.88
239.236	2.88
240.035	4.88
240.833	5.88
241.632	8.88
242.43	6.88
243.229	5.88
244.027	6.88
244.826	8.88
245.624	7.88
246.422	8.88
247.22	7.88
248.018	10.88
248.816	8.88
249.614	10.88
250.412	7.88
251.21	8.88
252.007	12.88
252.805	10.88
253.602	10.88
254.4	11.88
255.197	8.88
255.994	9.88
256.791	12.88
257.589	11.88
258.386	12.88
259.183	16.88
259.979	15.88
260.776	13.88
261.573	14.88
262.37	18.88
263.166	17.88
263.963	16.88
264.759	17.88
265.556	16.88
266.352	17.88
267.148	19.88
267.944	19.88
268.74	19.88
269.536	17.88
270.332	17.88
271.128	23.88
271.924	21.88
272.719	24.88
273.515	24.88
274.311	24.88
275.106	26.88
275.901	20.88
276.697	24.88
277.492	24.88
278.287	25.88
279.082	24.88
279.877	24.88
280.672	24.88
281.467	26.88
282.262	25.88
283.056	23.88
283.851	27.88
284.646	26.88
285.44	25.88
286.234	26.88
287.029	25.88
287.823	26.88
288.617	25.88
289.411	25.88
290.205	20.88
290.999	22.88
291.793	24.88
292.587	21.88
293.381	24.88
294.174	22.88
294.968	21.88
295.761	21.88
296.555	19.88
297.348	19.88
298.141	21.88
298.935	20.88
299.728	16.88
300.521	18.88
301.314	16.88
302.107	15.88
302.899	16.88
303.692	15.88
304.485	15.88
305.277	17.88
306.07	14.88
306.862	14.88
307.655	16.88
308.447	15.88
309.239	13.88
310.031	16.88
310.823	13.88
311.615	12.88
312.407	14.88
313.199	11.88
313.991	13.88
314.783	12.88
315.574	9.88
316.366	10.88
317.157	9.88
317.949	10.88
318.74	7.88
319.531	9.88
320.322	10.88
321.113	7.88
321.904	10.88
322.695	9.88
323.486	7.88
324.277	10.88
325.068	7.88
325.858	7.88
326.649	7.88
327.439	9.88
328.23	7.88
329.02	9.88
329.81	6.88
330.6	8.88
331.391	9.88
332.181	8.88
332.971	6.88
333.76	9.88
334.55	10.88
335.34	7.88
336.13	8.88
336.919	6.88
337.709	8.88
338.498	6.88
339.287	4.88
340.077	5.88
340.866	5.88
341.655	8.88
342.444	5.88
343.233	8.88
344.022	6.88
344.811	9.88
345.6	8.88
346.388	7.88
347.177	6.88
347.965	7.88
348.754	8.88
349.542	7.88
350.33	8.88
351.119	6.88
351.907	7.88
352.695	9.88
353.483	5.88
354.271	9.88
355.059	7.88
355.846	5.88
356.634	4.88
357.422	6.88
358.209	5.88
358.997	7.88
359.784	7.88
360.571	5.88
361.359	6.88
362.146	5.88
362.933	7.88
363.72	5.88
364.507	5.88
365.294	6.88
366.081	5.88
366.867	7.88
367.654	5.88
368.44	5.88
369.227	7.88
370.013	5.88
370.8	7.88
371.586	7.88
372.372	4.88
373.158	8.88
373.944	7.88
374.73	6.88
375.516	6.88
376.302	7.88
377.088	4.88
377.873	7.88
378.659	5.88
379.445	4.88
380.23	7.88
381.015	7.88
381.801	7.88
382.586	7.88
383.371	4.88
384.156	8.88
384.941	5.88
385.726	6.88
386.511	5.88
387.296	6.88
388.08	6.88
388.865	7.88
389.649	8.88
390.434	6.88
391.218	7.88
392.003	9.88
392.787	10.88
393.571	9.88
394.355	8.88
395.139	7.88
395.923	8.88
396.707	6.88
397.491	10.88
398.274	8.88
399.058	10.88
399.842	9.88
400.625	9.88
401.408	9.88
402.192	9.88
402.975	10.88
403.758	7.88
404.541	9.88
405.324	11.88
406.107	8.88
406.89	8.88
407.673	7.88
408.456	11.88
409.238	6.88
410.021	11.88
410.803	9.88
411.586	8.88
412.368	13.88
413.151	9.88
413.933	14.88
414.715	12.88
415.497	15.88
416.279	12.88
417.061	12.88
417.843	11.88
418.624	12.88
419.406	16.88
420.188	13.88
420.969	13.88
421.751	13.88
422.532	15.88
423.313	17.88
424.095	11.88
424.876	15.88
425.657	14.88
426.438	16.88
427.219	17.88
428	16.88
428.78	18.88
429.561	17.88
430.342	20.88
431.122	19.88
431.903	21.88
432.683	18.88
433.464	21.88
434.244	21.88
435.024	25.88
435.804	22.88
436.584	24.88
437.364	29.88
438.144	27.88
438.924	32.88
439.704	30.88
440.483	32.88
441.263	33.88
442.042	38.88
442.822	38.88
443.601	38.88
444.38	43.88
445.16	48.88
445.939	49.88
446.718	53.88
447.497	58.88
448.276	64.88
449.054	68.88
449.833	75.88
450.612	82.88
451.391	93.88
452.169	98.88
452.948	110.88
453.726	118.88
454.504	129.88
455.282	145.88
456.061	156.88
456.839	178.88
457.617	202.88
458.395	220.88
459.172	248.88
459.95	274.88
460.728	305.88
461.506	340.88
462.283	379.88
463.061	425.88
463.838	473.88
464.615	544.88
465.393	590.88
466.17	660.88
466.947	747.88
467.724	831.88
468.501	931.88
469.278	1032.88
470.055	1135.88
470.831	1263.88
471.608	1406.88
472.385	1578.88
473.161	1747.88
473.938	1939.88
474.714	2143.88
475.49	2361.88
476.266	2604.88
477.043	2875.88
477.819	3184.88
478.595	3518.88
479.371	3917.88
480.146	4280.88
480.922	4722.88
481.698	5216.88
482.473	5706.88
483.249	6276.88
484.024	6883.88
484.8	7569.88
485.575	8258.88
486.35	9074.88
487.126	9858.88
487.901	10844.88
488.676	11827.88
489.451	12907.88
490.225	14037.88
491	15222.88
491.775	16553.88
492.55	17845.88
493.324	19229.88
494.099	20668.88
494.873	22064.88
495.647	23562.88
496.422	25022.88
497.196	26630.88
497.97	28159.88
498.744	29627.88
499.518	30966.88
500.292	32195.88
501.066	33301.88
501.839	34381.88
502.613	35259.88
503.387	35977.88
504.16	36352.88
504.934	36541.88
505.707	36583.88
506.48	36282.88
507.253	35853.88
508.027	35268.88
508.8	34626.88
509.573	33749.88
510.346	32778.88
511.118	31793.88
511.891	30752.88
512.664	29509.88
513.437	28324.88
514.209	27071.88
514.982	26036.88
515.754	24959.88
516.526	23848.88
517.298	22816.88
518.071	21809.88
518.843	20993.88
519.615	20086.88
520.387	19238.88
521.159	18589.88
521.93	17822.88
522.702	17144.88
523.474	16434.88
524.245	15784.88
525.017	15060.88
525.788	14347.88
526.56	13693.88
527.331	13037.88
528.102	12454.88
528.873	11819.88
529.644	11229.88
530.415	10736.88
531.186	10225.88
531.957	9665.88
532.728	9132.88
533.498	8625.88
534.269	8091.88
535.039	7711.88
535.81	7276.88
536.58	6854.88
537.351	6467.88
538.121	6089.88
538.891	5803.88
539.661	5475.88
540.431	5217.88
541.201	4913.88
541.971	4665.88
542.741	4416.88
543.51	4199.88
544.28	3998.88
545.05	3792.88
545.819	3600.88
546.588	3452.88
547.358	3251.88
548.127	3081.88
548.896	2918.88
549.665	2767.88
550.434	2625.88
551.203	2496.88
551.972	2354.88
552.741	2231.88
553.51	2113.88
554.278	1981.88
555.047	1859.88
555.815	1768.88
556.584	1672.88
557.352	1579.88
558.121	1497.88
558.889	1397.88
559.657	1321.88
560.425	1250.88
561.193	1174.88
561.961	1107.88
562.729	1064.88
563.496	989.88
564.264	943.88
565.032	905.88
565.799	841.88
566.567	802.88
567.334	758.88
568.101	711.88
568.869	676.88
569.636	635.88
570.403	599.88
571.17	568.88
571.937	532.88
572.704	505.88
573.471	476.88
574.237	459.88
575.004	414.88
575.771	392.88
576.537	372.88
577.303	350.88
578.07	332.88
578.836	315.88
579.602	295.88
580.368	278.88
581.134	267.88
581.9	255.88
582.666	238.88
583.432	227.88
584.198	211.88
584.964	203.88
585.729	200.88
586.495	185.88
587.26	171.88
588.025	166.88
588.791	155.88
589.556	148.88
590.321	141.88
591.086	129.88
591.851	127.88
592.616	121.88
593.381	118.88
594.146	107.88
594.911	105.88
595.675	101.88
596.44	91.88
597.204	90.88
597.969	89.88
598.733	81.88
599.497	86.88
600.261	78.88
601.025	72.88
601.79	66.88
602.553	63.88
603.317	61.88
604.081	60.88
604.845	56.88
605.609	59.88
606.372	55.88
607.136	53.88
607.899	49.88
608.662	50.88
609.426	46.88
610.189	44.88
610.952	42.88
611.715	41.88
612.478	37.88
613.241	39.88
614.004	33.88
614.767	36.88
615.529	32.88
616.292	31.88
617.055	29.88
617.817	29.88
618.579	27.88
619.342	26.88
620.104	28.88
620.866	28.88
621.628	26.88
622.39	25.88
623.152	25.88
623.914	24.88
624.676	22.88
625.438	22.88
626.199	20.88
626.961	18.88
627.722	15.88
628.484	18.88
629.245	17.88
630.006	19.88
630.768	21.88
631.529	18.88
632.29	18.88
633.051	17.88
633.812	15.88
634.573	17.88
635.333	14.88
636.094	13.88
636.855	13.88
637.615	11.88
638.376	13.88
639.136	13.88
639.896	13.88
640.657	10.88
641.417	11.88
642.177	11.88
642.937	10.88
643.697	9.88
644.457	9.88
645.216	11.88
645.976	10.88
646.736	8.88
647.495	9.88
648.255	9.88
649.014	9.88
649.774	8.88
650.533	6.88
651.292	7.88
652.051	6.88
652.81	10.88
653.569	7.88
654.328	9.88
655.087	7.88
655.846	8.88
656.604	6.88
657.363	6.88
658.121	7.88
658.88	5.88
659.638	5.88
660.397	6.88
661.155	8.88
661.913	7.88
662.671	6.88
663.429	6.88
664.187	7.88
664.945	5.88
665.703	6.88
666.46	4.88
667.218	5.88
667.976	3.88
668.733	5.88
669.49	7.88
670.248	4.88
671.005	5.88
671.762	5.88
672.519	5.88
673.276	5.88
674.033	5.88
674.79	4.88
675.547	7.88
676.304	7.88
677.06	6.88
677.817	7.88
678.574	8.88
679.33	3.88
680.086	6.88
680.843	6.88
681.599	4.88
682.355	4.88
683.111	4.88
683.867	6.88
684.623	5.88
685.379	2.88
686.135	4.88
686.89	3.88
687.646	5.88
688.402	3.88
689.157	3.88
689.912	4.88
690.668	5.88
691.423	5.88
692.178	3.88
692.933	4.88
693.688	4.88
694.443	3.88
695.198	2.88
695.953	5.88
696.708	2.88
697.462	2.88
698.217	4.88
698.972	2.88
699.726	3.88
700.48	5.88
701.235	2.88
701.989	3.88
702.743	3.88
703.497	6.88
704.251	4.88
705.005	2.88
705.759	6.88
706.513	4.88
707.266	5.88
708.02	4.88
708.774	4.88
709.527	2.88
710.28	1.88
711.034	4.88
711.787	5.88
712.54	7.88
713.293	3.88
714.046	4.88
714.799	4.88
715.552	5.88
716.305	4.88
717.058	3.88
717.81	4.88
718.563	5.88
719.315	5.88
720.068	3.88
720.82	3.88
721.573	5.88
722.325	4.88
723.077	6.88
723.829	4.88
724.581	4.88
725.333	5.88
726.085	3.88
726.836	4.88
727.588	4.88
728.34	4.88
729.091	3.88
729.843	3.88
730.594	3.88
731.346	3.88
732.097	7.88
732.848	6.88
733.599	5.88
734.35	5.88
735.101	4.88
735.852	7.88
736.603	7.88
737.354	7.88
738.104	5.88
738.855	5.88
739.605	5.88
740.356	3.88
741.106	5.88
741.856	6.88
742.607	5.88
743.357	7.88
744.107	5.88
744.857	5.88
745.607	5.88
746.357	7.88
747.106	5.88
747.856	2.88
748.606	8.88
749.355	4.88
750.105	7.88
750.854	7.88
751.603	6.88
752.353	7.88
753.102	5.88
753.851	10.88
754.6	6.88
755.349	9.88
756.098	7.88
756.847	7.88
757.595	9.88
758.344	9.88
759.093	8.88
759.841	8.88
760.589	7.88
761.338	5.88
762.086	7.88
762.834	7.88
763.582	8.88
764.331	7.88
765.079	9.88
765.826	9.88
766.574	8.88
767.322	8.88
768.07	9.88
768.817	10.88
769.565	10.88
770.312	9.88
771.06	6.88
771.807	9.88
772.554	9.88
773.302	10.88
774.049	9.88
774.796	9.88
775.543	10.88
776.29	9.88
777.036	9.88
777.783	13.88
778.53	11.88
779.276	13.88
780.023	11.88
780.769	12.88
781.516	8.88
782.262	10.88
783.008	10.88
783.754	10.88
784.5	10.88
785.246	11.88
785.992	12.88
786.738	11.88
787.484	10.88
788.23	12.88
788.975	9.88
789.721	9.88
790.466	8.88
791.212	11.88
791.957	10.88
792.702	10.88
793.447	13.88
794.193	12.88
794.938	10.88
795.683	8.88
796.427	7.88
797.172	7.88
797.917	9.88
798.662	12.88
799.406	10.88
800.151	9.88
800.895	9.88
801.64	7.88
802.384	6.88
803.128	8.88
803.872	7.88
804.616	7.88
805.36	6.88
806.104	6.88
806.848	6.88
807.592	9.88
808.336	2.88
809.079	10.88
809.823	6.88
810.566	5.88
811.31	5.88
812.053	5.88
812.796	6.88
813.539	7.88
814.283	6.88
815.026	6.88
815.769	3.88
816.511	7.88
817.254	6.88
817.997	4.88
818.74	4.88
819.482	3.88
820.225	4.88
820.967	4.88
821.71	5.88
822.452	4.88
823.194	4.88
823.936	3.88
824.678	5.88
825.42	5.88
826.162	4.88
826.904	4.88
827.646	4.88
828.388	4.88
829.129	4.88
829.871	4.88
830.612	3.88
831.354	3.88
832.095	4.88
832.836	3.88
833.577	2.88
834.319	4.88
835.06	1.88
835.801	3.88
836.542	3.88
837.282	3.88
838.023	1.88
838.764	1.88
839.504	4.88
840.245	4.88
840.985	1.88
841.726	3.88
842.466	2.88
843.206	4.88
843.946	0.88
844.687	5.88
845.427	1.88
846.166	2.88
846.906	1.88
847.646	2.88
848.386	1.88
849.125	0.88
849.865	3.88
850.605	3.88
851.344	-0.12
852.083	3.88
852.823	2.88
853.562	3.88
854.301	3.88
855.04	1.88
855.779	3.88
856.518	1.88
857.257	1.88
857.995	3.88
858.734	0.88
859.473	1.88
860.211	1.88
860.95	1.88
861.688	0.88
862.426	0.88
863.165	1.88
863.903	1.88
864.641	2.88
865.379	0.88
866.117	0.88
866.855	1.88
867.593	0.88
868.33	1.88
869.068	1.88
869.806	2.88
870.543	0.88
871.28	1.88
872.018	0.88
872.755	0.88
873.492	1.88
874.229	-0.12
874.967	0.88
875.703	-1.12
876.44	1.88
877.177	1.88
877.914	1.88
878.651	2.88
879.387	0.88
880.124	0.88
880.86	-1.12
881.597	-1.12
882.333	1.88
883.069	-0.12
883.806	-0.12
884.542	0.88
885.278	1.88
886.014	0.88
886.749	-2.12
887.485	0.88
888.221	-2.12
888.957	0.88
889.692	-0.12
890.428	1.88
891.163	-0.12
891.899	-2.12
892.634	1.88
893.369	-0.12
894.104	-0.12
894.839	0.88
895.574	-1.12
896.309	1.88
897.044	-0.12
897.779	-0.12
898.514	-0.12
899.248	1.88
899.983	1.88
900.717	1.88
901.452	-0.12
902.186	-0.12
902.92	-0.12
903.654	0.88
904.389	0.88
905.123	-0.12
905.857	-1.12
906.59	-0.12
907.324	-1.12
908.058	-0.12
908.792	1.88
909.525	0.88
910.259	0.88
910.992	-2.12
911.726	-1.12
912.459	0.88
913.192	0.88
913.925	-0.12
914.658	-0.12
915.391	-0.12
916.124	-1.12
916.857	2.88
917.59	-1.12
918.323	0.88
919.055	1.88
919.788	-2.12
920.521	0.88
921.253	0.88
921.985	-0.12
922.718	-0.12
923.45	-0.12
924.182	-0.12
924.914	-2.12
925.646	0.88
926.378	-1.12
927.11	-1.12
927.841	-0.12
928.573	-2.12
929.305	-1.12
930.036	-1.12
930.768	-1.12
931.499	-0.12
932.23	-0.12
932.962	2.88
933.693	-3.12
934.424	0.88
935.155	1.88
935.886	1.88
936.617	-0.12
937.348	-1.12
938.078	0.88
938.809	0.88
939.54	-0.12
940.27	0.88
941.001	-0.12
941.731	0.88
942.461	-1.12
943.191	0.88
943.922	1.88
944.652	-0.12
945.382	1.88
946.112	-0.12
946.841	2.88
947.571	-0.12
948.301	-0.12
949.031	1.88
949.76	0.88
950.49	0.88
951.219	-2.12
951.948	0.88
952.678	-2.12
953.407	0.88
954.136	0.88
954.865	-1.12
955.594	0.88
956.323	0.88
957.052	-0.12
957.78	-0.12
958.509	0.88
959.238	0.88
959.966	-0.12
960.695	-2.12
961.423	-1.12
962.151	-0.12
962.88	-0.12
963.608	2.88
964.336	-1.12
965.064	-3.12
965.792	0.88
966.52	-0.12
967.247	-1.12
967.975	-0.12
968.703	-3.12
969.43	0.88
970.158	-2.12
970.885	-0.12
971.613	-2.12
972.34	-1.12
973.067	-2.12
973.794	-0.12
974.521	-0.12
975.248	-0.12
975.975	-2.12
976.702	-0.12
977.429	0.88
978.156	-0.12
978.882	-3.12
979.609	1.88
980.335	-0.12
981.062	-1.12
981.788	-0.12
982.514	-0.12
983.24	1.88
983.967	-2.12
984.693	-1.12
985.419	-0.12
986.144	-2.12
986.87	1.88
987.596	-0.12
988.322	0.88
989.047	-2.12
989.773	-2.12
990.498	-3.12
991.224	0.88
991.949	-0.12
992.674	-1.12
993.399	-1.12
994.124	-0.12
994.849	-0.12
995.574	-0.12
996.299	-1.12
997.024	-0.12
997.749	-0.12
998.473	0.88
999.198	-1.12
999.922	-1.12
1000.647	-1.12
1001.371	3.88
1002.095	-1.12
1002.82	-3.12
1003.544	0.88
1004.268	3.88
1004.992	1.88
1005.716	1.88
1006.439	2.88
1007.163	4.88
1007.887	0.88
1008.611	-2.12
1009.334	1.88
1010.058	0.88
1010.781	-0.12
1011.504	-0.12
1012.228	1.88
1012.951	1.88
1013.674	-0.12
1014.397	-1.12
1015.12	-1.12
