节点500_425_QEPB04081__522__15-56-59-563.txt的数据

Date: Wed Nov 12 15:56:59 CST 2025
User: PC
Spectrometer: QEPB0408
触发模式: 0
积分时间 (秒): 1.000000E-2
Scans to average: 1
启用暗噪声校正: true
启用非线性校正: false
滑动平均宽度: 0
X轴模式: Wavelengths
Number of Pixels in Spectrum: 1044
>>>>>Begin Spectral Data<<<<<
220.843	2.12
221.644	2.12
222.444	1.12
223.244	2.12
224.045	1.12
224.845	2.12
225.645	3.12
226.445	6.12
227.245	2.12
228.045	4.12
228.845	2.12
229.645	2.12
230.444	2.12
231.244	3.12
232.043	4.12
232.843	5.12
233.642	4.12
234.442	6.12
235.241	2.12
236.04	7.12
236.839	6.12
237.638	6.12
238.437	4.12
239.236	6.12
240.035	4.12
240.833	7.12
241.632	8.12
242.43	6.12
243.229	7.12
244.027	6.12
244.826	5.12
245.624	8.12
246.422	5.12
247.22	10.12
248.018	10.12
248.816	9.12
249.614	8.12
250.412	9.12
251.21	10.12
252.007	9.12
252.805	11.12
253.602	9.12
254.4	10.12
255.197	11.12
255.994	11.12
256.791	10.12
257.589	13.12
258.386	10.12
259.183	10.12
259.979	14.12
260.776	10.12
261.573	13.12
262.37	15.12
263.166	12.12
263.963	14.12
264.759	15.12
265.556	15.12
266.352	18.12
267.148	16.12
267.944	18.12
268.74	18.12
269.536	16.12
270.332	17.12
271.128	19.12
271.924	19.12
272.719	22.12
273.515	17.12
274.311	18.12
275.106	21.12
275.901	21.12
276.697	22.12
277.492	23.12
278.287	21.12
279.082	21.12
279.877	24.12
280.672	19.12
281.467	24.12
282.262	22.12
283.056	22.12
283.851	24.12
284.646	20.12
285.44	24.12
286.234	22.12
287.029	24.12
287.823	22.12
288.617	24.12
289.411	24.12
290.205	20.12
290.999	22.12
291.793	20.12
292.587	20.12
293.381	21.12
294.174	22.12
294.968	18.12
295.761	17.12
296.555	19.12
297.348	20.12
298.141	21.12
298.935	22.12
299.728	18.12
300.521	19.12
301.314	17.12
302.107	19.12
302.899	17.12
303.692	15.12
304.485	14.12
305.277	16.12
306.07	14.12
306.862	15.12
307.655	14.12
308.447	18.12
309.239	17.12
310.031	15.12
310.823	14.12
311.615	13.12
312.407	11.12
313.199	12.12
313.991	11.12
314.783	14.12
315.574	15.12
316.366	10.12
317.157	12.12
317.949	10.12
318.74	13.12
319.531	12.12
320.322	7.12
321.113	9.12
321.904	10.12
322.695	6.12
323.486	8.12
324.277	8.12
325.068	8.12
325.858	9.12
326.649	10.12
327.439	11.12
328.23	10.12
329.02	9.12
329.81	9.12
330.6	8.12
331.391	8.12
332.181	6.12
332.971	8.12
333.76	11.12
334.55	10.12
335.34	7.12
336.13	9.12
336.919	8.12
337.709	7.12
338.498	9.12
339.287	9.12
340.077	7.12
340.866	6.12
341.655	9.12
342.444	9.12
343.233	7.12
344.022	8.12
344.811	7.12
345.6	6.12
346.388	9.12
347.177	7.12
347.965	9.12
348.754	6.12
349.542	7.12
350.33	8.12
351.119	7.12
351.907	6.12
352.695	7.12
353.483	8.12
354.271	5.12
355.059	7.12
355.846	6.12
356.634	5.12
357.422	8.12
358.209	7.12
358.997	8.12
359.784	6.12
360.571	7.12
361.359	6.12
362.146	7.12
362.933	6.12
363.72	5.12
364.507	8.12
365.294	7.12
366.081	7.12
366.867	10.12
367.654	6.12
368.44	4.12
369.227	5.12
370.013	7.12
370.8	8.12
371.586	7.12
372.372	7.12
373.158	7.12
373.944	7.12
374.73	6.12
375.516	5.12
376.302	7.12
377.088	5.12
377.873	7.12
378.659	7.12
379.445	6.12
380.23	9.12
381.015	6.12
381.801	5.12
382.586	5.12
383.371	7.12
384.156	8.12
384.941	6.12
385.726	8.12
386.511	7.12
387.296	7.12
388.08	9.12
388.865	5.12
389.649	10.12
390.434	8.12
391.218	8.12
392.003	7.12
392.787	6.12
393.571	7.12
394.355	9.12
395.139	9.12
395.923	8.12
396.707	9.12
397.491	7.12
398.274	9.12
399.058	9.12
399.842	7.12
400.625	10.12
401.408	9.12
402.192	10.12
402.975	9.12
403.758	9.12
404.541	10.12
405.324	10.12
406.107	10.12
406.89	10.12
407.673	10.12
408.456	11.12
409.238	13.12
410.021	13.12
410.803	10.12
411.586	9.12
412.368	8.12
413.151	13.12
413.933	11.12
414.715	10.12
415.497	10.12
416.279	11.12
417.061	14.12
417.843	14.12
418.624	11.12
419.406	12.12
420.188	13.12
420.969	12.12
421.751	13.12
422.532	14.12
423.313	17.12
424.095	12.12
424.876	16.12
425.657	14.12
426.438	15.12
427.219	18.12
428	17.12
428.78	18.12
429.561	17.12
430.342	20.12
431.122	22.12
431.903	19.12
432.683	21.12
433.464	23.12
434.244	23.12
435.024	23.12
435.804	24.12
436.584	25.12
437.364	28.12
438.144	28.12
438.924	30.12
439.704	30.12
440.483	38.12
441.263	31.12
442.042	43.12
442.822	42.12
443.601	46.12
444.38	49.12
445.16	53.12
445.939	56.12
446.718	59.12
447.497	64.12
448.276	74.12
449.054	73.12
449.833	83.12
450.612	88.12
451.391	101.12
452.169	110.12
452.948	119.12
453.726	136.12
454.504	147.12
455.282	165.12
456.061	179.12
456.839	205.12
457.617	226.12
458.395	251.12
459.172	283.12
459.95	304.12
460.728	341.12
461.506	384.12
462.283	420.12
463.061	474.12
463.838	526.12
464.615	594.12
465.393	657.12
466.17	739.12
466.947	809.12
467.724	896.12
468.501	989.12
469.278	1091.12
470.055	1193.12
470.831	1351.12
471.608	1476.12
472.385	1636.12
473.161	1784.12
473.938	1959.12
474.714	2181.12
475.49	2378.12
476.266	2597.12
477.043	2852.12
477.819	3120.12
478.595	3412.12
479.371	3749.12
480.146	4066.12
480.922	4476.12
481.698	4850.12
482.473	5298.12
483.249	5752.12
484.024	6265.12
484.8	6827.12
485.575	7429.12
486.35	8022.12
487.126	8696.12
487.901	9457.12
488.676	10307.12
489.451	11131.12
490.225	12030.12
491	13021.12
491.775	14062.12
492.55	15108.12
493.324	16217.12
494.099	17369.12
494.873	18458.12
495.647	19770.12
496.422	20971.12
497.196	22279.12
497.97	23610.12
498.744	24827.12
499.518	26155.12
500.292	27321.12
501.066	28408.12
501.839	29551.12
502.613	30515.12
503.387	31280.12
504.16	31943.12
504.934	32514.12
505.707	32662.12
506.48	32834.12
507.253	32822.12
508.027	32741.12
508.8	32435.12
509.573	31998.12
510.346	31404.12
511.118	30653.12
511.891	29921.12
512.664	29052.12
513.437	28015.12
514.209	27028.12
514.982	26208.12
515.754	25267.12
516.526	24145.12
517.298	23229.12
518.071	22268.12
518.843	21372.12
519.615	20526.12
520.387	19687.12
521.159	18940.12
521.93	18277.12
522.702	17564.12
523.474	16882.12
524.245	16207.12
525.017	15456.12
525.788	14781.12
526.56	14149.12
527.331	13486.12
528.102	12907.12
528.873	12381.12
529.644	11776.12
530.415	11282.12
531.186	10791.12
531.957	10238.12
532.728	9721.12
533.498	9198.12
534.269	8659.12
535.039	8247.12
535.81	7797.12
536.58	7398.12
537.351	6955.12
538.121	6590.12
538.891	6218.12
539.661	5944.12
540.431	5624.12
541.201	5321.12
541.971	5050.12
542.741	4810.12
543.51	4520.12
544.28	4321.12
545.05	4113.12
545.819	3911.12
546.588	3712.12
547.358	3514.12
548.127	3336.12
548.896	3181.12
549.665	3001.12
550.434	2860.12
551.203	2732.12
551.972	2572.12
552.741	2428.12
553.51	2304.12
554.278	2190.12
555.047	2069.12
555.815	1931.12
556.584	1847.12
557.352	1731.12
558.121	1647.12
558.889	1543.12
559.657	1474.12
560.425	1389.12
561.193	1311.12
561.961	1253.12
562.729	1183.12
563.496	1112.12
564.264	1055.12
565.032	980.12
565.799	936.12
566.567	896.12
567.334	836.12
568.101	803.12
568.869	739.12
569.636	710.12
570.403	678.12
571.17	619.12
571.937	593.12
572.704	551.12
573.471	525.12
574.237	492.12
575.004	471.12
575.771	448.12
576.537	408.12
577.303	392.12
578.07	370.12
578.836	347.12
579.602	327.12
580.368	312.12
581.134	294.12
581.9	288.12
582.666	268.12
583.432	253.12
584.198	243.12
584.964	234.12
585.729	213.12
586.495	210.12
587.26	190.12
588.025	185.12
588.791	172.12
589.556	166.12
590.321	157.12
591.086	147.12
591.851	138.12
592.616	138.12
593.381	128.12
594.146	122.12
594.911	116.12
595.675	110.12
596.44	106.12
597.204	103.12
597.969	91.12
598.733	94.12
599.497	86.12
600.261	82.12
601.025	81.12
601.79	76.12
602.553	76.12
603.317	70.12
604.081	70.12
604.845	63.12
605.609	58.12
606.372	57.12
607.136	58.12
607.899	54.12
608.662	54.12
609.426	45.12
610.189	49.12
610.952	46.12
611.715	45.12
612.478	46.12
613.241	44.12
614.004	39.12
614.767	37.12
615.529	36.12
616.292	37.12
617.055	36.12
617.817	34.12
618.579	31.12
619.342	33.12
620.104	32.12
620.866	30.12
621.628	28.12
622.39	31.12
623.152	29.12
623.914	27.12
624.676	24.12
625.438	24.12
626.199	22.12
626.961	24.12
627.722	20.12
628.484	20.12
629.245	20.12
630.006	17.12
630.768	21.12
631.529	18.12
632.29	18.12
633.051	16.12
633.812	17.12
634.573	17.12
635.333	15.12
636.094	17.12
636.855	14.12
637.615	13.12
638.376	17.12
639.136	13.12
639.896	9.12
640.657	13.12
641.417	16.12
642.177	11.12
642.937	11.12
643.697	12.12
644.457	10.12
645.216	12.12
645.976	11.12
646.736	11.12
647.495	11.12
648.255	10.12
649.014	11.12
649.774	13.12
650.533	9.12
651.292	10.12
652.051	8.12
652.81	11.12
653.569	5.12
654.328	10.12
655.087	7.12
655.846	9.12
656.604	8.12
657.363	10.12
658.121	8.12
658.88	10.12
659.638	9.12
660.397	10.12
661.155	6.12
661.913	8.12
662.671	7.12
663.429	8.12
664.187	7.12
664.945	7.12
665.703	8.12
666.46	6.12
667.218	6.12
667.976	7.12
668.733	5.12
669.49	5.12
670.248	7.12
671.005	3.12
671.762	4.12
672.519	8.12
673.276	8.12
674.033	5.12
674.79	8.12
675.547	4.12
676.304	6.12
677.06	6.12
677.817	6.12
678.574	5.12
679.33	5.12
680.086	7.12
680.843	5.12
681.599	7.12
682.355	6.12
683.111	6.12
683.867	4.12
684.623	6.12
685.379	6.12
686.135	7.12
686.89	5.12
687.646	5.12
688.402	5.12
689.157	5.12
689.912	7.12
690.668	6.12
691.423	6.12
692.178	5.12
692.933	6.12
693.688	2.12
694.443	9.12
695.198	3.12
695.953	3.12
696.708	6.12
697.462	5.12
698.217	2.12
698.972	5.12
699.726	7.12
700.48	4.12
701.235	5.12
701.989	4.12
702.743	4.12
703.497	4.12
704.251	5.12
705.005	7.12
705.759	4.12
706.513	4.12
707.266	3.12
708.02	4.12
708.774	7.12
709.527	3.12
710.28	5.12
711.034	3.12
711.787	5.12
712.54	3.12
713.293	3.12
714.046	7.12
714.799	4.12
715.552	4.12
716.305	6.12
717.058	2.12
717.81	4.12
718.563	4.12
719.315	9.12
720.068	5.12
720.82	5.12
721.573	6.12
722.325	4.12
723.077	3.12
723.829	5.12
724.581	5.12
725.333	7.12
726.085	5.12
726.836	5.12
727.588	4.12
728.34	6.12
729.091	5.12
729.843	5.12
730.594	5.12
731.346	6.12
732.097	4.12
732.848	8.12
733.599	6.12
734.35	7.12
735.101	5.12
735.852	6.12
736.603	5.12
737.354	7.12
738.104	7.12
738.855	3.12
739.605	6.12
740.356	6.12
741.106	6.12
741.856	6.12
742.607	8.12
743.357	7.12
744.107	5.12
744.857	8.12
745.607	3.12
746.357	5.12
747.106	7.12
747.856	5.12
748.606	5.12
749.355	5.12
750.105	6.12
750.854	5.12
751.603	8.12
752.353	7.12
753.102	6.12
753.851	6.12
754.6	6.12
755.349	6.12
756.098	8.12
756.847	6.12
757.595	8.12
758.344	6.12
759.093	9.12
759.841	9.12
760.589	7.12
761.338	9.12
762.086	9.12
762.834	11.12
763.582	10.12
764.331	7.12
765.079	8.12
765.826	7.12
766.574	8.12
767.322	7.12
768.07	9.12
768.817	9.12
769.565	8.12
770.312	8.12
771.06	8.12
771.807	9.12
772.554	6.12
773.302	9.12
774.049	9.12
774.796	7.12
775.543	8.12
776.29	8.12
777.036	11.12
777.783	14.12
778.53	9.12
779.276	12.12
780.023	8.12
780.769	9.12
781.516	11.12
782.262	11.12
783.008	11.12
783.754	11.12
784.5	10.12
785.246	10.12
785.992	11.12
786.738	9.12
787.484	11.12
788.23	10.12
788.975	9.12
789.721	11.12
790.466	8.12
791.212	8.12
791.957	9.12
792.702	9.12
793.447	8.12
794.193	10.12
794.938	11.12
795.683	10.12
796.427	11.12
797.172	11.12
797.917	6.12
798.662	10.12
799.406	11.12
800.151	10.12
800.895	8.12
801.64	8.12
802.384	8.12
803.128	6.12
803.872	9.12
804.616	7.12
805.36	9.12
806.104	8.12
806.848	8.12
807.592	8.12
808.336	7.12
809.079	6.12
809.823	6.12
810.566	8.12
811.31	6.12
812.053	7.12
812.796	5.12
813.539	8.12
814.283	6.12
815.026	3.12
815.769	4.12
816.511	7.12
817.254	7.12
817.997	4.12
818.74	7.12
819.482	6.12
820.225	4.12
820.967	5.12
821.71	6.12
822.452	4.12
823.194	4.12
823.936	6.12
824.678	5.12
825.42	5.12
826.162	5.12
826.904	6.12
827.646	5.12
828.388	7.12
829.129	3.12
829.871	4.12
830.612	5.12
831.354	5.12
832.095	3.12
832.836	5.12
833.577	4.12
834.319	3.12
835.06	4.12
835.801	7.12
836.542	4.12
837.282	4.12
838.023	1.12
838.764	3.12
839.504	5.12
840.245	3.12
840.985	4.12
841.726	4.12
842.466	3.12
843.206	3.12
843.946	5.12
844.687	2.12
845.427	2.12
846.166	4.12
846.906	3.12
847.646	2.12
848.386	4.12
849.125	5.12
849.865	4.12
850.605	2.12
851.344	3.12
852.083	3.12
852.823	2.12
853.562	4.12
854.301	1.12
855.04	3.12
855.779	4.12
856.518	2.12
857.257	4.12
857.995	1.12
858.734	2.12
859.473	3.12
860.211	1.12
860.95	2.12
861.688	1.12
862.426	4.12
863.165	0.12
863.903	2.12
864.641	4.12
865.379	-0.88
866.117	2.12
866.855	1.12
867.593	2.12
868.33	2.12
869.068	2.12
869.806	0.12
870.543	2.12
871.28	3.12
872.018	2.12
872.755	1.12
873.492	2.12
874.229	2.12
874.967	3.12
875.703	3.12
876.44	3.12
877.177	2.12
877.914	2.12
878.651	3.12
879.387	2.12
880.124	1.12
880.86	2.12
881.597	0.12
882.333	1.12
883.069	0.12
883.806	1.12
884.542	2.12
885.278	0.12
886.014	1.12
886.749	1.12
887.485	0.12
888.221	1.12
888.957	2.12
889.692	0.12
890.428	2.12
891.163	-0.88
891.899	0.12
892.634	1.12
893.369	0.12
894.104	2.12
894.839	2.12
895.574	-0.88
896.309	2.12
897.044	0.12
897.779	0.12
898.514	-2.88
899.248	0.12
899.983	0.12
900.717	1.12
901.452	2.12
902.186	0.12
902.92	2.12
903.654	-0.88
904.389	-0.88
905.123	2.12
905.857	1.12
906.59	1.12
907.324	1.12
908.058	-0.88
908.792	2.12
909.525	0.12
910.259	2.12
910.992	0.12
911.726	0.12
912.459	-0.88
913.192	-0.88
913.925	0.12
914.658	-0.88
915.391	-0.88
916.124	-0.88
916.857	1.12
917.59	-0.88
918.323	0.12
919.055	-0.88
919.788	-0.88
920.521	1.12
921.253	1.12
921.985	-0.88
922.718	2.12
923.45	0.12
924.182	0.12
924.914	0.12
925.646	1.12
926.378	1.12
927.11	2.12
927.841	1.12
928.573	0.12
929.305	-0.88
930.036	2.12
930.768	3.12
931.499	2.12
932.23	-0.88
932.962	-0.88
933.693	0.12
934.424	0.12
935.155	1.12
935.886	-0.88
936.617	0.12
937.348	1.12
938.078	-1.88
938.809	1.12
939.54	1.12
940.27	2.12
941.001	0.12
941.731	1.12
942.461	1.12
943.191	1.12
943.922	-1.88
944.652	1.12
945.382	-0.88
946.112	0.12
946.841	0.12
947.571	2.12
948.301	-0.88
949.031	2.12
949.76	-1.88
950.49	-1.88
951.219	-0.88
951.948	1.12
952.678	0.12
953.407	0.12
954.136	0.12
954.865	1.12
955.594	1.12
956.323	0.12
957.052	1.12
957.78	0.12
958.509	1.12
959.238	0.12
959.966	0.12
960.695	1.12
961.423	0.12
962.151	2.12
962.88	1.12
963.608	0.12
964.336	0.12
965.064	-0.88
965.792	1.12
966.52	1.12
967.247	-0.88
967.975	0.12
968.703	0.12
969.43	2.12
970.158	-0.88
970.885	1.12
971.613	1.12
972.34	2.12
973.067	-1.88
973.794	0.12
974.521	-0.88
975.248	1.12
975.975	1.12
976.702	2.12
977.429	-1.88
978.156	0.12
978.882	-0.88
979.609	0.12
980.335	1.12
981.062	-0.88
981.788	-0.88
982.514	0.12
983.24	0.12
983.967	-0.88
984.693	-1.88
985.419	0.12
986.144	-0.88
986.87	0.12
987.596	-2.88
988.322	0.12
989.047	-0.88
989.773	0.12
990.498	-0.88
991.224	0.12
991.949	0.12
992.674	0.12
993.399	0.12
994.124	0.12
994.849	-0.88
995.574	0.12
996.299	0.12
997.024	-0.88
997.749	1.12
998.473	2.12
999.198	0.12
999.922	-1.88
1000.647	2.12
1001.371	2.12
1002.095	-0.88
1002.82	-1.88
1003.544	-0.88
1004.268	0.12
1004.992	1.12
1005.716	2.12
1006.439	0.12
1007.163	2.12
1007.887	4.12
1008.611	0.12
1009.334	0.12
1010.058	-0.88
1010.781	0.12
1011.504	-0.88
1012.228	-1.88
1012.951	1.12
1013.674	-0.88
1014.397	0.12
1015.12	1.12
