节点500_425_QEPB04081__50__15-49-08-410.txt的数据

Date: Wed Nov 12 15:49:08 CST 2025
User: PC
Spectrometer: QEPB0408
触发模式: 0
积分时间 (秒): 1.000000E-2
Scans to average: 1
启用暗噪声校正: true
启用非线性校正: false
滑动平均宽度: 0
X轴模式: Wavelengths
Number of Pixels in Spectrum: 1044
>>>>>Begin Spectral Data<<<<<
220.843	3.38
221.644	3.38
222.444	3.38
223.244	3.38
224.045	3.38
224.845	2.38
225.645	4.38
226.445	5.38
227.245	4.38
228.045	5.38
228.845	4.38
229.645	3.38
230.444	4.38
231.244	5.38
232.043	4.38
232.843	7.38
233.642	9.38
234.442	7.38
235.241	6.38
236.04	6.38
236.839	7.38
237.638	6.38
238.437	6.38
239.236	8.38
240.035	8.38
240.833	8.38
241.632	6.38
242.43	8.38
243.229	8.38
244.027	8.38
244.826	9.38
245.624	9.38
246.422	12.38
247.22	9.38
248.018	12.38
248.816	8.38
249.614	10.38
250.412	11.38
251.21	9.38
252.007	11.38
252.805	12.38
253.602	13.38
254.4	13.38
255.197	10.38
255.994	14.38
256.791	12.38
257.589	14.38
258.386	14.38
259.183	15.38
259.979	17.38
260.776	14.38
261.573	19.38
262.37	17.38
263.166	19.38
263.963	17.38
264.759	18.38
265.556	20.38
266.352	20.38
267.148	18.38
267.944	21.38
268.74	23.38
269.536	24.38
270.332	19.38
271.128	24.38
271.924	24.38
272.719	25.38
273.515	24.38
274.311	26.38
275.106	26.38
275.901	28.38
276.697	26.38
277.492	26.38
278.287	26.38
279.082	27.38
279.877	26.38
280.672	30.38
281.467	25.38
282.262	24.38
283.056	25.38
283.851	28.38
284.646	30.38
285.44	24.38
286.234	26.38
287.029	26.38
287.823	26.38
288.617	25.38
289.411	22.38
290.205	22.38
290.999	27.38
291.793	24.38
292.587	26.38
293.381	24.38
294.174	19.38
294.968	22.38
295.761	20.38
296.555	19.38
297.348	18.38
298.141	22.38
298.935	20.38
299.728	22.38
300.521	19.38
301.314	20.38
302.107	14.38
302.899	17.38
303.692	15.38
304.485	14.38
305.277	18.38
306.07	16.38
306.862	16.38
307.655	17.38
308.447	14.38
309.239	15.38
310.031	13.38
310.823	15.38
311.615	14.38
312.407	12.38
313.199	11.38
313.991	10.38
314.783	12.38
315.574	11.38
316.366	15.38
317.157	12.38
317.949	10.38
318.74	10.38
319.531	10.38
320.322	11.38
321.113	10.38
321.904	10.38
322.695	10.38
323.486	8.38
324.277	10.38
325.068	10.38
325.858	8.38
326.649	9.38
327.439	10.38
328.23	8.38
329.02	5.38
329.81	12.38
330.6	8.38
331.391	8.38
332.181	7.38
332.971	11.38
333.76	10.38
334.55	8.38
335.34	11.38
336.13	8.38
336.919	9.38
337.709	8.38
338.498	6.38
339.287	11.38
340.077	9.38
340.866	8.38
341.655	8.38
342.444	6.38
343.233	10.38
344.022	6.38
344.811	8.38
345.6	9.38
346.388	8.38
347.177	8.38
347.965	8.38
348.754	8.38
349.542	7.38
350.33	6.38
351.119	9.38
351.907	6.38
352.695	6.38
353.483	8.38
354.271	8.38
355.059	7.38
355.846	7.38
356.634	7.38
357.422	9.38
358.209	8.38
358.997	8.38
359.784	9.38
360.571	8.38
361.359	9.38
362.146	8.38
362.933	9.38
363.72	9.38
364.507	5.38
365.294	6.38
366.081	7.38
366.867	6.38
367.654	8.38
368.44	7.38
369.227	6.38
370.013	7.38
370.8	6.38
371.586	7.38
372.372	5.38
373.158	9.38
373.944	7.38
374.73	8.38
375.516	6.38
376.302	6.38
377.088	8.38
377.873	6.38
378.659	7.38
379.445	6.38
380.23	7.38
381.015	7.38
381.801	6.38
382.586	8.38
383.371	7.38
384.156	6.38
384.941	6.38
385.726	8.38
386.511	8.38
387.296	9.38
388.08	9.38
388.865	9.38
389.649	8.38
390.434	7.38
391.218	8.38
392.003	9.38
392.787	8.38
393.571	8.38
394.355	8.38
395.139	8.38
395.923	8.38
396.707	11.38
397.491	11.38
398.274	10.38
399.058	11.38
399.842	9.38
400.625	9.38
401.408	11.38
402.192	9.38
402.975	9.38
403.758	10.38
404.541	11.38
405.324	11.38
406.107	13.38
406.89	11.38
407.673	10.38
408.456	10.38
409.238	11.38
410.021	11.38
410.803	11.38
411.586	14.38
412.368	15.38
413.151	13.38
413.933	14.38
414.715	12.38
415.497	14.38
416.279	14.38
417.061	13.38
417.843	12.38
418.624	14.38
419.406	14.38
420.188	15.38
420.969	16.38
421.751	14.38
422.532	15.38
423.313	15.38
424.095	18.38
424.876	17.38
425.657	18.38
426.438	19.38
427.219	19.38
428	18.38
428.78	19.38
429.561	20.38
430.342	21.38
431.122	18.38
431.903	19.38
432.683	21.38
433.464	17.38
434.244	24.38
435.024	25.38
435.804	23.38
436.584	27.38
437.364	28.38
438.144	30.38
438.924	32.38
439.704	33.38
440.483	34.38
441.263	36.38
442.042	34.38
442.822	39.38
443.601	42.38
444.38	46.38
445.16	48.38
445.939	50.38
446.718	59.38
447.497	57.38
448.276	63.38
449.054	68.38
449.833	76.38
450.612	78.38
451.391	88.38
452.169	98.38
452.948	104.38
453.726	113.38
454.504	124.38
455.282	135.38
456.061	158.38
456.839	172.38
457.617	193.38
458.395	210.38
459.172	237.38
459.95	264.38
460.728	302.38
461.506	323.38
462.283	371.38
463.061	417.38
463.838	455.38
464.615	518.38
465.393	573.38
466.17	644.38
466.947	727.38
467.724	805.38
468.501	903.38
469.278	1011.38
470.055	1123.38
470.831	1241.38
471.608	1391.38
472.385	1554.38
473.161	1718.38
473.938	1928.38
474.714	2130.38
475.49	2355.38
476.266	2596.38
477.043	2888.38
477.819	3209.38
478.595	3560.38
479.371	3917.38
480.146	4346.38
480.922	4777.38
481.698	5272.38
482.473	5820.38
483.249	6411.38
484.024	7060.38
484.8	7781.38
485.575	8557.38
486.35	9368.38
487.126	10286.38
487.901	11234.38
488.676	12330.38
489.451	13455.38
490.225	14687.38
491	15994.38
491.775	17370.38
492.55	18794.38
493.324	20292.38
494.099	21824.38
494.873	23240.38
495.647	24872.38
496.422	26383.38
497.196	27981.38
497.97	29704.38
498.744	31182.38
499.518	32606.38
500.292	33824.38
501.066	34979.38
501.839	36016.38
502.613	36766.38
503.387	37280.38
504.16	37651.38
504.934	37671.38
505.707	37468.38
506.48	37103.38
507.253	36550.38
508.027	35970.38
508.8	35087.38
509.573	34054.38
510.346	33067.38
511.118	31869.38
511.891	30692.38
512.664	29385.38
513.437	28218.38
514.209	26858.38
514.982	25829.38
515.754	24727.38
516.526	23600.38
517.298	22554.38
518.071	21589.38
518.843	20711.38
519.615	19879.38
520.387	19058.38
521.159	18371.38
521.93	17654.38
522.702	16946.38
523.474	16263.38
524.245	15608.38
525.017	14866.38
525.788	14198.38
526.56	13497.38
527.331	12845.38
528.102	12225.38
528.873	11605.38
529.644	11014.38
530.415	10476.38
531.186	9970.38
531.957	9404.38
532.728	8913.38
533.498	8358.38
534.269	7896.38
535.039	7489.38
535.81	7056.38
536.58	6652.38
537.351	6279.38
538.121	5946.38
538.891	5623.38
539.661	5352.38
540.431	5070.38
541.201	4783.38
541.971	4541.38
542.741	4279.38
543.51	4088.38
544.28	3850.38
545.05	3674.38
545.819	3498.38
546.588	3351.38
547.358	3156.38
548.127	2982.38
548.896	2837.38
549.665	2698.38
550.434	2550.38
551.203	2416.38
551.972	2290.38
552.741	2159.38
553.51	2037.38
554.278	1912.38
555.047	1793.38
555.815	1716.38
556.584	1612.38
557.352	1508.38
558.121	1445.38
558.889	1359.38
559.657	1296.38
560.425	1211.38
561.193	1133.38
561.961	1072.38
562.729	1021.38
563.496	968.38
564.264	916.38
565.032	861.38
565.799	816.38
566.567	772.38
567.334	729.38
568.101	697.38
568.869	655.38
569.636	610.38
570.403	576.38
571.17	545.38
571.937	523.38
572.704	494.38
573.471	462.38
574.237	434.38
575.004	406.38
575.771	380.38
576.537	363.38
577.303	341.38
578.07	325.38
578.836	302.38
579.602	281.38
580.368	276.38
581.134	255.38
581.9	242.38
582.666	236.38
583.432	220.38
584.198	208.38
584.964	198.38
585.729	189.38
586.495	178.38
587.26	171.38
588.025	159.38
588.791	156.38
589.556	141.38
590.321	139.38
591.086	129.38
591.851	123.38
592.616	119.38
593.381	116.38
594.146	105.38
594.911	101.38
595.675	101.38
596.44	93.38
597.204	88.38
597.969	83.38
598.733	82.38
599.497	80.38
600.261	76.38
601.025	72.38
601.79	69.38
602.553	65.38
603.317	66.38
604.081	60.38
604.845	55.38
605.609	55.38
606.372	52.38
607.136	48.38
607.899	49.38
608.662	48.38
609.426	48.38
610.189	41.38
610.952	43.38
611.715	39.38
612.478	41.38
613.241	37.38
614.004	36.38
614.767	37.38
615.529	34.38
616.292	36.38
617.055	32.38
617.817	29.38
618.579	28.38
619.342	29.38
620.104	27.38
620.866	24.38
621.628	27.38
622.39	25.38
623.152	23.38
623.914	25.38
624.676	24.38
625.438	25.38
626.199	22.38
626.961	21.38
627.722	22.38
628.484	18.38
629.245	18.38
630.006	17.38
630.768	18.38
631.529	18.38
632.29	18.38
633.051	17.38
633.812	16.38
634.573	15.38
635.333	14.38
636.094	14.38
636.855	13.38
637.615	13.38
638.376	11.38
639.136	12.38
639.896	12.38
640.657	11.38
641.417	14.38
642.177	11.38
642.937	12.38
643.697	10.38
644.457	10.38
645.216	10.38
645.976	12.38
646.736	11.38
647.495	9.38
648.255	11.38
649.014	10.38
649.774	9.38
650.533	9.38
651.292	10.38
652.051	9.38
652.81	10.38
653.569	7.38
654.328	8.38
655.087	8.38
655.846	9.38
656.604	10.38
657.363	9.38
658.121	10.38
658.88	7.38
659.638	7.38
660.397	10.38
661.155	7.38
661.913	5.38
662.671	4.38
663.429	5.38
664.187	6.38
664.945	7.38
665.703	9.38
666.46	6.38
667.218	7.38
667.976	10.38
668.733	6.38
669.49	6.38
670.248	4.38
671.005	6.38
671.762	7.38
672.519	6.38
673.276	4.38
674.033	6.38
674.79	6.38
675.547	6.38
676.304	5.38
677.06	3.38
677.817	7.38
678.574	6.38
679.33	5.38
680.086	6.38
680.843	5.38
681.599	6.38
682.355	4.38
683.111	6.38
683.867	5.38
684.623	4.38
685.379	7.38
686.135	5.38
686.89	6.38
687.646	6.38
688.402	6.38
689.157	7.38
689.912	4.38
690.668	5.38
691.423	4.38
692.178	6.38
692.933	5.38
693.688	5.38
694.443	8.38
695.198	5.38
695.953	7.38
696.708	6.38
697.462	6.38
698.217	5.38
698.972	3.38
699.726	4.38
700.48	5.38
701.235	4.38
701.989	5.38
702.743	7.38
703.497	4.38
704.251	6.38
705.005	6.38
705.759	6.38
706.513	3.38
707.266	5.38
708.02	3.38
708.774	7.38
709.527	5.38
710.28	2.38
711.034	5.38
711.787	5.38
712.54	7.38
713.293	3.38
714.046	3.38
714.799	6.38
715.552	6.38
716.305	3.38
717.058	6.38
717.81	4.38
718.563	3.38
719.315	5.38
720.068	7.38
720.82	5.38
721.573	7.38
722.325	4.38
723.077	6.38
723.829	3.38
724.581	7.38
725.333	5.38
726.085	6.38
726.836	6.38
727.588	7.38
728.34	5.38
729.091	6.38
729.843	6.38
730.594	7.38
731.346	5.38
732.097	7.38
732.848	6.38
733.599	5.38
734.35	4.38
735.101	6.38
735.852	9.38
736.603	6.38
737.354	8.38
738.104	9.38
738.855	5.38
739.605	7.38
740.356	7.38
741.106	8.38
741.856	5.38
742.607	6.38
743.357	6.38
744.107	7.38
744.857	11.38
745.607	7.38
746.357	7.38
747.106	7.38
747.856	8.38
748.606	9.38
749.355	7.38
750.105	9.38
750.854	7.38
751.603	7.38
752.353	10.38
753.102	6.38
753.851	8.38
754.6	7.38
755.349	8.38
756.098	9.38
756.847	8.38
757.595	13.38
758.344	10.38
759.093	9.38
759.841	11.38
760.589	8.38
761.338	8.38
762.086	9.38
762.834	10.38
763.582	8.38
764.331	10.38
765.079	10.38
765.826	9.38
766.574	10.38
767.322	10.38
768.07	12.38
768.817	12.38
769.565	10.38
770.312	11.38
771.06	10.38
771.807	13.38
772.554	12.38
773.302	12.38
774.049	9.38
774.796	9.38
775.543	13.38
776.29	10.38
777.036	12.38
777.783	14.38
778.53	12.38
779.276	14.38
780.023	9.38
780.769	14.38
781.516	10.38
782.262	14.38
783.008	12.38
783.754	13.38
784.5	14.38
785.246	12.38
785.992	15.38
786.738	12.38
787.484	12.38
788.23	12.38
788.975	11.38
789.721	14.38
790.466	11.38
791.212	12.38
791.957	10.38
792.702	12.38
793.447	12.38
794.193	9.38
794.938	11.38
795.683	12.38
796.427	11.38
797.172	11.38
797.917	8.38
798.662	9.38
799.406	7.38
800.151	11.38
800.895	9.38
801.64	10.38
802.384	10.38
803.128	8.38
803.872	7.38
804.616	10.38
805.36	8.38
806.104	8.38
806.848	6.38
807.592	7.38
808.336	8.38
809.079	8.38
809.823	6.38
810.566	6.38
811.31	6.38
812.053	6.38
812.796	7.38
813.539	8.38
814.283	6.38
815.026	7.38
815.769	6.38
816.511	9.38
817.254	4.38
817.997	7.38
818.74	4.38
819.482	7.38
820.225	5.38
820.967	5.38
821.71	6.38
822.452	5.38
823.194	6.38
823.936	7.38
824.678	6.38
825.42	4.38
826.162	4.38
826.904	8.38
827.646	5.38
828.388	7.38
829.129	5.38
829.871	4.38
830.612	6.38
831.354	5.38
832.095	4.38
832.836	6.38
833.577	4.38
834.319	2.38
835.06	5.38
835.801	5.38
836.542	3.38
837.282	6.38
838.023	4.38
838.764	2.38
839.504	3.38
840.245	4.38
840.985	5.38
841.726	6.38
842.466	1.38
843.206	5.38
843.946	2.38
844.687	5.38
845.427	5.38
846.166	5.38
846.906	5.38
847.646	2.38
848.386	6.38
849.125	3.38
849.865	3.38
850.605	3.38
851.344	4.38
852.083	7.38
852.823	3.38
853.562	2.38
854.301	2.38
855.04	4.38
855.779	4.38
856.518	2.38
857.257	2.38
857.995	1.38
858.734	2.38
859.473	5.38
860.211	2.38
860.95	4.38
861.688	2.38
862.426	3.38
863.165	2.38
863.903	2.38
864.641	3.38
865.379	1.38
866.117	2.38
866.855	1.38
867.593	3.38
868.33	3.38
869.068	2.38
869.806	0.38
870.543	2.38
871.28	2.38
872.018	4.38
872.755	-0.62
873.492	1.38
874.229	0.38
874.967	2.38
875.703	-0.62
876.44	0.38
877.177	2.38
877.914	1.38
878.651	2.38
879.387	1.38
880.124	2.38
880.86	1.38
881.597	2.38
882.333	1.38
883.069	0.38
883.806	2.38
884.542	-0.62
885.278	4.38
886.014	0.38
886.749	-0.62
887.485	-0.62
888.221	0.38
888.957	0.38
889.692	-0.62
890.428	2.38
891.163	-1.62
891.899	0.38
892.634	1.38
893.369	2.38
894.104	1.38
894.839	0.38
895.574	2.38
896.309	0.38
897.044	0.38
897.779	1.38
898.514	1.38
899.248	0.38
899.983	1.38
900.717	0.38
901.452	1.38
902.186	1.38
902.92	2.38
903.654	-0.62
904.389	0.38
905.123	2.38
905.857	0.38
906.59	2.38
907.324	0.38
908.058	-0.62
908.792	-0.62
909.525	2.38
910.259	-1.62
910.992	2.38
911.726	-1.62
912.459	0.38
913.192	0.38
913.925	0.38
914.658	2.38
915.391	0.38
916.124	1.38
916.857	-0.62
917.59	0.38
918.323	0.38
919.055	1.38
919.788	1.38
920.521	1.38
921.253	-0.62
921.985	2.38
922.718	2.38
923.45	-1.62
924.182	-1.62
924.914	-0.62
925.646	0.38
926.378	1.38
927.11	2.38
927.841	-0.62
928.573	1.38
929.305	0.38
930.036	-0.62
930.768	2.38
931.499	-0.62
932.23	-0.62
932.962	0.38
933.693	2.38
934.424	-0.62
935.155	-0.62
935.886	1.38
936.617	0.38
937.348	-0.62
938.078	0.38
938.809	-0.62
939.54	1.38
940.27	-0.62
941.001	-0.62
941.731	0.38
942.461	2.38
943.191	-1.62
943.922	0.38
944.652	0.38
945.382	-0.62
946.112	0.38
946.841	-0.62
947.571	2.38
948.301	1.38
949.031	1.38
949.76	0.38
950.49	-2.62
951.219	0.38
951.948	-0.62
952.678	0.38
953.407	-0.62
954.136	0.38
954.865	2.38
955.594	-0.62
956.323	0.38
957.052	0.38
957.78	0.38
958.509	1.38
959.238	-2.62
959.966	0.38
960.695	-0.62
961.423	0.38
962.151	-0.62
962.88	-2.62
963.608	1.38
964.336	0.38
965.064	0.38
965.792	-2.62
966.52	-1.62
967.247	0.38
967.975	0.38
968.703	-1.62
969.43	-0.62
970.158	1.38
970.885	0.38
971.613	0.38
972.34	1.38
973.067	2.38
973.794	1.38
974.521	1.38
975.248	-0.62
975.975	0.38
976.702	0.38
977.429	-0.62
978.156	0.38
978.882	-0.62
979.609	-1.62
980.335	-1.62
981.062	1.38
981.788	0.38
982.514	-0.62
983.24	-1.62
983.967	0.38
984.693	1.38
985.419	-0.62
986.144	0.38
986.87	1.38
987.596	1.38
988.322	0.38
989.047	1.38
989.773	0.38
990.498	-1.62
991.224	2.38
991.949	0.38
992.674	-0.62
993.399	1.38
994.124	-0.62
994.849	-0.62
995.574	2.38
996.299	2.38
997.024	0.38
997.749	-0.62
998.473	0.38
999.198	0.38
999.922	0.38
1000.647	0.38
1001.371	2.38
1002.095	-0.62
1002.82	-0.62
1003.544	-1.62
1004.268	5.38
1004.992	1.38
1005.716	2.38
1006.439	0.38
1007.163	3.38
1007.887	2.38
1008.611	1.38
1009.334	1.38
1010.058	0.38
1010.781	0.38
1011.504	-0.62
1012.228	2.38
1012.951	-0.62
1013.674	1.38
1014.397	1.38
1015.12	-1.62
