节点500_425_QEPB04081__331__15-53-48-816.txt的数据

Date: Wed Nov 12 15:53:48 CST 2025
User: PC
Spectrometer: QEPB0408
触发模式: 0
积分时间 (秒): 1.000000E-2
Scans to average: 1
启用暗噪声校正: true
启用非线性校正: false
滑动平均宽度: 0
X轴模式: Wavelengths
Number of Pixels in Spectrum: 1044
>>>>>Begin Spectral Data<<<<<
220.843	2.25
221.644	5.25
222.444	2.25
223.244	5.25
224.045	3.25
224.845	4.25
225.645	3.25
226.445	5.25
227.245	6.25
228.045	6.25
228.845	5.25
229.645	6.25
230.444	7.25
231.244	5.25
232.043	7.25
232.843	6.25
233.642	6.25
234.442	6.25
235.241	7.25
236.04	6.25
236.839	6.25
237.638	7.25
238.437	7.25
239.236	9.25
240.035	8.25
240.833	8.25
241.632	7.25
242.43	9.25
243.229	5.25
244.027	8.25
244.826	7.25
245.624	7.25
246.422	9.25
247.22	9.25
248.018	9.25
248.816	11.25
249.614	10.25
250.412	10.25
251.21	12.25
252.007	11.25
252.805	9.25
253.602	11.25
254.4	11.25
255.197	15.25
255.994	15.25
256.791	11.25
257.589	13.25
258.386	12.25
259.183	15.25
259.979	13.25
260.776	16.25
261.573	18.25
262.37	15.25
263.166	17.25
263.963	19.25
264.759	19.25
265.556	19.25
266.352	16.25
267.148	17.25
267.944	19.25
268.74	21.25
269.536	19.25
270.332	21.25
271.128	21.25
271.924	22.25
272.719	26.25
273.515	24.25
274.311	24.25
275.106	22.25
275.901	22.25
276.697	24.25
277.492	23.25
278.287	26.25
279.082	26.25
279.877	25.25
280.672	27.25
281.467	24.25
282.262	27.25
283.056	23.25
283.851	26.25
284.646	26.25
285.44	23.25
286.234	28.25
287.029	28.25
287.823	27.25
288.617	27.25
289.411	24.25
290.205	26.25
290.999	25.25
291.793	26.25
292.587	23.25
293.381	22.25
294.174	25.25
294.968	20.25
295.761	21.25
296.555	23.25
297.348	21.25
298.141	19.25
298.935	23.25
299.728	21.25
300.521	19.25
301.314	20.25
302.107	17.25
302.899	18.25
303.692	17.25
304.485	18.25
305.277	15.25
306.07	16.25
306.862	16.25
307.655	17.25
308.447	16.25
309.239	16.25
310.031	15.25
310.823	14.25
311.615	11.25
312.407	15.25
313.199	13.25
313.991	12.25
314.783	13.25
315.574	15.25
316.366	13.25
317.157	13.25
317.949	11.25
318.74	12.25
319.531	10.25
320.322	11.25
321.113	9.25
321.904	10.25
322.695	9.25
323.486	12.25
324.277	10.25
325.068	9.25
325.858	11.25
326.649	10.25
327.439	9.25
328.23	11.25
329.02	11.25
329.81	11.25
330.6	12.25
331.391	11.25
332.181	9.25
332.971	8.25
333.76	10.25
334.55	9.25
335.34	9.25
336.13	10.25
336.919	12.25
337.709	10.25
338.498	9.25
339.287	9.25
340.077	9.25
340.866	8.25
341.655	10.25
342.444	9.25
343.233	9.25
344.022	8.25
344.811	8.25
345.6	8.25
346.388	9.25
347.177	9.25
347.965	9.25
348.754	8.25
349.542	8.25
350.33	10.25
351.119	10.25
351.907	9.25
352.695	8.25
353.483	10.25
354.271	9.25
355.059	8.25
355.846	10.25
356.634	10.25
357.422	9.25
358.209	9.25
358.997	7.25
359.784	9.25
360.571	8.25
361.359	8.25
362.146	7.25
362.933	8.25
363.72	9.25
364.507	8.25
365.294	9.25
366.081	8.25
366.867	7.25
367.654	8.25
368.44	6.25
369.227	8.25
370.013	7.25
370.8	8.25
371.586	7.25
372.372	8.25
373.158	10.25
373.944	7.25
374.73	9.25
375.516	6.25
376.302	8.25
377.088	8.25
377.873	9.25
378.659	10.25
379.445	7.25
380.23	9.25
381.015	8.25
381.801	6.25
382.586	8.25
383.371	8.25
384.156	7.25
384.941	9.25
385.726	9.25
386.511	6.25
387.296	8.25
388.08	10.25
388.865	7.25
389.649	10.25
390.434	7.25
391.218	9.25
392.003	10.25
392.787	8.25
393.571	7.25
394.355	8.25
395.139	8.25
395.923	7.25
396.707	11.25
397.491	10.25
398.274	10.25
399.058	11.25
399.842	9.25
400.625	10.25
401.408	12.25
402.192	9.25
402.975	10.25
403.758	10.25
404.541	11.25
405.324	11.25
406.107	8.25
406.89	12.25
407.673	12.25
408.456	10.25
409.238	13.25
410.021	12.25
410.803	13.25
411.586	12.25
412.368	12.25
413.151	13.25
413.933	11.25
414.715	14.25
415.497	12.25
416.279	13.25
417.061	14.25
417.843	13.25
418.624	14.25
419.406	16.25
420.188	14.25
420.969	15.25
421.751	15.25
422.532	15.25
423.313	13.25
424.095	15.25
424.876	16.25
425.657	15.25
426.438	20.25
427.219	18.25
428	17.25
428.78	19.25
429.561	20.25
430.342	19.25
431.122	23.25
431.903	18.25
432.683	22.25
433.464	22.25
434.244	24.25
435.024	28.25
435.804	26.25
436.584	29.25
437.364	30.25
438.144	30.25
438.924	33.25
439.704	34.25
440.483	35.25
441.263	37.25
442.042	39.25
442.822	42.25
443.601	42.25
444.38	48.25
445.16	49.25
445.939	53.25
446.718	54.25
447.497	61.25
448.276	66.25
449.054	76.25
449.833	82.25
450.612	85.25
451.391	98.25
452.169	106.25
452.948	113.25
453.726	129.25
454.504	142.25
455.282	152.25
456.061	170.25
456.839	187.25
457.617	213.25
458.395	232.25
459.172	258.25
459.95	294.25
460.728	321.25
461.506	359.25
462.283	404.25
463.061	441.25
463.838	512.25
464.615	566.25
465.393	629.25
466.17	691.25
466.947	776.25
467.724	863.25
468.501	941.25
469.278	1061.25
470.055	1173.25
470.831	1298.25
471.608	1447.25
472.385	1606.25
473.161	1745.25
473.938	1937.25
474.714	2142.25
475.49	2360.25
476.266	2602.25
477.043	2877.25
477.819	3178.25
478.595	3468.25
479.371	3836.25
480.146	4197.25
480.922	4623.25
481.698	5055.25
482.473	5509.25
483.249	6069.25
484.024	6629.25
484.8	7278.25
485.575	7865.25
486.35	8609.25
487.126	9371.25
487.901	10226.25
488.676	11113.25
489.451	12113.25
490.225	13117.25
491	14251.25
491.775	15458.25
492.55	16606.25
493.324	17865.25
494.099	19193.25
494.873	20501.25
495.647	21892.25
496.422	23234.25
497.196	24675.25
497.97	26222.25
498.744	27557.25
499.518	28873.25
500.292	30114.25
501.066	31195.25
501.839	32318.25
502.613	33249.25
503.387	33932.25
504.16	34571.25
504.934	34806.25
505.707	34959.25
506.48	34843.25
507.253	34678.25
508.027	34283.25
508.8	33874.25
509.573	33201.25
510.346	32304.25
511.118	31350.25
511.891	30477.25
512.664	29416.25
513.437	28211.25
514.209	27157.25
514.982	26143.25
515.754	25085.25
516.526	24022.25
517.298	22988.25
518.071	22012.25
518.843	21121.25
519.615	20239.25
520.387	19445.25
521.159	18738.25
521.93	18032.25
522.702	17321.25
523.474	16624.25
524.245	15907.25
525.017	15242.25
525.788	14527.25
526.56	13929.25
527.331	13248.25
528.102	12663.25
528.873	12102.25
529.644	11496.25
530.415	10985.25
531.186	10405.25
531.957	9918.25
532.728	9359.25
533.498	8860.25
534.269	8374.25
535.039	7929.25
535.81	7453.25
536.58	7082.25
537.351	6678.25
538.121	6289.25
538.891	5954.25
539.661	5647.25
540.431	5375.25
541.201	5082.25
541.971	4808.25
542.741	4567.25
543.51	4337.25
544.28	4102.25
545.05	3905.25
545.819	3759.25
546.588	3562.25
547.358	3356.25
548.127	3180.25
548.896	3039.25
549.665	2868.25
550.434	2751.25
551.203	2582.25
551.972	2455.25
552.741	2321.25
553.51	2203.25
554.278	2064.25
555.047	1956.25
555.815	1857.25
556.584	1752.25
557.352	1647.25
558.121	1544.25
558.889	1483.25
559.657	1379.25
560.425	1305.25
561.193	1231.25
561.961	1179.25
562.729	1103.25
563.496	1051.25
564.264	989.25
565.032	939.25
565.799	889.25
566.567	827.25
567.334	812.25
568.101	752.25
568.869	698.25
569.636	659.25
570.403	627.25
571.17	588.25
571.937	560.25
572.704	539.25
573.471	499.25
574.237	467.25
575.004	449.25
575.771	414.25
576.537	388.25
577.303	371.25
578.07	351.25
578.836	333.25
579.602	308.25
580.368	295.25
581.134	285.25
581.9	263.25
582.666	253.25
583.432	237.25
584.198	229.25
584.964	218.25
585.729	204.25
586.495	194.25
587.26	182.25
588.025	173.25
588.791	164.25
589.556	163.25
590.321	150.25
591.086	138.25
591.851	134.25
592.616	130.25
593.381	121.25
594.146	111.25
594.911	107.25
595.675	107.25
596.44	101.25
597.204	92.25
597.969	90.25
598.733	87.25
599.497	86.25
600.261	80.25
601.025	78.25
601.79	75.25
602.553	70.25
603.317	67.25
604.081	66.25
604.845	64.25
605.609	61.25
606.372	56.25
607.136	56.25
607.899	53.25
608.662	49.25
609.426	48.25
610.189	48.25
610.952	45.25
611.715	44.25
612.478	39.25
613.241	42.25
614.004	39.25
614.767	39.25
615.529	35.25
616.292	37.25
617.055	36.25
617.817	32.25
618.579	31.25
619.342	31.25
620.104	32.25
620.866	29.25
621.628	27.25
622.39	26.25
623.152	25.25
623.914	27.25
624.676	25.25
625.438	23.25
626.199	22.25
626.961	23.25
627.722	19.25
628.484	21.25
629.245	20.25
630.006	21.25
630.768	22.25
631.529	20.25
632.29	18.25
633.051	18.25
633.812	19.25
634.573	18.25
635.333	17.25
636.094	19.25
636.855	14.25
637.615	15.25
638.376	14.25
639.136	13.25
639.896	12.25
640.657	13.25
641.417	12.25
642.177	13.25
642.937	11.25
643.697	12.25
644.457	13.25
645.216	11.25
645.976	16.25
646.736	11.25
647.495	12.25
648.255	11.25
649.014	11.25
649.774	11.25
650.533	12.25
651.292	9.25
652.051	8.25
652.81	11.25
653.569	11.25
654.328	10.25
655.087	9.25
655.846	7.25
656.604	12.25
657.363	9.25
658.121	10.25
658.88	11.25
659.638	10.25
660.397	9.25
661.155	8.25
661.913	10.25
662.671	9.25
663.429	8.25
664.187	9.25
664.945	6.25
665.703	10.25
666.46	6.25
667.218	7.25
667.976	7.25
668.733	3.25
669.49	8.25
670.248	8.25
671.005	7.25
671.762	6.25
672.519	6.25
673.276	8.25
674.033	8.25
674.79	5.25
675.547	8.25
676.304	6.25
677.06	5.25
677.817	4.25
678.574	6.25
679.33	7.25
680.086	7.25
680.843	6.25
681.599	6.25
682.355	5.25
683.111	7.25
683.867	4.25
684.623	8.25
685.379	7.25
686.135	6.25
686.89	7.25
687.646	7.25
688.402	9.25
689.157	5.25
689.912	7.25
690.668	5.25
691.423	6.25
692.178	4.25
692.933	3.25
693.688	5.25
694.443	7.25
695.198	7.25
695.953	4.25
696.708	6.25
697.462	6.25
698.217	6.25
698.972	6.25
699.726	5.25
700.48	7.25
701.235	4.25
701.989	3.25
702.743	6.25
703.497	5.25
704.251	6.25
705.005	4.25
705.759	3.25
706.513	7.25
707.266	5.25
708.02	6.25
708.774	7.25
709.527	5.25
710.28	5.25
711.034	9.25
711.787	4.25
712.54	9.25
713.293	5.25
714.046	7.25
714.799	7.25
715.552	6.25
716.305	7.25
717.058	5.25
717.81	6.25
718.563	7.25
719.315	6.25
720.068	7.25
720.82	7.25
721.573	8.25
722.325	6.25
723.077	7.25
723.829	7.25
724.581	7.25
725.333	5.25
726.085	5.25
726.836	6.25
727.588	7.25
728.34	5.25
729.091	8.25
729.843	5.25
730.594	7.25
731.346	6.25
732.097	6.25
732.848	4.25
733.599	6.25
734.35	8.25
735.101	6.25
735.852	6.25
736.603	4.25
737.354	8.25
738.104	5.25
738.855	10.25
739.605	8.25
740.356	8.25
741.106	5.25
741.856	7.25
742.607	8.25
743.357	5.25
744.107	7.25
744.857	6.25
745.607	7.25
746.357	7.25
747.106	9.25
747.856	5.25
748.606	6.25
749.355	9.25
750.105	7.25
750.854	8.25
751.603	8.25
752.353	9.25
753.102	10.25
753.851	7.25
754.6	9.25
755.349	8.25
756.098	9.25
756.847	8.25
757.595	10.25
758.344	7.25
759.093	7.25
759.841	9.25
760.589	9.25
761.338	6.25
762.086	10.25
762.834	10.25
763.582	8.25
764.331	7.25
765.079	12.25
765.826	10.25
766.574	11.25
767.322	12.25
768.07	10.25
768.817	11.25
769.565	11.25
770.312	10.25
771.06	11.25
771.807	9.25
772.554	14.25
773.302	9.25
774.049	13.25
774.796	11.25
775.543	12.25
776.29	12.25
777.036	11.25
777.783	12.25
778.53	15.25
779.276	13.25
780.023	12.25
780.769	12.25
781.516	11.25
782.262	10.25
783.008	13.25
783.754	11.25
784.5	14.25
785.246	13.25
785.992	13.25
786.738	13.25
787.484	10.25
788.23	12.25
788.975	12.25
789.721	11.25
790.466	12.25
791.212	13.25
791.957	9.25
792.702	12.25
793.447	11.25
794.193	15.25
794.938	10.25
795.683	12.25
796.427	12.25
797.172	12.25
797.917	13.25
798.662	11.25
799.406	10.25
800.151	9.25
800.895	10.25
801.64	10.25
802.384	10.25
803.128	10.25
803.872	10.25
804.616	11.25
805.36	10.25
806.104	10.25
806.848	8.25
807.592	7.25
808.336	9.25
809.079	8.25
809.823	9.25
810.566	10.25
811.31	11.25
812.053	7.25
812.796	9.25
813.539	6.25
814.283	9.25
815.026	8.25
815.769	8.25
816.511	7.25
817.254	9.25
817.997	6.25
818.74	7.25
819.482	8.25
820.225	5.25
820.967	8.25
821.71	5.25
822.452	5.25
823.194	7.25
823.936	6.25
824.678	7.25
825.42	7.25
826.162	7.25
826.904	8.25
827.646	6.25
828.388	6.25
829.129	7.25
829.871	5.25
830.612	4.25
831.354	5.25
832.095	4.25
832.836	5.25
833.577	8.25
834.319	3.25
835.06	5.25
835.801	5.25
836.542	4.25
837.282	5.25
838.023	4.25
838.764	5.25
839.504	7.25
840.245	6.25
840.985	7.25
841.726	7.25
842.466	5.25
843.206	4.25
843.946	5.25
844.687	5.25
845.427	4.25
846.166	4.25
846.906	6.25
847.646	6.25
848.386	5.25
849.125	5.25
849.865	5.25
850.605	3.25
851.344	5.25
852.083	5.25
852.823	4.25
853.562	3.25
854.301	4.25
855.04	3.25
855.779	2.25
856.518	1.25
857.257	4.25
857.995	4.25
858.734	5.25
859.473	1.25
860.211	4.25
860.95	5.25
861.688	6.25
862.426	3.25
863.165	1.25
863.903	3.25
864.641	4.25
865.379	4.25
866.117	1.25
866.855	3.25
867.593	3.25
868.33	5.25
869.068	2.25
869.806	2.25
870.543	4.25
871.28	2.25
872.018	3.25
872.755	3.25
873.492	3.25
874.229	3.25
874.967	2.25
875.703	3.25
876.44	2.25
877.177	2.25
877.914	1.25
878.651	2.25
879.387	1.25
880.124	1.25
880.86	3.25
881.597	4.25
882.333	3.25
883.069	1.25
883.806	0.25
884.542	2.25
885.278	4.25
886.014	2.25
886.749	2.25
887.485	0.25
888.221	0.25
888.957	0.25
889.692	1.25
890.428	0.25
891.163	1.25
891.899	2.25
892.634	0.25
893.369	-0.75
894.104	-0.75
894.839	3.25
895.574	0.25
896.309	2.25
897.044	1.25
897.779	1.25
898.514	2.25
899.248	1.25
899.983	2.25
900.717	0.25
901.452	2.25
902.186	1.25
902.92	2.25
903.654	2.25
904.389	0.25
905.123	3.25
905.857	1.25
906.59	1.25
907.324	1.25
908.058	3.25
908.792	2.25
909.525	1.25
910.259	1.25
910.992	3.25
911.726	0.25
912.459	2.25
913.192	3.25
913.925	2.25
914.658	0.25
915.391	1.25
916.124	1.25
916.857	1.25
917.59	0.25
918.323	2.25
919.055	1.25
919.788	1.25
920.521	-0.75
921.253	1.25
921.985	1.25
922.718	0.25
923.45	2.25
924.182	1.25
924.914	3.25
925.646	2.25
926.378	0.25
927.11	2.25
927.841	1.25
928.573	1.25
929.305	1.25
930.036	1.25
930.768	0.25
931.499	1.25
932.23	2.25
932.962	1.25
933.693	0.25
934.424	0.25
935.155	1.25
935.886	2.25
936.617	1.25
937.348	1.25
938.078	3.25
938.809	0.25
939.54	-0.75
940.27	1.25
941.001	1.25
941.731	3.25
942.461	-0.75
943.191	0.25
943.922	1.25
944.652	-0.75
945.382	1.25
946.112	3.25
946.841	3.25
947.571	-0.75
948.301	2.25
949.031	4.25
949.76	0.25
950.49	1.25
951.219	-0.75
951.948	-1.75
952.678	2.25
953.407	0.25
954.136	2.25
954.865	2.25
955.594	-0.75
956.323	-0.75
957.052	-0.75
957.78	0.25
958.509	-0.75
959.238	-1.75
959.966	2.25
960.695	0.25
961.423	2.25
962.151	1.25
962.88	1.25
963.608	2.25
964.336	-0.75
965.064	3.25
965.792	0.25
966.52	-0.75
967.247	0.25
967.975	2.25
968.703	1.25
969.43	0.25
970.158	3.25
970.885	1.25
971.613	1.25
972.34	3.25
973.067	2.25
973.794	2.25
974.521	0.25
975.248	-0.75
975.975	-1.75
976.702	0.25
977.429	0.25
978.156	2.25
978.882	2.25
979.609	1.25
980.335	1.25
981.062	-0.75
981.788	1.25
982.514	2.25
983.24	2.25
983.967	0.25
984.693	-1.75
985.419	0.25
986.144	2.25
986.87	0.25
987.596	2.25
988.322	0.25
989.047	3.25
989.773	1.25
990.498	1.25
991.224	2.25
991.949	1.25
992.674	2.25
993.399	1.25
994.124	1.25
994.849	1.25
995.574	-0.75
996.299	4.25
997.024	0.25
997.749	0.25
998.473	1.25
999.198	1.25
999.922	2.25
1000.647	2.25
1001.371	3.25
1002.095	1.25
1002.82	-1.75
1003.544	0.25
1004.268	3.25
1004.992	5.25
1005.716	2.25
1006.439	6.25
1007.163	3.25
1007.887	2.25
1008.611	1.25
1009.334	1.25
1010.058	2.25
1010.781	3.25
1011.504	1.25
1012.228	0.25
1012.951	-0.75
1013.674	-1.75
1014.397	0.25
1015.12	-0.75
