节点500_425_QEPB04081__187__15-51-25-122.txt的数据

Date: Wed Nov 12 15:51:25 CST 2025
User: PC
Spectrometer: QEPB0408
触发模式: 0
积分时间 (秒): 1.000000E-2
Scans to average: 1
启用暗噪声校正: true
启用非线性校正: false
滑动平均宽度: 0
X轴模式: Wavelengths
Number of Pixels in Spectrum: 1044
>>>>>Begin Spectral Data<<<<<
220.843	3.88
221.644	1.88
222.444	2.88
223.244	1.88
224.045	2.88
224.845	3.88
225.645	2.88
226.445	3.88
227.245	4.88
228.045	6.88
228.845	5.88
229.645	5.88
230.444	2.88
231.244	5.88
232.043	6.88
232.843	7.88
233.642	7.88
234.442	5.88
235.241	4.88
236.04	6.88
236.839	7.88
237.638	7.88
238.437	5.88
239.236	6.88
240.035	5.88
240.833	6.88
241.632	9.88
242.43	8.88
243.229	6.88
244.027	11.88
244.826	9.88
245.624	8.88
246.422	8.88
247.22	11.88
248.018	9.88
248.816	9.88
249.614	10.88
250.412	10.88
251.21	10.88
252.007	10.88
252.805	15.88
253.602	12.88
254.4	11.88
255.197	12.88
255.994	12.88
256.791	13.88
257.589	12.88
258.386	14.88
259.183	14.88
259.979	13.88
260.776	14.88
261.573	16.88
262.37	16.88
263.166	14.88
263.963	17.88
264.759	21.88
265.556	18.88
266.352	18.88
267.148	19.88
267.944	20.88
268.74	20.88
269.536	21.88
270.332	20.88
271.128	22.88
271.924	19.88
272.719	24.88
273.515	22.88
274.311	22.88
275.106	22.88
275.901	27.88
276.697	25.88
277.492	26.88
278.287	22.88
279.082	23.88
279.877	25.88
280.672	24.88
281.467	24.88
282.262	25.88
283.056	25.88
283.851	24.88
284.646	25.88
285.44	26.88
286.234	24.88
287.029	27.88
287.823	24.88
288.617	26.88
289.411	25.88
290.205	25.88
290.999	23.88
291.793	25.88
292.587	23.88
293.381	23.88
294.174	23.88
294.968	24.88
295.761	18.88
296.555	23.88
297.348	22.88
298.141	18.88
298.935	23.88
299.728	20.88
300.521	20.88
301.314	18.88
302.107	16.88
302.899	18.88
303.692	16.88
304.485	17.88
305.277	14.88
306.07	16.88
306.862	16.88
307.655	15.88
308.447	16.88
309.239	14.88
310.031	14.88
310.823	11.88
311.615	15.88
312.407	11.88
313.199	13.88
313.991	13.88
314.783	10.88
315.574	14.88
316.366	13.88
317.157	12.88
317.949	11.88
318.74	12.88
319.531	12.88
320.322	11.88
321.113	12.88
321.904	10.88
322.695	10.88
323.486	11.88
324.277	8.88
325.068	12.88
325.858	6.88
326.649	13.88
327.439	11.88
328.23	9.88
329.02	9.88
329.81	9.88
330.6	9.88
331.391	8.88
332.181	8.88
332.971	8.88
333.76	5.88
334.55	9.88
335.34	10.88
336.13	6.88
336.919	9.88
337.709	9.88
338.498	8.88
339.287	9.88
340.077	9.88
340.866	10.88
341.655	8.88
342.444	10.88
343.233	6.88
344.022	9.88
344.811	8.88
345.6	8.88
346.388	10.88
347.177	8.88
347.965	8.88
348.754	8.88
349.542	8.88
350.33	9.88
351.119	9.88
351.907	8.88
352.695	6.88
353.483	9.88
354.271	9.88
355.059	5.88
355.846	8.88
356.634	8.88
357.422	7.88
358.209	5.88
358.997	9.88
359.784	6.88
360.571	8.88
361.359	7.88
362.146	5.88
362.933	4.88
363.72	8.88
364.507	6.88
365.294	7.88
366.081	5.88
366.867	9.88
367.654	9.88
368.44	7.88
369.227	6.88
370.013	8.88
370.8	7.88
371.586	5.88
372.372	9.88
373.158	6.88
373.944	8.88
374.73	8.88
375.516	8.88
376.302	7.88
377.088	6.88
377.873	6.88
378.659	8.88
379.445	8.88
380.23	9.88
381.015	7.88
381.801	8.88
382.586	7.88
383.371	7.88
384.156	8.88
384.941	9.88
385.726	10.88
386.511	8.88
387.296	7.88
388.08	7.88
388.865	5.88
389.649	8.88
390.434	10.88
391.218	8.88
392.003	8.88
392.787	9.88
393.571	9.88
394.355	7.88
395.139	9.88
395.923	7.88
396.707	11.88
397.491	8.88
398.274	10.88
399.058	9.88
399.842	10.88
400.625	12.88
401.408	8.88
402.192	7.88
402.975	10.88
403.758	9.88
404.541	9.88
405.324	12.88
406.107	9.88
406.89	13.88
407.673	10.88
408.456	12.88
409.238	10.88
410.021	12.88
410.803	11.88
411.586	9.88
412.368	11.88
413.151	13.88
413.933	14.88
414.715	13.88
415.497	11.88
416.279	12.88
417.061	12.88
417.843	11.88
418.624	13.88
419.406	14.88
420.188	15.88
420.969	13.88
421.751	15.88
422.532	18.88
423.313	16.88
424.095	15.88
424.876	16.88
425.657	17.88
426.438	18.88
427.219	14.88
428	15.88
428.78	21.88
429.561	20.88
430.342	18.88
431.122	19.88
431.903	21.88
432.683	18.88
433.464	22.88
434.244	23.88
435.024	21.88
435.804	25.88
436.584	26.88
437.364	25.88
438.144	29.88
438.924	33.88
439.704	30.88
440.483	37.88
441.263	36.88
442.042	39.88
442.822	38.88
443.601	44.88
444.38	45.88
445.16	49.88
445.939	53.88
446.718	55.88
447.497	57.88
448.276	63.88
449.054	69.88
449.833	78.88
450.612	86.88
451.391	90.88
452.169	103.88
452.948	104.88
453.726	119.88
454.504	138.88
455.282	147.88
456.061	165.88
456.839	181.88
457.617	200.88
458.395	226.88
459.172	251.88
459.95	272.88
460.728	310.88
461.506	336.88
462.283	384.88
463.061	429.88
463.838	482.88
464.615	531.88
465.393	597.88
466.17	677.88
466.947	757.88
467.724	843.88
468.501	931.88
469.278	1023.88
470.055	1147.88
470.831	1282.88
471.608	1423.88
472.385	1584.88
473.161	1754.88
473.938	1941.88
474.714	2142.88
475.49	2358.88
476.266	2622.88
477.043	2886.88
477.819	3213.88
478.595	3529.88
479.371	3907.88
480.146	4280.88
480.922	4712.88
481.698	5172.88
482.473	5667.88
483.249	6229.88
484.024	6877.88
484.8	7510.88
485.575	8209.88
486.35	9001.88
487.126	9775.88
487.901	10709.88
488.676	11714.88
489.451	12745.88
490.225	13836.88
491	15004.88
491.775	16353.88
492.55	17600.88
493.324	19003.88
494.099	20358.88
494.873	21762.88
495.647	23221.88
496.422	24721.88
497.196	26218.88
497.97	27802.88
498.744	29235.88
499.518	30630.88
500.292	31769.88
501.066	32906.88
501.839	34055.88
502.613	34919.88
503.387	35620.88
504.16	36038.88
504.934	36192.88
505.707	36165.88
506.48	36038.88
507.253	35698.88
508.027	35211.88
508.8	34545.88
509.573	33674.88
510.346	32761.88
511.118	31846.88
511.891	30731.88
512.664	29586.88
513.437	28404.88
514.209	27143.88
514.982	26124.88
515.754	25070.88
516.526	23905.88
517.298	22866.88
518.071	21886.88
518.843	21024.88
519.615	20186.88
520.387	19339.88
521.159	18640.88
521.93	17945.88
522.702	17195.88
523.474	16562.88
524.245	15840.88
525.017	15124.88
525.788	14421.88
526.56	13746.88
527.331	13108.88
528.102	12496.88
528.873	11938.88
529.644	11317.88
530.415	10765.88
531.186	10272.88
531.957	9700.88
532.728	9215.88
533.498	8683.88
534.269	8179.88
535.039	7776.88
535.81	7339.88
536.58	6922.88
537.351	6513.88
538.121	6154.88
538.891	5809.88
539.661	5512.88
540.431	5258.88
541.201	4956.88
541.971	4699.88
542.741	4469.88
543.51	4235.88
544.28	4041.88
545.05	3843.88
545.819	3641.88
546.588	3455.88
547.358	3284.88
548.127	3125.88
548.896	2955.88
549.665	2790.88
550.434	2667.88
551.203	2524.88
551.972	2370.88
552.741	2273.88
553.51	2142.88
554.278	2000.88
555.047	1895.88
555.815	1776.88
556.584	1683.88
557.352	1586.88
558.121	1502.88
558.889	1440.88
559.657	1342.88
560.425	1260.88
561.193	1187.88
561.961	1136.88
562.729	1069.88
563.496	1012.88
564.264	957.88
565.032	909.88
565.799	857.88
566.567	814.88
567.334	771.88
568.101	726.88
568.869	676.88
569.636	648.88
570.403	600.88
571.17	570.88
571.937	543.88
572.704	504.88
573.471	476.88
574.237	456.88
575.004	418.88
575.771	400.88
576.537	381.88
577.303	358.88
578.07	336.88
578.836	317.88
579.602	303.88
580.368	283.88
581.134	269.88
581.9	258.88
582.666	246.88
583.432	232.88
584.198	218.88
584.964	200.88
585.729	195.88
586.495	187.88
587.26	178.88
588.025	170.88
588.791	160.88
589.556	148.88
590.321	141.88
591.086	137.88
591.851	130.88
592.616	126.88
593.381	118.88
594.146	111.88
594.911	108.88
595.675	105.88
596.44	101.88
597.204	90.88
597.969	85.88
598.733	87.88
599.497	83.88
600.261	77.88
601.025	75.88
601.79	72.88
602.553	69.88
603.317	68.88
604.081	63.88
604.845	61.88
605.609	57.88
606.372	54.88
607.136	53.88
607.899	51.88
608.662	49.88
609.426	48.88
610.189	45.88
610.952	42.88
611.715	41.88
612.478	41.88
613.241	39.88
614.004	38.88
614.767	35.88
615.529	34.88
616.292	34.88
617.055	33.88
617.817	32.88
618.579	29.88
619.342	28.88
620.104	28.88
620.866	26.88
621.628	27.88
622.39	26.88
623.152	25.88
623.914	24.88
624.676	23.88
625.438	26.88
626.199	23.88
626.961	21.88
627.722	21.88
628.484	20.88
629.245	21.88
630.006	21.88
630.768	18.88
631.529	14.88
632.29	17.88
633.051	14.88
633.812	16.88
634.573	15.88
635.333	16.88
636.094	17.88
636.855	18.88
637.615	17.88
638.376	15.88
639.136	14.88
639.896	13.88
640.657	12.88
641.417	11.88
642.177	10.88
642.937	10.88
643.697	12.88
644.457	12.88
645.216	12.88
645.976	11.88
646.736	10.88
647.495	12.88
648.255	10.88
649.014	12.88
649.774	10.88
650.533	9.88
651.292	8.88
652.051	7.88
652.81	9.88
653.569	7.88
654.328	11.88
655.087	10.88
655.846	9.88
656.604	10.88
657.363	7.88
658.121	8.88
658.88	9.88
659.638	8.88
660.397	7.88
661.155	8.88
661.913	8.88
662.671	7.88
663.429	6.88
664.187	6.88
664.945	7.88
665.703	6.88
666.46	7.88
667.218	8.88
667.976	6.88
668.733	9.88
669.49	6.88
670.248	5.88
671.005	6.88
671.762	6.88
672.519	8.88
673.276	7.88
674.033	5.88
674.79	5.88
675.547	5.88
676.304	6.88
677.06	7.88
677.817	8.88
678.574	5.88
679.33	5.88
680.086	6.88
680.843	5.88
681.599	6.88
682.355	7.88
683.111	4.88
683.867	5.88
684.623	5.88
685.379	8.88
686.135	5.88
686.89	7.88
687.646	5.88
688.402	3.88
689.157	4.88
689.912	4.88
690.668	6.88
691.423	7.88
692.178	4.88
692.933	7.88
693.688	4.88
694.443	7.88
695.198	4.88
695.953	5.88
696.708	5.88
697.462	6.88
698.217	3.88
698.972	4.88
699.726	4.88
700.48	5.88
701.235	4.88
701.989	5.88
702.743	7.88
703.497	6.88
704.251	8.88
705.005	4.88
705.759	5.88
706.513	4.88
707.266	7.88
708.02	4.88
708.774	6.88
709.527	6.88
710.28	7.88
711.034	4.88
711.787	4.88
712.54	5.88
713.293	4.88
714.046	4.88
714.799	4.88
715.552	4.88
716.305	7.88
717.058	5.88
717.81	6.88
718.563	4.88
719.315	6.88
720.068	7.88
720.82	5.88
721.573	5.88
722.325	4.88
723.077	5.88
723.829	3.88
724.581	4.88
725.333	6.88
726.085	4.88
726.836	6.88
727.588	4.88
728.34	5.88
729.091	6.88
729.843	5.88
730.594	7.88
731.346	4.88
732.097	5.88
732.848	6.88
733.599	4.88
734.35	5.88
735.101	3.88
735.852	8.88
736.603	5.88
737.354	6.88
738.104	5.88
738.855	4.88
739.605	6.88
740.356	7.88
741.106	6.88
741.856	7.88
742.607	7.88
743.357	6.88
744.107	7.88
744.857	8.88
745.607	5.88
746.357	8.88
747.106	7.88
747.856	7.88
748.606	8.88
749.355	7.88
750.105	9.88
750.854	7.88
751.603	7.88
752.353	6.88
753.102	5.88
753.851	10.88
754.6	7.88
755.349	6.88
756.098	10.88
756.847	8.88
757.595	9.88
758.344	7.88
759.093	9.88
759.841	7.88
760.589	8.88
761.338	8.88
762.086	8.88
762.834	10.88
763.582	8.88
764.331	8.88
765.079	9.88
765.826	5.88
766.574	8.88
767.322	8.88
768.07	10.88
768.817	10.88
769.565	10.88
770.312	10.88
771.06	8.88
771.807	11.88
772.554	11.88
773.302	11.88
774.049	9.88
774.796	10.88
775.543	13.88
776.29	9.88
777.036	12.88
777.783	10.88
778.53	10.88
779.276	10.88
780.023	12.88
780.769	12.88
781.516	12.88
782.262	10.88
783.008	11.88
783.754	10.88
784.5	12.88
785.246	10.88
785.992	12.88
786.738	11.88
787.484	9.88
788.23	11.88
788.975	9.88
789.721	10.88
790.466	10.88
791.212	13.88
791.957	11.88
792.702	10.88
793.447	13.88
794.193	8.88
794.938	12.88
795.683	11.88
796.427	11.88
797.172	10.88
797.917	11.88
798.662	10.88
799.406	9.88
800.151	10.88
800.895	10.88
801.64	12.88
802.384	12.88
803.128	8.88
803.872	9.88
804.616	9.88
805.36	8.88
806.104	10.88
806.848	8.88
807.592	7.88
808.336	7.88
809.079	9.88
809.823	10.88
810.566	5.88
811.31	7.88
812.053	8.88
812.796	7.88
813.539	7.88
814.283	7.88
815.026	8.88
815.769	6.88
816.511	7.88
817.254	4.88
817.997	8.88
818.74	5.88
819.482	4.88
820.225	4.88
820.967	6.88
821.71	4.88
822.452	6.88
823.194	6.88
823.936	7.88
824.678	4.88
825.42	5.88
826.162	5.88
826.904	6.88
827.646	6.88
828.388	6.88
829.129	5.88
829.871	5.88
830.612	7.88
831.354	5.88
832.095	4.88
832.836	5.88
833.577	5.88
834.319	5.88
835.06	5.88
835.801	6.88
836.542	3.88
837.282	4.88
838.023	6.88
838.764	4.88
839.504	3.88
840.245	5.88
840.985	4.88
841.726	3.88
842.466	4.88
843.206	4.88
843.946	2.88
844.687	4.88
845.427	3.88
846.166	4.88
846.906	1.88
847.646	5.88
848.386	6.88
849.125	2.88
849.865	3.88
850.605	3.88
851.344	2.88
852.083	3.88
852.823	4.88
853.562	5.88
854.301	3.88
855.04	4.88
855.779	4.88
856.518	1.88
857.257	2.88
857.995	2.88
858.734	0.88
859.473	3.88
860.211	4.88
860.95	1.88
861.688	2.88
862.426	1.88
863.165	1.88
863.903	0.88
864.641	4.88
865.379	2.88
866.117	3.88
866.855	0.88
867.593	3.88
868.33	4.88
869.068	2.88
869.806	4.88
870.543	0.88
871.28	2.88
872.018	1.88
872.755	2.88
873.492	1.88
874.229	1.88
874.967	1.88
875.703	0.88
876.44	0.88
877.177	3.88
877.914	1.88
878.651	0.88
879.387	2.88
880.124	0.88
880.86	1.88
881.597	2.88
882.333	0.88
883.069	1.88
883.806	3.88
884.542	1.88
885.278	1.88
886.014	0.88
886.749	1.88
887.485	0.88
888.221	2.88
888.957	0.88
889.692	-1.12
890.428	1.88
891.163	0.88
891.899	1.88
892.634	-0.12
893.369	-0.12
894.104	2.88
894.839	2.88
895.574	1.88
896.309	2.88
897.044	0.88
897.779	0.88
898.514	-0.12
899.248	2.88
899.983	1.88
900.717	2.88
901.452	3.88
902.186	0.88
902.92	-0.12
903.654	0.88
904.389	-0.12
905.123	-0.12
905.857	0.88
906.59	1.88
907.324	-0.12
908.058	0.88
908.792	-0.12
909.525	0.88
910.259	0.88
910.992	-1.12
911.726	0.88
912.459	1.88
913.192	2.88
913.925	0.88
914.658	-0.12
915.391	1.88
916.124	-1.12
916.857	2.88
917.59	2.88
918.323	0.88
919.055	1.88
919.788	2.88
920.521	1.88
921.253	0.88
921.985	1.88
922.718	0.88
923.45	0.88
924.182	0.88
924.914	-0.12
925.646	0.88
926.378	1.88
927.11	0.88
927.841	-1.12
928.573	-1.12
929.305	1.88
930.036	-0.12
930.768	0.88
931.499	0.88
932.23	1.88
932.962	0.88
933.693	1.88
934.424	2.88
935.155	-0.12
935.886	-0.12
936.617	1.88
937.348	0.88
938.078	0.88
938.809	0.88
939.54	0.88
940.27	-0.12
941.001	3.88
941.731	0.88
942.461	-0.12
943.191	1.88
943.922	2.88
944.652	-1.12
945.382	0.88
946.112	1.88
946.841	2.88
947.571	-1.12
948.301	0.88
949.031	0.88
949.76	0.88
950.49	2.88
951.219	0.88
951.948	-0.12
952.678	0.88
953.407	0.88
954.136	2.88
954.865	0.88
955.594	1.88
956.323	0.88
957.052	1.88
957.78	1.88
958.509	1.88
959.238	1.88
959.966	0.88
960.695	0.88
961.423	0.88
962.151	1.88
962.88	-0.12
963.608	2.88
964.336	0.88
965.064	-0.12
965.792	0.88
966.52	1.88
967.247	2.88
967.975	-1.12
968.703	-1.12
969.43	2.88
970.158	1.88
970.885	2.88
971.613	1.88
972.34	0.88
973.067	2.88
973.794	0.88
974.521	1.88
975.248	0.88
975.975	-0.12
976.702	0.88
977.429	0.88
978.156	0.88
978.882	-0.12
979.609	0.88
980.335	2.88
981.062	0.88
981.788	0.88
982.514	-0.12
983.24	1.88
983.967	0.88
984.693	0.88
985.419	-0.12
986.144	0.88
986.87	2.88
987.596	1.88
988.322	0.88
989.047	0.88
989.773	0.88
990.498	0.88
991.224	0.88
991.949	0.88
992.674	1.88
993.399	-0.12
994.124	0.88
994.849	-0.12
995.574	2.88
996.299	1.88
997.024	0.88
997.749	0.88
998.473	0.88
999.198	-0.12
999.922	-0.12
1000.647	-0.12
1001.371	3.88
1002.095	-2.12
1002.82	-1.12
1003.544	-2.12
1004.268	0.88
1004.992	1.88
1005.716	0.88
1006.439	2.88
1007.163	3.88
1007.887	3.88
1008.611	1.88
1009.334	-0.12
1010.058	2.88
1010.781	0.88
1011.504	-1.12
1012.228	1.88
1012.951	0.88
1013.674	-1.12
1014.397	-0.12
1015.12	1.88
