节点500_425_QEPB04081__583__15-58-00-441.txt的数据

Date: Wed Nov 12 15:58:00 CST 2025
User: PC
Spectrometer: QEPB0408
触发模式: 0
积分时间 (秒): 1.000000E-2
Scans to average: 1
启用暗噪声校正: true
启用非线性校正: false
滑动平均宽度: 0
X轴模式: Wavelengths
Number of Pixels in Spectrum: 1044
>>>>>Begin Spectral Data<<<<<
220.843	2.25
221.644	1.25
222.444	5.25
223.244	5.25
224.045	4.25
224.845	2.25
225.645	4.25
226.445	4.25
227.245	5.25
228.045	5.25
228.845	5.25
229.645	3.25
230.444	4.25
231.244	4.25
232.043	6.25
232.843	7.25
233.642	3.25
234.442	5.25
235.241	4.25
236.04	5.25
236.839	5.25
237.638	5.25
238.437	5.25
239.236	5.25
240.035	8.25
240.833	7.25
241.632	7.25
242.43	7.25
243.229	5.25
244.027	7.25
244.826	6.25
245.624	6.25
246.422	8.25
247.22	10.25
248.018	9.25
248.816	7.25
249.614	9.25
250.412	12.25
251.21	8.25
252.007	8.25
252.805	9.25
253.602	8.25
254.4	7.25
255.197	11.25
255.994	9.25
256.791	13.25
257.589	10.25
258.386	11.25
259.183	11.25
259.979	12.25
260.776	14.25
261.573	13.25
262.37	13.25
263.166	13.25
263.963	12.25
264.759	14.25
265.556	14.25
266.352	14.25
267.148	14.25
267.944	15.25
268.74	17.25
269.536	16.25
270.332	17.25
271.128	16.25
271.924	17.25
272.719	20.25
273.515	20.25
274.311	21.25
275.106	20.25
275.901	21.25
276.697	23.25
277.492	20.25
278.287	22.25
279.082	21.25
279.877	20.25
280.672	19.25
281.467	23.25
282.262	24.25
283.056	20.25
283.851	20.25
284.646	23.25
285.44	21.25
286.234	24.25
287.029	21.25
287.823	24.25
288.617	23.25
289.411	21.25
290.205	23.25
290.999	22.25
291.793	24.25
292.587	21.25
293.381	23.25
294.174	20.25
294.968	21.25
295.761	22.25
296.555	17.25
297.348	20.25
298.141	16.25
298.935	20.25
299.728	17.25
300.521	18.25
301.314	20.25
302.107	17.25
302.899	17.25
303.692	15.25
304.485	15.25
305.277	16.25
306.07	17.25
306.862	18.25
307.655	14.25
308.447	16.25
309.239	14.25
310.031	14.25
310.823	15.25
311.615	12.25
312.407	14.25
313.199	13.25
313.991	12.25
314.783	11.25
315.574	10.25
316.366	12.25
317.157	11.25
317.949	10.25
318.74	10.25
319.531	9.25
320.322	11.25
321.113	8.25
321.904	9.25
322.695	10.25
323.486	11.25
324.277	10.25
325.068	9.25
325.858	10.25
326.649	9.25
327.439	9.25
328.23	9.25
329.02	10.25
329.81	7.25
330.6	8.25
331.391	9.25
332.181	9.25
332.971	9.25
333.76	7.25
334.55	7.25
335.34	9.25
336.13	9.25
336.919	9.25
337.709	7.25
338.498	9.25
339.287	11.25
340.077	9.25
340.866	8.25
341.655	5.25
342.444	9.25
343.233	8.25
344.022	9.25
344.811	6.25
345.6	9.25
346.388	10.25
347.177	8.25
347.965	8.25
348.754	7.25
349.542	5.25
350.33	7.25
351.119	8.25
351.907	5.25
352.695	8.25
353.483	6.25
354.271	7.25
355.059	8.25
355.846	9.25
356.634	4.25
357.422	8.25
358.209	6.25
358.997	6.25
359.784	7.25
360.571	6.25
361.359	6.25
362.146	7.25
362.933	9.25
363.72	7.25
364.507	7.25
365.294	6.25
366.081	7.25
366.867	7.25
367.654	5.25
368.44	6.25
369.227	7.25
370.013	8.25
370.8	5.25
371.586	6.25
372.372	7.25
373.158	6.25
373.944	6.25
374.73	7.25
375.516	7.25
376.302	7.25
377.088	5.25
377.873	7.25
378.659	8.25
379.445	7.25
380.23	5.25
381.015	3.25
381.801	8.25
382.586	9.25
383.371	7.25
384.156	5.25
384.941	6.25
385.726	8.25
386.511	6.25
387.296	9.25
388.08	7.25
388.865	5.25
389.649	9.25
390.434	6.25
391.218	5.25
392.003	7.25
392.787	8.25
393.571	4.25
394.355	6.25
395.139	7.25
395.923	8.25
396.707	8.25
397.491	8.25
398.274	7.25
399.058	8.25
399.842	9.25
400.625	7.25
401.408	10.25
402.192	8.25
402.975	10.25
403.758	10.25
404.541	10.25
405.324	9.25
406.107	11.25
406.89	10.25
407.673	8.25
408.456	10.25
409.238	8.25
410.021	10.25
410.803	8.25
411.586	9.25
412.368	11.25
413.151	12.25
413.933	11.25
414.715	12.25
415.497	11.25
416.279	10.25
417.061	12.25
417.843	13.25
418.624	11.25
419.406	11.25
420.188	11.25
420.969	13.25
421.751	14.25
422.532	15.25
423.313	12.25
424.095	13.25
424.876	17.25
425.657	17.25
426.438	17.25
427.219	15.25
428	14.25
428.78	16.25
429.561	17.25
430.342	17.25
431.122	20.25
431.903	18.25
432.683	23.25
433.464	23.25
434.244	21.25
435.024	22.25
435.804	25.25
436.584	27.25
437.364	25.25
438.144	33.25
438.924	26.25
439.704	31.25
440.483	37.25
441.263	37.25
442.042	37.25
442.822	39.25
443.601	44.25
444.38	47.25
445.16	52.25
445.939	54.25
446.718	59.25
447.497	61.25
448.276	67.25
449.054	74.25
449.833	81.25
450.612	92.25
451.391	102.25
452.169	114.25
452.948	131.25
453.726	134.25
454.504	148.25
455.282	164.25
456.061	186.25
456.839	213.25
457.617	228.25
458.395	255.25
459.172	286.25
459.95	314.25
460.728	353.25
461.506	390.25
462.283	436.25
463.061	476.25
463.838	542.25
464.615	598.25
465.393	662.25
466.17	740.25
466.947	819.25
467.724	903.25
468.501	1008.25
469.278	1092.25
470.055	1213.25
470.831	1345.25
471.608	1487.25
472.385	1627.25
473.161	1798.25
473.938	1964.25
474.714	2157.25
475.49	2371.25
476.266	2607.25
477.043	2868.25
477.819	3118.25
478.595	3446.25
479.371	3725.25
480.146	4039.25
480.922	4433.25
481.698	4827.25
482.473	5267.25
483.249	5704.25
484.024	6229.25
484.8	6770.25
485.575	7334.25
486.35	7964.25
487.126	8608.25
487.901	9360.25
488.676	10118.25
489.451	10938.25
490.225	11881.25
491	12811.25
491.775	13813.25
492.55	14845.25
493.324	15932.25
494.099	17017.25
494.873	18134.25
495.647	19349.25
496.422	20551.25
497.196	21799.25
497.97	23136.25
498.744	24388.25
499.518	25642.25
500.292	26774.25
501.066	27877.25
501.839	29049.25
502.613	29960.25
503.387	30833.25
504.16	31498.25
504.934	31999.25
505.707	32322.25
506.48	32457.25
507.253	32455.25
508.027	32425.25
508.8	32188.25
509.573	31780.25
510.346	31250.25
511.118	30575.25
511.891	29860.25
512.664	28918.25
513.437	27992.25
514.209	27124.25
514.982	26210.25
515.754	25236.25
516.526	24295.25
517.298	23334.25
518.071	22321.25
518.843	21448.25
519.615	20653.25
520.387	19810.25
521.159	19065.25
521.93	18369.25
522.702	17639.25
523.474	16912.25
524.245	16296.25
525.017	15540.25
525.788	14819.25
526.56	14243.25
527.331	13599.25
528.102	12995.25
528.873	12453.25
529.644	11866.25
530.415	11350.25
531.186	10816.25
531.957	10281.25
532.728	9811.25
533.498	9240.25
534.269	8773.25
535.039	8335.25
535.81	7868.25
536.58	7478.25
537.351	7043.25
538.121	6658.25
538.891	6315.25
539.661	5989.25
540.431	5684.25
541.201	5381.25
541.971	5086.25
542.741	4845.25
543.51	4587.25
544.28	4378.25
545.05	4149.25
545.819	3970.25
546.588	3754.25
547.358	3559.25
548.127	3371.25
548.896	3226.25
549.665	3063.25
550.434	2911.25
551.203	2747.25
551.972	2597.25
552.741	2474.25
553.51	2322.25
554.278	2198.25
555.047	2095.25
555.815	1981.25
556.584	1882.25
557.352	1765.25
558.121	1656.25
558.889	1575.25
559.657	1515.25
560.425	1402.25
561.193	1341.25
561.961	1260.25
562.729	1200.25
563.496	1115.25
564.264	1072.25
565.032	1015.25
565.799	970.25
566.567	912.25
567.334	848.25
568.101	810.25
568.869	758.25
569.636	716.25
570.403	680.25
571.17	630.25
571.937	598.25
572.704	571.25
573.471	536.25
574.237	516.25
575.004	476.25
575.771	451.25
576.537	419.25
577.303	396.25
578.07	374.25
578.836	362.25
579.602	331.25
580.368	311.25
581.134	305.25
581.9	290.25
582.666	282.25
583.432	256.25
584.198	247.25
584.964	221.25
585.729	219.25
586.495	205.25
587.26	198.25
588.025	186.25
588.791	178.25
589.556	172.25
590.321	159.25
591.086	153.25
591.851	138.25
592.616	136.25
593.381	129.25
594.146	118.25
594.911	120.25
595.675	107.25
596.44	105.25
597.204	103.25
597.969	98.25
598.733	91.25
599.497	89.25
600.261	81.25
601.025	82.25
601.79	78.25
602.553	71.25
603.317	73.25
604.081	67.25
604.845	65.25
605.609	66.25
606.372	61.25
607.136	58.25
607.899	57.25
608.662	52.25
609.426	50.25
610.189	43.25
610.952	45.25
611.715	45.25
612.478	43.25
613.241	42.25
614.004	38.25
614.767	38.25
615.529	39.25
616.292	35.25
617.055	36.25
617.817	30.25
618.579	34.25
619.342	29.25
620.104	33.25
620.866	31.25
621.628	27.25
622.39	28.25
623.152	22.25
623.914	24.25
624.676	26.25
625.438	24.25
626.199	21.25
626.961	22.25
627.722	23.25
628.484	18.25
629.245	21.25
630.006	18.25
630.768	18.25
631.529	18.25
632.29	19.25
633.051	17.25
633.812	18.25
634.573	16.25
635.333	17.25
636.094	17.25
636.855	14.25
637.615	15.25
638.376	20.25
639.136	14.25
639.896	12.25
640.657	12.25
641.417	10.25
642.177	13.25
642.937	12.25
643.697	9.25
644.457	13.25
645.216	12.25
645.976	14.25
646.736	9.25
647.495	11.25
648.255	10.25
649.014	8.25
649.774	9.25
650.533	9.25
651.292	12.25
652.051	10.25
652.81	10.25
653.569	10.25
654.328	8.25
655.087	9.25
655.846	8.25
656.604	9.25
657.363	8.25
658.121	9.25
658.88	7.25
659.638	7.25
660.397	9.25
661.155	6.25
661.913	9.25
662.671	9.25
663.429	6.25
664.187	7.25
664.945	6.25
665.703	7.25
666.46	10.25
667.218	4.25
667.976	4.25
668.733	6.25
669.49	7.25
670.248	4.25
671.005	7.25
671.762	7.25
672.519	7.25
673.276	5.25
674.033	7.25
674.79	7.25
675.547	7.25
676.304	5.25
677.06	6.25
677.817	3.25
678.574	6.25
679.33	6.25
680.086	4.25
680.843	3.25
681.599	6.25
682.355	5.25
683.111	3.25
683.867	6.25
684.623	4.25
685.379	7.25
686.135	4.25
686.89	2.25
687.646	5.25
688.402	3.25
689.157	6.25
689.912	6.25
690.668	5.25
691.423	4.25
692.178	6.25
692.933	4.25
693.688	5.25
694.443	6.25
695.198	5.25
695.953	4.25
696.708	3.25
697.462	7.25
698.217	2.25
698.972	5.25
699.726	5.25
700.48	4.25
701.235	4.25
701.989	5.25
702.743	4.25
703.497	4.25
704.251	5.25
705.005	2.25
705.759	5.25
706.513	3.25
707.266	5.25
708.02	5.25
708.774	6.25
709.527	5.25
710.28	5.25
711.034	5.25
711.787	5.25
712.54	5.25
713.293	6.25
714.046	3.25
714.799	2.25
715.552	2.25
716.305	3.25
717.058	7.25
717.81	4.25
718.563	4.25
719.315	5.25
720.068	3.25
720.82	3.25
721.573	5.25
722.325	6.25
723.077	6.25
723.829	5.25
724.581	3.25
725.333	3.25
726.085	5.25
726.836	5.25
727.588	4.25
728.34	5.25
729.091	4.25
729.843	6.25
730.594	4.25
731.346	5.25
732.097	2.25
732.848	5.25
733.599	5.25
734.35	4.25
735.101	5.25
735.852	5.25
736.603	4.25
737.354	4.25
738.104	7.25
738.855	5.25
739.605	7.25
740.356	4.25
741.106	5.25
741.856	6.25
742.607	6.25
743.357	4.25
744.107	4.25
744.857	6.25
745.607	7.25
746.357	4.25
747.106	7.25
747.856	4.25
748.606	3.25
749.355	7.25
750.105	5.25
750.854	7.25
751.603	7.25
752.353	7.25
753.102	6.25
753.851	7.25
754.6	8.25
755.349	4.25
756.098	6.25
756.847	6.25
757.595	8.25
758.344	6.25
759.093	7.25
759.841	9.25
760.589	6.25
761.338	9.25
762.086	8.25
762.834	6.25
763.582	8.25
764.331	7.25
765.079	7.25
765.826	8.25
766.574	8.25
767.322	10.25
768.07	8.25
768.817	7.25
769.565	7.25
770.312	11.25
771.06	10.25
771.807	9.25
772.554	9.25
773.302	11.25
774.049	9.25
774.796	8.25
775.543	8.25
776.29	11.25
777.036	8.25
777.783	10.25
778.53	10.25
779.276	10.25
780.023	9.25
780.769	9.25
781.516	10.25
782.262	10.25
783.008	10.25
783.754	9.25
784.5	12.25
785.246	9.25
785.992	10.25
786.738	13.25
787.484	11.25
788.23	10.25
788.975	12.25
789.721	10.25
790.466	11.25
791.212	8.25
791.957	9.25
792.702	10.25
793.447	11.25
794.193	12.25
794.938	8.25
795.683	9.25
796.427	9.25
797.172	10.25
797.917	9.25
798.662	8.25
799.406	9.25
800.151	8.25
800.895	7.25
801.64	6.25
802.384	10.25
803.128	10.25
803.872	8.25
804.616	9.25
805.36	7.25
806.104	7.25
806.848	8.25
807.592	7.25
808.336	8.25
809.079	7.25
809.823	8.25
810.566	8.25
811.31	8.25
812.053	8.25
812.796	5.25
813.539	7.25
814.283	4.25
815.026	4.25
815.769	7.25
816.511	6.25
817.254	6.25
817.997	8.25
818.74	4.25
819.482	5.25
820.225	3.25
820.967	6.25
821.71	5.25
822.452	4.25
823.194	4.25
823.936	7.25
824.678	4.25
825.42	5.25
826.162	4.25
826.904	5.25
827.646	7.25
828.388	5.25
829.129	6.25
829.871	4.25
830.612	2.25
831.354	4.25
832.095	5.25
832.836	4.25
833.577	4.25
834.319	4.25
835.06	4.25
835.801	6.25
836.542	6.25
837.282	6.25
838.023	5.25
838.764	4.25
839.504	3.25
840.245	4.25
840.985	4.25
841.726	5.25
842.466	2.25
843.206	3.25
843.946	2.25
844.687	2.25
845.427	2.25
846.166	5.25
846.906	3.25
847.646	4.25
848.386	3.25
849.125	3.25
849.865	3.25
850.605	3.25
851.344	3.25
852.083	3.25
852.823	4.25
853.562	4.25
854.301	2.25
855.04	3.25
855.779	4.25
856.518	3.25
857.257	3.25
857.995	3.25
858.734	3.25
859.473	2.25
860.211	1.25
860.95	1.25
861.688	4.25
862.426	1.25
863.165	3.25
863.903	1.25
864.641	1.25
865.379	2.25
866.117	2.25
866.855	3.25
867.593	2.25
868.33	1.25
869.068	2.25
869.806	1.25
870.543	3.25
871.28	2.25
872.018	3.25
872.755	1.25
873.492	1.25
874.229	3.25
874.967	-0.75
875.703	2.25
876.44	1.25
877.177	2.25
877.914	1.25
878.651	2.25
879.387	-1.75
880.124	2.25
880.86	2.25
881.597	1.25
882.333	1.25
883.069	3.25
883.806	2.25
884.542	2.25
885.278	0.25
886.014	1.25
886.749	2.25
887.485	1.25
888.221	1.25
888.957	3.25
889.692	0.25
890.428	1.25
891.163	1.25
891.899	0.25
892.634	-0.75
893.369	0.25
894.104	1.25
894.839	3.25
895.574	1.25
896.309	2.25
897.044	-0.75
897.779	-0.75
898.514	0.25
899.248	-1.75
899.983	4.25
900.717	1.25
901.452	-0.75
902.186	1.25
902.92	-0.75
903.654	1.25
904.389	0.25
905.123	-0.75
905.857	-0.75
906.59	1.25
907.324	2.25
908.058	-1.75
908.792	0.25
909.525	1.25
910.259	1.25
910.992	1.25
911.726	0.25
912.459	1.25
913.192	0.25
913.925	2.25
914.658	-0.75
915.391	-0.75
916.124	-1.75
916.857	2.25
917.59	2.25
918.323	0.25
919.055	1.25
919.788	1.25
920.521	1.25
921.253	0.25
921.985	1.25
922.718	1.25
923.45	3.25
924.182	-2.75
924.914	1.25
925.646	-1.75
926.378	-1.75
927.11	0.25
927.841	0.25
928.573	1.25
929.305	-1.75
930.036	2.25
930.768	-0.75
931.499	0.25
932.23	0.25
932.962	-0.75
933.693	0.25
934.424	0.25
935.155	-0.75
935.886	0.25
936.617	0.25
937.348	1.25
938.078	1.25
938.809	1.25
939.54	-0.75
940.27	-0.75
941.001	-1.75
941.731	0.25
942.461	0.25
943.191	1.25
943.922	2.25
944.652	1.25
945.382	0.25
946.112	2.25
946.841	-0.75
947.571	1.25
948.301	-1.75
949.031	2.25
949.76	0.25
950.49	0.25
951.219	1.25
951.948	-0.75
952.678	0.25
953.407	0.25
954.136	-0.75
954.865	1.25
955.594	-0.75
956.323	2.25
957.052	0.25
957.78	2.25
958.509	-1.75
959.238	-0.75
959.966	0.25
960.695	1.25
961.423	-0.75
962.151	-0.75
962.88	0.25
963.608	-1.75
964.336	-1.75
965.064	0.25
965.792	-0.75
966.52	0.25
967.247	-0.75
967.975	-0.75
968.703	0.25
969.43	-0.75
970.158	0.25
970.885	1.25
971.613	0.25
972.34	-1.75
973.067	-1.75
973.794	0.25
974.521	-1.75
975.248	3.25
975.975	-2.75
976.702	0.25
977.429	1.25
978.156	-1.75
978.882	1.25
979.609	-0.75
980.335	-0.75
981.062	0.25
981.788	0.25
982.514	-0.75
983.24	0.25
983.967	-1.75
984.693	0.25
985.419	1.25
986.144	1.25
986.87	0.25
987.596	-0.75
988.322	-0.75
989.047	1.25
989.773	1.25
990.498	0.25
991.224	0.25
991.949	-0.75
992.674	1.25
993.399	-0.75
994.124	2.25
994.849	1.25
995.574	-0.75
996.299	-0.75
997.024	1.25
997.749	0.25
998.473	1.25
999.198	1.25
999.922	0.25
1000.647	1.25
1001.371	3.25
1002.095	-0.75
1002.82	-1.75
1003.544	-1.75
1004.268	3.25
1004.992	-2.75
1005.716	2.25
1006.439	2.25
1007.163	2.25
1007.887	0.25
1008.611	2.25
1009.334	-0.75
1010.058	0.25
1010.781	3.25
1011.504	-1.75
1012.228	0.25
1012.951	0.25
1013.674	-0.75
1014.397	1.25
1015.12	0.25
