节点500_425_QEPB04081__210__15-51-48-099.txt的数据

Date: Wed Nov 12 15:51:48 CST 2025
User: PC
Spectrometer: QEPB0408
触发模式: 0
积分时间 (秒): 1.000000E-2
Scans to average: 1
启用暗噪声校正: true
启用非线性校正: false
滑动平均宽度: 0
X轴模式: Wavelengths
Number of Pixels in Spectrum: 1044
>>>>>Begin Spectral Data<<<<<
220.843	4.75
221.644	0.75
222.444	2.75
223.244	2.75
224.045	2.75
224.845	1.75
225.645	4.75
226.445	4.75
227.245	4.75
228.045	3.75
228.845	5.75
229.645	3.75
230.444	5.75
231.244	5.75
232.043	4.75
232.843	3.75
233.642	4.75
234.442	4.75
235.241	3.75
236.04	4.75
236.839	5.75
237.638	4.75
238.437	7.75
239.236	5.75
240.035	5.75
240.833	5.75
241.632	7.75
242.43	5.75
243.229	5.75
244.027	7.75
244.826	7.75
245.624	8.75
246.422	8.75
247.22	7.75
248.018	7.75
248.816	5.75
249.614	8.75
250.412	9.75
251.21	8.75
252.007	7.75
252.805	9.75
253.602	11.75
254.4	11.75
255.197	10.75
255.994	11.75
256.791	11.75
257.589	11.75
258.386	13.75
259.183	12.75
259.979	11.75
260.776	16.75
261.573	15.75
262.37	15.75
263.166	16.75
263.963	15.75
264.759	16.75
265.556	14.75
266.352	16.75
267.148	17.75
267.944	18.75
268.74	19.75
269.536	19.75
270.332	19.75
271.128	23.75
271.924	20.75
272.719	22.75
273.515	19.75
274.311	25.75
275.106	21.75
275.901	22.75
276.697	21.75
277.492	22.75
278.287	24.75
279.082	24.75
279.877	23.75
280.672	22.75
281.467	25.75
282.262	26.75
283.056	23.75
283.851	23.75
284.646	24.75
285.44	26.75
286.234	24.75
287.029	24.75
287.823	23.75
288.617	24.75
289.411	23.75
290.205	21.75
290.999	26.75
291.793	22.75
292.587	22.75
293.381	21.75
294.174	23.75
294.968	21.75
295.761	18.75
296.555	20.75
297.348	20.75
298.141	19.75
298.935	21.75
299.728	15.75
300.521	20.75
301.314	16.75
302.107	16.75
302.899	15.75
303.692	11.75
304.485	15.75
305.277	13.75
306.07	16.75
306.862	15.75
307.655	16.75
308.447	17.75
309.239	12.75
310.031	14.75
310.823	15.75
311.615	14.75
312.407	12.75
313.199	10.75
313.991	11.75
314.783	11.75
315.574	9.75
316.366	11.75
317.157	8.75
317.949	10.75
318.74	9.75
319.531	9.75
320.322	9.75
321.113	8.75
321.904	10.75
322.695	6.75
323.486	9.75
324.277	6.75
325.068	9.75
325.858	7.75
326.649	7.75
327.439	6.75
328.23	7.75
329.02	8.75
329.81	7.75
330.6	7.75
331.391	9.75
332.181	6.75
332.971	7.75
333.76	6.75
334.55	9.75
335.34	9.75
336.13	5.75
336.919	9.75
337.709	8.75
338.498	8.75
339.287	8.75
340.077	7.75
340.866	6.75
341.655	7.75
342.444	10.75
343.233	6.75
344.022	8.75
344.811	8.75
345.6	9.75
346.388	4.75
347.177	5.75
347.965	10.75
348.754	8.75
349.542	8.75
350.33	7.75
351.119	9.75
351.907	5.75
352.695	6.75
353.483	5.75
354.271	5.75
355.059	4.75
355.846	9.75
356.634	7.75
357.422	6.75
358.209	6.75
358.997	6.75
359.784	7.75
360.571	5.75
361.359	8.75
362.146	4.75
362.933	6.75
363.72	6.75
364.507	5.75
365.294	5.75
366.081	7.75
366.867	5.75
367.654	5.75
368.44	5.75
369.227	7.75
370.013	7.75
370.8	5.75
371.586	6.75
372.372	5.75
373.158	5.75
373.944	8.75
374.73	6.75
375.516	8.75
376.302	6.75
377.088	6.75
377.873	4.75
378.659	7.75
379.445	4.75
380.23	6.75
381.015	7.75
381.801	7.75
382.586	6.75
383.371	6.75
384.156	6.75
384.941	6.75
385.726	7.75
386.511	4.75
387.296	7.75
388.08	6.75
388.865	6.75
389.649	7.75
390.434	8.75
391.218	8.75
392.003	7.75
392.787	7.75
393.571	8.75
394.355	8.75
395.139	8.75
395.923	7.75
396.707	7.75
397.491	7.75
398.274	8.75
399.058	9.75
399.842	9.75
400.625	9.75
401.408	7.75
402.192	9.75
402.975	10.75
403.758	9.75
404.541	13.75
405.324	8.75
406.107	9.75
406.89	7.75
407.673	9.75
408.456	9.75
409.238	10.75
410.021	11.75
410.803	10.75
411.586	12.75
412.368	10.75
413.151	10.75
413.933	10.75
414.715	12.75
415.497	10.75
416.279	11.75
417.061	12.75
417.843	14.75
418.624	13.75
419.406	14.75
420.188	11.75
420.969	15.75
421.751	13.75
422.532	12.75
423.313	13.75
424.095	13.75
424.876	16.75
425.657	16.75
426.438	14.75
427.219	16.75
428	13.75
428.78	17.75
429.561	13.75
430.342	20.75
431.122	20.75
431.903	20.75
432.683	21.75
433.464	20.75
434.244	21.75
435.024	22.75
435.804	26.75
436.584	27.75
437.364	27.75
438.144	30.75
438.924	29.75
439.704	32.75
440.483	33.75
441.263	36.75
442.042	35.75
442.822	38.75
443.601	40.75
444.38	46.75
445.16	45.75
445.939	52.75
446.718	57.75
447.497	63.75
448.276	63.75
449.054	66.75
449.833	78.75
450.612	78.75
451.391	91.75
452.169	97.75
452.948	108.75
453.726	121.75
454.504	134.75
455.282	144.75
456.061	163.75
456.839	179.75
457.617	203.75
458.395	224.75
459.172	249.75
459.95	273.75
460.728	315.75
461.506	342.75
462.283	389.75
463.061	434.75
463.838	490.75
464.615	554.75
465.393	610.75
466.17	676.75
466.947	758.75
467.724	837.75
468.501	942.75
469.278	1049.75
470.055	1156.75
470.831	1272.75
471.608	1426.75
472.385	1589.75
473.161	1756.75
473.938	1935.75
474.714	2126.75
475.49	2365.75
476.266	2600.75
477.043	2904.75
477.819	3202.75
478.595	3524.75
479.371	3875.75
480.146	4261.75
480.922	4661.75
481.698	5140.75
482.473	5653.75
483.249	6188.75
484.024	6803.75
484.8	7492.75
485.575	8174.75
486.35	8906.75
487.126	9732.75
487.901	10577.75
488.676	11656.75
489.451	12653.75
490.225	13704.75
491	14930.75
491.775	16179.75
492.55	17447.75
493.324	18864.75
494.099	20198.75
494.873	21526.75
495.647	23038.75
496.422	24518.75
497.196	26055.75
497.97	27551.75
498.744	28896.75
499.518	30300.75
500.292	31554.75
501.066	32636.75
501.839	33766.75
502.613	34712.75
503.387	35331.75
504.16	35860.75
504.934	35998.75
505.707	36021.75
506.48	35872.75
507.253	35578.75
508.027	35108.75
508.8	34391.75
509.573	33609.75
510.346	32735.75
511.118	31751.75
511.891	30693.75
512.664	29561.75
513.437	28324.75
514.209	27125.75
514.982	26090.75
515.754	25081.75
516.526	23928.75
517.298	22954.75
518.071	21959.75
518.843	21045.75
519.615	20212.75
520.387	19371.75
521.159	18641.75
521.93	17980.75
522.702	17211.75
523.474	16589.75
524.245	15901.75
525.017	15125.75
525.788	14448.75
526.56	13766.75
527.331	13124.75
528.102	12577.75
528.873	11913.75
529.644	11362.75
530.415	10821.75
531.186	10316.75
531.957	9765.75
532.728	9202.75
533.498	8716.75
534.269	8211.75
535.039	7791.75
535.81	7366.75
536.58	6921.75
537.351	6553.75
538.121	6191.75
538.891	5864.75
539.661	5546.75
540.431	5287.75
541.201	4987.75
541.971	4716.75
542.741	4474.75
543.51	4245.75
544.28	4042.75
545.05	3831.75
545.819	3671.75
546.588	3477.75
547.358	3293.75
548.127	3119.75
548.896	2963.75
549.665	2804.75
550.434	2661.75
551.203	2526.75
551.972	2412.75
552.741	2266.75
553.51	2140.75
554.278	2010.75
555.047	1915.75
555.815	1793.75
556.584	1697.75
557.352	1608.75
558.121	1507.75
558.889	1434.75
559.657	1348.75
560.425	1262.75
561.193	1205.75
561.961	1143.75
562.729	1078.75
563.496	1000.75
564.264	976.75
565.032	907.75
565.799	861.75
566.567	809.75
567.334	772.75
568.101	728.75
568.869	681.75
569.636	642.75
570.403	600.75
571.17	568.75
571.937	538.75
572.704	521.75
573.471	486.75
574.237	463.75
575.004	425.75
575.771	404.75
576.537	372.75
577.303	353.75
578.07	329.75
578.836	318.75
579.602	303.75
580.368	284.75
581.134	269.75
581.9	260.75
582.666	243.75
583.432	231.75
584.198	212.75
584.964	202.75
585.729	197.75
586.495	186.75
587.26	173.75
588.025	165.75
588.791	160.75
589.556	148.75
590.321	145.75
591.086	136.75
591.851	127.75
592.616	124.75
593.381	118.75
594.146	107.75
594.911	106.75
595.675	100.75
596.44	93.75
597.204	91.75
597.969	89.75
598.733	89.75
599.497	77.75
600.261	76.75
601.025	73.75
601.79	68.75
602.553	66.75
603.317	66.75
604.081	57.75
604.845	60.75
605.609	56.75
606.372	54.75
607.136	55.75
607.899	49.75
608.662	46.75
609.426	44.75
610.189	43.75
610.952	43.75
611.715	41.75
612.478	38.75
613.241	36.75
614.004	37.75
614.767	34.75
615.529	31.75
616.292	34.75
617.055	31.75
617.817	30.75
618.579	30.75
619.342	28.75
620.104	27.75
620.866	27.75
621.628	27.75
622.39	26.75
623.152	24.75
623.914	24.75
624.676	22.75
625.438	22.75
626.199	21.75
626.961	20.75
627.722	20.75
628.484	19.75
629.245	19.75
630.006	19.75
630.768	18.75
631.529	14.75
632.29	14.75
633.051	12.75
633.812	14.75
634.573	16.75
635.333	15.75
636.094	13.75
636.855	12.75
637.615	12.75
638.376	11.75
639.136	12.75
639.896	11.75
640.657	9.75
641.417	13.75
642.177	13.75
642.937	10.75
643.697	10.75
644.457	11.75
645.216	12.75
645.976	10.75
646.736	10.75
647.495	11.75
648.255	9.75
649.014	9.75
649.774	8.75
650.533	8.75
651.292	9.75
652.051	9.75
652.81	9.75
653.569	7.75
654.328	8.75
655.087	5.75
655.846	7.75
656.604	8.75
657.363	6.75
658.121	6.75
658.88	7.75
659.638	9.75
660.397	9.75
661.155	9.75
661.913	6.75
662.671	7.75
663.429	6.75
664.187	5.75
664.945	7.75
665.703	7.75
666.46	2.75
667.218	4.75
667.976	6.75
668.733	4.75
669.49	6.75
670.248	4.75
671.005	6.75
671.762	5.75
672.519	6.75
673.276	5.75
674.033	5.75
674.79	5.75
675.547	4.75
676.304	8.75
677.06	4.75
677.817	6.75
678.574	4.75
679.33	4.75
680.086	5.75
680.843	2.75
681.599	5.75
682.355	5.75
683.111	3.75
683.867	5.75
684.623	6.75
685.379	3.75
686.135	5.75
686.89	4.75
687.646	3.75
688.402	4.75
689.157	5.75
689.912	5.75
690.668	3.75
691.423	6.75
692.178	3.75
692.933	5.75
693.688	2.75
694.443	5.75
695.198	6.75
695.953	5.75
696.708	6.75
697.462	4.75
698.217	4.75
698.972	3.75
699.726	4.75
700.48	3.75
701.235	3.75
701.989	5.75
702.743	4.75
703.497	5.75
704.251	2.75
705.005	6.75
705.759	2.75
706.513	4.75
707.266	3.75
708.02	1.75
708.774	4.75
709.527	3.75
710.28	4.75
711.034	5.75
711.787	1.75
712.54	5.75
713.293	4.75
714.046	4.75
714.799	4.75
715.552	2.75
716.305	6.75
717.058	5.75
717.81	6.75
718.563	7.75
719.315	6.75
720.068	5.75
720.82	3.75
721.573	5.75
722.325	5.75
723.077	4.75
723.829	6.75
724.581	5.75
725.333	5.75
726.085	3.75
726.836	3.75
727.588	4.75
728.34	0.75
729.091	4.75
729.843	5.75
730.594	5.75
731.346	3.75
732.097	5.75
732.848	5.75
733.599	5.75
734.35	5.75
735.101	5.75
735.852	6.75
736.603	4.75
737.354	3.75
738.104	5.75
738.855	4.75
739.605	6.75
740.356	6.75
741.106	5.75
741.856	4.75
742.607	4.75
743.357	7.75
744.107	7.75
744.857	5.75
745.607	4.75
746.357	7.75
747.106	5.75
747.856	4.75
748.606	5.75
749.355	5.75
750.105	7.75
750.854	7.75
751.603	6.75
752.353	7.75
753.102	6.75
753.851	7.75
754.6	7.75
755.349	7.75
756.098	8.75
756.847	5.75
757.595	5.75
758.344	7.75
759.093	6.75
759.841	9.75
760.589	8.75
761.338	9.75
762.086	6.75
762.834	8.75
763.582	7.75
764.331	9.75
765.079	9.75
765.826	11.75
766.574	8.75
767.322	7.75
768.07	10.75
768.817	7.75
769.565	6.75
770.312	7.75
771.06	9.75
771.807	11.75
772.554	7.75
773.302	9.75
774.049	9.75
774.796	9.75
775.543	12.75
776.29	11.75
777.036	10.75
777.783	11.75
778.53	10.75
779.276	9.75
780.023	10.75
780.769	7.75
781.516	12.75
782.262	10.75
783.008	12.75
783.754	10.75
784.5	11.75
785.246	8.75
785.992	9.75
786.738	10.75
787.484	9.75
788.23	10.75
788.975	9.75
789.721	12.75
790.466	11.75
791.212	11.75
791.957	10.75
792.702	10.75
793.447	12.75
794.193	8.75
794.938	11.75
795.683	8.75
796.427	10.75
797.172	9.75
797.917	9.75
798.662	10.75
799.406	10.75
800.151	7.75
800.895	5.75
801.64	7.75
802.384	7.75
803.128	7.75
803.872	7.75
804.616	7.75
805.36	5.75
806.104	9.75
806.848	8.75
807.592	8.75
808.336	8.75
809.079	7.75
809.823	5.75
810.566	7.75
811.31	7.75
812.053	5.75
812.796	6.75
813.539	5.75
814.283	8.75
815.026	6.75
815.769	5.75
816.511	6.75
817.254	4.75
817.997	4.75
818.74	6.75
819.482	4.75
820.225	5.75
820.967	4.75
821.71	4.75
822.452	5.75
823.194	3.75
823.936	4.75
824.678	2.75
825.42	5.75
826.162	0.75
826.904	7.75
827.646	3.75
828.388	4.75
829.129	5.75
829.871	2.75
830.612	6.75
831.354	3.75
832.095	4.75
832.836	3.75
833.577	4.75
834.319	5.75
835.06	2.75
835.801	4.75
836.542	4.75
837.282	3.75
838.023	6.75
838.764	3.75
839.504	2.75
840.245	2.75
840.985	3.75
841.726	2.75
842.466	2.75
843.206	3.75
843.946	1.75
844.687	3.75
845.427	0.75
846.166	2.75
846.906	5.75
847.646	1.75
848.386	5.75
849.125	1.75
849.865	4.75
850.605	2.75
851.344	3.75
852.083	2.75
852.823	0.75
853.562	3.75
854.301	1.75
855.04	0.75
855.779	1.75
856.518	1.75
857.257	3.75
857.995	0.75
858.734	0.75
859.473	4.75
860.211	3.75
860.95	2.75
861.688	2.75
862.426	2.75
863.165	0.75
863.903	0.75
864.641	0.75
865.379	1.75
866.117	1.75
866.855	2.75
867.593	2.75
868.33	1.75
869.068	-0.25
869.806	0.75
870.543	2.75
871.28	-1.25
872.018	1.75
872.755	2.75
873.492	0.75
874.229	0.75
874.967	3.75
875.703	-0.25
876.44	-2.25
877.177	2.75
877.914	0.75
878.651	1.75
879.387	1.75
880.124	-0.25
880.86	2.75
881.597	-2.25
882.333	1.75
883.069	1.75
883.806	1.75
884.542	-0.25
885.278	-0.25
886.014	2.75
886.749	1.75
887.485	-1.25
888.221	-0.25
888.957	-0.25
889.692	1.75
890.428	0.75
891.163	-0.25
891.899	-0.25
892.634	2.75
893.369	-1.25
894.104	1.75
894.839	-0.25
895.574	-0.25
896.309	-0.25
897.044	0.75
897.779	-0.25
898.514	1.75
899.248	-0.25
899.983	-0.25
900.717	0.75
901.452	-0.25
902.186	-0.25
902.92	-0.25
903.654	-1.25
904.389	1.75
905.123	-0.25
905.857	0.75
906.59	0.75
907.324	-0.25
908.058	-1.25
908.792	1.75
909.525	-0.25
910.259	-0.25
910.992	-0.25
911.726	-0.25
912.459	-1.25
913.192	-2.25
913.925	1.75
914.658	-0.25
915.391	-1.25
916.124	-0.25
916.857	-0.25
917.59	-0.25
918.323	-2.25
919.055	-1.25
919.788	-0.25
920.521	-0.25
921.253	0.75
921.985	1.75
922.718	-0.25
923.45	-0.25
924.182	1.75
924.914	1.75
925.646	0.75
926.378	-0.25
927.11	-2.25
927.841	-0.25
928.573	-2.25
929.305	-1.25
930.036	-3.25
930.768	-0.25
931.499	1.75
932.23	-0.25
932.962	-0.25
933.693	-2.25
934.424	1.75
935.155	-1.25
935.886	-3.25
936.617	0.75
937.348	-1.25
938.078	-0.25
938.809	0.75
939.54	1.75
940.27	-1.25
941.001	-0.25
941.731	-1.25
942.461	-1.25
943.191	-1.25
943.922	-0.25
944.652	-1.25
945.382	0.75
946.112	-2.25
946.841	-1.25
947.571	-0.25
948.301	0.75
949.031	1.75
949.76	-0.25
950.49	-2.25
951.219	-1.25
951.948	1.75
952.678	-2.25
953.407	0.75
954.136	-0.25
954.865	1.75
955.594	1.75
956.323	0.75
957.052	1.75
957.78	-1.25
958.509	-2.25
959.238	0.75
959.966	-2.25
960.695	-0.25
961.423	-0.25
962.151	0.75
962.88	0.75
963.608	0.75
964.336	1.75
965.064	-0.25
965.792	-0.25
966.52	-0.25
967.247	-2.25
967.975	1.75
968.703	0.75
969.43	1.75
970.158	-0.25
970.885	0.75
971.613	1.75
972.34	-1.25
973.067	0.75
973.794	-1.25
974.521	1.75
975.248	-0.25
975.975	-1.25
976.702	-0.25
977.429	-0.25
978.156	0.75
978.882	-1.25
979.609	-1.25
980.335	1.75
981.062	-1.25
981.788	0.75
982.514	-2.25
983.24	3.75
983.967	0.75
984.693	-1.25
985.419	-0.25
986.144	-0.25
986.87	-1.25
987.596	-2.25
988.322	-0.25
989.047	-1.25
989.773	-1.25
990.498	-0.25
991.224	-0.25
991.949	1.75
992.674	2.75
993.399	0.75
994.124	0.75
994.849	-2.25
995.574	-0.25
996.299	-0.25
997.024	-1.25
997.749	-0.25
998.473	0.75
999.198	0.75
999.922	-2.25
1000.647	1.75
1001.371	1.75
1002.095	-0.25
1002.82	-0.25
1003.544	-1.25
1004.268	-0.25
1004.992	0.75
1005.716	1.75
1006.439	3.75
1007.163	1.75
1007.887	1.75
1008.611	0.75
1009.334	-2.25
1010.058	0.75
1010.781	-1.25
1011.504	0.75
1012.228	-2.25
1012.951	0.75
1013.674	-0.25
1014.397	-0.25
1015.12	-0.25
