节点500_425_QEPB04081__108__15-50-06-312.txt的数据

Date: Wed Nov 12 15:50:06 CST 2025
User: PC
Spectrometer: QEPB0408
触发模式: 0
积分时间 (秒): 1.000000E-2
Scans to average: 1
启用暗噪声校正: true
启用非线性校正: false
滑动平均宽度: 0
X轴模式: Wavelengths
Number of Pixels in Spectrum: 1044
>>>>>Begin Spectral Data<<<<<
220.843	5.38
221.644	2.38
222.444	4.38
223.244	2.38
224.045	3.38
224.845	4.38
225.645	3.38
226.445	5.38
227.245	3.38
228.045	5.38
228.845	6.38
229.645	7.38
230.444	6.38
231.244	6.38
232.043	5.38
232.843	8.38
233.642	5.38
234.442	6.38
235.241	5.38
236.04	7.38
236.839	4.38
237.638	7.38
238.437	6.38
239.236	6.38
240.035	10.38
240.833	6.38
241.632	7.38
242.43	7.38
243.229	7.38
244.027	10.38
244.826	6.38
245.624	7.38
246.422	8.38
247.22	9.38
248.018	12.38
248.816	10.38
249.614	11.38
250.412	8.38
251.21	11.38
252.007	12.38
252.805	11.38
253.602	11.38
254.4	13.38
255.197	15.38
255.994	13.38
256.791	15.38
257.589	13.38
258.386	12.38
259.183	15.38
259.979	14.38
260.776	16.38
261.573	16.38
262.37	14.38
263.166	15.38
263.963	17.38
264.759	19.38
265.556	18.38
266.352	15.38
267.148	18.38
267.944	23.38
268.74	21.38
269.536	17.38
270.332	23.38
271.128	22.38
271.924	21.38
272.719	25.38
273.515	24.38
274.311	22.38
275.106	24.38
275.901	25.38
276.697	24.38
277.492	25.38
278.287	26.38
279.082	24.38
279.877	25.38
280.672	24.38
281.467	27.38
282.262	25.38
283.056	26.38
283.851	29.38
284.646	25.38
285.44	24.38
286.234	28.38
287.029	25.38
287.823	23.38
288.617	27.38
289.411	25.38
290.205	26.38
290.999	25.38
291.793	25.38
292.587	25.38
293.381	24.38
294.174	23.38
294.968	22.38
295.761	18.38
296.555	21.38
297.348	15.38
298.141	22.38
298.935	23.38
299.728	20.38
300.521	20.38
301.314	18.38
302.107	17.38
302.899	16.38
303.692	15.38
304.485	17.38
305.277	17.38
306.07	17.38
306.862	16.38
307.655	16.38
308.447	14.38
309.239	14.38
310.031	15.38
310.823	14.38
311.615	17.38
312.407	12.38
313.199	14.38
313.991	13.38
314.783	12.38
315.574	9.38
316.366	11.38
317.157	14.38
317.949	12.38
318.74	10.38
319.531	13.38
320.322	10.38
321.113	11.38
321.904	10.38
322.695	6.38
323.486	9.38
324.277	8.38
325.068	9.38
325.858	9.38
326.649	10.38
327.439	8.38
328.23	9.38
329.02	8.38
329.81	10.38
330.6	10.38
331.391	9.38
332.181	10.38
332.971	10.38
333.76	9.38
334.55	8.38
335.34	10.38
336.13	8.38
336.919	9.38
337.709	9.38
338.498	11.38
339.287	9.38
340.077	8.38
340.866	5.38
341.655	9.38
342.444	7.38
343.233	7.38
344.022	6.38
344.811	11.38
345.6	10.38
346.388	7.38
347.177	6.38
347.965	8.38
348.754	9.38
349.542	8.38
350.33	8.38
351.119	7.38
351.907	10.38
352.695	8.38
353.483	6.38
354.271	6.38
355.059	7.38
355.846	5.38
356.634	8.38
357.422	9.38
358.209	5.38
358.997	9.38
359.784	8.38
360.571	8.38
361.359	9.38
362.146	9.38
362.933	6.38
363.72	7.38
364.507	9.38
365.294	8.38
366.081	6.38
366.867	8.38
367.654	3.38
368.44	7.38
369.227	5.38
370.013	7.38
370.8	8.38
371.586	7.38
372.372	10.38
373.158	8.38
373.944	8.38
374.73	5.38
375.516	6.38
376.302	7.38
377.088	8.38
377.873	6.38
378.659	7.38
379.445	7.38
380.23	7.38
381.015	5.38
381.801	6.38
382.586	9.38
383.371	6.38
384.156	7.38
384.941	7.38
385.726	7.38
386.511	7.38
387.296	7.38
388.08	10.38
388.865	6.38
389.649	7.38
390.434	9.38
391.218	9.38
392.003	9.38
392.787	9.38
393.571	6.38
394.355	7.38
395.139	8.38
395.923	8.38
396.707	8.38
397.491	8.38
398.274	10.38
399.058	9.38
399.842	8.38
400.625	10.38
401.408	9.38
402.192	8.38
402.975	9.38
403.758	8.38
404.541	11.38
405.324	9.38
406.107	13.38
406.89	10.38
407.673	9.38
408.456	12.38
409.238	10.38
410.021	13.38
410.803	10.38
411.586	11.38
412.368	11.38
413.151	12.38
413.933	11.38
414.715	10.38
415.497	14.38
416.279	12.38
417.061	13.38
417.843	13.38
418.624	10.38
419.406	14.38
420.188	14.38
420.969	14.38
421.751	17.38
422.532	16.38
423.313	15.38
424.095	14.38
424.876	16.38
425.657	17.38
426.438	18.38
427.219	16.38
428	16.38
428.78	20.38
429.561	17.38
430.342	20.38
431.122	20.38
431.903	21.38
432.683	21.38
433.464	23.38
434.244	22.38
435.024	22.38
435.804	23.38
436.584	29.38
437.364	29.38
438.144	31.38
438.924	33.38
439.704	33.38
440.483	34.38
441.263	36.38
442.042	39.38
442.822	38.38
443.601	39.38
444.38	45.38
445.16	45.38
445.939	52.38
446.718	50.38
447.497	57.38
448.276	61.38
449.054	71.38
449.833	80.38
450.612	83.38
451.391	88.38
452.169	100.38
452.948	108.38
453.726	117.38
454.504	126.38
455.282	142.38
456.061	157.38
456.839	173.38
457.617	188.38
458.395	220.38
459.172	240.38
459.95	274.38
460.728	299.38
461.506	343.38
462.283	381.38
463.061	423.38
463.838	478.38
464.615	529.38
465.393	595.38
466.17	664.38
466.947	737.38
467.724	827.38
468.501	921.38
469.278	1027.38
470.055	1131.38
470.831	1253.38
471.608	1397.38
472.385	1564.38
473.161	1752.38
473.938	1942.38
474.714	2131.38
475.49	2376.38
476.266	2627.38
477.043	2897.38
477.819	3213.38
478.595	3534.38
479.371	3927.38
480.146	4326.38
480.922	4732.38
481.698	5229.38
482.473	5767.38
483.249	6289.38
484.024	7004.38
484.8	7661.38
485.575	8385.38
486.35	9178.38
487.126	10046.38
487.901	10965.38
488.676	11991.38
489.451	13134.38
490.225	14248.38
491	15511.38
491.775	16898.38
492.55	18216.38
493.324	19664.38
494.099	21096.38
494.873	22517.38
495.647	24049.38
496.422	25655.38
497.196	27195.38
497.97	28873.38
498.744	30206.38
499.518	31641.38
500.292	32889.38
501.066	34064.38
501.839	35039.38
502.613	35892.38
503.387	36431.38
504.16	36894.38
504.934	37030.38
505.707	36993.38
506.48	36670.38
507.253	36146.38
508.027	35621.38
508.8	34850.38
509.573	33979.38
510.346	32940.38
511.118	31903.38
511.891	30706.38
512.664	29546.38
513.437	28286.38
514.209	27074.38
514.982	26030.38
515.754	24923.38
516.526	23783.38
517.298	22802.38
518.071	21827.38
518.843	20872.38
519.615	20030.38
520.387	19276.38
521.159	18467.38
521.93	17782.38
522.702	17089.38
523.474	16439.38
524.245	15765.38
525.017	15040.38
525.788	14329.38
526.56	13640.38
527.331	13013.38
528.102	12370.38
528.873	11757.38
529.644	11185.38
530.415	10657.38
531.186	10126.38
531.957	9563.38
532.728	9046.38
533.498	8497.38
534.269	8045.38
535.039	7602.38
535.81	7184.38
536.58	6792.38
537.351	6375.38
538.121	6042.38
538.891	5710.38
539.661	5442.38
540.431	5154.38
541.201	4865.38
541.971	4627.38
542.741	4372.38
543.51	4155.38
544.28	3944.38
545.05	3764.38
545.819	3571.38
546.588	3427.38
547.358	3202.38
548.127	3054.38
548.896	2895.38
549.665	2754.38
550.434	2617.38
551.203	2452.38
551.972	2348.38
552.741	2210.38
553.51	2077.38
554.278	1956.38
555.047	1833.38
555.815	1752.38
556.584	1653.38
557.352	1567.38
558.121	1449.38
558.889	1382.38
559.657	1310.38
560.425	1229.38
561.193	1153.38
561.961	1115.38
562.729	1054.38
563.496	985.38
564.264	926.38
565.032	887.38
565.799	838.38
566.567	782.38
567.334	753.38
568.101	706.38
568.869	677.38
569.636	627.38
570.403	590.38
571.17	551.38
571.937	523.38
572.704	508.38
573.471	465.38
574.237	445.38
575.004	416.38
575.771	393.38
576.537	375.38
577.303	350.38
578.07	329.38
578.836	307.38
579.602	287.38
580.368	277.38
581.134	262.38
581.9	251.38
582.666	236.38
583.432	227.38
584.198	205.38
584.964	198.38
585.729	194.38
586.495	181.38
587.26	172.38
588.025	165.38
588.791	154.38
589.556	144.38
590.321	139.38
591.086	136.38
591.851	131.38
592.616	120.38
593.381	115.38
594.146	106.38
594.911	100.38
595.675	100.38
596.44	95.38
597.204	89.38
597.969	86.38
598.733	83.38
599.497	83.38
600.261	77.38
601.025	74.38
601.79	72.38
602.553	66.38
603.317	62.38
604.081	60.38
604.845	59.38
605.609	55.38
606.372	56.38
607.136	53.38
607.899	53.38
608.662	47.38
609.426	46.38
610.189	44.38
610.952	42.38
611.715	43.38
612.478	37.38
613.241	40.38
614.004	38.38
614.767	35.38
615.529	33.38
616.292	32.38
617.055	33.38
617.817	28.38
618.579	26.38
619.342	31.38
620.104	27.38
620.866	29.38
621.628	25.38
622.39	26.38
623.152	23.38
623.914	23.38
624.676	20.38
625.438	23.38
626.199	21.38
626.961	19.38
627.722	19.38
628.484	22.38
629.245	18.38
630.006	18.38
630.768	22.38
631.529	16.38
632.29	18.38
633.051	18.38
633.812	16.38
634.573	17.38
635.333	13.38
636.094	15.38
636.855	13.38
637.615	16.38
638.376	14.38
639.136	12.38
639.896	11.38
640.657	10.38
641.417	11.38
642.177	11.38
642.937	12.38
643.697	12.38
644.457	12.38
645.216	12.38
645.976	11.38
646.736	11.38
647.495	9.38
648.255	12.38
649.014	11.38
649.774	10.38
650.533	10.38
651.292	7.38
652.051	9.38
652.81	8.38
653.569	8.38
654.328	7.38
655.087	7.38
655.846	7.38
656.604	9.38
657.363	7.38
658.121	7.38
658.88	8.38
659.638	7.38
660.397	5.38
661.155	7.38
661.913	8.38
662.671	9.38
663.429	5.38
664.187	4.38
664.945	7.38
665.703	6.38
666.46	8.38
667.218	7.38
667.976	5.38
668.733	7.38
669.49	6.38
670.248	7.38
671.005	5.38
671.762	9.38
672.519	5.38
673.276	7.38
674.033	8.38
674.79	5.38
675.547	6.38
676.304	7.38
677.06	5.38
677.817	5.38
678.574	8.38
679.33	7.38
680.086	6.38
680.843	6.38
681.599	5.38
682.355	5.38
683.111	6.38
683.867	4.38
684.623	5.38
685.379	5.38
686.135	8.38
686.89	4.38
687.646	5.38
688.402	6.38
689.157	3.38
689.912	7.38
690.668	3.38
691.423	4.38
692.178	7.38
692.933	3.38
693.688	2.38
694.443	7.38
695.198	5.38
695.953	5.38
696.708	6.38
697.462	5.38
698.217	5.38
698.972	5.38
699.726	2.38
700.48	5.38
701.235	7.38
701.989	3.38
702.743	5.38
703.497	7.38
704.251	6.38
705.005	4.38
705.759	4.38
706.513	5.38
707.266	6.38
708.02	4.38
708.774	7.38
709.527	4.38
710.28	5.38
711.034	2.38
711.787	5.38
712.54	3.38
713.293	7.38
714.046	6.38
714.799	4.38
715.552	6.38
716.305	3.38
717.058	5.38
717.81	3.38
718.563	4.38
719.315	6.38
720.068	8.38
720.82	5.38
721.573	4.38
722.325	6.38
723.077	5.38
723.829	6.38
724.581	4.38
725.333	1.38
726.085	6.38
726.836	6.38
727.588	4.38
728.34	6.38
729.091	5.38
729.843	7.38
730.594	7.38
731.346	6.38
732.097	6.38
732.848	5.38
733.599	3.38
734.35	5.38
735.101	8.38
735.852	8.38
736.603	6.38
737.354	6.38
738.104	7.38
738.855	6.38
739.605	8.38
740.356	8.38
741.106	7.38
741.856	7.38
742.607	8.38
743.357	7.38
744.107	8.38
744.857	10.38
745.607	7.38
746.357	9.38
747.106	9.38
747.856	7.38
748.606	7.38
749.355	6.38
750.105	8.38
750.854	7.38
751.603	11.38
752.353	8.38
753.102	7.38
753.851	6.38
754.6	8.38
755.349	7.38
756.098	8.38
756.847	9.38
757.595	10.38
758.344	8.38
759.093	10.38
759.841	6.38
760.589	10.38
761.338	9.38
762.086	11.38
762.834	11.38
763.582	7.38
764.331	7.38
765.079	9.38
765.826	10.38
766.574	10.38
767.322	10.38
768.07	9.38
768.817	8.38
769.565	10.38
770.312	11.38
771.06	15.38
771.807	12.38
772.554	12.38
773.302	9.38
774.049	8.38
774.796	11.38
775.543	9.38
776.29	12.38
777.036	13.38
777.783	13.38
778.53	13.38
779.276	11.38
780.023	13.38
780.769	13.38
781.516	12.38
782.262	14.38
783.008	9.38
783.754	11.38
784.5	12.38
785.246	11.38
785.992	12.38
786.738	12.38
787.484	10.38
788.23	10.38
788.975	13.38
789.721	9.38
790.466	12.38
791.212	10.38
791.957	11.38
792.702	12.38
793.447	12.38
794.193	10.38
794.938	8.38
795.683	10.38
796.427	10.38
797.172	10.38
797.917	12.38
798.662	9.38
799.406	10.38
800.151	12.38
800.895	8.38
801.64	9.38
802.384	10.38
803.128	9.38
803.872	9.38
804.616	10.38
805.36	8.38
806.104	11.38
806.848	11.38
807.592	7.38
808.336	8.38
809.079	10.38
809.823	7.38
810.566	7.38
811.31	8.38
812.053	7.38
812.796	8.38
813.539	9.38
814.283	7.38
815.026	6.38
815.769	9.38
816.511	5.38
817.254	8.38
817.997	5.38
818.74	4.38
819.482	4.38
820.225	6.38
820.967	6.38
821.71	6.38
822.452	5.38
823.194	6.38
823.936	3.38
824.678	7.38
825.42	4.38
826.162	3.38
826.904	4.38
827.646	7.38
828.388	7.38
829.129	5.38
829.871	6.38
830.612	4.38
831.354	5.38
832.095	3.38
832.836	3.38
833.577	5.38
834.319	2.38
835.06	4.38
835.801	5.38
836.542	5.38
837.282	6.38
838.023	3.38
838.764	7.38
839.504	4.38
840.245	7.38
840.985	4.38
841.726	4.38
842.466	4.38
843.206	2.38
843.946	5.38
844.687	4.38
845.427	4.38
846.166	2.38
846.906	1.38
847.646	2.38
848.386	2.38
849.125	5.38
849.865	6.38
850.605	4.38
851.344	4.38
852.083	3.38
852.823	4.38
853.562	4.38
854.301	1.38
855.04	2.38
855.779	2.38
856.518	2.38
857.257	4.38
857.995	2.38
858.734	2.38
859.473	1.38
860.211	2.38
860.95	4.38
861.688	4.38
862.426	1.38
863.165	2.38
863.903	4.38
864.641	2.38
865.379	2.38
866.117	1.38
866.855	3.38
867.593	1.38
868.33	3.38
869.068	0.38
869.806	3.38
870.543	1.38
871.28	3.38
872.018	3.38
872.755	1.38
873.492	2.38
874.229	3.38
874.967	1.38
875.703	1.38
876.44	0.38
877.177	-0.62
877.914	0.38
878.651	0.38
879.387	2.38
880.124	1.38
880.86	2.38
881.597	2.38
882.333	2.38
883.069	2.38
883.806	0.38
884.542	-0.62
885.278	2.38
886.014	0.38
886.749	1.38
887.485	3.38
888.221	2.38
888.957	0.38
889.692	0.38
890.428	-0.62
891.163	2.38
891.899	0.38
892.634	1.38
893.369	2.38
894.104	1.38
894.839	1.38
895.574	1.38
896.309	0.38
897.044	1.38
897.779	1.38
898.514	-0.62
899.248	0.38
899.983	2.38
900.717	0.38
901.452	2.38
902.186	1.38
902.92	2.38
903.654	0.38
904.389	-0.62
905.123	-0.62
905.857	2.38
906.59	2.38
907.324	1.38
908.058	-0.62
908.792	1.38
909.525	-0.62
910.259	1.38
910.992	0.38
911.726	-1.62
912.459	2.38
913.192	0.38
913.925	3.38
914.658	0.38
915.391	-0.62
916.124	0.38
916.857	0.38
917.59	1.38
918.323	0.38
919.055	-2.62
919.788	2.38
920.521	3.38
921.253	1.38
921.985	1.38
922.718	0.38
923.45	0.38
924.182	0.38
924.914	0.38
925.646	-0.62
926.378	-0.62
927.11	0.38
927.841	-0.62
928.573	0.38
929.305	1.38
930.036	-0.62
930.768	-0.62
931.499	2.38
932.23	0.38
932.962	-0.62
933.693	1.38
934.424	-1.62
935.155	1.38
935.886	0.38
936.617	0.38
937.348	-1.62
938.078	1.38
938.809	0.38
939.54	1.38
940.27	0.38
941.001	-1.62
941.731	-0.62
942.461	0.38
943.191	-2.62
943.922	-0.62
944.652	0.38
945.382	-0.62
946.112	-0.62
946.841	-1.62
947.571	0.38
948.301	1.38
949.031	1.38
949.76	1.38
950.49	-0.62
951.219	2.38
951.948	-1.62
952.678	-0.62
953.407	-0.62
954.136	1.38
954.865	1.38
955.594	0.38
956.323	-0.62
957.052	1.38
957.78	1.38
958.509	1.38
959.238	1.38
959.966	0.38
960.695	-1.62
961.423	0.38
962.151	0.38
962.88	-1.62
963.608	-0.62
964.336	1.38
965.064	0.38
965.792	0.38
966.52	3.38
967.247	0.38
967.975	-1.62
968.703	0.38
969.43	1.38
970.158	0.38
970.885	-0.62
971.613	1.38
972.34	0.38
973.067	-0.62
973.794	1.38
974.521	1.38
975.248	0.38
975.975	-3.62
976.702	0.38
977.429	0.38
978.156	0.38
978.882	2.38
979.609	0.38
980.335	0.38
981.062	0.38
981.788	-1.62
982.514	-0.62
983.24	0.38
983.967	1.38
984.693	0.38
985.419	0.38
986.144	0.38
986.87	-0.62
987.596	1.38
988.322	0.38
989.047	-1.62
989.773	0.38
990.498	-0.62
991.224	0.38
991.949	1.38
992.674	-0.62
993.399	1.38
994.124	0.38
994.849	1.38
995.574	-0.62
996.299	-0.62
997.024	-1.62
997.749	1.38
998.473	1.38
999.198	1.38
999.922	-0.62
1000.647	1.38
1001.371	4.38
1002.095	-2.62
1002.82	-0.62
1003.544	0.38
1004.268	2.38
1004.992	2.38
1005.716	4.38
1006.439	2.38
1007.163	5.38
1007.887	4.38
1008.611	0.38
1009.334	1.38
1010.058	0.38
1010.781	1.38
1011.504	1.38
1012.228	0.38
1012.951	-1.62
1013.674	0.38
1014.397	-0.62
1015.12	0.38
