节点500_425_QEPB04081__302__15-53-19-896.txt的数据

Date: Wed Nov 12 15:53:19 CST 2025
User: PC
Spectrometer: QEPB0408
触发模式: 0
积分时间 (秒): 1.000000E-2
Scans to average: 1
启用暗噪声校正: true
启用非线性校正: false
滑动平均宽度: 0
X轴模式: Wavelengths
Number of Pixels in Spectrum: 1044
>>>>>Begin Spectral Data<<<<<
220.843	2.62
221.644	3.62
222.444	3.62
223.244	3.62
224.045	4.62
224.845	2.62
225.645	4.62
226.445	4.62
227.245	4.62
228.045	2.62
228.845	2.62
229.645	4.62
230.444	6.62
231.244	5.62
232.043	4.62
232.843	5.62
233.642	6.62
234.442	7.62
235.241	6.62
236.04	7.62
236.839	6.62
237.638	6.62
238.437	5.62
239.236	5.62
240.035	4.62
240.833	7.62
241.632	8.62
242.43	6.62
243.229	9.62
244.027	5.62
244.826	8.62
245.624	6.62
246.422	8.62
247.22	8.62
248.018	8.62
248.816	10.62
249.614	10.62
250.412	11.62
251.21	8.62
252.007	10.62
252.805	11.62
253.602	10.62
254.4	13.62
255.197	9.62
255.994	8.62
256.791	15.62
257.589	12.62
258.386	14.62
259.183	15.62
259.979	14.62
260.776	16.62
261.573	14.62
262.37	15.62
263.166	12.62
263.963	16.62
264.759	17.62
265.556	18.62
266.352	17.62
267.148	18.62
267.944	19.62
268.74	17.62
269.536	18.62
270.332	19.62
271.128	21.62
271.924	20.62
272.719	21.62
273.515	20.62
274.311	19.62
275.106	22.62
275.901	22.62
276.697	26.62
277.492	23.62
278.287	23.62
279.082	22.62
279.877	22.62
280.672	22.62
281.467	28.62
282.262	24.62
283.056	28.62
283.851	25.62
284.646	26.62
285.44	26.62
286.234	23.62
287.029	25.62
287.823	26.62
288.617	23.62
289.411	21.62
290.205	22.62
290.999	24.62
291.793	21.62
292.587	25.62
293.381	23.62
294.174	23.62
294.968	22.62
295.761	20.62
296.555	23.62
297.348	18.62
298.141	18.62
298.935	18.62
299.728	18.62
300.521	18.62
301.314	18.62
302.107	18.62
302.899	14.62
303.692	16.62
304.485	16.62
305.277	17.62
306.07	16.62
306.862	16.62
307.655	17.62
308.447	16.62
309.239	14.62
310.031	15.62
310.823	14.62
311.615	14.62
312.407	11.62
313.199	12.62
313.991	13.62
314.783	12.62
315.574	9.62
316.366	14.62
317.157	11.62
317.949	12.62
318.74	10.62
319.531	12.62
320.322	9.62
321.113	12.62
321.904	9.62
322.695	10.62
323.486	9.62
324.277	9.62
325.068	9.62
325.858	8.62
326.649	10.62
327.439	8.62
328.23	11.62
329.02	12.62
329.81	9.62
330.6	8.62
331.391	8.62
332.181	10.62
332.971	10.62
333.76	12.62
334.55	9.62
335.34	9.62
336.13	9.62
336.919	8.62
337.709	10.62
338.498	9.62
339.287	7.62
340.077	8.62
340.866	7.62
341.655	7.62
342.444	8.62
343.233	7.62
344.022	9.62
344.811	11.62
345.6	8.62
346.388	8.62
347.177	7.62
347.965	9.62
348.754	8.62
349.542	6.62
350.33	7.62
351.119	11.62
351.907	8.62
352.695	9.62
353.483	7.62
354.271	7.62
355.059	8.62
355.846	8.62
356.634	6.62
357.422	6.62
358.209	6.62
358.997	10.62
359.784	6.62
360.571	6.62
361.359	9.62
362.146	7.62
362.933	8.62
363.72	8.62
364.507	8.62
365.294	9.62
366.081	6.62
366.867	6.62
367.654	5.62
368.44	10.62
369.227	6.62
370.013	4.62
370.8	8.62
371.586	9.62
372.372	7.62
373.158	6.62
373.944	10.62
374.73	6.62
375.516	7.62
376.302	6.62
377.088	9.62
377.873	7.62
378.659	7.62
379.445	6.62
380.23	8.62
381.015	6.62
381.801	6.62
382.586	6.62
383.371	9.62
384.156	8.62
384.941	8.62
385.726	7.62
386.511	6.62
387.296	9.62
388.08	4.62
388.865	9.62
389.649	7.62
390.434	9.62
391.218	7.62
392.003	7.62
392.787	8.62
393.571	10.62
394.355	10.62
395.139	9.62
395.923	8.62
396.707	7.62
397.491	7.62
398.274	9.62
399.058	8.62
399.842	10.62
400.625	10.62
401.408	8.62
402.192	10.62
402.975	11.62
403.758	11.62
404.541	8.62
405.324	10.62
406.107	13.62
406.89	9.62
407.673	9.62
408.456	9.62
409.238	7.62
410.021	11.62
410.803	12.62
411.586	13.62
412.368	10.62
413.151	11.62
413.933	14.62
414.715	12.62
415.497	11.62
416.279	12.62
417.061	14.62
417.843	12.62
418.624	14.62
419.406	14.62
420.188	14.62
420.969	14.62
421.751	12.62
422.532	13.62
423.313	18.62
424.095	16.62
424.876	16.62
425.657	14.62
426.438	14.62
427.219	15.62
428	17.62
428.78	19.62
429.561	18.62
430.342	20.62
431.122	22.62
431.903	23.62
432.683	20.62
433.464	22.62
434.244	27.62
435.024	25.62
435.804	26.62
436.584	24.62
437.364	28.62
438.144	28.62
438.924	31.62
439.704	31.62
440.483	34.62
441.263	34.62
442.042	38.62
442.822	38.62
443.601	43.62
444.38	50.62
445.16	46.62
445.939	49.62
446.718	60.62
447.497	62.62
448.276	64.62
449.054	71.62
449.833	77.62
450.612	86.62
451.391	93.62
452.169	101.62
452.948	116.62
453.726	123.62
454.504	134.62
455.282	153.62
456.061	166.62
456.839	187.62
457.617	201.62
458.395	235.62
459.172	262.62
459.95	285.62
460.728	312.62
461.506	355.62
462.283	403.62
463.061	451.62
463.838	504.62
464.615	555.62
465.393	621.62
466.17	688.62
466.947	777.62
467.724	851.62
468.501	951.62
469.278	1054.62
470.055	1172.62
470.831	1296.62
471.608	1438.62
472.385	1608.62
473.161	1745.62
473.938	1956.62
474.714	2170.62
475.49	2351.62
476.266	2605.62
477.043	2889.62
477.819	3181.62
478.595	3516.62
479.371	3831.62
480.146	4232.62
480.922	4614.62
481.698	5070.62
482.473	5572.62
483.249	6074.62
484.024	6682.62
484.8	7303.62
485.575	7962.62
486.35	8707.62
487.126	9486.62
487.901	10360.62
488.676	11270.62
489.451	12241.62
490.225	13294.62
491	14407.62
491.775	15664.62
492.55	16902.62
493.324	18182.62
494.099	19483.62
494.873	20822.62
495.647	22205.62
496.422	23621.62
497.196	25087.62
497.97	26561.62
498.744	27969.62
499.518	29320.62
500.292	30511.62
501.066	31600.62
501.839	32756.62
502.613	33657.62
503.387	34394.62
504.16	34964.62
504.934	35234.62
505.707	35214.62
506.48	35113.62
507.253	34905.62
508.027	34564.62
508.8	34049.62
509.573	33275.62
510.346	32458.62
511.118	31529.62
511.891	30496.62
512.664	29371.62
513.437	28255.62
514.209	27136.62
514.982	26101.62
515.754	25062.62
516.526	23975.62
517.298	22998.62
518.071	22021.62
518.843	21141.62
519.615	20286.62
520.387	19452.62
521.159	18711.62
521.93	18033.62
522.702	17262.62
523.474	16575.62
524.245	15918.62
525.017	15249.62
525.788	14464.62
526.56	13879.62
527.331	13191.62
528.102	12641.62
528.873	12034.62
529.644	11456.62
530.415	10942.62
531.186	10413.62
531.957	9840.62
532.728	9336.62
533.498	8815.62
534.269	8328.62
535.039	7884.62
535.81	7461.62
536.58	7034.62
537.351	6619.62
538.121	6249.62
538.891	5930.62
539.661	5637.62
540.431	5332.62
541.201	5041.62
541.971	4782.62
542.741	4544.62
543.51	4313.62
544.28	4094.62
545.05	3870.62
545.819	3708.62
546.588	3528.62
547.358	3325.62
548.127	3184.62
548.896	3018.62
549.665	2849.62
550.434	2726.62
551.203	2585.62
551.972	2437.62
552.741	2309.62
553.51	2175.62
554.278	2050.62
555.047	1947.62
555.815	1830.62
556.584	1727.62
557.352	1643.62
558.121	1541.62
558.889	1445.62
559.657	1378.62
560.425	1297.62
561.193	1233.62
561.961	1169.62
562.729	1094.62
563.496	1038.62
564.264	973.62
565.032	932.62
565.799	875.62
566.567	828.62
567.334	783.62
568.101	744.62
568.869	696.62
569.636	658.62
570.403	617.62
571.17	578.62
571.937	563.62
572.704	525.62
573.471	497.62
574.237	473.62
575.004	435.62
575.771	416.62
576.537	392.62
577.303	365.62
578.07	344.62
578.836	322.62
579.602	305.62
580.368	288.62
581.134	282.62
581.9	265.62
582.666	252.62
583.432	240.62
584.198	222.62
584.964	210.62
585.729	197.62
586.495	192.62
587.26	186.62
588.025	175.62
588.791	159.62
589.556	156.62
590.321	148.62
591.086	140.62
591.851	134.62
592.616	129.62
593.381	119.62
594.146	112.62
594.911	104.62
595.675	101.62
596.44	95.62
597.204	91.62
597.969	88.62
598.733	80.62
599.497	86.62
600.261	79.62
601.025	69.62
601.79	74.62
602.553	67.62
603.317	66.62
604.081	63.62
604.845	59.62
605.609	61.62
606.372	57.62
607.136	52.62
607.899	51.62
608.662	50.62
609.426	47.62
610.189	44.62
610.952	45.62
611.715	40.62
612.478	40.62
613.241	39.62
614.004	37.62
614.767	36.62
615.529	35.62
616.292	35.62
617.055	33.62
617.817	31.62
618.579	31.62
619.342	32.62
620.104	25.62
620.866	28.62
621.628	26.62
622.39	24.62
623.152	27.62
623.914	23.62
624.676	21.62
625.438	24.62
626.199	19.62
626.961	21.62
627.722	21.62
628.484	24.62
629.245	19.62
630.006	19.62
630.768	17.62
631.529	17.62
632.29	19.62
633.051	16.62
633.812	14.62
634.573	15.62
635.333	15.62
636.094	13.62
636.855	15.62
637.615	15.62
638.376	13.62
639.136	14.62
639.896	12.62
640.657	12.62
641.417	13.62
642.177	12.62
642.937	14.62
643.697	12.62
644.457	8.62
645.216	10.62
645.976	9.62
646.736	10.62
647.495	8.62
648.255	10.62
649.014	10.62
649.774	9.62
650.533	11.62
651.292	10.62
652.051	10.62
652.81	10.62
653.569	7.62
654.328	9.62
655.087	8.62
655.846	9.62
656.604	10.62
657.363	10.62
658.121	8.62
658.88	9.62
659.638	8.62
660.397	8.62
661.155	4.62
661.913	8.62
662.671	8.62
663.429	6.62
664.187	8.62
664.945	7.62
665.703	9.62
666.46	7.62
667.218	6.62
667.976	5.62
668.733	6.62
669.49	6.62
670.248	7.62
671.005	6.62
671.762	7.62
672.519	7.62
673.276	5.62
674.033	6.62
674.79	5.62
675.547	5.62
676.304	4.62
677.06	7.62
677.817	6.62
678.574	5.62
679.33	4.62
680.086	8.62
680.843	3.62
681.599	4.62
682.355	4.62
683.111	6.62
683.867	6.62
684.623	5.62
685.379	5.62
686.135	5.62
686.89	6.62
687.646	3.62
688.402	5.62
689.157	4.62
689.912	5.62
690.668	5.62
691.423	6.62
692.178	5.62
692.933	6.62
693.688	4.62
694.443	5.62
695.198	4.62
695.953	4.62
696.708	5.62
697.462	2.62
698.217	6.62
698.972	2.62
699.726	5.62
700.48	6.62
701.235	7.62
701.989	5.62
702.743	4.62
703.497	5.62
704.251	5.62
705.005	5.62
705.759	4.62
706.513	5.62
707.266	6.62
708.02	5.62
708.774	3.62
709.527	1.62
710.28	5.62
711.034	4.62
711.787	5.62
712.54	5.62
713.293	4.62
714.046	4.62
714.799	5.62
715.552	5.62
716.305	6.62
717.058	5.62
717.81	7.62
718.563	1.62
719.315	4.62
720.068	5.62
720.82	6.62
721.573	6.62
722.325	2.62
723.077	5.62
723.829	4.62
724.581	7.62
725.333	5.62
726.085	5.62
726.836	5.62
727.588	7.62
728.34	3.62
729.091	7.62
729.843	7.62
730.594	5.62
731.346	7.62
732.097	6.62
732.848	6.62
733.599	7.62
734.35	3.62
735.101	7.62
735.852	5.62
736.603	5.62
737.354	8.62
738.104	7.62
738.855	8.62
739.605	5.62
740.356	7.62
741.106	7.62
741.856	4.62
742.607	6.62
743.357	4.62
744.107	7.62
744.857	8.62
745.607	7.62
746.357	7.62
747.106	5.62
747.856	8.62
748.606	8.62
749.355	7.62
750.105	7.62
750.854	5.62
751.603	9.62
752.353	9.62
753.102	6.62
753.851	6.62
754.6	7.62
755.349	10.62
756.098	7.62
756.847	8.62
757.595	7.62
758.344	7.62
759.093	9.62
759.841	7.62
760.589	9.62
761.338	9.62
762.086	6.62
762.834	12.62
763.582	5.62
764.331	8.62
765.079	9.62
765.826	10.62
766.574	8.62
767.322	9.62
768.07	8.62
768.817	11.62
769.565	9.62
770.312	8.62
771.06	10.62
771.807	9.62
772.554	9.62
773.302	13.62
774.049	11.62
774.796	10.62
775.543	12.62
776.29	9.62
777.036	9.62
777.783	9.62
778.53	11.62
779.276	13.62
780.023	10.62
780.769	12.62
781.516	10.62
782.262	11.62
783.008	10.62
783.754	11.62
784.5	12.62
785.246	10.62
785.992	11.62
786.738	8.62
787.484	11.62
788.23	11.62
788.975	10.62
789.721	14.62
790.466	11.62
791.212	11.62
791.957	11.62
792.702	12.62
793.447	12.62
794.193	9.62
794.938	8.62
795.683	10.62
796.427	13.62
797.172	6.62
797.917	10.62
798.662	10.62
799.406	9.62
800.151	9.62
800.895	5.62
801.64	10.62
802.384	5.62
803.128	10.62
803.872	10.62
804.616	10.62
805.36	10.62
806.104	7.62
806.848	8.62
807.592	10.62
808.336	7.62
809.079	7.62
809.823	6.62
810.566	6.62
811.31	6.62
812.053	7.62
812.796	7.62
813.539	8.62
814.283	8.62
815.026	8.62
815.769	6.62
816.511	6.62
817.254	5.62
817.997	9.62
818.74	6.62
819.482	9.62
820.225	5.62
820.967	4.62
821.71	6.62
822.452	5.62
823.194	6.62
823.936	6.62
824.678	4.62
825.42	7.62
826.162	6.62
826.904	7.62
827.646	3.62
828.388	6.62
829.129	6.62
829.871	6.62
830.612	6.62
831.354	4.62
832.095	6.62
832.836	4.62
833.577	3.62
834.319	5.62
835.06	4.62
835.801	4.62
836.542	7.62
837.282	3.62
838.023	4.62
838.764	2.62
839.504	8.62
840.245	4.62
840.985	6.62
841.726	4.62
842.466	3.62
843.206	3.62
843.946	2.62
844.687	6.62
845.427	2.62
846.166	4.62
846.906	4.62
847.646	2.62
848.386	4.62
849.125	5.62
849.865	4.62
850.605	6.62
851.344	5.62
852.083	5.62
852.823	1.62
853.562	3.62
854.301	4.62
855.04	3.62
855.779	4.62
856.518	2.62
857.257	3.62
857.995	0.62
858.734	4.62
859.473	2.62
860.211	4.62
860.95	2.62
861.688	0.62
862.426	3.62
863.165	1.62
863.903	3.62
864.641	5.62
865.379	3.62
866.117	4.62
866.855	2.62
867.593	1.62
868.33	2.62
869.068	0.62
869.806	1.62
870.543	0.62
871.28	2.62
872.018	2.62
872.755	3.62
873.492	1.62
874.229	1.62
874.967	1.62
875.703	2.62
876.44	2.62
877.177	2.62
877.914	1.62
878.651	2.62
879.387	2.62
880.124	2.62
880.86	0.62
881.597	1.62
882.333	2.62
883.069	0.62
883.806	2.62
884.542	1.62
885.278	2.62
886.014	2.62
886.749	0.62
887.485	1.62
888.221	2.62
888.957	0.62
889.692	0.62
890.428	1.62
891.163	2.62
891.899	0.62
892.634	0.62
893.369	3.62
894.104	0.62
894.839	-0.38
895.574	2.62
896.309	2.62
897.044	1.62
897.779	2.62
898.514	0.62
899.248	2.62
899.983	2.62
900.717	1.62
901.452	0.62
902.186	0.62
902.92	0.62
903.654	-0.38
904.389	1.62
905.123	3.62
905.857	-1.38
906.59	-0.38
907.324	-1.38
908.058	-0.38
908.792	1.62
909.525	1.62
910.259	2.62
910.992	0.62
911.726	1.62
912.459	1.62
913.192	1.62
913.925	-0.38
914.658	-0.38
915.391	2.62
916.124	-1.38
916.857	2.62
917.59	0.62
918.323	2.62
919.055	0.62
919.788	-1.38
920.521	2.62
921.253	-1.38
921.985	1.62
922.718	0.62
923.45	-0.38
924.182	1.62
924.914	-0.38
925.646	2.62
926.378	0.62
927.11	-0.38
927.841	0.62
928.573	0.62
929.305	0.62
930.036	2.62
930.768	0.62
931.499	1.62
932.23	0.62
932.962	0.62
933.693	0.62
934.424	0.62
935.155	0.62
935.886	-0.38
936.617	2.62
937.348	0.62
938.078	0.62
938.809	-0.38
939.54	0.62
940.27	-0.38
941.001	-2.38
941.731	1.62
942.461	0.62
943.191	1.62
943.922	0.62
944.652	1.62
945.382	0.62
946.112	1.62
946.841	2.62
947.571	0.62
948.301	1.62
949.031	2.62
949.76	1.62
950.49	-1.38
951.219	0.62
951.948	2.62
952.678	0.62
953.407	2.62
954.136	0.62
954.865	-0.38
955.594	1.62
956.323	2.62
957.052	2.62
957.78	-0.38
958.509	2.62
959.238	0.62
959.966	-0.38
960.695	0.62
961.423	-1.38
962.151	1.62
962.88	0.62
963.608	-0.38
964.336	-1.38
965.064	1.62
965.792	1.62
966.52	0.62
967.247	2.62
967.975	0.62
968.703	0.62
969.43	0.62
970.158	-0.38
970.885	1.62
971.613	-0.38
972.34	0.62
973.067	1.62
973.794	-0.38
974.521	1.62
975.248	0.62
975.975	-0.38
976.702	1.62
977.429	-1.38
978.156	2.62
978.882	-0.38
979.609	1.62
980.335	1.62
981.062	0.62
981.788	-0.38
982.514	0.62
983.24	2.62
983.967	-1.38
984.693	1.62
985.419	1.62
986.144	0.62
986.87	0.62
987.596	-0.38
988.322	1.62
989.047	0.62
989.773	-1.38
990.498	-0.38
991.224	0.62
991.949	-0.38
992.674	0.62
993.399	2.62
994.124	0.62
994.849	1.62
995.574	2.62
996.299	-1.38
997.024	1.62
997.749	0.62
998.473	1.62
999.198	-0.38
999.922	-1.38
1000.647	1.62
1001.371	2.62
1002.095	-0.38
1002.82	0.62
1003.544	-2.38
1004.268	1.62
1004.992	2.62
1005.716	1.62
1006.439	2.62
1007.163	2.62
1007.887	2.62
1008.611	0.62
1009.334	0.62
1010.058	-0.38
1010.781	1.62
1011.504	0.62
1012.228	-2.38
1012.951	-0.38
1013.674	-1.38
1014.397	1.62
1015.12	-0.38
