节点500_425_QEPB04081__36__15-48-55-432.txt的数据

Date: Wed Nov 12 15:48:55 CST 2025
User: PC
Spectrometer: QEPB0408
触发模式: 0
积分时间 (秒): 1.000000E-2
Scans to average: 1
启用暗噪声校正: true
启用非线性校正: false
滑动平均宽度: 0
X轴模式: Wavelengths
Number of Pixels in Spectrum: 1044
>>>>>Begin Spectral Data<<<<<
220.843	2.75
221.644	3.75
222.444	2.75
223.244	5.75
224.045	2.75
224.845	1.75
225.645	3.75
226.445	2.75
227.245	2.75
228.045	2.75
228.845	5.75
229.645	4.75
230.444	3.75
231.244	4.75
232.043	4.75
232.843	5.75
233.642	4.75
234.442	2.75
235.241	3.75
236.04	4.75
236.839	5.75
237.638	7.75
238.437	6.75
239.236	7.75
240.035	6.75
240.833	8.75
241.632	4.75
242.43	9.75
243.229	8.75
244.027	6.75
244.826	9.75
245.624	6.75
246.422	9.75
247.22	7.75
248.018	8.75
248.816	9.75
249.614	9.75
250.412	11.75
251.21	10.75
252.007	10.75
252.805	11.75
253.602	9.75
254.4	11.75
255.197	9.75
255.994	12.75
256.791	12.75
257.589	12.75
258.386	9.75
259.183	12.75
259.979	16.75
260.776	14.75
261.573	16.75
262.37	18.75
263.166	17.75
263.963	15.75
264.759	17.75
265.556	20.75
266.352	19.75
267.148	19.75
267.944	20.75
268.74	19.75
269.536	22.75
270.332	23.75
271.128	23.75
271.924	24.75
272.719	24.75
273.515	25.75
274.311	26.75
275.106	27.75
275.901	23.75
276.697	28.75
277.492	26.75
278.287	25.75
279.082	23.75
279.877	23.75
280.672	24.75
281.467	26.75
282.262	23.75
283.056	23.75
283.851	23.75
284.646	25.75
285.44	25.75
286.234	25.75
287.029	26.75
287.823	23.75
288.617	24.75
289.411	24.75
290.205	23.75
290.999	25.75
291.793	22.75
292.587	21.75
293.381	24.75
294.174	19.75
294.968	20.75
295.761	20.75
296.555	17.75
297.348	21.75
298.141	21.75
298.935	21.75
299.728	21.75
300.521	17.75
301.314	17.75
302.107	16.75
302.899	17.75
303.692	14.75
304.485	18.75
305.277	16.75
306.07	15.75
306.862	14.75
307.655	13.75
308.447	14.75
309.239	15.75
310.031	15.75
310.823	16.75
311.615	12.75
312.407	10.75
313.199	13.75
313.991	11.75
314.783	12.75
315.574	11.75
316.366	13.75
317.157	12.75
317.949	9.75
318.74	8.75
319.531	8.75
320.322	10.75
321.113	9.75
321.904	9.75
322.695	9.75
323.486	7.75
324.277	8.75
325.068	8.75
325.858	7.75
326.649	9.75
327.439	7.75
328.23	12.75
329.02	6.75
329.81	6.75
330.6	9.75
331.391	7.75
332.181	9.75
332.971	8.75
333.76	7.75
334.55	7.75
335.34	9.75
336.13	7.75
336.919	8.75
337.709	7.75
338.498	7.75
339.287	8.75
340.077	9.75
340.866	7.75
341.655	7.75
342.444	5.75
343.233	6.75
344.022	5.75
344.811	8.75
345.6	7.75
346.388	6.75
347.177	8.75
347.965	7.75
348.754	8.75
349.542	7.75
350.33	6.75
351.119	7.75
351.907	7.75
352.695	9.75
353.483	8.75
354.271	7.75
355.059	7.75
355.846	6.75
356.634	7.75
357.422	7.75
358.209	9.75
358.997	6.75
359.784	5.75
360.571	7.75
361.359	5.75
362.146	8.75
362.933	6.75
363.72	7.75
364.507	6.75
365.294	5.75
366.081	3.75
366.867	5.75
367.654	8.75
368.44	6.75
369.227	6.75
370.013	6.75
370.8	4.75
371.586	9.75
372.372	6.75
373.158	5.75
373.944	8.75
374.73	4.75
375.516	6.75
376.302	7.75
377.088	7.75
377.873	5.75
378.659	6.75
379.445	5.75
380.23	6.75
381.015	8.75
381.801	7.75
382.586	7.75
383.371	6.75
384.156	7.75
384.941	7.75
385.726	4.75
386.511	7.75
387.296	6.75
388.08	7.75
388.865	7.75
389.649	6.75
390.434	7.75
391.218	6.75
392.003	8.75
392.787	7.75
393.571	7.75
394.355	10.75
395.139	10.75
395.923	10.75
396.707	9.75
397.491	9.75
398.274	7.75
399.058	8.75
399.842	8.75
400.625	8.75
401.408	10.75
402.192	8.75
402.975	9.75
403.758	8.75
404.541	9.75
405.324	11.75
406.107	9.75
406.89	10.75
407.673	8.75
408.456	10.75
409.238	11.75
410.021	9.75
410.803	9.75
411.586	12.75
412.368	11.75
413.151	10.75
413.933	11.75
414.715	13.75
415.497	13.75
416.279	14.75
417.061	13.75
417.843	13.75
418.624	15.75
419.406	9.75
420.188	14.75
420.969	13.75
421.751	14.75
422.532	13.75
423.313	13.75
424.095	13.75
424.876	13.75
425.657	17.75
426.438	16.75
427.219	15.75
428	17.75
428.78	17.75
429.561	16.75
430.342	21.75
431.122	19.75
431.903	19.75
432.683	21.75
433.464	22.75
434.244	20.75
435.024	25.75
435.804	26.75
436.584	25.75
437.364	28.75
438.144	28.75
438.924	35.75
439.704	30.75
440.483	33.75
441.263	32.75
442.042	38.75
442.822	37.75
443.601	39.75
444.38	40.75
445.16	46.75
445.939	51.75
446.718	59.75
447.497	54.75
448.276	62.75
449.054	68.75
449.833	72.75
450.612	81.75
451.391	85.75
452.169	93.75
452.948	100.75
453.726	115.75
454.504	127.75
455.282	139.75
456.061	156.75
456.839	166.75
457.617	189.75
458.395	207.75
459.172	230.75
459.95	257.75
460.728	294.75
461.506	328.75
462.283	364.75
463.061	409.75
463.838	454.75
464.615	513.75
465.393	573.75
466.17	643.75
466.947	715.75
467.724	803.75
468.501	882.75
469.278	997.75
470.055	1116.75
470.831	1214.75
471.608	1388.75
472.385	1549.75
473.161	1706.75
473.938	1910.75
474.714	2128.75
475.49	2336.75
476.266	2605.75
477.043	2878.75
477.819	3195.75
478.595	3568.75
479.371	3928.75
480.146	4352.75
480.922	4797.75
481.698	5293.75
482.473	5862.75
483.249	6451.75
484.024	7136.75
484.8	7820.75
485.575	8610.75
486.35	9480.75
487.126	10336.75
487.901	11344.75
488.676	12428.75
489.451	13544.75
490.225	14801.75
491	16134.75
491.775	17565.75
492.55	18986.75
493.324	20519.75
494.099	22030.75
494.873	23503.75
495.647	25170.75
496.422	26714.75
497.196	28341.75
497.97	29973.75
498.744	31504.75
499.518	32941.75
500.292	34127.75
501.066	35301.75
501.839	36257.75
502.613	37094.75
503.387	37603.75
504.16	37988.75
504.934	37927.75
505.707	37803.75
506.48	37208.75
507.253	36642.75
508.027	36068.75
508.8	35107.75
509.573	34078.75
510.346	33076.75
511.118	31922.75
511.891	30683.75
512.664	29361.75
513.437	28115.75
514.209	26889.75
514.982	25732.75
515.754	24696.75
516.526	23504.75
517.298	22521.75
518.071	21578.75
518.843	20701.75
519.615	19855.75
520.387	19072.75
521.159	18288.75
521.93	17653.75
522.702	16913.75
523.474	16250.75
524.245	15552.75
525.017	14806.75
525.788	14128.75
526.56	13486.75
527.331	12848.75
528.102	12171.75
528.873	11602.75
529.644	10957.75
530.415	10457.75
531.186	9916.75
531.957	9383.75
532.728	8789.75
533.498	8331.75
534.269	7828.75
535.039	7422.75
535.81	7013.75
536.58	6585.75
537.351	6241.75
538.121	5894.75
538.891	5597.75
539.661	5295.75
540.431	5014.75
541.201	4741.75
541.971	4504.75
542.741	4255.75
543.51	4038.75
544.28	3844.75
545.05	3656.75
545.819	3478.75
546.588	3308.75
547.358	3135.75
548.127	2977.75
548.896	2815.75
549.665	2668.75
550.434	2532.75
551.203	2399.75
551.972	2261.75
552.741	2147.75
553.51	2028.75
554.278	1902.75
555.047	1791.75
555.815	1697.75
556.584	1597.75
557.352	1509.75
558.121	1424.75
558.889	1342.75
559.657	1269.75
560.425	1196.75
561.193	1124.75
561.961	1061.75
562.729	1018.75
563.496	960.75
564.264	914.75
565.032	863.75
565.799	794.75
566.567	764.75
567.334	726.75
568.101	691.75
568.869	631.75
569.636	604.75
570.403	574.75
571.17	535.75
571.937	507.75
572.704	484.75
573.471	452.75
574.237	425.75
575.004	407.75
575.771	376.75
576.537	352.75
577.303	342.75
578.07	317.75
578.836	292.75
579.602	280.75
580.368	275.75
581.134	249.75
581.9	241.75
582.666	229.75
583.432	225.75
584.198	208.75
584.964	196.75
585.729	184.75
586.495	171.75
587.26	165.75
588.025	161.75
588.791	149.75
589.556	144.75
590.321	135.75
591.086	130.75
591.851	123.75
592.616	118.75
593.381	110.75
594.146	107.75
594.911	103.75
595.675	93.75
596.44	93.75
597.204	88.75
597.969	80.75
598.733	79.75
599.497	71.75
600.261	75.75
601.025	71.75
601.79	66.75
602.553	61.75
603.317	59.75
604.081	58.75
604.845	59.75
605.609	54.75
606.372	47.75
607.136	48.75
607.899	47.75
608.662	45.75
609.426	43.75
610.189	43.75
610.952	41.75
611.715	38.75
612.478	38.75
613.241	39.75
614.004	33.75
614.767	35.75
615.529	33.75
616.292	32.75
617.055	31.75
617.817	29.75
618.579	31.75
619.342	26.75
620.104	28.75
620.866	24.75
621.628	24.75
622.39	25.75
623.152	22.75
623.914	20.75
624.676	23.75
625.438	22.75
626.199	20.75
626.961	21.75
627.722	19.75
628.484	20.75
629.245	18.75
630.006	15.75
630.768	17.75
631.529	17.75
632.29	15.75
633.051	17.75
633.812	12.75
634.573	17.75
635.333	14.75
636.094	14.75
636.855	12.75
637.615	16.75
638.376	11.75
639.136	11.75
639.896	15.75
640.657	11.75
641.417	12.75
642.177	11.75
642.937	9.75
643.697	15.75
644.457	9.75
645.216	10.75
645.976	9.75
646.736	10.75
647.495	9.75
648.255	9.75
649.014	9.75
649.774	10.75
650.533	9.75
651.292	7.75
652.051	6.75
652.81	6.75
653.569	10.75
654.328	7.75
655.087	9.75
655.846	7.75
656.604	6.75
657.363	6.75
658.121	7.75
658.88	5.75
659.638	6.75
660.397	8.75
661.155	5.75
661.913	6.75
662.671	6.75
663.429	5.75
664.187	6.75
664.945	6.75
665.703	3.75
666.46	4.75
667.218	6.75
667.976	6.75
668.733	5.75
669.49	7.75
670.248	6.75
671.005	7.75
671.762	6.75
672.519	4.75
673.276	5.75
674.033	3.75
674.79	4.75
675.547	3.75
676.304	5.75
677.06	4.75
677.817	4.75
678.574	6.75
679.33	4.75
680.086	4.75
680.843	5.75
681.599	5.75
682.355	5.75
683.111	5.75
683.867	4.75
684.623	3.75
685.379	6.75
686.135	4.75
686.89	5.75
687.646	5.75
688.402	4.75
689.157	6.75
689.912	2.75
690.668	4.75
691.423	3.75
692.178	3.75
692.933	6.75
693.688	5.75
694.443	4.75
695.198	3.75
695.953	6.75
696.708	5.75
697.462	1.75
698.217	3.75
698.972	5.75
699.726	3.75
700.48	5.75
701.235	5.75
701.989	4.75
702.743	4.75
703.497	3.75
704.251	2.75
705.005	6.75
705.759	3.75
706.513	6.75
707.266	5.75
708.02	2.75
708.774	4.75
709.527	4.75
710.28	5.75
711.034	3.75
711.787	5.75
712.54	4.75
713.293	1.75
714.046	4.75
714.799	5.75
715.552	3.75
716.305	4.75
717.058	1.75
717.81	4.75
718.563	3.75
719.315	5.75
720.068	5.75
720.82	5.75
721.573	5.75
722.325	4.75
723.077	5.75
723.829	5.75
724.581	6.75
725.333	5.75
726.085	3.75
726.836	5.75
727.588	6.75
728.34	4.75
729.091	4.75
729.843	5.75
730.594	5.75
731.346	5.75
732.097	5.75
732.848	6.75
733.599	6.75
734.35	6.75
735.101	5.75
735.852	6.75
736.603	6.75
737.354	4.75
738.104	4.75
738.855	6.75
739.605	7.75
740.356	7.75
741.106	5.75
741.856	6.75
742.607	5.75
743.357	4.75
744.107	6.75
744.857	7.75
745.607	7.75
746.357	6.75
747.106	6.75
747.856	8.75
748.606	6.75
749.355	7.75
750.105	5.75
750.854	8.75
751.603	5.75
752.353	7.75
753.102	8.75
753.851	6.75
754.6	6.75
755.349	9.75
756.098	8.75
756.847	8.75
757.595	8.75
758.344	7.75
759.093	9.75
759.841	7.75
760.589	8.75
761.338	4.75
762.086	6.75
762.834	9.75
763.582	10.75
764.331	9.75
765.079	9.75
765.826	9.75
766.574	9.75
767.322	9.75
768.07	9.75
768.817	9.75
769.565	8.75
770.312	10.75
771.06	9.75
771.807	8.75
772.554	7.75
773.302	11.75
774.049	9.75
774.796	10.75
775.543	11.75
776.29	11.75
777.036	11.75
777.783	11.75
778.53	11.75
779.276	10.75
780.023	12.75
780.769	12.75
781.516	12.75
782.262	15.75
783.008	9.75
783.754	13.75
784.5	10.75
785.246	12.75
785.992	7.75
786.738	12.75
787.484	12.75
788.23	13.75
788.975	10.75
789.721	12.75
790.466	11.75
791.212	9.75
791.957	11.75
792.702	12.75
793.447	12.75
794.193	9.75
794.938	10.75
795.683	9.75
796.427	10.75
797.172	8.75
797.917	9.75
798.662	9.75
799.406	8.75
800.151	10.75
800.895	6.75
801.64	8.75
802.384	8.75
803.128	10.75
803.872	9.75
804.616	9.75
805.36	7.75
806.104	8.75
806.848	6.75
807.592	7.75
808.336	6.75
809.079	8.75
809.823	4.75
810.566	5.75
811.31	7.75
812.053	7.75
812.796	6.75
813.539	3.75
814.283	6.75
815.026	7.75
815.769	4.75
816.511	5.75
817.254	4.75
817.997	4.75
818.74	7.75
819.482	4.75
820.225	8.75
820.967	6.75
821.71	3.75
822.452	3.75
823.194	5.75
823.936	3.75
824.678	5.75
825.42	3.75
826.162	5.75
826.904	5.75
827.646	3.75
828.388	4.75
829.129	2.75
829.871	6.75
830.612	4.75
831.354	5.75
832.095	5.75
832.836	3.75
833.577	4.75
834.319	1.75
835.06	4.75
835.801	2.75
836.542	3.75
837.282	3.75
838.023	1.75
838.764	2.75
839.504	4.75
840.245	1.75
840.985	5.75
841.726	4.75
842.466	3.75
843.206	3.75
843.946	3.75
844.687	4.75
845.427	2.75
846.166	4.75
846.906	2.75
847.646	4.75
848.386	1.75
849.125	3.75
849.865	3.75
850.605	4.75
851.344	1.75
852.083	1.75
852.823	3.75
853.562	1.75
854.301	2.75
855.04	1.75
855.779	1.75
856.518	4.75
857.257	1.75
857.995	1.75
858.734	1.75
859.473	2.75
860.211	0.75
860.95	0.75
861.688	1.75
862.426	2.75
863.165	2.75
863.903	1.75
864.641	1.75
865.379	1.75
866.117	0.75
866.855	0.75
867.593	0.75
868.33	-0.25
869.068	0.75
869.806	-0.25
870.543	1.75
871.28	1.75
872.018	0.75
872.755	0.75
873.492	0.75
874.229	1.75
874.967	-0.25
875.703	3.75
876.44	1.75
877.177	0.75
877.914	3.75
878.651	-1.25
879.387	1.75
880.124	-0.25
880.86	-0.25
881.597	0.75
882.333	-2.25
883.069	0.75
883.806	-0.25
884.542	-1.25
885.278	0.75
886.014	-0.25
886.749	0.75
887.485	1.75
888.221	0.75
888.957	-0.25
889.692	1.75
890.428	1.75
891.163	-1.25
891.899	1.75
892.634	-1.25
893.369	3.75
894.104	-2.25
894.839	1.75
895.574	-1.25
896.309	-0.25
897.044	1.75
897.779	-0.25
898.514	2.75
899.248	0.75
899.983	0.75
900.717	-1.25
901.452	-0.25
902.186	0.75
902.92	-0.25
903.654	-0.25
904.389	-0.25
905.123	0.75
905.857	-0.25
906.59	1.75
907.324	1.75
908.058	0.75
908.792	0.75
909.525	1.75
910.259	-2.25
910.992	-0.25
911.726	0.75
912.459	-0.25
913.192	-1.25
913.925	0.75
914.658	1.75
915.391	-1.25
916.124	-0.25
916.857	-0.25
917.59	-2.25
918.323	0.75
919.055	-1.25
919.788	0.75
920.521	-0.25
921.253	1.75
921.985	-0.25
922.718	-0.25
923.45	-0.25
924.182	-1.25
924.914	-1.25
925.646	0.75
926.378	-0.25
927.11	1.75
927.841	0.75
928.573	-0.25
929.305	1.75
930.036	0.75
930.768	-1.25
931.499	-0.25
932.23	1.75
932.962	-1.25
933.693	0.75
934.424	-0.25
935.155	2.75
935.886	-1.25
936.617	-2.25
937.348	1.75
938.078	-0.25
938.809	0.75
939.54	0.75
940.27	-2.25
941.001	-2.25
941.731	-0.25
942.461	-0.25
943.191	-0.25
943.922	-0.25
944.652	-0.25
945.382	-1.25
946.112	-0.25
946.841	-0.25
947.571	-0.25
948.301	-0.25
949.031	0.75
949.76	-0.25
950.49	-0.25
951.219	0.75
951.948	-0.25
952.678	-0.25
953.407	0.75
954.136	-0.25
954.865	1.75
955.594	-1.25
956.323	1.75
957.052	1.75
957.78	0.75
958.509	-0.25
959.238	1.75
959.966	-0.25
960.695	-1.25
961.423	0.75
962.151	-1.25
962.88	-1.25
963.608	0.75
964.336	-3.25
965.064	0.75
965.792	-0.25
966.52	-0.25
967.247	-0.25
967.975	-0.25
968.703	-0.25
969.43	-0.25
970.158	1.75
970.885	0.75
971.613	-1.25
972.34	-1.25
973.067	-1.25
973.794	1.75
974.521	-2.25
975.248	-1.25
975.975	-0.25
976.702	-1.25
977.429	1.75
978.156	-3.25
978.882	-0.25
979.609	-3.25
980.335	-2.25
981.062	0.75
981.788	-1.25
982.514	-0.25
983.24	-0.25
983.967	-1.25
984.693	-1.25
985.419	-0.25
986.144	0.75
986.87	-1.25
987.596	1.75
988.322	-0.25
989.047	-0.25
989.773	-0.25
990.498	0.75
991.224	-0.25
991.949	-0.25
992.674	-0.25
993.399	-0.25
994.124	-0.25
994.849	-0.25
995.574	-0.25
996.299	0.75
997.024	-2.25
997.749	-1.25
998.473	-0.25
999.198	0.75
999.922	0.75
1000.647	-1.25
1001.371	2.75
1002.095	-0.25
1002.82	0.75
1003.544	-0.25
1004.268	0.75
1004.992	1.75
1005.716	2.75
1006.439	2.75
1007.163	1.75
1007.887	2.75
1008.611	2.75
1009.334	0.75
1010.058	0.75
1010.781	1.75
1011.504	-1.25
1012.228	0.75
1012.951	-1.25
1013.674	0.75
1014.397	-1.25
1015.12	-1.25
