节点500_425_QEPB04081__621__15-58-38-433.txt的数据

Date: Wed Nov 12 15:58:38 CST 2025
User: PC
Spectrometer: QEPB0408
触发模式: 0
积分时间 (秒): 1.000000E-2
Scans to average: 1
启用暗噪声校正: true
启用非线性校正: false
滑动平均宽度: 0
X轴模式: Wavelengths
Number of Pixels in Spectrum: 1044
>>>>>Begin Spectral Data<<<<<
220.843	2.12
221.644	1.12
222.444	1.12
223.244	3.12
224.045	5.12
224.845	3.12
225.645	4.12
226.445	4.12
227.245	4.12
228.045	2.12
228.845	6.12
229.645	5.12
230.444	4.12
231.244	3.12
232.043	7.12
232.843	4.12
233.642	4.12
234.442	3.12
235.241	5.12
236.04	5.12
236.839	6.12
237.638	5.12
238.437	9.12
239.236	7.12
240.035	6.12
240.833	6.12
241.632	7.12
242.43	5.12
243.229	6.12
244.027	7.12
244.826	6.12
245.624	6.12
246.422	9.12
247.22	7.12
248.018	6.12
248.816	9.12
249.614	9.12
250.412	7.12
251.21	10.12
252.007	9.12
252.805	8.12
253.602	10.12
254.4	10.12
255.197	10.12
255.994	9.12
256.791	9.12
257.589	11.12
258.386	12.12
259.183	13.12
259.979	13.12
260.776	13.12
261.573	12.12
262.37	12.12
263.166	15.12
263.963	14.12
264.759	12.12
265.556	15.12
266.352	17.12
267.148	18.12
267.944	16.12
268.74	17.12
269.536	17.12
270.332	14.12
271.128	18.12
271.924	17.12
272.719	18.12
273.515	23.12
274.311	19.12
275.106	22.12
275.901	20.12
276.697	20.12
277.492	21.12
278.287	24.12
279.082	22.12
279.877	20.12
280.672	21.12
281.467	24.12
282.262	22.12
283.056	25.12
283.851	22.12
284.646	25.12
285.44	22.12
286.234	22.12
287.029	21.12
287.823	23.12
288.617	22.12
289.411	21.12
290.205	22.12
290.999	21.12
291.793	23.12
292.587	22.12
293.381	22.12
294.174	23.12
294.968	21.12
295.761	21.12
296.555	19.12
297.348	19.12
298.141	18.12
298.935	21.12
299.728	20.12
300.521	18.12
301.314	18.12
302.107	17.12
302.899	16.12
303.692	16.12
304.485	17.12
305.277	16.12
306.07	18.12
306.862	17.12
307.655	17.12
308.447	16.12
309.239	16.12
310.031	16.12
310.823	13.12
311.615	12.12
312.407	14.12
313.199	14.12
313.991	12.12
314.783	14.12
315.574	10.12
316.366	11.12
317.157	10.12
317.949	9.12
318.74	12.12
319.531	10.12
320.322	11.12
321.113	11.12
321.904	9.12
322.695	8.12
323.486	9.12
324.277	9.12
325.068	9.12
325.858	9.12
326.649	8.12
327.439	6.12
328.23	8.12
329.02	9.12
329.81	8.12
330.6	8.12
331.391	9.12
332.181	10.12
332.971	10.12
333.76	8.12
334.55	10.12
335.34	10.12
336.13	10.12
336.919	6.12
337.709	9.12
338.498	8.12
339.287	7.12
340.077	7.12
340.866	6.12
341.655	9.12
342.444	6.12
343.233	7.12
344.022	4.12
344.811	10.12
345.6	8.12
346.388	7.12
347.177	9.12
347.965	7.12
348.754	8.12
349.542	6.12
350.33	7.12
351.119	7.12
351.907	7.12
352.695	6.12
353.483	7.12
354.271	7.12
355.059	7.12
355.846	7.12
356.634	9.12
357.422	7.12
358.209	9.12
358.997	7.12
359.784	6.12
360.571	7.12
361.359	4.12
362.146	6.12
362.933	7.12
363.72	9.12
364.507	6.12
365.294	3.12
366.081	8.12
366.867	6.12
367.654	7.12
368.44	7.12
369.227	7.12
370.013	6.12
370.8	8.12
371.586	7.12
372.372	6.12
373.158	7.12
373.944	6.12
374.73	8.12
375.516	6.12
376.302	7.12
377.088	9.12
377.873	6.12
378.659	4.12
379.445	4.12
380.23	4.12
381.015	9.12
381.801	8.12
382.586	8.12
383.371	5.12
384.156	8.12
384.941	9.12
385.726	7.12
386.511	5.12
387.296	8.12
388.08	5.12
388.865	9.12
389.649	5.12
390.434	9.12
391.218	8.12
392.003	10.12
392.787	9.12
393.571	9.12
394.355	10.12
395.139	7.12
395.923	8.12
396.707	8.12
397.491	7.12
398.274	10.12
399.058	7.12
399.842	9.12
400.625	10.12
401.408	9.12
402.192	10.12
402.975	9.12
403.758	10.12
404.541	6.12
405.324	10.12
406.107	10.12
406.89	8.12
407.673	9.12
408.456	8.12
409.238	9.12
410.021	9.12
410.803	11.12
411.586	11.12
412.368	11.12
413.151	11.12
413.933	12.12
414.715	12.12
415.497	13.12
416.279	12.12
417.061	12.12
417.843	13.12
418.624	12.12
419.406	12.12
420.188	15.12
420.969	14.12
421.751	11.12
422.532	14.12
423.313	14.12
424.095	16.12
424.876	15.12
425.657	13.12
426.438	17.12
427.219	17.12
428	18.12
428.78	21.12
429.561	19.12
430.342	20.12
431.122	22.12
431.903	19.12
432.683	21.12
433.464	21.12
434.244	24.12
435.024	23.12
435.804	27.12
436.584	28.12
437.364	30.12
438.144	30.12
438.924	32.12
439.704	30.12
440.483	36.12
441.263	35.12
442.042	39.12
442.822	43.12
443.601	43.12
444.38	45.12
445.16	50.12
445.939	51.12
446.718	62.12
447.497	68.12
448.276	72.12
449.054	76.12
449.833	85.12
450.612	98.12
451.391	103.12
452.169	113.12
452.948	123.12
453.726	139.12
454.504	154.12
455.282	168.12
456.061	189.12
456.839	213.12
457.617	228.12
458.395	247.12
459.172	281.12
459.95	308.12
460.728	353.12
461.506	391.12
462.283	429.12
463.061	486.12
463.838	541.12
464.615	593.12
465.393	669.12
466.17	745.12
466.947	824.12
467.724	904.12
468.501	1006.12
469.278	1101.12
470.055	1216.12
470.831	1344.12
471.608	1485.12
472.385	1630.12
473.161	1794.12
473.938	1960.12
474.714	2178.12
475.49	2369.12
476.266	2597.12
477.043	2839.12
477.819	3101.12
478.595	3422.12
479.371	3730.12
480.146	4042.12
480.922	4424.12
481.698	4833.12
482.473	5228.12
483.249	5668.12
484.024	6185.12
484.8	6742.12
485.575	7343.12
486.35	7932.12
487.126	8609.12
487.901	9290.12
488.676	10106.12
489.451	10912.12
490.225	11769.12
491	12669.12
491.775	13726.12
492.55	14707.12
493.324	15791.12
494.099	16901.12
494.873	18016.12
495.647	19278.12
496.422	20456.12
497.196	21703.12
497.97	23023.12
498.744	24265.12
499.518	25532.12
500.292	26677.12
501.066	27778.12
501.839	28892.12
502.613	29812.12
503.387	30574.12
504.16	31366.12
504.934	31851.12
505.707	32150.12
506.48	32394.12
507.253	32384.12
508.027	32297.12
508.8	32080.12
509.573	31743.12
510.346	31208.12
511.118	30524.12
511.891	29793.12
512.664	28904.12
513.437	27948.12
514.209	27090.12
514.982	26208.12
515.754	25245.12
516.526	24227.12
517.298	23294.12
518.071	22338.12
518.843	21487.12
519.615	20641.12
520.387	19795.12
521.159	19023.12
521.93	18316.12
522.702	17618.12
523.474	16942.12
524.245	16252.12
525.017	15549.12
525.788	14847.12
526.56	14239.12
527.331	13644.12
528.102	12998.12
528.873	12454.12
529.644	11908.12
530.415	11343.12
531.186	10893.12
531.957	10301.12
532.728	9766.12
533.498	9290.12
534.269	8758.12
535.039	8373.12
535.81	7931.12
536.58	7428.12
537.351	7026.12
538.121	6672.12
538.891	6322.12
539.661	6003.12
540.431	5676.12
541.201	5358.12
541.971	5131.12
542.741	4841.12
543.51	4600.12
544.28	4392.12
545.05	4138.12
545.819	3955.12
546.588	3758.12
547.358	3566.12
548.127	3367.12
548.896	3214.12
549.665	3028.12
550.434	2913.12
551.203	2763.12
551.972	2621.12
552.741	2473.12
553.51	2346.12
554.278	2226.12
555.047	2103.12
555.815	1979.12
556.584	1878.12
557.352	1769.12
558.121	1666.12
558.889	1588.12
559.657	1507.12
560.425	1412.12
561.193	1340.12
561.961	1262.12
562.729	1187.12
563.496	1126.12
564.264	1072.12
565.032	1011.12
565.799	961.12
566.567	907.12
567.334	853.12
568.101	811.12
568.869	758.12
569.636	713.12
570.403	670.12
571.17	638.12
571.937	602.12
572.704	574.12
573.471	543.12
574.237	510.12
575.004	472.12
575.771	454.12
576.537	425.12
577.303	398.12
578.07	380.12
578.836	361.12
579.602	340.12
580.368	320.12
581.134	300.12
581.9	284.12
582.666	265.12
583.432	258.12
584.198	246.12
584.964	235.12
585.729	217.12
586.495	205.12
587.26	197.12
588.025	183.12
588.791	178.12
589.556	169.12
590.321	159.12
591.086	152.12
591.851	140.12
592.616	138.12
593.381	136.12
594.146	123.12
594.911	117.12
595.675	112.12
596.44	106.12
597.204	103.12
597.969	97.12
598.733	92.12
599.497	89.12
600.261	88.12
601.025	82.12
601.79	77.12
602.553	78.12
603.317	70.12
604.081	69.12
604.845	68.12
605.609	63.12
606.372	61.12
607.136	62.12
607.899	57.12
608.662	55.12
609.426	50.12
610.189	52.12
610.952	46.12
611.715	50.12
612.478	45.12
613.241	42.12
614.004	43.12
614.767	39.12
615.529	38.12
616.292	36.12
617.055	38.12
617.817	33.12
618.579	30.12
619.342	30.12
620.104	26.12
620.866	32.12
621.628	28.12
622.39	26.12
623.152	25.12
623.914	26.12
624.676	26.12
625.438	26.12
626.199	22.12
626.961	22.12
627.722	20.12
628.484	21.12
629.245	22.12
630.006	20.12
630.768	20.12
631.529	19.12
632.29	18.12
633.051	15.12
633.812	17.12
634.573	17.12
635.333	18.12
636.094	15.12
636.855	16.12
637.615	14.12
638.376	14.12
639.136	12.12
639.896	15.12
640.657	13.12
641.417	13.12
642.177	11.12
642.937	11.12
643.697	15.12
644.457	13.12
645.216	12.12
645.976	10.12
646.736	11.12
647.495	7.12
648.255	12.12
649.014	12.12
649.774	9.12
650.533	10.12
651.292	7.12
652.051	7.12
652.81	8.12
653.569	9.12
654.328	8.12
655.087	9.12
655.846	10.12
656.604	8.12
657.363	8.12
658.121	10.12
658.88	6.12
659.638	5.12
660.397	6.12
661.155	8.12
661.913	6.12
662.671	7.12
663.429	8.12
664.187	9.12
664.945	9.12
665.703	5.12
666.46	7.12
667.218	4.12
667.976	4.12
668.733	5.12
669.49	5.12
670.248	4.12
671.005	6.12
671.762	5.12
672.519	8.12
673.276	4.12
674.033	7.12
674.79	4.12
675.547	5.12
676.304	5.12
677.06	4.12
677.817	6.12
678.574	4.12
679.33	6.12
680.086	6.12
680.843	6.12
681.599	5.12
682.355	7.12
683.111	8.12
683.867	4.12
684.623	4.12
685.379	6.12
686.135	4.12
686.89	6.12
687.646	4.12
688.402	5.12
689.157	3.12
689.912	3.12
690.668	7.12
691.423	6.12
692.178	5.12
692.933	5.12
693.688	6.12
694.443	6.12
695.198	6.12
695.953	5.12
696.708	4.12
697.462	6.12
698.217	3.12
698.972	6.12
699.726	5.12
700.48	4.12
701.235	4.12
701.989	4.12
702.743	2.12
703.497	4.12
704.251	4.12
705.005	5.12
705.759	3.12
706.513	7.12
707.266	5.12
708.02	5.12
708.774	6.12
709.527	7.12
710.28	5.12
711.034	2.12
711.787	6.12
712.54	6.12
713.293	5.12
714.046	5.12
714.799	4.12
715.552	4.12
716.305	4.12
717.058	6.12
717.81	5.12
718.563	5.12
719.315	5.12
720.068	4.12
720.82	6.12
721.573	4.12
722.325	4.12
723.077	6.12
723.829	6.12
724.581	5.12
725.333	3.12
726.085	6.12
726.836	4.12
727.588	6.12
728.34	6.12
729.091	4.12
729.843	6.12
730.594	4.12
731.346	6.12
732.097	6.12
732.848	3.12
733.599	4.12
734.35	5.12
735.101	7.12
735.852	4.12
736.603	5.12
737.354	6.12
738.104	4.12
738.855	7.12
739.605	6.12
740.356	7.12
741.106	6.12
741.856	4.12
742.607	7.12
743.357	6.12
744.107	6.12
744.857	6.12
745.607	6.12
746.357	5.12
747.106	5.12
747.856	6.12
748.606	6.12
749.355	6.12
750.105	6.12
750.854	6.12
751.603	7.12
752.353	8.12
753.102	6.12
753.851	6.12
754.6	6.12
755.349	7.12
756.098	6.12
756.847	9.12
757.595	7.12
758.344	7.12
759.093	5.12
759.841	10.12
760.589	8.12
761.338	8.12
762.086	10.12
762.834	7.12
763.582	8.12
764.331	8.12
765.079	6.12
765.826	7.12
766.574	8.12
767.322	7.12
768.07	8.12
768.817	9.12
769.565	9.12
770.312	9.12
771.06	7.12
771.807	9.12
772.554	7.12
773.302	12.12
774.049	11.12
774.796	8.12
775.543	8.12
776.29	10.12
777.036	12.12
777.783	10.12
778.53	13.12
779.276	11.12
780.023	11.12
780.769	11.12
781.516	10.12
782.262	10.12
783.008	10.12
783.754	11.12
784.5	9.12
785.246	11.12
785.992	10.12
786.738	11.12
787.484	12.12
788.23	10.12
788.975	10.12
789.721	10.12
790.466	10.12
791.212	11.12
791.957	7.12
792.702	10.12
793.447	8.12
794.193	11.12
794.938	10.12
795.683	11.12
796.427	6.12
797.172	7.12
797.917	9.12
798.662	7.12
799.406	7.12
800.151	7.12
800.895	6.12
801.64	11.12
802.384	8.12
803.128	10.12
803.872	9.12
804.616	10.12
805.36	9.12
806.104	8.12
806.848	5.12
807.592	8.12
808.336	8.12
809.079	7.12
809.823	8.12
810.566	9.12
811.31	6.12
812.053	5.12
812.796	7.12
813.539	7.12
814.283	6.12
815.026	4.12
815.769	8.12
816.511	6.12
817.254	8.12
817.997	4.12
818.74	8.12
819.482	6.12
820.225	5.12
820.967	7.12
821.71	6.12
822.452	8.12
823.194	6.12
823.936	5.12
824.678	2.12
825.42	4.12
826.162	6.12
826.904	6.12
827.646	5.12
828.388	5.12
829.129	5.12
829.871	5.12
830.612	3.12
831.354	5.12
832.095	7.12
832.836	4.12
833.577	3.12
834.319	4.12
835.06	5.12
835.801	6.12
836.542	5.12
837.282	4.12
838.023	3.12
838.764	5.12
839.504	3.12
840.245	4.12
840.985	5.12
841.726	4.12
842.466	6.12
843.206	4.12
843.946	4.12
844.687	3.12
845.427	4.12
846.166	4.12
846.906	3.12
847.646	4.12
848.386	3.12
849.125	5.12
849.865	5.12
850.605	3.12
851.344	4.12
852.083	4.12
852.823	2.12
853.562	4.12
854.301	3.12
855.04	2.12
855.779	3.12
856.518	3.12
857.257	3.12
857.995	3.12
858.734	1.12
859.473	5.12
860.211	5.12
860.95	1.12
861.688	3.12
862.426	2.12
863.165	1.12
863.903	0.12
864.641	3.12
865.379	1.12
866.117	1.12
866.855	2.12
867.593	3.12
868.33	3.12
869.068	2.12
869.806	1.12
870.543	-0.88
871.28	0.12
872.018	2.12
872.755	3.12
873.492	0.12
874.229	1.12
874.967	1.12
875.703	3.12
876.44	0.12
877.177	4.12
877.914	0.12
878.651	1.12
879.387	2.12
880.124	4.12
880.86	0.12
881.597	1.12
882.333	0.12
883.069	2.12
883.806	1.12
884.542	1.12
885.278	0.12
886.014	0.12
886.749	1.12
887.485	0.12
888.221	0.12
888.957	1.12
889.692	0.12
890.428	1.12
891.163	1.12
891.899	2.12
892.634	0.12
893.369	0.12
894.104	0.12
894.839	1.12
895.574	-0.88
896.309	1.12
897.044	0.12
897.779	0.12
898.514	0.12
899.248	2.12
899.983	1.12
900.717	1.12
901.452	0.12
902.186	2.12
902.92	-0.88
903.654	-0.88
904.389	1.12
905.123	-1.88
905.857	2.12
906.59	1.12
907.324	-0.88
908.058	2.12
908.792	2.12
909.525	2.12
910.259	-2.88
910.992	1.12
911.726	1.12
912.459	0.12
913.192	0.12
913.925	0.12
914.658	1.12
915.391	0.12
916.124	2.12
916.857	0.12
917.59	1.12
918.323	0.12
919.055	0.12
919.788	1.12
920.521	-1.88
921.253	2.12
921.985	1.12
922.718	0.12
923.45	1.12
924.182	0.12
924.914	0.12
925.646	0.12
926.378	-0.88
927.11	1.12
927.841	0.12
928.573	3.12
929.305	0.12
930.036	0.12
930.768	0.12
931.499	1.12
932.23	-0.88
932.962	0.12
933.693	0.12
934.424	1.12
935.155	1.12
935.886	-1.88
936.617	1.12
937.348	2.12
938.078	-0.88
938.809	0.12
939.54	-0.88
940.27	-1.88
941.001	0.12
941.731	0.12
942.461	1.12
943.191	1.12
943.922	-0.88
944.652	1.12
945.382	-0.88
946.112	0.12
946.841	1.12
947.571	2.12
948.301	1.12
949.031	0.12
949.76	2.12
950.49	2.12
951.219	0.12
951.948	0.12
952.678	1.12
953.407	-1.88
954.136	0.12
954.865	0.12
955.594	-1.88
956.323	1.12
957.052	-1.88
957.78	-1.88
958.509	0.12
959.238	2.12
959.966	-0.88
960.695	0.12
961.423	0.12
962.151	-1.88
962.88	2.12
963.608	1.12
964.336	1.12
965.064	-0.88
965.792	1.12
966.52	-1.88
967.247	2.12
967.975	0.12
968.703	0.12
969.43	2.12
970.158	0.12
970.885	2.12
971.613	1.12
972.34	0.12
973.067	0.12
973.794	1.12
974.521	2.12
975.248	-1.88
975.975	1.12
976.702	0.12
977.429	-1.88
978.156	1.12
978.882	-0.88
979.609	-1.88
980.335	-1.88
981.062	-0.88
981.788	0.12
982.514	1.12
983.24	1.12
983.967	-0.88
984.693	-0.88
985.419	1.12
986.144	0.12
986.87	3.12
987.596	-0.88
988.322	0.12
989.047	-0.88
989.773	0.12
990.498	1.12
991.224	0.12
991.949	0.12
992.674	0.12
993.399	2.12
994.124	0.12
994.849	-0.88
995.574	-1.88
996.299	-1.88
997.024	0.12
997.749	0.12
998.473	0.12
999.198	1.12
999.922	0.12
1000.647	-1.88
1001.371	3.12
1002.095	-0.88
1002.82	-1.88
1003.544	-1.88
1004.268	1.12
1004.992	2.12
1005.716	2.12
1006.439	0.12
1007.163	3.12
1007.887	2.12
1008.611	1.12
1009.334	2.12
1010.058	2.12
1010.781	2.12
1011.504	1.12
1012.228	-0.88
1012.951	1.12
1013.674	0.12
1014.397	1.12
1015.12	-0.88
