节点500_425_QEPB04081__141__15-50-39-301.txt的数据

Date: Wed Nov 12 15:50:39 CST 2025
User: PC
Spectrometer: QEPB0408
触发模式: 0
积分时间 (秒): 1.000000E-2
Scans to average: 1
启用暗噪声校正: true
启用非线性校正: false
滑动平均宽度: 0
X轴模式: Wavelengths
Number of Pixels in Spectrum: 1044
>>>>>Begin Spectral Data<<<<<
220.843	4.25
221.644	2.25
222.444	3.25
223.244	2.25
224.045	4.25
224.845	1.25
225.645	3.25
226.445	5.25
227.245	3.25
228.045	5.25
228.845	4.25
229.645	2.25
230.444	3.25
231.244	6.25
232.043	5.25
232.843	5.25
233.642	8.25
234.442	4.25
235.241	3.25
236.04	6.25
236.839	7.25
237.638	6.25
238.437	8.25
239.236	6.25
240.035	5.25
240.833	7.25
241.632	8.25
242.43	5.25
243.229	6.25
244.027	10.25
244.826	10.25
245.624	10.25
246.422	9.25
247.22	9.25
248.018	9.25
248.816	10.25
249.614	8.25
250.412	12.25
251.21	11.25
252.007	11.25
252.805	12.25
253.602	10.25
254.4	11.25
255.197	11.25
255.994	11.25
256.791	16.25
257.589	14.25
258.386	14.25
259.183	15.25
259.979	14.25
260.776	14.25
261.573	16.25
262.37	16.25
263.166	12.25
263.963	16.25
264.759	23.25
265.556	16.25
266.352	20.25
267.148	20.25
267.944	20.25
268.74	20.25
269.536	24.25
270.332	23.25
271.128	19.25
271.924	22.25
272.719	22.25
273.515	22.25
274.311	22.25
275.106	26.25
275.901	23.25
276.697	26.25
277.492	26.25
278.287	23.25
279.082	28.25
279.877	25.25
280.672	24.25
281.467	26.25
282.262	24.25
283.056	21.25
283.851	23.25
284.646	26.25
285.44	24.25
286.234	21.25
287.029	25.25
287.823	27.25
288.617	22.25
289.411	23.25
290.205	23.25
290.999	24.25
291.793	23.25
292.587	26.25
293.381	25.25
294.174	19.25
294.968	19.25
295.761	21.25
296.555	19.25
297.348	20.25
298.141	20.25
298.935	22.25
299.728	17.25
300.521	19.25
301.314	18.25
302.107	16.25
302.899	15.25
303.692	16.25
304.485	19.25
305.277	17.25
306.07	16.25
306.862	16.25
307.655	15.25
308.447	14.25
309.239	12.25
310.031	14.25
310.823	14.25
311.615	14.25
312.407	12.25
313.199	11.25
313.991	12.25
314.783	13.25
315.574	14.25
316.366	13.25
317.157	10.25
317.949	10.25
318.74	10.25
319.531	9.25
320.322	8.25
321.113	10.25
321.904	8.25
322.695	9.25
323.486	12.25
324.277	9.25
325.068	12.25
325.858	10.25
326.649	9.25
327.439	7.25
328.23	10.25
329.02	9.25
329.81	8.25
330.6	12.25
331.391	8.25
332.181	9.25
332.971	9.25
333.76	7.25
334.55	7.25
335.34	8.25
336.13	9.25
336.919	7.25
337.709	9.25
338.498	10.25
339.287	10.25
340.077	10.25
340.866	8.25
341.655	8.25
342.444	9.25
343.233	7.25
344.022	9.25
344.811	6.25
345.6	9.25
346.388	9.25
347.177	7.25
347.965	9.25
348.754	9.25
349.542	10.25
350.33	8.25
351.119	8.25
351.907	10.25
352.695	9.25
353.483	7.25
354.271	7.25
355.059	9.25
355.846	6.25
356.634	8.25
357.422	7.25
358.209	7.25
358.997	8.25
359.784	8.25
360.571	8.25
361.359	5.25
362.146	9.25
362.933	7.25
363.72	6.25
364.507	4.25
365.294	8.25
366.081	8.25
366.867	7.25
367.654	5.25
368.44	8.25
369.227	5.25
370.013	6.25
370.8	7.25
371.586	7.25
372.372	10.25
373.158	7.25
373.944	6.25
374.73	5.25
375.516	4.25
376.302	6.25
377.088	7.25
377.873	8.25
378.659	5.25
379.445	10.25
380.23	6.25
381.015	6.25
381.801	8.25
382.586	6.25
383.371	9.25
384.156	6.25
384.941	6.25
385.726	7.25
386.511	7.25
387.296	6.25
388.08	8.25
388.865	7.25
389.649	9.25
390.434	7.25
391.218	7.25
392.003	7.25
392.787	8.25
393.571	8.25
394.355	8.25
395.139	8.25
395.923	8.25
396.707	8.25
397.491	6.25
398.274	9.25
399.058	6.25
399.842	10.25
400.625	9.25
401.408	12.25
402.192	10.25
402.975	12.25
403.758	7.25
404.541	12.25
405.324	9.25
406.107	10.25
406.89	10.25
407.673	10.25
408.456	11.25
409.238	11.25
410.021	10.25
410.803	8.25
411.586	11.25
412.368	12.25
413.151	13.25
413.933	11.25
414.715	13.25
415.497	16.25
416.279	15.25
417.061	14.25
417.843	15.25
418.624	13.25
419.406	12.25
420.188	12.25
420.969	15.25
421.751	15.25
422.532	16.25
423.313	17.25
424.095	14.25
424.876	15.25
425.657	19.25
426.438	19.25
427.219	16.25
428	16.25
428.78	19.25
429.561	18.25
430.342	18.25
431.122	21.25
431.903	24.25
432.683	23.25
433.464	21.25
434.244	26.25
435.024	21.25
435.804	26.25
436.584	28.25
437.364	28.25
438.144	28.25
438.924	28.25
439.704	34.25
440.483	34.25
441.263	35.25
442.042	35.25
442.822	41.25
443.601	41.25
444.38	44.25
445.16	50.25
445.939	50.25
446.718	55.25
447.497	59.25
448.276	62.25
449.054	70.25
449.833	78.25
450.612	84.25
451.391	88.25
452.169	96.25
452.948	109.25
453.726	120.25
454.504	130.25
455.282	146.25
456.061	161.25
456.839	173.25
457.617	194.25
458.395	221.25
459.172	251.25
459.95	273.25
460.728	304.25
461.506	341.25
462.283	393.25
463.061	429.25
463.838	483.25
464.615	537.25
465.393	608.25
466.17	671.25
466.947	743.25
467.724	832.25
468.501	922.25
469.278	1025.25
470.055	1136.25
470.831	1269.25
471.608	1416.25
472.385	1582.25
473.161	1741.25
473.938	1920.25
474.714	2142.25
475.49	2366.25
476.266	2628.25
477.043	2901.25
477.819	3201.25
478.595	3528.25
479.371	3892.25
480.146	4280.25
480.922	4721.25
481.698	5222.25
482.473	5698.25
483.249	6266.25
484.024	6902.25
484.8	7588.25
485.575	8286.25
486.35	9074.25
487.126	9909.25
487.901	10870.25
488.676	11891.25
489.451	12905.25
490.225	14096.25
491	15312.25
491.775	16635.25
492.55	17970.25
493.324	19330.25
494.099	20740.25
494.873	22231.25
495.647	23716.25
496.422	25229.25
497.196	26752.25
497.97	28367.25
498.744	29754.25
499.518	31204.25
500.292	32353.25
501.066	33457.25
501.839	34654.25
502.613	35439.25
503.387	36009.25
504.16	36527.25
504.934	36653.25
505.707	36569.25
506.48	36438.25
507.253	36028.25
508.027	35370.25
508.8	34703.25
509.573	33803.25
510.346	32857.25
511.118	31802.25
511.891	30725.25
512.664	29510.25
513.437	28289.25
514.209	27093.25
514.982	25974.25
515.754	24955.25
516.526	23804.25
517.298	22802.25
518.071	21774.25
518.843	20980.25
519.615	20020.25
520.387	19302.25
521.159	18500.25
521.93	17825.25
522.702	17096.25
523.474	16475.25
524.245	15758.25
525.017	14994.25
525.788	14322.25
526.56	13665.25
527.331	13045.25
528.102	12421.25
528.873	11762.25
529.644	11225.25
530.415	10716.25
531.186	10174.25
531.957	9584.25
532.728	9105.25
533.498	8578.25
534.269	8103.25
535.039	7649.25
535.81	7227.25
536.58	6818.25
537.351	6457.25
538.121	6073.25
538.891	5767.25
539.661	5458.25
540.431	5174.25
541.201	4894.25
541.971	4646.25
542.741	4391.25
543.51	4188.25
544.28	3955.25
545.05	3790.25
545.819	3610.25
546.588	3429.25
547.358	3255.25
548.127	3066.25
548.896	2895.25
549.665	2768.25
550.434	2618.25
551.203	2462.25
551.972	2351.25
552.741	2216.25
553.51	2099.25
554.278	1983.25
555.047	1848.25
555.815	1764.25
556.584	1652.25
557.352	1576.25
558.121	1480.25
558.889	1399.25
559.657	1312.25
560.425	1245.25
561.193	1176.25
561.961	1115.25
562.729	1053.25
563.496	1007.25
564.264	946.25
565.032	894.25
565.799	842.25
566.567	794.25
567.334	766.25
568.101	705.25
568.869	674.25
569.636	632.25
570.403	601.25
571.17	568.25
571.937	535.25
572.704	505.25
573.471	477.25
574.237	446.25
575.004	412.25
575.771	400.25
576.537	369.25
577.303	360.25
578.07	336.25
578.836	314.25
579.602	284.25
580.368	285.25
581.134	270.25
581.9	253.25
582.666	238.25
583.432	227.25
584.198	216.25
584.964	207.25
585.729	193.25
586.495	189.25
587.26	173.25
588.025	167.25
588.791	154.25
589.556	151.25
590.321	147.25
591.086	131.25
591.851	129.25
592.616	122.25
593.381	119.25
594.146	110.25
594.911	106.25
595.675	101.25
596.44	95.25
597.204	92.25
597.969	87.25
598.733	85.25
599.497	81.25
600.261	78.25
601.025	71.25
601.79	67.25
602.553	65.25
603.317	64.25
604.081	63.25
604.845	60.25
605.609	53.25
606.372	55.25
607.136	51.25
607.899	52.25
608.662	49.25
609.426	45.25
610.189	44.25
610.952	44.25
611.715	39.25
612.478	38.25
613.241	40.25
614.004	36.25
614.767	34.25
615.529	34.25
616.292	35.25
617.055	34.25
617.817	32.25
618.579	29.25
619.342	29.25
620.104	27.25
620.866	25.25
621.628	27.25
622.39	24.25
623.152	25.25
623.914	24.25
624.676	27.25
625.438	25.25
626.199	23.25
626.961	22.25
627.722	18.25
628.484	18.25
629.245	21.25
630.006	19.25
630.768	19.25
631.529	18.25
632.29	16.25
633.051	17.25
633.812	16.25
634.573	14.25
635.333	15.25
636.094	14.25
636.855	14.25
637.615	12.25
638.376	14.25
639.136	15.25
639.896	14.25
640.657	14.25
641.417	13.25
642.177	11.25
642.937	14.25
643.697	8.25
644.457	9.25
645.216	9.25
645.976	10.25
646.736	9.25
647.495	11.25
648.255	13.25
649.014	10.25
649.774	12.25
650.533	10.25
651.292	7.25
652.051	9.25
652.81	8.25
653.569	10.25
654.328	9.25
655.087	10.25
655.846	10.25
656.604	8.25
657.363	8.25
658.121	9.25
658.88	8.25
659.638	11.25
660.397	6.25
661.155	5.25
661.913	8.25
662.671	8.25
663.429	9.25
664.187	7.25
664.945	9.25
665.703	5.25
666.46	6.25
667.218	7.25
667.976	8.25
668.733	8.25
669.49	6.25
670.248	7.25
671.005	5.25
671.762	7.25
672.519	6.25
673.276	4.25
674.033	9.25
674.79	6.25
675.547	7.25
676.304	5.25
677.06	7.25
677.817	4.25
678.574	6.25
679.33	6.25
680.086	5.25
680.843	5.25
681.599	4.25
682.355	6.25
683.111	4.25
683.867	5.25
684.623	6.25
685.379	5.25
686.135	6.25
686.89	6.25
687.646	5.25
688.402	5.25
689.157	3.25
689.912	7.25
690.668	5.25
691.423	5.25
692.178	4.25
692.933	5.25
693.688	4.25
694.443	4.25
695.198	7.25
695.953	4.25
696.708	5.25
697.462	3.25
698.217	1.25
698.972	5.25
699.726	7.25
700.48	4.25
701.235	2.25
701.989	4.25
702.743	2.25
703.497	5.25
704.251	7.25
705.005	6.25
705.759	4.25
706.513	2.25
707.266	3.25
708.02	6.25
708.774	4.25
709.527	8.25
710.28	3.25
711.034	5.25
711.787	5.25
712.54	4.25
713.293	4.25
714.046	5.25
714.799	4.25
715.552	5.25
716.305	4.25
717.058	5.25
717.81	6.25
718.563	6.25
719.315	5.25
720.068	7.25
720.82	7.25
721.573	4.25
722.325	4.25
723.077	4.25
723.829	5.25
724.581	2.25
725.333	6.25
726.085	6.25
726.836	2.25
727.588	8.25
728.34	7.25
729.091	8.25
729.843	7.25
730.594	4.25
731.346	4.25
732.097	7.25
732.848	6.25
733.599	5.25
734.35	7.25
735.101	8.25
735.852	4.25
736.603	6.25
737.354	7.25
738.104	5.25
738.855	6.25
739.605	8.25
740.356	8.25
741.106	7.25
741.856	8.25
742.607	6.25
743.357	7.25
744.107	6.25
744.857	5.25
745.607	8.25
746.357	7.25
747.106	6.25
747.856	7.25
748.606	8.25
749.355	7.25
750.105	6.25
750.854	8.25
751.603	7.25
752.353	7.25
753.102	9.25
753.851	7.25
754.6	8.25
755.349	8.25
756.098	8.25
756.847	6.25
757.595	10.25
758.344	8.25
759.093	7.25
759.841	9.25
760.589	7.25
761.338	9.25
762.086	8.25
762.834	10.25
763.582	10.25
764.331	10.25
765.079	8.25
765.826	10.25
766.574	11.25
767.322	12.25
768.07	10.25
768.817	11.25
769.565	11.25
770.312	8.25
771.06	9.25
771.807	9.25
772.554	8.25
773.302	11.25
774.049	12.25
774.796	10.25
775.543	13.25
776.29	10.25
777.036	10.25
777.783	10.25
778.53	9.25
779.276	11.25
780.023	10.25
780.769	10.25
781.516	13.25
782.262	12.25
783.008	12.25
783.754	11.25
784.5	10.25
785.246	11.25
785.992	9.25
786.738	14.25
787.484	10.25
788.23	12.25
788.975	11.25
789.721	11.25
790.466	12.25
791.212	11.25
791.957	7.25
792.702	11.25
793.447	13.25
794.193	9.25
794.938	10.25
795.683	14.25
796.427	10.25
797.172	13.25
797.917	10.25
798.662	10.25
799.406	10.25
800.151	9.25
800.895	11.25
801.64	8.25
802.384	10.25
803.128	9.25
803.872	10.25
804.616	10.25
805.36	8.25
806.104	8.25
806.848	8.25
807.592	7.25
808.336	8.25
809.079	9.25
809.823	6.25
810.566	7.25
811.31	8.25
812.053	8.25
812.796	7.25
813.539	4.25
814.283	4.25
815.026	9.25
815.769	7.25
816.511	6.25
817.254	7.25
817.997	6.25
818.74	7.25
819.482	5.25
820.225	5.25
820.967	7.25
821.71	4.25
822.452	4.25
823.194	3.25
823.936	5.25
824.678	6.25
825.42	4.25
826.162	4.25
826.904	4.25
827.646	4.25
828.388	5.25
829.129	5.25
829.871	5.25
830.612	5.25
831.354	6.25
832.095	1.25
832.836	6.25
833.577	4.25
834.319	4.25
835.06	4.25
835.801	3.25
836.542	3.25
837.282	3.25
838.023	4.25
838.764	1.25
839.504	4.25
840.245	3.25
840.985	3.25
841.726	2.25
842.466	2.25
843.206	7.25
843.946	3.25
844.687	2.25
845.427	7.25
846.166	2.25
846.906	4.25
847.646	4.25
848.386	3.25
849.125	1.25
849.865	1.25
850.605	3.25
851.344	3.25
852.083	2.25
852.823	4.25
853.562	4.25
854.301	5.25
855.04	0.25
855.779	3.25
856.518	3.25
857.257	3.25
857.995	3.25
858.734	3.25
859.473	4.25
860.211	1.25
860.95	3.25
861.688	1.25
862.426	4.25
863.165	2.25
863.903	1.25
864.641	2.25
865.379	1.25
866.117	3.25
866.855	2.25
867.593	1.25
868.33	5.25
869.068	2.25
869.806	1.25
870.543	2.25
871.28	3.25
872.018	2.25
872.755	2.25
873.492	0.25
874.229	1.25
874.967	2.25
875.703	0.25
876.44	0.25
877.177	0.25
877.914	3.25
878.651	2.25
879.387	2.25
880.124	0.25
880.86	4.25
881.597	1.25
882.333	0.25
883.069	2.25
883.806	1.25
884.542	-2.75
885.278	2.25
886.014	1.25
886.749	3.25
887.485	1.25
888.221	2.25
888.957	0.25
889.692	0.25
890.428	0.25
891.163	2.25
891.899	0.25
892.634	0.25
893.369	4.25
894.104	-0.75
894.839	0.25
895.574	0.25
896.309	2.25
897.044	1.25
897.779	0.25
898.514	0.25
899.248	1.25
899.983	0.25
900.717	-1.75
901.452	0.25
902.186	-0.75
902.92	0.25
903.654	1.25
904.389	-0.75
905.123	1.25
905.857	-0.75
906.59	0.25
907.324	1.25
908.058	0.25
908.792	2.25
909.525	-0.75
910.259	-0.75
910.992	1.25
911.726	2.25
912.459	1.25
913.192	1.25
913.925	3.25
914.658	1.25
915.391	-0.75
916.124	-0.75
916.857	-0.75
917.59	2.25
918.323	1.25
919.055	2.25
919.788	-0.75
920.521	-1.75
921.253	1.25
921.985	1.25
922.718	1.25
923.45	1.25
924.182	0.25
924.914	2.25
925.646	-1.75
926.378	2.25
927.11	0.25
927.841	2.25
928.573	-0.75
929.305	1.25
930.036	1.25
930.768	1.25
931.499	0.25
932.23	0.25
932.962	-1.75
933.693	-0.75
934.424	-1.75
935.155	1.25
935.886	-1.75
936.617	1.25
937.348	2.25
938.078	1.25
938.809	-1.75
939.54	-1.75
940.27	1.25
941.001	0.25
941.731	2.25
942.461	2.25
943.191	1.25
943.922	1.25
944.652	0.25
945.382	0.25
946.112	0.25
946.841	1.25
947.571	0.25
948.301	-0.75
949.031	0.25
949.76	1.25
950.49	1.25
951.219	2.25
951.948	-1.75
952.678	0.25
953.407	-1.75
954.136	1.25
954.865	2.25
955.594	2.25
956.323	0.25
957.052	0.25
957.78	1.25
958.509	0.25
959.238	0.25
959.966	-0.75
960.695	0.25
961.423	0.25
962.151	1.25
962.88	-0.75
963.608	-0.75
964.336	3.25
965.064	1.25
965.792	-0.75
966.52	1.25
967.247	1.25
967.975	0.25
968.703	0.25
969.43	-0.75
970.158	1.25
970.885	3.25
971.613	-0.75
972.34	-0.75
973.067	-0.75
973.794	0.25
974.521	1.25
975.248	1.25
975.975	-0.75
976.702	0.25
977.429	1.25
978.156	-0.75
978.882	2.25
979.609	0.25
980.335	-0.75
981.062	0.25
981.788	0.25
982.514	2.25
983.24	-0.75
983.967	3.25
984.693	0.25
985.419	1.25
986.144	1.25
986.87	-0.75
987.596	1.25
988.322	-0.75
989.047	2.25
989.773	0.25
990.498	1.25
991.224	-1.75
991.949	-1.75
992.674	2.25
993.399	-2.75
994.124	1.25
994.849	2.25
995.574	-0.75
996.299	-1.75
997.024	-1.75
997.749	1.25
998.473	0.25
999.198	-1.75
999.922	-1.75
1000.647	-0.75
1001.371	4.25
1002.095	-2.75
1002.82	0.25
1003.544	-1.75
1004.268	2.25
1004.992	-0.75
1005.716	2.25
1006.439	5.25
1007.163	4.25
1007.887	6.25
1008.611	-0.75
1009.334	0.25
1010.058	1.25
1010.781	-0.75
1011.504	0.25
1012.228	0.25
1012.951	-1.75
1013.674	0.25
1014.397	1.25
1015.12	0.25
