节点500_425_QEPB04081__609__15-58-26-402.txt的数据

Date: Wed Nov 12 15:58:26 CST 2025
User: PC
Spectrometer: QEPB0408
触发模式: 0
积分时间 (秒): 1.000000E-2
Scans to average: 1
启用暗噪声校正: true
启用非线性校正: false
滑动平均宽度: 0
X轴模式: Wavelengths
Number of Pixels in Spectrum: 1044
>>>>>Begin Spectral Data<<<<<
220.843	3.75
221.644	2.75
222.444	5.75
223.244	1.75
224.045	2.75
224.845	2.75
225.645	2.75
226.445	5.75
227.245	3.75
228.045	3.75
228.845	2.75
229.645	5.75
230.444	7.75
231.244	5.75
232.043	6.75
232.843	5.75
233.642	6.75
234.442	6.75
235.241	4.75
236.04	4.75
236.839	4.75
237.638	4.75
238.437	7.75
239.236	3.75
240.035	7.75
240.833	7.75
241.632	9.75
242.43	5.75
243.229	5.75
244.027	8.75
244.826	7.75
245.624	11.75
246.422	9.75
247.22	9.75
248.018	8.75
248.816	10.75
249.614	9.75
250.412	11.75
251.21	9.75
252.007	8.75
252.805	10.75
253.602	10.75
254.4	9.75
255.197	10.75
255.994	11.75
256.791	9.75
257.589	12.75
258.386	11.75
259.183	11.75
259.979	13.75
260.776	14.75
261.573	11.75
262.37	16.75
263.166	13.75
263.963	13.75
264.759	15.75
265.556	20.75
266.352	17.75
267.148	17.75
267.944	15.75
268.74	15.75
269.536	18.75
270.332	17.75
271.128	16.75
271.924	20.75
272.719	18.75
273.515	20.75
274.311	20.75
275.106	17.75
275.901	19.75
276.697	21.75
277.492	18.75
278.287	21.75
279.082	23.75
279.877	22.75
280.672	19.75
281.467	22.75
282.262	19.75
283.056	24.75
283.851	23.75
284.646	22.75
285.44	23.75
286.234	23.75
287.029	20.75
287.823	22.75
288.617	24.75
289.411	26.75
290.205	20.75
290.999	25.75
291.793	22.75
292.587	20.75
293.381	23.75
294.174	16.75
294.968	24.75
295.761	21.75
296.555	19.75
297.348	21.75
298.141	18.75
298.935	20.75
299.728	18.75
300.521	20.75
301.314	18.75
302.107	15.75
302.899	14.75
303.692	19.75
304.485	16.75
305.277	16.75
306.07	18.75
306.862	19.75
307.655	14.75
308.447	15.75
309.239	14.75
310.031	16.75
310.823	12.75
311.615	10.75
312.407	15.75
313.199	14.75
313.991	12.75
314.783	12.75
315.574	14.75
316.366	11.75
317.157	12.75
317.949	11.75
318.74	11.75
319.531	10.75
320.322	9.75
321.113	10.75
321.904	8.75
322.695	9.75
323.486	12.75
324.277	9.75
325.068	8.75
325.858	10.75
326.649	10.75
327.439	10.75
328.23	8.75
329.02	9.75
329.81	8.75
330.6	9.75
331.391	9.75
332.181	8.75
332.971	8.75
333.76	8.75
334.55	10.75
335.34	11.75
336.13	9.75
336.919	7.75
337.709	7.75
338.498	7.75
339.287	9.75
340.077	8.75
340.866	8.75
341.655	8.75
342.444	6.75
343.233	6.75
344.022	7.75
344.811	9.75
345.6	7.75
346.388	8.75
347.177	7.75
347.965	8.75
348.754	9.75
349.542	8.75
350.33	9.75
351.119	8.75
351.907	8.75
352.695	7.75
353.483	7.75
354.271	6.75
355.059	6.75
355.846	8.75
356.634	8.75
357.422	7.75
358.209	6.75
358.997	9.75
359.784	8.75
360.571	6.75
361.359	9.75
362.146	3.75
362.933	6.75
363.72	8.75
364.507	5.75
365.294	8.75
366.081	7.75
366.867	5.75
367.654	7.75
368.44	6.75
369.227	5.75
370.013	6.75
370.8	8.75
371.586	5.75
372.372	6.75
373.158	9.75
373.944	7.75
374.73	8.75
375.516	5.75
376.302	7.75
377.088	8.75
377.873	6.75
378.659	5.75
379.445	6.75
380.23	7.75
381.015	7.75
381.801	5.75
382.586	8.75
383.371	6.75
384.156	9.75
384.941	6.75
385.726	6.75
386.511	6.75
387.296	8.75
388.08	7.75
388.865	7.75
389.649	7.75
390.434	6.75
391.218	9.75
392.003	6.75
392.787	8.75
393.571	8.75
394.355	6.75
395.139	12.75
395.923	8.75
396.707	8.75
397.491	8.75
398.274	8.75
399.058	8.75
399.842	8.75
400.625	13.75
401.408	8.75
402.192	7.75
402.975	10.75
403.758	7.75
404.541	9.75
405.324	10.75
406.107	10.75
406.89	8.75
407.673	12.75
408.456	10.75
409.238	9.75
410.021	10.75
410.803	10.75
411.586	12.75
412.368	9.75
413.151	10.75
413.933	13.75
414.715	11.75
415.497	14.75
416.279	11.75
417.061	12.75
417.843	12.75
418.624	12.75
419.406	11.75
420.188	11.75
420.969	15.75
421.751	16.75
422.532	10.75
423.313	15.75
424.095	16.75
424.876	14.75
425.657	15.75
426.438	15.75
427.219	14.75
428	14.75
428.78	19.75
429.561	18.75
430.342	17.75
431.122	20.75
431.903	21.75
432.683	20.75
433.464	25.75
434.244	22.75
435.024	22.75
435.804	25.75
436.584	27.75
437.364	28.75
438.144	29.75
438.924	31.75
439.704	29.75
440.483	33.75
441.263	36.75
442.042	41.75
442.822	41.75
443.601	43.75
444.38	49.75
445.16	52.75
445.939	55.75
446.718	58.75
447.497	64.75
448.276	74.75
449.054	75.75
449.833	89.75
450.612	90.75
451.391	105.75
452.169	111.75
452.948	122.75
453.726	135.75
454.504	148.75
455.282	169.75
456.061	183.75
456.839	203.75
457.617	232.75
458.395	255.75
459.172	283.75
459.95	312.75
460.728	347.75
461.506	394.75
462.283	432.75
463.061	476.75
463.838	538.75
464.615	597.75
465.393	663.75
466.17	735.75
466.947	814.75
467.724	910.75
468.501	995.75
469.278	1092.75
470.055	1215.75
470.831	1337.75
471.608	1481.75
472.385	1629.75
473.161	1793.75
473.938	1975.75
474.714	2183.75
475.49	2379.75
476.266	2589.75
477.043	2825.75
477.819	3109.75
478.595	3402.75
479.371	3721.75
480.146	4063.75
480.922	4428.75
481.698	4798.75
482.473	5232.75
483.249	5676.75
484.024	6194.75
484.8	6733.75
485.575	7289.75
486.35	7917.75
487.126	8566.75
487.901	9288.75
488.676	10108.75
489.451	10892.75
490.225	11795.75
491	12678.75
491.775	13691.75
492.55	14726.75
493.324	15812.75
494.099	16906.75
494.873	18043.75
495.647	19210.75
496.422	20409.75
497.196	21687.75
497.97	23001.75
498.744	24252.75
499.518	25534.75
500.292	26696.75
501.066	27773.75
501.839	28875.75
502.613	29779.75
503.387	30639.75
504.16	31365.75
504.934	31928.75
505.707	32165.75
506.48	32409.75
507.253	32372.75
508.027	32317.75
508.8	32048.75
509.573	31725.75
510.346	31145.75
511.118	30442.75
511.891	29804.75
512.664	28886.75
513.437	27989.75
514.209	26988.75
514.982	26163.75
515.754	25210.75
516.526	24174.75
517.298	23289.75
518.071	22350.75
518.843	21411.75
519.615	20612.75
520.387	19796.75
521.159	19050.75
521.93	18349.75
522.702	17561.75
523.474	16912.75
524.245	16212.75
525.017	15498.75
525.788	14887.75
526.56	14212.75
527.331	13582.75
528.102	13037.75
528.873	12428.75
529.644	11846.75
530.415	11349.75
531.186	10832.75
531.957	10280.75
532.728	9791.75
533.498	9284.75
534.269	8738.75
535.039	8319.75
535.81	7857.75
536.58	7469.75
537.351	7043.75
538.121	6648.75
538.891	6335.75
539.661	5977.75
540.431	5652.75
541.201	5369.75
541.971	5098.75
542.741	4828.75
543.51	4579.75
544.28	4358.75
545.05	4159.75
545.819	3951.75
546.588	3737.75
547.358	3555.75
548.127	3370.75
548.896	3232.75
549.665	3062.75
550.434	2903.75
551.203	2755.75
551.972	2622.75
552.741	2483.75
553.51	2342.75
554.278	2222.75
555.047	2074.75
555.815	1973.75
556.584	1874.75
557.352	1759.75
558.121	1662.75
558.889	1566.75
559.657	1496.75
560.425	1417.75
561.193	1328.75
561.961	1265.75
562.729	1189.75
563.496	1131.75
564.264	1077.75
565.032	1016.75
565.799	959.75
566.567	908.75
567.334	853.75
568.101	814.75
568.869	750.75
569.636	716.75
570.403	666.75
571.17	640.75
571.937	595.75
572.704	575.75
573.471	539.75
574.237	500.75
575.004	480.75
575.771	453.75
576.537	424.75
577.303	393.75
578.07	376.75
578.836	347.75
579.602	329.75
580.368	325.75
581.134	301.75
581.9	292.75
582.666	277.75
583.432	253.75
584.198	235.75
584.964	234.75
585.729	226.75
586.495	209.75
587.26	195.75
588.025	184.75
588.791	178.75
589.556	169.75
590.321	165.75
591.086	151.75
591.851	143.75
592.616	137.75
593.381	128.75
594.146	124.75
594.911	119.75
595.675	114.75
596.44	111.75
597.204	100.75
597.969	98.75
598.733	96.75
599.497	91.75
600.261	86.75
601.025	80.75
601.79	76.75
602.553	76.75
603.317	68.75
604.081	71.75
604.845	64.75
605.609	67.75
606.372	61.75
607.136	59.75
607.899	56.75
608.662	54.75
609.426	52.75
610.189	48.75
610.952	49.75
611.715	44.75
612.478	44.75
613.241	47.75
614.004	41.75
614.767	37.75
615.529	38.75
616.292	38.75
617.055	36.75
617.817	33.75
618.579	30.75
619.342	31.75
620.104	30.75
620.866	26.75
621.628	26.75
622.39	29.75
623.152	26.75
623.914	26.75
624.676	24.75
625.438	26.75
626.199	22.75
626.961	21.75
627.722	21.75
628.484	22.75
629.245	21.75
630.006	20.75
630.768	17.75
631.529	17.75
632.29	18.75
633.051	19.75
633.812	15.75
634.573	18.75
635.333	17.75
636.094	13.75
636.855	14.75
637.615	13.75
638.376	16.75
639.136	14.75
639.896	13.75
640.657	14.75
641.417	12.75
642.177	14.75
642.937	12.75
643.697	12.75
644.457	10.75
645.216	8.75
645.976	10.75
646.736	11.75
647.495	11.75
648.255	11.75
649.014	12.75
649.774	10.75
650.533	9.75
651.292	10.75
652.051	10.75
652.81	9.75
653.569	9.75
654.328	8.75
655.087	9.75
655.846	9.75
656.604	8.75
657.363	10.75
658.121	10.75
658.88	9.75
659.638	8.75
660.397	6.75
661.155	9.75
661.913	7.75
662.671	8.75
663.429	8.75
664.187	9.75
664.945	6.75
665.703	8.75
666.46	8.75
667.218	6.75
667.976	8.75
668.733	7.75
669.49	7.75
670.248	2.75
671.005	5.75
671.762	8.75
672.519	4.75
673.276	7.75
674.033	5.75
674.79	4.75
675.547	5.75
676.304	3.75
677.06	6.75
677.817	5.75
678.574	7.75
679.33	5.75
680.086	7.75
680.843	4.75
681.599	7.75
682.355	4.75
683.111	6.75
683.867	5.75
684.623	6.75
685.379	5.75
686.135	5.75
686.89	5.75
687.646	7.75
688.402	2.75
689.157	4.75
689.912	6.75
690.668	4.75
691.423	6.75
692.178	5.75
692.933	5.75
693.688	5.75
694.443	6.75
695.198	5.75
695.953	5.75
696.708	5.75
697.462	7.75
698.217	4.75
698.972	3.75
699.726	4.75
700.48	6.75
701.235	6.75
701.989	5.75
702.743	4.75
703.497	6.75
704.251	5.75
705.005	6.75
705.759	4.75
706.513	3.75
707.266	6.75
708.02	5.75
708.774	3.75
709.527	6.75
710.28	5.75
711.034	6.75
711.787	4.75
712.54	7.75
713.293	3.75
714.046	5.75
714.799	6.75
715.552	3.75
716.305	4.75
717.058	2.75
717.81	7.75
718.563	5.75
719.315	5.75
720.068	6.75
720.82	4.75
721.573	6.75
722.325	5.75
723.077	5.75
723.829	6.75
724.581	6.75
725.333	6.75
726.085	7.75
726.836	4.75
727.588	4.75
728.34	4.75
729.091	8.75
729.843	5.75
730.594	6.75
731.346	6.75
732.097	4.75
732.848	5.75
733.599	3.75
734.35	8.75
735.101	6.75
735.852	6.75
736.603	7.75
737.354	5.75
738.104	7.75
738.855	2.75
739.605	8.75
740.356	5.75
741.106	5.75
741.856	6.75
742.607	6.75
743.357	7.75
744.107	4.75
744.857	5.75
745.607	4.75
746.357	8.75
747.106	3.75
747.856	8.75
748.606	5.75
749.355	5.75
750.105	6.75
750.854	5.75
751.603	6.75
752.353	6.75
753.102	7.75
753.851	10.75
754.6	9.75
755.349	6.75
756.098	8.75
756.847	6.75
757.595	8.75
758.344	6.75
759.093	8.75
759.841	5.75
760.589	7.75
761.338	6.75
762.086	4.75
762.834	9.75
763.582	8.75
764.331	7.75
765.079	8.75
765.826	6.75
766.574	11.75
767.322	7.75
768.07	11.75
768.817	8.75
769.565	10.75
770.312	7.75
771.06	11.75
771.807	11.75
772.554	9.75
773.302	10.75
774.049	8.75
774.796	8.75
775.543	10.75
776.29	10.75
777.036	10.75
777.783	10.75
778.53	11.75
779.276	9.75
780.023	9.75
780.769	11.75
781.516	10.75
782.262	12.75
783.008	10.75
783.754	12.75
784.5	10.75
785.246	9.75
785.992	10.75
786.738	10.75
787.484	10.75
788.23	10.75
788.975	9.75
789.721	9.75
790.466	12.75
791.212	13.75
791.957	10.75
792.702	10.75
793.447	10.75
794.193	8.75
794.938	12.75
795.683	10.75
796.427	8.75
797.172	9.75
797.917	10.75
798.662	8.75
799.406	7.75
800.151	8.75
800.895	10.75
801.64	9.75
802.384	7.75
803.128	7.75
803.872	8.75
804.616	7.75
805.36	9.75
806.104	7.75
806.848	2.75
807.592	9.75
808.336	4.75
809.079	7.75
809.823	7.75
810.566	8.75
811.31	5.75
812.053	8.75
812.796	7.75
813.539	7.75
814.283	5.75
815.026	5.75
815.769	5.75
816.511	6.75
817.254	4.75
817.997	5.75
818.74	6.75
819.482	6.75
820.225	5.75
820.967	7.75
821.71	6.75
822.452	8.75
823.194	7.75
823.936	7.75
824.678	4.75
825.42	8.75
826.162	6.75
826.904	7.75
827.646	2.75
828.388	4.75
829.129	6.75
829.871	4.75
830.612	6.75
831.354	2.75
832.095	4.75
832.836	4.75
833.577	4.75
834.319	4.75
835.06	3.75
835.801	2.75
836.542	3.75
837.282	0.75
838.023	3.75
838.764	2.75
839.504	2.75
840.245	4.75
840.985	4.75
841.726	5.75
842.466	2.75
843.206	6.75
843.946	3.75
844.687	3.75
845.427	3.75
846.166	4.75
846.906	4.75
847.646	3.75
848.386	5.75
849.125	3.75
849.865	4.75
850.605	3.75
851.344	2.75
852.083	4.75
852.823	3.75
853.562	1.75
854.301	4.75
855.04	0.75
855.779	1.75
856.518	2.75
857.257	3.75
857.995	2.75
858.734	6.75
859.473	3.75
860.211	2.75
860.95	2.75
861.688	2.75
862.426	2.75
863.165	2.75
863.903	1.75
864.641	2.75
865.379	1.75
866.117	3.75
866.855	2.75
867.593	2.75
868.33	2.75
869.068	2.75
869.806	1.75
870.543	0.75
871.28	0.75
872.018	2.75
872.755	1.75
873.492	1.75
874.229	2.75
874.967	1.75
875.703	1.75
876.44	2.75
877.177	3.75
877.914	0.75
878.651	3.75
879.387	2.75
880.124	0.75
880.86	-0.25
881.597	0.75
882.333	2.75
883.069	-0.25
883.806	0.75
884.542	0.75
885.278	0.75
886.014	2.75
886.749	-1.25
887.485	1.75
888.221	2.75
888.957	1.75
889.692	2.75
890.428	0.75
891.163	2.75
891.899	-1.25
892.634	2.75
893.369	0.75
894.104	0.75
894.839	3.75
895.574	1.75
896.309	2.75
897.044	0.75
897.779	1.75
898.514	2.75
899.248	0.75
899.983	3.75
900.717	2.75
901.452	-1.25
902.186	0.75
902.92	1.75
903.654	1.75
904.389	1.75
905.123	-0.25
905.857	0.75
906.59	3.75
907.324	0.75
908.058	0.75
908.792	0.75
909.525	-0.25
910.259	1.75
910.992	2.75
911.726	-0.25
912.459	1.75
913.192	1.75
913.925	0.75
914.658	1.75
915.391	0.75
916.124	0.75
916.857	-0.25
917.59	2.75
918.323	1.75
919.055	1.75
919.788	-2.25
920.521	0.75
921.253	2.75
921.985	1.75
922.718	1.75
923.45	0.75
924.182	0.75
924.914	0.75
925.646	0.75
926.378	0.75
927.11	-0.25
927.841	0.75
928.573	0.75
929.305	0.75
930.036	0.75
930.768	0.75
931.499	1.75
932.23	1.75
932.962	0.75
933.693	-0.25
934.424	1.75
935.155	2.75
935.886	0.75
936.617	-0.25
937.348	-0.25
938.078	-0.25
938.809	-0.25
939.54	0.75
940.27	1.75
941.001	-0.25
941.731	1.75
942.461	1.75
943.191	0.75
943.922	-0.25
944.652	-0.25
945.382	1.75
946.112	0.75
946.841	-0.25
947.571	-0.25
948.301	-0.25
949.031	1.75
949.76	0.75
950.49	1.75
951.219	-0.25
951.948	0.75
952.678	1.75
953.407	-0.25
954.136	1.75
954.865	-1.25
955.594	0.75
956.323	0.75
957.052	-0.25
957.78	0.75
958.509	0.75
959.238	0.75
959.966	-2.25
960.695	0.75
961.423	0.75
962.151	-0.25
962.88	0.75
963.608	-0.25
964.336	0.75
965.064	1.75
965.792	-0.25
966.52	0.75
967.247	-0.25
967.975	1.75
968.703	1.75
969.43	1.75
970.158	-1.25
970.885	-3.25
971.613	2.75
972.34	0.75
973.067	0.75
973.794	0.75
974.521	-1.25
975.248	1.75
975.975	1.75
976.702	1.75
977.429	0.75
978.156	-1.25
978.882	-0.25
979.609	-3.25
980.335	0.75
981.062	0.75
981.788	-1.25
982.514	0.75
983.24	0.75
983.967	3.75
984.693	0.75
985.419	1.75
986.144	0.75
986.87	-0.25
987.596	0.75
988.322	0.75
989.047	1.75
989.773	-1.25
990.498	1.75
991.224	-0.25
991.949	-1.25
992.674	2.75
993.399	-1.25
994.124	1.75
994.849	1.75
995.574	-0.25
996.299	0.75
997.024	-0.25
997.749	1.75
998.473	0.75
999.198	0.75
999.922	-0.25
1000.647	0.75
1001.371	2.75
1002.095	-0.25
1002.82	0.75
1003.544	-2.25
1004.268	4.75
1004.992	2.75
1005.716	1.75
1006.439	3.75
1007.163	2.75
1007.887	3.75
1008.611	0.75
1009.334	-1.25
1010.058	-0.25
1010.781	-0.25
1011.504	0.75
1012.228	0.75
1012.951	-3.25
1013.674	0.75
1014.397	0.75
1015.12	0.75
