节点500_425_QEPB04081__255__15-52-33-014.txt的数据

Date: Wed Nov 12 15:52:33 CST 2025
User: PC
Spectrometer: QEPB0408
触发模式: 0
积分时间 (秒): 1.000000E-2
Scans to average: 1
启用暗噪声校正: true
启用非线性校正: false
滑动平均宽度: 0
X轴模式: Wavelengths
Number of Pixels in Spectrum: 1044
>>>>>Begin Spectral Data<<<<<
220.843	2.5
221.644	0.5
222.444	1.5
223.244	1.5
224.045	3.5
224.845	2.5
225.645	0.5
226.445	1.5
227.245	5.5
228.045	5.5
228.845	4.5
229.645	5.5
230.444	3.5
231.244	4.5
232.043	5.5
232.843	5.5
233.642	5.5
234.442	5.5
235.241	7.5
236.04	5.5
236.839	3.5
237.638	5.5
238.437	5.5
239.236	5.5
240.035	3.5
240.833	8.5
241.632	5.5
242.43	3.5
243.229	8.5
244.027	4.5
244.826	5.5
245.624	7.5
246.422	7.5
247.22	7.5
248.018	8.5
248.816	9.5
249.614	7.5
250.412	9.5
251.21	9.5
252.007	10.5
252.805	8.5
253.602	10.5
254.4	13.5
255.197	10.5
255.994	10.5
256.791	14.5
257.589	11.5
258.386	13.5
259.183	13.5
259.979	15.5
260.776	13.5
261.573	13.5
262.37	16.5
263.166	12.5
263.963	14.5
264.759	16.5
265.556	16.5
266.352	20.5
267.148	18.5
267.944	18.5
268.74	19.5
269.536	19.5
270.332	23.5
271.128	20.5
271.924	22.5
272.719	21.5
273.515	23.5
274.311	22.5
275.106	22.5
275.901	24.5
276.697	22.5
277.492	23.5
278.287	22.5
279.082	22.5
279.877	26.5
280.672	21.5
281.467	24.5
282.262	21.5
283.056	26.5
283.851	22.5
284.646	24.5
285.44	23.5
286.234	23.5
287.029	21.5
287.823	24.5
288.617	25.5
289.411	25.5
290.205	23.5
290.999	24.5
291.793	23.5
292.587	23.5
293.381	21.5
294.174	20.5
294.968	23.5
295.761	19.5
296.555	20.5
297.348	19.5
298.141	19.5
298.935	20.5
299.728	17.5
300.521	17.5
301.314	16.5
302.107	18.5
302.899	15.5
303.692	16.5
304.485	11.5
305.277	13.5
306.07	15.5
306.862	17.5
307.655	15.5
308.447	13.5
309.239	14.5
310.031	14.5
310.823	13.5
311.615	15.5
312.407	11.5
313.199	12.5
313.991	11.5
314.783	10.5
315.574	9.5
316.366	9.5
317.157	11.5
317.949	11.5
318.74	7.5
319.531	8.5
320.322	9.5
321.113	10.5
321.904	9.5
322.695	8.5
323.486	8.5
324.277	9.5
325.068	8.5
325.858	8.5
326.649	8.5
327.439	9.5
328.23	9.5
329.02	6.5
329.81	7.5
330.6	10.5
331.391	7.5
332.181	6.5
332.971	9.5
333.76	9.5
334.55	7.5
335.34	10.5
336.13	7.5
336.919	9.5
337.709	9.5
338.498	8.5
339.287	4.5
340.077	9.5
340.866	7.5
341.655	9.5
342.444	6.5
343.233	7.5
344.022	8.5
344.811	6.5
345.6	7.5
346.388	6.5
347.177	7.5
347.965	6.5
348.754	6.5
349.542	8.5
350.33	7.5
351.119	5.5
351.907	8.5
352.695	5.5
353.483	8.5
354.271	8.5
355.059	8.5
355.846	6.5
356.634	6.5
357.422	5.5
358.209	3.5
358.997	6.5
359.784	6.5
360.571	7.5
361.359	6.5
362.146	4.5
362.933	4.5
363.72	6.5
364.507	8.5
365.294	3.5
366.081	6.5
366.867	5.5
367.654	4.5
368.44	4.5
369.227	7.5
370.013	5.5
370.8	5.5
371.586	6.5
372.372	4.5
373.158	7.5
373.944	8.5
374.73	5.5
375.516	5.5
376.302	5.5
377.088	7.5
377.873	7.5
378.659	6.5
379.445	5.5
380.23	6.5
381.015	4.5
381.801	5.5
382.586	6.5
383.371	7.5
384.156	8.5
384.941	7.5
385.726	5.5
386.511	8.5
387.296	9.5
388.08	7.5
388.865	8.5
389.649	9.5
390.434	6.5
391.218	4.5
392.003	8.5
392.787	8.5
393.571	8.5
394.355	3.5
395.139	7.5
395.923	9.5
396.707	9.5
397.491	8.5
398.274	5.5
399.058	6.5
399.842	7.5
400.625	8.5
401.408	10.5
402.192	7.5
402.975	9.5
403.758	8.5
404.541	8.5
405.324	9.5
406.107	9.5
406.89	10.5
407.673	8.5
408.456	9.5
409.238	7.5
410.021	11.5
410.803	9.5
411.586	10.5
412.368	12.5
413.151	11.5
413.933	13.5
414.715	8.5
415.497	10.5
416.279	8.5
417.061	13.5
417.843	9.5
418.624	11.5
419.406	15.5
420.188	13.5
420.969	16.5
421.751	14.5
422.532	11.5
423.313	17.5
424.095	15.5
424.876	15.5
425.657	14.5
426.438	15.5
427.219	18.5
428	19.5
428.78	17.5
429.561	16.5
430.342	19.5
431.122	19.5
431.903	19.5
432.683	21.5
433.464	20.5
434.244	24.5
435.024	23.5
435.804	25.5
436.584	25.5
437.364	25.5
438.144	29.5
438.924	28.5
439.704	33.5
440.483	35.5
441.263	33.5
442.042	37.5
442.822	39.5
443.601	42.5
444.38	41.5
445.16	48.5
445.939	52.5
446.718	51.5
447.497	60.5
448.276	65.5
449.054	68.5
449.833	73.5
450.612	81.5
451.391	86.5
452.169	101.5
452.948	110.5
453.726	118.5
454.504	136.5
455.282	151.5
456.061	163.5
456.839	187.5
457.617	206.5
458.395	235.5
459.172	257.5
459.95	280.5
460.728	306.5
461.506	342.5
462.283	396.5
463.061	431.5
463.838	497.5
464.615	553.5
465.393	617.5
466.17	683.5
466.947	759.5
467.724	850.5
468.501	936.5
469.278	1047.5
470.055	1149.5
470.831	1290.5
471.608	1420.5
472.385	1587.5
473.161	1758.5
473.938	1934.5
474.714	2131.5
475.49	2365.5
476.266	2640.5
477.043	2881.5
477.819	3191.5
478.595	3503.5
479.371	3859.5
480.146	4232.5
480.922	4643.5
481.698	5114.5
482.473	5610.5
483.249	6172.5
484.024	6725.5
484.8	7399.5
485.575	8060.5
486.35	8801.5
487.126	9633.5
487.901	10492.5
488.676	11477.5
489.451	12455.5
490.225	13511.5
491	14676.5
491.775	15938.5
492.55	17178.5
493.324	18537.5
494.099	19828.5
494.873	21239.5
495.647	22663.5
496.422	24040.5
497.196	25624.5
497.97	27053.5
498.744	28474.5
499.518	29823.5
500.292	31068.5
501.066	32096.5
501.839	33347.5
502.613	34228.5
503.387	34877.5
504.16	35341.5
504.934	35730.5
505.707	35659.5
506.48	35536.5
507.253	35176.5
508.027	34711.5
508.8	34138.5
509.573	33372.5
510.346	32491.5
511.118	31527.5
511.891	30528.5
512.664	29428.5
513.437	28232.5
514.209	27105.5
514.982	26037.5
515.754	24961.5
516.526	23926.5
517.298	22856.5
518.071	21875.5
518.843	21103.5
519.615	20173.5
520.387	19367.5
521.159	18609.5
521.93	17914.5
522.702	17183.5
523.474	16484.5
524.245	15840.5
525.017	15169.5
525.788	14368.5
526.56	13740.5
527.331	13161.5
528.102	12514.5
528.873	11960.5
529.644	11371.5
530.415	10829.5
531.186	10325.5
531.957	9731.5
532.728	9193.5
533.498	8729.5
534.269	8254.5
535.039	7822.5
535.81	7346.5
536.58	6944.5
537.351	6561.5
538.121	6200.5
538.891	5867.5
539.661	5557.5
540.431	5278.5
541.201	4997.5
541.971	4749.5
542.741	4499.5
543.51	4270.5
544.28	4054.5
545.05	3854.5
545.819	3661.5
546.588	3488.5
547.358	3279.5
548.127	3129.5
548.896	2976.5
549.665	2822.5
550.434	2673.5
551.203	2537.5
551.972	2392.5
552.741	2264.5
553.51	2137.5
554.278	2010.5
555.047	1896.5
555.815	1797.5
556.584	1700.5
557.352	1613.5
558.121	1507.5
558.889	1434.5
559.657	1358.5
560.425	1276.5
561.193	1198.5
561.961	1133.5
562.729	1081.5
563.496	1026.5
564.264	965.5
565.032	913.5
565.799	860.5
566.567	809.5
567.334	777.5
568.101	731.5
568.869	691.5
569.636	645.5
570.403	620.5
571.17	574.5
571.937	547.5
572.704	523.5
573.471	484.5
574.237	456.5
575.004	435.5
575.771	403.5
576.537	385.5
577.303	357.5
578.07	339.5
578.836	315.5
579.602	300.5
580.368	285.5
581.134	267.5
581.9	259.5
582.666	244.5
583.432	231.5
584.198	220.5
584.964	207.5
585.729	193.5
586.495	189.5
587.26	176.5
588.025	166.5
588.791	165.5
589.556	153.5
590.321	145.5
591.086	136.5
591.851	129.5
592.616	123.5
593.381	113.5
594.146	112.5
594.911	105.5
595.675	99.5
596.44	97.5
597.204	94.5
597.969	85.5
598.733	86.5
599.497	81.5
600.261	78.5
601.025	71.5
601.79	73.5
602.553	66.5
603.317	64.5
604.081	61.5
604.845	61.5
605.609	55.5
606.372	50.5
607.136	56.5
607.899	49.5
608.662	49.5
609.426	45.5
610.189	40.5
610.952	46.5
611.715	39.5
612.478	40.5
613.241	37.5
614.004	36.5
614.767	38.5
615.529	34.5
616.292	32.5
617.055	33.5
617.817	32.5
618.579	29.5
619.342	27.5
620.104	27.5
620.866	26.5
621.628	28.5
622.39	27.5
623.152	23.5
623.914	23.5
624.676	20.5
625.438	21.5
626.199	21.5
626.961	21.5
627.722	18.5
628.484	19.5
629.245	20.5
630.006	17.5
630.768	14.5
631.529	15.5
632.29	14.5
633.051	16.5
633.812	13.5
634.573	14.5
635.333	15.5
636.094	13.5
636.855	16.5
637.615	16.5
638.376	11.5
639.136	13.5
639.896	9.5
640.657	14.5
641.417	12.5
642.177	11.5
642.937	9.5
643.697	11.5
644.457	12.5
645.216	7.5
645.976	12.5
646.736	8.5
647.495	11.5
648.255	11.5
649.014	8.5
649.774	8.5
650.533	9.5
651.292	8.5
652.051	9.5
652.81	7.5
653.569	8.5
654.328	7.5
655.087	5.5
655.846	10.5
656.604	7.5
657.363	7.5
658.121	9.5
658.88	7.5
659.638	7.5
660.397	6.5
661.155	7.5
661.913	5.5
662.671	8.5
663.429	6.5
664.187	3.5
664.945	7.5
665.703	7.5
666.46	3.5
667.218	7.5
667.976	5.5
668.733	8.5
669.49	6.5
670.248	5.5
671.005	7.5
671.762	4.5
672.519	3.5
673.276	6.5
674.033	6.5
674.79	6.5
675.547	3.5
676.304	6.5
677.06	2.5
677.817	5.5
678.574	3.5
679.33	3.5
680.086	4.5
680.843	6.5
681.599	4.5
682.355	4.5
683.111	5.5
683.867	6.5
684.623	5.5
685.379	5.5
686.135	4.5
686.89	4.5
687.646	4.5
688.402	4.5
689.157	6.5
689.912	3.5
690.668	4.5
691.423	3.5
692.178	5.5
692.933	2.5
693.688	3.5
694.443	3.5
695.198	3.5
695.953	2.5
696.708	1.5
697.462	2.5
698.217	4.5
698.972	3.5
699.726	4.5
700.48	5.5
701.235	5.5
701.989	2.5
702.743	2.5
703.497	2.5
704.251	4.5
705.005	4.5
705.759	3.5
706.513	4.5
707.266	5.5
708.02	2.5
708.774	3.5
709.527	4.5
710.28	3.5
711.034	4.5
711.787	1.5
712.54	3.5
713.293	1.5
714.046	5.5
714.799	3.5
715.552	2.5
716.305	4.5
717.058	4.5
717.81	4.5
718.563	2.5
719.315	4.5
720.068	0.5
720.82	4.5
721.573	3.5
722.325	5.5
723.077	3.5
723.829	5.5
724.581	4.5
725.333	5.5
726.085	6.5
726.836	2.5
727.588	4.5
728.34	7.5
729.091	5.5
729.843	4.5
730.594	4.5
731.346	5.5
732.097	5.5
732.848	4.5
733.599	1.5
734.35	5.5
735.101	5.5
735.852	5.5
736.603	3.5
737.354	4.5
738.104	6.5
738.855	4.5
739.605	5.5
740.356	3.5
741.106	5.5
741.856	6.5
742.607	4.5
743.357	5.5
744.107	7.5
744.857	3.5
745.607	6.5
746.357	7.5
747.106	6.5
747.856	4.5
748.606	5.5
749.355	6.5
750.105	6.5
750.854	5.5
751.603	6.5
752.353	7.5
753.102	4.5
753.851	6.5
754.6	7.5
755.349	4.5
756.098	4.5
756.847	8.5
757.595	8.5
758.344	5.5
759.093	6.5
759.841	7.5
760.589	6.5
761.338	8.5
762.086	7.5
762.834	8.5
763.582	9.5
764.331	7.5
765.079	8.5
765.826	6.5
766.574	10.5
767.322	8.5
768.07	10.5
768.817	7.5
769.565	8.5
770.312	9.5
771.06	9.5
771.807	8.5
772.554	9.5
773.302	9.5
774.049	8.5
774.796	11.5
775.543	8.5
776.29	12.5
777.036	10.5
777.783	10.5
778.53	11.5
779.276	11.5
780.023	9.5
780.769	9.5
781.516	11.5
782.262	10.5
783.008	8.5
783.754	10.5
784.5	8.5
785.246	11.5
785.992	11.5
786.738	10.5
787.484	11.5
788.23	11.5
788.975	9.5
789.721	11.5
790.466	11.5
791.212	10.5
791.957	9.5
792.702	9.5
793.447	9.5
794.193	9.5
794.938	8.5
795.683	11.5
796.427	9.5
797.172	8.5
797.917	7.5
798.662	8.5
799.406	9.5
800.151	9.5
800.895	9.5
801.64	9.5
802.384	7.5
803.128	7.5
803.872	8.5
804.616	7.5
805.36	6.5
806.104	9.5
806.848	6.5
807.592	9.5
808.336	4.5
809.079	7.5
809.823	6.5
810.566	5.5
811.31	5.5
812.053	7.5
812.796	7.5
813.539	7.5
814.283	4.5
815.026	7.5
815.769	4.5
816.511	6.5
817.254	5.5
817.997	3.5
818.74	5.5
819.482	4.5
820.225	5.5
820.967	3.5
821.71	4.5
822.452	5.5
823.194	5.5
823.936	6.5
824.678	4.5
825.42	5.5
826.162	3.5
826.904	4.5
827.646	4.5
828.388	5.5
829.129	3.5
829.871	4.5
830.612	7.5
831.354	5.5
832.095	2.5
832.836	5.5
833.577	4.5
834.319	3.5
835.06	3.5
835.801	2.5
836.542	4.5
837.282	3.5
838.023	3.5
838.764	3.5
839.504	5.5
840.245	5.5
840.985	4.5
841.726	1.5
842.466	6.5
843.206	4.5
843.946	2.5
844.687	3.5
845.427	1.5
846.166	4.5
846.906	3.5
847.646	2.5
848.386	1.5
849.125	3.5
849.865	2.5
850.605	1.5
851.344	5.5
852.083	4.5
852.823	3.5
853.562	1.5
854.301	5.5
855.04	2.5
855.779	1.5
856.518	2.5
857.257	2.5
857.995	1.5
858.734	0.5
859.473	1.5
860.211	0.5
860.95	2.5
861.688	1.5
862.426	1.5
863.165	0.5
863.903	0.5
864.641	2.5
865.379	2.5
866.117	2.5
866.855	1.5
867.593	0.5
868.33	4.5
869.068	1.5
869.806	1.5
870.543	0.5
871.28	1.5
872.018	-0.5
872.755	1.5
873.492	1.5
874.229	0.5
874.967	0.5
875.703	2.5
876.44	1.5
877.177	0.5
877.914	0.5
878.651	1.5
879.387	-0.5
880.124	-0.5
880.86	-0.5
881.597	-1.5
882.333	0.5
883.069	0.5
883.806	0.5
884.542	4.5
885.278	0.5
886.014	0.5
886.749	-0.5
887.485	0.5
888.221	-0.5
888.957	0.5
889.692	-0.5
890.428	0.5
891.163	-0.5
891.899	0.5
892.634	-0.5
893.369	1.5
894.104	0.5
894.839	0.5
895.574	-0.5
896.309	2.5
897.044	-1.5
897.779	-0.5
898.514	1.5
899.248	-0.5
899.983	-0.5
900.717	-0.5
901.452	-0.5
902.186	0.5
902.92	0.5
903.654	-0.5
904.389	-1.5
905.123	-0.5
905.857	-0.5
906.59	-0.5
907.324	-0.5
908.058	-0.5
908.792	-0.5
909.525	-0.5
910.259	-0.5
910.992	0.5
911.726	-0.5
912.459	-1.5
913.192	-2.5
913.925	1.5
914.658	-1.5
915.391	-2.5
916.124	0.5
916.857	-2.5
917.59	0.5
918.323	-0.5
919.055	-1.5
919.788	-0.5
920.521	-1.5
921.253	1.5
921.985	-0.5
922.718	-0.5
923.45	0.5
924.182	-0.5
924.914	0.5
925.646	-1.5
926.378	-0.5
927.11	-0.5
927.841	0.5
928.573	-0.5
929.305	-3.5
930.036	-1.5
930.768	1.5
931.499	-0.5
932.23	0.5
932.962	0.5
933.693	-0.5
934.424	1.5
935.155	1.5
935.886	0.5
936.617	-1.5
937.348	-0.5
938.078	-1.5
938.809	-1.5
939.54	-0.5
940.27	-0.5
941.001	-1.5
941.731	-0.5
942.461	-0.5
943.191	0.5
943.922	1.5
944.652	-1.5
945.382	-1.5
946.112	0.5
946.841	-0.5
947.571	0.5
948.301	-0.5
949.031	-2.5
949.76	-2.5
950.49	-1.5
951.219	-1.5
951.948	0.5
952.678	-0.5
953.407	0.5
954.136	0.5
954.865	-0.5
955.594	-1.5
956.323	0.5
957.052	-1.5
957.78	-0.5
958.509	-0.5
959.238	0.5
959.966	-2.5
960.695	0.5
961.423	-0.5
962.151	-0.5
962.88	-2.5
963.608	-0.5
964.336	-0.5
965.064	0.5
965.792	-2.5
966.52	-0.5
967.247	-0.5
967.975	-0.5
968.703	0.5
969.43	-1.5
970.158	-0.5
970.885	-1.5
971.613	-2.5
972.34	-0.5
973.067	1.5
973.794	-2.5
974.521	-0.5
975.248	-3.5
975.975	-1.5
976.702	0.5
977.429	-2.5
978.156	-2.5
978.882	0.5
979.609	-0.5
980.335	1.5
981.062	1.5
981.788	0.5
982.514	0.5
983.24	-2.5
983.967	1.5
984.693	-2.5
985.419	0.5
986.144	0.5
986.87	-0.5
987.596	-0.5
988.322	-2.5
989.047	0.5
989.773	-1.5
990.498	-0.5
991.224	-0.5
991.949	-0.5
992.674	-1.5
993.399	-0.5
994.124	0.5
994.849	-0.5
995.574	-1.5
996.299	-0.5
997.024	-3.5
997.749	-0.5
998.473	-2.5
999.198	-0.5
999.922	-0.5
1000.647	-1.5
1001.371	4.5
1002.095	-1.5
1002.82	-0.5
1003.544	-0.5
1004.268	4.5
1004.992	1.5
1005.716	1.5
1006.439	1.5
1007.163	2.5
1007.887	4.5
1008.611	-0.5
1009.334	-0.5
1010.058	0.5
1010.781	-1.5
1011.504	-1.5
1012.228	-0.5
1012.951	-0.5
1013.674	-0.5
1014.397	-1.5
1015.12	0.5
