节点500_425_QEPB04081__463__15-56-00-583.txt的数据

Date: Wed Nov 12 15:56:00 CST 2025
User: PC
Spectrometer: QEPB0408
触发模式: 0
积分时间 (秒): 1.000000E-2
Scans to average: 1
启用暗噪声校正: true
启用非线性校正: false
滑动平均宽度: 0
X轴模式: Wavelengths
Number of Pixels in Spectrum: 1044
>>>>>Begin Spectral Data<<<<<
220.843	3.25
221.644	4.25
222.444	2.25
223.244	3.25
224.045	2.25
224.845	4.25
225.645	4.25
226.445	3.25
227.245	7.25
228.045	2.25
228.845	3.25
229.645	4.25
230.444	4.25
231.244	5.25
232.043	4.25
232.843	6.25
233.642	4.25
234.442	8.25
235.241	7.25
236.04	5.25
236.839	7.25
237.638	3.25
238.437	6.25
239.236	7.25
240.035	8.25
240.833	8.25
241.632	7.25
242.43	9.25
243.229	8.25
244.027	6.25
244.826	9.25
245.624	5.25
246.422	8.25
247.22	8.25
248.018	7.25
248.816	10.25
249.614	7.25
250.412	8.25
251.21	10.25
252.007	10.25
252.805	12.25
253.602	11.25
254.4	12.25
255.197	9.25
255.994	13.25
256.791	8.25
257.589	13.25
258.386	14.25
259.183	9.25
259.979	12.25
260.776	13.25
261.573	14.25
262.37	13.25
263.166	14.25
263.963	16.25
264.759	15.25
265.556	15.25
266.352	17.25
267.148	18.25
267.944	16.25
268.74	18.25
269.536	17.25
270.332	19.25
271.128	20.25
271.924	21.25
272.719	23.25
273.515	22.25
274.311	21.25
275.106	21.25
275.901	22.25
276.697	23.25
277.492	23.25
278.287	23.25
279.082	25.25
279.877	20.25
280.672	21.25
281.467	23.25
282.262	23.25
283.056	24.25
283.851	22.25
284.646	22.25
285.44	22.25
286.234	23.25
287.029	22.25
287.823	19.25
288.617	26.25
289.411	23.25
290.205	22.25
290.999	23.25
291.793	25.25
292.587	25.25
293.381	23.25
294.174	22.25
294.968	18.25
295.761	22.25
296.555	21.25
297.348	20.25
298.141	18.25
298.935	20.25
299.728	19.25
300.521	17.25
301.314	19.25
302.107	15.25
302.899	18.25
303.692	18.25
304.485	18.25
305.277	14.25
306.07	16.25
306.862	16.25
307.655	14.25
308.447	15.25
309.239	15.25
310.031	15.25
310.823	14.25
311.615	13.25
312.407	13.25
313.199	14.25
313.991	13.25
314.783	13.25
315.574	10.25
316.366	8.25
317.157	13.25
317.949	10.25
318.74	9.25
319.531	11.25
320.322	11.25
321.113	8.25
321.904	9.25
322.695	10.25
323.486	11.25
324.277	11.25
325.068	8.25
325.858	10.25
326.649	8.25
327.439	8.25
328.23	10.25
329.02	9.25
329.81	8.25
330.6	11.25
331.391	8.25
332.181	9.25
332.971	7.25
333.76	10.25
334.55	9.25
335.34	7.25
336.13	9.25
336.919	9.25
337.709	9.25
338.498	9.25
339.287	6.25
340.077	9.25
340.866	8.25
341.655	8.25
342.444	6.25
343.233	9.25
344.022	7.25
344.811	5.25
345.6	7.25
346.388	5.25
347.177	9.25
347.965	8.25
348.754	8.25
349.542	9.25
350.33	5.25
351.119	7.25
351.907	7.25
352.695	9.25
353.483	9.25
354.271	8.25
355.059	8.25
355.846	7.25
356.634	10.25
357.422	8.25
358.209	8.25
358.997	9.25
359.784	7.25
360.571	9.25
361.359	5.25
362.146	7.25
362.933	4.25
363.72	6.25
364.507	7.25
365.294	6.25
366.081	8.25
366.867	7.25
367.654	9.25
368.44	8.25
369.227	8.25
370.013	7.25
370.8	6.25
371.586	6.25
372.372	7.25
373.158	6.25
373.944	5.25
374.73	5.25
375.516	6.25
376.302	6.25
377.088	7.25
377.873	8.25
378.659	4.25
379.445	7.25
380.23	7.25
381.015	7.25
381.801	4.25
382.586	7.25
383.371	6.25
384.156	6.25
384.941	8.25
385.726	8.25
386.511	6.25
387.296	9.25
388.08	8.25
388.865	8.25
389.649	8.25
390.434	8.25
391.218	9.25
392.003	8.25
392.787	8.25
393.571	8.25
394.355	9.25
395.139	8.25
395.923	7.25
396.707	10.25
397.491	10.25
398.274	11.25
399.058	8.25
399.842	7.25
400.625	8.25
401.408	7.25
402.192	9.25
402.975	11.25
403.758	10.25
404.541	12.25
405.324	9.25
406.107	11.25
406.89	10.25
407.673	14.25
408.456	9.25
409.238	14.25
410.021	10.25
410.803	12.25
411.586	10.25
412.368	12.25
413.151	12.25
413.933	11.25
414.715	13.25
415.497	10.25
416.279	10.25
417.061	12.25
417.843	11.25
418.624	13.25
419.406	12.25
420.188	16.25
420.969	11.25
421.751	12.25
422.532	14.25
423.313	14.25
424.095	16.25
424.876	15.25
425.657	16.25
426.438	16.25
427.219	15.25
428	20.25
428.78	19.25
429.561	18.25
430.342	19.25
431.122	21.25
431.903	19.25
432.683	22.25
433.464	21.25
434.244	26.25
435.024	23.25
435.804	27.25
436.584	26.25
437.364	28.25
438.144	26.25
438.924	32.25
439.704	29.25
440.483	32.25
441.263	36.25
442.042	37.25
442.822	38.25
443.601	44.25
444.38	47.25
445.16	48.25
445.939	51.25
446.718	58.25
447.497	64.25
448.276	69.25
449.054	76.25
449.833	83.25
450.612	87.25
451.391	98.25
452.169	108.25
452.948	119.25
453.726	131.25
454.504	141.25
455.282	161.25
456.061	183.25
456.839	199.25
457.617	222.25
458.395	241.25
459.172	274.25
459.95	306.25
460.728	345.25
461.506	370.25
462.283	410.25
463.061	467.25
463.838	523.25
464.615	580.25
465.393	642.25
466.17	719.25
466.947	797.25
467.724	876.25
468.501	980.25
469.278	1082.25
470.055	1204.25
470.831	1337.25
471.608	1462.25
472.385	1622.25
473.161	1780.25
473.938	1957.25
474.714	2175.25
475.49	2362.25
476.266	2614.25
477.043	2867.25
477.819	3153.25
478.595	3456.25
479.371	3781.25
480.146	4108.25
480.922	4521.25
481.698	4928.25
482.473	5364.25
483.249	5861.25
484.024	6418.25
484.8	7020.25
485.575	7597.25
486.35	8214.25
487.126	8926.25
487.901	9716.25
488.676	10582.25
489.451	11404.25
490.225	12427.25
491	13404.25
491.775	14486.25
492.55	15665.25
493.324	16752.25
494.099	17924.25
494.873	19191.25
495.647	20415.25
496.422	21710.25
497.196	23074.25
497.97	24586.25
498.744	25745.25
499.518	27107.25
500.292	28261.25
501.066	29370.25
501.839	30565.25
502.613	31411.25
503.387	32218.25
504.16	32843.25
504.934	33311.25
505.707	33481.25
506.48	33571.25
507.253	33448.25
508.027	33338.25
508.8	32953.25
509.573	32438.25
510.346	31768.25
511.118	31002.25
511.891	30155.25
512.664	29183.25
513.437	28150.25
514.209	27093.25
514.982	26221.25
515.754	25159.25
516.526	24158.25
517.298	23224.25
518.071	22241.25
518.843	21318.25
519.615	20436.25
520.387	19646.25
521.159	18897.25
521.93	18183.25
522.702	17466.25
523.474	16761.25
524.245	16136.25
525.017	15395.25
525.788	14674.25
526.56	14072.25
527.331	13463.25
528.102	12845.25
528.873	12271.25
529.644	11713.25
530.415	11135.25
531.186	10627.25
531.957	10141.25
532.728	9581.25
533.498	9071.25
534.269	8592.25
535.039	8149.25
535.81	7701.25
536.58	7283.25
537.351	6865.25
538.121	6476.25
538.891	6159.25
539.661	5819.25
540.431	5522.25
541.201	5207.25
541.971	4993.25
542.741	4727.25
543.51	4464.25
544.28	4231.25
545.05	4007.25
545.819	3837.25
546.588	3660.25
547.358	3471.25
548.127	3293.25
548.896	3114.25
549.665	2958.25
550.434	2825.25
551.203	2688.25
551.972	2548.25
552.741	2393.25
553.51	2269.25
554.278	2152.25
555.047	2032.25
555.815	1914.25
556.584	1808.25
557.352	1709.25
558.121	1609.25
558.889	1519.25
559.657	1445.25
560.425	1366.25
561.193	1293.25
561.961	1230.25
562.729	1154.25
563.496	1089.25
564.264	1036.25
565.032	970.25
565.799	926.25
566.567	873.25
567.334	821.25
568.101	772.25
568.869	731.25
569.636	696.25
570.403	651.25
571.17	615.25
571.937	581.25
572.704	552.25
573.471	528.25
574.237	486.25
575.004	462.25
575.771	436.25
576.537	414.25
577.303	387.25
578.07	362.25
578.836	332.25
579.602	318.25
580.368	312.25
581.134	291.25
581.9	277.25
582.666	261.25
583.432	243.25
584.198	238.25
584.964	219.25
585.729	217.25
586.495	205.25
587.26	189.25
588.025	180.25
588.791	173.25
589.556	161.25
590.321	158.25
591.086	149.25
591.851	138.25
592.616	131.25
593.381	125.25
594.146	118.25
594.911	113.25
595.675	112.25
596.44	103.25
597.204	94.25
597.969	89.25
598.733	90.25
599.497	90.25
600.261	80.25
601.025	76.25
601.79	76.25
602.553	73.25
603.317	69.25
604.081	69.25
604.845	65.25
605.609	60.25
606.372	61.25
607.136	55.25
607.899	54.25
608.662	49.25
609.426	53.25
610.189	50.25
610.952	46.25
611.715	44.25
612.478	42.25
613.241	42.25
614.004	40.25
614.767	37.25
615.529	37.25
616.292	36.25
617.055	36.25
617.817	33.25
618.579	31.25
619.342	30.25
620.104	28.25
620.866	28.25
621.628	26.25
622.39	26.25
623.152	25.25
623.914	24.25
624.676	25.25
625.438	25.25
626.199	21.25
626.961	22.25
627.722	22.25
628.484	21.25
629.245	20.25
630.006	22.25
630.768	19.25
631.529	16.25
632.29	19.25
633.051	18.25
633.812	16.25
634.573	16.25
635.333	18.25
636.094	18.25
636.855	14.25
637.615	16.25
638.376	12.25
639.136	15.25
639.896	16.25
640.657	13.25
641.417	14.25
642.177	12.25
642.937	13.25
643.697	10.25
644.457	12.25
645.216	13.25
645.976	10.25
646.736	10.25
647.495	10.25
648.255	10.25
649.014	7.25
649.774	10.25
650.533	11.25
651.292	10.25
652.051	9.25
652.81	10.25
653.569	8.25
654.328	11.25
655.087	10.25
655.846	9.25
656.604	8.25
657.363	6.25
658.121	9.25
658.88	8.25
659.638	8.25
660.397	6.25
661.155	9.25
661.913	6.25
662.671	6.25
663.429	7.25
664.187	9.25
664.945	5.25
665.703	8.25
666.46	5.25
667.218	4.25
667.976	9.25
668.733	5.25
669.49	6.25
670.248	7.25
671.005	7.25
671.762	8.25
672.519	6.25
673.276	3.25
674.033	6.25
674.79	5.25
675.547	7.25
676.304	4.25
677.06	4.25
677.817	7.25
678.574	7.25
679.33	5.25
680.086	6.25
680.843	4.25
681.599	6.25
682.355	5.25
683.111	6.25
683.867	4.25
684.623	6.25
685.379	6.25
686.135	4.25
686.89	8.25
687.646	4.25
688.402	3.25
689.157	7.25
689.912	4.25
690.668	6.25
691.423	5.25
692.178	7.25
692.933	4.25
693.688	4.25
694.443	6.25
695.198	4.25
695.953	6.25
696.708	6.25
697.462	5.25
698.217	3.25
698.972	5.25
699.726	5.25
700.48	6.25
701.235	6.25
701.989	3.25
702.743	3.25
703.497	3.25
704.251	5.25
705.005	4.25
705.759	5.25
706.513	3.25
707.266	4.25
708.02	5.25
708.774	6.25
709.527	5.25
710.28	6.25
711.034	4.25
711.787	5.25
712.54	4.25
713.293	4.25
714.046	7.25
714.799	6.25
715.552	6.25
716.305	4.25
717.058	4.25
717.81	5.25
718.563	3.25
719.315	5.25
720.068	6.25
720.82	7.25
721.573	6.25
722.325	5.25
723.077	6.25
723.829	6.25
724.581	6.25
725.333	5.25
726.085	4.25
726.836	6.25
727.588	3.25
728.34	4.25
729.091	4.25
729.843	7.25
730.594	5.25
731.346	5.25
732.097	5.25
732.848	5.25
733.599	4.25
734.35	3.25
735.101	6.25
735.852	7.25
736.603	4.25
737.354	8.25
738.104	6.25
738.855	4.25
739.605	6.25
740.356	3.25
741.106	4.25
741.856	5.25
742.607	5.25
743.357	5.25
744.107	5.25
744.857	7.25
745.607	6.25
746.357	6.25
747.106	5.25
747.856	8.25
748.606	5.25
749.355	8.25
750.105	8.25
750.854	6.25
751.603	8.25
752.353	8.25
753.102	5.25
753.851	8.25
754.6	5.25
755.349	5.25
756.098	9.25
756.847	8.25
757.595	6.25
758.344	9.25
759.093	8.25
759.841	6.25
760.589	7.25
761.338	7.25
762.086	9.25
762.834	8.25
763.582	10.25
764.331	10.25
765.079	6.25
765.826	8.25
766.574	9.25
767.322	9.25
768.07	7.25
768.817	8.25
769.565	8.25
770.312	11.25
771.06	8.25
771.807	9.25
772.554	10.25
773.302	8.25
774.049	9.25
774.796	11.25
775.543	10.25
776.29	10.25
777.036	9.25
777.783	11.25
778.53	11.25
779.276	10.25
780.023	10.25
780.769	10.25
781.516	14.25
782.262	10.25
783.008	8.25
783.754	11.25
784.5	10.25
785.246	10.25
785.992	8.25
786.738	13.25
787.484	14.25
788.23	10.25
788.975	10.25
789.721	8.25
790.466	10.25
791.212	11.25
791.957	9.25
792.702	12.25
793.447	11.25
794.193	10.25
794.938	8.25
795.683	10.25
796.427	10.25
797.172	10.25
797.917	10.25
798.662	9.25
799.406	11.25
800.151	10.25
800.895	9.25
801.64	9.25
802.384	7.25
803.128	10.25
803.872	10.25
804.616	8.25
805.36	6.25
806.104	6.25
806.848	6.25
807.592	6.25
808.336	10.25
809.079	8.25
809.823	7.25
810.566	7.25
811.31	9.25
812.053	7.25
812.796	7.25
813.539	8.25
814.283	7.25
815.026	6.25
815.769	6.25
816.511	5.25
817.254	6.25
817.997	6.25
818.74	7.25
819.482	5.25
820.225	4.25
820.967	6.25
821.71	6.25
822.452	5.25
823.194	7.25
823.936	6.25
824.678	5.25
825.42	5.25
826.162	4.25
826.904	7.25
827.646	3.25
828.388	4.25
829.129	4.25
829.871	6.25
830.612	4.25
831.354	4.25
832.095	3.25
832.836	5.25
833.577	4.25
834.319	2.25
835.06	3.25
835.801	5.25
836.542	3.25
837.282	6.25
838.023	4.25
838.764	4.25
839.504	1.25
840.245	4.25
840.985	3.25
841.726	3.25
842.466	4.25
843.206	4.25
843.946	6.25
844.687	4.25
845.427	2.25
846.166	6.25
846.906	2.25
847.646	3.25
848.386	4.25
849.125	3.25
849.865	4.25
850.605	3.25
851.344	2.25
852.083	3.25
852.823	3.25
853.562	2.25
854.301	3.25
855.04	5.25
855.779	1.25
856.518	5.25
857.257	3.25
857.995	3.25
858.734	2.25
859.473	5.25
860.211	3.25
860.95	3.25
861.688	4.25
862.426	3.25
863.165	4.25
863.903	2.25
864.641	2.25
865.379	2.25
866.117	3.25
866.855	2.25
867.593	2.25
868.33	0.25
869.068	1.25
869.806	4.25
870.543	2.25
871.28	1.25
872.018	0.25
872.755	4.25
873.492	1.25
874.229	2.25
874.967	3.25
875.703	0.25
876.44	4.25
877.177	0.25
877.914	2.25
878.651	0.25
879.387	-0.75
880.124	4.25
880.86	-0.75
881.597	4.25
882.333	0.25
883.069	2.25
883.806	1.25
884.542	1.25
885.278	3.25
886.014	1.25
886.749	2.25
887.485	-1.75
888.221	0.25
888.957	2.25
889.692	1.25
890.428	1.25
891.163	-1.75
891.899	2.25
892.634	1.25
893.369	1.25
894.104	-1.75
894.839	1.25
895.574	1.25
896.309	0.25
897.044	1.25
897.779	2.25
898.514	0.25
899.248	1.25
899.983	1.25
900.717	2.25
901.452	1.25
902.186	0.25
902.92	0.25
903.654	1.25
904.389	0.25
905.123	-0.75
905.857	3.25
906.59	-0.75
907.324	1.25
908.058	0.25
908.792	-2.75
909.525	0.25
910.259	1.25
910.992	0.25
911.726	0.25
912.459	-0.75
913.192	0.25
913.925	-0.75
914.658	0.25
915.391	-0.75
916.124	0.25
916.857	0.25
917.59	-0.75
918.323	2.25
919.055	0.25
919.788	0.25
920.521	1.25
921.253	-2.75
921.985	1.25
922.718	0.25
923.45	-0.75
924.182	0.25
924.914	-0.75
925.646	1.25
926.378	-1.75
927.11	1.25
927.841	0.25
928.573	0.25
929.305	0.25
930.036	-0.75
930.768	2.25
931.499	1.25
932.23	2.25
932.962	1.25
933.693	1.25
934.424	0.25
935.155	-0.75
935.886	1.25
936.617	1.25
937.348	1.25
938.078	0.25
938.809	0.25
939.54	0.25
940.27	0.25
941.001	2.25
941.731	0.25
942.461	-1.75
943.191	2.25
943.922	-1.75
944.652	-0.75
945.382	0.25
946.112	1.25
946.841	0.25
947.571	-0.75
948.301	-0.75
949.031	-0.75
949.76	-1.75
950.49	1.25
951.219	0.25
951.948	0.25
952.678	0.25
953.407	1.25
954.136	0.25
954.865	0.25
955.594	2.25
956.323	0.25
957.052	2.25
957.78	0.25
958.509	-0.75
959.238	2.25
959.966	-0.75
960.695	1.25
961.423	0.25
962.151	1.25
962.88	-0.75
963.608	1.25
964.336	0.25
965.064	0.25
965.792	0.25
966.52	0.25
967.247	-0.75
967.975	0.25
968.703	1.25
969.43	2.25
970.158	0.25
970.885	0.25
971.613	0.25
972.34	-1.75
973.067	-0.75
973.794	1.25
974.521	2.25
975.248	0.25
975.975	1.25
976.702	2.25
977.429	0.25
978.156	0.25
978.882	0.25
979.609	0.25
980.335	0.25
981.062	-0.75
981.788	-1.75
982.514	1.25
983.24	2.25
983.967	0.25
984.693	1.25
985.419	1.25
986.144	1.25
986.87	-0.75
987.596	-1.75
988.322	1.25
989.047	0.25
989.773	1.25
990.498	-0.75
991.224	1.25
991.949	2.25
992.674	-0.75
993.399	1.25
994.124	0.25
994.849	0.25
995.574	2.25
996.299	-1.75
997.024	3.25
997.749	1.25
998.473	1.25
999.198	-1.75
999.922	1.25
1000.647	0.25
1001.371	5.25
1002.095	0.25
1002.82	-0.75
1003.544	-1.75
1004.268	3.25
1004.992	0.25
1005.716	3.25
1006.439	0.25
1007.163	2.25
1007.887	4.25
1008.611	0.25
1009.334	-1.75
1010.058	0.25
1010.781	0.25
1011.504	-0.75
1012.228	-1.75
1012.951	-0.75
1013.674	-0.75
1014.397	-1.75
1015.12	0.25
