节点500_425_QEPB04081__229__15-52-07-044.txt的数据

Date: Wed Nov 12 15:52:07 CST 2025
User: PC
Spectrometer: QEPB0408
触发模式: 0
积分时间 (秒): 1.000000E-2
Scans to average: 1
启用暗噪声校正: true
启用非线性校正: false
滑动平均宽度: 0
X轴模式: Wavelengths
Number of Pixels in Spectrum: 1044
>>>>>Begin Spectral Data<<<<<
220.843	3.25
221.644	4.25
222.444	4.25
223.244	2.25
224.045	4.25
224.845	6.25
225.645	4.25
226.445	4.25
227.245	2.25
228.045	5.25
228.845	4.25
229.645	4.25
230.444	5.25
231.244	2.25
232.043	2.25
232.843	6.25
233.642	7.25
234.442	5.25
235.241	5.25
236.04	8.25
236.839	4.25
237.638	5.25
238.437	8.25
239.236	5.25
240.035	6.25
240.833	6.25
241.632	8.25
242.43	8.25
243.229	7.25
244.027	7.25
244.826	6.25
245.624	9.25
246.422	10.25
247.22	7.25
248.018	8.25
248.816	6.25
249.614	10.25
250.412	9.25
251.21	8.25
252.007	7.25
252.805	9.25
253.602	8.25
254.4	14.25
255.197	10.25
255.994	13.25
256.791	11.25
257.589	13.25
258.386	12.25
259.183	17.25
259.979	15.25
260.776	15.25
261.573	15.25
262.37	15.25
263.166	15.25
263.963	18.25
264.759	16.25
265.556	17.25
266.352	18.25
267.148	20.25
267.944	20.25
268.74	20.25
269.536	20.25
270.332	22.25
271.128	21.25
271.924	22.25
272.719	21.25
273.515	22.25
274.311	23.25
275.106	21.25
275.901	25.25
276.697	25.25
277.492	24.25
278.287	26.25
279.082	23.25
279.877	24.25
280.672	25.25
281.467	25.25
282.262	24.25
283.056	25.25
283.851	25.25
284.646	25.25
285.44	26.25
286.234	25.25
287.029	23.25
287.823	20.25
288.617	25.25
289.411	23.25
290.205	25.25
290.999	23.25
291.793	26.25
292.587	25.25
293.381	25.25
294.174	21.25
294.968	26.25
295.761	20.25
296.555	21.25
297.348	20.25
298.141	20.25
298.935	22.25
299.728	20.25
300.521	19.25
301.314	18.25
302.107	20.25
302.899	18.25
303.692	16.25
304.485	18.25
305.277	20.25
306.07	16.25
306.862	18.25
307.655	14.25
308.447	15.25
309.239	15.25
310.031	17.25
310.823	16.25
311.615	13.25
312.407	13.25
313.199	14.25
313.991	11.25
314.783	12.25
315.574	11.25
316.366	11.25
317.157	11.25
317.949	11.25
318.74	10.25
319.531	12.25
320.322	11.25
321.113	9.25
321.904	10.25
322.695	8.25
323.486	9.25
324.277	10.25
325.068	8.25
325.858	10.25
326.649	8.25
327.439	8.25
328.23	8.25
329.02	10.25
329.81	9.25
330.6	6.25
331.391	8.25
332.181	7.25
332.971	9.25
333.76	8.25
334.55	8.25
335.34	10.25
336.13	11.25
336.919	10.25
337.709	7.25
338.498	9.25
339.287	9.25
340.077	10.25
340.866	7.25
341.655	9.25
342.444	7.25
343.233	7.25
344.022	6.25
344.811	8.25
345.6	11.25
346.388	11.25
347.177	7.25
347.965	7.25
348.754	10.25
349.542	8.25
350.33	9.25
351.119	8.25
351.907	10.25
352.695	7.25
353.483	8.25
354.271	7.25
355.059	8.25
355.846	9.25
356.634	7.25
357.422	6.25
358.209	7.25
358.997	6.25
359.784	6.25
360.571	8.25
361.359	7.25
362.146	6.25
362.933	7.25
363.72	7.25
364.507	6.25
365.294	4.25
366.081	3.25
366.867	7.25
367.654	6.25
368.44	9.25
369.227	6.25
370.013	5.25
370.8	7.25
371.586	9.25
372.372	8.25
373.158	7.25
373.944	6.25
374.73	7.25
375.516	5.25
376.302	7.25
377.088	7.25
377.873	6.25
378.659	6.25
379.445	7.25
380.23	5.25
381.015	5.25
381.801	7.25
382.586	6.25
383.371	8.25
384.156	8.25
384.941	7.25
385.726	8.25
386.511	7.25
387.296	7.25
388.08	8.25
388.865	6.25
389.649	7.25
390.434	7.25
391.218	8.25
392.003	9.25
392.787	8.25
393.571	6.25
394.355	8.25
395.139	8.25
395.923	9.25
396.707	10.25
397.491	12.25
398.274	8.25
399.058	10.25
399.842	10.25
400.625	9.25
401.408	8.25
402.192	9.25
402.975	12.25
403.758	9.25
404.541	12.25
405.324	11.25
406.107	12.25
406.89	9.25
407.673	10.25
408.456	7.25
409.238	11.25
410.021	12.25
410.803	10.25
411.586	9.25
412.368	14.25
413.151	10.25
413.933	11.25
414.715	12.25
415.497	10.25
416.279	13.25
417.061	12.25
417.843	14.25
418.624	13.25
419.406	14.25
420.188	14.25
420.969	15.25
421.751	14.25
422.532	15.25
423.313	15.25
424.095	16.25
424.876	14.25
425.657	16.25
426.438	15.25
427.219	18.25
428	16.25
428.78	16.25
429.561	18.25
430.342	20.25
431.122	21.25
431.903	20.25
432.683	22.25
433.464	23.25
434.244	24.25
435.024	24.25
435.804	26.25
436.584	28.25
437.364	28.25
438.144	26.25
438.924	31.25
439.704	30.25
440.483	32.25
441.263	36.25
442.042	37.25
442.822	41.25
443.601	45.25
444.38	42.25
445.16	49.25
445.939	52.25
446.718	56.25
447.497	58.25
448.276	64.25
449.054	69.25
449.833	75.25
450.612	83.25
451.391	94.25
452.169	104.25
452.948	114.25
453.726	119.25
454.504	138.25
455.282	151.25
456.061	165.25
456.839	187.25
457.617	208.25
458.395	226.25
459.172	250.25
459.95	275.25
460.728	319.25
461.506	352.25
462.283	393.25
463.061	432.25
463.838	487.25
464.615	546.25
465.393	607.25
466.17	679.25
466.947	754.25
467.724	841.25
468.501	948.25
469.278	1046.25
470.055	1153.25
470.831	1290.25
471.608	1434.25
472.385	1590.25
473.161	1765.25
473.938	1944.25
474.714	2159.25
475.49	2373.25
476.266	2634.25
477.043	2898.25
477.819	3188.25
478.595	3551.25
479.371	3886.25
480.146	4263.25
480.922	4667.25
481.698	5128.25
482.473	5658.25
483.249	6190.25
484.024	6783.25
484.8	7440.25
485.575	8116.25
486.35	8891.25
487.126	9726.25
487.901	10612.25
488.676	11507.25
489.451	12524.25
490.225	13613.25
491	14797.25
491.775	16064.25
492.55	17378.25
493.324	18718.25
494.099	20054.25
494.873	21403.25
495.647	22943.25
496.422	24367.25
497.196	25791.25
497.97	27343.25
498.744	28833.25
499.518	30194.25
500.292	31362.25
501.066	32515.25
501.839	33634.25
502.613	34556.25
503.387	35182.25
504.16	35625.25
504.934	35936.25
505.707	35913.25
506.48	35747.25
507.253	35439.25
508.027	34983.25
508.8	34385.25
509.573	33551.25
510.346	32721.25
511.118	31718.25
511.891	30672.25
512.664	29554.25
513.437	28327.25
514.209	27158.25
514.982	26119.25
515.754	25075.25
516.526	24007.25
517.298	22968.25
518.071	21999.25
518.843	21042.25
519.615	20239.25
520.387	19417.25
521.159	18679.25
521.93	17958.25
522.702	17283.25
523.474	16554.25
524.245	15927.25
525.017	15199.25
525.788	14451.25
526.56	13821.25
527.331	13196.25
528.102	12578.25
528.873	11942.25
529.644	11408.25
530.415	10836.25
531.186	10302.25
531.957	9785.25
532.728	9233.25
533.498	8778.25
534.269	8245.25
535.039	7784.25
535.81	7413.25
536.58	6980.25
537.351	6554.25
538.121	6208.25
538.891	5860.25
539.661	5564.25
540.431	5295.25
541.201	5005.25
541.971	4737.25
542.741	4483.25
543.51	4256.25
544.28	4089.25
545.05	3863.25
545.819	3680.25
546.588	3483.25
547.358	3281.25
548.127	3135.25
548.896	2981.25
549.665	2837.25
550.434	2691.25
551.203	2548.25
551.972	2395.25
552.741	2271.25
553.51	2125.25
554.278	2008.25
555.047	1900.25
555.815	1814.25
556.584	1693.25
557.352	1625.25
558.121	1507.25
558.889	1433.25
559.657	1353.25
560.425	1280.25
561.193	1208.25
561.961	1136.25
562.729	1088.25
563.496	1014.25
564.264	964.25
565.032	929.25
565.799	850.25
566.567	826.25
567.334	772.25
568.101	734.25
568.869	690.25
569.636	653.25
570.403	610.25
571.17	580.25
571.937	551.25
572.704	518.25
573.471	487.25
574.237	464.25
575.004	431.25
575.771	409.25
576.537	383.25
577.303	363.25
578.07	336.25
578.836	318.25
579.602	303.25
580.368	292.25
581.134	274.25
581.9	268.25
582.666	247.25
583.432	232.25
584.198	223.25
584.964	215.25
585.729	199.25
586.495	188.25
587.26	173.25
588.025	168.25
588.791	166.25
589.556	149.25
590.321	146.25
591.086	138.25
591.851	123.25
592.616	121.25
593.381	118.25
594.146	113.25
594.911	107.25
595.675	101.25
596.44	96.25
597.204	90.25
597.969	92.25
598.733	83.25
599.497	83.25
600.261	79.25
601.025	72.25
601.79	70.25
602.553	69.25
603.317	66.25
604.081	61.25
604.845	60.25
605.609	59.25
606.372	54.25
607.136	52.25
607.899	51.25
608.662	48.25
609.426	48.25
610.189	39.25
610.952	41.25
611.715	41.25
612.478	40.25
613.241	38.25
614.004	36.25
614.767	33.25
615.529	33.25
616.292	35.25
617.055	30.25
617.817	32.25
618.579	30.25
619.342	28.25
620.104	29.25
620.866	29.25
621.628	28.25
622.39	26.25
623.152	28.25
623.914	26.25
624.676	23.25
625.438	23.25
626.199	23.25
626.961	21.25
627.722	19.25
628.484	18.25
629.245	21.25
630.006	19.25
630.768	19.25
631.529	18.25
632.29	16.25
633.051	16.25
633.812	18.25
634.573	17.25
635.333	12.25
636.094	17.25
636.855	16.25
637.615	14.25
638.376	14.25
639.136	14.25
639.896	14.25
640.657	12.25
641.417	13.25
642.177	14.25
642.937	12.25
643.697	10.25
644.457	10.25
645.216	11.25
645.976	11.25
646.736	11.25
647.495	10.25
648.255	10.25
649.014	9.25
649.774	9.25
650.533	10.25
651.292	13.25
652.051	10.25
652.81	10.25
653.569	9.25
654.328	8.25
655.087	8.25
655.846	9.25
656.604	10.25
657.363	7.25
658.121	8.25
658.88	8.25
659.638	7.25
660.397	8.25
661.155	8.25
661.913	10.25
662.671	5.25
663.429	7.25
664.187	8.25
664.945	6.25
665.703	8.25
666.46	6.25
667.218	6.25
667.976	8.25
668.733	6.25
669.49	8.25
670.248	6.25
671.005	6.25
671.762	4.25
672.519	9.25
673.276	6.25
674.033	5.25
674.79	8.25
675.547	7.25
676.304	5.25
677.06	6.25
677.817	5.25
678.574	3.25
679.33	5.25
680.086	5.25
680.843	6.25
681.599	5.25
682.355	3.25
683.111	3.25
683.867	6.25
684.623	5.25
685.379	8.25
686.135	5.25
686.89	4.25
687.646	6.25
688.402	6.25
689.157	6.25
689.912	3.25
690.668	8.25
691.423	5.25
692.178	7.25
692.933	6.25
693.688	4.25
694.443	7.25
695.198	6.25
695.953	5.25
696.708	5.25
697.462	4.25
698.217	5.25
698.972	3.25
699.726	4.25
700.48	4.25
701.235	4.25
701.989	3.25
702.743	3.25
703.497	6.25
704.251	5.25
705.005	7.25
705.759	4.25
706.513	5.25
707.266	5.25
708.02	4.25
708.774	5.25
709.527	3.25
710.28	4.25
711.034	4.25
711.787	3.25
712.54	4.25
713.293	5.25
714.046	5.25
714.799	5.25
715.552	4.25
716.305	3.25
717.058	4.25
717.81	8.25
718.563	5.25
719.315	7.25
720.068	5.25
720.82	3.25
721.573	6.25
722.325	6.25
723.077	7.25
723.829	5.25
724.581	6.25
725.333	7.25
726.085	5.25
726.836	4.25
727.588	6.25
728.34	4.25
729.091	8.25
729.843	6.25
730.594	6.25
731.346	5.25
732.097	5.25
732.848	8.25
733.599	6.25
734.35	7.25
735.101	8.25
735.852	8.25
736.603	8.25
737.354	5.25
738.104	7.25
738.855	3.25
739.605	7.25
740.356	4.25
741.106	6.25
741.856	5.25
742.607	8.25
743.357	8.25
744.107	3.25
744.857	5.25
745.607	6.25
746.357	7.25
747.106	9.25
747.856	7.25
748.606	6.25
749.355	10.25
750.105	8.25
750.854	7.25
751.603	9.25
752.353	7.25
753.102	8.25
753.851	8.25
754.6	7.25
755.349	8.25
756.098	11.25
756.847	9.25
757.595	8.25
758.344	10.25
759.093	8.25
759.841	10.25
760.589	8.25
761.338	6.25
762.086	7.25
762.834	8.25
763.582	9.25
764.331	8.25
765.079	10.25
765.826	9.25
766.574	12.25
767.322	10.25
768.07	10.25
768.817	8.25
769.565	11.25
770.312	10.25
771.06	10.25
771.807	10.25
772.554	12.25
773.302	13.25
774.049	11.25
774.796	10.25
775.543	13.25
776.29	12.25
777.036	11.25
777.783	11.25
778.53	11.25
779.276	9.25
780.023	10.25
780.769	12.25
781.516	10.25
782.262	11.25
783.008	10.25
783.754	12.25
784.5	12.25
785.246	12.25
785.992	10.25
786.738	12.25
787.484	12.25
788.23	11.25
788.975	10.25
789.721	13.25
790.466	10.25
791.212	11.25
791.957	14.25
792.702	10.25
793.447	12.25
794.193	10.25
794.938	10.25
795.683	10.25
796.427	11.25
797.172	10.25
797.917	8.25
798.662	9.25
799.406	8.25
800.151	8.25
800.895	8.25
801.64	9.25
802.384	8.25
803.128	9.25
803.872	9.25
804.616	10.25
805.36	11.25
806.104	9.25
806.848	8.25
807.592	8.25
808.336	8.25
809.079	8.25
809.823	7.25
810.566	6.25
811.31	7.25
812.053	7.25
812.796	4.25
813.539	7.25
814.283	8.25
815.026	8.25
815.769	6.25
816.511	4.25
817.254	4.25
817.997	5.25
818.74	8.25
819.482	5.25
820.225	6.25
820.967	5.25
821.71	5.25
822.452	4.25
823.194	4.25
823.936	5.25
824.678	4.25
825.42	6.25
826.162	4.25
826.904	6.25
827.646	3.25
828.388	6.25
829.129	5.25
829.871	5.25
830.612	5.25
831.354	4.25
832.095	4.25
832.836	4.25
833.577	4.25
834.319	5.25
835.06	2.25
835.801	5.25
836.542	7.25
837.282	3.25
838.023	4.25
838.764	3.25
839.504	4.25
840.245	7.25
840.985	4.25
841.726	3.25
842.466	3.25
843.206	4.25
843.946	5.25
844.687	1.25
845.427	5.25
846.166	2.25
846.906	4.25
847.646	3.25
848.386	3.25
849.125	3.25
849.865	4.25
850.605	4.25
851.344	3.25
852.083	4.25
852.823	2.25
853.562	4.25
854.301	4.25
855.04	4.25
855.779	0.25
856.518	1.25
857.257	3.25
857.995	1.25
858.734	2.25
859.473	2.25
860.211	2.25
860.95	4.25
861.688	3.25
862.426	4.25
863.165	2.25
863.903	2.25
864.641	2.25
865.379	1.25
866.117	3.25
866.855	0.25
867.593	3.25
868.33	0.25
869.068	1.25
869.806	3.25
870.543	2.25
871.28	4.25
872.018	2.25
872.755	4.25
873.492	2.25
874.229	0.25
874.967	2.25
875.703	0.25
876.44	0.25
877.177	2.25
877.914	0.25
878.651	2.25
879.387	2.25
880.124	3.25
880.86	1.25
881.597	0.25
882.333	0.25
883.069	0.25
883.806	1.25
884.542	1.25
885.278	2.25
886.014	1.25
886.749	0.25
887.485	2.25
888.221	1.25
888.957	2.25
889.692	2.25
890.428	0.25
891.163	3.25
891.899	2.25
892.634	2.25
893.369	3.25
894.104	0.25
894.839	0.25
895.574	-0.75
896.309	1.25
897.044	0.25
897.779	2.25
898.514	1.25
899.248	1.25
899.983	-0.75
900.717	0.25
901.452	0.25
902.186	-1.75
902.92	1.25
903.654	1.25
904.389	-1.75
905.123	2.25
905.857	-1.75
906.59	1.25
907.324	0.25
908.058	2.25
908.792	0.25
909.525	2.25
910.259	2.25
910.992	-1.75
911.726	0.25
912.459	1.25
913.192	2.25
913.925	2.25
914.658	-1.75
915.391	0.25
916.124	1.25
916.857	0.25
917.59	2.25
918.323	0.25
919.055	1.25
919.788	-0.75
920.521	2.25
921.253	-0.75
921.985	-1.75
922.718	2.25
923.45	0.25
924.182	2.25
924.914	-0.75
925.646	-0.75
926.378	0.25
927.11	-1.75
927.841	1.25
928.573	0.25
929.305	1.25
930.036	3.25
930.768	0.25
931.499	0.25
932.23	2.25
932.962	1.25
933.693	-1.75
934.424	2.25
935.155	1.25
935.886	1.25
936.617	0.25
937.348	0.25
938.078	-0.75
938.809	0.25
939.54	2.25
940.27	2.25
941.001	-0.75
941.731	2.25
942.461	0.25
943.191	0.25
943.922	2.25
944.652	1.25
945.382	0.25
946.112	-0.75
946.841	2.25
947.571	2.25
948.301	-0.75
949.031	1.25
949.76	-0.75
950.49	3.25
951.219	0.25
951.948	0.25
952.678	0.25
953.407	2.25
954.136	1.25
954.865	-1.75
955.594	0.25
956.323	1.25
957.052	-0.75
957.78	0.25
958.509	1.25
959.238	0.25
959.966	0.25
960.695	1.25
961.423	-0.75
962.151	-0.75
962.88	-0.75
963.608	-1.75
964.336	1.25
965.064	-0.75
965.792	-0.75
966.52	0.25
967.247	0.25
967.975	0.25
968.703	-0.75
969.43	1.25
970.158	0.25
970.885	1.25
971.613	0.25
972.34	1.25
973.067	-0.75
973.794	0.25
974.521	-1.75
975.248	0.25
975.975	0.25
976.702	0.25
977.429	-0.75
978.156	0.25
978.882	-0.75
979.609	3.25
980.335	-1.75
981.062	0.25
981.788	0.25
982.514	1.25
983.24	1.25
983.967	-0.75
984.693	0.25
985.419	0.25
986.144	1.25
986.87	0.25
987.596	0.25
988.322	1.25
989.047	-0.75
989.773	0.25
990.498	2.25
991.224	1.25
991.949	0.25
992.674	0.25
993.399	-0.75
994.124	3.25
994.849	0.25
995.574	0.25
996.299	0.25
997.024	2.25
997.749	-0.75
998.473	3.25
999.198	2.25
999.922	-0.75
1000.647	0.25
1001.371	3.25
1002.095	-2.75
1002.82	-0.75
1003.544	-0.75
1004.268	3.25
1004.992	2.25
1005.716	3.25
1006.439	3.25
1007.163	3.25
1007.887	5.25
1008.611	0.25
1009.334	0.25
1010.058	1.25
1010.781	-2.75
1011.504	1.25
1012.228	0.25
1012.951	-0.75
1013.674	-1.75
1014.397	1.25
1015.12	2.25
