节点500_425_QEPB04081__135__15-50-33-301.txt的数据

Date: Wed Nov 12 15:50:33 CST 2025
User: PC
Spectrometer: QEPB0408
触发模式: 0
积分时间 (秒): 1.000000E-2
Scans to average: 1
启用暗噪声校正: true
启用非线性校正: false
滑动平均宽度: 0
X轴模式: Wavelengths
Number of Pixels in Spectrum: 1044
>>>>>Begin Spectral Data<<<<<
220.843	2.5
221.644	3.5
222.444	3.5
223.244	1.5
224.045	3.5
224.845	4.5
225.645	5.5
226.445	4.5
227.245	3.5
228.045	5.5
228.845	5.5
229.645	5.5
230.444	3.5
231.244	5.5
232.043	5.5
232.843	3.5
233.642	4.5
234.442	4.5
235.241	6.5
236.04	4.5
236.839	6.5
237.638	6.5
238.437	7.5
239.236	7.5
240.035	6.5
240.833	9.5
241.632	9.5
242.43	7.5
243.229	7.5
244.027	8.5
244.826	11.5
245.624	6.5
246.422	8.5
247.22	9.5
248.018	7.5
248.816	10.5
249.614	9.5
250.412	9.5
251.21	9.5
252.007	7.5
252.805	10.5
253.602	9.5
254.4	11.5
255.197	9.5
255.994	11.5
256.791	12.5
257.589	11.5
258.386	13.5
259.183	13.5
259.979	15.5
260.776	13.5
261.573	16.5
262.37	13.5
263.166	17.5
263.963	16.5
264.759	17.5
265.556	17.5
266.352	15.5
267.148	19.5
267.944	17.5
268.74	21.5
269.536	22.5
270.332	20.5
271.128	22.5
271.924	21.5
272.719	20.5
273.515	22.5
274.311	21.5
275.106	25.5
275.901	20.5
276.697	24.5
277.492	25.5
278.287	24.5
279.082	24.5
279.877	25.5
280.672	23.5
281.467	24.5
282.262	24.5
283.056	25.5
283.851	25.5
284.646	27.5
285.44	25.5
286.234	22.5
287.029	25.5
287.823	24.5
288.617	23.5
289.411	21.5
290.205	25.5
290.999	22.5
291.793	22.5
292.587	20.5
293.381	22.5
294.174	22.5
294.968	20.5
295.761	18.5
296.555	18.5
297.348	17.5
298.141	20.5
298.935	23.5
299.728	17.5
300.521	18.5
301.314	20.5
302.107	17.5
302.899	14.5
303.692	16.5
304.485	13.5
305.277	15.5
306.07	13.5
306.862	18.5
307.655	16.5
308.447	16.5
309.239	15.5
310.031	13.5
310.823	15.5
311.615	14.5
312.407	11.5
313.199	15.5
313.991	11.5
314.783	12.5
315.574	11.5
316.366	10.5
317.157	11.5
317.949	12.5
318.74	11.5
319.531	12.5
320.322	8.5
321.113	10.5
321.904	8.5
322.695	9.5
323.486	10.5
324.277	7.5
325.068	7.5
325.858	9.5
326.649	11.5
327.439	6.5
328.23	7.5
329.02	7.5
329.81	7.5
330.6	8.5
331.391	8.5
332.181	9.5
332.971	8.5
333.76	9.5
334.55	8.5
335.34	8.5
336.13	9.5
336.919	7.5
337.709	8.5
338.498	9.5
339.287	8.5
340.077	11.5
340.866	10.5
341.655	7.5
342.444	7.5
343.233	9.5
344.022	8.5
344.811	6.5
345.6	7.5
346.388	6.5
347.177	6.5
347.965	8.5
348.754	8.5
349.542	5.5
350.33	7.5
351.119	9.5
351.907	9.5
352.695	6.5
353.483	7.5
354.271	6.5
355.059	6.5
355.846	6.5
356.634	5.5
357.422	5.5
358.209	6.5
358.997	7.5
359.784	4.5
360.571	7.5
361.359	7.5
362.146	7.5
362.933	9.5
363.72	7.5
364.507	7.5
365.294	8.5
366.081	5.5
366.867	5.5
367.654	7.5
368.44	6.5
369.227	6.5
370.013	7.5
370.8	3.5
371.586	6.5
372.372	6.5
373.158	6.5
373.944	6.5
374.73	6.5
375.516	7.5
376.302	6.5
377.088	6.5
377.873	6.5
378.659	6.5
379.445	7.5
380.23	5.5
381.015	8.5
381.801	7.5
382.586	6.5
383.371	5.5
384.156	6.5
384.941	9.5
385.726	6.5
386.511	6.5
387.296	7.5
388.08	6.5
388.865	7.5
389.649	8.5
390.434	5.5
391.218	7.5
392.003	7.5
392.787	8.5
393.571	8.5
394.355	9.5
395.139	9.5
395.923	6.5
396.707	8.5
397.491	7.5
398.274	9.5
399.058	9.5
399.842	9.5
400.625	7.5
401.408	7.5
402.192	8.5
402.975	8.5
403.758	10.5
404.541	8.5
405.324	9.5
406.107	11.5
406.89	7.5
407.673	11.5
408.456	9.5
409.238	11.5
410.021	11.5
410.803	9.5
411.586	11.5
412.368	12.5
413.151	13.5
413.933	11.5
414.715	13.5
415.497	15.5
416.279	11.5
417.061	13.5
417.843	13.5
418.624	13.5
419.406	13.5
420.188	16.5
420.969	13.5
421.751	12.5
422.532	14.5
423.313	13.5
424.095	13.5
424.876	15.5
425.657	15.5
426.438	17.5
427.219	16.5
428	21.5
428.78	16.5
429.561	17.5
430.342	19.5
431.122	20.5
431.903	21.5
432.683	21.5
433.464	22.5
434.244	25.5
435.024	23.5
435.804	25.5
436.584	29.5
437.364	28.5
438.144	27.5
438.924	30.5
439.704	30.5
440.483	33.5
441.263	37.5
442.042	34.5
442.822	38.5
443.601	42.5
444.38	42.5
445.16	47.5
445.939	45.5
446.718	57.5
447.497	55.5
448.276	63.5
449.054	70.5
449.833	72.5
450.612	82.5
451.391	91.5
452.169	101.5
452.948	106.5
453.726	122.5
454.504	133.5
455.282	143.5
456.061	157.5
456.839	171.5
457.617	196.5
458.395	217.5
459.172	244.5
459.95	266.5
460.728	305.5
461.506	333.5
462.283	380.5
463.061	437.5
463.838	475.5
464.615	539.5
465.393	594.5
466.17	679.5
466.947	742.5
467.724	831.5
468.501	914.5
469.278	1031.5
470.055	1122.5
470.831	1263.5
471.608	1417.5
472.385	1561.5
473.161	1747.5
473.938	1919.5
474.714	2144.5
475.49	2375.5
476.266	2640.5
477.043	2893.5
477.819	3187.5
478.595	3549.5
479.371	3863.5
480.146	4278.5
480.922	4719.5
481.698	5210.5
482.473	5726.5
483.249	6257.5
484.024	6915.5
484.8	7598.5
485.575	8289.5
486.35	9079.5
487.126	9951.5
487.901	10893.5
488.676	11895.5
489.451	12996.5
490.225	14111.5
491	15310.5
491.775	16691.5
492.55	17932.5
493.324	19423.5
494.099	20832.5
494.873	22257.5
495.647	23772.5
496.422	25305.5
497.196	26815.5
497.97	28429.5
498.744	29832.5
499.518	31280.5
500.292	32555.5
501.066	33539.5
501.839	34686.5
502.613	35564.5
503.387	36158.5
504.16	36534.5
504.934	36739.5
505.707	36600.5
506.48	36513.5
507.253	35938.5
508.027	35446.5
508.8	34712.5
509.573	33839.5
510.346	32905.5
511.118	31828.5
511.891	30689.5
512.664	29511.5
513.437	28272.5
514.209	27026.5
514.982	26042.5
515.754	24935.5
516.526	23796.5
517.298	22814.5
518.071	21809.5
518.843	20917.5
519.615	20063.5
520.387	19274.5
521.159	18470.5
521.93	17810.5
522.702	17136.5
523.474	16501.5
524.245	15762.5
525.017	15061.5
525.788	14351.5
526.56	13700.5
527.331	13007.5
528.102	12430.5
528.873	11802.5
529.644	11218.5
530.415	10691.5
531.186	10138.5
531.957	9626.5
532.728	9108.5
533.498	8542.5
534.269	8085.5
535.039	7697.5
535.81	7248.5
536.58	6839.5
537.351	6444.5
538.121	6090.5
538.891	5752.5
539.661	5476.5
540.431	5166.5
541.201	4893.5
541.971	4631.5
542.741	4408.5
543.51	4171.5
544.28	3970.5
545.05	3777.5
545.819	3575.5
546.588	3441.5
547.358	3238.5
548.127	3059.5
548.896	2905.5
549.665	2743.5
550.434	2626.5
551.203	2486.5
551.972	2352.5
552.741	2195.5
553.51	2116.5
554.278	1988.5
555.047	1866.5
555.815	1770.5
556.584	1666.5
557.352	1544.5
558.121	1463.5
558.889	1400.5
559.657	1322.5
560.425	1248.5
561.193	1164.5
561.961	1111.5
562.729	1053.5
563.496	999.5
564.264	935.5
565.032	896.5
565.799	835.5
566.567	795.5
567.334	749.5
568.101	716.5
568.869	663.5
569.636	629.5
570.403	586.5
571.17	558.5
571.937	530.5
572.704	506.5
573.471	477.5
574.237	454.5
575.004	424.5
575.771	388.5
576.537	375.5
577.303	351.5
578.07	329.5
578.836	314.5
579.602	296.5
580.368	277.5
581.134	265.5
581.9	256.5
582.666	239.5
583.432	227.5
584.198	214.5
584.964	202.5
585.729	192.5
586.495	184.5
587.26	173.5
588.025	164.5
588.791	158.5
589.556	149.5
590.321	144.5
591.086	132.5
591.851	126.5
592.616	123.5
593.381	111.5
594.146	109.5
594.911	104.5
595.675	98.5
596.44	96.5
597.204	95.5
597.969	82.5
598.733	88.5
599.497	76.5
600.261	78.5
601.025	69.5
601.79	67.5
602.553	67.5
603.317	64.5
604.081	61.5
604.845	57.5
605.609	56.5
606.372	54.5
607.136	53.5
607.899	50.5
608.662	46.5
609.426	48.5
610.189	44.5
610.952	38.5
611.715	43.5
612.478	41.5
613.241	38.5
614.004	36.5
614.767	36.5
615.529	35.5
616.292	32.5
617.055	30.5
617.817	32.5
618.579	30.5
619.342	29.5
620.104	24.5
620.866	27.5
621.628	26.5
622.39	22.5
623.152	21.5
623.914	23.5
624.676	25.5
625.438	23.5
626.199	20.5
626.961	17.5
627.722	20.5
628.484	18.5
629.245	17.5
630.006	19.5
630.768	17.5
631.529	17.5
632.29	15.5
633.051	13.5
633.812	14.5
634.573	14.5
635.333	14.5
636.094	11.5
636.855	15.5
637.615	13.5
638.376	9.5
639.136	13.5
639.896	13.5
640.657	11.5
641.417	13.5
642.177	10.5
642.937	10.5
643.697	11.5
644.457	12.5
645.216	10.5
645.976	8.5
646.736	11.5
647.495	9.5
648.255	8.5
649.014	11.5
649.774	7.5
650.533	7.5
651.292	8.5
652.051	11.5
652.81	9.5
653.569	10.5
654.328	9.5
655.087	7.5
655.846	7.5
656.604	9.5
657.363	9.5
658.121	7.5
658.88	6.5
659.638	5.5
660.397	5.5
661.155	7.5
661.913	7.5
662.671	9.5
663.429	5.5
664.187	5.5
664.945	5.5
665.703	6.5
666.46	5.5
667.218	5.5
667.976	8.5
668.733	3.5
669.49	4.5
670.248	4.5
671.005	5.5
671.762	7.5
672.519	5.5
673.276	4.5
674.033	5.5
674.79	5.5
675.547	7.5
676.304	3.5
677.06	5.5
677.817	6.5
678.574	8.5
679.33	4.5
680.086	5.5
680.843	5.5
681.599	7.5
682.355	4.5
683.111	5.5
683.867	2.5
684.623	7.5
685.379	3.5
686.135	5.5
686.89	3.5
687.646	5.5
688.402	3.5
689.157	2.5
689.912	5.5
690.668	3.5
691.423	4.5
692.178	4.5
692.933	4.5
693.688	5.5
694.443	2.5
695.198	2.5
695.953	6.5
696.708	6.5
697.462	4.5
698.217	4.5
698.972	5.5
699.726	3.5
700.48	3.5
701.235	1.5
701.989	5.5
702.743	3.5
703.497	3.5
704.251	3.5
705.005	5.5
705.759	4.5
706.513	4.5
707.266	7.5
708.02	6.5
708.774	5.5
709.527	5.5
710.28	2.5
711.034	4.5
711.787	4.5
712.54	1.5
713.293	2.5
714.046	4.5
714.799	5.5
715.552	5.5
716.305	4.5
717.058	5.5
717.81	3.5
718.563	7.5
719.315	4.5
720.068	2.5
720.82	6.5
721.573	1.5
722.325	7.5
723.077	3.5
723.829	5.5
724.581	5.5
725.333	5.5
726.085	5.5
726.836	4.5
727.588	5.5
728.34	4.5
729.091	5.5
729.843	5.5
730.594	1.5
731.346	6.5
732.097	4.5
732.848	4.5
733.599	6.5
734.35	4.5
735.101	4.5
735.852	7.5
736.603	5.5
737.354	2.5
738.104	7.5
738.855	7.5
739.605	3.5
740.356	6.5
741.106	4.5
741.856	6.5
742.607	5.5
743.357	5.5
744.107	6.5
744.857	7.5
745.607	5.5
746.357	7.5
747.106	6.5
747.856	9.5
748.606	5.5
749.355	6.5
750.105	8.5
750.854	7.5
751.603	7.5
752.353	9.5
753.102	10.5
753.851	4.5
754.6	6.5
755.349	6.5
756.098	7.5
756.847	8.5
757.595	7.5
758.344	8.5
759.093	8.5
759.841	9.5
760.589	7.5
761.338	8.5
762.086	7.5
762.834	8.5
763.582	9.5
764.331	8.5
765.079	8.5
765.826	10.5
766.574	7.5
767.322	8.5
768.07	10.5
768.817	11.5
769.565	9.5
770.312	11.5
771.06	10.5
771.807	9.5
772.554	14.5
773.302	10.5
774.049	9.5
774.796	11.5
775.543	9.5
776.29	12.5
777.036	13.5
777.783	12.5
778.53	9.5
779.276	11.5
780.023	10.5
780.769	10.5
781.516	13.5
782.262	9.5
783.008	9.5
783.754	10.5
784.5	12.5
785.246	11.5
785.992	9.5
786.738	12.5
787.484	13.5
788.23	12.5
788.975	11.5
789.721	9.5
790.466	11.5
791.212	9.5
791.957	9.5
792.702	11.5
793.447	9.5
794.193	12.5
794.938	9.5
795.683	10.5
796.427	11.5
797.172	10.5
797.917	9.5
798.662	8.5
799.406	9.5
800.151	7.5
800.895	9.5
801.64	9.5
802.384	7.5
803.128	7.5
803.872	7.5
804.616	7.5
805.36	7.5
806.104	5.5
806.848	8.5
807.592	8.5
808.336	7.5
809.079	6.5
809.823	5.5
810.566	4.5
811.31	7.5
812.053	7.5
812.796	7.5
813.539	8.5
814.283	6.5
815.026	4.5
815.769	5.5
816.511	3.5
817.254	5.5
817.997	2.5
818.74	7.5
819.482	3.5
820.225	3.5
820.967	5.5
821.71	5.5
822.452	4.5
823.194	4.5
823.936	2.5
824.678	4.5
825.42	3.5
826.162	2.5
826.904	3.5
827.646	4.5
828.388	5.5
829.129	4.5
829.871	4.5
830.612	0.5
831.354	3.5
832.095	2.5
832.836	4.5
833.577	3.5
834.319	2.5
835.06	3.5
835.801	1.5
836.542	3.5
837.282	3.5
838.023	3.5
838.764	5.5
839.504	3.5
840.245	6.5
840.985	1.5
841.726	-0.5
842.466	3.5
843.206	-0.5
843.946	2.5
844.687	0.5
845.427	5.5
846.166	2.5
846.906	3.5
847.646	3.5
848.386	1.5
849.125	3.5
849.865	0.5
850.605	4.5
851.344	3.5
852.083	3.5
852.823	4.5
853.562	3.5
854.301	5.5
855.04	1.5
855.779	4.5
856.518	2.5
857.257	3.5
857.995	3.5
858.734	2.5
859.473	2.5
860.211	1.5
860.95	1.5
861.688	3.5
862.426	2.5
863.165	2.5
863.903	2.5
864.641	3.5
865.379	-0.5
866.117	3.5
866.855	-0.5
867.593	0.5
868.33	3.5
869.068	1.5
869.806	2.5
870.543	1.5
871.28	1.5
872.018	0.5
872.755	1.5
873.492	1.5
874.229	0.5
874.967	1.5
875.703	3.5
876.44	1.5
877.177	1.5
877.914	0.5
878.651	-0.5
879.387	-0.5
880.124	-0.5
880.86	1.5
881.597	0.5
882.333	1.5
883.069	0.5
883.806	0.5
884.542	1.5
885.278	-0.5
886.014	0.5
886.749	1.5
887.485	1.5
888.221	-0.5
888.957	-1.5
889.692	-1.5
890.428	-0.5
891.163	-1.5
891.899	0.5
892.634	-0.5
893.369	1.5
894.104	-0.5
894.839	1.5
895.574	-0.5
896.309	-0.5
897.044	2.5
897.779	1.5
898.514	1.5
899.248	-0.5
899.983	1.5
900.717	0.5
901.452	-0.5
902.186	1.5
902.92	-0.5
903.654	1.5
904.389	-1.5
905.123	1.5
905.857	-0.5
906.59	-1.5
907.324	0.5
908.058	1.5
908.792	2.5
909.525	-1.5
910.259	1.5
910.992	1.5
911.726	-0.5
912.459	2.5
913.192	-0.5
913.925	-2.5
914.658	-1.5
915.391	-1.5
916.124	-0.5
916.857	1.5
917.59	-0.5
918.323	-1.5
919.055	2.5
919.788	-0.5
920.521	0.5
921.253	1.5
921.985	-1.5
922.718	-0.5
923.45	2.5
924.182	-0.5
924.914	0.5
925.646	1.5
926.378	1.5
927.11	-0.5
927.841	-0.5
928.573	0.5
929.305	-1.5
930.036	-0.5
930.768	0.5
931.499	-1.5
932.23	-0.5
932.962	1.5
933.693	-2.5
934.424	0.5
935.155	-0.5
935.886	-2.5
936.617	1.5
937.348	-0.5
938.078	0.5
938.809	-0.5
939.54	-1.5
940.27	-0.5
941.001	-1.5
941.731	-1.5
942.461	0.5
943.191	0.5
943.922	-0.5
944.652	0.5
945.382	0.5
946.112	4.5
946.841	-0.5
947.571	-2.5
948.301	0.5
949.031	1.5
949.76	-0.5
950.49	1.5
951.219	-0.5
951.948	-1.5
952.678	-1.5
953.407	-0.5
954.136	2.5
954.865	-0.5
955.594	1.5
956.323	-1.5
957.052	-1.5
957.78	0.5
958.509	-0.5
959.238	-0.5
959.966	-0.5
960.695	-1.5
961.423	0.5
962.151	1.5
962.88	-0.5
963.608	0.5
964.336	-0.5
965.064	3.5
965.792	0.5
966.52	-0.5
967.247	-2.5
967.975	-0.5
968.703	-0.5
969.43	-2.5
970.158	2.5
970.885	-0.5
971.613	-0.5
972.34	-2.5
973.067	0.5
973.794	-1.5
974.521	-1.5
975.248	1.5
975.975	-1.5
976.702	-0.5
977.429	-1.5
978.156	-1.5
978.882	-1.5
979.609	0.5
980.335	0.5
981.062	-2.5
981.788	-1.5
982.514	1.5
983.24	-2.5
983.967	0.5
984.693	-1.5
985.419	-3.5
986.144	0.5
986.87	-0.5
987.596	0.5
988.322	2.5
989.047	-0.5
989.773	-0.5
990.498	0.5
991.224	0.5
991.949	-0.5
992.674	-0.5
993.399	0.5
994.124	0.5
994.849	-0.5
995.574	-0.5
996.299	0.5
997.024	0.5
997.749	1.5
998.473	0.5
999.198	-1.5
999.922	0.5
1000.647	0.5
1001.371	4.5
1002.095	-1.5
1002.82	-0.5
1003.544	-2.5
1004.268	1.5
1004.992	-0.5
1005.716	2.5
1006.439	3.5
1007.163	2.5
1007.887	1.5
1008.611	0.5
1009.334	-2.5
1010.058	-0.5
1010.781	-2.5
1011.504	0.5
1012.228	1.5
1012.951	-1.5
1013.674	0.5
1014.397	-0.5
1015.12	1.5
