节点500_425_QEPB04081__170__15-51-08-178.txt的数据

Date: Wed Nov 12 15:51:08 CST 2025
User: PC
Spectrometer: QEPB0408
触发模式: 0
积分时间 (秒): 1.000000E-2
Scans to average: 1
启用暗噪声校正: true
启用非线性校正: false
滑动平均宽度: 0
X轴模式: Wavelengths
Number of Pixels in Spectrum: 1044
>>>>>Begin Spectral Data<<<<<
220.843	2.5
221.644	3.5
222.444	3.5
223.244	3.5
224.045	3.5
224.845	4.5
225.645	4.5
226.445	6.5
227.245	4.5
228.045	5.5
228.845	5.5
229.645	1.5
230.444	4.5
231.244	5.5
232.043	5.5
232.843	4.5
233.642	4.5
234.442	5.5
235.241	5.5
236.04	8.5
236.839	6.5
237.638	6.5
238.437	6.5
239.236	8.5
240.035	5.5
240.833	6.5
241.632	7.5
242.43	8.5
243.229	3.5
244.027	8.5
244.826	7.5
245.624	10.5
246.422	8.5
247.22	9.5
248.018	6.5
248.816	8.5
249.614	9.5
250.412	9.5
251.21	11.5
252.007	10.5
252.805	12.5
253.602	11.5
254.4	10.5
255.197	10.5
255.994	13.5
256.791	13.5
257.589	14.5
258.386	14.5
259.183	13.5
259.979	14.5
260.776	14.5
261.573	15.5
262.37	14.5
263.166	16.5
263.963	15.5
264.759	17.5
265.556	18.5
266.352	17.5
267.148	19.5
267.944	19.5
268.74	20.5
269.536	20.5
270.332	21.5
271.128	19.5
271.924	20.5
272.719	22.5
273.515	23.5
274.311	25.5
275.106	23.5
275.901	26.5
276.697	22.5
277.492	24.5
278.287	25.5
279.082	22.5
279.877	24.5
280.672	23.5
281.467	25.5
282.262	28.5
283.056	25.5
283.851	26.5
284.646	25.5
285.44	26.5
286.234	27.5
287.029	23.5
287.823	26.5
288.617	23.5
289.411	27.5
290.205	24.5
290.999	24.5
291.793	25.5
292.587	20.5
293.381	24.5
294.174	22.5
294.968	23.5
295.761	22.5
296.555	21.5
297.348	19.5
298.141	22.5
298.935	20.5
299.728	20.5
300.521	17.5
301.314	20.5
302.107	13.5
302.899	15.5
303.692	17.5
304.485	17.5
305.277	18.5
306.07	15.5
306.862	17.5
307.655	17.5
308.447	14.5
309.239	16.5
310.031	15.5
310.823	14.5
311.615	14.5
312.407	11.5
313.199	15.5
313.991	13.5
314.783	11.5
315.574	12.5
316.366	9.5
317.157	12.5
317.949	10.5
318.74	10.5
319.531	9.5
320.322	10.5
321.113	9.5
321.904	8.5
322.695	8.5
323.486	10.5
324.277	9.5
325.068	9.5
325.858	9.5
326.649	8.5
327.439	10.5
328.23	8.5
329.02	11.5
329.81	9.5
330.6	8.5
331.391	11.5
332.181	6.5
332.971	11.5
333.76	8.5
334.55	8.5
335.34	7.5
336.13	9.5
336.919	9.5
337.709	8.5
338.498	6.5
339.287	8.5
340.077	8.5
340.866	10.5
341.655	8.5
342.444	9.5
343.233	8.5
344.022	9.5
344.811	9.5
345.6	7.5
346.388	8.5
347.177	7.5
347.965	9.5
348.754	9.5
349.542	6.5
350.33	10.5
351.119	6.5
351.907	8.5
352.695	9.5
353.483	8.5
354.271	8.5
355.059	8.5
355.846	10.5
356.634	9.5
357.422	6.5
358.209	8.5
358.997	7.5
359.784	6.5
360.571	7.5
361.359	8.5
362.146	7.5
362.933	5.5
363.72	8.5
364.507	5.5
365.294	7.5
366.081	5.5
366.867	7.5
367.654	8.5
368.44	6.5
369.227	8.5
370.013	4.5
370.8	6.5
371.586	7.5
372.372	6.5
373.158	7.5
373.944	7.5
374.73	7.5
375.516	7.5
376.302	6.5
377.088	4.5
377.873	8.5
378.659	8.5
379.445	6.5
380.23	7.5
381.015	8.5
381.801	6.5
382.586	8.5
383.371	4.5
384.156	5.5
384.941	9.5
385.726	8.5
386.511	7.5
387.296	6.5
388.08	6.5
388.865	7.5
389.649	8.5
390.434	8.5
391.218	8.5
392.003	8.5
392.787	8.5
393.571	10.5
394.355	9.5
395.139	8.5
395.923	8.5
396.707	9.5
397.491	9.5
398.274	8.5
399.058	10.5
399.842	9.5
400.625	9.5
401.408	10.5
402.192	9.5
402.975	12.5
403.758	11.5
404.541	10.5
405.324	10.5
406.107	11.5
406.89	11.5
407.673	10.5
408.456	11.5
409.238	12.5
410.021	10.5
410.803	11.5
411.586	10.5
412.368	11.5
413.151	12.5
413.933	14.5
414.715	13.5
415.497	12.5
416.279	13.5
417.061	13.5
417.843	13.5
418.624	13.5
419.406	14.5
420.188	16.5
420.969	11.5
421.751	13.5
422.532	14.5
423.313	16.5
424.095	18.5
424.876	14.5
425.657	16.5
426.438	15.5
427.219	18.5
428	17.5
428.78	19.5
429.561	19.5
430.342	18.5
431.122	20.5
431.903	20.5
432.683	20.5
433.464	23.5
434.244	24.5
435.024	23.5
435.804	25.5
436.584	28.5
437.364	29.5
438.144	31.5
438.924	31.5
439.704	30.5
440.483	35.5
441.263	33.5
442.042	35.5
442.822	41.5
443.601	40.5
444.38	42.5
445.16	50.5
445.939	52.5
446.718	59.5
447.497	59.5
448.276	67.5
449.054	71.5
449.833	77.5
450.612	82.5
451.391	89.5
452.169	99.5
452.948	107.5
453.726	122.5
454.504	129.5
455.282	142.5
456.061	162.5
456.839	177.5
457.617	203.5
458.395	220.5
459.172	241.5
459.95	276.5
460.728	312.5
461.506	343.5
462.283	379.5
463.061	432.5
463.838	477.5
464.615	535.5
465.393	601.5
466.17	676.5
466.947	746.5
467.724	829.5
468.501	926.5
469.278	1026.5
470.055	1154.5
470.831	1272.5
471.608	1438.5
472.385	1592.5
473.161	1751.5
473.938	1944.5
474.714	2165.5
475.49	2377.5
476.266	2617.5
477.043	2899.5
477.819	3205.5
478.595	3533.5
479.371	3902.5
480.146	4302.5
480.922	4730.5
481.698	5214.5
482.473	5718.5
483.249	6257.5
484.024	6837.5
484.8	7549.5
485.575	8288.5
486.35	9069.5
487.126	9901.5
487.901	10782.5
488.676	11790.5
489.451	12849.5
490.225	13937.5
491	15182.5
491.775	16469.5
492.55	17740.5
493.324	19222.5
494.099	20611.5
494.873	21989.5
495.647	23566.5
496.422	25099.5
497.196	26536.5
497.97	28100.5
498.744	29527.5
499.518	30861.5
500.292	32129.5
501.066	33275.5
501.839	34376.5
502.613	35260.5
503.387	35846.5
504.16	36325.5
504.934	36492.5
505.707	36419.5
506.48	36269.5
507.253	35836.5
508.027	35317.5
508.8	34660.5
509.573	33812.5
510.346	32873.5
511.118	31780.5
511.891	30739.5
512.664	29487.5
513.437	28358.5
514.209	27104.5
514.982	26066.5
515.754	25009.5
516.526	23856.5
517.298	22883.5
518.071	21898.5
518.843	20963.5
519.615	20171.5
520.387	19276.5
521.159	18601.5
521.93	17897.5
522.702	17143.5
523.474	16505.5
524.245	15800.5
525.017	15065.5
525.788	14345.5
526.56	13738.5
527.331	13080.5
528.102	12479.5
528.873	11856.5
529.644	11228.5
530.415	10790.5
531.186	10207.5
531.957	9619.5
532.728	9126.5
533.498	8641.5
534.269	8132.5
535.039	7698.5
535.81	7292.5
536.58	6888.5
537.351	6481.5
538.121	6119.5
538.891	5782.5
539.661	5522.5
540.431	5217.5
541.201	4950.5
541.971	4729.5
542.741	4435.5
543.51	4195.5
544.28	4007.5
545.05	3809.5
545.819	3619.5
546.588	3448.5
547.358	3255.5
548.127	3101.5
548.896	2937.5
549.665	2785.5
550.434	2634.5
551.203	2506.5
551.972	2377.5
552.741	2215.5
553.51	2107.5
554.278	1996.5
555.047	1874.5
555.815	1780.5
556.584	1674.5
557.352	1572.5
558.121	1488.5
558.889	1403.5
559.657	1324.5
560.425	1255.5
561.193	1177.5
561.961	1137.5
562.729	1069.5
563.496	1013.5
564.264	944.5
565.032	904.5
565.799	852.5
566.567	798.5
567.334	756.5
568.101	713.5
568.869	676.5
569.636	642.5
570.403	601.5
571.17	563.5
571.937	527.5
572.704	515.5
573.471	477.5
574.237	444.5
575.004	426.5
575.771	401.5
576.537	373.5
577.303	353.5
578.07	340.5
578.836	314.5
579.602	297.5
580.368	283.5
581.134	266.5
581.9	253.5
582.666	244.5
583.432	227.5
584.198	223.5
584.964	208.5
585.729	193.5
586.495	186.5
587.26	173.5
588.025	164.5
588.791	156.5
589.556	153.5
590.321	144.5
591.086	130.5
591.851	127.5
592.616	122.5
593.381	117.5
594.146	111.5
594.911	107.5
595.675	105.5
596.44	98.5
597.204	92.5
597.969	92.5
598.733	81.5
599.497	81.5
600.261	78.5
601.025	74.5
601.79	67.5
602.553	65.5
603.317	66.5
604.081	63.5
604.845	59.5
605.609	57.5
606.372	53.5
607.136	53.5
607.899	51.5
608.662	50.5
609.426	48.5
610.189	46.5
610.952	44.5
611.715	41.5
612.478	38.5
613.241	38.5
614.004	37.5
614.767	39.5
615.529	34.5
616.292	34.5
617.055	31.5
617.817	30.5
618.579	32.5
619.342	28.5
620.104	30.5
620.866	27.5
621.628	25.5
622.39	24.5
623.152	27.5
623.914	25.5
624.676	25.5
625.438	22.5
626.199	20.5
626.961	21.5
627.722	19.5
628.484	20.5
629.245	17.5
630.006	19.5
630.768	20.5
631.529	22.5
632.29	17.5
633.051	19.5
633.812	14.5
634.573	17.5
635.333	15.5
636.094	15.5
636.855	13.5
637.615	17.5
638.376	14.5
639.136	11.5
639.896	13.5
640.657	14.5
641.417	14.5
642.177	14.5
642.937	12.5
643.697	14.5
644.457	13.5
645.216	10.5
645.976	12.5
646.736	12.5
647.495	10.5
648.255	11.5
649.014	9.5
649.774	10.5
650.533	10.5
651.292	9.5
652.051	9.5
652.81	10.5
653.569	10.5
654.328	9.5
655.087	8.5
655.846	7.5
656.604	8.5
657.363	7.5
658.121	8.5
658.88	8.5
659.638	8.5
660.397	8.5
661.155	5.5
661.913	7.5
662.671	10.5
663.429	7.5
664.187	8.5
664.945	7.5
665.703	5.5
666.46	5.5
667.218	6.5
667.976	5.5
668.733	6.5
669.49	9.5
670.248	3.5
671.005	8.5
671.762	6.5
672.519	6.5
673.276	6.5
674.033	7.5
674.79	3.5
675.547	7.5
676.304	6.5
677.06	7.5
677.817	7.5
678.574	7.5
679.33	4.5
680.086	5.5
680.843	6.5
681.599	7.5
682.355	6.5
683.111	4.5
683.867	6.5
684.623	3.5
685.379	6.5
686.135	6.5
686.89	4.5
687.646	6.5
688.402	5.5
689.157	7.5
689.912	6.5
690.668	6.5
691.423	4.5
692.178	3.5
692.933	6.5
693.688	4.5
694.443	6.5
695.198	5.5
695.953	6.5
696.708	4.5
697.462	2.5
698.217	5.5
698.972	1.5
699.726	4.5
700.48	7.5
701.235	3.5
701.989	5.5
702.743	2.5
703.497	5.5
704.251	4.5
705.005	4.5
705.759	4.5
706.513	5.5
707.266	4.5
708.02	3.5
708.774	6.5
709.527	6.5
710.28	3.5
711.034	4.5
711.787	5.5
712.54	10.5
713.293	4.5
714.046	5.5
714.799	6.5
715.552	3.5
716.305	4.5
717.058	6.5
717.81	4.5
718.563	4.5
719.315	5.5
720.068	5.5
720.82	5.5
721.573	6.5
722.325	5.5
723.077	6.5
723.829	7.5
724.581	5.5
725.333	7.5
726.085	5.5
726.836	6.5
727.588	4.5
728.34	4.5
729.091	6.5
729.843	5.5
730.594	5.5
731.346	4.5
732.097	6.5
732.848	6.5
733.599	5.5
734.35	5.5
735.101	5.5
735.852	7.5
736.603	7.5
737.354	4.5
738.104	7.5
738.855	6.5
739.605	8.5
740.356	6.5
741.106	5.5
741.856	7.5
742.607	6.5
743.357	9.5
744.107	6.5
744.857	6.5
745.607	6.5
746.357	6.5
747.106	6.5
747.856	6.5
748.606	8.5
749.355	7.5
750.105	8.5
750.854	7.5
751.603	6.5
752.353	7.5
753.102	9.5
753.851	8.5
754.6	10.5
755.349	8.5
756.098	9.5
756.847	9.5
757.595	9.5
758.344	9.5
759.093	7.5
759.841	6.5
760.589	10.5
761.338	10.5
762.086	8.5
762.834	9.5
763.582	9.5
764.331	9.5
765.079	10.5
765.826	8.5
766.574	7.5
767.322	8.5
768.07	9.5
768.817	11.5
769.565	11.5
770.312	10.5
771.06	10.5
771.807	10.5
772.554	10.5
773.302	9.5
774.049	9.5
774.796	9.5
775.543	10.5
776.29	12.5
777.036	10.5
777.783	12.5
778.53	13.5
779.276	10.5
780.023	9.5
780.769	10.5
781.516	12.5
782.262	10.5
783.008	11.5
783.754	10.5
784.5	13.5
785.246	10.5
785.992	11.5
786.738	12.5
787.484	13.5
788.23	10.5
788.975	12.5
789.721	13.5
790.466	9.5
791.212	11.5
791.957	14.5
792.702	11.5
793.447	11.5
794.193	10.5
794.938	12.5
795.683	12.5
796.427	9.5
797.172	9.5
797.917	9.5
798.662	12.5
799.406	9.5
800.151	10.5
800.895	9.5
801.64	9.5
802.384	8.5
803.128	8.5
803.872	10.5
804.616	11.5
805.36	7.5
806.104	6.5
806.848	8.5
807.592	9.5
808.336	8.5
809.079	8.5
809.823	6.5
810.566	6.5
811.31	8.5
812.053	7.5
812.796	7.5
813.539	9.5
814.283	4.5
815.026	7.5
815.769	7.5
816.511	8.5
817.254	5.5
817.997	7.5
818.74	4.5
819.482	4.5
820.225	7.5
820.967	4.5
821.71	5.5
822.452	5.5
823.194	4.5
823.936	4.5
824.678	4.5
825.42	5.5
826.162	4.5
826.904	6.5
827.646	3.5
828.388	6.5
829.129	5.5
829.871	5.5
830.612	4.5
831.354	5.5
832.095	7.5
832.836	2.5
833.577	7.5
834.319	5.5
835.06	4.5
835.801	2.5
836.542	4.5
837.282	4.5
838.023	6.5
838.764	2.5
839.504	4.5
840.245	4.5
840.985	4.5
841.726	4.5
842.466	3.5
843.206	4.5
843.946	4.5
844.687	3.5
845.427	2.5
846.166	3.5
846.906	5.5
847.646	2.5
848.386	4.5
849.125	3.5
849.865	4.5
850.605	5.5
851.344	5.5
852.083	3.5
852.823	2.5
853.562	2.5
854.301	3.5
855.04	2.5
855.779	6.5
856.518	2.5
857.257	4.5
857.995	4.5
858.734	2.5
859.473	2.5
860.211	3.5
860.95	1.5
861.688	2.5
862.426	2.5
863.165	2.5
863.903	2.5
864.641	3.5
865.379	2.5
866.117	2.5
866.855	0.5
867.593	3.5
868.33	2.5
869.068	1.5
869.806	2.5
870.543	1.5
871.28	2.5
872.018	2.5
872.755	3.5
873.492	1.5
874.229	1.5
874.967	4.5
875.703	2.5
876.44	3.5
877.177	-0.5
877.914	-0.5
878.651	0.5
879.387	-0.5
880.124	3.5
880.86	2.5
881.597	1.5
882.333	1.5
883.069	1.5
883.806	3.5
884.542	-0.5
885.278	0.5
886.014	1.5
886.749	1.5
887.485	1.5
888.221	2.5
888.957	0.5
889.692	0.5
890.428	-1.5
891.163	-0.5
891.899	1.5
892.634	1.5
893.369	1.5
894.104	1.5
894.839	1.5
895.574	2.5
896.309	1.5
897.044	2.5
897.779	-0.5
898.514	1.5
899.248	2.5
899.983	0.5
900.717	-0.5
901.452	3.5
902.186	-0.5
902.92	3.5
903.654	0.5
904.389	2.5
905.123	0.5
905.857	-0.5
906.59	0.5
907.324	1.5
908.058	-0.5
908.792	1.5
909.525	-0.5
910.259	0.5
910.992	1.5
911.726	1.5
912.459	0.5
913.192	1.5
913.925	0.5
914.658	-1.5
915.391	0.5
916.124	1.5
916.857	-0.5
917.59	0.5
918.323	1.5
919.055	-0.5
919.788	0.5
920.521	2.5
921.253	-1.5
921.985	2.5
922.718	0.5
923.45	0.5
924.182	0.5
924.914	0.5
925.646	-1.5
926.378	0.5
927.11	0.5
927.841	2.5
928.573	0.5
929.305	2.5
930.036	0.5
930.768	0.5
931.499	-0.5
932.23	-0.5
932.962	-0.5
933.693	-0.5
934.424	2.5
935.155	-1.5
935.886	0.5
936.617	1.5
937.348	1.5
938.078	-0.5
938.809	-2.5
939.54	1.5
940.27	0.5
941.001	0.5
941.731	-1.5
942.461	1.5
943.191	0.5
943.922	0.5
944.652	-0.5
945.382	2.5
946.112	0.5
946.841	0.5
947.571	-0.5
948.301	0.5
949.031	2.5
949.76	0.5
950.49	0.5
951.219	-0.5
951.948	0.5
952.678	2.5
953.407	-1.5
954.136	1.5
954.865	0.5
955.594	2.5
956.323	1.5
957.052	-1.5
957.78	-2.5
958.509	-1.5
959.238	0.5
959.966	0.5
960.695	-0.5
961.423	2.5
962.151	2.5
962.88	2.5
963.608	0.5
964.336	-1.5
965.064	0.5
965.792	2.5
966.52	0.5
967.247	-0.5
967.975	0.5
968.703	-0.5
969.43	-2.5
970.158	1.5
970.885	2.5
971.613	0.5
972.34	2.5
973.067	0.5
973.794	-0.5
974.521	1.5
975.248	0.5
975.975	2.5
976.702	-1.5
977.429	1.5
978.156	-0.5
978.882	0.5
979.609	0.5
980.335	3.5
981.062	2.5
981.788	1.5
982.514	-2.5
983.24	-0.5
983.967	-0.5
984.693	-0.5
985.419	2.5
986.144	-0.5
986.87	0.5
987.596	1.5
988.322	1.5
989.047	-1.5
989.773	1.5
990.498	-1.5
991.224	-0.5
991.949	1.5
992.674	-0.5
993.399	-1.5
994.124	0.5
994.849	-0.5
995.574	1.5
996.299	2.5
997.024	1.5
997.749	0.5
998.473	0.5
999.198	0.5
999.922	-1.5
1000.647	-1.5
1001.371	4.5
1002.095	-1.5
1002.82	-0.5
1003.544	0.5
1004.268	2.5
1004.992	3.5
1005.716	2.5
1006.439	2.5
1007.163	2.5
1007.887	2.5
1008.611	-0.5
1009.334	-0.5
1010.058	1.5
1010.781	-1.5
1011.504	1.5
1012.228	1.5
1012.951	0.5
1013.674	-0.5
1014.397	-0.5
1015.12	-2.5
