节点500_425_QEPB04081__110__15-50-08-305.txt的数据

Date: Wed Nov 12 15:50:08 CST 2025
User: PC
Spectrometer: QEPB0408
触发模式: 0
积分时间 (秒): 1.000000E-2
Scans to average: 1
启用暗噪声校正: true
启用非线性校正: false
滑动平均宽度: 0
X轴模式: Wavelengths
Number of Pixels in Spectrum: 1044
>>>>>Begin Spectral Data<<<<<
220.843	0.25
221.644	3.25
222.444	0.25
223.244	5.25
224.045	4.25
224.845	2.25
225.645	2.25
226.445	3.25
227.245	6.25
228.045	3.25
228.845	3.25
229.645	4.25
230.444	3.25
231.244	5.25
232.043	4.25
232.843	6.25
233.642	7.25
234.442	4.25
235.241	7.25
236.04	7.25
236.839	6.25
237.638	4.25
238.437	7.25
239.236	10.25
240.035	8.25
240.833	7.25
241.632	7.25
242.43	8.25
243.229	8.25
244.027	9.25
244.826	6.25
245.624	7.25
246.422	10.25
247.22	7.25
248.018	6.25
248.816	6.25
249.614	10.25
250.412	10.25
251.21	12.25
252.007	11.25
252.805	11.25
253.602	13.25
254.4	12.25
255.197	12.25
255.994	12.25
256.791	12.25
257.589	12.25
258.386	14.25
259.183	12.25
259.979	15.25
260.776	13.25
261.573	16.25
262.37	16.25
263.166	17.25
263.963	18.25
264.759	17.25
265.556	16.25
266.352	21.25
267.148	16.25
267.944	19.25
268.74	20.25
269.536	22.25
270.332	21.25
271.128	24.25
271.924	24.25
272.719	25.25
273.515	22.25
274.311	24.25
275.106	26.25
275.901	21.25
276.697	22.25
277.492	27.25
278.287	24.25
279.082	25.25
279.877	22.25
280.672	30.25
281.467	25.25
282.262	26.25
283.056	26.25
283.851	22.25
284.646	25.25
285.44	25.25
286.234	22.25
287.029	24.25
287.823	26.25
288.617	21.25
289.411	20.25
290.205	26.25
290.999	24.25
291.793	26.25
292.587	23.25
293.381	23.25
294.174	24.25
294.968	20.25
295.761	21.25
296.555	22.25
297.348	19.25
298.141	20.25
298.935	22.25
299.728	18.25
300.521	18.25
301.314	16.25
302.107	17.25
302.899	15.25
303.692	16.25
304.485	14.25
305.277	17.25
306.07	14.25
306.862	18.25
307.655	18.25
308.447	14.25
309.239	14.25
310.031	14.25
310.823	14.25
311.615	12.25
312.407	14.25
313.199	11.25
313.991	14.25
314.783	12.25
315.574	13.25
316.366	9.25
317.157	11.25
317.949	10.25
318.74	10.25
319.531	10.25
320.322	9.25
321.113	9.25
321.904	10.25
322.695	10.25
323.486	8.25
324.277	7.25
325.068	10.25
325.858	9.25
326.649	11.25
327.439	10.25
328.23	9.25
329.02	7.25
329.81	10.25
330.6	11.25
331.391	8.25
332.181	8.25
332.971	8.25
333.76	7.25
334.55	7.25
335.34	9.25
336.13	7.25
336.919	7.25
337.709	9.25
338.498	8.25
339.287	9.25
340.077	8.25
340.866	8.25
341.655	7.25
342.444	5.25
343.233	9.25
344.022	6.25
344.811	7.25
345.6	9.25
346.388	7.25
347.177	9.25
347.965	7.25
348.754	6.25
349.542	9.25
350.33	7.25
351.119	6.25
351.907	7.25
352.695	8.25
353.483	9.25
354.271	9.25
355.059	8.25
355.846	9.25
356.634	7.25
357.422	6.25
358.209	7.25
358.997	6.25
359.784	7.25
360.571	8.25
361.359	6.25
362.146	6.25
362.933	7.25
363.72	2.25
364.507	7.25
365.294	6.25
366.081	6.25
366.867	4.25
367.654	7.25
368.44	5.25
369.227	6.25
370.013	7.25
370.8	5.25
371.586	6.25
372.372	6.25
373.158	6.25
373.944	8.25
374.73	6.25
375.516	7.25
376.302	5.25
377.088	7.25
377.873	8.25
378.659	5.25
379.445	6.25
380.23	6.25
381.015	7.25
381.801	8.25
382.586	8.25
383.371	7.25
384.156	6.25
384.941	8.25
385.726	6.25
386.511	8.25
387.296	6.25
388.08	9.25
388.865	9.25
389.649	9.25
390.434	5.25
391.218	8.25
392.003	9.25
392.787	7.25
393.571	10.25
394.355	8.25
395.139	7.25
395.923	10.25
396.707	7.25
397.491	8.25
398.274	9.25
399.058	9.25
399.842	11.25
400.625	7.25
401.408	9.25
402.192	10.25
402.975	9.25
403.758	8.25
404.541	9.25
405.324	12.25
406.107	12.25
406.89	9.25
407.673	10.25
408.456	9.25
409.238	13.25
410.021	11.25
410.803	11.25
411.586	12.25
412.368	11.25
413.151	11.25
413.933	10.25
414.715	14.25
415.497	14.25
416.279	13.25
417.061	13.25
417.843	12.25
418.624	12.25
419.406	16.25
420.188	15.25
420.969	14.25
421.751	14.25
422.532	13.25
423.313	14.25
424.095	17.25
424.876	14.25
425.657	16.25
426.438	18.25
427.219	17.25
428	16.25
428.78	18.25
429.561	19.25
430.342	22.25
431.122	21.25
431.903	24.25
432.683	21.25
433.464	22.25
434.244	22.25
435.024	25.25
435.804	25.25
436.584	29.25
437.364	30.25
438.144	28.25
438.924	29.25
439.704	31.25
440.483	31.25
441.263	37.25
442.042	37.25
442.822	40.25
443.601	43.25
444.38	45.25
445.16	47.25
445.939	51.25
446.718	56.25
447.497	62.25
448.276	61.25
449.054	69.25
449.833	77.25
450.612	83.25
451.391	88.25
452.169	100.25
452.948	106.25
453.726	114.25
454.504	133.25
455.282	149.25
456.061	158.25
456.839	174.25
457.617	200.25
458.395	221.25
459.172	239.25
459.95	272.25
460.728	302.25
461.506	344.25
462.283	378.25
463.061	425.25
463.838	468.25
464.615	523.25
465.393	595.25
466.17	666.25
466.947	741.25
467.724	836.25
468.501	919.25
469.278	1020.25
470.055	1125.25
470.831	1270.25
471.608	1417.25
472.385	1558.25
473.161	1732.25
473.938	1921.25
474.714	2132.25
475.49	2361.25
476.266	2633.25
477.043	2892.25
477.819	3200.25
478.595	3569.25
479.371	3914.25
480.146	4309.25
480.922	4732.25
481.698	5208.25
482.473	5749.25
483.249	6309.25
484.024	6926.25
484.8	7643.25
485.575	8351.25
486.35	9155.25
487.126	10046.25
487.901	10958.25
488.676	11999.25
489.451	13108.25
490.225	14257.25
491	15548.25
491.775	16792.25
492.55	18184.25
493.324	19648.25
494.099	21046.25
494.873	22515.25
495.647	24016.25
496.422	25540.25
497.196	27115.25
497.97	28723.25
498.744	30168.25
499.518	31553.25
500.292	32792.25
501.066	33864.25
501.839	34956.25
502.613	35867.25
503.387	36466.25
504.16	36824.25
504.934	36947.25
505.707	36907.25
506.48	36613.25
507.253	36158.25
508.027	35574.25
508.8	34774.25
509.573	33861.25
510.346	32886.25
511.118	31846.25
511.891	30730.25
512.664	29497.25
513.437	28301.25
514.209	27062.25
514.982	25987.25
515.754	24936.25
516.526	23760.25
517.298	22744.25
518.071	21778.25
518.843	20874.25
519.615	20043.25
520.387	19150.25
521.159	18449.25
521.93	17817.25
522.702	17064.25
523.474	16418.25
524.245	15736.25
525.017	15015.25
525.788	14300.25
526.56	13611.25
527.331	12984.25
528.102	12351.25
528.873	11755.25
529.644	11200.25
530.415	10625.25
531.186	10101.25
531.957	9563.25
532.728	9043.25
533.498	8512.25
534.269	8045.25
535.039	7590.25
535.81	7165.25
536.58	6768.25
537.351	6394.25
538.121	6030.25
538.891	5726.25
539.661	5440.25
540.431	5150.25
541.201	4877.25
541.971	4620.25
542.741	4381.25
543.51	4162.25
544.28	3943.25
545.05	3751.25
545.819	3573.25
546.588	3407.25
547.358	3223.25
548.127	3054.25
548.896	2902.25
549.665	2734.25
550.434	2611.25
551.203	2462.25
551.972	2332.25
552.741	2208.25
553.51	2082.25
554.278	1959.25
555.047	1855.25
555.815	1746.25
556.584	1650.25
557.352	1575.25
558.121	1454.25
558.889	1399.25
559.657	1310.25
560.425	1232.25
561.193	1164.25
561.961	1109.25
562.729	1037.25
563.496	993.25
564.264	928.25
565.032	896.25
565.799	843.25
566.567	782.25
567.334	757.25
568.101	709.25
568.869	666.25
569.636	628.25
570.403	588.25
571.17	557.25
571.937	525.25
572.704	502.25
573.471	473.25
574.237	442.25
575.004	419.25
575.771	395.25
576.537	366.25
577.303	343.25
578.07	325.25
578.836	306.25
579.602	290.25
580.368	283.25
581.134	265.25
581.9	251.25
582.666	240.25
583.432	226.25
584.198	209.25
584.964	201.25
585.729	196.25
586.495	184.25
587.26	173.25
588.025	164.25
588.791	156.25
589.556	146.25
590.321	138.25
591.086	129.25
591.851	126.25
592.616	117.25
593.381	114.25
594.146	107.25
594.911	107.25
595.675	101.25
596.44	94.25
597.204	88.25
597.969	87.25
598.733	82.25
599.497	79.25
600.261	77.25
601.025	74.25
601.79	71.25
602.553	68.25
603.317	64.25
604.081	61.25
604.845	58.25
605.609	55.25
606.372	55.25
607.136	50.25
607.899	49.25
608.662	48.25
609.426	45.25
610.189	44.25
610.952	44.25
611.715	44.25
612.478	42.25
613.241	37.25
614.004	35.25
614.767	37.25
615.529	34.25
616.292	31.25
617.055	31.25
617.817	32.25
618.579	28.25
619.342	29.25
620.104	31.25
620.866	25.25
621.628	25.25
622.39	26.25
623.152	24.25
623.914	26.25
624.676	23.25
625.438	22.25
626.199	22.25
626.961	21.25
627.722	21.25
628.484	16.25
629.245	19.25
630.006	18.25
630.768	17.25
631.529	15.25
632.29	16.25
633.051	14.25
633.812	18.25
634.573	17.25
635.333	16.25
636.094	16.25
636.855	13.25
637.615	13.25
638.376	13.25
639.136	13.25
639.896	11.25
640.657	14.25
641.417	11.25
642.177	13.25
642.937	10.25
643.697	10.25
644.457	12.25
645.216	9.25
645.976	10.25
646.736	11.25
647.495	12.25
648.255	8.25
649.014	10.25
649.774	11.25
650.533	10.25
651.292	8.25
652.051	9.25
652.81	9.25
653.569	8.25
654.328	9.25
655.087	8.25
655.846	9.25
656.604	10.25
657.363	8.25
658.121	8.25
658.88	4.25
659.638	6.25
660.397	8.25
661.155	9.25
661.913	7.25
662.671	6.25
663.429	6.25
664.187	8.25
664.945	6.25
665.703	7.25
666.46	5.25
667.218	5.25
667.976	5.25
668.733	8.25
669.49	6.25
670.248	5.25
671.005	6.25
671.762	6.25
672.519	4.25
673.276	8.25
674.033	5.25
674.79	6.25
675.547	5.25
676.304	7.25
677.06	4.25
677.817	6.25
678.574	6.25
679.33	6.25
680.086	6.25
680.843	5.25
681.599	6.25
682.355	5.25
683.111	6.25
683.867	7.25
684.623	4.25
685.379	7.25
686.135	7.25
686.89	4.25
687.646	5.25
688.402	3.25
689.157	4.25
689.912	5.25
690.668	4.25
691.423	6.25
692.178	4.25
692.933	3.25
693.688	3.25
694.443	6.25
695.198	2.25
695.953	5.25
696.708	3.25
697.462	6.25
698.217	4.25
698.972	5.25
699.726	4.25
700.48	4.25
701.235	3.25
701.989	6.25
702.743	4.25
703.497	6.25
704.251	4.25
705.005	4.25
705.759	6.25
706.513	5.25
707.266	6.25
708.02	4.25
708.774	5.25
709.527	5.25
710.28	5.25
711.034	5.25
711.787	5.25
712.54	5.25
713.293	3.25
714.046	7.25
714.799	7.25
715.552	4.25
716.305	6.25
717.058	5.25
717.81	4.25
718.563	5.25
719.315	7.25
720.068	4.25
720.82	5.25
721.573	9.25
722.325	4.25
723.077	6.25
723.829	3.25
724.581	4.25
725.333	7.25
726.085	4.25
726.836	5.25
727.588	4.25
728.34	5.25
729.091	8.25
729.843	6.25
730.594	8.25
731.346	5.25
732.097	5.25
732.848	6.25
733.599	8.25
734.35	5.25
735.101	7.25
735.852	8.25
736.603	5.25
737.354	5.25
738.104	8.25
738.855	4.25
739.605	6.25
740.356	3.25
741.106	8.25
741.856	8.25
742.607	6.25
743.357	8.25
744.107	4.25
744.857	5.25
745.607	7.25
746.357	6.25
747.106	7.25
747.856	5.25
748.606	8.25
749.355	8.25
750.105	7.25
750.854	8.25
751.603	9.25
752.353	11.25
753.102	7.25
753.851	9.25
754.6	9.25
755.349	6.25
756.098	8.25
756.847	8.25
757.595	10.25
758.344	7.25
759.093	10.25
759.841	10.25
760.589	10.25
761.338	10.25
762.086	9.25
762.834	10.25
763.582	9.25
764.331	8.25
765.079	10.25
765.826	9.25
766.574	11.25
767.322	10.25
768.07	11.25
768.817	10.25
769.565	11.25
770.312	10.25
771.06	12.25
771.807	11.25
772.554	10.25
773.302	11.25
774.049	14.25
774.796	11.25
775.543	10.25
776.29	10.25
777.036	12.25
777.783	12.25
778.53	14.25
779.276	12.25
780.023	12.25
780.769	12.25
781.516	10.25
782.262	11.25
783.008	11.25
783.754	12.25
784.5	11.25
785.246	11.25
785.992	11.25
786.738	9.25
787.484	12.25
788.23	12.25
788.975	11.25
789.721	11.25
790.466	10.25
791.212	12.25
791.957	11.25
792.702	11.25
793.447	12.25
794.193	11.25
794.938	8.25
795.683	12.25
796.427	12.25
797.172	11.25
797.917	7.25
798.662	8.25
799.406	10.25
800.151	10.25
800.895	10.25
801.64	10.25
802.384	8.25
803.128	7.25
803.872	6.25
804.616	7.25
805.36	10.25
806.104	7.25
806.848	9.25
807.592	9.25
808.336	7.25
809.079	8.25
809.823	6.25
810.566	8.25
811.31	7.25
812.053	5.25
812.796	8.25
813.539	6.25
814.283	7.25
815.026	5.25
815.769	5.25
816.511	5.25
817.254	4.25
817.997	5.25
818.74	6.25
819.482	6.25
820.225	5.25
820.967	5.25
821.71	4.25
822.452	7.25
823.194	4.25
823.936	5.25
824.678	7.25
825.42	6.25
826.162	0.25
826.904	6.25
827.646	5.25
828.388	4.25
829.129	5.25
829.871	4.25
830.612	4.25
831.354	4.25
832.095	5.25
832.836	4.25
833.577	4.25
834.319	3.25
835.06	6.25
835.801	4.25
836.542	3.25
837.282	4.25
838.023	6.25
838.764	3.25
839.504	4.25
840.245	0.25
840.985	6.25
841.726	4.25
842.466	4.25
843.206	4.25
843.946	2.25
844.687	4.25
845.427	5.25
846.166	8.25
846.906	3.25
847.646	2.25
848.386	4.25
849.125	4.25
849.865	4.25
850.605	3.25
851.344	4.25
852.083	4.25
852.823	3.25
853.562	1.25
854.301	2.25
855.04	1.25
855.779	2.25
856.518	2.25
857.257	3.25
857.995	2.25
858.734	3.25
859.473	2.25
860.211	5.25
860.95	2.25
861.688	2.25
862.426	1.25
863.165	1.25
863.903	2.25
864.641	5.25
865.379	0.25
866.117	3.25
866.855	2.25
867.593	2.25
868.33	1.25
869.068	0.25
869.806	-1.75
870.543	0.25
871.28	1.25
872.018	3.25
872.755	1.25
873.492	3.25
874.229	0.25
874.967	2.25
875.703	0.25
876.44	1.25
877.177	3.25
877.914	-0.75
878.651	0.25
879.387	3.25
880.124	0.25
880.86	2.25
881.597	4.25
882.333	3.25
883.069	1.25
883.806	0.25
884.542	0.25
885.278	1.25
886.014	0.25
886.749	1.25
887.485	0.25
888.221	-0.75
888.957	0.25
889.692	-0.75
890.428	1.25
891.163	0.25
891.899	-0.75
892.634	1.25
893.369	1.25
894.104	0.25
894.839	2.25
895.574	2.25
896.309	1.25
897.044	-0.75
897.779	1.25
898.514	1.25
899.248	0.25
899.983	3.25
900.717	-1.75
901.452	1.25
902.186	0.25
902.92	-0.75
903.654	0.25
904.389	0.25
905.123	1.25
905.857	0.25
906.59	0.25
907.324	-1.75
908.058	-1.75
908.792	-1.75
909.525	-1.75
910.259	2.25
910.992	1.25
911.726	2.25
912.459	2.25
913.192	0.25
913.925	-0.75
914.658	0.25
915.391	-0.75
916.124	-1.75
916.857	0.25
917.59	0.25
918.323	-1.75
919.055	3.25
919.788	1.25
920.521	2.25
921.253	0.25
921.985	0.25
922.718	0.25
923.45	1.25
924.182	-0.75
924.914	-0.75
925.646	-0.75
926.378	0.25
927.11	1.25
927.841	1.25
928.573	1.25
929.305	1.25
930.036	1.25
930.768	0.25
931.499	0.25
932.23	-1.75
932.962	0.25
933.693	-0.75
934.424	-0.75
935.155	0.25
935.886	0.25
936.617	0.25
937.348	-0.75
938.078	0.25
938.809	0.25
939.54	2.25
940.27	2.25
941.001	-0.75
941.731	-0.75
942.461	-0.75
943.191	3.25
943.922	0.25
944.652	1.25
945.382	0.25
946.112	1.25
946.841	-1.75
947.571	0.25
948.301	0.25
949.031	-1.75
949.76	0.25
950.49	-0.75
951.219	-0.75
951.948	-0.75
952.678	2.25
953.407	0.25
954.136	0.25
954.865	0.25
955.594	2.25
956.323	0.25
957.052	1.25
957.78	0.25
958.509	1.25
959.238	0.25
959.966	1.25
960.695	-0.75
961.423	-0.75
962.151	0.25
962.88	-1.75
963.608	1.25
964.336	2.25
965.064	0.25
965.792	0.25
966.52	-1.75
967.247	0.25
967.975	-0.75
968.703	-0.75
969.43	-0.75
970.158	0.25
970.885	0.25
971.613	-1.75
972.34	0.25
973.067	1.25
973.794	1.25
974.521	0.25
975.248	-0.75
975.975	2.25
976.702	-1.75
977.429	-0.75
978.156	0.25
978.882	-0.75
979.609	0.25
980.335	1.25
981.062	-0.75
981.788	0.25
982.514	-0.75
983.24	-2.75
983.967	-0.75
984.693	0.25
985.419	0.25
986.144	0.25
986.87	3.25
987.596	1.25
988.322	0.25
989.047	1.25
989.773	1.25
990.498	0.25
991.224	-0.75
991.949	1.25
992.674	0.25
993.399	1.25
994.124	0.25
994.849	-1.75
995.574	2.25
996.299	0.25
997.024	0.25
997.749	1.25
998.473	0.25
999.198	0.25
999.922	-1.75
1000.647	1.25
1001.371	2.25
1002.095	0.25
1002.82	0.25
1003.544	-1.75
1004.268	3.25
1004.992	2.25
1005.716	3.25
1006.439	0.25
1007.163	3.25
1007.887	4.25
1008.611	0.25
1009.334	-0.75
1010.058	-0.75
1010.781	0.25
1011.504	-0.75
1012.228	0.25
1012.951	-0.75
1013.674	-0.75
1014.397	1.25
1015.12	-0.75
