节点500_425_QEPB04081__99__15-49-57-354.txt的数据

Date: Wed Nov 12 15:49:57 CST 2025
User: PC
Spectrometer: QEPB0408
触发模式: 0
积分时间 (秒): 1.000000E-2
Scans to average: 1
启用暗噪声校正: true
启用非线性校正: false
滑动平均宽度: 0
X轴模式: Wavelengths
Number of Pixels in Spectrum: 1044
>>>>>Begin Spectral Data<<<<<
220.843	3.5
221.644	4.5
222.444	2.5
223.244	5.5
224.045	1.5
224.845	4.5
225.645	5.5
226.445	4.5
227.245	3.5
228.045	3.5
228.845	3.5
229.645	4.5
230.444	5.5
231.244	5.5
232.043	4.5
232.843	5.5
233.642	7.5
234.442	7.5
235.241	6.5
236.04	7.5
236.839	4.5
237.638	5.5
238.437	6.5
239.236	7.5
240.035	7.5
240.833	8.5
241.632	7.5
242.43	8.5
243.229	7.5
244.027	7.5
244.826	8.5
245.624	8.5
246.422	7.5
247.22	9.5
248.018	9.5
248.816	9.5
249.614	10.5
250.412	11.5
251.21	13.5
252.007	8.5
252.805	10.5
253.602	12.5
254.4	12.5
255.197	12.5
255.994	11.5
256.791	13.5
257.589	17.5
258.386	13.5
259.183	14.5
259.979	14.5
260.776	14.5
261.573	17.5
262.37	16.5
263.166	17.5
263.963	15.5
264.759	19.5
265.556	19.5
266.352	22.5
267.148	19.5
267.944	19.5
268.74	23.5
269.536	18.5
270.332	20.5
271.128	25.5
271.924	22.5
272.719	22.5
273.515	26.5
274.311	25.5
275.106	25.5
275.901	24.5
276.697	28.5
277.492	25.5
278.287	24.5
279.082	27.5
279.877	25.5
280.672	27.5
281.467	28.5
282.262	24.5
283.056	25.5
283.851	29.5
284.646	24.5
285.44	25.5
286.234	27.5
287.029	25.5
287.823	28.5
288.617	24.5
289.411	22.5
290.205	30.5
290.999	25.5
291.793	24.5
292.587	21.5
293.381	23.5
294.174	21.5
294.968	17.5
295.761	22.5
296.555	21.5
297.348	22.5
298.141	20.5
298.935	18.5
299.728	20.5
300.521	19.5
301.314	18.5
302.107	19.5
302.899	14.5
303.692	17.5
304.485	14.5
305.277	19.5
306.07	18.5
306.862	13.5
307.655	16.5
308.447	14.5
309.239	17.5
310.031	16.5
310.823	14.5
311.615	13.5
312.407	13.5
313.199	13.5
313.991	12.5
314.783	13.5
315.574	13.5
316.366	10.5
317.157	12.5
317.949	10.5
318.74	8.5
319.531	9.5
320.322	9.5
321.113	9.5
321.904	11.5
322.695	11.5
323.486	12.5
324.277	9.5
325.068	7.5
325.858	10.5
326.649	8.5
327.439	8.5
328.23	9.5
329.02	8.5
329.81	15.5
330.6	10.5
331.391	9.5
332.181	8.5
332.971	9.5
333.76	10.5
334.55	11.5
335.34	10.5
336.13	8.5
336.919	7.5
337.709	8.5
338.498	8.5
339.287	10.5
340.077	8.5
340.866	8.5
341.655	9.5
342.444	8.5
343.233	6.5
344.022	9.5
344.811	8.5
345.6	5.5
346.388	8.5
347.177	9.5
347.965	9.5
348.754	10.5
349.542	7.5
350.33	10.5
351.119	8.5
351.907	8.5
352.695	8.5
353.483	6.5
354.271	6.5
355.059	8.5
355.846	7.5
356.634	7.5
357.422	7.5
358.209	8.5
358.997	8.5
359.784	6.5
360.571	8.5
361.359	6.5
362.146	5.5
362.933	6.5
363.72	7.5
364.507	6.5
365.294	5.5
366.081	6.5
366.867	9.5
367.654	6.5
368.44	6.5
369.227	9.5
370.013	7.5
370.8	6.5
371.586	7.5
372.372	8.5
373.158	8.5
373.944	7.5
374.73	6.5
375.516	6.5
376.302	6.5
377.088	9.5
377.873	4.5
378.659	5.5
379.445	8.5
380.23	5.5
381.015	8.5
381.801	7.5
382.586	6.5
383.371	7.5
384.156	7.5
384.941	7.5
385.726	5.5
386.511	7.5
387.296	9.5
388.08	7.5
388.865	8.5
389.649	7.5
390.434	9.5
391.218	8.5
392.003	9.5
392.787	8.5
393.571	10.5
394.355	9.5
395.139	7.5
395.923	10.5
396.707	10.5
397.491	8.5
398.274	7.5
399.058	7.5
399.842	7.5
400.625	7.5
401.408	10.5
402.192	8.5
402.975	8.5
403.758	9.5
404.541	7.5
405.324	12.5
406.107	10.5
406.89	10.5
407.673	11.5
408.456	11.5
409.238	10.5
410.021	11.5
410.803	12.5
411.586	12.5
412.368	14.5
413.151	12.5
413.933	11.5
414.715	12.5
415.497	12.5
416.279	12.5
417.061	11.5
417.843	11.5
418.624	15.5
419.406	12.5
420.188	13.5
420.969	16.5
421.751	14.5
422.532	14.5
423.313	15.5
424.095	14.5
424.876	16.5
425.657	18.5
426.438	18.5
427.219	19.5
428	17.5
428.78	16.5
429.561	20.5
430.342	20.5
431.122	21.5
431.903	20.5
432.683	21.5
433.464	22.5
434.244	22.5
435.024	24.5
435.804	24.5
436.584	23.5
437.364	26.5
438.144	31.5
438.924	28.5
439.704	31.5
440.483	34.5
441.263	35.5
442.042	37.5
442.822	39.5
443.601	43.5
444.38	42.5
445.16	51.5
445.939	50.5
446.718	53.5
447.497	60.5
448.276	65.5
449.054	63.5
449.833	76.5
450.612	81.5
451.391	90.5
452.169	98.5
452.948	103.5
453.726	114.5
454.504	124.5
455.282	145.5
456.061	152.5
456.839	176.5
457.617	204.5
458.395	216.5
459.172	246.5
459.95	270.5
460.728	296.5
461.506	332.5
462.283	375.5
463.061	419.5
463.838	472.5
464.615	526.5
465.393	597.5
466.17	656.5
466.947	737.5
467.724	820.5
468.501	913.5
469.278	1016.5
470.055	1132.5
470.831	1256.5
471.608	1411.5
472.385	1572.5
473.161	1741.5
473.938	1933.5
474.714	2132.5
475.49	2346.5
476.266	2600.5
477.043	2886.5
477.819	3217.5
478.595	3532.5
479.371	3922.5
480.146	4313.5
480.922	4754.5
481.698	5238.5
482.473	5758.5
483.249	6333.5
484.024	7000.5
484.8	7672.5
485.575	8355.5
486.35	9205.5
487.126	10086.5
487.901	11026.5
488.676	12051.5
489.451	13187.5
490.225	14288.5
491	15583.5
491.775	16948.5
492.55	18286.5
493.324	19753.5
494.099	21211.5
494.873	22603.5
495.647	24200.5
496.422	25651.5
497.196	27296.5
497.97	28882.5
498.744	30395.5
499.518	31816.5
500.292	33013.5
501.066	34118.5
501.839	35181.5
502.613	35932.5
503.387	36519.5
504.16	36976.5
504.934	37046.5
505.707	36994.5
506.48	36685.5
507.253	36263.5
508.027	35636.5
508.8	34886.5
509.573	33981.5
510.346	32895.5
511.118	31830.5
511.891	30760.5
512.664	29467.5
513.437	28241.5
514.209	27068.5
514.982	25988.5
515.754	24820.5
516.526	23774.5
517.298	22713.5
518.071	21716.5
518.843	20808.5
519.615	19967.5
520.387	19176.5
521.159	18435.5
521.93	17754.5
522.702	17038.5
523.474	16408.5
524.245	15707.5
525.017	14915.5
525.788	14272.5
526.56	13612.5
527.331	13006.5
528.102	12359.5
528.873	11752.5
529.644	11148.5
530.415	10609.5
531.186	10090.5
531.957	9535.5
532.728	9014.5
533.498	8499.5
534.269	7977.5
535.039	7572.5
535.81	7183.5
536.58	6760.5
537.351	6350.5
538.121	6027.5
538.891	5680.5
539.661	5393.5
540.431	5119.5
541.201	4846.5
541.971	4616.5
542.741	4335.5
543.51	4132.5
544.28	3947.5
545.05	3737.5
545.819	3578.5
546.588	3382.5
547.358	3173.5
548.127	3027.5
548.896	2895.5
549.665	2720.5
550.434	2584.5
551.203	2470.5
551.972	2320.5
552.741	2195.5
553.51	2053.5
554.278	1947.5
555.047	1850.5
555.815	1750.5
556.584	1642.5
557.352	1541.5
558.121	1447.5
558.889	1371.5
559.657	1314.5
560.425	1232.5
561.193	1165.5
561.961	1113.5
562.729	1033.5
563.496	974.5
564.264	926.5
565.032	885.5
565.799	830.5
566.567	790.5
567.334	739.5
568.101	705.5
568.869	664.5
569.636	629.5
570.403	588.5
571.17	554.5
571.937	527.5
572.704	494.5
573.471	474.5
574.237	439.5
575.004	410.5
575.771	389.5
576.537	363.5
577.303	356.5
578.07	329.5
578.836	310.5
579.602	288.5
580.368	275.5
581.134	266.5
581.9	245.5
582.666	236.5
583.432	220.5
584.198	213.5
584.964	199.5
585.729	192.5
586.495	179.5
587.26	175.5
588.025	165.5
588.791	157.5
589.556	149.5
590.321	133.5
591.086	133.5
591.851	128.5
592.616	117.5
593.381	114.5
594.146	106.5
594.911	106.5
595.675	99.5
596.44	94.5
597.204	90.5
597.969	83.5
598.733	80.5
599.497	77.5
600.261	77.5
601.025	74.5
601.79	69.5
602.553	66.5
603.317	60.5
604.081	63.5
604.845	57.5
605.609	58.5
606.372	55.5
607.136	53.5
607.899	51.5
608.662	48.5
609.426	47.5
610.189	44.5
610.952	41.5
611.715	41.5
612.478	40.5
613.241	39.5
614.004	38.5
614.767	34.5
615.529	35.5
616.292	33.5
617.055	29.5
617.817	31.5
618.579	29.5
619.342	27.5
620.104	31.5
620.866	24.5
621.628	27.5
622.39	23.5
623.152	27.5
623.914	25.5
624.676	19.5
625.438	20.5
626.199	25.5
626.961	20.5
627.722	22.5
628.484	17.5
629.245	20.5
630.006	18.5
630.768	17.5
631.529	17.5
632.29	17.5
633.051	19.5
633.812	15.5
634.573	15.5
635.333	14.5
636.094	14.5
636.855	13.5
637.615	11.5
638.376	13.5
639.136	16.5
639.896	13.5
640.657	12.5
641.417	14.5
642.177	12.5
642.937	10.5
643.697	10.5
644.457	12.5
645.216	11.5
645.976	10.5
646.736	8.5
647.495	12.5
648.255	12.5
649.014	10.5
649.774	10.5
650.533	8.5
651.292	10.5
652.051	10.5
652.81	11.5
653.569	12.5
654.328	8.5
655.087	9.5
655.846	7.5
656.604	7.5
657.363	9.5
658.121	6.5
658.88	8.5
659.638	6.5
660.397	9.5
661.155	8.5
661.913	7.5
662.671	7.5
663.429	6.5
664.187	5.5
664.945	6.5
665.703	6.5
666.46	8.5
667.218	7.5
667.976	6.5
668.733	5.5
669.49	7.5
670.248	6.5
671.005	6.5
671.762	6.5
672.519	4.5
673.276	8.5
674.033	7.5
674.79	7.5
675.547	5.5
676.304	4.5
677.06	5.5
677.817	6.5
678.574	6.5
679.33	5.5
680.086	6.5
680.843	8.5
681.599	5.5
682.355	4.5
683.111	5.5
683.867	5.5
684.623	6.5
685.379	8.5
686.135	5.5
686.89	5.5
687.646	4.5
688.402	3.5
689.157	5.5
689.912	6.5
690.668	6.5
691.423	4.5
692.178	5.5
692.933	6.5
693.688	3.5
694.443	4.5
695.198	4.5
695.953	7.5
696.708	7.5
697.462	5.5
698.217	6.5
698.972	4.5
699.726	5.5
700.48	6.5
701.235	3.5
701.989	6.5
702.743	4.5
703.497	4.5
704.251	5.5
705.005	5.5
705.759	4.5
706.513	3.5
707.266	4.5
708.02	4.5
708.774	4.5
709.527	4.5
710.28	4.5
711.034	1.5
711.787	4.5
712.54	3.5
713.293	4.5
714.046	5.5
714.799	5.5
715.552	3.5
716.305	6.5
717.058	5.5
717.81	4.5
718.563	6.5
719.315	5.5
720.068	6.5
720.82	6.5
721.573	8.5
722.325	3.5
723.077	3.5
723.829	7.5
724.581	5.5
725.333	5.5
726.085	5.5
726.836	5.5
727.588	6.5
728.34	7.5
729.091	6.5
729.843	3.5
730.594	5.5
731.346	4.5
732.097	6.5
732.848	5.5
733.599	5.5
734.35	5.5
735.101	3.5
735.852	4.5
736.603	6.5
737.354	6.5
738.104	5.5
738.855	6.5
739.605	5.5
740.356	9.5
741.106	8.5
741.856	7.5
742.607	8.5
743.357	9.5
744.107	7.5
744.857	10.5
745.607	10.5
746.357	6.5
747.106	8.5
747.856	7.5
748.606	9.5
749.355	8.5
750.105	9.5
750.854	7.5
751.603	9.5
752.353	9.5
753.102	9.5
753.851	7.5
754.6	9.5
755.349	6.5
756.098	7.5
756.847	6.5
757.595	6.5
758.344	7.5
759.093	10.5
759.841	9.5
760.589	8.5
761.338	10.5
762.086	8.5
762.834	8.5
763.582	10.5
764.331	9.5
765.079	12.5
765.826	9.5
766.574	11.5
767.322	8.5
768.07	9.5
768.817	9.5
769.565	9.5
770.312	12.5
771.06	10.5
771.807	12.5
772.554	11.5
773.302	8.5
774.049	11.5
774.796	12.5
775.543	11.5
776.29	12.5
777.036	13.5
777.783	11.5
778.53	12.5
779.276	14.5
780.023	11.5
780.769	10.5
781.516	11.5
782.262	11.5
783.008	14.5
783.754	10.5
784.5	14.5
785.246	10.5
785.992	13.5
786.738	11.5
787.484	12.5
788.23	11.5
788.975	12.5
789.721	10.5
790.466	10.5
791.212	10.5
791.957	14.5
792.702	11.5
793.447	13.5
794.193	11.5
794.938	10.5
795.683	12.5
796.427	12.5
797.172	10.5
797.917	9.5
798.662	11.5
799.406	10.5
800.151	6.5
800.895	9.5
801.64	9.5
802.384	12.5
803.128	8.5
803.872	8.5
804.616	8.5
805.36	9.5
806.104	8.5
806.848	8.5
807.592	9.5
808.336	6.5
809.079	9.5
809.823	5.5
810.566	7.5
811.31	5.5
812.053	9.5
812.796	6.5
813.539	5.5
814.283	7.5
815.026	6.5
815.769	4.5
816.511	8.5
817.254	7.5
817.997	6.5
818.74	3.5
819.482	6.5
820.225	5.5
820.967	4.5
821.71	6.5
822.452	4.5
823.194	5.5
823.936	5.5
824.678	6.5
825.42	4.5
826.162	2.5
826.904	7.5
827.646	6.5
828.388	5.5
829.129	4.5
829.871	4.5
830.612	2.5
831.354	5.5
832.095	5.5
832.836	6.5
833.577	5.5
834.319	5.5
835.06	5.5
835.801	5.5
836.542	5.5
837.282	3.5
838.023	4.5
838.764	2.5
839.504	5.5
840.245	5.5
840.985	4.5
841.726	2.5
842.466	5.5
843.206	4.5
843.946	4.5
844.687	4.5
845.427	4.5
846.166	2.5
846.906	4.5
847.646	5.5
848.386	4.5
849.125	2.5
849.865	-0.5
850.605	3.5
851.344	4.5
852.083	2.5
852.823	4.5
853.562	4.5
854.301	2.5
855.04	0.5
855.779	3.5
856.518	3.5
857.257	1.5
857.995	2.5
858.734	3.5
859.473	3.5
860.211	2.5
860.95	2.5
861.688	2.5
862.426	2.5
863.165	3.5
863.903	2.5
864.641	2.5
865.379	1.5
866.117	4.5
866.855	2.5
867.593	1.5
868.33	0.5
869.068	0.5
869.806	2.5
870.543	2.5
871.28	1.5
872.018	2.5
872.755	0.5
873.492	1.5
874.229	0.5
874.967	1.5
875.703	0.5
876.44	3.5
877.177	1.5
877.914	0.5
878.651	1.5
879.387	1.5
880.124	1.5
880.86	2.5
881.597	0.5
882.333	1.5
883.069	0.5
883.806	3.5
884.542	0.5
885.278	2.5
886.014	2.5
886.749	1.5
887.485	0.5
888.221	2.5
888.957	0.5
889.692	0.5
890.428	0.5
891.163	-1.5
891.899	3.5
892.634	1.5
893.369	1.5
894.104	2.5
894.839	0.5
895.574	2.5
896.309	0.5
897.044	0.5
897.779	0.5
898.514	1.5
899.248	0.5
899.983	0.5
900.717	0.5
901.452	-0.5
902.186	-0.5
902.92	1.5
903.654	-0.5
904.389	3.5
905.123	-1.5
905.857	-0.5
906.59	1.5
907.324	1.5
908.058	1.5
908.792	-0.5
909.525	0.5
910.259	2.5
910.992	1.5
911.726	1.5
912.459	1.5
913.192	0.5
913.925	2.5
914.658	1.5
915.391	2.5
916.124	0.5
916.857	1.5
917.59	-0.5
918.323	-1.5
919.055	0.5
919.788	-1.5
920.521	2.5
921.253	-0.5
921.985	1.5
922.718	0.5
923.45	1.5
924.182	-1.5
924.914	0.5
925.646	0.5
926.378	-0.5
927.11	0.5
927.841	2.5
928.573	-1.5
929.305	0.5
930.036	0.5
930.768	1.5
931.499	-1.5
932.23	0.5
932.962	0.5
933.693	-1.5
934.424	1.5
935.155	0.5
935.886	1.5
936.617	2.5
937.348	-0.5
938.078	1.5
938.809	0.5
939.54	2.5
940.27	-1.5
941.001	1.5
941.731	1.5
942.461	-1.5
943.191	0.5
943.922	2.5
944.652	0.5
945.382	0.5
946.112	1.5
946.841	0.5
947.571	-0.5
948.301	1.5
949.031	0.5
949.76	1.5
950.49	1.5
951.219	-0.5
951.948	2.5
952.678	-0.5
953.407	-0.5
954.136	2.5
954.865	0.5
955.594	-1.5
956.323	1.5
957.052	1.5
957.78	0.5
958.509	0.5
959.238	0.5
959.966	0.5
960.695	1.5
961.423	1.5
962.151	0.5
962.88	1.5
963.608	-1.5
964.336	1.5
965.064	0.5
965.792	0.5
966.52	1.5
967.247	1.5
967.975	0.5
968.703	1.5
969.43	2.5
970.158	-0.5
970.885	0.5
971.613	0.5
972.34	-0.5
973.067	1.5
973.794	0.5
974.521	2.5
975.248	-1.5
975.975	2.5
976.702	-0.5
977.429	-2.5
978.156	1.5
978.882	0.5
979.609	0.5
980.335	0.5
981.062	0.5
981.788	-0.5
982.514	0.5
983.24	2.5
983.967	0.5
984.693	1.5
985.419	-1.5
986.144	1.5
986.87	1.5
987.596	1.5
988.322	0.5
989.047	1.5
989.773	-0.5
990.498	-0.5
991.224	-0.5
991.949	3.5
992.674	1.5
993.399	0.5
994.124	2.5
994.849	1.5
995.574	0.5
996.299	-0.5
997.024	0.5
997.749	1.5
998.473	0.5
999.198	2.5
999.922	-1.5
1000.647	0.5
1001.371	2.5
1002.095	1.5
1002.82	-1.5
1003.544	-0.5
1004.268	2.5
1004.992	0.5
1005.716	-1.5
1006.439	1.5
1007.163	3.5
1007.887	2.5
1008.611	0.5
1009.334	0.5
1010.058	2.5
1010.781	1.5
1011.504	1.5
1012.228	-0.5
1012.951	-0.5
1013.674	0.5
1014.397	-0.5
1015.12	-1.5
