节点500_425_QEPB04081__301__15-53-18-884.txt的数据

Date: Wed Nov 12 15:53:18 CST 2025
User: PC
Spectrometer: QEPB0408
触发模式: 0
积分时间 (秒): 1.000000E-2
Scans to average: 1
启用暗噪声校正: true
启用非线性校正: false
滑动平均宽度: 0
X轴模式: Wavelengths
Number of Pixels in Spectrum: 1044
>>>>>Begin Spectral Data<<<<<
220.843	6.5
221.644	3.5
222.444	3.5
223.244	5.5
224.045	4.5
224.845	3.5
225.645	5.5
226.445	4.5
227.245	2.5
228.045	6.5
228.845	5.5
229.645	2.5
230.444	5.5
231.244	4.5
232.043	5.5
232.843	3.5
233.642	5.5
234.442	6.5
235.241	3.5
236.04	6.5
236.839	5.5
237.638	7.5
238.437	9.5
239.236	4.5
240.035	5.5
240.833	8.5
241.632	7.5
242.43	6.5
243.229	6.5
244.027	6.5
244.826	6.5
245.624	7.5
246.422	6.5
247.22	8.5
248.018	10.5
248.816	10.5
249.614	10.5
250.412	8.5
251.21	10.5
252.007	8.5
252.805	11.5
253.602	11.5
254.4	11.5
255.197	10.5
255.994	11.5
256.791	10.5
257.589	14.5
258.386	12.5
259.183	12.5
259.979	14.5
260.776	15.5
261.573	15.5
262.37	14.5
263.166	13.5
263.963	16.5
264.759	14.5
265.556	17.5
266.352	19.5
267.148	17.5
267.944	19.5
268.74	18.5
269.536	21.5
270.332	19.5
271.128	20.5
271.924	22.5
272.719	19.5
273.515	21.5
274.311	23.5
275.106	21.5
275.901	24.5
276.697	24.5
277.492	22.5
278.287	22.5
279.082	24.5
279.877	26.5
280.672	25.5
281.467	26.5
282.262	25.5
283.056	26.5
283.851	25.5
284.646	26.5
285.44	25.5
286.234	24.5
287.029	22.5
287.823	22.5
288.617	23.5
289.411	22.5
290.205	24.5
290.999	21.5
291.793	23.5
292.587	24.5
293.381	22.5
294.174	22.5
294.968	18.5
295.761	23.5
296.555	21.5
297.348	19.5
298.141	19.5
298.935	26.5
299.728	19.5
300.521	20.5
301.314	17.5
302.107	18.5
302.899	14.5
303.692	16.5
304.485	17.5
305.277	16.5
306.07	17.5
306.862	17.5
307.655	16.5
308.447	16.5
309.239	14.5
310.031	14.5
310.823	14.5
311.615	14.5
312.407	12.5
313.199	12.5
313.991	11.5
314.783	13.5
315.574	13.5
316.366	11.5
317.157	12.5
317.949	12.5
318.74	10.5
319.531	10.5
320.322	8.5
321.113	9.5
321.904	10.5
322.695	11.5
323.486	9.5
324.277	10.5
325.068	9.5
325.858	8.5
326.649	8.5
327.439	10.5
328.23	8.5
329.02	7.5
329.81	8.5
330.6	7.5
331.391	8.5
332.181	9.5
332.971	8.5
333.76	8.5
334.55	10.5
335.34	7.5
336.13	6.5
336.919	9.5
337.709	6.5
338.498	10.5
339.287	7.5
340.077	9.5
340.866	9.5
341.655	9.5
342.444	8.5
343.233	9.5
344.022	9.5
344.811	7.5
345.6	7.5
346.388	8.5
347.177	7.5
347.965	10.5
348.754	5.5
349.542	9.5
350.33	8.5
351.119	4.5
351.907	10.5
352.695	7.5
353.483	5.5
354.271	7.5
355.059	5.5
355.846	8.5
356.634	4.5
357.422	11.5
358.209	8.5
358.997	7.5
359.784	6.5
360.571	7.5
361.359	6.5
362.146	5.5
362.933	7.5
363.72	5.5
364.507	7.5
365.294	8.5
366.081	7.5
366.867	6.5
367.654	7.5
368.44	7.5
369.227	6.5
370.013	8.5
370.8	4.5
371.586	6.5
372.372	6.5
373.158	7.5
373.944	5.5
374.73	7.5
375.516	5.5
376.302	6.5
377.088	6.5
377.873	6.5
378.659	6.5
379.445	4.5
380.23	8.5
381.015	6.5
381.801	8.5
382.586	4.5
383.371	7.5
384.156	8.5
384.941	7.5
385.726	9.5
386.511	6.5
387.296	8.5
388.08	7.5
388.865	8.5
389.649	10.5
390.434	7.5
391.218	9.5
392.003	8.5
392.787	6.5
393.571	9.5
394.355	7.5
395.139	10.5
395.923	9.5
396.707	8.5
397.491	9.5
398.274	8.5
399.058	10.5
399.842	10.5
400.625	10.5
401.408	9.5
402.192	9.5
402.975	10.5
403.758	9.5
404.541	9.5
405.324	7.5
406.107	10.5
406.89	11.5
407.673	11.5
408.456	12.5
409.238	11.5
410.021	10.5
410.803	12.5
411.586	12.5
412.368	11.5
413.151	10.5
413.933	13.5
414.715	13.5
415.497	12.5
416.279	12.5
417.061	13.5
417.843	15.5
418.624	15.5
419.406	12.5
420.188	15.5
420.969	15.5
421.751	17.5
422.532	14.5
423.313	16.5
424.095	16.5
424.876	16.5
425.657	15.5
426.438	17.5
427.219	21.5
428	17.5
428.78	18.5
429.561	20.5
430.342	18.5
431.122	20.5
431.903	20.5
432.683	24.5
433.464	20.5
434.244	25.5
435.024	24.5
435.804	25.5
436.584	28.5
437.364	26.5
438.144	26.5
438.924	29.5
439.704	29.5
440.483	32.5
441.263	36.5
442.042	38.5
442.822	41.5
443.601	43.5
444.38	45.5
445.16	49.5
445.939	55.5
446.718	54.5
447.497	59.5
448.276	65.5
449.054	72.5
449.833	79.5
450.612	85.5
451.391	95.5
452.169	100.5
452.948	110.5
453.726	125.5
454.504	132.5
455.282	149.5
456.061	175.5
456.839	188.5
457.617	206.5
458.395	231.5
459.172	256.5
459.95	290.5
460.728	323.5
461.506	364.5
462.283	404.5
463.061	444.5
463.838	494.5
464.615	552.5
465.393	612.5
466.17	689.5
466.947	771.5
467.724	859.5
468.501	944.5
469.278	1053.5
470.055	1169.5
470.831	1302.5
471.608	1441.5
472.385	1588.5
473.161	1765.5
473.938	1937.5
474.714	2164.5
475.49	2362.5
476.266	2623.5
477.043	2876.5
477.819	3183.5
478.595	3493.5
479.371	3825.5
480.146	4217.5
480.922	4622.5
481.698	5066.5
482.473	5536.5
483.249	6119.5
484.024	6658.5
484.8	7329.5
485.575	8002.5
486.35	8713.5
487.126	9503.5
487.901	10357.5
488.676	11231.5
489.451	12262.5
490.225	13283.5
491	14445.5
491.775	15616.5
492.55	16870.5
493.324	18146.5
494.099	19493.5
494.873	20793.5
495.647	22229.5
496.422	23605.5
497.196	25097.5
497.97	26549.5
498.744	27925.5
499.518	29279.5
500.292	30514.5
501.066	31663.5
501.839	32747.5
502.613	33690.5
503.387	34331.5
504.16	34915.5
504.934	35190.5
505.707	35250.5
506.48	35167.5
507.253	34921.5
508.027	34549.5
508.8	33930.5
509.573	33291.5
510.346	32368.5
511.118	31465.5
511.891	30495.5
512.664	29420.5
513.437	28264.5
514.209	27153.5
514.982	26179.5
515.754	25071.5
516.526	23974.5
517.298	22994.5
518.071	21994.5
518.843	21090.5
519.615	20205.5
520.387	19400.5
521.159	18726.5
521.93	18004.5
522.702	17268.5
523.474	16586.5
524.245	15923.5
525.017	15166.5
525.788	14498.5
526.56	13787.5
527.331	13225.5
528.102	12579.5
528.873	11986.5
529.644	11401.5
530.415	10925.5
531.186	10389.5
531.957	9834.5
532.728	9328.5
533.498	8784.5
534.269	8305.5
535.039	7887.5
535.81	7421.5
536.58	7020.5
537.351	6572.5
538.121	6249.5
538.891	5952.5
539.661	5627.5
540.431	5319.5
541.201	5033.5
541.971	4811.5
542.741	4540.5
543.51	4318.5
544.28	4093.5
545.05	3896.5
545.819	3699.5
546.588	3537.5
547.358	3345.5
548.127	3173.5
548.896	3006.5
549.665	2870.5
550.434	2721.5
551.203	2572.5
551.972	2440.5
552.741	2300.5
553.51	2170.5
554.278	2065.5
555.047	1919.5
555.815	1839.5
556.584	1737.5
557.352	1628.5
558.121	1528.5
558.889	1463.5
559.657	1381.5
560.425	1290.5
561.193	1218.5
561.961	1160.5
562.729	1098.5
563.496	1038.5
564.264	985.5
565.032	938.5
565.799	872.5
566.567	829.5
567.334	780.5
568.101	738.5
568.869	696.5
569.636	661.5
570.403	620.5
571.17	583.5
571.937	555.5
572.704	521.5
573.471	498.5
574.237	462.5
575.004	436.5
575.771	415.5
576.537	392.5
577.303	368.5
578.07	347.5
578.836	318.5
579.602	304.5
580.368	289.5
581.134	275.5
581.9	266.5
582.666	249.5
583.432	239.5
584.198	227.5
584.964	213.5
585.729	201.5
586.495	187.5
587.26	182.5
588.025	172.5
588.791	160.5
589.556	153.5
590.321	148.5
591.086	144.5
591.851	128.5
592.616	129.5
593.381	122.5
594.146	111.5
594.911	107.5
595.675	102.5
596.44	106.5
597.204	94.5
597.969	92.5
598.733	85.5
599.497	84.5
600.261	80.5
601.025	76.5
601.79	72.5
602.553	66.5
603.317	65.5
604.081	63.5
604.845	63.5
605.609	59.5
606.372	56.5
607.136	56.5
607.899	50.5
608.662	47.5
609.426	50.5
610.189	44.5
610.952	43.5
611.715	44.5
612.478	39.5
613.241	35.5
614.004	35.5
614.767	37.5
615.529	37.5
616.292	36.5
617.055	32.5
617.817	30.5
618.579	32.5
619.342	26.5
620.104	30.5
620.866	28.5
621.628	28.5
622.39	25.5
623.152	24.5
623.914	24.5
624.676	24.5
625.438	24.5
626.199	23.5
626.961	21.5
627.722	19.5
628.484	23.5
629.245	21.5
630.006	18.5
630.768	19.5
631.529	17.5
632.29	18.5
633.051	18.5
633.812	15.5
634.573	17.5
635.333	14.5
636.094	14.5
636.855	16.5
637.615	14.5
638.376	15.5
639.136	15.5
639.896	12.5
640.657	14.5
641.417	12.5
642.177	12.5
642.937	13.5
643.697	10.5
644.457	13.5
645.216	11.5
645.976	11.5
646.736	12.5
647.495	14.5
648.255	8.5
649.014	8.5
649.774	12.5
650.533	8.5
651.292	10.5
652.051	11.5
652.81	8.5
653.569	7.5
654.328	8.5
655.087	7.5
655.846	9.5
656.604	9.5
657.363	10.5
658.121	8.5
658.88	7.5
659.638	7.5
660.397	10.5
661.155	8.5
661.913	7.5
662.671	9.5
663.429	9.5
664.187	8.5
664.945	7.5
665.703	8.5
666.46	8.5
667.218	5.5
667.976	9.5
668.733	5.5
669.49	8.5
670.248	7.5
671.005	9.5
671.762	7.5
672.519	4.5
673.276	7.5
674.033	4.5
674.79	6.5
675.547	7.5
676.304	2.5
677.06	7.5
677.817	4.5
678.574	7.5
679.33	3.5
680.086	5.5
680.843	5.5
681.599	5.5
682.355	7.5
683.111	6.5
683.867	5.5
684.623	6.5
685.379	4.5
686.135	4.5
686.89	3.5
687.646	5.5
688.402	5.5
689.157	6.5
689.912	6.5
690.668	5.5
691.423	7.5
692.178	4.5
692.933	5.5
693.688	6.5
694.443	5.5
695.198	3.5
695.953	5.5
696.708	7.5
697.462	5.5
698.217	3.5
698.972	3.5
699.726	4.5
700.48	5.5
701.235	3.5
701.989	5.5
702.743	5.5
703.497	2.5
704.251	5.5
705.005	4.5
705.759	7.5
706.513	6.5
707.266	6.5
708.02	3.5
708.774	5.5
709.527	6.5
710.28	4.5
711.034	5.5
711.787	3.5
712.54	4.5
713.293	5.5
714.046	2.5
714.799	6.5
715.552	5.5
716.305	6.5
717.058	3.5
717.81	6.5
718.563	3.5
719.315	6.5
720.068	6.5
720.82	5.5
721.573	3.5
722.325	5.5
723.077	3.5
723.829	4.5
724.581	2.5
725.333	4.5
726.085	6.5
726.836	8.5
727.588	5.5
728.34	5.5
729.091	6.5
729.843	4.5
730.594	4.5
731.346	6.5
732.097	3.5
732.848	7.5
733.599	4.5
734.35	8.5
735.101	8.5
735.852	6.5
736.603	6.5
737.354	5.5
738.104	8.5
738.855	8.5
739.605	8.5
740.356	6.5
741.106	3.5
741.856	7.5
742.607	6.5
743.357	7.5
744.107	4.5
744.857	7.5
745.607	6.5
746.357	5.5
747.106	9.5
747.856	7.5
748.606	9.5
749.355	6.5
750.105	4.5
750.854	9.5
751.603	4.5
752.353	7.5
753.102	6.5
753.851	6.5
754.6	7.5
755.349	8.5
756.098	8.5
756.847	8.5
757.595	8.5
758.344	10.5
759.093	7.5
759.841	11.5
760.589	7.5
761.338	10.5
762.086	10.5
762.834	8.5
763.582	9.5
764.331	10.5
765.079	9.5
765.826	8.5
766.574	9.5
767.322	7.5
768.07	8.5
768.817	9.5
769.565	6.5
770.312	10.5
771.06	9.5
771.807	12.5
772.554	11.5
773.302	11.5
774.049	10.5
774.796	8.5
775.543	10.5
776.29	12.5
777.036	9.5
777.783	9.5
778.53	8.5
779.276	12.5
780.023	12.5
780.769	11.5
781.516	11.5
782.262	10.5
783.008	11.5
783.754	11.5
784.5	13.5
785.246	11.5
785.992	10.5
786.738	12.5
787.484	10.5
788.23	12.5
788.975	11.5
789.721	13.5
790.466	10.5
791.212	10.5
791.957	10.5
792.702	10.5
793.447	13.5
794.193	10.5
794.938	10.5
795.683	11.5
796.427	10.5
797.172	10.5
797.917	10.5
798.662	11.5
799.406	10.5
800.151	10.5
800.895	8.5
801.64	8.5
802.384	12.5
803.128	9.5
803.872	7.5
804.616	8.5
805.36	7.5
806.104	7.5
806.848	10.5
807.592	6.5
808.336	8.5
809.079	8.5
809.823	7.5
810.566	7.5
811.31	11.5
812.053	6.5
812.796	5.5
813.539	7.5
814.283	4.5
815.026	5.5
815.769	7.5
816.511	8.5
817.254	7.5
817.997	4.5
818.74	4.5
819.482	3.5
820.225	6.5
820.967	5.5
821.71	4.5
822.452	5.5
823.194	2.5
823.936	5.5
824.678	6.5
825.42	4.5
826.162	5.5
826.904	4.5
827.646	4.5
828.388	4.5
829.129	8.5
829.871	3.5
830.612	3.5
831.354	6.5
832.095	4.5
832.836	4.5
833.577	5.5
834.319	4.5
835.06	4.5
835.801	5.5
836.542	4.5
837.282	4.5
838.023	5.5
838.764	4.5
839.504	5.5
840.245	5.5
840.985	3.5
841.726	4.5
842.466	4.5
843.206	4.5
843.946	4.5
844.687	4.5
845.427	2.5
846.166	2.5
846.906	4.5
847.646	2.5
848.386	4.5
849.125	6.5
849.865	4.5
850.605	4.5
851.344	3.5
852.083	3.5
852.823	3.5
853.562	-0.5
854.301	3.5
855.04	2.5
855.779	6.5
856.518	4.5
857.257	3.5
857.995	3.5
858.734	2.5
859.473	4.5
860.211	1.5
860.95	2.5
861.688	1.5
862.426	1.5
863.165	2.5
863.903	1.5
864.641	2.5
865.379	2.5
866.117	4.5
866.855	1.5
867.593	2.5
868.33	2.5
869.068	3.5
869.806	0.5
870.543	2.5
871.28	0.5
872.018	1.5
872.755	0.5
873.492	4.5
874.229	1.5
874.967	2.5
875.703	2.5
876.44	0.5
877.177	2.5
877.914	1.5
878.651	-0.5
879.387	1.5
880.124	4.5
880.86	1.5
881.597	0.5
882.333	1.5
883.069	0.5
883.806	1.5
884.542	1.5
885.278	0.5
886.014	2.5
886.749	1.5
887.485	2.5
888.221	2.5
888.957	-0.5
889.692	0.5
890.428	-0.5
891.163	0.5
891.899	0.5
892.634	2.5
893.369	2.5
894.104	1.5
894.839	1.5
895.574	0.5
896.309	0.5
897.044	2.5
897.779	0.5
898.514	1.5
899.248	0.5
899.983	1.5
900.717	1.5
901.452	2.5
902.186	0.5
902.92	-1.5
903.654	0.5
904.389	-1.5
905.123	-0.5
905.857	-0.5
906.59	1.5
907.324	2.5
908.058	-0.5
908.792	0.5
909.525	0.5
910.259	1.5
910.992	0.5
911.726	0.5
912.459	-0.5
913.192	-1.5
913.925	-0.5
914.658	2.5
915.391	2.5
916.124	0.5
916.857	-3.5
917.59	1.5
918.323	0.5
919.055	0.5
919.788	2.5
920.521	1.5
921.253	2.5
921.985	-1.5
922.718	2.5
923.45	0.5
924.182	2.5
924.914	2.5
925.646	0.5
926.378	-0.5
927.11	-1.5
927.841	-0.5
928.573	0.5
929.305	0.5
930.036	0.5
930.768	1.5
931.499	0.5
932.23	-1.5
932.962	2.5
933.693	1.5
934.424	-0.5
935.155	0.5
935.886	2.5
936.617	0.5
937.348	-1.5
938.078	0.5
938.809	-0.5
939.54	2.5
940.27	1.5
941.001	-0.5
941.731	1.5
942.461	2.5
943.191	1.5
943.922	1.5
944.652	-0.5
945.382	1.5
946.112	0.5
946.841	-0.5
947.571	0.5
948.301	0.5
949.031	0.5
949.76	1.5
950.49	0.5
951.219	-0.5
951.948	0.5
952.678	0.5
953.407	0.5
954.136	2.5
954.865	0.5
955.594	1.5
956.323	0.5
957.052	-2.5
957.78	-0.5
958.509	0.5
959.238	0.5
959.966	-0.5
960.695	0.5
961.423	-1.5
962.151	-3.5
962.88	2.5
963.608	1.5
964.336	1.5
965.064	1.5
965.792	-1.5
966.52	-0.5
967.247	-0.5
967.975	-0.5
968.703	-0.5
969.43	1.5
970.158	-1.5
970.885	-0.5
971.613	-0.5
972.34	0.5
973.067	2.5
973.794	1.5
974.521	-0.5
975.248	0.5
975.975	-2.5
976.702	0.5
977.429	-0.5
978.156	-1.5
978.882	0.5
979.609	0.5
980.335	-0.5
981.062	3.5
981.788	1.5
982.514	1.5
983.24	0.5
983.967	0.5
984.693	0.5
985.419	-0.5
986.144	2.5
986.87	-0.5
987.596	1.5
988.322	0.5
989.047	1.5
989.773	-1.5
990.498	1.5
991.224	2.5
991.949	0.5
992.674	2.5
993.399	-0.5
994.124	2.5
994.849	0.5
995.574	-0.5
996.299	2.5
997.024	-0.5
997.749	1.5
998.473	-0.5
999.198	0.5
999.922	0.5
1000.647	-0.5
1001.371	3.5
1002.095	-0.5
1002.82	-0.5
1003.544	-0.5
1004.268	2.5
1004.992	1.5
1005.716	0.5
1006.439	2.5
1007.163	2.5
1007.887	2.5
1008.611	2.5
1009.334	-0.5
1010.058	4.5
1010.781	1.5
1011.504	0.5
1012.228	1.5
1012.951	1.5
1013.674	-2.5
1014.397	-0.5
1015.12	-0.5
