节点500_425_QEPB04081__200__15-51-38-108.txt的数据

Date: Wed Nov 12 15:51:38 CST 2025
User: PC
Spectrometer: QEPB0408
触发模式: 0
积分时间 (秒): 1.000000E-2
Scans to average: 1
启用暗噪声校正: true
启用非线性校正: false
滑动平均宽度: 0
X轴模式: Wavelengths
Number of Pixels in Spectrum: 1044
>>>>>Begin Spectral Data<<<<<
220.843	4.5
221.644	4.5
222.444	3.5
223.244	4.5
224.045	3.5
224.845	3.5
225.645	4.5
226.445	3.5
227.245	4.5
228.045	2.5
228.845	4.5
229.645	4.5
230.444	6.5
231.244	5.5
232.043	5.5
232.843	5.5
233.642	5.5
234.442	6.5
235.241	6.5
236.04	7.5
236.839	8.5
237.638	6.5
238.437	7.5
239.236	7.5
240.035	6.5
240.833	6.5
241.632	4.5
242.43	5.5
243.229	6.5
244.027	8.5
244.826	7.5
245.624	6.5
246.422	9.5
247.22	7.5
248.018	8.5
248.816	12.5
249.614	8.5
250.412	11.5
251.21	9.5
252.007	8.5
252.805	8.5
253.602	14.5
254.4	10.5
255.197	10.5
255.994	13.5
256.791	11.5
257.589	10.5
258.386	15.5
259.183	14.5
259.979	17.5
260.776	15.5
261.573	17.5
262.37	14.5
263.166	16.5
263.963	16.5
264.759	16.5
265.556	16.5
266.352	19.5
267.148	17.5
267.944	20.5
268.74	20.5
269.536	20.5
270.332	21.5
271.128	21.5
271.924	19.5
272.719	22.5
273.515	23.5
274.311	22.5
275.106	22.5
275.901	25.5
276.697	21.5
277.492	26.5
278.287	25.5
279.082	25.5
279.877	25.5
280.672	25.5
281.467	25.5
282.262	26.5
283.056	22.5
283.851	27.5
284.646	24.5
285.44	23.5
286.234	26.5
287.029	24.5
287.823	25.5
288.617	24.5
289.411	22.5
290.205	25.5
290.999	23.5
291.793	25.5
292.587	23.5
293.381	20.5
294.174	24.5
294.968	20.5
295.761	19.5
296.555	21.5
297.348	22.5
298.141	19.5
298.935	21.5
299.728	20.5
300.521	21.5
301.314	21.5
302.107	16.5
302.899	16.5
303.692	14.5
304.485	16.5
305.277	18.5
306.07	18.5
306.862	15.5
307.655	16.5
308.447	15.5
309.239	14.5
310.031	14.5
310.823	14.5
311.615	17.5
312.407	12.5
313.199	12.5
313.991	16.5
314.783	11.5
315.574	10.5
316.366	13.5
317.157	10.5
317.949	10.5
318.74	12.5
319.531	12.5
320.322	8.5
321.113	11.5
321.904	10.5
322.695	11.5
323.486	10.5
324.277	9.5
325.068	11.5
325.858	9.5
326.649	10.5
327.439	6.5
328.23	7.5
329.02	9.5
329.81	12.5
330.6	10.5
331.391	8.5
332.181	8.5
332.971	9.5
333.76	9.5
334.55	9.5
335.34	9.5
336.13	9.5
336.919	10.5
337.709	9.5
338.498	7.5
339.287	8.5
340.077	7.5
340.866	7.5
341.655	9.5
342.444	10.5
343.233	8.5
344.022	9.5
344.811	7.5
345.6	10.5
346.388	9.5
347.177	9.5
347.965	8.5
348.754	6.5
349.542	7.5
350.33	8.5
351.119	8.5
351.907	8.5
352.695	8.5
353.483	8.5
354.271	7.5
355.059	9.5
355.846	7.5
356.634	7.5
357.422	8.5
358.209	6.5
358.997	7.5
359.784	8.5
360.571	9.5
361.359	7.5
362.146	5.5
362.933	6.5
363.72	7.5
364.507	8.5
365.294	6.5
366.081	5.5
366.867	5.5
367.654	6.5
368.44	8.5
369.227	7.5
370.013	9.5
370.8	7.5
371.586	7.5
372.372	8.5
373.158	5.5
373.944	8.5
374.73	8.5
375.516	6.5
376.302	8.5
377.088	8.5
377.873	6.5
378.659	8.5
379.445	7.5
380.23	3.5
381.015	6.5
381.801	5.5
382.586	6.5
383.371	7.5
384.156	8.5
384.941	8.5
385.726	8.5
386.511	7.5
387.296	9.5
388.08	8.5
388.865	6.5
389.649	9.5
390.434	7.5
391.218	6.5
392.003	6.5
392.787	10.5
393.571	7.5
394.355	9.5
395.139	9.5
395.923	11.5
396.707	8.5
397.491	8.5
398.274	7.5
399.058	10.5
399.842	8.5
400.625	10.5
401.408	7.5
402.192	11.5
402.975	8.5
403.758	14.5
404.541	9.5
405.324	7.5
406.107	11.5
406.89	9.5
407.673	11.5
408.456	10.5
409.238	11.5
410.021	12.5
410.803	10.5
411.586	11.5
412.368	10.5
413.151	9.5
413.933	13.5
414.715	12.5
415.497	15.5
416.279	10.5
417.061	13.5
417.843	15.5
418.624	12.5
419.406	14.5
420.188	13.5
420.969	13.5
421.751	17.5
422.532	14.5
423.313	15.5
424.095	16.5
424.876	18.5
425.657	16.5
426.438	19.5
427.219	16.5
428	18.5
428.78	16.5
429.561	19.5
430.342	20.5
431.122	20.5
431.903	21.5
432.683	22.5
433.464	20.5
434.244	23.5
435.024	24.5
435.804	22.5
436.584	26.5
437.364	26.5
438.144	28.5
438.924	28.5
439.704	32.5
440.483	33.5
441.263	34.5
442.042	35.5
442.822	40.5
443.601	45.5
444.38	45.5
445.16	47.5
445.939	53.5
446.718	55.5
447.497	63.5
448.276	65.5
449.054	71.5
449.833	79.5
450.612	81.5
451.391	92.5
452.169	101.5
452.948	112.5
453.726	118.5
454.504	134.5
455.282	143.5
456.061	164.5
456.839	179.5
457.617	196.5
458.395	224.5
459.172	249.5
459.95	283.5
460.728	322.5
461.506	346.5
462.283	386.5
463.061	439.5
463.838	493.5
464.615	550.5
465.393	603.5
466.17	676.5
466.947	765.5
467.724	832.5
468.501	936.5
469.278	1055.5
470.055	1144.5
470.831	1285.5
471.608	1434.5
472.385	1581.5
473.161	1760.5
473.938	1936.5
474.714	2147.5
475.49	2364.5
476.266	2638.5
477.043	2899.5
477.819	3202.5
478.595	3506.5
479.371	3886.5
480.146	4252.5
480.922	4704.5
481.698	5175.5
482.473	5672.5
483.249	6241.5
484.024	6817.5
484.8	7533.5
485.575	8168.5
486.35	8935.5
487.126	9781.5
487.901	10666.5
488.676	11623.5
489.451	12642.5
490.225	13820.5
491	14952.5
491.775	16251.5
492.55	17537.5
493.324	18930.5
494.099	20260.5
494.873	21664.5
495.647	23096.5
496.422	24596.5
497.196	26092.5
497.97	27613.5
498.744	29132.5
499.518	30391.5
500.292	31698.5
501.066	32666.5
501.839	33853.5
502.613	34804.5
503.387	35391.5
504.16	35871.5
504.934	36184.5
505.707	36118.5
506.48	35909.5
507.253	35590.5
508.027	35114.5
508.8	34493.5
509.573	33657.5
510.346	32776.5
511.118	31724.5
511.891	30758.5
512.664	29623.5
513.437	28360.5
514.209	27199.5
514.982	26177.5
515.754	25059.5
516.526	23988.5
517.298	22900.5
518.071	21913.5
518.843	21060.5
519.615	20189.5
520.387	19321.5
521.159	18676.5
521.93	17941.5
522.702	17227.5
523.474	16544.5
524.245	15916.5
525.017	15187.5
525.788	14381.5
526.56	13761.5
527.331	13163.5
528.102	12506.5
528.873	11939.5
529.644	11324.5
530.415	10777.5
531.186	10233.5
531.957	9760.5
532.728	9213.5
533.498	8690.5
534.269	8221.5
535.039	7782.5
535.81	7335.5
536.58	6928.5
537.351	6536.5
538.121	6186.5
538.891	5836.5
539.661	5548.5
540.431	5256.5
541.201	4968.5
541.971	4695.5
542.741	4457.5
543.51	4239.5
544.28	4035.5
545.05	3812.5
545.819	3685.5
546.588	3478.5
547.358	3301.5
548.127	3123.5
548.896	2944.5
549.665	2813.5
550.434	2664.5
551.203	2512.5
551.972	2386.5
552.741	2266.5
553.51	2130.5
554.278	2009.5
555.047	1885.5
555.815	1790.5
556.584	1684.5
557.352	1604.5
558.121	1500.5
558.889	1420.5
559.657	1349.5
560.425	1279.5
561.193	1197.5
561.961	1136.5
562.729	1080.5
563.496	1020.5
564.264	965.5
565.032	907.5
565.799	866.5
566.567	809.5
567.334	765.5
568.101	722.5
568.869	684.5
569.636	649.5
570.403	608.5
571.17	575.5
571.937	543.5
572.704	516.5
573.471	486.5
574.237	460.5
575.004	427.5
575.771	398.5
576.537	380.5
577.303	359.5
578.07	340.5
578.836	322.5
579.602	308.5
580.368	283.5
581.134	274.5
581.9	253.5
582.666	242.5
583.432	226.5
584.198	224.5
584.964	206.5
585.729	205.5
586.495	186.5
587.26	173.5
588.025	171.5
588.791	162.5
589.556	150.5
590.321	143.5
591.086	137.5
591.851	129.5
592.616	122.5
593.381	115.5
594.146	111.5
594.911	106.5
595.675	102.5
596.44	93.5
597.204	94.5
597.969	88.5
598.733	87.5
599.497	82.5
600.261	82.5
601.025	74.5
601.79	72.5
602.553	69.5
603.317	65.5
604.081	61.5
604.845	61.5
605.609	53.5
606.372	55.5
607.136	54.5
607.899	48.5
608.662	49.5
609.426	48.5
610.189	46.5
610.952	40.5
611.715	44.5
612.478	39.5
613.241	37.5
614.004	40.5
614.767	33.5
615.529	38.5
616.292	34.5
617.055	30.5
617.817	32.5
618.579	32.5
619.342	29.5
620.104	30.5
620.866	28.5
621.628	24.5
622.39	25.5
623.152	24.5
623.914	25.5
624.676	22.5
625.438	22.5
626.199	21.5
626.961	22.5
627.722	18.5
628.484	22.5
629.245	20.5
630.006	18.5
630.768	17.5
631.529	16.5
632.29	18.5
633.051	18.5
633.812	17.5
634.573	14.5
635.333	13.5
636.094	15.5
636.855	12.5
637.615	12.5
638.376	13.5
639.136	11.5
639.896	14.5
640.657	11.5
641.417	12.5
642.177	13.5
642.937	11.5
643.697	14.5
644.457	10.5
645.216	11.5
645.976	10.5
646.736	11.5
647.495	10.5
648.255	11.5
649.014	9.5
649.774	9.5
650.533	11.5
651.292	7.5
652.051	7.5
652.81	10.5
653.569	10.5
654.328	7.5
655.087	10.5
655.846	10.5
656.604	7.5
657.363	5.5
658.121	8.5
658.88	6.5
659.638	10.5
660.397	7.5
661.155	8.5
661.913	7.5
662.671	8.5
663.429	9.5
664.187	7.5
664.945	9.5
665.703	4.5
666.46	5.5
667.218	9.5
667.976	8.5
668.733	6.5
669.49	6.5
670.248	6.5
671.005	5.5
671.762	9.5
672.519	6.5
673.276	4.5
674.033	5.5
674.79	5.5
675.547	5.5
676.304	4.5
677.06	6.5
677.817	7.5
678.574	4.5
679.33	9.5
680.086	7.5
680.843	5.5
681.599	4.5
682.355	4.5
683.111	4.5
683.867	7.5
684.623	6.5
685.379	5.5
686.135	4.5
686.89	6.5
687.646	6.5
688.402	6.5
689.157	4.5
689.912	6.5
690.668	6.5
691.423	5.5
692.178	6.5
692.933	3.5
693.688	5.5
694.443	7.5
695.198	5.5
695.953	5.5
696.708	4.5
697.462	5.5
698.217	6.5
698.972	7.5
699.726	3.5
700.48	5.5
701.235	7.5
701.989	6.5
702.743	5.5
703.497	5.5
704.251	4.5
705.005	5.5
705.759	5.5
706.513	3.5
707.266	5.5
708.02	2.5
708.774	4.5
709.527	4.5
710.28	5.5
711.034	5.5
711.787	7.5
712.54	6.5
713.293	4.5
714.046	5.5
714.799	6.5
715.552	6.5
716.305	3.5
717.058	5.5
717.81	4.5
718.563	5.5
719.315	4.5
720.068	5.5
720.82	7.5
721.573	6.5
722.325	4.5
723.077	7.5
723.829	5.5
724.581	7.5
725.333	6.5
726.085	2.5
726.836	4.5
727.588	4.5
728.34	9.5
729.091	5.5
729.843	8.5
730.594	6.5
731.346	5.5
732.097	8.5
732.848	6.5
733.599	5.5
734.35	7.5
735.101	8.5
735.852	4.5
736.603	6.5
737.354	5.5
738.104	6.5
738.855	8.5
739.605	7.5
740.356	3.5
741.106	6.5
741.856	7.5
742.607	9.5
743.357	7.5
744.107	8.5
744.857	5.5
745.607	8.5
746.357	7.5
747.106	7.5
747.856	6.5
748.606	6.5
749.355	5.5
750.105	8.5
750.854	7.5
751.603	6.5
752.353	9.5
753.102	9.5
753.851	7.5
754.6	7.5
755.349	9.5
756.098	8.5
756.847	9.5
757.595	8.5
758.344	8.5
759.093	9.5
759.841	9.5
760.589	10.5
761.338	7.5
762.086	8.5
762.834	8.5
763.582	9.5
764.331	8.5
765.079	11.5
765.826	7.5
766.574	10.5
767.322	8.5
768.07	11.5
768.817	10.5
769.565	12.5
770.312	10.5
771.06	11.5
771.807	9.5
772.554	9.5
773.302	11.5
774.049	10.5
774.796	13.5
775.543	14.5
776.29	12.5
777.036	11.5
777.783	12.5
778.53	9.5
779.276	10.5
780.023	10.5
780.769	12.5
781.516	10.5
782.262	14.5
783.008	11.5
783.754	7.5
784.5	11.5
785.246	10.5
785.992	14.5
786.738	9.5
787.484	12.5
788.23	12.5
788.975	13.5
789.721	10.5
790.466	10.5
791.212	9.5
791.957	9.5
792.702	10.5
793.447	10.5
794.193	10.5
794.938	9.5
795.683	7.5
796.427	9.5
797.172	12.5
797.917	10.5
798.662	9.5
799.406	10.5
800.151	8.5
800.895	10.5
801.64	10.5
802.384	9.5
803.128	9.5
803.872	10.5
804.616	9.5
805.36	9.5
806.104	6.5
806.848	10.5
807.592	6.5
808.336	6.5
809.079	8.5
809.823	6.5
810.566	8.5
811.31	8.5
812.053	7.5
812.796	8.5
813.539	7.5
814.283	5.5
815.026	7.5
815.769	8.5
816.511	6.5
817.254	6.5
817.997	6.5
818.74	4.5
819.482	6.5
820.225	4.5
820.967	5.5
821.71	6.5
822.452	5.5
823.194	4.5
823.936	4.5
824.678	4.5
825.42	4.5
826.162	4.5
826.904	8.5
827.646	2.5
828.388	6.5
829.129	4.5
829.871	4.5
830.612	4.5
831.354	5.5
832.095	4.5
832.836	4.5
833.577	6.5
834.319	5.5
835.06	3.5
835.801	5.5
836.542	3.5
837.282	4.5
838.023	4.5
838.764	6.5
839.504	6.5
840.245	0.5
840.985	6.5
841.726	2.5
842.466	5.5
843.206	1.5
843.946	3.5
844.687	4.5
845.427	5.5
846.166	4.5
846.906	3.5
847.646	5.5
848.386	2.5
849.125	4.5
849.865	3.5
850.605	2.5
851.344	3.5
852.083	2.5
852.823	4.5
853.562	5.5
854.301	2.5
855.04	5.5
855.779	2.5
856.518	1.5
857.257	2.5
857.995	0.5
858.734	2.5
859.473	3.5
860.211	5.5
860.95	2.5
861.688	0.5
862.426	1.5
863.165	3.5
863.903	2.5
864.641	1.5
865.379	0.5
866.117	2.5
866.855	4.5
867.593	2.5
868.33	3.5
869.068	3.5
869.806	2.5
870.543	2.5
871.28	2.5
872.018	1.5
872.755	2.5
873.492	2.5
874.229	2.5
874.967	2.5
875.703	3.5
876.44	2.5
877.177	1.5
877.914	4.5
878.651	2.5
879.387	3.5
880.124	0.5
880.86	2.5
881.597	3.5
882.333	0.5
883.069	2.5
883.806	1.5
884.542	2.5
885.278	2.5
886.014	0.5
886.749	3.5
887.485	0.5
888.221	0.5
888.957	2.5
889.692	2.5
890.428	0.5
891.163	1.5
891.899	1.5
892.634	-0.5
893.369	-0.5
894.104	0.5
894.839	1.5
895.574	1.5
896.309	1.5
897.044	1.5
897.779	0.5
898.514	0.5
899.248	3.5
899.983	0.5
900.717	3.5
901.452	1.5
902.186	1.5
902.92	1.5
903.654	-1.5
904.389	1.5
905.123	1.5
905.857	0.5
906.59	3.5
907.324	0.5
908.058	1.5
908.792	0.5
909.525	1.5
910.259	0.5
910.992	0.5
911.726	2.5
912.459	-0.5
913.192	-0.5
913.925	-1.5
914.658	0.5
915.391	1.5
916.124	0.5
916.857	3.5
917.59	0.5
918.323	2.5
919.055	1.5
919.788	-1.5
920.521	0.5
921.253	-1.5
921.985	2.5
922.718	-1.5
923.45	2.5
924.182	-0.5
924.914	-0.5
925.646	0.5
926.378	0.5
927.11	-0.5
927.841	1.5
928.573	1.5
929.305	0.5
930.036	-1.5
930.768	2.5
931.499	0.5
932.23	0.5
932.962	-1.5
933.693	0.5
934.424	0.5
935.155	0.5
935.886	1.5
936.617	1.5
937.348	0.5
938.078	0.5
938.809	1.5
939.54	0.5
940.27	-1.5
941.001	0.5
941.731	1.5
942.461	-0.5
943.191	-0.5
943.922	-0.5
944.652	-0.5
945.382	2.5
946.112	-0.5
946.841	-0.5
947.571	-0.5
948.301	0.5
949.031	-0.5
949.76	1.5
950.49	-0.5
951.219	-2.5
951.948	-0.5
952.678	-0.5
953.407	0.5
954.136	-2.5
954.865	0.5
955.594	0.5
956.323	-0.5
957.052	-0.5
957.78	0.5
958.509	0.5
959.238	0.5
959.966	2.5
960.695	-0.5
961.423	-0.5
962.151	-2.5
962.88	1.5
963.608	2.5
964.336	-0.5
965.064	2.5
965.792	1.5
966.52	0.5
967.247	0.5
967.975	2.5
968.703	-0.5
969.43	0.5
970.158	-2.5
970.885	0.5
971.613	-0.5
972.34	-2.5
973.067	2.5
973.794	0.5
974.521	1.5
975.248	-3.5
975.975	2.5
976.702	2.5
977.429	-1.5
978.156	0.5
978.882	1.5
979.609	1.5
980.335	0.5
981.062	1.5
981.788	-0.5
982.514	-0.5
983.24	1.5
983.967	0.5
984.693	0.5
985.419	-0.5
986.144	-0.5
986.87	-1.5
987.596	2.5
988.322	0.5
989.047	3.5
989.773	1.5
990.498	1.5
991.224	1.5
991.949	2.5
992.674	-1.5
993.399	-1.5
994.124	0.5
994.849	-1.5
995.574	0.5
996.299	0.5
997.024	0.5
997.749	-0.5
998.473	0.5
999.198	1.5
999.922	2.5
1000.647	0.5
1001.371	4.5
1002.095	-0.5
1002.82	0.5
1003.544	-0.5
1004.268	3.5
1004.992	1.5
1005.716	2.5
1006.439	3.5
1007.163	1.5
1007.887	4.5
1008.611	0.5
1009.334	3.5
1010.058	1.5
1010.781	1.5
1011.504	4.5
1012.228	0.5
1012.951	-1.5
1013.674	-1.5
1014.397	0.5
1015.12	-1.5
