节点500_425_QEPB04081__68__15-49-26-389.txt的数据

Date: Wed Nov 12 15:49:26 CST 2025
User: PC
Spectrometer: QEPB0408
触发模式: 0
积分时间 (秒): 1.000000E-2
Scans to average: 1
启用暗噪声校正: true
启用非线性校正: false
滑动平均宽度: 0
X轴模式: Wavelengths
Number of Pixels in Spectrum: 1044
>>>>>Begin Spectral Data<<<<<
220.843	5.38
221.644	2.38
222.444	3.38
223.244	4.38
224.045	2.38
224.845	6.38
225.645	3.38
226.445	4.38
227.245	5.38
228.045	4.38
228.845	5.38
229.645	5.38
230.444	5.38
231.244	4.38
232.043	5.38
232.843	5.38
233.642	5.38
234.442	7.38
235.241	4.38
236.04	5.38
236.839	4.38
237.638	6.38
238.437	7.38
239.236	7.38
240.035	7.38
240.833	5.38
241.632	7.38
242.43	6.38
243.229	8.38
244.027	5.38
244.826	10.38
245.624	8.38
246.422	9.38
247.22	10.38
248.018	9.38
248.816	8.38
249.614	11.38
250.412	10.38
251.21	13.38
252.007	11.38
252.805	11.38
253.602	14.38
254.4	11.38
255.197	12.38
255.994	11.38
256.791	12.38
257.589	12.38
258.386	12.38
259.183	15.38
259.979	15.38
260.776	16.38
261.573	16.38
262.37	16.38
263.166	17.38
263.963	18.38
264.759	17.38
265.556	17.38
266.352	20.38
267.148	20.38
267.944	20.38
268.74	21.38
269.536	21.38
270.332	22.38
271.128	21.38
271.924	24.38
272.719	23.38
273.515	22.38
274.311	24.38
275.106	22.38
275.901	24.38
276.697	27.38
277.492	27.38
278.287	27.38
279.082	25.38
279.877	29.38
280.672	24.38
281.467	29.38
282.262	26.38
283.056	24.38
283.851	27.38
284.646	28.38
285.44	27.38
286.234	25.38
287.029	23.38
287.823	26.38
288.617	24.38
289.411	24.38
290.205	24.38
290.999	23.38
291.793	25.38
292.587	22.38
293.381	22.38
294.174	18.38
294.968	24.38
295.761	20.38
296.555	20.38
297.348	22.38
298.141	20.38
298.935	21.38
299.728	19.38
300.521	21.38
301.314	18.38
302.107	17.38
302.899	18.38
303.692	15.38
304.485	19.38
305.277	17.38
306.07	17.38
306.862	16.38
307.655	17.38
308.447	15.38
309.239	15.38
310.031	17.38
310.823	16.38
311.615	13.38
312.407	13.38
313.199	12.38
313.991	12.38
314.783	12.38
315.574	14.38
316.366	12.38
317.157	11.38
317.949	10.38
318.74	12.38
319.531	12.38
320.322	10.38
321.113	10.38
321.904	9.38
322.695	8.38
323.486	11.38
324.277	8.38
325.068	10.38
325.858	10.38
326.649	7.38
327.439	11.38
328.23	9.38
329.02	8.38
329.81	9.38
330.6	9.38
331.391	9.38
332.181	4.38
332.971	10.38
333.76	8.38
334.55	8.38
335.34	7.38
336.13	7.38
336.919	11.38
337.709	8.38
338.498	9.38
339.287	8.38
340.077	9.38
340.866	9.38
341.655	9.38
342.444	8.38
343.233	6.38
344.022	8.38
344.811	10.38
345.6	9.38
346.388	8.38
347.177	7.38
347.965	9.38
348.754	7.38
349.542	9.38
350.33	9.38
351.119	6.38
351.907	8.38
352.695	5.38
353.483	9.38
354.271	7.38
355.059	7.38
355.846	8.38
356.634	6.38
357.422	9.38
358.209	9.38
358.997	8.38
359.784	8.38
360.571	5.38
361.359	6.38
362.146	7.38
362.933	8.38
363.72	6.38
364.507	9.38
365.294	9.38
366.081	7.38
366.867	7.38
367.654	6.38
368.44	5.38
369.227	7.38
370.013	7.38
370.8	5.38
371.586	6.38
372.372	8.38
373.158	8.38
373.944	7.38
374.73	8.38
375.516	7.38
376.302	6.38
377.088	4.38
377.873	6.38
378.659	8.38
379.445	7.38
380.23	6.38
381.015	6.38
381.801	10.38
382.586	8.38
383.371	8.38
384.156	8.38
384.941	9.38
385.726	7.38
386.511	9.38
387.296	8.38
388.08	10.38
388.865	9.38
389.649	9.38
390.434	8.38
391.218	9.38
392.003	7.38
392.787	8.38
393.571	9.38
394.355	9.38
395.139	10.38
395.923	5.38
396.707	11.38
397.491	8.38
398.274	9.38
399.058	11.38
399.842	6.38
400.625	10.38
401.408	8.38
402.192	10.38
402.975	10.38
403.758	8.38
404.541	8.38
405.324	10.38
406.107	12.38
406.89	11.38
407.673	11.38
408.456	11.38
409.238	11.38
410.021	12.38
410.803	10.38
411.586	12.38
412.368	12.38
413.151	12.38
413.933	14.38
414.715	12.38
415.497	13.38
416.279	11.38
417.061	14.38
417.843	13.38
418.624	14.38
419.406	14.38
420.188	12.38
420.969	14.38
421.751	12.38
422.532	14.38
423.313	15.38
424.095	15.38
424.876	15.38
425.657	17.38
426.438	17.38
427.219	17.38
428	14.38
428.78	19.38
429.561	17.38
430.342	20.38
431.122	19.38
431.903	20.38
432.683	21.38
433.464	22.38
434.244	25.38
435.024	26.38
435.804	25.38
436.584	28.38
437.364	29.38
438.144	32.38
438.924	28.38
439.704	32.38
440.483	31.38
441.263	35.38
442.042	41.38
442.822	39.38
443.601	40.38
444.38	46.38
445.16	48.38
445.939	49.38
446.718	53.38
447.497	59.38
448.276	70.38
449.054	65.38
449.833	69.38
450.612	83.38
451.391	86.38
452.169	97.38
452.948	107.38
453.726	116.38
454.504	130.38
455.282	139.38
456.061	164.38
456.839	172.38
457.617	192.38
458.395	216.38
459.172	232.38
459.95	265.38
460.728	299.38
461.506	320.38
462.283	377.38
463.061	425.38
463.838	467.38
464.615	519.38
465.393	590.38
466.17	648.38
466.947	727.38
467.724	816.38
468.501	921.38
469.278	995.38
470.055	1133.38
470.831	1240.38
471.608	1388.38
472.385	1545.38
473.161	1731.38
473.938	1932.38
474.714	2133.38
475.49	2354.38
476.266	2598.38
477.043	2896.38
477.819	3212.38
478.595	3557.38
479.371	3908.38
480.146	4335.38
480.922	4771.38
481.698	5227.38
482.473	5754.38
483.249	6378.38
484.024	7048.38
484.8	7716.38
485.575	8443.38
486.35	9312.38
487.126	10156.38
487.901	11140.38
488.676	12246.38
489.451	13343.38
490.225	14478.38
491	15747.38
491.775	17189.38
492.55	18528.38
493.324	20048.38
494.099	21538.38
494.873	22940.38
495.647	24494.38
496.422	26087.38
497.196	27758.38
497.97	29347.38
498.744	30831.38
499.518	32255.38
500.292	33485.38
501.066	34565.38
501.839	35594.38
502.613	36344.38
503.387	36999.38
504.16	37380.38
504.934	37416.38
505.707	37186.38
506.48	36936.38
507.253	36316.38
508.027	35769.38
508.8	35026.38
509.573	34060.38
510.346	32936.38
511.118	31890.38
511.891	30717.38
512.664	29458.38
513.437	28165.38
514.209	26970.38
514.982	25856.38
515.754	24779.38
516.526	23630.38
517.298	22618.38
518.071	21630.38
518.843	20742.38
519.615	19902.38
520.387	19053.38
521.159	18407.38
521.93	17708.38
522.702	16978.38
523.474	16319.38
524.245	15701.38
525.017	14897.38
525.788	14237.38
526.56	13545.38
527.331	12899.38
528.102	12301.38
528.873	11675.38
529.644	11083.38
530.415	10560.38
531.186	9980.38
531.957	9457.38
532.728	8944.38
533.498	8463.38
534.269	7952.38
535.039	7516.38
535.81	7093.38
536.58	6663.38
537.351	6316.38
538.121	5966.38
538.891	5691.38
539.661	5381.38
540.431	5062.38
541.201	4796.38
541.971	4570.38
542.741	4347.38
543.51	4084.38
544.28	3916.38
545.05	3711.38
545.819	3540.38
546.588	3356.38
547.358	3170.38
548.127	3037.38
548.896	2862.38
549.665	2688.38
550.434	2558.38
551.203	2438.38
551.972	2297.38
552.741	2179.38
553.51	2074.38
554.278	1950.38
555.047	1820.38
555.815	1707.38
556.584	1628.38
557.352	1528.38
558.121	1454.38
558.889	1358.38
559.657	1288.38
560.425	1207.38
561.193	1145.38
561.961	1087.38
562.729	1026.38
563.496	983.38
564.264	930.38
565.032	865.38
565.799	831.38
566.567	781.38
567.334	731.38
568.101	696.38
568.869	651.38
569.636	621.38
570.403	579.38
571.17	553.38
571.937	520.38
572.704	500.38
573.471	456.38
574.237	434.38
575.004	413.38
575.771	381.38
576.537	368.38
577.303	339.38
578.07	325.38
578.836	307.38
579.602	282.38
580.368	278.38
581.134	260.38
581.9	246.38
582.666	233.38
583.432	219.38
584.198	207.38
584.964	199.38
585.729	188.38
586.495	181.38
587.26	164.38
588.025	158.38
588.791	153.38
589.556	146.38
590.321	136.38
591.086	130.38
591.851	124.38
592.616	113.38
593.381	115.38
594.146	108.38
594.911	106.38
595.675	100.38
596.44	95.38
597.204	88.38
597.969	84.38
598.733	80.38
599.497	77.38
600.261	74.38
601.025	73.38
601.79	66.38
602.553	62.38
603.317	63.38
604.081	62.38
604.845	56.38
605.609	55.38
606.372	56.38
607.136	47.38
607.899	46.38
608.662	48.38
609.426	47.38
610.189	41.38
610.952	38.38
611.715	44.38
612.478	38.38
613.241	35.38
614.004	36.38
614.767	36.38
615.529	34.38
616.292	32.38
617.055	32.38
617.817	30.38
618.579	27.38
619.342	29.38
620.104	27.38
620.866	26.38
621.628	24.38
622.39	26.38
623.152	26.38
623.914	23.38
624.676	23.38
625.438	20.38
626.199	21.38
626.961	18.38
627.722	20.38
628.484	19.38
629.245	20.38
630.006	18.38
630.768	15.38
631.529	16.38
632.29	18.38
633.051	17.38
633.812	15.38
634.573	15.38
635.333	16.38
636.094	15.38
636.855	14.38
637.615	14.38
638.376	14.38
639.136	12.38
639.896	12.38
640.657	14.38
641.417	13.38
642.177	11.38
642.937	12.38
643.697	13.38
644.457	10.38
645.216	12.38
645.976	10.38
646.736	11.38
647.495	10.38
648.255	11.38
649.014	9.38
649.774	9.38
650.533	9.38
651.292	9.38
652.051	10.38
652.81	7.38
653.569	11.38
654.328	10.38
655.087	8.38
655.846	8.38
656.604	8.38
657.363	10.38
658.121	9.38
658.88	5.38
659.638	6.38
660.397	8.38
661.155	7.38
661.913	9.38
662.671	8.38
663.429	7.38
664.187	7.38
664.945	8.38
665.703	6.38
666.46	6.38
667.218	4.38
667.976	6.38
668.733	6.38
669.49	4.38
670.248	5.38
671.005	8.38
671.762	7.38
672.519	6.38
673.276	7.38
674.033	5.38
674.79	5.38
675.547	4.38
676.304	4.38
677.06	7.38
677.817	6.38
678.574	6.38
679.33	3.38
680.086	3.38
680.843	6.38
681.599	5.38
682.355	6.38
683.111	5.38
683.867	5.38
684.623	7.38
685.379	5.38
686.135	6.38
686.89	5.38
687.646	5.38
688.402	6.38
689.157	4.38
689.912	4.38
690.668	4.38
691.423	7.38
692.178	8.38
692.933	5.38
693.688	5.38
694.443	5.38
695.198	7.38
695.953	5.38
696.708	4.38
697.462	5.38
698.217	3.38
698.972	7.38
699.726	4.38
700.48	5.38
701.235	6.38
701.989	4.38
702.743	6.38
703.497	5.38
704.251	5.38
705.005	4.38
705.759	3.38
706.513	5.38
707.266	4.38
708.02	5.38
708.774	2.38
709.527	5.38
710.28	6.38
711.034	4.38
711.787	3.38
712.54	4.38
713.293	5.38
714.046	5.38
714.799	6.38
715.552	4.38
716.305	4.38
717.058	6.38
717.81	5.38
718.563	5.38
719.315	4.38
720.068	4.38
720.82	6.38
721.573	5.38
722.325	3.38
723.077	7.38
723.829	5.38
724.581	5.38
725.333	6.38
726.085	4.38
726.836	5.38
727.588	7.38
728.34	6.38
729.091	7.38
729.843	3.38
730.594	4.38
731.346	7.38
732.097	4.38
732.848	7.38
733.599	6.38
734.35	6.38
735.101	5.38
735.852	5.38
736.603	7.38
737.354	8.38
738.104	4.38
738.855	4.38
739.605	5.38
740.356	7.38
741.106	6.38
741.856	7.38
742.607	6.38
743.357	6.38
744.107	5.38
744.857	9.38
745.607	8.38
746.357	5.38
747.106	6.38
747.856	7.38
748.606	7.38
749.355	8.38
750.105	7.38
750.854	8.38
751.603	8.38
752.353	8.38
753.102	8.38
753.851	6.38
754.6	9.38
755.349	6.38
756.098	11.38
756.847	9.38
757.595	7.38
758.344	8.38
759.093	7.38
759.841	8.38
760.589	10.38
761.338	10.38
762.086	9.38
762.834	9.38
763.582	10.38
764.331	9.38
765.079	10.38
765.826	9.38
766.574	8.38
767.322	9.38
768.07	12.38
768.817	10.38
769.565	12.38
770.312	12.38
771.06	11.38
771.807	13.38
772.554	10.38
773.302	9.38
774.049	12.38
774.796	11.38
775.543	9.38
776.29	11.38
777.036	13.38
777.783	13.38
778.53	14.38
779.276	13.38
780.023	11.38
780.769	12.38
781.516	13.38
782.262	13.38
783.008	12.38
783.754	11.38
784.5	11.38
785.246	11.38
785.992	11.38
786.738	11.38
787.484	12.38
788.23	12.38
788.975	12.38
789.721	13.38
790.466	12.38
791.212	10.38
791.957	12.38
792.702	10.38
793.447	11.38
794.193	12.38
794.938	10.38
795.683	8.38
796.427	12.38
797.172	11.38
797.917	8.38
798.662	11.38
799.406	10.38
800.151	10.38
800.895	10.38
801.64	8.38
802.384	8.38
803.128	9.38
803.872	8.38
804.616	6.38
805.36	9.38
806.104	9.38
806.848	7.38
807.592	5.38
808.336	6.38
809.079	8.38
809.823	10.38
810.566	6.38
811.31	6.38
812.053	6.38
812.796	4.38
813.539	6.38
814.283	6.38
815.026	7.38
815.769	5.38
816.511	5.38
817.254	4.38
817.997	6.38
818.74	7.38
819.482	5.38
820.225	5.38
820.967	7.38
821.71	6.38
822.452	7.38
823.194	5.38
823.936	4.38
824.678	3.38
825.42	5.38
826.162	3.38
826.904	5.38
827.646	8.38
828.388	4.38
829.129	4.38
829.871	4.38
830.612	4.38
831.354	4.38
832.095	4.38
832.836	7.38
833.577	2.38
834.319	5.38
835.06	4.38
835.801	7.38
836.542	6.38
837.282	3.38
838.023	4.38
838.764	5.38
839.504	7.38
840.245	5.38
840.985	2.38
841.726	3.38
842.466	3.38
843.206	5.38
843.946	2.38
844.687	2.38
845.427	3.38
846.166	3.38
846.906	4.38
847.646	3.38
848.386	3.38
849.125	4.38
849.865	1.38
850.605	2.38
851.344	4.38
852.083	2.38
852.823	1.38
853.562	2.38
854.301	5.38
855.04	3.38
855.779	3.38
856.518	2.38
857.257	2.38
857.995	2.38
858.734	2.38
859.473	4.38
860.211	1.38
860.95	3.38
861.688	3.38
862.426	1.38
863.165	3.38
863.903	3.38
864.641	2.38
865.379	1.38
866.117	1.38
866.855	2.38
867.593	0.38
868.33	3.38
869.068	0.38
869.806	0.38
870.543	1.38
871.28	2.38
872.018	0.38
872.755	3.38
873.492	1.38
874.229	1.38
874.967	2.38
875.703	2.38
876.44	1.38
877.177	1.38
877.914	1.38
878.651	2.38
879.387	-0.62
880.124	1.38
880.86	1.38
881.597	1.38
882.333	1.38
883.069	0.38
883.806	0.38
884.542	2.38
885.278	1.38
886.014	1.38
886.749	-0.62
887.485	0.38
888.221	1.38
888.957	0.38
889.692	0.38
890.428	1.38
891.163	1.38
891.899	0.38
892.634	1.38
893.369	-0.62
894.104	1.38
894.839	2.38
895.574	1.38
896.309	0.38
897.044	-0.62
897.779	2.38
898.514	3.38
899.248	0.38
899.983	0.38
900.717	-0.62
901.452	2.38
902.186	2.38
902.92	1.38
903.654	-0.62
904.389	2.38
905.123	0.38
905.857	-1.62
906.59	2.38
907.324	2.38
908.058	1.38
908.792	2.38
909.525	-0.62
910.259	0.38
910.992	1.38
911.726	0.38
912.459	0.38
913.192	-0.62
913.925	3.38
914.658	1.38
915.391	0.38
916.124	1.38
916.857	2.38
917.59	-1.62
918.323	2.38
919.055	0.38
919.788	-1.62
920.521	2.38
921.253	0.38
921.985	-0.62
922.718	-0.62
923.45	-1.62
924.182	-0.62
924.914	0.38
925.646	1.38
926.378	0.38
927.11	0.38
927.841	4.38
928.573	-0.62
929.305	0.38
930.036	0.38
930.768	2.38
931.499	0.38
932.23	0.38
932.962	-0.62
933.693	-0.62
934.424	1.38
935.155	0.38
935.886	-0.62
936.617	0.38
937.348	-0.62
938.078	0.38
938.809	-2.62
939.54	-0.62
940.27	-1.62
941.001	-0.62
941.731	0.38
942.461	0.38
943.191	2.38
943.922	0.38
944.652	-1.62
945.382	1.38
946.112	0.38
946.841	-0.62
947.571	0.38
948.301	2.38
949.031	0.38
949.76	-1.62
950.49	1.38
951.219	-0.62
951.948	1.38
952.678	1.38
953.407	1.38
954.136	2.38
954.865	1.38
955.594	-0.62
956.323	1.38
957.052	0.38
957.78	1.38
958.509	-0.62
959.238	0.38
959.966	-1.62
960.695	0.38
961.423	0.38
962.151	-0.62
962.88	0.38
963.608	-0.62
964.336	1.38
965.064	-1.62
965.792	-1.62
966.52	-1.62
967.247	-1.62
967.975	-1.62
968.703	0.38
969.43	2.38
970.158	-0.62
970.885	-1.62
971.613	1.38
972.34	-0.62
973.067	0.38
973.794	-1.62
974.521	2.38
975.248	-1.62
975.975	-2.62
976.702	3.38
977.429	-0.62
978.156	0.38
978.882	-0.62
979.609	-0.62
980.335	0.38
981.062	0.38
981.788	0.38
982.514	-1.62
983.24	1.38
983.967	1.38
984.693	-0.62
985.419	-1.62
986.144	2.38
986.87	1.38
987.596	0.38
988.322	0.38
989.047	-0.62
989.773	-0.62
990.498	1.38
991.224	-1.62
991.949	0.38
992.674	0.38
993.399	-0.62
994.124	1.38
994.849	0.38
995.574	1.38
996.299	0.38
997.024	-0.62
997.749	2.38
998.473	-0.62
999.198	0.38
999.922	-1.62
1000.647	1.38
1001.371	3.38
1002.095	-0.62
1002.82	-1.62
1003.544	-1.62
1004.268	5.38
1004.992	2.38
1005.716	4.38
1006.439	2.38
1007.163	1.38
1007.887	-0.62
1008.611	-2.62
1009.334	0.38
1010.058	0.38
1010.781	-0.62
1011.504	0.38
1012.228	-0.62
1012.951	0.38
1013.674	0.38
1014.397	-0.62
1015.12	0.38
