节点500_425_QEPB04081__516__15-56-53-574.txt的数据

Date: Wed Nov 12 15:56:53 CST 2025
User: PC
Spectrometer: QEPB0408
触发模式: 0
积分时间 (秒): 1.000000E-2
Scans to average: 1
启用暗噪声校正: true
启用非线性校正: false
滑动平均宽度: 0
X轴模式: Wavelengths
Number of Pixels in Spectrum: 1044
>>>>>Begin Spectral Data<<<<<
220.843	3.25
221.644	1.25
222.444	4.25
223.244	3.25
224.045	3.25
224.845	4.25
225.645	4.25
226.445	2.25
227.245	2.25
228.045	2.25
228.845	2.25
229.645	5.25
230.444	6.25
231.244	2.25
232.043	5.25
232.843	4.25
233.642	4.25
234.442	4.25
235.241	5.25
236.04	3.25
236.839	4.25
237.638	5.25
238.437	7.25
239.236	4.25
240.035	8.25
240.833	6.25
241.632	7.25
242.43	6.25
243.229	6.25
244.027	8.25
244.826	8.25
245.624	5.25
246.422	9.25
247.22	8.25
248.018	7.25
248.816	9.25
249.614	11.25
250.412	6.25
251.21	9.25
252.007	10.25
252.805	8.25
253.602	9.25
254.4	11.25
255.197	12.25
255.994	10.25
256.791	10.25
257.589	11.25
258.386	13.25
259.183	12.25
259.979	10.25
260.776	12.25
261.573	13.25
262.37	13.25
263.166	16.25
263.963	14.25
264.759	12.25
265.556	15.25
266.352	16.25
267.148	18.25
267.944	15.25
268.74	17.25
269.536	17.25
270.332	21.25
271.128	20.25
271.924	18.25
272.719	21.25
273.515	19.25
274.311	22.25
275.106	21.25
275.901	22.25
276.697	24.25
277.492	22.25
278.287	23.25
279.082	22.25
279.877	21.25
280.672	24.25
281.467	24.25
282.262	25.25
283.056	22.25
283.851	22.25
284.646	22.25
285.44	21.25
286.234	22.25
287.029	22.25
287.823	22.25
288.617	24.25
289.411	22.25
290.205	21.25
290.999	22.25
291.793	23.25
292.587	20.25
293.381	19.25
294.174	22.25
294.968	24.25
295.761	17.25
296.555	21.25
297.348	17.25
298.141	20.25
298.935	19.25
299.728	20.25
300.521	16.25
301.314	22.25
302.107	15.25
302.899	19.25
303.692	15.25
304.485	15.25
305.277	16.25
306.07	18.25
306.862	17.25
307.655	17.25
308.447	16.25
309.239	15.25
310.031	15.25
310.823	13.25
311.615	12.25
312.407	14.25
313.199	11.25
313.991	11.25
314.783	12.25
315.574	13.25
316.366	13.25
317.157	10.25
317.949	12.25
318.74	12.25
319.531	11.25
320.322	10.25
321.113	9.25
321.904	10.25
322.695	8.25
323.486	10.25
324.277	10.25
325.068	9.25
325.858	10.25
326.649	7.25
327.439	9.25
328.23	4.25
329.02	10.25
329.81	10.25
330.6	9.25
331.391	10.25
332.181	10.25
332.971	6.25
333.76	7.25
334.55	8.25
335.34	8.25
336.13	9.25
336.919	7.25
337.709	8.25
338.498	10.25
339.287	8.25
340.077	7.25
340.866	7.25
341.655	8.25
342.444	6.25
343.233	9.25
344.022	8.25
344.811	10.25
345.6	8.25
346.388	6.25
347.177	9.25
347.965	6.25
348.754	8.25
349.542	6.25
350.33	4.25
351.119	8.25
351.907	7.25
352.695	7.25
353.483	7.25
354.271	8.25
355.059	5.25
355.846	7.25
356.634	6.25
357.422	6.25
358.209	7.25
358.997	7.25
359.784	7.25
360.571	7.25
361.359	8.25
362.146	7.25
362.933	5.25
363.72	5.25
364.507	5.25
365.294	7.25
366.081	6.25
366.867	7.25
367.654	5.25
368.44	8.25
369.227	4.25
370.013	6.25
370.8	6.25
371.586	7.25
372.372	6.25
373.158	7.25
373.944	7.25
374.73	6.25
375.516	6.25
376.302	7.25
377.088	7.25
377.873	9.25
378.659	6.25
379.445	5.25
380.23	6.25
381.015	7.25
381.801	6.25
382.586	5.25
383.371	5.25
384.156	8.25
384.941	7.25
385.726	6.25
386.511	4.25
387.296	8.25
388.08	6.25
388.865	7.25
389.649	9.25
390.434	7.25
391.218	6.25
392.003	7.25
392.787	7.25
393.571	7.25
394.355	10.25
395.139	7.25
395.923	8.25
396.707	8.25
397.491	9.25
398.274	7.25
399.058	10.25
399.842	10.25
400.625	10.25
401.408	9.25
402.192	11.25
402.975	9.25
403.758	9.25
404.541	8.25
405.324	8.25
406.107	7.25
406.89	9.25
407.673	9.25
408.456	10.25
409.238	10.25
410.021	13.25
410.803	10.25
411.586	9.25
412.368	12.25
413.151	11.25
413.933	10.25
414.715	12.25
415.497	12.25
416.279	12.25
417.061	12.25
417.843	13.25
418.624	11.25
419.406	12.25
420.188	13.25
420.969	14.25
421.751	12.25
422.532	15.25
423.313	18.25
424.095	17.25
424.876	14.25
425.657	18.25
426.438	17.25
427.219	16.25
428	14.25
428.78	16.25
429.561	19.25
430.342	17.25
431.122	19.25
431.903	22.25
432.683	20.25
433.464	23.25
434.244	26.25
435.024	24.25
435.804	24.25
436.584	29.25
437.364	28.25
438.144	28.25
438.924	29.25
439.704	33.25
440.483	33.25
441.263	35.25
442.042	39.25
442.822	41.25
443.601	44.25
444.38	48.25
445.16	49.25
445.939	52.25
446.718	58.25
447.497	63.25
448.276	69.25
449.054	74.25
449.833	84.25
450.612	93.25
451.391	104.25
452.169	111.25
452.948	121.25
453.726	133.25
454.504	154.25
455.282	166.25
456.061	183.25
456.839	207.25
457.617	227.25
458.395	249.25
459.172	277.25
459.95	306.25
460.728	343.25
461.506	383.25
462.283	424.25
463.061	475.25
463.838	524.25
464.615	587.25
465.393	657.25
466.17	721.25
466.947	802.25
467.724	908.25
468.501	999.25
469.278	1085.25
470.055	1198.25
470.831	1317.25
471.608	1469.25
472.385	1629.25
473.161	1794.25
473.938	1983.25
474.714	2165.25
475.49	2364.25
476.266	2615.25
477.043	2868.25
477.819	3121.25
478.595	3433.25
479.371	3759.25
480.146	4086.25
480.922	4452.25
481.698	4867.25
482.473	5304.25
483.249	5778.25
484.024	6308.25
484.8	6843.25
485.575	7438.25
486.35	8103.25
487.126	8738.25
487.901	9498.25
488.676	10324.25
489.451	11200.25
490.225	12089.25
491	13038.25
491.775	14079.25
492.55	15137.25
493.324	16312.25
494.099	17405.25
494.873	18588.25
495.647	19807.25
496.422	21113.25
497.196	22366.25
497.97	23752.25
498.744	25012.25
499.518	26314.25
500.292	27450.25
501.066	28520.25
501.839	29657.25
502.613	30654.25
503.387	31445.25
504.16	32052.25
504.934	32566.25
505.707	32833.25
506.48	32921.25
507.253	32901.25
508.027	32756.25
508.8	32507.25
509.573	32040.25
510.346	31434.25
511.118	30704.25
511.891	29981.25
512.664	29031.25
513.437	28081.25
514.209	27132.25
514.982	26208.25
515.754	25185.25
516.526	24146.25
517.298	23220.25
518.071	22262.25
518.843	21449.25
519.615	20518.25
520.387	19734.25
521.159	18988.25
521.93	18232.25
522.702	17525.25
523.474	16864.25
524.245	16182.25
525.017	15459.25
525.788	14788.25
526.56	14119.25
527.331	13518.25
528.102	12946.25
528.873	12332.25
529.644	11779.25
530.415	11271.25
531.186	10761.25
531.957	10233.25
532.728	9694.25
533.498	9163.25
534.269	8685.25
535.039	8234.25
535.81	7805.25
536.58	7343.25
537.351	6948.25
538.121	6581.25
538.891	6248.25
539.661	5913.25
540.431	5610.25
541.201	5318.25
541.971	5050.25
542.741	4765.25
543.51	4547.25
544.28	4307.25
545.05	4096.25
545.819	3909.25
546.588	3710.25
547.358	3523.25
548.127	3330.25
548.896	3164.25
549.665	3023.25
550.434	2883.25
551.203	2736.25
551.972	2581.25
552.741	2418.25
553.51	2318.25
554.278	2185.25
555.047	2050.25
555.815	1961.25
556.584	1824.25
557.352	1731.25
558.121	1628.25
558.889	1557.25
559.657	1458.25
560.425	1380.25
561.193	1310.25
561.961	1258.25
562.729	1179.25
563.496	1112.25
564.264	1050.25
565.032	994.25
565.799	952.25
566.567	879.25
567.334	844.25
568.101	789.25
568.869	752.25
569.636	712.25
570.403	654.25
571.17	627.25
571.937	596.25
572.704	562.25
573.471	532.25
574.237	497.25
575.004	465.25
575.771	442.25
576.537	416.25
577.303	387.25
578.07	369.25
578.836	344.25
579.602	325.25
580.368	312.25
581.134	298.25
581.9	278.25
582.666	264.25
583.432	256.25
584.198	241.25
584.964	226.25
585.729	213.25
586.495	205.25
587.26	193.25
588.025	186.25
588.791	174.25
589.556	168.25
590.321	157.25
591.086	154.25
591.851	138.25
592.616	135.25
593.381	129.25
594.146	118.25
594.911	118.25
595.675	108.25
596.44	109.25
597.204	97.25
597.969	97.25
598.733	93.25
599.497	90.25
600.261	84.25
601.025	81.25
601.79	79.25
602.553	75.25
603.317	69.25
604.081	67.25
604.845	63.25
605.609	64.25
606.372	59.25
607.136	59.25
607.899	56.25
608.662	52.25
609.426	49.25
610.189	47.25
610.952	46.25
611.715	49.25
612.478	46.25
613.241	42.25
614.004	38.25
614.767	42.25
615.529	37.25
616.292	37.25
617.055	35.25
617.817	33.25
618.579	32.25
619.342	30.25
620.104	30.25
620.866	28.25
621.628	29.25
622.39	26.25
623.152	29.25
623.914	26.25
624.676	23.25
625.438	24.25
626.199	22.25
626.961	21.25
627.722	20.25
628.484	18.25
629.245	19.25
630.006	18.25
630.768	16.25
631.529	19.25
632.29	15.25
633.051	18.25
633.812	17.25
634.573	18.25
635.333	16.25
636.094	16.25
636.855	17.25
637.615	14.25
638.376	15.25
639.136	13.25
639.896	12.25
640.657	14.25
641.417	12.25
642.177	14.25
642.937	12.25
643.697	12.25
644.457	13.25
645.216	11.25
645.976	10.25
646.736	10.25
647.495	11.25
648.255	11.25
649.014	9.25
649.774	10.25
650.533	8.25
651.292	8.25
652.051	7.25
652.81	9.25
653.569	10.25
654.328	9.25
655.087	8.25
655.846	7.25
656.604	11.25
657.363	6.25
658.121	6.25
658.88	7.25
659.638	8.25
660.397	7.25
661.155	6.25
661.913	7.25
662.671	7.25
663.429	6.25
664.187	7.25
664.945	7.25
665.703	7.25
666.46	7.25
667.218	6.25
667.976	5.25
668.733	8.25
669.49	7.25
670.248	4.25
671.005	8.25
671.762	6.25
672.519	6.25
673.276	4.25
674.033	6.25
674.79	5.25
675.547	7.25
676.304	5.25
677.06	7.25
677.817	5.25
678.574	6.25
679.33	4.25
680.086	3.25
680.843	6.25
681.599	6.25
682.355	5.25
683.111	5.25
683.867	6.25
684.623	4.25
685.379	5.25
686.135	6.25
686.89	6.25
687.646	5.25
688.402	5.25
689.157	6.25
689.912	3.25
690.668	4.25
691.423	6.25
692.178	4.25
692.933	6.25
693.688	5.25
694.443	4.25
695.198	6.25
695.953	6.25
696.708	6.25
697.462	6.25
698.217	3.25
698.972	4.25
699.726	7.25
700.48	5.25
701.235	3.25
701.989	6.25
702.743	5.25
703.497	5.25
704.251	6.25
705.005	4.25
705.759	7.25
706.513	4.25
707.266	7.25
708.02	4.25
708.774	4.25
709.527	5.25
710.28	7.25
711.034	8.25
711.787	5.25
712.54	3.25
713.293	5.25
714.046	4.25
714.799	5.25
715.552	5.25
716.305	6.25
717.058	6.25
717.81	5.25
718.563	6.25
719.315	6.25
720.068	5.25
720.82	5.25
721.573	5.25
722.325	4.25
723.077	4.25
723.829	5.25
724.581	5.25
725.333	7.25
726.085	3.25
726.836	5.25
727.588	6.25
728.34	7.25
729.091	6.25
729.843	6.25
730.594	6.25
731.346	5.25
732.097	5.25
732.848	6.25
733.599	2.25
734.35	4.25
735.101	6.25
735.852	5.25
736.603	5.25
737.354	7.25
738.104	7.25
738.855	5.25
739.605	7.25
740.356	9.25
741.106	5.25
741.856	5.25
742.607	5.25
743.357	8.25
744.107	5.25
744.857	8.25
745.607	8.25
746.357	6.25
747.106	7.25
747.856	5.25
748.606	6.25
749.355	8.25
750.105	7.25
750.854	8.25
751.603	9.25
752.353	9.25
753.102	8.25
753.851	6.25
754.6	7.25
755.349	6.25
756.098	6.25
756.847	7.25
757.595	6.25
758.344	6.25
759.093	5.25
759.841	8.25
760.589	6.25
761.338	7.25
762.086	7.25
762.834	9.25
763.582	9.25
764.331	8.25
765.079	8.25
765.826	9.25
766.574	9.25
767.322	8.25
768.07	9.25
768.817	10.25
769.565	10.25
770.312	9.25
771.06	10.25
771.807	10.25
772.554	9.25
773.302	12.25
774.049	9.25
774.796	8.25
775.543	9.25
776.29	11.25
777.036	10.25
777.783	10.25
778.53	11.25
779.276	11.25
780.023	9.25
780.769	12.25
781.516	10.25
782.262	11.25
783.008	12.25
783.754	10.25
784.5	12.25
785.246	9.25
785.992	10.25
786.738	11.25
787.484	9.25
788.23	11.25
788.975	10.25
789.721	11.25
790.466	9.25
791.212	10.25
791.957	12.25
792.702	10.25
793.447	10.25
794.193	11.25
794.938	9.25
795.683	9.25
796.427	11.25
797.172	10.25
797.917	10.25
798.662	9.25
799.406	6.25
800.151	8.25
800.895	8.25
801.64	6.25
802.384	8.25
803.128	8.25
803.872	7.25
804.616	10.25
805.36	5.25
806.104	6.25
806.848	7.25
807.592	7.25
808.336	10.25
809.079	6.25
809.823	7.25
810.566	7.25
811.31	8.25
812.053	6.25
812.796	6.25
813.539	6.25
814.283	6.25
815.026	8.25
815.769	7.25
816.511	8.25
817.254	6.25
817.997	5.25
818.74	7.25
819.482	5.25
820.225	5.25
820.967	7.25
821.71	7.25
822.452	6.25
823.194	4.25
823.936	6.25
824.678	5.25
825.42	7.25
826.162	3.25
826.904	6.25
827.646	4.25
828.388	4.25
829.129	7.25
829.871	4.25
830.612	4.25
831.354	5.25
832.095	5.25
832.836	4.25
833.577	4.25
834.319	3.25
835.06	4.25
835.801	5.25
836.542	4.25
837.282	2.25
838.023	6.25
838.764	4.25
839.504	4.25
840.245	6.25
840.985	3.25
841.726	5.25
842.466	3.25
843.206	4.25
843.946	6.25
844.687	5.25
845.427	4.25
846.166	3.25
846.906	5.25
847.646	4.25
848.386	2.25
849.125	4.25
849.865	4.25
850.605	3.25
851.344	2.25
852.083	6.25
852.823	3.25
853.562	5.25
854.301	4.25
855.04	2.25
855.779	4.25
856.518	2.25
857.257	2.25
857.995	5.25
858.734	4.25
859.473	3.25
860.211	2.25
860.95	6.25
861.688	4.25
862.426	3.25
863.165	2.25
863.903	1.25
864.641	1.25
865.379	2.25
866.117	4.25
866.855	4.25
867.593	0.25
868.33	2.25
869.068	1.25
869.806	3.25
870.543	4.25
871.28	2.25
872.018	2.25
872.755	0.25
873.492	4.25
874.229	2.25
874.967	2.25
875.703	2.25
876.44	3.25
877.177	2.25
877.914	1.25
878.651	1.25
879.387	2.25
880.124	0.25
880.86	0.25
881.597	2.25
882.333	2.25
883.069	0.25
883.806	1.25
884.542	2.25
885.278	-0.75
886.014	-0.75
886.749	3.25
887.485	0.25
888.221	1.25
888.957	4.25
889.692	1.25
890.428	-1.75
891.163	-0.75
891.899	0.25
892.634	-0.75
893.369	1.25
894.104	-0.75
894.839	4.25
895.574	-1.75
896.309	1.25
897.044	2.25
897.779	0.25
898.514	-1.75
899.248	-1.75
899.983	0.25
900.717	1.25
901.452	1.25
902.186	2.25
902.92	-0.75
903.654	0.25
904.389	1.25
905.123	0.25
905.857	0.25
906.59	1.25
907.324	2.25
908.058	0.25
908.792	0.25
909.525	1.25
910.259	-0.75
910.992	1.25
911.726	0.25
912.459	2.25
913.192	-1.75
913.925	0.25
914.658	0.25
915.391	0.25
916.124	-1.75
916.857	-0.75
917.59	0.25
918.323	-0.75
919.055	4.25
919.788	1.25
920.521	1.25
921.253	1.25
921.985	1.25
922.718	0.25
923.45	3.25
924.182	1.25
924.914	0.25
925.646	0.25
926.378	-0.75
927.11	0.25
927.841	1.25
928.573	0.25
929.305	-1.75
930.036	1.25
930.768	0.25
931.499	-0.75
932.23	1.25
932.962	-0.75
933.693	0.25
934.424	-0.75
935.155	0.25
935.886	0.25
936.617	2.25
937.348	0.25
938.078	-0.75
938.809	-1.75
939.54	-0.75
940.27	2.25
941.001	-0.75
941.731	2.25
942.461	2.25
943.191	-0.75
943.922	0.25
944.652	1.25
945.382	2.25
946.112	-2.75
946.841	0.25
947.571	2.25
948.301	-1.75
949.031	-0.75
949.76	0.25
950.49	0.25
951.219	2.25
951.948	-1.75
952.678	1.25
953.407	-0.75
954.136	0.25
954.865	0.25
955.594	2.25
956.323	1.25
957.052	1.25
957.78	0.25
958.509	0.25
959.238	0.25
959.966	-0.75
960.695	-0.75
961.423	0.25
962.151	1.25
962.88	1.25
963.608	0.25
964.336	2.25
965.064	-1.75
965.792	-1.75
966.52	2.25
967.247	0.25
967.975	-0.75
968.703	-0.75
969.43	1.25
970.158	-0.75
970.885	0.25
971.613	-1.75
972.34	0.25
973.067	1.25
973.794	-3.75
974.521	-1.75
975.248	1.25
975.975	0.25
976.702	0.25
977.429	0.25
978.156	0.25
978.882	0.25
979.609	-0.75
980.335	1.25
981.062	1.25
981.788	0.25
982.514	0.25
983.24	-1.75
983.967	0.25
984.693	-1.75
985.419	-1.75
986.144	1.25
986.87	0.25
987.596	-0.75
988.322	0.25
989.047	0.25
989.773	1.25
990.498	2.25
991.224	0.25
991.949	-1.75
992.674	-1.75
993.399	-0.75
994.124	1.25
994.849	1.25
995.574	1.25
996.299	0.25
997.024	1.25
997.749	1.25
998.473	0.25
999.198	0.25
999.922	1.25
1000.647	1.25
1001.371	3.25
1002.095	-1.75
1002.82	-3.75
1003.544	0.25
1004.268	2.25
1004.992	3.25
1005.716	1.25
1006.439	2.25
1007.163	1.25
1007.887	4.25
1008.611	0.25
1009.334	0.25
1010.058	1.25
1010.781	2.25
1011.504	0.25
1012.228	1.25
1012.951	1.25
1013.674	1.25
1014.397	1.25
1015.12	-1.75
