节点500_425_QEPB04081__146__15-50-44-290.txt的数据

Date: Wed Nov 12 15:50:44 CST 2025
User: PC
Spectrometer: QEPB0408
触发模式: 0
积分时间 (秒): 1.000000E-2
Scans to average: 1
启用暗噪声校正: true
启用非线性校正: false
滑动平均宽度: 0
X轴模式: Wavelengths
Number of Pixels in Spectrum: 1044
>>>>>Begin Spectral Data<<<<<
220.843	4.12
221.644	2.12
222.444	2.12
223.244	6.12
224.045	1.12
224.845	2.12
225.645	3.12
226.445	2.12
227.245	4.12
228.045	2.12
228.845	4.12
229.645	4.12
230.444	5.12
231.244	5.12
232.043	5.12
232.843	6.12
233.642	5.12
234.442	6.12
235.241	7.12
236.04	6.12
236.839	7.12
237.638	5.12
238.437	6.12
239.236	9.12
240.035	4.12
240.833	4.12
241.632	6.12
242.43	8.12
243.229	5.12
244.027	6.12
244.826	8.12
245.624	7.12
246.422	9.12
247.22	8.12
248.018	12.12
248.816	9.12
249.614	9.12
250.412	10.12
251.21	10.12
252.007	13.12
252.805	8.12
253.602	12.12
254.4	12.12
255.197	10.12
255.994	12.12
256.791	10.12
257.589	10.12
258.386	15.12
259.183	15.12
259.979	15.12
260.776	17.12
261.573	15.12
262.37	14.12
263.166	18.12
263.963	17.12
264.759	18.12
265.556	19.12
266.352	18.12
267.148	16.12
267.944	22.12
268.74	20.12
269.536	21.12
270.332	22.12
271.128	23.12
271.924	23.12
272.719	22.12
273.515	22.12
274.311	24.12
275.106	28.12
275.901	24.12
276.697	25.12
277.492	24.12
278.287	24.12
279.082	24.12
279.877	24.12
280.672	25.12
281.467	26.12
282.262	25.12
283.056	25.12
283.851	25.12
284.646	25.12
285.44	24.12
286.234	27.12
287.029	26.12
287.823	27.12
288.617	26.12
289.411	24.12
290.205	26.12
290.999	23.12
291.793	26.12
292.587	23.12
293.381	23.12
294.174	23.12
294.968	21.12
295.761	22.12
296.555	19.12
297.348	19.12
298.141	19.12
298.935	23.12
299.728	20.12
300.521	18.12
301.314	20.12
302.107	17.12
302.899	17.12
303.692	19.12
304.485	16.12
305.277	18.12
306.07	13.12
306.862	16.12
307.655	16.12
308.447	17.12
309.239	16.12
310.031	13.12
310.823	17.12
311.615	15.12
312.407	14.12
313.199	12.12
313.991	14.12
314.783	13.12
315.574	12.12
316.366	10.12
317.157	11.12
317.949	11.12
318.74	11.12
319.531	10.12
320.322	10.12
321.113	10.12
321.904	10.12
322.695	8.12
323.486	7.12
324.277	10.12
325.068	7.12
325.858	9.12
326.649	9.12
327.439	9.12
328.23	10.12
329.02	9.12
329.81	10.12
330.6	6.12
331.391	11.12
332.181	8.12
332.971	8.12
333.76	8.12
334.55	7.12
335.34	10.12
336.13	9.12
336.919	8.12
337.709	6.12
338.498	8.12
339.287	10.12
340.077	10.12
340.866	10.12
341.655	8.12
342.444	7.12
343.233	9.12
344.022	8.12
344.811	8.12
345.6	10.12
346.388	8.12
347.177	7.12
347.965	7.12
348.754	9.12
349.542	10.12
350.33	6.12
351.119	10.12
351.907	7.12
352.695	7.12
353.483	8.12
354.271	7.12
355.059	5.12
355.846	7.12
356.634	9.12
357.422	10.12
358.209	8.12
358.997	7.12
359.784	7.12
360.571	8.12
361.359	8.12
362.146	7.12
362.933	5.12
363.72	9.12
364.507	7.12
365.294	8.12
366.081	8.12
366.867	7.12
367.654	9.12
368.44	5.12
369.227	7.12
370.013	5.12
370.8	6.12
371.586	5.12
372.372	5.12
373.158	8.12
373.944	6.12
374.73	5.12
375.516	9.12
376.302	8.12
377.088	6.12
377.873	10.12
378.659	7.12
379.445	8.12
380.23	10.12
381.015	6.12
381.801	6.12
382.586	7.12
383.371	8.12
384.156	5.12
384.941	7.12
385.726	8.12
386.511	7.12
387.296	7.12
388.08	10.12
388.865	6.12
389.649	7.12
390.434	7.12
391.218	7.12
392.003	8.12
392.787	8.12
393.571	7.12
394.355	5.12
395.139	8.12
395.923	8.12
396.707	9.12
397.491	10.12
398.274	6.12
399.058	10.12
399.842	9.12
400.625	7.12
401.408	8.12
402.192	5.12
402.975	9.12
403.758	9.12
404.541	9.12
405.324	8.12
406.107	9.12
406.89	10.12
407.673	12.12
408.456	10.12
409.238	10.12
410.021	10.12
410.803	14.12
411.586	9.12
412.368	11.12
413.151	11.12
413.933	12.12
414.715	10.12
415.497	12.12
416.279	12.12
417.061	12.12
417.843	13.12
418.624	13.12
419.406	14.12
420.188	15.12
420.969	15.12
421.751	16.12
422.532	16.12
423.313	13.12
424.095	11.12
424.876	14.12
425.657	15.12
426.438	18.12
427.219	18.12
428	16.12
428.78	18.12
429.561	17.12
430.342	20.12
431.122	21.12
431.903	19.12
432.683	20.12
433.464	24.12
434.244	24.12
435.024	24.12
435.804	27.12
436.584	24.12
437.364	28.12
438.144	26.12
438.924	30.12
439.704	33.12
440.483	38.12
441.263	33.12
442.042	37.12
442.822	38.12
443.601	42.12
444.38	46.12
445.16	45.12
445.939	55.12
446.718	59.12
447.497	61.12
448.276	62.12
449.054	73.12
449.833	76.12
450.612	84.12
451.391	89.12
452.169	98.12
452.948	108.12
453.726	116.12
454.504	131.12
455.282	146.12
456.061	159.12
456.839	179.12
457.617	200.12
458.395	218.12
459.172	242.12
459.95	273.12
460.728	308.12
461.506	342.12
462.283	374.12
463.061	422.12
463.838	483.12
464.615	538.12
465.393	607.12
466.17	666.12
466.947	743.12
467.724	826.12
468.501	939.12
469.278	1037.12
470.055	1142.12
470.831	1281.12
471.608	1419.12
472.385	1578.12
473.161	1750.12
473.938	1929.12
474.714	2138.12
475.49	2367.12
476.266	2610.12
477.043	2906.12
477.819	3220.12
478.595	3546.12
479.371	3876.12
480.146	4287.12
480.922	4724.12
481.698	5177.12
482.473	5724.12
483.249	6272.12
484.024	6888.12
484.8	7601.12
485.575	8232.12
486.35	9064.12
487.126	9928.12
487.901	10887.12
488.676	11851.12
489.451	12901.12
490.225	14073.12
491	15321.12
491.775	16607.12
492.55	17935.12
493.324	19312.12
494.099	20778.12
494.873	22173.12
495.647	23688.12
496.422	25151.12
497.196	26706.12
497.97	28311.12
498.744	29763.12
499.518	31072.12
500.292	32290.12
501.066	33396.12
501.839	34615.12
502.613	35401.12
503.387	35977.12
504.16	36440.12
504.934	36628.12
505.707	36617.12
506.48	36399.12
507.253	35997.12
508.027	35394.12
508.8	34608.12
509.573	33830.12
510.346	32806.12
511.118	31800.12
511.891	30726.12
512.664	29497.12
513.437	28319.12
514.209	27091.12
514.982	26035.12
515.754	24962.12
516.526	23792.12
517.298	22844.12
518.071	21824.12
518.843	20906.12
519.615	20102.12
520.387	19294.12
521.159	18530.12
521.93	17879.12
522.702	17168.12
523.474	16458.12
524.245	15776.12
525.017	15077.12
525.788	14389.12
526.56	13693.12
527.331	13002.12
528.102	12472.12
528.873	11800.12
529.644	11229.12
530.415	10673.12
531.186	10164.12
531.957	9655.12
532.728	9086.12
533.498	8565.12
534.269	8089.12
535.039	7680.12
535.81	7238.12
536.58	6860.12
537.351	6467.12
538.121	6086.12
538.891	5765.12
539.661	5493.12
540.431	5175.12
541.201	4898.12
541.971	4669.12
542.741	4408.12
543.51	4205.12
544.28	3987.12
545.05	3783.12
545.819	3631.12
546.588	3447.12
547.358	3245.12
548.127	3077.12
548.896	2915.12
549.665	2755.12
550.434	2642.12
551.203	2476.12
551.972	2357.12
552.741	2218.12
553.51	2098.12
554.278	1977.12
555.047	1857.12
555.815	1768.12
556.584	1674.12
557.352	1569.12
558.121	1474.12
558.889	1397.12
559.657	1326.12
560.425	1240.12
561.193	1178.12
561.961	1121.12
562.729	1050.12
563.496	995.12
564.264	944.12
565.032	899.12
565.799	839.12
566.567	808.12
567.334	759.12
568.101	707.12
568.869	680.12
569.636	629.12
570.403	605.12
571.17	571.12
571.937	524.12
572.704	506.12
573.471	486.12
574.237	452.12
575.004	423.12
575.771	401.12
576.537	375.12
577.303	350.12
578.07	336.12
578.836	318.12
579.602	296.12
580.368	282.12
581.134	265.12
581.9	249.12
582.666	237.12
583.432	222.12
584.198	218.12
584.964	207.12
585.729	194.12
586.495	189.12
587.26	176.12
588.025	161.12
588.791	159.12
589.556	153.12
590.321	144.12
591.086	134.12
591.851	130.12
592.616	125.12
593.381	116.12
594.146	108.12
594.911	100.12
595.675	98.12
596.44	93.12
597.204	92.12
597.969	89.12
598.733	84.12
599.497	77.12
600.261	77.12
601.025	74.12
601.79	71.12
602.553	64.12
603.317	63.12
604.081	61.12
604.845	58.12
605.609	57.12
606.372	54.12
607.136	53.12
607.899	48.12
608.662	48.12
609.426	46.12
610.189	43.12
610.952	43.12
611.715	42.12
612.478	40.12
613.241	37.12
614.004	36.12
614.767	35.12
615.529	33.12
616.292	34.12
617.055	35.12
617.817	30.12
618.579	30.12
619.342	26.12
620.104	31.12
620.866	22.12
621.628	27.12
622.39	24.12
623.152	22.12
623.914	23.12
624.676	24.12
625.438	24.12
626.199	20.12
626.961	20.12
627.722	20.12
628.484	21.12
629.245	18.12
630.006	16.12
630.768	18.12
631.529	18.12
632.29	16.12
633.051	18.12
633.812	15.12
634.573	17.12
635.333	16.12
636.094	11.12
636.855	13.12
637.615	14.12
638.376	17.12
639.136	14.12
639.896	12.12
640.657	12.12
641.417	12.12
642.177	11.12
642.937	10.12
643.697	12.12
644.457	13.12
645.216	9.12
645.976	10.12
646.736	9.12
647.495	11.12
648.255	8.12
649.014	12.12
649.774	8.12
650.533	10.12
651.292	8.12
652.051	10.12
652.81	7.12
653.569	10.12
654.328	5.12
655.087	9.12
655.846	8.12
656.604	10.12
657.363	10.12
658.121	9.12
658.88	8.12
659.638	7.12
660.397	7.12
661.155	6.12
661.913	8.12
662.671	9.12
663.429	7.12
664.187	4.12
664.945	5.12
665.703	7.12
666.46	7.12
667.218	7.12
667.976	6.12
668.733	5.12
669.49	8.12
670.248	9.12
671.005	8.12
671.762	4.12
672.519	7.12
673.276	8.12
674.033	5.12
674.79	5.12
675.547	5.12
676.304	7.12
677.06	4.12
677.817	7.12
678.574	6.12
679.33	4.12
680.086	4.12
680.843	6.12
681.599	5.12
682.355	6.12
683.111	6.12
683.867	4.12
684.623	4.12
685.379	6.12
686.135	3.12
686.89	5.12
687.646	7.12
688.402	4.12
689.157	8.12
689.912	7.12
690.668	5.12
691.423	5.12
692.178	4.12
692.933	7.12
693.688	6.12
694.443	6.12
695.198	5.12
695.953	6.12
696.708	4.12
697.462	4.12
698.217	4.12
698.972	5.12
699.726	4.12
700.48	6.12
701.235	2.12
701.989	6.12
702.743	6.12
703.497	4.12
704.251	4.12
705.005	7.12
705.759	3.12
706.513	6.12
707.266	4.12
708.02	4.12
708.774	3.12
709.527	4.12
710.28	5.12
711.034	6.12
711.787	6.12
712.54	7.12
713.293	3.12
714.046	5.12
714.799	6.12
715.552	5.12
716.305	5.12
717.058	5.12
717.81	5.12
718.563	5.12
719.315	6.12
720.068	3.12
720.82	3.12
721.573	4.12
722.325	4.12
723.077	5.12
723.829	4.12
724.581	5.12
725.333	4.12
726.085	3.12
726.836	4.12
727.588	4.12
728.34	6.12
729.091	6.12
729.843	4.12
730.594	5.12
731.346	6.12
732.097	5.12
732.848	5.12
733.599	5.12
734.35	8.12
735.101	5.12
735.852	7.12
736.603	5.12
737.354	5.12
738.104	6.12
738.855	4.12
739.605	7.12
740.356	4.12
741.106	6.12
741.856	4.12
742.607	9.12
743.357	4.12
744.107	7.12
744.857	6.12
745.607	8.12
746.357	6.12
747.106	6.12
747.856	7.12
748.606	7.12
749.355	5.12
750.105	8.12
750.854	6.12
751.603	6.12
752.353	10.12
753.102	8.12
753.851	8.12
754.6	6.12
755.349	9.12
756.098	9.12
756.847	9.12
757.595	7.12
758.344	10.12
759.093	8.12
759.841	7.12
760.589	7.12
761.338	7.12
762.086	8.12
762.834	10.12
763.582	7.12
764.331	6.12
765.079	10.12
765.826	11.12
766.574	8.12
767.322	10.12
768.07	12.12
768.817	11.12
769.565	12.12
770.312	10.12
771.06	12.12
771.807	11.12
772.554	12.12
773.302	10.12
774.049	11.12
774.796	10.12
775.543	12.12
776.29	10.12
777.036	13.12
777.783	13.12
778.53	12.12
779.276	10.12
780.023	10.12
780.769	10.12
781.516	9.12
782.262	11.12
783.008	12.12
783.754	9.12
784.5	13.12
785.246	13.12
785.992	11.12
786.738	11.12
787.484	12.12
788.23	11.12
788.975	9.12
789.721	12.12
790.466	13.12
791.212	8.12
791.957	10.12
792.702	9.12
793.447	12.12
794.193	9.12
794.938	14.12
795.683	10.12
796.427	12.12
797.172	11.12
797.917	8.12
798.662	10.12
799.406	9.12
800.151	12.12
800.895	11.12
801.64	8.12
802.384	10.12
803.128	10.12
803.872	10.12
804.616	7.12
805.36	9.12
806.104	9.12
806.848	8.12
807.592	5.12
808.336	5.12
809.079	6.12
809.823	6.12
810.566	9.12
811.31	7.12
812.053	6.12
812.796	9.12
813.539	6.12
814.283	8.12
815.026	7.12
815.769	7.12
816.511	6.12
817.254	4.12
817.997	8.12
818.74	5.12
819.482	8.12
820.225	6.12
820.967	5.12
821.71	3.12
822.452	4.12
823.194	4.12
823.936	3.12
824.678	4.12
825.42	4.12
826.162	5.12
826.904	5.12
827.646	5.12
828.388	5.12
829.129	4.12
829.871	4.12
830.612	5.12
831.354	3.12
832.095	6.12
832.836	4.12
833.577	4.12
834.319	4.12
835.06	4.12
835.801	5.12
836.542	4.12
837.282	4.12
838.023	3.12
838.764	3.12
839.504	5.12
840.245	2.12
840.985	5.12
841.726	4.12
842.466	4.12
843.206	5.12
843.946	3.12
844.687	3.12
845.427	2.12
846.166	4.12
846.906	3.12
847.646	5.12
848.386	4.12
849.125	5.12
849.865	3.12
850.605	3.12
851.344	5.12
852.083	4.12
852.823	2.12
853.562	2.12
854.301	4.12
855.04	2.12
855.779	3.12
856.518	6.12
857.257	4.12
857.995	3.12
858.734	1.12
859.473	2.12
860.211	4.12
860.95	2.12
861.688	1.12
862.426	3.12
863.165	1.12
863.903	2.12
864.641	4.12
865.379	1.12
866.117	3.12
866.855	1.12
867.593	0.12
868.33	1.12
869.068	3.12
869.806	2.12
870.543	2.12
871.28	5.12
872.018	1.12
872.755	0.12
873.492	0.12
874.229	0.12
874.967	3.12
875.703	2.12
876.44	3.12
877.177	3.12
877.914	2.12
878.651	1.12
879.387	0.12
880.124	2.12
880.86	2.12
881.597	-0.88
882.333	1.12
883.069	2.12
883.806	3.12
884.542	1.12
885.278	2.12
886.014	0.12
886.749	1.12
887.485	1.12
888.221	1.12
888.957	1.12
889.692	3.12
890.428	0.12
891.163	3.12
891.899	1.12
892.634	0.12
893.369	-0.88
894.104	2.12
894.839	2.12
895.574	0.12
896.309	-0.88
897.044	2.12
897.779	4.12
898.514	0.12
899.248	1.12
899.983	1.12
900.717	1.12
901.452	1.12
902.186	-0.88
902.92	1.12
903.654	1.12
904.389	1.12
905.123	-0.88
905.857	0.12
906.59	0.12
907.324	0.12
908.058	2.12
908.792	0.12
909.525	0.12
910.259	1.12
910.992	-0.88
911.726	0.12
912.459	0.12
913.192	1.12
913.925	0.12
914.658	-1.88
915.391	2.12
916.124	-0.88
916.857	0.12
917.59	0.12
918.323	-0.88
919.055	2.12
919.788	-0.88
920.521	-0.88
921.253	1.12
921.985	0.12
922.718	2.12
923.45	1.12
924.182	0.12
924.914	0.12
925.646	2.12
926.378	-0.88
927.11	-0.88
927.841	1.12
928.573	-0.88
929.305	1.12
930.036	-0.88
930.768	1.12
931.499	-0.88
932.23	0.12
932.962	0.12
933.693	0.12
934.424	3.12
935.155	1.12
935.886	-0.88
936.617	0.12
937.348	-0.88
938.078	-0.88
938.809	-0.88
939.54	-0.88
940.27	-0.88
941.001	0.12
941.731	-0.88
942.461	0.12
943.191	0.12
943.922	1.12
944.652	-0.88
945.382	1.12
946.112	-0.88
946.841	1.12
947.571	-2.88
948.301	-0.88
949.031	-0.88
949.76	0.12
950.49	0.12
951.219	0.12
951.948	-1.88
952.678	1.12
953.407	0.12
954.136	1.12
954.865	-1.88
955.594	0.12
956.323	-0.88
957.052	0.12
957.78	0.12
958.509	0.12
959.238	0.12
959.966	-1.88
960.695	0.12
961.423	0.12
962.151	1.12
962.88	0.12
963.608	-1.88
964.336	2.12
965.064	0.12
965.792	2.12
966.52	0.12
967.247	0.12
967.975	0.12
968.703	0.12
969.43	0.12
970.158	-0.88
970.885	1.12
971.613	0.12
972.34	0.12
973.067	2.12
973.794	-1.88
974.521	-0.88
975.248	-1.88
975.975	0.12
976.702	-0.88
977.429	1.12
978.156	1.12
978.882	-0.88
979.609	1.12
980.335	1.12
981.062	1.12
981.788	0.12
982.514	-1.88
983.24	-0.88
983.967	-0.88
984.693	1.12
985.419	0.12
986.144	0.12
986.87	2.12
987.596	-0.88
988.322	1.12
989.047	0.12
989.773	-0.88
990.498	1.12
991.224	1.12
991.949	2.12
992.674	2.12
993.399	1.12
994.124	0.12
994.849	-1.88
995.574	0.12
996.299	-0.88
997.024	3.12
997.749	0.12
998.473	0.12
999.198	-0.88
999.922	-0.88
1000.647	1.12
1001.371	0.12
1002.095	1.12
1002.82	-2.88
1003.544	-0.88
1004.268	2.12
1004.992	2.12
1005.716	2.12
1006.439	0.12
1007.163	4.12
1007.887	2.12
1008.611	-0.88
1009.334	3.12
1010.058	-0.88
1010.781	0.12
1011.504	-0.88
1012.228	-1.88
1012.951	0.12
1013.674	2.12
1014.397	-1.88
1015.12	2.12
