节点500_425_QEPB04081__152__15-50-50-268.txt的数据

Date: Wed Nov 12 15:50:50 CST 2025
User: PC
Spectrometer: QEPB0408
触发模式: 0
积分时间 (秒): 1.000000E-2
Scans to average: 1
启用暗噪声校正: true
启用非线性校正: false
滑动平均宽度: 0
X轴模式: Wavelengths
Number of Pixels in Spectrum: 1044
>>>>>Begin Spectral Data<<<<<
220.843	4.12
221.644	3.12
222.444	3.12
223.244	5.12
224.045	4.12
224.845	2.12
225.645	7.12
226.445	3.12
227.245	4.12
228.045	4.12
228.845	5.12
229.645	4.12
230.444	5.12
231.244	5.12
232.043	7.12
232.843	4.12
233.642	5.12
234.442	6.12
235.241	5.12
236.04	6.12
236.839	6.12
237.638	8.12
238.437	7.12
239.236	6.12
240.035	8.12
240.833	8.12
241.632	8.12
242.43	6.12
243.229	5.12
244.027	8.12
244.826	10.12
245.624	10.12
246.422	9.12
247.22	10.12
248.018	10.12
248.816	8.12
249.614	11.12
250.412	9.12
251.21	11.12
252.007	10.12
252.805	9.12
253.602	12.12
254.4	13.12
255.197	11.12
255.994	12.12
256.791	12.12
257.589	13.12
258.386	13.12
259.183	14.12
259.979	16.12
260.776	13.12
261.573	16.12
262.37	15.12
263.166	17.12
263.963	15.12
264.759	17.12
265.556	20.12
266.352	18.12
267.148	21.12
267.944	19.12
268.74	18.12
269.536	20.12
270.332	19.12
271.128	22.12
271.924	22.12
272.719	25.12
273.515	24.12
274.311	22.12
275.106	20.12
275.901	22.12
276.697	27.12
277.492	24.12
278.287	24.12
279.082	24.12
279.877	28.12
280.672	23.12
281.467	25.12
282.262	25.12
283.056	26.12
283.851	26.12
284.646	26.12
285.44	22.12
286.234	28.12
287.029	25.12
287.823	25.12
288.617	23.12
289.411	26.12
290.205	24.12
290.999	26.12
291.793	24.12
292.587	24.12
293.381	21.12
294.174	25.12
294.968	23.12
295.761	21.12
296.555	22.12
297.348	20.12
298.141	17.12
298.935	24.12
299.728	18.12
300.521	18.12
301.314	19.12
302.107	16.12
302.899	17.12
303.692	16.12
304.485	15.12
305.277	19.12
306.07	14.12
306.862	17.12
307.655	17.12
308.447	17.12
309.239	16.12
310.031	15.12
310.823	13.12
311.615	14.12
312.407	13.12
313.199	13.12
313.991	12.12
314.783	12.12
315.574	13.12
316.366	14.12
317.157	12.12
317.949	12.12
318.74	10.12
319.531	9.12
320.322	11.12
321.113	11.12
321.904	11.12
322.695	10.12
323.486	7.12
324.277	10.12
325.068	9.12
325.858	8.12
326.649	8.12
327.439	8.12
328.23	8.12
329.02	8.12
329.81	7.12
330.6	8.12
331.391	9.12
332.181	6.12
332.971	10.12
333.76	10.12
334.55	7.12
335.34	10.12
336.13	8.12
336.919	10.12
337.709	5.12
338.498	11.12
339.287	10.12
340.077	8.12
340.866	8.12
341.655	7.12
342.444	8.12
343.233	10.12
344.022	7.12
344.811	7.12
345.6	6.12
346.388	6.12
347.177	7.12
347.965	10.12
348.754	9.12
349.542	9.12
350.33	5.12
351.119	6.12
351.907	9.12
352.695	6.12
353.483	7.12
354.271	8.12
355.059	7.12
355.846	6.12
356.634	6.12
357.422	6.12
358.209	7.12
358.997	7.12
359.784	8.12
360.571	6.12
361.359	6.12
362.146	8.12
362.933	8.12
363.72	5.12
364.507	8.12
365.294	7.12
366.081	5.12
366.867	4.12
367.654	6.12
368.44	8.12
369.227	6.12
370.013	5.12
370.8	4.12
371.586	8.12
372.372	9.12
373.158	8.12
373.944	7.12
374.73	7.12
375.516	8.12
376.302	7.12
377.088	7.12
377.873	5.12
378.659	8.12
379.445	9.12
380.23	7.12
381.015	8.12
381.801	8.12
382.586	6.12
383.371	8.12
384.156	7.12
384.941	7.12
385.726	7.12
386.511	9.12
387.296	9.12
388.08	10.12
388.865	6.12
389.649	8.12
390.434	7.12
391.218	6.12
392.003	9.12
392.787	7.12
393.571	10.12
394.355	9.12
395.139	9.12
395.923	9.12
396.707	8.12
397.491	9.12
398.274	8.12
399.058	10.12
399.842	9.12
400.625	7.12
401.408	10.12
402.192	12.12
402.975	10.12
403.758	10.12
404.541	10.12
405.324	12.12
406.107	10.12
406.89	9.12
407.673	10.12
408.456	13.12
409.238	12.12
410.021	11.12
410.803	11.12
411.586	13.12
412.368	10.12
413.151	14.12
413.933	11.12
414.715	13.12
415.497	15.12
416.279	12.12
417.061	12.12
417.843	17.12
418.624	14.12
419.406	15.12
420.188	13.12
420.969	14.12
421.751	13.12
422.532	14.12
423.313	12.12
424.095	16.12
424.876	14.12
425.657	18.12
426.438	16.12
427.219	18.12
428	18.12
428.78	16.12
429.561	18.12
430.342	19.12
431.122	21.12
431.903	19.12
432.683	22.12
433.464	23.12
434.244	24.12
435.024	21.12
435.804	25.12
436.584	27.12
437.364	28.12
438.144	28.12
438.924	29.12
439.704	29.12
440.483	33.12
441.263	34.12
442.042	38.12
442.822	38.12
443.601	44.12
444.38	43.12
445.16	46.12
445.939	49.12
446.718	55.12
447.497	58.12
448.276	65.12
449.054	71.12
449.833	74.12
450.612	79.12
451.391	88.12
452.169	99.12
452.948	110.12
453.726	122.12
454.504	132.12
455.282	149.12
456.061	159.12
456.839	179.12
457.617	197.12
458.395	222.12
459.172	248.12
459.95	275.12
460.728	307.12
461.506	343.12
462.283	387.12
463.061	427.12
463.838	474.12
464.615	536.12
465.393	603.12
466.17	662.12
466.947	738.12
467.724	832.12
468.501	934.12
469.278	1022.12
470.055	1144.12
470.831	1279.12
471.608	1409.12
472.385	1583.12
473.161	1738.12
473.938	1945.12
474.714	2138.12
475.49	2357.12
476.266	2606.12
477.043	2900.12
477.819	3205.12
478.595	3551.12
479.371	3911.12
480.146	4306.12
480.922	4715.12
481.698	5226.12
482.473	5728.12
483.249	6232.12
484.024	6888.12
484.8	7586.12
485.575	8285.12
486.35	9035.12
487.126	9890.12
487.901	10857.12
488.676	11822.12
489.451	12905.12
490.225	13998.12
491	15268.12
491.775	16563.12
492.55	17936.12
493.324	19274.12
494.099	20714.12
494.873	22124.12
495.647	23595.12
496.422	25182.12
497.196	26710.12
497.97	28264.12
498.744	29680.12
499.518	31053.12
500.292	32320.12
501.066	33368.12
501.839	34495.12
502.613	35301.12
503.387	35919.12
504.16	36437.12
504.934	36585.12
505.707	36577.12
506.48	36279.12
507.253	35912.12
508.027	35370.12
508.8	34624.12
509.573	33700.12
510.346	32826.12
511.118	31812.12
511.891	30745.12
512.664	29564.12
513.437	28251.12
514.209	27113.12
514.982	26099.12
515.754	24949.12
516.526	23838.12
517.298	22806.12
518.071	21788.12
518.843	20913.12
519.615	20060.12
520.387	19249.12
521.159	18548.12
521.93	17839.12
522.702	17169.12
523.474	16464.12
524.245	15820.12
525.017	15043.12
525.788	14293.12
526.56	13668.12
527.331	13010.12
528.102	12442.12
528.873	11807.12
529.644	11249.12
530.415	10729.12
531.186	10151.12
531.957	9663.12
532.728	9119.12
533.498	8581.12
534.269	8080.12
535.039	7699.12
535.81	7254.12
536.58	6849.12
537.351	6435.12
538.121	6074.12
538.891	5772.12
539.661	5477.12
540.431	5204.12
541.201	4925.12
541.971	4646.12
542.741	4424.12
543.51	4203.12
544.28	3988.12
545.05	3808.12
545.819	3616.12
546.588	3412.12
547.358	3245.12
548.127	3102.12
548.896	2922.12
549.665	2770.12
550.434	2633.12
551.203	2489.12
551.972	2347.12
552.741	2236.12
553.51	2109.12
554.278	1987.12
555.047	1866.12
555.815	1768.12
556.584	1664.12
557.352	1576.12
558.121	1489.12
558.889	1397.12
559.657	1319.12
560.425	1255.12
561.193	1176.12
561.961	1126.12
562.729	1065.12
563.496	1022.12
564.264	948.12
565.032	897.12
565.799	839.12
566.567	791.12
567.334	759.12
568.101	718.12
568.869	677.12
569.636	635.12
570.403	608.12
571.17	566.12
571.937	537.12
572.704	505.12
573.471	478.12
574.237	447.12
575.004	419.12
575.771	394.12
576.537	374.12
577.303	352.12
578.07	337.12
578.836	314.12
579.602	297.12
580.368	278.12
581.134	261.12
581.9	253.12
582.666	238.12
583.432	226.12
584.198	214.12
584.964	202.12
585.729	198.12
586.495	183.12
587.26	171.12
588.025	166.12
588.791	159.12
589.556	146.12
590.321	134.12
591.086	138.12
591.851	128.12
592.616	117.12
593.381	119.12
594.146	111.12
594.911	105.12
595.675	96.12
596.44	93.12
597.204	92.12
597.969	90.12
598.733	85.12
599.497	83.12
600.261	79.12
601.025	72.12
601.79	72.12
602.553	65.12
603.317	63.12
604.081	62.12
604.845	58.12
605.609	57.12
606.372	56.12
607.136	53.12
607.899	52.12
608.662	46.12
609.426	49.12
610.189	48.12
610.952	43.12
611.715	39.12
612.478	40.12
613.241	38.12
614.004	36.12
614.767	38.12
615.529	34.12
616.292	31.12
617.055	29.12
617.817	30.12
618.579	30.12
619.342	27.12
620.104	30.12
620.866	28.12
621.628	26.12
622.39	24.12
623.152	22.12
623.914	25.12
624.676	21.12
625.438	22.12
626.199	22.12
626.961	23.12
627.722	24.12
628.484	20.12
629.245	19.12
630.006	20.12
630.768	15.12
631.529	18.12
632.29	18.12
633.051	17.12
633.812	17.12
634.573	13.12
635.333	13.12
636.094	13.12
636.855	18.12
637.615	13.12
638.376	14.12
639.136	13.12
639.896	12.12
640.657	12.12
641.417	11.12
642.177	13.12
642.937	13.12
643.697	13.12
644.457	12.12
645.216	9.12
645.976	9.12
646.736	12.12
647.495	12.12
648.255	11.12
649.014	11.12
649.774	9.12
650.533	9.12
651.292	8.12
652.051	8.12
652.81	11.12
653.569	10.12
654.328	10.12
655.087	8.12
655.846	7.12
656.604	7.12
657.363	9.12
658.121	8.12
658.88	7.12
659.638	9.12
660.397	6.12
661.155	10.12
661.913	7.12
662.671	6.12
663.429	8.12
664.187	6.12
664.945	6.12
665.703	7.12
666.46	5.12
667.218	7.12
667.976	4.12
668.733	6.12
669.49	6.12
670.248	4.12
671.005	7.12
671.762	6.12
672.519	6.12
673.276	8.12
674.033	5.12
674.79	5.12
675.547	5.12
676.304	8.12
677.06	5.12
677.817	4.12
678.574	6.12
679.33	7.12
680.086	7.12
680.843	4.12
681.599	5.12
682.355	5.12
683.111	5.12
683.867	7.12
684.623	5.12
685.379	6.12
686.135	7.12
686.89	6.12
687.646	5.12
688.402	6.12
689.157	5.12
689.912	4.12
690.668	3.12
691.423	6.12
692.178	5.12
692.933	3.12
693.688	4.12
694.443	3.12
695.198	6.12
695.953	7.12
696.708	5.12
697.462	5.12
698.217	7.12
698.972	3.12
699.726	3.12
700.48	6.12
701.235	5.12
701.989	6.12
702.743	4.12
703.497	7.12
704.251	5.12
705.005	4.12
705.759	4.12
706.513	7.12
707.266	7.12
708.02	7.12
708.774	5.12
709.527	3.12
710.28	7.12
711.034	5.12
711.787	5.12
712.54	7.12
713.293	6.12
714.046	2.12
714.799	4.12
715.552	6.12
716.305	7.12
717.058	6.12
717.81	4.12
718.563	5.12
719.315	6.12
720.068	6.12
720.82	3.12
721.573	4.12
722.325	4.12
723.077	2.12
723.829	6.12
724.581	7.12
725.333	6.12
726.085	3.12
726.836	4.12
727.588	6.12
728.34	6.12
729.091	7.12
729.843	6.12
730.594	6.12
731.346	4.12
732.097	5.12
732.848	4.12
733.599	5.12
734.35	5.12
735.101	3.12
735.852	8.12
736.603	7.12
737.354	5.12
738.104	6.12
738.855	5.12
739.605	6.12
740.356	5.12
741.106	4.12
741.856	8.12
742.607	6.12
743.357	6.12
744.107	4.12
744.857	4.12
745.607	7.12
746.357	6.12
747.106	9.12
747.856	6.12
748.606	8.12
749.355	8.12
750.105	8.12
750.854	7.12
751.603	8.12
752.353	8.12
753.102	9.12
753.851	9.12
754.6	7.12
755.349	7.12
756.098	10.12
756.847	6.12
757.595	11.12
758.344	7.12
759.093	8.12
759.841	9.12
760.589	9.12
761.338	9.12
762.086	9.12
762.834	10.12
763.582	8.12
764.331	12.12
765.079	7.12
765.826	8.12
766.574	9.12
767.322	8.12
768.07	10.12
768.817	13.12
769.565	10.12
770.312	10.12
771.06	11.12
771.807	11.12
772.554	9.12
773.302	8.12
774.049	11.12
774.796	8.12
775.543	10.12
776.29	10.12
777.036	13.12
777.783	13.12
778.53	10.12
779.276	12.12
780.023	9.12
780.769	12.12
781.516	11.12
782.262	10.12
783.008	11.12
783.754	11.12
784.5	10.12
785.246	13.12
785.992	10.12
786.738	11.12
787.484	13.12
788.23	12.12
788.975	12.12
789.721	13.12
790.466	14.12
791.212	13.12
791.957	11.12
792.702	10.12
793.447	11.12
794.193	10.12
794.938	9.12
795.683	10.12
796.427	10.12
797.172	9.12
797.917	10.12
798.662	12.12
799.406	9.12
800.151	11.12
800.895	12.12
801.64	7.12
802.384	11.12
803.128	10.12
803.872	9.12
804.616	10.12
805.36	8.12
806.104	7.12
806.848	8.12
807.592	9.12
808.336	7.12
809.079	7.12
809.823	6.12
810.566	8.12
811.31	9.12
812.053	8.12
812.796	7.12
813.539	6.12
814.283	4.12
815.026	6.12
815.769	5.12
816.511	8.12
817.254	6.12
817.997	5.12
818.74	6.12
819.482	4.12
820.225	5.12
820.967	5.12
821.71	4.12
822.452	5.12
823.194	5.12
823.936	5.12
824.678	5.12
825.42	4.12
826.162	4.12
826.904	8.12
827.646	6.12
828.388	5.12
829.129	7.12
829.871	4.12
830.612	4.12
831.354	6.12
832.095	3.12
832.836	7.12
833.577	2.12
834.319	5.12
835.06	4.12
835.801	6.12
836.542	5.12
837.282	5.12
838.023	5.12
838.764	5.12
839.504	5.12
840.245	5.12
840.985	3.12
841.726	6.12
842.466	3.12
843.206	6.12
843.946	2.12
844.687	2.12
845.427	5.12
846.166	4.12
846.906	4.12
847.646	4.12
848.386	3.12
849.125	3.12
849.865	6.12
850.605	5.12
851.344	1.12
852.083	6.12
852.823	1.12
853.562	2.12
854.301	4.12
855.04	2.12
855.779	3.12
856.518	3.12
857.257	1.12
857.995	2.12
858.734	3.12
859.473	2.12
860.211	2.12
860.95	2.12
861.688	0.12
862.426	2.12
863.165	3.12
863.903	3.12
864.641	2.12
865.379	1.12
866.117	3.12
866.855	1.12
867.593	1.12
868.33	3.12
869.068	1.12
869.806	1.12
870.543	2.12
871.28	4.12
872.018	0.12
872.755	2.12
873.492	2.12
874.229	3.12
874.967	-0.88
875.703	2.12
876.44	2.12
877.177	2.12
877.914	1.12
878.651	2.12
879.387	1.12
880.124	2.12
880.86	-0.88
881.597	2.12
882.333	1.12
883.069	1.12
883.806	4.12
884.542	0.12
885.278	3.12
886.014	1.12
886.749	1.12
887.485	1.12
888.221	2.12
888.957	0.12
889.692	1.12
890.428	0.12
891.163	0.12
891.899	1.12
892.634	1.12
893.369	-0.88
894.104	-0.88
894.839	1.12
895.574	-0.88
896.309	2.12
897.044	2.12
897.779	1.12
898.514	0.12
899.248	1.12
899.983	-0.88
900.717	0.12
901.452	0.12
902.186	0.12
902.92	0.12
903.654	2.12
904.389	0.12
905.123	2.12
905.857	0.12
906.59	0.12
907.324	-0.88
908.058	1.12
908.792	1.12
909.525	-0.88
910.259	2.12
910.992	0.12
911.726	2.12
912.459	1.12
913.192	1.12
913.925	-0.88
914.658	0.12
915.391	1.12
916.124	1.12
916.857	0.12
917.59	2.12
918.323	-0.88
919.055	1.12
919.788	-0.88
920.521	0.12
921.253	2.12
921.985	-2.88
922.718	3.12
923.45	0.12
924.182	-0.88
924.914	-0.88
925.646	0.12
926.378	-0.88
927.11	-0.88
927.841	0.12
928.573	-0.88
929.305	-0.88
930.036	-0.88
930.768	0.12
931.499	1.12
932.23	0.12
932.962	1.12
933.693	-0.88
934.424	2.12
935.155	-1.88
935.886	0.12
936.617	-0.88
937.348	0.12
938.078	-0.88
938.809	1.12
939.54	-0.88
940.27	-0.88
941.001	-0.88
941.731	0.12
942.461	-0.88
943.191	0.12
943.922	-0.88
944.652	-1.88
945.382	1.12
946.112	-0.88
946.841	2.12
947.571	1.12
948.301	1.12
949.031	-0.88
949.76	0.12
950.49	0.12
951.219	-0.88
951.948	-1.88
952.678	-0.88
953.407	1.12
954.136	-2.88
954.865	1.12
955.594	2.12
956.323	0.12
957.052	1.12
957.78	0.12
958.509	0.12
959.238	0.12
959.966	1.12
960.695	1.12
961.423	0.12
962.151	1.12
962.88	-0.88
963.608	1.12
964.336	1.12
965.064	1.12
965.792	0.12
966.52	0.12
967.247	-0.88
967.975	0.12
968.703	1.12
969.43	1.12
970.158	1.12
970.885	1.12
971.613	-0.88
972.34	-1.88
973.067	0.12
973.794	0.12
974.521	1.12
975.248	0.12
975.975	0.12
976.702	0.12
977.429	-0.88
978.156	0.12
978.882	0.12
979.609	-0.88
980.335	0.12
981.062	-1.88
981.788	1.12
982.514	0.12
983.24	2.12
983.967	-0.88
984.693	-3.88
985.419	-1.88
986.144	2.12
986.87	-0.88
987.596	1.12
988.322	0.12
989.047	-0.88
989.773	-0.88
990.498	1.12
991.224	0.12
991.949	0.12
992.674	1.12
993.399	-0.88
994.124	0.12
994.849	-0.88
995.574	0.12
996.299	2.12
997.024	0.12
997.749	-0.88
998.473	-0.88
999.198	0.12
999.922	-0.88
1000.647	1.12
1001.371	3.12
1002.095	-0.88
1002.82	-2.88
1003.544	0.12
1004.268	3.12
1004.992	1.12
1005.716	2.12
1006.439	2.12
1007.163	2.12
1007.887	2.12
1008.611	0.12
1009.334	0.12
1010.058	2.12
1010.781	1.12
1011.504	-0.88
1012.228	-0.88
1012.951	-1.88
1013.674	1.12
1014.397	0.12
1015.12	1.12
