节点500_425_QEPB04081__361__15-54-18-766.txt的数据

Date: Wed Nov 12 15:54:18 CST 2025
User: PC
Spectrometer: QEPB0408
触发模式: 0
积分时间 (秒): 1.000000E-2
Scans to average: 1
启用暗噪声校正: true
启用非线性校正: false
滑动平均宽度: 0
X轴模式: Wavelengths
Number of Pixels in Spectrum: 1044
>>>>>Begin Spectral Data<<<<<
220.843	2
221.644	3
222.444	5
223.244	4
224.045	3
224.845	6
225.645	6
226.445	3
227.245	5
228.045	3
228.845	4
229.645	5
230.444	5
231.244	6
232.043	6
232.843	5
233.642	8
234.442	3
235.241	8
236.04	7
236.839	10
237.638	7
238.437	9
239.236	7
240.035	6
240.833	9
241.632	7
242.43	7
243.229	8
244.027	9
244.826	9
245.624	10
246.422	9
247.22	10
248.018	8
248.816	8
249.614	10
250.412	12
251.21	11
252.007	10
252.805	11
253.602	11
254.4	12
255.197	12
255.994	13
256.791	14
257.589	12
258.386	11
259.183	15
259.979	15
260.776	17
261.573	15
262.37	16
263.166	13
263.963	18
264.759	15
265.556	19
266.352	20
267.148	18
267.944	19
268.74	17
269.536	21
270.332	23
271.128	20
271.924	19
272.719	19
273.515	24
274.311	26
275.106	23
275.901	22
276.697	24
277.492	25
278.287	27
279.082	23
279.877	22
280.672	24
281.467	24
282.262	25
283.056	26
283.851	28
284.646	26
285.44	29
286.234	23
287.029	24
287.823	25
288.617	25
289.411	23
290.205	23
290.999	22
291.793	21
292.587	27
293.381	22
294.174	23
294.968	23
295.761	20
296.555	23
297.348	19
298.141	20
298.935	21
299.728	21
300.521	18
301.314	18
302.107	19
302.899	15
303.692	16
304.485	18
305.277	15
306.07	19
306.862	18
307.655	17
308.447	18
309.239	15
310.031	13
310.823	14
311.615	15
312.407	13
313.199	13
313.991	15
314.783	10
315.574	15
316.366	11
317.157	14
317.949	14
318.74	10
319.531	11
320.322	11
321.113	13
321.904	9
322.695	10
323.486	11
324.277	12
325.068	12
325.858	11
326.649	9
327.439	10
328.23	9
329.02	10
329.81	9
330.6	10
331.391	9
332.181	11
332.971	7
333.76	11
334.55	10
335.34	10
336.13	9
336.919	8
337.709	9
338.498	9
339.287	9
340.077	10
340.866	5
341.655	8
342.444	8
343.233	7
344.022	9
344.811	11
345.6	9
346.388	12
347.177	7
347.965	9
348.754	8
349.542	10
350.33	8
351.119	9
351.907	8
352.695	6
353.483	9
354.271	9
355.059	8
355.846	9
356.634	9
357.422	6
358.209	7
358.997	10
359.784	6
360.571	10
361.359	10
362.146	8
362.933	9
363.72	8
364.507	4
365.294	11
366.081	7
366.867	8
367.654	8
368.44	9
369.227	9
370.013	6
370.8	7
371.586	9
372.372	10
373.158	7
373.944	7
374.73	8
375.516	7
376.302	6
377.088	8
377.873	8
378.659	7
379.445	8
380.23	6
381.015	7
381.801	7
382.586	8
383.371	10
384.156	7
384.941	6
385.726	8
386.511	7
387.296	10
388.08	6
388.865	8
389.649	9
390.434	9
391.218	8
392.003	8
392.787	9
393.571	8
394.355	8
395.139	10
395.923	9
396.707	6
397.491	10
398.274	11
399.058	9
399.842	11
400.625	9
401.408	11
402.192	9
402.975	12
403.758	10
404.541	9
405.324	12
406.107	12
406.89	11
407.673	11
408.456	12
409.238	11
410.021	11
410.803	10
411.586	14
412.368	11
413.151	11
413.933	11
414.715	11
415.497	13
416.279	13
417.061	14
417.843	14
418.624	16
419.406	13
420.188	15
420.969	13
421.751	16
422.532	15
423.313	16
424.095	16
424.876	17
425.657	16
426.438	16
427.219	18
428	18
428.78	17
429.561	19
430.342	20
431.122	20
431.903	21
432.683	22
433.464	23
434.244	24
435.024	24
435.804	25
436.584	27
437.364	30
438.144	31
438.924	30
439.704	33
440.483	33
441.263	38
442.042	40
442.822	39
443.601	45
444.38	45
445.16	52
445.939	50
446.718	58
447.497	59
448.276	66
449.054	70
449.833	81
450.612	87
451.391	96
452.169	105
452.948	113
453.726	127
454.504	145
455.282	157
456.061	167
456.839	193
457.617	213
458.395	243
459.172	266
459.95	298
460.728	327
461.506	360
462.283	397
463.061	448
463.838	511
464.615	564
465.393	626
466.17	699
466.947	770
467.724	865
468.501	955
469.278	1055
470.055	1171
470.831	1292
471.608	1445
472.385	1608
473.161	1778
473.938	1941
474.714	2152
475.49	2371
476.266	2584
477.043	2882
477.819	3142
478.595	3471
479.371	3829
480.146	4175
480.922	4587
481.698	5025
482.473	5475
483.249	6055
484.024	6568
484.8	7187
485.575	7812
486.35	8498
487.126	9286
487.901	10118
488.676	11017
489.451	11980
490.225	13023
491	14078
491.775	15225
492.55	16419
493.324	17691
494.099	18916
494.873	20175
495.647	21517
496.422	22888
497.196	24304
497.97	25836
498.744	27148
499.518	28547
500.292	29685
501.066	30852
501.839	31941
502.613	32853
503.387	33630
504.16	34119
504.934	34470
505.707	34714
506.48	34593
507.253	34335
508.027	34065
508.8	33565
509.573	32935
510.346	32235
511.118	31290
511.891	30352
512.664	29272
513.437	28229
514.209	27113
514.982	26106
515.754	25085
516.526	24002
517.298	23029
518.071	21991
518.843	21143
519.615	20270
520.387	19427
521.159	18700
521.93	18014
522.702	17287
523.474	16642
524.245	15951
525.017	15247
525.788	14541
526.56	13877
527.331	13279
528.102	12699
528.873	12092
529.644	11510
530.415	10951
531.186	10458
531.957	9929
532.728	9420
533.498	8843
534.269	8384
535.039	7920
535.81	7529
536.58	7072
537.351	6688
538.121	6323
538.891	5990
539.661	5686
540.431	5392
541.201	5083
541.971	4839
542.741	4564
543.51	4351
544.28	4141
545.05	3931
545.819	3742
546.588	3551
547.358	3358
548.127	3217
548.896	3035
549.665	2892
550.434	2769
551.203	2597
551.972	2463
552.741	2325
553.51	2202
554.278	2070
555.047	1952
555.815	1852
556.584	1759
557.352	1639
558.121	1551
558.889	1459
559.657	1402
560.425	1318
561.193	1240
561.961	1169
562.729	1103
563.496	1064
564.264	996
565.032	942
565.799	893
566.567	845
567.334	800
568.101	759
568.869	706
569.636	670
570.403	631
571.17	590
571.937	561
572.704	534
573.471	507
574.237	466
575.004	443
575.771	411
576.537	391
577.303	375
578.07	349
578.836	327
579.602	318
580.368	296
581.134	281
581.9	261
582.666	247
583.432	236
584.198	227
584.964	216
585.729	206
586.495	196
587.26	185
588.025	177
588.791	162
589.556	157
590.321	154
591.086	139
591.851	129
592.616	128
593.381	124
594.146	118
594.911	105
595.675	109
596.44	101
597.204	94
597.969	96
598.733	90
599.497	86
600.261	81
601.025	81
601.79	71
602.553	71
603.317	68
604.081	64
604.845	61
605.609	58
606.372	58
607.136	53
607.899	58
608.662	50
609.426	49
610.189	46
610.952	43
611.715	45
612.478	42
613.241	40
614.004	40
614.767	38
615.529	36
616.292	35
617.055	34
617.817	31
618.579	33
619.342	29
620.104	31
620.866	29
621.628	27
622.39	27
623.152	26
623.914	25
624.676	24
625.438	24
626.199	24
626.961	25
627.722	19
628.484	23
629.245	21
630.006	21
630.768	20
631.529	16
632.29	21
633.051	17
633.812	17
634.573	17
635.333	15
636.094	17
636.855	16
637.615	17
638.376	13
639.136	14
639.896	14
640.657	12
641.417	13
642.177	13
642.937	12
643.697	14
644.457	11
645.216	15
645.976	14
646.736	11
647.495	10
648.255	9
649.014	13
649.774	8
650.533	10
651.292	10
652.051	9
652.81	9
653.569	9
654.328	8
655.087	6
655.846	9
656.604	9
657.363	9
658.121	11
658.88	10
659.638	8
660.397	8
661.155	9
661.913	8
662.671	9
663.429	7
664.187	7
664.945	7
665.703	9
666.46	6
667.218	8
667.976	5
668.733	9
669.49	8
670.248	5
671.005	3
671.762	6
672.519	6
673.276	7
674.033	7
674.79	4
675.547	7
676.304	6
677.06	5
677.817	5
678.574	7
679.33	6
680.086	8
680.843	8
681.599	4
682.355	7
683.111	5
683.867	6
684.623	7
685.379	9
686.135	3
686.89	8
687.646	5
688.402	5
689.157	6
689.912	5
690.668	7
691.423	7
692.178	7
692.933	7
693.688	7
694.443	7
695.198	4
695.953	4
696.708	5
697.462	5
698.217	5
698.972	6
699.726	5
700.48	6
701.235	5
701.989	5
702.743	5
703.497	7
704.251	6
705.005	7
705.759	5
706.513	5
707.266	5
708.02	5
708.774	6
709.527	4
710.28	5
711.034	3
711.787	6
712.54	8
713.293	5
714.046	5
714.799	7
715.552	7
716.305	6
717.058	7
717.81	7
718.563	4
719.315	6
720.068	4
720.82	5
721.573	6
722.325	8
723.077	6
723.829	4
724.581	6
725.333	8
726.085	7
726.836	7
727.588	5
728.34	4
729.091	8
729.843	8
730.594	8
731.346	7
732.097	8
732.848	6
733.599	6
734.35	9
735.101	8
735.852	4
736.603	7
737.354	7
738.104	7
738.855	9
739.605	8
740.356	6
741.106	8
741.856	8
742.607	8
743.357	8
744.107	7
744.857	9
745.607	5
746.357	8
747.106	10
747.856	8
748.606	8
749.355	7
750.105	7
750.854	6
751.603	9
752.353	8
753.102	7
753.851	9
754.6	8
755.349	7
756.098	10
756.847	11
757.595	9
758.344	8
759.093	9
759.841	8
760.589	10
761.338	8
762.086	9
762.834	11
763.582	11
764.331	7
765.079	9
765.826	9
766.574	10
767.322	10
768.07	11
768.817	9
769.565	9
770.312	12
771.06	11
771.807	12
772.554	13
773.302	9
774.049	9
774.796	12
775.543	13
776.29	10
777.036	11
777.783	10
778.53	13
779.276	14
780.023	13
780.769	11
781.516	13
782.262	11
783.008	10
783.754	13
784.5	15
785.246	10
785.992	13
786.738	14
787.484	14
788.23	10
788.975	14
789.721	14
790.466	11
791.212	11
791.957	10
792.702	11
793.447	13
794.193	13
794.938	11
795.683	8
796.427	11
797.172	11
797.917	12
798.662	13
799.406	9
800.151	10
800.895	10
801.64	12
802.384	9
803.128	9
803.872	10
804.616	11
805.36	9
806.104	10
806.848	9
807.592	9
808.336	8
809.079	8
809.823	6
810.566	5
811.31	9
812.053	9
812.796	7
813.539	5
814.283	7
815.026	9
815.769	8
816.511	8
817.254	8
817.997	8
818.74	6
819.482	6
820.225	7
820.967	9
821.71	7
822.452	7
823.194	7
823.936	6
824.678	6
825.42	7
826.162	6
826.904	6
827.646	4
828.388	5
829.129	3
829.871	7
830.612	5
831.354	5
832.095	6
832.836	5
833.577	7
834.319	6
835.06	6
835.801	7
836.542	5
837.282	4
838.023	4
838.764	6
839.504	4
840.245	2
840.985	5
841.726	5
842.466	7
843.206	4
843.946	4
844.687	5
845.427	2
846.166	6
846.906	5
847.646	4
848.386	1
849.125	5
849.865	6
850.605	4
851.344	5
852.083	3
852.823	3
853.562	7
854.301	0
855.04	5
855.779	3
856.518	1
857.257	4
857.995	3
858.734	4
859.473	2
860.211	7
860.95	2
861.688	3
862.426	3
863.165	2
863.903	2
864.641	3
865.379	1
866.117	1
866.855	2
867.593	3
868.33	5
869.068	4
869.806	2
870.543	3
871.28	1
872.018	1
872.755	4
873.492	3
874.229	2
874.967	3
875.703	3
876.44	3
877.177	1
877.914	3
878.651	1
879.387	2
880.124	5
880.86	2
881.597	3
882.333	2
883.069	1
883.806	1
884.542	2
885.278	2
886.014	2
886.749	1
887.485	3
888.221	2
888.957	3
889.692	0
890.428	3
891.163	2
891.899	0
892.634	2
893.369	3
894.104	0
894.839	2
895.574	3
896.309	1
897.044	2
897.779	1
898.514	1
899.248	3
899.983	1
900.717	2
901.452	0
902.186	1
902.92	-2
903.654	2
904.389	1
905.123	1
905.857	1
906.59	3
907.324	3
908.058	1
908.792	2
909.525	2
910.259	1
910.992	1
911.726	0
912.459	1
913.192	2
913.925	0
914.658	-1
915.391	-1
916.124	-1
916.857	3
917.59	-1
918.323	0
919.055	1
919.788	2
920.521	-1
921.253	2
921.985	3
922.718	0
923.45	3
924.182	0
924.914	1
925.646	1
926.378	-1
927.11	-1
927.841	1
928.573	2
929.305	0
930.036	1
930.768	1
931.499	1
932.23	0
932.962	0
933.693	2
934.424	2
935.155	1
935.886	2
936.617	2
937.348	0
938.078	1
938.809	1
939.54	0
940.27	-1
941.001	2
941.731	-1
942.461	2
943.191	1
943.922	0
944.652	4
945.382	1
946.112	2
946.841	0
947.571	3
948.301	4
949.031	1
949.76	1
950.49	1
951.219	-1
951.948	3
952.678	2
953.407	2
954.136	2
954.865	1
955.594	1
956.323	2
957.052	0
957.78	1
958.509	3
959.238	-1
959.966	-1
960.695	3
961.423	0
962.151	3
962.88	1
963.608	1
964.336	1
965.064	1
965.792	1
966.52	1
967.247	3
967.975	1
968.703	2
969.43	2
970.158	1
970.885	2
971.613	0
972.34	1
973.067	-2
973.794	0
974.521	0
975.248	1
975.975	2
976.702	-1
977.429	2
978.156	-1
978.882	-2
979.609	1
980.335	1
981.062	1
981.788	3
982.514	0
983.24	1
983.967	1
984.693	3
985.419	3
986.144	-1
986.87	3
987.596	-1
988.322	3
989.047	2
989.773	2
990.498	4
991.224	2
991.949	-1
992.674	-1
993.399	1
994.124	0
994.849	0
995.574	2
996.299	1
997.024	1
997.749	2
998.473	-1
999.198	1
999.922	0
1000.647	1
1001.371	3
1002.095	-3
1002.82	2
1003.544	-3
1004.268	3
1004.992	1
1005.716	1
1006.439	5
1007.163	3
1007.887	4
1008.611	-1
1009.334	2
1010.058	2
1010.781	2
1011.504	2
1012.228	3
1012.951	1
1013.674	-1
1014.397	0
1015.12	1
