节点500_425_QEPB04081__380__15-54-37-745.txt的数据

Date: Wed Nov 12 15:54:37 CST 2025
User: PC
Spectrometer: QEPB0408
触发模式: 0
积分时间 (秒): 1.000000E-2
Scans to average: 1
启用暗噪声校正: true
启用非线性校正: false
滑动平均宽度: 0
X轴模式: Wavelengths
Number of Pixels in Spectrum: 1044
>>>>>Begin Spectral Data<<<<<
220.843	1.75
221.644	3.75
222.444	5.75
223.244	4.75
224.045	4.75
224.845	2.75
225.645	2.75
226.445	3.75
227.245	4.75
228.045	5.75
228.845	4.75
229.645	5.75
230.444	5.75
231.244	5.75
232.043	5.75
232.843	5.75
233.642	5.75
234.442	6.75
235.241	4.75
236.04	5.75
236.839	8.75
237.638	5.75
238.437	4.75
239.236	6.75
240.035	5.75
240.833	5.75
241.632	5.75
242.43	8.75
243.229	8.75
244.027	8.75
244.826	8.75
245.624	8.75
246.422	7.75
247.22	8.75
248.018	8.75
248.816	9.75
249.614	7.75
250.412	9.75
251.21	10.75
252.007	12.75
252.805	9.75
253.602	11.75
254.4	9.75
255.197	9.75
255.994	14.75
256.791	11.75
257.589	12.75
258.386	13.75
259.183	14.75
259.979	15.75
260.776	11.75
261.573	17.75
262.37	14.75
263.166	14.75
263.963	16.75
264.759	13.75
265.556	17.75
266.352	17.75
267.148	20.75
267.944	20.75
268.74	19.75
269.536	19.75
270.332	20.75
271.128	20.75
271.924	19.75
272.719	20.75
273.515	20.75
274.311	21.75
275.106	23.75
275.901	25.75
276.697	21.75
277.492	22.75
278.287	24.75
279.082	21.75
279.877	21.75
280.672	24.75
281.467	26.75
282.262	22.75
283.056	24.75
283.851	22.75
284.646	24.75
285.44	25.75
286.234	24.75
287.029	24.75
287.823	27.75
288.617	23.75
289.411	21.75
290.205	22.75
290.999	23.75
291.793	24.75
292.587	23.75
293.381	22.75
294.174	19.75
294.968	20.75
295.761	20.75
296.555	22.75
297.348	21.75
298.141	18.75
298.935	19.75
299.728	18.75
300.521	19.75
301.314	18.75
302.107	18.75
302.899	15.75
303.692	17.75
304.485	13.75
305.277	16.75
306.07	16.75
306.862	16.75
307.655	14.75
308.447	13.75
309.239	14.75
310.031	14.75
310.823	15.75
311.615	12.75
312.407	11.75
313.199	10.75
313.991	12.75
314.783	13.75
315.574	11.75
316.366	11.75
317.157	12.75
317.949	9.75
318.74	11.75
319.531	10.75
320.322	8.75
321.113	10.75
321.904	11.75
322.695	9.75
323.486	7.75
324.277	12.75
325.068	12.75
325.858	9.75
326.649	10.75
327.439	11.75
328.23	10.75
329.02	7.75
329.81	9.75
330.6	8.75
331.391	8.75
332.181	10.75
332.971	7.75
333.76	9.75
334.55	8.75
335.34	8.75
336.13	10.75
336.919	7.75
337.709	9.75
338.498	9.75
339.287	8.75
340.077	8.75
340.866	8.75
341.655	7.75
342.444	7.75
343.233	10.75
344.022	10.75
344.811	10.75
345.6	8.75
346.388	7.75
347.177	8.75
347.965	7.75
348.754	9.75
349.542	9.75
350.33	7.75
351.119	8.75
351.907	6.75
352.695	8.75
353.483	8.75
354.271	9.75
355.059	8.75
355.846	8.75
356.634	8.75
357.422	7.75
358.209	7.75
358.997	6.75
359.784	7.75
360.571	5.75
361.359	8.75
362.146	9.75
362.933	8.75
363.72	6.75
364.507	8.75
365.294	10.75
366.081	6.75
366.867	7.75
367.654	8.75
368.44	8.75
369.227	7.75
370.013	7.75
370.8	5.75
371.586	7.75
372.372	7.75
373.158	6.75
373.944	9.75
374.73	5.75
375.516	6.75
376.302	7.75
377.088	5.75
377.873	7.75
378.659	5.75
379.445	7.75
380.23	2.75
381.015	10.75
381.801	6.75
382.586	6.75
383.371	9.75
384.156	7.75
384.941	7.75
385.726	9.75
386.511	6.75
387.296	8.75
388.08	7.75
388.865	8.75
389.649	8.75
390.434	8.75
391.218	8.75
392.003	6.75
392.787	6.75
393.571	7.75
394.355	8.75
395.139	9.75
395.923	6.75
396.707	9.75
397.491	9.75
398.274	9.75
399.058	9.75
399.842	8.75
400.625	10.75
401.408	12.75
402.192	11.75
402.975	8.75
403.758	9.75
404.541	10.75
405.324	10.75
406.107	12.75
406.89	10.75
407.673	8.75
408.456	9.75
409.238	12.75
410.021	11.75
410.803	12.75
411.586	12.75
412.368	8.75
413.151	13.75
413.933	10.75
414.715	12.75
415.497	12.75
416.279	12.75
417.061	13.75
417.843	12.75
418.624	13.75
419.406	14.75
420.188	14.75
420.969	15.75
421.751	13.75
422.532	17.75
423.313	14.75
424.095	15.75
424.876	14.75
425.657	16.75
426.438	16.75
427.219	19.75
428	19.75
428.78	17.75
429.561	19.75
430.342	20.75
431.122	17.75
431.903	20.75
432.683	19.75
433.464	22.75
434.244	22.75
435.024	24.75
435.804	27.75
436.584	28.75
437.364	27.75
438.144	26.75
438.924	26.75
439.704	35.75
440.483	33.75
441.263	35.75
442.042	37.75
442.822	42.75
443.601	44.75
444.38	48.75
445.16	49.75
445.939	52.75
446.718	58.75
447.497	62.75
448.276	68.75
449.054	72.75
449.833	79.75
450.612	86.75
451.391	92.75
452.169	105.75
452.948	113.75
453.726	126.75
454.504	141.75
455.282	159.75
456.061	172.75
456.839	194.75
457.617	211.75
458.395	234.75
459.172	264.75
459.95	304.75
460.728	325.75
461.506	368.75
462.283	405.75
463.061	456.75
463.838	509.75
464.615	568.75
465.393	629.75
466.17	697.75
466.947	776.75
467.724	860.75
468.501	970.75
469.278	1076.75
470.055	1181.75
470.831	1309.75
471.608	1439.75
472.385	1589.75
473.161	1768.75
473.938	1961.75
474.714	2168.75
475.49	2383.75
476.266	2582.75
477.043	2871.75
477.819	3158.75
478.595	3474.75
479.371	3797.75
480.146	4155.75
480.922	4572.75
481.698	5041.75
482.473	5488.75
483.249	5967.75
484.024	6528.75
484.8	7176.75
485.575	7736.75
486.35	8461.75
487.126	9196.75
487.901	10040.75
488.676	10925.75
489.451	11847.75
490.225	12874.75
491	13933.75
491.775	15022.75
492.55	16236.75
493.324	17451.75
494.099	18734.75
494.873	20005.75
495.647	21266.75
496.422	22634.75
497.196	23996.75
497.97	25542.75
498.744	26854.75
499.518	28211.75
500.292	29409.75
501.066	30473.75
501.839	31625.75
502.613	32551.75
503.387	33213.75
504.16	33926.75
504.934	34236.75
505.707	34361.75
506.48	34403.75
507.253	34196.75
508.027	33906.75
508.8	33438.75
509.573	32851.75
510.346	32089.75
511.118	31219.75
511.891	30372.75
512.664	29290.75
513.437	28212.75
514.209	27085.75
514.982	26121.75
515.754	25122.75
516.526	24021.75
517.298	23072.75
518.071	22163.75
518.843	21180.75
519.615	20289.75
520.387	19483.75
521.159	18791.75
521.93	18079.75
522.702	17334.75
523.474	16687.75
524.245	16022.75
525.017	15260.75
525.788	14619.75
526.56	13942.75
527.331	13312.75
528.102	12695.75
528.873	12148.75
529.644	11532.75
530.415	11030.75
531.186	10529.75
531.957	9970.75
532.728	9411.75
533.498	8955.75
534.269	8444.75
535.039	7972.75
535.81	7557.75
536.58	7117.75
537.351	6750.75
538.121	6352.75
538.891	6032.75
539.661	5710.75
540.431	5407.75
541.201	5123.75
541.971	4868.75
542.741	4641.75
543.51	4399.75
544.28	4158.75
545.05	3990.75
545.819	3756.75
546.588	3607.75
547.358	3405.75
548.127	3217.75
548.896	3048.75
549.665	2897.75
550.434	2761.75
551.203	2597.75
551.972	2500.75
552.741	2346.75
553.51	2222.75
554.278	2094.75
555.047	1983.75
555.815	1865.75
556.584	1772.75
557.352	1671.75
558.121	1571.75
558.889	1492.75
559.657	1412.75
560.425	1327.75
561.193	1234.75
561.961	1188.75
562.729	1126.75
563.496	1079.75
564.264	1005.75
565.032	935.75
565.799	907.75
566.567	850.75
567.334	800.75
568.101	763.75
568.869	725.75
569.636	682.75
570.403	637.75
571.17	598.75
571.937	576.75
572.704	536.75
573.471	512.75
574.237	472.75
575.004	443.75
575.771	424.75
576.537	391.75
577.303	377.75
578.07	351.75
578.836	340.75
579.602	317.75
580.368	304.75
581.134	291.75
581.9	268.75
582.666	261.75
583.432	238.75
584.198	233.75
584.964	223.75
585.729	206.75
586.495	202.75
587.26	182.75
588.025	179.75
588.791	169.75
589.556	160.75
590.321	142.75
591.086	142.75
591.851	135.75
592.616	129.75
593.381	123.75
594.146	113.75
594.911	113.75
595.675	105.75
596.44	99.75
597.204	101.75
597.969	92.75
598.733	87.75
599.497	82.75
600.261	80.75
601.025	73.75
601.79	76.75
602.553	71.75
603.317	68.75
604.081	66.75
604.845	61.75
605.609	57.75
606.372	61.75
607.136	54.75
607.899	56.75
608.662	52.75
609.426	48.75
610.189	50.75
610.952	46.75
611.715	47.75
612.478	40.75
613.241	41.75
614.004	40.75
614.767	38.75
615.529	36.75
616.292	38.75
617.055	35.75
617.817	30.75
618.579	28.75
619.342	30.75
620.104	26.75
620.866	30.75
621.628	30.75
622.39	27.75
623.152	29.75
623.914	22.75
624.676	24.75
625.438	23.75
626.199	23.75
626.961	22.75
627.722	21.75
628.484	22.75
629.245	19.75
630.006	21.75
630.768	17.75
631.529	18.75
632.29	17.75
633.051	18.75
633.812	18.75
634.573	17.75
635.333	16.75
636.094	16.75
636.855	13.75
637.615	18.75
638.376	12.75
639.136	11.75
639.896	13.75
640.657	13.75
641.417	14.75
642.177	12.75
642.937	12.75
643.697	12.75
644.457	12.75
645.216	11.75
645.976	13.75
646.736	10.75
647.495	8.75
648.255	11.75
649.014	10.75
649.774	10.75
650.533	9.75
651.292	8.75
652.051	11.75
652.81	11.75
653.569	7.75
654.328	7.75
655.087	8.75
655.846	9.75
656.604	9.75
657.363	10.75
658.121	8.75
658.88	6.75
659.638	8.75
660.397	5.75
661.155	7.75
661.913	4.75
662.671	7.75
663.429	7.75
664.187	6.75
664.945	8.75
665.703	5.75
666.46	8.75
667.218	6.75
667.976	6.75
668.733	7.75
669.49	4.75
670.248	5.75
671.005	5.75
671.762	6.75
672.519	6.75
673.276	5.75
674.033	7.75
674.79	9.75
675.547	7.75
676.304	4.75
677.06	8.75
677.817	6.75
678.574	7.75
679.33	6.75
680.086	5.75
680.843	7.75
681.599	6.75
682.355	5.75
683.111	6.75
683.867	5.75
684.623	6.75
685.379	8.75
686.135	4.75
686.89	6.75
687.646	4.75
688.402	3.75
689.157	5.75
689.912	5.75
690.668	7.75
691.423	5.75
692.178	4.75
692.933	4.75
693.688	5.75
694.443	5.75
695.198	5.75
695.953	2.75
696.708	5.75
697.462	4.75
698.217	3.75
698.972	7.75
699.726	7.75
700.48	5.75
701.235	4.75
701.989	5.75
702.743	7.75
703.497	6.75
704.251	5.75
705.005	7.75
705.759	4.75
706.513	6.75
707.266	6.75
708.02	4.75
708.774	6.75
709.527	5.75
710.28	4.75
711.034	5.75
711.787	6.75
712.54	5.75
713.293	5.75
714.046	4.75
714.799	5.75
715.552	4.75
716.305	3.75
717.058	4.75
717.81	5.75
718.563	5.75
719.315	4.75
720.068	5.75
720.82	5.75
721.573	6.75
722.325	5.75
723.077	4.75
723.829	7.75
724.581	7.75
725.333	5.75
726.085	6.75
726.836	6.75
727.588	6.75
728.34	5.75
729.091	4.75
729.843	7.75
730.594	5.75
731.346	8.75
732.097	5.75
732.848	4.75
733.599	6.75
734.35	6.75
735.101	6.75
735.852	7.75
736.603	6.75
737.354	8.75
738.104	5.75
738.855	6.75
739.605	6.75
740.356	7.75
741.106	6.75
741.856	5.75
742.607	6.75
743.357	7.75
744.107	8.75
744.857	8.75
745.607	6.75
746.357	7.75
747.106	5.75
747.856	9.75
748.606	7.75
749.355	5.75
750.105	7.75
750.854	5.75
751.603	9.75
752.353	7.75
753.102	5.75
753.851	4.75
754.6	6.75
755.349	10.75
756.098	6.75
756.847	9.75
757.595	9.75
758.344	5.75
759.093	10.75
759.841	7.75
760.589	9.75
761.338	8.75
762.086	10.75
762.834	8.75
763.582	9.75
764.331	9.75
765.079	8.75
765.826	9.75
766.574	8.75
767.322	10.75
768.07	10.75
768.817	10.75
769.565	10.75
770.312	10.75
771.06	10.75
771.807	8.75
772.554	11.75
773.302	9.75
774.049	9.75
774.796	11.75
775.543	9.75
776.29	10.75
777.036	12.75
777.783	10.75
778.53	11.75
779.276	10.75
780.023	9.75
780.769	10.75
781.516	12.75
782.262	14.75
783.008	13.75
783.754	11.75
784.5	9.75
785.246	12.75
785.992	12.75
786.738	10.75
787.484	10.75
788.23	10.75
788.975	9.75
789.721	10.75
790.466	12.75
791.212	12.75
791.957	9.75
792.702	12.75
793.447	9.75
794.193	9.75
794.938	11.75
795.683	8.75
796.427	9.75
797.172	8.75
797.917	8.75
798.662	8.75
799.406	8.75
800.151	10.75
800.895	10.75
801.64	8.75
802.384	7.75
803.128	9.75
803.872	7.75
804.616	10.75
805.36	9.75
806.104	9.75
806.848	8.75
807.592	7.75
808.336	8.75
809.079	9.75
809.823	7.75
810.566	7.75
811.31	7.75
812.053	8.75
812.796	5.75
813.539	5.75
814.283	7.75
815.026	7.75
815.769	9.75
816.511	7.75
817.254	8.75
817.997	6.75
818.74	4.75
819.482	6.75
820.225	4.75
820.967	7.75
821.71	5.75
822.452	5.75
823.194	4.75
823.936	7.75
824.678	5.75
825.42	2.75
826.162	5.75
826.904	5.75
827.646	4.75
828.388	6.75
829.129	2.75
829.871	4.75
830.612	5.75
831.354	5.75
832.095	3.75
832.836	3.75
833.577	6.75
834.319	7.75
835.06	3.75
835.801	4.75
836.542	3.75
837.282	7.75
838.023	4.75
838.764	7.75
839.504	5.75
840.245	4.75
840.985	4.75
841.726	2.75
842.466	5.75
843.206	3.75
843.946	5.75
844.687	3.75
845.427	3.75
846.166	5.75
846.906	3.75
847.646	4.75
848.386	3.75
849.125	5.75
849.865	4.75
850.605	6.75
851.344	5.75
852.083	2.75
852.823	5.75
853.562	1.75
854.301	6.75
855.04	4.75
855.779	0.75
856.518	4.75
857.257	3.75
857.995	3.75
858.734	3.75
859.473	4.75
860.211	2.75
860.95	2.75
861.688	4.75
862.426	0.75
863.165	4.75
863.903	2.75
864.641	3.75
865.379	2.75
866.117	4.75
866.855	3.75
867.593	2.75
868.33	3.75
869.068	4.75
869.806	0.75
870.543	2.75
871.28	1.75
872.018	3.75
872.755	2.75
873.492	1.75
874.229	2.75
874.967	3.75
875.703	0.75
876.44	0.75
877.177	2.75
877.914	2.75
878.651	2.75
879.387	2.75
880.124	2.75
880.86	2.75
881.597	2.75
882.333	1.75
883.069	-1.25
883.806	1.75
884.542	2.75
885.278	1.75
886.014	2.75
886.749	-0.25
887.485	0.75
888.221	1.75
888.957	1.75
889.692	1.75
890.428	0.75
891.163	-0.25
891.899	0.75
892.634	0.75
893.369	4.75
894.104	0.75
894.839	0.75
895.574	1.75
896.309	0.75
897.044	0.75
897.779	2.75
898.514	0.75
899.248	0.75
899.983	1.75
900.717	0.75
901.452	-0.25
902.186	1.75
902.92	1.75
903.654	-0.25
904.389	1.75
905.123	0.75
905.857	0.75
906.59	-1.25
907.324	0.75
908.058	-1.25
908.792	1.75
909.525	1.75
910.259	-0.25
910.992	1.75
911.726	2.75
912.459	1.75
913.192	-0.25
913.925	0.75
914.658	1.75
915.391	0.75
916.124	2.75
916.857	0.75
917.59	1.75
918.323	1.75
919.055	1.75
919.788	0.75
920.521	2.75
921.253	0.75
921.985	0.75
922.718	0.75
923.45	0.75
924.182	1.75
924.914	2.75
925.646	0.75
926.378	-0.25
927.11	1.75
927.841	-1.25
928.573	1.75
929.305	0.75
930.036	1.75
930.768	0.75
931.499	0.75
932.23	0.75
932.962	2.75
933.693	2.75
934.424	1.75
935.155	0.75
935.886	1.75
936.617	-0.25
937.348	1.75
938.078	-0.25
938.809	4.75
939.54	-1.25
940.27	0.75
941.001	0.75
941.731	-0.25
942.461	0.75
943.191	0.75
943.922	-0.25
944.652	0.75
945.382	0.75
946.112	3.75
946.841	-1.25
947.571	0.75
948.301	-0.25
949.031	0.75
949.76	1.75
950.49	0.75
951.219	-1.25
951.948	-0.25
952.678	0.75
953.407	2.75
954.136	1.75
954.865	1.75
955.594	0.75
956.323	1.75
957.052	0.75
957.78	-1.25
958.509	-0.25
959.238	-0.25
959.966	-0.25
960.695	1.75
961.423	1.75
962.151	-0.25
962.88	0.75
963.608	0.75
964.336	-0.25
965.064	0.75
965.792	1.75
966.52	-0.25
967.247	-0.25
967.975	-1.25
968.703	-3.25
969.43	2.75
970.158	2.75
970.885	0.75
971.613	-0.25
972.34	-0.25
973.067	-1.25
973.794	1.75
974.521	-1.25
975.248	2.75
975.975	0.75
976.702	1.75
977.429	1.75
978.156	2.75
978.882	2.75
979.609	0.75
980.335	-0.25
981.062	0.75
981.788	-0.25
982.514	0.75
983.24	0.75
983.967	-0.25
984.693	1.75
985.419	-0.25
986.144	0.75
986.87	-0.25
987.596	1.75
988.322	-0.25
989.047	1.75
989.773	2.75
990.498	0.75
991.224	-0.25
991.949	1.75
992.674	-0.25
993.399	2.75
994.124	0.75
994.849	3.75
995.574	-0.25
996.299	2.75
997.024	1.75
997.749	1.75
998.473	-0.25
999.198	0.75
999.922	1.75
1000.647	0.75
1001.371	5.75
1002.095	-1.25
1002.82	-0.25
1003.544	-3.25
1004.268	2.75
1004.992	-0.25
1005.716	5.75
1006.439	2.75
1007.163	3.75
1007.887	3.75
1008.611	-0.25
1009.334	0.75
1010.058	-1.25
1010.781	2.75
1011.504	0.75
1012.228	1.75
1012.951	-1.25
1013.674	-0.25
1014.397	-1.25
1015.12	1.75
