节点500_425_QEPB04081__291__15-53-08-930.txt的数据

Date: Wed Nov 12 15:53:08 CST 2025
User: PC
Spectrometer: QEPB0408
触发模式: 0
积分时间 (秒): 1.000000E-2
Scans to average: 1
启用暗噪声校正: true
启用非线性校正: false
滑动平均宽度: 0
X轴模式: Wavelengths
Number of Pixels in Spectrum: 1044
>>>>>Begin Spectral Data<<<<<
220.843	4
221.644	4
222.444	4
223.244	3
224.045	5
224.845	4
225.645	5
226.445	6
227.245	6
228.045	5
228.845	5
229.645	6
230.444	6
231.244	6
232.043	5
232.843	5
233.642	6
234.442	6
235.241	6
236.04	6
236.839	7
237.638	4
238.437	8
239.236	9
240.035	8
240.833	6
241.632	9
242.43	8
243.229	10
244.027	8
244.826	6
245.624	9
246.422	8
247.22	10
248.018	10
248.816	9
249.614	9
250.412	11
251.21	10
252.007	13
252.805	13
253.602	11
254.4	11
255.197	13
255.994	13
256.791	13
257.589	14
258.386	14
259.183	15
259.979	14
260.776	14
261.573	16
262.37	16
263.166	17
263.963	16
264.759	16
265.556	18
266.352	18
267.148	19
267.944	17
268.74	22
269.536	21
270.332	21
271.128	22
271.924	21
272.719	25
273.515	24
274.311	24
275.106	25
275.901	23
276.697	22
277.492	26
278.287	22
279.082	24
279.877	27
280.672	26
281.467	23
282.262	26
283.056	26
283.851	27
284.646	25
285.44	24
286.234	24
287.029	22
287.823	26
288.617	27
289.411	24
290.205	24
290.999	23
291.793	24
292.587	23
293.381	28
294.174	24
294.968	21
295.761	21
296.555	18
297.348	20
298.141	19
298.935	23
299.728	20
300.521	22
301.314	18
302.107	18
302.899	18
303.692	20
304.485	18
305.277	19
306.07	15
306.862	18
307.655	14
308.447	19
309.239	14
310.031	16
310.823	16
311.615	15
312.407	13
313.199	15
313.991	11
314.783	15
315.574	12
316.366	14
317.157	12
317.949	15
318.74	11
319.531	12
320.322	13
321.113	9
321.904	12
322.695	10
323.486	9
324.277	10
325.068	8
325.858	13
326.649	9
327.439	10
328.23	9
329.02	9
329.81	9
330.6	8
331.391	12
332.181	9
332.971	10
333.76	10
334.55	10
335.34	11
336.13	8
336.919	10
337.709	10
338.498	10
339.287	6
340.077	8
340.866	9
341.655	10
342.444	8
343.233	7
344.022	10
344.811	11
345.6	8
346.388	10
347.177	8
347.965	10
348.754	9
349.542	7
350.33	11
351.119	8
351.907	10
352.695	11
353.483	9
354.271	9
355.059	8
355.846	8
356.634	7
357.422	9
358.209	8
358.997	5
359.784	9
360.571	7
361.359	9
362.146	7
362.933	8
363.72	8
364.507	8
365.294	7
366.081	5
366.867	9
367.654	8
368.44	8
369.227	9
370.013	4
370.8	7
371.586	6
372.372	7
373.158	8
373.944	7
374.73	7
375.516	9
376.302	7
377.088	7
377.873	7
378.659	8
379.445	7
380.23	7
381.015	8
381.801	10
382.586	9
383.371	10
384.156	7
384.941	9
385.726	6
386.511	8
387.296	9
388.08	10
388.865	7
389.649	8
390.434	10
391.218	8
392.003	11
392.787	8
393.571	7
394.355	9
395.139	10
395.923	8
396.707	9
397.491	10
398.274	9
399.058	9
399.842	10
400.625	11
401.408	8
402.192	10
402.975	9
403.758	10
404.541	9
405.324	10
406.107	12
406.89	15
407.673	9
408.456	11
409.238	11
410.021	9
410.803	14
411.586	13
412.368	14
413.151	15
413.933	13
414.715	14
415.497	15
416.279	13
417.061	14
417.843	11
418.624	14
419.406	9
420.188	15
420.969	16
421.751	13
422.532	19
423.313	13
424.095	14
424.876	14
425.657	18
426.438	18
427.219	18
428	17
428.78	18
429.561	22
430.342	22
431.122	21
431.903	24
432.683	21
433.464	22
434.244	23
435.024	27
435.804	25
436.584	28
437.364	30
438.144	31
438.924	34
439.704	33
440.483	35
441.263	35
442.042	40
442.822	38
443.601	41
444.38	46
445.16	48
445.939	50
446.718	59
447.497	63
448.276	67
449.054	73
449.833	82
450.612	83
451.391	96
452.169	107
452.948	114
453.726	125
454.504	132
455.282	155
456.061	168
456.839	186
457.617	210
458.395	232
459.172	258
459.95	286
460.728	321
461.506	359
462.283	397
463.061	447
463.838	496
464.615	554
465.393	613
466.17	697
466.947	768
467.724	856
468.501	962
469.278	1047
470.055	1172
470.831	1296
471.608	1444
472.385	1597
473.161	1765
473.938	1951
474.714	2142
475.49	2371
476.266	2623
477.043	2876
477.819	3195
478.595	3504
479.371	3878
480.146	4214
480.922	4649
481.698	5101
482.473	5578
483.249	6101
484.024	6651
484.8	7323
485.575	7996
486.35	8691
487.126	9510
487.901	10360
488.676	11326
489.451	12294
490.225	13380
491	14440
491.775	15685
492.55	16928
493.324	18231
494.099	19475
494.873	20841
495.647	22287
496.422	23679
497.196	25120
497.97	26636
498.744	28038
499.518	29454
500.292	30624
501.066	31755
501.839	32833
502.613	33740
503.387	34402
504.16	34975
504.934	35301
505.707	35320
506.48	35274
507.253	34989
508.027	34560
508.8	33988
509.573	33305
510.346	32448
511.118	31443
511.891	30497
512.664	29370
513.437	28262
514.209	27116
514.982	26121
515.754	25032
516.526	23969
517.298	23015
518.071	21958
518.843	21121
519.615	20191
520.387	19406
521.159	18718
521.93	17962
522.702	17247
523.474	16614
524.245	15890
525.017	15144
525.788	14456
526.56	13822
527.331	13207
528.102	12645
528.873	12007
529.644	11411
530.415	10910
531.186	10360
531.957	9846
532.728	9298
533.498	8807
534.269	8303
535.039	7897
535.81	7405
536.58	7007
537.351	6627
538.121	6254
538.891	5916
539.661	5612
540.431	5336
541.201	5048
541.971	4765
542.741	4524
543.51	4318
544.28	4061
545.05	3883
545.819	3705
546.588	3526
547.358	3330
548.127	3166
548.896	3004
549.665	2855
550.434	2716
551.203	2584
551.972	2441
552.741	2302
553.51	2169
554.278	2062
555.047	1920
555.815	1819
556.584	1733
557.352	1619
558.121	1535
558.889	1441
559.657	1363
560.425	1313
561.193	1226
561.961	1174
562.729	1097
563.496	1047
564.264	974
565.032	930
565.799	885
566.567	826
567.334	784
568.101	735
568.869	699
569.636	662
570.403	625
571.17	590
571.937	557
572.704	525
573.471	505
574.237	465
575.004	440
575.771	407
576.537	389
577.303	369
578.07	352
578.836	323
579.602	304
580.368	295
581.134	281
581.9	267
582.666	243
583.432	240
584.198	223
584.964	212
585.729	203
586.495	193
587.26	182
588.025	171
588.791	164
589.556	158
590.321	149
591.086	141
591.851	133
592.616	130
593.381	117
594.146	113
594.911	111
595.675	105
596.44	103
597.204	98
597.969	89
598.733	87
599.497	89
600.261	81
601.025	78
601.79	75
602.553	71
603.317	64
604.081	62
604.845	62
605.609	60
606.372	55
607.136	53
607.899	55
608.662	49
609.426	46
610.189	47
610.952	40
611.715	43
612.478	43
613.241	43
614.004	41
614.767	37
615.529	38
616.292	35
617.055	34
617.817	34
618.579	34
619.342	29
620.104	30
620.866	31
621.628	27
622.39	25
623.152	25
623.914	27
624.676	25
625.438	23
626.199	22
626.961	22
627.722	21
628.484	21
629.245	21
630.006	19
630.768	17
631.529	17
632.29	18
633.051	16
633.812	16
634.573	15
635.333	19
636.094	15
636.855	15
637.615	14
638.376	17
639.136	13
639.896	13
640.657	16
641.417	14
642.177	11
642.937	13
643.697	13
644.457	14
645.216	13
645.976	10
646.736	13
647.495	12
648.255	11
649.014	11
649.774	12
650.533	9
651.292	9
652.051	10
652.81	11
653.569	8
654.328	10
655.087	9
655.846	9
656.604	9
657.363	10
658.121	9
658.88	9
659.638	10
660.397	10
661.155	12
661.913	9
662.671	9
663.429	9
664.187	8
664.945	9
665.703	8
666.46	10
667.218	7
667.976	9
668.733	8
669.49	8
670.248	8
671.005	7
671.762	8
672.519	6
673.276	9
674.033	7
674.79	5
675.547	8
676.304	6
677.06	8
677.817	5
678.574	7
679.33	6
680.086	7
680.843	7
681.599	7
682.355	6
683.111	7
683.867	7
684.623	7
685.379	7
686.135	9
686.89	6
687.646	7
688.402	5
689.157	5
689.912	6
690.668	5
691.423	5
692.178	7
692.933	7
693.688	7
694.443	5
695.198	3
695.953	4
696.708	7
697.462	5
698.217	6
698.972	5
699.726	6
700.48	3
701.235	4
701.989	8
702.743	5
703.497	4
704.251	4
705.005	5
705.759	7
706.513	4
707.266	4
708.02	7
708.774	5
709.527	6
710.28	6
711.034	6
711.787	7
712.54	3
713.293	5
714.046	3
714.799	4
715.552	4
716.305	3
717.058	3
717.81	4
718.563	3
719.315	6
720.068	6
720.82	7
721.573	6
722.325	8
723.077	5
723.829	7
724.581	5
725.333	5
726.085	5
726.836	5
727.588	5
728.34	6
729.091	8
729.843	8
730.594	5
731.346	5
732.097	6
732.848	6
733.599	5
734.35	6
735.101	8
735.852	6
736.603	10
737.354	6
738.104	6
738.855	6
739.605	8
740.356	9
741.106	7
741.856	8
742.607	8
743.357	8
744.107	8
744.857	10
745.607	7
746.357	9
747.106	9
747.856	7
748.606	7
749.355	7
750.105	7
750.854	10
751.603	7
752.353	10
753.102	8
753.851	9
754.6	7
755.349	8
756.098	8
756.847	9
757.595	8
758.344	9
759.093	9
759.841	10
760.589	8
761.338	11
762.086	9
762.834	11
763.582	12
764.331	9
765.079	9
765.826	11
766.574	9
767.322	9
768.07	10
768.817	12
769.565	12
770.312	11
771.06	8
771.807	11
772.554	12
773.302	11
774.049	11
774.796	9
775.543	14
776.29	11
777.036	12
777.783	13
778.53	13
779.276	13
780.023	15
780.769	13
781.516	10
782.262	9
783.008	11
783.754	10
784.5	13
785.246	12
785.992	13
786.738	13
787.484	11
788.23	13
788.975	14
789.721	13
790.466	12
791.212	12
791.957	13
792.702	12
793.447	9
794.193	11
794.938	11
795.683	11
796.427	12
797.172	10
797.917	11
798.662	12
799.406	11
800.151	8
800.895	9
801.64	11
802.384	9
803.128	9
803.872	9
804.616	9
805.36	10
806.104	10
806.848	7
807.592	7
808.336	8
809.079	6
809.823	10
810.566	9
811.31	7
812.053	9
812.796	5
813.539	8
814.283	5
815.026	7
815.769	8
816.511	6
817.254	5
817.997	3
818.74	7
819.482	6
820.225	5
820.967	4
821.71	6
822.452	6
823.194	3
823.936	8
824.678	7
825.42	7
826.162	7
826.904	5
827.646	7
828.388	9
829.129	6
829.871	5
830.612	5
831.354	6
832.095	5
832.836	6
833.577	6
834.319	7
835.06	4
835.801	5
836.542	6
837.282	7
838.023	7
838.764	5
839.504	5
840.245	6
840.985	3
841.726	8
842.466	4
843.206	3
843.946	1
844.687	5
845.427	6
846.166	5
846.906	5
847.646	4
848.386	3
849.125	2
849.865	4
850.605	3
851.344	3
852.083	5
852.823	4
853.562	3
854.301	4
855.04	2
855.779	6
856.518	2
857.257	3
857.995	3
858.734	2
859.473	4
860.211	1
860.95	3
861.688	5
862.426	4
863.165	5
863.903	3
864.641	4
865.379	4
866.117	4
866.855	3
867.593	2
868.33	2
869.068	3
869.806	1
870.543	3
871.28	2
872.018	1
872.755	2
873.492	3
874.229	4
874.967	2
875.703	2
876.44	1
877.177	2
877.914	1
878.651	1
879.387	0
880.124	2
880.86	3
881.597	2
882.333	2
883.069	3
883.806	1
884.542	3
885.278	2
886.014	1
886.749	2
887.485	3
888.221	2
888.957	1
889.692	1
890.428	2
891.163	1
891.899	4
892.634	0
893.369	4
894.104	0
894.839	1
895.574	2
896.309	3
897.044	2
897.779	3
898.514	2
899.248	0
899.983	3
900.717	3
901.452	4
902.186	3
902.92	3
903.654	2
904.389	2
905.123	1
905.857	-1
906.59	1
907.324	1
908.058	0
908.792	3
909.525	2
910.259	0
910.992	1
911.726	1
912.459	0
913.192	2
913.925	1
914.658	3
915.391	2
916.124	2
916.857	1
917.59	3
918.323	2
919.055	0
919.788	1
920.521	0
921.253	0
921.985	-1
922.718	1
923.45	-1
924.182	-1
924.914	1
925.646	1
926.378	2
927.11	3
927.841	0
928.573	2
929.305	2
930.036	1
930.768	0
931.499	1
932.23	-1
932.962	-1
933.693	0
934.424	1
935.155	4
935.886	1
936.617	-1
937.348	2
938.078	-1
938.809	3
939.54	1
940.27	1
941.001	1
941.731	-1
942.461	1
943.191	4
943.922	2
944.652	2
945.382	-1
946.112	2
946.841	1
947.571	1
948.301	1
949.031	4
949.76	0
950.49	2
951.219	0
951.948	-1
952.678	3
953.407	0
954.136	0
954.865	2
955.594	-1
956.323	0
957.052	-1
957.78	1
958.509	1
959.238	1
959.966	3
960.695	3
961.423	2
962.151	-1
962.88	0
963.608	1
964.336	-2
965.064	0
965.792	0
966.52	1
967.247	3
967.975	0
968.703	2
969.43	0
970.158	0
970.885	1
971.613	1
972.34	1
973.067	2
973.794	3
974.521	2
975.248	2
975.975	2
976.702	1
977.429	2
978.156	2
978.882	1
979.609	-1
980.335	1
981.062	-1
981.788	-1
982.514	2
983.24	1
983.967	0
984.693	1
985.419	1
986.144	3
986.87	-1
987.596	0
988.322	2
989.047	2
989.773	1
990.498	2
991.224	3
991.949	0
992.674	0
993.399	1
994.124	-1
994.849	3
995.574	1
996.299	1
997.024	0
997.749	0
998.473	1
999.198	2
999.922	1
1000.647	1
1001.371	5
1002.095	-3
1002.82	-2
1003.544	1
1004.268	4
1004.992	3
1005.716	2
1006.439	2
1007.163	3
1007.887	3
1008.611	1
1009.334	3
1010.058	-1
1010.781	2
1011.504	2
1012.228	2
1012.951	0
1013.674	0
1014.397	1
1015.12	-2
