节点500_425_QEPB04081__590__15-58-07-427.txt的数据

Date: Wed Nov 12 15:58:07 CST 2025
User: PC
Spectrometer: QEPB0408
触发模式: 0
积分时间 (秒): 1.000000E-2
Scans to average: 1
启用暗噪声校正: true
启用非线性校正: false
滑动平均宽度: 0
X轴模式: Wavelengths
Number of Pixels in Spectrum: 1044
>>>>>Begin Spectral Data<<<<<
220.843	1
221.644	1
222.444	3
223.244	5
224.045	3
224.845	6
225.645	4
226.445	4
227.245	4
228.045	2
228.845	2
229.645	4
230.444	4
231.244	6
232.043	4
232.843	7
233.642	3
234.442	7
235.241	6
236.04	4
236.839	8
237.638	6
238.437	7
239.236	5
240.035	6
240.833	6
241.632	5
242.43	8
243.229	6
244.027	7
244.826	6
245.624	6
246.422	8
247.22	7
248.018	8
248.816	8
249.614	10
250.412	10
251.21	7
252.007	9
252.805	10
253.602	11
254.4	11
255.197	8
255.994	10
256.791	9
257.589	12
258.386	9
259.183	10
259.979	7
260.776	11
261.573	15
262.37	13
263.166	14
263.963	16
264.759	14
265.556	16
266.352	14
267.148	15
267.944	18
268.74	18
269.536	16
270.332	21
271.128	18
271.924	19
272.719	22
273.515	22
274.311	20
275.106	20
275.901	18
276.697	22
277.492	18
278.287	22
279.082	21
279.877	21
280.672	22
281.467	25
282.262	23
283.056	21
283.851	23
284.646	21
285.44	22
286.234	21
287.029	21
287.823	21
288.617	25
289.411	21
290.205	20
290.999	22
291.793	25
292.587	20
293.381	19
294.174	19
294.968	17
295.761	20
296.555	21
297.348	18
298.141	17
298.935	21
299.728	19
300.521	17
301.314	19
302.107	17
302.899	16
303.692	15
304.485	14
305.277	16
306.07	14
306.862	18
307.655	16
308.447	15
309.239	15
310.031	17
310.823	13
311.615	12
312.407	14
313.199	14
313.991	13
314.783	14
315.574	10
316.366	13
317.157	10
317.949	10
318.74	12
319.531	10
320.322	10
321.113	11
321.904	11
322.695	9
323.486	9
324.277	8
325.068	10
325.858	9
326.649	9
327.439	7
328.23	8
329.02	8
329.81	8
330.6	8
331.391	11
332.181	10
332.971	8
333.76	10
334.55	9
335.34	10
336.13	7
336.919	6
337.709	8
338.498	7
339.287	6
340.077	9
340.866	10
341.655	8
342.444	5
343.233	8
344.022	6
344.811	8
345.6	9
346.388	6
347.177	7
347.965	8
348.754	6
349.542	8
350.33	8
351.119	8
351.907	8
352.695	9
353.483	6
354.271	8
355.059	6
355.846	6
356.634	5
357.422	9
358.209	7
358.997	7
359.784	7
360.571	7
361.359	6
362.146	8
362.933	7
363.72	5
364.507	6
365.294	5
366.081	5
366.867	4
367.654	5
368.44	9
369.227	8
370.013	5
370.8	5
371.586	7
372.372	9
373.158	9
373.944	6
374.73	6
375.516	7
376.302	7
377.088	6
377.873	6
378.659	7
379.445	6
380.23	6
381.015	7
381.801	7
382.586	5
383.371	7
384.156	4
384.941	9
385.726	5
386.511	5
387.296	8
388.08	5
388.865	7
389.649	7
390.434	8
391.218	8
392.003	7
392.787	10
393.571	9
394.355	10
395.139	8
395.923	7
396.707	9
397.491	9
398.274	8
399.058	8
399.842	8
400.625	9
401.408	11
402.192	8
402.975	8
403.758	9
404.541	6
405.324	9
406.107	8
406.89	10
407.673	10
408.456	11
409.238	10
410.021	10
410.803	10
411.586	8
412.368	10
413.151	12
413.933	12
414.715	12
415.497	13
416.279	12
417.061	13
417.843	14
418.624	15
419.406	14
420.188	15
420.969	14
421.751	14
422.532	14
423.313	13
424.095	13
424.876	18
425.657	15
426.438	17
427.219	15
428	15
428.78	18
429.561	20
430.342	20
431.122	19
431.903	20
432.683	21
433.464	21
434.244	24
435.024	23
435.804	26
436.584	28
437.364	28
438.144	33
438.924	29
439.704	32
440.483	34
441.263	38
442.042	39
442.822	44
443.601	43
444.38	46
445.16	50
445.939	54
446.718	63
447.497	65
448.276	71
449.054	79
449.833	86
450.612	90
451.391	100
452.169	111
452.948	126
453.726	142
454.504	152
455.282	162
456.061	184
456.839	203
457.617	231
458.395	247
459.172	284
459.95	320
460.728	344
461.506	396
462.283	425
463.061	478
463.838	537
464.615	590
465.393	658
466.17	730
466.947	812
467.724	920
468.501	998
469.278	1102
470.055	1210
470.831	1350
471.608	1468
472.385	1633
473.161	1802
473.938	1985
474.714	2164
475.49	2388
476.266	2605
477.043	2848
477.819	3132
478.595	3411
479.371	3730
480.146	4080
480.922	4447
481.698	4827
482.473	5260
483.249	5729
484.024	6208
484.8	6798
485.575	7352
486.35	7952
487.126	8649
487.901	9353
488.676	10131
489.451	10960
490.225	11838
491	12768
491.775	13806
492.55	14837
493.324	15883
494.099	17020
494.873	18151
495.647	19304
496.422	20566
497.196	21829
497.97	23189
498.744	24363
499.518	25699
500.292	26869
501.066	27924
501.839	29100
502.613	29967
503.387	30799
504.16	31532
504.934	32074
505.707	32383
506.48	32433
507.253	32424
508.027	32439
508.8	32217
509.573	31823
510.346	31225
511.118	30564
511.891	29812
512.664	28945
513.437	28141
514.209	27071
514.982	26190
515.754	25259
516.526	24260
517.298	23272
518.071	22366
518.843	21467
519.615	20634
520.387	19846
521.159	19096
521.93	18350
522.702	17556
523.474	16910
524.245	16276
525.017	15569
525.788	14907
526.56	14218
527.331	13610
528.102	12971
528.873	12466
529.644	11835
530.415	11349
531.186	10842
531.957	10306
532.728	9814
533.498	9242
534.269	8738
535.039	8330
535.81	7908
536.58	7456
537.351	7019
538.121	6660
538.891	6333
539.661	5968
540.431	5668
541.201	5354
541.971	5082
542.741	4839
543.51	4593
544.28	4370
545.05	4159
545.819	3953
546.588	3756
547.358	3550
548.127	3384
548.896	3208
549.665	3067
550.434	2933
551.203	2760
551.972	2596
552.741	2468
553.51	2352
554.278	2210
555.047	2107
555.815	1983
556.584	1868
557.352	1755
558.121	1652
558.889	1589
559.657	1492
560.425	1414
561.193	1314
561.961	1268
562.729	1199
563.496	1127
564.264	1064
565.032	1018
565.799	948
566.567	901
567.334	848
568.101	806
568.869	756
569.636	719
570.403	673
571.17	628
571.937	597
572.704	569
573.471	536
574.237	498
575.004	466
575.771	449
576.537	426
577.303	395
578.07	379
578.836	359
579.602	334
580.368	322
581.134	306
581.9	290
582.666	276
583.432	263
584.198	244
584.964	228
585.729	217
586.495	204
587.26	198
588.025	185
588.791	178
589.556	168
590.321	163
591.086	154
591.851	143
592.616	135
593.381	131
594.146	125
594.911	122
595.675	113
596.44	109
597.204	98
597.969	100
598.733	94
599.497	90
600.261	87
601.025	80
601.79	77
602.553	76
603.317	67
604.081	68
604.845	64
605.609	62
606.372	65
607.136	58
607.899	52
608.662	55
609.426	50
610.189	53
610.952	48
611.715	43
612.478	41
613.241	44
614.004	41
614.767	39
615.529	37
616.292	39
617.055	35
617.817	36
618.579	32
619.342	35
620.104	28
620.866	29
621.628	29
622.39	28
623.152	28
623.914	24
624.676	27
625.438	22
626.199	24
626.961	23
627.722	21
628.484	23
629.245	19
630.006	20
630.768	19
631.529	20
632.29	17
633.051	17
633.812	20
634.573	16
635.333	17
636.094	16
636.855	15
637.615	18
638.376	13
639.136	15
639.896	14
640.657	14
641.417	13
642.177	13
642.937	12
643.697	10
644.457	11
645.216	13
645.976	11
646.736	10
647.495	12
648.255	9
649.014	12
649.774	12
650.533	8
651.292	8
652.051	10
652.81	9
653.569	9
654.328	8
655.087	7
655.846	12
656.604	10
657.363	8
658.121	9
658.88	7
659.638	7
660.397	7
661.155	8
661.913	7
662.671	7
663.429	10
664.187	6
664.945	7
665.703	7
666.46	6
667.218	5
667.976	7
668.733	10
669.49	7
670.248	7
671.005	5
671.762	5
672.519	7
673.276	7
674.033	7
674.79	5
675.547	5
676.304	8
677.06	5
677.817	7
678.574	6
679.33	6
680.086	5
680.843	6
681.599	6
682.355	5
683.111	6
683.867	6
684.623	5
685.379	7
686.135	4
686.89	7
687.646	4
688.402	4
689.157	8
689.912	5
690.668	4
691.423	6
692.178	6
692.933	4
693.688	5
694.443	6
695.198	6
695.953	5
696.708	5
697.462	4
698.217	5
698.972	3
699.726	5
700.48	5
701.235	5
701.989	4
702.743	6
703.497	4
704.251	5
705.005	7
705.759	4
706.513	7
707.266	5
708.02	4
708.774	6
709.527	5
710.28	4
711.034	3
711.787	4
712.54	6
713.293	3
714.046	6
714.799	5
715.552	3
716.305	1
717.058	4
717.81	4
718.563	6
719.315	6
720.068	3
720.82	5
721.573	6
722.325	7
723.077	6
723.829	4
724.581	5
725.333	7
726.085	3
726.836	5
727.588	4
728.34	5
729.091	5
729.843	5
730.594	6
731.346	6
732.097	4
732.848	4
733.599	5
734.35	5
735.101	6
735.852	3
736.603	6
737.354	5
738.104	4
738.855	6
739.605	6
740.356	7
741.106	5
741.856	4
742.607	7
743.357	5
744.107	8
744.857	6
745.607	6
746.357	7
747.106	6
747.856	7
748.606	5
749.355	4
750.105	4
750.854	6
751.603	5
752.353	7
753.102	7
753.851	8
754.6	4
755.349	9
756.098	7
756.847	8
757.595	8
758.344	5
759.093	9
759.841	8
760.589	8
761.338	7
762.086	6
762.834	6
763.582	6
764.331	10
765.079	7
765.826	9
766.574	10
767.322	8
768.07	9
768.817	7
769.565	11
770.312	8
771.06	10
771.807	9
772.554	8
773.302	11
774.049	9
774.796	9
775.543	8
776.29	7
777.036	11
777.783	11
778.53	10
779.276	10
780.023	10
780.769	10
781.516	13
782.262	13
783.008	8
783.754	12
784.5	10
785.246	9
785.992	8
786.738	10
787.484	11
788.23	11
788.975	9
789.721	6
790.466	13
791.212	11
791.957	13
792.702	12
793.447	9
794.193	7
794.938	9
795.683	11
796.427	13
797.172	10
797.917	10
798.662	6
799.406	8
800.151	7
800.895	10
801.64	8
802.384	8
803.128	9
803.872	9
804.616	8
805.36	4
806.104	8
806.848	7
807.592	10
808.336	9
809.079	8
809.823	5
810.566	9
811.31	8
812.053	6
812.796	7
813.539	7
814.283	7
815.026	6
815.769	8
816.511	7
817.254	7
817.997	8
818.74	6
819.482	7
820.225	7
820.967	6
821.71	5
822.452	4
823.194	5
823.936	6
824.678	8
825.42	4
826.162	5
826.904	4
827.646	3
828.388	5
829.129	4
829.871	4
830.612	6
831.354	6
832.095	4
832.836	3
833.577	4
834.319	5
835.06	6
835.801	3
836.542	2
837.282	7
838.023	1
838.764	4
839.504	6
840.245	3
840.985	5
841.726	4
842.466	1
843.206	3
843.946	6
844.687	5
845.427	4
846.166	4
846.906	2
847.646	5
848.386	2
849.125	2
849.865	6
850.605	3
851.344	3
852.083	2
852.823	2
853.562	2
854.301	1
855.04	4
855.779	3
856.518	2
857.257	4
857.995	3
858.734	2
859.473	1
860.211	1
860.95	3
861.688	4
862.426	3
863.165	2
863.903	3
864.641	1
865.379	5
866.117	2
866.855	3
867.593	3
868.33	2
869.068	1
869.806	4
870.543	4
871.28	3
872.018	1
872.755	2
873.492	1
874.229	5
874.967	2
875.703	2
876.44	3
877.177	2
877.914	2
878.651	2
879.387	-2
880.124	1
880.86	3
881.597	0
882.333	1
883.069	-1
883.806	0
884.542	2
885.278	2
886.014	0
886.749	3
887.485	2
888.221	1
888.957	1
889.692	1
890.428	2
891.163	0
891.899	0
892.634	3
893.369	-1
894.104	3
894.839	0
895.574	0
896.309	2
897.044	1
897.779	2
898.514	1
899.248	1
899.983	1
900.717	2
901.452	0
902.186	1
902.92	0
903.654	-1
904.389	1
905.123	1
905.857	1
906.59	1
907.324	-2
908.058	1
908.792	0
909.525	0
910.259	0
910.992	1
911.726	1
912.459	0
913.192	2
913.925	0
914.658	-2
915.391	0
916.124	0
916.857	2
917.59	-2
918.323	1
919.055	0
919.788	2
920.521	0
921.253	-2
921.985	1
922.718	2
923.45	1
924.182	2
924.914	-1
925.646	0
926.378	1
927.11	2
927.841	0
928.573	0
929.305	-1
930.036	0
930.768	-1
931.499	1
932.23	0
932.962	1
933.693	-1
934.424	1
935.155	-3
935.886	-1
936.617	1
937.348	1
938.078	0
938.809	-2
939.54	-1
940.27	2
941.001	-1
941.731	3
942.461	0
943.191	-1
943.922	-1
944.652	1
945.382	0
946.112	1
946.841	-1
947.571	-2
948.301	0
949.031	0
949.76	-1
950.49	0
951.219	-1
951.948	-1
952.678	0
953.407	2
954.136	-1
954.865	1
955.594	-2
956.323	-2
957.052	1
957.78	-1
958.509	-2
959.238	-2
959.966	1
960.695	0
961.423	-2
962.151	2
962.88	-1
963.608	2
964.336	-1
965.064	2
965.792	0
966.52	1
967.247	-4
967.975	0
968.703	2
969.43	0
970.158	0
970.885	1
971.613	0
972.34	0
973.067	1
973.794	-1
974.521	0
975.248	-1
975.975	0
976.702	2
977.429	0
978.156	0
978.882	-2
979.609	0
980.335	1
981.062	1
981.788	0
982.514	0
983.24	0
983.967	-2
984.693	-1
985.419	0
986.144	-1
986.87	1
987.596	-1
988.322	0
989.047	0
989.773	1
990.498	-2
991.224	2
991.949	2
992.674	-2
993.399	0
994.124	0
994.849	1
995.574	-2
996.299	0
997.024	0
997.749	0
998.473	0
999.198	1
999.922	-1
1000.647	1
1001.371	2
1002.095	-1
1002.82	-1
1003.544	-1
1004.268	2
1004.992	0
1005.716	4
1006.439	0
1007.163	5
1007.887	2
1008.611	1
1009.334	0
1010.058	0
1010.781	0
1011.504	0
1012.228	1
1012.951	2
1013.674	0
1014.397	-1
1015.12	0
