节点500_425_QEPB04081__198__15-51-36-090.txt的数据

Date: Wed Nov 12 15:51:36 CST 2025
User: PC
Spectrometer: QEPB0408
触发模式: 0
积分时间 (秒): 1.000000E-2
Scans to average: 1
启用暗噪声校正: true
启用非线性校正: false
滑动平均宽度: 0
X轴模式: Wavelengths
Number of Pixels in Spectrum: 1044
>>>>>Begin Spectral Data<<<<<
220.843	1.75
221.644	1.75
222.444	1.75
223.244	3.75
224.045	3.75
224.845	3.75
225.645	0.75
226.445	1.75
227.245	3.75
228.045	1.75
228.845	5.75
229.645	4.75
230.444	3.75
231.244	5.75
232.043	3.75
232.843	5.75
233.642	5.75
234.442	4.75
235.241	5.75
236.04	3.75
236.839	4.75
237.638	3.75
238.437	5.75
239.236	6.75
240.035	6.75
240.833	5.75
241.632	6.75
242.43	7.75
243.229	7.75
244.027	6.75
244.826	5.75
245.624	7.75
246.422	5.75
247.22	7.75
248.018	10.75
248.816	11.75
249.614	6.75
250.412	8.75
251.21	9.75
252.007	9.75
252.805	10.75
253.602	11.75
254.4	9.75
255.197	9.75
255.994	11.75
256.791	8.75
257.589	13.75
258.386	13.75
259.183	13.75
259.979	12.75
260.776	12.75
261.573	13.75
262.37	14.75
263.166	15.75
263.963	15.75
264.759	18.75
265.556	17.75
266.352	18.75
267.148	19.75
267.944	19.75
268.74	19.75
269.536	19.75
270.332	19.75
271.128	21.75
271.924	21.75
272.719	24.75
273.515	19.75
274.311	21.75
275.106	23.75
275.901	23.75
276.697	25.75
277.492	23.75
278.287	24.75
279.082	23.75
279.877	25.75
280.672	25.75
281.467	22.75
282.262	23.75
283.056	23.75
283.851	22.75
284.646	24.75
285.44	24.75
286.234	25.75
287.029	24.75
287.823	23.75
288.617	25.75
289.411	24.75
290.205	23.75
290.999	21.75
291.793	24.75
292.587	24.75
293.381	21.75
294.174	23.75
294.968	20.75
295.761	20.75
296.555	20.75
297.348	21.75
298.141	21.75
298.935	21.75
299.728	17.75
300.521	17.75
301.314	17.75
302.107	17.75
302.899	14.75
303.692	15.75
304.485	13.75
305.277	16.75
306.07	12.75
306.862	15.75
307.655	12.75
308.447	11.75
309.239	15.75
310.031	13.75
310.823	13.75
311.615	11.75
312.407	13.75
313.199	14.75
313.991	10.75
314.783	15.75
315.574	12.75
316.366	11.75
317.157	12.75
317.949	10.75
318.74	10.75
319.531	10.75
320.322	9.75
321.113	7.75
321.904	7.75
322.695	10.75
323.486	8.75
324.277	9.75
325.068	9.75
325.858	11.75
326.649	8.75
327.439	8.75
328.23	6.75
329.02	7.75
329.81	9.75
330.6	6.75
331.391	9.75
332.181	8.75
332.971	8.75
333.76	8.75
334.55	9.75
335.34	6.75
336.13	5.75
336.919	9.75
337.709	4.75
338.498	7.75
339.287	9.75
340.077	7.75
340.866	8.75
341.655	8.75
342.444	9.75
343.233	10.75
344.022	7.75
344.811	7.75
345.6	5.75
346.388	6.75
347.177	6.75
347.965	8.75
348.754	7.75
349.542	5.75
350.33	9.75
351.119	7.75
351.907	3.75
352.695	8.75
353.483	10.75
354.271	9.75
355.059	8.75
355.846	6.75
356.634	7.75
357.422	7.75
358.209	7.75
358.997	6.75
359.784	6.75
360.571	4.75
361.359	4.75
362.146	7.75
362.933	5.75
363.72	4.75
364.507	5.75
365.294	4.75
366.081	4.75
366.867	5.75
367.654	6.75
368.44	5.75
369.227	8.75
370.013	4.75
370.8	5.75
371.586	5.75
372.372	6.75
373.158	7.75
373.944	5.75
374.73	5.75
375.516	7.75
376.302	6.75
377.088	6.75
377.873	7.75
378.659	6.75
379.445	5.75
380.23	6.75
381.015	6.75
381.801	5.75
382.586	7.75
383.371	6.75
384.156	6.75
384.941	5.75
385.726	8.75
386.511	7.75
387.296	8.75
388.08	7.75
388.865	8.75
389.649	6.75
390.434	7.75
391.218	7.75
392.003	8.75
392.787	7.75
393.571	7.75
394.355	9.75
395.139	10.75
395.923	8.75
396.707	7.75
397.491	7.75
398.274	8.75
399.058	8.75
399.842	7.75
400.625	8.75
401.408	10.75
402.192	9.75
402.975	8.75
403.758	9.75
404.541	10.75
405.324	10.75
406.107	9.75
406.89	12.75
407.673	10.75
408.456	9.75
409.238	9.75
410.021	10.75
410.803	9.75
411.586	15.75
412.368	11.75
413.151	14.75
413.933	9.75
414.715	12.75
415.497	11.75
416.279	10.75
417.061	11.75
417.843	10.75
418.624	11.75
419.406	13.75
420.188	11.75
420.969	13.75
421.751	17.75
422.532	14.75
423.313	17.75
424.095	17.75
424.876	15.75
425.657	17.75
426.438	17.75
427.219	17.75
428	19.75
428.78	17.75
429.561	17.75
430.342	20.75
431.122	18.75
431.903	21.75
432.683	20.75
433.464	21.75
434.244	22.75
435.024	23.75
435.804	26.75
436.584	25.75
437.364	24.75
438.144	27.75
438.924	29.75
439.704	31.75
440.483	33.75
441.263	34.75
442.042	35.75
442.822	43.75
443.601	37.75
444.38	44.75
445.16	46.75
445.939	52.75
446.718	57.75
447.497	57.75
448.276	64.75
449.054	70.75
449.833	77.75
450.612	79.75
451.391	84.75
452.169	102.75
452.948	109.75
453.726	116.75
454.504	134.75
455.282	144.75
456.061	167.75
456.839	177.75
457.617	203.75
458.395	225.75
459.172	248.75
459.95	280.75
460.728	311.75
461.506	343.75
462.283	380.75
463.061	440.75
463.838	492.75
464.615	551.75
465.393	598.75
466.17	672.75
466.947	745.75
467.724	842.75
468.501	930.75
469.278	1046.75
470.055	1153.75
470.831	1279.75
471.608	1415.75
472.385	1569.75
473.161	1755.75
473.938	1933.75
474.714	2163.75
475.49	2369.75
476.266	2605.75
477.043	2899.75
477.819	3203.75
478.595	3534.75
479.371	3879.75
480.146	4266.75
480.922	4695.75
481.698	5179.75
482.473	5663.75
483.249	6223.75
484.024	6831.75
484.8	7480.75
485.575	8185.75
486.35	8918.75
487.126	9783.75
487.901	10650.75
488.676	11663.75
489.451	12684.75
490.225	13754.75
491	14977.75
491.775	16324.75
492.55	17546.75
493.324	18945.75
494.099	20278.75
494.873	21631.75
495.647	23163.75
496.422	24694.75
497.196	26121.75
497.97	27719.75
498.744	29045.75
499.518	30423.75
500.292	31719.75
501.066	32797.75
501.839	33919.75
502.613	34833.75
503.387	35485.75
504.16	35945.75
504.934	36165.75
505.707	36097.75
506.48	35996.75
507.253	35659.75
508.027	35160.75
508.8	34506.75
509.573	33693.75
510.346	32689.75
511.118	31833.75
511.891	30702.75
512.664	29551.75
513.437	28336.75
514.209	27173.75
514.982	26184.75
515.754	25089.75
516.526	23912.75
517.298	22925.75
518.071	21976.75
518.843	21080.75
519.615	20224.75
520.387	19396.75
521.159	18619.75
521.93	17929.75
522.702	17218.75
523.474	16546.75
524.245	15849.75
525.017	15155.75
525.788	14421.75
526.56	13775.75
527.331	13156.75
528.102	12532.75
528.873	11941.75
529.644	11326.75
530.415	10819.75
531.186	10271.75
531.957	9744.75
532.728	9194.75
533.498	8676.75
534.269	8217.75
535.039	7745.75
535.81	7329.75
536.58	6937.75
537.351	6529.75
538.121	6178.75
538.891	5848.75
539.661	5571.75
540.431	5249.75
541.201	4953.75
541.971	4710.75
542.741	4489.75
543.51	4224.75
544.28	4014.75
545.05	3831.75
545.819	3645.75
546.588	3449.75
547.358	3291.75
548.127	3114.75
548.896	2964.75
549.665	2797.75
550.434	2661.75
551.203	2531.75
551.972	2395.75
552.741	2257.75
553.51	2143.75
554.278	2008.75
555.047	1895.75
555.815	1803.75
556.584	1702.75
557.352	1589.75
558.121	1509.75
558.889	1417.75
559.657	1355.75
560.425	1255.75
561.193	1187.75
561.961	1148.75
562.729	1069.75
563.496	1020.75
564.264	962.75
565.032	901.75
565.799	867.75
566.567	812.75
567.334	773.75
568.101	727.75
568.869	675.75
569.636	643.75
570.403	615.75
571.17	574.75
571.937	541.75
572.704	512.75
573.471	481.75
574.237	455.75
575.004	433.75
575.771	411.75
576.537	377.75
577.303	348.75
578.07	341.75
578.836	322.75
579.602	296.75
580.368	282.75
581.134	267.75
581.9	256.75
582.666	243.75
583.432	229.75
584.198	215.75
584.964	206.75
585.729	199.75
586.495	187.75
587.26	170.75
588.025	167.75
588.791	157.75
589.556	149.75
590.321	151.75
591.086	134.75
591.851	124.75
592.616	122.75
593.381	114.75
594.146	109.75
594.911	105.75
595.675	103.75
596.44	98.75
597.204	91.75
597.969	89.75
598.733	82.75
599.497	79.75
600.261	71.75
601.025	76.75
601.79	66.75
602.553	66.75
603.317	64.75
604.081	63.75
604.845	59.75
605.609	58.75
606.372	58.75
607.136	52.75
607.899	47.75
608.662	49.75
609.426	45.75
610.189	45.75
610.952	45.75
611.715	40.75
612.478	38.75
613.241	37.75
614.004	36.75
614.767	34.75
615.529	32.75
616.292	32.75
617.055	34.75
617.817	30.75
618.579	32.75
619.342	28.75
620.104	27.75
620.866	26.75
621.628	25.75
622.39	27.75
623.152	21.75
623.914	25.75
624.676	23.75
625.438	20.75
626.199	19.75
626.961	23.75
627.722	19.75
628.484	20.75
629.245	19.75
630.006	18.75
630.768	17.75
631.529	19.75
632.29	14.75
633.051	16.75
633.812	18.75
634.573	12.75
635.333	15.75
636.094	15.75
636.855	14.75
637.615	12.75
638.376	13.75
639.136	13.75
639.896	10.75
640.657	11.75
641.417	9.75
642.177	10.75
642.937	10.75
643.697	9.75
644.457	11.75
645.216	11.75
645.976	11.75
646.736	11.75
647.495	10.75
648.255	8.75
649.014	7.75
649.774	10.75
650.533	8.75
651.292	8.75
652.051	10.75
652.81	7.75
653.569	6.75
654.328	7.75
655.087	7.75
655.846	7.75
656.604	8.75
657.363	8.75
658.121	5.75
658.88	6.75
659.638	3.75
660.397	7.75
661.155	5.75
661.913	6.75
662.671	4.75
663.429	8.75
664.187	6.75
664.945	6.75
665.703	6.75
666.46	8.75
667.218	4.75
667.976	6.75
668.733	7.75
669.49	6.75
670.248	7.75
671.005	6.75
671.762	6.75
672.519	5.75
673.276	2.75
674.033	5.75
674.79	7.75
675.547	5.75
676.304	4.75
677.06	5.75
677.817	4.75
678.574	7.75
679.33	5.75
680.086	5.75
680.843	5.75
681.599	4.75
682.355	4.75
683.111	6.75
683.867	3.75
684.623	4.75
685.379	3.75
686.135	5.75
686.89	3.75
687.646	5.75
688.402	3.75
689.157	3.75
689.912	2.75
690.668	2.75
691.423	6.75
692.178	5.75
692.933	5.75
693.688	3.75
694.443	4.75
695.198	5.75
695.953	3.75
696.708	4.75
697.462	3.75
698.217	4.75
698.972	5.75
699.726	4.75
700.48	3.75
701.235	5.75
701.989	4.75
702.743	5.75
703.497	3.75
704.251	4.75
705.005	2.75
705.759	6.75
706.513	5.75
707.266	4.75
708.02	6.75
708.774	4.75
709.527	4.75
710.28	5.75
711.034	5.75
711.787	6.75
712.54	4.75
713.293	6.75
714.046	3.75
714.799	5.75
715.552	3.75
716.305	5.75
717.058	4.75
717.81	4.75
718.563	5.75
719.315	5.75
720.068	6.75
720.82	4.75
721.573	5.75
722.325	4.75
723.077	5.75
723.829	5.75
724.581	5.75
725.333	5.75
726.085	3.75
726.836	4.75
727.588	3.75
728.34	5.75
729.091	4.75
729.843	3.75
730.594	4.75
731.346	6.75
732.097	3.75
732.848	6.75
733.599	5.75
734.35	5.75
735.101	5.75
735.852	8.75
736.603	6.75
737.354	5.75
738.104	6.75
738.855	1.75
739.605	6.75
740.356	8.75
741.106	4.75
741.856	5.75
742.607	5.75
743.357	5.75
744.107	6.75
744.857	5.75
745.607	7.75
746.357	6.75
747.106	7.75
747.856	7.75
748.606	7.75
749.355	7.75
750.105	6.75
750.854	6.75
751.603	7.75
752.353	4.75
753.102	6.75
753.851	5.75
754.6	7.75
755.349	7.75
756.098	6.75
756.847	6.75
757.595	8.75
758.344	6.75
759.093	6.75
759.841	6.75
760.589	6.75
761.338	7.75
762.086	8.75
762.834	8.75
763.582	10.75
764.331	8.75
765.079	8.75
765.826	9.75
766.574	8.75
767.322	7.75
768.07	10.75
768.817	9.75
769.565	10.75
770.312	7.75
771.06	9.75
771.807	9.75
772.554	11.75
773.302	9.75
774.049	10.75
774.796	10.75
775.543	10.75
776.29	9.75
777.036	10.75
777.783	12.75
778.53	10.75
779.276	12.75
780.023	11.75
780.769	8.75
781.516	13.75
782.262	9.75
783.008	9.75
783.754	8.75
784.5	10.75
785.246	11.75
785.992	11.75
786.738	10.75
787.484	11.75
788.23	11.75
788.975	10.75
789.721	11.75
790.466	9.75
791.212	10.75
791.957	10.75
792.702	11.75
793.447	7.75
794.193	9.75
794.938	9.75
795.683	8.75
796.427	9.75
797.172	10.75
797.917	8.75
798.662	10.75
799.406	8.75
800.151	7.75
800.895	9.75
801.64	7.75
802.384	6.75
803.128	8.75
803.872	8.75
804.616	7.75
805.36	6.75
806.104	8.75
806.848	7.75
807.592	6.75
808.336	9.75
809.079	6.75
809.823	6.75
810.566	8.75
811.31	4.75
812.053	7.75
812.796	3.75
813.539	7.75
814.283	6.75
815.026	6.75
815.769	3.75
816.511	6.75
817.254	4.75
817.997	4.75
818.74	5.75
819.482	5.75
820.225	5.75
820.967	5.75
821.71	4.75
822.452	6.75
823.194	5.75
823.936	5.75
824.678	3.75
825.42	4.75
826.162	6.75
826.904	2.75
827.646	5.75
828.388	6.75
829.129	5.75
829.871	3.75
830.612	2.75
831.354	1.75
832.095	4.75
832.836	4.75
833.577	2.75
834.319	1.75
835.06	6.75
835.801	3.75
836.542	4.75
837.282	4.75
838.023	4.75
838.764	5.75
839.504	4.75
840.245	4.75
840.985	4.75
841.726	3.75
842.466	3.75
843.206	1.75
843.946	3.75
844.687	4.75
845.427	3.75
846.166	3.75
846.906	3.75
847.646	5.75
848.386	-0.25
849.125	5.75
849.865	1.75
850.605	5.75
851.344	3.75
852.083	2.75
852.823	2.75
853.562	0.75
854.301	3.75
855.04	3.75
855.779	1.75
856.518	1.75
857.257	0.75
857.995	1.75
858.734	2.75
859.473	1.75
860.211	3.75
860.95	1.75
861.688	1.75
862.426	2.75
863.165	3.75
863.903	1.75
864.641	0.75
865.379	3.75
866.117	-0.25
866.855	1.75
867.593	1.75
868.33	0.75
869.068	1.75
869.806	1.75
870.543	1.75
871.28	-1.25
872.018	2.75
872.755	-0.25
873.492	1.75
874.229	0.75
874.967	0.75
875.703	1.75
876.44	0.75
877.177	2.75
877.914	0.75
878.651	-0.25
879.387	2.75
880.124	0.75
880.86	2.75
881.597	1.75
882.333	-0.25
883.069	0.75
883.806	-2.25
884.542	1.75
885.278	2.75
886.014	1.75
886.749	0.75
887.485	0.75
888.221	-0.25
888.957	-0.25
889.692	1.75
890.428	1.75
891.163	1.75
891.899	1.75
892.634	-0.25
893.369	-0.25
894.104	-1.25
894.839	-1.25
895.574	-0.25
896.309	-1.25
897.044	-1.25
897.779	-0.25
898.514	-0.25
899.248	0.75
899.983	-0.25
900.717	-0.25
901.452	-0.25
902.186	0.75
902.92	1.75
903.654	1.75
904.389	1.75
905.123	0.75
905.857	-0.25
906.59	-0.25
907.324	0.75
908.058	0.75
908.792	1.75
909.525	0.75
910.259	-1.25
910.992	3.75
911.726	-0.25
912.459	-0.25
913.192	-0.25
913.925	0.75
914.658	-0.25
915.391	0.75
916.124	0.75
916.857	-0.25
917.59	0.75
918.323	-0.25
919.055	-2.25
919.788	0.75
920.521	0.75
921.253	-0.25
921.985	-1.25
922.718	1.75
923.45	-1.25
924.182	-2.25
924.914	-0.25
925.646	-0.25
926.378	-0.25
927.11	-0.25
927.841	-2.25
928.573	-0.25
929.305	-1.25
930.036	-1.25
930.768	-0.25
931.499	0.75
932.23	0.75
932.962	-0.25
933.693	-2.25
934.424	-2.25
935.155	-2.25
935.886	1.75
936.617	-0.25
937.348	-0.25
938.078	-0.25
938.809	-0.25
939.54	-0.25
940.27	-1.25
941.001	-0.25
941.731	-0.25
942.461	0.75
943.191	0.75
943.922	-0.25
944.652	0.75
945.382	0.75
946.112	-0.25
946.841	-3.25
947.571	0.75
948.301	-0.25
949.031	2.75
949.76	-0.25
950.49	-2.25
951.219	1.75
951.948	-0.25
952.678	-0.25
953.407	-0.25
954.136	0.75
954.865	1.75
955.594	0.75
956.323	1.75
957.052	-0.25
957.78	-1.25
958.509	-0.25
959.238	0.75
959.966	0.75
960.695	1.75
961.423	-0.25
962.151	1.75
962.88	-1.25
963.608	-2.25
964.336	-1.25
965.064	1.75
965.792	-0.25
966.52	0.75
967.247	-1.25
967.975	-1.25
968.703	1.75
969.43	-1.25
970.158	-1.25
970.885	-0.25
971.613	-0.25
972.34	0.75
973.067	-2.25
973.794	0.75
974.521	0.75
975.248	-0.25
975.975	-0.25
976.702	-0.25
977.429	-0.25
978.156	-0.25
978.882	0.75
979.609	-1.25
980.335	-0.25
981.062	-0.25
981.788	0.75
982.514	0.75
983.24	-0.25
983.967	-2.25
984.693	-0.25
985.419	-1.25
986.144	-1.25
986.87	-1.25
987.596	1.75
988.322	-2.25
989.047	-0.25
989.773	-0.25
990.498	-0.25
991.224	-0.25
991.949	1.75
992.674	-0.25
993.399	-0.25
994.124	0.75
994.849	0.75
995.574	-1.25
996.299	0.75
997.024	-0.25
997.749	0.75
998.473	-0.25
999.198	-3.25
999.922	-0.25
1000.647	0.75
1001.371	4.75
1002.095	0.75
1002.82	-0.25
1003.544	-2.25
1004.268	1.75
1004.992	0.75
1005.716	-0.25
1006.439	-0.25
1007.163	3.75
1007.887	2.75
1008.611	0.75
1009.334	1.75
1010.058	-0.25
1010.781	-0.25
1011.504	1.75
1012.228	-0.25
1012.951	-0.25
1013.674	0.75
1014.397	-1.25
1015.12	-2.25
