节点500_425_QEPB04081__290__15-53-07-936.txt的数据

Date: Wed Nov 12 15:53:07 CST 2025
User: PC
Spectrometer: QEPB0408
触发模式: 0
积分时间 (秒): 1.000000E-2
Scans to average: 1
启用暗噪声校正: true
启用非线性校正: false
滑动平均宽度: 0
X轴模式: Wavelengths
Number of Pixels in Spectrum: 1044
>>>>>Begin Spectral Data<<<<<
220.843	2.62
221.644	1.62
222.444	1.62
223.244	3.62
224.045	2.62
224.845	4.62
225.645	3.62
226.445	6.62
227.245	1.62
228.045	3.62
228.845	4.62
229.645	1.62
230.444	5.62
231.244	4.62
232.043	3.62
232.843	5.62
233.642	5.62
234.442	6.62
235.241	4.62
236.04	3.62
236.839	6.62
237.638	2.62
238.437	5.62
239.236	6.62
240.035	6.62
240.833	7.62
241.632	6.62
242.43	5.62
243.229	5.62
244.027	6.62
244.826	7.62
245.624	8.62
246.422	8.62
247.22	5.62
248.018	9.62
248.816	7.62
249.614	8.62
250.412	7.62
251.21	9.62
252.007	11.62
252.805	10.62
253.602	10.62
254.4	10.62
255.197	11.62
255.994	11.62
256.791	10.62
257.589	13.62
258.386	11.62
259.183	11.62
259.979	12.62
260.776	13.62
261.573	12.62
262.37	13.62
263.166	15.62
263.963	14.62
264.759	17.62
265.556	19.62
266.352	17.62
267.148	19.62
267.944	17.62
268.74	17.62
269.536	20.62
270.332	18.62
271.128	19.62
271.924	21.62
272.719	23.62
273.515	21.62
274.311	22.62
275.106	21.62
275.901	20.62
276.697	24.62
277.492	20.62
278.287	22.62
279.082	22.62
279.877	23.62
280.672	21.62
281.467	24.62
282.262	23.62
283.056	21.62
283.851	24.62
284.646	22.62
285.44	24.62
286.234	24.62
287.029	24.62
287.823	23.62
288.617	23.62
289.411	23.62
290.205	24.62
290.999	22.62
291.793	25.62
292.587	22.62
293.381	25.62
294.174	20.62
294.968	17.62
295.761	20.62
296.555	19.62
297.348	19.62
298.141	19.62
298.935	21.62
299.728	17.62
300.521	17.62
301.314	16.62
302.107	15.62
302.899	17.62
303.692	16.62
304.485	15.62
305.277	14.62
306.07	16.62
306.862	13.62
307.655	13.62
308.447	16.62
309.239	15.62
310.031	12.62
310.823	12.62
311.615	10.62
312.407	11.62
313.199	10.62
313.991	11.62
314.783	12.62
315.574	11.62
316.366	11.62
317.157	11.62
317.949	11.62
318.74	9.62
319.531	9.62
320.322	9.62
321.113	7.62
321.904	9.62
322.695	9.62
323.486	9.62
324.277	7.62
325.068	8.62
325.858	9.62
326.649	8.62
327.439	9.62
328.23	7.62
329.02	8.62
329.81	9.62
330.6	9.62
331.391	6.62
332.181	8.62
332.971	9.62
333.76	9.62
334.55	8.62
335.34	7.62
336.13	6.62
336.919	6.62
337.709	6.62
338.498	7.62
339.287	7.62
340.077	6.62
340.866	7.62
341.655	8.62
342.444	6.62
343.233	9.62
344.022	7.62
344.811	6.62
345.6	6.62
346.388	9.62
347.177	8.62
347.965	5.62
348.754	9.62
349.542	7.62
350.33	8.62
351.119	7.62
351.907	7.62
352.695	9.62
353.483	7.62
354.271	7.62
355.059	8.62
355.846	6.62
356.634	9.62
357.422	6.62
358.209	5.62
358.997	7.62
359.784	6.62
360.571	6.62
361.359	4.62
362.146	8.62
362.933	5.62
363.72	6.62
364.507	7.62
365.294	7.62
366.081	5.62
366.867	5.62
367.654	7.62
368.44	6.62
369.227	3.62
370.013	6.62
370.8	6.62
371.586	6.62
372.372	5.62
373.158	7.62
373.944	5.62
374.73	7.62
375.516	5.62
376.302	4.62
377.088	6.62
377.873	6.62
378.659	6.62
379.445	8.62
380.23	6.62
381.015	5.62
381.801	5.62
382.586	5.62
383.371	5.62
384.156	6.62
384.941	10.62
385.726	8.62
386.511	9.62
387.296	6.62
388.08	7.62
388.865	8.62
389.649	7.62
390.434	6.62
391.218	5.62
392.003	6.62
392.787	8.62
393.571	8.62
394.355	8.62
395.139	7.62
395.923	7.62
396.707	7.62
397.491	10.62
398.274	9.62
399.058	6.62
399.842	7.62
400.625	8.62
401.408	9.62
402.192	7.62
402.975	9.62
403.758	8.62
404.541	9.62
405.324	10.62
406.107	8.62
406.89	9.62
407.673	9.62
408.456	11.62
409.238	12.62
410.021	8.62
410.803	10.62
411.586	9.62
412.368	10.62
413.151	8.62
413.933	13.62
414.715	11.62
415.497	10.62
416.279	9.62
417.061	11.62
417.843	11.62
418.624	10.62
419.406	12.62
420.188	12.62
420.969	14.62
421.751	12.62
422.532	16.62
423.313	13.62
424.095	16.62
424.876	16.62
425.657	16.62
426.438	19.62
427.219	16.62
428	16.62
428.78	17.62
429.561	16.62
430.342	16.62
431.122	21.62
431.903	18.62
432.683	22.62
433.464	21.62
434.244	22.62
435.024	22.62
435.804	29.62
436.584	25.62
437.364	27.62
438.144	28.62
438.924	29.62
439.704	32.62
440.483	35.62
441.263	38.62
442.042	36.62
442.822	40.62
443.601	42.62
444.38	41.62
445.16	48.62
445.939	49.62
446.718	51.62
447.497	56.62
448.276	66.62
449.054	72.62
449.833	76.62
450.612	84.62
451.391	88.62
452.169	102.62
452.948	109.62
453.726	127.62
454.504	136.62
455.282	145.62
456.061	167.62
456.839	182.62
457.617	211.62
458.395	233.62
459.172	264.62
459.95	282.62
460.728	316.62
461.506	351.62
462.283	391.62
463.061	448.62
463.838	502.62
464.615	552.62
465.393	619.62
466.17	685.62
466.947	764.62
467.724	867.62
468.501	945.62
469.278	1053.62
470.055	1165.62
470.831	1293.62
471.608	1421.62
472.385	1581.62
473.161	1766.62
473.938	1954.62
474.714	2170.62
475.49	2355.62
476.266	2607.62
477.043	2878.62
477.819	3166.62
478.595	3504.62
479.371	3836.62
480.146	4251.62
480.922	4618.62
481.698	5087.62
482.473	5589.62
483.249	6095.62
484.024	6680.62
484.8	7314.62
485.575	7987.62
486.35	8734.62
487.126	9535.62
487.901	10345.62
488.676	11309.62
489.451	12276.62
490.225	13331.62
491	14496.62
491.775	15717.62
492.55	16921.62
493.324	18301.62
494.099	19566.62
494.873	20838.62
495.647	22249.62
496.422	23724.62
497.196	25154.62
497.97	26651.62
498.744	28041.62
499.518	29381.62
500.292	30573.62
501.066	31630.62
501.839	32820.62
502.613	33757.62
503.387	34520.62
504.16	35037.62
504.934	35327.62
505.707	35322.62
506.48	35212.62
507.253	34955.62
508.027	34527.62
508.8	34049.62
509.573	33272.62
510.346	32540.62
511.118	31521.62
511.891	30546.62
512.664	29428.62
513.437	28171.62
514.209	27143.62
514.982	26170.62
515.754	25062.62
516.526	23971.62
517.298	22994.62
518.071	22010.62
518.843	21066.62
519.615	20284.62
520.387	19426.62
521.159	18771.62
521.93	17995.62
522.702	17259.62
523.474	16567.62
524.245	15949.62
525.017	15217.62
525.788	14507.62
526.56	13879.62
527.331	13235.62
528.102	12590.62
528.873	12024.62
529.644	11412.62
530.415	10878.62
531.186	10412.62
531.957	9815.62
532.728	9284.62
533.498	8789.62
534.269	8296.62
535.039	7869.62
535.81	7443.62
536.58	7022.62
537.351	6611.62
538.121	6215.62
538.891	5916.62
539.661	5652.62
540.431	5300.62
541.201	5036.62
541.971	4769.62
542.741	4535.62
543.51	4320.62
544.28	4090.62
545.05	3888.62
545.819	3723.62
546.588	3546.62
547.358	3320.62
548.127	3153.62
548.896	2996.62
549.665	2837.62
550.434	2692.62
551.203	2567.62
551.972	2430.62
552.741	2300.62
553.51	2178.62
554.278	2049.62
555.047	1946.62
555.815	1835.62
556.584	1723.62
557.352	1628.62
558.121	1527.62
558.889	1447.62
559.657	1365.62
560.425	1294.62
561.193	1210.62
561.961	1172.62
562.729	1091.62
563.496	1041.62
564.264	964.62
565.032	933.62
565.799	872.62
566.567	833.62
567.334	778.62
568.101	743.62
568.869	700.62
569.636	647.62
570.403	617.62
571.17	580.62
571.937	549.62
572.704	526.62
573.471	489.62
574.237	465.62
575.004	442.62
575.771	408.62
576.537	387.62
577.303	367.62
578.07	345.62
578.836	321.62
579.602	307.62
580.368	293.62
581.134	281.62
581.9	255.62
582.666	249.62
583.432	233.62
584.198	222.62
584.964	211.62
585.729	205.62
586.495	193.62
587.26	183.62
588.025	177.62
588.791	162.62
589.556	148.62
590.321	150.62
591.086	139.62
591.851	127.62
592.616	124.62
593.381	115.62
594.146	110.62
594.911	108.62
595.675	100.62
596.44	96.62
597.204	92.62
597.969	88.62
598.733	85.62
599.497	83.62
600.261	80.62
601.025	78.62
601.79	71.62
602.553	71.62
603.317	62.62
604.081	64.62
604.845	61.62
605.609	56.62
606.372	54.62
607.136	50.62
607.899	52.62
608.662	47.62
609.426	48.62
610.189	44.62
610.952	41.62
611.715	42.62
612.478	39.62
613.241	43.62
614.004	36.62
614.767	34.62
615.529	38.62
616.292	33.62
617.055	31.62
617.817	29.62
618.579	29.62
619.342	28.62
620.104	28.62
620.866	25.62
621.628	24.62
622.39	28.62
623.152	28.62
623.914	23.62
624.676	24.62
625.438	21.62
626.199	22.62
626.961	20.62
627.722	22.62
628.484	17.62
629.245	19.62
630.006	18.62
630.768	17.62
631.529	16.62
632.29	16.62
633.051	15.62
633.812	17.62
634.573	14.62
635.333	15.62
636.094	15.62
636.855	13.62
637.615	13.62
638.376	10.62
639.136	13.62
639.896	14.62
640.657	11.62
641.417	12.62
642.177	12.62
642.937	11.62
643.697	10.62
644.457	11.62
645.216	10.62
645.976	9.62
646.736	11.62
647.495	9.62
648.255	9.62
649.014	8.62
649.774	9.62
650.533	9.62
651.292	7.62
652.051	9.62
652.81	7.62
653.569	7.62
654.328	10.62
655.087	7.62
655.846	7.62
656.604	7.62
657.363	6.62
658.121	6.62
658.88	7.62
659.638	6.62
660.397	6.62
661.155	6.62
661.913	4.62
662.671	5.62
663.429	6.62
664.187	7.62
664.945	5.62
665.703	4.62
666.46	5.62
667.218	4.62
667.976	6.62
668.733	5.62
669.49	5.62
670.248	7.62
671.005	4.62
671.762	5.62
672.519	3.62
673.276	5.62
674.033	5.62
674.79	3.62
675.547	4.62
676.304	3.62
677.06	5.62
677.817	3.62
678.574	6.62
679.33	7.62
680.086	3.62
680.843	6.62
681.599	3.62
682.355	6.62
683.111	4.62
683.867	4.62
684.623	6.62
685.379	3.62
686.135	1.62
686.89	2.62
687.646	2.62
688.402	3.62
689.157	3.62
689.912	5.62
690.668	4.62
691.423	5.62
692.178	3.62
692.933	1.62
693.688	3.62
694.443	4.62
695.198	6.62
695.953	3.62
696.708	5.62
697.462	3.62
698.217	3.62
698.972	3.62
699.726	6.62
700.48	5.62
701.235	4.62
701.989	2.62
702.743	3.62
703.497	6.62
704.251	-0.38
705.005	4.62
705.759	4.62
706.513	3.62
707.266	6.62
708.02	5.62
708.774	3.62
709.527	6.62
710.28	4.62
711.034	2.62
711.787	5.62
712.54	4.62
713.293	6.62
714.046	3.62
714.799	4.62
715.552	5.62
716.305	6.62
717.058	3.62
717.81	2.62
718.563	3.62
719.315	3.62
720.068	3.62
720.82	3.62
721.573	2.62
722.325	5.62
723.077	3.62
723.829	5.62
724.581	3.62
725.333	3.62
726.085	3.62
726.836	6.62
727.588	2.62
728.34	4.62
729.091	2.62
729.843	4.62
730.594	4.62
731.346	3.62
732.097	4.62
732.848	4.62
733.599	5.62
734.35	4.62
735.101	3.62
735.852	4.62
736.603	7.62
737.354	4.62
738.104	6.62
738.855	8.62
739.605	5.62
740.356	6.62
741.106	3.62
741.856	5.62
742.607	5.62
743.357	7.62
744.107	6.62
744.857	6.62
745.607	7.62
746.357	6.62
747.106	5.62
747.856	4.62
748.606	6.62
749.355	6.62
750.105	6.62
750.854	7.62
751.603	6.62
752.353	5.62
753.102	6.62
753.851	4.62
754.6	9.62
755.349	6.62
756.098	7.62
756.847	7.62
757.595	5.62
758.344	8.62
759.093	9.62
759.841	5.62
760.589	7.62
761.338	6.62
762.086	7.62
762.834	8.62
763.582	7.62
764.331	8.62
765.079	9.62
765.826	9.62
766.574	7.62
767.322	9.62
768.07	9.62
768.817	9.62
769.565	8.62
770.312	8.62
771.06	7.62
771.807	9.62
772.554	10.62
773.302	10.62
774.049	7.62
774.796	9.62
775.543	8.62
776.29	10.62
777.036	9.62
777.783	7.62
778.53	9.62
779.276	12.62
780.023	12.62
780.769	9.62
781.516	10.62
782.262	11.62
783.008	11.62
783.754	9.62
784.5	8.62
785.246	11.62
785.992	11.62
786.738	11.62
787.484	11.62
788.23	9.62
788.975	11.62
789.721	10.62
790.466	11.62
791.212	9.62
791.957	10.62
792.702	11.62
793.447	7.62
794.193	10.62
794.938	11.62
795.683	13.62
796.427	9.62
797.172	9.62
797.917	11.62
798.662	6.62
799.406	9.62
800.151	6.62
800.895	9.62
801.64	7.62
802.384	6.62
803.128	7.62
803.872	6.62
804.616	9.62
805.36	8.62
806.104	8.62
806.848	5.62
807.592	7.62
808.336	6.62
809.079	4.62
809.823	6.62
810.566	7.62
811.31	7.62
812.053	8.62
812.796	6.62
813.539	5.62
814.283	6.62
815.026	7.62
815.769	4.62
816.511	4.62
817.254	4.62
817.997	2.62
818.74	3.62
819.482	6.62
820.225	6.62
820.967	4.62
821.71	4.62
822.452	5.62
823.194	4.62
823.936	7.62
824.678	3.62
825.42	5.62
826.162	1.62
826.904	5.62
827.646	4.62
828.388	3.62
829.129	3.62
829.871	5.62
830.612	2.62
831.354	4.62
832.095	3.62
832.836	5.62
833.577	3.62
834.319	3.62
835.06	4.62
835.801	3.62
836.542	2.62
837.282	3.62
838.023	4.62
838.764	4.62
839.504	2.62
840.245	3.62
840.985	3.62
841.726	4.62
842.466	2.62
843.206	3.62
843.946	2.62
844.687	-0.38
845.427	2.62
846.166	3.62
846.906	2.62
847.646	3.62
848.386	1.62
849.125	3.62
849.865	1.62
850.605	1.62
851.344	0.62
852.083	1.62
852.823	3.62
853.562	-0.38
854.301	3.62
855.04	2.62
855.779	2.62
856.518	1.62
857.257	2.62
857.995	3.62
858.734	1.62
859.473	3.62
860.211	2.62
860.95	3.62
861.688	1.62
862.426	-1.38
863.165	2.62
863.903	3.62
864.641	1.62
865.379	1.62
866.117	1.62
866.855	1.62
867.593	-0.38
868.33	3.62
869.068	0.62
869.806	-0.38
870.543	0.62
871.28	2.62
872.018	0.62
872.755	1.62
873.492	-1.38
874.229	-0.38
874.967	-1.38
875.703	1.62
876.44	-0.38
877.177	1.62
877.914	1.62
878.651	-0.38
879.387	1.62
880.124	-0.38
880.86	0.62
881.597	0.62
882.333	1.62
883.069	0.62
883.806	-2.38
884.542	1.62
885.278	-0.38
886.014	0.62
886.749	0.62
887.485	0.62
888.221	0.62
888.957	-1.38
889.692	1.62
890.428	0.62
891.163	-0.38
891.899	1.62
892.634	-2.38
893.369	0.62
894.104	-0.38
894.839	-0.38
895.574	0.62
896.309	0.62
897.044	0.62
897.779	0.62
898.514	-0.38
899.248	1.62
899.983	-0.38
900.717	-0.38
901.452	-0.38
902.186	2.62
902.92	-0.38
903.654	1.62
904.389	1.62
905.123	1.62
905.857	-0.38
906.59	-0.38
907.324	1.62
908.058	0.62
908.792	0.62
909.525	0.62
910.259	0.62
910.992	-0.38
911.726	-0.38
912.459	-0.38
913.192	-0.38
913.925	0.62
914.658	0.62
915.391	-0.38
916.124	0.62
916.857	1.62
917.59	0.62
918.323	-0.38
919.055	-0.38
919.788	0.62
920.521	1.62
921.253	0.62
921.985	-0.38
922.718	-0.38
923.45	-0.38
924.182	-3.38
924.914	-2.38
925.646	-1.38
926.378	-0.38
927.11	1.62
927.841	-0.38
928.573	-0.38
929.305	-1.38
930.036	-0.38
930.768	-1.38
931.499	-2.38
932.23	-0.38
932.962	-1.38
933.693	-0.38
934.424	-1.38
935.155	-1.38
935.886	-2.38
936.617	-0.38
937.348	0.62
938.078	-4.38
938.809	1.62
939.54	-0.38
940.27	-0.38
941.001	-0.38
941.731	0.62
942.461	0.62
943.191	-0.38
943.922	-0.38
944.652	-1.38
945.382	-1.38
946.112	-0.38
946.841	-1.38
947.571	-0.38
948.301	1.62
949.031	-1.38
949.76	-1.38
950.49	-2.38
951.219	1.62
951.948	-1.38
952.678	0.62
953.407	0.62
954.136	-1.38
954.865	2.62
955.594	-2.38
956.323	-0.38
957.052	-0.38
957.78	-1.38
958.509	-1.38
959.238	0.62
959.966	-0.38
960.695	0.62
961.423	0.62
962.151	0.62
962.88	-0.38
963.608	-0.38
964.336	-1.38
965.064	-1.38
965.792	-0.38
966.52	-2.38
967.247	-0.38
967.975	0.62
968.703	-0.38
969.43	0.62
970.158	-0.38
970.885	-0.38
971.613	0.62
972.34	-1.38
973.067	-2.38
973.794	0.62
974.521	0.62
975.248	-0.38
975.975	-0.38
976.702	1.62
977.429	0.62
978.156	-1.38
978.882	0.62
979.609	1.62
980.335	-0.38
981.062	-1.38
981.788	-0.38
982.514	1.62
983.24	0.62
983.967	-0.38
984.693	-1.38
985.419	-1.38
986.144	-0.38
986.87	-0.38
987.596	2.62
988.322	-0.38
989.047	-0.38
989.773	-2.38
990.498	-1.38
991.224	0.62
991.949	0.62
992.674	-1.38
993.399	-0.38
994.124	-0.38
994.849	-0.38
995.574	-1.38
996.299	-3.38
997.024	-0.38
997.749	-0.38
998.473	1.62
999.198	-2.38
999.922	0.62
1000.647	-0.38
1001.371	4.62
1002.095	0.62
1002.82	-0.38
1003.544	-3.38
1004.268	1.62
1004.992	2.62
1005.716	-0.38
1006.439	-2.38
1007.163	5.62
1007.887	2.62
1008.611	-1.38
1009.334	-0.38
1010.058	-0.38
1010.781	-0.38
1011.504	-2.38
1012.228	1.62
1012.951	-2.38
1013.674	1.62
1014.397	-0.38
1015.12	-0.38
