节点500_425_QEPB04081__499__15-56-36-585.txt的数据

Date: Wed Nov 12 15:56:36 CST 2025
User: PC
Spectrometer: QEPB0408
触发模式: 0
积分时间 (秒): 1.000000E-2
Scans to average: 1
启用暗噪声校正: true
启用非线性校正: false
滑动平均宽度: 0
X轴模式: Wavelengths
Number of Pixels in Spectrum: 1044
>>>>>Begin Spectral Data<<<<<
220.843	5.62
221.644	2.62
222.444	1.62
223.244	1.62
224.045	0.62
224.845	2.62
225.645	2.62
226.445	0.62
227.245	1.62
228.045	2.62
228.845	4.62
229.645	3.62
230.444	3.62
231.244	2.62
232.043	5.62
232.843	3.62
233.642	4.62
234.442	3.62
235.241	5.62
236.04	2.62
236.839	6.62
237.638	3.62
238.437	4.62
239.236	3.62
240.035	5.62
240.833	7.62
241.632	3.62
242.43	7.62
243.229	7.62
244.027	7.62
244.826	7.62
245.624	6.62
246.422	7.62
247.22	7.62
248.018	6.62
248.816	7.62
249.614	5.62
250.412	7.62
251.21	8.62
252.007	11.62
252.805	10.62
253.602	10.62
254.4	8.62
255.197	11.62
255.994	9.62
256.791	12.62
257.589	11.62
258.386	10.62
259.183	11.62
259.979	10.62
260.776	11.62
261.573	14.62
262.37	12.62
263.166	12.62
263.963	13.62
264.759	15.62
265.556	15.62
266.352	16.62
267.148	17.62
267.944	16.62
268.74	16.62
269.536	15.62
270.332	16.62
271.128	17.62
271.924	19.62
272.719	19.62
273.515	20.62
274.311	19.62
275.106	21.62
275.901	19.62
276.697	19.62
277.492	20.62
278.287	23.62
279.082	18.62
279.877	18.62
280.672	19.62
281.467	22.62
282.262	21.62
283.056	23.62
283.851	21.62
284.646	22.62
285.44	22.62
286.234	22.62
287.029	22.62
287.823	23.62
288.617	20.62
289.411	21.62
290.205	22.62
290.999	20.62
291.793	22.62
292.587	22.62
293.381	23.62
294.174	19.62
294.968	20.62
295.761	17.62
296.555	18.62
297.348	17.62
298.141	18.62
298.935	20.62
299.728	17.62
300.521	15.62
301.314	14.62
302.107	15.62
302.899	14.62
303.692	15.62
304.485	14.62
305.277	17.62
306.07	15.62
306.862	13.62
307.655	14.62
308.447	15.62
309.239	15.62
310.031	9.62
310.823	15.62
311.615	11.62
312.407	15.62
313.199	13.62
313.991	10.62
314.783	11.62
315.574	9.62
316.366	10.62
317.157	11.62
317.949	9.62
318.74	8.62
319.531	9.62
320.322	11.62
321.113	10.62
321.904	7.62
322.695	11.62
323.486	7.62
324.277	7.62
325.068	7.62
325.858	10.62
326.649	5.62
327.439	11.62
328.23	7.62
329.02	8.62
329.81	6.62
330.6	7.62
331.391	8.62
332.181	9.62
332.971	7.62
333.76	8.62
334.55	4.62
335.34	9.62
336.13	7.62
336.919	9.62
337.709	8.62
338.498	7.62
339.287	7.62
340.077	8.62
340.866	7.62
341.655	7.62
342.444	8.62
343.233	8.62
344.022	6.62
344.811	7.62
345.6	8.62
346.388	5.62
347.177	8.62
347.965	8.62
348.754	5.62
349.542	7.62
350.33	3.62
351.119	5.62
351.907	5.62
352.695	7.62
353.483	2.62
354.271	7.62
355.059	4.62
355.846	3.62
356.634	7.62
357.422	8.62
358.209	6.62
358.997	8.62
359.784	5.62
360.571	6.62
361.359	3.62
362.146	7.62
362.933	5.62
363.72	6.62
364.507	6.62
365.294	6.62
366.081	5.62
366.867	5.62
367.654	6.62
368.44	7.62
369.227	3.62
370.013	7.62
370.8	5.62
371.586	4.62
372.372	5.62
373.158	5.62
373.944	4.62
374.73	6.62
375.516	5.62
376.302	6.62
377.088	5.62
377.873	6.62
378.659	4.62
379.445	6.62
380.23	5.62
381.015	5.62
381.801	5.62
382.586	3.62
383.371	5.62
384.156	5.62
384.941	7.62
385.726	4.62
386.511	7.62
387.296	6.62
388.08	5.62
388.865	8.62
389.649	3.62
390.434	6.62
391.218	5.62
392.003	8.62
392.787	7.62
393.571	8.62
394.355	5.62
395.139	8.62
395.923	7.62
396.707	9.62
397.491	7.62
398.274	8.62
399.058	7.62
399.842	9.62
400.625	7.62
401.408	9.62
402.192	8.62
402.975	7.62
403.758	7.62
404.541	6.62
405.324	9.62
406.107	9.62
406.89	8.62
407.673	12.62
408.456	11.62
409.238	8.62
410.021	9.62
410.803	9.62
411.586	9.62
412.368	11.62
413.151	9.62
413.933	12.62
414.715	12.62
415.497	9.62
416.279	12.62
417.061	9.62
417.843	9.62
418.624	12.62
419.406	10.62
420.188	12.62
420.969	13.62
421.751	12.62
422.532	14.62
423.313	13.62
424.095	15.62
424.876	15.62
425.657	12.62
426.438	17.62
427.219	15.62
428	15.62
428.78	15.62
429.561	18.62
430.342	17.62
431.122	20.62
431.903	21.62
432.683	22.62
433.464	21.62
434.244	23.62
435.024	24.62
435.804	25.62
436.584	22.62
437.364	24.62
438.144	29.62
438.924	31.62
439.704	31.62
440.483	32.62
441.263	33.62
442.042	35.62
442.822	40.62
443.601	43.62
444.38	47.62
445.16	51.62
445.939	52.62
446.718	57.62
447.497	61.62
448.276	71.62
449.054	77.62
449.833	86.62
450.612	87.62
451.391	101.62
452.169	107.62
452.948	117.62
453.726	133.62
454.504	143.62
455.282	163.62
456.061	181.62
456.839	197.62
457.617	220.62
458.395	243.62
459.172	276.62
459.95	305.62
460.728	338.62
461.506	371.62
462.283	414.62
463.061	469.62
463.838	520.62
464.615	587.62
465.393	640.62
466.17	733.62
466.947	788.62
467.724	887.62
468.501	987.62
469.278	1077.62
470.055	1203.62
470.831	1315.62
471.608	1480.62
472.385	1633.62
473.161	1767.62
473.938	1946.62
474.714	2168.62
475.49	2380.62
476.266	2600.62
477.043	2835.62
477.819	3130.62
478.595	3442.62
479.371	3761.62
480.146	4099.62
480.922	4475.62
481.698	4872.62
482.473	5311.62
483.249	5820.62
484.024	6331.62
484.8	6928.62
485.575	7483.62
486.35	8161.62
487.126	8867.62
487.901	9603.62
488.676	10443.62
489.451	11283.62
490.225	12183.62
491	13191.62
491.775	14257.62
492.55	15268.62
493.324	16490.62
494.099	17575.62
494.873	18823.62
495.647	20104.62
496.422	21389.62
497.196	22620.62
497.97	24007.62
498.744	25379.62
499.518	26571.62
500.292	27746.62
501.066	28847.62
501.839	30014.62
502.613	30963.62
503.387	31726.62
504.16	32379.62
504.934	32893.62
505.707	33093.62
506.48	33168.62
507.253	33122.62
508.027	32997.62
508.8	32677.62
509.573	32243.62
510.346	31556.62
511.118	30790.62
511.891	29985.62
512.664	29076.62
513.437	28043.62
514.209	27050.62
514.982	26125.62
515.754	25138.62
516.526	24158.62
517.298	23123.62
518.071	22193.62
518.843	21294.62
519.615	20431.62
520.387	19593.62
521.159	18881.62
521.93	18220.62
522.702	17436.62
523.474	16789.62
524.245	16072.62
525.017	15417.62
525.788	14746.62
526.56	14058.62
527.331	13443.62
528.102	12861.62
528.873	12272.62
529.644	11677.62
530.415	11173.62
531.186	10668.62
531.957	10097.62
532.728	9609.62
533.498	9076.62
534.269	8610.62
535.039	8172.62
535.81	7725.62
536.58	7302.62
537.351	6876.62
538.121	6528.62
538.891	6191.62
539.661	5890.62
540.431	5545.62
541.201	5249.62
541.971	5003.62
542.741	4719.62
543.51	4493.62
544.28	4259.62
545.05	4051.62
545.819	3880.62
546.588	3680.62
547.358	3468.62
548.127	3289.62
548.896	3132.62
549.665	2979.62
550.434	2851.62
551.203	2694.62
551.972	2551.62
552.741	2425.62
553.51	2293.62
554.278	2145.62
555.047	2038.62
555.815	1926.62
556.584	1817.62
557.352	1720.62
558.121	1629.62
558.889	1523.62
559.657	1449.62
560.425	1361.62
561.193	1277.62
561.961	1228.62
562.729	1174.62
563.496	1102.62
564.264	1036.62
565.032	988.62
565.799	933.62
566.567	875.62
567.334	828.62
568.101	791.62
568.869	735.62
569.636	696.62
570.403	661.62
571.17	610.62
571.937	588.62
572.704	560.62
573.471	525.62
574.237	503.62
575.004	468.62
575.771	429.62
576.537	407.62
577.303	395.62
578.07	365.62
578.836	342.62
579.602	325.62
580.368	302.62
581.134	296.62
581.9	277.62
582.666	257.62
583.432	249.62
584.198	235.62
584.964	222.62
585.729	211.62
586.495	197.62
587.26	192.62
588.025	184.62
588.791	170.62
589.556	160.62
590.321	156.62
591.086	146.62
591.851	141.62
592.616	137.62
593.381	129.62
594.146	119.62
594.911	114.62
595.675	110.62
596.44	102.62
597.204	100.62
597.969	91.62
598.733	90.62
599.497	87.62
600.261	83.62
601.025	78.62
601.79	74.62
602.553	69.62
603.317	69.62
604.081	64.62
604.845	66.62
605.609	58.62
606.372	58.62
607.136	58.62
607.899	55.62
608.662	53.62
609.426	50.62
610.189	47.62
610.952	45.62
611.715	46.62
612.478	42.62
613.241	40.62
614.004	39.62
614.767	35.62
615.529	38.62
616.292	34.62
617.055	30.62
617.817	35.62
618.579	31.62
619.342	30.62
620.104	25.62
620.866	28.62
621.628	24.62
622.39	28.62
623.152	24.62
623.914	25.62
624.676	24.62
625.438	22.62
626.199	20.62
626.961	20.62
627.722	21.62
628.484	21.62
629.245	18.62
630.006	18.62
630.768	16.62
631.529	16.62
632.29	18.62
633.051	16.62
633.812	18.62
634.573	15.62
635.333	14.62
636.094	15.62
636.855	13.62
637.615	14.62
638.376	13.62
639.136	14.62
639.896	10.62
640.657	12.62
641.417	12.62
642.177	9.62
642.937	14.62
643.697	10.62
644.457	10.62
645.216	12.62
645.976	9.62
646.736	9.62
647.495	8.62
648.255	9.62
649.014	9.62
649.774	7.62
650.533	10.62
651.292	9.62
652.051	7.62
652.81	9.62
653.569	7.62
654.328	11.62
655.087	3.62
655.846	8.62
656.604	8.62
657.363	11.62
658.121	7.62
658.88	5.62
659.638	6.62
660.397	7.62
661.155	6.62
661.913	8.62
662.671	8.62
663.429	5.62
664.187	3.62
664.945	4.62
665.703	7.62
666.46	5.62
667.218	5.62
667.976	5.62
668.733	5.62
669.49	4.62
670.248	4.62
671.005	5.62
671.762	3.62
672.519	6.62
673.276	2.62
674.033	4.62
674.79	4.62
675.547	4.62
676.304	5.62
677.06	2.62
677.817	3.62
678.574	4.62
679.33	5.62
680.086	5.62
680.843	5.62
681.599	7.62
682.355	2.62
683.111	4.62
683.867	6.62
684.623	5.62
685.379	5.62
686.135	3.62
686.89	6.62
687.646	3.62
688.402	5.62
689.157	4.62
689.912	3.62
690.668	6.62
691.423	2.62
692.178	3.62
692.933	4.62
693.688	4.62
694.443	3.62
695.198	3.62
695.953	5.62
696.708	5.62
697.462	3.62
698.217	3.62
698.972	3.62
699.726	3.62
700.48	3.62
701.235	2.62
701.989	5.62
702.743	4.62
703.497	2.62
704.251	4.62
705.005	3.62
705.759	5.62
706.513	5.62
707.266	3.62
708.02	4.62
708.774	4.62
709.527	5.62
710.28	1.62
711.034	2.62
711.787	6.62
712.54	2.62
713.293	4.62
714.046	3.62
714.799	5.62
715.552	4.62
716.305	1.62
717.058	4.62
717.81	6.62
718.563	2.62
719.315	1.62
720.068	2.62
720.82	6.62
721.573	3.62
722.325	5.62
723.077	3.62
723.829	3.62
724.581	2.62
725.333	6.62
726.085	1.62
726.836	5.62
727.588	3.62
728.34	3.62
729.091	1.62
729.843	4.62
730.594	3.62
731.346	4.62
732.097	3.62
732.848	1.62
733.599	3.62
734.35	6.62
735.101	3.62
735.852	6.62
736.603	2.62
737.354	4.62
738.104	5.62
738.855	4.62
739.605	5.62
740.356	7.62
741.106	5.62
741.856	5.62
742.607	6.62
743.357	8.62
744.107	4.62
744.857	6.62
745.607	3.62
746.357	6.62
747.106	1.62
747.856	5.62
748.606	6.62
749.355	7.62
750.105	5.62
750.854	7.62
751.603	5.62
752.353	6.62
753.102	5.62
753.851	6.62
754.6	6.62
755.349	6.62
756.098	5.62
756.847	8.62
757.595	3.62
758.344	4.62
759.093	7.62
759.841	6.62
760.589	7.62
761.338	8.62
762.086	5.62
762.834	9.62
763.582	8.62
764.331	8.62
765.079	5.62
765.826	7.62
766.574	9.62
767.322	9.62
768.07	8.62
768.817	9.62
769.565	7.62
770.312	8.62
771.06	8.62
771.807	8.62
772.554	7.62
773.302	8.62
774.049	10.62
774.796	7.62
775.543	9.62
776.29	8.62
777.036	10.62
777.783	8.62
778.53	10.62
779.276	8.62
780.023	8.62
780.769	12.62
781.516	10.62
782.262	9.62
783.008	9.62
783.754	9.62
784.5	11.62
785.246	10.62
785.992	11.62
786.738	11.62
787.484	9.62
788.23	11.62
788.975	11.62
789.721	11.62
790.466	11.62
791.212	10.62
791.957	8.62
792.702	8.62
793.447	9.62
794.193	8.62
794.938	10.62
795.683	7.62
796.427	9.62
797.172	9.62
797.917	8.62
798.662	7.62
799.406	7.62
800.151	7.62
800.895	6.62
801.64	9.62
802.384	7.62
803.128	5.62
803.872	7.62
804.616	7.62
805.36	6.62
806.104	5.62
806.848	7.62
807.592	8.62
808.336	7.62
809.079	7.62
809.823	6.62
810.566	6.62
811.31	6.62
812.053	5.62
812.796	6.62
813.539	6.62
814.283	6.62
815.026	6.62
815.769	6.62
816.511	6.62
817.254	4.62
817.997	5.62
818.74	4.62
819.482	6.62
820.225	3.62
820.967	5.62
821.71	5.62
822.452	2.62
823.194	6.62
823.936	5.62
824.678	3.62
825.42	2.62
826.162	5.62
826.904	5.62
827.646	0.62
828.388	6.62
829.129	3.62
829.871	3.62
830.612	3.62
831.354	6.62
832.095	2.62
832.836	1.62
833.577	3.62
834.319	5.62
835.06	2.62
835.801	3.62
836.542	3.62
837.282	3.62
838.023	1.62
838.764	4.62
839.504	3.62
840.245	3.62
840.985	4.62
841.726	2.62
842.466	5.62
843.206	4.62
843.946	3.62
844.687	3.62
845.427	2.62
846.166	5.62
846.906	1.62
847.646	2.62
848.386	3.62
849.125	2.62
849.865	1.62
850.605	3.62
851.344	4.62
852.083	1.62
852.823	3.62
853.562	1.62
854.301	2.62
855.04	4.62
855.779	2.62
856.518	1.62
857.257	2.62
857.995	0.62
858.734	1.62
859.473	1.62
860.211	1.62
860.95	1.62
861.688	2.62
862.426	1.62
863.165	0.62
863.903	1.62
864.641	-0.38
865.379	1.62
866.117	0.62
866.855	0.62
867.593	2.62
868.33	1.62
869.068	1.62
869.806	1.62
870.543	0.62
871.28	3.62
872.018	-0.38
872.755	1.62
873.492	0.62
874.229	0.62
874.967	-0.38
875.703	-0.38
876.44	-1.38
877.177	1.62
877.914	2.62
878.651	1.62
879.387	1.62
880.124	0.62
880.86	0.62
881.597	0.62
882.333	0.62
883.069	-1.38
883.806	1.62
884.542	0.62
885.278	1.62
886.014	2.62
886.749	2.62
887.485	-1.38
888.221	0.62
888.957	1.62
889.692	0.62
890.428	0.62
891.163	0.62
891.899	-0.38
892.634	2.62
893.369	0.62
894.104	-0.38
894.839	1.62
895.574	1.62
896.309	-1.38
897.044	-0.38
897.779	1.62
898.514	0.62
899.248	0.62
899.983	1.62
900.717	1.62
901.452	-0.38
902.186	-0.38
902.92	1.62
903.654	-0.38
904.389	-0.38
905.123	-1.38
905.857	-0.38
906.59	2.62
907.324	-1.38
908.058	-0.38
908.792	0.62
909.525	3.62
910.259	1.62
910.992	0.62
911.726	-0.38
912.459	0.62
913.192	-1.38
913.925	-2.38
914.658	0.62
915.391	-1.38
916.124	0.62
916.857	2.62
917.59	-0.38
918.323	-0.38
919.055	0.62
919.788	2.62
920.521	-0.38
921.253	-1.38
921.985	-2.38
922.718	-1.38
923.45	0.62
924.182	-2.38
924.914	1.62
925.646	-0.38
926.378	-1.38
927.11	-1.38
927.841	-0.38
928.573	-0.38
929.305	-2.38
930.036	-0.38
930.768	-0.38
931.499	-0.38
932.23	0.62
932.962	0.62
933.693	-0.38
934.424	0.62
935.155	0.62
935.886	-1.38
936.617	-0.38
937.348	0.62
938.078	-0.38
938.809	1.62
939.54	-1.38
940.27	-1.38
941.001	-1.38
941.731	-0.38
942.461	0.62
943.191	-0.38
943.922	-2.38
944.652	-0.38
945.382	-0.38
946.112	-2.38
946.841	-0.38
947.571	-1.38
948.301	-0.38
949.031	0.62
949.76	-0.38
950.49	1.62
951.219	-0.38
951.948	0.62
952.678	-2.38
953.407	-0.38
954.136	-0.38
954.865	-0.38
955.594	0.62
956.323	-0.38
957.052	0.62
957.78	-2.38
958.509	-0.38
959.238	-0.38
959.966	-2.38
960.695	-0.38
961.423	-2.38
962.151	-0.38
962.88	-1.38
963.608	-0.38
964.336	-1.38
965.064	-3.38
965.792	0.62
966.52	-1.38
967.247	-1.38
967.975	-1.38
968.703	-1.38
969.43	1.62
970.158	0.62
970.885	-0.38
971.613	-2.38
972.34	-0.38
973.067	0.62
973.794	-1.38
974.521	0.62
975.248	-0.38
975.975	-0.38
976.702	0.62
977.429	0.62
978.156	1.62
978.882	-0.38
979.609	-0.38
980.335	1.62
981.062	-1.38
981.788	0.62
982.514	1.62
983.24	-0.38
983.967	0.62
984.693	-0.38
985.419	-1.38
986.144	-0.38
986.87	-0.38
987.596	-2.38
988.322	-0.38
989.047	0.62
989.773	-0.38
990.498	1.62
991.224	-3.38
991.949	0.62
992.674	-0.38
993.399	1.62
994.124	0.62
994.849	-3.38
995.574	-0.38
996.299	-0.38
997.024	0.62
997.749	0.62
998.473	0.62
999.198	0.62
999.922	0.62
1000.647	-0.38
1001.371	2.62
1002.095	-1.38
1002.82	-2.38
1003.544	-0.38
1004.268	1.62
1004.992	1.62
1005.716	-0.38
1006.439	1.62
1007.163	1.62
1007.887	1.62
1008.611	-0.38
1009.334	-0.38
1010.058	-2.38
1010.781	1.62
1011.504	-0.38
1012.228	-0.38
1012.951	0.62
1013.674	-0.38
1014.397	-0.38
1015.12	1.62
