节点500_425_QEPB04081__633__15-58-50-430.txt的数据

Date: Wed Nov 12 15:58:50 CST 2025
User: PC
Spectrometer: QEPB0408
触发模式: 0
积分时间 (秒): 1.000000E-2
Scans to average: 1
启用暗噪声校正: true
启用非线性校正: false
滑动平均宽度: 0
X轴模式: Wavelengths
Number of Pixels in Spectrum: 1044
>>>>>Begin Spectral Data<<<<<
220.843	3.12
221.644	3.12
222.444	3.12
223.244	4.12
224.045	3.12
224.845	3.12
225.645	2.12
226.445	6.12
227.245	5.12
228.045	3.12
228.845	8.12
229.645	4.12
230.444	6.12
231.244	5.12
232.043	7.12
232.843	7.12
233.642	7.12
234.442	8.12
235.241	5.12
236.04	4.12
236.839	9.12
237.638	5.12
238.437	7.12
239.236	7.12
240.035	8.12
240.833	7.12
241.632	7.12
242.43	8.12
243.229	10.12
244.027	7.12
244.826	8.12
245.624	10.12
246.422	7.12
247.22	8.12
248.018	11.12
248.816	10.12
249.614	10.12
250.412	10.12
251.21	12.12
252.007	9.12
252.805	10.12
253.602	10.12
254.4	11.12
255.197	12.12
255.994	11.12
256.791	12.12
257.589	13.12
258.386	11.12
259.183	12.12
259.979	12.12
260.776	12.12
261.573	13.12
262.37	13.12
263.166	14.12
263.963	17.12
264.759	16.12
265.556	15.12
266.352	17.12
267.148	17.12
267.944	15.12
268.74	19.12
269.536	20.12
270.332	18.12
271.128	19.12
271.924	21.12
272.719	21.12
273.515	18.12
274.311	20.12
275.106	21.12
275.901	22.12
276.697	22.12
277.492	22.12
278.287	23.12
279.082	24.12
279.877	23.12
280.672	23.12
281.467	27.12
282.262	23.12
283.056	25.12
283.851	21.12
284.646	21.12
285.44	22.12
286.234	24.12
287.029	28.12
287.823	25.12
288.617	23.12
289.411	24.12
290.205	19.12
290.999	23.12
291.793	24.12
292.587	19.12
293.381	23.12
294.174	24.12
294.968	20.12
295.761	18.12
296.555	18.12
297.348	20.12
298.141	19.12
298.935	22.12
299.728	20.12
300.521	16.12
301.314	18.12
302.107	18.12
302.899	19.12
303.692	17.12
304.485	18.12
305.277	18.12
306.07	16.12
306.862	16.12
307.655	15.12
308.447	15.12
309.239	15.12
310.031	16.12
310.823	17.12
311.615	15.12
312.407	15.12
313.199	13.12
313.991	11.12
314.783	15.12
315.574	13.12
316.366	11.12
317.157	12.12
317.949	14.12
318.74	11.12
319.531	11.12
320.322	11.12
321.113	10.12
321.904	8.12
322.695	10.12
323.486	11.12
324.277	12.12
325.068	10.12
325.858	11.12
326.649	9.12
327.439	11.12
328.23	9.12
329.02	11.12
329.81	9.12
330.6	9.12
331.391	9.12
332.181	10.12
332.971	9.12
333.76	8.12
334.55	8.12
335.34	10.12
336.13	9.12
336.919	11.12
337.709	10.12
338.498	9.12
339.287	8.12
340.077	9.12
340.866	9.12
341.655	9.12
342.444	7.12
343.233	9.12
344.022	9.12
344.811	9.12
345.6	8.12
346.388	8.12
347.177	7.12
347.965	7.12
348.754	9.12
349.542	9.12
350.33	7.12
351.119	9.12
351.907	9.12
352.695	9.12
353.483	8.12
354.271	7.12
355.059	8.12
355.846	7.12
356.634	10.12
357.422	8.12
358.209	8.12
358.997	6.12
359.784	8.12
360.571	8.12
361.359	6.12
362.146	6.12
362.933	9.12
363.72	8.12
364.507	6.12
365.294	10.12
366.081	7.12
366.867	4.12
367.654	6.12
368.44	10.12
369.227	7.12
370.013	6.12
370.8	6.12
371.586	9.12
372.372	7.12
373.158	10.12
373.944	9.12
374.73	10.12
375.516	8.12
376.302	7.12
377.088	6.12
377.873	7.12
378.659	6.12
379.445	5.12
380.23	9.12
381.015	8.12
381.801	5.12
382.586	6.12
383.371	3.12
384.156	9.12
384.941	8.12
385.726	8.12
386.511	8.12
387.296	11.12
388.08	9.12
388.865	9.12
389.649	9.12
390.434	8.12
391.218	9.12
392.003	11.12
392.787	6.12
393.571	7.12
394.355	8.12
395.139	8.12
395.923	9.12
396.707	8.12
397.491	9.12
398.274	8.12
399.058	11.12
399.842	11.12
400.625	9.12
401.408	12.12
402.192	10.12
402.975	9.12
403.758	12.12
404.541	11.12
405.324	11.12
406.107	11.12
406.89	11.12
407.673	10.12
408.456	12.12
409.238	14.12
410.021	12.12
410.803	13.12
411.586	10.12
412.368	11.12
413.151	10.12
413.933	12.12
414.715	15.12
415.497	11.12
416.279	12.12
417.061	13.12
417.843	12.12
418.624	15.12
419.406	15.12
420.188	15.12
420.969	15.12
421.751	16.12
422.532	14.12
423.313	14.12
424.095	17.12
424.876	18.12
425.657	14.12
426.438	16.12
427.219	18.12
428	19.12
428.78	18.12
429.561	21.12
430.342	18.12
431.122	20.12
431.903	19.12
432.683	24.12
433.464	23.12
434.244	24.12
435.024	25.12
435.804	25.12
436.584	28.12
437.364	26.12
438.144	31.12
438.924	27.12
439.704	32.12
440.483	36.12
441.263	35.12
442.042	38.12
442.822	43.12
443.601	44.12
444.38	47.12
445.16	54.12
445.939	58.12
446.718	60.12
447.497	64.12
448.276	71.12
449.054	76.12
449.833	84.12
450.612	92.12
451.391	105.12
452.169	114.12
452.948	124.12
453.726	139.12
454.504	154.12
455.282	170.12
456.061	193.12
456.839	209.12
457.617	226.12
458.395	252.12
459.172	282.12
459.95	314.12
460.728	349.12
461.506	393.12
462.283	430.12
463.061	493.12
463.838	541.12
464.615	604.12
465.393	663.12
466.17	739.12
466.947	823.12
467.724	903.12
468.501	997.12
469.278	1102.12
470.055	1208.12
470.831	1358.12
471.608	1491.12
472.385	1632.12
473.161	1788.12
473.938	1967.12
474.714	2186.12
475.49	2376.12
476.266	2590.12
477.043	2832.12
477.819	3109.12
478.595	3404.12
479.371	3717.12
480.146	4070.12
480.922	4438.12
481.698	4792.12
482.473	5235.12
483.249	5672.12
484.024	6210.12
484.8	6770.12
485.575	7317.12
486.35	7889.12
487.126	8558.12
487.901	9316.12
488.676	10083.12
489.451	10898.12
490.225	11780.12
491	12713.12
491.775	13725.12
492.55	14731.12
493.324	15830.12
494.099	16942.12
494.873	18004.12
495.647	19272.12
496.422	20433.12
497.196	21741.12
497.97	23029.12
498.744	24275.12
499.518	25550.12
500.292	26632.12
501.066	27707.12
501.839	28850.12
502.613	29916.12
503.387	30659.12
504.16	31339.12
504.934	31851.12
505.707	32165.12
506.48	32343.12
507.253	32421.12
508.027	32371.12
508.8	32038.12
509.573	31727.12
510.346	31198.12
511.118	30545.12
511.891	29835.12
512.664	28933.12
513.437	28045.12
514.209	27089.12
514.982	26151.12
515.754	25214.12
516.526	24276.12
517.298	23242.12
518.071	22310.12
518.843	21444.12
519.615	20573.12
520.387	19798.12
521.159	19051.12
521.93	18334.12
522.702	17641.12
523.474	16990.12
524.245	16229.12
525.017	15566.12
525.788	14849.12
526.56	14235.12
527.331	13640.12
528.102	13043.12
528.873	12446.12
529.644	11913.12
530.415	11413.12
531.186	10880.12
531.957	10311.12
532.728	9798.12
533.498	9339.12
534.269	8776.12
535.039	8360.12
535.81	7907.12
536.58	7448.12
537.351	7052.12
538.121	6647.12
538.891	6343.12
539.661	6001.12
540.431	5672.12
541.201	5388.12
541.971	5093.12
542.741	4830.12
543.51	4575.12
544.28	4366.12
545.05	4129.12
545.819	3966.12
546.588	3745.12
547.358	3576.12
548.127	3380.12
548.896	3240.12
549.665	3042.12
550.434	2913.12
551.203	2758.12
551.972	2613.12
552.741	2472.12
553.51	2359.12
554.278	2207.12
555.047	2109.12
555.815	1987.12
556.584	1885.12
557.352	1785.12
558.121	1675.12
558.889	1576.12
559.657	1484.12
560.425	1420.12
561.193	1318.12
561.961	1268.12
562.729	1192.12
563.496	1133.12
564.264	1066.12
565.032	1022.12
565.799	966.12
566.567	901.12
567.334	854.12
568.101	807.12
568.869	761.12
569.636	722.12
570.403	677.12
571.17	637.12
571.937	613.12
572.704	573.12
573.471	537.12
574.237	506.12
575.004	476.12
575.771	460.12
576.537	421.12
577.303	406.12
578.07	380.12
578.836	354.12
579.602	332.12
580.368	322.12
581.134	300.12
581.9	294.12
582.666	276.12
583.432	264.12
584.198	253.12
584.964	231.12
585.729	224.12
586.495	206.12
587.26	196.12
588.025	186.12
588.791	178.12
589.556	166.12
590.321	161.12
591.086	149.12
591.851	145.12
592.616	139.12
593.381	130.12
594.146	124.12
594.911	120.12
595.675	114.12
596.44	107.12
597.204	108.12
597.969	99.12
598.733	95.12
599.497	88.12
600.261	91.12
601.025	82.12
601.79	83.12
602.553	72.12
603.317	71.12
604.081	73.12
604.845	70.12
605.609	65.12
606.372	59.12
607.136	59.12
607.899	58.12
608.662	54.12
609.426	50.12
610.189	51.12
610.952	49.12
611.715	48.12
612.478	47.12
613.241	44.12
614.004	40.12
614.767	42.12
615.529	39.12
616.292	38.12
617.055	33.12
617.817	34.12
618.579	34.12
619.342	30.12
620.104	31.12
620.866	33.12
621.628	28.12
622.39	30.12
623.152	26.12
623.914	27.12
624.676	26.12
625.438	26.12
626.199	25.12
626.961	25.12
627.722	20.12
628.484	24.12
629.245	22.12
630.006	19.12
630.768	21.12
631.529	20.12
632.29	18.12
633.051	19.12
633.812	17.12
634.573	20.12
635.333	17.12
636.094	16.12
636.855	17.12
637.615	14.12
638.376	15.12
639.136	16.12
639.896	15.12
640.657	15.12
641.417	13.12
642.177	13.12
642.937	10.12
643.697	14.12
644.457	13.12
645.216	13.12
645.976	14.12
646.736	11.12
647.495	13.12
648.255	11.12
649.014	13.12
649.774	12.12
650.533	10.12
651.292	13.12
652.051	11.12
652.81	8.12
653.569	9.12
654.328	9.12
655.087	11.12
655.846	9.12
656.604	10.12
657.363	9.12
658.121	6.12
658.88	10.12
659.638	9.12
660.397	10.12
661.155	9.12
661.913	11.12
662.671	6.12
663.429	8.12
664.187	8.12
664.945	6.12
665.703	8.12
666.46	5.12
667.218	8.12
667.976	6.12
668.733	7.12
669.49	7.12
670.248	6.12
671.005	6.12
671.762	7.12
672.519	6.12
673.276	4.12
674.033	6.12
674.79	7.12
675.547	8.12
676.304	7.12
677.06	6.12
677.817	8.12
678.574	7.12
679.33	6.12
680.086	7.12
680.843	7.12
681.599	4.12
682.355	8.12
683.111	6.12
683.867	7.12
684.623	6.12
685.379	6.12
686.135	6.12
686.89	4.12
687.646	8.12
688.402	9.12
689.157	8.12
689.912	9.12
690.668	5.12
691.423	8.12
692.178	7.12
692.933	6.12
693.688	8.12
694.443	5.12
695.198	4.12
695.953	5.12
696.708	4.12
697.462	5.12
698.217	5.12
698.972	4.12
699.726	5.12
700.48	5.12
701.235	5.12
701.989	5.12
702.743	8.12
703.497	5.12
704.251	5.12
705.005	5.12
705.759	7.12
706.513	6.12
707.266	7.12
708.02	3.12
708.774	7.12
709.527	6.12
710.28	8.12
711.034	4.12
711.787	8.12
712.54	6.12
713.293	6.12
714.046	6.12
714.799	5.12
715.552	5.12
716.305	5.12
717.058	5.12
717.81	6.12
718.563	4.12
719.315	5.12
720.068	5.12
720.82	7.12
721.573	6.12
722.325	6.12
723.077	5.12
723.829	6.12
724.581	6.12
725.333	7.12
726.085	7.12
726.836	5.12
727.588	7.12
728.34	5.12
729.091	7.12
729.843	5.12
730.594	5.12
731.346	5.12
732.097	5.12
732.848	9.12
733.599	5.12
734.35	7.12
735.101	8.12
735.852	6.12
736.603	5.12
737.354	6.12
738.104	7.12
738.855	7.12
739.605	9.12
740.356	8.12
741.106	8.12
741.856	6.12
742.607	6.12
743.357	8.12
744.107	7.12
744.857	6.12
745.607	5.12
746.357	4.12
747.106	9.12
747.856	8.12
748.606	7.12
749.355	7.12
750.105	7.12
750.854	8.12
751.603	7.12
752.353	9.12
753.102	9.12
753.851	9.12
754.6	7.12
755.349	8.12
756.098	8.12
756.847	9.12
757.595	9.12
758.344	7.12
759.093	9.12
759.841	9.12
760.589	9.12
761.338	7.12
762.086	10.12
762.834	7.12
763.582	9.12
764.331	8.12
765.079	7.12
765.826	9.12
766.574	11.12
767.322	9.12
768.07	8.12
768.817	10.12
769.565	8.12
770.312	11.12
771.06	11.12
771.807	10.12
772.554	9.12
773.302	9.12
774.049	11.12
774.796	11.12
775.543	9.12
776.29	11.12
777.036	10.12
777.783	11.12
778.53	9.12
779.276	11.12
780.023	11.12
780.769	13.12
781.516	10.12
782.262	9.12
783.008	11.12
783.754	11.12
784.5	12.12
785.246	12.12
785.992	12.12
786.738	11.12
787.484	12.12
788.23	12.12
788.975	12.12
789.721	12.12
790.466	14.12
791.212	11.12
791.957	10.12
792.702	11.12
793.447	12.12
794.193	12.12
794.938	12.12
795.683	13.12
796.427	8.12
797.172	10.12
797.917	11.12
798.662	11.12
799.406	11.12
800.151	10.12
800.895	9.12
801.64	11.12
802.384	10.12
803.128	6.12
803.872	9.12
804.616	10.12
805.36	7.12
806.104	10.12
806.848	6.12
807.592	9.12
808.336	10.12
809.079	10.12
809.823	7.12
810.566	7.12
811.31	7.12
812.053	9.12
812.796	9.12
813.539	7.12
814.283	5.12
815.026	11.12
815.769	6.12
816.511	7.12
817.254	7.12
817.997	9.12
818.74	5.12
819.482	6.12
820.225	7.12
820.967	5.12
821.71	5.12
822.452	7.12
823.194	5.12
823.936	6.12
824.678	5.12
825.42	6.12
826.162	6.12
826.904	7.12
827.646	7.12
828.388	4.12
829.129	6.12
829.871	6.12
830.612	4.12
831.354	5.12
832.095	4.12
832.836	4.12
833.577	6.12
834.319	5.12
835.06	6.12
835.801	5.12
836.542	7.12
837.282	3.12
838.023	5.12
838.764	6.12
839.504	7.12
840.245	2.12
840.985	4.12
841.726	3.12
842.466	5.12
843.206	4.12
843.946	5.12
844.687	8.12
845.427	5.12
846.166	4.12
846.906	5.12
847.646	4.12
848.386	5.12
849.125	5.12
849.865	2.12
850.605	4.12
851.344	4.12
852.083	3.12
852.823	6.12
853.562	5.12
854.301	4.12
855.04	3.12
855.779	6.12
856.518	5.12
857.257	4.12
857.995	2.12
858.734	3.12
859.473	3.12
860.211	3.12
860.95	5.12
861.688	4.12
862.426	4.12
863.165	3.12
863.903	3.12
864.641	4.12
865.379	2.12
866.117	3.12
866.855	5.12
867.593	2.12
868.33	2.12
869.068	2.12
869.806	6.12
870.543	1.12
871.28	3.12
872.018	4.12
872.755	-0.88
873.492	4.12
874.229	3.12
874.967	3.12
875.703	3.12
876.44	2.12
877.177	2.12
877.914	2.12
878.651	3.12
879.387	0.12
880.124	3.12
880.86	3.12
881.597	2.12
882.333	1.12
883.069	-0.88
883.806	0.12
884.542	3.12
885.278	2.12
886.014	2.12
886.749	1.12
887.485	0.12
888.221	1.12
888.957	1.12
889.692	2.12
890.428	1.12
891.163	1.12
891.899	1.12
892.634	2.12
893.369	4.12
894.104	1.12
894.839	4.12
895.574	3.12
896.309	2.12
897.044	4.12
897.779	3.12
898.514	1.12
899.248	0.12
899.983	0.12
900.717	-0.88
901.452	3.12
902.186	1.12
902.92	1.12
903.654	3.12
904.389	1.12
905.123	0.12
905.857	2.12
906.59	1.12
907.324	1.12
908.058	0.12
908.792	4.12
909.525	0.12
910.259	1.12
910.992	1.12
911.726	-0.88
912.459	2.12
913.192	0.12
913.925	1.12
914.658	-0.88
915.391	1.12
916.124	2.12
916.857	0.12
917.59	1.12
918.323	-0.88
919.055	1.12
919.788	1.12
920.521	3.12
921.253	-1.88
921.985	0.12
922.718	1.12
923.45	-0.88
924.182	3.12
924.914	1.12
925.646	3.12
926.378	2.12
927.11	1.12
927.841	2.12
928.573	1.12
929.305	1.12
930.036	1.12
930.768	2.12
931.499	3.12
932.23	1.12
932.962	2.12
933.693	-0.88
934.424	0.12
935.155	0.12
935.886	-0.88
936.617	1.12
937.348	3.12
938.078	0.12
938.809	-0.88
939.54	1.12
940.27	1.12
941.001	-0.88
941.731	3.12
942.461	1.12
943.191	2.12
943.922	2.12
944.652	1.12
945.382	0.12
946.112	3.12
946.841	1.12
947.571	1.12
948.301	2.12
949.031	1.12
949.76	1.12
950.49	2.12
951.219	1.12
951.948	2.12
952.678	2.12
953.407	-0.88
954.136	1.12
954.865	1.12
955.594	1.12
956.323	0.12
957.052	0.12
957.78	1.12
958.509	1.12
959.238	1.12
959.966	1.12
960.695	1.12
961.423	2.12
962.151	1.12
962.88	3.12
963.608	1.12
964.336	0.12
965.064	-0.88
965.792	-1.88
966.52	-0.88
967.247	1.12
967.975	3.12
968.703	1.12
969.43	1.12
970.158	1.12
970.885	-0.88
971.613	0.12
972.34	1.12
973.067	2.12
973.794	2.12
974.521	0.12
975.248	2.12
975.975	-0.88
976.702	1.12
977.429	2.12
978.156	0.12
978.882	0.12
979.609	0.12
980.335	2.12
981.062	-0.88
981.788	1.12
982.514	3.12
983.24	2.12
983.967	2.12
984.693	0.12
985.419	1.12
986.144	0.12
986.87	1.12
987.596	1.12
988.322	-0.88
989.047	1.12
989.773	1.12
990.498	1.12
991.224	3.12
991.949	1.12
992.674	2.12
993.399	1.12
994.124	3.12
994.849	2.12
995.574	1.12
996.299	3.12
997.024	1.12
997.749	1.12
998.473	-0.88
999.198	2.12
999.922	2.12
1000.647	2.12
1001.371	4.12
1002.095	-0.88
1002.82	-1.88
1003.544	1.12
1004.268	3.12
1004.992	2.12
1005.716	4.12
1006.439	3.12
1007.163	5.12
1007.887	5.12
1008.611	1.12
1009.334	2.12
1010.058	1.12
1010.781	1.12
1011.504	1.12
1012.228	1.12
1012.951	-0.88
1013.674	-0.88
1014.397	-1.88
1015.12	1.12
