节点500_425_QEPB04081__492__15-56-29-576.txt的数据

Date: Wed Nov 12 15:56:29 CST 2025
User: PC
Spectrometer: QEPB0408
触发模式: 0
积分时间 (秒): 1.000000E-2
Scans to average: 1
启用暗噪声校正: true
启用非线性校正: false
滑动平均宽度: 0
X轴模式: Wavelengths
Number of Pixels in Spectrum: 1044
>>>>>Begin Spectral Data<<<<<
220.843	2.62
221.644	2.62
222.444	3.62
223.244	4.62
224.045	3.62
224.845	3.62
225.645	4.62
226.445	5.62
227.245	3.62
228.045	3.62
228.845	4.62
229.645	3.62
230.444	5.62
231.244	3.62
232.043	4.62
232.843	4.62
233.642	4.62
234.442	4.62
235.241	7.62
236.04	6.62
236.839	3.62
237.638	5.62
238.437	6.62
239.236	7.62
240.035	8.62
240.833	7.62
241.632	7.62
242.43	8.62
243.229	7.62
244.027	8.62
244.826	7.62
245.624	7.62
246.422	8.62
247.22	8.62
248.018	9.62
248.816	8.62
249.614	10.62
250.412	9.62
251.21	9.62
252.007	8.62
252.805	10.62
253.602	8.62
254.4	7.62
255.197	9.62
255.994	8.62
256.791	11.62
257.589	12.62
258.386	13.62
259.183	14.62
259.979	14.62
260.776	14.62
261.573	12.62
262.37	13.62
263.166	15.62
263.963	13.62
264.759	15.62
265.556	14.62
266.352	15.62
267.148	18.62
267.944	15.62
268.74	17.62
269.536	17.62
270.332	17.62
271.128	17.62
271.924	19.62
272.719	18.62
273.515	18.62
274.311	20.62
275.106	18.62
275.901	21.62
276.697	22.62
277.492	22.62
278.287	22.62
279.082	24.62
279.877	24.62
280.672	21.62
281.467	22.62
282.262	20.62
283.056	26.62
283.851	23.62
284.646	24.62
285.44	22.62
286.234	24.62
287.029	22.62
287.823	22.62
288.617	26.62
289.411	24.62
290.205	21.62
290.999	20.62
291.793	21.62
292.587	21.62
293.381	22.62
294.174	19.62
294.968	22.62
295.761	21.62
296.555	21.62
297.348	20.62
298.141	18.62
298.935	19.62
299.728	18.62
300.521	19.62
301.314	18.62
302.107	17.62
302.899	18.62
303.692	17.62
304.485	18.62
305.277	15.62
306.07	18.62
306.862	16.62
307.655	15.62
308.447	16.62
309.239	15.62
310.031	16.62
310.823	13.62
311.615	12.62
312.407	12.62
313.199	13.62
313.991	13.62
314.783	12.62
315.574	11.62
316.366	11.62
317.157	11.62
317.949	11.62
318.74	8.62
319.531	9.62
320.322	9.62
321.113	12.62
321.904	10.62
322.695	10.62
323.486	13.62
324.277	9.62
325.068	10.62
325.858	10.62
326.649	10.62
327.439	7.62
328.23	7.62
329.02	7.62
329.81	8.62
330.6	9.62
331.391	8.62
332.181	6.62
332.971	7.62
333.76	8.62
334.55	7.62
335.34	10.62
336.13	9.62
336.919	6.62
337.709	7.62
338.498	9.62
339.287	7.62
340.077	6.62
340.866	8.62
341.655	8.62
342.444	8.62
343.233	7.62
344.022	7.62
344.811	8.62
345.6	7.62
346.388	9.62
347.177	9.62
347.965	8.62
348.754	6.62
349.542	7.62
350.33	9.62
351.119	8.62
351.907	6.62
352.695	7.62
353.483	10.62
354.271	9.62
355.059	9.62
355.846	6.62
356.634	7.62
357.422	7.62
358.209	6.62
358.997	7.62
359.784	4.62
360.571	5.62
361.359	7.62
362.146	6.62
362.933	7.62
363.72	7.62
364.507	6.62
365.294	7.62
366.081	5.62
366.867	9.62
367.654	8.62
368.44	5.62
369.227	7.62
370.013	7.62
370.8	6.62
371.586	6.62
372.372	5.62
373.158	7.62
373.944	7.62
374.73	6.62
375.516	7.62
376.302	6.62
377.088	7.62
377.873	6.62
378.659	9.62
379.445	7.62
380.23	7.62
381.015	7.62
381.801	7.62
382.586	4.62
383.371	6.62
384.156	4.62
384.941	5.62
385.726	11.62
386.511	6.62
387.296	9.62
388.08	7.62
388.865	8.62
389.649	7.62
390.434	4.62
391.218	8.62
392.003	6.62
392.787	9.62
393.571	8.62
394.355	5.62
395.139	11.62
395.923	7.62
396.707	10.62
397.491	5.62
398.274	8.62
399.058	8.62
399.842	8.62
400.625	8.62
401.408	9.62
402.192	10.62
402.975	9.62
403.758	7.62
404.541	8.62
405.324	10.62
406.107	9.62
406.89	9.62
407.673	8.62
408.456	13.62
409.238	9.62
410.021	12.62
410.803	10.62
411.586	12.62
412.368	9.62
413.151	10.62
413.933	11.62
414.715	8.62
415.497	13.62
416.279	11.62
417.061	12.62
417.843	13.62
418.624	11.62
419.406	12.62
420.188	14.62
420.969	17.62
421.751	14.62
422.532	16.62
423.313	15.62
424.095	14.62
424.876	17.62
425.657	18.62
426.438	16.62
427.219	13.62
428	18.62
428.78	17.62
429.561	16.62
430.342	19.62
431.122	19.62
431.903	20.62
432.683	22.62
433.464	19.62
434.244	24.62
435.024	24.62
435.804	24.62
436.584	27.62
437.364	28.62
438.144	28.62
438.924	33.62
439.704	30.62
440.483	34.62
441.263	32.62
442.042	36.62
442.822	40.62
443.601	42.62
444.38	49.62
445.16	47.62
445.939	57.62
446.718	62.62
447.497	67.62
448.276	69.62
449.054	72.62
449.833	84.62
450.612	90.62
451.391	100.62
452.169	109.62
452.948	120.62
453.726	132.62
454.504	146.62
455.282	160.62
456.061	178.62
456.839	198.62
457.617	222.62
458.395	249.62
459.172	274.62
459.95	308.62
460.728	343.62
461.506	379.62
462.283	424.62
463.061	473.62
463.838	524.62
464.615	594.62
465.393	652.62
466.17	721.62
466.947	801.62
467.724	904.62
468.501	976.62
469.278	1084.62
470.055	1209.62
470.831	1326.62
471.608	1481.62
472.385	1618.62
473.161	1787.62
473.938	1980.62
474.714	2173.62
475.49	2380.62
476.266	2597.62
477.043	2875.62
477.819	3144.62
478.595	3462.62
479.371	3784.62
480.146	4122.62
480.922	4488.62
481.698	4890.62
482.473	5332.62
483.249	5854.62
484.024	6372.62
484.8	6942.62
485.575	7515.62
486.35	8206.62
487.126	8868.62
487.901	9680.62
488.676	10482.62
489.451	11321.62
490.225	12309.62
491	13288.62
491.775	14343.62
492.55	15426.62
493.324	16663.62
494.099	17749.62
494.873	18947.62
495.647	20254.62
496.422	21516.62
497.196	22762.62
497.97	24222.62
498.744	25537.62
499.518	26758.62
500.292	27908.62
501.066	29046.62
501.839	30186.62
502.613	31193.62
503.387	31906.62
504.16	32603.62
504.934	33101.62
505.707	33341.62
506.48	33353.62
507.253	33316.62
508.027	33213.62
508.8	32795.62
509.573	32303.62
510.346	31727.62
511.118	30952.62
511.891	30181.62
512.664	29180.62
513.437	28234.62
514.209	27220.62
514.982	26303.62
515.754	25308.62
516.526	24227.62
517.298	23292.62
518.071	22284.62
518.843	21442.62
519.615	20524.62
520.387	19749.62
521.159	18998.62
521.93	18220.62
522.702	17476.62
523.474	16882.62
524.245	16199.62
525.017	15421.62
525.788	14758.62
526.56	14153.62
527.331	13512.62
528.102	12937.62
528.873	12339.62
529.644	11757.62
530.415	11269.62
531.186	10696.62
531.957	10209.62
532.728	9664.62
533.498	9126.62
534.269	8673.62
535.039	8223.62
535.81	7750.62
536.58	7354.62
537.351	6919.62
538.121	6554.62
538.891	6193.62
539.661	5902.62
540.431	5608.62
541.201	5259.62
541.971	5008.62
542.741	4759.62
543.51	4507.62
544.28	4268.62
545.05	4072.62
545.819	3888.62
546.588	3697.62
547.358	3504.62
548.127	3341.62
548.896	3149.62
549.665	2983.62
550.434	2834.62
551.203	2702.62
551.972	2588.62
552.741	2448.62
553.51	2284.62
554.278	2153.62
555.047	2038.62
555.815	1948.62
556.584	1826.62
557.352	1731.62
558.121	1625.62
558.889	1541.62
559.657	1452.62
560.425	1369.62
561.193	1296.62
561.961	1230.62
562.729	1181.62
563.496	1106.62
564.264	1042.62
565.032	979.62
565.799	935.62
566.567	883.62
567.334	826.62
568.101	787.62
568.869	736.62
569.636	700.62
570.403	666.62
571.17	622.62
571.937	582.62
572.704	551.62
573.471	529.62
574.237	497.62
575.004	456.62
575.771	436.62
576.537	416.62
577.303	394.62
578.07	359.62
578.836	343.62
579.602	326.62
580.368	308.62
581.134	295.62
581.9	279.62
582.666	264.62
583.432	253.62
584.198	244.62
584.964	225.62
585.729	216.62
586.495	202.62
587.26	195.62
588.025	181.62
588.791	174.62
589.556	160.62
590.321	155.62
591.086	149.62
591.851	137.62
592.616	130.62
593.381	128.62
594.146	116.62
594.911	114.62
595.675	115.62
596.44	109.62
597.204	98.62
597.969	100.62
598.733	96.62
599.497	92.62
600.261	83.62
601.025	76.62
601.79	75.62
602.553	72.62
603.317	71.62
604.081	67.62
604.845	66.62
605.609	63.62
606.372	60.62
607.136	56.62
607.899	54.62
608.662	56.62
609.426	50.62
610.189	50.62
610.952	46.62
611.715	41.62
612.478	44.62
613.241	41.62
614.004	39.62
614.767	39.62
615.529	39.62
616.292	38.62
617.055	33.62
617.817	34.62
618.579	32.62
619.342	30.62
620.104	30.62
620.866	25.62
621.628	27.62
622.39	29.62
623.152	29.62
623.914	26.62
624.676	25.62
625.438	24.62
626.199	23.62
626.961	24.62
627.722	20.62
628.484	18.62
629.245	18.62
630.006	17.62
630.768	19.62
631.529	17.62
632.29	16.62
633.051	18.62
633.812	16.62
634.573	17.62
635.333	14.62
636.094	13.62
636.855	15.62
637.615	14.62
638.376	12.62
639.136	13.62
639.896	13.62
640.657	14.62
641.417	12.62
642.177	14.62
642.937	10.62
643.697	13.62
644.457	11.62
645.216	10.62
645.976	14.62
646.736	9.62
647.495	10.62
648.255	9.62
649.014	10.62
649.774	11.62
650.533	7.62
651.292	8.62
652.051	10.62
652.81	7.62
653.569	8.62
654.328	8.62
655.087	10.62
655.846	8.62
656.604	10.62
657.363	9.62
658.121	5.62
658.88	6.62
659.638	8.62
660.397	8.62
661.155	6.62
661.913	8.62
662.671	7.62
663.429	5.62
664.187	5.62
664.945	6.62
665.703	9.62
666.46	7.62
667.218	5.62
667.976	6.62
668.733	7.62
669.49	7.62
670.248	6.62
671.005	8.62
671.762	6.62
672.519	7.62
673.276	7.62
674.033	4.62
674.79	8.62
675.547	5.62
676.304	3.62
677.06	6.62
677.817	6.62
678.574	6.62
679.33	5.62
680.086	3.62
680.843	6.62
681.599	7.62
682.355	6.62
683.111	5.62
683.867	5.62
684.623	4.62
685.379	5.62
686.135	4.62
686.89	6.62
687.646	4.62
688.402	5.62
689.157	4.62
689.912	6.62
690.668	7.62
691.423	6.62
692.178	5.62
692.933	4.62
693.688	3.62
694.443	7.62
695.198	5.62
695.953	3.62
696.708	5.62
697.462	4.62
698.217	3.62
698.972	2.62
699.726	5.62
700.48	4.62
701.235	5.62
701.989	6.62
702.743	7.62
703.497	6.62
704.251	6.62
705.005	6.62
705.759	4.62
706.513	5.62
707.266	5.62
708.02	3.62
708.774	5.62
709.527	5.62
710.28	2.62
711.034	4.62
711.787	6.62
712.54	6.62
713.293	8.62
714.046	4.62
714.799	4.62
715.552	3.62
716.305	7.62
717.058	4.62
717.81	4.62
718.563	7.62
719.315	4.62
720.068	6.62
720.82	5.62
721.573	4.62
722.325	5.62
723.077	7.62
723.829	5.62
724.581	5.62
725.333	4.62
726.085	4.62
726.836	3.62
727.588	4.62
728.34	2.62
729.091	7.62
729.843	4.62
730.594	4.62
731.346	2.62
732.097	5.62
732.848	4.62
733.599	8.62
734.35	6.62
735.101	5.62
735.852	3.62
736.603	3.62
737.354	3.62
738.104	5.62
738.855	5.62
739.605	7.62
740.356	7.62
741.106	4.62
741.856	6.62
742.607	7.62
743.357	6.62
744.107	7.62
744.857	6.62
745.607	7.62
746.357	8.62
747.106	4.62
747.856	6.62
748.606	7.62
749.355	6.62
750.105	7.62
750.854	9.62
751.603	6.62
752.353	5.62
753.102	6.62
753.851	9.62
754.6	5.62
755.349	7.62
756.098	8.62
756.847	7.62
757.595	9.62
758.344	7.62
759.093	6.62
759.841	8.62
760.589	10.62
761.338	7.62
762.086	6.62
762.834	10.62
763.582	9.62
764.331	7.62
765.079	8.62
765.826	8.62
766.574	8.62
767.322	10.62
768.07	7.62
768.817	8.62
769.565	12.62
770.312	11.62
771.06	9.62
771.807	10.62
772.554	8.62
773.302	9.62
774.049	9.62
774.796	10.62
775.543	9.62
776.29	7.62
777.036	9.62
777.783	8.62
778.53	12.62
779.276	11.62
780.023	9.62
780.769	12.62
781.516	11.62
782.262	8.62
783.008	11.62
783.754	10.62
784.5	10.62
785.246	11.62
785.992	7.62
786.738	12.62
787.484	10.62
788.23	10.62
788.975	9.62
789.721	8.62
790.466	10.62
791.212	9.62
791.957	12.62
792.702	11.62
793.447	10.62
794.193	10.62
794.938	9.62
795.683	10.62
796.427	10.62
797.172	9.62
797.917	10.62
798.662	9.62
799.406	6.62
800.151	8.62
800.895	7.62
801.64	10.62
802.384	7.62
803.128	8.62
803.872	7.62
804.616	7.62
805.36	9.62
806.104	8.62
806.848	7.62
807.592	6.62
808.336	10.62
809.079	7.62
809.823	6.62
810.566	6.62
811.31	7.62
812.053	8.62
812.796	8.62
813.539	6.62
814.283	5.62
815.026	6.62
815.769	6.62
816.511	8.62
817.254	4.62
817.997	4.62
818.74	6.62
819.482	5.62
820.225	6.62
820.967	5.62
821.71	5.62
822.452	6.62
823.194	7.62
823.936	6.62
824.678	7.62
825.42	5.62
826.162	4.62
826.904	5.62
827.646	7.62
828.388	5.62
829.129	6.62
829.871	7.62
830.612	5.62
831.354	4.62
832.095	4.62
832.836	4.62
833.577	4.62
834.319	4.62
835.06	3.62
835.801	4.62
836.542	5.62
837.282	6.62
838.023	3.62
838.764	6.62
839.504	4.62
840.245	6.62
840.985	4.62
841.726	5.62
842.466	5.62
843.206	3.62
843.946	4.62
844.687	0.62
845.427	4.62
846.166	3.62
846.906	5.62
847.646	5.62
848.386	4.62
849.125	3.62
849.865	4.62
850.605	5.62
851.344	1.62
852.083	3.62
852.823	4.62
853.562	1.62
854.301	6.62
855.04	1.62
855.779	2.62
856.518	3.62
857.257	0.62
857.995	2.62
858.734	2.62
859.473	1.62
860.211	1.62
860.95	2.62
861.688	3.62
862.426	2.62
863.165	4.62
863.903	3.62
864.641	3.62
865.379	2.62
866.117	1.62
866.855	3.62
867.593	2.62
868.33	4.62
869.068	2.62
869.806	3.62
870.543	2.62
871.28	0.62
872.018	2.62
872.755	2.62
873.492	-0.38
874.229	0.62
874.967	2.62
875.703	1.62
876.44	0.62
877.177	-0.38
877.914	2.62
878.651	0.62
879.387	1.62
880.124	2.62
880.86	1.62
881.597	0.62
882.333	1.62
883.069	1.62
883.806	0.62
884.542	0.62
885.278	0.62
886.014	-0.38
886.749	2.62
887.485	1.62
888.221	1.62
888.957	-0.38
889.692	2.62
890.428	2.62
891.163	-1.38
891.899	1.62
892.634	0.62
893.369	0.62
894.104	0.62
894.839	0.62
895.574	0.62
896.309	3.62
897.044	1.62
897.779	2.62
898.514	2.62
899.248	0.62
899.983	1.62
900.717	0.62
901.452	0.62
902.186	-0.38
902.92	3.62
903.654	1.62
904.389	1.62
905.123	1.62
905.857	3.62
906.59	-0.38
907.324	0.62
908.058	-1.38
908.792	0.62
909.525	-0.38
910.259	0.62
910.992	-0.38
911.726	1.62
912.459	-0.38
913.192	0.62
913.925	0.62
914.658	1.62
915.391	-0.38
916.124	-0.38
916.857	-2.38
917.59	-0.38
918.323	0.62
919.055	0.62
919.788	-1.38
920.521	-3.38
921.253	-0.38
921.985	0.62
922.718	0.62
923.45	1.62
924.182	0.62
924.914	-1.38
925.646	0.62
926.378	3.62
927.11	0.62
927.841	1.62
928.573	-1.38
929.305	-0.38
930.036	0.62
930.768	-1.38
931.499	0.62
932.23	0.62
932.962	-2.38
933.693	1.62
934.424	0.62
935.155	1.62
935.886	1.62
936.617	0.62
937.348	-0.38
938.078	0.62
938.809	-0.38
939.54	0.62
940.27	0.62
941.001	0.62
941.731	-0.38
942.461	-0.38
943.191	1.62
943.922	0.62
944.652	-1.38
945.382	1.62
946.112	-0.38
946.841	-2.38
947.571	0.62
948.301	0.62
949.031	-0.38
949.76	0.62
950.49	-1.38
951.219	2.62
951.948	-0.38
952.678	1.62
953.407	0.62
954.136	2.62
954.865	1.62
955.594	1.62
956.323	-0.38
957.052	0.62
957.78	1.62
958.509	2.62
959.238	0.62
959.966	0.62
960.695	-0.38
961.423	-0.38
962.151	1.62
962.88	1.62
963.608	-1.38
964.336	1.62
965.064	0.62
965.792	-0.38
966.52	0.62
967.247	-0.38
967.975	-0.38
968.703	2.62
969.43	-1.38
970.158	-0.38
970.885	-0.38
971.613	-1.38
972.34	0.62
973.067	-0.38
973.794	0.62
974.521	-1.38
975.248	0.62
975.975	-1.38
976.702	-1.38
977.429	0.62
978.156	-0.38
978.882	1.62
979.609	0.62
980.335	-0.38
981.062	0.62
981.788	-0.38
982.514	-0.38
983.24	2.62
983.967	0.62
984.693	-0.38
985.419	-2.38
986.144	0.62
986.87	-0.38
987.596	-0.38
988.322	-0.38
989.047	2.62
989.773	1.62
990.498	-0.38
991.224	0.62
991.949	-1.38
992.674	0.62
993.399	-0.38
994.124	-1.38
994.849	-1.38
995.574	-2.38
996.299	-0.38
997.024	-1.38
997.749	0.62
998.473	-1.38
999.198	1.62
999.922	0.62
1000.647	-0.38
1001.371	1.62
1002.095	-0.38
1002.82	-1.38
1003.544	-0.38
1004.268	4.62
1004.992	2.62
1005.716	2.62
1006.439	2.62
1007.163	0.62
1007.887	2.62
1008.611	0.62
1009.334	0.62
1010.058	-0.38
1010.781	0.62
1011.504	0.62
1012.228	1.62
1012.951	-0.38
1013.674	1.62
1014.397	-1.38
1015.12	0.62
