节点500_425_QEPB04081__410__15-55-07-694.txt的数据

Date: Wed Nov 12 15:55:07 CST 2025
User: PC
Spectrometer: QEPB0408
触发模式: 0
积分时间 (秒): 1.000000E-2
Scans to average: 1
启用暗噪声校正: true
启用非线性校正: false
滑动平均宽度: 0
X轴模式: Wavelengths
Number of Pixels in Spectrum: 1044
>>>>>Begin Spectral Data<<<<<
220.843	1.25
221.644	5.25
222.444	3.25
223.244	3.25
224.045	3.25
224.845	3.25
225.645	4.25
226.445	2.25
227.245	2.25
228.045	3.25
228.845	5.25
229.645	4.25
230.444	6.25
231.244	3.25
232.043	4.25
232.843	8.25
233.642	5.25
234.442	6.25
235.241	7.25
236.04	6.25
236.839	5.25
237.638	5.25
238.437	6.25
239.236	8.25
240.035	7.25
240.833	8.25
241.632	6.25
242.43	9.25
243.229	7.25
244.027	6.25
244.826	6.25
245.624	8.25
246.422	7.25
247.22	8.25
248.018	9.25
248.816	9.25
249.614	10.25
250.412	9.25
251.21	8.25
252.007	13.25
252.805	7.25
253.602	8.25
254.4	9.25
255.197	9.25
255.994	10.25
256.791	11.25
257.589	11.25
258.386	14.25
259.183	13.25
259.979	12.25
260.776	14.25
261.573	13.25
262.37	12.25
263.166	15.25
263.963	17.25
264.759	14.25
265.556	16.25
266.352	16.25
267.148	19.25
267.944	18.25
268.74	19.25
269.536	22.25
270.332	20.25
271.128	20.25
271.924	21.25
272.719	23.25
273.515	20.25
274.311	20.25
275.106	22.25
275.901	20.25
276.697	25.25
277.492	23.25
278.287	24.25
279.082	21.25
279.877	23.25
280.672	25.25
281.467	22.25
282.262	23.25
283.056	24.25
283.851	23.25
284.646	23.25
285.44	24.25
286.234	23.25
287.029	23.25
287.823	24.25
288.617	26.25
289.411	24.25
290.205	22.25
290.999	23.25
291.793	23.25
292.587	21.25
293.381	21.25
294.174	22.25
294.968	21.25
295.761	21.25
296.555	20.25
297.348	20.25
298.141	17.25
298.935	20.25
299.728	18.25
300.521	20.25
301.314	18.25
302.107	16.25
302.899	16.25
303.692	16.25
304.485	16.25
305.277	14.25
306.07	15.25
306.862	17.25
307.655	15.25
308.447	13.25
309.239	15.25
310.031	15.25
310.823	13.25
311.615	12.25
312.407	10.25
313.199	12.25
313.991	13.25
314.783	13.25
315.574	11.25
316.366	11.25
317.157	11.25
317.949	12.25
318.74	9.25
319.531	8.25
320.322	13.25
321.113	11.25
321.904	8.25
322.695	10.25
323.486	10.25
324.277	9.25
325.068	9.25
325.858	10.25
326.649	9.25
327.439	8.25
328.23	10.25
329.02	8.25
329.81	7.25
330.6	8.25
331.391	7.25
332.181	7.25
332.971	7.25
333.76	8.25
334.55	11.25
335.34	9.25
336.13	8.25
336.919	8.25
337.709	9.25
338.498	6.25
339.287	11.25
340.077	7.25
340.866	8.25
341.655	8.25
342.444	6.25
343.233	8.25
344.022	7.25
344.811	8.25
345.6	8.25
346.388	9.25
347.177	9.25
347.965	6.25
348.754	8.25
349.542	6.25
350.33	8.25
351.119	6.25
351.907	7.25
352.695	6.25
353.483	8.25
354.271	8.25
355.059	6.25
355.846	7.25
356.634	7.25
357.422	5.25
358.209	6.25
358.997	4.25
359.784	4.25
360.571	7.25
361.359	7.25
362.146	5.25
362.933	9.25
363.72	6.25
364.507	5.25
365.294	8.25
366.081	7.25
366.867	5.25
367.654	8.25
368.44	5.25
369.227	6.25
370.013	7.25
370.8	8.25
371.586	8.25
372.372	8.25
373.158	5.25
373.944	7.25
374.73	5.25
375.516	7.25
376.302	6.25
377.088	6.25
377.873	5.25
378.659	7.25
379.445	5.25
380.23	7.25
381.015	8.25
381.801	8.25
382.586	7.25
383.371	7.25
384.156	6.25
384.941	7.25
385.726	7.25
386.511	4.25
387.296	6.25
388.08	7.25
388.865	7.25
389.649	8.25
390.434	9.25
391.218	8.25
392.003	6.25
392.787	9.25
393.571	8.25
394.355	9.25
395.139	7.25
395.923	9.25
396.707	9.25
397.491	9.25
398.274	9.25
399.058	6.25
399.842	8.25
400.625	11.25
401.408	10.25
402.192	9.25
402.975	7.25
403.758	10.25
404.541	10.25
405.324	12.25
406.107	9.25
406.89	10.25
407.673	9.25
408.456	9.25
409.238	11.25
410.021	11.25
410.803	10.25
411.586	10.25
412.368	9.25
413.151	13.25
413.933	12.25
414.715	11.25
415.497	9.25
416.279	14.25
417.061	12.25
417.843	11.25
418.624	13.25
419.406	13.25
420.188	13.25
420.969	13.25
421.751	15.25
422.532	12.25
423.313	15.25
424.095	15.25
424.876	16.25
425.657	18.25
426.438	17.25
427.219	16.25
428	19.25
428.78	18.25
429.561	20.25
430.342	20.25
431.122	18.25
431.903	18.25
432.683	18.25
433.464	22.25
434.244	23.25
435.024	23.25
435.804	23.25
436.584	26.25
437.364	30.25
438.144	30.25
438.924	32.25
439.704	29.25
440.483	32.25
441.263	37.25
442.042	38.25
442.822	40.25
443.601	41.25
444.38	42.25
445.16	49.25
445.939	51.25
446.718	56.25
447.497	59.25
448.276	65.25
449.054	76.25
449.833	79.25
450.612	85.25
451.391	98.25
452.169	107.25
452.948	114.25
453.726	132.25
454.504	141.25
455.282	153.25
456.061	175.25
456.839	199.25
457.617	220.25
458.395	237.25
459.172	266.25
459.95	298.25
460.728	333.25
461.506	364.25
462.283	406.25
463.061	464.25
463.838	513.25
464.615	578.25
465.393	633.25
466.17	706.25
466.947	783.25
467.724	873.25
468.501	962.25
469.278	1079.25
470.055	1188.25
470.831	1307.25
471.608	1461.25
472.385	1610.25
473.161	1780.25
473.938	1953.25
474.714	2167.25
475.49	2381.25
476.266	2627.25
477.043	2880.25
477.819	3154.25
478.595	3460.25
479.371	3804.25
480.146	4143.25
480.922	4571.25
481.698	4981.25
482.473	5416.25
483.249	5967.25
484.024	6512.25
484.8	7120.25
485.575	7750.25
486.35	8377.25
487.126	9116.25
487.901	9967.25
488.676	10798.25
489.451	11741.25
490.225	12707.25
491	13720.25
491.775	14863.25
492.55	16100.25
493.324	17312.25
494.099	18446.25
494.873	19722.25
495.647	21075.25
496.422	22387.25
497.196	23811.25
497.97	25195.25
498.744	26544.25
499.518	27877.25
500.292	29076.25
501.066	30191.25
501.839	31243.25
502.613	32216.25
503.387	32970.25
504.16	33586.25
504.934	34017.25
505.707	34168.25
506.48	34177.25
507.253	33982.25
508.027	33755.25
508.8	33326.25
509.573	32738.25
510.346	32063.25
511.118	31180.25
511.891	30304.25
512.664	29232.25
513.437	28240.25
514.209	27161.25
514.982	26205.25
515.754	25144.25
516.526	24081.25
517.298	23173.25
518.071	22167.25
518.843	21276.25
519.615	20352.25
520.387	19592.25
521.159	18834.25
521.93	18140.25
522.702	17367.25
523.474	16749.25
524.245	16029.25
525.017	15371.25
525.788	14655.25
526.56	14045.25
527.331	13341.25
528.102	12735.25
528.873	12170.25
529.644	11595.25
530.415	11082.25
531.186	10613.25
531.957	10015.25
532.728	9557.25
533.498	8966.25
534.269	8507.25
535.039	8058.25
535.81	7632.25
536.58	7199.25
537.351	6797.25
538.121	6397.25
538.891	6080.25
539.661	5773.25
540.431	5449.25
541.201	5147.25
541.971	4910.25
542.741	4628.25
543.51	4397.25
544.28	4189.25
545.05	4003.25
545.819	3806.25
546.588	3614.25
547.358	3423.25
548.127	3232.25
548.896	3088.25
549.665	2935.25
550.434	2788.25
551.203	2644.25
551.972	2496.25
552.741	2380.25
553.51	2256.25
554.278	2109.25
555.047	1979.25
555.815	1886.25
556.584	1783.25
557.352	1682.25
558.121	1589.25
558.889	1501.25
559.657	1417.25
560.425	1348.25
561.193	1258.25
561.961	1200.25
562.729	1139.25
563.496	1063.25
564.264	998.25
565.032	951.25
565.799	908.25
566.567	861.25
567.334	819.25
568.101	763.25
568.869	718.25
569.636	682.25
570.403	639.25
571.17	603.25
571.937	569.25
572.704	539.25
573.471	518.25
574.237	479.25
575.004	457.25
575.771	431.25
576.537	399.25
577.303	376.25
578.07	353.25
578.836	336.25
579.602	317.25
580.368	300.25
581.134	288.25
581.9	267.25
582.666	258.25
583.432	247.25
584.198	229.25
584.964	222.25
585.729	208.25
586.495	198.25
587.26	185.25
588.025	178.25
588.791	167.25
589.556	156.25
590.321	150.25
591.086	147.25
591.851	136.25
592.616	126.25
593.381	118.25
594.146	116.25
594.911	111.25
595.675	107.25
596.44	97.25
597.204	95.25
597.969	93.25
598.733	88.25
599.497	88.25
600.261	81.25
601.025	81.25
601.79	74.25
602.553	70.25
603.317	64.25
604.081	66.25
604.845	59.25
605.609	58.25
606.372	57.25
607.136	55.25
607.899	53.25
608.662	50.25
609.426	51.25
610.189	50.25
610.952	46.25
611.715	46.25
612.478	42.25
613.241	38.25
614.004	38.25
614.767	37.25
615.529	34.25
616.292	33.25
617.055	33.25
617.817	32.25
618.579	30.25
619.342	30.25
620.104	30.25
620.866	30.25
621.628	29.25
622.39	27.25
623.152	29.25
623.914	27.25
624.676	23.25
625.438	20.25
626.199	26.25
626.961	18.25
627.722	21.25
628.484	20.25
629.245	21.25
630.006	15.25
630.768	18.25
631.529	17.25
632.29	18.25
633.051	20.25
633.812	17.25
634.573	14.25
635.333	14.25
636.094	14.25
636.855	14.25
637.615	17.25
638.376	15.25
639.136	14.25
639.896	13.25
640.657	13.25
641.417	12.25
642.177	12.25
642.937	12.25
643.697	12.25
644.457	11.25
645.216	10.25
645.976	11.25
646.736	12.25
647.495	11.25
648.255	10.25
649.014	8.25
649.774	9.25
650.533	11.25
651.292	11.25
652.051	10.25
652.81	7.25
653.569	10.25
654.328	9.25
655.087	9.25
655.846	6.25
656.604	7.25
657.363	8.25
658.121	10.25
658.88	7.25
659.638	10.25
660.397	8.25
661.155	8.25
661.913	2.25
662.671	7.25
663.429	8.25
664.187	7.25
664.945	8.25
665.703	7.25
666.46	7.25
667.218	7.25
667.976	4.25
668.733	7.25
669.49	9.25
670.248	7.25
671.005	5.25
671.762	7.25
672.519	8.25
673.276	7.25
674.033	5.25
674.79	8.25
675.547	5.25
676.304	4.25
677.06	3.25
677.817	6.25
678.574	7.25
679.33	6.25
680.086	2.25
680.843	6.25
681.599	4.25
682.355	3.25
683.111	6.25
683.867	7.25
684.623	5.25
685.379	2.25
686.135	5.25
686.89	6.25
687.646	3.25
688.402	5.25
689.157	4.25
689.912	5.25
690.668	5.25
691.423	4.25
692.178	5.25
692.933	6.25
693.688	6.25
694.443	5.25
695.198	4.25
695.953	3.25
696.708	2.25
697.462	5.25
698.217	3.25
698.972	3.25
699.726	5.25
700.48	6.25
701.235	5.25
701.989	5.25
702.743	6.25
703.497	4.25
704.251	4.25
705.005	6.25
705.759	4.25
706.513	4.25
707.266	5.25
708.02	4.25
708.774	4.25
709.527	7.25
710.28	6.25
711.034	3.25
711.787	6.25
712.54	6.25
713.293	7.25
714.046	3.25
714.799	4.25
715.552	6.25
716.305	3.25
717.058	6.25
717.81	5.25
718.563	4.25
719.315	5.25
720.068	4.25
720.82	4.25
721.573	4.25
722.325	4.25
723.077	5.25
723.829	6.25
724.581	4.25
725.333	7.25
726.085	6.25
726.836	7.25
727.588	6.25
728.34	5.25
729.091	6.25
729.843	8.25
730.594	6.25
731.346	7.25
732.097	5.25
732.848	5.25
733.599	2.25
734.35	4.25
735.101	6.25
735.852	7.25
736.603	7.25
737.354	5.25
738.104	7.25
738.855	3.25
739.605	4.25
740.356	5.25
741.106	6.25
741.856	7.25
742.607	7.25
743.357	7.25
744.107	5.25
744.857	6.25
745.607	4.25
746.357	7.25
747.106	7.25
747.856	6.25
748.606	6.25
749.355	5.25
750.105	7.25
750.854	6.25
751.603	4.25
752.353	5.25
753.102	6.25
753.851	5.25
754.6	6.25
755.349	6.25
756.098	7.25
756.847	7.25
757.595	8.25
758.344	8.25
759.093	7.25
759.841	10.25
760.589	8.25
761.338	7.25
762.086	10.25
762.834	8.25
763.582	9.25
764.331	7.25
765.079	9.25
765.826	11.25
766.574	9.25
767.322	10.25
768.07	10.25
768.817	10.25
769.565	12.25
770.312	9.25
771.06	8.25
771.807	10.25
772.554	10.25
773.302	10.25
774.049	10.25
774.796	12.25
775.543	10.25
776.29	10.25
777.036	11.25
777.783	10.25
778.53	10.25
779.276	10.25
780.023	10.25
780.769	10.25
781.516	11.25
782.262	10.25
783.008	11.25
783.754	10.25
784.5	11.25
785.246	9.25
785.992	10.25
786.738	12.25
787.484	11.25
788.23	10.25
788.975	9.25
789.721	10.25
790.466	11.25
791.212	11.25
791.957	8.25
792.702	9.25
793.447	8.25
794.193	9.25
794.938	9.25
795.683	12.25
796.427	9.25
797.172	6.25
797.917	10.25
798.662	7.25
799.406	9.25
800.151	9.25
800.895	9.25
801.64	8.25
802.384	9.25
803.128	9.25
803.872	9.25
804.616	8.25
805.36	8.25
806.104	9.25
806.848	9.25
807.592	8.25
808.336	5.25
809.079	7.25
809.823	6.25
810.566	6.25
811.31	5.25
812.053	7.25
812.796	6.25
813.539	6.25
814.283	7.25
815.026	4.25
815.769	6.25
816.511	4.25
817.254	6.25
817.997	6.25
818.74	5.25
819.482	4.25
820.225	6.25
820.967	7.25
821.71	6.25
822.452	6.25
823.194	4.25
823.936	4.25
824.678	4.25
825.42	2.25
826.162	6.25
826.904	5.25
827.646	4.25
828.388	4.25
829.129	5.25
829.871	4.25
830.612	4.25
831.354	4.25
832.095	6.25
832.836	3.25
833.577	4.25
834.319	3.25
835.06	3.25
835.801	4.25
836.542	6.25
837.282	5.25
838.023	4.25
838.764	5.25
839.504	4.25
840.245	3.25
840.985	4.25
841.726	1.25
842.466	5.25
843.206	4.25
843.946	3.25
844.687	3.25
845.427	2.25
846.166	3.25
846.906	4.25
847.646	5.25
848.386	4.25
849.125	6.25
849.865	3.25
850.605	1.25
851.344	4.25
852.083	3.25
852.823	4.25
853.562	2.25
854.301	5.25
855.04	1.25
855.779	2.25
856.518	2.25
857.257	2.25
857.995	3.25
858.734	2.25
859.473	2.25
860.211	5.25
860.95	1.25
861.688	3.25
862.426	1.25
863.165	3.25
863.903	-0.75
864.641	0.25
865.379	3.25
866.117	2.25
866.855	5.25
867.593	1.25
868.33	-0.75
869.068	2.25
869.806	1.25
870.543	2.25
871.28	0.25
872.018	3.25
872.755	1.25
873.492	1.25
874.229	2.25
874.967	-1.75
875.703	2.25
876.44	0.25
877.177	0.25
877.914	2.25
878.651	0.25
879.387	1.25
880.124	0.25
880.86	0.25
881.597	-0.75
882.333	3.25
883.069	0.25
883.806	3.25
884.542	4.25
885.278	0.25
886.014	1.25
886.749	-0.75
887.485	1.25
888.221	0.25
888.957	0.25
889.692	1.25
890.428	0.25
891.163	1.25
891.899	1.25
892.634	0.25
893.369	1.25
894.104	1.25
894.839	0.25
895.574	0.25
896.309	-0.75
897.044	0.25
897.779	-0.75
898.514	-0.75
899.248	0.25
899.983	1.25
900.717	-3.75
901.452	0.25
902.186	0.25
902.92	1.25
903.654	1.25
904.389	2.25
905.123	0.25
905.857	1.25
906.59	-0.75
907.324	0.25
908.058	-1.75
908.792	1.25
909.525	1.25
910.259	-0.75
910.992	1.25
911.726	-0.75
912.459	0.25
913.192	-1.75
913.925	1.25
914.658	1.25
915.391	3.25
916.124	-0.75
916.857	-0.75
917.59	-0.75
918.323	-0.75
919.055	0.25
919.788	0.25
920.521	-0.75
921.253	-0.75
921.985	2.25
922.718	0.25
923.45	0.25
924.182	0.25
924.914	1.25
925.646	-0.75
926.378	-0.75
927.11	0.25
927.841	0.25
928.573	1.25
929.305	-0.75
930.036	1.25
930.768	1.25
931.499	0.25
932.23	1.25
932.962	0.25
933.693	0.25
934.424	0.25
935.155	1.25
935.886	1.25
936.617	1.25
937.348	1.25
938.078	-1.75
938.809	3.25
939.54	0.25
940.27	0.25
941.001	-0.75
941.731	0.25
942.461	0.25
943.191	1.25
943.922	0.25
944.652	0.25
945.382	-0.75
946.112	-1.75
946.841	1.25
947.571	0.25
948.301	2.25
949.031	-1.75
949.76	2.25
950.49	1.25
951.219	-0.75
951.948	-0.75
952.678	-1.75
953.407	1.25
954.136	0.25
954.865	1.25
955.594	1.25
956.323	-1.75
957.052	2.25
957.78	-1.75
958.509	1.25
959.238	0.25
959.966	2.25
960.695	-0.75
961.423	0.25
962.151	0.25
962.88	-1.75
963.608	0.25
964.336	-0.75
965.064	1.25
965.792	3.25
966.52	0.25
967.247	-0.75
967.975	-0.75
968.703	2.25
969.43	0.25
970.158	1.25
970.885	-1.75
971.613	2.25
972.34	-0.75
973.067	-0.75
973.794	2.25
974.521	0.25
975.248	-0.75
975.975	-0.75
976.702	1.25
977.429	0.25
978.156	0.25
978.882	-2.75
979.609	0.25
980.335	0.25
981.062	2.25
981.788	0.25
982.514	2.25
983.24	2.25
983.967	1.25
984.693	-0.75
985.419	0.25
986.144	1.25
986.87	0.25
987.596	0.25
988.322	1.25
989.047	1.25
989.773	1.25
990.498	0.25
991.224	0.25
991.949	2.25
992.674	1.25
993.399	-0.75
994.124	0.25
994.849	1.25
995.574	0.25
996.299	1.25
997.024	1.25
997.749	1.25
998.473	-0.75
999.198	0.25
999.922	2.25
1000.647	-0.75
1001.371	4.25
1002.095	0.25
1002.82	0.25
1003.544	-3.75
1004.268	4.25
1004.992	0.25
1005.716	3.25
1006.439	2.25
1007.163	2.25
1007.887	4.25
1008.611	2.25
1009.334	-0.75
1010.058	0.25
1010.781	1.25
1011.504	0.25
1012.228	0.25
1012.951	-0.75
1013.674	0.25
1014.397	0.25
1015.12	-0.75
