节点500_425_QEPB04081__352__15-54-09-773.txt的数据

Date: Wed Nov 12 15:54:09 CST 2025
User: PC
Spectrometer: QEPB0408
触发模式: 0
积分时间 (秒): 1.000000E-2
Scans to average: 1
启用暗噪声校正: true
启用非线性校正: false
滑动平均宽度: 0
X轴模式: Wavelengths
Number of Pixels in Spectrum: 1044
>>>>>Begin Spectral Data<<<<<
220.843	2.12
221.644	1.12
222.444	4.12
223.244	3.12
224.045	4.12
224.845	3.12
225.645	3.12
226.445	5.12
227.245	4.12
228.045	7.12
228.845	3.12
229.645	5.12
230.444	1.12
231.244	3.12
232.043	6.12
232.843	4.12
233.642	8.12
234.442	4.12
235.241	7.12
236.04	5.12
236.839	5.12
237.638	6.12
238.437	7.12
239.236	5.12
240.035	6.12
240.833	7.12
241.632	10.12
242.43	6.12
243.229	8.12
244.027	8.12
244.826	8.12
245.624	7.12
246.422	6.12
247.22	7.12
248.018	6.12
248.816	9.12
249.614	9.12
250.412	7.12
251.21	9.12
252.007	9.12
252.805	12.12
253.602	10.12
254.4	11.12
255.197	10.12
255.994	12.12
256.791	14.12
257.589	12.12
258.386	12.12
259.183	14.12
259.979	15.12
260.776	15.12
261.573	13.12
262.37	15.12
263.166	16.12
263.963	14.12
264.759	14.12
265.556	14.12
266.352	20.12
267.148	17.12
267.944	15.12
268.74	20.12
269.536	18.12
270.332	20.12
271.128	18.12
271.924	21.12
272.719	22.12
273.515	21.12
274.311	20.12
275.106	22.12
275.901	22.12
276.697	27.12
277.492	22.12
278.287	22.12
279.082	25.12
279.877	24.12
280.672	22.12
281.467	25.12
282.262	24.12
283.056	27.12
283.851	24.12
284.646	27.12
285.44	25.12
286.234	25.12
287.029	26.12
287.823	21.12
288.617	21.12
289.411	25.12
290.205	22.12
290.999	24.12
291.793	21.12
292.587	22.12
293.381	24.12
294.174	18.12
294.968	25.12
295.761	19.12
296.555	23.12
297.348	18.12
298.141	19.12
298.935	23.12
299.728	21.12
300.521	19.12
301.314	18.12
302.107	17.12
302.899	18.12
303.692	18.12
304.485	17.12
305.277	18.12
306.07	18.12
306.862	17.12
307.655	17.12
308.447	16.12
309.239	14.12
310.031	15.12
310.823	14.12
311.615	12.12
312.407	12.12
313.199	14.12
313.991	13.12
314.783	12.12
315.574	11.12
316.366	12.12
317.157	12.12
317.949	10.12
318.74	8.12
319.531	10.12
320.322	11.12
321.113	11.12
321.904	10.12
322.695	12.12
323.486	9.12
324.277	9.12
325.068	12.12
325.858	9.12
326.649	8.12
327.439	10.12
328.23	7.12
329.02	9.12
329.81	10.12
330.6	10.12
331.391	8.12
332.181	8.12
332.971	9.12
333.76	9.12
334.55	11.12
335.34	10.12
336.13	6.12
336.919	10.12
337.709	6.12
338.498	8.12
339.287	8.12
340.077	7.12
340.866	9.12
341.655	9.12
342.444	10.12
343.233	8.12
344.022	8.12
344.811	9.12
345.6	10.12
346.388	8.12
347.177	8.12
347.965	9.12
348.754	9.12
349.542	7.12
350.33	7.12
351.119	5.12
351.907	7.12
352.695	5.12
353.483	7.12
354.271	7.12
355.059	10.12
355.846	9.12
356.634	6.12
357.422	9.12
358.209	7.12
358.997	7.12
359.784	7.12
360.571	9.12
361.359	8.12
362.146	8.12
362.933	8.12
363.72	6.12
364.507	6.12
365.294	8.12
366.081	7.12
366.867	7.12
367.654	7.12
368.44	6.12
369.227	8.12
370.013	6.12
370.8	7.12
371.586	8.12
372.372	8.12
373.158	5.12
373.944	6.12
374.73	7.12
375.516	5.12
376.302	9.12
377.088	7.12
377.873	5.12
378.659	8.12
379.445	6.12
380.23	8.12
381.015	5.12
381.801	6.12
382.586	6.12
383.371	4.12
384.156	8.12
384.941	6.12
385.726	6.12
386.511	7.12
387.296	7.12
388.08	6.12
388.865	8.12
389.649	9.12
390.434	7.12
391.218	10.12
392.003	8.12
392.787	9.12
393.571	7.12
394.355	7.12
395.139	9.12
395.923	7.12
396.707	10.12
397.491	10.12
398.274	10.12
399.058	10.12
399.842	9.12
400.625	10.12
401.408	8.12
402.192	9.12
402.975	11.12
403.758	8.12
404.541	11.12
405.324	8.12
406.107	9.12
406.89	12.12
407.673	10.12
408.456	11.12
409.238	12.12
410.021	12.12
410.803	10.12
411.586	10.12
412.368	12.12
413.151	10.12
413.933	12.12
414.715	12.12
415.497	12.12
416.279	14.12
417.061	12.12
417.843	14.12
418.624	12.12
419.406	15.12
420.188	13.12
420.969	12.12
421.751	14.12
422.532	12.12
423.313	18.12
424.095	15.12
424.876	17.12
425.657	17.12
426.438	16.12
427.219	17.12
428	15.12
428.78	18.12
429.561	20.12
430.342	19.12
431.122	20.12
431.903	22.12
432.683	22.12
433.464	21.12
434.244	23.12
435.024	26.12
435.804	26.12
436.584	26.12
437.364	30.12
438.144	30.12
438.924	31.12
439.704	30.12
440.483	34.12
441.263	34.12
442.042	42.12
442.822	38.12
443.601	46.12
444.38	46.12
445.16	49.12
445.939	56.12
446.718	58.12
447.497	60.12
448.276	66.12
449.054	74.12
449.833	83.12
450.612	84.12
451.391	98.12
452.169	105.12
452.948	112.12
453.726	127.12
454.504	139.12
455.282	159.12
456.061	167.12
456.839	189.12
457.617	212.12
458.395	237.12
459.172	265.12
459.95	290.12
460.728	328.12
461.506	358.12
462.283	397.12
463.061	453.12
463.838	498.12
464.615	567.12
465.393	622.12
466.17	698.12
466.947	781.12
467.724	861.12
468.501	957.12
469.278	1072.12
470.055	1181.12
470.831	1316.12
471.608	1453.12
472.385	1593.12
473.161	1780.12
473.938	1970.12
474.714	2160.12
475.49	2352.12
476.266	2610.12
477.043	2869.12
477.819	3175.12
478.595	3483.12
479.371	3839.12
480.146	4174.12
480.922	4593.12
481.698	5049.12
482.473	5513.12
483.249	6052.12
484.024	6585.12
484.8	7285.12
485.575	7861.12
486.35	8573.12
487.126	9322.12
487.901	10180.12
488.676	11063.12
489.451	12016.12
490.225	13073.12
491	14162.12
491.775	15363.12
492.55	16497.12
493.324	17787.12
494.099	18993.12
494.873	20317.12
495.647	21664.12
496.422	23049.12
497.196	24450.12
497.97	25912.12
498.744	27359.12
499.518	28727.12
500.292	29894.12
501.066	31016.12
501.839	32075.12
502.613	33065.12
503.387	33702.12
504.16	34339.12
504.934	34721.12
505.707	34802.12
506.48	34786.12
507.253	34533.12
508.027	34254.12
508.8	33742.12
509.573	33079.12
510.346	32293.12
511.118	31412.12
511.891	30436.12
512.664	29318.12
513.437	28286.12
514.209	27126.12
514.982	26170.12
515.754	25147.12
516.526	24050.12
517.298	23009.12
518.071	22171.12
518.843	21156.12
519.615	20284.12
520.387	19485.12
521.159	18791.12
521.93	18064.12
522.702	17323.12
523.474	16603.12
524.245	16006.12
525.017	15288.12
525.788	14621.12
526.56	13945.12
527.331	13330.12
528.102	12668.12
528.873	12086.12
529.644	11516.12
530.415	11017.12
531.186	10476.12
531.957	9941.12
532.728	9402.12
533.498	8891.12
534.269	8386.12
535.039	7989.12
535.81	7533.12
536.58	7082.12
537.351	6716.12
538.121	6297.12
538.891	6034.12
539.661	5642.12
540.431	5372.12
541.201	5102.12
541.971	4856.12
542.741	4587.12
543.51	4368.12
544.28	4140.12
545.05	3918.12
545.819	3752.12
546.588	3549.12
547.358	3361.12
548.127	3198.12
548.896	3047.12
549.665	2894.12
550.434	2763.12
551.203	2614.12
551.972	2465.12
552.741	2321.12
553.51	2217.12
554.278	2090.12
555.047	1942.12
555.815	1861.12
556.584	1755.12
557.352	1652.12
558.121	1573.12
558.889	1476.12
559.657	1390.12
560.425	1329.12
561.193	1253.12
561.961	1186.12
562.729	1115.12
563.496	1036.12
564.264	998.12
565.032	949.12
565.799	888.12
566.567	840.12
567.334	787.12
568.101	748.12
568.869	713.12
569.636	663.12
570.403	619.12
571.17	588.12
571.937	565.12
572.704	537.12
573.471	506.12
574.237	474.12
575.004	438.12
575.771	420.12
576.537	390.12
577.303	367.12
578.07	356.12
578.836	327.12
579.602	314.12
580.368	294.12
581.134	285.12
581.9	266.12
582.666	255.12
583.432	238.12
584.198	230.12
584.964	210.12
585.729	207.12
586.495	198.12
587.26	182.12
588.025	172.12
588.791	166.12
589.556	155.12
590.321	147.12
591.086	141.12
591.851	131.12
592.616	127.12
593.381	122.12
594.146	113.12
594.911	106.12
595.675	103.12
596.44	102.12
597.204	93.12
597.969	92.12
598.733	86.12
599.497	88.12
600.261	78.12
601.025	76.12
601.79	77.12
602.553	71.12
603.317	68.12
604.081	64.12
604.845	62.12
605.609	57.12
606.372	57.12
607.136	56.12
607.899	52.12
608.662	51.12
609.426	47.12
610.189	46.12
610.952	45.12
611.715	42.12
612.478	41.12
613.241	39.12
614.004	36.12
614.767	37.12
615.529	32.12
616.292	35.12
617.055	32.12
617.817	31.12
618.579	30.12
619.342	31.12
620.104	28.12
620.866	28.12
621.628	27.12
622.39	25.12
623.152	26.12
623.914	27.12
624.676	25.12
625.438	25.12
626.199	20.12
626.961	24.12
627.722	22.12
628.484	22.12
629.245	22.12
630.006	19.12
630.768	19.12
631.529	20.12
632.29	15.12
633.051	17.12
633.812	16.12
634.573	14.12
635.333	16.12
636.094	16.12
636.855	12.12
637.615	11.12
638.376	15.12
639.136	16.12
639.896	14.12
640.657	11.12
641.417	12.12
642.177	14.12
642.937	13.12
643.697	12.12
644.457	12.12
645.216	11.12
645.976	13.12
646.736	10.12
647.495	13.12
648.255	11.12
649.014	9.12
649.774	10.12
650.533	9.12
651.292	10.12
652.051	7.12
652.81	11.12
653.569	9.12
654.328	8.12
655.087	10.12
655.846	8.12
656.604	10.12
657.363	10.12
658.121	6.12
658.88	8.12
659.638	6.12
660.397	7.12
661.155	8.12
661.913	8.12
662.671	7.12
663.429	8.12
664.187	9.12
664.945	4.12
665.703	7.12
666.46	8.12
667.218	7.12
667.976	6.12
668.733	8.12
669.49	6.12
670.248	7.12
671.005	7.12
671.762	5.12
672.519	8.12
673.276	7.12
674.033	5.12
674.79	7.12
675.547	6.12
676.304	6.12
677.06	4.12
677.817	4.12
678.574	6.12
679.33	6.12
680.086	5.12
680.843	5.12
681.599	6.12
682.355	3.12
683.111	7.12
683.867	6.12
684.623	8.12
685.379	7.12
686.135	7.12
686.89	4.12
687.646	2.12
688.402	6.12
689.157	4.12
689.912	5.12
690.668	5.12
691.423	5.12
692.178	4.12
692.933	3.12
693.688	5.12
694.443	5.12
695.198	6.12
695.953	6.12
696.708	4.12
697.462	2.12
698.217	5.12
698.972	3.12
699.726	4.12
700.48	4.12
701.235	6.12
701.989	5.12
702.743	4.12
703.497	6.12
704.251	7.12
705.005	3.12
705.759	4.12
706.513	5.12
707.266	4.12
708.02	7.12
708.774	5.12
709.527	5.12
710.28	2.12
711.034	7.12
711.787	5.12
712.54	3.12
713.293	7.12
714.046	4.12
714.799	4.12
715.552	6.12
716.305	4.12
717.058	5.12
717.81	4.12
718.563	3.12
719.315	7.12
720.068	6.12
720.82	5.12
721.573	5.12
722.325	6.12
723.077	4.12
723.829	4.12
724.581	4.12
725.333	8.12
726.085	4.12
726.836	4.12
727.588	6.12
728.34	4.12
729.091	8.12
729.843	3.12
730.594	7.12
731.346	4.12
732.097	4.12
732.848	4.12
733.599	6.12
734.35	5.12
735.101	5.12
735.852	5.12
736.603	6.12
737.354	4.12
738.104	7.12
738.855	5.12
739.605	7.12
740.356	7.12
741.106	8.12
741.856	6.12
742.607	7.12
743.357	6.12
744.107	8.12
744.857	7.12
745.607	6.12
746.357	6.12
747.106	6.12
747.856	6.12
748.606	7.12
749.355	6.12
750.105	6.12
750.854	8.12
751.603	5.12
752.353	6.12
753.102	9.12
753.851	8.12
754.6	6.12
755.349	8.12
756.098	8.12
756.847	7.12
757.595	10.12
758.344	10.12
759.093	9.12
759.841	6.12
760.589	6.12
761.338	8.12
762.086	7.12
762.834	8.12
763.582	8.12
764.331	9.12
765.079	9.12
765.826	9.12
766.574	8.12
767.322	9.12
768.07	12.12
768.817	10.12
769.565	10.12
770.312	10.12
771.06	8.12
771.807	13.12
772.554	10.12
773.302	8.12
774.049	6.12
774.796	11.12
775.543	10.12
776.29	11.12
777.036	10.12
777.783	10.12
778.53	9.12
779.276	12.12
780.023	11.12
780.769	10.12
781.516	12.12
782.262	12.12
783.008	13.12
783.754	13.12
784.5	14.12
785.246	12.12
785.992	9.12
786.738	11.12
787.484	11.12
788.23	12.12
788.975	10.12
789.721	12.12
790.466	10.12
791.212	12.12
791.957	10.12
792.702	12.12
793.447	11.12
794.193	10.12
794.938	12.12
795.683	11.12
796.427	9.12
797.172	11.12
797.917	9.12
798.662	11.12
799.406	9.12
800.151	9.12
800.895	8.12
801.64	5.12
802.384	10.12
803.128	11.12
803.872	9.12
804.616	8.12
805.36	7.12
806.104	11.12
806.848	8.12
807.592	8.12
808.336	7.12
809.079	8.12
809.823	7.12
810.566	4.12
811.31	6.12
812.053	10.12
812.796	7.12
813.539	8.12
814.283	6.12
815.026	7.12
815.769	6.12
816.511	6.12
817.254	5.12
817.997	6.12
818.74	7.12
819.482	5.12
820.225	6.12
820.967	7.12
821.71	4.12
822.452	6.12
823.194	4.12
823.936	6.12
824.678	7.12
825.42	7.12
826.162	5.12
826.904	5.12
827.646	4.12
828.388	4.12
829.129	5.12
829.871	4.12
830.612	4.12
831.354	3.12
832.095	7.12
832.836	5.12
833.577	3.12
834.319	5.12
835.06	4.12
835.801	6.12
836.542	6.12
837.282	4.12
838.023	4.12
838.764	5.12
839.504	5.12
840.245	5.12
840.985	2.12
841.726	4.12
842.466	5.12
843.206	4.12
843.946	1.12
844.687	5.12
845.427	3.12
846.166	4.12
846.906	4.12
847.646	4.12
848.386	5.12
849.125	5.12
849.865	3.12
850.605	6.12
851.344	2.12
852.083	4.12
852.823	4.12
853.562	4.12
854.301	3.12
855.04	3.12
855.779	2.12
856.518	2.12
857.257	3.12
857.995	4.12
858.734	3.12
859.473	2.12
860.211	1.12
860.95	1.12
861.688	4.12
862.426	4.12
863.165	2.12
863.903	0.12
864.641	4.12
865.379	1.12
866.117	0.12
866.855	3.12
867.593	2.12
868.33	2.12
869.068	2.12
869.806	2.12
870.543	1.12
871.28	1.12
872.018	4.12
872.755	4.12
873.492	2.12
874.229	-0.88
874.967	2.12
875.703	1.12
876.44	2.12
877.177	-0.88
877.914	1.12
878.651	2.12
879.387	1.12
880.124	-0.88
880.86	-0.88
881.597	1.12
882.333	2.12
883.069	1.12
883.806	3.12
884.542	3.12
885.278	2.12
886.014	3.12
886.749	1.12
887.485	2.12
888.221	0.12
888.957	1.12
889.692	1.12
890.428	-1.88
891.163	0.12
891.899	0.12
892.634	-0.88
893.369	-1.88
894.104	2.12
894.839	0.12
895.574	0.12
896.309	2.12
897.044	1.12
897.779	0.12
898.514	0.12
899.248	2.12
899.983	0.12
900.717	0.12
901.452	1.12
902.186	1.12
902.92	0.12
903.654	0.12
904.389	0.12
905.123	0.12
905.857	0.12
906.59	-0.88
907.324	2.12
908.058	0.12
908.792	-0.88
909.525	1.12
910.259	1.12
910.992	2.12
911.726	1.12
912.459	1.12
913.192	0.12
913.925	0.12
914.658	-0.88
915.391	2.12
916.124	0.12
916.857	0.12
917.59	1.12
918.323	2.12
919.055	2.12
919.788	1.12
920.521	0.12
921.253	0.12
921.985	0.12
922.718	-0.88
923.45	-0.88
924.182	1.12
924.914	0.12
925.646	0.12
926.378	-0.88
927.11	-0.88
927.841	0.12
928.573	-0.88
929.305	0.12
930.036	-0.88
930.768	1.12
931.499	0.12
932.23	-0.88
932.962	0.12
933.693	1.12
934.424	0.12
935.155	0.12
935.886	-0.88
936.617	-0.88
937.348	-0.88
938.078	0.12
938.809	-3.88
939.54	0.12
940.27	1.12
941.001	-0.88
941.731	0.12
942.461	-0.88
943.191	0.12
943.922	0.12
944.652	2.12
945.382	0.12
946.112	-0.88
946.841	1.12
947.571	0.12
948.301	-2.88
949.031	2.12
949.76	-1.88
950.49	2.12
951.219	1.12
951.948	1.12
952.678	-1.88
953.407	-0.88
954.136	0.12
954.865	0.12
955.594	0.12
956.323	0.12
957.052	0.12
957.78	1.12
958.509	1.12
959.238	0.12
959.966	0.12
960.695	-0.88
961.423	0.12
962.151	1.12
962.88	0.12
963.608	-0.88
964.336	1.12
965.064	0.12
965.792	0.12
966.52	-0.88
967.247	-0.88
967.975	0.12
968.703	0.12
969.43	0.12
970.158	-0.88
970.885	1.12
971.613	1.12
972.34	-0.88
973.067	1.12
973.794	1.12
974.521	1.12
975.248	2.12
975.975	-0.88
976.702	0.12
977.429	-1.88
978.156	0.12
978.882	-1.88
979.609	0.12
980.335	-0.88
981.062	-0.88
981.788	0.12
982.514	0.12
983.24	1.12
983.967	0.12
984.693	-0.88
985.419	1.12
986.144	-1.88
986.87	1.12
987.596	0.12
988.322	3.12
989.047	-0.88
989.773	1.12
990.498	2.12
991.224	-0.88
991.949	-0.88
992.674	2.12
993.399	0.12
994.124	2.12
994.849	-0.88
995.574	-1.88
996.299	-0.88
997.024	0.12
997.749	1.12
998.473	0.12
999.198	1.12
999.922	1.12
1000.647	-0.88
1001.371	3.12
1002.095	-0.88
1002.82	-1.88
1003.544	-2.88
1004.268	1.12
1004.992	0.12
1005.716	1.12
1006.439	3.12
1007.163	3.12
1007.887	2.12
1008.611	1.12
1009.334	-1.88
1010.058	0.12
1010.781	0.12
1011.504	0.12
1012.228	0.12
1012.951	0.12
1013.674	0.12
1014.397	0.12
1015.12	2.12
