节点500_425_QEPB04081__567__15-57-44-420.txt的数据

Date: Wed Nov 12 15:57:44 CST 2025
User: PC
Spectrometer: QEPB0408
触发模式: 0
积分时间 (秒): 1.000000E-2
Scans to average: 1
启用暗噪声校正: true
启用非线性校正: false
滑动平均宽度: 0
X轴模式: Wavelengths
Number of Pixels in Spectrum: 1044
>>>>>Begin Spectral Data<<<<<
220.843	1
221.644	2
222.444	2
223.244	2
224.045	4
224.845	3
225.645	4
226.445	2
227.245	2
228.045	4
228.845	5
229.645	5
230.444	2
231.244	4
232.043	4
232.843	3
233.642	5
234.442	6
235.241	7
236.04	4
236.839	8
237.638	6
238.437	7
239.236	7
240.035	6
240.833	6
241.632	7
242.43	5
243.229	8
244.027	6
244.826	8
245.624	7
246.422	7
247.22	8
248.018	6
248.816	11
249.614	9
250.412	7
251.21	8
252.007	10
252.805	7
253.602	11
254.4	11
255.197	10
255.994	11
256.791	9
257.589	10
258.386	12
259.183	13
259.979	8
260.776	14
261.573	12
262.37	14
263.166	14
263.963	15
264.759	15
265.556	17
266.352	16
267.148	15
267.944	17
268.74	15
269.536	19
270.332	18
271.128	18
271.924	20
272.719	16
273.515	20
274.311	18
275.106	19
275.901	19
276.697	18
277.492	21
278.287	20
279.082	22
279.877	23
280.672	24
281.467	19
282.262	21
283.056	25
283.851	20
284.646	24
285.44	23
286.234	25
287.029	22
287.823	23
288.617	19
289.411	23
290.205	20
290.999	22
291.793	20
292.587	23
293.381	19
294.174	22
294.968	21
295.761	18
296.555	20
297.348	17
298.141	20
298.935	24
299.728	19
300.521	17
301.314	16
302.107	18
302.899	18
303.692	16
304.485	16
305.277	14
306.07	16
306.862	16
307.655	16
308.447	12
309.239	14
310.031	18
310.823	10
311.615	15
312.407	15
313.199	13
313.991	13
314.783	12
315.574	13
316.366	12
317.157	10
317.949	10
318.74	10
319.531	11
320.322	8
321.113	11
321.904	10
322.695	7
323.486	7
324.277	7
325.068	8
325.858	11
326.649	9
327.439	9
328.23	9
329.02	8
329.81	6
330.6	8
331.391	9
332.181	9
332.971	8
333.76	8
334.55	10
335.34	9
336.13	10
336.919	9
337.709	8
338.498	8
339.287	6
340.077	9
340.866	9
341.655	7
342.444	7
343.233	6
344.022	8
344.811	8
345.6	9
346.388	9
347.177	6
347.965	10
348.754	7
349.542	5
350.33	8
351.119	8
351.907	8
352.695	8
353.483	8
354.271	7
355.059	6
355.846	8
356.634	5
357.422	11
358.209	7
358.997	7
359.784	5
360.571	7
361.359	7
362.146	5
362.933	5
363.72	8
364.507	7
365.294	9
366.081	5
366.867	7
367.654	6
368.44	7
369.227	4
370.013	6
370.8	8
371.586	6
372.372	4
373.158	7
373.944	5
374.73	4
375.516	7
376.302	6
377.088	8
377.873	7
378.659	4
379.445	6
380.23	10
381.015	4
381.801	6
382.586	7
383.371	6
384.156	8
384.941	5
385.726	5
386.511	7
387.296	6
388.08	4
388.865	8
389.649	9
390.434	7
391.218	8
392.003	7
392.787	8
393.571	8
394.355	5
395.139	6
395.923	7
396.707	7
397.491	9
398.274	8
399.058	7
399.842	6
400.625	10
401.408	9
402.192	7
402.975	9
403.758	8
404.541	9
405.324	8
406.107	11
406.89	8
407.673	10
408.456	12
409.238	8
410.021	11
410.803	10
411.586	10
412.368	8
413.151	9
413.933	9
414.715	10
415.497	12
416.279	12
417.061	12
417.843	12
418.624	10
419.406	13
420.188	10
420.969	12
421.751	14
422.532	13
423.313	14
424.095	16
424.876	16
425.657	14
426.438	15
427.219	16
428	18
428.78	18
429.561	15
430.342	18
431.122	20
431.903	20
432.683	21
433.464	22
434.244	26
435.024	26
435.804	26
436.584	26
437.364	26
438.144	28
438.924	34
439.704	31
440.483	34
441.263	34
442.042	37
442.822	42
443.601	41
444.38	45
445.16	51
445.939	54
446.718	62
447.497	64
448.276	72
449.054	73
449.833	89
450.612	92
451.391	104
452.169	112
452.948	119
453.726	130
454.504	146
455.282	170
456.061	184
456.839	200
457.617	223
458.395	254
459.172	285
459.95	308
460.728	346
461.506	389
462.283	421
463.061	480
463.838	529
464.615	606
465.393	657
466.17	728
466.947	814
467.724	894
468.501	989
469.278	1112
470.055	1228
470.831	1335
471.608	1478
472.385	1641
473.161	1792
473.938	1975
474.714	2162
475.49	2371
476.266	2591
477.043	2849
477.819	3114
478.595	3403
479.371	3741
480.146	4078
480.922	4411
481.698	4838
482.473	5259
483.249	5721
484.024	6250
484.8	6783
485.575	7338
486.35	7974
487.126	8643
487.901	9343
488.676	10160
489.451	10962
490.225	11858
491	12742
491.775	13839
492.55	14828
493.324	15922
494.099	17058
494.873	18187
495.647	19398
496.422	20625
497.196	21875
497.97	23185
498.744	24467
499.518	25705
500.292	26857
501.066	27935
501.839	29097
502.613	30070
503.387	30848
504.16	31531
504.934	32158
505.707	32397
506.48	32443
507.253	32580
508.027	32504
508.8	32204
509.573	31868
510.346	31250
511.118	30660
511.891	29869
512.664	28976
513.437	28073
514.209	27060
514.982	26250
515.754	25229
516.526	24185
517.298	23286
518.071	22333
518.843	21456
519.615	20598
520.387	19777
521.159	18989
521.93	18352
522.702	17575
523.474	16899
524.245	16303
525.017	15569
525.788	14883
526.56	14219
527.331	13584
528.102	12995
528.873	12420
529.644	11809
530.415	11342
531.186	10856
531.957	10300
532.728	9769
533.498	9230
534.269	8765
535.039	8300
535.81	7884
536.58	7443
537.351	7038
538.121	6650
538.891	6289
539.661	5976
540.431	5673
541.201	5361
541.971	5065
542.741	4825
543.51	4573
544.28	4371
545.05	4120
545.819	3962
546.588	3762
547.358	3540
548.127	3368
548.896	3205
549.665	3048
550.434	2887
551.203	2737
551.972	2602
552.741	2466
553.51	2337
554.278	2219
555.047	2076
555.815	1971
556.584	1866
557.352	1757
558.121	1665
558.889	1578
559.657	1478
560.425	1410
561.193	1324
561.961	1273
562.729	1202
563.496	1125
564.264	1067
565.032	1010
565.799	954
566.567	902
567.334	844
568.101	806
568.869	761
569.636	724
570.403	674
571.17	633
571.937	596
572.704	571
573.471	536
574.237	512
575.004	481
575.771	446
576.537	417
577.303	396
578.07	379
578.836	354
579.602	337
580.368	314
581.134	308
581.9	286
582.666	281
583.432	262
584.198	242
584.964	233
585.729	218
586.495	206
587.26	195
588.025	188
588.791	172
589.556	173
590.321	163
591.086	152
591.851	144
592.616	139
593.381	127
594.146	126
594.911	121
595.675	112
596.44	106
597.204	102
597.969	99
598.733	92
599.497	89
600.261	86
601.025	81
601.79	79
602.553	74
603.317	72
604.081	65
604.845	65
605.609	63
606.372	57
607.136	56
607.899	54
608.662	55
609.426	50
610.189	50
610.952	51
611.715	44
612.478	46
613.241	42
614.004	39
614.767	39
615.529	36
616.292	31
617.055	37
617.817	35
618.579	28
619.342	34
620.104	28
620.866	29
621.628	28
622.39	29
623.152	26
623.914	25
624.676	24
625.438	26
626.199	23
626.961	23
627.722	23
628.484	20
629.245	25
630.006	20
630.768	18
631.529	15
632.29	17
633.051	17
633.812	17
634.573	16
635.333	15
636.094	17
636.855	16
637.615	13
638.376	14
639.136	14
639.896	13
640.657	11
641.417	14
642.177	13
642.937	13
643.697	11
644.457	14
645.216	12
645.976	11
646.736	11
647.495	10
648.255	8
649.014	9
649.774	7
650.533	10
651.292	10
652.051	10
652.81	9
653.569	11
654.328	12
655.087	10
655.846	8
656.604	8
657.363	7
658.121	10
658.88	8
659.638	8
660.397	8
661.155	6
661.913	8
662.671	6
663.429	8
664.187	5
664.945	6
665.703	6
666.46	6
667.218	7
667.976	7
668.733	7
669.49	5
670.248	5
671.005	8
671.762	5
672.519	9
673.276	7
674.033	7
674.79	8
675.547	3
676.304	5
677.06	5
677.817	7
678.574	5
679.33	7
680.086	8
680.843	6
681.599	9
682.355	5
683.111	3
683.867	6
684.623	5
685.379	6
686.135	6
686.89	5
687.646	6
688.402	2
689.157	5
689.912	3
690.668	4
691.423	6
692.178	3
692.933	4
693.688	5
694.443	5
695.198	6
695.953	6
696.708	5
697.462	7
698.217	4
698.972	4
699.726	5
700.48	5
701.235	5
701.989	3
702.743	3
703.497	1
704.251	3
705.005	6
705.759	4
706.513	5
707.266	3
708.02	5
708.774	3
709.527	5
710.28	4
711.034	5
711.787	4
712.54	3
713.293	4
714.046	3
714.799	6
715.552	5
716.305	3
717.058	3
717.81	4
718.563	4
719.315	3
720.068	5
720.82	3
721.573	6
722.325	5
723.077	4
723.829	4
724.581	3
725.333	5
726.085	5
726.836	4
727.588	7
728.34	4
729.091	6
729.843	5
730.594	6
731.346	4
732.097	6
732.848	4
733.599	4
734.35	6
735.101	4
735.852	5
736.603	7
737.354	7
738.104	5
738.855	5
739.605	6
740.356	7
741.106	6
741.856	7
742.607	6
743.357	4
744.107	8
744.857	6
745.607	6
746.357	8
747.106	4
747.856	6
748.606	4
749.355	3
750.105	7
750.854	7
751.603	4
752.353	7
753.102	7
753.851	8
754.6	9
755.349	8
756.098	6
756.847	8
757.595	6
758.344	8
759.093	8
759.841	7
760.589	7
761.338	6
762.086	7
762.834	9
763.582	6
764.331	7
765.079	7
765.826	8
766.574	8
767.322	9
768.07	8
768.817	7
769.565	7
770.312	9
771.06	9
771.807	8
772.554	8
773.302	12
774.049	7
774.796	9
775.543	7
776.29	10
777.036	10
777.783	9
778.53	10
779.276	8
780.023	10
780.769	5
781.516	12
782.262	11
783.008	11
783.754	11
784.5	12
785.246	9
785.992	12
786.738	9
787.484	11
788.23	10
788.975	10
789.721	11
790.466	9
791.212	11
791.957	11
792.702	10
793.447	10
794.193	10
794.938	10
795.683	9
796.427	8
797.172	11
797.917	6
798.662	11
799.406	9
800.151	9
800.895	9
801.64	9
802.384	8
803.128	6
803.872	10
804.616	8
805.36	7
806.104	7
806.848	8
807.592	9
808.336	6
809.079	8
809.823	7
810.566	8
811.31	8
812.053	8
812.796	5
813.539	6
814.283	6
815.026	6
815.769	5
816.511	7
817.254	5
817.997	7
818.74	7
819.482	8
820.225	2
820.967	6
821.71	5
822.452	4
823.194	4
823.936	6
824.678	4
825.42	6
826.162	3
826.904	5
827.646	7
828.388	5
829.129	5
829.871	3
830.612	6
831.354	4
832.095	6
832.836	3
833.577	5
834.319	4
835.06	4
835.801	6
836.542	4
837.282	5
838.023	2
838.764	4
839.504	4
840.245	2
840.985	5
841.726	4
842.466	3
843.206	4
843.946	3
844.687	5
845.427	4
846.166	3
846.906	4
847.646	2
848.386	4
849.125	4
849.865	4
850.605	3
851.344	3
852.083	4
852.823	4
853.562	3
854.301	3
855.04	2
855.779	3
856.518	3
857.257	2
857.995	3
858.734	2
859.473	2
860.211	4
860.95	2
861.688	3
862.426	3
863.165	2
863.903	4
864.641	2
865.379	2
866.117	2
866.855	2
867.593	3
868.33	3
869.068	3
869.806	2
870.543	0
871.28	3
872.018	0
872.755	-1
873.492	1
874.229	2
874.967	1
875.703	1
876.44	2
877.177	0
877.914	-1
878.651	0
879.387	2
880.124	0
880.86	1
881.597	1
882.333	1
883.069	1
883.806	0
884.542	3
885.278	0
886.014	1
886.749	1
887.485	2
888.221	1
888.957	0
889.692	0
890.428	3
891.163	0
891.899	1
892.634	1
893.369	1
894.104	2
894.839	0
895.574	1
896.309	-1
897.044	0
897.779	1
898.514	1
899.248	0
899.983	-2
900.717	-2
901.452	-1
902.186	1
902.92	2
903.654	-2
904.389	1
905.123	0
905.857	0
906.59	1
907.324	0
908.058	1
908.792	0
909.525	2
910.259	-1
910.992	-1
911.726	0
912.459	1
913.192	0
913.925	0
914.658	0
915.391	0
916.124	-1
916.857	-1
917.59	0
918.323	1
919.055	-1
919.788	-1
920.521	1
921.253	0
921.985	1
922.718	2
923.45	0
924.182	0
924.914	-1
925.646	1
926.378	-1
927.11	0
927.841	-1
928.573	-1
929.305	1
930.036	2
930.768	0
931.499	-2
932.23	-1
932.962	-1
933.693	-1
934.424	2
935.155	-2
935.886	-2
936.617	0
937.348	0
938.078	0
938.809	-1
939.54	0
940.27	1
941.001	-1
941.731	0
942.461	0
943.191	1
943.922	0
944.652	-4
945.382	0
946.112	0
946.841	0
947.571	0
948.301	-2
949.031	-1
949.76	2
950.49	3
951.219	0
951.948	2
952.678	0
953.407	-2
954.136	2
954.865	-1
955.594	0
956.323	-2
957.052	2
957.78	1
958.509	-1
959.238	0
959.966	0
960.695	0
961.423	0
962.151	0
962.88	0
963.608	-1
964.336	1
965.064	0
965.792	1
966.52	0
967.247	-1
967.975	0
968.703	-2
969.43	2
970.158	-1
970.885	-2
971.613	-2
972.34	-1
973.067	0
973.794	0
974.521	0
975.248	2
975.975	0
976.702	0
977.429	-1
978.156	1
978.882	-1
979.609	0
980.335	-2
981.062	0
981.788	-2
982.514	-1
983.24	1
983.967	0
984.693	1
985.419	0
986.144	1
986.87	3
987.596	0
988.322	0
989.047	0
989.773	-2
990.498	1
991.224	-1
991.949	2
992.674	-1
993.399	0
994.124	2
994.849	0
995.574	-1
996.299	0
997.024	0
997.749	0
998.473	2
999.198	-1
999.922	-1
1000.647	1
1001.371	3
1002.095	-2
1002.82	-1
1003.544	-1
1004.268	3
1004.992	1
1005.716	1
1006.439	0
1007.163	2
1007.887	4
1008.611	-2
1009.334	0
1010.058	0
1010.781	0
1011.504	2
1012.228	-2
1012.951	0
1013.674	0
1014.397	1
1015.12	0
