节点500_425_QEPB04081__109__15-50-07-305.txt的数据

Date: Wed Nov 12 15:50:07 CST 2025
User: PC
Spectrometer: QEPB0408
触发模式: 0
积分时间 (秒): 1.000000E-2
Scans to average: 1
启用暗噪声校正: true
启用非线性校正: false
滑动平均宽度: 0
X轴模式: Wavelengths
Number of Pixels in Spectrum: 1044
>>>>>Begin Spectral Data<<<<<
220.843	3.88
221.644	3.88
222.444	4.88
223.244	4.88
224.045	4.88
224.845	2.88
225.645	3.88
226.445	4.88
227.245	3.88
228.045	5.88
228.845	2.88
229.645	4.88
230.444	6.88
231.244	4.88
232.043	5.88
232.843	4.88
233.642	7.88
234.442	4.88
235.241	4.88
236.04	5.88
236.839	4.88
237.638	7.88
238.437	8.88
239.236	7.88
240.035	8.88
240.833	10.88
241.632	8.88
242.43	9.88
243.229	8.88
244.027	6.88
244.826	7.88
245.624	8.88
246.422	8.88
247.22	8.88
248.018	8.88
248.816	11.88
249.614	9.88
250.412	10.88
251.21	10.88
252.007	10.88
252.805	11.88
253.602	10.88
254.4	12.88
255.197	13.88
255.994	12.88
256.791	13.88
257.589	13.88
258.386	14.88
259.183	13.88
259.979	15.88
260.776	14.88
261.573	14.88
262.37	16.88
263.166	16.88
263.963	18.88
264.759	18.88
265.556	19.88
266.352	17.88
267.148	17.88
267.944	19.88
268.74	21.88
269.536	22.88
270.332	22.88
271.128	22.88
271.924	23.88
272.719	21.88
273.515	27.88
274.311	25.88
275.106	26.88
275.901	25.88
276.697	22.88
277.492	27.88
278.287	24.88
279.082	24.88
279.877	27.88
280.672	28.88
281.467	26.88
282.262	25.88
283.056	28.88
283.851	28.88
284.646	26.88
285.44	25.88
286.234	25.88
287.029	23.88
287.823	23.88
288.617	28.88
289.411	26.88
290.205	25.88
290.999	23.88
291.793	22.88
292.587	25.88
293.381	23.88
294.174	23.88
294.968	26.88
295.761	21.88
296.555	22.88
297.348	21.88
298.141	17.88
298.935	23.88
299.728	22.88
300.521	18.88
301.314	17.88
302.107	18.88
302.899	17.88
303.692	17.88
304.485	18.88
305.277	16.88
306.07	15.88
306.862	15.88
307.655	13.88
308.447	16.88
309.239	15.88
310.031	14.88
310.823	13.88
311.615	13.88
312.407	11.88
313.199	10.88
313.991	14.88
314.783	11.88
315.574	8.88
316.366	12.88
317.157	13.88
317.949	11.88
318.74	11.88
319.531	12.88
320.322	9.88
321.113	11.88
321.904	6.88
322.695	7.88
323.486	10.88
324.277	9.88
325.068	9.88
325.858	9.88
326.649	8.88
327.439	8.88
328.23	9.88
329.02	10.88
329.81	11.88
330.6	10.88
331.391	8.88
332.181	8.88
332.971	8.88
333.76	9.88
334.55	10.88
335.34	9.88
336.13	9.88
336.919	6.88
337.709	7.88
338.498	9.88
339.287	7.88
340.077	9.88
340.866	6.88
341.655	11.88
342.444	9.88
343.233	6.88
344.022	6.88
344.811	9.88
345.6	10.88
346.388	7.88
347.177	8.88
347.965	9.88
348.754	7.88
349.542	9.88
350.33	6.88
351.119	8.88
351.907	6.88
352.695	8.88
353.483	6.88
354.271	8.88
355.059	6.88
355.846	8.88
356.634	7.88
357.422	7.88
358.209	5.88
358.997	6.88
359.784	7.88
360.571	9.88
361.359	7.88
362.146	6.88
362.933	6.88
363.72	7.88
364.507	6.88
365.294	6.88
366.081	7.88
366.867	7.88
367.654	5.88
368.44	10.88
369.227	5.88
370.013	8.88
370.8	6.88
371.586	7.88
372.372	7.88
373.158	7.88
373.944	6.88
374.73	6.88
375.516	6.88
376.302	9.88
377.088	6.88
377.873	8.88
378.659	7.88
379.445	5.88
380.23	7.88
381.015	7.88
381.801	8.88
382.586	8.88
383.371	7.88
384.156	4.88
384.941	8.88
385.726	5.88
386.511	6.88
387.296	8.88
388.08	7.88
388.865	10.88
389.649	11.88
390.434	9.88
391.218	7.88
392.003	7.88
392.787	9.88
393.571	8.88
394.355	11.88
395.139	7.88
395.923	6.88
396.707	9.88
397.491	7.88
398.274	11.88
399.058	7.88
399.842	9.88
400.625	11.88
401.408	9.88
402.192	10.88
402.975	10.88
403.758	12.88
404.541	10.88
405.324	8.88
406.107	9.88
406.89	8.88
407.673	11.88
408.456	10.88
409.238	15.88
410.021	11.88
410.803	12.88
411.586	10.88
412.368	11.88
413.151	13.88
413.933	9.88
414.715	15.88
415.497	12.88
416.279	13.88
417.061	14.88
417.843	11.88
418.624	12.88
419.406	13.88
420.188	14.88
420.969	14.88
421.751	12.88
422.532	15.88
423.313	14.88
424.095	15.88
424.876	14.88
425.657	16.88
426.438	16.88
427.219	18.88
428	18.88
428.78	20.88
429.561	18.88
430.342	16.88
431.122	21.88
431.903	21.88
432.683	22.88
433.464	23.88
434.244	23.88
435.024	24.88
435.804	27.88
436.584	28.88
437.364	27.88
438.144	29.88
438.924	31.88
439.704	31.88
440.483	29.88
441.263	33.88
442.042	37.88
442.822	39.88
443.601	41.88
444.38	43.88
445.16	51.88
445.939	50.88
446.718	56.88
447.497	59.88
448.276	62.88
449.054	69.88
449.833	77.88
450.612	81.88
451.391	87.88
452.169	99.88
452.948	107.88
453.726	116.88
454.504	130.88
455.282	144.88
456.061	159.88
456.839	178.88
457.617	199.88
458.395	218.88
459.172	242.88
459.95	273.88
460.728	309.88
461.506	340.88
462.283	375.88
463.061	420.88
463.838	471.88
464.615	531.88
465.393	600.88
466.17	659.88
466.947	738.88
467.724	824.88
468.501	922.88
469.278	1015.88
470.055	1146.88
470.831	1273.88
471.608	1405.88
472.385	1579.88
473.161	1756.88
473.938	1941.88
474.714	2162.88
475.49	2373.88
476.266	2616.88
477.043	2898.88
477.819	3187.88
478.595	3556.88
479.371	3937.88
480.146	4330.88
480.922	4712.88
481.698	5223.88
482.473	5738.88
483.249	6321.88
484.024	6983.88
484.8	7641.88
485.575	8378.88
486.35	9168.88
487.126	10036.88
487.901	11014.88
488.676	12018.88
489.451	13093.88
490.225	14307.88
491	15464.88
491.775	16903.88
492.55	18221.88
493.324	19667.88
494.099	21140.88
494.873	22522.88
495.647	23998.88
496.422	25577.88
497.196	27104.88
497.97	28659.88
498.744	30298.88
499.518	31591.88
500.292	32783.88
501.066	34022.88
501.839	35037.88
502.613	35843.88
503.387	36479.88
504.16	36854.88
504.934	36999.88
505.707	36844.88
506.48	36667.88
507.253	36072.88
508.027	35552.88
508.8	34886.88
509.573	33914.88
510.346	32929.88
511.118	31866.88
511.891	30757.88
512.664	29486.88
513.437	28209.88
514.209	27063.88
514.982	25984.88
515.754	24911.88
516.526	23671.88
517.298	22736.88
518.071	21754.88
518.843	20878.88
519.615	20002.88
520.387	19224.88
521.159	18520.88
521.93	17799.88
522.702	17119.88
523.474	16382.88
524.245	15762.88
525.017	14977.88
525.788	14278.88
526.56	13678.88
527.331	13010.88
528.102	12398.88
528.873	11730.88
529.644	11171.88
530.415	10663.88
531.186	10146.88
531.957	9541.88
532.728	9021.88
533.498	8547.88
534.269	8025.88
535.039	7647.88
535.81	7183.88
536.58	6770.88
537.351	6404.88
538.121	6031.88
538.891	5717.88
539.661	5409.88
540.431	5151.88
541.201	4882.88
541.971	4620.88
542.741	4375.88
543.51	4167.88
544.28	3967.88
545.05	3771.88
545.819	3597.88
546.588	3399.88
547.358	3207.88
548.127	3046.88
548.896	2874.88
549.665	2747.88
550.434	2609.88
551.203	2476.88
551.972	2334.88
552.741	2202.88
553.51	2089.88
554.278	1961.88
555.047	1862.88
555.815	1736.88
556.584	1644.88
557.352	1556.88
558.121	1469.88
558.889	1380.88
559.657	1310.88
560.425	1232.88
561.193	1170.88
561.961	1107.88
562.729	1052.88
563.496	976.88
564.264	934.88
565.032	884.88
565.799	831.88
566.567	786.88
567.334	743.88
568.101	707.88
568.869	668.88
569.636	638.88
570.403	593.88
571.17	572.88
571.937	534.88
572.704	497.88
573.471	477.88
574.237	441.88
575.004	415.88
575.771	392.88
576.537	367.88
577.303	347.88
578.07	325.88
578.836	310.88
579.602	295.88
580.368	278.88
581.134	265.88
581.9	257.88
582.666	242.88
583.432	229.88
584.198	212.88
584.964	204.88
585.729	193.88
586.495	187.88
587.26	166.88
588.025	165.88
588.791	160.88
589.556	150.88
590.321	142.88
591.086	130.88
591.851	125.88
592.616	119.88
593.381	117.88
594.146	108.88
594.911	105.88
595.675	104.88
596.44	98.88
597.204	89.88
597.969	88.88
598.733	87.88
599.497	78.88
600.261	76.88
601.025	73.88
601.79	69.88
602.553	67.88
603.317	66.88
604.081	67.88
604.845	58.88
605.609	56.88
606.372	56.88
607.136	48.88
607.899	51.88
608.662	48.88
609.426	44.88
610.189	45.88
610.952	42.88
611.715	38.88
612.478	40.88
613.241	37.88
614.004	34.88
614.767	34.88
615.529	37.88
616.292	32.88
617.055	32.88
617.817	29.88
618.579	28.88
619.342	30.88
620.104	24.88
620.866	28.88
621.628	26.88
622.39	25.88
623.152	23.88
623.914	25.88
624.676	25.88
625.438	23.88
626.199	24.88
626.961	23.88
627.722	19.88
628.484	19.88
629.245	16.88
630.006	22.88
630.768	17.88
631.529	17.88
632.29	18.88
633.051	15.88
633.812	16.88
634.573	16.88
635.333	14.88
636.094	15.88
636.855	15.88
637.615	12.88
638.376	13.88
639.136	13.88
639.896	15.88
640.657	14.88
641.417	14.88
642.177	14.88
642.937	14.88
643.697	10.88
644.457	12.88
645.216	12.88
645.976	10.88
646.736	12.88
647.495	8.88
648.255	13.88
649.014	9.88
649.774	8.88
650.533	10.88
651.292	10.88
652.051	9.88
652.81	7.88
653.569	12.88
654.328	10.88
655.087	9.88
655.846	10.88
656.604	7.88
657.363	9.88
658.121	7.88
658.88	10.88
659.638	7.88
660.397	8.88
661.155	7.88
661.913	9.88
662.671	9.88
663.429	6.88
664.187	5.88
664.945	9.88
665.703	7.88
666.46	8.88
667.218	5.88
667.976	8.88
668.733	7.88
669.49	5.88
670.248	5.88
671.005	8.88
671.762	9.88
672.519	6.88
673.276	5.88
674.033	6.88
674.79	6.88
675.547	5.88
676.304	5.88
677.06	5.88
677.817	4.88
678.574	7.88
679.33	6.88
680.086	5.88
680.843	7.88
681.599	5.88
682.355	5.88
683.111	5.88
683.867	6.88
684.623	7.88
685.379	6.88
686.135	5.88
686.89	4.88
687.646	5.88
688.402	8.88
689.157	5.88
689.912	6.88
690.668	3.88
691.423	4.88
692.178	4.88
692.933	5.88
693.688	4.88
694.443	3.88
695.198	3.88
695.953	4.88
696.708	6.88
697.462	3.88
698.217	4.88
698.972	5.88
699.726	5.88
700.48	4.88
701.235	1.88
701.989	3.88
702.743	6.88
703.497	4.88
704.251	4.88
705.005	4.88
705.759	5.88
706.513	4.88
707.266	6.88
708.02	5.88
708.774	4.88
709.527	6.88
710.28	8.88
711.034	5.88
711.787	7.88
712.54	4.88
713.293	5.88
714.046	4.88
714.799	6.88
715.552	7.88
716.305	6.88
717.058	5.88
717.81	4.88
718.563	6.88
719.315	5.88
720.068	5.88
720.82	5.88
721.573	4.88
722.325	8.88
723.077	5.88
723.829	5.88
724.581	2.88
725.333	7.88
726.085	8.88
726.836	4.88
727.588	6.88
728.34	7.88
729.091	7.88
729.843	7.88
730.594	5.88
731.346	4.88
732.097	4.88
732.848	5.88
733.599	5.88
734.35	5.88
735.101	5.88
735.852	7.88
736.603	5.88
737.354	6.88
738.104	6.88
738.855	6.88
739.605	6.88
740.356	6.88
741.106	4.88
741.856	6.88
742.607	7.88
743.357	8.88
744.107	8.88
744.857	4.88
745.607	7.88
746.357	6.88
747.106	6.88
747.856	6.88
748.606	9.88
749.355	6.88
750.105	6.88
750.854	10.88
751.603	11.88
752.353	5.88
753.102	9.88
753.851	9.88
754.6	7.88
755.349	7.88
756.098	9.88
756.847	9.88
757.595	9.88
758.344	8.88
759.093	6.88
759.841	8.88
760.589	9.88
761.338	10.88
762.086	9.88
762.834	8.88
763.582	9.88
764.331	10.88
765.079	9.88
765.826	9.88
766.574	10.88
767.322	10.88
768.07	10.88
768.817	8.88
769.565	10.88
770.312	10.88
771.06	11.88
771.807	10.88
772.554	12.88
773.302	10.88
774.049	11.88
774.796	13.88
775.543	10.88
776.29	11.88
777.036	10.88
777.783	12.88
778.53	12.88
779.276	12.88
780.023	13.88
780.769	12.88
781.516	12.88
782.262	10.88
783.008	13.88
783.754	11.88
784.5	13.88
785.246	12.88
785.992	12.88
786.738	12.88
787.484	11.88
788.23	10.88
788.975	13.88
789.721	12.88
790.466	14.88
791.212	11.88
791.957	11.88
792.702	12.88
793.447	13.88
794.193	12.88
794.938	8.88
795.683	11.88
796.427	10.88
797.172	9.88
797.917	10.88
798.662	10.88
799.406	11.88
800.151	10.88
800.895	8.88
801.64	8.88
802.384	7.88
803.128	8.88
803.872	7.88
804.616	10.88
805.36	6.88
806.104	8.88
806.848	6.88
807.592	7.88
808.336	8.88
809.079	6.88
809.823	8.88
810.566	7.88
811.31	8.88
812.053	8.88
812.796	5.88
813.539	7.88
814.283	6.88
815.026	6.88
815.769	7.88
816.511	8.88
817.254	8.88
817.997	6.88
818.74	7.88
819.482	6.88
820.225	4.88
820.967	6.88
821.71	4.88
822.452	7.88
823.194	5.88
823.936	5.88
824.678	6.88
825.42	3.88
826.162	5.88
826.904	4.88
827.646	4.88
828.388	5.88
829.129	3.88
829.871	3.88
830.612	2.88
831.354	6.88
832.095	4.88
832.836	4.88
833.577	3.88
834.319	2.88
835.06	5.88
835.801	4.88
836.542	6.88
837.282	6.88
838.023	7.88
838.764	4.88
839.504	5.88
840.245	5.88
840.985	3.88
841.726	2.88
842.466	4.88
843.206	1.88
843.946	4.88
844.687	4.88
845.427	6.88
846.166	3.88
846.906	5.88
847.646	6.88
848.386	3.88
849.125	5.88
849.865	4.88
850.605	3.88
851.344	5.88
852.083	3.88
852.823	5.88
853.562	1.88
854.301	3.88
855.04	3.88
855.779	3.88
856.518	4.88
857.257	3.88
857.995	5.88
858.734	3.88
859.473	4.88
860.211	3.88
860.95	2.88
861.688	2.88
862.426	1.88
863.165	1.88
863.903	3.88
864.641	2.88
865.379	1.88
866.117	1.88
866.855	1.88
867.593	1.88
868.33	3.88
869.068	2.88
869.806	2.88
870.543	2.88
871.28	2.88
872.018	5.88
872.755	2.88
873.492	3.88
874.229	0.88
874.967	2.88
875.703	0.88
876.44	0.88
877.177	-0.12
877.914	1.88
878.651	1.88
879.387	3.88
880.124	1.88
880.86	1.88
881.597	0.88
882.333	1.88
883.069	2.88
883.806	1.88
884.542	1.88
885.278	0.88
886.014	0.88
886.749	2.88
887.485	0.88
888.221	2.88
888.957	1.88
889.692	2.88
890.428	1.88
891.163	2.88
891.899	2.88
892.634	-1.12
893.369	2.88
894.104	-0.12
894.839	2.88
895.574	1.88
896.309	1.88
897.044	4.88
897.779	-0.12
898.514	2.88
899.248	0.88
899.983	2.88
900.717	0.88
901.452	1.88
902.186	-0.12
902.92	0.88
903.654	1.88
904.389	-0.12
905.123	3.88
905.857	2.88
906.59	-1.12
907.324	1.88
908.058	1.88
908.792	2.88
909.525	1.88
910.259	-1.12
910.992	-0.12
911.726	0.88
912.459	0.88
913.192	1.88
913.925	-0.12
914.658	-1.12
915.391	-1.12
916.124	2.88
916.857	1.88
917.59	1.88
918.323	-0.12
919.055	2.88
919.788	-0.12
920.521	1.88
921.253	1.88
921.985	2.88
922.718	3.88
923.45	-0.12
924.182	-0.12
924.914	0.88
925.646	-1.12
926.378	-1.12
927.11	2.88
927.841	0.88
928.573	2.88
929.305	-1.12
930.036	1.88
930.768	1.88
931.499	1.88
932.23	-0.12
932.962	-0.12
933.693	0.88
934.424	-0.12
935.155	1.88
935.886	0.88
936.617	1.88
937.348	1.88
938.078	1.88
938.809	1.88
939.54	-0.12
940.27	3.88
941.001	0.88
941.731	0.88
942.461	3.88
943.191	-1.12
943.922	1.88
944.652	0.88
945.382	1.88
946.112	2.88
946.841	0.88
947.571	-0.12
948.301	-0.12
949.031	1.88
949.76	-0.12
950.49	-0.12
951.219	-1.12
951.948	0.88
952.678	2.88
953.407	0.88
954.136	-1.12
954.865	0.88
955.594	-1.12
956.323	2.88
957.052	-1.12
957.78	2.88
958.509	0.88
959.238	2.88
959.966	2.88
960.695	0.88
961.423	2.88
962.151	0.88
962.88	1.88
963.608	-0.12
964.336	0.88
965.064	1.88
965.792	-0.12
966.52	1.88
967.247	0.88
967.975	2.88
968.703	0.88
969.43	0.88
970.158	-1.12
970.885	-0.12
971.613	0.88
972.34	1.88
973.067	1.88
973.794	1.88
974.521	-1.12
975.248	0.88
975.975	-1.12
976.702	1.88
977.429	2.88
978.156	0.88
978.882	-0.12
979.609	-1.12
980.335	2.88
981.062	0.88
981.788	1.88
982.514	0.88
983.24	0.88
983.967	0.88
984.693	-0.12
985.419	2.88
986.144	-0.12
986.87	-0.12
987.596	1.88
988.322	-0.12
989.047	1.88
989.773	0.88
990.498	2.88
991.224	2.88
991.949	-0.12
992.674	-0.12
993.399	-0.12
994.124	-1.12
994.849	0.88
995.574	1.88
996.299	-1.12
997.024	0.88
997.749	-1.12
998.473	0.88
999.198	-0.12
999.922	0.88
1000.647	1.88
1001.371	5.88
1002.095	-1.12
1002.82	-2.12
1003.544	1.88
1004.268	4.88
1004.992	2.88
1005.716	2.88
1006.439	3.88
1007.163	2.88
1007.887	1.88
1008.611	2.88
1009.334	-0.12
1010.058	0.88
1010.781	-0.12
1011.504	1.88
1012.228	2.88
1012.951	-2.12
1013.674	-1.12
1014.397	-0.12
1015.12	-1.12
