节点500_425_QEPB04081__312__15-53-29-860.txt的数据

Date: Wed Nov 12 15:53:29 CST 2025
User: PC
Spectrometer: QEPB0408
触发模式: 0
积分时间 (秒): 1.000000E-2
Scans to average: 1
启用暗噪声校正: true
启用非线性校正: false
滑动平均宽度: 0
X轴模式: Wavelengths
Number of Pixels in Spectrum: 1044
>>>>>Begin Spectral Data<<<<<
220.843	2.25
221.644	2.25
222.444	4.25
223.244	2.25
224.045	1.25
224.845	3.25
225.645	3.25
226.445	4.25
227.245	2.25
228.045	5.25
228.845	3.25
229.645	5.25
230.444	5.25
231.244	4.25
232.043	5.25
232.843	3.25
233.642	6.25
234.442	8.25
235.241	5.25
236.04	6.25
236.839	7.25
237.638	9.25
238.437	6.25
239.236	9.25
240.035	4.25
240.833	6.25
241.632	8.25
242.43	5.25
243.229	8.25
244.027	8.25
244.826	6.25
245.624	10.25
246.422	7.25
247.22	9.25
248.018	10.25
248.816	9.25
249.614	8.25
250.412	7.25
251.21	10.25
252.007	7.25
252.805	11.25
253.602	10.25
254.4	8.25
255.197	12.25
255.994	12.25
256.791	11.25
257.589	15.25
258.386	15.25
259.183	14.25
259.979	15.25
260.776	15.25
261.573	14.25
262.37	14.25
263.166	14.25
263.963	16.25
264.759	17.25
265.556	15.25
266.352	19.25
267.148	18.25
267.944	17.25
268.74	19.25
269.536	20.25
270.332	19.25
271.128	20.25
271.924	20.25
272.719	20.25
273.515	21.25
274.311	23.25
275.106	24.25
275.901	22.25
276.697	22.25
277.492	26.25
278.287	24.25
279.082	24.25
279.877	23.25
280.672	23.25
281.467	26.25
282.262	24.25
283.056	24.25
283.851	26.25
284.646	28.25
285.44	25.25
286.234	23.25
287.029	24.25
287.823	23.25
288.617	22.25
289.411	24.25
290.205	24.25
290.999	24.25
291.793	22.25
292.587	24.25
293.381	22.25
294.174	23.25
294.968	22.25
295.761	18.25
296.555	19.25
297.348	19.25
298.141	20.25
298.935	20.25
299.728	20.25
300.521	20.25
301.314	14.25
302.107	17.25
302.899	17.25
303.692	15.25
304.485	18.25
305.277	17.25
306.07	16.25
306.862	19.25
307.655	13.25
308.447	14.25
309.239	15.25
310.031	17.25
310.823	14.25
311.615	12.25
312.407	10.25
313.199	12.25
313.991	14.25
314.783	12.25
315.574	10.25
316.366	12.25
317.157	10.25
317.949	11.25
318.74	10.25
319.531	13.25
320.322	10.25
321.113	11.25
321.904	10.25
322.695	8.25
323.486	8.25
324.277	9.25
325.068	10.25
325.858	11.25
326.649	10.25
327.439	10.25
328.23	9.25
329.02	8.25
329.81	9.25
330.6	8.25
331.391	9.25
332.181	9.25
332.971	9.25
333.76	7.25
334.55	9.25
335.34	7.25
336.13	9.25
336.919	8.25
337.709	7.25
338.498	10.25
339.287	8.25
340.077	9.25
340.866	9.25
341.655	7.25
342.444	8.25
343.233	7.25
344.022	9.25
344.811	5.25
345.6	10.25
346.388	10.25
347.177	5.25
347.965	10.25
348.754	9.25
349.542	9.25
350.33	8.25
351.119	8.25
351.907	7.25
352.695	7.25
353.483	6.25
354.271	7.25
355.059	8.25
355.846	6.25
356.634	6.25
357.422	6.25
358.209	7.25
358.997	10.25
359.784	8.25
360.571	9.25
361.359	10.25
362.146	7.25
362.933	8.25
363.72	5.25
364.507	7.25
365.294	7.25
366.081	6.25
366.867	7.25
367.654	7.25
368.44	8.25
369.227	8.25
370.013	7.25
370.8	9.25
371.586	7.25
372.372	6.25
373.158	6.25
373.944	6.25
374.73	4.25
375.516	8.25
376.302	7.25
377.088	7.25
377.873	8.25
378.659	7.25
379.445	6.25
380.23	8.25
381.015	5.25
381.801	7.25
382.586	6.25
383.371	8.25
384.156	7.25
384.941	6.25
385.726	6.25
386.511	7.25
387.296	6.25
388.08	10.25
388.865	10.25
389.649	9.25
390.434	6.25
391.218	8.25
392.003	8.25
392.787	8.25
393.571	7.25
394.355	6.25
395.139	8.25
395.923	7.25
396.707	8.25
397.491	8.25
398.274	9.25
399.058	9.25
399.842	10.25
400.625	9.25
401.408	9.25
402.192	8.25
402.975	7.25
403.758	9.25
404.541	11.25
405.324	9.25
406.107	9.25
406.89	12.25
407.673	12.25
408.456	11.25
409.238	8.25
410.021	12.25
410.803	11.25
411.586	11.25
412.368	12.25
413.151	12.25
413.933	11.25
414.715	14.25
415.497	11.25
416.279	14.25
417.061	12.25
417.843	15.25
418.624	13.25
419.406	12.25
420.188	15.25
420.969	15.25
421.751	14.25
422.532	14.25
423.313	16.25
424.095	15.25
424.876	16.25
425.657	14.25
426.438	16.25
427.219	19.25
428	18.25
428.78	18.25
429.561	21.25
430.342	22.25
431.122	22.25
431.903	22.25
432.683	22.25
433.464	21.25
434.244	23.25
435.024	23.25
435.804	27.25
436.584	26.25
437.364	27.25
438.144	30.25
438.924	29.25
439.704	30.25
440.483	30.25
441.263	38.25
442.042	35.25
442.822	41.25
443.601	43.25
444.38	44.25
445.16	51.25
445.939	53.25
446.718	56.25
447.497	59.25
448.276	64.25
449.054	69.25
449.833	74.25
450.612	84.25
451.391	94.25
452.169	105.25
452.948	112.25
453.726	122.25
454.504	139.25
455.282	152.25
456.061	165.25
456.839	188.25
457.617	210.25
458.395	235.25
459.172	256.25
459.95	292.25
460.728	317.25
461.506	359.25
462.283	400.25
463.061	446.25
463.838	498.25
464.615	565.25
465.393	620.25
466.17	688.25
466.947	776.25
467.724	855.25
468.501	960.25
469.278	1060.25
470.055	1173.25
470.831	1283.25
471.608	1431.25
472.385	1602.25
473.161	1760.25
473.938	1939.25
474.714	2148.25
475.49	2375.25
476.266	2622.25
477.043	2886.25
477.819	3169.25
478.595	3491.25
479.371	3834.25
480.146	4196.25
480.922	4645.25
481.698	5058.25
482.473	5574.25
483.249	6084.25
484.024	6648.25
484.8	7290.25
485.575	7952.25
486.35	8648.25
487.126	9453.25
487.901	10311.25
488.676	11240.25
489.451	12197.25
490.225	13230.25
491	14357.25
491.775	15574.25
492.55	16806.25
493.324	18075.25
494.099	19389.25
494.873	20654.25
495.647	22057.25
496.422	23474.25
497.196	24922.25
497.97	26450.25
498.744	27786.25
499.518	29128.25
500.292	30370.25
501.066	31547.25
501.839	32571.25
502.613	33577.25
503.387	34330.25
504.16	34717.25
504.934	35170.25
505.707	35188.25
506.48	35021.25
507.253	34834.25
508.027	34482.25
508.8	33970.25
509.573	33282.25
510.346	32362.25
511.118	31494.25
511.891	30454.25
512.664	29410.25
513.437	28238.25
514.209	27168.25
514.982	26148.25
515.754	25101.25
516.526	24011.25
517.298	22993.25
518.071	22024.25
518.843	21159.25
519.615	20293.25
520.387	19424.25
521.159	18670.25
521.93	18010.25
522.702	17243.25
523.474	16567.25
524.245	15997.25
525.017	15203.25
525.788	14489.25
526.56	13857.25
527.331	13237.25
528.102	12622.25
528.873	12040.25
529.644	11463.25
530.415	10938.25
531.186	10393.25
531.957	9862.25
532.728	9342.25
533.498	8767.25
534.269	8323.25
535.039	7874.25
535.81	7449.25
536.58	7044.25
537.351	6618.25
538.121	6301.25
538.891	5931.25
539.661	5637.25
540.431	5339.25
541.201	5060.25
541.971	4771.25
542.741	4526.25
543.51	4306.25
544.28	4095.25
545.05	3877.25
545.819	3725.25
546.588	3513.25
547.358	3334.25
548.127	3165.25
548.896	3014.25
549.665	2856.25
550.434	2727.25
551.203	2582.25
551.972	2438.25
552.741	2304.25
553.51	2172.25
554.278	2060.25
555.047	1937.25
555.815	1832.25
556.584	1737.25
557.352	1626.25
558.121	1535.25
558.889	1454.25
559.657	1374.25
560.425	1284.25
561.193	1228.25
561.961	1172.25
562.729	1096.25
563.496	1038.25
564.264	982.25
565.032	926.25
565.799	875.25
566.567	833.25
567.334	795.25
568.101	740.25
568.869	695.25
569.636	658.25
570.403	632.25
571.17	596.25
571.937	562.25
572.704	524.25
573.471	498.25
574.237	467.25
575.004	434.25
575.771	416.25
576.537	388.25
577.303	370.25
578.07	349.25
578.836	326.25
579.602	306.25
580.368	293.25
581.134	272.25
581.9	266.25
582.666	248.25
583.432	238.25
584.198	226.25
584.964	215.25
585.729	201.25
586.495	187.25
587.26	178.25
588.025	172.25
588.791	161.25
589.556	154.25
590.321	150.25
591.086	138.25
591.851	131.25
592.616	125.25
593.381	120.25
594.146	112.25
594.911	111.25
595.675	108.25
596.44	98.25
597.204	94.25
597.969	91.25
598.733	89.25
599.497	82.25
600.261	79.25
601.025	77.25
601.79	76.25
602.553	71.25
603.317	67.25
604.081	63.25
604.845	59.25
605.609	59.25
606.372	57.25
607.136	56.25
607.899	56.25
608.662	50.25
609.426	53.25
610.189	44.25
610.952	44.25
611.715	44.25
612.478	45.25
613.241	41.25
614.004	37.25
614.767	36.25
615.529	37.25
616.292	34.25
617.055	31.25
617.817	32.25
618.579	32.25
619.342	30.25
620.104	31.25
620.866	29.25
621.628	26.25
622.39	25.25
623.152	24.25
623.914	25.25
624.676	21.25
625.438	24.25
626.199	20.25
626.961	22.25
627.722	19.25
628.484	21.25
629.245	20.25
630.006	21.25
630.768	19.25
631.529	19.25
632.29	20.25
633.051	21.25
633.812	18.25
634.573	16.25
635.333	16.25
636.094	17.25
636.855	14.25
637.615	14.25
638.376	15.25
639.136	13.25
639.896	12.25
640.657	13.25
641.417	11.25
642.177	14.25
642.937	11.25
643.697	12.25
644.457	11.25
645.216	10.25
645.976	10.25
646.736	11.25
647.495	11.25
648.255	10.25
649.014	10.25
649.774	10.25
650.533	10.25
651.292	10.25
652.051	8.25
652.81	8.25
653.569	9.25
654.328	9.25
655.087	8.25
655.846	8.25
656.604	7.25
657.363	9.25
658.121	6.25
658.88	9.25
659.638	9.25
660.397	6.25
661.155	9.25
661.913	8.25
662.671	9.25
663.429	8.25
664.187	8.25
664.945	8.25
665.703	7.25
666.46	8.25
667.218	8.25
667.976	6.25
668.733	6.25
669.49	6.25
670.248	8.25
671.005	11.25
671.762	8.25
672.519	7.25
673.276	5.25
674.033	7.25
674.79	5.25
675.547	7.25
676.304	6.25
677.06	5.25
677.817	6.25
678.574	6.25
679.33	7.25
680.086	4.25
680.843	3.25
681.599	6.25
682.355	7.25
683.111	5.25
683.867	4.25
684.623	6.25
685.379	8.25
686.135	1.25
686.89	4.25
687.646	5.25
688.402	7.25
689.157	5.25
689.912	3.25
690.668	5.25
691.423	5.25
692.178	7.25
692.933	3.25
693.688	5.25
694.443	6.25
695.198	4.25
695.953	7.25
696.708	6.25
697.462	3.25
698.217	4.25
698.972	4.25
699.726	7.25
700.48	6.25
701.235	6.25
701.989	5.25
702.743	5.25
703.497	5.25
704.251	3.25
705.005	7.25
705.759	5.25
706.513	5.25
707.266	3.25
708.02	6.25
708.774	4.25
709.527	6.25
710.28	5.25
711.034	4.25
711.787	5.25
712.54	2.25
713.293	4.25
714.046	4.25
714.799	3.25
715.552	4.25
716.305	5.25
717.058	6.25
717.81	5.25
718.563	4.25
719.315	6.25
720.068	6.25
720.82	4.25
721.573	8.25
722.325	4.25
723.077	7.25
723.829	5.25
724.581	4.25
725.333	7.25
726.085	4.25
726.836	5.25
727.588	5.25
728.34	4.25
729.091	5.25
729.843	7.25
730.594	6.25
731.346	5.25
732.097	7.25
732.848	5.25
733.599	5.25
734.35	6.25
735.101	7.25
735.852	5.25
736.603	4.25
737.354	7.25
738.104	7.25
738.855	7.25
739.605	6.25
740.356	4.25
741.106	6.25
741.856	6.25
742.607	8.25
743.357	5.25
744.107	5.25
744.857	5.25
745.607	8.25
746.357	8.25
747.106	6.25
747.856	8.25
748.606	4.25
749.355	8.25
750.105	5.25
750.854	7.25
751.603	6.25
752.353	8.25
753.102	8.25
753.851	9.25
754.6	5.25
755.349	7.25
756.098	9.25
756.847	9.25
757.595	8.25
758.344	7.25
759.093	8.25
759.841	7.25
760.589	10.25
761.338	8.25
762.086	8.25
762.834	8.25
763.582	8.25
764.331	8.25
765.079	9.25
765.826	9.25
766.574	11.25
767.322	8.25
768.07	8.25
768.817	7.25
769.565	10.25
770.312	12.25
771.06	11.25
771.807	9.25
772.554	9.25
773.302	10.25
774.049	10.25
774.796	12.25
775.543	10.25
776.29	11.25
777.036	12.25
777.783	13.25
778.53	12.25
779.276	12.25
780.023	12.25
780.769	10.25
781.516	9.25
782.262	12.25
783.008	8.25
783.754	12.25
784.5	11.25
785.246	10.25
785.992	9.25
786.738	12.25
787.484	10.25
788.23	12.25
788.975	12.25
789.721	11.25
790.466	10.25
791.212	8.25
791.957	10.25
792.702	9.25
793.447	11.25
794.193	13.25
794.938	13.25
795.683	8.25
796.427	13.25
797.172	7.25
797.917	11.25
798.662	8.25
799.406	9.25
800.151	8.25
800.895	8.25
801.64	10.25
802.384	7.25
803.128	7.25
803.872	10.25
804.616	7.25
805.36	8.25
806.104	8.25
806.848	7.25
807.592	8.25
808.336	6.25
809.079	6.25
809.823	7.25
810.566	8.25
811.31	8.25
812.053	7.25
812.796	7.25
813.539	7.25
814.283	5.25
815.026	6.25
815.769	7.25
816.511	5.25
817.254	6.25
817.997	6.25
818.74	6.25
819.482	6.25
820.225	4.25
820.967	6.25
821.71	4.25
822.452	2.25
823.194	5.25
823.936	4.25
824.678	6.25
825.42	2.25
826.162	4.25
826.904	4.25
827.646	5.25
828.388	7.25
829.129	7.25
829.871	6.25
830.612	3.25
831.354	3.25
832.095	4.25
832.836	3.25
833.577	3.25
834.319	5.25
835.06	3.25
835.801	3.25
836.542	5.25
837.282	6.25
838.023	2.25
838.764	2.25
839.504	4.25
840.245	3.25
840.985	5.25
841.726	3.25
842.466	2.25
843.206	4.25
843.946	4.25
844.687	3.25
845.427	4.25
846.166	6.25
846.906	4.25
847.646	3.25
848.386	2.25
849.125	2.25
849.865	7.25
850.605	4.25
851.344	5.25
852.083	5.25
852.823	2.25
853.562	4.25
854.301	4.25
855.04	3.25
855.779	2.25
856.518	1.25
857.257	4.25
857.995	0.25
858.734	4.25
859.473	4.25
860.211	3.25
860.95	3.25
861.688	2.25
862.426	0.25
863.165	3.25
863.903	2.25
864.641	2.25
865.379	2.25
866.117	3.25
866.855	1.25
867.593	3.25
868.33	2.25
869.068	1.25
869.806	2.25
870.543	2.25
871.28	4.25
872.018	2.25
872.755	0.25
873.492	2.25
874.229	-0.75
874.967	0.25
875.703	3.25
876.44	1.25
877.177	0.25
877.914	3.25
878.651	3.25
879.387	0.25
880.124	1.25
880.86	-2.75
881.597	0.25
882.333	2.25
883.069	0.25
883.806	1.25
884.542	-0.75
885.278	1.25
886.014	1.25
886.749	2.25
887.485	-0.75
888.221	-1.75
888.957	1.25
889.692	1.25
890.428	0.25
891.163	1.25
891.899	1.25
892.634	0.25
893.369	0.25
894.104	2.25
894.839	0.25
895.574	-1.75
896.309	0.25
897.044	1.25
897.779	0.25
898.514	1.25
899.248	-0.75
899.983	-1.75
900.717	-1.75
901.452	-0.75
902.186	0.25
902.92	1.25
903.654	0.25
904.389	0.25
905.123	0.25
905.857	-0.75
906.59	1.25
907.324	1.25
908.058	-0.75
908.792	2.25
909.525	3.25
910.259	2.25
910.992	0.25
911.726	2.25
912.459	0.25
913.192	0.25
913.925	2.25
914.658	1.25
915.391	2.25
916.124	-0.75
916.857	0.25
917.59	1.25
918.323	1.25
919.055	2.25
919.788	-0.75
920.521	3.25
921.253	1.25
921.985	2.25
922.718	1.25
923.45	0.25
924.182	-0.75
924.914	2.25
925.646	-0.75
926.378	-1.75
927.11	0.25
927.841	-0.75
928.573	0.25
929.305	0.25
930.036	-0.75
930.768	1.25
931.499	1.25
932.23	1.25
932.962	2.25
933.693	-1.75
934.424	1.25
935.155	0.25
935.886	0.25
936.617	0.25
937.348	0.25
938.078	0.25
938.809	-0.75
939.54	-0.75
940.27	0.25
941.001	2.25
941.731	0.25
942.461	-0.75
943.191	-0.75
943.922	-0.75
944.652	2.25
945.382	0.25
946.112	-1.75
946.841	2.25
947.571	1.25
948.301	1.25
949.031	0.25
949.76	0.25
950.49	1.25
951.219	-1.75
951.948	-0.75
952.678	0.25
953.407	1.25
954.136	1.25
954.865	-0.75
955.594	0.25
956.323	0.25
957.052	0.25
957.78	0.25
958.509	1.25
959.238	1.25
959.966	-1.75
960.695	2.25
961.423	-0.75
962.151	-0.75
962.88	2.25
963.608	-0.75
964.336	-0.75
965.064	-0.75
965.792	0.25
966.52	0.25
967.247	0.25
967.975	0.25
968.703	-1.75
969.43	2.25
970.158	2.25
970.885	0.25
971.613	1.25
972.34	0.25
973.067	-0.75
973.794	1.25
974.521	1.25
975.248	-0.75
975.975	0.25
976.702	1.25
977.429	-0.75
978.156	-1.75
978.882	0.25
979.609	0.25
980.335	-1.75
981.062	-0.75
981.788	0.25
982.514	-1.75
983.24	2.25
983.967	1.25
984.693	-0.75
985.419	-2.75
986.144	-0.75
986.87	1.25
987.596	-0.75
988.322	0.25
989.047	-1.75
989.773	0.25
990.498	-1.75
991.224	0.25
991.949	1.25
992.674	-1.75
993.399	2.25
994.124	0.25
994.849	-0.75
995.574	-0.75
996.299	0.25
997.024	-0.75
997.749	0.25
998.473	0.25
999.198	1.25
999.922	-0.75
1000.647	2.25
1001.371	5.25
1002.095	-3.75
1002.82	-0.75
1003.544	-0.75
1004.268	3.25
1004.992	2.25
1005.716	1.25
1006.439	1.25
1007.163	5.25
1007.887	4.25
1008.611	0.25
1009.334	0.25
1010.058	1.25
1010.781	-0.75
1011.504	1.25
1012.228	1.25
1012.951	0.25
1013.674	-1.75
1014.397	1.25
1015.12	0.25
