节点500_425_QEPB04081__127__15-50-25-307.txt的数据

Date: Wed Nov 12 15:50:25 CST 2025
User: PC
Spectrometer: QEPB0408
触发模式: 0
积分时间 (秒): 1.000000E-2
Scans to average: 1
启用暗噪声校正: true
启用非线性校正: false
滑动平均宽度: 0
X轴模式: Wavelengths
Number of Pixels in Spectrum: 1044
>>>>>Begin Spectral Data<<<<<
220.843	1.38
221.644	1.38
222.444	2.38
223.244	3.38
224.045	5.38
224.845	3.38
225.645	4.38
226.445	5.38
227.245	2.38
228.045	7.38
228.845	4.38
229.645	6.38
230.444	4.38
231.244	3.38
232.043	6.38
232.843	4.38
233.642	6.38
234.442	6.38
235.241	4.38
236.04	5.38
236.839	6.38
237.638	8.38
238.437	5.38
239.236	8.38
240.035	10.38
240.833	7.38
241.632	8.38
242.43	9.38
243.229	8.38
244.027	10.38
244.826	7.38
245.624	8.38
246.422	9.38
247.22	9.38
248.018	7.38
248.816	8.38
249.614	9.38
250.412	8.38
251.21	8.38
252.007	8.38
252.805	13.38
253.602	11.38
254.4	13.38
255.197	13.38
255.994	11.38
256.791	12.38
257.589	14.38
258.386	14.38
259.183	14.38
259.979	16.38
260.776	15.38
261.573	17.38
262.37	17.38
263.166	14.38
263.963	17.38
264.759	20.38
265.556	18.38
266.352	18.38
267.148	17.38
267.944	19.38
268.74	20.38
269.536	21.38
270.332	21.38
271.128	22.38
271.924	23.38
272.719	23.38
273.515	23.38
274.311	22.38
275.106	24.38
275.901	24.38
276.697	27.38
277.492	24.38
278.287	27.38
279.082	27.38
279.877	26.38
280.672	25.38
281.467	24.38
282.262	27.38
283.056	23.38
283.851	27.38
284.646	26.38
285.44	24.38
286.234	26.38
287.029	26.38
287.823	26.38
288.617	26.38
289.411	25.38
290.205	22.38
290.999	28.38
291.793	25.38
292.587	25.38
293.381	20.38
294.174	24.38
294.968	21.38
295.761	21.38
296.555	20.38
297.348	20.38
298.141	20.38
298.935	19.38
299.728	19.38
300.521	17.38
301.314	19.38
302.107	17.38
302.899	16.38
303.692	17.38
304.485	14.38
305.277	16.38
306.07	17.38
306.862	14.38
307.655	18.38
308.447	16.38
309.239	14.38
310.031	18.38
310.823	14.38
311.615	8.38
312.407	14.38
313.199	10.38
313.991	12.38
314.783	14.38
315.574	11.38
316.366	13.38
317.157	11.38
317.949	9.38
318.74	11.38
319.531	10.38
320.322	10.38
321.113	10.38
321.904	9.38
322.695	12.38
323.486	12.38
324.277	11.38
325.068	9.38
325.858	8.38
326.649	9.38
327.439	11.38
328.23	9.38
329.02	7.38
329.81	9.38
330.6	8.38
331.391	7.38
332.181	8.38
332.971	8.38
333.76	7.38
334.55	10.38
335.34	9.38
336.13	10.38
336.919	9.38
337.709	7.38
338.498	10.38
339.287	8.38
340.077	10.38
340.866	9.38
341.655	9.38
342.444	8.38
343.233	7.38
344.022	10.38
344.811	6.38
345.6	6.38
346.388	9.38
347.177	10.38
347.965	9.38
348.754	8.38
349.542	8.38
350.33	8.38
351.119	10.38
351.907	6.38
352.695	8.38
353.483	7.38
354.271	6.38
355.059	8.38
355.846	6.38
356.634	8.38
357.422	8.38
358.209	7.38
358.997	7.38
359.784	6.38
360.571	9.38
361.359	5.38
362.146	6.38
362.933	7.38
363.72	7.38
364.507	9.38
365.294	6.38
366.081	9.38
366.867	7.38
367.654	8.38
368.44	8.38
369.227	7.38
370.013	6.38
370.8	7.38
371.586	5.38
372.372	5.38
373.158	8.38
373.944	7.38
374.73	7.38
375.516	8.38
376.302	6.38
377.088	6.38
377.873	6.38
378.659	8.38
379.445	7.38
380.23	7.38
381.015	9.38
381.801	10.38
382.586	4.38
383.371	8.38
384.156	7.38
384.941	7.38
385.726	7.38
386.511	8.38
387.296	7.38
388.08	8.38
388.865	7.38
389.649	9.38
390.434	9.38
391.218	9.38
392.003	9.38
392.787	10.38
393.571	9.38
394.355	8.38
395.139	8.38
395.923	10.38
396.707	9.38
397.491	7.38
398.274	10.38
399.058	7.38
399.842	11.38
400.625	8.38
401.408	9.38
402.192	12.38
402.975	10.38
403.758	7.38
404.541	10.38
405.324	11.38
406.107	10.38
406.89	8.38
407.673	11.38
408.456	11.38
409.238	13.38
410.021	11.38
410.803	10.38
411.586	15.38
412.368	12.38
413.151	11.38
413.933	14.38
414.715	11.38
415.497	12.38
416.279	11.38
417.061	12.38
417.843	13.38
418.624	12.38
419.406	14.38
420.188	13.38
420.969	14.38
421.751	14.38
422.532	15.38
423.313	16.38
424.095	16.38
424.876	16.38
425.657	18.38
426.438	15.38
427.219	15.38
428	15.38
428.78	17.38
429.561	18.38
430.342	21.38
431.122	22.38
431.903	20.38
432.683	20.38
433.464	24.38
434.244	25.38
435.024	23.38
435.804	26.38
436.584	26.38
437.364	28.38
438.144	26.38
438.924	33.38
439.704	32.38
440.483	30.38
441.263	35.38
442.042	36.38
442.822	37.38
443.601	40.38
444.38	41.38
445.16	49.38
445.939	51.38
446.718	55.38
447.497	59.38
448.276	67.38
449.054	69.38
449.833	77.38
450.612	82.38
451.391	87.38
452.169	103.38
452.948	107.38
453.726	115.38
454.504	129.38
455.282	142.38
456.061	162.38
456.839	182.38
457.617	200.38
458.395	221.38
459.172	241.38
459.95	274.38
460.728	302.38
461.506	339.38
462.283	384.38
463.061	422.38
463.838	480.38
464.615	526.38
465.393	597.38
466.17	657.38
466.947	753.38
467.724	832.38
468.501	924.38
469.278	1029.38
470.055	1139.38
470.831	1278.38
471.608	1414.38
472.385	1563.38
473.161	1743.38
473.938	1945.38
474.714	2158.38
475.49	2365.38
476.266	2641.38
477.043	2882.38
477.819	3199.38
478.595	3549.38
479.371	3908.38
480.146	4300.38
480.922	4730.38
481.698	5214.38
482.473	5729.38
483.249	6298.38
484.024	6946.38
484.8	7615.38
485.575	8318.38
486.35	9082.38
487.126	9994.38
487.901	10929.38
488.676	11917.38
489.451	13019.38
490.225	14098.38
491	15412.38
491.775	16686.38
492.55	18040.38
493.324	19516.38
494.099	20903.38
494.873	22340.38
495.647	23873.38
496.422	25338.38
497.196	26958.38
497.97	28431.38
498.744	29948.38
499.518	31336.38
500.292	32567.38
501.066	33711.38
501.839	34790.38
502.613	35645.38
503.387	36181.38
504.16	36564.38
504.934	36754.38
505.707	36712.38
506.48	36408.38
507.253	35926.38
508.027	35450.38
508.8	34767.38
509.573	33876.38
510.346	32883.38
511.118	31878.38
511.891	30731.38
512.664	29512.38
513.437	28291.38
514.209	27069.38
514.982	26052.38
515.754	24927.38
516.526	23751.38
517.298	22769.38
518.071	21840.38
518.843	20907.38
519.615	20049.38
520.387	19235.38
521.159	18553.38
521.93	17836.38
522.702	17113.38
523.474	16470.38
524.245	15797.38
525.017	15030.38
525.788	14340.38
526.56	13632.38
527.331	13012.38
528.102	12380.38
528.873	11810.38
529.644	11218.38
530.415	10656.38
531.186	10169.38
531.957	9576.38
532.728	9082.38
533.498	8560.38
534.269	8089.38
535.039	7640.38
535.81	7192.38
536.58	6777.38
537.351	6407.38
538.121	6070.38
538.891	5753.38
539.661	5465.38
540.431	5180.38
541.201	4894.38
541.971	4624.38
542.741	4401.38
543.51	4182.38
544.28	3970.38
545.05	3800.38
545.819	3604.38
546.588	3412.38
547.358	3239.38
548.127	3058.38
548.896	2901.38
549.665	2740.38
550.434	2601.38
551.203	2471.38
551.972	2343.38
552.741	2227.38
553.51	2094.38
554.278	1983.38
555.047	1880.38
555.815	1755.38
556.584	1664.38
557.352	1562.38
558.121	1460.38
558.889	1406.38
559.657	1315.38
560.425	1245.38
561.193	1174.38
561.961	1098.38
562.729	1052.38
563.496	990.38
564.264	940.38
565.032	890.38
565.799	844.38
566.567	795.38
567.334	748.38
568.101	708.38
568.869	667.38
569.636	636.38
570.403	595.38
571.17	558.38
571.937	536.38
572.704	508.38
573.471	473.38
574.237	448.38
575.004	412.38
575.771	390.38
576.537	367.38
577.303	352.38
578.07	331.38
578.836	300.38
579.602	293.38
580.368	289.38
581.134	262.38
581.9	246.38
582.666	240.38
583.432	219.38
584.198	215.38
584.964	203.38
585.729	192.38
586.495	183.38
587.26	170.38
588.025	166.38
588.791	155.38
589.556	150.38
590.321	138.38
591.086	131.38
591.851	126.38
592.616	118.38
593.381	117.38
594.146	109.38
594.911	109.38
595.675	98.38
596.44	96.38
597.204	93.38
597.969	86.38
598.733	82.38
599.497	81.38
600.261	81.38
601.025	74.38
601.79	67.38
602.553	66.38
603.317	62.38
604.081	60.38
604.845	59.38
605.609	57.38
606.372	54.38
607.136	49.38
607.899	49.38
608.662	47.38
609.426	44.38
610.189	44.38
610.952	43.38
611.715	44.38
612.478	40.38
613.241	42.38
614.004	37.38
614.767	38.38
615.529	34.38
616.292	35.38
617.055	32.38
617.817	28.38
618.579	32.38
619.342	30.38
620.104	30.38
620.866	30.38
621.628	28.38
622.39	27.38
623.152	23.38
623.914	23.38
624.676	25.38
625.438	22.38
626.199	19.38
626.961	22.38
627.722	20.38
628.484	19.38
629.245	20.38
630.006	19.38
630.768	20.38
631.529	17.38
632.29	18.38
633.051	17.38
633.812	17.38
634.573	17.38
635.333	15.38
636.094	14.38
636.855	14.38
637.615	15.38
638.376	14.38
639.136	13.38
639.896	15.38
640.657	14.38
641.417	12.38
642.177	12.38
642.937	11.38
643.697	11.38
644.457	11.38
645.216	10.38
645.976	11.38
646.736	11.38
647.495	9.38
648.255	10.38
649.014	9.38
649.774	10.38
650.533	9.38
651.292	9.38
652.051	10.38
652.81	7.38
653.569	8.38
654.328	8.38
655.087	8.38
655.846	8.38
656.604	6.38
657.363	7.38
658.121	7.38
658.88	7.38
659.638	7.38
660.397	6.38
661.155	9.38
661.913	5.38
662.671	8.38
663.429	9.38
664.187	7.38
664.945	6.38
665.703	5.38
666.46	5.38
667.218	6.38
667.976	8.38
668.733	4.38
669.49	10.38
670.248	7.38
671.005	5.38
671.762	5.38
672.519	6.38
673.276	6.38
674.033	5.38
674.79	5.38
675.547	8.38
676.304	4.38
677.06	4.38
677.817	6.38
678.574	7.38
679.33	6.38
680.086	3.38
680.843	6.38
681.599	6.38
682.355	6.38
683.111	5.38
683.867	5.38
684.623	8.38
685.379	4.38
686.135	4.38
686.89	7.38
687.646	4.38
688.402	5.38
689.157	5.38
689.912	5.38
690.668	5.38
691.423	3.38
692.178	6.38
692.933	5.38
693.688	6.38
694.443	5.38
695.198	5.38
695.953	5.38
696.708	6.38
697.462	5.38
698.217	4.38
698.972	6.38
699.726	2.38
700.48	3.38
701.235	5.38
701.989	7.38
702.743	7.38
703.497	3.38
704.251	5.38
705.005	6.38
705.759	3.38
706.513	5.38
707.266	5.38
708.02	4.38
708.774	4.38
709.527	6.38
710.28	5.38
711.034	4.38
711.787	4.38
712.54	5.38
713.293	7.38
714.046	5.38
714.799	5.38
715.552	3.38
716.305	5.38
717.058	6.38
717.81	6.38
718.563	3.38
719.315	6.38
720.068	2.38
720.82	4.38
721.573	3.38
722.325	7.38
723.077	4.38
723.829	5.38
724.581	6.38
725.333	6.38
726.085	8.38
726.836	5.38
727.588	7.38
728.34	5.38
729.091	4.38
729.843	5.38
730.594	6.38
731.346	6.38
732.097	6.38
732.848	7.38
733.599	7.38
734.35	7.38
735.101	7.38
735.852	9.38
736.603	7.38
737.354	9.38
738.104	5.38
738.855	6.38
739.605	7.38
740.356	7.38
741.106	5.38
741.856	8.38
742.607	6.38
743.357	6.38
744.107	7.38
744.857	8.38
745.607	8.38
746.357	8.38
747.106	6.38
747.856	5.38
748.606	6.38
749.355	8.38
750.105	5.38
750.854	6.38
751.603	6.38
752.353	7.38
753.102	8.38
753.851	7.38
754.6	5.38
755.349	6.38
756.098	8.38
756.847	12.38
757.595	7.38
758.344	7.38
759.093	7.38
759.841	7.38
760.589	9.38
761.338	8.38
762.086	10.38
762.834	9.38
763.582	7.38
764.331	8.38
765.079	9.38
765.826	8.38
766.574	6.38
767.322	9.38
768.07	9.38
768.817	11.38
769.565	10.38
770.312	11.38
771.06	11.38
771.807	9.38
772.554	11.38
773.302	11.38
774.049	10.38
774.796	10.38
775.543	12.38
776.29	13.38
777.036	8.38
777.783	11.38
778.53	11.38
779.276	13.38
780.023	13.38
780.769	8.38
781.516	12.38
782.262	12.38
783.008	14.38
783.754	12.38
784.5	14.38
785.246	14.38
785.992	10.38
786.738	11.38
787.484	10.38
788.23	14.38
788.975	14.38
789.721	11.38
790.466	12.38
791.212	12.38
791.957	11.38
792.702	11.38
793.447	10.38
794.193	12.38
794.938	9.38
795.683	11.38
796.427	10.38
797.172	10.38
797.917	12.38
798.662	8.38
799.406	10.38
800.151	7.38
800.895	9.38
801.64	8.38
802.384	7.38
803.128	8.38
803.872	7.38
804.616	9.38
805.36	6.38
806.104	7.38
806.848	7.38
807.592	8.38
808.336	8.38
809.079	7.38
809.823	8.38
810.566	7.38
811.31	7.38
812.053	6.38
812.796	7.38
813.539	5.38
814.283	7.38
815.026	9.38
815.769	9.38
816.511	5.38
817.254	6.38
817.997	6.38
818.74	7.38
819.482	6.38
820.225	5.38
820.967	7.38
821.71	6.38
822.452	4.38
823.194	5.38
823.936	4.38
824.678	7.38
825.42	4.38
826.162	5.38
826.904	5.38
827.646	4.38
828.388	5.38
829.129	5.38
829.871	5.38
830.612	3.38
831.354	6.38
832.095	4.38
832.836	5.38
833.577	6.38
834.319	4.38
835.06	5.38
835.801	4.38
836.542	3.38
837.282	5.38
838.023	6.38
838.764	3.38
839.504	4.38
840.245	6.38
840.985	4.38
841.726	4.38
842.466	4.38
843.206	3.38
843.946	4.38
844.687	5.38
845.427	2.38
846.166	5.38
846.906	4.38
847.646	5.38
848.386	4.38
849.125	4.38
849.865	2.38
850.605	5.38
851.344	2.38
852.083	1.38
852.823	4.38
853.562	4.38
854.301	4.38
855.04	3.38
855.779	2.38
856.518	2.38
857.257	2.38
857.995	2.38
858.734	1.38
859.473	3.38
860.211	2.38
860.95	0.38
861.688	2.38
862.426	0.38
863.165	2.38
863.903	1.38
864.641	2.38
865.379	1.38
866.117	1.38
866.855	2.38
867.593	0.38
868.33	1.38
869.068	1.38
869.806	1.38
870.543	1.38
871.28	0.38
872.018	-0.62
872.755	2.38
873.492	4.38
874.229	1.38
874.967	-0.62
875.703	1.38
876.44	2.38
877.177	2.38
877.914	1.38
878.651	0.38
879.387	3.38
880.124	2.38
880.86	1.38
881.597	1.38
882.333	2.38
883.069	0.38
883.806	1.38
884.542	2.38
885.278	0.38
886.014	3.38
886.749	2.38
887.485	0.38
888.221	1.38
888.957	0.38
889.692	0.38
890.428	0.38
891.163	1.38
891.899	1.38
892.634	1.38
893.369	2.38
894.104	0.38
894.839	1.38
895.574	0.38
896.309	0.38
897.044	2.38
897.779	1.38
898.514	-0.62
899.248	1.38
899.983	2.38
900.717	1.38
901.452	-0.62
902.186	1.38
902.92	1.38
903.654	2.38
904.389	0.38
905.123	0.38
905.857	1.38
906.59	0.38
907.324	0.38
908.058	1.38
908.792	1.38
909.525	0.38
910.259	0.38
910.992	1.38
911.726	0.38
912.459	1.38
913.192	0.38
913.925	0.38
914.658	-0.62
915.391	2.38
916.124	1.38
916.857	-0.62
917.59	0.38
918.323	0.38
919.055	2.38
919.788	1.38
920.521	1.38
921.253	0.38
921.985	1.38
922.718	2.38
923.45	0.38
924.182	-0.62
924.914	-0.62
925.646	1.38
926.378	0.38
927.11	0.38
927.841	0.38
928.573	1.38
929.305	-0.62
930.036	0.38
930.768	0.38
931.499	1.38
932.23	1.38
932.962	1.38
933.693	-1.62
934.424	1.38
935.155	-0.62
935.886	0.38
936.617	-0.62
937.348	-1.62
938.078	-1.62
938.809	0.38
939.54	-0.62
940.27	2.38
941.001	0.38
941.731	1.38
942.461	-1.62
943.191	-0.62
943.922	3.38
944.652	-0.62
945.382	-1.62
946.112	2.38
946.841	0.38
947.571	2.38
948.301	-0.62
949.031	1.38
949.76	0.38
950.49	1.38
951.219	0.38
951.948	0.38
952.678	-0.62
953.407	-0.62
954.136	0.38
954.865	0.38
955.594	-1.62
956.323	0.38
957.052	-0.62
957.78	0.38
958.509	-1.62
959.238	0.38
959.966	2.38
960.695	-0.62
961.423	1.38
962.151	-1.62
962.88	-0.62
963.608	2.38
964.336	-0.62
965.064	-0.62
965.792	0.38
966.52	2.38
967.247	0.38
967.975	0.38
968.703	-1.62
969.43	-0.62
970.158	1.38
970.885	2.38
971.613	1.38
972.34	-0.62
973.067	0.38
973.794	1.38
974.521	1.38
975.248	1.38
975.975	0.38
976.702	-0.62
977.429	2.38
978.156	0.38
978.882	0.38
979.609	2.38
980.335	0.38
981.062	0.38
981.788	-1.62
982.514	-1.62
983.24	-0.62
983.967	-0.62
984.693	1.38
985.419	-0.62
986.144	0.38
986.87	0.38
987.596	1.38
988.322	0.38
989.047	0.38
989.773	-1.62
990.498	1.38
991.224	1.38
991.949	0.38
992.674	1.38
993.399	2.38
994.124	1.38
994.849	2.38
995.574	0.38
996.299	2.38
997.024	0.38
997.749	0.38
998.473	0.38
999.198	-1.62
999.922	1.38
1000.647	0.38
1001.371	4.38
1002.095	-0.62
1002.82	-2.62
1003.544	0.38
1004.268	2.38
1004.992	2.38
1005.716	-0.62
1006.439	3.38
1007.163	1.38
1007.887	3.38
1008.611	0.38
1009.334	1.38
1010.058	0.38
1010.781	-0.62
1011.504	-2.62
1012.228	-2.62
1012.951	-0.62
1013.674	-0.62
1014.397	0.38
1015.12	-0.62
