节点500_425_QEPB04081__78__15-49-36-361.txt的数据

Date: Wed Nov 12 15:49:36 CST 2025
User: PC
Spectrometer: QEPB0408
触发模式: 0
积分时间 (秒): 1.000000E-2
Scans to average: 1
启用暗噪声校正: true
启用非线性校正: false
滑动平均宽度: 0
X轴模式: Wavelengths
Number of Pixels in Spectrum: 1044
>>>>>Begin Spectral Data<<<<<
220.843	3.88
221.644	1.88
222.444	2.88
223.244	2.88
224.045	2.88
224.845	1.88
225.645	3.88
226.445	1.88
227.245	2.88
228.045	4.88
228.845	3.88
229.645	2.88
230.444	4.88
231.244	2.88
232.043	2.88
232.843	7.88
233.642	5.88
234.442	3.88
235.241	3.88
236.04	6.88
236.839	3.88
237.638	4.88
238.437	5.88
239.236	6.88
240.035	5.88
240.833	7.88
241.632	8.88
242.43	5.88
243.229	6.88
244.027	5.88
244.826	4.88
245.624	9.88
246.422	8.88
247.22	8.88
248.018	9.88
248.816	8.88
249.614	9.88
250.412	9.88
251.21	9.88
252.007	10.88
252.805	12.88
253.602	8.88
254.4	10.88
255.197	12.88
255.994	13.88
256.791	14.88
257.589	12.88
258.386	10.88
259.183	13.88
259.979	13.88
260.776	13.88
261.573	15.88
262.37	18.88
263.166	15.88
263.963	16.88
264.759	17.88
265.556	17.88
266.352	22.88
267.148	17.88
267.944	18.88
268.74	21.88
269.536	19.88
270.332	19.88
271.128	20.88
271.924	22.88
272.719	23.88
273.515	20.88
274.311	23.88
275.106	20.88
275.901	25.88
276.697	23.88
277.492	21.88
278.287	24.88
279.082	23.88
279.877	26.88
280.672	24.88
281.467	26.88
282.262	22.88
283.056	23.88
283.851	26.88
284.646	24.88
285.44	23.88
286.234	24.88
287.029	25.88
287.823	25.88
288.617	25.88
289.411	27.88
290.205	24.88
290.999	24.88
291.793	21.88
292.587	21.88
293.381	21.88
294.174	20.88
294.968	22.88
295.761	18.88
296.555	20.88
297.348	18.88
298.141	21.88
298.935	21.88
299.728	18.88
300.521	18.88
301.314	15.88
302.107	14.88
302.899	16.88
303.692	16.88
304.485	15.88
305.277	14.88
306.07	15.88
306.862	16.88
307.655	16.88
308.447	13.88
309.239	13.88
310.031	13.88
310.823	14.88
311.615	13.88
312.407	13.88
313.199	11.88
313.991	11.88
314.783	8.88
315.574	12.88
316.366	10.88
317.157	11.88
317.949	11.88
318.74	13.88
319.531	9.88
320.322	9.88
321.113	8.88
321.904	9.88
322.695	8.88
323.486	10.88
324.277	7.88
325.068	7.88
325.858	6.88
326.649	8.88
327.439	7.88
328.23	9.88
329.02	10.88
329.81	9.88
330.6	8.88
331.391	9.88
332.181	9.88
332.971	9.88
333.76	7.88
334.55	8.88
335.34	9.88
336.13	6.88
336.919	7.88
337.709	9.88
338.498	7.88
339.287	8.88
340.077	6.88
340.866	9.88
341.655	7.88
342.444	8.88
343.233	8.88
344.022	9.88
344.811	6.88
345.6	5.88
346.388	9.88
347.177	9.88
347.965	7.88
348.754	8.88
349.542	7.88
350.33	6.88
351.119	8.88
351.907	9.88
352.695	5.88
353.483	8.88
354.271	7.88
355.059	6.88
355.846	5.88
356.634	6.88
357.422	5.88
358.209	5.88
358.997	5.88
359.784	6.88
360.571	4.88
361.359	7.88
362.146	5.88
362.933	5.88
363.72	3.88
364.507	6.88
365.294	4.88
366.081	7.88
366.867	5.88
367.654	7.88
368.44	6.88
369.227	6.88
370.013	4.88
370.8	5.88
371.586	7.88
372.372	7.88
373.158	6.88
373.944	7.88
374.73	4.88
375.516	6.88
376.302	7.88
377.088	7.88
377.873	7.88
378.659	5.88
379.445	5.88
380.23	7.88
381.015	3.88
381.801	6.88
382.586	6.88
383.371	8.88
384.156	9.88
384.941	6.88
385.726	7.88
386.511	7.88
387.296	8.88
388.08	5.88
388.865	4.88
389.649	9.88
390.434	7.88
391.218	6.88
392.003	6.88
392.787	8.88
393.571	7.88
394.355	6.88
395.139	8.88
395.923	8.88
396.707	7.88
397.491	9.88
398.274	8.88
399.058	10.88
399.842	8.88
400.625	10.88
401.408	11.88
402.192	9.88
402.975	10.88
403.758	9.88
404.541	9.88
405.324	10.88
406.107	9.88
406.89	9.88
407.673	12.88
408.456	14.88
409.238	11.88
410.021	9.88
410.803	9.88
411.586	12.88
412.368	11.88
413.151	13.88
413.933	12.88
414.715	12.88
415.497	14.88
416.279	12.88
417.061	12.88
417.843	14.88
418.624	11.88
419.406	13.88
420.188	15.88
420.969	12.88
421.751	14.88
422.532	12.88
423.313	13.88
424.095	16.88
424.876	17.88
425.657	13.88
426.438	16.88
427.219	17.88
428	18.88
428.78	17.88
429.561	19.88
430.342	17.88
431.122	18.88
431.903	20.88
432.683	21.88
433.464	23.88
434.244	23.88
435.024	27.88
435.804	25.88
436.584	27.88
437.364	27.88
438.144	29.88
438.924	31.88
439.704	29.88
440.483	31.88
441.263	35.88
442.042	37.88
442.822	38.88
443.601	39.88
444.38	41.88
445.16	45.88
445.939	48.88
446.718	49.88
447.497	57.88
448.276	63.88
449.054	70.88
449.833	71.88
450.612	80.88
451.391	84.88
452.169	97.88
452.948	104.88
453.726	116.88
454.504	128.88
455.282	133.88
456.061	156.88
456.839	170.88
457.617	189.88
458.395	212.88
459.172	241.88
459.95	266.88
460.728	294.88
461.506	333.88
462.283	375.88
463.061	413.88
463.838	460.88
464.615	524.88
465.393	580.88
466.17	646.88
466.947	730.88
467.724	818.88
468.501	908.88
469.278	1010.88
470.055	1125.88
470.831	1253.88
471.608	1391.88
472.385	1551.88
473.161	1732.88
473.938	1931.88
474.714	2146.88
475.49	2356.88
476.266	2611.88
477.043	2901.88
477.819	3202.88
478.595	3569.88
479.371	3921.88
480.146	4296.88
480.922	4742.88
481.698	5263.88
482.473	5757.88
483.249	6357.88
484.024	7015.88
484.8	7707.88
485.575	8469.88
486.35	9201.88
487.126	10137.88
487.901	11097.88
488.676	12153.88
489.451	13268.88
490.225	14479.88
491	15707.88
491.775	17046.88
492.55	18481.88
493.324	19969.88
494.099	21419.88
494.873	22813.88
495.647	24441.88
496.422	25989.88
497.196	27551.88
497.97	29136.88
498.744	30639.88
499.518	32043.88
500.292	33327.88
501.066	34389.88
501.839	35405.88
502.613	36185.88
503.387	36778.88
504.16	37223.88
504.934	37300.88
505.707	37150.88
506.48	36837.88
507.253	36324.88
508.027	35680.88
508.8	34969.88
509.573	34055.88
510.346	32944.88
511.118	31857.88
511.891	30705.88
512.664	29475.88
513.437	28213.88
514.209	27027.88
514.982	25900.88
515.754	24750.88
516.526	23647.88
517.298	22665.88
518.071	21743.88
518.843	20786.88
519.615	19964.88
520.387	19134.88
521.159	18373.88
521.93	17703.88
522.702	17021.88
523.474	16321.88
524.245	15690.88
525.017	14888.88
525.788	14266.88
526.56	13564.88
527.331	12928.88
528.102	12304.88
528.873	11680.88
529.644	11094.88
530.415	10558.88
531.186	10013.88
531.957	9505.88
532.728	8965.88
533.498	8434.88
534.269	7978.88
535.039	7559.88
535.81	7121.88
536.58	6676.88
537.351	6326.88
538.121	5994.88
538.891	5675.88
539.661	5426.88
540.431	5097.88
541.201	4801.88
541.971	4583.88
542.741	4332.88
543.51	4108.88
544.28	3937.88
545.05	3741.88
545.819	3559.88
546.588	3394.88
547.358	3198.88
548.127	3025.88
548.896	2841.88
549.665	2722.88
550.434	2564.88
551.203	2454.88
551.972	2289.88
552.741	2197.88
553.51	2061.88
554.278	1926.88
555.047	1831.88
555.815	1727.88
556.584	1630.88
557.352	1542.88
558.121	1438.88
558.889	1378.88
559.657	1285.88
560.425	1223.88
561.193	1159.88
561.961	1088.88
562.729	1027.88
563.496	978.88
564.264	916.88
565.032	879.88
565.799	837.88
566.567	785.88
567.334	742.88
568.101	697.88
568.869	651.88
569.636	622.88
570.403	589.88
571.17	545.88
571.937	524.88
572.704	491.88
573.471	471.88
574.237	441.88
575.004	408.88
575.771	396.88
576.537	360.88
577.303	342.88
578.07	326.88
578.836	305.88
579.602	283.88
580.368	272.88
581.134	259.88
581.9	248.88
582.666	239.88
583.432	222.88
584.198	206.88
584.964	197.88
585.729	192.88
586.495	180.88
587.26	172.88
588.025	159.88
588.791	152.88
589.556	144.88
590.321	138.88
591.086	131.88
591.851	122.88
592.616	120.88
593.381	112.88
594.146	108.88
594.911	102.88
595.675	97.88
596.44	90.88
597.204	92.88
597.969	85.88
598.733	79.88
599.497	79.88
600.261	71.88
601.025	73.88
601.79	69.88
602.553	65.88
603.317	63.88
604.081	58.88
604.845	55.88
605.609	53.88
606.372	53.88
607.136	49.88
607.899	49.88
608.662	44.88
609.426	49.88
610.189	45.88
610.952	41.88
611.715	38.88
612.478	38.88
613.241	37.88
614.004	34.88
614.767	32.88
615.529	32.88
616.292	35.88
617.055	32.88
617.817	31.88
618.579	26.88
619.342	28.88
620.104	26.88
620.866	25.88
621.628	28.88
622.39	24.88
623.152	25.88
623.914	21.88
624.676	23.88
625.438	21.88
626.199	22.88
626.961	18.88
627.722	18.88
628.484	22.88
629.245	15.88
630.006	20.88
630.768	16.88
631.529	15.88
632.29	14.88
633.051	16.88
633.812	15.88
634.573	14.88
635.333	18.88
636.094	14.88
636.855	12.88
637.615	14.88
638.376	13.88
639.136	12.88
639.896	11.88
640.657	10.88
641.417	13.88
642.177	10.88
642.937	11.88
643.697	12.88
644.457	11.88
645.216	11.88
645.976	8.88
646.736	10.88
647.495	7.88
648.255	8.88
649.014	7.88
649.774	9.88
650.533	8.88
651.292	8.88
652.051	9.88
652.81	8.88
653.569	8.88
654.328	7.88
655.087	9.88
655.846	7.88
656.604	4.88
657.363	7.88
658.121	9.88
658.88	6.88
659.638	8.88
660.397	6.88
661.155	7.88
661.913	6.88
662.671	5.88
663.429	7.88
664.187	7.88
664.945	7.88
665.703	5.88
666.46	4.88
667.218	5.88
667.976	6.88
668.733	6.88
669.49	5.88
670.248	5.88
671.005	5.88
671.762	7.88
672.519	5.88
673.276	4.88
674.033	5.88
674.79	5.88
675.547	2.88
676.304	4.88
677.06	3.88
677.817	5.88
678.574	5.88
679.33	3.88
680.086	5.88
680.843	7.88
681.599	4.88
682.355	4.88
683.111	4.88
683.867	4.88
684.623	4.88
685.379	3.88
686.135	5.88
686.89	4.88
687.646	3.88
688.402	4.88
689.157	3.88
689.912	4.88
690.668	4.88
691.423	6.88
692.178	3.88
692.933	3.88
693.688	3.88
694.443	4.88
695.198	5.88
695.953	3.88
696.708	2.88
697.462	6.88
698.217	4.88
698.972	4.88
699.726	4.88
700.48	4.88
701.235	2.88
701.989	3.88
702.743	3.88
703.497	2.88
704.251	4.88
705.005	3.88
705.759	4.88
706.513	6.88
707.266	5.88
708.02	6.88
708.774	3.88
709.527	3.88
710.28	5.88
711.034	3.88
711.787	5.88
712.54	2.88
713.293	4.88
714.046	1.88
714.799	4.88
715.552	1.88
716.305	5.88
717.058	4.88
717.81	2.88
718.563	4.88
719.315	3.88
720.068	4.88
720.82	3.88
721.573	1.88
722.325	6.88
723.077	2.88
723.829	3.88
724.581	5.88
725.333	5.88
726.085	4.88
726.836	3.88
727.588	3.88
728.34	7.88
729.091	6.88
729.843	4.88
730.594	3.88
731.346	4.88
732.097	4.88
732.848	5.88
733.599	5.88
734.35	3.88
735.101	7.88
735.852	3.88
736.603	6.88
737.354	3.88
738.104	3.88
738.855	5.88
739.605	6.88
740.356	6.88
741.106	3.88
741.856	6.88
742.607	5.88
743.357	5.88
744.107	5.88
744.857	6.88
745.607	5.88
746.357	5.88
747.106	9.88
747.856	6.88
748.606	6.88
749.355	6.88
750.105	7.88
750.854	9.88
751.603	8.88
752.353	9.88
753.102	7.88
753.851	6.88
754.6	7.88
755.349	7.88
756.098	8.88
756.847	7.88
757.595	7.88
758.344	8.88
759.093	6.88
759.841	8.88
760.589	6.88
761.338	9.88
762.086	8.88
762.834	7.88
763.582	8.88
764.331	9.88
765.079	9.88
765.826	10.88
766.574	9.88
767.322	9.88
768.07	5.88
768.817	10.88
769.565	7.88
770.312	11.88
771.06	11.88
771.807	10.88
772.554	10.88
773.302	7.88
774.049	9.88
774.796	10.88
775.543	13.88
776.29	11.88
777.036	10.88
777.783	11.88
778.53	10.88
779.276	10.88
780.023	12.88
780.769	12.88
781.516	13.88
782.262	11.88
783.008	12.88
783.754	10.88
784.5	11.88
785.246	13.88
785.992	10.88
786.738	11.88
787.484	10.88
788.23	10.88
788.975	11.88
789.721	11.88
790.466	13.88
791.212	9.88
791.957	8.88
792.702	9.88
793.447	9.88
794.193	8.88
794.938	10.88
795.683	10.88
796.427	10.88
797.172	10.88
797.917	10.88
798.662	9.88
799.406	9.88
800.151	11.88
800.895	8.88
801.64	7.88
802.384	11.88
803.128	9.88
803.872	8.88
804.616	9.88
805.36	9.88
806.104	7.88
806.848	7.88
807.592	4.88
808.336	7.88
809.079	5.88
809.823	6.88
810.566	5.88
811.31	7.88
812.053	5.88
812.796	6.88
813.539	6.88
814.283	4.88
815.026	4.88
815.769	5.88
816.511	4.88
817.254	5.88
817.997	3.88
818.74	4.88
819.482	5.88
820.225	5.88
820.967	5.88
821.71	6.88
822.452	3.88
823.194	3.88
823.936	3.88
824.678	5.88
825.42	4.88
826.162	3.88
826.904	2.88
827.646	4.88
828.388	5.88
829.129	3.88
829.871	5.88
830.612	3.88
831.354	3.88
832.095	2.88
832.836	3.88
833.577	2.88
834.319	3.88
835.06	4.88
835.801	2.88
836.542	3.88
837.282	5.88
838.023	0.88
838.764	3.88
839.504	1.88
840.245	4.88
840.985	2.88
841.726	3.88
842.466	2.88
843.206	5.88
843.946	2.88
844.687	3.88
845.427	1.88
846.166	4.88
846.906	4.88
847.646	2.88
848.386	3.88
849.125	3.88
849.865	3.88
850.605	1.88
851.344	3.88
852.083	3.88
852.823	1.88
853.562	3.88
854.301	2.88
855.04	3.88
855.779	3.88
856.518	1.88
857.257	0.88
857.995	3.88
858.734	3.88
859.473	3.88
860.211	2.88
860.95	1.88
861.688	1.88
862.426	0.88
863.165	2.88
863.903	0.88
864.641	0.88
865.379	1.88
866.117	-0.12
866.855	-0.12
867.593	1.88
868.33	2.88
869.068	1.88
869.806	-0.12
870.543	1.88
871.28	0.88
872.018	2.88
872.755	1.88
873.492	1.88
874.229	1.88
874.967	-2.12
875.703	0.88
876.44	0.88
877.177	2.88
877.914	0.88
878.651	0.88
879.387	2.88
880.124	0.88
880.86	2.88
881.597	-0.12
882.333	2.88
883.069	-0.12
883.806	1.88
884.542	1.88
885.278	0.88
886.014	-0.12
886.749	0.88
887.485	0.88
888.221	-0.12
888.957	-1.12
889.692	0.88
890.428	-1.12
891.163	1.88
891.899	-1.12
892.634	0.88
893.369	0.88
894.104	-2.12
894.839	0.88
895.574	-0.12
896.309	1.88
897.044	-0.12
897.779	-0.12
898.514	-1.12
899.248	0.88
899.983	1.88
900.717	0.88
901.452	-1.12
902.186	0.88
902.92	-0.12
903.654	0.88
904.389	-0.12
905.123	0.88
905.857	-1.12
906.59	1.88
907.324	-1.12
908.058	-0.12
908.792	0.88
909.525	0.88
910.259	-0.12
910.992	0.88
911.726	-0.12
912.459	-0.12
913.192	0.88
913.925	-0.12
914.658	0.88
915.391	-0.12
916.124	-2.12
916.857	-1.12
917.59	0.88
918.323	-0.12
919.055	-1.12
919.788	-1.12
920.521	-1.12
921.253	-0.12
921.985	-1.12
922.718	0.88
923.45	-0.12
924.182	1.88
924.914	-0.12
925.646	-2.12
926.378	-0.12
927.11	-0.12
927.841	0.88
928.573	-1.12
929.305	-1.12
930.036	-1.12
930.768	0.88
931.499	-1.12
932.23	-1.12
932.962	-0.12
933.693	-2.12
934.424	-1.12
935.155	-0.12
935.886	-3.12
936.617	0.88
937.348	1.88
938.078	-1.12
938.809	0.88
939.54	0.88
940.27	-2.12
941.001	1.88
941.731	-2.12
942.461	-1.12
943.191	-1.12
943.922	-0.12
944.652	-0.12
945.382	1.88
946.112	1.88
946.841	-1.12
947.571	0.88
948.301	-0.12
949.031	-0.12
949.76	-0.12
950.49	0.88
951.219	-0.12
951.948	-1.12
952.678	0.88
953.407	-2.12
954.136	1.88
954.865	-0.12
955.594	-0.12
956.323	-1.12
957.052	-0.12
957.78	1.88
958.509	-1.12
959.238	-1.12
959.966	-3.12
960.695	-4.12
961.423	1.88
962.151	0.88
962.88	-0.12
963.608	-0.12
964.336	-0.12
965.064	-0.12
965.792	0.88
966.52	0.88
967.247	-0.12
967.975	-0.12
968.703	-0.12
969.43	0.88
970.158	-1.12
970.885	-2.12
971.613	1.88
972.34	-0.12
973.067	-1.12
973.794	-3.12
974.521	2.88
975.248	-1.12
975.975	0.88
976.702	-1.12
977.429	-2.12
978.156	-2.12
978.882	-0.12
979.609	1.88
980.335	-0.12
981.062	-1.12
981.788	0.88
982.514	-2.12
983.24	1.88
983.967	-3.12
984.693	-1.12
985.419	-2.12
986.144	-0.12
986.87	-0.12
987.596	0.88
988.322	-2.12
989.047	-0.12
989.773	-2.12
990.498	-1.12
991.224	-0.12
991.949	0.88
992.674	-1.12
993.399	-0.12
994.124	-1.12
994.849	-0.12
995.574	0.88
996.299	1.88
997.024	-2.12
997.749	0.88
998.473	-0.12
999.198	-0.12
999.922	-0.12
1000.647	0.88
1001.371	3.88
1002.095	-0.12
1002.82	-2.12
1003.544	-1.12
1004.268	1.88
1004.992	1.88
1005.716	1.88
1006.439	2.88
1007.163	2.88
1007.887	1.88
1008.611	-3.12
1009.334	-0.12
1010.058	-1.12
1010.781	-0.12
1011.504	0.88
1012.228	-1.12
1012.951	-1.12
1013.674	0.88
1014.397	-0.12
1015.12	-0.12
