节点500_425_QEPB04081__472__15-56-09-568.txt的数据

Date: Wed Nov 12 15:56:09 CST 2025
User: PC
Spectrometer: QEPB0408
触发模式: 0
积分时间 (秒): 1.000000E-2
Scans to average: 1
启用暗噪声校正: true
启用非线性校正: false
滑动平均宽度: 0
X轴模式: Wavelengths
Number of Pixels in Spectrum: 1044
>>>>>Begin Spectral Data<<<<<
220.843	2.62
221.644	1.62
222.444	1.62
223.244	1.62
224.045	3.62
224.845	3.62
225.645	4.62
226.445	2.62
227.245	4.62
228.045	5.62
228.845	3.62
229.645	3.62
230.444	2.62
231.244	5.62
232.043	2.62
232.843	5.62
233.642	3.62
234.442	5.62
235.241	6.62
236.04	3.62
236.839	6.62
237.638	4.62
238.437	5.62
239.236	5.62
240.035	5.62
240.833	5.62
241.632	6.62
242.43	7.62
243.229	6.62
244.027	6.62
244.826	6.62
245.624	8.62
246.422	9.62
247.22	7.62
248.018	7.62
248.816	8.62
249.614	7.62
250.412	10.62
251.21	9.62
252.007	11.62
252.805	11.62
253.602	8.62
254.4	7.62
255.197	8.62
255.994	11.62
256.791	9.62
257.589	10.62
258.386	11.62
259.183	12.62
259.979	10.62
260.776	10.62
261.573	14.62
262.37	11.62
263.166	16.62
263.963	16.62
264.759	13.62
265.556	15.62
266.352	13.62
267.148	16.62
267.944	15.62
268.74	15.62
269.536	15.62
270.332	18.62
271.128	20.62
271.924	17.62
272.719	16.62
273.515	16.62
274.311	19.62
275.106	20.62
275.901	22.62
276.697	22.62
277.492	23.62
278.287	22.62
279.082	20.62
279.877	22.62
280.672	21.62
281.467	20.62
282.262	25.62
283.056	21.62
283.851	21.62
284.646	25.62
285.44	22.62
286.234	20.62
287.029	23.62
287.823	25.62
288.617	23.62
289.411	24.62
290.205	22.62
290.999	21.62
291.793	23.62
292.587	18.62
293.381	20.62
294.174	21.62
294.968	20.62
295.761	19.62
296.555	20.62
297.348	17.62
298.141	17.62
298.935	20.62
299.728	21.62
300.521	16.62
301.314	18.62
302.107	16.62
302.899	13.62
303.692	19.62
304.485	15.62
305.277	16.62
306.07	15.62
306.862	12.62
307.655	16.62
308.447	16.62
309.239	13.62
310.031	17.62
310.823	11.62
311.615	14.62
312.407	9.62
313.199	11.62
313.991	11.62
314.783	10.62
315.574	10.62
316.366	8.62
317.157	9.62
317.949	9.62
318.74	11.62
319.531	9.62
320.322	9.62
321.113	9.62
321.904	6.62
322.695	7.62
323.486	10.62
324.277	9.62
325.068	8.62
325.858	6.62
326.649	8.62
327.439	9.62
328.23	7.62
329.02	8.62
329.81	9.62
330.6	10.62
331.391	7.62
332.181	6.62
332.971	7.62
333.76	8.62
334.55	9.62
335.34	7.62
336.13	7.62
336.919	6.62
337.709	5.62
338.498	5.62
339.287	6.62
340.077	9.62
340.866	8.62
341.655	8.62
342.444	10.62
343.233	5.62
344.022	6.62
344.811	6.62
345.6	8.62
346.388	7.62
347.177	7.62
347.965	6.62
348.754	6.62
349.542	8.62
350.33	4.62
351.119	6.62
351.907	7.62
352.695	3.62
353.483	7.62
354.271	6.62
355.059	7.62
355.846	3.62
356.634	9.62
357.422	5.62
358.209	7.62
358.997	5.62
359.784	6.62
360.571	8.62
361.359	7.62
362.146	7.62
362.933	6.62
363.72	5.62
364.507	7.62
365.294	8.62
366.081	6.62
366.867	7.62
367.654	4.62
368.44	6.62
369.227	5.62
370.013	5.62
370.8	5.62
371.586	8.62
372.372	6.62
373.158	6.62
373.944	5.62
374.73	4.62
375.516	8.62
376.302	6.62
377.088	5.62
377.873	7.62
378.659	7.62
379.445	6.62
380.23	6.62
381.015	6.62
381.801	6.62
382.586	5.62
383.371	6.62
384.156	5.62
384.941	7.62
385.726	4.62
386.511	6.62
387.296	7.62
388.08	6.62
388.865	8.62
389.649	8.62
390.434	6.62
391.218	7.62
392.003	6.62
392.787	7.62
393.571	5.62
394.355	8.62
395.139	5.62
395.923	9.62
396.707	8.62
397.491	8.62
398.274	8.62
399.058	10.62
399.842	7.62
400.625	8.62
401.408	7.62
402.192	6.62
402.975	6.62
403.758	10.62
404.541	10.62
405.324	10.62
406.107	8.62
406.89	9.62
407.673	10.62
408.456	9.62
409.238	8.62
410.021	9.62
410.803	10.62
411.586	9.62
412.368	13.62
413.151	10.62
413.933	11.62
414.715	12.62
415.497	11.62
416.279	10.62
417.061	10.62
417.843	11.62
418.624	12.62
419.406	13.62
420.188	12.62
420.969	12.62
421.751	12.62
422.532	18.62
423.313	14.62
424.095	14.62
424.876	15.62
425.657	14.62
426.438	17.62
427.219	15.62
428	15.62
428.78	16.62
429.561	19.62
430.342	20.62
431.122	17.62
431.903	19.62
432.683	18.62
433.464	24.62
434.244	21.62
435.024	23.62
435.804	25.62
436.584	25.62
437.364	28.62
438.144	25.62
438.924	31.62
439.704	34.62
440.483	31.62
441.263	36.62
442.042	36.62
442.822	41.62
443.601	44.62
444.38	48.62
445.16	52.62
445.939	55.62
446.718	59.62
447.497	65.62
448.276	67.62
449.054	73.62
449.833	81.62
450.612	87.62
451.391	99.62
452.169	107.62
452.948	118.62
453.726	135.62
454.504	147.62
455.282	161.62
456.061	178.62
456.839	195.62
457.617	221.62
458.395	242.62
459.172	265.62
459.95	311.62
460.728	338.62
461.506	384.62
462.283	425.62
463.061	460.62
463.838	525.62
464.615	571.62
465.393	648.62
466.17	721.62
466.947	796.62
467.724	875.62
468.501	974.62
469.278	1092.62
470.055	1185.62
470.831	1317.62
471.608	1474.62
472.385	1625.62
473.161	1784.62
473.938	1969.62
474.714	2164.62
475.49	2372.62
476.266	2606.62
477.043	2858.62
477.819	3152.62
478.595	3464.62
479.371	3767.62
480.146	4136.62
480.922	4513.62
481.698	4908.62
482.473	5397.62
483.249	5885.62
484.024	6402.62
484.8	6979.62
485.575	7584.62
486.35	8231.62
487.126	8957.62
487.901	9725.62
488.676	10529.62
489.451	11412.62
490.225	12368.62
491	13392.62
491.775	14487.62
492.55	15545.62
493.324	16723.62
494.099	17936.62
494.873	19098.62
495.647	20405.62
496.422	21644.62
497.196	22972.62
497.97	24449.62
498.744	25745.62
499.518	27021.62
500.292	28157.62
501.066	29311.62
501.839	30397.62
502.613	31363.62
503.387	32140.62
504.16	32740.62
504.934	33288.62
505.707	33459.62
506.48	33533.62
507.253	33433.62
508.027	33311.62
508.8	32948.62
509.573	32367.62
510.346	31785.62
511.118	30922.62
511.891	30163.62
512.664	29163.62
513.437	28181.62
514.209	27113.62
514.982	26248.62
515.754	25258.62
516.526	24189.62
517.298	23215.62
518.071	22217.62
518.843	21398.62
519.615	20454.62
520.387	19685.62
521.159	18911.62
521.93	18157.62
522.702	17480.62
523.474	16783.62
524.245	16151.62
525.017	15419.62
525.788	14709.62
526.56	14074.62
527.331	13452.62
528.102	12893.62
528.873	12264.62
529.644	11701.62
530.415	11204.62
531.186	10648.62
531.957	10149.62
532.728	9592.62
533.498	9073.62
534.269	8604.62
535.039	8159.62
535.81	7719.62
536.58	7339.62
537.351	6898.62
538.121	6519.62
538.891	6183.62
539.661	5829.62
540.431	5575.62
541.201	5274.62
541.971	4972.62
542.741	4711.62
543.51	4476.62
544.28	4264.62
545.05	4026.62
545.819	3872.62
546.588	3690.62
547.358	3448.62
548.127	3291.62
548.896	3135.62
549.665	2965.62
550.434	2820.62
551.203	2686.62
551.972	2540.62
552.741	2409.62
553.51	2288.62
554.278	2153.62
555.047	2017.62
555.815	1917.62
556.584	1823.62
557.352	1720.62
558.121	1619.62
558.889	1510.62
559.657	1447.62
560.425	1350.62
561.193	1308.62
561.961	1224.62
562.729	1158.62
563.496	1095.62
564.264	1041.62
565.032	978.62
565.799	928.62
566.567	881.62
567.334	820.62
568.101	776.62
568.869	733.62
569.636	687.62
570.403	657.62
571.17	619.62
571.937	577.62
572.704	555.62
573.471	521.62
574.237	492.62
575.004	467.62
575.771	429.62
576.537	405.62
577.303	384.62
578.07	361.62
578.836	335.62
579.602	317.62
580.368	306.62
581.134	287.62
581.9	274.62
582.666	263.62
583.432	239.62
584.198	234.62
584.964	224.62
585.729	216.62
586.495	203.62
587.26	190.62
588.025	183.62
588.791	173.62
589.556	164.62
590.321	154.62
591.086	147.62
591.851	140.62
592.616	131.62
593.381	127.62
594.146	120.62
594.911	112.62
595.675	108.62
596.44	102.62
597.204	101.62
597.969	96.62
598.733	89.62
599.497	84.62
600.261	85.62
601.025	80.62
601.79	79.62
602.553	70.62
603.317	70.62
604.081	62.62
604.845	66.62
605.609	58.62
606.372	59.62
607.136	55.62
607.899	53.62
608.662	50.62
609.426	53.62
610.189	46.62
610.952	41.62
611.715	44.62
612.478	41.62
613.241	38.62
614.004	40.62
614.767	38.62
615.529	39.62
616.292	35.62
617.055	33.62
617.817	30.62
618.579	32.62
619.342	32.62
620.104	29.62
620.866	29.62
621.628	29.62
622.39	25.62
623.152	25.62
623.914	24.62
624.676	24.62
625.438	21.62
626.199	24.62
626.961	20.62
627.722	20.62
628.484	21.62
629.245	19.62
630.006	20.62
630.768	17.62
631.529	17.62
632.29	18.62
633.051	16.62
633.812	17.62
634.573	16.62
635.333	15.62
636.094	12.62
636.855	14.62
637.615	15.62
638.376	14.62
639.136	12.62
639.896	13.62
640.657	12.62
641.417	11.62
642.177	13.62
642.937	9.62
643.697	11.62
644.457	10.62
645.216	9.62
645.976	12.62
646.736	11.62
647.495	10.62
648.255	10.62
649.014	8.62
649.774	6.62
650.533	7.62
651.292	7.62
652.051	7.62
652.81	8.62
653.569	7.62
654.328	9.62
655.087	7.62
655.846	6.62
656.604	7.62
657.363	9.62
658.121	9.62
658.88	6.62
659.638	9.62
660.397	4.62
661.155	9.62
661.913	7.62
662.671	6.62
663.429	7.62
664.187	4.62
664.945	6.62
665.703	4.62
666.46	4.62
667.218	6.62
667.976	6.62
668.733	5.62
669.49	5.62
670.248	4.62
671.005	4.62
671.762	6.62
672.519	6.62
673.276	5.62
674.033	5.62
674.79	3.62
675.547	4.62
676.304	3.62
677.06	4.62
677.817	3.62
678.574	3.62
679.33	7.62
680.086	6.62
680.843	5.62
681.599	5.62
682.355	3.62
683.111	5.62
683.867	3.62
684.623	4.62
685.379	3.62
686.135	3.62
686.89	4.62
687.646	4.62
688.402	4.62
689.157	3.62
689.912	6.62
690.668	3.62
691.423	4.62
692.178	4.62
692.933	2.62
693.688	3.62
694.443	5.62
695.198	2.62
695.953	4.62
696.708	3.62
697.462	6.62
698.217	4.62
698.972	4.62
699.726	3.62
700.48	2.62
701.235	6.62
701.989	4.62
702.743	5.62
703.497	4.62
704.251	4.62
705.005	7.62
705.759	5.62
706.513	4.62
707.266	3.62
708.02	3.62
708.774	5.62
709.527	3.62
710.28	5.62
711.034	4.62
711.787	3.62
712.54	5.62
713.293	4.62
714.046	4.62
714.799	3.62
715.552	7.62
716.305	2.62
717.058	4.62
717.81	3.62
718.563	1.62
719.315	3.62
720.068	4.62
720.82	3.62
721.573	5.62
722.325	3.62
723.077	5.62
723.829	4.62
724.581	3.62
725.333	4.62
726.085	6.62
726.836	5.62
727.588	3.62
728.34	6.62
729.091	5.62
729.843	7.62
730.594	5.62
731.346	4.62
732.097	4.62
732.848	3.62
733.599	5.62
734.35	3.62
735.101	4.62
735.852	6.62
736.603	1.62
737.354	6.62
738.104	4.62
738.855	6.62
739.605	6.62
740.356	4.62
741.106	4.62
741.856	4.62
742.607	7.62
743.357	9.62
744.107	7.62
744.857	2.62
745.607	5.62
746.357	8.62
747.106	4.62
747.856	4.62
748.606	5.62
749.355	5.62
750.105	5.62
750.854	2.62
751.603	6.62
752.353	4.62
753.102	6.62
753.851	7.62
754.6	5.62
755.349	6.62
756.098	6.62
756.847	8.62
757.595	7.62
758.344	5.62
759.093	6.62
759.841	4.62
760.589	7.62
761.338	7.62
762.086	7.62
762.834	4.62
763.582	5.62
764.331	7.62
765.079	7.62
765.826	7.62
766.574	8.62
767.322	7.62
768.07	9.62
768.817	7.62
769.565	9.62
770.312	8.62
771.06	11.62
771.807	6.62
772.554	7.62
773.302	8.62
774.049	7.62
774.796	9.62
775.543	9.62
776.29	7.62
777.036	9.62
777.783	12.62
778.53	11.62
779.276	9.62
780.023	11.62
780.769	8.62
781.516	9.62
782.262	10.62
783.008	9.62
783.754	6.62
784.5	11.62
785.246	8.62
785.992	10.62
786.738	9.62
787.484	13.62
788.23	8.62
788.975	10.62
789.721	9.62
790.466	8.62
791.212	9.62
791.957	9.62
792.702	10.62
793.447	9.62
794.193	10.62
794.938	8.62
795.683	10.62
796.427	8.62
797.172	7.62
797.917	9.62
798.662	10.62
799.406	5.62
800.151	7.62
800.895	8.62
801.64	9.62
802.384	7.62
803.128	7.62
803.872	7.62
804.616	6.62
805.36	8.62
806.104	7.62
806.848	7.62
807.592	8.62
808.336	5.62
809.079	6.62
809.823	4.62
810.566	5.62
811.31	6.62
812.053	6.62
812.796	3.62
813.539	6.62
814.283	5.62
815.026	3.62
815.769	4.62
816.511	4.62
817.254	4.62
817.997	4.62
818.74	7.62
819.482	7.62
820.225	4.62
820.967	5.62
821.71	5.62
822.452	4.62
823.194	3.62
823.936	5.62
824.678	7.62
825.42	4.62
826.162	5.62
826.904	3.62
827.646	3.62
828.388	4.62
829.129	3.62
829.871	2.62
830.612	3.62
831.354	4.62
832.095	3.62
832.836	3.62
833.577	5.62
834.319	5.62
835.06	3.62
835.801	2.62
836.542	2.62
837.282	4.62
838.023	4.62
838.764	2.62
839.504	2.62
840.245	3.62
840.985	4.62
841.726	1.62
842.466	3.62
843.206	4.62
843.946	3.62
844.687	3.62
845.427	0.62
846.166	3.62
846.906	3.62
847.646	1.62
848.386	2.62
849.125	3.62
849.865	3.62
850.605	1.62
851.344	3.62
852.083	3.62
852.823	2.62
853.562	4.62
854.301	0.62
855.04	3.62
855.779	1.62
856.518	1.62
857.257	-0.38
857.995	2.62
858.734	3.62
859.473	-0.38
860.211	1.62
860.95	1.62
861.688	3.62
862.426	3.62
863.165	1.62
863.903	1.62
864.641	2.62
865.379	0.62
866.117	0.62
866.855	3.62
867.593	3.62
868.33	0.62
869.068	0.62
869.806	-1.38
870.543	-0.38
871.28	1.62
872.018	1.62
872.755	1.62
873.492	2.62
874.229	1.62
874.967	1.62
875.703	1.62
876.44	1.62
877.177	-1.38
877.914	1.62
878.651	-1.38
879.387	0.62
880.124	3.62
880.86	0.62
881.597	-0.38
882.333	0.62
883.069	0.62
883.806	-0.38
884.542	1.62
885.278	2.62
886.014	-0.38
886.749	2.62
887.485	-0.38
888.221	1.62
888.957	0.62
889.692	-0.38
890.428	1.62
891.163	0.62
891.899	-0.38
892.634	-1.38
893.369	0.62
894.104	-0.38
894.839	-2.38
895.574	3.62
896.309	0.62
897.044	0.62
897.779	0.62
898.514	-0.38
899.248	1.62
899.983	-0.38
900.717	0.62
901.452	-2.38
902.186	1.62
902.92	-0.38
903.654	-1.38
904.389	1.62
905.123	-0.38
905.857	-0.38
906.59	-0.38
907.324	-0.38
908.058	0.62
908.792	1.62
909.525	-0.38
910.259	0.62
910.992	-0.38
911.726	-0.38
912.459	-0.38
913.192	0.62
913.925	-2.38
914.658	-0.38
915.391	1.62
916.124	-2.38
916.857	-1.38
917.59	-0.38
918.323	-1.38
919.055	0.62
919.788	-1.38
920.521	-0.38
921.253	-0.38
921.985	-0.38
922.718	-0.38
923.45	1.62
924.182	-0.38
924.914	-1.38
925.646	0.62
926.378	0.62
927.11	0.62
927.841	-1.38
928.573	-2.38
929.305	-0.38
930.036	-0.38
930.768	-3.38
931.499	-1.38
932.23	-1.38
932.962	1.62
933.693	-2.38
934.424	-0.38
935.155	-0.38
935.886	-0.38
936.617	1.62
937.348	-3.38
938.078	-0.38
938.809	-1.38
939.54	-0.38
940.27	-1.38
941.001	-2.38
941.731	-1.38
942.461	-0.38
943.191	0.62
943.922	0.62
944.652	-0.38
945.382	-0.38
946.112	-0.38
946.841	-0.38
947.571	-1.38
948.301	0.62
949.031	-1.38
949.76	0.62
950.49	-0.38
951.219	-0.38
951.948	1.62
952.678	-0.38
953.407	-0.38
954.136	0.62
954.865	0.62
955.594	1.62
956.323	0.62
957.052	-0.38
957.78	-0.38
958.509	0.62
959.238	0.62
959.966	0.62
960.695	-0.38
961.423	0.62
962.151	-0.38
962.88	0.62
963.608	-1.38
964.336	-3.38
965.064	-1.38
965.792	1.62
966.52	-1.38
967.247	0.62
967.975	-0.38
968.703	-1.38
969.43	-0.38
970.158	-1.38
970.885	1.62
971.613	-0.38
972.34	1.62
973.067	0.62
973.794	-0.38
974.521	3.62
975.248	0.62
975.975	0.62
976.702	1.62
977.429	-1.38
978.156	-0.38
978.882	-0.38
979.609	-0.38
980.335	-0.38
981.062	-0.38
981.788	-2.38
982.514	0.62
983.24	0.62
983.967	0.62
984.693	-0.38
985.419	-0.38
986.144	-0.38
986.87	-0.38
987.596	0.62
988.322	-1.38
989.047	1.62
989.773	-1.38
990.498	-0.38
991.224	-0.38
991.949	0.62
992.674	0.62
993.399	0.62
994.124	-2.38
994.849	-0.38
995.574	-0.38
996.299	-0.38
997.024	-1.38
997.749	1.62
998.473	-1.38
999.198	-1.38
999.922	-2.38
1000.647	-1.38
1001.371	2.62
1002.095	0.62
1002.82	-0.38
1003.544	-2.38
1004.268	0.62
1004.992	-1.38
1005.716	0.62
1006.439	1.62
1007.163	3.62
1007.887	3.62
1008.611	-1.38
1009.334	-0.38
1010.058	-1.38
1010.781	-0.38
1011.504	1.62
1012.228	0.62
1012.951	0.62
1013.674	1.62
1014.397	-0.38
1015.12	-2.38
