节点500_425_QEPB04081__113__15-50-11-314.txt的数据

Date: Wed Nov 12 15:50:11 CST 2025
User: PC
Spectrometer: QEPB0408
触发模式: 0
积分时间 (秒): 1.000000E-2
Scans to average: 1
启用暗噪声校正: true
启用非线性校正: false
滑动平均宽度: 0
X轴模式: Wavelengths
Number of Pixels in Spectrum: 1044
>>>>>Begin Spectral Data<<<<<
220.843	3.25
221.644	3.25
222.444	4.25
223.244	2.25
224.045	4.25
224.845	5.25
225.645	4.25
226.445	4.25
227.245	5.25
228.045	5.25
228.845	5.25
229.645	4.25
230.444	3.25
231.244	5.25
232.043	7.25
232.843	4.25
233.642	6.25
234.442	5.25
235.241	6.25
236.04	6.25
236.839	4.25
237.638	7.25
238.437	7.25
239.236	6.25
240.035	6.25
240.833	7.25
241.632	6.25
242.43	6.25
243.229	7.25
244.027	7.25
244.826	9.25
245.624	10.25
246.422	8.25
247.22	8.25
248.018	8.25
248.816	10.25
249.614	11.25
250.412	12.25
251.21	8.25
252.007	11.25
252.805	10.25
253.602	12.25
254.4	12.25
255.197	9.25
255.994	10.25
256.791	12.25
257.589	14.25
258.386	15.25
259.183	14.25
259.979	17.25
260.776	16.25
261.573	15.25
262.37	18.25
263.166	19.25
263.963	19.25
264.759	17.25
265.556	19.25
266.352	19.25
267.148	18.25
267.944	20.25
268.74	22.25
269.536	20.25
270.332	20.25
271.128	21.25
271.924	20.25
272.719	23.25
273.515	23.25
274.311	20.25
275.106	24.25
275.901	26.25
276.697	24.25
277.492	25.25
278.287	27.25
279.082	24.25
279.877	26.25
280.672	25.25
281.467	26.25
282.262	26.25
283.056	27.25
283.851	24.25
284.646	27.25
285.44	26.25
286.234	27.25
287.029	27.25
287.823	22.25
288.617	24.25
289.411	26.25
290.205	25.25
290.999	25.25
291.793	25.25
292.587	22.25
293.381	23.25
294.174	23.25
294.968	22.25
295.761	24.25
296.555	23.25
297.348	22.25
298.141	20.25
298.935	23.25
299.728	18.25
300.521	19.25
301.314	20.25
302.107	18.25
302.899	19.25
303.692	18.25
304.485	17.25
305.277	17.25
306.07	17.25
306.862	18.25
307.655	15.25
308.447	15.25
309.239	15.25
310.031	15.25
310.823	13.25
311.615	12.25
312.407	11.25
313.199	12.25
313.991	12.25
314.783	12.25
315.574	10.25
316.366	10.25
317.157	11.25
317.949	11.25
318.74	8.25
319.531	11.25
320.322	11.25
321.113	9.25
321.904	9.25
322.695	8.25
323.486	10.25
324.277	9.25
325.068	8.25
325.858	9.25
326.649	9.25
327.439	7.25
328.23	8.25
329.02	7.25
329.81	10.25
330.6	8.25
331.391	7.25
332.181	8.25
332.971	8.25
333.76	9.25
334.55	12.25
335.34	8.25
336.13	6.25
336.919	10.25
337.709	10.25
338.498	8.25
339.287	8.25
340.077	7.25
340.866	9.25
341.655	8.25
342.444	9.25
343.233	8.25
344.022	8.25
344.811	7.25
345.6	10.25
346.388	7.25
347.177	6.25
347.965	9.25
348.754	9.25
349.542	9.25
350.33	10.25
351.119	9.25
351.907	9.25
352.695	7.25
353.483	8.25
354.271	7.25
355.059	7.25
355.846	8.25
356.634	8.25
357.422	9.25
358.209	9.25
358.997	9.25
359.784	8.25
360.571	8.25
361.359	8.25
362.146	7.25
362.933	10.25
363.72	8.25
364.507	8.25
365.294	4.25
366.081	6.25
366.867	9.25
367.654	7.25
368.44	7.25
369.227	6.25
370.013	6.25
370.8	8.25
371.586	6.25
372.372	6.25
373.158	4.25
373.944	8.25
374.73	8.25
375.516	5.25
376.302	7.25
377.088	6.25
377.873	6.25
378.659	7.25
379.445	7.25
380.23	6.25
381.015	7.25
381.801	7.25
382.586	8.25
383.371	9.25
384.156	8.25
384.941	8.25
385.726	9.25
386.511	7.25
387.296	8.25
388.08	8.25
388.865	7.25
389.649	9.25
390.434	10.25
391.218	9.25
392.003	6.25
392.787	7.25
393.571	11.25
394.355	8.25
395.139	8.25
395.923	6.25
396.707	9.25
397.491	8.25
398.274	7.25
399.058	11.25
399.842	10.25
400.625	12.25
401.408	11.25
402.192	12.25
402.975	12.25
403.758	8.25
404.541	10.25
405.324	8.25
406.107	11.25
406.89	10.25
407.673	10.25
408.456	13.25
409.238	10.25
410.021	12.25
410.803	11.25
411.586	12.25
412.368	13.25
413.151	13.25
413.933	12.25
414.715	12.25
415.497	15.25
416.279	13.25
417.061	10.25
417.843	13.25
418.624	13.25
419.406	12.25
420.188	14.25
420.969	13.25
421.751	14.25
422.532	15.25
423.313	16.25
424.095	16.25
424.876	16.25
425.657	17.25
426.438	18.25
427.219	18.25
428	20.25
428.78	20.25
429.561	21.25
430.342	18.25
431.122	20.25
431.903	23.25
432.683	19.25
433.464	24.25
434.244	23.25
435.024	26.25
435.804	25.25
436.584	25.25
437.364	28.25
438.144	27.25
438.924	31.25
439.704	31.25
440.483	36.25
441.263	38.25
442.042	39.25
442.822	38.25
443.601	42.25
444.38	44.25
445.16	50.25
445.939	50.25
446.718	56.25
447.497	60.25
448.276	61.25
449.054	71.25
449.833	72.25
450.612	81.25
451.391	89.25
452.169	98.25
452.948	104.25
453.726	113.25
454.504	130.25
455.282	142.25
456.061	159.25
456.839	172.25
457.617	193.25
458.395	218.25
459.172	243.25
459.95	274.25
460.728	304.25
461.506	345.25
462.283	382.25
463.061	436.25
463.838	469.25
464.615	538.25
465.393	580.25
466.17	668.25
466.947	745.25
467.724	835.25
468.501	915.25
469.278	1034.25
470.055	1144.25
470.831	1273.25
471.608	1412.25
472.385	1566.25
473.161	1756.25
473.938	1932.25
474.714	2154.25
475.49	2382.25
476.266	2613.25
477.043	2888.25
477.819	3211.25
478.595	3545.25
479.371	3896.25
480.146	4310.25
480.922	4723.25
481.698	5213.25
482.473	5757.25
483.249	6284.25
484.024	6957.25
484.8	7633.25
485.575	8369.25
486.35	9168.25
487.126	9988.25
487.901	10987.25
488.676	11979.25
489.451	13085.25
490.225	14215.25
491	15462.25
491.775	16822.25
492.55	18136.25
493.324	19669.25
494.099	21073.25
494.873	22453.25
495.647	23969.25
496.422	25480.25
497.196	27061.25
497.97	28655.25
498.744	30130.25
499.518	31581.25
500.292	32730.25
501.066	33887.25
501.839	34899.25
502.613	35794.25
503.387	36336.25
504.16	36849.25
504.934	36913.25
505.707	36831.25
506.48	36583.25
507.253	36116.25
508.027	35572.25
508.8	34820.25
509.573	33888.25
510.346	32856.25
511.118	31887.25
511.891	30722.25
512.664	29484.25
513.437	28251.25
514.209	27086.25
514.982	26012.25
515.754	24928.25
516.526	23789.25
517.298	22814.25
518.071	21752.25
518.843	20913.25
519.615	20053.25
520.387	19237.25
521.159	18520.25
521.93	17782.25
522.702	17079.25
523.474	16463.25
524.245	15736.25
525.017	15033.25
525.788	14338.25
526.56	13609.25
527.331	13035.25
528.102	12416.25
528.873	11757.25
529.644	11192.25
530.415	10634.25
531.186	10126.25
531.957	9539.25
532.728	9040.25
533.498	8539.25
534.269	8067.25
535.039	7654.25
535.81	7156.25
536.58	6794.25
537.351	6397.25
538.121	6077.25
538.891	5711.25
539.661	5438.25
540.431	5139.25
541.201	4845.25
541.971	4618.25
542.741	4372.25
543.51	4176.25
544.28	3940.25
545.05	3763.25
545.819	3579.25
546.588	3417.25
547.358	3223.25
548.127	3061.25
548.896	2871.25
549.665	2757.25
550.434	2602.25
551.203	2478.25
551.972	2329.25
552.741	2197.25
553.51	2103.25
554.278	1960.25
555.047	1831.25
555.815	1758.25
556.584	1653.25
557.352	1563.25
558.121	1463.25
558.889	1394.25
559.657	1309.25
560.425	1248.25
561.193	1166.25
561.961	1110.25
562.729	1055.25
563.496	986.25
564.264	935.25
565.032	885.25
565.799	838.25
566.567	790.25
567.334	754.25
568.101	701.25
568.869	662.25
569.636	618.25
570.403	592.25
571.17	563.25
571.937	521.25
572.704	507.25
573.471	466.25
574.237	440.25
575.004	421.25
575.771	390.25
576.537	375.25
577.303	350.25
578.07	332.25
578.836	312.25
579.602	295.25
580.368	279.25
581.134	263.25
581.9	245.25
582.666	241.25
583.432	222.25
584.198	219.25
584.964	200.25
585.729	196.25
586.495	181.25
587.26	169.25
588.025	164.25
588.791	156.25
589.556	146.25
590.321	142.25
591.086	131.25
591.851	126.25
592.616	120.25
593.381	110.25
594.146	111.25
594.911	103.25
595.675	96.25
596.44	94.25
597.204	90.25
597.969	88.25
598.733	83.25
599.497	79.25
600.261	80.25
601.025	72.25
601.79	71.25
602.553	64.25
603.317	62.25
604.081	61.25
604.845	59.25
605.609	58.25
606.372	54.25
607.136	47.25
607.899	46.25
608.662	46.25
609.426	42.25
610.189	46.25
610.952	46.25
611.715	41.25
612.478	39.25
613.241	36.25
614.004	38.25
614.767	32.25
615.529	34.25
616.292	34.25
617.055	31.25
617.817	31.25
618.579	28.25
619.342	31.25
620.104	29.25
620.866	28.25
621.628	25.25
622.39	23.25
623.152	23.25
623.914	21.25
624.676	21.25
625.438	21.25
626.199	24.25
626.961	21.25
627.722	18.25
628.484	19.25
629.245	19.25
630.006	20.25
630.768	19.25
631.529	18.25
632.29	18.25
633.051	16.25
633.812	17.25
634.573	15.25
635.333	16.25
636.094	17.25
636.855	13.25
637.615	14.25
638.376	13.25
639.136	13.25
639.896	13.25
640.657	10.25
641.417	13.25
642.177	11.25
642.937	12.25
643.697	9.25
644.457	11.25
645.216	10.25
645.976	11.25
646.736	9.25
647.495	10.25
648.255	11.25
649.014	8.25
649.774	9.25
650.533	8.25
651.292	7.25
652.051	10.25
652.81	8.25
653.569	9.25
654.328	8.25
655.087	9.25
655.846	8.25
656.604	8.25
657.363	9.25
658.121	11.25
658.88	9.25
659.638	8.25
660.397	9.25
661.155	8.25
661.913	7.25
662.671	7.25
663.429	8.25
664.187	9.25
664.945	8.25
665.703	5.25
666.46	7.25
667.218	7.25
667.976	5.25
668.733	6.25
669.49	4.25
670.248	8.25
671.005	6.25
671.762	8.25
672.519	8.25
673.276	8.25
674.033	6.25
674.79	2.25
675.547	9.25
676.304	7.25
677.06	7.25
677.817	5.25
678.574	7.25
679.33	6.25
680.086	5.25
680.843	8.25
681.599	6.25
682.355	6.25
683.111	8.25
683.867	5.25
684.623	5.25
685.379	7.25
686.135	5.25
686.89	6.25
687.646	4.25
688.402	5.25
689.157	5.25
689.912	8.25
690.668	4.25
691.423	7.25
692.178	6.25
692.933	3.25
693.688	4.25
694.443	5.25
695.198	8.25
695.953	7.25
696.708	4.25
697.462	4.25
698.217	3.25
698.972	5.25
699.726	7.25
700.48	5.25
701.235	2.25
701.989	4.25
702.743	5.25
703.497	4.25
704.251	6.25
705.005	5.25
705.759	6.25
706.513	2.25
707.266	5.25
708.02	4.25
708.774	4.25
709.527	2.25
710.28	3.25
711.034	5.25
711.787	6.25
712.54	3.25
713.293	6.25
714.046	5.25
714.799	6.25
715.552	6.25
716.305	5.25
717.058	5.25
717.81	7.25
718.563	6.25
719.315	2.25
720.068	6.25
720.82	5.25
721.573	6.25
722.325	5.25
723.077	4.25
723.829	4.25
724.581	3.25
725.333	6.25
726.085	7.25
726.836	6.25
727.588	5.25
728.34	5.25
729.091	4.25
729.843	6.25
730.594	4.25
731.346	7.25
732.097	4.25
732.848	5.25
733.599	6.25
734.35	5.25
735.101	3.25
735.852	8.25
736.603	5.25
737.354	5.25
738.104	4.25
738.855	6.25
739.605	6.25
740.356	5.25
741.106	7.25
741.856	5.25
742.607	7.25
743.357	7.25
744.107	7.25
744.857	8.25
745.607	7.25
746.357	5.25
747.106	6.25
747.856	8.25
748.606	7.25
749.355	8.25
750.105	8.25
750.854	6.25
751.603	7.25
752.353	7.25
753.102	7.25
753.851	8.25
754.6	9.25
755.349	7.25
756.098	7.25
756.847	10.25
757.595	6.25
758.344	10.25
759.093	7.25
759.841	8.25
760.589	8.25
761.338	9.25
762.086	10.25
762.834	8.25
763.582	8.25
764.331	10.25
765.079	9.25
765.826	10.25
766.574	11.25
767.322	11.25
768.07	9.25
768.817	9.25
769.565	11.25
770.312	7.25
771.06	11.25
771.807	14.25
772.554	10.25
773.302	9.25
774.049	9.25
774.796	12.25
775.543	10.25
776.29	10.25
777.036	10.25
777.783	12.25
778.53	12.25
779.276	12.25
780.023	15.25
780.769	11.25
781.516	11.25
782.262	10.25
783.008	14.25
783.754	11.25
784.5	10.25
785.246	14.25
785.992	11.25
786.738	15.25
787.484	12.25
788.23	11.25
788.975	12.25
789.721	7.25
790.466	13.25
791.212	10.25
791.957	11.25
792.702	13.25
793.447	9.25
794.193	11.25
794.938	10.25
795.683	11.25
796.427	10.25
797.172	9.25
797.917	10.25
798.662	11.25
799.406	11.25
800.151	11.25
800.895	9.25
801.64	8.25
802.384	10.25
803.128	9.25
803.872	8.25
804.616	8.25
805.36	9.25
806.104	7.25
806.848	9.25
807.592	6.25
808.336	8.25
809.079	9.25
809.823	6.25
810.566	7.25
811.31	8.25
812.053	5.25
812.796	7.25
813.539	5.25
814.283	7.25
815.026	5.25
815.769	8.25
816.511	6.25
817.254	10.25
817.997	7.25
818.74	5.25
819.482	7.25
820.225	6.25
820.967	3.25
821.71	4.25
822.452	6.25
823.194	5.25
823.936	5.25
824.678	5.25
825.42	6.25
826.162	7.25
826.904	5.25
827.646	4.25
828.388	6.25
829.129	4.25
829.871	6.25
830.612	3.25
831.354	7.25
832.095	3.25
832.836	4.25
833.577	3.25
834.319	5.25
835.06	6.25
835.801	4.25
836.542	6.25
837.282	4.25
838.023	5.25
838.764	3.25
839.504	4.25
840.245	4.25
840.985	2.25
841.726	3.25
842.466	4.25
843.206	4.25
843.946	6.25
844.687	5.25
845.427	5.25
846.166	5.25
846.906	5.25
847.646	4.25
848.386	3.25
849.125	4.25
849.865	3.25
850.605	5.25
851.344	2.25
852.083	3.25
852.823	3.25
853.562	2.25
854.301	4.25
855.04	3.25
855.779	4.25
856.518	3.25
857.257	4.25
857.995	3.25
858.734	2.25
859.473	5.25
860.211	3.25
860.95	3.25
861.688	4.25
862.426	1.25
863.165	2.25
863.903	2.25
864.641	1.25
865.379	0.25
866.117	2.25
866.855	2.25
867.593	0.25
868.33	2.25
869.068	2.25
869.806	3.25
870.543	3.25
871.28	-0.75
872.018	2.25
872.755	2.25
873.492	1.25
874.229	0.25
874.967	0.25
875.703	1.25
876.44	1.25
877.177	1.25
877.914	1.25
878.651	2.25
879.387	3.25
880.124	1.25
880.86	1.25
881.597	0.25
882.333	2.25
883.069	1.25
883.806	0.25
884.542	0.25
885.278	-1.75
886.014	2.25
886.749	0.25
887.485	-0.75
888.221	2.25
888.957	-1.75
889.692	3.25
890.428	2.25
891.163	-0.75
891.899	1.25
892.634	2.25
893.369	0.25
894.104	-0.75
894.839	2.25
895.574	1.25
896.309	-0.75
897.044	0.25
897.779	-1.75
898.514	3.25
899.248	0.25
899.983	0.25
900.717	1.25
901.452	1.25
902.186	1.25
902.92	-0.75
903.654	1.25
904.389	-1.75
905.123	1.25
905.857	2.25
906.59	-0.75
907.324	1.25
908.058	0.25
908.792	2.25
909.525	0.25
910.259	1.25
910.992	-0.75
911.726	-1.75
912.459	0.25
913.192	0.25
913.925	2.25
914.658	1.25
915.391	-0.75
916.124	2.25
916.857	1.25
917.59	-1.75
918.323	0.25
919.055	0.25
919.788	1.25
920.521	1.25
921.253	-0.75
921.985	2.25
922.718	0.25
923.45	0.25
924.182	-0.75
924.914	-0.75
925.646	1.25
926.378	1.25
927.11	1.25
927.841	1.25
928.573	2.25
929.305	1.25
930.036	1.25
930.768	-1.75
931.499	0.25
932.23	1.25
932.962	-0.75
933.693	1.25
934.424	-0.75
935.155	2.25
935.886	1.25
936.617	3.25
937.348	2.25
938.078	1.25
938.809	1.25
939.54	-0.75
940.27	0.25
941.001	1.25
941.731	-0.75
942.461	0.25
943.191	1.25
943.922	0.25
944.652	2.25
945.382	1.25
946.112	0.25
946.841	1.25
947.571	1.25
948.301	-1.75
949.031	-0.75
949.76	1.25
950.49	-0.75
951.219	-0.75
951.948	-2.75
952.678	0.25
953.407	0.25
954.136	3.25
954.865	-0.75
955.594	-0.75
956.323	-0.75
957.052	0.25
957.78	1.25
958.509	1.25
959.238	-0.75
959.966	0.25
960.695	1.25
961.423	0.25
962.151	0.25
962.88	1.25
963.608	-1.75
964.336	2.25
965.064	1.25
965.792	0.25
966.52	-0.75
967.247	2.25
967.975	0.25
968.703	-1.75
969.43	-1.75
970.158	0.25
970.885	1.25
971.613	0.25
972.34	1.25
973.067	-0.75
973.794	3.25
974.521	0.25
975.248	1.25
975.975	-0.75
976.702	0.25
977.429	1.25
978.156	-0.75
978.882	1.25
979.609	1.25
980.335	-0.75
981.062	0.25
981.788	-0.75
982.514	0.25
983.24	0.25
983.967	0.25
984.693	2.25
985.419	2.25
986.144	0.25
986.87	-1.75
987.596	0.25
988.322	-1.75
989.047	-0.75
989.773	1.25
990.498	1.25
991.224	0.25
991.949	0.25
992.674	-0.75
993.399	-2.75
994.124	0.25
994.849	-1.75
995.574	-0.75
996.299	1.25
997.024	-2.75
997.749	-0.75
998.473	0.25
999.198	2.25
999.922	1.25
1000.647	1.25
1001.371	4.25
1002.095	-0.75
1002.82	-3.75
1003.544	-1.75
1004.268	2.25
1004.992	1.25
1005.716	2.25
1006.439	4.25
1007.163	5.25
1007.887	2.25
1008.611	2.25
1009.334	0.25
1010.058	0.25
1010.781	0.25
1011.504	2.25
1012.228	3.25
1012.951	-0.75
1013.674	0.25
1014.397	0.25
1015.12	2.25
