节点500_425_QEPB04081__443__15-55-40-588.txt的数据

Date: Wed Nov 12 15:55:40 CST 2025
User: PC
Spectrometer: QEPB0408
触发模式: 0
积分时间 (秒): 1.000000E-2
Scans to average: 1
启用暗噪声校正: true
启用非线性校正: false
滑动平均宽度: 0
X轴模式: Wavelengths
Number of Pixels in Spectrum: 1044
>>>>>Begin Spectral Data<<<<<
220.843	3.25
221.644	3.25
222.444	5.25
223.244	2.25
224.045	3.25
224.845	6.25
225.645	4.25
226.445	2.25
227.245	4.25
228.045	3.25
228.845	2.25
229.645	5.25
230.444	6.25
231.244	3.25
232.043	4.25
232.843	2.25
233.642	5.25
234.442	4.25
235.241	3.25
236.04	6.25
236.839	5.25
237.638	6.25
238.437	7.25
239.236	6.25
240.035	6.25
240.833	2.25
241.632	7.25
242.43	4.25
243.229	6.25
244.027	7.25
244.826	9.25
245.624	10.25
246.422	8.25
247.22	9.25
248.018	10.25
248.816	9.25
249.614	10.25
250.412	8.25
251.21	8.25
252.007	9.25
252.805	10.25
253.602	12.25
254.4	8.25
255.197	10.25
255.994	11.25
256.791	12.25
257.589	12.25
258.386	11.25
259.183	13.25
259.979	10.25
260.776	14.25
261.573	16.25
262.37	14.25
263.166	15.25
263.963	14.25
264.759	18.25
265.556	16.25
266.352	16.25
267.148	15.25
267.944	15.25
268.74	17.25
269.536	18.25
270.332	19.25
271.128	18.25
271.924	21.25
272.719	20.25
273.515	21.25
274.311	24.25
275.106	22.25
275.901	21.25
276.697	23.25
277.492	22.25
278.287	23.25
279.082	23.25
279.877	25.25
280.672	21.25
281.467	23.25
282.262	24.25
283.056	21.25
283.851	24.25
284.646	21.25
285.44	23.25
286.234	21.25
287.029	22.25
287.823	23.25
288.617	24.25
289.411	21.25
290.205	24.25
290.999	25.25
291.793	24.25
292.587	21.25
293.381	24.25
294.174	24.25
294.968	21.25
295.761	18.25
296.555	20.25
297.348	18.25
298.141	22.25
298.935	20.25
299.728	19.25
300.521	19.25
301.314	18.25
302.107	19.25
302.899	15.25
303.692	14.25
304.485	14.25
305.277	16.25
306.07	15.25
306.862	16.25
307.655	13.25
308.447	17.25
309.239	13.25
310.031	16.25
310.823	14.25
311.615	12.25
312.407	12.25
313.199	12.25
313.991	11.25
314.783	14.25
315.574	14.25
316.366	13.25
317.157	8.25
317.949	13.25
318.74	12.25
319.531	9.25
320.322	13.25
321.113	10.25
321.904	11.25
322.695	8.25
323.486	12.25
324.277	9.25
325.068	9.25
325.858	6.25
326.649	9.25
327.439	8.25
328.23	8.25
329.02	10.25
329.81	10.25
330.6	8.25
331.391	11.25
332.181	7.25
332.971	10.25
333.76	8.25
334.55	8.25
335.34	8.25
336.13	8.25
336.919	7.25
337.709	8.25
338.498	10.25
339.287	6.25
340.077	7.25
340.866	7.25
341.655	8.25
342.444	7.25
343.233	6.25
344.022	8.25
344.811	8.25
345.6	8.25
346.388	8.25
347.177	6.25
347.965	7.25
348.754	9.25
349.542	8.25
350.33	9.25
351.119	6.25
351.907	9.25
352.695	5.25
353.483	7.25
354.271	7.25
355.059	6.25
355.846	9.25
356.634	7.25
357.422	7.25
358.209	8.25
358.997	8.25
359.784	6.25
360.571	7.25
361.359	7.25
362.146	6.25
362.933	8.25
363.72	8.25
364.507	7.25
365.294	7.25
366.081	5.25
366.867	8.25
367.654	5.25
368.44	7.25
369.227	8.25
370.013	8.25
370.8	8.25
371.586	8.25
372.372	6.25
373.158	8.25
373.944	5.25
374.73	8.25
375.516	5.25
376.302	6.25
377.088	7.25
377.873	7.25
378.659	7.25
379.445	7.25
380.23	7.25
381.015	6.25
381.801	9.25
382.586	11.25
383.371	8.25
384.156	7.25
384.941	6.25
385.726	8.25
386.511	4.25
387.296	8.25
388.08	7.25
388.865	7.25
389.649	7.25
390.434	7.25
391.218	7.25
392.003	7.25
392.787	6.25
393.571	10.25
394.355	6.25
395.139	9.25
395.923	10.25
396.707	8.25
397.491	9.25
398.274	8.25
399.058	8.25
399.842	9.25
400.625	6.25
401.408	10.25
402.192	10.25
402.975	8.25
403.758	9.25
404.541	13.25
405.324	13.25
406.107	9.25
406.89	11.25
407.673	9.25
408.456	10.25
409.238	10.25
410.021	11.25
410.803	10.25
411.586	12.25
412.368	10.25
413.151	9.25
413.933	10.25
414.715	11.25
415.497	13.25
416.279	10.25
417.061	12.25
417.843	11.25
418.624	12.25
419.406	13.25
420.188	17.25
420.969	14.25
421.751	14.25
422.532	14.25
423.313	13.25
424.095	17.25
424.876	14.25
425.657	16.25
426.438	16.25
427.219	18.25
428	19.25
428.78	19.25
429.561	19.25
430.342	18.25
431.122	18.25
431.903	18.25
432.683	21.25
433.464	20.25
434.244	21.25
435.024	24.25
435.804	25.25
436.584	27.25
437.364	28.25
438.144	30.25
438.924	30.25
439.704	30.25
440.483	35.25
441.263	33.25
442.042	39.25
442.822	39.25
443.601	46.25
444.38	42.25
445.16	49.25
445.939	51.25
446.718	54.25
447.497	64.25
448.276	65.25
449.054	77.25
449.833	81.25
450.612	90.25
451.391	97.25
452.169	105.25
452.948	114.25
453.726	133.25
454.504	141.25
455.282	158.25
456.061	184.25
456.839	194.25
457.617	226.25
458.395	238.25
459.172	272.25
459.95	298.25
460.728	336.25
461.506	370.25
462.283	408.25
463.061	465.25
463.838	522.25
464.615	578.25
465.393	636.25
466.17	707.25
466.947	802.25
467.724	884.25
468.501	974.25
469.278	1072.25
470.055	1192.25
470.831	1319.25
471.608	1454.25
472.385	1623.25
473.161	1778.25
473.938	1954.25
474.714	2156.25
475.49	2366.25
476.266	2604.25
477.043	2873.25
477.819	3172.25
478.595	3447.25
479.371	3787.25
480.146	4121.25
480.922	4516.25
481.698	4944.25
482.473	5376.25
483.249	5889.25
484.024	6408.25
484.8	7033.25
485.575	7654.25
486.35	8292.25
487.126	8987.25
487.901	9825.25
488.676	10642.25
489.451	11562.25
490.225	12500.25
491	13536.25
491.775	14615.25
492.55	15772.25
493.324	16948.25
494.099	18108.25
494.873	19324.25
495.647	20682.25
496.422	21909.25
497.196	23290.25
497.97	24690.25
498.744	26046.25
499.518	27365.25
500.292	28511.25
501.066	29623.25
501.839	30766.25
502.613	31661.25
503.387	32558.25
504.16	33076.25
504.934	33547.25
505.707	33756.25
506.48	33766.25
507.253	33582.25
508.027	33501.25
508.8	33074.25
509.573	32520.25
510.346	31786.25
511.118	31063.25
511.891	30237.25
512.664	29158.25
513.437	28205.25
514.209	27112.25
514.982	26157.25
515.754	25151.25
516.526	24086.25
517.298	23126.25
518.071	22187.25
518.843	21319.25
519.615	20482.25
520.387	19623.25
521.159	18806.25
521.93	18156.25
522.702	17428.25
523.474	16698.25
524.245	16068.25
525.017	15359.25
525.788	14670.25
526.56	14022.25
527.331	13380.25
528.102	12801.25
528.873	12210.25
529.644	11681.25
530.415	11095.25
531.186	10624.25
531.957	10048.25
532.728	9537.25
533.498	9037.25
534.269	8544.25
535.039	8131.25
535.81	7644.25
536.58	7236.25
537.351	6848.25
538.121	6455.25
538.891	6160.25
539.661	5805.25
540.431	5516.25
541.201	5220.25
541.971	4926.25
542.741	4660.25
543.51	4440.25
544.28	4241.25
545.05	3996.25
545.819	3828.25
546.588	3673.25
547.358	3442.25
548.127	3267.25
548.896	3111.25
549.665	2947.25
550.434	2818.25
551.203	2653.25
551.972	2520.25
552.741	2390.25
553.51	2255.25
554.278	2133.25
555.047	2013.25
555.815	1898.25
556.584	1809.25
557.352	1686.25
558.121	1591.25
558.889	1515.25
559.657	1440.25
560.425	1351.25
561.193	1284.25
561.961	1215.25
562.729	1147.25
563.496	1081.25
564.264	1028.25
565.032	963.25
565.799	919.25
566.567	862.25
567.334	816.25
568.101	772.25
568.869	734.25
569.636	686.25
570.403	647.25
571.17	609.25
571.937	585.25
572.704	544.25
573.471	518.25
574.237	488.25
575.004	451.25
575.771	426.25
576.537	403.25
577.303	392.25
578.07	361.25
578.836	334.25
579.602	318.25
580.368	299.25
581.134	294.25
581.9	268.25
582.666	263.25
583.432	244.25
584.198	232.25
584.964	221.25
585.729	210.25
586.495	203.25
587.26	188.25
588.025	180.25
588.791	168.25
589.556	163.25
590.321	150.25
591.086	150.25
591.851	132.25
592.616	134.25
593.381	122.25
594.146	116.25
594.911	111.25
595.675	110.25
596.44	103.25
597.204	101.25
597.969	95.25
598.733	85.25
599.497	88.25
600.261	80.25
601.025	77.25
601.79	71.25
602.553	70.25
603.317	68.25
604.081	65.25
604.845	62.25
605.609	62.25
606.372	58.25
607.136	59.25
607.899	54.25
608.662	50.25
609.426	47.25
610.189	47.25
610.952	45.25
611.715	44.25
612.478	43.25
613.241	42.25
614.004	39.25
614.767	39.25
615.529	36.25
616.292	36.25
617.055	32.25
617.817	29.25
618.579	32.25
619.342	30.25
620.104	29.25
620.866	28.25
621.628	27.25
622.39	26.25
623.152	23.25
623.914	25.25
624.676	26.25
625.438	24.25
626.199	21.25
626.961	19.25
627.722	23.25
628.484	24.25
629.245	18.25
630.006	20.25
630.768	18.25
631.529	18.25
632.29	18.25
633.051	17.25
633.812	16.25
634.573	14.25
635.333	16.25
636.094	15.25
636.855	16.25
637.615	16.25
638.376	15.25
639.136	13.25
639.896	13.25
640.657	13.25
641.417	12.25
642.177	13.25
642.937	12.25
643.697	12.25
644.457	11.25
645.216	12.25
645.976	12.25
646.736	10.25
647.495	12.25
648.255	11.25
649.014	9.25
649.774	11.25
650.533	10.25
651.292	7.25
652.051	7.25
652.81	9.25
653.569	9.25
654.328	9.25
655.087	8.25
655.846	7.25
656.604	11.25
657.363	7.25
658.121	4.25
658.88	6.25
659.638	8.25
660.397	6.25
661.155	7.25
661.913	10.25
662.671	6.25
663.429	8.25
664.187	8.25
664.945	7.25
665.703	6.25
666.46	6.25
667.218	8.25
667.976	7.25
668.733	6.25
669.49	9.25
670.248	4.25
671.005	6.25
671.762	10.25
672.519	8.25
673.276	7.25
674.033	7.25
674.79	6.25
675.547	6.25
676.304	7.25
677.06	4.25
677.817	6.25
678.574	5.25
679.33	3.25
680.086	7.25
680.843	5.25
681.599	6.25
682.355	5.25
683.111	7.25
683.867	5.25
684.623	6.25
685.379	6.25
686.135	7.25
686.89	6.25
687.646	4.25
688.402	4.25
689.157	6.25
689.912	3.25
690.668	5.25
691.423	4.25
692.178	4.25
692.933	5.25
693.688	4.25
694.443	6.25
695.198	5.25
695.953	6.25
696.708	5.25
697.462	3.25
698.217	5.25
698.972	5.25
699.726	5.25
700.48	8.25
701.235	7.25
701.989	2.25
702.743	3.25
703.497	6.25
704.251	5.25
705.005	3.25
705.759	5.25
706.513	2.25
707.266	6.25
708.02	5.25
708.774	6.25
709.527	7.25
710.28	5.25
711.034	4.25
711.787	4.25
712.54	4.25
713.293	5.25
714.046	5.25
714.799	5.25
715.552	3.25
716.305	4.25
717.058	5.25
717.81	4.25
718.563	5.25
719.315	6.25
720.068	5.25
720.82	4.25
721.573	4.25
722.325	3.25
723.077	5.25
723.829	6.25
724.581	5.25
725.333	4.25
726.085	3.25
726.836	6.25
727.588	6.25
728.34	4.25
729.091	5.25
729.843	6.25
730.594	5.25
731.346	7.25
732.097	5.25
732.848	6.25
733.599	5.25
734.35	7.25
735.101	5.25
735.852	5.25
736.603	7.25
737.354	4.25
738.104	5.25
738.855	6.25
739.605	4.25
740.356	6.25
741.106	6.25
741.856	7.25
742.607	3.25
743.357	8.25
744.107	5.25
744.857	6.25
745.607	7.25
746.357	5.25
747.106	7.25
747.856	7.25
748.606	7.25
749.355	6.25
750.105	7.25
750.854	8.25
751.603	4.25
752.353	9.25
753.102	5.25
753.851	9.25
754.6	7.25
755.349	7.25
756.098	7.25
756.847	8.25
757.595	9.25
758.344	7.25
759.093	8.25
759.841	7.25
760.589	6.25
761.338	8.25
762.086	7.25
762.834	8.25
763.582	9.25
764.331	10.25
765.079	8.25
765.826	8.25
766.574	10.25
767.322	9.25
768.07	8.25
768.817	9.25
769.565	8.25
770.312	10.25
771.06	10.25
771.807	10.25
772.554	8.25
773.302	9.25
774.049	11.25
774.796	11.25
775.543	9.25
776.29	13.25
777.036	11.25
777.783	11.25
778.53	9.25
779.276	12.25
780.023	8.25
780.769	10.25
781.516	12.25
782.262	10.25
783.008	10.25
783.754	9.25
784.5	11.25
785.246	11.25
785.992	13.25
786.738	10.25
787.484	10.25
788.23	10.25
788.975	7.25
789.721	11.25
790.466	10.25
791.212	13.25
791.957	9.25
792.702	9.25
793.447	9.25
794.193	9.25
794.938	10.25
795.683	10.25
796.427	9.25
797.172	10.25
797.917	8.25
798.662	12.25
799.406	7.25
800.151	10.25
800.895	8.25
801.64	9.25
802.384	10.25
803.128	8.25
803.872	8.25
804.616	7.25
805.36	6.25
806.104	8.25
806.848	9.25
807.592	9.25
808.336	8.25
809.079	9.25
809.823	8.25
810.566	9.25
811.31	4.25
812.053	7.25
812.796	8.25
813.539	6.25
814.283	4.25
815.026	8.25
815.769	7.25
816.511	4.25
817.254	5.25
817.997	5.25
818.74	4.25
819.482	6.25
820.225	8.25
820.967	4.25
821.71	5.25
822.452	6.25
823.194	6.25
823.936	5.25
824.678	4.25
825.42	7.25
826.162	5.25
826.904	4.25
827.646	6.25
828.388	7.25
829.129	5.25
829.871	4.25
830.612	5.25
831.354	6.25
832.095	3.25
832.836	7.25
833.577	5.25
834.319	4.25
835.06	5.25
835.801	5.25
836.542	2.25
837.282	7.25
838.023	3.25
838.764	4.25
839.504	5.25
840.245	5.25
840.985	5.25
841.726	4.25
842.466	2.25
843.206	6.25
843.946	4.25
844.687	4.25
845.427	2.25
846.166	3.25
846.906	2.25
847.646	5.25
848.386	3.25
849.125	5.25
849.865	5.25
850.605	2.25
851.344	1.25
852.083	4.25
852.823	1.25
853.562	2.25
854.301	3.25
855.04	1.25
855.779	1.25
856.518	3.25
857.257	2.25
857.995	4.25
858.734	1.25
859.473	3.25
860.211	2.25
860.95	2.25
861.688	4.25
862.426	4.25
863.165	2.25
863.903	2.25
864.641	0.25
865.379	0.25
866.117	4.25
866.855	1.25
867.593	0.25
868.33	2.25
869.068	0.25
869.806	0.25
870.543	2.25
871.28	0.25
872.018	0.25
872.755	2.25
873.492	5.25
874.229	0.25
874.967	1.25
875.703	1.25
876.44	0.25
877.177	1.25
877.914	1.25
878.651	2.25
879.387	2.25
880.124	2.25
880.86	0.25
881.597	0.25
882.333	1.25
883.069	0.25
883.806	1.25
884.542	0.25
885.278	1.25
886.014	0.25
886.749	0.25
887.485	1.25
888.221	1.25
888.957	1.25
889.692	1.25
890.428	0.25
891.163	0.25
891.899	-0.75
892.634	1.25
893.369	-0.75
894.104	2.25
894.839	3.25
895.574	-1.75
896.309	6.25
897.044	2.25
897.779	0.25
898.514	1.25
899.248	1.25
899.983	1.25
900.717	0.25
901.452	0.25
902.186	2.25
902.92	0.25
903.654	1.25
904.389	0.25
905.123	1.25
905.857	1.25
906.59	1.25
907.324	0.25
908.058	1.25
908.792	0.25
909.525	-0.75
910.259	3.25
910.992	-1.75
911.726	1.25
912.459	-1.75
913.192	0.25
913.925	2.25
914.658	0.25
915.391	2.25
916.124	2.25
916.857	-1.75
917.59	2.25
918.323	0.25
919.055	2.25
919.788	1.25
920.521	-0.75
921.253	3.25
921.985	-0.75
922.718	0.25
923.45	0.25
924.182	0.25
924.914	-0.75
925.646	0.25
926.378	1.25
927.11	0.25
927.841	1.25
928.573	0.25
929.305	-0.75
930.036	2.25
930.768	-0.75
931.499	1.25
932.23	-0.75
932.962	1.25
933.693	0.25
934.424	0.25
935.155	1.25
935.886	-0.75
936.617	2.25
937.348	-1.75
938.078	-1.75
938.809	0.25
939.54	-0.75
940.27	2.25
941.001	-1.75
941.731	1.25
942.461	2.25
943.191	-1.75
943.922	0.25
944.652	1.25
945.382	2.25
946.112	1.25
946.841	1.25
947.571	-0.75
948.301	0.25
949.031	2.25
949.76	-0.75
950.49	-0.75
951.219	-1.75
951.948	-0.75
952.678	0.25
953.407	-0.75
954.136	0.25
954.865	0.25
955.594	2.25
956.323	0.25
957.052	-1.75
957.78	2.25
958.509	0.25
959.238	0.25
959.966	-0.75
960.695	-0.75
961.423	0.25
962.151	-1.75
962.88	0.25
963.608	-1.75
964.336	0.25
965.064	0.25
965.792	0.25
966.52	2.25
967.247	-0.75
967.975	-0.75
968.703	-0.75
969.43	-1.75
970.158	0.25
970.885	0.25
971.613	2.25
972.34	-1.75
973.067	0.25
973.794	1.25
974.521	-0.75
975.248	0.25
975.975	-2.75
976.702	2.25
977.429	-0.75
978.156	1.25
978.882	-0.75
979.609	0.25
980.335	0.25
981.062	-1.75
981.788	2.25
982.514	-0.75
983.24	2.25
983.967	1.25
984.693	0.25
985.419	0.25
986.144	0.25
986.87	0.25
987.596	1.25
988.322	-1.75
989.047	-1.75
989.773	-0.75
990.498	-0.75
991.224	-0.75
991.949	0.25
992.674	0.25
993.399	-1.75
994.124	1.25
994.849	-0.75
995.574	0.25
996.299	1.25
997.024	-1.75
997.749	0.25
998.473	-0.75
999.198	0.25
999.922	1.25
1000.647	-0.75
1001.371	3.25
1002.095	-0.75
1002.82	-0.75
1003.544	-1.75
1004.268	5.25
1004.992	2.25
1005.716	-0.75
1006.439	2.25
1007.163	1.25
1007.887	2.25
1008.611	0.25
1009.334	1.25
1010.058	0.25
1010.781	1.25
1011.504	0.25
1012.228	1.25
1012.951	0.25
1013.674	0.25
1014.397	0.25
1015.12	-0.75
