节点500_425_QEPB04081__528__15-57-05-558.txt的数据

Date: Wed Nov 12 15:57:05 CST 2025
User: PC
Spectrometer: QEPB0408
触发模式: 0
积分时间 (秒): 1.000000E-2
Scans to average: 1
启用暗噪声校正: true
启用非线性校正: false
滑动平均宽度: 0
X轴模式: Wavelengths
Number of Pixels in Spectrum: 1044
>>>>>Begin Spectral Data<<<<<
220.843	2.62
221.644	3.62
222.444	3.62
223.244	5.62
224.045	4.62
224.845	3.62
225.645	5.62
226.445	2.62
227.245	4.62
228.045	3.62
228.845	6.62
229.645	2.62
230.444	4.62
231.244	5.62
232.043	5.62
232.843	6.62
233.642	6.62
234.442	7.62
235.241	5.62
236.04	7.62
236.839	8.62
237.638	7.62
238.437	4.62
239.236	3.62
240.035	7.62
240.833	6.62
241.632	6.62
242.43	8.62
243.229	7.62
244.027	6.62
244.826	7.62
245.624	5.62
246.422	8.62
247.22	7.62
248.018	6.62
248.816	6.62
249.614	9.62
250.412	8.62
251.21	10.62
252.007	8.62
252.805	9.62
253.602	10.62
254.4	11.62
255.197	13.62
255.994	11.62
256.791	10.62
257.589	11.62
258.386	9.62
259.183	14.62
259.979	14.62
260.776	13.62
261.573	17.62
262.37	14.62
263.166	15.62
263.963	14.62
264.759	15.62
265.556	16.62
266.352	16.62
267.148	15.62
267.944	16.62
268.74	17.62
269.536	16.62
270.332	20.62
271.128	22.62
271.924	19.62
272.719	20.62
273.515	21.62
274.311	20.62
275.106	17.62
275.901	21.62
276.697	20.62
277.492	23.62
278.287	22.62
279.082	25.62
279.877	19.62
280.672	21.62
281.467	21.62
282.262	22.62
283.056	24.62
283.851	24.62
284.646	24.62
285.44	20.62
286.234	23.62
287.029	22.62
287.823	24.62
288.617	22.62
289.411	24.62
290.205	21.62
290.999	21.62
291.793	20.62
292.587	22.62
293.381	22.62
294.174	21.62
294.968	18.62
295.761	20.62
296.555	20.62
297.348	20.62
298.141	18.62
298.935	21.62
299.728	20.62
300.521	17.62
301.314	17.62
302.107	15.62
302.899	17.62
303.692	20.62
304.485	15.62
305.277	18.62
306.07	14.62
306.862	16.62
307.655	14.62
308.447	18.62
309.239	18.62
310.031	14.62
310.823	15.62
311.615	12.62
312.407	13.62
313.199	10.62
313.991	12.62
314.783	13.62
315.574	10.62
316.366	12.62
317.157	10.62
317.949	11.62
318.74	11.62
319.531	13.62
320.322	10.62
321.113	9.62
321.904	11.62
322.695	10.62
323.486	9.62
324.277	10.62
325.068	9.62
325.858	7.62
326.649	10.62
327.439	11.62
328.23	8.62
329.02	8.62
329.81	7.62
330.6	8.62
331.391	9.62
332.181	10.62
332.971	9.62
333.76	10.62
334.55	8.62
335.34	8.62
336.13	7.62
336.919	8.62
337.709	9.62
338.498	7.62
339.287	7.62
340.077	8.62
340.866	7.62
341.655	8.62
342.444	7.62
343.233	6.62
344.022	8.62
344.811	6.62
345.6	8.62
346.388	9.62
347.177	8.62
347.965	9.62
348.754	10.62
349.542	11.62
350.33	8.62
351.119	7.62
351.907	8.62
352.695	6.62
353.483	6.62
354.271	8.62
355.059	6.62
355.846	7.62
356.634	5.62
357.422	7.62
358.209	6.62
358.997	5.62
359.784	7.62
360.571	8.62
361.359	9.62
362.146	6.62
362.933	7.62
363.72	7.62
364.507	7.62
365.294	8.62
366.081	5.62
366.867	9.62
367.654	7.62
368.44	7.62
369.227	8.62
370.013	7.62
370.8	7.62
371.586	7.62
372.372	5.62
373.158	8.62
373.944	6.62
374.73	8.62
375.516	4.62
376.302	6.62
377.088	8.62
377.873	5.62
378.659	6.62
379.445	5.62
380.23	4.62
381.015	4.62
381.801	6.62
382.586	5.62
383.371	8.62
384.156	6.62
384.941	9.62
385.726	8.62
386.511	8.62
387.296	6.62
388.08	6.62
388.865	7.62
389.649	8.62
390.434	5.62
391.218	5.62
392.003	6.62
392.787	6.62
393.571	13.62
394.355	6.62
395.139	8.62
395.923	10.62
396.707	10.62
397.491	9.62
398.274	8.62
399.058	9.62
399.842	12.62
400.625	8.62
401.408	8.62
402.192	5.62
402.975	11.62
403.758	10.62
404.541	12.62
405.324	8.62
406.107	10.62
406.89	12.62
407.673	9.62
408.456	8.62
409.238	8.62
410.021	11.62
410.803	10.62
411.586	10.62
412.368	13.62
413.151	10.62
413.933	11.62
414.715	14.62
415.497	11.62
416.279	14.62
417.061	11.62
417.843	12.62
418.624	12.62
419.406	12.62
420.188	14.62
420.969	14.62
421.751	14.62
422.532	14.62
423.313	12.62
424.095	15.62
424.876	16.62
425.657	15.62
426.438	14.62
427.219	19.62
428	17.62
428.78	19.62
429.561	18.62
430.342	18.62
431.122	20.62
431.903	21.62
432.683	20.62
433.464	24.62
434.244	25.62
435.024	27.62
435.804	26.62
436.584	28.62
437.364	27.62
438.144	29.62
438.924	31.62
439.704	29.62
440.483	38.62
441.263	36.62
442.042	42.62
442.822	40.62
443.601	41.62
444.38	49.62
445.16	51.62
445.939	54.62
446.718	61.62
447.497	65.62
448.276	70.62
449.054	77.62
449.833	85.62
450.612	91.62
451.391	102.62
452.169	109.62
452.948	119.62
453.726	132.62
454.504	144.62
455.282	161.62
456.061	180.62
456.839	199.62
457.617	216.62
458.395	250.62
459.172	284.62
459.95	315.62
460.728	355.62
461.506	376.62
462.283	427.62
463.061	478.62
463.838	526.62
464.615	591.62
465.393	652.62
466.17	734.62
466.947	808.62
467.724	893.62
468.501	999.62
469.278	1106.62
470.055	1211.62
470.831	1338.62
471.608	1456.62
472.385	1637.62
473.161	1799.62
473.938	1969.62
474.714	2176.62
475.49	2372.62
476.266	2602.62
477.043	2838.62
477.819	3144.62
478.595	3412.62
479.371	3754.62
480.146	4073.62
480.922	4466.62
481.698	4850.62
482.473	5290.62
483.249	5774.62
484.024	6273.62
484.8	6850.62
485.575	7389.62
486.35	8047.62
487.126	8717.62
487.901	9430.62
488.676	10264.62
489.451	11057.62
490.225	11987.62
491	12946.62
491.775	14025.62
492.55	15032.62
493.324	16157.62
494.099	17268.62
494.873	18404.62
495.647	19628.62
496.422	20915.62
497.196	22235.62
497.97	23502.62
498.744	24842.62
499.518	26079.62
500.292	27204.62
501.066	28313.62
501.839	29465.62
502.613	30359.62
503.387	31112.62
504.16	31762.62
504.934	32352.62
505.707	32635.62
506.48	32779.62
507.253	32733.62
508.027	32647.62
508.8	32341.62
509.573	31927.62
510.346	31367.62
511.118	30708.62
511.891	29903.62
512.664	29040.62
513.437	28110.62
514.209	27134.62
514.982	26131.62
515.754	25158.62
516.526	24192.62
517.298	23300.62
518.071	22275.62
518.843	21405.62
519.615	20584.62
520.387	19763.62
521.159	18944.62
521.93	18224.62
522.702	17491.62
523.474	16838.62
524.245	16178.62
525.017	15487.62
525.788	14794.62
526.56	14142.62
527.331	13514.62
528.102	12992.62
528.873	12366.62
529.644	11789.62
530.415	11293.62
531.186	10776.62
531.957	10249.62
532.728	9701.62
533.498	9188.62
534.269	8734.62
535.039	8283.62
535.81	7856.62
536.58	7429.62
537.351	7001.62
538.121	6621.62
538.891	6252.62
539.661	5947.62
540.431	5610.62
541.201	5318.62
541.971	5067.62
542.741	4791.62
543.51	4566.62
544.28	4339.62
545.05	4101.62
545.819	3896.62
546.588	3711.62
547.358	3492.62
548.127	3334.62
548.896	3194.62
549.665	3021.62
550.434	2881.62
551.203	2726.62
551.972	2578.62
552.741	2451.62
553.51	2325.62
554.278	2189.62
555.047	2065.62
555.815	1959.62
556.584	1851.62
557.352	1740.62
558.121	1639.62
558.889	1536.62
559.657	1476.62
560.425	1389.62
561.193	1325.62
561.961	1253.62
562.729	1171.62
563.496	1119.62
564.264	1054.62
565.032	1003.62
565.799	937.62
566.567	893.62
567.334	849.62
568.101	789.62
568.869	754.62
569.636	705.62
570.403	668.62
571.17	626.62
571.937	603.62
572.704	556.62
573.471	527.62
574.237	504.62
575.004	469.62
575.771	448.62
576.537	418.62
577.303	393.62
578.07	372.62
578.836	348.62
579.602	330.62
580.368	313.62
581.134	296.62
581.9	284.62
582.666	271.62
583.432	251.62
584.198	244.62
584.964	229.62
585.729	228.62
586.495	206.62
587.26	197.62
588.025	188.62
588.791	173.62
589.556	169.62
590.321	158.62
591.086	152.62
591.851	147.62
592.616	131.62
593.381	125.62
594.146	122.62
594.911	117.62
595.675	109.62
596.44	108.62
597.204	101.62
597.969	98.62
598.733	92.62
599.497	89.62
600.261	83.62
601.025	82.62
601.79	76.62
602.553	74.62
603.317	68.62
604.081	69.62
604.845	69.62
605.609	61.62
606.372	59.62
607.136	53.62
607.899	54.62
608.662	52.62
609.426	51.62
610.189	48.62
610.952	51.62
611.715	46.62
612.478	41.62
613.241	44.62
614.004	40.62
614.767	40.62
615.529	39.62
616.292	33.62
617.055	36.62
617.817	34.62
618.579	32.62
619.342	30.62
620.104	28.62
620.866	31.62
621.628	28.62
622.39	27.62
623.152	27.62
623.914	25.62
624.676	25.62
625.438	25.62
626.199	21.62
626.961	24.62
627.722	24.62
628.484	20.62
629.245	19.62
630.006	18.62
630.768	19.62
631.529	18.62
632.29	17.62
633.051	20.62
633.812	11.62
634.573	15.62
635.333	18.62
636.094	15.62
636.855	15.62
637.615	13.62
638.376	15.62
639.136	14.62
639.896	13.62
640.657	13.62
641.417	10.62
642.177	12.62
642.937	14.62
643.697	11.62
644.457	11.62
645.216	11.62
645.976	13.62
646.736	9.62
647.495	10.62
648.255	10.62
649.014	11.62
649.774	12.62
650.533	9.62
651.292	8.62
652.051	10.62
652.81	11.62
653.569	8.62
654.328	10.62
655.087	10.62
655.846	8.62
656.604	8.62
657.363	6.62
658.121	6.62
658.88	10.62
659.638	7.62
660.397	8.62
661.155	6.62
661.913	7.62
662.671	10.62
663.429	8.62
664.187	8.62
664.945	6.62
665.703	6.62
666.46	7.62
667.218	5.62
667.976	9.62
668.733	6.62
669.49	7.62
670.248	9.62
671.005	4.62
671.762	4.62
672.519	7.62
673.276	7.62
674.033	6.62
674.79	5.62
675.547	6.62
676.304	7.62
677.06	4.62
677.817	6.62
678.574	4.62
679.33	4.62
680.086	4.62
680.843	6.62
681.599	4.62
682.355	4.62
683.111	4.62
683.867	4.62
684.623	6.62
685.379	5.62
686.135	4.62
686.89	4.62
687.646	9.62
688.402	4.62
689.157	5.62
689.912	3.62
690.668	2.62
691.423	6.62
692.178	4.62
692.933	3.62
693.688	4.62
694.443	6.62
695.198	4.62
695.953	5.62
696.708	8.62
697.462	5.62
698.217	4.62
698.972	3.62
699.726	4.62
700.48	4.62
701.235	3.62
701.989	4.62
702.743	5.62
703.497	2.62
704.251	3.62
705.005	5.62
705.759	6.62
706.513	7.62
707.266	4.62
708.02	7.62
708.774	4.62
709.527	3.62
710.28	2.62
711.034	4.62
711.787	3.62
712.54	5.62
713.293	2.62
714.046	3.62
714.799	3.62
715.552	5.62
716.305	5.62
717.058	4.62
717.81	3.62
718.563	4.62
719.315	5.62
720.068	5.62
720.82	5.62
721.573	6.62
722.325	5.62
723.077	5.62
723.829	6.62
724.581	6.62
725.333	4.62
726.085	4.62
726.836	5.62
727.588	4.62
728.34	4.62
729.091	7.62
729.843	5.62
730.594	6.62
731.346	6.62
732.097	7.62
732.848	8.62
733.599	7.62
734.35	7.62
735.101	6.62
735.852	4.62
736.603	5.62
737.354	6.62
738.104	4.62
738.855	3.62
739.605	6.62
740.356	6.62
741.106	3.62
741.856	6.62
742.607	4.62
743.357	7.62
744.107	6.62
744.857	7.62
745.607	8.62
746.357	5.62
747.106	7.62
747.856	7.62
748.606	6.62
749.355	5.62
750.105	7.62
750.854	6.62
751.603	4.62
752.353	8.62
753.102	4.62
753.851	8.62
754.6	7.62
755.349	6.62
756.098	7.62
756.847	8.62
757.595	6.62
758.344	7.62
759.093	5.62
759.841	8.62
760.589	6.62
761.338	5.62
762.086	7.62
762.834	7.62
763.582	5.62
764.331	9.62
765.079	7.62
765.826	6.62
766.574	9.62
767.322	10.62
768.07	6.62
768.817	8.62
769.565	9.62
770.312	9.62
771.06	10.62
771.807	8.62
772.554	8.62
773.302	8.62
774.049	13.62
774.796	12.62
775.543	12.62
776.29	8.62
777.036	9.62
777.783	9.62
778.53	10.62
779.276	9.62
780.023	8.62
780.769	11.62
781.516	12.62
782.262	10.62
783.008	12.62
783.754	10.62
784.5	13.62
785.246	8.62
785.992	11.62
786.738	12.62
787.484	12.62
788.23	10.62
788.975	8.62
789.721	8.62
790.466	10.62
791.212	8.62
791.957	8.62
792.702	10.62
793.447	10.62
794.193	8.62
794.938	11.62
795.683	11.62
796.427	11.62
797.172	11.62
797.917	8.62
798.662	8.62
799.406	11.62
800.151	7.62
800.895	7.62
801.64	6.62
802.384	11.62
803.128	10.62
803.872	7.62
804.616	6.62
805.36	8.62
806.104	10.62
806.848	7.62
807.592	8.62
808.336	8.62
809.079	9.62
809.823	8.62
810.566	8.62
811.31	8.62
812.053	8.62
812.796	7.62
813.539	7.62
814.283	7.62
815.026	5.62
815.769	5.62
816.511	7.62
817.254	5.62
817.997	3.62
818.74	5.62
819.482	6.62
820.225	7.62
820.967	7.62
821.71	4.62
822.452	6.62
823.194	5.62
823.936	6.62
824.678	4.62
825.42	6.62
826.162	3.62
826.904	4.62
827.646	7.62
828.388	1.62
829.129	4.62
829.871	5.62
830.612	5.62
831.354	4.62
832.095	4.62
832.836	6.62
833.577	4.62
834.319	4.62
835.06	3.62
835.801	6.62
836.542	4.62
837.282	5.62
838.023	5.62
838.764	5.62
839.504	3.62
840.245	4.62
840.985	2.62
841.726	6.62
842.466	4.62
843.206	4.62
843.946	2.62
844.687	3.62
845.427	5.62
846.166	2.62
846.906	4.62
847.646	3.62
848.386	3.62
849.125	4.62
849.865	2.62
850.605	2.62
851.344	3.62
852.083	4.62
852.823	2.62
853.562	5.62
854.301	1.62
855.04	-0.38
855.779	2.62
856.518	7.62
857.257	2.62
857.995	3.62
858.734	2.62
859.473	2.62
860.211	0.62
860.95	2.62
861.688	5.62
862.426	3.62
863.165	1.62
863.903	4.62
864.641	3.62
865.379	2.62
866.117	1.62
866.855	3.62
867.593	1.62
868.33	2.62
869.068	-0.38
869.806	2.62
870.543	2.62
871.28	0.62
872.018	1.62
872.755	4.62
873.492	4.62
874.229	2.62
874.967	1.62
875.703	2.62
876.44	0.62
877.177	3.62
877.914	1.62
878.651	1.62
879.387	0.62
880.124	1.62
880.86	1.62
881.597	1.62
882.333	3.62
883.069	2.62
883.806	2.62
884.542	2.62
885.278	1.62
886.014	3.62
886.749	0.62
887.485	0.62
888.221	0.62
888.957	0.62
889.692	2.62
890.428	3.62
891.163	-0.38
891.899	0.62
892.634	1.62
893.369	0.62
894.104	-1.38
894.839	2.62
895.574	-0.38
896.309	1.62
897.044	1.62
897.779	1.62
898.514	0.62
899.248	-1.38
899.983	1.62
900.717	0.62
901.452	0.62
902.186	0.62
902.92	-0.38
903.654	3.62
904.389	1.62
905.123	2.62
905.857	1.62
906.59	4.62
907.324	-0.38
908.058	0.62
908.792	-1.38
909.525	2.62
910.259	1.62
910.992	2.62
911.726	0.62
912.459	1.62
913.192	0.62
913.925	4.62
914.658	1.62
915.391	-0.38
916.124	0.62
916.857	-0.38
917.59	1.62
918.323	2.62
919.055	-0.38
919.788	0.62
920.521	-1.38
921.253	2.62
921.985	2.62
922.718	3.62
923.45	1.62
924.182	0.62
924.914	0.62
925.646	-0.38
926.378	0.62
927.11	-0.38
927.841	2.62
928.573	0.62
929.305	-0.38
930.036	-0.38
930.768	-0.38
931.499	0.62
932.23	2.62
932.962	1.62
933.693	0.62
934.424	1.62
935.155	-1.38
935.886	0.62
936.617	1.62
937.348	1.62
938.078	-2.38
938.809	2.62
939.54	-1.38
940.27	1.62
941.001	-0.38
941.731	-0.38
942.461	0.62
943.191	-0.38
943.922	-0.38
944.652	0.62
945.382	1.62
946.112	0.62
946.841	-0.38
947.571	0.62
948.301	-0.38
949.031	-0.38
949.76	0.62
950.49	-0.38
951.219	1.62
951.948	1.62
952.678	1.62
953.407	0.62
954.136	-1.38
954.865	0.62
955.594	-1.38
956.323	1.62
957.052	0.62
957.78	3.62
958.509	1.62
959.238	0.62
959.966	1.62
960.695	-0.38
961.423	0.62
962.151	1.62
962.88	-1.38
963.608	0.62
964.336	1.62
965.064	2.62
965.792	-1.38
966.52	0.62
967.247	0.62
967.975	-0.38
968.703	-1.38
969.43	0.62
970.158	0.62
970.885	2.62
971.613	0.62
972.34	1.62
973.067	-1.38
973.794	0.62
974.521	-1.38
975.248	2.62
975.975	1.62
976.702	-1.38
977.429	1.62
978.156	1.62
978.882	0.62
979.609	0.62
980.335	-0.38
981.062	-1.38
981.788	-0.38
982.514	0.62
983.24	-0.38
983.967	1.62
984.693	0.62
985.419	0.62
986.144	1.62
986.87	-0.38
987.596	-0.38
988.322	0.62
989.047	2.62
989.773	0.62
990.498	0.62
991.224	1.62
991.949	0.62
992.674	1.62
993.399	1.62
994.124	2.62
994.849	-1.38
995.574	0.62
996.299	1.62
997.024	-0.38
997.749	1.62
998.473	1.62
999.198	0.62
999.922	-0.38
1000.647	-2.38
1001.371	2.62
1002.095	1.62
1002.82	-2.38
1003.544	-0.38
1004.268	1.62
1004.992	2.62
1005.716	2.62
1006.439	3.62
1007.163	4.62
1007.887	3.62
1008.611	0.62
1009.334	2.62
1010.058	0.62
1010.781	-0.38
1011.504	0.62
1012.228	-0.38
1012.951	-0.38
1013.674	1.62
1014.397	-1.38
1015.12	-1.38
