节点500_425_QEPB04081__216__15-51-54-083.txt的数据

Date: Wed Nov 12 15:51:54 CST 2025
User: PC
Spectrometer: QEPB0408
触发模式: 0
积分时间 (秒): 1.000000E-2
Scans to average: 1
启用暗噪声校正: true
启用非线性校正: false
滑动平均宽度: 0
X轴模式: Wavelengths
Number of Pixels in Spectrum: 1044
>>>>>Begin Spectral Data<<<<<
220.843	2.62
221.644	3.62
222.444	3.62
223.244	0.62
224.045	3.62
224.845	3.62
225.645	4.62
226.445	3.62
227.245	4.62
228.045	1.62
228.845	2.62
229.645	5.62
230.444	5.62
231.244	6.62
232.043	9.62
232.843	6.62
233.642	5.62
234.442	5.62
235.241	8.62
236.04	6.62
236.839	6.62
237.638	7.62
238.437	5.62
239.236	7.62
240.035	7.62
240.833	8.62
241.632	7.62
242.43	6.62
243.229	8.62
244.027	8.62
244.826	7.62
245.624	8.62
246.422	7.62
247.22	10.62
248.018	8.62
248.816	11.62
249.614	12.62
250.412	8.62
251.21	10.62
252.007	7.62
252.805	12.62
253.602	10.62
254.4	10.62
255.197	11.62
255.994	12.62
256.791	8.62
257.589	14.62
258.386	14.62
259.183	14.62
259.979	14.62
260.776	15.62
261.573	13.62
262.37	16.62
263.166	14.62
263.963	16.62
264.759	18.62
265.556	16.62
266.352	19.62
267.148	18.62
267.944	20.62
268.74	19.62
269.536	22.62
270.332	19.62
271.128	23.62
271.924	21.62
272.719	24.62
273.515	23.62
274.311	25.62
275.106	24.62
275.901	24.62
276.697	27.62
277.492	24.62
278.287	26.62
279.082	24.62
279.877	26.62
280.672	24.62
281.467	27.62
282.262	21.62
283.056	26.62
283.851	25.62
284.646	27.62
285.44	28.62
286.234	27.62
287.029	26.62
287.823	24.62
288.617	24.62
289.411	24.62
290.205	25.62
290.999	24.62
291.793	24.62
292.587	24.62
293.381	24.62
294.174	20.62
294.968	22.62
295.761	16.62
296.555	24.62
297.348	21.62
298.141	19.62
298.935	23.62
299.728	18.62
300.521	18.62
301.314	17.62
302.107	19.62
302.899	17.62
303.692	21.62
304.485	17.62
305.277	16.62
306.07	18.62
306.862	17.62
307.655	17.62
308.447	16.62
309.239	14.62
310.031	10.62
310.823	12.62
311.615	14.62
312.407	15.62
313.199	14.62
313.991	14.62
314.783	9.62
315.574	11.62
316.366	10.62
317.157	11.62
317.949	9.62
318.74	10.62
319.531	9.62
320.322	12.62
321.113	11.62
321.904	11.62
322.695	10.62
323.486	9.62
324.277	11.62
325.068	8.62
325.858	10.62
326.649	8.62
327.439	9.62
328.23	9.62
329.02	8.62
329.81	7.62
330.6	10.62
331.391	8.62
332.181	11.62
332.971	7.62
333.76	9.62
334.55	7.62
335.34	7.62
336.13	9.62
336.919	7.62
337.709	8.62
338.498	8.62
339.287	6.62
340.077	8.62
340.866	10.62
341.655	8.62
342.444	7.62
343.233	8.62
344.022	8.62
344.811	6.62
345.6	9.62
346.388	10.62
347.177	8.62
347.965	9.62
348.754	7.62
349.542	7.62
350.33	9.62
351.119	7.62
351.907	8.62
352.695	6.62
353.483	7.62
354.271	6.62
355.059	8.62
355.846	8.62
356.634	6.62
357.422	8.62
358.209	8.62
358.997	9.62
359.784	9.62
360.571	10.62
361.359	7.62
362.146	8.62
362.933	9.62
363.72	6.62
364.507	8.62
365.294	5.62
366.081	7.62
366.867	7.62
367.654	7.62
368.44	6.62
369.227	6.62
370.013	6.62
370.8	9.62
371.586	8.62
372.372	6.62
373.158	8.62
373.944	9.62
374.73	6.62
375.516	6.62
376.302	8.62
377.088	6.62
377.873	8.62
378.659	6.62
379.445	7.62
380.23	6.62
381.015	6.62
381.801	5.62
382.586	7.62
383.371	5.62
384.156	8.62
384.941	8.62
385.726	9.62
386.511	7.62
387.296	9.62
388.08	9.62
388.865	10.62
389.649	9.62
390.434	8.62
391.218	8.62
392.003	8.62
392.787	7.62
393.571	8.62
394.355	8.62
395.139	8.62
395.923	9.62
396.707	10.62
397.491	7.62
398.274	9.62
399.058	11.62
399.842	9.62
400.625	11.62
401.408	10.62
402.192	9.62
402.975	10.62
403.758	8.62
404.541	10.62
405.324	11.62
406.107	10.62
406.89	13.62
407.673	11.62
408.456	10.62
409.238	11.62
410.021	13.62
410.803	9.62
411.586	13.62
412.368	10.62
413.151	10.62
413.933	11.62
414.715	10.62
415.497	12.62
416.279	13.62
417.061	11.62
417.843	16.62
418.624	13.62
419.406	16.62
420.188	15.62
420.969	14.62
421.751	15.62
422.532	13.62
423.313	15.62
424.095	13.62
424.876	16.62
425.657	15.62
426.438	16.62
427.219	17.62
428	15.62
428.78	18.62
429.561	17.62
430.342	22.62
431.122	17.62
431.903	22.62
432.683	24.62
433.464	22.62
434.244	25.62
435.024	25.62
435.804	25.62
436.584	28.62
437.364	26.62
438.144	30.62
438.924	33.62
439.704	31.62
440.483	33.62
441.263	36.62
442.042	36.62
442.822	39.62
443.601	44.62
444.38	40.62
445.16	50.62
445.939	51.62
446.718	57.62
447.497	61.62
448.276	62.62
449.054	70.62
449.833	78.62
450.612	83.62
451.391	93.62
452.169	99.62
452.948	110.62
453.726	119.62
454.504	128.62
455.282	152.62
456.061	168.62
456.839	178.62
457.617	202.62
458.395	228.62
459.172	252.62
459.95	284.62
460.728	318.62
461.506	354.62
462.283	387.62
463.061	442.62
463.838	488.62
464.615	546.62
465.393	601.62
466.17	679.62
466.947	761.62
467.724	848.62
468.501	938.62
469.278	1044.62
470.055	1151.62
470.831	1282.62
471.608	1431.62
472.385	1582.62
473.161	1764.62
473.938	1931.62
474.714	2158.62
475.49	2389.62
476.266	2608.62
477.043	2901.62
477.819	3214.62
478.595	3521.62
479.371	3881.62
480.146	4252.62
480.922	4702.62
481.698	5156.62
482.473	5649.62
483.249	6194.62
484.024	6796.62
484.8	7492.62
485.575	8114.62
486.35	8929.62
487.126	9713.62
487.901	10628.62
488.676	11560.62
489.451	12635.62
490.225	13706.62
491	14885.62
491.775	16158.62
492.55	17451.62
493.324	18784.62
494.099	20134.62
494.873	21511.62
495.647	22966.62
496.422	24443.62
497.196	26038.62
497.97	27515.62
498.744	28887.62
499.518	30238.62
500.292	31467.62
501.066	32587.62
501.839	33744.62
502.613	34565.62
503.387	35312.62
504.16	35786.62
504.934	36063.62
505.707	36017.62
506.48	35922.62
507.253	35479.62
508.027	34974.62
508.8	34430.62
509.573	33701.62
510.346	32728.62
511.118	31703.62
511.891	30704.62
512.664	29500.62
513.437	28363.62
514.209	27173.62
514.982	26186.62
515.754	25147.62
516.526	23979.62
517.298	22930.62
518.071	21957.62
518.843	21031.62
519.615	20166.62
520.387	19388.62
521.159	18661.62
521.93	17940.62
522.702	17236.62
523.474	16553.62
524.245	15904.62
525.017	15209.62
525.788	14450.62
526.56	13780.62
527.331	13135.62
528.102	12584.62
528.873	11939.62
529.644	11334.62
530.415	10819.62
531.186	10274.62
531.957	9730.62
532.728	9246.62
533.498	8681.62
534.269	8250.62
535.039	7839.62
535.81	7398.62
536.58	6941.62
537.351	6541.62
538.121	6179.62
538.891	5888.62
539.661	5569.62
540.431	5249.62
541.201	4965.62
541.971	4713.62
542.741	4459.62
543.51	4239.62
544.28	4037.62
545.05	3850.62
545.819	3661.62
546.588	3483.62
547.358	3290.62
548.127	3119.62
548.896	2973.62
549.665	2804.62
550.434	2684.62
551.203	2536.62
551.972	2378.62
552.741	2262.62
553.51	2143.62
554.278	2023.62
555.047	1897.62
555.815	1815.62
556.584	1693.62
557.352	1609.62
558.121	1506.62
558.889	1427.62
559.657	1341.62
560.425	1260.62
561.193	1195.62
561.961	1154.62
562.729	1087.62
563.496	1017.62
564.264	960.62
565.032	904.62
565.799	863.62
566.567	802.62
567.334	776.62
568.101	719.62
568.869	681.62
569.636	641.62
570.403	610.62
571.17	572.62
571.937	534.62
572.704	512.62
573.471	496.62
574.237	458.62
575.004	428.62
575.771	403.62
576.537	383.62
577.303	365.62
578.07	340.62
578.836	318.62
579.602	297.62
580.368	284.62
581.134	268.62
581.9	260.62
582.666	243.62
583.432	227.62
584.198	218.62
584.964	207.62
585.729	196.62
586.495	190.62
587.26	183.62
588.025	173.62
588.791	158.62
589.556	149.62
590.321	146.62
591.086	141.62
591.851	127.62
592.616	122.62
593.381	118.62
594.146	111.62
594.911	107.62
595.675	103.62
596.44	99.62
597.204	92.62
597.969	92.62
598.733	84.62
599.497	84.62
600.261	79.62
601.025	76.62
601.79	70.62
602.553	68.62
603.317	68.62
604.081	61.62
604.845	61.62
605.609	60.62
606.372	53.62
607.136	55.62
607.899	51.62
608.662	48.62
609.426	49.62
610.189	48.62
610.952	43.62
611.715	40.62
612.478	42.62
613.241	37.62
614.004	40.62
614.767	36.62
615.529	32.62
616.292	36.62
617.055	33.62
617.817	32.62
618.579	30.62
619.342	29.62
620.104	30.62
620.866	26.62
621.628	28.62
622.39	23.62
623.152	26.62
623.914	23.62
624.676	26.62
625.438	23.62
626.199	19.62
626.961	21.62
627.722	22.62
628.484	20.62
629.245	23.62
630.006	18.62
630.768	20.62
631.529	18.62
632.29	15.62
633.051	15.62
633.812	14.62
634.573	16.62
635.333	15.62
636.094	18.62
636.855	14.62
637.615	14.62
638.376	13.62
639.136	13.62
639.896	11.62
640.657	11.62
641.417	13.62
642.177	12.62
642.937	10.62
643.697	11.62
644.457	12.62
645.216	11.62
645.976	9.62
646.736	11.62
647.495	12.62
648.255	9.62
649.014	10.62
649.774	9.62
650.533	11.62
651.292	7.62
652.051	10.62
652.81	10.62
653.569	9.62
654.328	11.62
655.087	8.62
655.846	9.62
656.604	9.62
657.363	8.62
658.121	7.62
658.88	7.62
659.638	7.62
660.397	4.62
661.155	10.62
661.913	7.62
662.671	8.62
663.429	6.62
664.187	5.62
664.945	9.62
665.703	8.62
666.46	5.62
667.218	7.62
667.976	7.62
668.733	6.62
669.49	7.62
670.248	8.62
671.005	7.62
671.762	7.62
672.519	5.62
673.276	4.62
674.033	6.62
674.79	6.62
675.547	7.62
676.304	5.62
677.06	5.62
677.817	7.62
678.574	5.62
679.33	6.62
680.086	5.62
680.843	7.62
681.599	5.62
682.355	4.62
683.111	6.62
683.867	5.62
684.623	6.62
685.379	6.62
686.135	5.62
686.89	6.62
687.646	3.62
688.402	5.62
689.157	4.62
689.912	6.62
690.668	4.62
691.423	3.62
692.178	4.62
692.933	3.62
693.688	4.62
694.443	4.62
695.198	5.62
695.953	4.62
696.708	6.62
697.462	6.62
698.217	4.62
698.972	5.62
699.726	5.62
700.48	6.62
701.235	5.62
701.989	7.62
702.743	3.62
703.497	6.62
704.251	4.62
705.005	5.62
705.759	3.62
706.513	3.62
707.266	6.62
708.02	4.62
708.774	5.62
709.527	6.62
710.28	6.62
711.034	6.62
711.787	3.62
712.54	8.62
713.293	3.62
714.046	8.62
714.799	5.62
715.552	4.62
716.305	5.62
717.058	6.62
717.81	5.62
718.563	4.62
719.315	8.62
720.068	7.62
720.82	8.62
721.573	7.62
722.325	3.62
723.077	5.62
723.829	5.62
724.581	5.62
725.333	3.62
726.085	6.62
726.836	5.62
727.588	5.62
728.34	6.62
729.091	5.62
729.843	5.62
730.594	6.62
731.346	4.62
732.097	6.62
732.848	7.62
733.599	3.62
734.35	5.62
735.101	9.62
735.852	6.62
736.603	7.62
737.354	6.62
738.104	5.62
738.855	8.62
739.605	6.62
740.356	7.62
741.106	4.62
741.856	6.62
742.607	8.62
743.357	6.62
744.107	5.62
744.857	9.62
745.607	6.62
746.357	8.62
747.106	6.62
747.856	4.62
748.606	8.62
749.355	7.62
750.105	8.62
750.854	9.62
751.603	8.62
752.353	4.62
753.102	6.62
753.851	8.62
754.6	7.62
755.349	10.62
756.098	9.62
756.847	7.62
757.595	7.62
758.344	6.62
759.093	8.62
759.841	8.62
760.589	9.62
761.338	8.62
762.086	10.62
762.834	11.62
763.582	7.62
764.331	10.62
765.079	8.62
765.826	9.62
766.574	10.62
767.322	9.62
768.07	10.62
768.817	8.62
769.565	10.62
770.312	10.62
771.06	10.62
771.807	9.62
772.554	9.62
773.302	11.62
774.049	11.62
774.796	10.62
775.543	10.62
776.29	11.62
777.036	12.62
777.783	10.62
778.53	14.62
779.276	12.62
780.023	8.62
780.769	12.62
781.516	13.62
782.262	12.62
783.008	11.62
783.754	13.62
784.5	12.62
785.246	10.62
785.992	11.62
786.738	9.62
787.484	12.62
788.23	11.62
788.975	9.62
789.721	12.62
790.466	13.62
791.212	12.62
791.957	11.62
792.702	12.62
793.447	11.62
794.193	9.62
794.938	10.62
795.683	7.62
796.427	12.62
797.172	9.62
797.917	10.62
798.662	12.62
799.406	10.62
800.151	12.62
800.895	7.62
801.64	8.62
802.384	9.62
803.128	8.62
803.872	13.62
804.616	10.62
805.36	9.62
806.104	10.62
806.848	7.62
807.592	9.62
808.336	9.62
809.079	6.62
809.823	7.62
810.566	7.62
811.31	8.62
812.053	8.62
812.796	8.62
813.539	5.62
814.283	8.62
815.026	4.62
815.769	8.62
816.511	7.62
817.254	6.62
817.997	4.62
818.74	3.62
819.482	6.62
820.225	4.62
820.967	7.62
821.71	3.62
822.452	7.62
823.194	4.62
823.936	4.62
824.678	3.62
825.42	7.62
826.162	4.62
826.904	6.62
827.646	5.62
828.388	6.62
829.129	5.62
829.871	4.62
830.612	4.62
831.354	2.62
832.095	4.62
832.836	6.62
833.577	4.62
834.319	4.62
835.06	3.62
835.801	5.62
836.542	5.62
837.282	6.62
838.023	5.62
838.764	3.62
839.504	3.62
840.245	3.62
840.985	5.62
841.726	3.62
842.466	3.62
843.206	4.62
843.946	3.62
844.687	4.62
845.427	2.62
846.166	3.62
846.906	3.62
847.646	4.62
848.386	3.62
849.125	4.62
849.865	2.62
850.605	2.62
851.344	2.62
852.083	3.62
852.823	4.62
853.562	4.62
854.301	4.62
855.04	5.62
855.779	2.62
856.518	3.62
857.257	0.62
857.995	0.62
858.734	3.62
859.473	0.62
860.211	2.62
860.95	2.62
861.688	3.62
862.426	2.62
863.165	0.62
863.903	4.62
864.641	2.62
865.379	2.62
866.117	0.62
866.855	2.62
867.593	2.62
868.33	1.62
869.068	2.62
869.806	3.62
870.543	3.62
871.28	1.62
872.018	0.62
872.755	4.62
873.492	2.62
874.229	2.62
874.967	1.62
875.703	0.62
876.44	4.62
877.177	1.62
877.914	3.62
878.651	-0.38
879.387	-0.38
880.124	2.62
880.86	-1.38
881.597	2.62
882.333	3.62
883.069	1.62
883.806	1.62
884.542	1.62
885.278	1.62
886.014	1.62
886.749	1.62
887.485	2.62
888.221	1.62
888.957	1.62
889.692	-0.38
890.428	-0.38
891.163	1.62
891.899	2.62
892.634	1.62
893.369	0.62
894.104	1.62
894.839	0.62
895.574	1.62
896.309	1.62
897.044	0.62
897.779	0.62
898.514	0.62
899.248	2.62
899.983	0.62
900.717	-1.38
901.452	4.62
902.186	-0.38
902.92	3.62
903.654	0.62
904.389	1.62
905.123	-0.38
905.857	-1.38
906.59	2.62
907.324	1.62
908.058	0.62
908.792	0.62
909.525	0.62
910.259	-1.38
910.992	1.62
911.726	1.62
912.459	0.62
913.192	0.62
913.925	-1.38
914.658	0.62
915.391	1.62
916.124	0.62
916.857	0.62
917.59	0.62
918.323	1.62
919.055	2.62
919.788	0.62
920.521	-0.38
921.253	-1.38
921.985	2.62
922.718	0.62
923.45	0.62
924.182	1.62
924.914	-0.38
925.646	-1.38
926.378	-0.38
927.11	-0.38
927.841	0.62
928.573	0.62
929.305	1.62
930.036	0.62
930.768	-0.38
931.499	0.62
932.23	0.62
932.962	-0.38
933.693	-1.38
934.424	0.62
935.155	0.62
935.886	1.62
936.617	1.62
937.348	-1.38
938.078	-0.38
938.809	0.62
939.54	0.62
940.27	2.62
941.001	-1.38
941.731	-0.38
942.461	1.62
943.191	1.62
943.922	0.62
944.652	1.62
945.382	-0.38
946.112	0.62
946.841	0.62
947.571	2.62
948.301	-0.38
949.031	0.62
949.76	-1.38
950.49	1.62
951.219	-2.38
951.948	-0.38
952.678	0.62
953.407	0.62
954.136	-0.38
954.865	-0.38
955.594	2.62
956.323	1.62
957.052	2.62
957.78	0.62
958.509	-0.38
959.238	0.62
959.966	-1.38
960.695	-0.38
961.423	-0.38
962.151	0.62
962.88	0.62
963.608	-0.38
964.336	1.62
965.064	1.62
965.792	3.62
966.52	-1.38
967.247	1.62
967.975	1.62
968.703	0.62
969.43	2.62
970.158	1.62
970.885	2.62
971.613	-1.38
972.34	2.62
973.067	1.62
973.794	-0.38
974.521	1.62
975.248	-1.38
975.975	-0.38
976.702	1.62
977.429	-1.38
978.156	-1.38
978.882	0.62
979.609	3.62
980.335	-0.38
981.062	0.62
981.788	0.62
982.514	0.62
983.24	-0.38
983.967	-0.38
984.693	-0.38
985.419	0.62
986.144	0.62
986.87	-0.38
987.596	-0.38
988.322	2.62
989.047	-1.38
989.773	0.62
990.498	1.62
991.224	0.62
991.949	3.62
992.674	1.62
993.399	0.62
994.124	-0.38
994.849	1.62
995.574	2.62
996.299	-0.38
997.024	2.62
997.749	0.62
998.473	1.62
999.198	-1.38
999.922	-0.38
1000.647	1.62
1001.371	2.62
1002.095	-2.38
1002.82	0.62
1003.544	-1.38
1004.268	2.62
1004.992	2.62
1005.716	2.62
1006.439	3.62
1007.163	0.62
1007.887	5.62
1008.611	0.62
1009.334	-1.38
1010.058	0.62
1010.781	1.62
1011.504	0.62
1012.228	0.62
1012.951	0.62
1013.674	-1.38
1014.397	0.62
1015.12	0.62
