节点500_425_QEPB04081__150__15-50-48-271.txt的数据

Date: Wed Nov 12 15:50:48 CST 2025
User: PC
Spectrometer: QEPB0408
触发模式: 0
积分时间 (秒): 1.000000E-2
Scans to average: 1
启用暗噪声校正: true
启用非线性校正: false
滑动平均宽度: 0
X轴模式: Wavelengths
Number of Pixels in Spectrum: 1044
>>>>>Begin Spectral Data<<<<<
220.843	2.62
221.644	3.62
222.444	1.62
223.244	3.62
224.045	4.62
224.845	2.62
225.645	3.62
226.445	4.62
227.245	4.62
228.045	4.62
228.845	3.62
229.645	6.62
230.444	6.62
231.244	6.62
232.043	6.62
232.843	3.62
233.642	5.62
234.442	3.62
235.241	6.62
236.04	4.62
236.839	8.62
237.638	5.62
238.437	6.62
239.236	6.62
240.035	5.62
240.833	8.62
241.632	8.62
242.43	6.62
243.229	10.62
244.027	8.62
244.826	11.62
245.624	8.62
246.422	7.62
247.22	9.62
248.018	10.62
248.816	12.62
249.614	8.62
250.412	11.62
251.21	12.62
252.007	8.62
252.805	12.62
253.602	11.62
254.4	10.62
255.197	11.62
255.994	10.62
256.791	14.62
257.589	13.62
258.386	16.62
259.183	12.62
259.979	16.62
260.776	15.62
261.573	16.62
262.37	15.62
263.166	16.62
263.963	16.62
264.759	15.62
265.556	18.62
266.352	18.62
267.148	18.62
267.944	18.62
268.74	22.62
269.536	21.62
270.332	18.62
271.128	22.62
271.924	23.62
272.719	22.62
273.515	25.62
274.311	25.62
275.106	23.62
275.901	23.62
276.697	24.62
277.492	26.62
278.287	25.62
279.082	25.62
279.877	25.62
280.672	29.62
281.467	26.62
282.262	23.62
283.056	26.62
283.851	26.62
284.646	25.62
285.44	25.62
286.234	26.62
287.029	25.62
287.823	24.62
288.617	26.62
289.411	25.62
290.205	29.62
290.999	24.62
291.793	25.62
292.587	23.62
293.381	24.62
294.174	23.62
294.968	23.62
295.761	21.62
296.555	19.62
297.348	19.62
298.141	22.62
298.935	20.62
299.728	23.62
300.521	20.62
301.314	16.62
302.107	19.62
302.899	17.62
303.692	15.62
304.485	17.62
305.277	18.62
306.07	18.62
306.862	13.62
307.655	15.62
308.447	19.62
309.239	15.62
310.031	16.62
310.823	14.62
311.615	13.62
312.407	14.62
313.199	12.62
313.991	15.62
314.783	13.62
315.574	10.62
316.366	11.62
317.157	11.62
317.949	10.62
318.74	9.62
319.531	11.62
320.322	10.62
321.113	11.62
321.904	9.62
322.695	8.62
323.486	9.62
324.277	10.62
325.068	9.62
325.858	9.62
326.649	11.62
327.439	6.62
328.23	10.62
329.02	9.62
329.81	8.62
330.6	8.62
331.391	8.62
332.181	10.62
332.971	8.62
333.76	8.62
334.55	8.62
335.34	8.62
336.13	10.62
336.919	8.62
337.709	9.62
338.498	10.62
339.287	8.62
340.077	9.62
340.866	8.62
341.655	7.62
342.444	7.62
343.233	8.62
344.022	7.62
344.811	7.62
345.6	5.62
346.388	5.62
347.177	8.62
347.965	8.62
348.754	7.62
349.542	10.62
350.33	9.62
351.119	5.62
351.907	8.62
352.695	8.62
353.483	8.62
354.271	8.62
355.059	6.62
355.846	7.62
356.634	9.62
357.422	8.62
358.209	7.62
358.997	6.62
359.784	8.62
360.571	7.62
361.359	9.62
362.146	10.62
362.933	8.62
363.72	7.62
364.507	5.62
365.294	4.62
366.081	8.62
366.867	6.62
367.654	8.62
368.44	6.62
369.227	5.62
370.013	5.62
370.8	5.62
371.586	8.62
372.372	6.62
373.158	7.62
373.944	7.62
374.73	6.62
375.516	7.62
376.302	6.62
377.088	8.62
377.873	6.62
378.659	7.62
379.445	8.62
380.23	7.62
381.015	6.62
381.801	6.62
382.586	8.62
383.371	7.62
384.156	6.62
384.941	8.62
385.726	7.62
386.511	8.62
387.296	8.62
388.08	10.62
388.865	8.62
389.649	7.62
390.434	9.62
391.218	9.62
392.003	9.62
392.787	7.62
393.571	7.62
394.355	11.62
395.139	10.62
395.923	8.62
396.707	8.62
397.491	9.62
398.274	8.62
399.058	9.62
399.842	10.62
400.625	9.62
401.408	10.62
402.192	8.62
402.975	10.62
403.758	9.62
404.541	11.62
405.324	12.62
406.107	12.62
406.89	11.62
407.673	10.62
408.456	11.62
409.238	12.62
410.021	11.62
410.803	12.62
411.586	10.62
412.368	11.62
413.151	13.62
413.933	13.62
414.715	13.62
415.497	12.62
416.279	14.62
417.061	15.62
417.843	10.62
418.624	13.62
419.406	14.62
420.188	16.62
420.969	13.62
421.751	13.62
422.532	15.62
423.313	18.62
424.095	16.62
424.876	18.62
425.657	17.62
426.438	19.62
427.219	14.62
428	19.62
428.78	18.62
429.561	19.62
430.342	19.62
431.122	19.62
431.903	21.62
432.683	23.62
433.464	24.62
434.244	23.62
435.024	25.62
435.804	27.62
436.584	24.62
437.364	28.62
438.144	32.62
438.924	32.62
439.704	30.62
440.483	34.62
441.263	37.62
442.042	35.62
442.822	40.62
443.601	41.62
444.38	43.62
445.16	47.62
445.939	49.62
446.718	53.62
447.497	61.62
448.276	63.62
449.054	70.62
449.833	77.62
450.612	83.62
451.391	92.62
452.169	100.62
452.948	109.62
453.726	121.62
454.504	131.62
455.282	144.62
456.061	156.62
456.839	180.62
457.617	202.62
458.395	220.62
459.172	245.62
459.95	276.62
460.728	304.62
461.506	347.62
462.283	373.62
463.061	429.62
463.838	481.62
464.615	539.62
465.393	601.62
466.17	667.62
466.947	742.62
467.724	825.62
468.501	919.62
469.278	1026.62
470.055	1139.62
470.831	1270.62
471.608	1406.62
472.385	1574.62
473.161	1761.62
473.938	1931.62
474.714	2150.62
475.49	2360.62
476.266	2641.62
477.043	2896.62
477.819	3190.62
478.595	3543.62
479.371	3910.62
480.146	4287.62
480.922	4749.62
481.698	5199.62
482.473	5697.62
483.249	6282.62
484.024	6877.62
484.8	7622.62
485.575	8236.62
486.35	9090.62
487.126	9924.62
487.901	10860.62
488.676	11868.62
489.451	12901.62
490.225	14035.62
491	15296.62
491.775	16606.62
492.55	17884.62
493.324	19351.62
494.099	20676.62
494.873	22128.62
495.647	23636.62
496.422	25227.62
497.196	26692.62
497.97	28207.62
498.744	29704.62
499.518	31093.62
500.292	32311.62
501.066	33434.62
501.839	34502.62
502.613	35402.62
503.387	36002.62
504.16	36452.62
504.934	36575.62
505.707	36494.62
506.48	36383.62
507.253	35873.62
508.027	35430.62
508.8	34649.62
509.573	33801.62
510.346	32842.62
511.118	31851.62
511.891	30719.62
512.664	29482.62
513.437	28301.62
514.209	27065.62
514.982	26055.62
515.754	24941.62
516.526	23848.62
517.298	22799.62
518.071	21853.62
518.843	20891.62
519.615	20064.62
520.387	19283.62
521.159	18572.62
521.93	17827.62
522.702	17156.62
523.474	16479.62
524.245	15740.62
525.017	15020.62
525.788	14354.62
526.56	13652.62
527.331	12992.62
528.102	12419.62
528.873	11856.62
529.644	11270.62
530.415	10741.62
531.186	10202.62
531.957	9641.62
532.728	9100.62
533.498	8612.62
534.269	8117.62
535.039	7666.62
535.81	7211.62
536.58	6863.62
537.351	6426.62
538.121	6100.62
538.891	5790.62
539.661	5469.62
540.431	5214.62
541.201	4908.62
541.971	4660.62
542.741	4438.62
543.51	4172.62
544.28	3982.62
545.05	3788.62
545.819	3593.62
546.588	3421.62
547.358	3266.62
548.127	3076.62
548.896	2938.62
549.665	2779.62
550.434	2638.62
551.203	2487.62
551.972	2364.62
552.741	2233.62
553.51	2106.62
554.278	1994.62
555.047	1853.62
555.815	1760.62
556.584	1666.62
557.352	1571.62
558.121	1473.62
558.889	1390.62
559.657	1330.62
560.425	1244.62
561.193	1170.62
561.961	1117.62
562.729	1070.62
563.496	993.62
564.264	945.62
565.032	899.62
565.799	849.62
566.567	804.62
567.334	756.62
568.101	725.62
568.869	677.62
569.636	637.62
570.403	605.62
571.17	567.62
571.937	536.62
572.704	502.62
573.471	481.62
574.237	448.62
575.004	419.62
575.771	398.62
576.537	373.62
577.303	346.62
578.07	343.62
578.836	309.62
579.602	291.62
580.368	279.62
581.134	263.62
581.9	257.62
582.666	236.62
583.432	223.62
584.198	218.62
584.964	201.62
585.729	198.62
586.495	189.62
587.26	183.62
588.025	166.62
588.791	160.62
589.556	152.62
590.321	144.62
591.086	134.62
591.851	126.62
592.616	120.62
593.381	115.62
594.146	102.62
594.911	102.62
595.675	100.62
596.44	96.62
597.204	94.62
597.969	85.62
598.733	83.62
599.497	80.62
600.261	74.62
601.025	76.62
601.79	71.62
602.553	68.62
603.317	68.62
604.081	58.62
604.845	59.62
605.609	55.62
606.372	57.62
607.136	49.62
607.899	50.62
608.662	47.62
609.426	49.62
610.189	46.62
610.952	42.62
611.715	42.62
612.478	38.62
613.241	38.62
614.004	39.62
614.767	36.62
615.529	32.62
616.292	34.62
617.055	34.62
617.817	30.62
618.579	32.62
619.342	31.62
620.104	29.62
620.866	29.62
621.628	27.62
622.39	25.62
623.152	27.62
623.914	25.62
624.676	22.62
625.438	24.62
626.199	22.62
626.961	21.62
627.722	23.62
628.484	22.62
629.245	19.62
630.006	21.62
630.768	20.62
631.529	19.62
632.29	16.62
633.051	14.62
633.812	16.62
634.573	15.62
635.333	14.62
636.094	14.62
636.855	15.62
637.615	15.62
638.376	14.62
639.136	14.62
639.896	10.62
640.657	12.62
641.417	13.62
642.177	12.62
642.937	10.62
643.697	11.62
644.457	9.62
645.216	11.62
645.976	10.62
646.736	12.62
647.495	10.62
648.255	11.62
649.014	9.62
649.774	9.62
650.533	10.62
651.292	7.62
652.051	10.62
652.81	8.62
653.569	11.62
654.328	9.62
655.087	10.62
655.846	8.62
656.604	9.62
657.363	10.62
658.121	6.62
658.88	9.62
659.638	7.62
660.397	8.62
661.155	8.62
661.913	8.62
662.671	3.62
663.429	3.62
664.187	6.62
664.945	7.62
665.703	8.62
666.46	9.62
667.218	4.62
667.976	4.62
668.733	7.62
669.49	8.62
670.248	6.62
671.005	8.62
671.762	4.62
672.519	6.62
673.276	5.62
674.033	4.62
674.79	4.62
675.547	6.62
676.304	6.62
677.06	7.62
677.817	4.62
678.574	6.62
679.33	7.62
680.086	5.62
680.843	5.62
681.599	7.62
682.355	7.62
683.111	5.62
683.867	4.62
684.623	7.62
685.379	7.62
686.135	5.62
686.89	3.62
687.646	5.62
688.402	5.62
689.157	6.62
689.912	5.62
690.668	6.62
691.423	8.62
692.178	5.62
692.933	7.62
693.688	6.62
694.443	5.62
695.198	4.62
695.953	6.62
696.708	6.62
697.462	6.62
698.217	3.62
698.972	4.62
699.726	5.62
700.48	5.62
701.235	5.62
701.989	4.62
702.743	5.62
703.497	4.62
704.251	8.62
705.005	5.62
705.759	6.62
706.513	5.62
707.266	6.62
708.02	6.62
708.774	3.62
709.527	7.62
710.28	6.62
711.034	5.62
711.787	7.62
712.54	4.62
713.293	7.62
714.046	5.62
714.799	4.62
715.552	5.62
716.305	3.62
717.058	6.62
717.81	3.62
718.563	6.62
719.315	5.62
720.068	5.62
720.82	6.62
721.573	3.62
722.325	4.62
723.077	5.62
723.829	5.62
724.581	6.62
725.333	6.62
726.085	5.62
726.836	6.62
727.588	4.62
728.34	5.62
729.091	8.62
729.843	7.62
730.594	4.62
731.346	8.62
732.097	5.62
732.848	7.62
733.599	7.62
734.35	7.62
735.101	7.62
735.852	7.62
736.603	7.62
737.354	6.62
738.104	7.62
738.855	6.62
739.605	5.62
740.356	6.62
741.106	6.62
741.856	7.62
742.607	6.62
743.357	7.62
744.107	8.62
744.857	6.62
745.607	4.62
746.357	8.62
747.106	8.62
747.856	7.62
748.606	6.62
749.355	8.62
750.105	6.62
750.854	8.62
751.603	8.62
752.353	9.62
753.102	8.62
753.851	8.62
754.6	7.62
755.349	6.62
756.098	7.62
756.847	7.62
757.595	7.62
758.344	9.62
759.093	7.62
759.841	10.62
760.589	5.62
761.338	9.62
762.086	10.62
762.834	10.62
763.582	11.62
764.331	10.62
765.079	10.62
765.826	10.62
766.574	9.62
767.322	12.62
768.07	9.62
768.817	14.62
769.565	9.62
770.312	9.62
771.06	10.62
771.807	8.62
772.554	11.62
773.302	10.62
774.049	11.62
774.796	10.62
775.543	12.62
776.29	10.62
777.036	12.62
777.783	14.62
778.53	12.62
779.276	12.62
780.023	11.62
780.769	10.62
781.516	13.62
782.262	9.62
783.008	14.62
783.754	11.62
784.5	11.62
785.246	11.62
785.992	14.62
786.738	11.62
787.484	11.62
788.23	12.62
788.975	11.62
789.721	12.62
790.466	12.62
791.212	11.62
791.957	12.62
792.702	9.62
793.447	12.62
794.193	10.62
794.938	11.62
795.683	11.62
796.427	8.62
797.172	11.62
797.917	7.62
798.662	13.62
799.406	8.62
800.151	8.62
800.895	11.62
801.64	9.62
802.384	10.62
803.128	8.62
803.872	6.62
804.616	12.62
805.36	9.62
806.104	7.62
806.848	4.62
807.592	8.62
808.336	8.62
809.079	7.62
809.823	7.62
810.566	7.62
811.31	6.62
812.053	5.62
812.796	8.62
813.539	5.62
814.283	4.62
815.026	6.62
815.769	6.62
816.511	8.62
817.254	4.62
817.997	9.62
818.74	3.62
819.482	7.62
820.225	6.62
820.967	7.62
821.71	6.62
822.452	5.62
823.194	4.62
823.936	6.62
824.678	7.62
825.42	7.62
826.162	5.62
826.904	4.62
827.646	4.62
828.388	5.62
829.129	3.62
829.871	4.62
830.612	3.62
831.354	4.62
832.095	4.62
832.836	3.62
833.577	3.62
834.319	6.62
835.06	4.62
835.801	4.62
836.542	5.62
837.282	4.62
838.023	3.62
838.764	4.62
839.504	5.62
840.245	3.62
840.985	3.62
841.726	4.62
842.466	3.62
843.206	3.62
843.946	6.62
844.687	5.62
845.427	2.62
846.166	1.62
846.906	3.62
847.646	3.62
848.386	6.62
849.125	5.62
849.865	5.62
850.605	5.62
851.344	4.62
852.083	5.62
852.823	5.62
853.562	3.62
854.301	3.62
855.04	4.62
855.779	2.62
856.518	4.62
857.257	2.62
857.995	3.62
858.734	1.62
859.473	2.62
860.211	2.62
860.95	3.62
861.688	2.62
862.426	4.62
863.165	0.62
863.903	2.62
864.641	5.62
865.379	3.62
866.117	4.62
866.855	2.62
867.593	1.62
868.33	2.62
869.068	2.62
869.806	4.62
870.543	1.62
871.28	2.62
872.018	2.62
872.755	0.62
873.492	3.62
874.229	2.62
874.967	1.62
875.703	1.62
876.44	1.62
877.177	3.62
877.914	1.62
878.651	1.62
879.387	0.62
880.124	0.62
880.86	0.62
881.597	0.62
882.333	0.62
883.069	-0.38
883.806	3.62
884.542	0.62
885.278	3.62
886.014	1.62
886.749	0.62
887.485	1.62
888.221	1.62
888.957	3.62
889.692	1.62
890.428	1.62
891.163	0.62
891.899	-0.38
892.634	1.62
893.369	3.62
894.104	0.62
894.839	1.62
895.574	0.62
896.309	1.62
897.044	3.62
897.779	0.62
898.514	2.62
899.248	-0.38
899.983	0.62
900.717	0.62
901.452	0.62
902.186	-0.38
902.92	0.62
903.654	1.62
904.389	-0.38
905.123	2.62
905.857	-0.38
906.59	3.62
907.324	-0.38
908.058	1.62
908.792	1.62
909.525	-0.38
910.259	1.62
910.992	-0.38
911.726	1.62
912.459	1.62
913.192	-2.38
913.925	1.62
914.658	-0.38
915.391	2.62
916.124	0.62
916.857	0.62
917.59	-0.38
918.323	0.62
919.055	1.62
919.788	0.62
920.521	0.62
921.253	1.62
921.985	-0.38
922.718	1.62
923.45	-0.38
924.182	1.62
924.914	0.62
925.646	1.62
926.378	1.62
927.11	-0.38
927.841	1.62
928.573	-0.38
929.305	0.62
930.036	3.62
930.768	-2.38
931.499	0.62
932.23	-1.38
932.962	0.62
933.693	1.62
934.424	0.62
935.155	0.62
935.886	-2.38
936.617	1.62
937.348	2.62
938.078	0.62
938.809	1.62
939.54	-0.38
940.27	1.62
941.001	0.62
941.731	-1.38
942.461	2.62
943.191	1.62
943.922	3.62
944.652	1.62
945.382	1.62
946.112	-1.38
946.841	0.62
947.571	0.62
948.301	2.62
949.031	-0.38
949.76	-0.38
950.49	0.62
951.219	0.62
951.948	-0.38
952.678	0.62
953.407	1.62
954.136	1.62
954.865	1.62
955.594	1.62
956.323	0.62
957.052	0.62
957.78	1.62
958.509	-1.38
959.238	0.62
959.966	0.62
960.695	0.62
961.423	-1.38
962.151	-0.38
962.88	0.62
963.608	0.62
964.336	0.62
965.064	-0.38
965.792	-0.38
966.52	2.62
967.247	-0.38
967.975	0.62
968.703	-0.38
969.43	0.62
970.158	1.62
970.885	1.62
971.613	0.62
972.34	-1.38
973.067	-0.38
973.794	0.62
974.521	1.62
975.248	0.62
975.975	-0.38
976.702	1.62
977.429	1.62
978.156	-1.38
978.882	1.62
979.609	2.62
980.335	-0.38
981.062	0.62
981.788	2.62
982.514	0.62
983.24	-1.38
983.967	0.62
984.693	-1.38
985.419	2.62
986.144	-1.38
986.87	1.62
987.596	1.62
988.322	0.62
989.047	0.62
989.773	1.62
990.498	1.62
991.224	3.62
991.949	0.62
992.674	-1.38
993.399	0.62
994.124	0.62
994.849	0.62
995.574	1.62
996.299	1.62
997.024	1.62
997.749	0.62
998.473	0.62
999.198	1.62
999.922	1.62
1000.647	-0.38
1001.371	2.62
1002.095	-0.38
1002.82	-2.38
1003.544	-1.38
1004.268	4.62
1004.992	1.62
1005.716	4.62
1006.439	4.62
1007.163	2.62
1007.887	4.62
1008.611	1.62
1009.334	-0.38
1010.058	0.62
1010.781	0.62
1011.504	-0.38
1012.228	0.62
1012.951	-0.38
1013.674	1.62
1014.397	-1.38
1015.12	1.62
