节点500_425_QEPB04081__3__15-48-24-515.txt的数据

Date: Wed Nov 12 15:48:24 CST 2025
User: PC
Spectrometer: QEPB0408
触发模式: 0
积分时间 (秒): 1.000000E-2
Scans to average: 1
启用暗噪声校正: true
启用非线性校正: false
滑动平均宽度: 0
X轴模式: Wavelengths
Number of Pixels in Spectrum: 1044
>>>>>Begin Spectral Data<<<<<
220.843	-3.62
221.644	-1.62
222.444	-0.62
223.244	-0.62
224.045	-2.62
224.845	-1.62
225.645	0.38
226.445	-3.62
227.245	-3.62
228.045	-3.62
228.845	-1.62
229.645	-1.62
230.444	-1.62
231.244	-0.62
232.043	-3.62
232.843	-0.62
233.642	-4.62
234.442	-2.62
235.241	-0.62
236.04	-0.62
236.839	-1.62
237.638	-2.62
238.437	-1.62
239.236	-1.62
240.035	0.38
240.833	0.38
241.632	-3.62
242.43	-1.62
243.229	-1.62
244.027	-1.62
244.826	0.38
245.624	-1.62
246.422	-0.62
247.22	-0.62
248.018	0.38
248.816	-0.62
249.614	-3.62
250.412	-3.62
251.21	-2.62
252.007	-0.62
252.805	-1.62
253.602	-0.62
254.4	-1.62
255.197	-1.62
255.994	-1.62
256.791	-0.62
257.589	-2.62
258.386	-0.62
259.183	-1.62
259.979	-0.62
260.776	-2.62
261.573	-1.62
262.37	-1.62
263.166	-1.62
263.963	0.38
264.759	-1.62
265.556	-0.62
266.352	-2.62
267.148	-0.62
267.944	-0.62
268.74	-0.62
269.536	-1.62
270.332	-1.62
271.128	-1.62
271.924	-0.62
272.719	-0.62
273.515	-1.62
274.311	-2.62
275.106	2.38
275.901	-2.62
276.697	-0.62
277.492	-0.62
278.287	0.38
279.082	-1.62
279.877	-2.62
280.672	0.38
281.467	-1.62
282.262	0.38
283.056	0.38
283.851	-1.62
284.646	0.38
285.44	-2.62
286.234	1.38
287.029	-0.62
287.823	-0.62
288.617	-1.62
289.411	0.38
290.205	0.38
290.999	0.38
291.793	0.38
292.587	-1.62
293.381	0.38
294.174	0.38
294.968	-3.62
295.761	-3.62
296.555	-0.62
297.348	-0.62
298.141	-0.62
298.935	0.38
299.728	-0.62
300.521	-1.62
301.314	0.38
302.107	-1.62
302.899	-0.62
303.692	0.38
304.485	-0.62
305.277	-0.62
306.07	-2.62
306.862	1.38
307.655	-0.62
308.447	-1.62
309.239	2.38
310.031	0.38
310.823	0.38
311.615	-1.62
312.407	-0.62
313.199	0.38
313.991	-2.62
314.783	0.38
315.574	-1.62
316.366	0.38
317.157	-1.62
317.949	-2.62
318.74	-1.62
319.531	0.38
320.322	2.38
321.113	-0.62
321.904	0.38
322.695	0.38
323.486	-1.62
324.277	0.38
325.068	-2.62
325.858	-0.62
326.649	1.38
327.439	-1.62
328.23	-0.62
329.02	-1.62
329.81	-1.62
330.6	0.38
331.391	0.38
332.181	0.38
332.971	0.38
333.76	0.38
334.55	-0.62
335.34	1.38
336.13	-0.62
336.919	0.38
337.709	-0.62
338.498	-0.62
339.287	0.38
340.077	-3.62
340.866	1.38
341.655	-1.62
342.444	-0.62
343.233	-0.62
344.022	-2.62
344.811	-0.62
345.6	-0.62
346.388	-1.62
347.177	-1.62
347.965	-0.62
348.754	-1.62
349.542	0.38
350.33	1.38
351.119	0.38
351.907	0.38
352.695	-1.62
353.483	-1.62
354.271	-1.62
355.059	0.38
355.846	0.38
356.634	-0.62
357.422	2.38
358.209	-1.62
358.997	0.38
359.784	-1.62
360.571	-0.62
361.359	1.38
362.146	-2.62
362.933	-0.62
363.72	0.38
364.507	-1.62
365.294	-1.62
366.081	-0.62
366.867	-0.62
367.654	1.38
368.44	1.38
369.227	1.38
370.013	0.38
370.8	2.38
371.586	-1.62
372.372	0.38
373.158	-1.62
373.944	1.38
374.73	0.38
375.516	-1.62
376.302	-2.62
377.088	-1.62
377.873	-1.62
378.659	-1.62
379.445	0.38
380.23	1.38
381.015	-0.62
381.801	-2.62
382.586	0.38
383.371	-1.62
384.156	0.38
384.941	-1.62
385.726	-0.62
386.511	0.38
387.296	0.38
388.08	-1.62
388.865	-1.62
389.649	0.38
390.434	-2.62
391.218	-1.62
392.003	1.38
392.787	0.38
393.571	-1.62
394.355	-1.62
395.139	0.38
395.923	-0.62
396.707	-0.62
397.491	-2.62
398.274	-1.62
399.058	-1.62
399.842	-1.62
400.625	-0.62
401.408	-0.62
402.192	1.38
402.975	-0.62
403.758	-0.62
404.541	-1.62
405.324	-1.62
406.107	0.38
406.89	-1.62
407.673	-0.62
408.456	-1.62
409.238	0.38
410.021	-0.62
410.803	0.38
411.586	-1.62
412.368	-0.62
413.151	-1.62
413.933	-1.62
414.715	0.38
415.497	-3.62
416.279	-0.62
417.061	-0.62
417.843	1.38
418.624	-1.62
419.406	-0.62
420.188	-0.62
420.969	-1.62
421.751	1.38
422.532	-0.62
423.313	0.38
424.095	-0.62
424.876	0.38
425.657	2.38
426.438	-0.62
427.219	0.38
428	-1.62
428.78	2.38
429.561	0.38
430.342	-1.62
431.122	1.38
431.903	-0.62
432.683	0.38
433.464	-0.62
434.244	-0.62
435.024	0.38
435.804	-0.62
436.584	0.38
437.364	-1.62
438.144	1.38
438.924	0.38
439.704	-2.62
440.483	0.38
441.263	-0.62
442.042	-0.62
442.822	-1.62
443.601	-0.62
444.38	1.38
445.16	0.38
445.939	-1.62
446.718	-0.62
447.497	1.38
448.276	-1.62
449.054	0.38
449.833	0.38
450.612	-0.62
451.391	0.38
452.169	0.38
452.948	-0.62
453.726	0.38
454.504	1.38
455.282	-1.62
456.061	-1.62
456.839	1.38
457.617	-0.62
458.395	-1.62
459.172	-0.62
459.95	-1.62
460.728	1.38
461.506	0.38
462.283	1.38
463.061	0.38
463.838	-0.62
464.615	-0.62
465.393	0.38
466.17	1.38
466.947	-1.62
467.724	-1.62
468.501	-1.62
469.278	-2.62
470.055	-0.62
470.831	0.38
471.608	0.38
472.385	2.38
473.161	0.38
473.938	0.38
474.714	-0.62
475.49	0.38
476.266	0.38
477.043	-0.62
477.819	1.38
478.595	-0.62
479.371	-0.62
480.146	0.38
480.922	-1.62
481.698	1.38
482.473	-1.62
483.249	1.38
484.024	-1.62
484.8	1.38
485.575	-0.62
486.35	-0.62
487.126	0.38
487.901	-1.62
488.676	0.38
489.451	-1.62
490.225	1.38
491	1.38
491.775	0.38
492.55	-0.62
493.324	-2.62
494.099	-2.62
494.873	0.38
495.647	1.38
496.422	0.38
497.196	-1.62
497.97	-1.62
498.744	0.38
499.518	-1.62
500.292	-1.62
501.066	1.38
501.839	2.38
502.613	-1.62
503.387	1.38
504.16	-1.62
504.934	-1.62
505.707	-0.62
506.48	-0.62
507.253	-1.62
508.027	-1.62
508.8	1.38
509.573	0.38
510.346	-0.62
511.118	-1.62
511.891	0.38
512.664	0.38
513.437	-0.62
514.209	1.38
514.982	-1.62
515.754	-0.62
516.526	-0.62
517.298	-3.62
518.071	0.38
518.843	-1.62
519.615	-2.62
520.387	1.38
521.159	1.38
521.93	2.38
522.702	0.38
523.474	0.38
524.245	-0.62
525.017	-2.62
525.788	0.38
526.56	0.38
527.331	-0.62
528.102	0.38
528.873	0.38
529.644	0.38
530.415	-0.62
531.186	-0.62
531.957	1.38
532.728	0.38
533.498	1.38
534.269	-0.62
535.039	1.38
535.81	-0.62
536.58	0.38
537.351	0.38
538.121	2.38
538.891	1.38
539.661	-3.62
540.431	0.38
541.201	-1.62
541.971	0.38
542.741	-0.62
543.51	-0.62
544.28	-0.62
545.05	-2.62
545.819	0.38
546.588	-0.62
547.358	1.38
548.127	0.38
548.896	-0.62
549.665	0.38
550.434	1.38
551.203	0.38
551.972	-1.62
552.741	0.38
553.51	0.38
554.278	0.38
555.047	0.38
555.815	2.38
556.584	-0.62
557.352	2.38
558.121	0.38
558.889	-2.62
559.657	-0.62
560.425	1.38
561.193	1.38
561.961	0.38
562.729	-1.62
563.496	-0.62
564.264	-0.62
565.032	-0.62
565.799	0.38
566.567	1.38
567.334	-1.62
568.101	0.38
568.869	1.38
569.636	2.38
570.403	2.38
571.17	-2.62
571.937	0.38
572.704	1.38
573.471	-0.62
574.237	-0.62
575.004	2.38
575.771	0.38
576.537	0.38
577.303	-0.62
578.07	-1.62
578.836	0.38
579.602	-0.62
580.368	-1.62
581.134	0.38
581.9	1.38
582.666	0.38
583.432	-1.62
584.198	0.38
584.964	0.38
585.729	-0.62
586.495	0.38
587.26	-2.62
588.025	-0.62
588.791	0.38
589.556	1.38
590.321	0.38
591.086	-1.62
591.851	0.38
592.616	-3.62
593.381	0.38
594.146	-0.62
594.911	-0.62
595.675	-1.62
596.44	0.38
597.204	-0.62
597.969	-0.62
598.733	1.38
599.497	-0.62
600.261	1.38
601.025	1.38
601.79	-0.62
602.553	-1.62
603.317	-1.62
604.081	-1.62
604.845	0.38
605.609	1.38
606.372	1.38
607.136	-0.62
607.899	-0.62
608.662	-1.62
609.426	0.38
610.189	-1.62
610.952	0.38
611.715	0.38
612.478	0.38
613.241	0.38
614.004	0.38
614.767	-1.62
615.529	-1.62
616.292	-2.62
617.055	-0.62
617.817	-1.62
618.579	2.38
619.342	0.38
620.104	-1.62
620.866	0.38
621.628	-1.62
622.39	1.38
623.152	-0.62
623.914	0.38
624.676	-0.62
625.438	0.38
626.199	1.38
626.961	-1.62
627.722	0.38
628.484	0.38
629.245	-0.62
630.006	0.38
630.768	1.38
631.529	-0.62
632.29	0.38
633.051	2.38
633.812	1.38
634.573	0.38
635.333	0.38
636.094	-0.62
636.855	-1.62
637.615	0.38
638.376	-0.62
639.136	0.38
639.896	-2.62
640.657	0.38
641.417	-0.62
642.177	-0.62
642.937	1.38
643.697	-1.62
644.457	-0.62
645.216	-0.62
645.976	-1.62
646.736	0.38
647.495	1.38
648.255	-1.62
649.014	0.38
649.774	2.38
650.533	0.38
651.292	-0.62
652.051	0.38
652.81	-1.62
653.569	-1.62
654.328	-0.62
655.087	0.38
655.846	0.38
656.604	-0.62
657.363	0.38
658.121	0.38
658.88	1.38
659.638	0.38
660.397	0.38
661.155	0.38
661.913	-0.62
662.671	0.38
663.429	-2.62
664.187	0.38
664.945	-1.62
665.703	0.38
666.46	-2.62
667.218	0.38
667.976	0.38
668.733	-2.62
669.49	-0.62
670.248	1.38
671.005	0.38
671.762	2.38
672.519	-0.62
673.276	0.38
674.033	0.38
674.79	-1.62
675.547	2.38
676.304	-1.62
677.06	-0.62
677.817	-0.62
678.574	-0.62
679.33	0.38
680.086	-1.62
680.843	0.38
681.599	-1.62
682.355	0.38
683.111	-0.62
683.867	0.38
684.623	0.38
685.379	-3.62
686.135	-0.62
686.89	-1.62
687.646	1.38
688.402	2.38
689.157	2.38
689.912	1.38
690.668	-1.62
691.423	0.38
692.178	0.38
692.933	-1.62
693.688	-0.62
694.443	0.38
695.198	0.38
695.953	-1.62
696.708	1.38
697.462	-1.62
698.217	-0.62
698.972	-0.62
699.726	-1.62
700.48	0.38
701.235	0.38
701.989	0.38
702.743	-3.62
703.497	1.38
704.251	-0.62
705.005	0.38
705.759	0.38
706.513	-0.62
707.266	1.38
708.02	-0.62
708.774	-0.62
709.527	-1.62
710.28	-0.62
711.034	-1.62
711.787	-1.62
712.54	-1.62
713.293	1.38
714.046	1.38
714.799	0.38
715.552	-1.62
716.305	1.38
717.058	-1.62
717.81	-2.62
718.563	0.38
719.315	0.38
720.068	0.38
720.82	0.38
721.573	-0.62
722.325	0.38
723.077	-1.62
723.829	-1.62
724.581	-2.62
725.333	2.38
726.085	-1.62
726.836	1.38
727.588	0.38
728.34	-1.62
729.091	0.38
729.843	0.38
730.594	0.38
731.346	1.38
732.097	0.38
732.848	1.38
733.599	-1.62
734.35	0.38
735.101	0.38
735.852	-1.62
736.603	-0.62
737.354	-0.62
738.104	1.38
738.855	-3.62
739.605	-1.62
740.356	-2.62
741.106	0.38
741.856	-0.62
742.607	1.38
743.357	1.38
744.107	-0.62
744.857	-0.62
745.607	-0.62
746.357	-0.62
747.106	-0.62
747.856	0.38
748.606	-0.62
749.355	-1.62
750.105	1.38
750.854	-0.62
751.603	-1.62
752.353	0.38
753.102	0.38
753.851	0.38
754.6	0.38
755.349	-2.62
756.098	0.38
756.847	-1.62
757.595	1.38
758.344	0.38
759.093	0.38
759.841	-0.62
760.589	-1.62
761.338	-0.62
762.086	-1.62
762.834	0.38
763.582	-1.62
764.331	0.38
765.079	0.38
765.826	1.38
766.574	-2.62
767.322	-0.62
768.07	0.38
768.817	3.38
769.565	-0.62
770.312	0.38
771.06	0.38
771.807	1.38
772.554	-0.62
773.302	-1.62
774.049	0.38
774.796	0.38
775.543	-0.62
776.29	-0.62
777.036	-0.62
777.783	0.38
778.53	0.38
779.276	0.38
780.023	-1.62
780.769	0.38
781.516	0.38
782.262	1.38
783.008	-1.62
783.754	-0.62
784.5	-0.62
785.246	-0.62
785.992	-0.62
786.738	-1.62
787.484	-2.62
788.23	0.38
788.975	1.38
789.721	-0.62
790.466	1.38
791.212	1.38
791.957	0.38
792.702	-0.62
793.447	1.38
794.193	-0.62
794.938	2.38
795.683	-0.62
796.427	0.38
797.172	2.38
797.917	1.38
798.662	-0.62
799.406	-0.62
800.151	-0.62
800.895	0.38
801.64	-0.62
802.384	1.38
803.128	1.38
803.872	-1.62
804.616	-1.62
805.36	0.38
806.104	0.38
806.848	2.38
807.592	-0.62
808.336	0.38
809.079	-1.62
809.823	-1.62
810.566	0.38
811.31	0.38
812.053	-1.62
812.796	0.38
813.539	0.38
814.283	1.38
815.026	1.38
815.769	0.38
816.511	-0.62
817.254	-0.62
817.997	-2.62
818.74	0.38
819.482	0.38
820.225	1.38
820.967	0.38
821.71	1.38
822.452	0.38
823.194	-0.62
823.936	-1.62
824.678	-0.62
825.42	0.38
826.162	0.38
826.904	0.38
827.646	-1.62
828.388	-1.62
829.129	0.38
829.871	-1.62
830.612	0.38
831.354	-0.62
832.095	-1.62
832.836	0.38
833.577	-1.62
834.319	0.38
835.06	1.38
835.801	1.38
836.542	1.38
837.282	-0.62
838.023	0.38
838.764	-2.62
839.504	-0.62
840.245	0.38
840.985	-1.62
841.726	-0.62
842.466	2.38
843.206	0.38
843.946	0.38
844.687	-0.62
845.427	-0.62
846.166	0.38
846.906	-0.62
847.646	-1.62
848.386	-0.62
849.125	-0.62
849.865	-0.62
850.605	1.38
851.344	1.38
852.083	1.38
852.823	-1.62
853.562	0.38
854.301	0.38
855.04	0.38
855.779	0.38
856.518	-0.62
857.257	0.38
857.995	-1.62
858.734	0.38
859.473	2.38
860.211	-0.62
860.95	-1.62
861.688	0.38
862.426	3.38
863.165	-0.62
863.903	-0.62
864.641	-0.62
865.379	1.38
866.117	1.38
866.855	-0.62
867.593	-1.62
868.33	2.38
869.068	0.38
869.806	-1.62
870.543	0.38
871.28	2.38
872.018	1.38
872.755	-1.62
873.492	-1.62
874.229	-1.62
874.967	0.38
875.703	2.38
876.44	0.38
877.177	-2.62
877.914	0.38
878.651	0.38
879.387	0.38
880.124	-1.62
880.86	2.38
881.597	0.38
882.333	0.38
883.069	0.38
883.806	0.38
884.542	-0.62
885.278	-0.62
886.014	0.38
886.749	0.38
887.485	-1.62
888.221	-1.62
888.957	2.38
889.692	0.38
890.428	-0.62
891.163	-1.62
891.899	-1.62
892.634	0.38
893.369	-1.62
894.104	1.38
894.839	-1.62
895.574	0.38
896.309	-0.62
897.044	1.38
897.779	1.38
898.514	-2.62
899.248	0.38
899.983	-1.62
900.717	-1.62
901.452	0.38
902.186	-1.62
902.92	0.38
903.654	1.38
904.389	-0.62
905.123	-0.62
905.857	-0.62
906.59	0.38
907.324	-0.62
908.058	2.38
908.792	0.38
909.525	-0.62
910.259	-1.62
910.992	-0.62
911.726	-0.62
912.459	2.38
913.192	0.38
913.925	-0.62
914.658	-0.62
915.391	0.38
916.124	1.38
916.857	1.38
917.59	-0.62
918.323	-0.62
919.055	0.38
919.788	-0.62
920.521	1.38
921.253	-0.62
921.985	2.38
922.718	-0.62
923.45	0.38
924.182	0.38
924.914	-1.62
925.646	-0.62
926.378	-0.62
927.11	0.38
927.841	-1.62
928.573	-2.62
929.305	-0.62
930.036	1.38
930.768	1.38
931.499	-2.62
932.23	-1.62
932.962	1.38
933.693	0.38
934.424	1.38
935.155	-0.62
935.886	-1.62
936.617	1.38
937.348	-1.62
938.078	0.38
938.809	-1.62
939.54	-0.62
940.27	-0.62
941.001	3.38
941.731	-0.62
942.461	-1.62
943.191	-0.62
943.922	1.38
944.652	0.38
945.382	-0.62
946.112	-0.62
946.841	2.38
947.571	-1.62
948.301	-0.62
949.031	0.38
949.76	-0.62
950.49	-0.62
951.219	-1.62
951.948	1.38
952.678	0.38
953.407	1.38
954.136	-1.62
954.865	0.38
955.594	0.38
956.323	-1.62
957.052	2.38
957.78	-0.62
958.509	0.38
959.238	1.38
959.966	-0.62
960.695	1.38
961.423	1.38
962.151	-0.62
962.88	-1.62
963.608	0.38
964.336	-1.62
965.064	0.38
965.792	0.38
966.52	-0.62
967.247	0.38
967.975	1.38
968.703	-1.62
969.43	0.38
970.158	2.38
970.885	-0.62
971.613	0.38
972.34	-0.62
973.067	0.38
973.794	0.38
974.521	1.38
975.248	0.38
975.975	-0.62
976.702	-1.62
977.429	0.38
978.156	1.38
978.882	0.38
979.609	0.38
980.335	1.38
981.062	0.38
981.788	-0.62
982.514	-1.62
983.24	0.38
983.967	-3.62
984.693	1.38
985.419	-0.62
986.144	0.38
986.87	-0.62
987.596	0.38
988.322	0.38
989.047	-0.62
989.773	2.38
990.498	-1.62
991.224	0.38
991.949	1.38
992.674	-1.62
993.399	1.38
994.124	0.38
994.849	-0.62
995.574	-0.62
996.299	-0.62
997.024	1.38
997.749	-2.62
998.473	0.38
999.198	0.38
999.922	-1.62
1000.647	-0.62
1001.371	2.38
1002.095	0.38
1002.82	-1.62
1003.544	-1.62
1004.268	-2.62
1004.992	-3.62
1005.716	-1.62
1006.439	-1.62
1007.163	-1.62
1007.887	-0.62
1008.611	1.38
1009.334	0.38
1010.058	-0.62
1010.781	1.38
1011.504	1.38
1012.228	-1.62
1012.951	0.38
1013.674	-0.62
1014.397	1.38
1015.12	-0.62
