节点500_425_QEPB04081__157__15-50-55-228.txt的数据

Date: Wed Nov 12 15:50:55 CST 2025
User: PC
Spectrometer: QEPB0408
触发模式: 0
积分时间 (秒): 1.000000E-2
Scans to average: 1
启用暗噪声校正: true
启用非线性校正: false
滑动平均宽度: 0
X轴模式: Wavelengths
Number of Pixels in Spectrum: 1044
>>>>>Begin Spectral Data<<<<<
220.843	2.38
221.644	1.38
222.444	3.38
223.244	3.38
224.045	1.38
224.845	3.38
225.645	3.38
226.445	4.38
227.245	5.38
228.045	4.38
228.845	3.38
229.645	5.38
230.444	5.38
231.244	6.38
232.043	4.38
232.843	4.38
233.642	5.38
234.442	4.38
235.241	5.38
236.04	4.38
236.839	5.38
237.638	8.38
238.437	6.38
239.236	6.38
240.035	7.38
240.833	7.38
241.632	6.38
242.43	9.38
243.229	7.38
244.027	7.38
244.826	8.38
245.624	9.38
246.422	8.38
247.22	9.38
248.018	11.38
248.816	8.38
249.614	10.38
250.412	10.38
251.21	9.38
252.007	11.38
252.805	12.38
253.602	8.38
254.4	12.38
255.197	12.38
255.994	14.38
256.791	16.38
257.589	12.38
258.386	16.38
259.183	14.38
259.979	16.38
260.776	16.38
261.573	16.38
262.37	14.38
263.166	19.38
263.963	17.38
264.759	16.38
265.556	17.38
266.352	18.38
267.148	22.38
267.944	20.38
268.74	18.38
269.536	18.38
270.332	20.38
271.128	21.38
271.924	24.38
272.719	20.38
273.515	22.38
274.311	23.38
275.106	26.38
275.901	24.38
276.697	26.38
277.492	23.38
278.287	24.38
279.082	26.38
279.877	23.38
280.672	28.38
281.467	23.38
282.262	26.38
283.056	24.38
283.851	23.38
284.646	24.38
285.44	26.38
286.234	25.38
287.029	26.38
287.823	24.38
288.617	28.38
289.411	24.38
290.205	27.38
290.999	24.38
291.793	22.38
292.587	23.38
293.381	21.38
294.174	24.38
294.968	20.38
295.761	23.38
296.555	16.38
297.348	19.38
298.141	18.38
298.935	21.38
299.728	19.38
300.521	18.38
301.314	17.38
302.107	16.38
302.899	16.38
303.692	17.38
304.485	17.38
305.277	18.38
306.07	14.38
306.862	16.38
307.655	16.38
308.447	16.38
309.239	14.38
310.031	13.38
310.823	14.38
311.615	12.38
312.407	14.38
313.199	14.38
313.991	13.38
314.783	13.38
315.574	11.38
316.366	12.38
317.157	11.38
317.949	9.38
318.74	10.38
319.531	9.38
320.322	10.38
321.113	10.38
321.904	9.38
322.695	9.38
323.486	7.38
324.277	10.38
325.068	9.38
325.858	12.38
326.649	8.38
327.439	8.38
328.23	9.38
329.02	10.38
329.81	10.38
330.6	9.38
331.391	9.38
332.181	8.38
332.971	8.38
333.76	10.38
334.55	8.38
335.34	10.38
336.13	9.38
336.919	7.38
337.709	11.38
338.498	7.38
339.287	7.38
340.077	10.38
340.866	8.38
341.655	8.38
342.444	7.38
343.233	10.38
344.022	7.38
344.811	10.38
345.6	9.38
346.388	10.38
347.177	8.38
347.965	9.38
348.754	7.38
349.542	10.38
350.33	7.38
351.119	8.38
351.907	8.38
352.695	6.38
353.483	6.38
354.271	5.38
355.059	7.38
355.846	8.38
356.634	6.38
357.422	4.38
358.209	8.38
358.997	7.38
359.784	7.38
360.571	7.38
361.359	7.38
362.146	8.38
362.933	6.38
363.72	10.38
364.507	8.38
365.294	7.38
366.081	6.38
366.867	7.38
367.654	8.38
368.44	9.38
369.227	5.38
370.013	6.38
370.8	6.38
371.586	6.38
372.372	7.38
373.158	5.38
373.944	7.38
374.73	5.38
375.516	5.38
376.302	5.38
377.088	6.38
377.873	7.38
378.659	5.38
379.445	5.38
380.23	6.38
381.015	7.38
381.801	6.38
382.586	9.38
383.371	9.38
384.156	8.38
384.941	6.38
385.726	6.38
386.511	10.38
387.296	7.38
388.08	9.38
388.865	9.38
389.649	6.38
390.434	8.38
391.218	8.38
392.003	6.38
392.787	10.38
393.571	9.38
394.355	10.38
395.139	7.38
395.923	10.38
396.707	9.38
397.491	8.38
398.274	9.38
399.058	9.38
399.842	7.38
400.625	12.38
401.408	10.38
402.192	10.38
402.975	9.38
403.758	9.38
404.541	9.38
405.324	11.38
406.107	11.38
406.89	12.38
407.673	10.38
408.456	10.38
409.238	9.38
410.021	11.38
410.803	12.38
411.586	13.38
412.368	10.38
413.151	12.38
413.933	11.38
414.715	11.38
415.497	13.38
416.279	12.38
417.061	12.38
417.843	13.38
418.624	15.38
419.406	14.38
420.188	16.38
420.969	14.38
421.751	15.38
422.532	17.38
423.313	17.38
424.095	15.38
424.876	18.38
425.657	15.38
426.438	17.38
427.219	16.38
428	16.38
428.78	21.38
429.561	21.38
430.342	19.38
431.122	18.38
431.903	18.38
432.683	22.38
433.464	24.38
434.244	21.38
435.024	27.38
435.804	26.38
436.584	27.38
437.364	27.38
438.144	30.38
438.924	29.38
439.704	33.38
440.483	32.38
441.263	33.38
442.042	39.38
442.822	38.38
443.601	42.38
444.38	41.38
445.16	46.38
445.939	52.38
446.718	55.38
447.497	62.38
448.276	66.38
449.054	70.38
449.833	73.38
450.612	81.38
451.391	92.38
452.169	99.38
452.948	110.38
453.726	119.38
454.504	130.38
455.282	145.38
456.061	164.38
456.839	183.38
457.617	199.38
458.395	225.38
459.172	250.38
459.95	272.38
460.728	301.38
461.506	344.38
462.283	386.38
463.061	427.38
463.838	484.38
464.615	545.38
465.393	607.38
466.17	672.38
466.947	753.38
467.724	839.38
468.501	923.38
469.278	1030.38
470.055	1137.38
470.831	1271.38
471.608	1422.38
472.385	1580.38
473.161	1740.38
473.938	1933.38
474.714	2144.38
475.49	2399.38
476.266	2649.38
477.043	2888.38
477.819	3210.38
478.595	3542.38
479.371	3904.38
480.146	4289.38
480.922	4716.38
481.698	5190.38
482.473	5707.38
483.249	6275.38
484.024	6903.38
484.8	7601.38
485.575	8289.38
486.35	9074.38
487.126	9905.38
487.901	10843.38
488.676	11893.38
489.451	12921.38
490.225	14056.38
491	15285.38
491.775	16576.38
492.55	17834.38
493.324	19313.38
494.099	20682.38
494.873	22132.38
495.647	23698.38
496.422	25159.38
497.196	26663.38
497.97	28222.38
498.744	29647.38
499.518	31042.38
500.292	32260.38
501.066	33491.38
501.839	34502.38
502.613	35454.38
503.387	36078.38
504.16	36435.38
504.934	36631.38
505.707	36595.38
506.48	36292.38
507.253	35904.38
508.027	35457.38
508.8	34725.38
509.573	33859.38
510.346	32938.38
511.118	31927.38
511.891	30727.38
512.664	29564.38
513.437	28408.38
514.209	27129.38
514.982	26109.38
515.754	24992.38
516.526	23840.38
517.298	22822.38
518.071	21892.38
518.843	21001.38
519.615	20153.38
520.387	19313.38
521.159	18571.38
521.93	17849.38
522.702	17126.38
523.474	16480.38
524.245	15859.38
525.017	15061.38
525.788	14390.38
526.56	13689.38
527.331	13101.38
528.102	12504.38
528.873	11838.38
529.644	11252.38
530.415	10726.38
531.186	10178.38
531.957	9624.38
532.728	9098.38
533.498	8612.38
534.269	8152.38
535.039	7660.38
535.81	7280.38
536.58	6821.38
537.351	6472.38
538.121	6099.38
538.891	5773.38
539.661	5516.38
540.431	5173.38
541.201	4926.38
541.971	4671.38
542.741	4398.38
543.51	4199.38
544.28	4002.38
545.05	3790.38
545.819	3633.38
546.588	3441.38
547.358	3257.38
548.127	3097.38
548.896	2932.38
549.665	2779.38
550.434	2626.38
551.203	2498.38
551.972	2380.38
552.741	2245.38
553.51	2131.38
554.278	1998.38
555.047	1879.38
555.815	1774.38
556.584	1682.38
557.352	1569.38
558.121	1493.38
558.889	1403.38
559.657	1331.38
560.425	1234.38
561.193	1177.38
561.961	1122.38
562.729	1066.38
563.496	1016.38
564.264	956.38
565.032	916.38
565.799	843.38
566.567	798.38
567.334	758.38
568.101	716.38
568.869	677.38
569.636	637.38
570.403	598.38
571.17	567.38
571.937	533.38
572.704	510.38
573.471	480.38
574.237	443.38
575.004	427.38
575.771	399.38
576.537	373.38
577.303	353.38
578.07	324.38
578.836	309.38
579.602	300.38
580.368	282.38
581.134	265.38
581.9	253.38
582.666	240.38
583.432	226.38
584.198	219.38
584.964	206.38
585.729	190.38
586.495	181.38
587.26	174.38
588.025	168.38
588.791	159.38
589.556	153.38
590.321	142.38
591.086	137.38
591.851	128.38
592.616	124.38
593.381	114.38
594.146	110.38
594.911	104.38
595.675	100.38
596.44	92.38
597.204	92.38
597.969	84.38
598.733	83.38
599.497	78.38
600.261	81.38
601.025	74.38
601.79	72.38
602.553	64.38
603.317	66.38
604.081	62.38
604.845	60.38
605.609	60.38
606.372	58.38
607.136	52.38
607.899	51.38
608.662	50.38
609.426	46.38
610.189	44.38
610.952	44.38
611.715	43.38
612.478	40.38
613.241	39.38
614.004	35.38
614.767	36.38
615.529	33.38
616.292	32.38
617.055	32.38
617.817	28.38
618.579	29.38
619.342	25.38
620.104	27.38
620.866	30.38
621.628	26.38
622.39	26.38
623.152	21.38
623.914	25.38
624.676	23.38
625.438	25.38
626.199	22.38
626.961	23.38
627.722	22.38
628.484	21.38
629.245	21.38
630.006	20.38
630.768	18.38
631.529	18.38
632.29	17.38
633.051	17.38
633.812	18.38
634.573	15.38
635.333	15.38
636.094	13.38
636.855	16.38
637.615	14.38
638.376	13.38
639.136	14.38
639.896	12.38
640.657	11.38
641.417	13.38
642.177	12.38
642.937	13.38
643.697	12.38
644.457	12.38
645.216	12.38
645.976	12.38
646.736	12.38
647.495	11.38
648.255	11.38
649.014	10.38
649.774	9.38
650.533	7.38
651.292	12.38
652.051	7.38
652.81	9.38
653.569	10.38
654.328	8.38
655.087	8.38
655.846	9.38
656.604	9.38
657.363	7.38
658.121	6.38
658.88	8.38
659.638	5.38
660.397	8.38
661.155	7.38
661.913	4.38
662.671	6.38
663.429	7.38
664.187	9.38
664.945	10.38
665.703	8.38
666.46	6.38
667.218	5.38
667.976	6.38
668.733	4.38
669.49	6.38
670.248	7.38
671.005	6.38
671.762	7.38
672.519	6.38
673.276	6.38
674.033	7.38
674.79	4.38
675.547	4.38
676.304	4.38
677.06	5.38
677.817	2.38
678.574	6.38
679.33	4.38
680.086	4.38
680.843	7.38
681.599	5.38
682.355	6.38
683.111	2.38
683.867	4.38
684.623	4.38
685.379	8.38
686.135	4.38
686.89	6.38
687.646	4.38
688.402	5.38
689.157	5.38
689.912	4.38
690.668	8.38
691.423	5.38
692.178	7.38
692.933	3.38
693.688	6.38
694.443	3.38
695.198	5.38
695.953	5.38
696.708	4.38
697.462	5.38
698.217	5.38
698.972	6.38
699.726	4.38
700.48	5.38
701.235	3.38
701.989	4.38
702.743	4.38
703.497	5.38
704.251	4.38
705.005	4.38
705.759	4.38
706.513	5.38
707.266	4.38
708.02	5.38
708.774	7.38
709.527	6.38
710.28	3.38
711.034	5.38
711.787	4.38
712.54	4.38
713.293	7.38
714.046	4.38
714.799	4.38
715.552	8.38
716.305	5.38
717.058	7.38
717.81	5.38
718.563	4.38
719.315	5.38
720.068	6.38
720.82	4.38
721.573	4.38
722.325	7.38
723.077	4.38
723.829	7.38
724.581	4.38
725.333	6.38
726.085	6.38
726.836	5.38
727.588	6.38
728.34	2.38
729.091	6.38
729.843	6.38
730.594	5.38
731.346	4.38
732.097	4.38
732.848	5.38
733.599	5.38
734.35	7.38
735.101	6.38
735.852	7.38
736.603	6.38
737.354	6.38
738.104	6.38
738.855	5.38
739.605	8.38
740.356	6.38
741.106	5.38
741.856	7.38
742.607	6.38
743.357	8.38
744.107	7.38
744.857	7.38
745.607	10.38
746.357	6.38
747.106	7.38
747.856	5.38
748.606	8.38
749.355	5.38
750.105	7.38
750.854	8.38
751.603	7.38
752.353	7.38
753.102	8.38
753.851	7.38
754.6	9.38
755.349	9.38
756.098	6.38
756.847	8.38
757.595	11.38
758.344	7.38
759.093	9.38
759.841	7.38
760.589	7.38
761.338	9.38
762.086	11.38
762.834	7.38
763.582	8.38
764.331	10.38
765.079	9.38
765.826	11.38
766.574	10.38
767.322	11.38
768.07	12.38
768.817	11.38
769.565	10.38
770.312	12.38
771.06	13.38
771.807	10.38
772.554	8.38
773.302	12.38
774.049	10.38
774.796	9.38
775.543	9.38
776.29	10.38
777.036	10.38
777.783	12.38
778.53	13.38
779.276	12.38
780.023	12.38
780.769	12.38
781.516	10.38
782.262	12.38
783.008	13.38
783.754	12.38
784.5	10.38
785.246	12.38
785.992	12.38
786.738	14.38
787.484	11.38
788.23	13.38
788.975	12.38
789.721	10.38
790.466	11.38
791.212	10.38
791.957	14.38
792.702	10.38
793.447	12.38
794.193	9.38
794.938	11.38
795.683	10.38
796.427	10.38
797.172	10.38
797.917	9.38
798.662	9.38
799.406	11.38
800.151	9.38
800.895	8.38
801.64	9.38
802.384	10.38
803.128	9.38
803.872	7.38
804.616	8.38
805.36	8.38
806.104	9.38
806.848	10.38
807.592	9.38
808.336	8.38
809.079	9.38
809.823	9.38
810.566	6.38
811.31	6.38
812.053	7.38
812.796	5.38
813.539	4.38
814.283	6.38
815.026	7.38
815.769	5.38
816.511	6.38
817.254	6.38
817.997	8.38
818.74	6.38
819.482	7.38
820.225	5.38
820.967	6.38
821.71	5.38
822.452	5.38
823.194	4.38
823.936	4.38
824.678	4.38
825.42	5.38
826.162	6.38
826.904	4.38
827.646	7.38
828.388	4.38
829.129	6.38
829.871	5.38
830.612	4.38
831.354	3.38
832.095	5.38
832.836	4.38
833.577	5.38
834.319	3.38
835.06	4.38
835.801	4.38
836.542	3.38
837.282	2.38
838.023	4.38
838.764	6.38
839.504	5.38
840.245	4.38
840.985	4.38
841.726	6.38
842.466	3.38
843.206	5.38
843.946	3.38
844.687	2.38
845.427	5.38
846.166	4.38
846.906	2.38
847.646	4.38
848.386	4.38
849.125	5.38
849.865	2.38
850.605	7.38
851.344	1.38
852.083	2.38
852.823	4.38
853.562	2.38
854.301	2.38
855.04	2.38
855.779	2.38
856.518	4.38
857.257	1.38
857.995	4.38
858.734	2.38
859.473	4.38
860.211	4.38
860.95	-0.62
861.688	2.38
862.426	0.38
863.165	3.38
863.903	2.38
864.641	2.38
865.379	2.38
866.117	-1.62
866.855	1.38
867.593	1.38
868.33	1.38
869.068	2.38
869.806	2.38
870.543	1.38
871.28	2.38
872.018	0.38
872.755	3.38
873.492	2.38
874.229	0.38
874.967	0.38
875.703	3.38
876.44	2.38
877.177	-0.62
877.914	-1.62
878.651	2.38
879.387	1.38
880.124	1.38
880.86	0.38
881.597	1.38
882.333	1.38
883.069	2.38
883.806	0.38
884.542	2.38
885.278	0.38
886.014	-0.62
886.749	1.38
887.485	0.38
888.221	0.38
888.957	2.38
889.692	2.38
890.428	1.38
891.163	1.38
891.899	0.38
892.634	2.38
893.369	1.38
894.104	2.38
894.839	1.38
895.574	2.38
896.309	1.38
897.044	-1.62
897.779	0.38
898.514	2.38
899.248	0.38
899.983	2.38
900.717	-0.62
901.452	-0.62
902.186	2.38
902.92	-1.62
903.654	-0.62
904.389	0.38
905.123	2.38
905.857	-0.62
906.59	0.38
907.324	-0.62
908.058	1.38
908.792	1.38
909.525	1.38
910.259	-0.62
910.992	1.38
911.726	0.38
912.459	2.38
913.192	0.38
913.925	2.38
914.658	-0.62
915.391	2.38
916.124	1.38
916.857	0.38
917.59	0.38
918.323	2.38
919.055	0.38
919.788	0.38
920.521	-0.62
921.253	0.38
921.985	0.38
922.718	1.38
923.45	-1.62
924.182	0.38
924.914	-0.62
925.646	0.38
926.378	1.38
927.11	0.38
927.841	-0.62
928.573	2.38
929.305	0.38
930.036	0.38
930.768	1.38
931.499	-0.62
932.23	-0.62
932.962	2.38
933.693	0.38
934.424	1.38
935.155	1.38
935.886	-0.62
936.617	-0.62
937.348	-0.62
938.078	0.38
938.809	0.38
939.54	0.38
940.27	1.38
941.001	-1.62
941.731	3.38
942.461	1.38
943.191	0.38
943.922	-0.62
944.652	0.38
945.382	-1.62
946.112	1.38
946.841	-2.62
947.571	0.38
948.301	0.38
949.031	0.38
949.76	-1.62
950.49	-0.62
951.219	0.38
951.948	-0.62
952.678	1.38
953.407	-0.62
954.136	2.38
954.865	1.38
955.594	0.38
956.323	3.38
957.052	0.38
957.78	0.38
958.509	0.38
959.238	0.38
959.966	0.38
960.695	-0.62
961.423	-0.62
962.151	0.38
962.88	0.38
963.608	-1.62
964.336	-0.62
965.064	0.38
965.792	0.38
966.52	0.38
967.247	0.38
967.975	0.38
968.703	-1.62
969.43	0.38
970.158	1.38
970.885	1.38
971.613	1.38
972.34	0.38
973.067	1.38
973.794	-0.62
974.521	1.38
975.248	2.38
975.975	-1.62
976.702	1.38
977.429	0.38
978.156	-1.62
978.882	-0.62
979.609	-0.62
980.335	2.38
981.062	2.38
981.788	0.38
982.514	0.38
983.24	1.38
983.967	2.38
984.693	1.38
985.419	0.38
986.144	-0.62
986.87	0.38
987.596	-1.62
988.322	1.38
989.047	0.38
989.773	0.38
990.498	0.38
991.224	2.38
991.949	-1.62
992.674	0.38
993.399	0.38
994.124	0.38
994.849	0.38
995.574	1.38
996.299	0.38
997.024	0.38
997.749	0.38
998.473	-2.62
999.198	1.38
999.922	2.38
1000.647	-0.62
1001.371	3.38
1002.095	-1.62
1002.82	-1.62
1003.544	-0.62
1004.268	3.38
1004.992	1.38
1005.716	1.38
1006.439	2.38
1007.163	2.38
1007.887	5.38
1008.611	-0.62
1009.334	0.38
1010.058	3.38
1010.781	0.38
1011.504	-1.62
1012.228	0.38
1012.951	-1.62
1013.674	1.38
1014.397	-0.62
1015.12	1.38
