节点500_425_QEPB04081__14__15-48-35-466.txt的数据

Date: Wed Nov 12 15:48:35 CST 2025
User: PC
Spectrometer: QEPB0408
触发模式: 0
积分时间 (秒): 1.000000E-2
Scans to average: 1
启用暗噪声校正: true
启用非线性校正: false
滑动平均宽度: 0
X轴模式: Wavelengths
Number of Pixels in Spectrum: 1044
>>>>>Begin Spectral Data<<<<<
220.843	4.62
221.644	5.62
222.444	4.62
223.244	2.62
224.045	6.62
224.845	5.62
225.645	3.62
226.445	3.62
227.245	5.62
228.045	6.62
228.845	4.62
229.645	9.62
230.444	5.62
231.244	4.62
232.043	7.62
232.843	4.62
233.642	5.62
234.442	9.62
235.241	6.62
236.04	5.62
236.839	7.62
237.638	8.62
238.437	6.62
239.236	10.62
240.035	7.62
240.833	6.62
241.632	5.62
242.43	5.62
243.229	8.62
244.027	6.62
244.826	10.62
245.624	8.62
246.422	9.62
247.22	11.62
248.018	9.62
248.816	11.62
249.614	7.62
250.412	9.62
251.21	9.62
252.007	9.62
252.805	11.62
253.602	13.62
254.4	12.62
255.197	10.62
255.994	13.62
256.791	14.62
257.589	12.62
258.386	14.62
259.183	16.62
259.979	15.62
260.776	19.62
261.573	18.62
262.37	18.62
263.166	17.62
263.963	18.62
264.759	17.62
265.556	19.62
266.352	21.62
267.148	18.62
267.944	18.62
268.74	21.62
269.536	23.62
270.332	22.62
271.128	21.62
271.924	25.62
272.719	24.62
273.515	22.62
274.311	25.62
275.106	23.62
275.901	24.62
276.697	26.62
277.492	23.62
278.287	26.62
279.082	28.62
279.877	28.62
280.672	27.62
281.467	26.62
282.262	25.62
283.056	26.62
283.851	26.62
284.646	27.62
285.44	26.62
286.234	27.62
287.029	24.62
287.823	26.62
288.617	26.62
289.411	23.62
290.205	25.62
290.999	26.62
291.793	22.62
292.587	27.62
293.381	24.62
294.174	21.62
294.968	21.62
295.761	22.62
296.555	23.62
297.348	22.62
298.141	18.62
298.935	23.62
299.728	21.62
300.521	19.62
301.314	17.62
302.107	18.62
302.899	18.62
303.692	15.62
304.485	18.62
305.277	16.62
306.07	15.62
306.862	15.62
307.655	13.62
308.447	16.62
309.239	17.62
310.031	17.62
310.823	14.62
311.615	14.62
312.407	11.62
313.199	15.62
313.991	12.62
314.783	11.62
315.574	14.62
316.366	11.62
317.157	10.62
317.949	10.62
318.74	10.62
319.531	8.62
320.322	8.62
321.113	10.62
321.904	8.62
322.695	10.62
323.486	13.62
324.277	9.62
325.068	11.62
325.858	8.62
326.649	10.62
327.439	10.62
328.23	8.62
329.02	10.62
329.81	8.62
330.6	10.62
331.391	9.62
332.181	8.62
332.971	10.62
333.76	9.62
334.55	10.62
335.34	8.62
336.13	10.62
336.919	7.62
337.709	10.62
338.498	11.62
339.287	6.62
340.077	8.62
340.866	9.62
341.655	7.62
342.444	9.62
343.233	10.62
344.022	8.62
344.811	7.62
345.6	9.62
346.388	7.62
347.177	9.62
347.965	10.62
348.754	7.62
349.542	7.62
350.33	8.62
351.119	8.62
351.907	9.62
352.695	11.62
353.483	6.62
354.271	8.62
355.059	7.62
355.846	9.62
356.634	9.62
357.422	5.62
358.209	5.62
358.997	8.62
359.784	9.62
360.571	8.62
361.359	7.62
362.146	8.62
362.933	8.62
363.72	6.62
364.507	7.62
365.294	4.62
366.081	7.62
366.867	8.62
367.654	8.62
368.44	8.62
369.227	6.62
370.013	7.62
370.8	5.62
371.586	7.62
372.372	10.62
373.158	7.62
373.944	8.62
374.73	5.62
375.516	7.62
376.302	6.62
377.088	8.62
377.873	6.62
378.659	6.62
379.445	8.62
380.23	7.62
381.015	10.62
381.801	9.62
382.586	7.62
383.371	6.62
384.156	7.62
384.941	8.62
385.726	9.62
386.511	8.62
387.296	6.62
388.08	7.62
388.865	6.62
389.649	8.62
390.434	8.62
391.218	6.62
392.003	6.62
392.787	10.62
393.571	10.62
394.355	8.62
395.139	8.62
395.923	10.62
396.707	11.62
397.491	8.62
398.274	12.62
399.058	9.62
399.842	9.62
400.625	10.62
401.408	10.62
402.192	8.62
402.975	9.62
403.758	10.62
404.541	10.62
405.324	10.62
406.107	13.62
406.89	12.62
407.673	13.62
408.456	11.62
409.238	10.62
410.021	10.62
410.803	14.62
411.586	14.62
412.368	11.62
413.151	12.62
413.933	11.62
414.715	12.62
415.497	12.62
416.279	12.62
417.061	13.62
417.843	12.62
418.624	16.62
419.406	15.62
420.188	15.62
420.969	16.62
421.751	16.62
422.532	14.62
423.313	16.62
424.095	16.62
424.876	14.62
425.657	17.62
426.438	18.62
427.219	19.62
428	16.62
428.78	19.62
429.561	19.62
430.342	20.62
431.122	19.62
431.903	21.62
432.683	22.62
433.464	20.62
434.244	22.62
435.024	28.62
435.804	25.62
436.584	25.62
437.364	30.62
438.144	29.62
438.924	30.62
439.704	34.62
440.483	35.62
441.263	38.62
442.042	36.62
442.822	39.62
443.601	42.62
444.38	44.62
445.16	48.62
445.939	50.62
446.718	56.62
447.497	57.62
448.276	62.62
449.054	65.62
449.833	74.62
450.612	80.62
451.391	87.62
452.169	93.62
452.948	104.62
453.726	117.62
454.504	129.62
455.282	135.62
456.061	155.62
456.839	168.62
457.617	190.62
458.395	203.62
459.172	234.62
459.95	263.62
460.728	287.62
461.506	324.62
462.283	362.62
463.061	409.62
463.838	454.62
464.615	506.62
465.393	571.62
466.17	629.62
466.947	708.62
467.724	796.62
468.501	898.62
469.278	995.62
470.055	1105.62
470.831	1237.62
471.608	1390.62
472.385	1537.62
473.161	1722.62
473.938	1895.62
474.714	2128.62
475.49	2335.62
476.266	2604.62
477.043	2899.62
477.819	3225.62
478.595	3558.62
479.371	3983.62
480.146	4386.62
480.922	4831.62
481.698	5331.62
482.473	5894.62
483.249	6481.62
484.024	7206.62
484.8	7883.62
485.575	8685.62
486.35	9551.62
487.126	10481.62
487.901	11484.62
488.676	12621.62
489.451	13795.62
490.225	14993.62
491	16348.62
491.775	17847.62
492.55	19277.62
493.324	20757.62
494.099	22303.62
494.873	23775.62
495.647	25448.62
496.422	27092.62
497.196	28714.62
497.97	30400.62
498.744	31919.62
499.518	33271.62
500.292	34569.62
501.066	35649.62
501.839	36701.62
502.613	37493.62
503.387	37928.62
504.16	38298.62
504.934	38261.62
505.707	37984.62
506.48	37558.62
507.253	36951.62
508.027	36205.62
508.8	35315.62
509.573	34282.62
510.346	33171.62
511.118	32050.62
511.891	30834.62
512.664	29497.62
513.437	28226.62
514.209	26945.62
514.982	25879.62
515.754	24695.62
516.526	23635.62
517.298	22478.62
518.071	21576.62
518.843	20710.62
519.615	19874.62
520.387	19072.62
521.159	18341.62
521.93	17663.62
522.702	16954.62
523.474	16268.62
524.245	15566.62
525.017	14864.62
525.788	14167.62
526.56	13489.62
527.331	12778.62
528.102	12179.62
528.873	11550.62
529.644	10961.62
530.415	10455.62
531.186	9891.62
531.957	9352.62
532.728	8811.62
533.498	8343.62
534.269	7851.62
535.039	7402.62
535.81	7003.62
536.58	6603.62
537.351	6208.62
538.121	5912.62
538.891	5577.62
539.661	5309.62
540.431	5009.62
541.201	4747.62
541.971	4525.62
542.741	4264.62
543.51	4049.62
544.28	3852.62
545.05	3652.62
545.819	3485.62
546.588	3297.62
547.358	3120.62
548.127	2985.62
548.896	2825.62
549.665	2674.62
550.434	2517.62
551.203	2389.62
551.972	2255.62
552.741	2115.62
553.51	2019.62
554.278	1891.62
555.047	1787.62
555.815	1689.62
556.584	1597.62
557.352	1503.62
558.121	1420.62
558.889	1330.62
559.657	1271.62
560.425	1202.62
561.193	1124.62
561.961	1064.62
562.729	1005.62
563.496	964.62
564.264	910.62
565.032	859.62
565.799	812.62
566.567	777.62
567.334	723.62
568.101	681.62
568.869	640.62
569.636	614.62
570.403	581.62
571.17	550.62
571.937	503.62
572.704	482.62
573.471	455.62
574.237	423.62
575.004	413.62
575.771	381.62
576.537	359.62
577.303	337.62
578.07	321.62
578.836	295.62
579.602	280.62
580.368	269.62
581.134	261.62
581.9	243.62
582.666	227.62
583.432	214.62
584.198	208.62
584.964	196.62
585.729	183.62
586.495	176.62
587.26	167.62
588.025	156.62
588.791	149.62
589.556	144.62
590.321	140.62
591.086	133.62
591.851	123.62
592.616	123.62
593.381	113.62
594.146	106.62
594.911	101.62
595.675	96.62
596.44	92.62
597.204	89.62
597.969	82.62
598.733	79.62
599.497	80.62
600.261	74.62
601.025	68.62
601.79	67.62
602.553	69.62
603.317	63.62
604.081	59.62
604.845	56.62
605.609	55.62
606.372	52.62
607.136	50.62
607.899	50.62
608.662	47.62
609.426	47.62
610.189	42.62
610.952	40.62
611.715	40.62
612.478	39.62
613.241	39.62
614.004	38.62
614.767	36.62
615.529	33.62
616.292	32.62
617.055	33.62
617.817	29.62
618.579	29.62
619.342	28.62
620.104	26.62
620.866	25.62
621.628	27.62
622.39	24.62
623.152	23.62
623.914	25.62
624.676	21.62
625.438	21.62
626.199	20.62
626.961	18.62
627.722	20.62
628.484	17.62
629.245	17.62
630.006	20.62
630.768	18.62
631.529	16.62
632.29	11.62
633.051	17.62
633.812	14.62
634.573	15.62
635.333	14.62
636.094	14.62
636.855	14.62
637.615	14.62
638.376	12.62
639.136	12.62
639.896	12.62
640.657	11.62
641.417	11.62
642.177	14.62
642.937	12.62
643.697	13.62
644.457	13.62
645.216	10.62
645.976	10.62
646.736	10.62
647.495	11.62
648.255	9.62
649.014	9.62
649.774	10.62
650.533	9.62
651.292	10.62
652.051	9.62
652.81	9.62
653.569	10.62
654.328	10.62
655.087	8.62
655.846	9.62
656.604	8.62
657.363	9.62
658.121	9.62
658.88	9.62
659.638	7.62
660.397	11.62
661.155	7.62
661.913	6.62
662.671	8.62
663.429	8.62
664.187	8.62
664.945	6.62
665.703	8.62
666.46	6.62
667.218	5.62
667.976	5.62
668.733	5.62
669.49	7.62
670.248	5.62
671.005	8.62
671.762	6.62
672.519	6.62
673.276	8.62
674.033	5.62
674.79	8.62
675.547	4.62
676.304	5.62
677.06	5.62
677.817	4.62
678.574	4.62
679.33	7.62
680.086	8.62
680.843	4.62
681.599	5.62
682.355	8.62
683.111	4.62
683.867	7.62
684.623	5.62
685.379	6.62
686.135	7.62
686.89	5.62
687.646	6.62
688.402	7.62
689.157	8.62
689.912	4.62
690.668	5.62
691.423	4.62
692.178	5.62
692.933	4.62
693.688	4.62
694.443	6.62
695.198	6.62
695.953	6.62
696.708	7.62
697.462	5.62
698.217	2.62
698.972	3.62
699.726	6.62
700.48	6.62
701.235	4.62
701.989	3.62
702.743	3.62
703.497	4.62
704.251	3.62
705.005	7.62
705.759	4.62
706.513	4.62
707.266	5.62
708.02	4.62
708.774	4.62
709.527	5.62
710.28	3.62
711.034	3.62
711.787	4.62
712.54	7.62
713.293	5.62
714.046	5.62
714.799	4.62
715.552	6.62
716.305	4.62
717.058	3.62
717.81	6.62
718.563	6.62
719.315	5.62
720.068	4.62
720.82	4.62
721.573	5.62
722.325	4.62
723.077	6.62
723.829	6.62
724.581	4.62
725.333	3.62
726.085	5.62
726.836	8.62
727.588	5.62
728.34	6.62
729.091	8.62
729.843	6.62
730.594	4.62
731.346	5.62
732.097	6.62
732.848	7.62
733.599	4.62
734.35	5.62
735.101	6.62
735.852	7.62
736.603	6.62
737.354	5.62
738.104	6.62
738.855	5.62
739.605	5.62
740.356	5.62
741.106	7.62
741.856	7.62
742.607	7.62
743.357	7.62
744.107	9.62
744.857	7.62
745.607	4.62
746.357	8.62
747.106	6.62
747.856	6.62
748.606	9.62
749.355	7.62
750.105	9.62
750.854	10.62
751.603	8.62
752.353	8.62
753.102	9.62
753.851	7.62
754.6	8.62
755.349	11.62
756.098	8.62
756.847	8.62
757.595	9.62
758.344	9.62
759.093	8.62
759.841	8.62
760.589	9.62
761.338	9.62
762.086	9.62
762.834	9.62
763.582	8.62
764.331	11.62
765.079	11.62
765.826	13.62
766.574	12.62
767.322	12.62
768.07	10.62
768.817	8.62
769.565	12.62
770.312	12.62
771.06	10.62
771.807	13.62
772.554	9.62
773.302	12.62
774.049	13.62
774.796	11.62
775.543	11.62
776.29	12.62
777.036	12.62
777.783	12.62
778.53	10.62
779.276	12.62
780.023	11.62
780.769	14.62
781.516	11.62
782.262	12.62
783.008	12.62
783.754	14.62
784.5	13.62
785.246	13.62
785.992	13.62
786.738	10.62
787.484	11.62
788.23	11.62
788.975	13.62
789.721	11.62
790.466	11.62
791.212	12.62
791.957	10.62
792.702	13.62
793.447	11.62
794.193	12.62
794.938	8.62
795.683	11.62
796.427	8.62
797.172	10.62
797.917	8.62
798.662	8.62
799.406	9.62
800.151	12.62
800.895	9.62
801.64	8.62
802.384	7.62
803.128	9.62
803.872	9.62
804.616	9.62
805.36	9.62
806.104	9.62
806.848	9.62
807.592	8.62
808.336	8.62
809.079	8.62
809.823	5.62
810.566	9.62
811.31	5.62
812.053	8.62
812.796	7.62
813.539	5.62
814.283	5.62
815.026	7.62
815.769	6.62
816.511	6.62
817.254	5.62
817.997	7.62
818.74	5.62
819.482	6.62
820.225	4.62
820.967	6.62
821.71	6.62
822.452	5.62
823.194	4.62
823.936	8.62
824.678	7.62
825.42	7.62
826.162	3.62
826.904	4.62
827.646	2.62
828.388	5.62
829.129	5.62
829.871	5.62
830.612	3.62
831.354	5.62
832.095	4.62
832.836	3.62
833.577	6.62
834.319	6.62
835.06	4.62
835.801	4.62
836.542	3.62
837.282	4.62
838.023	4.62
838.764	5.62
839.504	4.62
840.245	6.62
840.985	4.62
841.726	2.62
842.466	5.62
843.206	2.62
843.946	3.62
844.687	4.62
845.427	2.62
846.166	2.62
846.906	3.62
847.646	2.62
848.386	2.62
849.125	3.62
849.865	2.62
850.605	2.62
851.344	4.62
852.083	4.62
852.823	4.62
853.562	1.62
854.301	4.62
855.04	4.62
855.779	2.62
856.518	4.62
857.257	5.62
857.995	3.62
858.734	4.62
859.473	2.62
860.211	4.62
860.95	5.62
861.688	2.62
862.426	2.62
863.165	2.62
863.903	0.62
864.641	1.62
865.379	2.62
866.117	3.62
866.855	3.62
867.593	4.62
868.33	0.62
869.068	2.62
869.806	1.62
870.543	1.62
871.28	0.62
872.018	-0.38
872.755	2.62
873.492	0.62
874.229	1.62
874.967	0.62
875.703	2.62
876.44	2.62
877.177	0.62
877.914	-0.38
878.651	2.62
879.387	1.62
880.124	1.62
880.86	3.62
881.597	2.62
882.333	2.62
883.069	0.62
883.806	0.62
884.542	2.62
885.278	0.62
886.014	-0.38
886.749	2.62
887.485	1.62
888.221	1.62
888.957	2.62
889.692	1.62
890.428	1.62
891.163	0.62
891.899	0.62
892.634	0.62
893.369	0.62
894.104	0.62
894.839	1.62
895.574	0.62
896.309	1.62
897.044	1.62
897.779	1.62
898.514	0.62
899.248	2.62
899.983	2.62
900.717	2.62
901.452	1.62
902.186	2.62
902.92	1.62
903.654	0.62
904.389	-0.38
905.123	-0.38
905.857	0.62
906.59	-0.38
907.324	1.62
908.058	2.62
908.792	0.62
909.525	1.62
910.259	-0.38
910.992	1.62
911.726	0.62
912.459	1.62
913.192	0.62
913.925	2.62
914.658	-0.38
915.391	0.62
916.124	-0.38
916.857	-1.38
917.59	-0.38
918.323	0.62
919.055	-0.38
919.788	0.62
920.521	0.62
921.253	-0.38
921.985	-1.38
922.718	-0.38
923.45	2.62
924.182	-1.38
924.914	3.62
925.646	-1.38
926.378	0.62
927.11	0.62
927.841	-3.38
928.573	0.62
929.305	-0.38
930.036	-1.38
930.768	2.62
931.499	1.62
932.23	0.62
932.962	-2.38
933.693	0.62
934.424	0.62
935.155	1.62
935.886	0.62
936.617	-0.38
937.348	3.62
938.078	1.62
938.809	0.62
939.54	0.62
940.27	0.62
941.001	2.62
941.731	-1.38
942.461	1.62
943.191	2.62
943.922	2.62
944.652	0.62
945.382	-1.38
946.112	1.62
946.841	-0.38
947.571	0.62
948.301	0.62
949.031	0.62
949.76	-0.38
950.49	-0.38
951.219	1.62
951.948	-0.38
952.678	0.62
953.407	0.62
954.136	-2.38
954.865	0.62
955.594	-1.38
956.323	2.62
957.052	1.62
957.78	1.62
958.509	0.62
959.238	0.62
959.966	1.62
960.695	2.62
961.423	-0.38
962.151	1.62
962.88	0.62
963.608	0.62
964.336	0.62
965.064	0.62
965.792	-0.38
966.52	0.62
967.247	1.62
967.975	-1.38
968.703	0.62
969.43	-1.38
970.158	-1.38
970.885	0.62
971.613	-1.38
972.34	1.62
973.067	-2.38
973.794	-0.38
974.521	0.62
975.248	1.62
975.975	2.62
976.702	0.62
977.429	1.62
978.156	-0.38
978.882	1.62
979.609	-0.38
980.335	0.62
981.062	1.62
981.788	-0.38
982.514	2.62
983.24	0.62
983.967	-1.38
984.693	0.62
985.419	-3.38
986.144	-0.38
986.87	0.62
987.596	0.62
988.322	1.62
989.047	0.62
989.773	0.62
990.498	-0.38
991.224	2.62
991.949	1.62
992.674	3.62
993.399	-1.38
994.124	0.62
994.849	2.62
995.574	0.62
996.299	0.62
997.024	0.62
997.749	1.62
998.473	-0.38
999.198	-1.38
999.922	0.62
1000.647	-3.38
1001.371	3.62
1002.095	-3.38
1002.82	0.62
1003.544	-0.38
1004.268	4.62
1004.992	3.62
1005.716	1.62
1006.439	0.62
1007.163	3.62
1007.887	4.62
1008.611	1.62
1009.334	0.62
1010.058	1.62
1010.781	1.62
1011.504	-0.38
1012.228	2.62
1012.951	0.62
1013.674	-0.38
1014.397	-0.38
1015.12	-0.38
