节点500_425_QEPB04081__239__15-52-16-997.txt的数据

Date: Wed Nov 12 15:52:16 CST 2025
User: PC
Spectrometer: QEPB0408
触发模式: 0
积分时间 (秒): 1.000000E-2
Scans to average: 1
启用暗噪声校正: true
启用非线性校正: false
滑动平均宽度: 0
X轴模式: Wavelengths
Number of Pixels in Spectrum: 1044
>>>>>Begin Spectral Data<<<<<
220.843	0.38
221.644	2.38
222.444	4.38
223.244	2.38
224.045	2.38
224.845	2.38
225.645	2.38
226.445	2.38
227.245	4.38
228.045	6.38
228.845	4.38
229.645	4.38
230.444	2.38
231.244	4.38
232.043	5.38
232.843	7.38
233.642	5.38
234.442	5.38
235.241	7.38
236.04	7.38
236.839	6.38
237.638	7.38
238.437	6.38
239.236	7.38
240.035	5.38
240.833	10.38
241.632	6.38
242.43	8.38
243.229	5.38
244.027	8.38
244.826	9.38
245.624	8.38
246.422	11.38
247.22	9.38
248.018	8.38
248.816	10.38
249.614	9.38
250.412	8.38
251.21	9.38
252.007	12.38
252.805	10.38
253.602	11.38
254.4	12.38
255.197	13.38
255.994	14.38
256.791	11.38
257.589	15.38
258.386	12.38
259.183	15.38
259.979	13.38
260.776	14.38
261.573	16.38
262.37	15.38
263.166	14.38
263.963	18.38
264.759	16.38
265.556	19.38
266.352	19.38
267.148	17.38
267.944	18.38
268.74	20.38
269.536	17.38
270.332	22.38
271.128	25.38
271.924	18.38
272.719	22.38
273.515	21.38
274.311	22.38
275.106	25.38
275.901	22.38
276.697	23.38
277.492	25.38
278.287	23.38
279.082	25.38
279.877	23.38
280.672	27.38
281.467	26.38
282.262	24.38
283.056	26.38
283.851	23.38
284.646	26.38
285.44	27.38
286.234	21.38
287.029	24.38
287.823	22.38
288.617	25.38
289.411	25.38
290.205	24.38
290.999	24.38
291.793	26.38
292.587	22.38
293.381	21.38
294.174	24.38
294.968	23.38
295.761	22.38
296.555	21.38
297.348	16.38
298.141	20.38
298.935	22.38
299.728	22.38
300.521	16.38
301.314	14.38
302.107	17.38
302.899	18.38
303.692	18.38
304.485	17.38
305.277	17.38
306.07	16.38
306.862	17.38
307.655	16.38
308.447	14.38
309.239	13.38
310.031	14.38
310.823	15.38
311.615	14.38
312.407	12.38
313.199	12.38
313.991	12.38
314.783	15.38
315.574	11.38
316.366	11.38
317.157	11.38
317.949	12.38
318.74	13.38
319.531	10.38
320.322	9.38
321.113	8.38
321.904	8.38
322.695	12.38
323.486	11.38
324.277	10.38
325.068	12.38
325.858	7.38
326.649	10.38
327.439	10.38
328.23	10.38
329.02	9.38
329.81	8.38
330.6	11.38
331.391	8.38
332.181	9.38
332.971	6.38
333.76	8.38
334.55	9.38
335.34	9.38
336.13	9.38
336.919	9.38
337.709	10.38
338.498	7.38
339.287	11.38
340.077	10.38
340.866	8.38
341.655	9.38
342.444	9.38
343.233	9.38
344.022	9.38
344.811	9.38
345.6	10.38
346.388	8.38
347.177	11.38
347.965	7.38
348.754	8.38
349.542	8.38
350.33	9.38
351.119	7.38
351.907	7.38
352.695	9.38
353.483	7.38
354.271	7.38
355.059	8.38
355.846	5.38
356.634	6.38
357.422	7.38
358.209	7.38
358.997	8.38
359.784	8.38
360.571	9.38
361.359	3.38
362.146	5.38
362.933	7.38
363.72	7.38
364.507	8.38
365.294	5.38
366.081	8.38
366.867	8.38
367.654	6.38
368.44	8.38
369.227	7.38
370.013	4.38
370.8	7.38
371.586	7.38
372.372	4.38
373.158	6.38
373.944	6.38
374.73	5.38
375.516	8.38
376.302	7.38
377.088	5.38
377.873	6.38
378.659	7.38
379.445	8.38
380.23	8.38
381.015	10.38
381.801	7.38
382.586	5.38
383.371	8.38
384.156	7.38
384.941	9.38
385.726	7.38
386.511	8.38
387.296	8.38
388.08	5.38
388.865	9.38
389.649	8.38
390.434	7.38
391.218	7.38
392.003	7.38
392.787	8.38
393.571	6.38
394.355	7.38
395.139	7.38
395.923	8.38
396.707	6.38
397.491	6.38
398.274	11.38
399.058	6.38
399.842	9.38
400.625	9.38
401.408	9.38
402.192	10.38
402.975	9.38
403.758	11.38
404.541	7.38
405.324	10.38
406.107	9.38
406.89	8.38
407.673	12.38
408.456	11.38
409.238	12.38
410.021	9.38
410.803	10.38
411.586	11.38
412.368	10.38
413.151	10.38
413.933	11.38
414.715	9.38
415.497	14.38
416.279	14.38
417.061	13.38
417.843	12.38
418.624	13.38
419.406	13.38
420.188	14.38
420.969	14.38
421.751	14.38
422.532	16.38
423.313	14.38
424.095	15.38
424.876	17.38
425.657	18.38
426.438	18.38
427.219	16.38
428	19.38
428.78	17.38
429.561	17.38
430.342	22.38
431.122	18.38
431.903	22.38
432.683	23.38
433.464	21.38
434.244	25.38
435.024	26.38
435.804	25.38
436.584	25.38
437.364	28.38
438.144	28.38
438.924	29.38
439.704	32.38
440.483	33.38
441.263	35.38
442.042	38.38
442.822	39.38
443.601	40.38
444.38	45.38
445.16	49.38
445.939	53.38
446.718	57.38
447.497	58.38
448.276	65.38
449.054	69.38
449.833	80.38
450.612	87.38
451.391	98.38
452.169	100.38
452.948	113.38
453.726	121.38
454.504	132.38
455.282	148.38
456.061	166.38
456.839	182.38
457.617	203.38
458.395	226.38
459.172	253.38
459.95	284.38
460.728	323.38
461.506	354.38
462.283	392.38
463.061	433.38
463.838	494.38
464.615	546.38
465.393	613.38
466.17	686.38
466.947	766.38
467.724	845.38
468.501	940.38
469.278	1042.38
470.055	1160.38
470.831	1290.38
471.608	1434.38
472.385	1588.38
473.161	1763.38
473.938	1946.38
474.714	2153.38
475.49	2375.38
476.266	2640.38
477.043	2882.38
477.819	3191.38
478.595	3525.38
479.371	3873.38
480.146	4266.38
480.922	4679.38
481.698	5130.38
482.473	5642.38
483.249	6167.38
484.024	6787.38
484.8	7416.38
485.575	8124.38
486.35	8879.38
487.126	9666.38
487.901	10610.38
488.676	11495.38
489.451	12529.38
490.225	13598.38
491	14823.38
491.775	16052.38
492.55	17349.38
493.324	18601.38
494.099	20035.38
494.873	21392.38
495.647	22779.38
496.422	24254.38
497.196	25783.38
497.97	27280.38
498.744	28712.38
499.518	30052.38
500.292	31297.38
501.066	32399.38
501.839	33599.38
502.613	34443.38
503.387	35159.38
504.16	35529.38
504.934	35909.38
505.707	35924.38
506.48	35741.38
507.253	35368.38
508.027	34982.38
508.8	34335.38
509.573	33605.38
510.346	32683.38
511.118	31735.38
511.891	30636.38
512.664	29484.38
513.437	28384.38
514.209	27108.38
514.982	26230.38
515.754	25085.38
516.526	24034.38
517.298	22938.38
518.071	21890.38
518.843	21043.38
519.615	20218.38
520.387	19394.38
521.159	18729.38
521.93	17980.38
522.702	17254.38
523.474	16580.38
524.245	15929.38
525.017	15157.38
525.788	14431.38
526.56	13801.38
527.331	13183.38
528.102	12632.38
528.873	11932.38
529.644	11351.38
530.415	10829.38
531.186	10317.38
531.957	9776.38
532.728	9229.38
533.498	8710.38
534.269	8250.38
535.039	7830.38
535.81	7390.38
536.58	6957.38
537.351	6579.38
538.121	6205.38
538.891	5862.38
539.661	5568.38
540.431	5306.38
541.201	5020.38
541.971	4748.38
542.741	4508.38
543.51	4284.38
544.28	4073.38
545.05	3828.38
545.819	3677.38
546.588	3510.38
547.358	3306.38
548.127	3138.38
548.896	2970.38
549.665	2830.38
550.434	2685.38
551.203	2545.38
551.972	2423.38
552.741	2269.38
553.51	2151.38
554.278	2012.38
555.047	1910.38
555.815	1803.38
556.584	1702.38
557.352	1620.38
558.121	1510.38
558.889	1422.38
559.657	1366.38
560.425	1274.38
561.193	1203.38
561.961	1156.38
562.729	1082.38
563.496	1008.38
564.264	961.38
565.032	908.38
565.799	860.38
566.567	823.38
567.334	777.38
568.101	733.38
568.869	696.38
569.636	650.38
570.403	608.38
571.17	578.38
571.937	540.38
572.704	506.38
573.471	503.38
574.237	461.38
575.004	437.38
575.771	408.38
576.537	377.38
577.303	361.38
578.07	343.38
578.836	321.38
579.602	302.38
580.368	281.38
581.134	277.38
581.9	254.38
582.666	243.38
583.432	231.38
584.198	230.38
584.964	210.38
585.729	198.38
586.495	193.38
587.26	176.38
588.025	171.38
588.791	164.38
589.556	149.38
590.321	144.38
591.086	133.38
591.851	134.38
592.616	121.38
593.381	122.38
594.146	111.38
594.911	107.38
595.675	97.38
596.44	95.38
597.204	92.38
597.969	87.38
598.733	84.38
599.497	81.38
600.261	80.38
601.025	75.38
601.79	71.38
602.553	69.38
603.317	65.38
604.081	62.38
604.845	63.38
605.609	58.38
606.372	55.38
607.136	53.38
607.899	53.38
608.662	49.38
609.426	44.38
610.189	47.38
610.952	45.38
611.715	43.38
612.478	40.38
613.241	35.38
614.004	40.38
614.767	36.38
615.529	36.38
616.292	37.38
617.055	32.38
617.817	35.38
618.579	30.38
619.342	32.38
620.104	29.38
620.866	29.38
621.628	26.38
622.39	26.38
623.152	25.38
623.914	24.38
624.676	22.38
625.438	22.38
626.199	23.38
626.961	22.38
627.722	21.38
628.484	20.38
629.245	21.38
630.006	20.38
630.768	19.38
631.529	20.38
632.29	20.38
633.051	16.38
633.812	16.38
634.573	15.38
635.333	13.38
636.094	16.38
636.855	14.38
637.615	13.38
638.376	10.38
639.136	14.38
639.896	13.38
640.657	11.38
641.417	14.38
642.177	10.38
642.937	13.38
643.697	12.38
644.457	11.38
645.216	12.38
645.976	11.38
646.736	13.38
647.495	9.38
648.255	9.38
649.014	10.38
649.774	7.38
650.533	10.38
651.292	9.38
652.051	9.38
652.81	9.38
653.569	10.38
654.328	6.38
655.087	7.38
655.846	9.38
656.604	8.38
657.363	10.38
658.121	9.38
658.88	7.38
659.638	8.38
660.397	9.38
661.155	6.38
661.913	7.38
662.671	9.38
663.429	7.38
664.187	5.38
664.945	6.38
665.703	6.38
666.46	6.38
667.218	7.38
667.976	7.38
668.733	6.38
669.49	8.38
670.248	6.38
671.005	5.38
671.762	7.38
672.519	4.38
673.276	8.38
674.033	7.38
674.79	5.38
675.547	5.38
676.304	6.38
677.06	5.38
677.817	5.38
678.574	8.38
679.33	8.38
680.086	7.38
680.843	8.38
681.599	5.38
682.355	4.38
683.111	5.38
683.867	7.38
684.623	6.38
685.379	2.38
686.135	5.38
686.89	6.38
687.646	4.38
688.402	7.38
689.157	7.38
689.912	8.38
690.668	4.38
691.423	5.38
692.178	6.38
692.933	2.38
693.688	7.38
694.443	4.38
695.198	5.38
695.953	5.38
696.708	5.38
697.462	6.38
698.217	5.38
698.972	5.38
699.726	6.38
700.48	4.38
701.235	6.38
701.989	4.38
702.743	6.38
703.497	4.38
704.251	3.38
705.005	4.38
705.759	3.38
706.513	6.38
707.266	6.38
708.02	4.38
708.774	4.38
709.527	4.38
710.28	4.38
711.034	4.38
711.787	4.38
712.54	3.38
713.293	5.38
714.046	2.38
714.799	3.38
715.552	5.38
716.305	5.38
717.058	6.38
717.81	4.38
718.563	3.38
719.315	4.38
720.068	5.38
720.82	4.38
721.573	7.38
722.325	5.38
723.077	5.38
723.829	5.38
724.581	6.38
725.333	6.38
726.085	4.38
726.836	4.38
727.588	4.38
728.34	5.38
729.091	6.38
729.843	6.38
730.594	4.38
731.346	7.38
732.097	4.38
732.848	5.38
733.599	8.38
734.35	5.38
735.101	6.38
735.852	8.38
736.603	6.38
737.354	6.38
738.104	4.38
738.855	9.38
739.605	5.38
740.356	6.38
741.106	8.38
741.856	5.38
742.607	6.38
743.357	7.38
744.107	6.38
744.857	8.38
745.607	8.38
746.357	6.38
747.106	6.38
747.856	7.38
748.606	7.38
749.355	8.38
750.105	7.38
750.854	6.38
751.603	8.38
752.353	6.38
753.102	9.38
753.851	6.38
754.6	6.38
755.349	8.38
756.098	7.38
756.847	8.38
757.595	8.38
758.344	10.38
759.093	6.38
759.841	8.38
760.589	8.38
761.338	6.38
762.086	8.38
762.834	7.38
763.582	9.38
764.331	9.38
765.079	7.38
765.826	6.38
766.574	8.38
767.322	10.38
768.07	7.38
768.817	8.38
769.565	12.38
770.312	11.38
771.06	9.38
771.807	10.38
772.554	11.38
773.302	9.38
774.049	10.38
774.796	10.38
775.543	10.38
776.29	10.38
777.036	12.38
777.783	10.38
778.53	12.38
779.276	10.38
780.023	13.38
780.769	12.38
781.516	15.38
782.262	14.38
783.008	11.38
783.754	10.38
784.5	12.38
785.246	11.38
785.992	9.38
786.738	12.38
787.484	12.38
788.23	13.38
788.975	13.38
789.721	11.38
790.466	10.38
791.212	11.38
791.957	12.38
792.702	11.38
793.447	13.38
794.193	10.38
794.938	10.38
795.683	12.38
796.427	12.38
797.172	10.38
797.917	7.38
798.662	10.38
799.406	8.38
800.151	9.38
800.895	9.38
801.64	11.38
802.384	10.38
803.128	7.38
803.872	8.38
804.616	8.38
805.36	8.38
806.104	7.38
806.848	11.38
807.592	6.38
808.336	6.38
809.079	9.38
809.823	7.38
810.566	5.38
811.31	9.38
812.053	7.38
812.796	6.38
813.539	6.38
814.283	8.38
815.026	6.38
815.769	5.38
816.511	7.38
817.254	6.38
817.997	5.38
818.74	6.38
819.482	6.38
820.225	6.38
820.967	5.38
821.71	8.38
822.452	5.38
823.194	4.38
823.936	3.38
824.678	5.38
825.42	3.38
826.162	5.38
826.904	4.38
827.646	3.38
828.388	4.38
829.129	7.38
829.871	3.38
830.612	4.38
831.354	3.38
832.095	3.38
832.836	5.38
833.577	4.38
834.319	4.38
835.06	4.38
835.801	4.38
836.542	2.38
837.282	5.38
838.023	4.38
838.764	5.38
839.504	4.38
840.245	5.38
840.985	6.38
841.726	3.38
842.466	5.38
843.206	1.38
843.946	3.38
844.687	1.38
845.427	2.38
846.166	0.38
846.906	4.38
847.646	5.38
848.386	3.38
849.125	3.38
849.865	4.38
850.605	0.38
851.344	2.38
852.083	4.38
852.823	2.38
853.562	3.38
854.301	2.38
855.04	2.38
855.779	4.38
856.518	4.38
857.257	3.38
857.995	1.38
858.734	2.38
859.473	3.38
860.211	2.38
860.95	1.38
861.688	3.38
862.426	3.38
863.165	0.38
863.903	1.38
864.641	2.38
865.379	2.38
866.117	3.38
866.855	0.38
867.593	2.38
868.33	2.38
869.068	2.38
869.806	2.38
870.543	1.38
871.28	1.38
872.018	1.38
872.755	3.38
873.492	4.38
874.229	2.38
874.967	-0.62
875.703	1.38
876.44	2.38
877.177	0.38
877.914	2.38
878.651	0.38
879.387	-1.62
880.124	1.38
880.86	-0.62
881.597	1.38
882.333	0.38
883.069	0.38
883.806	0.38
884.542	1.38
885.278	-1.62
886.014	1.38
886.749	1.38
887.485	2.38
888.221	2.38
888.957	-1.62
889.692	-2.62
890.428	0.38
891.163	0.38
891.899	2.38
892.634	0.38
893.369	1.38
894.104	0.38
894.839	-1.62
895.574	2.38
896.309	-1.62
897.044	0.38
897.779	2.38
898.514	-1.62
899.248	2.38
899.983	1.38
900.717	2.38
901.452	0.38
902.186	0.38
902.92	4.38
903.654	-0.62
904.389	1.38
905.123	1.38
905.857	0.38
906.59	2.38
907.324	-0.62
908.058	2.38
908.792	1.38
909.525	0.38
910.259	1.38
910.992	0.38
911.726	0.38
912.459	-1.62
913.192	0.38
913.925	1.38
914.658	1.38
915.391	0.38
916.124	-1.62
916.857	1.38
917.59	0.38
918.323	0.38
919.055	0.38
919.788	-0.62
920.521	1.38
921.253	0.38
921.985	-0.62
922.718	1.38
923.45	-0.62
924.182	1.38
924.914	-3.62
925.646	4.38
926.378	-1.62
927.11	1.38
927.841	-1.62
928.573	-0.62
929.305	0.38
930.036	0.38
930.768	2.38
931.499	-0.62
932.23	0.38
932.962	2.38
933.693	0.38
934.424	1.38
935.155	-0.62
935.886	1.38
936.617	1.38
937.348	0.38
938.078	-0.62
938.809	-2.62
939.54	1.38
940.27	0.38
941.001	0.38
941.731	1.38
942.461	1.38
943.191	0.38
943.922	0.38
944.652	0.38
945.382	1.38
946.112	0.38
946.841	-0.62
947.571	-0.62
948.301	1.38
949.031	-0.62
949.76	0.38
950.49	0.38
951.219	0.38
951.948	1.38
952.678	-0.62
953.407	2.38
954.136	-0.62
954.865	0.38
955.594	-2.62
956.323	1.38
957.052	1.38
957.78	-2.62
958.509	-0.62
959.238	2.38
959.966	0.38
960.695	0.38
961.423	-1.62
962.151	2.38
962.88	-1.62
963.608	0.38
964.336	0.38
965.064	-1.62
965.792	2.38
966.52	-1.62
967.247	-0.62
967.975	-0.62
968.703	1.38
969.43	0.38
970.158	0.38
970.885	1.38
971.613	0.38
972.34	2.38
973.067	-0.62
973.794	-1.62
974.521	2.38
975.248	0.38
975.975	0.38
976.702	-1.62
977.429	0.38
978.156	0.38
978.882	-1.62
979.609	1.38
980.335	0.38
981.062	1.38
981.788	0.38
982.514	-1.62
983.24	-2.62
983.967	-0.62
984.693	0.38
985.419	-3.62
986.144	-1.62
986.87	1.38
987.596	-0.62
988.322	1.38
989.047	0.38
989.773	0.38
990.498	1.38
991.224	0.38
991.949	-1.62
992.674	3.38
993.399	1.38
994.124	-0.62
994.849	0.38
995.574	0.38
996.299	-1.62
997.024	2.38
997.749	2.38
998.473	1.38
999.198	0.38
999.922	-0.62
1000.647	1.38
1001.371	2.38
1002.095	-2.62
1002.82	0.38
1003.544	-1.62
1004.268	4.38
1004.992	2.38
1005.716	5.38
1006.439	1.38
1007.163	2.38
1007.887	2.38
1008.611	-1.62
1009.334	-0.62
1010.058	1.38
1010.781	1.38
1011.504	1.38
1012.228	-0.62
1012.951	1.38
1013.674	-2.62
1014.397	1.38
1015.12	1.38
