节点500_425_QEPB04081__230__15-52-08-045.txt的数据

Date: Wed Nov 12 15:52:08 CST 2025
User: PC
Spectrometer: QEPB0408
触发模式: 0
积分时间 (秒): 1.000000E-2
Scans to average: 1
启用暗噪声校正: true
启用非线性校正: false
滑动平均宽度: 0
X轴模式: Wavelengths
Number of Pixels in Spectrum: 1044
>>>>>Begin Spectral Data<<<<<
220.843	2.5
221.644	0.5
222.444	3.5
223.244	2.5
224.045	4.5
224.845	4.5
225.645	2.5
226.445	2.5
227.245	4.5
228.045	3.5
228.845	4.5
229.645	3.5
230.444	5.5
231.244	2.5
232.043	6.5
232.843	4.5
233.642	6.5
234.442	4.5
235.241	6.5
236.04	7.5
236.839	7.5
237.638	6.5
238.437	7.5
239.236	7.5
240.035	7.5
240.833	8.5
241.632	9.5
242.43	7.5
243.229	8.5
244.027	7.5
244.826	8.5
245.624	8.5
246.422	10.5
247.22	10.5
248.018	6.5
248.816	9.5
249.614	8.5
250.412	9.5
251.21	10.5
252.007	9.5
252.805	7.5
253.602	12.5
254.4	8.5
255.197	11.5
255.994	10.5
256.791	11.5
257.589	12.5
258.386	12.5
259.183	14.5
259.979	12.5
260.776	14.5
261.573	15.5
262.37	14.5
263.166	18.5
263.963	16.5
264.759	16.5
265.556	22.5
266.352	19.5
267.148	19.5
267.944	19.5
268.74	20.5
269.536	23.5
270.332	24.5
271.128	20.5
271.924	21.5
272.719	23.5
273.515	23.5
274.311	23.5
275.106	25.5
275.901	23.5
276.697	24.5
277.492	23.5
278.287	26.5
279.082	23.5
279.877	24.5
280.672	26.5
281.467	25.5
282.262	24.5
283.056	22.5
283.851	25.5
284.646	24.5
285.44	26.5
286.234	25.5
287.029	24.5
287.823	30.5
288.617	24.5
289.411	24.5
290.205	24.5
290.999	21.5
291.793	21.5
292.587	21.5
293.381	21.5
294.174	22.5
294.968	22.5
295.761	20.5
296.555	18.5
297.348	20.5
298.141	19.5
298.935	17.5
299.728	19.5
300.521	19.5
301.314	18.5
302.107	17.5
302.899	16.5
303.692	17.5
304.485	17.5
305.277	17.5
306.07	16.5
306.862	17.5
307.655	14.5
308.447	15.5
309.239	16.5
310.031	16.5
310.823	14.5
311.615	14.5
312.407	14.5
313.199	15.5
313.991	12.5
314.783	10.5
315.574	12.5
316.366	14.5
317.157	9.5
317.949	11.5
318.74	9.5
319.531	12.5
320.322	10.5
321.113	9.5
321.904	8.5
322.695	9.5
323.486	9.5
324.277	10.5
325.068	9.5
325.858	10.5
326.649	8.5
327.439	10.5
328.23	9.5
329.02	10.5
329.81	7.5
330.6	7.5
331.391	9.5
332.181	8.5
332.971	9.5
333.76	8.5
334.55	6.5
335.34	8.5
336.13	8.5
336.919	10.5
337.709	8.5
338.498	9.5
339.287	8.5
340.077	10.5
340.866	8.5
341.655	7.5
342.444	8.5
343.233	9.5
344.022	8.5
344.811	8.5
345.6	9.5
346.388	7.5
347.177	7.5
347.965	8.5
348.754	6.5
349.542	9.5
350.33	8.5
351.119	6.5
351.907	9.5
352.695	9.5
353.483	8.5
354.271	7.5
355.059	7.5
355.846	8.5
356.634	7.5
357.422	6.5
358.209	6.5
358.997	7.5
359.784	7.5
360.571	7.5
361.359	7.5
362.146	8.5
362.933	8.5
363.72	8.5
364.507	8.5
365.294	9.5
366.081	6.5
366.867	8.5
367.654	9.5
368.44	5.5
369.227	5.5
370.013	5.5
370.8	6.5
371.586	7.5
372.372	5.5
373.158	7.5
373.944	5.5
374.73	5.5
375.516	7.5
376.302	8.5
377.088	7.5
377.873	8.5
378.659	8.5
379.445	7.5
380.23	6.5
381.015	7.5
381.801	4.5
382.586	7.5
383.371	7.5
384.156	7.5
384.941	5.5
385.726	7.5
386.511	5.5
387.296	8.5
388.08	7.5
388.865	6.5
389.649	10.5
390.434	9.5
391.218	8.5
392.003	8.5
392.787	8.5
393.571	7.5
394.355	8.5
395.139	10.5
395.923	8.5
396.707	7.5
397.491	8.5
398.274	7.5
399.058	10.5
399.842	9.5
400.625	6.5
401.408	10.5
402.192	9.5
402.975	9.5
403.758	9.5
404.541	9.5
405.324	8.5
406.107	10.5
406.89	8.5
407.673	10.5
408.456	10.5
409.238	10.5
410.021	11.5
410.803	11.5
411.586	9.5
412.368	10.5
413.151	10.5
413.933	12.5
414.715	14.5
415.497	14.5
416.279	13.5
417.061	12.5
417.843	12.5
418.624	14.5
419.406	12.5
420.188	17.5
420.969	12.5
421.751	14.5
422.532	13.5
423.313	18.5
424.095	14.5
424.876	15.5
425.657	15.5
426.438	16.5
427.219	18.5
428	16.5
428.78	16.5
429.561	19.5
430.342	17.5
431.122	20.5
431.903	19.5
432.683	21.5
433.464	22.5
434.244	23.5
435.024	22.5
435.804	25.5
436.584	27.5
437.364	31.5
438.144	29.5
438.924	30.5
439.704	31.5
440.483	36.5
441.263	38.5
442.042	38.5
442.822	41.5
443.601	45.5
444.38	45.5
445.16	49.5
445.939	53.5
446.718	57.5
447.497	60.5
448.276	65.5
449.054	72.5
449.833	79.5
450.612	84.5
451.391	92.5
452.169	103.5
452.948	114.5
453.726	121.5
454.504	134.5
455.282	153.5
456.061	166.5
456.839	180.5
457.617	213.5
458.395	227.5
459.172	256.5
459.95	289.5
460.728	318.5
461.506	349.5
462.283	385.5
463.061	440.5
463.838	485.5
464.615	548.5
465.393	604.5
466.17	674.5
466.947	765.5
467.724	840.5
468.501	943.5
469.278	1043.5
470.055	1166.5
470.831	1303.5
471.608	1443.5
472.385	1587.5
473.161	1761.5
473.938	1942.5
474.714	2159.5
475.49	2398.5
476.266	2614.5
477.043	2910.5
477.819	3206.5
478.595	3513.5
479.371	3855.5
480.146	4252.5
480.922	4665.5
481.698	5132.5
482.473	5635.5
483.249	6191.5
484.024	6766.5
484.8	7429.5
485.575	8144.5
486.35	8896.5
487.126	9703.5
487.901	10606.5
488.676	11529.5
489.451	12556.5
490.225	13677.5
491	14855.5
491.775	16078.5
492.55	17351.5
493.324	18749.5
494.099	20111.5
494.873	21422.5
495.647	22893.5
496.422	24405.5
497.196	25828.5
497.97	27389.5
498.744	28801.5
499.518	30173.5
500.292	31312.5
501.066	32518.5
501.839	33706.5
502.613	34551.5
503.387	35192.5
504.16	35757.5
504.934	35906.5
505.707	35923.5
506.48	35791.5
507.253	35406.5
508.027	35043.5
508.8	34356.5
509.573	33555.5
510.346	32688.5
511.118	31753.5
511.891	30731.5
512.664	29489.5
513.437	28324.5
514.209	27143.5
514.982	26200.5
515.754	25070.5
516.526	24001.5
517.298	22973.5
518.071	21994.5
518.843	21143.5
519.615	20228.5
520.387	19431.5
521.159	18674.5
521.93	18028.5
522.702	17215.5
523.474	16526.5
524.245	15912.5
525.017	15154.5
525.788	14472.5
526.56	13782.5
527.331	13164.5
528.102	12574.5
528.873	11947.5
529.644	11377.5
530.415	10856.5
531.186	10286.5
531.957	9762.5
532.728	9254.5
533.498	8732.5
534.269	8218.5
535.039	7802.5
535.81	7383.5
536.58	6969.5
537.351	6545.5
538.121	6225.5
538.891	5889.5
539.661	5559.5
540.431	5273.5
541.201	4959.5
541.971	4722.5
542.741	4494.5
543.51	4276.5
544.28	4056.5
545.05	3866.5
545.819	3680.5
546.588	3470.5
547.358	3302.5
548.127	3113.5
548.896	2995.5
549.665	2816.5
550.434	2665.5
551.203	2532.5
551.972	2398.5
552.741	2257.5
553.51	2153.5
554.278	2032.5
555.047	1900.5
555.815	1813.5
556.584	1700.5
557.352	1616.5
558.121	1511.5
558.889	1436.5
559.657	1350.5
560.425	1290.5
561.193	1197.5
561.961	1139.5
562.729	1088.5
563.496	1021.5
564.264	970.5
565.032	910.5
565.799	870.5
566.567	818.5
567.334	771.5
568.101	737.5
568.869	693.5
569.636	653.5
570.403	620.5
571.17	578.5
571.937	533.5
572.704	513.5
573.471	493.5
574.237	457.5
575.004	434.5
575.771	409.5
576.537	383.5
577.303	356.5
578.07	334.5
578.836	327.5
579.602	296.5
580.368	287.5
581.134	268.5
581.9	263.5
582.666	247.5
583.432	235.5
584.198	226.5
584.964	211.5
585.729	193.5
586.495	195.5
587.26	178.5
588.025	165.5
588.791	164.5
589.556	151.5
590.321	145.5
591.086	137.5
591.851	130.5
592.616	122.5
593.381	120.5
594.146	112.5
594.911	110.5
595.675	107.5
596.44	98.5
597.204	91.5
597.969	88.5
598.733	83.5
599.497	82.5
600.261	78.5
601.025	78.5
601.79	68.5
602.553	69.5
603.317	66.5
604.081	62.5
604.845	60.5
605.609	57.5
606.372	58.5
607.136	53.5
607.899	54.5
608.662	48.5
609.426	48.5
610.189	46.5
610.952	44.5
611.715	41.5
612.478	40.5
613.241	39.5
614.004	35.5
614.767	37.5
615.529	32.5
616.292	32.5
617.055	34.5
617.817	29.5
618.579	28.5
619.342	29.5
620.104	28.5
620.866	26.5
621.628	26.5
622.39	26.5
623.152	25.5
623.914	24.5
624.676	24.5
625.438	22.5
626.199	21.5
626.961	20.5
627.722	23.5
628.484	18.5
629.245	19.5
630.006	18.5
630.768	18.5
631.529	20.5
632.29	17.5
633.051	17.5
633.812	16.5
634.573	17.5
635.333	14.5
636.094	13.5
636.855	15.5
637.615	14.5
638.376	14.5
639.136	14.5
639.896	12.5
640.657	13.5
641.417	12.5
642.177	17.5
642.937	13.5
643.697	12.5
644.457	10.5
645.216	11.5
645.976	11.5
646.736	9.5
647.495	11.5
648.255	7.5
649.014	9.5
649.774	9.5
650.533	10.5
651.292	10.5
652.051	8.5
652.81	10.5
653.569	8.5
654.328	9.5
655.087	12.5
655.846	10.5
656.604	7.5
657.363	8.5
658.121	9.5
658.88	9.5
659.638	9.5
660.397	9.5
661.155	7.5
661.913	9.5
662.671	7.5
663.429	8.5
664.187	7.5
664.945	9.5
665.703	6.5
666.46	7.5
667.218	6.5
667.976	7.5
668.733	4.5
669.49	5.5
670.248	5.5
671.005	4.5
671.762	7.5
672.519	5.5
673.276	7.5
674.033	8.5
674.79	5.5
675.547	7.5
676.304	6.5
677.06	5.5
677.817	5.5
678.574	8.5
679.33	4.5
680.086	5.5
680.843	5.5
681.599	6.5
682.355	5.5
683.111	8.5
683.867	7.5
684.623	4.5
685.379	4.5
686.135	6.5
686.89	4.5
687.646	8.5
688.402	4.5
689.157	6.5
689.912	3.5
690.668	4.5
691.423	7.5
692.178	4.5
692.933	6.5
693.688	5.5
694.443	5.5
695.198	3.5
695.953	3.5
696.708	6.5
697.462	3.5
698.217	6.5
698.972	5.5
699.726	5.5
700.48	5.5
701.235	6.5
701.989	2.5
702.743	5.5
703.497	4.5
704.251	7.5
705.005	4.5
705.759	3.5
706.513	2.5
707.266	8.5
708.02	3.5
708.774	5.5
709.527	6.5
710.28	3.5
711.034	3.5
711.787	5.5
712.54	4.5
713.293	6.5
714.046	4.5
714.799	5.5
715.552	5.5
716.305	5.5
717.058	1.5
717.81	5.5
718.563	7.5
719.315	4.5
720.068	4.5
720.82	2.5
721.573	6.5
722.325	5.5
723.077	4.5
723.829	6.5
724.581	5.5
725.333	6.5
726.085	3.5
726.836	4.5
727.588	6.5
728.34	4.5
729.091	5.5
729.843	6.5
730.594	4.5
731.346	7.5
732.097	8.5
732.848	7.5
733.599	7.5
734.35	4.5
735.101	6.5
735.852	7.5
736.603	5.5
737.354	6.5
738.104	6.5
738.855	6.5
739.605	6.5
740.356	9.5
741.106	5.5
741.856	7.5
742.607	4.5
743.357	8.5
744.107	8.5
744.857	7.5
745.607	7.5
746.357	9.5
747.106	7.5
747.856	7.5
748.606	5.5
749.355	7.5
750.105	7.5
750.854	8.5
751.603	8.5
752.353	7.5
753.102	8.5
753.851	6.5
754.6	7.5
755.349	7.5
756.098	9.5
756.847	7.5
757.595	10.5
758.344	7.5
759.093	6.5
759.841	10.5
760.589	8.5
761.338	10.5
762.086	8.5
762.834	8.5
763.582	11.5
764.331	9.5
765.079	9.5
765.826	9.5
766.574	12.5
767.322	9.5
768.07	7.5
768.817	10.5
769.565	12.5
770.312	11.5
771.06	11.5
771.807	12.5
772.554	10.5
773.302	10.5
774.049	11.5
774.796	13.5
775.543	10.5
776.29	11.5
777.036	11.5
777.783	10.5
778.53	11.5
779.276	11.5
780.023	10.5
780.769	12.5
781.516	12.5
782.262	13.5
783.008	12.5
783.754	10.5
784.5	11.5
785.246	13.5
785.992	11.5
786.738	13.5
787.484	9.5
788.23	11.5
788.975	10.5
789.721	9.5
790.466	13.5
791.212	12.5
791.957	12.5
792.702	9.5
793.447	11.5
794.193	10.5
794.938	11.5
795.683	12.5
796.427	9.5
797.172	10.5
797.917	9.5
798.662	11.5
799.406	9.5
800.151	9.5
800.895	11.5
801.64	8.5
802.384	10.5
803.128	7.5
803.872	8.5
804.616	10.5
805.36	8.5
806.104	7.5
806.848	7.5
807.592	7.5
808.336	8.5
809.079	7.5
809.823	6.5
810.566	7.5
811.31	9.5
812.053	8.5
812.796	4.5
813.539	3.5
814.283	6.5
815.026	6.5
815.769	6.5
816.511	5.5
817.254	6.5
817.997	6.5
818.74	7.5
819.482	5.5
820.225	4.5
820.967	4.5
821.71	3.5
822.452	5.5
823.194	6.5
823.936	6.5
824.678	3.5
825.42	6.5
826.162	5.5
826.904	5.5
827.646	4.5
828.388	2.5
829.129	6.5
829.871	7.5
830.612	5.5
831.354	5.5
832.095	5.5
832.836	4.5
833.577	4.5
834.319	2.5
835.06	3.5
835.801	5.5
836.542	2.5
837.282	6.5
838.023	5.5
838.764	6.5
839.504	4.5
840.245	3.5
840.985	4.5
841.726	3.5
842.466	2.5
843.206	4.5
843.946	5.5
844.687	4.5
845.427	3.5
846.166	2.5
846.906	6.5
847.646	3.5
848.386	4.5
849.125	4.5
849.865	3.5
850.605	4.5
851.344	2.5
852.083	4.5
852.823	2.5
853.562	2.5
854.301	3.5
855.04	4.5
855.779	4.5
856.518	3.5
857.257	3.5
857.995	3.5
858.734	4.5
859.473	3.5
860.211	2.5
860.95	3.5
861.688	1.5
862.426	5.5
863.165	4.5
863.903	0.5
864.641	2.5
865.379	0.5
866.117	1.5
866.855	3.5
867.593	4.5
868.33	3.5
869.068	-0.5
869.806	1.5
870.543	0.5
871.28	1.5
872.018	2.5
872.755	0.5
873.492	0.5
874.229	1.5
874.967	2.5
875.703	1.5
876.44	0.5
877.177	4.5
877.914	1.5
878.651	2.5
879.387	0.5
880.124	3.5
880.86	2.5
881.597	2.5
882.333	2.5
883.069	0.5
883.806	2.5
884.542	0.5
885.278	2.5
886.014	2.5
886.749	1.5
887.485	4.5
888.221	0.5
888.957	0.5
889.692	0.5
890.428	-1.5
891.163	2.5
891.899	1.5
892.634	0.5
893.369	1.5
894.104	2.5
894.839	-0.5
895.574	0.5
896.309	2.5
897.044	-0.5
897.779	0.5
898.514	2.5
899.248	2.5
899.983	1.5
900.717	1.5
901.452	0.5
902.186	0.5
902.92	1.5
903.654	0.5
904.389	-1.5
905.123	-0.5
905.857	1.5
906.59	1.5
907.324	-1.5
908.058	0.5
908.792	2.5
909.525	0.5
910.259	3.5
910.992	1.5
911.726	0.5
912.459	1.5
913.192	1.5
913.925	1.5
914.658	-0.5
915.391	1.5
916.124	0.5
916.857	1.5
917.59	1.5
918.323	1.5
919.055	1.5
919.788	3.5
920.521	2.5
921.253	2.5
921.985	-0.5
922.718	0.5
923.45	-0.5
924.182	0.5
924.914	0.5
925.646	0.5
926.378	1.5
927.11	-0.5
927.841	-0.5
928.573	-0.5
929.305	1.5
930.036	1.5
930.768	0.5
931.499	0.5
932.23	-2.5
932.962	-0.5
933.693	-1.5
934.424	2.5
935.155	2.5
935.886	-0.5
936.617	-0.5
937.348	0.5
938.078	0.5
938.809	2.5
939.54	-1.5
940.27	0.5
941.001	-1.5
941.731	0.5
942.461	-1.5
943.191	1.5
943.922	-0.5
944.652	0.5
945.382	1.5
946.112	0.5
946.841	-1.5
947.571	-0.5
948.301	0.5
949.031	-0.5
949.76	0.5
950.49	0.5
951.219	0.5
951.948	1.5
952.678	0.5
953.407	-0.5
954.136	1.5
954.865	0.5
955.594	2.5
956.323	0.5
957.052	-0.5
957.78	0.5
958.509	-1.5
959.238	0.5
959.966	-0.5
960.695	-1.5
961.423	0.5
962.151	-0.5
962.88	-0.5
963.608	-0.5
964.336	0.5
965.064	1.5
965.792	1.5
966.52	3.5
967.247	0.5
967.975	1.5
968.703	0.5
969.43	2.5
970.158	-0.5
970.885	0.5
971.613	-0.5
972.34	-0.5
973.067	-0.5
973.794	-0.5
974.521	0.5
975.248	1.5
975.975	-2.5
976.702	2.5
977.429	1.5
978.156	1.5
978.882	0.5
979.609	-1.5
980.335	0.5
981.062	-0.5
981.788	-0.5
982.514	0.5
983.24	0.5
983.967	1.5
984.693	-0.5
985.419	1.5
986.144	0.5
986.87	1.5
987.596	0.5
988.322	-1.5
989.047	0.5
989.773	-1.5
990.498	1.5
991.224	1.5
991.949	-1.5
992.674	-0.5
993.399	-0.5
994.124	2.5
994.849	-1.5
995.574	2.5
996.299	0.5
997.024	-0.5
997.749	-0.5
998.473	1.5
999.198	1.5
999.922	0.5
1000.647	0.5
1001.371	4.5
1002.095	-1.5
1002.82	-1.5
1003.544	-0.5
1004.268	1.5
1004.992	2.5
1005.716	1.5
1006.439	1.5
1007.163	3.5
1007.887	-0.5
1008.611	1.5
1009.334	-0.5
1010.058	0.5
1010.781	0.5
1011.504	1.5
1012.228	0.5
1012.951	-0.5
1013.674	0.5
1014.397	0.5
1015.12	-1.5
