节点500_425_QEPB04081__288__15-53-05-948.txt的数据

Date: Wed Nov 12 15:53:05 CST 2025
User: PC
Spectrometer: QEPB0408
触发模式: 0
积分时间 (秒): 1.000000E-2
Scans to average: 1
启用暗噪声校正: true
启用非线性校正: false
滑动平均宽度: 0
X轴模式: Wavelengths
Number of Pixels in Spectrum: 1044
>>>>>Begin Spectral Data<<<<<
220.843	1.88
221.644	0.88
222.444	2.88
223.244	1.88
224.045	2.88
224.845	3.88
225.645	3.88
226.445	2.88
227.245	1.88
228.045	3.88
228.845	2.88
229.645	3.88
230.444	4.88
231.244	3.88
232.043	4.88
232.843	3.88
233.642	5.88
234.442	5.88
235.241	6.88
236.04	4.88
236.839	4.88
237.638	4.88
238.437	6.88
239.236	5.88
240.035	5.88
240.833	6.88
241.632	4.88
242.43	6.88
243.229	8.88
244.027	6.88
244.826	9.88
245.624	6.88
246.422	7.88
247.22	7.88
248.018	4.88
248.816	9.88
249.614	9.88
250.412	9.88
251.21	10.88
252.007	9.88
252.805	11.88
253.602	8.88
254.4	9.88
255.197	10.88
255.994	11.88
256.791	11.88
257.589	13.88
258.386	13.88
259.183	14.88
259.979	13.88
260.776	14.88
261.573	16.88
262.37	15.88
263.166	14.88
263.963	17.88
264.759	16.88
265.556	17.88
266.352	15.88
267.148	17.88
267.944	18.88
268.74	19.88
269.536	19.88
270.332	18.88
271.128	22.88
271.924	21.88
272.719	22.88
273.515	19.88
274.311	19.88
275.106	22.88
275.901	24.88
276.697	21.88
277.492	24.88
278.287	23.88
279.082	20.88
279.877	23.88
280.672	20.88
281.467	24.88
282.262	21.88
283.056	23.88
283.851	25.88
284.646	23.88
285.44	24.88
286.234	22.88
287.029	22.88
287.823	23.88
288.617	24.88
289.411	24.88
290.205	24.88
290.999	22.88
291.793	23.88
292.587	22.88
293.381	24.88
294.174	22.88
294.968	21.88
295.761	20.88
296.555	20.88
297.348	16.88
298.141	20.88
298.935	22.88
299.728	19.88
300.521	16.88
301.314	13.88
302.107	18.88
302.899	15.88
303.692	16.88
304.485	14.88
305.277	13.88
306.07	16.88
306.862	15.88
307.655	11.88
308.447	15.88
309.239	15.88
310.031	15.88
310.823	11.88
311.615	15.88
312.407	13.88
313.199	11.88
313.991	10.88
314.783	13.88
315.574	11.88
316.366	10.88
317.157	9.88
317.949	12.88
318.74	8.88
319.531	9.88
320.322	9.88
321.113	8.88
321.904	7.88
322.695	10.88
323.486	10.88
324.277	7.88
325.068	9.88
325.858	10.88
326.649	8.88
327.439	7.88
328.23	8.88
329.02	8.88
329.81	6.88
330.6	7.88
331.391	8.88
332.181	7.88
332.971	8.88
333.76	6.88
334.55	7.88
335.34	7.88
336.13	8.88
336.919	6.88
337.709	9.88
338.498	9.88
339.287	6.88
340.077	7.88
340.866	8.88
341.655	8.88
342.444	7.88
343.233	7.88
344.022	7.88
344.811	6.88
345.6	7.88
346.388	8.88
347.177	7.88
347.965	9.88
348.754	5.88
349.542	7.88
350.33	6.88
351.119	7.88
351.907	7.88
352.695	5.88
353.483	8.88
354.271	6.88
355.059	7.88
355.846	4.88
356.634	7.88
357.422	5.88
358.209	5.88
358.997	6.88
359.784	6.88
360.571	5.88
361.359	8.88
362.146	5.88
362.933	5.88
363.72	5.88
364.507	6.88
365.294	6.88
366.081	4.88
366.867	5.88
367.654	6.88
368.44	4.88
369.227	4.88
370.013	6.88
370.8	5.88
371.586	5.88
372.372	6.88
373.158	5.88
373.944	5.88
374.73	8.88
375.516	5.88
376.302	3.88
377.088	8.88
377.873	4.88
378.659	7.88
379.445	4.88
380.23	8.88
381.015	4.88
381.801	7.88
382.586	6.88
383.371	6.88
384.156	6.88
384.941	5.88
385.726	6.88
386.511	3.88
387.296	7.88
388.08	5.88
388.865	5.88
389.649	8.88
390.434	6.88
391.218	7.88
392.003	6.88
392.787	6.88
393.571	8.88
394.355	5.88
395.139	9.88
395.923	6.88
396.707	6.88
397.491	8.88
398.274	6.88
399.058	9.88
399.842	6.88
400.625	9.88
401.408	8.88
402.192	8.88
402.975	7.88
403.758	8.88
404.541	10.88
405.324	12.88
406.107	10.88
406.89	9.88
407.673	8.88
408.456	11.88
409.238	12.88
410.021	12.88
410.803	9.88
411.586	9.88
412.368	10.88
413.151	10.88
413.933	13.88
414.715	11.88
415.497	12.88
416.279	11.88
417.061	9.88
417.843	10.88
418.624	12.88
419.406	15.88
420.188	11.88
420.969	14.88
421.751	17.88
422.532	16.88
423.313	13.88
424.095	15.88
424.876	15.88
425.657	15.88
426.438	16.88
427.219	17.88
428	15.88
428.78	17.88
429.561	18.88
430.342	19.88
431.122	17.88
431.903	22.88
432.683	21.88
433.464	21.88
434.244	21.88
435.024	20.88
435.804	24.88
436.584	25.88
437.364	26.88
438.144	29.88
438.924	26.88
439.704	31.88
440.483	30.88
441.263	36.88
442.042	36.88
442.822	38.88
443.601	43.88
444.38	43.88
445.16	47.88
445.939	51.88
446.718	56.88
447.497	62.88
448.276	64.88
449.054	69.88
449.833	76.88
450.612	86.88
451.391	91.88
452.169	98.88
452.948	110.88
453.726	122.88
454.504	140.88
455.282	150.88
456.061	158.88
456.839	186.88
457.617	206.88
458.395	230.88
459.172	251.88
459.95	284.88
460.728	316.88
461.506	350.88
462.283	392.88
463.061	437.88
463.838	502.88
464.615	551.88
465.393	625.88
466.17	693.88
466.947	756.88
467.724	851.88
468.501	943.88
469.278	1057.88
470.055	1164.88
470.831	1288.88
471.608	1445.88
472.385	1599.88
473.161	1765.88
473.938	1926.88
474.714	2150.88
475.49	2372.88
476.266	2617.88
477.043	2878.88
477.819	3172.88
478.595	3489.88
479.371	3845.88
480.146	4230.88
480.922	4643.88
481.698	5063.88
482.473	5550.88
483.249	6117.88
484.024	6681.88
484.8	7355.88
485.575	8013.88
486.35	8706.88
487.126	9522.88
487.901	10333.88
488.676	11312.88
489.451	12281.88
490.225	13362.88
491	14513.88
491.775	15700.88
492.55	16932.88
493.324	18268.88
494.099	19496.88
494.873	20858.88
495.647	22229.88
496.422	23705.88
497.196	25206.88
497.97	26609.88
498.744	28076.88
499.518	29323.88
500.292	30683.88
501.066	31736.88
501.839	32838.88
502.613	33824.88
503.387	34430.88
504.16	34956.88
504.934	35337.88
505.707	35369.88
506.48	35216.88
507.253	34976.88
508.027	34569.88
508.8	33997.88
509.573	33305.88
510.346	32475.88
511.118	31478.88
511.891	30488.88
512.664	29426.88
513.437	28207.88
514.209	27085.88
514.982	26077.88
515.754	25054.88
516.526	23949.88
517.298	22996.88
518.071	22013.88
518.843	21071.88
519.615	20233.88
520.387	19425.88
521.159	18612.88
521.93	17991.88
522.702	17287.88
523.474	16536.88
524.245	15900.88
525.017	15159.88
525.788	14488.88
526.56	13853.88
527.331	13212.88
528.102	12657.88
528.873	11997.88
529.644	11380.88
530.415	10889.88
531.186	10438.88
531.957	9786.88
532.728	9307.88
533.498	8774.88
534.269	8291.88
535.039	7840.88
535.81	7429.88
536.58	7035.88
537.351	6617.88
538.121	6230.88
538.891	5932.88
539.661	5633.88
540.431	5313.88
541.201	5021.88
541.971	4780.88
542.741	4527.88
543.51	4298.88
544.28	4088.88
545.05	3874.88
545.819	3700.88
546.588	3536.88
547.358	3337.88
548.127	3156.88
548.896	3017.88
549.665	2849.88
550.434	2706.88
551.203	2565.88
551.972	2424.88
552.741	2275.88
553.51	2187.88
554.278	2070.88
555.047	1924.88
555.815	1816.88
556.584	1738.88
557.352	1631.88
558.121	1540.88
558.889	1453.88
559.657	1375.88
560.425	1297.88
561.193	1222.88
561.961	1153.88
562.729	1097.88
563.496	1045.88
564.264	985.88
565.032	924.88
565.799	876.88
566.567	828.88
567.334	777.88
568.101	741.88
568.869	698.88
569.636	657.88
570.403	624.88
571.17	579.88
571.937	547.88
572.704	519.88
573.471	495.88
574.237	462.88
575.004	437.88
575.771	411.88
576.537	381.88
577.303	365.88
578.07	347.88
578.836	323.88
579.602	305.88
580.368	289.88
581.134	268.88
581.9	261.88
582.666	244.88
583.432	239.88
584.198	230.88
584.964	208.88
585.729	196.88
586.495	184.88
587.26	177.88
588.025	170.88
588.791	159.88
589.556	154.88
590.321	147.88
591.086	136.88
591.851	127.88
592.616	124.88
593.381	117.88
594.146	109.88
594.911	109.88
595.675	101.88
596.44	95.88
597.204	93.88
597.969	92.88
598.733	87.88
599.497	81.88
600.261	79.88
601.025	75.88
601.79	67.88
602.553	66.88
603.317	63.88
604.081	59.88
604.845	61.88
605.609	59.88
606.372	54.88
607.136	53.88
607.899	51.88
608.662	51.88
609.426	45.88
610.189	45.88
610.952	46.88
611.715	41.88
612.478	39.88
613.241	36.88
614.004	36.88
614.767	35.88
615.529	35.88
616.292	33.88
617.055	29.88
617.817	33.88
618.579	30.88
619.342	29.88
620.104	27.88
620.866	26.88
621.628	26.88
622.39	24.88
623.152	25.88
623.914	25.88
624.676	23.88
625.438	20.88
626.199	22.88
626.961	21.88
627.722	23.88
628.484	19.88
629.245	17.88
630.006	18.88
630.768	17.88
631.529	19.88
632.29	15.88
633.051	15.88
633.812	15.88
634.573	16.88
635.333	12.88
636.094	13.88
636.855	13.88
637.615	12.88
638.376	14.88
639.136	15.88
639.896	13.88
640.657	11.88
641.417	14.88
642.177	12.88
642.937	11.88
643.697	9.88
644.457	10.88
645.216	12.88
645.976	8.88
646.736	10.88
647.495	11.88
648.255	10.88
649.014	10.88
649.774	10.88
650.533	9.88
651.292	9.88
652.051	6.88
652.81	9.88
653.569	6.88
654.328	9.88
655.087	8.88
655.846	8.88
656.604	8.88
657.363	5.88
658.121	7.88
658.88	8.88
659.638	10.88
660.397	7.88
661.155	6.88
661.913	7.88
662.671	4.88
663.429	7.88
664.187	6.88
664.945	3.88
665.703	5.88
666.46	3.88
667.218	6.88
667.976	4.88
668.733	6.88
669.49	5.88
670.248	4.88
671.005	6.88
671.762	4.88
672.519	6.88
673.276	3.88
674.033	3.88
674.79	6.88
675.547	4.88
676.304	5.88
677.06	2.88
677.817	6.88
678.574	3.88
679.33	5.88
680.086	4.88
680.843	1.88
681.599	6.88
682.355	4.88
683.111	5.88
683.867	7.88
684.623	4.88
685.379	4.88
686.135	5.88
686.89	4.88
687.646	4.88
688.402	4.88
689.157	1.88
689.912	3.88
690.668	4.88
691.423	3.88
692.178	3.88
692.933	3.88
693.688	2.88
694.443	6.88
695.198	4.88
695.953	5.88
696.708	5.88
697.462	5.88
698.217	6.88
698.972	3.88
699.726	3.88
700.48	3.88
701.235	4.88
701.989	5.88
702.743	3.88
703.497	6.88
704.251	4.88
705.005	6.88
705.759	4.88
706.513	4.88
707.266	4.88
708.02	4.88
708.774	5.88
709.527	3.88
710.28	5.88
711.034	4.88
711.787	3.88
712.54	3.88
713.293	4.88
714.046	4.88
714.799	5.88
715.552	2.88
716.305	5.88
717.058	4.88
717.81	4.88
718.563	4.88
719.315	4.88
720.068	1.88
720.82	4.88
721.573	6.88
722.325	3.88
723.077	5.88
723.829	5.88
724.581	4.88
725.333	4.88
726.085	4.88
726.836	1.88
727.588	5.88
728.34	5.88
729.091	2.88
729.843	3.88
730.594	3.88
731.346	2.88
732.097	6.88
732.848	4.88
733.599	5.88
734.35	4.88
735.101	5.88
735.852	5.88
736.603	4.88
737.354	4.88
738.104	5.88
738.855	5.88
739.605	7.88
740.356	3.88
741.106	3.88
741.856	5.88
742.607	5.88
743.357	6.88
744.107	6.88
744.857	6.88
745.607	6.88
746.357	6.88
747.106	5.88
747.856	5.88
748.606	5.88
749.355	5.88
750.105	7.88
750.854	5.88
751.603	7.88
752.353	6.88
753.102	4.88
753.851	7.88
754.6	6.88
755.349	8.88
756.098	5.88
756.847	8.88
757.595	7.88
758.344	7.88
759.093	7.88
759.841	7.88
760.589	9.88
761.338	8.88
762.086	6.88
762.834	6.88
763.582	6.88
764.331	6.88
765.079	8.88
765.826	8.88
766.574	10.88
767.322	6.88
768.07	9.88
768.817	9.88
769.565	10.88
770.312	6.88
771.06	9.88
771.807	8.88
772.554	8.88
773.302	11.88
774.049	10.88
774.796	8.88
775.543	10.88
776.29	10.88
777.036	8.88
777.783	10.88
778.53	9.88
779.276	9.88
780.023	9.88
780.769	9.88
781.516	10.88
782.262	10.88
783.008	10.88
783.754	9.88
784.5	12.88
785.246	10.88
785.992	9.88
786.738	13.88
787.484	13.88
788.23	8.88
788.975	9.88
789.721	8.88
790.466	10.88
791.212	9.88
791.957	9.88
792.702	11.88
793.447	9.88
794.193	8.88
794.938	11.88
795.683	9.88
796.427	7.88
797.172	10.88
797.917	9.88
798.662	7.88
799.406	8.88
800.151	7.88
800.895	9.88
801.64	6.88
802.384	9.88
803.128	6.88
803.872	9.88
804.616	5.88
805.36	8.88
806.104	6.88
806.848	4.88
807.592	6.88
808.336	4.88
809.079	7.88
809.823	5.88
810.566	6.88
811.31	5.88
812.053	5.88
812.796	6.88
813.539	5.88
814.283	6.88
815.026	5.88
815.769	7.88
816.511	4.88
817.254	3.88
817.997	5.88
818.74	5.88
819.482	3.88
820.225	6.88
820.967	4.88
821.71	5.88
822.452	4.88
823.194	3.88
823.936	8.88
824.678	4.88
825.42	1.88
826.162	3.88
826.904	6.88
827.646	4.88
828.388	3.88
829.129	4.88
829.871	2.88
830.612	5.88
831.354	2.88
832.095	3.88
832.836	2.88
833.577	2.88
834.319	3.88
835.06	4.88
835.801	4.88
836.542	2.88
837.282	2.88
838.023	4.88
838.764	1.88
839.504	1.88
840.245	3.88
840.985	3.88
841.726	3.88
842.466	3.88
843.206	2.88
843.946	3.88
844.687	3.88
845.427	2.88
846.166	4.88
846.906	3.88
847.646	1.88
848.386	3.88
849.125	2.88
849.865	1.88
850.605	2.88
851.344	2.88
852.083	3.88
852.823	4.88
853.562	1.88
854.301	2.88
855.04	2.88
855.779	2.88
856.518	1.88
857.257	3.88
857.995	0.88
858.734	2.88
859.473	0.88
860.211	2.88
860.95	3.88
861.688	3.88
862.426	2.88
863.165	4.88
863.903	3.88
864.641	2.88
865.379	1.88
866.117	3.88
866.855	0.88
867.593	2.88
868.33	2.88
869.068	1.88
869.806	-0.12
870.543	0.88
871.28	-0.12
872.018	-1.12
872.755	1.88
873.492	1.88
874.229	-0.12
874.967	1.88
875.703	0.88
876.44	0.88
877.177	3.88
877.914	0.88
878.651	0.88
879.387	-1.12
880.124	0.88
880.86	-0.12
881.597	1.88
882.333	0.88
883.069	0.88
883.806	1.88
884.542	-0.12
885.278	2.88
886.014	0.88
886.749	-0.12
887.485	-0.12
888.221	0.88
888.957	-0.12
889.692	1.88
890.428	0.88
891.163	-0.12
891.899	-2.12
892.634	1.88
893.369	0.88
894.104	-0.12
894.839	-0.12
895.574	-1.12
896.309	-0.12
897.044	0.88
897.779	-1.12
898.514	-0.12
899.248	0.88
899.983	0.88
900.717	0.88
901.452	-0.12
902.186	-1.12
902.92	0.88
903.654	-0.12
904.389	1.88
905.123	-2.12
905.857	1.88
906.59	2.88
907.324	1.88
908.058	0.88
908.792	-0.12
909.525	-1.12
910.259	-1.12
910.992	0.88
911.726	0.88
912.459	-2.12
913.192	1.88
913.925	0.88
914.658	-0.12
915.391	-0.12
916.124	-1.12
916.857	0.88
917.59	-0.12
918.323	-1.12
919.055	-0.12
919.788	-1.12
920.521	-0.12
921.253	-1.12
921.985	-2.12
922.718	-2.12
923.45	1.88
924.182	0.88
924.914	-1.12
925.646	1.88
926.378	-0.12
927.11	0.88
927.841	0.88
928.573	-1.12
929.305	-1.12
930.036	-1.12
930.768	0.88
931.499	-0.12
932.23	0.88
932.962	-0.12
933.693	-1.12
934.424	0.88
935.155	-1.12
935.886	2.88
936.617	0.88
937.348	-0.12
938.078	0.88
938.809	0.88
939.54	0.88
940.27	-1.12
941.001	-1.12
941.731	0.88
942.461	0.88
943.191	-1.12
943.922	-0.12
944.652	-0.12
945.382	-0.12
946.112	-1.12
946.841	1.88
947.571	-0.12
948.301	-0.12
949.031	-1.12
949.76	-0.12
950.49	0.88
951.219	-1.12
951.948	-1.12
952.678	-0.12
953.407	-0.12
954.136	1.88
954.865	-2.12
955.594	-0.12
956.323	-2.12
957.052	0.88
957.78	-1.12
958.509	0.88
959.238	-0.12
959.966	-2.12
960.695	1.88
961.423	-1.12
962.151	-2.12
962.88	1.88
963.608	-0.12
964.336	-1.12
965.064	-1.12
965.792	-0.12
966.52	-3.12
967.247	-0.12
967.975	-2.12
968.703	-0.12
969.43	-0.12
970.158	-0.12
970.885	-1.12
971.613	-0.12
972.34	-3.12
973.067	0.88
973.794	-1.12
974.521	1.88
975.248	-0.12
975.975	-2.12
976.702	-0.12
977.429	0.88
978.156	-0.12
978.882	-1.12
979.609	-0.12
980.335	0.88
981.062	-0.12
981.788	1.88
982.514	-1.12
983.24	0.88
983.967	-1.12
984.693	-0.12
985.419	-0.12
986.144	-0.12
986.87	1.88
987.596	-2.12
988.322	0.88
989.047	-0.12
989.773	-0.12
990.498	1.88
991.224	-1.12
991.949	-1.12
992.674	-0.12
993.399	-0.12
994.124	-1.12
994.849	-0.12
995.574	-0.12
996.299	-0.12
997.024	0.88
997.749	2.88
998.473	-1.12
999.198	-1.12
999.922	-2.12
1000.647	1.88
1001.371	3.88
1002.095	-2.12
1002.82	-1.12
1003.544	-1.12
1004.268	3.88
1004.992	3.88
1005.716	0.88
1006.439	-0.12
1007.163	1.88
1007.887	1.88
1008.611	-1.12
1009.334	0.88
1010.058	-1.12
1010.781	1.88
1011.504	0.88
1012.228	-1.12
1012.951	-1.12
1013.674	1.88
1014.397	-0.12
1015.12	-0.12
