节点500_425_QEPB04081__497__15-56-34-581.txt的数据

Date: Wed Nov 12 15:56:34 CST 2025
User: PC
Spectrometer: QEPB0408
触发模式: 0
积分时间 (秒): 1.000000E-2
Scans to average: 1
启用暗噪声校正: true
启用非线性校正: false
滑动平均宽度: 0
X轴模式: Wavelengths
Number of Pixels in Spectrum: 1044
>>>>>Begin Spectral Data<<<<<
220.843	3.38
221.644	1.38
222.444	2.38
223.244	3.38
224.045	3.38
224.845	2.38
225.645	2.38
226.445	0.38
227.245	3.38
228.045	5.38
228.845	3.38
229.645	1.38
230.444	3.38
231.244	4.38
232.043	2.38
232.843	6.38
233.642	3.38
234.442	1.38
235.241	5.38
236.04	4.38
236.839	3.38
237.638	5.38
238.437	7.38
239.236	2.38
240.035	4.38
240.833	6.38
241.632	6.38
242.43	3.38
243.229	4.38
244.027	8.38
244.826	6.38
245.624	6.38
246.422	8.38
247.22	4.38
248.018	8.38
248.816	7.38
249.614	7.38
250.412	7.38
251.21	6.38
252.007	7.38
252.805	7.38
253.602	8.38
254.4	8.38
255.197	9.38
255.994	8.38
256.791	9.38
257.589	11.38
258.386	9.38
259.183	12.38
259.979	9.38
260.776	12.38
261.573	12.38
262.37	8.38
263.166	10.38
263.963	13.38
264.759	13.38
265.556	15.38
266.352	12.38
267.148	14.38
267.944	14.38
268.74	13.38
269.536	17.38
270.332	18.38
271.128	18.38
271.924	17.38
272.719	17.38
273.515	20.38
274.311	17.38
275.106	19.38
275.901	21.38
276.697	21.38
277.492	17.38
278.287	18.38
279.082	20.38
279.877	18.38
280.672	20.38
281.467	22.38
282.262	20.38
283.056	18.38
283.851	21.38
284.646	20.38
285.44	21.38
286.234	23.38
287.029	20.38
287.823	22.38
288.617	20.38
289.411	21.38
290.205	21.38
290.999	23.38
291.793	22.38
292.587	16.38
293.381	18.38
294.174	20.38
294.968	16.38
295.761	17.38
296.555	17.38
297.348	17.38
298.141	17.38
298.935	16.38
299.728	15.38
300.521	16.38
301.314	18.38
302.107	14.38
302.899	15.38
303.692	13.38
304.485	12.38
305.277	15.38
306.07	16.38
306.862	13.38
307.655	12.38
308.447	10.38
309.239	15.38
310.031	12.38
310.823	13.38
311.615	13.38
312.407	13.38
313.199	13.38
313.991	8.38
314.783	10.38
315.574	10.38
316.366	11.38
317.157	11.38
317.949	9.38
318.74	9.38
319.531	9.38
320.322	7.38
321.113	11.38
321.904	10.38
322.695	8.38
323.486	9.38
324.277	10.38
325.068	9.38
325.858	9.38
326.649	7.38
327.439	6.38
328.23	7.38
329.02	8.38
329.81	9.38
330.6	8.38
331.391	8.38
332.181	8.38
332.971	6.38
333.76	9.38
334.55	7.38
335.34	7.38
336.13	8.38
336.919	6.38
337.709	6.38
338.498	6.38
339.287	4.38
340.077	8.38
340.866	7.38
341.655	6.38
342.444	7.38
343.233	6.38
344.022	6.38
344.811	6.38
345.6	6.38
346.388	8.38
347.177	7.38
347.965	7.38
348.754	5.38
349.542	5.38
350.33	3.38
351.119	5.38
351.907	6.38
352.695	5.38
353.483	5.38
354.271	8.38
355.059	8.38
355.846	8.38
356.634	7.38
357.422	5.38
358.209	5.38
358.997	6.38
359.784	4.38
360.571	5.38
361.359	4.38
362.146	4.38
362.933	4.38
363.72	4.38
364.507	3.38
365.294	5.38
366.081	6.38
366.867	6.38
367.654	5.38
368.44	6.38
369.227	6.38
370.013	6.38
370.8	5.38
371.586	6.38
372.372	4.38
373.158	5.38
373.944	5.38
374.73	4.38
375.516	4.38
376.302	4.38
377.088	5.38
377.873	6.38
378.659	5.38
379.445	3.38
380.23	6.38
381.015	3.38
381.801	5.38
382.586	5.38
383.371	5.38
384.156	6.38
384.941	5.38
385.726	6.38
386.511	5.38
387.296	6.38
388.08	7.38
388.865	5.38
389.649	5.38
390.434	6.38
391.218	5.38
392.003	7.38
392.787	7.38
393.571	5.38
394.355	8.38
395.139	6.38
395.923	7.38
396.707	6.38
397.491	7.38
398.274	5.38
399.058	6.38
399.842	7.38
400.625	5.38
401.408	7.38
402.192	8.38
402.975	9.38
403.758	6.38
404.541	7.38
405.324	7.38
406.107	9.38
406.89	6.38
407.673	8.38
408.456	9.38
409.238	9.38
410.021	8.38
410.803	8.38
411.586	10.38
412.368	7.38
413.151	9.38
413.933	10.38
414.715	8.38
415.497	9.38
416.279	11.38
417.061	10.38
417.843	11.38
418.624	12.38
419.406	11.38
420.188	11.38
420.969	11.38
421.751	9.38
422.532	11.38
423.313	12.38
424.095	12.38
424.876	15.38
425.657	13.38
426.438	16.38
427.219	14.38
428	14.38
428.78	15.38
429.561	17.38
430.342	16.38
431.122	19.38
431.903	19.38
432.683	17.38
433.464	20.38
434.244	20.38
435.024	20.38
435.804	22.38
436.584	25.38
437.364	26.38
438.144	23.38
438.924	28.38
439.704	27.38
440.483	31.38
441.263	33.38
442.042	38.38
442.822	40.38
443.601	41.38
444.38	45.38
445.16	48.38
445.939	53.38
446.718	54.38
447.497	59.38
448.276	67.38
449.054	67.38
449.833	77.38
450.612	86.38
451.391	91.38
452.169	103.38
452.948	112.38
453.726	120.38
454.504	137.38
455.282	151.38
456.061	173.38
456.839	190.38
457.617	212.38
458.395	229.38
459.172	260.38
459.95	287.38
460.728	321.38
461.506	356.38
462.283	400.38
463.061	446.38
463.838	500.38
464.615	550.38
465.393	617.38
466.17	673.38
466.947	759.38
467.724	833.38
468.501	931.38
469.278	1017.38
470.055	1136.38
470.831	1243.38
471.608	1375.38
472.385	1536.38
473.161	1676.38
473.938	1834.38
474.714	2047.38
475.49	2230.38
476.266	2438.38
477.043	2691.38
477.819	2974.38
478.595	3222.38
479.371	3550.38
480.146	3853.38
480.922	4213.38
481.698	4628.38
482.473	5034.38
483.249	5514.38
484.024	5990.38
484.8	6518.38
485.575	7049.38
486.35	7680.38
487.126	8371.38
487.901	9082.38
488.676	9832.38
489.451	10635.38
490.225	11504.38
491	12490.38
491.775	13496.38
492.55	14476.38
493.324	15579.38
494.099	16697.38
494.873	17741.38
495.647	18993.38
496.422	20153.38
497.196	21388.38
497.97	22682.38
498.744	23919.38
499.518	25177.38
500.292	26192.38
501.066	27326.38
501.839	28354.38
502.613	29268.38
503.387	29995.38
504.16	30583.38
504.934	31023.38
505.707	31195.38
506.48	31304.38
507.253	31300.38
508.027	31163.38
508.8	30839.38
509.573	30344.38
510.346	29755.38
511.118	29122.38
511.891	28350.38
512.664	27482.38
513.437	26533.38
514.209	25470.38
514.982	24693.38
515.754	23708.38
516.526	22771.38
517.298	21842.38
518.071	20968.38
518.843	20138.38
519.615	19280.38
520.387	18506.38
521.159	17805.38
521.93	17197.38
522.702	16477.38
523.474	15850.38
524.245	15224.38
525.017	14553.38
525.788	13869.38
526.56	13295.38
527.331	12741.38
528.102	12104.38
528.873	11597.38
529.644	11061.38
530.415	10550.38
531.186	10079.38
531.957	9593.38
532.728	9064.38
533.498	8577.38
534.269	8125.38
535.039	7705.38
535.81	7301.38
536.58	6936.38
537.351	6504.38
538.121	6163.38
538.891	5858.38
539.661	5542.38
540.431	5251.38
541.201	4982.38
541.971	4695.38
542.741	4446.38
543.51	4260.38
544.28	4027.38
545.05	3819.38
545.819	3649.38
546.588	3462.38
547.358	3274.38
548.127	3107.38
548.896	2950.38
549.665	2823.38
550.434	2680.38
551.203	2543.38
551.972	2408.38
552.741	2267.38
553.51	2150.38
554.278	2035.38
555.047	1913.38
555.815	1813.38
556.584	1720.38
557.352	1633.38
558.121	1522.38
558.889	1446.38
559.657	1383.38
560.425	1291.38
561.193	1227.38
561.961	1159.38
562.729	1094.38
563.496	1044.38
564.264	978.38
565.032	916.38
565.799	874.38
566.567	831.38
567.334	786.38
568.101	735.38
568.869	695.38
569.636	658.38
570.403	615.38
571.17	589.38
571.937	559.38
572.704	529.38
573.471	493.38
574.237	467.38
575.004	430.38
575.771	418.38
576.537	382.38
577.303	363.38
578.07	338.38
578.836	326.38
579.602	302.38
580.368	294.38
581.134	277.38
581.9	261.38
582.666	249.38
583.432	233.38
584.198	224.38
584.964	212.38
585.729	199.38
586.495	189.38
587.26	176.38
588.025	171.38
588.791	164.38
589.556	152.38
590.321	144.38
591.086	138.38
591.851	134.38
592.616	126.38
593.381	121.38
594.146	106.38
594.911	101.38
595.675	98.38
596.44	99.38
597.204	95.38
597.969	90.38
598.733	88.38
599.497	85.38
600.261	81.38
601.025	78.38
601.79	69.38
602.553	68.38
603.317	66.38
604.081	60.38
604.845	58.38
605.609	57.38
606.372	57.38
607.136	54.38
607.899	49.38
608.662	50.38
609.426	47.38
610.189	48.38
610.952	42.38
611.715	44.38
612.478	36.38
613.241	39.38
614.004	38.38
614.767	34.38
615.529	36.38
616.292	34.38
617.055	29.38
617.817	33.38
618.579	29.38
619.342	31.38
620.104	26.38
620.866	25.38
621.628	24.38
622.39	23.38
623.152	23.38
623.914	23.38
624.676	24.38
625.438	20.38
626.199	22.38
626.961	20.38
627.722	17.38
628.484	17.38
629.245	18.38
630.006	16.38
630.768	16.38
631.529	17.38
632.29	18.38
633.051	15.38
633.812	13.38
634.573	13.38
635.333	13.38
636.094	15.38
636.855	11.38
637.615	13.38
638.376	11.38
639.136	11.38
639.896	10.38
640.657	11.38
641.417	10.38
642.177	9.38
642.937	12.38
643.697	9.38
644.457	10.38
645.216	10.38
645.976	8.38
646.736	7.38
647.495	8.38
648.255	9.38
649.014	6.38
649.774	7.38
650.533	9.38
651.292	7.38
652.051	9.38
652.81	6.38
653.569	8.38
654.328	7.38
655.087	7.38
655.846	6.38
656.604	6.38
657.363	5.38
658.121	8.38
658.88	9.38
659.638	7.38
660.397	5.38
661.155	4.38
661.913	7.38
662.671	6.38
663.429	5.38
664.187	6.38
664.945	4.38
665.703	7.38
666.46	3.38
667.218	5.38
667.976	4.38
668.733	7.38
669.49	2.38
670.248	4.38
671.005	4.38
671.762	3.38
672.519	6.38
673.276	3.38
674.033	4.38
674.79	3.38
675.547	4.38
676.304	3.38
677.06	3.38
677.817	5.38
678.574	2.38
679.33	5.38
680.086	1.38
680.843	3.38
681.599	6.38
682.355	4.38
683.111	4.38
683.867	3.38
684.623	3.38
685.379	1.38
686.135	5.38
686.89	4.38
687.646	4.38
688.402	5.38
689.157	3.38
689.912	4.38
690.668	2.38
691.423	5.38
692.178	2.38
692.933	3.38
693.688	4.38
694.443	3.38
695.198	5.38
695.953	5.38
696.708	2.38
697.462	3.38
698.217	2.38
698.972	3.38
699.726	1.38
700.48	3.38
701.235	3.38
701.989	4.38
702.743	1.38
703.497	2.38
704.251	5.38
705.005	3.38
705.759	3.38
706.513	3.38
707.266	2.38
708.02	3.38
708.774	5.38
709.527	4.38
710.28	4.38
711.034	2.38
711.787	4.38
712.54	2.38
713.293	5.38
714.046	1.38
714.799	3.38
715.552	4.38
716.305	3.38
717.058	5.38
717.81	3.38
718.563	2.38
719.315	5.38
720.068	3.38
720.82	2.38
721.573	6.38
722.325	5.38
723.077	2.38
723.829	3.38
724.581	5.38
725.333	1.38
726.085	7.38
726.836	2.38
727.588	4.38
728.34	5.38
729.091	5.38
729.843	5.38
730.594	2.38
731.346	4.38
732.097	5.38
732.848	4.38
733.599	5.38
734.35	4.38
735.101	4.38
735.852	4.38
736.603	5.38
737.354	5.38
738.104	3.38
738.855	4.38
739.605	3.38
740.356	5.38
741.106	3.38
741.856	5.38
742.607	5.38
743.357	2.38
744.107	4.38
744.857	5.38
745.607	6.38
746.357	6.38
747.106	3.38
747.856	4.38
748.606	7.38
749.355	6.38
750.105	4.38
750.854	6.38
751.603	6.38
752.353	4.38
753.102	5.38
753.851	5.38
754.6	6.38
755.349	7.38
756.098	6.38
756.847	5.38
757.595	5.38
758.344	6.38
759.093	5.38
759.841	6.38
760.589	8.38
761.338	5.38
762.086	7.38
762.834	8.38
763.582	7.38
764.331	9.38
765.079	9.38
765.826	7.38
766.574	6.38
767.322	8.38
768.07	6.38
768.817	8.38
769.565	9.38
770.312	9.38
771.06	8.38
771.807	8.38
772.554	6.38
773.302	9.38
774.049	7.38
774.796	9.38
775.543	10.38
776.29	6.38
777.036	8.38
777.783	8.38
778.53	10.38
779.276	8.38
780.023	9.38
780.769	9.38
781.516	10.38
782.262	8.38
783.008	8.38
783.754	11.38
784.5	11.38
785.246	7.38
785.992	6.38
786.738	12.38
787.484	9.38
788.23	9.38
788.975	9.38
789.721	7.38
790.466	8.38
791.212	8.38
791.957	10.38
792.702	9.38
793.447	8.38
794.193	6.38
794.938	6.38
795.683	7.38
796.427	8.38
797.172	7.38
797.917	7.38
798.662	7.38
799.406	7.38
800.151	7.38
800.895	8.38
801.64	6.38
802.384	6.38
803.128	5.38
803.872	7.38
804.616	7.38
805.36	6.38
806.104	6.38
806.848	7.38
807.592	3.38
808.336	6.38
809.079	6.38
809.823	6.38
810.566	6.38
811.31	3.38
812.053	6.38
812.796	5.38
813.539	5.38
814.283	6.38
815.026	4.38
815.769	5.38
816.511	9.38
817.254	3.38
817.997	3.38
818.74	4.38
819.482	5.38
820.225	1.38
820.967	4.38
821.71	4.38
822.452	3.38
823.194	5.38
823.936	4.38
824.678	4.38
825.42	4.38
826.162	5.38
826.904	5.38
827.646	3.38
828.388	5.38
829.129	2.38
829.871	3.38
830.612	2.38
831.354	4.38
832.095	3.38
832.836	6.38
833.577	5.38
834.319	4.38
835.06	2.38
835.801	2.38
836.542	3.38
837.282	2.38
838.023	1.38
838.764	3.38
839.504	2.38
840.245	3.38
840.985	2.38
841.726	2.38
842.466	3.38
843.206	2.38
843.946	3.38
844.687	3.38
845.427	0.38
846.166	2.38
846.906	3.38
847.646	2.38
848.386	2.38
849.125	2.38
849.865	2.38
850.605	1.38
851.344	3.38
852.083	3.38
852.823	1.38
853.562	2.38
854.301	1.38
855.04	1.38
855.779	1.38
856.518	0.38
857.257	0.38
857.995	3.38
858.734	1.38
859.473	0.38
860.211	2.38
860.95	1.38
861.688	0.38
862.426	1.38
863.165	-0.62
863.903	2.38
864.641	-0.62
865.379	3.38
866.117	3.38
866.855	0.38
867.593	2.38
868.33	1.38
869.068	1.38
869.806	3.38
870.543	3.38
871.28	0.38
872.018	1.38
872.755	1.38
873.492	2.38
874.229	0.38
874.967	0.38
875.703	1.38
876.44	0.38
877.177	1.38
877.914	-0.62
878.651	-0.62
879.387	-0.62
880.124	1.38
880.86	1.38
881.597	0.38
882.333	1.38
883.069	-0.62
883.806	0.38
884.542	-0.62
885.278	1.38
886.014	-1.62
886.749	-0.62
887.485	0.38
888.221	0.38
888.957	-1.62
889.692	-0.62
890.428	-0.62
891.163	-1.62
891.899	0.38
892.634	-1.62
893.369	-0.62
894.104	0.38
894.839	0.38
895.574	0.38
896.309	0.38
897.044	2.38
897.779	-2.62
898.514	-0.62
899.248	-1.62
899.983	-1.62
900.717	-1.62
901.452	1.38
902.186	0.38
902.92	0.38
903.654	0.38
904.389	0.38
905.123	0.38
905.857	0.38
906.59	-0.62
907.324	-1.62
908.058	1.38
908.792	-1.62
909.525	-0.62
910.259	-1.62
910.992	-1.62
911.726	-0.62
912.459	1.38
913.192	-0.62
913.925	-0.62
914.658	-0.62
915.391	0.38
916.124	-0.62
916.857	-0.62
917.59	-0.62
918.323	-1.62
919.055	-0.62
919.788	-2.62
920.521	-1.62
921.253	-0.62
921.985	0.38
922.718	0.38
923.45	0.38
924.182	0.38
924.914	0.38
925.646	-0.62
926.378	-0.62
927.11	-0.62
927.841	0.38
928.573	-1.62
929.305	-0.62
930.036	-0.62
930.768	-1.62
931.499	-0.62
932.23	-0.62
932.962	0.38
933.693	-2.62
934.424	-1.62
935.155	-0.62
935.886	-0.62
936.617	-0.62
937.348	0.38
938.078	1.38
938.809	-0.62
939.54	-1.62
940.27	-2.62
941.001	1.38
941.731	-0.62
942.461	-0.62
943.191	1.38
943.922	-2.62
944.652	-0.62
945.382	-0.62
946.112	0.38
946.841	-0.62
947.571	-2.62
948.301	-0.62
949.031	1.38
949.76	1.38
950.49	-0.62
951.219	-1.62
951.948	0.38
952.678	0.38
953.407	-0.62
954.136	-2.62
954.865	-0.62
955.594	-0.62
956.323	-0.62
957.052	-0.62
957.78	-0.62
958.509	1.38
959.238	-0.62
959.966	-3.62
960.695	1.38
961.423	-1.62
962.151	0.38
962.88	-0.62
963.608	-1.62
964.336	0.38
965.064	-1.62
965.792	-0.62
966.52	0.38
967.247	-0.62
967.975	-0.62
968.703	-0.62
969.43	-0.62
970.158	-1.62
970.885	-1.62
971.613	0.38
972.34	-0.62
973.067	-2.62
973.794	2.38
974.521	-2.62
975.248	-1.62
975.975	-0.62
976.702	1.38
977.429	-1.62
978.156	-0.62
978.882	-2.62
979.609	-0.62
980.335	-1.62
981.062	-1.62
981.788	0.38
982.514	-0.62
983.24	0.38
983.967	-2.62
984.693	0.38
985.419	-0.62
986.144	-1.62
986.87	-0.62
987.596	-1.62
988.322	-0.62
989.047	0.38
989.773	1.38
990.498	0.38
991.224	-0.62
991.949	-1.62
992.674	-0.62
993.399	0.38
994.124	-1.62
994.849	0.38
995.574	-1.62
996.299	-1.62
997.024	-0.62
997.749	-1.62
998.473	0.38
999.198	-2.62
999.922	-2.62
1000.647	-0.62
1001.371	2.38
1002.095	0.38
1002.82	-1.62
1003.544	1.38
1004.268	2.38
1004.992	0.38
1005.716	-0.62
1006.439	1.38
1007.163	4.38
1007.887	1.38
1008.611	0.38
1009.334	-1.62
1010.058	-2.62
1010.781	1.38
1011.504	-1.62
1012.228	-2.62
1012.951	-2.62
1013.674	-1.62
1014.397	1.38
1015.12	0.38
