节点500_425_QEPB04081__564__15-57-41-437.txt的数据

Date: Wed Nov 12 15:57:41 CST 2025
User: PC
Spectrometer: QEPB0408
触发模式: 0
积分时间 (秒): 1.000000E-2
Scans to average: 1
启用暗噪声校正: true
启用非线性校正: false
滑动平均宽度: 0
X轴模式: Wavelengths
Number of Pixels in Spectrum: 1044
>>>>>Begin Spectral Data<<<<<
220.843	2.12
221.644	2.12
222.444	5.12
223.244	1.12
224.045	4.12
224.845	3.12
225.645	5.12
226.445	3.12
227.245	5.12
228.045	3.12
228.845	6.12
229.645	5.12
230.444	5.12
231.244	4.12
232.043	5.12
232.843	3.12
233.642	3.12
234.442	6.12
235.241	3.12
236.04	6.12
236.839	6.12
237.638	5.12
238.437	7.12
239.236	7.12
240.035	5.12
240.833	8.12
241.632	3.12
242.43	6.12
243.229	9.12
244.027	7.12
244.826	8.12
245.624	8.12
246.422	7.12
247.22	7.12
248.018	11.12
248.816	8.12
249.614	7.12
250.412	8.12
251.21	8.12
252.007	10.12
252.805	9.12
253.602	7.12
254.4	12.12
255.197	10.12
255.994	15.12
256.791	8.12
257.589	11.12
258.386	10.12
259.183	9.12
259.979	12.12
260.776	14.12
261.573	15.12
262.37	12.12
263.166	12.12
263.963	14.12
264.759	14.12
265.556	15.12
266.352	16.12
267.148	16.12
267.944	19.12
268.74	18.12
269.536	19.12
270.332	17.12
271.128	17.12
271.924	21.12
272.719	17.12
273.515	19.12
274.311	21.12
275.106	21.12
275.901	20.12
276.697	20.12
277.492	19.12
278.287	25.12
279.082	22.12
279.877	24.12
280.672	22.12
281.467	24.12
282.262	21.12
283.056	24.12
283.851	23.12
284.646	22.12
285.44	20.12
286.234	25.12
287.029	24.12
287.823	22.12
288.617	26.12
289.411	21.12
290.205	23.12
290.999	24.12
291.793	21.12
292.587	22.12
293.381	20.12
294.174	22.12
294.968	19.12
295.761	19.12
296.555	19.12
297.348	15.12
298.141	18.12
298.935	21.12
299.728	15.12
300.521	18.12
301.314	17.12
302.107	19.12
302.899	20.12
303.692	15.12
304.485	12.12
305.277	17.12
306.07	14.12
306.862	14.12
307.655	15.12
308.447	16.12
309.239	15.12
310.031	14.12
310.823	15.12
311.615	15.12
312.407	14.12
313.199	10.12
313.991	9.12
314.783	12.12
315.574	12.12
316.366	9.12
317.157	12.12
317.949	10.12
318.74	11.12
319.531	9.12
320.322	8.12
321.113	13.12
321.904	10.12
322.695	9.12
323.486	12.12
324.277	10.12
325.068	8.12
325.858	10.12
326.649	9.12
327.439	9.12
328.23	8.12
329.02	7.12
329.81	7.12
330.6	12.12
331.391	8.12
332.181	7.12
332.971	7.12
333.76	9.12
334.55	8.12
335.34	8.12
336.13	9.12
336.919	8.12
337.709	8.12
338.498	7.12
339.287	8.12
340.077	6.12
340.866	6.12
341.655	9.12
342.444	9.12
343.233	6.12
344.022	8.12
344.811	7.12
345.6	8.12
346.388	6.12
347.177	8.12
347.965	9.12
348.754	6.12
349.542	8.12
350.33	6.12
351.119	7.12
351.907	7.12
352.695	6.12
353.483	8.12
354.271	7.12
355.059	7.12
355.846	9.12
356.634	6.12
357.422	5.12
358.209	9.12
358.997	9.12
359.784	7.12
360.571	7.12
361.359	9.12
362.146	5.12
362.933	8.12
363.72	9.12
364.507	5.12
365.294	9.12
366.081	7.12
366.867	6.12
367.654	5.12
368.44	6.12
369.227	7.12
370.013	6.12
370.8	5.12
371.586	7.12
372.372	7.12
373.158	5.12
373.944	6.12
374.73	5.12
375.516	7.12
376.302	10.12
377.088	4.12
377.873	6.12
378.659	5.12
379.445	5.12
380.23	5.12
381.015	7.12
381.801	6.12
382.586	7.12
383.371	6.12
384.156	10.12
384.941	7.12
385.726	4.12
386.511	3.12
387.296	8.12
388.08	5.12
388.865	7.12
389.649	7.12
390.434	8.12
391.218	7.12
392.003	7.12
392.787	6.12
393.571	7.12
394.355	7.12
395.139	7.12
395.923	9.12
396.707	7.12
397.491	6.12
398.274	8.12
399.058	7.12
399.842	9.12
400.625	10.12
401.408	8.12
402.192	11.12
402.975	10.12
403.758	10.12
404.541	9.12
405.324	9.12
406.107	8.12
406.89	8.12
407.673	11.12
408.456	9.12
409.238	9.12
410.021	12.12
410.803	11.12
411.586	11.12
412.368	9.12
413.151	13.12
413.933	10.12
414.715	11.12
415.497	14.12
416.279	11.12
417.061	14.12
417.843	12.12
418.624	12.12
419.406	10.12
420.188	12.12
420.969	14.12
421.751	14.12
422.532	14.12
423.313	16.12
424.095	13.12
424.876	15.12
425.657	16.12
426.438	20.12
427.219	16.12
428	15.12
428.78	16.12
429.561	18.12
430.342	18.12
431.122	21.12
431.903	21.12
432.683	19.12
433.464	23.12
434.244	22.12
435.024	22.12
435.804	24.12
436.584	23.12
437.364	26.12
438.144	27.12
438.924	29.12
439.704	30.12
440.483	32.12
441.263	39.12
442.042	41.12
442.822	44.12
443.601	43.12
444.38	47.12
445.16	52.12
445.939	53.12
446.718	60.12
447.497	64.12
448.276	70.12
449.054	80.12
449.833	83.12
450.612	92.12
451.391	103.12
452.169	108.12
452.948	125.12
453.726	132.12
454.504	152.12
455.282	170.12
456.061	189.12
456.839	204.12
457.617	229.12
458.395	259.12
459.172	282.12
459.95	312.12
460.728	349.12
461.506	389.12
462.283	424.12
463.061	487.12
463.838	538.12
464.615	603.12
465.393	665.12
466.17	736.12
466.947	810.12
467.724	898.12
468.501	992.12
469.278	1098.12
470.055	1214.12
470.831	1329.12
471.608	1470.12
472.385	1635.12
473.161	1813.12
473.938	1977.12
474.714	2168.12
475.49	2371.12
476.266	2591.12
477.043	2860.12
477.819	3117.12
478.595	3418.12
479.371	3732.12
480.146	4062.12
480.922	4444.12
481.698	4852.12
482.473	5255.12
483.249	5712.12
484.024	6254.12
484.8	6798.12
485.575	7333.12
486.35	7951.12
487.126	8664.12
487.901	9335.12
488.676	10158.12
489.451	10998.12
490.225	11865.12
491	12802.12
491.775	13835.12
492.55	14859.12
493.324	16036.12
494.099	17068.12
494.873	18161.12
495.647	19445.12
496.422	20680.12
497.196	21871.12
497.97	23200.12
498.744	24499.12
499.518	25760.12
500.292	26866.12
501.066	27991.12
501.839	29091.12
502.613	30070.12
503.387	30855.12
504.16	31538.12
504.934	32093.12
505.707	32379.12
506.48	32544.12
507.253	32538.12
508.027	32439.12
508.8	32182.12
509.573	31802.12
510.346	31278.12
511.118	30554.12
511.891	29865.12
512.664	28967.12
513.437	28005.12
514.209	27133.12
514.982	26205.12
515.754	25260.12
516.526	24230.12
517.298	23330.12
518.071	22343.12
518.843	21475.12
519.615	20558.12
520.387	19788.12
521.159	19021.12
521.93	18313.12
522.702	17592.12
523.474	16917.12
524.245	16294.12
525.017	15503.12
525.788	14809.12
526.56	14217.12
527.331	13610.12
528.102	13021.12
528.873	12394.12
529.644	11851.12
530.415	11313.12
531.186	10814.12
531.957	10303.12
532.728	9781.12
533.498	9268.12
534.269	8747.12
535.039	8326.12
535.81	7884.12
536.58	7413.12
537.351	7052.12
538.121	6639.12
538.891	6291.12
539.661	5953.12
540.431	5642.12
541.201	5352.12
541.971	5091.12
542.741	4856.12
543.51	4574.12
544.28	4345.12
545.05	4135.12
545.819	3951.12
546.588	3749.12
547.358	3549.12
548.127	3382.12
548.896	3233.12
549.665	3047.12
550.434	2905.12
551.203	2750.12
551.972	2600.12
552.741	2466.12
553.51	2323.12
554.278	2196.12
555.047	2084.12
555.815	1961.12
556.584	1857.12
557.352	1769.12
558.121	1653.12
558.889	1580.12
559.657	1490.12
560.425	1392.12
561.193	1326.12
561.961	1252.12
562.729	1186.12
563.496	1123.12
564.264	1061.12
565.032	1012.12
565.799	960.12
566.567	902.12
567.334	842.12
568.101	799.12
568.869	758.12
569.636	712.12
570.403	680.12
571.17	623.12
571.937	600.12
572.704	555.12
573.471	535.12
574.237	501.12
575.004	476.12
575.771	450.12
576.537	424.12
577.303	401.12
578.07	377.12
578.836	352.12
579.602	332.12
580.368	317.12
581.134	296.12
581.9	284.12
582.666	269.12
583.432	263.12
584.198	241.12
584.964	231.12
585.729	222.12
586.495	209.12
587.26	200.12
588.025	190.12
588.791	176.12
589.556	168.12
590.321	158.12
591.086	152.12
591.851	141.12
592.616	140.12
593.381	127.12
594.146	128.12
594.911	115.12
595.675	109.12
596.44	106.12
597.204	104.12
597.969	93.12
598.733	94.12
599.497	91.12
600.261	84.12
601.025	83.12
601.79	78.12
602.553	73.12
603.317	71.12
604.081	70.12
604.845	67.12
605.609	63.12
606.372	59.12
607.136	53.12
607.899	57.12
608.662	54.12
609.426	49.12
610.189	50.12
610.952	45.12
611.715	44.12
612.478	43.12
613.241	43.12
614.004	41.12
614.767	38.12
615.529	39.12
616.292	35.12
617.055	36.12
617.817	31.12
618.579	30.12
619.342	31.12
620.104	30.12
620.866	30.12
621.628	30.12
622.39	28.12
623.152	24.12
623.914	25.12
624.676	23.12
625.438	22.12
626.199	22.12
626.961	23.12
627.722	19.12
628.484	18.12
629.245	20.12
630.006	18.12
630.768	20.12
631.529	18.12
632.29	17.12
633.051	17.12
633.812	14.12
634.573	16.12
635.333	16.12
636.094	14.12
636.855	15.12
637.615	16.12
638.376	15.12
639.136	11.12
639.896	14.12
640.657	12.12
641.417	11.12
642.177	14.12
642.937	10.12
643.697	11.12
644.457	10.12
645.216	10.12
645.976	12.12
646.736	11.12
647.495	9.12
648.255	10.12
649.014	9.12
649.774	8.12
650.533	10.12
651.292	10.12
652.051	9.12
652.81	10.12
653.569	5.12
654.328	9.12
655.087	10.12
655.846	6.12
656.604	9.12
657.363	6.12
658.121	10.12
658.88	9.12
659.638	9.12
660.397	8.12
661.155	8.12
661.913	9.12
662.671	6.12
663.429	8.12
664.187	7.12
664.945	8.12
665.703	6.12
666.46	7.12
667.218	5.12
667.976	6.12
668.733	9.12
669.49	6.12
670.248	6.12
671.005	6.12
671.762	5.12
672.519	6.12
673.276	8.12
674.033	6.12
674.79	4.12
675.547	5.12
676.304	7.12
677.06	7.12
677.817	5.12
678.574	6.12
679.33	4.12
680.086	6.12
680.843	7.12
681.599	5.12
682.355	7.12
683.111	6.12
683.867	3.12
684.623	6.12
685.379	7.12
686.135	4.12
686.89	4.12
687.646	4.12
688.402	4.12
689.157	5.12
689.912	4.12
690.668	5.12
691.423	4.12
692.178	5.12
692.933	2.12
693.688	3.12
694.443	6.12
695.198	6.12
695.953	4.12
696.708	5.12
697.462	4.12
698.217	6.12
698.972	3.12
699.726	3.12
700.48	3.12
701.235	7.12
701.989	4.12
702.743	2.12
703.497	3.12
704.251	3.12
705.005	5.12
705.759	5.12
706.513	6.12
707.266	7.12
708.02	4.12
708.774	5.12
709.527	4.12
710.28	5.12
711.034	6.12
711.787	5.12
712.54	6.12
713.293	4.12
714.046	4.12
714.799	4.12
715.552	7.12
716.305	4.12
717.058	5.12
717.81	6.12
718.563	3.12
719.315	5.12
720.068	5.12
720.82	5.12
721.573	7.12
722.325	6.12
723.077	5.12
723.829	5.12
724.581	6.12
725.333	5.12
726.085	5.12
726.836	4.12
727.588	4.12
728.34	5.12
729.091	2.12
729.843	7.12
730.594	6.12
731.346	8.12
732.097	6.12
732.848	5.12
733.599	3.12
734.35	5.12
735.101	5.12
735.852	5.12
736.603	6.12
737.354	5.12
738.104	3.12
738.855	7.12
739.605	7.12
740.356	5.12
741.106	5.12
741.856	7.12
742.607	6.12
743.357	7.12
744.107	3.12
744.857	6.12
745.607	4.12
746.357	4.12
747.106	4.12
747.856	7.12
748.606	6.12
749.355	5.12
750.105	6.12
750.854	7.12
751.603	5.12
752.353	5.12
753.102	7.12
753.851	7.12
754.6	6.12
755.349	6.12
756.098	6.12
756.847	6.12
757.595	6.12
758.344	7.12
759.093	8.12
759.841	6.12
760.589	7.12
761.338	7.12
762.086	6.12
762.834	8.12
763.582	7.12
764.331	10.12
765.079	8.12
765.826	9.12
766.574	8.12
767.322	6.12
768.07	10.12
768.817	10.12
769.565	9.12
770.312	8.12
771.06	8.12
771.807	10.12
772.554	10.12
773.302	10.12
774.049	7.12
774.796	9.12
775.543	9.12
776.29	10.12
777.036	9.12
777.783	8.12
778.53	10.12
779.276	9.12
780.023	9.12
780.769	11.12
781.516	10.12
782.262	11.12
783.008	12.12
783.754	10.12
784.5	8.12
785.246	10.12
785.992	12.12
786.738	9.12
787.484	14.12
788.23	9.12
788.975	10.12
789.721	8.12
790.466	8.12
791.212	9.12
791.957	8.12
792.702	10.12
793.447	8.12
794.193	6.12
794.938	9.12
795.683	11.12
796.427	11.12
797.172	11.12
797.917	8.12
798.662	9.12
799.406	10.12
800.151	10.12
800.895	8.12
801.64	9.12
802.384	8.12
803.128	7.12
803.872	8.12
804.616	9.12
805.36	8.12
806.104	9.12
806.848	9.12
807.592	7.12
808.336	7.12
809.079	8.12
809.823	7.12
810.566	7.12
811.31	8.12
812.053	6.12
812.796	7.12
813.539	7.12
814.283	7.12
815.026	4.12
815.769	4.12
816.511	8.12
817.254	5.12
817.997	8.12
818.74	6.12
819.482	4.12
820.225	5.12
820.967	4.12
821.71	3.12
822.452	4.12
823.194	5.12
823.936	6.12
824.678	3.12
825.42	3.12
826.162	5.12
826.904	6.12
827.646	5.12
828.388	6.12
829.129	4.12
829.871	4.12
830.612	4.12
831.354	4.12
832.095	6.12
832.836	4.12
833.577	5.12
834.319	5.12
835.06	1.12
835.801	5.12
836.542	4.12
837.282	4.12
838.023	5.12
838.764	4.12
839.504	2.12
840.245	4.12
840.985	3.12
841.726	4.12
842.466	5.12
843.206	1.12
843.946	2.12
844.687	3.12
845.427	4.12
846.166	4.12
846.906	4.12
847.646	4.12
848.386	5.12
849.125	3.12
849.865	4.12
850.605	4.12
851.344	3.12
852.083	3.12
852.823	-0.88
853.562	2.12
854.301	4.12
855.04	4.12
855.779	2.12
856.518	2.12
857.257	3.12
857.995	4.12
858.734	3.12
859.473	3.12
860.211	-0.88
860.95	3.12
861.688	4.12
862.426	2.12
863.165	4.12
863.903	3.12
864.641	4.12
865.379	0.12
866.117	2.12
866.855	1.12
867.593	4.12
868.33	2.12
869.068	1.12
869.806	1.12
870.543	1.12
871.28	3.12
872.018	0.12
872.755	0.12
873.492	1.12
874.229	1.12
874.967	1.12
875.703	1.12
876.44	1.12
877.177	2.12
877.914	3.12
878.651	2.12
879.387	0.12
880.124	3.12
880.86	0.12
881.597	1.12
882.333	1.12
883.069	2.12
883.806	1.12
884.542	2.12
885.278	-0.88
886.014	0.12
886.749	3.12
887.485	2.12
888.221	0.12
888.957	1.12
889.692	0.12
890.428	0.12
891.163	2.12
891.899	0.12
892.634	2.12
893.369	1.12
894.104	-1.88
894.839	2.12
895.574	0.12
896.309	1.12
897.044	0.12
897.779	1.12
898.514	1.12
899.248	2.12
899.983	0.12
900.717	-0.88
901.452	-1.88
902.186	0.12
902.92	0.12
903.654	0.12
904.389	0.12
905.123	-0.88
905.857	-0.88
906.59	1.12
907.324	3.12
908.058	1.12
908.792	2.12
909.525	-0.88
910.259	0.12
910.992	0.12
911.726	0.12
912.459	1.12
913.192	2.12
913.925	0.12
914.658	0.12
915.391	2.12
916.124	0.12
916.857	0.12
917.59	1.12
918.323	2.12
919.055	1.12
919.788	-1.88
920.521	0.12
921.253	0.12
921.985	0.12
922.718	2.12
923.45	1.12
924.182	1.12
924.914	0.12
925.646	-1.88
926.378	1.12
927.11	-1.88
927.841	0.12
928.573	0.12
929.305	0.12
930.036	0.12
930.768	0.12
931.499	2.12
932.23	1.12
932.962	0.12
933.693	1.12
934.424	1.12
935.155	1.12
935.886	-1.88
936.617	0.12
937.348	-1.88
938.078	0.12
938.809	2.12
939.54	0.12
940.27	-1.88
941.001	-0.88
941.731	0.12
942.461	0.12
943.191	1.12
943.922	2.12
944.652	1.12
945.382	1.12
946.112	1.12
946.841	-0.88
947.571	2.12
948.301	1.12
949.031	0.12
949.76	0.12
950.49	2.12
951.219	0.12
951.948	0.12
952.678	-0.88
953.407	-1.88
954.136	0.12
954.865	1.12
955.594	2.12
956.323	0.12
957.052	0.12
957.78	0.12
958.509	-0.88
959.238	1.12
959.966	0.12
960.695	-1.88
961.423	-2.88
962.151	-0.88
962.88	-0.88
963.608	-0.88
964.336	-0.88
965.064	-0.88
965.792	1.12
966.52	2.12
967.247	-0.88
967.975	0.12
968.703	-0.88
969.43	1.12
970.158	-0.88
970.885	-0.88
971.613	0.12
972.34	0.12
973.067	2.12
973.794	0.12
974.521	0.12
975.248	-0.88
975.975	1.12
976.702	-0.88
977.429	-0.88
978.156	-2.88
978.882	0.12
979.609	-1.88
980.335	0.12
981.062	0.12
981.788	-1.88
982.514	0.12
983.24	1.12
983.967	1.12
984.693	0.12
985.419	-0.88
986.144	-1.88
986.87	0.12
987.596	0.12
988.322	1.12
989.047	-0.88
989.773	-0.88
990.498	-1.88
991.224	4.12
991.949	1.12
992.674	0.12
993.399	0.12
994.124	1.12
994.849	0.12
995.574	1.12
996.299	0.12
997.024	-0.88
997.749	-0.88
998.473	-1.88
999.198	-0.88
999.922	0.12
1000.647	0.12
1001.371	2.12
1002.095	0.12
1002.82	-0.88
1003.544	-0.88
1004.268	2.12
1004.992	3.12
1005.716	2.12
1006.439	1.12
1007.163	1.12
1007.887	3.12
1008.611	0.12
1009.334	0.12
1010.058	-1.88
1010.781	-0.88
1011.504	1.12
1012.228	-1.88
1012.951	-1.88
1013.674	2.12
1014.397	-1.88
1015.12	1.12
