节点500_425_QEPB04081__592__15-58-09-429.txt的数据

Date: Wed Nov 12 15:58:09 CST 2025
User: PC
Spectrometer: QEPB0408
触发模式: 0
积分时间 (秒): 1.000000E-2
Scans to average: 1
启用暗噪声校正: true
启用非线性校正: false
滑动平均宽度: 0
X轴模式: Wavelengths
Number of Pixels in Spectrum: 1044
>>>>>Begin Spectral Data<<<<<
220.843	3.62
221.644	2.62
222.444	2.62
223.244	3.62
224.045	1.62
224.845	4.62
225.645	1.62
226.445	2.62
227.245	3.62
228.045	3.62
228.845	2.62
229.645	0.62
230.444	2.62
231.244	3.62
232.043	2.62
232.843	3.62
233.642	2.62
234.442	5.62
235.241	3.62
236.04	5.62
236.839	6.62
237.638	5.62
238.437	5.62
239.236	5.62
240.035	4.62
240.833	5.62
241.632	6.62
242.43	5.62
243.229	4.62
244.027	7.62
244.826	4.62
245.624	8.62
246.422	8.62
247.22	7.62
248.018	7.62
248.816	7.62
249.614	5.62
250.412	8.62
251.21	12.62
252.007	7.62
252.805	8.62
253.602	8.62
254.4	10.62
255.197	10.62
255.994	11.62
256.791	7.62
257.589	13.62
258.386	12.62
259.183	13.62
259.979	10.62
260.776	13.62
261.573	15.62
262.37	15.62
263.166	13.62
263.963	9.62
264.759	14.62
265.556	14.62
266.352	15.62
267.148	17.62
267.944	12.62
268.74	17.62
269.536	18.62
270.332	17.62
271.128	20.62
271.924	17.62
272.719	20.62
273.515	19.62
274.311	19.62
275.106	20.62
275.901	21.62
276.697	23.62
277.492	19.62
278.287	23.62
279.082	19.62
279.877	20.62
280.672	24.62
281.467	20.62
282.262	20.62
283.056	21.62
283.851	22.62
284.646	18.62
285.44	21.62
286.234	22.62
287.029	18.62
287.823	20.62
288.617	21.62
289.411	21.62
290.205	18.62
290.999	19.62
291.793	23.62
292.587	22.62
293.381	22.62
294.174	19.62
294.968	19.62
295.761	20.62
296.555	18.62
297.348	17.62
298.141	17.62
298.935	20.62
299.728	17.62
300.521	17.62
301.314	16.62
302.107	12.62
302.899	14.62
303.692	14.62
304.485	13.62
305.277	16.62
306.07	15.62
306.862	15.62
307.655	16.62
308.447	16.62
309.239	16.62
310.031	14.62
310.823	12.62
311.615	11.62
312.407	12.62
313.199	12.62
313.991	11.62
314.783	13.62
315.574	9.62
316.366	11.62
317.157	12.62
317.949	10.62
318.74	9.62
319.531	9.62
320.322	10.62
321.113	8.62
321.904	10.62
322.695	9.62
323.486	8.62
324.277	8.62
325.068	6.62
325.858	7.62
326.649	5.62
327.439	9.62
328.23	8.62
329.02	8.62
329.81	7.62
330.6	6.62
331.391	10.62
332.181	8.62
332.971	6.62
333.76	8.62
334.55	6.62
335.34	6.62
336.13	6.62
336.919	7.62
337.709	7.62
338.498	10.62
339.287	7.62
340.077	5.62
340.866	7.62
341.655	6.62
342.444	7.62
343.233	9.62
344.022	7.62
344.811	7.62
345.6	6.62
346.388	9.62
347.177	7.62
347.965	7.62
348.754	7.62
349.542	5.62
350.33	8.62
351.119	4.62
351.907	4.62
352.695	6.62
353.483	4.62
354.271	5.62
355.059	5.62
355.846	6.62
356.634	8.62
357.422	6.62
358.209	6.62
358.997	5.62
359.784	4.62
360.571	7.62
361.359	5.62
362.146	6.62
362.933	5.62
363.72	8.62
364.507	4.62
365.294	5.62
366.081	5.62
366.867	6.62
367.654	4.62
368.44	3.62
369.227	5.62
370.013	3.62
370.8	6.62
371.586	6.62
372.372	4.62
373.158	4.62
373.944	6.62
374.73	7.62
375.516	6.62
376.302	4.62
377.088	6.62
377.873	8.62
378.659	4.62
379.445	5.62
380.23	6.62
381.015	7.62
381.801	5.62
382.586	7.62
383.371	6.62
384.156	6.62
384.941	6.62
385.726	7.62
386.511	3.62
387.296	5.62
388.08	5.62
388.865	5.62
389.649	7.62
390.434	6.62
391.218	8.62
392.003	8.62
392.787	6.62
393.571	7.62
394.355	7.62
395.139	7.62
395.923	7.62
396.707	7.62
397.491	9.62
398.274	8.62
399.058	9.62
399.842	7.62
400.625	6.62
401.408	8.62
402.192	7.62
402.975	7.62
403.758	9.62
404.541	8.62
405.324	8.62
406.107	7.62
406.89	7.62
407.673	6.62
408.456	11.62
409.238	9.62
410.021	9.62
410.803	11.62
411.586	11.62
412.368	8.62
413.151	8.62
413.933	11.62
414.715	10.62
415.497	9.62
416.279	11.62
417.061	8.62
417.843	13.62
418.624	9.62
419.406	9.62
420.188	13.62
420.969	11.62
421.751	13.62
422.532	15.62
423.313	13.62
424.095	13.62
424.876	15.62
425.657	15.62
426.438	13.62
427.219	19.62
428	19.62
428.78	13.62
429.561	17.62
430.342	19.62
431.122	17.62
431.903	19.62
432.683	20.62
433.464	21.62
434.244	20.62
435.024	27.62
435.804	23.62
436.584	25.62
437.364	24.62
438.144	27.62
438.924	29.62
439.704	28.62
440.483	31.62
441.263	37.62
442.042	41.62
442.822	39.62
443.601	46.62
444.38	42.62
445.16	52.62
445.939	54.62
446.718	61.62
447.497	64.62
448.276	67.62
449.054	76.62
449.833	85.62
450.612	91.62
451.391	101.62
452.169	111.62
452.948	123.62
453.726	136.62
454.504	152.62
455.282	171.62
456.061	182.62
456.839	202.62
457.617	230.62
458.395	245.62
459.172	274.62
459.95	317.62
460.728	354.62
461.506	388.62
462.283	435.62
463.061	483.62
463.838	540.62
464.615	599.62
465.393	670.62
466.17	737.62
466.947	814.62
467.724	901.62
468.501	1008.62
469.278	1105.62
470.055	1215.62
470.831	1336.62
471.608	1480.62
472.385	1647.62
473.161	1788.62
473.938	1972.62
474.714	2169.62
475.49	2384.62
476.266	2596.62
477.043	2831.62
477.819	3107.62
478.595	3421.62
479.371	3743.62
480.146	4070.62
480.922	4424.62
481.698	4850.62
482.473	5222.62
483.249	5737.62
484.024	6213.62
484.8	6791.62
485.575	7338.62
486.35	7966.62
487.126	8599.62
487.901	9336.62
488.676	10141.62
489.451	10949.62
490.225	11827.62
491	12748.62
491.775	13776.62
492.55	14800.62
493.324	15903.62
494.099	16978.62
494.873	18134.62
495.647	19341.62
496.422	20564.62
497.196	21789.62
497.97	23101.62
498.744	24439.62
499.518	25644.62
500.292	26803.62
501.066	27897.62
501.839	28962.62
502.613	29961.62
503.387	30787.62
504.16	31495.62
504.934	31912.62
505.707	32280.62
506.48	32451.62
507.253	32457.62
508.027	32361.62
508.8	32213.62
509.573	31809.62
510.346	31190.62
511.118	30482.62
511.891	29828.62
512.664	28968.62
513.437	28094.62
514.209	27055.62
514.982	26192.62
515.754	25230.62
516.526	24315.62
517.298	23303.62
518.071	22354.62
518.843	21461.62
519.615	20655.62
520.387	19776.62
521.159	19020.62
521.93	18286.62
522.702	17636.62
523.474	16981.62
524.245	16242.62
525.017	15591.62
525.788	14859.62
526.56	14246.62
527.331	13657.62
528.102	13064.62
528.873	12444.62
529.644	11839.62
530.415	11339.62
531.186	10839.62
531.957	10302.62
532.728	9804.62
533.498	9275.62
534.269	8793.62
535.039	8318.62
535.81	7880.62
536.58	7471.62
537.351	7024.62
538.121	6663.62
538.891	6322.62
539.661	5982.62
540.431	5686.62
541.201	5367.62
541.971	5085.62
542.741	4810.62
543.51	4587.62
544.28	4352.62
545.05	4143.62
545.819	3969.62
546.588	3762.62
547.358	3564.62
548.127	3388.62
548.896	3207.62
549.665	3052.62
550.434	2929.62
551.203	2737.62
551.972	2599.62
552.741	2455.62
553.51	2326.62
554.278	2219.62
555.047	2071.62
555.815	1959.62
556.584	1873.62
557.352	1768.62
558.121	1664.62
558.889	1581.62
559.657	1491.62
560.425	1415.62
561.193	1326.62
561.961	1250.62
562.729	1197.62
563.496	1130.62
564.264	1073.62
565.032	1014.62
565.799	949.62
566.567	908.62
567.334	852.62
568.101	806.62
568.869	763.62
569.636	709.62
570.403	672.62
571.17	629.62
571.937	601.62
572.704	564.62
573.471	534.62
574.237	500.62
575.004	477.62
575.771	441.62
576.537	422.62
577.303	400.62
578.07	377.62
578.836	356.62
579.602	331.62
580.368	314.62
581.134	303.62
581.9	286.62
582.666	268.62
583.432	256.62
584.198	238.62
584.964	226.62
585.729	221.62
586.495	205.62
587.26	195.62
588.025	192.62
588.791	174.62
589.556	171.62
590.321	155.62
591.086	146.62
591.851	140.62
592.616	135.62
593.381	124.62
594.146	120.62
594.911	118.62
595.675	113.62
596.44	111.62
597.204	102.62
597.969	97.62
598.733	92.62
599.497	90.62
600.261	85.62
601.025	78.62
601.79	79.62
602.553	76.62
603.317	70.62
604.081	68.62
604.845	67.62
605.609	61.62
606.372	57.62
607.136	58.62
607.899	52.62
608.662	54.62
609.426	49.62
610.189	48.62
610.952	46.62
611.715	41.62
612.478	42.62
613.241	43.62
614.004	38.62
614.767	39.62
615.529	37.62
616.292	36.62
617.055	33.62
617.817	29.62
618.579	31.62
619.342	31.62
620.104	32.62
620.866	28.62
621.628	28.62
622.39	28.62
623.152	24.62
623.914	28.62
624.676	24.62
625.438	24.62
626.199	21.62
626.961	21.62
627.722	19.62
628.484	22.62
629.245	19.62
630.006	18.62
630.768	16.62
631.529	18.62
632.29	15.62
633.051	17.62
633.812	16.62
634.573	13.62
635.333	13.62
636.094	15.62
636.855	16.62
637.615	14.62
638.376	15.62
639.136	12.62
639.896	12.62
640.657	13.62
641.417	12.62
642.177	10.62
642.937	10.62
643.697	10.62
644.457	9.62
645.216	10.62
645.976	12.62
646.736	8.62
647.495	9.62
648.255	10.62
649.014	10.62
649.774	9.62
650.533	7.62
651.292	9.62
652.051	9.62
652.81	8.62
653.569	6.62
654.328	7.62
655.087	6.62
655.846	7.62
656.604	9.62
657.363	6.62
658.121	8.62
658.88	8.62
659.638	3.62
660.397	8.62
661.155	5.62
661.913	8.62
662.671	7.62
663.429	7.62
664.187	7.62
664.945	6.62
665.703	5.62
666.46	5.62
667.218	6.62
667.976	4.62
668.733	5.62
669.49	6.62
670.248	7.62
671.005	5.62
671.762	6.62
672.519	4.62
673.276	6.62
674.033	3.62
674.79	2.62
675.547	7.62
676.304	6.62
677.06	4.62
677.817	4.62
678.574	4.62
679.33	6.62
680.086	6.62
680.843	7.62
681.599	6.62
682.355	5.62
683.111	6.62
683.867	4.62
684.623	5.62
685.379	3.62
686.135	6.62
686.89	6.62
687.646	6.62
688.402	3.62
689.157	2.62
689.912	3.62
690.668	2.62
691.423	3.62
692.178	1.62
692.933	3.62
693.688	4.62
694.443	4.62
695.198	4.62
695.953	2.62
696.708	6.62
697.462	2.62
698.217	4.62
698.972	5.62
699.726	4.62
700.48	5.62
701.235	4.62
701.989	2.62
702.743	5.62
703.497	3.62
704.251	5.62
705.005	4.62
705.759	3.62
706.513	4.62
707.266	3.62
708.02	3.62
708.774	5.62
709.527	5.62
710.28	3.62
711.034	5.62
711.787	-0.38
712.54	5.62
713.293	2.62
714.046	5.62
714.799	3.62
715.552	1.62
716.305	5.62
717.058	4.62
717.81	4.62
718.563	3.62
719.315	4.62
720.068	2.62
720.82	4.62
721.573	3.62
722.325	4.62
723.077	3.62
723.829	3.62
724.581	3.62
725.333	5.62
726.085	5.62
726.836	6.62
727.588	2.62
728.34	5.62
729.091	3.62
729.843	2.62
730.594	4.62
731.346	3.62
732.097	2.62
732.848	5.62
733.599	5.62
734.35	5.62
735.101	3.62
735.852	4.62
736.603	4.62
737.354	2.62
738.104	6.62
738.855	2.62
739.605	6.62
740.356	5.62
741.106	5.62
741.856	5.62
742.607	3.62
743.357	6.62
744.107	4.62
744.857	5.62
745.607	5.62
746.357	8.62
747.106	6.62
747.856	4.62
748.606	7.62
749.355	3.62
750.105	5.62
750.854	8.62
751.603	6.62
752.353	5.62
753.102	5.62
753.851	7.62
754.6	6.62
755.349	6.62
756.098	8.62
756.847	7.62
757.595	5.62
758.344	5.62
759.093	7.62
759.841	5.62
760.589	4.62
761.338	9.62
762.086	8.62
762.834	6.62
763.582	7.62
764.331	4.62
765.079	7.62
765.826	7.62
766.574	10.62
767.322	5.62
768.07	7.62
768.817	7.62
769.565	7.62
770.312	10.62
771.06	5.62
771.807	6.62
772.554	9.62
773.302	7.62
774.049	7.62
774.796	8.62
775.543	9.62
776.29	9.62
777.036	5.62
777.783	9.62
778.53	9.62
779.276	10.62
780.023	6.62
780.769	9.62
781.516	9.62
782.262	8.62
783.008	11.62
783.754	8.62
784.5	9.62
785.246	7.62
785.992	11.62
786.738	10.62
787.484	9.62
788.23	8.62
788.975	10.62
789.721	11.62
790.466	11.62
791.212	6.62
791.957	12.62
792.702	7.62
793.447	11.62
794.193	9.62
794.938	7.62
795.683	9.62
796.427	6.62
797.172	7.62
797.917	8.62
798.662	7.62
799.406	8.62
800.151	9.62
800.895	6.62
801.64	8.62
802.384	9.62
803.128	7.62
803.872	7.62
804.616	7.62
805.36	5.62
806.104	5.62
806.848	8.62
807.592	4.62
808.336	7.62
809.079	5.62
809.823	4.62
810.566	7.62
811.31	5.62
812.053	4.62
812.796	4.62
813.539	4.62
814.283	6.62
815.026	3.62
815.769	4.62
816.511	4.62
817.254	5.62
817.997	4.62
818.74	5.62
819.482	3.62
820.225	6.62
820.967	4.62
821.71	3.62
822.452	4.62
823.194	4.62
823.936	4.62
824.678	3.62
825.42	4.62
826.162	4.62
826.904	3.62
827.646	2.62
828.388	3.62
829.129	4.62
829.871	7.62
830.612	3.62
831.354	3.62
832.095	3.62
832.836	5.62
833.577	4.62
834.319	4.62
835.06	4.62
835.801	3.62
836.542	4.62
837.282	2.62
838.023	5.62
838.764	3.62
839.504	2.62
840.245	2.62
840.985	1.62
841.726	4.62
842.466	4.62
843.206	1.62
843.946	4.62
844.687	3.62
845.427	3.62
846.166	2.62
846.906	3.62
847.646	2.62
848.386	3.62
849.125	2.62
849.865	2.62
850.605	3.62
851.344	3.62
852.083	3.62
852.823	2.62
853.562	2.62
854.301	1.62
855.04	2.62
855.779	3.62
856.518	2.62
857.257	1.62
857.995	3.62
858.734	2.62
859.473	4.62
860.211	0.62
860.95	1.62
861.688	1.62
862.426	2.62
863.165	3.62
863.903	2.62
864.641	1.62
865.379	2.62
866.117	3.62
866.855	1.62
867.593	-0.38
868.33	0.62
869.068	1.62
869.806	2.62
870.543	2.62
871.28	-0.38
872.018	1.62
872.755	1.62
873.492	2.62
874.229	-0.38
874.967	0.62
875.703	3.62
876.44	0.62
877.177	-0.38
877.914	-0.38
878.651	0.62
879.387	2.62
880.124	0.62
880.86	0.62
881.597	1.62
882.333	0.62
883.069	0.62
883.806	0.62
884.542	-0.38
885.278	-0.38
886.014	-0.38
886.749	-0.38
887.485	-1.38
888.221	0.62
888.957	0.62
889.692	-2.38
890.428	-0.38
891.163	-0.38
891.899	0.62
892.634	-1.38
893.369	0.62
894.104	0.62
894.839	0.62
895.574	-0.38
896.309	-0.38
897.044	0.62
897.779	-3.38
898.514	0.62
899.248	-0.38
899.983	2.62
900.717	-0.38
901.452	-0.38
902.186	0.62
902.92	-0.38
903.654	0.62
904.389	0.62
905.123	-0.38
905.857	0.62
906.59	0.62
907.324	0.62
908.058	-1.38
908.792	0.62
909.525	-0.38
910.259	0.62
910.992	1.62
911.726	-2.38
912.459	2.62
913.192	-1.38
913.925	1.62
914.658	1.62
915.391	-0.38
916.124	-1.38
916.857	-2.38
917.59	-0.38
918.323	-1.38
919.055	0.62
919.788	0.62
920.521	0.62
921.253	-2.38
921.985	-2.38
922.718	-0.38
923.45	-1.38
924.182	-0.38
924.914	0.62
925.646	0.62
926.378	-1.38
927.11	-0.38
927.841	1.62
928.573	-1.38
929.305	-2.38
930.036	0.62
930.768	-1.38
931.499	-2.38
932.23	1.62
932.962	-1.38
933.693	1.62
934.424	0.62
935.155	0.62
935.886	0.62
936.617	-1.38
937.348	-0.38
938.078	-1.38
938.809	1.62
939.54	-0.38
940.27	-1.38
941.001	-2.38
941.731	-0.38
942.461	0.62
943.191	-0.38
943.922	1.62
944.652	0.62
945.382	-0.38
946.112	-1.38
946.841	-0.38
947.571	-0.38
948.301	-2.38
949.031	-0.38
949.76	-0.38
950.49	-0.38
951.219	-0.38
951.948	0.62
952.678	0.62
953.407	0.62
954.136	-0.38
954.865	-0.38
955.594	-1.38
956.323	1.62
957.052	0.62
957.78	0.62
958.509	-0.38
959.238	-2.38
959.966	-1.38
960.695	0.62
961.423	0.62
962.151	-0.38
962.88	0.62
963.608	-0.38
964.336	0.62
965.064	-1.38
965.792	-1.38
966.52	1.62
967.247	0.62
967.975	1.62
968.703	0.62
969.43	-1.38
970.158	-0.38
970.885	1.62
971.613	-1.38
972.34	-1.38
973.067	0.62
973.794	-0.38
974.521	-0.38
975.248	-0.38
975.975	-1.38
976.702	0.62
977.429	-0.38
978.156	0.62
978.882	1.62
979.609	0.62
980.335	-0.38
981.062	0.62
981.788	-0.38
982.514	-0.38
983.24	2.62
983.967	1.62
984.693	-1.38
985.419	-1.38
986.144	-0.38
986.87	-1.38
987.596	-0.38
988.322	-0.38
989.047	-1.38
989.773	-1.38
990.498	0.62
991.224	0.62
991.949	0.62
992.674	-0.38
993.399	-3.38
994.124	0.62
994.849	-1.38
995.574	-2.38
996.299	-1.38
997.024	-2.38
997.749	-3.38
998.473	-0.38
999.198	-0.38
999.922	-0.38
1000.647	-3.38
1001.371	3.62
1002.095	-0.38
1002.82	0.62
1003.544	-1.38
1004.268	0.62
1004.992	2.62
1005.716	1.62
1006.439	3.62
1007.163	2.62
1007.887	3.62
1008.611	-0.38
1009.334	-0.38
1010.058	0.62
1010.781	0.62
1011.504	-0.38
1012.228	0.62
1012.951	0.62
1013.674	-0.38
1014.397	-0.38
1015.12	-2.38
