节点500_425_QEPB04081__537__15-57-14-533.txt的数据

Date: Wed Nov 12 15:57:14 CST 2025
User: PC
Spectrometer: QEPB0408
触发模式: 0
积分时间 (秒): 1.000000E-2
Scans to average: 1
启用暗噪声校正: true
启用非线性校正: false
滑动平均宽度: 0
X轴模式: Wavelengths
Number of Pixels in Spectrum: 1044
>>>>>Begin Spectral Data<<<<<
220.843	5
221.644	0
222.444	2
223.244	3
224.045	4
224.845	3
225.645	4
226.445	4
227.245	6
228.045	2
228.845	5
229.645	5
230.444	4
231.244	4
232.043	2
232.843	4
233.642	3
234.442	6
235.241	6
236.04	2
236.839	6
237.638	5
238.437	5
239.236	6
240.035	6
240.833	6
241.632	8
242.43	8
243.229	7
244.027	9
244.826	4
245.624	10
246.422	6
247.22	8
248.018	7
248.816	8
249.614	9
250.412	8
251.21	8
252.007	10
252.805	10
253.602	11
254.4	12
255.197	10
255.994	12
256.791	9
257.589	11
258.386	12
259.183	14
259.979	14
260.776	13
261.573	14
262.37	11
263.166	15
263.963	12
264.759	16
265.556	18
266.352	14
267.148	19
267.944	18
268.74	16
269.536	16
270.332	18
271.128	19
271.924	20
272.719	21
273.515	19
274.311	17
275.106	23
275.901	20
276.697	20
277.492	22
278.287	21
279.082	22
279.877	22
280.672	25
281.467	23
282.262	23
283.056	19
283.851	25
284.646	24
285.44	21
286.234	22
287.029	21
287.823	23
288.617	23
289.411	20
290.205	20
290.999	19
291.793	22
292.587	21
293.381	24
294.174	23
294.968	18
295.761	19
296.555	18
297.348	19
298.141	15
298.935	24
299.728	17
300.521	17
301.314	17
302.107	16
302.899	17
303.692	17
304.485	17
305.277	16
306.07	14
306.862	17
307.655	16
308.447	16
309.239	18
310.031	16
310.823	12
311.615	13
312.407	14
313.199	14
313.991	12
314.783	11
315.574	12
316.366	12
317.157	12
317.949	11
318.74	12
319.531	13
320.322	11
321.113	10
321.904	9
322.695	9
323.486	9
324.277	10
325.068	8
325.858	9
326.649	8
327.439	8
328.23	10
329.02	9
329.81	10
330.6	8
331.391	9
332.181	7
332.971	7
333.76	7
334.55	9
335.34	8
336.13	9
336.919	9
337.709	10
338.498	7
339.287	8
340.077	9
340.866	8
341.655	8
342.444	9
343.233	8
344.022	7
344.811	5
345.6	10
346.388	10
347.177	12
347.965	8
348.754	8
349.542	8
350.33	9
351.119	9
351.907	9
352.695	8
353.483	8
354.271	8
355.059	7
355.846	8
356.634	8
357.422	7
358.209	10
358.997	7
359.784	6
360.571	8
361.359	6
362.146	8
362.933	5
363.72	7
364.507	5
365.294	9
366.081	5
366.867	7
367.654	8
368.44	4
369.227	6
370.013	9
370.8	6
371.586	7
372.372	7
373.158	8
373.944	6
374.73	5
375.516	7
376.302	6
377.088	9
377.873	5
378.659	8
379.445	5
380.23	5
381.015	7
381.801	7
382.586	7
383.371	6
384.156	7
384.941	8
385.726	6
386.511	9
387.296	7
388.08	7
388.865	7
389.649	8
390.434	8
391.218	6
392.003	8
392.787	8
393.571	8
394.355	7
395.139	7
395.923	8
396.707	8
397.491	7
398.274	7
399.058	9
399.842	9
400.625	8
401.408	9
402.192	9
402.975	11
403.758	10
404.541	9
405.324	9
406.107	10
406.89	8
407.673	11
408.456	9
409.238	9
410.021	9
410.803	10
411.586	8
412.368	10
413.151	12
413.933	10
414.715	12
415.497	12
416.279	14
417.061	11
417.843	11
418.624	13
419.406	10
420.188	13
420.969	14
421.751	10
422.532	16
423.313	13
424.095	17
424.876	14
425.657	14
426.438	18
427.219	18
428	17
428.78	18
429.561	20
430.342	17
431.122	17
431.903	21
432.683	21
433.464	23
434.244	24
435.024	26
435.804	24
436.584	28
437.364	27
438.144	30
438.924	30
439.704	31
440.483	36
441.263	34
442.042	37
442.822	41
443.601	45
444.38	46
445.16	50
445.939	56
446.718	61
447.497	64
448.276	73
449.054	77
449.833	84
450.612	95
451.391	96
452.169	109
452.948	122
453.726	130
454.504	146
455.282	166
456.061	187
456.839	205
457.617	223
458.395	257
459.172	277
459.95	310
460.728	342
461.506	389
462.283	427
463.061	477
463.838	544
464.615	589
465.393	661
466.17	737
466.947	806
467.724	901
468.501	1000
469.278	1106
470.055	1214
470.831	1341
471.608	1486
472.385	1615
473.161	1789
473.938	1956
474.714	2155
475.49	2358
476.266	2593
477.043	2841
477.819	3148
478.595	3429
479.371	3723
480.146	4075
480.922	4438
481.698	4837
482.473	5292
483.249	5716
484.024	6275
484.8	6849
485.575	7415
486.35	8026
487.126	8700
487.901	9383
488.676	10200
489.451	11020
490.225	11976
491	12904
491.775	13966
492.55	15017
493.324	16130
494.099	17246
494.873	18326
495.647	19563
496.422	20765
497.196	22060
497.97	23449
498.744	24742
499.518	25968
500.292	27106
501.066	28185
501.839	29368
502.613	30332
503.387	31050
504.16	31813
504.934	32277
505.707	32574
506.48	32748
507.253	32739
508.027	32527
508.8	32348
509.573	31992
510.346	31340
511.118	30635
511.891	29849
512.664	28995
513.437	27995
514.209	27039
514.982	26143
515.754	25195
516.526	24207
517.298	23183
518.071	22344
518.843	21372
519.615	20518
520.387	19693
521.159	18968
521.93	18248
522.702	17566
523.474	16888
524.245	16203
525.017	15470
525.788	14783
526.56	14163
527.331	13591
528.102	12958
528.873	12396
529.644	11811
530.415	11286
531.186	10773
531.957	10277
532.728	9701
533.498	9198
534.269	8738
535.039	8303
535.81	7830
536.58	7398
537.351	6986
538.121	6612
538.891	6279
539.661	5950
540.431	5632
541.201	5309
541.971	5076
542.741	4804
543.51	4551
544.28	4328
545.05	4117
545.819	3908
546.588	3726
547.358	3541
548.127	3338
548.896	3170
549.665	3032
550.434	2894
551.203	2726
551.972	2583
552.741	2465
553.51	2322
554.278	2185
555.047	2072
555.815	1971
556.584	1857
557.352	1744
558.121	1642
558.889	1546
559.657	1464
560.425	1385
561.193	1317
561.961	1251
562.729	1195
563.496	1114
564.264	1054
565.032	1002
565.799	952
566.567	882
567.334	840
568.101	803
568.869	754
569.636	706
570.403	672
571.17	626
571.937	599
572.704	563
573.471	540
574.237	505
575.004	477
575.771	441
576.537	426
577.303	394
578.07	373
578.836	354
579.602	333
580.368	313
581.134	306
581.9	281
582.666	266
583.432	254
584.198	249
584.964	227
585.729	211
586.495	206
587.26	195
588.025	184
588.791	174
589.556	164
590.321	159
591.086	149
591.851	144
592.616	141
593.381	131
594.146	122
594.911	117
595.675	112
596.44	106
597.204	98
597.969	98
598.733	95
599.497	89
600.261	84
601.025	82
601.79	77
602.553	74
603.317	73
604.081	69
604.845	65
605.609	63
606.372	57
607.136	58
607.899	57
608.662	54
609.426	52
610.189	48
610.952	51
611.715	47
612.478	42
613.241	42
614.004	40
614.767	33
615.529	39
616.292	34
617.055	37
617.817	33
618.579	32
619.342	32
620.104	29
620.866	31
621.628	29
622.39	30
623.152	25
623.914	23
624.676	24
625.438	24
626.199	23
626.961	21
627.722	21
628.484	22
629.245	18
630.006	22
630.768	17
631.529	21
632.29	18
633.051	18
633.812	19
634.573	17
635.333	17
636.094	16
636.855	14
637.615	13
638.376	13
639.136	16
639.896	12
640.657	12
641.417	10
642.177	11
642.937	15
643.697	12
644.457	13
645.216	10
645.976	10
646.736	12
647.495	10
648.255	10
649.014	9
649.774	11
650.533	10
651.292	9
652.051	9
652.81	10
653.569	10
654.328	9
655.087	8
655.846	7
656.604	9
657.363	9
658.121	8
658.88	6
659.638	7
660.397	7
661.155	7
661.913	5
662.671	6
663.429	9
664.187	4
664.945	9
665.703	5
666.46	7
667.218	6
667.976	8
668.733	6
669.49	8
670.248	6
671.005	5
671.762	6
672.519	8
673.276	5
674.033	9
674.79	6
675.547	6
676.304	4
677.06	6
677.817	5
678.574	2
679.33	6
680.086	7
680.843	6
681.599	6
682.355	7
683.111	7
683.867	4
684.623	7
685.379	4
686.135	5
686.89	4
687.646	4
688.402	5
689.157	7
689.912	7
690.668	8
691.423	5
692.178	5
692.933	1
693.688	5
694.443	4
695.198	6
695.953	5
696.708	4
697.462	5
698.217	3
698.972	6
699.726	5
700.48	3
701.235	6
701.989	3
702.743	4
703.497	6
704.251	4
705.005	3
705.759	5
706.513	5
707.266	4
708.02	4
708.774	5
709.527	4
710.28	6
711.034	5
711.787	4
712.54	6
713.293	6
714.046	5
714.799	5
715.552	5
716.305	4
717.058	4
717.81	6
718.563	5
719.315	5
720.068	6
720.82	4
721.573	8
722.325	5
723.077	5
723.829	4
724.581	4
725.333	4
726.085	3
726.836	5
727.588	2
728.34	6
729.091	4
729.843	5
730.594	4
731.346	8
732.097	6
732.848	6
733.599	7
734.35	5
735.101	4
735.852	7
736.603	6
737.354	6
738.104	2
738.855	6
739.605	6
740.356	5
741.106	5
741.856	6
742.607	8
743.357	7
744.107	6
744.857	6
745.607	4
746.357	6
747.106	8
747.856	8
748.606	7
749.355	9
750.105	7
750.854	7
751.603	8
752.353	6
753.102	5
753.851	6
754.6	7
755.349	7
756.098	9
756.847	7
757.595	7
758.344	7
759.093	6
759.841	8
760.589	7
761.338	5
762.086	9
762.834	8
763.582	8
764.331	9
765.079	7
765.826	8
766.574	6
767.322	11
768.07	10
768.817	8
769.565	8
770.312	9
771.06	9
771.807	8
772.554	10
773.302	8
774.049	10
774.796	9
775.543	11
776.29	14
777.036	11
777.783	11
778.53	9
779.276	12
780.023	9
780.769	10
781.516	8
782.262	9
783.008	7
783.754	10
784.5	13
785.246	12
785.992	10
786.738	11
787.484	9
788.23	11
788.975	9
789.721	12
790.466	10
791.212	13
791.957	10
792.702	10
793.447	9
794.193	10
794.938	9
795.683	11
796.427	8
797.172	11
797.917	7
798.662	10
799.406	7
800.151	6
800.895	7
801.64	6
802.384	9
803.128	7
803.872	10
804.616	7
805.36	8
806.104	9
806.848	8
807.592	6
808.336	9
809.079	7
809.823	6
810.566	5
811.31	7
812.053	6
812.796	6
813.539	5
814.283	8
815.026	7
815.769	6
816.511	9
817.254	6
817.997	8
818.74	7
819.482	7
820.225	6
820.967	6
821.71	5
822.452	5
823.194	3
823.936	5
824.678	3
825.42	7
826.162	6
826.904	5
827.646	5
828.388	6
829.129	5
829.871	2
830.612	6
831.354	4
832.095	3
832.836	4
833.577	3
834.319	2
835.06	5
835.801	4
836.542	1
837.282	7
838.023	3
838.764	4
839.504	3
840.245	6
840.985	5
841.726	4
842.466	4
843.206	4
843.946	3
844.687	4
845.427	3
846.166	4
846.906	4
847.646	5
848.386	4
849.125	2
849.865	4
850.605	5
851.344	4
852.083	2
852.823	1
853.562	3
854.301	2
855.04	3
855.779	3
856.518	2
857.257	2
857.995	1
858.734	4
859.473	2
860.211	3
860.95	2
861.688	2
862.426	3
863.165	2
863.903	3
864.641	0
865.379	4
866.117	5
866.855	1
867.593	2
868.33	2
869.068	2
869.806	3
870.543	2
871.28	3
872.018	2
872.755	1
873.492	1
874.229	4
874.967	1
875.703	1
876.44	2
877.177	0
877.914	1
878.651	0
879.387	0
880.124	0
880.86	1
881.597	0
882.333	-1
883.069	3
883.806	1
884.542	-2
885.278	2
886.014	1
886.749	2
887.485	2
888.221	0
888.957	1
889.692	1
890.428	1
891.163	-2
891.899	1
892.634	3
893.369	1
894.104	2
894.839	1
895.574	0
896.309	1
897.044	1
897.779	0
898.514	0
899.248	3
899.983	1
900.717	3
901.452	0
902.186	3
902.92	0
903.654	1
904.389	0
905.123	-2
905.857	1
906.59	0
907.324	-2
908.058	1
908.792	0
909.525	2
910.259	-1
910.992	0
911.726	0
912.459	-1
913.192	0
913.925	0
914.658	0
915.391	2
916.124	-1
916.857	0
917.59	0
918.323	2
919.055	0
919.788	1
920.521	1
921.253	0
921.985	1
922.718	0
923.45	-2
924.182	0
924.914	0
925.646	1
926.378	-1
927.11	2
927.841	-2
928.573	2
929.305	3
930.036	1
930.768	2
931.499	0
932.23	2
932.962	-1
933.693	1
934.424	0
935.155	1
935.886	-1
936.617	0
937.348	-2
938.078	-1
938.809	-1
939.54	1
940.27	-1
941.001	0
941.731	0
942.461	0
943.191	0
943.922	0
944.652	0
945.382	-2
946.112	1
946.841	0
947.571	-1
948.301	1
949.031	0
949.76	1
950.49	2
951.219	-1
951.948	0
952.678	-1
953.407	0
954.136	-1
954.865	1
955.594	1
956.323	1
957.052	1
957.78	0
958.509	1
959.238	0
959.966	-3
960.695	0
961.423	0
962.151	0
962.88	0
963.608	1
964.336	-2
965.064	-1
965.792	0
966.52	1
967.247	1
967.975	2
968.703	-1
969.43	3
970.158	-1
970.885	1
971.613	0
972.34	0
973.067	1
973.794	-2
974.521	0
975.248	-1
975.975	0
976.702	1
977.429	1
978.156	0
978.882	1
979.609	-1
980.335	-1
981.062	2
981.788	0
982.514	-2
983.24	0
983.967	-3
984.693	0
985.419	-1
986.144	0
986.87	1
987.596	-2
988.322	1
989.047	-2
989.773	0
990.498	1
991.224	0
991.949	2
992.674	1
993.399	-1
994.124	1
994.849	0
995.574	0
996.299	1
997.024	1
997.749	1
998.473	0
999.198	2
999.922	1
1000.647	1
1001.371	5
1002.095	0
1002.82	-2
1003.544	-1
1004.268	0
1004.992	0
1005.716	4
1006.439	2
1007.163	2
1007.887	3
1008.611	-1
1009.334	-2
1010.058	1
1010.781	-2
1011.504	0
1012.228	-2
1012.951	-1
1013.674	0
1014.397	0
1015.12	-1
