节点500_425_QEPB04081__531__15-57-08-540.txt的数据

Date: Wed Nov 12 15:57:08 CST 2025
User: PC
Spectrometer: QEPB0408
触发模式: 0
积分时间 (秒): 1.000000E-2
Scans to average: 1
启用暗噪声校正: true
启用非线性校正: false
滑动平均宽度: 0
X轴模式: Wavelengths
Number of Pixels in Spectrum: 1044
>>>>>Begin Spectral Data<<<<<
220.843	0.62
221.644	1.62
222.444	5.62
223.244	2.62
224.045	2.62
224.845	4.62
225.645	4.62
226.445	5.62
227.245	3.62
228.045	4.62
228.845	4.62
229.645	3.62
230.444	5.62
231.244	4.62
232.043	5.62
232.843	3.62
233.642	4.62
234.442	4.62
235.241	7.62
236.04	4.62
236.839	4.62
237.638	4.62
238.437	6.62
239.236	7.62
240.035	5.62
240.833	7.62
241.632	4.62
242.43	7.62
243.229	8.62
244.027	6.62
244.826	9.62
245.624	8.62
246.422	9.62
247.22	9.62
248.018	8.62
248.816	9.62
249.614	8.62
250.412	9.62
251.21	9.62
252.007	8.62
252.805	8.62
253.602	10.62
254.4	11.62
255.197	11.62
255.994	9.62
256.791	10.62
257.589	12.62
258.386	9.62
259.183	12.62
259.979	13.62
260.776	12.62
261.573	14.62
262.37	11.62
263.166	12.62
263.963	15.62
264.759	17.62
265.556	14.62
266.352	16.62
267.148	14.62
267.944	14.62
268.74	17.62
269.536	18.62
270.332	17.62
271.128	17.62
271.924	18.62
272.719	19.62
273.515	20.62
274.311	20.62
275.106	23.62
275.901	22.62
276.697	21.62
277.492	22.62
278.287	21.62
279.082	21.62
279.877	20.62
280.672	22.62
281.467	21.62
282.262	22.62
283.056	22.62
283.851	26.62
284.646	23.62
285.44	21.62
286.234	22.62
287.029	23.62
287.823	21.62
288.617	23.62
289.411	23.62
290.205	25.62
290.999	21.62
291.793	26.62
292.587	23.62
293.381	21.62
294.174	21.62
294.968	19.62
295.761	18.62
296.555	20.62
297.348	18.62
298.141	17.62
298.935	21.62
299.728	18.62
300.521	18.62
301.314	20.62
302.107	17.62
302.899	16.62
303.692	14.62
304.485	17.62
305.277	16.62
306.07	17.62
306.862	14.62
307.655	13.62
308.447	14.62
309.239	16.62
310.031	14.62
310.823	15.62
311.615	14.62
312.407	16.62
313.199	12.62
313.991	12.62
314.783	12.62
315.574	11.62
316.366	13.62
317.157	11.62
317.949	8.62
318.74	9.62
319.531	12.62
320.322	10.62
321.113	8.62
321.904	11.62
322.695	8.62
323.486	10.62
324.277	8.62
325.068	10.62
325.858	6.62
326.649	8.62
327.439	8.62
328.23	9.62
329.02	12.62
329.81	9.62
330.6	6.62
331.391	8.62
332.181	8.62
332.971	10.62
333.76	7.62
334.55	8.62
335.34	6.62
336.13	9.62
336.919	8.62
337.709	10.62
338.498	9.62
339.287	8.62
340.077	8.62
340.866	8.62
341.655	8.62
342.444	9.62
343.233	7.62
344.022	9.62
344.811	9.62
345.6	7.62
346.388	7.62
347.177	7.62
347.965	9.62
348.754	5.62
349.542	8.62
350.33	7.62
351.119	8.62
351.907	8.62
352.695	8.62
353.483	8.62
354.271	8.62
355.059	6.62
355.846	8.62
356.634	6.62
357.422	8.62
358.209	8.62
358.997	6.62
359.784	8.62
360.571	6.62
361.359	8.62
362.146	8.62
362.933	6.62
363.72	7.62
364.507	6.62
365.294	5.62
366.081	5.62
366.867	6.62
367.654	9.62
368.44	7.62
369.227	6.62
370.013	4.62
370.8	8.62
371.586	6.62
372.372	7.62
373.158	6.62
373.944	5.62
374.73	6.62
375.516	8.62
376.302	6.62
377.088	9.62
377.873	6.62
378.659	5.62
379.445	7.62
380.23	6.62
381.015	5.62
381.801	6.62
382.586	6.62
383.371	6.62
384.156	7.62
384.941	7.62
385.726	5.62
386.511	5.62
387.296	9.62
388.08	6.62
388.865	8.62
389.649	5.62
390.434	9.62
391.218	8.62
392.003	7.62
392.787	6.62
393.571	7.62
394.355	8.62
395.139	9.62
395.923	8.62
396.707	7.62
397.491	7.62
398.274	7.62
399.058	7.62
399.842	7.62
400.625	10.62
401.408	8.62
402.192	9.62
402.975	9.62
403.758	11.62
404.541	9.62
405.324	10.62
406.107	9.62
406.89	9.62
407.673	8.62
408.456	10.62
409.238	8.62
410.021	12.62
410.803	10.62
411.586	11.62
412.368	12.62
413.151	12.62
413.933	11.62
414.715	10.62
415.497	14.62
416.279	13.62
417.061	9.62
417.843	13.62
418.624	14.62
419.406	14.62
420.188	14.62
420.969	13.62
421.751	12.62
422.532	17.62
423.313	16.62
424.095	14.62
424.876	14.62
425.657	14.62
426.438	17.62
427.219	18.62
428	16.62
428.78	18.62
429.561	21.62
430.342	20.62
431.122	19.62
431.903	19.62
432.683	22.62
433.464	23.62
434.244	22.62
435.024	23.62
435.804	23.62
436.584	28.62
437.364	27.62
438.144	30.62
438.924	29.62
439.704	34.62
440.483	31.62
441.263	37.62
442.042	35.62
442.822	40.62
443.601	43.62
444.38	45.62
445.16	50.62
445.939	57.62
446.718	55.62
447.497	66.62
448.276	70.62
449.054	75.62
449.833	83.62
450.612	91.62
451.391	98.62
452.169	106.62
452.948	124.62
453.726	132.62
454.504	148.62
455.282	161.62
456.061	181.62
456.839	199.62
457.617	218.62
458.395	253.62
459.172	277.62
459.95	313.62
460.728	340.62
461.506	376.62
462.283	424.62
463.061	472.62
463.838	526.62
464.615	596.62
465.393	661.62
466.17	724.62
466.947	794.62
467.724	898.62
468.501	995.62
469.278	1099.62
470.055	1214.62
470.831	1348.62
471.608	1473.62
472.385	1620.62
473.161	1791.62
473.938	1956.62
474.714	2169.62
475.49	2364.62
476.266	2605.62
477.043	2835.62
477.819	3127.62
478.595	3419.62
479.371	3740.62
480.146	4071.62
480.922	4453.62
481.698	4849.62
482.473	5277.62
483.249	5763.62
484.024	6264.62
484.8	6837.62
485.575	7409.62
486.35	8031.62
487.126	8736.62
487.901	9452.62
488.676	10229.62
489.451	11102.62
490.225	11991.62
491	12894.62
491.775	13979.62
492.55	14993.62
493.324	16171.62
494.099	17229.62
494.873	18366.62
495.647	19646.62
496.422	20865.62
497.196	22167.62
497.97	23453.62
498.744	24795.62
499.518	26062.62
500.292	27204.62
501.066	28292.62
501.839	29396.62
502.613	30367.62
503.387	31180.62
504.16	31816.62
504.934	32434.62
505.707	32573.62
506.48	32682.62
507.253	32798.62
508.027	32657.62
508.8	32382.62
509.573	31911.62
510.346	31444.62
511.118	30649.62
511.891	29937.62
512.664	29018.62
513.437	28070.62
514.209	27039.62
514.982	26213.62
515.754	25212.62
516.526	24245.62
517.298	23226.62
518.071	22235.62
518.843	21400.62
519.615	20560.62
520.387	19729.62
521.159	18972.62
521.93	18317.62
522.702	17548.62
523.474	16820.62
524.245	16230.62
525.017	15524.62
525.788	14763.62
526.56	14151.62
527.331	13542.62
528.102	12966.62
528.873	12363.62
529.644	11838.62
530.415	11309.62
531.186	10790.62
531.957	10254.62
532.728	9752.62
533.498	9205.62
534.269	8743.62
535.039	8298.62
535.81	7823.62
536.58	7386.62
537.351	6995.62
538.121	6636.62
538.891	6270.62
539.661	5943.62
540.431	5648.62
541.201	5339.62
541.971	5030.62
542.741	4808.62
543.51	4568.62
544.28	4322.62
545.05	4099.62
545.819	3915.62
546.588	3701.62
547.358	3521.62
548.127	3347.62
548.896	3177.62
549.665	3016.62
550.434	2870.62
551.203	2725.62
551.972	2607.62
552.741	2454.62
553.51	2317.62
554.278	2195.62
555.047	2068.62
555.815	1956.62
556.584	1837.62
557.352	1741.62
558.121	1653.62
558.889	1566.62
559.657	1470.62
560.425	1388.62
561.193	1304.62
561.961	1251.62
562.729	1166.62
563.496	1117.62
564.264	1054.62
565.032	1002.62
565.799	948.62
566.567	892.62
567.334	835.62
568.101	797.62
568.869	755.62
569.636	711.62
570.403	660.62
571.17	629.62
571.937	592.62
572.704	561.62
573.471	530.62
574.237	502.62
575.004	465.62
575.771	444.62
576.537	415.62
577.303	396.62
578.07	368.62
578.836	347.62
579.602	332.62
580.368	313.62
581.134	302.62
581.9	286.62
582.666	267.62
583.432	249.62
584.198	241.62
584.964	227.62
585.729	223.62
586.495	206.62
587.26	195.62
588.025	190.62
588.791	172.62
589.556	168.62
590.321	153.62
591.086	150.62
591.851	134.62
592.616	133.62
593.381	125.62
594.146	123.62
594.911	116.62
595.675	113.62
596.44	103.62
597.204	101.62
597.969	94.62
598.733	93.62
599.497	85.62
600.261	84.62
601.025	78.62
601.79	75.62
602.553	73.62
603.317	69.62
604.081	67.62
604.845	65.62
605.609	60.62
606.372	60.62
607.136	56.62
607.899	51.62
608.662	55.62
609.426	50.62
610.189	47.62
610.952	46.62
611.715	45.62
612.478	43.62
613.241	41.62
614.004	41.62
614.767	39.62
615.529	40.62
616.292	34.62
617.055	34.62
617.817	35.62
618.579	33.62
619.342	29.62
620.104	30.62
620.866	29.62
621.628	30.62
622.39	28.62
623.152	24.62
623.914	24.62
624.676	22.62
625.438	24.62
626.199	22.62
626.961	22.62
627.722	19.62
628.484	21.62
629.245	22.62
630.006	19.62
630.768	17.62
631.529	16.62
632.29	18.62
633.051	20.62
633.812	13.62
634.573	18.62
635.333	16.62
636.094	16.62
636.855	16.62
637.615	14.62
638.376	14.62
639.136	12.62
639.896	14.62
640.657	15.62
641.417	12.62
642.177	12.62
642.937	13.62
643.697	11.62
644.457	12.62
645.216	11.62
645.976	10.62
646.736	10.62
647.495	8.62
648.255	9.62
649.014	12.62
649.774	12.62
650.533	9.62
651.292	9.62
652.051	8.62
652.81	9.62
653.569	7.62
654.328	10.62
655.087	9.62
655.846	8.62
656.604	7.62
657.363	7.62
658.121	11.62
658.88	8.62
659.638	7.62
660.397	8.62
661.155	7.62
661.913	7.62
662.671	9.62
663.429	7.62
664.187	8.62
664.945	7.62
665.703	8.62
666.46	5.62
667.218	7.62
667.976	6.62
668.733	10.62
669.49	7.62
670.248	7.62
671.005	6.62
671.762	8.62
672.519	8.62
673.276	6.62
674.033	5.62
674.79	7.62
675.547	5.62
676.304	7.62
677.06	6.62
677.817	6.62
678.574	6.62
679.33	5.62
680.086	5.62
680.843	4.62
681.599	4.62
682.355	3.62
683.111	5.62
683.867	7.62
684.623	5.62
685.379	6.62
686.135	4.62
686.89	5.62
687.646	7.62
688.402	4.62
689.157	2.62
689.912	4.62
690.668	6.62
691.423	6.62
692.178	4.62
692.933	5.62
693.688	3.62
694.443	7.62
695.198	6.62
695.953	6.62
696.708	6.62
697.462	5.62
698.217	6.62
698.972	4.62
699.726	6.62
700.48	6.62
701.235	4.62
701.989	6.62
702.743	5.62
703.497	5.62
704.251	5.62
705.005	4.62
705.759	5.62
706.513	2.62
707.266	3.62
708.02	5.62
708.774	3.62
709.527	5.62
710.28	3.62
711.034	4.62
711.787	2.62
712.54	3.62
713.293	7.62
714.046	5.62
714.799	7.62
715.552	4.62
716.305	4.62
717.058	4.62
717.81	5.62
718.563	5.62
719.315	3.62
720.068	3.62
720.82	4.62
721.573	4.62
722.325	5.62
723.077	5.62
723.829	6.62
724.581	7.62
725.333	5.62
726.085	2.62
726.836	6.62
727.588	3.62
728.34	5.62
729.091	7.62
729.843	4.62
730.594	4.62
731.346	6.62
732.097	7.62
732.848	3.62
733.599	6.62
734.35	5.62
735.101	4.62
735.852	6.62
736.603	6.62
737.354	6.62
738.104	4.62
738.855	3.62
739.605	4.62
740.356	6.62
741.106	7.62
741.856	4.62
742.607	7.62
743.357	9.62
744.107	6.62
744.857	6.62
745.607	6.62
746.357	5.62
747.106	7.62
747.856	8.62
748.606	7.62
749.355	5.62
750.105	7.62
750.854	6.62
751.603	7.62
752.353	7.62
753.102	8.62
753.851	7.62
754.6	6.62
755.349	9.62
756.098	7.62
756.847	4.62
757.595	8.62
758.344	5.62
759.093	8.62
759.841	10.62
760.589	6.62
761.338	8.62
762.086	8.62
762.834	7.62
763.582	7.62
764.331	10.62
765.079	8.62
765.826	8.62
766.574	5.62
767.322	5.62
768.07	8.62
768.817	7.62
769.565	9.62
770.312	9.62
771.06	10.62
771.807	11.62
772.554	8.62
773.302	10.62
774.049	9.62
774.796	9.62
775.543	12.62
776.29	9.62
777.036	11.62
777.783	10.62
778.53	11.62
779.276	11.62
780.023	10.62
780.769	9.62
781.516	11.62
782.262	12.62
783.008	8.62
783.754	10.62
784.5	11.62
785.246	9.62
785.992	11.62
786.738	10.62
787.484	11.62
788.23	12.62
788.975	11.62
789.721	9.62
790.466	9.62
791.212	11.62
791.957	12.62
792.702	9.62
793.447	11.62
794.193	9.62
794.938	8.62
795.683	11.62
796.427	10.62
797.172	8.62
797.917	9.62
798.662	9.62
799.406	9.62
800.151	8.62
800.895	8.62
801.64	8.62
802.384	9.62
803.128	9.62
803.872	10.62
804.616	8.62
805.36	7.62
806.104	8.62
806.848	7.62
807.592	8.62
808.336	6.62
809.079	7.62
809.823	8.62
810.566	8.62
811.31	9.62
812.053	7.62
812.796	5.62
813.539	7.62
814.283	7.62
815.026	6.62
815.769	6.62
816.511	8.62
817.254	4.62
817.997	5.62
818.74	6.62
819.482	4.62
820.225	6.62
820.967	5.62
821.71	7.62
822.452	5.62
823.194	6.62
823.936	6.62
824.678	3.62
825.42	4.62
826.162	6.62
826.904	5.62
827.646	3.62
828.388	3.62
829.129	6.62
829.871	3.62
830.612	6.62
831.354	6.62
832.095	6.62
832.836	7.62
833.577	2.62
834.319	3.62
835.06	3.62
835.801	4.62
836.542	4.62
837.282	2.62
838.023	5.62
838.764	3.62
839.504	4.62
840.245	6.62
840.985	4.62
841.726	4.62
842.466	2.62
843.206	4.62
843.946	3.62
844.687	5.62
845.427	2.62
846.166	3.62
846.906	3.62
847.646	3.62
848.386	2.62
849.125	5.62
849.865	3.62
850.605	2.62
851.344	3.62
852.083	5.62
852.823	3.62
853.562	3.62
854.301	4.62
855.04	2.62
855.779	3.62
856.518	2.62
857.257	2.62
857.995	4.62
858.734	4.62
859.473	2.62
860.211	3.62
860.95	4.62
861.688	-0.38
862.426	4.62
863.165	3.62
863.903	3.62
864.641	1.62
865.379	0.62
866.117	4.62
866.855	2.62
867.593	2.62
868.33	2.62
869.068	1.62
869.806	2.62
870.543	2.62
871.28	4.62
872.018	4.62
872.755	1.62
873.492	0.62
874.229	-0.38
874.967	2.62
875.703	0.62
876.44	1.62
877.177	2.62
877.914	2.62
878.651	3.62
879.387	0.62
880.124	0.62
880.86	2.62
881.597	0.62
882.333	2.62
883.069	1.62
883.806	0.62
884.542	2.62
885.278	0.62
886.014	0.62
886.749	2.62
887.485	1.62
888.221	0.62
888.957	1.62
889.692	2.62
890.428	0.62
891.163	1.62
891.899	2.62
892.634	-0.38
893.369	1.62
894.104	3.62
894.839	-0.38
895.574	1.62
896.309	3.62
897.044	1.62
897.779	2.62
898.514	2.62
899.248	1.62
899.983	2.62
900.717	1.62
901.452	1.62
902.186	1.62
902.92	1.62
903.654	0.62
904.389	0.62
905.123	0.62
905.857	-1.38
906.59	1.62
907.324	1.62
908.058	1.62
908.792	2.62
909.525	-0.38
910.259	0.62
910.992	-0.38
911.726	0.62
912.459	-0.38
913.192	-1.38
913.925	-0.38
914.658	1.62
915.391	2.62
916.124	0.62
916.857	1.62
917.59	2.62
918.323	-0.38
919.055	1.62
919.788	1.62
920.521	-0.38
921.253	-2.38
921.985	-0.38
922.718	0.62
923.45	2.62
924.182	0.62
924.914	0.62
925.646	-0.38
926.378	-0.38
927.11	-1.38
927.841	0.62
928.573	0.62
929.305	-0.38
930.036	-1.38
930.768	-0.38
931.499	0.62
932.23	1.62
932.962	-0.38
933.693	0.62
934.424	0.62
935.155	0.62
935.886	2.62
936.617	0.62
937.348	0.62
938.078	0.62
938.809	0.62
939.54	0.62
940.27	-2.38
941.001	0.62
941.731	0.62
942.461	0.62
943.191	-1.38
943.922	1.62
944.652	-0.38
945.382	1.62
946.112	-1.38
946.841	0.62
947.571	-1.38
948.301	1.62
949.031	2.62
949.76	-1.38
950.49	-0.38
951.219	-1.38
951.948	-1.38
952.678	1.62
953.407	-0.38
954.136	1.62
954.865	0.62
955.594	0.62
956.323	0.62
957.052	0.62
957.78	2.62
958.509	0.62
959.238	1.62
959.966	0.62
960.695	-0.38
961.423	1.62
962.151	-0.38
962.88	2.62
963.608	0.62
964.336	0.62
965.064	0.62
965.792	1.62
966.52	0.62
967.247	0.62
967.975	-1.38
968.703	-0.38
969.43	1.62
970.158	1.62
970.885	0.62
971.613	-1.38
972.34	-1.38
973.067	1.62
973.794	0.62
974.521	-1.38
975.248	-0.38
975.975	-3.38
976.702	2.62
977.429	2.62
978.156	0.62
978.882	2.62
979.609	-1.38
980.335	1.62
981.062	0.62
981.788	1.62
982.514	-0.38
983.24	-0.38
983.967	0.62
984.693	0.62
985.419	1.62
986.144	0.62
986.87	-1.38
987.596	2.62
988.322	-0.38
989.047	0.62
989.773	0.62
990.498	0.62
991.224	-1.38
991.949	-0.38
992.674	-0.38
993.399	-0.38
994.124	0.62
994.849	0.62
995.574	0.62
996.299	1.62
997.024	-1.38
997.749	-0.38
998.473	-0.38
999.198	0.62
999.922	0.62
1000.647	0.62
1001.371	1.62
1002.095	-1.38
1002.82	-1.38
1003.544	1.62
1004.268	2.62
1004.992	0.62
1005.716	1.62
1006.439	5.62
1007.163	1.62
1007.887	2.62
1008.611	2.62
1009.334	1.62
1010.058	0.62
1010.781	-1.38
1011.504	0.62
1012.228	0.62
1012.951	-1.38
1013.674	-0.38
1014.397	0.62
1015.12	0.62
