节点500_425_QEPB04081__508__15-56-45-580.txt的数据

Date: Wed Nov 12 15:56:45 CST 2025
User: PC
Spectrometer: QEPB0408
触发模式: 0
积分时间 (秒): 1.000000E-2
Scans to average: 1
启用暗噪声校正: true
启用非线性校正: false
滑动平均宽度: 0
X轴模式: Wavelengths
Number of Pixels in Spectrum: 1044
>>>>>Begin Spectral Data<<<<<
220.843	4.12
221.644	4.12
222.444	2.12
223.244	2.12
224.045	6.12
224.845	2.12
225.645	4.12
226.445	1.12
227.245	3.12
228.045	4.12
228.845	4.12
229.645	7.12
230.444	5.12
231.244	5.12
232.043	6.12
232.843	4.12
233.642	6.12
234.442	6.12
235.241	8.12
236.04	5.12
236.839	6.12
237.638	7.12
238.437	5.12
239.236	6.12
240.035	4.12
240.833	5.12
241.632	9.12
242.43	7.12
243.229	8.12
244.027	8.12
244.826	8.12
245.624	7.12
246.422	8.12
247.22	7.12
248.018	9.12
248.816	9.12
249.614	7.12
250.412	10.12
251.21	9.12
252.007	9.12
252.805	11.12
253.602	7.12
254.4	11.12
255.197	10.12
255.994	11.12
256.791	8.12
257.589	10.12
258.386	11.12
259.183	11.12
259.979	15.12
260.776	14.12
261.573	12.12
262.37	14.12
263.166	13.12
263.963	13.12
264.759	17.12
265.556	17.12
266.352	14.12
267.148	17.12
267.944	16.12
268.74	16.12
269.536	16.12
270.332	19.12
271.128	17.12
271.924	17.12
272.719	19.12
273.515	20.12
274.311	21.12
275.106	23.12
275.901	23.12
276.697	21.12
277.492	22.12
278.287	22.12
279.082	20.12
279.877	23.12
280.672	22.12
281.467	24.12
282.262	20.12
283.056	24.12
283.851	21.12
284.646	25.12
285.44	20.12
286.234	22.12
287.029	24.12
287.823	19.12
288.617	25.12
289.411	22.12
290.205	24.12
290.999	22.12
291.793	21.12
292.587	20.12
293.381	22.12
294.174	22.12
294.968	21.12
295.761	19.12
296.555	20.12
297.348	17.12
298.141	22.12
298.935	24.12
299.728	17.12
300.521	18.12
301.314	16.12
302.107	15.12
302.899	16.12
303.692	16.12
304.485	14.12
305.277	14.12
306.07	18.12
306.862	14.12
307.655	16.12
308.447	15.12
309.239	14.12
310.031	16.12
310.823	12.12
311.615	11.12
312.407	12.12
313.199	12.12
313.991	11.12
314.783	11.12
315.574	13.12
316.366	13.12
317.157	11.12
317.949	11.12
318.74	11.12
319.531	12.12
320.322	11.12
321.113	9.12
321.904	9.12
322.695	9.12
323.486	10.12
324.277	9.12
325.068	11.12
325.858	8.12
326.649	10.12
327.439	8.12
328.23	7.12
329.02	9.12
329.81	8.12
330.6	9.12
331.391	9.12
332.181	8.12
332.971	9.12
333.76	7.12
334.55	7.12
335.34	8.12
336.13	9.12
336.919	10.12
337.709	7.12
338.498	9.12
339.287	7.12
340.077	8.12
340.866	9.12
341.655	9.12
342.444	7.12
343.233	9.12
344.022	10.12
344.811	10.12
345.6	9.12
346.388	7.12
347.177	9.12
347.965	8.12
348.754	7.12
349.542	6.12
350.33	6.12
351.119	8.12
351.907	5.12
352.695	7.12
353.483	9.12
354.271	7.12
355.059	10.12
355.846	10.12
356.634	7.12
357.422	9.12
358.209	6.12
358.997	8.12
359.784	7.12
360.571	8.12
361.359	7.12
362.146	7.12
362.933	8.12
363.72	6.12
364.507	6.12
365.294	7.12
366.081	6.12
366.867	8.12
367.654	5.12
368.44	5.12
369.227	8.12
370.013	8.12
370.8	6.12
371.586	8.12
372.372	8.12
373.158	7.12
373.944	7.12
374.73	5.12
375.516	7.12
376.302	8.12
377.088	6.12
377.873	8.12
378.659	4.12
379.445	9.12
380.23	5.12
381.015	5.12
381.801	6.12
382.586	7.12
383.371	8.12
384.156	6.12
384.941	7.12
385.726	7.12
386.511	4.12
387.296	7.12
388.08	4.12
388.865	10.12
389.649	7.12
390.434	9.12
391.218	10.12
392.003	8.12
392.787	9.12
393.571	10.12
394.355	6.12
395.139	9.12
395.923	6.12
396.707	9.12
397.491	9.12
398.274	8.12
399.058	6.12
399.842	8.12
400.625	9.12
401.408	7.12
402.192	10.12
402.975	10.12
403.758	9.12
404.541	9.12
405.324	8.12
406.107	10.12
406.89	9.12
407.673	10.12
408.456	10.12
409.238	10.12
410.021	10.12
410.803	9.12
411.586	11.12
412.368	11.12
413.151	11.12
413.933	10.12
414.715	12.12
415.497	10.12
416.279	12.12
417.061	13.12
417.843	13.12
418.624	13.12
419.406	13.12
420.188	12.12
420.969	14.12
421.751	16.12
422.532	14.12
423.313	14.12
424.095	14.12
424.876	14.12
425.657	15.12
426.438	13.12
427.219	16.12
428	15.12
428.78	16.12
429.561	14.12
430.342	20.12
431.122	19.12
431.903	19.12
432.683	21.12
433.464	24.12
434.244	23.12
435.024	23.12
435.804	23.12
436.584	26.12
437.364	27.12
438.144	27.12
438.924	32.12
439.704	33.12
440.483	36.12
441.263	36.12
442.042	38.12
442.822	40.12
443.601	43.12
444.38	46.12
445.16	51.12
445.939	53.12
446.718	56.12
447.497	62.12
448.276	71.12
449.054	73.12
449.833	84.12
450.612	94.12
451.391	98.12
452.169	109.12
452.948	123.12
453.726	134.12
454.504	148.12
455.282	162.12
456.061	178.12
456.839	198.12
457.617	229.12
458.395	249.12
459.172	269.12
459.95	310.12
460.728	347.12
461.506	382.12
462.283	427.12
463.061	476.12
463.838	539.12
464.615	592.12
465.393	655.12
466.17	730.12
466.947	804.12
467.724	897.12
468.501	988.12
469.278	1095.12
470.055	1209.12
470.831	1328.12
471.608	1467.12
472.385	1634.12
473.161	1797.12
473.938	1956.12
474.714	2177.12
475.49	2389.12
476.266	2616.12
477.043	2859.12
477.819	3137.12
478.595	3444.12
479.371	3776.12
480.146	4113.12
480.922	4463.12
481.698	4897.12
482.473	5335.12
483.249	5835.12
484.024	6349.12
484.8	6928.12
485.575	7509.12
486.35	8145.12
487.126	8844.12
487.901	9606.12
488.676	10450.12
489.451	11295.12
490.225	12170.12
491	13233.12
491.775	14227.12
492.55	15333.12
493.324	16478.12
494.099	17594.12
494.873	18825.12
495.647	20059.12
496.422	21226.12
497.196	22654.12
497.97	23988.12
498.744	25345.12
499.518	26578.12
500.292	27775.12
501.066	28839.12
501.839	29961.12
502.613	30917.12
503.387	31752.12
504.16	32370.12
504.934	32867.12
505.707	33183.12
506.48	33246.12
507.253	33122.12
508.027	33055.12
508.8	32678.12
509.573	32228.12
510.346	31685.12
511.118	30833.12
511.891	30054.12
512.664	29135.12
513.437	28188.12
514.209	27201.12
514.982	26235.12
515.754	25294.12
516.526	24206.12
517.298	23276.12
518.071	22341.12
518.843	21452.12
519.615	20562.12
520.387	19750.12
521.159	19010.12
521.93	18269.12
522.702	17536.12
523.474	16908.12
524.245	16219.12
525.017	15518.12
525.788	14760.12
526.56	14163.12
527.331	13528.12
528.102	12915.12
528.873	12366.12
529.644	11781.12
530.415	11267.12
531.186	10724.12
531.957	10217.12
532.728	9702.12
533.498	9172.12
534.269	8636.12
535.039	8235.12
535.81	7799.12
536.58	7357.12
537.351	6948.12
538.121	6596.12
538.891	6236.12
539.661	5926.12
540.431	5619.12
541.201	5273.12
541.971	5029.12
542.741	4769.12
543.51	4522.12
544.28	4307.12
545.05	4087.12
545.819	3885.12
546.588	3709.12
547.358	3480.12
548.127	3333.12
548.896	3177.12
549.665	3015.12
550.434	2854.12
551.203	2704.12
551.972	2578.12
552.741	2435.12
553.51	2310.12
554.278	2173.12
555.047	2069.12
555.815	1949.12
556.584	1834.12
557.352	1735.12
558.121	1632.12
558.889	1544.12
559.657	1446.12
560.425	1385.12
561.193	1308.12
561.961	1232.12
562.729	1163.12
563.496	1109.12
564.264	1050.12
565.032	994.12
565.799	931.12
566.567	892.12
567.334	824.12
568.101	794.12
568.869	751.12
569.636	695.12
570.403	651.12
571.17	623.12
571.937	591.12
572.704	560.12
573.471	525.12
574.237	492.12
575.004	464.12
575.771	437.12
576.537	414.12
577.303	389.12
578.07	373.12
578.836	347.12
579.602	320.12
580.368	318.12
581.134	289.12
581.9	281.12
582.666	264.12
583.432	254.12
584.198	234.12
584.964	226.12
585.729	214.12
586.495	208.12
587.26	189.12
588.025	188.12
588.791	174.12
589.556	163.12
590.321	158.12
591.086	147.12
591.851	142.12
592.616	132.12
593.381	127.12
594.146	119.12
594.911	118.12
595.675	109.12
596.44	103.12
597.204	99.12
597.969	98.12
598.733	90.12
599.497	88.12
600.261	85.12
601.025	82.12
601.79	74.12
602.553	74.12
603.317	68.12
604.081	66.12
604.845	65.12
605.609	62.12
606.372	59.12
607.136	57.12
607.899	51.12
608.662	55.12
609.426	48.12
610.189	49.12
610.952	48.12
611.715	46.12
612.478	41.12
613.241	39.12
614.004	40.12
614.767	36.12
615.529	35.12
616.292	35.12
617.055	32.12
617.817	33.12
618.579	35.12
619.342	30.12
620.104	27.12
620.866	27.12
621.628	29.12
622.39	27.12
623.152	26.12
623.914	28.12
624.676	24.12
625.438	24.12
626.199	23.12
626.961	20.12
627.722	20.12
628.484	23.12
629.245	21.12
630.006	20.12
630.768	17.12
631.529	18.12
632.29	19.12
633.051	20.12
633.812	17.12
634.573	17.12
635.333	14.12
636.094	18.12
636.855	14.12
637.615	14.12
638.376	13.12
639.136	15.12
639.896	13.12
640.657	13.12
641.417	12.12
642.177	12.12
642.937	14.12
643.697	13.12
644.457	10.12
645.216	10.12
645.976	10.12
646.736	9.12
647.495	12.12
648.255	9.12
649.014	8.12
649.774	8.12
650.533	9.12
651.292	9.12
652.051	12.12
652.81	10.12
653.569	8.12
654.328	10.12
655.087	7.12
655.846	10.12
656.604	9.12
657.363	9.12
658.121	6.12
658.88	6.12
659.638	6.12
660.397	8.12
661.155	8.12
661.913	8.12
662.671	4.12
663.429	8.12
664.187	9.12
664.945	8.12
665.703	8.12
666.46	4.12
667.218	8.12
667.976	8.12
668.733	7.12
669.49	6.12
670.248	7.12
671.005	7.12
671.762	6.12
672.519	8.12
673.276	4.12
674.033	8.12
674.79	4.12
675.547	6.12
676.304	7.12
677.06	7.12
677.817	4.12
678.574	3.12
679.33	6.12
680.086	5.12
680.843	3.12
681.599	5.12
682.355	5.12
683.111	7.12
683.867	4.12
684.623	5.12
685.379	5.12
686.135	5.12
686.89	7.12
687.646	6.12
688.402	5.12
689.157	3.12
689.912	3.12
690.668	5.12
691.423	4.12
692.178	7.12
692.933	6.12
693.688	4.12
694.443	3.12
695.198	5.12
695.953	5.12
696.708	4.12
697.462	4.12
698.217	5.12
698.972	4.12
699.726	4.12
700.48	2.12
701.235	2.12
701.989	6.12
702.743	3.12
703.497	4.12
704.251	6.12
705.005	3.12
705.759	4.12
706.513	7.12
707.266	4.12
708.02	4.12
708.774	4.12
709.527	2.12
710.28	6.12
711.034	4.12
711.787	5.12
712.54	4.12
713.293	3.12
714.046	5.12
714.799	4.12
715.552	5.12
716.305	4.12
717.058	4.12
717.81	5.12
718.563	3.12
719.315	6.12
720.068	5.12
720.82	6.12
721.573	5.12
722.325	5.12
723.077	6.12
723.829	4.12
724.581	6.12
725.333	4.12
726.085	5.12
726.836	5.12
727.588	3.12
728.34	7.12
729.091	4.12
729.843	5.12
730.594	6.12
731.346	4.12
732.097	4.12
732.848	5.12
733.599	5.12
734.35	7.12
735.101	3.12
735.852	3.12
736.603	5.12
737.354	8.12
738.104	7.12
738.855	7.12
739.605	10.12
740.356	7.12
741.106	5.12
741.856	5.12
742.607	6.12
743.357	6.12
744.107	6.12
744.857	6.12
745.607	6.12
746.357	7.12
747.106	7.12
747.856	7.12
748.606	6.12
749.355	8.12
750.105	6.12
750.854	6.12
751.603	7.12
752.353	7.12
753.102	5.12
753.851	6.12
754.6	7.12
755.349	8.12
756.098	7.12
756.847	7.12
757.595	6.12
758.344	5.12
759.093	8.12
759.841	6.12
760.589	9.12
761.338	6.12
762.086	8.12
762.834	8.12
763.582	7.12
764.331	10.12
765.079	7.12
765.826	9.12
766.574	9.12
767.322	8.12
768.07	8.12
768.817	9.12
769.565	9.12
770.312	7.12
771.06	10.12
771.807	10.12
772.554	7.12
773.302	10.12
774.049	10.12
774.796	10.12
775.543	9.12
776.29	10.12
777.036	9.12
777.783	10.12
778.53	11.12
779.276	10.12
780.023	12.12
780.769	10.12
781.516	8.12
782.262	8.12
783.008	10.12
783.754	8.12
784.5	9.12
785.246	8.12
785.992	9.12
786.738	9.12
787.484	11.12
788.23	12.12
788.975	12.12
789.721	10.12
790.466	10.12
791.212	12.12
791.957	9.12
792.702	13.12
793.447	8.12
794.193	10.12
794.938	9.12
795.683	7.12
796.427	9.12
797.172	10.12
797.917	11.12
798.662	10.12
799.406	9.12
800.151	9.12
800.895	10.12
801.64	9.12
802.384	6.12
803.128	7.12
803.872	8.12
804.616	7.12
805.36	9.12
806.104	8.12
806.848	7.12
807.592	7.12
808.336	6.12
809.079	6.12
809.823	7.12
810.566	9.12
811.31	5.12
812.053	7.12
812.796	5.12
813.539	3.12
814.283	7.12
815.026	7.12
815.769	8.12
816.511	8.12
817.254	7.12
817.997	6.12
818.74	4.12
819.482	6.12
820.225	7.12
820.967	2.12
821.71	5.12
822.452	4.12
823.194	5.12
823.936	6.12
824.678	4.12
825.42	4.12
826.162	6.12
826.904	5.12
827.646	3.12
828.388	7.12
829.129	2.12
829.871	3.12
830.612	3.12
831.354	4.12
832.095	5.12
832.836	5.12
833.577	5.12
834.319	1.12
835.06	3.12
835.801	6.12
836.542	3.12
837.282	4.12
838.023	2.12
838.764	2.12
839.504	3.12
840.245	3.12
840.985	6.12
841.726	5.12
842.466	2.12
843.206	4.12
843.946	5.12
844.687	4.12
845.427	4.12
846.166	3.12
846.906	3.12
847.646	2.12
848.386	4.12
849.125	2.12
849.865	2.12
850.605	4.12
851.344	3.12
852.083	0.12
852.823	3.12
853.562	2.12
854.301	1.12
855.04	5.12
855.779	2.12
856.518	0.12
857.257	4.12
857.995	4.12
858.734	2.12
859.473	3.12
860.211	2.12
860.95	2.12
861.688	4.12
862.426	4.12
863.165	0.12
863.903	3.12
864.641	4.12
865.379	3.12
866.117	3.12
866.855	1.12
867.593	4.12
868.33	2.12
869.068	1.12
869.806	1.12
870.543	2.12
871.28	2.12
872.018	2.12
872.755	2.12
873.492	3.12
874.229	2.12
874.967	1.12
875.703	0.12
876.44	1.12
877.177	0.12
877.914	0.12
878.651	1.12
879.387	1.12
880.124	3.12
880.86	0.12
881.597	2.12
882.333	1.12
883.069	1.12
883.806	2.12
884.542	1.12
885.278	1.12
886.014	3.12
886.749	-0.88
887.485	4.12
888.221	2.12
888.957	2.12
889.692	-0.88
890.428	1.12
891.163	1.12
891.899	-0.88
892.634	1.12
893.369	-0.88
894.104	1.12
894.839	1.12
895.574	2.12
896.309	2.12
897.044	1.12
897.779	3.12
898.514	-0.88
899.248	3.12
899.983	2.12
900.717	-0.88
901.452	-0.88
902.186	0.12
902.92	2.12
903.654	0.12
904.389	1.12
905.123	-0.88
905.857	2.12
906.59	1.12
907.324	0.12
908.058	1.12
908.792	1.12
909.525	2.12
910.259	2.12
910.992	1.12
911.726	3.12
912.459	0.12
913.192	0.12
913.925	1.12
914.658	2.12
915.391	0.12
916.124	0.12
916.857	0.12
917.59	0.12
918.323	0.12
919.055	0.12
919.788	1.12
920.521	1.12
921.253	1.12
921.985	-0.88
922.718	0.12
923.45	0.12
924.182	2.12
924.914	-0.88
925.646	2.12
926.378	1.12
927.11	2.12
927.841	0.12
928.573	-0.88
929.305	-0.88
930.036	0.12
930.768	2.12
931.499	-1.88
932.23	-0.88
932.962	-0.88
933.693	-1.88
934.424	0.12
935.155	0.12
935.886	1.12
936.617	2.12
937.348	-0.88
938.078	1.12
938.809	2.12
939.54	-0.88
940.27	-0.88
941.001	-0.88
941.731	1.12
942.461	1.12
943.191	-0.88
943.922	-0.88
944.652	-0.88
945.382	1.12
946.112	-1.88
946.841	2.12
947.571	1.12
948.301	0.12
949.031	-0.88
949.76	-0.88
950.49	-0.88
951.219	-0.88
951.948	0.12
952.678	1.12
953.407	0.12
954.136	-0.88
954.865	-0.88
955.594	0.12
956.323	2.12
957.052	-2.88
957.78	-0.88
958.509	0.12
959.238	1.12
959.966	-0.88
960.695	0.12
961.423	1.12
962.151	2.12
962.88	-1.88
963.608	-2.88
964.336	2.12
965.064	-0.88
965.792	0.12
966.52	-0.88
967.247	0.12
967.975	2.12
968.703	0.12
969.43	-1.88
970.158	2.12
970.885	-1.88
971.613	-0.88
972.34	-2.88
973.067	2.12
973.794	-0.88
974.521	0.12
975.248	0.12
975.975	0.12
976.702	0.12
977.429	-0.88
978.156	1.12
978.882	1.12
979.609	-0.88
980.335	-0.88
981.062	-1.88
981.788	0.12
982.514	1.12
983.24	0.12
983.967	-0.88
984.693	-0.88
985.419	-0.88
986.144	2.12
986.87	0.12
987.596	3.12
988.322	0.12
989.047	0.12
989.773	0.12
990.498	0.12
991.224	-0.88
991.949	0.12
992.674	1.12
993.399	0.12
994.124	-0.88
994.849	0.12
995.574	0.12
996.299	0.12
997.024	0.12
997.749	-0.88
998.473	0.12
999.198	-0.88
999.922	-1.88
1000.647	0.12
1001.371	6.12
1002.095	-1.88
1002.82	0.12
1003.544	0.12
1004.268	1.12
1004.992	3.12
1005.716	2.12
1006.439	2.12
1007.163	1.12
1007.887	2.12
1008.611	-0.88
1009.334	0.12
1010.058	-0.88
1010.781	-0.88
1011.504	1.12
1012.228	2.12
1012.951	-1.88
1013.674	0.12
1014.397	-2.88
1015.12	0.12
