节点500_425_QEPB04081__397__15-54-54-726.txt的数据

Date: Wed Nov 12 15:54:54 CST 2025
User: PC
Spectrometer: QEPB0408
触发模式: 0
积分时间 (秒): 1.000000E-2
Scans to average: 1
启用暗噪声校正: true
启用非线性校正: false
滑动平均宽度: 0
X轴模式: Wavelengths
Number of Pixels in Spectrum: 1044
>>>>>Begin Spectral Data<<<<<
220.843	2.38
221.644	1.38
222.444	3.38
223.244	2.38
224.045	2.38
224.845	2.38
225.645	2.38
226.445	5.38
227.245	3.38
228.045	5.38
228.845	4.38
229.645	4.38
230.444	4.38
231.244	3.38
232.043	2.38
232.843	5.38
233.642	5.38
234.442	6.38
235.241	7.38
236.04	7.38
236.839	5.38
237.638	5.38
238.437	9.38
239.236	8.38
240.035	3.38
240.833	6.38
241.632	6.38
242.43	8.38
243.229	7.38
244.027	7.38
244.826	8.38
245.624	8.38
246.422	5.38
247.22	9.38
248.018	9.38
248.816	12.38
249.614	9.38
250.412	8.38
251.21	7.38
252.007	8.38
252.805	7.38
253.602	10.38
254.4	11.38
255.197	10.38
255.994	10.38
256.791	13.38
257.589	14.38
258.386	13.38
259.183	14.38
259.979	12.38
260.776	14.38
261.573	12.38
262.37	16.38
263.166	16.38
263.963	13.38
264.759	15.38
265.556	15.38
266.352	18.38
267.148	15.38
267.944	16.38
268.74	15.38
269.536	16.38
270.332	19.38
271.128	19.38
271.924	20.38
272.719	21.38
273.515	20.38
274.311	20.38
275.106	23.38
275.901	22.38
276.697	22.38
277.492	23.38
278.287	21.38
279.082	21.38
279.877	25.38
280.672	23.38
281.467	22.38
282.262	22.38
283.056	25.38
283.851	24.38
284.646	22.38
285.44	23.38
286.234	21.38
287.029	23.38
287.823	22.38
288.617	28.38
289.411	23.38
290.205	27.38
290.999	22.38
291.793	22.38
292.587	25.38
293.381	22.38
294.174	21.38
294.968	21.38
295.761	18.38
296.555	19.38
297.348	19.38
298.141	17.38
298.935	21.38
299.728	20.38
300.521	18.38
301.314	20.38
302.107	16.38
302.899	17.38
303.692	16.38
304.485	16.38
305.277	16.38
306.07	16.38
306.862	15.38
307.655	13.38
308.447	18.38
309.239	17.38
310.031	16.38
310.823	12.38
311.615	14.38
312.407	13.38
313.199	13.38
313.991	13.38
314.783	12.38
315.574	12.38
316.366	10.38
317.157	10.38
317.949	12.38
318.74	12.38
319.531	10.38
320.322	6.38
321.113	10.38
321.904	8.38
322.695	9.38
323.486	11.38
324.277	9.38
325.068	11.38
325.858	9.38
326.649	9.38
327.439	8.38
328.23	8.38
329.02	12.38
329.81	10.38
330.6	10.38
331.391	8.38
332.181	7.38
332.971	8.38
333.76	7.38
334.55	9.38
335.34	10.38
336.13	9.38
336.919	11.38
337.709	7.38
338.498	10.38
339.287	8.38
340.077	10.38
340.866	7.38
341.655	7.38
342.444	9.38
343.233	6.38
344.022	7.38
344.811	6.38
345.6	8.38
346.388	8.38
347.177	10.38
347.965	10.38
348.754	7.38
349.542	10.38
350.33	9.38
351.119	7.38
351.907	7.38
352.695	5.38
353.483	8.38
354.271	5.38
355.059	7.38
355.846	6.38
356.634	8.38
357.422	8.38
358.209	4.38
358.997	8.38
359.784	8.38
360.571	6.38
361.359	8.38
362.146	4.38
362.933	7.38
363.72	8.38
364.507	7.38
365.294	7.38
366.081	7.38
366.867	6.38
367.654	5.38
368.44	7.38
369.227	6.38
370.013	4.38
370.8	10.38
371.586	7.38
372.372	7.38
373.158	7.38
373.944	6.38
374.73	7.38
375.516	6.38
376.302	8.38
377.088	7.38
377.873	8.38
378.659	7.38
379.445	5.38
380.23	8.38
381.015	7.38
381.801	8.38
382.586	8.38
383.371	7.38
384.156	7.38
384.941	6.38
385.726	9.38
386.511	7.38
387.296	8.38
388.08	5.38
388.865	4.38
389.649	8.38
390.434	8.38
391.218	9.38
392.003	6.38
392.787	6.38
393.571	6.38
394.355	8.38
395.139	9.38
395.923	7.38
396.707	10.38
397.491	10.38
398.274	8.38
399.058	8.38
399.842	8.38
400.625	9.38
401.408	8.38
402.192	8.38
402.975	8.38
403.758	10.38
404.541	10.38
405.324	9.38
406.107	10.38
406.89	8.38
407.673	11.38
408.456	12.38
409.238	10.38
410.021	12.38
410.803	9.38
411.586	12.38
412.368	11.38
413.151	13.38
413.933	10.38
414.715	12.38
415.497	11.38
416.279	11.38
417.061	11.38
417.843	12.38
418.624	12.38
419.406	13.38
420.188	15.38
420.969	14.38
421.751	15.38
422.532	16.38
423.313	15.38
424.095	15.38
424.876	15.38
425.657	16.38
426.438	14.38
427.219	16.38
428	20.38
428.78	20.38
429.561	17.38
430.342	21.38
431.122	21.38
431.903	23.38
432.683	23.38
433.464	20.38
434.244	22.38
435.024	25.38
435.804	24.38
436.584	26.38
437.364	27.38
438.144	28.38
438.924	29.38
439.704	31.38
440.483	34.38
441.263	39.38
442.042	36.38
442.822	43.38
443.601	43.38
444.38	45.38
445.16	52.38
445.939	54.38
446.718	58.38
447.497	62.38
448.276	66.38
449.054	72.38
449.833	82.38
450.612	88.38
451.391	101.38
452.169	108.38
452.948	113.38
453.726	127.38
454.504	140.38
455.282	153.38
456.061	169.38
456.839	192.38
457.617	212.38
458.395	234.38
459.172	264.38
459.95	297.38
460.728	329.38
461.506	364.38
462.283	406.38
463.061	458.38
463.838	515.38
464.615	562.38
465.393	633.38
466.17	716.38
466.947	794.38
467.724	889.38
468.501	973.38
469.278	1062.38
470.055	1189.38
470.831	1321.38
471.608	1456.38
472.385	1612.38
473.161	1783.38
473.938	1973.38
474.714	2165.38
475.49	2370.38
476.266	2595.38
477.043	2858.38
477.819	3162.38
478.595	3478.38
479.371	3794.38
480.146	4150.38
480.922	4546.38
481.698	4987.38
482.473	5416.38
483.249	5977.38
484.024	6514.38
484.8	7119.38
485.575	7770.38
486.35	8401.38
487.126	9130.38
487.901	9985.38
488.676	10876.38
489.451	11789.38
490.225	12752.38
491	13797.38
491.775	14968.38
492.55	16137.38
493.324	17372.38
494.099	18555.38
494.873	19758.38
495.647	21196.38
496.422	22404.38
497.196	23890.38
497.97	25330.38
498.744	26668.38
499.518	28046.38
500.292	29162.38
501.066	30201.38
501.839	31474.38
502.613	32397.38
503.387	33080.38
504.16	33639.38
504.934	34093.38
505.707	34294.38
506.48	34237.38
507.253	34046.38
508.027	33775.38
508.8	33332.38
509.573	32752.38
510.346	32079.38
511.118	31182.38
511.891	30305.38
512.664	29303.38
513.437	28260.38
514.209	27177.38
514.982	26140.38
515.754	25133.38
516.526	24077.38
517.298	23112.38
518.071	22167.38
518.843	21171.38
519.615	20342.38
520.387	19572.38
521.159	18815.38
521.93	18116.38
522.702	17404.38
523.474	16750.38
524.245	16032.38
525.017	15367.38
525.788	14617.38
526.56	13964.38
527.331	13330.38
528.102	12779.38
528.873	12189.38
529.644	11603.38
530.415	11085.38
531.186	10551.38
531.957	9994.38
532.728	9451.38
533.498	8945.38
534.269	8469.38
535.039	8036.38
535.81	7620.38
536.58	7164.38
537.351	6767.38
538.121	6389.38
538.891	6058.38
539.661	5747.38
540.431	5458.38
541.201	5158.38
541.971	4882.38
542.741	4640.38
543.51	4399.38
544.28	4177.38
545.05	3964.38
545.819	3801.38
546.588	3627.38
547.358	3404.38
548.127	3245.38
548.896	3085.38
549.665	2909.38
550.434	2766.38
551.203	2634.38
551.972	2518.38
552.741	2370.38
553.51	2258.38
554.278	2102.38
555.047	1999.38
555.815	1889.38
556.584	1764.38
557.352	1681.38
558.121	1570.38
558.889	1497.38
559.657	1422.38
560.425	1339.38
561.193	1253.38
561.961	1202.38
562.729	1121.38
563.496	1056.38
564.264	1025.38
565.032	951.38
565.799	906.38
566.567	854.38
567.334	797.38
568.101	763.38
568.869	722.38
569.636	681.38
570.403	637.38
571.17	609.38
571.937	572.38
572.704	542.38
573.471	521.38
574.237	486.38
575.004	446.38
575.771	421.38
576.537	400.38
577.303	377.38
578.07	354.38
578.836	340.38
579.602	318.38
580.368	299.38
581.134	279.38
581.9	268.38
582.666	256.38
583.432	248.38
584.198	235.38
584.964	221.38
585.729	212.38
586.495	203.38
587.26	190.38
588.025	180.38
588.791	163.38
589.556	158.38
590.321	152.38
591.086	145.38
591.851	135.38
592.616	133.38
593.381	118.38
594.146	117.38
594.911	112.38
595.675	101.38
596.44	102.38
597.204	94.38
597.969	90.38
598.733	87.38
599.497	85.38
600.261	80.38
601.025	74.38
601.79	78.38
602.553	68.38
603.317	67.38
604.081	65.38
604.845	64.38
605.609	65.38
606.372	53.38
607.136	50.38
607.899	53.38
608.662	51.38
609.426	53.38
610.189	45.38
610.952	44.38
611.715	44.38
612.478	41.38
613.241	41.38
614.004	38.38
614.767	38.38
615.529	37.38
616.292	34.38
617.055	33.38
617.817	31.38
618.579	31.38
619.342	30.38
620.104	32.38
620.866	26.38
621.628	25.38
622.39	26.38
623.152	27.38
623.914	25.38
624.676	23.38
625.438	24.38
626.199	22.38
626.961	21.38
627.722	22.38
628.484	18.38
629.245	22.38
630.006	19.38
630.768	20.38
631.529	18.38
632.29	16.38
633.051	18.38
633.812	16.38
634.573	15.38
635.333	17.38
636.094	16.38
636.855	16.38
637.615	13.38
638.376	14.38
639.136	12.38
639.896	14.38
640.657	14.38
641.417	12.38
642.177	14.38
642.937	10.38
643.697	13.38
644.457	11.38
645.216	11.38
645.976	12.38
646.736	9.38
647.495	8.38
648.255	9.38
649.014	10.38
649.774	8.38
650.533	11.38
651.292	9.38
652.051	10.38
652.81	10.38
653.569	9.38
654.328	9.38
655.087	8.38
655.846	8.38
656.604	8.38
657.363	6.38
658.121	9.38
658.88	6.38
659.638	8.38
660.397	9.38
661.155	8.38
661.913	7.38
662.671	6.38
663.429	8.38
664.187	8.38
664.945	6.38
665.703	6.38
666.46	7.38
667.218	7.38
667.976	6.38
668.733	7.38
669.49	8.38
670.248	7.38
671.005	8.38
671.762	6.38
672.519	7.38
673.276	6.38
674.033	6.38
674.79	6.38
675.547	7.38
676.304	4.38
677.06	3.38
677.817	6.38
678.574	4.38
679.33	4.38
680.086	7.38
680.843	4.38
681.599	3.38
682.355	5.38
683.111	5.38
683.867	4.38
684.623	5.38
685.379	5.38
686.135	3.38
686.89	5.38
687.646	4.38
688.402	5.38
689.157	5.38
689.912	3.38
690.668	4.38
691.423	4.38
692.178	6.38
692.933	5.38
693.688	6.38
694.443	6.38
695.198	3.38
695.953	2.38
696.708	6.38
697.462	4.38
698.217	3.38
698.972	4.38
699.726	5.38
700.48	4.38
701.235	5.38
701.989	6.38
702.743	4.38
703.497	3.38
704.251	3.38
705.005	5.38
705.759	4.38
706.513	3.38
707.266	4.38
708.02	6.38
708.774	5.38
709.527	2.38
710.28	5.38
711.034	4.38
711.787	4.38
712.54	3.38
713.293	4.38
714.046	6.38
714.799	5.38
715.552	4.38
716.305	3.38
717.058	3.38
717.81	6.38
718.563	2.38
719.315	5.38
720.068	5.38
720.82	3.38
721.573	8.38
722.325	3.38
723.077	5.38
723.829	5.38
724.581	3.38
725.333	4.38
726.085	5.38
726.836	4.38
727.588	4.38
728.34	6.38
729.091	7.38
729.843	6.38
730.594	6.38
731.346	3.38
732.097	7.38
732.848	5.38
733.599	2.38
734.35	7.38
735.101	8.38
735.852	6.38
736.603	6.38
737.354	6.38
738.104	5.38
738.855	4.38
739.605	7.38
740.356	7.38
741.106	4.38
741.856	6.38
742.607	6.38
743.357	7.38
744.107	8.38
744.857	6.38
745.607	4.38
746.357	6.38
747.106	6.38
747.856	5.38
748.606	7.38
749.355	3.38
750.105	8.38
750.854	5.38
751.603	6.38
752.353	7.38
753.102	6.38
753.851	7.38
754.6	8.38
755.349	8.38
756.098	9.38
756.847	8.38
757.595	8.38
758.344	8.38
759.093	9.38
759.841	7.38
760.589	10.38
761.338	8.38
762.086	8.38
762.834	8.38
763.582	7.38
764.331	9.38
765.079	10.38
765.826	7.38
766.574	7.38
767.322	7.38
768.07	9.38
768.817	8.38
769.565	12.38
770.312	9.38
771.06	8.38
771.807	9.38
772.554	8.38
773.302	10.38
774.049	9.38
774.796	11.38
775.543	12.38
776.29	10.38
777.036	12.38
777.783	13.38
778.53	10.38
779.276	10.38
780.023	9.38
780.769	12.38
781.516	12.38
782.262	10.38
783.008	11.38
783.754	12.38
784.5	11.38
785.246	10.38
785.992	12.38
786.738	12.38
787.484	11.38
788.23	13.38
788.975	11.38
789.721	11.38
790.466	12.38
791.212	10.38
791.957	9.38
792.702	9.38
793.447	11.38
794.193	9.38
794.938	10.38
795.683	9.38
796.427	10.38
797.172	10.38
797.917	8.38
798.662	9.38
799.406	10.38
800.151	10.38
800.895	9.38
801.64	8.38
802.384	9.38
803.128	8.38
803.872	8.38
804.616	8.38
805.36	10.38
806.104	8.38
806.848	8.38
807.592	7.38
808.336	7.38
809.079	6.38
809.823	6.38
810.566	6.38
811.31	6.38
812.053	8.38
812.796	8.38
813.539	7.38
814.283	8.38
815.026	5.38
815.769	6.38
816.511	7.38
817.254	5.38
817.997	6.38
818.74	5.38
819.482	7.38
820.225	5.38
820.967	6.38
821.71	7.38
822.452	3.38
823.194	6.38
823.936	5.38
824.678	4.38
825.42	6.38
826.162	7.38
826.904	5.38
827.646	5.38
828.388	6.38
829.129	5.38
829.871	6.38
830.612	5.38
831.354	3.38
832.095	4.38
832.836	4.38
833.577	4.38
834.319	6.38
835.06	5.38
835.801	4.38
836.542	3.38
837.282	4.38
838.023	4.38
838.764	4.38
839.504	4.38
840.245	2.38
840.985	4.38
841.726	6.38
842.466	5.38
843.206	4.38
843.946	3.38
844.687	3.38
845.427	1.38
846.166	4.38
846.906	4.38
847.646	3.38
848.386	3.38
849.125	3.38
849.865	2.38
850.605	2.38
851.344	4.38
852.083	3.38
852.823	3.38
853.562	3.38
854.301	3.38
855.04	4.38
855.779	4.38
856.518	2.38
857.257	3.38
857.995	4.38
858.734	2.38
859.473	1.38
860.211	4.38
860.95	3.38
861.688	2.38
862.426	3.38
863.165	2.38
863.903	2.38
864.641	2.38
865.379	1.38
866.117	2.38
866.855	1.38
867.593	3.38
868.33	0.38
869.068	1.38
869.806	1.38
870.543	0.38
871.28	2.38
872.018	2.38
872.755	2.38
873.492	0.38
874.229	-0.62
874.967	0.38
875.703	0.38
876.44	3.38
877.177	0.38
877.914	2.38
878.651	2.38
879.387	0.38
880.124	0.38
880.86	2.38
881.597	2.38
882.333	1.38
883.069	2.38
883.806	0.38
884.542	1.38
885.278	1.38
886.014	0.38
886.749	2.38
887.485	0.38
888.221	1.38
888.957	0.38
889.692	1.38
890.428	1.38
891.163	0.38
891.899	1.38
892.634	-0.62
893.369	1.38
894.104	2.38
894.839	-0.62
895.574	2.38
896.309	1.38
897.044	0.38
897.779	-0.62
898.514	0.38
899.248	4.38
899.983	1.38
900.717	0.38
901.452	2.38
902.186	2.38
902.92	2.38
903.654	1.38
904.389	2.38
905.123	0.38
905.857	1.38
906.59	2.38
907.324	3.38
908.058	0.38
908.792	3.38
909.525	0.38
910.259	1.38
910.992	2.38
911.726	0.38
912.459	0.38
913.192	1.38
913.925	0.38
914.658	0.38
915.391	-0.62
916.124	-0.62
916.857	0.38
917.59	0.38
918.323	0.38
919.055	1.38
919.788	-1.62
920.521	1.38
921.253	0.38
921.985	1.38
922.718	0.38
923.45	0.38
924.182	1.38
924.914	-1.62
925.646	1.38
926.378	1.38
927.11	0.38
927.841	0.38
928.573	-0.62
929.305	-0.62
930.036	0.38
930.768	2.38
931.499	0.38
932.23	1.38
932.962	3.38
933.693	-0.62
934.424	3.38
935.155	1.38
935.886	-0.62
936.617	0.38
937.348	1.38
938.078	-0.62
938.809	1.38
939.54	0.38
940.27	-0.62
941.001	1.38
941.731	0.38
942.461	0.38
943.191	1.38
943.922	-1.62
944.652	1.38
945.382	-0.62
946.112	-0.62
946.841	1.38
947.571	0.38
948.301	0.38
949.031	-1.62
949.76	-0.62
950.49	0.38
951.219	0.38
951.948	-0.62
952.678	1.38
953.407	-0.62
954.136	1.38
954.865	-1.62
955.594	1.38
956.323	-0.62
957.052	1.38
957.78	1.38
958.509	-0.62
959.238	0.38
959.966	-0.62
960.695	0.38
961.423	1.38
962.151	1.38
962.88	-1.62
963.608	0.38
964.336	0.38
965.064	-1.62
965.792	2.38
966.52	1.38
967.247	-0.62
967.975	2.38
968.703	-1.62
969.43	0.38
970.158	-0.62
970.885	-0.62
971.613	-0.62
972.34	-0.62
973.067	1.38
973.794	0.38
974.521	1.38
975.248	-1.62
975.975	-0.62
976.702	0.38
977.429	2.38
978.156	-1.62
978.882	0.38
979.609	0.38
980.335	-0.62
981.062	1.38
981.788	0.38
982.514	1.38
983.24	3.38
983.967	1.38
984.693	-1.62
985.419	0.38
986.144	-0.62
986.87	0.38
987.596	2.38
988.322	1.38
989.047	1.38
989.773	1.38
990.498	0.38
991.224	0.38
991.949	0.38
992.674	-1.62
993.399	2.38
994.124	-1.62
994.849	-1.62
995.574	0.38
996.299	1.38
997.024	0.38
997.749	0.38
998.473	-0.62
999.198	3.38
999.922	1.38
1000.647	2.38
1001.371	1.38
1002.095	-2.62
1002.82	-0.62
1003.544	1.38
1004.268	3.38
1004.992	2.38
1005.716	1.38
1006.439	2.38
1007.163	1.38
1007.887	3.38
1008.611	1.38
1009.334	2.38
1010.058	1.38
1010.781	0.38
1011.504	-0.62
1012.228	-1.62
1012.951	1.38
1013.674	1.38
1014.397	-1.62
1015.12	-0.62
