节点500_425_QEPB04081__69__15-49-27-384.txt的数据

Date: Wed Nov 12 15:49:27 CST 2025
User: PC
Spectrometer: QEPB0408
触发模式: 0
积分时间 (秒): 1.000000E-2
Scans to average: 1
启用暗噪声校正: true
启用非线性校正: false
滑动平均宽度: 0
X轴模式: Wavelengths
Number of Pixels in Spectrum: 1044
>>>>>Begin Spectral Data<<<<<
220.843	2.38
221.644	3.38
222.444	4.38
223.244	3.38
224.045	2.38
224.845	4.38
225.645	5.38
226.445	6.38
227.245	6.38
228.045	7.38
228.845	6.38
229.645	5.38
230.444	5.38
231.244	7.38
232.043	3.38
232.843	6.38
233.642	5.38
234.442	6.38
235.241	6.38
236.04	7.38
236.839	7.38
237.638	7.38
238.437	6.38
239.236	7.38
240.035	6.38
240.833	8.38
241.632	8.38
242.43	12.38
243.229	9.38
244.027	9.38
244.826	7.38
245.624	8.38
246.422	11.38
247.22	9.38
248.018	10.38
248.816	10.38
249.614	10.38
250.412	9.38
251.21	11.38
252.007	14.38
252.805	9.38
253.602	12.38
254.4	13.38
255.197	15.38
255.994	14.38
256.791	14.38
257.589	14.38
258.386	15.38
259.183	15.38
259.979	15.38
260.776	13.38
261.573	19.38
262.37	15.38
263.166	18.38
263.963	18.38
264.759	19.38
265.556	20.38
266.352	19.38
267.148	24.38
267.944	19.38
268.74	23.38
269.536	21.38
270.332	23.38
271.128	25.38
271.924	24.38
272.719	26.38
273.515	25.38
274.311	24.38
275.106	26.38
275.901	24.38
276.697	24.38
277.492	27.38
278.287	26.38
279.082	25.38
279.877	28.38
280.672	28.38
281.467	26.38
282.262	27.38
283.056	27.38
283.851	29.38
284.646	27.38
285.44	27.38
286.234	24.38
287.029	27.38
287.823	26.38
288.617	27.38
289.411	26.38
290.205	24.38
290.999	27.38
291.793	24.38
292.587	22.38
293.381	23.38
294.174	26.38
294.968	20.38
295.761	21.38
296.555	20.38
297.348	19.38
298.141	19.38
298.935	23.38
299.728	20.38
300.521	19.38
301.314	19.38
302.107	18.38
302.899	18.38
303.692	18.38
304.485	17.38
305.277	16.38
306.07	20.38
306.862	16.38
307.655	18.38
308.447	15.38
309.239	17.38
310.031	15.38
310.823	14.38
311.615	14.38
312.407	14.38
313.199	15.38
313.991	12.38
314.783	12.38
315.574	12.38
316.366	12.38
317.157	11.38
317.949	11.38
318.74	10.38
319.531	9.38
320.322	13.38
321.113	12.38
321.904	11.38
322.695	8.38
323.486	9.38
324.277	11.38
325.068	11.38
325.858	9.38
326.649	11.38
327.439	11.38
328.23	8.38
329.02	11.38
329.81	9.38
330.6	12.38
331.391	11.38
332.181	11.38
332.971	11.38
333.76	9.38
334.55	10.38
335.34	9.38
336.13	9.38
336.919	9.38
337.709	11.38
338.498	10.38
339.287	9.38
340.077	11.38
340.866	10.38
341.655	9.38
342.444	9.38
343.233	10.38
344.022	8.38
344.811	11.38
345.6	10.38
346.388	10.38
347.177	9.38
347.965	10.38
348.754	8.38
349.542	10.38
350.33	9.38
351.119	9.38
351.907	9.38
352.695	9.38
353.483	8.38
354.271	7.38
355.059	8.38
355.846	6.38
356.634	9.38
357.422	9.38
358.209	8.38
358.997	8.38
359.784	9.38
360.571	10.38
361.359	7.38
362.146	8.38
362.933	6.38
363.72	8.38
364.507	4.38
365.294	9.38
366.081	6.38
366.867	7.38
367.654	7.38
368.44	8.38
369.227	7.38
370.013	6.38
370.8	8.38
371.586	10.38
372.372	9.38
373.158	7.38
373.944	7.38
374.73	10.38
375.516	9.38
376.302	6.38
377.088	6.38
377.873	7.38
378.659	9.38
379.445	9.38
380.23	7.38
381.015	8.38
381.801	7.38
382.586	6.38
383.371	8.38
384.156	8.38
384.941	7.38
385.726	7.38
386.511	10.38
387.296	9.38
388.08	8.38
388.865	9.38
389.649	8.38
390.434	9.38
391.218	10.38
392.003	9.38
392.787	9.38
393.571	11.38
394.355	11.38
395.139	9.38
395.923	10.38
396.707	8.38
397.491	11.38
398.274	11.38
399.058	8.38
399.842	8.38
400.625	10.38
401.408	8.38
402.192	15.38
402.975	12.38
403.758	12.38
404.541	11.38
405.324	11.38
406.107	11.38
406.89	13.38
407.673	12.38
408.456	14.38
409.238	13.38
410.021	11.38
410.803	11.38
411.586	13.38
412.368	14.38
413.151	12.38
413.933	15.38
414.715	15.38
415.497	12.38
416.279	17.38
417.061	15.38
417.843	15.38
418.624	14.38
419.406	15.38
420.188	15.38
420.969	16.38
421.751	15.38
422.532	16.38
423.313	14.38
424.095	17.38
424.876	16.38
425.657	18.38
426.438	19.38
427.219	22.38
428	21.38
428.78	21.38
429.561	21.38
430.342	18.38
431.122	22.38
431.903	21.38
432.683	21.38
433.464	22.38
434.244	26.38
435.024	24.38
435.804	27.38
436.584	27.38
437.364	26.38
438.144	28.38
438.924	30.38
439.704	34.38
440.483	31.38
441.263	36.38
442.042	40.38
442.822	36.38
443.601	43.38
444.38	45.38
445.16	49.38
445.939	53.38
446.718	56.38
447.497	63.38
448.276	63.38
449.054	68.38
449.833	74.38
450.612	83.38
451.391	92.38
452.169	97.38
452.948	108.38
453.726	115.38
454.504	127.38
455.282	144.38
456.061	158.38
456.839	173.38
457.617	195.38
458.395	216.38
459.172	235.38
459.95	267.38
460.728	297.38
461.506	333.38
462.283	374.38
463.061	411.38
463.838	468.38
464.615	515.38
465.393	584.38
466.17	656.38
466.947	723.38
467.724	820.38
468.501	907.38
469.278	1015.38
470.055	1115.38
470.831	1261.38
471.608	1400.38
472.385	1549.38
473.161	1716.38
473.938	1936.38
474.714	2112.38
475.49	2375.38
476.266	2604.38
477.043	2888.38
477.819	3195.38
478.595	3561.38
479.371	3916.38
480.146	4329.38
480.922	4749.38
481.698	5244.38
482.473	5811.38
483.249	6371.38
484.024	7050.38
484.8	7740.38
485.575	8481.38
486.35	9321.38
487.126	10105.38
487.901	11137.38
488.676	12230.38
489.451	13339.38
490.225	14552.38
491	15749.38
491.775	17240.38
492.55	18553.38
493.324	20029.38
494.099	21568.38
494.873	23002.38
495.647	24560.38
496.422	26071.38
497.196	27695.38
497.97	29359.38
498.744	30757.38
499.518	32196.38
500.292	33431.38
501.066	34533.38
501.839	35558.38
502.613	36395.38
503.387	36935.38
504.16	37307.38
504.934	37387.38
505.707	37213.38
506.48	36849.38
507.253	36329.38
508.027	35783.38
508.8	34997.38
509.573	33960.38
510.346	32940.38
511.118	31862.38
511.891	30680.38
512.664	29401.38
513.437	28138.38
514.209	26982.38
514.982	25831.38
515.754	24778.38
516.526	23628.38
517.298	22612.38
518.071	21612.38
518.843	20855.38
519.615	19887.38
520.387	19102.38
521.159	18394.38
521.93	17708.38
522.702	16993.38
523.474	16341.38
524.245	15649.38
525.017	14882.38
525.788	14210.38
526.56	13561.38
527.331	12859.38
528.102	12274.38
528.873	11643.38
529.644	11072.38
530.415	10538.38
531.186	9972.38
531.957	9480.38
532.728	8921.38
533.498	8435.38
534.269	7962.38
535.039	7528.38
535.81	7077.38
536.58	6678.38
537.351	6308.38
538.121	5969.38
538.891	5630.38
539.661	5401.38
540.431	5132.38
541.201	4810.38
541.971	4556.38
542.741	4325.38
543.51	4111.38
544.28	3896.38
545.05	3730.38
545.819	3543.38
546.588	3389.38
547.358	3182.38
548.127	3011.38
548.896	2847.38
549.665	2685.38
550.434	2555.38
551.203	2440.38
551.972	2294.38
552.741	2169.38
553.51	2051.38
554.278	1947.38
555.047	1817.38
555.815	1733.38
556.584	1627.38
557.352	1522.38
558.121	1446.38
558.889	1370.38
559.657	1279.38
560.425	1219.38
561.193	1137.38
561.961	1080.38
562.729	1024.38
563.496	976.38
564.264	921.38
565.032	875.38
565.799	830.38
566.567	773.38
567.334	740.38
568.101	706.38
568.869	646.38
569.636	621.38
570.403	590.38
571.17	553.38
571.937	529.38
572.704	504.38
573.471	466.38
574.237	435.38
575.004	412.38
575.771	386.38
576.537	370.38
577.303	344.38
578.07	325.38
578.836	314.38
579.602	291.38
580.368	275.38
581.134	259.38
581.9	246.38
582.666	234.38
583.432	218.38
584.198	205.38
584.964	199.38
585.729	188.38
586.495	174.38
587.26	171.38
588.025	167.38
588.791	156.38
589.556	145.38
590.321	134.38
591.086	132.38
591.851	126.38
592.616	123.38
593.381	112.38
594.146	107.38
594.911	106.38
595.675	97.38
596.44	93.38
597.204	84.38
597.969	85.38
598.733	83.38
599.497	83.38
600.261	78.38
601.025	72.38
601.79	69.38
602.553	64.38
603.317	67.38
604.081	60.38
604.845	62.38
605.609	53.38
606.372	52.38
607.136	52.38
607.899	52.38
608.662	50.38
609.426	48.38
610.189	45.38
610.952	45.38
611.715	44.38
612.478	41.38
613.241	38.38
614.004	38.38
614.767	39.38
615.529	34.38
616.292	31.38
617.055	32.38
617.817	33.38
618.579	31.38
619.342	27.38
620.104	31.38
620.866	27.38
621.628	27.38
622.39	27.38
623.152	28.38
623.914	25.38
624.676	20.38
625.438	24.38
626.199	23.38
626.961	22.38
627.722	19.38
628.484	22.38
629.245	19.38
630.006	19.38
630.768	18.38
631.529	18.38
632.29	19.38
633.051	14.38
633.812	19.38
634.573	15.38
635.333	15.38
636.094	13.38
636.855	16.38
637.615	16.38
638.376	15.38
639.136	15.38
639.896	12.38
640.657	12.38
641.417	14.38
642.177	13.38
642.937	13.38
643.697	13.38
644.457	9.38
645.216	14.38
645.976	11.38
646.736	13.38
647.495	13.38
648.255	12.38
649.014	9.38
649.774	15.38
650.533	12.38
651.292	9.38
652.051	9.38
652.81	13.38
653.569	11.38
654.328	8.38
655.087	9.38
655.846	9.38
656.604	8.38
657.363	9.38
658.121	8.38
658.88	10.38
659.638	9.38
660.397	6.38
661.155	7.38
661.913	6.38
662.671	7.38
663.429	9.38
664.187	7.38
664.945	9.38
665.703	5.38
666.46	6.38
667.218	4.38
667.976	9.38
668.733	8.38
669.49	7.38
670.248	9.38
671.005	8.38
671.762	5.38
672.519	8.38
673.276	8.38
674.033	5.38
674.79	10.38
675.547	8.38
676.304	7.38
677.06	5.38
677.817	8.38
678.574	8.38
679.33	9.38
680.086	7.38
680.843	6.38
681.599	7.38
682.355	8.38
683.111	9.38
683.867	7.38
684.623	3.38
685.379	6.38
686.135	6.38
686.89	5.38
687.646	6.38
688.402	5.38
689.157	5.38
689.912	5.38
690.668	7.38
691.423	6.38
692.178	6.38
692.933	6.38
693.688	5.38
694.443	5.38
695.198	7.38
695.953	6.38
696.708	5.38
697.462	4.38
698.217	5.38
698.972	5.38
699.726	4.38
700.48	6.38
701.235	8.38
701.989	9.38
702.743	5.38
703.497	6.38
704.251	7.38
705.005	7.38
705.759	4.38
706.513	3.38
707.266	6.38
708.02	5.38
708.774	8.38
709.527	5.38
710.28	6.38
711.034	6.38
711.787	6.38
712.54	6.38
713.293	6.38
714.046	6.38
714.799	5.38
715.552	6.38
716.305	5.38
717.058	6.38
717.81	3.38
718.563	7.38
719.315	6.38
720.068	6.38
720.82	6.38
721.573	4.38
722.325	4.38
723.077	7.38
723.829	6.38
724.581	6.38
725.333	6.38
726.085	4.38
726.836	8.38
727.588	5.38
728.34	8.38
729.091	8.38
729.843	6.38
730.594	7.38
731.346	3.38
732.097	9.38
732.848	9.38
733.599	8.38
734.35	5.38
735.101	7.38
735.852	6.38
736.603	6.38
737.354	7.38
738.104	7.38
738.855	8.38
739.605	6.38
740.356	7.38
741.106	9.38
741.856	7.38
742.607	10.38
743.357	9.38
744.107	8.38
744.857	9.38
745.607	6.38
746.357	10.38
747.106	8.38
747.856	8.38
748.606	8.38
749.355	8.38
750.105	11.38
750.854	9.38
751.603	9.38
752.353	9.38
753.102	9.38
753.851	8.38
754.6	8.38
755.349	13.38
756.098	9.38
756.847	8.38
757.595	10.38
758.344	8.38
759.093	11.38
759.841	10.38
760.589	9.38
761.338	9.38
762.086	11.38
762.834	9.38
763.582	9.38
764.331	9.38
765.079	12.38
765.826	11.38
766.574	9.38
767.322	8.38
768.07	10.38
768.817	13.38
769.565	10.38
770.312	11.38
771.06	12.38
771.807	12.38
772.554	12.38
773.302	12.38
774.049	11.38
774.796	11.38
775.543	11.38
776.29	11.38
777.036	13.38
777.783	13.38
778.53	13.38
779.276	11.38
780.023	13.38
780.769	12.38
781.516	14.38
782.262	14.38
783.008	13.38
783.754	15.38
784.5	12.38
785.246	16.38
785.992	13.38
786.738	14.38
787.484	14.38
788.23	12.38
788.975	15.38
789.721	11.38
790.466	11.38
791.212	12.38
791.957	11.38
792.702	11.38
793.447	13.38
794.193	13.38
794.938	11.38
795.683	11.38
796.427	12.38
797.172	10.38
797.917	11.38
798.662	8.38
799.406	11.38
800.151	13.38
800.895	10.38
801.64	10.38
802.384	10.38
803.128	7.38
803.872	9.38
804.616	9.38
805.36	11.38
806.104	11.38
806.848	8.38
807.592	9.38
808.336	8.38
809.079	9.38
809.823	10.38
810.566	9.38
811.31	11.38
812.053	10.38
812.796	9.38
813.539	7.38
814.283	7.38
815.026	8.38
815.769	8.38
816.511	6.38
817.254	5.38
817.997	7.38
818.74	7.38
819.482	9.38
820.225	3.38
820.967	6.38
821.71	5.38
822.452	5.38
823.194	5.38
823.936	8.38
824.678	5.38
825.42	5.38
826.162	5.38
826.904	5.38
827.646	5.38
828.388	6.38
829.129	5.38
829.871	9.38
830.612	6.38
831.354	5.38
832.095	7.38
832.836	6.38
833.577	7.38
834.319	6.38
835.06	7.38
835.801	9.38
836.542	6.38
837.282	4.38
838.023	4.38
838.764	5.38
839.504	3.38
840.245	4.38
840.985	5.38
841.726	6.38
842.466	6.38
843.206	5.38
843.946	5.38
844.687	5.38
845.427	6.38
846.166	6.38
846.906	5.38
847.646	5.38
848.386	3.38
849.125	3.38
849.865	7.38
850.605	5.38
851.344	3.38
852.083	3.38
852.823	6.38
853.562	4.38
854.301	3.38
855.04	4.38
855.779	3.38
856.518	4.38
857.257	2.38
857.995	3.38
858.734	3.38
859.473	2.38
860.211	5.38
860.95	3.38
861.688	3.38
862.426	3.38
863.165	3.38
863.903	2.38
864.641	0.38
865.379	5.38
866.117	3.38
866.855	2.38
867.593	2.38
868.33	2.38
869.068	2.38
869.806	1.38
870.543	3.38
871.28	3.38
872.018	2.38
872.755	2.38
873.492	2.38
874.229	3.38
874.967	3.38
875.703	2.38
876.44	3.38
877.177	2.38
877.914	3.38
878.651	-0.62
879.387	1.38
880.124	2.38
880.86	0.38
881.597	1.38
882.333	3.38
883.069	4.38
883.806	2.38
884.542	4.38
885.278	3.38
886.014	1.38
886.749	4.38
887.485	2.38
888.221	3.38
888.957	1.38
889.692	4.38
890.428	2.38
891.163	2.38
891.899	3.38
892.634	1.38
893.369	2.38
894.104	3.38
894.839	1.38
895.574	3.38
896.309	3.38
897.044	1.38
897.779	3.38
898.514	0.38
899.248	3.38
899.983	1.38
900.717	2.38
901.452	1.38
902.186	1.38
902.92	0.38
903.654	-0.62
904.389	1.38
905.123	3.38
905.857	2.38
906.59	4.38
907.324	3.38
908.058	0.38
908.792	1.38
909.525	1.38
910.259	0.38
910.992	-0.62
911.726	-0.62
912.459	2.38
913.192	0.38
913.925	1.38
914.658	0.38
915.391	-0.62
916.124	1.38
916.857	0.38
917.59	2.38
918.323	0.38
919.055	1.38
919.788	1.38
920.521	3.38
921.253	2.38
921.985	1.38
922.718	-0.62
923.45	1.38
924.182	0.38
924.914	2.38
925.646	0.38
926.378	1.38
927.11	2.38
927.841	1.38
928.573	3.38
929.305	0.38
930.036	2.38
930.768	1.38
931.499	-1.62
932.23	1.38
932.962	1.38
933.693	1.38
934.424	0.38
935.155	1.38
935.886	1.38
936.617	1.38
937.348	1.38
938.078	-0.62
938.809	1.38
939.54	3.38
940.27	-0.62
941.001	1.38
941.731	0.38
942.461	0.38
943.191	-0.62
943.922	1.38
944.652	1.38
945.382	1.38
946.112	3.38
946.841	0.38
947.571	3.38
948.301	1.38
949.031	1.38
949.76	0.38
950.49	2.38
951.219	2.38
951.948	2.38
952.678	0.38
953.407	1.38
954.136	1.38
954.865	2.38
955.594	1.38
956.323	0.38
957.052	0.38
957.78	-1.62
958.509	2.38
959.238	0.38
959.966	1.38
960.695	0.38
961.423	2.38
962.151	1.38
962.88	-0.62
963.608	0.38
964.336	1.38
965.064	1.38
965.792	3.38
966.52	2.38
967.247	1.38
967.975	1.38
968.703	0.38
969.43	0.38
970.158	3.38
970.885	2.38
971.613	2.38
972.34	1.38
973.067	-0.62
973.794	3.38
974.521	1.38
975.248	1.38
975.975	3.38
976.702	1.38
977.429	1.38
978.156	2.38
978.882	1.38
979.609	1.38
980.335	2.38
981.062	2.38
981.788	1.38
982.514	1.38
983.24	2.38
983.967	-0.62
984.693	3.38
985.419	0.38
986.144	1.38
986.87	2.38
987.596	2.38
988.322	1.38
989.047	2.38
989.773	2.38
990.498	-0.62
991.224	1.38
991.949	1.38
992.674	-0.62
993.399	1.38
994.124	-0.62
994.849	2.38
995.574	1.38
996.299	-0.62
997.024	-0.62
997.749	1.38
998.473	0.38
999.198	0.38
999.922	1.38
1000.647	2.38
1001.371	3.38
1002.095	0.38
1002.82	0.38
1003.544	2.38
1004.268	5.38
1004.992	3.38
1005.716	4.38
1006.439	5.38
1007.163	4.38
1007.887	2.38
1008.611	4.38
1009.334	1.38
1010.058	1.38
1010.781	0.38
1011.504	2.38
1012.228	1.38
1012.951	-0.62
1013.674	-2.62
1014.397	-0.62
1015.12	-2.62
