节点500_425_QEPB04081__611__15-58-28-400.txt的数据

Date: Wed Nov 12 15:58:28 CST 2025
User: PC
Spectrometer: QEPB0408
触发模式: 0
积分时间 (秒): 1.000000E-2
Scans to average: 1
启用暗噪声校正: true
启用非线性校正: false
滑动平均宽度: 0
X轴模式: Wavelengths
Number of Pixels in Spectrum: 1044
>>>>>Begin Spectral Data<<<<<
220.843	3.12
221.644	3.12
222.444	3.12
223.244	2.12
224.045	4.12
224.845	2.12
225.645	2.12
226.445	4.12
227.245	5.12
228.045	3.12
228.845	4.12
229.645	5.12
230.444	6.12
231.244	4.12
232.043	5.12
232.843	7.12
233.642	7.12
234.442	6.12
235.241	4.12
236.04	5.12
236.839	5.12
237.638	8.12
238.437	5.12
239.236	6.12
240.035	8.12
240.833	5.12
241.632	6.12
242.43	3.12
243.229	6.12
244.027	6.12
244.826	7.12
245.624	6.12
246.422	8.12
247.22	7.12
248.018	8.12
248.816	8.12
249.614	8.12
250.412	10.12
251.21	10.12
252.007	10.12
252.805	9.12
253.602	8.12
254.4	11.12
255.197	11.12
255.994	12.12
256.791	12.12
257.589	8.12
258.386	12.12
259.183	11.12
259.979	13.12
260.776	11.12
261.573	11.12
262.37	13.12
263.166	14.12
263.963	13.12
264.759	14.12
265.556	14.12
266.352	14.12
267.148	16.12
267.944	17.12
268.74	16.12
269.536	16.12
270.332	19.12
271.128	16.12
271.924	18.12
272.719	20.12
273.515	17.12
274.311	19.12
275.106	20.12
275.901	22.12
276.697	21.12
277.492	19.12
278.287	23.12
279.082	22.12
279.877	22.12
280.672	21.12
281.467	23.12
282.262	21.12
283.056	22.12
283.851	22.12
284.646	20.12
285.44	21.12
286.234	21.12
287.029	23.12
287.823	22.12
288.617	22.12
289.411	23.12
290.205	18.12
290.999	20.12
291.793	23.12
292.587	21.12
293.381	22.12
294.174	18.12
294.968	21.12
295.761	18.12
296.555	18.12
297.348	18.12
298.141	21.12
298.935	22.12
299.728	21.12
300.521	16.12
301.314	19.12
302.107	17.12
302.899	19.12
303.692	16.12
304.485	17.12
305.277	15.12
306.07	15.12
306.862	16.12
307.655	13.12
308.447	14.12
309.239	15.12
310.031	12.12
310.823	14.12
311.615	16.12
312.407	12.12
313.199	12.12
313.991	13.12
314.783	10.12
315.574	9.12
316.366	12.12
317.157	9.12
317.949	10.12
318.74	10.12
319.531	8.12
320.322	10.12
321.113	11.12
321.904	9.12
322.695	10.12
323.486	10.12
324.277	8.12
325.068	8.12
325.858	8.12
326.649	9.12
327.439	6.12
328.23	8.12
329.02	9.12
329.81	8.12
330.6	8.12
331.391	8.12
332.181	7.12
332.971	9.12
333.76	7.12
334.55	8.12
335.34	8.12
336.13	8.12
336.919	8.12
337.709	6.12
338.498	11.12
339.287	8.12
340.077	10.12
340.866	9.12
341.655	6.12
342.444	9.12
343.233	5.12
344.022	7.12
344.811	7.12
345.6	6.12
346.388	8.12
347.177	7.12
347.965	5.12
348.754	7.12
349.542	6.12
350.33	7.12
351.119	6.12
351.907	8.12
352.695	5.12
353.483	6.12
354.271	7.12
355.059	9.12
355.846	8.12
356.634	7.12
357.422	6.12
358.209	9.12
358.997	8.12
359.784	6.12
360.571	7.12
361.359	8.12
362.146	10.12
362.933	8.12
363.72	5.12
364.507	7.12
365.294	6.12
366.081	5.12
366.867	5.12
367.654	6.12
368.44	7.12
369.227	7.12
370.013	8.12
370.8	5.12
371.586	6.12
372.372	8.12
373.158	5.12
373.944	5.12
374.73	6.12
375.516	5.12
376.302	5.12
377.088	5.12
377.873	6.12
378.659	4.12
379.445	6.12
380.23	7.12
381.015	6.12
381.801	6.12
382.586	7.12
383.371	5.12
384.156	6.12
384.941	7.12
385.726	7.12
386.511	8.12
387.296	9.12
388.08	8.12
388.865	7.12
389.649	7.12
390.434	4.12
391.218	7.12
392.003	8.12
392.787	7.12
393.571	6.12
394.355	9.12
395.139	7.12
395.923	4.12
396.707	9.12
397.491	8.12
398.274	6.12
399.058	10.12
399.842	8.12
400.625	10.12
401.408	6.12
402.192	9.12
402.975	8.12
403.758	8.12
404.541	9.12
405.324	10.12
406.107	10.12
406.89	10.12
407.673	8.12
408.456	9.12
409.238	8.12
410.021	12.12
410.803	11.12
411.586	12.12
412.368	13.12
413.151	10.12
413.933	11.12
414.715	10.12
415.497	12.12
416.279	11.12
417.061	11.12
417.843	12.12
418.624	11.12
419.406	12.12
420.188	15.12
420.969	13.12
421.751	14.12
422.532	15.12
423.313	12.12
424.095	17.12
424.876	13.12
425.657	16.12
426.438	14.12
427.219	18.12
428	15.12
428.78	16.12
429.561	18.12
430.342	20.12
431.122	19.12
431.903	18.12
432.683	22.12
433.464	19.12
434.244	21.12
435.024	24.12
435.804	28.12
436.584	27.12
437.364	27.12
438.144	28.12
438.924	31.12
439.704	33.12
440.483	38.12
441.263	37.12
442.042	37.12
442.822	42.12
443.601	44.12
444.38	50.12
445.16	52.12
445.939	54.12
446.718	59.12
447.497	64.12
448.276	73.12
449.054	80.12
449.833	85.12
450.612	94.12
451.391	102.12
452.169	114.12
452.948	126.12
453.726	134.12
454.504	151.12
455.282	168.12
456.061	188.12
456.839	209.12
457.617	227.12
458.395	251.12
459.172	283.12
459.95	315.12
460.728	355.12
461.506	393.12
462.283	440.12
463.061	484.12
463.838	536.12
464.615	604.12
465.393	661.12
466.17	739.12
466.947	804.12
467.724	893.12
468.501	999.12
469.278	1100.12
470.055	1217.12
470.831	1346.12
471.608	1479.12
472.385	1620.12
473.161	1785.12
473.938	1976.12
474.714	2158.12
475.49	2385.12
476.266	2588.12
477.043	2847.12
477.819	3112.12
478.595	3396.12
479.371	3709.12
480.146	4065.12
480.922	4420.12
481.698	4813.12
482.473	5235.12
483.249	5691.12
484.024	6207.12
484.8	6756.12
485.575	7334.12
486.35	7934.12
487.126	8617.12
487.901	9316.12
488.676	10082.12
489.451	10914.12
490.225	11789.12
491	12754.12
491.775	13740.12
492.55	14745.12
493.324	15757.12
494.099	16877.12
494.873	18010.12
495.647	19226.12
496.422	20455.12
497.196	21715.12
497.97	23074.12
498.744	24306.12
499.518	25554.12
500.292	26740.12
501.066	27758.12
501.839	28877.12
502.613	29891.12
503.387	30662.12
504.16	31313.12
504.934	31908.12
505.707	32147.12
506.48	32274.12
507.253	32361.12
508.027	32291.12
508.8	32085.12
509.573	31740.12
510.346	31255.12
511.118	30537.12
511.891	29800.12
512.664	28941.12
513.437	27979.12
514.209	27043.12
514.982	26163.12
515.754	25249.12
516.526	24240.12
517.298	23243.12
518.071	22335.12
518.843	21471.12
519.615	20622.12
520.387	19805.12
521.159	19087.12
521.93	18304.12
522.702	17617.12
523.474	16927.12
524.245	16292.12
525.017	15581.12
525.788	14855.12
526.56	14239.12
527.331	13553.12
528.102	13004.12
528.873	12444.12
529.644	11830.12
530.415	11375.12
531.186	10846.12
531.957	10299.12
532.728	9788.12
533.498	9286.12
534.269	8770.12
535.039	8328.12
535.81	7854.12
536.58	7436.12
537.351	7062.12
538.121	6668.12
538.891	6333.12
539.661	5980.12
540.431	5706.12
541.201	5359.12
541.971	5128.12
542.741	4817.12
543.51	4598.12
544.28	4367.12
545.05	4137.12
545.819	3953.12
546.588	3747.12
547.358	3565.12
548.127	3365.12
548.896	3230.12
549.665	3045.12
550.434	2918.12
551.203	2754.12
551.972	2607.12
552.741	2487.12
553.51	2343.12
554.278	2229.12
555.047	2097.12
555.815	1992.12
556.584	1878.12
557.352	1779.12
558.121	1673.12
558.889	1585.12
559.657	1495.12
560.425	1405.12
561.193	1324.12
561.961	1258.12
562.729	1203.12
563.496	1129.12
564.264	1080.12
565.032	1016.12
565.799	959.12
566.567	905.12
567.334	853.12
568.101	810.12
568.869	766.12
569.636	723.12
570.403	672.12
571.17	647.12
571.937	610.12
572.704	569.12
573.471	536.12
574.237	516.12
575.004	476.12
575.771	450.12
576.537	430.12
577.303	397.12
578.07	378.12
578.836	350.12
579.602	333.12
580.368	319.12
581.134	303.12
581.9	283.12
582.666	268.12
583.432	257.12
584.198	244.12
584.964	235.12
585.729	220.12
586.495	207.12
587.26	198.12
588.025	184.12
588.791	179.12
589.556	170.12
590.321	158.12
591.086	148.12
591.851	141.12
592.616	136.12
593.381	127.12
594.146	126.12
594.911	116.12
595.675	113.12
596.44	104.12
597.204	105.12
597.969	100.12
598.733	94.12
599.497	87.12
600.261	86.12
601.025	81.12
601.79	81.12
602.553	70.12
603.317	73.12
604.081	65.12
604.845	62.12
605.609	64.12
606.372	62.12
607.136	57.12
607.899	55.12
608.662	53.12
609.426	51.12
610.189	49.12
610.952	49.12
611.715	44.12
612.478	43.12
613.241	42.12
614.004	38.12
614.767	38.12
615.529	37.12
616.292	35.12
617.055	37.12
617.817	33.12
618.579	34.12
619.342	30.12
620.104	30.12
620.866	30.12
621.628	28.12
622.39	24.12
623.152	27.12
623.914	26.12
624.676	25.12
625.438	24.12
626.199	23.12
626.961	24.12
627.722	20.12
628.484	20.12
629.245	22.12
630.006	20.12
630.768	21.12
631.529	20.12
632.29	15.12
633.051	18.12
633.812	16.12
634.573	15.12
635.333	14.12
636.094	15.12
636.855	16.12
637.615	12.12
638.376	14.12
639.136	12.12
639.896	14.12
640.657	14.12
641.417	10.12
642.177	12.12
642.937	10.12
643.697	11.12
644.457	12.12
645.216	12.12
645.976	11.12
646.736	13.12
647.495	11.12
648.255	11.12
649.014	13.12
649.774	8.12
650.533	11.12
651.292	9.12
652.051	7.12
652.81	10.12
653.569	10.12
654.328	8.12
655.087	7.12
655.846	9.12
656.604	7.12
657.363	8.12
658.121	7.12
658.88	6.12
659.638	7.12
660.397	8.12
661.155	6.12
661.913	7.12
662.671	8.12
663.429	10.12
664.187	7.12
664.945	7.12
665.703	7.12
666.46	5.12
667.218	6.12
667.976	4.12
668.733	6.12
669.49	5.12
670.248	5.12
671.005	8.12
671.762	7.12
672.519	4.12
673.276	6.12
674.033	7.12
674.79	6.12
675.547	3.12
676.304	7.12
677.06	6.12
677.817	6.12
678.574	7.12
679.33	2.12
680.086	6.12
680.843	6.12
681.599	6.12
682.355	3.12
683.111	5.12
683.867	5.12
684.623	4.12
685.379	4.12
686.135	4.12
686.89	4.12
687.646	7.12
688.402	5.12
689.157	6.12
689.912	7.12
690.668	3.12
691.423	4.12
692.178	6.12
692.933	5.12
693.688	4.12
694.443	6.12
695.198	4.12
695.953	5.12
696.708	4.12
697.462	6.12
698.217	4.12
698.972	7.12
699.726	4.12
700.48	5.12
701.235	1.12
701.989	5.12
702.743	5.12
703.497	5.12
704.251	5.12
705.005	6.12
705.759	4.12
706.513	3.12
707.266	7.12
708.02	4.12
708.774	4.12
709.527	4.12
710.28	1.12
711.034	4.12
711.787	4.12
712.54	4.12
713.293	3.12
714.046	6.12
714.799	6.12
715.552	3.12
716.305	6.12
717.058	6.12
717.81	4.12
718.563	4.12
719.315	4.12
720.068	5.12
720.82	3.12
721.573	5.12
722.325	5.12
723.077	5.12
723.829	6.12
724.581	3.12
725.333	6.12
726.085	4.12
726.836	4.12
727.588	4.12
728.34	7.12
729.091	4.12
729.843	5.12
730.594	6.12
731.346	3.12
732.097	4.12
732.848	6.12
733.599	6.12
734.35	5.12
735.101	7.12
735.852	7.12
736.603	7.12
737.354	5.12
738.104	6.12
738.855	4.12
739.605	5.12
740.356	7.12
741.106	7.12
741.856	3.12
742.607	4.12
743.357	7.12
744.107	4.12
744.857	6.12
745.607	6.12
746.357	7.12
747.106	5.12
747.856	7.12
748.606	8.12
749.355	4.12
750.105	5.12
750.854	4.12
751.603	5.12
752.353	8.12
753.102	6.12
753.851	8.12
754.6	8.12
755.349	6.12
756.098	8.12
756.847	9.12
757.595	9.12
758.344	6.12
759.093	8.12
759.841	5.12
760.589	7.12
761.338	8.12
762.086	5.12
762.834	9.12
763.582	7.12
764.331	8.12
765.079	7.12
765.826	7.12
766.574	9.12
767.322	8.12
768.07	8.12
768.817	9.12
769.565	7.12
770.312	8.12
771.06	9.12
771.807	9.12
772.554	9.12
773.302	11.12
774.049	8.12
774.796	9.12
775.543	10.12
776.29	10.12
777.036	10.12
777.783	11.12
778.53	8.12
779.276	9.12
780.023	10.12
780.769	9.12
781.516	8.12
782.262	11.12
783.008	7.12
783.754	8.12
784.5	10.12
785.246	9.12
785.992	12.12
786.738	11.12
787.484	8.12
788.23	11.12
788.975	9.12
789.721	10.12
790.466	10.12
791.212	8.12
791.957	11.12
792.702	9.12
793.447	11.12
794.193	9.12
794.938	8.12
795.683	10.12
796.427	9.12
797.172	6.12
797.917	8.12
798.662	8.12
799.406	6.12
800.151	7.12
800.895	10.12
801.64	8.12
802.384	10.12
803.128	8.12
803.872	6.12
804.616	9.12
805.36	6.12
806.104	7.12
806.848	7.12
807.592	8.12
808.336	6.12
809.079	6.12
809.823	8.12
810.566	6.12
811.31	9.12
812.053	6.12
812.796	7.12
813.539	5.12
814.283	5.12
815.026	5.12
815.769	7.12
816.511	6.12
817.254	6.12
817.997	7.12
818.74	6.12
819.482	6.12
820.225	6.12
820.967	5.12
821.71	6.12
822.452	6.12
823.194	6.12
823.936	7.12
824.678	6.12
825.42	4.12
826.162	7.12
826.904	4.12
827.646	5.12
828.388	4.12
829.129	5.12
829.871	5.12
830.612	5.12
831.354	4.12
832.095	6.12
832.836	6.12
833.577	4.12
834.319	6.12
835.06	5.12
835.801	4.12
836.542	5.12
837.282	3.12
838.023	6.12
838.764	5.12
839.504	4.12
840.245	3.12
840.985	5.12
841.726	5.12
842.466	4.12
843.206	3.12
843.946	4.12
844.687	3.12
845.427	2.12
846.166	3.12
846.906	4.12
847.646	2.12
848.386	4.12
849.125	1.12
849.865	2.12
850.605	4.12
851.344	3.12
852.083	4.12
852.823	2.12
853.562	2.12
854.301	1.12
855.04	2.12
855.779	3.12
856.518	3.12
857.257	3.12
857.995	2.12
858.734	3.12
859.473	2.12
860.211	2.12
860.95	2.12
861.688	2.12
862.426	3.12
863.165	3.12
863.903	2.12
864.641	2.12
865.379	2.12
866.117	1.12
866.855	2.12
867.593	3.12
868.33	1.12
869.068	0.12
869.806	1.12
870.543	0.12
871.28	2.12
872.018	2.12
872.755	0.12
873.492	0.12
874.229	2.12
874.967	2.12
875.703	1.12
876.44	-1.88
877.177	0.12
877.914	1.12
878.651	3.12
879.387	1.12
880.124	1.12
880.86	1.12
881.597	-0.88
882.333	1.12
883.069	0.12
883.806	0.12
884.542	1.12
885.278	3.12
886.014	1.12
886.749	-1.88
887.485	3.12
888.221	2.12
888.957	1.12
889.692	2.12
890.428	2.12
891.163	0.12
891.899	-0.88
892.634	1.12
893.369	1.12
894.104	2.12
894.839	2.12
895.574	1.12
896.309	1.12
897.044	1.12
897.779	3.12
898.514	-1.88
899.248	0.12
899.983	1.12
900.717	-0.88
901.452	1.12
902.186	-1.88
902.92	0.12
903.654	2.12
904.389	-1.88
905.123	-0.88
905.857	-1.88
906.59	2.12
907.324	-0.88
908.058	0.12
908.792	0.12
909.525	0.12
910.259	1.12
910.992	0.12
911.726	1.12
912.459	3.12
913.192	0.12
913.925	1.12
914.658	-2.88
915.391	0.12
916.124	1.12
916.857	1.12
917.59	0.12
918.323	-0.88
919.055	0.12
919.788	0.12
920.521	-0.88
921.253	-1.88
921.985	0.12
922.718	0.12
923.45	-1.88
924.182	2.12
924.914	0.12
925.646	1.12
926.378	0.12
927.11	-1.88
927.841	-1.88
928.573	1.12
929.305	3.12
930.036	1.12
930.768	0.12
931.499	0.12
932.23	-1.88
932.962	2.12
933.693	0.12
934.424	-1.88
935.155	0.12
935.886	-0.88
936.617	1.12
937.348	0.12
938.078	-0.88
938.809	0.12
939.54	-0.88
940.27	-0.88
941.001	-1.88
941.731	0.12
942.461	1.12
943.191	-1.88
943.922	-1.88
944.652	-1.88
945.382	2.12
946.112	-0.88
946.841	0.12
947.571	1.12
948.301	1.12
949.031	-0.88
949.76	0.12
950.49	1.12
951.219	-0.88
951.948	0.12
952.678	-0.88
953.407	-0.88
954.136	1.12
954.865	0.12
955.594	1.12
956.323	3.12
957.052	1.12
957.78	-0.88
958.509	-1.88
959.238	0.12
959.966	0.12
960.695	-0.88
961.423	-0.88
962.151	1.12
962.88	-0.88
963.608	-0.88
964.336	-0.88
965.064	0.12
965.792	-0.88
966.52	-1.88
967.247	0.12
967.975	1.12
968.703	0.12
969.43	0.12
970.158	1.12
970.885	-0.88
971.613	0.12
972.34	0.12
973.067	0.12
973.794	-0.88
974.521	1.12
975.248	0.12
975.975	0.12
976.702	0.12
977.429	1.12
978.156	0.12
978.882	-1.88
979.609	1.12
980.335	0.12
981.062	0.12
981.788	0.12
982.514	-0.88
983.24	0.12
983.967	2.12
984.693	-1.88
985.419	1.12
986.144	0.12
986.87	0.12
987.596	1.12
988.322	-1.88
989.047	1.12
989.773	0.12
990.498	-0.88
991.224	-0.88
991.949	1.12
992.674	-0.88
993.399	0.12
994.124	0.12
994.849	0.12
995.574	-0.88
996.299	0.12
997.024	0.12
997.749	-0.88
998.473	-0.88
999.198	0.12
999.922	0.12
1000.647	-0.88
1001.371	5.12
1002.095	-0.88
1002.82	-1.88
1003.544	-1.88
1004.268	2.12
1004.992	2.12
1005.716	0.12
1006.439	1.12
1007.163	1.12
1007.887	3.12
1008.611	0.12
1009.334	0.12
1010.058	0.12
1010.781	0.12
1011.504	-0.88
1012.228	0.12
1012.951	-1.88
1013.674	1.12
1014.397	-0.88
1015.12	1.12
