节点500_425_QEPB04081__261__15-52-38-988.txt的数据

Date: Wed Nov 12 15:52:38 CST 2025
User: PC
Spectrometer: QEPB0408
触发模式: 0
积分时间 (秒): 1.000000E-2
Scans to average: 1
启用暗噪声校正: true
启用非线性校正: false
滑动平均宽度: 0
X轴模式: Wavelengths
Number of Pixels in Spectrum: 1044
>>>>>Begin Spectral Data<<<<<
220.843	4.5
221.644	5.5
222.444	3.5
223.244	3.5
224.045	3.5
224.845	3.5
225.645	6.5
226.445	5.5
227.245	2.5
228.045	5.5
228.845	4.5
229.645	4.5
230.444	2.5
231.244	3.5
232.043	5.5
232.843	3.5
233.642	5.5
234.442	7.5
235.241	6.5
236.04	6.5
236.839	7.5
237.638	8.5
238.437	6.5
239.236	5.5
240.035	6.5
240.833	7.5
241.632	7.5
242.43	5.5
243.229	9.5
244.027	7.5
244.826	7.5
245.624	8.5
246.422	8.5
247.22	10.5
248.018	7.5
248.816	6.5
249.614	11.5
250.412	8.5
251.21	9.5
252.007	9.5
252.805	12.5
253.602	10.5
254.4	10.5
255.197	12.5
255.994	12.5
256.791	11.5
257.589	14.5
258.386	14.5
259.183	14.5
259.979	13.5
260.776	15.5
261.573	15.5
262.37	17.5
263.166	13.5
263.963	18.5
264.759	17.5
265.556	19.5
266.352	17.5
267.148	13.5
267.944	18.5
268.74	20.5
269.536	19.5
270.332	20.5
271.128	20.5
271.924	21.5
272.719	22.5
273.515	22.5
274.311	24.5
275.106	25.5
275.901	23.5
276.697	23.5
277.492	26.5
278.287	23.5
279.082	26.5
279.877	23.5
280.672	25.5
281.467	24.5
282.262	23.5
283.056	24.5
283.851	25.5
284.646	27.5
285.44	26.5
286.234	22.5
287.029	25.5
287.823	25.5
288.617	22.5
289.411	24.5
290.205	25.5
290.999	21.5
291.793	22.5
292.587	25.5
293.381	23.5
294.174	24.5
294.968	23.5
295.761	21.5
296.555	17.5
297.348	21.5
298.141	21.5
298.935	19.5
299.728	19.5
300.521	17.5
301.314	19.5
302.107	16.5
302.899	17.5
303.692	18.5
304.485	18.5
305.277	13.5
306.07	17.5
306.862	16.5
307.655	13.5
308.447	13.5
309.239	15.5
310.031	14.5
310.823	10.5
311.615	14.5
312.407	12.5
313.199	12.5
313.991	10.5
314.783	9.5
315.574	11.5
316.366	11.5
317.157	11.5
317.949	11.5
318.74	11.5
319.531	9.5
320.322	7.5
321.113	11.5
321.904	7.5
322.695	8.5
323.486	8.5
324.277	9.5
325.068	11.5
325.858	9.5
326.649	9.5
327.439	9.5
328.23	9.5
329.02	8.5
329.81	7.5
330.6	8.5
331.391	10.5
332.181	14.5
332.971	7.5
333.76	7.5
334.55	9.5
335.34	8.5
336.13	5.5
336.919	9.5
337.709	7.5
338.498	7.5
339.287	9.5
340.077	8.5
340.866	8.5
341.655	8.5
342.444	6.5
343.233	10.5
344.022	7.5
344.811	6.5
345.6	7.5
346.388	8.5
347.177	6.5
347.965	7.5
348.754	7.5
349.542	9.5
350.33	9.5
351.119	8.5
351.907	7.5
352.695	7.5
353.483	6.5
354.271	6.5
355.059	5.5
355.846	8.5
356.634	7.5
357.422	8.5
358.209	6.5
358.997	9.5
359.784	6.5
360.571	7.5
361.359	7.5
362.146	7.5
362.933	6.5
363.72	4.5
364.507	8.5
365.294	7.5
366.081	5.5
366.867	5.5
367.654	7.5
368.44	7.5
369.227	6.5
370.013	5.5
370.8	7.5
371.586	7.5
372.372	7.5
373.158	6.5
373.944	5.5
374.73	6.5
375.516	6.5
376.302	7.5
377.088	6.5
377.873	9.5
378.659	6.5
379.445	7.5
380.23	6.5
381.015	6.5
381.801	5.5
382.586	6.5
383.371	5.5
384.156	4.5
384.941	7.5
385.726	7.5
386.511	9.5
387.296	7.5
388.08	8.5
388.865	7.5
389.649	10.5
390.434	8.5
391.218	8.5
392.003	9.5
392.787	9.5
393.571	10.5
394.355	8.5
395.139	8.5
395.923	8.5
396.707	8.5
397.491	8.5
398.274	10.5
399.058	9.5
399.842	8.5
400.625	9.5
401.408	9.5
402.192	13.5
402.975	8.5
403.758	8.5
404.541	9.5
405.324	8.5
406.107	9.5
406.89	6.5
407.673	10.5
408.456	10.5
409.238	11.5
410.021	10.5
410.803	13.5
411.586	14.5
412.368	9.5
413.151	11.5
413.933	12.5
414.715	13.5
415.497	11.5
416.279	14.5
417.061	14.5
417.843	15.5
418.624	13.5
419.406	16.5
420.188	16.5
420.969	12.5
421.751	12.5
422.532	15.5
423.313	13.5
424.095	14.5
424.876	17.5
425.657	17.5
426.438	14.5
427.219	15.5
428	21.5
428.78	18.5
429.561	17.5
430.342	19.5
431.122	18.5
431.903	20.5
432.683	21.5
433.464	20.5
434.244	23.5
435.024	22.5
435.804	25.5
436.584	28.5
437.364	29.5
438.144	28.5
438.924	33.5
439.704	35.5
440.483	35.5
441.263	37.5
442.042	37.5
442.822	38.5
443.601	43.5
444.38	44.5
445.16	49.5
445.939	51.5
446.718	55.5
447.497	58.5
448.276	66.5
449.054	68.5
449.833	77.5
450.612	86.5
451.391	92.5
452.169	97.5
452.948	112.5
453.726	121.5
454.504	132.5
455.282	149.5
456.061	166.5
456.839	185.5
457.617	208.5
458.395	235.5
459.172	257.5
459.95	285.5
460.728	317.5
461.506	352.5
462.283	391.5
463.061	445.5
463.838	491.5
464.615	550.5
465.393	607.5
466.17	689.5
466.947	771.5
467.724	852.5
468.501	946.5
469.278	1052.5
470.055	1156.5
470.831	1288.5
471.608	1435.5
472.385	1589.5
473.161	1749.5
473.938	1956.5
474.714	2146.5
475.49	2363.5
476.266	2623.5
477.043	2890.5
477.819	3196.5
478.595	3506.5
479.371	3844.5
480.146	4241.5
480.922	4670.5
481.698	5119.5
482.473	5603.5
483.249	6137.5
484.024	6717.5
484.8	7392.5
485.575	8033.5
486.35	8810.5
487.126	9580.5
487.901	10458.5
488.676	11411.5
489.451	12392.5
490.225	13477.5
491	14608.5
491.775	15878.5
492.55	17133.5
493.324	18451.5
494.099	19790.5
494.873	21153.5
495.647	22613.5
496.422	24042.5
497.196	25461.5
497.97	27030.5
498.744	28430.5
499.518	29726.5
500.292	31020.5
501.066	32138.5
501.839	33270.5
502.613	34151.5
503.387	34843.5
504.16	35272.5
504.934	35597.5
505.707	35600.5
506.48	35527.5
507.253	35172.5
508.027	34737.5
508.8	34159.5
509.573	33410.5
510.346	32585.5
511.118	31577.5
511.891	30612.5
512.664	29423.5
513.437	28255.5
514.209	27130.5
514.982	26104.5
515.754	25047.5
516.526	23984.5
517.298	22948.5
518.071	21961.5
518.843	21012.5
519.615	20236.5
520.387	19386.5
521.159	18667.5
521.93	17882.5
522.702	17196.5
523.474	16524.5
524.245	15852.5
525.017	15199.5
525.788	14432.5
526.56	13778.5
527.331	13187.5
528.102	12591.5
528.873	11962.5
529.644	11341.5
530.415	10826.5
531.186	10336.5
531.957	9789.5
532.728	9270.5
533.498	8738.5
534.269	8200.5
535.039	7839.5
535.81	7406.5
536.58	7013.5
537.351	6567.5
538.121	6209.5
538.891	5903.5
539.661	5592.5
540.431	5304.5
541.201	5018.5
541.971	4754.5
542.741	4494.5
543.51	4286.5
544.28	4062.5
545.05	3858.5
545.819	3676.5
546.588	3504.5
547.358	3305.5
548.127	3144.5
548.896	2994.5
549.665	2821.5
550.434	2706.5
551.203	2558.5
551.972	2409.5
552.741	2269.5
553.51	2156.5
554.278	2025.5
555.047	1912.5
555.815	1810.5
556.584	1720.5
557.352	1621.5
558.121	1524.5
558.889	1430.5
559.657	1360.5
560.425	1277.5
561.193	1204.5
561.961	1154.5
562.729	1093.5
563.496	1034.5
564.264	966.5
565.032	922.5
565.799	864.5
566.567	829.5
567.334	773.5
568.101	730.5
568.869	691.5
569.636	658.5
570.403	612.5
571.17	579.5
571.937	540.5
572.704	514.5
573.471	486.5
574.237	455.5
575.004	442.5
575.771	403.5
576.537	380.5
577.303	361.5
578.07	350.5
578.836	321.5
579.602	302.5
580.368	291.5
581.134	279.5
581.9	262.5
582.666	242.5
583.432	231.5
584.198	223.5
584.964	210.5
585.729	199.5
586.495	189.5
587.26	183.5
588.025	168.5
588.791	157.5
589.556	153.5
590.321	141.5
591.086	138.5
591.851	129.5
592.616	129.5
593.381	123.5
594.146	114.5
594.911	105.5
595.675	104.5
596.44	95.5
597.204	95.5
597.969	86.5
598.733	88.5
599.497	78.5
600.261	77.5
601.025	78.5
601.79	69.5
602.553	68.5
603.317	65.5
604.081	66.5
604.845	64.5
605.609	57.5
606.372	54.5
607.136	50.5
607.899	53.5
608.662	51.5
609.426	46.5
610.189	45.5
610.952	40.5
611.715	40.5
612.478	43.5
613.241	40.5
614.004	39.5
614.767	38.5
615.529	32.5
616.292	36.5
617.055	29.5
617.817	32.5
618.579	32.5
619.342	30.5
620.104	28.5
620.866	27.5
621.628	28.5
622.39	27.5
623.152	24.5
623.914	24.5
624.676	21.5
625.438	20.5
626.199	21.5
626.961	22.5
627.722	19.5
628.484	21.5
629.245	20.5
630.006	19.5
630.768	18.5
631.529	17.5
632.29	18.5
633.051	17.5
633.812	16.5
634.573	15.5
635.333	14.5
636.094	17.5
636.855	15.5
637.615	17.5
638.376	13.5
639.136	13.5
639.896	12.5
640.657	14.5
641.417	12.5
642.177	13.5
642.937	9.5
643.697	12.5
644.457	12.5
645.216	10.5
645.976	8.5
646.736	10.5
647.495	10.5
648.255	9.5
649.014	11.5
649.774	8.5
650.533	11.5
651.292	10.5
652.051	8.5
652.81	9.5
653.569	9.5
654.328	9.5
655.087	9.5
655.846	8.5
656.604	7.5
657.363	7.5
658.121	6.5
658.88	9.5
659.638	9.5
660.397	8.5
661.155	6.5
661.913	8.5
662.671	6.5
663.429	10.5
664.187	6.5
664.945	8.5
665.703	6.5
666.46	5.5
667.218	8.5
667.976	6.5
668.733	7.5
669.49	6.5
670.248	6.5
671.005	6.5
671.762	3.5
672.519	8.5
673.276	4.5
674.033	7.5
674.79	4.5
675.547	4.5
676.304	5.5
677.06	4.5
677.817	6.5
678.574	7.5
679.33	2.5
680.086	6.5
680.843	5.5
681.599	5.5
682.355	3.5
683.111	7.5
683.867	4.5
684.623	5.5
685.379	5.5
686.135	6.5
686.89	6.5
687.646	5.5
688.402	5.5
689.157	6.5
689.912	5.5
690.668	7.5
691.423	2.5
692.178	7.5
692.933	5.5
693.688	6.5
694.443	4.5
695.198	4.5
695.953	5.5
696.708	3.5
697.462	4.5
698.217	3.5
698.972	3.5
699.726	6.5
700.48	6.5
701.235	3.5
701.989	5.5
702.743	4.5
703.497	5.5
704.251	5.5
705.005	6.5
705.759	4.5
706.513	4.5
707.266	3.5
708.02	3.5
708.774	8.5
709.527	4.5
710.28	6.5
711.034	2.5
711.787	2.5
712.54	3.5
713.293	4.5
714.046	5.5
714.799	3.5
715.552	5.5
716.305	5.5
717.058	4.5
717.81	7.5
718.563	5.5
719.315	5.5
720.068	4.5
720.82	6.5
721.573	4.5
722.325	4.5
723.077	4.5
723.829	5.5
724.581	6.5
725.333	8.5
726.085	5.5
726.836	6.5
727.588	5.5
728.34	6.5
729.091	9.5
729.843	5.5
730.594	3.5
731.346	5.5
732.097	6.5
732.848	6.5
733.599	6.5
734.35	6.5
735.101	5.5
735.852	5.5
736.603	5.5
737.354	5.5
738.104	6.5
738.855	6.5
739.605	6.5
740.356	4.5
741.106	6.5
741.856	5.5
742.607	6.5
743.357	5.5
744.107	7.5
744.857	6.5
745.607	5.5
746.357	6.5
747.106	9.5
747.856	6.5
748.606	5.5
749.355	8.5
750.105	6.5
750.854	9.5
751.603	7.5
752.353	8.5
753.102	5.5
753.851	8.5
754.6	6.5
755.349	6.5
756.098	6.5
756.847	8.5
757.595	7.5
758.344	7.5
759.093	9.5
759.841	8.5
760.589	10.5
761.338	9.5
762.086	8.5
762.834	10.5
763.582	7.5
764.331	8.5
765.079	8.5
765.826	9.5
766.574	9.5
767.322	9.5
768.07	6.5
768.817	10.5
769.565	11.5
770.312	11.5
771.06	11.5
771.807	12.5
772.554	9.5
773.302	11.5
774.049	9.5
774.796	12.5
775.543	8.5
776.29	10.5
777.036	11.5
777.783	10.5
778.53	12.5
779.276	7.5
780.023	10.5
780.769	11.5
781.516	10.5
782.262	10.5
783.008	10.5
783.754	10.5
784.5	11.5
785.246	12.5
785.992	10.5
786.738	10.5
787.484	11.5
788.23	12.5
788.975	9.5
789.721	10.5
790.466	8.5
791.212	12.5
791.957	12.5
792.702	11.5
793.447	9.5
794.193	9.5
794.938	10.5
795.683	9.5
796.427	10.5
797.172	10.5
797.917	11.5
798.662	10.5
799.406	9.5
800.151	10.5
800.895	8.5
801.64	7.5
802.384	10.5
803.128	8.5
803.872	9.5
804.616	9.5
805.36	7.5
806.104	7.5
806.848	8.5
807.592	7.5
808.336	7.5
809.079	8.5
809.823	7.5
810.566	7.5
811.31	8.5
812.053	4.5
812.796	8.5
813.539	6.5
814.283	6.5
815.026	5.5
815.769	10.5
816.511	5.5
817.254	4.5
817.997	6.5
818.74	6.5
819.482	8.5
820.225	7.5
820.967	3.5
821.71	8.5
822.452	5.5
823.194	7.5
823.936	3.5
824.678	4.5
825.42	6.5
826.162	4.5
826.904	6.5
827.646	8.5
828.388	4.5
829.129	4.5
829.871	4.5
830.612	4.5
831.354	5.5
832.095	4.5
832.836	4.5
833.577	2.5
834.319	5.5
835.06	4.5
835.801	5.5
836.542	4.5
837.282	5.5
838.023	3.5
838.764	6.5
839.504	3.5
840.245	4.5
840.985	4.5
841.726	4.5
842.466	3.5
843.206	2.5
843.946	2.5
844.687	2.5
845.427	1.5
846.166	4.5
846.906	3.5
847.646	0.5
848.386	3.5
849.125	2.5
849.865	4.5
850.605	2.5
851.344	3.5
852.083	2.5
852.823	2.5
853.562	2.5
854.301	2.5
855.04	3.5
855.779	0.5
856.518	4.5
857.257	4.5
857.995	1.5
858.734	3.5
859.473	2.5
860.211	2.5
860.95	2.5
861.688	4.5
862.426	4.5
863.165	0.5
863.903	2.5
864.641	0.5
865.379	1.5
866.117	3.5
866.855	1.5
867.593	1.5
868.33	2.5
869.068	2.5
869.806	0.5
870.543	0.5
871.28	2.5
872.018	1.5
872.755	1.5
873.492	3.5
874.229	0.5
874.967	1.5
875.703	0.5
876.44	2.5
877.177	0.5
877.914	0.5
878.651	1.5
879.387	-1.5
880.124	2.5
880.86	0.5
881.597	0.5
882.333	2.5
883.069	1.5
883.806	2.5
884.542	1.5
885.278	1.5
886.014	1.5
886.749	0.5
887.485	0.5
888.221	-0.5
888.957	1.5
889.692	0.5
890.428	2.5
891.163	1.5
891.899	2.5
892.634	0.5
893.369	0.5
894.104	1.5
894.839	2.5
895.574	2.5
896.309	1.5
897.044	0.5
897.779	2.5
898.514	1.5
899.248	1.5
899.983	0.5
900.717	1.5
901.452	0.5
902.186	-1.5
902.92	1.5
903.654	2.5
904.389	-0.5
905.123	2.5
905.857	-0.5
906.59	0.5
907.324	-0.5
908.058	-0.5
908.792	1.5
909.525	0.5
910.259	0.5
910.992	0.5
911.726	2.5
912.459	3.5
913.192	0.5
913.925	1.5
914.658	-1.5
915.391	3.5
916.124	1.5
916.857	1.5
917.59	-0.5
918.323	-0.5
919.055	2.5
919.788	0.5
920.521	-0.5
921.253	1.5
921.985	-0.5
922.718	2.5
923.45	-1.5
924.182	1.5
924.914	1.5
925.646	0.5
926.378	0.5
927.11	-3.5
927.841	0.5
928.573	-0.5
929.305	0.5
930.036	1.5
930.768	0.5
931.499	0.5
932.23	0.5
932.962	1.5
933.693	0.5
934.424	0.5
935.155	1.5
935.886	0.5
936.617	1.5
937.348	-1.5
938.078	1.5
938.809	0.5
939.54	0.5
940.27	1.5
941.001	-1.5
941.731	1.5
942.461	-1.5
943.191	2.5
943.922	-0.5
944.652	0.5
945.382	-1.5
946.112	1.5
946.841	0.5
947.571	-0.5
948.301	0.5
949.031	0.5
949.76	-0.5
950.49	2.5
951.219	0.5
951.948	0.5
952.678	-1.5
953.407	1.5
954.136	2.5
954.865	0.5
955.594	0.5
956.323	1.5
957.052	-0.5
957.78	0.5
958.509	-1.5
959.238	0.5
959.966	-1.5
960.695	0.5
961.423	0.5
962.151	-0.5
962.88	-0.5
963.608	1.5
964.336	0.5
965.064	2.5
965.792	-2.5
966.52	-1.5
967.247	3.5
967.975	0.5
968.703	0.5
969.43	1.5
970.158	-1.5
970.885	0.5
971.613	-1.5
972.34	-0.5
973.067	1.5
973.794	1.5
974.521	-0.5
975.248	2.5
975.975	0.5
976.702	-0.5
977.429	-0.5
978.156	1.5
978.882	1.5
979.609	1.5
980.335	-0.5
981.062	-0.5
981.788	-0.5
982.514	1.5
983.24	-1.5
983.967	0.5
984.693	-0.5
985.419	-0.5
986.144	-0.5
986.87	3.5
987.596	0.5
988.322	0.5
989.047	0.5
989.773	0.5
990.498	-0.5
991.224	-0.5
991.949	0.5
992.674	1.5
993.399	-0.5
994.124	-1.5
994.849	0.5
995.574	1.5
996.299	0.5
997.024	0.5
997.749	1.5
998.473	-0.5
999.198	1.5
999.922	1.5
1000.647	-0.5
1001.371	4.5
1002.095	0.5
1002.82	-2.5
1003.544	-1.5
1004.268	3.5
1004.992	1.5
1005.716	2.5
1006.439	1.5
1007.163	2.5
1007.887	1.5
1008.611	2.5
1009.334	-0.5
1010.058	0.5
1010.781	-0.5
1011.504	1.5
1012.228	-0.5
1012.951	-2.5
1013.674	0.5
1014.397	-0.5
1015.12	1.5
