节点500_425_QEPB04081__305__15-53-22-891.txt的数据

Date: Wed Nov 12 15:53:22 CST 2025
User: PC
Spectrometer: QEPB0408
触发模式: 0
积分时间 (秒): 1.000000E-2
Scans to average: 1
启用暗噪声校正: true
启用非线性校正: false
滑动平均宽度: 0
X轴模式: Wavelengths
Number of Pixels in Spectrum: 1044
>>>>>Begin Spectral Data<<<<<
220.843	4.12
221.644	2.12
222.444	4.12
223.244	3.12
224.045	6.12
224.845	3.12
225.645	4.12
226.445	6.12
227.245	6.12
228.045	5.12
228.845	6.12
229.645	5.12
230.444	5.12
231.244	5.12
232.043	5.12
232.843	5.12
233.642	4.12
234.442	7.12
235.241	7.12
236.04	10.12
236.839	6.12
237.638	7.12
238.437	7.12
239.236	8.12
240.035	8.12
240.833	6.12
241.632	9.12
242.43	9.12
243.229	9.12
244.027	8.12
244.826	10.12
245.624	8.12
246.422	10.12
247.22	7.12
248.018	11.12
248.816	10.12
249.614	11.12
250.412	11.12
251.21	10.12
252.007	10.12
252.805	12.12
253.602	13.12
254.4	11.12
255.197	10.12
255.994	13.12
256.791	13.12
257.589	10.12
258.386	13.12
259.183	13.12
259.979	15.12
260.776	15.12
261.573	16.12
262.37	13.12
263.166	16.12
263.963	15.12
264.759	19.12
265.556	20.12
266.352	19.12
267.148	18.12
267.944	19.12
268.74	21.12
269.536	19.12
270.332	19.12
271.128	21.12
271.924	21.12
272.719	22.12
273.515	21.12
274.311	24.12
275.106	24.12
275.901	28.12
276.697	23.12
277.492	25.12
278.287	27.12
279.082	26.12
279.877	23.12
280.672	27.12
281.467	23.12
282.262	26.12
283.056	25.12
283.851	26.12
284.646	25.12
285.44	24.12
286.234	24.12
287.029	25.12
287.823	25.12
288.617	25.12
289.411	22.12
290.205	25.12
290.999	23.12
291.793	23.12
292.587	22.12
293.381	24.12
294.174	22.12
294.968	22.12
295.761	19.12
296.555	21.12
297.348	21.12
298.141	22.12
298.935	24.12
299.728	21.12
300.521	20.12
301.314	18.12
302.107	17.12
302.899	18.12
303.692	14.12
304.485	16.12
305.277	18.12
306.07	16.12
306.862	15.12
307.655	17.12
308.447	15.12
309.239	15.12
310.031	15.12
310.823	16.12
311.615	11.12
312.407	13.12
313.199	15.12
313.991	12.12
314.783	16.12
315.574	12.12
316.366	12.12
317.157	14.12
317.949	10.12
318.74	11.12
319.531	11.12
320.322	13.12
321.113	9.12
321.904	12.12
322.695	11.12
323.486	9.12
324.277	11.12
325.068	10.12
325.858	10.12
326.649	10.12
327.439	10.12
328.23	11.12
329.02	9.12
329.81	8.12
330.6	10.12
331.391	11.12
332.181	11.12
332.971	11.12
333.76	8.12
334.55	8.12
335.34	9.12
336.13	10.12
336.919	9.12
337.709	11.12
338.498	8.12
339.287	9.12
340.077	9.12
340.866	9.12
341.655	9.12
342.444	6.12
343.233	9.12
344.022	7.12
344.811	9.12
345.6	7.12
346.388	10.12
347.177	10.12
347.965	8.12
348.754	8.12
349.542	9.12
350.33	10.12
351.119	9.12
351.907	8.12
352.695	8.12
353.483	8.12
354.271	11.12
355.059	9.12
355.846	6.12
356.634	8.12
357.422	8.12
358.209	9.12
358.997	9.12
359.784	9.12
360.571	7.12
361.359	9.12
362.146	8.12
362.933	6.12
363.72	9.12
364.507	9.12
365.294	8.12
366.081	5.12
366.867	8.12
367.654	9.12
368.44	8.12
369.227	7.12
370.013	8.12
370.8	7.12
371.586	5.12
372.372	10.12
373.158	9.12
373.944	8.12
374.73	7.12
375.516	10.12
376.302	7.12
377.088	9.12
377.873	9.12
378.659	9.12
379.445	7.12
380.23	9.12
381.015	9.12
381.801	8.12
382.586	7.12
383.371	11.12
384.156	9.12
384.941	9.12
385.726	9.12
386.511	10.12
387.296	7.12
388.08	6.12
388.865	8.12
389.649	9.12
390.434	9.12
391.218	8.12
392.003	9.12
392.787	8.12
393.571	9.12
394.355	8.12
395.139	8.12
395.923	8.12
396.707	7.12
397.491	10.12
398.274	9.12
399.058	9.12
399.842	8.12
400.625	11.12
401.408	13.12
402.192	12.12
402.975	9.12
403.758	10.12
404.541	12.12
405.324	12.12
406.107	8.12
406.89	12.12
407.673	10.12
408.456	14.12
409.238	11.12
410.021	12.12
410.803	12.12
411.586	13.12
412.368	13.12
413.151	13.12
413.933	14.12
414.715	16.12
415.497	12.12
416.279	13.12
417.061	12.12
417.843	15.12
418.624	13.12
419.406	13.12
420.188	14.12
420.969	16.12
421.751	15.12
422.532	15.12
423.313	17.12
424.095	15.12
424.876	14.12
425.657	15.12
426.438	15.12
427.219	19.12
428	17.12
428.78	20.12
429.561	21.12
430.342	18.12
431.122	21.12
431.903	21.12
432.683	24.12
433.464	21.12
434.244	23.12
435.024	24.12
435.804	24.12
436.584	26.12
437.364	30.12
438.144	29.12
438.924	33.12
439.704	29.12
440.483	35.12
441.263	36.12
442.042	39.12
442.822	41.12
443.601	45.12
444.38	49.12
445.16	49.12
445.939	52.12
446.718	58.12
447.497	62.12
448.276	68.12
449.054	74.12
449.833	79.12
450.612	89.12
451.391	94.12
452.169	101.12
452.948	112.12
453.726	127.12
454.504	139.12
455.282	157.12
456.061	170.12
456.839	190.12
457.617	208.12
458.395	236.12
459.172	258.12
459.95	293.12
460.728	317.12
461.506	354.12
462.283	399.12
463.061	447.12
463.838	493.12
464.615	560.12
465.393	623.12
466.17	694.12
466.947	776.12
467.724	861.12
468.501	959.12
469.278	1048.12
470.055	1175.12
470.831	1293.12
471.608	1455.12
472.385	1600.12
473.161	1741.12
473.938	1956.12
474.714	2149.12
475.49	2384.12
476.266	2618.12
477.043	2897.12
477.819	3169.12
478.595	3498.12
479.371	3845.12
480.146	4214.12
480.922	4637.12
481.698	5085.12
482.473	5547.12
483.249	6107.12
484.024	6660.12
484.8	7333.12
485.575	7968.12
486.35	8683.12
487.126	9466.12
487.901	10328.12
488.676	11297.12
489.451	12234.12
490.225	13295.12
491	14405.12
491.775	15591.12
492.55	16858.12
493.324	18143.12
494.099	19363.12
494.873	20786.12
495.647	22108.12
496.422	23564.12
497.196	24968.12
497.97	26534.12
498.744	27931.12
499.518	29212.12
500.292	30438.12
501.066	31611.12
501.839	32707.12
502.613	33578.12
503.387	34279.12
504.16	34880.12
504.934	35171.12
505.707	35264.12
506.48	35099.12
507.253	34857.12
508.027	34568.12
508.8	33939.12
509.573	33345.12
510.346	32505.12
511.118	31496.12
511.891	30529.12
512.664	29327.12
513.437	28227.12
514.209	27131.12
514.982	26139.12
515.754	25037.12
516.526	23951.12
517.298	22988.12
518.071	22045.12
518.843	21070.12
519.615	20196.12
520.387	19429.12
521.159	18694.12
521.93	17952.12
522.702	17272.12
523.474	16623.12
524.245	15951.12
525.017	15193.12
525.788	14543.12
526.56	13882.12
527.331	13237.12
528.102	12641.12
528.873	12079.12
529.644	11484.12
530.415	10943.12
531.186	10414.12
531.957	9852.12
532.728	9311.12
533.498	8806.12
534.269	8360.12
535.039	7876.12
535.81	7443.12
536.58	7055.12
537.351	6635.12
538.121	6263.12
538.891	5976.12
539.661	5638.12
540.431	5311.12
541.201	5070.12
541.971	4791.12
542.741	4543.12
543.51	4320.12
544.28	4091.12
545.05	3876.12
545.819	3724.12
546.588	3519.12
547.358	3341.12
548.127	3184.12
548.896	3009.12
549.665	2851.12
550.434	2711.12
551.203	2572.12
551.972	2436.12
552.741	2305.12
553.51	2190.12
554.278	2044.12
555.047	1943.12
555.815	1837.12
556.584	1723.12
557.352	1624.12
558.121	1541.12
558.889	1464.12
559.657	1382.12
560.425	1298.12
561.193	1229.12
561.961	1169.12
562.729	1094.12
563.496	1042.12
564.264	979.12
565.032	925.12
565.799	883.12
566.567	828.12
567.334	788.12
568.101	747.12
568.869	696.12
569.636	660.12
570.403	624.12
571.17	585.12
571.937	549.12
572.704	533.12
573.471	497.12
574.237	464.12
575.004	435.12
575.771	403.12
576.537	388.12
577.303	363.12
578.07	346.12
578.836	329.12
579.602	303.12
580.368	293.12
581.134	278.12
581.9	265.12
582.666	253.12
583.432	240.12
584.198	229.12
584.964	219.12
585.729	203.12
586.495	200.12
587.26	181.12
588.025	172.12
588.791	164.12
589.556	156.12
590.321	151.12
591.086	136.12
591.851	129.12
592.616	124.12
593.381	121.12
594.146	117.12
594.911	110.12
595.675	106.12
596.44	100.12
597.204	97.12
597.969	92.12
598.733	87.12
599.497	87.12
600.261	83.12
601.025	75.12
601.79	73.12
602.553	70.12
603.317	67.12
604.081	64.12
604.845	62.12
605.609	58.12
606.372	58.12
607.136	54.12
607.899	54.12
608.662	50.12
609.426	48.12
610.189	48.12
610.952	43.12
611.715	42.12
612.478	41.12
613.241	41.12
614.004	38.12
614.767	36.12
615.529	36.12
616.292	35.12
617.055	35.12
617.817	32.12
618.579	36.12
619.342	31.12
620.104	29.12
620.866	27.12
621.628	28.12
622.39	29.12
623.152	23.12
623.914	25.12
624.676	25.12
625.438	24.12
626.199	25.12
626.961	20.12
627.722	22.12
628.484	19.12
629.245	23.12
630.006	21.12
630.768	21.12
631.529	19.12
632.29	19.12
633.051	19.12
633.812	18.12
634.573	15.12
635.333	15.12
636.094	14.12
636.855	14.12
637.615	15.12
638.376	15.12
639.136	17.12
639.896	12.12
640.657	12.12
641.417	10.12
642.177	15.12
642.937	13.12
643.697	13.12
644.457	14.12
645.216	12.12
645.976	12.12
646.736	9.12
647.495	11.12
648.255	10.12
649.014	11.12
649.774	10.12
650.533	12.12
651.292	11.12
652.051	11.12
652.81	10.12
653.569	13.12
654.328	10.12
655.087	8.12
655.846	10.12
656.604	10.12
657.363	10.12
658.121	9.12
658.88	9.12
659.638	9.12
660.397	8.12
661.155	9.12
661.913	9.12
662.671	8.12
663.429	8.12
664.187	9.12
664.945	7.12
665.703	7.12
666.46	9.12
667.218	7.12
667.976	9.12
668.733	6.12
669.49	11.12
670.248	6.12
671.005	5.12
671.762	8.12
672.519	6.12
673.276	9.12
674.033	5.12
674.79	8.12
675.547	5.12
676.304	7.12
677.06	7.12
677.817	8.12
678.574	5.12
679.33	8.12
680.086	6.12
680.843	6.12
681.599	5.12
682.355	6.12
683.111	5.12
683.867	7.12
684.623	8.12
685.379	7.12
686.135	6.12
686.89	8.12
687.646	7.12
688.402	4.12
689.157	5.12
689.912	7.12
690.668	4.12
691.423	7.12
692.178	5.12
692.933	7.12
693.688	4.12
694.443	6.12
695.198	8.12
695.953	6.12
696.708	5.12
697.462	9.12
698.217	5.12
698.972	6.12
699.726	7.12
700.48	5.12
701.235	5.12
701.989	5.12
702.743	4.12
703.497	6.12
704.251	7.12
705.005	3.12
705.759	7.12
706.513	4.12
707.266	5.12
708.02	6.12
708.774	5.12
709.527	6.12
710.28	8.12
711.034	5.12
711.787	7.12
712.54	5.12
713.293	6.12
714.046	3.12
714.799	5.12
715.552	5.12
716.305	7.12
717.058	6.12
717.81	8.12
718.563	5.12
719.315	5.12
720.068	8.12
720.82	5.12
721.573	4.12
722.325	7.12
723.077	6.12
723.829	5.12
724.581	7.12
725.333	5.12
726.085	7.12
726.836	5.12
727.588	8.12
728.34	7.12
729.091	9.12
729.843	5.12
730.594	5.12
731.346	4.12
732.097	6.12
732.848	8.12
733.599	5.12
734.35	4.12
735.101	9.12
735.852	5.12
736.603	7.12
737.354	7.12
738.104	7.12
738.855	7.12
739.605	7.12
740.356	8.12
741.106	6.12
741.856	7.12
742.607	9.12
743.357	7.12
744.107	6.12
744.857	7.12
745.607	9.12
746.357	6.12
747.106	8.12
747.856	7.12
748.606	7.12
749.355	5.12
750.105	6.12
750.854	9.12
751.603	7.12
752.353	9.12
753.102	10.12
753.851	8.12
754.6	10.12
755.349	8.12
756.098	9.12
756.847	8.12
757.595	9.12
758.344	9.12
759.093	7.12
759.841	9.12
760.589	8.12
761.338	11.12
762.086	10.12
762.834	9.12
763.582	10.12
764.331	8.12
765.079	8.12
765.826	10.12
766.574	11.12
767.322	13.12
768.07	11.12
768.817	10.12
769.565	9.12
770.312	11.12
771.06	11.12
771.807	10.12
772.554	11.12
773.302	11.12
774.049	12.12
774.796	12.12
775.543	11.12
776.29	13.12
777.036	10.12
777.783	13.12
778.53	11.12
779.276	14.12
780.023	12.12
780.769	12.12
781.516	11.12
782.262	12.12
783.008	12.12
783.754	11.12
784.5	12.12
785.246	12.12
785.992	11.12
786.738	16.12
787.484	13.12
788.23	14.12
788.975	11.12
789.721	11.12
790.466	14.12
791.212	13.12
791.957	12.12
792.702	13.12
793.447	12.12
794.193	11.12
794.938	12.12
795.683	12.12
796.427	8.12
797.172	12.12
797.917	13.12
798.662	7.12
799.406	12.12
800.151	10.12
800.895	12.12
801.64	10.12
802.384	10.12
803.128	11.12
803.872	9.12
804.616	10.12
805.36	8.12
806.104	9.12
806.848	10.12
807.592	8.12
808.336	11.12
809.079	6.12
809.823	7.12
810.566	7.12
811.31	8.12
812.053	8.12
812.796	8.12
813.539	7.12
814.283	7.12
815.026	9.12
815.769	8.12
816.511	7.12
817.254	7.12
817.997	5.12
818.74	7.12
819.482	7.12
820.225	7.12
820.967	6.12
821.71	6.12
822.452	6.12
823.194	5.12
823.936	7.12
824.678	5.12
825.42	7.12
826.162	10.12
826.904	5.12
827.646	9.12
828.388	7.12
829.129	6.12
829.871	3.12
830.612	5.12
831.354	5.12
832.095	6.12
832.836	3.12
833.577	4.12
834.319	6.12
835.06	5.12
835.801	5.12
836.542	6.12
837.282	6.12
838.023	5.12
838.764	4.12
839.504	7.12
840.245	3.12
840.985	3.12
841.726	7.12
842.466	3.12
843.206	4.12
843.946	4.12
844.687	4.12
845.427	6.12
846.166	3.12
846.906	4.12
847.646	5.12
848.386	4.12
849.125	5.12
849.865	6.12
850.605	6.12
851.344	5.12
852.083	5.12
852.823	5.12
853.562	3.12
854.301	4.12
855.04	4.12
855.779	5.12
856.518	4.12
857.257	4.12
857.995	5.12
858.734	3.12
859.473	3.12
860.211	5.12
860.95	3.12
861.688	3.12
862.426	2.12
863.165	4.12
863.903	1.12
864.641	2.12
865.379	3.12
866.117	1.12
866.855	2.12
867.593	1.12
868.33	2.12
869.068	3.12
869.806	1.12
870.543	1.12
871.28	2.12
872.018	0.12
872.755	3.12
873.492	3.12
874.229	4.12
874.967	1.12
875.703	3.12
876.44	-0.88
877.177	3.12
877.914	1.12
878.651	1.12
879.387	3.12
880.124	3.12
880.86	2.12
881.597	1.12
882.333	3.12
883.069	2.12
883.806	2.12
884.542	2.12
885.278	1.12
886.014	0.12
886.749	3.12
887.485	4.12
888.221	3.12
888.957	2.12
889.692	2.12
890.428	1.12
891.163	3.12
891.899	2.12
892.634	3.12
893.369	1.12
894.104	2.12
894.839	3.12
895.574	3.12
896.309	0.12
897.044	3.12
897.779	1.12
898.514	2.12
899.248	0.12
899.983	2.12
900.717	3.12
901.452	3.12
902.186	1.12
902.92	-0.88
903.654	2.12
904.389	1.12
905.123	-0.88
905.857	1.12
906.59	0.12
907.324	5.12
908.058	1.12
908.792	2.12
909.525	-0.88
910.259	1.12
910.992	1.12
911.726	-0.88
912.459	1.12
913.192	1.12
913.925	0.12
914.658	0.12
915.391	0.12
916.124	1.12
916.857	0.12
917.59	3.12
918.323	-0.88
919.055	1.12
919.788	4.12
920.521	1.12
921.253	1.12
921.985	2.12
922.718	0.12
923.45	2.12
924.182	-0.88
924.914	2.12
925.646	-0.88
926.378	-0.88
927.11	3.12
927.841	0.12
928.573	3.12
929.305	2.12
930.036	1.12
930.768	2.12
931.499	2.12
932.23	0.12
932.962	0.12
933.693	3.12
934.424	1.12
935.155	4.12
935.886	1.12
936.617	-0.88
937.348	1.12
938.078	0.12
938.809	3.12
939.54	3.12
940.27	1.12
941.001	1.12
941.731	-1.88
942.461	2.12
943.191	-0.88
943.922	0.12
944.652	1.12
945.382	1.12
946.112	2.12
946.841	2.12
947.571	1.12
948.301	3.12
949.031	2.12
949.76	1.12
950.49	-0.88
951.219	1.12
951.948	1.12
952.678	0.12
953.407	0.12
954.136	0.12
954.865	3.12
955.594	0.12
956.323	2.12
957.052	0.12
957.78	3.12
958.509	-0.88
959.238	1.12
959.966	2.12
960.695	0.12
961.423	3.12
962.151	0.12
962.88	-0.88
963.608	1.12
964.336	1.12
965.064	3.12
965.792	0.12
966.52	2.12
967.247	1.12
967.975	0.12
968.703	1.12
969.43	0.12
970.158	1.12
970.885	1.12
971.613	1.12
972.34	1.12
973.067	1.12
973.794	0.12
974.521	0.12
975.248	3.12
975.975	2.12
976.702	0.12
977.429	2.12
978.156	-2.88
978.882	3.12
979.609	1.12
980.335	-0.88
981.062	-0.88
981.788	1.12
982.514	3.12
983.24	0.12
983.967	1.12
984.693	1.12
985.419	1.12
986.144	-0.88
986.87	1.12
987.596	2.12
988.322	-0.88
989.047	1.12
989.773	1.12
990.498	1.12
991.224	0.12
991.949	3.12
992.674	-0.88
993.399	1.12
994.124	1.12
994.849	2.12
995.574	3.12
996.299	1.12
997.024	1.12
997.749	2.12
998.473	1.12
999.198	1.12
999.922	1.12
1000.647	2.12
1001.371	5.12
1002.095	-0.88
1002.82	-1.88
1003.544	0.12
1004.268	3.12
1004.992	5.12
1005.716	3.12
1006.439	3.12
1007.163	5.12
1007.887	3.12
1008.611	2.12
1009.334	2.12
1010.058	1.12
1010.781	1.12
1011.504	0.12
1012.228	-0.88
1012.951	-0.88
1013.674	0.12
1014.397	-0.88
1015.12	-0.88
