节点500_425_QEPB04081__118__15-50-16-304.txt的数据

Date: Wed Nov 12 15:50:16 CST 2025
User: PC
Spectrometer: QEPB0408
触发模式: 0
积分时间 (秒): 1.000000E-2
Scans to average: 1
启用暗噪声校正: true
启用非线性校正: false
滑动平均宽度: 0
X轴模式: Wavelengths
Number of Pixels in Spectrum: 1044
>>>>>Begin Spectral Data<<<<<
220.843	3.38
221.644	4.38
222.444	4.38
223.244	5.38
224.045	2.38
224.845	3.38
225.645	2.38
226.445	5.38
227.245	7.38
228.045	1.38
228.845	2.38
229.645	1.38
230.444	5.38
231.244	3.38
232.043	6.38
232.843	4.38
233.642	5.38
234.442	5.38
235.241	6.38
236.04	4.38
236.839	6.38
237.638	4.38
238.437	7.38
239.236	5.38
240.035	9.38
240.833	7.38
241.632	9.38
242.43	8.38
243.229	7.38
244.027	8.38
244.826	10.38
245.624	10.38
246.422	9.38
247.22	9.38
248.018	10.38
248.816	10.38
249.614	13.38
250.412	10.38
251.21	12.38
252.007	10.38
252.805	9.38
253.602	13.38
254.4	13.38
255.197	12.38
255.994	14.38
256.791	13.38
257.589	11.38
258.386	12.38
259.183	13.38
259.979	15.38
260.776	15.38
261.573	17.38
262.37	14.38
263.166	16.38
263.963	17.38
264.759	17.38
265.556	22.38
266.352	16.38
267.148	22.38
267.944	20.38
268.74	19.38
269.536	21.38
270.332	25.38
271.128	22.38
271.924	25.38
272.719	24.38
273.515	23.38
274.311	26.38
275.106	25.38
275.901	23.38
276.697	26.38
277.492	24.38
278.287	26.38
279.082	24.38
279.877	28.38
280.672	30.38
281.467	27.38
282.262	29.38
283.056	22.38
283.851	27.38
284.646	24.38
285.44	24.38
286.234	23.38
287.029	21.38
287.823	26.38
288.617	22.38
289.411	25.38
290.205	23.38
290.999	24.38
291.793	23.38
292.587	22.38
293.381	25.38
294.174	22.38
294.968	22.38
295.761	20.38
296.555	16.38
297.348	18.38
298.141	18.38
298.935	20.38
299.728	20.38
300.521	18.38
301.314	17.38
302.107	16.38
302.899	16.38
303.692	17.38
304.485	19.38
305.277	20.38
306.07	13.38
306.862	15.38
307.655	16.38
308.447	17.38
309.239	16.38
310.031	13.38
310.823	15.38
311.615	15.38
312.407	13.38
313.199	10.38
313.991	12.38
314.783	10.38
315.574	11.38
316.366	12.38
317.157	11.38
317.949	9.38
318.74	12.38
319.531	9.38
320.322	10.38
321.113	10.38
321.904	9.38
322.695	10.38
323.486	9.38
324.277	10.38
325.068	10.38
325.858	10.38
326.649	7.38
327.439	9.38
328.23	12.38
329.02	7.38
329.81	9.38
330.6	7.38
331.391	8.38
332.181	10.38
332.971	10.38
333.76	9.38
334.55	6.38
335.34	9.38
336.13	9.38
336.919	10.38
337.709	9.38
338.498	7.38
339.287	9.38
340.077	10.38
340.866	7.38
341.655	8.38
342.444	7.38
343.233	8.38
344.022	7.38
344.811	8.38
345.6	9.38
346.388	7.38
347.177	7.38
347.965	8.38
348.754	9.38
349.542	8.38
350.33	7.38
351.119	8.38
351.907	8.38
352.695	9.38
353.483	7.38
354.271	9.38
355.059	4.38
355.846	8.38
356.634	10.38
357.422	7.38
358.209	6.38
358.997	7.38
359.784	8.38
360.571	8.38
361.359	6.38
362.146	8.38
362.933	7.38
363.72	8.38
364.507	8.38
365.294	5.38
366.081	7.38
366.867	9.38
367.654	9.38
368.44	6.38
369.227	6.38
370.013	8.38
370.8	7.38
371.586	6.38
372.372	6.38
373.158	9.38
373.944	4.38
374.73	7.38
375.516	9.38
376.302	5.38
377.088	8.38
377.873	6.38
378.659	6.38
379.445	6.38
380.23	7.38
381.015	7.38
381.801	7.38
382.586	7.38
383.371	6.38
384.156	9.38
384.941	8.38
385.726	9.38
386.511	7.38
387.296	8.38
388.08	8.38
388.865	9.38
389.649	8.38
390.434	8.38
391.218	8.38
392.003	8.38
392.787	7.38
393.571	10.38
394.355	9.38
395.139	8.38
395.923	8.38
396.707	8.38
397.491	8.38
398.274	9.38
399.058	9.38
399.842	8.38
400.625	7.38
401.408	12.38
402.192	10.38
402.975	10.38
403.758	9.38
404.541	9.38
405.324	10.38
406.107	9.38
406.89	10.38
407.673	9.38
408.456	11.38
409.238	12.38
410.021	11.38
410.803	13.38
411.586	10.38
412.368	11.38
413.151	10.38
413.933	15.38
414.715	12.38
415.497	12.38
416.279	14.38
417.061	12.38
417.843	14.38
418.624	14.38
419.406	13.38
420.188	15.38
420.969	12.38
421.751	13.38
422.532	13.38
423.313	15.38
424.095	16.38
424.876	16.38
425.657	17.38
426.438	17.38
427.219	16.38
428	16.38
428.78	17.38
429.561	18.38
430.342	21.38
431.122	22.38
431.903	21.38
432.683	22.38
433.464	25.38
434.244	23.38
435.024	25.38
435.804	26.38
436.584	26.38
437.364	27.38
438.144	30.38
438.924	30.38
439.704	28.38
440.483	35.38
441.263	36.38
442.042	35.38
442.822	40.38
443.601	39.38
444.38	48.38
445.16	49.38
445.939	51.38
446.718	55.38
447.497	58.38
448.276	67.38
449.054	71.38
449.833	74.38
450.612	82.38
451.391	88.38
452.169	94.38
452.948	108.38
453.726	120.38
454.504	131.38
455.282	140.38
456.061	165.38
456.839	170.38
457.617	199.38
458.395	227.38
459.172	238.38
459.95	270.38
460.728	303.38
461.506	333.38
462.283	372.38
463.061	424.38
463.838	480.38
464.615	532.38
465.393	591.38
466.17	659.38
466.947	738.38
467.724	825.38
468.501	930.38
469.278	1017.38
470.055	1136.38
470.831	1259.38
471.608	1405.38
472.385	1574.38
473.161	1735.38
473.938	1923.38
474.714	2137.38
475.49	2344.38
476.266	2628.38
477.043	2882.38
477.819	3199.38
478.595	3535.38
479.371	3899.38
480.146	4290.38
480.922	4718.38
481.698	5230.38
482.473	5755.38
483.249	6345.38
484.024	6954.38
484.8	7651.38
485.575	8372.38
486.35	9158.38
487.126	9991.38
487.901	10931.38
488.676	11997.38
489.451	13051.38
490.225	14194.38
491	15397.38
491.775	16762.38
492.55	18114.38
493.324	19600.38
494.099	20956.38
494.873	22446.38
495.647	23950.38
496.422	25500.38
497.196	26989.38
497.97	28612.38
498.744	30084.38
499.518	31500.38
500.292	32671.38
501.066	33823.38
501.839	34891.38
502.613	35705.38
503.387	36324.38
504.16	36697.38
504.934	36889.38
505.707	36797.38
506.48	36528.38
507.253	36014.38
508.027	35576.38
508.8	34817.38
509.573	33884.38
510.346	32960.38
511.118	31903.38
511.891	30749.38
512.664	29474.38
513.437	28296.38
514.209	27074.38
514.982	25992.38
515.754	24915.38
516.526	23825.38
517.298	22727.38
518.071	21772.38
518.843	20892.38
519.615	20084.38
520.387	19215.38
521.159	18517.38
521.93	17822.38
522.702	17091.38
523.474	16413.38
524.245	15747.38
525.017	14999.38
525.788	14361.38
526.56	13626.38
527.331	12984.38
528.102	12390.38
528.873	11792.38
529.644	11172.38
530.415	10651.38
531.186	10122.38
531.957	9535.38
532.728	9055.38
533.498	8554.38
534.269	8072.38
535.039	7615.38
535.81	7206.38
536.58	6779.38
537.351	6437.38
538.121	6025.38
538.891	5756.38
539.661	5456.38
540.431	5165.38
541.201	4866.38
541.971	4623.38
542.741	4359.38
543.51	4176.38
544.28	3958.38
545.05	3778.38
545.819	3584.38
546.588	3408.38
547.358	3227.38
548.127	3054.38
548.896	2918.38
549.665	2747.38
550.434	2617.38
551.203	2472.38
551.972	2331.38
552.741	2209.38
553.51	2099.38
554.278	1965.38
555.047	1841.38
555.815	1753.38
556.584	1659.38
557.352	1570.38
558.121	1477.38
558.889	1390.38
559.657	1325.38
560.425	1234.38
561.193	1170.38
561.961	1114.38
562.729	1042.38
563.496	993.38
564.264	934.38
565.032	897.38
565.799	846.38
566.567	794.38
567.334	747.38
568.101	706.38
568.869	670.38
569.636	630.38
570.403	591.38
571.17	562.38
571.937	536.38
572.704	508.38
573.471	465.38
574.237	447.38
575.004	417.38
575.771	395.38
576.537	370.38
577.303	348.38
578.07	327.38
578.836	306.38
579.602	299.38
580.368	278.38
581.134	262.38
581.9	247.38
582.666	244.38
583.432	221.38
584.198	212.38
584.964	202.38
585.729	190.38
586.495	187.38
587.26	176.38
588.025	166.38
588.791	161.38
589.556	146.38
590.321	141.38
591.086	132.38
591.851	125.38
592.616	120.38
593.381	116.38
594.146	109.38
594.911	102.38
595.675	100.38
596.44	96.38
597.204	86.38
597.969	87.38
598.733	85.38
599.497	78.38
600.261	76.38
601.025	72.38
601.79	67.38
602.553	67.38
603.317	61.38
604.081	63.38
604.845	60.38
605.609	56.38
606.372	52.38
607.136	51.38
607.899	47.38
608.662	48.38
609.426	42.38
610.189	41.38
610.952	46.38
611.715	42.38
612.478	38.38
613.241	36.38
614.004	36.38
614.767	37.38
615.529	31.38
616.292	34.38
617.055	31.38
617.817	31.38
618.579	30.38
619.342	28.38
620.104	27.38
620.866	27.38
621.628	25.38
622.39	24.38
623.152	28.38
623.914	24.38
624.676	22.38
625.438	22.38
626.199	22.38
626.961	23.38
627.722	22.38
628.484	18.38
629.245	21.38
630.006	17.38
630.768	19.38
631.529	19.38
632.29	15.38
633.051	17.38
633.812	16.38
634.573	14.38
635.333	16.38
636.094	14.38
636.855	14.38
637.615	12.38
638.376	15.38
639.136	11.38
639.896	12.38
640.657	15.38
641.417	13.38
642.177	12.38
642.937	12.38
643.697	16.38
644.457	8.38
645.216	11.38
645.976	10.38
646.736	10.38
647.495	9.38
648.255	12.38
649.014	12.38
649.774	12.38
650.533	9.38
651.292	10.38
652.051	7.38
652.81	9.38
653.569	8.38
654.328	11.38
655.087	10.38
655.846	10.38
656.604	9.38
657.363	9.38
658.121	9.38
658.88	10.38
659.638	7.38
660.397	8.38
661.155	7.38
661.913	7.38
662.671	7.38
663.429	8.38
664.187	6.38
664.945	6.38
665.703	8.38
666.46	6.38
667.218	6.38
667.976	7.38
668.733	6.38
669.49	7.38
670.248	5.38
671.005	6.38
671.762	7.38
672.519	7.38
673.276	5.38
674.033	5.38
674.79	7.38
675.547	4.38
676.304	6.38
677.06	6.38
677.817	6.38
678.574	7.38
679.33	7.38
680.086	6.38
680.843	5.38
681.599	4.38
682.355	7.38
683.111	6.38
683.867	8.38
684.623	5.38
685.379	5.38
686.135	6.38
686.89	6.38
687.646	7.38
688.402	4.38
689.157	6.38
689.912	5.38
690.668	5.38
691.423	6.38
692.178	6.38
692.933	4.38
693.688	4.38
694.443	4.38
695.198	4.38
695.953	4.38
696.708	5.38
697.462	4.38
698.217	4.38
698.972	6.38
699.726	4.38
700.48	5.38
701.235	5.38
701.989	5.38
702.743	5.38
703.497	5.38
704.251	4.38
705.005	5.38
705.759	3.38
706.513	5.38
707.266	5.38
708.02	6.38
708.774	5.38
709.527	4.38
710.28	6.38
711.034	6.38
711.787	4.38
712.54	6.38
713.293	4.38
714.046	5.38
714.799	5.38
715.552	4.38
716.305	4.38
717.058	3.38
717.81	3.38
718.563	2.38
719.315	3.38
720.068	2.38
720.82	4.38
721.573	9.38
722.325	2.38
723.077	6.38
723.829	6.38
724.581	4.38
725.333	4.38
726.085	6.38
726.836	7.38
727.588	6.38
728.34	4.38
729.091	7.38
729.843	2.38
730.594	5.38
731.346	6.38
732.097	5.38
732.848	6.38
733.599	3.38
734.35	5.38
735.101	7.38
735.852	5.38
736.603	6.38
737.354	7.38
738.104	7.38
738.855	5.38
739.605	6.38
740.356	5.38
741.106	7.38
741.856	7.38
742.607	7.38
743.357	7.38
744.107	5.38
744.857	6.38
745.607	5.38
746.357	7.38
747.106	6.38
747.856	8.38
748.606	6.38
749.355	6.38
750.105	8.38
750.854	9.38
751.603	7.38
752.353	7.38
753.102	9.38
753.851	8.38
754.6	7.38
755.349	10.38
756.098	7.38
756.847	8.38
757.595	9.38
758.344	7.38
759.093	8.38
759.841	9.38
760.589	8.38
761.338	8.38
762.086	7.38
762.834	12.38
763.582	9.38
764.331	11.38
765.079	10.38
765.826	8.38
766.574	9.38
767.322	9.38
768.07	8.38
768.817	10.38
769.565	10.38
770.312	11.38
771.06	11.38
771.807	11.38
772.554	11.38
773.302	8.38
774.049	10.38
774.796	10.38
775.543	10.38
776.29	11.38
777.036	12.38
777.783	11.38
778.53	12.38
779.276	12.38
780.023	13.38
780.769	12.38
781.516	11.38
782.262	14.38
783.008	14.38
783.754	14.38
784.5	11.38
785.246	9.38
785.992	10.38
786.738	11.38
787.484	13.38
788.23	13.38
788.975	10.38
789.721	10.38
790.466	13.38
791.212	13.38
791.957	11.38
792.702	9.38
793.447	15.38
794.193	9.38
794.938	10.38
795.683	9.38
796.427	11.38
797.172	11.38
797.917	6.38
798.662	7.38
799.406	12.38
800.151	10.38
800.895	8.38
801.64	10.38
802.384	9.38
803.128	8.38
803.872	9.38
804.616	8.38
805.36	7.38
806.104	8.38
806.848	5.38
807.592	10.38
808.336	7.38
809.079	8.38
809.823	7.38
810.566	9.38
811.31	7.38
812.053	5.38
812.796	6.38
813.539	8.38
814.283	7.38
815.026	7.38
815.769	6.38
816.511	6.38
817.254	7.38
817.997	6.38
818.74	5.38
819.482	4.38
820.225	4.38
820.967	6.38
821.71	7.38
822.452	4.38
823.194	5.38
823.936	7.38
824.678	5.38
825.42	6.38
826.162	4.38
826.904	5.38
827.646	4.38
828.388	4.38
829.129	4.38
829.871	4.38
830.612	5.38
831.354	6.38
832.095	7.38
832.836	4.38
833.577	3.38
834.319	3.38
835.06	3.38
835.801	3.38
836.542	3.38
837.282	5.38
838.023	4.38
838.764	3.38
839.504	5.38
840.245	3.38
840.985	4.38
841.726	3.38
842.466	4.38
843.206	2.38
843.946	4.38
844.687	2.38
845.427	2.38
846.166	5.38
846.906	2.38
847.646	3.38
848.386	4.38
849.125	3.38
849.865	2.38
850.605	3.38
851.344	4.38
852.083	2.38
852.823	2.38
853.562	3.38
854.301	0.38
855.04	3.38
855.779	3.38
856.518	2.38
857.257	2.38
857.995	1.38
858.734	2.38
859.473	2.38
860.211	4.38
860.95	2.38
861.688	3.38
862.426	2.38
863.165	1.38
863.903	3.38
864.641	3.38
865.379	2.38
866.117	2.38
866.855	3.38
867.593	1.38
868.33	2.38
869.068	3.38
869.806	2.38
870.543	0.38
871.28	1.38
872.018	-0.62
872.755	4.38
873.492	2.38
874.229	2.38
874.967	1.38
875.703	1.38
876.44	3.38
877.177	0.38
877.914	1.38
878.651	1.38
879.387	0.38
880.124	6.38
880.86	0.38
881.597	0.38
882.333	0.38
883.069	1.38
883.806	0.38
884.542	1.38
885.278	1.38
886.014	1.38
886.749	2.38
887.485	0.38
888.221	1.38
888.957	2.38
889.692	1.38
890.428	-0.62
891.163	-0.62
891.899	3.38
892.634	-0.62
893.369	1.38
894.104	1.38
894.839	0.38
895.574	2.38
896.309	1.38
897.044	1.38
897.779	2.38
898.514	-1.62
899.248	0.38
899.983	-0.62
900.717	-0.62
901.452	0.38
902.186	3.38
902.92	0.38
903.654	-0.62
904.389	2.38
905.123	-0.62
905.857	1.38
906.59	2.38
907.324	-0.62
908.058	2.38
908.792	0.38
909.525	2.38
910.259	1.38
910.992	0.38
911.726	1.38
912.459	-1.62
913.192	2.38
913.925	1.38
914.658	1.38
915.391	1.38
916.124	0.38
916.857	1.38
917.59	2.38
918.323	1.38
919.055	0.38
919.788	1.38
920.521	1.38
921.253	-2.62
921.985	0.38
922.718	1.38
923.45	-0.62
924.182	0.38
924.914	0.38
925.646	2.38
926.378	2.38
927.11	-0.62
927.841	0.38
928.573	-1.62
929.305	0.38
930.036	-0.62
930.768	0.38
931.499	-0.62
932.23	0.38
932.962	1.38
933.693	0.38
934.424	2.38
935.155	-0.62
935.886	1.38
936.617	0.38
937.348	0.38
938.078	0.38
938.809	-0.62
939.54	0.38
940.27	0.38
941.001	0.38
941.731	0.38
942.461	1.38
943.191	1.38
943.922	0.38
944.652	0.38
945.382	3.38
946.112	-0.62
946.841	-1.62
947.571	0.38
948.301	0.38
949.031	-0.62
949.76	1.38
950.49	0.38
951.219	-0.62
951.948	-1.62
952.678	0.38
953.407	0.38
954.136	1.38
954.865	0.38
955.594	-0.62
956.323	-0.62
957.052	1.38
957.78	1.38
958.509	1.38
959.238	-0.62
959.966	-2.62
960.695	1.38
961.423	1.38
962.151	0.38
962.88	-1.62
963.608	1.38
964.336	-1.62
965.064	0.38
965.792	1.38
966.52	-0.62
967.247	-0.62
967.975	0.38
968.703	-0.62
969.43	1.38
970.158	1.38
970.885	0.38
971.613	-0.62
972.34	0.38
973.067	-0.62
973.794	0.38
974.521	1.38
975.248	-1.62
975.975	1.38
976.702	-0.62
977.429	-1.62
978.156	1.38
978.882	-0.62
979.609	-1.62
980.335	-0.62
981.062	0.38
981.788	0.38
982.514	0.38
983.24	0.38
983.967	-1.62
984.693	1.38
985.419	-1.62
986.144	-1.62
986.87	0.38
987.596	1.38
988.322	1.38
989.047	0.38
989.773	1.38
990.498	0.38
991.224	1.38
991.949	0.38
992.674	-0.62
993.399	0.38
994.124	-1.62
994.849	1.38
995.574	1.38
996.299	0.38
997.024	-0.62
997.749	-0.62
998.473	1.38
999.198	0.38
999.922	2.38
1000.647	0.38
1001.371	2.38
1002.095	0.38
1002.82	-0.62
1003.544	-0.62
1004.268	3.38
1004.992	2.38
1005.716	3.38
1006.439	0.38
1007.163	2.38
1007.887	2.38
1008.611	-1.62
1009.334	2.38
1010.058	0.38
1010.781	-1.62
1011.504	2.38
1012.228	-1.62
1012.951	2.38
1013.674	-0.62
1014.397	-2.62
1015.12	-0.62
