节点500_425_QEPB04081__620__15-58-37-423.txt的数据

Date: Wed Nov 12 15:58:37 CST 2025
User: PC
Spectrometer: QEPB0408
触发模式: 0
积分时间 (秒): 1.000000E-2
Scans to average: 1
启用暗噪声校正: true
启用非线性校正: false
滑动平均宽度: 0
X轴模式: Wavelengths
Number of Pixels in Spectrum: 1044
>>>>>Begin Spectral Data<<<<<
220.843	5.75
221.644	5.75
222.444	3.75
223.244	4.75
224.045	2.75
224.845	3.75
225.645	4.75
226.445	4.75
227.245	3.75
228.045	3.75
228.845	4.75
229.645	2.75
230.444	3.75
231.244	7.75
232.043	4.75
232.843	4.75
233.642	8.75
234.442	3.75
235.241	5.75
236.04	5.75
236.839	5.75
237.638	4.75
238.437	7.75
239.236	4.75
240.035	7.75
240.833	6.75
241.632	5.75
242.43	7.75
243.229	6.75
244.027	6.75
244.826	8.75
245.624	8.75
246.422	8.75
247.22	8.75
248.018	9.75
248.816	9.75
249.614	7.75
250.412	6.75
251.21	10.75
252.007	11.75
252.805	11.75
253.602	9.75
254.4	8.75
255.197	7.75
255.994	9.75
256.791	11.75
257.589	10.75
258.386	13.75
259.183	12.75
259.979	10.75
260.776	11.75
261.573	14.75
262.37	11.75
263.166	13.75
263.963	13.75
264.759	13.75
265.556	13.75
266.352	15.75
267.148	18.75
267.944	17.75
268.74	17.75
269.536	19.75
270.332	18.75
271.128	18.75
271.924	17.75
272.719	17.75
273.515	17.75
274.311	23.75
275.106	20.75
275.901	20.75
276.697	22.75
277.492	20.75
278.287	19.75
279.082	21.75
279.877	23.75
280.672	21.75
281.467	21.75
282.262	21.75
283.056	20.75
283.851	22.75
284.646	24.75
285.44	22.75
286.234	25.75
287.029	20.75
287.823	22.75
288.617	22.75
289.411	21.75
290.205	20.75
290.999	21.75
291.793	23.75
292.587	21.75
293.381	21.75
294.174	18.75
294.968	18.75
295.761	20.75
296.555	19.75
297.348	18.75
298.141	17.75
298.935	19.75
299.728	18.75
300.521	18.75
301.314	16.75
302.107	17.75
302.899	17.75
303.692	15.75
304.485	17.75
305.277	15.75
306.07	15.75
306.862	15.75
307.655	14.75
308.447	14.75
309.239	15.75
310.031	16.75
310.823	12.75
311.615	13.75
312.407	12.75
313.199	12.75
313.991	13.75
314.783	11.75
315.574	14.75
316.366	10.75
317.157	10.75
317.949	8.75
318.74	10.75
319.531	9.75
320.322	10.75
321.113	9.75
321.904	10.75
322.695	7.75
323.486	7.75
324.277	10.75
325.068	7.75
325.858	8.75
326.649	8.75
327.439	9.75
328.23	11.75
329.02	9.75
329.81	11.75
330.6	8.75
331.391	7.75
332.181	9.75
332.971	9.75
333.76	9.75
334.55	11.75
335.34	8.75
336.13	7.75
336.919	9.75
337.709	10.75
338.498	8.75
339.287	7.75
340.077	9.75
340.866	7.75
341.655	5.75
342.444	7.75
343.233	6.75
344.022	7.75
344.811	4.75
345.6	8.75
346.388	6.75
347.177	8.75
347.965	10.75
348.754	5.75
349.542	9.75
350.33	10.75
351.119	9.75
351.907	6.75
352.695	6.75
353.483	9.75
354.271	7.75
355.059	6.75
355.846	7.75
356.634	6.75
357.422	7.75
358.209	8.75
358.997	8.75
359.784	8.75
360.571	7.75
361.359	6.75
362.146	6.75
362.933	5.75
363.72	9.75
364.507	6.75
365.294	6.75
366.081	7.75
366.867	7.75
367.654	9.75
368.44	5.75
369.227	7.75
370.013	5.75
370.8	6.75
371.586	7.75
372.372	5.75
373.158	7.75
373.944	7.75
374.73	8.75
375.516	5.75
376.302	8.75
377.088	6.75
377.873	5.75
378.659	4.75
379.445	6.75
380.23	4.75
381.015	7.75
381.801	4.75
382.586	7.75
383.371	6.75
384.156	11.75
384.941	9.75
385.726	9.75
386.511	6.75
387.296	9.75
388.08	8.75
388.865	7.75
389.649	7.75
390.434	4.75
391.218	7.75
392.003	7.75
392.787	8.75
393.571	6.75
394.355	8.75
395.139	7.75
395.923	8.75
396.707	7.75
397.491	8.75
398.274	9.75
399.058	8.75
399.842	10.75
400.625	8.75
401.408	7.75
402.192	7.75
402.975	8.75
403.758	9.75
404.541	9.75
405.324	8.75
406.107	8.75
406.89	8.75
407.673	10.75
408.456	9.75
409.238	10.75
410.021	9.75
410.803	12.75
411.586	10.75
412.368	12.75
413.151	12.75
413.933	11.75
414.715	13.75
415.497	12.75
416.279	12.75
417.061	11.75
417.843	10.75
418.624	13.75
419.406	14.75
420.188	14.75
420.969	14.75
421.751	15.75
422.532	13.75
423.313	14.75
424.095	12.75
424.876	14.75
425.657	17.75
426.438	15.75
427.219	17.75
428	18.75
428.78	18.75
429.561	18.75
430.342	20.75
431.122	21.75
431.903	20.75
432.683	21.75
433.464	23.75
434.244	22.75
435.024	25.75
435.804	26.75
436.584	23.75
437.364	27.75
438.144	30.75
438.924	30.75
439.704	33.75
440.483	35.75
441.263	36.75
442.042	37.75
442.822	42.75
443.601	43.75
444.38	46.75
445.16	55.75
445.939	52.75
446.718	60.75
447.497	65.75
448.276	76.75
449.054	80.75
449.833	82.75
450.612	94.75
451.391	104.75
452.169	114.75
452.948	124.75
453.726	138.75
454.504	148.75
455.282	166.75
456.061	188.75
456.839	199.75
457.617	228.75
458.395	249.75
459.172	280.75
459.95	320.75
460.728	354.75
461.506	386.75
462.283	435.75
463.061	478.75
463.838	533.75
464.615	602.75
465.393	666.75
466.17	744.75
466.947	814.75
467.724	888.75
468.501	1002.75
469.278	1107.75
470.055	1214.75
470.831	1347.75
471.608	1482.75
472.385	1621.75
473.161	1802.75
473.938	1963.75
474.714	2158.75
475.49	2376.75
476.266	2615.75
477.043	2839.75
477.819	3091.75
478.595	3417.75
479.371	3737.75
480.146	4083.75
480.922	4417.75
481.698	4807.75
482.473	5249.75
483.249	5717.75
484.024	6204.75
484.8	6746.75
485.575	7304.75
486.35	7911.75
487.126	8584.75
487.901	9302.75
488.676	10071.75
489.451	10901.75
490.225	11804.75
491	12716.75
491.775	13735.75
492.55	14732.75
493.324	15858.75
494.099	16917.75
494.873	18079.75
495.647	19228.75
496.422	20431.75
497.196	21687.75
497.97	22978.75
498.744	24245.75
499.518	25510.75
500.292	26680.75
501.066	27727.75
501.839	28833.75
502.613	29912.75
503.387	30655.75
504.16	31329.75
504.934	31871.75
505.707	32231.75
506.48	32352.75
507.253	32390.75
508.027	32333.75
508.8	32121.75
509.573	31772.75
510.346	31214.75
511.118	30633.75
511.891	29875.75
512.664	28968.75
513.437	28038.75
514.209	27082.75
514.982	26139.75
515.754	25285.75
516.526	24285.75
517.298	23298.75
518.071	22345.75
518.843	21479.75
519.615	20628.75
520.387	19845.75
521.159	19023.75
521.93	18368.75
522.702	17639.75
523.474	16939.75
524.245	16258.75
525.017	15532.75
525.788	14845.75
526.56	14276.75
527.331	13609.75
528.102	12997.75
528.873	12484.75
529.644	11883.75
530.415	11373.75
531.186	10878.75
531.957	10304.75
532.728	9805.75
533.498	9296.75
534.269	8809.75
535.039	8337.75
535.81	7905.75
536.58	7479.75
537.351	7047.75
538.121	6699.75
538.891	6349.75
539.661	5987.75
540.431	5698.75
541.201	5378.75
541.971	5101.75
542.741	4854.75
543.51	4598.75
544.28	4376.75
545.05	4136.75
545.819	3960.75
546.588	3743.75
547.358	3566.75
548.127	3393.75
548.896	3209.75
549.665	3059.75
550.434	2922.75
551.203	2766.75
551.972	2596.75
552.741	2478.75
553.51	2334.75
554.278	2222.75
555.047	2107.75
555.815	1992.75
556.584	1869.75
557.352	1753.75
558.121	1665.75
558.889	1563.75
559.657	1490.75
560.425	1417.75
561.193	1334.75
561.961	1269.75
562.729	1190.75
563.496	1134.75
564.264	1068.75
565.032	1001.75
565.799	948.75
566.567	900.75
567.334	856.75
568.101	800.75
568.869	763.75
569.636	719.75
570.403	675.75
571.17	637.75
571.937	606.75
572.704	575.75
573.471	548.75
574.237	513.75
575.004	472.75
575.771	440.75
576.537	430.75
577.303	396.75
578.07	381.75
578.836	363.75
579.602	334.75
580.368	321.75
581.134	303.75
581.9	289.75
582.666	273.75
583.432	258.75
584.198	247.75
584.964	233.75
585.729	220.75
586.495	205.75
587.26	199.75
588.025	187.75
588.791	181.75
589.556	166.75
590.321	158.75
591.086	151.75
591.851	142.75
592.616	134.75
593.381	130.75
594.146	125.75
594.911	117.75
595.675	116.75
596.44	106.75
597.204	102.75
597.969	98.75
598.733	96.75
599.497	87.75
600.261	84.75
601.025	80.75
601.79	76.75
602.553	77.75
603.317	71.75
604.081	68.75
604.845	62.75
605.609	64.75
606.372	55.75
607.136	59.75
607.899	56.75
608.662	50.75
609.426	56.75
610.189	48.75
610.952	44.75
611.715	41.75
612.478	46.75
613.241	41.75
614.004	40.75
614.767	39.75
615.529	37.75
616.292	36.75
617.055	35.75
617.817	35.75
618.579	32.75
619.342	32.75
620.104	31.75
620.866	28.75
621.628	25.75
622.39	30.75
623.152	26.75
623.914	25.75
624.676	26.75
625.438	23.75
626.199	26.75
626.961	22.75
627.722	23.75
628.484	20.75
629.245	20.75
630.006	18.75
630.768	17.75
631.529	21.75
632.29	20.75
633.051	18.75
633.812	14.75
634.573	17.75
635.333	18.75
636.094	17.75
636.855	15.75
637.615	18.75
638.376	14.75
639.136	12.75
639.896	12.75
640.657	12.75
641.417	12.75
642.177	11.75
642.937	14.75
643.697	12.75
644.457	11.75
645.216	10.75
645.976	15.75
646.736	12.75
647.495	9.75
648.255	10.75
649.014	9.75
649.774	10.75
650.533	9.75
651.292	9.75
652.051	9.75
652.81	10.75
653.569	8.75
654.328	8.75
655.087	11.75
655.846	9.75
656.604	8.75
657.363	6.75
658.121	8.75
658.88	8.75
659.638	6.75
660.397	8.75
661.155	7.75
661.913	8.75
662.671	6.75
663.429	7.75
664.187	6.75
664.945	7.75
665.703	3.75
666.46	6.75
667.218	7.75
667.976	8.75
668.733	7.75
669.49	8.75
670.248	6.75
671.005	6.75
671.762	5.75
672.519	5.75
673.276	8.75
674.033	4.75
674.79	7.75
675.547	6.75
676.304	6.75
677.06	6.75
677.817	6.75
678.574	6.75
679.33	6.75
680.086	5.75
680.843	7.75
681.599	5.75
682.355	4.75
683.111	5.75
683.867	6.75
684.623	4.75
685.379	6.75
686.135	3.75
686.89	6.75
687.646	5.75
688.402	5.75
689.157	3.75
689.912	6.75
690.668	7.75
691.423	5.75
692.178	5.75
692.933	4.75
693.688	6.75
694.443	4.75
695.198	4.75
695.953	6.75
696.708	4.75
697.462	3.75
698.217	4.75
698.972	5.75
699.726	4.75
700.48	5.75
701.235	4.75
701.989	4.75
702.743	2.75
703.497	6.75
704.251	5.75
705.005	3.75
705.759	3.75
706.513	5.75
707.266	6.75
708.02	5.75
708.774	5.75
709.527	5.75
710.28	3.75
711.034	4.75
711.787	5.75
712.54	5.75
713.293	4.75
714.046	5.75
714.799	5.75
715.552	6.75
716.305	4.75
717.058	5.75
717.81	3.75
718.563	6.75
719.315	4.75
720.068	4.75
720.82	4.75
721.573	5.75
722.325	5.75
723.077	4.75
723.829	6.75
724.581	4.75
725.333	7.75
726.085	5.75
726.836	4.75
727.588	4.75
728.34	5.75
729.091	4.75
729.843	4.75
730.594	8.75
731.346	4.75
732.097	5.75
732.848	5.75
733.599	2.75
734.35	1.75
735.101	6.75
735.852	3.75
736.603	6.75
737.354	7.75
738.104	4.75
738.855	4.75
739.605	8.75
740.356	6.75
741.106	5.75
741.856	6.75
742.607	6.75
743.357	3.75
744.107	5.75
744.857	5.75
745.607	6.75
746.357	5.75
747.106	5.75
747.856	6.75
748.606	6.75
749.355	6.75
750.105	7.75
750.854	6.75
751.603	7.75
752.353	9.75
753.102	7.75
753.851	6.75
754.6	8.75
755.349	7.75
756.098	5.75
756.847	8.75
757.595	7.75
758.344	5.75
759.093	5.75
759.841	8.75
760.589	7.75
761.338	10.75
762.086	7.75
762.834	8.75
763.582	11.75
764.331	8.75
765.079	5.75
765.826	7.75
766.574	8.75
767.322	9.75
768.07	9.75
768.817	9.75
769.565	10.75
770.312	9.75
771.06	11.75
771.807	11.75
772.554	8.75
773.302	12.75
774.049	10.75
774.796	8.75
775.543	9.75
776.29	10.75
777.036	10.75
777.783	8.75
778.53	10.75
779.276	10.75
780.023	12.75
780.769	9.75
781.516	11.75
782.262	12.75
783.008	9.75
783.754	7.75
784.5	9.75
785.246	12.75
785.992	9.75
786.738	12.75
787.484	10.75
788.23	11.75
788.975	10.75
789.721	9.75
790.466	11.75
791.212	11.75
791.957	10.75
792.702	10.75
793.447	8.75
794.193	12.75
794.938	10.75
795.683	12.75
796.427	9.75
797.172	9.75
797.917	11.75
798.662	8.75
799.406	9.75
800.151	8.75
800.895	7.75
801.64	8.75
802.384	6.75
803.128	9.75
803.872	9.75
804.616	6.75
805.36	9.75
806.104	8.75
806.848	9.75
807.592	8.75
808.336	9.75
809.079	6.75
809.823	7.75
810.566	8.75
811.31	7.75
812.053	7.75
812.796	7.75
813.539	6.75
814.283	6.75
815.026	4.75
815.769	5.75
816.511	4.75
817.254	8.75
817.997	4.75
818.74	5.75
819.482	7.75
820.225	3.75
820.967	5.75
821.71	4.75
822.452	5.75
823.194	5.75
823.936	8.75
824.678	8.75
825.42	7.75
826.162	7.75
826.904	5.75
827.646	5.75
828.388	6.75
829.129	4.75
829.871	5.75
830.612	4.75
831.354	5.75
832.095	4.75
832.836	2.75
833.577	4.75
834.319	4.75
835.06	5.75
835.801	5.75
836.542	4.75
837.282	4.75
838.023	5.75
838.764	5.75
839.504	2.75
840.245	5.75
840.985	4.75
841.726	5.75
842.466	2.75
843.206	5.75
843.946	3.75
844.687	2.75
845.427	6.75
846.166	5.75
846.906	2.75
847.646	6.75
848.386	5.75
849.125	4.75
849.865	4.75
850.605	4.75
851.344	3.75
852.083	1.75
852.823	2.75
853.562	1.75
854.301	2.75
855.04	0.75
855.779	4.75
856.518	5.75
857.257	2.75
857.995	4.75
858.734	3.75
859.473	2.75
860.211	2.75
860.95	2.75
861.688	4.75
862.426	0.75
863.165	4.75
863.903	1.75
864.641	2.75
865.379	3.75
866.117	0.75
866.855	2.75
867.593	2.75
868.33	0.75
869.068	1.75
869.806	1.75
870.543	0.75
871.28	2.75
872.018	2.75
872.755	3.75
873.492	-1.25
874.229	1.75
874.967	1.75
875.703	1.75
876.44	0.75
877.177	2.75
877.914	2.75
878.651	1.75
879.387	-0.25
880.124	1.75
880.86	1.75
881.597	0.75
882.333	-0.25
883.069	3.75
883.806	0.75
884.542	3.75
885.278	3.75
886.014	-0.25
886.749	-0.25
887.485	1.75
888.221	0.75
888.957	0.75
889.692	1.75
890.428	1.75
891.163	1.75
891.899	2.75
892.634	1.75
893.369	1.75
894.104	1.75
894.839	1.75
895.574	0.75
896.309	0.75
897.044	3.75
897.779	1.75
898.514	2.75
899.248	1.75
899.983	0.75
900.717	1.75
901.452	0.75
902.186	2.75
902.92	-0.25
903.654	2.75
904.389	2.75
905.123	0.75
905.857	2.75
906.59	1.75
907.324	0.75
908.058	0.75
908.792	0.75
909.525	0.75
910.259	-0.25
910.992	1.75
911.726	-1.25
912.459	-1.25
913.192	2.75
913.925	0.75
914.658	2.75
915.391	-1.25
916.124	0.75
916.857	0.75
917.59	1.75
918.323	0.75
919.055	0.75
919.788	0.75
920.521	-0.25
921.253	0.75
921.985	0.75
922.718	0.75
923.45	0.75
924.182	0.75
924.914	-0.25
925.646	-0.25
926.378	0.75
927.11	0.75
927.841	1.75
928.573	0.75
929.305	1.75
930.036	3.75
930.768	0.75
931.499	2.75
932.23	0.75
932.962	-1.25
933.693	1.75
934.424	-1.25
935.155	0.75
935.886	1.75
936.617	0.75
937.348	-0.25
938.078	-0.25
938.809	0.75
939.54	1.75
940.27	-0.25
941.001	-1.25
941.731	-0.25
942.461	-1.25
943.191	1.75
943.922	2.75
944.652	1.75
945.382	0.75
946.112	2.75
946.841	0.75
947.571	2.75
948.301	1.75
949.031	0.75
949.76	0.75
950.49	0.75
951.219	1.75
951.948	0.75
952.678	3.75
953.407	-0.25
954.136	-1.25
954.865	0.75
955.594	1.75
956.323	0.75
957.052	-0.25
957.78	2.75
958.509	0.75
959.238	0.75
959.966	0.75
960.695	-0.25
961.423	1.75
962.151	0.75
962.88	-0.25
963.608	2.75
964.336	-0.25
965.064	0.75
965.792	1.75
966.52	0.75
967.247	1.75
967.975	-0.25
968.703	-0.25
969.43	1.75
970.158	0.75
970.885	0.75
971.613	2.75
972.34	-0.25
973.067	-2.25
973.794	0.75
974.521	-0.25
975.248	0.75
975.975	0.75
976.702	-0.25
977.429	0.75
978.156	-1.25
978.882	0.75
979.609	0.75
980.335	2.75
981.062	0.75
981.788	-1.25
982.514	-0.25
983.24	-1.25
983.967	-0.25
984.693	-1.25
985.419	1.75
986.144	1.75
986.87	-1.25
987.596	1.75
988.322	2.75
989.047	0.75
989.773	0.75
990.498	3.75
991.224	2.75
991.949	1.75
992.674	0.75
993.399	-0.25
994.124	3.75
994.849	0.75
995.574	-1.25
996.299	-0.25
997.024	0.75
997.749	0.75
998.473	1.75
999.198	-1.25
999.922	1.75
1000.647	0.75
1001.371	4.75
1002.095	-2.25
1002.82	2.75
1003.544	-0.25
1004.268	3.75
1004.992	-0.25
1005.716	1.75
1006.439	2.75
1007.163	3.75
1007.887	1.75
1008.611	0.75
1009.334	0.75
1010.058	1.75
1010.781	1.75
1011.504	2.75
1012.228	1.75
1012.951	-2.25
1013.674	-1.25
1014.397	-1.25
1015.12	-0.25
