节点500_425_QEPB04081__223__15-52-01-060.txt的数据

Date: Wed Nov 12 15:52:01 CST 2025
User: PC
Spectrometer: QEPB0408
触发模式: 0
积分时间 (秒): 1.000000E-2
Scans to average: 1
启用暗噪声校正: true
启用非线性校正: false
滑动平均宽度: 0
X轴模式: Wavelengths
Number of Pixels in Spectrum: 1044
>>>>>Begin Spectral Data<<<<<
220.843	4.5
221.644	2.5
222.444	2.5
223.244	2.5
224.045	4.5
224.845	4.5
225.645	2.5
226.445	2.5
227.245	4.5
228.045	5.5
228.845	4.5
229.645	3.5
230.444	5.5
231.244	4.5
232.043	3.5
232.843	5.5
233.642	4.5
234.442	7.5
235.241	7.5
236.04	4.5
236.839	5.5
237.638	7.5
238.437	7.5
239.236	8.5
240.035	8.5
240.833	6.5
241.632	7.5
242.43	8.5
243.229	6.5
244.027	9.5
244.826	6.5
245.624	9.5
246.422	7.5
247.22	6.5
248.018	9.5
248.816	10.5
249.614	11.5
250.412	9.5
251.21	12.5
252.007	11.5
252.805	9.5
253.602	12.5
254.4	12.5
255.197	11.5
255.994	12.5
256.791	14.5
257.589	11.5
258.386	12.5
259.183	14.5
259.979	12.5
260.776	16.5
261.573	16.5
262.37	16.5
263.166	16.5
263.963	17.5
264.759	17.5
265.556	17.5
266.352	20.5
267.148	18.5
267.944	18.5
268.74	20.5
269.536	23.5
270.332	20.5
271.128	22.5
271.924	21.5
272.719	23.5
273.515	23.5
274.311	22.5
275.106	26.5
275.901	27.5
276.697	26.5
277.492	23.5
278.287	24.5
279.082	24.5
279.877	25.5
280.672	24.5
281.467	25.5
282.262	26.5
283.056	24.5
283.851	25.5
284.646	29.5
285.44	23.5
286.234	25.5
287.029	26.5
287.823	25.5
288.617	24.5
289.411	22.5
290.205	25.5
290.999	25.5
291.793	23.5
292.587	22.5
293.381	22.5
294.174	23.5
294.968	23.5
295.761	20.5
296.555	19.5
297.348	23.5
298.141	19.5
298.935	21.5
299.728	21.5
300.521	19.5
301.314	18.5
302.107	17.5
302.899	19.5
303.692	16.5
304.485	16.5
305.277	15.5
306.07	12.5
306.862	16.5
307.655	17.5
308.447	16.5
309.239	16.5
310.031	13.5
310.823	13.5
311.615	13.5
312.407	12.5
313.199	12.5
313.991	12.5
314.783	12.5
315.574	13.5
316.366	12.5
317.157	9.5
317.949	10.5
318.74	11.5
319.531	10.5
320.322	8.5
321.113	11.5
321.904	11.5
322.695	10.5
323.486	9.5
324.277	8.5
325.068	8.5
325.858	10.5
326.649	9.5
327.439	11.5
328.23	10.5
329.02	9.5
329.81	9.5
330.6	8.5
331.391	10.5
332.181	8.5
332.971	8.5
333.76	9.5
334.55	7.5
335.34	11.5
336.13	8.5
336.919	6.5
337.709	7.5
338.498	8.5
339.287	10.5
340.077	9.5
340.866	8.5
341.655	8.5
342.444	9.5
343.233	8.5
344.022	8.5
344.811	11.5
345.6	7.5
346.388	7.5
347.177	9.5
347.965	8.5
348.754	7.5
349.542	9.5
350.33	11.5
351.119	9.5
351.907	8.5
352.695	6.5
353.483	5.5
354.271	7.5
355.059	6.5
355.846	9.5
356.634	8.5
357.422	7.5
358.209	8.5
358.997	6.5
359.784	8.5
360.571	7.5
361.359	8.5
362.146	8.5
362.933	6.5
363.72	8.5
364.507	7.5
365.294	6.5
366.081	6.5
366.867	5.5
367.654	8.5
368.44	5.5
369.227	6.5
370.013	8.5
370.8	6.5
371.586	5.5
372.372	7.5
373.158	6.5
373.944	5.5
374.73	8.5
375.516	5.5
376.302	4.5
377.088	6.5
377.873	10.5
378.659	7.5
379.445	7.5
380.23	7.5
381.015	6.5
381.801	8.5
382.586	8.5
383.371	4.5
384.156	6.5
384.941	7.5
385.726	7.5
386.511	6.5
387.296	8.5
388.08	6.5
388.865	9.5
389.649	8.5
390.434	9.5
391.218	5.5
392.003	6.5
392.787	8.5
393.571	10.5
394.355	6.5
395.139	8.5
395.923	6.5
396.707	9.5
397.491	9.5
398.274	9.5
399.058	10.5
399.842	9.5
400.625	9.5
401.408	9.5
402.192	10.5
402.975	9.5
403.758	9.5
404.541	10.5
405.324	11.5
406.107	10.5
406.89	13.5
407.673	12.5
408.456	10.5
409.238	12.5
410.021	10.5
410.803	14.5
411.586	9.5
412.368	15.5
413.151	10.5
413.933	12.5
414.715	11.5
415.497	11.5
416.279	14.5
417.061	12.5
417.843	14.5
418.624	13.5
419.406	14.5
420.188	15.5
420.969	14.5
421.751	16.5
422.532	15.5
423.313	14.5
424.095	16.5
424.876	14.5
425.657	18.5
426.438	17.5
427.219	19.5
428	19.5
428.78	18.5
429.561	20.5
430.342	20.5
431.122	20.5
431.903	20.5
432.683	20.5
433.464	23.5
434.244	23.5
435.024	25.5
435.804	27.5
436.584	27.5
437.364	27.5
438.144	33.5
438.924	30.5
439.704	31.5
440.483	32.5
441.263	34.5
442.042	35.5
442.822	41.5
443.601	41.5
444.38	44.5
445.16	49.5
445.939	53.5
446.718	52.5
447.497	59.5
448.276	66.5
449.054	68.5
449.833	78.5
450.612	84.5
451.391	92.5
452.169	102.5
452.948	115.5
453.726	127.5
454.504	133.5
455.282	146.5
456.061	165.5
456.839	181.5
457.617	204.5
458.395	228.5
459.172	255.5
459.95	281.5
460.728	323.5
461.506	348.5
462.283	395.5
463.061	435.5
463.838	493.5
464.615	555.5
465.393	604.5
466.17	691.5
466.947	761.5
467.724	837.5
468.501	944.5
469.278	1054.5
470.055	1163.5
470.831	1292.5
471.608	1442.5
472.385	1582.5
473.161	1757.5
473.938	1934.5
474.714	2143.5
475.49	2382.5
476.266	2610.5
477.043	2917.5
477.819	3192.5
478.595	3518.5
479.371	3892.5
480.146	4269.5
480.922	4698.5
481.698	5162.5
482.473	5635.5
483.249	6183.5
484.024	6781.5
484.8	7442.5
485.575	8153.5
486.35	8850.5
487.126	9702.5
487.901	10606.5
488.676	11595.5
489.451	12592.5
490.225	13659.5
491	14882.5
491.775	16137.5
492.55	17385.5
493.324	18778.5
494.099	20088.5
494.873	21463.5
495.647	22998.5
496.422	24393.5
497.196	25829.5
497.97	27394.5
498.744	28791.5
499.518	30251.5
500.292	31441.5
501.066	32552.5
501.839	33647.5
502.613	34624.5
503.387	35255.5
504.16	35676.5
504.934	35931.5
505.707	35968.5
506.48	35847.5
507.253	35446.5
508.027	35038.5
508.8	34366.5
509.573	33628.5
510.346	32715.5
511.118	31697.5
511.891	30661.5
512.664	29494.5
513.437	28366.5
514.209	27140.5
514.982	26162.5
515.754	25062.5
516.526	23951.5
517.298	22914.5
518.071	21965.5
518.843	21039.5
519.615	20219.5
520.387	19364.5
521.159	18649.5
521.93	17997.5
522.702	17289.5
523.474	16518.5
524.245	15918.5
525.017	15100.5
525.788	14464.5
526.56	13810.5
527.331	13141.5
528.102	12534.5
528.873	11975.5
529.644	11374.5
530.415	10868.5
531.186	10305.5
531.957	9764.5
532.728	9259.5
533.498	8716.5
534.269	8258.5
535.039	7781.5
535.81	7366.5
536.58	6968.5
537.351	6530.5
538.121	6195.5
538.891	5833.5
539.661	5577.5
540.431	5269.5
541.201	4982.5
541.971	4725.5
542.741	4476.5
543.51	4281.5
544.28	4032.5
545.05	3845.5
545.819	3663.5
546.588	3471.5
547.358	3298.5
548.127	3117.5
548.896	2975.5
549.665	2831.5
550.434	2682.5
551.203	2536.5
551.972	2423.5
552.741	2261.5
553.51	2147.5
554.278	2024.5
555.047	1912.5
555.815	1802.5
556.584	1715.5
557.352	1595.5
558.121	1507.5
558.889	1432.5
559.657	1356.5
560.425	1266.5
561.193	1208.5
561.961	1145.5
562.729	1088.5
563.496	1020.5
564.264	959.5
565.032	906.5
565.799	870.5
566.567	815.5
567.334	765.5
568.101	729.5
568.869	689.5
569.636	647.5
570.403	619.5
571.17	574.5
571.937	548.5
572.704	512.5
573.471	496.5
574.237	459.5
575.004	422.5
575.771	409.5
576.537	384.5
577.303	359.5
578.07	338.5
578.836	320.5
579.602	300.5
580.368	286.5
581.134	273.5
581.9	260.5
582.666	242.5
583.432	232.5
584.198	222.5
584.964	215.5
585.729	205.5
586.495	185.5
587.26	177.5
588.025	173.5
588.791	165.5
589.556	159.5
590.321	143.5
591.086	136.5
591.851	128.5
592.616	123.5
593.381	118.5
594.146	113.5
594.911	109.5
595.675	103.5
596.44	99.5
597.204	89.5
597.969	86.5
598.733	90.5
599.497	83.5
600.261	77.5
601.025	74.5
601.79	72.5
602.553	67.5
603.317	67.5
604.081	62.5
604.845	58.5
605.609	56.5
606.372	53.5
607.136	54.5
607.899	52.5
608.662	48.5
609.426	48.5
610.189	44.5
610.952	42.5
611.715	45.5
612.478	40.5
613.241	40.5
614.004	35.5
614.767	35.5
615.529	32.5
616.292	34.5
617.055	33.5
617.817	31.5
618.579	28.5
619.342	31.5
620.104	31.5
620.866	28.5
621.628	27.5
622.39	24.5
623.152	23.5
623.914	26.5
624.676	23.5
625.438	22.5
626.199	25.5
626.961	20.5
627.722	20.5
628.484	19.5
629.245	20.5
630.006	17.5
630.768	18.5
631.529	19.5
632.29	15.5
633.051	17.5
633.812	18.5
634.573	18.5
635.333	14.5
636.094	15.5
636.855	17.5
637.615	14.5
638.376	13.5
639.136	13.5
639.896	15.5
640.657	14.5
641.417	11.5
642.177	11.5
642.937	12.5
643.697	15.5
644.457	12.5
645.216	10.5
645.976	11.5
646.736	10.5
647.495	9.5
648.255	11.5
649.014	11.5
649.774	10.5
650.533	8.5
651.292	11.5
652.051	9.5
652.81	9.5
653.569	9.5
654.328	8.5
655.087	8.5
655.846	8.5
656.604	7.5
657.363	9.5
658.121	10.5
658.88	7.5
659.638	7.5
660.397	6.5
661.155	9.5
661.913	8.5
662.671	7.5
663.429	6.5
664.187	5.5
664.945	6.5
665.703	9.5
666.46	9.5
667.218	6.5
667.976	6.5
668.733	6.5
669.49	8.5
670.248	5.5
671.005	8.5
671.762	4.5
672.519	7.5
673.276	5.5
674.033	7.5
674.79	4.5
675.547	5.5
676.304	4.5
677.06	5.5
677.817	2.5
678.574	6.5
679.33	5.5
680.086	6.5
680.843	7.5
681.599	3.5
682.355	4.5
683.111	4.5
683.867	5.5
684.623	8.5
685.379	7.5
686.135	7.5
686.89	4.5
687.646	6.5
688.402	4.5
689.157	6.5
689.912	6.5
690.668	3.5
691.423	5.5
692.178	6.5
692.933	4.5
693.688	4.5
694.443	6.5
695.198	6.5
695.953	4.5
696.708	4.5
697.462	3.5
698.217	2.5
698.972	3.5
699.726	5.5
700.48	4.5
701.235	4.5
701.989	6.5
702.743	2.5
703.497	6.5
704.251	6.5
705.005	2.5
705.759	7.5
706.513	4.5
707.266	5.5
708.02	4.5
708.774	5.5
709.527	6.5
710.28	4.5
711.034	4.5
711.787	5.5
712.54	5.5
713.293	6.5
714.046	5.5
714.799	5.5
715.552	5.5
716.305	2.5
717.058	5.5
717.81	7.5
718.563	4.5
719.315	6.5
720.068	6.5
720.82	6.5
721.573	5.5
722.325	6.5
723.077	3.5
723.829	6.5
724.581	6.5
725.333	7.5
726.085	4.5
726.836	4.5
727.588	4.5
728.34	7.5
729.091	6.5
729.843	3.5
730.594	5.5
731.346	5.5
732.097	5.5
732.848	7.5
733.599	5.5
734.35	8.5
735.101	7.5
735.852	5.5
736.603	7.5
737.354	3.5
738.104	6.5
738.855	6.5
739.605	7.5
740.356	8.5
741.106	4.5
741.856	7.5
742.607	7.5
743.357	6.5
744.107	5.5
744.857	7.5
745.607	5.5
746.357	7.5
747.106	7.5
747.856	8.5
748.606	7.5
749.355	7.5
750.105	6.5
750.854	7.5
751.603	5.5
752.353	10.5
753.102	8.5
753.851	7.5
754.6	7.5
755.349	8.5
756.098	11.5
756.847	6.5
757.595	7.5
758.344	9.5
759.093	9.5
759.841	8.5
760.589	8.5
761.338	11.5
762.086	7.5
762.834	11.5
763.582	9.5
764.331	8.5
765.079	10.5
765.826	10.5
766.574	11.5
767.322	12.5
768.07	7.5
768.817	10.5
769.565	12.5
770.312	10.5
771.06	9.5
771.807	13.5
772.554	12.5
773.302	10.5
774.049	11.5
774.796	11.5
775.543	12.5
776.29	11.5
777.036	12.5
777.783	9.5
778.53	12.5
779.276	13.5
780.023	10.5
780.769	12.5
781.516	11.5
782.262	10.5
783.008	10.5
783.754	11.5
784.5	14.5
785.246	13.5
785.992	12.5
786.738	14.5
787.484	11.5
788.23	9.5
788.975	13.5
789.721	11.5
790.466	12.5
791.212	11.5
791.957	13.5
792.702	10.5
793.447	11.5
794.193	10.5
794.938	10.5
795.683	12.5
796.427	10.5
797.172	10.5
797.917	10.5
798.662	9.5
799.406	10.5
800.151	8.5
800.895	11.5
801.64	7.5
802.384	9.5
803.128	8.5
803.872	6.5
804.616	6.5
805.36	7.5
806.104	7.5
806.848	7.5
807.592	10.5
808.336	8.5
809.079	8.5
809.823	7.5
810.566	5.5
811.31	8.5
812.053	6.5
812.796	8.5
813.539	7.5
814.283	7.5
815.026	8.5
815.769	7.5
816.511	9.5
817.254	5.5
817.997	7.5
818.74	7.5
819.482	4.5
820.225	7.5
820.967	5.5
821.71	7.5
822.452	6.5
823.194	4.5
823.936	4.5
824.678	4.5
825.42	6.5
826.162	7.5
826.904	6.5
827.646	4.5
828.388	4.5
829.129	6.5
829.871	5.5
830.612	3.5
831.354	5.5
832.095	4.5
832.836	4.5
833.577	3.5
834.319	2.5
835.06	6.5
835.801	4.5
836.542	4.5
837.282	3.5
838.023	7.5
838.764	4.5
839.504	2.5
840.245	4.5
840.985	5.5
841.726	4.5
842.466	4.5
843.206	5.5
843.946	5.5
844.687	4.5
845.427	5.5
846.166	2.5
846.906	3.5
847.646	2.5
848.386	4.5
849.125	5.5
849.865	3.5
850.605	5.5
851.344	3.5
852.083	6.5
852.823	4.5
853.562	6.5
854.301	2.5
855.04	1.5
855.779	2.5
856.518	4.5
857.257	3.5
857.995	2.5
858.734	4.5
859.473	2.5
860.211	3.5
860.95	3.5
861.688	1.5
862.426	3.5
863.165	2.5
863.903	2.5
864.641	3.5
865.379	1.5
866.117	5.5
866.855	3.5
867.593	2.5
868.33	3.5
869.068	1.5
869.806	3.5
870.543	2.5
871.28	1.5
872.018	2.5
872.755	0.5
873.492	3.5
874.229	0.5
874.967	2.5
875.703	1.5
876.44	1.5
877.177	1.5
877.914	1.5
878.651	2.5
879.387	1.5
880.124	1.5
880.86	2.5
881.597	-1.5
882.333	1.5
883.069	2.5
883.806	2.5
884.542	3.5
885.278	0.5
886.014	2.5
886.749	3.5
887.485	1.5
888.221	0.5
888.957	0.5
889.692	1.5
890.428	1.5
891.163	-0.5
891.899	1.5
892.634	1.5
893.369	1.5
894.104	0.5
894.839	0.5
895.574	2.5
896.309	1.5
897.044	1.5
897.779	1.5
898.514	1.5
899.248	1.5
899.983	0.5
900.717	0.5
901.452	0.5
902.186	1.5
902.92	0.5
903.654	0.5
904.389	0.5
905.123	0.5
905.857	0.5
906.59	-1.5
907.324	-0.5
908.058	0.5
908.792	0.5
909.525	1.5
910.259	0.5
910.992	-1.5
911.726	-1.5
912.459	2.5
913.192	0.5
913.925	0.5
914.658	1.5
915.391	-1.5
916.124	2.5
916.857	0.5
917.59	-0.5
918.323	1.5
919.055	2.5
919.788	0.5
920.521	0.5
921.253	1.5
921.985	0.5
922.718	0.5
923.45	-0.5
924.182	-1.5
924.914	3.5
925.646	-1.5
926.378	1.5
927.11	-1.5
927.841	1.5
928.573	-0.5
929.305	-1.5
930.036	1.5
930.768	1.5
931.499	2.5
932.23	1.5
932.962	0.5
933.693	1.5
934.424	-0.5
935.155	0.5
935.886	1.5
936.617	1.5
937.348	2.5
938.078	-1.5
938.809	1.5
939.54	-1.5
940.27	-0.5
941.001	0.5
941.731	0.5
942.461	1.5
943.191	-0.5
943.922	2.5
944.652	0.5
945.382	1.5
946.112	-0.5
946.841	0.5
947.571	2.5
948.301	0.5
949.031	2.5
949.76	2.5
950.49	0.5
951.219	0.5
951.948	0.5
952.678	3.5
953.407	0.5
954.136	1.5
954.865	-0.5
955.594	1.5
956.323	0.5
957.052	0.5
957.78	1.5
958.509	1.5
959.238	-0.5
959.966	0.5
960.695	-1.5
961.423	1.5
962.151	1.5
962.88	2.5
963.608	1.5
964.336	0.5
965.064	2.5
965.792	-0.5
966.52	0.5
967.247	2.5
967.975	0.5
968.703	2.5
969.43	-1.5
970.158	2.5
970.885	1.5
971.613	1.5
972.34	1.5
973.067	-0.5
973.794	1.5
974.521	0.5
975.248	0.5
975.975	1.5
976.702	1.5
977.429	0.5
978.156	0.5
978.882	1.5
979.609	0.5
980.335	1.5
981.062	1.5
981.788	-0.5
982.514	1.5
983.24	0.5
983.967	1.5
984.693	0.5
985.419	-0.5
986.144	0.5
986.87	-1.5
987.596	2.5
988.322	-0.5
989.047	-1.5
989.773	1.5
990.498	-0.5
991.224	2.5
991.949	0.5
992.674	0.5
993.399	-0.5
994.124	1.5
994.849	4.5
995.574	-0.5
996.299	1.5
997.024	0.5
997.749	1.5
998.473	-0.5
999.198	-1.5
999.922	0.5
1000.647	-1.5
1001.371	4.5
1002.095	-1.5
1002.82	-1.5
1003.544	0.5
1004.268	0.5
1004.992	1.5
1005.716	2.5
1006.439	2.5
1007.163	2.5
1007.887	2.5
1008.611	0.5
1009.334	-0.5
1010.058	0.5
1010.781	0.5
1011.504	0.5
1012.228	1.5
1012.951	-1.5
1013.674	-0.5
1014.397	-0.5
1015.12	0.5
