节点500_425_QEPB04081__208__15-51-46-089.txt的数据

Date: Wed Nov 12 15:51:46 CST 2025
User: PC
Spectrometer: QEPB0408
触发模式: 0
积分时间 (秒): 1.000000E-2
Scans to average: 1
启用暗噪声校正: true
启用非线性校正: false
滑动平均宽度: 0
X轴模式: Wavelengths
Number of Pixels in Spectrum: 1044
>>>>>Begin Spectral Data<<<<<
220.843	3.62
221.644	1.62
222.444	5.62
223.244	3.62
224.045	3.62
224.845	5.62
225.645	3.62
226.445	5.62
227.245	3.62
228.045	1.62
228.845	7.62
229.645	4.62
230.444	5.62
231.244	4.62
232.043	7.62
232.843	5.62
233.642	7.62
234.442	7.62
235.241	5.62
236.04	6.62
236.839	5.62
237.638	6.62
238.437	7.62
239.236	7.62
240.035	6.62
240.833	5.62
241.632	8.62
242.43	8.62
243.229	8.62
244.027	9.62
244.826	7.62
245.624	10.62
246.422	8.62
247.22	8.62
248.018	10.62
248.816	12.62
249.614	9.62
250.412	8.62
251.21	11.62
252.007	10.62
252.805	10.62
253.602	8.62
254.4	11.62
255.197	10.62
255.994	11.62
256.791	16.62
257.589	14.62
258.386	12.62
259.183	13.62
259.979	13.62
260.776	15.62
261.573	17.62
262.37	16.62
263.166	17.62
263.963	18.62
264.759	19.62
265.556	18.62
266.352	18.62
267.148	19.62
267.944	16.62
268.74	21.62
269.536	18.62
270.332	22.62
271.128	19.62
271.924	23.62
272.719	20.62
273.515	24.62
274.311	24.62
275.106	22.62
275.901	23.62
276.697	24.62
277.492	21.62
278.287	24.62
279.082	24.62
279.877	24.62
280.672	25.62
281.467	25.62
282.262	26.62
283.056	22.62
283.851	26.62
284.646	24.62
285.44	24.62
286.234	26.62
287.029	27.62
287.823	23.62
288.617	24.62
289.411	23.62
290.205	23.62
290.999	25.62
291.793	23.62
292.587	20.62
293.381	27.62
294.174	21.62
294.968	21.62
295.761	21.62
296.555	19.62
297.348	20.62
298.141	21.62
298.935	20.62
299.728	17.62
300.521	18.62
301.314	17.62
302.107	19.62
302.899	16.62
303.692	13.62
304.485	17.62
305.277	14.62
306.07	16.62
306.862	15.62
307.655	15.62
308.447	16.62
309.239	13.62
310.031	14.62
310.823	14.62
311.615	12.62
312.407	11.62
313.199	12.62
313.991	15.62
314.783	14.62
315.574	13.62
316.366	12.62
317.157	10.62
317.949	10.62
318.74	10.62
319.531	11.62
320.322	11.62
321.113	9.62
321.904	11.62
322.695	9.62
323.486	8.62
324.277	11.62
325.068	8.62
325.858	9.62
326.649	8.62
327.439	7.62
328.23	5.62
329.02	13.62
329.81	10.62
330.6	10.62
331.391	9.62
332.181	5.62
332.971	7.62
333.76	9.62
334.55	8.62
335.34	11.62
336.13	10.62
336.919	9.62
337.709	6.62
338.498	7.62
339.287	8.62
340.077	8.62
340.866	7.62
341.655	6.62
342.444	8.62
343.233	9.62
344.022	7.62
344.811	9.62
345.6	10.62
346.388	8.62
347.177	7.62
347.965	6.62
348.754	10.62
349.542	8.62
350.33	9.62
351.119	11.62
351.907	9.62
352.695	7.62
353.483	7.62
354.271	9.62
355.059	9.62
355.846	8.62
356.634	7.62
357.422	8.62
358.209	10.62
358.997	8.62
359.784	6.62
360.571	10.62
361.359	8.62
362.146	7.62
362.933	7.62
363.72	8.62
364.507	8.62
365.294	9.62
366.081	7.62
366.867	4.62
367.654	6.62
368.44	6.62
369.227	5.62
370.013	7.62
370.8	8.62
371.586	6.62
372.372	6.62
373.158	7.62
373.944	8.62
374.73	6.62
375.516	5.62
376.302	7.62
377.088	6.62
377.873	8.62
378.659	8.62
379.445	8.62
380.23	7.62
381.015	6.62
381.801	7.62
382.586	9.62
383.371	4.62
384.156	5.62
384.941	7.62
385.726	6.62
386.511	8.62
387.296	9.62
388.08	4.62
388.865	10.62
389.649	10.62
390.434	8.62
391.218	8.62
392.003	8.62
392.787	7.62
393.571	12.62
394.355	9.62
395.139	10.62
395.923	9.62
396.707	7.62
397.491	7.62
398.274	9.62
399.058	10.62
399.842	9.62
400.625	8.62
401.408	10.62
402.192	10.62
402.975	10.62
403.758	10.62
404.541	7.62
405.324	8.62
406.107	11.62
406.89	11.62
407.673	8.62
408.456	9.62
409.238	12.62
410.021	10.62
410.803	12.62
411.586	10.62
412.368	12.62
413.151	10.62
413.933	12.62
414.715	12.62
415.497	13.62
416.279	12.62
417.061	10.62
417.843	13.62
418.624	12.62
419.406	14.62
420.188	13.62
420.969	15.62
421.751	16.62
422.532	14.62
423.313	16.62
424.095	15.62
424.876	18.62
425.657	18.62
426.438	18.62
427.219	16.62
428	14.62
428.78	19.62
429.561	19.62
430.342	19.62
431.122	23.62
431.903	20.62
432.683	21.62
433.464	24.62
434.244	26.62
435.024	25.62
435.804	28.62
436.584	28.62
437.364	26.62
438.144	32.62
438.924	28.62
439.704	31.62
440.483	32.62
441.263	35.62
442.042	37.62
442.822	42.62
443.601	41.62
444.38	43.62
445.16	47.62
445.939	52.62
446.718	57.62
447.497	57.62
448.276	68.62
449.054	70.62
449.833	80.62
450.612	86.62
451.391	92.62
452.169	100.62
452.948	110.62
453.726	120.62
454.504	133.62
455.282	146.62
456.061	163.62
456.839	183.62
457.617	204.62
458.395	232.62
459.172	255.62
459.95	277.62
460.728	311.62
461.506	352.62
462.283	381.62
463.061	432.62
463.838	499.62
464.615	541.62
465.393	608.62
466.17	679.62
466.947	762.62
467.724	846.62
468.501	944.62
469.278	1041.62
470.055	1150.62
470.831	1279.62
471.608	1432.62
472.385	1590.62
473.161	1760.62
473.938	1938.62
474.714	2156.62
475.49	2388.62
476.266	2607.62
477.043	2891.62
477.819	3206.62
478.595	3537.62
479.371	3890.62
480.146	4262.62
480.922	4666.62
481.698	5177.62
482.473	5677.62
483.249	6204.62
484.024	6806.62
484.8	7482.62
485.575	8167.62
486.35	8938.62
487.126	9751.62
487.901	10603.62
488.676	11646.62
489.451	12657.62
490.225	13751.62
491	14915.62
491.775	16199.62
492.55	17492.62
493.324	18802.62
494.099	20178.62
494.873	21530.62
495.647	23062.62
496.422	24566.62
497.196	26035.62
497.97	27556.62
498.744	28951.62
499.518	30367.62
500.292	31622.62
501.066	32628.62
501.839	33869.62
502.613	34802.62
503.387	35390.62
504.16	35844.62
504.934	35973.62
505.707	36016.62
506.48	35861.62
507.253	35520.62
508.027	35158.62
508.8	34478.62
509.573	33566.62
510.346	32776.62
511.118	31713.62
511.891	30737.62
512.664	29541.62
513.437	28337.62
514.209	27106.62
514.982	26200.62
515.754	25113.62
516.526	23976.62
517.298	22924.62
518.071	21947.62
518.843	21040.62
519.615	20251.62
520.387	19364.62
521.159	18654.62
521.93	17935.62
522.702	17238.62
523.474	16520.62
524.245	15886.62
525.017	15158.62
525.788	14453.62
526.56	13813.62
527.331	13185.62
528.102	12576.62
528.873	11914.62
529.644	11314.62
530.415	10817.62
531.186	10298.62
531.957	9712.62
532.728	9252.62
533.498	8702.62
534.269	8214.62
535.039	7788.62
535.81	7338.62
536.58	6939.62
537.351	6525.62
538.121	6178.62
538.891	5848.62
539.661	5540.62
540.431	5280.62
541.201	5016.62
541.971	4719.62
542.741	4499.62
543.51	4241.62
544.28	4037.62
545.05	3835.62
545.819	3673.62
546.588	3507.62
547.358	3279.62
548.127	3117.62
548.896	2954.62
549.665	2818.62
550.434	2680.62
551.203	2540.62
551.972	2414.62
552.741	2272.62
553.51	2151.62
554.278	2030.62
555.047	1895.62
555.815	1797.62
556.584	1690.62
557.352	1606.62
558.121	1507.62
558.889	1418.62
559.657	1344.62
560.425	1282.62
561.193	1209.62
561.961	1144.62
562.729	1078.62
563.496	1022.62
564.264	980.62
565.032	916.62
565.799	856.62
566.567	817.62
567.334	777.62
568.101	729.62
568.869	687.62
569.636	647.62
570.403	610.62
571.17	576.62
571.937	541.62
572.704	516.62
573.471	483.62
574.237	461.62
575.004	432.62
575.771	394.62
576.537	380.62
577.303	363.62
578.07	338.62
578.836	316.62
579.602	298.62
580.368	282.62
581.134	271.62
581.9	259.62
582.666	241.62
583.432	233.62
584.198	221.62
584.964	206.62
585.729	193.62
586.495	186.62
587.26	176.62
588.025	171.62
588.791	156.62
589.556	153.62
590.321	149.62
591.086	139.62
591.851	125.62
592.616	122.62
593.381	118.62
594.146	112.62
594.911	109.62
595.675	98.62
596.44	99.62
597.204	90.62
597.969	91.62
598.733	91.62
599.497	81.62
600.261	76.62
601.025	73.62
601.79	69.62
602.553	67.62
603.317	67.62
604.081	65.62
604.845	57.62
605.609	59.62
606.372	56.62
607.136	52.62
607.899	51.62
608.662	49.62
609.426	47.62
610.189	44.62
610.952	44.62
611.715	44.62
612.478	41.62
613.241	39.62
614.004	38.62
614.767	34.62
615.529	33.62
616.292	34.62
617.055	32.62
617.817	32.62
618.579	28.62
619.342	28.62
620.104	27.62
620.866	29.62
621.628	26.62
622.39	29.62
623.152	22.62
623.914	25.62
624.676	23.62
625.438	23.62
626.199	22.62
626.961	20.62
627.722	22.62
628.484	20.62
629.245	20.62
630.006	18.62
630.768	20.62
631.529	19.62
632.29	16.62
633.051	17.62
633.812	15.62
634.573	14.62
635.333	16.62
636.094	15.62
636.855	15.62
637.615	14.62
638.376	13.62
639.136	15.62
639.896	11.62
640.657	11.62
641.417	12.62
642.177	11.62
642.937	11.62
643.697	10.62
644.457	11.62
645.216	9.62
645.976	10.62
646.736	8.62
647.495	9.62
648.255	9.62
649.014	12.62
649.774	10.62
650.533	8.62
651.292	9.62
652.051	9.62
652.81	8.62
653.569	9.62
654.328	8.62
655.087	7.62
655.846	9.62
656.604	9.62
657.363	9.62
658.121	9.62
658.88	7.62
659.638	7.62
660.397	7.62
661.155	8.62
661.913	7.62
662.671	9.62
663.429	8.62
664.187	4.62
664.945	7.62
665.703	6.62
666.46	9.62
667.218	4.62
667.976	8.62
668.733	6.62
669.49	7.62
670.248	4.62
671.005	7.62
671.762	9.62
672.519	6.62
673.276	4.62
674.033	7.62
674.79	7.62
675.547	7.62
676.304	5.62
677.06	7.62
677.817	6.62
678.574	7.62
679.33	7.62
680.086	3.62
680.843	6.62
681.599	4.62
682.355	6.62
683.111	6.62
683.867	4.62
684.623	6.62
685.379	6.62
686.135	9.62
686.89	4.62
687.646	5.62
688.402	5.62
689.157	4.62
689.912	5.62
690.668	6.62
691.423	5.62
692.178	5.62
692.933	7.62
693.688	7.62
694.443	6.62
695.198	5.62
695.953	4.62
696.708	6.62
697.462	7.62
698.217	3.62
698.972	5.62
699.726	4.62
700.48	7.62
701.235	5.62
701.989	3.62
702.743	4.62
703.497	4.62
704.251	6.62
705.005	7.62
705.759	2.62
706.513	4.62
707.266	4.62
708.02	5.62
708.774	5.62
709.527	5.62
710.28	5.62
711.034	4.62
711.787	3.62
712.54	4.62
713.293	5.62
714.046	5.62
714.799	4.62
715.552	5.62
716.305	5.62
717.058	7.62
717.81	4.62
718.563	3.62
719.315	4.62
720.068	4.62
720.82	5.62
721.573	4.62
722.325	7.62
723.077	7.62
723.829	7.62
724.581	4.62
725.333	5.62
726.085	7.62
726.836	4.62
727.588	6.62
728.34	7.62
729.091	4.62
729.843	6.62
730.594	5.62
731.346	7.62
732.097	3.62
732.848	5.62
733.599	5.62
734.35	6.62
735.101	6.62
735.852	5.62
736.603	7.62
737.354	6.62
738.104	6.62
738.855	7.62
739.605	5.62
740.356	5.62
741.106	5.62
741.856	6.62
742.607	6.62
743.357	6.62
744.107	7.62
744.857	7.62
745.607	8.62
746.357	6.62
747.106	6.62
747.856	6.62
748.606	6.62
749.355	7.62
750.105	5.62
750.854	4.62
751.603	7.62
752.353	5.62
753.102	6.62
753.851	6.62
754.6	9.62
755.349	9.62
756.098	10.62
756.847	6.62
757.595	10.62
758.344	9.62
759.093	8.62
759.841	6.62
760.589	11.62
761.338	11.62
762.086	9.62
762.834	9.62
763.582	8.62
764.331	7.62
765.079	7.62
765.826	8.62
766.574	7.62
767.322	14.62
768.07	10.62
768.817	11.62
769.565	11.62
770.312	11.62
771.06	11.62
771.807	9.62
772.554	10.62
773.302	8.62
774.049	8.62
774.796	10.62
775.543	13.62
776.29	12.62
777.036	11.62
777.783	12.62
778.53	12.62
779.276	12.62
780.023	10.62
780.769	12.62
781.516	12.62
782.262	10.62
783.008	13.62
783.754	12.62
784.5	11.62
785.246	13.62
785.992	9.62
786.738	13.62
787.484	13.62
788.23	13.62
788.975	10.62
789.721	13.62
790.466	8.62
791.212	10.62
791.957	10.62
792.702	10.62
793.447	9.62
794.193	11.62
794.938	10.62
795.683	9.62
796.427	8.62
797.172	10.62
797.917	10.62
798.662	8.62
799.406	9.62
800.151	8.62
800.895	8.62
801.64	10.62
802.384	10.62
803.128	7.62
803.872	9.62
804.616	7.62
805.36	10.62
806.104	6.62
806.848	7.62
807.592	7.62
808.336	7.62
809.079	6.62
809.823	8.62
810.566	7.62
811.31	6.62
812.053	7.62
812.796	7.62
813.539	7.62
814.283	5.62
815.026	4.62
815.769	7.62
816.511	4.62
817.254	7.62
817.997	8.62
818.74	5.62
819.482	5.62
820.225	4.62
820.967	4.62
821.71	5.62
822.452	5.62
823.194	4.62
823.936	5.62
824.678	6.62
825.42	3.62
826.162	6.62
826.904	5.62
827.646	5.62
828.388	4.62
829.129	6.62
829.871	4.62
830.612	5.62
831.354	4.62
832.095	7.62
832.836	4.62
833.577	3.62
834.319	4.62
835.06	5.62
835.801	4.62
836.542	6.62
837.282	6.62
838.023	3.62
838.764	4.62
839.504	4.62
840.245	4.62
840.985	2.62
841.726	2.62
842.466	3.62
843.206	5.62
843.946	5.62
844.687	4.62
845.427	4.62
846.166	3.62
846.906	4.62
847.646	4.62
848.386	2.62
849.125	3.62
849.865	5.62
850.605	5.62
851.344	4.62
852.083	2.62
852.823	2.62
853.562	2.62
854.301	2.62
855.04	4.62
855.779	4.62
856.518	2.62
857.257	2.62
857.995	3.62
858.734	4.62
859.473	2.62
860.211	2.62
860.95	2.62
861.688	3.62
862.426	2.62
863.165	2.62
863.903	3.62
864.641	2.62
865.379	2.62
866.117	1.62
866.855	2.62
867.593	1.62
868.33	2.62
869.068	4.62
869.806	1.62
870.543	2.62
871.28	2.62
872.018	2.62
872.755	2.62
873.492	2.62
874.229	3.62
874.967	0.62
875.703	5.62
876.44	1.62
877.177	0.62
877.914	2.62
878.651	1.62
879.387	1.62
880.124	1.62
880.86	0.62
881.597	1.62
882.333	2.62
883.069	1.62
883.806	1.62
884.542	2.62
885.278	-0.38
886.014	0.62
886.749	-0.38
887.485	-0.38
888.221	2.62
888.957	-0.38
889.692	3.62
890.428	2.62
891.163	0.62
891.899	-0.38
892.634	1.62
893.369	1.62
894.104	1.62
894.839	2.62
895.574	1.62
896.309	0.62
897.044	1.62
897.779	1.62
898.514	0.62
899.248	3.62
899.983	1.62
900.717	1.62
901.452	-0.38
902.186	1.62
902.92	-0.38
903.654	0.62
904.389	1.62
905.123	0.62
905.857	0.62
906.59	-1.38
907.324	2.62
908.058	3.62
908.792	-0.38
909.525	0.62
910.259	-0.38
910.992	2.62
911.726	1.62
912.459	0.62
913.192	0.62
913.925	-1.38
914.658	-0.38
915.391	-0.38
916.124	2.62
916.857	0.62
917.59	0.62
918.323	-0.38
919.055	-0.38
919.788	1.62
920.521	2.62
921.253	2.62
921.985	-0.38
922.718	-1.38
923.45	-0.38
924.182	1.62
924.914	2.62
925.646	1.62
926.378	1.62
927.11	3.62
927.841	2.62
928.573	2.62
929.305	2.62
930.036	1.62
930.768	0.62
931.499	-0.38
932.23	-1.38
932.962	0.62
933.693	3.62
934.424	0.62
935.155	0.62
935.886	1.62
936.617	0.62
937.348	0.62
938.078	0.62
938.809	-0.38
939.54	-0.38
940.27	1.62
941.001	0.62
941.731	1.62
942.461	1.62
943.191	2.62
943.922	0.62
944.652	2.62
945.382	-0.38
946.112	0.62
946.841	0.62
947.571	0.62
948.301	-0.38
949.031	1.62
949.76	0.62
950.49	-1.38
951.219	0.62
951.948	1.62
952.678	2.62
953.407	-2.38
954.136	-0.38
954.865	2.62
955.594	-0.38
956.323	-0.38
957.052	-0.38
957.78	1.62
958.509	0.62
959.238	-1.38
959.966	1.62
960.695	0.62
961.423	0.62
962.151	0.62
962.88	-1.38
963.608	1.62
964.336	0.62
965.064	0.62
965.792	0.62
966.52	2.62
967.247	0.62
967.975	-0.38
968.703	0.62
969.43	1.62
970.158	0.62
970.885	1.62
971.613	-0.38
972.34	-1.38
973.067	-0.38
973.794	1.62
974.521	0.62
975.248	2.62
975.975	0.62
976.702	-0.38
977.429	2.62
978.156	0.62
978.882	1.62
979.609	0.62
980.335	-1.38
981.062	1.62
981.788	0.62
982.514	0.62
983.24	-1.38
983.967	-2.38
984.693	0.62
985.419	-1.38
986.144	1.62
986.87	0.62
987.596	0.62
988.322	0.62
989.047	-0.38
989.773	1.62
990.498	0.62
991.224	0.62
991.949	1.62
992.674	0.62
993.399	-0.38
994.124	2.62
994.849	3.62
995.574	0.62
996.299	0.62
997.024	2.62
997.749	-0.38
998.473	-2.38
999.198	-0.38
999.922	1.62
1000.647	0.62
1001.371	4.62
1002.095	-0.38
1002.82	-0.38
1003.544	-1.38
1004.268	1.62
1004.992	4.62
1005.716	2.62
1006.439	2.62
1007.163	2.62
1007.887	2.62
1008.611	1.62
1009.334	0.62
1010.058	0.62
1010.781	0.62
1011.504	-1.38
1012.228	1.62
1012.951	0.62
1013.674	-1.38
1014.397	-0.38
1015.12	-1.38
