节点500_425_QEPB04081__136__15-50-34-308.txt的数据

Date: Wed Nov 12 15:50:34 CST 2025
User: PC
Spectrometer: QEPB0408
触发模式: 0
积分时间 (秒): 1.000000E-2
Scans to average: 1
启用暗噪声校正: true
启用非线性校正: false
滑动平均宽度: 0
X轴模式: Wavelengths
Number of Pixels in Spectrum: 1044
>>>>>Begin Spectral Data<<<<<
220.843	1.5
221.644	4.5
222.444	2.5
223.244	4.5
224.045	2.5
224.845	2.5
225.645	6.5
226.445	3.5
227.245	2.5
228.045	5.5
228.845	2.5
229.645	6.5
230.444	3.5
231.244	3.5
232.043	4.5
232.843	5.5
233.642	7.5
234.442	6.5
235.241	7.5
236.04	7.5
236.839	4.5
237.638	5.5
238.437	5.5
239.236	7.5
240.035	8.5
240.833	5.5
241.632	7.5
242.43	9.5
243.229	7.5
244.027	7.5
244.826	7.5
245.624	5.5
246.422	10.5
247.22	10.5
248.018	8.5
248.816	7.5
249.614	10.5
250.412	10.5
251.21	10.5
252.007	10.5
252.805	12.5
253.602	11.5
254.4	15.5
255.197	11.5
255.994	14.5
256.791	13.5
257.589	13.5
258.386	15.5
259.183	14.5
259.979	15.5
260.776	14.5
261.573	13.5
262.37	18.5
263.166	15.5
263.963	18.5
264.759	15.5
265.556	17.5
266.352	20.5
267.148	18.5
267.944	22.5
268.74	20.5
269.536	21.5
270.332	22.5
271.128	23.5
271.924	21.5
272.719	23.5
273.515	26.5
274.311	22.5
275.106	25.5
275.901	23.5
276.697	25.5
277.492	26.5
278.287	25.5
279.082	25.5
279.877	24.5
280.672	26.5
281.467	29.5
282.262	28.5
283.056	28.5
283.851	25.5
284.646	28.5
285.44	26.5
286.234	25.5
287.029	24.5
287.823	26.5
288.617	25.5
289.411	24.5
290.205	22.5
290.999	24.5
291.793	26.5
292.587	27.5
293.381	23.5
294.174	21.5
294.968	20.5
295.761	22.5
296.555	22.5
297.348	19.5
298.141	21.5
298.935	22.5
299.728	19.5
300.521	19.5
301.314	19.5
302.107	18.5
302.899	14.5
303.692	16.5
304.485	21.5
305.277	15.5
306.07	14.5
306.862	17.5
307.655	18.5
308.447	15.5
309.239	18.5
310.031	15.5
310.823	14.5
311.615	14.5
312.407	12.5
313.199	17.5
313.991	13.5
314.783	12.5
315.574	11.5
316.366	11.5
317.157	12.5
317.949	10.5
318.74	11.5
319.531	12.5
320.322	8.5
321.113	8.5
321.904	9.5
322.695	9.5
323.486	10.5
324.277	12.5
325.068	8.5
325.858	8.5
326.649	11.5
327.439	9.5
328.23	8.5
329.02	10.5
329.81	8.5
330.6	9.5
331.391	10.5
332.181	9.5
332.971	9.5
333.76	9.5
334.55	11.5
335.34	9.5
336.13	10.5
336.919	8.5
337.709	8.5
338.498	10.5
339.287	8.5
340.077	8.5
340.866	6.5
341.655	9.5
342.444	7.5
343.233	6.5
344.022	8.5
344.811	6.5
345.6	9.5
346.388	7.5
347.177	6.5
347.965	7.5
348.754	11.5
349.542	8.5
350.33	7.5
351.119	9.5
351.907	7.5
352.695	11.5
353.483	9.5
354.271	7.5
355.059	8.5
355.846	8.5
356.634	7.5
357.422	9.5
358.209	5.5
358.997	7.5
359.784	8.5
360.571	6.5
361.359	5.5
362.146	7.5
362.933	5.5
363.72	8.5
364.507	7.5
365.294	6.5
366.081	9.5
366.867	8.5
367.654	5.5
368.44	7.5
369.227	4.5
370.013	8.5
370.8	7.5
371.586	7.5
372.372	6.5
373.158	5.5
373.944	7.5
374.73	8.5
375.516	7.5
376.302	8.5
377.088	9.5
377.873	7.5
378.659	7.5
379.445	9.5
380.23	7.5
381.015	7.5
381.801	5.5
382.586	8.5
383.371	7.5
384.156	6.5
384.941	7.5
385.726	8.5
386.511	7.5
387.296	7.5
388.08	8.5
388.865	7.5
389.649	6.5
390.434	10.5
391.218	8.5
392.003	7.5
392.787	6.5
393.571	7.5
394.355	10.5
395.139	9.5
395.923	10.5
396.707	8.5
397.491	10.5
398.274	7.5
399.058	8.5
399.842	10.5
400.625	9.5
401.408	9.5
402.192	10.5
402.975	12.5
403.758	11.5
404.541	10.5
405.324	13.5
406.107	9.5
406.89	10.5
407.673	10.5
408.456	9.5
409.238	13.5
410.021	10.5
410.803	10.5
411.586	14.5
412.368	11.5
413.151	14.5
413.933	12.5
414.715	12.5
415.497	12.5
416.279	10.5
417.061	12.5
417.843	11.5
418.624	13.5
419.406	14.5
420.188	16.5
420.969	14.5
421.751	16.5
422.532	14.5
423.313	16.5
424.095	17.5
424.876	18.5
425.657	16.5
426.438	19.5
427.219	18.5
428	16.5
428.78	16.5
429.561	20.5
430.342	19.5
431.122	20.5
431.903	23.5
432.683	22.5
433.464	23.5
434.244	23.5
435.024	23.5
435.804	26.5
436.584	26.5
437.364	29.5
438.144	25.5
438.924	33.5
439.704	34.5
440.483	32.5
441.263	36.5
442.042	34.5
442.822	42.5
443.601	42.5
444.38	46.5
445.16	50.5
445.939	48.5
446.718	57.5
447.497	56.5
448.276	66.5
449.054	69.5
449.833	73.5
450.612	82.5
451.391	89.5
452.169	102.5
452.948	109.5
453.726	119.5
454.504	130.5
455.282	143.5
456.061	162.5
456.839	177.5
457.617	199.5
458.395	220.5
459.172	245.5
459.95	273.5
460.728	306.5
461.506	340.5
462.283	379.5
463.061	432.5
463.838	485.5
464.615	544.5
465.393	594.5
466.17	662.5
466.947	739.5
467.724	828.5
468.501	921.5
469.278	1035.5
470.055	1131.5
470.831	1272.5
471.608	1419.5
472.385	1566.5
473.161	1730.5
473.938	1915.5
474.714	2159.5
475.49	2374.5
476.266	2599.5
477.043	2908.5
477.819	3211.5
478.595	3538.5
479.371	3899.5
480.146	4291.5
480.922	4725.5
481.698	5190.5
482.473	5712.5
483.249	6312.5
484.024	6925.5
484.8	7607.5
485.575	8265.5
486.35	9079.5
487.126	9945.5
487.901	10861.5
488.676	11896.5
489.451	12964.5
490.225	14046.5
491	15329.5
491.775	16660.5
492.55	17910.5
493.324	19413.5
494.099	20828.5
494.873	22204.5
495.647	23770.5
496.422	25261.5
497.196	26779.5
497.97	28432.5
498.744	29796.5
499.518	31241.5
500.292	32421.5
501.066	33527.5
501.839	34663.5
502.613	35522.5
503.387	36089.5
504.16	36542.5
504.934	36634.5
505.707	36655.5
506.48	36423.5
507.253	35999.5
508.027	35479.5
508.8	34689.5
509.573	33873.5
510.346	32860.5
511.118	31800.5
511.891	30778.5
512.664	29522.5
513.437	28303.5
514.209	27084.5
514.982	26053.5
515.754	24950.5
516.526	23790.5
517.298	22784.5
518.071	21808.5
518.843	20883.5
519.615	20057.5
520.387	19246.5
521.159	18542.5
521.93	17828.5
522.702	17164.5
523.474	16437.5
524.245	15788.5
525.017	15020.5
525.788	14354.5
526.56	13701.5
527.331	13058.5
528.102	12442.5
528.873	11795.5
529.644	11195.5
530.415	10668.5
531.186	10196.5
531.957	9624.5
532.728	9080.5
533.498	8581.5
534.269	8085.5
535.039	7677.5
535.81	7234.5
536.58	6801.5
537.351	6427.5
538.121	6097.5
538.891	5740.5
539.661	5473.5
540.431	5182.5
541.201	4900.5
541.971	4649.5
542.741	4398.5
543.51	4174.5
544.28	3972.5
545.05	3784.5
545.819	3614.5
546.588	3417.5
547.358	3241.5
548.127	3055.5
548.896	2909.5
549.665	2730.5
550.434	2617.5
551.203	2481.5
551.972	2334.5
552.741	2227.5
553.51	2091.5
554.278	1969.5
555.047	1862.5
555.815	1755.5
556.584	1673.5
557.352	1565.5
558.121	1469.5
558.889	1403.5
559.657	1326.5
560.425	1242.5
561.193	1166.5
561.961	1124.5
562.729	1060.5
563.496	987.5
564.264	948.5
565.032	892.5
565.799	843.5
566.567	791.5
567.334	758.5
568.101	710.5
568.869	670.5
569.636	629.5
570.403	590.5
571.17	562.5
571.937	525.5
572.704	500.5
573.471	481.5
574.237	441.5
575.004	427.5
575.771	388.5
576.537	377.5
577.303	349.5
578.07	337.5
578.836	312.5
579.602	290.5
580.368	285.5
581.134	266.5
581.9	250.5
582.666	245.5
583.432	231.5
584.198	212.5
584.964	206.5
585.729	191.5
586.495	184.5
587.26	173.5
588.025	163.5
588.791	156.5
589.556	150.5
590.321	141.5
591.086	129.5
591.851	127.5
592.616	120.5
593.381	115.5
594.146	107.5
594.911	104.5
595.675	99.5
596.44	91.5
597.204	92.5
597.969	83.5
598.733	86.5
599.497	80.5
600.261	76.5
601.025	75.5
601.79	72.5
602.553	69.5
603.317	65.5
604.081	64.5
604.845	60.5
605.609	51.5
606.372	51.5
607.136	52.5
607.899	48.5
608.662	47.5
609.426	46.5
610.189	47.5
610.952	42.5
611.715	42.5
612.478	44.5
613.241	39.5
614.004	35.5
614.767	39.5
615.529	35.5
616.292	34.5
617.055	35.5
617.817	33.5
618.579	29.5
619.342	32.5
620.104	26.5
620.866	28.5
621.628	27.5
622.39	28.5
623.152	25.5
623.914	24.5
624.676	21.5
625.438	22.5
626.199	22.5
626.961	20.5
627.722	19.5
628.484	24.5
629.245	18.5
630.006	19.5
630.768	18.5
631.529	16.5
632.29	18.5
633.051	18.5
633.812	14.5
634.573	16.5
635.333	14.5
636.094	14.5
636.855	13.5
637.615	15.5
638.376	14.5
639.136	14.5
639.896	14.5
640.657	11.5
641.417	12.5
642.177	10.5
642.937	12.5
643.697	9.5
644.457	14.5
645.216	8.5
645.976	11.5
646.736	9.5
647.495	11.5
648.255	11.5
649.014	10.5
649.774	12.5
650.533	9.5
651.292	10.5
652.051	11.5
652.81	9.5
653.569	9.5
654.328	7.5
655.087	9.5
655.846	9.5
656.604	8.5
657.363	10.5
658.121	10.5
658.88	5.5
659.638	7.5
660.397	6.5
661.155	8.5
661.913	5.5
662.671	6.5
663.429	8.5
664.187	6.5
664.945	8.5
665.703	6.5
666.46	6.5
667.218	4.5
667.976	6.5
668.733	8.5
669.49	6.5
670.248	8.5
671.005	6.5
671.762	6.5
672.519	6.5
673.276	7.5
674.033	7.5
674.79	5.5
675.547	6.5
676.304	8.5
677.06	5.5
677.817	3.5
678.574	4.5
679.33	4.5
680.086	6.5
680.843	7.5
681.599	6.5
682.355	8.5
683.111	4.5
683.867	4.5
684.623	6.5
685.379	5.5
686.135	7.5
686.89	6.5
687.646	5.5
688.402	5.5
689.157	4.5
689.912	5.5
690.668	5.5
691.423	7.5
692.178	4.5
692.933	5.5
693.688	4.5
694.443	4.5
695.198	7.5
695.953	5.5
696.708	5.5
697.462	4.5
698.217	5.5
698.972	5.5
699.726	3.5
700.48	4.5
701.235	5.5
701.989	6.5
702.743	6.5
703.497	5.5
704.251	5.5
705.005	7.5
705.759	7.5
706.513	4.5
707.266	4.5
708.02	4.5
708.774	5.5
709.527	5.5
710.28	6.5
711.034	2.5
711.787	6.5
712.54	4.5
713.293	6.5
714.046	4.5
714.799	6.5
715.552	5.5
716.305	4.5
717.058	4.5
717.81	5.5
718.563	6.5
719.315	5.5
720.068	5.5
720.82	7.5
721.573	5.5
722.325	6.5
723.077	4.5
723.829	5.5
724.581	6.5
725.333	5.5
726.085	6.5
726.836	4.5
727.588	5.5
728.34	7.5
729.091	5.5
729.843	5.5
730.594	6.5
731.346	6.5
732.097	4.5
732.848	8.5
733.599	8.5
734.35	5.5
735.101	5.5
735.852	4.5
736.603	6.5
737.354	4.5
738.104	7.5
738.855	5.5
739.605	3.5
740.356	7.5
741.106	6.5
741.856	7.5
742.607	6.5
743.357	8.5
744.107	7.5
744.857	3.5
745.607	8.5
746.357	8.5
747.106	7.5
747.856	7.5
748.606	6.5
749.355	8.5
750.105	5.5
750.854	7.5
751.603	7.5
752.353	9.5
753.102	8.5
753.851	8.5
754.6	10.5
755.349	6.5
756.098	9.5
756.847	8.5
757.595	8.5
758.344	9.5
759.093	9.5
759.841	10.5
760.589	8.5
761.338	10.5
762.086	8.5
762.834	8.5
763.582	9.5
764.331	6.5
765.079	8.5
765.826	9.5
766.574	8.5
767.322	8.5
768.07	7.5
768.817	10.5
769.565	11.5
770.312	10.5
771.06	14.5
771.807	13.5
772.554	11.5
773.302	12.5
774.049	13.5
774.796	12.5
775.543	8.5
776.29	11.5
777.036	12.5
777.783	11.5
778.53	12.5
779.276	10.5
780.023	12.5
780.769	10.5
781.516	10.5
782.262	11.5
783.008	12.5
783.754	12.5
784.5	11.5
785.246	10.5
785.992	13.5
786.738	13.5
787.484	11.5
788.23	12.5
788.975	10.5
789.721	13.5
790.466	10.5
791.212	12.5
791.957	12.5
792.702	10.5
793.447	11.5
794.193	12.5
794.938	8.5
795.683	13.5
796.427	9.5
797.172	11.5
797.917	10.5
798.662	12.5
799.406	10.5
800.151	8.5
800.895	9.5
801.64	10.5
802.384	8.5
803.128	10.5
803.872	9.5
804.616	8.5
805.36	7.5
806.104	8.5
806.848	6.5
807.592	8.5
808.336	9.5
809.079	8.5
809.823	5.5
810.566	7.5
811.31	7.5
812.053	8.5
812.796	6.5
813.539	9.5
814.283	6.5
815.026	8.5
815.769	6.5
816.511	7.5
817.254	4.5
817.997	6.5
818.74	6.5
819.482	7.5
820.225	6.5
820.967	3.5
821.71	4.5
822.452	5.5
823.194	7.5
823.936	3.5
824.678	4.5
825.42	4.5
826.162	4.5
826.904	6.5
827.646	5.5
828.388	6.5
829.129	5.5
829.871	5.5
830.612	6.5
831.354	4.5
832.095	3.5
832.836	7.5
833.577	4.5
834.319	5.5
835.06	7.5
835.801	4.5
836.542	5.5
837.282	6.5
838.023	4.5
838.764	4.5
839.504	4.5
840.245	4.5
840.985	2.5
841.726	6.5
842.466	3.5
843.206	5.5
843.946	2.5
844.687	4.5
845.427	4.5
846.166	3.5
846.906	6.5
847.646	4.5
848.386	7.5
849.125	5.5
849.865	4.5
850.605	5.5
851.344	3.5
852.083	2.5
852.823	2.5
853.562	5.5
854.301	3.5
855.04	0.5
855.779	4.5
856.518	3.5
857.257	3.5
857.995	2.5
858.734	1.5
859.473	4.5
860.211	2.5
860.95	4.5
861.688	2.5
862.426	1.5
863.165	2.5
863.903	4.5
864.641	2.5
865.379	4.5
866.117	2.5
866.855	1.5
867.593	1.5
868.33	2.5
869.068	0.5
869.806	1.5
870.543	2.5
871.28	0.5
872.018	1.5
872.755	2.5
873.492	2.5
874.229	3.5
874.967	2.5
875.703	2.5
876.44	1.5
877.177	2.5
877.914	-2.5
878.651	2.5
879.387	1.5
880.124	2.5
880.86	1.5
881.597	2.5
882.333	2.5
883.069	2.5
883.806	0.5
884.542	2.5
885.278	0.5
886.014	1.5
886.749	2.5
887.485	2.5
888.221	2.5
888.957	3.5
889.692	-1.5
890.428	2.5
891.163	2.5
891.899	0.5
892.634	2.5
893.369	0.5
894.104	-2.5
894.839	2.5
895.574	0.5
896.309	0.5
897.044	2.5
897.779	0.5
898.514	2.5
899.248	0.5
899.983	0.5
900.717	1.5
901.452	-0.5
902.186	1.5
902.92	-0.5
903.654	2.5
904.389	-0.5
905.123	1.5
905.857	2.5
906.59	-0.5
907.324	1.5
908.058	1.5
908.792	3.5
909.525	-0.5
910.259	1.5
910.992	0.5
911.726	2.5
912.459	-0.5
913.192	0.5
913.925	0.5
914.658	-0.5
915.391	-0.5
916.124	-0.5
916.857	-1.5
917.59	-0.5
918.323	1.5
919.055	3.5
919.788	0.5
920.521	0.5
921.253	2.5
921.985	-0.5
922.718	0.5
923.45	-0.5
924.182	0.5
924.914	2.5
925.646	0.5
926.378	1.5
927.11	-1.5
927.841	2.5
928.573	1.5
929.305	-1.5
930.036	1.5
930.768	0.5
931.499	0.5
932.23	0.5
932.962	0.5
933.693	0.5
934.424	2.5
935.155	0.5
935.886	-0.5
936.617	-0.5
937.348	0.5
938.078	0.5
938.809	0.5
939.54	-2.5
940.27	1.5
941.001	-0.5
941.731	-0.5
942.461	-1.5
943.191	-1.5
943.922	1.5
944.652	1.5
945.382	2.5
946.112	2.5
946.841	-0.5
947.571	1.5
948.301	-1.5
949.031	0.5
949.76	0.5
950.49	0.5
951.219	0.5
951.948	0.5
952.678	-0.5
953.407	0.5
954.136	0.5
954.865	-2.5
955.594	0.5
956.323	2.5
957.052	-0.5
957.78	0.5
958.509	-1.5
959.238	0.5
959.966	0.5
960.695	0.5
961.423	0.5
962.151	-0.5
962.88	1.5
963.608	2.5
964.336	0.5
965.064	-2.5
965.792	2.5
966.52	0.5
967.247	0.5
967.975	0.5
968.703	0.5
969.43	-0.5
970.158	2.5
970.885	0.5
971.613	2.5
972.34	1.5
973.067	1.5
973.794	2.5
974.521	3.5
975.248	-0.5
975.975	-0.5
976.702	0.5
977.429	0.5
978.156	1.5
978.882	0.5
979.609	0.5
980.335	0.5
981.062	1.5
981.788	-0.5
982.514	2.5
983.24	-3.5
983.967	0.5
984.693	1.5
985.419	1.5
986.144	1.5
986.87	-1.5
987.596	2.5
988.322	0.5
989.047	1.5
989.773	2.5
990.498	-0.5
991.224	1.5
991.949	0.5
992.674	3.5
993.399	-2.5
994.124	2.5
994.849	1.5
995.574	1.5
996.299	-0.5
997.024	0.5
997.749	-0.5
998.473	1.5
999.198	-0.5
999.922	0.5
1000.647	0.5
1001.371	4.5
1002.095	1.5
1002.82	-1.5
1003.544	-2.5
1004.268	1.5
1004.992	1.5
1005.716	1.5
1006.439	3.5
1007.163	2.5
1007.887	4.5
1008.611	-0.5
1009.334	0.5
1010.058	1.5
1010.781	0.5
1011.504	3.5
1012.228	0.5
1012.951	-1.5
1013.674	-0.5
1014.397	-0.5
1015.12	0.5
