节点500_425_QEPB04081__269__15-52-46-962.txt的数据

Date: Wed Nov 12 15:52:46 CST 2025
User: PC
Spectrometer: QEPB0408
触发模式: 0
积分时间 (秒): 1.000000E-2
Scans to average: 1
启用暗噪声校正: true
启用非线性校正: false
滑动平均宽度: 0
X轴模式: Wavelengths
Number of Pixels in Spectrum: 1044
>>>>>Begin Spectral Data<<<<<
220.843	5.38
221.644	2.38
222.444	3.38
223.244	5.38
224.045	4.38
224.845	4.38
225.645	5.38
226.445	3.38
227.245	6.38
228.045	7.38
228.845	3.38
229.645	4.38
230.444	6.38
231.244	6.38
232.043	6.38
232.843	7.38
233.642	7.38
234.442	6.38
235.241	6.38
236.04	8.38
236.839	3.38
237.638	8.38
238.437	7.38
239.236	6.38
240.035	7.38
240.833	7.38
241.632	5.38
242.43	6.38
243.229	8.38
244.027	9.38
244.826	9.38
245.624	9.38
246.422	9.38
247.22	9.38
248.018	9.38
248.816	10.38
249.614	9.38
250.412	9.38
251.21	12.38
252.007	12.38
252.805	11.38
253.602	12.38
254.4	10.38
255.197	11.38
255.994	15.38
256.791	16.38
257.589	14.38
258.386	14.38
259.183	13.38
259.979	15.38
260.776	14.38
261.573	16.38
262.37	15.38
263.166	18.38
263.963	18.38
264.759	19.38
265.556	18.38
266.352	16.38
267.148	18.38
267.944	20.38
268.74	21.38
269.536	20.38
270.332	21.38
271.128	21.38
271.924	19.38
272.719	23.38
273.515	24.38
274.311	26.38
275.106	22.38
275.901	23.38
276.697	26.38
277.492	24.38
278.287	21.38
279.082	24.38
279.877	24.38
280.672	23.38
281.467	25.38
282.262	24.38
283.056	27.38
283.851	24.38
284.646	26.38
285.44	27.38
286.234	22.38
287.029	24.38
287.823	25.38
288.617	27.38
289.411	26.38
290.205	23.38
290.999	24.38
291.793	22.38
292.587	24.38
293.381	24.38
294.174	26.38
294.968	22.38
295.761	22.38
296.555	21.38
297.348	23.38
298.141	20.38
298.935	22.38
299.728	19.38
300.521	20.38
301.314	19.38
302.107	19.38
302.899	18.38
303.692	16.38
304.485	19.38
305.277	18.38
306.07	15.38
306.862	18.38
307.655	16.38
308.447	15.38
309.239	15.38
310.031	17.38
310.823	14.38
311.615	15.38
312.407	15.38
313.199	13.38
313.991	12.38
314.783	12.38
315.574	11.38
316.366	12.38
317.157	10.38
317.949	14.38
318.74	9.38
319.531	10.38
320.322	12.38
321.113	10.38
321.904	9.38
322.695	9.38
323.486	11.38
324.277	10.38
325.068	11.38
325.858	11.38
326.649	8.38
327.439	9.38
328.23	10.38
329.02	10.38
329.81	11.38
330.6	9.38
331.391	9.38
332.181	10.38
332.971	10.38
333.76	10.38
334.55	9.38
335.34	9.38
336.13	10.38
336.919	10.38
337.709	7.38
338.498	8.38
339.287	10.38
340.077	8.38
340.866	8.38
341.655	8.38
342.444	9.38
343.233	7.38
344.022	8.38
344.811	11.38
345.6	9.38
346.388	8.38
347.177	10.38
347.965	8.38
348.754	11.38
349.542	7.38
350.33	12.38
351.119	10.38
351.907	8.38
352.695	8.38
353.483	7.38
354.271	8.38
355.059	9.38
355.846	9.38
356.634	7.38
357.422	9.38
358.209	9.38
358.997	9.38
359.784	8.38
360.571	8.38
361.359	9.38
362.146	9.38
362.933	6.38
363.72	8.38
364.507	6.38
365.294	10.38
366.081	6.38
366.867	9.38
367.654	9.38
368.44	7.38
369.227	8.38
370.013	7.38
370.8	7.38
371.586	6.38
372.372	8.38
373.158	6.38
373.944	7.38
374.73	10.38
375.516	10.38
376.302	8.38
377.088	9.38
377.873	5.38
378.659	8.38
379.445	7.38
380.23	8.38
381.015	6.38
381.801	7.38
382.586	8.38
383.371	7.38
384.156	9.38
384.941	8.38
385.726	10.38
386.511	10.38
387.296	9.38
388.08	7.38
388.865	8.38
389.649	11.38
390.434	9.38
391.218	10.38
392.003	10.38
392.787	8.38
393.571	9.38
394.355	7.38
395.139	9.38
395.923	11.38
396.707	8.38
397.491	11.38
398.274	12.38
399.058	8.38
399.842	10.38
400.625	9.38
401.408	9.38
402.192	10.38
402.975	11.38
403.758	12.38
404.541	11.38
405.324	9.38
406.107	12.38
406.89	13.38
407.673	12.38
408.456	11.38
409.238	10.38
410.021	11.38
410.803	11.38
411.586	11.38
412.368	13.38
413.151	13.38
413.933	11.38
414.715	15.38
415.497	13.38
416.279	14.38
417.061	12.38
417.843	14.38
418.624	14.38
419.406	15.38
420.188	15.38
420.969	16.38
421.751	13.38
422.532	15.38
423.313	15.38
424.095	19.38
424.876	14.38
425.657	16.38
426.438	20.38
427.219	16.38
428	18.38
428.78	18.38
429.561	19.38
430.342	21.38
431.122	23.38
431.903	21.38
432.683	21.38
433.464	24.38
434.244	23.38
435.024	25.38
435.804	25.38
436.584	28.38
437.364	27.38
438.144	31.38
438.924	31.38
439.704	31.38
440.483	36.38
441.263	36.38
442.042	39.38
442.822	42.38
443.601	46.38
444.38	49.38
445.16	50.38
445.939	54.38
446.718	57.38
447.497	59.38
448.276	69.38
449.054	69.38
449.833	78.38
450.612	83.38
451.391	94.38
452.169	105.38
452.948	114.38
453.726	128.38
454.504	132.38
455.282	152.38
456.061	169.38
456.839	191.38
457.617	205.38
458.395	230.38
459.172	254.38
459.95	284.38
460.728	321.38
461.506	347.38
462.283	395.38
463.061	452.38
463.838	497.38
464.615	549.38
465.393	613.38
466.17	681.38
466.947	762.38
467.724	843.38
468.501	951.38
469.278	1047.38
470.055	1183.38
470.831	1307.38
471.608	1431.38
472.385	1609.38
473.161	1762.38
473.938	1946.38
474.714	2155.38
475.49	2370.38
476.266	2630.38
477.043	2872.38
477.819	3189.38
478.595	3509.38
479.371	3853.38
480.146	4239.38
480.922	4628.38
481.698	5117.38
482.473	5565.38
483.249	6116.38
484.024	6723.38
484.8	7364.38
485.575	8045.38
486.35	8795.38
487.126	9560.38
487.901	10426.38
488.676	11381.38
489.451	12382.38
490.225	13402.38
491	14584.38
491.775	15798.38
492.55	17033.38
493.324	18389.38
494.099	19707.38
494.873	21004.38
495.647	22440.38
496.422	23857.38
497.196	25382.38
497.97	26853.38
498.744	28239.38
499.518	29577.38
500.292	30857.38
501.066	31865.38
501.839	33071.38
502.613	33936.38
503.387	34731.38
504.16	35165.38
504.934	35452.38
505.707	35559.38
506.48	35347.38
507.253	35043.38
508.027	34703.38
508.8	34088.38
509.573	33317.38
510.346	32549.38
511.118	31526.38
511.891	30570.38
512.664	29434.38
513.437	28290.38
514.209	27131.38
514.982	26036.38
515.754	25031.38
516.526	23926.38
517.298	22987.38
518.071	21984.38
518.843	21084.38
519.615	20240.38
520.387	19372.38
521.159	18667.38
521.93	17959.38
522.702	17206.38
523.474	16536.38
524.245	15917.38
525.017	15146.38
525.788	14430.38
526.56	13765.38
527.331	13153.38
528.102	12583.38
528.873	11963.38
529.644	11366.38
530.415	10840.38
531.186	10373.38
531.957	9779.38
532.728	9277.38
533.498	8766.38
534.269	8244.38
535.039	7830.38
535.81	7414.38
536.58	6970.38
537.351	6590.38
538.121	6241.38
538.891	5897.38
539.661	5572.38
540.431	5305.38
541.201	5000.38
541.971	4740.38
542.741	4482.38
543.51	4286.38
544.28	4073.38
545.05	3867.38
545.819	3700.38
546.588	3497.38
547.358	3317.38
548.127	3163.38
548.896	2979.38
549.665	2826.38
550.434	2677.38
551.203	2551.38
551.972	2413.38
552.741	2294.38
553.51	2151.38
554.278	2039.38
555.047	1921.38
555.815	1813.38
556.584	1724.38
557.352	1618.38
558.121	1527.38
558.889	1438.38
559.657	1361.38
560.425	1291.38
561.193	1211.38
561.961	1151.38
562.729	1095.38
563.496	1035.38
564.264	969.38
565.032	923.38
565.799	871.38
566.567	822.38
567.334	787.38
568.101	729.38
568.869	693.38
569.636	665.38
570.403	621.38
571.17	580.38
571.937	547.38
572.704	520.38
573.471	487.38
574.237	466.38
575.004	430.38
575.771	418.38
576.537	385.38
577.303	365.38
578.07	340.38
578.836	323.38
579.602	307.38
580.368	293.38
581.134	280.38
581.9	263.38
582.666	247.38
583.432	233.38
584.198	223.38
584.964	215.38
585.729	201.38
586.495	192.38
587.26	181.38
588.025	168.38
588.791	162.38
589.556	155.38
590.321	145.38
591.086	139.38
591.851	130.38
592.616	129.38
593.381	116.38
594.146	114.38
594.911	108.38
595.675	105.38
596.44	101.38
597.204	96.38
597.969	87.38
598.733	86.38
599.497	84.38
600.261	76.38
601.025	78.38
601.79	70.38
602.553	68.38
603.317	69.38
604.081	63.38
604.845	67.38
605.609	61.38
606.372	56.38
607.136	55.38
607.899	53.38
608.662	51.38
609.426	47.38
610.189	46.38
610.952	44.38
611.715	46.38
612.478	43.38
613.241	42.38
614.004	38.38
614.767	35.38
615.529	38.38
616.292	35.38
617.055	35.38
617.817	30.38
618.579	31.38
619.342	28.38
620.104	29.38
620.866	31.38
621.628	26.38
622.39	28.38
623.152	27.38
623.914	25.38
624.676	23.38
625.438	22.38
626.199	22.38
626.961	23.38
627.722	19.38
628.484	22.38
629.245	19.38
630.006	20.38
630.768	20.38
631.529	20.38
632.29	17.38
633.051	18.38
633.812	18.38
634.573	19.38
635.333	18.38
636.094	15.38
636.855	17.38
637.615	17.38
638.376	15.38
639.136	16.38
639.896	13.38
640.657	15.38
641.417	15.38
642.177	13.38
642.937	11.38
643.697	11.38
644.457	12.38
645.216	11.38
645.976	11.38
646.736	11.38
647.495	10.38
648.255	12.38
649.014	11.38
649.774	11.38
650.533	12.38
651.292	10.38
652.051	11.38
652.81	9.38
653.569	9.38
654.328	9.38
655.087	10.38
655.846	11.38
656.604	9.38
657.363	11.38
658.121	9.38
658.88	10.38
659.638	9.38
660.397	8.38
661.155	11.38
661.913	8.38
662.671	10.38
663.429	8.38
664.187	9.38
664.945	9.38
665.703	9.38
666.46	9.38
667.218	7.38
667.976	7.38
668.733	8.38
669.49	9.38
670.248	5.38
671.005	7.38
671.762	9.38
672.519	5.38
673.276	7.38
674.033	6.38
674.79	3.38
675.547	5.38
676.304	7.38
677.06	6.38
677.817	6.38
678.574	7.38
679.33	8.38
680.086	7.38
680.843	6.38
681.599	5.38
682.355	6.38
683.111	6.38
683.867	8.38
684.623	7.38
685.379	7.38
686.135	6.38
686.89	6.38
687.646	5.38
688.402	6.38
689.157	5.38
689.912	7.38
690.668	2.38
691.423	5.38
692.178	6.38
692.933	6.38
693.688	6.38
694.443	4.38
695.198	6.38
695.953	4.38
696.708	5.38
697.462	8.38
698.217	5.38
698.972	5.38
699.726	6.38
700.48	6.38
701.235	7.38
701.989	5.38
702.743	5.38
703.497	5.38
704.251	5.38
705.005	5.38
705.759	6.38
706.513	6.38
707.266	5.38
708.02	6.38
708.774	3.38
709.527	7.38
710.28	4.38
711.034	6.38
711.787	5.38
712.54	6.38
713.293	7.38
714.046	5.38
714.799	5.38
715.552	6.38
716.305	4.38
717.058	7.38
717.81	5.38
718.563	7.38
719.315	6.38
720.068	4.38
720.82	6.38
721.573	5.38
722.325	8.38
723.077	7.38
723.829	5.38
724.581	3.38
725.333	6.38
726.085	8.38
726.836	5.38
727.588	7.38
728.34	6.38
729.091	8.38
729.843	7.38
730.594	5.38
731.346	9.38
732.097	6.38
732.848	5.38
733.599	6.38
734.35	7.38
735.101	7.38
735.852	7.38
736.603	9.38
737.354	7.38
738.104	9.38
738.855	7.38
739.605	5.38
740.356	9.38
741.106	6.38
741.856	7.38
742.607	9.38
743.357	7.38
744.107	6.38
744.857	7.38
745.607	9.38
746.357	8.38
747.106	9.38
747.856	7.38
748.606	8.38
749.355	7.38
750.105	10.38
750.854	8.38
751.603	7.38
752.353	10.38
753.102	7.38
753.851	7.38
754.6	6.38
755.349	9.38
756.098	6.38
756.847	8.38
757.595	9.38
758.344	7.38
759.093	9.38
759.841	9.38
760.589	9.38
761.338	7.38
762.086	11.38
762.834	9.38
763.582	10.38
764.331	8.38
765.079	9.38
765.826	10.38
766.574	8.38
767.322	10.38
768.07	10.38
768.817	10.38
769.565	9.38
770.312	10.38
771.06	13.38
771.807	10.38
772.554	14.38
773.302	10.38
774.049	12.38
774.796	13.38
775.543	9.38
776.29	14.38
777.036	14.38
777.783	13.38
778.53	12.38
779.276	11.38
780.023	12.38
780.769	12.38
781.516	13.38
782.262	10.38
783.008	11.38
783.754	12.38
784.5	12.38
785.246	11.38
785.992	11.38
786.738	13.38
787.484	13.38
788.23	13.38
788.975	12.38
789.721	12.38
790.466	13.38
791.212	13.38
791.957	16.38
792.702	9.38
793.447	12.38
794.193	11.38
794.938	13.38
795.683	12.38
796.427	11.38
797.172	11.38
797.917	9.38
798.662	11.38
799.406	10.38
800.151	11.38
800.895	11.38
801.64	9.38
802.384	8.38
803.128	9.38
803.872	10.38
804.616	11.38
805.36	7.38
806.104	8.38
806.848	10.38
807.592	5.38
808.336	9.38
809.079	5.38
809.823	8.38
810.566	7.38
811.31	8.38
812.053	8.38
812.796	8.38
813.539	9.38
814.283	9.38
815.026	6.38
815.769	7.38
816.511	8.38
817.254	7.38
817.997	6.38
818.74	7.38
819.482	8.38
820.225	5.38
820.967	6.38
821.71	7.38
822.452	6.38
823.194	6.38
823.936	8.38
824.678	6.38
825.42	4.38
826.162	8.38
826.904	8.38
827.646	7.38
828.388	6.38
829.129	6.38
829.871	5.38
830.612	6.38
831.354	7.38
832.095	5.38
832.836	6.38
833.577	6.38
834.319	6.38
835.06	7.38
835.801	7.38
836.542	6.38
837.282	3.38
838.023	5.38
838.764	5.38
839.504	4.38
840.245	3.38
840.985	6.38
841.726	4.38
842.466	6.38
843.206	3.38
843.946	6.38
844.687	6.38
845.427	5.38
846.166	2.38
846.906	7.38
847.646	4.38
848.386	4.38
849.125	6.38
849.865	3.38
850.605	3.38
851.344	4.38
852.083	5.38
852.823	4.38
853.562	3.38
854.301	5.38
855.04	3.38
855.779	4.38
856.518	4.38
857.257	4.38
857.995	3.38
858.734	3.38
859.473	2.38
860.211	3.38
860.95	2.38
861.688	2.38
862.426	2.38
863.165	5.38
863.903	3.38
864.641	4.38
865.379	1.38
866.117	2.38
866.855	4.38
867.593	2.38
868.33	3.38
869.068	4.38
869.806	5.38
870.543	5.38
871.28	1.38
872.018	3.38
872.755	1.38
873.492	2.38
874.229	2.38
874.967	1.38
875.703	4.38
876.44	1.38
877.177	1.38
877.914	2.38
878.651	2.38
879.387	4.38
880.124	2.38
880.86	3.38
881.597	2.38
882.333	1.38
883.069	2.38
883.806	4.38
884.542	3.38
885.278	2.38
886.014	0.38
886.749	1.38
887.485	1.38
888.221	3.38
888.957	3.38
889.692	1.38
890.428	2.38
891.163	1.38
891.899	-0.62
892.634	3.38
893.369	4.38
894.104	3.38
894.839	2.38
895.574	4.38
896.309	0.38
897.044	0.38
897.779	2.38
898.514	1.38
899.248	1.38
899.983	2.38
900.717	2.38
901.452	3.38
902.186	3.38
902.92	0.38
903.654	1.38
904.389	3.38
905.123	0.38
905.857	-0.62
906.59	1.38
907.324	0.38
908.058	3.38
908.792	0.38
909.525	1.38
910.259	1.38
910.992	4.38
911.726	0.38
912.459	3.38
913.192	5.38
913.925	2.38
914.658	2.38
915.391	1.38
916.124	0.38
916.857	2.38
917.59	2.38
918.323	1.38
919.055	1.38
919.788	2.38
920.521	0.38
921.253	1.38
921.985	1.38
922.718	1.38
923.45	2.38
924.182	0.38
924.914	2.38
925.646	-0.62
926.378	2.38
927.11	2.38
927.841	1.38
928.573	1.38
929.305	1.38
930.036	-0.62
930.768	2.38
931.499	1.38
932.23	2.38
932.962	1.38
933.693	1.38
934.424	1.38
935.155	2.38
935.886	-0.62
936.617	0.38
937.348	0.38
938.078	0.38
938.809	2.38
939.54	-0.62
940.27	0.38
941.001	0.38
941.731	-0.62
942.461	-0.62
943.191	1.38
943.922	3.38
944.652	0.38
945.382	-0.62
946.112	1.38
946.841	1.38
947.571	0.38
948.301	1.38
949.031	1.38
949.76	1.38
950.49	2.38
951.219	2.38
951.948	-0.62
952.678	1.38
953.407	3.38
954.136	0.38
954.865	0.38
955.594	1.38
956.323	1.38
957.052	2.38
957.78	2.38
958.509	2.38
959.238	0.38
959.966	2.38
960.695	0.38
961.423	1.38
962.151	2.38
962.88	-0.62
963.608	2.38
964.336	2.38
965.064	1.38
965.792	3.38
966.52	1.38
967.247	1.38
967.975	-0.62
968.703	2.38
969.43	3.38
970.158	1.38
970.885	0.38
971.613	-0.62
972.34	2.38
973.067	0.38
973.794	1.38
974.521	1.38
975.248	2.38
975.975	0.38
976.702	-1.62
977.429	2.38
978.156	0.38
978.882	0.38
979.609	2.38
980.335	0.38
981.062	1.38
981.788	-0.62
982.514	-0.62
983.24	2.38
983.967	2.38
984.693	0.38
985.419	-0.62
986.144	1.38
986.87	1.38
987.596	1.38
988.322	1.38
989.047	0.38
989.773	2.38
990.498	-0.62
991.224	1.38
991.949	1.38
992.674	-0.62
993.399	2.38
994.124	3.38
994.849	2.38
995.574	1.38
996.299	1.38
997.024	1.38
997.749	3.38
998.473	2.38
999.198	0.38
999.922	3.38
1000.647	0.38
1001.371	2.38
1002.095	-0.62
1002.82	-2.62
1003.544	0.38
1004.268	4.38
1004.992	4.38
1005.716	6.38
1006.439	3.38
1007.163	7.38
1007.887	4.38
1008.611	1.38
1009.334	2.38
1010.058	0.38
1010.781	2.38
1011.504	1.38
1012.228	1.38
1012.951	1.38
1013.674	0.38
1014.397	-0.62
1015.12	-0.62
