节点500_425_QEPB04081__188__15-51-26-119.txt的数据

Date: Wed Nov 12 15:51:26 CST 2025
User: PC
Spectrometer: QEPB0408
触发模式: 0
积分时间 (秒): 1.000000E-2
Scans to average: 1
启用暗噪声校正: true
启用非线性校正: false
滑动平均宽度: 0
X轴模式: Wavelengths
Number of Pixels in Spectrum: 1044
>>>>>Begin Spectral Data<<<<<
220.843	5
221.644	1
222.444	6
223.244	3
224.045	6
224.845	5
225.645	3
226.445	5
227.245	4
228.045	6
228.845	1
229.645	4
230.444	6
231.244	6
232.043	7
232.843	7
233.642	8
234.442	6
235.241	8
236.04	8
236.839	6
237.638	7
238.437	6
239.236	6
240.035	9
240.833	7
241.632	8
242.43	10
243.229	9
244.027	9
244.826	8
245.624	10
246.422	8
247.22	9
248.018	11
248.816	11
249.614	12
250.412	10
251.21	11
252.007	11
252.805	10
253.602	14
254.4	11
255.197	14
255.994	12
256.791	14
257.589	15
258.386	13
259.183	15
259.979	15
260.776	16
261.573	16
262.37	18
263.166	19
263.963	17
264.759	20
265.556	20
266.352	19
267.148	19
267.944	18
268.74	22
269.536	20
270.332	24
271.128	24
271.924	23
272.719	26
273.515	23
274.311	22
275.106	24
275.901	23
276.697	24
277.492	24
278.287	26
279.082	26
279.877	28
280.672	25
281.467	27
282.262	24
283.056	26
283.851	25
284.646	27
285.44	26
286.234	23
287.029	25
287.823	28
288.617	25
289.411	26
290.205	23
290.999	26
291.793	24
292.587	24
293.381	23
294.174	24
294.968	24
295.761	22
296.555	20
297.348	19
298.141	21
298.935	21
299.728	18
300.521	23
301.314	21
302.107	19
302.899	18
303.692	16
304.485	18
305.277	18
306.07	19
306.862	17
307.655	15
308.447	18
309.239	18
310.031	15
310.823	16
311.615	15
312.407	13
313.199	15
313.991	14
314.783	13
315.574	14
316.366	14
317.157	11
317.949	13
318.74	12
319.531	15
320.322	11
321.113	13
321.904	11
322.695	10
323.486	11
324.277	12
325.068	10
325.858	8
326.649	10
327.439	11
328.23	9
329.02	12
329.81	9
330.6	9
331.391	10
332.181	10
332.971	10
333.76	8
334.55	10
335.34	12
336.13	8
336.919	9
337.709	7
338.498	11
339.287	10
340.077	9
340.866	11
341.655	10
342.444	10
343.233	8
344.022	9
344.811	8
345.6	9
346.388	8
347.177	10
347.965	9
348.754	8
349.542	7
350.33	9
351.119	9
351.907	9
352.695	10
353.483	6
354.271	7
355.059	7
355.846	9
356.634	7
357.422	11
358.209	10
358.997	10
359.784	8
360.571	8
361.359	8
362.146	8
362.933	6
363.72	9
364.507	5
365.294	9
366.081	6
366.867	6
367.654	7
368.44	9
369.227	8
370.013	6
370.8	9
371.586	8
372.372	5
373.158	5
373.944	7
374.73	9
375.516	8
376.302	8
377.088	7
377.873	10
378.659	7
379.445	8
380.23	7
381.015	7
381.801	8
382.586	10
383.371	7
384.156	6
384.941	8
385.726	11
386.511	8
387.296	9
388.08	9
388.865	6
389.649	9
390.434	10
391.218	7
392.003	8
392.787	10
393.571	9
394.355	6
395.139	11
395.923	8
396.707	8
397.491	12
398.274	9
399.058	10
399.842	11
400.625	11
401.408	10
402.192	10
402.975	8
403.758	12
404.541	13
405.324	11
406.107	12
406.89	13
407.673	11
408.456	11
409.238	11
410.021	13
410.803	12
411.586	13
412.368	12
413.151	14
413.933	13
414.715	13
415.497	13
416.279	15
417.061	15
417.843	14
418.624	13
419.406	16
420.188	16
420.969	15
421.751	14
422.532	15
423.313	16
424.095	17
424.876	18
425.657	17
426.438	17
427.219	17
428	17
428.78	17
429.561	21
430.342	18
431.122	21
431.903	21
432.683	25
433.464	24
434.244	24
435.024	26
435.804	25
436.584	27
437.364	27
438.144	29
438.924	29
439.704	35
440.483	35
441.263	36
442.042	41
442.822	39
443.601	44
444.38	47
445.16	48
445.939	54
446.718	56
447.497	62
448.276	65
449.054	73
449.833	79
450.612	87
451.391	94
452.169	98
452.948	112
453.726	119
454.504	135
455.282	149
456.061	162
456.839	178
457.617	204
458.395	223
459.172	255
459.95	275
460.728	312
461.506	344
462.283	389
463.061	435
463.838	478
464.615	549
465.393	613
466.17	672
466.947	753
467.724	835
468.501	923
469.278	1045
470.055	1162
470.831	1275
471.608	1435
472.385	1594
473.161	1751
473.938	1953
474.714	2143
475.49	2377
476.266	2629
477.043	2883
477.819	3195
478.595	3542
479.371	3879
480.146	4271
480.922	4691
481.698	5194
482.473	5661
483.249	6233
484.024	6825
484.8	7525
485.575	8188
486.35	8964
487.126	9782
487.901	10729
488.676	11681
489.451	12755
490.225	13888
491	15036
491.775	16308
492.55	17616
493.324	18989
494.099	20385
494.873	21766
495.647	23249
496.422	24789
497.196	26272
497.97	27778
498.744	29213
499.518	30519
500.292	31847
501.066	32955
501.839	34002
502.613	34928
503.387	35575
504.16	36047
504.934	36303
505.707	36280
506.48	35997
507.253	35652
508.027	35156
508.8	34581
509.573	33780
510.346	32828
511.118	31797
511.891	30759
512.664	29553
513.437	28365
514.209	27153
514.982	26142
515.754	25043
516.526	23959
517.298	22898
518.071	21940
518.843	21051
519.615	20136
520.387	19358
521.159	18687
521.93	17928
522.702	17244
523.474	16536
524.245	15855
525.017	15110
525.788	14421
526.56	13808
527.331	13143
528.102	12539
528.873	11886
529.644	11340
530.415	10773
531.186	10264
531.957	9704
532.728	9185
533.498	8650
534.269	8176
535.039	7757
535.81	7324
536.58	6909
537.351	6484
538.121	6129
538.891	5820
539.661	5537
540.431	5273
541.201	4976
541.971	4715
542.741	4438
543.51	4237
544.28	4019
545.05	3831
545.819	3662
546.588	3452
547.358	3269
548.127	3094
548.896	2954
549.665	2811
550.434	2669
551.203	2534
551.972	2378
552.741	2262
553.51	2112
554.278	2020
555.047	1892
555.815	1783
556.584	1700
557.352	1588
558.121	1512
558.889	1422
559.657	1342
560.425	1262
561.193	1182
561.961	1131
562.729	1078
563.496	1011
564.264	943
565.032	917
565.799	856
566.567	810
567.334	763
568.101	724
568.869	682
569.636	641
570.403	610
571.17	582
571.937	541
572.704	517
573.471	487
574.237	461
575.004	431
575.771	400
576.537	388
577.303	358
578.07	345
578.836	321
579.602	303
580.368	283
581.134	278
581.9	258
582.666	241
583.432	234
584.198	214
584.964	215
585.729	196
586.495	183
587.26	179
588.025	167
588.791	161
589.556	151
590.321	144
591.086	141
591.851	127
592.616	126
593.381	118
594.146	110
594.911	110
595.675	106
596.44	99
597.204	97
597.969	89
598.733	84
599.497	82
600.261	77
601.025	74
601.79	74
602.553	69
603.317	63
604.081	63
604.845	59
605.609	61
606.372	55
607.136	54
607.899	51
608.662	52
609.426	47
610.189	46
610.952	44
611.715	44
612.478	44
613.241	37
614.004	38
614.767	37
615.529	35
616.292	35
617.055	33
617.817	34
618.579	33
619.342	28
620.104	28
620.866	29
621.628	25
622.39	28
623.152	23
623.914	24
624.676	25
625.438	26
626.199	22
626.961	23
627.722	21
628.484	20
629.245	21
630.006	17
630.768	20
631.529	19
632.29	17
633.051	18
633.812	18
634.573	18
635.333	16
636.094	16
636.855	15
637.615	16
638.376	13
639.136	16
639.896	12
640.657	13
641.417	11
642.177	15
642.937	10
643.697	13
644.457	14
645.216	13
645.976	11
646.736	11
647.495	13
648.255	11
649.014	11
649.774	12
650.533	9
651.292	8
652.051	10
652.81	11
653.569	7
654.328	10
655.087	9
655.846	8
656.604	8
657.363	9
658.121	8
658.88	9
659.638	9
660.397	9
661.155	10
661.913	5
662.671	5
663.429	8
664.187	8
664.945	10
665.703	8
666.46	9
667.218	8
667.976	7
668.733	8
669.49	9
670.248	8
671.005	7
671.762	6
672.519	9
673.276	6
674.033	5
674.79	8
675.547	6
676.304	8
677.06	8
677.817	7
678.574	7
679.33	7
680.086	8
680.843	5
681.599	8
682.355	7
683.111	9
683.867	8
684.623	5
685.379	9
686.135	7
686.89	5
687.646	4
688.402	4
689.157	6
689.912	7
690.668	6
691.423	5
692.178	6
692.933	5
693.688	5
694.443	6
695.198	6
695.953	5
696.708	9
697.462	8
698.217	6
698.972	5
699.726	1
700.48	4
701.235	6
701.989	6
702.743	4
703.497	7
704.251	5
705.005	7
705.759	5
706.513	3
707.266	6
708.02	4
708.774	7
709.527	6
710.28	4
711.034	6
711.787	6
712.54	4
713.293	5
714.046	6
714.799	7
715.552	5
716.305	5
717.058	8
717.81	6
718.563	7
719.315	6
720.068	5
720.82	6
721.573	6
722.325	5
723.077	5
723.829	7
724.581	6
725.333	5
726.085	4
726.836	8
727.588	5
728.34	7
729.091	7
729.843	8
730.594	8
731.346	3
732.097	7
732.848	7
733.599	6
734.35	8
735.101	4
735.852	5
736.603	7
737.354	7
738.104	7
738.855	7
739.605	8
740.356	7
741.106	10
741.856	7
742.607	8
743.357	9
744.107	8
744.857	8
745.607	8
746.357	9
747.106	7
747.856	8
748.606	10
749.355	10
750.105	9
750.854	8
751.603	8
752.353	9
753.102	8
753.851	9
754.6	7
755.349	11
756.098	11
756.847	8
757.595	8
758.344	10
759.093	10
759.841	7
760.589	13
761.338	13
762.086	8
762.834	10
763.582	11
764.331	8
765.079	9
765.826	11
766.574	12
767.322	12
768.07	13
768.817	9
769.565	12
770.312	12
771.06	9
771.807	13
772.554	8
773.302	14
774.049	12
774.796	11
775.543	11
776.29	13
777.036	13
777.783	10
778.53	12
779.276	14
780.023	12
780.769	11
781.516	13
782.262	12
783.008	11
783.754	13
784.5	14
785.246	11
785.992	11
786.738	11
787.484	11
788.23	11
788.975	9
789.721	13
790.466	9
791.212	14
791.957	13
792.702	10
793.447	12
794.193	13
794.938	10
795.683	11
796.427	11
797.172	11
797.917	11
798.662	9
799.406	10
800.151	14
800.895	10
801.64	11
802.384	10
803.128	10
803.872	11
804.616	8
805.36	6
806.104	9
806.848	10
807.592	9
808.336	7
809.079	7
809.823	8
810.566	8
811.31	6
812.053	6
812.796	6
813.539	9
814.283	8
815.026	6
815.769	6
816.511	7
817.254	6
817.997	8
818.74	3
819.482	10
820.225	5
820.967	8
821.71	5
822.452	7
823.194	7
823.936	9
824.678	6
825.42	6
826.162	2
826.904	5
827.646	5
828.388	7
829.129	3
829.871	5
830.612	5
831.354	6
832.095	6
832.836	5
833.577	5
834.319	5
835.06	5
835.801	6
836.542	7
837.282	5
838.023	5
838.764	3
839.504	5
840.245	6
840.985	3
841.726	5
842.466	6
843.206	5
843.946	3
844.687	4
845.427	6
846.166	5
846.906	4
847.646	5
848.386	3
849.125	5
849.865	7
850.605	3
851.344	5
852.083	5
852.823	1
853.562	4
854.301	1
855.04	3
855.779	3
856.518	3
857.257	5
857.995	4
858.734	6
859.473	3
860.211	4
860.95	2
861.688	5
862.426	3
863.165	0
863.903	3
864.641	5
865.379	2
866.117	3
866.855	3
867.593	4
868.33	2
869.068	4
869.806	3
870.543	1
871.28	0
872.018	1
872.755	4
873.492	5
874.229	3
874.967	0
875.703	0
876.44	2
877.177	2
877.914	2
878.651	3
879.387	-1
880.124	2
880.86	1
881.597	1
882.333	2
883.069	1
883.806	5
884.542	1
885.278	3
886.014	2
886.749	0
887.485	3
888.221	1
888.957	4
889.692	2
890.428	4
891.163	2
891.899	3
892.634	3
893.369	1
894.104	2
894.839	2
895.574	1
896.309	2
897.044	-1
897.779	2
898.514	2
899.248	3
899.983	2
900.717	1
901.452	0
902.186	3
902.92	3
903.654	3
904.389	1
905.123	3
905.857	1
906.59	0
907.324	2
908.058	1
908.792	3
909.525	2
910.259	0
910.992	0
911.726	1
912.459	2
913.192	1
913.925	0
914.658	0
915.391	3
916.124	2
916.857	0
917.59	-1
918.323	1
919.055	0
919.788	0
920.521	3
921.253	1
921.985	1
922.718	2
923.45	0
924.182	3
924.914	3
925.646	2
926.378	-1
927.11	-1
927.841	2
928.573	-1
929.305	-1
930.036	1
930.768	2
931.499	1
932.23	2
932.962	0
933.693	-2
934.424	1
935.155	0
935.886	0
936.617	2
937.348	2
938.078	0
938.809	0
939.54	1
940.27	0
941.001	0
941.731	-1
942.461	0
943.191	0
943.922	0
944.652	0
945.382	1
946.112	0
946.841	2
947.571	1
948.301	2
949.031	1
949.76	0
950.49	1
951.219	-2
951.948	2
952.678	1
953.407	-1
954.136	1
954.865	-1
955.594	1
956.323	0
957.052	1
957.78	2
958.509	0
959.238	3
959.966	1
960.695	3
961.423	0
962.151	3
962.88	3
963.608	-1
964.336	1
965.064	1
965.792	1
966.52	0
967.247	-1
967.975	2
968.703	-1
969.43	0
970.158	0
970.885	3
971.613	1
972.34	0
973.067	0
973.794	2
974.521	-1
975.248	2
975.975	1
976.702	1
977.429	1
978.156	0
978.882	1
979.609	1
980.335	1
981.062	1
981.788	-1
982.514	2
983.24	2
983.967	0
984.693	1
985.419	2
986.144	1
986.87	1
987.596	1
988.322	2
989.047	4
989.773	0
990.498	1
991.224	1
991.949	3
992.674	2
993.399	1
994.124	1
994.849	1
995.574	1
996.299	-1
997.024	-1
997.749	2
998.473	1
999.198	2
999.922	0
1000.647	0
1001.371	6
1002.095	-1
1002.82	-1
1003.544	-1
1004.268	5
1004.992	4
1005.716	3
1006.439	3
1007.163	3
1007.887	4
1008.611	4
1009.334	3
1010.058	-1
1010.781	-1
1011.504	1
1012.228	0
1012.951	0
1013.674	1
1014.397	-1
1015.12	-3
