节点500_425_QEPB04081__482__15-56-19-566.txt的数据

Date: Wed Nov 12 15:56:19 CST 2025
User: PC
Spectrometer: QEPB0408
触发模式: 0
积分时间 (秒): 1.000000E-2
Scans to average: 1
启用暗噪声校正: true
启用非线性校正: false
滑动平均宽度: 0
X轴模式: Wavelengths
Number of Pixels in Spectrum: 1044
>>>>>Begin Spectral Data<<<<<
220.843	0.62
221.644	1.62
222.444	3.62
223.244	1.62
224.045	2.62
224.845	3.62
225.645	1.62
226.445	2.62
227.245	4.62
228.045	3.62
228.845	4.62
229.645	3.62
230.444	2.62
231.244	6.62
232.043	2.62
232.843	5.62
233.642	4.62
234.442	5.62
235.241	4.62
236.04	3.62
236.839	5.62
237.638	4.62
238.437	8.62
239.236	5.62
240.035	5.62
240.833	5.62
241.632	5.62
242.43	6.62
243.229	8.62
244.027	6.62
244.826	8.62
245.624	4.62
246.422	8.62
247.22	8.62
248.018	7.62
248.816	8.62
249.614	8.62
250.412	10.62
251.21	9.62
252.007	9.62
252.805	6.62
253.602	8.62
254.4	8.62
255.197	9.62
255.994	12.62
256.791	9.62
257.589	11.62
258.386	11.62
259.183	11.62
259.979	11.62
260.776	13.62
261.573	13.62
262.37	11.62
263.166	14.62
263.963	15.62
264.759	13.62
265.556	14.62
266.352	17.62
267.148	13.62
267.944	15.62
268.74	14.62
269.536	17.62
270.332	19.62
271.128	20.62
271.924	19.62
272.719	19.62
273.515	21.62
274.311	20.62
275.106	19.62
275.901	18.62
276.697	17.62
277.492	22.62
278.287	24.62
279.082	22.62
279.877	19.62
280.672	24.62
281.467	21.62
282.262	21.62
283.056	21.62
283.851	21.62
284.646	24.62
285.44	23.62
286.234	22.62
287.029	22.62
287.823	24.62
288.617	22.62
289.411	18.62
290.205	19.62
290.999	19.62
291.793	21.62
292.587	21.62
293.381	18.62
294.174	24.62
294.968	21.62
295.761	17.62
296.555	17.62
297.348	18.62
298.141	16.62
298.935	20.62
299.728	18.62
300.521	19.62
301.314	17.62
302.107	17.62
302.899	15.62
303.692	15.62
304.485	16.62
305.277	14.62
306.07	15.62
306.862	17.62
307.655	16.62
308.447	14.62
309.239	19.62
310.031	13.62
310.823	14.62
311.615	13.62
312.407	11.62
313.199	9.62
313.991	10.62
314.783	11.62
315.574	11.62
316.366	10.62
317.157	12.62
317.949	7.62
318.74	11.62
319.531	9.62
320.322	8.62
321.113	9.62
321.904	8.62
322.695	12.62
323.486	10.62
324.277	8.62
325.068	9.62
325.858	7.62
326.649	7.62
327.439	6.62
328.23	6.62
329.02	8.62
329.81	6.62
330.6	9.62
331.391	5.62
332.181	6.62
332.971	10.62
333.76	8.62
334.55	7.62
335.34	7.62
336.13	6.62
336.919	7.62
337.709	8.62
338.498	6.62
339.287	5.62
340.077	6.62
340.866	8.62
341.655	6.62
342.444	9.62
343.233	7.62
344.022	7.62
344.811	6.62
345.6	4.62
346.388	8.62
347.177	6.62
347.965	6.62
348.754	7.62
349.542	6.62
350.33	8.62
351.119	7.62
351.907	4.62
352.695	6.62
353.483	6.62
354.271	6.62
355.059	9.62
355.846	6.62
356.634	7.62
357.422	7.62
358.209	5.62
358.997	7.62
359.784	7.62
360.571	5.62
361.359	7.62
362.146	6.62
362.933	6.62
363.72	4.62
364.507	7.62
365.294	7.62
366.081	6.62
366.867	4.62
367.654	6.62
368.44	5.62
369.227	5.62
370.013	5.62
370.8	4.62
371.586	6.62
372.372	7.62
373.158	4.62
373.944	6.62
374.73	5.62
375.516	7.62
376.302	5.62
377.088	6.62
377.873	4.62
378.659	5.62
379.445	4.62
380.23	7.62
381.015	5.62
381.801	3.62
382.586	4.62
383.371	7.62
384.156	7.62
384.941	5.62
385.726	8.62
386.511	5.62
387.296	7.62
388.08	8.62
388.865	7.62
389.649	7.62
390.434	4.62
391.218	6.62
392.003	5.62
392.787	8.62
393.571	6.62
394.355	9.62
395.139	6.62
395.923	5.62
396.707	6.62
397.491	5.62
398.274	8.62
399.058	7.62
399.842	8.62
400.625	9.62
401.408	8.62
402.192	7.62
402.975	7.62
403.758	11.62
404.541	8.62
405.324	8.62
406.107	8.62
406.89	6.62
407.673	10.62
408.456	9.62
409.238	10.62
410.021	10.62
410.803	9.62
411.586	9.62
412.368	11.62
413.151	13.62
413.933	9.62
414.715	12.62
415.497	10.62
416.279	11.62
417.061	11.62
417.843	9.62
418.624	10.62
419.406	11.62
420.188	9.62
420.969	14.62
421.751	11.62
422.532	13.62
423.313	13.62
424.095	13.62
424.876	12.62
425.657	17.62
426.438	17.62
427.219	15.62
428	13.62
428.78	17.62
429.561	18.62
430.342	18.62
431.122	17.62
431.903	20.62
432.683	19.62
433.464	21.62
434.244	21.62
435.024	21.62
435.804	28.62
436.584	23.62
437.364	27.62
438.144	26.62
438.924	26.62
439.704	31.62
440.483	30.62
441.263	35.62
442.042	40.62
442.822	39.62
443.601	42.62
444.38	46.62
445.16	50.62
445.939	52.62
446.718	56.62
447.497	65.62
448.276	65.62
449.054	70.62
449.833	81.62
450.612	86.62
451.391	93.62
452.169	104.62
452.948	117.62
453.726	129.62
454.504	148.62
455.282	160.62
456.061	174.62
456.839	200.62
457.617	220.62
458.395	243.62
459.172	273.62
459.95	306.62
460.728	330.62
461.506	381.62
462.283	424.62
463.061	466.62
463.838	520.62
464.615	583.62
465.393	653.62
466.17	718.62
466.947	797.62
467.724	881.62
468.501	981.62
469.278	1085.62
470.055	1189.62
470.831	1324.62
471.608	1472.62
472.385	1615.62
473.161	1767.62
473.938	1963.62
474.714	2161.62
475.49	2370.62
476.266	2615.62
477.043	2838.62
477.819	3135.62
478.595	3457.62
479.371	3760.62
480.146	4109.62
480.922	4501.62
481.698	4897.62
482.473	5358.62
483.249	5838.62
484.024	6375.62
484.8	6967.62
485.575	7562.62
486.35	8234.62
487.126	8924.62
487.901	9666.62
488.676	10492.62
489.451	11409.62
490.225	12317.62
491	13325.62
491.775	14441.62
492.55	15515.62
493.324	16634.62
494.099	17793.62
494.873	19069.62
495.647	20308.62
496.422	21556.62
497.196	22871.62
497.97	24317.62
498.744	25629.62
499.518	26859.62
500.292	28028.62
501.066	29163.62
501.839	30310.62
502.613	31296.62
503.387	32032.62
504.16	32680.62
504.934	33221.62
505.707	33318.62
506.48	33414.62
507.253	33355.62
508.027	33245.62
508.8	32910.62
509.573	32382.62
510.346	31679.62
511.118	30922.62
511.891	30171.62
512.664	29202.62
513.437	28121.62
514.209	27197.62
514.982	26239.62
515.754	25207.62
516.526	24205.62
517.298	23160.62
518.071	22229.62
518.843	21363.62
519.615	20514.62
520.387	19686.62
521.159	18967.62
521.93	18226.62
522.702	17491.62
523.474	16811.62
524.245	16202.62
525.017	15434.62
525.788	14764.62
526.56	14126.62
527.331	13483.62
528.102	12918.62
528.873	12284.62
529.644	11673.62
530.415	11229.62
531.186	10669.62
531.957	10151.62
532.728	9626.62
533.498	9096.62
534.269	8611.62
535.039	8161.62
535.81	7768.62
536.58	7319.62
537.351	6914.62
538.121	6506.62
538.891	6172.62
539.661	5876.62
540.431	5586.62
541.201	5265.62
541.971	4976.62
542.741	4708.62
543.51	4513.62
544.28	4266.62
545.05	4058.62
545.819	3888.62
546.588	3677.62
547.358	3468.62
548.127	3301.62
548.896	3143.62
549.665	2984.62
550.434	2841.62
551.203	2683.62
551.972	2525.62
552.741	2416.62
553.51	2287.62
554.278	2142.62
555.047	2020.62
555.815	1905.62
556.584	1813.62
557.352	1721.62
558.121	1613.62
558.889	1528.62
559.657	1441.62
560.425	1365.62
561.193	1287.62
561.961	1212.62
562.729	1163.62
563.496	1097.62
564.264	1035.62
565.032	979.62
565.799	932.62
566.567	862.62
567.334	834.62
568.101	782.62
568.869	747.62
569.636	697.62
570.403	653.62
571.17	607.62
571.937	581.62
572.704	555.62
573.471	518.62
574.237	496.62
575.004	463.62
575.771	441.62
576.537	402.62
577.303	390.62
578.07	362.62
578.836	347.62
579.602	324.62
580.368	311.62
581.134	299.62
581.9	279.62
582.666	269.62
583.432	250.62
584.198	235.62
584.964	228.62
585.729	211.62
586.495	197.62
587.26	185.62
588.025	176.62
588.791	173.62
589.556	158.62
590.321	155.62
591.086	145.62
591.851	131.62
592.616	135.62
593.381	121.62
594.146	121.62
594.911	111.62
595.675	108.62
596.44	103.62
597.204	98.62
597.969	94.62
598.733	90.62
599.497	85.62
600.261	82.62
601.025	78.62
601.79	77.62
602.553	71.62
603.317	69.62
604.081	63.62
604.845	61.62
605.609	60.62
606.372	56.62
607.136	55.62
607.899	56.62
608.662	56.62
609.426	48.62
610.189	49.62
610.952	43.62
611.715	43.62
612.478	40.62
613.241	37.62
614.004	42.62
614.767	37.62
615.529	34.62
616.292	33.62
617.055	31.62
617.817	31.62
618.579	33.62
619.342	30.62
620.104	29.62
620.866	30.62
621.628	31.62
622.39	23.62
623.152	24.62
623.914	25.62
624.676	22.62
625.438	23.62
626.199	21.62
626.961	19.62
627.722	17.62
628.484	15.62
629.245	19.62
630.006	18.62
630.768	17.62
631.529	18.62
632.29	19.62
633.051	16.62
633.812	19.62
634.573	17.62
635.333	15.62
636.094	14.62
636.855	12.62
637.615	14.62
638.376	14.62
639.136	11.62
639.896	13.62
640.657	11.62
641.417	11.62
642.177	11.62
642.937	13.62
643.697	11.62
644.457	9.62
645.216	10.62
645.976	9.62
646.736	9.62
647.495	7.62
648.255	9.62
649.014	10.62
649.774	10.62
650.533	10.62
651.292	9.62
652.051	11.62
652.81	9.62
653.569	7.62
654.328	6.62
655.087	6.62
655.846	8.62
656.604	5.62
657.363	6.62
658.121	7.62
658.88	5.62
659.638	8.62
660.397	6.62
661.155	7.62
661.913	6.62
662.671	6.62
663.429	6.62
664.187	5.62
664.945	6.62
665.703	4.62
666.46	3.62
667.218	6.62
667.976	2.62
668.733	6.62
669.49	5.62
670.248	7.62
671.005	7.62
671.762	6.62
672.519	5.62
673.276	3.62
674.033	6.62
674.79	6.62
675.547	6.62
676.304	6.62
677.06	5.62
677.817	6.62
678.574	6.62
679.33	5.62
680.086	4.62
680.843	2.62
681.599	4.62
682.355	6.62
683.111	4.62
683.867	3.62
684.623	3.62
685.379	5.62
686.135	3.62
686.89	4.62
687.646	4.62
688.402	5.62
689.157	4.62
689.912	5.62
690.668	3.62
691.423	2.62
692.178	6.62
692.933	4.62
693.688	5.62
694.443	3.62
695.198	3.62
695.953	4.62
696.708	2.62
697.462	5.62
698.217	3.62
698.972	4.62
699.726	3.62
700.48	2.62
701.235	5.62
701.989	0.62
702.743	5.62
703.497	5.62
704.251	1.62
705.005	4.62
705.759	2.62
706.513	3.62
707.266	4.62
708.02	3.62
708.774	1.62
709.527	5.62
710.28	5.62
711.034	2.62
711.787	3.62
712.54	4.62
713.293	4.62
714.046	4.62
714.799	4.62
715.552	7.62
716.305	4.62
717.058	6.62
717.81	3.62
718.563	7.62
719.315	4.62
720.068	3.62
720.82	4.62
721.573	4.62
722.325	4.62
723.077	3.62
723.829	4.62
724.581	5.62
725.333	2.62
726.085	3.62
726.836	2.62
727.588	3.62
728.34	5.62
729.091	3.62
729.843	6.62
730.594	4.62
731.346	3.62
732.097	4.62
732.848	4.62
733.599	4.62
734.35	4.62
735.101	3.62
735.852	6.62
736.603	3.62
737.354	3.62
738.104	3.62
738.855	5.62
739.605	3.62
740.356	5.62
741.106	5.62
741.856	3.62
742.607	6.62
743.357	3.62
744.107	5.62
744.857	3.62
745.607	5.62
746.357	3.62
747.106	5.62
747.856	6.62
748.606	4.62
749.355	5.62
750.105	5.62
750.854	5.62
751.603	4.62
752.353	6.62
753.102	5.62
753.851	6.62
754.6	5.62
755.349	6.62
756.098	6.62
756.847	7.62
757.595	7.62
758.344	3.62
759.093	6.62
759.841	7.62
760.589	8.62
761.338	6.62
762.086	5.62
762.834	7.62
763.582	9.62
764.331	9.62
765.079	7.62
765.826	10.62
766.574	8.62
767.322	5.62
768.07	7.62
768.817	4.62
769.565	10.62
770.312	8.62
771.06	10.62
771.807	8.62
772.554	7.62
773.302	7.62
774.049	7.62
774.796	8.62
775.543	11.62
776.29	9.62
777.036	12.62
777.783	9.62
778.53	8.62
779.276	7.62
780.023	11.62
780.769	9.62
781.516	8.62
782.262	11.62
783.008	9.62
783.754	11.62
784.5	9.62
785.246	8.62
785.992	10.62
786.738	9.62
787.484	10.62
788.23	9.62
788.975	8.62
789.721	13.62
790.466	7.62
791.212	11.62
791.957	9.62
792.702	10.62
793.447	8.62
794.193	5.62
794.938	10.62
795.683	8.62
796.427	9.62
797.172	10.62
797.917	7.62
798.662	8.62
799.406	8.62
800.151	7.62
800.895	5.62
801.64	8.62
802.384	7.62
803.128	6.62
803.872	9.62
804.616	5.62
805.36	8.62
806.104	8.62
806.848	6.62
807.592	9.62
808.336	6.62
809.079	5.62
809.823	7.62
810.566	7.62
811.31	7.62
812.053	6.62
812.796	7.62
813.539	3.62
814.283	5.62
815.026	6.62
815.769	8.62
816.511	5.62
817.254	6.62
817.997	5.62
818.74	1.62
819.482	7.62
820.225	3.62
820.967	5.62
821.71	5.62
822.452	3.62
823.194	5.62
823.936	4.62
824.678	3.62
825.42	3.62
826.162	3.62
826.904	4.62
827.646	3.62
828.388	5.62
829.129	4.62
829.871	2.62
830.612	4.62
831.354	5.62
832.095	3.62
832.836	3.62
833.577	5.62
834.319	4.62
835.06	2.62
835.801	5.62
836.542	3.62
837.282	4.62
838.023	3.62
838.764	0.62
839.504	3.62
840.245	2.62
840.985	2.62
841.726	2.62
842.466	2.62
843.206	1.62
843.946	4.62
844.687	2.62
845.427	2.62
846.166	2.62
846.906	3.62
847.646	1.62
848.386	5.62
849.125	1.62
849.865	2.62
850.605	3.62
851.344	2.62
852.083	3.62
852.823	0.62
853.562	4.62
854.301	3.62
855.04	1.62
855.779	1.62
856.518	-1.38
857.257	3.62
857.995	2.62
858.734	1.62
859.473	2.62
860.211	6.62
860.95	-0.38
861.688	-0.38
862.426	0.62
863.165	-0.38
863.903	4.62
864.641	0.62
865.379	2.62
866.117	2.62
866.855	0.62
867.593	2.62
868.33	1.62
869.068	2.62
869.806	0.62
870.543	0.62
871.28	0.62
872.018	0.62
872.755	2.62
873.492	0.62
874.229	-1.38
874.967	0.62
875.703	0.62
876.44	2.62
877.177	0.62
877.914	1.62
878.651	1.62
879.387	0.62
880.124	-0.38
880.86	-0.38
881.597	0.62
882.333	-0.38
883.069	-0.38
883.806	1.62
884.542	0.62
885.278	1.62
886.014	1.62
886.749	2.62
887.485	0.62
888.221	1.62
888.957	-0.38
889.692	-3.38
890.428	0.62
891.163	-0.38
891.899	0.62
892.634	0.62
893.369	0.62
894.104	-0.38
894.839	-0.38
895.574	2.62
896.309	0.62
897.044	0.62
897.779	-0.38
898.514	-0.38
899.248	1.62
899.983	-1.38
900.717	-0.38
901.452	-0.38
902.186	-0.38
902.92	-0.38
903.654	-0.38
904.389	-0.38
905.123	-2.38
905.857	-0.38
906.59	1.62
907.324	0.62
908.058	1.62
908.792	-2.38
909.525	-0.38
910.259	-0.38
910.992	-2.38
911.726	0.62
912.459	-3.38
913.192	-0.38
913.925	0.62
914.658	-2.38
915.391	-2.38
916.124	-1.38
916.857	1.62
917.59	-0.38
918.323	0.62
919.055	-0.38
919.788	0.62
920.521	0.62
921.253	-1.38
921.985	1.62
922.718	-2.38
923.45	1.62
924.182	1.62
924.914	-2.38
925.646	-0.38
926.378	-0.38
927.11	1.62
927.841	-0.38
928.573	-0.38
929.305	-0.38
930.036	1.62
930.768	-2.38
931.499	-0.38
932.23	-1.38
932.962	1.62
933.693	-0.38
934.424	-1.38
935.155	-1.38
935.886	-0.38
936.617	-1.38
937.348	0.62
938.078	-0.38
938.809	0.62
939.54	1.62
940.27	-1.38
941.001	-0.38
941.731	-0.38
942.461	0.62
943.191	-0.38
943.922	-3.38
944.652	-2.38
945.382	-2.38
946.112	-1.38
946.841	-3.38
947.571	-1.38
948.301	-1.38
949.031	-0.38
949.76	-0.38
950.49	1.62
951.219	-3.38
951.948	-1.38
952.678	-1.38
953.407	-2.38
954.136	0.62
954.865	-0.38
955.594	-1.38
956.323	0.62
957.052	-0.38
957.78	-1.38
958.509	1.62
959.238	-0.38
959.966	-1.38
960.695	-0.38
961.423	-1.38
962.151	-0.38
962.88	-1.38
963.608	1.62
964.336	0.62
965.064	-1.38
965.792	2.62
966.52	-0.38
967.247	0.62
967.975	0.62
968.703	0.62
969.43	0.62
970.158	-0.38
970.885	-0.38
971.613	-1.38
972.34	-0.38
973.067	0.62
973.794	-2.38
974.521	-0.38
975.248	-2.38
975.975	2.62
976.702	-0.38
977.429	-2.38
978.156	-0.38
978.882	-1.38
979.609	-1.38
980.335	-0.38
981.062	-0.38
981.788	0.62
982.514	-0.38
983.24	-0.38
983.967	-0.38
984.693	1.62
985.419	0.62
986.144	-0.38
986.87	-0.38
987.596	-2.38
988.322	-0.38
989.047	-2.38
989.773	-1.38
990.498	-0.38
991.224	-0.38
991.949	-0.38
992.674	-2.38
993.399	0.62
994.124	0.62
994.849	-1.38
995.574	0.62
996.299	-2.38
997.024	-2.38
997.749	0.62
998.473	-0.38
999.198	-0.38
999.922	-0.38
1000.647	0.62
1001.371	2.62
1002.095	-2.38
1002.82	0.62
1003.544	-0.38
1004.268	1.62
1004.992	0.62
1005.716	1.62
1006.439	1.62
1007.163	3.62
1007.887	2.62
1008.611	-1.38
1009.334	-0.38
1010.058	0.62
1010.781	-1.38
1011.504	0.62
1012.228	-0.38
1012.951	-0.38
1013.674	0.62
1014.397	-0.38
1015.12	-0.38
