节点500_425_QEPB04081__147__15-50-45-286.txt的数据

Date: Wed Nov 12 15:50:45 CST 2025
User: PC
Spectrometer: QEPB0408
触发模式: 0
积分时间 (秒): 1.000000E-2
Scans to average: 1
启用暗噪声校正: true
启用非线性校正: false
滑动平均宽度: 0
X轴模式: Wavelengths
Number of Pixels in Spectrum: 1044
>>>>>Begin Spectral Data<<<<<
220.843	4.38
221.644	2.38
222.444	4.38
223.244	2.38
224.045	3.38
224.845	6.38
225.645	2.38
226.445	5.38
227.245	5.38
228.045	5.38
228.845	5.38
229.645	6.38
230.444	7.38
231.244	5.38
232.043	6.38
232.843	4.38
233.642	6.38
234.442	7.38
235.241	2.38
236.04	4.38
236.839	6.38
237.638	8.38
238.437	6.38
239.236	7.38
240.035	5.38
240.833	7.38
241.632	8.38
242.43	7.38
243.229	6.38
244.027	9.38
244.826	8.38
245.624	10.38
246.422	5.38
247.22	7.38
248.018	8.38
248.816	9.38
249.614	8.38
250.412	8.38
251.21	10.38
252.007	10.38
252.805	11.38
253.602	10.38
254.4	10.38
255.197	11.38
255.994	13.38
256.791	13.38
257.589	16.38
258.386	13.38
259.183	12.38
259.979	17.38
260.776	16.38
261.573	15.38
262.37	16.38
263.166	17.38
263.963	16.38
264.759	15.38
265.556	19.38
266.352	18.38
267.148	18.38
267.944	21.38
268.74	22.38
269.536	18.38
270.332	22.38
271.128	23.38
271.924	24.38
272.719	22.38
273.515	25.38
274.311	26.38
275.106	23.38
275.901	26.38
276.697	24.38
277.492	25.38
278.287	26.38
279.082	25.38
279.877	21.38
280.672	24.38
281.467	25.38
282.262	27.38
283.056	27.38
283.851	26.38
284.646	24.38
285.44	24.38
286.234	26.38
287.029	26.38
287.823	28.38
288.617	25.38
289.411	26.38
290.205	20.38
290.999	24.38
291.793	27.38
292.587	26.38
293.381	25.38
294.174	23.38
294.968	24.38
295.761	21.38
296.555	20.38
297.348	19.38
298.141	19.38
298.935	24.38
299.728	20.38
300.521	19.38
301.314	19.38
302.107	16.38
302.899	16.38
303.692	17.38
304.485	16.38
305.277	16.38
306.07	14.38
306.862	17.38
307.655	13.38
308.447	14.38
309.239	17.38
310.031	16.38
310.823	16.38
311.615	14.38
312.407	17.38
313.199	12.38
313.991	14.38
314.783	13.38
315.574	12.38
316.366	13.38
317.157	10.38
317.949	12.38
318.74	11.38
319.531	11.38
320.322	12.38
321.113	13.38
321.904	9.38
322.695	7.38
323.486	10.38
324.277	10.38
325.068	9.38
325.858	9.38
326.649	8.38
327.439	10.38
328.23	8.38
329.02	7.38
329.81	10.38
330.6	9.38
331.391	9.38
332.181	9.38
332.971	10.38
333.76	7.38
334.55	7.38
335.34	10.38
336.13	7.38
336.919	11.38
337.709	9.38
338.498	9.38
339.287	10.38
340.077	7.38
340.866	8.38
341.655	9.38
342.444	9.38
343.233	6.38
344.022	8.38
344.811	9.38
345.6	7.38
346.388	10.38
347.177	9.38
347.965	6.38
348.754	9.38
349.542	6.38
350.33	8.38
351.119	8.38
351.907	9.38
352.695	6.38
353.483	7.38
354.271	5.38
355.059	8.38
355.846	8.38
356.634	8.38
357.422	8.38
358.209	8.38
358.997	6.38
359.784	8.38
360.571	6.38
361.359	7.38
362.146	6.38
362.933	7.38
363.72	8.38
364.507	8.38
365.294	8.38
366.081	8.38
366.867	7.38
367.654	6.38
368.44	8.38
369.227	4.38
370.013	7.38
370.8	7.38
371.586	4.38
372.372	7.38
373.158	8.38
373.944	6.38
374.73	7.38
375.516	5.38
376.302	9.38
377.088	8.38
377.873	6.38
378.659	7.38
379.445	7.38
380.23	6.38
381.015	6.38
381.801	7.38
382.586	4.38
383.371	5.38
384.156	8.38
384.941	7.38
385.726	5.38
386.511	12.38
387.296	7.38
388.08	6.38
388.865	7.38
389.649	8.38
390.434	10.38
391.218	9.38
392.003	7.38
392.787	9.38
393.571	8.38
394.355	6.38
395.139	7.38
395.923	11.38
396.707	10.38
397.491	10.38
398.274	8.38
399.058	8.38
399.842	10.38
400.625	9.38
401.408	10.38
402.192	10.38
402.975	9.38
403.758	11.38
404.541	10.38
405.324	8.38
406.107	9.38
406.89	10.38
407.673	11.38
408.456	12.38
409.238	10.38
410.021	12.38
410.803	14.38
411.586	10.38
412.368	14.38
413.151	12.38
413.933	14.38
414.715	11.38
415.497	7.38
416.279	14.38
417.061	11.38
417.843	15.38
418.624	12.38
419.406	14.38
420.188	15.38
420.969	14.38
421.751	15.38
422.532	16.38
423.313	16.38
424.095	16.38
424.876	16.38
425.657	17.38
426.438	14.38
427.219	18.38
428	18.38
428.78	17.38
429.561	17.38
430.342	19.38
431.122	20.38
431.903	20.38
432.683	23.38
433.464	22.38
434.244	22.38
435.024	24.38
435.804	26.38
436.584	28.38
437.364	28.38
438.144	25.38
438.924	32.38
439.704	33.38
440.483	33.38
441.263	34.38
442.042	38.38
442.822	41.38
443.601	46.38
444.38	48.38
445.16	47.38
445.939	53.38
446.718	55.38
447.497	60.38
448.276	63.38
449.054	68.38
449.833	75.38
450.612	81.38
451.391	92.38
452.169	98.38
452.948	107.38
453.726	122.38
454.504	125.38
455.282	151.38
456.061	166.38
456.839	178.38
457.617	198.38
458.395	218.38
459.172	246.38
459.95	269.38
460.728	305.38
461.506	338.38
462.283	371.38
463.061	432.38
463.838	483.38
464.615	542.38
465.393	596.38
466.17	662.38
466.947	744.38
467.724	830.38
468.501	930.38
469.278	1030.38
470.055	1147.38
470.831	1271.38
471.608	1409.38
472.385	1578.38
473.161	1747.38
473.938	1932.38
474.714	2145.38
475.49	2368.38
476.266	2603.38
477.043	2899.38
477.819	3206.38
478.595	3548.38
479.371	3904.38
480.146	4274.38
480.922	4726.38
481.698	5188.38
482.473	5695.38
483.249	6261.38
484.024	6924.38
484.8	7610.38
485.575	8319.38
486.35	9060.38
487.126	9916.38
487.901	10851.38
488.676	11854.38
489.451	12949.38
490.225	14033.38
491	15278.38
491.775	16575.38
492.55	17941.38
493.324	19375.38
494.099	20727.38
494.873	22119.38
495.647	23641.38
496.422	25174.38
497.196	26733.38
497.97	28284.38
498.744	29688.38
499.518	31089.38
500.292	32353.38
501.066	33400.38
501.839	34577.38
502.613	35388.38
503.387	36034.38
504.16	36429.38
504.934	36624.38
505.707	36596.38
506.48	36367.38
507.253	35910.38
508.027	35345.38
508.8	34698.38
509.573	33744.38
510.346	32809.38
511.118	31810.38
511.891	30695.38
512.664	29470.38
513.437	28287.38
514.209	27075.38
514.982	26065.38
515.754	24910.38
516.526	23795.38
517.298	22848.38
518.071	21854.38
518.843	20901.38
519.615	20098.38
520.387	19258.38
521.159	18515.38
521.93	17854.38
522.702	17128.38
523.474	16430.38
524.245	15776.38
525.017	15045.38
525.788	14396.38
526.56	13672.38
527.331	12984.38
528.102	12387.38
528.873	11786.38
529.644	11234.38
530.415	10708.38
531.186	10157.38
531.957	9634.38
532.728	9108.38
533.498	8551.38
534.269	8098.38
535.039	7691.38
535.81	7251.38
536.58	6842.38
537.351	6437.38
538.121	6093.38
538.891	5780.38
539.661	5463.38
540.431	5177.38
541.201	4903.38
541.971	4661.38
542.741	4423.38
543.51	4179.38
544.28	3980.38
545.05	3767.38
545.819	3601.38
546.588	3426.38
547.358	3237.38
548.127	3090.38
548.896	2921.38
549.665	2759.38
550.434	2636.38
551.203	2488.38
551.972	2369.38
552.741	2222.38
553.51	2119.38
554.278	1992.38
555.047	1864.38
555.815	1762.38
556.584	1651.38
557.352	1574.38
558.121	1478.38
558.889	1387.38
559.657	1322.38
560.425	1246.38
561.193	1179.38
561.961	1110.38
562.729	1056.38
563.496	997.38
564.264	949.38
565.032	893.38
565.799	843.38
566.567	802.38
567.334	761.38
568.101	717.38
568.869	682.38
569.636	633.38
570.403	599.38
571.17	560.38
571.937	535.38
572.704	504.38
573.471	477.38
574.237	451.38
575.004	421.38
575.771	393.38
576.537	373.38
577.303	351.38
578.07	327.38
578.836	311.38
579.602	296.38
580.368	277.38
581.134	267.38
581.9	254.38
582.666	238.38
583.432	231.38
584.198	216.38
584.964	202.38
585.729	196.38
586.495	184.38
587.26	170.38
588.025	165.38
588.791	160.38
589.556	156.38
590.321	145.38
591.086	141.38
591.851	126.38
592.616	122.38
593.381	117.38
594.146	111.38
594.911	108.38
595.675	101.38
596.44	96.38
597.204	94.38
597.969	86.38
598.733	83.38
599.497	79.38
600.261	80.38
601.025	70.38
601.79	73.38
602.553	66.38
603.317	64.38
604.081	62.38
604.845	56.38
605.609	56.38
606.372	50.38
607.136	53.38
607.899	48.38
608.662	45.38
609.426	46.38
610.189	45.38
610.952	41.38
611.715	41.38
612.478	42.38
613.241	38.38
614.004	35.38
614.767	35.38
615.529	33.38
616.292	36.38
617.055	32.38
617.817	30.38
618.579	29.38
619.342	30.38
620.104	28.38
620.866	25.38
621.628	27.38
622.39	25.38
623.152	27.38
623.914	25.38
624.676	24.38
625.438	21.38
626.199	24.38
626.961	20.38
627.722	20.38
628.484	19.38
629.245	20.38
630.006	21.38
630.768	19.38
631.529	18.38
632.29	16.38
633.051	15.38
633.812	15.38
634.573	17.38
635.333	15.38
636.094	14.38
636.855	15.38
637.615	15.38
638.376	14.38
639.136	13.38
639.896	10.38
640.657	11.38
641.417	12.38
642.177	12.38
642.937	13.38
643.697	11.38
644.457	12.38
645.216	14.38
645.976	13.38
646.736	8.38
647.495	10.38
648.255	12.38
649.014	11.38
649.774	9.38
650.533	10.38
651.292	9.38
652.051	9.38
652.81	10.38
653.569	8.38
654.328	10.38
655.087	8.38
655.846	9.38
656.604	11.38
657.363	7.38
658.121	8.38
658.88	8.38
659.638	9.38
660.397	7.38
661.155	10.38
661.913	8.38
662.671	5.38
663.429	5.38
664.187	6.38
664.945	6.38
665.703	7.38
666.46	8.38
667.218	6.38
667.976	8.38
668.733	4.38
669.49	6.38
670.248	6.38
671.005	9.38
671.762	5.38
672.519	5.38
673.276	7.38
674.033	6.38
674.79	8.38
675.547	6.38
676.304	7.38
677.06	6.38
677.817	4.38
678.574	7.38
679.33	4.38
680.086	3.38
680.843	6.38
681.599	8.38
682.355	4.38
683.111	5.38
683.867	4.38
684.623	7.38
685.379	8.38
686.135	5.38
686.89	6.38
687.646	3.38
688.402	4.38
689.157	7.38
689.912	3.38
690.668	4.38
691.423	6.38
692.178	5.38
692.933	5.38
693.688	5.38
694.443	4.38
695.198	5.38
695.953	5.38
696.708	6.38
697.462	5.38
698.217	5.38
698.972	7.38
699.726	7.38
700.48	6.38
701.235	6.38
701.989	3.38
702.743	6.38
703.497	6.38
704.251	5.38
705.005	4.38
705.759	6.38
706.513	5.38
707.266	3.38
708.02	6.38
708.774	4.38
709.527	1.38
710.28	5.38
711.034	4.38
711.787	5.38
712.54	7.38
713.293	7.38
714.046	6.38
714.799	4.38
715.552	5.38
716.305	6.38
717.058	5.38
717.81	2.38
718.563	6.38
719.315	6.38
720.068	5.38
720.82	5.38
721.573	6.38
722.325	5.38
723.077	5.38
723.829	5.38
724.581	4.38
725.333	7.38
726.085	6.38
726.836	6.38
727.588	4.38
728.34	6.38
729.091	5.38
729.843	7.38
730.594	8.38
731.346	5.38
732.097	6.38
732.848	6.38
733.599	3.38
734.35	9.38
735.101	8.38
735.852	6.38
736.603	5.38
737.354	5.38
738.104	7.38
738.855	7.38
739.605	7.38
740.356	4.38
741.106	7.38
741.856	8.38
742.607	5.38
743.357	8.38
744.107	8.38
744.857	8.38
745.607	7.38
746.357	9.38
747.106	8.38
747.856	9.38
748.606	9.38
749.355	5.38
750.105	10.38
750.854	8.38
751.603	9.38
752.353	10.38
753.102	5.38
753.851	8.38
754.6	7.38
755.349	6.38
756.098	7.38
756.847	10.38
757.595	8.38
758.344	6.38
759.093	10.38
759.841	8.38
760.589	8.38
761.338	8.38
762.086	9.38
762.834	12.38
763.582	8.38
764.331	9.38
765.079	10.38
765.826	10.38
766.574	10.38
767.322	10.38
768.07	10.38
768.817	9.38
769.565	10.38
770.312	9.38
771.06	10.38
771.807	10.38
772.554	10.38
773.302	10.38
774.049	12.38
774.796	11.38
775.543	10.38
776.29	10.38
777.036	9.38
777.783	11.38
778.53	12.38
779.276	12.38
780.023	11.38
780.769	12.38
781.516	13.38
782.262	13.38
783.008	13.38
783.754	11.38
784.5	11.38
785.246	10.38
785.992	9.38
786.738	11.38
787.484	13.38
788.23	14.38
788.975	10.38
789.721	12.38
790.466	10.38
791.212	10.38
791.957	11.38
792.702	12.38
793.447	9.38
794.193	12.38
794.938	11.38
795.683	11.38
796.427	12.38
797.172	10.38
797.917	11.38
798.662	10.38
799.406	9.38
800.151	11.38
800.895	8.38
801.64	10.38
802.384	9.38
803.128	7.38
803.872	9.38
804.616	8.38
805.36	8.38
806.104	10.38
806.848	7.38
807.592	9.38
808.336	7.38
809.079	9.38
809.823	4.38
810.566	8.38
811.31	9.38
812.053	9.38
812.796	8.38
813.539	7.38
814.283	8.38
815.026	7.38
815.769	8.38
816.511	4.38
817.254	5.38
817.997	8.38
818.74	7.38
819.482	6.38
820.225	3.38
820.967	4.38
821.71	4.38
822.452	4.38
823.194	7.38
823.936	5.38
824.678	5.38
825.42	6.38
826.162	2.38
826.904	8.38
827.646	3.38
828.388	5.38
829.129	6.38
829.871	4.38
830.612	4.38
831.354	3.38
832.095	3.38
832.836	4.38
833.577	5.38
834.319	4.38
835.06	3.38
835.801	6.38
836.542	3.38
837.282	5.38
838.023	5.38
838.764	5.38
839.504	5.38
840.245	2.38
840.985	4.38
841.726	2.38
842.466	4.38
843.206	6.38
843.946	4.38
844.687	6.38
845.427	6.38
846.166	5.38
846.906	4.38
847.646	3.38
848.386	5.38
849.125	3.38
849.865	3.38
850.605	3.38
851.344	2.38
852.083	4.38
852.823	2.38
853.562	1.38
854.301	0.38
855.04	3.38
855.779	2.38
856.518	2.38
857.257	4.38
857.995	2.38
858.734	2.38
859.473	3.38
860.211	3.38
860.95	3.38
861.688	2.38
862.426	4.38
863.165	1.38
863.903	2.38
864.641	3.38
865.379	1.38
866.117	2.38
866.855	1.38
867.593	1.38
868.33	1.38
869.068	5.38
869.806	1.38
870.543	1.38
871.28	2.38
872.018	0.38
872.755	5.38
873.492	2.38
874.229	3.38
874.967	0.38
875.703	0.38
876.44	3.38
877.177	4.38
877.914	1.38
878.651	0.38
879.387	1.38
880.124	2.38
880.86	1.38
881.597	1.38
882.333	-0.62
883.069	4.38
883.806	2.38
884.542	4.38
885.278	2.38
886.014	1.38
886.749	0.38
887.485	1.38
888.221	0.38
888.957	3.38
889.692	0.38
890.428	0.38
891.163	1.38
891.899	0.38
892.634	1.38
893.369	0.38
894.104	0.38
894.839	1.38
895.574	1.38
896.309	0.38
897.044	1.38
897.779	3.38
898.514	0.38
899.248	1.38
899.983	1.38
900.717	-1.62
901.452	0.38
902.186	1.38
902.92	1.38
903.654	1.38
904.389	2.38
905.123	2.38
905.857	1.38
906.59	4.38
907.324	1.38
908.058	2.38
908.792	0.38
909.525	1.38
910.259	-0.62
910.992	-0.62
911.726	2.38
912.459	2.38
913.192	2.38
913.925	0.38
914.658	0.38
915.391	-1.62
916.124	-0.62
916.857	2.38
917.59	-1.62
918.323	1.38
919.055	0.38
919.788	0.38
920.521	-0.62
921.253	1.38
921.985	1.38
922.718	0.38
923.45	0.38
924.182	-0.62
924.914	1.38
925.646	1.38
926.378	0.38
927.11	1.38
927.841	-1.62
928.573	-0.62
929.305	2.38
930.036	0.38
930.768	-0.62
931.499	-0.62
932.23	-1.62
932.962	1.38
933.693	-0.62
934.424	0.38
935.155	2.38
935.886	3.38
936.617	0.38
937.348	0.38
938.078	0.38
938.809	0.38
939.54	1.38
940.27	1.38
941.001	1.38
941.731	3.38
942.461	-0.62
943.191	-0.62
943.922	-1.62
944.652	-0.62
945.382	-0.62
946.112	0.38
946.841	2.38
947.571	-1.62
948.301	0.38
949.031	0.38
949.76	-0.62
950.49	2.38
951.219	0.38
951.948	-1.62
952.678	2.38
953.407	1.38
954.136	-0.62
954.865	0.38
955.594	-1.62
956.323	0.38
957.052	-0.62
957.78	0.38
958.509	-0.62
959.238	0.38
959.966	0.38
960.695	0.38
961.423	1.38
962.151	1.38
962.88	0.38
963.608	-2.62
964.336	2.38
965.064	-0.62
965.792	1.38
966.52	-0.62
967.247	0.38
967.975	1.38
968.703	0.38
969.43	2.38
970.158	0.38
970.885	1.38
971.613	-1.62
972.34	-0.62
973.067	-0.62
973.794	0.38
974.521	0.38
975.248	0.38
975.975	-0.62
976.702	0.38
977.429	-0.62
978.156	2.38
978.882	-1.62
979.609	0.38
980.335	2.38
981.062	0.38
981.788	-0.62
982.514	0.38
983.24	0.38
983.967	-0.62
984.693	2.38
985.419	0.38
986.144	0.38
986.87	2.38
987.596	0.38
988.322	1.38
989.047	0.38
989.773	1.38
990.498	1.38
991.224	-1.62
991.949	0.38
992.674	-0.62
993.399	2.38
994.124	-0.62
994.849	1.38
995.574	0.38
996.299	-0.62
997.024	-0.62
997.749	-0.62
998.473	2.38
999.198	0.38
999.922	-1.62
1000.647	2.38
1001.371	5.38
1002.095	-0.62
1002.82	-3.62
1003.544	0.38
1004.268	1.38
1004.992	4.38
1005.716	0.38
1006.439	2.38
1007.163	2.38
1007.887	3.38
1008.611	-1.62
1009.334	-0.62
1010.058	0.38
1010.781	0.38
1011.504	1.38
1012.228	0.38
1012.951	0.38
1013.674	0.38
1014.397	-0.62
1015.12	-1.62
