节点500_425_QEPB04081__594__15-58-11-430.txt的数据

Date: Wed Nov 12 15:58:11 CST 2025
User: PC
Spectrometer: QEPB0408
触发模式: 0
积分时间 (秒): 1.000000E-2
Scans to average: 1
启用暗噪声校正: true
启用非线性校正: false
滑动平均宽度: 0
X轴模式: Wavelengths
Number of Pixels in Spectrum: 1044
>>>>>Begin Spectral Data<<<<<
220.843	3.88
221.644	3.88
222.444	2.88
223.244	5.88
224.045	5.88
224.845	4.88
225.645	2.88
226.445	4.88
227.245	5.88
228.045	6.88
228.845	4.88
229.645	3.88
230.444	4.88
231.244	5.88
232.043	3.88
232.843	5.88
233.642	4.88
234.442	4.88
235.241	5.88
236.04	7.88
236.839	5.88
237.638	5.88
238.437	7.88
239.236	3.88
240.035	5.88
240.833	6.88
241.632	5.88
242.43	7.88
243.229	7.88
244.027	8.88
244.826	8.88
245.624	7.88
246.422	5.88
247.22	7.88
248.018	7.88
248.816	7.88
249.614	9.88
250.412	7.88
251.21	8.88
252.007	11.88
252.805	8.88
253.602	8.88
254.4	11.88
255.197	11.88
255.994	9.88
256.791	11.88
257.589	10.88
258.386	11.88
259.183	12.88
259.979	12.88
260.776	13.88
261.573	15.88
262.37	11.88
263.166	12.88
263.963	13.88
264.759	17.88
265.556	16.88
266.352	17.88
267.148	15.88
267.944	15.88
268.74	18.88
269.536	17.88
270.332	20.88
271.128	19.88
271.924	18.88
272.719	18.88
273.515	18.88
274.311	19.88
275.106	20.88
275.901	19.88
276.697	21.88
277.492	23.88
278.287	22.88
279.082	22.88
279.877	18.88
280.672	21.88
281.467	20.88
282.262	23.88
283.056	25.88
283.851	21.88
284.646	23.88
285.44	23.88
286.234	23.88
287.029	23.88
287.823	21.88
288.617	23.88
289.411	23.88
290.205	23.88
290.999	25.88
291.793	23.88
292.587	21.88
293.381	22.88
294.174	21.88
294.968	23.88
295.761	18.88
296.555	17.88
297.348	19.88
298.141	18.88
298.935	22.88
299.728	19.88
300.521	17.88
301.314	18.88
302.107	12.88
302.899	18.88
303.692	14.88
304.485	21.88
305.277	15.88
306.07	14.88
306.862	16.88
307.655	15.88
308.447	15.88
309.239	13.88
310.031	13.88
310.823	14.88
311.615	14.88
312.407	12.88
313.199	12.88
313.991	14.88
314.783	11.88
315.574	10.88
316.366	12.88
317.157	10.88
317.949	13.88
318.74	12.88
319.531	10.88
320.322	10.88
321.113	12.88
321.904	11.88
322.695	10.88
323.486	10.88
324.277	8.88
325.068	9.88
325.858	9.88
326.649	8.88
327.439	9.88
328.23	10.88
329.02	8.88
329.81	7.88
330.6	9.88
331.391	7.88
332.181	9.88
332.971	8.88
333.76	5.88
334.55	5.88
335.34	7.88
336.13	7.88
336.919	7.88
337.709	10.88
338.498	8.88
339.287	7.88
340.077	9.88
340.866	9.88
341.655	7.88
342.444	7.88
343.233	7.88
344.022	6.88
344.811	6.88
345.6	7.88
346.388	6.88
347.177	7.88
347.965	7.88
348.754	5.88
349.542	11.88
350.33	8.88
351.119	4.88
351.907	10.88
352.695	6.88
353.483	8.88
354.271	10.88
355.059	6.88
355.846	7.88
356.634	7.88
357.422	8.88
358.209	7.88
358.997	5.88
359.784	8.88
360.571	6.88
361.359	7.88
362.146	7.88
362.933	6.88
363.72	8.88
364.507	6.88
365.294	9.88
366.081	6.88
366.867	8.88
367.654	5.88
368.44	7.88
369.227	8.88
370.013	8.88
370.8	5.88
371.586	6.88
372.372	5.88
373.158	6.88
373.944	7.88
374.73	8.88
375.516	8.88
376.302	5.88
377.088	7.88
377.873	6.88
378.659	7.88
379.445	5.88
380.23	5.88
381.015	7.88
381.801	5.88
382.586	7.88
383.371	8.88
384.156	7.88
384.941	6.88
385.726	6.88
386.511	9.88
387.296	7.88
388.08	8.88
388.865	7.88
389.649	7.88
390.434	7.88
391.218	5.88
392.003	9.88
392.787	7.88
393.571	8.88
394.355	8.88
395.139	9.88
395.923	8.88
396.707	8.88
397.491	10.88
398.274	8.88
399.058	9.88
399.842	11.88
400.625	10.88
401.408	9.88
402.192	7.88
402.975	12.88
403.758	6.88
404.541	7.88
405.324	9.88
406.107	9.88
406.89	11.88
407.673	10.88
408.456	12.88
409.238	12.88
410.021	9.88
410.803	11.88
411.586	9.88
412.368	12.88
413.151	13.88
413.933	12.88
414.715	11.88
415.497	12.88
416.279	10.88
417.061	13.88
417.843	12.88
418.624	14.88
419.406	14.88
420.188	14.88
420.969	14.88
421.751	13.88
422.532	14.88
423.313	14.88
424.095	14.88
424.876	14.88
425.657	14.88
426.438	14.88
427.219	19.88
428	18.88
428.78	18.88
429.561	18.88
430.342	19.88
431.122	18.88
431.903	21.88
432.683	22.88
433.464	23.88
434.244	24.88
435.024	24.88
435.804	28.88
436.584	24.88
437.364	27.88
438.144	28.88
438.924	28.88
439.704	32.88
440.483	37.88
441.263	36.88
442.042	38.88
442.822	43.88
443.601	45.88
444.38	48.88
445.16	48.88
445.939	57.88
446.718	59.88
447.497	65.88
448.276	73.88
449.054	80.88
449.833	83.88
450.612	90.88
451.391	107.88
452.169	110.88
452.948	122.88
453.726	135.88
454.504	150.88
455.282	169.88
456.061	193.88
456.839	206.88
457.617	223.88
458.395	249.88
459.172	279.88
459.95	318.88
460.728	349.88
461.506	394.88
462.283	428.88
463.061	474.88
463.838	538.88
464.615	602.88
465.393	662.88
466.17	737.88
466.947	811.88
467.724	895.88
468.501	1003.88
469.278	1114.88
470.055	1214.88
470.831	1341.88
471.608	1485.88
472.385	1631.88
473.161	1803.88
473.938	1970.88
474.714	2169.88
475.49	2370.88
476.266	2603.88
477.043	2847.88
477.819	3119.88
478.595	3434.88
479.371	3749.88
480.146	4056.88
480.922	4390.88
481.698	4865.88
482.473	5274.88
483.249	5714.88
484.024	6231.88
484.8	6786.88
485.575	7382.88
486.35	7965.88
487.126	8601.88
487.901	9354.88
488.676	10124.88
489.451	10917.88
490.225	11785.88
491	12790.88
491.775	13757.88
492.55	14835.88
493.324	15942.88
494.099	17001.88
494.873	18074.88
495.647	19318.88
496.422	20526.88
497.196	21787.88
497.97	23047.88
498.744	24359.88
499.518	25656.88
500.292	26832.88
501.066	27888.88
501.839	29023.88
502.613	29985.88
503.387	30760.88
504.16	31423.88
504.934	31962.88
505.707	32287.88
506.48	32407.88
507.253	32444.88
508.027	32424.88
508.8	32199.88
509.573	31816.88
510.346	31231.88
511.118	30571.88
511.891	29839.88
512.664	28902.88
513.437	28057.88
514.209	27097.88
514.982	26156.88
515.754	25217.88
516.526	24248.88
517.298	23321.88
518.071	22309.88
518.843	21520.88
519.615	20679.88
520.387	19840.88
521.159	19038.88
521.93	18356.88
522.702	17562.88
523.474	16909.88
524.245	16259.88
525.017	15594.88
525.788	14850.88
526.56	14231.88
527.331	13636.88
528.102	12997.88
528.873	12443.88
529.644	11854.88
530.415	11339.88
531.186	10871.88
531.957	10286.88
532.728	9774.88
533.498	9249.88
534.269	8733.88
535.039	8320.88
535.81	7884.88
536.58	7474.88
537.351	7061.88
538.121	6674.88
538.891	6329.88
539.661	6018.88
540.431	5655.88
541.201	5376.88
541.971	5081.88
542.741	4833.88
543.51	4581.88
544.28	4336.88
545.05	4135.88
545.819	3957.88
546.588	3784.88
547.358	3542.88
548.127	3361.88
548.896	3212.88
549.665	3054.88
550.434	2907.88
551.203	2770.88
551.972	2617.88
552.741	2468.88
553.51	2325.88
554.278	2200.88
555.047	2080.88
555.815	1980.88
556.584	1871.88
557.352	1779.88
558.121	1670.88
558.889	1569.88
559.657	1509.88
560.425	1401.88
561.193	1333.88
561.961	1262.88
562.729	1189.88
563.496	1137.88
564.264	1067.88
565.032	1020.88
565.799	962.88
566.567	903.88
567.334	852.88
568.101	804.88
568.869	757.88
569.636	717.88
570.403	675.88
571.17	633.88
571.937	596.88
572.704	564.88
573.471	539.88
574.237	504.88
575.004	476.88
575.771	443.88
576.537	421.88
577.303	400.88
578.07	374.88
578.836	350.88
579.602	329.88
580.368	320.88
581.134	303.88
581.9	283.88
582.666	272.88
583.432	257.88
584.198	242.88
584.964	231.88
585.729	223.88
586.495	213.88
587.26	200.88
588.025	190.88
588.791	177.88
589.556	166.88
590.321	157.88
591.086	149.88
591.851	145.88
592.616	135.88
593.381	126.88
594.146	120.88
594.911	120.88
595.675	114.88
596.44	110.88
597.204	106.88
597.969	95.88
598.733	95.88
599.497	88.88
600.261	86.88
601.025	81.88
601.79	77.88
602.553	73.88
603.317	70.88
604.081	70.88
604.845	69.88
605.609	62.88
606.372	60.88
607.136	58.88
607.899	56.88
608.662	52.88
609.426	50.88
610.189	49.88
610.952	47.88
611.715	45.88
612.478	44.88
613.241	42.88
614.004	40.88
614.767	39.88
615.529	36.88
616.292	36.88
617.055	36.88
617.817	34.88
618.579	33.88
619.342	30.88
620.104	30.88
620.866	27.88
621.628	29.88
622.39	27.88
623.152	30.88
623.914	26.88
624.676	26.88
625.438	24.88
626.199	26.88
626.961	20.88
627.722	22.88
628.484	19.88
629.245	21.88
630.006	17.88
630.768	18.88
631.529	19.88
632.29	17.88
633.051	16.88
633.812	16.88
634.573	14.88
635.333	17.88
636.094	13.88
636.855	14.88
637.615	12.88
638.376	13.88
639.136	15.88
639.896	12.88
640.657	13.88
641.417	11.88
642.177	11.88
642.937	12.88
643.697	11.88
644.457	12.88
645.216	10.88
645.976	12.88
646.736	11.88
647.495	11.88
648.255	11.88
649.014	9.88
649.774	10.88
650.533	7.88
651.292	11.88
652.051	11.88
652.81	8.88
653.569	10.88
654.328	9.88
655.087	8.88
655.846	10.88
656.604	10.88
657.363	7.88
658.121	9.88
658.88	7.88
659.638	6.88
660.397	9.88
661.155	9.88
661.913	8.88
662.671	7.88
663.429	6.88
664.187	7.88
664.945	8.88
665.703	6.88
666.46	7.88
667.218	6.88
667.976	9.88
668.733	6.88
669.49	8.88
670.248	6.88
671.005	6.88
671.762	5.88
672.519	3.88
673.276	9.88
674.033	8.88
674.79	6.88
675.547	5.88
676.304	5.88
677.06	9.88
677.817	5.88
678.574	5.88
679.33	6.88
680.086	4.88
680.843	6.88
681.599	5.88
682.355	4.88
683.111	6.88
683.867	3.88
684.623	6.88
685.379	6.88
686.135	7.88
686.89	5.88
687.646	7.88
688.402	5.88
689.157	5.88
689.912	5.88
690.668	3.88
691.423	5.88
692.178	5.88
692.933	5.88
693.688	6.88
694.443	6.88
695.198	6.88
695.953	4.88
696.708	7.88
697.462	4.88
698.217	2.88
698.972	5.88
699.726	6.88
700.48	4.88
701.235	5.88
701.989	4.88
702.743	2.88
703.497	4.88
704.251	4.88
705.005	5.88
705.759	5.88
706.513	5.88
707.266	4.88
708.02	4.88
708.774	1.88
709.527	5.88
710.28	6.88
711.034	4.88
711.787	6.88
712.54	4.88
713.293	4.88
714.046	0.88
714.799	4.88
715.552	4.88
716.305	4.88
717.058	7.88
717.81	2.88
718.563	5.88
719.315	5.88
720.068	4.88
720.82	4.88
721.573	4.88
722.325	5.88
723.077	5.88
723.829	5.88
724.581	3.88
725.333	6.88
726.085	6.88
726.836	5.88
727.588	6.88
728.34	4.88
729.091	5.88
729.843	6.88
730.594	6.88
731.346	6.88
732.097	7.88
732.848	6.88
733.599	6.88
734.35	6.88
735.101	6.88
735.852	4.88
736.603	4.88
737.354	5.88
738.104	4.88
738.855	3.88
739.605	7.88
740.356	6.88
741.106	6.88
741.856	5.88
742.607	6.88
743.357	7.88
744.107	6.88
744.857	6.88
745.607	5.88
746.357	6.88
747.106	5.88
747.856	6.88
748.606	5.88
749.355	6.88
750.105	7.88
750.854	7.88
751.603	5.88
752.353	8.88
753.102	6.88
753.851	5.88
754.6	7.88
755.349	6.88
756.098	7.88
756.847	6.88
757.595	7.88
758.344	9.88
759.093	9.88
759.841	9.88
760.589	7.88
761.338	8.88
762.086	8.88
762.834	8.88
763.582	8.88
764.331	7.88
765.079	9.88
765.826	7.88
766.574	7.88
767.322	8.88
768.07	9.88
768.817	8.88
769.565	9.88
770.312	12.88
771.06	10.88
771.807	8.88
772.554	10.88
773.302	10.88
774.049	8.88
774.796	9.88
775.543	9.88
776.29	10.88
777.036	9.88
777.783	11.88
778.53	10.88
779.276	11.88
780.023	12.88
780.769	10.88
781.516	12.88
782.262	12.88
783.008	11.88
783.754	10.88
784.5	12.88
785.246	10.88
785.992	10.88
786.738	9.88
787.484	8.88
788.23	10.88
788.975	12.88
789.721	9.88
790.466	10.88
791.212	11.88
791.957	10.88
792.702	11.88
793.447	10.88
794.193	11.88
794.938	10.88
795.683	9.88
796.427	7.88
797.172	9.88
797.917	10.88
798.662	9.88
799.406	10.88
800.151	9.88
800.895	7.88
801.64	8.88
802.384	9.88
803.128	10.88
803.872	8.88
804.616	9.88
805.36	6.88
806.104	8.88
806.848	7.88
807.592	6.88
808.336	8.88
809.079	8.88
809.823	9.88
810.566	8.88
811.31	6.88
812.053	8.88
812.796	5.88
813.539	8.88
814.283	5.88
815.026	6.88
815.769	8.88
816.511	7.88
817.254	6.88
817.997	5.88
818.74	5.88
819.482	5.88
820.225	7.88
820.967	5.88
821.71	3.88
822.452	8.88
823.194	7.88
823.936	7.88
824.678	6.88
825.42	4.88
826.162	4.88
826.904	6.88
827.646	7.88
828.388	5.88
829.129	3.88
829.871	4.88
830.612	3.88
831.354	4.88
832.095	4.88
832.836	2.88
833.577	3.88
834.319	4.88
835.06	7.88
835.801	3.88
836.542	8.88
837.282	4.88
838.023	4.88
838.764	5.88
839.504	4.88
840.245	4.88
840.985	4.88
841.726	3.88
842.466	7.88
843.206	4.88
843.946	4.88
844.687	4.88
845.427	4.88
846.166	4.88
846.906	2.88
847.646	2.88
848.386	1.88
849.125	4.88
849.865	5.88
850.605	3.88
851.344	7.88
852.083	2.88
852.823	3.88
853.562	3.88
854.301	1.88
855.04	2.88
855.779	1.88
856.518	3.88
857.257	0.88
857.995	3.88
858.734	2.88
859.473	1.88
860.211	3.88
860.95	3.88
861.688	-0.12
862.426	2.88
863.165	3.88
863.903	4.88
864.641	2.88
865.379	2.88
866.117	0.88
866.855	2.88
867.593	2.88
868.33	3.88
869.068	0.88
869.806	1.88
870.543	3.88
871.28	1.88
872.018	0.88
872.755	2.88
873.492	2.88
874.229	3.88
874.967	0.88
875.703	2.88
876.44	1.88
877.177	0.88
877.914	2.88
878.651	2.88
879.387	2.88
880.124	2.88
880.86	2.88
881.597	0.88
882.333	1.88
883.069	1.88
883.806	0.88
884.542	0.88
885.278	3.88
886.014	0.88
886.749	2.88
887.485	0.88
888.221	0.88
888.957	0.88
889.692	1.88
890.428	1.88
891.163	2.88
891.899	1.88
892.634	0.88
893.369	0.88
894.104	2.88
894.839	2.88
895.574	0.88
896.309	0.88
897.044	1.88
897.779	1.88
898.514	1.88
899.248	-0.12
899.983	2.88
900.717	-0.12
901.452	-1.12
902.186	2.88
902.92	2.88
903.654	-1.12
904.389	1.88
905.123	0.88
905.857	1.88
906.59	1.88
907.324	1.88
908.058	0.88
908.792	2.88
909.525	1.88
910.259	-0.12
910.992	2.88
911.726	0.88
912.459	1.88
913.192	1.88
913.925	0.88
914.658	0.88
915.391	0.88
916.124	2.88
916.857	2.88
917.59	0.88
918.323	1.88
919.055	1.88
919.788	2.88
920.521	0.88
921.253	0.88
921.985	2.88
922.718	0.88
923.45	1.88
924.182	-0.12
924.914	-0.12
925.646	0.88
926.378	-1.12
927.11	3.88
927.841	-3.12
928.573	1.88
929.305	0.88
930.036	1.88
930.768	-0.12
931.499	0.88
932.23	-0.12
932.962	2.88
933.693	0.88
934.424	0.88
935.155	0.88
935.886	-1.12
936.617	-1.12
937.348	-0.12
938.078	-1.12
938.809	-0.12
939.54	-0.12
940.27	0.88
941.001	0.88
941.731	1.88
942.461	1.88
943.191	0.88
943.922	-0.12
944.652	2.88
945.382	-0.12
946.112	0.88
946.841	0.88
947.571	0.88
948.301	1.88
949.031	2.88
949.76	1.88
950.49	-1.12
951.219	0.88
951.948	2.88
952.678	-0.12
953.407	0.88
954.136	0.88
954.865	0.88
955.594	0.88
956.323	0.88
957.052	2.88
957.78	0.88
958.509	0.88
959.238	-1.12
959.966	1.88
960.695	-0.12
961.423	0.88
962.151	-0.12
962.88	-0.12
963.608	1.88
964.336	2.88
965.064	-0.12
965.792	0.88
966.52	2.88
967.247	-0.12
967.975	0.88
968.703	-0.12
969.43	-0.12
970.158	-1.12
970.885	0.88
971.613	-0.12
972.34	2.88
973.067	1.88
973.794	0.88
974.521	0.88
975.248	0.88
975.975	1.88
976.702	2.88
977.429	1.88
978.156	-0.12
978.882	-0.12
979.609	0.88
980.335	-0.12
981.062	0.88
981.788	0.88
982.514	1.88
983.24	-0.12
983.967	0.88
984.693	-0.12
985.419	2.88
986.144	1.88
986.87	0.88
987.596	-0.12
988.322	2.88
989.047	2.88
989.773	1.88
990.498	1.88
991.224	0.88
991.949	0.88
992.674	0.88
993.399	1.88
994.124	0.88
994.849	0.88
995.574	-0.12
996.299	-0.12
997.024	2.88
997.749	-1.12
998.473	2.88
999.198	-1.12
999.922	0.88
1000.647	0.88
1001.371	4.88
1002.095	-2.12
1002.82	-1.12
1003.544	-0.12
1004.268	0.88
1004.992	1.88
1005.716	2.88
1006.439	2.88
1007.163	4.88
1007.887	2.88
1008.611	-0.12
1009.334	-1.12
1010.058	2.88
1010.781	1.88
1011.504	-1.12
1012.228	-0.12
1012.951	-0.12
1013.674	-1.12
1014.397	-0.12
1015.12	-0.12
