节点500_425_QEPB04081__400__15-54-57-728.txt的数据

Date: Wed Nov 12 15:54:57 CST 2025
User: PC
Spectrometer: QEPB0408
触发模式: 0
积分时间 (秒): 1.000000E-2
Scans to average: 1
启用暗噪声校正: true
启用非线性校正: false
滑动平均宽度: 0
X轴模式: Wavelengths
Number of Pixels in Spectrum: 1044
>>>>>Begin Spectral Data<<<<<
220.843	1.62
221.644	3.62
222.444	3.62
223.244	4.62
224.045	3.62
224.845	2.62
225.645	6.62
226.445	4.62
227.245	5.62
228.045	7.62
228.845	2.62
229.645	7.62
230.444	4.62
231.244	3.62
232.043	5.62
232.843	3.62
233.642	7.62
234.442	5.62
235.241	7.62
236.04	5.62
236.839	7.62
237.638	6.62
238.437	5.62
239.236	8.62
240.035	4.62
240.833	8.62
241.632	8.62
242.43	7.62
243.229	6.62
244.027	4.62
244.826	11.62
245.624	7.62
246.422	10.62
247.22	9.62
248.018	9.62
248.816	8.62
249.614	9.62
250.412	8.62
251.21	9.62
252.007	9.62
252.805	9.62
253.602	8.62
254.4	11.62
255.197	9.62
255.994	12.62
256.791	13.62
257.589	13.62
258.386	14.62
259.183	12.62
259.979	15.62
260.776	15.62
261.573	15.62
262.37	15.62
263.166	14.62
263.963	17.62
264.759	14.62
265.556	17.62
266.352	16.62
267.148	17.62
267.944	18.62
268.74	21.62
269.536	20.62
270.332	18.62
271.128	19.62
271.924	22.62
272.719	23.62
273.515	20.62
274.311	22.62
275.106	21.62
275.901	22.62
276.697	22.62
277.492	25.62
278.287	22.62
279.082	23.62
279.877	24.62
280.672	24.62
281.467	25.62
282.262	24.62
283.056	26.62
283.851	22.62
284.646	23.62
285.44	23.62
286.234	21.62
287.029	23.62
287.823	25.62
288.617	26.62
289.411	25.62
290.205	23.62
290.999	23.62
291.793	21.62
292.587	23.62
293.381	20.62
294.174	21.62
294.968	24.62
295.761	20.62
296.555	20.62
297.348	14.62
298.141	19.62
298.935	22.62
299.728	21.62
300.521	18.62
301.314	18.62
302.107	19.62
302.899	16.62
303.692	16.62
304.485	17.62
305.277	14.62
306.07	14.62
306.862	14.62
307.655	16.62
308.447	14.62
309.239	15.62
310.031	15.62
310.823	14.62
311.615	14.62
312.407	15.62
313.199	13.62
313.991	12.62
314.783	10.62
315.574	13.62
316.366	10.62
317.157	10.62
317.949	10.62
318.74	10.62
319.531	12.62
320.322	10.62
321.113	11.62
321.904	11.62
322.695	10.62
323.486	9.62
324.277	10.62
325.068	11.62
325.858	10.62
326.649	6.62
327.439	7.62
328.23	6.62
329.02	9.62
329.81	8.62
330.6	11.62
331.391	10.62
332.181	10.62
332.971	8.62
333.76	8.62
334.55	9.62
335.34	6.62
336.13	8.62
336.919	9.62
337.709	7.62
338.498	7.62
339.287	10.62
340.077	7.62
340.866	9.62
341.655	9.62
342.444	5.62
343.233	7.62
344.022	10.62
344.811	8.62
345.6	7.62
346.388	8.62
347.177	8.62
347.965	8.62
348.754	6.62
349.542	8.62
350.33	9.62
351.119	9.62
351.907	8.62
352.695	8.62
353.483	10.62
354.271	5.62
355.059	7.62
355.846	9.62
356.634	6.62
357.422	9.62
358.209	7.62
358.997	8.62
359.784	8.62
360.571	4.62
361.359	7.62
362.146	8.62
362.933	6.62
363.72	8.62
364.507	5.62
365.294	7.62
366.081	7.62
366.867	7.62
367.654	6.62
368.44	9.62
369.227	6.62
370.013	4.62
370.8	7.62
371.586	6.62
372.372	7.62
373.158	7.62
373.944	8.62
374.73	10.62
375.516	7.62
376.302	8.62
377.088	6.62
377.873	7.62
378.659	6.62
379.445	6.62
380.23	8.62
381.015	5.62
381.801	5.62
382.586	6.62
383.371	8.62
384.156	5.62
384.941	7.62
385.726	8.62
386.511	4.62
387.296	8.62
388.08	9.62
388.865	9.62
389.649	7.62
390.434	8.62
391.218	7.62
392.003	8.62
392.787	8.62
393.571	9.62
394.355	8.62
395.139	8.62
395.923	8.62
396.707	9.62
397.491	7.62
398.274	9.62
399.058	9.62
399.842	10.62
400.625	12.62
401.408	9.62
402.192	9.62
402.975	10.62
403.758	10.62
404.541	10.62
405.324	10.62
406.107	12.62
406.89	9.62
407.673	12.62
408.456	8.62
409.238	10.62
410.021	10.62
410.803	9.62
411.586	12.62
412.368	14.62
413.151	8.62
413.933	10.62
414.715	10.62
415.497	12.62
416.279	14.62
417.061	12.62
417.843	13.62
418.624	12.62
419.406	14.62
420.188	14.62
420.969	15.62
421.751	16.62
422.532	13.62
423.313	17.62
424.095	13.62
424.876	16.62
425.657	14.62
426.438	16.62
427.219	17.62
428	17.62
428.78	19.62
429.561	18.62
430.342	22.62
431.122	18.62
431.903	19.62
432.683	23.62
433.464	19.62
434.244	23.62
435.024	25.62
435.804	24.62
436.584	26.62
437.364	28.62
438.144	30.62
438.924	30.62
439.704	32.62
440.483	32.62
441.263	36.62
442.042	38.62
442.822	41.62
443.601	44.62
444.38	46.62
445.16	49.62
445.939	52.62
446.718	56.62
447.497	64.62
448.276	66.62
449.054	71.62
449.833	82.62
450.612	89.62
451.391	95.62
452.169	104.62
452.948	118.62
453.726	131.62
454.504	135.62
455.282	161.62
456.061	174.62
456.839	190.62
457.617	217.62
458.395	236.62
459.172	270.62
459.95	299.62
460.728	334.62
461.506	368.62
462.283	414.62
463.061	457.62
463.838	511.62
464.615	569.62
465.393	635.62
466.17	709.62
466.947	775.62
467.724	882.62
468.501	972.62
469.278	1063.62
470.055	1199.62
470.831	1312.62
471.608	1449.62
472.385	1613.62
473.161	1786.62
473.938	1967.62
474.714	2148.62
475.49	2377.62
476.266	2596.62
477.043	2859.62
477.819	3158.62
478.595	3477.62
479.371	3794.62
480.146	4150.62
480.922	4552.62
481.698	4972.62
482.473	5433.62
483.249	5975.62
484.024	6492.62
484.8	7114.62
485.575	7743.62
486.35	8426.62
487.126	9119.62
487.901	9958.62
488.676	10842.62
489.451	11794.62
490.225	12736.62
491	13801.62
491.775	14916.62
492.55	16063.62
493.324	17330.62
494.099	18511.62
494.873	19823.62
495.647	21109.62
496.422	22455.62
497.196	23780.62
497.97	25274.62
498.744	26547.62
499.518	27907.62
500.292	29158.62
501.066	30244.62
501.839	31272.62
502.613	32350.62
503.387	32974.62
504.16	33666.62
504.934	34061.62
505.707	34232.62
506.48	34200.62
507.253	34012.62
508.027	33815.62
508.8	33416.62
509.573	32806.62
510.346	32023.62
511.118	31117.62
511.891	30361.62
512.664	29262.62
513.437	28164.62
514.209	27144.62
514.982	26143.62
515.754	25111.62
516.526	24077.62
517.298	23079.62
518.071	22109.62
518.843	21299.62
519.615	20367.62
520.387	19533.62
521.159	18806.62
521.93	18094.62
522.702	17403.62
523.474	16725.62
524.245	16051.62
525.017	15345.62
525.788	14620.62
526.56	14006.62
527.331	13329.62
528.102	12757.62
528.873	12149.62
529.644	11599.62
530.415	11090.62
531.186	10566.62
531.957	10014.62
532.728	9507.62
533.498	8965.62
534.269	8468.62
535.039	8035.62
535.81	7611.62
536.58	7174.62
537.351	6767.62
538.121	6418.62
538.891	6102.62
539.661	5777.62
540.431	5444.62
541.201	5126.62
541.971	4881.62
542.741	4622.62
543.51	4410.62
544.28	4176.62
545.05	3976.62
545.819	3797.62
546.588	3592.62
547.358	3398.62
548.127	3253.62
548.896	3086.62
549.665	2915.62
550.434	2784.62
551.203	2639.62
551.972	2496.62
552.741	2360.62
553.51	2250.62
554.278	2107.62
555.047	1984.62
555.815	1873.62
556.584	1777.62
557.352	1668.62
558.121	1578.62
558.889	1500.62
559.657	1423.62
560.425	1342.62
561.193	1267.62
561.961	1186.62
562.729	1130.62
563.496	1083.62
564.264	1016.62
565.032	954.62
565.799	900.62
566.567	850.62
567.334	818.62
568.101	763.62
568.869	722.62
569.636	680.62
570.403	643.62
571.17	603.62
571.937	570.62
572.704	543.62
573.471	514.62
574.237	474.62
575.004	446.62
575.771	419.62
576.537	402.62
577.303	379.62
578.07	346.62
578.836	331.62
579.602	314.62
580.368	298.62
581.134	286.62
581.9	268.62
582.666	252.62
583.432	240.62
584.198	221.62
584.964	222.62
585.729	211.62
586.495	202.62
587.26	188.62
588.025	173.62
588.791	169.62
589.556	160.62
590.321	153.62
591.086	143.62
591.851	136.62
592.616	131.62
593.381	125.62
594.146	117.62
594.911	111.62
595.675	110.62
596.44	102.62
597.204	100.62
597.969	96.62
598.733	88.62
599.497	88.62
600.261	80.62
601.025	82.62
601.79	76.62
602.553	69.62
603.317	69.62
604.081	67.62
604.845	62.62
605.609	57.62
606.372	58.62
607.136	57.62
607.899	53.62
608.662	55.62
609.426	51.62
610.189	50.62
610.952	45.62
611.715	42.62
612.478	40.62
613.241	40.62
614.004	39.62
614.767	38.62
615.529	37.62
616.292	36.62
617.055	33.62
617.817	30.62
618.579	31.62
619.342	30.62
620.104	27.62
620.866	28.62
621.628	24.62
622.39	25.62
623.152	26.62
623.914	24.62
624.676	22.62
625.438	23.62
626.199	19.62
626.961	24.62
627.722	22.62
628.484	22.62
629.245	17.62
630.006	18.62
630.768	16.62
631.529	17.62
632.29	19.62
633.051	17.62
633.812	16.62
634.573	14.62
635.333	16.62
636.094	17.62
636.855	17.62
637.615	16.62
638.376	15.62
639.136	12.62
639.896	12.62
640.657	14.62
641.417	13.62
642.177	14.62
642.937	12.62
643.697	11.62
644.457	13.62
645.216	13.62
645.976	12.62
646.736	11.62
647.495	8.62
648.255	11.62
649.014	12.62
649.774	7.62
650.533	12.62
651.292	10.62
652.051	10.62
652.81	10.62
653.569	8.62
654.328	9.62
655.087	7.62
655.846	8.62
656.604	8.62
657.363	9.62
658.121	7.62
658.88	8.62
659.638	5.62
660.397	9.62
661.155	6.62
661.913	8.62
662.671	10.62
663.429	9.62
664.187	7.62
664.945	7.62
665.703	8.62
666.46	8.62
667.218	7.62
667.976	7.62
668.733	6.62
669.49	6.62
670.248	7.62
671.005	8.62
671.762	8.62
672.519	6.62
673.276	5.62
674.033	5.62
674.79	7.62
675.547	4.62
676.304	5.62
677.06	5.62
677.817	4.62
678.574	9.62
679.33	7.62
680.086	6.62
680.843	5.62
681.599	6.62
682.355	7.62
683.111	6.62
683.867	5.62
684.623	7.62
685.379	4.62
686.135	5.62
686.89	6.62
687.646	4.62
688.402	7.62
689.157	5.62
689.912	5.62
690.668	8.62
691.423	4.62
692.178	3.62
692.933	7.62
693.688	4.62
694.443	4.62
695.198	5.62
695.953	7.62
696.708	1.62
697.462	5.62
698.217	4.62
698.972	4.62
699.726	6.62
700.48	4.62
701.235	4.62
701.989	5.62
702.743	4.62
703.497	4.62
704.251	3.62
705.005	4.62
705.759	5.62
706.513	5.62
707.266	6.62
708.02	3.62
708.774	6.62
709.527	4.62
710.28	6.62
711.034	7.62
711.787	4.62
712.54	5.62
713.293	4.62
714.046	5.62
714.799	5.62
715.552	4.62
716.305	2.62
717.058	5.62
717.81	4.62
718.563	4.62
719.315	7.62
720.068	5.62
720.82	6.62
721.573	5.62
722.325	4.62
723.077	4.62
723.829	3.62
724.581	4.62
725.333	4.62
726.085	6.62
726.836	6.62
727.588	3.62
728.34	5.62
729.091	6.62
729.843	3.62
730.594	6.62
731.346	5.62
732.097	7.62
732.848	6.62
733.599	7.62
734.35	6.62
735.101	7.62
735.852	4.62
736.603	4.62
737.354	7.62
738.104	5.62
738.855	7.62
739.605	6.62
740.356	8.62
741.106	4.62
741.856	8.62
742.607	7.62
743.357	6.62
744.107	8.62
744.857	6.62
745.607	9.62
746.357	5.62
747.106	6.62
747.856	8.62
748.606	6.62
749.355	7.62
750.105	5.62
750.854	5.62
751.603	8.62
752.353	6.62
753.102	9.62
753.851	9.62
754.6	5.62
755.349	10.62
756.098	6.62
756.847	8.62
757.595	9.62
758.344	5.62
759.093	5.62
759.841	8.62
760.589	9.62
761.338	6.62
762.086	7.62
762.834	7.62
763.582	7.62
764.331	10.62
765.079	9.62
765.826	9.62
766.574	10.62
767.322	8.62
768.07	7.62
768.817	10.62
769.565	8.62
770.312	10.62
771.06	9.62
771.807	10.62
772.554	10.62
773.302	11.62
774.049	9.62
774.796	10.62
775.543	10.62
776.29	11.62
777.036	13.62
777.783	12.62
778.53	10.62
779.276	11.62
780.023	11.62
780.769	9.62
781.516	13.62
782.262	12.62
783.008	8.62
783.754	13.62
784.5	11.62
785.246	11.62
785.992	13.62
786.738	10.62
787.484	8.62
788.23	10.62
788.975	10.62
789.721	7.62
790.466	11.62
791.212	10.62
791.957	9.62
792.702	10.62
793.447	11.62
794.193	8.62
794.938	13.62
795.683	8.62
796.427	9.62
797.172	10.62
797.917	9.62
798.662	10.62
799.406	7.62
800.151	10.62
800.895	8.62
801.64	8.62
802.384	8.62
803.128	8.62
803.872	8.62
804.616	8.62
805.36	5.62
806.104	8.62
806.848	6.62
807.592	6.62
808.336	6.62
809.079	9.62
809.823	7.62
810.566	6.62
811.31	8.62
812.053	8.62
812.796	6.62
813.539	8.62
814.283	5.62
815.026	7.62
815.769	6.62
816.511	3.62
817.254	7.62
817.997	7.62
818.74	5.62
819.482	6.62
820.225	8.62
820.967	8.62
821.71	6.62
822.452	6.62
823.194	5.62
823.936	5.62
824.678	5.62
825.42	5.62
826.162	5.62
826.904	5.62
827.646	4.62
828.388	4.62
829.129	3.62
829.871	6.62
830.612	5.62
831.354	6.62
832.095	6.62
832.836	4.62
833.577	6.62
834.319	2.62
835.06	2.62
835.801	2.62
836.542	3.62
837.282	3.62
838.023	4.62
838.764	5.62
839.504	2.62
840.245	4.62
840.985	4.62
841.726	2.62
842.466	6.62
843.206	4.62
843.946	3.62
844.687	6.62
845.427	3.62
846.166	3.62
846.906	2.62
847.646	5.62
848.386	4.62
849.125	4.62
849.865	4.62
850.605	3.62
851.344	3.62
852.083	4.62
852.823	2.62
853.562	2.62
854.301	1.62
855.04	4.62
855.779	4.62
856.518	4.62
857.257	4.62
857.995	3.62
858.734	5.62
859.473	2.62
860.211	2.62
860.95	2.62
861.688	4.62
862.426	1.62
863.165	1.62
863.903	3.62
864.641	1.62
865.379	-0.38
866.117	4.62
866.855	1.62
867.593	4.62
868.33	-0.38
869.068	2.62
869.806	0.62
870.543	1.62
871.28	1.62
872.018	2.62
872.755	3.62
873.492	3.62
874.229	0.62
874.967	0.62
875.703	2.62
876.44	1.62
877.177	1.62
877.914	2.62
878.651	1.62
879.387	1.62
880.124	2.62
880.86	0.62
881.597	1.62
882.333	0.62
883.069	3.62
883.806	1.62
884.542	1.62
885.278	0.62
886.014	3.62
886.749	0.62
887.485	0.62
888.221	0.62
888.957	2.62
889.692	1.62
890.428	2.62
891.163	-1.38
891.899	3.62
892.634	0.62
893.369	3.62
894.104	0.62
894.839	1.62
895.574	2.62
896.309	1.62
897.044	1.62
897.779	1.62
898.514	-2.38
899.248	3.62
899.983	2.62
900.717	-0.38
901.452	0.62
902.186	0.62
902.92	0.62
903.654	-0.38
904.389	2.62
905.123	2.62
905.857	1.62
906.59	0.62
907.324	1.62
908.058	2.62
908.792	0.62
909.525	2.62
910.259	2.62
910.992	-0.38
911.726	4.62
912.459	1.62
913.192	2.62
913.925	0.62
914.658	0.62
915.391	0.62
916.124	1.62
916.857	1.62
917.59	-0.38
918.323	1.62
919.055	1.62
919.788	1.62
920.521	0.62
921.253	1.62
921.985	0.62
922.718	0.62
923.45	0.62
924.182	-0.38
924.914	-0.38
925.646	-0.38
926.378	1.62
927.11	2.62
927.841	-1.38
928.573	-0.38
929.305	2.62
930.036	0.62
930.768	-1.38
931.499	0.62
932.23	3.62
932.962	3.62
933.693	1.62
934.424	-0.38
935.155	-1.38
935.886	1.62
936.617	1.62
937.348	2.62
938.078	-1.38
938.809	0.62
939.54	0.62
940.27	0.62
941.001	-0.38
941.731	1.62
942.461	0.62
943.191	0.62
943.922	-0.38
944.652	2.62
945.382	2.62
946.112	-0.38
946.841	1.62
947.571	-0.38
948.301	0.62
949.031	-1.38
949.76	-0.38
950.49	0.62
951.219	-0.38
951.948	1.62
952.678	0.62
953.407	-1.38
954.136	1.62
954.865	-0.38
955.594	0.62
956.323	0.62
957.052	-0.38
957.78	-0.38
958.509	1.62
959.238	1.62
959.966	0.62
960.695	2.62
961.423	-0.38
962.151	2.62
962.88	1.62
963.608	1.62
964.336	-0.38
965.064	-0.38
965.792	-0.38
966.52	-1.38
967.247	0.62
967.975	-0.38
968.703	0.62
969.43	2.62
970.158	-1.38
970.885	0.62
971.613	-1.38
972.34	0.62
973.067	0.62
973.794	-3.38
974.521	2.62
975.248	-1.38
975.975	0.62
976.702	0.62
977.429	0.62
978.156	-0.38
978.882	0.62
979.609	0.62
980.335	0.62
981.062	1.62
981.788	0.62
982.514	0.62
983.24	-1.38
983.967	0.62
984.693	1.62
985.419	1.62
986.144	0.62
986.87	0.62
987.596	-0.38
988.322	-0.38
989.047	-0.38
989.773	1.62
990.498	-1.38
991.224	1.62
991.949	1.62
992.674	0.62
993.399	0.62
994.124	2.62
994.849	3.62
995.574	0.62
996.299	0.62
997.024	1.62
997.749	1.62
998.473	1.62
999.198	-0.38
999.922	0.62
1000.647	0.62
1001.371	3.62
1002.095	-0.38
1002.82	-0.38
1003.544	-1.38
1004.268	2.62
1004.992	2.62
1005.716	2.62
1006.439	4.62
1007.163	3.62
1007.887	5.62
1008.611	0.62
1009.334	-1.38
1010.058	-1.38
1010.781	1.62
1011.504	0.62
1012.228	-0.38
1012.951	2.62
1013.674	-2.38
1014.397	-1.38
1015.12	-0.38
