节点500_425_QEPB04081__103__15-50-01-341.txt的数据

Date: Wed Nov 12 15:50:01 CST 2025
User: PC
Spectrometer: QEPB0408
触发模式: 0
积分时间 (秒): 1.000000E-2
Scans to average: 1
启用暗噪声校正: true
启用非线性校正: false
滑动平均宽度: 0
X轴模式: Wavelengths
Number of Pixels in Spectrum: 1044
>>>>>Begin Spectral Data<<<<<
220.843	1.25
221.644	3.25
222.444	2.25
223.244	2.25
224.045	3.25
224.845	3.25
225.645	4.25
226.445	4.25
227.245	2.25
228.045	7.25
228.845	1.25
229.645	3.25
230.444	3.25
231.244	4.25
232.043	4.25
232.843	3.25
233.642	2.25
234.442	3.25
235.241	7.25
236.04	7.25
236.839	6.25
237.638	6.25
238.437	4.25
239.236	9.25
240.035	6.25
240.833	8.25
241.632	7.25
242.43	5.25
243.229	6.25
244.027	8.25
244.826	9.25
245.624	6.25
246.422	8.25
247.22	10.25
248.018	8.25
248.816	12.25
249.614	8.25
250.412	9.25
251.21	9.25
252.007	10.25
252.805	12.25
253.602	11.25
254.4	13.25
255.197	10.25
255.994	13.25
256.791	12.25
257.589	13.25
258.386	14.25
259.183	13.25
259.979	15.25
260.776	15.25
261.573	16.25
262.37	17.25
263.166	17.25
263.963	17.25
264.759	18.25
265.556	19.25
266.352	21.25
267.148	16.25
267.944	20.25
268.74	21.25
269.536	19.25
270.332	23.25
271.128	22.25
271.924	23.25
272.719	23.25
273.515	24.25
274.311	24.25
275.106	26.25
275.901	24.25
276.697	22.25
277.492	25.25
278.287	22.25
279.082	25.25
279.877	25.25
280.672	24.25
281.467	25.25
282.262	24.25
283.056	29.25
283.851	28.25
284.646	24.25
285.44	26.25
286.234	25.25
287.029	27.25
287.823	24.25
288.617	24.25
289.411	23.25
290.205	25.25
290.999	26.25
291.793	22.25
292.587	23.25
293.381	22.25
294.174	20.25
294.968	23.25
295.761	18.25
296.555	22.25
297.348	18.25
298.141	19.25
298.935	24.25
299.728	19.25
300.521	20.25
301.314	17.25
302.107	18.25
302.899	16.25
303.692	16.25
304.485	18.25
305.277	17.25
306.07	17.25
306.862	17.25
307.655	16.25
308.447	14.25
309.239	15.25
310.031	17.25
310.823	16.25
311.615	14.25
312.407	11.25
313.199	12.25
313.991	13.25
314.783	12.25
315.574	12.25
316.366	9.25
317.157	13.25
317.949	11.25
318.74	10.25
319.531	10.25
320.322	12.25
321.113	11.25
321.904	8.25
322.695	9.25
323.486	8.25
324.277	8.25
325.068	9.25
325.858	7.25
326.649	9.25
327.439	9.25
328.23	10.25
329.02	8.25
329.81	10.25
330.6	8.25
331.391	8.25
332.181	10.25
332.971	6.25
333.76	9.25
334.55	9.25
335.34	8.25
336.13	10.25
336.919	7.25
337.709	7.25
338.498	8.25
339.287	10.25
340.077	8.25
340.866	7.25
341.655	6.25
342.444	8.25
343.233	9.25
344.022	10.25
344.811	7.25
345.6	8.25
346.388	6.25
347.177	8.25
347.965	6.25
348.754	8.25
349.542	7.25
350.33	8.25
351.119	8.25
351.907	7.25
352.695	7.25
353.483	9.25
354.271	5.25
355.059	6.25
355.846	6.25
356.634	9.25
357.422	6.25
358.209	6.25
358.997	6.25
359.784	8.25
360.571	6.25
361.359	6.25
362.146	7.25
362.933	8.25
363.72	8.25
364.507	6.25
365.294	6.25
366.081	7.25
366.867	7.25
367.654	7.25
368.44	6.25
369.227	9.25
370.013	7.25
370.8	6.25
371.586	5.25
372.372	6.25
373.158	9.25
373.944	7.25
374.73	5.25
375.516	8.25
376.302	5.25
377.088	7.25
377.873	6.25
378.659	6.25
379.445	7.25
380.23	6.25
381.015	6.25
381.801	8.25
382.586	9.25
383.371	9.25
384.156	6.25
384.941	9.25
385.726	7.25
386.511	8.25
387.296	6.25
388.08	7.25
388.865	6.25
389.649	7.25
390.434	8.25
391.218	9.25
392.003	8.25
392.787	7.25
393.571	6.25
394.355	9.25
395.139	7.25
395.923	9.25
396.707	8.25
397.491	9.25
398.274	9.25
399.058	12.25
399.842	11.25
400.625	10.25
401.408	7.25
402.192	10.25
402.975	12.25
403.758	12.25
404.541	10.25
405.324	9.25
406.107	11.25
406.89	10.25
407.673	10.25
408.456	11.25
409.238	14.25
410.021	13.25
410.803	10.25
411.586	11.25
412.368	10.25
413.151	13.25
413.933	11.25
414.715	12.25
415.497	16.25
416.279	12.25
417.061	12.25
417.843	12.25
418.624	13.25
419.406	12.25
420.188	14.25
420.969	14.25
421.751	12.25
422.532	15.25
423.313	16.25
424.095	17.25
424.876	17.25
425.657	16.25
426.438	17.25
427.219	17.25
428	16.25
428.78	18.25
429.561	18.25
430.342	17.25
431.122	20.25
431.903	22.25
432.683	20.25
433.464	23.25
434.244	24.25
435.024	22.25
435.804	26.25
436.584	26.25
437.364	27.25
438.144	30.25
438.924	33.25
439.704	32.25
440.483	36.25
441.263	34.25
442.042	37.25
442.822	39.25
443.601	41.25
444.38	44.25
445.16	50.25
445.939	52.25
446.718	52.25
447.497	58.25
448.276	64.25
449.054	72.25
449.833	73.25
450.612	83.25
451.391	86.25
452.169	98.25
452.948	105.25
453.726	117.25
454.504	127.25
455.282	142.25
456.061	157.25
456.839	179.25
457.617	196.25
458.395	215.25
459.172	241.25
459.95	275.25
460.728	301.25
461.506	335.25
462.283	373.25
463.061	423.25
463.838	471.25
464.615	532.25
465.393	600.25
466.17	654.25
466.947	743.25
467.724	834.25
468.501	916.25
469.278	1024.25
470.055	1129.25
470.831	1277.25
471.608	1402.25
472.385	1558.25
473.161	1739.25
473.938	1902.25
474.714	2129.25
475.49	2351.25
476.266	2619.25
477.043	2872.25
477.819	3202.25
478.595	3565.25
479.371	3911.25
480.146	4320.25
480.922	4735.25
481.698	5226.25
482.473	5762.25
483.249	6328.25
484.024	6951.25
484.8	7666.25
485.575	8418.25
486.35	9176.25
487.126	10078.25
487.901	10967.25
488.676	12048.25
489.451	13142.25
490.225	14312.25
491	15582.25
491.775	16928.25
492.55	18254.25
493.324	19724.25
494.099	21164.25
494.873	22576.25
495.647	24150.25
496.422	25640.25
497.196	27254.25
497.97	28796.25
498.744	30304.25
499.518	31751.25
500.292	32985.25
501.066	34038.25
501.839	35165.25
502.613	35949.25
503.387	36566.25
504.16	36859.25
504.934	37025.25
505.707	36966.25
506.48	36681.25
507.253	36171.25
508.027	35607.25
508.8	34797.25
509.573	33951.25
510.346	32863.25
511.118	31854.25
511.891	30706.25
512.664	29487.25
513.437	28179.25
514.209	27054.25
514.982	25974.25
515.754	24915.25
516.526	23740.25
517.298	22695.25
518.071	21811.25
518.843	20866.25
519.615	20023.25
520.387	19186.25
521.159	18462.25
521.93	17789.25
522.702	17154.25
523.474	16424.25
524.245	15745.25
525.017	14955.25
525.788	14310.25
526.56	13654.25
527.331	12966.25
528.102	12346.25
528.873	11697.25
529.644	11167.25
530.415	10602.25
531.186	10094.25
531.957	9526.25
532.728	9033.25
533.498	8492.25
534.269	8040.25
535.039	7630.25
535.81	7197.25
536.58	6751.25
537.351	6392.25
538.121	6030.25
538.891	5709.25
539.661	5408.25
540.431	5117.25
541.201	4855.25
541.971	4635.25
542.741	4353.25
543.51	4136.25
544.28	3925.25
545.05	3734.25
545.819	3578.25
546.588	3385.25
547.358	3208.25
548.127	3047.25
548.896	2885.25
549.665	2731.25
550.434	2583.25
551.203	2468.25
551.972	2332.25
552.741	2185.25
553.51	2089.25
554.278	1971.25
555.047	1852.25
555.815	1752.25
556.584	1643.25
557.352	1555.25
558.121	1462.25
558.889	1380.25
559.657	1318.25
560.425	1245.25
561.193	1168.25
561.961	1101.25
562.729	1043.25
563.496	987.25
564.264	931.25
565.032	884.25
565.799	841.25
566.567	790.25
567.334	736.25
568.101	704.25
568.869	666.25
569.636	624.25
570.403	598.25
571.17	559.25
571.937	530.25
572.704	494.25
573.471	465.25
574.237	446.25
575.004	412.25
575.771	393.25
576.537	365.25
577.303	343.25
578.07	326.25
578.836	309.25
579.602	290.25
580.368	275.25
581.134	261.25
581.9	252.25
582.666	238.25
583.432	221.25
584.198	210.25
584.964	202.25
585.729	184.25
586.495	182.25
587.26	171.25
588.025	161.25
588.791	154.25
589.556	146.25
590.321	142.25
591.086	134.25
591.851	131.25
592.616	124.25
593.381	117.25
594.146	110.25
594.911	107.25
595.675	98.25
596.44	92.25
597.204	91.25
597.969	85.25
598.733	84.25
599.497	83.25
600.261	73.25
601.025	71.25
601.79	69.25
602.553	66.25
603.317	60.25
604.081	58.25
604.845	58.25
605.609	57.25
606.372	52.25
607.136	53.25
607.899	53.25
608.662	45.25
609.426	45.25
610.189	44.25
610.952	41.25
611.715	41.25
612.478	40.25
613.241	39.25
614.004	39.25
614.767	36.25
615.529	37.25
616.292	32.25
617.055	30.25
617.817	28.25
618.579	32.25
619.342	27.25
620.104	26.25
620.866	24.25
621.628	27.25
622.39	22.25
623.152	26.25
623.914	22.25
624.676	24.25
625.438	20.25
626.199	22.25
626.961	17.25
627.722	20.25
628.484	18.25
629.245	21.25
630.006	18.25
630.768	20.25
631.529	18.25
632.29	18.25
633.051	16.25
633.812	15.25
634.573	12.25
635.333	14.25
636.094	12.25
636.855	15.25
637.615	16.25
638.376	14.25
639.136	14.25
639.896	13.25
640.657	10.25
641.417	10.25
642.177	14.25
642.937	11.25
643.697	12.25
644.457	11.25
645.216	11.25
645.976	12.25
646.736	12.25
647.495	11.25
648.255	10.25
649.014	9.25
649.774	12.25
650.533	8.25
651.292	9.25
652.051	10.25
652.81	9.25
653.569	10.25
654.328	8.25
655.087	8.25
655.846	9.25
656.604	10.25
657.363	7.25
658.121	5.25
658.88	8.25
659.638	7.25
660.397	7.25
661.155	6.25
661.913	8.25
662.671	6.25
663.429	7.25
664.187	10.25
664.945	8.25
665.703	6.25
666.46	6.25
667.218	7.25
667.976	6.25
668.733	6.25
669.49	8.25
670.248	5.25
671.005	6.25
671.762	7.25
672.519	4.25
673.276	8.25
674.033	7.25
674.79	5.25
675.547	6.25
676.304	6.25
677.06	7.25
677.817	5.25
678.574	7.25
679.33	5.25
680.086	7.25
680.843	6.25
681.599	7.25
682.355	7.25
683.111	3.25
683.867	4.25
684.623	5.25
685.379	6.25
686.135	6.25
686.89	5.25
687.646	6.25
688.402	6.25
689.157	7.25
689.912	4.25
690.668	3.25
691.423	5.25
692.178	6.25
692.933	6.25
693.688	6.25
694.443	4.25
695.198	5.25
695.953	5.25
696.708	4.25
697.462	5.25
698.217	8.25
698.972	2.25
699.726	5.25
700.48	4.25
701.235	5.25
701.989	6.25
702.743	4.25
703.497	4.25
704.251	7.25
705.005	4.25
705.759	6.25
706.513	6.25
707.266	5.25
708.02	3.25
708.774	5.25
709.527	5.25
710.28	5.25
711.034	5.25
711.787	3.25
712.54	4.25
713.293	5.25
714.046	6.25
714.799	2.25
715.552	5.25
716.305	4.25
717.058	3.25
717.81	2.25
718.563	4.25
719.315	5.25
720.068	4.25
720.82	6.25
721.573	4.25
722.325	6.25
723.077	6.25
723.829	6.25
724.581	5.25
725.333	7.25
726.085	5.25
726.836	7.25
727.588	6.25
728.34	4.25
729.091	4.25
729.843	5.25
730.594	5.25
731.346	5.25
732.097	6.25
732.848	8.25
733.599	5.25
734.35	3.25
735.101	7.25
735.852	4.25
736.603	7.25
737.354	4.25
738.104	5.25
738.855	3.25
739.605	7.25
740.356	7.25
741.106	7.25
741.856	5.25
742.607	6.25
743.357	7.25
744.107	9.25
744.857	8.25
745.607	7.25
746.357	6.25
747.106	6.25
747.856	5.25
748.606	7.25
749.355	7.25
750.105	9.25
750.854	7.25
751.603	8.25
752.353	9.25
753.102	8.25
753.851	9.25
754.6	10.25
755.349	9.25
756.098	9.25
756.847	6.25
757.595	7.25
758.344	6.25
759.093	8.25
759.841	9.25
760.589	9.25
761.338	11.25
762.086	9.25
762.834	10.25
763.582	9.25
764.331	10.25
765.079	8.25
765.826	10.25
766.574	13.25
767.322	9.25
768.07	10.25
768.817	8.25
769.565	10.25
770.312	12.25
771.06	11.25
771.807	11.25
772.554	11.25
773.302	11.25
774.049	12.25
774.796	10.25
775.543	13.25
776.29	10.25
777.036	11.25
777.783	12.25
778.53	11.25
779.276	12.25
780.023	12.25
780.769	12.25
781.516	12.25
782.262	12.25
783.008	12.25
783.754	12.25
784.5	13.25
785.246	12.25
785.992	10.25
786.738	11.25
787.484	10.25
788.23	12.25
788.975	11.25
789.721	12.25
790.466	11.25
791.212	11.25
791.957	12.25
792.702	9.25
793.447	12.25
794.193	11.25
794.938	11.25
795.683	9.25
796.427	9.25
797.172	9.25
797.917	8.25
798.662	10.25
799.406	10.25
800.151	8.25
800.895	9.25
801.64	9.25
802.384	11.25
803.128	7.25
803.872	9.25
804.616	9.25
805.36	8.25
806.104	9.25
806.848	9.25
807.592	9.25
808.336	7.25
809.079	8.25
809.823	6.25
810.566	8.25
811.31	8.25
812.053	7.25
812.796	4.25
813.539	7.25
814.283	7.25
815.026	4.25
815.769	6.25
816.511	4.25
817.254	5.25
817.997	6.25
818.74	6.25
819.482	6.25
820.225	10.25
820.967	4.25
821.71	6.25
822.452	6.25
823.194	6.25
823.936	6.25
824.678	3.25
825.42	5.25
826.162	7.25
826.904	6.25
827.646	4.25
828.388	4.25
829.129	4.25
829.871	3.25
830.612	5.25
831.354	2.25
832.095	4.25
832.836	5.25
833.577	1.25
834.319	4.25
835.06	3.25
835.801	3.25
836.542	4.25
837.282	4.25
838.023	6.25
838.764	5.25
839.504	3.25
840.245	6.25
840.985	2.25
841.726	3.25
842.466	4.25
843.206	2.25
843.946	8.25
844.687	4.25
845.427	4.25
846.166	4.25
846.906	4.25
847.646	2.25
848.386	5.25
849.125	4.25
849.865	0.25
850.605	3.25
851.344	5.25
852.083	5.25
852.823	2.25
853.562	4.25
854.301	2.25
855.04	4.25
855.779	5.25
856.518	2.25
857.257	3.25
857.995	2.25
858.734	1.25
859.473	5.25
860.211	2.25
860.95	4.25
861.688	4.25
862.426	2.25
863.165	2.25
863.903	2.25
864.641	2.25
865.379	1.25
866.117	2.25
866.855	1.25
867.593	2.25
868.33	1.25
869.068	1.25
869.806	0.25
870.543	2.25
871.28	3.25
872.018	2.25
872.755	1.25
873.492	1.25
874.229	0.25
874.967	4.25
875.703	2.25
876.44	2.25
877.177	1.25
877.914	1.25
878.651	1.25
879.387	0.25
880.124	1.25
880.86	-0.75
881.597	3.25
882.333	1.25
883.069	0.25
883.806	3.25
884.542	2.25
885.278	0.25
886.014	2.25
886.749	-1.75
887.485	1.25
888.221	1.25
888.957	0.25
889.692	1.25
890.428	0.25
891.163	0.25
891.899	0.25
892.634	2.25
893.369	0.25
894.104	1.25
894.839	1.25
895.574	-0.75
896.309	0.25
897.044	-1.75
897.779	1.25
898.514	-0.75
899.248	1.25
899.983	0.25
900.717	0.25
901.452	2.25
902.186	-0.75
902.92	1.25
903.654	1.25
904.389	1.25
905.123	-0.75
905.857	1.25
906.59	2.25
907.324	0.25
908.058	2.25
908.792	2.25
909.525	0.25
910.259	1.25
910.992	0.25
911.726	1.25
912.459	0.25
913.192	1.25
913.925	0.25
914.658	2.25
915.391	0.25
916.124	-2.75
916.857	-1.75
917.59	-1.75
918.323	0.25
919.055	2.25
919.788	-1.75
920.521	0.25
921.253	-3.75
921.985	0.25
922.718	0.25
923.45	-1.75
924.182	-0.75
924.914	1.25
925.646	1.25
926.378	0.25
927.11	0.25
927.841	1.25
928.573	0.25
929.305	1.25
930.036	0.25
930.768	0.25
931.499	1.25
932.23	0.25
932.962	1.25
933.693	-1.75
934.424	2.25
935.155	-3.75
935.886	1.25
936.617	2.25
937.348	-1.75
938.078	3.25
938.809	0.25
939.54	-1.75
940.27	1.25
941.001	-1.75
941.731	0.25
942.461	-0.75
943.191	0.25
943.922	-0.75
944.652	0.25
945.382	2.25
946.112	-1.75
946.841	1.25
947.571	0.25
948.301	1.25
949.031	-1.75
949.76	-2.75
950.49	-0.75
951.219	-2.75
951.948	0.25
952.678	-1.75
953.407	0.25
954.136	1.25
954.865	1.25
955.594	-0.75
956.323	0.25
957.052	1.25
957.78	0.25
958.509	-0.75
959.238	-1.75
959.966	1.25
960.695	-1.75
961.423	1.25
962.151	-0.75
962.88	-0.75
963.608	-0.75
964.336	2.25
965.064	0.25
965.792	-0.75
966.52	1.25
967.247	0.25
967.975	1.25
968.703	1.25
969.43	0.25
970.158	0.25
970.885	0.25
971.613	-1.75
972.34	-0.75
973.067	0.25
973.794	-1.75
974.521	1.25
975.248	0.25
975.975	0.25
976.702	1.25
977.429	-0.75
978.156	0.25
978.882	2.25
979.609	-0.75
980.335	1.25
981.062	-0.75
981.788	1.25
982.514	-1.75
983.24	-0.75
983.967	-0.75
984.693	1.25
985.419	2.25
986.144	-0.75
986.87	-1.75
987.596	-1.75
988.322	0.25
989.047	-0.75
989.773	1.25
990.498	3.25
991.224	-0.75
991.949	3.25
992.674	-0.75
993.399	1.25
994.124	0.25
994.849	-0.75
995.574	-1.75
996.299	0.25
997.024	0.25
997.749	0.25
998.473	-1.75
999.198	0.25
999.922	0.25
1000.647	0.25
1001.371	4.25
1002.095	-0.75
1002.82	0.25
1003.544	-1.75
1004.268	2.25
1004.992	2.25
1005.716	-0.75
1006.439	6.25
1007.163	1.25
1007.887	1.25
1008.611	0.25
1009.334	1.25
1010.058	3.25
1010.781	-0.75
1011.504	2.25
1012.228	2.25
1012.951	-0.75
1013.674	0.25
1014.397	0.25
1015.12	-1.75
