节点500_425_QEPB04081__177__15-51-15-153.txt的数据

Date: Wed Nov 12 15:51:15 CST 2025
User: PC
Spectrometer: QEPB0408
触发模式: 0
积分时间 (秒): 1.000000E-2
Scans to average: 1
启用暗噪声校正: true
启用非线性校正: false
滑动平均宽度: 0
X轴模式: Wavelengths
Number of Pixels in Spectrum: 1044
>>>>>Begin Spectral Data<<<<<
220.843	4.5
221.644	4.5
222.444	1.5
223.244	2.5
224.045	4.5
224.845	5.5
225.645	3.5
226.445	3.5
227.245	4.5
228.045	4.5
228.845	5.5
229.645	5.5
230.444	2.5
231.244	5.5
232.043	5.5
232.843	7.5
233.642	5.5
234.442	6.5
235.241	8.5
236.04	5.5
236.839	7.5
237.638	7.5
238.437	7.5
239.236	8.5
240.035	9.5
240.833	7.5
241.632	7.5
242.43	9.5
243.229	8.5
244.027	4.5
244.826	7.5
245.624	6.5
246.422	8.5
247.22	9.5
248.018	9.5
248.816	9.5
249.614	8.5
250.412	10.5
251.21	10.5
252.007	11.5
252.805	10.5
253.602	11.5
254.4	12.5
255.197	10.5
255.994	12.5
256.791	12.5
257.589	14.5
258.386	12.5
259.183	14.5
259.979	14.5
260.776	12.5
261.573	18.5
262.37	15.5
263.166	17.5
263.963	16.5
264.759	18.5
265.556	19.5
266.352	19.5
267.148	17.5
267.944	19.5
268.74	20.5
269.536	21.5
270.332	21.5
271.128	24.5
271.924	20.5
272.719	23.5
273.515	20.5
274.311	22.5
275.106	24.5
275.901	24.5
276.697	23.5
277.492	25.5
278.287	27.5
279.082	26.5
279.877	21.5
280.672	25.5
281.467	26.5
282.262	22.5
283.056	25.5
283.851	21.5
284.646	26.5
285.44	24.5
286.234	25.5
287.029	27.5
287.823	25.5
288.617	27.5
289.411	24.5
290.205	24.5
290.999	25.5
291.793	24.5
292.587	24.5
293.381	21.5
294.174	22.5
294.968	20.5
295.761	21.5
296.555	18.5
297.348	21.5
298.141	20.5
298.935	18.5
299.728	19.5
300.521	16.5
301.314	16.5
302.107	18.5
302.899	14.5
303.692	18.5
304.485	19.5
305.277	15.5
306.07	18.5
306.862	13.5
307.655	14.5
308.447	18.5
309.239	19.5
310.031	16.5
310.823	13.5
311.615	14.5
312.407	11.5
313.199	13.5
313.991	13.5
314.783	11.5
315.574	12.5
316.366	12.5
317.157	12.5
317.949	10.5
318.74	12.5
319.531	9.5
320.322	9.5
321.113	8.5
321.904	10.5
322.695	10.5
323.486	7.5
324.277	10.5
325.068	10.5
325.858	9.5
326.649	8.5
327.439	10.5
328.23	9.5
329.02	9.5
329.81	9.5
330.6	7.5
331.391	10.5
332.181	10.5
332.971	9.5
333.76	9.5
334.55	7.5
335.34	9.5
336.13	10.5
336.919	8.5
337.709	9.5
338.498	7.5
339.287	9.5
340.077	10.5
340.866	8.5
341.655	10.5
342.444	9.5
343.233	10.5
344.022	10.5
344.811	7.5
345.6	5.5
346.388	8.5
347.177	9.5
347.965	10.5
348.754	9.5
349.542	8.5
350.33	6.5
351.119	8.5
351.907	9.5
352.695	8.5
353.483	6.5
354.271	7.5
355.059	6.5
355.846	8.5
356.634	8.5
357.422	6.5
358.209	8.5
358.997	6.5
359.784	7.5
360.571	7.5
361.359	7.5
362.146	8.5
362.933	6.5
363.72	5.5
364.507	9.5
365.294	4.5
366.081	5.5
366.867	7.5
367.654	6.5
368.44	6.5
369.227	6.5
370.013	5.5
370.8	7.5
371.586	7.5
372.372	6.5
373.158	6.5
373.944	7.5
374.73	7.5
375.516	6.5
376.302	6.5
377.088	8.5
377.873	8.5
378.659	6.5
379.445	8.5
380.23	4.5
381.015	6.5
381.801	6.5
382.586	8.5
383.371	6.5
384.156	8.5
384.941	9.5
385.726	4.5
386.511	8.5
387.296	7.5
388.08	11.5
388.865	9.5
389.649	8.5
390.434	9.5
391.218	8.5
392.003	9.5
392.787	8.5
393.571	6.5
394.355	10.5
395.139	10.5
395.923	10.5
396.707	10.5
397.491	9.5
398.274	10.5
399.058	7.5
399.842	11.5
400.625	8.5
401.408	9.5
402.192	9.5
402.975	9.5
403.758	12.5
404.541	12.5
405.324	10.5
406.107	9.5
406.89	9.5
407.673	11.5
408.456	10.5
409.238	11.5
410.021	9.5
410.803	9.5
411.586	9.5
412.368	9.5
413.151	10.5
413.933	10.5
414.715	11.5
415.497	11.5
416.279	10.5
417.061	15.5
417.843	12.5
418.624	15.5
419.406	13.5
420.188	11.5
420.969	13.5
421.751	12.5
422.532	15.5
423.313	16.5
424.095	15.5
424.876	16.5
425.657	15.5
426.438	17.5
427.219	15.5
428	17.5
428.78	18.5
429.561	18.5
430.342	19.5
431.122	20.5
431.903	20.5
432.683	22.5
433.464	23.5
434.244	22.5
435.024	25.5
435.804	25.5
436.584	25.5
437.364	29.5
438.144	27.5
438.924	35.5
439.704	32.5
440.483	34.5
441.263	35.5
442.042	37.5
442.822	41.5
443.601	39.5
444.38	45.5
445.16	48.5
445.939	54.5
446.718	57.5
447.497	59.5
448.276	66.5
449.054	73.5
449.833	71.5
450.612	85.5
451.391	95.5
452.169	100.5
452.948	105.5
453.726	120.5
454.504	131.5
455.282	146.5
456.061	161.5
456.839	183.5
457.617	205.5
458.395	221.5
459.172	258.5
459.95	277.5
460.728	318.5
461.506	350.5
462.283	382.5
463.061	432.5
463.838	477.5
464.615	536.5
465.393	611.5
466.17	674.5
466.947	755.5
467.724	841.5
468.501	928.5
469.278	1035.5
470.055	1150.5
470.831	1289.5
471.608	1425.5
472.385	1588.5
473.161	1748.5
473.938	1940.5
474.714	2166.5
475.49	2385.5
476.266	2608.5
477.043	2886.5
477.819	3217.5
478.595	3528.5
479.371	3897.5
480.146	4269.5
480.922	4722.5
481.698	5183.5
482.473	5699.5
483.249	6255.5
484.024	6869.5
484.8	7544.5
485.575	8208.5
486.35	8999.5
487.126	9876.5
487.901	10730.5
488.676	11746.5
489.451	12799.5
490.225	13900.5
491	15142.5
491.775	16422.5
492.55	17746.5
493.324	19131.5
494.099	20445.5
494.873	21889.5
495.647	23402.5
496.422	24890.5
497.196	26401.5
497.97	27973.5
498.744	29403.5
499.518	30840.5
500.292	32021.5
501.066	33148.5
501.839	34230.5
502.613	35180.5
503.387	35772.5
504.16	36247.5
504.934	36316.5
505.707	36426.5
506.48	36220.5
507.253	35774.5
508.027	35235.5
508.8	34608.5
509.573	33750.5
510.346	32769.5
511.118	31891.5
511.891	30730.5
512.664	29555.5
513.437	28405.5
514.209	27134.5
514.982	26146.5
515.754	25055.5
516.526	23951.5
517.298	22885.5
518.071	21927.5
518.843	21074.5
519.615	20118.5
520.387	19348.5
521.159	18601.5
521.93	17934.5
522.702	17166.5
523.474	16498.5
524.245	15871.5
525.017	15118.5
525.788	14391.5
526.56	13732.5
527.331	13083.5
528.102	12479.5
528.873	11864.5
529.644	11281.5
530.415	10802.5
531.186	10225.5
531.957	9705.5
532.728	9166.5
533.498	8627.5
534.269	8181.5
535.039	7735.5
535.81	7336.5
536.58	6889.5
537.351	6463.5
538.121	6168.5
538.891	5817.5
539.661	5514.5
540.431	5237.5
541.201	4918.5
541.971	4677.5
542.741	4453.5
543.51	4219.5
544.28	4036.5
545.05	3788.5
545.819	3642.5
546.588	3437.5
547.358	3287.5
548.127	3104.5
548.896	2953.5
549.665	2776.5
550.434	2672.5
551.203	2514.5
551.972	2366.5
552.741	2249.5
553.51	2121.5
554.278	1997.5
555.047	1881.5
555.815	1789.5
556.584	1687.5
557.352	1585.5
558.121	1495.5
558.889	1419.5
559.657	1330.5
560.425	1266.5
561.193	1184.5
561.961	1127.5
562.729	1062.5
563.496	1017.5
564.264	942.5
565.032	892.5
565.799	847.5
566.567	807.5
567.334	760.5
568.101	720.5
568.869	681.5
569.636	645.5
570.403	608.5
571.17	571.5
571.937	539.5
572.704	505.5
573.471	484.5
574.237	454.5
575.004	424.5
575.771	408.5
576.537	377.5
577.303	357.5
578.07	334.5
578.836	311.5
579.602	296.5
580.368	281.5
581.134	271.5
581.9	256.5
582.666	245.5
583.432	234.5
584.198	216.5
584.964	209.5
585.729	201.5
586.495	191.5
587.26	178.5
588.025	166.5
588.791	158.5
589.556	150.5
590.321	144.5
591.086	136.5
591.851	126.5
592.616	121.5
593.381	115.5
594.146	115.5
594.911	104.5
595.675	100.5
596.44	98.5
597.204	92.5
597.969	85.5
598.733	86.5
599.497	84.5
600.261	78.5
601.025	74.5
601.79	69.5
602.553	69.5
603.317	62.5
604.081	64.5
604.845	61.5
605.609	53.5
606.372	55.5
607.136	52.5
607.899	53.5
608.662	50.5
609.426	44.5
610.189	44.5
610.952	42.5
611.715	41.5
612.478	38.5
613.241	40.5
614.004	36.5
614.767	33.5
615.529	33.5
616.292	33.5
617.055	32.5
617.817	30.5
618.579	30.5
619.342	30.5
620.104	26.5
620.866	26.5
621.628	28.5
622.39	23.5
623.152	26.5
623.914	25.5
624.676	22.5
625.438	21.5
626.199	21.5
626.961	21.5
627.722	22.5
628.484	21.5
629.245	18.5
630.006	21.5
630.768	18.5
631.529	17.5
632.29	20.5
633.051	18.5
633.812	18.5
634.573	14.5
635.333	14.5
636.094	12.5
636.855	16.5
637.615	14.5
638.376	13.5
639.136	14.5
639.896	12.5
640.657	14.5
641.417	10.5
642.177	11.5
642.937	12.5
643.697	11.5
644.457	11.5
645.216	13.5
645.976	9.5
646.736	10.5
647.495	10.5
648.255	9.5
649.014	9.5
649.774	11.5
650.533	9.5
651.292	9.5
652.051	10.5
652.81	8.5
653.569	6.5
654.328	8.5
655.087	7.5
655.846	11.5
656.604	9.5
657.363	7.5
658.121	7.5
658.88	9.5
659.638	7.5
660.397	8.5
661.155	9.5
661.913	7.5
662.671	6.5
663.429	8.5
664.187	7.5
664.945	7.5
665.703	5.5
666.46	7.5
667.218	4.5
667.976	8.5
668.733	4.5
669.49	7.5
670.248	6.5
671.005	7.5
671.762	4.5
672.519	7.5
673.276	6.5
674.033	7.5
674.79	6.5
675.547	8.5
676.304	5.5
677.06	6.5
677.817	5.5
678.574	4.5
679.33	6.5
680.086	4.5
680.843	5.5
681.599	4.5
682.355	6.5
683.111	7.5
683.867	3.5
684.623	6.5
685.379	4.5
686.135	5.5
686.89	5.5
687.646	4.5
688.402	4.5
689.157	6.5
689.912	6.5
690.668	4.5
691.423	6.5
692.178	5.5
692.933	4.5
693.688	4.5
694.443	8.5
695.198	6.5
695.953	2.5
696.708	5.5
697.462	7.5
698.217	5.5
698.972	5.5
699.726	5.5
700.48	6.5
701.235	4.5
701.989	2.5
702.743	8.5
703.497	4.5
704.251	6.5
705.005	4.5
705.759	4.5
706.513	7.5
707.266	5.5
708.02	5.5
708.774	4.5
709.527	4.5
710.28	5.5
711.034	6.5
711.787	5.5
712.54	5.5
713.293	6.5
714.046	5.5
714.799	5.5
715.552	4.5
716.305	3.5
717.058	6.5
717.81	3.5
718.563	6.5
719.315	3.5
720.068	4.5
720.82	4.5
721.573	4.5
722.325	6.5
723.077	7.5
723.829	7.5
724.581	5.5
725.333	5.5
726.085	8.5
726.836	5.5
727.588	6.5
728.34	5.5
729.091	6.5
729.843	7.5
730.594	5.5
731.346	4.5
732.097	6.5
732.848	5.5
733.599	6.5
734.35	7.5
735.101	6.5
735.852	6.5
736.603	4.5
737.354	7.5
738.104	4.5
738.855	5.5
739.605	4.5
740.356	5.5
741.106	6.5
741.856	8.5
742.607	3.5
743.357	7.5
744.107	8.5
744.857	8.5
745.607	8.5
746.357	9.5
747.106	4.5
747.856	8.5
748.606	7.5
749.355	9.5
750.105	6.5
750.854	9.5
751.603	7.5
752.353	9.5
753.102	9.5
753.851	7.5
754.6	10.5
755.349	8.5
756.098	10.5
756.847	7.5
757.595	8.5
758.344	8.5
759.093	7.5
759.841	10.5
760.589	10.5
761.338	8.5
762.086	8.5
762.834	9.5
763.582	8.5
764.331	10.5
765.079	10.5
765.826	11.5
766.574	10.5
767.322	9.5
768.07	10.5
768.817	10.5
769.565	8.5
770.312	13.5
771.06	11.5
771.807	11.5
772.554	10.5
773.302	8.5
774.049	10.5
774.796	10.5
775.543	11.5
776.29	11.5
777.036	10.5
777.783	10.5
778.53	13.5
779.276	10.5
780.023	12.5
780.769	10.5
781.516	11.5
782.262	13.5
783.008	9.5
783.754	10.5
784.5	12.5
785.246	12.5
785.992	12.5
786.738	11.5
787.484	12.5
788.23	14.5
788.975	13.5
789.721	12.5
790.466	12.5
791.212	12.5
791.957	11.5
792.702	11.5
793.447	13.5
794.193	10.5
794.938	10.5
795.683	9.5
796.427	10.5
797.172	8.5
797.917	11.5
798.662	10.5
799.406	11.5
800.151	7.5
800.895	10.5
801.64	12.5
802.384	8.5
803.128	8.5
803.872	9.5
804.616	7.5
805.36	9.5
806.104	9.5
806.848	7.5
807.592	6.5
808.336	6.5
809.079	5.5
809.823	8.5
810.566	8.5
811.31	8.5
812.053	7.5
812.796	5.5
813.539	9.5
814.283	5.5
815.026	6.5
815.769	5.5
816.511	6.5
817.254	7.5
817.997	7.5
818.74	7.5
819.482	5.5
820.225	7.5
820.967	4.5
821.71	5.5
822.452	6.5
823.194	4.5
823.936	5.5
824.678	5.5
825.42	7.5
826.162	5.5
826.904	5.5
827.646	5.5
828.388	4.5
829.129	5.5
829.871	7.5
830.612	6.5
831.354	4.5
832.095	1.5
832.836	2.5
833.577	5.5
834.319	5.5
835.06	5.5
835.801	3.5
836.542	6.5
837.282	4.5
838.023	3.5
838.764	6.5
839.504	1.5
840.245	4.5
840.985	4.5
841.726	1.5
842.466	3.5
843.206	5.5
843.946	4.5
844.687	3.5
845.427	4.5
846.166	3.5
846.906	4.5
847.646	4.5
848.386	4.5
849.125	4.5
849.865	3.5
850.605	3.5
851.344	7.5
852.083	3.5
852.823	2.5
853.562	5.5
854.301	3.5
855.04	4.5
855.779	4.5
856.518	2.5
857.257	2.5
857.995	2.5
858.734	2.5
859.473	2.5
860.211	1.5
860.95	4.5
861.688	0.5
862.426	2.5
863.165	3.5
863.903	2.5
864.641	5.5
865.379	3.5
866.117	1.5
866.855	2.5
867.593	1.5
868.33	1.5
869.068	2.5
869.806	0.5
870.543	2.5
871.28	0.5
872.018	-0.5
872.755	-0.5
873.492	1.5
874.229	3.5
874.967	0.5
875.703	2.5
876.44	1.5
877.177	2.5
877.914	-0.5
878.651	1.5
879.387	0.5
880.124	0.5
880.86	-0.5
881.597	1.5
882.333	2.5
883.069	2.5
883.806	1.5
884.542	2.5
885.278	1.5
886.014	2.5
886.749	1.5
887.485	0.5
888.221	0.5
888.957	0.5
889.692	2.5
890.428	1.5
891.163	0.5
891.899	1.5
892.634	2.5
893.369	2.5
894.104	0.5
894.839	1.5
895.574	0.5
896.309	2.5
897.044	0.5
897.779	0.5
898.514	0.5
899.248	1.5
899.983	1.5
900.717	-0.5
901.452	0.5
902.186	3.5
902.92	1.5
903.654	1.5
904.389	-1.5
905.123	2.5
905.857	1.5
906.59	-1.5
907.324	-1.5
908.058	2.5
908.792	0.5
909.525	0.5
910.259	3.5
910.992	-0.5
911.726	-0.5
912.459	1.5
913.192	2.5
913.925	1.5
914.658	1.5
915.391	1.5
916.124	3.5
916.857	0.5
917.59	1.5
918.323	2.5
919.055	1.5
919.788	2.5
920.521	-0.5
921.253	2.5
921.985	-0.5
922.718	1.5
923.45	-0.5
924.182	2.5
924.914	0.5
925.646	2.5
926.378	1.5
927.11	0.5
927.841	1.5
928.573	1.5
929.305	-2.5
930.036	1.5
930.768	-0.5
931.499	-0.5
932.23	1.5
932.962	0.5
933.693	-0.5
934.424	2.5
935.155	0.5
935.886	-1.5
936.617	2.5
937.348	2.5
938.078	-0.5
938.809	2.5
939.54	-0.5
940.27	2.5
941.001	0.5
941.731	0.5
942.461	-1.5
943.191	-0.5
943.922	0.5
944.652	0.5
945.382	0.5
946.112	1.5
946.841	-1.5
947.571	0.5
948.301	-0.5
949.031	0.5
949.76	1.5
950.49	-0.5
951.219	-1.5
951.948	1.5
952.678	0.5
953.407	-1.5
954.136	-1.5
954.865	-0.5
955.594	-1.5
956.323	0.5
957.052	-1.5
957.78	-2.5
958.509	-0.5
959.238	-1.5
959.966	1.5
960.695	-0.5
961.423	0.5
962.151	-0.5
962.88	0.5
963.608	2.5
964.336	-0.5
965.064	1.5
965.792	1.5
966.52	0.5
967.247	0.5
967.975	0.5
968.703	1.5
969.43	-0.5
970.158	0.5
970.885	-1.5
971.613	0.5
972.34	0.5
973.067	-0.5
973.794	1.5
974.521	-0.5
975.248	-1.5
975.975	-0.5
976.702	-0.5
977.429	-0.5
978.156	-1.5
978.882	-0.5
979.609	-0.5
980.335	-0.5
981.062	0.5
981.788	-0.5
982.514	0.5
983.24	-0.5
983.967	0.5
984.693	1.5
985.419	0.5
986.144	0.5
986.87	1.5
987.596	0.5
988.322	-0.5
989.047	0.5
989.773	1.5
990.498	-0.5
991.224	2.5
991.949	0.5
992.674	0.5
993.399	-0.5
994.124	0.5
994.849	-1.5
995.574	-0.5
996.299	1.5
997.024	1.5
997.749	-1.5
998.473	0.5
999.198	0.5
999.922	2.5
1000.647	-0.5
1001.371	3.5
1002.095	0.5
1002.82	-0.5
1003.544	-1.5
1004.268	2.5
1004.992	1.5
1005.716	3.5
1006.439	3.5
1007.163	2.5
1007.887	3.5
1008.611	0.5
1009.334	0.5
1010.058	-0.5
1010.781	0.5
1011.504	0.5
1012.228	-1.5
1012.951	0.5
1013.674	-1.5
1014.397	0.5
1015.12	-1.5
