节点500_425_QEPB04081__49__15-49-07-412.txt的数据

Date: Wed Nov 12 15:49:07 CST 2025
User: PC
Spectrometer: QEPB0408
触发模式: 0
积分时间 (秒): 1.000000E-2
Scans to average: 1
启用暗噪声校正: true
启用非线性校正: false
滑动平均宽度: 0
X轴模式: Wavelengths
Number of Pixels in Spectrum: 1044
>>>>>Begin Spectral Data<<<<<
220.843	0.62
221.644	2.62
222.444	1.62
223.244	4.62
224.045	4.62
224.845	5.62
225.645	3.62
226.445	4.62
227.245	3.62
228.045	6.62
228.845	3.62
229.645	5.62
230.444	5.62
231.244	8.62
232.043	6.62
232.843	4.62
233.642	6.62
234.442	4.62
235.241	4.62
236.04	7.62
236.839	7.62
237.638	8.62
238.437	4.62
239.236	5.62
240.035	8.62
240.833	10.62
241.632	7.62
242.43	8.62
243.229	7.62
244.027	8.62
244.826	8.62
245.624	7.62
246.422	8.62
247.22	9.62
248.018	12.62
248.816	8.62
249.614	10.62
250.412	11.62
251.21	11.62
252.007	9.62
252.805	12.62
253.602	9.62
254.4	10.62
255.197	12.62
255.994	14.62
256.791	12.62
257.589	14.62
258.386	16.62
259.183	14.62
259.979	13.62
260.776	16.62
261.573	20.62
262.37	18.62
263.166	18.62
263.963	16.62
264.759	20.62
265.556	18.62
266.352	18.62
267.148	20.62
267.944	19.62
268.74	21.62
269.536	21.62
270.332	22.62
271.128	22.62
271.924	21.62
272.719	23.62
273.515	26.62
274.311	25.62
275.106	27.62
275.901	24.62
276.697	26.62
277.492	23.62
278.287	26.62
279.082	25.62
279.877	22.62
280.672	27.62
281.467	24.62
282.262	24.62
283.056	28.62
283.851	26.62
284.646	26.62
285.44	23.62
286.234	27.62
287.029	25.62
287.823	24.62
288.617	24.62
289.411	26.62
290.205	26.62
290.999	24.62
291.793	23.62
292.587	24.62
293.381	24.62
294.174	22.62
294.968	21.62
295.761	20.62
296.555	20.62
297.348	20.62
298.141	17.62
298.935	19.62
299.728	20.62
300.521	17.62
301.314	18.62
302.107	16.62
302.899	15.62
303.692	17.62
304.485	15.62
305.277	17.62
306.07	17.62
306.862	12.62
307.655	15.62
308.447	15.62
309.239	17.62
310.031	17.62
310.823	13.62
311.615	14.62
312.407	13.62
313.199	12.62
313.991	9.62
314.783	12.62
315.574	10.62
316.366	11.62
317.157	10.62
317.949	9.62
318.74	11.62
319.531	12.62
320.322	13.62
321.113	10.62
321.904	11.62
322.695	12.62
323.486	9.62
324.277	8.62
325.068	9.62
325.858	9.62
326.649	10.62
327.439	8.62
328.23	9.62
329.02	9.62
329.81	8.62
330.6	9.62
331.391	9.62
332.181	9.62
332.971	8.62
333.76	8.62
334.55	8.62
335.34	8.62
336.13	8.62
336.919	8.62
337.709	10.62
338.498	9.62
339.287	9.62
340.077	10.62
340.866	7.62
341.655	10.62
342.444	10.62
343.233	8.62
344.022	6.62
344.811	9.62
345.6	7.62
346.388	10.62
347.177	12.62
347.965	11.62
348.754	7.62
349.542	9.62
350.33	8.62
351.119	6.62
351.907	8.62
352.695	10.62
353.483	8.62
354.271	8.62
355.059	6.62
355.846	5.62
356.634	9.62
357.422	6.62
358.209	7.62
358.997	9.62
359.784	8.62
360.571	7.62
361.359	7.62
362.146	6.62
362.933	7.62
363.72	7.62
364.507	9.62
365.294	6.62
366.081	6.62
366.867	7.62
367.654	7.62
368.44	7.62
369.227	7.62
370.013	7.62
370.8	5.62
371.586	8.62
372.372	7.62
373.158	6.62
373.944	6.62
374.73	7.62
375.516	5.62
376.302	6.62
377.088	7.62
377.873	8.62
378.659	6.62
379.445	7.62
380.23	6.62
381.015	8.62
381.801	7.62
382.586	9.62
383.371	7.62
384.156	7.62
384.941	6.62
385.726	9.62
386.511	8.62
387.296	6.62
388.08	10.62
388.865	6.62
389.649	7.62
390.434	8.62
391.218	8.62
392.003	8.62
392.787	8.62
393.571	5.62
394.355	9.62
395.139	6.62
395.923	8.62
396.707	9.62
397.491	9.62
398.274	8.62
399.058	10.62
399.842	9.62
400.625	11.62
401.408	9.62
402.192	8.62
402.975	8.62
403.758	11.62
404.541	9.62
405.324	11.62
406.107	10.62
406.89	12.62
407.673	10.62
408.456	11.62
409.238	11.62
410.021	10.62
410.803	11.62
411.586	10.62
412.368	11.62
413.151	12.62
413.933	13.62
414.715	12.62
415.497	12.62
416.279	12.62
417.061	12.62
417.843	15.62
418.624	14.62
419.406	12.62
420.188	15.62
420.969	14.62
421.751	12.62
422.532	14.62
423.313	13.62
424.095	16.62
424.876	19.62
425.657	17.62
426.438	15.62
427.219	17.62
428	18.62
428.78	18.62
429.561	18.62
430.342	19.62
431.122	17.62
431.903	23.62
432.683	22.62
433.464	22.62
434.244	23.62
435.024	27.62
435.804	26.62
436.584	25.62
437.364	26.62
438.144	29.62
438.924	31.62
439.704	32.62
440.483	34.62
441.263	34.62
442.042	34.62
442.822	41.62
443.601	41.62
444.38	46.62
445.16	47.62
445.939	50.62
446.718	56.62
447.497	54.62
448.276	64.62
449.054	68.62
449.833	73.62
450.612	81.62
451.391	86.62
452.169	96.62
452.948	107.62
453.726	116.62
454.504	129.62
455.282	139.62
456.061	156.62
456.839	172.62
457.617	186.62
458.395	213.62
459.172	233.62
459.95	268.62
460.728	298.62
461.506	328.62
462.283	367.62
463.061	418.62
463.838	459.62
464.615	524.62
465.393	580.62
466.17	635.62
466.947	729.62
467.724	818.62
468.501	896.62
469.278	1014.62
470.055	1108.62
470.831	1243.62
471.608	1375.62
472.385	1549.62
473.161	1726.62
473.938	1930.62
474.714	2118.62
475.49	2357.62
476.266	2611.62
477.043	2908.62
477.819	3217.62
478.595	3565.62
479.371	3926.62
480.146	4323.62
480.922	4806.62
481.698	5303.62
482.473	5831.62
483.249	6420.62
484.024	7097.62
484.8	7806.62
485.575	8523.62
486.35	9359.62
487.126	10297.62
487.901	11253.62
488.676	12341.62
489.451	13467.62
490.225	14685.62
491	15942.62
491.775	17418.62
492.55	18783.62
493.324	20291.62
494.099	21807.62
494.873	23285.62
495.647	24887.62
496.422	26499.62
497.196	27983.62
497.97	29705.62
498.744	31156.62
499.518	32636.62
500.292	33868.62
501.066	34941.62
501.839	36003.62
502.613	36732.62
503.387	37321.62
504.16	37612.62
504.934	37719.62
505.707	37485.62
506.48	37132.62
507.253	36562.62
508.027	35893.62
508.8	35044.62
509.573	34070.62
510.346	33021.62
511.118	31912.62
511.891	30711.62
512.664	29419.62
513.437	28142.62
514.209	26909.62
514.982	25792.62
515.754	24765.62
516.526	23588.62
517.298	22513.62
518.071	21601.62
518.843	20712.62
519.615	19892.62
520.387	19130.62
521.159	18356.62
521.93	17640.62
522.702	16985.62
523.474	16325.62
524.245	15573.62
525.017	14885.62
525.788	14134.62
526.56	13496.62
527.331	12836.62
528.102	12235.62
528.873	11617.62
529.644	11034.62
530.415	10533.62
531.186	10005.62
531.957	9397.62
532.728	8840.62
533.498	8365.62
534.269	7928.62
535.039	7472.62
535.81	7052.62
536.58	6670.62
537.351	6277.62
538.121	5936.62
538.891	5604.62
539.661	5325.62
540.431	5051.62
541.201	4780.62
541.971	4538.62
542.741	4276.62
543.51	4065.62
544.28	3876.62
545.05	3667.62
545.819	3513.62
546.588	3334.62
547.358	3155.62
548.127	2989.62
548.896	2856.62
549.665	2665.62
550.434	2541.62
551.203	2417.62
551.972	2293.62
552.741	2156.62
553.51	2049.62
554.278	1916.62
555.047	1812.62
555.815	1706.62
556.584	1605.62
557.352	1522.62
558.121	1424.62
558.889	1355.62
559.657	1283.62
560.425	1208.62
561.193	1138.62
561.961	1080.62
562.729	1023.62
563.496	959.62
564.264	909.62
565.032	850.62
565.799	813.62
566.567	777.62
567.334	735.62
568.101	688.62
568.869	650.62
569.636	609.62
570.403	580.62
571.17	548.62
571.937	517.62
572.704	476.62
573.471	459.62
574.237	431.62
575.004	412.62
575.771	384.62
576.537	364.62
577.303	337.62
578.07	315.62
578.836	296.62
579.602	280.62
580.368	268.62
581.134	262.62
581.9	242.62
582.666	228.62
583.432	221.62
584.198	205.62
584.964	200.62
585.729	187.62
586.495	178.62
587.26	171.62
588.025	163.62
588.791	156.62
589.556	149.62
590.321	138.62
591.086	128.62
591.851	122.62
592.616	116.62
593.381	112.62
594.146	108.62
594.911	102.62
595.675	97.62
596.44	96.62
597.204	87.62
597.969	83.62
598.733	82.62
599.497	81.62
600.261	77.62
601.025	72.62
601.79	65.62
602.553	62.62
603.317	62.62
604.081	57.62
604.845	56.62
605.609	55.62
606.372	52.62
607.136	48.62
607.899	51.62
608.662	46.62
609.426	45.62
610.189	44.62
610.952	43.62
611.715	41.62
612.478	36.62
613.241	38.62
614.004	36.62
614.767	37.62
615.529	36.62
616.292	35.62
617.055	29.62
617.817	29.62
618.579	28.62
619.342	27.62
620.104	28.62
620.866	25.62
621.628	26.62
622.39	24.62
623.152	27.62
623.914	23.62
624.676	22.62
625.438	22.62
626.199	21.62
626.961	18.62
627.722	21.62
628.484	20.62
629.245	17.62
630.006	19.62
630.768	19.62
631.529	18.62
632.29	17.62
633.051	17.62
633.812	16.62
634.573	17.62
635.333	14.62
636.094	16.62
636.855	16.62
637.615	14.62
638.376	16.62
639.136	15.62
639.896	14.62
640.657	15.62
641.417	12.62
642.177	13.62
642.937	11.62
643.697	12.62
644.457	12.62
645.216	10.62
645.976	10.62
646.736	8.62
647.495	11.62
648.255	9.62
649.014	10.62
649.774	12.62
650.533	8.62
651.292	12.62
652.051	9.62
652.81	8.62
653.569	9.62
654.328	9.62
655.087	10.62
655.846	7.62
656.604	8.62
657.363	8.62
658.121	8.62
658.88	7.62
659.638	6.62
660.397	6.62
661.155	7.62
661.913	5.62
662.671	6.62
663.429	6.62
664.187	8.62
664.945	7.62
665.703	7.62
666.46	5.62
667.218	6.62
667.976	5.62
668.733	5.62
669.49	7.62
670.248	5.62
671.005	7.62
671.762	7.62
672.519	7.62
673.276	7.62
674.033	4.62
674.79	3.62
675.547	5.62
676.304	6.62
677.06	7.62
677.817	4.62
678.574	5.62
679.33	5.62
680.086	6.62
680.843	3.62
681.599	6.62
682.355	3.62
683.111	4.62
683.867	6.62
684.623	5.62
685.379	4.62
686.135	6.62
686.89	5.62
687.646	5.62
688.402	5.62
689.157	8.62
689.912	3.62
690.668	4.62
691.423	4.62
692.178	5.62
692.933	4.62
693.688	3.62
694.443	4.62
695.198	6.62
695.953	4.62
696.708	4.62
697.462	5.62
698.217	5.62
698.972	5.62
699.726	6.62
700.48	5.62
701.235	5.62
701.989	4.62
702.743	4.62
703.497	4.62
704.251	4.62
705.005	3.62
705.759	4.62
706.513	6.62
707.266	6.62
708.02	2.62
708.774	8.62
709.527	4.62
710.28	5.62
711.034	6.62
711.787	6.62
712.54	4.62
713.293	6.62
714.046	2.62
714.799	6.62
715.552	3.62
716.305	6.62
717.058	7.62
717.81	4.62
718.563	6.62
719.315	3.62
720.068	4.62
720.82	3.62
721.573	7.62
722.325	2.62
723.077	4.62
723.829	4.62
724.581	4.62
725.333	5.62
726.085	4.62
726.836	4.62
727.588	4.62
728.34	8.62
729.091	7.62
729.843	5.62
730.594	6.62
731.346	4.62
732.097	7.62
732.848	7.62
733.599	7.62
734.35	4.62
735.101	7.62
735.852	6.62
736.603	6.62
737.354	9.62
738.104	6.62
738.855	6.62
739.605	7.62
740.356	6.62
741.106	8.62
741.856	6.62
742.607	7.62
743.357	7.62
744.107	6.62
744.857	5.62
745.607	6.62
746.357	10.62
747.106	9.62
747.856	7.62
748.606	10.62
749.355	6.62
750.105	8.62
750.854	8.62
751.603	10.62
752.353	9.62
753.102	8.62
753.851	8.62
754.6	9.62
755.349	8.62
756.098	9.62
756.847	7.62
757.595	11.62
758.344	8.62
759.093	9.62
759.841	10.62
760.589	9.62
761.338	8.62
762.086	11.62
762.834	8.62
763.582	7.62
764.331	9.62
765.079	10.62
765.826	11.62
766.574	10.62
767.322	11.62
768.07	11.62
768.817	10.62
769.565	11.62
770.312	10.62
771.06	11.62
771.807	11.62
772.554	8.62
773.302	13.62
774.049	11.62
774.796	10.62
775.543	10.62
776.29	10.62
777.036	11.62
777.783	12.62
778.53	12.62
779.276	12.62
780.023	11.62
780.769	14.62
781.516	10.62
782.262	11.62
783.008	10.62
783.754	12.62
784.5	12.62
785.246	11.62
785.992	13.62
786.738	12.62
787.484	13.62
788.23	10.62
788.975	10.62
789.721	10.62
790.466	10.62
791.212	12.62
791.957	12.62
792.702	11.62
793.447	13.62
794.193	10.62
794.938	12.62
795.683	10.62
796.427	12.62
797.172	8.62
797.917	9.62
798.662	9.62
799.406	11.62
800.151	9.62
800.895	13.62
801.64	9.62
802.384	9.62
803.128	9.62
803.872	10.62
804.616	7.62
805.36	9.62
806.104	7.62
806.848	11.62
807.592	7.62
808.336	6.62
809.079	7.62
809.823	8.62
810.566	6.62
811.31	6.62
812.053	6.62
812.796	5.62
813.539	7.62
814.283	8.62
815.026	6.62
815.769	6.62
816.511	5.62
817.254	6.62
817.997	6.62
818.74	4.62
819.482	7.62
820.225	7.62
820.967	5.62
821.71	5.62
822.452	4.62
823.194	6.62
823.936	5.62
824.678	6.62
825.42	6.62
826.162	5.62
826.904	4.62
827.646	5.62
828.388	6.62
829.129	3.62
829.871	3.62
830.612	4.62
831.354	3.62
832.095	4.62
832.836	4.62
833.577	3.62
834.319	2.62
835.06	3.62
835.801	5.62
836.542	3.62
837.282	3.62
838.023	2.62
838.764	6.62
839.504	4.62
840.245	4.62
840.985	4.62
841.726	2.62
842.466	2.62
843.206	3.62
843.946	2.62
844.687	4.62
845.427	3.62
846.166	3.62
846.906	0.62
847.646	4.62
848.386	5.62
849.125	3.62
849.865	5.62
850.605	1.62
851.344	3.62
852.083	3.62
852.823	3.62
853.562	1.62
854.301	4.62
855.04	2.62
855.779	1.62
856.518	3.62
857.257	2.62
857.995	2.62
858.734	1.62
859.473	3.62
860.211	4.62
860.95	3.62
861.688	4.62
862.426	2.62
863.165	1.62
863.903	3.62
864.641	0.62
865.379	3.62
866.117	2.62
866.855	2.62
867.593	2.62
868.33	2.62
869.068	2.62
869.806	1.62
870.543	2.62
871.28	2.62
872.018	2.62
872.755	1.62
873.492	0.62
874.229	3.62
874.967	3.62
875.703	2.62
876.44	1.62
877.177	0.62
877.914	1.62
878.651	0.62
879.387	1.62
880.124	1.62
880.86	1.62
881.597	0.62
882.333	0.62
883.069	1.62
883.806	1.62
884.542	2.62
885.278	0.62
886.014	0.62
886.749	1.62
887.485	1.62
888.221	0.62
888.957	0.62
889.692	1.62
890.428	1.62
891.163	0.62
891.899	2.62
892.634	1.62
893.369	0.62
894.104	1.62
894.839	0.62
895.574	0.62
896.309	0.62
897.044	3.62
897.779	1.62
898.514	1.62
899.248	-0.38
899.983	-0.38
900.717	2.62
901.452	-1.38
902.186	2.62
902.92	-0.38
903.654	0.62
904.389	0.62
905.123	2.62
905.857	0.62
906.59	-0.38
907.324	1.62
908.058	1.62
908.792	2.62
909.525	2.62
910.259	1.62
910.992	-1.38
911.726	-0.38
912.459	0.62
913.192	1.62
913.925	-2.38
914.658	2.62
915.391	0.62
916.124	2.62
916.857	0.62
917.59	0.62
918.323	-0.38
919.055	0.62
919.788	1.62
920.521	1.62
921.253	1.62
921.985	0.62
922.718	1.62
923.45	1.62
924.182	-1.38
924.914	0.62
925.646	1.62
926.378	1.62
927.11	-0.38
927.841	-1.38
928.573	-0.38
929.305	2.62
930.036	1.62
930.768	0.62
931.499	1.62
932.23	1.62
932.962	1.62
933.693	1.62
934.424	1.62
935.155	0.62
935.886	-0.38
936.617	0.62
937.348	0.62
938.078	-0.38
938.809	1.62
939.54	0.62
940.27	-1.38
941.001	0.62
941.731	-2.38
942.461	-0.38
943.191	1.62
943.922	2.62
944.652	1.62
945.382	-0.38
946.112	2.62
946.841	-1.38
947.571	0.62
948.301	1.62
949.031	0.62
949.76	1.62
950.49	-2.38
951.219	0.62
951.948	1.62
952.678	-0.38
953.407	-0.38
954.136	0.62
954.865	0.62
955.594	-1.38
956.323	0.62
957.052	1.62
957.78	-1.38
958.509	1.62
959.238	-0.38
959.966	0.62
960.695	1.62
961.423	0.62
962.151	0.62
962.88	-1.38
963.608	4.62
964.336	0.62
965.064	-1.38
965.792	2.62
966.52	1.62
967.247	-0.38
967.975	-1.38
968.703	-0.38
969.43	-1.38
970.158	0.62
970.885	-0.38
971.613	-0.38
972.34	1.62
973.067	2.62
973.794	0.62
974.521	0.62
975.248	-0.38
975.975	-1.38
976.702	0.62
977.429	-0.38
978.156	0.62
978.882	1.62
979.609	-0.38
980.335	0.62
981.062	1.62
981.788	-2.38
982.514	1.62
983.24	2.62
983.967	0.62
984.693	-1.38
985.419	0.62
986.144	0.62
986.87	-0.38
987.596	2.62
988.322	-2.38
989.047	-0.38
989.773	1.62
990.498	-3.38
991.224	0.62
991.949	-1.38
992.674	0.62
993.399	0.62
994.124	-0.38
994.849	-0.38
995.574	-0.38
996.299	1.62
997.024	0.62
997.749	0.62
998.473	0.62
999.198	-0.38
999.922	0.62
1000.647	-2.38
1001.371	2.62
1002.095	-1.38
1002.82	-0.38
1003.544	-0.38
1004.268	0.62
1004.992	0.62
1005.716	2.62
1006.439	3.62
1007.163	3.62
1007.887	2.62
1008.611	2.62
1009.334	-3.38
1010.058	2.62
1010.781	1.62
1011.504	0.62
1012.228	0.62
1012.951	0.62
1013.674	0.62
1014.397	-1.38
1015.12	-0.38
