节点500_425_QEPB04081__557__15-57-34-484.txt的数据

Date: Wed Nov 12 15:57:34 CST 2025
User: PC
Spectrometer: QEPB0408
触发模式: 0
积分时间 (秒): 1.000000E-2
Scans to average: 1
启用暗噪声校正: true
启用非线性校正: false
滑动平均宽度: 0
X轴模式: Wavelengths
Number of Pixels in Spectrum: 1044
>>>>>Begin Spectral Data<<<<<
220.843	4.12
221.644	4.12
222.444	1.12
223.244	6.12
224.045	5.12
224.845	5.12
225.645	4.12
226.445	5.12
227.245	6.12
228.045	4.12
228.845	8.12
229.645	3.12
230.444	3.12
231.244	5.12
232.043	6.12
232.843	4.12
233.642	2.12
234.442	7.12
235.241	5.12
236.04	7.12
236.839	6.12
237.638	4.12
238.437	6.12
239.236	7.12
240.035	8.12
240.833	7.12
241.632	6.12
242.43	6.12
243.229	5.12
244.027	9.12
244.826	5.12
245.624	7.12
246.422	8.12
247.22	10.12
248.018	9.12
248.816	11.12
249.614	10.12
250.412	13.12
251.21	7.12
252.007	8.12
252.805	9.12
253.602	12.12
254.4	14.12
255.197	11.12
255.994	13.12
256.791	11.12
257.589	13.12
258.386	14.12
259.183	13.12
259.979	14.12
260.776	13.12
261.573	14.12
262.37	14.12
263.166	12.12
263.963	15.12
264.759	15.12
265.556	15.12
266.352	14.12
267.148	17.12
267.944	16.12
268.74	19.12
269.536	20.12
270.332	20.12
271.128	19.12
271.924	20.12
272.719	20.12
273.515	21.12
274.311	21.12
275.106	21.12
275.901	22.12
276.697	21.12
277.492	22.12
278.287	22.12
279.082	23.12
279.877	22.12
280.672	25.12
281.467	27.12
282.262	23.12
283.056	25.12
283.851	21.12
284.646	22.12
285.44	25.12
286.234	22.12
287.029	25.12
287.823	26.12
288.617	26.12
289.411	23.12
290.205	21.12
290.999	25.12
291.793	25.12
292.587	23.12
293.381	25.12
294.174	21.12
294.968	21.12
295.761	21.12
296.555	21.12
297.348	20.12
298.141	19.12
298.935	21.12
299.728	20.12
300.521	17.12
301.314	21.12
302.107	18.12
302.899	16.12
303.692	20.12
304.485	15.12
305.277	19.12
306.07	18.12
306.862	19.12
307.655	17.12
308.447	17.12
309.239	15.12
310.031	17.12
310.823	14.12
311.615	14.12
312.407	13.12
313.199	12.12
313.991	15.12
314.783	13.12
315.574	14.12
316.366	11.12
317.157	11.12
317.949	12.12
318.74	12.12
319.531	9.12
320.322	11.12
321.113	10.12
321.904	10.12
322.695	10.12
323.486	10.12
324.277	11.12
325.068	10.12
325.858	11.12
326.649	11.12
327.439	9.12
328.23	11.12
329.02	11.12
329.81	11.12
330.6	8.12
331.391	7.12
332.181	10.12
332.971	10.12
333.76	7.12
334.55	9.12
335.34	11.12
336.13	7.12
336.919	10.12
337.709	10.12
338.498	9.12
339.287	9.12
340.077	7.12
340.866	11.12
341.655	8.12
342.444	9.12
343.233	7.12
344.022	8.12
344.811	8.12
345.6	8.12
346.388	9.12
347.177	10.12
347.965	10.12
348.754	10.12
349.542	8.12
350.33	9.12
351.119	8.12
351.907	8.12
352.695	7.12
353.483	8.12
354.271	9.12
355.059	7.12
355.846	8.12
356.634	9.12
357.422	7.12
358.209	9.12
358.997	8.12
359.784	6.12
360.571	9.12
361.359	7.12
362.146	11.12
362.933	8.12
363.72	8.12
364.507	6.12
365.294	8.12
366.081	8.12
366.867	7.12
367.654	6.12
368.44	7.12
369.227	8.12
370.013	7.12
370.8	7.12
371.586	9.12
372.372	7.12
373.158	8.12
373.944	6.12
374.73	8.12
375.516	7.12
376.302	6.12
377.088	7.12
377.873	6.12
378.659	7.12
379.445	9.12
380.23	6.12
381.015	6.12
381.801	9.12
382.586	8.12
383.371	9.12
384.156	8.12
384.941	9.12
385.726	9.12
386.511	9.12
387.296	9.12
388.08	10.12
388.865	8.12
389.649	9.12
390.434	10.12
391.218	7.12
392.003	9.12
392.787	7.12
393.571	10.12
394.355	5.12
395.139	7.12
395.923	9.12
396.707	10.12
397.491	9.12
398.274	11.12
399.058	10.12
399.842	11.12
400.625	7.12
401.408	11.12
402.192	8.12
402.975	12.12
403.758	10.12
404.541	11.12
405.324	11.12
406.107	10.12
406.89	10.12
407.673	10.12
408.456	9.12
409.238	10.12
410.021	12.12
410.803	12.12
411.586	13.12
412.368	11.12
413.151	11.12
413.933	11.12
414.715	13.12
415.497	14.12
416.279	14.12
417.061	14.12
417.843	12.12
418.624	13.12
419.406	13.12
420.188	14.12
420.969	14.12
421.751	15.12
422.532	17.12
423.313	15.12
424.095	17.12
424.876	18.12
425.657	15.12
426.438	17.12
427.219	15.12
428	19.12
428.78	17.12
429.561	19.12
430.342	17.12
431.122	23.12
431.903	20.12
432.683	20.12
433.464	24.12
434.244	24.12
435.024	26.12
435.804	27.12
436.584	25.12
437.364	30.12
438.144	31.12
438.924	31.12
439.704	32.12
440.483	35.12
441.263	35.12
442.042	42.12
442.822	43.12
443.601	39.12
444.38	53.12
445.16	51.12
445.939	54.12
446.718	62.12
447.497	67.12
448.276	70.12
449.054	73.12
449.833	85.12
450.612	90.12
451.391	99.12
452.169	113.12
452.948	124.12
453.726	143.12
454.504	153.12
455.282	164.12
456.061	182.12
456.839	211.12
457.617	233.12
458.395	251.12
459.172	279.12
459.95	310.12
460.728	352.12
461.506	390.12
462.283	431.12
463.061	486.12
463.838	537.12
464.615	596.12
465.393	660.12
466.17	733.12
466.947	819.12
467.724	899.12
468.501	989.12
469.278	1103.12
470.055	1221.12
470.831	1335.12
471.608	1483.12
472.385	1633.12
473.161	1801.12
473.938	1963.12
474.714	2163.12
475.49	2392.12
476.266	2593.12
477.043	2845.12
477.819	3116.12
478.595	3411.12
479.371	3733.12
480.146	4069.12
480.922	4449.12
481.698	4811.12
482.473	5269.12
483.249	5720.12
484.024	6236.12
484.8	6825.12
485.575	7353.12
486.35	7987.12
487.126	8632.12
487.901	9352.12
488.676	10173.12
489.451	11000.12
490.225	11879.12
491	12848.12
491.775	13832.12
492.55	14845.12
493.324	16006.12
494.099	17090.12
494.873	18185.12
495.647	19430.12
496.422	20648.12
497.196	21869.12
497.97	23219.12
498.744	24555.12
499.518	25722.12
500.292	26886.12
501.066	28002.12
501.839	29094.12
502.613	30069.12
503.387	30860.12
504.16	31597.12
504.934	32010.12
505.707	32354.12
506.48	32568.12
507.253	32502.12
508.027	32539.12
508.8	32203.12
509.573	31820.12
510.346	31278.12
511.118	30617.12
511.891	29909.12
512.664	28990.12
513.437	28106.12
514.209	27047.12
514.982	26139.12
515.754	25243.12
516.526	24260.12
517.298	23224.12
518.071	22279.12
518.843	21429.12
519.615	20535.12
520.387	19789.12
521.159	19023.12
521.93	18263.12
522.702	17539.12
523.474	16895.12
524.245	16244.12
525.017	15523.12
525.788	14808.12
526.56	14225.12
527.331	13597.12
528.102	13014.12
528.873	12377.12
529.644	11818.12
530.415	11327.12
531.186	10813.12
531.957	10281.12
532.728	9726.12
533.498	9227.12
534.269	8745.12
535.039	8316.12
535.81	7857.12
536.58	7403.12
537.351	7033.12
538.121	6630.12
538.891	6287.12
539.661	5981.12
540.431	5669.12
541.201	5341.12
541.971	5071.12
542.741	4797.12
543.51	4554.12
544.28	4349.12
545.05	4122.12
545.819	3943.12
546.588	3731.12
547.358	3546.12
548.127	3337.12
548.896	3197.12
549.665	3046.12
550.434	2897.12
551.203	2747.12
551.972	2584.12
552.741	2482.12
553.51	2335.12
554.278	2203.12
555.047	2072.12
555.815	1961.12
556.584	1860.12
557.352	1766.12
558.121	1670.12
558.889	1578.12
559.657	1504.12
560.425	1405.12
561.193	1324.12
561.961	1247.12
562.729	1199.12
563.496	1127.12
564.264	1059.12
565.032	1015.12
565.799	953.12
566.567	911.12
567.334	845.12
568.101	808.12
568.869	758.12
569.636	724.12
570.403	673.12
571.17	624.12
571.937	603.12
572.704	559.12
573.471	537.12
574.237	499.12
575.004	481.12
575.771	442.12
576.537	420.12
577.303	406.12
578.07	373.12
578.836	348.12
579.602	323.12
580.368	317.12
581.134	302.12
581.9	291.12
582.666	272.12
583.432	258.12
584.198	242.12
584.964	236.12
585.729	221.12
586.495	210.12
587.26	199.12
588.025	189.12
588.791	177.12
589.556	171.12
590.321	159.12
591.086	154.12
591.851	147.12
592.616	134.12
593.381	129.12
594.146	129.12
594.911	114.12
595.675	114.12
596.44	110.12
597.204	105.12
597.969	101.12
598.733	96.12
599.497	88.12
600.261	86.12
601.025	82.12
601.79	78.12
602.553	76.12
603.317	73.12
604.081	67.12
604.845	68.12
605.609	63.12
606.372	59.12
607.136	54.12
607.899	58.12
608.662	57.12
609.426	51.12
610.189	52.12
610.952	46.12
611.715	49.12
612.478	45.12
613.241	42.12
614.004	39.12
614.767	38.12
615.529	38.12
616.292	38.12
617.055	37.12
617.817	32.12
618.579	31.12
619.342	32.12
620.104	31.12
620.866	33.12
621.628	29.12
622.39	28.12
623.152	25.12
623.914	23.12
624.676	27.12
625.438	25.12
626.199	24.12
626.961	23.12
627.722	23.12
628.484	26.12
629.245	21.12
630.006	19.12
630.768	22.12
631.529	20.12
632.29	17.12
633.051	19.12
633.812	17.12
634.573	17.12
635.333	17.12
636.094	14.12
636.855	16.12
637.615	16.12
638.376	14.12
639.136	14.12
639.896	13.12
640.657	15.12
641.417	16.12
642.177	13.12
642.937	14.12
643.697	12.12
644.457	12.12
645.216	11.12
645.976	12.12
646.736	11.12
647.495	11.12
648.255	13.12
649.014	9.12
649.774	12.12
650.533	11.12
651.292	10.12
652.051	9.12
652.81	13.12
653.569	10.12
654.328	11.12
655.087	9.12
655.846	9.12
656.604	7.12
657.363	8.12
658.121	8.12
658.88	8.12
659.638	9.12
660.397	10.12
661.155	9.12
661.913	7.12
662.671	8.12
663.429	11.12
664.187	7.12
664.945	7.12
665.703	9.12
666.46	11.12
667.218	8.12
667.976	9.12
668.733	7.12
669.49	7.12
670.248	8.12
671.005	7.12
671.762	7.12
672.519	7.12
673.276	8.12
674.033	6.12
674.79	6.12
675.547	9.12
676.304	8.12
677.06	5.12
677.817	8.12
678.574	6.12
679.33	6.12
680.086	6.12
680.843	5.12
681.599	6.12
682.355	8.12
683.111	7.12
683.867	6.12
684.623	6.12
685.379	5.12
686.135	6.12
686.89	5.12
687.646	5.12
688.402	7.12
689.157	5.12
689.912	5.12
690.668	4.12
691.423	7.12
692.178	7.12
692.933	6.12
693.688	6.12
694.443	5.12
695.198	8.12
695.953	5.12
696.708	6.12
697.462	6.12
698.217	3.12
698.972	3.12
699.726	4.12
700.48	8.12
701.235	6.12
701.989	2.12
702.743	6.12
703.497	6.12
704.251	8.12
705.005	3.12
705.759	6.12
706.513	8.12
707.266	3.12
708.02	6.12
708.774	6.12
709.527	2.12
710.28	2.12
711.034	5.12
711.787	6.12
712.54	4.12
713.293	7.12
714.046	5.12
714.799	8.12
715.552	3.12
716.305	7.12
717.058	9.12
717.81	6.12
718.563	5.12
719.315	5.12
720.068	6.12
720.82	6.12
721.573	6.12
722.325	6.12
723.077	4.12
723.829	8.12
724.581	6.12
725.333	6.12
726.085	5.12
726.836	5.12
727.588	8.12
728.34	3.12
729.091	5.12
729.843	5.12
730.594	5.12
731.346	6.12
732.097	6.12
732.848	6.12
733.599	4.12
734.35	6.12
735.101	6.12
735.852	6.12
736.603	7.12
737.354	7.12
738.104	8.12
738.855	7.12
739.605	5.12
740.356	6.12
741.106	6.12
741.856	7.12
742.607	5.12
743.357	7.12
744.107	7.12
744.857	5.12
745.607	7.12
746.357	8.12
747.106	6.12
747.856	8.12
748.606	4.12
749.355	8.12
750.105	7.12
750.854	10.12
751.603	5.12
752.353	5.12
753.102	8.12
753.851	8.12
754.6	8.12
755.349	6.12
756.098	8.12
756.847	7.12
757.595	8.12
758.344	9.12
759.093	6.12
759.841	8.12
760.589	9.12
761.338	7.12
762.086	11.12
762.834	6.12
763.582	9.12
764.331	8.12
765.079	9.12
765.826	10.12
766.574	11.12
767.322	8.12
768.07	9.12
768.817	11.12
769.565	11.12
770.312	9.12
771.06	8.12
771.807	10.12
772.554	11.12
773.302	9.12
774.049	8.12
774.796	11.12
775.543	9.12
776.29	10.12
777.036	11.12
777.783	10.12
778.53	9.12
779.276	11.12
780.023	13.12
780.769	10.12
781.516	13.12
782.262	11.12
783.008	9.12
783.754	11.12
784.5	9.12
785.246	11.12
785.992	10.12
786.738	11.12
787.484	9.12
788.23	11.12
788.975	11.12
789.721	12.12
790.466	12.12
791.212	14.12
791.957	11.12
792.702	11.12
793.447	9.12
794.193	14.12
794.938	10.12
795.683	11.12
796.427	7.12
797.172	8.12
797.917	8.12
798.662	9.12
799.406	10.12
800.151	10.12
800.895	11.12
801.64	9.12
802.384	9.12
803.128	12.12
803.872	9.12
804.616	10.12
805.36	9.12
806.104	8.12
806.848	9.12
807.592	8.12
808.336	8.12
809.079	6.12
809.823	9.12
810.566	7.12
811.31	7.12
812.053	9.12
812.796	7.12
813.539	7.12
814.283	8.12
815.026	9.12
815.769	7.12
816.511	6.12
817.254	8.12
817.997	7.12
818.74	7.12
819.482	7.12
820.225	7.12
820.967	5.12
821.71	6.12
822.452	7.12
823.194	7.12
823.936	6.12
824.678	4.12
825.42	5.12
826.162	7.12
826.904	3.12
827.646	4.12
828.388	4.12
829.129	6.12
829.871	6.12
830.612	5.12
831.354	9.12
832.095	6.12
832.836	4.12
833.577	6.12
834.319	5.12
835.06	6.12
835.801	6.12
836.542	3.12
837.282	3.12
838.023	5.12
838.764	5.12
839.504	4.12
840.245	6.12
840.985	5.12
841.726	6.12
842.466	6.12
843.206	4.12
843.946	7.12
844.687	3.12
845.427	5.12
846.166	5.12
846.906	2.12
847.646	4.12
848.386	5.12
849.125	7.12
849.865	5.12
850.605	4.12
851.344	6.12
852.083	4.12
852.823	5.12
853.562	4.12
854.301	5.12
855.04	4.12
855.779	2.12
856.518	4.12
857.257	5.12
857.995	6.12
858.734	5.12
859.473	2.12
860.211	4.12
860.95	4.12
861.688	4.12
862.426	7.12
863.165	3.12
863.903	3.12
864.641	4.12
865.379	4.12
866.117	2.12
866.855	4.12
867.593	2.12
868.33	3.12
869.068	3.12
869.806	3.12
870.543	5.12
871.28	5.12
872.018	1.12
872.755	2.12
873.492	2.12
874.229	3.12
874.967	2.12
875.703	5.12
876.44	2.12
877.177	2.12
877.914	2.12
878.651	-0.88
879.387	1.12
880.124	3.12
880.86	2.12
881.597	3.12
882.333	3.12
883.069	2.12
883.806	0.12
884.542	2.12
885.278	3.12
886.014	0.12
886.749	0.12
887.485	2.12
888.221	0.12
888.957	1.12
889.692	2.12
890.428	1.12
891.163	-0.88
891.899	1.12
892.634	0.12
893.369	0.12
894.104	1.12
894.839	2.12
895.574	1.12
896.309	1.12
897.044	4.12
897.779	0.12
898.514	3.12
899.248	1.12
899.983	0.12
900.717	2.12
901.452	2.12
902.186	1.12
902.92	1.12
903.654	0.12
904.389	1.12
905.123	1.12
905.857	2.12
906.59	1.12
907.324	1.12
908.058	1.12
908.792	4.12
909.525	2.12
910.259	2.12
910.992	2.12
911.726	1.12
912.459	0.12
913.192	0.12
913.925	-0.88
914.658	-0.88
915.391	2.12
916.124	0.12
916.857	2.12
917.59	1.12
918.323	2.12
919.055	0.12
919.788	2.12
920.521	0.12
921.253	1.12
921.985	0.12
922.718	2.12
923.45	1.12
924.182	-1.88
924.914	1.12
925.646	1.12
926.378	2.12
927.11	2.12
927.841	-0.88
928.573	3.12
929.305	-0.88
930.036	2.12
930.768	2.12
931.499	2.12
932.23	-0.88
932.962	2.12
933.693	4.12
934.424	1.12
935.155	-0.88
935.886	1.12
936.617	2.12
937.348	1.12
938.078	0.12
938.809	2.12
939.54	2.12
940.27	1.12
941.001	3.12
941.731	1.12
942.461	1.12
943.191	4.12
943.922	0.12
944.652	1.12
945.382	1.12
946.112	2.12
946.841	1.12
947.571	0.12
948.301	-0.88
949.031	-0.88
949.76	0.12
950.49	1.12
951.219	0.12
951.948	0.12
952.678	1.12
953.407	1.12
954.136	-0.88
954.865	1.12
955.594	2.12
956.323	5.12
957.052	1.12
957.78	2.12
958.509	2.12
959.238	2.12
959.966	0.12
960.695	1.12
961.423	1.12
962.151	0.12
962.88	2.12
963.608	-0.88
964.336	1.12
965.064	2.12
965.792	1.12
966.52	1.12
967.247	2.12
967.975	-0.88
968.703	2.12
969.43	0.12
970.158	2.12
970.885	-0.88
971.613	1.12
972.34	1.12
973.067	0.12
973.794	1.12
974.521	3.12
975.248	1.12
975.975	3.12
976.702	1.12
977.429	3.12
978.156	2.12
978.882	1.12
979.609	1.12
980.335	1.12
981.062	3.12
981.788	1.12
982.514	1.12
983.24	0.12
983.967	0.12
984.693	2.12
985.419	2.12
986.144	1.12
986.87	0.12
987.596	1.12
988.322	1.12
989.047	2.12
989.773	2.12
990.498	-0.88
991.224	2.12
991.949	1.12
992.674	2.12
993.399	2.12
994.124	0.12
994.849	0.12
995.574	1.12
996.299	1.12
997.024	1.12
997.749	-0.88
998.473	0.12
999.198	1.12
999.922	2.12
1000.647	1.12
1001.371	1.12
1002.095	1.12
1002.82	-0.88
1003.544	1.12
1004.268	4.12
1004.992	1.12
1005.716	4.12
1006.439	5.12
1007.163	5.12
1007.887	3.12
1008.611	-0.88
1009.334	2.12
1010.058	-1.88
1010.781	2.12
1011.504	2.12
1012.228	0.12
1012.951	0.12
1013.674	-1.88
1014.397	0.12
1015.12	-0.88
