节点500_425_QEPB04081__622__15-58-39-429.txt的数据

Date: Wed Nov 12 15:58:39 CST 2025
User: PC
Spectrometer: QEPB0408
触发模式: 0
积分时间 (秒): 1.000000E-2
Scans to average: 1
启用暗噪声校正: true
启用非线性校正: false
滑动平均宽度: 0
X轴模式: Wavelengths
Number of Pixels in Spectrum: 1044
>>>>>Begin Spectral Data<<<<<
220.843	0.62
221.644	4.62
222.444	2.62
223.244	3.62
224.045	4.62
224.845	4.62
225.645	5.62
226.445	2.62
227.245	2.62
228.045	5.62
228.845	1.62
229.645	3.62
230.444	2.62
231.244	5.62
232.043	2.62
232.843	3.62
233.642	3.62
234.442	6.62
235.241	6.62
236.04	5.62
236.839	4.62
237.638	8.62
238.437	6.62
239.236	9.62
240.035	7.62
240.833	7.62
241.632	8.62
242.43	6.62
243.229	8.62
244.027	5.62
244.826	7.62
245.624	7.62
246.422	7.62
247.22	8.62
248.018	7.62
248.816	9.62
249.614	5.62
250.412	7.62
251.21	7.62
252.007	8.62
252.805	8.62
253.602	9.62
254.4	10.62
255.197	10.62
255.994	10.62
256.791	9.62
257.589	10.62
258.386	13.62
259.183	12.62
259.979	12.62
260.776	12.62
261.573	13.62
262.37	13.62
263.166	12.62
263.963	15.62
264.759	17.62
265.556	13.62
266.352	14.62
267.148	14.62
267.944	18.62
268.74	15.62
269.536	17.62
270.332	17.62
271.128	19.62
271.924	17.62
272.719	20.62
273.515	19.62
274.311	19.62
275.106	20.62
275.901	18.62
276.697	21.62
277.492	21.62
278.287	22.62
279.082	21.62
279.877	20.62
280.672	22.62
281.467	22.62
282.262	23.62
283.056	25.62
283.851	21.62
284.646	22.62
285.44	21.62
286.234	22.62
287.029	23.62
287.823	21.62
288.617	24.62
289.411	21.62
290.205	23.62
290.999	26.62
291.793	22.62
292.587	21.62
293.381	22.62
294.174	21.62
294.968	20.62
295.761	18.62
296.555	19.62
297.348	18.62
298.141	16.62
298.935	22.62
299.728	18.62
300.521	20.62
301.314	15.62
302.107	17.62
302.899	16.62
303.692	12.62
304.485	16.62
305.277	16.62
306.07	20.62
306.862	14.62
307.655	17.62
308.447	17.62
309.239	13.62
310.031	14.62
310.823	14.62
311.615	11.62
312.407	12.62
313.199	12.62
313.991	13.62
314.783	12.62
315.574	12.62
316.366	12.62
317.157	9.62
317.949	11.62
318.74	9.62
319.531	10.62
320.322	13.62
321.113	10.62
321.904	11.62
322.695	9.62
323.486	10.62
324.277	7.62
325.068	10.62
325.858	9.62
326.649	9.62
327.439	6.62
328.23	8.62
329.02	8.62
329.81	7.62
330.6	9.62
331.391	7.62
332.181	5.62
332.971	8.62
333.76	8.62
334.55	9.62
335.34	8.62
336.13	11.62
336.919	8.62
337.709	8.62
338.498	11.62
339.287	7.62
340.077	8.62
340.866	8.62
341.655	5.62
342.444	8.62
343.233	8.62
344.022	6.62
344.811	6.62
345.6	8.62
346.388	6.62
347.177	6.62
347.965	8.62
348.754	8.62
349.542	7.62
350.33	9.62
351.119	9.62
351.907	9.62
352.695	7.62
353.483	8.62
354.271	9.62
355.059	7.62
355.846	7.62
356.634	4.62
357.422	8.62
358.209	4.62
358.997	7.62
359.784	7.62
360.571	8.62
361.359	10.62
362.146	6.62
362.933	7.62
363.72	8.62
364.507	6.62
365.294	8.62
366.081	5.62
366.867	5.62
367.654	6.62
368.44	6.62
369.227	5.62
370.013	7.62
370.8	7.62
371.586	5.62
372.372	6.62
373.158	4.62
373.944	6.62
374.73	6.62
375.516	6.62
376.302	8.62
377.088	6.62
377.873	6.62
378.659	6.62
379.445	5.62
380.23	7.62
381.015	5.62
381.801	7.62
382.586	6.62
383.371	7.62
384.156	8.62
384.941	7.62
385.726	7.62
386.511	7.62
387.296	7.62
388.08	5.62
388.865	5.62
389.649	6.62
390.434	5.62
391.218	9.62
392.003	6.62
392.787	6.62
393.571	9.62
394.355	7.62
395.139	9.62
395.923	7.62
396.707	9.62
397.491	8.62
398.274	9.62
399.058	8.62
399.842	9.62
400.625	12.62
401.408	10.62
402.192	8.62
402.975	7.62
403.758	9.62
404.541	7.62
405.324	8.62
406.107	11.62
406.89	9.62
407.673	9.62
408.456	10.62
409.238	10.62
410.021	12.62
410.803	11.62
411.586	12.62
412.368	10.62
413.151	13.62
413.933	11.62
414.715	11.62
415.497	10.62
416.279	12.62
417.061	12.62
417.843	10.62
418.624	10.62
419.406	14.62
420.188	12.62
420.969	14.62
421.751	13.62
422.532	12.62
423.313	16.62
424.095	15.62
424.876	18.62
425.657	13.62
426.438	15.62
427.219	18.62
428	16.62
428.78	16.62
429.561	18.62
430.342	18.62
431.122	18.62
431.903	17.62
432.683	20.62
433.464	21.62
434.244	24.62
435.024	24.62
435.804	25.62
436.584	25.62
437.364	26.62
438.144	30.62
438.924	29.62
439.704	34.62
440.483	33.62
441.263	38.62
442.042	41.62
442.822	43.62
443.601	44.62
444.38	49.62
445.16	49.62
445.939	48.62
446.718	60.62
447.497	64.62
448.276	70.62
449.054	75.62
449.833	87.62
450.612	93.62
451.391	102.62
452.169	112.62
452.948	125.62
453.726	136.62
454.504	148.62
455.282	166.62
456.061	185.62
456.839	204.62
457.617	227.62
458.395	257.62
459.172	289.62
459.95	318.62
460.728	350.62
461.506	388.62
462.283	437.62
463.061	480.62
463.838	544.62
464.615	588.62
465.393	668.62
466.17	735.62
466.947	805.62
467.724	902.62
468.501	1003.62
469.278	1102.62
470.055	1218.62
470.831	1343.62
471.608	1486.62
472.385	1646.62
473.161	1788.62
473.938	1984.62
474.714	2169.62
475.49	2377.62
476.266	2580.62
477.043	2854.62
477.819	3116.62
478.595	3410.62
479.371	3726.62
480.146	4050.62
480.922	4434.62
481.698	4806.62
482.473	5247.62
483.249	5728.62
484.024	6184.62
484.8	6775.62
485.575	7324.62
486.35	7913.62
487.126	8634.62
487.901	9284.62
488.676	10096.62
489.451	10904.62
490.225	11784.62
491	12728.62
491.775	13751.62
492.55	14707.62
493.324	15804.62
494.099	16972.62
494.873	18023.62
495.647	19296.62
496.422	20427.62
497.196	21645.62
497.97	22998.62
498.744	24278.62
499.518	25511.62
500.292	26644.62
501.066	27757.62
501.839	28842.62
502.613	29875.62
503.387	30583.62
504.16	31384.62
504.934	31852.62
505.707	32226.62
506.48	32365.62
507.253	32362.62
508.027	32322.62
508.8	32096.62
509.573	31653.62
510.346	31134.62
511.118	30486.62
511.891	29825.62
512.664	28870.62
513.437	28051.62
514.209	27103.62
514.982	26212.62
515.754	25246.62
516.526	24215.62
517.298	23328.62
518.071	22359.62
518.843	21450.62
519.615	20583.62
520.387	19806.62
521.159	19022.62
521.93	18363.62
522.702	17607.62
523.474	16950.62
524.245	16284.62
525.017	15537.62
525.788	14809.62
526.56	14163.62
527.331	13620.62
528.102	13049.62
528.873	12493.62
529.644	11912.62
530.415	11387.62
531.186	10892.62
531.957	10336.62
532.728	9807.62
533.498	9298.62
534.269	8766.62
535.039	8349.62
535.81	7906.62
536.58	7497.62
537.351	7059.62
538.121	6696.62
538.891	6312.62
539.661	5999.62
540.431	5719.62
541.201	5390.62
541.971	5098.62
542.741	4834.62
543.51	4596.62
544.28	4370.62
545.05	4155.62
545.819	3958.62
546.588	3761.62
547.358	3548.62
548.127	3385.62
548.896	3219.62
549.665	3081.62
550.434	2920.62
551.203	2776.62
551.972	2602.62
552.741	2476.62
553.51	2361.62
554.278	2223.62
555.047	2108.62
555.815	1992.62
556.584	1878.62
557.352	1769.62
558.121	1672.62
558.889	1577.62
559.657	1494.62
560.425	1409.62
561.193	1342.62
561.961	1254.62
562.729	1206.62
563.496	1134.62
564.264	1072.62
565.032	1011.62
565.799	963.62
566.567	910.62
567.334	855.62
568.101	801.62
568.869	763.62
569.636	723.62
570.403	677.62
571.17	638.62
571.937	602.62
572.704	574.62
573.471	535.62
574.237	505.62
575.004	478.62
575.771	446.62
576.537	418.62
577.303	394.62
578.07	376.62
578.836	349.62
579.602	334.62
580.368	316.62
581.134	297.62
581.9	292.62
582.666	266.62
583.432	257.62
584.198	246.62
584.964	232.62
585.729	216.62
586.495	214.62
587.26	200.62
588.025	189.62
588.791	179.62
589.556	170.62
590.321	162.62
591.086	149.62
591.851	142.62
592.616	135.62
593.381	123.62
594.146	125.62
594.911	118.62
595.675	115.62
596.44	109.62
597.204	105.62
597.969	98.62
598.733	91.62
599.497	92.62
600.261	87.62
601.025	82.62
601.79	82.62
602.553	74.62
603.317	70.62
604.081	70.62
604.845	61.62
605.609	63.62
606.372	62.62
607.136	61.62
607.899	58.62
608.662	51.62
609.426	51.62
610.189	52.62
610.952	46.62
611.715	44.62
612.478	43.62
613.241	42.62
614.004	38.62
614.767	39.62
615.529	37.62
616.292	38.62
617.055	33.62
617.817	33.62
618.579	30.62
619.342	30.62
620.104	30.62
620.866	31.62
621.628	27.62
622.39	30.62
623.152	27.62
623.914	26.62
624.676	24.62
625.438	22.62
626.199	21.62
626.961	21.62
627.722	24.62
628.484	20.62
629.245	21.62
630.006	17.62
630.768	19.62
631.529	18.62
632.29	21.62
633.051	19.62
633.812	15.62
634.573	17.62
635.333	15.62
636.094	16.62
636.855	16.62
637.615	14.62
638.376	11.62
639.136	10.62
639.896	13.62
640.657	14.62
641.417	12.62
642.177	12.62
642.937	13.62
643.697	12.62
644.457	10.62
645.216	13.62
645.976	10.62
646.736	8.62
647.495	11.62
648.255	8.62
649.014	11.62
649.774	10.62
650.533	8.62
651.292	11.62
652.051	9.62
652.81	9.62
653.569	9.62
654.328	8.62
655.087	8.62
655.846	8.62
656.604	11.62
657.363	8.62
658.121	7.62
658.88	7.62
659.638	7.62
660.397	8.62
661.155	7.62
661.913	5.62
662.671	7.62
663.429	7.62
664.187	8.62
664.945	5.62
665.703	7.62
666.46	7.62
667.218	7.62
667.976	6.62
668.733	8.62
669.49	6.62
670.248	7.62
671.005	6.62
671.762	5.62
672.519	6.62
673.276	6.62
674.033	7.62
674.79	5.62
675.547	5.62
676.304	7.62
677.06	7.62
677.817	5.62
678.574	4.62
679.33	7.62
680.086	5.62
680.843	7.62
681.599	5.62
682.355	3.62
683.111	6.62
683.867	5.62
684.623	3.62
685.379	7.62
686.135	2.62
686.89	4.62
687.646	3.62
688.402	5.62
689.157	7.62
689.912	3.62
690.668	4.62
691.423	2.62
692.178	5.62
692.933	4.62
693.688	3.62
694.443	6.62
695.198	4.62
695.953	5.62
696.708	6.62
697.462	4.62
698.217	3.62
698.972	6.62
699.726	4.62
700.48	4.62
701.235	5.62
701.989	6.62
702.743	2.62
703.497	4.62
704.251	4.62
705.005	6.62
705.759	4.62
706.513	5.62
707.266	4.62
708.02	3.62
708.774	6.62
709.527	2.62
710.28	7.62
711.034	6.62
711.787	2.62
712.54	4.62
713.293	3.62
714.046	7.62
714.799	5.62
715.552	5.62
716.305	5.62
717.058	4.62
717.81	5.62
718.563	4.62
719.315	5.62
720.068	8.62
720.82	5.62
721.573	4.62
722.325	3.62
723.077	5.62
723.829	4.62
724.581	6.62
725.333	4.62
726.085	6.62
726.836	5.62
727.588	5.62
728.34	5.62
729.091	4.62
729.843	4.62
730.594	6.62
731.346	4.62
732.097	8.62
732.848	6.62
733.599	7.62
734.35	5.62
735.101	7.62
735.852	4.62
736.603	5.62
737.354	7.62
738.104	6.62
738.855	4.62
739.605	7.62
740.356	4.62
741.106	7.62
741.856	8.62
742.607	6.62
743.357	4.62
744.107	5.62
744.857	6.62
745.607	5.62
746.357	4.62
747.106	6.62
747.856	5.62
748.606	6.62
749.355	8.62
750.105	6.62
750.854	7.62
751.603	7.62
752.353	5.62
753.102	6.62
753.851	6.62
754.6	8.62
755.349	6.62
756.098	9.62
756.847	6.62
757.595	9.62
758.344	5.62
759.093	5.62
759.841	8.62
760.589	7.62
761.338	9.62
762.086	8.62
762.834	9.62
763.582	9.62
764.331	9.62
765.079	7.62
765.826	6.62
766.574	8.62
767.322	7.62
768.07	9.62
768.817	8.62
769.565	8.62
770.312	10.62
771.06	10.62
771.807	10.62
772.554	10.62
773.302	9.62
774.049	11.62
774.796	7.62
775.543	6.62
776.29	8.62
777.036	11.62
777.783	6.62
778.53	10.62
779.276	10.62
780.023	9.62
780.769	8.62
781.516	11.62
782.262	10.62
783.008	10.62
783.754	8.62
784.5	11.62
785.246	10.62
785.992	10.62
786.738	9.62
787.484	9.62
788.23	12.62
788.975	10.62
789.721	11.62
790.466	9.62
791.212	10.62
791.957	9.62
792.702	10.62
793.447	9.62
794.193	7.62
794.938	11.62
795.683	10.62
796.427	9.62
797.172	8.62
797.917	10.62
798.662	9.62
799.406	8.62
800.151	11.62
800.895	10.62
801.64	7.62
802.384	8.62
803.128	8.62
803.872	9.62
804.616	9.62
805.36	9.62
806.104	8.62
806.848	7.62
807.592	5.62
808.336	5.62
809.079	8.62
809.823	8.62
810.566	6.62
811.31	6.62
812.053	4.62
812.796	10.62
813.539	5.62
814.283	6.62
815.026	8.62
815.769	5.62
816.511	3.62
817.254	4.62
817.997	3.62
818.74	7.62
819.482	6.62
820.225	6.62
820.967	4.62
821.71	6.62
822.452	6.62
823.194	5.62
823.936	7.62
824.678	7.62
825.42	2.62
826.162	4.62
826.904	4.62
827.646	4.62
828.388	5.62
829.129	4.62
829.871	3.62
830.612	4.62
831.354	5.62
832.095	5.62
832.836	3.62
833.577	3.62
834.319	5.62
835.06	2.62
835.801	4.62
836.542	4.62
837.282	5.62
838.023	6.62
838.764	2.62
839.504	3.62
840.245	1.62
840.985	4.62
841.726	4.62
842.466	5.62
843.206	5.62
843.946	5.62
844.687	6.62
845.427	4.62
846.166	3.62
846.906	3.62
847.646	2.62
848.386	2.62
849.125	2.62
849.865	2.62
850.605	3.62
851.344	5.62
852.083	4.62
852.823	3.62
853.562	2.62
854.301	2.62
855.04	3.62
855.779	4.62
856.518	0.62
857.257	2.62
857.995	0.62
858.734	2.62
859.473	2.62
860.211	2.62
860.95	2.62
861.688	3.62
862.426	2.62
863.165	1.62
863.903	1.62
864.641	2.62
865.379	1.62
866.117	2.62
866.855	1.62
867.593	4.62
868.33	1.62
869.068	3.62
869.806	0.62
870.543	1.62
871.28	1.62
872.018	1.62
872.755	1.62
873.492	2.62
874.229	2.62
874.967	-0.38
875.703	1.62
876.44	2.62
877.177	1.62
877.914	1.62
878.651	2.62
879.387	0.62
880.124	1.62
880.86	1.62
881.597	0.62
882.333	2.62
883.069	1.62
883.806	2.62
884.542	2.62
885.278	2.62
886.014	0.62
886.749	1.62
887.485	2.62
888.221	-0.38
888.957	2.62
889.692	1.62
890.428	3.62
891.163	0.62
891.899	0.62
892.634	2.62
893.369	1.62
894.104	0.62
894.839	0.62
895.574	0.62
896.309	0.62
897.044	-1.38
897.779	-0.38
898.514	0.62
899.248	0.62
899.983	2.62
900.717	0.62
901.452	3.62
902.186	-2.38
902.92	1.62
903.654	0.62
904.389	0.62
905.123	-0.38
905.857	0.62
906.59	0.62
907.324	0.62
908.058	0.62
908.792	1.62
909.525	0.62
910.259	-0.38
910.992	1.62
911.726	-0.38
912.459	2.62
913.192	0.62
913.925	-1.38
914.658	1.62
915.391	2.62
916.124	0.62
916.857	2.62
917.59	0.62
918.323	0.62
919.055	1.62
919.788	-1.38
920.521	1.62
921.253	-0.38
921.985	2.62
922.718	1.62
923.45	0.62
924.182	2.62
924.914	0.62
925.646	0.62
926.378	1.62
927.11	-0.38
927.841	0.62
928.573	-1.38
929.305	2.62
930.036	2.62
930.768	2.62
931.499	0.62
932.23	1.62
932.962	1.62
933.693	-1.38
934.424	-1.38
935.155	2.62
935.886	-2.38
936.617	0.62
937.348	0.62
938.078	0.62
938.809	-0.38
939.54	0.62
940.27	1.62
941.001	-0.38
941.731	0.62
942.461	0.62
943.191	-0.38
943.922	1.62
944.652	-1.38
945.382	1.62
946.112	-1.38
946.841	1.62
947.571	0.62
948.301	1.62
949.031	0.62
949.76	-2.38
950.49	1.62
951.219	0.62
951.948	-0.38
952.678	-0.38
953.407	1.62
954.136	-0.38
954.865	0.62
955.594	0.62
956.323	-0.38
957.052	1.62
957.78	0.62
958.509	1.62
959.238	0.62
959.966	1.62
960.695	-0.38
961.423	-0.38
962.151	-2.38
962.88	1.62
963.608	0.62
964.336	-0.38
965.064	1.62
965.792	1.62
966.52	3.62
967.247	0.62
967.975	1.62
968.703	-0.38
969.43	0.62
970.158	1.62
970.885	-0.38
971.613	2.62
972.34	0.62
973.067	-1.38
973.794	-1.38
974.521	-2.38
975.248	-1.38
975.975	-1.38
976.702	-2.38
977.429	0.62
978.156	1.62
978.882	-1.38
979.609	0.62
980.335	-0.38
981.062	-0.38
981.788	1.62
982.514	-0.38
983.24	1.62
983.967	0.62
984.693	0.62
985.419	-1.38
986.144	-0.38
986.87	2.62
987.596	-0.38
988.322	1.62
989.047	0.62
989.773	0.62
990.498	0.62
991.224	0.62
991.949	1.62
992.674	0.62
993.399	1.62
994.124	1.62
994.849	-0.38
995.574	0.62
996.299	0.62
997.024	0.62
997.749	0.62
998.473	0.62
999.198	1.62
999.922	2.62
1000.647	2.62
1001.371	2.62
1002.095	-1.38
1002.82	-1.38
1003.544	-0.38
1004.268	0.62
1004.992	1.62
1005.716	0.62
1006.439	2.62
1007.163	1.62
1007.887	2.62
1008.611	0.62
1009.334	1.62
1010.058	1.62
1010.781	-1.38
1011.504	-0.38
1012.228	0.62
1012.951	0.62
1013.674	0.62
1014.397	-0.38
1015.12	-0.38
