节点500_425_QEPB04081__196__15-51-34-093.txt的数据

Date: Wed Nov 12 15:51:34 CST 2025
User: PC
Spectrometer: QEPB0408
触发模式: 0
积分时间 (秒): 1.000000E-2
Scans to average: 1
启用暗噪声校正: true
启用非线性校正: false
滑动平均宽度: 0
X轴模式: Wavelengths
Number of Pixels in Spectrum: 1044
>>>>>Begin Spectral Data<<<<<
220.843	2.5
221.644	1.5
222.444	2.5
223.244	2.5
224.045	2.5
224.845	1.5
225.645	3.5
226.445	3.5
227.245	3.5
228.045	3.5
228.845	5.5
229.645	2.5
230.444	5.5
231.244	3.5
232.043	3.5
232.843	7.5
233.642	2.5
234.442	5.5
235.241	5.5
236.04	4.5
236.839	4.5
237.638	5.5
238.437	3.5
239.236	4.5
240.035	7.5
240.833	6.5
241.632	6.5
242.43	6.5
243.229	5.5
244.027	6.5
244.826	7.5
245.624	6.5
246.422	8.5
247.22	6.5
248.018	7.5
248.816	8.5
249.614	7.5
250.412	8.5
251.21	9.5
252.007	10.5
252.805	8.5
253.602	13.5
254.4	8.5
255.197	9.5
255.994	13.5
256.791	13.5
257.589	11.5
258.386	9.5
259.183	14.5
259.979	12.5
260.776	14.5
261.573	14.5
262.37	16.5
263.166	17.5
263.963	15.5
264.759	17.5
265.556	14.5
266.352	19.5
267.148	17.5
267.944	16.5
268.74	19.5
269.536	17.5
270.332	19.5
271.128	21.5
271.924	21.5
272.719	22.5
273.515	19.5
274.311	26.5
275.106	23.5
275.901	19.5
276.697	23.5
277.492	21.5
278.287	23.5
279.082	23.5
279.877	23.5
280.672	23.5
281.467	21.5
282.262	25.5
283.056	25.5
283.851	24.5
284.646	23.5
285.44	23.5
286.234	24.5
287.029	23.5
287.823	23.5
288.617	24.5
289.411	23.5
290.205	21.5
290.999	24.5
291.793	23.5
292.587	19.5
293.381	24.5
294.174	24.5
294.968	22.5
295.761	19.5
296.555	18.5
297.348	19.5
298.141	19.5
298.935	21.5
299.728	19.5
300.521	17.5
301.314	16.5
302.107	16.5
302.899	18.5
303.692	16.5
304.485	14.5
305.277	18.5
306.07	14.5
306.862	13.5
307.655	15.5
308.447	14.5
309.239	13.5
310.031	14.5
310.823	13.5
311.615	12.5
312.407	12.5
313.199	12.5
313.991	13.5
314.783	11.5
315.574	10.5
316.366	11.5
317.157	12.5
317.949	8.5
318.74	10.5
319.531	9.5
320.322	6.5
321.113	8.5
321.904	8.5
322.695	9.5
323.486	8.5
324.277	9.5
325.068	7.5
325.858	10.5
326.649	7.5
327.439	7.5
328.23	9.5
329.02	5.5
329.81	8.5
330.6	6.5
331.391	10.5
332.181	6.5
332.971	8.5
333.76	6.5
334.55	8.5
335.34	7.5
336.13	7.5
336.919	6.5
337.709	9.5
338.498	5.5
339.287	8.5
340.077	7.5
340.866	7.5
341.655	6.5
342.444	8.5
343.233	7.5
344.022	6.5
344.811	6.5
345.6	8.5
346.388	7.5
347.177	8.5
347.965	8.5
348.754	8.5
349.542	7.5
350.33	6.5
351.119	7.5
351.907	5.5
352.695	7.5
353.483	5.5
354.271	6.5
355.059	4.5
355.846	8.5
356.634	6.5
357.422	6.5
358.209	7.5
358.997	8.5
359.784	7.5
360.571	7.5
361.359	7.5
362.146	8.5
362.933	4.5
363.72	6.5
364.507	6.5
365.294	8.5
366.081	6.5
366.867	5.5
367.654	6.5
368.44	5.5
369.227	6.5
370.013	7.5
370.8	6.5
371.586	8.5
372.372	4.5
373.158	7.5
373.944	4.5
374.73	6.5
375.516	6.5
376.302	5.5
377.088	8.5
377.873	4.5
378.659	7.5
379.445	5.5
380.23	5.5
381.015	6.5
381.801	5.5
382.586	6.5
383.371	6.5
384.156	7.5
384.941	5.5
385.726	5.5
386.511	5.5
387.296	9.5
388.08	8.5
388.865	8.5
389.649	9.5
390.434	6.5
391.218	5.5
392.003	9.5
392.787	6.5
393.571	9.5
394.355	5.5
395.139	7.5
395.923	7.5
396.707	4.5
397.491	9.5
398.274	10.5
399.058	9.5
399.842	9.5
400.625	8.5
401.408	8.5
402.192	9.5
402.975	9.5
403.758	8.5
404.541	9.5
405.324	9.5
406.107	11.5
406.89	8.5
407.673	8.5
408.456	8.5
409.238	10.5
410.021	9.5
410.803	9.5
411.586	9.5
412.368	12.5
413.151	10.5
413.933	11.5
414.715	12.5
415.497	10.5
416.279	12.5
417.061	13.5
417.843	12.5
418.624	12.5
419.406	11.5
420.188	12.5
420.969	13.5
421.751	13.5
422.532	15.5
423.313	13.5
424.095	15.5
424.876	14.5
425.657	13.5
426.438	14.5
427.219	15.5
428	18.5
428.78	15.5
429.561	18.5
430.342	19.5
431.122	19.5
431.903	22.5
432.683	20.5
433.464	21.5
434.244	22.5
435.024	24.5
435.804	23.5
436.584	23.5
437.364	27.5
438.144	28.5
438.924	31.5
439.704	29.5
440.483	35.5
441.263	38.5
442.042	38.5
442.822	38.5
443.601	40.5
444.38	44.5
445.16	46.5
445.939	48.5
446.718	55.5
447.497	62.5
448.276	64.5
449.054	68.5
449.833	77.5
450.612	86.5
451.391	93.5
452.169	96.5
452.948	105.5
453.726	120.5
454.504	134.5
455.282	152.5
456.061	163.5
456.839	180.5
457.617	201.5
458.395	223.5
459.172	256.5
459.95	282.5
460.728	309.5
461.506	339.5
462.283	393.5
463.061	436.5
463.838	493.5
464.615	548.5
465.393	607.5
466.17	677.5
466.947	756.5
467.724	839.5
468.501	931.5
469.278	1025.5
470.055	1150.5
470.831	1281.5
471.608	1427.5
472.385	1582.5
473.161	1752.5
473.938	1949.5
474.714	2141.5
475.49	2362.5
476.266	2615.5
477.043	2916.5
477.819	3195.5
478.595	3549.5
479.371	3877.5
480.146	4281.5
480.922	4717.5
481.698	5129.5
482.473	5670.5
483.249	6224.5
484.024	6798.5
484.8	7485.5
485.575	8159.5
486.35	8974.5
487.126	9786.5
487.901	10681.5
488.676	11673.5
489.451	12689.5
490.225	13823.5
491	14966.5
491.775	16256.5
492.55	17514.5
493.324	18954.5
494.099	20285.5
494.873	21637.5
495.647	23158.5
496.422	24672.5
497.196	26154.5
497.97	27702.5
498.744	29175.5
499.518	30531.5
500.292	31703.5
501.066	32843.5
501.839	33924.5
502.613	34797.5
503.387	35480.5
504.16	35979.5
504.934	36165.5
505.707	36124.5
506.48	36014.5
507.253	35646.5
508.027	35222.5
508.8	34451.5
509.573	33654.5
510.346	32722.5
511.118	31745.5
511.891	30696.5
512.664	29508.5
513.437	28348.5
514.209	27172.5
514.982	26178.5
515.754	24978.5
516.526	23975.5
517.298	22948.5
518.071	21954.5
518.843	21059.5
519.615	20192.5
520.387	19308.5
521.159	18608.5
521.93	17915.5
522.702	17230.5
523.474	16550.5
524.245	15828.5
525.017	15127.5
525.788	14387.5
526.56	13758.5
527.331	13097.5
528.102	12557.5
528.873	11919.5
529.644	11335.5
530.415	10780.5
531.186	10262.5
531.957	9681.5
532.728	9240.5
533.498	8673.5
534.269	8205.5
535.039	7763.5
535.81	7359.5
536.58	6918.5
537.351	6525.5
538.121	6156.5
538.891	5837.5
539.661	5535.5
540.431	5249.5
541.201	4947.5
541.971	4685.5
542.741	4472.5
543.51	4249.5
544.28	4034.5
545.05	3832.5
545.819	3642.5
546.588	3470.5
547.358	3269.5
548.127	3115.5
548.896	2956.5
549.665	2805.5
550.434	2683.5
551.203	2520.5
551.972	2394.5
552.741	2270.5
553.51	2127.5
554.278	2009.5
555.047	1887.5
555.815	1806.5
556.584	1691.5
557.352	1587.5
558.121	1504.5
558.889	1423.5
559.657	1349.5
560.425	1258.5
561.193	1192.5
561.961	1125.5
562.729	1069.5
563.496	1016.5
564.264	962.5
565.032	902.5
565.799	864.5
566.567	819.5
567.334	781.5
568.101	726.5
568.869	685.5
569.636	645.5
570.403	604.5
571.17	572.5
571.937	532.5
572.704	511.5
573.471	482.5
574.237	447.5
575.004	427.5
575.771	397.5
576.537	375.5
577.303	362.5
578.07	343.5
578.836	317.5
579.602	295.5
580.368	291.5
581.134	275.5
581.9	254.5
582.666	241.5
583.432	226.5
584.198	223.5
584.964	205.5
585.729	195.5
586.495	183.5
587.26	176.5
588.025	170.5
588.791	159.5
589.556	150.5
590.321	141.5
591.086	132.5
591.851	128.5
592.616	123.5
593.381	116.5
594.146	110.5
594.911	107.5
595.675	105.5
596.44	98.5
597.204	93.5
597.969	88.5
598.733	84.5
599.497	81.5
600.261	79.5
601.025	73.5
601.79	67.5
602.553	68.5
603.317	67.5
604.081	59.5
604.845	58.5
605.609	54.5
606.372	56.5
607.136	50.5
607.899	50.5
608.662	48.5
609.426	47.5
610.189	46.5
610.952	42.5
611.715	42.5
612.478	36.5
613.241	39.5
614.004	37.5
614.767	32.5
615.529	33.5
616.292	29.5
617.055	30.5
617.817	30.5
618.579	30.5
619.342	28.5
620.104	27.5
620.866	24.5
621.628	25.5
622.39	26.5
623.152	25.5
623.914	24.5
624.676	23.5
625.438	21.5
626.199	21.5
626.961	20.5
627.722	21.5
628.484	21.5
629.245	16.5
630.006	17.5
630.768	16.5
631.529	15.5
632.29	14.5
633.051	14.5
633.812	13.5
634.573	15.5
635.333	13.5
636.094	13.5
636.855	13.5
637.615	15.5
638.376	11.5
639.136	12.5
639.896	10.5
640.657	13.5
641.417	11.5
642.177	8.5
642.937	14.5
643.697	10.5
644.457	12.5
645.216	11.5
645.976	12.5
646.736	11.5
647.495	6.5
648.255	8.5
649.014	10.5
649.774	11.5
650.533	8.5
651.292	10.5
652.051	9.5
652.81	5.5
653.569	9.5
654.328	6.5
655.087	7.5
655.846	6.5
656.604	8.5
657.363	7.5
658.121	7.5
658.88	8.5
659.638	8.5
660.397	9.5
661.155	6.5
661.913	6.5
662.671	5.5
663.429	6.5
664.187	6.5
664.945	7.5
665.703	5.5
666.46	6.5
667.218	3.5
667.976	6.5
668.733	6.5
669.49	6.5
670.248	6.5
671.005	3.5
671.762	8.5
672.519	4.5
673.276	4.5
674.033	5.5
674.79	5.5
675.547	5.5
676.304	5.5
677.06	5.5
677.817	5.5
678.574	6.5
679.33	2.5
680.086	5.5
680.843	5.5
681.599	4.5
682.355	6.5
683.111	7.5
683.867	4.5
684.623	6.5
685.379	4.5
686.135	4.5
686.89	4.5
687.646	4.5
688.402	4.5
689.157	3.5
689.912	5.5
690.668	4.5
691.423	7.5
692.178	6.5
692.933	3.5
693.688	3.5
694.443	4.5
695.198	5.5
695.953	3.5
696.708	5.5
697.462	3.5
698.217	3.5
698.972	5.5
699.726	5.5
700.48	5.5
701.235	3.5
701.989	2.5
702.743	5.5
703.497	4.5
704.251	7.5
705.005	2.5
705.759	5.5
706.513	5.5
707.266	3.5
708.02	6.5
708.774	3.5
709.527	3.5
710.28	3.5
711.034	1.5
711.787	5.5
712.54	1.5
713.293	4.5
714.046	4.5
714.799	5.5
715.552	6.5
716.305	3.5
717.058	3.5
717.81	4.5
718.563	6.5
719.315	5.5
720.068	3.5
720.82	3.5
721.573	4.5
722.325	6.5
723.077	2.5
723.829	6.5
724.581	1.5
725.333	2.5
726.085	3.5
726.836	1.5
727.588	6.5
728.34	4.5
729.091	3.5
729.843	2.5
730.594	2.5
731.346	5.5
732.097	4.5
732.848	8.5
733.599	3.5
734.35	3.5
735.101	6.5
735.852	2.5
736.603	5.5
737.354	4.5
738.104	4.5
738.855	7.5
739.605	4.5
740.356	9.5
741.106	7.5
741.856	8.5
742.607	5.5
743.357	2.5
744.107	9.5
744.857	3.5
745.607	9.5
746.357	8.5
747.106	3.5
747.856	6.5
748.606	8.5
749.355	5.5
750.105	5.5
750.854	6.5
751.603	7.5
752.353	6.5
753.102	8.5
753.851	6.5
754.6	6.5
755.349	5.5
756.098	6.5
756.847	7.5
757.595	8.5
758.344	7.5
759.093	9.5
759.841	5.5
760.589	8.5
761.338	9.5
762.086	7.5
762.834	7.5
763.582	7.5
764.331	8.5
765.079	10.5
765.826	7.5
766.574	10.5
767.322	8.5
768.07	7.5
768.817	10.5
769.565	8.5
770.312	7.5
771.06	8.5
771.807	9.5
772.554	11.5
773.302	9.5
774.049	11.5
774.796	10.5
775.543	9.5
776.29	9.5
777.036	10.5
777.783	9.5
778.53	10.5
779.276	10.5
780.023	9.5
780.769	11.5
781.516	9.5
782.262	10.5
783.008	11.5
783.754	10.5
784.5	7.5
785.246	9.5
785.992	10.5
786.738	11.5
787.484	11.5
788.23	12.5
788.975	12.5
789.721	9.5
790.466	11.5
791.212	11.5
791.957	12.5
792.702	12.5
793.447	9.5
794.193	9.5
794.938	9.5
795.683	9.5
796.427	6.5
797.172	9.5
797.917	8.5
798.662	7.5
799.406	11.5
800.151	9.5
800.895	9.5
801.64	8.5
802.384	7.5
803.128	11.5
803.872	8.5
804.616	7.5
805.36	8.5
806.104	8.5
806.848	6.5
807.592	7.5
808.336	6.5
809.079	5.5
809.823	6.5
810.566	6.5
811.31	5.5
812.053	6.5
812.796	5.5
813.539	5.5
814.283	3.5
815.026	4.5
815.769	5.5
816.511	5.5
817.254	4.5
817.997	5.5
818.74	4.5
819.482	6.5
820.225	4.5
820.967	4.5
821.71	6.5
822.452	6.5
823.194	5.5
823.936	3.5
824.678	7.5
825.42	5.5
826.162	4.5
826.904	4.5
827.646	4.5
828.388	3.5
829.129	3.5
829.871	5.5
830.612	4.5
831.354	4.5
832.095	3.5
832.836	2.5
833.577	4.5
834.319	3.5
835.06	4.5
835.801	2.5
836.542	4.5
837.282	3.5
838.023	2.5
838.764	3.5
839.504	4.5
840.245	3.5
840.985	3.5
841.726	1.5
842.466	2.5
843.206	2.5
843.946	4.5
844.687	3.5
845.427	3.5
846.166	3.5
846.906	2.5
847.646	1.5
848.386	2.5
849.125	3.5
849.865	2.5
850.605	1.5
851.344	3.5
852.083	0.5
852.823	4.5
853.562	1.5
854.301	2.5
855.04	4.5
855.779	0.5
856.518	3.5
857.257	1.5
857.995	4.5
858.734	2.5
859.473	1.5
860.211	2.5
860.95	0.5
861.688	2.5
862.426	1.5
863.165	1.5
863.903	2.5
864.641	1.5
865.379	3.5
866.117	-0.5
866.855	0.5
867.593	2.5
868.33	1.5
869.068	0.5
869.806	0.5
870.543	0.5
871.28	4.5
872.018	2.5
872.755	0.5
873.492	-0.5
874.229	1.5
874.967	1.5
875.703	-0.5
876.44	1.5
877.177	0.5
877.914	0.5
878.651	-1.5
879.387	1.5
880.124	1.5
880.86	-1.5
881.597	1.5
882.333	2.5
883.069	1.5
883.806	-0.5
884.542	-0.5
885.278	0.5
886.014	0.5
886.749	1.5
887.485	3.5
888.221	-0.5
888.957	1.5
889.692	-0.5
890.428	0.5
891.163	-1.5
891.899	1.5
892.634	-0.5
893.369	1.5
894.104	0.5
894.839	-0.5
895.574	1.5
896.309	0.5
897.044	1.5
897.779	-1.5
898.514	0.5
899.248	-0.5
899.983	-1.5
900.717	-1.5
901.452	-0.5
902.186	-1.5
902.92	-1.5
903.654	-0.5
904.389	1.5
905.123	-3.5
905.857	0.5
906.59	-0.5
907.324	-0.5
908.058	-1.5
908.792	-0.5
909.525	1.5
910.259	-0.5
910.992	0.5
911.726	-0.5
912.459	1.5
913.192	2.5
913.925	-2.5
914.658	1.5
915.391	-0.5
916.124	-2.5
916.857	-0.5
917.59	-2.5
918.323	0.5
919.055	-4.5
919.788	0.5
920.521	-0.5
921.253	0.5
921.985	-0.5
922.718	-0.5
923.45	-0.5
924.182	-1.5
924.914	-0.5
925.646	-1.5
926.378	1.5
927.11	3.5
927.841	1.5
928.573	-0.5
929.305	-0.5
930.036	-1.5
930.768	-0.5
931.499	-1.5
932.23	-2.5
932.962	-1.5
933.693	-2.5
934.424	-0.5
935.155	-0.5
935.886	1.5
936.617	-0.5
937.348	-2.5
938.078	-0.5
938.809	0.5
939.54	0.5
940.27	-1.5
941.001	1.5
941.731	-0.5
942.461	-0.5
943.191	-0.5
943.922	0.5
944.652	-0.5
945.382	-1.5
946.112	1.5
946.841	-0.5
947.571	-0.5
948.301	-0.5
949.031	-1.5
949.76	-2.5
950.49	-1.5
951.219	-2.5
951.948	0.5
952.678	2.5
953.407	-1.5
954.136	0.5
954.865	-0.5
955.594	-5.5
956.323	0.5
957.052	-1.5
957.78	-0.5
958.509	-0.5
959.238	-2.5
959.966	0.5
960.695	-2.5
961.423	0.5
962.151	1.5
962.88	-0.5
963.608	-1.5
964.336	-1.5
965.064	1.5
965.792	0.5
966.52	0.5
967.247	-0.5
967.975	1.5
968.703	-0.5
969.43	-0.5
970.158	-0.5
970.885	0.5
971.613	-0.5
972.34	-0.5
973.067	0.5
973.794	1.5
974.521	-0.5
975.248	1.5
975.975	-1.5
976.702	-0.5
977.429	0.5
978.156	-1.5
978.882	-0.5
979.609	-1.5
980.335	-2.5
981.062	-0.5
981.788	-1.5
982.514	-0.5
983.24	-1.5
983.967	0.5
984.693	-1.5
985.419	-2.5
986.144	-2.5
986.87	-3.5
987.596	-1.5
988.322	0.5
989.047	-0.5
989.773	0.5
990.498	-2.5
991.224	-0.5
991.949	-1.5
992.674	1.5
993.399	-0.5
994.124	-1.5
994.849	-0.5
995.574	-1.5
996.299	-0.5
997.024	1.5
997.749	-1.5
998.473	-0.5
999.198	-0.5
999.922	-1.5
1000.647	0.5
1001.371	2.5
1002.095	-1.5
1002.82	-0.5
1003.544	1.5
1004.268	3.5
1004.992	-0.5
1005.716	-0.5
1006.439	-1.5
1007.163	2.5
1007.887	3.5
1008.611	-2.5
1009.334	0.5
1010.058	-1.5
1010.781	-0.5
1011.504	-2.5
1012.228	1.5
1012.951	-0.5
1013.674	1.5
1014.397	-1.5
1015.12	-1.5
