节点500_425_QEPB04081__315__15-53-32-846.txt的数据

Date: Wed Nov 12 15:53:32 CST 2025
User: PC
Spectrometer: QEPB0408
触发模式: 0
积分时间 (秒): 1.000000E-2
Scans to average: 1
启用暗噪声校正: true
启用非线性校正: false
滑动平均宽度: 0
X轴模式: Wavelengths
Number of Pixels in Spectrum: 1044
>>>>>Begin Spectral Data<<<<<
220.843	2.38
221.644	2.38
222.444	3.38
223.244	2.38
224.045	4.38
224.845	4.38
225.645	5.38
226.445	4.38
227.245	1.38
228.045	5.38
228.845	5.38
229.645	5.38
230.444	3.38
231.244	4.38
232.043	6.38
232.843	3.38
233.642	5.38
234.442	6.38
235.241	7.38
236.04	6.38
236.839	4.38
237.638	5.38
238.437	5.38
239.236	6.38
240.035	7.38
240.833	6.38
241.632	6.38
242.43	4.38
243.229	8.38
244.027	7.38
244.826	4.38
245.624	6.38
246.422	9.38
247.22	11.38
248.018	8.38
248.816	8.38
249.614	10.38
250.412	10.38
251.21	10.38
252.007	11.38
252.805	11.38
253.602	12.38
254.4	11.38
255.197	10.38
255.994	11.38
256.791	13.38
257.589	13.38
258.386	14.38
259.183	15.38
259.979	13.38
260.776	12.38
261.573	12.38
262.37	17.38
263.166	16.38
263.963	17.38
264.759	17.38
265.556	17.38
266.352	17.38
267.148	15.38
267.944	18.38
268.74	21.38
269.536	20.38
270.332	23.38
271.128	20.38
271.924	24.38
272.719	22.38
273.515	20.38
274.311	21.38
275.106	22.38
275.901	25.38
276.697	23.38
277.492	24.38
278.287	23.38
279.082	21.38
279.877	26.38
280.672	23.38
281.467	21.38
282.262	26.38
283.056	25.38
283.851	22.38
284.646	24.38
285.44	24.38
286.234	23.38
287.029	26.38
287.823	22.38
288.617	23.38
289.411	24.38
290.205	23.38
290.999	24.38
291.793	21.38
292.587	20.38
293.381	24.38
294.174	22.38
294.968	21.38
295.761	20.38
296.555	18.38
297.348	18.38
298.141	18.38
298.935	21.38
299.728	19.38
300.521	17.38
301.314	17.38
302.107	16.38
302.899	17.38
303.692	16.38
304.485	17.38
305.277	17.38
306.07	15.38
306.862	12.38
307.655	13.38
308.447	17.38
309.239	14.38
310.031	14.38
310.823	14.38
311.615	13.38
312.407	14.38
313.199	11.38
313.991	13.38
314.783	10.38
315.574	12.38
316.366	11.38
317.157	12.38
317.949	10.38
318.74	10.38
319.531	9.38
320.322	11.38
321.113	11.38
321.904	12.38
322.695	10.38
323.486	10.38
324.277	10.38
325.068	6.38
325.858	10.38
326.649	9.38
327.439	8.38
328.23	9.38
329.02	9.38
329.81	9.38
330.6	7.38
331.391	8.38
332.181	7.38
332.971	10.38
333.76	6.38
334.55	9.38
335.34	9.38
336.13	9.38
336.919	9.38
337.709	9.38
338.498	9.38
339.287	10.38
340.077	10.38
340.866	8.38
341.655	5.38
342.444	8.38
343.233	7.38
344.022	5.38
344.811	7.38
345.6	8.38
346.388	6.38
347.177	9.38
347.965	10.38
348.754	8.38
349.542	7.38
350.33	8.38
351.119	4.38
351.907	10.38
352.695	6.38
353.483	5.38
354.271	7.38
355.059	9.38
355.846	7.38
356.634	9.38
357.422	6.38
358.209	7.38
358.997	9.38
359.784	8.38
360.571	7.38
361.359	7.38
362.146	7.38
362.933	8.38
363.72	8.38
364.507	8.38
365.294	7.38
366.081	6.38
366.867	7.38
367.654	8.38
368.44	4.38
369.227	6.38
370.013	6.38
370.8	6.38
371.586	8.38
372.372	5.38
373.158	6.38
373.944	6.38
374.73	4.38
375.516	8.38
376.302	6.38
377.088	6.38
377.873	8.38
378.659	7.38
379.445	7.38
380.23	5.38
381.015	7.38
381.801	10.38
382.586	5.38
383.371	8.38
384.156	9.38
384.941	8.38
385.726	3.38
386.511	6.38
387.296	10.38
388.08	9.38
388.865	9.38
389.649	9.38
390.434	8.38
391.218	5.38
392.003	8.38
392.787	9.38
393.571	9.38
394.355	7.38
395.139	8.38
395.923	8.38
396.707	7.38
397.491	6.38
398.274	7.38
399.058	8.38
399.842	9.38
400.625	9.38
401.408	11.38
402.192	9.38
402.975	10.38
403.758	8.38
404.541	10.38
405.324	7.38
406.107	10.38
406.89	9.38
407.673	9.38
408.456	15.38
409.238	10.38
410.021	11.38
410.803	12.38
411.586	10.38
412.368	12.38
413.151	13.38
413.933	12.38
414.715	12.38
415.497	13.38
416.279	14.38
417.061	9.38
417.843	13.38
418.624	10.38
419.406	14.38
420.188	13.38
420.969	14.38
421.751	13.38
422.532	14.38
423.313	15.38
424.095	16.38
424.876	16.38
425.657	14.38
426.438	18.38
427.219	18.38
428	13.38
428.78	18.38
429.561	18.38
430.342	18.38
431.122	22.38
431.903	21.38
432.683	23.38
433.464	22.38
434.244	23.38
435.024	26.38
435.804	22.38
436.584	25.38
437.364	29.38
438.144	30.38
438.924	30.38
439.704	28.38
440.483	37.38
441.263	35.38
442.042	36.38
442.822	35.38
443.601	44.38
444.38	42.38
445.16	50.38
445.939	53.38
446.718	57.38
447.497	58.38
448.276	65.38
449.054	74.38
449.833	80.38
450.612	84.38
451.391	96.38
452.169	99.38
452.948	113.38
453.726	124.38
454.504	140.38
455.282	153.38
456.061	168.38
456.839	184.38
457.617	215.38
458.395	229.38
459.172	260.38
459.95	292.38
460.728	325.38
461.506	359.38
462.283	395.38
463.061	449.38
463.838	497.38
464.615	555.38
465.393	623.38
466.17	691.38
466.947	770.38
467.724	855.38
468.501	942.38
469.278	1062.38
470.055	1176.38
470.831	1292.38
471.608	1438.38
472.385	1599.38
473.161	1756.38
473.938	1960.38
474.714	2140.38
475.49	2368.38
476.266	2608.38
477.043	2893.38
477.819	3166.38
478.595	3501.38
479.371	3855.38
480.146	4188.38
480.922	4605.38
481.698	5057.38
482.473	5548.38
483.249	6079.38
484.024	6648.38
484.8	7298.38
485.575	7971.38
486.35	8674.38
487.126	9417.38
487.901	10309.38
488.676	11227.38
489.451	12165.38
490.225	13200.38
491	14344.38
491.775	15524.38
492.55	16795.38
493.324	18078.38
494.099	19353.38
494.873	20641.38
495.647	22099.38
496.422	23419.38
497.196	24881.38
497.97	26468.38
498.744	27754.38
499.518	29154.38
500.292	30339.38
501.066	31447.38
501.839	32564.38
502.613	33481.38
503.387	34184.38
504.16	34813.38
504.934	35192.38
505.707	35178.38
506.48	35019.38
507.253	34726.38
508.027	34489.38
508.8	33948.38
509.573	33231.38
510.346	32417.38
511.118	31447.38
511.891	30511.38
512.664	29340.38
513.437	28161.38
514.209	27088.38
514.982	26117.38
515.754	25004.38
516.526	23956.38
517.298	23016.38
518.071	22034.38
518.843	21111.38
519.615	20238.38
520.387	19432.38
521.159	18708.38
521.93	18024.38
522.702	17277.38
523.474	16584.38
524.245	15910.38
525.017	15233.38
525.788	14472.38
526.56	13833.38
527.331	13204.38
528.102	12635.38
528.873	12041.38
529.644	11435.38
530.415	10938.38
531.186	10385.38
531.957	9838.38
532.728	9353.38
533.498	8806.38
534.269	8312.38
535.039	7885.38
535.81	7470.38
536.58	7020.38
537.351	6637.38
538.121	6277.38
538.891	5959.38
539.661	5647.38
540.431	5332.38
541.201	5055.38
541.971	4779.38
542.741	4522.38
543.51	4307.38
544.28	4119.38
545.05	3918.38
545.819	3710.38
546.588	3555.38
547.358	3346.38
548.127	3174.38
548.896	2997.38
549.665	2872.38
550.434	2720.38
551.203	2569.38
551.972	2446.38
552.741	2299.38
553.51	2186.38
554.278	2070.38
555.047	1942.38
555.815	1832.38
556.584	1725.38
557.352	1616.38
558.121	1539.38
558.889	1458.38
559.657	1383.38
560.425	1286.38
561.193	1222.38
561.961	1163.38
562.729	1111.38
563.496	1039.38
564.264	978.38
565.032	932.38
565.799	879.38
566.567	831.38
567.334	785.38
568.101	738.38
568.869	705.38
569.636	657.38
570.403	627.38
571.17	582.38
571.937	559.38
572.704	528.38
573.471	500.38
574.237	477.38
575.004	445.38
575.771	414.38
576.537	384.38
577.303	363.38
578.07	346.38
578.836	324.38
579.602	311.38
580.368	289.38
581.134	285.38
581.9	262.38
582.666	245.38
583.432	238.38
584.198	223.38
584.964	210.38
585.729	202.38
586.495	190.38
587.26	181.38
588.025	170.38
588.791	159.38
589.556	152.38
590.321	151.38
591.086	140.38
591.851	131.38
592.616	126.38
593.381	119.38
594.146	115.38
594.911	106.38
595.675	107.38
596.44	103.38
597.204	91.38
597.969	89.38
598.733	85.38
599.497	83.38
600.261	80.38
601.025	77.38
601.79	73.38
602.553	69.38
603.317	68.38
604.081	62.38
604.845	59.38
605.609	60.38
606.372	53.38
607.136	53.38
607.899	48.38
608.662	49.38
609.426	52.38
610.189	46.38
610.952	45.38
611.715	44.38
612.478	44.38
613.241	39.38
614.004	38.38
614.767	36.38
615.529	37.38
616.292	33.38
617.055	37.38
617.817	33.38
618.579	29.38
619.342	30.38
620.104	30.38
620.866	30.38
621.628	30.38
622.39	23.38
623.152	25.38
623.914	25.38
624.676	22.38
625.438	24.38
626.199	24.38
626.961	21.38
627.722	20.38
628.484	21.38
629.245	21.38
630.006	17.38
630.768	19.38
631.529	18.38
632.29	15.38
633.051	16.38
633.812	16.38
634.573	19.38
635.333	15.38
636.094	16.38
636.855	16.38
637.615	11.38
638.376	15.38
639.136	13.38
639.896	12.38
640.657	15.38
641.417	10.38
642.177	12.38
642.937	10.38
643.697	13.38
644.457	14.38
645.216	10.38
645.976	13.38
646.736	9.38
647.495	11.38
648.255	11.38
649.014	12.38
649.774	11.38
650.533	9.38
651.292	10.38
652.051	10.38
652.81	10.38
653.569	8.38
654.328	8.38
655.087	9.38
655.846	7.38
656.604	6.38
657.363	8.38
658.121	8.38
658.88	7.38
659.638	7.38
660.397	7.38
661.155	7.38
661.913	9.38
662.671	6.38
663.429	8.38
664.187	6.38
664.945	7.38
665.703	6.38
666.46	5.38
667.218	5.38
667.976	8.38
668.733	6.38
669.49	7.38
670.248	5.38
671.005	7.38
671.762	7.38
672.519	7.38
673.276	4.38
674.033	6.38
674.79	4.38
675.547	4.38
676.304	5.38
677.06	6.38
677.817	5.38
678.574	6.38
679.33	6.38
680.086	8.38
680.843	8.38
681.599	7.38
682.355	4.38
683.111	4.38
683.867	6.38
684.623	5.38
685.379	4.38
686.135	4.38
686.89	3.38
687.646	7.38
688.402	3.38
689.157	7.38
689.912	4.38
690.668	4.38
691.423	5.38
692.178	3.38
692.933	5.38
693.688	5.38
694.443	6.38
695.198	6.38
695.953	6.38
696.708	5.38
697.462	5.38
698.217	4.38
698.972	3.38
699.726	5.38
700.48	6.38
701.235	5.38
701.989	7.38
702.743	5.38
703.497	4.38
704.251	4.38
705.005	6.38
705.759	6.38
706.513	4.38
707.266	6.38
708.02	5.38
708.774	7.38
709.527	4.38
710.28	4.38
711.034	4.38
711.787	6.38
712.54	5.38
713.293	5.38
714.046	4.38
714.799	6.38
715.552	3.38
716.305	5.38
717.058	4.38
717.81	5.38
718.563	4.38
719.315	6.38
720.068	2.38
720.82	5.38
721.573	8.38
722.325	3.38
723.077	5.38
723.829	8.38
724.581	4.38
725.333	6.38
726.085	4.38
726.836	6.38
727.588	7.38
728.34	2.38
729.091	6.38
729.843	2.38
730.594	7.38
731.346	4.38
732.097	7.38
732.848	6.38
733.599	4.38
734.35	6.38
735.101	3.38
735.852	5.38
736.603	3.38
737.354	3.38
738.104	5.38
738.855	6.38
739.605	7.38
740.356	6.38
741.106	4.38
741.856	4.38
742.607	5.38
743.357	6.38
744.107	4.38
744.857	7.38
745.607	5.38
746.357	7.38
747.106	7.38
747.856	7.38
748.606	8.38
749.355	5.38
750.105	5.38
750.854	8.38
751.603	7.38
752.353	7.38
753.102	4.38
753.851	8.38
754.6	6.38
755.349	4.38
756.098	7.38
756.847	6.38
757.595	9.38
758.344	7.38
759.093	9.38
759.841	10.38
760.589	7.38
761.338	7.38
762.086	9.38
762.834	10.38
763.582	8.38
764.331	10.38
765.079	7.38
765.826	8.38
766.574	9.38
767.322	9.38
768.07	7.38
768.817	10.38
769.565	10.38
770.312	10.38
771.06	10.38
771.807	10.38
772.554	10.38
773.302	9.38
774.049	11.38
774.796	7.38
775.543	11.38
776.29	8.38
777.036	10.38
777.783	11.38
778.53	10.38
779.276	12.38
780.023	10.38
780.769	11.38
781.516	10.38
782.262	11.38
783.008	11.38
783.754	10.38
784.5	13.38
785.246	10.38
785.992	12.38
786.738	12.38
787.484	10.38
788.23	10.38
788.975	9.38
789.721	11.38
790.466	13.38
791.212	9.38
791.957	10.38
792.702	10.38
793.447	11.38
794.193	8.38
794.938	12.38
795.683	11.38
796.427	9.38
797.172	10.38
797.917	11.38
798.662	9.38
799.406	9.38
800.151	9.38
800.895	11.38
801.64	10.38
802.384	10.38
803.128	8.38
803.872	8.38
804.616	9.38
805.36	6.38
806.104	8.38
806.848	8.38
807.592	5.38
808.336	8.38
809.079	9.38
809.823	7.38
810.566	8.38
811.31	7.38
812.053	6.38
812.796	8.38
813.539	6.38
814.283	6.38
815.026	9.38
815.769	6.38
816.511	7.38
817.254	6.38
817.997	7.38
818.74	6.38
819.482	4.38
820.225	6.38
820.967	5.38
821.71	5.38
822.452	5.38
823.194	5.38
823.936	5.38
824.678	6.38
825.42	5.38
826.162	4.38
826.904	4.38
827.646	3.38
828.388	6.38
829.129	6.38
829.871	4.38
830.612	3.38
831.354	5.38
832.095	4.38
832.836	4.38
833.577	1.38
834.319	3.38
835.06	4.38
835.801	5.38
836.542	3.38
837.282	3.38
838.023	4.38
838.764	4.38
839.504	1.38
840.245	5.38
840.985	4.38
841.726	7.38
842.466	2.38
843.206	4.38
843.946	4.38
844.687	2.38
845.427	3.38
846.166	2.38
846.906	5.38
847.646	2.38
848.386	3.38
849.125	5.38
849.865	4.38
850.605	4.38
851.344	2.38
852.083	5.38
852.823	2.38
853.562	4.38
854.301	4.38
855.04	1.38
855.779	2.38
856.518	2.38
857.257	3.38
857.995	3.38
858.734	2.38
859.473	2.38
860.211	2.38
860.95	4.38
861.688	2.38
862.426	0.38
863.165	4.38
863.903	1.38
864.641	3.38
865.379	2.38
866.117	2.38
866.855	3.38
867.593	3.38
868.33	2.38
869.068	2.38
869.806	3.38
870.543	3.38
871.28	0.38
872.018	1.38
872.755	1.38
873.492	-0.62
874.229	2.38
874.967	1.38
875.703	-0.62
876.44	0.38
877.177	2.38
877.914	1.38
878.651	1.38
879.387	2.38
880.124	2.38
880.86	3.38
881.597	1.38
882.333	2.38
883.069	2.38
883.806	3.38
884.542	1.38
885.278	0.38
886.014	0.38
886.749	0.38
887.485	2.38
888.221	0.38
888.957	0.38
889.692	1.38
890.428	0.38
891.163	2.38
891.899	2.38
892.634	-1.62
893.369	1.38
894.104	2.38
894.839	2.38
895.574	1.38
896.309	0.38
897.044	0.38
897.779	2.38
898.514	-0.62
899.248	-0.62
899.983	1.38
900.717	1.38
901.452	1.38
902.186	0.38
902.92	2.38
903.654	0.38
904.389	-0.62
905.123	2.38
905.857	-0.62
906.59	1.38
907.324	0.38
908.058	-2.62
908.792	0.38
909.525	-1.62
910.259	1.38
910.992	1.38
911.726	1.38
912.459	1.38
913.192	2.38
913.925	2.38
914.658	-0.62
915.391	-0.62
916.124	0.38
916.857	1.38
917.59	3.38
918.323	-1.62
919.055	2.38
919.788	2.38
920.521	2.38
921.253	0.38
921.985	-0.62
922.718	0.38
923.45	1.38
924.182	1.38
924.914	0.38
925.646	0.38
926.378	-0.62
927.11	-0.62
927.841	-0.62
928.573	0.38
929.305	-1.62
930.036	1.38
930.768	-0.62
931.499	1.38
932.23	0.38
932.962	0.38
933.693	1.38
934.424	-0.62
935.155	1.38
935.886	1.38
936.617	0.38
937.348	-1.62
938.078	-0.62
938.809	0.38
939.54	-0.62
940.27	0.38
941.001	0.38
941.731	0.38
942.461	2.38
943.191	0.38
943.922	-0.62
944.652	-1.62
945.382	3.38
946.112	0.38
946.841	0.38
947.571	-0.62
948.301	1.38
949.031	-0.62
949.76	-0.62
950.49	2.38
951.219	-0.62
951.948	2.38
952.678	0.38
953.407	-2.62
954.136	0.38
954.865	0.38
955.594	0.38
956.323	-0.62
957.052	0.38
957.78	-1.62
958.509	-0.62
959.238	2.38
959.966	1.38
960.695	-1.62
961.423	0.38
962.151	0.38
962.88	0.38
963.608	1.38
964.336	3.38
965.064	0.38
965.792	0.38
966.52	1.38
967.247	-0.62
967.975	2.38
968.703	0.38
969.43	-0.62
970.158	0.38
970.885	0.38
971.613	-1.62
972.34	0.38
973.067	2.38
973.794	0.38
974.521	0.38
975.248	-1.62
975.975	-1.62
976.702	0.38
977.429	-0.62
978.156	1.38
978.882	1.38
979.609	0.38
980.335	0.38
981.062	1.38
981.788	-1.62
982.514	-0.62
983.24	-0.62
983.967	-0.62
984.693	-2.62
985.419	0.38
986.144	-0.62
986.87	0.38
987.596	-0.62
988.322	-0.62
989.047	2.38
989.773	0.38
990.498	1.38
991.224	0.38
991.949	-0.62
992.674	-0.62
993.399	1.38
994.124	-0.62
994.849	-0.62
995.574	-2.62
996.299	-0.62
997.024	-1.62
997.749	1.38
998.473	-0.62
999.198	1.38
999.922	0.38
1000.647	1.38
1001.371	4.38
1002.095	-2.62
1002.82	0.38
1003.544	-1.62
1004.268	0.38
1004.992	3.38
1005.716	3.38
1006.439	0.38
1007.163	0.38
1007.887	1.38
1008.611	-0.62
1009.334	1.38
1010.058	-0.62
1010.781	-0.62
1011.504	0.38
1012.228	2.38
1012.951	-0.62
1013.674	-0.62
1014.397	1.38
1015.12	-0.62
