节点500_425_QEPB04081__419__15-55-16-677.txt的数据

Date: Wed Nov 12 15:55:16 CST 2025
User: PC
Spectrometer: QEPB0408
触发模式: 0
积分时间 (秒): 1.000000E-2
Scans to average: 1
启用暗噪声校正: true
启用非线性校正: false
滑动平均宽度: 0
X轴模式: Wavelengths
Number of Pixels in Spectrum: 1044
>>>>>Begin Spectral Data<<<<<
220.843	1.25
221.644	0.25
222.444	4.25
223.244	0.25
224.045	4.25
224.845	3.25
225.645	3.25
226.445	1.25
227.245	5.25
228.045	3.25
228.845	3.25
229.645	3.25
230.444	6.25
231.244	6.25
232.043	5.25
232.843	6.25
233.642	6.25
234.442	7.25
235.241	4.25
236.04	4.25
236.839	6.25
237.638	7.25
238.437	2.25
239.236	7.25
240.035	5.25
240.833	7.25
241.632	5.25
242.43	3.25
243.229	5.25
244.027	6.25
244.826	8.25
245.624	7.25
246.422	8.25
247.22	8.25
248.018	6.25
248.816	8.25
249.614	9.25
250.412	9.25
251.21	8.25
252.007	10.25
252.805	8.25
253.602	8.25
254.4	12.25
255.197	8.25
255.994	10.25
256.791	10.25
257.589	13.25
258.386	11.25
259.183	12.25
259.979	13.25
260.776	14.25
261.573	12.25
262.37	15.25
263.166	13.25
263.963	14.25
264.759	14.25
265.556	14.25
266.352	16.25
267.148	18.25
267.944	16.25
268.74	13.25
269.536	16.25
270.332	17.25
271.128	17.25
271.924	18.25
272.719	21.25
273.515	17.25
274.311	20.25
275.106	20.25
275.901	21.25
276.697	21.25
277.492	22.25
278.287	18.25
279.082	24.25
279.877	22.25
280.672	19.25
281.467	22.25
282.262	20.25
283.056	22.25
283.851	21.25
284.646	22.25
285.44	22.25
286.234	21.25
287.029	21.25
287.823	23.25
288.617	20.25
289.411	21.25
290.205	19.25
290.999	23.25
291.793	21.25
292.587	23.25
293.381	20.25
294.174	20.25
294.968	19.25
295.761	20.25
296.555	18.25
297.348	21.25
298.141	18.25
298.935	21.25
299.728	17.25
300.521	17.25
301.314	14.25
302.107	18.25
302.899	16.25
303.692	16.25
304.485	17.25
305.277	14.25
306.07	15.25
306.862	12.25
307.655	16.25
308.447	14.25
309.239	14.25
310.031	13.25
310.823	14.25
311.615	12.25
312.407	10.25
313.199	14.25
313.991	13.25
314.783	9.25
315.574	10.25
316.366	8.25
317.157	10.25
317.949	10.25
318.74	8.25
319.531	10.25
320.322	10.25
321.113	8.25
321.904	10.25
322.695	9.25
323.486	8.25
324.277	9.25
325.068	12.25
325.858	10.25
326.649	10.25
327.439	13.25
328.23	7.25
329.02	8.25
329.81	9.25
330.6	9.25
331.391	8.25
332.181	7.25
332.971	8.25
333.76	9.25
334.55	8.25
335.34	7.25
336.13	8.25
336.919	10.25
337.709	6.25
338.498	8.25
339.287	7.25
340.077	8.25
340.866	5.25
341.655	8.25
342.444	5.25
343.233	8.25
344.022	8.25
344.811	8.25
345.6	8.25
346.388	8.25
347.177	7.25
347.965	8.25
348.754	8.25
349.542	4.25
350.33	5.25
351.119	7.25
351.907	7.25
352.695	6.25
353.483	5.25
354.271	7.25
355.059	9.25
355.846	8.25
356.634	7.25
357.422	8.25
358.209	5.25
358.997	7.25
359.784	3.25
360.571	6.25
361.359	5.25
362.146	6.25
362.933	8.25
363.72	6.25
364.507	7.25
365.294	6.25
366.081	5.25
366.867	4.25
367.654	6.25
368.44	6.25
369.227	7.25
370.013	6.25
370.8	4.25
371.586	4.25
372.372	5.25
373.158	6.25
373.944	6.25
374.73	7.25
375.516	8.25
376.302	5.25
377.088	6.25
377.873	8.25
378.659	6.25
379.445	6.25
380.23	7.25
381.015	6.25
381.801	5.25
382.586	4.25
383.371	5.25
384.156	5.25
384.941	6.25
385.726	6.25
386.511	5.25
387.296	8.25
388.08	2.25
388.865	8.25
389.649	7.25
390.434	7.25
391.218	7.25
392.003	6.25
392.787	5.25
393.571	9.25
394.355	6.25
395.139	7.25
395.923	6.25
396.707	9.25
397.491	5.25
398.274	10.25
399.058	9.25
399.842	9.25
400.625	8.25
401.408	8.25
402.192	10.25
402.975	8.25
403.758	8.25
404.541	9.25
405.324	8.25
406.107	10.25
406.89	9.25
407.673	9.25
408.456	7.25
409.238	8.25
410.021	10.25
410.803	7.25
411.586	11.25
412.368	11.25
413.151	12.25
413.933	12.25
414.715	9.25
415.497	12.25
416.279	10.25
417.061	11.25
417.843	13.25
418.624	12.25
419.406	14.25
420.188	11.25
420.969	14.25
421.751	13.25
422.532	14.25
423.313	14.25
424.095	17.25
424.876	14.25
425.657	14.25
426.438	16.25
427.219	16.25
428	14.25
428.78	19.25
429.561	18.25
430.342	17.25
431.122	19.25
431.903	19.25
432.683	22.25
433.464	18.25
434.244	22.25
435.024	20.25
435.804	26.25
436.584	26.25
437.364	26.25
438.144	29.25
438.924	26.25
439.704	30.25
440.483	30.25
441.263	37.25
442.042	36.25
442.822	38.25
443.601	41.25
444.38	42.25
445.16	48.25
445.939	48.25
446.718	53.25
447.497	56.25
448.276	62.25
449.054	67.25
449.833	74.25
450.612	82.25
451.391	92.25
452.169	101.25
452.948	108.25
453.726	122.25
454.504	134.25
455.282	147.25
456.061	163.25
456.839	184.25
457.617	205.25
458.395	226.25
459.172	251.25
459.95	281.25
460.728	312.25
461.506	350.25
462.283	394.25
463.061	444.25
463.838	489.25
464.615	536.25
465.393	602.25
466.17	672.25
466.947	738.25
467.724	819.25
468.501	915.25
469.278	1003.25
470.055	1127.25
470.831	1239.25
471.608	1370.25
472.385	1527.25
473.161	1683.25
473.938	1833.25
474.714	2033.25
475.49	2229.25
476.266	2443.25
477.043	2690.25
477.819	2966.25
478.595	3254.25
479.371	3552.25
480.146	3904.25
480.922	4250.25
481.698	4681.25
482.473	5099.25
483.249	5537.25
484.024	6093.25
484.8	6656.25
485.575	7241.25
486.35	7868.25
487.126	8562.25
487.901	9331.25
488.676	10118.25
489.451	11000.25
490.225	11894.25
491	12898.25
491.775	13960.25
492.55	15047.25
493.324	16156.25
494.099	17316.25
494.873	18451.25
495.647	19738.25
496.422	20974.25
497.196	22284.25
497.97	23607.25
498.744	24874.25
499.518	26070.25
500.292	27254.25
501.066	28257.25
501.839	29394.25
502.613	30249.25
503.387	30871.25
504.16	31511.25
504.934	31867.25
505.707	31988.25
506.48	32008.25
507.253	31903.25
508.027	31636.25
508.8	31300.25
509.573	30720.25
510.346	30105.25
511.118	29219.25
511.891	28476.25
512.664	27493.25
513.437	26472.25
514.209	25552.25
514.982	24618.25
515.754	23607.25
516.526	22685.25
517.298	21752.25
518.071	20857.25
518.843	19950.25
519.615	19118.25
520.387	18398.25
521.159	17719.25
521.93	17031.25
522.702	16339.25
523.474	15728.25
524.245	15125.25
525.017	14422.25
525.788	13727.25
526.56	13143.25
527.331	12586.25
528.102	12002.25
528.873	11452.25
529.644	10901.25
530.415	10415.25
531.186	9920.25
531.957	9434.25
532.728	8920.25
533.498	8436.25
534.269	7974.25
535.039	7548.25
535.81	7139.25
536.58	6770.25
537.351	6373.25
538.121	6039.25
538.891	5691.25
539.661	5389.25
540.431	5131.25
541.201	4859.25
541.971	4610.25
542.741	4377.25
543.51	4173.25
544.28	3952.25
545.05	3760.25
545.819	3560.25
546.588	3410.25
547.358	3191.25
548.127	3050.25
548.896	2913.25
549.665	2748.25
550.434	2621.25
551.203	2485.25
551.972	2360.25
552.741	2221.25
553.51	2113.25
554.278	1997.25
555.047	1863.25
555.815	1766.25
556.584	1672.25
557.352	1577.25
558.121	1481.25
558.889	1406.25
559.657	1351.25
560.425	1253.25
561.193	1180.25
561.961	1114.25
562.729	1058.25
563.496	1011.25
564.264	960.25
565.032	905.25
565.799	851.25
566.567	812.25
567.334	766.25
568.101	712.25
568.869	677.25
569.636	638.25
570.403	602.25
571.17	560.25
571.937	546.25
572.704	511.25
573.471	482.25
574.237	456.25
575.004	427.25
575.771	399.25
576.537	376.25
577.303	348.25
578.07	331.25
578.836	313.25
579.602	302.25
580.368	282.25
581.134	272.25
581.9	251.25
582.666	237.25
583.432	230.25
584.198	217.25
584.964	204.25
585.729	196.25
586.495	182.25
587.26	172.25
588.025	166.25
588.791	156.25
589.556	159.25
590.321	139.25
591.086	130.25
591.851	129.25
592.616	116.25
593.381	117.25
594.146	107.25
594.911	109.25
595.675	102.25
596.44	99.25
597.204	91.25
597.969	92.25
598.733	82.25
599.497	76.25
600.261	72.25
601.025	76.25
601.79	69.25
602.553	68.25
603.317	64.25
604.081	62.25
604.845	58.25
605.609	56.25
606.372	58.25
607.136	50.25
607.899	44.25
608.662	49.25
609.426	47.25
610.189	45.25
610.952	42.25
611.715	41.25
612.478	38.25
613.241	40.25
614.004	39.25
614.767	36.25
615.529	32.25
616.292	33.25
617.055	30.25
617.817	32.25
618.579	26.25
619.342	28.25
620.104	27.25
620.866	26.25
621.628	25.25
622.39	23.25
623.152	23.25
623.914	23.25
624.676	20.25
625.438	22.25
626.199	21.25
626.961	21.25
627.722	19.25
628.484	20.25
629.245	18.25
630.006	18.25
630.768	17.25
631.529	18.25
632.29	17.25
633.051	14.25
633.812	16.25
634.573	16.25
635.333	16.25
636.094	13.25
636.855	14.25
637.615	14.25
638.376	14.25
639.136	12.25
639.896	12.25
640.657	13.25
641.417	14.25
642.177	11.25
642.937	13.25
643.697	9.25
644.457	11.25
645.216	10.25
645.976	11.25
646.736	10.25
647.495	10.25
648.255	14.25
649.014	9.25
649.774	10.25
650.533	10.25
651.292	7.25
652.051	9.25
652.81	10.25
653.569	7.25
654.328	7.25
655.087	9.25
655.846	9.25
656.604	6.25
657.363	9.25
658.121	11.25
658.88	5.25
659.638	6.25
660.397	7.25
661.155	4.25
661.913	7.25
662.671	8.25
663.429	8.25
664.187	7.25
664.945	6.25
665.703	4.25
666.46	6.25
667.218	8.25
667.976	7.25
668.733	4.25
669.49	5.25
670.248	6.25
671.005	5.25
671.762	9.25
672.519	5.25
673.276	5.25
674.033	6.25
674.79	6.25
675.547	6.25
676.304	7.25
677.06	6.25
677.817	6.25
678.574	3.25
679.33	6.25
680.086	6.25
680.843	4.25
681.599	4.25
682.355	5.25
683.111	4.25
683.867	4.25
684.623	5.25
685.379	7.25
686.135	5.25
686.89	5.25
687.646	5.25
688.402	5.25
689.157	5.25
689.912	4.25
690.668	4.25
691.423	5.25
692.178	4.25
692.933	3.25
693.688	5.25
694.443	5.25
695.198	3.25
695.953	7.25
696.708	3.25
697.462	4.25
698.217	7.25
698.972	5.25
699.726	6.25
700.48	4.25
701.235	5.25
701.989	2.25
702.743	3.25
703.497	4.25
704.251	4.25
705.005	6.25
705.759	4.25
706.513	4.25
707.266	4.25
708.02	6.25
708.774	7.25
709.527	4.25
710.28	4.25
711.034	2.25
711.787	3.25
712.54	4.25
713.293	7.25
714.046	4.25
714.799	1.25
715.552	4.25
716.305	6.25
717.058	5.25
717.81	5.25
718.563	5.25
719.315	3.25
720.068	2.25
720.82	6.25
721.573	3.25
722.325	5.25
723.077	6.25
723.829	6.25
724.581	4.25
725.333	4.25
726.085	4.25
726.836	4.25
727.588	5.25
728.34	4.25
729.091	5.25
729.843	6.25
730.594	4.25
731.346	3.25
732.097	4.25
732.848	6.25
733.599	6.25
734.35	7.25
735.101	4.25
735.852	6.25
736.603	3.25
737.354	6.25
738.104	2.25
738.855	4.25
739.605	4.25
740.356	6.25
741.106	7.25
741.856	5.25
742.607	6.25
743.357	6.25
744.107	6.25
744.857	8.25
745.607	5.25
746.357	6.25
747.106	4.25
747.856	5.25
748.606	5.25
749.355	6.25
750.105	3.25
750.854	5.25
751.603	7.25
752.353	5.25
753.102	9.25
753.851	5.25
754.6	8.25
755.349	8.25
756.098	5.25
756.847	6.25
757.595	9.25
758.344	5.25
759.093	6.25
759.841	5.25
760.589	4.25
761.338	7.25
762.086	4.25
762.834	8.25
763.582	8.25
764.331	8.25
765.079	7.25
765.826	8.25
766.574	7.25
767.322	8.25
768.07	10.25
768.817	9.25
769.565	6.25
770.312	8.25
771.06	8.25
771.807	10.25
772.554	9.25
773.302	8.25
774.049	10.25
774.796	8.25
775.543	9.25
776.29	9.25
777.036	10.25
777.783	9.25
778.53	11.25
779.276	9.25
780.023	8.25
780.769	12.25
781.516	8.25
782.262	9.25
783.008	9.25
783.754	10.25
784.5	11.25
785.246	9.25
785.992	9.25
786.738	9.25
787.484	9.25
788.23	9.25
788.975	8.25
789.721	9.25
790.466	9.25
791.212	10.25
791.957	7.25
792.702	11.25
793.447	10.25
794.193	11.25
794.938	9.25
795.683	7.25
796.427	9.25
797.172	9.25
797.917	9.25
798.662	10.25
799.406	10.25
800.151	8.25
800.895	8.25
801.64	6.25
802.384	8.25
803.128	7.25
803.872	9.25
804.616	7.25
805.36	7.25
806.104	6.25
806.848	8.25
807.592	5.25
808.336	8.25
809.079	7.25
809.823	7.25
810.566	8.25
811.31	5.25
812.053	9.25
812.796	7.25
813.539	7.25
814.283	4.25
815.026	5.25
815.769	7.25
816.511	7.25
817.254	2.25
817.997	6.25
818.74	4.25
819.482	6.25
820.225	5.25
820.967	5.25
821.71	7.25
822.452	4.25
823.194	7.25
823.936	4.25
824.678	3.25
825.42	7.25
826.162	4.25
826.904	6.25
827.646	3.25
828.388	3.25
829.129	3.25
829.871	5.25
830.612	4.25
831.354	4.25
832.095	3.25
832.836	5.25
833.577	5.25
834.319	6.25
835.06	4.25
835.801	2.25
836.542	2.25
837.282	6.25
838.023	2.25
838.764	3.25
839.504	4.25
840.245	3.25
840.985	4.25
841.726	3.25
842.466	2.25
843.206	6.25
843.946	5.25
844.687	2.25
845.427	2.25
846.166	3.25
846.906	3.25
847.646	2.25
848.386	4.25
849.125	4.25
849.865	3.25
850.605	3.25
851.344	2.25
852.083	4.25
852.823	2.25
853.562	2.25
854.301	2.25
855.04	2.25
855.779	2.25
856.518	4.25
857.257	3.25
857.995	3.25
858.734	3.25
859.473	2.25
860.211	1.25
860.95	3.25
861.688	2.25
862.426	2.25
863.165	1.25
863.903	3.25
864.641	1.25
865.379	5.25
866.117	2.25
866.855	2.25
867.593	0.25
868.33	2.25
869.068	3.25
869.806	3.25
870.543	1.25
871.28	1.25
872.018	2.25
872.755	3.25
873.492	-1.75
874.229	1.25
874.967	1.25
875.703	0.25
876.44	2.25
877.177	1.25
877.914	-0.75
878.651	2.25
879.387	2.25
880.124	2.25
880.86	2.25
881.597	2.25
882.333	1.25
883.069	1.25
883.806	0.25
884.542	2.25
885.278	0.25
886.014	1.25
886.749	1.25
887.485	0.25
888.221	0.25
888.957	0.25
889.692	-0.75
890.428	1.25
891.163	-0.75
891.899	1.25
892.634	1.25
893.369	0.25
894.104	-1.75
894.839	-1.75
895.574	3.25
896.309	2.25
897.044	2.25
897.779	0.25
898.514	2.25
899.248	0.25
899.983	0.25
900.717	0.25
901.452	0.25
902.186	-0.75
902.92	-0.75
903.654	1.25
904.389	0.25
905.123	-0.75
905.857	1.25
906.59	0.25
907.324	0.25
908.058	0.25
908.792	0.25
909.525	2.25
910.259	1.25
910.992	0.25
911.726	1.25
912.459	1.25
913.192	1.25
913.925	-0.75
914.658	2.25
915.391	0.25
916.124	-0.75
916.857	1.25
917.59	-1.75
918.323	-0.75
919.055	-0.75
919.788	2.25
920.521	0.25
921.253	0.25
921.985	1.25
922.718	0.25
923.45	0.25
924.182	-0.75
924.914	-0.75
925.646	1.25
926.378	-0.75
927.11	1.25
927.841	-0.75
928.573	-0.75
929.305	-1.75
930.036	-1.75
930.768	1.25
931.499	0.25
932.23	0.25
932.962	0.25
933.693	-0.75
934.424	1.25
935.155	0.25
935.886	-0.75
936.617	-0.75
937.348	0.25
938.078	1.25
938.809	-1.75
939.54	1.25
940.27	-0.75
941.001	-0.75
941.731	0.25
942.461	-0.75
943.191	2.25
943.922	2.25
944.652	-0.75
945.382	-2.75
946.112	0.25
946.841	2.25
947.571	-0.75
948.301	0.25
949.031	-1.75
949.76	2.25
950.49	-1.75
951.219	-1.75
951.948	0.25
952.678	-1.75
953.407	0.25
954.136	0.25
954.865	0.25
955.594	-0.75
956.323	-0.75
957.052	2.25
957.78	-0.75
958.509	2.25
959.238	-1.75
959.966	2.25
960.695	0.25
961.423	2.25
962.151	-0.75
962.88	1.25
963.608	0.25
964.336	0.25
965.064	0.25
965.792	0.25
966.52	1.25
967.247	-0.75
967.975	-0.75
968.703	0.25
969.43	-1.75
970.158	-1.75
970.885	-0.75
971.613	-1.75
972.34	0.25
973.067	-0.75
973.794	1.25
974.521	-0.75
975.248	-1.75
975.975	-0.75
976.702	1.25
977.429	0.25
978.156	1.25
978.882	-0.75
979.609	-2.75
980.335	0.25
981.062	0.25
981.788	0.25
982.514	0.25
983.24	-0.75
983.967	-1.75
984.693	-0.75
985.419	0.25
986.144	-0.75
986.87	-0.75
987.596	0.25
988.322	0.25
989.047	-1.75
989.773	0.25
990.498	0.25
991.224	-0.75
991.949	-0.75
992.674	-1.75
993.399	1.25
994.124	1.25
994.849	-0.75
995.574	2.25
996.299	1.25
997.024	1.25
997.749	-1.75
998.473	1.25
999.198	0.25
999.922	0.25
1000.647	-0.75
1001.371	3.25
1002.095	-0.75
1002.82	1.25
1003.544	-2.75
1004.268	1.25
1004.992	1.25
1005.716	3.25
1006.439	1.25
1007.163	2.25
1007.887	2.25
1008.611	-0.75
1009.334	-1.75
1010.058	1.25
1010.781	0.25
1011.504	1.25
1012.228	1.25
1012.951	-0.75
1013.674	0.25
1014.397	-0.75
1015.12	0.25
