节点500_425_QEPB04081__602__15-58-19-411.txt的数据

Date: Wed Nov 12 15:58:19 CST 2025
User: PC
Spectrometer: QEPB0408
触发模式: 0
积分时间 (秒): 1.000000E-2
Scans to average: 1
启用暗噪声校正: true
启用非线性校正: false
滑动平均宽度: 0
X轴模式: Wavelengths
Number of Pixels in Spectrum: 1044
>>>>>Begin Spectral Data<<<<<
220.843	-0.12
221.644	2.88
222.444	1.88
223.244	1.88
224.045	3.88
224.845	2.88
225.645	1.88
226.445	2.88
227.245	2.88
228.045	1.88
228.845	3.88
229.645	2.88
230.444	2.88
231.244	3.88
232.043	4.88
232.843	4.88
233.642	2.88
234.442	4.88
235.241	5.88
236.04	2.88
236.839	6.88
237.638	4.88
238.437	5.88
239.236	3.88
240.035	5.88
240.833	5.88
241.632	4.88
242.43	6.88
243.229	5.88
244.027	5.88
244.826	7.88
245.624	6.88
246.422	6.88
247.22	7.88
248.018	7.88
248.816	8.88
249.614	8.88
250.412	6.88
251.21	8.88
252.007	9.88
252.805	9.88
253.602	9.88
254.4	7.88
255.197	6.88
255.994	9.88
256.791	7.88
257.589	13.88
258.386	12.88
259.183	9.88
259.979	10.88
260.776	13.88
261.573	13.88
262.37	14.88
263.166	15.88
263.963	14.88
264.759	13.88
265.556	14.88
266.352	15.88
267.148	16.88
267.944	17.88
268.74	14.88
269.536	17.88
270.332	18.88
271.128	17.88
271.924	19.88
272.719	17.88
273.515	19.88
274.311	19.88
275.106	20.88
275.901	19.88
276.697	19.88
277.492	20.88
278.287	20.88
279.082	20.88
279.877	19.88
280.672	23.88
281.467	23.88
282.262	21.88
283.056	20.88
283.851	21.88
284.646	21.88
285.44	23.88
286.234	20.88
287.029	23.88
287.823	22.88
288.617	22.88
289.411	20.88
290.205	22.88
290.999	22.88
291.793	20.88
292.587	22.88
293.381	19.88
294.174	19.88
294.968	15.88
295.761	19.88
296.555	20.88
297.348	18.88
298.141	17.88
298.935	18.88
299.728	19.88
300.521	20.88
301.314	16.88
302.107	17.88
302.899	15.88
303.692	16.88
304.485	17.88
305.277	15.88
306.07	16.88
306.862	13.88
307.655	12.88
308.447	13.88
309.239	14.88
310.031	11.88
310.823	13.88
311.615	13.88
312.407	11.88
313.199	13.88
313.991	13.88
314.783	12.88
315.574	10.88
316.366	11.88
317.157	10.88
317.949	12.88
318.74	11.88
319.531	11.88
320.322	10.88
321.113	7.88
321.904	9.88
322.695	9.88
323.486	11.88
324.277	8.88
325.068	9.88
325.858	10.88
326.649	5.88
327.439	6.88
328.23	7.88
329.02	7.88
329.81	7.88
330.6	9.88
331.391	9.88
332.181	7.88
332.971	6.88
333.76	8.88
334.55	6.88
335.34	5.88
336.13	8.88
336.919	5.88
337.709	9.88
338.498	6.88
339.287	7.88
340.077	6.88
340.866	7.88
341.655	6.88
342.444	7.88
343.233	6.88
344.022	8.88
344.811	6.88
345.6	7.88
346.388	5.88
347.177	6.88
347.965	7.88
348.754	8.88
349.542	7.88
350.33	6.88
351.119	7.88
351.907	6.88
352.695	5.88
353.483	3.88
354.271	5.88
355.059	7.88
355.846	8.88
356.634	5.88
357.422	7.88
358.209	5.88
358.997	6.88
359.784	5.88
360.571	6.88
361.359	6.88
362.146	6.88
362.933	6.88
363.72	6.88
364.507	7.88
365.294	4.88
366.081	6.88
366.867	7.88
367.654	6.88
368.44	5.88
369.227	4.88
370.013	5.88
370.8	7.88
371.586	3.88
372.372	5.88
373.158	3.88
373.944	5.88
374.73	3.88
375.516	7.88
376.302	4.88
377.088	6.88
377.873	5.88
378.659	4.88
379.445	6.88
380.23	4.88
381.015	8.88
381.801	6.88
382.586	3.88
383.371	6.88
384.156	4.88
384.941	7.88
385.726	6.88
386.511	3.88
387.296	6.88
388.08	4.88
388.865	4.88
389.649	4.88
390.434	6.88
391.218	5.88
392.003	7.88
392.787	6.88
393.571	6.88
394.355	7.88
395.139	6.88
395.923	7.88
396.707	6.88
397.491	5.88
398.274	6.88
399.058	9.88
399.842	7.88
400.625	6.88
401.408	6.88
402.192	9.88
402.975	7.88
403.758	7.88
404.541	8.88
405.324	9.88
406.107	7.88
406.89	8.88
407.673	9.88
408.456	12.88
409.238	11.88
410.021	10.88
410.803	13.88
411.586	10.88
412.368	9.88
413.151	10.88
413.933	11.88
414.715	10.88
415.497	8.88
416.279	9.88
417.061	12.88
417.843	11.88
418.624	14.88
419.406	12.88
420.188	12.88
420.969	12.88
421.751	11.88
422.532	13.88
423.313	13.88
424.095	13.88
424.876	13.88
425.657	13.88
426.438	17.88
427.219	13.88
428	15.88
428.78	15.88
429.561	17.88
430.342	16.88
431.122	17.88
431.903	19.88
432.683	23.88
433.464	24.88
434.244	22.88
435.024	24.88
435.804	24.88
436.584	22.88
437.364	26.88
438.144	27.88
438.924	29.88
439.704	30.88
440.483	31.88
441.263	34.88
442.042	39.88
442.822	37.88
443.601	43.88
444.38	47.88
445.16	48.88
445.939	51.88
446.718	59.88
447.497	64.88
448.276	71.88
449.054	79.88
449.833	83.88
450.612	93.88
451.391	97.88
452.169	111.88
452.948	125.88
453.726	137.88
454.504	148.88
455.282	164.88
456.061	186.88
456.839	207.88
457.617	226.88
458.395	254.88
459.172	283.88
459.95	324.88
460.728	345.88
461.506	390.88
462.283	430.88
463.061	478.88
463.838	538.88
464.615	602.88
465.393	671.88
466.17	729.88
466.947	820.88
467.724	910.88
468.501	994.88
469.278	1095.88
470.055	1216.88
470.831	1345.88
471.608	1472.88
472.385	1622.88
473.161	1790.88
473.938	1947.88
474.714	2172.88
475.49	2370.88
476.266	2607.88
477.043	2812.88
477.819	3105.88
478.595	3403.88
479.371	3702.88
480.146	4052.88
480.922	4426.88
481.698	4833.88
482.473	5236.88
483.249	5717.88
484.024	6218.88
484.8	6773.88
485.575	7317.88
486.35	7982.88
487.126	8633.88
487.901	9309.88
488.676	10083.88
489.451	10973.88
490.225	11798.88
491	12762.88
491.775	13753.88
492.55	14769.88
493.324	15866.88
494.099	16965.88
494.873	18080.88
495.647	19345.88
496.422	20472.88
497.196	21859.88
497.97	23053.88
498.744	24379.88
499.518	25609.88
500.292	26747.88
501.066	27857.88
501.839	28906.88
502.613	29990.88
503.387	30758.88
504.16	31477.88
504.934	31939.88
505.707	32319.88
506.48	32389.88
507.253	32454.88
508.027	32481.88
508.8	32125.88
509.573	31873.88
510.346	31230.88
511.118	30566.88
511.891	29842.88
512.664	28965.88
513.437	28019.88
514.209	27115.88
514.982	26173.88
515.754	25276.88
516.526	24209.88
517.298	23287.88
518.071	22341.88
518.843	21456.88
519.615	20675.88
520.387	19822.88
521.159	19041.88
521.93	18306.88
522.702	17618.88
523.474	16934.88
524.245	16282.88
525.017	15573.88
525.788	14859.88
526.56	14185.88
527.331	13609.88
528.102	13013.88
528.873	12418.88
529.644	11838.88
530.415	11310.88
531.186	10886.88
531.957	10337.88
532.728	9830.88
533.498	9299.88
534.269	8771.88
535.039	8326.88
535.81	7904.88
536.58	7449.88
537.351	7049.88
538.121	6613.88
538.891	6330.88
539.661	5984.88
540.431	5681.88
541.201	5369.88
541.971	5117.88
542.741	4834.88
543.51	4600.88
544.28	4337.88
545.05	4149.88
545.819	3940.88
546.588	3737.88
547.358	3559.88
548.127	3394.88
548.896	3238.88
549.665	3055.88
550.434	2901.88
551.203	2749.88
551.972	2621.88
552.741	2466.88
553.51	2351.88
554.278	2221.88
555.047	2100.88
555.815	1971.88
556.584	1871.88
557.352	1763.88
558.121	1668.88
558.889	1577.88
559.657	1501.88
560.425	1418.88
561.193	1337.88
561.961	1259.88
562.729	1187.88
563.496	1123.88
564.264	1062.88
565.032	1017.88
565.799	956.88
566.567	902.88
567.334	848.88
568.101	814.88
568.869	757.88
569.636	710.88
570.403	674.88
571.17	645.88
571.937	600.88
572.704	566.88
573.471	547.88
574.237	508.88
575.004	486.88
575.771	447.88
576.537	419.88
577.303	391.88
578.07	370.88
578.836	351.88
579.602	330.88
580.368	316.88
581.134	303.88
581.9	278.88
582.666	268.88
583.432	254.88
584.198	241.88
584.964	229.88
585.729	220.88
586.495	211.88
587.26	192.88
588.025	189.88
588.791	179.88
589.556	163.88
590.321	156.88
591.086	148.88
591.851	145.88
592.616	139.88
593.381	129.88
594.146	124.88
594.911	112.88
595.675	113.88
596.44	105.88
597.204	97.88
597.969	91.88
598.733	92.88
599.497	90.88
600.261	87.88
601.025	84.88
601.79	79.88
602.553	73.88
603.317	68.88
604.081	69.88
604.845	64.88
605.609	63.88
606.372	58.88
607.136	54.88
607.899	51.88
608.662	55.88
609.426	49.88
610.189	46.88
610.952	46.88
611.715	43.88
612.478	41.88
613.241	42.88
614.004	37.88
614.767	36.88
615.529	36.88
616.292	34.88
617.055	34.88
617.817	33.88
618.579	32.88
619.342	32.88
620.104	28.88
620.866	30.88
621.628	26.88
622.39	27.88
623.152	26.88
623.914	26.88
624.676	23.88
625.438	24.88
626.199	23.88
626.961	20.88
627.722	22.88
628.484	19.88
629.245	15.88
630.006	21.88
630.768	20.88
631.529	18.88
632.29	17.88
633.051	17.88
633.812	19.88
634.573	16.88
635.333	12.88
636.094	14.88
636.855	10.88
637.615	15.88
638.376	10.88
639.136	15.88
639.896	12.88
640.657	15.88
641.417	13.88
642.177	10.88
642.937	10.88
643.697	10.88
644.457	11.88
645.216	11.88
645.976	10.88
646.736	10.88
647.495	9.88
648.255	10.88
649.014	7.88
649.774	9.88
650.533	9.88
651.292	6.88
652.051	9.88
652.81	7.88
653.569	6.88
654.328	8.88
655.087	8.88
655.846	10.88
656.604	8.88
657.363	5.88
658.121	7.88
658.88	8.88
659.638	5.88
660.397	6.88
661.155	9.88
661.913	4.88
662.671	5.88
663.429	9.88
664.187	6.88
664.945	5.88
665.703	6.88
666.46	7.88
667.218	5.88
667.976	5.88
668.733	5.88
669.49	7.88
670.248	5.88
671.005	5.88
671.762	5.88
672.519	5.88
673.276	6.88
674.033	5.88
674.79	6.88
675.547	4.88
676.304	3.88
677.06	7.88
677.817	5.88
678.574	5.88
679.33	6.88
680.086	4.88
680.843	5.88
681.599	4.88
682.355	3.88
683.111	4.88
683.867	3.88
684.623	3.88
685.379	5.88
686.135	4.88
686.89	3.88
687.646	3.88
688.402	4.88
689.157	4.88
689.912	5.88
690.668	3.88
691.423	4.88
692.178	6.88
692.933	4.88
693.688	3.88
694.443	1.88
695.198	5.88
695.953	3.88
696.708	4.88
697.462	3.88
698.217	4.88
698.972	1.88
699.726	4.88
700.48	4.88
701.235	1.88
701.989	1.88
702.743	4.88
703.497	2.88
704.251	5.88
705.005	4.88
705.759	4.88
706.513	2.88
707.266	3.88
708.02	4.88
708.774	3.88
709.527	3.88
710.28	3.88
711.034	1.88
711.787	6.88
712.54	3.88
713.293	2.88
714.046	5.88
714.799	4.88
715.552	3.88
716.305	5.88
717.058	6.88
717.81	4.88
718.563	3.88
719.315	2.88
720.068	3.88
720.82	6.88
721.573	3.88
722.325	4.88
723.077	5.88
723.829	1.88
724.581	1.88
725.333	0.88
726.085	5.88
726.836	4.88
727.588	6.88
728.34	2.88
729.091	3.88
729.843	6.88
730.594	4.88
731.346	6.88
732.097	3.88
732.848	3.88
733.599	4.88
734.35	2.88
735.101	4.88
735.852	4.88
736.603	6.88
737.354	5.88
738.104	4.88
738.855	6.88
739.605	3.88
740.356	7.88
741.106	5.88
741.856	3.88
742.607	5.88
743.357	4.88
744.107	6.88
744.857	6.88
745.607	4.88
746.357	4.88
747.106	5.88
747.856	6.88
748.606	7.88
749.355	6.88
750.105	4.88
750.854	5.88
751.603	7.88
752.353	4.88
753.102	9.88
753.851	5.88
754.6	5.88
755.349	8.88
756.098	5.88
756.847	6.88
757.595	5.88
758.344	8.88
759.093	7.88
759.841	5.88
760.589	8.88
761.338	3.88
762.086	7.88
762.834	4.88
763.582	8.88
764.331	6.88
765.079	7.88
765.826	7.88
766.574	7.88
767.322	7.88
768.07	4.88
768.817	7.88
769.565	9.88
770.312	7.88
771.06	9.88
771.807	7.88
772.554	9.88
773.302	11.88
774.049	9.88
774.796	10.88
775.543	7.88
776.29	8.88
777.036	9.88
777.783	11.88
778.53	10.88
779.276	8.88
780.023	10.88
780.769	8.88
781.516	9.88
782.262	9.88
783.008	8.88
783.754	10.88
784.5	5.88
785.246	8.88
785.992	7.88
786.738	10.88
787.484	8.88
788.23	6.88
788.975	9.88
789.721	4.88
790.466	9.88
791.212	9.88
791.957	8.88
792.702	10.88
793.447	8.88
794.193	7.88
794.938	9.88
795.683	11.88
796.427	6.88
797.172	7.88
797.917	12.88
798.662	7.88
799.406	7.88
800.151	8.88
800.895	8.88
801.64	7.88
802.384	7.88
803.128	7.88
803.872	7.88
804.616	8.88
805.36	7.88
806.104	6.88
806.848	8.88
807.592	9.88
808.336	6.88
809.079	6.88
809.823	5.88
810.566	5.88
811.31	5.88
812.053	6.88
812.796	4.88
813.539	5.88
814.283	6.88
815.026	3.88
815.769	6.88
816.511	6.88
817.254	3.88
817.997	4.88
818.74	4.88
819.482	4.88
820.225	4.88
820.967	5.88
821.71	6.88
822.452	6.88
823.194	5.88
823.936	4.88
824.678	3.88
825.42	2.88
826.162	5.88
826.904	1.88
827.646	3.88
828.388	5.88
829.129	3.88
829.871	3.88
830.612	3.88
831.354	4.88
832.095	5.88
832.836	3.88
833.577	4.88
834.319	2.88
835.06	5.88
835.801	3.88
836.542	3.88
837.282	4.88
838.023	1.88
838.764	3.88
839.504	3.88
840.245	3.88
840.985	2.88
841.726	1.88
842.466	5.88
843.206	2.88
843.946	4.88
844.687	2.88
845.427	3.88
846.166	3.88
846.906	4.88
847.646	4.88
848.386	2.88
849.125	1.88
849.865	0.88
850.605	0.88
851.344	4.88
852.083	1.88
852.823	5.88
853.562	3.88
854.301	2.88
855.04	3.88
855.779	3.88
856.518	1.88
857.257	1.88
857.995	1.88
858.734	2.88
859.473	2.88
860.211	-0.12
860.95	-0.12
861.688	-0.12
862.426	2.88
863.165	1.88
863.903	1.88
864.641	2.88
865.379	2.88
866.117	0.88
866.855	1.88
867.593	-1.12
868.33	1.88
869.068	1.88
869.806	0.88
870.543	4.88
871.28	2.88
872.018	1.88
872.755	1.88
873.492	0.88
874.229	2.88
874.967	-0.12
875.703	1.88
876.44	0.88
877.177	0.88
877.914	0.88
878.651	0.88
879.387	1.88
880.124	0.88
880.86	1.88
881.597	-0.12
882.333	1.88
883.069	0.88
883.806	-0.12
884.542	-0.12
885.278	0.88
886.014	-1.12
886.749	1.88
887.485	0.88
888.221	-2.12
888.957	2.88
889.692	0.88
890.428	1.88
891.163	-2.12
891.899	-0.12
892.634	1.88
893.369	1.88
894.104	1.88
894.839	-0.12
895.574	1.88
896.309	-0.12
897.044	-0.12
897.779	0.88
898.514	-0.12
899.248	-0.12
899.983	-0.12
900.717	1.88
901.452	-0.12
902.186	0.88
902.92	-1.12
903.654	0.88
904.389	1.88
905.123	-0.12
905.857	1.88
906.59	0.88
907.324	-1.12
908.058	1.88
908.792	-0.12
909.525	3.88
910.259	-0.12
910.992	2.88
911.726	0.88
912.459	-1.12
913.192	1.88
913.925	0.88
914.658	0.88
915.391	-0.12
916.124	0.88
916.857	-0.12
917.59	-1.12
918.323	-0.12
919.055	-0.12
919.788	-0.12
920.521	1.88
921.253	-0.12
921.985	2.88
922.718	0.88
923.45	0.88
924.182	-0.12
924.914	-0.12
925.646	-0.12
926.378	0.88
927.11	0.88
927.841	-0.12
928.573	0.88
929.305	2.88
930.036	-2.12
930.768	0.88
931.499	-2.12
932.23	1.88
932.962	-0.12
933.693	0.88
934.424	0.88
935.155	-0.12
935.886	0.88
936.617	-0.12
937.348	-0.12
938.078	-0.12
938.809	-1.12
939.54	-0.12
940.27	0.88
941.001	-0.12
941.731	-1.12
942.461	-0.12
943.191	-0.12
943.922	-0.12
944.652	1.88
945.382	0.88
946.112	1.88
946.841	-0.12
947.571	-1.12
948.301	-0.12
949.031	-1.12
949.76	0.88
950.49	-0.12
951.219	0.88
951.948	-1.12
952.678	1.88
953.407	-0.12
954.136	-2.12
954.865	-1.12
955.594	0.88
956.323	0.88
957.052	0.88
957.78	-1.12
958.509	-1.12
959.238	-2.12
959.966	-1.12
960.695	-0.12
961.423	-0.12
962.151	1.88
962.88	-0.12
963.608	-0.12
964.336	-0.12
965.064	-0.12
965.792	0.88
966.52	-0.12
967.247	0.88
967.975	-1.12
968.703	-1.12
969.43	0.88
970.158	0.88
970.885	-0.12
971.613	-1.12
972.34	0.88
973.067	0.88
973.794	0.88
974.521	-0.12
975.248	-3.12
975.975	0.88
976.702	0.88
977.429	1.88
978.156	-2.12
978.882	-1.12
979.609	0.88
980.335	-0.12
981.062	-0.12
981.788	-0.12
982.514	-2.12
983.24	-0.12
983.967	-0.12
984.693	-2.12
985.419	-0.12
986.144	1.88
986.87	-1.12
987.596	-1.12
988.322	-1.12
989.047	-1.12
989.773	-1.12
990.498	-0.12
991.224	-1.12
991.949	0.88
992.674	0.88
993.399	0.88
994.124	-1.12
994.849	0.88
995.574	-1.12
996.299	-1.12
997.024	-0.12
997.749	-0.12
998.473	-2.12
999.198	0.88
999.922	0.88
1000.647	1.88
1001.371	2.88
1002.095	0.88
1002.82	-3.12
1003.544	-1.12
1004.268	2.88
1004.992	-2.12
1005.716	-1.12
1006.439	1.88
1007.163	1.88
1007.887	0.88
1008.611	-1.12
1009.334	1.88
1010.058	1.88
1010.781	0.88
1011.504	-0.12
1012.228	1.88
1012.951	-0.12
1013.674	-0.12
1014.397	0.88
1015.12	-0.12
