节点500_145_QEPB04081__328__11-34-11-531.txt的数据

Date: Wed Nov 12 11:34:11 CST 2025
User: PC
Spectrometer: QEPB0408
触发模式: 0
积分时间 (秒): 1.000000E-2
Scans to average: 1
启用暗噪声校正: true
启用非线性校正: false
滑动平均宽度: 0
X轴模式: Wavelengths
Number of Pixels in Spectrum: 1044
>>>>>Begin Spectral Data<<<<<
220.843	0.38
221.644	0.38
222.444	-0.62
223.244	0.38
224.045	0.38
224.845	2.38
225.645	0.38
226.445	0.38
227.245	-1.62
228.045	-1.62
228.845	0.38
229.645	2.38
230.444	0.38
231.244	-1.62
232.043	1.38
232.843	1.38
233.642	-0.62
234.442	0.38
235.241	1.38
236.04	1.38
236.839	0.38
237.638	1.38
238.437	1.38
239.236	-0.62
240.035	2.38
240.833	2.38
241.632	1.38
242.43	2.38
243.229	3.38
244.027	1.38
244.826	2.38
245.624	1.38
246.422	0.38
247.22	2.38
248.018	1.38
248.816	2.38
249.614	1.38
250.412	2.38
251.21	3.38
252.007	1.38
252.805	2.38
253.602	3.38
254.4	5.38
255.197	2.38
255.994	4.38
256.791	2.38
257.589	4.38
258.386	3.38
259.183	3.38
259.979	4.38
260.776	6.38
261.573	4.38
262.37	5.38
263.166	3.38
263.963	4.38
264.759	4.38
265.556	7.38
266.352	6.38
267.148	4.38
267.944	6.38
268.74	8.38
269.536	6.38
270.332	8.38
271.128	8.38
271.924	8.38
272.719	6.38
273.515	10.38
274.311	7.38
275.106	9.38
275.901	8.38
276.697	9.38
277.492	8.38
278.287	10.38
279.082	9.38
279.877	13.38
280.672	10.38
281.467	8.38
282.262	8.38
283.056	10.38
283.851	11.38
284.646	8.38
285.44	10.38
286.234	8.38
287.029	10.38
287.823	11.38
288.617	8.38
289.411	12.38
290.205	12.38
290.999	12.38
291.793	11.38
292.587	9.38
293.381	10.38
294.174	10.38
294.968	10.38
295.761	12.38
296.555	7.38
297.348	8.38
298.141	7.38
298.935	8.38
299.728	9.38
300.521	10.38
301.314	10.38
302.107	7.38
302.899	8.38
303.692	6.38
304.485	7.38
305.277	7.38
306.07	8.38
306.862	8.38
307.655	7.38
308.447	7.38
309.239	8.38
310.031	10.38
310.823	7.38
311.615	8.38
312.407	7.38
313.199	6.38
313.991	7.38
314.783	5.38
315.574	4.38
316.366	7.38
317.157	5.38
317.949	6.38
318.74	4.38
319.531	6.38
320.322	5.38
321.113	4.38
321.904	3.38
322.695	4.38
323.486	2.38
324.277	3.38
325.068	5.38
325.858	7.38
326.649	2.38
327.439	5.38
328.23	3.38
329.02	4.38
329.81	2.38
330.6	2.38
331.391	4.38
332.181	2.38
332.971	3.38
333.76	1.38
334.55	1.38
335.34	2.38
336.13	2.38
336.919	3.38
337.709	5.38
338.498	4.38
339.287	2.38
340.077	8.38
340.866	2.38
341.655	2.38
342.444	2.38
343.233	3.38
344.022	3.38
344.811	5.38
345.6	3.38
346.388	0.38
347.177	5.38
347.965	0.38
348.754	2.38
349.542	4.38
350.33	1.38
351.119	4.38
351.907	2.38
352.695	1.38
353.483	2.38
354.271	5.38
355.059	2.38
355.846	1.38
356.634	3.38
357.422	2.38
358.209	5.38
358.997	3.38
359.784	3.38
360.571	3.38
361.359	1.38
362.146	2.38
362.933	2.38
363.72	1.38
364.507	3.38
365.294	0.38
366.081	2.38
366.867	1.38
367.654	3.38
368.44	2.38
369.227	4.38
370.013	3.38
370.8	0.38
371.586	3.38
372.372	1.38
373.158	2.38
373.944	2.38
374.73	2.38
375.516	3.38
376.302	2.38
377.088	3.38
377.873	4.38
378.659	1.38
379.445	2.38
380.23	3.38
381.015	1.38
381.801	5.38
382.586	3.38
383.371	4.38
384.156	2.38
384.941	4.38
385.726	3.38
386.511	2.38
387.296	4.38
388.08	2.38
388.865	3.38
389.649	2.38
390.434	3.38
391.218	0.38
392.003	3.38
392.787	1.38
393.571	4.38
394.355	1.38
395.139	4.38
395.923	3.38
396.707	2.38
397.491	3.38
398.274	4.38
399.058	5.38
399.842	3.38
400.625	2.38
401.408	5.38
402.192	0.38
402.975	5.38
403.758	4.38
404.541	2.38
405.324	4.38
406.107	6.38
406.89	2.38
407.673	2.38
408.456	5.38
409.238	2.38
410.021	7.38
410.803	6.38
411.586	4.38
412.368	5.38
413.151	1.38
413.933	5.38
414.715	5.38
415.497	3.38
416.279	3.38
417.061	4.38
417.843	5.38
418.624	4.38
419.406	6.38
420.188	3.38
420.969	5.38
421.751	6.38
422.532	3.38
423.313	7.38
424.095	3.38
424.876	6.38
425.657	7.38
426.438	7.38
427.219	7.38
428	4.38
428.78	10.38
429.561	5.38
430.342	9.38
431.122	7.38
431.903	7.38
432.683	7.38
433.464	8.38
434.244	8.38
435.024	9.38
435.804	9.38
436.584	10.38
437.364	11.38
438.144	10.38
438.924	12.38
439.704	12.38
440.483	11.38
441.263	12.38
442.042	12.38
442.822	14.38
443.601	14.38
444.38	14.38
445.16	14.38
445.939	17.38
446.718	18.38
447.497	19.38
448.276	22.38
449.054	22.38
449.833	22.38
450.612	27.38
451.391	26.38
452.169	30.38
452.948	31.38
453.726	31.38
454.504	36.38
455.282	40.38
456.061	47.38
456.839	51.38
457.617	53.38
458.395	65.38
459.172	67.38
459.95	77.38
460.728	84.38
461.506	91.38
462.283	104.38
463.061	117.38
463.838	126.38
464.615	142.38
465.393	161.38
466.17	176.38
466.947	198.38
467.724	215.38
468.501	238.38
469.278	278.38
470.055	301.38
470.831	344.38
471.608	373.38
472.385	418.38
473.161	466.38
473.938	510.38
474.714	572.38
475.49	624.38
476.266	693.38
477.043	769.38
477.819	852.38
478.595	948.38
479.371	1038.38
480.146	1154.38
480.922	1269.38
481.698	1396.38
482.473	1546.38
483.249	1708.38
484.024	1865.38
484.8	2060.38
485.575	2282.38
486.35	2520.38
487.126	2767.38
487.901	3057.38
488.676	3329.38
489.451	3679.38
490.225	4026.38
491	4427.38
491.775	4855.38
492.55	5336.38
493.324	5846.38
494.099	6390.38
494.873	6962.38
495.647	7596.38
496.422	8258.38
497.196	8899.38
497.97	9641.38
498.744	10348.38
499.518	11118.38
500.292	11787.38
501.066	12511.38
501.839	13241.38
502.613	13864.38
503.387	14491.38
504.16	15060.38
504.934	15513.38
505.707	15880.38
506.48	16097.38
507.253	16342.38
508.027	16394.38
508.8	16353.38
509.573	16219.38
510.346	15981.38
511.118	15716.38
511.891	15325.38
512.664	14852.38
513.437	14333.38
514.209	13824.38
514.982	13249.38
515.754	12706.38
516.526	12204.38
517.298	11666.38
518.071	11115.38
518.843	10658.38
519.615	10168.38
520.387	9728.38
521.159	9372.38
521.93	8997.38
522.702	8641.38
523.474	8311.38
524.245	7977.38
525.017	7677.38
525.788	7382.38
526.56	7093.38
527.331	6767.38
528.102	6517.38
528.873	6176.38
529.644	5909.38
530.415	5645.38
531.186	5385.38
531.957	5120.38
532.728	4821.38
533.498	4578.38
534.269	4328.38
535.039	4082.38
535.81	3897.38
536.58	3657.38
537.351	3471.38
538.121	3277.38
538.891	3081.38
539.661	2891.38
540.431	2742.38
541.201	2617.38
541.971	2472.38
542.741	2341.38
543.51	2228.38
544.28	2105.38
545.05	2005.38
545.819	1902.38
546.588	1831.38
547.358	1726.38
548.127	1633.38
548.896	1552.38
549.665	1488.38
550.434	1405.38
551.203	1317.38
551.972	1267.38
552.741	1186.38
553.51	1125.38
554.278	1070.38
555.047	1008.38
555.815	952.38
556.584	896.38
557.352	843.38
558.121	803.38
558.889	754.38
559.657	711.38
560.425	666.38
561.193	627.38
561.961	590.38
562.729	566.38
563.496	532.38
564.264	498.38
565.032	475.38
565.799	450.38
566.567	421.38
567.334	404.38
568.101	375.38
568.869	353.38
569.636	334.38
570.403	318.38
571.17	300.38
571.937	278.38
572.704	261.38
573.471	250.38
574.237	233.38
575.004	225.38
575.771	210.38
576.537	193.38
577.303	187.38
578.07	171.38
578.836	162.38
579.602	156.38
580.368	144.38
581.134	135.38
581.9	127.38
582.666	125.38
583.432	116.38
584.198	114.38
584.964	108.38
585.729	97.38
586.495	93.38
587.26	87.38
588.025	84.38
588.791	80.38
589.556	74.38
590.321	69.38
591.086	67.38
591.851	66.38
592.616	59.38
593.381	57.38
594.146	56.38
594.911	52.38
595.675	52.38
596.44	47.38
597.204	42.38
597.969	44.38
598.733	41.38
599.497	40.38
600.261	37.38
601.025	37.38
601.79	29.38
602.553	34.38
603.317	29.38
604.081	34.38
604.845	28.38
605.609	23.38
606.372	26.38
607.136	25.38
607.899	23.38
608.662	20.38
609.426	21.38
610.189	22.38
610.952	21.38
611.715	17.38
612.478	17.38
613.241	18.38
614.004	16.38
614.767	14.38
615.529	16.38
616.292	15.38
617.055	14.38
617.817	12.38
618.579	13.38
619.342	13.38
620.104	13.38
620.866	11.38
621.628	13.38
622.39	11.38
623.152	10.38
623.914	10.38
624.676	11.38
625.438	10.38
626.199	9.38
626.961	8.38
627.722	9.38
628.484	8.38
629.245	8.38
630.006	4.38
630.768	8.38
631.529	8.38
632.29	7.38
633.051	6.38
633.812	5.38
634.573	6.38
635.333	6.38
636.094	7.38
636.855	3.38
637.615	4.38
638.376	5.38
639.136	7.38
639.896	6.38
640.657	5.38
641.417	5.38
642.177	3.38
642.937	3.38
643.697	6.38
644.457	4.38
645.216	4.38
645.976	3.38
646.736	5.38
647.495	3.38
648.255	3.38
649.014	5.38
649.774	3.38
650.533	4.38
651.292	5.38
652.051	3.38
652.81	4.38
653.569	5.38
654.328	3.38
655.087	5.38
655.846	1.38
656.604	2.38
657.363	4.38
658.121	2.38
658.88	3.38
659.638	4.38
660.397	1.38
661.155	1.38
661.913	4.38
662.671	2.38
663.429	2.38
664.187	2.38
664.945	4.38
665.703	0.38
666.46	1.38
667.218	4.38
667.976	4.38
668.733	3.38
669.49	0.38
670.248	2.38
671.005	5.38
671.762	2.38
672.519	3.38
673.276	3.38
674.033	1.38
674.79	1.38
675.547	1.38
676.304	2.38
677.06	4.38
677.817	1.38
678.574	0.38
679.33	2.38
680.086	1.38
680.843	3.38
681.599	3.38
682.355	3.38
683.111	3.38
683.867	1.38
684.623	5.38
685.379	2.38
686.135	3.38
686.89	1.38
687.646	0.38
688.402	2.38
689.157	1.38
689.912	2.38
690.668	0.38
691.423	1.38
692.178	2.38
692.933	2.38
693.688	1.38
694.443	0.38
695.198	3.38
695.953	3.38
696.708	3.38
697.462	0.38
698.217	3.38
698.972	0.38
699.726	-0.62
700.48	1.38
701.235	2.38
701.989	2.38
702.743	1.38
703.497	2.38
704.251	2.38
705.005	1.38
705.759	2.38
706.513	1.38
707.266	0.38
708.02	4.38
708.774	1.38
709.527	1.38
710.28	2.38
711.034	1.38
711.787	2.38
712.54	3.38
713.293	1.38
714.046	-1.62
714.799	2.38
715.552	1.38
716.305	2.38
717.058	-0.62
717.81	1.38
718.563	0.38
719.315	2.38
720.068	5.38
720.82	0.38
721.573	3.38
722.325	2.38
723.077	1.38
723.829	1.38
724.581	1.38
725.333	2.38
726.085	2.38
726.836	2.38
727.588	1.38
728.34	1.38
729.091	1.38
729.843	0.38
730.594	0.38
731.346	1.38
732.097	4.38
732.848	3.38
733.599	1.38
734.35	1.38
735.101	1.38
735.852	4.38
736.603	1.38
737.354	2.38
738.104	1.38
738.855	2.38
739.605	1.38
740.356	4.38
741.106	1.38
741.856	0.38
742.607	2.38
743.357	2.38
744.107	1.38
744.857	2.38
745.607	1.38
746.357	3.38
747.106	-1.62
747.856	3.38
748.606	1.38
749.355	2.38
750.105	0.38
750.854	3.38
751.603	1.38
752.353	0.38
753.102	3.38
753.851	1.38
754.6	4.38
755.349	3.38
756.098	3.38
756.847	1.38
757.595	1.38
758.344	4.38
759.093	3.38
759.841	4.38
760.589	3.38
761.338	4.38
762.086	4.38
762.834	1.38
763.582	4.38
764.331	2.38
765.079	2.38
765.826	4.38
766.574	4.38
767.322	4.38
768.07	1.38
768.817	4.38
769.565	2.38
770.312	4.38
771.06	4.38
771.807	4.38
772.554	5.38
773.302	3.38
774.049	5.38
774.796	6.38
775.543	5.38
776.29	5.38
777.036	2.38
777.783	6.38
778.53	6.38
779.276	4.38
780.023	5.38
780.769	7.38
781.516	4.38
782.262	5.38
783.008	5.38
783.754	5.38
784.5	4.38
785.246	5.38
785.992	5.38
786.738	5.38
787.484	4.38
788.23	6.38
788.975	2.38
789.721	4.38
790.466	4.38
791.212	5.38
791.957	7.38
792.702	2.38
793.447	5.38
794.193	6.38
794.938	4.38
795.683	2.38
796.427	5.38
797.172	5.38
797.917	6.38
798.662	4.38
799.406	5.38
800.151	6.38
800.895	4.38
801.64	3.38
802.384	4.38
803.128	4.38
803.872	5.38
804.616	5.38
805.36	4.38
806.104	3.38
806.848	4.38
807.592	3.38
808.336	4.38
809.079	6.38
809.823	3.38
810.566	5.38
811.31	4.38
812.053	2.38
812.796	3.38
813.539	4.38
814.283	4.38
815.026	6.38
815.769	4.38
816.511	4.38
817.254	2.38
817.997	2.38
818.74	2.38
819.482	3.38
820.225	3.38
820.967	2.38
821.71	2.38
822.452	3.38
823.194	2.38
823.936	1.38
824.678	5.38
825.42	4.38
826.162	4.38
826.904	1.38
827.646	2.38
828.388	1.38
829.129	2.38
829.871	5.38
830.612	3.38
831.354	2.38
832.095	0.38
832.836	3.38
833.577	1.38
834.319	1.38
835.06	4.38
835.801	2.38
836.542	3.38
837.282	2.38
838.023	2.38
838.764	4.38
839.504	1.38
840.245	3.38
840.985	3.38
841.726	1.38
842.466	2.38
843.206	2.38
843.946	1.38
844.687	2.38
845.427	2.38
846.166	0.38
846.906	1.38
847.646	2.38
848.386	0.38
849.125	1.38
849.865	0.38
850.605	3.38
851.344	2.38
852.083	1.38
852.823	1.38
853.562	1.38
854.301	2.38
855.04	1.38
855.779	1.38
856.518	0.38
857.257	0.38
857.995	-0.62
858.734	1.38
859.473	2.38
860.211	0.38
860.95	2.38
861.688	2.38
862.426	1.38
863.165	1.38
863.903	3.38
864.641	2.38
865.379	2.38
866.117	2.38
866.855	2.38
867.593	0.38
868.33	2.38
869.068	2.38
869.806	-1.62
870.543	-0.62
871.28	1.38
872.018	1.38
872.755	1.38
873.492	-0.62
874.229	2.38
874.967	0.38
875.703	1.38
876.44	0.38
877.177	1.38
877.914	0.38
878.651	0.38
879.387	-1.62
880.124	3.38
880.86	0.38
881.597	-0.62
882.333	1.38
883.069	1.38
883.806	0.38
884.542	-2.62
885.278	1.38
886.014	0.38
886.749	4.38
887.485	-1.62
888.221	-0.62
888.957	1.38
889.692	1.38
890.428	1.38
891.163	1.38
891.899	-0.62
892.634	0.38
893.369	1.38
894.104	2.38
894.839	-1.62
895.574	2.38
896.309	-0.62
897.044	1.38
897.779	1.38
898.514	-2.62
899.248	0.38
899.983	0.38
900.717	2.38
901.452	-0.62
902.186	0.38
902.92	0.38
903.654	1.38
904.389	0.38
905.123	0.38
905.857	0.38
906.59	1.38
907.324	1.38
908.058	1.38
908.792	2.38
909.525	0.38
910.259	-0.62
910.992	1.38
911.726	0.38
912.459	0.38
913.192	1.38
913.925	1.38
914.658	1.38
915.391	1.38
916.124	-0.62
916.857	-1.62
917.59	0.38
918.323	0.38
919.055	-0.62
919.788	-0.62
920.521	-0.62
921.253	1.38
921.985	1.38
922.718	2.38
923.45	0.38
924.182	-0.62
924.914	-0.62
925.646	-0.62
926.378	1.38
927.11	-1.62
927.841	0.38
928.573	0.38
929.305	-0.62
930.036	-0.62
930.768	0.38
931.499	-0.62
932.23	-0.62
932.962	0.38
933.693	0.38
934.424	2.38
935.155	-0.62
935.886	0.38
936.617	-0.62
937.348	-1.62
938.078	-0.62
938.809	0.38
939.54	-1.62
940.27	0.38
941.001	0.38
941.731	0.38
942.461	1.38
943.191	-1.62
943.922	0.38
944.652	0.38
945.382	0.38
946.112	-0.62
946.841	1.38
947.571	-0.62
948.301	1.38
949.031	1.38
949.76	-1.62
950.49	0.38
951.219	0.38
951.948	-0.62
952.678	1.38
953.407	0.38
954.136	1.38
954.865	1.38
955.594	-0.62
956.323	-0.62
957.052	-0.62
957.78	-1.62
958.509	-2.62
959.238	2.38
959.966	0.38
960.695	-0.62
961.423	0.38
962.151	0.38
962.88	-2.62
963.608	0.38
964.336	1.38
965.064	1.38
965.792	-0.62
966.52	2.38
967.247	-0.62
967.975	0.38
968.703	-0.62
969.43	0.38
970.158	-1.62
970.885	0.38
971.613	-0.62
972.34	0.38
973.067	0.38
973.794	-0.62
974.521	0.38
975.248	-1.62
975.975	0.38
976.702	0.38
977.429	-1.62
978.156	0.38
978.882	-0.62
979.609	1.38
980.335	-1.62
981.062	0.38
981.788	-1.62
982.514	-0.62
983.24	-1.62
983.967	-0.62
984.693	0.38
985.419	-1.62
986.144	0.38
986.87	1.38
987.596	0.38
988.322	2.38
989.047	-0.62
989.773	0.38
990.498	0.38
991.224	-1.62
991.949	1.38
992.674	0.38
993.399	-1.62
994.124	-1.62
994.849	0.38
995.574	-1.62
996.299	0.38
997.024	1.38
997.749	1.38
998.473	1.38
999.198	-0.62
999.922	0.38
1000.647	0.38
1001.371	3.38
1002.095	0.38
1002.82	-3.62
1003.544	0.38
1004.268	1.38
1004.992	-0.62
1005.716	0.38
1006.439	-0.62
1007.163	0.38
1007.887	-0.62
1008.611	-1.62
1009.334	0.38
1010.058	-0.62
1010.781	0.38
1011.504	0.38
1012.228	0.38
1012.951	-1.62
1013.674	0.38
1014.397	0.38
1015.12	0.38
