节点500_145_QEPB04081__175__11-31-44-560.txt的数据

Date: Wed Nov 12 11:31:44 CST 2025
User: PC
Spectrometer: QEPB0408
触发模式: 0
积分时间 (秒): 1.000000E-2
Scans to average: 1
启用暗噪声校正: true
启用非线性校正: false
滑动平均宽度: 0
X轴模式: Wavelengths
Number of Pixels in Spectrum: 1044
>>>>>Begin Spectral Data<<<<<
220.843	-0.88
221.644	0.12
222.444	0.12
223.244	-0.88
224.045	-0.88
224.845	2.12
225.645	1.12
226.445	0.12
227.245	0.12
228.045	1.12
228.845	2.12
229.645	1.12
230.444	-1.88
231.244	3.12
232.043	0.12
232.843	-0.88
233.642	1.12
234.442	2.12
235.241	1.12
236.04	-1.88
236.839	1.12
237.638	2.12
238.437	3.12
239.236	1.12
240.035	1.12
240.833	1.12
241.632	3.12
242.43	2.12
243.229	1.12
244.027	1.12
244.826	1.12
245.624	1.12
246.422	1.12
247.22	0.12
248.018	4.12
248.816	2.12
249.614	2.12
250.412	3.12
251.21	4.12
252.007	3.12
252.805	4.12
253.602	2.12
254.4	4.12
255.197	3.12
255.994	4.12
256.791	2.12
257.589	4.12
258.386	3.12
259.183	3.12
259.979	4.12
260.776	3.12
261.573	5.12
262.37	3.12
263.166	5.12
263.963	7.12
264.759	3.12
265.556	4.12
266.352	5.12
267.148	7.12
267.944	4.12
268.74	6.12
269.536	8.12
270.332	8.12
271.128	10.12
271.924	7.12
272.719	7.12
273.515	9.12
274.311	7.12
275.106	8.12
275.901	10.12
276.697	9.12
277.492	11.12
278.287	13.12
279.082	9.12
279.877	11.12
280.672	11.12
281.467	11.12
282.262	11.12
283.056	11.12
283.851	10.12
284.646	11.12
285.44	8.12
286.234	11.12
287.029	10.12
287.823	10.12
288.617	12.12
289.411	10.12
290.205	9.12
290.999	9.12
291.793	14.12
292.587	11.12
293.381	10.12
294.174	10.12
294.968	11.12
295.761	9.12
296.555	9.12
297.348	13.12
298.141	8.12
298.935	9.12
299.728	10.12
300.521	9.12
301.314	7.12
302.107	8.12
302.899	7.12
303.692	8.12
304.485	10.12
305.277	6.12
306.07	7.12
306.862	8.12
307.655	10.12
308.447	8.12
309.239	5.12
310.031	7.12
310.823	5.12
311.615	8.12
312.407	6.12
313.199	7.12
313.991	7.12
314.783	6.12
315.574	6.12
316.366	5.12
317.157	3.12
317.949	5.12
318.74	7.12
319.531	8.12
320.322	3.12
321.113	5.12
321.904	1.12
322.695	3.12
323.486	6.12
324.277	5.12
325.068	3.12
325.858	4.12
326.649	4.12
327.439	5.12
328.23	4.12
329.02	4.12
329.81	3.12
330.6	5.12
331.391	5.12
332.181	4.12
332.971	5.12
333.76	3.12
334.55	5.12
335.34	1.12
336.13	4.12
336.919	3.12
337.709	7.12
338.498	2.12
339.287	2.12
340.077	2.12
340.866	1.12
341.655	5.12
342.444	4.12
343.233	4.12
344.022	3.12
344.811	6.12
345.6	2.12
346.388	4.12
347.177	3.12
347.965	2.12
348.754	5.12
349.542	2.12
350.33	3.12
351.119	3.12
351.907	1.12
352.695	3.12
353.483	3.12
354.271	2.12
355.059	1.12
355.846	5.12
356.634	3.12
357.422	4.12
358.209	3.12
358.997	3.12
359.784	1.12
360.571	2.12
361.359	4.12
362.146	1.12
362.933	0.12
363.72	4.12
364.507	0.12
365.294	2.12
366.081	1.12
366.867	2.12
367.654	1.12
368.44	1.12
369.227	2.12
370.013	2.12
370.8	3.12
371.586	2.12
372.372	1.12
373.158	3.12
373.944	-0.88
374.73	4.12
375.516	3.12
376.302	5.12
377.088	4.12
377.873	1.12
378.659	4.12
379.445	4.12
380.23	4.12
381.015	5.12
381.801	2.12
382.586	2.12
383.371	4.12
384.156	4.12
384.941	1.12
385.726	1.12
386.511	1.12
387.296	5.12
388.08	3.12
388.865	3.12
389.649	4.12
390.434	3.12
391.218	5.12
392.003	1.12
392.787	2.12
393.571	2.12
394.355	1.12
395.139	2.12
395.923	0.12
396.707	7.12
397.491	5.12
398.274	5.12
399.058	6.12
399.842	2.12
400.625	3.12
401.408	2.12
402.192	3.12
402.975	4.12
403.758	5.12
404.541	5.12
405.324	1.12
406.107	3.12
406.89	3.12
407.673	6.12
408.456	4.12
409.238	4.12
410.021	6.12
410.803	2.12
411.586	3.12
412.368	4.12
413.151	4.12
413.933	2.12
414.715	3.12
415.497	2.12
416.279	5.12
417.061	3.12
417.843	5.12
418.624	6.12
419.406	4.12
420.188	5.12
420.969	5.12
421.751	5.12
422.532	4.12
423.313	4.12
424.095	6.12
424.876	2.12
425.657	5.12
426.438	7.12
427.219	8.12
428	7.12
428.78	6.12
429.561	5.12
430.342	7.12
431.122	8.12
431.903	8.12
432.683	8.12
433.464	9.12
434.244	8.12
435.024	9.12
435.804	9.12
436.584	10.12
437.364	9.12
438.144	11.12
438.924	10.12
439.704	9.12
440.483	11.12
441.263	12.12
442.042	14.12
442.822	14.12
443.601	11.12
444.38	15.12
445.16	17.12
445.939	17.12
446.718	17.12
447.497	17.12
448.276	18.12
449.054	20.12
449.833	24.12
450.612	24.12
451.391	29.12
452.169	28.12
452.948	31.12
453.726	32.12
454.504	33.12
455.282	40.12
456.061	41.12
456.839	46.12
457.617	55.12
458.395	54.12
459.172	63.12
459.95	66.12
460.728	83.12
461.506	86.12
462.283	101.12
463.061	107.12
463.838	114.12
464.615	132.12
465.393	149.12
466.17	168.12
466.947	185.12
467.724	206.12
468.501	231.12
469.278	255.12
470.055	287.12
470.831	319.12
471.608	348.12
472.385	406.12
473.161	449.12
473.938	489.12
474.714	543.12
475.49	606.12
476.266	673.12
477.043	752.12
477.819	845.12
478.595	923.12
479.371	1026.12
480.146	1139.12
480.922	1262.12
481.698	1399.12
482.473	1561.12
483.249	1700.12
484.024	1882.12
484.8	2086.12
485.575	2322.12
486.35	2545.12
487.126	2840.12
487.901	3133.12
488.676	3439.12
489.451	3811.12
490.225	4237.12
491	4622.12
491.775	5125.12
492.55	5611.12
493.324	6196.12
494.099	6739.12
494.873	7406.12
495.647	8065.12
496.422	8815.12
497.196	9558.12
497.97	10336.12
498.744	11118.12
499.518	11910.12
500.292	12655.12
501.066	13404.12
501.839	14091.12
502.613	14835.12
503.387	15455.12
504.16	15961.12
504.934	16402.12
505.707	16737.12
506.48	16983.12
507.253	17088.12
508.027	17082.12
508.8	16934.12
509.573	16722.12
510.346	16417.12
511.118	15995.12
511.891	15452.12
512.664	15053.12
513.437	14442.12
514.209	13848.12
514.982	13260.12
515.754	12737.12
516.526	12072.12
517.298	11567.12
518.071	11082.12
518.843	10565.12
519.615	10110.12
520.387	9650.12
521.159	9281.12
521.93	8913.12
522.702	8581.12
523.474	8213.12
524.245	7927.12
525.017	7599.12
525.788	7285.12
526.56	6999.12
527.331	6705.12
528.102	6397.12
528.873	6071.12
529.644	5830.12
530.415	5553.12
531.186	5232.12
531.957	5000.12
532.728	4743.12
533.498	4489.12
534.269	4249.12
535.039	4006.12
535.81	3760.12
536.58	3544.12
537.351	3375.12
538.121	3170.12
538.891	3010.12
539.661	2827.12
540.431	2676.12
541.201	2539.12
541.971	2388.12
542.741	2274.12
543.51	2158.12
544.28	2034.12
545.05	1946.12
545.819	1833.12
546.588	1755.12
547.358	1668.12
548.127	1591.12
548.896	1512.12
549.665	1447.12
550.434	1376.12
551.203	1282.12
551.972	1230.12
552.741	1150.12
553.51	1099.12
554.278	1025.12
555.047	959.12
555.815	907.12
556.584	870.12
557.352	818.12
558.121	777.12
558.889	713.12
559.657	676.12
560.425	641.12
561.193	609.12
561.961	570.12
562.729	540.12
563.496	508.12
564.264	482.12
565.032	456.12
565.799	426.12
566.567	404.12
567.334	382.12
568.101	362.12
568.869	330.12
569.636	316.12
570.403	302.12
571.17	289.12
571.937	270.12
572.704	258.12
573.471	237.12
574.237	227.12
575.004	214.12
575.771	198.12
576.537	185.12
577.303	177.12
578.07	163.12
578.836	157.12
579.602	150.12
580.368	139.12
581.134	132.12
581.9	130.12
582.666	116.12
583.432	109.12
584.198	106.12
584.964	99.12
585.729	93.12
586.495	96.12
587.26	87.12
588.025	79.12
588.791	75.12
589.556	70.12
590.321	67.12
591.086	64.12
591.851	62.12
592.616	56.12
593.381	54.12
594.146	53.12
594.911	47.12
595.675	47.12
596.44	41.12
597.204	43.12
597.969	39.12
598.733	38.12
599.497	37.12
600.261	36.12
601.025	34.12
601.79	30.12
602.553	30.12
603.317	26.12
604.081	27.12
604.845	26.12
605.609	23.12
606.372	25.12
607.136	23.12
607.899	24.12
608.662	21.12
609.426	25.12
610.189	20.12
610.952	17.12
611.715	18.12
612.478	14.12
613.241	18.12
614.004	15.12
614.767	16.12
615.529	15.12
616.292	17.12
617.055	15.12
617.817	11.12
618.579	14.12
619.342	12.12
620.104	9.12
620.866	14.12
621.628	11.12
622.39	11.12
623.152	11.12
623.914	12.12
624.676	11.12
625.438	10.12
626.199	9.12
626.961	9.12
627.722	9.12
628.484	6.12
629.245	10.12
630.006	8.12
630.768	8.12
631.529	8.12
632.29	6.12
633.051	8.12
633.812	4.12
634.573	7.12
635.333	7.12
636.094	8.12
636.855	5.12
637.615	4.12
638.376	5.12
639.136	6.12
639.896	5.12
640.657	6.12
641.417	3.12
642.177	6.12
642.937	6.12
643.697	5.12
644.457	2.12
645.216	6.12
645.976	4.12
646.736	6.12
647.495	5.12
648.255	4.12
649.014	6.12
649.774	6.12
650.533	4.12
651.292	4.12
652.051	3.12
652.81	4.12
653.569	3.12
654.328	4.12
655.087	2.12
655.846	2.12
656.604	4.12
657.363	2.12
658.121	3.12
658.88	2.12
659.638	2.12
660.397	6.12
661.155	3.12
661.913	3.12
662.671	2.12
663.429	5.12
664.187	1.12
664.945	2.12
665.703	4.12
666.46	2.12
667.218	3.12
667.976	4.12
668.733	3.12
669.49	3.12
670.248	4.12
671.005	3.12
671.762	3.12
672.519	1.12
673.276	3.12
674.033	2.12
674.79	2.12
675.547	2.12
676.304	3.12
677.06	3.12
677.817	3.12
678.574	3.12
679.33	3.12
680.086	2.12
680.843	4.12
681.599	2.12
682.355	1.12
683.111	3.12
683.867	1.12
684.623	1.12
685.379	0.12
686.135	1.12
686.89	2.12
687.646	2.12
688.402	2.12
689.157	2.12
689.912	2.12
690.668	3.12
691.423	1.12
692.178	1.12
692.933	2.12
693.688	4.12
694.443	1.12
695.198	4.12
695.953	2.12
696.708	0.12
697.462	1.12
698.217	0.12
698.972	1.12
699.726	2.12
700.48	2.12
701.235	2.12
701.989	3.12
702.743	0.12
703.497	0.12
704.251	2.12
705.005	0.12
705.759	1.12
706.513	2.12
707.266	2.12
708.02	2.12
708.774	0.12
709.527	1.12
710.28	1.12
711.034	1.12
711.787	1.12
712.54	3.12
713.293	3.12
714.046	2.12
714.799	2.12
715.552	0.12
716.305	3.12
717.058	1.12
717.81	2.12
718.563	1.12
719.315	-0.88
720.068	2.12
720.82	2.12
721.573	4.12
722.325	1.12
723.077	1.12
723.829	2.12
724.581	1.12
725.333	4.12
726.085	0.12
726.836	2.12
727.588	2.12
728.34	0.12
729.091	2.12
729.843	2.12
730.594	3.12
731.346	-0.88
732.097	1.12
732.848	0.12
733.599	4.12
734.35	2.12
735.101	3.12
735.852	4.12
736.603	2.12
737.354	3.12
738.104	-0.88
738.855	2.12
739.605	1.12
740.356	2.12
741.106	2.12
741.856	3.12
742.607	5.12
743.357	3.12
744.107	1.12
744.857	0.12
745.607	2.12
746.357	4.12
747.106	2.12
747.856	3.12
748.606	4.12
749.355	0.12
750.105	4.12
750.854	0.12
751.603	2.12
752.353	2.12
753.102	2.12
753.851	3.12
754.6	5.12
755.349	5.12
756.098	4.12
756.847	4.12
757.595	3.12
758.344	4.12
759.093	4.12
759.841	3.12
760.589	4.12
761.338	1.12
762.086	5.12
762.834	5.12
763.582	4.12
764.331	3.12
765.079	5.12
765.826	3.12
766.574	4.12
767.322	3.12
768.07	4.12
768.817	5.12
769.565	3.12
770.312	3.12
771.06	4.12
771.807	3.12
772.554	4.12
773.302	6.12
774.049	5.12
774.796	2.12
775.543	4.12
776.29	7.12
777.036	4.12
777.783	6.12
778.53	8.12
779.276	3.12
780.023	6.12
780.769	2.12
781.516	7.12
782.262	6.12
783.008	7.12
783.754	5.12
784.5	5.12
785.246	7.12
785.992	4.12
786.738	5.12
787.484	6.12
788.23	5.12
788.975	4.12
789.721	4.12
790.466	4.12
791.212	6.12
791.957	5.12
792.702	6.12
793.447	7.12
794.193	6.12
794.938	7.12
795.683	8.12
796.427	5.12
797.172	6.12
797.917	6.12
798.662	4.12
799.406	5.12
800.151	5.12
800.895	6.12
801.64	4.12
802.384	5.12
803.128	5.12
803.872	5.12
804.616	4.12
805.36	3.12
806.104	3.12
806.848	3.12
807.592	3.12
808.336	5.12
809.079	5.12
809.823	6.12
810.566	4.12
811.31	4.12
812.053	3.12
812.796	3.12
813.539	4.12
814.283	2.12
815.026	1.12
815.769	2.12
816.511	4.12
817.254	4.12
817.997	2.12
818.74	2.12
819.482	2.12
820.225	2.12
820.967	2.12
821.71	3.12
822.452	2.12
823.194	1.12
823.936	2.12
824.678	1.12
825.42	3.12
826.162	2.12
826.904	1.12
827.646	1.12
828.388	3.12
829.129	3.12
829.871	2.12
830.612	2.12
831.354	2.12
832.095	-0.88
832.836	3.12
833.577	4.12
834.319	1.12
835.06	0.12
835.801	2.12
836.542	3.12
837.282	2.12
838.023	2.12
838.764	2.12
839.504	2.12
840.245	2.12
840.985	5.12
841.726	0.12
842.466	2.12
843.206	1.12
843.946	1.12
844.687	2.12
845.427	3.12
846.166	2.12
846.906	3.12
847.646	1.12
848.386	2.12
849.125	0.12
849.865	2.12
850.605	1.12
851.344	3.12
852.083	1.12
852.823	2.12
853.562	1.12
854.301	1.12
855.04	1.12
855.779	2.12
856.518	3.12
857.257	2.12
857.995	-1.88
858.734	1.12
859.473	-0.88
860.211	4.12
860.95	-0.88
861.688	1.12
862.426	0.12
863.165	-0.88
863.903	0.12
864.641	1.12
865.379	1.12
866.117	0.12
866.855	2.12
867.593	-0.88
868.33	2.12
869.068	4.12
869.806	-0.88
870.543	1.12
871.28	1.12
872.018	1.12
872.755	0.12
873.492	1.12
874.229	3.12
874.967	0.12
875.703	-1.88
876.44	1.12
877.177	1.12
877.914	2.12
878.651	1.12
879.387	1.12
880.124	-0.88
880.86	0.12
881.597	1.12
882.333	1.12
883.069	2.12
883.806	1.12
884.542	1.12
885.278	-1.88
886.014	0.12
886.749	-0.88
887.485	1.12
888.221	0.12
888.957	-0.88
889.692	2.12
890.428	-0.88
891.163	0.12
891.899	1.12
892.634	3.12
893.369	1.12
894.104	1.12
894.839	2.12
895.574	0.12
896.309	-0.88
897.044	1.12
897.779	2.12
898.514	1.12
899.248	-2.88
899.983	0.12
900.717	0.12
901.452	1.12
902.186	1.12
902.92	0.12
903.654	3.12
904.389	1.12
905.123	2.12
905.857	1.12
906.59	0.12
907.324	0.12
908.058	2.12
908.792	-0.88
909.525	0.12
910.259	0.12
910.992	2.12
911.726	0.12
912.459	0.12
913.192	0.12
913.925	1.12
914.658	-0.88
915.391	1.12
916.124	0.12
916.857	0.12
917.59	0.12
918.323	-1.88
919.055	2.12
919.788	-2.88
920.521	-1.88
921.253	2.12
921.985	1.12
922.718	2.12
923.45	0.12
924.182	0.12
924.914	-1.88
925.646	2.12
926.378	0.12
927.11	-0.88
927.841	0.12
928.573	-0.88
929.305	1.12
930.036	0.12
930.768	1.12
931.499	1.12
932.23	-1.88
932.962	-0.88
933.693	0.12
934.424	0.12
935.155	0.12
935.886	1.12
936.617	-1.88
937.348	0.12
938.078	1.12
938.809	-0.88
939.54	0.12
940.27	0.12
941.001	-0.88
941.731	2.12
942.461	1.12
943.191	1.12
943.922	-1.88
944.652	0.12
945.382	0.12
946.112	0.12
946.841	-0.88
947.571	1.12
948.301	1.12
949.031	0.12
949.76	1.12
950.49	0.12
951.219	1.12
951.948	0.12
952.678	1.12
953.407	1.12
954.136	1.12
954.865	1.12
955.594	0.12
956.323	1.12
957.052	2.12
957.78	-1.88
958.509	0.12
959.238	-0.88
959.966	0.12
960.695	1.12
961.423	0.12
962.151	-0.88
962.88	-1.88
963.608	1.12
964.336	-1.88
965.064	1.12
965.792	1.12
966.52	0.12
967.247	0.12
967.975	1.12
968.703	1.12
969.43	-0.88
970.158	2.12
970.885	-0.88
971.613	3.12
972.34	2.12
973.067	-1.88
973.794	-2.88
974.521	-1.88
975.248	-1.88
975.975	1.12
976.702	-0.88
977.429	0.12
978.156	0.12
978.882	2.12
979.609	-1.88
980.335	2.12
981.062	-0.88
981.788	1.12
982.514	2.12
983.24	0.12
983.967	1.12
984.693	1.12
985.419	0.12
986.144	0.12
986.87	0.12
987.596	0.12
988.322	-0.88
989.047	1.12
989.773	-0.88
990.498	2.12
991.224	1.12
991.949	2.12
992.674	1.12
993.399	2.12
994.124	2.12
994.849	0.12
995.574	-0.88
996.299	0.12
997.024	-0.88
997.749	2.12
998.473	1.12
999.198	-1.88
999.922	1.12
1000.647	0.12
1001.371	1.12
1002.095	0.12
1002.82	-0.88
1003.544	-1.88
1004.268	0.12
1004.992	-0.88
1005.716	-1.88
1006.439	0.12
1007.163	-1.88
1007.887	0.12
1008.611	2.12
1009.334	-0.88
1010.058	0.12
1010.781	1.12
1011.504	2.12
1012.228	1.12
1012.951	-0.88
1013.674	0.12
1014.397	0.12
1015.12	2.12
