节点500_145_QEPB04081__400__11-35-21-538.txt的数据

Date: Wed Nov 12 11:35:21 CST 2025
User: PC
Spectrometer: QEPB0408
触发模式: 0
积分时间 (秒): 1.000000E-2
Scans to average: 1
启用暗噪声校正: true
启用非线性校正: false
滑动平均宽度: 0
X轴模式: Wavelengths
Number of Pixels in Spectrum: 1044
>>>>>Begin Spectral Data<<<<<
220.843	0.62
221.644	0.62
222.444	-1.38
223.244	1.62
224.045	-0.38
224.845	-0.38
225.645	0.62
226.445	0.62
227.245	0.62
228.045	1.62
228.845	0.62
229.645	1.62
230.444	1.62
231.244	-0.38
232.043	0.62
232.843	1.62
233.642	1.62
234.442	1.62
235.241	-0.38
236.04	2.62
236.839	3.62
237.638	0.62
238.437	1.62
239.236	0.62
240.035	0.62
240.833	1.62
241.632	1.62
242.43	0.62
243.229	2.62
244.027	3.62
244.826	1.62
245.624	3.62
246.422	2.62
247.22	2.62
248.018	3.62
248.816	0.62
249.614	1.62
250.412	0.62
251.21	4.62
252.007	3.62
252.805	3.62
253.602	2.62
254.4	2.62
255.197	1.62
255.994	2.62
256.791	4.62
257.589	5.62
258.386	3.62
259.183	4.62
259.979	4.62
260.776	4.62
261.573	3.62
262.37	5.62
263.166	1.62
263.963	4.62
264.759	5.62
265.556	4.62
266.352	6.62
267.148	5.62
267.944	5.62
268.74	7.62
269.536	7.62
270.332	6.62
271.128	8.62
271.924	6.62
272.719	5.62
273.515	8.62
274.311	6.62
275.106	9.62
275.901	8.62
276.697	7.62
277.492	8.62
278.287	9.62
279.082	11.62
279.877	8.62
280.672	10.62
281.467	8.62
282.262	7.62
283.056	10.62
283.851	9.62
284.646	12.62
285.44	9.62
286.234	8.62
287.029	9.62
287.823	13.62
288.617	12.62
289.411	9.62
290.205	11.62
290.999	11.62
291.793	11.62
292.587	10.62
293.381	9.62
294.174	10.62
294.968	9.62
295.761	9.62
296.555	9.62
297.348	9.62
298.141	7.62
298.935	9.62
299.728	10.62
300.521	8.62
301.314	7.62
302.107	8.62
302.899	8.62
303.692	10.62
304.485	7.62
305.277	7.62
306.07	8.62
306.862	11.62
307.655	7.62
308.447	9.62
309.239	9.62
310.031	6.62
310.823	6.62
311.615	6.62
312.407	6.62
313.199	7.62
313.991	5.62
314.783	5.62
315.574	3.62
316.366	5.62
317.157	8.62
317.949	4.62
318.74	5.62
319.531	6.62
320.322	4.62
321.113	6.62
321.904	6.62
322.695	4.62
323.486	3.62
324.277	3.62
325.068	1.62
325.858	4.62
326.649	2.62
327.439	5.62
328.23	3.62
329.02	3.62
329.81	5.62
330.6	5.62
331.391	4.62
332.181	4.62
332.971	1.62
333.76	3.62
334.55	4.62
335.34	3.62
336.13	1.62
336.919	5.62
337.709	2.62
338.498	3.62
339.287	3.62
340.077	2.62
340.866	4.62
341.655	3.62
342.444	3.62
343.233	3.62
344.022	3.62
344.811	2.62
345.6	5.62
346.388	5.62
347.177	3.62
347.965	4.62
348.754	4.62
349.542	4.62
350.33	5.62
351.119	0.62
351.907	5.62
352.695	2.62
353.483	2.62
354.271	2.62
355.059	4.62
355.846	1.62
356.634	2.62
357.422	4.62
358.209	1.62
358.997	2.62
359.784	2.62
360.571	4.62
361.359	3.62
362.146	3.62
362.933	4.62
363.72	2.62
364.507	3.62
365.294	3.62
366.081	3.62
366.867	3.62
367.654	0.62
368.44	4.62
369.227	-0.38
370.013	3.62
370.8	3.62
371.586	4.62
372.372	1.62
373.158	0.62
373.944	3.62
374.73	2.62
375.516	3.62
376.302	2.62
377.088	0.62
377.873	2.62
378.659	3.62
379.445	2.62
380.23	2.62
381.015	2.62
381.801	2.62
382.586	2.62
383.371	2.62
384.156	1.62
384.941	3.62
385.726	1.62
386.511	2.62
387.296	2.62
388.08	3.62
388.865	1.62
389.649	3.62
390.434	2.62
391.218	-1.38
392.003	4.62
392.787	2.62
393.571	3.62
394.355	4.62
395.139	3.62
395.923	5.62
396.707	0.62
397.491	2.62
398.274	5.62
399.058	5.62
399.842	5.62
400.625	4.62
401.408	4.62
402.192	3.62
402.975	4.62
403.758	3.62
404.541	3.62
405.324	4.62
406.107	3.62
406.89	3.62
407.673	2.62
408.456	4.62
409.238	4.62
410.021	3.62
410.803	3.62
411.586	1.62
412.368	7.62
413.151	3.62
413.933	3.62
414.715	3.62
415.497	5.62
416.279	6.62
417.061	4.62
417.843	4.62
418.624	5.62
419.406	5.62
420.188	5.62
420.969	6.62
421.751	6.62
422.532	2.62
423.313	6.62
424.095	6.62
424.876	7.62
425.657	7.62
426.438	5.62
427.219	6.62
428	7.62
428.78	7.62
429.561	5.62
430.342	9.62
431.122	6.62
431.903	6.62
432.683	7.62
433.464	5.62
434.244	8.62
435.024	9.62
435.804	7.62
436.584	6.62
437.364	8.62
438.144	10.62
438.924	12.62
439.704	13.62
440.483	7.62
441.263	10.62
442.042	14.62
442.822	11.62
443.601	14.62
444.38	14.62
445.16	15.62
445.939	15.62
446.718	15.62
447.497	18.62
448.276	21.62
449.054	21.62
449.833	24.62
450.612	25.62
451.391	30.62
452.169	29.62
452.948	36.62
453.726	35.62
454.504	39.62
455.282	40.62
456.061	47.62
456.839	50.62
457.617	53.62
458.395	60.62
459.172	66.62
459.95	77.62
460.728	86.62
461.506	95.62
462.283	105.62
463.061	119.62
463.838	130.62
464.615	143.62
465.393	161.62
466.17	182.62
466.947	199.62
467.724	227.62
468.501	243.62
469.278	278.62
470.055	312.62
470.831	349.62
471.608	383.62
472.385	425.62
473.161	471.62
473.938	521.62
474.714	576.62
475.49	645.62
476.266	710.62
477.043	773.62
477.819	861.62
478.595	959.62
479.371	1043.62
480.146	1146.62
480.922	1265.62
481.698	1395.62
482.473	1544.62
483.249	1709.62
484.024	1866.62
484.8	2068.62
485.575	2265.62
486.35	2491.62
487.126	2725.62
487.901	2992.62
488.676	3304.62
489.451	3591.62
490.225	3960.62
491	4368.62
491.775	4766.62
492.55	5216.62
493.324	5670.62
494.099	6180.62
494.873	6766.62
495.647	7387.62
496.422	7995.62
497.196	8673.62
497.97	9325.62
498.744	10005.62
499.518	10738.62
500.292	11457.62
501.066	12162.62
501.839	12810.62
502.613	13492.62
503.387	14132.62
504.16	14653.62
504.934	15112.62
505.707	15464.62
506.48	15789.62
507.253	15978.62
508.027	16119.62
508.8	16104.62
509.573	15998.62
510.346	15843.62
511.118	15599.62
511.891	15239.62
512.664	14730.62
513.437	14300.62
514.209	13822.62
514.982	13272.62
515.754	12729.62
516.526	12205.62
517.298	11736.62
518.071	11214.62
518.843	10744.62
519.615	10268.62
520.387	9862.62
521.159	9427.62
521.93	9072.62
522.702	8712.62
523.474	8367.62
524.245	8042.62
525.017	7686.62
525.788	7404.62
526.56	7098.62
527.331	6839.62
528.102	6533.62
528.873	6229.62
529.644	5970.62
530.415	5683.62
531.186	5415.62
531.957	5149.62
532.728	4919.62
533.498	4665.62
534.269	4395.62
535.039	4156.62
535.81	3952.62
536.58	3719.62
537.351	3508.62
538.121	3342.62
538.891	3176.62
539.661	2953.62
540.431	2793.62
541.201	2658.62
541.971	2501.62
542.741	2373.62
543.51	2254.62
544.28	2159.62
545.05	2037.62
545.819	1931.62
546.588	1846.62
547.358	1764.62
548.127	1658.62
548.896	1584.62
549.665	1512.62
550.434	1429.62
551.203	1349.62
551.972	1280.62
552.741	1215.62
553.51	1149.62
554.278	1090.62
555.047	1038.62
555.815	966.62
556.584	912.62
557.352	865.62
558.121	808.62
558.889	760.62
559.657	727.62
560.425	681.62
561.193	643.62
561.961	609.62
562.729	577.62
563.496	551.62
564.264	513.62
565.032	484.62
565.799	456.62
566.567	431.62
567.334	412.62
568.101	384.62
568.869	361.62
569.636	344.62
570.403	324.62
571.17	304.62
571.937	284.62
572.704	265.62
573.471	247.62
574.237	239.62
575.004	226.62
575.771	213.62
576.537	200.62
577.303	185.62
578.07	179.62
578.836	170.62
579.602	160.62
580.368	146.62
581.134	143.62
581.9	132.62
582.666	126.62
583.432	120.62
584.198	111.62
584.964	112.62
585.729	100.62
586.495	95.62
587.26	94.62
588.025	86.62
588.791	82.62
589.556	73.62
590.321	72.62
591.086	63.62
591.851	67.62
592.616	62.62
593.381	56.62
594.146	52.62
594.911	52.62
595.675	49.62
596.44	47.62
597.204	46.62
597.969	42.62
598.733	42.62
599.497	39.62
600.261	38.62
601.025	36.62
601.79	32.62
602.553	36.62
603.317	30.62
604.081	29.62
604.845	33.62
605.609	27.62
606.372	29.62
607.136	27.62
607.899	26.62
608.662	22.62
609.426	19.62
610.189	21.62
610.952	20.62
611.715	21.62
612.478	18.62
613.241	16.62
614.004	19.62
614.767	18.62
615.529	17.62
616.292	16.62
617.055	13.62
617.817	14.62
618.579	14.62
619.342	12.62
620.104	13.62
620.866	13.62
621.628	12.62
622.39	12.62
623.152	13.62
623.914	9.62
624.676	9.62
625.438	9.62
626.199	12.62
626.961	11.62
627.722	8.62
628.484	10.62
629.245	8.62
630.006	5.62
630.768	7.62
631.529	10.62
632.29	5.62
633.051	5.62
633.812	5.62
634.573	9.62
635.333	7.62
636.094	4.62
636.855	7.62
637.615	5.62
638.376	7.62
639.136	3.62
639.896	6.62
640.657	6.62
641.417	2.62
642.177	5.62
642.937	4.62
643.697	4.62
644.457	6.62
645.216	4.62
645.976	5.62
646.736	5.62
647.495	3.62
648.255	2.62
649.014	5.62
649.774	6.62
650.533	4.62
651.292	3.62
652.051	1.62
652.81	2.62
653.569	4.62
654.328	1.62
655.087	4.62
655.846	6.62
656.604	2.62
657.363	4.62
658.121	3.62
658.88	2.62
659.638	3.62
660.397	4.62
661.155	2.62
661.913	3.62
662.671	1.62
663.429	3.62
664.187	3.62
664.945	3.62
665.703	4.62
666.46	1.62
667.218	3.62
667.976	4.62
668.733	2.62
669.49	1.62
670.248	4.62
671.005	3.62
671.762	0.62
672.519	3.62
673.276	3.62
674.033	3.62
674.79	3.62
675.547	2.62
676.304	4.62
677.06	0.62
677.817	2.62
678.574	2.62
679.33	3.62
680.086	5.62
680.843	0.62
681.599	2.62
682.355	2.62
683.111	1.62
683.867	1.62
684.623	4.62
685.379	0.62
686.135	1.62
686.89	3.62
687.646	2.62
688.402	3.62
689.157	3.62
689.912	3.62
690.668	-0.38
691.423	2.62
692.178	4.62
692.933	1.62
693.688	4.62
694.443	2.62
695.198	2.62
695.953	4.62
696.708	2.62
697.462	1.62
698.217	0.62
698.972	2.62
699.726	2.62
700.48	1.62
701.235	0.62
701.989	2.62
702.743	2.62
703.497	0.62
704.251	2.62
705.005	1.62
705.759	3.62
706.513	1.62
707.266	2.62
708.02	2.62
708.774	2.62
709.527	-0.38
710.28	0.62
711.034	1.62
711.787	1.62
712.54	1.62
713.293	2.62
714.046	0.62
714.799	3.62
715.552	2.62
716.305	1.62
717.058	2.62
717.81	2.62
718.563	1.62
719.315	3.62
720.068	1.62
720.82	0.62
721.573	0.62
722.325	3.62
723.077	1.62
723.829	2.62
724.581	1.62
725.333	1.62
726.085	-0.38
726.836	0.62
727.588	-1.38
728.34	1.62
729.091	3.62
729.843	3.62
730.594	2.62
731.346	1.62
732.097	1.62
732.848	2.62
733.599	1.62
734.35	2.62
735.101	1.62
735.852	2.62
736.603	2.62
737.354	0.62
738.104	1.62
738.855	1.62
739.605	2.62
740.356	1.62
741.106	3.62
741.856	2.62
742.607	2.62
743.357	0.62
744.107	-0.38
744.857	2.62
745.607	3.62
746.357	4.62
747.106	3.62
747.856	0.62
748.606	2.62
749.355	1.62
750.105	3.62
750.854	4.62
751.603	3.62
752.353	2.62
753.102	2.62
753.851	2.62
754.6	1.62
755.349	3.62
756.098	3.62
756.847	2.62
757.595	2.62
758.344	1.62
759.093	2.62
759.841	5.62
760.589	2.62
761.338	4.62
762.086	2.62
762.834	0.62
763.582	2.62
764.331	2.62
765.079	2.62
765.826	6.62
766.574	3.62
767.322	2.62
768.07	4.62
768.817	3.62
769.565	5.62
770.312	4.62
771.06	6.62
771.807	4.62
772.554	2.62
773.302	3.62
774.049	2.62
774.796	4.62
775.543	5.62
776.29	4.62
777.036	3.62
777.783	4.62
778.53	4.62
779.276	3.62
780.023	5.62
780.769	4.62
781.516	5.62
782.262	4.62
783.008	3.62
783.754	5.62
784.5	5.62
785.246	4.62
785.992	5.62
786.738	3.62
787.484	5.62
788.23	4.62
788.975	5.62
789.721	6.62
790.466	6.62
791.212	4.62
791.957	5.62
792.702	5.62
793.447	4.62
794.193	2.62
794.938	3.62
795.683	4.62
796.427	4.62
797.172	6.62
797.917	3.62
798.662	3.62
799.406	4.62
800.151	6.62
800.895	5.62
801.64	5.62
802.384	5.62
803.128	6.62
803.872	3.62
804.616	5.62
805.36	3.62
806.104	5.62
806.848	5.62
807.592	4.62
808.336	3.62
809.079	4.62
809.823	2.62
810.566	1.62
811.31	2.62
812.053	3.62
812.796	3.62
813.539	5.62
814.283	4.62
815.026	5.62
815.769	5.62
816.511	4.62
817.254	2.62
817.997	4.62
818.74	2.62
819.482	5.62
820.225	1.62
820.967	2.62
821.71	2.62
822.452	5.62
823.194	2.62
823.936	3.62
824.678	2.62
825.42	2.62
826.162	2.62
826.904	2.62
827.646	3.62
828.388	2.62
829.129	2.62
829.871	1.62
830.612	1.62
831.354	3.62
832.095	0.62
832.836	2.62
833.577	1.62
834.319	2.62
835.06	3.62
835.801	2.62
836.542	2.62
837.282	5.62
838.023	2.62
838.764	3.62
839.504	2.62
840.245	2.62
840.985	1.62
841.726	0.62
842.466	3.62
843.206	3.62
843.946	2.62
844.687	2.62
845.427	2.62
846.166	3.62
846.906	0.62
847.646	3.62
848.386	2.62
849.125	2.62
849.865	3.62
850.605	3.62
851.344	2.62
852.083	0.62
852.823	1.62
853.562	2.62
854.301	-0.38
855.04	0.62
855.779	0.62
856.518	1.62
857.257	0.62
857.995	2.62
858.734	1.62
859.473	1.62
860.211	1.62
860.95	1.62
861.688	2.62
862.426	1.62
863.165	2.62
863.903	1.62
864.641	2.62
865.379	2.62
866.117	-0.38
866.855	1.62
867.593	1.62
868.33	2.62
869.068	2.62
869.806	0.62
870.543	0.62
871.28	1.62
872.018	-0.38
872.755	0.62
873.492	-0.38
874.229	1.62
874.967	-0.38
875.703	1.62
876.44	1.62
877.177	2.62
877.914	-0.38
878.651	1.62
879.387	0.62
880.124	1.62
880.86	0.62
881.597	-0.38
882.333	3.62
883.069	0.62
883.806	0.62
884.542	1.62
885.278	0.62
886.014	2.62
886.749	1.62
887.485	0.62
888.221	1.62
888.957	0.62
889.692	-0.38
890.428	1.62
891.163	1.62
891.899	2.62
892.634	1.62
893.369	1.62
894.104	0.62
894.839	0.62
895.574	-0.38
896.309	0.62
897.044	1.62
897.779	1.62
898.514	1.62
899.248	-0.38
899.983	1.62
900.717	1.62
901.452	-0.38
902.186	-0.38
902.92	0.62
903.654	-1.38
904.389	1.62
905.123	1.62
905.857	-0.38
906.59	1.62
907.324	-1.38
908.058	-0.38
908.792	-1.38
909.525	2.62
910.259	1.62
910.992	0.62
911.726	-0.38
912.459	-1.38
913.192	1.62
913.925	0.62
914.658	0.62
915.391	1.62
916.124	2.62
916.857	2.62
917.59	-0.38
918.323	0.62
919.055	0.62
919.788	-0.38
920.521	-0.38
921.253	-2.38
921.985	-1.38
922.718	0.62
923.45	1.62
924.182	-1.38
924.914	2.62
925.646	1.62
926.378	-1.38
927.11	-1.38
927.841	-0.38
928.573	0.62
929.305	-0.38
930.036	0.62
930.768	-1.38
931.499	0.62
932.23	1.62
932.962	-1.38
933.693	1.62
934.424	0.62
935.155	1.62
935.886	-0.38
936.617	0.62
937.348	0.62
938.078	0.62
938.809	1.62
939.54	1.62
940.27	0.62
941.001	0.62
941.731	-0.38
942.461	1.62
943.191	-1.38
943.922	0.62
944.652	-1.38
945.382	1.62
946.112	0.62
946.841	0.62
947.571	0.62
948.301	-1.38
949.031	0.62
949.76	1.62
950.49	0.62
951.219	0.62
951.948	-1.38
952.678	-0.38
953.407	-0.38
954.136	-0.38
954.865	2.62
955.594	1.62
956.323	-0.38
957.052	-1.38
957.78	0.62
958.509	-0.38
959.238	0.62
959.966	0.62
960.695	0.62
961.423	1.62
962.151	-1.38
962.88	-0.38
963.608	-1.38
964.336	1.62
965.064	1.62
965.792	0.62
966.52	0.62
967.247	0.62
967.975	3.62
968.703	1.62
969.43	-1.38
970.158	1.62
970.885	0.62
971.613	0.62
972.34	-1.38
973.067	0.62
973.794	-0.38
974.521	-0.38
975.248	-0.38
975.975	-1.38
976.702	-0.38
977.429	-1.38
978.156	0.62
978.882	0.62
979.609	0.62
980.335	1.62
981.062	0.62
981.788	-0.38
982.514	-1.38
983.24	0.62
983.967	0.62
984.693	-0.38
985.419	3.62
986.144	-2.38
986.87	1.62
987.596	1.62
988.322	2.62
989.047	-0.38
989.773	0.62
990.498	0.62
991.224	1.62
991.949	0.62
992.674	-1.38
993.399	1.62
994.124	1.62
994.849	-0.38
995.574	-1.38
996.299	1.62
997.024	-0.38
997.749	0.62
998.473	0.62
999.198	-0.38
999.922	-0.38
1000.647	1.62
1001.371	3.62
1002.095	-1.38
1002.82	-0.38
1003.544	-2.38
1004.268	1.62
1004.992	-1.38
1005.716	1.62
1006.439	-1.38
1007.163	0.62
1007.887	1.62
1008.611	-1.38
1009.334	2.62
1010.058	0.62
1010.781	-0.38
1011.504	1.62
1012.228	0.62
1012.951	1.62
1013.674	-1.38
1014.397	0.62
1015.12	-0.38
