节点500_145_QEPB04081__261__11-33-09-478.txt的数据

Date: Wed Nov 12 11:33:09 CST 2025
User: PC
Spectrometer: QEPB0408
触发模式: 0
积分时间 (秒): 1.000000E-2
Scans to average: 1
启用暗噪声校正: true
启用非线性校正: false
滑动平均宽度: 0
X轴模式: Wavelengths
Number of Pixels in Spectrum: 1044
>>>>>Begin Spectral Data<<<<<
220.843	1.25
221.644	-1.75
222.444	-0.75
223.244	0.25
224.045	-0.75
224.845	-0.75
225.645	1.25
226.445	1.25
227.245	-1.75
228.045	-1.75
228.845	0.25
229.645	-0.75
230.444	0.25
231.244	0.25
232.043	2.25
232.843	1.25
233.642	1.25
234.442	-1.75
235.241	2.25
236.04	-1.75
236.839	1.25
237.638	1.25
238.437	1.25
239.236	1.25
240.035	0.25
240.833	0.25
241.632	1.25
242.43	1.25
243.229	3.25
244.027	0.25
244.826	1.25
245.624	1.25
246.422	1.25
247.22	1.25
248.018	1.25
248.816	2.25
249.614	2.25
250.412	1.25
251.21	2.25
252.007	2.25
252.805	1.25
253.602	2.25
254.4	5.25
255.197	1.25
255.994	4.25
256.791	2.25
257.589	4.25
258.386	2.25
259.183	4.25
259.979	5.25
260.776	4.25
261.573	4.25
262.37	5.25
263.166	3.25
263.963	7.25
264.759	4.25
265.556	5.25
266.352	2.25
267.148	8.25
267.944	4.25
268.74	6.25
269.536	6.25
270.332	9.25
271.128	6.25
271.924	6.25
272.719	9.25
273.515	8.25
274.311	8.25
275.106	7.25
275.901	10.25
276.697	9.25
277.492	8.25
278.287	7.25
279.082	7.25
279.877	11.25
280.672	9.25
281.467	11.25
282.262	9.25
283.056	11.25
283.851	10.25
284.646	10.25
285.44	11.25
286.234	9.25
287.029	8.25
287.823	9.25
288.617	10.25
289.411	10.25
290.205	12.25
290.999	10.25
291.793	10.25
292.587	10.25
293.381	10.25
294.174	10.25
294.968	11.25
295.761	9.25
296.555	10.25
297.348	9.25
298.141	10.25
298.935	11.25
299.728	9.25
300.521	9.25
301.314	7.25
302.107	10.25
302.899	9.25
303.692	8.25
304.485	8.25
305.277	6.25
306.07	7.25
306.862	6.25
307.655	6.25
308.447	9.25
309.239	9.25
310.031	9.25
310.823	5.25
311.615	7.25
312.407	4.25
313.199	9.25
313.991	6.25
314.783	5.25
315.574	6.25
316.366	6.25
317.157	5.25
317.949	6.25
318.74	4.25
319.531	7.25
320.322	4.25
321.113	6.25
321.904	4.25
322.695	6.25
323.486	4.25
324.277	5.25
325.068	4.25
325.858	5.25
326.649	5.25
327.439	4.25
328.23	6.25
329.02	5.25
329.81	5.25
330.6	5.25
331.391	4.25
332.181	3.25
332.971	2.25
333.76	6.25
334.55	2.25
335.34	1.25
336.13	6.25
336.919	3.25
337.709	2.25
338.498	2.25
339.287	5.25
340.077	3.25
340.866	3.25
341.655	5.25
342.444	5.25
343.233	4.25
344.022	3.25
344.811	5.25
345.6	3.25
346.388	2.25
347.177	3.25
347.965	3.25
348.754	2.25
349.542	4.25
350.33	4.25
351.119	5.25
351.907	5.25
352.695	4.25
353.483	5.25
354.271	3.25
355.059	3.25
355.846	4.25
356.634	3.25
357.422	5.25
358.209	2.25
358.997	4.25
359.784	4.25
360.571	3.25
361.359	4.25
362.146	1.25
362.933	4.25
363.72	3.25
364.507	2.25
365.294	2.25
366.081	2.25
366.867	3.25
367.654	5.25
368.44	3.25
369.227	2.25
370.013	0.25
370.8	3.25
371.586	5.25
372.372	3.25
373.158	4.25
373.944	1.25
374.73	3.25
375.516	1.25
376.302	4.25
377.088	2.25
377.873	-0.75
378.659	3.25
379.445	1.25
380.23	3.25
381.015	3.25
381.801	2.25
382.586	3.25
383.371	1.25
384.156	2.25
384.941	2.25
385.726	5.25
386.511	2.25
387.296	2.25
388.08	3.25
388.865	2.25
389.649	5.25
390.434	2.25
391.218	3.25
392.003	2.25
392.787	3.25
393.571	4.25
394.355	3.25
395.139	3.25
395.923	3.25
396.707	6.25
397.491	4.25
398.274	6.25
399.058	2.25
399.842	3.25
400.625	5.25
401.408	4.25
402.192	4.25
402.975	5.25
403.758	3.25
404.541	5.25
405.324	3.25
406.107	5.25
406.89	1.25
407.673	5.25
408.456	5.25
409.238	4.25
410.021	4.25
410.803	5.25
411.586	6.25
412.368	3.25
413.151	3.25
413.933	4.25
414.715	5.25
415.497	6.25
416.279	4.25
417.061	5.25
417.843	4.25
418.624	3.25
419.406	4.25
420.188	6.25
420.969	4.25
421.751	4.25
422.532	5.25
423.313	7.25
424.095	6.25
424.876	5.25
425.657	4.25
426.438	7.25
427.219	7.25
428	7.25
428.78	6.25
429.561	7.25
430.342	9.25
431.122	8.25
431.903	7.25
432.683	7.25
433.464	8.25
434.244	8.25
435.024	6.25
435.804	9.25
436.584	9.25
437.364	11.25
438.144	9.25
438.924	12.25
439.704	11.25
440.483	12.25
441.263	12.25
442.042	13.25
442.822	14.25
443.601	14.25
444.38	12.25
445.16	15.25
445.939	15.25
446.718	19.25
447.497	18.25
448.276	19.25
449.054	21.25
449.833	24.25
450.612	25.25
451.391	28.25
452.169	28.25
452.948	30.25
453.726	36.25
454.504	39.25
455.282	44.25
456.061	47.25
456.839	47.25
457.617	54.25
458.395	55.25
459.172	65.25
459.95	71.25
460.728	87.25
461.506	91.25
462.283	99.25
463.061	114.25
463.838	123.25
464.615	143.25
465.393	152.25
466.17	173.25
466.947	190.25
467.724	215.25
468.501	238.25
469.278	267.25
470.055	295.25
470.831	329.25
471.608	369.25
472.385	406.25
473.161	452.25
473.938	499.25
474.714	566.25
475.49	620.25
476.266	689.25
477.043	765.25
477.819	845.25
478.595	937.25
479.371	1019.25
480.146	1150.25
480.922	1272.25
481.698	1400.25
482.473	1555.25
483.249	1704.25
484.024	1889.25
484.8	2078.25
485.575	2281.25
486.35	2529.25
487.126	2786.25
487.901	3058.25
488.676	3365.25
489.451	3727.25
490.225	4078.25
491	4474.25
491.775	4939.25
492.55	5423.25
493.324	5945.25
494.099	6495.25
494.873	7094.25
495.647	7759.25
496.422	8377.25
497.196	9112.25
497.97	9823.25
498.744	10536.25
499.518	11319.25
500.292	12062.25
501.066	12788.25
501.839	13504.25
502.613	14187.25
503.387	14824.25
504.16	15360.25
504.934	15782.25
505.707	16125.25
506.48	16427.25
507.253	16565.25
508.027	16643.25
508.8	16559.25
509.573	16384.25
510.346	16091.25
511.118	15779.25
511.891	15383.25
512.664	14863.25
513.437	14293.25
514.209	13788.25
514.982	13271.25
515.754	12750.25
516.526	12200.25
517.298	11652.25
518.071	11095.25
518.843	10572.25
519.615	10164.25
520.387	9691.25
521.159	9347.25
521.93	8931.25
522.702	8587.25
523.474	8247.25
524.245	7969.25
525.017	7603.25
525.788	7309.25
526.56	7021.25
527.331	6741.25
528.102	6427.25
528.873	6192.25
529.644	5884.25
530.415	5618.25
531.186	5325.25
531.957	5070.25
532.728	4823.25
533.498	4529.25
534.269	4299.25
535.039	4062.25
535.81	3850.25
536.58	3625.25
537.351	3426.25
538.121	3250.25
538.891	3052.25
539.661	2886.25
540.431	2714.25
541.201	2609.25
541.971	2450.25
542.741	2337.25
543.51	2200.25
544.28	2087.25
545.05	1973.25
545.819	1885.25
546.588	1797.25
547.358	1707.25
548.127	1627.25
548.896	1544.25
549.665	1471.25
550.434	1392.25
551.203	1321.25
551.972	1258.25
552.741	1181.25
553.51	1117.25
554.278	1058.25
555.047	979.25
555.815	927.25
556.584	885.25
557.352	841.25
558.121	780.25
558.889	727.25
559.657	696.25
560.425	659.25
561.193	626.25
561.961	579.25
562.729	559.25
563.496	522.25
564.264	494.25
565.032	460.25
565.799	436.25
566.567	414.25
567.334	397.25
568.101	367.25
568.869	348.25
569.636	329.25
570.403	313.25
571.17	299.25
571.937	274.25
572.704	260.25
573.471	250.25
574.237	236.25
575.004	222.25
575.771	208.25
576.537	196.25
577.303	177.25
578.07	175.25
578.836	161.25
579.602	148.25
580.368	145.25
581.134	138.25
581.9	128.25
582.666	123.25
583.432	111.25
584.198	110.25
584.964	104.25
585.729	98.25
586.495	85.25
587.26	84.25
588.025	82.25
588.791	77.25
589.556	77.25
590.321	72.25
591.086	66.25
591.851	65.25
592.616	60.25
593.381	56.25
594.146	53.25
594.911	52.25
595.675	46.25
596.44	46.25
597.204	46.25
597.969	41.25
598.733	39.25
599.497	40.25
600.261	35.25
601.025	37.25
601.79	34.25
602.553	34.25
603.317	28.25
604.081	27.25
604.845	26.25
605.609	28.25
606.372	26.25
607.136	25.25
607.899	22.25
608.662	23.25
609.426	20.25
610.189	22.25
610.952	21.25
611.715	18.25
612.478	18.25
613.241	20.25
614.004	16.25
614.767	16.25
615.529	14.25
616.292	15.25
617.055	11.25
617.817	11.25
618.579	14.25
619.342	12.25
620.104	14.25
620.866	14.25
621.628	12.25
622.39	9.25
623.152	10.25
623.914	11.25
624.676	9.25
625.438	10.25
626.199	11.25
626.961	10.25
627.722	9.25
628.484	6.25
629.245	11.25
630.006	6.25
630.768	8.25
631.529	7.25
632.29	8.25
633.051	8.25
633.812	5.25
634.573	8.25
635.333	8.25
636.094	7.25
636.855	6.25
637.615	6.25
638.376	4.25
639.136	6.25
639.896	3.25
640.657	5.25
641.417	4.25
642.177	5.25
642.937	5.25
643.697	2.25
644.457	4.25
645.216	4.25
645.976	5.25
646.736	5.25
647.495	3.25
648.255	4.25
649.014	5.25
649.774	5.25
650.533	5.25
651.292	0.25
652.051	4.25
652.81	4.25
653.569	2.25
654.328	2.25
655.087	5.25
655.846	3.25
656.604	2.25
657.363	4.25
658.121	4.25
658.88	4.25
659.638	3.25
660.397	4.25
661.155	4.25
661.913	2.25
662.671	4.25
663.429	4.25
664.187	2.25
664.945	4.25
665.703	3.25
666.46	2.25
667.218	3.25
667.976	3.25
668.733	4.25
669.49	5.25
670.248	3.25
671.005	3.25
671.762	1.25
672.519	-0.75
673.276	4.25
674.033	2.25
674.79	2.25
675.547	4.25
676.304	1.25
677.06	1.25
677.817	1.25
678.574	4.25
679.33	3.25
680.086	2.25
680.843	2.25
681.599	0.25
682.355	3.25
683.111	2.25
683.867	2.25
684.623	2.25
685.379	0.25
686.135	3.25
686.89	1.25
687.646	2.25
688.402	2.25
689.157	4.25
689.912	3.25
690.668	3.25
691.423	2.25
692.178	2.25
692.933	3.25
693.688	-0.75
694.443	2.25
695.198	1.25
695.953	-0.75
696.708	3.25
697.462	2.25
698.217	3.25
698.972	3.25
699.726	1.25
700.48	0.25
701.235	2.25
701.989	1.25
702.743	3.25
703.497	3.25
704.251	1.25
705.005	2.25
705.759	2.25
706.513	1.25
707.266	4.25
708.02	1.25
708.774	2.25
709.527	4.25
710.28	1.25
711.034	2.25
711.787	2.25
712.54	3.25
713.293	0.25
714.046	3.25
714.799	1.25
715.552	2.25
716.305	2.25
717.058	1.25
717.81	2.25
718.563	4.25
719.315	1.25
720.068	1.25
720.82	2.25
721.573	3.25
722.325	0.25
723.077	3.25
723.829	-0.75
724.581	1.25
725.333	-0.75
726.085	1.25
726.836	1.25
727.588	1.25
728.34	1.25
729.091	1.25
729.843	4.25
730.594	0.25
731.346	4.25
732.097	0.25
732.848	1.25
733.599	1.25
734.35	2.25
735.101	4.25
735.852	-0.75
736.603	1.25
737.354	2.25
738.104	1.25
738.855	3.25
739.605	1.25
740.356	1.25
741.106	2.25
741.856	2.25
742.607	2.25
743.357	1.25
744.107	2.25
744.857	4.25
745.607	4.25
746.357	3.25
747.106	2.25
747.856	2.25
748.606	1.25
749.355	5.25
750.105	2.25
750.854	2.25
751.603	1.25
752.353	1.25
753.102	3.25
753.851	0.25
754.6	2.25
755.349	4.25
756.098	5.25
756.847	2.25
757.595	3.25
758.344	3.25
759.093	3.25
759.841	2.25
760.589	4.25
761.338	3.25
762.086	4.25
762.834	2.25
763.582	4.25
764.331	3.25
765.079	5.25
765.826	6.25
766.574	3.25
767.322	5.25
768.07	2.25
768.817	5.25
769.565	2.25
770.312	6.25
771.06	4.25
771.807	3.25
772.554	5.25
773.302	5.25
774.049	6.25
774.796	5.25
775.543	4.25
776.29	5.25
777.036	5.25
777.783	6.25
778.53	5.25
779.276	7.25
780.023	5.25
780.769	5.25
781.516	4.25
782.262	6.25
783.008	7.25
783.754	3.25
784.5	4.25
785.246	4.25
785.992	5.25
786.738	5.25
787.484	4.25
788.23	6.25
788.975	5.25
789.721	3.25
790.466	3.25
791.212	2.25
791.957	3.25
792.702	4.25
793.447	3.25
794.193	5.25
794.938	4.25
795.683	6.25
796.427	3.25
797.172	5.25
797.917	5.25
798.662	6.25
799.406	3.25
800.151	5.25
800.895	4.25
801.64	5.25
802.384	7.25
803.128	4.25
803.872	4.25
804.616	3.25
805.36	4.25
806.104	3.25
806.848	5.25
807.592	4.25
808.336	3.25
809.079	5.25
809.823	2.25
810.566	4.25
811.31	4.25
812.053	5.25
812.796	5.25
813.539	3.25
814.283	2.25
815.026	5.25
815.769	4.25
816.511	1.25
817.254	4.25
817.997	2.25
818.74	3.25
819.482	4.25
820.225	2.25
820.967	5.25
821.71	2.25
822.452	2.25
823.194	2.25
823.936	3.25
824.678	4.25
825.42	2.25
826.162	3.25
826.904	4.25
827.646	4.25
828.388	3.25
829.129	3.25
829.871	5.25
830.612	4.25
831.354	3.25
832.095	1.25
832.836	5.25
833.577	4.25
834.319	0.25
835.06	4.25
835.801	3.25
836.542	1.25
837.282	3.25
838.023	1.25
838.764	1.25
839.504	2.25
840.245	0.25
840.985	2.25
841.726	2.25
842.466	4.25
843.206	-0.75
843.946	1.25
844.687	-0.75
845.427	4.25
846.166	2.25
846.906	3.25
847.646	2.25
848.386	4.25
849.125	2.25
849.865	1.25
850.605	2.25
851.344	2.25
852.083	1.25
852.823	1.25
853.562	2.25
854.301	1.25
855.04	1.25
855.779	1.25
856.518	4.25
857.257	1.25
857.995	1.25
858.734	2.25
859.473	3.25
860.211	1.25
860.95	3.25
861.688	3.25
862.426	1.25
863.165	1.25
863.903	-1.75
864.641	3.25
865.379	2.25
866.117	2.25
866.855	1.25
867.593	1.25
868.33	3.25
869.068	1.25
869.806	2.25
870.543	1.25
871.28	3.25
872.018	1.25
872.755	0.25
873.492	2.25
874.229	-0.75
874.967	1.25
875.703	1.25
876.44	-0.75
877.177	1.25
877.914	2.25
878.651	3.25
879.387	1.25
880.124	0.25
880.86	0.25
881.597	1.25
882.333	1.25
883.069	-0.75
883.806	2.25
884.542	-1.75
885.278	1.25
886.014	1.25
886.749	0.25
887.485	2.25
888.221	0.25
888.957	-0.75
889.692	2.25
890.428	2.25
891.163	-0.75
891.899	1.25
892.634	2.25
893.369	0.25
894.104	1.25
894.839	1.25
895.574	2.25
896.309	0.25
897.044	0.25
897.779	0.25
898.514	1.25
899.248	2.25
899.983	0.25
900.717	2.25
901.452	-1.75
902.186	0.25
902.92	1.25
903.654	-0.75
904.389	-0.75
905.123	-0.75
905.857	0.25
906.59	1.25
907.324	2.25
908.058	0.25
908.792	2.25
909.525	1.25
910.259	0.25
910.992	-0.75
911.726	2.25
912.459	1.25
913.192	0.25
913.925	1.25
914.658	-1.75
915.391	0.25
916.124	2.25
916.857	2.25
917.59	1.25
918.323	0.25
919.055	-1.75
919.788	2.25
920.521	-1.75
921.253	3.25
921.985	1.25
922.718	1.25
923.45	-2.75
924.182	-1.75
924.914	-1.75
925.646	0.25
926.378	0.25
927.11	0.25
927.841	0.25
928.573	2.25
929.305	-1.75
930.036	0.25
930.768	2.25
931.499	1.25
932.23	1.25
932.962	-0.75
933.693	0.25
934.424	1.25
935.155	2.25
935.886	-0.75
936.617	-0.75
937.348	1.25
938.078	0.25
938.809	1.25
939.54	-0.75
940.27	-0.75
941.001	-0.75
941.731	0.25
942.461	1.25
943.191	1.25
943.922	0.25
944.652	0.25
945.382	1.25
946.112	0.25
946.841	-0.75
947.571	1.25
948.301	0.25
949.031	1.25
949.76	-0.75
950.49	0.25
951.219	0.25
951.948	0.25
952.678	-0.75
953.407	0.25
954.136	-0.75
954.865	-0.75
955.594	-0.75
956.323	-0.75
957.052	0.25
957.78	0.25
958.509	1.25
959.238	-0.75
959.966	-1.75
960.695	1.25
961.423	0.25
962.151	2.25
962.88	1.25
963.608	-1.75
964.336	-0.75
965.064	-0.75
965.792	-0.75
966.52	1.25
967.247	-0.75
967.975	0.25
968.703	0.25
969.43	-1.75
970.158	-0.75
970.885	0.25
971.613	1.25
972.34	1.25
973.067	1.25
973.794	0.25
974.521	-0.75
975.248	0.25
975.975	0.25
976.702	-0.75
977.429	0.25
978.156	0.25
978.882	-1.75
979.609	0.25
980.335	-1.75
981.062	1.25
981.788	1.25
982.514	-0.75
983.24	-1.75
983.967	0.25
984.693	0.25
985.419	-0.75
986.144	-0.75
986.87	0.25
987.596	2.25
988.322	1.25
989.047	-1.75
989.773	3.25
990.498	-1.75
991.224	-1.75
991.949	1.25
992.674	-0.75
993.399	3.25
994.124	-0.75
994.849	0.25
995.574	-0.75
996.299	1.25
997.024	1.25
997.749	-0.75
998.473	1.25
999.198	1.25
999.922	1.25
1000.647	0.25
1001.371	5.25
1002.095	-1.75
1002.82	-0.75
1003.544	-1.75
1004.268	0.25
1004.992	0.25
1005.716	-0.75
1006.439	-1.75
1007.163	-0.75
1007.887	-0.75
1008.611	-0.75
1009.334	0.25
1010.058	-1.75
1010.781	1.25
1011.504	-1.75
1012.228	0.25
1012.951	1.25
1013.674	-1.75
1014.397	0.25
1015.12	-0.75
