节点500_145_QEPB04081__235__11-32-44-476.txt的数据

Date: Wed Nov 12 11:32:44 CST 2025
User: PC
Spectrometer: QEPB0408
触发模式: 0
积分时间 (秒): 1.000000E-2
Scans to average: 1
启用暗噪声校正: true
启用非线性校正: false
滑动平均宽度: 0
X轴模式: Wavelengths
Number of Pixels in Spectrum: 1044
>>>>>Begin Spectral Data<<<<<
220.843	0.5
221.644	1.5
222.444	0.5
223.244	-0.5
224.045	-1.5
224.845	4.5
225.645	0.5
226.445	-0.5
227.245	2.5
228.045	0.5
228.845	0.5
229.645	0.5
230.444	1.5
231.244	0.5
232.043	1.5
232.843	0.5
233.642	1.5
234.442	2.5
235.241	0.5
236.04	0.5
236.839	2.5
237.638	0.5
238.437	1.5
239.236	0.5
240.035	0.5
240.833	0.5
241.632	1.5
242.43	2.5
243.229	2.5
244.027	0.5
244.826	1.5
245.624	2.5
246.422	2.5
247.22	3.5
248.018	4.5
248.816	4.5
249.614	1.5
250.412	3.5
251.21	2.5
252.007	1.5
252.805	2.5
253.602	1.5
254.4	0.5
255.197	4.5
255.994	4.5
256.791	5.5
257.589	5.5
258.386	3.5
259.183	2.5
259.979	3.5
260.776	5.5
261.573	1.5
262.37	5.5
263.166	6.5
263.963	5.5
264.759	2.5
265.556	4.5
266.352	6.5
267.148	5.5
267.944	5.5
268.74	9.5
269.536	7.5
270.332	6.5
271.128	6.5
271.924	8.5
272.719	8.5
273.515	5.5
274.311	6.5
275.106	7.5
275.901	8.5
276.697	8.5
277.492	10.5
278.287	10.5
279.082	10.5
279.877	8.5
280.672	9.5
281.467	9.5
282.262	6.5
283.056	8.5
283.851	9.5
284.646	8.5
285.44	9.5
286.234	9.5
287.029	10.5
287.823	10.5
288.617	11.5
289.411	9.5
290.205	9.5
290.999	9.5
291.793	8.5
292.587	9.5
293.381	9.5
294.174	11.5
294.968	9.5
295.761	4.5
296.555	9.5
297.348	8.5
298.141	9.5
298.935	8.5
299.728	9.5
300.521	7.5
301.314	9.5
302.107	9.5
302.899	5.5
303.692	7.5
304.485	8.5
305.277	10.5
306.07	8.5
306.862	6.5
307.655	7.5
308.447	6.5
309.239	9.5
310.031	8.5
310.823	6.5
311.615	5.5
312.407	6.5
313.199	8.5
313.991	5.5
314.783	8.5
315.574	6.5
316.366	7.5
317.157	5.5
317.949	4.5
318.74	3.5
319.531	6.5
320.322	4.5
321.113	5.5
321.904	7.5
322.695	4.5
323.486	3.5
324.277	5.5
325.068	4.5
325.858	3.5
326.649	3.5
327.439	3.5
328.23	3.5
329.02	1.5
329.81	5.5
330.6	2.5
331.391	5.5
332.181	3.5
332.971	5.5
333.76	2.5
334.55	1.5
335.34	5.5
336.13	4.5
336.919	3.5
337.709	3.5
338.498	4.5
339.287	4.5
340.077	4.5
340.866	5.5
341.655	2.5
342.444	2.5
343.233	2.5
344.022	2.5
344.811	3.5
345.6	1.5
346.388	3.5
347.177	5.5
347.965	3.5
348.754	3.5
349.542	3.5
350.33	2.5
351.119	2.5
351.907	5.5
352.695	2.5
353.483	2.5
354.271	2.5
355.059	0.5
355.846	1.5
356.634	3.5
357.422	4.5
358.209	3.5
358.997	3.5
359.784	2.5
360.571	3.5
361.359	3.5
362.146	2.5
362.933	2.5
363.72	2.5
364.507	2.5
365.294	2.5
366.081	4.5
366.867	2.5
367.654	3.5
368.44	1.5
369.227	-0.5
370.013	3.5
370.8	4.5
371.586	3.5
372.372	5.5
373.158	0.5
373.944	5.5
374.73	3.5
375.516	2.5
376.302	2.5
377.088	0.5
377.873	2.5
378.659	2.5
379.445	2.5
380.23	4.5
381.015	2.5
381.801	4.5
382.586	3.5
383.371	5.5
384.156	3.5
384.941	3.5
385.726	3.5
386.511	2.5
387.296	1.5
388.08	2.5
388.865	5.5
389.649	2.5
390.434	4.5
391.218	4.5
392.003	4.5
392.787	4.5
393.571	2.5
394.355	2.5
395.139	2.5
395.923	3.5
396.707	6.5
397.491	1.5
398.274	7.5
399.058	3.5
399.842	3.5
400.625	1.5
401.408	1.5
402.192	2.5
402.975	1.5
403.758	5.5
404.541	3.5
405.324	5.5
406.107	3.5
406.89	4.5
407.673	6.5
408.456	6.5
409.238	5.5
410.021	4.5
410.803	2.5
411.586	3.5
412.368	6.5
413.151	3.5
413.933	5.5
414.715	4.5
415.497	3.5
416.279	4.5
417.061	6.5
417.843	5.5
418.624	5.5
419.406	5.5
420.188	4.5
420.969	2.5
421.751	5.5
422.532	5.5
423.313	4.5
424.095	9.5
424.876	3.5
425.657	6.5
426.438	5.5
427.219	7.5
428	8.5
428.78	8.5
429.561	8.5
430.342	6.5
431.122	9.5
431.903	5.5
432.683	10.5
433.464	9.5
434.244	8.5
435.024	7.5
435.804	8.5
436.584	10.5
437.364	8.5
438.144	9.5
438.924	10.5
439.704	8.5
440.483	11.5
441.263	9.5
442.042	14.5
442.822	14.5
443.601	11.5
444.38	11.5
445.16	12.5
445.939	14.5
446.718	16.5
447.497	14.5
448.276	19.5
449.054	20.5
449.833	21.5
450.612	21.5
451.391	23.5
452.169	26.5
452.948	28.5
453.726	29.5
454.504	34.5
455.282	38.5
456.061	40.5
456.839	46.5
457.617	51.5
458.395	54.5
459.172	61.5
459.95	64.5
460.728	75.5
461.506	82.5
462.283	94.5
463.061	98.5
463.838	113.5
464.615	120.5
465.393	135.5
466.17	156.5
466.947	169.5
467.724	194.5
468.501	215.5
469.278	236.5
470.055	271.5
470.831	303.5
471.608	329.5
472.385	377.5
473.161	417.5
473.938	463.5
474.714	510.5
475.49	569.5
476.266	623.5
477.043	700.5
477.819	773.5
478.595	859.5
479.371	951.5
480.146	1038.5
480.922	1161.5
481.698	1278.5
482.473	1412.5
483.249	1556.5
484.024	1726.5
484.8	1906.5
485.575	2101.5
486.35	2343.5
487.126	2568.5
487.901	2838.5
488.676	3116.5
489.451	3439.5
490.225	3779.5
491	4170.5
491.775	4581.5
492.55	5045.5
493.324	5514.5
494.099	6062.5
494.873	6599.5
495.647	7198.5
496.422	7823.5
497.196	8462.5
497.97	9168.5
498.744	9873.5
499.518	10562.5
500.292	11225.5
501.066	11904.5
501.839	12535.5
502.613	13191.5
503.387	13799.5
504.16	14240.5
504.934	14660.5
505.707	15003.5
506.48	15215.5
507.253	15348.5
508.027	15337.5
508.8	15290.5
509.573	15096.5
510.346	14862.5
511.118	14524.5
511.891	14159.5
512.664	13679.5
513.437	13178.5
514.209	12675.5
514.982	12227.5
515.754	11657.5
516.526	11176.5
517.298	10652.5
518.071	10153.5
518.843	9686.5
519.615	9274.5
520.387	8930.5
521.159	8573.5
521.93	8201.5
522.702	7863.5
523.474	7590.5
524.245	7302.5
525.017	6984.5
525.788	6707.5
526.56	6467.5
527.331	6187.5
528.102	5893.5
528.873	5637.5
529.644	5401.5
530.415	5119.5
531.186	4878.5
531.957	4643.5
532.728	4380.5
533.498	4167.5
534.269	3940.5
535.039	3713.5
535.81	3488.5
536.58	3321.5
537.351	3132.5
538.121	2956.5
538.891	2781.5
539.661	2633.5
540.431	2486.5
541.201	2366.5
541.971	2239.5
542.741	2115.5
543.51	2010.5
544.28	1903.5
545.05	1813.5
545.819	1706.5
546.588	1641.5
547.358	1547.5
548.127	1466.5
548.896	1403.5
549.665	1337.5
550.434	1253.5
551.203	1186.5
551.972	1140.5
552.741	1088.5
553.51	1016.5
554.278	969.5
555.047	903.5
555.815	855.5
556.584	814.5
557.352	769.5
558.121	718.5
558.889	679.5
559.657	635.5
560.425	598.5
561.193	565.5
561.961	526.5
562.729	504.5
563.496	468.5
564.264	456.5
565.032	424.5
565.799	398.5
566.567	376.5
567.334	360.5
568.101	333.5
568.869	315.5
569.636	295.5
570.403	282.5
571.17	272.5
571.937	252.5
572.704	239.5
573.471	221.5
574.237	206.5
575.004	195.5
575.771	184.5
576.537	179.5
577.303	169.5
578.07	154.5
578.836	148.5
579.602	135.5
580.368	130.5
581.134	121.5
581.9	109.5
582.666	112.5
583.432	104.5
584.198	99.5
584.964	94.5
585.729	88.5
586.495	86.5
587.26	80.5
588.025	74.5
588.791	74.5
589.556	68.5
590.321	66.5
591.086	61.5
591.851	55.5
592.616	53.5
593.381	51.5
594.146	47.5
594.911	51.5
595.675	42.5
596.44	43.5
597.204	43.5
597.969	38.5
598.733	36.5
599.497	37.5
600.261	33.5
601.025	32.5
601.79	30.5
602.553	26.5
603.317	27.5
604.081	25.5
604.845	27.5
605.609	27.5
606.372	23.5
607.136	25.5
607.899	22.5
608.662	22.5
609.426	19.5
610.189	17.5
610.952	19.5
611.715	19.5
612.478	15.5
613.241	17.5
614.004	17.5
614.767	18.5
615.529	15.5
616.292	13.5
617.055	13.5
617.817	15.5
618.579	13.5
619.342	13.5
620.104	13.5
620.866	10.5
621.628	9.5
622.39	13.5
623.152	8.5
623.914	10.5
624.676	7.5
625.438	9.5
626.199	7.5
626.961	10.5
627.722	9.5
628.484	8.5
629.245	9.5
630.006	7.5
630.768	8.5
631.529	5.5
632.29	7.5
633.051	6.5
633.812	4.5
634.573	5.5
635.333	4.5
636.094	6.5
636.855	6.5
637.615	4.5
638.376	5.5
639.136	6.5
639.896	6.5
640.657	5.5
641.417	4.5
642.177	5.5
642.937	5.5
643.697	2.5
644.457	5.5
645.216	3.5
645.976	4.5
646.736	5.5
647.495	2.5
648.255	2.5
649.014	3.5
649.774	2.5
650.533	5.5
651.292	1.5
652.051	4.5
652.81	3.5
653.569	5.5
654.328	2.5
655.087	4.5
655.846	1.5
656.604	1.5
657.363	2.5
658.121	4.5
658.88	1.5
659.638	2.5
660.397	2.5
661.155	3.5
661.913	4.5
662.671	3.5
663.429	2.5
664.187	2.5
664.945	2.5
665.703	1.5
666.46	2.5
667.218	2.5
667.976	5.5
668.733	2.5
669.49	3.5
670.248	2.5
671.005	2.5
671.762	1.5
672.519	3.5
673.276	3.5
674.033	4.5
674.79	2.5
675.547	5.5
676.304	0.5
677.06	1.5
677.817	1.5
678.574	3.5
679.33	2.5
680.086	2.5
680.843	2.5
681.599	2.5
682.355	2.5
683.111	2.5
683.867	3.5
684.623	2.5
685.379	2.5
686.135	2.5
686.89	4.5
687.646	4.5
688.402	1.5
689.157	3.5
689.912	2.5
690.668	1.5
691.423	3.5
692.178	2.5
692.933	3.5
693.688	2.5
694.443	2.5
695.198	0.5
695.953	2.5
696.708	2.5
697.462	0.5
698.217	1.5
698.972	-0.5
699.726	2.5
700.48	1.5
701.235	1.5
701.989	2.5
702.743	1.5
703.497	3.5
704.251	1.5
705.005	5.5
705.759	1.5
706.513	3.5
707.266	1.5
708.02	2.5
708.774	2.5
709.527	2.5
710.28	4.5
711.034	3.5
711.787	0.5
712.54	1.5
713.293	0.5
714.046	2.5
714.799	2.5
715.552	0.5
716.305	2.5
717.058	2.5
717.81	2.5
718.563	4.5
719.315	3.5
720.068	0.5
720.82	2.5
721.573	1.5
722.325	1.5
723.077	2.5
723.829	1.5
724.581	1.5
725.333	1.5
726.085	1.5
726.836	2.5
727.588	4.5
728.34	3.5
729.091	3.5
729.843	2.5
730.594	1.5
731.346	1.5
732.097	2.5
732.848	2.5
733.599	3.5
734.35	3.5
735.101	3.5
735.852	2.5
736.603	3.5
737.354	2.5
738.104	-1.5
738.855	2.5
739.605	2.5
740.356	2.5
741.106	2.5
741.856	3.5
742.607	3.5
743.357	1.5
744.107	0.5
744.857	2.5
745.607	3.5
746.357	3.5
747.106	2.5
747.856	2.5
748.606	1.5
749.355	4.5
750.105	1.5
750.854	5.5
751.603	2.5
752.353	1.5
753.102	2.5
753.851	1.5
754.6	-0.5
755.349	2.5
756.098	1.5
756.847	5.5
757.595	2.5
758.344	3.5
759.093	1.5
759.841	4.5
760.589	3.5
761.338	4.5
762.086	3.5
762.834	2.5
763.582	4.5
764.331	2.5
765.079	5.5
765.826	4.5
766.574	3.5
767.322	6.5
768.07	5.5
768.817	4.5
769.565	2.5
770.312	1.5
771.06	3.5
771.807	3.5
772.554	4.5
773.302	3.5
774.049	2.5
774.796	6.5
775.543	3.5
776.29	5.5
777.036	7.5
777.783	5.5
778.53	4.5
779.276	4.5
780.023	5.5
780.769	5.5
781.516	5.5
782.262	5.5
783.008	5.5
783.754	6.5
784.5	4.5
785.246	5.5
785.992	4.5
786.738	6.5
787.484	2.5
788.23	4.5
788.975	3.5
789.721	5.5
790.466	5.5
791.212	5.5
791.957	5.5
792.702	3.5
793.447	5.5
794.193	7.5
794.938	3.5
795.683	4.5
796.427	5.5
797.172	4.5
797.917	2.5
798.662	4.5
799.406	3.5
800.151	5.5
800.895	5.5
801.64	3.5
802.384	5.5
803.128	4.5
803.872	5.5
804.616	3.5
805.36	5.5
806.104	5.5
806.848	5.5
807.592	5.5
808.336	6.5
809.079	4.5
809.823	5.5
810.566	5.5
811.31	2.5
812.053	4.5
812.796	2.5
813.539	2.5
814.283	2.5
815.026	2.5
815.769	5.5
816.511	5.5
817.254	2.5
817.997	2.5
818.74	2.5
819.482	3.5
820.225	3.5
820.967	2.5
821.71	4.5
822.452	3.5
823.194	2.5
823.936	2.5
824.678	3.5
825.42	2.5
826.162	4.5
826.904	4.5
827.646	0.5
828.388	4.5
829.129	3.5
829.871	2.5
830.612	3.5
831.354	2.5
832.095	2.5
832.836	3.5
833.577	2.5
834.319	3.5
835.06	4.5
835.801	4.5
836.542	3.5
837.282	5.5
838.023	2.5
838.764	3.5
839.504	1.5
840.245	4.5
840.985	1.5
841.726	2.5
842.466	3.5
843.206	3.5
843.946	5.5
844.687	2.5
845.427	1.5
846.166	3.5
846.906	1.5
847.646	2.5
848.386	2.5
849.125	3.5
849.865	2.5
850.605	0.5
851.344	1.5
852.083	2.5
852.823	2.5
853.562	3.5
854.301	3.5
855.04	1.5
855.779	2.5
856.518	3.5
857.257	0.5
857.995	2.5
858.734	1.5
859.473	3.5
860.211	1.5
860.95	1.5
861.688	2.5
862.426	-0.5
863.165	1.5
863.903	2.5
864.641	1.5
865.379	5.5
866.117	1.5
866.855	0.5
867.593	1.5
868.33	0.5
869.068	3.5
869.806	1.5
870.543	1.5
871.28	1.5
872.018	1.5
872.755	1.5
873.492	-0.5
874.229	0.5
874.967	1.5
875.703	1.5
876.44	0.5
877.177	-0.5
877.914	1.5
878.651	3.5
879.387	2.5
880.124	0.5
880.86	1.5
881.597	-0.5
882.333	1.5
883.069	0.5
883.806	2.5
884.542	-1.5
885.278	1.5
886.014	0.5
886.749	0.5
887.485	2.5
888.221	-1.5
888.957	-0.5
889.692	1.5
890.428	1.5
891.163	0.5
891.899	1.5
892.634	0.5
893.369	1.5
894.104	2.5
894.839	1.5
895.574	0.5
896.309	0.5
897.044	2.5
897.779	1.5
898.514	-0.5
899.248	0.5
899.983	2.5
900.717	0.5
901.452	0.5
902.186	1.5
902.92	2.5
903.654	-1.5
904.389	2.5
905.123	1.5
905.857	0.5
906.59	1.5
907.324	-0.5
908.058	1.5
908.792	-1.5
909.525	0.5
910.259	2.5
910.992	1.5
911.726	-0.5
912.459	3.5
913.192	0.5
913.925	-0.5
914.658	1.5
915.391	-0.5
916.124	0.5
916.857	0.5
917.59	1.5
918.323	0.5
919.055	-0.5
919.788	0.5
920.521	-0.5
921.253	0.5
921.985	-1.5
922.718	-0.5
923.45	2.5
924.182	1.5
924.914	1.5
925.646	1.5
926.378	-0.5
927.11	1.5
927.841	-0.5
928.573	0.5
929.305	1.5
930.036	0.5
930.768	1.5
931.499	3.5
932.23	0.5
932.962	1.5
933.693	0.5
934.424	-0.5
935.155	1.5
935.886	0.5
936.617	-1.5
937.348	2.5
938.078	-1.5
938.809	-0.5
939.54	1.5
940.27	0.5
941.001	0.5
941.731	-0.5
942.461	-1.5
943.191	1.5
943.922	1.5
944.652	2.5
945.382	0.5
946.112	1.5
946.841	-0.5
947.571	-2.5
948.301	0.5
949.031	0.5
949.76	2.5
950.49	0.5
951.219	-1.5
951.948	-0.5
952.678	2.5
953.407	-0.5
954.136	1.5
954.865	0.5
955.594	0.5
956.323	1.5
957.052	0.5
957.78	-1.5
958.509	-0.5
959.238	0.5
959.966	0.5
960.695	1.5
961.423	1.5
962.151	-0.5
962.88	1.5
963.608	1.5
964.336	0.5
965.064	0.5
965.792	0.5
966.52	1.5
967.247	-0.5
967.975	0.5
968.703	-0.5
969.43	1.5
970.158	1.5
970.885	1.5
971.613	1.5
972.34	0.5
973.067	1.5
973.794	0.5
974.521	0.5
975.248	2.5
975.975	-0.5
976.702	1.5
977.429	0.5
978.156	2.5
978.882	1.5
979.609	2.5
980.335	0.5
981.062	0.5
981.788	-2.5
982.514	-0.5
983.24	-1.5
983.967	-0.5
984.693	3.5
985.419	1.5
986.144	0.5
986.87	-0.5
987.596	-0.5
988.322	-0.5
989.047	-0.5
989.773	1.5
990.498	1.5
991.224	0.5
991.949	1.5
992.674	0.5
993.399	1.5
994.124	-0.5
994.849	0.5
995.574	-1.5
996.299	1.5
997.024	1.5
997.749	1.5
998.473	2.5
999.198	-0.5
999.922	1.5
1000.647	1.5
1001.371	1.5
1002.095	0.5
1002.82	-0.5
1003.544	-0.5
1004.268	1.5
1004.992	-0.5
1005.716	-1.5
1006.439	-1.5
1007.163	0.5
1007.887	0.5
1008.611	0.5
1009.334	2.5
1010.058	2.5
1010.781	-0.5
1011.504	-0.5
1012.228	1.5
1012.951	-1.5
1013.674	-0.5
1014.397	0.5
1015.12	0.5
