节点500_145_QEPB04081__178__11-31-47-564.txt的数据

Date: Wed Nov 12 11:31:47 CST 2025
User: PC
Spectrometer: QEPB0408
触发模式: 0
积分时间 (秒): 1.000000E-2
Scans to average: 1
启用暗噪声校正: true
启用非线性校正: false
滑动平均宽度: 0
X轴模式: Wavelengths
Number of Pixels in Spectrum: 1044
>>>>>Begin Spectral Data<<<<<
220.843	1.5
221.644	-0.5
222.444	-1.5
223.244	3.5
224.045	1.5
224.845	1.5
225.645	1.5
226.445	0.5
227.245	3.5
228.045	1.5
228.845	0.5
229.645	2.5
230.444	0.5
231.244	0.5
232.043	0.5
232.843	0.5
233.642	-1.5
234.442	2.5
235.241	1.5
236.04	2.5
236.839	0.5
237.638	1.5
238.437	0.5
239.236	1.5
240.035	3.5
240.833	-0.5
241.632	1.5
242.43	3.5
243.229	2.5
244.027	3.5
244.826	0.5
245.624	3.5
246.422	2.5
247.22	3.5
248.018	4.5
248.816	2.5
249.614	4.5
250.412	2.5
251.21	3.5
252.007	2.5
252.805	5.5
253.602	4.5
254.4	3.5
255.197	4.5
255.994	3.5
256.791	3.5
257.589	6.5
258.386	2.5
259.183	5.5
259.979	4.5
260.776	4.5
261.573	1.5
262.37	6.5
263.166	4.5
263.963	6.5
264.759	6.5
265.556	4.5
266.352	4.5
267.148	6.5
267.944	5.5
268.74	7.5
269.536	7.5
270.332	7.5
271.128	5.5
271.924	10.5
272.719	7.5
273.515	10.5
274.311	9.5
275.106	11.5
275.901	10.5
276.697	11.5
277.492	7.5
278.287	9.5
279.082	12.5
279.877	11.5
280.672	7.5
281.467	9.5
282.262	10.5
283.056	10.5
283.851	11.5
284.646	10.5
285.44	11.5
286.234	12.5
287.029	10.5
287.823	10.5
288.617	12.5
289.411	12.5
290.205	13.5
290.999	11.5
291.793	11.5
292.587	10.5
293.381	12.5
294.174	9.5
294.968	12.5
295.761	11.5
296.555	12.5
297.348	8.5
298.141	13.5
298.935	10.5
299.728	8.5
300.521	8.5
301.314	8.5
302.107	9.5
302.899	5.5
303.692	10.5
304.485	8.5
305.277	9.5
306.07	7.5
306.862	7.5
307.655	8.5
308.447	8.5
309.239	7.5
310.031	10.5
310.823	8.5
311.615	6.5
312.407	7.5
313.199	5.5
313.991	4.5
314.783	8.5
315.574	7.5
316.366	6.5
317.157	4.5
317.949	5.5
318.74	6.5
319.531	8.5
320.322	5.5
321.113	6.5
321.904	7.5
322.695	6.5
323.486	3.5
324.277	5.5
325.068	4.5
325.858	3.5
326.649	5.5
327.439	3.5
328.23	1.5
329.02	3.5
329.81	5.5
330.6	3.5
331.391	5.5
332.181	5.5
332.971	5.5
333.76	2.5
334.55	4.5
335.34	7.5
336.13	3.5
336.919	3.5
337.709	3.5
338.498	4.5
339.287	5.5
340.077	5.5
340.866	2.5
341.655	1.5
342.444	3.5
343.233	2.5
344.022	2.5
344.811	6.5
345.6	0.5
346.388	3.5
347.177	4.5
347.965	4.5
348.754	2.5
349.542	5.5
350.33	3.5
351.119	1.5
351.907	4.5
352.695	4.5
353.483	1.5
354.271	4.5
355.059	0.5
355.846	2.5
356.634	4.5
357.422	2.5
358.209	4.5
358.997	3.5
359.784	3.5
360.571	4.5
361.359	3.5
362.146	1.5
362.933	3.5
363.72	4.5
364.507	2.5
365.294	2.5
366.081	3.5
366.867	2.5
367.654	1.5
368.44	2.5
369.227	0.5
370.013	1.5
370.8	1.5
371.586	3.5
372.372	3.5
373.158	2.5
373.944	3.5
374.73	2.5
375.516	6.5
376.302	3.5
377.088	1.5
377.873	0.5
378.659	2.5
379.445	3.5
380.23	5.5
381.015	3.5
381.801	3.5
382.586	2.5
383.371	5.5
384.156	3.5
384.941	3.5
385.726	1.5
386.511	1.5
387.296	4.5
388.08	2.5
388.865	2.5
389.649	2.5
390.434	3.5
391.218	2.5
392.003	4.5
392.787	5.5
393.571	3.5
394.355	3.5
395.139	3.5
395.923	3.5
396.707	1.5
397.491	2.5
398.274	1.5
399.058	4.5
399.842	5.5
400.625	4.5
401.408	5.5
402.192	5.5
402.975	5.5
403.758	3.5
404.541	2.5
405.324	4.5
406.107	4.5
406.89	6.5
407.673	4.5
408.456	3.5
409.238	4.5
410.021	2.5
410.803	7.5
411.586	5.5
412.368	4.5
413.151	6.5
413.933	3.5
414.715	4.5
415.497	4.5
416.279	5.5
417.061	5.5
417.843	4.5
418.624	4.5
419.406	4.5
420.188	7.5
420.969	5.5
421.751	8.5
422.532	5.5
423.313	5.5
424.095	6.5
424.876	5.5
425.657	6.5
426.438	5.5
427.219	6.5
428	6.5
428.78	5.5
429.561	7.5
430.342	6.5
431.122	9.5
431.903	6.5
432.683	9.5
433.464	9.5
434.244	8.5
435.024	9.5
435.804	9.5
436.584	11.5
437.364	9.5
438.144	10.5
438.924	10.5
439.704	10.5
440.483	10.5
441.263	9.5
442.042	11.5
442.822	14.5
443.601	12.5
444.38	17.5
445.16	15.5
445.939	15.5
446.718	18.5
447.497	18.5
448.276	23.5
449.054	20.5
449.833	25.5
450.612	23.5
451.391	26.5
452.169	30.5
452.948	33.5
453.726	33.5
454.504	35.5
455.282	40.5
456.061	43.5
456.839	46.5
457.617	53.5
458.395	53.5
459.172	66.5
459.95	68.5
460.728	79.5
461.506	84.5
462.283	100.5
463.061	113.5
463.838	121.5
464.615	136.5
465.393	149.5
466.17	163.5
466.947	185.5
467.724	209.5
468.501	227.5
469.278	252.5
470.055	286.5
470.831	316.5
471.608	361.5
472.385	398.5
473.161	445.5
473.938	484.5
474.714	549.5
475.49	614.5
476.266	679.5
477.043	754.5
477.819	846.5
478.595	931.5
479.371	1036.5
480.146	1142.5
480.922	1260.5
481.698	1383.5
482.473	1535.5
483.249	1705.5
484.024	1900.5
484.8	2089.5
485.575	2305.5
486.35	2560.5
487.126	2856.5
487.901	3139.5
488.676	3463.5
489.451	3831.5
490.225	4196.5
491	4676.5
491.775	5126.5
492.55	5598.5
493.324	6175.5
494.099	6793.5
494.873	7404.5
495.647	8115.5
496.422	8798.5
497.196	9497.5
497.97	10299.5
498.744	11076.5
499.518	11856.5
500.292	12618.5
501.066	13369.5
501.839	14116.5
502.613	14833.5
503.387	15384.5
504.16	15919.5
504.934	16380.5
505.707	16717.5
506.48	16963.5
507.253	17080.5
508.027	17095.5
508.8	16944.5
509.573	16735.5
510.346	16353.5
511.118	15965.5
511.891	15498.5
512.664	14997.5
513.437	14446.5
514.209	13870.5
514.982	13259.5
515.754	12679.5
516.526	12113.5
517.298	11561.5
518.071	11044.5
518.843	10556.5
519.615	10102.5
520.387	9697.5
521.159	9298.5
521.93	8914.5
522.702	8576.5
523.474	8224.5
524.245	7930.5
525.017	7613.5
525.788	7276.5
526.56	7021.5
527.331	6691.5
528.102	6401.5
528.873	6101.5
529.644	5834.5
530.415	5573.5
531.186	5273.5
531.957	5005.5
532.728	4766.5
533.498	4490.5
534.269	4233.5
535.039	3991.5
535.81	3786.5
536.58	3552.5
537.351	3375.5
538.121	3173.5
538.891	3018.5
539.661	2833.5
540.431	2675.5
541.201	2534.5
541.971	2411.5
542.741	2287.5
543.51	2157.5
544.28	2046.5
545.05	1948.5
545.819	1846.5
546.588	1759.5
547.358	1675.5
548.127	1577.5
548.896	1524.5
549.665	1431.5
550.434	1364.5
551.203	1282.5
551.972	1228.5
552.741	1163.5
553.51	1096.5
554.278	1031.5
555.047	960.5
555.815	938.5
556.584	857.5
557.352	820.5
558.121	781.5
558.889	721.5
559.657	679.5
560.425	653.5
561.193	605.5
561.961	579.5
562.729	541.5
563.496	498.5
564.264	477.5
565.032	459.5
565.799	435.5
566.567	405.5
567.334	378.5
568.101	359.5
568.869	344.5
569.636	322.5
570.403	302.5
571.17	290.5
571.937	269.5
572.704	262.5
573.471	241.5
574.237	225.5
575.004	217.5
575.771	206.5
576.537	190.5
577.303	174.5
578.07	168.5
578.836	159.5
579.602	144.5
580.368	141.5
581.134	131.5
581.9	125.5
582.666	116.5
583.432	115.5
584.198	111.5
584.964	97.5
585.729	99.5
586.495	93.5
587.26	84.5
588.025	85.5
588.791	76.5
589.556	73.5
590.321	69.5
591.086	65.5
591.851	61.5
592.616	56.5
593.381	56.5
594.146	51.5
594.911	53.5
595.675	47.5
596.44	46.5
597.204	47.5
597.969	41.5
598.733	41.5
599.497	36.5
600.261	40.5
601.025	36.5
601.79	37.5
602.553	32.5
603.317	31.5
604.081	27.5
604.845	28.5
605.609	26.5
606.372	23.5
607.136	23.5
607.899	21.5
608.662	22.5
609.426	20.5
610.189	22.5
610.952	19.5
611.715	18.5
612.478	18.5
613.241	17.5
614.004	18.5
614.767	16.5
615.529	14.5
616.292	18.5
617.055	15.5
617.817	14.5
618.579	13.5
619.342	13.5
620.104	12.5
620.866	12.5
621.628	14.5
622.39	8.5
623.152	10.5
623.914	9.5
624.676	7.5
625.438	9.5
626.199	11.5
626.961	9.5
627.722	9.5
628.484	8.5
629.245	7.5
630.006	10.5
630.768	7.5
631.529	8.5
632.29	9.5
633.051	9.5
633.812	7.5
634.573	7.5
635.333	5.5
636.094	3.5
636.855	4.5
637.615	8.5
638.376	4.5
639.136	7.5
639.896	7.5
640.657	5.5
641.417	5.5
642.177	3.5
642.937	6.5
643.697	4.5
644.457	5.5
645.216	4.5
645.976	5.5
646.736	2.5
647.495	4.5
648.255	4.5
649.014	4.5
649.774	4.5
650.533	2.5
651.292	2.5
652.051	4.5
652.81	4.5
653.569	2.5
654.328	4.5
655.087	4.5
655.846	5.5
656.604	2.5
657.363	4.5
658.121	3.5
658.88	3.5
659.638	3.5
660.397	4.5
661.155	2.5
661.913	2.5
662.671	2.5
663.429	4.5
664.187	4.5
664.945	0.5
665.703	1.5
666.46	2.5
667.218	2.5
667.976	6.5
668.733	2.5
669.49	3.5
670.248	2.5
671.005	2.5
671.762	4.5
672.519	3.5
673.276	2.5
674.033	2.5
674.79	2.5
675.547	4.5
676.304	2.5
677.06	3.5
677.817	2.5
678.574	3.5
679.33	3.5
680.086	3.5
680.843	3.5
681.599	2.5
682.355	1.5
683.111	2.5
683.867	3.5
684.623	2.5
685.379	1.5
686.135	1.5
686.89	2.5
687.646	2.5
688.402	1.5
689.157	1.5
689.912	1.5
690.668	1.5
691.423	1.5
692.178	3.5
692.933	2.5
693.688	2.5
694.443	3.5
695.198	3.5
695.953	3.5
696.708	4.5
697.462	2.5
698.217	1.5
698.972	1.5
699.726	1.5
700.48	1.5
701.235	3.5
701.989	2.5
702.743	2.5
703.497	2.5
704.251	1.5
705.005	0.5
705.759	4.5
706.513	0.5
707.266	2.5
708.02	2.5
708.774	3.5
709.527	2.5
710.28	2.5
711.034	1.5
711.787	2.5
712.54	3.5
713.293	-1.5
714.046	4.5
714.799	0.5
715.552	1.5
716.305	1.5
717.058	2.5
717.81	2.5
718.563	2.5
719.315	3.5
720.068	2.5
720.82	2.5
721.573	2.5
722.325	1.5
723.077	0.5
723.829	3.5
724.581	5.5
725.333	3.5
726.085	2.5
726.836	1.5
727.588	1.5
728.34	2.5
729.091	3.5
729.843	3.5
730.594	2.5
731.346	3.5
732.097	-0.5
732.848	1.5
733.599	2.5
734.35	4.5
735.101	7.5
735.852	4.5
736.603	1.5
737.354	3.5
738.104	0.5
738.855	3.5
739.605	2.5
740.356	1.5
741.106	1.5
741.856	2.5
742.607	4.5
743.357	2.5
744.107	3.5
744.857	1.5
745.607	2.5
746.357	3.5
747.106	1.5
747.856	3.5
748.606	2.5
749.355	5.5
750.105	4.5
750.854	2.5
751.603	2.5
752.353	3.5
753.102	2.5
753.851	5.5
754.6	3.5
755.349	2.5
756.098	4.5
756.847	3.5
757.595	3.5
758.344	2.5
759.093	1.5
759.841	4.5
760.589	3.5
761.338	5.5
762.086	5.5
762.834	2.5
763.582	5.5
764.331	4.5
765.079	2.5
765.826	5.5
766.574	2.5
767.322	4.5
768.07	1.5
768.817	4.5
769.565	2.5
770.312	5.5
771.06	2.5
771.807	5.5
772.554	6.5
773.302	4.5
774.049	3.5
774.796	5.5
775.543	5.5
776.29	6.5
777.036	4.5
777.783	5.5
778.53	4.5
779.276	6.5
780.023	4.5
780.769	4.5
781.516	5.5
782.262	6.5
783.008	5.5
783.754	5.5
784.5	8.5
785.246	4.5
785.992	5.5
786.738	6.5
787.484	4.5
788.23	7.5
788.975	5.5
789.721	7.5
790.466	6.5
791.212	5.5
791.957	4.5
792.702	5.5
793.447	5.5
794.193	6.5
794.938	6.5
795.683	5.5
796.427	3.5
797.172	5.5
797.917	4.5
798.662	3.5
799.406	3.5
800.151	6.5
800.895	5.5
801.64	4.5
802.384	4.5
803.128	5.5
803.872	3.5
804.616	2.5
805.36	5.5
806.104	4.5
806.848	0.5
807.592	4.5
808.336	3.5
809.079	5.5
809.823	4.5
810.566	4.5
811.31	4.5
812.053	2.5
812.796	4.5
813.539	4.5
814.283	4.5
815.026	6.5
815.769	3.5
816.511	3.5
817.254	3.5
817.997	3.5
818.74	1.5
819.482	2.5
820.225	5.5
820.967	3.5
821.71	3.5
822.452	3.5
823.194	2.5
823.936	3.5
824.678	2.5
825.42	1.5
826.162	2.5
826.904	5.5
827.646	0.5
828.388	3.5
829.129	3.5
829.871	4.5
830.612	2.5
831.354	1.5
832.095	5.5
832.836	2.5
833.577	4.5
834.319	3.5
835.06	2.5
835.801	3.5
836.542	1.5
837.282	2.5
838.023	1.5
838.764	4.5
839.504	1.5
840.245	0.5
840.985	4.5
841.726	0.5
842.466	2.5
843.206	2.5
843.946	2.5
844.687	2.5
845.427	1.5
846.166	3.5
846.906	3.5
847.646	1.5
848.386	2.5
849.125	3.5
849.865	4.5
850.605	1.5
851.344	2.5
852.083	0.5
852.823	2.5
853.562	3.5
854.301	2.5
855.04	2.5
855.779	1.5
856.518	1.5
857.257	1.5
857.995	3.5
858.734	3.5
859.473	0.5
860.211	1.5
860.95	3.5
861.688	-0.5
862.426	1.5
863.165	1.5
863.903	-0.5
864.641	1.5
865.379	2.5
866.117	1.5
866.855	0.5
867.593	2.5
868.33	3.5
869.068	1.5
869.806	2.5
870.543	1.5
871.28	1.5
872.018	1.5
872.755	3.5
873.492	0.5
874.229	1.5
874.967	2.5
875.703	1.5
876.44	1.5
877.177	3.5
877.914	-0.5
878.651	0.5
879.387	-0.5
880.124	1.5
880.86	1.5
881.597	0.5
882.333	0.5
883.069	-0.5
883.806	1.5
884.542	2.5
885.278	1.5
886.014	3.5
886.749	0.5
887.485	-0.5
888.221	0.5
888.957	4.5
889.692	-0.5
890.428	0.5
891.163	2.5
891.899	1.5
892.634	-0.5
893.369	0.5
894.104	0.5
894.839	0.5
895.574	0.5
896.309	2.5
897.044	0.5
897.779	1.5
898.514	0.5
899.248	-0.5
899.983	1.5
900.717	2.5
901.452	-1.5
902.186	1.5
902.92	1.5
903.654	-1.5
904.389	1.5
905.123	-0.5
905.857	0.5
906.59	2.5
907.324	2.5
908.058	1.5
908.792	0.5
909.525	1.5
910.259	-1.5
910.992	2.5
911.726	2.5
912.459	0.5
913.192	-0.5
913.925	-1.5
914.658	0.5
915.391	0.5
916.124	-0.5
916.857	-0.5
917.59	0.5
918.323	1.5
919.055	-0.5
919.788	-0.5
920.521	-0.5
921.253	0.5
921.985	2.5
922.718	-1.5
923.45	0.5
924.182	0.5
924.914	0.5
925.646	1.5
926.378	1.5
927.11	1.5
927.841	2.5
928.573	-0.5
929.305	0.5
930.036	0.5
930.768	0.5
931.499	1.5
932.23	0.5
932.962	-0.5
933.693	0.5
934.424	0.5
935.155	2.5
935.886	-0.5
936.617	-2.5
937.348	-0.5
938.078	-1.5
938.809	-0.5
939.54	-0.5
940.27	2.5
941.001	0.5
941.731	0.5
942.461	0.5
943.191	-1.5
943.922	-0.5
944.652	-1.5
945.382	1.5
946.112	-0.5
946.841	0.5
947.571	1.5
948.301	0.5
949.031	0.5
949.76	-0.5
950.49	1.5
951.219	1.5
951.948	-0.5
952.678	2.5
953.407	1.5
954.136	1.5
954.865	1.5
955.594	0.5
956.323	0.5
957.052	-0.5
957.78	1.5
958.509	0.5
959.238	2.5
959.966	0.5
960.695	-0.5
961.423	0.5
962.151	2.5
962.88	-0.5
963.608	3.5
964.336	-0.5
965.064	-0.5
965.792	-1.5
966.52	1.5
967.247	-0.5
967.975	1.5
968.703	-0.5
969.43	0.5
970.158	2.5
970.885	0.5
971.613	0.5
972.34	0.5
973.067	-0.5
973.794	1.5
974.521	-0.5
975.248	1.5
975.975	1.5
976.702	3.5
977.429	1.5
978.156	0.5
978.882	0.5
979.609	-1.5
980.335	-1.5
981.062	-1.5
981.788	-0.5
982.514	1.5
983.24	1.5
983.967	1.5
984.693	1.5
985.419	0.5
986.144	2.5
986.87	1.5
987.596	-0.5
988.322	0.5
989.047	0.5
989.773	0.5
990.498	-1.5
991.224	0.5
991.949	-0.5
992.674	3.5
993.399	-0.5
994.124	0.5
994.849	-0.5
995.574	1.5
996.299	1.5
997.024	1.5
997.749	-0.5
998.473	1.5
999.198	0.5
999.922	-0.5
1000.647	0.5
1001.371	3.5
1002.095	-0.5
1002.82	-0.5
1003.544	-2.5
1004.268	-0.5
1004.992	0.5
1005.716	-1.5
1006.439	-3.5
1007.163	-1.5
1007.887	1.5
1008.611	-1.5
1009.334	1.5
1010.058	1.5
1010.781	1.5
1011.504	2.5
1012.228	0.5
1012.951	0.5
1013.674	-1.5
1014.397	0.5
1015.12	0.5
