节点500_145_QEPB04081__311__11-33-57-458.txt的数据

Date: Wed Nov 12 11:33:57 CST 2025
User: PC
Spectrometer: QEPB0408
触发模式: 0
积分时间 (秒): 1.000000E-2
Scans to average: 1
启用暗噪声校正: true
启用非线性校正: false
滑动平均宽度: 0
X轴模式: Wavelengths
Number of Pixels in Spectrum: 1044
>>>>>Begin Spectral Data<<<<<
220.843	0
221.644	0
222.444	2
223.244	-2
224.045	2
224.845	1
225.645	1
226.445	1
227.245	-1
228.045	0
228.845	0
229.645	1
230.444	2
231.244	1
232.043	3
232.843	1
233.642	1
234.442	-1
235.241	2
236.04	1
236.839	1
237.638	2
238.437	1
239.236	2
240.035	-1
240.833	2
241.632	2
242.43	0
243.229	1
244.027	0
244.826	2
245.624	1
246.422	1
247.22	-2
248.018	2
248.816	3
249.614	1
250.412	2
251.21	1
252.007	3
252.805	1
253.602	1
254.4	2
255.197	3
255.994	3
256.791	2
257.589	2
258.386	2
259.183	5
259.979	5
260.776	4
261.573	4
262.37	5
263.166	3
263.963	8
264.759	5
265.556	9
266.352	7
267.148	6
267.944	5
268.74	8
269.536	7
270.332	8
271.128	9
271.924	7
272.719	9
273.515	6
274.311	9
275.106	9
275.901	9
276.697	9
277.492	10
278.287	8
279.082	11
279.877	9
280.672	10
281.467	10
282.262	10
283.056	9
283.851	12
284.646	9
285.44	11
286.234	13
287.029	11
287.823	9
288.617	13
289.411	10
290.205	10
290.999	10
291.793	10
292.587	10
293.381	11
294.174	10
294.968	8
295.761	12
296.555	7
297.348	10
298.141	10
298.935	12
299.728	10
300.521	10
301.314	8
302.107	9
302.899	8
303.692	9
304.485	8
305.277	10
306.07	7
306.862	9
307.655	8
308.447	7
309.239	9
310.031	9
310.823	5
311.615	5
312.407	9
313.199	6
313.991	4
314.783	4
315.574	7
316.366	5
317.157	4
317.949	6
318.74	7
319.531	6
320.322	5
321.113	5
321.904	3
322.695	3
323.486	6
324.277	5
325.068	7
325.858	4
326.649	4
327.439	5
328.23	2
329.02	1
329.81	4
330.6	5
331.391	4
332.181	3
332.971	4
333.76	3
334.55	3
335.34	5
336.13	4
336.919	2
337.709	1
338.498	6
339.287	3
340.077	4
340.866	5
341.655	2
342.444	2
343.233	5
344.022	3
344.811	5
345.6	3
346.388	3
347.177	4
347.965	0
348.754	6
349.542	5
350.33	3
351.119	4
351.907	2
352.695	4
353.483	3
354.271	1
355.059	3
355.846	3
356.634	2
357.422	3
358.209	3
358.997	4
359.784	4
360.571	2
361.359	4
362.146	3
362.933	1
363.72	3
364.507	3
365.294	3
366.081	0
366.867	4
367.654	3
368.44	2
369.227	4
370.013	0
370.8	4
371.586	3
372.372	2
373.158	6
373.944	5
374.73	3
375.516	3
376.302	3
377.088	5
377.873	3
378.659	4
379.445	3
380.23	3
381.015	1
381.801	3
382.586	2
383.371	2
384.156	4
384.941	2
385.726	1
386.511	2
387.296	3
388.08	0
388.865	5
389.649	4
390.434	1
391.218	2
392.003	2
392.787	2
393.571	4
394.355	3
395.139	3
395.923	1
396.707	4
397.491	2
398.274	2
399.058	3
399.842	3
400.625	6
401.408	3
402.192	4
402.975	4
403.758	1
404.541	5
405.324	2
406.107	5
406.89	3
407.673	5
408.456	4
409.238	3
410.021	6
410.803	2
411.586	1
412.368	5
413.151	4
413.933	5
414.715	5
415.497	6
416.279	3
417.061	6
417.843	5
418.624	7
419.406	5
420.188	6
420.969	8
421.751	3
422.532	5
423.313	4
424.095	7
424.876	5
425.657	4
426.438	5
427.219	6
428	4
428.78	6
429.561	9
430.342	8
431.122	7
431.903	7
432.683	9
433.464	7
434.244	11
435.024	8
435.804	8
436.584	10
437.364	8
438.144	9
438.924	11
439.704	11
440.483	11
441.263	11
442.042	12
442.822	13
443.601	13
444.38	15
445.16	14
445.939	17
446.718	16
447.497	16
448.276	20
449.054	19
449.833	26
450.612	23
451.391	27
452.169	28
452.948	31
453.726	33
454.504	37
455.282	39
456.061	45
456.839	48
457.617	55
458.395	56
459.172	67
459.95	76
460.728	82
461.506	93
462.283	105
463.061	114
463.838	131
464.615	138
465.393	164
466.17	176
466.947	189
467.724	209
468.501	241
469.278	274
470.055	304
470.831	335
471.608	373
472.385	408
473.161	460
473.938	520
474.714	565
475.49	623
476.266	695
477.043	776
477.819	854
478.595	943
479.371	1048
480.146	1149
480.922	1281
481.698	1409
482.473	1549
483.249	1713
484.024	1884
484.8	2077
485.575	2284
486.35	2509
487.126	2782
487.901	3049
488.676	3354
489.451	3680
490.225	4048
491	4460
491.775	4868
492.55	5359
493.324	5867
494.099	6413
494.873	6983
495.647	7601
496.422	8257
497.196	8966
497.97	9653
498.744	10378
499.518	11144
500.292	11842
501.066	12588
501.839	13250
502.613	13939
503.387	14527
504.16	15102
504.934	15553
505.707	15917
506.48	16222
507.253	16378
508.027	16459
508.8	16461
509.573	16249
510.346	16062
511.118	15746
511.891	15356
512.664	14830
513.437	14330
514.209	13805
514.982	13325
515.754	12746
516.526	12218
517.298	11650
518.071	11135
518.843	10650
519.615	10201
520.387	9761
521.159	9390
521.93	9018
522.702	8635
523.474	8331
524.245	7958
525.017	7673
525.788	7403
526.56	7048
527.331	6759
528.102	6494
528.873	6209
529.644	5914
530.415	5635
531.186	5372
531.957	5122
532.728	4840
533.498	4588
534.269	4369
535.039	4086
535.81	3879
536.58	3653
537.351	3457
538.121	3276
538.891	3088
539.661	2922
540.431	2749
541.201	2603
541.971	2467
542.741	2355
543.51	2207
544.28	2119
545.05	1983
545.819	1898
546.588	1818
547.358	1718
548.127	1635
548.896	1558
549.665	1463
550.434	1414
551.203	1324
551.972	1263
552.741	1205
553.51	1123
554.278	1069
555.047	1008
555.815	949
556.584	897
557.352	852
558.121	796
558.889	755
559.657	704
560.425	680
561.193	637
561.961	591
562.729	557
563.496	525
564.264	498
565.032	476
565.799	450
566.567	424
567.334	401
568.101	375
568.869	356
569.636	331
570.403	315
571.17	293
571.937	283
572.704	264
573.471	250
574.237	232
575.004	220
575.771	209
576.537	189
577.303	179
578.07	179
578.836	165
579.602	154
580.368	143
581.134	140
581.9	127
582.666	119
583.432	118
584.198	109
584.964	106
585.729	97
586.495	93
587.26	85
588.025	83
588.791	77
589.556	77
590.321	72
591.086	68
591.851	62
592.616	56
593.381	58
594.146	59
594.911	53
595.675	51
596.44	49
597.204	43
597.969	42
598.733	41
599.497	39
600.261	39
601.025	39
601.79	33
602.553	33
603.317	31
604.081	34
604.845	28
605.609	26
606.372	26
607.136	24
607.899	25
608.662	22
609.426	25
610.189	21
610.952	21
611.715	20
612.478	17
613.241	14
614.004	17
614.767	16
615.529	17
616.292	16
617.055	15
617.817	14
618.579	12
619.342	13
620.104	14
620.866	15
621.628	12
622.39	11
623.152	13
623.914	12
624.676	8
625.438	10
626.199	8
626.961	9
627.722	10
628.484	9
629.245	8
630.006	5
630.768	9
631.529	7
632.29	8
633.051	9
633.812	8
634.573	5
635.333	4
636.094	7
636.855	5
637.615	6
638.376	6
639.136	5
639.896	5
640.657	5
641.417	6
642.177	5
642.937	5
643.697	5
644.457	4
645.216	4
645.976	3
646.736	7
647.495	4
648.255	6
649.014	5
649.774	5
650.533	4
651.292	4
652.051	4
652.81	5
653.569	5
654.328	2
655.087	3
655.846	2
656.604	4
657.363	2
658.121	3
658.88	2
659.638	3
660.397	5
661.155	3
661.913	3
662.671	5
663.429	1
664.187	1
664.945	4
665.703	2
666.46	2
667.218	2
667.976	4
668.733	1
669.49	3
670.248	2
671.005	3
671.762	1
672.519	5
673.276	1
674.033	2
674.79	1
675.547	2
676.304	2
677.06	2
677.817	2
678.574	3
679.33	3
680.086	3
680.843	4
681.599	-1
682.355	2
683.111	1
683.867	3
684.623	4
685.379	1
686.135	2
686.89	1
687.646	3
688.402	3
689.157	2
689.912	2
690.668	2
691.423	3
692.178	2
692.933	1
693.688	3
694.443	2
695.198	2
695.953	1
696.708	2
697.462	2
698.217	3
698.972	5
699.726	1
700.48	2
701.235	3
701.989	1
702.743	1
703.497	3
704.251	3
705.005	3
705.759	2
706.513	3
707.266	3
708.02	1
708.774	2
709.527	1
710.28	2
711.034	1
711.787	0
712.54	3
713.293	1
714.046	1
714.799	1
715.552	1
716.305	2
717.058	2
717.81	2
718.563	0
719.315	4
720.068	1
720.82	3
721.573	0
722.325	3
723.077	1
723.829	3
724.581	2
725.333	4
726.085	1
726.836	2
727.588	1
728.34	2
729.091	5
729.843	5
730.594	5
731.346	2
732.097	3
732.848	1
733.599	2
734.35	2
735.101	1
735.852	3
736.603	3
737.354	2
738.104	3
738.855	2
739.605	1
740.356	3
741.106	4
741.856	1
742.607	3
743.357	0
744.107	0
744.857	3
745.607	3
746.357	2
747.106	2
747.856	5
748.606	1
749.355	2
750.105	2
750.854	1
751.603	3
752.353	2
753.102	2
753.851	1
754.6	3
755.349	3
756.098	1
756.847	4
757.595	3
758.344	4
759.093	4
759.841	3
760.589	4
761.338	1
762.086	2
762.834	5
763.582	3
764.331	4
765.079	6
765.826	3
766.574	3
767.322	4
768.07	2
768.817	2
769.565	4
770.312	3
771.06	4
771.807	4
772.554	4
773.302	7
774.049	6
774.796	3
775.543	5
776.29	4
777.036	5
777.783	6
778.53	5
779.276	4
780.023	5
780.769	7
781.516	5
782.262	7
783.008	4
783.754	2
784.5	6
785.246	3
785.992	5
786.738	3
787.484	5
788.23	5
788.975	4
789.721	5
790.466	1
791.212	6
791.957	4
792.702	5
793.447	3
794.193	7
794.938	4
795.683	6
796.427	4
797.172	5
797.917	4
798.662	6
799.406	7
800.151	7
800.895	5
801.64	3
802.384	5
803.128	6
803.872	4
804.616	4
805.36	4
806.104	3
806.848	4
807.592	3
808.336	2
809.079	5
809.823	3
810.566	2
811.31	4
812.053	3
812.796	3
813.539	3
814.283	5
815.026	4
815.769	3
816.511	3
817.254	2
817.997	2
818.74	1
819.482	3
820.225	5
820.967	2
821.71	5
822.452	3
823.194	2
823.936	0
824.678	2
825.42	1
826.162	2
826.904	2
827.646	4
828.388	2
829.129	2
829.871	2
830.612	2
831.354	2
832.095	4
832.836	2
833.577	2
834.319	1
835.06	1
835.801	2
836.542	3
837.282	3
838.023	1
838.764	2
839.504	1
840.245	4
840.985	5
841.726	2
842.466	1
843.206	1
843.946	2
844.687	3
845.427	1
846.166	2
846.906	1
847.646	5
848.386	1
849.125	2
849.865	0
850.605	1
851.344	2
852.083	1
852.823	2
853.562	1
854.301	2
855.04	0
855.779	0
856.518	2
857.257	2
857.995	2
858.734	1
859.473	3
860.211	-1
860.95	0
861.688	1
862.426	-1
863.165	2
863.903	2
864.641	2
865.379	2
866.117	1
866.855	2
867.593	0
868.33	1
869.068	-2
869.806	1
870.543	0
871.28	1
872.018	2
872.755	2
873.492	0
874.229	0
874.967	1
875.703	1
876.44	0
877.177	1
877.914	1
878.651	2
879.387	-2
880.124	2
880.86	1
881.597	1
882.333	2
883.069	2
883.806	1
884.542	2
885.278	1
886.014	1
886.749	0
887.485	0
888.221	2
888.957	1
889.692	1
890.428	-1
891.163	-1
891.899	2
892.634	1
893.369	1
894.104	0
894.839	0
895.574	1
896.309	1
897.044	-1
897.779	0
898.514	-1
899.248	2
899.983	-3
900.717	-1
901.452	0
902.186	-1
902.92	-1
903.654	0
904.389	0
905.123	-1
905.857	0
906.59	0
907.324	2
908.058	1
908.792	-2
909.525	-2
910.259	-2
910.992	1
911.726	1
912.459	-1
913.192	1
913.925	1
914.658	1
915.391	1
916.124	1
916.857	1
917.59	0
918.323	1
919.055	2
919.788	0
920.521	0
921.253	1
921.985	-2
922.718	1
923.45	3
924.182	-1
924.914	1
925.646	-2
926.378	-2
927.11	-1
927.841	0
928.573	0
929.305	1
930.036	2
930.768	-1
931.499	1
932.23	0
932.962	1
933.693	0
934.424	1
935.155	3
935.886	2
936.617	-2
937.348	1
938.078	0
938.809	-2
939.54	-1
940.27	2
941.001	-2
941.731	-1
942.461	0
943.191	0
943.922	0
944.652	-1
945.382	-2
946.112	-2
946.841	1
947.571	1
948.301	1
949.031	0
949.76	-1
950.49	0
951.219	-2
951.948	-2
952.678	0
953.407	-2
954.136	0
954.865	-2
955.594	2
956.323	1
957.052	0
957.78	0
958.509	-1
959.238	0
959.966	-1
960.695	1
961.423	0
962.151	0
962.88	3
963.608	1
964.336	0
965.064	1
965.792	2
966.52	0
967.247	1
967.975	-1
968.703	-1
969.43	1
970.158	0
970.885	1
971.613	0
972.34	0
973.067	2
973.794	0
974.521	0
975.248	-1
975.975	1
976.702	-1
977.429	1
978.156	2
978.882	2
979.609	1
980.335	-3
981.062	0
981.788	2
982.514	-1
983.24	0
983.967	-1
984.693	2
985.419	0
986.144	-2
986.87	0
987.596	0
988.322	1
989.047	0
989.773	3
990.498	1
991.224	0
991.949	0
992.674	-1
993.399	-1
994.124	1
994.849	-1
995.574	-3
996.299	0
997.024	0
997.749	1
998.473	0
999.198	1
999.922	-1
1000.647	1
1001.371	3
1002.095	0
1002.82	0
1003.544	-3
1004.268	-1
1004.992	1
1005.716	-1
1006.439	-1
1007.163	1
1007.887	1
1008.611	-1
1009.334	0
1010.058	1
1010.781	0
1011.504	-1
1012.228	0
1012.951	1
1013.674	-2
1014.397	0
1015.12	1
