节点500_145_QEPB04081__192__11-32-01-516.txt的数据

Date: Wed Nov 12 11:32:01 CST 2025
User: PC
Spectrometer: QEPB0408
触发模式: 0
积分时间 (秒): 1.000000E-2
Scans to average: 1
启用暗噪声校正: true
启用非线性校正: false
滑动平均宽度: 0
X轴模式: Wavelengths
Number of Pixels in Spectrum: 1044
>>>>>Begin Spectral Data<<<<<
220.843	-1.88
221.644	2.12
222.444	2.12
223.244	-0.88
224.045	0.12
224.845	2.12
225.645	-0.88
226.445	2.12
227.245	0.12
228.045	1.12
228.845	1.12
229.645	2.12
230.444	0.12
231.244	2.12
232.043	2.12
232.843	2.12
233.642	2.12
234.442	0.12
235.241	1.12
236.04	1.12
236.839	-0.88
237.638	4.12
238.437	1.12
239.236	0.12
240.035	1.12
240.833	2.12
241.632	2.12
242.43	5.12
243.229	1.12
244.027	3.12
244.826	2.12
245.624	3.12
246.422	6.12
247.22	3.12
248.018	2.12
248.816	3.12
249.614	-0.88
250.412	5.12
251.21	3.12
252.007	2.12
252.805	4.12
253.602	4.12
254.4	3.12
255.197	5.12
255.994	3.12
256.791	6.12
257.589	4.12
258.386	6.12
259.183	4.12
259.979	6.12
260.776	4.12
261.573	4.12
262.37	3.12
263.166	5.12
263.963	5.12
264.759	6.12
265.556	5.12
266.352	7.12
267.148	5.12
267.944	8.12
268.74	7.12
269.536	6.12
270.332	8.12
271.128	10.12
271.924	8.12
272.719	9.12
273.515	9.12
274.311	11.12
275.106	10.12
275.901	7.12
276.697	10.12
277.492	9.12
278.287	10.12
279.082	12.12
279.877	9.12
280.672	11.12
281.467	11.12
282.262	12.12
283.056	11.12
283.851	14.12
284.646	10.12
285.44	10.12
286.234	13.12
287.029	13.12
287.823	13.12
288.617	11.12
289.411	10.12
290.205	12.12
290.999	10.12
291.793	10.12
292.587	10.12
293.381	13.12
294.174	11.12
294.968	8.12
295.761	11.12
296.555	11.12
297.348	10.12
298.141	10.12
298.935	13.12
299.728	10.12
300.521	10.12
301.314	9.12
302.107	11.12
302.899	9.12
303.692	8.12
304.485	9.12
305.277	10.12
306.07	10.12
306.862	8.12
307.655	8.12
308.447	6.12
309.239	11.12
310.031	8.12
310.823	9.12
311.615	8.12
312.407	8.12
313.199	6.12
313.991	8.12
314.783	8.12
315.574	7.12
316.366	7.12
317.157	6.12
317.949	6.12
318.74	6.12
319.531	4.12
320.322	5.12
321.113	6.12
321.904	7.12
322.695	3.12
323.486	6.12
324.277	4.12
325.068	5.12
325.858	5.12
326.649	7.12
327.439	2.12
328.23	7.12
329.02	5.12
329.81	6.12
330.6	5.12
331.391	7.12
332.181	4.12
332.971	4.12
333.76	5.12
334.55	5.12
335.34	5.12
336.13	5.12
336.919	2.12
337.709	6.12
338.498	5.12
339.287	5.12
340.077	2.12
340.866	4.12
341.655	7.12
342.444	4.12
343.233	3.12
344.022	4.12
344.811	2.12
345.6	1.12
346.388	4.12
347.177	5.12
347.965	4.12
348.754	7.12
349.542	3.12
350.33	4.12
351.119	5.12
351.907	4.12
352.695	2.12
353.483	5.12
354.271	7.12
355.059	3.12
355.846	5.12
356.634	4.12
357.422	4.12
358.209	5.12
358.997	3.12
359.784	3.12
360.571	4.12
361.359	6.12
362.146	8.12
362.933	3.12
363.72	3.12
364.507	3.12
365.294	3.12
366.081	6.12
366.867	2.12
367.654	4.12
368.44	4.12
369.227	4.12
370.013	4.12
370.8	3.12
371.586	3.12
372.372	1.12
373.158	5.12
373.944	2.12
374.73	3.12
375.516	4.12
376.302	2.12
377.088	3.12
377.873	5.12
378.659	6.12
379.445	6.12
380.23	4.12
381.015	2.12
381.801	4.12
382.586	4.12
383.371	4.12
384.156	4.12
384.941	6.12
385.726	5.12
386.511	3.12
387.296	1.12
388.08	5.12
388.865	1.12
389.649	6.12
390.434	5.12
391.218	4.12
392.003	2.12
392.787	3.12
393.571	4.12
394.355	3.12
395.139	3.12
395.923	5.12
396.707	5.12
397.491	2.12
398.274	2.12
399.058	7.12
399.842	4.12
400.625	4.12
401.408	3.12
402.192	4.12
402.975	5.12
403.758	4.12
404.541	5.12
405.324	4.12
406.107	4.12
406.89	5.12
407.673	6.12
408.456	6.12
409.238	4.12
410.021	3.12
410.803	3.12
411.586	7.12
412.368	6.12
413.151	6.12
413.933	6.12
414.715	6.12
415.497	5.12
416.279	5.12
417.061	6.12
417.843	6.12
418.624	3.12
419.406	6.12
420.188	6.12
420.969	9.12
421.751	6.12
422.532	5.12
423.313	8.12
424.095	6.12
424.876	7.12
425.657	6.12
426.438	8.12
427.219	5.12
428	6.12
428.78	7.12
429.561	9.12
430.342	9.12
431.122	7.12
431.903	9.12
432.683	7.12
433.464	7.12
434.244	10.12
435.024	9.12
435.804	9.12
436.584	9.12
437.364	10.12
438.144	10.12
438.924	11.12
439.704	10.12
440.483	13.12
441.263	13.12
442.042	14.12
442.822	13.12
443.601	13.12
444.38	14.12
445.16	17.12
445.939	16.12
446.718	21.12
447.497	19.12
448.276	19.12
449.054	20.12
449.833	24.12
450.612	27.12
451.391	28.12
452.169	29.12
452.948	29.12
453.726	35.12
454.504	38.12
455.282	43.12
456.061	46.12
456.839	47.12
457.617	50.12
458.395	56.12
459.172	69.12
459.95	70.12
460.728	82.12
461.506	86.12
462.283	98.12
463.061	107.12
463.838	122.12
464.615	138.12
465.393	151.12
466.17	167.12
466.947	190.12
467.724	208.12
468.501	242.12
469.278	262.12
470.055	288.12
470.831	327.12
471.608	357.12
472.385	407.12
473.161	443.12
473.938	498.12
474.714	546.12
475.49	611.12
476.266	687.12
477.043	759.12
477.819	830.12
478.595	925.12
479.371	1026.12
480.146	1137.12
480.922	1251.12
481.698	1406.12
482.473	1546.12
483.249	1702.12
484.024	1882.12
484.8	2097.12
485.575	2323.12
486.35	2556.12
487.126	2821.12
487.901	3112.12
488.676	3442.12
489.451	3783.12
490.225	4172.12
491	4624.12
491.775	5054.12
492.55	5583.12
493.324	6102.12
494.099	6692.12
494.873	7343.12
495.647	7969.12
496.422	8742.12
497.196	9390.12
497.97	10176.12
498.744	10969.12
499.518	11738.12
500.292	12537.12
501.066	13252.12
501.839	13961.12
502.613	14638.12
503.387	15250.12
504.16	15836.12
504.934	16291.12
505.707	16608.12
506.48	16815.12
507.253	16946.12
508.027	17073.12
508.8	16912.12
509.573	16631.12
510.346	16304.12
511.118	15974.12
511.891	15472.12
512.664	15017.12
513.437	14444.12
514.209	13838.12
514.982	13272.12
515.754	12743.12
516.526	12148.12
517.298	11585.12
518.071	11085.12
518.843	10572.12
519.615	10141.12
520.387	9708.12
521.159	9341.12
521.93	8955.12
522.702	8588.12
523.474	8266.12
524.245	7980.12
525.017	7601.12
525.788	7302.12
526.56	7011.12
527.331	6771.12
528.102	6428.12
528.873	6116.12
529.644	5866.12
530.415	5583.12
531.186	5292.12
531.957	5003.12
532.728	4761.12
533.498	4513.12
534.269	4269.12
535.039	4039.12
535.81	3789.12
536.58	3589.12
537.351	3391.12
538.121	3216.12
538.891	3029.12
539.661	2861.12
540.431	2707.12
541.201	2562.12
541.971	2422.12
542.741	2281.12
543.51	2156.12
544.28	2047.12
545.05	1946.12
545.819	1882.12
546.588	1764.12
547.358	1675.12
548.127	1609.12
548.896	1526.12
549.665	1458.12
550.434	1384.12
551.203	1302.12
551.972	1220.12
552.741	1152.12
553.51	1106.12
554.278	1043.12
555.047	986.12
555.815	932.12
556.584	867.12
557.352	831.12
558.121	782.12
558.889	731.12
559.657	695.12
560.425	649.12
561.193	611.12
561.961	571.12
562.729	551.12
563.496	514.12
564.264	482.12
565.032	459.12
565.799	428.12
566.567	415.12
567.334	390.12
568.101	359.12
568.869	344.12
569.636	328.12
570.403	306.12
571.17	298.12
571.937	275.12
572.704	260.12
573.471	245.12
574.237	230.12
575.004	214.12
575.771	201.12
576.537	191.12
577.303	177.12
578.07	163.12
578.836	160.12
579.602	150.12
580.368	145.12
581.134	134.12
581.9	127.12
582.666	120.12
583.432	117.12
584.198	109.12
584.964	102.12
585.729	97.12
586.495	91.12
587.26	89.12
588.025	83.12
588.791	75.12
589.556	70.12
590.321	69.12
591.086	68.12
591.851	60.12
592.616	58.12
593.381	57.12
594.146	55.12
594.911	51.12
595.675	51.12
596.44	47.12
597.204	46.12
597.969	40.12
598.733	40.12
599.497	37.12
600.261	37.12
601.025	36.12
601.79	37.12
602.553	34.12
603.317	31.12
604.081	28.12
604.845	27.12
605.609	27.12
606.372	27.12
607.136	24.12
607.899	25.12
608.662	24.12
609.426	21.12
610.189	22.12
610.952	21.12
611.715	20.12
612.478	17.12
613.241	17.12
614.004	18.12
614.767	18.12
615.529	17.12
616.292	14.12
617.055	14.12
617.817	15.12
618.579	14.12
619.342	13.12
620.104	13.12
620.866	11.12
621.628	14.12
622.39	14.12
623.152	12.12
623.914	11.12
624.676	10.12
625.438	11.12
626.199	13.12
626.961	9.12
627.722	10.12
628.484	11.12
629.245	6.12
630.006	8.12
630.768	10.12
631.529	7.12
632.29	9.12
633.051	10.12
633.812	10.12
634.573	9.12
635.333	7.12
636.094	6.12
636.855	7.12
637.615	6.12
638.376	6.12
639.136	9.12
639.896	8.12
640.657	6.12
641.417	5.12
642.177	5.12
642.937	6.12
643.697	5.12
644.457	5.12
645.216	5.12
645.976	4.12
646.736	4.12
647.495	6.12
648.255	6.12
649.014	5.12
649.774	2.12
650.533	4.12
651.292	3.12
652.051	5.12
652.81	6.12
653.569	5.12
654.328	3.12
655.087	3.12
655.846	2.12
656.604	6.12
657.363	4.12
658.121	5.12
658.88	5.12
659.638	4.12
660.397	5.12
661.155	4.12
661.913	5.12
662.671	4.12
663.429	3.12
664.187	4.12
664.945	1.12
665.703	5.12
666.46	4.12
667.218	5.12
667.976	4.12
668.733	4.12
669.49	4.12
670.248	2.12
671.005	5.12
671.762	1.12
672.519	2.12
673.276	4.12
674.033	2.12
674.79	6.12
675.547	5.12
676.304	3.12
677.06	3.12
677.817	3.12
678.574	4.12
679.33	4.12
680.086	3.12
680.843	3.12
681.599	3.12
682.355	3.12
683.111	2.12
683.867	4.12
684.623	2.12
685.379	3.12
686.135	3.12
686.89	2.12
687.646	1.12
688.402	3.12
689.157	3.12
689.912	2.12
690.668	7.12
691.423	2.12
692.178	3.12
692.933	3.12
693.688	4.12
694.443	3.12
695.198	4.12
695.953	3.12
696.708	2.12
697.462	3.12
698.217	0.12
698.972	3.12
699.726	3.12
700.48	5.12
701.235	3.12
701.989	2.12
702.743	0.12
703.497	3.12
704.251	2.12
705.005	2.12
705.759	2.12
706.513	3.12
707.266	1.12
708.02	5.12
708.774	3.12
709.527	3.12
710.28	2.12
711.034	5.12
711.787	3.12
712.54	1.12
713.293	1.12
714.046	2.12
714.799	5.12
715.552	4.12
716.305	2.12
717.058	2.12
717.81	1.12
718.563	2.12
719.315	4.12
720.068	5.12
720.82	4.12
721.573	2.12
722.325	3.12
723.077	3.12
723.829	1.12
724.581	4.12
725.333	2.12
726.085	3.12
726.836	3.12
727.588	3.12
728.34	2.12
729.091	3.12
729.843	2.12
730.594	2.12
731.346	5.12
732.097	3.12
732.848	2.12
733.599	2.12
734.35	4.12
735.101	2.12
735.852	2.12
736.603	4.12
737.354	1.12
738.104	2.12
738.855	3.12
739.605	4.12
740.356	3.12
741.106	3.12
741.856	1.12
742.607	4.12
743.357	4.12
744.107	3.12
744.857	2.12
745.607	2.12
746.357	3.12
747.106	3.12
747.856	6.12
748.606	3.12
749.355	4.12
750.105	3.12
750.854	5.12
751.603	4.12
752.353	4.12
753.102	2.12
753.851	4.12
754.6	1.12
755.349	3.12
756.098	6.12
756.847	3.12
757.595	5.12
758.344	3.12
759.093	2.12
759.841	4.12
760.589	3.12
761.338	6.12
762.086	6.12
762.834	6.12
763.582	3.12
764.331	6.12
765.079	4.12
765.826	3.12
766.574	5.12
767.322	5.12
768.07	5.12
768.817	5.12
769.565	5.12
770.312	6.12
771.06	5.12
771.807	6.12
772.554	4.12
773.302	5.12
774.049	2.12
774.796	7.12
775.543	6.12
776.29	5.12
777.036	7.12
777.783	3.12
778.53	6.12
779.276	6.12
780.023	6.12
780.769	5.12
781.516	7.12
782.262	8.12
783.008	7.12
783.754	7.12
784.5	5.12
785.246	7.12
785.992	5.12
786.738	5.12
787.484	5.12
788.23	6.12
788.975	8.12
789.721	4.12
790.466	4.12
791.212	4.12
791.957	6.12
792.702	6.12
793.447	3.12
794.193	7.12
794.938	6.12
795.683	4.12
796.427	7.12
797.172	5.12
797.917	6.12
798.662	5.12
799.406	8.12
800.151	6.12
800.895	2.12
801.64	5.12
802.384	5.12
803.128	7.12
803.872	3.12
804.616	3.12
805.36	5.12
806.104	4.12
806.848	6.12
807.592	3.12
808.336	6.12
809.079	6.12
809.823	4.12
810.566	4.12
811.31	4.12
812.053	4.12
812.796	6.12
813.539	6.12
814.283	4.12
815.026	7.12
815.769	2.12
816.511	4.12
817.254	5.12
817.997	2.12
818.74	6.12
819.482	3.12
820.225	4.12
820.967	3.12
821.71	2.12
822.452	6.12
823.194	2.12
823.936	5.12
824.678	3.12
825.42	5.12
826.162	4.12
826.904	3.12
827.646	3.12
828.388	5.12
829.129	3.12
829.871	2.12
830.612	2.12
831.354	3.12
832.095	5.12
832.836	4.12
833.577	4.12
834.319	5.12
835.06	5.12
835.801	2.12
836.542	2.12
837.282	3.12
838.023	5.12
838.764	4.12
839.504	4.12
840.245	5.12
840.985	2.12
841.726	3.12
842.466	1.12
843.206	3.12
843.946	4.12
844.687	2.12
845.427	2.12
846.166	3.12
846.906	2.12
847.646	0.12
848.386	5.12
849.125	1.12
849.865	3.12
850.605	2.12
851.344	3.12
852.083	3.12
852.823	3.12
853.562	4.12
854.301	3.12
855.04	1.12
855.779	3.12
856.518	2.12
857.257	3.12
857.995	1.12
858.734	2.12
859.473	0.12
860.211	2.12
860.95	4.12
861.688	3.12
862.426	2.12
863.165	4.12
863.903	3.12
864.641	2.12
865.379	1.12
866.117	2.12
866.855	3.12
867.593	2.12
868.33	0.12
869.068	2.12
869.806	0.12
870.543	2.12
871.28	1.12
872.018	2.12
872.755	3.12
873.492	1.12
874.229	2.12
874.967	2.12
875.703	1.12
876.44	1.12
877.177	2.12
877.914	1.12
878.651	4.12
879.387	1.12
880.124	1.12
880.86	0.12
881.597	3.12
882.333	2.12
883.069	4.12
883.806	2.12
884.542	2.12
885.278	-0.88
886.014	2.12
886.749	0.12
887.485	1.12
888.221	3.12
888.957	3.12
889.692	1.12
890.428	3.12
891.163	1.12
891.899	2.12
892.634	0.12
893.369	1.12
894.104	2.12
894.839	2.12
895.574	1.12
896.309	0.12
897.044	2.12
897.779	-0.88
898.514	0.12
899.248	0.12
899.983	0.12
900.717	2.12
901.452	2.12
902.186	2.12
902.92	1.12
903.654	1.12
904.389	0.12
905.123	2.12
905.857	2.12
906.59	1.12
907.324	4.12
908.058	1.12
908.792	0.12
909.525	4.12
910.259	2.12
910.992	-0.88
911.726	1.12
912.459	3.12
913.192	0.12
913.925	1.12
914.658	1.12
915.391	0.12
916.124	-0.88
916.857	1.12
917.59	3.12
918.323	2.12
919.055	2.12
919.788	2.12
920.521	2.12
921.253	1.12
921.985	0.12
922.718	-0.88
923.45	2.12
924.182	1.12
924.914	2.12
925.646	0.12
926.378	2.12
927.11	0.12
927.841	1.12
928.573	3.12
929.305	-0.88
930.036	2.12
930.768	0.12
931.499	1.12
932.23	1.12
932.962	2.12
933.693	2.12
934.424	2.12
935.155	3.12
935.886	3.12
936.617	0.12
937.348	1.12
938.078	1.12
938.809	1.12
939.54	0.12
940.27	0.12
941.001	1.12
941.731	2.12
942.461	-0.88
943.191	2.12
943.922	2.12
944.652	-0.88
945.382	0.12
946.112	1.12
946.841	3.12
947.571	-0.88
948.301	0.12
949.031	2.12
949.76	0.12
950.49	2.12
951.219	0.12
951.948	2.12
952.678	2.12
953.407	1.12
954.136	-0.88
954.865	1.12
955.594	2.12
956.323	0.12
957.052	3.12
957.78	-0.88
958.509	1.12
959.238	-0.88
959.966	1.12
960.695	0.12
961.423	0.12
962.151	2.12
962.88	1.12
963.608	0.12
964.336	1.12
965.064	2.12
965.792	1.12
966.52	-0.88
967.247	1.12
967.975	1.12
968.703	2.12
969.43	2.12
970.158	0.12
970.885	0.12
971.613	1.12
972.34	1.12
973.067	0.12
973.794	1.12
974.521	2.12
975.248	1.12
975.975	1.12
976.702	-0.88
977.429	1.12
978.156	1.12
978.882	1.12
979.609	0.12
980.335	1.12
981.062	0.12
981.788	1.12
982.514	1.12
983.24	2.12
983.967	0.12
984.693	-0.88
985.419	0.12
986.144	1.12
986.87	-0.88
987.596	1.12
988.322	0.12
989.047	1.12
989.773	2.12
990.498	0.12
991.224	1.12
991.949	1.12
992.674	1.12
993.399	1.12
994.124	1.12
994.849	0.12
995.574	2.12
996.299	3.12
997.024	-0.88
997.749	1.12
998.473	-0.88
999.198	2.12
999.922	0.12
1000.647	2.12
1001.371	2.12
1002.095	-1.88
1002.82	-0.88
1003.544	-0.88
1004.268	0.12
1004.992	1.12
1005.716	0.12
1006.439	1.12
1007.163	1.12
1007.887	1.12
1008.611	-0.88
1009.334	2.12
1010.058	3.12
1010.781	2.12
1011.504	2.12
1012.228	1.12
1012.951	-0.88
1013.674	0.12
1014.397	0.12
1015.12	2.12
