节点500_145_QEPB04081__302__11-33-48-442.txt的数据

Date: Wed Nov 12 11:33:48 CST 2025
User: PC
Spectrometer: QEPB0408
触发模式: 0
积分时间 (秒): 1.000000E-2
Scans to average: 1
启用暗噪声校正: true
启用非线性校正: false
滑动平均宽度: 0
X轴模式: Wavelengths
Number of Pixels in Spectrum: 1044
>>>>>Begin Spectral Data<<<<<
220.843	-0.38
221.644	1.62
222.444	-1.38
223.244	1.62
224.045	0.62
224.845	0.62
225.645	-1.38
226.445	-0.38
227.245	-0.38
228.045	1.62
228.845	-0.38
229.645	3.62
230.444	-0.38
231.244	3.62
232.043	0.62
232.843	1.62
233.642	0.62
234.442	2.62
235.241	1.62
236.04	-1.38
236.839	2.62
237.638	1.62
238.437	1.62
239.236	-0.38
240.035	0.62
240.833	2.62
241.632	1.62
242.43	2.62
243.229	-0.38
244.027	2.62
244.826	2.62
245.624	3.62
246.422	2.62
247.22	1.62
248.018	2.62
248.816	3.62
249.614	1.62
250.412	2.62
251.21	1.62
252.007	2.62
252.805	2.62
253.602	2.62
254.4	2.62
255.197	3.62
255.994	5.62
256.791	5.62
257.589	5.62
258.386	4.62
259.183	5.62
259.979	4.62
260.776	5.62
261.573	5.62
262.37	5.62
263.166	5.62
263.963	4.62
264.759	5.62
265.556	7.62
266.352	5.62
267.148	6.62
267.944	7.62
268.74	4.62
269.536	5.62
270.332	8.62
271.128	8.62
271.924	9.62
272.719	8.62
273.515	5.62
274.311	9.62
275.106	9.62
275.901	7.62
276.697	8.62
277.492	8.62
278.287	8.62
279.082	8.62
279.877	10.62
280.672	9.62
281.467	10.62
282.262	11.62
283.056	9.62
283.851	10.62
284.646	10.62
285.44	10.62
286.234	10.62
287.029	8.62
287.823	10.62
288.617	11.62
289.411	8.62
290.205	10.62
290.999	10.62
291.793	12.62
292.587	11.62
293.381	11.62
294.174	9.62
294.968	9.62
295.761	9.62
296.555	9.62
297.348	9.62
298.141	8.62
298.935	9.62
299.728	8.62
300.521	7.62
301.314	7.62
302.107	10.62
302.899	8.62
303.692	8.62
304.485	9.62
305.277	10.62
306.07	9.62
306.862	7.62
307.655	6.62
308.447	7.62
309.239	8.62
310.031	6.62
310.823	4.62
311.615	8.62
312.407	3.62
313.199	6.62
313.991	6.62
314.783	5.62
315.574	4.62
316.366	4.62
317.157	7.62
317.949	10.62
318.74	7.62
319.531	5.62
320.322	3.62
321.113	5.62
321.904	4.62
322.695	4.62
323.486	2.62
324.277	5.62
325.068	5.62
325.858	3.62
326.649	4.62
327.439	2.62
328.23	5.62
329.02	3.62
329.81	3.62
330.6	5.62
331.391	4.62
332.181	4.62
332.971	1.62
333.76	2.62
334.55	5.62
335.34	4.62
336.13	4.62
336.919	4.62
337.709	5.62
338.498	3.62
339.287	2.62
340.077	2.62
340.866	4.62
341.655	2.62
342.444	2.62
343.233	5.62
344.022	2.62
344.811	3.62
345.6	2.62
346.388	1.62
347.177	5.62
347.965	3.62
348.754	3.62
349.542	1.62
350.33	2.62
351.119	1.62
351.907	3.62
352.695	5.62
353.483	5.62
354.271	4.62
355.059	0.62
355.846	5.62
356.634	3.62
357.422	4.62
358.209	2.62
358.997	4.62
359.784	3.62
360.571	1.62
361.359	3.62
362.146	2.62
362.933	3.62
363.72	3.62
364.507	-0.38
365.294	2.62
366.081	4.62
366.867	5.62
367.654	0.62
368.44	3.62
369.227	1.62
370.013	3.62
370.8	2.62
371.586	2.62
372.372	4.62
373.158	1.62
373.944	3.62
374.73	2.62
375.516	1.62
376.302	2.62
377.088	2.62
377.873	4.62
378.659	3.62
379.445	3.62
380.23	2.62
381.015	2.62
381.801	4.62
382.586	3.62
383.371	1.62
384.156	2.62
384.941	3.62
385.726	3.62
386.511	3.62
387.296	3.62
388.08	4.62
388.865	2.62
389.649	3.62
390.434	2.62
391.218	2.62
392.003	1.62
392.787	2.62
393.571	4.62
394.355	7.62
395.139	5.62
395.923	2.62
396.707	2.62
397.491	4.62
398.274	3.62
399.058	3.62
399.842	3.62
400.625	5.62
401.408	3.62
402.192	2.62
402.975	5.62
403.758	4.62
404.541	4.62
405.324	6.62
406.107	3.62
406.89	3.62
407.673	4.62
408.456	1.62
409.238	3.62
410.021	4.62
410.803	5.62
411.586	4.62
412.368	4.62
413.151	2.62
413.933	3.62
414.715	4.62
415.497	4.62
416.279	3.62
417.061	5.62
417.843	3.62
418.624	4.62
419.406	6.62
420.188	8.62
420.969	4.62
421.751	4.62
422.532	7.62
423.313	4.62
424.095	7.62
424.876	3.62
425.657	4.62
426.438	4.62
427.219	7.62
428	4.62
428.78	6.62
429.561	7.62
430.342	7.62
431.122	6.62
431.903	6.62
432.683	9.62
433.464	7.62
434.244	7.62
435.024	11.62
435.804	8.62
436.584	9.62
437.364	8.62
438.144	11.62
438.924	9.62
439.704	11.62
440.483	10.62
441.263	9.62
442.042	14.62
442.822	10.62
443.601	14.62
444.38	13.62
445.16	15.62
445.939	17.62
446.718	17.62
447.497	19.62
448.276	22.62
449.054	22.62
449.833	26.62
450.612	25.62
451.391	26.62
452.169	27.62
452.948	31.62
453.726	37.62
454.504	38.62
455.282	43.62
456.061	46.62
456.839	50.62
457.617	54.62
458.395	59.62
459.172	64.62
459.95	72.62
460.728	78.62
461.506	93.62
462.283	101.62
463.061	114.62
463.838	122.62
464.615	139.62
465.393	161.62
466.17	173.62
466.947	189.62
467.724	216.62
468.501	235.62
469.278	273.62
470.055	296.62
470.831	329.62
471.608	377.62
472.385	415.62
473.161	464.62
473.938	514.62
474.714	565.62
475.49	630.62
476.266	690.62
477.043	772.62
477.819	850.62
478.595	941.62
479.371	1046.62
480.146	1154.62
480.922	1259.62
481.698	1416.62
482.473	1549.62
483.249	1706.62
484.024	1864.62
484.8	2062.62
485.575	2280.62
486.35	2517.62
487.126	2776.62
487.901	3041.62
488.676	3343.62
489.451	3680.62
490.225	4058.62
491	4449.62
491.775	4896.62
492.55	5368.62
493.324	5870.62
494.099	6405.62
494.873	7002.62
495.647	7637.62
496.422	8286.62
497.196	8929.62
497.97	9671.62
498.744	10430.62
499.518	11124.62
500.292	11837.62
501.066	12618.62
501.839	13275.62
502.613	13940.62
503.387	14594.62
504.16	15139.62
504.934	15529.62
505.707	15891.62
506.48	16216.62
507.253	16401.62
508.027	16472.62
508.8	16417.62
509.573	16243.62
510.346	16041.62
511.118	15670.62
511.891	15318.62
512.664	14880.62
513.437	14324.62
514.209	13794.62
514.982	13310.62
515.754	12750.62
516.526	12164.62
517.298	11621.62
518.071	11105.62
518.843	10621.62
519.615	10188.62
520.387	9763.62
521.159	9370.62
521.93	8993.62
522.702	8670.62
523.474	8280.62
524.245	7987.62
525.017	7620.62
525.788	7331.62
526.56	7072.62
527.331	6752.62
528.102	6462.62
528.873	6192.62
529.644	5943.62
530.415	5630.62
531.186	5343.62
531.957	5092.62
532.728	4822.62
533.498	4559.62
534.269	4345.62
535.039	4099.62
535.81	3867.62
536.58	3662.62
537.351	3451.62
538.121	3280.62
538.891	3081.62
539.661	2931.62
540.431	2761.62
541.201	2598.62
541.971	2457.62
542.741	2330.62
543.51	2208.62
544.28	2098.62
545.05	1995.62
545.819	1923.62
546.588	1821.62
547.358	1724.62
548.127	1630.62
548.896	1564.62
549.665	1460.62
550.434	1409.62
551.203	1333.62
551.972	1246.62
552.741	1186.62
553.51	1125.62
554.278	1057.62
555.047	1005.62
555.815	941.62
556.584	903.62
557.352	850.62
558.121	791.62
558.889	751.62
559.657	701.62
560.425	667.62
561.193	625.62
561.961	600.62
562.729	559.62
563.496	533.62
564.264	498.62
565.032	462.62
565.799	447.62
566.567	423.62
567.334	394.62
568.101	375.62
568.869	354.62
569.636	335.62
570.403	307.62
571.17	303.62
571.937	279.62
572.704	264.62
573.471	245.62
574.237	235.62
575.004	220.62
575.771	208.62
576.537	195.62
577.303	182.62
578.07	174.62
578.836	162.62
579.602	155.62
580.368	148.62
581.134	133.62
581.9	130.62
582.666	125.62
583.432	115.62
584.198	109.62
584.964	103.62
585.729	98.62
586.495	95.62
587.26	90.62
588.025	86.62
588.791	79.62
589.556	75.62
590.321	68.62
591.086	65.62
591.851	63.62
592.616	63.62
593.381	54.62
594.146	53.62
594.911	54.62
595.675	48.62
596.44	47.62
597.204	46.62
597.969	41.62
598.733	41.62
599.497	39.62
600.261	37.62
601.025	35.62
601.79	37.62
602.553	33.62
603.317	28.62
604.081	25.62
604.845	30.62
605.609	27.62
606.372	25.62
607.136	24.62
607.899	22.62
608.662	23.62
609.426	21.62
610.189	19.62
610.952	21.62
611.715	19.62
612.478	18.62
613.241	19.62
614.004	15.62
614.767	17.62
615.529	15.62
616.292	14.62
617.055	12.62
617.817	15.62
618.579	12.62
619.342	13.62
620.104	12.62
620.866	13.62
621.628	12.62
622.39	11.62
623.152	14.62
623.914	9.62
624.676	10.62
625.438	11.62
626.199	9.62
626.961	12.62
627.722	7.62
628.484	8.62
629.245	8.62
630.006	8.62
630.768	7.62
631.529	9.62
632.29	7.62
633.051	7.62
633.812	8.62
634.573	4.62
635.333	7.62
636.094	4.62
636.855	4.62
637.615	6.62
638.376	8.62
639.136	7.62
639.896	4.62
640.657	6.62
641.417	5.62
642.177	4.62
642.937	5.62
643.697	3.62
644.457	7.62
645.216	5.62
645.976	4.62
646.736	6.62
647.495	2.62
648.255	2.62
649.014	4.62
649.774	5.62
650.533	5.62
651.292	5.62
652.051	5.62
652.81	4.62
653.569	2.62
654.328	5.62
655.087	4.62
655.846	3.62
656.604	2.62
657.363	2.62
658.121	4.62
658.88	4.62
659.638	2.62
660.397	4.62
661.155	3.62
661.913	3.62
662.671	3.62
663.429	2.62
664.187	5.62
664.945	2.62
665.703	5.62
666.46	3.62
667.218	3.62
667.976	3.62
668.733	2.62
669.49	1.62
670.248	2.62
671.005	2.62
671.762	2.62
672.519	2.62
673.276	3.62
674.033	2.62
674.79	4.62
675.547	0.62
676.304	2.62
677.06	4.62
677.817	1.62
678.574	3.62
679.33	3.62
680.086	2.62
680.843	1.62
681.599	3.62
682.355	0.62
683.111	2.62
683.867	3.62
684.623	0.62
685.379	1.62
686.135	3.62
686.89	1.62
687.646	1.62
688.402	-0.38
689.157	2.62
689.912	3.62
690.668	2.62
691.423	1.62
692.178	4.62
692.933	4.62
693.688	3.62
694.443	2.62
695.198	3.62
695.953	2.62
696.708	2.62
697.462	2.62
698.217	1.62
698.972	2.62
699.726	1.62
700.48	-0.38
701.235	0.62
701.989	1.62
702.743	3.62
703.497	2.62
704.251	1.62
705.005	3.62
705.759	2.62
706.513	0.62
707.266	2.62
708.02	2.62
708.774	1.62
709.527	2.62
710.28	2.62
711.034	2.62
711.787	4.62
712.54	2.62
713.293	2.62
714.046	4.62
714.799	-0.38
715.552	5.62
716.305	2.62
717.058	3.62
717.81	3.62
718.563	3.62
719.315	0.62
720.068	2.62
720.82	2.62
721.573	3.62
722.325	3.62
723.077	1.62
723.829	3.62
724.581	3.62
725.333	2.62
726.085	1.62
726.836	1.62
727.588	3.62
728.34	2.62
729.091	2.62
729.843	3.62
730.594	0.62
731.346	3.62
732.097	2.62
732.848	1.62
733.599	2.62
734.35	1.62
735.101	3.62
735.852	3.62
736.603	0.62
737.354	0.62
738.104	3.62
738.855	1.62
739.605	2.62
740.356	3.62
741.106	1.62
741.856	2.62
742.607	4.62
743.357	2.62
744.107	2.62
744.857	2.62
745.607	3.62
746.357	2.62
747.106	3.62
747.856	2.62
748.606	1.62
749.355	3.62
750.105	2.62
750.854	3.62
751.603	2.62
752.353	3.62
753.102	2.62
753.851	2.62
754.6	2.62
755.349	1.62
756.098	2.62
756.847	2.62
757.595	3.62
758.344	2.62
759.093	4.62
759.841	3.62
760.589	4.62
761.338	3.62
762.086	3.62
762.834	1.62
763.582	2.62
764.331	5.62
765.079	6.62
765.826	2.62
766.574	4.62
767.322	3.62
768.07	6.62
768.817	4.62
769.565	4.62
770.312	5.62
771.06	5.62
771.807	5.62
772.554	4.62
773.302	4.62
774.049	2.62
774.796	4.62
775.543	5.62
776.29	5.62
777.036	7.62
777.783	3.62
778.53	5.62
779.276	5.62
780.023	7.62
780.769	4.62
781.516	6.62
782.262	2.62
783.008	2.62
783.754	5.62
784.5	7.62
785.246	6.62
785.992	5.62
786.738	5.62
787.484	6.62
788.23	5.62
788.975	8.62
789.721	4.62
790.466	5.62
791.212	6.62
791.957	4.62
792.702	3.62
793.447	4.62
794.193	6.62
794.938	4.62
795.683	5.62
796.427	4.62
797.172	4.62
797.917	4.62
798.662	5.62
799.406	5.62
800.151	5.62
800.895	4.62
801.64	5.62
802.384	3.62
803.128	6.62
803.872	6.62
804.616	3.62
805.36	5.62
806.104	3.62
806.848	4.62
807.592	4.62
808.336	4.62
809.079	3.62
809.823	4.62
810.566	2.62
811.31	4.62
812.053	4.62
812.796	2.62
813.539	5.62
814.283	3.62
815.026	3.62
815.769	3.62
816.511	3.62
817.254	4.62
817.997	2.62
818.74	3.62
819.482	3.62
820.225	3.62
820.967	4.62
821.71	2.62
822.452	1.62
823.194	0.62
823.936	4.62
824.678	2.62
825.42	4.62
826.162	3.62
826.904	1.62
827.646	2.62
828.388	2.62
829.129	3.62
829.871	2.62
830.612	2.62
831.354	1.62
832.095	2.62
832.836	4.62
833.577	3.62
834.319	3.62
835.06	5.62
835.801	2.62
836.542	2.62
837.282	1.62
838.023	1.62
838.764	2.62
839.504	4.62
840.245	1.62
840.985	3.62
841.726	2.62
842.466	2.62
843.206	3.62
843.946	0.62
844.687	0.62
845.427	1.62
846.166	2.62
846.906	0.62
847.646	0.62
848.386	1.62
849.125	0.62
849.865	3.62
850.605	2.62
851.344	1.62
852.083	3.62
852.823	2.62
853.562	1.62
854.301	1.62
855.04	4.62
855.779	2.62
856.518	2.62
857.257	2.62
857.995	1.62
858.734	3.62
859.473	0.62
860.211	5.62
860.95	3.62
861.688	1.62
862.426	1.62
863.165	1.62
863.903	2.62
864.641	1.62
865.379	1.62
866.117	-0.38
866.855	0.62
867.593	2.62
868.33	0.62
869.068	0.62
869.806	0.62
870.543	1.62
871.28	2.62
872.018	1.62
872.755	1.62
873.492	0.62
874.229	2.62
874.967	2.62
875.703	1.62
876.44	-1.38
877.177	-0.38
877.914	0.62
878.651	1.62
879.387	-1.38
880.124	0.62
880.86	1.62
881.597	0.62
882.333	-0.38
883.069	-0.38
883.806	-1.38
884.542	0.62
885.278	0.62
886.014	1.62
886.749	0.62
887.485	0.62
888.221	1.62
888.957	-1.38
889.692	0.62
890.428	0.62
891.163	-1.38
891.899	0.62
892.634	0.62
893.369	2.62
894.104	1.62
894.839	0.62
895.574	0.62
896.309	0.62
897.044	0.62
897.779	0.62
898.514	0.62
899.248	0.62
899.983	1.62
900.717	2.62
901.452	1.62
902.186	1.62
902.92	0.62
903.654	0.62
904.389	-0.38
905.123	2.62
905.857	1.62
906.59	1.62
907.324	1.62
908.058	-0.38
908.792	1.62
909.525	0.62
910.259	0.62
910.992	0.62
911.726	0.62
912.459	-1.38
913.192	1.62
913.925	1.62
914.658	0.62
915.391	2.62
916.124	1.62
916.857	-1.38
917.59	-0.38
918.323	-1.38
919.055	2.62
919.788	-1.38
920.521	0.62
921.253	0.62
921.985	-0.38
922.718	1.62
923.45	0.62
924.182	0.62
924.914	2.62
925.646	-1.38
926.378	0.62
927.11	0.62
927.841	1.62
928.573	1.62
929.305	1.62
930.036	1.62
930.768	1.62
931.499	0.62
932.23	1.62
932.962	-0.38
933.693	0.62
934.424	1.62
935.155	-0.38
935.886	-0.38
936.617	-0.38
937.348	0.62
938.078	1.62
938.809	-2.38
939.54	-0.38
940.27	0.62
941.001	1.62
941.731	2.62
942.461	0.62
943.191	0.62
943.922	-2.38
944.652	-0.38
945.382	0.62
946.112	-0.38
946.841	1.62
947.571	-0.38
948.301	1.62
949.031	-0.38
949.76	-0.38
950.49	0.62
951.219	-1.38
951.948	-1.38
952.678	-0.38
953.407	0.62
954.136	0.62
954.865	-0.38
955.594	-1.38
956.323	0.62
957.052	0.62
957.78	-1.38
958.509	0.62
959.238	-2.38
959.966	0.62
960.695	-0.38
961.423	-1.38
962.151	1.62
962.88	-0.38
963.608	-1.38
964.336	1.62
965.064	0.62
965.792	1.62
966.52	-1.38
967.247	-0.38
967.975	1.62
968.703	-0.38
969.43	-1.38
970.158	2.62
970.885	-0.38
971.613	-0.38
972.34	0.62
973.067	-0.38
973.794	0.62
974.521	0.62
975.248	0.62
975.975	-1.38
976.702	0.62
977.429	1.62
978.156	-1.38
978.882	1.62
979.609	1.62
980.335	-1.38
981.062	-1.38
981.788	-0.38
982.514	1.62
983.24	-0.38
983.967	1.62
984.693	2.62
985.419	-0.38
986.144	1.62
986.87	-0.38
987.596	1.62
988.322	-1.38
989.047	2.62
989.773	-1.38
990.498	-0.38
991.224	-1.38
991.949	-0.38
992.674	2.62
993.399	2.62
994.124	0.62
994.849	0.62
995.574	0.62
996.299	0.62
997.024	-0.38
997.749	0.62
998.473	0.62
999.198	1.62
999.922	0.62
1000.647	1.62
1001.371	3.62
1002.095	-1.38
1002.82	-1.38
1003.544	-1.38
1004.268	0.62
1004.992	-1.38
1005.716	-0.38
1006.439	-1.38
1007.163	-1.38
1007.887	-0.38
1008.611	-0.38
1009.334	0.62
1010.058	1.62
1010.781	0.62
1011.504	0.62
1012.228	-0.38
1012.951	0.62
1013.674	0.62
1014.397	-1.38
1015.12	0.62
