节点500_145_QEPB04081__528__11-37-19-497.txt的数据

Date: Wed Nov 12 11:37:19 CST 2025
User: PC
Spectrometer: QEPB0408
触发模式: 0
积分时间 (秒): 1.000000E-2
Scans to average: 1
启用暗噪声校正: true
启用非线性校正: false
滑动平均宽度: 0
X轴模式: Wavelengths
Number of Pixels in Spectrum: 1044
>>>>>Begin Spectral Data<<<<<
220.843	1.25
221.644	2.25
222.444	0.25
223.244	1.25
224.045	1.25
224.845	-1.75
225.645	1.25
226.445	-0.75
227.245	0.25
228.045	-1.75
228.845	0.25
229.645	0.25
230.444	-1.75
231.244	0.25
232.043	1.25
232.843	0.25
233.642	0.25
234.442	2.25
235.241	2.25
236.04	3.25
236.839	-0.75
237.638	-0.75
238.437	2.25
239.236	1.25
240.035	2.25
240.833	1.25
241.632	1.25
242.43	2.25
243.229	2.25
244.027	2.25
244.826	0.25
245.624	2.25
246.422	1.25
247.22	2.25
248.018	2.25
248.816	1.25
249.614	5.25
250.412	0.25
251.21	2.25
252.007	3.25
252.805	1.25
253.602	1.25
254.4	4.25
255.197	3.25
255.994	3.25
256.791	5.25
257.589	5.25
258.386	4.25
259.183	4.25
259.979	3.25
260.776	3.25
261.573	3.25
262.37	6.25
263.166	4.25
263.963	4.25
264.759	6.25
265.556	5.25
266.352	5.25
267.148	6.25
267.944	5.25
268.74	5.25
269.536	6.25
270.332	6.25
271.128	8.25
271.924	9.25
272.719	7.25
273.515	5.25
274.311	7.25
275.106	9.25
275.901	8.25
276.697	5.25
277.492	8.25
278.287	8.25
279.082	7.25
279.877	9.25
280.672	13.25
281.467	8.25
282.262	10.25
283.056	10.25
283.851	11.25
284.646	7.25
285.44	10.25
286.234	7.25
287.029	12.25
287.823	9.25
288.617	7.25
289.411	9.25
290.205	10.25
290.999	10.25
291.793	9.25
292.587	12.25
293.381	9.25
294.174	12.25
294.968	8.25
295.761	11.25
296.555	10.25
297.348	7.25
298.141	8.25
298.935	14.25
299.728	10.25
300.521	8.25
301.314	9.25
302.107	8.25
302.899	7.25
303.692	11.25
304.485	6.25
305.277	7.25
306.07	6.25
306.862	7.25
307.655	8.25
308.447	9.25
309.239	7.25
310.031	9.25
310.823	4.25
311.615	10.25
312.407	6.25
313.199	7.25
313.991	6.25
314.783	6.25
315.574	6.25
316.366	8.25
317.157	6.25
317.949	6.25
318.74	7.25
319.531	4.25
320.322	4.25
321.113	1.25
321.904	2.25
322.695	5.25
323.486	3.25
324.277	5.25
325.068	3.25
325.858	5.25
326.649	6.25
327.439	5.25
328.23	5.25
329.02	3.25
329.81	4.25
330.6	2.25
331.391	4.25
332.181	5.25
332.971	2.25
333.76	4.25
334.55	3.25
335.34	5.25
336.13	2.25
336.919	4.25
337.709	2.25
338.498	3.25
339.287	3.25
340.077	3.25
340.866	4.25
341.655	3.25
342.444	2.25
343.233	5.25
344.022	2.25
344.811	1.25
345.6	1.25
346.388	2.25
347.177	4.25
347.965	1.25
348.754	5.25
349.542	1.25
350.33	0.25
351.119	4.25
351.907	1.25
352.695	4.25
353.483	3.25
354.271	1.25
355.059	3.25
355.846	2.25
356.634	1.25
357.422	4.25
358.209	5.25
358.997	3.25
359.784	2.25
360.571	1.25
361.359	3.25
362.146	4.25
362.933	4.25
363.72	5.25
364.507	3.25
365.294	2.25
366.081	1.25
366.867	2.25
367.654	1.25
368.44	1.25
369.227	1.25
370.013	-1.75
370.8	1.25
371.586	4.25
372.372	3.25
373.158	1.25
373.944	4.25
374.73	1.25
375.516	5.25
376.302	2.25
377.088	2.25
377.873	3.25
378.659	2.25
379.445	3.25
380.23	2.25
381.015	2.25
381.801	2.25
382.586	4.25
383.371	0.25
384.156	6.25
384.941	3.25
385.726	3.25
386.511	2.25
387.296	3.25
388.08	2.25
388.865	2.25
389.649	2.25
390.434	4.25
391.218	5.25
392.003	2.25
392.787	2.25
393.571	3.25
394.355	4.25
395.139	3.25
395.923	3.25
396.707	4.25
397.491	3.25
398.274	5.25
399.058	5.25
399.842	2.25
400.625	3.25
401.408	3.25
402.192	1.25
402.975	3.25
403.758	3.25
404.541	3.25
405.324	2.25
406.107	3.25
406.89	4.25
407.673	3.25
408.456	1.25
409.238	3.25
410.021	3.25
410.803	3.25
411.586	2.25
412.368	5.25
413.151	3.25
413.933	6.25
414.715	5.25
415.497	3.25
416.279	4.25
417.061	6.25
417.843	4.25
418.624	5.25
419.406	6.25
420.188	4.25
420.969	5.25
421.751	6.25
422.532	5.25
423.313	7.25
424.095	7.25
424.876	5.25
425.657	6.25
426.438	4.25
427.219	3.25
428	4.25
428.78	5.25
429.561	8.25
430.342	7.25
431.122	7.25
431.903	6.25
432.683	6.25
433.464	7.25
434.244	9.25
435.024	8.25
435.804	7.25
436.584	9.25
437.364	8.25
438.144	10.25
438.924	10.25
439.704	10.25
440.483	10.25
441.263	14.25
442.042	13.25
442.822	12.25
443.601	15.25
444.38	14.25
445.16	14.25
445.939	18.25
446.718	19.25
447.497	18.25
448.276	20.25
449.054	19.25
449.833	25.25
450.612	25.25
451.391	30.25
452.169	27.25
452.948	35.25
453.726	37.25
454.504	40.25
455.282	44.25
456.061	49.25
456.839	51.25
457.617	62.25
458.395	65.25
459.172	73.25
459.95	83.25
460.728	87.25
461.506	96.25
462.283	109.25
463.061	118.25
463.838	136.25
464.615	153.25
465.393	168.25
466.17	189.25
466.947	211.25
467.724	228.25
468.501	252.25
469.278	286.25
470.055	319.25
470.831	346.25
471.608	391.25
472.385	427.25
473.161	486.25
473.938	533.25
474.714	598.25
475.49	652.25
476.266	712.25
477.043	789.25
477.819	862.25
478.595	953.25
479.371	1053.25
480.146	1152.25
480.922	1285.25
481.698	1408.25
482.473	1534.25
483.249	1692.25
484.024	1845.25
484.8	2046.25
485.575	2237.25
486.35	2446.25
487.126	2694.25
487.901	2948.25
488.676	3202.25
489.451	3516.25
490.225	3854.25
491	4215.25
491.775	4580.25
492.55	5009.25
493.324	5488.25
494.099	5986.25
494.873	6508.25
495.647	7065.25
496.422	7699.25
497.196	8281.25
497.97	8909.25
498.744	9613.25
499.518	10236.25
500.292	10968.25
501.066	11610.25
501.839	12284.25
502.613	12922.25
503.387	13515.25
504.16	14058.25
504.934	14569.25
505.707	14959.25
506.48	15220.25
507.253	15482.25
508.027	15610.25
508.8	15680.25
509.573	15629.25
510.346	15524.25
511.118	15281.25
511.891	14949.25
512.664	14544.25
513.437	14179.25
514.209	13663.25
514.982	13230.25
515.754	12684.25
516.526	12190.25
517.298	11697.25
518.071	11184.25
518.843	10770.25
519.615	10235.25
520.387	9855.25
521.159	9472.25
521.93	9042.25
522.702	8717.25
523.474	8367.25
524.245	8046.25
525.017	7743.25
525.788	7415.25
526.56	7100.25
527.331	6841.25
528.102	6538.25
528.873	6259.25
529.644	5998.25
530.415	5731.25
531.186	5446.25
531.957	5238.25
532.728	4945.25
533.498	4669.25
534.269	4447.25
535.039	4236.25
535.81	3964.25
536.58	3765.25
537.351	3541.25
538.121	3361.25
538.891	3195.25
539.661	3022.25
540.431	2847.25
541.201	2688.25
541.971	2556.25
542.741	2410.25
543.51	2302.25
544.28	2184.25
545.05	2063.25
545.819	1961.25
546.588	1859.25
547.358	1762.25
548.127	1700.25
548.896	1598.25
549.665	1527.25
550.434	1434.25
551.203	1381.25
551.972	1314.25
552.741	1230.25
553.51	1169.25
554.278	1107.25
555.047	1047.25
555.815	1001.25
556.584	944.25
557.352	887.25
558.121	830.25
558.889	779.25
559.657	735.25
560.425	696.25
561.193	667.25
561.961	627.25
562.729	578.25
563.496	559.25
564.264	522.25
565.032	498.25
565.799	467.25
566.567	438.25
567.334	417.25
568.101	393.25
568.869	371.25
569.636	348.25
570.403	331.25
571.17	308.25
571.937	296.25
572.704	275.25
573.471	265.25
574.237	242.25
575.004	237.25
575.771	214.25
576.537	201.25
577.303	197.25
578.07	179.25
578.836	169.25
579.602	161.25
580.368	156.25
581.134	144.25
581.9	140.25
582.666	135.25
583.432	124.25
584.198	117.25
584.964	105.25
585.729	102.25
586.495	101.25
587.26	96.25
588.025	88.25
588.791	84.25
589.556	79.25
590.321	72.25
591.086	69.25
591.851	67.25
592.616	65.25
593.381	62.25
594.146	53.25
594.911	52.25
595.675	49.25
596.44	48.25
597.204	42.25
597.969	47.25
598.733	42.25
599.497	42.25
600.261	41.25
601.025	34.25
601.79	35.25
602.553	33.25
603.317	33.25
604.081	29.25
604.845	28.25
605.609	28.25
606.372	27.25
607.136	26.25
607.899	25.25
608.662	25.25
609.426	21.25
610.189	20.25
610.952	23.25
611.715	19.25
612.478	20.25
613.241	19.25
614.004	17.25
614.767	18.25
615.529	14.25
616.292	17.25
617.055	14.25
617.817	15.25
618.579	12.25
619.342	14.25
620.104	13.25
620.866	10.25
621.628	11.25
622.39	10.25
623.152	11.25
623.914	11.25
624.676	9.25
625.438	9.25
626.199	9.25
626.961	11.25
627.722	9.25
628.484	9.25
629.245	9.25
630.006	10.25
630.768	8.25
631.529	8.25
632.29	8.25
633.051	5.25
633.812	9.25
634.573	7.25
635.333	6.25
636.094	6.25
636.855	7.25
637.615	5.25
638.376	5.25
639.136	7.25
639.896	5.25
640.657	6.25
641.417	8.25
642.177	4.25
642.937	7.25
643.697	4.25
644.457	5.25
645.216	3.25
645.976	2.25
646.736	6.25
647.495	6.25
648.255	3.25
649.014	5.25
649.774	5.25
650.533	3.25
651.292	3.25
652.051	5.25
652.81	4.25
653.569	1.25
654.328	2.25
655.087	4.25
655.846	3.25
656.604	3.25
657.363	3.25
658.121	3.25
658.88	4.25
659.638	3.25
660.397	4.25
661.155	3.25
661.913	2.25
662.671	3.25
663.429	3.25
664.187	1.25
664.945	-0.75
665.703	4.25
666.46	0.25
667.218	4.25
667.976	2.25
668.733	2.25
669.49	2.25
670.248	1.25
671.005	2.25
671.762	1.25
672.519	2.25
673.276	4.25
674.033	1.25
674.79	2.25
675.547	3.25
676.304	-0.75
677.06	1.25
677.817	1.25
678.574	4.25
679.33	2.25
680.086	2.25
680.843	1.25
681.599	3.25
682.355	3.25
683.111	0.25
683.867	1.25
684.623	2.25
685.379	4.25
686.135	1.25
686.89	3.25
687.646	2.25
688.402	3.25
689.157	1.25
689.912	1.25
690.668	2.25
691.423	1.25
692.178	2.25
692.933	2.25
693.688	2.25
694.443	3.25
695.198	1.25
695.953	4.25
696.708	3.25
697.462	3.25
698.217	1.25
698.972	2.25
699.726	2.25
700.48	2.25
701.235	1.25
701.989	1.25
702.743	4.25
703.497	2.25
704.251	2.25
705.005	1.25
705.759	1.25
706.513	2.25
707.266	3.25
708.02	2.25
708.774	2.25
709.527	1.25
710.28	1.25
711.034	1.25
711.787	2.25
712.54	0.25
713.293	1.25
714.046	0.25
714.799	2.25
715.552	3.25
716.305	2.25
717.058	2.25
717.81	1.25
718.563	2.25
719.315	2.25
720.068	1.25
720.82	3.25
721.573	1.25
722.325	4.25
723.077	2.25
723.829	4.25
724.581	1.25
725.333	1.25
726.085	3.25
726.836	1.25
727.588	1.25
728.34	3.25
729.091	1.25
729.843	1.25
730.594	2.25
731.346	3.25
732.097	-0.75
732.848	3.25
733.599	3.25
734.35	2.25
735.101	4.25
735.852	2.25
736.603	4.25
737.354	2.25
738.104	2.25
738.855	3.25
739.605	4.25
740.356	1.25
741.106	1.25
741.856	4.25
742.607	0.25
743.357	1.25
744.107	2.25
744.857	3.25
745.607	2.25
746.357	-0.75
747.106	3.25
747.856	1.25
748.606	1.25
749.355	2.25
750.105	3.25
750.854	4.25
751.603	1.25
752.353	5.25
753.102	3.25
753.851	5.25
754.6	2.25
755.349	2.25
756.098	1.25
756.847	2.25
757.595	4.25
758.344	3.25
759.093	2.25
759.841	5.25
760.589	2.25
761.338	2.25
762.086	3.25
762.834	2.25
763.582	1.25
764.331	3.25
765.079	3.25
765.826	3.25
766.574	4.25
767.322	4.25
768.07	4.25
768.817	4.25
769.565	4.25
770.312	4.25
771.06	3.25
771.807	3.25
772.554	2.25
773.302	2.25
774.049	5.25
774.796	3.25
775.543	5.25
776.29	4.25
777.036	5.25
777.783	4.25
778.53	4.25
779.276	4.25
780.023	3.25
780.769	6.25
781.516	1.25
782.262	6.25
783.008	3.25
783.754	5.25
784.5	3.25
785.246	5.25
785.992	5.25
786.738	7.25
787.484	4.25
788.23	3.25
788.975	5.25
789.721	4.25
790.466	5.25
791.212	5.25
791.957	5.25
792.702	5.25
793.447	4.25
794.193	4.25
794.938	4.25
795.683	5.25
796.427	6.25
797.172	6.25
797.917	4.25
798.662	5.25
799.406	4.25
800.151	6.25
800.895	4.25
801.64	4.25
802.384	3.25
803.128	5.25
803.872	5.25
804.616	5.25
805.36	2.25
806.104	4.25
806.848	3.25
807.592	3.25
808.336	4.25
809.079	3.25
809.823	5.25
810.566	4.25
811.31	4.25
812.053	4.25
812.796	1.25
813.539	5.25
814.283	1.25
815.026	2.25
815.769	2.25
816.511	4.25
817.254	4.25
817.997	4.25
818.74	2.25
819.482	1.25
820.225	4.25
820.967	5.25
821.71	1.25
822.452	2.25
823.194	0.25
823.936	3.25
824.678	3.25
825.42	2.25
826.162	2.25
826.904	2.25
827.646	3.25
828.388	2.25
829.129	3.25
829.871	2.25
830.612	0.25
831.354	2.25
832.095	3.25
832.836	3.25
833.577	3.25
834.319	1.25
835.06	1.25
835.801	3.25
836.542	2.25
837.282	4.25
838.023	1.25
838.764	1.25
839.504	4.25
840.245	3.25
840.985	1.25
841.726	3.25
842.466	-0.75
843.206	3.25
843.946	4.25
844.687	4.25
845.427	1.25
846.166	3.25
846.906	1.25
847.646	2.25
848.386	2.25
849.125	1.25
849.865	1.25
850.605	2.25
851.344	0.25
852.083	3.25
852.823	2.25
853.562	0.25
854.301	2.25
855.04	1.25
855.779	-1.75
856.518	0.25
857.257	3.25
857.995	2.25
858.734	2.25
859.473	1.25
860.211	0.25
860.95	1.25
861.688	-1.75
862.426	0.25
863.165	1.25
863.903	1.25
864.641	2.25
865.379	0.25
866.117	1.25
866.855	2.25
867.593	2.25
868.33	0.25
869.068	0.25
869.806	2.25
870.543	-1.75
871.28	1.25
872.018	1.25
872.755	2.25
873.492	1.25
874.229	0.25
874.967	0.25
875.703	0.25
876.44	1.25
877.177	-0.75
877.914	0.25
878.651	-0.75
879.387	0.25
880.124	1.25
880.86	0.25
881.597	2.25
882.333	0.25
883.069	-0.75
883.806	1.25
884.542	2.25
885.278	1.25
886.014	0.25
886.749	0.25
887.485	-2.75
888.221	1.25
888.957	0.25
889.692	-0.75
890.428	1.25
891.163	1.25
891.899	0.25
892.634	0.25
893.369	1.25
894.104	-1.75
894.839	1.25
895.574	0.25
896.309	1.25
897.044	1.25
897.779	-1.75
898.514	1.25
899.248	1.25
899.983	-1.75
900.717	-1.75
901.452	-1.75
902.186	1.25
902.92	1.25
903.654	0.25
904.389	-1.75
905.123	0.25
905.857	1.25
906.59	-1.75
907.324	1.25
908.058	0.25
908.792	0.25
909.525	1.25
910.259	-0.75
910.992	2.25
911.726	0.25
912.459	0.25
913.192	-1.75
913.925	2.25
914.658	0.25
915.391	-0.75
916.124	-1.75
916.857	0.25
917.59	0.25
918.323	2.25
919.055	-1.75
919.788	0.25
920.521	-0.75
921.253	0.25
921.985	0.25
922.718	3.25
923.45	0.25
924.182	-0.75
924.914	1.25
925.646	-1.75
926.378	0.25
927.11	0.25
927.841	0.25
928.573	2.25
929.305	0.25
930.036	0.25
930.768	1.25
931.499	-0.75
932.23	-0.75
932.962	-0.75
933.693	-0.75
934.424	1.25
935.155	1.25
935.886	0.25
936.617	-1.75
937.348	-0.75
938.078	0.25
938.809	1.25
939.54	0.25
940.27	0.25
941.001	-0.75
941.731	0.25
942.461	0.25
943.191	2.25
943.922	-0.75
944.652	-0.75
945.382	0.25
946.112	-0.75
946.841	-0.75
947.571	-0.75
948.301	1.25
949.031	-1.75
949.76	-2.75
950.49	1.25
951.219	-1.75
951.948	0.25
952.678	-1.75
953.407	0.25
954.136	0.25
954.865	1.25
955.594	-0.75
956.323	0.25
957.052	2.25
957.78	1.25
958.509	1.25
959.238	0.25
959.966	-0.75
960.695	-1.75
961.423	-0.75
962.151	0.25
962.88	1.25
963.608	1.25
964.336	1.25
965.064	0.25
965.792	1.25
966.52	-1.75
967.247	2.25
967.975	0.25
968.703	1.25
969.43	1.25
970.158	-0.75
970.885	2.25
971.613	2.25
972.34	1.25
973.067	0.25
973.794	0.25
974.521	-0.75
975.248	-0.75
975.975	0.25
976.702	-0.75
977.429	1.25
978.156	-0.75
978.882	0.25
979.609	1.25
980.335	-0.75
981.062	1.25
981.788	-1.75
982.514	-1.75
983.24	1.25
983.967	0.25
984.693	-0.75
985.419	1.25
986.144	1.25
986.87	-1.75
987.596	0.25
988.322	0.25
989.047	0.25
989.773	0.25
990.498	-0.75
991.224	-0.75
991.949	-1.75
992.674	-0.75
993.399	0.25
994.124	0.25
994.849	0.25
995.574	2.25
996.299	1.25
997.024	0.25
997.749	0.25
998.473	-0.75
999.198	1.25
999.922	-1.75
1000.647	0.25
1001.371	2.25
1002.095	-0.75
1002.82	0.25
1003.544	-0.75
1004.268	-0.75
1004.992	-1.75
1005.716	-0.75
1006.439	0.25
1007.163	-0.75
1007.887	-0.75
1008.611	2.25
1009.334	0.25
1010.058	1.25
1010.781	0.25
1011.504	0.25
1012.228	-0.75
1012.951	-1.75
1013.674	0.25
1014.397	-0.75
1015.12	1.25
