节点500_145_QEPB04081__424__11-35-43-548.txt的数据

Date: Wed Nov 12 11:35:43 CST 2025
User: PC
Spectrometer: QEPB0408
触发模式: 0
积分时间 (秒): 1.000000E-2
Scans to average: 1
启用暗噪声校正: true
启用非线性校正: false
滑动平均宽度: 0
X轴模式: Wavelengths
Number of Pixels in Spectrum: 1044
>>>>>Begin Spectral Data<<<<<
220.843	0.62
221.644	0.62
222.444	0.62
223.244	1.62
224.045	1.62
224.845	-0.38
225.645	-0.38
226.445	0.62
227.245	-0.38
228.045	1.62
228.845	-0.38
229.645	-0.38
230.444	-0.38
231.244	0.62
232.043	2.62
232.843	1.62
233.642	0.62
234.442	1.62
235.241	0.62
236.04	-0.38
236.839	1.62
237.638	-0.38
238.437	-0.38
239.236	0.62
240.035	0.62
240.833	2.62
241.632	1.62
242.43	-0.38
243.229	1.62
244.027	-0.38
244.826	1.62
245.624	2.62
246.422	0.62
247.22	-0.38
248.018	2.62
248.816	1.62
249.614	3.62
250.412	1.62
251.21	1.62
252.007	2.62
252.805	3.62
253.602	2.62
254.4	4.62
255.197	2.62
255.994	2.62
256.791	3.62
257.589	3.62
258.386	4.62
259.183	2.62
259.979	3.62
260.776	5.62
261.573	5.62
262.37	3.62
263.166	5.62
263.963	6.62
264.759	6.62
265.556	3.62
266.352	4.62
267.148	7.62
267.944	5.62
268.74	8.62
269.536	6.62
270.332	7.62
271.128	6.62
271.924	8.62
272.719	7.62
273.515	7.62
274.311	7.62
275.106	8.62
275.901	10.62
276.697	9.62
277.492	10.62
278.287	9.62
279.082	8.62
279.877	7.62
280.672	9.62
281.467	11.62
282.262	10.62
283.056	10.62
283.851	10.62
284.646	7.62
285.44	10.62
286.234	10.62
287.029	9.62
287.823	8.62
288.617	7.62
289.411	11.62
290.205	11.62
290.999	10.62
291.793	10.62
292.587	8.62
293.381	10.62
294.174	11.62
294.968	11.62
295.761	8.62
296.555	11.62
297.348	10.62
298.141	10.62
298.935	12.62
299.728	9.62
300.521	9.62
301.314	7.62
302.107	8.62
302.899	11.62
303.692	7.62
304.485	10.62
305.277	9.62
306.07	7.62
306.862	7.62
307.655	9.62
308.447	8.62
309.239	8.62
310.031	8.62
310.823	4.62
311.615	6.62
312.407	6.62
313.199	6.62
313.991	6.62
314.783	5.62
315.574	4.62
316.366	4.62
317.157	5.62
317.949	4.62
318.74	7.62
319.531	5.62
320.322	7.62
321.113	5.62
321.904	4.62
322.695	5.62
323.486	5.62
324.277	5.62
325.068	4.62
325.858	2.62
326.649	5.62
327.439	2.62
328.23	5.62
329.02	3.62
329.81	3.62
330.6	5.62
331.391	5.62
332.181	4.62
332.971	4.62
333.76	4.62
334.55	3.62
335.34	2.62
336.13	3.62
336.919	1.62
337.709	2.62
338.498	2.62
339.287	4.62
340.077	3.62
340.866	4.62
341.655	2.62
342.444	1.62
343.233	3.62
344.022	4.62
344.811	2.62
345.6	2.62
346.388	3.62
347.177	1.62
347.965	3.62
348.754	5.62
349.542	4.62
350.33	2.62
351.119	3.62
351.907	4.62
352.695	4.62
353.483	3.62
354.271	2.62
355.059	3.62
355.846	3.62
356.634	4.62
357.422	3.62
358.209	4.62
358.997	2.62
359.784	3.62
360.571	4.62
361.359	4.62
362.146	3.62
362.933	1.62
363.72	2.62
364.507	1.62
365.294	2.62
366.081	2.62
366.867	5.62
367.654	4.62
368.44	1.62
369.227	4.62
370.013	1.62
370.8	2.62
371.586	2.62
372.372	3.62
373.158	1.62
373.944	1.62
374.73	-0.38
375.516	3.62
376.302	1.62
377.088	-0.38
377.873	2.62
378.659	2.62
379.445	2.62
380.23	2.62
381.015	1.62
381.801	2.62
382.586	2.62
383.371	4.62
384.156	2.62
384.941	5.62
385.726	3.62
386.511	1.62
387.296	2.62
388.08	3.62
388.865	-0.38
389.649	4.62
390.434	-0.38
391.218	4.62
392.003	2.62
392.787	2.62
393.571	4.62
394.355	4.62
395.139	3.62
395.923	4.62
396.707	3.62
397.491	4.62
398.274	5.62
399.058	5.62
399.842	5.62
400.625	5.62
401.408	2.62
402.192	4.62
402.975	4.62
403.758	2.62
404.541	2.62
405.324	2.62
406.107	5.62
406.89	5.62
407.673	6.62
408.456	4.62
409.238	5.62
410.021	2.62
410.803	5.62
411.586	4.62
412.368	2.62
413.151	4.62
413.933	5.62
414.715	5.62
415.497	4.62
416.279	4.62
417.061	4.62
417.843	5.62
418.624	7.62
419.406	3.62
420.188	6.62
420.969	6.62
421.751	5.62
422.532	6.62
423.313	7.62
424.095	9.62
424.876	5.62
425.657	7.62
426.438	6.62
427.219	6.62
428	7.62
428.78	6.62
429.561	7.62
430.342	7.62
431.122	7.62
431.903	8.62
432.683	9.62
433.464	7.62
434.244	8.62
435.024	8.62
435.804	7.62
436.584	8.62
437.364	10.62
438.144	10.62
438.924	10.62
439.704	10.62
440.483	11.62
441.263	12.62
442.042	11.62
442.822	15.62
443.601	14.62
444.38	13.62
445.16	15.62
445.939	17.62
446.718	19.62
447.497	20.62
448.276	21.62
449.054	21.62
449.833	24.62
450.612	27.62
451.391	28.62
452.169	27.62
452.948	34.62
453.726	36.62
454.504	41.62
455.282	42.62
456.061	46.62
456.839	51.62
457.617	56.62
458.395	63.62
459.172	71.62
459.95	79.62
460.728	85.62
461.506	97.62
462.283	104.62
463.061	118.62
463.838	136.62
464.615	144.62
465.393	164.62
466.17	184.62
466.947	202.62
467.724	219.62
468.501	250.62
469.278	282.62
470.055	314.62
470.831	348.62
471.608	377.62
472.385	428.62
473.161	469.62
473.938	520.62
474.714	570.62
475.49	645.62
476.266	706.62
477.043	780.62
477.819	866.62
478.595	966.62
479.371	1056.62
480.146	1166.62
480.922	1282.62
481.698	1391.62
482.473	1547.62
483.249	1701.62
484.024	1857.62
484.8	2039.62
485.575	2257.62
486.35	2482.62
487.126	2725.62
487.901	2977.62
488.676	3258.62
489.451	3594.62
490.225	3945.62
491	4294.62
491.775	4711.62
492.55	5165.62
493.324	5621.62
494.099	6180.62
494.873	6726.62
495.647	7263.62
496.422	7906.62
497.196	8547.62
497.97	9197.62
498.744	9891.62
499.518	10625.62
500.292	11298.62
501.066	11985.62
501.839	12689.62
502.613	13312.62
503.387	13955.62
504.16	14522.62
504.934	14984.62
505.707	15357.62
506.48	15655.62
507.253	15887.62
508.027	15957.62
508.8	16041.62
509.573	15892.62
510.346	15727.62
511.118	15558.62
511.891	15172.62
512.664	14746.62
513.437	14280.62
514.209	13828.62
514.982	13321.62
515.754	12719.62
516.526	12298.62
517.298	11712.62
518.071	11190.62
518.843	10718.62
519.615	10263.62
520.387	9846.62
521.159	9456.62
521.93	9082.62
522.702	8683.62
523.474	8381.62
524.245	8085.62
525.017	7726.62
525.788	7410.62
526.56	7115.62
527.331	6829.62
528.102	6537.62
528.873	6273.62
529.644	5982.62
530.415	5741.62
531.186	5420.62
531.957	5182.62
532.728	4926.62
533.498	4662.62
534.269	4416.62
535.039	4179.62
535.81	3985.62
536.58	3742.62
537.351	3541.62
538.121	3338.62
538.891	3175.62
539.661	2971.62
540.431	2812.62
541.201	2670.62
541.971	2533.62
542.741	2412.62
543.51	2274.62
544.28	2146.62
545.05	2062.62
545.819	1939.62
546.588	1843.62
547.358	1763.62
548.127	1658.62
548.896	1588.62
549.665	1503.62
550.434	1440.62
551.203	1368.62
551.972	1298.62
552.741	1214.62
553.51	1152.62
554.278	1086.62
555.047	1036.62
555.815	983.62
556.584	930.62
557.352	875.62
558.121	827.62
558.889	778.62
559.657	725.62
560.425	694.62
561.193	645.62
561.961	622.62
562.729	573.62
563.496	541.62
564.264	510.62
565.032	484.62
565.799	457.62
566.567	432.62
567.334	405.62
568.101	385.62
568.869	371.62
569.636	348.62
570.403	318.62
571.17	310.62
571.937	286.62
572.704	274.62
573.471	257.62
574.237	247.62
575.004	226.62
575.771	214.62
576.537	195.62
577.303	188.62
578.07	174.62
578.836	169.62
579.602	158.62
580.368	152.62
581.134	136.62
581.9	139.62
582.666	128.62
583.432	121.62
584.198	111.62
584.964	111.62
585.729	102.62
586.495	93.62
587.26	90.62
588.025	88.62
588.791	80.62
589.556	75.62
590.321	74.62
591.086	72.62
591.851	63.62
592.616	61.62
593.381	56.62
594.146	53.62
594.911	55.62
595.675	49.62
596.44	47.62
597.204	47.62
597.969	43.62
598.733	40.62
599.497	39.62
600.261	36.62
601.025	37.62
601.79	33.62
602.553	30.62
603.317	34.62
604.081	29.62
604.845	27.62
605.609	28.62
606.372	25.62
607.136	26.62
607.899	23.62
608.662	23.62
609.426	22.62
610.189	22.62
610.952	21.62
611.715	18.62
612.478	21.62
613.241	18.62
614.004	16.62
614.767	17.62
615.529	16.62
616.292	16.62
617.055	17.62
617.817	14.62
618.579	14.62
619.342	14.62
620.104	14.62
620.866	10.62
621.628	12.62
622.39	11.62
623.152	15.62
623.914	11.62
624.676	9.62
625.438	9.62
626.199	10.62
626.961	9.62
627.722	8.62
628.484	9.62
629.245	8.62
630.006	9.62
630.768	5.62
631.529	6.62
632.29	7.62
633.051	5.62
633.812	6.62
634.573	6.62
635.333	7.62
636.094	6.62
636.855	4.62
637.615	6.62
638.376	9.62
639.136	4.62
639.896	6.62
640.657	5.62
641.417	5.62
642.177	5.62
642.937	8.62
643.697	6.62
644.457	5.62
645.216	2.62
645.976	6.62
646.736	5.62
647.495	3.62
648.255	3.62
649.014	2.62
649.774	4.62
650.533	5.62
651.292	5.62
652.051	1.62
652.81	4.62
653.569	3.62
654.328	5.62
655.087	3.62
655.846	3.62
656.604	3.62
657.363	4.62
658.121	3.62
658.88	4.62
659.638	3.62
660.397	4.62
661.155	3.62
661.913	4.62
662.671	5.62
663.429	1.62
664.187	4.62
664.945	1.62
665.703	1.62
666.46	3.62
667.218	0.62
667.976	2.62
668.733	2.62
669.49	4.62
670.248	2.62
671.005	1.62
671.762	3.62
672.519	1.62
673.276	4.62
674.033	3.62
674.79	2.62
675.547	2.62
676.304	1.62
677.06	4.62
677.817	2.62
678.574	2.62
679.33	2.62
680.086	2.62
680.843	2.62
681.599	3.62
682.355	2.62
683.111	2.62
683.867	3.62
684.623	0.62
685.379	2.62
686.135	1.62
686.89	2.62
687.646	3.62
688.402	2.62
689.157	0.62
689.912	2.62
690.668	3.62
691.423	2.62
692.178	0.62
692.933	4.62
693.688	2.62
694.443	2.62
695.198	0.62
695.953	3.62
696.708	3.62
697.462	-0.38
698.217	1.62
698.972	5.62
699.726	0.62
700.48	2.62
701.235	2.62
701.989	2.62
702.743	3.62
703.497	4.62
704.251	2.62
705.005	2.62
705.759	3.62
706.513	1.62
707.266	2.62
708.02	1.62
708.774	2.62
709.527	1.62
710.28	2.62
711.034	2.62
711.787	3.62
712.54	2.62
713.293	1.62
714.046	1.62
714.799	1.62
715.552	2.62
716.305	2.62
717.058	2.62
717.81	2.62
718.563	3.62
719.315	2.62
720.068	0.62
720.82	2.62
721.573	1.62
722.325	3.62
723.077	0.62
723.829	2.62
724.581	1.62
725.333	1.62
726.085	2.62
726.836	-0.38
727.588	3.62
728.34	1.62
729.091	4.62
729.843	1.62
730.594	3.62
731.346	3.62
732.097	3.62
732.848	1.62
733.599	2.62
734.35	1.62
735.101	-0.38
735.852	1.62
736.603	3.62
737.354	3.62
738.104	3.62
738.855	1.62
739.605	3.62
740.356	2.62
741.106	-0.38
741.856	3.62
742.607	1.62
743.357	3.62
744.107	3.62
744.857	3.62
745.607	2.62
746.357	2.62
747.106	2.62
747.856	1.62
748.606	3.62
749.355	-1.38
750.105	1.62
750.854	2.62
751.603	1.62
752.353	3.62
753.102	4.62
753.851	2.62
754.6	3.62
755.349	1.62
756.098	3.62
756.847	2.62
757.595	3.62
758.344	2.62
759.093	5.62
759.841	4.62
760.589	3.62
761.338	2.62
762.086	2.62
762.834	3.62
763.582	0.62
764.331	2.62
765.079	4.62
765.826	3.62
766.574	3.62
767.322	3.62
768.07	2.62
768.817	4.62
769.565	4.62
770.312	3.62
771.06	4.62
771.807	5.62
772.554	4.62
773.302	3.62
774.049	3.62
774.796	6.62
775.543	1.62
776.29	5.62
777.036	2.62
777.783	6.62
778.53	4.62
779.276	3.62
780.023	5.62
780.769	4.62
781.516	4.62
782.262	5.62
783.008	2.62
783.754	6.62
784.5	3.62
785.246	4.62
785.992	3.62
786.738	3.62
787.484	4.62
788.23	4.62
788.975	6.62
789.721	5.62
790.466	6.62
791.212	4.62
791.957	1.62
792.702	4.62
793.447	4.62
794.193	5.62
794.938	4.62
795.683	3.62
796.427	5.62
797.172	5.62
797.917	4.62
798.662	2.62
799.406	3.62
800.151	4.62
800.895	6.62
801.64	5.62
802.384	3.62
803.128	6.62
803.872	4.62
804.616	3.62
805.36	5.62
806.104	3.62
806.848	2.62
807.592	3.62
808.336	5.62
809.079	2.62
809.823	3.62
810.566	4.62
811.31	1.62
812.053	3.62
812.796	2.62
813.539	2.62
814.283	6.62
815.026	5.62
815.769	5.62
816.511	1.62
817.254	3.62
817.997	1.62
818.74	2.62
819.482	1.62
820.225	1.62
820.967	1.62
821.71	0.62
822.452	4.62
823.194	4.62
823.936	1.62
824.678	3.62
825.42	2.62
826.162	3.62
826.904	5.62
827.646	3.62
828.388	2.62
829.129	2.62
829.871	2.62
830.612	2.62
831.354	3.62
832.095	2.62
832.836	2.62
833.577	1.62
834.319	2.62
835.06	3.62
835.801	2.62
836.542	3.62
837.282	2.62
838.023	2.62
838.764	1.62
839.504	3.62
840.245	4.62
840.985	2.62
841.726	2.62
842.466	0.62
843.206	2.62
843.946	2.62
844.687	3.62
845.427	1.62
846.166	1.62
846.906	2.62
847.646	3.62
848.386	1.62
849.125	3.62
849.865	4.62
850.605	2.62
851.344	1.62
852.083	4.62
852.823	3.62
853.562	1.62
854.301	1.62
855.04	2.62
855.779	-0.38
856.518	1.62
857.257	1.62
857.995	-1.38
858.734	1.62
859.473	0.62
860.211	2.62
860.95	5.62
861.688	-1.38
862.426	1.62
863.165	2.62
863.903	3.62
864.641	3.62
865.379	1.62
866.117	1.62
866.855	1.62
867.593	2.62
868.33	1.62
869.068	1.62
869.806	-0.38
870.543	0.62
871.28	2.62
872.018	-0.38
872.755	1.62
873.492	-1.38
874.229	0.62
874.967	0.62
875.703	0.62
876.44	0.62
877.177	0.62
877.914	0.62
878.651	1.62
879.387	1.62
880.124	1.62
880.86	-1.38
881.597	2.62
882.333	1.62
883.069	1.62
883.806	1.62
884.542	1.62
885.278	1.62
886.014	0.62
886.749	-0.38
887.485	0.62
888.221	2.62
888.957	1.62
889.692	-1.38
890.428	-0.38
891.163	1.62
891.899	1.62
892.634	-1.38
893.369	0.62
894.104	0.62
894.839	1.62
895.574	0.62
896.309	-0.38
897.044	1.62
897.779	1.62
898.514	1.62
899.248	0.62
899.983	0.62
900.717	2.62
901.452	-2.38
902.186	2.62
902.92	1.62
903.654	0.62
904.389	0.62
905.123	-1.38
905.857	0.62
906.59	-2.38
907.324	0.62
908.058	-0.38
908.792	2.62
909.525	-0.38
910.259	1.62
910.992	1.62
911.726	0.62
912.459	1.62
913.192	0.62
913.925	-1.38
914.658	0.62
915.391	1.62
916.124	1.62
916.857	0.62
917.59	2.62
918.323	-2.38
919.055	1.62
919.788	-1.38
920.521	1.62
921.253	1.62
921.985	1.62
922.718	0.62
923.45	2.62
924.182	1.62
924.914	-1.38
925.646	-0.38
926.378	0.62
927.11	-1.38
927.841	-0.38
928.573	-0.38
929.305	0.62
930.036	-0.38
930.768	0.62
931.499	0.62
932.23	-1.38
932.962	1.62
933.693	-2.38
934.424	1.62
935.155	-0.38
935.886	1.62
936.617	0.62
937.348	-0.38
938.078	-0.38
938.809	-1.38
939.54	1.62
940.27	-1.38
941.001	0.62
941.731	0.62
942.461	-1.38
943.191	-0.38
943.922	-0.38
944.652	1.62
945.382	-1.38
946.112	-0.38
946.841	0.62
947.571	1.62
948.301	1.62
949.031	-0.38
949.76	-2.38
950.49	2.62
951.219	2.62
951.948	0.62
952.678	-2.38
953.407	1.62
954.136	0.62
954.865	0.62
955.594	0.62
956.323	0.62
957.052	2.62
957.78	1.62
958.509	0.62
959.238	1.62
959.966	1.62
960.695	1.62
961.423	-0.38
962.151	1.62
962.88	-0.38
963.608	0.62
964.336	0.62
965.064	-0.38
965.792	0.62
966.52	-0.38
967.247	1.62
967.975	1.62
968.703	-0.38
969.43	-1.38
970.158	1.62
970.885	0.62
971.613	-1.38
972.34	2.62
973.067	-1.38
973.794	1.62
974.521	0.62
975.248	-0.38
975.975	0.62
976.702	0.62
977.429	-0.38
978.156	0.62
978.882	1.62
979.609	-1.38
980.335	1.62
981.062	1.62
981.788	-1.38
982.514	-1.38
983.24	0.62
983.967	1.62
984.693	-2.38
985.419	0.62
986.144	-1.38
986.87	-1.38
987.596	1.62
988.322	-0.38
989.047	0.62
989.773	-2.38
990.498	-0.38
991.224	0.62
991.949	1.62
992.674	0.62
993.399	-1.38
994.124	2.62
994.849	2.62
995.574	-0.38
996.299	1.62
997.024	-0.38
997.749	-1.38
998.473	0.62
999.198	0.62
999.922	1.62
1000.647	0.62
1001.371	2.62
1002.095	-1.38
1002.82	-0.38
1003.544	0.62
1004.268	-0.38
1004.992	-1.38
1005.716	0.62
1006.439	1.62
1007.163	-2.38
1007.887	-0.38
1008.611	-0.38
1009.334	-1.38
1010.058	-0.38
1010.781	0.62
1011.504	0.62
1012.228	2.62
1012.951	-0.38
1013.674	-0.38
1014.397	-1.38
1015.12	0.62
