节点500_145_QEPB04081__7__11-29-03-798.txt的数据

Date: Wed Nov 12 11:29:03 CST 2025
User: PC
Spectrometer: QEPB0408
触发模式: 0
积分时间 (秒): 1.000000E-2
Scans to average: 1
启用暗噪声校正: true
启用非线性校正: false
滑动平均宽度: 0
X轴模式: Wavelengths
Number of Pixels in Spectrum: 1044
>>>>>Begin Spectral Data<<<<<
220.843	-0.62
221.644	-3.62
222.444	1.38
223.244	0.38
224.045	-2.62
224.845	-2.62
225.645	-1.62
226.445	-0.62
227.245	-0.62
228.045	0.38
228.845	0.38
229.645	0.38
230.444	-1.62
231.244	-0.62
232.043	1.38
232.843	-0.62
233.642	1.38
234.442	0.38
235.241	-2.62
236.04	2.38
236.839	0.38
237.638	0.38
238.437	2.38
239.236	1.38
240.035	-0.62
240.833	1.38
241.632	1.38
242.43	0.38
243.229	0.38
244.027	2.38
244.826	3.38
245.624	-0.62
246.422	1.38
247.22	2.38
248.018	0.38
248.816	2.38
249.614	1.38
250.412	0.38
251.21	1.38
252.007	1.38
252.805	3.38
253.602	0.38
254.4	4.38
255.197	4.38
255.994	4.38
256.791	5.38
257.589	2.38
258.386	3.38
259.183	5.38
259.979	3.38
260.776	4.38
261.573	5.38
262.37	5.38
263.166	5.38
263.963	6.38
264.759	3.38
265.556	6.38
266.352	7.38
267.148	5.38
267.944	5.38
268.74	6.38
269.536	6.38
270.332	6.38
271.128	8.38
271.924	6.38
272.719	8.38
273.515	10.38
274.311	8.38
275.106	6.38
275.901	7.38
276.697	8.38
277.492	9.38
278.287	9.38
279.082	10.38
279.877	9.38
280.672	11.38
281.467	8.38
282.262	10.38
283.056	12.38
283.851	11.38
284.646	10.38
285.44	10.38
286.234	9.38
287.029	9.38
287.823	10.38
288.617	12.38
289.411	11.38
290.205	12.38
290.999	9.38
291.793	8.38
292.587	9.38
293.381	9.38
294.174	10.38
294.968	9.38
295.761	10.38
296.555	8.38
297.348	11.38
298.141	8.38
298.935	9.38
299.728	7.38
300.521	7.38
301.314	8.38
302.107	8.38
302.899	9.38
303.692	9.38
304.485	5.38
305.277	7.38
306.07	8.38
306.862	8.38
307.655	7.38
308.447	9.38
309.239	8.38
310.031	4.38
310.823	9.38
311.615	5.38
312.407	6.38
313.199	6.38
313.991	7.38
314.783	8.38
315.574	5.38
316.366	5.38
317.157	5.38
317.949	5.38
318.74	1.38
319.531	5.38
320.322	3.38
321.113	2.38
321.904	4.38
322.695	7.38
323.486	4.38
324.277	5.38
325.068	2.38
325.858	2.38
326.649	4.38
327.439	1.38
328.23	4.38
329.02	4.38
329.81	3.38
330.6	3.38
331.391	5.38
332.181	4.38
332.971	4.38
333.76	4.38
334.55	3.38
335.34	4.38
336.13	3.38
336.919	3.38
337.709	4.38
338.498	5.38
339.287	4.38
340.077	4.38
340.866	4.38
341.655	2.38
342.444	3.38
343.233	2.38
344.022	2.38
344.811	3.38
345.6	2.38
346.388	5.38
347.177	1.38
347.965	2.38
348.754	4.38
349.542	3.38
350.33	2.38
351.119	3.38
351.907	0.38
352.695	3.38
353.483	4.38
354.271	4.38
355.059	3.38
355.846	1.38
356.634	2.38
357.422	1.38
358.209	1.38
358.997	2.38
359.784	3.38
360.571	0.38
361.359	1.38
362.146	-0.62
362.933	1.38
363.72	2.38
364.507	1.38
365.294	3.38
366.081	1.38
366.867	1.38
367.654	-0.62
368.44	2.38
369.227	1.38
370.013	1.38
370.8	-1.62
371.586	0.38
372.372	1.38
373.158	2.38
373.944	0.38
374.73	3.38
375.516	3.38
376.302	0.38
377.088	1.38
377.873	3.38
378.659	1.38
379.445	2.38
380.23	2.38
381.015	4.38
381.801	5.38
382.586	3.38
383.371	2.38
384.156	2.38
384.941	1.38
385.726	2.38
386.511	1.38
387.296	1.38
388.08	1.38
388.865	2.38
389.649	0.38
390.434	2.38
391.218	3.38
392.003	1.38
392.787	2.38
393.571	5.38
394.355	1.38
395.139	0.38
395.923	2.38
396.707	4.38
397.491	3.38
398.274	3.38
399.058	4.38
399.842	4.38
400.625	4.38
401.408	1.38
402.192	2.38
402.975	4.38
403.758	5.38
404.541	1.38
405.324	4.38
406.107	2.38
406.89	1.38
407.673	3.38
408.456	3.38
409.238	5.38
410.021	2.38
410.803	4.38
411.586	1.38
412.368	5.38
413.151	4.38
413.933	4.38
414.715	4.38
415.497	2.38
416.279	3.38
417.061	3.38
417.843	4.38
418.624	3.38
419.406	6.38
420.188	6.38
420.969	5.38
421.751	5.38
422.532	4.38
423.313	6.38
424.095	6.38
424.876	5.38
425.657	6.38
426.438	5.38
427.219	6.38
428	5.38
428.78	5.38
429.561	6.38
430.342	6.38
431.122	8.38
431.903	7.38
432.683	7.38
433.464	10.38
434.244	9.38
435.024	8.38
435.804	8.38
436.584	8.38
437.364	9.38
438.144	10.38
438.924	10.38
439.704	8.38
440.483	9.38
441.263	10.38
442.042	12.38
442.822	11.38
443.601	13.38
444.38	13.38
445.16	14.38
445.939	16.38
446.718	19.38
447.497	17.38
448.276	20.38
449.054	17.38
449.833	21.38
450.612	21.38
451.391	24.38
452.169	25.38
452.948	27.38
453.726	28.38
454.504	33.38
455.282	36.38
456.061	41.38
456.839	43.38
457.617	47.38
458.395	51.38
459.172	61.38
459.95	61.38
460.728	69.38
461.506	79.38
462.283	86.38
463.061	99.38
463.838	109.38
464.615	123.38
465.393	133.38
466.17	152.38
466.947	167.38
467.724	189.38
468.501	212.38
469.278	241.38
470.055	265.38
470.831	303.38
471.608	333.38
472.385	369.38
473.161	415.38
473.938	471.38
474.714	524.38
475.49	578.38
476.266	646.38
477.043	715.38
477.819	800.38
478.595	893.38
479.371	999.38
480.146	1117.38
480.922	1237.38
481.698	1379.38
482.473	1515.38
483.249	1698.38
484.024	1903.38
484.8	2094.38
485.575	2301.38
486.35	2604.38
487.126	2857.38
487.901	3192.38
488.676	3516.38
489.451	3899.38
490.225	4337.38
491	4792.38
491.775	5308.38
492.55	5821.38
493.324	6436.38
494.099	7125.38
494.873	7795.38
495.647	8477.38
496.422	9268.38
497.196	10074.38
497.97	10902.38
498.744	11754.38
499.518	12605.38
500.292	13420.38
501.066	14161.38
501.839	14860.38
502.613	15524.38
503.387	16168.38
504.16	16701.38
504.934	17106.38
505.707	17317.38
506.48	17459.38
507.253	17571.38
508.027	17510.38
508.8	17280.38
509.573	16929.38
510.346	16539.38
511.118	16060.38
511.891	15494.38
512.664	14884.38
513.437	14250.38
514.209	13727.38
514.982	13019.38
515.754	12453.38
516.526	11865.38
517.298	11419.38
518.071	10785.38
518.843	10328.38
519.615	9868.38
520.387	9439.38
521.159	9088.38
521.93	8714.38
522.702	8444.38
523.474	8088.38
524.245	7724.38
525.017	7424.38
525.788	7138.38
526.56	6861.38
527.331	6555.38
528.102	6222.38
528.873	5943.38
529.644	5672.38
530.415	5366.38
531.186	5105.38
531.957	4831.38
532.728	4586.38
533.498	4330.38
534.269	4097.38
535.039	3843.38
535.81	3626.38
536.58	3419.38
537.351	3227.38
538.121	3026.38
538.891	2889.38
539.661	2708.38
540.431	2584.38
541.201	2434.38
541.971	2285.38
542.741	2165.38
543.51	2087.38
544.28	1980.38
545.05	1868.38
545.819	1778.38
546.588	1692.38
547.358	1614.38
548.127	1529.38
548.896	1467.38
549.665	1372.38
550.434	1303.38
551.203	1228.38
551.972	1161.38
552.741	1107.38
553.51	1043.38
554.278	989.38
555.047	923.38
555.815	873.38
556.584	831.38
557.352	775.38
558.121	739.38
558.889	688.38
559.657	648.38
560.425	602.38
561.193	579.38
561.961	548.38
562.729	516.38
563.496	481.38
564.264	449.38
565.032	426.38
565.799	414.38
566.567	388.38
567.334	367.38
568.101	343.38
568.869	325.38
569.636	303.38
570.403	283.38
571.17	273.38
571.937	250.38
572.704	241.38
573.471	217.38
574.237	207.38
575.004	197.38
575.771	185.38
576.537	178.38
577.303	166.38
578.07	157.38
578.836	145.38
579.602	137.38
580.368	133.38
581.134	124.38
581.9	118.38
582.666	117.38
583.432	109.38
584.198	99.38
584.964	89.38
585.729	91.38
586.495	84.38
587.26	79.38
588.025	76.38
588.791	72.38
589.556	69.38
590.321	63.38
591.086	61.38
591.851	59.38
592.616	55.38
593.381	51.38
594.146	49.38
594.911	45.38
595.675	45.38
596.44	41.38
597.204	41.38
597.969	37.38
598.733	35.38
599.497	35.38
600.261	32.38
601.025	33.38
601.79	29.38
602.553	30.38
603.317	28.38
604.081	27.38
604.845	24.38
605.609	24.38
606.372	25.38
607.136	22.38
607.899	22.38
608.662	24.38
609.426	18.38
610.189	18.38
610.952	16.38
611.715	18.38
612.478	14.38
613.241	14.38
614.004	15.38
614.767	13.38
615.529	14.38
616.292	13.38
617.055	13.38
617.817	12.38
618.579	14.38
619.342	13.38
620.104	10.38
620.866	11.38
621.628	9.38
622.39	10.38
623.152	11.38
623.914	8.38
624.676	11.38
625.438	10.38
626.199	8.38
626.961	8.38
627.722	7.38
628.484	7.38
629.245	6.38
630.006	6.38
630.768	7.38
631.529	7.38
632.29	7.38
633.051	6.38
633.812	6.38
634.573	6.38
635.333	5.38
636.094	6.38
636.855	6.38
637.615	3.38
638.376	4.38
639.136	5.38
639.896	6.38
640.657	4.38
641.417	5.38
642.177	5.38
642.937	1.38
643.697	5.38
644.457	5.38
645.216	4.38
645.976	2.38
646.736	2.38
647.495	3.38
648.255	5.38
649.014	3.38
649.774	4.38
650.533	1.38
651.292	2.38
652.051	1.38
652.81	3.38
653.569	3.38
654.328	2.38
655.087	3.38
655.846	4.38
656.604	2.38
657.363	0.38
658.121	3.38
658.88	2.38
659.638	2.38
660.397	3.38
661.155	1.38
661.913	4.38
662.671	4.38
663.429	3.38
664.187	3.38
664.945	0.38
665.703	3.38
666.46	1.38
667.218	2.38
667.976	1.38
668.733	1.38
669.49	2.38
670.248	1.38
671.005	3.38
671.762	2.38
672.519	2.38
673.276	2.38
674.033	1.38
674.79	0.38
675.547	2.38
676.304	1.38
677.06	-2.62
677.817	1.38
678.574	1.38
679.33	2.38
680.086	2.38
680.843	1.38
681.599	1.38
682.355	0.38
683.111	1.38
683.867	1.38
684.623	3.38
685.379	2.38
686.135	2.38
686.89	4.38
687.646	0.38
688.402	2.38
689.157	3.38
689.912	0.38
690.668	2.38
691.423	0.38
692.178	0.38
692.933	0.38
693.688	1.38
694.443	1.38
695.198	1.38
695.953	1.38
696.708	0.38
697.462	1.38
698.217	1.38
698.972	2.38
699.726	1.38
700.48	1.38
701.235	1.38
701.989	0.38
702.743	3.38
703.497	0.38
704.251	0.38
705.005	1.38
705.759	1.38
706.513	4.38
707.266	0.38
708.02	0.38
708.774	2.38
709.527	0.38
710.28	0.38
711.034	1.38
711.787	4.38
712.54	2.38
713.293	1.38
714.046	1.38
714.799	0.38
715.552	2.38
716.305	1.38
717.058	0.38
717.81	2.38
718.563	-0.62
719.315	2.38
720.068	0.38
720.82	1.38
721.573	0.38
722.325	1.38
723.077	1.38
723.829	0.38
724.581	2.38
725.333	0.38
726.085	4.38
726.836	1.38
727.588	2.38
728.34	1.38
729.091	0.38
729.843	1.38
730.594	-1.62
731.346	2.38
732.097	1.38
732.848	1.38
733.599	0.38
734.35	0.38
735.101	2.38
735.852	1.38
736.603	2.38
737.354	3.38
738.104	2.38
738.855	1.38
739.605	2.38
740.356	4.38
741.106	2.38
741.856	3.38
742.607	-0.62
743.357	4.38
744.107	4.38
744.857	0.38
745.607	3.38
746.357	1.38
747.106	2.38
747.856	0.38
748.606	1.38
749.355	2.38
750.105	2.38
750.854	4.38
751.603	2.38
752.353	3.38
753.102	2.38
753.851	1.38
754.6	3.38
755.349	0.38
756.098	1.38
756.847	5.38
757.595	3.38
758.344	1.38
759.093	0.38
759.841	1.38
760.589	2.38
761.338	3.38
762.086	2.38
762.834	1.38
763.582	1.38
764.331	2.38
765.079	5.38
765.826	1.38
766.574	2.38
767.322	6.38
768.07	2.38
768.817	3.38
769.565	2.38
770.312	3.38
771.06	4.38
771.807	2.38
772.554	1.38
773.302	4.38
774.049	4.38
774.796	2.38
775.543	5.38
776.29	1.38
777.036	6.38
777.783	3.38
778.53	6.38
779.276	7.38
780.023	3.38
780.769	4.38
781.516	6.38
782.262	5.38
783.008	5.38
783.754	7.38
784.5	4.38
785.246	4.38
785.992	5.38
786.738	5.38
787.484	4.38
788.23	6.38
788.975	4.38
789.721	6.38
790.466	4.38
791.212	5.38
791.957	3.38
792.702	6.38
793.447	6.38
794.193	4.38
794.938	7.38
795.683	3.38
796.427	2.38
797.172	4.38
797.917	3.38
798.662	4.38
799.406	4.38
800.151	7.38
800.895	3.38
801.64	2.38
802.384	4.38
803.128	5.38
803.872	3.38
804.616	3.38
805.36	1.38
806.104	1.38
806.848	2.38
807.592	5.38
808.336	3.38
809.079	5.38
809.823	2.38
810.566	3.38
811.31	2.38
812.053	1.38
812.796	1.38
813.539	4.38
814.283	1.38
815.026	0.38
815.769	1.38
816.511	3.38
817.254	3.38
817.997	2.38
818.74	2.38
819.482	3.38
820.225	4.38
820.967	3.38
821.71	0.38
822.452	2.38
823.194	2.38
823.936	3.38
824.678	2.38
825.42	1.38
826.162	1.38
826.904	2.38
827.646	-0.62
828.388	4.38
829.129	0.38
829.871	0.38
830.612	1.38
831.354	1.38
832.095	2.38
832.836	0.38
833.577	1.38
834.319	3.38
835.06	2.38
835.801	0.38
836.542	1.38
837.282	3.38
838.023	2.38
838.764	2.38
839.504	2.38
840.245	0.38
840.985	3.38
841.726	2.38
842.466	1.38
843.206	2.38
843.946	3.38
844.687	1.38
845.427	3.38
846.166	2.38
846.906	0.38
847.646	1.38
848.386	1.38
849.125	4.38
849.865	1.38
850.605	0.38
851.344	-0.62
852.083	3.38
852.823	1.38
853.562	1.38
854.301	-0.62
855.04	2.38
855.779	1.38
856.518	2.38
857.257	0.38
857.995	1.38
858.734	1.38
859.473	0.38
860.211	-0.62
860.95	-0.62
861.688	0.38
862.426	-0.62
863.165	1.38
863.903	1.38
864.641	1.38
865.379	1.38
866.117	-1.62
866.855	1.38
867.593	1.38
868.33	2.38
869.068	-0.62
869.806	-0.62
870.543	0.38
871.28	-0.62
872.018	0.38
872.755	0.38
873.492	1.38
874.229	1.38
874.967	2.38
875.703	-0.62
876.44	2.38
877.177	1.38
877.914	2.38
878.651	1.38
879.387	-0.62
880.124	2.38
880.86	-0.62
881.597	0.38
882.333	0.38
883.069	1.38
883.806	1.38
884.542	-0.62
885.278	0.38
886.014	-1.62
886.749	1.38
887.485	1.38
888.221	-0.62
888.957	0.38
889.692	1.38
890.428	0.38
891.163	0.38
891.899	-0.62
892.634	-0.62
893.369	0.38
894.104	0.38
894.839	1.38
895.574	0.38
896.309	-0.62
897.044	-2.62
897.779	1.38
898.514	0.38
899.248	1.38
899.983	-1.62
900.717	-1.62
901.452	0.38
902.186	-0.62
902.92	1.38
903.654	-0.62
904.389	-0.62
905.123	-0.62
905.857	-2.62
906.59	0.38
907.324	-0.62
908.058	1.38
908.792	-0.62
909.525	0.38
910.259	1.38
910.992	-1.62
911.726	-2.62
912.459	0.38
913.192	-0.62
913.925	-0.62
914.658	-0.62
915.391	1.38
916.124	-2.62
916.857	-0.62
917.59	-1.62
918.323	0.38
919.055	-1.62
919.788	-0.62
920.521	-1.62
921.253	0.38
921.985	-2.62
922.718	1.38
923.45	-0.62
924.182	0.38
924.914	-0.62
925.646	0.38
926.378	0.38
927.11	-0.62
927.841	-0.62
928.573	0.38
929.305	-0.62
930.036	-1.62
930.768	-2.62
931.499	0.38
932.23	0.38
932.962	2.38
933.693	0.38
934.424	-2.62
935.155	-0.62
935.886	0.38
936.617	-0.62
937.348	0.38
938.078	-1.62
938.809	-0.62
939.54	-2.62
940.27	-2.62
941.001	-0.62
941.731	-0.62
942.461	-1.62
943.191	-0.62
943.922	-1.62
944.652	1.38
945.382	-2.62
946.112	-0.62
946.841	-1.62
947.571	0.38
948.301	-1.62
949.031	0.38
949.76	0.38
950.49	-0.62
951.219	1.38
951.948	-0.62
952.678	-0.62
953.407	-0.62
954.136	0.38
954.865	-1.62
955.594	-1.62
956.323	-0.62
957.052	-2.62
957.78	-1.62
958.509	-0.62
959.238	0.38
959.966	-0.62
960.695	-0.62
961.423	-0.62
962.151	-0.62
962.88	1.38
963.608	-0.62
964.336	-0.62
965.064	-1.62
965.792	-3.62
966.52	0.38
967.247	-0.62
967.975	0.38
968.703	0.38
969.43	0.38
970.158	0.38
970.885	-0.62
971.613	1.38
972.34	-2.62
973.067	0.38
973.794	2.38
974.521	-0.62
975.248	-0.62
975.975	-0.62
976.702	0.38
977.429	-1.62
978.156	0.38
978.882	1.38
979.609	0.38
980.335	0.38
981.062	-0.62
981.788	-0.62
982.514	0.38
983.24	-1.62
983.967	2.38
984.693	0.38
985.419	1.38
986.144	-0.62
986.87	-0.62
987.596	-0.62
988.322	-3.62
989.047	-1.62
989.773	-2.62
990.498	0.38
991.224	-0.62
991.949	-0.62
992.674	0.38
993.399	-0.62
994.124	0.38
994.849	-0.62
995.574	0.38
996.299	0.38
997.024	0.38
997.749	0.38
998.473	-1.62
999.198	-1.62
999.922	-0.62
1000.647	-0.62
1001.371	2.38
1002.095	-0.62
1002.82	-1.62
1003.544	1.38
1004.268	-0.62
1004.992	-2.62
1005.716	-0.62
1006.439	-0.62
1007.163	-1.62
1007.887	-1.62
1008.611	0.38
1009.334	-2.62
1010.058	-2.62
1010.781	-0.62
1011.504	-1.62
1012.228	-0.62
1012.951	1.38
1013.674	-1.62
1014.397	-0.62
1015.12	-0.62
