节点500_145_QEPB04081__517__11-37-08-535.txt的数据

Date: Wed Nov 12 11:37:08 CST 2025
User: PC
Spectrometer: QEPB0408
触发模式: 0
积分时间 (秒): 1.000000E-2
Scans to average: 1
启用暗噪声校正: true
启用非线性校正: false
滑动平均宽度: 0
X轴模式: Wavelengths
Number of Pixels in Spectrum: 1044
>>>>>Begin Spectral Data<<<<<
220.843	-1.62
221.644	1.38
222.444	-1.62
223.244	1.38
224.045	-0.62
224.845	2.38
225.645	-0.62
226.445	0.38
227.245	0.38
228.045	-0.62
228.845	0.38
229.645	-1.62
230.444	1.38
231.244	3.38
232.043	2.38
232.843	1.38
233.642	1.38
234.442	1.38
235.241	1.38
236.04	2.38
236.839	0.38
237.638	2.38
238.437	3.38
239.236	1.38
240.035	3.38
240.833	0.38
241.632	0.38
242.43	2.38
243.229	1.38
244.027	1.38
244.826	0.38
245.624	2.38
246.422	2.38
247.22	0.38
248.018	1.38
248.816	1.38
249.614	2.38
250.412	2.38
251.21	2.38
252.007	2.38
252.805	3.38
253.602	2.38
254.4	0.38
255.197	3.38
255.994	2.38
256.791	4.38
257.589	0.38
258.386	2.38
259.183	4.38
259.979	4.38
260.776	3.38
261.573	2.38
262.37	5.38
263.166	4.38
263.963	2.38
264.759	3.38
265.556	5.38
266.352	6.38
267.148	5.38
267.944	6.38
268.74	4.38
269.536	3.38
270.332	5.38
271.128	6.38
271.924	3.38
272.719	6.38
273.515	5.38
274.311	7.38
275.106	10.38
275.901	9.38
276.697	10.38
277.492	8.38
278.287	6.38
279.082	7.38
279.877	6.38
280.672	10.38
281.467	11.38
282.262	8.38
283.056	8.38
283.851	10.38
284.646	12.38
285.44	9.38
286.234	9.38
287.029	10.38
287.823	9.38
288.617	11.38
289.411	10.38
290.205	7.38
290.999	10.38
291.793	9.38
292.587	9.38
293.381	8.38
294.174	11.38
294.968	10.38
295.761	7.38
296.555	8.38
297.348	9.38
298.141	8.38
298.935	9.38
299.728	9.38
300.521	10.38
301.314	7.38
302.107	6.38
302.899	9.38
303.692	9.38
304.485	6.38
305.277	5.38
306.07	9.38
306.862	6.38
307.655	8.38
308.447	5.38
309.239	5.38
310.031	9.38
310.823	7.38
311.615	7.38
312.407	6.38
313.199	7.38
313.991	7.38
314.783	7.38
315.574	4.38
316.366	5.38
317.157	8.38
317.949	7.38
318.74	4.38
319.531	5.38
320.322	7.38
321.113	3.38
321.904	4.38
322.695	4.38
323.486	5.38
324.277	4.38
325.068	4.38
325.858	4.38
326.649	4.38
327.439	5.38
328.23	7.38
329.02	3.38
329.81	4.38
330.6	2.38
331.391	2.38
332.181	3.38
332.971	3.38
333.76	3.38
334.55	4.38
335.34	4.38
336.13	4.38
336.919	3.38
337.709	3.38
338.498	3.38
339.287	5.38
340.077	2.38
340.866	5.38
341.655	3.38
342.444	3.38
343.233	5.38
344.022	6.38
344.811	3.38
345.6	5.38
346.388	2.38
347.177	1.38
347.965	4.38
348.754	3.38
349.542	3.38
350.33	3.38
351.119	3.38
351.907	3.38
352.695	3.38
353.483	4.38
354.271	4.38
355.059	4.38
355.846	5.38
356.634	2.38
357.422	3.38
358.209	2.38
358.997	4.38
359.784	3.38
360.571	3.38
361.359	2.38
362.146	2.38
362.933	6.38
363.72	1.38
364.507	3.38
365.294	3.38
366.081	2.38
366.867	1.38
367.654	3.38
368.44	3.38
369.227	0.38
370.013	1.38
370.8	1.38
371.586	3.38
372.372	2.38
373.158	4.38
373.944	5.38
374.73	4.38
375.516	4.38
376.302	1.38
377.088	1.38
377.873	1.38
378.659	3.38
379.445	5.38
380.23	-0.62
381.015	2.38
381.801	1.38
382.586	2.38
383.371	4.38
384.156	2.38
384.941	4.38
385.726	4.38
386.511	2.38
387.296	4.38
388.08	2.38
388.865	3.38
389.649	2.38
390.434	4.38
391.218	2.38
392.003	2.38
392.787	2.38
393.571	1.38
394.355	3.38
395.139	1.38
395.923	2.38
396.707	5.38
397.491	4.38
398.274	3.38
399.058	3.38
399.842	5.38
400.625	5.38
401.408	1.38
402.192	3.38
402.975	2.38
403.758	3.38
404.541	3.38
405.324	5.38
406.107	2.38
406.89	5.38
407.673	2.38
408.456	3.38
409.238	3.38
410.021	3.38
410.803	3.38
411.586	5.38
412.368	3.38
413.151	4.38
413.933	4.38
414.715	3.38
415.497	3.38
416.279	4.38
417.061	4.38
417.843	7.38
418.624	6.38
419.406	7.38
420.188	6.38
420.969	4.38
421.751	5.38
422.532	6.38
423.313	7.38
424.095	4.38
424.876	5.38
425.657	6.38
426.438	7.38
427.219	7.38
428	7.38
428.78	7.38
429.561	5.38
430.342	7.38
431.122	5.38
431.903	8.38
432.683	7.38
433.464	5.38
434.244	7.38
435.024	6.38
435.804	7.38
436.584	11.38
437.364	10.38
438.144	8.38
438.924	8.38
439.704	13.38
440.483	9.38
441.263	11.38
442.042	13.38
442.822	13.38
443.601	13.38
444.38	14.38
445.16	16.38
445.939	18.38
446.718	18.38
447.497	20.38
448.276	19.38
449.054	21.38
449.833	21.38
450.612	24.38
451.391	29.38
452.169	30.38
452.948	34.38
453.726	36.38
454.504	39.38
455.282	44.38
456.061	46.38
456.839	55.38
457.617	55.38
458.395	62.38
459.172	74.38
459.95	83.38
460.728	88.38
461.506	93.38
462.283	109.38
463.061	121.38
463.838	140.38
464.615	153.38
465.393	166.38
466.17	186.38
466.947	215.38
467.724	229.38
468.501	256.38
469.278	288.38
470.055	315.38
470.831	348.38
471.608	389.38
472.385	428.38
473.161	484.38
473.938	529.38
474.714	579.38
475.49	637.38
476.266	713.38
477.043	783.38
477.819	868.38
478.595	956.38
479.371	1049.38
480.146	1166.38
480.922	1274.38
481.698	1400.38
482.473	1532.38
483.249	1691.38
484.024	1851.38
484.8	2041.38
485.575	2245.38
486.35	2442.38
487.126	2682.38
487.901	2963.38
488.676	3207.38
489.451	3499.38
490.225	3875.38
491	4227.38
491.775	4629.38
492.55	5065.38
493.324	5531.38
494.099	6013.38
494.873	6510.38
495.647	7065.38
496.422	7674.38
497.196	8336.38
497.97	8979.38
498.744	9635.38
499.518	10290.38
500.292	11006.38
501.066	11697.38
501.839	12292.38
502.613	12939.38
503.387	13572.38
504.16	14138.38
504.934	14601.38
505.707	14958.38
506.48	15346.38
507.253	15540.38
508.027	15661.38
508.8	15785.38
509.573	15688.38
510.346	15497.38
511.118	15300.38
511.891	14974.38
512.664	14592.38
513.437	14172.38
514.209	13716.38
514.982	13246.38
515.754	12664.38
516.526	12223.38
517.298	11683.38
518.071	11182.38
518.843	10692.38
519.615	10266.38
520.387	9865.38
521.159	9457.38
521.93	9067.38
522.702	8725.38
523.474	8393.38
524.245	8058.38
525.017	7723.38
525.788	7418.38
526.56	7110.38
527.331	6834.38
528.102	6549.38
528.873	6258.38
529.644	5957.38
530.415	5717.38
531.186	5421.38
531.957	5203.38
532.728	4945.38
533.498	4686.38
534.269	4449.38
535.039	4215.38
535.81	3990.38
536.58	3759.38
537.351	3565.38
538.121	3375.38
538.891	3179.38
539.661	3011.38
540.431	2842.38
541.201	2689.38
541.971	2542.38
542.741	2418.38
543.51	2291.38
544.28	2154.38
545.05	2057.38
545.819	1943.38
546.588	1872.38
547.358	1778.38
548.127	1697.38
548.896	1607.38
549.665	1509.38
550.434	1455.38
551.203	1369.38
551.972	1306.38
552.741	1239.38
553.51	1170.38
554.278	1111.38
555.047	1033.38
555.815	998.38
556.584	931.38
557.352	890.38
558.121	839.38
558.889	777.38
559.657	737.38
560.425	699.38
561.193	666.38
561.961	614.38
562.729	580.38
563.496	560.38
564.264	519.38
565.032	491.38
565.799	476.38
566.567	438.38
567.334	414.38
568.101	388.38
568.869	373.38
569.636	348.38
570.403	332.38
571.17	313.38
571.937	297.38
572.704	285.38
573.471	265.38
574.237	252.38
575.004	225.38
575.771	218.38
576.537	204.38
577.303	190.38
578.07	184.38
578.836	170.38
579.602	161.38
580.368	151.38
581.134	151.38
581.9	134.38
582.666	131.38
583.432	120.38
584.198	117.38
584.964	110.38
585.729	100.38
586.495	100.38
587.26	88.38
588.025	86.38
588.791	81.38
589.556	78.38
590.321	74.38
591.086	70.38
591.851	66.38
592.616	62.38
593.381	58.38
594.146	58.38
594.911	52.38
595.675	53.38
596.44	47.38
597.204	46.38
597.969	41.38
598.733	39.38
599.497	39.38
600.261	35.38
601.025	37.38
601.79	34.38
602.553	33.38
603.317	32.38
604.081	28.38
604.845	28.38
605.609	28.38
606.372	28.38
607.136	26.38
607.899	26.38
608.662	23.38
609.426	22.38
610.189	22.38
610.952	23.38
611.715	19.38
612.478	19.38
613.241	17.38
614.004	16.38
614.767	18.38
615.529	18.38
616.292	13.38
617.055	17.38
617.817	16.38
618.579	14.38
619.342	13.38
620.104	14.38
620.866	13.38
621.628	10.38
622.39	12.38
623.152	11.38
623.914	9.38
624.676	11.38
625.438	9.38
626.199	11.38
626.961	9.38
627.722	8.38
628.484	8.38
629.245	10.38
630.006	6.38
630.768	8.38
631.529	6.38
632.29	6.38
633.051	6.38
633.812	6.38
634.573	5.38
635.333	8.38
636.094	8.38
636.855	6.38
637.615	4.38
638.376	6.38
639.136	5.38
639.896	5.38
640.657	7.38
641.417	5.38
642.177	5.38
642.937	5.38
643.697	6.38
644.457	6.38
645.216	3.38
645.976	4.38
646.736	3.38
647.495	5.38
648.255	5.38
649.014	4.38
649.774	4.38
650.533	2.38
651.292	2.38
652.051	4.38
652.81	4.38
653.569	4.38
654.328	4.38
655.087	4.38
655.846	3.38
656.604	5.38
657.363	4.38
658.121	2.38
658.88	2.38
659.638	4.38
660.397	4.38
661.155	2.38
661.913	1.38
662.671	3.38
663.429	3.38
664.187	3.38
664.945	4.38
665.703	4.38
666.46	0.38
667.218	3.38
667.976	3.38
668.733	3.38
669.49	4.38
670.248	3.38
671.005	5.38
671.762	2.38
672.519	3.38
673.276	1.38
674.033	4.38
674.79	1.38
675.547	0.38
676.304	3.38
677.06	2.38
677.817	2.38
678.574	4.38
679.33	2.38
680.086	1.38
680.843	2.38
681.599	3.38
682.355	1.38
683.111	1.38
683.867	2.38
684.623	2.38
685.379	3.38
686.135	2.38
686.89	1.38
687.646	2.38
688.402	2.38
689.157	3.38
689.912	2.38
690.668	2.38
691.423	1.38
692.178	3.38
692.933	3.38
693.688	1.38
694.443	2.38
695.198	1.38
695.953	1.38
696.708	2.38
697.462	4.38
698.217	0.38
698.972	2.38
699.726	3.38
700.48	1.38
701.235	4.38
701.989	2.38
702.743	3.38
703.497	0.38
704.251	1.38
705.005	2.38
705.759	1.38
706.513	1.38
707.266	-0.62
708.02	2.38
708.774	2.38
709.527	1.38
710.28	1.38
711.034	1.38
711.787	2.38
712.54	2.38
713.293	0.38
714.046	2.38
714.799	1.38
715.552	1.38
716.305	3.38
717.058	2.38
717.81	3.38
718.563	1.38
719.315	2.38
720.068	1.38
720.82	2.38
721.573	1.38
722.325	2.38
723.077	2.38
723.829	0.38
724.581	4.38
725.333	3.38
726.085	2.38
726.836	0.38
727.588	2.38
728.34	-0.62
729.091	2.38
729.843	0.38
730.594	3.38
731.346	2.38
732.097	2.38
732.848	2.38
733.599	2.38
734.35	-1.62
735.101	2.38
735.852	2.38
736.603	2.38
737.354	1.38
738.104	3.38
738.855	0.38
739.605	3.38
740.356	3.38
741.106	3.38
741.856	1.38
742.607	3.38
743.357	1.38
744.107	3.38
744.857	3.38
745.607	2.38
746.357	0.38
747.106	3.38
747.856	1.38
748.606	3.38
749.355	6.38
750.105	1.38
750.854	2.38
751.603	3.38
752.353	2.38
753.102	1.38
753.851	1.38
754.6	2.38
755.349	0.38
756.098	2.38
756.847	3.38
757.595	3.38
758.344	2.38
759.093	0.38
759.841	2.38
760.589	4.38
761.338	3.38
762.086	0.38
762.834	1.38
763.582	4.38
764.331	4.38
765.079	5.38
765.826	3.38
766.574	1.38
767.322	0.38
768.07	5.38
768.817	6.38
769.565	1.38
770.312	2.38
771.06	2.38
771.807	3.38
772.554	6.38
773.302	5.38
774.049	4.38
774.796	3.38
775.543	3.38
776.29	5.38
777.036	4.38
777.783	4.38
778.53	6.38
779.276	4.38
780.023	1.38
780.769	5.38
781.516	4.38
782.262	5.38
783.008	3.38
783.754	5.38
784.5	4.38
785.246	6.38
785.992	5.38
786.738	3.38
787.484	4.38
788.23	2.38
788.975	6.38
789.721	4.38
790.466	4.38
791.212	3.38
791.957	5.38
792.702	4.38
793.447	3.38
794.193	3.38
794.938	4.38
795.683	5.38
796.427	6.38
797.172	4.38
797.917	7.38
798.662	4.38
799.406	2.38
800.151	1.38
800.895	3.38
801.64	3.38
802.384	3.38
803.128	4.38
803.872	3.38
804.616	3.38
805.36	3.38
806.104	5.38
806.848	5.38
807.592	4.38
808.336	4.38
809.079	3.38
809.823	3.38
810.566	3.38
811.31	5.38
812.053	3.38
812.796	4.38
813.539	5.38
814.283	4.38
815.026	2.38
815.769	4.38
816.511	5.38
817.254	2.38
817.997	1.38
818.74	2.38
819.482	4.38
820.225	3.38
820.967	5.38
821.71	5.38
822.452	1.38
823.194	4.38
823.936	2.38
824.678	4.38
825.42	2.38
826.162	2.38
826.904	3.38
827.646	2.38
828.388	1.38
829.129	1.38
829.871	5.38
830.612	3.38
831.354	3.38
832.095	0.38
832.836	4.38
833.577	1.38
834.319	4.38
835.06	2.38
835.801	2.38
836.542	1.38
837.282	2.38
838.023	3.38
838.764	3.38
839.504	3.38
840.245	1.38
840.985	1.38
841.726	2.38
842.466	2.38
843.206	3.38
843.946	3.38
844.687	2.38
845.427	2.38
846.166	0.38
846.906	-0.62
847.646	1.38
848.386	3.38
849.125	3.38
849.865	2.38
850.605	1.38
851.344	1.38
852.083	2.38
852.823	0.38
853.562	1.38
854.301	0.38
855.04	3.38
855.779	3.38
856.518	2.38
857.257	3.38
857.995	0.38
858.734	3.38
859.473	1.38
860.211	0.38
860.95	1.38
861.688	1.38
862.426	2.38
863.165	1.38
863.903	1.38
864.641	0.38
865.379	1.38
866.117	1.38
866.855	0.38
867.593	2.38
868.33	0.38
869.068	1.38
869.806	1.38
870.543	3.38
871.28	1.38
872.018	2.38
872.755	0.38
873.492	0.38
874.229	1.38
874.967	0.38
875.703	0.38
876.44	2.38
877.177	1.38
877.914	-0.62
878.651	-1.62
879.387	2.38
880.124	1.38
880.86	1.38
881.597	-1.62
882.333	0.38
883.069	1.38
883.806	0.38
884.542	0.38
885.278	0.38
886.014	1.38
886.749	0.38
887.485	0.38
888.221	0.38
888.957	-0.62
889.692	1.38
890.428	-0.62
891.163	1.38
891.899	0.38
892.634	-0.62
893.369	1.38
894.104	-0.62
894.839	-0.62
895.574	-0.62
896.309	1.38
897.044	0.38
897.779	1.38
898.514	1.38
899.248	-0.62
899.983	2.38
900.717	0.38
901.452	-0.62
902.186	2.38
902.92	-0.62
903.654	0.38
904.389	1.38
905.123	3.38
905.857	-1.62
906.59	1.38
907.324	0.38
908.058	-0.62
908.792	2.38
909.525	0.38
910.259	-0.62
910.992	1.38
911.726	3.38
912.459	1.38
913.192	-0.62
913.925	0.38
914.658	0.38
915.391	1.38
916.124	-0.62
916.857	1.38
917.59	-0.62
918.323	-0.62
919.055	2.38
919.788	0.38
920.521	0.38
921.253	0.38
921.985	1.38
922.718	-1.62
923.45	-0.62
924.182	-0.62
924.914	-0.62
925.646	0.38
926.378	0.38
927.11	0.38
927.841	1.38
928.573	-0.62
929.305	0.38
930.036	0.38
930.768	2.38
931.499	0.38
932.23	1.38
932.962	1.38
933.693	-1.62
934.424	0.38
935.155	1.38
935.886	0.38
936.617	-1.62
937.348	-0.62
938.078	1.38
938.809	-0.62
939.54	2.38
940.27	0.38
941.001	2.38
941.731	-0.62
942.461	-0.62
943.191	-1.62
943.922	-1.62
944.652	1.38
945.382	0.38
946.112	-2.62
946.841	2.38
947.571	0.38
948.301	1.38
949.031	1.38
949.76	-1.62
950.49	-0.62
951.219	1.38
951.948	-1.62
952.678	-0.62
953.407	2.38
954.136	-1.62
954.865	1.38
955.594	1.38
956.323	-0.62
957.052	2.38
957.78	-1.62
958.509	0.38
959.238	-1.62
959.966	1.38
960.695	1.38
961.423	0.38
962.151	1.38
962.88	-0.62
963.608	1.38
964.336	0.38
965.064	0.38
965.792	1.38
966.52	-1.62
967.247	2.38
967.975	0.38
968.703	2.38
969.43	1.38
970.158	2.38
970.885	-2.62
971.613	0.38
972.34	2.38
973.067	0.38
973.794	1.38
974.521	-0.62
975.248	0.38
975.975	1.38
976.702	-0.62
977.429	1.38
978.156	-1.62
978.882	1.38
979.609	-1.62
980.335	0.38
981.062	1.38
981.788	0.38
982.514	-0.62
983.24	-2.62
983.967	1.38
984.693	0.38
985.419	-0.62
986.144	1.38
986.87	-0.62
987.596	-1.62
988.322	0.38
989.047	2.38
989.773	-0.62
990.498	1.38
991.224	0.38
991.949	0.38
992.674	0.38
993.399	-0.62
994.124	-0.62
994.849	1.38
995.574	0.38
996.299	0.38
997.024	2.38
997.749	0.38
998.473	-2.62
999.198	0.38
999.922	-0.62
1000.647	-1.62
1001.371	3.38
1002.095	-1.62
1002.82	-0.62
1003.544	-1.62
1004.268	2.38
1004.992	0.38
1005.716	-1.62
1006.439	1.38
1007.163	0.38
1007.887	-0.62
1008.611	0.38
1009.334	1.38
1010.058	-0.62
1010.781	2.38
1011.504	1.38
1012.228	1.38
1012.951	0.38
1013.674	0.38
1014.397	-1.62
1015.12	1.38
