节点500_145_QEPB04081__433__11-35-52-553.txt的数据

Date: Wed Nov 12 11:35:52 CST 2025
User: PC
Spectrometer: QEPB0408
触发模式: 0
积分时间 (秒): 1.000000E-2
Scans to average: 1
启用暗噪声校正: true
启用非线性校正: false
滑动平均宽度: 0
X轴模式: Wavelengths
Number of Pixels in Spectrum: 1044
>>>>>Begin Spectral Data<<<<<
220.843	-0.62
221.644	-1.62
222.444	-1.62
223.244	-1.62
224.045	-0.62
224.845	-0.62
225.645	-2.62
226.445	0.38
227.245	1.38
228.045	-1.62
228.845	-0.62
229.645	-2.62
230.444	1.38
231.244	0.38
232.043	1.38
232.843	-0.62
233.642	4.38
234.442	-0.62
235.241	-1.62
236.04	2.38
236.839	-0.62
237.638	1.38
238.437	-2.62
239.236	2.38
240.035	-0.62
240.833	-0.62
241.632	-0.62
242.43	0.38
243.229	1.38
244.027	1.38
244.826	-0.62
245.624	0.38
246.422	-0.62
247.22	1.38
248.018	-0.62
248.816	3.38
249.614	0.38
250.412	2.38
251.21	4.38
252.007	2.38
252.805	1.38
253.602	1.38
254.4	0.38
255.197	2.38
255.994	3.38
256.791	1.38
257.589	3.38
258.386	1.38
259.183	2.38
259.979	3.38
260.776	2.38
261.573	2.38
262.37	0.38
263.166	3.38
263.963	5.38
264.759	4.38
265.556	8.38
266.352	4.38
267.148	4.38
267.944	7.38
268.74	3.38
269.536	6.38
270.332	4.38
271.128	6.38
271.924	6.38
272.719	8.38
273.515	6.38
274.311	8.38
275.106	8.38
275.901	8.38
276.697	6.38
277.492	6.38
278.287	7.38
279.082	9.38
279.877	7.38
280.672	9.38
281.467	9.38
282.262	8.38
283.056	8.38
283.851	8.38
284.646	9.38
285.44	9.38
286.234	9.38
287.029	8.38
287.823	9.38
288.617	10.38
289.411	8.38
290.205	11.38
290.999	11.38
291.793	11.38
292.587	8.38
293.381	9.38
294.174	11.38
294.968	6.38
295.761	9.38
296.555	10.38
297.348	11.38
298.141	9.38
298.935	9.38
299.728	9.38
300.521	7.38
301.314	8.38
302.107	8.38
302.899	6.38
303.692	6.38
304.485	5.38
305.277	4.38
306.07	7.38
306.862	7.38
307.655	6.38
308.447	8.38
309.239	7.38
310.031	7.38
310.823	5.38
311.615	8.38
312.407	5.38
313.199	7.38
313.991	6.38
314.783	6.38
315.574	5.38
316.366	6.38
317.157	6.38
317.949	4.38
318.74	4.38
319.531	4.38
320.322	4.38
321.113	4.38
321.904	5.38
322.695	1.38
323.486	5.38
324.277	4.38
325.068	4.38
325.858	4.38
326.649	4.38
327.439	2.38
328.23	2.38
329.02	2.38
329.81	4.38
330.6	3.38
331.391	1.38
332.181	3.38
332.971	2.38
333.76	2.38
334.55	2.38
335.34	3.38
336.13	2.38
336.919	2.38
337.709	2.38
338.498	2.38
339.287	5.38
340.077	2.38
340.866	3.38
341.655	2.38
342.444	1.38
343.233	2.38
344.022	4.38
344.811	3.38
345.6	3.38
346.388	2.38
347.177	-0.62
347.965	2.38
348.754	1.38
349.542	2.38
350.33	2.38
351.119	2.38
351.907	2.38
352.695	2.38
353.483	0.38
354.271	2.38
355.059	3.38
355.846	2.38
356.634	-0.62
357.422	2.38
358.209	2.38
358.997	2.38
359.784	1.38
360.571	1.38
361.359	1.38
362.146	2.38
362.933	1.38
363.72	1.38
364.507	0.38
365.294	1.38
366.081	1.38
366.867	2.38
367.654	5.38
368.44	1.38
369.227	2.38
370.013	1.38
370.8	0.38
371.586	1.38
372.372	1.38
373.158	2.38
373.944	3.38
374.73	0.38
375.516	2.38
376.302	0.38
377.088	1.38
377.873	1.38
378.659	3.38
379.445	1.38
380.23	1.38
381.015	3.38
381.801	1.38
382.586	1.38
383.371	0.38
384.156	3.38
384.941	2.38
385.726	1.38
386.511	1.38
387.296	2.38
388.08	2.38
388.865	1.38
389.649	4.38
390.434	2.38
391.218	0.38
392.003	4.38
392.787	1.38
393.571	3.38
394.355	0.38
395.139	4.38
395.923	3.38
396.707	2.38
397.491	2.38
398.274	3.38
399.058	3.38
399.842	2.38
400.625	1.38
401.408	3.38
402.192	0.38
402.975	4.38
403.758	3.38
404.541	3.38
405.324	3.38
406.107	2.38
406.89	2.38
407.673	1.38
408.456	4.38
409.238	-1.62
410.021	3.38
410.803	1.38
411.586	5.38
412.368	5.38
413.151	1.38
413.933	3.38
414.715	4.38
415.497	5.38
416.279	2.38
417.061	6.38
417.843	4.38
418.624	3.38
419.406	4.38
420.188	2.38
420.969	4.38
421.751	6.38
422.532	4.38
423.313	5.38
424.095	4.38
424.876	5.38
425.657	6.38
426.438	6.38
427.219	7.38
428	6.38
428.78	8.38
429.561	8.38
430.342	6.38
431.122	8.38
431.903	6.38
432.683	9.38
433.464	6.38
434.244	9.38
435.024	10.38
435.804	9.38
436.584	6.38
437.364	8.38
438.144	9.38
438.924	8.38
439.704	10.38
440.483	11.38
441.263	11.38
442.042	12.38
442.822	11.38
443.601	13.38
444.38	14.38
445.16	15.38
445.939	14.38
446.718	16.38
447.497	17.38
448.276	22.38
449.054	21.38
449.833	22.38
450.612	25.38
451.391	26.38
452.169	30.38
452.948	32.38
453.726	33.38
454.504	40.38
455.282	44.38
456.061	48.38
456.839	51.38
457.617	56.38
458.395	64.38
459.172	68.38
459.95	76.38
460.728	86.38
461.506	96.38
462.283	104.38
463.061	116.38
463.838	132.38
464.615	146.38
465.393	162.38
466.17	185.38
466.947	201.38
467.724	223.38
468.501	252.38
469.278	285.38
470.055	304.38
470.831	334.38
471.608	388.38
472.385	434.38
473.161	476.38
473.938	520.38
474.714	570.38
475.49	640.38
476.266	719.38
477.043	783.38
477.819	858.38
478.595	949.38
479.371	1047.38
480.146	1156.38
480.922	1284.38
481.698	1406.38
482.473	1530.38
483.249	1679.38
484.024	1859.38
484.8	2047.38
485.575	2243.38
486.35	2472.38
487.126	2710.38
487.901	2990.38
488.676	3287.38
489.451	3589.38
490.225	3906.38
491	4303.38
491.775	4693.38
492.55	5151.38
493.324	5629.38
494.099	6119.38
494.873	6693.38
495.647	7263.38
496.422	7902.38
497.196	8505.38
497.97	9199.38
498.744	9833.38
499.518	10605.38
500.292	11321.38
501.066	11999.38
501.839	12661.38
502.613	13250.38
503.387	13912.38
504.16	14407.38
504.934	14896.38
505.707	15288.38
506.48	15568.38
507.253	15896.38
508.027	16008.38
508.8	15981.38
509.573	15923.38
510.346	15728.38
511.118	15504.38
511.891	15079.38
512.664	14729.38
513.437	14283.38
514.209	13812.38
514.982	13250.38
515.754	12760.38
516.526	12216.38
517.298	11707.38
518.071	11191.38
518.843	10708.38
519.615	10295.38
520.387	9854.38
521.159	9444.38
521.93	9103.38
522.702	8761.38
523.474	8393.38
524.245	8039.38
525.017	7740.38
525.788	7377.38
526.56	7118.38
527.331	6822.38
528.102	6540.38
528.873	6256.38
529.644	5967.38
530.415	5720.38
531.186	5428.38
531.957	5200.38
532.728	4910.38
533.498	4638.38
534.269	4405.38
535.039	4198.38
535.81	3965.38
536.58	3730.38
537.351	3549.38
538.121	3347.38
538.891	3178.38
539.661	2994.38
540.431	2816.38
541.201	2676.38
541.971	2544.38
542.741	2406.38
543.51	2260.38
544.28	2171.38
545.05	2058.38
545.819	1941.38
546.588	1857.38
547.358	1759.38
548.127	1670.38
548.896	1580.38
549.665	1503.38
550.434	1428.38
551.203	1370.38
551.972	1286.38
552.741	1224.38
553.51	1157.38
554.278	1091.38
555.047	1032.38
555.815	968.38
556.584	918.38
557.352	875.38
558.121	814.38
558.889	771.38
559.657	726.38
560.425	691.38
561.193	644.38
561.961	616.38
562.729	580.38
563.496	540.38
564.264	520.38
565.032	494.38
565.799	457.38
566.567	435.38
567.334	412.38
568.101	391.38
568.869	362.38
569.636	344.38
570.403	323.38
571.17	297.38
571.937	288.38
572.704	271.38
573.471	259.38
574.237	244.38
575.004	232.38
575.771	218.38
576.537	197.38
577.303	188.38
578.07	176.38
578.836	170.38
579.602	158.38
580.368	148.38
581.134	146.38
581.9	136.38
582.666	130.38
583.432	120.38
584.198	112.38
584.964	108.38
585.729	104.38
586.495	94.38
587.26	96.38
588.025	88.38
588.791	78.38
589.556	74.38
590.321	73.38
591.086	69.38
591.851	67.38
592.616	62.38
593.381	56.38
594.146	53.38
594.911	52.38
595.675	50.38
596.44	48.38
597.204	44.38
597.969	43.38
598.733	43.38
599.497	39.38
600.261	36.38
601.025	36.38
601.79	34.38
602.553	32.38
603.317	31.38
604.081	30.38
604.845	30.38
605.609	26.38
606.372	25.38
607.136	26.38
607.899	22.38
608.662	25.38
609.426	22.38
610.189	18.38
610.952	19.38
611.715	20.38
612.478	16.38
613.241	19.38
614.004	17.38
614.767	13.38
615.529	14.38
616.292	13.38
617.055	14.38
617.817	12.38
618.579	12.38
619.342	12.38
620.104	12.38
620.866	12.38
621.628	12.38
622.39	11.38
623.152	9.38
623.914	11.38
624.676	11.38
625.438	8.38
626.199	7.38
626.961	7.38
627.722	7.38
628.484	6.38
629.245	7.38
630.006	7.38
630.768	6.38
631.529	9.38
632.29	5.38
633.051	6.38
633.812	6.38
634.573	6.38
635.333	5.38
636.094	7.38
636.855	6.38
637.615	4.38
638.376	7.38
639.136	3.38
639.896	3.38
640.657	4.38
641.417	6.38
642.177	4.38
642.937	6.38
643.697	5.38
644.457	6.38
645.216	6.38
645.976	3.38
646.736	4.38
647.495	6.38
648.255	3.38
649.014	3.38
649.774	3.38
650.533	3.38
651.292	1.38
652.051	4.38
652.81	2.38
653.569	1.38
654.328	3.38
655.087	1.38
655.846	4.38
656.604	3.38
657.363	0.38
658.121	2.38
658.88	4.38
659.638	4.38
660.397	1.38
661.155	-0.62
661.913	2.38
662.671	1.38
663.429	3.38
664.187	1.38
664.945	3.38
665.703	1.38
666.46	1.38
667.218	1.38
667.976	-0.62
668.733	1.38
669.49	2.38
670.248	3.38
671.005	0.38
671.762	1.38
672.519	2.38
673.276	2.38
674.033	3.38
674.79	0.38
675.547	1.38
676.304	1.38
677.06	2.38
677.817	3.38
678.574	0.38
679.33	2.38
680.086	2.38
680.843	1.38
681.599	2.38
682.355	-0.62
683.111	0.38
683.867	0.38
684.623	1.38
685.379	1.38
686.135	1.38
686.89	0.38
687.646	0.38
688.402	0.38
689.157	1.38
689.912	0.38
690.668	-0.62
691.423	3.38
692.178	-0.62
692.933	1.38
693.688	1.38
694.443	3.38
695.198	1.38
695.953	3.38
696.708	0.38
697.462	3.38
698.217	2.38
698.972	1.38
699.726	-1.62
700.48	3.38
701.235	1.38
701.989	2.38
702.743	2.38
703.497	0.38
704.251	-0.62
705.005	-1.62
705.759	1.38
706.513	0.38
707.266	1.38
708.02	0.38
708.774	2.38
709.527	2.38
710.28	-0.62
711.034	2.38
711.787	-0.62
712.54	-0.62
713.293	3.38
714.046	1.38
714.799	-0.62
715.552	3.38
716.305	1.38
717.058	1.38
717.81	1.38
718.563	1.38
719.315	0.38
720.068	3.38
720.82	-0.62
721.573	2.38
722.325	1.38
723.077	1.38
723.829	1.38
724.581	0.38
725.333	2.38
726.085	0.38
726.836	-0.62
727.588	4.38
728.34	1.38
729.091	1.38
729.843	1.38
730.594	-0.62
731.346	1.38
732.097	-1.62
732.848	2.38
733.599	2.38
734.35	2.38
735.101	0.38
735.852	0.38
736.603	1.38
737.354	2.38
738.104	-0.62
738.855	1.38
739.605	0.38
740.356	0.38
741.106	4.38
741.856	2.38
742.607	2.38
743.357	-0.62
744.107	2.38
744.857	2.38
745.607	1.38
746.357	-0.62
747.106	3.38
747.856	2.38
748.606	0.38
749.355	4.38
750.105	0.38
750.854	-0.62
751.603	2.38
752.353	1.38
753.102	0.38
753.851	2.38
754.6	2.38
755.349	4.38
756.098	2.38
756.847	4.38
757.595	1.38
758.344	1.38
759.093	0.38
759.841	1.38
760.589	1.38
761.338	2.38
762.086	1.38
762.834	0.38
763.582	1.38
764.331	2.38
765.079	2.38
765.826	3.38
766.574	1.38
767.322	4.38
768.07	1.38
768.817	5.38
769.565	4.38
770.312	3.38
771.06	3.38
771.807	2.38
772.554	3.38
773.302	3.38
774.049	2.38
774.796	4.38
775.543	5.38
776.29	2.38
777.036	4.38
777.783	4.38
778.53	3.38
779.276	3.38
780.023	4.38
780.769	5.38
781.516	4.38
782.262	3.38
783.008	5.38
783.754	3.38
784.5	1.38
785.246	2.38
785.992	4.38
786.738	6.38
787.484	4.38
788.23	4.38
788.975	4.38
789.721	4.38
790.466	3.38
791.212	6.38
791.957	4.38
792.702	2.38
793.447	2.38
794.193	3.38
794.938	5.38
795.683	3.38
796.427	3.38
797.172	4.38
797.917	2.38
798.662	5.38
799.406	3.38
800.151	5.38
800.895	4.38
801.64	4.38
802.384	2.38
803.128	2.38
803.872	2.38
804.616	3.38
805.36	2.38
806.104	3.38
806.848	2.38
807.592	4.38
808.336	2.38
809.079	5.38
809.823	4.38
810.566	2.38
811.31	3.38
812.053	4.38
812.796	1.38
813.539	1.38
814.283	3.38
815.026	4.38
815.769	1.38
816.511	4.38
817.254	0.38
817.997	3.38
818.74	2.38
819.482	2.38
820.225	2.38
820.967	1.38
821.71	3.38
822.452	1.38
823.194	3.38
823.936	0.38
824.678	0.38
825.42	3.38
826.162	0.38
826.904	2.38
827.646	-0.62
828.388	2.38
829.129	2.38
829.871	0.38
830.612	3.38
831.354	2.38
832.095	2.38
832.836	0.38
833.577	1.38
834.319	2.38
835.06	1.38
835.801	0.38
836.542	2.38
837.282	1.38
838.023	2.38
838.764	2.38
839.504	2.38
840.245	1.38
840.985	2.38
841.726	1.38
842.466	1.38
843.206	2.38
843.946	3.38
844.687	1.38
845.427	-0.62
846.166	5.38
846.906	0.38
847.646	1.38
848.386	-0.62
849.125	0.38
849.865	0.38
850.605	1.38
851.344	1.38
852.083	0.38
852.823	1.38
853.562	0.38
854.301	2.38
855.04	-0.62
855.779	1.38
856.518	-0.62
857.257	0.38
857.995	2.38
858.734	0.38
859.473	1.38
860.211	2.38
860.95	0.38
861.688	0.38
862.426	0.38
863.165	-0.62
863.903	0.38
864.641	2.38
865.379	1.38
866.117	0.38
866.855	0.38
867.593	-2.62
868.33	2.38
869.068	0.38
869.806	0.38
870.543	0.38
871.28	-1.62
872.018	0.38
872.755	0.38
873.492	0.38
874.229	-2.62
874.967	1.38
875.703	-0.62
876.44	3.38
877.177	-1.62
877.914	-0.62
878.651	0.38
879.387	0.38
880.124	0.38
880.86	3.38
881.597	-3.62
882.333	1.38
883.069	-2.62
883.806	-3.62
884.542	0.38
885.278	1.38
886.014	0.38
886.749	1.38
887.485	0.38
888.221	-0.62
888.957	1.38
889.692	0.38
890.428	-0.62
891.163	-0.62
891.899	-0.62
892.634	-0.62
893.369	-1.62
894.104	0.38
894.839	0.38
895.574	-1.62
896.309	0.38
897.044	-1.62
897.779	2.38
898.514	-1.62
899.248	0.38
899.983	0.38
900.717	0.38
901.452	0.38
902.186	-2.62
902.92	-0.62
903.654	-0.62
904.389	-2.62
905.123	0.38
905.857	-2.62
906.59	0.38
907.324	-0.62
908.058	1.38
908.792	-0.62
909.525	-0.62
910.259	-0.62
910.992	0.38
911.726	1.38
912.459	1.38
913.192	-0.62
913.925	2.38
914.658	1.38
915.391	-1.62
916.124	-3.62
916.857	-0.62
917.59	-0.62
918.323	-0.62
919.055	1.38
919.788	0.38
920.521	-0.62
921.253	0.38
921.985	-0.62
922.718	-2.62
923.45	-0.62
924.182	1.38
924.914	-1.62
925.646	-0.62
926.378	1.38
927.11	1.38
927.841	-2.62
928.573	0.38
929.305	-0.62
930.036	-0.62
930.768	-0.62
931.499	-0.62
932.23	1.38
932.962	2.38
933.693	0.38
934.424	-0.62
935.155	-2.62
935.886	0.38
936.617	-2.62
937.348	1.38
938.078	-0.62
938.809	-2.62
939.54	1.38
940.27	0.38
941.001	0.38
941.731	-1.62
942.461	0.38
943.191	-0.62
943.922	-1.62
944.652	0.38
945.382	-2.62
946.112	0.38
946.841	-0.62
947.571	-0.62
948.301	-0.62
949.031	0.38
949.76	-0.62
950.49	-0.62
951.219	-0.62
951.948	-2.62
952.678	-2.62
953.407	-1.62
954.136	0.38
954.865	0.38
955.594	0.38
956.323	0.38
957.052	-2.62
957.78	-0.62
958.509	0.38
959.238	-1.62
959.966	-0.62
960.695	0.38
961.423	-2.62
962.151	0.38
962.88	-2.62
963.608	0.38
964.336	-0.62
965.064	-0.62
965.792	-0.62
966.52	-0.62
967.247	-0.62
967.975	-0.62
968.703	-0.62
969.43	-1.62
970.158	-1.62
970.885	-3.62
971.613	1.38
972.34	-0.62
973.067	1.38
973.794	-0.62
974.521	-1.62
975.248	1.38
975.975	-2.62
976.702	0.38
977.429	0.38
978.156	1.38
978.882	0.38
979.609	-2.62
980.335	-0.62
981.062	-2.62
981.788	2.38
982.514	0.38
983.24	2.38
983.967	-2.62
984.693	-0.62
985.419	-0.62
986.144	-1.62
986.87	0.38
987.596	-0.62
988.322	-0.62
989.047	0.38
989.773	-2.62
990.498	1.38
991.224	-2.62
991.949	-1.62
992.674	-0.62
993.399	-0.62
994.124	-1.62
994.849	0.38
995.574	1.38
996.299	-1.62
997.024	2.38
997.749	-0.62
998.473	0.38
999.198	0.38
999.922	-0.62
1000.647	0.38
1001.371	2.38
1002.095	0.38
1002.82	-1.62
1003.544	-1.62
1004.268	-2.62
1004.992	-0.62
1005.716	-0.62
1006.439	-3.62
1007.163	1.38
1007.887	-0.62
1008.611	-2.62
1009.334	-0.62
1010.058	-2.62
1010.781	0.38
1011.504	1.38
1012.228	-0.62
1012.951	-0.62
1013.674	0.38
1014.397	0.38
1015.12	0.38
