节点500_145_QEPB04081__151__11-31-21-602.txt的数据

Date: Wed Nov 12 11:31:21 CST 2025
User: PC
Spectrometer: QEPB0408
触发模式: 0
积分时间 (秒): 1.000000E-2
Scans to average: 1
启用暗噪声校正: true
启用非线性校正: false
滑动平均宽度: 0
X轴模式: Wavelengths
Number of Pixels in Spectrum: 1044
>>>>>Begin Spectral Data<<<<<
220.843	0.12
221.644	0.12
222.444	0.12
223.244	1.12
224.045	-2.88
224.845	0.12
225.645	0.12
226.445	-1.88
227.245	1.12
228.045	-0.88
228.845	0.12
229.645	-0.88
230.444	1.12
231.244	0.12
232.043	2.12
232.843	2.12
233.642	-0.88
234.442	1.12
235.241	2.12
236.04	0.12
236.839	2.12
237.638	2.12
238.437	2.12
239.236	1.12
240.035	1.12
240.833	3.12
241.632	0.12
242.43	2.12
243.229	3.12
244.027	1.12
244.826	1.12
245.624	2.12
246.422	0.12
247.22	2.12
248.018	2.12
248.816	2.12
249.614	4.12
250.412	1.12
251.21	2.12
252.007	2.12
252.805	1.12
253.602	3.12
254.4	2.12
255.197	1.12
255.994	5.12
256.791	5.12
257.589	5.12
258.386	2.12
259.183	6.12
259.979	3.12
260.776	3.12
261.573	5.12
262.37	2.12
263.166	5.12
263.963	4.12
264.759	7.12
265.556	6.12
266.352	6.12
267.148	7.12
267.944	7.12
268.74	6.12
269.536	7.12
270.332	7.12
271.128	7.12
271.924	7.12
272.719	8.12
273.515	7.12
274.311	10.12
275.106	8.12
275.901	10.12
276.697	9.12
277.492	9.12
278.287	7.12
279.082	10.12
279.877	13.12
280.672	9.12
281.467	8.12
282.262	9.12
283.056	12.12
283.851	12.12
284.646	11.12
285.44	10.12
286.234	10.12
287.029	8.12
287.823	10.12
288.617	11.12
289.411	8.12
290.205	11.12
290.999	12.12
291.793	11.12
292.587	9.12
293.381	11.12
294.174	11.12
294.968	12.12
295.761	10.12
296.555	9.12
297.348	8.12
298.141	9.12
298.935	12.12
299.728	9.12
300.521	11.12
301.314	10.12
302.107	7.12
302.899	9.12
303.692	6.12
304.485	9.12
305.277	7.12
306.07	8.12
306.862	8.12
307.655	8.12
308.447	8.12
309.239	9.12
310.031	9.12
310.823	7.12
311.615	7.12
312.407	8.12
313.199	7.12
313.991	4.12
314.783	7.12
315.574	5.12
316.366	6.12
317.157	5.12
317.949	6.12
318.74	5.12
319.531	5.12
320.322	6.12
321.113	5.12
321.904	6.12
322.695	6.12
323.486	7.12
324.277	5.12
325.068	3.12
325.858	3.12
326.649	5.12
327.439	3.12
328.23	4.12
329.02	2.12
329.81	4.12
330.6	4.12
331.391	2.12
332.181	4.12
332.971	4.12
333.76	6.12
334.55	5.12
335.34	4.12
336.13	4.12
336.919	5.12
337.709	1.12
338.498	5.12
339.287	3.12
340.077	4.12
340.866	0.12
341.655	4.12
342.444	2.12
343.233	3.12
344.022	3.12
344.811	2.12
345.6	4.12
346.388	1.12
347.177	2.12
347.965	4.12
348.754	6.12
349.542	5.12
350.33	1.12
351.119	3.12
351.907	3.12
352.695	5.12
353.483	2.12
354.271	3.12
355.059	3.12
355.846	2.12
356.634	2.12
357.422	4.12
358.209	2.12
358.997	1.12
359.784	3.12
360.571	4.12
361.359	2.12
362.146	3.12
362.933	3.12
363.72	3.12
364.507	3.12
365.294	2.12
366.081	2.12
366.867	2.12
367.654	3.12
368.44	4.12
369.227	4.12
370.013	2.12
370.8	0.12
371.586	3.12
372.372	3.12
373.158	4.12
373.944	2.12
374.73	4.12
375.516	4.12
376.302	1.12
377.088	3.12
377.873	4.12
378.659	3.12
379.445	2.12
380.23	2.12
381.015	1.12
381.801	2.12
382.586	3.12
383.371	1.12
384.156	3.12
384.941	2.12
385.726	3.12
386.511	3.12
387.296	2.12
388.08	2.12
388.865	3.12
389.649	3.12
390.434	2.12
391.218	2.12
392.003	2.12
392.787	2.12
393.571	3.12
394.355	5.12
395.139	6.12
395.923	3.12
396.707	1.12
397.491	2.12
398.274	3.12
399.058	4.12
399.842	6.12
400.625	5.12
401.408	2.12
402.192	3.12
402.975	3.12
403.758	3.12
404.541	6.12
405.324	4.12
406.107	3.12
406.89	5.12
407.673	5.12
408.456	3.12
409.238	3.12
410.021	5.12
410.803	5.12
411.586	2.12
412.368	6.12
413.151	4.12
413.933	6.12
414.715	3.12
415.497	6.12
416.279	7.12
417.061	6.12
417.843	5.12
418.624	5.12
419.406	6.12
420.188	7.12
420.969	5.12
421.751	7.12
422.532	6.12
423.313	7.12
424.095	5.12
424.876	5.12
425.657	6.12
426.438	7.12
427.219	7.12
428	6.12
428.78	6.12
429.561	7.12
430.342	8.12
431.122	8.12
431.903	8.12
432.683	8.12
433.464	7.12
434.244	9.12
435.024	8.12
435.804	8.12
436.584	10.12
437.364	12.12
438.144	10.12
438.924	12.12
439.704	11.12
440.483	9.12
441.263	12.12
442.042	11.12
442.822	14.12
443.601	13.12
444.38	14.12
445.16	14.12
445.939	13.12
446.718	20.12
447.497	16.12
448.276	20.12
449.054	23.12
449.833	23.12
450.612	26.12
451.391	25.12
452.169	29.12
452.948	32.12
453.726	33.12
454.504	34.12
455.282	38.12
456.061	42.12
456.839	45.12
457.617	52.12
458.395	54.12
459.172	64.12
459.95	69.12
460.728	77.12
461.506	88.12
462.283	92.12
463.061	109.12
463.838	116.12
464.615	131.12
465.393	151.12
466.17	163.12
466.947	191.12
467.724	199.12
468.501	233.12
469.278	261.12
470.055	282.12
470.831	311.12
471.608	359.12
472.385	394.12
473.161	442.12
473.938	491.12
474.714	553.12
475.49	604.12
476.266	683.12
477.043	745.12
477.819	836.12
478.595	933.12
479.371	1027.12
480.146	1139.12
480.922	1263.12
481.698	1390.12
482.473	1563.12
483.249	1713.12
484.024	1885.12
484.8	2127.12
485.575	2332.12
486.35	2579.12
487.126	2845.12
487.901	3166.12
488.676	3488.12
489.451	3832.12
490.225	4249.12
491	4685.12
491.775	5159.12
492.55	5668.12
493.324	6215.12
494.099	6851.12
494.873	7465.12
495.647	8185.12
496.422	8882.12
497.196	9629.12
497.97	10396.12
498.744	11231.12
499.518	12012.12
500.292	12816.12
501.066	13544.12
501.839	14254.12
502.613	14929.12
503.387	15563.12
504.16	16123.12
504.934	16560.12
505.707	16871.12
506.48	17108.12
507.253	17167.12
508.027	17219.12
508.8	17078.12
509.573	16840.12
510.346	16503.12
511.118	16030.12
511.891	15597.12
512.664	15040.12
513.437	14501.12
514.209	13874.12
514.982	13299.12
515.754	12766.12
516.526	12103.12
517.298	11611.12
518.071	11087.12
518.843	10506.12
519.615	10140.12
520.387	9709.12
521.159	9305.12
521.93	8944.12
522.702	8546.12
523.474	8240.12
524.245	7946.12
525.017	7618.12
525.788	7305.12
526.56	7008.12
527.331	6706.12
528.102	6384.12
528.873	6115.12
529.644	5840.12
530.415	5569.12
531.186	5274.12
531.957	4967.12
532.728	4709.12
533.498	4478.12
534.269	4222.12
535.039	3987.12
535.81	3762.12
536.58	3556.12
537.351	3350.12
538.121	3168.12
538.891	2983.12
539.661	2827.12
540.431	2658.12
541.201	2538.12
541.971	2414.12
542.741	2269.12
543.51	2162.12
544.28	2042.12
545.05	1930.12
545.819	1836.12
546.588	1764.12
547.358	1674.12
548.127	1593.12
548.896	1493.12
549.665	1431.12
550.434	1368.12
551.203	1304.12
551.972	1220.12
552.741	1155.12
553.51	1104.12
554.278	1038.12
555.047	967.12
555.815	918.12
556.584	862.12
557.352	827.12
558.121	771.12
558.889	719.12
559.657	687.12
560.425	643.12
561.193	597.12
561.961	563.12
562.729	534.12
563.496	507.12
564.264	485.12
565.032	457.12
565.799	433.12
566.567	405.12
567.334	381.12
568.101	355.12
568.869	333.12
569.636	317.12
570.403	305.12
571.17	284.12
571.937	274.12
572.704	259.12
573.471	238.12
574.237	226.12
575.004	213.12
575.771	200.12
576.537	192.12
577.303	178.12
578.07	170.12
578.836	154.12
579.602	151.12
580.368	140.12
581.134	132.12
581.9	125.12
582.666	119.12
583.432	109.12
584.198	108.12
584.964	98.12
585.729	97.12
586.495	86.12
587.26	86.12
588.025	78.12
588.791	76.12
589.556	70.12
590.321	65.12
591.086	64.12
591.851	62.12
592.616	57.12
593.381	57.12
594.146	48.12
594.911	48.12
595.675	49.12
596.44	44.12
597.204	43.12
597.969	43.12
598.733	37.12
599.497	37.12
600.261	37.12
601.025	35.12
601.79	32.12
602.553	30.12
603.317	29.12
604.081	25.12
604.845	28.12
605.609	26.12
606.372	26.12
607.136	24.12
607.899	24.12
608.662	24.12
609.426	21.12
610.189	18.12
610.952	15.12
611.715	16.12
612.478	18.12
613.241	18.12
614.004	19.12
614.767	16.12
615.529	14.12
616.292	16.12
617.055	14.12
617.817	13.12
618.579	11.12
619.342	11.12
620.104	12.12
620.866	13.12
621.628	10.12
622.39	12.12
623.152	10.12
623.914	13.12
624.676	10.12
625.438	9.12
626.199	8.12
626.961	10.12
627.722	9.12
628.484	8.12
629.245	5.12
630.006	9.12
630.768	6.12
631.529	8.12
632.29	5.12
633.051	7.12
633.812	7.12
634.573	6.12
635.333	7.12
636.094	7.12
636.855	7.12
637.615	7.12
638.376	6.12
639.136	7.12
639.896	6.12
640.657	7.12
641.417	4.12
642.177	8.12
642.937	4.12
643.697	6.12
644.457	3.12
645.216	2.12
645.976	5.12
646.736	5.12
647.495	4.12
648.255	4.12
649.014	4.12
649.774	3.12
650.533	3.12
651.292	2.12
652.051	2.12
652.81	2.12
653.569	5.12
654.328	4.12
655.087	5.12
655.846	2.12
656.604	3.12
657.363	4.12
658.121	4.12
658.88	2.12
659.638	3.12
660.397	3.12
661.155	2.12
661.913	3.12
662.671	3.12
663.429	1.12
664.187	3.12
664.945	1.12
665.703	3.12
666.46	2.12
667.218	4.12
667.976	4.12
668.733	2.12
669.49	3.12
670.248	2.12
671.005	5.12
671.762	2.12
672.519	4.12
673.276	2.12
674.033	2.12
674.79	4.12
675.547	4.12
676.304	1.12
677.06	2.12
677.817	1.12
678.574	1.12
679.33	3.12
680.086	1.12
680.843	1.12
681.599	3.12
682.355	1.12
683.111	3.12
683.867	4.12
684.623	2.12
685.379	1.12
686.135	2.12
686.89	2.12
687.646	2.12
688.402	4.12
689.157	2.12
689.912	2.12
690.668	2.12
691.423	1.12
692.178	2.12
692.933	2.12
693.688	2.12
694.443	2.12
695.198	1.12
695.953	0.12
696.708	1.12
697.462	1.12
698.217	2.12
698.972	3.12
699.726	1.12
700.48	2.12
701.235	2.12
701.989	1.12
702.743	2.12
703.497	3.12
704.251	3.12
705.005	2.12
705.759	4.12
706.513	1.12
707.266	-0.88
708.02	4.12
708.774	2.12
709.527	2.12
710.28	4.12
711.034	-0.88
711.787	2.12
712.54	1.12
713.293	3.12
714.046	1.12
714.799	3.12
715.552	2.12
716.305	2.12
717.058	3.12
717.81	2.12
718.563	2.12
719.315	2.12
720.068	1.12
720.82	3.12
721.573	1.12
722.325	2.12
723.077	2.12
723.829	2.12
724.581	3.12
725.333	2.12
726.085	1.12
726.836	3.12
727.588	4.12
728.34	1.12
729.091	0.12
729.843	4.12
730.594	2.12
731.346	3.12
732.097	-0.88
732.848	0.12
733.599	2.12
734.35	1.12
735.101	2.12
735.852	3.12
736.603	2.12
737.354	2.12
738.104	2.12
738.855	2.12
739.605	1.12
740.356	2.12
741.106	1.12
741.856	5.12
742.607	1.12
743.357	4.12
744.107	2.12
744.857	3.12
745.607	3.12
746.357	2.12
747.106	2.12
747.856	2.12
748.606	2.12
749.355	3.12
750.105	4.12
750.854	2.12
751.603	3.12
752.353	2.12
753.102	5.12
753.851	4.12
754.6	4.12
755.349	4.12
756.098	5.12
756.847	3.12
757.595	3.12
758.344	1.12
759.093	5.12
759.841	2.12
760.589	3.12
761.338	4.12
762.086	1.12
762.834	4.12
763.582	3.12
764.331	4.12
765.079	3.12
765.826	3.12
766.574	7.12
767.322	5.12
768.07	5.12
768.817	3.12
769.565	4.12
770.312	3.12
771.06	4.12
771.807	4.12
772.554	4.12
773.302	4.12
774.049	4.12
774.796	5.12
775.543	5.12
776.29	4.12
777.036	6.12
777.783	5.12
778.53	5.12
779.276	6.12
780.023	4.12
780.769	2.12
781.516	7.12
782.262	5.12
783.008	5.12
783.754	5.12
784.5	6.12
785.246	7.12
785.992	5.12
786.738	5.12
787.484	4.12
788.23	8.12
788.975	5.12
789.721	7.12
790.466	6.12
791.212	6.12
791.957	5.12
792.702	6.12
793.447	5.12
794.193	5.12
794.938	3.12
795.683	5.12
796.427	4.12
797.172	4.12
797.917	5.12
798.662	5.12
799.406	4.12
800.151	5.12
800.895	4.12
801.64	5.12
802.384	3.12
803.128	3.12
803.872	2.12
804.616	4.12
805.36	5.12
806.104	4.12
806.848	5.12
807.592	3.12
808.336	7.12
809.079	3.12
809.823	6.12
810.566	3.12
811.31	4.12
812.053	6.12
812.796	2.12
813.539	5.12
814.283	3.12
815.026	3.12
815.769	3.12
816.511	3.12
817.254	5.12
817.997	3.12
818.74	5.12
819.482	4.12
820.225	5.12
820.967	5.12
821.71	5.12
822.452	4.12
823.194	2.12
823.936	4.12
824.678	2.12
825.42	3.12
826.162	1.12
826.904	2.12
827.646	4.12
828.388	1.12
829.129	3.12
829.871	1.12
830.612	3.12
831.354	4.12
832.095	1.12
832.836	2.12
833.577	1.12
834.319	3.12
835.06	3.12
835.801	2.12
836.542	3.12
837.282	2.12
838.023	3.12
838.764	3.12
839.504	2.12
840.245	4.12
840.985	1.12
841.726	3.12
842.466	2.12
843.206	4.12
843.946	1.12
844.687	4.12
845.427	2.12
846.166	2.12
846.906	4.12
847.646	2.12
848.386	3.12
849.125	2.12
849.865	2.12
850.605	4.12
851.344	2.12
852.083	3.12
852.823	2.12
853.562	3.12
854.301	1.12
855.04	3.12
855.779	1.12
856.518	2.12
857.257	0.12
857.995	-0.88
858.734	2.12
859.473	-0.88
860.211	2.12
860.95	2.12
861.688	1.12
862.426	5.12
863.165	-0.88
863.903	1.12
864.641	0.12
865.379	0.12
866.117	2.12
866.855	1.12
867.593	0.12
868.33	-1.88
869.068	1.12
869.806	1.12
870.543	1.12
871.28	0.12
872.018	0.12
872.755	2.12
873.492	-0.88
874.229	2.12
874.967	-0.88
875.703	0.12
876.44	2.12
877.177	-0.88
877.914	-1.88
878.651	0.12
879.387	-0.88
880.124	0.12
880.86	1.12
881.597	-1.88
882.333	1.12
883.069	0.12
883.806	1.12
884.542	1.12
885.278	0.12
886.014	0.12
886.749	0.12
887.485	-1.88
888.221	2.12
888.957	2.12
889.692	1.12
890.428	2.12
891.163	0.12
891.899	-0.88
892.634	1.12
893.369	0.12
894.104	1.12
894.839	0.12
895.574	1.12
896.309	0.12
897.044	2.12
897.779	-1.88
898.514	-1.88
899.248	1.12
899.983	1.12
900.717	2.12
901.452	0.12
902.186	1.12
902.92	1.12
903.654	1.12
904.389	1.12
905.123	2.12
905.857	1.12
906.59	-1.88
907.324	0.12
908.058	-0.88
908.792	-0.88
909.525	1.12
910.259	0.12
910.992	0.12
911.726	1.12
912.459	2.12
913.192	-1.88
913.925	1.12
914.658	1.12
915.391	1.12
916.124	2.12
916.857	2.12
917.59	1.12
918.323	0.12
919.055	0.12
919.788	0.12
920.521	-0.88
921.253	3.12
921.985	-1.88
922.718	2.12
923.45	-1.88
924.182	-1.88
924.914	0.12
925.646	-0.88
926.378	-0.88
927.11	-0.88
927.841	0.12
928.573	2.12
929.305	0.12
930.036	-0.88
930.768	-1.88
931.499	-0.88
932.23	0.12
932.962	-0.88
933.693	-0.88
934.424	-0.88
935.155	-1.88
935.886	0.12
936.617	1.12
937.348	-1.88
938.078	-1.88
938.809	1.12
939.54	-1.88
940.27	0.12
941.001	-0.88
941.731	1.12
942.461	-0.88
943.191	-0.88
943.922	0.12
944.652	0.12
945.382	0.12
946.112	0.12
946.841	0.12
947.571	-1.88
948.301	1.12
949.031	0.12
949.76	-1.88
950.49	0.12
951.219	-1.88
951.948	3.12
952.678	0.12
953.407	0.12
954.136	0.12
954.865	-0.88
955.594	-0.88
956.323	2.12
957.052	2.12
957.78	1.12
958.509	-0.88
959.238	2.12
959.966	-0.88
960.695	2.12
961.423	-0.88
962.151	2.12
962.88	2.12
963.608	-1.88
964.336	1.12
965.064	-1.88
965.792	-0.88
966.52	0.12
967.247	-0.88
967.975	-0.88
968.703	2.12
969.43	1.12
970.158	0.12
970.885	0.12
971.613	0.12
972.34	1.12
973.067	0.12
973.794	1.12
974.521	-0.88
975.248	-0.88
975.975	1.12
976.702	1.12
977.429	0.12
978.156	2.12
978.882	1.12
979.609	1.12
980.335	-0.88
981.062	1.12
981.788	1.12
982.514	-0.88
983.24	-0.88
983.967	0.12
984.693	-0.88
985.419	0.12
986.144	0.12
986.87	-0.88
987.596	-1.88
988.322	-0.88
989.047	-0.88
989.773	1.12
990.498	-1.88
991.224	1.12
991.949	-0.88
992.674	1.12
993.399	-1.88
994.124	1.12
994.849	1.12
995.574	1.12
996.299	2.12
997.024	-0.88
997.749	-1.88
998.473	0.12
999.198	0.12
999.922	0.12
1000.647	-1.88
1001.371	3.12
1002.095	1.12
1002.82	-1.88
1003.544	-1.88
1004.268	0.12
1004.992	0.12
1005.716	-1.88
1006.439	0.12
1007.163	1.12
1007.887	0.12
1008.611	0.12
1009.334	0.12
1010.058	0.12
1010.781	1.12
1011.504	1.12
1012.228	0.12
1012.951	-0.88
1013.674	1.12
1014.397	-0.88
1015.12	0.12
