节点500_145_QEPB04081__625__11-38-54-258.txt的数据

Date: Wed Nov 12 11:38:54 CST 2025
User: PC
Spectrometer: QEPB0408
触发模式: 0
积分时间 (秒): 1.000000E-2
Scans to average: 1
启用暗噪声校正: true
启用非线性校正: false
滑动平均宽度: 0
X轴模式: Wavelengths
Number of Pixels in Spectrum: 1044
>>>>>Begin Spectral Data<<<<<
220.843	-1.25
221.644	0.75
222.444	-1.25
223.244	2.75
224.045	1.75
224.845	-1.25
225.645	0.75
226.445	-2.25
227.245	-0.25
228.045	0.75
228.845	0.75
229.645	-0.25
230.444	-0.25
231.244	1.75
232.043	0.75
232.843	0.75
233.642	1.75
234.442	3.75
235.241	-1.25
236.04	-1.25
236.839	0.75
237.638	2.75
238.437	1.75
239.236	2.75
240.035	1.75
240.833	0.75
241.632	2.75
242.43	1.75
243.229	0.75
244.027	0.75
244.826	1.75
245.624	2.75
246.422	1.75
247.22	1.75
248.018	2.75
248.816	0.75
249.614	2.75
250.412	1.75
251.21	4.75
252.007	2.75
252.805	2.75
253.602	2.75
254.4	3.75
255.197	2.75
255.994	2.75
256.791	2.75
257.589	4.75
258.386	5.75
259.183	2.75
259.979	2.75
260.776	6.75
261.573	4.75
262.37	3.75
263.166	4.75
263.963	3.75
264.759	6.75
265.556	3.75
266.352	7.75
267.148	3.75
267.944	5.75
268.74	6.75
269.536	4.75
270.332	4.75
271.128	8.75
271.924	6.75
272.719	8.75
273.515	7.75
274.311	6.75
275.106	6.75
275.901	6.75
276.697	7.75
277.492	6.75
278.287	7.75
279.082	6.75
279.877	8.75
280.672	9.75
281.467	8.75
282.262	11.75
283.056	9.75
283.851	9.75
284.646	8.75
285.44	7.75
286.234	10.75
287.029	8.75
287.823	10.75
288.617	10.75
289.411	9.75
290.205	8.75
290.999	12.75
291.793	10.75
292.587	10.75
293.381	9.75
294.174	8.75
294.968	9.75
295.761	11.75
296.555	8.75
297.348	7.75
298.141	10.75
298.935	9.75
299.728	10.75
300.521	7.75
301.314	7.75
302.107	6.75
302.899	9.75
303.692	9.75
304.485	8.75
305.277	7.75
306.07	7.75
306.862	7.75
307.655	8.75
308.447	7.75
309.239	7.75
310.031	8.75
310.823	7.75
311.615	5.75
312.407	6.75
313.199	7.75
313.991	7.75
314.783	5.75
315.574	6.75
316.366	3.75
317.157	5.75
317.949	4.75
318.74	3.75
319.531	5.75
320.322	3.75
321.113	6.75
321.904	5.75
322.695	5.75
323.486	5.75
324.277	4.75
325.068	5.75
325.858	3.75
326.649	3.75
327.439	2.75
328.23	3.75
329.02	3.75
329.81	4.75
330.6	6.75
331.391	3.75
332.181	4.75
332.971	2.75
333.76	2.75
334.55	4.75
335.34	2.75
336.13	3.75
336.919	2.75
337.709	4.75
338.498	3.75
339.287	2.75
340.077	2.75
340.866	4.75
341.655	3.75
342.444	4.75
343.233	3.75
344.022	4.75
344.811	3.75
345.6	0.75
346.388	2.75
347.177	3.75
347.965	3.75
348.754	3.75
349.542	2.75
350.33	4.75
351.119	3.75
351.907	4.75
352.695	3.75
353.483	4.75
354.271	4.75
355.059	1.75
355.846	2.75
356.634	2.75
357.422	2.75
358.209	2.75
358.997	0.75
359.784	5.75
360.571	2.75
361.359	1.75
362.146	0.75
362.933	4.75
363.72	2.75
364.507	2.75
365.294	2.75
366.081	1.75
366.867	2.75
367.654	3.75
368.44	3.75
369.227	1.75
370.013	1.75
370.8	2.75
371.586	1.75
372.372	6.75
373.158	4.75
373.944	1.75
374.73	2.75
375.516	3.75
376.302	3.75
377.088	1.75
377.873	2.75
378.659	1.75
379.445	2.75
380.23	1.75
381.015	2.75
381.801	0.75
382.586	2.75
383.371	1.75
384.156	1.75
384.941	3.75
385.726	4.75
386.511	2.75
387.296	3.75
388.08	1.75
388.865	3.75
389.649	2.75
390.434	1.75
391.218	3.75
392.003	-0.25
392.787	1.75
393.571	1.75
394.355	4.75
395.139	3.75
395.923	2.75
396.707	3.75
397.491	2.75
398.274	3.75
399.058	3.75
399.842	4.75
400.625	4.75
401.408	2.75
402.192	4.75
402.975	2.75
403.758	4.75
404.541	5.75
405.324	2.75
406.107	4.75
406.89	3.75
407.673	3.75
408.456	2.75
409.238	3.75
410.021	3.75
410.803	2.75
411.586	2.75
412.368	6.75
413.151	5.75
413.933	5.75
414.715	5.75
415.497	2.75
416.279	6.75
417.061	3.75
417.843	4.75
418.624	6.75
419.406	7.75
420.188	6.75
420.969	6.75
421.751	3.75
422.532	5.75
423.313	8.75
424.095	6.75
424.876	5.75
425.657	7.75
426.438	6.75
427.219	4.75
428	5.75
428.78	6.75
429.561	5.75
430.342	4.75
431.122	6.75
431.903	6.75
432.683	6.75
433.464	7.75
434.244	9.75
435.024	8.75
435.804	7.75
436.584	9.75
437.364	9.75
438.144	10.75
438.924	13.75
439.704	11.75
440.483	11.75
441.263	11.75
442.042	12.75
442.822	13.75
443.601	13.75
444.38	13.75
445.16	15.75
445.939	18.75
446.718	16.75
447.497	19.75
448.276	20.75
449.054	23.75
449.833	26.75
450.612	26.75
451.391	25.75
452.169	29.75
452.948	35.75
453.726	35.75
454.504	41.75
455.282	44.75
456.061	49.75
456.839	54.75
457.617	59.75
458.395	65.75
459.172	73.75
459.95	82.75
460.728	92.75
461.506	100.75
462.283	116.75
463.061	125.75
463.838	144.75
464.615	152.75
465.393	171.75
466.17	191.75
466.947	214.75
467.724	238.75
468.501	258.75
469.278	289.75
470.055	325.75
470.831	359.75
471.608	405.75
472.385	438.75
473.161	494.75
473.938	534.75
474.714	591.75
475.49	663.75
476.266	717.75
477.043	794.75
477.819	883.75
478.595	960.75
479.371	1069.75
480.146	1172.75
480.922	1267.75
481.698	1379.75
482.473	1529.75
483.249	1673.75
484.024	1830.75
484.8	1996.75
485.575	2191.75
486.35	2380.75
487.126	2641.75
487.901	2875.75
488.676	3127.75
489.451	3409.75
490.225	3743.75
491	4089.75
491.775	4457.75
492.55	4829.75
493.324	5276.75
494.099	5754.75
494.873	6223.75
495.647	6753.75
496.422	7330.75
497.196	7919.75
497.97	8456.75
498.744	9108.75
499.518	9759.75
500.292	10409.75
501.066	11041.75
501.839	11639.75
502.613	12246.75
503.387	12845.75
504.16	13397.75
504.934	13889.75
505.707	14281.75
506.48	14654.75
507.253	14891.75
508.027	15118.75
508.8	15175.75
509.573	15157.75
510.346	15088.75
511.118	14926.75
511.891	14698.75
512.664	14363.75
513.437	13944.75
514.209	13552.75
514.982	13129.75
515.754	12628.75
516.526	12127.75
517.298	11658.75
518.071	11205.75
518.843	10705.75
519.615	10250.75
520.387	9840.75
521.159	9448.75
521.93	9061.75
522.702	8714.75
523.474	8393.75
524.245	8042.75
525.017	7728.75
525.788	7432.75
526.56	7095.75
527.331	6816.75
528.102	6531.75
528.873	6273.75
529.644	5973.75
530.415	5773.75
531.186	5505.75
531.957	5247.75
532.728	4959.75
533.498	4739.75
534.269	4513.75
535.039	4255.75
535.81	4044.75
536.58	3831.75
537.351	3617.75
538.121	3421.75
538.891	3259.75
539.661	3069.75
540.431	2902.75
541.201	2731.75
541.971	2585.75
542.741	2448.75
543.51	2317.75
544.28	2215.75
545.05	2085.75
545.819	2014.75
546.588	1889.75
547.358	1805.75
548.127	1721.75
548.896	1635.75
549.665	1551.75
550.434	1466.75
551.203	1405.75
551.972	1332.75
552.741	1266.75
553.51	1187.75
554.278	1132.75
555.047	1081.75
555.815	1011.75
556.584	947.75
557.352	897.75
558.121	839.75
558.889	791.75
559.657	754.75
560.425	717.75
561.193	678.75
561.961	642.75
562.729	608.75
563.496	565.75
564.264	545.75
565.032	504.75
565.799	479.75
566.567	448.75
567.334	433.75
568.101	399.75
568.869	377.75
569.636	357.75
570.403	332.75
571.17	322.75
571.937	298.75
572.704	288.75
573.471	262.75
574.237	252.75
575.004	235.75
575.771	226.75
576.537	208.75
577.303	192.75
578.07	188.75
578.836	176.75
579.602	167.75
580.368	155.75
581.134	145.75
581.9	142.75
582.666	133.75
583.432	129.75
584.198	119.75
584.964	111.75
585.729	106.75
586.495	102.75
587.26	95.75
588.025	90.75
588.791	82.75
589.556	74.75
590.321	74.75
591.086	73.75
591.851	66.75
592.616	63.75
593.381	61.75
594.146	57.75
594.911	55.75
595.675	53.75
596.44	50.75
597.204	51.75
597.969	48.75
598.733	47.75
599.497	40.75
600.261	37.75
601.025	40.75
601.79	36.75
602.553	35.75
603.317	33.75
604.081	32.75
604.845	28.75
605.609	28.75
606.372	26.75
607.136	25.75
607.899	23.75
608.662	23.75
609.426	22.75
610.189	21.75
610.952	23.75
611.715	22.75
612.478	20.75
613.241	17.75
614.004	19.75
614.767	19.75
615.529	17.75
616.292	18.75
617.055	17.75
617.817	15.75
618.579	13.75
619.342	11.75
620.104	15.75
620.866	14.75
621.628	14.75
622.39	10.75
623.152	10.75
623.914	11.75
624.676	11.75
625.438	12.75
626.199	9.75
626.961	10.75
627.722	9.75
628.484	10.75
629.245	10.75
630.006	6.75
630.768	8.75
631.529	6.75
632.29	7.75
633.051	6.75
633.812	7.75
634.573	6.75
635.333	6.75
636.094	6.75
636.855	4.75
637.615	5.75
638.376	6.75
639.136	5.75
639.896	5.75
640.657	6.75
641.417	6.75
642.177	6.75
642.937	6.75
643.697	1.75
644.457	5.75
645.216	5.75
645.976	7.75
646.736	5.75
647.495	5.75
648.255	3.75
649.014	3.75
649.774	4.75
650.533	5.75
651.292	6.75
652.051	5.75
652.81	4.75
653.569	3.75
654.328	2.75
655.087	3.75
655.846	2.75
656.604	3.75
657.363	1.75
658.121	4.75
658.88	5.75
659.638	3.75
660.397	5.75
661.155	3.75
661.913	2.75
662.671	4.75
663.429	3.75
664.187	3.75
664.945	2.75
665.703	4.75
666.46	2.75
667.218	5.75
667.976	2.75
668.733	1.75
669.49	3.75
670.248	1.75
671.005	3.75
671.762	4.75
672.519	2.75
673.276	3.75
674.033	2.75
674.79	2.75
675.547	1.75
676.304	2.75
677.06	1.75
677.817	3.75
678.574	1.75
679.33	0.75
680.086	2.75
680.843	2.75
681.599	3.75
682.355	4.75
683.111	3.75
683.867	0.75
684.623	1.75
685.379	2.75
686.135	1.75
686.89	2.75
687.646	2.75
688.402	1.75
689.157	4.75
689.912	2.75
690.668	1.75
691.423	1.75
692.178	2.75
692.933	1.75
693.688	3.75
694.443	2.75
695.198	2.75
695.953	5.75
696.708	1.75
697.462	1.75
698.217	4.75
698.972	1.75
699.726	1.75
700.48	3.75
701.235	2.75
701.989	1.75
702.743	2.75
703.497	1.75
704.251	0.75
705.005	3.75
705.759	2.75
706.513	5.75
707.266	0.75
708.02	3.75
708.774	2.75
709.527	0.75
710.28	1.75
711.034	3.75
711.787	1.75
712.54	0.75
713.293	2.75
714.046	1.75
714.799	1.75
715.552	1.75
716.305	-1.25
717.058	3.75
717.81	0.75
718.563	2.75
719.315	-0.25
720.068	1.75
720.82	4.75
721.573	1.75
722.325	1.75
723.077	1.75
723.829	3.75
724.581	1.75
725.333	2.75
726.085	1.75
726.836	0.75
727.588	0.75
728.34	2.75
729.091	2.75
729.843	3.75
730.594	1.75
731.346	2.75
732.097	1.75
732.848	3.75
733.599	2.75
734.35	1.75
735.101	1.75
735.852	0.75
736.603	2.75
737.354	2.75
738.104	1.75
738.855	0.75
739.605	2.75
740.356	0.75
741.106	2.75
741.856	2.75
742.607	1.75
743.357	2.75
744.107	2.75
744.857	0.75
745.607	3.75
746.357	2.75
747.106	3.75
747.856	1.75
748.606	1.75
749.355	2.75
750.105	2.75
750.854	2.75
751.603	2.75
752.353	2.75
753.102	1.75
753.851	5.75
754.6	1.75
755.349	3.75
756.098	4.75
756.847	1.75
757.595	2.75
758.344	1.75
759.093	0.75
759.841	-1.25
760.589	3.75
761.338	2.75
762.086	3.75
762.834	2.75
763.582	1.75
764.331	5.75
765.079	2.75
765.826	3.75
766.574	3.75
767.322	3.75
768.07	2.75
768.817	2.75
769.565	5.75
770.312	4.75
771.06	4.75
771.807	3.75
772.554	1.75
773.302	3.75
774.049	2.75
774.796	4.75
775.543	3.75
776.29	5.75
777.036	5.75
777.783	5.75
778.53	6.75
779.276	5.75
780.023	4.75
780.769	7.75
781.516	4.75
782.262	4.75
783.008	5.75
783.754	5.75
784.5	5.75
785.246	4.75
785.992	6.75
786.738	1.75
787.484	2.75
788.23	5.75
788.975	5.75
789.721	4.75
790.466	8.75
791.212	5.75
791.957	2.75
792.702	3.75
793.447	5.75
794.193	4.75
794.938	2.75
795.683	3.75
796.427	4.75
797.172	4.75
797.917	7.75
798.662	3.75
799.406	5.75
800.151	2.75
800.895	4.75
801.64	2.75
802.384	4.75
803.128	6.75
803.872	3.75
804.616	3.75
805.36	3.75
806.104	3.75
806.848	4.75
807.592	4.75
808.336	6.75
809.079	2.75
809.823	2.75
810.566	4.75
811.31	3.75
812.053	3.75
812.796	4.75
813.539	1.75
814.283	5.75
815.026	4.75
815.769	3.75
816.511	3.75
817.254	2.75
817.997	2.75
818.74	4.75
819.482	2.75
820.225	2.75
820.967	2.75
821.71	4.75
822.452	1.75
823.194	2.75
823.936	2.75
824.678	2.75
825.42	2.75
826.162	5.75
826.904	3.75
827.646	3.75
828.388	0.75
829.129	3.75
829.871	0.75
830.612	0.75
831.354	2.75
832.095	1.75
832.836	3.75
833.577	2.75
834.319	4.75
835.06	4.75
835.801	2.75
836.542	2.75
837.282	2.75
838.023	1.75
838.764	3.75
839.504	4.75
840.245	2.75
840.985	2.75
841.726	2.75
842.466	2.75
843.206	2.75
843.946	0.75
844.687	1.75
845.427	0.75
846.166	1.75
846.906	1.75
847.646	2.75
848.386	2.75
849.125	1.75
849.865	0.75
850.605	-0.25
851.344	2.75
852.083	4.75
852.823	0.75
853.562	4.75
854.301	1.75
855.04	0.75
855.779	3.75
856.518	2.75
857.257	2.75
857.995	0.75
858.734	2.75
859.473	-0.25
860.211	2.75
860.95	-0.25
861.688	1.75
862.426	0.75
863.165	-0.25
863.903	1.75
864.641	1.75
865.379	0.75
866.117	2.75
866.855	0.75
867.593	1.75
868.33	1.75
869.068	2.75
869.806	0.75
870.543	1.75
871.28	-0.25
872.018	-1.25
872.755	0.75
873.492	2.75
874.229	2.75
874.967	1.75
875.703	1.75
876.44	0.75
877.177	-1.25
877.914	-0.25
878.651	1.75
879.387	1.75
880.124	0.75
880.86	2.75
881.597	1.75
882.333	0.75
883.069	0.75
883.806	-1.25
884.542	1.75
885.278	0.75
886.014	-1.25
886.749	0.75
887.485	-1.25
888.221	0.75
888.957	0.75
889.692	1.75
890.428	-2.25
891.163	0.75
891.899	0.75
892.634	0.75
893.369	-0.25
894.104	0.75
894.839	2.75
895.574	2.75
896.309	0.75
897.044	-0.25
897.779	-1.25
898.514	5.75
899.248	-0.25
899.983	0.75
900.717	2.75
901.452	1.75
902.186	-0.25
902.92	-1.25
903.654	-0.25
904.389	1.75
905.123	2.75
905.857	-1.25
906.59	-0.25
907.324	-1.25
908.058	-1.25
908.792	2.75
909.525	-0.25
910.259	0.75
910.992	1.75
911.726	1.75
912.459	0.75
913.192	-1.25
913.925	0.75
914.658	0.75
915.391	1.75
916.124	1.75
916.857	0.75
917.59	0.75
918.323	1.75
919.055	1.75
919.788	1.75
920.521	0.75
921.253	2.75
921.985	-1.25
922.718	0.75
923.45	-0.25
924.182	-0.25
924.914	-1.25
925.646	2.75
926.378	-0.25
927.11	2.75
927.841	-0.25
928.573	-1.25
929.305	0.75
930.036	-0.25
930.768	0.75
931.499	-0.25
932.23	-1.25
932.962	0.75
933.693	1.75
934.424	-1.25
935.155	1.75
935.886	1.75
936.617	0.75
937.348	0.75
938.078	0.75
938.809	-1.25
939.54	0.75
940.27	0.75
941.001	1.75
941.731	-1.25
942.461	0.75
943.191	-0.25
943.922	1.75
944.652	-0.25
945.382	1.75
946.112	-1.25
946.841	-0.25
947.571	-1.25
948.301	2.75
949.031	-1.25
949.76	0.75
950.49	3.75
951.219	-0.25
951.948	2.75
952.678	-1.25
953.407	0.75
954.136	0.75
954.865	0.75
955.594	0.75
956.323	0.75
957.052	0.75
957.78	1.75
958.509	0.75
959.238	-1.25
959.966	-0.25
960.695	-1.25
961.423	1.75
962.151	0.75
962.88	0.75
963.608	1.75
964.336	-0.25
965.064	-1.25
965.792	1.75
966.52	-1.25
967.247	0.75
967.975	-0.25
968.703	1.75
969.43	-0.25
970.158	3.75
970.885	-0.25
971.613	-0.25
972.34	0.75
973.067	-1.25
973.794	-0.25
974.521	0.75
975.248	1.75
975.975	1.75
976.702	-0.25
977.429	-1.25
978.156	-0.25
978.882	0.75
979.609	-0.25
980.335	0.75
981.062	-0.25
981.788	0.75
982.514	-0.25
983.24	-1.25
983.967	1.75
984.693	0.75
985.419	2.75
986.144	2.75
986.87	-2.25
987.596	1.75
988.322	-1.25
989.047	-0.25
989.773	1.75
990.498	1.75
991.224	0.75
991.949	-0.25
992.674	-1.25
993.399	-1.25
994.124	1.75
994.849	-2.25
995.574	0.75
996.299	1.75
997.024	-1.25
997.749	-0.25
998.473	-1.25
999.198	3.75
999.922	-0.25
1000.647	1.75
1001.371	3.75
1002.095	-2.25
1002.82	-1.25
1003.544	-1.25
1004.268	0.75
1004.992	0.75
1005.716	-2.25
1006.439	-2.25
1007.163	0.75
1007.887	-1.25
1008.611	-0.25
1009.334	-1.25
1010.058	1.75
1010.781	-0.25
1011.504	-1.25
1012.228	-0.25
1012.951	1.75
1013.674	-0.25
1014.397	-2.25
1015.12	1.75
