节点500_145_QEPB04081__526__11-37-17-501.txt的数据

Date: Wed Nov 12 11:37:17 CST 2025
User: PC
Spectrometer: QEPB0408
触发模式: 0
积分时间 (秒): 1.000000E-2
Scans to average: 1
启用暗噪声校正: true
启用非线性校正: false
滑动平均宽度: 0
X轴模式: Wavelengths
Number of Pixels in Spectrum: 1044
>>>>>Begin Spectral Data<<<<<
220.843	1
221.644	0
222.444	0
223.244	-2
224.045	0
224.845	1
225.645	0
226.445	-1
227.245	1
228.045	1
228.845	0
229.645	1
230.444	2
231.244	0
232.043	2
232.843	-2
233.642	2
234.442	5
235.241	0
236.04	0
236.839	-1
237.638	2
238.437	0
239.236	2
240.035	1
240.833	0
241.632	1
242.43	1
243.229	0
244.027	-1
244.826	1
245.624	1
246.422	2
247.22	0
248.018	2
248.816	3
249.614	-2
250.412	1
251.21	3
252.007	2
252.805	2
253.602	2
254.4	0
255.197	1
255.994	4
256.791	2
257.589	4
258.386	3
259.183	2
259.979	5
260.776	3
261.573	2
262.37	7
263.166	5
263.963	4
264.759	7
265.556	4
266.352	4
267.148	5
267.944	6
268.74	8
269.536	6
270.332	5
271.128	6
271.924	4
272.719	8
273.515	7
274.311	9
275.106	5
275.901	7
276.697	7
277.492	5
278.287	8
279.082	10
279.877	8
280.672	8
281.467	9
282.262	9
283.056	11
283.851	10
284.646	8
285.44	10
286.234	11
287.029	10
287.823	10
288.617	9
289.411	8
290.205	10
290.999	9
291.793	9
292.587	10
293.381	9
294.174	9
294.968	9
295.761	7
296.555	7
297.348	10
298.141	9
298.935	12
299.728	9
300.521	9
301.314	11
302.107	9
302.899	8
303.692	8
304.485	9
305.277	8
306.07	7
306.862	7
307.655	6
308.447	6
309.239	6
310.031	6
310.823	6
311.615	5
312.407	4
313.199	7
313.991	5
314.783	3
315.574	5
316.366	6
317.157	5
317.949	5
318.74	4
319.531	4
320.322	2
321.113	5
321.904	6
322.695	6
323.486	4
324.277	4
325.068	6
325.858	4
326.649	4
327.439	2
328.23	3
329.02	3
329.81	1
330.6	4
331.391	3
332.181	7
332.971	4
333.76	6
334.55	4
335.34	1
336.13	5
336.919	3
337.709	1
338.498	3
339.287	2
340.077	4
340.866	5
341.655	5
342.444	4
343.233	2
344.022	3
344.811	5
345.6	2
346.388	3
347.177	2
347.965	4
348.754	2
349.542	2
350.33	3
351.119	1
351.907	4
352.695	3
353.483	4
354.271	3
355.059	3
355.846	1
356.634	2
357.422	1
358.209	2
358.997	3
359.784	2
360.571	5
361.359	3
362.146	5
362.933	2
363.72	2
364.507	1
365.294	6
366.081	3
366.867	1
367.654	1
368.44	0
369.227	3
370.013	0
370.8	4
371.586	1
372.372	2
373.158	4
373.944	1
374.73	1
375.516	1
376.302	3
377.088	3
377.873	2
378.659	4
379.445	4
380.23	2
381.015	1
381.801	3
382.586	2
383.371	1
384.156	4
384.941	2
385.726	3
386.511	3
387.296	3
388.08	2
388.865	2
389.649	4
390.434	1
391.218	2
392.003	3
392.787	5
393.571	1
394.355	0
395.139	1
395.923	4
396.707	3
397.491	4
398.274	3
399.058	5
399.842	5
400.625	4
401.408	3
402.192	4
402.975	4
403.758	2
404.541	3
405.324	3
406.107	6
406.89	3
407.673	4
408.456	4
409.238	2
410.021	3
410.803	1
411.586	4
412.368	6
413.151	4
413.933	4
414.715	4
415.497	4
416.279	5
417.061	4
417.843	5
418.624	4
419.406	5
420.188	3
420.969	6
421.751	4
422.532	8
423.313	4
424.095	6
424.876	4
425.657	5
426.438	9
427.219	7
428	8
428.78	9
429.561	9
430.342	7
431.122	5
431.903	6
432.683	7
433.464	9
434.244	9
435.024	10
435.804	8
436.584	6
437.364	9
438.144	10
438.924	11
439.704	11
440.483	12
441.263	9
442.042	13
442.822	14
443.601	14
444.38	12
445.16	18
445.939	16
446.718	17
447.497	17
448.276	21
449.054	22
449.833	27
450.612	26
451.391	28
452.169	32
452.948	34
453.726	38
454.504	40
455.282	44
456.061	46
456.839	53
457.617	59
458.395	63
459.172	77
459.95	80
460.728	88
461.506	97
462.283	110
463.061	123
463.838	134
464.615	151
465.393	170
466.17	185
466.947	209
467.724	232
468.501	261
469.278	281
470.055	315
470.831	345
471.608	384
472.385	428
473.161	477
473.938	529
474.714	593
475.49	648
476.266	710
477.043	792
477.819	875
478.595	968
479.371	1041
480.146	1155
480.922	1282
481.698	1401
482.473	1542
483.249	1691
484.024	1840
484.8	2033
485.575	2230
486.35	2441
487.126	2682
487.901	2934
488.676	3220
489.451	3510
490.225	3862
491	4220
491.775	4633
492.55	5053
493.324	5515
494.099	5996
494.873	6482
495.647	7086
496.422	7674
497.196	8305
497.97	8937
498.744	9572
499.518	10300
500.292	10977
501.066	11581
501.839	12282
502.613	12866
503.387	13504
504.16	14044
504.934	14581
505.707	14936
506.48	15222
507.253	15502
508.027	15653
508.8	15678
509.573	15672
510.346	15545
511.118	15307
511.891	14989
512.664	14608
513.437	14148
514.209	13682
514.982	13206
515.754	12722
516.526	12263
517.298	11667
518.071	11261
518.843	10753
519.615	10280
520.387	9860
521.159	9462
521.93	9103
522.702	8697
523.474	8382
524.245	8042
525.017	7708
525.788	7440
526.56	7126
527.331	6845
528.102	6555
528.873	6272
529.644	5979
530.415	5748
531.186	5454
531.957	5194
532.728	4944
533.498	4706
534.269	4436
535.039	4191
535.81	3985
536.58	3786
537.351	3573
538.121	3388
538.891	3201
539.661	3012
540.431	2859
541.201	2692
541.971	2559
542.741	2421
543.51	2278
544.28	2187
545.05	2068
545.819	1950
546.588	1866
547.358	1776
548.127	1683
548.896	1601
549.665	1523
550.434	1449
551.203	1376
551.972	1308
552.741	1243
553.51	1176
554.278	1108
555.047	1046
555.815	998
556.584	934
557.352	881
558.121	834
558.889	776
559.657	734
560.425	698
561.193	654
561.961	624
562.729	580
563.496	556
564.264	535
565.032	501
565.799	468
566.567	433
567.334	426
568.101	391
568.869	370
569.636	352
570.403	329
571.17	318
571.937	294
572.704	273
573.471	261
574.237	250
575.004	233
575.771	220
576.537	206
577.303	192
578.07	178
578.836	167
579.602	164
580.368	157
581.134	139
581.9	134
582.666	130
583.432	122
584.198	118
584.964	111
585.729	104
586.495	98
587.26	92
588.025	86
588.791	84
589.556	78
590.321	73
591.086	69
591.851	66
592.616	62
593.381	63
594.146	54
594.911	57
595.675	52
596.44	47
597.204	47
597.969	42
598.733	42
599.497	41
600.261	40
601.025	37
601.79	35
602.553	35
603.317	34
604.081	32
604.845	27
605.609	29
606.372	26
607.136	25
607.899	28
608.662	24
609.426	21
610.189	22
610.952	21
611.715	18
612.478	16
613.241	20
614.004	16
614.767	17
615.529	18
616.292	15
617.055	14
617.817	14
618.579	12
619.342	13
620.104	13
620.866	14
621.628	11
622.39	11
623.152	9
623.914	10
624.676	9
625.438	12
626.199	10
626.961	9
627.722	11
628.484	7
629.245	8
630.006	6
630.768	9
631.529	7
632.29	6
633.051	9
633.812	5
634.573	6
635.333	8
636.094	6
636.855	6
637.615	9
638.376	6
639.136	5
639.896	4
640.657	7
641.417	7
642.177	4
642.937	6
643.697	8
644.457	5
645.216	7
645.976	2
646.736	6
647.495	4
648.255	5
649.014	5
649.774	5
650.533	5
651.292	3
652.051	5
652.81	3
653.569	3
654.328	4
655.087	3
655.846	4
656.604	2
657.363	4
658.121	2
658.88	2
659.638	1
660.397	0
661.155	3
661.913	1
662.671	4
663.429	2
664.187	0
664.945	4
665.703	4
666.46	3
667.218	3
667.976	3
668.733	5
669.49	2
670.248	5
671.005	2
671.762	3
672.519	3
673.276	1
674.033	2
674.79	0
675.547	0
676.304	3
677.06	4
677.817	2
678.574	3
679.33	1
680.086	4
680.843	2
681.599	2
682.355	3
683.111	1
683.867	2
684.623	2
685.379	3
686.135	4
686.89	1
687.646	2
688.402	1
689.157	1
689.912	2
690.668	2
691.423	1
692.178	2
692.933	2
693.688	1
694.443	2
695.198	0
695.953	3
696.708	3
697.462	2
698.217	1
698.972	1
699.726	1
700.48	1
701.235	0
701.989	2
702.743	1
703.497	1
704.251	1
705.005	3
705.759	-1
706.513	1
707.266	4
708.02	0
708.774	3
709.527	2
710.28	-1
711.034	4
711.787	2
712.54	3
713.293	1
714.046	3
714.799	3
715.552	2
716.305	2
717.058	3
717.81	2
718.563	1
719.315	2
720.068	3
720.82	1
721.573	1
722.325	2
723.077	2
723.829	0
724.581	1
725.333	1
726.085	1
726.836	2
727.588	0
728.34	2
729.091	-1
729.843	1
730.594	2
731.346	0
732.097	1
732.848	3
733.599	4
734.35	2
735.101	3
735.852	0
736.603	3
737.354	2
738.104	2
738.855	2
739.605	1
740.356	3
741.106	2
741.856	0
742.607	3
743.357	1
744.107	1
744.857	2
745.607	1
746.357	2
747.106	3
747.856	3
748.606	2
749.355	2
750.105	1
750.854	2
751.603	5
752.353	3
753.102	3
753.851	2
754.6	5
755.349	2
756.098	3
756.847	3
757.595	2
758.344	2
759.093	2
759.841	3
760.589	3
761.338	4
762.086	1
762.834	1
763.582	3
764.331	2
765.079	2
765.826	3
766.574	3
767.322	3
768.07	1
768.817	3
769.565	4
770.312	7
771.06	7
771.807	4
772.554	2
773.302	3
774.049	4
774.796	4
775.543	4
776.29	4
777.036	4
777.783	6
778.53	5
779.276	1
780.023	4
780.769	3
781.516	5
782.262	4
783.008	5
783.754	3
784.5	5
785.246	3
785.992	5
786.738	6
787.484	5
788.23	6
788.975	3
789.721	4
790.466	3
791.212	5
791.957	3
792.702	8
793.447	3
794.193	6
794.938	3
795.683	4
796.427	3
797.172	5
797.917	5
798.662	5
799.406	3
800.151	3
800.895	4
801.64	2
802.384	2
803.128	3
803.872	5
804.616	5
805.36	3
806.104	3
806.848	4
807.592	4
808.336	2
809.079	3
809.823	1
810.566	5
811.31	4
812.053	3
812.796	6
813.539	5
814.283	1
815.026	3
815.769	2
816.511	3
817.254	3
817.997	4
818.74	3
819.482	5
820.225	2
820.967	4
821.71	2
822.452	2
823.194	3
823.936	3
824.678	2
825.42	3
826.162	1
826.904	2
827.646	1
828.388	1
829.129	4
829.871	3
830.612	-2
831.354	2
832.095	2
832.836	2
833.577	2
834.319	1
835.06	2
835.801	2
836.542	4
837.282	4
838.023	2
838.764	2
839.504	1
840.245	3
840.985	2
841.726	4
842.466	0
843.206	2
843.946	1
844.687	3
845.427	2
846.166	1
846.906	2
847.646	1
848.386	2
849.125	2
849.865	3
850.605	2
851.344	3
852.083	3
852.823	2
853.562	1
854.301	0
855.04	1
855.779	0
856.518	3
857.257	2
857.995	1
858.734	1
859.473	-2
860.211	-1
860.95	2
861.688	1
862.426	1
863.165	0
863.903	3
864.641	1
865.379	1
866.117	4
866.855	1
867.593	1
868.33	1
869.068	0
869.806	2
870.543	0
871.28	3
872.018	2
872.755	2
873.492	2
874.229	0
874.967	1
875.703	-2
876.44	3
877.177	0
877.914	1
878.651	0
879.387	0
880.124	1
880.86	-2
881.597	1
882.333	0
883.069	1
883.806	0
884.542	1
885.278	-1
886.014	1
886.749	3
887.485	2
888.221	-1
888.957	1
889.692	1
890.428	1
891.163	0
891.899	-1
892.634	2
893.369	1
894.104	0
894.839	-2
895.574	2
896.309	1
897.044	0
897.779	0
898.514	-1
899.248	1
899.983	0
900.717	0
901.452	0
902.186	0
902.92	0
903.654	-1
904.389	0
905.123	-2
905.857	-2
906.59	-2
907.324	0
908.058	-1
908.792	3
909.525	0
910.259	0
910.992	3
911.726	-1
912.459	0
913.192	-1
913.925	-1
914.658	0
915.391	-1
916.124	0
916.857	-2
917.59	1
918.323	1
919.055	1
919.788	0
920.521	0
921.253	-2
921.985	1
922.718	0
923.45	2
924.182	2
924.914	1
925.646	1
926.378	1
927.11	-2
927.841	-1
928.573	0
929.305	0
930.036	0
930.768	-1
931.499	1
932.23	-1
932.962	2
933.693	0
934.424	0
935.155	1
935.886	-2
936.617	3
937.348	2
938.078	-1
938.809	2
939.54	1
940.27	1
941.001	1
941.731	1
942.461	2
943.191	0
943.922	1
944.652	-1
945.382	0
946.112	1
946.841	0
947.571	0
948.301	-1
949.031	0
949.76	-1
950.49	1
951.219	-2
951.948	-2
952.678	2
953.407	-1
954.136	1
954.865	0
955.594	0
956.323	1
957.052	0
957.78	-1
958.509	1
959.238	0
959.966	-2
960.695	-1
961.423	-1
962.151	-1
962.88	1
963.608	0
964.336	1
965.064	1
965.792	-2
966.52	-1
967.247	2
967.975	-1
968.703	1
969.43	0
970.158	-1
970.885	2
971.613	2
972.34	1
973.067	-2
973.794	1
974.521	-2
975.248	-2
975.975	0
976.702	-1
977.429	-1
978.156	2
978.882	-2
979.609	0
980.335	0
981.062	1
981.788	0
982.514	0
983.24	1
983.967	0
984.693	-2
985.419	0
986.144	1
986.87	1
987.596	-2
988.322	1
989.047	0
989.773	-1
990.498	-3
991.224	-1
991.949	-2
992.674	0
993.399	-1
994.124	-2
994.849	-1
995.574	0
996.299	0
997.024	1
997.749	-1
998.473	1
999.198	0
999.922	0
1000.647	0
1001.371	4
1002.095	-1
1002.82	-1
1003.544	-2
1004.268	-1
1004.992	-3
1005.716	-2
1006.439	1
1007.163	-2
1007.887	1
1008.611	2
1009.334	-1
1010.058	1
1010.781	-1
1011.504	0
1012.228	2
1012.951	-2
1013.674	0
1014.397	1
1015.12	1
