节点500_145_QEPB04081__492__11-36-48-494.txt的数据

Date: Wed Nov 12 11:36:48 CST 2025
User: PC
Spectrometer: QEPB0408
触发模式: 0
积分时间 (秒): 1.000000E-2
Scans to average: 1
启用暗噪声校正: true
启用非线性校正: false
滑动平均宽度: 0
X轴模式: Wavelengths
Number of Pixels in Spectrum: 1044
>>>>>Begin Spectral Data<<<<<
220.843	1.12
221.644	2.12
222.444	-1.88
223.244	2.12
224.045	1.12
224.845	-1.88
225.645	-0.88
226.445	-1.88
227.245	0.12
228.045	0.12
228.845	2.12
229.645	0.12
230.444	-2.88
231.244	1.12
232.043	-1.88
232.843	2.12
233.642	1.12
234.442	1.12
235.241	-0.88
236.04	0.12
236.839	3.12
237.638	1.12
238.437	2.12
239.236	1.12
240.035	1.12
240.833	1.12
241.632	1.12
242.43	0.12
243.229	2.12
244.027	1.12
244.826	3.12
245.624	1.12
246.422	5.12
247.22	2.12
248.018	2.12
248.816	1.12
249.614	4.12
250.412	1.12
251.21	4.12
252.007	1.12
252.805	2.12
253.602	1.12
254.4	2.12
255.197	5.12
255.994	2.12
256.791	5.12
257.589	4.12
258.386	3.12
259.183	4.12
259.979	4.12
260.776	5.12
261.573	3.12
262.37	2.12
263.166	7.12
263.963	2.12
264.759	3.12
265.556	6.12
266.352	5.12
267.148	7.12
267.944	7.12
268.74	7.12
269.536	6.12
270.332	6.12
271.128	7.12
271.924	8.12
272.719	7.12
273.515	9.12
274.311	7.12
275.106	5.12
275.901	9.12
276.697	8.12
277.492	9.12
278.287	8.12
279.082	5.12
279.877	11.12
280.672	7.12
281.467	10.12
282.262	10.12
283.056	8.12
283.851	9.12
284.646	9.12
285.44	8.12
286.234	9.12
287.029	10.12
287.823	10.12
288.617	11.12
289.411	9.12
290.205	10.12
290.999	13.12
291.793	6.12
292.587	11.12
293.381	11.12
294.174	10.12
294.968	8.12
295.761	9.12
296.555	8.12
297.348	10.12
298.141	9.12
298.935	7.12
299.728	9.12
300.521	10.12
301.314	7.12
302.107	5.12
302.899	6.12
303.692	7.12
304.485	7.12
305.277	7.12
306.07	7.12
306.862	6.12
307.655	9.12
308.447	7.12
309.239	8.12
310.031	8.12
310.823	8.12
311.615	8.12
312.407	6.12
313.199	7.12
313.991	5.12
314.783	4.12
315.574	3.12
316.366	5.12
317.157	5.12
317.949	7.12
318.74	7.12
319.531	5.12
320.322	5.12
321.113	5.12
321.904	6.12
322.695	3.12
323.486	4.12
324.277	4.12
325.068	4.12
325.858	6.12
326.649	6.12
327.439	3.12
328.23	5.12
329.02	2.12
329.81	3.12
330.6	4.12
331.391	4.12
332.181	3.12
332.971	4.12
333.76	3.12
334.55	5.12
335.34	3.12
336.13	4.12
336.919	4.12
337.709	3.12
338.498	2.12
339.287	2.12
340.077	3.12
340.866	5.12
341.655	3.12
342.444	4.12
343.233	3.12
344.022	2.12
344.811	2.12
345.6	1.12
346.388	4.12
347.177	3.12
347.965	4.12
348.754	3.12
349.542	2.12
350.33	3.12
351.119	2.12
351.907	3.12
352.695	1.12
353.483	4.12
354.271	2.12
355.059	0.12
355.846	2.12
356.634	4.12
357.422	2.12
358.209	3.12
358.997	2.12
359.784	3.12
360.571	3.12
361.359	4.12
362.146	3.12
362.933	1.12
363.72	4.12
364.507	3.12
365.294	4.12
366.081	2.12
366.867	3.12
367.654	5.12
368.44	2.12
369.227	1.12
370.013	3.12
370.8	2.12
371.586	3.12
372.372	1.12
373.158	3.12
373.944	2.12
374.73	3.12
375.516	4.12
376.302	2.12
377.088	-0.88
377.873	4.12
378.659	1.12
379.445	1.12
380.23	5.12
381.015	4.12
381.801	2.12
382.586	2.12
383.371	3.12
384.156	3.12
384.941	2.12
385.726	2.12
386.511	4.12
387.296	3.12
388.08	0.12
388.865	1.12
389.649	3.12
390.434	2.12
391.218	3.12
392.003	3.12
392.787	3.12
393.571	4.12
394.355	3.12
395.139	1.12
395.923	3.12
396.707	3.12
397.491	5.12
398.274	3.12
399.058	3.12
399.842	3.12
400.625	2.12
401.408	3.12
402.192	4.12
402.975	3.12
403.758	3.12
404.541	2.12
405.324	4.12
406.107	2.12
406.89	5.12
407.673	5.12
408.456	4.12
409.238	5.12
410.021	3.12
410.803	5.12
411.586	5.12
412.368	3.12
413.151	5.12
413.933	4.12
414.715	5.12
415.497	3.12
416.279	7.12
417.061	4.12
417.843	5.12
418.624	6.12
419.406	2.12
420.188	6.12
420.969	5.12
421.751	6.12
422.532	6.12
423.313	7.12
424.095	5.12
424.876	5.12
425.657	7.12
426.438	6.12
427.219	6.12
428	8.12
428.78	5.12
429.561	5.12
430.342	8.12
431.122	10.12
431.903	9.12
432.683	6.12
433.464	5.12
434.244	10.12
435.024	8.12
435.804	8.12
436.584	9.12
437.364	8.12
438.144	8.12
438.924	12.12
439.704	10.12
440.483	11.12
441.263	11.12
442.042	12.12
442.822	13.12
443.601	13.12
444.38	14.12
445.16	18.12
445.939	19.12
446.718	19.12
447.497	22.12
448.276	19.12
449.054	21.12
449.833	23.12
450.612	26.12
451.391	28.12
452.169	31.12
452.948	34.12
453.726	35.12
454.504	42.12
455.282	41.12
456.061	45.12
456.839	54.12
457.617	57.12
458.395	61.12
459.172	72.12
459.95	80.12
460.728	88.12
461.506	96.12
462.283	105.12
463.061	118.12
463.838	140.12
464.615	149.12
465.393	165.12
466.17	180.12
466.947	212.12
467.724	226.12
468.501	251.12
469.278	283.12
470.055	317.12
470.831	344.12
471.608	383.12
472.385	422.12
473.161	470.12
473.938	527.12
474.714	588.12
475.49	639.12
476.266	724.12
477.043	791.12
477.819	870.12
478.595	952.12
479.371	1048.12
480.146	1164.12
480.922	1275.12
481.698	1397.12
482.473	1539.12
483.249	1687.12
484.024	1858.12
484.8	2035.12
485.575	2253.12
486.35	2456.12
487.126	2680.12
487.901	2941.12
488.676	3242.12
489.451	3561.12
490.225	3868.12
491	4245.12
491.775	4673.12
492.55	5064.12
493.324	5566.12
494.099	6080.12
494.873	6596.12
495.647	7163.12
496.422	7780.12
497.196	8410.12
497.97	9043.12
498.744	9715.12
499.518	10424.12
500.292	11099.12
501.066	11824.12
501.839	12445.12
502.613	13099.12
503.387	13686.12
504.16	14241.12
504.934	14745.12
505.707	15087.12
506.48	15411.12
507.253	15658.12
508.027	15772.12
508.8	15830.12
509.573	15719.12
510.346	15552.12
511.118	15319.12
511.891	15071.12
512.664	14641.12
513.437	14205.12
514.209	13763.12
514.982	13218.12
515.754	12710.12
516.526	12229.12
517.298	11630.12
518.071	11180.12
518.843	10706.12
519.615	10249.12
520.387	9811.12
521.159	9480.12
521.93	9079.12
522.702	8700.12
523.474	8343.12
524.245	8032.12
525.017	7733.12
525.788	7405.12
526.56	7099.12
527.331	6796.12
528.102	6503.12
528.873	6251.12
529.644	5978.12
530.415	5732.12
531.186	5458.12
531.957	5173.12
532.728	4950.12
533.498	4683.12
534.269	4430.12
535.039	4199.12
535.81	3973.12
536.58	3777.12
537.351	3552.12
538.121	3357.12
538.891	3164.12
539.661	2985.12
540.431	2814.12
541.201	2681.12
541.971	2543.12
542.741	2411.12
543.51	2287.12
544.28	2161.12
545.05	2038.12
545.819	1937.12
546.588	1856.12
547.358	1748.12
548.127	1668.12
548.896	1587.12
549.665	1518.12
550.434	1454.12
551.203	1363.12
551.972	1296.12
552.741	1220.12
553.51	1170.12
554.278	1095.12
555.047	1041.12
555.815	970.12
556.584	921.12
557.352	866.12
558.121	823.12
558.889	788.12
559.657	748.12
560.425	683.12
561.193	650.12
561.961	622.12
562.729	590.12
563.496	546.12
564.264	521.12
565.032	484.12
565.799	463.12
566.567	437.12
567.334	411.12
568.101	388.12
568.869	372.12
569.636	348.12
570.403	333.12
571.17	309.12
571.937	294.12
572.704	276.12
573.471	259.12
574.237	245.12
575.004	229.12
575.771	214.12
576.537	205.12
577.303	194.12
578.07	181.12
578.836	169.12
579.602	156.12
580.368	153.12
581.134	143.12
581.9	134.12
582.666	128.12
583.432	125.12
584.198	117.12
584.964	107.12
585.729	102.12
586.495	97.12
587.26	92.12
588.025	84.12
588.791	81.12
589.556	80.12
590.321	71.12
591.086	65.12
591.851	64.12
592.616	62.12
593.381	61.12
594.146	59.12
594.911	54.12
595.675	52.12
596.44	49.12
597.204	45.12
597.969	46.12
598.733	42.12
599.497	40.12
600.261	39.12
601.025	36.12
601.79	36.12
602.553	33.12
603.317	31.12
604.081	29.12
604.845	30.12
605.609	27.12
606.372	27.12
607.136	27.12
607.899	23.12
608.662	23.12
609.426	23.12
610.189	21.12
610.952	22.12
611.715	18.12
612.478	19.12
613.241	18.12
614.004	19.12
614.767	19.12
615.529	15.12
616.292	16.12
617.055	15.12
617.817	12.12
618.579	14.12
619.342	13.12
620.104	13.12
620.866	12.12
621.628	14.12
622.39	11.12
623.152	11.12
623.914	10.12
624.676	10.12
625.438	11.12
626.199	8.12
626.961	11.12
627.722	7.12
628.484	9.12
629.245	9.12
630.006	8.12
630.768	9.12
631.529	7.12
632.29	8.12
633.051	7.12
633.812	7.12
634.573	6.12
635.333	6.12
636.094	8.12
636.855	8.12
637.615	7.12
638.376	7.12
639.136	6.12
639.896	6.12
640.657	5.12
641.417	5.12
642.177	7.12
642.937	4.12
643.697	5.12
644.457	5.12
645.216	4.12
645.976	2.12
646.736	6.12
647.495	3.12
648.255	4.12
649.014	4.12
649.774	5.12
650.533	5.12
651.292	5.12
652.051	6.12
652.81	4.12
653.569	4.12
654.328	2.12
655.087	2.12
655.846	3.12
656.604	3.12
657.363	2.12
658.121	5.12
658.88	4.12
659.638	3.12
660.397	4.12
661.155	3.12
661.913	4.12
662.671	3.12
663.429	2.12
664.187	3.12
664.945	1.12
665.703	3.12
666.46	2.12
667.218	0.12
667.976	2.12
668.733	1.12
669.49	3.12
670.248	2.12
671.005	4.12
671.762	3.12
672.519	2.12
673.276	1.12
674.033	1.12
674.79	3.12
675.547	2.12
676.304	4.12
677.06	3.12
677.817	2.12
678.574	1.12
679.33	1.12
680.086	2.12
680.843	3.12
681.599	3.12
682.355	3.12
683.111	3.12
683.867	1.12
684.623	3.12
685.379	3.12
686.135	1.12
686.89	2.12
687.646	4.12
688.402	1.12
689.157	3.12
689.912	-0.88
690.668	4.12
691.423	0.12
692.178	1.12
692.933	3.12
693.688	1.12
694.443	3.12
695.198	3.12
695.953	2.12
696.708	2.12
697.462	5.12
698.217	0.12
698.972	1.12
699.726	0.12
700.48	2.12
701.235	3.12
701.989	0.12
702.743	2.12
703.497	3.12
704.251	3.12
705.005	3.12
705.759	3.12
706.513	3.12
707.266	2.12
708.02	3.12
708.774	3.12
709.527	2.12
710.28	2.12
711.034	1.12
711.787	3.12
712.54	2.12
713.293	-0.88
714.046	2.12
714.799	2.12
715.552	1.12
716.305	0.12
717.058	3.12
717.81	1.12
718.563	0.12
719.315	1.12
720.068	1.12
720.82	2.12
721.573	1.12
722.325	2.12
723.077	0.12
723.829	4.12
724.581	2.12
725.333	2.12
726.085	3.12
726.836	1.12
727.588	2.12
728.34	3.12
729.091	2.12
729.843	3.12
730.594	2.12
731.346	0.12
732.097	1.12
732.848	1.12
733.599	2.12
734.35	3.12
735.101	2.12
735.852	1.12
736.603	3.12
737.354	1.12
738.104	3.12
738.855	2.12
739.605	1.12
740.356	4.12
741.106	1.12
741.856	2.12
742.607	2.12
743.357	3.12
744.107	3.12
744.857	1.12
745.607	0.12
746.357	2.12
747.106	2.12
747.856	1.12
748.606	2.12
749.355	3.12
750.105	3.12
750.854	3.12
751.603	1.12
752.353	3.12
753.102	2.12
753.851	4.12
754.6	4.12
755.349	2.12
756.098	4.12
756.847	2.12
757.595	2.12
758.344	3.12
759.093	1.12
759.841	2.12
760.589	1.12
761.338	5.12
762.086	3.12
762.834	3.12
763.582	1.12
764.331	2.12
765.079	3.12
765.826	2.12
766.574	4.12
767.322	2.12
768.07	2.12
768.817	3.12
769.565	3.12
770.312	4.12
771.06	3.12
771.807	3.12
772.554	3.12
773.302	5.12
774.049	3.12
774.796	6.12
775.543	4.12
776.29	1.12
777.036	5.12
777.783	4.12
778.53	5.12
779.276	5.12
780.023	5.12
780.769	6.12
781.516	3.12
782.262	3.12
783.008	4.12
783.754	8.12
784.5	4.12
785.246	5.12
785.992	4.12
786.738	4.12
787.484	5.12
788.23	3.12
788.975	7.12
789.721	5.12
790.466	5.12
791.212	6.12
791.957	2.12
792.702	7.12
793.447	6.12
794.193	5.12
794.938	6.12
795.683	5.12
796.427	5.12
797.172	4.12
797.917	5.12
798.662	3.12
799.406	5.12
800.151	5.12
800.895	5.12
801.64	4.12
802.384	1.12
803.128	5.12
803.872	5.12
804.616	6.12
805.36	4.12
806.104	4.12
806.848	1.12
807.592	3.12
808.336	2.12
809.079	4.12
809.823	2.12
810.566	4.12
811.31	3.12
812.053	2.12
812.796	2.12
813.539	5.12
814.283	3.12
815.026	2.12
815.769	3.12
816.511	2.12
817.254	3.12
817.997	1.12
818.74	3.12
819.482	5.12
820.225	5.12
820.967	1.12
821.71	3.12
822.452	4.12
823.194	3.12
823.936	1.12
824.678	4.12
825.42	2.12
826.162	6.12
826.904	2.12
827.646	2.12
828.388	1.12
829.129	2.12
829.871	3.12
830.612	2.12
831.354	1.12
832.095	1.12
832.836	2.12
833.577	2.12
834.319	0.12
835.06	1.12
835.801	1.12
836.542	4.12
837.282	1.12
838.023	2.12
838.764	3.12
839.504	1.12
840.245	2.12
840.985	0.12
841.726	3.12
842.466	-1.88
843.206	2.12
843.946	2.12
844.687	1.12
845.427	1.12
846.166	2.12
846.906	0.12
847.646	2.12
848.386	0.12
849.125	2.12
849.865	1.12
850.605	2.12
851.344	-0.88
852.083	2.12
852.823	1.12
853.562	2.12
854.301	2.12
855.04	3.12
855.779	2.12
856.518	3.12
857.257	1.12
857.995	1.12
858.734	4.12
859.473	0.12
860.211	1.12
860.95	2.12
861.688	1.12
862.426	1.12
863.165	1.12
863.903	0.12
864.641	1.12
865.379	2.12
866.117	1.12
866.855	2.12
867.593	3.12
868.33	0.12
869.068	3.12
869.806	0.12
870.543	0.12
871.28	2.12
872.018	1.12
872.755	0.12
873.492	1.12
874.229	2.12
874.967	1.12
875.703	0.12
876.44	-0.88
877.177	0.12
877.914	-1.88
878.651	2.12
879.387	0.12
880.124	1.12
880.86	-0.88
881.597	2.12
882.333	1.12
883.069	1.12
883.806	-0.88
884.542	2.12
885.278	2.12
886.014	1.12
886.749	0.12
887.485	3.12
888.221	1.12
888.957	-0.88
889.692	0.12
890.428	0.12
891.163	2.12
891.899	0.12
892.634	1.12
893.369	0.12
894.104	1.12
894.839	1.12
895.574	1.12
896.309	0.12
897.044	2.12
897.779	-0.88
898.514	1.12
899.248	-0.88
899.983	-2.88
900.717	0.12
901.452	2.12
902.186	0.12
902.92	0.12
903.654	1.12
904.389	0.12
905.123	-0.88
905.857	1.12
906.59	-0.88
907.324	2.12
908.058	1.12
908.792	0.12
909.525	1.12
910.259	-0.88
910.992	1.12
911.726	1.12
912.459	1.12
913.192	1.12
913.925	2.12
914.658	-0.88
915.391	2.12
916.124	1.12
916.857	0.12
917.59	0.12
918.323	-0.88
919.055	1.12
919.788	0.12
920.521	1.12
921.253	1.12
921.985	0.12
922.718	0.12
923.45	-1.88
924.182	0.12
924.914	-0.88
925.646	-1.88
926.378	1.12
927.11	-0.88
927.841	-0.88
928.573	-0.88
929.305	0.12
930.036	-1.88
930.768	-1.88
931.499	0.12
932.23	-1.88
932.962	1.12
933.693	0.12
934.424	-0.88
935.155	-0.88
935.886	0.12
936.617	0.12
937.348	-0.88
938.078	0.12
938.809	1.12
939.54	-0.88
940.27	2.12
941.001	0.12
941.731	-0.88
942.461	2.12
943.191	0.12
943.922	0.12
944.652	2.12
945.382	1.12
946.112	0.12
946.841	1.12
947.571	-1.88
948.301	-0.88
949.031	1.12
949.76	1.12
950.49	-0.88
951.219	1.12
951.948	1.12
952.678	-0.88
953.407	2.12
954.136	-0.88
954.865	1.12
955.594	1.12
956.323	-1.88
957.052	-1.88
957.78	-0.88
958.509	2.12
959.238	-0.88
959.966	0.12
960.695	-0.88
961.423	0.12
962.151	-2.88
962.88	0.12
963.608	-0.88
964.336	-0.88
965.064	2.12
965.792	0.12
966.52	1.12
967.247	-0.88
967.975	-0.88
968.703	0.12
969.43	-1.88
970.158	0.12
970.885	0.12
971.613	1.12
972.34	-0.88
973.067	0.12
973.794	1.12
974.521	0.12
975.248	0.12
975.975	1.12
976.702	0.12
977.429	0.12
978.156	-2.88
978.882	1.12
979.609	1.12
980.335	1.12
981.062	2.12
981.788	0.12
982.514	1.12
983.24	-1.88
983.967	0.12
984.693	2.12
985.419	1.12
986.144	0.12
986.87	0.12
987.596	4.12
988.322	-0.88
989.047	1.12
989.773	-1.88
990.498	-0.88
991.224	1.12
991.949	-1.88
992.674	-1.88
993.399	2.12
994.124	2.12
994.849	1.12
995.574	-0.88
996.299	2.12
997.024	-0.88
997.749	-0.88
998.473	1.12
999.198	3.12
999.922	0.12
1000.647	1.12
1001.371	3.12
1002.095	-0.88
1002.82	-0.88
1003.544	-1.88
1004.268	-0.88
1004.992	0.12
1005.716	0.12
1006.439	-0.88
1007.163	0.12
1007.887	-1.88
1008.611	-1.88
1009.334	-0.88
1010.058	0.12
1010.781	1.12
1011.504	1.12
1012.228	0.12
1012.951	-0.88
1013.674	1.12
1014.397	1.12
1015.12	-0.88
