节点500_145_QEPB04081__86__11-30-20-632.txt的数据

Date: Wed Nov 12 11:30:20 CST 2025
User: PC
Spectrometer: QEPB0408
触发模式: 0
积分时间 (秒): 1.000000E-2
Scans to average: 1
启用暗噪声校正: true
启用非线性校正: false
滑动平均宽度: 0
X轴模式: Wavelengths
Number of Pixels in Spectrum: 1044
>>>>>Begin Spectral Data<<<<<
220.843	-1.75
221.644	2.25
222.444	0.25
223.244	-2.75
224.045	1.25
224.845	0.25
225.645	0.25
226.445	0.25
227.245	-0.75
228.045	2.25
228.845	-1.75
229.645	-0.75
230.444	-1.75
231.244	0.25
232.043	1.25
232.843	0.25
233.642	-0.75
234.442	2.25
235.241	1.25
236.04	1.25
236.839	2.25
237.638	3.25
238.437	0.25
239.236	3.25
240.035	2.25
240.833	2.25
241.632	2.25
242.43	1.25
243.229	2.25
244.027	1.25
244.826	0.25
245.624	4.25
246.422	4.25
247.22	4.25
248.018	2.25
248.816	1.25
249.614	0.25
250.412	1.25
251.21	2.25
252.007	3.25
252.805	3.25
253.602	3.25
254.4	3.25
255.197	1.25
255.994	2.25
256.791	3.25
257.589	3.25
258.386	4.25
259.183	4.25
259.979	7.25
260.776	2.25
261.573	5.25
262.37	4.25
263.166	4.25
263.963	4.25
264.759	5.25
265.556	5.25
266.352	5.25
267.148	6.25
267.944	8.25
268.74	8.25
269.536	7.25
270.332	5.25
271.128	10.25
271.924	6.25
272.719	9.25
273.515	5.25
274.311	7.25
275.106	10.25
275.901	9.25
276.697	9.25
277.492	9.25
278.287	11.25
279.082	9.25
279.877	12.25
280.672	11.25
281.467	10.25
282.262	13.25
283.056	12.25
283.851	13.25
284.646	13.25
285.44	9.25
286.234	11.25
287.029	10.25
287.823	12.25
288.617	12.25
289.411	10.25
290.205	11.25
290.999	8.25
291.793	14.25
292.587	10.25
293.381	12.25
294.174	10.25
294.968	10.25
295.761	9.25
296.555	12.25
297.348	11.25
298.141	10.25
298.935	10.25
299.728	9.25
300.521	11.25
301.314	8.25
302.107	10.25
302.899	10.25
303.692	7.25
304.485	10.25
305.277	11.25
306.07	7.25
306.862	9.25
307.655	8.25
308.447	9.25
309.239	7.25
310.031	8.25
310.823	7.25
311.615	7.25
312.407	7.25
313.199	6.25
313.991	8.25
314.783	6.25
315.574	8.25
316.366	6.25
317.157	5.25
317.949	5.25
318.74	6.25
319.531	5.25
320.322	4.25
321.113	4.25
321.904	4.25
322.695	7.25
323.486	5.25
324.277	3.25
325.068	4.25
325.858	3.25
326.649	6.25
327.439	2.25
328.23	3.25
329.02	5.25
329.81	5.25
330.6	6.25
331.391	4.25
332.181	4.25
332.971	2.25
333.76	2.25
334.55	5.25
335.34	3.25
336.13	3.25
336.919	3.25
337.709	4.25
338.498	4.25
339.287	3.25
340.077	2.25
340.866	4.25
341.655	5.25
342.444	4.25
343.233	2.25
344.022	5.25
344.811	2.25
345.6	5.25
346.388	4.25
347.177	2.25
347.965	2.25
348.754	1.25
349.542	2.25
350.33	3.25
351.119	2.25
351.907	3.25
352.695	5.25
353.483	3.25
354.271	2.25
355.059	5.25
355.846	2.25
356.634	2.25
357.422	5.25
358.209	2.25
358.997	3.25
359.784	2.25
360.571	4.25
361.359	2.25
362.146	1.25
362.933	1.25
363.72	2.25
364.507	3.25
365.294	2.25
366.081	4.25
366.867	2.25
367.654	5.25
368.44	3.25
369.227	2.25
370.013	3.25
370.8	1.25
371.586	0.25
372.372	2.25
373.158	2.25
373.944	2.25
374.73	4.25
375.516	3.25
376.302	3.25
377.088	0.25
377.873	2.25
378.659	3.25
379.445	2.25
380.23	2.25
381.015	2.25
381.801	2.25
382.586	3.25
383.371	5.25
384.156	2.25
384.941	0.25
385.726	4.25
386.511	2.25
387.296	3.25
388.08	4.25
388.865	3.25
389.649	3.25
390.434	3.25
391.218	1.25
392.003	4.25
392.787	3.25
393.571	4.25
394.355	2.25
395.139	3.25
395.923	3.25
396.707	3.25
397.491	3.25
398.274	1.25
399.058	4.25
399.842	4.25
400.625	2.25
401.408	4.25
402.192	2.25
402.975	6.25
403.758	3.25
404.541	6.25
405.324	4.25
406.107	3.25
406.89	3.25
407.673	6.25
408.456	6.25
409.238	5.25
410.021	5.25
410.803	2.25
411.586	2.25
412.368	6.25
413.151	4.25
413.933	6.25
414.715	5.25
415.497	3.25
416.279	5.25
417.061	4.25
417.843	5.25
418.624	7.25
419.406	5.25
420.188	6.25
420.969	6.25
421.751	7.25
422.532	5.25
423.313	6.25
424.095	7.25
424.876	6.25
425.657	7.25
426.438	7.25
427.219	6.25
428	6.25
428.78	8.25
429.561	8.25
430.342	9.25
431.122	6.25
431.903	7.25
432.683	10.25
433.464	8.25
434.244	9.25
435.024	5.25
435.804	11.25
436.584	8.25
437.364	10.25
438.144	10.25
438.924	10.25
439.704	11.25
440.483	11.25
441.263	10.25
442.042	13.25
442.822	14.25
443.601	11.25
444.38	16.25
445.16	16.25
445.939	15.25
446.718	18.25
447.497	17.25
448.276	17.25
449.054	20.25
449.833	19.25
450.612	25.25
451.391	27.25
452.169	30.25
452.948	30.25
453.726	31.25
454.504	35.25
455.282	42.25
456.061	42.25
456.839	42.25
457.617	52.25
458.395	57.25
459.172	65.25
459.95	68.25
460.728	75.25
461.506	85.25
462.283	92.25
463.061	110.25
463.838	112.25
464.615	132.25
465.393	140.25
466.17	162.25
466.947	185.25
467.724	200.25
468.501	227.25
469.278	242.25
470.055	280.25
470.831	310.25
471.608	349.25
472.385	382.25
473.161	440.25
473.938	493.25
474.714	541.25
475.49	613.25
476.266	672.25
477.043	746.25
477.819	826.25
478.595	916.25
479.371	1026.25
480.146	1134.25
480.922	1273.25
481.698	1398.25
482.473	1552.25
483.249	1721.25
484.024	1922.25
484.8	2113.25
485.575	2341.25
486.35	2594.25
487.126	2887.25
487.901	3213.25
488.676	3535.25
489.451	3916.25
490.225	4351.25
491	4773.25
491.775	5288.25
492.55	5810.25
493.324	6419.25
494.099	7050.25
494.873	7703.25
495.647	8398.25
496.422	9144.25
497.196	9952.25
497.97	10734.25
498.744	11541.25
499.518	12359.25
500.292	13200.25
501.066	13968.25
501.839	14675.25
502.613	15338.25
503.387	15996.25
504.16	16547.25
504.934	16984.25
505.707	17235.25
506.48	17409.25
507.253	17524.25
508.027	17476.25
508.8	17333.25
509.573	17117.25
510.346	16700.25
511.118	16184.25
511.891	15711.25
512.664	15107.25
513.437	14538.25
514.209	13953.25
514.982	13314.25
515.754	12745.25
516.526	12129.25
517.298	11547.25
518.071	11046.25
518.843	10581.25
519.615	10109.25
520.387	9695.25
521.159	9309.25
521.93	8945.25
522.702	8612.25
523.474	8235.25
524.245	7918.25
525.017	7598.25
525.788	7312.25
526.56	7039.25
527.331	6710.25
528.102	6428.25
528.873	6111.25
529.644	5853.25
530.415	5528.25
531.186	5273.25
531.957	4966.25
532.728	4723.25
533.498	4448.25
534.269	4208.25
535.039	3968.25
535.81	3743.25
536.58	3538.25
537.351	3350.25
538.121	3117.25
538.891	2964.25
539.661	2813.25
540.431	2666.25
541.201	2510.25
541.971	2386.25
542.741	2256.25
543.51	2134.25
544.28	2037.25
545.05	1921.25
545.819	1837.25
546.588	1746.25
547.358	1667.25
548.127	1557.25
548.896	1505.25
549.665	1424.25
550.434	1353.25
551.203	1281.25
551.972	1215.25
552.741	1142.25
553.51	1083.25
554.278	1021.25
555.047	968.25
555.815	915.25
556.584	863.25
557.352	803.25
558.121	758.25
558.889	709.25
559.657	678.25
560.425	633.25
561.193	598.25
561.961	575.25
562.729	528.25
563.496	502.25
564.264	480.25
565.032	441.25
565.799	426.25
566.567	405.25
567.334	385.25
568.101	360.25
568.869	335.25
569.636	318.25
570.403	303.25
571.17	281.25
571.937	262.25
572.704	255.25
573.471	237.25
574.237	218.25
575.004	208.25
575.771	197.25
576.537	182.25
577.303	178.25
578.07	163.25
578.836	148.25
579.602	145.25
580.368	137.25
581.134	134.25
581.9	122.25
582.666	118.25
583.432	110.25
584.198	104.25
584.964	99.25
585.729	95.25
586.495	87.25
587.26	84.25
588.025	80.25
588.791	73.25
589.556	74.25
590.321	66.25
591.086	65.25
591.851	59.25
592.616	60.25
593.381	55.25
594.146	48.25
594.911	52.25
595.675	45.25
596.44	46.25
597.204	44.25
597.969	43.25
598.733	38.25
599.497	38.25
600.261	35.25
601.025	30.25
601.79	30.25
602.553	30.25
603.317	32.25
604.081	25.25
604.845	27.25
605.609	25.25
606.372	24.25
607.136	23.25
607.899	22.25
608.662	19.25
609.426	20.25
610.189	22.25
610.952	17.25
611.715	17.25
612.478	21.25
613.241	17.25
614.004	15.25
614.767	14.25
615.529	13.25
616.292	15.25
617.055	14.25
617.817	15.25
618.579	14.25
619.342	13.25
620.104	13.25
620.866	12.25
621.628	12.25
622.39	10.25
623.152	11.25
623.914	11.25
624.676	8.25
625.438	8.25
626.199	10.25
626.961	7.25
627.722	9.25
628.484	7.25
629.245	8.25
630.006	10.25
630.768	6.25
631.529	7.25
632.29	10.25
633.051	7.25
633.812	6.25
634.573	7.25
635.333	4.25
636.094	8.25
636.855	6.25
637.615	4.25
638.376	8.25
639.136	6.25
639.896	5.25
640.657	4.25
641.417	7.25
642.177	2.25
642.937	5.25
643.697	3.25
644.457	3.25
645.216	6.25
645.976	3.25
646.736	2.25
647.495	3.25
648.255	6.25
649.014	4.25
649.774	4.25
650.533	5.25
651.292	3.25
652.051	4.25
652.81	2.25
653.569	5.25
654.328	2.25
655.087	3.25
655.846	3.25
656.604	4.25
657.363	4.25
658.121	2.25
658.88	5.25
659.638	1.25
660.397	2.25
661.155	5.25
661.913	2.25
662.671	3.25
663.429	2.25
664.187	3.25
664.945	2.25
665.703	4.25
666.46	1.25
667.218	4.25
667.976	2.25
668.733	1.25
669.49	4.25
670.248	4.25
671.005	4.25
671.762	0.25
672.519	2.25
673.276	3.25
674.033	2.25
674.79	2.25
675.547	2.25
676.304	1.25
677.06	0.25
677.817	1.25
678.574	2.25
679.33	3.25
680.086	1.25
680.843	3.25
681.599	0.25
682.355	1.25
683.111	2.25
683.867	5.25
684.623	4.25
685.379	2.25
686.135	3.25
686.89	0.25
687.646	3.25
688.402	2.25
689.157	1.25
689.912	1.25
690.668	-0.75
691.423	0.25
692.178	2.25
692.933	2.25
693.688	3.25
694.443	2.25
695.198	1.25
695.953	1.25
696.708	1.25
697.462	3.25
698.217	1.25
698.972	2.25
699.726	4.25
700.48	3.25
701.235	2.25
701.989	1.25
702.743	0.25
703.497	-1.75
704.251	0.25
705.005	2.25
705.759	0.25
706.513	2.25
707.266	3.25
708.02	2.25
708.774	2.25
709.527	2.25
710.28	0.25
711.034	3.25
711.787	3.25
712.54	5.25
713.293	1.25
714.046	2.25
714.799	1.25
715.552	3.25
716.305	2.25
717.058	1.25
717.81	2.25
718.563	1.25
719.315	-0.75
720.068	1.25
720.82	2.25
721.573	3.25
722.325	1.25
723.077	3.25
723.829	3.25
724.581	2.25
725.333	3.25
726.085	2.25
726.836	1.25
727.588	2.25
728.34	1.25
729.091	3.25
729.843	4.25
730.594	5.25
731.346	4.25
732.097	1.25
732.848	1.25
733.599	3.25
734.35	2.25
735.101	3.25
735.852	3.25
736.603	1.25
737.354	3.25
738.104	2.25
738.855	4.25
739.605	1.25
740.356	1.25
741.106	3.25
741.856	2.25
742.607	3.25
743.357	3.25
744.107	2.25
744.857	3.25
745.607	3.25
746.357	3.25
747.106	2.25
747.856	1.25
748.606	2.25
749.355	5.25
750.105	5.25
750.854	4.25
751.603	2.25
752.353	4.25
753.102	1.25
753.851	0.25
754.6	3.25
755.349	3.25
756.098	4.25
756.847	2.25
757.595	2.25
758.344	3.25
759.093	3.25
759.841	3.25
760.589	5.25
761.338	3.25
762.086	3.25
762.834	4.25
763.582	4.25
764.331	4.25
765.079	2.25
765.826	1.25
766.574	3.25
767.322	4.25
768.07	2.25
768.817	5.25
769.565	5.25
770.312	7.25
771.06	4.25
771.807	6.25
772.554	2.25
773.302	2.25
774.049	5.25
774.796	5.25
775.543	3.25
776.29	5.25
777.036	4.25
777.783	4.25
778.53	6.25
779.276	4.25
780.023	4.25
780.769	6.25
781.516	8.25
782.262	3.25
783.008	7.25
783.754	5.25
784.5	0.25
785.246	5.25
785.992	6.25
786.738	6.25
787.484	7.25
788.23	5.25
788.975	3.25
789.721	5.25
790.466	6.25
791.212	5.25
791.957	5.25
792.702	6.25
793.447	8.25
794.193	5.25
794.938	5.25
795.683	6.25
796.427	5.25
797.172	7.25
797.917	4.25
798.662	4.25
799.406	4.25
800.151	4.25
800.895	5.25
801.64	4.25
802.384	5.25
803.128	3.25
803.872	5.25
804.616	5.25
805.36	5.25
806.104	2.25
806.848	5.25
807.592	3.25
808.336	2.25
809.079	4.25
809.823	4.25
810.566	5.25
811.31	2.25
812.053	3.25
812.796	3.25
813.539	1.25
814.283	5.25
815.026	1.25
815.769	2.25
816.511	3.25
817.254	5.25
817.997	2.25
818.74	0.25
819.482	4.25
820.225	4.25
820.967	3.25
821.71	2.25
822.452	3.25
823.194	2.25
823.936	3.25
824.678	2.25
825.42	2.25
826.162	1.25
826.904	4.25
827.646	3.25
828.388	2.25
829.129	2.25
829.871	2.25
830.612	3.25
831.354	1.25
832.095	2.25
832.836	3.25
833.577	2.25
834.319	1.25
835.06	3.25
835.801	3.25
836.542	2.25
837.282	2.25
838.023	1.25
838.764	5.25
839.504	2.25
840.245	2.25
840.985	2.25
841.726	2.25
842.466	3.25
843.206	1.25
843.946	2.25
844.687	0.25
845.427	3.25
846.166	2.25
846.906	3.25
847.646	3.25
848.386	1.25
849.125	3.25
849.865	3.25
850.605	1.25
851.344	2.25
852.083	-0.75
852.823	3.25
853.562	0.25
854.301	3.25
855.04	1.25
855.779	3.25
856.518	2.25
857.257	3.25
857.995	3.25
858.734	1.25
859.473	1.25
860.211	2.25
860.95	1.25
861.688	2.25
862.426	2.25
863.165	5.25
863.903	1.25
864.641	2.25
865.379	0.25
866.117	1.25
866.855	1.25
867.593	1.25
868.33	2.25
869.068	1.25
869.806	0.25
870.543	0.25
871.28	1.25
872.018	1.25
872.755	0.25
873.492	2.25
874.229	2.25
874.967	2.25
875.703	1.25
876.44	1.25
877.177	-0.75
877.914	-0.75
878.651	1.25
879.387	1.25
880.124	0.25
880.86	1.25
881.597	1.25
882.333	0.25
883.069	-0.75
883.806	1.25
884.542	0.25
885.278	0.25
886.014	0.25
886.749	-1.75
887.485	2.25
888.221	1.25
888.957	0.25
889.692	1.25
890.428	1.25
891.163	-0.75
891.899	0.25
892.634	0.25
893.369	0.25
894.104	2.25
894.839	1.25
895.574	-0.75
896.309	1.25
897.044	0.25
897.779	0.25
898.514	0.25
899.248	2.25
899.983	-0.75
900.717	-1.75
901.452	1.25
902.186	1.25
902.92	-0.75
903.654	0.25
904.389	1.25
905.123	-0.75
905.857	0.25
906.59	1.25
907.324	-0.75
908.058	1.25
908.792	-1.75
909.525	-1.75
910.259	0.25
910.992	0.25
911.726	1.25
912.459	-1.75
913.192	1.25
913.925	-0.75
914.658	1.25
915.391	1.25
916.124	1.25
916.857	0.25
917.59	-0.75
918.323	1.25
919.055	-0.75
919.788	1.25
920.521	1.25
921.253	1.25
921.985	-0.75
922.718	-1.75
923.45	-2.75
924.182	1.25
924.914	-2.75
925.646	0.25
926.378	1.25
927.11	1.25
927.841	-1.75
928.573	0.25
929.305	0.25
930.036	-0.75
930.768	3.25
931.499	1.25
932.23	1.25
932.962	-0.75
933.693	0.25
934.424	2.25
935.155	0.25
935.886	0.25
936.617	-0.75
937.348	-0.75
938.078	0.25
938.809	1.25
939.54	2.25
940.27	0.25
941.001	-0.75
941.731	0.25
942.461	0.25
943.191	2.25
943.922	2.25
944.652	0.25
945.382	2.25
946.112	1.25
946.841	-0.75
947.571	1.25
948.301	2.25
949.031	0.25
949.76	-1.75
950.49	1.25
951.219	0.25
951.948	-1.75
952.678	1.25
953.407	1.25
954.136	-0.75
954.865	-0.75
955.594	-0.75
956.323	1.25
957.052	2.25
957.78	1.25
958.509	0.25
959.238	1.25
959.966	0.25
960.695	-0.75
961.423	0.25
962.151	0.25
962.88	-1.75
963.608	1.25
964.336	-0.75
965.064	0.25
965.792	0.25
966.52	1.25
967.247	-0.75
967.975	0.25
968.703	0.25
969.43	-0.75
970.158	2.25
970.885	3.25
971.613	1.25
972.34	1.25
973.067	0.25
973.794	-1.75
974.521	-1.75
975.248	-0.75
975.975	0.25
976.702	0.25
977.429	-0.75
978.156	-1.75
978.882	-0.75
979.609	0.25
980.335	1.25
981.062	0.25
981.788	0.25
982.514	-1.75
983.24	-0.75
983.967	2.25
984.693	-0.75
985.419	1.25
986.144	0.25
986.87	-0.75
987.596	-2.75
988.322	-1.75
989.047	1.25
989.773	0.25
990.498	0.25
991.224	1.25
991.949	-1.75
992.674	0.25
993.399	-2.75
994.124	1.25
994.849	2.25
995.574	0.25
996.299	1.25
997.024	1.25
997.749	1.25
998.473	-0.75
999.198	1.25
999.922	1.25
1000.647	2.25
1001.371	3.25
1002.095	-1.75
1002.82	0.25
1003.544	-1.75
1004.268	-1.75
1004.992	1.25
1005.716	0.25
1006.439	0.25
1007.163	0.25
1007.887	1.25
1008.611	0.25
1009.334	-0.75
1010.058	0.25
1010.781	-0.75
1011.504	1.25
1012.228	1.25
1012.951	0.25
1013.674	0.25
1014.397	-1.75
1015.12	1.25
