节点500_145_QEPB04081__499__11-36-55-468.txt的数据

Date: Wed Nov 12 11:36:55 CST 2025
User: PC
Spectrometer: QEPB0408
触发模式: 0
积分时间 (秒): 1.000000E-2
Scans to average: 1
启用暗噪声校正: true
启用非线性校正: false
滑动平均宽度: 0
X轴模式: Wavelengths
Number of Pixels in Spectrum: 1044
>>>>>Begin Spectral Data<<<<<
220.843	2.62
221.644	0.62
222.444	0.62
223.244	-0.38
224.045	-0.38
224.845	1.62
225.645	-2.38
226.445	0.62
227.245	0.62
228.045	-0.38
228.845	0.62
229.645	-0.38
230.444	1.62
231.244	0.62
232.043	-0.38
232.843	-0.38
233.642	3.62
234.442	0.62
235.241	2.62
236.04	-1.38
236.839	0.62
237.638	1.62
238.437	0.62
239.236	1.62
240.035	1.62
240.833	2.62
241.632	0.62
242.43	-0.38
243.229	2.62
244.027	0.62
244.826	1.62
245.624	1.62
246.422	2.62
247.22	1.62
248.018	3.62
248.816	3.62
249.614	1.62
250.412	1.62
251.21	1.62
252.007	3.62
252.805	3.62
253.602	1.62
254.4	3.62
255.197	2.62
255.994	3.62
256.791	1.62
257.589	3.62
258.386	4.62
259.183	4.62
259.979	5.62
260.776	5.62
261.573	4.62
262.37	5.62
263.166	2.62
263.963	4.62
264.759	5.62
265.556	5.62
266.352	5.62
267.148	5.62
267.944	5.62
268.74	6.62
269.536	4.62
270.332	6.62
271.128	9.62
271.924	5.62
272.719	4.62
273.515	10.62
274.311	7.62
275.106	10.62
275.901	7.62
276.697	7.62
277.492	7.62
278.287	9.62
279.082	7.62
279.877	9.62
280.672	12.62
281.467	9.62
282.262	10.62
283.056	8.62
283.851	9.62
284.646	9.62
285.44	10.62
286.234	13.62
287.029	11.62
287.823	10.62
288.617	10.62
289.411	12.62
290.205	9.62
290.999	10.62
291.793	10.62
292.587	12.62
293.381	10.62
294.174	9.62
294.968	9.62
295.761	11.62
296.555	9.62
297.348	8.62
298.141	9.62
298.935	10.62
299.728	11.62
300.521	7.62
301.314	9.62
302.107	7.62
302.899	8.62
303.692	5.62
304.485	5.62
305.277	9.62
306.07	8.62
306.862	7.62
307.655	6.62
308.447	7.62
309.239	5.62
310.031	6.62
310.823	5.62
311.615	7.62
312.407	8.62
313.199	5.62
313.991	7.62
314.783	5.62
315.574	6.62
316.366	5.62
317.157	4.62
317.949	3.62
318.74	6.62
319.531	3.62
320.322	5.62
321.113	4.62
321.904	6.62
322.695	2.62
323.486	6.62
324.277	6.62
325.068	3.62
325.858	5.62
326.649	4.62
327.439	5.62
328.23	3.62
329.02	3.62
329.81	3.62
330.6	3.62
331.391	4.62
332.181	4.62
332.971	5.62
333.76	4.62
334.55	3.62
335.34	2.62
336.13	2.62
336.919	6.62
337.709	4.62
338.498	2.62
339.287	3.62
340.077	4.62
340.866	3.62
341.655	3.62
342.444	1.62
343.233	4.62
344.022	3.62
344.811	3.62
345.6	6.62
346.388	3.62
347.177	5.62
347.965	3.62
348.754	3.62
349.542	5.62
350.33	4.62
351.119	5.62
351.907	3.62
352.695	4.62
353.483	5.62
354.271	4.62
355.059	3.62
355.846	2.62
356.634	5.62
357.422	2.62
358.209	1.62
358.997	5.62
359.784	2.62
360.571	4.62
361.359	3.62
362.146	2.62
362.933	1.62
363.72	1.62
364.507	3.62
365.294	1.62
366.081	3.62
366.867	2.62
367.654	2.62
368.44	2.62
369.227	4.62
370.013	2.62
370.8	3.62
371.586	4.62
372.372	1.62
373.158	2.62
373.944	3.62
374.73	4.62
375.516	4.62
376.302	1.62
377.088	2.62
377.873	2.62
378.659	2.62
379.445	2.62
380.23	1.62
381.015	2.62
381.801	0.62
382.586	3.62
383.371	1.62
384.156	1.62
384.941	3.62
385.726	3.62
386.511	2.62
387.296	-1.38
388.08	3.62
388.865	2.62
389.649	2.62
390.434	2.62
391.218	-0.38
392.003	2.62
392.787	2.62
393.571	5.62
394.355	1.62
395.139	3.62
395.923	5.62
396.707	4.62
397.491	2.62
398.274	2.62
399.058	5.62
399.842	2.62
400.625	4.62
401.408	4.62
402.192	0.62
402.975	4.62
403.758	1.62
404.541	5.62
405.324	3.62
406.107	5.62
406.89	6.62
407.673	3.62
408.456	4.62
409.238	2.62
410.021	4.62
410.803	5.62
411.586	2.62
412.368	3.62
413.151	2.62
413.933	5.62
414.715	3.62
415.497	5.62
416.279	4.62
417.061	4.62
417.843	6.62
418.624	3.62
419.406	7.62
420.188	4.62
420.969	5.62
421.751	4.62
422.532	3.62
423.313	4.62
424.095	7.62
424.876	8.62
425.657	5.62
426.438	5.62
427.219	6.62
428	3.62
428.78	6.62
429.561	6.62
430.342	7.62
431.122	7.62
431.903	6.62
432.683	9.62
433.464	5.62
434.244	8.62
435.024	10.62
435.804	9.62
436.584	10.62
437.364	9.62
438.144	10.62
438.924	7.62
439.704	11.62
440.483	10.62
441.263	13.62
442.042	12.62
442.822	13.62
443.601	14.62
444.38	12.62
445.16	16.62
445.939	17.62
446.718	17.62
447.497	19.62
448.276	22.62
449.054	22.62
449.833	24.62
450.612	26.62
451.391	27.62
452.169	28.62
452.948	33.62
453.726	33.62
454.504	38.62
455.282	43.62
456.061	50.62
456.839	54.62
457.617	61.62
458.395	65.62
459.172	66.62
459.95	80.62
460.728	86.62
461.506	97.62
462.283	112.62
463.061	126.62
463.838	138.62
464.615	151.62
465.393	171.62
466.17	183.62
466.947	208.62
467.724	222.62
468.501	259.62
469.278	291.62
470.055	313.62
470.831	349.62
471.608	387.62
472.385	433.62
473.161	476.62
473.938	527.62
474.714	585.62
475.49	652.62
476.266	712.62
477.043	786.62
477.819	865.62
478.595	942.62
479.371	1059.62
480.146	1165.62
480.922	1265.62
481.698	1384.62
482.473	1535.62
483.249	1706.62
484.024	1842.62
484.8	2024.62
485.575	2223.62
486.35	2453.62
487.126	2683.62
487.901	2951.62
488.676	3224.62
489.451	3515.62
490.225	3864.62
491	4232.62
491.775	4645.62
492.55	5038.62
493.324	5541.62
494.099	6059.62
494.873	6544.62
495.647	7163.62
496.422	7683.62
497.196	8340.62
497.97	9017.62
498.744	9721.62
499.518	10401.62
500.292	11051.62
501.066	11759.62
501.839	12372.62
502.613	13059.62
503.387	13656.62
504.16	14200.62
504.934	14718.62
505.707	15006.62
506.48	15313.62
507.253	15578.62
508.027	15735.62
508.8	15738.62
509.573	15696.62
510.346	15579.62
511.118	15318.62
511.891	15029.62
512.664	14581.62
513.437	14218.62
514.209	13714.62
514.982	13255.62
515.754	12747.62
516.526	12233.62
517.298	11690.62
518.071	11207.62
518.843	10725.62
519.615	10201.62
520.387	9830.62
521.159	9428.62
521.93	9076.62
522.702	8677.62
523.474	8366.62
524.245	8012.62
525.017	7727.62
525.788	7374.62
526.56	7093.62
527.331	6789.62
528.102	6529.62
528.873	6245.62
529.644	5991.62
530.415	5721.62
531.186	5462.62
531.957	5202.62
532.728	4937.62
533.498	4696.62
534.269	4458.62
535.039	4198.62
535.81	3977.62
536.58	3766.62
537.351	3558.62
538.121	3370.62
538.891	3178.62
539.661	2986.62
540.431	2819.62
541.201	2670.62
541.971	2540.62
542.741	2396.62
543.51	2299.62
544.28	2173.62
545.05	2063.62
545.819	1962.62
546.588	1861.62
547.358	1769.62
548.127	1685.62
548.896	1596.62
549.665	1511.62
550.434	1445.62
551.203	1372.62
551.972	1285.62
552.741	1222.62
553.51	1171.62
554.278	1096.62
555.047	1051.62
555.815	983.62
556.584	919.62
557.352	879.62
558.121	827.62
558.889	786.62
559.657	740.62
560.425	688.62
561.193	656.62
561.961	621.62
562.729	579.62
563.496	552.62
564.264	524.62
565.032	489.62
565.799	457.62
566.567	438.62
567.334	410.62
568.101	394.62
568.869	376.62
569.636	348.62
570.403	322.62
571.17	314.62
571.937	291.62
572.704	274.62
573.471	259.62
574.237	247.62
575.004	227.62
575.771	220.62
576.537	200.62
577.303	193.62
578.07	181.62
578.836	166.62
579.602	164.62
580.368	151.62
581.134	144.62
581.9	138.62
582.666	131.62
583.432	120.62
584.198	113.62
584.964	110.62
585.729	102.62
586.495	97.62
587.26	93.62
588.025	85.62
588.791	82.62
589.556	81.62
590.321	73.62
591.086	66.62
591.851	64.62
592.616	64.62
593.381	59.62
594.146	55.62
594.911	50.62
595.675	50.62
596.44	47.62
597.204	48.62
597.969	43.62
598.733	41.62
599.497	41.62
600.261	39.62
601.025	36.62
601.79	32.62
602.553	31.62
603.317	33.62
604.081	31.62
604.845	29.62
605.609	26.62
606.372	26.62
607.136	27.62
607.899	23.62
608.662	23.62
609.426	26.62
610.189	20.62
610.952	23.62
611.715	17.62
612.478	17.62
613.241	17.62
614.004	17.62
614.767	17.62
615.529	14.62
616.292	17.62
617.055	16.62
617.817	15.62
618.579	12.62
619.342	14.62
620.104	13.62
620.866	13.62
621.628	10.62
622.39	11.62
623.152	10.62
623.914	10.62
624.676	9.62
625.438	10.62
626.199	10.62
626.961	10.62
627.722	9.62
628.484	7.62
629.245	8.62
630.006	7.62
630.768	9.62
631.529	8.62
632.29	7.62
633.051	8.62
633.812	6.62
634.573	5.62
635.333	7.62
636.094	6.62
636.855	7.62
637.615	5.62
638.376	5.62
639.136	5.62
639.896	4.62
640.657	5.62
641.417	4.62
642.177	6.62
642.937	3.62
643.697	4.62
644.457	1.62
645.216	4.62
645.976	5.62
646.736	4.62
647.495	5.62
648.255	4.62
649.014	7.62
649.774	5.62
650.533	2.62
651.292	3.62
652.051	2.62
652.81	1.62
653.569	4.62
654.328	2.62
655.087	3.62
655.846	4.62
656.604	3.62
657.363	2.62
658.121	0.62
658.88	1.62
659.638	2.62
660.397	3.62
661.155	1.62
661.913	2.62
662.671	1.62
663.429	3.62
664.187	3.62
664.945	5.62
665.703	2.62
666.46	1.62
667.218	5.62
667.976	0.62
668.733	0.62
669.49	4.62
670.248	1.62
671.005	2.62
671.762	2.62
672.519	2.62
673.276	0.62
674.033	3.62
674.79	2.62
675.547	4.62
676.304	0.62
677.06	1.62
677.817	3.62
678.574	0.62
679.33	2.62
680.086	1.62
680.843	2.62
681.599	1.62
682.355	4.62
683.111	1.62
683.867	0.62
684.623	4.62
685.379	2.62
686.135	2.62
686.89	3.62
687.646	1.62
688.402	1.62
689.157	0.62
689.912	4.62
690.668	2.62
691.423	0.62
692.178	4.62
692.933	3.62
693.688	2.62
694.443	0.62
695.198	2.62
695.953	2.62
696.708	0.62
697.462	1.62
698.217	1.62
698.972	2.62
699.726	1.62
700.48	1.62
701.235	2.62
701.989	2.62
702.743	0.62
703.497	0.62
704.251	1.62
705.005	2.62
705.759	2.62
706.513	1.62
707.266	0.62
708.02	2.62
708.774	0.62
709.527	2.62
710.28	3.62
711.034	3.62
711.787	1.62
712.54	1.62
713.293	0.62
714.046	2.62
714.799	2.62
715.552	1.62
716.305	1.62
717.058	2.62
717.81	2.62
718.563	2.62
719.315	0.62
720.068	1.62
720.82	2.62
721.573	2.62
722.325	3.62
723.077	2.62
723.829	4.62
724.581	2.62
725.333	0.62
726.085	1.62
726.836	1.62
727.588	0.62
728.34	2.62
729.091	3.62
729.843	2.62
730.594	2.62
731.346	0.62
732.097	4.62
732.848	2.62
733.599	1.62
734.35	1.62
735.101	0.62
735.852	-0.38
736.603	0.62
737.354	0.62
738.104	2.62
738.855	0.62
739.605	3.62
740.356	1.62
741.106	1.62
741.856	0.62
742.607	2.62
743.357	2.62
744.107	1.62
744.857	1.62
745.607	2.62
746.357	2.62
747.106	2.62
747.856	3.62
748.606	1.62
749.355	3.62
750.105	3.62
750.854	1.62
751.603	0.62
752.353	4.62
753.102	1.62
753.851	2.62
754.6	2.62
755.349	1.62
756.098	1.62
756.847	4.62
757.595	1.62
758.344	2.62
759.093	2.62
759.841	1.62
760.589	4.62
761.338	1.62
762.086	2.62
762.834	3.62
763.582	1.62
764.331	5.62
765.079	3.62
765.826	2.62
766.574	1.62
767.322	3.62
768.07	1.62
768.817	3.62
769.565	4.62
770.312	4.62
771.06	6.62
771.807	3.62
772.554	4.62
773.302	3.62
774.049	3.62
774.796	3.62
775.543	4.62
776.29	6.62
777.036	5.62
777.783	5.62
778.53	4.62
779.276	5.62
780.023	6.62
780.769	3.62
781.516	5.62
782.262	6.62
783.008	4.62
783.754	5.62
784.5	4.62
785.246	6.62
785.992	2.62
786.738	5.62
787.484	4.62
788.23	3.62
788.975	5.62
789.721	2.62
790.466	4.62
791.212	6.62
791.957	4.62
792.702	6.62
793.447	4.62
794.193	4.62
794.938	2.62
795.683	5.62
796.427	5.62
797.172	5.62
797.917	7.62
798.662	6.62
799.406	6.62
800.151	3.62
800.895	4.62
801.64	5.62
802.384	3.62
803.128	5.62
803.872	6.62
804.616	4.62
805.36	5.62
806.104	4.62
806.848	3.62
807.592	5.62
808.336	2.62
809.079	4.62
809.823	3.62
810.566	2.62
811.31	6.62
812.053	3.62
812.796	4.62
813.539	2.62
814.283	4.62
815.026	2.62
815.769	2.62
816.511	2.62
817.254	2.62
817.997	4.62
818.74	3.62
819.482	3.62
820.225	2.62
820.967	2.62
821.71	2.62
822.452	3.62
823.194	3.62
823.936	1.62
824.678	3.62
825.42	2.62
826.162	3.62
826.904	2.62
827.646	0.62
828.388	3.62
829.129	2.62
829.871	2.62
830.612	3.62
831.354	2.62
832.095	1.62
832.836	4.62
833.577	3.62
834.319	1.62
835.06	2.62
835.801	4.62
836.542	0.62
837.282	2.62
838.023	2.62
838.764	2.62
839.504	2.62
840.245	3.62
840.985	2.62
841.726	1.62
842.466	1.62
843.206	2.62
843.946	2.62
844.687	2.62
845.427	2.62
846.166	1.62
846.906	1.62
847.646	3.62
848.386	3.62
849.125	2.62
849.865	1.62
850.605	1.62
851.344	2.62
852.083	2.62
852.823	1.62
853.562	0.62
854.301	3.62
855.04	2.62
855.779	0.62
856.518	3.62
857.257	1.62
857.995	1.62
858.734	2.62
859.473	3.62
860.211	0.62
860.95	2.62
861.688	2.62
862.426	0.62
863.165	2.62
863.903	3.62
864.641	0.62
865.379	1.62
866.117	2.62
866.855	1.62
867.593	0.62
868.33	-0.38
869.068	0.62
869.806	1.62
870.543	1.62
871.28	0.62
872.018	2.62
872.755	1.62
873.492	1.62
874.229	-0.38
874.967	2.62
875.703	0.62
876.44	2.62
877.177	1.62
877.914	0.62
878.651	-0.38
879.387	0.62
880.124	2.62
880.86	1.62
881.597	2.62
882.333	0.62
883.069	1.62
883.806	-1.38
884.542	1.62
885.278	1.62
886.014	1.62
886.749	0.62
887.485	4.62
888.221	0.62
888.957	-0.38
889.692	0.62
890.428	-0.38
891.163	-1.38
891.899	-0.38
892.634	1.62
893.369	2.62
894.104	-1.38
894.839	1.62
895.574	0.62
896.309	1.62
897.044	-1.38
897.779	2.62
898.514	0.62
899.248	0.62
899.983	0.62
900.717	-1.38
901.452	1.62
902.186	0.62
902.92	0.62
903.654	0.62
904.389	-1.38
905.123	-0.38
905.857	-1.38
906.59	1.62
907.324	-1.38
908.058	1.62
908.792	-0.38
909.525	0.62
910.259	2.62
910.992	-1.38
911.726	-1.38
912.459	-0.38
913.192	0.62
913.925	0.62
914.658	1.62
915.391	1.62
916.124	-0.38
916.857	1.62
917.59	-0.38
918.323	3.62
919.055	1.62
919.788	-1.38
920.521	0.62
921.253	1.62
921.985	1.62
922.718	-0.38
923.45	1.62
924.182	1.62
924.914	-1.38
925.646	1.62
926.378	1.62
927.11	1.62
927.841	0.62
928.573	3.62
929.305	-0.38
930.036	-0.38
930.768	-1.38
931.499	0.62
932.23	-0.38
932.962	0.62
933.693	-1.38
934.424	-2.38
935.155	-1.38
935.886	0.62
936.617	-0.38
937.348	-0.38
938.078	-1.38
938.809	-1.38
939.54	0.62
940.27	0.62
941.001	2.62
941.731	0.62
942.461	1.62
943.191	0.62
943.922	0.62
944.652	-0.38
945.382	-0.38
946.112	0.62
946.841	1.62
947.571	1.62
948.301	-1.38
949.031	-0.38
949.76	1.62
950.49	1.62
951.219	-0.38
951.948	-1.38
952.678	1.62
953.407	1.62
954.136	-2.38
954.865	-1.38
955.594	2.62
956.323	2.62
957.052	-0.38
957.78	0.62
958.509	3.62
959.238	1.62
959.966	-0.38
960.695	-0.38
961.423	0.62
962.151	-0.38
962.88	0.62
963.608	0.62
964.336	-1.38
965.064	0.62
965.792	-0.38
966.52	-0.38
967.247	0.62
967.975	0.62
968.703	2.62
969.43	-0.38
970.158	1.62
970.885	0.62
971.613	-1.38
972.34	0.62
973.067	0.62
973.794	-0.38
974.521	1.62
975.248	-0.38
975.975	-1.38
976.702	0.62
977.429	0.62
978.156	0.62
978.882	1.62
979.609	1.62
980.335	0.62
981.062	-1.38
981.788	1.62
982.514	-0.38
983.24	0.62
983.967	-0.38
984.693	1.62
985.419	1.62
986.144	-1.38
986.87	0.62
987.596	0.62
988.322	0.62
989.047	-1.38
989.773	-2.38
990.498	2.62
991.224	-0.38
991.949	2.62
992.674	0.62
993.399	0.62
994.124	0.62
994.849	-0.38
995.574	0.62
996.299	0.62
997.024	1.62
997.749	2.62
998.473	0.62
999.198	1.62
999.922	-0.38
1000.647	0.62
1001.371	3.62
1002.095	0.62
1002.82	-3.38
1003.544	-1.38
1004.268	-1.38
1004.992	0.62
1005.716	-2.38
1006.439	-1.38
1007.163	-2.38
1007.887	0.62
1008.611	-1.38
1009.334	1.62
1010.058	-1.38
1010.781	-1.38
1011.504	2.62
1012.228	0.62
1012.951	0.62
1013.674	-0.38
1014.397	0.62
1015.12	-0.38
