节点500_145_QEPB04081__345__11-34-27-536.txt的数据

Date: Wed Nov 12 11:34:27 CST 2025
User: PC
Spectrometer: QEPB0408
触发模式: 0
积分时间 (秒): 1.000000E-2
Scans to average: 1
启用暗噪声校正: true
启用非线性校正: false
滑动平均宽度: 0
X轴模式: Wavelengths
Number of Pixels in Spectrum: 1044
>>>>>Begin Spectral Data<<<<<
220.843	1.88
221.644	-1.12
222.444	-1.12
223.244	0.88
224.045	0.88
224.845	1.88
225.645	-0.12
226.445	-1.12
227.245	0.88
228.045	0.88
228.845	-0.12
229.645	1.88
230.444	-0.12
231.244	2.88
232.043	-1.12
232.843	0.88
233.642	0.88
234.442	1.88
235.241	2.88
236.04	1.88
236.839	1.88
237.638	-0.12
238.437	1.88
239.236	0.88
240.035	1.88
240.833	2.88
241.632	0.88
242.43	2.88
243.229	3.88
244.027	2.88
244.826	1.88
245.624	3.88
246.422	2.88
247.22	2.88
248.018	1.88
248.816	2.88
249.614	3.88
250.412	1.88
251.21	3.88
252.007	1.88
252.805	3.88
253.602	3.88
254.4	3.88
255.197	1.88
255.994	2.88
256.791	1.88
257.589	1.88
258.386	3.88
259.183	2.88
259.979	2.88
260.776	5.88
261.573	5.88
262.37	4.88
263.166	7.88
263.963	7.88
264.759	6.88
265.556	4.88
266.352	8.88
267.148	5.88
267.944	6.88
268.74	6.88
269.536	6.88
270.332	5.88
271.128	5.88
271.924	6.88
272.719	8.88
273.515	8.88
274.311	8.88
275.106	9.88
275.901	7.88
276.697	7.88
277.492	11.88
278.287	7.88
279.082	9.88
279.877	8.88
280.672	8.88
281.467	9.88
282.262	9.88
283.056	9.88
283.851	9.88
284.646	11.88
285.44	9.88
286.234	8.88
287.029	12.88
287.823	9.88
288.617	12.88
289.411	11.88
290.205	10.88
290.999	11.88
291.793	10.88
292.587	8.88
293.381	8.88
294.174	9.88
294.968	9.88
295.761	8.88
296.555	10.88
297.348	8.88
298.141	9.88
298.935	10.88
299.728	12.88
300.521	6.88
301.314	8.88
302.107	7.88
302.899	8.88
303.692	8.88
304.485	7.88
305.277	8.88
306.07	8.88
306.862	7.88
307.655	9.88
308.447	7.88
309.239	8.88
310.031	8.88
310.823	7.88
311.615	5.88
312.407	8.88
313.199	4.88
313.991	5.88
314.783	7.88
315.574	7.88
316.366	5.88
317.157	5.88
317.949	4.88
318.74	3.88
319.531	2.88
320.322	3.88
321.113	4.88
321.904	4.88
322.695	5.88
323.486	6.88
324.277	4.88
325.068	6.88
325.858	4.88
326.649	6.88
327.439	4.88
328.23	7.88
329.02	2.88
329.81	5.88
330.6	3.88
331.391	2.88
332.181	3.88
332.971	2.88
333.76	2.88
334.55	2.88
335.34	4.88
336.13	2.88
336.919	4.88
337.709	1.88
338.498	2.88
339.287	4.88
340.077	4.88
340.866	5.88
341.655	6.88
342.444	5.88
343.233	1.88
344.022	3.88
344.811	3.88
345.6	2.88
346.388	3.88
347.177	4.88
347.965	3.88
348.754	1.88
349.542	1.88
350.33	3.88
351.119	3.88
351.907	3.88
352.695	3.88
353.483	3.88
354.271	3.88
355.059	2.88
355.846	4.88
356.634	3.88
357.422	3.88
358.209	3.88
358.997	2.88
359.784	1.88
360.571	2.88
361.359	2.88
362.146	4.88
362.933	2.88
363.72	3.88
364.507	2.88
365.294	3.88
366.081	3.88
366.867	2.88
367.654	1.88
368.44	2.88
369.227	3.88
370.013	2.88
370.8	2.88
371.586	1.88
372.372	2.88
373.158	1.88
373.944	3.88
374.73	1.88
375.516	-0.12
376.302	4.88
377.088	3.88
377.873	5.88
378.659	2.88
379.445	3.88
380.23	6.88
381.015	2.88
381.801	5.88
382.586	2.88
383.371	5.88
384.156	2.88
384.941	2.88
385.726	2.88
386.511	2.88
387.296	3.88
388.08	2.88
388.865	1.88
389.649	2.88
390.434	3.88
391.218	2.88
392.003	3.88
392.787	2.88
393.571	3.88
394.355	3.88
395.139	2.88
395.923	4.88
396.707	3.88
397.491	2.88
398.274	4.88
399.058	4.88
399.842	5.88
400.625	3.88
401.408	3.88
402.192	5.88
402.975	5.88
403.758	5.88
404.541	1.88
405.324	5.88
406.107	3.88
406.89	5.88
407.673	5.88
408.456	3.88
409.238	4.88
410.021	4.88
410.803	4.88
411.586	5.88
412.368	5.88
413.151	3.88
413.933	4.88
414.715	5.88
415.497	5.88
416.279	5.88
417.061	6.88
417.843	4.88
418.624	7.88
419.406	4.88
420.188	6.88
420.969	4.88
421.751	5.88
422.532	4.88
423.313	2.88
424.095	6.88
424.876	6.88
425.657	6.88
426.438	7.88
427.219	8.88
428	7.88
428.78	7.88
429.561	6.88
430.342	5.88
431.122	7.88
431.903	7.88
432.683	6.88
433.464	9.88
434.244	7.88
435.024	11.88
435.804	9.88
436.584	10.88
437.364	8.88
438.144	13.88
438.924	10.88
439.704	10.88
440.483	10.88
441.263	10.88
442.042	12.88
442.822	14.88
443.601	13.88
444.38	15.88
445.16	14.88
445.939	19.88
446.718	17.88
447.497	19.88
448.276	21.88
449.054	22.88
449.833	25.88
450.612	22.88
451.391	25.88
452.169	25.88
452.948	32.88
453.726	35.88
454.504	38.88
455.282	40.88
456.061	45.88
456.839	48.88
457.617	53.88
458.395	62.88
459.172	68.88
459.95	79.88
460.728	85.88
461.506	94.88
462.283	105.88
463.061	118.88
463.838	132.88
464.615	146.88
465.393	163.88
466.17	178.88
466.947	193.88
467.724	225.88
468.501	248.88
469.278	271.88
470.055	298.88
470.831	339.88
471.608	375.88
472.385	417.88
473.161	466.88
473.938	514.88
474.714	573.88
475.49	630.88
476.266	701.88
477.043	777.88
477.819	853.88
478.595	950.88
479.371	1045.88
480.146	1155.88
480.922	1281.88
481.698	1418.88
482.473	1548.88
483.249	1708.88
484.024	1870.88
484.8	2065.88
485.575	2274.88
486.35	2510.88
487.126	2752.88
487.901	3021.88
488.676	3326.88
489.451	3648.88
490.225	4001.88
491	4398.88
491.775	4852.88
492.55	5316.88
493.324	5803.88
494.099	6336.88
494.873	6876.88
495.647	7495.88
496.422	8164.88
497.196	8835.88
497.97	9502.88
498.744	10249.88
499.518	10974.88
500.292	11709.88
501.066	12427.88
501.839	13088.88
502.613	13740.88
503.387	14393.88
504.16	14927.88
504.934	15382.88
505.707	15720.88
506.48	16009.88
507.253	16199.88
508.027	16337.88
508.8	16288.88
509.573	16176.88
510.346	15982.88
511.118	15671.88
511.891	15271.88
512.664	14791.88
513.437	14402.88
514.209	13855.88
514.982	13325.88
515.754	12761.88
516.526	12190.88
517.298	11693.88
518.071	11136.88
518.843	10663.88
519.615	10221.88
520.387	9790.88
521.159	9419.88
521.93	9060.88
522.702	8620.88
523.474	8358.88
524.245	7978.88
525.017	7674.88
525.788	7388.88
526.56	7102.88
527.331	6769.88
528.102	6467.88
528.873	6215.88
529.644	5955.88
530.415	5657.88
531.186	5385.88
531.957	5156.88
532.728	4859.88
533.498	4624.88
534.269	4358.88
535.039	4145.88
535.81	3910.88
536.58	3705.88
537.351	3475.88
538.121	3297.88
538.891	3110.88
539.661	2920.88
540.431	2760.88
541.201	2622.88
541.971	2509.88
542.741	2364.88
543.51	2237.88
544.28	2131.88
545.05	2022.88
545.819	1915.88
546.588	1840.88
547.358	1723.88
548.127	1630.88
548.896	1561.88
549.665	1492.88
550.434	1404.88
551.203	1342.88
551.972	1263.88
552.741	1199.88
553.51	1137.88
554.278	1074.88
555.047	1013.88
555.815	948.88
556.584	906.88
557.352	847.88
558.121	811.88
558.889	767.88
559.657	721.88
560.425	677.88
561.193	635.88
561.961	605.88
562.729	558.88
563.496	549.88
564.264	514.88
565.032	474.88
565.799	450.88
566.567	422.88
567.334	392.88
568.101	385.88
568.869	359.88
569.636	337.88
570.403	317.88
571.17	301.88
571.937	281.88
572.704	274.88
573.471	250.88
574.237	238.88
575.004	222.88
575.771	207.88
576.537	198.88
577.303	189.88
578.07	178.88
578.836	166.88
579.602	160.88
580.368	146.88
581.134	136.88
581.9	130.88
582.666	125.88
583.432	117.88
584.198	112.88
584.964	103.88
585.729	97.88
586.495	94.88
587.26	89.88
588.025	84.88
588.791	83.88
589.556	73.88
590.321	71.88
591.086	72.88
591.851	59.88
592.616	59.88
593.381	60.88
594.146	54.88
594.911	48.88
595.675	47.88
596.44	49.88
597.204	47.88
597.969	45.88
598.733	45.88
599.497	37.88
600.261	36.88
601.025	35.88
601.79	34.88
602.553	33.88
603.317	31.88
604.081	28.88
604.845	27.88
605.609	27.88
606.372	26.88
607.136	23.88
607.899	25.88
608.662	23.88
609.426	18.88
610.189	24.88
610.952	22.88
611.715	16.88
612.478	18.88
613.241	15.88
614.004	18.88
614.767	14.88
615.529	14.88
616.292	17.88
617.055	16.88
617.817	15.88
618.579	11.88
619.342	15.88
620.104	13.88
620.866	12.88
621.628	13.88
622.39	11.88
623.152	13.88
623.914	9.88
624.676	11.88
625.438	9.88
626.199	8.88
626.961	13.88
627.722	10.88
628.484	9.88
629.245	6.88
630.006	8.88
630.768	6.88
631.529	6.88
632.29	9.88
633.051	8.88
633.812	7.88
634.573	5.88
635.333	7.88
636.094	7.88
636.855	8.88
637.615	6.88
638.376	6.88
639.136	6.88
639.896	5.88
640.657	4.88
641.417	4.88
642.177	5.88
642.937	7.88
643.697	5.88
644.457	5.88
645.216	6.88
645.976	5.88
646.736	3.88
647.495	6.88
648.255	5.88
649.014	5.88
649.774	5.88
650.533	4.88
651.292	4.88
652.051	7.88
652.81	2.88
653.569	5.88
654.328	3.88
655.087	3.88
655.846	5.88
656.604	5.88
657.363	4.88
658.121	3.88
658.88	2.88
659.638	2.88
660.397	3.88
661.155	3.88
661.913	3.88
662.671	3.88
663.429	4.88
664.187	2.88
664.945	2.88
665.703	3.88
666.46	3.88
667.218	1.88
667.976	1.88
668.733	3.88
669.49	3.88
670.248	2.88
671.005	3.88
671.762	4.88
672.519	1.88
673.276	3.88
674.033	1.88
674.79	2.88
675.547	2.88
676.304	3.88
677.06	1.88
677.817	2.88
678.574	3.88
679.33	2.88
680.086	4.88
680.843	1.88
681.599	4.88
682.355	2.88
683.111	0.88
683.867	0.88
684.623	3.88
685.379	3.88
686.135	2.88
686.89	2.88
687.646	1.88
688.402	2.88
689.157	2.88
689.912	1.88
690.668	2.88
691.423	1.88
692.178	3.88
692.933	3.88
693.688	2.88
694.443	1.88
695.198	2.88
695.953	4.88
696.708	2.88
697.462	1.88
698.217	1.88
698.972	-0.12
699.726	4.88
700.48	2.88
701.235	0.88
701.989	3.88
702.743	2.88
703.497	3.88
704.251	0.88
705.005	2.88
705.759	0.88
706.513	3.88
707.266	3.88
708.02	3.88
708.774	2.88
709.527	1.88
710.28	1.88
711.034	1.88
711.787	3.88
712.54	2.88
713.293	1.88
714.046	-0.12
714.799	1.88
715.552	1.88
716.305	-0.12
717.058	3.88
717.81	1.88
718.563	1.88
719.315	2.88
720.068	-0.12
720.82	1.88
721.573	2.88
722.325	1.88
723.077	1.88
723.829	2.88
724.581	2.88
725.333	2.88
726.085	3.88
726.836	1.88
727.588	3.88
728.34	2.88
729.091	4.88
729.843	2.88
730.594	1.88
731.346	1.88
732.097	4.88
732.848	2.88
733.599	2.88
734.35	2.88
735.101	5.88
735.852	0.88
736.603	2.88
737.354	2.88
738.104	2.88
738.855	5.88
739.605	0.88
740.356	3.88
741.106	2.88
741.856	2.88
742.607	3.88
743.357	1.88
744.107	1.88
744.857	-0.12
745.607	2.88
746.357	0.88
747.106	5.88
747.856	5.88
748.606	1.88
749.355	2.88
750.105	2.88
750.854	2.88
751.603	4.88
752.353	3.88
753.102	2.88
753.851	2.88
754.6	4.88
755.349	6.88
756.098	2.88
756.847	3.88
757.595	5.88
758.344	2.88
759.093	2.88
759.841	4.88
760.589	2.88
761.338	4.88
762.086	4.88
762.834	4.88
763.582	3.88
764.331	3.88
765.079	4.88
765.826	4.88
766.574	3.88
767.322	1.88
768.07	1.88
768.817	4.88
769.565	7.88
770.312	2.88
771.06	3.88
771.807	4.88
772.554	5.88
773.302	4.88
774.049	5.88
774.796	5.88
775.543	4.88
776.29	7.88
777.036	4.88
777.783	4.88
778.53	6.88
779.276	3.88
780.023	4.88
780.769	3.88
781.516	5.88
782.262	6.88
783.008	3.88
783.754	6.88
784.5	6.88
785.246	4.88
785.992	5.88
786.738	4.88
787.484	5.88
788.23	5.88
788.975	6.88
789.721	4.88
790.466	6.88
791.212	6.88
791.957	5.88
792.702	7.88
793.447	2.88
794.193	7.88
794.938	6.88
795.683	6.88
796.427	5.88
797.172	5.88
797.917	4.88
798.662	4.88
799.406	6.88
800.151	4.88
800.895	3.88
801.64	7.88
802.384	5.88
803.128	3.88
803.872	5.88
804.616	3.88
805.36	6.88
806.104	2.88
806.848	1.88
807.592	4.88
808.336	5.88
809.079	3.88
809.823	3.88
810.566	2.88
811.31	4.88
812.053	3.88
812.796	3.88
813.539	3.88
814.283	3.88
815.026	4.88
815.769	4.88
816.511	3.88
817.254	3.88
817.997	2.88
818.74	3.88
819.482	1.88
820.225	3.88
820.967	2.88
821.71	3.88
822.452	3.88
823.194	3.88
823.936	3.88
824.678	3.88
825.42	3.88
826.162	1.88
826.904	2.88
827.646	6.88
828.388	3.88
829.129	3.88
829.871	1.88
830.612	2.88
831.354	4.88
832.095	2.88
832.836	3.88
833.577	2.88
834.319	2.88
835.06	1.88
835.801	2.88
836.542	2.88
837.282	4.88
838.023	2.88
838.764	5.88
839.504	4.88
840.245	2.88
840.985	5.88
841.726	2.88
842.466	1.88
843.206	3.88
843.946	-0.12
844.687	3.88
845.427	1.88
846.166	2.88
846.906	2.88
847.646	1.88
848.386	5.88
849.125	1.88
849.865	2.88
850.605	1.88
851.344	1.88
852.083	2.88
852.823	3.88
853.562	2.88
854.301	1.88
855.04	2.88
855.779	1.88
856.518	2.88
857.257	0.88
857.995	2.88
858.734	1.88
859.473	-0.12
860.211	1.88
860.95	1.88
861.688	3.88
862.426	0.88
863.165	0.88
863.903	2.88
864.641	2.88
865.379	-0.12
866.117	-0.12
866.855	0.88
867.593	3.88
868.33	2.88
869.068	1.88
869.806	0.88
870.543	3.88
871.28	0.88
872.018	-0.12
872.755	2.88
873.492	-0.12
874.229	2.88
874.967	0.88
875.703	0.88
876.44	2.88
877.177	2.88
877.914	1.88
878.651	1.88
879.387	-0.12
880.124	0.88
880.86	2.88
881.597	1.88
882.333	1.88
883.069	0.88
883.806	2.88
884.542	1.88
885.278	-1.12
886.014	0.88
886.749	2.88
887.485	0.88
888.221	2.88
888.957	1.88
889.692	0.88
890.428	1.88
891.163	3.88
891.899	0.88
892.634	2.88
893.369	0.88
894.104	0.88
894.839	1.88
895.574	-1.12
896.309	1.88
897.044	0.88
897.779	-0.12
898.514	0.88
899.248	1.88
899.983	-1.12
900.717	0.88
901.452	2.88
902.186	1.88
902.92	1.88
903.654	2.88
904.389	-1.12
905.123	0.88
905.857	-0.12
906.59	-0.12
907.324	0.88
908.058	2.88
908.792	0.88
909.525	1.88
910.259	0.88
910.992	-1.12
911.726	2.88
912.459	1.88
913.192	0.88
913.925	1.88
914.658	-0.12
915.391	0.88
916.124	-1.12
916.857	0.88
917.59	1.88
918.323	-1.12
919.055	2.88
919.788	-1.12
920.521	1.88
921.253	1.88
921.985	1.88
922.718	1.88
923.45	-0.12
924.182	1.88
924.914	-1.12
925.646	-1.12
926.378	0.88
927.11	1.88
927.841	1.88
928.573	-0.12
929.305	0.88
930.036	-1.12
930.768	0.88
931.499	-1.12
932.23	2.88
932.962	0.88
933.693	2.88
934.424	0.88
935.155	-0.12
935.886	0.88
936.617	-0.12
937.348	-0.12
938.078	1.88
938.809	0.88
939.54	0.88
940.27	-1.12
941.001	-0.12
941.731	0.88
942.461	0.88
943.191	-0.12
943.922	0.88
944.652	-0.12
945.382	-0.12
946.112	1.88
946.841	-0.12
947.571	-1.12
948.301	2.88
949.031	0.88
949.76	1.88
950.49	-0.12
951.219	0.88
951.948	1.88
952.678	0.88
953.407	1.88
954.136	2.88
954.865	0.88
955.594	0.88
956.323	1.88
957.052	1.88
957.78	0.88
958.509	1.88
959.238	-1.12
959.966	-0.12
960.695	-0.12
961.423	1.88
962.151	-1.12
962.88	2.88
963.608	0.88
964.336	-0.12
965.064	1.88
965.792	1.88
966.52	1.88
967.247	-0.12
967.975	0.88
968.703	2.88
969.43	-1.12
970.158	0.88
970.885	1.88
971.613	0.88
972.34	0.88
973.067	-1.12
973.794	1.88
974.521	1.88
975.248	0.88
975.975	0.88
976.702	1.88
977.429	2.88
978.156	2.88
978.882	1.88
979.609	-0.12
980.335	2.88
981.062	-0.12
981.788	1.88
982.514	-0.12
983.24	-1.12
983.967	0.88
984.693	1.88
985.419	0.88
986.144	-0.12
986.87	1.88
987.596	2.88
988.322	-1.12
989.047	1.88
989.773	-1.12
990.498	1.88
991.224	3.88
991.949	0.88
992.674	0.88
993.399	-1.12
994.124	-0.12
994.849	-1.12
995.574	-0.12
996.299	0.88
997.024	0.88
997.749	-0.12
998.473	-0.12
999.198	0.88
999.922	1.88
1000.647	-0.12
1001.371	2.88
1002.095	-3.12
1002.82	-1.12
1003.544	-2.12
1004.268	1.88
1004.992	-0.12
1005.716	-2.12
1006.439	2.88
1007.163	1.88
1007.887	0.88
1008.611	-1.12
1009.334	1.88
1010.058	1.88
1010.781	-0.12
1011.504	2.88
1012.228	1.88
1012.951	0.88
1013.674	1.88
1014.397	-0.12
1015.12	0.88
