节点500_145_QEPB04081__683__11-39-46-884.txt的数据

Date: Wed Nov 12 11:39:46 CST 2025
User: PC
Spectrometer: QEPB0408
触发模式: 0
积分时间 (秒): 1.000000E-2
Scans to average: 1
启用暗噪声校正: true
启用非线性校正: false
滑动平均宽度: 0
X轴模式: Wavelengths
Number of Pixels in Spectrum: 1044
>>>>>Begin Spectral Data<<<<<
220.843	0.38
221.644	-1.62
222.444	0.38
223.244	-2.62
224.045	0.38
224.845	-1.62
225.645	-2.62
226.445	0.38
227.245	-1.62
228.045	0.38
228.845	0.38
229.645	-2.62
230.444	-1.62
231.244	-0.62
232.043	-1.62
232.843	1.38
233.642	1.38
234.442	1.38
235.241	0.38
236.04	0.38
236.839	-1.62
237.638	0.38
238.437	-0.62
239.236	2.38
240.035	-1.62
240.833	1.38
241.632	1.38
242.43	2.38
243.229	3.38
244.027	1.38
244.826	1.38
245.624	0.38
246.422	1.38
247.22	3.38
248.018	2.38
248.816	2.38
249.614	2.38
250.412	5.38
251.21	2.38
252.007	3.38
252.805	3.38
253.602	2.38
254.4	4.38
255.197	1.38
255.994	3.38
256.791	3.38
257.589	3.38
258.386	1.38
259.183	3.38
259.979	3.38
260.776	4.38
261.573	3.38
262.37	2.38
263.166	4.38
263.963	5.38
264.759	3.38
265.556	4.38
266.352	4.38
267.148	4.38
267.944	8.38
268.74	5.38
269.536	7.38
270.332	5.38
271.128	5.38
271.924	5.38
272.719	7.38
273.515	5.38
274.311	9.38
275.106	8.38
275.901	8.38
276.697	9.38
277.492	5.38
278.287	9.38
279.082	7.38
279.877	7.38
280.672	8.38
281.467	10.38
282.262	8.38
283.056	7.38
283.851	8.38
284.646	9.38
285.44	7.38
286.234	10.38
287.029	8.38
287.823	8.38
288.617	7.38
289.411	10.38
290.205	7.38
290.999	10.38
291.793	9.38
292.587	9.38
293.381	9.38
294.174	10.38
294.968	10.38
295.761	10.38
296.555	9.38
297.348	9.38
298.141	10.38
298.935	11.38
299.728	8.38
300.521	11.38
301.314	6.38
302.107	9.38
302.899	7.38
303.692	6.38
304.485	3.38
305.277	7.38
306.07	7.38
306.862	7.38
307.655	5.38
308.447	6.38
309.239	8.38
310.031	9.38
310.823	7.38
311.615	7.38
312.407	7.38
313.199	5.38
313.991	6.38
314.783	5.38
315.574	8.38
316.366	4.38
317.157	4.38
317.949	6.38
318.74	4.38
319.531	5.38
320.322	3.38
321.113	4.38
321.904	4.38
322.695	5.38
323.486	2.38
324.277	5.38
325.068	2.38
325.858	5.38
326.649	3.38
327.439	3.38
328.23	0.38
329.02	1.38
329.81	4.38
330.6	3.38
331.391	2.38
332.181	3.38
332.971	3.38
333.76	4.38
334.55	2.38
335.34	4.38
336.13	4.38
336.919	4.38
337.709	2.38
338.498	3.38
339.287	2.38
340.077	2.38
340.866	3.38
341.655	2.38
342.444	1.38
343.233	3.38
344.022	2.38
344.811	4.38
345.6	2.38
346.388	3.38
347.177	4.38
347.965	1.38
348.754	3.38
349.542	2.38
350.33	2.38
351.119	2.38
351.907	1.38
352.695	4.38
353.483	2.38
354.271	5.38
355.059	1.38
355.846	5.38
356.634	2.38
357.422	2.38
358.209	2.38
358.997	0.38
359.784	1.38
360.571	1.38
361.359	0.38
362.146	2.38
362.933	1.38
363.72	2.38
364.507	2.38
365.294	1.38
366.081	2.38
366.867	1.38
367.654	1.38
368.44	3.38
369.227	2.38
370.013	2.38
370.8	1.38
371.586	2.38
372.372	2.38
373.158	3.38
373.944	1.38
374.73	3.38
375.516	2.38
376.302	2.38
377.088	1.38
377.873	4.38
378.659	2.38
379.445	2.38
380.23	3.38
381.015	2.38
381.801	1.38
382.586	1.38
383.371	4.38
384.156	5.38
384.941	0.38
385.726	2.38
386.511	1.38
387.296	3.38
388.08	2.38
388.865	3.38
389.649	2.38
390.434	1.38
391.218	1.38
392.003	2.38
392.787	6.38
393.571	2.38
394.355	0.38
395.139	3.38
395.923	3.38
396.707	1.38
397.491	2.38
398.274	2.38
399.058	2.38
399.842	4.38
400.625	3.38
401.408	1.38
402.192	4.38
402.975	4.38
403.758	2.38
404.541	4.38
405.324	3.38
406.107	2.38
406.89	1.38
407.673	4.38
408.456	2.38
409.238	2.38
410.021	3.38
410.803	2.38
411.586	4.38
412.368	5.38
413.151	4.38
413.933	4.38
414.715	4.38
415.497	6.38
416.279	5.38
417.061	4.38
417.843	3.38
418.624	7.38
419.406	3.38
420.188	5.38
420.969	5.38
421.751	3.38
422.532	6.38
423.313	3.38
424.095	5.38
424.876	6.38
425.657	4.38
426.438	5.38
427.219	5.38
428	6.38
428.78	6.38
429.561	6.38
430.342	7.38
431.122	8.38
431.903	5.38
432.683	6.38
433.464	9.38
434.244	7.38
435.024	9.38
435.804	8.38
436.584	9.38
437.364	12.38
438.144	9.38
438.924	10.38
439.704	11.38
440.483	12.38
441.263	13.38
442.042	14.38
442.822	15.38
443.601	12.38
444.38	17.38
445.16	14.38
445.939	18.38
446.718	20.38
447.497	18.38
448.276	21.38
449.054	25.38
449.833	25.38
450.612	27.38
451.391	30.38
452.169	30.38
452.948	35.38
453.726	34.38
454.504	40.38
455.282	43.38
456.061	51.38
456.839	55.38
457.617	61.38
458.395	69.38
459.172	73.38
459.95	84.38
460.728	95.38
461.506	101.38
462.283	118.38
463.061	129.38
463.838	144.38
464.615	157.38
465.393	172.38
466.17	203.38
466.947	216.38
467.724	238.38
468.501	263.38
469.278	294.38
470.055	328.38
470.831	363.38
471.608	400.38
472.385	442.38
473.161	488.38
473.938	542.38
474.714	594.38
475.49	655.38
476.266	716.38
477.043	793.38
477.819	880.38
478.595	967.38
479.371	1051.38
480.146	1157.38
480.922	1261.38
481.698	1392.38
482.473	1517.38
483.249	1672.38
484.024	1832.38
484.8	1999.38
485.575	2183.38
486.35	2378.38
487.126	2591.38
487.901	2812.38
488.676	3093.38
489.451	3374.38
490.225	3679.38
491	4031.38
491.775	4364.38
492.55	4773.38
493.324	5205.38
494.099	5656.38
494.873	6080.38
495.647	6610.38
496.422	7144.38
497.196	7719.38
497.97	8298.38
498.744	8969.38
499.518	9553.38
500.292	10225.38
501.066	10842.38
501.839	11445.38
502.613	12036.38
503.387	12636.38
504.16	13171.38
504.934	13684.38
505.707	14064.38
506.48	14427.38
507.253	14679.38
508.027	14842.38
508.8	15015.38
509.573	14991.38
510.346	14944.38
511.118	14793.38
511.891	14578.38
512.664	14250.38
513.437	13861.38
514.209	13520.38
514.982	13094.38
515.754	12594.38
516.526	12118.38
517.298	11674.38
518.071	11192.38
518.843	10696.38
519.615	10295.38
520.387	9848.38
521.159	9462.38
521.93	9077.38
522.702	8746.38
523.474	8392.38
524.245	8075.38
525.017	7738.38
525.788	7409.38
526.56	7124.38
527.331	6862.38
528.102	6570.38
528.873	6294.38
529.644	6029.38
530.415	5752.38
531.186	5474.38
531.957	5294.38
532.728	5027.38
533.498	4761.38
534.269	4512.38
535.039	4280.38
535.81	4052.38
536.58	3837.38
537.351	3659.38
538.121	3452.38
538.891	3254.38
539.661	3068.38
540.431	2935.38
541.201	2749.38
541.971	2600.38
542.741	2475.38
543.51	2352.38
544.28	2221.38
545.05	2103.38
545.819	2013.38
546.588	1912.38
547.358	1819.38
548.127	1721.38
548.896	1650.38
549.665	1547.38
550.434	1470.38
551.203	1419.38
551.972	1345.38
552.741	1277.38
553.51	1206.38
554.278	1136.38
555.047	1072.38
555.815	1015.38
556.584	960.38
557.352	905.38
558.121	846.38
558.889	804.38
559.657	761.38
560.425	735.38
561.193	672.38
561.961	633.38
562.729	614.38
563.496	577.38
564.264	539.38
565.032	518.38
565.799	485.38
566.567	461.38
567.334	430.38
568.101	403.38
568.869	387.38
569.636	365.38
570.403	336.38
571.17	330.38
571.937	306.38
572.704	285.38
573.471	268.38
574.237	250.38
575.004	242.38
575.771	230.38
576.537	209.38
577.303	200.38
578.07	187.38
578.836	180.38
579.602	163.38
580.368	160.38
581.134	146.38
581.9	142.38
582.666	134.38
583.432	125.38
584.198	127.38
584.964	112.38
585.729	105.38
586.495	110.38
587.26	92.38
588.025	89.38
588.791	86.38
589.556	83.38
590.321	80.38
591.086	74.38
591.851	66.38
592.616	66.38
593.381	60.38
594.146	57.38
594.911	54.38
595.675	53.38
596.44	51.38
597.204	48.38
597.969	46.38
598.733	46.38
599.497	37.38
600.261	42.38
601.025	38.38
601.79	36.38
602.553	34.38
603.317	32.38
604.081	31.38
604.845	30.38
605.609	28.38
606.372	29.38
607.136	27.38
607.899	22.38
608.662	22.38
609.426	24.38
610.189	20.38
610.952	21.38
611.715	22.38
612.478	21.38
613.241	20.38
614.004	18.38
614.767	16.38
615.529	16.38
616.292	18.38
617.055	12.38
617.817	15.38
618.579	14.38
619.342	14.38
620.104	13.38
620.866	11.38
621.628	12.38
622.39	14.38
623.152	13.38
623.914	10.38
624.676	13.38
625.438	9.38
626.199	10.38
626.961	9.38
627.722	9.38
628.484	8.38
629.245	8.38
630.006	9.38
630.768	7.38
631.529	8.38
632.29	6.38
633.051	7.38
633.812	7.38
634.573	8.38
635.333	6.38
636.094	7.38
636.855	6.38
637.615	6.38
638.376	4.38
639.136	5.38
639.896	5.38
640.657	5.38
641.417	5.38
642.177	5.38
642.937	5.38
643.697	6.38
644.457	5.38
645.216	5.38
645.976	7.38
646.736	3.38
647.495	6.38
648.255	3.38
649.014	0.38
649.774	4.38
650.533	5.38
651.292	5.38
652.051	2.38
652.81	1.38
653.569	6.38
654.328	1.38
655.087	4.38
655.846	4.38
656.604	8.38
657.363	3.38
658.121	4.38
658.88	6.38
659.638	3.38
660.397	3.38
661.155	1.38
661.913	5.38
662.671	2.38
663.429	1.38
664.187	5.38
664.945	1.38
665.703	4.38
666.46	2.38
667.218	2.38
667.976	3.38
668.733	1.38
669.49	2.38
670.248	2.38
671.005	2.38
671.762	5.38
672.519	1.38
673.276	2.38
674.033	1.38
674.79	1.38
675.547	0.38
676.304	2.38
677.06	2.38
677.817	0.38
678.574	3.38
679.33	0.38
680.086	2.38
680.843	1.38
681.599	3.38
682.355	2.38
683.111	2.38
683.867	2.38
684.623	1.38
685.379	0.38
686.135	0.38
686.89	0.38
687.646	3.38
688.402	1.38
689.157	2.38
689.912	-0.62
690.668	5.38
691.423	0.38
692.178	3.38
692.933	0.38
693.688	2.38
694.443	1.38
695.198	1.38
695.953	2.38
696.708	3.38
697.462	1.38
698.217	1.38
698.972	0.38
699.726	1.38
700.48	-1.62
701.235	4.38
701.989	1.38
702.743	3.38
703.497	2.38
704.251	0.38
705.005	2.38
705.759	0.38
706.513	2.38
707.266	0.38
708.02	2.38
708.774	0.38
709.527	2.38
710.28	2.38
711.034	1.38
711.787	1.38
712.54	1.38
713.293	1.38
714.046	-0.62
714.799	2.38
715.552	2.38
716.305	2.38
717.058	1.38
717.81	2.38
718.563	0.38
719.315	2.38
720.068	3.38
720.82	2.38
721.573	0.38
722.325	4.38
723.077	0.38
723.829	1.38
724.581	2.38
725.333	2.38
726.085	2.38
726.836	1.38
727.588	2.38
728.34	3.38
729.091	2.38
729.843	2.38
730.594	0.38
731.346	1.38
732.097	4.38
732.848	4.38
733.599	1.38
734.35	1.38
735.101	-0.62
735.852	2.38
736.603	2.38
737.354	2.38
738.104	1.38
738.855	3.38
739.605	2.38
740.356	2.38
741.106	1.38
741.856	4.38
742.607	1.38
743.357	3.38
744.107	1.38
744.857	3.38
745.607	4.38
746.357	3.38
747.106	0.38
747.856	1.38
748.606	1.38
749.355	2.38
750.105	2.38
750.854	4.38
751.603	2.38
752.353	3.38
753.102	2.38
753.851	3.38
754.6	2.38
755.349	0.38
756.098	3.38
756.847	2.38
757.595	3.38
758.344	2.38
759.093	0.38
759.841	4.38
760.589	1.38
761.338	5.38
762.086	1.38
762.834	0.38
763.582	4.38
764.331	3.38
765.079	3.38
765.826	3.38
766.574	3.38
767.322	3.38
768.07	3.38
768.817	3.38
769.565	2.38
770.312	4.38
771.06	2.38
771.807	4.38
772.554	3.38
773.302	2.38
774.049	3.38
774.796	3.38
775.543	3.38
776.29	4.38
777.036	4.38
777.783	3.38
778.53	6.38
779.276	2.38
780.023	2.38
780.769	2.38
781.516	3.38
782.262	5.38
783.008	2.38
783.754	6.38
784.5	5.38
785.246	5.38
785.992	4.38
786.738	5.38
787.484	4.38
788.23	3.38
788.975	4.38
789.721	7.38
790.466	5.38
791.212	4.38
791.957	3.38
792.702	3.38
793.447	4.38
794.193	6.38
794.938	4.38
795.683	3.38
796.427	4.38
797.172	4.38
797.917	7.38
798.662	4.38
799.406	7.38
800.151	5.38
800.895	0.38
801.64	4.38
802.384	3.38
803.128	4.38
803.872	3.38
804.616	5.38
805.36	3.38
806.104	2.38
806.848	4.38
807.592	3.38
808.336	4.38
809.079	4.38
809.823	3.38
810.566	5.38
811.31	4.38
812.053	1.38
812.796	3.38
813.539	4.38
814.283	2.38
815.026	2.38
815.769	1.38
816.511	4.38
817.254	5.38
817.997	2.38
818.74	0.38
819.482	3.38
820.225	2.38
820.967	3.38
821.71	5.38
822.452	1.38
823.194	1.38
823.936	4.38
824.678	1.38
825.42	4.38
826.162	2.38
826.904	1.38
827.646	2.38
828.388	3.38
829.129	3.38
829.871	5.38
830.612	1.38
831.354	1.38
832.095	3.38
832.836	2.38
833.577	1.38
834.319	3.38
835.06	2.38
835.801	3.38
836.542	1.38
837.282	0.38
838.023	3.38
838.764	4.38
839.504	2.38
840.245	3.38
840.985	1.38
841.726	2.38
842.466	1.38
843.206	2.38
843.946	1.38
844.687	2.38
845.427	2.38
846.166	1.38
846.906	2.38
847.646	3.38
848.386	3.38
849.125	1.38
849.865	4.38
850.605	1.38
851.344	1.38
852.083	2.38
852.823	2.38
853.562	4.38
854.301	0.38
855.04	2.38
855.779	2.38
856.518	1.38
857.257	0.38
857.995	0.38
858.734	2.38
859.473	-0.62
860.211	2.38
860.95	4.38
861.688	1.38
862.426	0.38
863.165	0.38
863.903	2.38
864.641	-1.62
865.379	3.38
866.117	2.38
866.855	-0.62
867.593	1.38
868.33	1.38
869.068	2.38
869.806	2.38
870.543	-1.62
871.28	0.38
872.018	1.38
872.755	1.38
873.492	-0.62
874.229	0.38
874.967	0.38
875.703	0.38
876.44	2.38
877.177	0.38
877.914	1.38
878.651	1.38
879.387	2.38
880.124	1.38
880.86	1.38
881.597	1.38
882.333	0.38
883.069	3.38
883.806	-1.62
884.542	0.38
885.278	3.38
886.014	0.38
886.749	0.38
887.485	1.38
888.221	-0.62
888.957	-0.62
889.692	0.38
890.428	-0.62
891.163	2.38
891.899	1.38
892.634	1.38
893.369	2.38
894.104	-1.62
894.839	2.38
895.574	2.38
896.309	-0.62
897.044	2.38
897.779	0.38
898.514	0.38
899.248	0.38
899.983	1.38
900.717	-0.62
901.452	0.38
902.186	0.38
902.92	0.38
903.654	0.38
904.389	-0.62
905.123	-0.62
905.857	-1.62
906.59	3.38
907.324	-1.62
908.058	2.38
908.792	-0.62
909.525	-0.62
910.259	0.38
910.992	1.38
911.726	1.38
912.459	1.38
913.192	-0.62
913.925	0.38
914.658	-0.62
915.391	0.38
916.124	0.38
916.857	-1.62
917.59	-0.62
918.323	0.38
919.055	2.38
919.788	-0.62
920.521	2.38
921.253	0.38
921.985	0.38
922.718	2.38
923.45	0.38
924.182	-0.62
924.914	-1.62
925.646	1.38
926.378	-0.62
927.11	1.38
927.841	-0.62
928.573	2.38
929.305	0.38
930.036	-0.62
930.768	0.38
931.499	-0.62
932.23	0.38
932.962	0.38
933.693	-1.62
934.424	1.38
935.155	-1.62
935.886	3.38
936.617	-0.62
937.348	2.38
938.078	1.38
938.809	-1.62
939.54	0.38
940.27	-0.62
941.001	-0.62
941.731	1.38
942.461	1.38
943.191	-1.62
943.922	-0.62
944.652	2.38
945.382	-1.62
946.112	-1.62
946.841	-0.62
947.571	-0.62
948.301	1.38
949.031	1.38
949.76	1.38
950.49	0.38
951.219	0.38
951.948	-0.62
952.678	1.38
953.407	0.38
954.136	-1.62
954.865	0.38
955.594	-1.62
956.323	3.38
957.052	0.38
957.78	0.38
958.509	0.38
959.238	-0.62
959.966	0.38
960.695	-1.62
961.423	0.38
962.151	0.38
962.88	-1.62
963.608	-0.62
964.336	0.38
965.064	-0.62
965.792	-1.62
966.52	0.38
967.247	-2.62
967.975	1.38
968.703	-1.62
969.43	-0.62
970.158	0.38
970.885	-0.62
971.613	1.38
972.34	-1.62
973.067	-0.62
973.794	-0.62
974.521	0.38
975.248	-0.62
975.975	1.38
976.702	1.38
977.429	-1.62
978.156	1.38
978.882	0.38
979.609	1.38
980.335	1.38
981.062	-1.62
981.788	0.38
982.514	2.38
983.24	0.38
983.967	1.38
984.693	-0.62
985.419	0.38
986.144	2.38
986.87	-1.62
987.596	1.38
988.322	-0.62
989.047	0.38
989.773	-1.62
990.498	-0.62
991.224	-1.62
991.949	0.38
992.674	-1.62
993.399	-1.62
994.124	1.38
994.849	-0.62
995.574	1.38
996.299	1.38
997.024	-1.62
997.749	0.38
998.473	-1.62
999.198	-0.62
999.922	-1.62
1000.647	-1.62
1001.371	5.38
1002.095	-0.62
1002.82	-1.62
1003.544	-1.62
1004.268	-0.62
1004.992	1.38
1005.716	-0.62
1006.439	1.38
1007.163	-0.62
1007.887	0.38
1008.611	-1.62
1009.334	1.38
1010.058	-0.62
1010.781	0.38
1011.504	-0.62
1012.228	-0.62
1012.951	0.38
1013.674	1.38
1014.397	-1.62
1015.12	-1.62
