节点500_145_QEPB04081__624__11-38-53-262.txt的数据

Date: Wed Nov 12 11:38:53 CST 2025
User: PC
Spectrometer: QEPB0408
触发模式: 0
积分时间 (秒): 1.000000E-2
Scans to average: 1
启用暗噪声校正: true
启用非线性校正: false
滑动平均宽度: 0
X轴模式: Wavelengths
Number of Pixels in Spectrum: 1044
>>>>>Begin Spectral Data<<<<<
220.843	1
221.644	-2
222.444	0
223.244	-2
224.045	-1
224.845	1
225.645	-2
226.445	0
227.245	-2
228.045	1
228.845	-2
229.645	2
230.444	0
231.244	-3
232.043	-1
232.843	1
233.642	1
234.442	2
235.241	-2
236.04	0
236.839	1
237.638	2
238.437	0
239.236	2
240.035	2
240.833	1
241.632	2
242.43	1
243.229	-1
244.027	2
244.826	1
245.624	3
246.422	1
247.22	1
248.018	1
248.816	2
249.614	-1
250.412	1
251.21	0
252.007	2
252.805	3
253.602	2
254.4	3
255.197	2
255.994	3
256.791	4
257.589	2
258.386	5
259.183	4
259.979	2
260.776	5
261.573	2
262.37	5
263.166	4
263.963	4
264.759	2
265.556	5
266.352	6
267.148	4
267.944	7
268.74	6
269.536	6
270.332	6
271.128	5
271.924	6
272.719	8
273.515	6
274.311	6
275.106	6
275.901	10
276.697	7
277.492	7
278.287	6
279.082	7
279.877	7
280.672	10
281.467	6
282.262	9
283.056	10
283.851	8
284.646	8
285.44	8
286.234	8
287.029	11
287.823	9
288.617	7
289.411	8
290.205	11
290.999	10
291.793	10
292.587	10
293.381	7
294.174	10
294.968	10
295.761	6
296.555	8
297.348	8
298.141	11
298.935	8
299.728	7
300.521	6
301.314	8
302.107	10
302.899	7
303.692	8
304.485	8
305.277	10
306.07	7
306.862	8
307.655	6
308.447	8
309.239	8
310.031	7
310.823	4
311.615	5
312.407	7
313.199	8
313.991	5
314.783	5
315.574	6
316.366	8
317.157	4
317.949	7
318.74	6
319.531	5
320.322	6
321.113	5
321.904	4
322.695	4
323.486	4
324.277	5
325.068	3
325.858	5
326.649	4
327.439	5
328.23	3
329.02	3
329.81	3
330.6	3
331.391	2
332.181	1
332.971	5
333.76	2
334.55	3
335.34	4
336.13	3
336.919	2
337.709	2
338.498	4
339.287	3
340.077	2
340.866	3
341.655	1
342.444	5
343.233	0
344.022	3
344.811	1
345.6	3
346.388	5
347.177	2
347.965	5
348.754	2
349.542	5
350.33	5
351.119	2
351.907	2
352.695	3
353.483	4
354.271	1
355.059	2
355.846	2
356.634	3
357.422	2
358.209	1
358.997	4
359.784	3
360.571	4
361.359	1
362.146	3
362.933	3
363.72	1
364.507	1
365.294	2
366.081	0
366.867	3
367.654	2
368.44	2
369.227	2
370.013	5
370.8	3
371.586	5
372.372	2
373.158	2
373.944	3
374.73	1
375.516	3
376.302	2
377.088	3
377.873	1
378.659	1
379.445	3
380.23	0
381.015	4
381.801	3
382.586	3
383.371	2
384.156	2
384.941	0
385.726	1
386.511	1
387.296	3
388.08	4
388.865	2
389.649	2
390.434	2
391.218	1
392.003	3
392.787	3
393.571	2
394.355	3
395.139	3
395.923	2
396.707	2
397.491	3
398.274	4
399.058	3
399.842	3
400.625	4
401.408	4
402.192	1
402.975	3
403.758	4
404.541	5
405.324	5
406.107	2
406.89	4
407.673	5
408.456	4
409.238	4
410.021	2
410.803	4
411.586	2
412.368	3
413.151	4
413.933	3
414.715	3
415.497	2
416.279	4
417.061	6
417.843	5
418.624	4
419.406	5
420.188	3
420.969	4
421.751	7
422.532	3
423.313	7
424.095	6
424.876	7
425.657	5
426.438	5
427.219	5
428	6
428.78	6
429.561	6
430.342	5
431.122	9
431.903	6
432.683	9
433.464	10
434.244	6
435.024	9
435.804	10
436.584	11
437.364	8
438.144	10
438.924	9
439.704	10
440.483	9
441.263	14
442.042	10
442.822	13
443.601	13
444.38	11
445.16	17
445.939	16
446.718	16
447.497	18
448.276	21
449.054	23
449.833	23
450.612	24
451.391	30
452.169	31
452.948	35
453.726	38
454.504	40
455.282	46
456.061	48
456.839	54
457.617	65
458.395	70
459.172	75
459.95	80
460.728	92
461.506	100
462.283	113
463.061	121
463.838	138
464.615	159
465.393	176
466.17	195
466.947	214
467.724	238
468.501	263
469.278	295
470.055	320
470.831	355
471.608	394
472.385	444
473.161	487
473.938	529
474.714	593
475.49	645
476.266	730
477.043	787
477.819	883
478.595	963
479.371	1042
480.146	1168
480.922	1284
481.698	1372
482.473	1521
483.249	1685
484.024	1833
484.8	1998
485.575	2183
486.35	2392
487.126	2621
487.901	2869
488.676	3139
489.451	3410
490.225	3700
491	4052
491.775	4439
492.55	4865
493.324	5286
494.099	5731
494.873	6204
495.647	6780
496.422	7308
497.196	7865
497.97	8460
498.744	9124
499.518	9738
500.292	10418
501.066	11042
501.839	11680
502.613	12242
503.387	12846
504.16	13436
504.934	13911
505.707	14327
506.48	14640
507.253	14885
508.027	15092
508.8	15168
509.573	15210
510.346	15102
511.118	14958
511.891	14609
512.664	14329
513.437	13907
514.209	13507
514.982	13078
515.754	12648
516.526	12172
517.298	11665
518.071	11203
518.843	10701
519.615	10215
520.387	9854
521.159	9394
521.93	9090
522.702	8692
523.474	8358
524.245	8051
525.017	7719
525.788	7408
526.56	7087
527.331	6832
528.102	6554
528.873	6298
529.644	6006
530.415	5754
531.186	5525
531.957	5244
532.728	4975
533.498	4707
534.269	4493
535.039	4247
535.81	4046
536.58	3826
537.351	3617
538.121	3434
538.891	3231
539.661	3062
540.431	2904
541.201	2726
541.971	2582
542.741	2456
543.51	2312
544.28	2194
545.05	2093
545.819	1978
546.588	1889
547.358	1825
548.127	1724
548.896	1642
549.665	1532
550.434	1469
551.203	1397
551.972	1329
552.741	1253
553.51	1181
554.278	1138
555.047	1069
555.815	1012
556.584	944
557.352	889
558.121	840
558.889	800
559.657	762
560.425	708
561.193	671
561.961	645
562.729	606
563.496	564
564.264	534
565.032	514
565.799	478
566.567	449
567.334	425
568.101	398
568.869	377
569.636	357
570.403	335
571.17	318
571.937	295
572.704	289
573.471	267
574.237	249
575.004	236
575.771	222
576.537	207
577.303	193
578.07	185
578.836	178
579.602	167
580.368	150
581.134	145
581.9	141
582.666	133
583.432	123
584.198	119
584.964	113
585.729	108
586.495	104
587.26	92
588.025	88
588.791	86
589.556	81
590.321	77
591.086	70
591.851	73
592.616	68
593.381	63
594.146	59
594.911	53
595.675	52
596.44	45
597.204	47
597.969	47
598.733	44
599.497	39
600.261	38
601.025	36
601.79	35
602.553	34
603.317	31
604.081	32
604.845	32
605.609	30
606.372	29
607.136	25
607.899	21
608.662	25
609.426	22
610.189	25
610.952	19
611.715	22
612.478	18
613.241	18
614.004	18
614.767	16
615.529	19
616.292	14
617.055	19
617.817	13
618.579	13
619.342	11
620.104	14
620.866	11
621.628	12
622.39	12
623.152	11
623.914	11
624.676	10
625.438	10
626.199	9
626.961	10
627.722	8
628.484	9
629.245	7
630.006	8
630.768	7
631.529	8
632.29	8
633.051	7
633.812	7
634.573	6
635.333	5
636.094	4
636.855	5
637.615	6
638.376	3
639.136	6
639.896	4
640.657	4
641.417	4
642.177	7
642.937	4
643.697	5
644.457	6
645.216	4
645.976	7
646.736	4
647.495	5
648.255	5
649.014	2
649.774	3
650.533	3
651.292	4
652.051	2
652.81	3
653.569	2
654.328	3
655.087	4
655.846	5
656.604	3
657.363	3
658.121	2
658.88	3
659.638	3
660.397	4
661.155	1
661.913	4
662.671	4
663.429	5
664.187	0
664.945	2
665.703	1
666.46	2
667.218	2
667.976	1
668.733	2
669.49	3
670.248	4
671.005	3
671.762	2
672.519	0
673.276	1
674.033	2
674.79	2
675.547	2
676.304	2
677.06	2
677.817	1
678.574	3
679.33	1
680.086	2
680.843	1
681.599	1
682.355	4
683.111	2
683.867	1
684.623	3
685.379	-1
686.135	3
686.89	2
687.646	2
688.402	3
689.157	3
689.912	2
690.668	4
691.423	2
692.178	0
692.933	2
693.688	3
694.443	1
695.198	0
695.953	1
696.708	1
697.462	3
698.217	2
698.972	1
699.726	0
700.48	2
701.235	2
701.989	0
702.743	3
703.497	0
704.251	2
705.005	3
705.759	0
706.513	3
707.266	1
708.02	1
708.774	1
709.527	1
710.28	0
711.034	4
711.787	4
712.54	0
713.293	4
714.046	3
714.799	3
715.552	2
716.305	1
717.058	1
717.81	0
718.563	2
719.315	1
720.068	2
720.82	1
721.573	3
722.325	5
723.077	2
723.829	2
724.581	1
725.333	2
726.085	2
726.836	1
727.588	2
728.34	1
729.091	4
729.843	1
730.594	2
731.346	3
732.097	1
732.848	2
733.599	2
734.35	2
735.101	3
735.852	3
736.603	1
737.354	4
738.104	1
738.855	0
739.605	3
740.356	1
741.106	2
741.856	5
742.607	1
743.357	2
744.107	2
744.857	5
745.607	1
746.357	2
747.106	2
747.856	2
748.606	3
749.355	1
750.105	2
750.854	2
751.603	0
752.353	3
753.102	2
753.851	1
754.6	-1
755.349	4
756.098	2
756.847	4
757.595	2
758.344	2
759.093	2
759.841	3
760.589	3
761.338	5
762.086	2
762.834	4
763.582	2
764.331	4
765.079	1
765.826	4
766.574	2
767.322	3
768.07	4
768.817	3
769.565	6
770.312	2
771.06	4
771.807	4
772.554	3
773.302	5
774.049	5
774.796	5
775.543	2
776.29	2
777.036	2
777.783	6
778.53	-1
779.276	3
780.023	4
780.769	5
781.516	4
782.262	6
783.008	5
783.754	7
784.5	2
785.246	2
785.992	5
786.738	2
787.484	3
788.23	7
788.975	4
789.721	5
790.466	7
791.212	5
791.957	5
792.702	4
793.447	5
794.193	4
794.938	3
795.683	5
796.427	2
797.172	5
797.917	5
798.662	4
799.406	6
800.151	3
800.895	6
801.64	4
802.384	6
803.128	3
803.872	3
804.616	3
805.36	2
806.104	2
806.848	2
807.592	5
808.336	4
809.079	1
809.823	2
810.566	2
811.31	4
812.053	5
812.796	5
813.539	3
814.283	1
815.026	5
815.769	2
816.511	4
817.254	3
817.997	2
818.74	3
819.482	0
820.225	2
820.967	3
821.71	4
822.452	2
823.194	1
823.936	2
824.678	3
825.42	4
826.162	1
826.904	3
827.646	3
828.388	5
829.129	3
829.871	2
830.612	0
831.354	2
832.095	1
832.836	0
833.577	2
834.319	3
835.06	0
835.801	2
836.542	2
837.282	3
838.023	4
838.764	2
839.504	4
840.245	4
840.985	3
841.726	2
842.466	2
843.206	1
843.946	2
844.687	1
845.427	2
846.166	0
846.906	3
847.646	2
848.386	2
849.125	2
849.865	2
850.605	3
851.344	2
852.083	0
852.823	0
853.562	2
854.301	2
855.04	2
855.779	2
856.518	1
857.257	1
857.995	0
858.734	1
859.473	2
860.211	2
860.95	-3
861.688	2
862.426	1
863.165	1
863.903	2
864.641	1
865.379	1
866.117	0
866.855	4
867.593	1
868.33	2
869.068	2
869.806	1
870.543	0
871.28	-1
872.018	2
872.755	1
873.492	0
874.229	1
874.967	-1
875.703	0
876.44	1
877.177	2
877.914	2
878.651	0
879.387	0
880.124	-1
880.86	0
881.597	1
882.333	-1
883.069	3
883.806	1
884.542	1
885.278	-2
886.014	3
886.749	1
887.485	2
888.221	0
888.957	2
889.692	-1
890.428	-2
891.163	1
891.899	-1
892.634	2
893.369	1
894.104	-1
894.839	0
895.574	1
896.309	2
897.044	0
897.779	1
898.514	1
899.248	2
899.983	2
900.717	0
901.452	-1
902.186	0
902.92	1
903.654	2
904.389	1
905.123	0
905.857	-1
906.59	1
907.324	1
908.058	1
908.792	0
909.525	0
910.259	1
910.992	0
911.726	2
912.459	0
913.192	-4
913.925	1
914.658	0
915.391	1
916.124	-2
916.857	0
917.59	-2
918.323	-2
919.055	0
919.788	2
920.521	1
921.253	1
921.985	1
922.718	-1
923.45	1
924.182	-2
924.914	1
925.646	2
926.378	-1
927.11	1
927.841	0
928.573	2
929.305	0
930.036	0
930.768	2
931.499	-2
932.23	-1
932.962	-1
933.693	-1
934.424	0
935.155	0
935.886	0
936.617	0
937.348	1
938.078	1
938.809	-2
939.54	2
940.27	-2
941.001	0
941.731	-1
942.461	-2
943.191	1
943.922	-1
944.652	0
945.382	-1
946.112	0
946.841	-1
947.571	-1
948.301	-1
949.031	-1
949.76	-1
950.49	1
951.219	1
951.948	0
952.678	-3
953.407	1
954.136	1
954.865	0
955.594	1
956.323	2
957.052	0
957.78	0
958.509	0
959.238	-2
959.966	0
960.695	0
961.423	2
962.151	0
962.88	-1
963.608	0
964.336	0
965.064	2
965.792	-1
966.52	1
967.247	2
967.975	0
968.703	-2
969.43	0
970.158	-2
970.885	0
971.613	-2
972.34	-1
973.067	0
973.794	0
974.521	-1
975.248	0
975.975	-2
976.702	1
977.429	1
978.156	-2
978.882	1
979.609	0
980.335	1
981.062	-2
981.788	-2
982.514	-2
983.24	-2
983.967	1
984.693	-2
985.419	1
986.144	0
986.87	2
987.596	0
988.322	0
989.047	0
989.773	-2
990.498	1
991.224	-1
991.949	0
992.674	-2
993.399	1
994.124	-1
994.849	-1
995.574	0
996.299	-3
997.024	1
997.749	1
998.473	0
999.198	1
999.922	-1
1000.647	-1
1001.371	3
1002.095	-1
1002.82	-1
1003.544	1
1004.268	0
1004.992	-2
1005.716	-2
1006.439	-3
1007.163	0
1007.887	-2
1008.611	2
1009.334	1
1010.058	2
1010.781	-1
1011.504	1
1012.228	-1
1012.951	0
1013.674	0
1014.397	0
1015.12	-2
