节点500_145_QEPB04081__6__11-29-02-797.txt的数据

Date: Wed Nov 12 11:29:02 CST 2025
User: PC
Spectrometer: QEPB0408
触发模式: 0
积分时间 (秒): 1.000000E-2
Scans to average: 1
启用暗噪声校正: true
启用非线性校正: false
滑动平均宽度: 0
X轴模式: Wavelengths
Number of Pixels in Spectrum: 1044
>>>>>Begin Spectral Data<<<<<
220.843	-1.12
221.644	-2.12
222.444	-1.12
223.244	-2.12
224.045	-2.12
224.845	-2.12
225.645	-2.12
226.445	-3.12
227.245	-3.12
228.045	-1.12
228.845	-3.12
229.645	-3.12
230.444	-2.12
231.244	-2.12
232.043	-0.12
232.843	-4.12
233.642	-3.12
234.442	-3.12
235.241	-1.12
236.04	-1.12
236.839	-2.12
237.638	-2.12
238.437	-2.12
239.236	-2.12
240.035	-2.12
240.833	-3.12
241.632	-4.12
242.43	-2.12
243.229	-0.12
244.027	-2.12
244.826	-0.12
245.624	-2.12
246.422	-2.12
247.22	-2.12
248.018	-2.12
248.816	-1.12
249.614	-3.12
250.412	-2.12
251.21	-2.12
252.007	-2.12
252.805	-2.12
253.602	-3.12
254.4	-3.12
255.197	0.88
255.994	-2.12
256.791	-2.12
257.589	0.88
258.386	-0.12
259.183	-0.12
259.979	-2.12
260.776	-3.12
261.573	-0.12
262.37	-2.12
263.166	-0.12
263.963	-0.12
264.759	-3.12
265.556	-0.12
266.352	-2.12
267.148	-1.12
267.944	-1.12
268.74	-2.12
269.536	-2.12
270.332	-0.12
271.128	-2.12
271.924	-0.12
272.719	-1.12
273.515	-0.12
274.311	-2.12
275.106	-0.12
275.901	-2.12
276.697	-0.12
277.492	-2.12
278.287	-1.12
279.082	-2.12
279.877	-3.12
280.672	0.88
281.467	-3.12
282.262	-0.12
283.056	-1.12
283.851	1.88
284.646	-1.12
285.44	-2.12
286.234	0.88
287.029	-1.12
287.823	-1.12
288.617	-0.12
289.411	-1.12
290.205	0.88
290.999	-2.12
291.793	-2.12
292.587	-1.12
293.381	-1.12
294.174	-2.12
294.968	-2.12
295.761	-0.12
296.555	-3.12
297.348	0.88
298.141	-0.12
298.935	-0.12
299.728	-2.12
300.521	-1.12
301.314	-2.12
302.107	-0.12
302.899	-3.12
303.692	-1.12
304.485	-1.12
305.277	-1.12
306.07	0.88
306.862	0.88
307.655	0.88
308.447	-0.12
309.239	-0.12
310.031	-1.12
310.823	-2.12
311.615	-2.12
312.407	0.88
313.199	-0.12
313.991	1.88
314.783	-2.12
315.574	-0.12
316.366	-0.12
317.157	-2.12
317.949	0.88
318.74	-3.12
319.531	-3.12
320.322	-1.12
321.113	-3.12
321.904	-0.12
322.695	-2.12
323.486	-1.12
324.277	-0.12
325.068	0.88
325.858	-0.12
326.649	-2.12
327.439	-1.12
328.23	-2.12
329.02	-1.12
329.81	-1.12
330.6	0.88
331.391	-0.12
332.181	-1.12
332.971	-1.12
333.76	0.88
334.55	-0.12
335.34	-2.12
336.13	-1.12
336.919	0.88
337.709	-0.12
338.498	0.88
339.287	-0.12
340.077	-0.12
340.866	0.88
341.655	1.88
342.444	-1.12
343.233	-0.12
344.022	0.88
344.811	-2.12
345.6	1.88
346.388	-0.12
347.177	-0.12
347.965	-0.12
348.754	0.88
349.542	-0.12
350.33	-3.12
351.119	0.88
351.907	-1.12
352.695	-0.12
353.483	0.88
354.271	-1.12
355.059	-0.12
355.846	-3.12
356.634	0.88
357.422	-1.12
358.209	-2.12
358.997	2.88
359.784	-2.12
360.571	-2.12
361.359	0.88
362.146	-2.12
362.933	-0.12
363.72	-1.12
364.507	-0.12
365.294	-2.12
366.081	-0.12
366.867	-0.12
367.654	0.88
368.44	0.88
369.227	-0.12
370.013	0.88
370.8	-2.12
371.586	-0.12
372.372	-0.12
373.158	-1.12
373.944	-2.12
374.73	-2.12
375.516	-0.12
376.302	-1.12
377.088	0.88
377.873	-1.12
378.659	-1.12
379.445	2.88
380.23	-2.12
381.015	-0.12
381.801	2.88
382.586	-2.12
383.371	-2.12
384.156	-0.12
384.941	-0.12
385.726	-0.12
386.511	-0.12
387.296	-2.12
388.08	-0.12
388.865	-0.12
389.649	-1.12
390.434	-2.12
391.218	-1.12
392.003	-2.12
392.787	-1.12
393.571	0.88
394.355	-2.12
395.139	-0.12
395.923	-2.12
396.707	-2.12
397.491	-1.12
398.274	-0.12
399.058	-1.12
399.842	-1.12
400.625	-0.12
401.408	-1.12
402.192	-1.12
402.975	1.88
403.758	-0.12
404.541	-0.12
405.324	1.88
406.107	-1.12
406.89	0.88
407.673	0.88
408.456	1.88
409.238	-0.12
410.021	-2.12
410.803	-0.12
411.586	-1.12
412.368	-2.12
413.151	-1.12
413.933	-1.12
414.715	-0.12
415.497	-3.12
416.279	-1.12
417.061	0.88
417.843	-0.12
418.624	-0.12
419.406	-3.12
420.188	-1.12
420.969	0.88
421.751	1.88
422.532	-1.12
423.313	1.88
424.095	-1.12
424.876	-2.12
425.657	-0.12
426.438	-0.12
427.219	-0.12
428	-0.12
428.78	-0.12
429.561	0.88
430.342	-2.12
431.122	1.88
431.903	-2.12
432.683	-0.12
433.464	-1.12
434.244	-0.12
435.024	-0.12
435.804	-2.12
436.584	-1.12
437.364	-3.12
438.144	-0.12
438.924	-1.12
439.704	-0.12
440.483	-1.12
441.263	-0.12
442.042	0.88
442.822	-1.12
443.601	-0.12
444.38	-0.12
445.16	-2.12
445.939	-1.12
446.718	-1.12
447.497	-1.12
448.276	-0.12
449.054	-2.12
449.833	-0.12
450.612	-2.12
451.391	-2.12
452.169	-2.12
452.948	-2.12
453.726	-2.12
454.504	-1.12
455.282	-0.12
456.061	-1.12
456.839	-0.12
457.617	-1.12
458.395	0.88
459.172	0.88
459.95	-2.12
460.728	-1.12
461.506	-0.12
462.283	-2.12
463.061	-0.12
463.838	0.88
464.615	0.88
465.393	0.88
466.17	1.88
466.947	-0.12
467.724	-0.12
468.501	-0.12
469.278	-2.12
470.055	0.88
470.831	0.88
471.608	0.88
472.385	0.88
473.161	-0.12
473.938	-0.12
474.714	-1.12
475.49	0.88
476.266	-0.12
477.043	1.88
477.819	-0.12
478.595	-1.12
479.371	-0.12
480.146	-0.12
480.922	-1.12
481.698	-1.12
482.473	-0.12
483.249	-1.12
484.024	-1.12
484.8	-2.12
485.575	-0.12
486.35	-0.12
487.126	-2.12
487.901	-2.12
488.676	0.88
489.451	0.88
490.225	-0.12
491	-2.12
491.775	-0.12
492.55	-0.12
493.324	-1.12
494.099	-3.12
494.873	-1.12
495.647	0.88
496.422	-0.12
497.196	-1.12
497.97	-1.12
498.744	1.88
499.518	-2.12
500.292	0.88
501.066	0.88
501.839	-0.12
502.613	-0.12
503.387	-2.12
504.16	-0.12
504.934	-0.12
505.707	-0.12
506.48	-1.12
507.253	-1.12
508.027	-0.12
508.8	-1.12
509.573	-1.12
510.346	-1.12
511.118	0.88
511.891	-0.12
512.664	-1.12
513.437	0.88
514.209	-0.12
514.982	-1.12
515.754	0.88
516.526	-2.12
517.298	-0.12
518.071	-1.12
518.843	-2.12
519.615	0.88
520.387	-2.12
521.159	-1.12
521.93	-2.12
522.702	-1.12
523.474	-2.12
524.245	0.88
525.017	-0.12
525.788	1.88
526.56	-0.12
527.331	-2.12
528.102	-2.12
528.873	-0.12
529.644	0.88
530.415	-0.12
531.186	1.88
531.957	-1.12
532.728	-1.12
533.498	-0.12
534.269	-0.12
535.039	0.88
535.81	-1.12
536.58	-1.12
537.351	-1.12
538.121	-1.12
538.891	-1.12
539.661	0.88
540.431	1.88
541.201	-1.12
541.971	0.88
542.741	-1.12
543.51	-2.12
544.28	-0.12
545.05	1.88
545.819	0.88
546.588	0.88
547.358	-2.12
548.127	-0.12
548.896	-1.12
549.665	-1.12
550.434	-2.12
551.203	-0.12
551.972	-3.12
552.741	-1.12
553.51	-2.12
554.278	-0.12
555.047	0.88
555.815	-0.12
556.584	-1.12
557.352	0.88
558.121	-2.12
558.889	0.88
559.657	0.88
560.425	-0.12
561.193	0.88
561.961	-1.12
562.729	-0.12
563.496	-0.12
564.264	0.88
565.032	-1.12
565.799	0.88
566.567	-0.12
567.334	-1.12
568.101	-2.12
568.869	0.88
569.636	-0.12
570.403	-0.12
571.17	-0.12
571.937	0.88
572.704	1.88
573.471	-2.12
574.237	-0.12
575.004	1.88
575.771	0.88
576.537	0.88
577.303	-0.12
578.07	-0.12
578.836	0.88
579.602	-2.12
580.368	0.88
581.134	-2.12
581.9	0.88
582.666	-1.12
583.432	-2.12
584.198	0.88
584.964	-1.12
585.729	-0.12
586.495	0.88
587.26	0.88
588.025	1.88
588.791	0.88
589.556	-0.12
590.321	-0.12
591.086	-0.12
591.851	1.88
592.616	-1.12
593.381	-1.12
594.146	-1.12
594.911	-1.12
595.675	-0.12
596.44	-0.12
597.204	0.88
597.969	-0.12
598.733	0.88
599.497	-3.12
600.261	0.88
601.025	-1.12
601.79	-1.12
602.553	0.88
603.317	-1.12
604.081	-2.12
604.845	0.88
605.609	-2.12
606.372	-0.12
607.136	-0.12
607.899	2.88
608.662	-0.12
609.426	-0.12
610.189	-1.12
610.952	1.88
611.715	-0.12
612.478	-1.12
613.241	-0.12
614.004	-2.12
614.767	0.88
615.529	0.88
616.292	-1.12
617.055	-2.12
617.817	-0.12
618.579	-1.12
619.342	-0.12
620.104	-0.12
620.866	-2.12
621.628	1.88
622.39	-2.12
623.152	0.88
623.914	0.88
624.676	-2.12
625.438	-2.12
626.199	-1.12
626.961	0.88
627.722	-0.12
628.484	-1.12
629.245	0.88
630.006	-2.12
630.768	1.88
631.529	-2.12
632.29	0.88
633.051	-2.12
633.812	-1.12
634.573	-0.12
635.333	0.88
636.094	-1.12
636.855	-1.12
637.615	-2.12
638.376	1.88
639.136	-2.12
639.896	0.88
640.657	0.88
641.417	-0.12
642.177	-0.12
642.937	-1.12
643.697	-2.12
644.457	-0.12
645.216	-0.12
645.976	0.88
646.736	-0.12
647.495	0.88
648.255	-0.12
649.014	-1.12
649.774	-1.12
650.533	0.88
651.292	-2.12
652.051	-0.12
652.81	-1.12
653.569	-2.12
654.328	-1.12
655.087	-2.12
655.846	-0.12
656.604	-0.12
657.363	-0.12
658.121	1.88
658.88	-2.12
659.638	-0.12
660.397	-3.12
661.155	0.88
661.913	0.88
662.671	-1.12
663.429	-0.12
664.187	-0.12
664.945	1.88
665.703	-0.12
666.46	0.88
667.218	-0.12
667.976	-0.12
668.733	1.88
669.49	-0.12
670.248	-0.12
671.005	0.88
671.762	-0.12
672.519	0.88
673.276	0.88
674.033	-1.12
674.79	-1.12
675.547	-0.12
676.304	-0.12
677.06	-1.12
677.817	0.88
678.574	0.88
679.33	-1.12
680.086	-1.12
680.843	0.88
681.599	-2.12
682.355	-0.12
683.111	-1.12
683.867	-1.12
684.623	1.88
685.379	-2.12
686.135	0.88
686.89	0.88
687.646	-2.12
688.402	-0.12
689.157	-2.12
689.912	0.88
690.668	-1.12
691.423	0.88
692.178	-0.12
692.933	-1.12
693.688	0.88
694.443	-2.12
695.198	-2.12
695.953	-2.12
696.708	1.88
697.462	0.88
698.217	1.88
698.972	-1.12
699.726	-1.12
700.48	1.88
701.235	-0.12
701.989	1.88
702.743	-2.12
703.497	-0.12
704.251	0.88
705.005	-2.12
705.759	0.88
706.513	1.88
707.266	-0.12
708.02	0.88
708.774	1.88
709.527	0.88
710.28	0.88
711.034	1.88
711.787	0.88
712.54	-1.12
713.293	-0.12
714.046	-2.12
714.799	-0.12
715.552	0.88
716.305	-1.12
717.058	0.88
717.81	2.88
718.563	0.88
719.315	0.88
720.068	-2.12
720.82	-2.12
721.573	-0.12
722.325	-2.12
723.077	0.88
723.829	0.88
724.581	-2.12
725.333	0.88
726.085	-1.12
726.836	-1.12
727.588	-0.12
728.34	-0.12
729.091	-0.12
729.843	-0.12
730.594	1.88
731.346	-2.12
732.097	-2.12
732.848	1.88
733.599	-1.12
734.35	-1.12
735.101	-0.12
735.852	1.88
736.603	-1.12
737.354	-0.12
738.104	0.88
738.855	-2.12
739.605	0.88
740.356	-1.12
741.106	1.88
741.856	-2.12
742.607	1.88
743.357	-0.12
744.107	1.88
744.857	-0.12
745.607	-0.12
746.357	-1.12
747.106	-1.12
747.856	-1.12
748.606	-1.12
749.355	-2.12
750.105	0.88
750.854	-1.12
751.603	-1.12
752.353	1.88
753.102	-2.12
753.851	1.88
754.6	0.88
755.349	1.88
756.098	-1.12
756.847	-0.12
757.595	-0.12
758.344	-1.12
759.093	-1.12
759.841	-1.12
760.589	0.88
761.338	1.88
762.086	-0.12
762.834	-2.12
763.582	-0.12
764.331	-2.12
765.079	-2.12
765.826	-1.12
766.574	0.88
767.322	-0.12
768.07	0.88
768.817	-2.12
769.565	-0.12
770.312	-0.12
771.06	-2.12
771.807	0.88
772.554	0.88
773.302	-2.12
774.049	-0.12
774.796	-1.12
775.543	-0.12
776.29	0.88
777.036	-0.12
777.783	-1.12
778.53	-2.12
779.276	-2.12
780.023	-0.12
780.769	1.88
781.516	-0.12
782.262	-1.12
783.008	-0.12
783.754	-0.12
784.5	-1.12
785.246	1.88
785.992	0.88
786.738	-0.12
787.484	-0.12
788.23	-2.12
788.975	1.88
789.721	-1.12
790.466	-1.12
791.212	-0.12
791.957	-1.12
792.702	-1.12
793.447	-1.12
794.193	0.88
794.938	-0.12
795.683	-1.12
796.427	1.88
797.172	-2.12
797.917	0.88
798.662	2.88
799.406	0.88
800.151	-0.12
800.895	1.88
801.64	-1.12
802.384	-2.12
803.128	-0.12
803.872	-0.12
804.616	-0.12
805.36	-1.12
806.104	-0.12
806.848	-1.12
807.592	-1.12
808.336	-2.12
809.079	-1.12
809.823	-1.12
810.566	0.88
811.31	-0.12
812.053	-0.12
812.796	-1.12
813.539	0.88
814.283	-0.12
815.026	-1.12
815.769	0.88
816.511	-1.12
817.254	-1.12
817.997	-1.12
818.74	-0.12
819.482	0.88
820.225	-2.12
820.967	0.88
821.71	-1.12
822.452	0.88
823.194	-1.12
823.936	-1.12
824.678	-0.12
825.42	-1.12
826.162	-0.12
826.904	-0.12
827.646	-0.12
828.388	0.88
829.129	0.88
829.871	0.88
830.612	0.88
831.354	1.88
832.095	-1.12
832.836	0.88
833.577	-2.12
834.319	-1.12
835.06	1.88
835.801	-2.12
836.542	-2.12
837.282	-0.12
838.023	0.88
838.764	-0.12
839.504	-0.12
840.245	-0.12
840.985	-0.12
841.726	0.88
842.466	0.88
843.206	-1.12
843.946	-0.12
844.687	-0.12
845.427	-0.12
846.166	-1.12
846.906	-0.12
847.646	-2.12
848.386	2.88
849.125	-1.12
849.865	1.88
850.605	-2.12
851.344	-1.12
852.083	-1.12
852.823	-0.12
853.562	-0.12
854.301	-0.12
855.04	0.88
855.779	0.88
856.518	-0.12
857.257	0.88
857.995	-2.12
858.734	0.88
859.473	1.88
860.211	0.88
860.95	-0.12
861.688	-0.12
862.426	1.88
863.165	-0.12
863.903	-0.12
864.641	-0.12
865.379	-1.12
866.117	-1.12
866.855	-2.12
867.593	0.88
868.33	0.88
869.068	0.88
869.806	0.88
870.543	-2.12
871.28	-2.12
872.018	-0.12
872.755	-1.12
873.492	-1.12
874.229	0.88
874.967	-0.12
875.703	-1.12
876.44	-0.12
877.177	-2.12
877.914	0.88
878.651	-2.12
879.387	-0.12
880.124	-2.12
880.86	-2.12
881.597	-1.12
882.333	-3.12
883.069	-1.12
883.806	-1.12
884.542	-1.12
885.278	-0.12
886.014	-2.12
886.749	1.88
887.485	-1.12
888.221	-0.12
888.957	-1.12
889.692	-2.12
890.428	-2.12
891.163	-1.12
891.899	-2.12
892.634	-0.12
893.369	-0.12
894.104	-2.12
894.839	0.88
895.574	-0.12
896.309	-0.12
897.044	1.88
897.779	-3.12
898.514	-1.12
899.248	-0.12
899.983	-0.12
900.717	-0.12
901.452	0.88
902.186	1.88
902.92	1.88
903.654	-0.12
904.389	0.88
905.123	-0.12
905.857	0.88
906.59	-1.12
907.324	-0.12
908.058	1.88
908.792	0.88
909.525	-0.12
910.259	-0.12
910.992	-0.12
911.726	-0.12
912.459	1.88
913.192	-0.12
913.925	-1.12
914.658	1.88
915.391	-0.12
916.124	-0.12
916.857	1.88
917.59	-0.12
918.323	0.88
919.055	-0.12
919.788	-0.12
920.521	-0.12
921.253	0.88
921.985	-0.12
922.718	0.88
923.45	-1.12
924.182	-2.12
924.914	-0.12
925.646	-0.12
926.378	-1.12
927.11	-0.12
927.841	-1.12
928.573	0.88
929.305	-0.12
930.036	-0.12
930.768	-1.12
931.499	0.88
932.23	-0.12
932.962	0.88
933.693	0.88
934.424	-0.12
935.155	-0.12
935.886	-2.12
936.617	-0.12
937.348	-2.12
938.078	-0.12
938.809	-0.12
939.54	-0.12
940.27	0.88
941.001	-1.12
941.731	0.88
942.461	-1.12
943.191	-0.12
943.922	-0.12
944.652	-2.12
945.382	0.88
946.112	1.88
946.841	1.88
947.571	1.88
948.301	0.88
949.031	-2.12
949.76	0.88
950.49	-1.12
951.219	-2.12
951.948	-0.12
952.678	-0.12
953.407	0.88
954.136	0.88
954.865	-2.12
955.594	1.88
956.323	-1.12
957.052	0.88
957.78	-0.12
958.509	-1.12
959.238	-0.12
959.966	-3.12
960.695	1.88
961.423	-2.12
962.151	-2.12
962.88	-1.12
963.608	-2.12
964.336	0.88
965.064	-1.12
965.792	-1.12
966.52	-0.12
967.247	0.88
967.975	0.88
968.703	-1.12
969.43	-0.12
970.158	-0.12
970.885	0.88
971.613	-0.12
972.34	-2.12
973.067	0.88
973.794	-0.12
974.521	0.88
975.248	-1.12
975.975	-0.12
976.702	1.88
977.429	0.88
978.156	-0.12
978.882	-1.12
979.609	-0.12
980.335	-1.12
981.062	0.88
981.788	-2.12
982.514	-0.12
983.24	-0.12
983.967	-2.12
984.693	-0.12
985.419	-0.12
986.144	-0.12
986.87	-0.12
987.596	-0.12
988.322	-0.12
989.047	-0.12
989.773	-2.12
990.498	0.88
991.224	-0.12
991.949	1.88
992.674	-1.12
993.399	1.88
994.124	-0.12
994.849	1.88
995.574	0.88
996.299	-3.12
997.024	0.88
997.749	0.88
998.473	0.88
999.198	-1.12
999.922	1.88
1000.647	0.88
1001.371	3.88
1002.095	-1.12
1002.82	-1.12
1003.544	-2.12
1004.268	-1.12
1004.992	-3.12
1005.716	-3.12
1006.439	-2.12
1007.163	-2.12
1007.887	-4.12
1008.611	-0.12
1009.334	0.88
1010.058	-1.12
1010.781	-0.12
1011.504	-0.12
1012.228	-1.12
1012.951	0.88
1013.674	-0.12
1014.397	-1.12
1015.12	0.88
