节点500_145_QEPB04081__630__11-38-59-202.txt的数据

Date: Wed Nov 12 11:38:59 CST 2025
User: PC
Spectrometer: QEPB0408
触发模式: 0
积分时间 (秒): 1.000000E-2
Scans to average: 1
启用暗噪声校正: true
启用非线性校正: false
滑动平均宽度: 0
X轴模式: Wavelengths
Number of Pixels in Spectrum: 1044
>>>>>Begin Spectral Data<<<<<
220.843	-3.5
221.644	0.5
222.444	-1.5
223.244	-3.5
224.045	-0.5
224.845	0.5
225.645	-1.5
226.445	-1.5
227.245	-0.5
228.045	-0.5
228.845	0.5
229.645	-1.5
230.444	-0.5
231.244	-1.5
232.043	1.5
232.843	-2.5
233.642	1.5
234.442	-0.5
235.241	0.5
236.04	0.5
236.839	-0.5
237.638	1.5
238.437	0.5
239.236	2.5
240.035	0.5
240.833	0.5
241.632	-0.5
242.43	-0.5
243.229	1.5
244.027	-1.5
244.826	3.5
245.624	0.5
246.422	1.5
247.22	1.5
248.018	0.5
248.816	2.5
249.614	1.5
250.412	1.5
251.21	0.5
252.007	1.5
252.805	0.5
253.602	1.5
254.4	2.5
255.197	2.5
255.994	3.5
256.791	2.5
257.589	3.5
258.386	4.5
259.183	1.5
259.979	2.5
260.776	1.5
261.573	3.5
262.37	3.5
263.166	2.5
263.963	3.5
264.759	1.5
265.556	4.5
266.352	3.5
267.148	4.5
267.944	5.5
268.74	6.5
269.536	4.5
270.332	6.5
271.128	7.5
271.924	7.5
272.719	6.5
273.515	7.5
274.311	5.5
275.106	6.5
275.901	7.5
276.697	5.5
277.492	9.5
278.287	6.5
279.082	6.5
279.877	5.5
280.672	7.5
281.467	7.5
282.262	9.5
283.056	9.5
283.851	6.5
284.646	9.5
285.44	8.5
286.234	9.5
287.029	8.5
287.823	7.5
288.617	11.5
289.411	8.5
290.205	8.5
290.999	7.5
291.793	8.5
292.587	6.5
293.381	8.5
294.174	8.5
294.968	5.5
295.761	11.5
296.555	8.5
297.348	7.5
298.141	8.5
298.935	8.5
299.728	8.5
300.521	7.5
301.314	5.5
302.107	8.5
302.899	8.5
303.692	6.5
304.485	2.5
305.277	9.5
306.07	6.5
306.862	6.5
307.655	6.5
308.447	6.5
309.239	10.5
310.031	6.5
310.823	7.5
311.615	6.5
312.407	6.5
313.199	5.5
313.991	5.5
314.783	3.5
315.574	5.5
316.366	6.5
317.157	6.5
317.949	3.5
318.74	4.5
319.531	5.5
320.322	4.5
321.113	2.5
321.904	4.5
322.695	2.5
323.486	1.5
324.277	7.5
325.068	5.5
325.858	4.5
326.649	2.5
327.439	2.5
328.23	4.5
329.02	1.5
329.81	2.5
330.6	1.5
331.391	4.5
332.181	2.5
332.971	3.5
333.76	2.5
334.55	6.5
335.34	0.5
336.13	2.5
336.919	3.5
337.709	4.5
338.498	2.5
339.287	2.5
340.077	0.5
340.866	3.5
341.655	2.5
342.444	2.5
343.233	4.5
344.022	4.5
344.811	2.5
345.6	3.5
346.388	3.5
347.177	1.5
347.965	3.5
348.754	1.5
349.542	1.5
350.33	0.5
351.119	2.5
351.907	3.5
352.695	2.5
353.483	2.5
354.271	0.5
355.059	0.5
355.846	2.5
356.634	2.5
357.422	2.5
358.209	1.5
358.997	3.5
359.784	0.5
360.571	1.5
361.359	3.5
362.146	3.5
362.933	2.5
363.72	1.5
364.507	2.5
365.294	3.5
366.081	4.5
366.867	1.5
367.654	0.5
368.44	4.5
369.227	-1.5
370.013	1.5
370.8	1.5
371.586	1.5
372.372	2.5
373.158	1.5
373.944	3.5
374.73	3.5
375.516	2.5
376.302	0.5
377.088	0.5
377.873	2.5
378.659	1.5
379.445	3.5
380.23	0.5
381.015	3.5
381.801	0.5
382.586	2.5
383.371	0.5
384.156	3.5
384.941	1.5
385.726	0.5
386.511	3.5
387.296	2.5
388.08	0.5
388.865	2.5
389.649	3.5
390.434	3.5
391.218	0.5
392.003	3.5
392.787	-0.5
393.571	0.5
394.355	2.5
395.139	1.5
395.923	-0.5
396.707	1.5
397.491	2.5
398.274	3.5
399.058	3.5
399.842	2.5
400.625	4.5
401.408	3.5
402.192	1.5
402.975	0.5
403.758	2.5
404.541	4.5
405.324	3.5
406.107	3.5
406.89	4.5
407.673	1.5
408.456	2.5
409.238	3.5
410.021	2.5
410.803	4.5
411.586	2.5
412.368	4.5
413.151	4.5
413.933	5.5
414.715	3.5
415.497	2.5
416.279	5.5
417.061	1.5
417.843	4.5
418.624	4.5
419.406	5.5
420.188	3.5
420.969	4.5
421.751	4.5
422.532	2.5
423.313	7.5
424.095	3.5
424.876	7.5
425.657	5.5
426.438	5.5
427.219	3.5
428	6.5
428.78	6.5
429.561	4.5
430.342	5.5
431.122	6.5
431.903	7.5
432.683	7.5
433.464	4.5
434.244	7.5
435.024	7.5
435.804	9.5
436.584	8.5
437.364	9.5
438.144	11.5
438.924	12.5
439.704	11.5
440.483	9.5
441.263	12.5
442.042	11.5
442.822	11.5
443.601	13.5
444.38	15.5
445.16	16.5
445.939	11.5
446.718	17.5
447.497	15.5
448.276	20.5
449.054	21.5
449.833	23.5
450.612	25.5
451.391	29.5
452.169	32.5
452.948	37.5
453.726	33.5
454.504	40.5
455.282	44.5
456.061	50.5
456.839	53.5
457.617	61.5
458.395	66.5
459.172	74.5
459.95	79.5
460.728	89.5
461.506	103.5
462.283	108.5
463.061	130.5
463.838	138.5
464.615	156.5
465.393	172.5
466.17	189.5
466.947	213.5
467.724	237.5
468.501	265.5
469.278	291.5
470.055	321.5
470.831	364.5
471.608	400.5
472.385	439.5
473.161	491.5
473.938	530.5
474.714	593.5
475.49	651.5
476.266	728.5
477.043	798.5
477.819	873.5
478.595	952.5
479.371	1054.5
480.146	1165.5
480.922	1265.5
481.698	1399.5
482.473	1527.5
483.249	1657.5
484.024	1825.5
484.8	2003.5
485.575	2188.5
486.35	2375.5
487.126	2623.5
487.901	2855.5
488.676	3129.5
489.451	3396.5
490.225	3730.5
491	4056.5
491.775	4423.5
492.55	4805.5
493.324	5251.5
494.099	5729.5
494.873	6201.5
495.647	6726.5
496.422	7305.5
497.196	7868.5
497.97	8462.5
498.744	9076.5
499.518	9721.5
500.292	10348.5
501.066	11022.5
501.839	11625.5
502.613	12233.5
503.387	12825.5
504.16	13376.5
504.934	13877.5
505.707	14290.5
506.48	14623.5
507.253	14812.5
508.027	15064.5
508.8	15177.5
509.573	15152.5
510.346	15024.5
511.118	14939.5
511.891	14656.5
512.664	14317.5
513.437	13915.5
514.209	13542.5
514.982	13101.5
515.754	12604.5
516.526	12109.5
517.298	11633.5
518.071	11179.5
518.843	10724.5
519.615	10271.5
520.387	9853.5
521.159	9447.5
521.93	9059.5
522.702	8731.5
523.474	8410.5
524.245	8070.5
525.017	7740.5
525.788	7414.5
526.56	7091.5
527.331	6836.5
528.102	6564.5
528.873	6319.5
529.644	6023.5
530.415	5771.5
531.186	5526.5
531.957	5271.5
532.728	4984.5
533.498	4737.5
534.269	4493.5
535.039	4240.5
535.81	4026.5
536.58	3847.5
537.351	3613.5
538.121	3434.5
538.891	3241.5
539.661	3088.5
540.431	2889.5
541.201	2747.5
541.971	2588.5
542.741	2450.5
543.51	2333.5
544.28	2201.5
545.05	2091.5
545.819	1985.5
546.588	1888.5
547.358	1814.5
548.127	1714.5
548.896	1644.5
549.665	1550.5
550.434	1469.5
551.203	1396.5
551.972	1332.5
552.741	1253.5
553.51	1198.5
554.278	1136.5
555.047	1056.5
555.815	1020.5
556.584	959.5
557.352	906.5
558.121	856.5
558.889	800.5
559.657	756.5
560.425	707.5
561.193	674.5
561.961	637.5
562.729	600.5
563.496	572.5
564.264	535.5
565.032	508.5
565.799	483.5
566.567	447.5
567.334	425.5
568.101	402.5
568.869	381.5
569.636	351.5
570.403	340.5
571.17	325.5
571.937	305.5
572.704	281.5
573.471	268.5
574.237	252.5
575.004	240.5
575.771	220.5
576.537	209.5
577.303	197.5
578.07	184.5
578.836	172.5
579.602	164.5
580.368	157.5
581.134	152.5
581.9	139.5
582.666	135.5
583.432	124.5
584.198	114.5
584.964	109.5
585.729	104.5
586.495	94.5
587.26	97.5
588.025	87.5
588.791	81.5
589.556	77.5
590.321	73.5
591.086	71.5
591.851	68.5
592.616	63.5
593.381	61.5
594.146	60.5
594.911	60.5
595.675	48.5
596.44	48.5
597.204	47.5
597.969	47.5
598.733	43.5
599.497	43.5
600.261	37.5
601.025	36.5
601.79	32.5
602.553	36.5
603.317	32.5
604.081	28.5
604.845	27.5
605.609	27.5
606.372	26.5
607.136	28.5
607.899	23.5
608.662	23.5
609.426	20.5
610.189	23.5
610.952	20.5
611.715	22.5
612.478	17.5
613.241	18.5
614.004	20.5
614.767	13.5
615.529	17.5
616.292	15.5
617.055	14.5
617.817	13.5
618.579	15.5
619.342	14.5
620.104	12.5
620.866	11.5
621.628	8.5
622.39	13.5
623.152	9.5
623.914	10.5
624.676	9.5
625.438	10.5
626.199	10.5
626.961	8.5
627.722	7.5
628.484	9.5
629.245	7.5
630.006	7.5
630.768	6.5
631.529	7.5
632.29	6.5
633.051	5.5
633.812	5.5
634.573	5.5
635.333	5.5
636.094	7.5
636.855	4.5
637.615	3.5
638.376	5.5
639.136	4.5
639.896	5.5
640.657	5.5
641.417	3.5
642.177	6.5
642.937	1.5
643.697	3.5
644.457	5.5
645.216	2.5
645.976	4.5
646.736	3.5
647.495	3.5
648.255	3.5
649.014	3.5
649.774	1.5
650.533	3.5
651.292	3.5
652.051	4.5
652.81	3.5
653.569	0.5
654.328	0.5
655.087	1.5
655.846	2.5
656.604	2.5
657.363	1.5
658.121	2.5
658.88	1.5
659.638	4.5
660.397	1.5
661.155	3.5
661.913	4.5
662.671	0.5
663.429	2.5
664.187	1.5
664.945	2.5
665.703	2.5
666.46	2.5
667.218	0.5
667.976	2.5
668.733	4.5
669.49	1.5
670.248	2.5
671.005	2.5
671.762	0.5
672.519	2.5
673.276	0.5
674.033	1.5
674.79	0.5
675.547	0.5
676.304	2.5
677.06	0.5
677.817	0.5
678.574	-0.5
679.33	1.5
680.086	1.5
680.843	0.5
681.599	0.5
682.355	-0.5
683.111	3.5
683.867	2.5
684.623	0.5
685.379	2.5
686.135	1.5
686.89	3.5
687.646	1.5
688.402	4.5
689.157	1.5
689.912	0.5
690.668	0.5
691.423	2.5
692.178	1.5
692.933	0.5
693.688	0.5
694.443	1.5
695.198	1.5
695.953	2.5
696.708	0.5
697.462	0.5
698.217	-1.5
698.972	1.5
699.726	-1.5
700.48	0.5
701.235	-1.5
701.989	-0.5
702.743	0.5
703.497	-0.5
704.251	1.5
705.005	0.5
705.759	1.5
706.513	0.5
707.266	1.5
708.02	1.5
708.774	-0.5
709.527	0.5
710.28	2.5
711.034	1.5
711.787	1.5
712.54	0.5
713.293	2.5
714.046	0.5
714.799	2.5
715.552	0.5
716.305	0.5
717.058	-0.5
717.81	0.5
718.563	1.5
719.315	1.5
720.068	3.5
720.82	0.5
721.573	0.5
722.325	-1.5
723.077	0.5
723.829	0.5
724.581	-2.5
725.333	1.5
726.085	-0.5
726.836	0.5
727.588	1.5
728.34	2.5
729.091	2.5
729.843	-0.5
730.594	1.5
731.346	1.5
732.097	0.5
732.848	1.5
733.599	-0.5
734.35	2.5
735.101	1.5
735.852	0.5
736.603	2.5
737.354	2.5
738.104	1.5
738.855	1.5
739.605	2.5
740.356	0.5
741.106	1.5
741.856	1.5
742.607	1.5
743.357	2.5
744.107	0.5
744.857	4.5
745.607	2.5
746.357	2.5
747.106	0.5
747.856	0.5
748.606	2.5
749.355	-0.5
750.105	2.5
750.854	3.5
751.603	1.5
752.353	2.5
753.102	2.5
753.851	1.5
754.6	-1.5
755.349	4.5
756.098	2.5
756.847	3.5
757.595	1.5
758.344	1.5
759.093	2.5
759.841	1.5
760.589	2.5
761.338	2.5
762.086	0.5
762.834	1.5
763.582	1.5
764.331	2.5
765.079	1.5
765.826	4.5
766.574	2.5
767.322	3.5
768.07	0.5
768.817	2.5
769.565	1.5
770.312	2.5
771.06	4.5
771.807	2.5
772.554	1.5
773.302	2.5
774.049	5.5
774.796	3.5
775.543	1.5
776.29	4.5
777.036	1.5
777.783	4.5
778.53	5.5
779.276	1.5
780.023	4.5
780.769	3.5
781.516	4.5
782.262	1.5
783.008	1.5
783.754	4.5
784.5	3.5
785.246	4.5
785.992	4.5
786.738	3.5
787.484	3.5
788.23	2.5
788.975	4.5
789.721	4.5
790.466	3.5
791.212	2.5
791.957	2.5
792.702	1.5
793.447	4.5
794.193	3.5
794.938	2.5
795.683	3.5
796.427	2.5
797.172	5.5
797.917	4.5
798.662	4.5
799.406	1.5
800.151	2.5
800.895	3.5
801.64	2.5
802.384	3.5
803.128	3.5
803.872	3.5
804.616	5.5
805.36	3.5
806.104	1.5
806.848	2.5
807.592	4.5
808.336	3.5
809.079	4.5
809.823	1.5
810.566	2.5
811.31	4.5
812.053	3.5
812.796	0.5
813.539	4.5
814.283	1.5
815.026	1.5
815.769	0.5
816.511	1.5
817.254	0.5
817.997	4.5
818.74	3.5
819.482	1.5
820.225	1.5
820.967	-0.5
821.71	-0.5
822.452	0.5
823.194	0.5
823.936	3.5
824.678	1.5
825.42	0.5
826.162	1.5
826.904	2.5
827.646	2.5
828.388	2.5
829.129	2.5
829.871	1.5
830.612	2.5
831.354	0.5
832.095	3.5
832.836	0.5
833.577	1.5
834.319	0.5
835.06	1.5
835.801	1.5
836.542	1.5
837.282	3.5
838.023	1.5
838.764	1.5
839.504	2.5
840.245	-0.5
840.985	2.5
841.726	2.5
842.466	4.5
843.206	1.5
843.946	2.5
844.687	1.5
845.427	0.5
846.166	0.5
846.906	1.5
847.646	1.5
848.386	0.5
849.125	1.5
849.865	1.5
850.605	2.5
851.344	0.5
852.083	1.5
852.823	0.5
853.562	0.5
854.301	4.5
855.04	2.5
855.779	-0.5
856.518	2.5
857.257	0.5
857.995	-0.5
858.734	1.5
859.473	0.5
860.211	0.5
860.95	0.5
861.688	2.5
862.426	0.5
863.165	-0.5
863.903	2.5
864.641	0.5
865.379	0.5
866.117	-0.5
866.855	1.5
867.593	-0.5
868.33	1.5
869.068	0.5
869.806	0.5
870.543	0.5
871.28	-2.5
872.018	1.5
872.755	0.5
873.492	-0.5
874.229	2.5
874.967	-0.5
875.703	0.5
876.44	0.5
877.177	-0.5
877.914	0.5
878.651	-0.5
879.387	-0.5
880.124	0.5
880.86	-0.5
881.597	-0.5
882.333	-0.5
883.069	0.5
883.806	1.5
884.542	-1.5
885.278	-0.5
886.014	1.5
886.749	0.5
887.485	0.5
888.221	1.5
888.957	1.5
889.692	-0.5
890.428	1.5
891.163	-2.5
891.899	-1.5
892.634	0.5
893.369	-0.5
894.104	0.5
894.839	-0.5
895.574	-2.5
896.309	2.5
897.044	-1.5
897.779	0.5
898.514	-0.5
899.248	-0.5
899.983	1.5
900.717	-0.5
901.452	-0.5
902.186	-1.5
902.92	0.5
903.654	-0.5
904.389	0.5
905.123	0.5
905.857	-3.5
906.59	-0.5
907.324	1.5
908.058	-0.5
908.792	1.5
909.525	-1.5
910.259	-0.5
910.992	-1.5
911.726	1.5
912.459	1.5
913.192	-0.5
913.925	-1.5
914.658	-0.5
915.391	0.5
916.124	-2.5
916.857	0.5
917.59	-0.5
918.323	1.5
919.055	-1.5
919.788	-3.5
920.521	0.5
921.253	-2.5
921.985	0.5
922.718	-1.5
923.45	-1.5
924.182	-0.5
924.914	-1.5
925.646	0.5
926.378	0.5
927.11	-2.5
927.841	-0.5
928.573	-1.5
929.305	-2.5
930.036	0.5
930.768	-0.5
931.499	-0.5
932.23	-1.5
932.962	-0.5
933.693	1.5
934.424	0.5
935.155	-2.5
935.886	-0.5
936.617	-2.5
937.348	-0.5
938.078	-1.5
938.809	0.5
939.54	0.5
940.27	-0.5
941.001	-0.5
941.731	-4.5
942.461	0.5
943.191	-0.5
943.922	-0.5
944.652	1.5
945.382	-1.5
946.112	-3.5
946.841	0.5
947.571	0.5
948.301	-2.5
949.031	-0.5
949.76	0.5
950.49	1.5
951.219	-1.5
951.948	-1.5
952.678	-0.5
953.407	0.5
954.136	-2.5
954.865	0.5
955.594	-1.5
956.323	-0.5
957.052	-1.5
957.78	0.5
958.509	-0.5
959.238	-0.5
959.966	-1.5
960.695	-0.5
961.423	0.5
962.151	-0.5
962.88	-0.5
963.608	-1.5
964.336	-3.5
965.064	-0.5
965.792	-2.5
966.52	-1.5
967.247	-0.5
967.975	-0.5
968.703	0.5
969.43	-0.5
970.158	0.5
970.885	-0.5
971.613	-0.5
972.34	0.5
973.067	0.5
973.794	0.5
974.521	-1.5
975.248	-2.5
975.975	-1.5
976.702	0.5
977.429	1.5
978.156	-1.5
978.882	0.5
979.609	0.5
980.335	0.5
981.062	-2.5
981.788	1.5
982.514	0.5
983.24	-2.5
983.967	-1.5
984.693	-1.5
985.419	-0.5
986.144	-1.5
986.87	-0.5
987.596	-0.5
988.322	-0.5
989.047	1.5
989.773	-0.5
990.498	-1.5
991.224	-1.5
991.949	-0.5
992.674	-0.5
993.399	-0.5
994.124	-0.5
994.849	-1.5
995.574	-2.5
996.299	-1.5
997.024	1.5
997.749	0.5
998.473	-0.5
999.198	0.5
999.922	-1.5
1000.647	-0.5
1001.371	5.5
1002.095	-1.5
1002.82	-1.5
1003.544	-1.5
1004.268	-2.5
1004.992	-1.5
1005.716	0.5
1006.439	-0.5
1007.163	-1.5
1007.887	0.5
1008.611	-1.5
1009.334	-0.5
1010.058	0.5
1010.781	-0.5
1011.504	0.5
1012.228	-0.5
1012.951	-0.5
1013.674	-0.5
1014.397	-0.5
1015.12	0.5
