节点500_145_QEPB04081__146__11-31-16-617.txt的数据

Date: Wed Nov 12 11:31:16 CST 2025
User: PC
Spectrometer: QEPB0408
触发模式: 0
积分时间 (秒): 1.000000E-2
Scans to average: 1
启用暗噪声校正: true
启用非线性校正: false
滑动平均宽度: 0
X轴模式: Wavelengths
Number of Pixels in Spectrum: 1044
>>>>>Begin Spectral Data<<<<<
220.843	-0.88
221.644	0.12
222.444	-1.88
223.244	-0.88
224.045	0.12
224.845	0.12
225.645	0.12
226.445	0.12
227.245	-0.88
228.045	1.12
228.845	0.12
229.645	3.12
230.444	1.12
231.244	1.12
232.043	-1.88
232.843	1.12
233.642	1.12
234.442	2.12
235.241	2.12
236.04	0.12
236.839	2.12
237.638	2.12
238.437	0.12
239.236	1.12
240.035	1.12
240.833	1.12
241.632	1.12
242.43	3.12
243.229	2.12
244.027	2.12
244.826	3.12
245.624	1.12
246.422	2.12
247.22	1.12
248.018	2.12
248.816	2.12
249.614	1.12
250.412	2.12
251.21	-0.88
252.007	3.12
252.805	1.12
253.602	1.12
254.4	3.12
255.197	3.12
255.994	4.12
256.791	3.12
257.589	4.12
258.386	4.12
259.183	4.12
259.979	5.12
260.776	5.12
261.573	6.12
262.37	5.12
263.166	6.12
263.963	3.12
264.759	4.12
265.556	3.12
266.352	9.12
267.148	7.12
267.944	6.12
268.74	7.12
269.536	5.12
270.332	9.12
271.128	9.12
271.924	6.12
272.719	6.12
273.515	6.12
274.311	10.12
275.106	8.12
275.901	10.12
276.697	10.12
277.492	11.12
278.287	12.12
279.082	9.12
279.877	12.12
280.672	9.12
281.467	10.12
282.262	12.12
283.056	10.12
283.851	12.12
284.646	10.12
285.44	10.12
286.234	10.12
287.029	14.12
287.823	12.12
288.617	11.12
289.411	10.12
290.205	10.12
290.999	11.12
291.793	10.12
292.587	12.12
293.381	12.12
294.174	10.12
294.968	11.12
295.761	10.12
296.555	12.12
297.348	7.12
298.141	12.12
298.935	11.12
299.728	9.12
300.521	10.12
301.314	10.12
302.107	9.12
302.899	8.12
303.692	6.12
304.485	11.12
305.277	8.12
306.07	5.12
306.862	8.12
307.655	8.12
308.447	9.12
309.239	8.12
310.031	5.12
310.823	6.12
311.615	5.12
312.407	7.12
313.199	7.12
313.991	7.12
314.783	6.12
315.574	5.12
316.366	6.12
317.157	4.12
317.949	4.12
318.74	5.12
319.531	4.12
320.322	4.12
321.113	4.12
321.904	4.12
322.695	4.12
323.486	5.12
324.277	7.12
325.068	4.12
325.858	2.12
326.649	5.12
327.439	5.12
328.23	5.12
329.02	5.12
329.81	5.12
330.6	5.12
331.391	3.12
332.181	3.12
332.971	4.12
333.76	4.12
334.55	3.12
335.34	1.12
336.13	5.12
336.919	2.12
337.709	6.12
338.498	2.12
339.287	3.12
340.077	3.12
340.866	2.12
341.655	4.12
342.444	1.12
343.233	4.12
344.022	2.12
344.811	1.12
345.6	2.12
346.388	2.12
347.177	2.12
347.965	2.12
348.754	2.12
349.542	3.12
350.33	5.12
351.119	2.12
351.907	4.12
352.695	7.12
353.483	2.12
354.271	3.12
355.059	2.12
355.846	5.12
356.634	1.12
357.422	3.12
358.209	5.12
358.997	0.12
359.784	3.12
360.571	2.12
361.359	3.12
362.146	3.12
362.933	2.12
363.72	4.12
364.507	3.12
365.294	3.12
366.081	2.12
366.867	2.12
367.654	2.12
368.44	2.12
369.227	1.12
370.013	3.12
370.8	5.12
371.586	5.12
372.372	4.12
373.158	5.12
373.944	1.12
374.73	3.12
375.516	2.12
376.302	2.12
377.088	3.12
377.873	3.12
378.659	1.12
379.445	3.12
380.23	2.12
381.015	1.12
381.801	3.12
382.586	4.12
383.371	3.12
384.156	3.12
384.941	1.12
385.726	2.12
386.511	3.12
387.296	3.12
388.08	3.12
388.865	4.12
389.649	3.12
390.434	1.12
391.218	1.12
392.003	1.12
392.787	3.12
393.571	2.12
394.355	4.12
395.139	3.12
395.923	1.12
396.707	6.12
397.491	3.12
398.274	2.12
399.058	3.12
399.842	1.12
400.625	2.12
401.408	5.12
402.192	6.12
402.975	3.12
403.758	2.12
404.541	3.12
405.324	3.12
406.107	2.12
406.89	4.12
407.673	5.12
408.456	4.12
409.238	5.12
410.021	4.12
410.803	4.12
411.586	5.12
412.368	6.12
413.151	5.12
413.933	5.12
414.715	4.12
415.497	4.12
416.279	5.12
417.061	6.12
417.843	3.12
418.624	3.12
419.406	4.12
420.188	4.12
420.969	7.12
421.751	5.12
422.532	8.12
423.313	5.12
424.095	7.12
424.876	5.12
425.657	5.12
426.438	8.12
427.219	5.12
428	6.12
428.78	6.12
429.561	5.12
430.342	7.12
431.122	6.12
431.903	9.12
432.683	9.12
433.464	9.12
434.244	10.12
435.024	8.12
435.804	11.12
436.584	9.12
437.364	10.12
438.144	9.12
438.924	12.12
439.704	10.12
440.483	11.12
441.263	14.12
442.042	13.12
442.822	13.12
443.601	12.12
444.38	15.12
445.16	12.12
445.939	15.12
446.718	18.12
447.497	17.12
448.276	21.12
449.054	19.12
449.833	23.12
450.612	25.12
451.391	23.12
452.169	26.12
452.948	27.12
453.726	31.12
454.504	34.12
455.282	41.12
456.061	46.12
456.839	45.12
457.617	53.12
458.395	56.12
459.172	63.12
459.95	70.12
460.728	78.12
461.506	84.12
462.283	91.12
463.061	104.12
463.838	119.12
464.615	128.12
465.393	148.12
466.17	164.12
466.947	183.12
467.724	205.12
468.501	231.12
469.278	263.12
470.055	281.12
470.831	321.12
471.608	360.12
472.385	398.12
473.161	436.12
473.938	486.12
474.714	555.12
475.49	611.12
476.266	672.12
477.043	750.12
477.819	837.12
478.595	931.12
479.371	1027.12
480.146	1143.12
480.922	1275.12
481.698	1412.12
482.473	1557.12
483.249	1730.12
484.024	1895.12
484.8	2098.12
485.575	2336.12
486.35	2589.12
487.126	2849.12
487.901	3141.12
488.676	3469.12
489.451	3875.12
490.225	4257.12
491	4685.12
491.775	5146.12
492.55	5648.12
493.324	6230.12
494.099	6856.12
494.873	7479.12
495.647	8195.12
496.422	8919.12
497.196	9601.12
497.97	10403.12
498.744	11245.12
499.518	12015.12
500.292	12802.12
501.066	13505.12
501.839	14301.12
502.613	15014.12
503.387	15618.12
504.16	16148.12
504.934	16568.12
505.707	16862.12
506.48	17121.12
507.253	17211.12
508.027	17257.12
508.8	17092.12
509.573	16799.12
510.346	16471.12
511.118	16074.12
511.891	15589.12
512.664	15018.12
513.437	14470.12
514.209	13917.12
514.982	13314.12
515.754	12705.12
516.526	12134.12
517.298	11576.12
518.071	11055.12
518.843	10554.12
519.615	10101.12
520.387	9700.12
521.159	9289.12
521.93	8976.12
522.702	8571.12
523.474	8252.12
524.245	7936.12
525.017	7624.12
525.788	7321.12
526.56	6996.12
527.331	6687.12
528.102	6423.12
528.873	6119.12
529.644	5795.12
530.415	5564.12
531.186	5258.12
531.957	5006.12
532.728	4714.12
533.498	4450.12
534.269	4220.12
535.039	4010.12
535.81	3769.12
536.58	3565.12
537.351	3379.12
538.121	3154.12
538.891	2999.12
539.661	2819.12
540.431	2655.12
541.201	2534.12
541.971	2395.12
542.741	2261.12
543.51	2161.12
544.28	2030.12
545.05	1938.12
545.819	1855.12
546.588	1769.12
547.358	1658.12
548.127	1588.12
548.896	1491.12
549.665	1441.12
550.434	1358.12
551.203	1286.12
551.972	1211.12
552.741	1144.12
553.51	1102.12
554.278	1027.12
555.047	962.12
555.815	913.12
556.584	863.12
557.352	819.12
558.121	765.12
558.889	717.12
559.657	681.12
560.425	647.12
561.193	603.12
561.961	561.12
562.729	541.12
563.496	501.12
564.264	483.12
565.032	458.12
565.799	429.12
566.567	405.12
567.334	382.12
568.101	357.12
568.869	337.12
569.636	320.12
570.403	297.12
571.17	280.12
571.937	276.12
572.704	250.12
573.471	245.12
574.237	227.12
575.004	217.12
575.771	205.12
576.537	188.12
577.303	172.12
578.07	173.12
578.836	152.12
579.602	142.12
580.368	136.12
581.134	133.12
581.9	122.12
582.666	116.12
583.432	110.12
584.198	105.12
584.964	99.12
585.729	95.12
586.495	96.12
587.26	84.12
588.025	83.12
588.791	76.12
589.556	71.12
590.321	66.12
591.086	62.12
591.851	65.12
592.616	56.12
593.381	56.12
594.146	52.12
594.911	48.12
595.675	49.12
596.44	45.12
597.204	43.12
597.969	41.12
598.733	39.12
599.497	36.12
600.261	38.12
601.025	33.12
601.79	31.12
602.553	31.12
603.317	30.12
604.081	25.12
604.845	27.12
605.609	26.12
606.372	25.12
607.136	23.12
607.899	24.12
608.662	26.12
609.426	21.12
610.189	21.12
610.952	20.12
611.715	19.12
612.478	19.12
613.241	17.12
614.004	14.12
614.767	17.12
615.529	16.12
616.292	13.12
617.055	14.12
617.817	13.12
618.579	12.12
619.342	11.12
620.104	13.12
620.866	13.12
621.628	12.12
622.39	12.12
623.152	9.12
623.914	10.12
624.676	12.12
625.438	11.12
626.199	9.12
626.961	10.12
627.722	9.12
628.484	6.12
629.245	6.12
630.006	6.12
630.768	9.12
631.529	10.12
632.29	8.12
633.051	9.12
633.812	5.12
634.573	7.12
635.333	6.12
636.094	6.12
636.855	6.12
637.615	3.12
638.376	5.12
639.136	3.12
639.896	6.12
640.657	5.12
641.417	7.12
642.177	8.12
642.937	5.12
643.697	6.12
644.457	6.12
645.216	5.12
645.976	5.12
646.736	6.12
647.495	2.12
648.255	3.12
649.014	5.12
649.774	5.12
650.533	5.12
651.292	4.12
652.051	2.12
652.81	5.12
653.569	2.12
654.328	5.12
655.087	3.12
655.846	2.12
656.604	2.12
657.363	2.12
658.121	4.12
658.88	2.12
659.638	3.12
660.397	7.12
661.155	2.12
661.913	2.12
662.671	3.12
663.429	3.12
664.187	1.12
664.945	3.12
665.703	3.12
666.46	3.12
667.218	2.12
667.976	0.12
668.733	3.12
669.49	2.12
670.248	3.12
671.005	3.12
671.762	1.12
672.519	2.12
673.276	4.12
674.033	4.12
674.79	1.12
675.547	3.12
676.304	3.12
677.06	3.12
677.817	2.12
678.574	3.12
679.33	2.12
680.086	1.12
680.843	2.12
681.599	3.12
682.355	2.12
683.111	3.12
683.867	3.12
684.623	1.12
685.379	4.12
686.135	2.12
686.89	3.12
687.646	1.12
688.402	2.12
689.157	2.12
689.912	2.12
690.668	3.12
691.423	1.12
692.178	3.12
692.933	2.12
693.688	1.12
694.443	3.12
695.198	1.12
695.953	1.12
696.708	4.12
697.462	2.12
698.217	2.12
698.972	2.12
699.726	0.12
700.48	2.12
701.235	1.12
701.989	1.12
702.743	5.12
703.497	1.12
704.251	1.12
705.005	0.12
705.759	2.12
706.513	2.12
707.266	1.12
708.02	0.12
708.774	-0.88
709.527	2.12
710.28	2.12
711.034	2.12
711.787	1.12
712.54	3.12
713.293	2.12
714.046	1.12
714.799	2.12
715.552	1.12
716.305	2.12
717.058	0.12
717.81	0.12
718.563	3.12
719.315	0.12
720.068	2.12
720.82	1.12
721.573	0.12
722.325	3.12
723.077	2.12
723.829	1.12
724.581	3.12
725.333	0.12
726.085	2.12
726.836	2.12
727.588	3.12
728.34	2.12
729.091	3.12
729.843	3.12
730.594	1.12
731.346	2.12
732.097	0.12
732.848	4.12
733.599	3.12
734.35	1.12
735.101	2.12
735.852	0.12
736.603	5.12
737.354	0.12
738.104	2.12
738.855	1.12
739.605	5.12
740.356	1.12
741.106	3.12
741.856	2.12
742.607	1.12
743.357	4.12
744.107	1.12
744.857	4.12
745.607	3.12
746.357	2.12
747.106	1.12
747.856	2.12
748.606	2.12
749.355	3.12
750.105	2.12
750.854	3.12
751.603	2.12
752.353	3.12
753.102	1.12
753.851	3.12
754.6	4.12
755.349	2.12
756.098	3.12
756.847	3.12
757.595	3.12
758.344	2.12
759.093	4.12
759.841	4.12
760.589	4.12
761.338	6.12
762.086	4.12
762.834	4.12
763.582	4.12
764.331	2.12
765.079	2.12
765.826	3.12
766.574	2.12
767.322	5.12
768.07	4.12
768.817	3.12
769.565	5.12
770.312	3.12
771.06	5.12
771.807	4.12
772.554	4.12
773.302	5.12
774.049	5.12
774.796	5.12
775.543	5.12
776.29	6.12
777.036	6.12
777.783	4.12
778.53	7.12
779.276	2.12
780.023	4.12
780.769	4.12
781.516	4.12
782.262	6.12
783.008	5.12
783.754	6.12
784.5	4.12
785.246	6.12
785.992	6.12
786.738	4.12
787.484	6.12
788.23	4.12
788.975	5.12
789.721	5.12
790.466	5.12
791.212	5.12
791.957	3.12
792.702	5.12
793.447	6.12
794.193	5.12
794.938	6.12
795.683	5.12
796.427	3.12
797.172	3.12
797.917	6.12
798.662	5.12
799.406	7.12
800.151	3.12
800.895	3.12
801.64	7.12
802.384	5.12
803.128	2.12
803.872	4.12
804.616	5.12
805.36	4.12
806.104	5.12
806.848	4.12
807.592	3.12
808.336	5.12
809.079	3.12
809.823	5.12
810.566	3.12
811.31	3.12
812.053	3.12
812.796	5.12
813.539	3.12
814.283	2.12
815.026	3.12
815.769	4.12
816.511	5.12
817.254	4.12
817.997	3.12
818.74	3.12
819.482	3.12
820.225	4.12
820.967	0.12
821.71	3.12
822.452	2.12
823.194	1.12
823.936	2.12
824.678	1.12
825.42	2.12
826.162	2.12
826.904	4.12
827.646	2.12
828.388	3.12
829.129	1.12
829.871	3.12
830.612	2.12
831.354	3.12
832.095	1.12
832.836	2.12
833.577	3.12
834.319	2.12
835.06	0.12
835.801	2.12
836.542	4.12
837.282	3.12
838.023	1.12
838.764	2.12
839.504	3.12
840.245	2.12
840.985	4.12
841.726	2.12
842.466	2.12
843.206	1.12
843.946	1.12
844.687	2.12
845.427	2.12
846.166	4.12
846.906	2.12
847.646	1.12
848.386	4.12
849.125	0.12
849.865	3.12
850.605	1.12
851.344	1.12
852.083	1.12
852.823	5.12
853.562	0.12
854.301	1.12
855.04	2.12
855.779	1.12
856.518	0.12
857.257	2.12
857.995	1.12
858.734	2.12
859.473	-1.88
860.211	1.12
860.95	0.12
861.688	2.12
862.426	1.12
863.165	1.12
863.903	3.12
864.641	1.12
865.379	1.12
866.117	5.12
866.855	1.12
867.593	1.12
868.33	0.12
869.068	1.12
869.806	1.12
870.543	2.12
871.28	3.12
872.018	-0.88
872.755	1.12
873.492	-0.88
874.229	0.12
874.967	3.12
875.703	1.12
876.44	1.12
877.177	1.12
877.914	2.12
878.651	1.12
879.387	1.12
880.124	-0.88
880.86	0.12
881.597	0.12
882.333	0.12
883.069	1.12
883.806	1.12
884.542	1.12
885.278	1.12
886.014	-0.88
886.749	0.12
887.485	1.12
888.221	1.12
888.957	0.12
889.692	1.12
890.428	-0.88
891.163	1.12
891.899	-0.88
892.634	0.12
893.369	1.12
894.104	1.12
894.839	1.12
895.574	1.12
896.309	-0.88
897.044	2.12
897.779	1.12
898.514	4.12
899.248	0.12
899.983	-1.88
900.717	0.12
901.452	2.12
902.186	3.12
902.92	0.12
903.654	-0.88
904.389	0.12
905.123	1.12
905.857	-0.88
906.59	0.12
907.324	2.12
908.058	-0.88
908.792	1.12
909.525	-2.88
910.259	1.12
910.992	3.12
911.726	1.12
912.459	-1.88
913.192	0.12
913.925	0.12
914.658	1.12
915.391	1.12
916.124	-1.88
916.857	-1.88
917.59	0.12
918.323	-0.88
919.055	-0.88
919.788	0.12
920.521	0.12
921.253	0.12
921.985	2.12
922.718	0.12
923.45	0.12
924.182	-0.88
924.914	0.12
925.646	3.12
926.378	2.12
927.11	-0.88
927.841	-0.88
928.573	-1.88
929.305	-0.88
930.036	0.12
930.768	0.12
931.499	-1.88
932.23	0.12
932.962	0.12
933.693	0.12
934.424	1.12
935.155	0.12
935.886	1.12
936.617	0.12
937.348	0.12
938.078	2.12
938.809	1.12
939.54	2.12
940.27	-1.88
941.001	0.12
941.731	-0.88
942.461	1.12
943.191	0.12
943.922	0.12
944.652	0.12
945.382	1.12
946.112	1.12
946.841	0.12
947.571	-1.88
948.301	1.12
949.031	-1.88
949.76	-0.88
950.49	-0.88
951.219	-1.88
951.948	-0.88
952.678	0.12
953.407	1.12
954.136	1.12
954.865	1.12
955.594	0.12
956.323	-0.88
957.052	1.12
957.78	-0.88
958.509	3.12
959.238	2.12
959.966	-1.88
960.695	-0.88
961.423	0.12
962.151	-0.88
962.88	2.12
963.608	0.12
964.336	1.12
965.064	0.12
965.792	-0.88
966.52	0.12
967.247	1.12
967.975	-0.88
968.703	-0.88
969.43	0.12
970.158	-0.88
970.885	0.12
971.613	3.12
972.34	0.12
973.067	0.12
973.794	1.12
974.521	0.12
975.248	2.12
975.975	1.12
976.702	1.12
977.429	-0.88
978.156	2.12
978.882	0.12
979.609	-1.88
980.335	1.12
981.062	2.12
981.788	0.12
982.514	0.12
983.24	0.12
983.967	-1.88
984.693	0.12
985.419	0.12
986.144	0.12
986.87	-1.88
987.596	0.12
988.322	-0.88
989.047	1.12
989.773	1.12
990.498	0.12
991.224	1.12
991.949	-1.88
992.674	1.12
993.399	-0.88
994.124	1.12
994.849	-0.88
995.574	0.12
996.299	0.12
997.024	-0.88
997.749	0.12
998.473	0.12
999.198	-0.88
999.922	-0.88
1000.647	-0.88
1001.371	3.12
1002.095	-3.88
1002.82	-0.88
1003.544	1.12
1004.268	0.12
1004.992	0.12
1005.716	-2.88
1006.439	0.12
1007.163	-0.88
1007.887	-0.88
1008.611	3.12
1009.334	1.12
1010.058	1.12
1010.781	0.12
1011.504	2.12
1012.228	1.12
1012.951	0.12
1013.674	1.12
1014.397	0.12
1015.12	-0.88
