节点500_145_QEPB04081__45__11-29-39-748.txt的数据

Date: Wed Nov 12 11:29:39 CST 2025
User: PC
Spectrometer: QEPB0408
触发模式: 0
积分时间 (秒): 1.000000E-2
Scans to average: 1
启用暗噪声校正: true
启用非线性校正: false
滑动平均宽度: 0
X轴模式: Wavelengths
Number of Pixels in Spectrum: 1044
>>>>>Begin Spectral Data<<<<<
220.843	3.25
221.644	-0.75
222.444	1.25
223.244	-0.75
224.045	-0.75
224.845	0.25
225.645	0.25
226.445	0.25
227.245	-1.75
228.045	1.25
228.845	0.25
229.645	0.25
230.444	2.25
231.244	1.25
232.043	1.25
232.843	3.25
233.642	1.25
234.442	-0.75
235.241	3.25
236.04	1.25
236.839	0.25
237.638	1.25
238.437	2.25
239.236	-0.75
240.035	1.25
240.833	0.25
241.632	0.25
242.43	-0.75
243.229	0.25
244.027	-0.75
244.826	2.25
245.624	2.25
246.422	0.25
247.22	2.25
248.018	1.25
248.816	1.25
249.614	5.25
250.412	3.25
251.21	1.25
252.007	1.25
252.805	3.25
253.602	3.25
254.4	2.25
255.197	4.25
255.994	6.25
256.791	4.25
257.589	3.25
258.386	4.25
259.183	4.25
259.979	3.25
260.776	6.25
261.573	5.25
262.37	6.25
263.166	4.25
263.963	7.25
264.759	5.25
265.556	5.25
266.352	6.25
267.148	7.25
267.944	6.25
268.74	6.25
269.536	7.25
270.332	8.25
271.128	7.25
271.924	11.25
272.719	9.25
273.515	10.25
274.311	7.25
275.106	12.25
275.901	9.25
276.697	9.25
277.492	9.25
278.287	9.25
279.082	8.25
279.877	10.25
280.672	8.25
281.467	11.25
282.262	9.25
283.056	10.25
283.851	12.25
284.646	11.25
285.44	10.25
286.234	14.25
287.029	11.25
287.823	12.25
288.617	11.25
289.411	11.25
290.205	12.25
290.999	13.25
291.793	11.25
292.587	12.25
293.381	12.25
294.174	12.25
294.968	9.25
295.761	11.25
296.555	8.25
297.348	10.25
298.141	10.25
298.935	7.25
299.728	11.25
300.521	10.25
301.314	11.25
302.107	10.25
302.899	9.25
303.692	8.25
304.485	9.25
305.277	10.25
306.07	10.25
306.862	8.25
307.655	9.25
308.447	7.25
309.239	8.25
310.031	6.25
310.823	7.25
311.615	6.25
312.407	5.25
313.199	7.25
313.991	7.25
314.783	8.25
315.574	3.25
316.366	7.25
317.157	6.25
317.949	8.25
318.74	6.25
319.531	4.25
320.322	4.25
321.113	4.25
321.904	4.25
322.695	6.25
323.486	4.25
324.277	7.25
325.068	5.25
325.858	4.25
326.649	3.25
327.439	5.25
328.23	6.25
329.02	4.25
329.81	3.25
330.6	6.25
331.391	2.25
332.181	2.25
332.971	3.25
333.76	4.25
334.55	4.25
335.34	4.25
336.13	2.25
336.919	4.25
337.709	3.25
338.498	3.25
339.287	4.25
340.077	4.25
340.866	2.25
341.655	5.25
342.444	4.25
343.233	6.25
344.022	4.25
344.811	2.25
345.6	1.25
346.388	4.25
347.177	5.25
347.965	4.25
348.754	2.25
349.542	4.25
350.33	4.25
351.119	1.25
351.907	3.25
352.695	0.25
353.483	5.25
354.271	3.25
355.059	3.25
355.846	2.25
356.634	1.25
357.422	2.25
358.209	5.25
358.997	2.25
359.784	5.25
360.571	1.25
361.359	2.25
362.146	2.25
362.933	3.25
363.72	5.25
364.507	4.25
365.294	2.25
366.081	1.25
366.867	4.25
367.654	3.25
368.44	2.25
369.227	3.25
370.013	3.25
370.8	6.25
371.586	2.25
372.372	2.25
373.158	3.25
373.944	3.25
374.73	2.25
375.516	3.25
376.302	3.25
377.088	1.25
377.873	4.25
378.659	4.25
379.445	4.25
380.23	4.25
381.015	2.25
381.801	4.25
382.586	2.25
383.371	3.25
384.156	2.25
384.941	4.25
385.726	2.25
386.511	3.25
387.296	3.25
388.08	4.25
388.865	4.25
389.649	3.25
390.434	4.25
391.218	2.25
392.003	4.25
392.787	3.25
393.571	2.25
394.355	4.25
395.139	2.25
395.923	3.25
396.707	4.25
397.491	3.25
398.274	5.25
399.058	3.25
399.842	3.25
400.625	4.25
401.408	4.25
402.192	3.25
402.975	2.25
403.758	4.25
404.541	4.25
405.324	2.25
406.107	5.25
406.89	4.25
407.673	5.25
408.456	3.25
409.238	5.25
410.021	3.25
410.803	7.25
411.586	4.25
412.368	3.25
413.151	4.25
413.933	5.25
414.715	5.25
415.497	4.25
416.279	3.25
417.061	5.25
417.843	7.25
418.624	5.25
419.406	5.25
420.188	4.25
420.969	8.25
421.751	7.25
422.532	7.25
423.313	6.25
424.095	6.25
424.876	4.25
425.657	9.25
426.438	6.25
427.219	9.25
428	7.25
428.78	5.25
429.561	9.25
430.342	7.25
431.122	6.25
431.903	7.25
432.683	7.25
433.464	7.25
434.244	7.25
435.024	6.25
435.804	7.25
436.584	10.25
437.364	10.25
438.144	11.25
438.924	11.25
439.704	11.25
440.483	13.25
441.263	11.25
442.042	13.25
442.822	13.25
443.601	14.25
444.38	15.25
445.16	15.25
445.939	14.25
446.718	17.25
447.497	17.25
448.276	17.25
449.054	21.25
449.833	21.25
450.612	24.25
451.391	25.25
452.169	26.25
452.948	31.25
453.726	32.25
454.504	33.25
455.282	36.25
456.061	40.25
456.839	47.25
457.617	51.25
458.395	54.25
459.172	59.25
459.95	65.25
460.728	72.25
461.506	78.25
462.283	89.25
463.061	103.25
463.838	112.25
464.615	124.25
465.393	139.25
466.17	152.25
466.947	174.25
467.724	195.25
468.501	211.25
469.278	241.25
470.055	269.25
470.831	297.25
471.608	338.25
472.385	369.25
473.161	434.25
473.938	472.25
474.714	532.25
475.49	589.25
476.266	651.25
477.043	713.25
477.819	813.25
478.595	896.25
479.371	979.25
480.146	1110.25
480.922	1237.25
481.698	1369.25
482.473	1525.25
483.249	1699.25
484.024	1885.25
484.8	2089.25
485.575	2306.25
486.35	2561.25
487.126	2849.25
487.901	3177.25
488.676	3512.25
489.451	3888.25
490.225	4272.25
491	4760.25
491.775	5252.25
492.55	5767.25
493.324	6380.25
494.099	6995.25
494.873	7626.25
495.647	8382.25
496.422	9155.25
497.196	9937.25
497.97	10724.25
498.744	11530.25
499.518	12367.25
500.292	13108.25
501.066	13899.25
501.839	14648.25
502.613	15331.25
503.387	15983.25
504.16	16488.25
504.934	16917.25
505.707	17199.25
506.48	17382.25
507.253	17375.25
508.027	17335.25
508.8	17136.25
509.573	16894.25
510.346	16546.25
511.118	16065.25
511.891	15470.25
512.664	14933.25
513.437	14300.25
514.209	13739.25
514.982	13121.25
515.754	12510.25
516.526	11917.25
517.298	11385.25
518.071	10846.25
518.843	10336.25
519.615	9911.25
520.387	9513.25
521.159	9183.25
521.93	8782.25
522.702	8467.25
523.474	8098.25
524.245	7762.25
525.017	7481.25
525.788	7163.25
526.56	6865.25
527.331	6573.25
528.102	6290.25
528.873	5982.25
529.644	5698.25
530.415	5435.25
531.186	5161.25
531.957	4887.25
532.728	4645.25
533.498	4339.25
534.269	4115.25
535.039	3876.25
535.81	3631.25
536.58	3444.25
537.351	3251.25
538.121	3068.25
538.891	2892.25
539.661	2750.25
540.431	2591.25
541.201	2471.25
541.971	2314.25
542.741	2207.25
543.51	2087.25
544.28	1988.25
545.05	1902.25
545.819	1798.25
546.588	1718.25
547.358	1627.25
548.127	1551.25
548.896	1463.25
549.665	1405.25
550.434	1313.25
551.203	1265.25
551.972	1186.25
552.741	1111.25
553.51	1071.25
554.278	1004.25
555.047	938.25
555.815	885.25
556.584	830.25
557.352	782.25
558.121	738.25
558.889	705.25
559.657	664.25
560.425	608.25
561.193	586.25
561.961	542.25
562.729	518.25
563.496	481.25
564.264	461.25
565.032	433.25
565.799	417.25
566.567	387.25
567.334	367.25
568.101	346.25
568.869	327.25
569.636	315.25
570.403	296.25
571.17	282.25
571.937	257.25
572.704	243.25
573.471	227.25
574.237	213.25
575.004	206.25
575.771	188.25
576.537	177.25
577.303	169.25
578.07	163.25
578.836	151.25
579.602	141.25
580.368	136.25
581.134	128.25
581.9	119.25
582.666	118.25
583.432	110.25
584.198	104.25
584.964	96.25
585.729	91.25
586.495	85.25
587.26	78.25
588.025	73.25
588.791	71.25
589.556	71.25
590.321	62.25
591.086	63.25
591.851	61.25
592.616	56.25
593.381	53.25
594.146	49.25
594.911	46.25
595.675	43.25
596.44	44.25
597.204	41.25
597.969	42.25
598.733	37.25
599.497	33.25
600.261	35.25
601.025	32.25
601.79	32.25
602.553	29.25
603.317	27.25
604.081	24.25
604.845	27.25
605.609	26.25
606.372	24.25
607.136	23.25
607.899	21.25
608.662	18.25
609.426	22.25
610.189	19.25
610.952	20.25
611.715	18.25
612.478	18.25
613.241	16.25
614.004	16.25
614.767	17.25
615.529	14.25
616.292	15.25
617.055	14.25
617.817	11.25
618.579	12.25
619.342	14.25
620.104	10.25
620.866	10.25
621.628	11.25
622.39	10.25
623.152	10.25
623.914	11.25
624.676	10.25
625.438	7.25
626.199	10.25
626.961	9.25
627.722	7.25
628.484	6.25
629.245	7.25
630.006	12.25
630.768	7.25
631.529	9.25
632.29	7.25
633.051	7.25
633.812	8.25
634.573	6.25
635.333	6.25
636.094	6.25
636.855	5.25
637.615	7.25
638.376	7.25
639.136	3.25
639.896	4.25
640.657	3.25
641.417	5.25
642.177	8.25
642.937	5.25
643.697	7.25
644.457	4.25
645.216	3.25
645.976	5.25
646.736	4.25
647.495	6.25
648.255	3.25
649.014	6.25
649.774	3.25
650.533	5.25
651.292	5.25
652.051	3.25
652.81	4.25
653.569	4.25
654.328	4.25
655.087	2.25
655.846	5.25
656.604	4.25
657.363	3.25
658.121	4.25
658.88	6.25
659.638	4.25
660.397	4.25
661.155	1.25
661.913	2.25
662.671	1.25
663.429	5.25
664.187	3.25
664.945	1.25
665.703	7.25
666.46	2.25
667.218	3.25
667.976	4.25
668.733	3.25
669.49	5.25
670.248	2.25
671.005	2.25
671.762	3.25
672.519	2.25
673.276	1.25
674.033	0.25
674.79	-0.75
675.547	1.25
676.304	5.25
677.06	1.25
677.817	2.25
678.574	3.25
679.33	3.25
680.086	1.25
680.843	2.25
681.599	2.25
682.355	4.25
683.111	4.25
683.867	2.25
684.623	2.25
685.379	0.25
686.135	2.25
686.89	3.25
687.646	2.25
688.402	2.25
689.157	0.25
689.912	1.25
690.668	3.25
691.423	3.25
692.178	3.25
692.933	1.25
693.688	2.25
694.443	2.25
695.198	2.25
695.953	1.25
696.708	4.25
697.462	-0.75
698.217	1.25
698.972	3.25
699.726	2.25
700.48	1.25
701.235	2.25
701.989	2.25
702.743	2.25
703.497	3.25
704.251	2.25
705.005	4.25
705.759	4.25
706.513	2.25
707.266	4.25
708.02	5.25
708.774	1.25
709.527	2.25
710.28	2.25
711.034	2.25
711.787	1.25
712.54	0.25
713.293	5.25
714.046	3.25
714.799	3.25
715.552	3.25
716.305	2.25
717.058	1.25
717.81	2.25
718.563	2.25
719.315	2.25
720.068	3.25
720.82	2.25
721.573	2.25
722.325	3.25
723.077	1.25
723.829	4.25
724.581	1.25
725.333	4.25
726.085	1.25
726.836	3.25
727.588	2.25
728.34	2.25
729.091	1.25
729.843	2.25
730.594	2.25
731.346	3.25
732.097	0.25
732.848	3.25
733.599	2.25
734.35	2.25
735.101	3.25
735.852	0.25
736.603	2.25
737.354	2.25
738.104	2.25
738.855	3.25
739.605	2.25
740.356	2.25
741.106	4.25
741.856	4.25
742.607	3.25
743.357	2.25
744.107	3.25
744.857	2.25
745.607	1.25
746.357	2.25
747.106	2.25
747.856	2.25
748.606	2.25
749.355	0.25
750.105	3.25
750.854	3.25
751.603	2.25
752.353	2.25
753.102	2.25
753.851	3.25
754.6	2.25
755.349	5.25
756.098	4.25
756.847	3.25
757.595	6.25
758.344	2.25
759.093	3.25
759.841	4.25
760.589	1.25
761.338	4.25
762.086	2.25
762.834	2.25
763.582	4.25
764.331	4.25
765.079	5.25
765.826	3.25
766.574	3.25
767.322	3.25
768.07	5.25
768.817	5.25
769.565	3.25
770.312	7.25
771.06	3.25
771.807	5.25
772.554	4.25
773.302	6.25
774.049	4.25
774.796	4.25
775.543	5.25
776.29	5.25
777.036	5.25
777.783	4.25
778.53	6.25
779.276	4.25
780.023	6.25
780.769	4.25
781.516	4.25
782.262	6.25
783.008	6.25
783.754	3.25
784.5	7.25
785.246	5.25
785.992	7.25
786.738	7.25
787.484	4.25
788.23	5.25
788.975	6.25
789.721	5.25
790.466	5.25
791.212	5.25
791.957	6.25
792.702	6.25
793.447	7.25
794.193	5.25
794.938	5.25
795.683	3.25
796.427	4.25
797.172	4.25
797.917	6.25
798.662	6.25
799.406	5.25
800.151	6.25
800.895	4.25
801.64	4.25
802.384	5.25
803.128	5.25
803.872	5.25
804.616	5.25
805.36	4.25
806.104	3.25
806.848	5.25
807.592	3.25
808.336	3.25
809.079	2.25
809.823	2.25
810.566	6.25
811.31	2.25
812.053	6.25
812.796	6.25
813.539	5.25
814.283	4.25
815.026	4.25
815.769	4.25
816.511	2.25
817.254	2.25
817.997	5.25
818.74	4.25
819.482	3.25
820.225	3.25
820.967	3.25
821.71	3.25
822.452	4.25
823.194	4.25
823.936	1.25
824.678	4.25
825.42	4.25
826.162	5.25
826.904	4.25
827.646	4.25
828.388	1.25
829.129	2.25
829.871	1.25
830.612	3.25
831.354	2.25
832.095	3.25
832.836	2.25
833.577	2.25
834.319	1.25
835.06	2.25
835.801	1.25
836.542	3.25
837.282	4.25
838.023	2.25
838.764	2.25
839.504	2.25
840.245	4.25
840.985	3.25
841.726	3.25
842.466	2.25
843.206	4.25
843.946	4.25
844.687	1.25
845.427	3.25
846.166	2.25
846.906	1.25
847.646	4.25
848.386	3.25
849.125	1.25
849.865	2.25
850.605	2.25
851.344	0.25
852.083	3.25
852.823	0.25
853.562	3.25
854.301	1.25
855.04	4.25
855.779	1.25
856.518	4.25
857.257	2.25
857.995	2.25
858.734	1.25
859.473	2.25
860.211	3.25
860.95	3.25
861.688	0.25
862.426	2.25
863.165	0.25
863.903	2.25
864.641	1.25
865.379	1.25
866.117	3.25
866.855	0.25
867.593	0.25
868.33	1.25
869.068	3.25
869.806	1.25
870.543	0.25
871.28	2.25
872.018	0.25
872.755	3.25
873.492	2.25
874.229	1.25
874.967	1.25
875.703	1.25
876.44	0.25
877.177	2.25
877.914	0.25
878.651	1.25
879.387	1.25
880.124	2.25
880.86	1.25
881.597	1.25
882.333	1.25
883.069	1.25
883.806	2.25
884.542	1.25
885.278	1.25
886.014	2.25
886.749	0.25
887.485	1.25
888.221	1.25
888.957	0.25
889.692	2.25
890.428	2.25
891.163	2.25
891.899	0.25
892.634	2.25
893.369	1.25
894.104	1.25
894.839	1.25
895.574	0.25
896.309	2.25
897.044	-0.75
897.779	0.25
898.514	-0.75
899.248	0.25
899.983	-1.75
900.717	-0.75
901.452	0.25
902.186	0.25
902.92	1.25
903.654	2.25
904.389	0.25
905.123	1.25
905.857	1.25
906.59	-0.75
907.324	2.25
908.058	0.25
908.792	0.25
909.525	1.25
910.259	-2.75
910.992	1.25
911.726	1.25
912.459	1.25
913.192	1.25
913.925	-1.75
914.658	1.25
915.391	-1.75
916.124	-0.75
916.857	0.25
917.59	0.25
918.323	-0.75
919.055	0.25
919.788	0.25
920.521	-1.75
921.253	2.25
921.985	0.25
922.718	1.25
923.45	4.25
924.182	0.25
924.914	1.25
925.646	3.25
926.378	0.25
927.11	0.25
927.841	-1.75
928.573	1.25
929.305	0.25
930.036	0.25
930.768	1.25
931.499	0.25
932.23	1.25
932.962	0.25
933.693	1.25
934.424	0.25
935.155	1.25
935.886	0.25
936.617	-0.75
937.348	0.25
938.078	-0.75
938.809	0.25
939.54	1.25
940.27	0.25
941.001	0.25
941.731	4.25
942.461	0.25
943.191	1.25
943.922	1.25
944.652	-1.75
945.382	1.25
946.112	-0.75
946.841	1.25
947.571	-0.75
948.301	0.25
949.031	0.25
949.76	-1.75
950.49	1.25
951.219	-0.75
951.948	0.25
952.678	1.25
953.407	0.25
954.136	1.25
954.865	0.25
955.594	1.25
956.323	2.25
957.052	-0.75
957.78	1.25
958.509	-0.75
959.238	2.25
959.966	2.25
960.695	1.25
961.423	-1.75
962.151	-0.75
962.88	1.25
963.608	1.25
964.336	0.25
965.064	-0.75
965.792	-0.75
966.52	2.25
967.247	2.25
967.975	-0.75
968.703	1.25
969.43	1.25
970.158	-0.75
970.885	-1.75
971.613	0.25
972.34	1.25
973.067	1.25
973.794	0.25
974.521	1.25
975.248	-0.75
975.975	0.25
976.702	0.25
977.429	0.25
978.156	1.25
978.882	-0.75
979.609	-0.75
980.335	1.25
981.062	0.25
981.788	-1.75
982.514	0.25
983.24	-0.75
983.967	-2.75
984.693	1.25
985.419	0.25
986.144	-0.75
986.87	0.25
987.596	0.25
988.322	1.25
989.047	-1.75
989.773	-1.75
990.498	2.25
991.224	1.25
991.949	0.25
992.674	1.25
993.399	2.25
994.124	2.25
994.849	0.25
995.574	-0.75
996.299	0.25
997.024	1.25
997.749	-0.75
998.473	0.25
999.198	-0.75
999.922	2.25
1000.647	0.25
1001.371	1.25
1002.095	0.25
1002.82	0.25
1003.544	-1.75
1004.268	0.25
1004.992	0.25
1005.716	0.25
1006.439	-1.75
1007.163	1.25
1007.887	1.25
1008.611	0.25
1009.334	-0.75
1010.058	0.25
1010.781	1.25
1011.504	-0.75
1012.228	-0.75
1012.951	-0.75
1013.674	0.25
1014.397	-1.75
1015.12	2.25
