节点500_145_QEPB04081__674__11-39-38-934.txt的数据

Date: Wed Nov 12 11:39:38 CST 2025
User: PC
Spectrometer: QEPB0408
触发模式: 0
积分时间 (秒): 1.000000E-2
Scans to average: 1
启用暗噪声校正: true
启用非线性校正: false
滑动平均宽度: 0
X轴模式: Wavelengths
Number of Pixels in Spectrum: 1044
>>>>>Begin Spectral Data<<<<<
220.843	-1
221.644	3
222.444	2
223.244	2
224.045	1
224.845	2
225.645	3
226.445	-1
227.245	0
228.045	1
228.845	3
229.645	2
230.444	1
231.244	2
232.043	-1
232.843	3
233.642	1
234.442	3
235.241	1
236.04	0
236.839	1
237.638	1
238.437	3
239.236	4
240.035	2
240.833	2
241.632	2
242.43	3
243.229	2
244.027	2
244.826	1
245.624	3
246.422	3
247.22	1
248.018	2
248.816	4
249.614	2
250.412	2
251.21	4
252.007	4
252.805	4
253.602	4
254.4	0
255.197	4
255.994	2
256.791	3
257.589	3
258.386	7
259.183	4
259.979	4
260.776	8
261.573	3
262.37	3
263.166	5
263.963	6
264.759	4
265.556	4
266.352	6
267.148	6
267.944	8
268.74	4
269.536	5
270.332	6
271.128	8
271.924	9
272.719	7
273.515	7
274.311	8
275.106	8
275.901	10
276.697	8
277.492	9
278.287	10
279.082	8
279.877	8
280.672	6
281.467	11
282.262	9
283.056	11
283.851	10
284.646	9
285.44	10
286.234	10
287.029	9
287.823	10
288.617	12
289.411	12
290.205	10
290.999	10
291.793	8
292.587	11
293.381	9
294.174	11
294.968	10
295.761	10
296.555	9
297.348	8
298.141	10
298.935	10
299.728	10
300.521	7
301.314	9
302.107	8
302.899	7
303.692	11
304.485	6
305.277	10
306.07	10
306.862	9
307.655	6
308.447	9
309.239	8
310.031	6
310.823	10
311.615	8
312.407	9
313.199	7
313.991	6
314.783	9
315.574	6
316.366	9
317.157	6
317.949	7
318.74	7
319.531	5
320.322	5
321.113	6
321.904	6
322.695	6
323.486	8
324.277	6
325.068	3
325.858	6
326.649	4
327.439	6
328.23	5
329.02	6
329.81	5
330.6	2
331.391	5
332.181	4
332.971	6
333.76	3
334.55	4
335.34	5
336.13	4
336.919	2
337.709	4
338.498	5
339.287	4
340.077	3
340.866	4
341.655	5
342.444	6
343.233	4
344.022	4
344.811	4
345.6	4
346.388	5
347.177	5
347.965	6
348.754	3
349.542	3
350.33	3
351.119	2
351.907	3
352.695	5
353.483	5
354.271	4
355.059	5
355.846	4
356.634	2
357.422	4
358.209	3
358.997	6
359.784	2
360.571	2
361.359	3
362.146	2
362.933	3
363.72	3
364.507	4
365.294	3
366.081	3
366.867	5
367.654	5
368.44	4
369.227	3
370.013	2
370.8	4
371.586	2
372.372	2
373.158	4
373.944	3
374.73	3
375.516	6
376.302	4
377.088	2
377.873	1
378.659	2
379.445	6
380.23	1
381.015	4
381.801	4
382.586	4
383.371	2
384.156	4
384.941	3
385.726	3
386.511	3
387.296	0
388.08	5
388.865	4
389.649	3
390.434	4
391.218	4
392.003	1
392.787	1
393.571	4
394.355	3
395.139	2
395.923	2
396.707	3
397.491	5
398.274	5
399.058	2
399.842	4
400.625	3
401.408	3
402.192	5
402.975	2
403.758	3
404.541	4
405.324	4
406.107	4
406.89	5
407.673	6
408.456	4
409.238	3
410.021	5
410.803	5
411.586	4
412.368	4
413.151	4
413.933	6
414.715	6
415.497	4
416.279	5
417.061	3
417.843	5
418.624	6
419.406	6
420.188	4
420.969	6
421.751	6
422.532	5
423.313	8
424.095	6
424.876	6
425.657	7
426.438	7
427.219	6
428	8
428.78	7
429.561	8
430.342	7
431.122	7
431.903	7
432.683	9
433.464	7
434.244	11
435.024	10
435.804	10
436.584	8
437.364	11
438.144	11
438.924	11
439.704	10
440.483	11
441.263	12
442.042	15
442.822	11
443.601	16
444.38	17
445.16	17
445.939	16
446.718	19
447.497	19
448.276	23
449.054	21
449.833	26
450.612	27
451.391	30
452.169	34
452.948	37
453.726	40
454.504	41
455.282	47
456.061	53
456.839	59
457.617	61
458.395	67
459.172	82
459.95	84
460.728	98
461.506	108
462.283	118
463.061	127
463.838	142
464.615	161
465.393	173
466.17	195
466.947	215
467.724	241
468.501	272
469.278	299
470.055	327
470.831	362
471.608	398
472.385	443
473.161	492
473.938	538
474.714	607
475.49	659
476.266	729
477.043	803
477.819	876
478.595	976
479.371	1058
480.146	1159
480.922	1271
481.698	1388
482.473	1537
483.249	1666
484.024	1826
484.8	2005
485.575	2168
486.35	2386
487.126	2610
487.901	2831
488.676	3094
489.451	3404
490.225	3713
491	4015
491.775	4415
492.55	4766
493.324	5178
494.099	5623
494.873	6119
495.647	6611
496.422	7224
497.196	7772
497.97	8335
498.744	8950
499.518	9586
500.292	10221
501.066	10810
501.839	11470
502.613	12080
503.387	12660
504.16	13219
504.934	13716
505.707	14111
506.48	14426
507.253	14721
508.027	14930
508.8	15037
509.573	15046
510.346	14989
511.118	14837
511.891	14568
512.664	14240
513.437	13926
514.209	13500
514.982	13075
515.754	12582
516.526	12133
517.298	11674
518.071	11143
518.843	10701
519.615	10274
520.387	9865
521.159	9440
521.93	9103
522.702	8685
523.474	8346
524.245	8094
525.017	7743
525.788	7456
526.56	7133
527.331	6873
528.102	6577
528.873	6283
529.644	6028
530.415	5764
531.186	5535
531.957	5267
532.728	4997
533.498	4736
534.269	4510
535.039	4283
535.81	4076
536.58	3845
537.351	3631
538.121	3437
538.891	3255
539.661	3081
540.431	2913
541.201	2758
541.971	2614
542.741	2465
543.51	2365
544.28	2226
545.05	2094
545.819	2015
546.588	1913
547.358	1821
548.127	1731
548.896	1631
549.665	1556
550.434	1486
551.203	1405
551.972	1337
552.741	1275
553.51	1199
554.278	1136
555.047	1075
555.815	1007
556.584	969
557.352	901
558.121	863
558.889	817
559.657	772
560.425	729
561.193	683
561.961	649
562.729	602
563.496	566
564.264	537
565.032	500
565.799	488
566.567	451
567.334	433
568.101	400
568.869	384
569.636	363
570.403	339
571.17	326
571.937	310
572.704	285
573.471	272
574.237	250
575.004	235
575.771	223
576.537	210
577.303	204
578.07	191
578.836	177
579.602	169
580.368	158
581.134	154
581.9	139
582.666	131
583.432	130
584.198	124
584.964	112
585.729	109
586.495	104
587.26	95
588.025	92
588.791	87
589.556	80
590.321	74
591.086	71
591.851	67
592.616	71
593.381	65
594.146	58
594.911	57
595.675	51
596.44	53
597.204	47
597.969	47
598.733	43
599.497	42
600.261	41
601.025	40
601.79	38
602.553	34
603.317	37
604.081	32
604.845	35
605.609	30
606.372	24
607.136	27
607.899	23
608.662	27
609.426	23
610.189	25
610.952	25
611.715	22
612.478	19
613.241	20
614.004	19
614.767	20
615.529	19
616.292	17
617.055	17
617.817	16
618.579	14
619.342	16
620.104	14
620.866	15
621.628	12
622.39	16
623.152	12
623.914	10
624.676	9
625.438	10
626.199	10
626.961	9
627.722	11
628.484	11
629.245	9
630.006	10
630.768	8
631.529	7
632.29	8
633.051	10
633.812	8
634.573	9
635.333	8
636.094	7
636.855	8
637.615	6
638.376	5
639.136	5
639.896	6
640.657	6
641.417	5
642.177	7
642.937	5
643.697	6
644.457	5
645.216	4
645.976	6
646.736	3
647.495	4
648.255	4
649.014	5
649.774	7
650.533	3
651.292	3
652.051	4
652.81	3
653.569	3
654.328	7
655.087	2
655.846	4
656.604	4
657.363	5
658.121	6
658.88	4
659.638	5
660.397	5
661.155	5
661.913	4
662.671	3
663.429	3
664.187	4
664.945	3
665.703	4
666.46	4
667.218	1
667.976	6
668.733	1
669.49	4
670.248	5
671.005	4
671.762	3
672.519	6
673.276	4
674.033	2
674.79	3
675.547	2
676.304	3
677.06	2
677.817	1
678.574	2
679.33	6
680.086	3
680.843	2
681.599	3
682.355	3
683.111	3
683.867	4
684.623	3
685.379	3
686.135	4
686.89	1
687.646	0
688.402	2
689.157	4
689.912	2
690.668	3
691.423	2
692.178	2
692.933	1
693.688	3
694.443	5
695.198	3
695.953	2
696.708	3
697.462	4
698.217	0
698.972	4
699.726	4
700.48	3
701.235	3
701.989	2
702.743	2
703.497	1
704.251	3
705.005	3
705.759	3
706.513	1
707.266	2
708.02	1
708.774	1
709.527	3
710.28	1
711.034	4
711.787	3
712.54	1
713.293	2
714.046	1
714.799	3
715.552	3
716.305	3
717.058	2
717.81	3
718.563	3
719.315	2
720.068	4
720.82	1
721.573	2
722.325	2
723.077	3
723.829	6
724.581	2
725.333	2
726.085	1
726.836	3
727.588	2
728.34	1
729.091	3
729.843	3
730.594	2
731.346	3
732.097	4
732.848	2
733.599	2
734.35	3
735.101	2
735.852	2
736.603	3
737.354	2
738.104	1
738.855	1
739.605	2
740.356	3
741.106	2
741.856	4
742.607	2
743.357	3
744.107	3
744.857	5
745.607	2
746.357	4
747.106	3
747.856	3
748.606	3
749.355	2
750.105	3
750.854	4
751.603	5
752.353	4
753.102	2
753.851	3
754.6	2
755.349	5
756.098	3
756.847	5
757.595	4
758.344	5
759.093	4
759.841	3
760.589	4
761.338	4
762.086	4
762.834	5
763.582	2
764.331	4
765.079	3
765.826	4
766.574	6
767.322	4
768.07	5
768.817	4
769.565	4
770.312	2
771.06	6
771.807	4
772.554	6
773.302	4
774.049	5
774.796	2
775.543	4
776.29	5
777.036	3
777.783	5
778.53	6
779.276	4
780.023	6
780.769	4
781.516	6
782.262	2
783.008	4
783.754	6
784.5	5
785.246	6
785.992	3
786.738	7
787.484	3
788.23	5
788.975	5
789.721	6
790.466	7
791.212	5
791.957	1
792.702	4
793.447	6
794.193	6
794.938	6
795.683	9
796.427	5
797.172	6
797.917	6
798.662	6
799.406	4
800.151	5
800.895	5
801.64	6
802.384	6
803.128	5
803.872	5
804.616	3
805.36	4
806.104	5
806.848	4
807.592	3
808.336	4
809.079	3
809.823	2
810.566	1
811.31	4
812.053	4
812.796	7
813.539	4
814.283	4
815.026	3
815.769	3
816.511	6
817.254	2
817.997	2
818.74	3
819.482	2
820.225	6
820.967	4
821.71	3
822.452	1
823.194	2
823.936	5
824.678	3
825.42	5
826.162	3
826.904	4
827.646	4
828.388	3
829.129	3
829.871	3
830.612	6
831.354	1
832.095	2
832.836	1
833.577	2
834.319	1
835.06	1
835.801	2
836.542	5
837.282	2
838.023	3
838.764	2
839.504	2
840.245	3
840.985	5
841.726	5
842.466	3
843.206	4
843.946	2
844.687	3
845.427	3
846.166	3
846.906	2
847.646	3
848.386	1
849.125	3
849.865	2
850.605	4
851.344	3
852.083	3
852.823	3
853.562	5
854.301	1
855.04	3
855.779	3
856.518	2
857.257	3
857.995	3
858.734	2
859.473	2
860.211	4
860.95	1
861.688	2
862.426	-1
863.165	4
863.903	4
864.641	1
865.379	2
866.117	3
866.855	3
867.593	3
868.33	1
869.068	2
869.806	1
870.543	1
871.28	2
872.018	3
872.755	2
873.492	2
874.229	0
874.967	1
875.703	4
876.44	1
877.177	1
877.914	2
878.651	3
879.387	1
880.124	3
880.86	0
881.597	-2
882.333	0
883.069	2
883.806	-1
884.542	1
885.278	0
886.014	0
886.749	3
887.485	4
888.221	2
888.957	2
889.692	2
890.428	0
891.163	3
891.899	-1
892.634	1
893.369	1
894.104	0
894.839	3
895.574	2
896.309	3
897.044	-1
897.779	0
898.514	2
899.248	0
899.983	2
900.717	-1
901.452	2
902.186	1
902.92	1
903.654	1
904.389	-2
905.123	1
905.857	1
906.59	2
907.324	3
908.058	4
908.792	2
909.525	2
910.259	1
910.992	0
911.726	1
912.459	2
913.192	1
913.925	1
914.658	1
915.391	1
916.124	0
916.857	4
917.59	1
918.323	3
919.055	0
919.788	1
920.521	3
921.253	2
921.985	0
922.718	1
923.45	1
924.182	3
924.914	-1
925.646	1
926.378	2
927.11	2
927.841	-1
928.573	2
929.305	1
930.036	1
930.768	2
931.499	0
932.23	1
932.962	2
933.693	1
934.424	2
935.155	2
935.886	-1
936.617	0
937.348	-1
938.078	2
938.809	0
939.54	1
940.27	0
941.001	1
941.731	2
942.461	-1
943.191	1
943.922	0
944.652	2
945.382	0
946.112	1
946.841	-2
947.571	1
948.301	0
949.031	-1
949.76	1
950.49	2
951.219	0
951.948	2
952.678	-1
953.407	0
954.136	0
954.865	1
955.594	0
956.323	0
957.052	-1
957.78	1
958.509	-1
959.238	1
959.966	1
960.695	1
961.423	0
962.151	0
962.88	0
963.608	0
964.336	2
965.064	0
965.792	3
966.52	4
967.247	4
967.975	2
968.703	-1
969.43	1
970.158	-1
970.885	1
971.613	-2
972.34	-1
973.067	1
973.794	1
974.521	-1
975.248	2
975.975	-1
976.702	2
977.429	2
978.156	0
978.882	2
979.609	0
980.335	0
981.062	-1
981.788	0
982.514	0
983.24	1
983.967	0
984.693	0
985.419	1
986.144	1
986.87	2
987.596	0
988.322	-1
989.047	0
989.773	1
990.498	0
991.224	2
991.949	0
992.674	1
993.399	2
994.124	0
994.849	-1
995.574	1
996.299	1
997.024	-2
997.749	0
998.473	2
999.198	0
999.922	-1
1000.647	0
1001.371	3
1002.095	-2
1002.82	-1
1003.544	-1
1004.268	1
1004.992	0
1005.716	0
1006.439	2
1007.163	-1
1007.887	-1
1008.611	-1
1009.334	3
1010.058	0
1010.781	2
1011.504	0
1012.228	1
1012.951	3
1013.674	-1
1014.397	0
1015.12	-1
