节点500_145_QEPB04081__24__11-29-19-808.txt的数据

Date: Wed Nov 12 11:29:19 CST 2025
User: PC
Spectrometer: QEPB0408
触发模式: 0
积分时间 (秒): 1.000000E-2
Scans to average: 1
启用暗噪声校正: true
启用非线性校正: false
滑动平均宽度: 0
X轴模式: Wavelengths
Number of Pixels in Spectrum: 1044
>>>>>Begin Spectral Data<<<<<
220.843	0
221.644	0
222.444	-3
223.244	-1
224.045	0
224.845	0
225.645	0
226.445	1
227.245	-1
228.045	-2
228.845	-2
229.645	0
230.444	1
231.244	2
232.043	0
232.843	1
233.642	3
234.442	2
235.241	1
236.04	-1
236.839	2
237.638	0
238.437	1
239.236	1
240.035	2
240.833	0
241.632	0
242.43	2
243.229	1
244.027	2
244.826	2
245.624	1
246.422	1
247.22	2
248.018	1
248.816	3
249.614	1
250.412	4
251.21	1
252.007	5
252.805	1
253.602	4
254.4	3
255.197	4
255.994	4
256.791	3
257.589	2
258.386	4
259.183	4
259.979	5
260.776	4
261.573	6
262.37	3
263.166	7
263.963	3
264.759	5
265.556	5
266.352	6
267.148	8
267.944	7
268.74	5
269.536	9
270.332	8
271.128	8
271.924	9
272.719	12
273.515	8
274.311	7
275.106	11
275.901	11
276.697	10
277.492	11
278.287	11
279.082	13
279.877	10
280.672	10
281.467	11
282.262	12
283.056	11
283.851	10
284.646	12
285.44	11
286.234	10
287.029	11
287.823	10
288.617	12
289.411	11
290.205	10
290.999	9
291.793	11
292.587	11
293.381	12
294.174	10
294.968	9
295.761	8
296.555	11
297.348	9
298.141	10
298.935	11
299.728	10
300.521	9
301.314	10
302.107	9
302.899	9
303.692	8
304.485	9
305.277	8
306.07	8
306.862	7
307.655	7
308.447	8
309.239	9
310.031	9
310.823	9
311.615	7
312.407	6
313.199	7
313.991	6
314.783	6
315.574	7
316.366	3
317.157	7
317.949	6
318.74	5
319.531	4
320.322	4
321.113	6
321.904	3
322.695	4
323.486	5
324.277	4
325.068	2
325.858	1
326.649	4
327.439	2
328.23	5
329.02	4
329.81	3
330.6	2
331.391	3
332.181	3
332.971	3
333.76	3
334.55	3
335.34	4
336.13	5
336.919	1
337.709	3
338.498	4
339.287	5
340.077	3
340.866	3
341.655	5
342.444	5
343.233	6
344.022	4
344.811	3
345.6	4
346.388	3
347.177	3
347.965	2
348.754	4
349.542	4
350.33	0
351.119	3
351.907	3
352.695	1
353.483	4
354.271	4
355.059	3
355.846	-1
356.634	3
357.422	4
358.209	3
358.997	3
359.784	3
360.571	4
361.359	2
362.146	3
362.933	3
363.72	3
364.507	3
365.294	3
366.081	3
366.867	2
367.654	3
368.44	3
369.227	2
370.013	5
370.8	2
371.586	1
372.372	2
373.158	2
373.944	1
374.73	3
375.516	5
376.302	3
377.088	3
377.873	3
378.659	1
379.445	4
380.23	-1
381.015	3
381.801	2
382.586	3
383.371	4
384.156	1
384.941	2
385.726	3
386.511	2
387.296	2
388.08	3
388.865	2
389.649	6
390.434	2
391.218	2
392.003	4
392.787	1
393.571	3
394.355	3
395.139	2
395.923	2
396.707	0
397.491	5
398.274	4
399.058	3
399.842	3
400.625	5
401.408	4
402.192	1
402.975	6
403.758	3
404.541	5
405.324	3
406.107	3
406.89	5
407.673	6
408.456	4
409.238	3
410.021	5
410.803	7
411.586	4
412.368	4
413.151	3
413.933	4
414.715	4
415.497	3
416.279	4
417.061	5
417.843	6
418.624	5
419.406	6
420.188	7
420.969	5
421.751	4
422.532	7
423.313	8
424.095	7
424.876	6
425.657	7
426.438	6
427.219	5
428	4
428.78	6
429.561	6
430.342	8
431.122	6
431.903	7
432.683	10
433.464	9
434.244	9
435.024	9
435.804	10
436.584	12
437.364	10
438.144	12
438.924	10
439.704	10
440.483	12
441.263	12
442.042	11
442.822	14
443.601	13
444.38	14
445.16	14
445.939	19
446.718	17
447.497	19
448.276	17
449.054	18
449.833	21
450.612	22
451.391	25
452.169	26
452.948	29
453.726	32
454.504	34
455.282	35
456.061	38
456.839	44
457.617	45
458.395	54
459.172	58
459.95	63
460.728	74
461.506	80
462.283	89
463.061	95
463.838	111
464.615	120
465.393	136
466.17	146
466.947	173
467.724	185
468.501	208
469.278	242
470.055	266
470.831	300
471.608	342
472.385	378
473.161	422
473.938	461
474.714	515
475.49	579
476.266	648
477.043	710
477.819	801
478.595	899
479.371	998
480.146	1106
480.922	1233
481.698	1370
482.473	1512
483.249	1687
484.024	1868
484.8	2070
485.575	2305
486.35	2565
487.126	2867
487.901	3178
488.676	3510
489.451	3912
490.225	4337
491	4765
491.775	5256
492.55	5824
493.324	6437
494.099	7086
494.873	7779
495.647	8504
496.422	9271
497.196	10016
497.97	10838
498.744	11671
499.518	12536
500.292	13313
501.066	14067
501.839	14866
502.613	15531
503.387	16145
504.16	16652
504.934	17053
505.707	17276
506.48	17491
507.253	17514
508.027	17442
508.8	17196
509.573	16967
510.346	16556
511.118	16089
511.891	15474
512.664	14885
513.437	14279
514.209	13679
514.982	13044
515.754	12407
516.526	11886
517.298	11324
518.071	10778
518.843	10277
519.615	9894
520.387	9479
521.159	9061
521.93	8733
522.702	8436
523.474	8056
524.245	7762
525.017	7433
525.788	7150
526.56	6861
527.331	6547
528.102	6252
528.873	5950
529.644	5652
530.415	5376
531.186	5129
531.957	4869
532.728	4579
533.498	4305
534.269	4069
535.039	3859
535.81	3609
536.58	3426
537.351	3203
538.121	3037
538.891	2870
539.661	2705
540.431	2556
541.201	2410
541.971	2299
542.741	2187
543.51	2066
544.28	1977
545.05	1868
545.819	1780
546.588	1685
547.358	1593
548.127	1533
548.896	1452
549.665	1376
550.434	1306
551.203	1232
551.972	1164
552.741	1119
553.51	1045
554.278	990
555.047	931
555.815	880
556.584	821
557.352	777
558.121	725
558.889	690
559.657	648
560.425	609
561.193	576
561.961	550
562.729	512
563.496	486
564.264	450
565.032	430
565.799	403
566.567	381
567.334	361
568.101	336
568.869	322
569.636	309
570.403	290
571.17	274
571.937	260
572.704	236
573.471	235
574.237	213
575.004	204
575.771	188
576.537	181
577.303	169
578.07	161
578.836	145
579.602	137
580.368	133
581.134	125
581.9	119
582.666	111
583.432	103
584.198	101
584.964	97
585.729	90
586.495	85
587.26	75
588.025	76
588.791	67
589.556	70
590.321	67
591.086	63
591.851	57
592.616	54
593.381	51
594.146	46
594.911	46
595.675	43
596.44	46
597.204	42
597.969	38
598.733	37
599.497	34
600.261	34
601.025	30
601.79	33
602.553	31
603.317	26
604.081	27
604.845	25
605.609	24
606.372	24
607.136	25
607.899	21
608.662	21
609.426	22
610.189	20
610.952	18
611.715	18
612.478	19
613.241	17
614.004	15
614.767	16
615.529	14
616.292	14
617.055	14
617.817	12
618.579	11
619.342	13
620.104	13
620.866	10
621.628	10
622.39	11
623.152	8
623.914	7
624.676	9
625.438	10
626.199	8
626.961	6
627.722	9
628.484	10
629.245	8
630.006	7
630.768	9
631.529	6
632.29	8
633.051	8
633.812	8
634.573	7
635.333	5
636.094	5
636.855	3
637.615	6
638.376	4
639.136	5
639.896	3
640.657	3
641.417	5
642.177	5
642.937	2
643.697	5
644.457	6
645.216	3
645.976	2
646.736	4
647.495	4
648.255	7
649.014	5
649.774	4
650.533	4
651.292	4
652.051	5
652.81	6
653.569	5
654.328	2
655.087	3
655.846	4
656.604	3
657.363	4
658.121	4
658.88	3
659.638	4
660.397	5
661.155	5
661.913	2
662.671	3
663.429	2
664.187	2
664.945	2
665.703	4
666.46	3
667.218	2
667.976	1
668.733	3
669.49	1
670.248	2
671.005	2
671.762	3
672.519	4
673.276	3
674.033	2
674.79	2
675.547	4
676.304	2
677.06	2
677.817	2
678.574	5
679.33	3
680.086	3
680.843	4
681.599	2
682.355	4
683.111	4
683.867	2
684.623	4
685.379	3
686.135	2
686.89	2
687.646	2
688.402	4
689.157	2
689.912	2
690.668	0
691.423	1
692.178	4
692.933	1
693.688	2
694.443	4
695.198	2
695.953	1
696.708	2
697.462	2
698.217	1
698.972	1
699.726	4
700.48	2
701.235	1
701.989	3
702.743	1
703.497	2
704.251	1
705.005	2
705.759	3
706.513	2
707.266	3
708.02	-1
708.774	1
709.527	5
710.28	1
711.034	2
711.787	2
712.54	1
713.293	1
714.046	2
714.799	3
715.552	1
716.305	5
717.058	1
717.81	3
718.563	3
719.315	2
720.068	3
720.82	3
721.573	2
722.325	2
723.077	2
723.829	1
724.581	1
725.333	4
726.085	3
726.836	3
727.588	2
728.34	2
729.091	-1
729.843	1
730.594	2
731.346	1
732.097	0
732.848	3
733.599	4
734.35	1
735.101	1
735.852	4
736.603	3
737.354	3
738.104	3
738.855	1
739.605	2
740.356	2
741.106	2
741.856	3
742.607	4
743.357	2
744.107	2
744.857	4
745.607	3
746.357	2
747.106	5
747.856	2
748.606	4
749.355	1
750.105	2
750.854	2
751.603	4
752.353	1
753.102	3
753.851	3
754.6	4
755.349	6
756.098	3
756.847	3
757.595	4
758.344	3
759.093	4
759.841	3
760.589	4
761.338	4
762.086	2
762.834	2
763.582	4
764.331	5
765.079	2
765.826	5
766.574	5
767.322	4
768.07	3
768.817	2
769.565	4
770.312	5
771.06	6
771.807	5
772.554	6
773.302	2
774.049	5
774.796	7
775.543	4
776.29	6
777.036	6
777.783	7
778.53	5
779.276	3
780.023	7
780.769	5
781.516	6
782.262	7
783.008	4
783.754	7
784.5	3
785.246	4
785.992	4
786.738	5
787.484	8
788.23	6
788.975	5
789.721	6
790.466	8
791.212	3
791.957	5
792.702	6
793.447	7
794.193	4
794.938	4
795.683	7
796.427	5
797.172	4
797.917	4
798.662	5
799.406	4
800.151	6
800.895	6
801.64	5
802.384	5
803.128	5
803.872	5
804.616	6
805.36	3
806.104	5
806.848	5
807.592	4
808.336	6
809.079	2
809.823	6
810.566	2
811.31	5
812.053	2
812.796	5
813.539	2
814.283	2
815.026	6
815.769	4
816.511	5
817.254	3
817.997	2
818.74	3
819.482	5
820.225	3
820.967	2
821.71	2
822.452	6
823.194	1
823.936	3
824.678	1
825.42	2
826.162	2
826.904	3
827.646	4
828.388	3
829.129	2
829.871	2
830.612	3
831.354	4
832.095	1
832.836	3
833.577	4
834.319	0
835.06	1
835.801	2
836.542	1
837.282	1
838.023	0
838.764	0
839.504	4
840.245	2
840.985	1
841.726	-1
842.466	3
843.206	1
843.946	0
844.687	4
845.427	3
846.166	1
846.906	1
847.646	3
848.386	3
849.125	3
849.865	3
850.605	2
851.344	0
852.083	1
852.823	2
853.562	1
854.301	1
855.04	4
855.779	2
856.518	1
857.257	1
857.995	0
858.734	3
859.473	2
860.211	2
860.95	1
861.688	1
862.426	1
863.165	2
863.903	4
864.641	3
865.379	1
866.117	2
866.855	0
867.593	0
868.33	1
869.068	0
869.806	-1
870.543	2
871.28	2
872.018	0
872.755	2
873.492	-2
874.229	1
874.967	0
875.703	0
876.44	2
877.177	1
877.914	2
878.651	0
879.387	0
880.124	0
880.86	3
881.597	3
882.333	1
883.069	-2
883.806	-2
884.542	2
885.278	-2
886.014	2
886.749	-1
887.485	-2
888.221	2
888.957	-1
889.692	0
890.428	0
891.163	-1
891.899	1
892.634	0
893.369	1
894.104	-2
894.839	1
895.574	3
896.309	2
897.044	-2
897.779	1
898.514	1
899.248	0
899.983	0
900.717	0
901.452	1
902.186	2
902.92	0
903.654	1
904.389	0
905.123	2
905.857	0
906.59	0
907.324	-1
908.058	-2
908.792	1
909.525	-2
910.259	1
910.992	0
911.726	-2
912.459	-1
913.192	-1
913.925	1
914.658	1
915.391	2
916.124	1
916.857	1
917.59	1
918.323	1
919.055	2
919.788	2
920.521	-1
921.253	-2
921.985	-2
922.718	1
923.45	0
924.182	1
924.914	0
925.646	-2
926.378	0
927.11	-1
927.841	0
928.573	0
929.305	-1
930.036	1
930.768	0
931.499	0
932.23	1
932.962	0
933.693	-1
934.424	0
935.155	0
935.886	0
936.617	-1
937.348	0
938.078	-1
938.809	-1
939.54	0
940.27	2
941.001	0
941.731	-3
942.461	1
943.191	1
943.922	1
944.652	1
945.382	0
946.112	1
946.841	2
947.571	0
948.301	-1
949.031	1
949.76	0
950.49	2
951.219	1
951.948	0
952.678	0
953.407	-1
954.136	1
954.865	0
955.594	1
956.323	0
957.052	1
957.78	1
958.509	1
959.238	1
959.966	-1
960.695	1
961.423	0
962.151	0
962.88	0
963.608	2
964.336	-3
965.064	-2
965.792	1
966.52	1
967.247	1
967.975	-2
968.703	-1
969.43	1
970.158	0
970.885	1
971.613	-1
972.34	1
973.067	1
973.794	1
974.521	0
975.248	-1
975.975	0
976.702	0
977.429	1
978.156	0
978.882	0
979.609	1
980.335	-1
981.062	0
981.788	0
982.514	-3
983.24	0
983.967	-3
984.693	0
985.419	-2
986.144	1
986.87	1
987.596	1
988.322	-2
989.047	-1
989.773	2
990.498	-2
991.224	-2
991.949	0
992.674	2
993.399	0
994.124	-2
994.849	1
995.574	1
996.299	2
997.024	1
997.749	-1
998.473	0
999.198	1
999.922	1
1000.647	0
1001.371	2
1002.095	-2
1002.82	1
1003.544	-1
1004.268	1
1004.992	2
1005.716	-2
1006.439	-2
1007.163	-1
1007.887	1
1008.611	0
1009.334	-1
1010.058	-1
1010.781	1
1011.504	-1
1012.228	-1
1012.951	-2
1013.674	2
1014.397	0
1015.12	0
