节点500_145_QEPB04081__241__11-32-50-461.txt的数据

Date: Wed Nov 12 11:32:50 CST 2025
User: PC
Spectrometer: QEPB0408
触发模式: 0
积分时间 (秒): 1.000000E-2
Scans to average: 1
启用暗噪声校正: true
启用非线性校正: false
滑动平均宽度: 0
X轴模式: Wavelengths
Number of Pixels in Spectrum: 1044
>>>>>Begin Spectral Data<<<<<
220.843	2.38
221.644	-0.62
222.444	0.38
223.244	0.38
224.045	2.38
224.845	1.38
225.645	1.38
226.445	2.38
227.245	-0.62
228.045	0.38
228.845	0.38
229.645	0.38
230.444	-0.62
231.244	-1.62
232.043	2.38
232.843	0.38
233.642	3.38
234.442	0.38
235.241	-0.62
236.04	1.38
236.839	0.38
237.638	1.38
238.437	3.38
239.236	1.38
240.035	-0.62
240.833	2.38
241.632	0.38
242.43	-0.62
243.229	1.38
244.027	0.38
244.826	2.38
245.624	1.38
246.422	3.38
247.22	2.38
248.018	0.38
248.816	2.38
249.614	1.38
250.412	3.38
251.21	2.38
252.007	2.38
252.805	1.38
253.602	3.38
254.4	3.38
255.197	2.38
255.994	3.38
256.791	4.38
257.589	1.38
258.386	4.38
259.183	2.38
259.979	3.38
260.776	5.38
261.573	3.38
262.37	4.38
263.166	5.38
263.963	4.38
264.759	5.38
265.556	4.38
266.352	5.38
267.148	5.38
267.944	5.38
268.74	9.38
269.536	6.38
270.332	7.38
271.128	8.38
271.924	8.38
272.719	7.38
273.515	11.38
274.311	7.38
275.106	8.38
275.901	8.38
276.697	9.38
277.492	7.38
278.287	7.38
279.082	10.38
279.877	11.38
280.672	11.38
281.467	8.38
282.262	12.38
283.056	11.38
283.851	9.38
284.646	12.38
285.44	7.38
286.234	11.38
287.029	10.38
287.823	13.38
288.617	11.38
289.411	10.38
290.205	10.38
290.999	11.38
291.793	14.38
292.587	10.38
293.381	10.38
294.174	10.38
294.968	9.38
295.761	10.38
296.555	7.38
297.348	11.38
298.141	7.38
298.935	11.38
299.728	8.38
300.521	7.38
301.314	6.38
302.107	10.38
302.899	9.38
303.692	7.38
304.485	10.38
305.277	9.38
306.07	6.38
306.862	10.38
307.655	7.38
308.447	8.38
309.239	10.38
310.031	7.38
310.823	7.38
311.615	7.38
312.407	6.38
313.199	8.38
313.991	7.38
314.783	5.38
315.574	2.38
316.366	7.38
317.157	4.38
317.949	5.38
318.74	7.38
319.531	5.38
320.322	3.38
321.113	3.38
321.904	4.38
322.695	4.38
323.486	4.38
324.277	6.38
325.068	2.38
325.858	4.38
326.649	5.38
327.439	4.38
328.23	4.38
329.02	4.38
329.81	2.38
330.6	2.38
331.391	4.38
332.181	7.38
332.971	6.38
333.76	4.38
334.55	5.38
335.34	5.38
336.13	3.38
336.919	4.38
337.709	4.38
338.498	3.38
339.287	2.38
340.077	5.38
340.866	4.38
341.655	3.38
342.444	6.38
343.233	3.38
344.022	4.38
344.811	0.38
345.6	2.38
346.388	4.38
347.177	3.38
347.965	4.38
348.754	1.38
349.542	5.38
350.33	1.38
351.119	4.38
351.907	4.38
352.695	1.38
353.483	2.38
354.271	3.38
355.059	5.38
355.846	3.38
356.634	2.38
357.422	3.38
358.209	1.38
358.997	5.38
359.784	0.38
360.571	1.38
361.359	3.38
362.146	2.38
362.933	3.38
363.72	2.38
364.507	4.38
365.294	3.38
366.081	4.38
366.867	2.38
367.654	2.38
368.44	3.38
369.227	2.38
370.013	3.38
370.8	1.38
371.586	4.38
372.372	2.38
373.158	5.38
373.944	1.38
374.73	1.38
375.516	2.38
376.302	4.38
377.088	2.38
377.873	3.38
378.659	3.38
379.445	2.38
380.23	0.38
381.015	1.38
381.801	1.38
382.586	4.38
383.371	1.38
384.156	1.38
384.941	2.38
385.726	1.38
386.511	2.38
387.296	1.38
388.08	3.38
388.865	0.38
389.649	1.38
390.434	2.38
391.218	4.38
392.003	4.38
392.787	3.38
393.571	4.38
394.355	1.38
395.139	3.38
395.923	4.38
396.707	7.38
397.491	3.38
398.274	2.38
399.058	2.38
399.842	5.38
400.625	2.38
401.408	2.38
402.192	3.38
402.975	3.38
403.758	4.38
404.541	2.38
405.324	1.38
406.107	2.38
406.89	2.38
407.673	3.38
408.456	5.38
409.238	4.38
410.021	3.38
410.803	2.38
411.586	2.38
412.368	3.38
413.151	3.38
413.933	5.38
414.715	4.38
415.497	2.38
416.279	5.38
417.061	6.38
417.843	5.38
418.624	6.38
419.406	5.38
420.188	5.38
420.969	6.38
421.751	5.38
422.532	7.38
423.313	4.38
424.095	3.38
424.876	5.38
425.657	6.38
426.438	7.38
427.219	6.38
428	9.38
428.78	6.38
429.561	5.38
430.342	5.38
431.122	7.38
431.903	7.38
432.683	7.38
433.464	6.38
434.244	9.38
435.024	9.38
435.804	10.38
436.584	8.38
437.364	10.38
438.144	9.38
438.924	9.38
439.704	11.38
440.483	9.38
441.263	12.38
442.042	13.38
442.822	13.38
443.601	14.38
444.38	16.38
445.16	17.38
445.939	17.38
446.718	19.38
447.497	19.38
448.276	21.38
449.054	25.38
449.833	23.38
450.612	26.38
451.391	25.38
452.169	31.38
452.948	31.38
453.726	30.38
454.504	38.38
455.282	40.38
456.061	47.38
456.839	43.38
457.617	54.38
458.395	59.38
459.172	64.38
459.95	72.38
460.728	77.38
461.506	86.38
462.283	100.38
463.061	113.38
463.838	128.38
464.615	138.38
465.393	150.38
466.17	170.38
466.947	184.38
467.724	211.38
468.501	234.38
469.278	261.38
470.055	290.38
470.831	322.38
471.608	357.38
472.385	398.38
473.161	447.38
473.938	503.38
474.714	554.38
475.49	614.38
476.266	694.38
477.043	747.38
477.819	832.38
478.595	933.38
479.371	1021.38
480.146	1148.38
480.922	1250.38
481.698	1405.38
482.473	1543.38
483.249	1703.38
484.024	1862.38
484.8	2076.38
485.575	2312.38
486.35	2531.38
487.126	2799.38
487.901	3067.38
488.676	3408.38
489.451	3757.38
490.225	4121.38
491	4560.38
491.775	4994.38
492.55	5450.38
493.324	6031.38
494.099	6561.38
494.873	7191.38
495.647	7817.38
496.422	8517.38
497.196	9221.38
497.97	9974.38
498.744	10707.38
499.518	11464.38
500.292	12221.38
501.066	12892.38
501.839	13620.38
502.613	14329.38
503.387	14948.38
504.16	15537.38
504.934	15945.38
505.707	16289.38
506.48	16538.38
507.253	16709.38
508.027	16717.38
508.8	16620.38
509.573	16421.38
510.346	16175.38
511.118	15785.38
511.891	15377.38
512.664	14880.38
513.437	14297.38
514.209	13760.38
514.982	13241.38
515.754	12650.38
516.526	12105.38
517.298	11604.38
518.071	11045.38
518.843	10586.38
519.615	10102.38
520.387	9733.38
521.159	9289.38
521.93	8930.38
522.702	8592.38
523.474	8266.38
524.245	7921.38
525.017	7617.38
525.788	7322.38
526.56	7018.38
527.331	6696.38
528.102	6416.38
528.873	6127.38
529.644	5840.38
530.415	5607.38
531.186	5303.38
531.957	5056.38
532.728	4775.38
533.498	4519.38
534.269	4263.38
535.039	4026.38
535.81	3808.38
536.58	3607.38
537.351	3385.38
538.121	3208.38
538.891	3029.38
539.661	2857.38
540.431	2709.38
541.201	2581.38
541.971	2448.38
542.741	2287.38
543.51	2184.38
544.28	2067.38
545.05	1969.38
545.819	1882.38
546.588	1780.38
547.358	1694.38
548.127	1613.38
548.896	1527.38
549.665	1448.38
550.434	1386.38
551.203	1298.38
551.972	1232.38
552.741	1167.38
553.51	1105.38
554.278	1056.38
555.047	985.38
555.815	943.38
556.584	877.38
557.352	833.38
558.121	785.38
558.889	743.38
559.657	701.38
560.425	652.38
561.193	614.38
561.961	571.38
562.729	556.38
563.496	515.38
564.264	489.38
565.032	465.38
565.799	433.38
566.567	413.38
567.334	392.38
568.101	367.38
568.869	349.38
569.636	324.38
570.403	309.38
571.17	291.38
571.937	275.38
572.704	262.38
573.471	240.38
574.237	227.38
575.004	217.38
575.771	203.38
576.537	188.38
577.303	181.38
578.07	170.38
578.836	159.38
579.602	149.38
580.368	140.38
581.134	138.38
581.9	131.38
582.666	117.38
583.432	112.38
584.198	111.38
584.964	102.38
585.729	100.38
586.495	90.38
587.26	84.38
588.025	83.38
588.791	80.38
589.556	69.38
590.321	70.38
591.086	62.38
591.851	64.38
592.616	59.38
593.381	53.38
594.146	54.38
594.911	50.38
595.675	47.38
596.44	49.38
597.204	45.38
597.969	42.38
598.733	38.38
599.497	36.38
600.261	35.38
601.025	35.38
601.79	36.38
602.553	33.38
603.317	26.38
604.081	27.38
604.845	29.38
605.609	26.38
606.372	26.38
607.136	21.38
607.899	22.38
608.662	23.38
609.426	19.38
610.189	24.38
610.952	17.38
611.715	19.38
612.478	17.38
613.241	17.38
614.004	14.38
614.767	14.38
615.529	17.38
616.292	16.38
617.055	13.38
617.817	14.38
618.579	10.38
619.342	14.38
620.104	13.38
620.866	9.38
621.628	13.38
622.39	10.38
623.152	14.38
623.914	12.38
624.676	11.38
625.438	9.38
626.199	11.38
626.961	9.38
627.722	9.38
628.484	8.38
629.245	9.38
630.006	8.38
630.768	6.38
631.529	9.38
632.29	6.38
633.051	4.38
633.812	3.38
634.573	6.38
635.333	6.38
636.094	5.38
636.855	7.38
637.615	5.38
638.376	6.38
639.136	6.38
639.896	3.38
640.657	7.38
641.417	4.38
642.177	6.38
642.937	5.38
643.697	3.38
644.457	2.38
645.216	3.38
645.976	7.38
646.736	4.38
647.495	4.38
648.255	5.38
649.014	2.38
649.774	2.38
650.533	4.38
651.292	4.38
652.051	3.38
652.81	3.38
653.569	4.38
654.328	3.38
655.087	4.38
655.846	4.38
656.604	6.38
657.363	3.38
658.121	4.38
658.88	2.38
659.638	3.38
660.397	2.38
661.155	2.38
661.913	5.38
662.671	0.38
663.429	3.38
664.187	5.38
664.945	3.38
665.703	2.38
666.46	3.38
667.218	2.38
667.976	2.38
668.733	2.38
669.49	3.38
670.248	1.38
671.005	2.38
671.762	1.38
672.519	3.38
673.276	4.38
674.033	3.38
674.79	1.38
675.547	3.38
676.304	2.38
677.06	2.38
677.817	3.38
678.574	1.38
679.33	0.38
680.086	2.38
680.843	1.38
681.599	3.38
682.355	0.38
683.111	3.38
683.867	2.38
684.623	2.38
685.379	1.38
686.135	1.38
686.89	4.38
687.646	3.38
688.402	1.38
689.157	2.38
689.912	1.38
690.668	2.38
691.423	1.38
692.178	1.38
692.933	2.38
693.688	0.38
694.443	0.38
695.198	0.38
695.953	0.38
696.708	1.38
697.462	4.38
698.217	1.38
698.972	2.38
699.726	4.38
700.48	2.38
701.235	1.38
701.989	1.38
702.743	4.38
703.497	3.38
704.251	1.38
705.005	0.38
705.759	2.38
706.513	2.38
707.266	2.38
708.02	3.38
708.774	0.38
709.527	1.38
710.28	2.38
711.034	2.38
711.787	3.38
712.54	2.38
713.293	3.38
714.046	0.38
714.799	2.38
715.552	0.38
716.305	2.38
717.058	4.38
717.81	1.38
718.563	2.38
719.315	1.38
720.068	0.38
720.82	3.38
721.573	1.38
722.325	3.38
723.077	1.38
723.829	0.38
724.581	1.38
725.333	2.38
726.085	1.38
726.836	2.38
727.588	2.38
728.34	1.38
729.091	2.38
729.843	2.38
730.594	2.38
731.346	1.38
732.097	2.38
732.848	3.38
733.599	1.38
734.35	1.38
735.101	2.38
735.852	2.38
736.603	2.38
737.354	2.38
738.104	1.38
738.855	3.38
739.605	2.38
740.356	4.38
741.106	2.38
741.856	3.38
742.607	2.38
743.357	0.38
744.107	4.38
744.857	1.38
745.607	5.38
746.357	3.38
747.106	2.38
747.856	2.38
748.606	4.38
749.355	1.38
750.105	2.38
750.854	3.38
751.603	3.38
752.353	2.38
753.102	5.38
753.851	2.38
754.6	2.38
755.349	2.38
756.098	2.38
756.847	2.38
757.595	3.38
758.344	1.38
759.093	2.38
759.841	4.38
760.589	2.38
761.338	5.38
762.086	0.38
762.834	4.38
763.582	1.38
764.331	5.38
765.079	4.38
765.826	5.38
766.574	4.38
767.322	3.38
768.07	2.38
768.817	2.38
769.565	4.38
770.312	3.38
771.06	3.38
771.807	2.38
772.554	3.38
773.302	6.38
774.049	5.38
774.796	6.38
775.543	5.38
776.29	5.38
777.036	5.38
777.783	4.38
778.53	4.38
779.276	6.38
780.023	5.38
780.769	6.38
781.516	2.38
782.262	5.38
783.008	7.38
783.754	6.38
784.5	3.38
785.246	7.38
785.992	5.38
786.738	3.38
787.484	5.38
788.23	4.38
788.975	6.38
789.721	3.38
790.466	5.38
791.212	3.38
791.957	6.38
792.702	6.38
793.447	3.38
794.193	7.38
794.938	4.38
795.683	5.38
796.427	5.38
797.172	4.38
797.917	5.38
798.662	4.38
799.406	4.38
800.151	4.38
800.895	3.38
801.64	4.38
802.384	1.38
803.128	5.38
803.872	3.38
804.616	3.38
805.36	5.38
806.104	3.38
806.848	6.38
807.592	4.38
808.336	3.38
809.079	5.38
809.823	6.38
810.566	4.38
811.31	4.38
812.053	1.38
812.796	5.38
813.539	3.38
814.283	2.38
815.026	2.38
815.769	3.38
816.511	3.38
817.254	2.38
817.997	4.38
818.74	4.38
819.482	3.38
820.225	6.38
820.967	4.38
821.71	5.38
822.452	3.38
823.194	3.38
823.936	5.38
824.678	3.38
825.42	3.38
826.162	3.38
826.904	3.38
827.646	1.38
828.388	1.38
829.129	5.38
829.871	1.38
830.612	3.38
831.354	5.38
832.095	2.38
832.836	3.38
833.577	0.38
834.319	2.38
835.06	0.38
835.801	2.38
836.542	3.38
837.282	2.38
838.023	2.38
838.764	4.38
839.504	3.38
840.245	3.38
840.985	2.38
841.726	0.38
842.466	2.38
843.206	1.38
843.946	1.38
844.687	2.38
845.427	0.38
846.166	0.38
846.906	1.38
847.646	1.38
848.386	1.38
849.125	2.38
849.865	3.38
850.605	2.38
851.344	1.38
852.083	3.38
852.823	2.38
853.562	1.38
854.301	2.38
855.04	4.38
855.779	2.38
856.518	1.38
857.257	2.38
857.995	3.38
858.734	5.38
859.473	0.38
860.211	0.38
860.95	0.38
861.688	1.38
862.426	1.38
863.165	1.38
863.903	2.38
864.641	0.38
865.379	2.38
866.117	2.38
866.855	2.38
867.593	1.38
868.33	0.38
869.068	0.38
869.806	1.38
870.543	4.38
871.28	1.38
872.018	1.38
872.755	2.38
873.492	1.38
874.229	2.38
874.967	2.38
875.703	1.38
876.44	1.38
877.177	0.38
877.914	2.38
878.651	0.38
879.387	1.38
880.124	0.38
880.86	-0.62
881.597	-0.62
882.333	-0.62
883.069	-0.62
883.806	1.38
884.542	0.38
885.278	0.38
886.014	1.38
886.749	1.38
887.485	0.38
888.221	0.38
888.957	0.38
889.692	-0.62
890.428	1.38
891.163	2.38
891.899	3.38
892.634	-1.62
893.369	-1.62
894.104	2.38
894.839	-0.62
895.574	0.38
896.309	0.38
897.044	1.38
897.779	1.38
898.514	2.38
899.248	1.38
899.983	1.38
900.717	0.38
901.452	-1.62
902.186	1.38
902.92	0.38
903.654	1.38
904.389	-0.62
905.123	1.38
905.857	1.38
906.59	2.38
907.324	-0.62
908.058	-1.62
908.792	2.38
909.525	-0.62
910.259	-1.62
910.992	1.38
911.726	-1.62
912.459	-0.62
913.192	0.38
913.925	3.38
914.658	2.38
915.391	1.38
916.124	-1.62
916.857	2.38
917.59	1.38
918.323	0.38
919.055	1.38
919.788	1.38
920.521	0.38
921.253	0.38
921.985	-1.62
922.718	1.38
923.45	-3.62
924.182	0.38
924.914	0.38
925.646	0.38
926.378	0.38
927.11	0.38
927.841	1.38
928.573	0.38
929.305	-0.62
930.036	0.38
930.768	1.38
931.499	0.38
932.23	2.38
932.962	0.38
933.693	-1.62
934.424	-0.62
935.155	1.38
935.886	0.38
936.617	-0.62
937.348	1.38
938.078	0.38
938.809	0.38
939.54	2.38
940.27	-2.62
941.001	0.38
941.731	1.38
942.461	0.38
943.191	0.38
943.922	0.38
944.652	1.38
945.382	-1.62
946.112	1.38
946.841	0.38
947.571	-0.62
948.301	2.38
949.031	-1.62
949.76	0.38
950.49	1.38
951.219	0.38
951.948	1.38
952.678	-1.62
953.407	2.38
954.136	0.38
954.865	2.38
955.594	3.38
956.323	-0.62
957.052	-1.62
957.78	1.38
958.509	0.38
959.238	-0.62
959.966	1.38
960.695	-1.62
961.423	-0.62
962.151	1.38
962.88	-0.62
963.608	0.38
964.336	-0.62
965.064	1.38
965.792	0.38
966.52	0.38
967.247	-0.62
967.975	0.38
968.703	0.38
969.43	-0.62
970.158	1.38
970.885	0.38
971.613	0.38
972.34	1.38
973.067	1.38
973.794	1.38
974.521	-1.62
975.248	-0.62
975.975	-1.62
976.702	0.38
977.429	1.38
978.156	-1.62
978.882	0.38
979.609	-1.62
980.335	0.38
981.062	0.38
981.788	-1.62
982.514	0.38
983.24	-1.62
983.967	0.38
984.693	0.38
985.419	1.38
986.144	0.38
986.87	-1.62
987.596	2.38
988.322	0.38
989.047	0.38
989.773	2.38
990.498	0.38
991.224	1.38
991.949	-0.62
992.674	-1.62
993.399	-0.62
994.124	1.38
994.849	0.38
995.574	1.38
996.299	0.38
997.024	-0.62
997.749	0.38
998.473	1.38
999.198	2.38
999.922	1.38
1000.647	2.38
1001.371	3.38
1002.095	-0.62
1002.82	-1.62
1003.544	0.38
1004.268	1.38
1004.992	0.38
1005.716	-2.62
1006.439	1.38
1007.163	-0.62
1007.887	-1.62
1008.611	0.38
1009.334	1.38
1010.058	2.38
1010.781	0.38
1011.504	-0.62
1012.228	1.38
1012.951	-1.62
1013.674	1.38
1014.397	-0.62
1015.12	-0.62
