节点500_145_QEPB04081__650__11-39-16-123.txt的数据

Date: Wed Nov 12 11:39:16 CST 2025
User: PC
Spectrometer: QEPB0408
触发模式: 0
积分时间 (秒): 1.000000E-2
Scans to average: 1
启用暗噪声校正: true
启用非线性校正: false
滑动平均宽度: 0
X轴模式: Wavelengths
Number of Pixels in Spectrum: 1044
>>>>>Begin Spectral Data<<<<<
220.843	0.62
221.644	1.62
222.444	-0.38
223.244	-1.38
224.045	0.62
224.845	0.62
225.645	2.62
226.445	1.62
227.245	0.62
228.045	1.62
228.845	-1.38
229.645	0.62
230.444	-0.38
231.244	0.62
232.043	-1.38
232.843	-0.38
233.642	-0.38
234.442	1.62
235.241	0.62
236.04	1.62
236.839	1.62
237.638	-0.38
238.437	1.62
239.236	1.62
240.035	-1.38
240.833	3.62
241.632	2.62
242.43	0.62
243.229	1.62
244.027	0.62
244.826	1.62
245.624	-0.38
246.422	3.62
247.22	1.62
248.018	1.62
248.816	2.62
249.614	0.62
250.412	2.62
251.21	0.62
252.007	1.62
252.805	1.62
253.602	3.62
254.4	1.62
255.197	5.62
255.994	3.62
256.791	3.62
257.589	5.62
258.386	2.62
259.183	2.62
259.979	2.62
260.776	3.62
261.573	3.62
262.37	3.62
263.166	6.62
263.963	4.62
264.759	2.62
265.556	4.62
266.352	3.62
267.148	5.62
267.944	4.62
268.74	4.62
269.536	5.62
270.332	5.62
271.128	8.62
271.924	4.62
272.719	5.62
273.515	6.62
274.311	8.62
275.106	8.62
275.901	9.62
276.697	7.62
277.492	9.62
278.287	8.62
279.082	7.62
279.877	7.62
280.672	9.62
281.467	8.62
282.262	8.62
283.056	7.62
283.851	8.62
284.646	8.62
285.44	11.62
286.234	8.62
287.029	9.62
287.823	12.62
288.617	9.62
289.411	7.62
290.205	9.62
290.999	11.62
291.793	10.62
292.587	9.62
293.381	9.62
294.174	9.62
294.968	10.62
295.761	7.62
296.555	8.62
297.348	11.62
298.141	11.62
298.935	10.62
299.728	7.62
300.521	6.62
301.314	8.62
302.107	8.62
302.899	9.62
303.692	7.62
304.485	6.62
305.277	8.62
306.07	6.62
306.862	6.62
307.655	7.62
308.447	8.62
309.239	6.62
310.031	7.62
310.823	8.62
311.615	9.62
312.407	7.62
313.199	5.62
313.991	7.62
314.783	4.62
315.574	6.62
316.366	5.62
317.157	5.62
317.949	3.62
318.74	7.62
319.531	5.62
320.322	5.62
321.113	5.62
321.904	5.62
322.695	4.62
323.486	5.62
324.277	6.62
325.068	3.62
325.858	3.62
326.649	5.62
327.439	3.62
328.23	2.62
329.02	1.62
329.81	3.62
330.6	3.62
331.391	5.62
332.181	4.62
332.971	1.62
333.76	3.62
334.55	4.62
335.34	4.62
336.13	1.62
336.919	3.62
337.709	3.62
338.498	5.62
339.287	5.62
340.077	1.62
340.866	-1.38
341.655	3.62
342.444	2.62
343.233	3.62
344.022	3.62
344.811	2.62
345.6	3.62
346.388	3.62
347.177	2.62
347.965	1.62
348.754	3.62
349.542	3.62
350.33	4.62
351.119	3.62
351.907	3.62
352.695	3.62
353.483	3.62
354.271	4.62
355.059	2.62
355.846	3.62
356.634	3.62
357.422	3.62
358.209	3.62
358.997	1.62
359.784	2.62
360.571	-0.38
361.359	-0.38
362.146	3.62
362.933	1.62
363.72	2.62
364.507	2.62
365.294	3.62
366.081	2.62
366.867	2.62
367.654	-0.38
368.44	1.62
369.227	3.62
370.013	2.62
370.8	2.62
371.586	3.62
372.372	1.62
373.158	0.62
373.944	1.62
374.73	2.62
375.516	1.62
376.302	2.62
377.088	1.62
377.873	2.62
378.659	4.62
379.445	2.62
380.23	1.62
381.015	0.62
381.801	1.62
382.586	2.62
383.371	2.62
384.156	3.62
384.941	2.62
385.726	2.62
386.511	3.62
387.296	2.62
388.08	0.62
388.865	2.62
389.649	4.62
390.434	2.62
391.218	2.62
392.003	4.62
392.787	2.62
393.571	3.62
394.355	2.62
395.139	1.62
395.923	4.62
396.707	3.62
397.491	3.62
398.274	3.62
399.058	-1.38
399.842	2.62
400.625	2.62
401.408	2.62
402.192	2.62
402.975	3.62
403.758	2.62
404.541	3.62
405.324	4.62
406.107	2.62
406.89	4.62
407.673	4.62
408.456	2.62
409.238	3.62
410.021	2.62
410.803	4.62
411.586	4.62
412.368	4.62
413.151	4.62
413.933	2.62
414.715	4.62
415.497	2.62
416.279	4.62
417.061	5.62
417.843	3.62
418.624	5.62
419.406	5.62
420.188	4.62
420.969	6.62
421.751	4.62
422.532	5.62
423.313	5.62
424.095	6.62
424.876	4.62
425.657	7.62
426.438	4.62
427.219	6.62
428	7.62
428.78	7.62
429.561	5.62
430.342	5.62
431.122	8.62
431.903	6.62
432.683	6.62
433.464	8.62
434.244	8.62
435.024	10.62
435.804	8.62
436.584	9.62
437.364	10.62
438.144	9.62
438.924	9.62
439.704	8.62
440.483	11.62
441.263	11.62
442.042	14.62
442.822	13.62
443.601	15.62
444.38	17.62
445.16	14.62
445.939	19.62
446.718	18.62
447.497	20.62
448.276	20.62
449.054	22.62
449.833	26.62
450.612	26.62
451.391	31.62
452.169	30.62
452.948	35.62
453.726	42.62
454.504	41.62
455.282	44.62
456.061	49.62
456.839	56.62
457.617	61.62
458.395	66.62
459.172	77.62
459.95	87.62
460.728	95.62
461.506	103.62
462.283	112.62
463.061	124.62
463.838	139.62
464.615	156.62
465.393	177.62
466.17	201.62
466.947	215.62
467.724	239.62
468.501	272.62
469.278	294.62
470.055	329.62
470.831	359.62
471.608	397.62
472.385	458.62
473.161	490.62
473.938	535.62
474.714	592.62
475.49	659.62
476.266	734.62
477.043	812.62
477.819	876.62
478.595	957.62
479.371	1053.62
480.146	1172.62
480.922	1255.62
481.698	1368.62
482.473	1535.62
483.249	1676.62
484.024	1832.62
484.8	1993.62
485.575	2196.62
486.35	2374.62
487.126	2597.62
487.901	2850.62
488.676	3101.62
489.451	3399.62
490.225	3699.62
491	4042.62
491.775	4437.62
492.55	4796.62
493.324	5214.62
494.099	5685.62
494.873	6125.62
495.647	6637.62
496.422	7218.62
497.196	7770.62
497.97	8359.62
498.744	8998.62
499.518	9653.62
500.292	10305.62
501.066	10953.62
501.839	11558.62
502.613	12112.62
503.387	12676.62
504.16	13274.62
504.934	13773.62
505.707	14168.62
506.48	14489.62
507.253	14775.62
508.027	14973.62
508.8	15031.62
509.573	15071.62
510.346	15005.62
511.118	14883.62
511.891	14583.62
512.664	14278.62
513.437	13925.62
514.209	13520.62
514.982	13073.62
515.754	12622.62
516.526	12125.62
517.298	11637.62
518.071	11152.62
518.843	10729.62
519.615	10249.62
520.387	9807.62
521.159	9448.62
521.93	9064.62
522.702	8659.62
523.474	8411.62
524.245	8040.62
525.017	7730.62
525.788	7435.62
526.56	7125.62
527.331	6835.62
528.102	6573.62
528.873	6276.62
529.644	6018.62
530.415	5759.62
531.186	5512.62
531.957	5278.62
532.728	4991.62
533.498	4737.62
534.269	4489.62
535.039	4284.62
535.81	4021.62
536.58	3815.62
537.351	3641.62
538.121	3421.62
538.891	3232.62
539.661	3081.62
540.431	2915.62
541.201	2722.62
541.971	2611.62
542.741	2465.62
543.51	2339.62
544.28	2206.62
545.05	2115.62
545.819	2007.62
546.588	1895.62
547.358	1792.62
548.127	1712.62
548.896	1641.62
549.665	1543.62
550.434	1473.62
551.203	1393.62
551.972	1329.62
552.741	1267.62
553.51	1196.62
554.278	1137.62
555.047	1078.62
555.815	1010.62
556.584	962.62
557.352	906.62
558.121	848.62
558.889	810.62
559.657	761.62
560.425	717.62
561.193	677.62
561.961	636.62
562.729	607.62
563.496	579.62
564.264	540.62
565.032	514.62
565.799	478.62
566.567	450.62
567.334	423.62
568.101	405.62
568.869	382.62
569.636	367.62
570.403	341.62
571.17	319.62
571.937	301.62
572.704	286.62
573.471	266.62
574.237	250.62
575.004	231.62
575.771	226.62
576.537	218.62
577.303	193.62
578.07	188.62
578.836	178.62
579.602	167.62
580.368	153.62
581.134	153.62
581.9	146.62
582.666	134.62
583.432	129.62
584.198	121.62
584.964	113.62
585.729	109.62
586.495	104.62
587.26	96.62
588.025	90.62
588.791	83.62
589.556	82.62
590.321	78.62
591.086	72.62
591.851	67.62
592.616	68.62
593.381	59.62
594.146	59.62
594.911	54.62
595.675	50.62
596.44	55.62
597.204	46.62
597.969	45.62
598.733	45.62
599.497	41.62
600.261	39.62
601.025	38.62
601.79	36.62
602.553	33.62
603.317	32.62
604.081	29.62
604.845	31.62
605.609	30.62
606.372	29.62
607.136	27.62
607.899	25.62
608.662	24.62
609.426	22.62
610.189	21.62
610.952	21.62
611.715	19.62
612.478	21.62
613.241	14.62
614.004	17.62
614.767	18.62
615.529	17.62
616.292	16.62
617.055	15.62
617.817	16.62
618.579	10.62
619.342	13.62
620.104	14.62
620.866	11.62
621.628	13.62
622.39	11.62
623.152	9.62
623.914	10.62
624.676	10.62
625.438	9.62
626.199	10.62
626.961	9.62
627.722	10.62
628.484	9.62
629.245	10.62
630.006	6.62
630.768	6.62
631.529	7.62
632.29	6.62
633.051	8.62
633.812	9.62
634.573	7.62
635.333	5.62
636.094	6.62
636.855	6.62
637.615	5.62
638.376	3.62
639.136	6.62
639.896	7.62
640.657	4.62
641.417	3.62
642.177	3.62
642.937	6.62
643.697	4.62
644.457	6.62
645.216	5.62
645.976	4.62
646.736	5.62
647.495	4.62
648.255	4.62
649.014	4.62
649.774	4.62
650.533	3.62
651.292	3.62
652.051	5.62
652.81	2.62
653.569	2.62
654.328	3.62
655.087	2.62
655.846	0.62
656.604	3.62
657.363	2.62
658.121	5.62
658.88	3.62
659.638	4.62
660.397	4.62
661.155	1.62
661.913	2.62
662.671	1.62
663.429	4.62
664.187	2.62
664.945	2.62
665.703	0.62
666.46	3.62
667.218	6.62
667.976	2.62
668.733	2.62
669.49	2.62
670.248	2.62
671.005	3.62
671.762	5.62
672.519	4.62
673.276	2.62
674.033	2.62
674.79	1.62
675.547	3.62
676.304	4.62
677.06	0.62
677.817	3.62
678.574	3.62
679.33	1.62
680.086	3.62
680.843	0.62
681.599	4.62
682.355	2.62
683.111	2.62
683.867	1.62
684.623	2.62
685.379	3.62
686.135	1.62
686.89	3.62
687.646	1.62
688.402	1.62
689.157	0.62
689.912	3.62
690.668	2.62
691.423	2.62
692.178	2.62
692.933	2.62
693.688	1.62
694.443	2.62
695.198	0.62
695.953	3.62
696.708	0.62
697.462	4.62
698.217	2.62
698.972	1.62
699.726	3.62
700.48	1.62
701.235	3.62
701.989	3.62
702.743	1.62
703.497	-0.38
704.251	2.62
705.005	2.62
705.759	1.62
706.513	0.62
707.266	-0.38
708.02	2.62
708.774	2.62
709.527	2.62
710.28	2.62
711.034	1.62
711.787	3.62
712.54	1.62
713.293	3.62
714.046	1.62
714.799	2.62
715.552	0.62
716.305	-0.38
717.058	0.62
717.81	2.62
718.563	1.62
719.315	2.62
720.068	2.62
720.82	2.62
721.573	1.62
722.325	0.62
723.077	0.62
723.829	1.62
724.581	0.62
725.333	2.62
726.085	2.62
726.836	1.62
727.588	2.62
728.34	1.62
729.091	2.62
729.843	0.62
730.594	3.62
731.346	2.62
732.097	1.62
732.848	3.62
733.599	1.62
734.35	2.62
735.101	1.62
735.852	3.62
736.603	1.62
737.354	1.62
738.104	2.62
738.855	2.62
739.605	1.62
740.356	-0.38
741.106	1.62
741.856	3.62
742.607	2.62
743.357	3.62
744.107	2.62
744.857	3.62
745.607	2.62
746.357	1.62
747.106	1.62
747.856	1.62
748.606	1.62
749.355	3.62
750.105	3.62
750.854	3.62
751.603	0.62
752.353	1.62
753.102	1.62
753.851	4.62
754.6	2.62
755.349	4.62
756.098	3.62
756.847	2.62
757.595	3.62
758.344	2.62
759.093	2.62
759.841	3.62
760.589	4.62
761.338	2.62
762.086	0.62
762.834	0.62
763.582	3.62
764.331	4.62
765.079	2.62
765.826	2.62
766.574	3.62
767.322	2.62
768.07	2.62
768.817	3.62
769.565	6.62
770.312	4.62
771.06	3.62
771.807	4.62
772.554	2.62
773.302	5.62
774.049	2.62
774.796	3.62
775.543	4.62
776.29	3.62
777.036	5.62
777.783	0.62
778.53	4.62
779.276	0.62
780.023	5.62
780.769	5.62
781.516	6.62
782.262	3.62
783.008	2.62
783.754	4.62
784.5	3.62
785.246	7.62
785.992	5.62
786.738	2.62
787.484	4.62
788.23	3.62
788.975	5.62
789.721	2.62
790.466	3.62
791.212	4.62
791.957	4.62
792.702	3.62
793.447	6.62
794.193	3.62
794.938	5.62
795.683	1.62
796.427	4.62
797.172	4.62
797.917	2.62
798.662	1.62
799.406	5.62
800.151	4.62
800.895	5.62
801.64	2.62
802.384	3.62
803.128	6.62
803.872	2.62
804.616	4.62
805.36	2.62
806.104	5.62
806.848	3.62
807.592	3.62
808.336	2.62
809.079	3.62
809.823	4.62
810.566	2.62
811.31	3.62
812.053	4.62
812.796	4.62
813.539	2.62
814.283	3.62
815.026	4.62
815.769	2.62
816.511	3.62
817.254	2.62
817.997	2.62
818.74	2.62
819.482	3.62
820.225	4.62
820.967	1.62
821.71	4.62
822.452	2.62
823.194	2.62
823.936	1.62
824.678	3.62
825.42	3.62
826.162	3.62
826.904	3.62
827.646	2.62
828.388	2.62
829.129	4.62
829.871	0.62
830.612	3.62
831.354	2.62
832.095	3.62
832.836	2.62
833.577	4.62
834.319	2.62
835.06	2.62
835.801	1.62
836.542	2.62
837.282	2.62
838.023	2.62
838.764	3.62
839.504	4.62
840.245	2.62
840.985	3.62
841.726	2.62
842.466	3.62
843.206	3.62
843.946	3.62
844.687	3.62
845.427	3.62
846.166	0.62
846.906	-0.38
847.646	3.62
848.386	0.62
849.125	0.62
849.865	4.62
850.605	0.62
851.344	2.62
852.083	1.62
852.823	2.62
853.562	0.62
854.301	0.62
855.04	1.62
855.779	0.62
856.518	2.62
857.257	1.62
857.995	2.62
858.734	1.62
859.473	1.62
860.211	0.62
860.95	1.62
861.688	2.62
862.426	-1.38
863.165	0.62
863.903	1.62
864.641	2.62
865.379	2.62
866.117	2.62
866.855	1.62
867.593	0.62
868.33	0.62
869.068	-1.38
869.806	0.62
870.543	0.62
871.28	-0.38
872.018	1.62
872.755	-0.38
873.492	-1.38
874.229	1.62
874.967	-0.38
875.703	0.62
876.44	0.62
877.177	1.62
877.914	1.62
878.651	-0.38
879.387	-0.38
880.124	0.62
880.86	2.62
881.597	1.62
882.333	0.62
883.069	1.62
883.806	0.62
884.542	0.62
885.278	0.62
886.014	-0.38
886.749	-0.38
887.485	0.62
888.221	1.62
888.957	-1.38
889.692	0.62
890.428	1.62
891.163	0.62
891.899	-1.38
892.634	3.62
893.369	1.62
894.104	2.62
894.839	2.62
895.574	2.62
896.309	-0.38
897.044	-0.38
897.779	0.62
898.514	-0.38
899.248	-0.38
899.983	1.62
900.717	0.62
901.452	0.62
902.186	-1.38
902.92	0.62
903.654	0.62
904.389	-0.38
905.123	1.62
905.857	-1.38
906.59	0.62
907.324	-0.38
908.058	1.62
908.792	2.62
909.525	0.62
910.259	1.62
910.992	-0.38
911.726	-1.38
912.459	0.62
913.192	1.62
913.925	-0.38
914.658	-1.38
915.391	1.62
916.124	-0.38
916.857	1.62
917.59	0.62
918.323	1.62
919.055	-0.38
919.788	-1.38
920.521	1.62
921.253	-1.38
921.985	-1.38
922.718	1.62
923.45	0.62
924.182	0.62
924.914	-0.38
925.646	1.62
926.378	-1.38
927.11	-1.38
927.841	0.62
928.573	1.62
929.305	2.62
930.036	-0.38
930.768	1.62
931.499	0.62
932.23	1.62
932.962	0.62
933.693	0.62
934.424	1.62
935.155	-1.38
935.886	-1.38
936.617	0.62
937.348	0.62
938.078	-0.38
938.809	-0.38
939.54	-0.38
940.27	-0.38
941.001	0.62
941.731	1.62
942.461	2.62
943.191	0.62
943.922	-1.38
944.652	-2.38
945.382	-0.38
946.112	1.62
946.841	-0.38
947.571	1.62
948.301	0.62
949.031	0.62
949.76	1.62
950.49	-1.38
951.219	0.62
951.948	1.62
952.678	1.62
953.407	1.62
954.136	-0.38
954.865	-0.38
955.594	-0.38
956.323	1.62
957.052	-0.38
957.78	2.62
958.509	-1.38
959.238	-0.38
959.966	2.62
960.695	-0.38
961.423	-0.38
962.151	1.62
962.88	-2.38
963.608	-0.38
964.336	-1.38
965.064	-0.38
965.792	-0.38
966.52	1.62
967.247	-1.38
967.975	-0.38
968.703	0.62
969.43	0.62
970.158	-0.38
970.885	1.62
971.613	0.62
972.34	-2.38
973.067	1.62
973.794	0.62
974.521	-2.38
975.248	-1.38
975.975	-2.38
976.702	-0.38
977.429	-1.38
978.156	1.62
978.882	0.62
979.609	-0.38
980.335	0.62
981.062	0.62
981.788	-0.38
982.514	-1.38
983.24	-0.38
983.967	-1.38
984.693	-0.38
985.419	-0.38
986.144	-1.38
986.87	-0.38
987.596	0.62
988.322	-1.38
989.047	0.62
989.773	-1.38
990.498	1.62
991.224	0.62
991.949	0.62
992.674	-1.38
993.399	1.62
994.124	1.62
994.849	-0.38
995.574	1.62
996.299	1.62
997.024	-0.38
997.749	-1.38
998.473	-0.38
999.198	-0.38
999.922	-0.38
1000.647	0.62
1001.371	2.62
1002.095	-2.38
1002.82	-0.38
1003.544	-1.38
1004.268	-2.38
1004.992	0.62
1005.716	0.62
1006.439	1.62
1007.163	0.62
1007.887	-0.38
1008.611	1.62
1009.334	2.62
1010.058	-2.38
1010.781	1.62
1011.504	0.62
1012.228	-0.38
1012.951	0.62
1013.674	0.62
1014.397	-0.38
1015.12	0.62
