节点500_145_QEPB04081__448__11-36-06-566.txt的数据

Date: Wed Nov 12 11:36:06 CST 2025
User: PC
Spectrometer: QEPB0408
触发模式: 0
积分时间 (秒): 1.000000E-2
Scans to average: 1
启用暗噪声校正: true
启用非线性校正: false
滑动平均宽度: 0
X轴模式: Wavelengths
Number of Pixels in Spectrum: 1044
>>>>>Begin Spectral Data<<<<<
220.843	0
221.644	0
222.444	1
223.244	2
224.045	1
224.845	2
225.645	-1
226.445	3
227.245	3
228.045	0
228.845	-2
229.645	0
230.444	0
231.244	1
232.043	3
232.843	2
233.642	2
234.442	1
235.241	1
236.04	3
236.839	2
237.638	0
238.437	4
239.236	3
240.035	0
240.833	2
241.632	2
242.43	2
243.229	2
244.027	2
244.826	3
245.624	0
246.422	4
247.22	4
248.018	2
248.816	5
249.614	4
250.412	2
251.21	1
252.007	6
252.805	2
253.602	1
254.4	2
255.197	2
255.994	3
256.791	4
257.589	5
258.386	1
259.183	4
259.979	4
260.776	4
261.573	6
262.37	3
263.166	8
263.963	6
264.759	3
265.556	5
266.352	6
267.148	6
267.944	5
268.74	10
269.536	9
270.332	5
271.128	7
271.924	6
272.719	8
273.515	9
274.311	8
275.106	9
275.901	11
276.697	11
277.492	11
278.287	11
279.082	9
279.877	10
280.672	10
281.467	7
282.262	11
283.056	10
283.851	8
284.646	12
285.44	11
286.234	11
287.029	13
287.823	9
288.617	11
289.411	9
290.205	12
290.999	13
291.793	12
292.587	10
293.381	12
294.174	10
294.968	10
295.761	11
296.555	12
297.348	9
298.141	10
298.935	12
299.728	9
300.521	9
301.314	11
302.107	9
302.899	10
303.692	8
304.485	9
305.277	8
306.07	9
306.862	9
307.655	8
308.447	8
309.239	9
310.031	9
310.823	7
311.615	10
312.407	7
313.199	6
313.991	6
314.783	7
315.574	6
316.366	5
317.157	7
317.949	7
318.74	8
319.531	7
320.322	7
321.113	5
321.904	6
322.695	6
323.486	6
324.277	5
325.068	3
325.858	4
326.649	5
327.439	6
328.23	4
329.02	5
329.81	3
330.6	4
331.391	4
332.181	5
332.971	7
333.76	3
334.55	6
335.34	5
336.13	5
336.919	4
337.709	6
338.498	4
339.287	2
340.077	6
340.866	4
341.655	4
342.444	4
343.233	3
344.022	3
344.811	4
345.6	4
346.388	4
347.177	4
347.965	4
348.754	3
349.542	5
350.33	0
351.119	4
351.907	4
352.695	5
353.483	5
354.271	0
355.059	4
355.846	4
356.634	3
357.422	4
358.209	5
358.997	4
359.784	4
360.571	4
361.359	4
362.146	4
362.933	4
363.72	5
364.507	5
365.294	3
366.081	6
366.867	3
367.654	5
368.44	2
369.227	4
370.013	2
370.8	3
371.586	1
372.372	1
373.158	3
373.944	4
374.73	3
375.516	5
376.302	4
377.088	2
377.873	3
378.659	3
379.445	1
380.23	4
381.015	3
381.801	3
382.586	3
383.371	1
384.156	2
384.941	3
385.726	2
386.511	5
387.296	4
388.08	3
388.865	2
389.649	7
390.434	3
391.218	4
392.003	3
392.787	4
393.571	3
394.355	3
395.139	3
395.923	5
396.707	4
397.491	4
398.274	5
399.058	6
399.842	3
400.625	6
401.408	3
402.192	8
402.975	4
403.758	6
404.541	6
405.324	4
406.107	4
406.89	4
407.673	4
408.456	4
409.238	4
410.021	4
410.803	2
411.586	6
412.368	6
413.151	5
413.933	6
414.715	5
415.497	5
416.279	4
417.061	7
417.843	7
418.624	6
419.406	5
420.188	5
420.969	6
421.751	5
422.532	8
423.313	8
424.095	7
424.876	8
425.657	8
426.438	5
427.219	4
428	8
428.78	6
429.561	6
430.342	8
431.122	6
431.903	8
432.683	8
433.464	8
434.244	9
435.024	9
435.804	10
436.584	11
437.364	13
438.144	12
438.924	12
439.704	13
440.483	13
441.263	11
442.042	12
442.822	15
443.601	14
444.38	15
445.16	16
445.939	16
446.718	18
447.497	20
448.276	20
449.054	21
449.833	23
450.612	25
451.391	29
452.169	29
452.948	34
453.726	35
454.504	38
455.282	44
456.061	45
456.839	53
457.617	59
458.395	64
459.172	71
459.95	79
460.728	92
461.506	98
462.283	111
463.061	115
463.838	133
464.615	149
465.393	167
466.17	187
466.947	208
467.724	226
468.501	258
469.278	279
470.055	307
470.831	346
471.608	387
472.385	426
473.161	471
473.938	523
474.714	579
475.49	658
476.266	714
477.043	782
477.819	882
478.595	955
479.371	1058
480.146	1152
480.922	1271
481.698	1400
482.473	1558
483.249	1696
484.024	1842
484.8	2043
485.575	2243
486.35	2479
487.126	2719
487.901	3003
488.676	3257
489.451	3580
490.225	3901
491	4302
491.775	4702
492.55	5134
493.324	5587
494.099	6107
494.873	6674
495.647	7266
496.422	7830
497.196	8499
497.97	9177
498.744	9867
499.518	10544
500.292	11227
501.066	11940
501.839	12584
502.613	13253
503.387	13872
504.16	14399
504.934	14929
505.707	15292
506.48	15555
507.253	15766
508.027	15939
508.8	15929
509.573	15898
510.346	15703
511.118	15490
511.891	15128
512.664	14662
513.437	14213
514.209	13810
514.982	13253
515.754	12765
516.526	12271
517.298	11736
518.071	11235
518.843	10739
519.615	10273
520.387	9861
521.159	9507
521.93	9073
522.702	8717
523.474	8383
524.245	8049
525.017	7778
525.788	7427
526.56	7147
527.331	6827
528.102	6513
528.873	6278
529.644	5992
530.415	5730
531.186	5437
531.957	5181
532.728	4949
533.498	4677
534.269	4423
535.039	4173
535.81	3973
536.58	3739
537.351	3536
538.121	3332
538.891	3188
539.661	2989
540.431	2837
541.201	2690
541.971	2544
542.741	2394
543.51	2273
544.28	2179
545.05	2059
545.819	1955
546.588	1878
547.358	1767
548.127	1689
548.896	1589
549.665	1521
550.434	1447
551.203	1366
551.972	1295
552.741	1223
553.51	1162
554.278	1114
555.047	1041
555.815	988
556.584	920
557.352	878
558.121	826
558.889	776
559.657	737
560.425	693
561.193	656
561.961	612
562.729	586
563.496	551
564.264	517
565.032	486
565.799	460
566.567	435
567.334	414
568.101	384
568.869	368
569.636	348
570.403	324
571.17	306
571.937	292
572.704	282
573.471	258
574.237	245
575.004	231
575.771	214
576.537	204
577.303	192
578.07	184
578.836	171
579.602	155
580.368	153
581.134	143
581.9	133
582.666	124
583.432	130
584.198	113
584.964	111
585.729	104
586.495	98
587.26	94
588.025	88
588.791	80
589.556	79
590.321	75
591.086	68
591.851	67
592.616	60
593.381	63
594.146	58
594.911	55
595.675	50
596.44	48
597.204	49
597.969	44
598.733	45
599.497	40
600.261	43
601.025	40
601.79	34
602.553	32
603.317	32
604.081	33
604.845	28
605.609	29
606.372	25
607.136	24
607.899	27
608.662	25
609.426	24
610.189	22
610.952	22
611.715	20
612.478	19
613.241	20
614.004	19
614.767	18
615.529	15
616.292	15
617.055	16
617.817	14
618.579	13
619.342	15
620.104	14
620.866	14
621.628	12
622.39	16
623.152	13
623.914	14
624.676	10
625.438	10
626.199	8
626.961	9
627.722	9
628.484	10
629.245	8
630.006	9
630.768	6
631.529	8
632.29	9
633.051	8
633.812	7
634.573	8
635.333	6
636.094	6
636.855	6
637.615	8
638.376	5
639.136	9
639.896	7
640.657	7
641.417	6
642.177	5
642.937	6
643.697	5
644.457	5
645.216	5
645.976	5
646.736	4
647.495	5
648.255	4
649.014	8
649.774	3
650.533	3
651.292	3
652.051	7
652.81	5
653.569	4
654.328	5
655.087	4
655.846	5
656.604	5
657.363	4
658.121	3
658.88	5
659.638	5
660.397	4
661.155	5
661.913	4
662.671	4
663.429	4
664.187	3
664.945	4
665.703	4
666.46	4
667.218	5
667.976	5
668.733	3
669.49	4
670.248	3
671.005	1
671.762	3
672.519	4
673.276	5
674.033	4
674.79	1
675.547	2
676.304	4
677.06	3
677.817	5
678.574	3
679.33	1
680.086	5
680.843	3
681.599	2
682.355	4
683.111	3
683.867	4
684.623	3
685.379	4
686.135	5
686.89	2
687.646	2
688.402	3
689.157	2
689.912	3
690.668	3
691.423	1
692.178	3
692.933	3
693.688	2
694.443	4
695.198	4
695.953	3
696.708	4
697.462	4
698.217	1
698.972	1
699.726	1
700.48	2
701.235	3
701.989	3
702.743	2
703.497	3
704.251	1
705.005	3
705.759	4
706.513	4
707.266	3
708.02	3
708.774	1
709.527	3
710.28	1
711.034	3
711.787	0
712.54	2
713.293	1
714.046	-1
714.799	4
715.552	2
716.305	2
717.058	3
717.81	2
718.563	1
719.315	2
720.068	3
720.82	1
721.573	5
722.325	-1
723.077	3
723.829	5
724.581	3
725.333	5
726.085	2
726.836	1
727.588	0
728.34	2
729.091	3
729.843	4
730.594	3
731.346	2
732.097	2
732.848	3
733.599	3
734.35	3
735.101	4
735.852	3
736.603	1
737.354	4
738.104	2
738.855	4
739.605	1
740.356	4
741.106	1
741.856	2
742.607	3
743.357	3
744.107	3
744.857	2
745.607	5
746.357	2
747.106	3
747.856	2
748.606	4
749.355	6
750.105	3
750.854	2
751.603	4
752.353	3
753.102	4
753.851	3
754.6	5
755.349	2
756.098	4
756.847	6
757.595	3
758.344	4
759.093	2
759.841	5
760.589	3
761.338	4
762.086	3
762.834	4
763.582	4
764.331	5
765.079	3
765.826	2
766.574	4
767.322	4
768.07	2
768.817	5
769.565	4
770.312	3
771.06	4
771.807	5
772.554	7
773.302	3
774.049	4
774.796	3
775.543	4
776.29	5
777.036	7
777.783	6
778.53	7
779.276	6
780.023	7
780.769	7
781.516	5
782.262	7
783.008	4
783.754	4
784.5	4
785.246	6
785.992	4
786.738	7
787.484	6
788.23	7
788.975	4
789.721	4
790.466	5
791.212	7
791.957	5
792.702	5
793.447	7
794.193	7
794.938	8
795.683	5
796.427	6
797.172	6
797.917	3
798.662	3
799.406	4
800.151	6
800.895	6
801.64	7
802.384	6
803.128	4
803.872	6
804.616	4
805.36	5
806.104	4
806.848	4
807.592	6
808.336	5
809.079	6
809.823	6
810.566	6
811.31	6
812.053	4
812.796	4
813.539	4
814.283	2
815.026	3
815.769	5
816.511	4
817.254	6
817.997	4
818.74	3
819.482	6
820.225	3
820.967	4
821.71	2
822.452	3
823.194	4
823.936	4
824.678	5
825.42	3
826.162	3
826.904	2
827.646	3
828.388	4
829.129	3
829.871	3
830.612	4
831.354	4
832.095	3
832.836	3
833.577	3
834.319	3
835.06	5
835.801	3
836.542	3
837.282	2
838.023	3
838.764	4
839.504	4
840.245	4
840.985	2
841.726	2
842.466	5
843.206	2
843.946	2
844.687	2
845.427	1
846.166	4
846.906	3
847.646	2
848.386	3
849.125	4
849.865	3
850.605	4
851.344	3
852.083	5
852.823	4
853.562	7
854.301	1
855.04	1
855.779	1
856.518	3
857.257	3
857.995	2
858.734	2
859.473	3
860.211	2
860.95	4
861.688	2
862.426	2
863.165	0
863.903	2
864.641	1
865.379	2
866.117	2
866.855	4
867.593	2
868.33	1
869.068	2
869.806	1
870.543	3
871.28	1
872.018	1
872.755	2
873.492	3
874.229	3
874.967	4
875.703	-1
876.44	2
877.177	2
877.914	0
878.651	1
879.387	1
880.124	3
880.86	1
881.597	1
882.333	1
883.069	-1
883.806	2
884.542	2
885.278	2
886.014	0
886.749	2
887.485	-1
888.221	2
888.957	2
889.692	2
890.428	2
891.163	1
891.899	1
892.634	1
893.369	1
894.104	0
894.839	3
895.574	2
896.309	0
897.044	4
897.779	1
898.514	4
899.248	1
899.983	2
900.717	0
901.452	1
902.186	2
902.92	2
903.654	0
904.389	0
905.123	1
905.857	0
906.59	1
907.324	1
908.058	3
908.792	3
909.525	2
910.259	0
910.992	3
911.726	3
912.459	1
913.192	1
913.925	1
914.658	1
915.391	-1
916.124	2
916.857	2
917.59	1
918.323	2
919.055	0
919.788	3
920.521	0
921.253	2
921.985	2
922.718	3
923.45	2
924.182	1
924.914	1
925.646	-1
926.378	1
927.11	-1
927.841	3
928.573	1
929.305	0
930.036	1
930.768	-1
931.499	0
932.23	1
932.962	0
933.693	0
934.424	0
935.155	2
935.886	-2
936.617	1
937.348	2
938.078	0
938.809	2
939.54	0
940.27	1
941.001	1
941.731	1
942.461	2
943.191	0
943.922	2
944.652	0
945.382	2
946.112	0
946.841	0
947.571	-1
948.301	2
949.031	2
949.76	0
950.49	0
951.219	-1
951.948	0
952.678	3
953.407	1
954.136	-1
954.865	0
955.594	3
956.323	1
957.052	3
957.78	2
958.509	1
959.238	2
959.966	0
960.695	2
961.423	1
962.151	0
962.88	2
963.608	1
964.336	3
965.064	1
965.792	0
966.52	2
967.247	1
967.975	2
968.703	-1
969.43	1
970.158	3
970.885	1
971.613	1
972.34	2
973.067	2
973.794	-1
974.521	0
975.248	1
975.975	2
976.702	2
977.429	2
978.156	3
978.882	1
979.609	2
980.335	-1
981.062	2
981.788	2
982.514	2
983.24	1
983.967	-1
984.693	1
985.419	-1
986.144	1
986.87	2
987.596	1
988.322	0
989.047	-1
989.773	1
990.498	2
991.224	1
991.949	3
992.674	0
993.399	3
994.124	1
994.849	2
995.574	0
996.299	2
997.024	1
997.749	-1
998.473	2
999.198	0
999.922	0
1000.647	1
1001.371	3
1002.095	1
1002.82	0
1003.544	-2
1004.268	1
1004.992	0
1005.716	0
1006.439	2
1007.163	2
1007.887	1
1008.611	2
1009.334	0
1010.058	0
1010.781	2
1011.504	1
1012.228	3
1012.951	0
1013.674	-1
1014.397	0
1015.12	-1
