节点500_145_QEPB04081__60__11-29-54-720.txt的数据

Date: Wed Nov 12 11:29:54 CST 2025
User: PC
Spectrometer: QEPB0408
触发模式: 0
积分时间 (秒): 1.000000E-2
Scans to average: 1
启用暗噪声校正: true
启用非线性校正: false
滑动平均宽度: 0
X轴模式: Wavelengths
Number of Pixels in Spectrum: 1044
>>>>>Begin Spectral Data<<<<<
220.843	-2.38
221.644	-2.38
222.444	-0.38
223.244	-0.38
224.045	-0.38
224.845	0.62
225.645	0.62
226.445	-1.38
227.245	-4.38
228.045	2.62
228.845	-1.38
229.645	0.62
230.444	-1.38
231.244	-2.38
232.043	-0.38
232.843	-0.38
233.642	-0.38
234.442	-1.38
235.241	-0.38
236.04	-0.38
236.839	-0.38
237.638	0.62
238.437	-2.38
239.236	1.62
240.035	-0.38
240.833	2.62
241.632	1.62
242.43	1.62
243.229	0.62
244.027	-0.38
244.826	0.62
245.624	0.62
246.422	1.62
247.22	3.62
248.018	-2.38
248.816	1.62
249.614	2.62
250.412	1.62
251.21	0.62
252.007	0.62
252.805	2.62
253.602	3.62
254.4	1.62
255.197	4.62
255.994	1.62
256.791	2.62
257.589	3.62
258.386	1.62
259.183	3.62
259.979	5.62
260.776	5.62
261.573	4.62
262.37	4.62
263.166	4.62
263.963	3.62
264.759	4.62
265.556	4.62
266.352	6.62
267.148	4.62
267.944	5.62
268.74	7.62
269.536	7.62
270.332	7.62
271.128	9.62
271.924	6.62
272.719	7.62
273.515	9.62
274.311	9.62
275.106	8.62
275.901	7.62
276.697	9.62
277.492	11.62
278.287	9.62
279.082	11.62
279.877	8.62
280.672	12.62
281.467	8.62
282.262	10.62
283.056	11.62
283.851	9.62
284.646	11.62
285.44	10.62
286.234	9.62
287.029	13.62
287.823	10.62
288.617	12.62
289.411	10.62
290.205	11.62
290.999	9.62
291.793	12.62
292.587	11.62
293.381	10.62
294.174	10.62
294.968	10.62
295.761	10.62
296.555	8.62
297.348	6.62
298.141	9.62
298.935	10.62
299.728	7.62
300.521	6.62
301.314	8.62
302.107	7.62
302.899	8.62
303.692	8.62
304.485	6.62
305.277	10.62
306.07	6.62
306.862	6.62
307.655	7.62
308.447	9.62
309.239	6.62
310.031	6.62
310.823	7.62
311.615	5.62
312.407	5.62
313.199	3.62
313.991	5.62
314.783	5.62
315.574	4.62
316.366	3.62
317.157	5.62
317.949	5.62
318.74	3.62
319.531	4.62
320.322	4.62
321.113	3.62
321.904	4.62
322.695	4.62
323.486	3.62
324.277	2.62
325.068	3.62
325.858	3.62
326.649	1.62
327.439	2.62
328.23	3.62
329.02	3.62
329.81	2.62
330.6	4.62
331.391	2.62
332.181	4.62
332.971	2.62
333.76	4.62
334.55	1.62
335.34	1.62
336.13	4.62
336.919	3.62
337.709	0.62
338.498	4.62
339.287	2.62
340.077	1.62
340.866	2.62
341.655	4.62
342.444	4.62
343.233	4.62
344.022	3.62
344.811	2.62
345.6	3.62
346.388	1.62
347.177	1.62
347.965	3.62
348.754	1.62
349.542	2.62
350.33	3.62
351.119	-0.38
351.907	3.62
352.695	-0.38
353.483	1.62
354.271	2.62
355.059	2.62
355.846	1.62
356.634	0.62
357.422	3.62
358.209	1.62
358.997	3.62
359.784	1.62
360.571	1.62
361.359	2.62
362.146	2.62
362.933	0.62
363.72	1.62
364.507	5.62
365.294	2.62
366.081	2.62
366.867	1.62
367.654	1.62
368.44	2.62
369.227	1.62
370.013	2.62
370.8	4.62
371.586	2.62
372.372	2.62
373.158	2.62
373.944	1.62
374.73	3.62
375.516	2.62
376.302	1.62
377.088	2.62
377.873	2.62
378.659	1.62
379.445	3.62
380.23	1.62
381.015	1.62
381.801	2.62
382.586	0.62
383.371	0.62
384.156	2.62
384.941	2.62
385.726	0.62
386.511	1.62
387.296	2.62
388.08	2.62
388.865	2.62
389.649	-0.38
390.434	0.62
391.218	0.62
392.003	1.62
392.787	4.62
393.571	-0.38
394.355	2.62
395.139	2.62
395.923	2.62
396.707	2.62
397.491	3.62
398.274	3.62
399.058	3.62
399.842	3.62
400.625	4.62
401.408	2.62
402.192	4.62
402.975	2.62
403.758	3.62
404.541	2.62
405.324	4.62
406.107	4.62
406.89	4.62
407.673	3.62
408.456	3.62
409.238	4.62
410.021	4.62
410.803	4.62
411.586	1.62
412.368	5.62
413.151	4.62
413.933	5.62
414.715	3.62
415.497	5.62
416.279	3.62
417.061	3.62
417.843	6.62
418.624	5.62
419.406	4.62
420.188	4.62
420.969	4.62
421.751	5.62
422.532	3.62
423.313	6.62
424.095	6.62
424.876	6.62
425.657	7.62
426.438	4.62
427.219	5.62
428	5.62
428.78	6.62
429.561	5.62
430.342	9.62
431.122	8.62
431.903	7.62
432.683	7.62
433.464	6.62
434.244	8.62
435.024	7.62
435.804	9.62
436.584	8.62
437.364	9.62
438.144	12.62
438.924	11.62
439.704	8.62
440.483	10.62
441.263	11.62
442.042	8.62
442.822	11.62
443.601	11.62
444.38	11.62
445.16	12.62
445.939	13.62
446.718	14.62
447.497	15.62
448.276	17.62
449.054	18.62
449.833	21.62
450.612	25.62
451.391	26.62
452.169	24.62
452.948	28.62
453.726	29.62
454.504	33.62
455.282	36.62
456.061	39.62
456.839	46.62
457.617	48.62
458.395	54.62
459.172	62.62
459.95	66.62
460.728	69.62
461.506	83.62
462.283	89.62
463.061	101.62
463.838	108.62
464.615	125.62
465.393	139.62
466.17	154.62
466.947	173.62
467.724	199.62
468.501	217.62
469.278	246.62
470.055	274.62
470.831	306.62
471.608	335.62
472.385	379.62
473.161	420.62
473.938	467.62
474.714	523.62
475.49	577.62
476.266	650.62
477.043	727.62
477.819	811.62
478.595	900.62
479.371	994.62
480.146	1122.62
480.922	1234.62
481.698	1380.62
482.473	1526.62
483.249	1686.62
484.024	1881.62
484.8	2068.62
485.575	2305.62
486.35	2549.62
487.126	2839.62
487.901	3122.62
488.676	3478.62
489.451	3864.62
490.225	4274.62
491	4725.62
491.775	5192.62
492.55	5762.62
493.324	6301.62
494.099	6944.62
494.873	7629.62
495.647	8367.62
496.422	9064.62
497.196	9820.62
497.97	10599.62
498.744	11401.62
499.518	12275.62
500.292	13049.62
501.066	13806.62
501.839	14565.62
502.613	15216.62
503.387	15853.62
504.16	16361.62
504.934	16778.62
505.707	17050.62
506.48	17253.62
507.253	17336.62
508.027	17302.62
508.8	17102.62
509.573	16818.62
510.346	16511.62
511.118	15995.62
511.891	15473.62
512.664	14904.62
513.437	14297.62
514.209	13750.62
514.982	13102.62
515.754	12480.62
516.526	11940.62
517.298	11385.62
518.071	10904.62
518.843	10383.62
519.615	9936.62
520.387	9542.62
521.159	9159.62
521.93	8758.62
522.702	8439.62
523.474	8120.62
524.245	7798.62
525.017	7471.62
525.788	7165.62
526.56	6883.62
527.331	6640.62
528.102	6249.62
528.873	6005.62
529.644	5704.62
530.415	5468.62
531.186	5166.62
531.957	4899.62
532.728	4624.62
533.498	4386.62
534.269	4116.62
535.039	3884.62
535.81	3658.62
536.58	3469.62
537.351	3254.62
538.121	3097.62
538.891	2903.62
539.661	2753.62
540.431	2612.62
541.201	2473.62
541.971	2339.62
542.741	2214.62
543.51	2102.62
544.28	1982.62
545.05	1879.62
545.819	1791.62
546.588	1722.62
547.358	1625.62
548.127	1547.62
548.896	1480.62
549.665	1399.62
550.434	1314.62
551.203	1250.62
551.972	1191.62
552.741	1130.62
553.51	1063.62
554.278	1005.62
555.047	948.62
555.815	884.62
556.584	836.62
557.352	797.62
558.121	734.62
558.889	700.62
559.657	653.62
560.425	624.62
561.193	581.62
561.961	550.62
562.729	521.62
563.496	493.62
564.264	468.62
565.032	435.62
565.799	411.62
566.567	388.62
567.334	368.62
568.101	352.62
568.869	331.62
569.636	321.62
570.403	292.62
571.17	281.62
571.937	258.62
572.704	247.62
573.471	232.62
574.237	216.62
575.004	203.62
575.771	193.62
576.537	187.62
577.303	172.62
578.07	163.62
578.836	154.62
579.602	138.62
580.368	135.62
581.134	125.62
581.9	116.62
582.666	108.62
583.432	103.62
584.198	103.62
584.964	96.62
585.729	91.62
586.495	88.62
587.26	82.62
588.025	75.62
588.791	70.62
589.556	67.62
590.321	59.62
591.086	61.62
591.851	59.62
592.616	53.62
593.381	53.62
594.146	50.62
594.911	46.62
595.675	41.62
596.44	45.62
597.204	42.62
597.969	39.62
598.733	37.62
599.497	34.62
600.261	33.62
601.025	31.62
601.79	34.62
602.553	30.62
603.317	24.62
604.081	24.62
604.845	27.62
605.609	25.62
606.372	22.62
607.136	19.62
607.899	20.62
608.662	19.62
609.426	19.62
610.189	19.62
610.952	20.62
611.715	17.62
612.478	17.62
613.241	16.62
614.004	13.62
614.767	16.62
615.529	13.62
616.292	16.62
617.055	13.62
617.817	11.62
618.579	12.62
619.342	13.62
620.104	11.62
620.866	9.62
621.628	11.62
622.39	10.62
623.152	5.62
623.914	8.62
624.676	8.62
625.438	5.62
626.199	7.62
626.961	5.62
627.722	8.62
628.484	5.62
629.245	7.62
630.006	7.62
630.768	9.62
631.529	8.62
632.29	5.62
633.051	8.62
633.812	4.62
634.573	7.62
635.333	4.62
636.094	5.62
636.855	6.62
637.615	2.62
638.376	5.62
639.136	2.62
639.896	4.62
640.657	4.62
641.417	3.62
642.177	3.62
642.937	4.62
643.697	4.62
644.457	4.62
645.216	4.62
645.976	3.62
646.736	4.62
647.495	4.62
648.255	1.62
649.014	6.62
649.774	4.62
650.533	4.62
651.292	4.62
652.051	1.62
652.81	3.62
653.569	2.62
654.328	4.62
655.087	1.62
655.846	7.62
656.604	3.62
657.363	3.62
658.121	3.62
658.88	1.62
659.638	1.62
660.397	2.62
661.155	4.62
661.913	3.62
662.671	2.62
663.429	1.62
664.187	1.62
664.945	2.62
665.703	2.62
666.46	3.62
667.218	2.62
667.976	3.62
668.733	2.62
669.49	1.62
670.248	4.62
671.005	1.62
671.762	1.62
672.519	1.62
673.276	1.62
674.033	0.62
674.79	2.62
675.547	1.62
676.304	1.62
677.06	2.62
677.817	2.62
678.574	2.62
679.33	3.62
680.086	3.62
680.843	0.62
681.599	1.62
682.355	0.62
683.111	2.62
683.867	2.62
684.623	0.62
685.379	-0.38
686.135	1.62
686.89	0.62
687.646	2.62
688.402	-0.38
689.157	1.62
689.912	1.62
690.668	0.62
691.423	0.62
692.178	0.62
692.933	2.62
693.688	0.62
694.443	1.62
695.198	1.62
695.953	-1.38
696.708	2.62
697.462	0.62
698.217	0.62
698.972	3.62
699.726	-0.38
700.48	0.62
701.235	0.62
701.989	1.62
702.743	1.62
703.497	2.62
704.251	-1.38
705.005	1.62
705.759	1.62
706.513	1.62
707.266	1.62
708.02	1.62
708.774	2.62
709.527	1.62
710.28	1.62
711.034	0.62
711.787	1.62
712.54	0.62
713.293	0.62
714.046	-0.38
714.799	1.62
715.552	0.62
716.305	0.62
717.058	0.62
717.81	0.62
718.563	0.62
719.315	2.62
720.068	1.62
720.82	1.62
721.573	1.62
722.325	1.62
723.077	1.62
723.829	0.62
724.581	-0.38
725.333	1.62
726.085	2.62
726.836	-0.38
727.588	-0.38
728.34	2.62
729.091	4.62
729.843	0.62
730.594	1.62
731.346	0.62
732.097	2.62
732.848	-0.38
733.599	1.62
734.35	1.62
735.101	0.62
735.852	-0.38
736.603	2.62
737.354	1.62
738.104	0.62
738.855	1.62
739.605	1.62
740.356	0.62
741.106	3.62
741.856	1.62
742.607	2.62
743.357	2.62
744.107	1.62
744.857	1.62
745.607	2.62
746.357	2.62
747.106	3.62
747.856	2.62
748.606	2.62
749.355	0.62
750.105	3.62
750.854	2.62
751.603	4.62
752.353	1.62
753.102	2.62
753.851	1.62
754.6	0.62
755.349	1.62
756.098	0.62
756.847	1.62
757.595	2.62
758.344	1.62
759.093	3.62
759.841	2.62
760.589	2.62
761.338	2.62
762.086	4.62
762.834	3.62
763.582	1.62
764.331	2.62
765.079	1.62
765.826	4.62
766.574	4.62
767.322	4.62
768.07	4.62
768.817	2.62
769.565	4.62
770.312	3.62
771.06	2.62
771.807	3.62
772.554	3.62
773.302	6.62
774.049	2.62
774.796	3.62
775.543	2.62
776.29	3.62
777.036	5.62
777.783	3.62
778.53	4.62
779.276	6.62
780.023	5.62
780.769	1.62
781.516	4.62
782.262	5.62
783.008	4.62
783.754	3.62
784.5	2.62
785.246	4.62
785.992	5.62
786.738	4.62
787.484	6.62
788.23	4.62
788.975	6.62
789.721	6.62
790.466	2.62
791.212	6.62
791.957	5.62
792.702	4.62
793.447	3.62
794.193	4.62
794.938	5.62
795.683	5.62
796.427	4.62
797.172	5.62
797.917	3.62
798.662	4.62
799.406	6.62
800.151	3.62
800.895	3.62
801.64	3.62
802.384	4.62
803.128	0.62
803.872	3.62
804.616	4.62
805.36	3.62
806.104	2.62
806.848	3.62
807.592	2.62
808.336	5.62
809.079	3.62
809.823	3.62
810.566	3.62
811.31	2.62
812.053	2.62
812.796	3.62
813.539	2.62
814.283	1.62
815.026	0.62
815.769	2.62
816.511	2.62
817.254	4.62
817.997	0.62
818.74	1.62
819.482	2.62
820.225	4.62
820.967	2.62
821.71	2.62
822.452	1.62
823.194	3.62
823.936	4.62
824.678	1.62
825.42	1.62
826.162	3.62
826.904	-0.38
827.646	3.62
828.388	1.62
829.129	2.62
829.871	3.62
830.612	1.62
831.354	2.62
832.095	2.62
832.836	2.62
833.577	0.62
834.319	4.62
835.06	1.62
835.801	4.62
836.542	1.62
837.282	2.62
838.023	4.62
838.764	0.62
839.504	1.62
840.245	1.62
840.985	4.62
841.726	0.62
842.466	-0.38
843.206	0.62
843.946	0.62
844.687	2.62
845.427	1.62
846.166	1.62
846.906	2.62
847.646	2.62
848.386	2.62
849.125	1.62
849.865	1.62
850.605	1.62
851.344	1.62
852.083	2.62
852.823	1.62
853.562	1.62
854.301	0.62
855.04	2.62
855.779	2.62
856.518	0.62
857.257	1.62
857.995	-0.38
858.734	1.62
859.473	-0.38
860.211	1.62
860.95	1.62
861.688	0.62
862.426	0.62
863.165	-2.38
863.903	1.62
864.641	0.62
865.379	-0.38
866.117	2.62
866.855	-0.38
867.593	1.62
868.33	1.62
869.068	0.62
869.806	-0.38
870.543	-1.38
871.28	0.62
872.018	-0.38
872.755	1.62
873.492	1.62
874.229	0.62
874.967	-0.38
875.703	-0.38
876.44	2.62
877.177	-0.38
877.914	0.62
878.651	0.62
879.387	0.62
880.124	-0.38
880.86	-0.38
881.597	1.62
882.333	-2.38
883.069	0.62
883.806	0.62
884.542	0.62
885.278	-0.38
886.014	0.62
886.749	0.62
887.485	0.62
888.221	0.62
888.957	-3.38
889.692	1.62
890.428	-1.38
891.163	-0.38
891.899	0.62
892.634	0.62
893.369	0.62
894.104	1.62
894.839	-0.38
895.574	-0.38
896.309	-1.38
897.044	-0.38
897.779	0.62
898.514	1.62
899.248	-1.38
899.983	-1.38
900.717	2.62
901.452	-0.38
902.186	1.62
902.92	-0.38
903.654	2.62
904.389	0.62
905.123	-3.38
905.857	-0.38
906.59	-1.38
907.324	1.62
908.058	0.62
908.792	2.62
909.525	1.62
910.259	-1.38
910.992	-0.38
911.726	1.62
912.459	-1.38
913.192	-0.38
913.925	-1.38
914.658	-1.38
915.391	-0.38
916.124	-0.38
916.857	-0.38
917.59	-0.38
918.323	0.62
919.055	0.62
919.788	1.62
920.521	-2.38
921.253	1.62
921.985	-2.38
922.718	0.62
923.45	-0.38
924.182	-0.38
924.914	-0.38
925.646	-1.38
926.378	0.62
927.11	-0.38
927.841	-0.38
928.573	0.62
929.305	0.62
930.036	0.62
930.768	-0.38
931.499	-0.38
932.23	0.62
932.962	-0.38
933.693	-2.38
934.424	-1.38
935.155	-0.38
935.886	-1.38
936.617	-0.38
937.348	-0.38
938.078	-2.38
938.809	-2.38
939.54	-2.38
940.27	0.62
941.001	1.62
941.731	-2.38
942.461	0.62
943.191	-0.38
943.922	0.62
944.652	-2.38
945.382	-1.38
946.112	-2.38
946.841	-0.38
947.571	0.62
948.301	0.62
949.031	-0.38
949.76	-2.38
950.49	1.62
951.219	-1.38
951.948	1.62
952.678	-0.38
953.407	-2.38
954.136	0.62
954.865	-0.38
955.594	3.62
956.323	-0.38
957.052	0.62
957.78	-0.38
958.509	-1.38
959.238	0.62
959.966	0.62
960.695	-0.38
961.423	-0.38
962.151	-2.38
962.88	-0.38
963.608	1.62
964.336	-1.38
965.064	-3.38
965.792	1.62
966.52	0.62
967.247	0.62
967.975	-2.38
968.703	0.62
969.43	-2.38
970.158	-0.38
970.885	-0.38
971.613	-1.38
972.34	-2.38
973.067	2.62
973.794	-1.38
974.521	0.62
975.248	-2.38
975.975	0.62
976.702	0.62
977.429	0.62
978.156	0.62
978.882	-1.38
979.609	0.62
980.335	-1.38
981.062	-0.38
981.788	-0.38
982.514	-2.38
983.24	-0.38
983.967	-2.38
984.693	0.62
985.419	0.62
986.144	-2.38
986.87	1.62
987.596	-1.38
988.322	-0.38
989.047	-2.38
989.773	-0.38
990.498	-0.38
991.224	0.62
991.949	-0.38
992.674	2.62
993.399	-2.38
994.124	-2.38
994.849	0.62
995.574	1.62
996.299	-0.38
997.024	-1.38
997.749	-3.38
998.473	-1.38
999.198	0.62
999.922	-0.38
1000.647	-2.38
1001.371	5.62
1002.095	-0.38
1002.82	-0.38
1003.544	0.62
1004.268	-1.38
1004.992	0.62
1005.716	-2.38
1006.439	-0.38
1007.163	-0.38
1007.887	0.62
1008.611	-0.38
1009.334	1.62
1010.058	-2.38
1010.781	-0.38
1011.504	-1.38
1012.228	-0.38
1012.951	0.62
1013.674	-1.38
1014.397	-2.38
1015.12	-2.38
