节点500_145_QEPB04081__641__11-39-10-129.txt的数据

Date: Wed Nov 12 11:39:10 CST 2025
User: PC
Spectrometer: QEPB0408
触发模式: 0
积分时间 (秒): 1.000000E-2
Scans to average: 1
启用暗噪声校正: true
启用非线性校正: false
滑动平均宽度: 0
X轴模式: Wavelengths
Number of Pixels in Spectrum: 1044
>>>>>Begin Spectral Data<<<<<
220.843	-0.62
221.644	-0.62
222.444	0.38
223.244	1.38
224.045	-0.62
224.845	2.38
225.645	0.38
226.445	-0.62
227.245	1.38
228.045	-0.62
228.845	-1.62
229.645	-0.62
230.444	-0.62
231.244	0.38
232.043	2.38
232.843	0.38
233.642	0.38
234.442	2.38
235.241	0.38
236.04	1.38
236.839	0.38
237.638	2.38
238.437	2.38
239.236	1.38
240.035	2.38
240.833	-1.62
241.632	2.38
242.43	0.38
243.229	1.38
244.027	2.38
244.826	3.38
245.624	2.38
246.422	2.38
247.22	1.38
248.018	2.38
248.816	2.38
249.614	2.38
250.412	0.38
251.21	0.38
252.007	0.38
252.805	2.38
253.602	1.38
254.4	2.38
255.197	5.38
255.994	1.38
256.791	3.38
257.589	1.38
258.386	4.38
259.183	4.38
259.979	5.38
260.776	2.38
261.573	3.38
262.37	4.38
263.166	4.38
263.963	4.38
264.759	4.38
265.556	5.38
266.352	4.38
267.148	6.38
267.944	3.38
268.74	5.38
269.536	7.38
270.332	6.38
271.128	7.38
271.924	7.38
272.719	7.38
273.515	7.38
274.311	6.38
275.106	6.38
275.901	7.38
276.697	7.38
277.492	7.38
278.287	9.38
279.082	9.38
279.877	6.38
280.672	8.38
281.467	7.38
282.262	9.38
283.056	10.38
283.851	9.38
284.646	13.38
285.44	9.38
286.234	13.38
287.029	8.38
287.823	10.38
288.617	8.38
289.411	10.38
290.205	7.38
290.999	11.38
291.793	11.38
292.587	11.38
293.381	9.38
294.174	12.38
294.968	6.38
295.761	9.38
296.555	8.38
297.348	6.38
298.141	10.38
298.935	10.38
299.728	10.38
300.521	9.38
301.314	9.38
302.107	5.38
302.899	7.38
303.692	8.38
304.485	6.38
305.277	7.38
306.07	5.38
306.862	11.38
307.655	9.38
308.447	6.38
309.239	5.38
310.031	7.38
310.823	5.38
311.615	7.38
312.407	6.38
313.199	5.38
313.991	7.38
314.783	7.38
315.574	5.38
316.366	5.38
317.157	5.38
317.949	5.38
318.74	4.38
319.531	5.38
320.322	2.38
321.113	6.38
321.904	5.38
322.695	5.38
323.486	6.38
324.277	5.38
325.068	3.38
325.858	6.38
326.649	4.38
327.439	3.38
328.23	2.38
329.02	3.38
329.81	3.38
330.6	4.38
331.391	3.38
332.181	4.38
332.971	3.38
333.76	1.38
334.55	5.38
335.34	5.38
336.13	2.38
336.919	3.38
337.709	2.38
338.498	4.38
339.287	1.38
340.077	6.38
340.866	1.38
341.655	2.38
342.444	3.38
343.233	3.38
344.022	5.38
344.811	3.38
345.6	3.38
346.388	5.38
347.177	5.38
347.965	1.38
348.754	2.38
349.542	4.38
350.33	3.38
351.119	4.38
351.907	2.38
352.695	4.38
353.483	3.38
354.271	2.38
355.059	3.38
355.846	4.38
356.634	2.38
357.422	3.38
358.209	1.38
358.997	3.38
359.784	4.38
360.571	3.38
361.359	1.38
362.146	3.38
362.933	2.38
363.72	2.38
364.507	2.38
365.294	1.38
366.081	2.38
366.867	4.38
367.654	3.38
368.44	3.38
369.227	2.38
370.013	4.38
370.8	3.38
371.586	3.38
372.372	2.38
373.158	2.38
373.944	1.38
374.73	4.38
375.516	3.38
376.302	3.38
377.088	6.38
377.873	1.38
378.659	4.38
379.445	1.38
380.23	2.38
381.015	1.38
381.801	1.38
382.586	2.38
383.371	1.38
384.156	1.38
384.941	4.38
385.726	2.38
386.511	4.38
387.296	2.38
388.08	2.38
388.865	4.38
389.649	2.38
390.434	5.38
391.218	2.38
392.003	4.38
392.787	2.38
393.571	2.38
394.355	2.38
395.139	2.38
395.923	2.38
396.707	3.38
397.491	4.38
398.274	5.38
399.058	3.38
399.842	3.38
400.625	2.38
401.408	2.38
402.192	2.38
402.975	3.38
403.758	1.38
404.541	2.38
405.324	4.38
406.107	4.38
406.89	4.38
407.673	3.38
408.456	5.38
409.238	4.38
410.021	4.38
410.803	5.38
411.586	7.38
412.368	3.38
413.151	2.38
413.933	5.38
414.715	2.38
415.497	7.38
416.279	2.38
417.061	5.38
417.843	5.38
418.624	4.38
419.406	6.38
420.188	4.38
420.969	7.38
421.751	4.38
422.532	5.38
423.313	6.38
424.095	6.38
424.876	5.38
425.657	3.38
426.438	7.38
427.219	5.38
428	3.38
428.78	5.38
429.561	5.38
430.342	8.38
431.122	4.38
431.903	6.38
432.683	7.38
433.464	4.38
434.244	8.38
435.024	8.38
435.804	8.38
436.584	9.38
437.364	10.38
438.144	8.38
438.924	9.38
439.704	9.38
440.483	9.38
441.263	10.38
442.042	13.38
442.822	17.38
443.601	13.38
444.38	14.38
445.16	17.38
445.939	16.38
446.718	18.38
447.497	20.38
448.276	23.38
449.054	26.38
449.833	25.38
450.612	27.38
451.391	28.38
452.169	30.38
452.948	35.38
453.726	38.38
454.504	43.38
455.282	47.38
456.061	51.38
456.839	57.38
457.617	57.38
458.395	65.38
459.172	78.38
459.95	82.38
460.728	92.38
461.506	107.38
462.283	113.38
463.061	124.38
463.838	141.38
464.615	155.38
465.393	170.38
466.17	194.38
466.947	220.38
467.724	240.38
468.501	273.38
469.278	302.38
470.055	324.38
470.831	363.38
471.608	398.38
472.385	446.38
473.161	495.38
473.938	539.38
474.714	594.38
475.49	658.38
476.266	722.38
477.043	795.38
477.819	874.38
478.595	958.38
479.371	1058.38
480.146	1166.38
480.922	1270.38
481.698	1392.38
482.473	1526.38
483.249	1677.38
484.024	1833.38
484.8	2009.38
485.575	2188.38
486.35	2374.38
487.126	2620.38
487.901	2868.38
488.676	3106.38
489.451	3422.38
490.225	3729.38
491	4050.38
491.775	4415.38
492.55	4804.38
493.324	5243.38
494.099	5717.38
494.873	6181.38
495.647	6715.38
496.422	7246.38
497.196	7798.38
497.97	8451.38
498.744	9039.38
499.518	9737.38
500.292	10332.38
501.066	10989.38
501.839	11603.38
502.613	12199.38
503.387	12726.38
504.16	13324.38
504.934	13823.38
505.707	14241.38
506.48	14569.38
507.253	14821.38
508.027	14988.38
508.8	15132.38
509.573	15135.38
510.346	15050.38
511.118	14883.38
511.891	14687.38
512.664	14276.38
513.437	13944.38
514.209	13581.38
514.982	13100.38
515.754	12637.38
516.526	12163.38
517.298	11655.38
518.071	11210.38
518.843	10743.38
519.615	10255.38
520.387	9863.38
521.159	9431.38
521.93	9094.38
522.702	8701.38
523.474	8417.38
524.245	8056.38
525.017	7738.38
525.788	7437.38
526.56	7113.38
527.331	6841.38
528.102	6571.38
528.873	6296.38
529.644	6009.38
530.415	5760.38
531.186	5501.38
531.957	5224.38
532.728	5054.38
533.498	4744.38
534.269	4496.38
535.039	4274.38
535.81	4055.38
536.58	3836.38
537.351	3630.38
538.121	3425.38
538.891	3250.38
539.661	3087.38
540.431	2902.38
541.201	2754.38
541.971	2604.38
542.741	2460.38
543.51	2336.38
544.28	2231.38
545.05	2100.38
545.819	2004.38
546.588	1889.38
547.358	1807.38
548.127	1723.38
548.896	1612.38
549.665	1574.38
550.434	1482.38
551.203	1402.38
551.972	1357.38
552.741	1269.38
553.51	1210.38
554.278	1134.38
555.047	1077.38
555.815	1016.38
556.584	966.38
557.352	900.38
558.121	861.38
558.889	811.38
559.657	770.38
560.425	709.38
561.193	678.38
561.961	643.38
562.729	603.38
563.496	569.38
564.264	538.38
565.032	512.38
565.799	476.38
566.567	451.38
567.334	432.38
568.101	406.38
568.869	381.38
569.636	361.38
570.403	338.38
571.17	315.38
571.937	301.38
572.704	290.38
573.471	267.38
574.237	244.38
575.004	241.38
575.771	226.38
576.537	212.38
577.303	198.38
578.07	187.38
578.836	175.38
579.602	167.38
580.368	154.38
581.134	156.38
581.9	142.38
582.666	136.38
583.432	125.38
584.198	117.38
584.964	113.38
585.729	105.38
586.495	99.38
587.26	96.38
588.025	95.38
588.791	82.38
589.556	82.38
590.321	77.38
591.086	69.38
591.851	69.38
592.616	66.38
593.381	59.38
594.146	56.38
594.911	55.38
595.675	55.38
596.44	52.38
597.204	46.38
597.969	45.38
598.733	47.38
599.497	42.38
600.261	42.38
601.025	38.38
601.79	37.38
602.553	33.38
603.317	33.38
604.081	28.38
604.845	28.38
605.609	31.38
606.372	27.38
607.136	27.38
607.899	23.38
608.662	25.38
609.426	21.38
610.189	24.38
610.952	20.38
611.715	22.38
612.478	19.38
613.241	18.38
614.004	18.38
614.767	20.38
615.529	17.38
616.292	16.38
617.055	14.38
617.817	14.38
618.579	13.38
619.342	13.38
620.104	12.38
620.866	15.38
621.628	9.38
622.39	11.38
623.152	10.38
623.914	13.38
624.676	10.38
625.438	10.38
626.199	9.38
626.961	9.38
627.722	9.38
628.484	9.38
629.245	7.38
630.006	8.38
630.768	7.38
631.529	9.38
632.29	9.38
633.051	5.38
633.812	9.38
634.573	8.38
635.333	7.38
636.094	9.38
636.855	3.38
637.615	5.38
638.376	6.38
639.136	6.38
639.896	7.38
640.657	7.38
641.417	3.38
642.177	6.38
642.937	7.38
643.697	4.38
644.457	5.38
645.216	5.38
645.976	4.38
646.736	5.38
647.495	3.38
648.255	5.38
649.014	4.38
649.774	2.38
650.533	6.38
651.292	4.38
652.051	1.38
652.81	5.38
653.569	3.38
654.328	5.38
655.087	2.38
655.846	7.38
656.604	2.38
657.363	3.38
658.121	2.38
658.88	2.38
659.638	3.38
660.397	4.38
661.155	3.38
661.913	2.38
662.671	2.38
663.429	1.38
664.187	0.38
664.945	5.38
665.703	2.38
666.46	2.38
667.218	3.38
667.976	3.38
668.733	2.38
669.49	2.38
670.248	1.38
671.005	2.38
671.762	2.38
672.519	1.38
673.276	3.38
674.033	0.38
674.79	0.38
675.547	2.38
676.304	4.38
677.06	2.38
677.817	4.38
678.574	1.38
679.33	2.38
680.086	1.38
680.843	1.38
681.599	4.38
682.355	2.38
683.111	2.38
683.867	0.38
684.623	2.38
685.379	1.38
686.135	3.38
686.89	2.38
687.646	1.38
688.402	3.38
689.157	2.38
689.912	3.38
690.668	1.38
691.423	2.38
692.178	3.38
692.933	0.38
693.688	1.38
694.443	1.38
695.198	3.38
695.953	1.38
696.708	1.38
697.462	2.38
698.217	1.38
698.972	1.38
699.726	3.38
700.48	1.38
701.235	1.38
701.989	3.38
702.743	0.38
703.497	1.38
704.251	4.38
705.005	2.38
705.759	4.38
706.513	2.38
707.266	3.38
708.02	0.38
708.774	0.38
709.527	2.38
710.28	0.38
711.034	2.38
711.787	1.38
712.54	2.38
713.293	2.38
714.046	1.38
714.799	1.38
715.552	2.38
716.305	1.38
717.058	1.38
717.81	1.38
718.563	3.38
719.315	2.38
720.068	0.38
720.82	3.38
721.573	1.38
722.325	2.38
723.077	1.38
723.829	2.38
724.581	1.38
725.333	3.38
726.085	2.38
726.836	2.38
727.588	1.38
728.34	1.38
729.091	1.38
729.843	1.38
730.594	4.38
731.346	3.38
732.097	2.38
732.848	3.38
733.599	1.38
734.35	2.38
735.101	1.38
735.852	2.38
736.603	3.38
737.354	2.38
738.104	4.38
738.855	2.38
739.605	3.38
740.356	4.38
741.106	3.38
741.856	2.38
742.607	5.38
743.357	1.38
744.107	1.38
744.857	3.38
745.607	0.38
746.357	1.38
747.106	4.38
747.856	2.38
748.606	2.38
749.355	0.38
750.105	1.38
750.854	1.38
751.603	2.38
752.353	0.38
753.102	3.38
753.851	4.38
754.6	3.38
755.349	2.38
756.098	2.38
756.847	3.38
757.595	1.38
758.344	4.38
759.093	2.38
759.841	5.38
760.589	4.38
761.338	3.38
762.086	3.38
762.834	2.38
763.582	3.38
764.331	0.38
765.079	2.38
765.826	2.38
766.574	2.38
767.322	3.38
768.07	2.38
768.817	1.38
769.565	2.38
770.312	3.38
771.06	4.38
771.807	3.38
772.554	3.38
773.302	5.38
774.049	3.38
774.796	4.38
775.543	3.38
776.29	5.38
777.036	4.38
777.783	5.38
778.53	3.38
779.276	6.38
780.023	4.38
780.769	4.38
781.516	3.38
782.262	2.38
783.008	4.38
783.754	3.38
784.5	5.38
785.246	3.38
785.992	4.38
786.738	5.38
787.484	5.38
788.23	3.38
788.975	6.38
789.721	5.38
790.466	6.38
791.212	2.38
791.957	5.38
792.702	5.38
793.447	3.38
794.193	3.38
794.938	4.38
795.683	3.38
796.427	3.38
797.172	5.38
797.917	5.38
798.662	3.38
799.406	5.38
800.151	4.38
800.895	5.38
801.64	2.38
802.384	6.38
803.128	5.38
803.872	4.38
804.616	4.38
805.36	2.38
806.104	4.38
806.848	3.38
807.592	6.38
808.336	6.38
809.079	4.38
809.823	3.38
810.566	3.38
811.31	4.38
812.053	2.38
812.796	4.38
813.539	3.38
814.283	1.38
815.026	4.38
815.769	4.38
816.511	4.38
817.254	1.38
817.997	2.38
818.74	4.38
819.482	1.38
820.225	3.38
820.967	2.38
821.71	3.38
822.452	3.38
823.194	2.38
823.936	2.38
824.678	2.38
825.42	3.38
826.162	2.38
826.904	2.38
827.646	1.38
828.388	2.38
829.129	4.38
829.871	3.38
830.612	3.38
831.354	2.38
832.095	0.38
832.836	3.38
833.577	2.38
834.319	0.38
835.06	3.38
835.801	3.38
836.542	0.38
837.282	2.38
838.023	2.38
838.764	1.38
839.504	2.38
840.245	2.38
840.985	2.38
841.726	1.38
842.466	3.38
843.206	2.38
843.946	1.38
844.687	1.38
845.427	1.38
846.166	2.38
846.906	0.38
847.646	2.38
848.386	1.38
849.125	2.38
849.865	1.38
850.605	3.38
851.344	4.38
852.083	1.38
852.823	1.38
853.562	0.38
854.301	0.38
855.04	1.38
855.779	2.38
856.518	2.38
857.257	1.38
857.995	1.38
858.734	0.38
859.473	4.38
860.211	2.38
860.95	0.38
861.688	0.38
862.426	1.38
863.165	1.38
863.903	0.38
864.641	3.38
865.379	2.38
866.117	0.38
866.855	3.38
867.593	-1.62
868.33	1.38
869.068	3.38
869.806	1.38
870.543	3.38
871.28	0.38
872.018	-1.62
872.755	0.38
873.492	2.38
874.229	0.38
874.967	-0.62
875.703	2.38
876.44	0.38
877.177	2.38
877.914	2.38
878.651	0.38
879.387	0.38
880.124	-0.62
880.86	0.38
881.597	1.38
882.333	0.38
883.069	-0.62
883.806	0.38
884.542	1.38
885.278	0.38
886.014	1.38
886.749	-0.62
887.485	1.38
888.221	1.38
888.957	2.38
889.692	-1.62
890.428	-1.62
891.163	-0.62
891.899	0.38
892.634	-0.62
893.369	0.38
894.104	-0.62
894.839	1.38
895.574	0.38
896.309	0.38
897.044	1.38
897.779	1.38
898.514	0.38
899.248	1.38
899.983	0.38
900.717	1.38
901.452	0.38
902.186	-1.62
902.92	-1.62
903.654	-1.62
904.389	2.38
905.123	0.38
905.857	0.38
906.59	0.38
907.324	0.38
908.058	1.38
908.792	-1.62
909.525	0.38
910.259	-1.62
910.992	0.38
911.726	0.38
912.459	1.38
913.192	0.38
913.925	1.38
914.658	1.38
915.391	-0.62
916.124	0.38
916.857	-0.62
917.59	-1.62
918.323	0.38
919.055	-1.62
919.788	2.38
920.521	1.38
921.253	0.38
921.985	1.38
922.718	-1.62
923.45	1.38
924.182	-0.62
924.914	1.38
925.646	0.38
926.378	-0.62
927.11	0.38
927.841	1.38
928.573	0.38
929.305	-0.62
930.036	0.38
930.768	1.38
931.499	0.38
932.23	1.38
932.962	0.38
933.693	0.38
934.424	0.38
935.155	-0.62
935.886	-1.62
936.617	1.38
937.348	0.38
938.078	0.38
938.809	1.38
939.54	-0.62
940.27	0.38
941.001	1.38
941.731	0.38
942.461	0.38
943.191	-0.62
943.922	1.38
944.652	1.38
945.382	0.38
946.112	-1.62
946.841	1.38
947.571	1.38
948.301	1.38
949.031	1.38
949.76	0.38
950.49	-1.62
951.219	0.38
951.948	0.38
952.678	1.38
953.407	1.38
954.136	0.38
954.865	1.38
955.594	-1.62
956.323	3.38
957.052	2.38
957.78	0.38
958.509	0.38
959.238	0.38
959.966	-0.62
960.695	0.38
961.423	0.38
962.151	0.38
962.88	0.38
963.608	-0.62
964.336	2.38
965.064	0.38
965.792	1.38
966.52	1.38
967.247	-1.62
967.975	-0.62
968.703	-2.62
969.43	2.38
970.158	-0.62
970.885	-1.62
971.613	-1.62
972.34	0.38
973.067	0.38
973.794	-1.62
974.521	0.38
975.248	2.38
975.975	0.38
976.702	-1.62
977.429	0.38
978.156	1.38
978.882	0.38
979.609	-0.62
980.335	0.38
981.062	-1.62
981.788	-0.62
982.514	-0.62
983.24	1.38
983.967	1.38
984.693	1.38
985.419	-0.62
986.144	0.38
986.87	0.38
987.596	-0.62
988.322	0.38
989.047	0.38
989.773	-1.62
990.498	0.38
991.224	-1.62
991.949	1.38
992.674	0.38
993.399	1.38
994.124	-0.62
994.849	1.38
995.574	1.38
996.299	-2.62
997.024	-1.62
997.749	-0.62
998.473	1.38
999.198	1.38
999.922	0.38
1000.647	4.38
1001.371	3.38
1002.095	-0.62
1002.82	1.38
1003.544	0.38
1004.268	1.38
1004.992	-0.62
1005.716	0.38
1006.439	-0.62
1007.163	1.38
1007.887	0.38
1008.611	0.38
1009.334	-0.62
1010.058	1.38
1010.781	0.38
1011.504	0.38
1012.228	1.38
1012.951	-0.62
1013.674	1.38
1014.397	-0.62
1015.12	-4.62
