节点500_145_QEPB04081__645__11-39-13-114.txt的数据

Date: Wed Nov 12 11:39:13 CST 2025
User: PC
Spectrometer: QEPB0408
触发模式: 0
积分时间 (秒): 1.000000E-2
Scans to average: 1
启用暗噪声校正: true
启用非线性校正: false
滑动平均宽度: 0
X轴模式: Wavelengths
Number of Pixels in Spectrum: 1044
>>>>>Begin Spectral Data<<<<<
220.843	-1.88
221.644	0.12
222.444	-1.88
223.244	0.12
224.045	-0.88
224.845	1.12
225.645	1.12
226.445	0.12
227.245	0.12
228.045	0.12
228.845	1.12
229.645	1.12
230.444	1.12
231.244	0.12
232.043	1.12
232.843	-0.88
233.642	-1.88
234.442	1.12
235.241	1.12
236.04	1.12
236.839	1.12
237.638	0.12
238.437	1.12
239.236	3.12
240.035	0.12
240.833	3.12
241.632	1.12
242.43	2.12
243.229	0.12
244.027	-0.88
244.826	-0.88
245.624	1.12
246.422	1.12
247.22	2.12
248.018	1.12
248.816	2.12
249.614	2.12
250.412	3.12
251.21	2.12
252.007	2.12
252.805	4.12
253.602	2.12
254.4	2.12
255.197	-0.88
255.994	4.12
256.791	0.12
257.589	2.12
258.386	2.12
259.183	3.12
259.979	2.12
260.776	4.12
261.573	3.12
262.37	2.12
263.166	4.12
263.963	4.12
264.759	5.12
265.556	5.12
266.352	5.12
267.148	8.12
267.944	7.12
268.74	5.12
269.536	9.12
270.332	5.12
271.128	7.12
271.924	5.12
272.719	7.12
273.515	4.12
274.311	3.12
275.106	5.12
275.901	8.12
276.697	8.12
277.492	7.12
278.287	6.12
279.082	7.12
279.877	9.12
280.672	7.12
281.467	7.12
282.262	7.12
283.056	9.12
283.851	7.12
284.646	10.12
285.44	11.12
286.234	10.12
287.029	9.12
287.823	10.12
288.617	7.12
289.411	10.12
290.205	7.12
290.999	10.12
291.793	10.12
292.587	10.12
293.381	10.12
294.174	12.12
294.968	9.12
295.761	11.12
296.555	7.12
297.348	8.12
298.141	9.12
298.935	10.12
299.728	10.12
300.521	8.12
301.314	5.12
302.107	9.12
302.899	7.12
303.692	5.12
304.485	8.12
305.277	8.12
306.07	7.12
306.862	8.12
307.655	7.12
308.447	8.12
309.239	8.12
310.031	7.12
310.823	4.12
311.615	6.12
312.407	4.12
313.199	7.12
313.991	7.12
314.783	4.12
315.574	5.12
316.366	5.12
317.157	6.12
317.949	5.12
318.74	4.12
319.531	3.12
320.322	5.12
321.113	5.12
321.904	3.12
322.695	2.12
323.486	5.12
324.277	2.12
325.068	4.12
325.858	5.12
326.649	5.12
327.439	2.12
328.23	4.12
329.02	3.12
329.81	4.12
330.6	4.12
331.391	1.12
332.181	3.12
332.971	3.12
333.76	4.12
334.55	1.12
335.34	2.12
336.13	2.12
336.919	2.12
337.709	4.12
338.498	-0.88
339.287	4.12
340.077	3.12
340.866	2.12
341.655	5.12
342.444	3.12
343.233	3.12
344.022	2.12
344.811	1.12
345.6	4.12
346.388	2.12
347.177	2.12
347.965	2.12
348.754	4.12
349.542	2.12
350.33	1.12
351.119	4.12
351.907	1.12
352.695	3.12
353.483	2.12
354.271	4.12
355.059	2.12
355.846	3.12
356.634	2.12
357.422	2.12
358.209	1.12
358.997	1.12
359.784	5.12
360.571	1.12
361.359	4.12
362.146	3.12
362.933	2.12
363.72	2.12
364.507	2.12
365.294	2.12
366.081	1.12
366.867	3.12
367.654	4.12
368.44	2.12
369.227	2.12
370.013	1.12
370.8	2.12
371.586	4.12
372.372	3.12
373.158	1.12
373.944	3.12
374.73	1.12
375.516	1.12
376.302	2.12
377.088	2.12
377.873	1.12
378.659	2.12
379.445	3.12
380.23	2.12
381.015	2.12
381.801	3.12
382.586	3.12
383.371	3.12
384.156	1.12
384.941	1.12
385.726	3.12
386.511	3.12
387.296	3.12
388.08	3.12
388.865	4.12
389.649	2.12
390.434	0.12
391.218	2.12
392.003	2.12
392.787	3.12
393.571	3.12
394.355	5.12
395.139	1.12
395.923	3.12
396.707	1.12
397.491	3.12
398.274	3.12
399.058	1.12
399.842	5.12
400.625	4.12
401.408	2.12
402.192	1.12
402.975	1.12
403.758	6.12
404.541	4.12
405.324	5.12
406.107	5.12
406.89	4.12
407.673	5.12
408.456	7.12
409.238	2.12
410.021	5.12
410.803	5.12
411.586	5.12
412.368	5.12
413.151	4.12
413.933	4.12
414.715	4.12
415.497	4.12
416.279	5.12
417.061	4.12
417.843	5.12
418.624	2.12
419.406	5.12
420.188	7.12
420.969	5.12
421.751	6.12
422.532	5.12
423.313	7.12
424.095	5.12
424.876	4.12
425.657	6.12
426.438	6.12
427.219	8.12
428	7.12
428.78	5.12
429.561	5.12
430.342	7.12
431.122	5.12
431.903	7.12
432.683	9.12
433.464	7.12
434.244	6.12
435.024	10.12
435.804	7.12
436.584	10.12
437.364	9.12
438.144	9.12
438.924	9.12
439.704	10.12
440.483	13.12
441.263	10.12
442.042	12.12
442.822	14.12
443.601	14.12
444.38	15.12
445.16	17.12
445.939	17.12
446.718	16.12
447.497	21.12
448.276	22.12
449.054	19.12
449.833	26.12
450.612	27.12
451.391	29.12
452.169	32.12
452.948	33.12
453.726	38.12
454.504	43.12
455.282	43.12
456.061	52.12
456.839	56.12
457.617	58.12
458.395	67.12
459.172	76.12
459.95	84.12
460.728	94.12
461.506	100.12
462.283	114.12
463.061	129.12
463.838	144.12
464.615	156.12
465.393	171.12
466.17	200.12
466.947	218.12
467.724	237.12
468.501	263.12
469.278	293.12
470.055	326.12
470.831	354.12
471.608	396.12
472.385	446.12
473.161	492.12
473.938	549.12
474.714	596.12
475.49	649.12
476.266	734.12
477.043	792.12
477.819	872.12
478.595	961.12
479.371	1056.12
480.146	1146.12
480.922	1275.12
481.698	1396.12
482.473	1529.12
483.249	1672.12
484.024	1819.12
484.8	1999.12
485.575	2186.12
486.35	2404.12
487.126	2615.12
487.901	2846.12
488.676	3141.12
489.451	3422.12
490.225	3717.12
491	4042.12
491.775	4401.12
492.55	4825.12
493.324	5233.12
494.099	5675.12
494.873	6178.12
495.647	6691.12
496.422	7246.12
497.196	7794.12
497.97	8405.12
498.744	9045.12
499.518	9692.12
500.292	10333.12
501.066	10975.12
501.839	11599.12
502.613	12148.12
503.387	12732.12
504.16	13282.12
504.934	13728.12
505.707	14199.12
506.48	14523.12
507.253	14802.12
508.027	14916.12
508.8	15117.12
509.573	15083.12
510.346	15014.12
511.118	14880.12
511.891	14624.12
512.664	14302.12
513.437	13978.12
514.209	13486.12
514.982	13122.12
515.754	12636.12
516.526	12132.12
517.298	11619.12
518.071	11188.12
518.843	10692.12
519.615	10291.12
520.387	9840.12
521.159	9417.12
521.93	9076.12
522.702	8720.12
523.474	8417.12
524.245	8056.12
525.017	7732.12
525.788	7430.12
526.56	7134.12
527.331	6819.12
528.102	6565.12
528.873	6283.12
529.644	6012.12
530.415	5753.12
531.186	5519.12
531.957	5243.12
532.728	5007.12
533.498	4742.12
534.269	4525.12
535.039	4302.12
535.81	4066.12
536.58	3830.12
537.351	3639.12
538.121	3432.12
538.891	3247.12
539.661	3064.12
540.431	2896.12
541.201	2758.12
541.971	2602.12
542.741	2474.12
543.51	2346.12
544.28	2229.12
545.05	2090.12
545.819	2004.12
546.588	1889.12
547.358	1806.12
548.127	1728.12
548.896	1632.12
549.665	1560.12
550.434	1471.12
551.203	1405.12
551.972	1345.12
552.741	1262.12
553.51	1197.12
554.278	1134.12
555.047	1078.12
555.815	1013.12
556.584	958.12
557.352	903.12
558.121	844.12
558.889	807.12
559.657	764.12
560.425	716.12
561.193	678.12
561.961	643.12
562.729	611.12
563.496	578.12
564.264	543.12
565.032	506.12
565.799	485.12
566.567	454.12
567.334	425.12
568.101	406.12
568.869	383.12
569.636	355.12
570.403	337.12
571.17	325.12
571.937	305.12
572.704	287.12
573.471	265.12
574.237	255.12
575.004	243.12
575.771	229.12
576.537	209.12
577.303	201.12
578.07	188.12
578.836	173.12
579.602	166.12
580.368	156.12
581.134	147.12
581.9	137.12
582.666	133.12
583.432	123.12
584.198	115.12
584.964	115.12
585.729	104.12
586.495	100.12
587.26	95.12
588.025	92.12
588.791	81.12
589.556	81.12
590.321	78.12
591.086	69.12
591.851	71.12
592.616	66.12
593.381	61.12
594.146	58.12
594.911	55.12
595.675	51.12
596.44	49.12
597.204	48.12
597.969	48.12
598.733	44.12
599.497	41.12
600.261	39.12
601.025	36.12
601.79	37.12
602.553	35.12
603.317	33.12
604.081	27.12
604.845	30.12
605.609	29.12
606.372	25.12
607.136	27.12
607.899	26.12
608.662	21.12
609.426	25.12
610.189	21.12
610.952	24.12
611.715	20.12
612.478	20.12
613.241	17.12
614.004	21.12
614.767	14.12
615.529	13.12
616.292	16.12
617.055	15.12
617.817	18.12
618.579	15.12
619.342	14.12
620.104	11.12
620.866	13.12
621.628	13.12
622.39	10.12
623.152	11.12
623.914	12.12
624.676	10.12
625.438	12.12
626.199	11.12
626.961	8.12
627.722	12.12
628.484	9.12
629.245	8.12
630.006	8.12
630.768	10.12
631.529	8.12
632.29	10.12
633.051	5.12
633.812	6.12
634.573	5.12
635.333	6.12
636.094	5.12
636.855	4.12
637.615	7.12
638.376	7.12
639.136	6.12
639.896	4.12
640.657	5.12
641.417	8.12
642.177	4.12
642.937	6.12
643.697	5.12
644.457	4.12
645.216	4.12
645.976	6.12
646.736	6.12
647.495	7.12
648.255	6.12
649.014	5.12
649.774	4.12
650.533	2.12
651.292	5.12
652.051	4.12
652.81	2.12
653.569	4.12
654.328	2.12
655.087	5.12
655.846	4.12
656.604	3.12
657.363	4.12
658.121	2.12
658.88	2.12
659.638	2.12
660.397	2.12
661.155	3.12
661.913	3.12
662.671	2.12
663.429	3.12
664.187	3.12
664.945	2.12
665.703	3.12
666.46	2.12
667.218	5.12
667.976	2.12
668.733	1.12
669.49	4.12
670.248	0.12
671.005	1.12
671.762	2.12
672.519	0.12
673.276	4.12
674.033	1.12
674.79	3.12
675.547	1.12
676.304	2.12
677.06	4.12
677.817	2.12
678.574	2.12
679.33	0.12
680.086	2.12
680.843	1.12
681.599	0.12
682.355	-0.88
683.111	1.12
683.867	1.12
684.623	2.12
685.379	2.12
686.135	3.12
686.89	0.12
687.646	1.12
688.402	-0.88
689.157	2.12
689.912	-0.88
690.668	2.12
691.423	0.12
692.178	2.12
692.933	0.12
693.688	2.12
694.443	0.12
695.198	2.12
695.953	1.12
696.708	-0.88
697.462	2.12
698.217	-0.88
698.972	5.12
699.726	1.12
700.48	0.12
701.235	3.12
701.989	3.12
702.743	1.12
703.497	4.12
704.251	-0.88
705.005	2.12
705.759	-2.88
706.513	3.12
707.266	1.12
708.02	1.12
708.774	3.12
709.527	-0.88
710.28	1.12
711.034	2.12
711.787	2.12
712.54	1.12
713.293	2.12
714.046	4.12
714.799	1.12
715.552	1.12
716.305	3.12
717.058	2.12
717.81	0.12
718.563	-0.88
719.315	2.12
720.068	1.12
720.82	0.12
721.573	-0.88
722.325	3.12
723.077	2.12
723.829	2.12
724.581	2.12
725.333	0.12
726.085	2.12
726.836	0.12
727.588	2.12
728.34	1.12
729.091	1.12
729.843	2.12
730.594	1.12
731.346	2.12
732.097	2.12
732.848	1.12
733.599	3.12
734.35	1.12
735.101	2.12
735.852	2.12
736.603	2.12
737.354	1.12
738.104	2.12
738.855	1.12
739.605	2.12
740.356	2.12
741.106	1.12
741.856	1.12
742.607	2.12
743.357	4.12
744.107	0.12
744.857	3.12
745.607	3.12
746.357	4.12
747.106	3.12
747.856	0.12
748.606	2.12
749.355	1.12
750.105	1.12
750.854	0.12
751.603	2.12
752.353	3.12
753.102	2.12
753.851	0.12
754.6	2.12
755.349	2.12
756.098	4.12
756.847	1.12
757.595	3.12
758.344	3.12
759.093	1.12
759.841	2.12
760.589	2.12
761.338	3.12
762.086	3.12
762.834	2.12
763.582	4.12
764.331	3.12
765.079	2.12
765.826	3.12
766.574	4.12
767.322	2.12
768.07	4.12
768.817	2.12
769.565	3.12
770.312	2.12
771.06	2.12
771.807	4.12
772.554	4.12
773.302	3.12
774.049	4.12
774.796	4.12
775.543	4.12
776.29	2.12
777.036	4.12
777.783	3.12
778.53	3.12
779.276	7.12
780.023	5.12
780.769	3.12
781.516	4.12
782.262	3.12
783.008	4.12
783.754	6.12
784.5	5.12
785.246	3.12
785.992	3.12
786.738	3.12
787.484	4.12
788.23	4.12
788.975	5.12
789.721	3.12
790.466	5.12
791.212	5.12
791.957	4.12
792.702	4.12
793.447	3.12
794.193	5.12
794.938	2.12
795.683	3.12
796.427	2.12
797.172	1.12
797.917	5.12
798.662	2.12
799.406	4.12
800.151	4.12
800.895	3.12
801.64	5.12
802.384	2.12
803.128	4.12
803.872	5.12
804.616	4.12
805.36	2.12
806.104	1.12
806.848	4.12
807.592	0.12
808.336	2.12
809.079	1.12
809.823	4.12
810.566	3.12
811.31	2.12
812.053	4.12
812.796	4.12
813.539	3.12
814.283	2.12
815.026	3.12
815.769	2.12
816.511	3.12
817.254	3.12
817.997	1.12
818.74	3.12
819.482	2.12
820.225	1.12
820.967	2.12
821.71	2.12
822.452	5.12
823.194	3.12
823.936	3.12
824.678	1.12
825.42	2.12
826.162	4.12
826.904	2.12
827.646	2.12
828.388	2.12
829.129	3.12
829.871	2.12
830.612	0.12
831.354	1.12
832.095	4.12
832.836	3.12
833.577	2.12
834.319	1.12
835.06	1.12
835.801	0.12
836.542	4.12
837.282	0.12
838.023	3.12
838.764	3.12
839.504	1.12
840.245	2.12
840.985	2.12
841.726	3.12
842.466	1.12
843.206	4.12
843.946	1.12
844.687	4.12
845.427	3.12
846.166	1.12
846.906	2.12
847.646	3.12
848.386	3.12
849.125	3.12
849.865	0.12
850.605	1.12
851.344	2.12
852.083	2.12
852.823	2.12
853.562	2.12
854.301	0.12
855.04	1.12
855.779	2.12
856.518	1.12
857.257	1.12
857.995	2.12
858.734	0.12
859.473	1.12
860.211	1.12
860.95	0.12
861.688	0.12
862.426	-0.88
863.165	-0.88
863.903	2.12
864.641	1.12
865.379	1.12
866.117	0.12
866.855	0.12
867.593	4.12
868.33	0.12
869.068	0.12
869.806	2.12
870.543	1.12
871.28	1.12
872.018	0.12
872.755	2.12
873.492	0.12
874.229	1.12
874.967	1.12
875.703	1.12
876.44	0.12
877.177	0.12
877.914	3.12
878.651	-0.88
879.387	1.12
880.124	1.12
880.86	-0.88
881.597	2.12
882.333	0.12
883.069	-0.88
883.806	-0.88
884.542	-1.88
885.278	-0.88
886.014	0.12
886.749	2.12
887.485	-0.88
888.221	1.12
888.957	-2.88
889.692	2.12
890.428	0.12
891.163	1.12
891.899	2.12
892.634	1.12
893.369	0.12
894.104	-1.88
894.839	0.12
895.574	-0.88
896.309	-0.88
897.044	-0.88
897.779	-1.88
898.514	0.12
899.248	-0.88
899.983	0.12
900.717	-0.88
901.452	-0.88
902.186	0.12
902.92	1.12
903.654	1.12
904.389	1.12
905.123	2.12
905.857	-1.88
906.59	0.12
907.324	0.12
908.058	-0.88
908.792	-0.88
909.525	2.12
910.259	-0.88
910.992	1.12
911.726	1.12
912.459	1.12
913.192	-2.88
913.925	-0.88
914.658	0.12
915.391	-0.88
916.124	-1.88
916.857	-2.88
917.59	0.12
918.323	-0.88
919.055	1.12
919.788	-1.88
920.521	-0.88
921.253	-0.88
921.985	0.12
922.718	-0.88
923.45	1.12
924.182	0.12
924.914	-1.88
925.646	0.12
926.378	2.12
927.11	0.12
927.841	0.12
928.573	-0.88
929.305	-1.88
930.036	1.12
930.768	2.12
931.499	-0.88
932.23	1.12
932.962	1.12
933.693	-1.88
934.424	-0.88
935.155	1.12
935.886	-1.88
936.617	-0.88
937.348	-0.88
938.078	1.12
938.809	-1.88
939.54	-0.88
940.27	-0.88
941.001	1.12
941.731	0.12
942.461	0.12
943.191	1.12
943.922	0.12
944.652	0.12
945.382	2.12
946.112	1.12
946.841	-0.88
947.571	-1.88
948.301	0.12
949.031	-0.88
949.76	1.12
950.49	-1.88
951.219	0.12
951.948	1.12
952.678	0.12
953.407	1.12
954.136	-2.88
954.865	0.12
955.594	-0.88
956.323	1.12
957.052	-0.88
957.78	0.12
958.509	-1.88
959.238	-0.88
959.966	2.12
960.695	2.12
961.423	2.12
962.151	0.12
962.88	0.12
963.608	0.12
964.336	-0.88
965.064	2.12
965.792	-2.88
966.52	0.12
967.247	0.12
967.975	0.12
968.703	0.12
969.43	-0.88
970.158	-0.88
970.885	-0.88
971.613	0.12
972.34	0.12
973.067	-1.88
973.794	-2.88
974.521	-0.88
975.248	0.12
975.975	-0.88
976.702	0.12
977.429	1.12
978.156	1.12
978.882	0.12
979.609	-0.88
980.335	-0.88
981.062	-0.88
981.788	1.12
982.514	0.12
983.24	-0.88
983.967	2.12
984.693	-2.88
985.419	0.12
986.144	0.12
986.87	0.12
987.596	-1.88
988.322	-1.88
989.047	1.12
989.773	-2.88
990.498	1.12
991.224	1.12
991.949	-1.88
992.674	-0.88
993.399	1.12
994.124	-1.88
994.849	-0.88
995.574	-0.88
996.299	-0.88
997.024	0.12
997.749	0.12
998.473	0.12
999.198	-0.88
999.922	-0.88
1000.647	0.12
1001.371	3.12
1002.095	-1.88
1002.82	-0.88
1003.544	-0.88
1004.268	-0.88
1004.992	-1.88
1005.716	-1.88
1006.439	0.12
1007.163	-2.88
1007.887	-0.88
1008.611	0.12
1009.334	-1.88
1010.058	1.12
1010.781	1.12
1011.504	0.12
1012.228	-0.88
1012.951	0.12
1013.674	-0.88
1014.397	1.12
1015.12	0.12
