节点500_145_QEPB04081__544__11-37-35-462.txt的数据

Date: Wed Nov 12 11:37:35 CST 2025
User: PC
Spectrometer: QEPB0408
触发模式: 0
积分时间 (秒): 1.000000E-2
Scans to average: 1
启用暗噪声校正: true
启用非线性校正: false
滑动平均宽度: 0
X轴模式: Wavelengths
Number of Pixels in Spectrum: 1044
>>>>>Begin Spectral Data<<<<<
220.843	0.88
221.644	-0.12
222.444	0.88
223.244	-1.12
224.045	-0.12
224.845	-1.12
225.645	-1.12
226.445	-0.12
227.245	-0.12
228.045	-0.12
228.845	0.88
229.645	0.88
230.444	0.88
231.244	-0.12
232.043	-0.12
232.843	0.88
233.642	0.88
234.442	0.88
235.241	0.88
236.04	0.88
236.839	0.88
237.638	3.88
238.437	0.88
239.236	1.88
240.035	-0.12
240.833	1.88
241.632	1.88
242.43	2.88
243.229	1.88
244.027	2.88
244.826	3.88
245.624	0.88
246.422	0.88
247.22	2.88
248.018	1.88
248.816	3.88
249.614	1.88
250.412	3.88
251.21	1.88
252.007	2.88
252.805	2.88
253.602	1.88
254.4	4.88
255.197	3.88
255.994	4.88
256.791	3.88
257.589	4.88
258.386	4.88
259.183	1.88
259.979	6.88
260.776	3.88
261.573	4.88
262.37	6.88
263.166	5.88
263.963	5.88
264.759	4.88
265.556	8.88
266.352	6.88
267.148	5.88
267.944	5.88
268.74	6.88
269.536	9.88
270.332	6.88
271.128	8.88
271.924	8.88
272.719	8.88
273.515	5.88
274.311	6.88
275.106	9.88
275.901	8.88
276.697	8.88
277.492	5.88
278.287	9.88
279.082	7.88
279.877	9.88
280.672	6.88
281.467	6.88
282.262	9.88
283.056	10.88
283.851	8.88
284.646	9.88
285.44	11.88
286.234	11.88
287.029	9.88
287.823	9.88
288.617	11.88
289.411	12.88
290.205	12.88
290.999	10.88
291.793	11.88
292.587	10.88
293.381	9.88
294.174	10.88
294.968	10.88
295.761	8.88
296.555	10.88
297.348	12.88
298.141	8.88
298.935	11.88
299.728	10.88
300.521	9.88
301.314	7.88
302.107	6.88
302.899	9.88
303.692	9.88
304.485	9.88
305.277	7.88
306.07	8.88
306.862	7.88
307.655	7.88
308.447	7.88
309.239	7.88
310.031	8.88
310.823	7.88
311.615	7.88
312.407	8.88
313.199	4.88
313.991	6.88
314.783	3.88
315.574	7.88
316.366	2.88
317.157	6.88
317.949	4.88
318.74	6.88
319.531	7.88
320.322	3.88
321.113	3.88
321.904	5.88
322.695	5.88
323.486	5.88
324.277	3.88
325.068	6.88
325.858	4.88
326.649	3.88
327.439	4.88
328.23	3.88
329.02	3.88
329.81	3.88
330.6	5.88
331.391	4.88
332.181	6.88
332.971	4.88
333.76	3.88
334.55	4.88
335.34	4.88
336.13	3.88
336.919	4.88
337.709	3.88
338.498	4.88
339.287	1.88
340.077	3.88
340.866	3.88
341.655	2.88
342.444	3.88
343.233	4.88
344.022	4.88
344.811	6.88
345.6	3.88
346.388	2.88
347.177	2.88
347.965	1.88
348.754	3.88
349.542	1.88
350.33	3.88
351.119	4.88
351.907	2.88
352.695	4.88
353.483	1.88
354.271	3.88
355.059	4.88
355.846	4.88
356.634	4.88
357.422	3.88
358.209	3.88
358.997	1.88
359.784	2.88
360.571	3.88
361.359	2.88
362.146	3.88
362.933	2.88
363.72	6.88
364.507	2.88
365.294	2.88
366.081	2.88
366.867	2.88
367.654	2.88
368.44	3.88
369.227	1.88
370.013	5.88
370.8	3.88
371.586	2.88
372.372	2.88
373.158	3.88
373.944	2.88
374.73	1.88
375.516	3.88
376.302	2.88
377.088	2.88
377.873	2.88
378.659	1.88
379.445	2.88
380.23	0.88
381.015	2.88
381.801	0.88
382.586	3.88
383.371	3.88
384.156	2.88
384.941	3.88
385.726	4.88
386.511	2.88
387.296	3.88
388.08	4.88
388.865	2.88
389.649	3.88
390.434	3.88
391.218	2.88
392.003	2.88
392.787	2.88
393.571	3.88
394.355	2.88
395.139	3.88
395.923	2.88
396.707	3.88
397.491	3.88
398.274	3.88
399.058	3.88
399.842	5.88
400.625	3.88
401.408	4.88
402.192	2.88
402.975	4.88
403.758	1.88
404.541	3.88
405.324	4.88
406.107	4.88
406.89	4.88
407.673	4.88
408.456	5.88
409.238	4.88
410.021	4.88
410.803	2.88
411.586	2.88
412.368	5.88
413.151	5.88
413.933	5.88
414.715	3.88
415.497	5.88
416.279	3.88
417.061	6.88
417.843	6.88
418.624	5.88
419.406	3.88
420.188	4.88
420.969	4.88
421.751	5.88
422.532	4.88
423.313	6.88
424.095	6.88
424.876	9.88
425.657	6.88
426.438	6.88
427.219	7.88
428	5.88
428.78	6.88
429.561	7.88
430.342	6.88
431.122	7.88
431.903	8.88
432.683	7.88
433.464	5.88
434.244	9.88
435.024	9.88
435.804	8.88
436.584	8.88
437.364	12.88
438.144	10.88
438.924	10.88
439.704	12.88
440.483	11.88
441.263	12.88
442.042	11.88
442.822	12.88
443.601	16.88
444.38	18.88
445.16	15.88
445.939	14.88
446.718	18.88
447.497	18.88
448.276	20.88
449.054	22.88
449.833	22.88
450.612	28.88
451.391	25.88
452.169	31.88
452.948	34.88
453.726	36.88
454.504	40.88
455.282	45.88
456.061	46.88
456.839	52.88
457.617	59.88
458.395	68.88
459.172	75.88
459.95	83.88
460.728	90.88
461.506	98.88
462.283	111.88
463.061	124.88
463.838	137.88
464.615	154.88
465.393	167.88
466.17	185.88
466.947	212.88
467.724	234.88
468.501	260.88
469.278	291.88
470.055	315.88
470.831	357.88
471.608	386.88
472.385	436.88
473.161	479.88
473.938	537.88
474.714	587.88
475.49	646.88
476.266	713.88
477.043	787.88
477.819	873.88
478.595	955.88
479.371	1059.88
480.146	1154.88
480.922	1280.88
481.698	1403.88
482.473	1537.88
483.249	1681.88
484.024	1847.88
484.8	2030.88
485.575	2210.88
486.35	2429.88
487.126	2686.88
487.901	2922.88
488.676	3199.88
489.451	3505.88
490.225	3851.88
491	4188.88
491.775	4595.88
492.55	5004.88
493.324	5468.88
494.099	5968.88
494.873	6465.88
495.647	7037.88
496.422	7640.88
497.196	8233.88
497.97	8839.88
498.744	9578.88
499.518	10228.88
500.292	10863.88
501.066	11550.88
501.839	12211.88
502.613	12848.88
503.387	13424.88
504.16	13963.88
504.934	14448.88
505.707	14867.88
506.48	15152.88
507.253	15439.88
508.027	15545.88
508.8	15657.88
509.573	15610.88
510.346	15452.88
511.118	15230.88
511.891	14957.88
512.664	14553.88
513.437	14149.88
514.209	13680.88
514.982	13229.88
515.754	12725.88
516.526	12240.88
517.298	11688.88
518.071	11197.88
518.843	10758.88
519.615	10258.88
520.387	9820.88
521.159	9453.88
521.93	9063.88
522.702	8714.88
523.474	8367.88
524.245	8071.88
525.017	7742.88
525.788	7422.88
526.56	7087.88
527.331	6821.88
528.102	6590.88
528.873	6278.88
529.644	6003.88
530.415	5739.88
531.186	5460.88
531.957	5195.88
532.728	4953.88
533.498	4694.88
534.269	4465.88
535.039	4226.88
535.81	3985.88
536.58	3805.88
537.351	3559.88
538.121	3379.88
538.891	3189.88
539.661	3018.88
540.431	2861.88
541.201	2696.88
541.971	2569.88
542.741	2426.88
543.51	2300.88
544.28	2178.88
545.05	2086.88
545.819	1950.88
546.588	1875.88
547.358	1772.88
548.127	1694.88
548.896	1607.88
549.665	1526.88
550.434	1456.88
551.203	1400.88
551.972	1306.88
552.741	1237.88
553.51	1184.88
554.278	1117.88
555.047	1049.88
555.815	995.88
556.584	931.88
557.352	883.88
558.121	836.88
558.889	790.88
559.657	749.88
560.425	701.88
561.193	664.88
561.961	622.88
562.729	589.88
563.496	552.88
564.264	526.88
565.032	505.88
565.799	469.88
566.567	446.88
567.334	415.88
568.101	390.88
568.869	370.88
569.636	353.88
570.403	331.88
571.17	306.88
571.937	293.88
572.704	276.88
573.471	263.88
574.237	243.88
575.004	227.88
575.771	220.88
576.537	205.88
577.303	198.88
578.07	177.88
578.836	175.88
579.602	164.88
580.368	149.88
581.134	145.88
581.9	136.88
582.666	132.88
583.432	120.88
584.198	118.88
584.964	111.88
585.729	105.88
586.495	98.88
587.26	91.88
588.025	85.88
588.791	78.88
589.556	77.88
590.321	76.88
591.086	67.88
591.851	65.88
592.616	63.88
593.381	62.88
594.146	57.88
594.911	55.88
595.675	52.88
596.44	50.88
597.204	46.88
597.969	42.88
598.733	42.88
599.497	41.88
600.261	37.88
601.025	36.88
601.79	34.88
602.553	33.88
603.317	33.88
604.081	33.88
604.845	28.88
605.609	28.88
606.372	28.88
607.136	24.88
607.899	27.88
608.662	24.88
609.426	22.88
610.189	22.88
610.952	20.88
611.715	20.88
612.478	17.88
613.241	18.88
614.004	19.88
614.767	19.88
615.529	17.88
616.292	13.88
617.055	17.88
617.817	14.88
618.579	14.88
619.342	13.88
620.104	12.88
620.866	11.88
621.628	10.88
622.39	13.88
623.152	10.88
623.914	11.88
624.676	13.88
625.438	11.88
626.199	9.88
626.961	9.88
627.722	8.88
628.484	6.88
629.245	9.88
630.006	8.88
630.768	8.88
631.529	8.88
632.29	8.88
633.051	9.88
633.812	7.88
634.573	6.88
635.333	6.88
636.094	2.88
636.855	7.88
637.615	8.88
638.376	7.88
639.136	6.88
639.896	5.88
640.657	5.88
641.417	5.88
642.177	7.88
642.937	6.88
643.697	4.88
644.457	3.88
645.216	5.88
645.976	5.88
646.736	6.88
647.495	5.88
648.255	4.88
649.014	4.88
649.774	5.88
650.533	5.88
651.292	4.88
652.051	6.88
652.81	4.88
653.569	1.88
654.328	2.88
655.087	4.88
655.846	4.88
656.604	4.88
657.363	3.88
658.121	3.88
658.88	2.88
659.638	3.88
660.397	4.88
661.155	3.88
661.913	3.88
662.671	3.88
663.429	2.88
664.187	4.88
664.945	2.88
665.703	4.88
666.46	3.88
667.218	3.88
667.976	0.88
668.733	2.88
669.49	2.88
670.248	3.88
671.005	2.88
671.762	3.88
672.519	3.88
673.276	1.88
674.033	3.88
674.79	2.88
675.547	0.88
676.304	2.88
677.06	2.88
677.817	3.88
678.574	2.88
679.33	3.88
680.086	1.88
680.843	3.88
681.599	2.88
682.355	0.88
683.111	3.88
683.867	1.88
684.623	1.88
685.379	1.88
686.135	3.88
686.89	3.88
687.646	2.88
688.402	1.88
689.157	2.88
689.912	2.88
690.668	1.88
691.423	1.88
692.178	2.88
692.933	1.88
693.688	1.88
694.443	2.88
695.198	1.88
695.953	2.88
696.708	2.88
697.462	2.88
698.217	2.88
698.972	1.88
699.726	3.88
700.48	4.88
701.235	1.88
701.989	3.88
702.743	2.88
703.497	0.88
704.251	4.88
705.005	5.88
705.759	1.88
706.513	2.88
707.266	2.88
708.02	1.88
708.774	2.88
709.527	0.88
710.28	1.88
711.034	1.88
711.787	1.88
712.54	1.88
713.293	0.88
714.046	-0.12
714.799	3.88
715.552	0.88
716.305	2.88
717.058	0.88
717.81	2.88
718.563	1.88
719.315	0.88
720.068	3.88
720.82	3.88
721.573	1.88
722.325	1.88
723.077	-0.12
723.829	2.88
724.581	1.88
725.333	1.88
726.085	3.88
726.836	2.88
727.588	0.88
728.34	1.88
729.091	2.88
729.843	3.88
730.594	4.88
731.346	3.88
732.097	3.88
732.848	2.88
733.599	3.88
734.35	1.88
735.101	1.88
735.852	2.88
736.603	1.88
737.354	2.88
738.104	2.88
738.855	1.88
739.605	1.88
740.356	2.88
741.106	1.88
741.856	1.88
742.607	2.88
743.357	1.88
744.107	1.88
744.857	4.88
745.607	2.88
746.357	3.88
747.106	2.88
747.856	2.88
748.606	5.88
749.355	1.88
750.105	1.88
750.854	2.88
751.603	3.88
752.353	3.88
753.102	3.88
753.851	-0.12
754.6	0.88
755.349	1.88
756.098	2.88
756.847	3.88
757.595	2.88
758.344	2.88
759.093	2.88
759.841	2.88
760.589	2.88
761.338	2.88
762.086	2.88
762.834	3.88
763.582	2.88
764.331	3.88
765.079	2.88
765.826	2.88
766.574	2.88
767.322	4.88
768.07	4.88
768.817	5.88
769.565	5.88
770.312	2.88
771.06	4.88
771.807	4.88
772.554	6.88
773.302	7.88
774.049	3.88
774.796	6.88
775.543	3.88
776.29	3.88
777.036	3.88
777.783	5.88
778.53	5.88
779.276	1.88
780.023	5.88
780.769	5.88
781.516	4.88
782.262	4.88
783.008	4.88
783.754	4.88
784.5	6.88
785.246	4.88
785.992	5.88
786.738	6.88
787.484	2.88
788.23	5.88
788.975	6.88
789.721	3.88
790.466	2.88
791.212	7.88
791.957	5.88
792.702	5.88
793.447	4.88
794.193	5.88
794.938	7.88
795.683	4.88
796.427	4.88
797.172	4.88
797.917	4.88
798.662	4.88
799.406	3.88
800.151	5.88
800.895	3.88
801.64	4.88
802.384	5.88
803.128	3.88
803.872	4.88
804.616	4.88
805.36	3.88
806.104	3.88
806.848	2.88
807.592	3.88
808.336	2.88
809.079	2.88
809.823	4.88
810.566	3.88
811.31	3.88
812.053	3.88
812.796	4.88
813.539	3.88
814.283	2.88
815.026	2.88
815.769	2.88
816.511	1.88
817.254	2.88
817.997	3.88
818.74	2.88
819.482	5.88
820.225	3.88
820.967	2.88
821.71	3.88
822.452	2.88
823.194	3.88
823.936	2.88
824.678	2.88
825.42	-1.12
826.162	1.88
826.904	1.88
827.646	2.88
828.388	4.88
829.129	1.88
829.871	5.88
830.612	3.88
831.354	3.88
832.095	2.88
832.836	4.88
833.577	2.88
834.319	3.88
835.06	2.88
835.801	3.88
836.542	3.88
837.282	5.88
838.023	3.88
838.764	4.88
839.504	3.88
840.245	4.88
840.985	0.88
841.726	0.88
842.466	3.88
843.206	0.88
843.946	1.88
844.687	4.88
845.427	2.88
846.166	3.88
846.906	2.88
847.646	3.88
848.386	0.88
849.125	4.88
849.865	1.88
850.605	0.88
851.344	2.88
852.083	1.88
852.823	3.88
853.562	1.88
854.301	2.88
855.04	1.88
855.779	2.88
856.518	1.88
857.257	1.88
857.995	4.88
858.734	-0.12
859.473	2.88
860.211	1.88
860.95	2.88
861.688	1.88
862.426	1.88
863.165	1.88
863.903	1.88
864.641	2.88
865.379	0.88
866.117	1.88
866.855	2.88
867.593	1.88
868.33	2.88
869.068	1.88
869.806	2.88
870.543	1.88
871.28	0.88
872.018	1.88
872.755	2.88
873.492	0.88
874.229	-0.12
874.967	0.88
875.703	0.88
876.44	2.88
877.177	0.88
877.914	-0.12
878.651	3.88
879.387	-1.12
880.124	1.88
880.86	1.88
881.597	-1.12
882.333	0.88
883.069	-0.12
883.806	2.88
884.542	-0.12
885.278	1.88
886.014	0.88
886.749	1.88
887.485	0.88
888.221	0.88
888.957	0.88
889.692	3.88
890.428	3.88
891.163	0.88
891.899	-1.12
892.634	0.88
893.369	-1.12
894.104	-0.12
894.839	2.88
895.574	2.88
896.309	0.88
897.044	1.88
897.779	-0.12
898.514	1.88
899.248	1.88
899.983	0.88
900.717	3.88
901.452	0.88
902.186	1.88
902.92	3.88
903.654	-0.12
904.389	-1.12
905.123	-1.12
905.857	1.88
906.59	1.88
907.324	0.88
908.058	3.88
908.792	1.88
909.525	1.88
910.259	-1.12
910.992	2.88
911.726	1.88
912.459	-1.12
913.192	2.88
913.925	-1.12
914.658	0.88
915.391	1.88
916.124	-1.12
916.857	-0.12
917.59	0.88
918.323	0.88
919.055	-0.12
919.788	-1.12
920.521	2.88
921.253	-0.12
921.985	0.88
922.718	1.88
923.45	1.88
924.182	1.88
924.914	3.88
925.646	2.88
926.378	-0.12
927.11	1.88
927.841	-0.12
928.573	0.88
929.305	-0.12
930.036	0.88
930.768	1.88
931.499	1.88
932.23	2.88
932.962	-1.12
933.693	0.88
934.424	0.88
935.155	-0.12
935.886	0.88
936.617	-0.12
937.348	0.88
938.078	0.88
938.809	0.88
939.54	-0.12
940.27	0.88
941.001	-0.12
941.731	0.88
942.461	-0.12
943.191	-1.12
943.922	1.88
944.652	0.88
945.382	0.88
946.112	1.88
946.841	-0.12
947.571	-1.12
948.301	-1.12
949.031	1.88
949.76	-1.12
950.49	0.88
951.219	-1.12
951.948	0.88
952.678	0.88
953.407	0.88
954.136	2.88
954.865	0.88
955.594	-0.12
956.323	0.88
957.052	2.88
957.78	1.88
958.509	0.88
959.238	0.88
959.966	1.88
960.695	-1.12
961.423	0.88
962.151	0.88
962.88	-0.12
963.608	2.88
964.336	0.88
965.064	1.88
965.792	0.88
966.52	0.88
967.247	0.88
967.975	-0.12
968.703	0.88
969.43	2.88
970.158	-1.12
970.885	-0.12
971.613	1.88
972.34	-0.12
973.067	0.88
973.794	0.88
974.521	-1.12
975.248	1.88
975.975	0.88
976.702	0.88
977.429	2.88
978.156	0.88
978.882	-1.12
979.609	1.88
980.335	-1.12
981.062	0.88
981.788	2.88
982.514	-0.12
983.24	1.88
983.967	0.88
984.693	0.88
985.419	-0.12
986.144	0.88
986.87	-0.12
987.596	0.88
988.322	2.88
989.047	-1.12
989.773	0.88
990.498	1.88
991.224	0.88
991.949	2.88
992.674	0.88
993.399	-1.12
994.124	0.88
994.849	1.88
995.574	0.88
996.299	-0.12
997.024	2.88
997.749	-1.12
998.473	-0.12
999.198	0.88
999.922	-1.12
1000.647	-1.12
1001.371	2.88
1002.095	-1.12
1002.82	-0.12
1003.544	-1.12
1004.268	-2.12
1004.992	-0.12
1005.716	-0.12
1006.439	1.88
1007.163	0.88
1007.887	-1.12
1008.611	-1.12
1009.334	-0.12
1010.058	-0.12
1010.781	1.88
1011.504	0.88
1012.228	-0.12
1012.951	0.88
1013.674	-1.12
1014.397	0.88
1015.12	-1.12
