节点500_145_QEPB04081__10__11-29-06-801.txt的数据

Date: Wed Nov 12 11:29:06 CST 2025
User: PC
Spectrometer: QEPB0408
触发模式: 0
积分时间 (秒): 1.000000E-2
Scans to average: 1
启用暗噪声校正: true
启用非线性校正: false
滑动平均宽度: 0
X轴模式: Wavelengths
Number of Pixels in Spectrum: 1044
>>>>>Begin Spectral Data<<<<<
220.843	-2.62
221.644	1.38
222.444	0.38
223.244	0.38
224.045	1.38
224.845	0.38
225.645	0.38
226.445	-0.62
227.245	1.38
228.045	0.38
228.845	-0.62
229.645	1.38
230.444	0.38
231.244	1.38
232.043	1.38
232.843	0.38
233.642	0.38
234.442	2.38
235.241	1.38
236.04	2.38
236.839	1.38
237.638	0.38
238.437	0.38
239.236	2.38
240.035	1.38
240.833	1.38
241.632	1.38
242.43	2.38
243.229	2.38
244.027	1.38
244.826	2.38
245.624	3.38
246.422	2.38
247.22	3.38
248.018	4.38
248.816	1.38
249.614	3.38
250.412	1.38
251.21	4.38
252.007	0.38
252.805	4.38
253.602	3.38
254.4	3.38
255.197	3.38
255.994	5.38
256.791	2.38
257.589	1.38
258.386	5.38
259.183	4.38
259.979	2.38
260.776	5.38
261.573	6.38
262.37	4.38
263.166	5.38
263.963	5.38
264.759	6.38
265.556	5.38
266.352	6.38
267.148	2.38
267.944	6.38
268.74	8.38
269.536	6.38
270.332	8.38
271.128	8.38
271.924	9.38
272.719	9.38
273.515	9.38
274.311	8.38
275.106	11.38
275.901	9.38
276.697	9.38
277.492	9.38
278.287	10.38
279.082	11.38
279.877	10.38
280.672	9.38
281.467	9.38
282.262	10.38
283.056	13.38
283.851	12.38
284.646	10.38
285.44	11.38
286.234	11.38
287.029	12.38
287.823	10.38
288.617	11.38
289.411	12.38
290.205	12.38
290.999	11.38
291.793	10.38
292.587	10.38
293.381	7.38
294.174	12.38
294.968	10.38
295.761	11.38
296.555	10.38
297.348	10.38
298.141	10.38
298.935	9.38
299.728	11.38
300.521	10.38
301.314	10.38
302.107	8.38
302.899	6.38
303.692	9.38
304.485	9.38
305.277	8.38
306.07	6.38
306.862	8.38
307.655	7.38
308.447	7.38
309.239	7.38
310.031	7.38
310.823	5.38
311.615	5.38
312.407	5.38
313.199	6.38
313.991	3.38
314.783	8.38
315.574	2.38
316.366	4.38
317.157	8.38
317.949	3.38
318.74	6.38
319.531	5.38
320.322	5.38
321.113	6.38
321.904	4.38
322.695	3.38
323.486	6.38
324.277	5.38
325.068	6.38
325.858	3.38
326.649	4.38
327.439	2.38
328.23	3.38
329.02	2.38
329.81	5.38
330.6	5.38
331.391	3.38
332.181	7.38
332.971	5.38
333.76	4.38
334.55	2.38
335.34	5.38
336.13	2.38
336.919	4.38
337.709	4.38
338.498	2.38
339.287	2.38
340.077	3.38
340.866	4.38
341.655	3.38
342.444	3.38
343.233	5.38
344.022	2.38
344.811	4.38
345.6	4.38
346.388	3.38
347.177	3.38
347.965	2.38
348.754	2.38
349.542	3.38
350.33	4.38
351.119	2.38
351.907	3.38
352.695	3.38
353.483	5.38
354.271	4.38
355.059	1.38
355.846	3.38
356.634	1.38
357.422	0.38
358.209	1.38
358.997	3.38
359.784	4.38
360.571	2.38
361.359	1.38
362.146	2.38
362.933	2.38
363.72	2.38
364.507	0.38
365.294	1.38
366.081	1.38
366.867	3.38
367.654	2.38
368.44	4.38
369.227	1.38
370.013	3.38
370.8	2.38
371.586	5.38
372.372	2.38
373.158	2.38
373.944	3.38
374.73	2.38
375.516	2.38
376.302	3.38
377.088	2.38
377.873	3.38
378.659	2.38
379.445	3.38
380.23	1.38
381.015	2.38
381.801	4.38
382.586	1.38
383.371	1.38
384.156	4.38
384.941	3.38
385.726	3.38
386.511	4.38
387.296	5.38
388.08	3.38
388.865	0.38
389.649	5.38
390.434	2.38
391.218	4.38
392.003	2.38
392.787	4.38
393.571	2.38
394.355	3.38
395.139	2.38
395.923	4.38
396.707	3.38
397.491	2.38
398.274	3.38
399.058	5.38
399.842	1.38
400.625	3.38
401.408	5.38
402.192	3.38
402.975	3.38
403.758	5.38
404.541	3.38
405.324	3.38
406.107	5.38
406.89	4.38
407.673	4.38
408.456	5.38
409.238	2.38
410.021	3.38
410.803	4.38
411.586	4.38
412.368	5.38
413.151	4.38
413.933	7.38
414.715	5.38
415.497	3.38
416.279	4.38
417.061	6.38
417.843	3.38
418.624	6.38
419.406	6.38
420.188	5.38
420.969	7.38
421.751	4.38
422.532	7.38
423.313	4.38
424.095	5.38
424.876	6.38
425.657	7.38
426.438	7.38
427.219	7.38
428	8.38
428.78	8.38
429.561	5.38
430.342	7.38
431.122	7.38
431.903	7.38
432.683	7.38
433.464	9.38
434.244	8.38
435.024	10.38
435.804	10.38
436.584	9.38
437.364	10.38
438.144	9.38
438.924	12.38
439.704	10.38
440.483	10.38
441.263	10.38
442.042	12.38
442.822	14.38
443.601	15.38
444.38	14.38
445.16	17.38
445.939	18.38
446.718	20.38
447.497	15.38
448.276	17.38
449.054	19.38
449.833	21.38
450.612	23.38
451.391	25.38
452.169	27.38
452.948	29.38
453.726	32.38
454.504	35.38
455.282	35.38
456.061	42.38
456.839	45.38
457.617	45.38
458.395	53.38
459.172	61.38
459.95	65.38
460.728	73.38
461.506	78.38
462.283	90.38
463.061	103.38
463.838	110.38
464.615	120.38
465.393	139.38
466.17	156.38
466.947	171.38
467.724	194.38
468.501	213.38
469.278	233.38
470.055	268.38
470.831	306.38
471.608	329.38
472.385	374.38
473.161	406.38
473.938	469.38
474.714	531.38
475.49	583.38
476.266	656.38
477.043	738.38
477.819	812.38
478.595	889.38
479.371	997.38
480.146	1110.38
480.922	1230.38
481.698	1365.38
482.473	1517.38
483.249	1687.38
484.024	1882.38
484.8	2087.38
485.575	2312.38
486.35	2554.38
487.126	2847.38
487.901	3172.38
488.676	3535.38
489.451	3884.38
490.225	4315.38
491	4801.38
491.775	5305.38
492.55	5847.38
493.324	6428.38
494.099	7106.38
494.873	7722.38
495.647	8522.38
496.422	9246.38
497.196	10043.38
497.97	10834.38
498.744	11677.38
499.518	12532.38
500.292	13329.38
501.066	14146.38
501.839	14831.38
502.613	15569.38
503.387	16170.38
504.16	16644.38
504.934	17108.38
505.707	17271.38
506.48	17453.38
507.253	17547.38
508.027	17429.38
508.8	17200.38
509.573	16941.38
510.346	16536.38
511.118	16085.38
511.891	15521.38
512.664	14881.38
513.437	14221.38
514.209	13616.38
514.982	13029.38
515.754	12490.38
516.526	11848.38
517.298	11294.38
518.071	10775.38
518.843	10317.38
519.615	9890.38
520.387	9419.38
521.159	9093.38
521.93	8722.38
522.702	8389.38
523.474	8046.38
524.245	7759.38
525.017	7445.38
525.788	7103.38
526.56	6825.38
527.331	6523.38
528.102	6243.38
528.873	5939.38
529.644	5674.38
530.415	5379.38
531.186	5126.38
531.957	4855.38
532.728	4578.38
533.498	4329.38
534.269	4062.38
535.039	3843.38
535.81	3632.38
536.58	3414.38
537.351	3224.38
538.121	3037.38
538.891	2862.38
539.661	2724.38
540.431	2571.38
541.201	2445.38
541.971	2294.38
542.741	2186.38
543.51	2076.38
544.28	1985.38
545.05	1883.38
545.819	1777.38
546.588	1696.38
547.358	1608.38
548.127	1544.38
548.896	1440.38
549.665	1381.38
550.434	1288.38
551.203	1236.38
551.972	1171.38
552.741	1121.38
553.51	1046.38
554.278	981.38
555.047	925.38
555.815	875.38
556.584	823.38
557.352	762.38
558.121	734.38
558.889	687.38
559.657	650.38
560.425	610.38
561.193	579.38
561.961	548.38
562.729	510.38
563.496	484.38
564.264	455.38
565.032	434.38
565.799	403.38
566.567	384.38
567.334	369.38
568.101	345.38
568.869	328.38
569.636	314.38
570.403	293.38
571.17	274.38
571.937	260.38
572.704	241.38
573.471	233.38
574.237	216.38
575.004	203.38
575.771	190.38
576.537	178.38
577.303	169.38
578.07	157.38
578.836	146.38
579.602	142.38
580.368	134.38
581.134	124.38
581.9	117.38
582.666	113.38
583.432	101.38
584.198	100.38
584.964	99.38
585.729	88.38
586.495	90.38
587.26	76.38
588.025	72.38
588.791	70.38
589.556	69.38
590.321	64.38
591.086	60.38
591.851	57.38
592.616	56.38
593.381	56.38
594.146	50.38
594.911	44.38
595.675	46.38
596.44	36.38
597.204	42.38
597.969	38.38
598.733	40.38
599.497	35.38
600.261	34.38
601.025	28.38
601.79	29.38
602.553	31.38
603.317	28.38
604.081	27.38
604.845	26.38
605.609	22.38
606.372	26.38
607.136	23.38
607.899	23.38
608.662	24.38
609.426	22.38
610.189	21.38
610.952	16.38
611.715	19.38
612.478	19.38
613.241	15.38
614.004	16.38
614.767	14.38
615.529	13.38
616.292	13.38
617.055	14.38
617.817	14.38
618.579	11.38
619.342	10.38
620.104	11.38
620.866	10.38
621.628	10.38
622.39	10.38
623.152	11.38
623.914	10.38
624.676	13.38
625.438	10.38
626.199	10.38
626.961	7.38
627.722	8.38
628.484	11.38
629.245	7.38
630.006	8.38
630.768	6.38
631.529	8.38
632.29	8.38
633.051	7.38
633.812	5.38
634.573	7.38
635.333	6.38
636.094	5.38
636.855	4.38
637.615	5.38
638.376	7.38
639.136	3.38
639.896	5.38
640.657	6.38
641.417	4.38
642.177	6.38
642.937	4.38
643.697	4.38
644.457	7.38
645.216	5.38
645.976	5.38
646.736	3.38
647.495	4.38
648.255	4.38
649.014	4.38
649.774	5.38
650.533	4.38
651.292	4.38
652.051	2.38
652.81	5.38
653.569	2.38
654.328	1.38
655.087	2.38
655.846	3.38
656.604	4.38
657.363	3.38
658.121	2.38
658.88	3.38
659.638	3.38
660.397	4.38
661.155	5.38
661.913	3.38
662.671	2.38
663.429	2.38
664.187	5.38
664.945	1.38
665.703	4.38
666.46	1.38
667.218	4.38
667.976	2.38
668.733	2.38
669.49	2.38
670.248	1.38
671.005	5.38
671.762	3.38
672.519	2.38
673.276	1.38
674.033	3.38
674.79	3.38
675.547	2.38
676.304	2.38
677.06	2.38
677.817	3.38
678.574	3.38
679.33	2.38
680.086	2.38
680.843	3.38
681.599	1.38
682.355	4.38
683.111	1.38
683.867	1.38
684.623	-1.62
685.379	2.38
686.135	2.38
686.89	1.38
687.646	4.38
688.402	4.38
689.157	1.38
689.912	0.38
690.668	3.38
691.423	2.38
692.178	2.38
692.933	2.38
693.688	0.38
694.443	1.38
695.198	0.38
695.953	3.38
696.708	2.38
697.462	0.38
698.217	2.38
698.972	2.38
699.726	2.38
700.48	2.38
701.235	2.38
701.989	0.38
702.743	4.38
703.497	2.38
704.251	1.38
705.005	2.38
705.759	2.38
706.513	1.38
707.266	3.38
708.02	1.38
708.774	2.38
709.527	2.38
710.28	2.38
711.034	1.38
711.787	2.38
712.54	3.38
713.293	2.38
714.046	2.38
714.799	1.38
715.552	1.38
716.305	0.38
717.058	2.38
717.81	2.38
718.563	1.38
719.315	1.38
720.068	1.38
720.82	-1.62
721.573	0.38
722.325	0.38
723.077	2.38
723.829	0.38
724.581	4.38
725.333	1.38
726.085	3.38
726.836	2.38
727.588	3.38
728.34	1.38
729.091	2.38
729.843	2.38
730.594	0.38
731.346	2.38
732.097	1.38
732.848	1.38
733.599	2.38
734.35	1.38
735.101	1.38
735.852	1.38
736.603	2.38
737.354	1.38
738.104	0.38
738.855	2.38
739.605	1.38
740.356	3.38
741.106	3.38
741.856	3.38
742.607	4.38
743.357	0.38
744.107	2.38
744.857	3.38
745.607	2.38
746.357	2.38
747.106	2.38
747.856	3.38
748.606	1.38
749.355	2.38
750.105	3.38
750.854	1.38
751.603	3.38
752.353	2.38
753.102	1.38
753.851	1.38
754.6	3.38
755.349	5.38
756.098	3.38
756.847	4.38
757.595	1.38
758.344	2.38
759.093	4.38
759.841	3.38
760.589	3.38
761.338	3.38
762.086	5.38
762.834	2.38
763.582	3.38
764.331	3.38
765.079	4.38
765.826	4.38
766.574	5.38
767.322	5.38
768.07	3.38
768.817	4.38
769.565	5.38
770.312	3.38
771.06	3.38
771.807	6.38
772.554	3.38
773.302	4.38
774.049	4.38
774.796	4.38
775.543	8.38
776.29	6.38
777.036	6.38
777.783	6.38
778.53	2.38
779.276	6.38
780.023	5.38
780.769	6.38
781.516	2.38
782.262	7.38
783.008	4.38
783.754	4.38
784.5	4.38
785.246	3.38
785.992	4.38
786.738	3.38
787.484	5.38
788.23	2.38
788.975	7.38
789.721	3.38
790.466	5.38
791.212	6.38
791.957	5.38
792.702	6.38
793.447	8.38
794.193	7.38
794.938	5.38
795.683	5.38
796.427	4.38
797.172	6.38
797.917	5.38
798.662	4.38
799.406	3.38
800.151	6.38
800.895	5.38
801.64	6.38
802.384	2.38
803.128	4.38
803.872	5.38
804.616	4.38
805.36	4.38
806.104	3.38
806.848	4.38
807.592	5.38
808.336	3.38
809.079	4.38
809.823	4.38
810.566	4.38
811.31	5.38
812.053	4.38
812.796	3.38
813.539	0.38
814.283	2.38
815.026	4.38
815.769	3.38
816.511	3.38
817.254	3.38
817.997	2.38
818.74	4.38
819.482	4.38
820.225	2.38
820.967	2.38
821.71	4.38
822.452	3.38
823.194	3.38
823.936	2.38
824.678	2.38
825.42	2.38
826.162	4.38
826.904	2.38
827.646	1.38
828.388	1.38
829.129	2.38
829.871	3.38
830.612	2.38
831.354	4.38
832.095	3.38
832.836	3.38
833.577	2.38
834.319	0.38
835.06	3.38
835.801	0.38
836.542	2.38
837.282	2.38
838.023	2.38
838.764	5.38
839.504	2.38
840.245	3.38
840.985	1.38
841.726	2.38
842.466	1.38
843.206	3.38
843.946	2.38
844.687	0.38
845.427	3.38
846.166	1.38
846.906	2.38
847.646	1.38
848.386	0.38
849.125	2.38
849.865	2.38
850.605	1.38
851.344	2.38
852.083	2.38
852.823	3.38
853.562	2.38
854.301	2.38
855.04	1.38
855.779	3.38
856.518	1.38
857.257	3.38
857.995	3.38
858.734	1.38
859.473	3.38
860.211	1.38
860.95	0.38
861.688	2.38
862.426	2.38
863.165	1.38
863.903	-0.62
864.641	1.38
865.379	1.38
866.117	3.38
866.855	0.38
867.593	0.38
868.33	1.38
869.068	1.38
869.806	0.38
870.543	1.38
871.28	1.38
872.018	1.38
872.755	0.38
873.492	0.38
874.229	0.38
874.967	2.38
875.703	1.38
876.44	2.38
877.177	0.38
877.914	-0.62
878.651	3.38
879.387	2.38
880.124	-0.62
880.86	1.38
881.597	-0.62
882.333	1.38
883.069	1.38
883.806	1.38
884.542	1.38
885.278	2.38
886.014	1.38
886.749	-0.62
887.485	0.38
888.221	0.38
888.957	1.38
889.692	-0.62
890.428	1.38
891.163	1.38
891.899	0.38
892.634	0.38
893.369	-2.62
894.104	0.38
894.839	3.38
895.574	-1.62
896.309	1.38
897.044	-0.62
897.779	-0.62
898.514	1.38
899.248	1.38
899.983	1.38
900.717	2.38
901.452	0.38
902.186	1.38
902.92	0.38
903.654	-1.62
904.389	-1.62
905.123	2.38
905.857	1.38
906.59	0.38
907.324	0.38
908.058	1.38
908.792	0.38
909.525	-0.62
910.259	2.38
910.992	-1.62
911.726	1.38
912.459	-1.62
913.192	-0.62
913.925	-2.62
914.658	1.38
915.391	0.38
916.124	0.38
916.857	2.38
917.59	-1.62
918.323	0.38
919.055	0.38
919.788	0.38
920.521	2.38
921.253	-0.62
921.985	-0.62
922.718	-0.62
923.45	1.38
924.182	1.38
924.914	0.38
925.646	0.38
926.378	0.38
927.11	0.38
927.841	1.38
928.573	1.38
929.305	2.38
930.036	0.38
930.768	2.38
931.499	-0.62
932.23	0.38
932.962	0.38
933.693	2.38
934.424	0.38
935.155	1.38
935.886	0.38
936.617	1.38
937.348	2.38
938.078	1.38
938.809	0.38
939.54	1.38
940.27	-0.62
941.001	2.38
941.731	-1.62
942.461	-1.62
943.191	2.38
943.922	1.38
944.652	1.38
945.382	-0.62
946.112	-0.62
946.841	0.38
947.571	1.38
948.301	-1.62
949.031	1.38
949.76	1.38
950.49	1.38
951.219	-0.62
951.948	1.38
952.678	1.38
953.407	1.38
954.136	-0.62
954.865	3.38
955.594	-0.62
956.323	0.38
957.052	0.38
957.78	0.38
958.509	1.38
959.238	-2.62
959.966	1.38
960.695	-1.62
961.423	-1.62
962.151	-1.62
962.88	-0.62
963.608	0.38
964.336	1.38
965.064	0.38
965.792	1.38
966.52	1.38
967.247	1.38
967.975	-1.62
968.703	0.38
969.43	1.38
970.158	0.38
970.885	-1.62
971.613	0.38
972.34	-1.62
973.067	2.38
973.794	-0.62
974.521	1.38
975.248	1.38
975.975	-0.62
976.702	0.38
977.429	1.38
978.156	-1.62
978.882	-0.62
979.609	0.38
980.335	1.38
981.062	-1.62
981.788	2.38
982.514	1.38
983.24	-0.62
983.967	2.38
984.693	0.38
985.419	0.38
986.144	0.38
986.87	-0.62
987.596	1.38
988.322	0.38
989.047	1.38
989.773	1.38
990.498	-0.62
991.224	0.38
991.949	0.38
992.674	-0.62
993.399	0.38
994.124	0.38
994.849	-0.62
995.574	2.38
996.299	3.38
997.024	0.38
997.749	-1.62
998.473	-1.62
999.198	0.38
999.922	0.38
1000.647	1.38
1001.371	2.38
1002.095	-0.62
1002.82	-1.62
1003.544	0.38
1004.268	0.38
1004.992	0.38
1005.716	-0.62
1006.439	-1.62
1007.163	-0.62
1007.887	1.38
1008.611	-0.62
1009.334	-1.62
1010.058	0.38
1010.781	0.38
1011.504	-1.62
1012.228	-0.62
1012.951	-1.62
1013.674	0.38
1014.397	0.38
1015.12	0.38
