节点500_145_QEPB04081__164__11-31-34-563.txt的数据

Date: Wed Nov 12 11:31:34 CST 2025
User: PC
Spectrometer: QEPB0408
触发模式: 0
积分时间 (秒): 1.000000E-2
Scans to average: 1
启用暗噪声校正: true
启用非线性校正: false
滑动平均宽度: 0
X轴模式: Wavelengths
Number of Pixels in Spectrum: 1044
>>>>>Begin Spectral Data<<<<<
220.843	1.75
221.644	-1.25
222.444	-0.25
223.244	-0.25
224.045	1.75
224.845	0.75
225.645	1.75
226.445	-0.25
227.245	1.75
228.045	-1.25
228.845	-1.25
229.645	2.75
230.444	0.75
231.244	-0.25
232.043	1.75
232.843	1.75
233.642	2.75
234.442	2.75
235.241	2.75
236.04	3.75
236.839	1.75
237.638	1.75
238.437	1.75
239.236	-0.25
240.035	0.75
240.833	0.75
241.632	3.75
242.43	3.75
243.229	1.75
244.027	0.75
244.826	3.75
245.624	4.75
246.422	1.75
247.22	1.75
248.018	4.75
248.816	2.75
249.614	4.75
250.412	1.75
251.21	2.75
252.007	1.75
252.805	2.75
253.602	4.75
254.4	3.75
255.197	4.75
255.994	3.75
256.791	3.75
257.589	4.75
258.386	4.75
259.183	4.75
259.979	3.75
260.776	4.75
261.573	3.75
262.37	7.75
263.166	7.75
263.963	7.75
264.759	6.75
265.556	7.75
266.352	7.75
267.148	7.75
267.944	6.75
268.74	7.75
269.536	11.75
270.332	8.75
271.128	8.75
271.924	7.75
272.719	6.75
273.515	12.75
274.311	9.75
275.106	9.75
275.901	11.75
276.697	9.75
277.492	9.75
278.287	11.75
279.082	11.75
279.877	9.75
280.672	10.75
281.467	11.75
282.262	10.75
283.056	9.75
283.851	9.75
284.646	12.75
285.44	11.75
286.234	12.75
287.029	10.75
287.823	10.75
288.617	10.75
289.411	11.75
290.205	13.75
290.999	10.75
291.793	10.75
292.587	12.75
293.381	7.75
294.174	7.75
294.968	9.75
295.761	11.75
296.555	10.75
297.348	10.75
298.141	10.75
298.935	11.75
299.728	10.75
300.521	10.75
301.314	8.75
302.107	11.75
302.899	9.75
303.692	10.75
304.485	8.75
305.277	7.75
306.07	8.75
306.862	9.75
307.655	6.75
308.447	6.75
309.239	7.75
310.031	5.75
310.823	7.75
311.615	7.75
312.407	7.75
313.199	6.75
313.991	5.75
314.783	9.75
315.574	7.75
316.366	7.75
317.157	6.75
317.949	5.75
318.74	5.75
319.531	7.75
320.322	4.75
321.113	4.75
321.904	6.75
322.695	5.75
323.486	5.75
324.277	3.75
325.068	3.75
325.858	3.75
326.649	5.75
327.439	5.75
328.23	8.75
329.02	5.75
329.81	3.75
330.6	2.75
331.391	5.75
332.181	3.75
332.971	2.75
333.76	2.75
334.55	5.75
335.34	5.75
336.13	4.75
336.919	4.75
337.709	4.75
338.498	5.75
339.287	5.75
340.077	5.75
340.866	3.75
341.655	1.75
342.444	3.75
343.233	4.75
344.022	4.75
344.811	3.75
345.6	1.75
346.388	2.75
347.177	2.75
347.965	2.75
348.754	3.75
349.542	2.75
350.33	4.75
351.119	4.75
351.907	4.75
352.695	3.75
353.483	1.75
354.271	3.75
355.059	4.75
355.846	4.75
356.634	2.75
357.422	2.75
358.209	4.75
358.997	4.75
359.784	1.75
360.571	6.75
361.359	4.75
362.146	5.75
362.933	2.75
363.72	4.75
364.507	2.75
365.294	4.75
366.081	4.75
366.867	2.75
367.654	0.75
368.44	0.75
369.227	1.75
370.013	2.75
370.8	1.75
371.586	1.75
372.372	0.75
373.158	2.75
373.944	3.75
374.73	1.75
375.516	3.75
376.302	2.75
377.088	1.75
377.873	3.75
378.659	3.75
379.445	3.75
380.23	2.75
381.015	5.75
381.801	2.75
382.586	4.75
383.371	3.75
384.156	3.75
384.941	2.75
385.726	3.75
386.511	3.75
387.296	1.75
388.08	1.75
388.865	4.75
389.649	2.75
390.434	5.75
391.218	4.75
392.003	3.75
392.787	3.75
393.571	2.75
394.355	5.75
395.139	1.75
395.923	2.75
396.707	2.75
397.491	5.75
398.274	2.75
399.058	3.75
399.842	6.75
400.625	1.75
401.408	5.75
402.192	4.75
402.975	6.75
403.758	2.75
404.541	6.75
405.324	5.75
406.107	3.75
406.89	3.75
407.673	4.75
408.456	5.75
409.238	4.75
410.021	3.75
410.803	3.75
411.586	3.75
412.368	7.75
413.151	5.75
413.933	6.75
414.715	5.75
415.497	4.75
416.279	5.75
417.061	2.75
417.843	3.75
418.624	6.75
419.406	5.75
420.188	8.75
420.969	4.75
421.751	3.75
422.532	5.75
423.313	8.75
424.095	5.75
424.876	5.75
425.657	7.75
426.438	5.75
427.219	4.75
428	5.75
428.78	6.75
429.561	6.75
430.342	6.75
431.122	9.75
431.903	6.75
432.683	8.75
433.464	8.75
434.244	8.75
435.024	9.75
435.804	11.75
436.584	10.75
437.364	8.75
438.144	11.75
438.924	9.75
439.704	10.75
440.483	13.75
441.263	13.75
442.042	13.75
442.822	12.75
443.601	14.75
444.38	14.75
445.16	16.75
445.939	13.75
446.718	19.75
447.497	17.75
448.276	20.75
449.054	23.75
449.833	22.75
450.612	23.75
451.391	25.75
452.169	27.75
452.948	30.75
453.726	34.75
454.504	39.75
455.282	38.75
456.061	41.75
456.839	42.75
457.617	52.75
458.395	58.75
459.172	62.75
459.95	70.75
460.728	79.75
461.506	83.75
462.283	97.75
463.061	102.75
463.838	117.75
464.615	133.75
465.393	149.75
466.17	164.75
466.947	180.75
467.724	206.75
468.501	231.75
469.278	256.75
470.055	289.75
470.831	319.75
471.608	347.75
472.385	401.75
473.161	431.75
473.938	488.75
474.714	544.75
475.49	616.75
476.266	683.75
477.043	754.75
477.819	828.75
478.595	922.75
479.371	1023.75
480.146	1129.75
480.922	1251.75
481.698	1416.75
482.473	1548.75
483.249	1712.75
484.024	1892.75
484.8	2077.75
485.575	2303.75
486.35	2564.75
487.126	2834.75
487.901	3147.75
488.676	3455.75
489.451	3827.75
490.225	4209.75
491	4660.75
491.775	5105.75
492.55	5614.75
493.324	6162.75
494.099	6798.75
494.873	7432.75
495.647	8087.75
496.422	8824.75
497.196	9552.75
497.97	10310.75
498.744	11115.75
499.518	11930.75
500.292	12627.75
501.066	13417.75
501.839	14136.75
502.613	14855.75
503.387	15467.75
504.16	16001.75
504.934	16476.75
505.707	16747.75
506.48	16946.75
507.253	17066.75
508.027	17125.75
508.8	16913.75
509.573	16748.75
510.346	16340.75
511.118	15979.75
511.891	15516.75
512.664	14971.75
513.437	14380.75
514.209	13817.75
514.982	13179.75
515.754	12658.75
516.526	12110.75
517.298	11537.75
518.071	11017.75
518.843	10532.75
519.615	10023.75
520.387	9681.75
521.159	9264.75
521.93	8890.75
522.702	8549.75
523.474	8225.75
524.245	7909.75
525.017	7559.75
525.788	7269.75
526.56	6971.75
527.331	6700.75
528.102	6384.75
528.873	6108.75
529.644	5813.75
530.415	5527.75
531.186	5282.75
531.957	4999.75
532.728	4702.75
533.498	4469.75
534.269	4189.75
535.039	3992.75
535.81	3754.75
536.58	3556.75
537.351	3334.75
538.121	3149.75
538.891	2984.75
539.661	2823.75
540.431	2653.75
541.201	2503.75
541.971	2383.75
542.741	2265.75
543.51	2136.75
544.28	2026.75
545.05	1941.75
545.819	1857.75
546.588	1757.75
547.358	1669.75
548.127	1583.75
548.896	1489.75
549.665	1432.75
550.434	1357.75
551.203	1294.75
551.972	1233.75
552.741	1145.75
553.51	1100.75
554.278	1025.75
555.047	977.75
555.815	918.75
556.584	854.75
557.352	810.75
558.121	757.75
558.889	719.75
559.657	670.75
560.425	636.75
561.193	600.75
561.961	562.75
562.729	529.75
563.496	514.75
564.264	470.75
565.032	440.75
565.799	432.75
566.567	401.75
567.334	378.75
568.101	358.75
568.869	339.75
569.636	318.75
570.403	302.75
571.17	288.75
571.937	272.75
572.704	250.75
573.471	240.75
574.237	226.75
575.004	213.75
575.771	198.75
576.537	191.75
577.303	182.75
578.07	169.75
578.836	154.75
579.602	144.75
580.368	143.75
581.134	131.75
581.9	126.75
582.666	118.75
583.432	109.75
584.198	105.75
584.964	103.75
585.729	95.75
586.495	85.75
587.26	84.75
588.025	82.75
588.791	74.75
589.556	71.75
590.321	67.75
591.086	63.75
591.851	60.75
592.616	55.75
593.381	52.75
594.146	51.75
594.911	50.75
595.675	48.75
596.44	45.75
597.204	43.75
597.969	44.75
598.733	39.75
599.497	40.75
600.261	32.75
601.025	36.75
601.79	31.75
602.553	32.75
603.317	26.75
604.081	23.75
604.845	27.75
605.609	26.75
606.372	22.75
607.136	21.75
607.899	20.75
608.662	21.75
609.426	22.75
610.189	22.75
610.952	20.75
611.715	16.75
612.478	16.75
613.241	18.75
614.004	17.75
614.767	16.75
615.529	14.75
616.292	17.75
617.055	13.75
617.817	14.75
618.579	12.75
619.342	12.75
620.104	14.75
620.866	12.75
621.628	13.75
622.39	10.75
623.152	13.75
623.914	9.75
624.676	11.75
625.438	9.75
626.199	8.75
626.961	8.75
627.722	9.75
628.484	6.75
629.245	9.75
630.006	9.75
630.768	9.75
631.529	5.75
632.29	6.75
633.051	6.75
633.812	8.75
634.573	7.75
635.333	6.75
636.094	7.75
636.855	1.75
637.615	6.75
638.376	6.75
639.136	6.75
639.896	6.75
640.657	5.75
641.417	5.75
642.177	5.75
642.937	6.75
643.697	2.75
644.457	4.75
645.216	3.75
645.976	4.75
646.736	4.75
647.495	7.75
648.255	5.75
649.014	4.75
649.774	5.75
650.533	4.75
651.292	4.75
652.051	2.75
652.81	2.75
653.569	6.75
654.328	2.75
655.087	3.75
655.846	2.75
656.604	2.75
657.363	4.75
658.121	2.75
658.88	6.75
659.638	2.75
660.397	5.75
661.155	3.75
661.913	5.75
662.671	3.75
663.429	2.75
664.187	5.75
664.945	3.75
665.703	4.75
666.46	4.75
667.218	3.75
667.976	3.75
668.733	3.75
669.49	3.75
670.248	4.75
671.005	4.75
671.762	3.75
672.519	2.75
673.276	2.75
674.033	3.75
674.79	1.75
675.547	3.75
676.304	1.75
677.06	1.75
677.817	2.75
678.574	2.75
679.33	3.75
680.086	2.75
680.843	1.75
681.599	5.75
682.355	2.75
683.111	2.75
683.867	0.75
684.623	2.75
685.379	-1.25
686.135	5.75
686.89	1.75
687.646	2.75
688.402	1.75
689.157	2.75
689.912	2.75
690.668	1.75
691.423	4.75
692.178	3.75
692.933	1.75
693.688	3.75
694.443	2.75
695.198	2.75
695.953	0.75
696.708	0.75
697.462	1.75
698.217	3.75
698.972	0.75
699.726	2.75
700.48	-0.25
701.235	1.75
701.989	3.75
702.743	-1.25
703.497	-1.25
704.251	3.75
705.005	4.75
705.759	2.75
706.513	1.75
707.266	2.75
708.02	1.75
708.774	2.75
709.527	-0.25
710.28	3.75
711.034	2.75
711.787	3.75
712.54	1.75
713.293	2.75
714.046	2.75
714.799	0.75
715.552	0.75
716.305	2.75
717.058	1.75
717.81	2.75
718.563	0.75
719.315	2.75
720.068	2.75
720.82	2.75
721.573	5.75
722.325	1.75
723.077	2.75
723.829	1.75
724.581	1.75
725.333	0.75
726.085	3.75
726.836	2.75
727.588	1.75
728.34	2.75
729.091	2.75
729.843	3.75
730.594	1.75
731.346	3.75
732.097	2.75
732.848	1.75
733.599	2.75
734.35	2.75
735.101	3.75
735.852	3.75
736.603	2.75
737.354	4.75
738.104	2.75
738.855	2.75
739.605	0.75
740.356	5.75
741.106	2.75
741.856	3.75
742.607	-0.25
743.357	2.75
744.107	2.75
744.857	3.75
745.607	2.75
746.357	5.75
747.106	3.75
747.856	4.75
748.606	4.75
749.355	0.75
750.105	5.75
750.854	3.75
751.603	3.75
752.353	4.75
753.102	3.75
753.851	3.75
754.6	7.75
755.349	3.75
756.098	3.75
756.847	6.75
757.595	1.75
758.344	3.75
759.093	3.75
759.841	2.75
760.589	3.75
761.338	2.75
762.086	2.75
762.834	3.75
763.582	4.75
764.331	5.75
765.079	7.75
765.826	3.75
766.574	4.75
767.322	5.75
768.07	3.75
768.817	3.75
769.565	2.75
770.312	3.75
771.06	4.75
771.807	4.75
772.554	5.75
773.302	2.75
774.049	4.75
774.796	6.75
775.543	5.75
776.29	3.75
777.036	3.75
777.783	5.75
778.53	5.75
779.276	4.75
780.023	3.75
780.769	6.75
781.516	4.75
782.262	8.75
783.008	6.75
783.754	4.75
784.5	6.75
785.246	6.75
785.992	5.75
786.738	6.75
787.484	7.75
788.23	9.75
788.975	5.75
789.721	7.75
790.466	3.75
791.212	4.75
791.957	4.75
792.702	6.75
793.447	7.75
794.193	5.75
794.938	3.75
795.683	4.75
796.427	4.75
797.172	5.75
797.917	6.75
798.662	6.75
799.406	4.75
800.151	4.75
800.895	3.75
801.64	5.75
802.384	4.75
803.128	4.75
803.872	2.75
804.616	4.75
805.36	3.75
806.104	5.75
806.848	6.75
807.592	7.75
808.336	4.75
809.079	3.75
809.823	4.75
810.566	3.75
811.31	3.75
812.053	4.75
812.796	4.75
813.539	4.75
814.283	4.75
815.026	3.75
815.769	4.75
816.511	3.75
817.254	2.75
817.997	4.75
818.74	4.75
819.482	2.75
820.225	4.75
820.967	2.75
821.71	4.75
822.452	2.75
823.194	3.75
823.936	2.75
824.678	3.75
825.42	1.75
826.162	2.75
826.904	2.75
827.646	2.75
828.388	4.75
829.129	2.75
829.871	1.75
830.612	2.75
831.354	5.75
832.095	4.75
832.836	2.75
833.577	4.75
834.319	2.75
835.06	1.75
835.801	1.75
836.542	3.75
837.282	1.75
838.023	2.75
838.764	4.75
839.504	1.75
840.245	3.75
840.985	1.75
841.726	3.75
842.466	2.75
843.206	0.75
843.946	3.75
844.687	3.75
845.427	1.75
846.166	0.75
846.906	2.75
847.646	1.75
848.386	1.75
849.125	2.75
849.865	1.75
850.605	3.75
851.344	-0.25
852.083	4.75
852.823	3.75
853.562	1.75
854.301	1.75
855.04	-0.25
855.779	3.75
856.518	-0.25
857.257	1.75
857.995	2.75
858.734	1.75
859.473	2.75
860.211	0.75
860.95	2.75
861.688	3.75
862.426	2.75
863.165	0.75
863.903	2.75
864.641	-0.25
865.379	1.75
866.117	2.75
866.855	2.75
867.593	0.75
868.33	2.75
869.068	2.75
869.806	0.75
870.543	-0.25
871.28	0.75
872.018	2.75
872.755	1.75
873.492	1.75
874.229	1.75
874.967	0.75
875.703	1.75
876.44	2.75
877.177	2.75
877.914	0.75
878.651	0.75
879.387	0.75
880.124	3.75
880.86	2.75
881.597	1.75
882.333	1.75
883.069	0.75
883.806	-0.25
884.542	-0.25
885.278	-0.25
886.014	1.75
886.749	0.75
887.485	1.75
888.221	1.75
888.957	2.75
889.692	0.75
890.428	0.75
891.163	0.75
891.899	2.75
892.634	1.75
893.369	-1.25
894.104	1.75
894.839	0.75
895.574	1.75
896.309	1.75
897.044	-0.25
897.779	1.75
898.514	1.75
899.248	2.75
899.983	2.75
900.717	3.75
901.452	1.75
902.186	-0.25
902.92	1.75
903.654	-0.25
904.389	1.75
905.123	-0.25
905.857	0.75
906.59	3.75
907.324	3.75
908.058	1.75
908.792	2.75
909.525	1.75
910.259	0.75
910.992	0.75
911.726	0.75
912.459	0.75
913.192	1.75
913.925	-0.25
914.658	2.75
915.391	1.75
916.124	-1.25
916.857	1.75
917.59	-2.25
918.323	1.75
919.055	0.75
919.788	0.75
920.521	-0.25
921.253	1.75
921.985	-0.25
922.718	0.75
923.45	1.75
924.182	-1.25
924.914	0.75
925.646	0.75
926.378	1.75
927.11	0.75
927.841	-1.25
928.573	0.75
929.305	-1.25
930.036	-0.25
930.768	-0.25
931.499	0.75
932.23	-0.25
932.962	-1.25
933.693	0.75
934.424	1.75
935.155	1.75
935.886	1.75
936.617	2.75
937.348	0.75
938.078	1.75
938.809	0.75
939.54	-0.25
940.27	1.75
941.001	-0.25
941.731	-0.25
942.461	1.75
943.191	0.75
943.922	1.75
944.652	1.75
945.382	4.75
946.112	0.75
946.841	1.75
947.571	2.75
948.301	-1.25
949.031	-1.25
949.76	0.75
950.49	2.75
951.219	-0.25
951.948	2.75
952.678	1.75
953.407	2.75
954.136	0.75
954.865	0.75
955.594	2.75
956.323	-1.25
957.052	1.75
957.78	1.75
958.509	-0.25
959.238	-0.25
959.966	0.75
960.695	0.75
961.423	-0.25
962.151	0.75
962.88	0.75
963.608	-0.25
964.336	0.75
965.064	1.75
965.792	-0.25
966.52	-0.25
967.247	1.75
967.975	0.75
968.703	1.75
969.43	1.75
970.158	-1.25
970.885	1.75
971.613	-0.25
972.34	1.75
973.067	-0.25
973.794	1.75
974.521	1.75
975.248	-0.25
975.975	1.75
976.702	1.75
977.429	0.75
978.156	0.75
978.882	0.75
979.609	-1.25
980.335	0.75
981.062	0.75
981.788	0.75
982.514	0.75
983.24	-1.25
983.967	0.75
984.693	-0.25
985.419	-2.25
986.144	0.75
986.87	1.75
987.596	1.75
988.322	-1.25
989.047	-2.25
989.773	2.75
990.498	1.75
991.224	1.75
991.949	1.75
992.674	1.75
993.399	1.75
994.124	-0.25
994.849	1.75
995.574	-0.25
996.299	1.75
997.024	2.75
997.749	0.75
998.473	0.75
999.198	-0.25
999.922	2.75
1000.647	0.75
1001.371	1.75
1002.095	-0.25
1002.82	-2.25
1003.544	-1.25
1004.268	2.75
1004.992	-2.25
1005.716	0.75
1006.439	-1.25
1007.163	2.75
1007.887	1.75
1008.611	1.75
1009.334	2.75
1010.058	-0.25
1010.781	0.75
1011.504	1.75
1012.228	1.75
1012.951	1.75
1013.674	-0.25
1014.397	1.75
1015.12	-1.25
