节点500_145_QEPB04081__401__11-35-22-535.txt的数据

Date: Wed Nov 12 11:35:22 CST 2025
User: PC
Spectrometer: QEPB0408
触发模式: 0
积分时间 (秒): 1.000000E-2
Scans to average: 1
启用暗噪声校正: true
启用非线性校正: false
滑动平均宽度: 0
X轴模式: Wavelengths
Number of Pixels in Spectrum: 1044
>>>>>Begin Spectral Data<<<<<
220.843	-2
221.644	-2
222.444	0
223.244	-2
224.045	-1
224.845	-2
225.645	0
226.445	-1
227.245	0
228.045	-2
228.845	1
229.645	-2
230.444	1
231.244	0
232.043	-1
232.843	-1
233.642	-2
234.442	2
235.241	1
236.04	1
236.839	1
237.638	2
238.437	2
239.236	2
240.035	1
240.833	0
241.632	1
242.43	0
243.229	1
244.027	2
244.826	2
245.624	2
246.422	1
247.22	4
248.018	0
248.816	1
249.614	2
250.412	1
251.21	1
252.007	4
252.805	1
253.602	3
254.4	1
255.197	3
255.994	4
256.791	5
257.589	4
258.386	5
259.183	2
259.979	3
260.776	3
261.573	4
262.37	6
263.166	4
263.963	2
264.759	5
265.556	4
266.352	4
267.148	6
267.944	6
268.74	7
269.536	7
270.332	7
271.128	7
271.924	8
272.719	7
273.515	7
274.311	11
275.106	6
275.901	8
276.697	7
277.492	6
278.287	8
279.082	10
279.877	9
280.672	9
281.467	9
282.262	8
283.056	9
283.851	8
284.646	7
285.44	9
286.234	9
287.029	11
287.823	11
288.617	12
289.411	12
290.205	10
290.999	9
291.793	9
292.587	11
293.381	12
294.174	7
294.968	11
295.761	7
296.555	9
297.348	8
298.141	11
298.935	9
299.728	10
300.521	8
301.314	7
302.107	10
302.899	10
303.692	8
304.485	10
305.277	9
306.07	6
306.862	8
307.655	10
308.447	6
309.239	9
310.031	7
310.823	8
311.615	8
312.407	8
313.199	8
313.991	5
314.783	5
315.574	7
316.366	6
317.157	2
317.949	3
318.74	5
319.531	4
320.322	5
321.113	5
321.904	7
322.695	5
323.486	1
324.277	7
325.068	4
325.858	4
326.649	3
327.439	5
328.23	4
329.02	3
329.81	3
330.6	3
331.391	3
332.181	5
332.971	2
333.76	2
334.55	3
335.34	4
336.13	2
336.919	1
337.709	5
338.498	1
339.287	5
340.077	3
340.866	5
341.655	3
342.444	0
343.233	2
344.022	1
344.811	5
345.6	3
346.388	4
347.177	4
347.965	2
348.754	2
349.542	3
350.33	3
351.119	1
351.907	0
352.695	2
353.483	4
354.271	1
355.059	2
355.846	3
356.634	4
357.422	5
358.209	3
358.997	2
359.784	4
360.571	1
361.359	1
362.146	4
362.933	3
363.72	2
364.507	3
365.294	3
366.081	2
366.867	3
367.654	3
368.44	1
369.227	2
370.013	1
370.8	3
371.586	4
372.372	4
373.158	2
373.944	4
374.73	3
375.516	1
376.302	3
377.088	1
377.873	1
378.659	1
379.445	2
380.23	3
381.015	3
381.801	4
382.586	3
383.371	2
384.156	2
384.941	3
385.726	1
386.511	1
387.296	4
388.08	3
388.865	4
389.649	3
390.434	4
391.218	4
392.003	1
392.787	2
393.571	4
394.355	4
395.139	4
395.923	3
396.707	2
397.491	4
398.274	5
399.058	4
399.842	2
400.625	2
401.408	5
402.192	3
402.975	1
403.758	4
404.541	4
405.324	3
406.107	4
406.89	3
407.673	4
408.456	5
409.238	3
410.021	2
410.803	5
411.586	3
412.368	2
413.151	4
413.933	4
414.715	5
415.497	4
416.279	3
417.061	5
417.843	4
418.624	4
419.406	5
420.188	7
420.969	5
421.751	5
422.532	7
423.313	6
424.095	6
424.876	3
425.657	7
426.438	7
427.219	6
428	4
428.78	6
429.561	9
430.342	6
431.122	8
431.903	7
432.683	8
433.464	7
434.244	9
435.024	10
435.804	10
436.584	10
437.364	10
438.144	12
438.924	11
439.704	10
440.483	14
441.263	9
442.042	13
442.822	14
443.601	14
444.38	15
445.16	16
445.939	17
446.718	14
447.497	19
448.276	19
449.054	22
449.833	24
450.612	25
451.391	27
452.169	26
452.948	31
453.726	36
454.504	41
455.282	43
456.061	47
456.839	49
457.617	53
458.395	66
459.172	68
459.95	79
460.728	87
461.506	93
462.283	110
463.061	110
463.838	133
464.615	150
465.393	161
466.17	181
466.947	195
467.724	221
468.501	251
469.278	285
470.055	309
470.831	344
471.608	379
472.385	415
473.161	477
473.938	523
474.714	573
475.49	640
476.266	705
477.043	791
477.819	850
478.595	959
479.371	1055
480.146	1161
480.922	1281
481.698	1392
482.473	1561
483.249	1694
484.024	1865
484.8	2043
485.575	2257
486.35	2499
487.126	2729
487.901	2991
488.676	3299
489.451	3592
490.225	3939
491	4361
491.775	4773
492.55	5184
493.324	5687
494.099	6189
494.873	6754
495.647	7344
496.422	7985
497.196	8657
497.97	9314
498.744	10007
499.518	10714
500.292	11447
501.066	12161
501.839	12842
502.613	13462
503.387	14097
504.16	14668
504.934	15097
505.707	15486
506.48	15769
507.253	16020
508.027	16141
508.8	16071
509.573	16019
510.346	15830
511.118	15593
511.891	15258
512.664	14790
513.437	14320
514.209	13829
514.982	13281
515.754	12777
516.526	12287
517.298	11705
518.071	11205
518.843	10715
519.615	10225
520.387	9840
521.159	9475
521.93	9058
522.702	8739
523.474	8375
524.245	8035
525.017	7742
525.788	7422
526.56	7112
527.331	6796
528.102	6536
528.873	6263
529.644	5966
530.415	5699
531.186	5437
531.957	5164
532.728	4903
533.498	4663
534.269	4407
535.039	4169
535.81	3925
536.58	3748
537.351	3497
538.121	3327
538.891	3152
539.661	2982
540.431	2808
541.201	2671
541.971	2510
542.741	2389
543.51	2249
544.28	2152
545.05	2035
545.819	1935
546.588	1855
547.358	1765
548.127	1661
548.896	1602
549.665	1497
550.434	1434
551.203	1354
551.972	1266
552.741	1229
553.51	1157
554.278	1092
555.047	1024
555.815	965
556.584	921
557.352	871
558.121	809
558.889	769
559.657	719
560.425	685
561.193	652
561.961	609
562.729	579
563.496	542
564.264	514
565.032	485
565.799	454
566.567	436
567.334	402
568.101	391
568.869	366
569.636	342
570.403	320
571.17	308
571.937	290
572.704	266
573.471	256
574.237	244
575.004	228
575.771	211
576.537	197
577.303	187
578.07	179
578.836	166
579.602	155
580.368	151
581.134	140
581.9	135
582.666	126
583.432	119
584.198	119
584.964	107
585.729	103
586.495	94
587.26	87
588.025	88
588.791	81
589.556	76
590.321	74
591.086	70
591.851	63
592.616	61
593.381	59
594.146	55
594.911	52
595.675	53
596.44	50
597.204	45
597.969	42
598.733	40
599.497	39
600.261	39
601.025	36
601.79	35
602.553	33
603.317	32
604.081	29
604.845	32
605.609	26
606.372	25
607.136	26
607.899	21
608.662	25
609.426	24
610.189	21
610.952	20
611.715	19
612.478	20
613.241	17
614.004	18
614.767	17
615.529	18
616.292	14
617.055	16
617.817	15
618.579	13
619.342	15
620.104	11
620.866	12
621.628	13
622.39	10
623.152	9
623.914	10
624.676	12
625.438	10
626.199	12
626.961	9
627.722	10
628.484	8
629.245	7
630.006	8
630.768	10
631.529	9
632.29	8
633.051	5
633.812	8
634.573	7
635.333	7
636.094	4
636.855	8
637.615	4
638.376	6
639.136	7
639.896	8
640.657	7
641.417	5
642.177	7
642.937	5
643.697	3
644.457	5
645.216	3
645.976	4
646.736	7
647.495	3
648.255	4
649.014	3
649.774	2
650.533	4
651.292	2
652.051	5
652.81	4
653.569	5
654.328	2
655.087	4
655.846	1
656.604	3
657.363	1
658.121	3
658.88	4
659.638	1
660.397	5
661.155	4
661.913	3
662.671	4
663.429	3
664.187	1
664.945	2
665.703	3
666.46	2
667.218	2
667.976	2
668.733	2
669.49	1
670.248	3
671.005	1
671.762	1
672.519	5
673.276	1
674.033	1
674.79	2
675.547	0
676.304	1
677.06	1
677.817	0
678.574	3
679.33	1
680.086	3
680.843	1
681.599	0
682.355	2
683.111	2
683.867	2
684.623	2
685.379	3
686.135	0
686.89	2
687.646	3
688.402	1
689.157	2
689.912	2
690.668	2
691.423	-1
692.178	2
692.933	3
693.688	-1
694.443	0
695.198	2
695.953	4
696.708	2
697.462	2
698.217	1
698.972	1
699.726	1
700.48	3
701.235	0
701.989	1
702.743	1
703.497	0
704.251	1
705.005	3
705.759	1
706.513	3
707.266	-1
708.02	1
708.774	1
709.527	0
710.28	4
711.034	0
711.787	2
712.54	0
713.293	3
714.046	5
714.799	1
715.552	2
716.305	1
717.058	3
717.81	1
718.563	1
719.315	0
720.068	1
720.82	1
721.573	2
722.325	2
723.077	3
723.829	1
724.581	2
725.333	2
726.085	3
726.836	1
727.588	4
728.34	2
729.091	4
729.843	4
730.594	1
731.346	2
732.097	2
732.848	3
733.599	3
734.35	1
735.101	2
735.852	1
736.603	0
737.354	1
738.104	3
738.855	0
739.605	4
740.356	1
741.106	3
741.856	3
742.607	1
743.357	1
744.107	2
744.857	0
745.607	4
746.357	-1
747.106	3
747.856	1
748.606	3
749.355	2
750.105	2
750.854	2
751.603	1
752.353	4
753.102	0
753.851	0
754.6	2
755.349	2
756.098	1
756.847	2
757.595	4
758.344	2
759.093	4
759.841	2
760.589	5
761.338	3
762.086	2
762.834	4
763.582	1
764.331	6
765.079	5
765.826	4
766.574	2
767.322	3
768.07	6
768.817	4
769.565	2
770.312	1
771.06	6
771.807	3
772.554	6
773.302	4
774.049	3
774.796	4
775.543	5
776.29	4
777.036	5
777.783	2
778.53	5
779.276	3
780.023	5
780.769	5
781.516	5
782.262	4
783.008	7
783.754	5
784.5	5
785.246	2
785.992	3
786.738	5
787.484	5
788.23	1
788.975	5
789.721	3
790.466	5
791.212	4
791.957	3
792.702	4
793.447	4
794.193	6
794.938	5
795.683	5
796.427	4
797.172	4
797.917	5
798.662	2
799.406	3
800.151	4
800.895	6
801.64	5
802.384	4
803.128	4
803.872	3
804.616	4
805.36	4
806.104	3
806.848	3
807.592	3
808.336	5
809.079	3
809.823	5
810.566	2
811.31	4
812.053	3
812.796	4
813.539	3
814.283	4
815.026	6
815.769	2
816.511	2
817.254	5
817.997	2
818.74	3
819.482	4
820.225	5
820.967	2
821.71	2
822.452	0
823.194	3
823.936	3
824.678	3
825.42	2
826.162	1
826.904	2
827.646	2
828.388	2
829.129	2
829.871	2
830.612	3
831.354	2
832.095	3
832.836	3
833.577	2
834.319	1
835.06	2
835.801	2
836.542	3
837.282	1
838.023	2
838.764	3
839.504	2
840.245	2
840.985	3
841.726	2
842.466	2
843.206	0
843.946	1
844.687	1
845.427	0
846.166	1
846.906	2
847.646	1
848.386	2
849.125	4
849.865	2
850.605	-2
851.344	3
852.083	0
852.823	1
853.562	1
854.301	0
855.04	1
855.779	-1
856.518	1
857.257	0
857.995	1
858.734	1
859.473	1
860.211	0
860.95	0
861.688	1
862.426	0
863.165	2
863.903	1
864.641	1
865.379	-2
866.117	1
866.855	1
867.593	0
868.33	2
869.068	2
869.806	0
870.543	3
871.28	1
872.018	2
872.755	2
873.492	1
874.229	1
874.967	-1
875.703	1
876.44	1
877.177	0
877.914	1
878.651	0
879.387	-1
880.124	0
880.86	1
881.597	-1
882.333	3
883.069	0
883.806	-1
884.542	-2
885.278	1
886.014	1
886.749	-2
887.485	0
888.221	0
888.957	0
889.692	1
890.428	3
891.163	1
891.899	1
892.634	-1
893.369	2
894.104	-1
894.839	-1
895.574	-2
896.309	0
897.044	0
897.779	-1
898.514	0
899.248	-2
899.983	0
900.717	-3
901.452	2
902.186	1
902.92	1
903.654	0
904.389	2
905.123	1
905.857	-2
906.59	0
907.324	-1
908.058	1
908.792	1
909.525	-2
910.259	2
910.992	1
911.726	1
912.459	-2
913.192	0
913.925	-1
914.658	-2
915.391	1
916.124	-2
916.857	1
917.59	1
918.323	0
919.055	1
919.788	0
920.521	1
921.253	1
921.985	0
922.718	0
923.45	-1
924.182	-1
924.914	1
925.646	1
926.378	-1
927.11	2
927.841	0
928.573	-2
929.305	1
930.036	-1
930.768	0
931.499	-1
932.23	1
932.962	-1
933.693	1
934.424	1
935.155	-3
935.886	0
936.617	2
937.348	0
938.078	1
938.809	-1
939.54	0
940.27	1
941.001	1
941.731	1
942.461	1
943.191	-3
943.922	1
944.652	0
945.382	-2
946.112	1
946.841	-1
947.571	-1
948.301	-2
949.031	0
949.76	1
950.49	-1
951.219	-1
951.948	-1
952.678	-1
953.407	-2
954.136	-2
954.865	-3
955.594	-2
956.323	-1
957.052	-1
957.78	-2
958.509	0
959.238	-2
959.966	0
960.695	0
961.423	1
962.151	1
962.88	0
963.608	1
964.336	-2
965.064	0
965.792	-1
966.52	0
967.247	0
967.975	-1
968.703	2
969.43	-1
970.158	-1
970.885	2
971.613	0
972.34	-1
973.067	-1
973.794	1
974.521	0
975.248	0
975.975	-2
976.702	0
977.429	0
978.156	0
978.882	-2
979.609	-1
980.335	1
981.062	0
981.788	-2
982.514	1
983.24	-1
983.967	0
984.693	-1
985.419	-1
986.144	1
986.87	-1
987.596	0
988.322	-1
989.047	1
989.773	0
990.498	1
991.224	0
991.949	0
992.674	1
993.399	0
994.124	1
994.849	2
995.574	0
996.299	0
997.024	-1
997.749	0
998.473	0
999.198	0
999.922	-1
1000.647	1
1001.371	3
1002.095	-2
1002.82	1
1003.544	-2
1004.268	0
1004.992	-2
1005.716	-3
1006.439	0
1007.163	2
1007.887	-2
1008.611	1
1009.334	0
1010.058	-2
1010.781	1
1011.504	-1
1012.228	0
1012.951	1
1013.674	-1
1014.397	2
1015.12	-2
