节点500_145_QEPB04081__415__11-35-36-535.txt的数据

Date: Wed Nov 12 11:35:36 CST 2025
User: PC
Spectrometer: QEPB0408
触发模式: 0
积分时间 (秒): 1.000000E-2
Scans to average: 1
启用暗噪声校正: true
启用非线性校正: false
滑动平均宽度: 0
X轴模式: Wavelengths
Number of Pixels in Spectrum: 1044
>>>>>Begin Spectral Data<<<<<
220.843	1
221.644	-1
222.444	1
223.244	-1
224.045	2
224.845	1
225.645	0
226.445	1
227.245	0
228.045	2
228.845	-2
229.645	1
230.444	0
231.244	2
232.043	0
232.843	1
233.642	1
234.442	1
235.241	0
236.04	2
236.839	4
237.638	-1
238.437	4
239.236	3
240.035	0
240.833	2
241.632	2
242.43	3
243.229	4
244.027	3
244.826	2
245.624	2
246.422	4
247.22	1
248.018	5
248.816	3
249.614	4
250.412	2
251.21	3
252.007	5
252.805	2
253.602	5
254.4	3
255.197	5
255.994	3
256.791	4
257.589	2
258.386	2
259.183	4
259.979	4
260.776	5
261.573	4
262.37	4
263.166	6
263.963	4
264.759	6
265.556	8
266.352	3
267.148	5
267.944	7
268.74	8
269.536	8
270.332	7
271.128	7
271.924	7
272.719	8
273.515	8
274.311	9
275.106	7
275.901	9
276.697	10
277.492	7
278.287	8
279.082	7
279.877	10
280.672	9
281.467	10
282.262	9
283.056	10
283.851	11
284.646	12
285.44	13
286.234	12
287.029	10
287.823	10
288.617	12
289.411	10
290.205	12
290.999	11
291.793	10
292.587	11
293.381	11
294.174	11
294.968	11
295.761	6
296.555	9
297.348	13
298.141	9
298.935	10
299.728	11
300.521	10
301.314	8
302.107	8
302.899	10
303.692	11
304.485	10
305.277	9
306.07	8
306.862	7
307.655	10
308.447	8
309.239	9
310.031	7
310.823	7
311.615	8
312.407	6
313.199	7
313.991	6
314.783	8
315.574	5
316.366	6
317.157	6
317.949	4
318.74	7
319.531	6
320.322	3
321.113	5
321.904	3
322.695	4
323.486	5
324.277	5
325.068	4
325.858	4
326.649	2
327.439	4
328.23	4
329.02	3
329.81	3
330.6	3
331.391	6
332.181	5
332.971	5
333.76	4
334.55	5
335.34	4
336.13	4
336.919	3
337.709	5
338.498	3
339.287	2
340.077	2
340.866	5
341.655	4
342.444	2
343.233	4
344.022	4
344.811	3
345.6	4
346.388	3
347.177	3
347.965	1
348.754	3
349.542	4
350.33	5
351.119	4
351.907	3
352.695	5
353.483	4
354.271	3
355.059	4
355.846	4
356.634	2
357.422	5
358.209	3
358.997	3
359.784	3
360.571	3
361.359	4
362.146	2
362.933	3
363.72	2
364.507	4
365.294	3
366.081	2
366.867	6
367.654	3
368.44	2
369.227	4
370.013	3
370.8	3
371.586	2
372.372	4
373.158	2
373.944	3
374.73	4
375.516	4
376.302	4
377.088	2
377.873	5
378.659	3
379.445	2
380.23	5
381.015	2
381.801	3
382.586	3
383.371	5
384.156	1
384.941	5
385.726	5
386.511	4
387.296	5
388.08	4
388.865	2
389.649	4
390.434	3
391.218	5
392.003	1
392.787	4
393.571	4
394.355	5
395.139	3
395.923	6
396.707	3
397.491	2
398.274	5
399.058	5
399.842	5
400.625	3
401.408	2
402.192	6
402.975	2
403.758	3
404.541	4
405.324	6
406.107	6
406.89	3
407.673	3
408.456	6
409.238	3
410.021	3
410.803	5
411.586	6
412.368	3
413.151	8
413.933	4
414.715	5
415.497	6
416.279	4
417.061	5
417.843	6
418.624	6
419.406	6
420.188	4
420.969	8
421.751	6
422.532	6
423.313	5
424.095	7
424.876	5
425.657	6
426.438	8
427.219	7
428	7
428.78	6
429.561	8
430.342	6
431.122	9
431.903	9
432.683	7
433.464	8
434.244	9
435.024	10
435.804	6
436.584	11
437.364	9
438.144	10
438.924	12
439.704	11
440.483	10
441.263	11
442.042	14
442.822	13
443.601	13
444.38	13
445.16	14
445.939	19
446.718	16
447.497	22
448.276	19
449.054	24
449.833	25
450.612	23
451.391	28
452.169	32
452.948	33
453.726	38
454.504	40
455.282	40
456.061	48
456.839	52
457.617	54
458.395	66
459.172	73
459.95	78
460.728	85
461.506	94
462.283	107
463.061	118
463.838	128
464.615	145
465.393	162
466.17	184
466.947	204
467.724	226
468.501	253
469.278	275
470.055	312
470.831	340
471.608	382
472.385	426
473.161	463
473.938	527
474.714	582
475.49	645
476.266	702
477.043	798
477.819	863
478.595	958
479.371	1055
480.146	1156
480.922	1284
481.698	1400
482.473	1547
483.249	1689
484.024	1876
484.8	2054
485.575	2251
486.35	2472
487.126	2721
487.901	2978
488.676	3271
489.451	3576
490.225	3950
491	4325
491.775	4740
492.55	5164
493.324	5655
494.099	6182
494.873	6686
495.647	7303
496.422	7935
497.196	8573
497.97	9251
498.744	9941
499.518	10646
500.292	11381
501.066	12068
501.839	12717
502.613	13376
503.387	13934
504.16	14496
504.934	15038
505.707	15411
506.48	15698
507.253	15947
508.027	16048
508.8	16064
509.573	15959
510.346	15772
511.118	15553
511.891	15152
512.664	14715
513.437	14283
514.209	13773
514.982	13269
515.754	12850
516.526	12241
517.298	11754
518.071	11156
518.843	10748
519.615	10311
520.387	9856
521.159	9461
521.93	9055
522.702	8739
523.474	8384
524.245	8068
525.017	7719
525.788	7393
526.56	7114
527.331	6835
528.102	6545
528.873	6237
529.644	5991
530.415	5729
531.186	5427
531.957	5174
532.728	4924
533.498	4659
534.269	4399
535.039	4177
535.81	3942
536.58	3737
537.351	3544
538.121	3334
538.891	3170
539.661	2971
540.431	2825
541.201	2666
541.971	2542
542.741	2391
543.51	2273
544.28	2145
545.05	2061
545.819	1949
546.588	1848
547.358	1741
548.127	1674
548.896	1594
549.665	1505
550.434	1436
551.203	1358
551.972	1292
552.741	1222
553.51	1160
554.278	1098
555.047	1041
555.815	980
556.584	928
557.352	870
558.121	816
558.889	774
559.657	736
560.425	701
561.193	651
561.961	616
562.729	578
563.496	548
564.264	513
565.032	484
565.799	465
566.567	433
567.334	408
568.101	391
568.869	366
569.636	346
570.403	333
571.17	312
571.937	289
572.704	274
573.471	265
574.237	244
575.004	227
575.771	215
576.537	211
577.303	194
578.07	180
578.836	169
579.602	158
580.368	159
581.134	141
581.9	137
582.666	134
583.432	124
584.198	115
584.964	111
585.729	101
586.495	102
587.26	91
588.025	82
588.791	79
589.556	78
590.321	72
591.086	67
591.851	66
592.616	65
593.381	54
594.146	54
594.911	55
595.675	50
596.44	48
597.204	44
597.969	43
598.733	45
599.497	41
600.261	37
601.025	34
601.79	38
602.553	33
603.317	34
604.081	29
604.845	31
605.609	28
606.372	32
607.136	27
607.899	24
608.662	24
609.426	22
610.189	23
610.952	21
611.715	19
612.478	18
613.241	14
614.004	18
614.767	15
615.529	18
616.292	16
617.055	17
617.817	13
618.579	13
619.342	14
620.104	15
620.866	15
621.628	11
622.39	10
623.152	14
623.914	14
624.676	11
625.438	10
626.199	10
626.961	8
627.722	8
628.484	9
629.245	8
630.006	10
630.768	8
631.529	8
632.29	9
633.051	6
633.812	7
634.573	7
635.333	8
636.094	6
636.855	8
637.615	6
638.376	8
639.136	9
639.896	6
640.657	8
641.417	4
642.177	4
642.937	5
643.697	5
644.457	4
645.216	4
645.976	7
646.736	7
647.495	4
648.255	4
649.014	4
649.774	5
650.533	4
651.292	6
652.051	4
652.81	4
653.569	3
654.328	4
655.087	5
655.846	6
656.604	5
657.363	5
658.121	4
658.88	5
659.638	3
660.397	4
661.155	4
661.913	4
662.671	3
663.429	2
664.187	2
664.945	3
665.703	6
666.46	5
667.218	4
667.976	3
668.733	3
669.49	5
670.248	3
671.005	3
671.762	3
672.519	2
673.276	1
674.033	2
674.79	3
675.547	2
676.304	4
677.06	2
677.817	4
678.574	4
679.33	2
680.086	4
680.843	1
681.599	3
682.355	2
683.111	3
683.867	2
684.623	2
685.379	4
686.135	2
686.89	2
687.646	3
688.402	3
689.157	5
689.912	2
690.668	2
691.423	4
692.178	3
692.933	5
693.688	4
694.443	3
695.198	2
695.953	2
696.708	3
697.462	3
698.217	3
698.972	3
699.726	4
700.48	4
701.235	2
701.989	1
702.743	1
703.497	2
704.251	4
705.005	3
705.759	1
706.513	2
707.266	1
708.02	3
708.774	3
709.527	4
710.28	1
711.034	2
711.787	3
712.54	2
713.293	3
714.046	2
714.799	4
715.552	3
716.305	2
717.058	4
717.81	-1
718.563	4
719.315	3
720.068	4
720.82	4
721.573	1
722.325	1
723.077	3
723.829	4
724.581	0
725.333	3
726.085	1
726.836	2
727.588	5
728.34	4
729.091	4
729.843	2
730.594	2
731.346	3
732.097	3
732.848	3
733.599	3
734.35	5
735.101	1
735.852	1
736.603	4
737.354	-1
738.104	3
738.855	5
739.605	2
740.356	4
741.106	2
741.856	3
742.607	1
743.357	1
744.107	3
744.857	0
745.607	3
746.357	1
747.106	2
747.856	2
748.606	3
749.355	2
750.105	2
750.854	2
751.603	4
752.353	3
753.102	3
753.851	4
754.6	5
755.349	4
756.098	6
756.847	0
757.595	5
758.344	3
759.093	5
759.841	3
760.589	4
761.338	5
762.086	5
762.834	5
763.582	3
764.331	4
765.079	5
765.826	3
766.574	4
767.322	3
768.07	7
768.817	3
769.565	5
770.312	6
771.06	3
771.807	3
772.554	5
773.302	6
774.049	6
774.796	5
775.543	3
776.29	5
777.036	3
777.783	4
778.53	4
779.276	5
780.023	4
780.769	5
781.516	6
782.262	3
783.008	3
783.754	6
784.5	6
785.246	7
785.992	7
786.738	4
787.484	7
788.23	4
788.975	7
789.721	4
790.466	8
791.212	5
791.957	6
792.702	5
793.447	6
794.193	5
794.938	7
795.683	6
796.427	5
797.172	6
797.917	7
798.662	6
799.406	5
800.151	5
800.895	3
801.64	3
802.384	3
803.128	5
803.872	5
804.616	8
805.36	7
806.104	4
806.848	5
807.592	6
808.336	5
809.079	2
809.823	3
810.566	3
811.31	3
812.053	5
812.796	3
813.539	4
814.283	2
815.026	4
815.769	5
816.511	3
817.254	2
817.997	2
818.74	6
819.482	2
820.225	5
820.967	4
821.71	2
822.452	3
823.194	2
823.936	4
824.678	5
825.42	4
826.162	4
826.904	3
827.646	5
828.388	5
829.129	3
829.871	3
830.612	4
831.354	1
832.095	2
832.836	4
833.577	3
834.319	6
835.06	3
835.801	-1
836.542	3
837.282	3
838.023	5
838.764	3
839.504	4
840.245	3
840.985	3
841.726	3
842.466	3
843.206	3
843.946	2
844.687	2
845.427	2
846.166	3
846.906	3
847.646	3
848.386	3
849.125	2
849.865	2
850.605	2
851.344	1
852.083	3
852.823	1
853.562	4
854.301	0
855.04	2
855.779	2
856.518	1
857.257	1
857.995	2
858.734	2
859.473	3
860.211	3
860.95	0
861.688	2
862.426	1
863.165	3
863.903	0
864.641	2
865.379	4
866.117	3
866.855	3
867.593	1
868.33	1
869.068	3
869.806	4
870.543	4
871.28	3
872.018	2
872.755	2
873.492	1
874.229	3
874.967	1
875.703	1
876.44	3
877.177	2
877.914	2
878.651	1
879.387	2
880.124	1
880.86	1
881.597	2
882.333	2
883.069	3
883.806	0
884.542	1
885.278	2
886.014	2
886.749	0
887.485	-1
888.221	3
888.957	1
889.692	-1
890.428	2
891.163	2
891.899	0
892.634	2
893.369	0
894.104	2
894.839	2
895.574	1
896.309	2
897.044	3
897.779	-1
898.514	2
899.248	2
899.983	0
900.717	-3
901.452	3
902.186	0
902.92	1
903.654	0
904.389	-1
905.123	2
905.857	0
906.59	2
907.324	2
908.058	2
908.792	1
909.525	3
910.259	1
910.992	3
911.726	1
912.459	-1
913.192	2
913.925	2
914.658	0
915.391	3
916.124	2
916.857	0
917.59	2
918.323	-2
919.055	1
919.788	0
920.521	0
921.253	0
921.985	3
922.718	1
923.45	-1
924.182	1
924.914	-1
925.646	1
926.378	0
927.11	4
927.841	1
928.573	-1
929.305	2
930.036	-1
930.768	1
931.499	0
932.23	-1
932.962	1
933.693	2
934.424	1
935.155	-1
935.886	1
936.617	0
937.348	1
938.078	2
938.809	2
939.54	0
940.27	2
941.001	1
941.731	3
942.461	1
943.191	2
943.922	-1
944.652	0
945.382	1
946.112	2
946.841	1
947.571	-2
948.301	0
949.031	0
949.76	1
950.49	0
951.219	3
951.948	0
952.678	1
953.407	0
954.136	1
954.865	-1
955.594	-1
956.323	1
957.052	1
957.78	-1
958.509	2
959.238	-2
959.966	1
960.695	2
961.423	0
962.151	0
962.88	1
963.608	1
964.336	0
965.064	2
965.792	-1
966.52	0
967.247	0
967.975	-1
968.703	2
969.43	0
970.158	0
970.885	2
971.613	2
972.34	4
973.067	-1
973.794	0
974.521	1
975.248	1
975.975	1
976.702	0
977.429	2
978.156	3
978.882	2
979.609	-2
980.335	1
981.062	1
981.788	2
982.514	3
983.24	1
983.967	1
984.693	1
985.419	1
986.144	2
986.87	-1
987.596	1
988.322	1
989.047	1
989.773	0
990.498	2
991.224	-2
991.949	1
992.674	1
993.399	1
994.124	3
994.849	-1
995.574	3
996.299	0
997.024	2
997.749	0
998.473	0
999.198	2
999.922	0
1000.647	2
1001.371	2
1002.095	-1
1002.82	0
1003.544	-3
1004.268	2
1004.992	-1
1005.716	0
1006.439	-3
1007.163	-1
1007.887	0
1008.611	1
1009.334	3
1010.058	-1
1010.781	2
1011.504	1
1012.228	0
1012.951	1
1013.674	-1
1014.397	1
1015.12	1
