节点500_145_QEPB04081__265__11-33-13-488.txt的数据

Date: Wed Nov 12 11:33:13 CST 2025
User: PC
Spectrometer: QEPB0408
触发模式: 0
积分时间 (秒): 1.000000E-2
Scans to average: 1
启用暗噪声校正: true
启用非线性校正: false
滑动平均宽度: 0
X轴模式: Wavelengths
Number of Pixels in Spectrum: 1044
>>>>>Begin Spectral Data<<<<<
220.843	-1.25
221.644	-1.25
222.444	1.75
223.244	-3.25
224.045	0.75
224.845	-0.25
225.645	0.75
226.445	-1.25
227.245	-1.25
228.045	-2.25
228.845	-0.25
229.645	-2.25
230.444	-0.25
231.244	0.75
232.043	0.75
232.843	0.75
233.642	2.75
234.442	-0.25
235.241	-0.25
236.04	1.75
236.839	-2.25
237.638	-0.25
238.437	2.75
239.236	0.75
240.035	0.75
240.833	-0.25
241.632	-0.25
242.43	-0.25
243.229	2.75
244.027	0.75
244.826	0.75
245.624	-0.25
246.422	-0.25
247.22	1.75
248.018	1.75
248.816	0.75
249.614	2.75
250.412	0.75
251.21	2.75
252.007	1.75
252.805	2.75
253.602	1.75
254.4	2.75
255.197	1.75
255.994	3.75
256.791	3.75
257.589	4.75
258.386	2.75
259.183	4.75
259.979	5.75
260.776	3.75
261.573	4.75
262.37	4.75
263.166	4.75
263.963	4.75
264.759	4.75
265.556	4.75
266.352	5.75
267.148	6.75
267.944	6.75
268.74	4.75
269.536	6.75
270.332	6.75
271.128	8.75
271.924	6.75
272.719	6.75
273.515	8.75
274.311	6.75
275.106	7.75
275.901	6.75
276.697	7.75
277.492	9.75
278.287	8.75
279.082	9.75
279.877	10.75
280.672	10.75
281.467	9.75
282.262	9.75
283.056	8.75
283.851	9.75
284.646	10.75
285.44	10.75
286.234	8.75
287.029	10.75
287.823	8.75
288.617	9.75
289.411	9.75
290.205	9.75
290.999	12.75
291.793	9.75
292.587	10.75
293.381	11.75
294.174	11.75
294.968	7.75
295.761	10.75
296.555	7.75
297.348	11.75
298.141	10.75
298.935	7.75
299.728	9.75
300.521	9.75
301.314	9.75
302.107	9.75
302.899	8.75
303.692	6.75
304.485	7.75
305.277	6.75
306.07	6.75
306.862	9.75
307.655	10.75
308.447	7.75
309.239	7.75
310.031	4.75
310.823	6.75
311.615	4.75
312.407	5.75
313.199	2.75
313.991	6.75
314.783	7.75
315.574	4.75
316.366	5.75
317.157	4.75
317.949	5.75
318.74	5.75
319.531	3.75
320.322	4.75
321.113	3.75
321.904	4.75
322.695	3.75
323.486	3.75
324.277	3.75
325.068	3.75
325.858	5.75
326.649	1.75
327.439	5.75
328.23	3.75
329.02	4.75
329.81	3.75
330.6	5.75
331.391	2.75
332.181	4.75
332.971	4.75
333.76	0.75
334.55	3.75
335.34	4.75
336.13	2.75
336.919	4.75
337.709	3.75
338.498	3.75
339.287	0.75
340.077	3.75
340.866	3.75
341.655	0.75
342.444	1.75
343.233	-0.25
344.022	1.75
344.811	1.75
345.6	2.75
346.388	3.75
347.177	4.75
347.965	2.75
348.754	-1.25
349.542	2.75
350.33	3.75
351.119	0.75
351.907	2.75
352.695	4.75
353.483	2.75
354.271	1.75
355.059	3.75
355.846	1.75
356.634	3.75
357.422	3.75
358.209	1.75
358.997	1.75
359.784	1.75
360.571	2.75
361.359	1.75
362.146	2.75
362.933	1.75
363.72	-0.25
364.507	1.75
365.294	2.75
366.081	2.75
366.867	3.75
367.654	2.75
368.44	1.75
369.227	1.75
370.013	1.75
370.8	1.75
371.586	1.75
372.372	-0.25
373.158	1.75
373.944	2.75
374.73	2.75
375.516	3.75
376.302	3.75
377.088	2.75
377.873	3.75
378.659	2.75
379.445	3.75
380.23	1.75
381.015	2.75
381.801	0.75
382.586	1.75
383.371	1.75
384.156	2.75
384.941	2.75
385.726	-0.25
386.511	1.75
387.296	-0.25
388.08	3.75
388.865	2.75
389.649	1.75
390.434	0.75
391.218	2.75
392.003	3.75
392.787	2.75
393.571	1.75
394.355	0.75
395.139	2.75
395.923	1.75
396.707	4.75
397.491	5.75
398.274	3.75
399.058	3.75
399.842	2.75
400.625	3.75
401.408	3.75
402.192	1.75
402.975	2.75
403.758	4.75
404.541	2.75
405.324	3.75
406.107	1.75
406.89	5.75
407.673	3.75
408.456	3.75
409.238	4.75
410.021	6.75
410.803	4.75
411.586	3.75
412.368	3.75
413.151	2.75
413.933	5.75
414.715	3.75
415.497	3.75
416.279	4.75
417.061	4.75
417.843	5.75
418.624	3.75
419.406	4.75
420.188	6.75
420.969	5.75
421.751	4.75
422.532	4.75
423.313	6.75
424.095	2.75
424.876	6.75
425.657	6.75
426.438	5.75
427.219	6.75
428	4.75
428.78	7.75
429.561	6.75
430.342	6.75
431.122	7.75
431.903	6.75
432.683	8.75
433.464	8.75
434.244	7.75
435.024	6.75
435.804	9.75
436.584	7.75
437.364	7.75
438.144	8.75
438.924	7.75
439.704	11.75
440.483	10.75
441.263	10.75
442.042	13.75
442.822	12.75
443.601	13.75
444.38	13.75
445.16	15.75
445.939	13.75
446.718	17.75
447.497	20.75
448.276	20.75
449.054	20.75
449.833	21.75
450.612	23.75
451.391	27.75
452.169	29.75
452.948	33.75
453.726	32.75
454.504	35.75
455.282	37.75
456.061	43.75
456.839	48.75
457.617	51.75
458.395	58.75
459.172	64.75
459.95	70.75
460.728	83.75
461.506	86.75
462.283	99.75
463.061	113.75
463.838	127.75
464.615	142.75
465.393	153.75
466.17	172.75
466.947	196.75
467.724	209.75
468.501	240.75
469.278	263.75
470.055	292.75
470.831	336.75
471.608	367.75
472.385	414.75
473.161	463.75
473.938	517.75
474.714	561.75
475.49	623.75
476.266	688.75
477.043	772.75
477.819	846.75
478.595	929.75
479.371	1036.75
480.146	1152.75
480.922	1252.75
481.698	1409.75
482.473	1555.75
483.249	1708.75
484.024	1886.75
484.8	2067.75
485.575	2283.75
486.35	2524.75
487.126	2814.75
487.901	3072.75
488.676	3371.75
489.451	3717.75
490.225	4080.75
491	4517.75
491.775	4932.75
492.55	5394.75
493.324	5936.75
494.099	6484.75
494.873	7072.75
495.647	7713.75
496.422	8395.75
497.196	9044.75
497.97	9781.75
498.744	10561.75
499.518	11319.75
500.292	12008.75
501.066	12767.75
501.839	13470.75
502.613	14156.75
503.387	14768.75
504.16	15281.75
504.934	15794.75
505.707	16078.75
506.48	16368.75
507.253	16542.75
508.027	16595.75
508.8	16495.75
509.573	16344.75
510.346	16147.75
511.118	15765.75
511.891	15309.75
512.664	14895.75
513.437	14360.75
514.209	13738.75
514.982	13230.75
515.754	12670.75
516.526	12212.75
517.298	11596.75
518.071	11088.75
518.843	10580.75
519.615	10149.75
520.387	9736.75
521.159	9364.75
521.93	8953.75
522.702	8582.75
523.474	8291.75
524.245	7988.75
525.017	7627.75
525.788	7347.75
526.56	7048.75
527.331	6749.75
528.102	6441.75
528.873	6156.75
529.644	5908.75
530.415	5606.75
531.186	5340.75
531.957	5067.75
532.728	4817.75
533.498	4537.75
534.269	4307.75
535.039	4074.75
535.81	3847.75
536.58	3628.75
537.351	3427.75
538.121	3236.75
538.891	3065.75
539.661	2893.75
540.431	2716.75
541.201	2565.75
541.971	2457.75
542.741	2319.75
543.51	2205.75
544.28	2078.75
545.05	1986.75
545.819	1892.75
546.588	1805.75
547.358	1705.75
548.127	1623.75
548.896	1531.75
549.665	1465.75
550.434	1388.75
551.203	1317.75
551.972	1252.75
552.741	1189.75
553.51	1127.75
554.278	1049.75
555.047	998.75
555.815	941.75
556.584	887.75
557.352	840.75
558.121	794.75
558.889	731.75
559.657	705.75
560.425	661.75
561.193	635.75
561.961	581.75
562.729	539.75
563.496	518.75
564.264	492.75
565.032	474.75
565.799	440.75
566.567	416.75
567.334	392.75
568.101	376.75
568.869	349.75
569.636	326.75
570.403	308.75
571.17	292.75
571.937	279.75
572.704	263.75
573.471	243.75
574.237	231.75
575.004	217.75
575.771	197.75
576.537	192.75
577.303	176.75
578.07	170.75
578.836	163.75
579.602	149.75
580.368	138.75
581.134	136.75
581.9	129.75
582.666	119.75
583.432	113.75
584.198	112.75
584.964	100.75
585.729	103.75
586.495	92.75
587.26	86.75
588.025	81.75
588.791	75.75
589.556	67.75
590.321	65.75
591.086	63.75
591.851	61.75
592.616	59.75
593.381	55.75
594.146	53.75
594.911	51.75
595.675	46.75
596.44	45.75
597.204	45.75
597.969	42.75
598.733	38.75
599.497	40.75
600.261	36.75
601.025	35.75
601.79	32.75
602.553	31.75
603.317	32.75
604.081	30.75
604.845	26.75
605.609	25.75
606.372	25.75
607.136	22.75
607.899	22.75
608.662	23.75
609.426	18.75
610.189	20.75
610.952	17.75
611.715	20.75
612.478	16.75
613.241	13.75
614.004	16.75
614.767	13.75
615.529	15.75
616.292	15.75
617.055	9.75
617.817	13.75
618.579	13.75
619.342	12.75
620.104	13.75
620.866	9.75
621.628	9.75
622.39	11.75
623.152	9.75
623.914	9.75
624.676	10.75
625.438	9.75
626.199	10.75
626.961	9.75
627.722	6.75
628.484	7.75
629.245	8.75
630.006	10.75
630.768	7.75
631.529	6.75
632.29	7.75
633.051	6.75
633.812	5.75
634.573	5.75
635.333	3.75
636.094	5.75
636.855	7.75
637.615	5.75
638.376	4.75
639.136	5.75
639.896	4.75
640.657	5.75
641.417	3.75
642.177	6.75
642.937	4.75
643.697	6.75
644.457	3.75
645.216	4.75
645.976	3.75
646.736	4.75
647.495	3.75
648.255	5.75
649.014	2.75
649.774	3.75
650.533	1.75
651.292	3.75
652.051	3.75
652.81	2.75
653.569	3.75
654.328	5.75
655.087	1.75
655.846	1.75
656.604	3.75
657.363	1.75
658.121	5.75
658.88	3.75
659.638	2.75
660.397	1.75
661.155	3.75
661.913	0.75
662.671	1.75
663.429	3.75
664.187	3.75
664.945	2.75
665.703	1.75
666.46	0.75
667.218	2.75
667.976	1.75
668.733	4.75
669.49	3.75
670.248	1.75
671.005	3.75
671.762	3.75
672.519	2.75
673.276	0.75
674.033	3.75
674.79	1.75
675.547	1.75
676.304	1.75
677.06	1.75
677.817	4.75
678.574	1.75
679.33	0.75
680.086	0.75
680.843	2.75
681.599	2.75
682.355	1.75
683.111	0.75
683.867	-0.25
684.623	1.75
685.379	4.75
686.135	0.75
686.89	2.75
687.646	0.75
688.402	1.75
689.157	0.75
689.912	1.75
690.668	1.75
691.423	-0.25
692.178	1.75
692.933	0.75
693.688	1.75
694.443	0.75
695.198	1.75
695.953	1.75
696.708	1.75
697.462	2.75
698.217	-1.25
698.972	0.75
699.726	0.75
700.48	1.75
701.235	1.75
701.989	0.75
702.743	0.75
703.497	-0.25
704.251	1.75
705.005	0.75
705.759	2.75
706.513	-0.25
707.266	1.75
708.02	0.75
708.774	1.75
709.527	1.75
710.28	1.75
711.034	1.75
711.787	1.75
712.54	2.75
713.293	0.75
714.046	2.75
714.799	2.75
715.552	2.75
716.305	0.75
717.058	0.75
717.81	2.75
718.563	1.75
719.315	0.75
720.068	1.75
720.82	3.75
721.573	0.75
722.325	1.75
723.077	1.75
723.829	2.75
724.581	2.75
725.333	-0.25
726.085	2.75
726.836	-0.25
727.588	0.75
728.34	1.75
729.091	1.75
729.843	0.75
730.594	2.75
731.346	2.75
732.097	1.75
732.848	1.75
733.599	-0.25
734.35	0.75
735.101	-1.25
735.852	1.75
736.603	1.75
737.354	2.75
738.104	2.75
738.855	-1.25
739.605	-0.25
740.356	2.75
741.106	2.75
741.856	0.75
742.607	0.75
743.357	2.75
744.107	3.75
744.857	4.75
745.607	2.75
746.357	1.75
747.106	0.75
747.856	2.75
748.606	1.75
749.355	2.75
750.105	0.75
750.854	1.75
751.603	2.75
752.353	2.75
753.102	3.75
753.851	1.75
754.6	2.75
755.349	1.75
756.098	3.75
756.847	1.75
757.595	1.75
758.344	1.75
759.093	4.75
759.841	2.75
760.589	2.75
761.338	1.75
762.086	3.75
762.834	4.75
763.582	3.75
764.331	3.75
765.079	2.75
765.826	2.75
766.574	3.75
767.322	5.75
768.07	3.75
768.817	3.75
769.565	2.75
770.312	1.75
771.06	6.75
771.807	3.75
772.554	4.75
773.302	5.75
774.049	1.75
774.796	4.75
775.543	4.75
776.29	3.75
777.036	0.75
777.783	3.75
778.53	4.75
779.276	2.75
780.023	4.75
780.769	2.75
781.516	4.75
782.262	6.75
783.008	4.75
783.754	4.75
784.5	4.75
785.246	5.75
785.992	3.75
786.738	3.75
787.484	3.75
788.23	4.75
788.975	6.75
789.721	2.75
790.466	4.75
791.212	4.75
791.957	6.75
792.702	2.75
793.447	4.75
794.193	6.75
794.938	3.75
795.683	3.75
796.427	5.75
797.172	4.75
797.917	4.75
798.662	3.75
799.406	4.75
800.151	4.75
800.895	4.75
801.64	2.75
802.384	2.75
803.128	4.75
803.872	4.75
804.616	5.75
805.36	3.75
806.104	3.75
806.848	3.75
807.592	2.75
808.336	1.75
809.079	0.75
809.823	1.75
810.566	3.75
811.31	2.75
812.053	2.75
812.796	2.75
813.539	3.75
814.283	2.75
815.026	1.75
815.769	2.75
816.511	4.75
817.254	1.75
817.997	2.75
818.74	2.75
819.482	1.75
820.225	3.75
820.967	2.75
821.71	1.75
822.452	3.75
823.194	1.75
823.936	-0.25
824.678	1.75
825.42	2.75
826.162	2.75
826.904	1.75
827.646	3.75
828.388	2.75
829.129	3.75
829.871	2.75
830.612	1.75
831.354	2.75
832.095	1.75
832.836	-0.25
833.577	1.75
834.319	1.75
835.06	-1.25
835.801	3.75
836.542	0.75
837.282	3.75
838.023	1.75
838.764	2.75
839.504	1.75
840.245	1.75
840.985	1.75
841.726	1.75
842.466	-2.25
843.206	2.75
843.946	-0.25
844.687	1.75
845.427	-2.25
846.166	0.75
846.906	0.75
847.646	1.75
848.386	2.75
849.125	1.75
849.865	1.75
850.605	-0.25
851.344	0.75
852.083	1.75
852.823	3.75
853.562	1.75
854.301	-0.25
855.04	1.75
855.779	0.75
856.518	-2.25
857.257	3.75
857.995	-1.25
858.734	0.75
859.473	1.75
860.211	4.75
860.95	-1.25
861.688	2.75
862.426	1.75
863.165	-0.25
863.903	3.75
864.641	-0.25
865.379	1.75
866.117	2.75
866.855	1.75
867.593	1.75
868.33	1.75
869.068	-1.25
869.806	0.75
870.543	0.75
871.28	0.75
872.018	2.75
872.755	0.75
873.492	-2.25
874.229	1.75
874.967	0.75
875.703	0.75
876.44	0.75
877.177	-0.25
877.914	-0.25
878.651	1.75
879.387	-2.25
880.124	0.75
880.86	-2.25
881.597	0.75
882.333	0.75
883.069	0.75
883.806	0.75
884.542	-0.25
885.278	0.75
886.014	-0.25
886.749	0.75
887.485	0.75
888.221	-1.25
888.957	0.75
889.692	1.75
890.428	1.75
891.163	2.75
891.899	-0.25
892.634	-2.25
893.369	-0.25
894.104	0.75
894.839	1.75
895.574	-1.25
896.309	0.75
897.044	-0.25
897.779	1.75
898.514	-1.25
899.248	-1.25
899.983	-2.25
900.717	1.75
901.452	3.75
902.186	-0.25
902.92	-0.25
903.654	-0.25
904.389	0.75
905.123	-0.25
905.857	-2.25
906.59	-0.25
907.324	-0.25
908.058	1.75
908.792	-1.25
909.525	-2.25
910.259	-0.25
910.992	-0.25
911.726	0.75
912.459	0.75
913.192	-2.25
913.925	-0.25
914.658	-2.25
915.391	0.75
916.124	-1.25
916.857	0.75
917.59	-0.25
918.323	-1.25
919.055	0.75
919.788	-0.25
920.521	0.75
921.253	-1.25
921.985	0.75
922.718	-0.25
923.45	-2.25
924.182	0.75
924.914	-0.25
925.646	1.75
926.378	-1.25
927.11	1.75
927.841	-0.25
928.573	0.75
929.305	-0.25
930.036	-1.25
930.768	2.75
931.499	-0.25
932.23	-2.25
932.962	0.75
933.693	1.75
934.424	1.75
935.155	1.75
935.886	-0.25
936.617	-0.25
937.348	-1.25
938.078	0.75
938.809	0.75
939.54	3.75
940.27	-0.25
941.001	-2.25
941.731	0.75
942.461	-2.25
943.191	1.75
943.922	1.75
944.652	-2.25
945.382	-1.25
946.112	-1.25
946.841	-0.25
947.571	1.75
948.301	-1.25
949.031	-0.25
949.76	0.75
950.49	0.75
951.219	0.75
951.948	-1.25
952.678	-1.25
953.407	-0.25
954.136	0.75
954.865	-0.25
955.594	-0.25
956.323	-0.25
957.052	-0.25
957.78	0.75
958.509	0.75
959.238	-1.25
959.966	-1.25
960.695	-0.25
961.423	0.75
962.151	-1.25
962.88	0.75
963.608	-0.25
964.336	-1.25
965.064	0.75
965.792	-1.25
966.52	-1.25
967.247	0.75
967.975	-2.25
968.703	1.75
969.43	-1.25
970.158	-1.25
970.885	-1.25
971.613	-0.25
972.34	0.75
973.067	-0.25
973.794	1.75
974.521	-2.25
975.248	1.75
975.975	-0.25
976.702	-1.25
977.429	-0.25
978.156	-2.25
978.882	-0.25
979.609	1.75
980.335	0.75
981.062	-0.25
981.788	-1.25
982.514	-1.25
983.24	-3.25
983.967	-0.25
984.693	-1.25
985.419	0.75
986.144	0.75
986.87	-1.25
987.596	-2.25
988.322	-0.25
989.047	-1.25
989.773	-1.25
990.498	-0.25
991.224	-1.25
991.949	0.75
992.674	1.75
993.399	-1.25
994.124	-0.25
994.849	0.75
995.574	-1.25
996.299	0.75
997.024	0.75
997.749	-1.25
998.473	-0.25
999.198	0.75
999.922	-0.25
1000.647	0.75
1001.371	2.75
1002.095	-3.25
1002.82	-2.25
1003.544	-2.25
1004.268	-2.25
1004.992	-0.25
1005.716	-1.25
1006.439	-0.25
1007.163	-2.25
1007.887	-2.25
1008.611	1.75
1009.334	-2.25
1010.058	1.75
1010.781	-1.25
1011.504	0.75
1012.228	0.75
1012.951	0.75
1013.674	0.75
1014.397	0.75
1015.12	2.75
