节点500_145_QEPB04081__236__11-32-45-469.txt的数据

Date: Wed Nov 12 11:32:45 CST 2025
User: PC
Spectrometer: QEPB0408
触发模式: 0
积分时间 (秒): 1.000000E-2
Scans to average: 1
启用暗噪声校正: true
启用非线性校正: false
滑动平均宽度: 0
X轴模式: Wavelengths
Number of Pixels in Spectrum: 1044
>>>>>Begin Spectral Data<<<<<
220.843	1.25
221.644	1.25
222.444	0.25
223.244	0.25
224.045	-0.75
224.845	-1.75
225.645	0.25
226.445	1.25
227.245	-1.75
228.045	-0.75
228.845	-0.75
229.645	2.25
230.444	1.25
231.244	2.25
232.043	2.25
232.843	0.25
233.642	2.25
234.442	1.25
235.241	-1.75
236.04	1.25
236.839	2.25
237.638	1.25
238.437	-0.75
239.236	1.25
240.035	2.25
240.833	2.25
241.632	0.25
242.43	2.25
243.229	0.25
244.027	1.25
244.826	-0.75
245.624	2.25
246.422	0.25
247.22	1.25
248.018	2.25
248.816	1.25
249.614	1.25
250.412	3.25
251.21	2.25
252.007	4.25
252.805	4.25
253.602	3.25
254.4	2.25
255.197	0.25
255.994	4.25
256.791	5.25
257.589	5.25
258.386	4.25
259.183	5.25
259.979	3.25
260.776	2.25
261.573	5.25
262.37	5.25
263.166	6.25
263.963	5.25
264.759	4.25
265.556	7.25
266.352	5.25
267.148	6.25
267.944	9.25
268.74	7.25
269.536	6.25
270.332	6.25
271.128	8.25
271.924	9.25
272.719	6.25
273.515	8.25
274.311	9.25
275.106	9.25
275.901	8.25
276.697	7.25
277.492	10.25
278.287	9.25
279.082	11.25
279.877	7.25
280.672	10.25
281.467	10.25
282.262	11.25
283.056	9.25
283.851	13.25
284.646	11.25
285.44	10.25
286.234	10.25
287.029	12.25
287.823	9.25
288.617	11.25
289.411	13.25
290.205	10.25
290.999	11.25
291.793	12.25
292.587	12.25
293.381	13.25
294.174	9.25
294.968	11.25
295.761	9.25
296.555	12.25
297.348	11.25
298.141	11.25
298.935	12.25
299.728	9.25
300.521	9.25
301.314	7.25
302.107	9.25
302.899	11.25
303.692	7.25
304.485	10.25
305.277	7.25
306.07	9.25
306.862	9.25
307.655	5.25
308.447	6.25
309.239	7.25
310.031	8.25
310.823	6.25
311.615	9.25
312.407	5.25
313.199	6.25
313.991	5.25
314.783	6.25
315.574	5.25
316.366	4.25
317.157	4.25
317.949	7.25
318.74	4.25
319.531	7.25
320.322	5.25
321.113	6.25
321.904	3.25
322.695	4.25
323.486	5.25
324.277	4.25
325.068	5.25
325.858	4.25
326.649	5.25
327.439	2.25
328.23	4.25
329.02	4.25
329.81	5.25
330.6	5.25
331.391	1.25
332.181	5.25
332.971	5.25
333.76	5.25
334.55	2.25
335.34	1.25
336.13	5.25
336.919	3.25
337.709	2.25
338.498	3.25
339.287	3.25
340.077	3.25
340.866	2.25
341.655	5.25
342.444	3.25
343.233	2.25
344.022	3.25
344.811	4.25
345.6	1.25
346.388	3.25
347.177	6.25
347.965	4.25
348.754	3.25
349.542	6.25
350.33	1.25
351.119	2.25
351.907	5.25
352.695	5.25
353.483	5.25
354.271	3.25
355.059	3.25
355.846	-0.75
356.634	3.25
357.422	0.25
358.209	2.25
358.997	3.25
359.784	3.25
360.571	2.25
361.359	3.25
362.146	2.25
362.933	3.25
363.72	4.25
364.507	3.25
365.294	4.25
366.081	3.25
366.867	2.25
367.654	3.25
368.44	1.25
369.227	2.25
370.013	1.25
370.8	2.25
371.586	3.25
372.372	0.25
373.158	3.25
373.944	3.25
374.73	3.25
375.516	3.25
376.302	1.25
377.088	4.25
377.873	2.25
378.659	1.25
379.445	2.25
380.23	1.25
381.015	1.25
381.801	3.25
382.586	2.25
383.371	0.25
384.156	2.25
384.941	2.25
385.726	5.25
386.511	5.25
387.296	3.25
388.08	3.25
388.865	0.25
389.649	4.25
390.434	4.25
391.218	5.25
392.003	3.25
392.787	1.25
393.571	4.25
394.355	4.25
395.139	3.25
395.923	3.25
396.707	3.25
397.491	5.25
398.274	3.25
399.058	3.25
399.842	5.25
400.625	4.25
401.408	3.25
402.192	4.25
402.975	2.25
403.758	4.25
404.541	5.25
405.324	3.25
406.107	4.25
406.89	5.25
407.673	3.25
408.456	5.25
409.238	2.25
410.021	5.25
410.803	4.25
411.586	6.25
412.368	4.25
413.151	7.25
413.933	5.25
414.715	4.25
415.497	6.25
416.279	4.25
417.061	5.25
417.843	7.25
418.624	4.25
419.406	5.25
420.188	5.25
420.969	5.25
421.751	4.25
422.532	4.25
423.313	6.25
424.095	4.25
424.876	8.25
425.657	6.25
426.438	5.25
427.219	6.25
428	6.25
428.78	6.25
429.561	6.25
430.342	7.25
431.122	7.25
431.903	7.25
432.683	9.25
433.464	8.25
434.244	8.25
435.024	7.25
435.804	10.25
436.584	10.25
437.364	9.25
438.144	9.25
438.924	13.25
439.704	11.25
440.483	10.25
441.263	14.25
442.042	13.25
442.822	13.25
443.601	15.25
444.38	13.25
445.16	15.25
445.939	18.25
446.718	17.25
447.497	19.25
448.276	18.25
449.054	22.25
449.833	22.25
450.612	25.25
451.391	27.25
452.169	27.25
452.948	29.25
453.726	35.25
454.504	37.25
455.282	39.25
456.061	45.25
456.839	46.25
457.617	57.25
458.395	59.25
459.172	64.25
459.95	71.25
460.728	80.25
461.506	90.25
462.283	97.25
463.061	111.25
463.838	123.25
464.615	139.25
465.393	154.25
466.17	172.25
466.947	190.25
467.724	208.25
468.501	235.25
469.278	264.25
470.055	289.25
470.831	321.25
471.608	363.25
472.385	404.25
473.161	444.25
473.938	494.25
474.714	551.25
475.49	610.25
476.266	687.25
477.043	757.25
477.819	838.25
478.595	921.25
479.371	1030.25
480.146	1143.25
480.922	1268.25
481.698	1393.25
482.473	1545.25
483.249	1694.25
484.024	1875.25
484.8	2058.25
485.575	2283.25
486.35	2529.25
487.126	2792.25
487.901	3076.25
488.676	3388.25
489.451	3721.25
490.225	4097.25
491	4490.25
491.775	4968.25
492.55	5460.25
493.324	5971.25
494.099	6543.25
494.873	7127.25
495.647	7792.25
496.422	8490.25
497.196	9180.25
497.97	9943.25
498.744	10683.25
499.518	11379.25
500.292	12157.25
501.066	12887.25
501.839	13587.25
502.613	14266.25
503.387	14940.25
504.16	15434.25
504.934	15893.25
505.707	16255.25
506.48	16451.25
507.253	16569.25
508.027	16694.25
508.8	16596.25
509.573	16313.25
510.346	16098.25
511.118	15780.25
511.891	15300.25
512.664	14849.25
513.437	14269.25
514.209	13715.25
514.982	13221.25
515.754	12632.25
516.526	12085.25
517.298	11574.25
518.071	11012.25
518.843	10480.25
519.615	10068.25
520.387	9685.25
521.159	9276.25
521.93	8935.25
522.702	8562.25
523.474	8211.25
524.245	7897.25
525.017	7568.25
525.788	7306.25
526.56	6980.25
527.331	6703.25
528.102	6371.25
528.873	6083.25
529.644	5847.25
530.415	5566.25
531.186	5288.25
531.957	5012.25
532.728	4746.25
533.498	4505.25
534.269	4256.25
535.039	4026.25
535.81	3793.25
536.58	3582.25
537.351	3378.25
538.121	3166.25
538.891	3006.25
539.661	2820.25
540.431	2705.25
541.201	2568.25
541.971	2427.25
542.741	2310.25
543.51	2173.25
544.28	2051.25
545.05	1953.25
545.819	1867.25
546.588	1781.25
547.358	1678.25
548.127	1616.25
548.896	1516.25
549.665	1450.25
550.434	1378.25
551.203	1302.25
551.972	1236.25
552.741	1165.25
553.51	1112.25
554.278	1048.25
555.047	984.25
555.815	928.25
556.584	880.25
557.352	825.25
558.121	787.25
558.889	736.25
559.657	683.25
560.425	654.25
561.193	611.25
561.961	574.25
562.729	549.25
563.496	516.25
564.264	484.25
565.032	458.25
565.799	434.25
566.567	407.25
567.334	391.25
568.101	365.25
568.869	342.25
569.636	334.25
570.403	305.25
571.17	293.25
571.937	275.25
572.704	259.25
573.471	240.25
574.237	237.25
575.004	218.25
575.771	203.25
576.537	188.25
577.303	177.25
578.07	171.25
578.836	162.25
579.602	149.25
580.368	143.25
581.134	132.25
581.9	124.25
582.666	121.25
583.432	117.25
584.198	106.25
584.964	104.25
585.729	100.25
586.495	93.25
587.26	83.25
588.025	81.25
588.791	78.25
589.556	73.25
590.321	71.25
591.086	70.25
591.851	61.25
592.616	56.25
593.381	54.25
594.146	51.25
594.911	46.25
595.675	45.25
596.44	45.25
597.204	46.25
597.969	40.25
598.733	41.25
599.497	37.25
600.261	37.25
601.025	33.25
601.79	30.25
602.553	33.25
603.317	31.25
604.081	29.25
604.845	28.25
605.609	30.25
606.372	24.25
607.136	23.25
607.899	23.25
608.662	23.25
609.426	22.25
610.189	20.25
610.952	18.25
611.715	19.25
612.478	16.25
613.241	18.25
614.004	16.25
614.767	15.25
615.529	16.25
616.292	13.25
617.055	17.25
617.817	14.25
618.579	14.25
619.342	12.25
620.104	13.25
620.866	10.25
621.628	10.25
622.39	11.25
623.152	9.25
623.914	14.25
624.676	13.25
625.438	9.25
626.199	10.25
626.961	8.25
627.722	11.25
628.484	9.25
629.245	7.25
630.006	7.25
630.768	7.25
631.529	8.25
632.29	9.25
633.051	7.25
633.812	6.25
634.573	8.25
635.333	10.25
636.094	7.25
636.855	8.25
637.615	3.25
638.376	8.25
639.136	7.25
639.896	5.25
640.657	4.25
641.417	3.25
642.177	6.25
642.937	7.25
643.697	6.25
644.457	4.25
645.216	4.25
645.976	3.25
646.736	5.25
647.495	8.25
648.255	2.25
649.014	5.25
649.774	4.25
650.533	2.25
651.292	5.25
652.051	4.25
652.81	3.25
653.569	6.25
654.328	7.25
655.087	1.25
655.846	4.25
656.604	4.25
657.363	2.25
658.121	6.25
658.88	4.25
659.638	4.25
660.397	3.25
661.155	3.25
661.913	5.25
662.671	4.25
663.429	4.25
664.187	2.25
664.945	4.25
665.703	2.25
666.46	3.25
667.218	1.25
667.976	1.25
668.733	2.25
669.49	3.25
670.248	3.25
671.005	3.25
671.762	1.25
672.519	2.25
673.276	3.25
674.033	2.25
674.79	1.25
675.547	6.25
676.304	2.25
677.06	3.25
677.817	3.25
678.574	2.25
679.33	2.25
680.086	1.25
680.843	2.25
681.599	2.25
682.355	2.25
683.111	2.25
683.867	1.25
684.623	1.25
685.379	3.25
686.135	1.25
686.89	4.25
687.646	-1.75
688.402	2.25
689.157	1.25
689.912	2.25
690.668	2.25
691.423	3.25
692.178	3.25
692.933	1.25
693.688	2.25
694.443	2.25
695.198	3.25
695.953	2.25
696.708	4.25
697.462	2.25
698.217	0.25
698.972	5.25
699.726	2.25
700.48	3.25
701.235	3.25
701.989	2.25
702.743	1.25
703.497	3.25
704.251	2.25
705.005	1.25
705.759	1.25
706.513	3.25
707.266	1.25
708.02	1.25
708.774	1.25
709.527	2.25
710.28	1.25
711.034	1.25
711.787	1.25
712.54	3.25
713.293	1.25
714.046	2.25
714.799	4.25
715.552	-0.75
716.305	3.25
717.058	1.25
717.81	1.25
718.563	-0.75
719.315	2.25
720.068	3.25
720.82	2.25
721.573	2.25
722.325	2.25
723.077	0.25
723.829	1.25
724.581	2.25
725.333	2.25
726.085	3.25
726.836	1.25
727.588	1.25
728.34	0.25
729.091	3.25
729.843	-0.75
730.594	3.25
731.346	1.25
732.097	1.25
732.848	1.25
733.599	2.25
734.35	4.25
735.101	1.25
735.852	2.25
736.603	1.25
737.354	2.25
738.104	1.25
738.855	5.25
739.605	6.25
740.356	1.25
741.106	2.25
741.856	4.25
742.607	3.25
743.357	1.25
744.107	2.25
744.857	2.25
745.607	2.25
746.357	2.25
747.106	2.25
747.856	3.25
748.606	2.25
749.355	-0.75
750.105	3.25
750.854	1.25
751.603	2.25
752.353	1.25
753.102	3.25
753.851	4.25
754.6	2.25
755.349	3.25
756.098	2.25
756.847	3.25
757.595	3.25
758.344	5.25
759.093	1.25
759.841	2.25
760.589	3.25
761.338	4.25
762.086	3.25
762.834	2.25
763.582	2.25
764.331	4.25
765.079	5.25
765.826	3.25
766.574	5.25
767.322	3.25
768.07	5.25
768.817	5.25
769.565	4.25
770.312	3.25
771.06	1.25
771.807	4.25
772.554	4.25
773.302	3.25
774.049	5.25
774.796	4.25
775.543	4.25
776.29	4.25
777.036	8.25
777.783	6.25
778.53	4.25
779.276	4.25
780.023	6.25
780.769	4.25
781.516	7.25
782.262	3.25
783.008	2.25
783.754	6.25
784.5	4.25
785.246	5.25
785.992	6.25
786.738	6.25
787.484	2.25
788.23	4.25
788.975	5.25
789.721	4.25
790.466	5.25
791.212	3.25
791.957	4.25
792.702	4.25
793.447	6.25
794.193	5.25
794.938	4.25
795.683	6.25
796.427	4.25
797.172	5.25
797.917	3.25
798.662	4.25
799.406	4.25
800.151	3.25
800.895	6.25
801.64	2.25
802.384	2.25
803.128	6.25
803.872	3.25
804.616	4.25
805.36	4.25
806.104	5.25
806.848	4.25
807.592	4.25
808.336	5.25
809.079	4.25
809.823	6.25
810.566	1.25
811.31	3.25
812.053	2.25
812.796	3.25
813.539	1.25
814.283	4.25
815.026	4.25
815.769	4.25
816.511	5.25
817.254	4.25
817.997	3.25
818.74	3.25
819.482	2.25
820.225	3.25
820.967	6.25
821.71	2.25
822.452	2.25
823.194	2.25
823.936	3.25
824.678	3.25
825.42	3.25
826.162	2.25
826.904	2.25
827.646	3.25
828.388	6.25
829.129	2.25
829.871	2.25
830.612	4.25
831.354	4.25
832.095	3.25
832.836	3.25
833.577	2.25
834.319	0.25
835.06	2.25
835.801	3.25
836.542	1.25
837.282	2.25
838.023	2.25
838.764	2.25
839.504	2.25
840.245	2.25
840.985	3.25
841.726	0.25
842.466	2.25
843.206	2.25
843.946	2.25
844.687	0.25
845.427	1.25
846.166	2.25
846.906	3.25
847.646	2.25
848.386	1.25
849.125	3.25
849.865	2.25
850.605	-0.75
851.344	2.25
852.083	2.25
852.823	0.25
853.562	1.25
854.301	3.25
855.04	2.25
855.779	2.25
856.518	3.25
857.257	1.25
857.995	0.25
858.734	-0.75
859.473	1.25
860.211	1.25
860.95	1.25
861.688	4.25
862.426	2.25
863.165	2.25
863.903	2.25
864.641	2.25
865.379	1.25
866.117	1.25
866.855	1.25
867.593	1.25
868.33	3.25
869.068	2.25
869.806	1.25
870.543	2.25
871.28	2.25
872.018	2.25
872.755	0.25
873.492	0.25
874.229	1.25
874.967	-1.75
875.703	-0.75
876.44	1.25
877.177	2.25
877.914	2.25
878.651	1.25
879.387	1.25
880.124	0.25
880.86	0.25
881.597	0.25
882.333	1.25
883.069	0.25
883.806	0.25
884.542	1.25
885.278	0.25
886.014	1.25
886.749	-0.75
887.485	1.25
888.221	2.25
888.957	1.25
889.692	0.25
890.428	-1.75
891.163	1.25
891.899	-0.75
892.634	2.25
893.369	0.25
894.104	0.25
894.839	0.25
895.574	-0.75
896.309	0.25
897.044	-1.75
897.779	1.25
898.514	1.25
899.248	-1.75
899.983	1.25
900.717	0.25
901.452	0.25
902.186	0.25
902.92	1.25
903.654	-1.75
904.389	2.25
905.123	0.25
905.857	0.25
906.59	0.25
907.324	-0.75
908.058	0.25
908.792	-0.75
909.525	0.25
910.259	0.25
910.992	1.25
911.726	-0.75
912.459	0.25
913.192	0.25
913.925	0.25
914.658	0.25
915.391	-1.75
916.124	1.25
916.857	0.25
917.59	0.25
918.323	-0.75
919.055	1.25
919.788	0.25
920.521	0.25
921.253	-0.75
921.985	-0.75
922.718	-1.75
923.45	3.25
924.182	-0.75
924.914	0.25
925.646	1.25
926.378	1.25
927.11	1.25
927.841	1.25
928.573	0.25
929.305	0.25
930.036	0.25
930.768	2.25
931.499	-1.75
932.23	-0.75
932.962	-0.75
933.693	1.25
934.424	-0.75
935.155	0.25
935.886	1.25
936.617	0.25
937.348	0.25
938.078	1.25
938.809	-0.75
939.54	-0.75
940.27	0.25
941.001	1.25
941.731	0.25
942.461	1.25
943.191	1.25
943.922	1.25
944.652	-0.75
945.382	-0.75
946.112	1.25
946.841	-1.75
947.571	1.25
948.301	2.25
949.031	-0.75
949.76	1.25
950.49	0.25
951.219	1.25
951.948	-1.75
952.678	1.25
953.407	2.25
954.136	-1.75
954.865	-0.75
955.594	-0.75
956.323	0.25
957.052	-0.75
957.78	2.25
958.509	-0.75
959.238	-0.75
959.966	1.25
960.695	0.25
961.423	1.25
962.151	0.25
962.88	1.25
963.608	0.25
964.336	-1.75
965.064	-0.75
965.792	0.25
966.52	1.25
967.247	-1.75
967.975	1.25
968.703	0.25
969.43	-1.75
970.158	1.25
970.885	0.25
971.613	4.25
972.34	1.25
973.067	-0.75
973.794	-1.75
974.521	1.25
975.248	1.25
975.975	1.25
976.702	-1.75
977.429	2.25
978.156	0.25
978.882	-0.75
979.609	-2.75
980.335	1.25
981.062	0.25
981.788	1.25
982.514	-0.75
983.24	-1.75
983.967	2.25
984.693	0.25
985.419	1.25
986.144	0.25
986.87	0.25
987.596	0.25
988.322	-0.75
989.047	-1.75
989.773	0.25
990.498	0.25
991.224	-0.75
991.949	-0.75
992.674	1.25
993.399	1.25
994.124	0.25
994.849	-0.75
995.574	2.25
996.299	0.25
997.024	0.25
997.749	0.25
998.473	-1.75
999.198	-0.75
999.922	-0.75
1000.647	-1.75
1001.371	3.25
1002.095	-2.75
1002.82	3.25
1003.544	-2.75
1004.268	-0.75
1004.992	0.25
1005.716	-1.75
1006.439	2.25
1007.163	1.25
1007.887	-0.75
1008.611	-0.75
1009.334	0.25
1010.058	2.25
1010.781	0.25
1011.504	1.25
1012.228	-0.75
1012.951	0.25
1013.674	-0.75
1014.397	1.25
1015.12	-1.75
