节点500_145_QEPB04081__55__11-29-49-721.txt的数据

Date: Wed Nov 12 11:29:49 CST 2025
User: PC
Spectrometer: QEPB0408
触发模式: 0
积分时间 (秒): 1.000000E-2
Scans to average: 1
启用暗噪声校正: true
启用非线性校正: false
滑动平均宽度: 0
X轴模式: Wavelengths
Number of Pixels in Spectrum: 1044
>>>>>Begin Spectral Data<<<<<
220.843	1.62
221.644	-1.38
222.444	0.62
223.244	-0.38
224.045	-0.38
224.845	-1.38
225.645	-0.38
226.445	-2.38
227.245	-0.38
228.045	-0.38
228.845	0.62
229.645	-2.38
230.444	0.62
231.244	0.62
232.043	-1.38
232.843	-2.38
233.642	2.62
234.442	-1.38
235.241	0.62
236.04	0.62
236.839	-0.38
237.638	1.62
238.437	-0.38
239.236	2.62
240.035	1.62
240.833	1.62
241.632	-2.38
242.43	1.62
243.229	-0.38
244.027	-1.38
244.826	1.62
245.624	0.62
246.422	3.62
247.22	1.62
248.018	1.62
248.816	4.62
249.614	1.62
250.412	1.62
251.21	1.62
252.007	1.62
252.805	3.62
253.602	3.62
254.4	4.62
255.197	2.62
255.994	1.62
256.791	3.62
257.589	1.62
258.386	3.62
259.183	2.62
259.979	5.62
260.776	3.62
261.573	3.62
262.37	5.62
263.166	6.62
263.963	2.62
264.759	5.62
265.556	8.62
266.352	6.62
267.148	7.62
267.944	5.62
268.74	8.62
269.536	3.62
270.332	5.62
271.128	7.62
271.924	7.62
272.719	9.62
273.515	11.62
274.311	9.62
275.106	8.62
275.901	7.62
276.697	8.62
277.492	8.62
278.287	9.62
279.082	8.62
279.877	10.62
280.672	9.62
281.467	10.62
282.262	9.62
283.056	9.62
283.851	10.62
284.646	11.62
285.44	11.62
286.234	10.62
287.029	12.62
287.823	9.62
288.617	10.62
289.411	9.62
290.205	13.62
290.999	10.62
291.793	11.62
292.587	10.62
293.381	11.62
294.174	12.62
294.968	8.62
295.761	10.62
296.555	10.62
297.348	10.62
298.141	8.62
298.935	9.62
299.728	10.62
300.521	12.62
301.314	8.62
302.107	7.62
302.899	8.62
303.692	8.62
304.485	7.62
305.277	9.62
306.07	6.62
306.862	8.62
307.655	7.62
308.447	6.62
309.239	6.62
310.031	9.62
310.823	5.62
311.615	6.62
312.407	6.62
313.199	4.62
313.991	4.62
314.783	4.62
315.574	4.62
316.366	8.62
317.157	4.62
317.949	3.62
318.74	4.62
319.531	4.62
320.322	4.62
321.113	2.62
321.904	5.62
322.695	4.62
323.486	6.62
324.277	3.62
325.068	5.62
325.858	4.62
326.649	4.62
327.439	3.62
328.23	3.62
329.02	4.62
329.81	1.62
330.6	5.62
331.391	2.62
332.181	0.62
332.971	4.62
333.76	1.62
334.55	4.62
335.34	2.62
336.13	1.62
336.919	4.62
337.709	3.62
338.498	5.62
339.287	2.62
340.077	1.62
340.866	3.62
341.655	1.62
342.444	3.62
343.233	2.62
344.022	3.62
344.811	1.62
345.6	3.62
346.388	1.62
347.177	4.62
347.965	3.62
348.754	1.62
349.542	2.62
350.33	3.62
351.119	0.62
351.907	1.62
352.695	2.62
353.483	2.62
354.271	2.62
355.059	2.62
355.846	1.62
356.634	2.62
357.422	2.62
358.209	4.62
358.997	3.62
359.784	2.62
360.571	2.62
361.359	0.62
362.146	2.62
362.933	2.62
363.72	1.62
364.507	2.62
365.294	0.62
366.081	1.62
366.867	2.62
367.654	0.62
368.44	2.62
369.227	4.62
370.013	1.62
370.8	1.62
371.586	2.62
372.372	0.62
373.158	3.62
373.944	1.62
374.73	3.62
375.516	1.62
376.302	1.62
377.088	1.62
377.873	1.62
378.659	3.62
379.445	3.62
380.23	1.62
381.015	3.62
381.801	1.62
382.586	3.62
383.371	1.62
384.156	3.62
384.941	2.62
385.726	2.62
386.511	1.62
387.296	1.62
388.08	2.62
388.865	3.62
389.649	2.62
390.434	4.62
391.218	2.62
392.003	1.62
392.787	0.62
393.571	2.62
394.355	4.62
395.139	3.62
395.923	2.62
396.707	2.62
397.491	3.62
398.274	3.62
399.058	3.62
399.842	1.62
400.625	1.62
401.408	6.62
402.192	3.62
402.975	3.62
403.758	4.62
404.541	3.62
405.324	1.62
406.107	4.62
406.89	3.62
407.673	3.62
408.456	3.62
409.238	2.62
410.021	3.62
410.803	2.62
411.586	3.62
412.368	3.62
413.151	3.62
413.933	6.62
414.715	5.62
415.497	4.62
416.279	5.62
417.061	4.62
417.843	7.62
418.624	5.62
419.406	5.62
420.188	8.62
420.969	1.62
421.751	5.62
422.532	5.62
423.313	7.62
424.095	5.62
424.876	5.62
425.657	4.62
426.438	6.62
427.219	6.62
428	6.62
428.78	7.62
429.561	7.62
430.342	8.62
431.122	6.62
431.903	3.62
432.683	9.62
433.464	6.62
434.244	7.62
435.024	6.62
435.804	9.62
436.584	8.62
437.364	10.62
438.144	8.62
438.924	11.62
439.704	11.62
440.483	13.62
441.263	10.62
442.042	13.62
442.822	11.62
443.601	11.62
444.38	14.62
445.16	13.62
445.939	15.62
446.718	16.62
447.497	17.62
448.276	16.62
449.054	18.62
449.833	20.62
450.612	25.62
451.391	23.62
452.169	29.62
452.948	29.62
453.726	29.62
454.504	36.62
455.282	39.62
456.061	36.62
456.839	45.62
457.617	46.62
458.395	52.62
459.172	58.62
459.95	65.62
460.728	73.62
461.506	78.62
462.283	91.62
463.061	96.62
463.838	111.62
464.615	125.62
465.393	138.62
466.17	155.62
466.947	172.62
467.724	196.62
468.501	219.62
469.278	244.62
470.055	272.62
470.831	302.62
471.608	339.62
472.385	381.62
473.161	424.62
473.938	474.62
474.714	529.62
475.49	583.62
476.266	657.62
477.043	720.62
477.819	806.62
478.595	906.62
479.371	1002.62
480.146	1119.62
480.922	1233.62
481.698	1357.62
482.473	1524.62
483.249	1686.62
484.024	1873.62
484.8	2079.62
485.575	2304.62
486.35	2563.62
487.126	2833.62
487.901	3147.62
488.676	3494.62
489.451	3877.62
490.225	4259.62
491	4702.62
491.775	5227.62
492.55	5733.62
493.324	6328.62
494.099	6953.62
494.873	7616.62
495.647	8338.62
496.422	9058.62
497.196	9824.62
497.97	10647.62
498.744	11458.62
499.518	12268.62
500.292	13050.62
501.066	13848.62
501.839	14593.62
502.613	15281.62
503.387	15933.62
504.16	16416.62
504.934	16785.62
505.707	17108.62
506.48	17237.62
507.253	17336.62
508.027	17293.62
508.8	17109.62
509.573	16837.62
510.346	16487.62
511.118	16033.62
511.891	15483.62
512.664	14893.62
513.437	14279.62
514.209	13782.62
514.982	13055.62
515.754	12514.62
516.526	11922.62
517.298	11373.62
518.071	10886.62
518.843	10392.62
519.615	9939.62
520.387	9528.62
521.159	9148.62
521.93	8799.62
522.702	8472.62
523.474	8134.62
524.245	7805.62
525.017	7449.62
525.788	7169.62
526.56	6885.62
527.331	6622.62
528.102	6288.62
528.873	6024.62
529.644	5748.62
530.415	5446.62
531.186	5179.62
531.957	4907.62
532.728	4633.62
533.498	4406.62
534.269	4114.62
535.039	3920.62
535.81	3674.62
536.58	3476.62
537.351	3276.62
538.121	3068.62
538.891	2905.62
539.661	2765.62
540.431	2603.62
541.201	2468.62
541.971	2352.62
542.741	2215.62
543.51	2085.62
544.28	1986.62
545.05	1893.62
545.819	1806.62
546.588	1718.62
547.358	1625.62
548.127	1548.62
548.896	1467.62
549.665	1388.62
550.434	1326.62
551.203	1248.62
551.972	1193.62
552.741	1110.62
553.51	1052.62
554.278	1000.62
555.047	952.62
555.815	888.62
556.584	836.62
557.352	781.62
558.121	746.62
558.889	704.62
559.657	655.62
560.425	615.62
561.193	596.62
561.961	542.62
562.729	521.62
563.496	492.62
564.264	465.62
565.032	440.62
565.799	400.62
566.567	386.62
567.334	368.62
568.101	354.62
568.869	330.62
569.636	307.62
570.403	293.62
571.17	274.62
571.937	264.62
572.704	248.62
573.471	231.62
574.237	215.62
575.004	208.62
575.771	194.62
576.537	181.62
577.303	169.62
578.07	161.62
578.836	147.62
579.602	144.62
580.368	133.62
581.134	127.62
581.9	124.62
582.666	114.62
583.432	109.62
584.198	101.62
584.964	101.62
585.729	89.62
586.495	83.62
587.26	82.62
588.025	75.62
588.791	71.62
589.556	70.62
590.321	64.62
591.086	61.62
591.851	54.62
592.616	52.62
593.381	53.62
594.146	50.62
594.911	48.62
595.675	45.62
596.44	42.62
597.204	42.62
597.969	38.62
598.733	39.62
599.497	38.62
600.261	34.62
601.025	31.62
601.79	31.62
602.553	29.62
603.317	27.62
604.081	28.62
604.845	26.62
605.609	23.62
606.372	24.62
607.136	23.62
607.899	21.62
608.662	21.62
609.426	21.62
610.189	19.62
610.952	15.62
611.715	18.62
612.478	15.62
613.241	13.62
614.004	16.62
614.767	17.62
615.529	12.62
616.292	17.62
617.055	11.62
617.817	11.62
618.579	15.62
619.342	13.62
620.104	9.62
620.866	9.62
621.628	10.62
622.39	10.62
623.152	10.62
623.914	9.62
624.676	9.62
625.438	9.62
626.199	9.62
626.961	7.62
627.722	8.62
628.484	6.62
629.245	10.62
630.006	6.62
630.768	8.62
631.529	8.62
632.29	7.62
633.051	7.62
633.812	6.62
634.573	6.62
635.333	4.62
636.094	7.62
636.855	4.62
637.615	6.62
638.376	4.62
639.136	4.62
639.896	4.62
640.657	5.62
641.417	5.62
642.177	5.62
642.937	6.62
643.697	3.62
644.457	5.62
645.216	5.62
645.976	4.62
646.736	4.62
647.495	4.62
648.255	4.62
649.014	3.62
649.774	5.62
650.533	2.62
651.292	2.62
652.051	2.62
652.81	2.62
653.569	4.62
654.328	3.62
655.087	0.62
655.846	4.62
656.604	4.62
657.363	2.62
658.121	4.62
658.88	3.62
659.638	3.62
660.397	0.62
661.155	2.62
661.913	1.62
662.671	5.62
663.429	2.62
664.187	0.62
664.945	3.62
665.703	0.62
666.46	1.62
667.218	1.62
667.976	1.62
668.733	1.62
669.49	3.62
670.248	1.62
671.005	3.62
671.762	3.62
672.519	0.62
673.276	1.62
674.033	4.62
674.79	1.62
675.547	3.62
676.304	2.62
677.06	0.62
677.817	2.62
678.574	0.62
679.33	-1.38
680.086	3.62
680.843	1.62
681.599	3.62
682.355	1.62
683.111	2.62
683.867	0.62
684.623	0.62
685.379	2.62
686.135	0.62
686.89	0.62
687.646	2.62
688.402	0.62
689.157	1.62
689.912	3.62
690.668	1.62
691.423	2.62
692.178	0.62
692.933	0.62
693.688	2.62
694.443	-0.38
695.198	0.62
695.953	0.62
696.708	0.62
697.462	0.62
698.217	-0.38
698.972	0.62
699.726	1.62
700.48	1.62
701.235	1.62
701.989	2.62
702.743	1.62
703.497	0.62
704.251	1.62
705.005	0.62
705.759	2.62
706.513	0.62
707.266	0.62
708.02	2.62
708.774	1.62
709.527	1.62
710.28	0.62
711.034	1.62
711.787	1.62
712.54	0.62
713.293	2.62
714.046	0.62
714.799	2.62
715.552	0.62
716.305	1.62
717.058	1.62
717.81	0.62
718.563	0.62
719.315	1.62
720.068	2.62
720.82	1.62
721.573	0.62
722.325	2.62
723.077	-0.38
723.829	1.62
724.581	-0.38
725.333	1.62
726.085	1.62
726.836	3.62
727.588	0.62
728.34	1.62
729.091	2.62
729.843	2.62
730.594	1.62
731.346	2.62
732.097	0.62
732.848	1.62
733.599	2.62
734.35	0.62
735.101	2.62
735.852	1.62
736.603	-0.38
737.354	1.62
738.104	0.62
738.855	0.62
739.605	2.62
740.356	3.62
741.106	1.62
741.856	4.62
742.607	-0.38
743.357	2.62
744.107	2.62
744.857	1.62
745.607	2.62
746.357	2.62
747.106	1.62
747.856	1.62
748.606	2.62
749.355	-0.38
750.105	1.62
750.854	2.62
751.603	1.62
752.353	3.62
753.102	1.62
753.851	2.62
754.6	0.62
755.349	2.62
756.098	3.62
756.847	0.62
757.595	1.62
758.344	1.62
759.093	2.62
759.841	3.62
760.589	5.62
761.338	1.62
762.086	2.62
762.834	4.62
763.582	4.62
764.331	3.62
765.079	3.62
765.826	2.62
766.574	5.62
767.322	4.62
768.07	2.62
768.817	5.62
769.565	4.62
770.312	3.62
771.06	4.62
771.807	3.62
772.554	2.62
773.302	4.62
774.049	2.62
774.796	2.62
775.543	4.62
776.29	4.62
777.036	5.62
777.783	3.62
778.53	4.62
779.276	4.62
780.023	7.62
780.769	5.62
781.516	3.62
782.262	3.62
783.008	3.62
783.754	4.62
784.5	5.62
785.246	5.62
785.992	4.62
786.738	5.62
787.484	3.62
788.23	3.62
788.975	5.62
789.721	4.62
790.466	6.62
791.212	5.62
791.957	5.62
792.702	5.62
793.447	3.62
794.193	5.62
794.938	4.62
795.683	5.62
796.427	6.62
797.172	2.62
797.917	6.62
798.662	5.62
799.406	4.62
800.151	4.62
800.895	0.62
801.64	5.62
802.384	2.62
803.128	3.62
803.872	3.62
804.616	6.62
805.36	3.62
806.104	3.62
806.848	4.62
807.592	1.62
808.336	3.62
809.079	2.62
809.823	3.62
810.566	1.62
811.31	4.62
812.053	3.62
812.796	3.62
813.539	4.62
814.283	1.62
815.026	3.62
815.769	3.62
816.511	1.62
817.254	4.62
817.997	0.62
818.74	3.62
819.482	1.62
820.225	4.62
820.967	0.62
821.71	2.62
822.452	3.62
823.194	2.62
823.936	3.62
824.678	3.62
825.42	2.62
826.162	2.62
826.904	0.62
827.646	2.62
828.388	0.62
829.129	2.62
829.871	2.62
830.612	2.62
831.354	-1.38
832.095	1.62
832.836	2.62
833.577	2.62
834.319	1.62
835.06	2.62
835.801	0.62
836.542	3.62
837.282	0.62
838.023	1.62
838.764	-0.38
839.504	0.62
840.245	4.62
840.985	2.62
841.726	2.62
842.466	-0.38
843.206	0.62
843.946	2.62
844.687	1.62
845.427	2.62
846.166	1.62
846.906	0.62
847.646	2.62
848.386	0.62
849.125	2.62
849.865	2.62
850.605	0.62
851.344	0.62
852.083	0.62
852.823	2.62
853.562	0.62
854.301	1.62
855.04	0.62
855.779	-1.38
856.518	2.62
857.257	2.62
857.995	0.62
858.734	-1.38
859.473	-0.38
860.211	-0.38
860.95	1.62
861.688	0.62
862.426	-0.38
863.165	0.62
863.903	1.62
864.641	0.62
865.379	0.62
866.117	1.62
866.855	0.62
867.593	0.62
868.33	-1.38
869.068	1.62
869.806	0.62
870.543	-1.38
871.28	-0.38
872.018	-0.38
872.755	2.62
873.492	0.62
874.229	-2.38
874.967	0.62
875.703	-0.38
876.44	1.62
877.177	-0.38
877.914	0.62
878.651	1.62
879.387	2.62
880.124	-0.38
880.86	0.62
881.597	-0.38
882.333	-1.38
883.069	0.62
883.806	-0.38
884.542	0.62
885.278	0.62
886.014	-1.38
886.749	-2.38
887.485	-0.38
888.221	2.62
888.957	1.62
889.692	-2.38
890.428	0.62
891.163	-1.38
891.899	-2.38
892.634	-3.38
893.369	1.62
894.104	-0.38
894.839	0.62
895.574	1.62
896.309	0.62
897.044	1.62
897.779	0.62
898.514	0.62
899.248	-0.38
899.983	-0.38
900.717	-0.38
901.452	0.62
902.186	1.62
902.92	0.62
903.654	-1.38
904.389	0.62
905.123	-1.38
905.857	0.62
906.59	-2.38
907.324	0.62
908.058	-0.38
908.792	-1.38
909.525	0.62
910.259	0.62
910.992	0.62
911.726	-0.38
912.459	-0.38
913.192	1.62
913.925	1.62
914.658	0.62
915.391	-1.38
916.124	2.62
916.857	-2.38
917.59	1.62
918.323	0.62
919.055	-0.38
919.788	-0.38
920.521	0.62
921.253	-2.38
921.985	-2.38
922.718	-1.38
923.45	-0.38
924.182	0.62
924.914	-0.38
925.646	1.62
926.378	-0.38
927.11	-0.38
927.841	-2.38
928.573	-1.38
929.305	-1.38
930.036	0.62
930.768	-1.38
931.499	0.62
932.23	-1.38
932.962	-0.38
933.693	-0.38
934.424	-0.38
935.155	0.62
935.886	-0.38
936.617	0.62
937.348	0.62
938.078	0.62
938.809	-0.38
939.54	-0.38
940.27	-0.38
941.001	-1.38
941.731	1.62
942.461	0.62
943.191	-0.38
943.922	0.62
944.652	-2.38
945.382	0.62
946.112	-2.38
946.841	0.62
947.571	0.62
948.301	-1.38
949.031	0.62
949.76	-2.38
950.49	0.62
951.219	-1.38
951.948	-0.38
952.678	-0.38
953.407	-2.38
954.136	0.62
954.865	-2.38
955.594	-0.38
956.323	-1.38
957.052	-0.38
957.78	-0.38
958.509	-0.38
959.238	-0.38
959.966	-3.38
960.695	0.62
961.423	0.62
962.151	1.62
962.88	-0.38
963.608	0.62
964.336	-1.38
965.064	-1.38
965.792	-1.38
966.52	-0.38
967.247	-1.38
967.975	-0.38
968.703	0.62
969.43	1.62
970.158	-2.38
970.885	-1.38
971.613	1.62
972.34	-0.38
973.067	-0.38
973.794	0.62
974.521	-0.38
975.248	0.62
975.975	-0.38
976.702	1.62
977.429	0.62
978.156	0.62
978.882	-1.38
979.609	-1.38
980.335	-1.38
981.062	-0.38
981.788	0.62
982.514	-1.38
983.24	0.62
983.967	-0.38
984.693	-1.38
985.419	-2.38
986.144	-0.38
986.87	0.62
987.596	-2.38
988.322	0.62
989.047	0.62
989.773	-1.38
990.498	-1.38
991.224	0.62
991.949	-1.38
992.674	-0.38
993.399	-0.38
994.124	-1.38
994.849	-0.38
995.574	0.62
996.299	-2.38
997.024	1.62
997.749	-2.38
998.473	0.62
999.198	-0.38
999.922	-1.38
1000.647	0.62
1001.371	1.62
1002.095	-1.38
1002.82	0.62
1003.544	0.62
1004.268	-3.38
1004.992	-0.38
1005.716	-1.38
1006.439	-0.38
1007.163	-1.38
1007.887	0.62
1008.611	0.62
1009.334	0.62
1010.058	0.62
1010.781	-0.38
1011.504	-0.38
1012.228	-0.38
1012.951	2.62
1013.674	-2.38
1014.397	-0.38
1015.12	-1.38
