节点500_145_QEPB04081__371__11-34-52-581.txt的数据

Date: Wed Nov 12 11:34:52 CST 2025
User: PC
Spectrometer: QEPB0408
触发模式: 0
积分时间 (秒): 1.000000E-2
Scans to average: 1
启用暗噪声校正: true
启用非线性校正: false
滑动平均宽度: 0
X轴模式: Wavelengths
Number of Pixels in Spectrum: 1044
>>>>>Begin Spectral Data<<<<<
220.843	0.25
221.644	-1.75
222.444	2.25
223.244	-0.75
224.045	-0.75
224.845	0.25
225.645	-1.75
226.445	2.25
227.245	2.25
228.045	-0.75
228.845	-0.75
229.645	0.25
230.444	1.25
231.244	1.25
232.043	1.25
232.843	-0.75
233.642	0.25
234.442	2.25
235.241	-2.75
236.04	1.25
236.839	2.25
237.638	-1.75
238.437	1.25
239.236	1.25
240.035	2.25
240.833	2.25
241.632	1.25
242.43	1.25
243.229	1.25
244.027	1.25
244.826	1.25
245.624	1.25
246.422	1.25
247.22	2.25
248.018	0.25
248.816	2.25
249.614	1.25
250.412	3.25
251.21	4.25
252.007	2.25
252.805	4.25
253.602	3.25
254.4	2.25
255.197	3.25
255.994	4.25
256.791	4.25
257.589	3.25
258.386	4.25
259.183	2.25
259.979	5.25
260.776	3.25
261.573	3.25
262.37	6.25
263.166	3.25
263.963	5.25
264.759	3.25
265.556	4.25
266.352	6.25
267.148	4.25
267.944	6.25
268.74	5.25
269.536	6.25
270.332	5.25
271.128	5.25
271.924	7.25
272.719	5.25
273.515	8.25
274.311	7.25
275.106	9.25
275.901	8.25
276.697	8.25
277.492	9.25
278.287	5.25
279.082	9.25
279.877	10.25
280.672	9.25
281.467	10.25
282.262	8.25
283.056	14.25
283.851	10.25
284.646	12.25
285.44	8.25
286.234	11.25
287.029	10.25
287.823	9.25
288.617	11.25
289.411	11.25
290.205	11.25
290.999	8.25
291.793	11.25
292.587	10.25
293.381	10.25
294.174	11.25
294.968	8.25
295.761	9.25
296.555	11.25
297.348	8.25
298.141	9.25
298.935	7.25
299.728	9.25
300.521	10.25
301.314	6.25
302.107	7.25
302.899	8.25
303.692	8.25
304.485	8.25
305.277	7.25
306.07	10.25
306.862	10.25
307.655	8.25
308.447	7.25
309.239	7.25
310.031	7.25
310.823	8.25
311.615	5.25
312.407	6.25
313.199	6.25
313.991	5.25
314.783	5.25
315.574	5.25
316.366	8.25
317.157	3.25
317.949	3.25
318.74	6.25
319.531	3.25
320.322	5.25
321.113	4.25
321.904	5.25
322.695	3.25
323.486	3.25
324.277	3.25
325.068	2.25
325.858	7.25
326.649	5.25
327.439	4.25
328.23	2.25
329.02	5.25
329.81	3.25
330.6	5.25
331.391	4.25
332.181	1.25
332.971	2.25
333.76	4.25
334.55	4.25
335.34	4.25
336.13	2.25
336.919	6.25
337.709	3.25
338.498	5.25
339.287	3.25
340.077	4.25
340.866	2.25
341.655	4.25
342.444	2.25
343.233	4.25
344.022	3.25
344.811	3.25
345.6	2.25
346.388	3.25
347.177	3.25
347.965	5.25
348.754	1.25
349.542	3.25
350.33	4.25
351.119	1.25
351.907	2.25
352.695	1.25
353.483	6.25
354.271	3.25
355.059	2.25
355.846	4.25
356.634	3.25
357.422	4.25
358.209	2.25
358.997	4.25
359.784	2.25
360.571	3.25
361.359	3.25
362.146	2.25
362.933	2.25
363.72	3.25
364.507	3.25
365.294	3.25
366.081	2.25
366.867	2.25
367.654	3.25
368.44	2.25
369.227	3.25
370.013	3.25
370.8	0.25
371.586	0.25
372.372	2.25
373.158	1.25
373.944	3.25
374.73	2.25
375.516	3.25
376.302	4.25
377.088	3.25
377.873	2.25
378.659	3.25
379.445	3.25
380.23	2.25
381.015	1.25
381.801	2.25
382.586	0.25
383.371	0.25
384.156	3.25
384.941	5.25
385.726	0.25
386.511	3.25
387.296	4.25
388.08	3.25
388.865	2.25
389.649	2.25
390.434	2.25
391.218	3.25
392.003	3.25
392.787	2.25
393.571	1.25
394.355	3.25
395.139	3.25
395.923	3.25
396.707	3.25
397.491	3.25
398.274	2.25
399.058	3.25
399.842	2.25
400.625	3.25
401.408	3.25
402.192	5.25
402.975	3.25
403.758	2.25
404.541	3.25
405.324	3.25
406.107	3.25
406.89	2.25
407.673	5.25
408.456	4.25
409.238	5.25
410.021	6.25
410.803	5.25
411.586	4.25
412.368	5.25
413.151	4.25
413.933	7.25
414.715	4.25
415.497	5.25
416.279	5.25
417.061	3.25
417.843	3.25
418.624	8.25
419.406	4.25
420.188	4.25
420.969	7.25
421.751	7.25
422.532	6.25
423.313	7.25
424.095	5.25
424.876	8.25
425.657	5.25
426.438	6.25
427.219	7.25
428	8.25
428.78	6.25
429.561	7.25
430.342	8.25
431.122	5.25
431.903	7.25
432.683	7.25
433.464	8.25
434.244	8.25
435.024	9.25
435.804	9.25
436.584	10.25
437.364	8.25
438.144	10.25
438.924	9.25
439.704	12.25
440.483	11.25
441.263	12.25
442.042	12.25
442.822	11.25
443.601	14.25
444.38	14.25
445.16	16.25
445.939	15.25
446.718	18.25
447.497	17.25
448.276	21.25
449.054	22.25
449.833	23.25
450.612	25.25
451.391	24.25
452.169	29.25
452.948	32.25
453.726	37.25
454.504	37.25
455.282	42.25
456.061	48.25
456.839	51.25
457.617	58.25
458.395	64.25
459.172	71.25
459.95	77.25
460.728	83.25
461.506	97.25
462.283	106.25
463.061	119.25
463.838	131.25
464.615	149.25
465.393	161.25
466.17	185.25
466.947	196.25
467.724	224.25
468.501	251.25
469.278	266.25
470.055	306.25
470.831	340.25
471.608	373.25
472.385	427.25
473.161	466.25
473.938	517.25
474.714	577.25
475.49	640.25
476.266	710.25
477.043	778.25
477.819	859.25
478.595	957.25
479.371	1039.25
480.146	1158.25
480.922	1270.25
481.698	1391.25
482.473	1542.25
483.249	1705.25
484.024	1867.25
484.8	2057.25
485.575	2268.25
486.35	2481.25
487.126	2747.25
487.901	3031.25
488.676	3278.25
489.451	3637.25
490.225	3979.25
491	4374.25
491.775	4790.25
492.55	5239.25
493.324	5724.25
494.099	6249.25
494.873	6817.25
495.647	7379.25
496.422	8054.25
497.196	8706.25
497.97	9396.25
498.744	10084.25
499.518	10857.25
500.292	11547.25
501.066	12248.25
501.839	12929.25
502.613	13585.25
503.387	14183.25
504.16	14742.25
504.934	15226.25
505.707	15612.25
506.48	15871.25
507.253	16113.25
508.027	16129.25
508.8	16169.25
509.573	16063.25
510.346	15858.25
511.118	15625.25
511.891	15253.25
512.664	14777.25
513.437	14355.25
514.209	13824.25
514.982	13267.25
515.754	12728.25
516.526	12246.25
517.298	11716.25
518.071	11182.25
518.843	10685.25
519.615	10234.25
520.387	9792.25
521.159	9433.25
521.93	9070.25
522.702	8670.25
523.474	8336.25
524.245	8025.25
525.017	7687.25
525.788	7391.25
526.56	7125.25
527.331	6833.25
528.102	6519.25
528.873	6259.25
529.644	5956.25
530.415	5699.25
531.186	5404.25
531.957	5169.25
532.728	4912.25
533.498	4634.25
534.269	4391.25
535.039	4141.25
535.81	3940.25
536.58	3733.25
537.351	3484.25
538.121	3323.25
538.891	3117.25
539.661	2942.25
540.431	2793.25
541.201	2637.25
541.971	2499.25
542.741	2375.25
543.51	2254.25
544.28	2141.25
545.05	2033.25
545.819	1944.25
546.588	1838.25
547.358	1737.25
548.127	1665.25
548.896	1574.25
549.665	1486.25
550.434	1416.25
551.203	1348.25
551.972	1281.25
552.741	1209.25
553.51	1135.25
554.278	1087.25
555.047	1014.25
555.815	961.25
556.584	907.25
557.352	864.25
558.121	816.25
558.889	764.25
559.657	711.25
560.425	680.25
561.193	649.25
561.961	600.25
562.729	573.25
563.496	544.25
564.264	517.25
565.032	484.25
565.799	454.25
566.567	425.25
567.334	406.25
568.101	384.25
568.869	359.25
569.636	338.25
570.403	325.25
571.17	299.25
571.937	290.25
572.704	276.25
573.471	255.25
574.237	234.25
575.004	227.25
575.771	213.25
576.537	198.25
577.303	189.25
578.07	181.25
578.836	166.25
579.602	160.25
580.368	148.25
581.134	141.25
581.9	133.25
582.666	129.25
583.432	124.25
584.198	112.25
584.964	103.25
585.729	97.25
586.495	90.25
587.26	93.25
588.025	84.25
588.791	82.25
589.556	71.25
590.321	71.25
591.086	70.25
591.851	60.25
592.616	60.25
593.381	54.25
594.146	53.25
594.911	52.25
595.675	47.25
596.44	46.25
597.204	45.25
597.969	41.25
598.733	43.25
599.497	38.25
600.261	38.25
601.025	39.25
601.79	32.25
602.553	31.25
603.317	31.25
604.081	26.25
604.845	29.25
605.609	26.25
606.372	28.25
607.136	24.25
607.899	24.25
608.662	24.25
609.426	22.25
610.189	22.25
610.952	20.25
611.715	20.25
612.478	19.25
613.241	18.25
614.004	18.25
614.767	18.25
615.529	16.25
616.292	16.25
617.055	16.25
617.817	12.25
618.579	15.25
619.342	13.25
620.104	14.25
620.866	11.25
621.628	12.25
622.39	9.25
623.152	13.25
623.914	9.25
624.676	11.25
625.438	12.25
626.199	10.25
626.961	8.25
627.722	7.25
628.484	9.25
629.245	8.25
630.006	5.25
630.768	8.25
631.529	6.25
632.29	5.25
633.051	7.25
633.812	7.25
634.573	5.25
635.333	5.25
636.094	8.25
636.855	7.25
637.615	5.25
638.376	5.25
639.136	6.25
639.896	3.25
640.657	4.25
641.417	2.25
642.177	5.25
642.937	7.25
643.697	4.25
644.457	6.25
645.216	4.25
645.976	5.25
646.736	3.25
647.495	6.25
648.255	4.25
649.014	1.25
649.774	3.25
650.533	3.25
651.292	5.25
652.051	4.25
652.81	5.25
653.569	3.25
654.328	2.25
655.087	4.25
655.846	3.25
656.604	4.25
657.363	4.25
658.121	5.25
658.88	2.25
659.638	1.25
660.397	3.25
661.155	3.25
661.913	4.25
662.671	1.25
663.429	2.25
664.187	1.25
664.945	3.25
665.703	-1.75
666.46	0.25
667.218	2.25
667.976	5.25
668.733	3.25
669.49	4.25
670.248	3.25
671.005	4.25
671.762	3.25
672.519	2.25
673.276	1.25
674.033	5.25
674.79	1.25
675.547	1.25
676.304	3.25
677.06	0.25
677.817	0.25
678.574	1.25
679.33	2.25
680.086	2.25
680.843	2.25
681.599	1.25
682.355	2.25
683.111	0.25
683.867	2.25
684.623	3.25
685.379	2.25
686.135	0.25
686.89	3.25
687.646	1.25
688.402	2.25
689.157	0.25
689.912	2.25
690.668	2.25
691.423	2.25
692.178	3.25
692.933	-0.75
693.688	3.25
694.443	1.25
695.198	4.25
695.953	1.25
696.708	2.25
697.462	2.25
698.217	2.25
698.972	2.25
699.726	2.25
700.48	3.25
701.235	2.25
701.989	3.25
702.743	2.25
703.497	2.25
704.251	1.25
705.005	2.25
705.759	4.25
706.513	4.25
707.266	2.25
708.02	3.25
708.774	0.25
709.527	4.25
710.28	2.25
711.034	2.25
711.787	2.25
712.54	1.25
713.293	0.25
714.046	1.25
714.799	3.25
715.552	1.25
716.305	3.25
717.058	-0.75
717.81	3.25
718.563	1.25
719.315	1.25
720.068	2.25
720.82	1.25
721.573	2.25
722.325	3.25
723.077	2.25
723.829	2.25
724.581	1.25
725.333	1.25
726.085	1.25
726.836	1.25
727.588	2.25
728.34	2.25
729.091	4.25
729.843	2.25
730.594	1.25
731.346	2.25
732.097	1.25
732.848	2.25
733.599	4.25
734.35	3.25
735.101	-0.75
735.852	1.25
736.603	2.25
737.354	1.25
738.104	3.25
738.855	3.25
739.605	1.25
740.356	1.25
741.106	0.25
741.856	0.25
742.607	0.25
743.357	4.25
744.107	2.25
744.857	3.25
745.607	1.25
746.357	3.25
747.106	1.25
747.856	2.25
748.606	2.25
749.355	-1.75
750.105	2.25
750.854	2.25
751.603	3.25
752.353	1.25
753.102	1.25
753.851	1.25
754.6	2.25
755.349	2.25
756.098	2.25
756.847	4.25
757.595	2.25
758.344	2.25
759.093	1.25
759.841	3.25
760.589	4.25
761.338	2.25
762.086	2.25
762.834	4.25
763.582	4.25
764.331	2.25
765.079	3.25
765.826	4.25
766.574	3.25
767.322	5.25
768.07	2.25
768.817	4.25
769.565	2.25
770.312	4.25
771.06	3.25
771.807	3.25
772.554	3.25
773.302	2.25
774.049	1.25
774.796	6.25
775.543	4.25
776.29	2.25
777.036	5.25
777.783	6.25
778.53	5.25
779.276	4.25
780.023	3.25
780.769	7.25
781.516	4.25
782.262	7.25
783.008	3.25
783.754	4.25
784.5	3.25
785.246	3.25
785.992	7.25
786.738	4.25
787.484	2.25
788.23	5.25
788.975	3.25
789.721	5.25
790.466	5.25
791.212	7.25
791.957	6.25
792.702	1.25
793.447	4.25
794.193	4.25
794.938	3.25
795.683	7.25
796.427	4.25
797.172	4.25
797.917	5.25
798.662	5.25
799.406	4.25
800.151	5.25
800.895	4.25
801.64	4.25
802.384	3.25
803.128	6.25
803.872	5.25
804.616	1.25
805.36	3.25
806.104	6.25
806.848	3.25
807.592	4.25
808.336	1.25
809.079	5.25
809.823	4.25
810.566	5.25
811.31	5.25
812.053	4.25
812.796	3.25
813.539	1.25
814.283	5.25
815.026	4.25
815.769	3.25
816.511	4.25
817.254	2.25
817.997	3.25
818.74	1.25
819.482	3.25
820.225	2.25
820.967	2.25
821.71	1.25
822.452	0.25
823.194	4.25
823.936	2.25
824.678	0.25
825.42	2.25
826.162	2.25
826.904	4.25
827.646	0.25
828.388	4.25
829.129	3.25
829.871	4.25
830.612	2.25
831.354	0.25
832.095	2.25
832.836	0.25
833.577	0.25
834.319	3.25
835.06	2.25
835.801	1.25
836.542	0.25
837.282	1.25
838.023	1.25
838.764	1.25
839.504	4.25
840.245	2.25
840.985	3.25
841.726	1.25
842.466	1.25
843.206	2.25
843.946	0.25
844.687	1.25
845.427	2.25
846.166	3.25
846.906	2.25
847.646	0.25
848.386	2.25
849.125	2.25
849.865	1.25
850.605	3.25
851.344	1.25
852.083	3.25
852.823	2.25
853.562	-0.75
854.301	1.25
855.04	1.25
855.779	2.25
856.518	1.25
857.257	1.25
857.995	1.25
858.734	1.25
859.473	2.25
860.211	2.25
860.95	2.25
861.688	3.25
862.426	0.25
863.165	1.25
863.903	1.25
864.641	-1.75
865.379	1.25
866.117	0.25
866.855	1.25
867.593	1.25
868.33	3.25
869.068	-0.75
869.806	1.25
870.543	1.25
871.28	0.25
872.018	0.25
872.755	-0.75
873.492	2.25
874.229	0.25
874.967	1.25
875.703	0.25
876.44	-0.75
877.177	1.25
877.914	1.25
878.651	0.25
879.387	1.25
880.124	0.25
880.86	2.25
881.597	0.25
882.333	1.25
883.069	-0.75
883.806	0.25
884.542	0.25
885.278	1.25
886.014	2.25
886.749	3.25
887.485	0.25
888.221	-1.75
888.957	0.25
889.692	1.25
890.428	1.25
891.163	0.25
891.899	1.25
892.634	1.25
893.369	0.25
894.104	-0.75
894.839	1.25
895.574	-0.75
896.309	2.25
897.044	2.25
897.779	1.25
898.514	-0.75
899.248	1.25
899.983	-1.75
900.717	1.25
901.452	-2.75
902.186	-0.75
902.92	0.25
903.654	0.25
904.389	2.25
905.123	1.25
905.857	1.25
906.59	-0.75
907.324	-0.75
908.058	0.25
908.792	2.25
909.525	-0.75
910.259	-0.75
910.992	0.25
911.726	0.25
912.459	0.25
913.192	0.25
913.925	-0.75
914.658	1.25
915.391	1.25
916.124	0.25
916.857	0.25
917.59	0.25
918.323	0.25
919.055	0.25
919.788	1.25
920.521	0.25
921.253	0.25
921.985	0.25
922.718	-1.75
923.45	1.25
924.182	0.25
924.914	0.25
925.646	0.25
926.378	0.25
927.11	1.25
927.841	0.25
928.573	-1.75
929.305	-0.75
930.036	-0.75
930.768	-1.75
931.499	1.25
932.23	3.25
932.962	2.25
933.693	1.25
934.424	1.25
935.155	-0.75
935.886	-0.75
936.617	0.25
937.348	-0.75
938.078	-1.75
938.809	-1.75
939.54	-0.75
940.27	1.25
941.001	3.25
941.731	2.25
942.461	-0.75
943.191	-0.75
943.922	-1.75
944.652	1.25
945.382	0.25
946.112	-0.75
946.841	2.25
947.571	1.25
948.301	-2.75
949.031	1.25
949.76	1.25
950.49	-2.75
951.219	-1.75
951.948	1.25
952.678	1.25
953.407	-1.75
954.136	1.25
954.865	0.25
955.594	0.25
956.323	0.25
957.052	0.25
957.78	0.25
958.509	-1.75
959.238	-0.75
959.966	-1.75
960.695	1.25
961.423	-1.75
962.151	-0.75
962.88	2.25
963.608	-0.75
964.336	0.25
965.064	0.25
965.792	1.25
966.52	1.25
967.247	-1.75
967.975	1.25
968.703	1.25
969.43	2.25
970.158	0.25
970.885	0.25
971.613	0.25
972.34	1.25
973.067	-0.75
973.794	2.25
974.521	2.25
975.248	0.25
975.975	1.25
976.702	0.25
977.429	-0.75
978.156	-0.75
978.882	-1.75
979.609	-1.75
980.335	1.25
981.062	0.25
981.788	0.25
982.514	-0.75
983.24	1.25
983.967	1.25
984.693	0.25
985.419	1.25
986.144	-1.75
986.87	1.25
987.596	1.25
988.322	-1.75
989.047	0.25
989.773	-0.75
990.498	-0.75
991.224	-0.75
991.949	1.25
992.674	1.25
993.399	1.25
994.124	-0.75
994.849	0.25
995.574	-0.75
996.299	0.25
997.024	-1.75
997.749	-0.75
998.473	1.25
999.198	-0.75
999.922	1.25
1000.647	1.25
1001.371	3.25
1002.095	-2.75
1002.82	-1.75
1003.544	0.25
1004.268	1.25
1004.992	-1.75
1005.716	0.25
1006.439	2.25
1007.163	1.25
1007.887	1.25
1008.611	2.25
1009.334	1.25
1010.058	-0.75
1010.781	1.25
1011.504	2.25
1012.228	1.25
1012.951	0.25
1013.674	1.25
1014.397	-0.75
1015.12	0.25
