节点500_145_QEPB04081__168__11-31-38-540.txt的数据

Date: Wed Nov 12 11:31:38 CST 2025
User: PC
Spectrometer: QEPB0408
触发模式: 0
积分时间 (秒): 1.000000E-2
Scans to average: 1
启用暗噪声校正: true
启用非线性校正: false
滑动平均宽度: 0
X轴模式: Wavelengths
Number of Pixels in Spectrum: 1044
>>>>>Begin Spectral Data<<<<<
220.843	-0.88
221.644	-0.88
222.444	-1.88
223.244	-1.88
224.045	-0.88
224.845	0.12
225.645	1.12
226.445	0.12
227.245	1.12
228.045	0.12
228.845	0.12
229.645	1.12
230.444	1.12
231.244	-1.88
232.043	0.12
232.843	1.12
233.642	0.12
234.442	1.12
235.241	1.12
236.04	-0.88
236.839	2.12
237.638	1.12
238.437	3.12
239.236	2.12
240.035	4.12
240.833	2.12
241.632	1.12
242.43	0.12
243.229	1.12
244.027	1.12
244.826	1.12
245.624	1.12
246.422	1.12
247.22	2.12
248.018	4.12
248.816	3.12
249.614	2.12
250.412	2.12
251.21	3.12
252.007	2.12
252.805	2.12
253.602	2.12
254.4	3.12
255.197	4.12
255.994	4.12
256.791	4.12
257.589	6.12
258.386	4.12
259.183	5.12
259.979	3.12
260.776	5.12
261.573	4.12
262.37	6.12
263.166	6.12
263.963	9.12
264.759	6.12
265.556	3.12
266.352	8.12
267.148	5.12
267.944	5.12
268.74	9.12
269.536	7.12
270.332	5.12
271.128	8.12
271.924	8.12
272.719	6.12
273.515	8.12
274.311	10.12
275.106	11.12
275.901	10.12
276.697	9.12
277.492	10.12
278.287	8.12
279.082	11.12
279.877	8.12
280.672	9.12
281.467	10.12
282.262	10.12
283.056	14.12
283.851	9.12
284.646	10.12
285.44	11.12
286.234	10.12
287.029	12.12
287.823	13.12
288.617	10.12
289.411	12.12
290.205	8.12
290.999	11.12
291.793	8.12
292.587	13.12
293.381	11.12
294.174	10.12
294.968	9.12
295.761	9.12
296.555	10.12
297.348	9.12
298.141	9.12
298.935	9.12
299.728	10.12
300.521	10.12
301.314	8.12
302.107	7.12
302.899	8.12
303.692	7.12
304.485	6.12
305.277	9.12
306.07	9.12
306.862	6.12
307.655	8.12
308.447	6.12
309.239	8.12
310.031	6.12
310.823	7.12
311.615	6.12
312.407	6.12
313.199	6.12
313.991	6.12
314.783	8.12
315.574	7.12
316.366	5.12
317.157	4.12
317.949	6.12
318.74	3.12
319.531	5.12
320.322	6.12
321.113	3.12
321.904	5.12
322.695	5.12
323.486	5.12
324.277	8.12
325.068	5.12
325.858	7.12
326.649	5.12
327.439	5.12
328.23	2.12
329.02	5.12
329.81	7.12
330.6	5.12
331.391	4.12
332.181	5.12
332.971	3.12
333.76	4.12
334.55	5.12
335.34	5.12
336.13	3.12
336.919	5.12
337.709	2.12
338.498	0.12
339.287	4.12
340.077	4.12
340.866	4.12
341.655	2.12
342.444	3.12
343.233	4.12
344.022	4.12
344.811	4.12
345.6	2.12
346.388	7.12
347.177	2.12
347.965	5.12
348.754	2.12
349.542	4.12
350.33	-0.88
351.119	3.12
351.907	5.12
352.695	4.12
353.483	7.12
354.271	4.12
355.059	2.12
355.846	2.12
356.634	1.12
357.422	3.12
358.209	2.12
358.997	2.12
359.784	1.12
360.571	1.12
361.359	5.12
362.146	5.12
362.933	4.12
363.72	2.12
364.507	4.12
365.294	3.12
366.081	2.12
366.867	-0.88
367.654	2.12
368.44	3.12
369.227	2.12
370.013	2.12
370.8	1.12
371.586	3.12
372.372	4.12
373.158	2.12
373.944	3.12
374.73	3.12
375.516	1.12
376.302	5.12
377.088	0.12
377.873	4.12
378.659	3.12
379.445	5.12
380.23	1.12
381.015	1.12
381.801	3.12
382.586	3.12
383.371	1.12
384.156	4.12
384.941	5.12
385.726	4.12
386.511	2.12
387.296	4.12
388.08	3.12
388.865	4.12
389.649	2.12
390.434	4.12
391.218	4.12
392.003	3.12
392.787	3.12
393.571	2.12
394.355	5.12
395.139	4.12
395.923	1.12
396.707	3.12
397.491	2.12
398.274	5.12
399.058	6.12
399.842	6.12
400.625	4.12
401.408	2.12
402.192	5.12
402.975	2.12
403.758	5.12
404.541	3.12
405.324	5.12
406.107	2.12
406.89	4.12
407.673	5.12
408.456	3.12
409.238	4.12
410.021	3.12
410.803	7.12
411.586	3.12
412.368	5.12
413.151	6.12
413.933	3.12
414.715	5.12
415.497	4.12
416.279	4.12
417.061	7.12
417.843	6.12
418.624	5.12
419.406	2.12
420.188	4.12
420.969	4.12
421.751	7.12
422.532	5.12
423.313	7.12
424.095	6.12
424.876	5.12
425.657	6.12
426.438	6.12
427.219	7.12
428	6.12
428.78	7.12
429.561	6.12
430.342	6.12
431.122	8.12
431.903	7.12
432.683	11.12
433.464	8.12
434.244	7.12
435.024	9.12
435.804	11.12
436.584	11.12
437.364	10.12
438.144	10.12
438.924	12.12
439.704	10.12
440.483	13.12
441.263	11.12
442.042	13.12
442.822	12.12
443.601	15.12
444.38	15.12
445.16	14.12
445.939	17.12
446.718	17.12
447.497	17.12
448.276	21.12
449.054	21.12
449.833	21.12
450.612	21.12
451.391	25.12
452.169	26.12
452.948	32.12
453.726	34.12
454.504	33.12
455.282	42.12
456.061	44.12
456.839	44.12
457.617	48.12
458.395	58.12
459.172	64.12
459.95	70.12
460.728	77.12
461.506	82.12
462.283	97.12
463.061	106.12
463.838	120.12
464.615	137.12
465.393	142.12
466.17	165.12
466.947	186.12
467.724	202.12
468.501	228.12
469.278	254.12
470.055	288.12
470.831	318.12
471.608	348.12
472.385	389.12
473.161	437.12
473.938	492.12
474.714	553.12
475.49	611.12
476.266	679.12
477.043	751.12
477.819	834.12
478.595	935.12
479.371	1018.12
480.146	1151.12
480.922	1270.12
481.698	1385.12
482.473	1561.12
483.249	1712.12
484.024	1912.12
484.8	2081.12
485.575	2306.12
486.35	2577.12
487.126	2853.12
487.901	3131.12
488.676	3458.12
489.451	3821.12
490.225	4236.12
491	4659.12
491.775	5146.12
492.55	5621.12
493.324	6157.12
494.099	6799.12
494.873	7445.12
495.647	8089.12
496.422	8821.12
497.196	9552.12
497.97	10358.12
498.744	11159.12
499.518	11951.12
500.292	12685.12
501.066	13422.12
501.839	14143.12
502.613	14898.12
503.387	15489.12
504.16	15973.12
504.934	16478.12
505.707	16782.12
506.48	16992.12
507.253	17081.12
508.027	17110.12
508.8	16946.12
509.573	16744.12
510.346	16428.12
511.118	16026.12
511.891	15537.12
512.664	14946.12
513.437	14462.12
514.209	13793.12
514.982	13300.12
515.754	12709.12
516.526	12070.12
517.298	11572.12
518.071	11002.12
518.843	10505.12
519.615	10113.12
520.387	9657.12
521.159	9263.12
521.93	8911.12
522.702	8561.12
523.474	8249.12
524.245	7902.12
525.017	7615.12
525.788	7289.12
526.56	6981.12
527.331	6679.12
528.102	6362.12
528.873	6102.12
529.644	5803.12
530.415	5548.12
531.186	5275.12
531.957	4978.12
532.728	4734.12
533.498	4480.12
534.269	4220.12
535.039	3982.12
535.81	3760.12
536.58	3559.12
537.351	3351.12
538.121	3177.12
538.891	2985.12
539.661	2819.12
540.431	2671.12
541.201	2530.12
541.971	2391.12
542.741	2270.12
543.51	2145.12
544.28	2011.12
545.05	1947.12
545.819	1847.12
546.588	1761.12
547.358	1671.12
548.127	1580.12
548.896	1513.12
549.665	1441.12
550.434	1358.12
551.203	1288.12
551.972	1214.12
552.741	1152.12
553.51	1088.12
554.278	1023.12
555.047	979.12
555.815	922.12
556.584	873.12
557.352	810.12
558.121	764.12
558.889	716.12
559.657	684.12
560.425	633.12
561.193	607.12
561.961	565.12
562.729	542.12
563.496	499.12
564.264	489.12
565.032	457.12
565.799	417.12
566.567	407.12
567.334	386.12
568.101	365.12
568.869	344.12
569.636	322.12
570.403	304.12
571.17	282.12
571.937	270.12
572.704	251.12
573.471	240.12
574.237	222.12
575.004	214.12
575.771	195.12
576.537	188.12
577.303	179.12
578.07	172.12
578.836	155.12
579.602	152.12
580.368	139.12
581.134	133.12
581.9	123.12
582.666	117.12
583.432	113.12
584.198	108.12
584.964	99.12
585.729	97.12
586.495	90.12
587.26	85.12
588.025	79.12
588.791	76.12
589.556	75.12
590.321	70.12
591.086	63.12
591.851	60.12
592.616	58.12
593.381	61.12
594.146	49.12
594.911	49.12
595.675	45.12
596.44	47.12
597.204	44.12
597.969	39.12
598.733	38.12
599.497	39.12
600.261	35.12
601.025	36.12
601.79	32.12
602.553	33.12
603.317	29.12
604.081	31.12
604.845	29.12
605.609	25.12
606.372	25.12
607.136	23.12
607.899	22.12
608.662	21.12
609.426	23.12
610.189	21.12
610.952	18.12
611.715	19.12
612.478	17.12
613.241	16.12
614.004	17.12
614.767	17.12
615.529	15.12
616.292	16.12
617.055	13.12
617.817	12.12
618.579	16.12
619.342	11.12
620.104	14.12
620.866	12.12
621.628	10.12
622.39	12.12
623.152	11.12
623.914	9.12
624.676	9.12
625.438	12.12
626.199	11.12
626.961	7.12
627.722	9.12
628.484	8.12
629.245	7.12
630.006	8.12
630.768	8.12
631.529	9.12
632.29	9.12
633.051	9.12
633.812	7.12
634.573	8.12
635.333	7.12
636.094	7.12
636.855	5.12
637.615	7.12
638.376	5.12
639.136	3.12
639.896	7.12
640.657	3.12
641.417	5.12
642.177	6.12
642.937	5.12
643.697	5.12
644.457	4.12
645.216	7.12
645.976	4.12
646.736	4.12
647.495	3.12
648.255	3.12
649.014	4.12
649.774	1.12
650.533	5.12
651.292	5.12
652.051	5.12
652.81	3.12
653.569	4.12
654.328	3.12
655.087	3.12
655.846	5.12
656.604	5.12
657.363	4.12
658.121	4.12
658.88	1.12
659.638	3.12
660.397	3.12
661.155	2.12
661.913	2.12
662.671	3.12
663.429	4.12
664.187	4.12
664.945	4.12
665.703	2.12
666.46	4.12
667.218	1.12
667.976	3.12
668.733	5.12
669.49	2.12
670.248	3.12
671.005	1.12
671.762	2.12
672.519	2.12
673.276	4.12
674.033	4.12
674.79	1.12
675.547	2.12
676.304	3.12
677.06	3.12
677.817	2.12
678.574	3.12
679.33	4.12
680.086	1.12
680.843	3.12
681.599	2.12
682.355	2.12
683.111	5.12
683.867	3.12
684.623	2.12
685.379	2.12
686.135	0.12
686.89	3.12
687.646	2.12
688.402	0.12
689.157	2.12
689.912	4.12
690.668	3.12
691.423	2.12
692.178	3.12
692.933	1.12
693.688	1.12
694.443	1.12
695.198	3.12
695.953	0.12
696.708	1.12
697.462	0.12
698.217	2.12
698.972	1.12
699.726	0.12
700.48	1.12
701.235	1.12
701.989	3.12
702.743	2.12
703.497	2.12
704.251	3.12
705.005	1.12
705.759	4.12
706.513	2.12
707.266	4.12
708.02	2.12
708.774	2.12
709.527	4.12
710.28	1.12
711.034	1.12
711.787	2.12
712.54	3.12
713.293	0.12
714.046	2.12
714.799	1.12
715.552	-1.88
716.305	1.12
717.058	2.12
717.81	3.12
718.563	2.12
719.315	2.12
720.068	1.12
720.82	1.12
721.573	5.12
722.325	2.12
723.077	0.12
723.829	4.12
724.581	2.12
725.333	3.12
726.085	1.12
726.836	1.12
727.588	1.12
728.34	3.12
729.091	1.12
729.843	4.12
730.594	2.12
731.346	2.12
732.097	6.12
732.848	2.12
733.599	1.12
734.35	3.12
735.101	2.12
735.852	4.12
736.603	1.12
737.354	2.12
738.104	3.12
738.855	3.12
739.605	3.12
740.356	1.12
741.106	5.12
741.856	1.12
742.607	2.12
743.357	1.12
744.107	0.12
744.857	3.12
745.607	3.12
746.357	3.12
747.106	1.12
747.856	1.12
748.606	2.12
749.355	1.12
750.105	3.12
750.854	1.12
751.603	2.12
752.353	4.12
753.102	3.12
753.851	4.12
754.6	3.12
755.349	3.12
756.098	2.12
756.847	3.12
757.595	2.12
758.344	3.12
759.093	3.12
759.841	5.12
760.589	4.12
761.338	1.12
762.086	4.12
762.834	2.12
763.582	4.12
764.331	5.12
765.079	3.12
765.826	5.12
766.574	5.12
767.322	6.12
768.07	3.12
768.817	4.12
769.565	7.12
770.312	4.12
771.06	5.12
771.807	3.12
772.554	4.12
773.302	3.12
774.049	5.12
774.796	2.12
775.543	4.12
776.29	5.12
777.036	4.12
777.783	6.12
778.53	3.12
779.276	5.12
780.023	5.12
780.769	5.12
781.516	6.12
782.262	5.12
783.008	4.12
783.754	3.12
784.5	3.12
785.246	4.12
785.992	6.12
786.738	7.12
787.484	4.12
788.23	6.12
788.975	4.12
789.721	4.12
790.466	5.12
791.212	5.12
791.957	3.12
792.702	5.12
793.447	5.12
794.193	8.12
794.938	3.12
795.683	5.12
796.427	6.12
797.172	5.12
797.917	4.12
798.662	4.12
799.406	4.12
800.151	5.12
800.895	5.12
801.64	6.12
802.384	5.12
803.128	4.12
803.872	3.12
804.616	2.12
805.36	2.12
806.104	5.12
806.848	3.12
807.592	5.12
808.336	4.12
809.079	4.12
809.823	3.12
810.566	5.12
811.31	3.12
812.053	3.12
812.796	5.12
813.539	3.12
814.283	4.12
815.026	5.12
815.769	3.12
816.511	4.12
817.254	4.12
817.997	5.12
818.74	3.12
819.482	4.12
820.225	5.12
820.967	3.12
821.71	2.12
822.452	4.12
823.194	4.12
823.936	5.12
824.678	2.12
825.42	1.12
826.162	2.12
826.904	3.12
827.646	3.12
828.388	0.12
829.129	3.12
829.871	2.12
830.612	3.12
831.354	3.12
832.095	4.12
832.836	1.12
833.577	4.12
834.319	2.12
835.06	3.12
835.801	4.12
836.542	3.12
837.282	3.12
838.023	6.12
838.764	3.12
839.504	4.12
840.245	2.12
840.985	2.12
841.726	2.12
842.466	3.12
843.206	4.12
843.946	1.12
844.687	2.12
845.427	1.12
846.166	4.12
846.906	0.12
847.646	1.12
848.386	3.12
849.125	2.12
849.865	1.12
850.605	1.12
851.344	2.12
852.083	3.12
852.823	2.12
853.562	3.12
854.301	2.12
855.04	2.12
855.779	0.12
856.518	3.12
857.257	2.12
857.995	2.12
858.734	0.12
859.473	1.12
860.211	0.12
860.95	0.12
861.688	2.12
862.426	1.12
863.165	3.12
863.903	3.12
864.641	3.12
865.379	2.12
866.117	0.12
866.855	2.12
867.593	-1.88
868.33	1.12
869.068	2.12
869.806	2.12
870.543	1.12
871.28	1.12
872.018	1.12
872.755	-0.88
873.492	2.12
874.229	2.12
874.967	2.12
875.703	1.12
876.44	0.12
877.177	0.12
877.914	-1.88
878.651	0.12
879.387	1.12
880.124	0.12
880.86	1.12
881.597	2.12
882.333	0.12
883.069	2.12
883.806	0.12
884.542	1.12
885.278	2.12
886.014	0.12
886.749	-0.88
887.485	0.12
888.221	2.12
888.957	0.12
889.692	1.12
890.428	1.12
891.163	0.12
891.899	2.12
892.634	1.12
893.369	1.12
894.104	0.12
894.839	0.12
895.574	-0.88
896.309	1.12
897.044	-0.88
897.779	0.12
898.514	0.12
899.248	1.12
899.983	0.12
900.717	0.12
901.452	-0.88
902.186	2.12
902.92	1.12
903.654	2.12
904.389	2.12
905.123	-1.88
905.857	0.12
906.59	2.12
907.324	2.12
908.058	1.12
908.792	0.12
909.525	0.12
910.259	-0.88
910.992	2.12
911.726	0.12
912.459	1.12
913.192	2.12
913.925	0.12
914.658	0.12
915.391	2.12
916.124	-0.88
916.857	1.12
917.59	-1.88
918.323	1.12
919.055	1.12
919.788	0.12
920.521	1.12
921.253	0.12
921.985	2.12
922.718	-0.88
923.45	2.12
924.182	2.12
924.914	1.12
925.646	2.12
926.378	-1.88
927.11	-0.88
927.841	-2.88
928.573	-0.88
929.305	-1.88
930.036	1.12
930.768	0.12
931.499	1.12
932.23	3.12
932.962	0.12
933.693	-0.88
934.424	1.12
935.155	0.12
935.886	1.12
936.617	-1.88
937.348	-0.88
938.078	0.12
938.809	1.12
939.54	1.12
940.27	-0.88
941.001	2.12
941.731	0.12
942.461	0.12
943.191	0.12
943.922	0.12
944.652	0.12
945.382	0.12
946.112	0.12
946.841	0.12
947.571	1.12
948.301	0.12
949.031	0.12
949.76	0.12
950.49	-1.88
951.219	1.12
951.948	0.12
952.678	-0.88
953.407	-0.88
954.136	-0.88
954.865	0.12
955.594	0.12
956.323	-0.88
957.052	0.12
957.78	-0.88
958.509	0.12
959.238	1.12
959.966	1.12
960.695	1.12
961.423	1.12
962.151	2.12
962.88	1.12
963.608	0.12
964.336	-0.88
965.064	-0.88
965.792	-0.88
966.52	1.12
967.247	1.12
967.975	1.12
968.703	1.12
969.43	-0.88
970.158	2.12
970.885	-1.88
971.613	0.12
972.34	2.12
973.067	-0.88
973.794	2.12
974.521	-1.88
975.248	0.12
975.975	2.12
976.702	1.12
977.429	0.12
978.156	1.12
978.882	1.12
979.609	1.12
980.335	-0.88
981.062	1.12
981.788	-1.88
982.514	0.12
983.24	0.12
983.967	-0.88
984.693	-0.88
985.419	-0.88
986.144	0.12
986.87	-0.88
987.596	1.12
988.322	-1.88
989.047	3.12
989.773	2.12
990.498	-0.88
991.224	0.12
991.949	-0.88
992.674	0.12
993.399	1.12
994.124	1.12
994.849	-1.88
995.574	1.12
996.299	1.12
997.024	0.12
997.749	0.12
998.473	-0.88
999.198	1.12
999.922	-0.88
1000.647	1.12
1001.371	2.12
1002.095	-0.88
1002.82	1.12
1003.544	0.12
1004.268	-0.88
1004.992	-0.88
1005.716	0.12
1006.439	0.12
1007.163	-1.88
1007.887	-1.88
1008.611	1.12
1009.334	0.12
1010.058	0.12
1010.781	-0.88
1011.504	0.12
1012.228	1.12
1012.951	-0.88
1013.674	-1.88
1014.397	-0.88
1015.12	1.12
