节点500_145_QEPB04081__197__11-32-06-519.txt的数据

Date: Wed Nov 12 11:32:06 CST 2025
User: PC
Spectrometer: QEPB0408
触发模式: 0
积分时间 (秒): 1.000000E-2
Scans to average: 1
启用暗噪声校正: true
启用非线性校正: false
滑动平均宽度: 0
X轴模式: Wavelengths
Number of Pixels in Spectrum: 1044
>>>>>Begin Spectral Data<<<<<
220.843	0.38
221.644	1.38
222.444	0.38
223.244	-0.62
224.045	-0.62
224.845	-0.62
225.645	-1.62
226.445	1.38
227.245	1.38
228.045	2.38
228.845	3.38
229.645	-0.62
230.444	3.38
231.244	1.38
232.043	0.38
232.843	1.38
233.642	2.38
234.442	-0.62
235.241	-2.62
236.04	2.38
236.839	1.38
237.638	-0.62
238.437	1.38
239.236	1.38
240.035	-1.62
240.833	-0.62
241.632	1.38
242.43	2.38
243.229	2.38
244.027	2.38
244.826	3.38
245.624	0.38
246.422	-0.62
247.22	1.38
248.018	3.38
248.816	7.38
249.614	2.38
250.412	1.38
251.21	2.38
252.007	2.38
252.805	6.38
253.602	1.38
254.4	2.38
255.197	5.38
255.994	2.38
256.791	3.38
257.589	3.38
258.386	3.38
259.183	5.38
259.979	4.38
260.776	4.38
261.573	4.38
262.37	6.38
263.166	4.38
263.963	6.38
264.759	5.38
265.556	4.38
266.352	8.38
267.148	8.38
267.944	5.38
268.74	5.38
269.536	5.38
270.332	7.38
271.128	8.38
271.924	10.38
272.719	4.38
273.515	8.38
274.311	8.38
275.106	10.38
275.901	9.38
276.697	9.38
277.492	10.38
278.287	9.38
279.082	9.38
279.877	8.38
280.672	11.38
281.467	9.38
282.262	11.38
283.056	11.38
283.851	11.38
284.646	15.38
285.44	12.38
286.234	10.38
287.029	8.38
287.823	12.38
288.617	12.38
289.411	9.38
290.205	11.38
290.999	10.38
291.793	9.38
292.587	8.38
293.381	9.38
294.174	12.38
294.968	9.38
295.761	10.38
296.555	8.38
297.348	9.38
298.141	12.38
298.935	12.38
299.728	10.38
300.521	10.38
301.314	9.38
302.107	7.38
302.899	10.38
303.692	9.38
304.485	7.38
305.277	10.38
306.07	7.38
306.862	8.38
307.655	9.38
308.447	7.38
309.239	7.38
310.031	4.38
310.823	7.38
311.615	6.38
312.407	6.38
313.199	3.38
313.991	7.38
314.783	4.38
315.574	7.38
316.366	6.38
317.157	6.38
317.949	4.38
318.74	6.38
319.531	5.38
320.322	5.38
321.113	4.38
321.904	4.38
322.695	4.38
323.486	4.38
324.277	5.38
325.068	5.38
325.858	4.38
326.649	4.38
327.439	5.38
328.23	5.38
329.02	4.38
329.81	5.38
330.6	4.38
331.391	1.38
332.181	3.38
332.971	2.38
333.76	3.38
334.55	3.38
335.34	5.38
336.13	3.38
336.919	3.38
337.709	7.38
338.498	2.38
339.287	1.38
340.077	3.38
340.866	5.38
341.655	4.38
342.444	4.38
343.233	7.38
344.022	3.38
344.811	2.38
345.6	2.38
346.388	2.38
347.177	2.38
347.965	5.38
348.754	1.38
349.542	3.38
350.33	4.38
351.119	5.38
351.907	5.38
352.695	5.38
353.483	3.38
354.271	3.38
355.059	5.38
355.846	5.38
356.634	1.38
357.422	3.38
358.209	5.38
358.997	3.38
359.784	1.38
360.571	3.38
361.359	4.38
362.146	4.38
362.933	6.38
363.72	1.38
364.507	2.38
365.294	1.38
366.081	1.38
366.867	3.38
367.654	1.38
368.44	2.38
369.227	2.38
370.013	4.38
370.8	3.38
371.586	1.38
372.372	2.38
373.158	2.38
373.944	3.38
374.73	0.38
375.516	3.38
376.302	3.38
377.088	2.38
377.873	3.38
378.659	0.38
379.445	1.38
380.23	3.38
381.015	3.38
381.801	1.38
382.586	3.38
383.371	1.38
384.156	1.38
384.941	1.38
385.726	4.38
386.511	4.38
387.296	3.38
388.08	3.38
388.865	3.38
389.649	3.38
390.434	3.38
391.218	-0.62
392.003	4.38
392.787	1.38
393.571	4.38
394.355	3.38
395.139	4.38
395.923	4.38
396.707	3.38
397.491	3.38
398.274	1.38
399.058	5.38
399.842	4.38
400.625	2.38
401.408	3.38
402.192	6.38
402.975	4.38
403.758	0.38
404.541	3.38
405.324	7.38
406.107	1.38
406.89	2.38
407.673	6.38
408.456	3.38
409.238	7.38
410.021	5.38
410.803	5.38
411.586	5.38
412.368	4.38
413.151	5.38
413.933	2.38
414.715	8.38
415.497	6.38
416.279	6.38
417.061	6.38
417.843	5.38
418.624	7.38
419.406	5.38
420.188	5.38
420.969	4.38
421.751	7.38
422.532	4.38
423.313	6.38
424.095	7.38
424.876	6.38
425.657	8.38
426.438	7.38
427.219	8.38
428	7.38
428.78	5.38
429.561	7.38
430.342	7.38
431.122	9.38
431.903	6.38
432.683	7.38
433.464	9.38
434.244	10.38
435.024	10.38
435.804	8.38
436.584	9.38
437.364	8.38
438.144	8.38
438.924	10.38
439.704	13.38
440.483	9.38
441.263	11.38
442.042	14.38
442.822	14.38
443.601	13.38
444.38	14.38
445.16	15.38
445.939	16.38
446.718	18.38
447.497	18.38
448.276	19.38
449.054	21.38
449.833	21.38
450.612	24.38
451.391	29.38
452.169	27.38
452.948	28.38
453.726	30.38
454.504	38.38
455.282	41.38
456.061	41.38
456.839	48.38
457.617	51.38
458.395	58.38
459.172	66.38
459.95	73.38
460.728	77.38
461.506	85.38
462.283	100.38
463.061	106.38
463.838	124.38
464.615	138.38
465.393	150.38
466.17	167.38
466.947	187.38
467.724	210.38
468.501	233.38
469.278	263.38
470.055	295.38
470.831	322.38
471.608	361.38
472.385	406.38
473.161	453.38
473.938	493.38
474.714	556.38
475.49	605.38
476.266	686.38
477.043	760.38
477.819	854.38
478.595	924.38
479.371	1036.38
480.146	1136.38
480.922	1279.38
481.698	1401.38
482.473	1554.38
483.249	1719.38
484.024	1900.38
484.8	2088.38
485.575	2307.38
486.35	2549.38
487.126	2821.38
487.901	3121.38
488.676	3446.38
489.451	3787.38
490.225	4192.38
491	4599.38
491.775	5081.38
492.55	5549.38
493.324	6125.38
494.099	6707.38
494.873	7332.38
495.647	7966.38
496.422	8649.38
497.196	9364.38
497.97	10138.38
498.744	10951.38
499.518	11718.38
500.292	12457.38
501.066	13263.38
501.839	13914.38
502.613	14626.38
503.387	15225.38
504.16	15801.38
504.934	16190.38
505.707	16512.38
506.48	16781.38
507.253	16931.38
508.027	16974.38
508.8	16826.38
509.573	16609.38
510.346	16356.38
511.118	15957.38
511.891	15477.38
512.664	14957.38
513.437	14425.38
514.209	13829.38
514.982	13336.38
515.754	12737.38
516.526	12184.38
517.298	11645.38
518.071	11092.38
518.843	10575.38
519.615	10111.38
520.387	9726.38
521.159	9318.38
521.93	8970.38
522.702	8600.38
523.474	8229.38
524.245	7922.38
525.017	7658.38
525.788	7333.38
526.56	7063.38
527.331	6713.38
528.102	6402.38
528.873	6117.38
529.644	5836.38
530.415	5586.38
531.186	5269.38
531.957	5052.38
532.728	4782.38
533.498	4516.38
534.269	4267.38
535.039	4027.38
535.81	3806.38
536.58	3573.38
537.351	3380.38
538.121	3198.38
538.891	3030.38
539.661	2846.38
540.431	2694.38
541.201	2553.38
541.971	2439.38
542.741	2287.38
543.51	2157.38
544.28	2062.38
545.05	1971.38
545.819	1851.38
546.588	1772.38
547.358	1688.38
548.127	1586.38
548.896	1522.38
549.665	1453.38
550.434	1370.38
551.203	1299.38
551.972	1250.38
552.741	1164.38
553.51	1100.38
554.278	1038.38
555.047	981.38
555.815	917.38
556.584	877.38
557.352	813.38
558.121	773.38
558.889	733.38
559.657	688.38
560.425	660.38
561.193	607.38
561.961	583.38
562.729	541.38
563.496	507.38
564.264	484.38
565.032	462.38
565.799	435.38
566.567	408.38
567.334	391.38
568.101	364.38
568.869	346.38
569.636	327.38
570.403	308.38
571.17	288.38
571.937	272.38
572.704	258.38
573.471	253.38
574.237	232.38
575.004	217.38
575.771	202.38
576.537	192.38
577.303	177.38
578.07	168.38
578.836	151.38
579.602	151.38
580.368	139.38
581.134	133.38
581.9	128.38
582.666	118.38
583.432	117.38
584.198	104.38
584.964	98.38
585.729	98.38
586.495	89.38
587.26	85.38
588.025	80.38
588.791	72.38
589.556	72.38
590.321	70.38
591.086	64.38
591.851	59.38
592.616	60.38
593.381	55.38
594.146	51.38
594.911	52.38
595.675	47.38
596.44	46.38
597.204	45.38
597.969	40.38
598.733	37.38
599.497	38.38
600.261	39.38
601.025	34.38
601.79	32.38
602.553	30.38
603.317	32.38
604.081	29.38
604.845	24.38
605.609	26.38
606.372	25.38
607.136	23.38
607.899	22.38
608.662	21.38
609.426	19.38
610.189	21.38
610.952	18.38
611.715	18.38
612.478	18.38
613.241	17.38
614.004	15.38
614.767	15.38
615.529	17.38
616.292	17.38
617.055	13.38
617.817	11.38
618.579	15.38
619.342	16.38
620.104	12.38
620.866	13.38
621.628	11.38
622.39	12.38
623.152	11.38
623.914	10.38
624.676	10.38
625.438	10.38
626.199	8.38
626.961	10.38
627.722	10.38
628.484	8.38
629.245	9.38
630.006	9.38
630.768	9.38
631.529	8.38
632.29	6.38
633.051	8.38
633.812	8.38
634.573	5.38
635.333	4.38
636.094	6.38
636.855	6.38
637.615	7.38
638.376	6.38
639.136	6.38
639.896	4.38
640.657	6.38
641.417	3.38
642.177	5.38
642.937	6.38
643.697	4.38
644.457	5.38
645.216	4.38
645.976	2.38
646.736	4.38
647.495	4.38
648.255	3.38
649.014	6.38
649.774	3.38
650.533	3.38
651.292	2.38
652.051	4.38
652.81	3.38
653.569	4.38
654.328	3.38
655.087	4.38
655.846	1.38
656.604	4.38
657.363	3.38
658.121	3.38
658.88	2.38
659.638	3.38
660.397	5.38
661.155	3.38
661.913	5.38
662.671	1.38
663.429	2.38
664.187	2.38
664.945	3.38
665.703	0.38
666.46	3.38
667.218	2.38
667.976	3.38
668.733	2.38
669.49	4.38
670.248	1.38
671.005	2.38
671.762	2.38
672.519	2.38
673.276	3.38
674.033	3.38
674.79	2.38
675.547	3.38
676.304	2.38
677.06	1.38
677.817	1.38
678.574	4.38
679.33	2.38
680.086	2.38
680.843	1.38
681.599	3.38
682.355	2.38
683.111	1.38
683.867	2.38
684.623	2.38
685.379	4.38
686.135	1.38
686.89	1.38
687.646	1.38
688.402	-0.62
689.157	3.38
689.912	1.38
690.668	3.38
691.423	2.38
692.178	1.38
692.933	3.38
693.688	1.38
694.443	2.38
695.198	3.38
695.953	4.38
696.708	3.38
697.462	1.38
698.217	2.38
698.972	2.38
699.726	1.38
700.48	3.38
701.235	2.38
701.989	2.38
702.743	0.38
703.497	1.38
704.251	1.38
705.005	1.38
705.759	2.38
706.513	0.38
707.266	1.38
708.02	2.38
708.774	2.38
709.527	1.38
710.28	3.38
711.034	1.38
711.787	2.38
712.54	3.38
713.293	2.38
714.046	6.38
714.799	0.38
715.552	0.38
716.305	1.38
717.058	2.38
717.81	2.38
718.563	1.38
719.315	1.38
720.068	2.38
720.82	3.38
721.573	3.38
722.325	2.38
723.077	1.38
723.829	1.38
724.581	4.38
725.333	2.38
726.085	2.38
726.836	2.38
727.588	2.38
728.34	4.38
729.091	1.38
729.843	2.38
730.594	0.38
731.346	1.38
732.097	0.38
732.848	1.38
733.599	2.38
734.35	2.38
735.101	2.38
735.852	3.38
736.603	2.38
737.354	1.38
738.104	2.38
738.855	1.38
739.605	1.38
740.356	3.38
741.106	2.38
741.856	2.38
742.607	2.38
743.357	4.38
744.107	1.38
744.857	0.38
745.607	1.38
746.357	2.38
747.106	2.38
747.856	3.38
748.606	2.38
749.355	4.38
750.105	4.38
750.854	4.38
751.603	4.38
752.353	3.38
753.102	4.38
753.851	2.38
754.6	3.38
755.349	3.38
756.098	2.38
756.847	5.38
757.595	1.38
758.344	4.38
759.093	3.38
759.841	1.38
760.589	5.38
761.338	3.38
762.086	2.38
762.834	3.38
763.582	4.38
764.331	3.38
765.079	7.38
765.826	4.38
766.574	2.38
767.322	5.38
768.07	3.38
768.817	2.38
769.565	5.38
770.312	6.38
771.06	5.38
771.807	2.38
772.554	4.38
773.302	4.38
774.049	4.38
774.796	3.38
775.543	5.38
776.29	4.38
777.036	4.38
777.783	5.38
778.53	4.38
779.276	5.38
780.023	5.38
780.769	2.38
781.516	5.38
782.262	6.38
783.008	6.38
783.754	4.38
784.5	5.38
785.246	4.38
785.992	5.38
786.738	7.38
787.484	4.38
788.23	6.38
788.975	3.38
789.721	7.38
790.466	5.38
791.212	5.38
791.957	7.38
792.702	6.38
793.447	6.38
794.193	2.38
794.938	6.38
795.683	4.38
796.427	5.38
797.172	3.38
797.917	4.38
798.662	2.38
799.406	4.38
800.151	5.38
800.895	1.38
801.64	4.38
802.384	7.38
803.128	2.38
803.872	4.38
804.616	2.38
805.36	2.38
806.104	6.38
806.848	3.38
807.592	2.38
808.336	4.38
809.079	3.38
809.823	3.38
810.566	3.38
811.31	2.38
812.053	4.38
812.796	3.38
813.539	1.38
814.283	3.38
815.026	4.38
815.769	2.38
816.511	3.38
817.254	5.38
817.997	1.38
818.74	3.38
819.482	5.38
820.225	2.38
820.967	2.38
821.71	4.38
822.452	3.38
823.194	3.38
823.936	2.38
824.678	1.38
825.42	3.38
826.162	3.38
826.904	2.38
827.646	2.38
828.388	1.38
829.129	2.38
829.871	3.38
830.612	3.38
831.354	2.38
832.095	4.38
832.836	1.38
833.577	2.38
834.319	2.38
835.06	3.38
835.801	3.38
836.542	2.38
837.282	0.38
838.023	2.38
838.764	4.38
839.504	1.38
840.245	2.38
840.985	4.38
841.726	1.38
842.466	2.38
843.206	-0.62
843.946	3.38
844.687	0.38
845.427	4.38
846.166	1.38
846.906	0.38
847.646	1.38
848.386	2.38
849.125	2.38
849.865	2.38
850.605	3.38
851.344	1.38
852.083	3.38
852.823	0.38
853.562	2.38
854.301	2.38
855.04	0.38
855.779	-0.62
856.518	2.38
857.257	2.38
857.995	0.38
858.734	-0.62
859.473	1.38
860.211	-0.62
860.95	1.38
861.688	3.38
862.426	1.38
863.165	1.38
863.903	1.38
864.641	2.38
865.379	2.38
866.117	1.38
866.855	2.38
867.593	1.38
868.33	-0.62
869.068	1.38
869.806	1.38
870.543	-1.62
871.28	0.38
872.018	0.38
872.755	2.38
873.492	-0.62
874.229	1.38
874.967	-1.62
875.703	-2.62
876.44	2.38
877.177	1.38
877.914	-0.62
878.651	6.38
879.387	-1.62
880.124	1.38
880.86	2.38
881.597	1.38
882.333	1.38
883.069	0.38
883.806	1.38
884.542	0.38
885.278	1.38
886.014	0.38
886.749	2.38
887.485	2.38
888.221	0.38
888.957	1.38
889.692	0.38
890.428	2.38
891.163	2.38
891.899	1.38
892.634	1.38
893.369	0.38
894.104	1.38
894.839	0.38
895.574	-1.62
896.309	0.38
897.044	1.38
897.779	2.38
898.514	1.38
899.248	-0.62
899.983	1.38
900.717	1.38
901.452	-1.62
902.186	0.38
902.92	1.38
903.654	0.38
904.389	0.38
905.123	0.38
905.857	2.38
906.59	0.38
907.324	0.38
908.058	1.38
908.792	-2.62
909.525	-0.62
910.259	2.38
910.992	3.38
911.726	-1.62
912.459	1.38
913.192	-0.62
913.925	0.38
914.658	2.38
915.391	0.38
916.124	1.38
916.857	0.38
917.59	-0.62
918.323	0.38
919.055	1.38
919.788	-1.62
920.521	-1.62
921.253	0.38
921.985	-0.62
922.718	-1.62
923.45	1.38
924.182	0.38
924.914	-0.62
925.646	-0.62
926.378	-0.62
927.11	2.38
927.841	0.38
928.573	1.38
929.305	0.38
930.036	1.38
930.768	1.38
931.499	2.38
932.23	-1.62
932.962	0.38
933.693	-0.62
934.424	-0.62
935.155	0.38
935.886	0.38
936.617	0.38
937.348	1.38
938.078	1.38
938.809	-0.62
939.54	0.38
940.27	1.38
941.001	0.38
941.731	-1.62
942.461	0.38
943.191	2.38
943.922	1.38
944.652	0.38
945.382	1.38
946.112	1.38
946.841	0.38
947.571	0.38
948.301	-0.62
949.031	-1.62
949.76	0.38
950.49	0.38
951.219	0.38
951.948	-0.62
952.678	1.38
953.407	1.38
954.136	-0.62
954.865	0.38
955.594	-0.62
956.323	0.38
957.052	0.38
957.78	-1.62
958.509	0.38
959.238	-0.62
959.966	0.38
960.695	0.38
961.423	0.38
962.151	1.38
962.88	-0.62
963.608	1.38
964.336	1.38
965.064	1.38
965.792	2.38
966.52	1.38
967.247	2.38
967.975	1.38
968.703	0.38
969.43	-0.62
970.158	-0.62
970.885	0.38
971.613	-0.62
972.34	-1.62
973.067	2.38
973.794	0.38
974.521	0.38
975.248	1.38
975.975	3.38
976.702	-0.62
977.429	0.38
978.156	0.38
978.882	1.38
979.609	2.38
980.335	-0.62
981.062	0.38
981.788	1.38
982.514	-0.62
983.24	0.38
983.967	1.38
984.693	-1.62
985.419	-0.62
986.144	1.38
986.87	1.38
987.596	0.38
988.322	0.38
989.047	-0.62
989.773	1.38
990.498	1.38
991.224	3.38
991.949	-1.62
992.674	0.38
993.399	-1.62
994.124	1.38
994.849	2.38
995.574	-1.62
996.299	1.38
997.024	0.38
997.749	-2.62
998.473	-0.62
999.198	-1.62
999.922	-0.62
1000.647	-1.62
1001.371	3.38
1002.095	-0.62
1002.82	-1.62
1003.544	-1.62
1004.268	1.38
1004.992	-0.62
1005.716	1.38
1006.439	-1.62
1007.163	-1.62
1007.887	-0.62
1008.611	0.38
1009.334	0.38
1010.058	0.38
1010.781	1.38
1011.504	2.38
1012.228	-1.62
1012.951	-0.62
1013.674	0.38
1014.397	0.38
1015.12	0.38
