节点500_145_QEPB04081__272__11-33-19-503.txt的数据

Date: Wed Nov 12 11:33:19 CST 2025
User: PC
Spectrometer: QEPB0408
触发模式: 0
积分时间 (秒): 1.000000E-2
Scans to average: 1
启用暗噪声校正: true
启用非线性校正: false
滑动平均宽度: 0
X轴模式: Wavelengths
Number of Pixels in Spectrum: 1044
>>>>>Begin Spectral Data<<<<<
220.843	0.5
221.644	0.5
222.444	0.5
223.244	1.5
224.045	2.5
224.845	-1.5
225.645	1.5
226.445	1.5
227.245	0.5
228.045	0.5
228.845	4.5
229.645	0.5
230.444	4.5
231.244	-1.5
232.043	2.5
232.843	-2.5
233.642	1.5
234.442	0.5
235.241	1.5
236.04	0.5
236.839	2.5
237.638	2.5
238.437	1.5
239.236	-0.5
240.035	0.5
240.833	0.5
241.632	1.5
242.43	0.5
243.229	0.5
244.027	1.5
244.826	2.5
245.624	0.5
246.422	2.5
247.22	3.5
248.018	0.5
248.816	3.5
249.614	1.5
250.412	1.5
251.21	5.5
252.007	2.5
252.805	5.5
253.602	3.5
254.4	2.5
255.197	2.5
255.994	4.5
256.791	4.5
257.589	5.5
258.386	5.5
259.183	5.5
259.979	3.5
260.776	4.5
261.573	3.5
262.37	6.5
263.166	5.5
263.963	3.5
264.759	5.5
265.556	5.5
266.352	6.5
267.148	5.5
267.944	8.5
268.74	7.5
269.536	7.5
270.332	5.5
271.128	7.5
271.924	5.5
272.719	6.5
273.515	9.5
274.311	8.5
275.106	8.5
275.901	9.5
276.697	10.5
277.492	8.5
278.287	9.5
279.082	9.5
279.877	10.5
280.672	9.5
281.467	9.5
282.262	10.5
283.056	8.5
283.851	12.5
284.646	14.5
285.44	13.5
286.234	11.5
287.029	10.5
287.823	10.5
288.617	11.5
289.411	10.5
290.205	9.5
290.999	10.5
291.793	10.5
292.587	13.5
293.381	8.5
294.174	11.5
294.968	9.5
295.761	9.5
296.555	9.5
297.348	11.5
298.141	10.5
298.935	13.5
299.728	10.5
300.521	7.5
301.314	9.5
302.107	8.5
302.899	7.5
303.692	7.5
304.485	8.5
305.277	8.5
306.07	6.5
306.862	8.5
307.655	8.5
308.447	8.5
309.239	5.5
310.031	9.5
310.823	6.5
311.615	7.5
312.407	5.5
313.199	7.5
313.991	5.5
314.783	4.5
315.574	3.5
316.366	7.5
317.157	8.5
317.949	5.5
318.74	5.5
319.531	5.5
320.322	5.5
321.113	4.5
321.904	5.5
322.695	5.5
323.486	4.5
324.277	5.5
325.068	5.5
325.858	6.5
326.649	2.5
327.439	1.5
328.23	5.5
329.02	3.5
329.81	3.5
330.6	2.5
331.391	2.5
332.181	4.5
332.971	3.5
333.76	3.5
334.55	3.5
335.34	2.5
336.13	3.5
336.919	4.5
337.709	3.5
338.498	3.5
339.287	5.5
340.077	3.5
340.866	3.5
341.655	6.5
342.444	4.5
343.233	3.5
344.022	4.5
344.811	4.5
345.6	5.5
346.388	6.5
347.177	3.5
347.965	2.5
348.754	3.5
349.542	3.5
350.33	3.5
351.119	4.5
351.907	4.5
352.695	5.5
353.483	5.5
354.271	2.5
355.059	1.5
355.846	0.5
356.634	6.5
357.422	2.5
358.209	3.5
358.997	4.5
359.784	0.5
360.571	2.5
361.359	3.5
362.146	2.5
362.933	3.5
363.72	3.5
364.507	4.5
365.294	2.5
366.081	1.5
366.867	4.5
367.654	2.5
368.44	2.5
369.227	0.5
370.013	1.5
370.8	2.5
371.586	2.5
372.372	3.5
373.158	2.5
373.944	2.5
374.73	2.5
375.516	2.5
376.302	3.5
377.088	3.5
377.873	1.5
378.659	3.5
379.445	5.5
380.23	2.5
381.015	2.5
381.801	2.5
382.586	4.5
383.371	2.5
384.156	0.5
384.941	4.5
385.726	1.5
386.511	3.5
387.296	2.5
388.08	3.5
388.865	2.5
389.649	3.5
390.434	4.5
391.218	1.5
392.003	5.5
392.787	4.5
393.571	4.5
394.355	3.5
395.139	4.5
395.923	3.5
396.707	5.5
397.491	4.5
398.274	2.5
399.058	3.5
399.842	2.5
400.625	3.5
401.408	5.5
402.192	5.5
402.975	2.5
403.758	4.5
404.541	5.5
405.324	3.5
406.107	4.5
406.89	1.5
407.673	3.5
408.456	5.5
409.238	3.5
410.021	3.5
410.803	5.5
411.586	5.5
412.368	6.5
413.151	3.5
413.933	4.5
414.715	4.5
415.497	4.5
416.279	4.5
417.061	5.5
417.843	2.5
418.624	5.5
419.406	6.5
420.188	2.5
420.969	5.5
421.751	3.5
422.532	6.5
423.313	6.5
424.095	6.5
424.876	6.5
425.657	5.5
426.438	8.5
427.219	6.5
428	5.5
428.78	10.5
429.561	8.5
430.342	6.5
431.122	7.5
431.903	7.5
432.683	7.5
433.464	10.5
434.244	9.5
435.024	8.5
435.804	10.5
436.584	10.5
437.364	9.5
438.144	10.5
438.924	10.5
439.704	10.5
440.483	9.5
441.263	13.5
442.042	12.5
442.822	11.5
443.601	17.5
444.38	14.5
445.16	14.5
445.939	15.5
446.718	19.5
447.497	21.5
448.276	19.5
449.054	23.5
449.833	21.5
450.612	26.5
451.391	27.5
452.169	29.5
452.948	30.5
453.726	33.5
454.504	39.5
455.282	42.5
456.061	47.5
456.839	48.5
457.617	57.5
458.395	60.5
459.172	65.5
459.95	73.5
460.728	80.5
461.506	89.5
462.283	101.5
463.061	116.5
463.838	125.5
464.615	143.5
465.393	151.5
466.17	175.5
466.947	194.5
467.724	214.5
468.501	241.5
469.278	267.5
470.055	295.5
470.831	329.5
471.608	367.5
472.385	417.5
473.161	454.5
473.938	511.5
474.714	559.5
475.49	626.5
476.266	687.5
477.043	770.5
477.819	846.5
478.595	928.5
479.371	1031.5
480.146	1148.5
480.922	1268.5
481.698	1410.5
482.473	1544.5
483.249	1703.5
484.024	1889.5
484.8	2068.5
485.575	2271.5
486.35	2511.5
487.126	2758.5
487.901	3053.5
488.676	3394.5
489.451	3703.5
490.225	4088.5
491	4450.5
491.775	4925.5
492.55	5403.5
493.324	5917.5
494.099	6469.5
494.873	7020.5
495.647	7676.5
496.422	8394.5
497.196	9053.5
497.97	9742.5
498.744	10522.5
499.518	11283.5
500.292	11968.5
501.066	12714.5
501.839	13414.5
502.613	14088.5
503.387	14752.5
504.16	15284.5
504.934	15703.5
505.707	16044.5
506.48	16383.5
507.253	16458.5
508.027	16572.5
508.8	16506.5
509.573	16328.5
510.346	16060.5
511.118	15745.5
511.891	15333.5
512.664	14881.5
513.437	14331.5
514.209	13743.5
514.982	13310.5
515.754	12735.5
516.526	12189.5
517.298	11621.5
518.071	11080.5
518.843	10599.5
519.615	10177.5
520.387	9774.5
521.159	9336.5
521.93	9009.5
522.702	8604.5
523.474	8270.5
524.245	7971.5
525.017	7626.5
525.788	7322.5
526.56	7061.5
527.331	6767.5
528.102	6454.5
528.873	6171.5
529.644	5889.5
530.415	5639.5
531.186	5322.5
531.957	5134.5
532.728	4817.5
533.498	4583.5
534.269	4316.5
535.039	4080.5
535.81	3852.5
536.58	3641.5
537.351	3402.5
538.121	3243.5
538.891	3029.5
539.661	2889.5
540.431	2730.5
541.201	2599.5
541.971	2470.5
542.741	2331.5
543.51	2207.5
544.28	2084.5
545.05	2011.5
545.819	1885.5
546.588	1801.5
547.358	1708.5
548.127	1631.5
548.896	1538.5
549.665	1460.5
550.434	1392.5
551.203	1330.5
551.972	1262.5
552.741	1186.5
553.51	1110.5
554.278	1069.5
555.047	1005.5
555.815	947.5
556.584	893.5
557.352	844.5
558.121	790.5
558.889	734.5
559.657	706.5
560.425	653.5
561.193	631.5
561.961	583.5
562.729	559.5
563.496	513.5
564.264	500.5
565.032	470.5
565.799	437.5
566.567	413.5
567.334	390.5
568.101	374.5
568.869	350.5
569.636	336.5
570.403	313.5
571.17	295.5
571.937	280.5
572.704	264.5
573.471	248.5
574.237	237.5
575.004	216.5
575.771	206.5
576.537	196.5
577.303	183.5
578.07	171.5
578.836	159.5
579.602	152.5
580.368	144.5
581.134	138.5
581.9	129.5
582.666	124.5
583.432	114.5
584.198	107.5
584.964	104.5
585.729	95.5
586.495	96.5
587.26	87.5
588.025	80.5
588.791	78.5
589.556	76.5
590.321	70.5
591.086	65.5
591.851	67.5
592.616	61.5
593.381	56.5
594.146	54.5
594.911	50.5
595.675	49.5
596.44	47.5
597.204	40.5
597.969	41.5
598.733	39.5
599.497	40.5
600.261	36.5
601.025	34.5
601.79	35.5
602.553	33.5
603.317	32.5
604.081	29.5
604.845	32.5
605.609	26.5
606.372	25.5
607.136	25.5
607.899	23.5
608.662	22.5
609.426	22.5
610.189	22.5
610.952	20.5
611.715	21.5
612.478	19.5
613.241	17.5
614.004	19.5
614.767	14.5
615.529	17.5
616.292	14.5
617.055	14.5
617.817	14.5
618.579	12.5
619.342	13.5
620.104	13.5
620.866	13.5
621.628	10.5
622.39	12.5
623.152	11.5
623.914	11.5
624.676	10.5
625.438	8.5
626.199	10.5
626.961	8.5
627.722	8.5
628.484	10.5
629.245	9.5
630.006	8.5
630.768	7.5
631.529	8.5
632.29	7.5
633.051	9.5
633.812	9.5
634.573	7.5
635.333	6.5
636.094	7.5
636.855	6.5
637.615	6.5
638.376	9.5
639.136	5.5
639.896	6.5
640.657	4.5
641.417	4.5
642.177	5.5
642.937	3.5
643.697	3.5
644.457	4.5
645.216	3.5
645.976	5.5
646.736	5.5
647.495	4.5
648.255	4.5
649.014	5.5
649.774	2.5
650.533	2.5
651.292	3.5
652.051	5.5
652.81	5.5
653.569	2.5
654.328	5.5
655.087	4.5
655.846	4.5
656.604	3.5
657.363	3.5
658.121	4.5
658.88	3.5
659.638	4.5
660.397	5.5
661.155	3.5
661.913	3.5
662.671	1.5
663.429	2.5
664.187	3.5
664.945	3.5
665.703	2.5
666.46	4.5
667.218	4.5
667.976	2.5
668.733	2.5
669.49	2.5
670.248	4.5
671.005	1.5
671.762	1.5
672.519	2.5
673.276	2.5
674.033	2.5
674.79	1.5
675.547	2.5
676.304	1.5
677.06	3.5
677.817	4.5
678.574	0.5
679.33	0.5
680.086	1.5
680.843	2.5
681.599	3.5
682.355	2.5
683.111	3.5
683.867	3.5
684.623	4.5
685.379	3.5
686.135	4.5
686.89	2.5
687.646	2.5
688.402	1.5
689.157	1.5
689.912	0.5
690.668	2.5
691.423	1.5
692.178	4.5
692.933	1.5
693.688	2.5
694.443	2.5
695.198	2.5
695.953	2.5
696.708	4.5
697.462	2.5
698.217	3.5
698.972	1.5
699.726	2.5
700.48	0.5
701.235	2.5
701.989	0.5
702.743	4.5
703.497	0.5
704.251	4.5
705.005	2.5
705.759	0.5
706.513	1.5
707.266	3.5
708.02	-0.5
708.774	2.5
709.527	2.5
710.28	1.5
711.034	1.5
711.787	1.5
712.54	-0.5
713.293	1.5
714.046	2.5
714.799	3.5
715.552	2.5
716.305	2.5
717.058	2.5
717.81	1.5
718.563	1.5
719.315	2.5
720.068	-0.5
720.82	3.5
721.573	3.5
722.325	2.5
723.077	1.5
723.829	4.5
724.581	1.5
725.333	4.5
726.085	1.5
726.836	3.5
727.588	3.5
728.34	3.5
729.091	2.5
729.843	3.5
730.594	4.5
731.346	2.5
732.097	2.5
732.848	1.5
733.599	4.5
734.35	3.5
735.101	2.5
735.852	4.5
736.603	1.5
737.354	1.5
738.104	2.5
738.855	3.5
739.605	2.5
740.356	3.5
741.106	2.5
741.856	2.5
742.607	2.5
743.357	3.5
744.107	2.5
744.857	2.5
745.607	2.5
746.357	2.5
747.106	4.5
747.856	4.5
748.606	1.5
749.355	1.5
750.105	3.5
750.854	1.5
751.603	3.5
752.353	3.5
753.102	2.5
753.851	3.5
754.6	4.5
755.349	6.5
756.098	2.5
756.847	3.5
757.595	2.5
758.344	-0.5
759.093	2.5
759.841	1.5
760.589	4.5
761.338	1.5
762.086	3.5
762.834	2.5
763.582	5.5
764.331	5.5
765.079	2.5
765.826	5.5
766.574	1.5
767.322	3.5
768.07	4.5
768.817	3.5
769.565	4.5
770.312	2.5
771.06	3.5
771.807	3.5
772.554	2.5
773.302	4.5
774.049	4.5
774.796	6.5
775.543	3.5
776.29	7.5
777.036	3.5
777.783	5.5
778.53	7.5
779.276	4.5
780.023	7.5
780.769	4.5
781.516	5.5
782.262	3.5
783.008	4.5
783.754	3.5
784.5	3.5
785.246	6.5
785.992	4.5
786.738	9.5
787.484	4.5
788.23	7.5
788.975	5.5
789.721	4.5
790.466	6.5
791.212	3.5
791.957	4.5
792.702	6.5
793.447	5.5
794.193	5.5
794.938	2.5
795.683	6.5
796.427	5.5
797.172	6.5
797.917	3.5
798.662	4.5
799.406	4.5
800.151	3.5
800.895	4.5
801.64	5.5
802.384	3.5
803.128	5.5
803.872	4.5
804.616	4.5
805.36	2.5
806.104	4.5
806.848	4.5
807.592	3.5
808.336	2.5
809.079	3.5
809.823	4.5
810.566	2.5
811.31	1.5
812.053	3.5
812.796	6.5
813.539	3.5
814.283	2.5
815.026	2.5
815.769	2.5
816.511	4.5
817.254	2.5
817.997	3.5
818.74	5.5
819.482	2.5
820.225	2.5
820.967	2.5
821.71	3.5
822.452	2.5
823.194	3.5
823.936	1.5
824.678	2.5
825.42	5.5
826.162	3.5
826.904	3.5
827.646	2.5
828.388	3.5
829.129	1.5
829.871	4.5
830.612	0.5
831.354	2.5
832.095	3.5
832.836	3.5
833.577	0.5
834.319	1.5
835.06	1.5
835.801	4.5
836.542	1.5
837.282	5.5
838.023	2.5
838.764	3.5
839.504	4.5
840.245	1.5
840.985	2.5
841.726	3.5
842.466	2.5
843.206	2.5
843.946	2.5
844.687	3.5
845.427	1.5
846.166	2.5
846.906	3.5
847.646	2.5
848.386	2.5
849.125	2.5
849.865	0.5
850.605	0.5
851.344	1.5
852.083	2.5
852.823	1.5
853.562	2.5
854.301	1.5
855.04	2.5
855.779	2.5
856.518	3.5
857.257	1.5
857.995	2.5
858.734	2.5
859.473	3.5
860.211	2.5
860.95	1.5
861.688	4.5
862.426	1.5
863.165	2.5
863.903	-1.5
864.641	2.5
865.379	1.5
866.117	1.5
866.855	2.5
867.593	-0.5
868.33	0.5
869.068	0.5
869.806	-0.5
870.543	1.5
871.28	1.5
872.018	-0.5
872.755	0.5
873.492	1.5
874.229	2.5
874.967	3.5
875.703	2.5
876.44	-1.5
877.177	0.5
877.914	1.5
878.651	3.5
879.387	1.5
880.124	2.5
880.86	0.5
881.597	1.5
882.333	0.5
883.069	1.5
883.806	2.5
884.542	0.5
885.278	-0.5
886.014	3.5
886.749	1.5
887.485	2.5
888.221	1.5
888.957	-0.5
889.692	0.5
890.428	-0.5
891.163	-0.5
891.899	-0.5
892.634	2.5
893.369	-1.5
894.104	0.5
894.839	2.5
895.574	-1.5
896.309	0.5
897.044	0.5
897.779	1.5
898.514	0.5
899.248	-1.5
899.983	2.5
900.717	-1.5
901.452	1.5
902.186	-0.5
902.92	2.5
903.654	0.5
904.389	1.5
905.123	-1.5
905.857	-1.5
906.59	0.5
907.324	-1.5
908.058	0.5
908.792	-1.5
909.525	0.5
910.259	1.5
910.992	-0.5
911.726	-1.5
912.459	-1.5
913.192	-0.5
913.925	0.5
914.658	-0.5
915.391	3.5
916.124	-0.5
916.857	-0.5
917.59	-0.5
918.323	1.5
919.055	1.5
919.788	1.5
920.521	1.5
921.253	-0.5
921.985	1.5
922.718	-1.5
923.45	2.5
924.182	1.5
924.914	-0.5
925.646	0.5
926.378	0.5
927.11	-0.5
927.841	2.5
928.573	2.5
929.305	0.5
930.036	1.5
930.768	1.5
931.499	-1.5
932.23	2.5
932.962	1.5
933.693	0.5
934.424	1.5
935.155	-0.5
935.886	1.5
936.617	-0.5
937.348	-1.5
938.078	-0.5
938.809	1.5
939.54	-1.5
940.27	-1.5
941.001	2.5
941.731	-0.5
942.461	0.5
943.191	0.5
943.922	1.5
944.652	-1.5
945.382	0.5
946.112	-0.5
946.841	1.5
947.571	1.5
948.301	0.5
949.031	1.5
949.76	-0.5
950.49	-0.5
951.219	-1.5
951.948	0.5
952.678	-0.5
953.407	-0.5
954.136	2.5
954.865	-0.5
955.594	-0.5
956.323	1.5
957.052	-1.5
957.78	0.5
958.509	1.5
959.238	-0.5
959.966	-0.5
960.695	-0.5
961.423	-1.5
962.151	-1.5
962.88	0.5
963.608	-0.5
964.336	0.5
965.064	1.5
965.792	-1.5
966.52	1.5
967.247	0.5
967.975	2.5
968.703	-0.5
969.43	0.5
970.158	0.5
970.885	-0.5
971.613	-0.5
972.34	-0.5
973.067	0.5
973.794	2.5
974.521	-1.5
975.248	1.5
975.975	-0.5
976.702	1.5
977.429	-0.5
978.156	1.5
978.882	1.5
979.609	-1.5
980.335	-1.5
981.062	-0.5
981.788	2.5
982.514	1.5
983.24	0.5
983.967	0.5
984.693	0.5
985.419	1.5
986.144	-1.5
986.87	0.5
987.596	3.5
988.322	-1.5
989.047	-0.5
989.773	0.5
990.498	2.5
991.224	-1.5
991.949	-1.5
992.674	-1.5
993.399	-1.5
994.124	1.5
994.849	-1.5
995.574	1.5
996.299	-1.5
997.024	-0.5
997.749	0.5
998.473	1.5
999.198	-1.5
999.922	-0.5
1000.647	0.5
1001.371	3.5
1002.095	0.5
1002.82	-0.5
1003.544	0.5
1004.268	1.5
1004.992	-0.5
1005.716	2.5
1006.439	-1.5
1007.163	0.5
1007.887	-1.5
1008.611	0.5
1009.334	1.5
1010.058	0.5
1010.781	0.5
1011.504	3.5
1012.228	-1.5
1012.951	0.5
1013.674	-0.5
1014.397	-1.5
1015.12	-2.5
