节点500_145_QEPB04081__613__11-38-42-301.txt的数据

Date: Wed Nov 12 11:38:42 CST 2025
User: PC
Spectrometer: QEPB0408
触发模式: 0
积分时间 (秒): 1.000000E-2
Scans to average: 1
启用暗噪声校正: true
启用非线性校正: false
滑动平均宽度: 0
X轴模式: Wavelengths
Number of Pixels in Spectrum: 1044
>>>>>Begin Spectral Data<<<<<
220.843	1.75
221.644	-1.25
222.444	2.75
223.244	-1.25
224.045	0.75
224.845	-2.25
225.645	1.75
226.445	-0.25
227.245	1.75
228.045	1.75
228.845	1.75
229.645	1.75
230.444	0.75
231.244	0.75
232.043	3.75
232.843	0.75
233.642	0.75
234.442	1.75
235.241	-1.25
236.04	-0.25
236.839	1.75
237.638	1.75
238.437	0.75
239.236	1.75
240.035	0.75
240.833	2.75
241.632	0.75
242.43	1.75
243.229	1.75
244.027	1.75
244.826	4.75
245.624	2.75
246.422	0.75
247.22	0.75
248.018	3.75
248.816	1.75
249.614	3.75
250.412	1.75
251.21	1.75
252.007	2.75
252.805	1.75
253.602	3.75
254.4	2.75
255.197	1.75
255.994	1.75
256.791	2.75
257.589	0.75
258.386	1.75
259.183	6.75
259.979	4.75
260.776	2.75
261.573	3.75
262.37	4.75
263.166	4.75
263.963	3.75
264.759	7.75
265.556	7.75
266.352	3.75
267.148	6.75
267.944	5.75
268.74	5.75
269.536	8.75
270.332	7.75
271.128	6.75
271.924	6.75
272.719	6.75
273.515	6.75
274.311	9.75
275.106	6.75
275.901	8.75
276.697	9.75
277.492	8.75
278.287	9.75
279.082	7.75
279.877	8.75
280.672	8.75
281.467	9.75
282.262	8.75
283.056	9.75
283.851	8.75
284.646	6.75
285.44	9.75
286.234	8.75
287.029	11.75
287.823	9.75
288.617	12.75
289.411	9.75
290.205	10.75
290.999	9.75
291.793	8.75
292.587	8.75
293.381	9.75
294.174	8.75
294.968	10.75
295.761	7.75
296.555	10.75
297.348	8.75
298.141	9.75
298.935	7.75
299.728	8.75
300.521	7.75
301.314	7.75
302.107	7.75
302.899	6.75
303.692	9.75
304.485	7.75
305.277	7.75
306.07	5.75
306.862	8.75
307.655	9.75
308.447	6.75
309.239	8.75
310.031	4.75
310.823	7.75
311.615	6.75
312.407	5.75
313.199	8.75
313.991	3.75
314.783	7.75
315.574	5.75
316.366	5.75
317.157	5.75
317.949	4.75
318.74	5.75
319.531	5.75
320.322	4.75
321.113	5.75
321.904	4.75
322.695	5.75
323.486	3.75
324.277	4.75
325.068	2.75
325.858	4.75
326.649	4.75
327.439	3.75
328.23	4.75
329.02	2.75
329.81	3.75
330.6	4.75
331.391	6.75
332.181	3.75
332.971	0.75
333.76	4.75
334.55	3.75
335.34	2.75
336.13	3.75
336.919	3.75
337.709	3.75
338.498	4.75
339.287	3.75
340.077	3.75
340.866	5.75
341.655	5.75
342.444	2.75
343.233	1.75
344.022	3.75
344.811	4.75
345.6	2.75
346.388	5.75
347.177	3.75
347.965	4.75
348.754	3.75
349.542	3.75
350.33	2.75
351.119	2.75
351.907	3.75
352.695	2.75
353.483	1.75
354.271	2.75
355.059	1.75
355.846	3.75
356.634	2.75
357.422	3.75
358.209	1.75
358.997	3.75
359.784	3.75
360.571	2.75
361.359	3.75
362.146	2.75
362.933	2.75
363.72	2.75
364.507	2.75
365.294	3.75
366.081	2.75
366.867	1.75
367.654	3.75
368.44	3.75
369.227	3.75
370.013	1.75
370.8	3.75
371.586	2.75
372.372	2.75
373.158	3.75
373.944	4.75
374.73	4.75
375.516	3.75
376.302	1.75
377.088	1.75
377.873	0.75
378.659	3.75
379.445	4.75
380.23	0.75
381.015	1.75
381.801	2.75
382.586	3.75
383.371	2.75
384.156	5.75
384.941	2.75
385.726	3.75
386.511	1.75
387.296	3.75
388.08	0.75
388.865	5.75
389.649	0.75
390.434	4.75
391.218	1.75
392.003	3.75
392.787	3.75
393.571	2.75
394.355	3.75
395.139	3.75
395.923	2.75
396.707	1.75
397.491	3.75
398.274	5.75
399.058	1.75
399.842	4.75
400.625	5.75
401.408	2.75
402.192	3.75
402.975	3.75
403.758	3.75
404.541	2.75
405.324	3.75
406.107	1.75
406.89	2.75
407.673	4.75
408.456	3.75
409.238	3.75
410.021	4.75
410.803	4.75
411.586	3.75
412.368	7.75
413.151	4.75
413.933	5.75
414.715	3.75
415.497	5.75
416.279	5.75
417.061	3.75
417.843	4.75
418.624	5.75
419.406	4.75
420.188	5.75
420.969	3.75
421.751	4.75
422.532	5.75
423.313	5.75
424.095	5.75
424.876	5.75
425.657	7.75
426.438	7.75
427.219	6.75
428	5.75
428.78	4.75
429.561	7.75
430.342	4.75
431.122	11.75
431.903	7.75
432.683	9.75
433.464	10.75
434.244	7.75
435.024	6.75
435.804	7.75
436.584	8.75
437.364	9.75
438.144	11.75
438.924	10.75
439.704	9.75
440.483	12.75
441.263	13.75
442.042	14.75
442.822	15.75
443.601	15.75
444.38	16.75
445.16	16.75
445.939	18.75
446.718	19.75
447.497	19.75
448.276	20.75
449.054	23.75
449.833	23.75
450.612	26.75
451.391	31.75
452.169	30.75
452.948	33.75
453.726	36.75
454.504	40.75
455.282	46.75
456.061	49.75
456.839	57.75
457.617	60.75
458.395	64.75
459.172	76.75
459.95	85.75
460.728	94.75
461.506	101.75
462.283	109.75
463.061	125.75
463.838	142.75
464.615	153.75
465.393	170.75
466.17	187.75
466.947	217.75
467.724	242.75
468.501	263.75
469.278	287.75
470.055	321.75
470.831	357.75
471.608	394.75
472.385	436.75
473.161	483.75
473.938	536.75
474.714	601.75
475.49	657.75
476.266	717.75
477.043	798.75
477.819	881.75
478.595	958.75
479.371	1041.75
480.146	1166.75
480.922	1265.75
481.698	1376.75
482.473	1535.75
483.249	1664.75
484.024	1828.75
484.8	1978.75
485.575	2192.75
486.35	2369.75
487.126	2635.75
487.901	2868.75
488.676	3140.75
489.451	3451.75
490.225	3753.75
491	4085.75
491.775	4491.75
492.55	4868.75
493.324	5285.75
494.099	5745.75
494.873	6282.75
495.647	6779.75
496.422	7360.75
497.196	7921.75
497.97	8522.75
498.744	9191.75
499.518	9851.75
500.292	10488.75
501.066	11101.75
501.839	11737.75
502.613	12349.75
503.387	12947.75
504.16	13485.75
504.934	13981.75
505.707	14358.75
506.48	14742.75
507.253	14976.75
508.027	15141.75
508.8	15249.75
509.573	15210.75
510.346	15141.75
511.118	14946.75
511.891	14691.75
512.664	14353.75
513.437	13923.75
514.209	13614.75
514.982	13123.75
515.754	12621.75
516.526	12164.75
517.298	11630.75
518.071	11213.75
518.843	10723.75
519.615	10237.75
520.387	9817.75
521.159	9426.75
521.93	9088.75
522.702	8715.75
523.474	8390.75
524.245	8048.75
525.017	7735.75
525.788	7420.75
526.56	7099.75
527.331	6808.75
528.102	6531.75
528.873	6259.75
529.644	6004.75
530.415	5750.75
531.186	5476.75
531.957	5222.75
532.728	4992.75
533.498	4700.75
534.269	4481.75
535.039	4259.75
535.81	4010.75
536.58	3799.75
537.351	3608.75
538.121	3419.75
538.891	3206.75
539.661	3049.75
540.431	2869.75
541.201	2739.75
541.971	2583.75
542.741	2432.75
543.51	2318.75
544.28	2201.75
545.05	2090.75
545.819	1992.75
546.588	1899.75
547.358	1806.75
548.127	1709.75
548.896	1621.75
549.665	1546.75
550.434	1460.75
551.203	1403.75
551.972	1330.75
552.741	1260.75
553.51	1192.75
554.278	1131.75
555.047	1079.75
555.815	1008.75
556.584	949.75
557.352	884.75
558.121	848.75
558.889	801.75
559.657	754.75
560.425	713.75
561.193	679.75
561.961	643.75
562.729	603.75
563.496	560.75
564.264	537.75
565.032	503.75
565.799	480.75
566.567	449.75
567.334	423.75
568.101	402.75
568.869	373.75
569.636	352.75
570.403	329.75
571.17	317.75
571.937	304.75
572.704	276.75
573.471	267.75
574.237	253.75
575.004	236.75
575.771	219.75
576.537	210.75
577.303	197.75
578.07	183.75
578.836	174.75
579.602	164.75
580.368	153.75
581.134	148.75
581.9	140.75
582.666	135.75
583.432	120.75
584.198	120.75
584.964	108.75
585.729	108.75
586.495	105.75
587.26	94.75
588.025	89.75
588.791	83.75
589.556	79.75
590.321	75.75
591.086	67.75
591.851	62.75
592.616	65.75
593.381	63.75
594.146	59.75
594.911	58.75
595.675	49.75
596.44	47.75
597.204	46.75
597.969	45.75
598.733	43.75
599.497	42.75
600.261	39.75
601.025	37.75
601.79	35.75
602.553	36.75
603.317	33.75
604.081	32.75
604.845	32.75
605.609	29.75
606.372	25.75
607.136	26.75
607.899	27.75
608.662	23.75
609.426	22.75
610.189	21.75
610.952	21.75
611.715	21.75
612.478	20.75
613.241	20.75
614.004	18.75
614.767	17.75
615.529	19.75
616.292	16.75
617.055	16.75
617.817	15.75
618.579	13.75
619.342	15.75
620.104	11.75
620.866	12.75
621.628	15.75
622.39	9.75
623.152	11.75
623.914	11.75
624.676	11.75
625.438	11.75
626.199	7.75
626.961	9.75
627.722	8.75
628.484	9.75
629.245	9.75
630.006	10.75
630.768	6.75
631.529	7.75
632.29	8.75
633.051	5.75
633.812	6.75
634.573	7.75
635.333	7.75
636.094	9.75
636.855	6.75
637.615	6.75
638.376	3.75
639.136	7.75
639.896	4.75
640.657	8.75
641.417	2.75
642.177	5.75
642.937	6.75
643.697	6.75
644.457	5.75
645.216	5.75
645.976	7.75
646.736	5.75
647.495	1.75
648.255	4.75
649.014	2.75
649.774	4.75
650.533	4.75
651.292	2.75
652.051	5.75
652.81	2.75
653.569	1.75
654.328	3.75
655.087	4.75
655.846	3.75
656.604	3.75
657.363	6.75
658.121	2.75
658.88	4.75
659.638	3.75
660.397	2.75
661.155	3.75
661.913	2.75
662.671	2.75
663.429	1.75
664.187	2.75
664.945	3.75
665.703	0.75
666.46	3.75
667.218	2.75
667.976	1.75
668.733	3.75
669.49	2.75
670.248	0.75
671.005	3.75
671.762	2.75
672.519	2.75
673.276	4.75
674.033	3.75
674.79	3.75
675.547	2.75
676.304	1.75
677.06	3.75
677.817	1.75
678.574	3.75
679.33	3.75
680.086	2.75
680.843	0.75
681.599	2.75
682.355	0.75
683.111	1.75
683.867	2.75
684.623	2.75
685.379	1.75
686.135	0.75
686.89	2.75
687.646	2.75
688.402	1.75
689.157	0.75
689.912	-0.25
690.668	0.75
691.423	2.75
692.178	1.75
692.933	1.75
693.688	1.75
694.443	4.75
695.198	0.75
695.953	1.75
696.708	3.75
697.462	0.75
698.217	1.75
698.972	1.75
699.726	2.75
700.48	-1.25
701.235	2.75
701.989	2.75
702.743	3.75
703.497	0.75
704.251	0.75
705.005	2.75
705.759	3.75
706.513	1.75
707.266	2.75
708.02	0.75
708.774	1.75
709.527	1.75
710.28	2.75
711.034	2.75
711.787	1.75
712.54	2.75
713.293	0.75
714.046	3.75
714.799	1.75
715.552	3.75
716.305	2.75
717.058	3.75
717.81	3.75
718.563	3.75
719.315	2.75
720.068	1.75
720.82	0.75
721.573	0.75
722.325	0.75
723.077	3.75
723.829	1.75
724.581	-0.25
725.333	1.75
726.085	1.75
726.836	3.75
727.588	2.75
728.34	-0.25
729.091	2.75
729.843	2.75
730.594	1.75
731.346	2.75
732.097	1.75
732.848	2.75
733.599	3.75
734.35	2.75
735.101	-0.25
735.852	2.75
736.603	3.75
737.354	2.75
738.104	0.75
738.855	0.75
739.605	0.75
740.356	4.75
741.106	1.75
741.856	1.75
742.607	4.75
743.357	3.75
744.107	2.75
744.857	-1.25
745.607	1.75
746.357	1.75
747.106	4.75
747.856	2.75
748.606	1.75
749.355	3.75
750.105	0.75
750.854	3.75
751.603	0.75
752.353	2.75
753.102	1.75
753.851	0.75
754.6	3.75
755.349	2.75
756.098	3.75
756.847	5.75
757.595	1.75
758.344	1.75
759.093	4.75
759.841	3.75
760.589	1.75
761.338	3.75
762.086	5.75
762.834	3.75
763.582	4.75
764.331	2.75
765.079	4.75
765.826	2.75
766.574	3.75
767.322	2.75
768.07	4.75
768.817	4.75
769.565	3.75
770.312	4.75
771.06	1.75
771.807	5.75
772.554	4.75
773.302	2.75
774.049	3.75
774.796	3.75
775.543	1.75
776.29	7.75
777.036	4.75
777.783	2.75
778.53	2.75
779.276	2.75
780.023	2.75
780.769	3.75
781.516	5.75
782.262	4.75
783.008	4.75
783.754	2.75
784.5	4.75
785.246	6.75
785.992	1.75
786.738	6.75
787.484	5.75
788.23	3.75
788.975	3.75
789.721	6.75
790.466	2.75
791.212	5.75
791.957	4.75
792.702	3.75
793.447	4.75
794.193	3.75
794.938	2.75
795.683	2.75
796.427	4.75
797.172	3.75
797.917	4.75
798.662	5.75
799.406	2.75
800.151	4.75
800.895	3.75
801.64	5.75
802.384	4.75
803.128	5.75
803.872	2.75
804.616	3.75
805.36	4.75
806.104	3.75
806.848	4.75
807.592	3.75
808.336	2.75
809.079	3.75
809.823	3.75
810.566	4.75
811.31	4.75
812.053	2.75
812.796	3.75
813.539	4.75
814.283	3.75
815.026	2.75
815.769	2.75
816.511	5.75
817.254	3.75
817.997	2.75
818.74	3.75
819.482	2.75
820.225	1.75
820.967	4.75
821.71	2.75
822.452	1.75
823.194	2.75
823.936	2.75
824.678	2.75
825.42	2.75
826.162	2.75
826.904	1.75
827.646	4.75
828.388	2.75
829.129	3.75
829.871	3.75
830.612	2.75
831.354	1.75
832.095	3.75
832.836	1.75
833.577	2.75
834.319	4.75
835.06	0.75
835.801	2.75
836.542	3.75
837.282	2.75
838.023	1.75
838.764	4.75
839.504	-0.25
840.245	2.75
840.985	1.75
841.726	4.75
842.466	-0.25
843.206	1.75
843.946	2.75
844.687	1.75
845.427	2.75
846.166	2.75
846.906	2.75
847.646	4.75
848.386	3.75
849.125	2.75
849.865	1.75
850.605	2.75
851.344	1.75
852.083	5.75
852.823	2.75
853.562	1.75
854.301	2.75
855.04	2.75
855.779	4.75
856.518	0.75
857.257	1.75
857.995	2.75
858.734	1.75
859.473	0.75
860.211	1.75
860.95	2.75
861.688	0.75
862.426	2.75
863.165	-0.25
863.903	1.75
864.641	1.75
865.379	0.75
866.117	2.75
866.855	-2.25
867.593	0.75
868.33	2.75
869.068	-0.25
869.806	2.75
870.543	0.75
871.28	2.75
872.018	0.75
872.755	0.75
873.492	1.75
874.229	-0.25
874.967	0.75
875.703	-1.25
876.44	2.75
877.177	1.75
877.914	1.75
878.651	1.75
879.387	3.75
880.124	1.75
880.86	0.75
881.597	0.75
882.333	-1.25
883.069	2.75
883.806	0.75
884.542	1.75
885.278	-0.25
886.014	-1.25
886.749	-1.25
887.485	0.75
888.221	0.75
888.957	0.75
889.692	1.75
890.428	-0.25
891.163	-0.25
891.899	1.75
892.634	1.75
893.369	0.75
894.104	-1.25
894.839	2.75
895.574	1.75
896.309	-1.25
897.044	3.75
897.779	-1.25
898.514	1.75
899.248	0.75
899.983	-0.25
900.717	1.75
901.452	1.75
902.186	0.75
902.92	0.75
903.654	1.75
904.389	0.75
905.123	-0.25
905.857	1.75
906.59	0.75
907.324	0.75
908.058	1.75
908.792	0.75
909.525	-0.25
910.259	0.75
910.992	2.75
911.726	0.75
912.459	0.75
913.192	-1.25
913.925	1.75
914.658	1.75
915.391	-0.25
916.124	1.75
916.857	1.75
917.59	-0.25
918.323	1.75
919.055	-0.25
919.788	2.75
920.521	0.75
921.253	2.75
921.985	-0.25
922.718	0.75
923.45	0.75
924.182	-0.25
924.914	0.75
925.646	-0.25
926.378	1.75
927.11	-1.25
927.841	1.75
928.573	-1.25
929.305	1.75
930.036	1.75
930.768	-0.25
931.499	1.75
932.23	-1.25
932.962	0.75
933.693	-1.25
934.424	1.75
935.155	0.75
935.886	1.75
936.617	1.75
937.348	-2.25
938.078	2.75
938.809	-0.25
939.54	-1.25
940.27	0.75
941.001	-2.25
941.731	0.75
942.461	0.75
943.191	1.75
943.922	2.75
944.652	-1.25
945.382	-0.25
946.112	0.75
946.841	-0.25
947.571	-1.25
948.301	-3.25
949.031	0.75
949.76	0.75
950.49	1.75
951.219	-1.25
951.948	1.75
952.678	-2.25
953.407	2.75
954.136	-0.25
954.865	-0.25
955.594	0.75
956.323	-1.25
957.052	1.75
957.78	-1.25
958.509	1.75
959.238	0.75
959.966	1.75
960.695	0.75
961.423	0.75
962.151	1.75
962.88	-1.25
963.608	3.75
964.336	-0.25
965.064	0.75
965.792	-1.25
966.52	-2.25
967.247	0.75
967.975	0.75
968.703	1.75
969.43	-1.25
970.158	-0.25
970.885	-0.25
971.613	-1.25
972.34	1.75
973.067	1.75
973.794	1.75
974.521	-0.25
975.248	2.75
975.975	-1.25
976.702	-1.25
977.429	0.75
978.156	1.75
978.882	1.75
979.609	1.75
980.335	-0.25
981.062	1.75
981.788	1.75
982.514	1.75
983.24	-0.25
983.967	-0.25
984.693	2.75
985.419	-1.25
986.144	0.75
986.87	0.75
987.596	-0.25
988.322	-0.25
989.047	-0.25
989.773	-0.25
990.498	-1.25
991.224	-1.25
991.949	0.75
992.674	1.75
993.399	0.75
994.124	0.75
994.849	2.75
995.574	-0.25
996.299	1.75
997.024	0.75
997.749	1.75
998.473	0.75
999.198	1.75
999.922	-0.25
1000.647	-0.25
1001.371	3.75
1002.095	-3.25
1002.82	-0.25
1003.544	-2.25
1004.268	-1.25
1004.992	-0.25
1005.716	-0.25
1006.439	0.75
1007.163	1.75
1007.887	0.75
1008.611	0.75
1009.334	1.75
1010.058	2.75
1010.781	-1.25
1011.504	1.75
1012.228	1.75
1012.951	1.75
1013.674	1.75
1014.397	-1.25
1015.12	-0.25
