节点500_145_QEPB04081__90__11-30-24-612.txt的数据

Date: Wed Nov 12 11:30:24 CST 2025
User: PC
Spectrometer: QEPB0408
触发模式: 0
积分时间 (秒): 1.000000E-2
Scans to average: 1
启用暗噪声校正: true
启用非线性校正: false
滑动平均宽度: 0
X轴模式: Wavelengths
Number of Pixels in Spectrum: 1044
>>>>>Begin Spectral Data<<<<<
220.843	0.75
221.644	-0.25
222.444	0.75
223.244	-0.25
224.045	2.75
224.845	-0.25
225.645	1.75
226.445	-0.25
227.245	-1.25
228.045	1.75
228.845	-1.25
229.645	1.75
230.444	-0.25
231.244	1.75
232.043	0.75
232.843	-1.25
233.642	2.75
234.442	1.75
235.241	1.75
236.04	1.75
236.839	1.75
237.638	1.75
238.437	3.75
239.236	2.75
240.035	0.75
240.833	3.75
241.632	1.75
242.43	1.75
243.229	3.75
244.027	1.75
244.826	1.75
245.624	2.75
246.422	2.75
247.22	1.75
248.018	1.75
248.816	3.75
249.614	1.75
250.412	2.75
251.21	0.75
252.007	3.75
252.805	1.75
253.602	3.75
254.4	4.75
255.197	0.75
255.994	2.75
256.791	4.75
257.589	2.75
258.386	4.75
259.183	1.75
259.979	6.75
260.776	4.75
261.573	5.75
262.37	4.75
263.166	5.75
263.963	7.75
264.759	4.75
265.556	4.75
266.352	5.75
267.148	7.75
267.944	7.75
268.74	6.75
269.536	9.75
270.332	8.75
271.128	8.75
271.924	7.75
272.719	7.75
273.515	9.75
274.311	9.75
275.106	7.75
275.901	12.75
276.697	9.75
277.492	11.75
278.287	10.75
279.082	10.75
279.877	10.75
280.672	11.75
281.467	10.75
282.262	10.75
283.056	13.75
283.851	11.75
284.646	11.75
285.44	10.75
286.234	12.75
287.029	10.75
287.823	12.75
288.617	9.75
289.411	10.75
290.205	14.75
290.999	9.75
291.793	12.75
292.587	10.75
293.381	10.75
294.174	13.75
294.968	11.75
295.761	11.75
296.555	10.75
297.348	11.75
298.141	10.75
298.935	10.75
299.728	9.75
300.521	10.75
301.314	8.75
302.107	7.75
302.899	9.75
303.692	7.75
304.485	8.75
305.277	6.75
306.07	8.75
306.862	7.75
307.655	9.75
308.447	9.75
309.239	8.75
310.031	5.75
310.823	7.75
311.615	8.75
312.407	7.75
313.199	5.75
313.991	5.75
314.783	6.75
315.574	6.75
316.366	6.75
317.157	5.75
317.949	3.75
318.74	5.75
319.531	2.75
320.322	5.75
321.113	5.75
321.904	7.75
322.695	5.75
323.486	6.75
324.277	5.75
325.068	5.75
325.858	4.75
326.649	5.75
327.439	5.75
328.23	6.75
329.02	5.75
329.81	3.75
330.6	5.75
331.391	3.75
332.181	3.75
332.971	5.75
333.76	4.75
334.55	3.75
335.34	1.75
336.13	4.75
336.919	5.75
337.709	4.75
338.498	2.75
339.287	3.75
340.077	5.75
340.866	0.75
341.655	2.75
342.444	5.75
343.233	3.75
344.022	6.75
344.811	3.75
345.6	2.75
346.388	4.75
347.177	6.75
347.965	3.75
348.754	5.75
349.542	4.75
350.33	1.75
351.119	4.75
351.907	4.75
352.695	2.75
353.483	2.75
354.271	5.75
355.059	3.75
355.846	3.75
356.634	4.75
357.422	0.75
358.209	2.75
358.997	3.75
359.784	2.75
360.571	1.75
361.359	3.75
362.146	4.75
362.933	3.75
363.72	2.75
364.507	3.75
365.294	2.75
366.081	5.75
366.867	2.75
367.654	2.75
368.44	1.75
369.227	4.75
370.013	2.75
370.8	1.75
371.586	1.75
372.372	2.75
373.158	4.75
373.944	5.75
374.73	3.75
375.516	3.75
376.302	2.75
377.088	1.75
377.873	3.75
378.659	5.75
379.445	2.75
380.23	2.75
381.015	1.75
381.801	2.75
382.586	2.75
383.371	2.75
384.156	4.75
384.941	2.75
385.726	5.75
386.511	4.75
387.296	3.75
388.08	5.75
388.865	3.75
389.649	5.75
390.434	2.75
391.218	5.75
392.003	2.75
392.787	2.75
393.571	3.75
394.355	3.75
395.139	4.75
395.923	4.75
396.707	3.75
397.491	5.75
398.274	4.75
399.058	5.75
399.842	2.75
400.625	4.75
401.408	3.75
402.192	4.75
402.975	3.75
403.758	5.75
404.541	7.75
405.324	4.75
406.107	5.75
406.89	5.75
407.673	4.75
408.456	6.75
409.238	4.75
410.021	3.75
410.803	5.75
411.586	4.75
412.368	5.75
413.151	4.75
413.933	4.75
414.715	2.75
415.497	4.75
416.279	7.75
417.061	5.75
417.843	5.75
418.624	5.75
419.406	5.75
420.188	5.75
420.969	6.75
421.751	5.75
422.532	8.75
423.313	5.75
424.095	5.75
424.876	6.75
425.657	9.75
426.438	9.75
427.219	7.75
428	7.75
428.78	8.75
429.561	7.75
430.342	8.75
431.122	7.75
431.903	9.75
432.683	9.75
433.464	8.75
434.244	9.75
435.024	9.75
435.804	12.75
436.584	10.75
437.364	11.75
438.144	14.75
438.924	10.75
439.704	10.75
440.483	10.75
441.263	10.75
442.042	12.75
442.822	13.75
443.601	15.75
444.38	15.75
445.16	15.75
445.939	13.75
446.718	18.75
447.497	18.75
448.276	18.75
449.054	21.75
449.833	21.75
450.612	22.75
451.391	26.75
452.169	29.75
452.948	30.75
453.726	30.75
454.504	35.75
455.282	40.75
456.061	42.75
456.839	45.75
457.617	52.75
458.395	58.75
459.172	60.75
459.95	72.75
460.728	73.75
461.506	84.75
462.283	92.75
463.061	103.75
463.838	115.75
464.615	131.75
465.393	146.75
466.17	163.75
466.947	181.75
467.724	199.75
468.501	223.75
469.278	249.75
470.055	285.75
470.831	317.75
471.608	356.75
472.385	391.75
473.161	441.75
473.938	482.75
474.714	546.75
475.49	601.75
476.266	675.75
477.043	747.75
477.819	836.75
478.595	919.75
479.371	1023.75
480.146	1119.75
480.922	1253.75
481.698	1384.75
482.473	1552.75
483.249	1740.75
484.024	1923.75
484.8	2100.75
485.575	2343.75
486.35	2591.75
487.126	2886.75
487.901	3179.75
488.676	3528.75
489.451	3915.75
490.225	4323.75
491	4746.75
491.775	5254.75
492.55	5769.75
493.324	6359.75
494.099	6991.75
494.873	7661.75
495.647	8359.75
496.422	9077.75
497.196	9866.75
497.97	10706.75
498.744	11481.75
499.518	12284.75
500.292	13069.75
501.066	13883.75
501.839	14614.75
502.613	15299.75
503.387	15883.75
504.16	16449.75
504.934	16812.75
505.707	17201.75
506.48	17335.75
507.253	17378.75
508.027	17357.75
508.8	17243.75
509.573	16971.75
510.346	16582.75
511.118	16133.75
511.891	15631.75
512.664	15044.75
513.437	14462.75
514.209	13876.75
514.982	13258.75
515.754	12665.75
516.526	12088.75
517.298	11508.75
518.071	10944.75
518.843	10535.75
519.615	10113.75
520.387	9658.75
521.159	9259.75
521.93	8883.75
522.702	8579.75
523.474	8266.75
524.245	7934.75
525.017	7580.75
525.788	7256.75
526.56	6991.75
527.331	6666.75
528.102	6359.75
528.873	6103.75
529.644	5779.75
530.415	5519.75
531.186	5235.75
531.957	4959.75
532.728	4707.75
533.498	4446.75
534.269	4193.75
535.039	3943.75
535.81	3732.75
536.58	3511.75
537.351	3316.75
538.121	3149.75
538.891	2938.75
539.661	2794.75
540.431	2646.75
541.201	2517.75
541.971	2377.75
542.741	2232.75
543.51	2141.75
544.28	2033.75
545.05	1929.75
545.819	1837.75
546.588	1746.75
547.358	1677.75
548.127	1567.75
548.896	1487.75
549.665	1422.75
550.434	1352.75
551.203	1271.75
551.972	1203.75
552.741	1142.75
553.51	1081.75
554.278	1023.75
555.047	947.75
555.815	911.75
556.584	855.75
557.352	812.75
558.121	762.75
558.889	711.75
559.657	666.75
560.425	633.75
561.193	602.75
561.961	564.75
562.729	533.75
563.496	504.75
564.264	466.75
565.032	436.75
565.799	418.75
566.567	402.75
567.334	370.75
568.101	355.75
568.869	334.75
569.636	315.75
570.403	291.75
571.17	285.75
571.937	263.75
572.704	248.75
573.471	237.75
574.237	224.75
575.004	206.75
575.771	201.75
576.537	186.75
577.303	171.75
578.07	166.75
578.836	153.75
579.602	141.75
580.368	138.75
581.134	132.75
581.9	122.75
582.666	114.75
583.432	112.75
584.198	108.75
584.964	97.75
585.729	94.75
586.495	87.75
587.26	82.75
588.025	75.75
588.791	77.75
589.556	70.75
590.321	61.75
591.086	64.75
591.851	58.75
592.616	56.75
593.381	53.75
594.146	51.75
594.911	48.75
595.675	47.75
596.44	45.75
597.204	40.75
597.969	42.75
598.733	35.75
599.497	37.75
600.261	38.75
601.025	34.75
601.79	30.75
602.553	33.75
603.317	31.75
604.081	28.75
604.845	25.75
605.609	27.75
606.372	28.75
607.136	24.75
607.899	17.75
608.662	19.75
609.426	19.75
610.189	19.75
610.952	15.75
611.715	16.75
612.478	16.75
613.241	16.75
614.004	16.75
614.767	16.75
615.529	18.75
616.292	15.75
617.055	15.75
617.817	13.75
618.579	11.75
619.342	14.75
620.104	13.75
620.866	14.75
621.628	12.75
622.39	10.75
623.152	9.75
623.914	9.75
624.676	10.75
625.438	12.75
626.199	10.75
626.961	10.75
627.722	9.75
628.484	9.75
629.245	7.75
630.006	9.75
630.768	8.75
631.529	7.75
632.29	8.75
633.051	5.75
633.812	6.75
634.573	5.75
635.333	6.75
636.094	8.75
636.855	5.75
637.615	7.75
638.376	5.75
639.136	6.75
639.896	4.75
640.657	5.75
641.417	4.75
642.177	4.75
642.937	5.75
643.697	4.75
644.457	6.75
645.216	6.75
645.976	5.75
646.736	5.75
647.495	5.75
648.255	4.75
649.014	4.75
649.774	4.75
650.533	3.75
651.292	3.75
652.051	5.75
652.81	3.75
653.569	6.75
654.328	3.75
655.087	5.75
655.846	2.75
656.604	3.75
657.363	2.75
658.121	3.75
658.88	4.75
659.638	2.75
660.397	4.75
661.155	4.75
661.913	4.75
662.671	2.75
663.429	4.75
664.187	2.75
664.945	1.75
665.703	5.75
666.46	2.75
667.218	2.75
667.976	4.75
668.733	5.75
669.49	4.75
670.248	1.75
671.005	6.75
671.762	0.75
672.519	5.75
673.276	4.75
674.033	4.75
674.79	4.75
675.547	4.75
676.304	2.75
677.06	2.75
677.817	2.75
678.574	3.75
679.33	0.75
680.086	1.75
680.843	3.75
681.599	2.75
682.355	4.75
683.111	1.75
683.867	2.75
684.623	2.75
685.379	5.75
686.135	4.75
686.89	1.75
687.646	2.75
688.402	-1.25
689.157	0.75
689.912	1.75
690.668	2.75
691.423	0.75
692.178	2.75
692.933	1.75
693.688	4.75
694.443	2.75
695.198	2.75
695.953	0.75
696.708	2.75
697.462	1.75
698.217	0.75
698.972	2.75
699.726	-0.25
700.48	1.75
701.235	2.75
701.989	2.75
702.743	3.75
703.497	3.75
704.251	2.75
705.005	1.75
705.759	-1.25
706.513	2.75
707.266	2.75
708.02	2.75
708.774	0.75
709.527	2.75
710.28	0.75
711.034	3.75
711.787	2.75
712.54	3.75
713.293	1.75
714.046	1.75
714.799	1.75
715.552	4.75
716.305	0.75
717.058	3.75
717.81	2.75
718.563	1.75
719.315	2.75
720.068	0.75
720.82	2.75
721.573	2.75
722.325	3.75
723.077	1.75
723.829	1.75
724.581	3.75
725.333	-0.25
726.085	1.75
726.836	1.75
727.588	2.75
728.34	1.75
729.091	2.75
729.843	2.75
730.594	1.75
731.346	2.75
732.097	2.75
732.848	4.75
733.599	1.75
734.35	1.75
735.101	2.75
735.852	2.75
736.603	2.75
737.354	1.75
738.104	1.75
738.855	2.75
739.605	2.75
740.356	3.75
741.106	1.75
741.856	3.75
742.607	1.75
743.357	1.75
744.107	3.75
744.857	4.75
745.607	3.75
746.357	1.75
747.106	2.75
747.856	4.75
748.606	2.75
749.355	3.75
750.105	2.75
750.854	2.75
751.603	2.75
752.353	1.75
753.102	2.75
753.851	1.75
754.6	5.75
755.349	2.75
756.098	2.75
756.847	4.75
757.595	2.75
758.344	4.75
759.093	3.75
759.841	5.75
760.589	0.75
761.338	2.75
762.086	3.75
762.834	4.75
763.582	6.75
764.331	3.75
765.079	5.75
765.826	4.75
766.574	4.75
767.322	5.75
768.07	5.75
768.817	4.75
769.565	5.75
770.312	5.75
771.06	4.75
771.807	4.75
772.554	3.75
773.302	4.75
774.049	5.75
774.796	1.75
775.543	5.75
776.29	6.75
777.036	2.75
777.783	6.75
778.53	6.75
779.276	5.75
780.023	5.75
780.769	7.75
781.516	4.75
782.262	4.75
783.008	4.75
783.754	2.75
784.5	7.75
785.246	3.75
785.992	6.75
786.738	6.75
787.484	5.75
788.23	5.75
788.975	6.75
789.721	7.75
790.466	5.75
791.212	2.75
791.957	6.75
792.702	4.75
793.447	5.75
794.193	6.75
794.938	5.75
795.683	5.75
796.427	4.75
797.172	4.75
797.917	3.75
798.662	5.75
799.406	2.75
800.151	5.75
800.895	6.75
801.64	6.75
802.384	6.75
803.128	5.75
803.872	3.75
804.616	4.75
805.36	7.75
806.104	2.75
806.848	5.75
807.592	5.75
808.336	1.75
809.079	5.75
809.823	3.75
810.566	4.75
811.31	5.75
812.053	4.75
812.796	3.75
813.539	4.75
814.283	3.75
815.026	2.75
815.769	6.75
816.511	4.75
817.254	4.75
817.997	4.75
818.74	4.75
819.482	3.75
820.225	4.75
820.967	4.75
821.71	3.75
822.452	3.75
823.194	2.75
823.936	3.75
824.678	1.75
825.42	3.75
826.162	2.75
826.904	1.75
827.646	1.75
828.388	2.75
829.129	1.75
829.871	2.75
830.612	2.75
831.354	2.75
832.095	1.75
832.836	2.75
833.577	0.75
834.319	0.75
835.06	3.75
835.801	1.75
836.542	1.75
837.282	3.75
838.023	3.75
838.764	2.75
839.504	3.75
840.245	2.75
840.985	3.75
841.726	1.75
842.466	3.75
843.206	2.75
843.946	0.75
844.687	0.75
845.427	2.75
846.166	3.75
846.906	2.75
847.646	2.75
848.386	1.75
849.125	1.75
849.865	0.75
850.605	2.75
851.344	3.75
852.083	0.75
852.823	4.75
853.562	1.75
854.301	3.75
855.04	2.75
855.779	2.75
856.518	1.75
857.257	1.75
857.995	0.75
858.734	1.75
859.473	1.75
860.211	3.75
860.95	2.75
861.688	1.75
862.426	1.75
863.165	1.75
863.903	-0.25
864.641	1.75
865.379	-0.25
866.117	0.75
866.855	1.75
867.593	-0.25
868.33	1.75
869.068	0.75
869.806	1.75
870.543	0.75
871.28	-0.25
872.018	1.75
872.755	0.75
873.492	1.75
874.229	1.75
874.967	0.75
875.703	-0.25
876.44	-0.25
877.177	-0.25
877.914	0.75
878.651	-1.25
879.387	1.75
880.124	0.75
880.86	3.75
881.597	1.75
882.333	1.75
883.069	1.75
883.806	0.75
884.542	0.75
885.278	2.75
886.014	0.75
886.749	1.75
887.485	1.75
888.221	1.75
888.957	1.75
889.692	0.75
890.428	1.75
891.163	0.75
891.899	-0.25
892.634	1.75
893.369	-0.25
894.104	0.75
894.839	-0.25
895.574	2.75
896.309	0.75
897.044	3.75
897.779	0.75
898.514	-0.25
899.248	-0.25
899.983	1.75
900.717	1.75
901.452	1.75
902.186	-0.25
902.92	-0.25
903.654	-0.25
904.389	-0.25
905.123	-0.25
905.857	-1.25
906.59	2.75
907.324	-0.25
908.058	1.75
908.792	1.75
909.525	-1.25
910.259	1.75
910.992	-0.25
911.726	-0.25
912.459	-2.25
913.192	1.75
913.925	0.75
914.658	-1.25
915.391	0.75
916.124	1.75
916.857	0.75
917.59	1.75
918.323	0.75
919.055	3.75
919.788	-0.25
920.521	0.75
921.253	0.75
921.985	2.75
922.718	1.75
923.45	0.75
924.182	1.75
924.914	-1.25
925.646	1.75
926.378	1.75
927.11	-0.25
927.841	0.75
928.573	-0.25
929.305	1.75
930.036	3.75
930.768	2.75
931.499	2.75
932.23	0.75
932.962	0.75
933.693	1.75
934.424	1.75
935.155	1.75
935.886	1.75
936.617	-1.25
937.348	1.75
938.078	0.75
938.809	2.75
939.54	1.75
940.27	-1.25
941.001	0.75
941.731	0.75
942.461	0.75
943.191	0.75
943.922	1.75
944.652	1.75
945.382	0.75
946.112	-0.25
946.841	-1.25
947.571	0.75
948.301	1.75
949.031	1.75
949.76	3.75
950.49	1.75
951.219	1.75
951.948	-1.25
952.678	0.75
953.407	2.75
954.136	2.75
954.865	0.75
955.594	0.75
956.323	0.75
957.052	-0.25
957.78	-0.25
958.509	-0.25
959.238	-0.25
959.966	-0.25
960.695	0.75
961.423	0.75
962.151	-1.25
962.88	0.75
963.608	0.75
964.336	-1.25
965.064	-0.25
965.792	2.75
966.52	1.75
967.247	-0.25
967.975	-0.25
968.703	-0.25
969.43	1.75
970.158	-1.25
970.885	0.75
971.613	1.75
972.34	0.75
973.067	1.75
973.794	-0.25
974.521	1.75
975.248	-1.25
975.975	-0.25
976.702	-0.25
977.429	-0.25
978.156	0.75
978.882	2.75
979.609	1.75
980.335	-1.25
981.062	-0.25
981.788	2.75
982.514	0.75
983.24	1.75
983.967	1.75
984.693	2.75
985.419	-0.25
986.144	-1.25
986.87	0.75
987.596	0.75
988.322	0.75
989.047	0.75
989.773	-2.25
990.498	0.75
991.224	-0.25
991.949	2.75
992.674	-1.25
993.399	0.75
994.124	0.75
994.849	-1.25
995.574	2.75
996.299	-1.25
997.024	0.75
997.749	0.75
998.473	0.75
999.198	0.75
999.922	-1.25
1000.647	1.75
1001.371	2.75
1002.095	-2.25
1002.82	0.75
1003.544	-2.25
1004.268	2.75
1004.992	0.75
1005.716	-0.25
1006.439	0.75
1007.163	-2.25
1007.887	0.75
1008.611	0.75
1009.334	0.75
1010.058	-1.25
1010.781	0.75
1011.504	0.75
1012.228	-0.25
1012.951	-1.25
1013.674	0.75
1014.397	0.75
1015.12	0.75
