节点500_145_QEPB04081__117__11-30-49-597.txt的数据

Date: Wed Nov 12 11:30:49 CST 2025
User: PC
Spectrometer: QEPB0408
触发模式: 0
积分时间 (秒): 1.000000E-2
Scans to average: 1
启用暗噪声校正: true
启用非线性校正: false
滑动平均宽度: 0
X轴模式: Wavelengths
Number of Pixels in Spectrum: 1044
>>>>>Begin Spectral Data<<<<<
220.843	-1
221.644	4
222.444	-1
223.244	1
224.045	-1
224.845	0
225.645	-2
226.445	-2
227.245	1
228.045	0
228.845	2
229.645	1
230.444	2
231.244	0
232.043	-1
232.843	1
233.642	0
234.442	0
235.241	0
236.04	1
236.839	1
237.638	1
238.437	0
239.236	1
240.035	0
240.833	0
241.632	5
242.43	1
243.229	3
244.027	2
244.826	2
245.624	2
246.422	3
247.22	2
248.018	4
248.816	2
249.614	0
250.412	3
251.21	2
252.007	2
252.805	2
253.602	3
254.4	4
255.197	4
255.994	1
256.791	7
257.589	8
258.386	3
259.183	4
259.979	5
260.776	7
261.573	6
262.37	5
263.166	5
263.963	5
264.759	6
265.556	7
266.352	9
267.148	6
267.944	7
268.74	7
269.536	11
270.332	8
271.128	7
271.924	8
272.719	8
273.515	10
274.311	10
275.106	9
275.901	5
276.697	9
277.492	9
278.287	11
279.082	10
279.877	11
280.672	12
281.467	10
282.262	9
283.056	11
283.851	10
284.646	12
285.44	10
286.234	13
287.029	13
287.823	13
288.617	14
289.411	12
290.205	13
290.999	10
291.793	9
292.587	11
293.381	13
294.174	10
294.968	13
295.761	10
296.555	9
297.348	7
298.141	10
298.935	11
299.728	8
300.521	11
301.314	8
302.107	8
302.899	8
303.692	11
304.485	10
305.277	8
306.07	6
306.862	8
307.655	9
308.447	8
309.239	10
310.031	8
310.823	5
311.615	7
312.407	7
313.199	8
313.991	5
314.783	7
315.574	5
316.366	5
317.157	7
317.949	3
318.74	7
319.531	2
320.322	5
321.113	6
321.904	4
322.695	5
323.486	4
324.277	5
325.068	2
325.858	5
326.649	1
327.439	5
328.23	3
329.02	4
329.81	4
330.6	3
331.391	4
332.181	2
332.971	3
333.76	4
334.55	4
335.34	5
336.13	4
336.919	5
337.709	4
338.498	4
339.287	4
340.077	1
340.866	2
341.655	4
342.444	4
343.233	2
344.022	3
344.811	4
345.6	3
346.388	5
347.177	3
347.965	4
348.754	2
349.542	4
350.33	3
351.119	5
351.907	3
352.695	2
353.483	4
354.271	4
355.059	0
355.846	3
356.634	1
357.422	4
358.209	3
358.997	4
359.784	2
360.571	3
361.359	4
362.146	2
362.933	2
363.72	3
364.507	2
365.294	2
366.081	5
366.867	2
367.654	1
368.44	5
369.227	2
370.013	3
370.8	4
371.586	3
372.372	3
373.158	3
373.944	3
374.73	2
375.516	1
376.302	3
377.088	2
377.873	5
378.659	3
379.445	3
380.23	2
381.015	3
381.801	5
382.586	2
383.371	2
384.156	2
384.941	3
385.726	3
386.511	2
387.296	4
388.08	4
388.865	5
389.649	3
390.434	7
391.218	3
392.003	1
392.787	3
393.571	5
394.355	2
395.139	5
395.923	1
396.707	5
397.491	1
398.274	5
399.058	3
399.842	5
400.625	3
401.408	5
402.192	5
402.975	4
403.758	4
404.541	1
405.324	4
406.107	5
406.89	5
407.673	5
408.456	2
409.238	6
410.021	3
410.803	4
411.586	5
412.368	4
413.151	5
413.933	6
414.715	4
415.497	7
416.279	0
417.061	4
417.843	5
418.624	5
419.406	6
420.188	5
420.969	7
421.751	6
422.532	6
423.313	5
424.095	5
424.876	7
425.657	5
426.438	6
427.219	4
428	8
428.78	7
429.561	7
430.342	5
431.122	9
431.903	6
432.683	7
433.464	9
434.244	9
435.024	7
435.804	9
436.584	8
437.364	8
438.144	9
438.924	11
439.704	13
440.483	11
441.263	14
442.042	12
442.822	12
443.601	13
444.38	17
445.16	17
445.939	18
446.718	17
447.497	19
448.276	21
449.054	21
449.833	23
450.612	24
451.391	28
452.169	28
452.948	30
453.726	32
454.504	35
455.282	39
456.061	42
456.839	47
457.617	50
458.395	53
459.172	65
459.95	69
460.728	73
461.506	85
462.283	94
463.061	104
463.838	117
464.615	134
465.393	146
466.17	166
466.947	183
467.724	202
468.501	225
469.278	253
470.055	283
470.831	322
471.608	355
472.385	396
473.161	440
473.938	490
474.714	541
475.49	600
476.266	668
477.043	748
477.819	835
478.595	923
479.371	1024
480.146	1132
480.922	1268
481.698	1397
482.473	1558
483.249	1700
484.024	1921
484.8	2092
485.575	2322
486.35	2571
487.126	2871
487.901	3161
488.676	3506
489.451	3876
490.225	4286
491	4725
491.775	5202
492.55	5721
493.324	6301
494.099	6929
494.873	7540
495.647	8259
496.422	8991
497.196	9756
497.97	10514
498.744	11305
499.518	12138
500.292	12897
501.066	13675
501.839	14448
502.613	15130
503.387	15776
504.16	16246
504.934	16652
505.707	17027
506.48	17173
507.253	17289
508.027	17298
508.8	17127
509.573	16854
510.346	16535
511.118	16121
511.891	15588
512.664	15029
513.437	14475
514.209	13858
514.982	13310
515.754	12691
516.526	12097
517.298	11524
518.071	11002
518.843	10491
519.615	10037
520.387	9710
521.159	9270
521.93	8931
522.702	8564
523.474	8213
524.245	7893
525.017	7628
525.788	7324
526.56	6966
527.331	6693
528.102	6384
528.873	6074
529.644	5821
530.415	5550
531.186	5261
531.957	4965
532.728	4722
533.498	4459
534.269	4207
535.039	3974
535.81	3750
536.58	3529
537.351	3322
538.121	3189
538.891	2983
539.661	2804
540.431	2660
541.201	2513
541.971	2383
542.741	2263
543.51	2154
544.28	2030
545.05	1926
545.819	1856
546.588	1752
547.358	1675
548.127	1584
548.896	1507
549.665	1435
550.434	1349
551.203	1289
551.972	1217
552.741	1150
553.51	1101
554.278	1031
555.047	975
555.815	912
556.584	853
557.352	810
558.121	766
558.889	722
559.657	679
560.425	635
561.193	602
561.961	566
562.729	541
563.496	503
564.264	477
565.032	444
565.799	422
566.567	401
567.334	374
568.101	361
568.869	343
569.636	321
570.403	306
571.17	284
571.937	272
572.704	254
573.471	239
574.237	220
575.004	214
575.771	202
576.537	185
577.303	180
578.07	166
578.836	155
579.602	147
580.368	138
581.134	128
581.9	125
582.666	116
583.432	108
584.198	106
584.964	96
585.729	94
586.495	86
587.26	84
588.025	82
588.791	74
589.556	69
590.321	65
591.086	59
591.851	61
592.616	56
593.381	55
594.146	52
594.911	48
595.675	47
596.44	44
597.204	45
597.969	40
598.733	39
599.497	35
600.261	36
601.025	33
601.79	33
602.553	33
603.317	28
604.081	30
604.845	26
605.609	26
606.372	23
607.136	21
607.899	25
608.662	23
609.426	21
610.189	22
610.952	20
611.715	17
612.478	17
613.241	18
614.004	15
614.767	15
615.529	14
616.292	14
617.055	12
617.817	15
618.579	16
619.342	14
620.104	15
620.866	15
621.628	12
622.39	10
623.152	10
623.914	10
624.676	10
625.438	10
626.199	10
626.961	10
627.722	9
628.484	8
629.245	8
630.006	10
630.768	9
631.529	8
632.29	7
633.051	9
633.812	8
634.573	9
635.333	7
636.094	7
636.855	7
637.615	5
638.376	6
639.136	9
639.896	7
640.657	7
641.417	4
642.177	4
642.937	3
643.697	7
644.457	4
645.216	5
645.976	2
646.736	5
647.495	3
648.255	3
649.014	6
649.774	3
650.533	6
651.292	5
652.051	4
652.81	3
653.569	5
654.328	5
655.087	4
655.846	5
656.604	3
657.363	3
658.121	3
658.88	5
659.638	3
660.397	1
661.155	4
661.913	3
662.671	0
663.429	5
664.187	1
664.945	2
665.703	5
666.46	3
667.218	4
667.976	4
668.733	3
669.49	3
670.248	3
671.005	3
671.762	2
672.519	4
673.276	4
674.033	2
674.79	4
675.547	3
676.304	2
677.06	1
677.817	1
678.574	4
679.33	2
680.086	2
680.843	3
681.599	3
682.355	2
683.111	3
683.867	2
684.623	3
685.379	0
686.135	-1
686.89	3
687.646	2
688.402	3
689.157	1
689.912	2
690.668	2
691.423	2
692.178	2
692.933	-1
693.688	1
694.443	2
695.198	4
695.953	4
696.708	3
697.462	2
698.217	2
698.972	3
699.726	1
700.48	3
701.235	1
701.989	1
702.743	3
703.497	3
704.251	2
705.005	1
705.759	1
706.513	1
707.266	1
708.02	3
708.774	0
709.527	2
710.28	1
711.034	0
711.787	2
712.54	-1
713.293	2
714.046	3
714.799	1
715.552	2
716.305	2
717.058	4
717.81	1
718.563	3
719.315	2
720.068	4
720.82	2
721.573	2
722.325	3
723.077	0
723.829	3
724.581	2
725.333	4
726.085	2
726.836	0
727.588	3
728.34	3
729.091	5
729.843	0
730.594	1
731.346	4
732.097	2
732.848	4
733.599	2
734.35	1
735.101	1
735.852	2
736.603	4
737.354	3
738.104	3
738.855	3
739.605	4
740.356	1
741.106	2
741.856	1
742.607	2
743.357	2
744.107	2
744.857	1
745.607	2
746.357	4
747.106	3
747.856	2
748.606	2
749.355	2
750.105	4
750.854	1
751.603	1
752.353	5
753.102	1
753.851	2
754.6	2
755.349	5
756.098	2
756.847	2
757.595	5
758.344	1
759.093	3
759.841	3
760.589	6
761.338	5
762.086	6
762.834	4
763.582	2
764.331	4
765.079	4
765.826	4
766.574	4
767.322	4
768.07	4
768.817	5
769.565	4
770.312	3
771.06	5
771.807	2
772.554	4
773.302	7
774.049	4
774.796	4
775.543	5
776.29	5
777.036	4
777.783	5
778.53	6
779.276	6
780.023	5
780.769	5
781.516	5
782.262	5
783.008	4
783.754	6
784.5	6
785.246	7
785.992	5
786.738	6
787.484	5
788.23	2
788.975	5
789.721	5
790.466	6
791.212	6
791.957	4
792.702	4
793.447	4
794.193	6
794.938	6
795.683	4
796.427	4
797.172	3
797.917	4
798.662	5
799.406	7
800.151	5
800.895	5
801.64	5
802.384	8
803.128	5
803.872	4
804.616	6
805.36	5
806.104	5
806.848	6
807.592	4
808.336	6
809.079	5
809.823	3
810.566	4
811.31	4
812.053	5
812.796	3
813.539	3
814.283	5
815.026	3
815.769	0
816.511	2
817.254	2
817.997	3
818.74	5
819.482	3
820.225	2
820.967	4
821.71	3
822.452	2
823.194	2
823.936	1
824.678	2
825.42	3
826.162	2
826.904	4
827.646	3
828.388	1
829.129	5
829.871	2
830.612	0
831.354	2
832.095	3
832.836	5
833.577	2
834.319	4
835.06	2
835.801	3
836.542	2
837.282	1
838.023	4
838.764	2
839.504	1
840.245	2
840.985	3
841.726	2
842.466	2
843.206	3
843.946	2
844.687	3
845.427	2
846.166	1
846.906	4
847.646	1
848.386	4
849.125	3
849.865	1
850.605	4
851.344	2
852.083	1
852.823	3
853.562	0
854.301	2
855.04	0
855.779	2
856.518	1
857.257	3
857.995	1
858.734	2
859.473	2
860.211	1
860.95	1
861.688	2
862.426	1
863.165	0
863.903	0
864.641	2
865.379	1
866.117	3
866.855	0
867.593	1
868.33	-1
869.068	2
869.806	0
870.543	-1
871.28	2
872.018	1
872.755	1
873.492	-2
874.229	2
874.967	2
875.703	1
876.44	1
877.177	-1
877.914	0
878.651	2
879.387	0
880.124	1
880.86	0
881.597	3
882.333	1
883.069	2
883.806	0
884.542	-1
885.278	2
886.014	0
886.749	0
887.485	1
888.221	1
888.957	-1
889.692	2
890.428	2
891.163	-1
891.899	-1
892.634	-1
893.369	1
894.104	0
894.839	1
895.574	1
896.309	1
897.044	1
897.779	0
898.514	1
899.248	-1
899.983	-2
900.717	2
901.452	0
902.186	1
902.92	0
903.654	4
904.389	-1
905.123	1
905.857	1
906.59	1
907.324	3
908.058	0
908.792	0
909.525	0
910.259	-1
910.992	0
911.726	-1
912.459	0
913.192	0
913.925	2
914.658	-2
915.391	-2
916.124	2
916.857	1
917.59	1
918.323	0
919.055	1
919.788	-1
920.521	1
921.253	0
921.985	-3
922.718	2
923.45	0
924.182	0
924.914	-2
925.646	-2
926.378	2
927.11	-1
927.841	-1
928.573	0
929.305	1
930.036	1
930.768	1
931.499	1
932.23	-2
932.962	1
933.693	-1
934.424	3
935.155	-2
935.886	1
936.617	1
937.348	1
938.078	1
938.809	-2
939.54	-1
940.27	0
941.001	-3
941.731	0
942.461	1
943.191	1
943.922	2
944.652	0
945.382	-1
946.112	1
946.841	-1
947.571	0
948.301	0
949.031	0
949.76	-2
950.49	1
951.219	-1
951.948	0
952.678	1
953.407	-2
954.136	1
954.865	0
955.594	1
956.323	-1
957.052	-1
957.78	1
958.509	2
959.238	0
959.966	1
960.695	0
961.423	-1
962.151	-2
962.88	-1
963.608	0
964.336	0
965.064	-1
965.792	2
966.52	-2
967.247	0
967.975	0
968.703	-2
969.43	0
970.158	0
970.885	1
971.613	1
972.34	0
973.067	-1
973.794	-1
974.521	0
975.248	1
975.975	-1
976.702	1
977.429	0
978.156	3
978.882	0
979.609	2
980.335	0
981.062	1
981.788	2
982.514	0
983.24	1
983.967	-2
984.693	-1
985.419	1
986.144	-2
986.87	1
987.596	0
988.322	0
989.047	-1
989.773	1
990.498	-2
991.224	-1
991.949	-1
992.674	1
993.399	2
994.124	-2
994.849	0
995.574	-2
996.299	-1
997.024	1
997.749	0
998.473	1
999.198	0
999.922	-1
1000.647	-3
1001.371	4
1002.095	0
1002.82	-2
1003.544	0
1004.268	-1
1004.992	-1
1005.716	0
1006.439	-2
1007.163	2
1007.887	2
1008.611	2
1009.334	2
1010.058	1
1010.781	1
1011.504	0
1012.228	0
1012.951	1
1013.674	-1
1014.397	0
1015.12	-2
