节点500_145_QEPB04081__612__11-38-41-310.txt的数据

Date: Wed Nov 12 11:38:41 CST 2025
User: PC
Spectrometer: QEPB0408
触发模式: 0
积分时间 (秒): 1.000000E-2
Scans to average: 1
启用暗噪声校正: true
启用非线性校正: false
滑动平均宽度: 0
X轴模式: Wavelengths
Number of Pixels in Spectrum: 1044
>>>>>Begin Spectral Data<<<<<
220.843	-2.88
221.644	-0.88
222.444	-0.88
223.244	1.12
224.045	2.12
224.845	-1.88
225.645	0.12
226.445	1.12
227.245	-0.88
228.045	3.12
228.845	1.12
229.645	-1.88
230.444	0.12
231.244	0.12
232.043	2.12
232.843	0.12
233.642	1.12
234.442	-1.88
235.241	1.12
236.04	-1.88
236.839	1.12
237.638	0.12
238.437	-0.88
239.236	0.12
240.035	1.12
240.833	2.12
241.632	2.12
242.43	1.12
243.229	3.12
244.027	0.12
244.826	1.12
245.624	-1.88
246.422	1.12
247.22	5.12
248.018	1.12
248.816	3.12
249.614	3.12
250.412	0.12
251.21	1.12
252.007	3.12
252.805	3.12
253.602	3.12
254.4	5.12
255.197	3.12
255.994	2.12
256.791	4.12
257.589	3.12
258.386	3.12
259.183	3.12
259.979	3.12
260.776	3.12
261.573	4.12
262.37	5.12
263.166	3.12
263.963	5.12
264.759	3.12
265.556	5.12
266.352	3.12
267.148	6.12
267.944	6.12
268.74	4.12
269.536	7.12
270.332	8.12
271.128	6.12
271.924	3.12
272.719	6.12
273.515	6.12
274.311	7.12
275.106	9.12
275.901	5.12
276.697	9.12
277.492	9.12
278.287	9.12
279.082	8.12
279.877	9.12
280.672	7.12
281.467	9.12
282.262	9.12
283.056	9.12
283.851	8.12
284.646	6.12
285.44	7.12
286.234	13.12
287.029	9.12
287.823	9.12
288.617	9.12
289.411	10.12
290.205	7.12
290.999	11.12
291.793	7.12
292.587	8.12
293.381	8.12
294.174	8.12
294.968	10.12
295.761	10.12
296.555	8.12
297.348	9.12
298.141	9.12
298.935	12.12
299.728	11.12
300.521	8.12
301.314	8.12
302.107	9.12
302.899	7.12
303.692	10.12
304.485	9.12
305.277	10.12
306.07	9.12
306.862	10.12
307.655	4.12
308.447	9.12
309.239	9.12
310.031	8.12
310.823	6.12
311.615	6.12
312.407	3.12
313.199	5.12
313.991	7.12
314.783	7.12
315.574	5.12
316.366	5.12
317.157	4.12
317.949	5.12
318.74	3.12
319.531	4.12
320.322	2.12
321.113	6.12
321.904	6.12
322.695	2.12
323.486	5.12
324.277	5.12
325.068	6.12
325.858	3.12
326.649	5.12
327.439	7.12
328.23	3.12
329.02	3.12
329.81	2.12
330.6	3.12
331.391	1.12
332.181	5.12
332.971	4.12
333.76	5.12
334.55	3.12
335.34	4.12
336.13	3.12
336.919	2.12
337.709	5.12
338.498	5.12
339.287	4.12
340.077	4.12
340.866	2.12
341.655	3.12
342.444	3.12
343.233	2.12
344.022	1.12
344.811	3.12
345.6	4.12
346.388	3.12
347.177	4.12
347.965	5.12
348.754	1.12
349.542	2.12
350.33	4.12
351.119	4.12
351.907	5.12
352.695	5.12
353.483	3.12
354.271	4.12
355.059	4.12
355.846	5.12
356.634	2.12
357.422	4.12
358.209	2.12
358.997	1.12
359.784	2.12
360.571	2.12
361.359	2.12
362.146	2.12
362.933	3.12
363.72	2.12
364.507	2.12
365.294	4.12
366.081	0.12
366.867	1.12
367.654	3.12
368.44	3.12
369.227	3.12
370.013	2.12
370.8	3.12
371.586	1.12
372.372	2.12
373.158	3.12
373.944	2.12
374.73	3.12
375.516	0.12
376.302	4.12
377.088	2.12
377.873	5.12
378.659	3.12
379.445	2.12
380.23	2.12
381.015	1.12
381.801	1.12
382.586	1.12
383.371	2.12
384.156	3.12
384.941	2.12
385.726	1.12
386.511	0.12
387.296	2.12
388.08	1.12
388.865	3.12
389.649	4.12
390.434	4.12
391.218	3.12
392.003	2.12
392.787	3.12
393.571	1.12
394.355	2.12
395.139	0.12
395.923	0.12
396.707	3.12
397.491	3.12
398.274	5.12
399.058	3.12
399.842	4.12
400.625	4.12
401.408	3.12
402.192	2.12
402.975	4.12
403.758	4.12
404.541	1.12
405.324	3.12
406.107	2.12
406.89	2.12
407.673	2.12
408.456	1.12
409.238	6.12
410.021	3.12
410.803	2.12
411.586	3.12
412.368	2.12
413.151	2.12
413.933	4.12
414.715	4.12
415.497	5.12
416.279	4.12
417.061	5.12
417.843	5.12
418.624	3.12
419.406	5.12
420.188	5.12
420.969	6.12
421.751	6.12
422.532	4.12
423.313	7.12
424.095	4.12
424.876	4.12
425.657	8.12
426.438	4.12
427.219	7.12
428	7.12
428.78	7.12
429.561	8.12
430.342	4.12
431.122	5.12
431.903	5.12
432.683	6.12
433.464	7.12
434.244	7.12
435.024	8.12
435.804	7.12
436.584	8.12
437.364	10.12
438.144	8.12
438.924	11.12
439.704	10.12
440.483	11.12
441.263	10.12
442.042	10.12
442.822	14.12
443.601	12.12
444.38	14.12
445.16	15.12
445.939	20.12
446.718	20.12
447.497	18.12
448.276	22.12
449.054	23.12
449.833	23.12
450.612	24.12
451.391	30.12
452.169	30.12
452.948	36.12
453.726	36.12
454.504	41.12
455.282	41.12
456.061	51.12
456.839	55.12
457.617	59.12
458.395	68.12
459.172	76.12
459.95	80.12
460.728	90.12
461.506	98.12
462.283	111.12
463.061	122.12
463.838	142.12
464.615	155.12
465.393	171.12
466.17	190.12
466.947	213.12
467.724	234.12
468.501	260.12
469.278	299.12
470.055	320.12
470.831	358.12
471.608	396.12
472.385	438.12
473.161	491.12
473.938	538.12
474.714	595.12
475.49	657.12
476.266	716.12
477.043	793.12
477.819	878.12
478.595	966.12
479.371	1052.12
480.146	1154.12
480.922	1272.12
481.698	1384.12
482.473	1529.12
483.249	1664.12
484.024	1834.12
484.8	1998.12
485.575	2192.12
486.35	2398.12
487.126	2636.12
487.901	2874.12
488.676	3139.12
489.451	3440.12
490.225	3734.12
491	4086.12
491.775	4454.12
492.55	4879.12
493.324	5311.12
494.099	5747.12
494.873	6244.12
495.647	6775.12
496.422	7347.12
497.196	7929.12
497.97	8532.12
498.744	9162.12
499.518	9855.12
500.292	10452.12
501.066	11140.12
501.839	11766.12
502.613	12403.12
503.387	12919.12
504.16	13510.12
504.934	14011.12
505.707	14384.12
506.48	14712.12
507.253	14948.12
508.027	15089.12
508.8	15292.12
509.573	15213.12
510.346	15106.12
511.118	14961.12
511.891	14704.12
512.664	14307.12
513.437	13942.12
514.209	13519.12
514.982	13048.12
515.754	12604.12
516.526	12149.12
517.298	11635.12
518.071	11144.12
518.843	10667.12
519.615	10259.12
520.387	9836.12
521.159	9433.12
521.93	9047.12
522.702	8711.12
523.474	8370.12
524.245	8034.12
525.017	7728.12
525.788	7390.12
526.56	7122.12
527.331	6843.12
528.102	6504.12
528.873	6308.12
529.644	6009.12
530.415	5759.12
531.186	5470.12
531.957	5246.12
532.728	4969.12
533.498	4717.12
534.269	4486.12
535.039	4261.12
535.81	4012.12
536.58	3796.12
537.351	3564.12
538.121	3409.12
538.891	3212.12
539.661	3041.12
540.431	2861.12
541.201	2730.12
541.971	2604.12
542.741	2444.12
543.51	2326.12
544.28	2209.12
545.05	2088.12
545.819	1995.12
546.588	1900.12
547.358	1793.12
548.127	1694.12
548.896	1628.12
549.665	1532.12
550.434	1461.12
551.203	1392.12
551.972	1326.12
552.741	1254.12
553.51	1200.12
554.278	1122.12
555.047	1066.12
555.815	1001.12
556.584	957.12
557.352	892.12
558.121	850.12
558.889	799.12
559.657	751.12
560.425	693.12
561.193	674.12
561.961	643.12
562.729	599.12
563.496	552.12
564.264	539.12
565.032	506.12
565.799	484.12
566.567	446.12
567.334	420.12
568.101	403.12
568.869	378.12
569.636	353.12
570.403	338.12
571.17	311.12
571.937	302.12
572.704	278.12
573.471	268.12
574.237	249.12
575.004	235.12
575.771	219.12
576.537	203.12
577.303	198.12
578.07	184.12
578.836	177.12
579.602	166.12
580.368	155.12
581.134	144.12
581.9	133.12
582.666	130.12
583.432	125.12
584.198	116.12
584.964	110.12
585.729	102.12
586.495	105.12
587.26	96.12
588.025	92.12
588.791	85.12
589.556	78.12
590.321	75.12
591.086	70.12
591.851	67.12
592.616	62.12
593.381	60.12
594.146	59.12
594.911	55.12
595.675	53.12
596.44	49.12
597.204	48.12
597.969	43.12
598.733	41.12
599.497	38.12
600.261	40.12
601.025	36.12
601.79	38.12
602.553	34.12
603.317	31.12
604.081	31.12
604.845	28.12
605.609	29.12
606.372	29.12
607.136	25.12
607.899	27.12
608.662	25.12
609.426	21.12
610.189	24.12
610.952	24.12
611.715	21.12
612.478	16.12
613.241	18.12
614.004	18.12
614.767	18.12
615.529	17.12
616.292	16.12
617.055	13.12
617.817	14.12
618.579	12.12
619.342	14.12
620.104	13.12
620.866	13.12
621.628	14.12
622.39	11.12
623.152	11.12
623.914	11.12
624.676	12.12
625.438	11.12
626.199	13.12
626.961	10.12
627.722	7.12
628.484	8.12
629.245	7.12
630.006	8.12
630.768	9.12
631.529	8.12
632.29	8.12
633.051	10.12
633.812	7.12
634.573	8.12
635.333	6.12
636.094	8.12
636.855	5.12
637.615	7.12
638.376	6.12
639.136	7.12
639.896	7.12
640.657	5.12
641.417	7.12
642.177	2.12
642.937	4.12
643.697	5.12
644.457	5.12
645.216	6.12
645.976	2.12
646.736	5.12
647.495	3.12
648.255	5.12
649.014	3.12
649.774	4.12
650.533	5.12
651.292	4.12
652.051	3.12
652.81	5.12
653.569	4.12
654.328	5.12
655.087	3.12
655.846	2.12
656.604	2.12
657.363	3.12
658.121	2.12
658.88	4.12
659.638	4.12
660.397	2.12
661.155	1.12
661.913	1.12
662.671	3.12
663.429	3.12
664.187	2.12
664.945	2.12
665.703	5.12
666.46	2.12
667.218	2.12
667.976	5.12
668.733	1.12
669.49	3.12
670.248	4.12
671.005	2.12
671.762	2.12
672.519	1.12
673.276	1.12
674.033	1.12
674.79	3.12
675.547	2.12
676.304	3.12
677.06	2.12
677.817	-0.88
678.574	5.12
679.33	1.12
680.086	0.12
680.843	3.12
681.599	1.12
682.355	2.12
683.111	0.12
683.867	3.12
684.623	1.12
685.379	2.12
686.135	3.12
686.89	2.12
687.646	4.12
688.402	2.12
689.157	1.12
689.912	2.12
690.668	3.12
691.423	3.12
692.178	3.12
692.933	2.12
693.688	2.12
694.443	3.12
695.198	3.12
695.953	2.12
696.708	1.12
697.462	1.12
698.217	3.12
698.972	0.12
699.726	-0.88
700.48	1.12
701.235	2.12
701.989	1.12
702.743	1.12
703.497	1.12
704.251	1.12
705.005	4.12
705.759	-0.88
706.513	3.12
707.266	2.12
708.02	1.12
708.774	4.12
709.527	0.12
710.28	2.12
711.034	4.12
711.787	0.12
712.54	2.12
713.293	0.12
714.046	3.12
714.799	2.12
715.552	2.12
716.305	2.12
717.058	1.12
717.81	4.12
718.563	0.12
719.315	3.12
720.068	2.12
720.82	3.12
721.573	2.12
722.325	2.12
723.077	1.12
723.829	1.12
724.581	1.12
725.333	1.12
726.085	0.12
726.836	2.12
727.588	2.12
728.34	3.12
729.091	2.12
729.843	3.12
730.594	3.12
731.346	2.12
732.097	1.12
732.848	2.12
733.599	2.12
734.35	0.12
735.101	1.12
735.852	2.12
736.603	4.12
737.354	2.12
738.104	1.12
738.855	2.12
739.605	0.12
740.356	3.12
741.106	2.12
741.856	4.12
742.607	3.12
743.357	3.12
744.107	0.12
744.857	2.12
745.607	1.12
746.357	1.12
747.106	0.12
747.856	2.12
748.606	4.12
749.355	3.12
750.105	2.12
750.854	3.12
751.603	3.12
752.353	2.12
753.102	3.12
753.851	2.12
754.6	4.12
755.349	2.12
756.098	3.12
756.847	3.12
757.595	3.12
758.344	4.12
759.093	5.12
759.841	5.12
760.589	3.12
761.338	4.12
762.086	4.12
762.834	1.12
763.582	1.12
764.331	4.12
765.079	1.12
765.826	2.12
766.574	4.12
767.322	5.12
768.07	3.12
768.817	4.12
769.565	2.12
770.312	4.12
771.06	2.12
771.807	2.12
772.554	6.12
773.302	3.12
774.049	2.12
774.796	4.12
775.543	5.12
776.29	3.12
777.036	5.12
777.783	4.12
778.53	3.12
779.276	4.12
780.023	7.12
780.769	3.12
781.516	3.12
782.262	5.12
783.008	4.12
783.754	3.12
784.5	5.12
785.246	3.12
785.992	3.12
786.738	2.12
787.484	2.12
788.23	7.12
788.975	4.12
789.721	4.12
790.466	5.12
791.212	5.12
791.957	4.12
792.702	3.12
793.447	4.12
794.193	4.12
794.938	3.12
795.683	5.12
796.427	6.12
797.172	5.12
797.917	2.12
798.662	5.12
799.406	5.12
800.151	6.12
800.895	4.12
801.64	5.12
802.384	3.12
803.128	3.12
803.872	3.12
804.616	2.12
805.36	5.12
806.104	7.12
806.848	4.12
807.592	2.12
808.336	2.12
809.079	6.12
809.823	2.12
810.566	4.12
811.31	3.12
812.053	1.12
812.796	1.12
813.539	2.12
814.283	2.12
815.026	4.12
815.769	2.12
816.511	3.12
817.254	3.12
817.997	1.12
818.74	3.12
819.482	5.12
820.225	2.12
820.967	2.12
821.71	2.12
822.452	5.12
823.194	2.12
823.936	4.12
824.678	3.12
825.42	2.12
826.162	2.12
826.904	3.12
827.646	3.12
828.388	1.12
829.129	1.12
829.871	5.12
830.612	2.12
831.354	2.12
832.095	1.12
832.836	2.12
833.577	1.12
834.319	0.12
835.06	1.12
835.801	2.12
836.542	2.12
837.282	3.12
838.023	3.12
838.764	2.12
839.504	1.12
840.245	2.12
840.985	3.12
841.726	3.12
842.466	2.12
843.206	2.12
843.946	1.12
844.687	2.12
845.427	3.12
846.166	1.12
846.906	1.12
847.646	1.12
848.386	-0.88
849.125	2.12
849.865	1.12
850.605	2.12
851.344	1.12
852.083	1.12
852.823	1.12
853.562	2.12
854.301	0.12
855.04	0.12
855.779	4.12
856.518	1.12
857.257	1.12
857.995	0.12
858.734	1.12
859.473	1.12
860.211	2.12
860.95	0.12
861.688	1.12
862.426	2.12
863.165	0.12
863.903	3.12
864.641	0.12
865.379	1.12
866.117	0.12
866.855	2.12
867.593	0.12
868.33	2.12
869.068	0.12
869.806	2.12
870.543	-0.88
871.28	0.12
872.018	2.12
872.755	0.12
873.492	2.12
874.229	1.12
874.967	3.12
875.703	-1.88
876.44	1.12
877.177	0.12
877.914	-0.88
878.651	-0.88
879.387	-0.88
880.124	2.12
880.86	-0.88
881.597	1.12
882.333	0.12
883.069	0.12
883.806	1.12
884.542	0.12
885.278	1.12
886.014	0.12
886.749	0.12
887.485	0.12
888.221	0.12
888.957	0.12
889.692	-1.88
890.428	-0.88
891.163	-1.88
891.899	3.12
892.634	-1.88
893.369	-0.88
894.104	0.12
894.839	0.12
895.574	0.12
896.309	1.12
897.044	1.12
897.779	-1.88
898.514	1.12
899.248	1.12
899.983	-0.88
900.717	0.12
901.452	-0.88
902.186	2.12
902.92	0.12
903.654	1.12
904.389	0.12
905.123	-1.88
905.857	0.12
906.59	1.12
907.324	1.12
908.058	1.12
908.792	-1.88
909.525	0.12
910.259	1.12
910.992	-0.88
911.726	-0.88
912.459	1.12
913.192	1.12
913.925	-1.88
914.658	0.12
915.391	-1.88
916.124	0.12
916.857	0.12
917.59	1.12
918.323	0.12
919.055	-0.88
919.788	1.12
920.521	-0.88
921.253	2.12
921.985	1.12
922.718	2.12
923.45	1.12
924.182	1.12
924.914	-1.88
925.646	-1.88
926.378	-0.88
927.11	-0.88
927.841	0.12
928.573	-0.88
929.305	0.12
930.036	1.12
930.768	-1.88
931.499	0.12
932.23	1.12
932.962	-0.88
933.693	-0.88
934.424	-0.88
935.155	1.12
935.886	-0.88
936.617	2.12
937.348	-1.88
938.078	0.12
938.809	0.12
939.54	1.12
940.27	0.12
941.001	-1.88
941.731	0.12
942.461	0.12
943.191	-1.88
943.922	1.12
944.652	1.12
945.382	1.12
946.112	1.12
946.841	-1.88
947.571	0.12
948.301	2.12
949.031	0.12
949.76	-1.88
950.49	0.12
951.219	-1.88
951.948	0.12
952.678	0.12
953.407	1.12
954.136	1.12
954.865	2.12
955.594	0.12
956.323	2.12
957.052	2.12
957.78	-1.88
958.509	-0.88
959.238	-1.88
959.966	3.12
960.695	2.12
961.423	-0.88
962.151	4.12
962.88	1.12
963.608	1.12
964.336	1.12
965.064	-0.88
965.792	-1.88
966.52	-0.88
967.247	0.12
967.975	-1.88
968.703	1.12
969.43	0.12
970.158	-0.88
970.885	0.12
971.613	-1.88
972.34	-1.88
973.067	-0.88
973.794	3.12
974.521	1.12
975.248	-0.88
975.975	0.12
976.702	-1.88
977.429	1.12
978.156	1.12
978.882	1.12
979.609	2.12
980.335	-1.88
981.062	0.12
981.788	-1.88
982.514	-0.88
983.24	-0.88
983.967	0.12
984.693	-1.88
985.419	0.12
986.144	1.12
986.87	1.12
987.596	1.12
988.322	0.12
989.047	0.12
989.773	2.12
990.498	-0.88
991.224	1.12
991.949	1.12
992.674	-0.88
993.399	0.12
994.124	1.12
994.849	1.12
995.574	-1.88
996.299	2.12
997.024	-0.88
997.749	1.12
998.473	0.12
999.198	-0.88
999.922	0.12
1000.647	1.12
1001.371	3.12
1002.095	-0.88
1002.82	1.12
1003.544	-2.88
1004.268	-0.88
1004.992	0.12
1005.716	-1.88
1006.439	0.12
1007.163	-1.88
1007.887	-1.88
1008.611	1.12
1009.334	1.12
1010.058	1.12
1010.781	1.12
1011.504	2.12
1012.228	0.12
1012.951	0.12
1013.674	-0.88
1014.397	0.12
1015.12	0.12
