节点500_145_QEPB04081__335__11-34-17-572.txt的数据

Date: Wed Nov 12 11:34:17 CST 2025
User: PC
Spectrometer: QEPB0408
触发模式: 0
积分时间 (秒): 1.000000E-2
Scans to average: 1
启用暗噪声校正: true
启用非线性校正: false
滑动平均宽度: 0
X轴模式: Wavelengths
Number of Pixels in Spectrum: 1044
>>>>>Begin Spectral Data<<<<<
220.843	0
221.644	0
222.444	-1
223.244	-1
224.045	1
224.845	0
225.645	0
226.445	1
227.245	1
228.045	1
228.845	-1
229.645	1
230.444	-1
231.244	2
232.043	2
232.843	2
233.642	4
234.442	3
235.241	1
236.04	1
236.839	0
237.638	2
238.437	3
239.236	1
240.035	2
240.833	1
241.632	3
242.43	0
243.229	2
244.027	4
244.826	2
245.624	3
246.422	3
247.22	2
248.018	2
248.816	3
249.614	3
250.412	1
251.21	4
252.007	1
252.805	3
253.602	4
254.4	3
255.197	5
255.994	6
256.791	3
257.589	3
258.386	6
259.183	4
259.979	5
260.776	6
261.573	6
262.37	6
263.166	7
263.963	5
264.759	7
265.556	5
266.352	6
267.148	7
267.944	10
268.74	5
269.536	8
270.332	8
271.128	10
271.924	11
272.719	10
273.515	8
274.311	7
275.106	11
275.901	11
276.697	8
277.492	10
278.287	9
279.082	12
279.877	10
280.672	11
281.467	10
282.262	9
283.056	9
283.851	11
284.646	8
285.44	13
286.234	12
287.029	11
287.823	13
288.617	11
289.411	11
290.205	8
290.999	11
291.793	12
292.587	10
293.381	9
294.174	11
294.968	9
295.761	11
296.555	10
297.348	9
298.141	13
298.935	13
299.728	11
300.521	9
301.314	10
302.107	9
302.899	7
303.692	8
304.485	11
305.277	10
306.07	8
306.862	11
307.655	12
308.447	12
309.239	10
310.031	7
310.823	7
311.615	8
312.407	6
313.199	8
313.991	7
314.783	5
315.574	4
316.366	7
317.157	4
317.949	6
318.74	8
319.531	3
320.322	7
321.113	5
321.904	7
322.695	7
323.486	6
324.277	8
325.068	6
325.858	6
326.649	7
327.439	8
328.23	3
329.02	5
329.81	8
330.6	6
331.391	4
332.181	6
332.971	1
333.76	5
334.55	5
335.34	5
336.13	4
336.919	4
337.709	5
338.498	6
339.287	5
340.077	5
340.866	6
341.655	5
342.444	3
343.233	5
344.022	3
344.811	4
345.6	3
346.388	5
347.177	3
347.965	4
348.754	5
349.542	3
350.33	5
351.119	2
351.907	5
352.695	5
353.483	5
354.271	7
355.059	3
355.846	4
356.634	4
357.422	4
358.209	3
358.997	3
359.784	3
360.571	3
361.359	5
362.146	3
362.933	3
363.72	4
364.507	3
365.294	6
366.081	4
366.867	5
367.654	4
368.44	4
369.227	4
370.013	2
370.8	5
371.586	2
372.372	4
373.158	4
373.944	3
374.73	4
375.516	2
376.302	3
377.088	4
377.873	6
378.659	2
379.445	4
380.23	4
381.015	2
381.801	3
382.586	4
383.371	3
384.156	3
384.941	6
385.726	4
386.511	3
387.296	6
388.08	4
388.865	6
389.649	4
390.434	3
391.218	3
392.003	5
392.787	5
393.571	2
394.355	4
395.139	5
395.923	3
396.707	5
397.491	3
398.274	5
399.058	4
399.842	6
400.625	4
401.408	6
402.192	5
402.975	5
403.758	4
404.541	3
405.324	5
406.107	7
406.89	6
407.673	5
408.456	4
409.238	6
410.021	5
410.803	6
411.586	6
412.368	4
413.151	6
413.933	5
414.715	6
415.497	5
416.279	6
417.061	4
417.843	6
418.624	6
419.406	5
420.188	7
420.969	7
421.751	4
422.532	6
423.313	8
424.095	7
424.876	8
425.657	5
426.438	8
427.219	3
428	8
428.78	7
429.561	8
430.342	9
431.122	9
431.903	11
432.683	8
433.464	8
434.244	8
435.024	8
435.804	10
436.584	10
437.364	9
438.144	13
438.924	10
439.704	10
440.483	13
441.263	11
442.042	12
442.822	14
443.601	15
444.38	16
445.16	15
445.939	17
446.718	18
447.497	21
448.276	23
449.054	22
449.833	23
450.612	26
451.391	26
452.169	32
452.948	33
453.726	37
454.504	38
455.282	47
456.061	48
456.839	51
457.617	58
458.395	63
459.172	70
459.95	71
460.728	84
461.506	97
462.283	105
463.061	113
463.838	131
464.615	144
465.393	160
466.17	174
466.947	198
467.724	222
468.501	248
469.278	275
470.055	302
470.831	339
471.608	379
472.385	415
473.161	468
473.938	511
474.714	572
475.49	633
476.266	699
477.043	777
477.819	854
478.595	950
479.371	1038
480.146	1149
480.922	1272
481.698	1406
482.473	1549
483.249	1697
484.024	1874
484.8	2074
485.575	2258
486.35	2503
487.126	2782
487.901	3057
488.676	3350
489.451	3669
490.225	4055
491	4427
491.775	4853
492.55	5322
493.324	5801
494.099	6374
494.873	6925
495.647	7571
496.422	8223
497.196	8874
497.97	9577
498.744	10295
499.518	11063
500.292	11776
501.066	12485
501.839	13214
502.613	13865
503.387	14494
504.16	15026
504.934	15493
505.707	15850
506.48	16099
507.253	16310
508.027	16389
508.8	16333
509.573	16167
510.346	15938
511.118	15684
511.891	15279
512.664	14900
513.437	14321
514.209	13832
514.982	13242
515.754	12759
516.526	12174
517.298	11689
518.071	11148
518.843	10655
519.615	10223
520.387	9731
521.159	9432
521.93	9012
522.702	8601
523.474	8305
524.245	8015
525.017	7670
525.788	7348
526.56	7103
527.331	6784
528.102	6462
528.873	6223
529.644	5928
530.415	5647
531.186	5383
531.957	5119
532.728	4842
533.498	4596
534.269	4361
535.039	4112
535.81	3875
536.58	3668
537.351	3449
538.121	3293
538.891	3092
539.661	2924
540.431	2767
541.201	2620
541.971	2468
542.741	2336
543.51	2238
544.28	2107
545.05	2000
545.819	1915
546.588	1821
547.358	1727
548.127	1644
548.896	1563
549.665	1473
550.434	1401
551.203	1324
551.972	1259
552.741	1197
553.51	1135
554.278	1091
555.047	1027
555.815	943
556.584	901
557.352	852
558.121	801
558.889	754
559.657	718
560.425	672
561.193	642
561.961	603
562.729	563
563.496	532
564.264	504
565.032	478
565.799	451
566.567	429
567.334	398
568.101	387
568.869	362
569.636	339
570.403	316
571.17	298
571.937	282
572.704	269
573.471	248
574.237	238
575.004	224
575.771	204
576.537	198
577.303	188
578.07	178
578.836	166
579.602	157
580.368	150
581.134	134
581.9	137
582.666	131
583.432	120
584.198	115
584.964	108
585.729	100
586.495	97
587.26	89
588.025	87
588.791	80
589.556	77
590.321	74
591.086	67
591.851	62
592.616	59
593.381	57
594.146	53
594.911	54
595.675	47
596.44	48
597.204	43
597.969	44
598.733	42
599.497	37
600.261	38
601.025	37
601.79	36
602.553	31
603.317	34
604.081	31
604.845	31
605.609	28
606.372	24
607.136	26
607.899	22
608.662	24
609.426	21
610.189	20
610.952	19
611.715	18
612.478	20
613.241	17
614.004	21
614.767	16
615.529	16
616.292	18
617.055	16
617.817	15
618.579	13
619.342	13
620.104	13
620.866	16
621.628	11
622.39	10
623.152	14
623.914	9
624.676	11
625.438	11
626.199	10
626.961	10
627.722	10
628.484	9
629.245	11
630.006	10
630.768	10
631.529	8
632.29	10
633.051	6
633.812	9
634.573	9
635.333	9
636.094	10
636.855	7
637.615	7
638.376	6
639.136	7
639.896	6
640.657	6
641.417	6
642.177	6
642.937	7
643.697	5
644.457	5
645.216	5
645.976	5
646.736	7
647.495	5
648.255	6
649.014	7
649.774	7
650.533	7
651.292	5
652.051	4
652.81	6
653.569	3
654.328	5
655.087	3
655.846	5
656.604	6
657.363	5
658.121	4
658.88	4
659.638	4
660.397	5
661.155	3
661.913	3
662.671	3
663.429	3
664.187	3
664.945	4
665.703	4
666.46	3
667.218	6
667.976	4
668.733	4
669.49	4
670.248	5
671.005	5
671.762	3
672.519	4
673.276	3
674.033	3
674.79	4
675.547	3
676.304	2
677.06	5
677.817	5
678.574	5
679.33	2
680.086	4
680.843	4
681.599	2
682.355	4
683.111	1
683.867	4
684.623	2
685.379	4
686.135	4
686.89	4
687.646	1
688.402	4
689.157	4
689.912	5
690.668	4
691.423	3
692.178	3
692.933	5
693.688	4
694.443	4
695.198	1
695.953	3
696.708	3
697.462	2
698.217	2
698.972	0
699.726	3
700.48	4
701.235	2
701.989	4
702.743	2
703.497	4
704.251	4
705.005	2
705.759	2
706.513	3
707.266	3
708.02	2
708.774	3
709.527	2
710.28	5
711.034	2
711.787	3
712.54	3
713.293	1
714.046	5
714.799	2
715.552	2
716.305	2
717.058	3
717.81	3
718.563	3
719.315	4
720.068	3
720.82	4
721.573	3
722.325	3
723.077	4
723.829	4
724.581	1
725.333	2
726.085	2
726.836	3
727.588	4
728.34	4
729.091	2
729.843	3
730.594	2
731.346	5
732.097	4
732.848	3
733.599	2
734.35	0
735.101	4
735.852	2
736.603	3
737.354	2
738.104	1
738.855	4
739.605	2
740.356	3
741.106	2
741.856	5
742.607	3
743.357	5
744.107	3
744.857	3
745.607	5
746.357	4
747.106	3
747.856	6
748.606	3
749.355	3
750.105	2
750.854	3
751.603	5
752.353	4
753.102	4
753.851	5
754.6	4
755.349	3
756.098	7
756.847	2
757.595	5
758.344	3
759.093	2
759.841	4
760.589	2
761.338	6
762.086	3
762.834	5
763.582	4
764.331	4
765.079	5
765.826	2
766.574	4
767.322	3
768.07	6
768.817	3
769.565	5
770.312	4
771.06	3
771.807	4
772.554	6
773.302	7
774.049	4
774.796	6
775.543	4
776.29	3
777.036	6
777.783	5
778.53	6
779.276	5
780.023	4
780.769	5
781.516	7
782.262	7
783.008	6
783.754	7
784.5	6
785.246	7
785.992	6
786.738	5
787.484	7
788.23	5
788.975	8
789.721	6
790.466	7
791.212	7
791.957	7
792.702	7
793.447	5
794.193	6
794.938	3
795.683	6
796.427	6
797.172	5
797.917	6
798.662	6
799.406	5
800.151	6
800.895	6
801.64	10
802.384	5
803.128	3
803.872	7
804.616	6
805.36	4
806.104	3
806.848	5
807.592	6
808.336	4
809.079	5
809.823	5
810.566	6
811.31	4
812.053	2
812.796	3
813.539	5
814.283	3
815.026	5
815.769	3
816.511	4
817.254	4
817.997	6
818.74	4
819.482	4
820.225	5
820.967	4
821.71	4
822.452	4
823.194	4
823.936	5
824.678	4
825.42	2
826.162	2
826.904	4
827.646	6
828.388	3
829.129	4
829.871	3
830.612	3
831.354	4
832.095	3
832.836	5
833.577	2
834.319	4
835.06	3
835.801	4
836.542	2
837.282	5
838.023	3
838.764	5
839.504	3
840.245	2
840.985	4
841.726	2
842.466	3
843.206	3
843.946	2
844.687	4
845.427	2
846.166	3
846.906	2
847.646	1
848.386	3
849.125	4
849.865	1
850.605	2
851.344	-1
852.083	2
852.823	2
853.562	4
854.301	-1
855.04	3
855.779	0
856.518	4
857.257	4
857.995	1
858.734	2
859.473	4
860.211	2
860.95	1
861.688	0
862.426	4
863.165	0
863.903	3
864.641	4
865.379	1
866.117	1
866.855	-1
867.593	2
868.33	1
869.068	4
869.806	2
870.543	1
871.28	2
872.018	3
872.755	3
873.492	2
874.229	4
874.967	0
875.703	3
876.44	2
877.177	2
877.914	1
878.651	1
879.387	2
880.124	4
880.86	2
881.597	2
882.333	1
883.069	2
883.806	0
884.542	2
885.278	2
886.014	2
886.749	2
887.485	1
888.221	2
888.957	2
889.692	2
890.428	0
891.163	0
891.899	3
892.634	2
893.369	2
894.104	0
894.839	2
895.574	-1
896.309	-1
897.044	1
897.779	-1
898.514	1
899.248	3
899.983	2
900.717	2
901.452	0
902.186	1
902.92	-1
903.654	2
904.389	2
905.123	1
905.857	2
906.59	1
907.324	0
908.058	2
908.792	1
909.525	3
910.259	3
910.992	-1
911.726	1
912.459	3
913.192	0
913.925	3
914.658	2
915.391	1
916.124	2
916.857	0
917.59	-1
918.323	0
919.055	3
919.788	-1
920.521	1
921.253	2
921.985	2
922.718	3
923.45	0
924.182	2
924.914	0
925.646	0
926.378	0
927.11	2
927.841	1
928.573	1
929.305	0
930.036	1
930.768	3
931.499	2
932.23	-1
932.962	3
933.693	0
934.424	0
935.155	1
935.886	1
936.617	1
937.348	1
938.078	1
938.809	2
939.54	3
940.27	0
941.001	-1
941.731	-1
942.461	2
943.191	2
943.922	0
944.652	2
945.382	3
946.112	2
946.841	0
947.571	1
948.301	2
949.031	1
949.76	-1
950.49	2
951.219	-1
951.948	2
952.678	-1
953.407	-1
954.136	0
954.865	2
955.594	1
956.323	0
957.052	3
957.78	4
958.509	2
959.238	1
959.966	-1
960.695	1
961.423	0
962.151	2
962.88	1
963.608	1
964.336	-1
965.064	1
965.792	0
966.52	1
967.247	1
967.975	0
968.703	2
969.43	1
970.158	1
970.885	2
971.613	0
972.34	3
973.067	2
973.794	2
974.521	-1
975.248	1
975.975	2
976.702	1
977.429	1
978.156	0
978.882	0
979.609	1
980.335	0
981.062	3
981.788	0
982.514	1
983.24	0
983.967	-1
984.693	1
985.419	0
986.144	3
986.87	0
987.596	0
988.322	2
989.047	2
989.773	1
990.498	2
991.224	2
991.949	-1
992.674	0
993.399	1
994.124	2
994.849	1
995.574	0
996.299	2
997.024	1
997.749	2
998.473	0
999.198	1
999.922	2
1000.647	0
1001.371	3
1002.095	0
1002.82	-2
1003.544	-1
1004.268	2
1004.992	0
1005.716	-1
1006.439	1
1007.163	1
1007.887	2
1008.611	2
1009.334	1
1010.058	0
1010.781	1
1011.504	1
1012.228	-1
1012.951	-2
1013.674	2
1014.397	0
1015.12	0
