节点500_145_QEPB04081__636__11-39-05-175.txt的数据

Date: Wed Nov 12 11:39:05 CST 2025
User: PC
Spectrometer: QEPB0408
触发模式: 0
积分时间 (秒): 1.000000E-2
Scans to average: 1
启用暗噪声校正: true
启用非线性校正: false
滑动平均宽度: 0
X轴模式: Wavelengths
Number of Pixels in Spectrum: 1044
>>>>>Begin Spectral Data<<<<<
220.843	-0.38
221.644	0.62
222.444	0.62
223.244	-0.38
224.045	0.62
224.845	-1.38
225.645	1.62
226.445	1.62
227.245	-0.38
228.045	0.62
228.845	-0.38
229.645	-1.38
230.444	1.62
231.244	1.62
232.043	0.62
232.843	-0.38
233.642	-1.38
234.442	-0.38
235.241	-0.38
236.04	0.62
236.839	2.62
237.638	2.62
238.437	1.62
239.236	3.62
240.035	3.62
240.833	-0.38
241.632	-0.38
242.43	2.62
243.229	1.62
244.027	1.62
244.826	2.62
245.624	1.62
246.422	1.62
247.22	1.62
248.018	0.62
248.816	2.62
249.614	1.62
250.412	2.62
251.21	1.62
252.007	3.62
252.805	0.62
253.602	3.62
254.4	0.62
255.197	3.62
255.994	5.62
256.791	3.62
257.589	2.62
258.386	3.62
259.183	3.62
259.979	4.62
260.776	2.62
261.573	3.62
262.37	5.62
263.166	5.62
263.963	5.62
264.759	4.62
265.556	4.62
266.352	5.62
267.148	7.62
267.944	5.62
268.74	4.62
269.536	4.62
270.332	8.62
271.128	9.62
271.924	6.62
272.719	7.62
273.515	5.62
274.311	10.62
275.106	7.62
275.901	9.62
276.697	7.62
277.492	7.62
278.287	7.62
279.082	7.62
279.877	9.62
280.672	7.62
281.467	10.62
282.262	11.62
283.056	7.62
283.851	11.62
284.646	9.62
285.44	10.62
286.234	8.62
287.029	8.62
287.823	11.62
288.617	12.62
289.411	10.62
290.205	8.62
290.999	9.62
291.793	10.62
292.587	12.62
293.381	7.62
294.174	10.62
294.968	9.62
295.761	8.62
296.555	8.62
297.348	9.62
298.141	9.62
298.935	10.62
299.728	8.62
300.521	9.62
301.314	9.62
302.107	8.62
302.899	8.62
303.692	8.62
304.485	7.62
305.277	7.62
306.07	9.62
306.862	6.62
307.655	9.62
308.447	7.62
309.239	5.62
310.031	7.62
310.823	7.62
311.615	9.62
312.407	4.62
313.199	6.62
313.991	7.62
314.783	5.62
315.574	5.62
316.366	4.62
317.157	6.62
317.949	5.62
318.74	5.62
319.531	5.62
320.322	7.62
321.113	6.62
321.904	5.62
322.695	6.62
323.486	3.62
324.277	7.62
325.068	4.62
325.858	7.62
326.649	4.62
327.439	4.62
328.23	3.62
329.02	5.62
329.81	4.62
330.6	4.62
331.391	2.62
332.181	3.62
332.971	2.62
333.76	6.62
334.55	5.62
335.34	2.62
336.13	2.62
336.919	4.62
337.709	2.62
338.498	5.62
339.287	3.62
340.077	2.62
340.866	5.62
341.655	4.62
342.444	2.62
343.233	3.62
344.022	3.62
344.811	5.62
345.6	4.62
346.388	3.62
347.177	5.62
347.965	2.62
348.754	2.62
349.542	4.62
350.33	3.62
351.119	1.62
351.907	1.62
352.695	2.62
353.483	5.62
354.271	4.62
355.059	1.62
355.846	5.62
356.634	3.62
357.422	2.62
358.209	3.62
358.997	4.62
359.784	3.62
360.571	0.62
361.359	1.62
362.146	3.62
362.933	3.62
363.72	4.62
364.507	1.62
365.294	3.62
366.081	0.62
366.867	3.62
367.654	0.62
368.44	3.62
369.227	2.62
370.013	2.62
370.8	1.62
371.586	1.62
372.372	5.62
373.158	3.62
373.944	3.62
374.73	3.62
375.516	1.62
376.302	4.62
377.088	3.62
377.873	2.62
378.659	4.62
379.445	1.62
380.23	2.62
381.015	1.62
381.801	2.62
382.586	1.62
383.371	2.62
384.156	1.62
384.941	1.62
385.726	1.62
386.511	2.62
387.296	3.62
388.08	4.62
388.865	2.62
389.649	4.62
390.434	1.62
391.218	3.62
392.003	4.62
392.787	3.62
393.571	2.62
394.355	3.62
395.139	4.62
395.923	2.62
396.707	4.62
397.491	1.62
398.274	2.62
399.058	2.62
399.842	3.62
400.625	2.62
401.408	2.62
402.192	4.62
402.975	2.62
403.758	5.62
404.541	2.62
405.324	3.62
406.107	5.62
406.89	3.62
407.673	5.62
408.456	2.62
409.238	4.62
410.021	4.62
410.803	4.62
411.586	4.62
412.368	2.62
413.151	5.62
413.933	2.62
414.715	5.62
415.497	3.62
416.279	5.62
417.061	4.62
417.843	6.62
418.624	5.62
419.406	6.62
420.188	7.62
420.969	5.62
421.751	7.62
422.532	6.62
423.313	8.62
424.095	7.62
424.876	6.62
425.657	7.62
426.438	5.62
427.219	8.62
428	6.62
428.78	7.62
429.561	7.62
430.342	5.62
431.122	7.62
431.903	8.62
432.683	7.62
433.464	7.62
434.244	5.62
435.024	8.62
435.804	8.62
436.584	7.62
437.364	12.62
438.144	9.62
438.924	9.62
439.704	9.62
440.483	11.62
441.263	10.62
442.042	13.62
442.822	13.62
443.601	12.62
444.38	14.62
445.16	15.62
445.939	16.62
446.718	17.62
447.497	22.62
448.276	21.62
449.054	26.62
449.833	24.62
450.612	23.62
451.391	29.62
452.169	30.62
452.948	36.62
453.726	35.62
454.504	40.62
455.282	45.62
456.061	51.62
456.839	55.62
457.617	61.62
458.395	70.62
459.172	73.62
459.95	84.62
460.728	96.62
461.506	101.62
462.283	115.62
463.061	128.62
463.838	139.62
464.615	154.62
465.393	171.62
466.17	190.62
466.947	218.62
467.724	236.62
468.501	261.62
469.278	287.62
470.055	328.62
470.831	363.62
471.608	395.62
472.385	441.62
473.161	494.62
473.938	550.62
474.714	594.62
475.49	663.62
476.266	713.62
477.043	801.62
477.819	871.62
478.595	973.62
479.371	1061.62
480.146	1155.62
480.922	1270.62
481.698	1381.62
482.473	1513.62
483.249	1675.62
484.024	1825.62
484.8	2007.62
485.575	2195.62
486.35	2400.62
487.126	2618.62
487.901	2845.62
488.676	3118.62
489.451	3401.62
490.225	3712.62
491	4059.62
491.775	4452.62
492.55	4828.62
493.324	5237.62
494.099	5717.62
494.873	6206.62
495.647	6702.62
496.422	7273.62
497.196	7841.62
497.97	8404.62
498.744	9032.62
499.518	9698.62
500.292	10371.62
501.066	11002.62
501.839	11597.62
502.613	12245.62
503.387	12792.62
504.16	13334.62
504.934	13800.62
505.707	14226.62
506.48	14588.62
507.253	14831.62
508.027	15036.62
508.8	15184.62
509.573	15092.62
510.346	15043.62
511.118	14881.62
511.891	14674.62
512.664	14293.62
513.437	13920.62
514.209	13550.62
514.982	13054.62
515.754	12612.62
516.526	12127.62
517.298	11657.62
518.071	11174.62
518.843	10724.62
519.615	10297.62
520.387	9859.62
521.159	9460.62
521.93	9093.62
522.702	8710.62
523.474	8394.62
524.245	8068.62
525.017	7762.62
525.788	7414.62
526.56	7103.62
527.331	6841.62
528.102	6540.62
528.873	6293.62
529.644	6039.62
530.415	5778.62
531.186	5498.62
531.957	5278.62
532.728	4996.62
533.498	4739.62
534.269	4511.62
535.039	4288.62
535.81	4024.62
536.58	3828.62
537.351	3626.62
538.121	3418.62
538.891	3253.62
539.661	3061.62
540.431	2891.62
541.201	2730.62
541.971	2585.62
542.741	2456.62
543.51	2313.62
544.28	2236.62
545.05	2101.62
545.819	2015.62
546.588	1890.62
547.358	1806.62
548.127	1717.62
548.896	1646.62
549.665	1548.62
550.434	1467.62
551.203	1408.62
551.972	1336.62
552.741	1269.62
553.51	1192.62
554.278	1134.62
555.047	1083.62
555.815	1019.62
556.584	958.62
557.352	903.62
558.121	862.62
558.889	810.62
559.657	756.62
560.425	721.62
561.193	674.62
561.961	634.62
562.729	595.62
563.496	565.62
564.264	535.62
565.032	503.62
565.799	475.62
566.567	449.62
567.334	418.62
568.101	399.62
568.869	377.62
569.636	356.62
570.403	335.62
571.17	321.62
571.937	299.62
572.704	283.62
573.471	267.62
574.237	248.62
575.004	236.62
575.771	228.62
576.537	213.62
577.303	196.62
578.07	187.62
578.836	174.62
579.602	166.62
580.368	153.62
581.134	145.62
581.9	143.62
582.666	132.62
583.432	123.62
584.198	122.62
584.964	111.62
585.729	106.62
586.495	97.62
587.26	93.62
588.025	89.62
588.791	86.62
589.556	78.62
590.321	75.62
591.086	73.62
591.851	69.62
592.616	66.62
593.381	62.62
594.146	59.62
594.911	54.62
595.675	51.62
596.44	50.62
597.204	49.62
597.969	43.62
598.733	42.62
599.497	41.62
600.261	41.62
601.025	37.62
601.79	37.62
602.553	35.62
603.317	33.62
604.081	34.62
604.845	29.62
605.609	30.62
606.372	28.62
607.136	27.62
607.899	25.62
608.662	23.62
609.426	21.62
610.189	23.62
610.952	23.62
611.715	18.62
612.478	20.62
613.241	17.62
614.004	20.62
614.767	16.62
615.529	15.62
616.292	15.62
617.055	17.62
617.817	16.62
618.579	14.62
619.342	15.62
620.104	12.62
620.866	14.62
621.628	13.62
622.39	12.62
623.152	13.62
623.914	11.62
624.676	13.62
625.438	11.62
626.199	8.62
626.961	8.62
627.722	9.62
628.484	9.62
629.245	9.62
630.006	7.62
630.768	7.62
631.529	7.62
632.29	9.62
633.051	8.62
633.812	7.62
634.573	6.62
635.333	9.62
636.094	7.62
636.855	4.62
637.615	5.62
638.376	6.62
639.136	8.62
639.896	6.62
640.657	4.62
641.417	5.62
642.177	5.62
642.937	6.62
643.697	7.62
644.457	5.62
645.216	2.62
645.976	3.62
646.736	3.62
647.495	5.62
648.255	4.62
649.014	3.62
649.774	6.62
650.533	5.62
651.292	4.62
652.051	5.62
652.81	3.62
653.569	3.62
654.328	2.62
655.087	4.62
655.846	5.62
656.604	2.62
657.363	2.62
658.121	2.62
658.88	4.62
659.638	1.62
660.397	4.62
661.155	2.62
661.913	3.62
662.671	2.62
663.429	1.62
664.187	3.62
664.945	2.62
665.703	2.62
666.46	4.62
667.218	4.62
667.976	2.62
668.733	-0.38
669.49	3.62
670.248	2.62
671.005	1.62
671.762	2.62
672.519	2.62
673.276	2.62
674.033	3.62
674.79	-0.38
675.547	1.62
676.304	5.62
677.06	2.62
677.817	1.62
678.574	2.62
679.33	1.62
680.086	3.62
680.843	2.62
681.599	2.62
682.355	2.62
683.111	3.62
683.867	2.62
684.623	0.62
685.379	2.62
686.135	4.62
686.89	0.62
687.646	2.62
688.402	1.62
689.157	1.62
689.912	-0.38
690.668	2.62
691.423	1.62
692.178	2.62
692.933	0.62
693.688	1.62
694.443	3.62
695.198	3.62
695.953	3.62
696.708	1.62
697.462	1.62
698.217	3.62
698.972	1.62
699.726	1.62
700.48	2.62
701.235	1.62
701.989	1.62
702.743	3.62
703.497	0.62
704.251	0.62
705.005	2.62
705.759	0.62
706.513	3.62
707.266	3.62
708.02	3.62
708.774	1.62
709.527	3.62
710.28	3.62
711.034	1.62
711.787	0.62
712.54	2.62
713.293	2.62
714.046	0.62
714.799	0.62
715.552	2.62
716.305	2.62
717.058	3.62
717.81	0.62
718.563	4.62
719.315	0.62
720.068	1.62
720.82	1.62
721.573	2.62
722.325	3.62
723.077	-0.38
723.829	2.62
724.581	2.62
725.333	2.62
726.085	2.62
726.836	-0.38
727.588	3.62
728.34	1.62
729.091	4.62
729.843	2.62
730.594	2.62
731.346	3.62
732.097	0.62
732.848	2.62
733.599	2.62
734.35	1.62
735.101	2.62
735.852	3.62
736.603	2.62
737.354	1.62
738.104	2.62
738.855	2.62
739.605	1.62
740.356	3.62
741.106	1.62
741.856	3.62
742.607	1.62
743.357	1.62
744.107	2.62
744.857	3.62
745.607	0.62
746.357	1.62
747.106	3.62
747.856	2.62
748.606	3.62
749.355	2.62
750.105	1.62
750.854	1.62
751.603	2.62
752.353	3.62
753.102	2.62
753.851	3.62
754.6	2.62
755.349	3.62
756.098	1.62
756.847	2.62
757.595	3.62
758.344	2.62
759.093	1.62
759.841	0.62
760.589	1.62
761.338	5.62
762.086	3.62
762.834	2.62
763.582	1.62
764.331	2.62
765.079	1.62
765.826	2.62
766.574	5.62
767.322	3.62
768.07	3.62
768.817	4.62
769.565	2.62
770.312	4.62
771.06	2.62
771.807	4.62
772.554	1.62
773.302	3.62
774.049	3.62
774.796	3.62
775.543	2.62
776.29	4.62
777.036	4.62
777.783	3.62
778.53	5.62
779.276	2.62
780.023	5.62
780.769	4.62
781.516	4.62
782.262	4.62
783.008	1.62
783.754	5.62
784.5	5.62
785.246	6.62
785.992	6.62
786.738	4.62
787.484	6.62
788.23	3.62
788.975	4.62
789.721	7.62
790.466	5.62
791.212	6.62
791.957	5.62
792.702	5.62
793.447	4.62
794.193	3.62
794.938	3.62
795.683	5.62
796.427	7.62
797.172	4.62
797.917	4.62
798.662	2.62
799.406	4.62
800.151	5.62
800.895	4.62
801.64	5.62
802.384	5.62
803.128	4.62
803.872	2.62
804.616	7.62
805.36	4.62
806.104	5.62
806.848	3.62
807.592	4.62
808.336	3.62
809.079	3.62
809.823	3.62
810.566	4.62
811.31	1.62
812.053	4.62
812.796	1.62
813.539	5.62
814.283	1.62
815.026	4.62
815.769	4.62
816.511	2.62
817.254	4.62
817.997	3.62
818.74	3.62
819.482	5.62
820.225	3.62
820.967	4.62
821.71	1.62
822.452	4.62
823.194	4.62
823.936	5.62
824.678	2.62
825.42	3.62
826.162	1.62
826.904	3.62
827.646	1.62
828.388	4.62
829.129	1.62
829.871	2.62
830.612	4.62
831.354	2.62
832.095	4.62
832.836	3.62
833.577	2.62
834.319	4.62
835.06	4.62
835.801	3.62
836.542	3.62
837.282	4.62
838.023	2.62
838.764	1.62
839.504	2.62
840.245	2.62
840.985	2.62
841.726	2.62
842.466	0.62
843.206	1.62
843.946	2.62
844.687	4.62
845.427	0.62
846.166	2.62
846.906	3.62
847.646	2.62
848.386	1.62
849.125	-0.38
849.865	2.62
850.605	1.62
851.344	1.62
852.083	3.62
852.823	1.62
853.562	2.62
854.301	-1.38
855.04	2.62
855.779	0.62
856.518	3.62
857.257	2.62
857.995	1.62
858.734	2.62
859.473	-1.38
860.211	2.62
860.95	0.62
861.688	1.62
862.426	0.62
863.165	1.62
863.903	2.62
864.641	1.62
865.379	2.62
866.117	1.62
866.855	0.62
867.593	4.62
868.33	1.62
869.068	0.62
869.806	2.62
870.543	2.62
871.28	2.62
872.018	1.62
872.755	-0.38
873.492	0.62
874.229	3.62
874.967	-0.38
875.703	1.62
876.44	-0.38
877.177	1.62
877.914	1.62
878.651	0.62
879.387	1.62
880.124	1.62
880.86	0.62
881.597	0.62
882.333	1.62
883.069	2.62
883.806	-1.38
884.542	-0.38
885.278	-0.38
886.014	2.62
886.749	-0.38
887.485	0.62
888.221	1.62
888.957	0.62
889.692	1.62
890.428	-0.38
891.163	3.62
891.899	1.62
892.634	0.62
893.369	1.62
894.104	-1.38
894.839	2.62
895.574	2.62
896.309	0.62
897.044	0.62
897.779	0.62
898.514	2.62
899.248	-2.38
899.983	1.62
900.717	1.62
901.452	-1.38
902.186	1.62
902.92	0.62
903.654	0.62
904.389	-0.38
905.123	1.62
905.857	0.62
906.59	1.62
907.324	0.62
908.058	0.62
908.792	-1.38
909.525	0.62
910.259	1.62
910.992	1.62
911.726	0.62
912.459	0.62
913.192	-0.38
913.925	3.62
914.658	-0.38
915.391	0.62
916.124	-1.38
916.857	1.62
917.59	0.62
918.323	-0.38
919.055	0.62
919.788	-0.38
920.521	0.62
921.253	0.62
921.985	0.62
922.718	0.62
923.45	0.62
924.182	1.62
924.914	-0.38
925.646	1.62
926.378	1.62
927.11	1.62
927.841	1.62
928.573	-0.38
929.305	2.62
930.036	-0.38
930.768	0.62
931.499	-0.38
932.23	3.62
932.962	-1.38
933.693	-0.38
934.424	1.62
935.155	0.62
935.886	3.62
936.617	-0.38
937.348	0.62
938.078	2.62
938.809	-2.38
939.54	-0.38
940.27	0.62
941.001	-0.38
941.731	-2.38
942.461	0.62
943.191	-0.38
943.922	-1.38
944.652	0.62
945.382	0.62
946.112	1.62
946.841	1.62
947.571	-0.38
948.301	1.62
949.031	-0.38
949.76	1.62
950.49	1.62
951.219	-1.38
951.948	-1.38
952.678	-0.38
953.407	-1.38
954.136	0.62
954.865	0.62
955.594	-0.38
956.323	0.62
957.052	-0.38
957.78	0.62
958.509	2.62
959.238	-0.38
959.966	1.62
960.695	-1.38
961.423	1.62
962.151	0.62
962.88	-0.38
963.608	2.62
964.336	-0.38
965.064	-0.38
965.792	0.62
966.52	1.62
967.247	0.62
967.975	-1.38
968.703	0.62
969.43	-0.38
970.158	-1.38
970.885	-1.38
971.613	0.62
972.34	3.62
973.067	-1.38
973.794	2.62
974.521	0.62
975.248	1.62
975.975	-1.38
976.702	1.62
977.429	-0.38
978.156	1.62
978.882	1.62
979.609	1.62
980.335	1.62
981.062	-1.38
981.788	0.62
982.514	0.62
983.24	-0.38
983.967	0.62
984.693	-1.38
985.419	0.62
986.144	0.62
986.87	-0.38
987.596	-0.38
988.322	1.62
989.047	2.62
989.773	-1.38
990.498	0.62
991.224	2.62
991.949	0.62
992.674	-1.38
993.399	1.62
994.124	1.62
994.849	-0.38
995.574	0.62
996.299	1.62
997.024	-1.38
997.749	-1.38
998.473	-0.38
999.198	0.62
999.922	0.62
1000.647	1.62
1001.371	2.62
1002.095	-2.38
1002.82	-1.38
1003.544	-1.38
1004.268	0.62
1004.992	-2.38
1005.716	-0.38
1006.439	-0.38
1007.163	-1.38
1007.887	1.62
1008.611	2.62
1009.334	1.62
1010.058	1.62
1010.781	0.62
1011.504	0.62
1012.228	-0.38
1012.951	1.62
1013.674	1.62
1014.397	0.62
1015.12	-1.38
