节点500_145_QEPB04081__360__11-34-42-556.txt的数据

Date: Wed Nov 12 11:34:42 CST 2025
User: PC
Spectrometer: QEPB0408
触发模式: 0
积分时间 (秒): 1.000000E-2
Scans to average: 1
启用暗噪声校正: true
启用非线性校正: false
滑动平均宽度: 0
X轴模式: Wavelengths
Number of Pixels in Spectrum: 1044
>>>>>Begin Spectral Data<<<<<
220.843	-2.12
221.644	-1.12
222.444	-1.12
223.244	-0.12
224.045	-1.12
224.845	-1.12
225.645	-0.12
226.445	-0.12
227.245	-0.12
228.045	-1.12
228.845	-1.12
229.645	-1.12
230.444	-3.12
231.244	0.88
232.043	-0.12
232.843	1.88
233.642	-1.12
234.442	-1.12
235.241	-0.12
236.04	-0.12
236.839	0.88
237.638	0.88
238.437	1.88
239.236	0.88
240.035	0.88
240.833	1.88
241.632	1.88
242.43	0.88
243.229	1.88
244.027	0.88
244.826	0.88
245.624	1.88
246.422	-1.12
247.22	1.88
248.018	2.88
248.816	0.88
249.614	-0.12
250.412	1.88
251.21	1.88
252.007	-0.12
252.805	0.88
253.602	1.88
254.4	2.88
255.197	2.88
255.994	1.88
256.791	2.88
257.589	2.88
258.386	4.88
259.183	3.88
259.979	4.88
260.776	5.88
261.573	2.88
262.37	3.88
263.166	4.88
263.963	2.88
264.759	3.88
265.556	5.88
266.352	4.88
267.148	4.88
267.944	7.88
268.74	5.88
269.536	4.88
270.332	6.88
271.128	8.88
271.924	7.88
272.719	6.88
273.515	6.88
274.311	4.88
275.106	6.88
275.901	8.88
276.697	8.88
277.492	7.88
278.287	4.88
279.082	8.88
279.877	8.88
280.672	8.88
281.467	8.88
282.262	9.88
283.056	9.88
283.851	6.88
284.646	11.88
285.44	8.88
286.234	8.88
287.029	11.88
287.823	9.88
288.617	9.88
289.411	8.88
290.205	11.88
290.999	8.88
291.793	10.88
292.587	8.88
293.381	11.88
294.174	9.88
294.968	8.88
295.761	9.88
296.555	8.88
297.348	8.88
298.141	8.88
298.935	9.88
299.728	9.88
300.521	9.88
301.314	8.88
302.107	5.88
302.899	10.88
303.692	6.88
304.485	9.88
305.277	5.88
306.07	6.88
306.862	7.88
307.655	6.88
308.447	7.88
309.239	7.88
310.031	7.88
310.823	6.88
311.615	4.88
312.407	4.88
313.199	7.88
313.991	2.88
314.783	5.88
315.574	3.88
316.366	1.88
317.157	3.88
317.949	4.88
318.74	4.88
319.531	2.88
320.322	1.88
321.113	3.88
321.904	4.88
322.695	2.88
323.486	2.88
324.277	6.88
325.068	1.88
325.858	4.88
326.649	3.88
327.439	3.88
328.23	2.88
329.02	5.88
329.81	2.88
330.6	0.88
331.391	0.88
332.181	1.88
332.971	4.88
333.76	2.88
334.55	2.88
335.34	2.88
336.13	4.88
336.919	2.88
337.709	3.88
338.498	3.88
339.287	0.88
340.077	3.88
340.866	1.88
341.655	2.88
342.444	0.88
343.233	-0.12
344.022	4.88
344.811	3.88
345.6	3.88
346.388	1.88
347.177	2.88
347.965	2.88
348.754	0.88
349.542	2.88
350.33	2.88
351.119	2.88
351.907	4.88
352.695	2.88
353.483	1.88
354.271	0.88
355.059	3.88
355.846	1.88
356.634	1.88
357.422	2.88
358.209	1.88
358.997	2.88
359.784	3.88
360.571	-1.12
361.359	2.88
362.146	2.88
362.933	2.88
363.72	0.88
364.507	2.88
365.294	1.88
366.081	0.88
366.867	0.88
367.654	2.88
368.44	1.88
369.227	2.88
370.013	0.88
370.8	1.88
371.586	2.88
372.372	0.88
373.158	1.88
373.944	0.88
374.73	1.88
375.516	3.88
376.302	0.88
377.088	1.88
377.873	0.88
378.659	2.88
379.445	3.88
380.23	0.88
381.015	3.88
381.801	0.88
382.586	2.88
383.371	2.88
384.156	3.88
384.941	1.88
385.726	0.88
386.511	2.88
387.296	0.88
388.08	3.88
388.865	1.88
389.649	1.88
390.434	2.88
391.218	2.88
392.003	3.88
392.787	1.88
393.571	2.88
394.355	1.88
395.139	2.88
395.923	4.88
396.707	2.88
397.491	4.88
398.274	1.88
399.058	3.88
399.842	3.88
400.625	3.88
401.408	3.88
402.192	3.88
402.975	2.88
403.758	2.88
404.541	3.88
405.324	4.88
406.107	4.88
406.89	4.88
407.673	-0.12
408.456	1.88
409.238	2.88
410.021	2.88
410.803	3.88
411.586	4.88
412.368	3.88
413.151	5.88
413.933	1.88
414.715	3.88
415.497	7.88
416.279	3.88
417.061	3.88
417.843	2.88
418.624	2.88
419.406	4.88
420.188	3.88
420.969	3.88
421.751	6.88
422.532	3.88
423.313	6.88
424.095	2.88
424.876	4.88
425.657	6.88
426.438	5.88
427.219	2.88
428	4.88
428.78	6.88
429.561	6.88
430.342	8.88
431.122	8.88
431.903	5.88
432.683	6.88
433.464	6.88
434.244	8.88
435.024	9.88
435.804	7.88
436.584	8.88
437.364	11.88
438.144	9.88
438.924	8.88
439.704	9.88
440.483	9.88
441.263	10.88
442.042	11.88
442.822	12.88
443.601	14.88
444.38	12.88
445.16	14.88
445.939	16.88
446.718	16.88
447.497	16.88
448.276	17.88
449.054	20.88
449.833	22.88
450.612	22.88
451.391	26.88
452.169	30.88
452.948	32.88
453.726	32.88
454.504	38.88
455.282	42.88
456.061	45.88
456.839	51.88
457.617	55.88
458.395	61.88
459.172	65.88
459.95	77.88
460.728	82.88
461.506	91.88
462.283	105.88
463.061	117.88
463.838	126.88
464.615	142.88
465.393	158.88
466.17	177.88
466.947	198.88
467.724	221.88
468.501	249.88
469.278	275.88
470.055	304.88
470.831	337.88
471.608	376.88
472.385	420.88
473.161	469.88
473.938	517.88
474.714	566.88
475.49	642.88
476.266	701.88
477.043	790.88
477.819	860.88
478.595	953.88
479.371	1036.88
480.146	1153.88
480.922	1269.88
481.698	1395.88
482.473	1538.88
483.249	1708.88
484.024	1866.88
484.8	2043.88
485.575	2254.88
486.35	2491.88
487.126	2732.88
487.901	2999.88
488.676	3314.88
489.451	3647.88
490.225	4023.88
491	4376.88
491.775	4789.88
492.55	5245.88
493.324	5730.88
494.099	6254.88
494.873	6844.88
495.647	7483.88
496.422	8083.88
497.196	8759.88
497.97	9447.88
498.744	10176.88
499.518	10877.88
500.292	11606.88
501.066	12276.88
501.839	12947.88
502.613	13615.88
503.387	14274.88
504.16	14834.88
504.934	15277.88
505.707	15617.88
506.48	15908.88
507.253	16095.88
508.027	16190.88
508.8	16262.88
509.573	16105.88
510.346	15844.88
511.118	15655.88
511.891	15238.88
512.664	14807.88
513.437	14296.88
514.209	13788.88
514.982	13307.88
515.754	12791.88
516.526	12247.88
517.298	11680.88
518.071	11155.88
518.843	10664.88
519.615	10214.88
520.387	9796.88
521.159	9412.88
521.93	9042.88
522.702	8720.88
523.474	8354.88
524.245	7997.88
525.017	7680.88
525.788	7399.88
526.56	7105.88
527.331	6804.88
528.102	6487.88
528.873	6221.88
529.644	5958.88
530.415	5665.88
531.186	5440.88
531.957	5165.88
532.728	4870.88
533.498	4625.88
534.269	4355.88
535.039	4150.88
535.81	3888.88
536.58	3702.88
537.351	3483.88
538.121	3314.88
538.891	3133.88
539.661	2929.88
540.431	2784.88
541.201	2628.88
541.971	2499.88
542.741	2380.88
543.51	2243.88
544.28	2124.88
545.05	2026.88
545.819	1926.88
546.588	1836.88
547.358	1737.88
548.127	1661.88
548.896	1563.88
549.665	1484.88
550.434	1414.88
551.203	1344.88
551.972	1279.88
552.741	1192.88
553.51	1137.88
554.278	1074.88
555.047	1020.88
555.815	967.88
556.584	916.88
557.352	861.88
558.121	797.88
558.889	755.88
559.657	714.88
560.425	667.88
561.193	632.88
561.961	607.88
562.729	567.88
563.496	541.88
564.264	506.88
565.032	474.88
565.799	457.88
566.567	425.88
567.334	399.88
568.101	374.88
568.869	361.88
569.636	336.88
570.403	322.88
571.17	301.88
571.937	275.88
572.704	272.88
573.471	252.88
574.237	238.88
575.004	228.88
575.771	207.88
576.537	195.88
577.303	184.88
578.07	172.88
578.836	162.88
579.602	151.88
580.368	146.88
581.134	137.88
581.9	133.88
582.666	127.88
583.432	112.88
584.198	108.88
584.964	103.88
585.729	95.88
586.495	90.88
587.26	87.88
588.025	80.88
588.791	77.88
589.556	77.88
590.321	70.88
591.086	64.88
591.851	63.88
592.616	63.88
593.381	55.88
594.146	52.88
594.911	48.88
595.675	50.88
596.44	46.88
597.204	43.88
597.969	42.88
598.733	42.88
599.497	38.88
600.261	34.88
601.025	36.88
601.79	33.88
602.553	31.88
603.317	32.88
604.081	32.88
604.845	26.88
605.609	27.88
606.372	25.88
607.136	27.88
607.899	22.88
608.662	24.88
609.426	18.88
610.189	19.88
610.952	20.88
611.715	17.88
612.478	16.88
613.241	16.88
614.004	17.88
614.767	17.88
615.529	15.88
616.292	14.88
617.055	13.88
617.817	12.88
618.579	13.88
619.342	12.88
620.104	11.88
620.866	12.88
621.628	9.88
622.39	9.88
623.152	10.88
623.914	10.88
624.676	9.88
625.438	10.88
626.199	11.88
626.961	8.88
627.722	12.88
628.484	8.88
629.245	11.88
630.006	4.88
630.768	6.88
631.529	8.88
632.29	5.88
633.051	6.88
633.812	5.88
634.573	5.88
635.333	4.88
636.094	5.88
636.855	6.88
637.615	6.88
638.376	5.88
639.136	4.88
639.896	3.88
640.657	5.88
641.417	3.88
642.177	3.88
642.937	3.88
643.697	5.88
644.457	4.88
645.216	6.88
645.976	4.88
646.736	1.88
647.495	3.88
648.255	3.88
649.014	4.88
649.774	2.88
650.533	6.88
651.292	2.88
652.051	3.88
652.81	3.88
653.569	2.88
654.328	4.88
655.087	3.88
655.846	1.88
656.604	3.88
657.363	4.88
658.121	1.88
658.88	1.88
659.638	2.88
660.397	2.88
661.155	3.88
661.913	2.88
662.671	1.88
663.429	2.88
664.187	1.88
664.945	0.88
665.703	2.88
666.46	2.88
667.218	1.88
667.976	1.88
668.733	1.88
669.49	1.88
670.248	3.88
671.005	3.88
671.762	1.88
672.519	1.88
673.276	1.88
674.033	1.88
674.79	0.88
675.547	1.88
676.304	2.88
677.06	1.88
677.817	2.88
678.574	1.88
679.33	1.88
680.086	-0.12
680.843	1.88
681.599	0.88
682.355	0.88
683.111	1.88
683.867	1.88
684.623	1.88
685.379	1.88
686.135	1.88
686.89	1.88
687.646	0.88
688.402	1.88
689.157	0.88
689.912	1.88
690.668	0.88
691.423	0.88
692.178	1.88
692.933	2.88
693.688	-0.12
694.443	1.88
695.198	1.88
695.953	0.88
696.708	1.88
697.462	0.88
698.217	2.88
698.972	3.88
699.726	0.88
700.48	1.88
701.235	1.88
701.989	1.88
702.743	-0.12
703.497	1.88
704.251	0.88
705.005	-0.12
705.759	3.88
706.513	-0.12
707.266	1.88
708.02	2.88
708.774	0.88
709.527	0.88
710.28	-0.12
711.034	0.88
711.787	0.88
712.54	1.88
713.293	-2.12
714.046	1.88
714.799	1.88
715.552	-0.12
716.305	1.88
717.058	0.88
717.81	1.88
718.563	1.88
719.315	0.88
720.068	0.88
720.82	1.88
721.573	2.88
722.325	1.88
723.077	2.88
723.829	1.88
724.581	-0.12
725.333	1.88
726.085	0.88
726.836	3.88
727.588	1.88
728.34	0.88
729.091	1.88
729.843	0.88
730.594	0.88
731.346	0.88
732.097	0.88
732.848	-1.12
733.599	4.88
734.35	0.88
735.101	0.88
735.852	0.88
736.603	1.88
737.354	1.88
738.104	-0.12
738.855	1.88
739.605	-0.12
740.356	-1.12
741.106	0.88
741.856	-1.12
742.607	2.88
743.357	3.88
744.107	4.88
744.857	2.88
745.607	1.88
746.357	2.88
747.106	0.88
747.856	4.88
748.606	2.88
749.355	2.88
750.105	-1.12
750.854	0.88
751.603	2.88
752.353	1.88
753.102	2.88
753.851	0.88
754.6	2.88
755.349	2.88
756.098	3.88
756.847	2.88
757.595	0.88
758.344	1.88
759.093	2.88
759.841	1.88
760.589	1.88
761.338	3.88
762.086	4.88
762.834	2.88
763.582	1.88
764.331	1.88
765.079	2.88
765.826	1.88
766.574	3.88
767.322	4.88
768.07	5.88
768.817	3.88
769.565	4.88
770.312	3.88
771.06	1.88
771.807	2.88
772.554	3.88
773.302	2.88
774.049	3.88
774.796	2.88
775.543	3.88
776.29	3.88
777.036	2.88
777.783	2.88
778.53	6.88
779.276	3.88
780.023	3.88
780.769	3.88
781.516	4.88
782.262	1.88
783.008	6.88
783.754	4.88
784.5	5.88
785.246	4.88
785.992	2.88
786.738	2.88
787.484	5.88
788.23	6.88
788.975	2.88
789.721	6.88
790.466	5.88
791.212	2.88
791.957	3.88
792.702	4.88
793.447	3.88
794.193	3.88
794.938	3.88
795.683	5.88
796.427	4.88
797.172	3.88
797.917	2.88
798.662	3.88
799.406	2.88
800.151	3.88
800.895	4.88
801.64	3.88
802.384	2.88
803.128	3.88
803.872	2.88
804.616	1.88
805.36	3.88
806.104	3.88
806.848	2.88
807.592	5.88
808.336	2.88
809.079	4.88
809.823	3.88
810.566	2.88
811.31	4.88
812.053	2.88
812.796	2.88
813.539	1.88
814.283	2.88
815.026	4.88
815.769	1.88
816.511	2.88
817.254	1.88
817.997	4.88
818.74	1.88
819.482	1.88
820.225	1.88
820.967	2.88
821.71	3.88
822.452	3.88
823.194	2.88
823.936	1.88
824.678	3.88
825.42	3.88
826.162	1.88
826.904	2.88
827.646	0.88
828.388	1.88
829.129	0.88
829.871	0.88
830.612	2.88
831.354	1.88
832.095	1.88
832.836	0.88
833.577	1.88
834.319	0.88
835.06	1.88
835.801	1.88
836.542	1.88
837.282	1.88
838.023	-0.12
838.764	3.88
839.504	1.88
840.245	2.88
840.985	2.88
841.726	1.88
842.466	0.88
843.206	-0.12
843.946	1.88
844.687	-1.12
845.427	1.88
846.166	1.88
846.906	1.88
847.646	0.88
848.386	-0.12
849.125	-1.12
849.865	0.88
850.605	0.88
851.344	1.88
852.083	2.88
852.823	1.88
853.562	-1.12
854.301	1.88
855.04	1.88
855.779	1.88
856.518	-0.12
857.257	0.88
857.995	0.88
858.734	-0.12
859.473	0.88
860.211	1.88
860.95	-1.12
861.688	-0.12
862.426	-0.12
863.165	-0.12
863.903	-1.12
864.641	0.88
865.379	0.88
866.117	2.88
866.855	-0.12
867.593	0.88
868.33	-0.12
869.068	-0.12
869.806	0.88
870.543	-0.12
871.28	0.88
872.018	0.88
872.755	-1.12
873.492	1.88
874.229	-2.12
874.967	1.88
875.703	1.88
876.44	-1.12
877.177	2.88
877.914	-2.12
878.651	-0.12
879.387	-0.12
880.124	1.88
880.86	0.88
881.597	-1.12
882.333	-0.12
883.069	-0.12
883.806	-2.12
884.542	-0.12
885.278	1.88
886.014	0.88
886.749	-3.12
887.485	-0.12
888.221	-1.12
888.957	-0.12
889.692	-0.12
890.428	-0.12
891.163	-1.12
891.899	-1.12
892.634	-1.12
893.369	-1.12
894.104	-0.12
894.839	-0.12
895.574	-1.12
896.309	1.88
897.044	-1.12
897.779	1.88
898.514	-2.12
899.248	0.88
899.983	-0.12
900.717	0.88
901.452	1.88
902.186	-1.12
902.92	-0.12
903.654	0.88
904.389	-2.12
905.123	0.88
905.857	-1.12
906.59	0.88
907.324	-0.12
908.058	0.88
908.792	-0.12
909.525	0.88
910.259	-1.12
910.992	-2.12
911.726	-1.12
912.459	-2.12
913.192	-1.12
913.925	-2.12
914.658	2.88
915.391	-0.12
916.124	-0.12
916.857	-1.12
917.59	-1.12
918.323	-0.12
919.055	-0.12
919.788	-0.12
920.521	-0.12
921.253	0.88
921.985	0.88
922.718	-2.12
923.45	-0.12
924.182	-1.12
924.914	-1.12
925.646	-1.12
926.378	-1.12
927.11	-0.12
927.841	-2.12
928.573	0.88
929.305	-1.12
930.036	0.88
930.768	-0.12
931.499	1.88
932.23	0.88
932.962	0.88
933.693	1.88
934.424	-0.12
935.155	-2.12
935.886	-0.12
936.617	1.88
937.348	-2.12
938.078	-0.12
938.809	-0.12
939.54	-0.12
940.27	-0.12
941.001	-1.12
941.731	-0.12
942.461	-1.12
943.191	-0.12
943.922	-0.12
944.652	-2.12
945.382	-0.12
946.112	-1.12
946.841	0.88
947.571	-1.12
948.301	-0.12
949.031	0.88
949.76	-0.12
950.49	0.88
951.219	0.88
951.948	-2.12
952.678	-0.12
953.407	-2.12
954.136	0.88
954.865	-0.12
955.594	1.88
956.323	-0.12
957.052	-1.12
957.78	-0.12
958.509	0.88
959.238	-0.12
959.966	-0.12
960.695	-1.12
961.423	0.88
962.151	-0.12
962.88	-0.12
963.608	-0.12
964.336	0.88
965.064	0.88
965.792	1.88
966.52	0.88
967.247	-0.12
967.975	-1.12
968.703	0.88
969.43	2.88
970.158	0.88
970.885	-0.12
971.613	-1.12
972.34	-3.12
973.067	-1.12
973.794	-4.12
974.521	-0.12
975.248	-2.12
975.975	1.88
976.702	-0.12
977.429	-0.12
978.156	-0.12
978.882	-1.12
979.609	1.88
980.335	-0.12
981.062	0.88
981.788	0.88
982.514	-0.12
983.24	0.88
983.967	-0.12
984.693	1.88
985.419	-2.12
986.144	-3.12
986.87	0.88
987.596	-0.12
988.322	1.88
989.047	0.88
989.773	-0.12
990.498	-2.12
991.224	0.88
991.949	-0.12
992.674	0.88
993.399	1.88
994.124	-1.12
994.849	0.88
995.574	0.88
996.299	0.88
997.024	0.88
997.749	-1.12
998.473	-1.12
999.198	-0.12
999.922	-0.12
1000.647	-0.12
1001.371	1.88
1002.095	0.88
1002.82	-1.12
1003.544	-0.12
1004.268	0.88
1004.992	-3.12
1005.716	-0.12
1006.439	-3.12
1007.163	-1.12
1007.887	-2.12
1008.611	0.88
1009.334	0.88
1010.058	-0.12
1010.781	-1.12
1011.504	-2.12
1012.228	0.88
1012.951	2.88
1013.674	-0.12
1014.397	-2.12
1015.12	-2.12
