节点500_145_QEPB04081__391__11-35-12-567.txt的数据

Date: Wed Nov 12 11:35:12 CST 2025
User: PC
Spectrometer: QEPB0408
触发模式: 0
积分时间 (秒): 1.000000E-2
Scans to average: 1
启用暗噪声校正: true
启用非线性校正: false
滑动平均宽度: 0
X轴模式: Wavelengths
Number of Pixels in Spectrum: 1044
>>>>>Begin Spectral Data<<<<<
220.843	0.5
221.644	0.5
222.444	0.5
223.244	1.5
224.045	-1.5
224.845	-0.5
225.645	-1.5
226.445	-0.5
227.245	1.5
228.045	0.5
228.845	0.5
229.645	-0.5
230.444	1.5
231.244	-0.5
232.043	1.5
232.843	1.5
233.642	0.5
234.442	0.5
235.241	1.5
236.04	0.5
236.839	-0.5
237.638	1.5
238.437	0.5
239.236	2.5
240.035	2.5
240.833	2.5
241.632	1.5
242.43	1.5
243.229	1.5
244.027	0.5
244.826	1.5
245.624	1.5
246.422	2.5
247.22	2.5
248.018	1.5
248.816	1.5
249.614	0.5
250.412	2.5
251.21	2.5
252.007	2.5
252.805	1.5
253.602	0.5
254.4	2.5
255.197	3.5
255.994	5.5
256.791	5.5
257.589	3.5
258.386	2.5
259.183	2.5
259.979	4.5
260.776	1.5
261.573	6.5
262.37	2.5
263.166	5.5
263.963	6.5
264.759	5.5
265.556	3.5
266.352	4.5
267.148	6.5
267.944	6.5
268.74	5.5
269.536	7.5
270.332	8.5
271.128	8.5
271.924	7.5
272.719	7.5
273.515	7.5
274.311	7.5
275.106	8.5
275.901	7.5
276.697	9.5
277.492	5.5
278.287	6.5
279.082	9.5
279.877	9.5
280.672	10.5
281.467	8.5
282.262	8.5
283.056	7.5
283.851	10.5
284.646	10.5
285.44	9.5
286.234	9.5
287.029	10.5
287.823	10.5
288.617	12.5
289.411	10.5
290.205	12.5
290.999	9.5
291.793	12.5
292.587	10.5
293.381	9.5
294.174	10.5
294.968	10.5
295.761	7.5
296.555	10.5
297.348	10.5
298.141	9.5
298.935	9.5
299.728	8.5
300.521	10.5
301.314	8.5
302.107	6.5
302.899	8.5
303.692	6.5
304.485	7.5
305.277	8.5
306.07	8.5
306.862	9.5
307.655	7.5
308.447	9.5
309.239	6.5
310.031	5.5
310.823	4.5
311.615	5.5
312.407	5.5
313.199	6.5
313.991	6.5
314.783	7.5
315.574	4.5
316.366	6.5
317.157	2.5
317.949	7.5
318.74	7.5
319.531	5.5
320.322	5.5
321.113	5.5
321.904	4.5
322.695	4.5
323.486	4.5
324.277	7.5
325.068	4.5
325.858	4.5
326.649	4.5
327.439	4.5
328.23	2.5
329.02	4.5
329.81	5.5
330.6	6.5
331.391	6.5
332.181	3.5
332.971	1.5
333.76	4.5
334.55	5.5
335.34	3.5
336.13	4.5
336.919	4.5
337.709	5.5
338.498	2.5
339.287	5.5
340.077	3.5
340.866	2.5
341.655	4.5
342.444	2.5
343.233	4.5
344.022	3.5
344.811	3.5
345.6	5.5
346.388	3.5
347.177	3.5
347.965	-1.5
348.754	2.5
349.542	4.5
350.33	2.5
351.119	3.5
351.907	4.5
352.695	3.5
353.483	4.5
354.271	3.5
355.059	2.5
355.846	1.5
356.634	4.5
357.422	3.5
358.209	2.5
358.997	2.5
359.784	5.5
360.571	1.5
361.359	3.5
362.146	5.5
362.933	2.5
363.72	2.5
364.507	4.5
365.294	1.5
366.081	2.5
366.867	1.5
367.654	1.5
368.44	0.5
369.227	4.5
370.013	1.5
370.8	3.5
371.586	2.5
372.372	2.5
373.158	3.5
373.944	1.5
374.73	3.5
375.516	3.5
376.302	2.5
377.088	3.5
377.873	1.5
378.659	3.5
379.445	1.5
380.23	3.5
381.015	3.5
381.801	3.5
382.586	2.5
383.371	3.5
384.156	2.5
384.941	2.5
385.726	4.5
386.511	1.5
387.296	3.5
388.08	2.5
388.865	1.5
389.649	2.5
390.434	1.5
391.218	3.5
392.003	2.5
392.787	0.5
393.571	5.5
394.355	4.5
395.139	3.5
395.923	2.5
396.707	3.5
397.491	3.5
398.274	2.5
399.058	5.5
399.842	2.5
400.625	5.5
401.408	1.5
402.192	4.5
402.975	3.5
403.758	3.5
404.541	2.5
405.324	3.5
406.107	5.5
406.89	6.5
407.673	5.5
408.456	3.5
409.238	5.5
410.021	4.5
410.803	2.5
411.586	4.5
412.368	2.5
413.151	4.5
413.933	3.5
414.715	5.5
415.497	5.5
416.279	4.5
417.061	5.5
417.843	2.5
418.624	4.5
419.406	5.5
420.188	4.5
420.969	4.5
421.751	6.5
422.532	6.5
423.313	6.5
424.095	5.5
424.876	6.5
425.657	7.5
426.438	7.5
427.219	7.5
428	8.5
428.78	6.5
429.561	6.5
430.342	5.5
431.122	5.5
431.903	7.5
432.683	8.5
433.464	5.5
434.244	6.5
435.024	8.5
435.804	7.5
436.584	9.5
437.364	10.5
438.144	10.5
438.924	9.5
439.704	10.5
440.483	12.5
441.263	10.5
442.042	13.5
442.822	13.5
443.601	13.5
444.38	16.5
445.16	14.5
445.939	16.5
446.718	17.5
447.497	20.5
448.276	18.5
449.054	21.5
449.833	23.5
450.612	26.5
451.391	26.5
452.169	30.5
452.948	32.5
453.726	35.5
454.504	40.5
455.282	41.5
456.061	45.5
456.839	49.5
457.617	50.5
458.395	61.5
459.172	69.5
459.95	74.5
460.728	83.5
461.506	98.5
462.283	111.5
463.061	123.5
463.838	124.5
464.615	152.5
465.393	163.5
466.17	180.5
466.947	192.5
467.724	222.5
468.501	247.5
469.278	285.5
470.055	311.5
470.831	336.5
471.608	378.5
472.385	421.5
473.161	465.5
473.938	512.5
474.714	583.5
475.49	633.5
476.266	705.5
477.043	778.5
477.819	860.5
478.595	949.5
479.371	1056.5
480.146	1156.5
480.922	1271.5
481.698	1417.5
482.473	1553.5
483.249	1709.5
484.024	1884.5
484.8	2048.5
485.575	2263.5
486.35	2487.5
487.126	2726.5
487.901	2999.5
488.676	3290.5
489.451	3615.5
490.225	3993.5
491	4365.5
491.775	4761.5
492.55	5209.5
493.324	5671.5
494.099	6224.5
494.873	6786.5
495.647	7373.5
496.422	7990.5
497.196	8667.5
497.97	9339.5
498.744	10050.5
499.518	10769.5
500.292	11458.5
501.066	12190.5
501.839	12832.5
502.613	13527.5
503.387	14147.5
504.16	14683.5
504.934	15112.5
505.707	15508.5
506.48	15814.5
507.253	16020.5
508.027	16154.5
508.8	16127.5
509.573	16015.5
510.346	15837.5
511.118	15618.5
511.891	15201.5
512.664	14796.5
513.437	14349.5
514.209	13840.5
514.982	13287.5
515.754	12734.5
516.526	12244.5
517.298	11683.5
518.071	11179.5
518.843	10727.5
519.615	10213.5
520.387	9843.5
521.159	9429.5
521.93	9081.5
522.702	8698.5
523.474	8403.5
524.245	8017.5
525.017	7703.5
525.788	7430.5
526.56	7075.5
527.331	6791.5
528.102	6521.5
528.873	6249.5
529.644	5980.5
530.415	5711.5
531.186	5414.5
531.957	5165.5
532.728	4879.5
533.498	4664.5
534.269	4389.5
535.039	4159.5
535.81	3939.5
536.58	3721.5
537.351	3518.5
538.121	3318.5
538.891	3156.5
539.661	2977.5
540.431	2794.5
541.201	2655.5
541.971	2504.5
542.741	2379.5
543.51	2245.5
544.28	2152.5
545.05	2031.5
545.819	1921.5
546.588	1845.5
547.358	1763.5
548.127	1670.5
548.896	1586.5
549.665	1495.5
550.434	1423.5
551.203	1343.5
551.972	1282.5
552.741	1212.5
553.51	1160.5
554.278	1089.5
555.047	1025.5
555.815	972.5
556.584	914.5
557.352	855.5
558.121	818.5
558.889	770.5
559.657	725.5
560.425	679.5
561.193	644.5
561.961	602.5
562.729	572.5
563.496	539.5
564.264	508.5
565.032	483.5
565.799	453.5
566.567	424.5
567.334	406.5
568.101	383.5
568.869	366.5
569.636	336.5
570.403	320.5
571.17	301.5
571.937	281.5
572.704	273.5
573.471	252.5
574.237	242.5
575.004	231.5
575.771	205.5
576.537	200.5
577.303	189.5
578.07	180.5
578.836	168.5
579.602	155.5
580.368	145.5
581.134	142.5
581.9	129.5
582.666	131.5
583.432	119.5
584.198	113.5
584.964	110.5
585.729	104.5
586.495	93.5
587.26	92.5
588.025	85.5
588.791	78.5
589.556	76.5
590.321	72.5
591.086	68.5
591.851	61.5
592.616	63.5
593.381	57.5
594.146	52.5
594.911	52.5
595.675	51.5
596.44	44.5
597.204	49.5
597.969	44.5
598.733	41.5
599.497	39.5
600.261	40.5
601.025	36.5
601.79	34.5
602.553	35.5
603.317	30.5
604.081	33.5
604.845	27.5
605.609	30.5
606.372	25.5
607.136	26.5
607.899	24.5
608.662	21.5
609.426	20.5
610.189	20.5
610.952	23.5
611.715	18.5
612.478	19.5
613.241	20.5
614.004	15.5
614.767	15.5
615.529	15.5
616.292	15.5
617.055	18.5
617.817	13.5
618.579	13.5
619.342	12.5
620.104	13.5
620.866	13.5
621.628	11.5
622.39	9.5
623.152	13.5
623.914	10.5
624.676	10.5
625.438	12.5
626.199	10.5
626.961	11.5
627.722	8.5
628.484	9.5
629.245	8.5
630.006	7.5
630.768	9.5
631.529	7.5
632.29	10.5
633.051	5.5
633.812	7.5
634.573	7.5
635.333	5.5
636.094	7.5
636.855	6.5
637.615	5.5
638.376	3.5
639.136	5.5
639.896	5.5
640.657	4.5
641.417	6.5
642.177	5.5
642.937	6.5
643.697	5.5
644.457	5.5
645.216	4.5
645.976	4.5
646.736	5.5
647.495	3.5
648.255	4.5
649.014	3.5
649.774	8.5
650.533	6.5
651.292	1.5
652.051	2.5
652.81	3.5
653.569	5.5
654.328	5.5
655.087	3.5
655.846	2.5
656.604	5.5
657.363	3.5
658.121	3.5
658.88	4.5
659.638	1.5
660.397	2.5
661.155	4.5
661.913	-0.5
662.671	2.5
663.429	3.5
664.187	1.5
664.945	3.5
665.703	4.5
666.46	0.5
667.218	1.5
667.976	3.5
668.733	3.5
669.49	4.5
670.248	3.5
671.005	1.5
671.762	4.5
672.519	0.5
673.276	2.5
674.033	3.5
674.79	3.5
675.547	1.5
676.304	2.5
677.06	2.5
677.817	5.5
678.574	2.5
679.33	3.5
680.086	1.5
680.843	3.5
681.599	2.5
682.355	3.5
683.111	0.5
683.867	2.5
684.623	2.5
685.379	1.5
686.135	2.5
686.89	1.5
687.646	5.5
688.402	1.5
689.157	3.5
689.912	1.5
690.668	2.5
691.423	2.5
692.178	1.5
692.933	2.5
693.688	0.5
694.443	3.5
695.198	1.5
695.953	1.5
696.708	2.5
697.462	4.5
698.217	2.5
698.972	1.5
699.726	0.5
700.48	4.5
701.235	2.5
701.989	-0.5
702.743	1.5
703.497	1.5
704.251	3.5
705.005	4.5
705.759	0.5
706.513	2.5
707.266	3.5
708.02	4.5
708.774	2.5
709.527	3.5
710.28	2.5
711.034	2.5
711.787	-0.5
712.54	2.5
713.293	1.5
714.046	3.5
714.799	-0.5
715.552	1.5
716.305	2.5
717.058	1.5
717.81	1.5
718.563	1.5
719.315	4.5
720.068	-0.5
720.82	3.5
721.573	2.5
722.325	0.5
723.077	2.5
723.829	1.5
724.581	1.5
725.333	0.5
726.085	2.5
726.836	0.5
727.588	1.5
728.34	2.5
729.091	2.5
729.843	1.5
730.594	2.5
731.346	1.5
732.097	4.5
732.848	1.5
733.599	2.5
734.35	2.5
735.101	1.5
735.852	3.5
736.603	2.5
737.354	3.5
738.104	0.5
738.855	4.5
739.605	2.5
740.356	3.5
741.106	3.5
741.856	2.5
742.607	4.5
743.357	2.5
744.107	2.5
744.857	0.5
745.607	2.5
746.357	3.5
747.106	2.5
747.856	4.5
748.606	1.5
749.355	2.5
750.105	4.5
750.854	3.5
751.603	1.5
752.353	4.5
753.102	2.5
753.851	3.5
754.6	3.5
755.349	3.5
756.098	3.5
756.847	2.5
757.595	4.5
758.344	4.5
759.093	2.5
759.841	2.5
760.589	5.5
761.338	5.5
762.086	4.5
762.834	-0.5
763.582	3.5
764.331	1.5
765.079	4.5
765.826	2.5
766.574	2.5
767.322	3.5
768.07	2.5
768.817	5.5
769.565	1.5
770.312	3.5
771.06	5.5
771.807	4.5
772.554	4.5
773.302	4.5
774.049	2.5
774.796	1.5
775.543	4.5
776.29	4.5
777.036	5.5
777.783	5.5
778.53	3.5
779.276	2.5
780.023	4.5
780.769	2.5
781.516	5.5
782.262	6.5
783.008	6.5
783.754	2.5
784.5	3.5
785.246	3.5
785.992	6.5
786.738	4.5
787.484	4.5
788.23	4.5
788.975	5.5
789.721	8.5
790.466	5.5
791.212	7.5
791.957	5.5
792.702	6.5
793.447	6.5
794.193	4.5
794.938	8.5
795.683	3.5
796.427	5.5
797.172	3.5
797.917	2.5
798.662	3.5
799.406	2.5
800.151	4.5
800.895	4.5
801.64	5.5
802.384	5.5
803.128	3.5
803.872	4.5
804.616	3.5
805.36	5.5
806.104	3.5
806.848	5.5
807.592	4.5
808.336	2.5
809.079	4.5
809.823	4.5
810.566	3.5
811.31	4.5
812.053	3.5
812.796	1.5
813.539	5.5
814.283	4.5
815.026	5.5
815.769	2.5
816.511	4.5
817.254	2.5
817.997	5.5
818.74	3.5
819.482	0.5
820.225	4.5
820.967	5.5
821.71	2.5
822.452	3.5
823.194	3.5
823.936	3.5
824.678	3.5
825.42	2.5
826.162	1.5
826.904	2.5
827.646	5.5
828.388	1.5
829.129	4.5
829.871	2.5
830.612	2.5
831.354	2.5
832.095	3.5
832.836	3.5
833.577	3.5
834.319	2.5
835.06	3.5
835.801	2.5
836.542	1.5
837.282	1.5
838.023	3.5
838.764	4.5
839.504	2.5
840.245	0.5
840.985	0.5
841.726	1.5
842.466	3.5
843.206	1.5
843.946	3.5
844.687	0.5
845.427	1.5
846.166	0.5
846.906	2.5
847.646	2.5
848.386	2.5
849.125	2.5
849.865	2.5
850.605	2.5
851.344	3.5
852.083	0.5
852.823	4.5
853.562	-1.5
854.301	2.5
855.04	3.5
855.779	3.5
856.518	0.5
857.257	1.5
857.995	3.5
858.734	4.5
859.473	2.5
860.211	2.5
860.95	1.5
861.688	1.5
862.426	1.5
863.165	1.5
863.903	0.5
864.641	1.5
865.379	1.5
866.117	2.5
866.855	0.5
867.593	1.5
868.33	1.5
869.068	0.5
869.806	0.5
870.543	0.5
871.28	2.5
872.018	1.5
872.755	0.5
873.492	1.5
874.229	0.5
874.967	1.5
875.703	1.5
876.44	1.5
877.177	2.5
877.914	2.5
878.651	3.5
879.387	-1.5
880.124	1.5
880.86	1.5
881.597	1.5
882.333	0.5
883.069	0.5
883.806	1.5
884.542	-0.5
885.278	-0.5
886.014	-0.5
886.749	1.5
887.485	1.5
888.221	1.5
888.957	0.5
889.692	-1.5
890.428	0.5
891.163	-0.5
891.899	1.5
892.634	1.5
893.369	0.5
894.104	-0.5
894.839	2.5
895.574	2.5
896.309	-1.5
897.044	1.5
897.779	1.5
898.514	0.5
899.248	-1.5
899.983	-0.5
900.717	1.5
901.452	-1.5
902.186	0.5
902.92	3.5
903.654	-0.5
904.389	-1.5
905.123	1.5
905.857	1.5
906.59	-1.5
907.324	1.5
908.058	-0.5
908.792	2.5
909.525	0.5
910.259	1.5
910.992	1.5
911.726	-0.5
912.459	2.5
913.192	2.5
913.925	0.5
914.658	-0.5
915.391	0.5
916.124	0.5
916.857	1.5
917.59	1.5
918.323	0.5
919.055	-1.5
919.788	-1.5
920.521	0.5
921.253	-0.5
921.985	-0.5
922.718	-0.5
923.45	1.5
924.182	0.5
924.914	1.5
925.646	1.5
926.378	-1.5
927.11	-1.5
927.841	-1.5
928.573	0.5
929.305	0.5
930.036	-1.5
930.768	0.5
931.499	1.5
932.23	1.5
932.962	0.5
933.693	-0.5
934.424	1.5
935.155	0.5
935.886	1.5
936.617	1.5
937.348	-2.5
938.078	-0.5
938.809	-0.5
939.54	1.5
940.27	0.5
941.001	2.5
941.731	2.5
942.461	-1.5
943.191	0.5
943.922	-0.5
944.652	1.5
945.382	-0.5
946.112	-0.5
946.841	0.5
947.571	-0.5
948.301	0.5
949.031	0.5
949.76	0.5
950.49	0.5
951.219	-0.5
951.948	-0.5
952.678	-2.5
953.407	-0.5
954.136	1.5
954.865	1.5
955.594	-1.5
956.323	1.5
957.052	1.5
957.78	-0.5
958.509	2.5
959.238	-0.5
959.966	1.5
960.695	0.5
961.423	-1.5
962.151	1.5
962.88	0.5
963.608	-0.5
964.336	0.5
965.064	-0.5
965.792	0.5
966.52	0.5
967.247	1.5
967.975	-2.5
968.703	-0.5
969.43	1.5
970.158	1.5
970.885	0.5
971.613	-0.5
972.34	0.5
973.067	-2.5
973.794	0.5
974.521	0.5
975.248	0.5
975.975	1.5
976.702	-1.5
977.429	2.5
978.156	1.5
978.882	0.5
979.609	-0.5
980.335	-0.5
981.062	1.5
981.788	0.5
982.514	0.5
983.24	2.5
983.967	0.5
984.693	0.5
985.419	-1.5
986.144	-0.5
986.87	-0.5
987.596	0.5
988.322	0.5
989.047	0.5
989.773	2.5
990.498	-0.5
991.224	1.5
991.949	1.5
992.674	-0.5
993.399	-1.5
994.124	0.5
994.849	-0.5
995.574	-0.5
996.299	-1.5
997.024	-1.5
997.749	2.5
998.473	0.5
999.198	-1.5
999.922	-0.5
1000.647	0.5
1001.371	3.5
1002.095	-1.5
1002.82	0.5
1003.544	-3.5
1004.268	-0.5
1004.992	0.5
1005.716	1.5
1006.439	1.5
1007.163	-0.5
1007.887	-1.5
1008.611	0.5
1009.334	0.5
1010.058	1.5
1010.781	-1.5
1011.504	-1.5
1012.228	1.5
1012.951	-1.5
1013.674	1.5
1014.397	-1.5
1015.12	2.5
