节点500_145_QEPB04081__306__11-33-52-436.txt的数据

Date: Wed Nov 12 11:33:52 CST 2025
User: PC
Spectrometer: QEPB0408
触发模式: 0
积分时间 (秒): 1.000000E-2
Scans to average: 1
启用暗噪声校正: true
启用非线性校正: false
滑动平均宽度: 0
X轴模式: Wavelengths
Number of Pixels in Spectrum: 1044
>>>>>Begin Spectral Data<<<<<
220.843	-1.38
221.644	-0.38
222.444	1.62
223.244	-2.38
224.045	2.62
224.845	0.62
225.645	0.62
226.445	1.62
227.245	0.62
228.045	1.62
228.845	2.62
229.645	0.62
230.444	3.62
231.244	-1.38
232.043	0.62
232.843	-0.38
233.642	0.62
234.442	1.62
235.241	-1.38
236.04	-0.38
236.839	2.62
237.638	2.62
238.437	1.62
239.236	1.62
240.035	0.62
240.833	2.62
241.632	1.62
242.43	-0.38
243.229	3.62
244.027	2.62
244.826	2.62
245.624	2.62
246.422	2.62
247.22	2.62
248.018	3.62
248.816	2.62
249.614	5.62
250.412	4.62
251.21	4.62
252.007	4.62
252.805	1.62
253.602	2.62
254.4	4.62
255.197	2.62
255.994	3.62
256.791	1.62
257.589	2.62
258.386	2.62
259.183	7.62
259.979	3.62
260.776	3.62
261.573	6.62
262.37	4.62
263.166	5.62
263.963	3.62
264.759	5.62
265.556	7.62
266.352	7.62
267.148	6.62
267.944	7.62
268.74	9.62
269.536	5.62
270.332	8.62
271.128	6.62
271.924	7.62
272.719	10.62
273.515	6.62
274.311	8.62
275.106	9.62
275.901	10.62
276.697	7.62
277.492	10.62
278.287	7.62
279.082	11.62
279.877	11.62
280.672	8.62
281.467	9.62
282.262	12.62
283.056	10.62
283.851	12.62
284.646	10.62
285.44	11.62
286.234	11.62
287.029	13.62
287.823	13.62
288.617	9.62
289.411	10.62
290.205	12.62
290.999	10.62
291.793	11.62
292.587	8.62
293.381	10.62
294.174	9.62
294.968	9.62
295.761	10.62
296.555	11.62
297.348	10.62
298.141	9.62
298.935	10.62
299.728	8.62
300.521	11.62
301.314	8.62
302.107	10.62
302.899	8.62
303.692	9.62
304.485	9.62
305.277	10.62
306.07	8.62
306.862	6.62
307.655	8.62
308.447	9.62
309.239	7.62
310.031	6.62
310.823	6.62
311.615	7.62
312.407	5.62
313.199	6.62
313.991	5.62
314.783	7.62
315.574	3.62
316.366	5.62
317.157	5.62
317.949	7.62
318.74	4.62
319.531	3.62
320.322	2.62
321.113	5.62
321.904	2.62
322.695	5.62
323.486	2.62
324.277	5.62
325.068	5.62
325.858	5.62
326.649	2.62
327.439	5.62
328.23	4.62
329.02	2.62
329.81	3.62
330.6	3.62
331.391	1.62
332.181	3.62
332.971	3.62
333.76	5.62
334.55	3.62
335.34	3.62
336.13	5.62
336.919	4.62
337.709	3.62
338.498	4.62
339.287	5.62
340.077	3.62
340.866	4.62
341.655	3.62
342.444	2.62
343.233	3.62
344.022	2.62
344.811	2.62
345.6	-0.38
346.388	4.62
347.177	4.62
347.965	5.62
348.754	4.62
349.542	2.62
350.33	3.62
351.119	3.62
351.907	4.62
352.695	5.62
353.483	2.62
354.271	1.62
355.059	3.62
355.846	1.62
356.634	2.62
357.422	3.62
358.209	5.62
358.997	0.62
359.784	4.62
360.571	2.62
361.359	3.62
362.146	4.62
362.933	1.62
363.72	2.62
364.507	1.62
365.294	4.62
366.081	2.62
366.867	2.62
367.654	6.62
368.44	1.62
369.227	1.62
370.013	3.62
370.8	1.62
371.586	3.62
372.372	2.62
373.158	3.62
373.944	0.62
374.73	2.62
375.516	1.62
376.302	1.62
377.088	3.62
377.873	4.62
378.659	3.62
379.445	2.62
380.23	3.62
381.015	3.62
381.801	4.62
382.586	2.62
383.371	4.62
384.156	3.62
384.941	1.62
385.726	4.62
386.511	2.62
387.296	3.62
388.08	4.62
388.865	5.62
389.649	2.62
390.434	2.62
391.218	4.62
392.003	3.62
392.787	3.62
393.571	5.62
394.355	1.62
395.139	5.62
395.923	4.62
396.707	3.62
397.491	3.62
398.274	2.62
399.058	4.62
399.842	4.62
400.625	4.62
401.408	4.62
402.192	3.62
402.975	2.62
403.758	3.62
404.541	5.62
405.324	2.62
406.107	3.62
406.89	5.62
407.673	4.62
408.456	4.62
409.238	1.62
410.021	2.62
410.803	4.62
411.586	4.62
412.368	5.62
413.151	3.62
413.933	2.62
414.715	4.62
415.497	6.62
416.279	3.62
417.061	4.62
417.843	5.62
418.624	5.62
419.406	6.62
420.188	6.62
420.969	5.62
421.751	6.62
422.532	7.62
423.313	3.62
424.095	4.62
424.876	6.62
425.657	6.62
426.438	5.62
427.219	5.62
428	8.62
428.78	7.62
429.561	6.62
430.342	5.62
431.122	5.62
431.903	7.62
432.683	7.62
433.464	9.62
434.244	9.62
435.024	10.62
435.804	13.62
436.584	7.62
437.364	12.62
438.144	8.62
438.924	12.62
439.704	12.62
440.483	10.62
441.263	10.62
442.042	11.62
442.822	15.62
443.601	13.62
444.38	16.62
445.16	15.62
445.939	15.62
446.718	17.62
447.497	17.62
448.276	21.62
449.054	22.62
449.833	19.62
450.612	23.62
451.391	28.62
452.169	32.62
452.948	28.62
453.726	35.62
454.504	35.62
455.282	39.62
456.061	43.62
456.839	47.62
457.617	53.62
458.395	63.62
459.172	67.62
459.95	78.62
460.728	82.62
461.506	90.62
462.283	105.62
463.061	114.62
463.838	126.62
464.615	142.62
465.393	159.62
466.17	173.62
466.947	200.62
467.724	220.62
468.501	240.62
469.278	263.62
470.055	301.62
470.831	329.62
471.608	377.62
472.385	401.62
473.161	466.62
473.938	508.62
474.714	565.62
475.49	625.62
476.266	695.62
477.043	766.62
477.819	847.62
478.595	943.62
479.371	1036.62
480.146	1150.62
480.922	1275.62
481.698	1409.62
482.473	1552.62
483.249	1711.62
484.024	1886.62
484.8	2078.62
485.575	2295.62
486.35	2521.62
487.126	2768.62
487.901	3059.62
488.676	3348.62
489.451	3681.62
490.225	4054.62
491	4448.62
491.775	4853.62
492.55	5366.62
493.324	5854.62
494.099	6387.62
494.873	6989.62
495.647	7593.62
496.422	8268.62
497.196	8932.62
497.97	9642.62
498.744	10402.62
499.518	11140.62
500.292	11803.62
501.066	12568.62
501.839	13244.62
502.613	13970.62
503.387	14577.62
504.16	15063.62
504.934	15539.62
505.707	15957.62
506.48	16168.62
507.253	16436.62
508.027	16501.62
508.8	16378.62
509.573	16249.62
510.346	15989.62
511.118	15733.62
511.891	15343.62
512.664	14853.62
513.437	14334.62
514.209	13787.62
514.982	13293.62
515.754	12736.62
516.526	12222.62
517.298	11656.62
518.071	11108.62
518.843	10649.62
519.615	10177.62
520.387	9775.62
521.159	9379.62
521.93	8989.62
522.702	8620.62
523.474	8283.62
524.245	7965.62
525.017	7641.62
525.788	7344.62
526.56	7048.62
527.331	6737.62
528.102	6470.62
528.873	6185.62
529.644	5927.62
530.415	5642.62
531.186	5358.62
531.957	5112.62
532.728	4858.62
533.498	4584.62
534.269	4314.62
535.039	4081.62
535.81	3869.62
536.58	3653.62
537.351	3447.62
538.121	3253.62
538.891	3068.62
539.661	2909.62
540.431	2750.62
541.201	2611.62
541.971	2463.62
542.741	2324.62
543.51	2206.62
544.28	2113.62
545.05	2000.62
545.819	1905.62
546.588	1813.62
547.358	1725.62
548.127	1650.62
548.896	1539.62
549.665	1471.62
550.434	1401.62
551.203	1331.62
551.972	1269.62
552.741	1184.62
553.51	1132.62
554.278	1059.62
555.047	1003.62
555.815	949.62
556.584	910.62
557.352	851.62
558.121	792.62
558.889	748.62
559.657	705.62
560.425	670.62
561.193	631.62
561.961	600.62
562.729	560.62
563.496	520.62
564.264	497.62
565.032	471.62
565.799	455.62
566.567	423.62
567.334	392.62
568.101	377.62
568.869	356.62
569.636	333.62
570.403	314.62
571.17	301.62
571.937	280.62
572.704	265.62
573.471	251.62
574.237	236.62
575.004	221.62
575.771	204.62
576.537	195.62
577.303	184.62
578.07	172.62
578.836	159.62
579.602	156.62
580.368	144.62
581.134	138.62
581.9	126.62
582.666	122.62
583.432	114.62
584.198	108.62
584.964	105.62
585.729	97.62
586.495	90.62
587.26	91.62
588.025	81.62
588.791	80.62
589.556	74.62
590.321	70.62
591.086	68.62
591.851	65.62
592.616	55.62
593.381	58.62
594.146	54.62
594.911	52.62
595.675	46.62
596.44	46.62
597.204	43.62
597.969	40.62
598.733	42.62
599.497	39.62
600.261	36.62
601.025	38.62
601.79	34.62
602.553	30.62
603.317	30.62
604.081	28.62
604.845	31.62
605.609	27.62
606.372	26.62
607.136	26.62
607.899	26.62
608.662	21.62
609.426	22.62
610.189	22.62
610.952	21.62
611.715	18.62
612.478	16.62
613.241	18.62
614.004	17.62
614.767	17.62
615.529	14.62
616.292	16.62
617.055	14.62
617.817	12.62
618.579	11.62
619.342	13.62
620.104	13.62
620.866	14.62
621.628	14.62
622.39	13.62
623.152	10.62
623.914	10.62
624.676	8.62
625.438	12.62
626.199	9.62
626.961	9.62
627.722	8.62
628.484	5.62
629.245	9.62
630.006	7.62
630.768	6.62
631.529	8.62
632.29	7.62
633.051	7.62
633.812	6.62
634.573	7.62
635.333	4.62
636.094	5.62
636.855	5.62
637.615	6.62
638.376	4.62
639.136	6.62
639.896	5.62
640.657	4.62
641.417	6.62
642.177	6.62
642.937	6.62
643.697	6.62
644.457	3.62
645.216	2.62
645.976	4.62
646.736	5.62
647.495	4.62
648.255	3.62
649.014	4.62
649.774	4.62
650.533	5.62
651.292	2.62
652.051	3.62
652.81	4.62
653.569	3.62
654.328	5.62
655.087	2.62
655.846	2.62
656.604	2.62
657.363	4.62
658.121	3.62
658.88	2.62
659.638	2.62
660.397	3.62
661.155	5.62
661.913	3.62
662.671	4.62
663.429	4.62
664.187	3.62
664.945	3.62
665.703	4.62
666.46	1.62
667.218	2.62
667.976	2.62
668.733	0.62
669.49	2.62
670.248	3.62
671.005	3.62
671.762	3.62
672.519	-0.38
673.276	3.62
674.033	5.62
674.79	1.62
675.547	1.62
676.304	2.62
677.06	2.62
677.817	0.62
678.574	2.62
679.33	1.62
680.086	1.62
680.843	2.62
681.599	1.62
682.355	1.62
683.111	2.62
683.867	1.62
684.623	2.62
685.379	2.62
686.135	1.62
686.89	1.62
687.646	4.62
688.402	1.62
689.157	3.62
689.912	2.62
690.668	-0.38
691.423	2.62
692.178	2.62
692.933	0.62
693.688	1.62
694.443	1.62
695.198	2.62
695.953	2.62
696.708	3.62
697.462	2.62
698.217	3.62
698.972	1.62
699.726	1.62
700.48	0.62
701.235	3.62
701.989	1.62
702.743	2.62
703.497	4.62
704.251	3.62
705.005	1.62
705.759	0.62
706.513	2.62
707.266	2.62
708.02	3.62
708.774	1.62
709.527	1.62
710.28	4.62
711.034	4.62
711.787	1.62
712.54	1.62
713.293	3.62
714.046	0.62
714.799	2.62
715.552	2.62
716.305	3.62
717.058	-1.38
717.81	3.62
718.563	1.62
719.315	3.62
720.068	1.62
720.82	1.62
721.573	4.62
722.325	2.62
723.077	2.62
723.829	1.62
724.581	1.62
725.333	3.62
726.085	-0.38
726.836	1.62
727.588	1.62
728.34	2.62
729.091	2.62
729.843	2.62
730.594	2.62
731.346	2.62
732.097	2.62
732.848	2.62
733.599	3.62
734.35	3.62
735.101	1.62
735.852	2.62
736.603	1.62
737.354	3.62
738.104	2.62
738.855	1.62
739.605	3.62
740.356	3.62
741.106	2.62
741.856	2.62
742.607	3.62
743.357	1.62
744.107	2.62
744.857	1.62
745.607	2.62
746.357	3.62
747.106	2.62
747.856	3.62
748.606	1.62
749.355	4.62
750.105	4.62
750.854	3.62
751.603	3.62
752.353	1.62
753.102	2.62
753.851	1.62
754.6	1.62
755.349	2.62
756.098	1.62
756.847	2.62
757.595	4.62
758.344	6.62
759.093	2.62
759.841	2.62
760.589	3.62
761.338	2.62
762.086	3.62
762.834	3.62
763.582	2.62
764.331	4.62
765.079	3.62
765.826	5.62
766.574	3.62
767.322	4.62
768.07	2.62
768.817	5.62
769.565	3.62
770.312	3.62
771.06	4.62
771.807	3.62
772.554	6.62
773.302	4.62
774.049	5.62
774.796	3.62
775.543	5.62
776.29	4.62
777.036	4.62
777.783	5.62
778.53	4.62
779.276	5.62
780.023	5.62
780.769	5.62
781.516	4.62
782.262	3.62
783.008	5.62
783.754	4.62
784.5	5.62
785.246	7.62
785.992	5.62
786.738	5.62
787.484	3.62
788.23	6.62
788.975	4.62
789.721	6.62
790.466	4.62
791.212	4.62
791.957	7.62
792.702	4.62
793.447	4.62
794.193	6.62
794.938	7.62
795.683	7.62
796.427	4.62
797.172	5.62
797.917	2.62
798.662	5.62
799.406	5.62
800.151	2.62
800.895	4.62
801.64	5.62
802.384	4.62
803.128	0.62
803.872	7.62
804.616	2.62
805.36	4.62
806.104	3.62
806.848	4.62
807.592	2.62
808.336	3.62
809.079	5.62
809.823	4.62
810.566	4.62
811.31	4.62
812.053	3.62
812.796	5.62
813.539	2.62
814.283	4.62
815.026	6.62
815.769	3.62
816.511	1.62
817.254	2.62
817.997	4.62
818.74	5.62
819.482	2.62
820.225	1.62
820.967	3.62
821.71	1.62
822.452	3.62
823.194	2.62
823.936	3.62
824.678	3.62
825.42	3.62
826.162	3.62
826.904	4.62
827.646	1.62
828.388	2.62
829.129	2.62
829.871	1.62
830.612	5.62
831.354	3.62
832.095	2.62
832.836	4.62
833.577	2.62
834.319	2.62
835.06	3.62
835.801	1.62
836.542	1.62
837.282	5.62
838.023	2.62
838.764	0.62
839.504	1.62
840.245	3.62
840.985	0.62
841.726	3.62
842.466	3.62
843.206	2.62
843.946	3.62
844.687	3.62
845.427	2.62
846.166	2.62
846.906	2.62
847.646	0.62
848.386	2.62
849.125	3.62
849.865	2.62
850.605	2.62
851.344	0.62
852.083	1.62
852.823	2.62
853.562	1.62
854.301	1.62
855.04	0.62
855.779	3.62
856.518	2.62
857.257	-0.38
857.995	0.62
858.734	0.62
859.473	2.62
860.211	1.62
860.95	0.62
861.688	0.62
862.426	-0.38
863.165	3.62
863.903	-0.38
864.641	2.62
865.379	0.62
866.117	1.62
866.855	1.62
867.593	-0.38
868.33	0.62
869.068	-0.38
869.806	4.62
870.543	1.62
871.28	1.62
872.018	1.62
872.755	-1.38
873.492	1.62
874.229	1.62
874.967	1.62
875.703	-0.38
876.44	1.62
877.177	1.62
877.914	0.62
878.651	-0.38
879.387	0.62
880.124	3.62
880.86	-1.38
881.597	1.62
882.333	2.62
883.069	-0.38
883.806	2.62
884.542	0.62
885.278	1.62
886.014	1.62
886.749	2.62
887.485	1.62
888.221	0.62
888.957	2.62
889.692	0.62
890.428	0.62
891.163	1.62
891.899	1.62
892.634	-0.38
893.369	-2.38
894.104	1.62
894.839	0.62
895.574	-0.38
896.309	1.62
897.044	3.62
897.779	1.62
898.514	-3.38
899.248	0.62
899.983	-2.38
900.717	1.62
901.452	-1.38
902.186	2.62
902.92	0.62
903.654	0.62
904.389	0.62
905.123	0.62
905.857	0.62
906.59	1.62
907.324	0.62
908.058	0.62
908.792	0.62
909.525	0.62
910.259	-0.38
910.992	-0.38
911.726	0.62
912.459	3.62
913.192	0.62
913.925	-0.38
914.658	-0.38
915.391	-1.38
916.124	0.62
916.857	-0.38
917.59	-1.38
918.323	1.62
919.055	0.62
919.788	-0.38
920.521	0.62
921.253	1.62
921.985	1.62
922.718	-0.38
923.45	-1.38
924.182	0.62
924.914	0.62
925.646	-1.38
926.378	1.62
927.11	0.62
927.841	0.62
928.573	-0.38
929.305	-1.38
930.036	1.62
930.768	1.62
931.499	-1.38
932.23	0.62
932.962	0.62
933.693	0.62
934.424	-1.38
935.155	0.62
935.886	1.62
936.617	-1.38
937.348	0.62
938.078	-0.38
938.809	1.62
939.54	0.62
940.27	-2.38
941.001	1.62
941.731	1.62
942.461	0.62
943.191	0.62
943.922	0.62
944.652	0.62
945.382	1.62
946.112	0.62
946.841	-2.38
947.571	1.62
948.301	3.62
949.031	1.62
949.76	-1.38
950.49	2.62
951.219	-1.38
951.948	-0.38
952.678	-1.38
953.407	1.62
954.136	0.62
954.865	-1.38
955.594	-0.38
956.323	0.62
957.052	1.62
957.78	0.62
958.509	-0.38
959.238	0.62
959.966	-0.38
960.695	1.62
961.423	0.62
962.151	1.62
962.88	0.62
963.608	-1.38
964.336	1.62
965.064	1.62
965.792	0.62
966.52	-0.38
967.247	0.62
967.975	-0.38
968.703	-0.38
969.43	1.62
970.158	-1.38
970.885	-0.38
971.613	1.62
972.34	1.62
973.067	-0.38
973.794	0.62
974.521	2.62
975.248	1.62
975.975	2.62
976.702	2.62
977.429	-0.38
978.156	0.62
978.882	1.62
979.609	2.62
980.335	-0.38
981.062	0.62
981.788	0.62
982.514	1.62
983.24	0.62
983.967	1.62
984.693	1.62
985.419	-0.38
986.144	1.62
986.87	-0.38
987.596	0.62
988.322	1.62
989.047	-0.38
989.773	-1.38
990.498	0.62
991.224	-1.38
991.949	1.62
992.674	-0.38
993.399	0.62
994.124	1.62
994.849	1.62
995.574	1.62
996.299	-1.38
997.024	-1.38
997.749	1.62
998.473	0.62
999.198	0.62
999.922	1.62
1000.647	-1.38
1001.371	2.62
1002.095	0.62
1002.82	-0.38
1003.544	-1.38
1004.268	-1.38
1004.992	0.62
1005.716	-1.38
1006.439	0.62
1007.163	0.62
1007.887	-2.38
1008.611	-2.38
1009.334	0.62
1010.058	-1.38
1010.781	4.62
1011.504	0.62
1012.228	1.62
1012.951	0.62
1013.674	-0.38
1014.397	-0.38
1015.12	-1.38
