节点500_145_QEPB04081__706__11-40-09-656.txt的数据

Date: Wed Nov 12 11:40:09 CST 2025
User: PC
Spectrometer: QEPB0408
触发模式: 0
积分时间 (秒): 1.000000E-2
Scans to average: 1
启用暗噪声校正: true
启用非线性校正: false
滑动平均宽度: 0
X轴模式: Wavelengths
Number of Pixels in Spectrum: 1044
>>>>>Begin Spectral Data<<<<<
220.843	-1.62
221.644	-1.62
222.444	1.38
223.244	0.38
224.045	0.38
224.845	-0.62
225.645	0.38
226.445	1.38
227.245	-0.62
228.045	1.38
228.845	1.38
229.645	-1.62
230.444	-2.62
231.244	2.38
232.043	1.38
232.843	2.38
233.642	1.38
234.442	1.38
235.241	1.38
236.04	0.38
236.839	1.38
237.638	1.38
238.437	2.38
239.236	1.38
240.035	0.38
240.833	0.38
241.632	0.38
242.43	2.38
243.229	1.38
244.027	2.38
244.826	2.38
245.624	1.38
246.422	-0.62
247.22	1.38
248.018	2.38
248.816	3.38
249.614	1.38
250.412	4.38
251.21	2.38
252.007	4.38
252.805	2.38
253.602	3.38
254.4	4.38
255.197	2.38
255.994	4.38
256.791	4.38
257.589	4.38
258.386	4.38
259.183	4.38
259.979	4.38
260.776	4.38
261.573	6.38
262.37	3.38
263.166	4.38
263.963	5.38
264.759	5.38
265.556	3.38
266.352	6.38
267.148	6.38
267.944	4.38
268.74	5.38
269.536	2.38
270.332	7.38
271.128	7.38
271.924	3.38
272.719	7.38
273.515	8.38
274.311	7.38
275.106	7.38
275.901	8.38
276.697	6.38
277.492	9.38
278.287	6.38
279.082	7.38
279.877	11.38
280.672	10.38
281.467	9.38
282.262	9.38
283.056	10.38
283.851	10.38
284.646	8.38
285.44	11.38
286.234	8.38
287.029	11.38
287.823	10.38
288.617	12.38
289.411	9.38
290.205	10.38
290.999	9.38
291.793	10.38
292.587	9.38
293.381	7.38
294.174	10.38
294.968	9.38
295.761	9.38
296.555	9.38
297.348	8.38
298.141	8.38
298.935	10.38
299.728	10.38
300.521	12.38
301.314	6.38
302.107	9.38
302.899	8.38
303.692	8.38
304.485	9.38
305.277	7.38
306.07	9.38
306.862	6.38
307.655	5.38
308.447	9.38
309.239	8.38
310.031	5.38
310.823	6.38
311.615	5.38
312.407	5.38
313.199	4.38
313.991	5.38
314.783	7.38
315.574	6.38
316.366	5.38
317.157	4.38
317.949	3.38
318.74	5.38
319.531	5.38
320.322	7.38
321.113	2.38
321.904	5.38
322.695	5.38
323.486	5.38
324.277	5.38
325.068	5.38
325.858	7.38
326.649	4.38
327.439	4.38
328.23	5.38
329.02	3.38
329.81	6.38
330.6	2.38
331.391	2.38
332.181	4.38
332.971	3.38
333.76	4.38
334.55	5.38
335.34	4.38
336.13	5.38
336.919	2.38
337.709	4.38
338.498	5.38
339.287	2.38
340.077	3.38
340.866	1.38
341.655	6.38
342.444	3.38
343.233	2.38
344.022	3.38
344.811	3.38
345.6	0.38
346.388	5.38
347.177	3.38
347.965	3.38
348.754	3.38
349.542	2.38
350.33	3.38
351.119	3.38
351.907	2.38
352.695	3.38
353.483	3.38
354.271	3.38
355.059	2.38
355.846	2.38
356.634	2.38
357.422	2.38
358.209	3.38
358.997	2.38
359.784	5.38
360.571	3.38
361.359	5.38
362.146	2.38
362.933	5.38
363.72	3.38
364.507	1.38
365.294	1.38
366.081	2.38
366.867	3.38
367.654	3.38
368.44	2.38
369.227	1.38
370.013	1.38
370.8	4.38
371.586	1.38
372.372	2.38
373.158	1.38
373.944	0.38
374.73	2.38
375.516	1.38
376.302	2.38
377.088	1.38
377.873	2.38
378.659	4.38
379.445	3.38
380.23	1.38
381.015	0.38
381.801	2.38
382.586	2.38
383.371	1.38
384.156	3.38
384.941	3.38
385.726	3.38
386.511	2.38
387.296	2.38
388.08	1.38
388.865	4.38
389.649	2.38
390.434	3.38
391.218	2.38
392.003	2.38
392.787	4.38
393.571	2.38
394.355	1.38
395.139	1.38
395.923	3.38
396.707	5.38
397.491	-0.62
398.274	3.38
399.058	2.38
399.842	4.38
400.625	3.38
401.408	1.38
402.192	4.38
402.975	6.38
403.758	2.38
404.541	1.38
405.324	4.38
406.107	3.38
406.89	1.38
407.673	4.38
408.456	1.38
409.238	4.38
410.021	3.38
410.803	4.38
411.586	3.38
412.368	3.38
413.151	5.38
413.933	3.38
414.715	4.38
415.497	6.38
416.279	4.38
417.061	4.38
417.843	4.38
418.624	7.38
419.406	3.38
420.188	7.38
420.969	4.38
421.751	9.38
422.532	7.38
423.313	5.38
424.095	8.38
424.876	8.38
425.657	6.38
426.438	5.38
427.219	5.38
428	3.38
428.78	6.38
429.561	5.38
430.342	8.38
431.122	6.38
431.903	7.38
432.683	5.38
433.464	9.38
434.244	7.38
435.024	9.38
435.804	8.38
436.584	7.38
437.364	9.38
438.144	9.38
438.924	10.38
439.704	12.38
440.483	13.38
441.263	11.38
442.042	12.38
442.822	13.38
443.601	13.38
444.38	15.38
445.16	19.38
445.939	18.38
446.718	17.38
447.497	19.38
448.276	20.38
449.054	21.38
449.833	22.38
450.612	25.38
451.391	29.38
452.169	31.38
452.948	35.38
453.726	37.38
454.504	43.38
455.282	46.38
456.061	50.38
456.839	58.38
457.617	61.38
458.395	70.38
459.172	78.38
459.95	84.38
460.728	94.38
461.506	102.38
462.283	118.38
463.061	132.38
463.838	148.38
464.615	162.38
465.393	173.38
466.17	189.38
466.947	216.38
467.724	237.38
468.501	272.38
469.278	294.38
470.055	325.38
470.831	366.38
471.608	404.38
472.385	450.38
473.161	499.38
473.938	548.38
474.714	597.38
475.49	656.38
476.266	724.38
477.043	790.38
477.819	885.38
478.595	962.38
479.371	1054.38
480.146	1171.38
480.922	1275.38
481.698	1405.38
482.473	1527.38
483.249	1664.38
484.024	1821.38
484.8	1997.38
485.575	2181.38
486.35	2389.38
487.126	2605.38
487.901	2844.38
488.676	3105.38
489.451	3393.38
490.225	3673.38
491	4027.38
491.775	4380.38
492.55	4793.38
493.324	5190.38
494.099	5644.38
494.873	6099.38
495.647	6618.38
496.422	7169.38
497.196	7731.38
497.97	8355.38
498.744	8956.38
499.518	9564.38
500.292	10188.38
501.066	10824.38
501.839	11485.38
502.613	12061.38
503.387	12638.38
504.16	13169.38
504.934	13675.38
505.707	14094.38
506.48	14394.38
507.253	14700.38
508.027	14883.38
508.8	15036.38
509.573	15034.38
510.346	14943.38
511.118	14797.38
511.891	14608.38
512.664	14291.38
513.437	13893.38
514.209	13515.38
514.982	13079.38
515.754	12596.38
516.526	12139.38
517.298	11694.38
518.071	11237.38
518.843	10727.38
519.615	10287.38
520.387	9881.38
521.159	9467.38
521.93	9084.38
522.702	8718.38
523.474	8441.38
524.245	8096.38
525.017	7738.38
525.788	7433.38
526.56	7140.38
527.331	6848.38
528.102	6561.38
528.873	6319.38
529.644	6055.38
530.415	5785.38
531.186	5510.38
531.957	5284.38
532.728	5007.38
533.498	4757.38
534.269	4519.38
535.039	4313.38
535.81	4080.38
536.58	3830.38
537.351	3645.38
538.121	3419.38
538.891	3263.38
539.661	3085.38
540.431	2895.38
541.201	2763.38
541.971	2604.38
542.741	2472.38
543.51	2344.38
544.28	2244.38
545.05	2117.38
545.819	2027.38
546.588	1903.38
547.358	1809.38
548.127	1734.38
548.896	1637.38
549.665	1560.38
550.434	1500.38
551.203	1410.38
551.972	1327.38
552.741	1275.38
553.51	1203.38
554.278	1151.38
555.047	1075.38
555.815	1009.38
556.584	966.38
557.352	915.38
558.121	845.38
558.889	803.38
559.657	759.38
560.425	720.38
561.193	680.38
561.961	642.38
562.729	609.38
563.496	577.38
564.264	544.38
565.032	510.38
565.799	484.38
566.567	458.38
567.334	439.38
568.101	402.38
568.869	382.38
569.636	368.38
570.403	344.38
571.17	326.38
571.937	313.38
572.704	291.38
573.471	273.38
574.237	251.38
575.004	241.38
575.771	221.38
576.537	216.38
577.303	202.38
578.07	190.38
578.836	176.38
579.602	169.38
580.368	161.38
581.134	153.38
581.9	143.38
582.666	132.38
583.432	129.38
584.198	117.38
584.964	113.38
585.729	106.38
586.495	102.38
587.26	99.38
588.025	90.38
588.791	85.38
589.556	81.38
590.321	76.38
591.086	67.38
591.851	69.38
592.616	65.38
593.381	62.38
594.146	63.38
594.911	57.38
595.675	54.38
596.44	50.38
597.204	48.38
597.969	47.38
598.733	45.38
599.497	41.38
600.261	41.38
601.025	39.38
601.79	36.38
602.553	32.38
603.317	32.38
604.081	33.38
604.845	30.38
605.609	31.38
606.372	27.38
607.136	29.38
607.899	24.38
608.662	25.38
609.426	27.38
610.189	19.38
610.952	18.38
611.715	20.38
612.478	18.38
613.241	15.38
614.004	17.38
614.767	18.38
615.529	19.38
616.292	17.38
617.055	14.38
617.817	12.38
618.579	14.38
619.342	16.38
620.104	14.38
620.866	14.38
621.628	10.38
622.39	12.38
623.152	12.38
623.914	10.38
624.676	10.38
625.438	8.38
626.199	9.38
626.961	7.38
627.722	10.38
628.484	9.38
629.245	7.38
630.006	10.38
630.768	9.38
631.529	7.38
632.29	6.38
633.051	7.38
633.812	5.38
634.573	6.38
635.333	8.38
636.094	7.38
636.855	8.38
637.615	4.38
638.376	4.38
639.136	5.38
639.896	6.38
640.657	7.38
641.417	4.38
642.177	6.38
642.937	6.38
643.697	4.38
644.457	6.38
645.216	2.38
645.976	5.38
646.736	3.38
647.495	3.38
648.255	5.38
649.014	5.38
649.774	5.38
650.533	2.38
651.292	2.38
652.051	3.38
652.81	4.38
653.569	4.38
654.328	3.38
655.087	5.38
655.846	3.38
656.604	3.38
657.363	7.38
658.121	3.38
658.88	1.38
659.638	4.38
660.397	2.38
661.155	3.38
661.913	3.38
662.671	1.38
663.429	4.38
664.187	0.38
664.945	1.38
665.703	2.38
666.46	4.38
667.218	1.38
667.976	3.38
668.733	1.38
669.49	2.38
670.248	2.38
671.005	2.38
671.762	4.38
672.519	3.38
673.276	2.38
674.033	1.38
674.79	0.38
675.547	1.38
676.304	4.38
677.06	4.38
677.817	1.38
678.574	0.38
679.33	0.38
680.086	1.38
680.843	1.38
681.599	3.38
682.355	0.38
683.111	2.38
683.867	3.38
684.623	-0.62
685.379	3.38
686.135	3.38
686.89	1.38
687.646	2.38
688.402	2.38
689.157	0.38
689.912	1.38
690.668	3.38
691.423	-1.62
692.178	0.38
692.933	5.38
693.688	3.38
694.443	2.38
695.198	2.38
695.953	2.38
696.708	4.38
697.462	3.38
698.217	1.38
698.972	0.38
699.726	2.38
700.48	0.38
701.235	2.38
701.989	2.38
702.743	3.38
703.497	1.38
704.251	1.38
705.005	2.38
705.759	1.38
706.513	1.38
707.266	4.38
708.02	3.38
708.774	2.38
709.527	3.38
710.28	1.38
711.034	0.38
711.787	1.38
712.54	3.38
713.293	1.38
714.046	0.38
714.799	2.38
715.552	3.38
716.305	0.38
717.058	3.38
717.81	1.38
718.563	2.38
719.315	3.38
720.068	3.38
720.82	3.38
721.573	2.38
722.325	4.38
723.077	0.38
723.829	1.38
724.581	2.38
725.333	2.38
726.085	3.38
726.836	0.38
727.588	2.38
728.34	2.38
729.091	4.38
729.843	4.38
730.594	0.38
731.346	4.38
732.097	1.38
732.848	3.38
733.599	0.38
734.35	2.38
735.101	1.38
735.852	2.38
736.603	2.38
737.354	1.38
738.104	3.38
738.855	1.38
739.605	2.38
740.356	2.38
741.106	1.38
741.856	3.38
742.607	0.38
743.357	3.38
744.107	0.38
744.857	1.38
745.607	2.38
746.357	1.38
747.106	1.38
747.856	1.38
748.606	4.38
749.355	2.38
750.105	3.38
750.854	3.38
751.603	-0.62
752.353	2.38
753.102	1.38
753.851	3.38
754.6	1.38
755.349	3.38
756.098	1.38
756.847	1.38
757.595	2.38
758.344	2.38
759.093	3.38
759.841	6.38
760.589	2.38
761.338	4.38
762.086	2.38
762.834	4.38
763.582	2.38
764.331	1.38
765.079	4.38
765.826	1.38
766.574	3.38
767.322	2.38
768.07	2.38
768.817	4.38
769.565	1.38
770.312	5.38
771.06	3.38
771.807	6.38
772.554	2.38
773.302	3.38
774.049	4.38
774.796	5.38
775.543	1.38
776.29	4.38
777.036	3.38
777.783	3.38
778.53	5.38
779.276	3.38
780.023	3.38
780.769	2.38
781.516	0.38
782.262	5.38
783.008	5.38
783.754	4.38
784.5	5.38
785.246	4.38
785.992	5.38
786.738	5.38
787.484	5.38
788.23	6.38
788.975	4.38
789.721	4.38
790.466	2.38
791.212	5.38
791.957	2.38
792.702	3.38
793.447	5.38
794.193	3.38
794.938	4.38
795.683	5.38
796.427	5.38
797.172	5.38
797.917	4.38
798.662	3.38
799.406	5.38
800.151	5.38
800.895	2.38
801.64	7.38
802.384	5.38
803.128	2.38
803.872	3.38
804.616	5.38
805.36	4.38
806.104	3.38
806.848	2.38
807.592	2.38
808.336	2.38
809.079	4.38
809.823	3.38
810.566	4.38
811.31	1.38
812.053	2.38
812.796	3.38
813.539	1.38
814.283	4.38
815.026	2.38
815.769	2.38
816.511	5.38
817.254	4.38
817.997	1.38
818.74	4.38
819.482	4.38
820.225	3.38
820.967	3.38
821.71	4.38
822.452	3.38
823.194	0.38
823.936	6.38
824.678	2.38
825.42	3.38
826.162	4.38
826.904	1.38
827.646	3.38
828.388	4.38
829.129	2.38
829.871	2.38
830.612	4.38
831.354	1.38
832.095	1.38
832.836	2.38
833.577	1.38
834.319	3.38
835.06	2.38
835.801	4.38
836.542	3.38
837.282	0.38
838.023	3.38
838.764	3.38
839.504	3.38
840.245	1.38
840.985	3.38
841.726	2.38
842.466	-0.62
843.206	3.38
843.946	2.38
844.687	2.38
845.427	3.38
846.166	1.38
846.906	2.38
847.646	3.38
848.386	0.38
849.125	1.38
849.865	1.38
850.605	2.38
851.344	1.38
852.083	2.38
852.823	0.38
853.562	3.38
854.301	1.38
855.04	1.38
855.779	2.38
856.518	2.38
857.257	1.38
857.995	2.38
858.734	0.38
859.473	0.38
860.211	2.38
860.95	0.38
861.688	2.38
862.426	2.38
863.165	1.38
863.903	2.38
864.641	2.38
865.379	2.38
866.117	1.38
866.855	-0.62
867.593	-0.62
868.33	1.38
869.068	4.38
869.806	2.38
870.543	0.38
871.28	1.38
872.018	-0.62
872.755	2.38
873.492	0.38
874.229	0.38
874.967	1.38
875.703	0.38
876.44	1.38
877.177	0.38
877.914	0.38
878.651	-2.62
879.387	0.38
880.124	1.38
880.86	-0.62
881.597	1.38
882.333	1.38
883.069	2.38
883.806	1.38
884.542	2.38
885.278	1.38
886.014	0.38
886.749	-0.62
887.485	0.38
888.221	1.38
888.957	0.38
889.692	2.38
890.428	2.38
891.163	1.38
891.899	0.38
892.634	1.38
893.369	-0.62
894.104	0.38
894.839	0.38
895.574	1.38
896.309	1.38
897.044	-1.62
897.779	0.38
898.514	1.38
899.248	0.38
899.983	1.38
900.717	1.38
901.452	0.38
902.186	0.38
902.92	-0.62
903.654	1.38
904.389	-0.62
905.123	1.38
905.857	1.38
906.59	0.38
907.324	1.38
908.058	-0.62
908.792	0.38
909.525	-1.62
910.259	1.38
910.992	0.38
911.726	1.38
912.459	1.38
913.192	-0.62
913.925	1.38
914.658	-0.62
915.391	1.38
916.124	-1.62
916.857	0.38
917.59	0.38
918.323	0.38
919.055	1.38
919.788	0.38
920.521	-0.62
921.253	0.38
921.985	-1.62
922.718	2.38
923.45	1.38
924.182	0.38
924.914	-2.62
925.646	2.38
926.378	0.38
927.11	-1.62
927.841	0.38
928.573	-0.62
929.305	-0.62
930.036	1.38
930.768	1.38
931.499	-1.62
932.23	1.38
932.962	2.38
933.693	-1.62
934.424	2.38
935.155	-1.62
935.886	1.38
936.617	0.38
937.348	-0.62
938.078	0.38
938.809	-1.62
939.54	2.38
940.27	-0.62
941.001	-0.62
941.731	-0.62
942.461	1.38
943.191	1.38
943.922	-0.62
944.652	1.38
945.382	-2.62
946.112	3.38
946.841	-0.62
947.571	-0.62
948.301	-0.62
949.031	-1.62
949.76	0.38
950.49	0.38
951.219	1.38
951.948	0.38
952.678	-0.62
953.407	0.38
954.136	-0.62
954.865	0.38
955.594	0.38
956.323	-0.62
957.052	2.38
957.78	-0.62
958.509	-0.62
959.238	-1.62
959.966	-0.62
960.695	1.38
961.423	1.38
962.151	-0.62
962.88	2.38
963.608	1.38
964.336	-0.62
965.064	1.38
965.792	0.38
966.52	1.38
967.247	0.38
967.975	-0.62
968.703	-0.62
969.43	2.38
970.158	1.38
970.885	0.38
971.613	0.38
972.34	0.38
973.067	-0.62
973.794	0.38
974.521	-0.62
975.248	1.38
975.975	1.38
976.702	0.38
977.429	-0.62
978.156	0.38
978.882	-0.62
979.609	1.38
980.335	0.38
981.062	1.38
981.788	0.38
982.514	0.38
983.24	1.38
983.967	-1.62
984.693	0.38
985.419	2.38
986.144	-0.62
986.87	-0.62
987.596	-2.62
988.322	-1.62
989.047	0.38
989.773	0.38
990.498	1.38
991.224	1.38
991.949	0.38
992.674	-0.62
993.399	-1.62
994.124	-0.62
994.849	-2.62
995.574	1.38
996.299	-0.62
997.024	0.38
997.749	-0.62
998.473	1.38
999.198	1.38
999.922	1.38
1000.647	-1.62
1001.371	4.38
1002.095	-1.62
1002.82	-0.62
1003.544	-1.62
1004.268	-0.62
1004.992	-0.62
1005.716	-0.62
1006.439	0.38
1007.163	0.38
1007.887	1.38
1008.611	1.38
1009.334	0.38
1010.058	0.38
1010.781	0.38
1011.504	1.38
1012.228	0.38
1012.951	1.38
1013.674	-2.62
1014.397	0.38
1015.12	0.38
