节点500_145_QEPB04081__435__11-35-54-547.txt的数据

Date: Wed Nov 12 11:35:54 CST 2025
User: PC
Spectrometer: QEPB0408
触发模式: 0
积分时间 (秒): 1.000000E-2
Scans to average: 1
启用暗噪声校正: true
启用非线性校正: false
滑动平均宽度: 0
X轴模式: Wavelengths
Number of Pixels in Spectrum: 1044
>>>>>Begin Spectral Data<<<<<
220.843	0.25
221.644	-0.75
222.444	0.25
223.244	-0.75
224.045	-0.75
224.845	0.25
225.645	2.25
226.445	-0.75
227.245	0.25
228.045	1.25
228.845	1.25
229.645	0.25
230.444	1.25
231.244	0.25
232.043	2.25
232.843	0.25
233.642	0.25
234.442	2.25
235.241	1.25
236.04	0.25
236.839	2.25
237.638	-1.75
238.437	2.25
239.236	2.25
240.035	0.25
240.833	0.25
241.632	3.25
242.43	-0.75
243.229	2.25
244.027	1.25
244.826	-0.75
245.624	1.25
246.422	0.25
247.22	4.25
248.018	1.25
248.816	1.25
249.614	5.25
250.412	2.25
251.21	3.25
252.007	2.25
252.805	3.25
253.602	1.25
254.4	2.25
255.197	3.25
255.994	3.25
256.791	5.25
257.589	3.25
258.386	4.25
259.183	5.25
259.979	4.25
260.776	6.25
261.573	4.25
262.37	5.25
263.166	3.25
263.963	5.25
264.759	5.25
265.556	1.25
266.352	4.25
267.148	6.25
267.944	5.25
268.74	5.25
269.536	6.25
270.332	6.25
271.128	8.25
271.924	9.25
272.719	8.25
273.515	7.25
274.311	7.25
275.106	7.25
275.901	9.25
276.697	9.25
277.492	8.25
278.287	8.25
279.082	7.25
279.877	7.25
280.672	11.25
281.467	8.25
282.262	10.25
283.056	9.25
283.851	8.25
284.646	12.25
285.44	11.25
286.234	12.25
287.029	9.25
287.823	12.25
288.617	10.25
289.411	11.25
290.205	10.25
290.999	10.25
291.793	10.25
292.587	10.25
293.381	12.25
294.174	10.25
294.968	7.25
295.761	8.25
296.555	10.25
297.348	10.25
298.141	10.25
298.935	7.25
299.728	9.25
300.521	9.25
301.314	9.25
302.107	7.25
302.899	9.25
303.692	7.25
304.485	9.25
305.277	7.25
306.07	10.25
306.862	10.25
307.655	7.25
308.447	8.25
309.239	6.25
310.031	7.25
310.823	5.25
311.615	7.25
312.407	6.25
313.199	6.25
313.991	5.25
314.783	5.25
315.574	3.25
316.366	7.25
317.157	5.25
317.949	3.25
318.74	4.25
319.531	8.25
320.322	4.25
321.113	4.25
321.904	7.25
322.695	5.25
323.486	6.25
324.277	2.25
325.068	4.25
325.858	5.25
326.649	3.25
327.439	3.25
328.23	3.25
329.02	4.25
329.81	4.25
330.6	3.25
331.391	7.25
332.181	4.25
332.971	5.25
333.76	1.25
334.55	6.25
335.34	2.25
336.13	5.25
336.919	3.25
337.709	6.25
338.498	3.25
339.287	4.25
340.077	4.25
340.866	3.25
341.655	2.25
342.444	5.25
343.233	3.25
344.022	3.25
344.811	5.25
345.6	5.25
346.388	3.25
347.177	2.25
347.965	5.25
348.754	3.25
349.542	4.25
350.33	2.25
351.119	3.25
351.907	4.25
352.695	3.25
353.483	4.25
354.271	0.25
355.059	3.25
355.846	3.25
356.634	5.25
357.422	6.25
358.209	1.25
358.997	4.25
359.784	3.25
360.571	5.25
361.359	1.25
362.146	5.25
362.933	1.25
363.72	2.25
364.507	2.25
365.294	2.25
366.081	4.25
366.867	3.25
367.654	2.25
368.44	3.25
369.227	2.25
370.013	3.25
370.8	3.25
371.586	2.25
372.372	1.25
373.158	3.25
373.944	0.25
374.73	4.25
375.516	3.25
376.302	4.25
377.088	2.25
377.873	3.25
378.659	2.25
379.445	3.25
380.23	2.25
381.015	3.25
381.801	2.25
382.586	5.25
383.371	3.25
384.156	1.25
384.941	1.25
385.726	2.25
386.511	7.25
387.296	3.25
388.08	2.25
388.865	3.25
389.649	2.25
390.434	3.25
391.218	3.25
392.003	2.25
392.787	2.25
393.571	4.25
394.355	2.25
395.139	2.25
395.923	2.25
396.707	2.25
397.491	4.25
398.274	4.25
399.058	2.25
399.842	1.25
400.625	5.25
401.408	4.25
402.192	3.25
402.975	4.25
403.758	4.25
404.541	3.25
405.324	4.25
406.107	6.25
406.89	4.25
407.673	1.25
408.456	5.25
409.238	1.25
410.021	4.25
410.803	5.25
411.586	7.25
412.368	5.25
413.151	4.25
413.933	3.25
414.715	4.25
415.497	4.25
416.279	5.25
417.061	6.25
417.843	4.25
418.624	4.25
419.406	8.25
420.188	6.25
420.969	6.25
421.751	4.25
422.532	7.25
423.313	5.25
424.095	3.25
424.876	5.25
425.657	7.25
426.438	6.25
427.219	6.25
428	6.25
428.78	6.25
429.561	8.25
430.342	7.25
431.122	5.25
431.903	9.25
432.683	6.25
433.464	8.25
434.244	10.25
435.024	10.25
435.804	10.25
436.584	10.25
437.364	10.25
438.144	12.25
438.924	10.25
439.704	12.25
440.483	11.25
441.263	13.25
442.042	13.25
442.822	13.25
443.601	13.25
444.38	12.25
445.16	15.25
445.939	15.25
446.718	18.25
447.497	18.25
448.276	18.25
449.054	22.25
449.833	26.25
450.612	27.25
451.391	25.25
452.169	27.25
452.948	35.25
453.726	36.25
454.504	38.25
455.282	40.25
456.061	50.25
456.839	52.25
457.617	56.25
458.395	61.25
459.172	70.25
459.95	75.25
460.728	89.25
461.506	98.25
462.283	101.25
463.061	119.25
463.838	129.25
464.615	146.25
465.393	167.25
466.17	185.25
466.947	208.25
467.724	226.25
468.501	258.25
469.278	279.25
470.055	310.25
470.831	351.25
471.608	394.25
472.385	428.25
473.161	470.25
473.938	520.25
474.714	582.25
475.49	636.25
476.266	711.25
477.043	790.25
477.819	857.25
478.595	957.25
479.371	1050.25
480.146	1169.25
480.922	1264.25
481.698	1401.25
482.473	1558.25
483.249	1704.25
484.024	1864.25
484.8	2060.25
485.575	2259.25
486.35	2475.25
487.126	2702.25
487.901	2981.25
488.676	3270.25
489.451	3579.25
490.225	3913.25
491	4327.25
491.775	4698.25
492.55	5135.25
493.324	5620.25
494.099	6147.25
494.873	6670.25
495.647	7307.25
496.422	7907.25
497.196	8542.25
497.97	9168.25
498.744	9859.25
499.518	10606.25
500.292	11251.25
501.066	12002.25
501.839	12660.25
502.613	13277.25
503.387	13875.25
504.16	14481.25
504.934	14900.25
505.707	15291.25
506.48	15651.25
507.253	15915.25
508.027	15971.25
508.8	15989.25
509.573	15878.25
510.346	15733.25
511.118	15476.25
511.891	15139.25
512.664	14748.25
513.437	14333.25
514.209	13807.25
514.982	13278.25
515.754	12769.25
516.526	12258.25
517.298	11726.25
518.071	11192.25
518.843	10751.25
519.615	10310.25
520.387	9854.25
521.159	9478.25
521.93	9063.25
522.702	8735.25
523.474	8383.25
524.245	8059.25
525.017	7735.25
525.788	7433.25
526.56	7137.25
527.331	6823.25
528.102	6561.25
528.873	6258.25
529.644	5975.25
530.415	5706.25
531.186	5468.25
531.957	5201.25
532.728	4926.25
533.498	4700.25
534.269	4417.25
535.039	4181.25
535.81	3959.25
536.58	3772.25
537.351	3548.25
538.121	3361.25
538.891	3166.25
539.661	2989.25
540.431	2833.25
541.201	2674.25
541.971	2542.25
542.741	2387.25
543.51	2287.25
544.28	2165.25
545.05	2059.25
545.819	1955.25
546.588	1880.25
547.358	1751.25
548.127	1675.25
548.896	1602.25
549.665	1523.25
550.434	1441.25
551.203	1352.25
551.972	1308.25
552.741	1224.25
553.51	1164.25
554.278	1099.25
555.047	1036.25
555.815	975.25
556.584	926.25
557.352	882.25
558.121	818.25
558.889	767.25
559.657	732.25
560.425	688.25
561.193	656.25
561.961	621.25
562.729	580.25
563.496	554.25
564.264	511.25
565.032	487.25
565.799	465.25
566.567	434.25
567.334	417.25
568.101	388.25
568.869	371.25
569.636	343.25
570.403	326.25
571.17	310.25
571.937	288.25
572.704	273.25
573.471	259.25
574.237	248.25
575.004	227.25
575.771	215.25
576.537	197.25
577.303	192.25
578.07	179.25
578.836	168.25
579.602	162.25
580.368	147.25
581.134	146.25
581.9	131.25
582.666	128.25
583.432	122.25
584.198	115.25
584.964	109.25
585.729	101.25
586.495	99.25
587.26	90.25
588.025	87.25
588.791	82.25
589.556	79.25
590.321	75.25
591.086	69.25
591.851	67.25
592.616	62.25
593.381	56.25
594.146	54.25
594.911	50.25
595.675	49.25
596.44	47.25
597.204	44.25
597.969	45.25
598.733	42.25
599.497	40.25
600.261	36.25
601.025	36.25
601.79	38.25
602.553	34.25
603.317	33.25
604.081	29.25
604.845	31.25
605.609	29.25
606.372	27.25
607.136	26.25
607.899	25.25
608.662	25.25
609.426	20.25
610.189	22.25
610.952	18.25
611.715	21.25
612.478	19.25
613.241	16.25
614.004	18.25
614.767	18.25
615.529	16.25
616.292	15.25
617.055	14.25
617.817	14.25
618.579	14.25
619.342	14.25
620.104	13.25
620.866	12.25
621.628	9.25
622.39	9.25
623.152	10.25
623.914	8.25
624.676	11.25
625.438	9.25
626.199	7.25
626.961	9.25
627.722	11.25
628.484	12.25
629.245	5.25
630.006	10.25
630.768	7.25
631.529	6.25
632.29	6.25
633.051	7.25
633.812	5.25
634.573	7.25
635.333	7.25
636.094	7.25
636.855	8.25
637.615	5.25
638.376	7.25
639.136	5.25
639.896	5.25
640.657	3.25
641.417	3.25
642.177	4.25
642.937	3.25
643.697	5.25
644.457	4.25
645.216	4.25
645.976	3.25
646.736	3.25
647.495	5.25
648.255	2.25
649.014	4.25
649.774	5.25
650.533	4.25
651.292	5.25
652.051	2.25
652.81	4.25
653.569	4.25
654.328	4.25
655.087	4.25
655.846	4.25
656.604	3.25
657.363	3.25
658.121	2.25
658.88	5.25
659.638	2.25
660.397	3.25
661.155	1.25
661.913	2.25
662.671	5.25
663.429	3.25
664.187	1.25
664.945	3.25
665.703	2.25
666.46	1.25
667.218	4.25
667.976	1.25
668.733	3.25
669.49	4.25
670.248	4.25
671.005	3.25
671.762	1.25
672.519	3.25
673.276	2.25
674.033	3.25
674.79	2.25
675.547	4.25
676.304	3.25
677.06	3.25
677.817	4.25
678.574	2.25
679.33	2.25
680.086	1.25
680.843	1.25
681.599	1.25
682.355	2.25
683.111	4.25
683.867	2.25
684.623	2.25
685.379	0.25
686.135	2.25
686.89	3.25
687.646	1.25
688.402	-0.75
689.157	3.25
689.912	2.25
690.668	2.25
691.423	4.25
692.178	1.25
692.933	0.25
693.688	3.25
694.443	1.25
695.198	3.25
695.953	-0.75
696.708	2.25
697.462	3.25
698.217	0.25
698.972	3.25
699.726	2.25
700.48	0.25
701.235	1.25
701.989	1.25
702.743	0.25
703.497	1.25
704.251	1.25
705.005	0.25
705.759	1.25
706.513	0.25
707.266	2.25
708.02	0.25
708.774	2.25
709.527	-0.75
710.28	2.25
711.034	2.25
711.787	2.25
712.54	3.25
713.293	1.25
714.046	0.25
714.799	4.25
715.552	2.25
716.305	0.25
717.058	5.25
717.81	3.25
718.563	2.25
719.315	1.25
720.068	2.25
720.82	0.25
721.573	2.25
722.325	2.25
723.077	1.25
723.829	2.25
724.581	-0.75
725.333	2.25
726.085	1.25
726.836	1.25
727.588	2.25
728.34	3.25
729.091	1.25
729.843	3.25
730.594	2.25
731.346	-0.75
732.097	2.25
732.848	2.25
733.599	2.25
734.35	2.25
735.101	4.25
735.852	2.25
736.603	2.25
737.354	2.25
738.104	1.25
738.855	0.25
739.605	2.25
740.356	-0.75
741.106	3.25
741.856	3.25
742.607	3.25
743.357	3.25
744.107	1.25
744.857	2.25
745.607	2.25
746.357	1.25
747.106	0.25
747.856	1.25
748.606	1.25
749.355	2.25
750.105	3.25
750.854	1.25
751.603	4.25
752.353	5.25
753.102	3.25
753.851	4.25
754.6	3.25
755.349	3.25
756.098	3.25
756.847	4.25
757.595	2.25
758.344	3.25
759.093	3.25
759.841	2.25
760.589	2.25
761.338	2.25
762.086	4.25
762.834	2.25
763.582	1.25
764.331	3.25
765.079	3.25
765.826	2.25
766.574	4.25
767.322	5.25
768.07	5.25
768.817	4.25
769.565	3.25
770.312	3.25
771.06	2.25
771.807	3.25
772.554	3.25
773.302	5.25
774.049	4.25
774.796	6.25
775.543	5.25
776.29	4.25
777.036	3.25
777.783	5.25
778.53	4.25
779.276	5.25
780.023	5.25
780.769	5.25
781.516	2.25
782.262	4.25
783.008	5.25
783.754	6.25
784.5	2.25
785.246	3.25
785.992	2.25
786.738	6.25
787.484	3.25
788.23	8.25
788.975	4.25
789.721	4.25
790.466	3.25
791.212	5.25
791.957	4.25
792.702	3.25
793.447	4.25
794.193	7.25
794.938	4.25
795.683	5.25
796.427	5.25
797.172	5.25
797.917	2.25
798.662	7.25
799.406	7.25
800.151	3.25
800.895	5.25
801.64	1.25
802.384	5.25
803.128	5.25
803.872	5.25
804.616	7.25
805.36	7.25
806.104	4.25
806.848	4.25
807.592	2.25
808.336	6.25
809.079	2.25
809.823	2.25
810.566	1.25
811.31	3.25
812.053	3.25
812.796	2.25
813.539	3.25
814.283	4.25
815.026	3.25
815.769	3.25
816.511	3.25
817.254	1.25
817.997	4.25
818.74	2.25
819.482	3.25
820.225	2.25
820.967	1.25
821.71	2.25
822.452	2.25
823.194	4.25
823.936	3.25
824.678	3.25
825.42	2.25
826.162	2.25
826.904	5.25
827.646	1.25
828.388	5.25
829.129	4.25
829.871	2.25
830.612	3.25
831.354	3.25
832.095	1.25
832.836	4.25
833.577	3.25
834.319	2.25
835.06	1.25
835.801	0.25
836.542	3.25
837.282	2.25
838.023	2.25
838.764	3.25
839.504	3.25
840.245	3.25
840.985	1.25
841.726	1.25
842.466	3.25
843.206	1.25
843.946	1.25
844.687	-1.75
845.427	1.25
846.166	3.25
846.906	3.25
847.646	2.25
848.386	1.25
849.125	0.25
849.865	3.25
850.605	1.25
851.344	1.25
852.083	0.25
852.823	1.25
853.562	2.25
854.301	1.25
855.04	2.25
855.779	1.25
856.518	1.25
857.257	0.25
857.995	2.25
858.734	4.25
859.473	-1.75
860.211	3.25
860.95	3.25
861.688	2.25
862.426	2.25
863.165	2.25
863.903	3.25
864.641	1.25
865.379	-1.75
866.117	1.25
866.855	1.25
867.593	2.25
868.33	0.25
869.068	1.25
869.806	1.25
870.543	0.25
871.28	1.25
872.018	0.25
872.755	2.25
873.492	0.25
874.229	0.25
874.967	1.25
875.703	1.25
876.44	0.25
877.177	0.25
877.914	-0.75
878.651	0.25
879.387	1.25
880.124	1.25
880.86	-0.75
881.597	1.25
882.333	1.25
883.069	-0.75
883.806	0.25
884.542	1.25
885.278	1.25
886.014	-0.75
886.749	-0.75
887.485	2.25
888.221	-1.75
888.957	0.25
889.692	1.25
890.428	-0.75
891.163	1.25
891.899	-0.75
892.634	2.25
893.369	0.25
894.104	0.25
894.839	0.25
895.574	0.25
896.309	0.25
897.044	-0.75
897.779	1.25
898.514	1.25
899.248	-0.75
899.983	-1.75
900.717	-0.75
901.452	0.25
902.186	-2.75
902.92	1.25
903.654	1.25
904.389	-1.75
905.123	-0.75
905.857	-1.75
906.59	3.25
907.324	-0.75
908.058	0.25
908.792	1.25
909.525	-1.75
910.259	-0.75
910.992	-1.75
911.726	-1.75
912.459	0.25
913.192	1.25
913.925	0.25
914.658	-0.75
915.391	0.25
916.124	0.25
916.857	2.25
917.59	0.25
918.323	0.25
919.055	-1.75
919.788	0.25
920.521	-1.75
921.253	-1.75
921.985	-1.75
922.718	2.25
923.45	-1.75
924.182	1.25
924.914	1.25
925.646	2.25
926.378	1.25
927.11	0.25
927.841	-1.75
928.573	-0.75
929.305	-0.75
930.036	-0.75
930.768	2.25
931.499	0.25
932.23	1.25
932.962	0.25
933.693	-0.75
934.424	1.25
935.155	1.25
935.886	-1.75
936.617	-0.75
937.348	0.25
938.078	1.25
938.809	0.25
939.54	1.25
940.27	0.25
941.001	-0.75
941.731	-1.75
942.461	0.25
943.191	-0.75
943.922	1.25
944.652	-1.75
945.382	-0.75
946.112	3.25
946.841	-0.75
947.571	1.25
948.301	0.25
949.031	-0.75
949.76	0.25
950.49	0.25
951.219	0.25
951.948	0.25
952.678	1.25
953.407	0.25
954.136	1.25
954.865	1.25
955.594	-1.75
956.323	1.25
957.052	-1.75
957.78	0.25
958.509	0.25
959.238	0.25
959.966	0.25
960.695	0.25
961.423	0.25
962.151	-0.75
962.88	2.25
963.608	-0.75
964.336	-1.75
965.064	-1.75
965.792	1.25
966.52	0.25
967.247	-0.75
967.975	2.25
968.703	0.25
969.43	0.25
970.158	1.25
970.885	0.25
971.613	-1.75
972.34	-1.75
973.067	-1.75
973.794	-0.75
974.521	2.25
975.248	0.25
975.975	-0.75
976.702	0.25
977.429	0.25
978.156	-0.75
978.882	1.25
979.609	-0.75
980.335	0.25
981.062	0.25
981.788	1.25
982.514	1.25
983.24	0.25
983.967	0.25
984.693	1.25
985.419	2.25
986.144	-0.75
986.87	0.25
987.596	2.25
988.322	2.25
989.047	1.25
989.773	0.25
990.498	2.25
991.224	-1.75
991.949	-1.75
992.674	1.25
993.399	1.25
994.124	2.25
994.849	-0.75
995.574	0.25
996.299	-1.75
997.024	0.25
997.749	-1.75
998.473	1.25
999.198	0.25
999.922	0.25
1000.647	1.25
1001.371	1.25
1002.095	-0.75
1002.82	1.25
1003.544	-1.75
1004.268	0.25
1004.992	1.25
1005.716	-0.75
1006.439	-1.75
1007.163	2.25
1007.887	0.25
1008.611	0.25
1009.334	3.25
1010.058	-1.75
1010.781	1.25
1011.504	1.25
1012.228	1.25
1012.951	-0.75
1013.674	0.25
1014.397	1.25
1015.12	-0.75
