节点500_145_QEPB04081__71__11-30-05-681.txt的数据

Date: Wed Nov 12 11:30:05 CST 2025
User: PC
Spectrometer: QEPB0408
触发模式: 0
积分时间 (秒): 1.000000E-2
Scans to average: 1
启用暗噪声校正: true
启用非线性校正: false
滑动平均宽度: 0
X轴模式: Wavelengths
Number of Pixels in Spectrum: 1044
>>>>>Begin Spectral Data<<<<<
220.843	-0.62
221.644	0.38
222.444	-1.62
223.244	-0.62
224.045	0.38
224.845	-0.62
225.645	-1.62
226.445	0.38
227.245	-2.62
228.045	0.38
228.845	1.38
229.645	2.38
230.444	0.38
231.244	1.38
232.043	0.38
232.843	-0.62
233.642	-1.62
234.442	-1.62
235.241	2.38
236.04	-1.62
236.839	-1.62
237.638	-1.62
238.437	-1.62
239.236	0.38
240.035	1.38
240.833	-1.62
241.632	0.38
242.43	2.38
243.229	2.38
244.027	0.38
244.826	1.38
245.624	1.38
246.422	0.38
247.22	2.38
248.018	2.38
248.816	1.38
249.614	3.38
250.412	1.38
251.21	0.38
252.007	5.38
252.805	2.38
253.602	5.38
254.4	2.38
255.197	3.38
255.994	2.38
256.791	1.38
257.589	2.38
258.386	2.38
259.183	2.38
259.979	4.38
260.776	2.38
261.573	5.38
262.37	2.38
263.166	6.38
263.963	5.38
264.759	4.38
265.556	4.38
266.352	3.38
267.148	4.38
267.944	7.38
268.74	8.38
269.536	3.38
270.332	8.38
271.128	5.38
271.924	8.38
272.719	8.38
273.515	8.38
274.311	8.38
275.106	6.38
275.901	6.38
276.697	9.38
277.492	9.38
278.287	9.38
279.082	12.38
279.877	8.38
280.672	11.38
281.467	10.38
282.262	10.38
283.056	9.38
283.851	11.38
284.646	12.38
285.44	10.38
286.234	11.38
287.029	9.38
287.823	12.38
288.617	10.38
289.411	10.38
290.205	9.38
290.999	9.38
291.793	11.38
292.587	9.38
293.381	10.38
294.174	10.38
294.968	10.38
295.761	9.38
296.555	10.38
297.348	11.38
298.141	9.38
298.935	9.38
299.728	7.38
300.521	8.38
301.314	10.38
302.107	6.38
302.899	8.38
303.692	4.38
304.485	10.38
305.277	9.38
306.07	8.38
306.862	8.38
307.655	7.38
308.447	6.38
309.239	8.38
310.031	6.38
310.823	7.38
311.615	6.38
312.407	7.38
313.199	5.38
313.991	4.38
314.783	5.38
315.574	6.38
316.366	5.38
317.157	2.38
317.949	3.38
318.74	4.38
319.531	5.38
320.322	4.38
321.113	5.38
321.904	3.38
322.695	3.38
323.486	4.38
324.277	2.38
325.068	5.38
325.858	3.38
326.649	3.38
327.439	2.38
328.23	2.38
329.02	4.38
329.81	3.38
330.6	1.38
331.391	3.38
332.181	3.38
332.971	3.38
333.76	2.38
334.55	3.38
335.34	5.38
336.13	5.38
336.919	1.38
337.709	2.38
338.498	4.38
339.287	0.38
340.077	3.38
340.866	2.38
341.655	4.38
342.444	2.38
343.233	1.38
344.022	4.38
344.811	2.38
345.6	3.38
346.388	2.38
347.177	2.38
347.965	1.38
348.754	1.38
349.542	2.38
350.33	3.38
351.119	2.38
351.907	2.38
352.695	4.38
353.483	1.38
354.271	1.38
355.059	5.38
355.846	1.38
356.634	3.38
357.422	5.38
358.209	2.38
358.997	1.38
359.784	1.38
360.571	0.38
361.359	1.38
362.146	2.38
362.933	2.38
363.72	1.38
364.507	5.38
365.294	2.38
366.081	1.38
366.867	0.38
367.654	4.38
368.44	2.38
369.227	2.38
370.013	1.38
370.8	0.38
371.586	3.38
372.372	0.38
373.158	-0.62
373.944	-0.62
374.73	1.38
375.516	3.38
376.302	0.38
377.088	1.38
377.873	2.38
378.659	2.38
379.445	1.38
380.23	2.38
381.015	4.38
381.801	3.38
382.586	2.38
383.371	1.38
384.156	2.38
384.941	4.38
385.726	0.38
386.511	3.38
387.296	2.38
388.08	2.38
388.865	3.38
389.649	1.38
390.434	5.38
391.218	4.38
392.003	1.38
392.787	3.38
393.571	0.38
394.355	5.38
395.139	2.38
395.923	2.38
396.707	1.38
397.491	4.38
398.274	2.38
399.058	3.38
399.842	2.38
400.625	3.38
401.408	4.38
402.192	3.38
402.975	2.38
403.758	2.38
404.541	2.38
405.324	4.38
406.107	1.38
406.89	4.38
407.673	3.38
408.456	3.38
409.238	3.38
410.021	4.38
410.803	2.38
411.586	3.38
412.368	6.38
413.151	6.38
413.933	6.38
414.715	6.38
415.497	4.38
416.279	5.38
417.061	3.38
417.843	3.38
418.624	4.38
419.406	4.38
420.188	5.38
420.969	4.38
421.751	6.38
422.532	5.38
423.313	4.38
424.095	3.38
424.876	6.38
425.657	7.38
426.438	6.38
427.219	9.38
428	6.38
428.78	5.38
429.561	6.38
430.342	8.38
431.122	8.38
431.903	8.38
432.683	7.38
433.464	8.38
434.244	9.38
435.024	9.38
435.804	8.38
436.584	8.38
437.364	6.38
438.144	8.38
438.924	9.38
439.704	12.38
440.483	9.38
441.263	11.38
442.042	11.38
442.822	14.38
443.601	14.38
444.38	15.38
445.16	13.38
445.939	14.38
446.718	20.38
447.497	18.38
448.276	16.38
449.054	20.38
449.833	22.38
450.612	21.38
451.391	22.38
452.169	26.38
452.948	30.38
453.726	31.38
454.504	36.38
455.282	36.38
456.061	40.38
456.839	44.38
457.617	49.38
458.395	52.38
459.172	62.38
459.95	65.38
460.728	79.38
461.506	85.38
462.283	92.38
463.061	107.38
463.838	114.38
464.615	122.38
465.393	142.38
466.17	161.38
466.947	173.38
467.724	204.38
468.501	220.38
469.278	248.38
470.055	276.38
470.831	312.38
471.608	346.38
472.385	385.38
473.161	433.38
473.938	475.38
474.714	540.38
475.49	601.38
476.266	673.38
477.043	732.38
477.819	817.38
478.595	912.38
479.371	1009.38
480.146	1121.38
480.922	1260.38
481.698	1389.38
482.473	1545.38
483.249	1707.38
484.024	1885.38
484.8	2112.38
485.575	2342.38
486.35	2585.38
487.126	2869.38
487.901	3190.38
488.676	3508.38
489.451	3889.38
490.225	4324.38
491	4775.38
491.775	5257.38
492.55	5801.38
493.324	6389.38
494.099	7000.38
494.873	7676.38
495.647	8402.38
496.422	9133.38
497.196	9963.38
497.97	10703.38
498.744	11549.38
499.518	12329.38
500.292	13146.38
501.066	13870.38
501.839	14653.38
502.613	15342.38
503.387	15955.38
504.16	16474.38
504.934	16889.38
505.707	17197.38
506.48	17358.38
507.253	17383.38
508.027	17381.38
508.8	17191.38
509.573	17041.38
510.346	16611.38
511.118	16131.38
511.891	15592.38
512.664	15004.38
513.437	14381.38
514.209	13843.38
514.982	13245.38
515.754	12594.38
516.526	12039.38
517.298	11485.38
518.071	10951.38
518.843	10465.38
519.615	10053.38
520.387	9619.38
521.159	9235.38
521.93	8864.38
522.702	8517.38
523.474	8174.38
524.245	7843.38
525.017	7516.38
525.788	7246.38
526.56	6949.38
527.331	6659.38
528.102	6381.38
528.873	6050.38
529.644	5765.38
530.415	5502.38
531.186	5225.38
531.957	4932.38
532.728	4697.38
533.498	4423.38
534.269	4157.38
535.039	3932.38
535.81	3716.38
536.58	3512.38
537.351	3325.38
538.121	3099.38
538.891	2930.38
539.661	2798.38
540.431	2640.38
541.201	2480.38
541.971	2340.38
542.741	2227.38
543.51	2124.38
544.28	2011.38
545.05	1905.38
545.819	1819.38
546.588	1737.38
547.358	1629.38
548.127	1572.38
548.896	1483.38
549.665	1418.38
550.434	1337.38
551.203	1274.38
551.972	1198.38
552.741	1132.38
553.51	1071.38
554.278	1013.38
555.047	958.38
555.815	896.38
556.584	850.38
557.352	790.38
558.121	756.38
558.889	715.38
559.657	659.38
560.425	624.38
561.193	589.38
561.961	555.38
562.729	523.38
563.496	489.38
564.264	473.38
565.032	441.38
565.799	414.38
566.567	391.38
567.334	376.38
568.101	358.38
568.869	333.38
569.636	312.38
570.403	297.38
571.17	274.38
571.937	261.38
572.704	247.38
573.471	234.38
574.237	221.38
575.004	204.38
575.771	193.38
576.537	183.38
577.303	170.38
578.07	160.38
578.836	156.38
579.602	147.38
580.368	137.38
581.134	130.38
581.9	125.38
582.666	114.38
583.432	109.38
584.198	99.38
584.964	94.38
585.729	92.38
586.495	86.38
587.26	83.38
588.025	81.38
588.791	71.38
589.556	73.38
590.321	69.38
591.086	63.38
591.851	59.38
592.616	55.38
593.381	52.38
594.146	52.38
594.911	49.38
595.675	46.38
596.44	42.38
597.204	41.38
597.969	41.38
598.733	34.38
599.497	36.38
600.261	33.38
601.025	33.38
601.79	30.38
602.553	28.38
603.317	31.38
604.081	27.38
604.845	25.38
605.609	23.38
606.372	22.38
607.136	23.38
607.899	24.38
608.662	23.38
609.426	18.38
610.189	20.38
610.952	20.38
611.715	16.38
612.478	17.38
613.241	15.38
614.004	16.38
614.767	16.38
615.529	16.38
616.292	14.38
617.055	13.38
617.817	13.38
618.579	14.38
619.342	11.38
620.104	11.38
620.866	12.38
621.628	11.38
622.39	11.38
623.152	12.38
623.914	8.38
624.676	9.38
625.438	7.38
626.199	8.38
626.961	9.38
627.722	6.38
628.484	5.38
629.245	8.38
630.006	8.38
630.768	6.38
631.529	6.38
632.29	7.38
633.051	4.38
633.812	8.38
634.573	5.38
635.333	7.38
636.094	4.38
636.855	6.38
637.615	4.38
638.376	6.38
639.136	4.38
639.896	4.38
640.657	4.38
641.417	7.38
642.177	5.38
642.937	6.38
643.697	2.38
644.457	1.38
645.216	5.38
645.976	4.38
646.736	5.38
647.495	3.38
648.255	5.38
649.014	5.38
649.774	2.38
650.533	1.38
651.292	2.38
652.051	4.38
652.81	4.38
653.569	2.38
654.328	4.38
655.087	4.38
655.846	4.38
656.604	2.38
657.363	4.38
658.121	1.38
658.88	-1.62
659.638	2.38
660.397	-0.62
661.155	3.38
661.913	3.38
662.671	4.38
663.429	0.38
664.187	1.38
664.945	1.38
665.703	1.38
666.46	3.38
667.218	1.38
667.976	1.38
668.733	1.38
669.49	3.38
670.248	0.38
671.005	2.38
671.762	3.38
672.519	-0.62
673.276	2.38
674.033	1.38
674.79	1.38
675.547	0.38
676.304	1.38
677.06	1.38
677.817	1.38
678.574	0.38
679.33	1.38
680.086	2.38
680.843	1.38
681.599	0.38
682.355	5.38
683.111	2.38
683.867	1.38
684.623	1.38
685.379	2.38
686.135	0.38
686.89	0.38
687.646	1.38
688.402	3.38
689.157	0.38
689.912	3.38
690.668	1.38
691.423	2.38
692.178	1.38
692.933	3.38
693.688	1.38
694.443	0.38
695.198	2.38
695.953	1.38
696.708	-0.62
697.462	1.38
698.217	2.38
698.972	1.38
699.726	1.38
700.48	2.38
701.235	0.38
701.989	1.38
702.743	1.38
703.497	0.38
704.251	3.38
705.005	1.38
705.759	2.38
706.513	2.38
707.266	2.38
708.02	1.38
708.774	3.38
709.527	3.38
710.28	1.38
711.034	2.38
711.787	0.38
712.54	2.38
713.293	2.38
714.046	1.38
714.799	1.38
715.552	-0.62
716.305	2.38
717.058	3.38
717.81	1.38
718.563	1.38
719.315	2.38
720.068	1.38
720.82	1.38
721.573	2.38
722.325	0.38
723.077	0.38
723.829	1.38
724.581	0.38
725.333	1.38
726.085	0.38
726.836	2.38
727.588	1.38
728.34	1.38
729.091	3.38
729.843	2.38
730.594	0.38
731.346	-0.62
732.097	1.38
732.848	2.38
733.599	0.38
734.35	1.38
735.101	2.38
735.852	2.38
736.603	2.38
737.354	2.38
738.104	2.38
738.855	2.38
739.605	1.38
740.356	3.38
741.106	3.38
741.856	0.38
742.607	1.38
743.357	2.38
744.107	-0.62
744.857	3.38
745.607	1.38
746.357	2.38
747.106	1.38
747.856	1.38
748.606	1.38
749.355	-0.62
750.105	5.38
750.854	-0.62
751.603	3.38
752.353	1.38
753.102	2.38
753.851	2.38
754.6	4.38
755.349	4.38
756.098	4.38
756.847	1.38
757.595	3.38
758.344	2.38
759.093	3.38
759.841	3.38
760.589	5.38
761.338	3.38
762.086	2.38
762.834	0.38
763.582	4.38
764.331	4.38
765.079	1.38
765.826	4.38
766.574	2.38
767.322	4.38
768.07	1.38
768.817	3.38
769.565	3.38
770.312	2.38
771.06	1.38
771.807	2.38
772.554	5.38
773.302	3.38
774.049	4.38
774.796	2.38
775.543	2.38
776.29	6.38
777.036	4.38
777.783	3.38
778.53	4.38
779.276	5.38
780.023	4.38
780.769	4.38
781.516	5.38
782.262	6.38
783.008	4.38
783.754	3.38
784.5	3.38
785.246	5.38
785.992	4.38
786.738	4.38
787.484	4.38
788.23	3.38
788.975	4.38
789.721	3.38
790.466	6.38
791.212	5.38
791.957	7.38
792.702	6.38
793.447	6.38
794.193	6.38
794.938	5.38
795.683	4.38
796.427	6.38
797.172	4.38
797.917	3.38
798.662	4.38
799.406	4.38
800.151	3.38
800.895	4.38
801.64	2.38
802.384	4.38
803.128	3.38
803.872	2.38
804.616	2.38
805.36	6.38
806.104	4.38
806.848	4.38
807.592	2.38
808.336	4.38
809.079	2.38
809.823	4.38
810.566	2.38
811.31	2.38
812.053	4.38
812.796	2.38
813.539	4.38
814.283	3.38
815.026	3.38
815.769	1.38
816.511	3.38
817.254	3.38
817.997	-0.62
818.74	4.38
819.482	1.38
820.225	1.38
820.967	-0.62
821.71	2.38
822.452	1.38
823.194	3.38
823.936	2.38
824.678	0.38
825.42	3.38
826.162	4.38
826.904	1.38
827.646	2.38
828.388	1.38
829.129	1.38
829.871	2.38
830.612	3.38
831.354	1.38
832.095	1.38
832.836	0.38
833.577	2.38
834.319	2.38
835.06	1.38
835.801	0.38
836.542	1.38
837.282	1.38
838.023	0.38
838.764	0.38
839.504	0.38
840.245	0.38
840.985	2.38
841.726	2.38
842.466	2.38
843.206	2.38
843.946	1.38
844.687	0.38
845.427	1.38
846.166	1.38
846.906	2.38
847.646	2.38
848.386	1.38
849.125	-2.62
849.865	2.38
850.605	-0.62
851.344	1.38
852.083	0.38
852.823	1.38
853.562	4.38
854.301	-0.62
855.04	2.38
855.779	0.38
856.518	2.38
857.257	0.38
857.995	0.38
858.734	1.38
859.473	0.38
860.211	0.38
860.95	-0.62
861.688	0.38
862.426	1.38
863.165	0.38
863.903	1.38
864.641	-0.62
865.379	1.38
866.117	-0.62
866.855	1.38
867.593	0.38
868.33	0.38
869.068	-0.62
869.806	0.38
870.543	-0.62
871.28	0.38
872.018	2.38
872.755	-0.62
873.492	0.38
874.229	-0.62
874.967	-0.62
875.703	2.38
876.44	2.38
877.177	0.38
877.914	-0.62
878.651	-0.62
879.387	0.38
880.124	0.38
880.86	0.38
881.597	2.38
882.333	1.38
883.069	-0.62
883.806	-0.62
884.542	0.38
885.278	-2.62
886.014	0.38
886.749	0.38
887.485	0.38
888.221	-0.62
888.957	-0.62
889.692	1.38
890.428	-1.62
891.163	1.38
891.899	0.38
892.634	0.38
893.369	0.38
894.104	0.38
894.839	0.38
895.574	0.38
896.309	0.38
897.044	1.38
897.779	-0.62
898.514	-0.62
899.248	-0.62
899.983	1.38
900.717	-0.62
901.452	0.38
902.186	0.38
902.92	1.38
903.654	1.38
904.389	1.38
905.123	0.38
905.857	-0.62
906.59	-3.62
907.324	0.38
908.058	-0.62
908.792	-0.62
909.525	-1.62
910.259	-0.62
910.992	0.38
911.726	2.38
912.459	1.38
913.192	-0.62
913.925	-2.62
914.658	-2.62
915.391	-1.62
916.124	-1.62
916.857	-0.62
917.59	-0.62
918.323	-1.62
919.055	-0.62
919.788	-1.62
920.521	0.38
921.253	0.38
921.985	-1.62
922.718	0.38
923.45	0.38
924.182	-0.62
924.914	-1.62
925.646	-1.62
926.378	-0.62
927.11	0.38
927.841	-1.62
928.573	-2.62
929.305	-1.62
930.036	-0.62
930.768	0.38
931.499	-0.62
932.23	1.38
932.962	-0.62
933.693	-2.62
934.424	-1.62
935.155	-1.62
935.886	0.38
936.617	-0.62
937.348	0.38
938.078	-0.62
938.809	-2.62
939.54	0.38
940.27	0.38
941.001	0.38
941.731	-0.62
942.461	0.38
943.191	-0.62
943.922	1.38
944.652	1.38
945.382	0.38
946.112	-0.62
946.841	-0.62
947.571	-1.62
948.301	-0.62
949.031	-0.62
949.76	-1.62
950.49	0.38
951.219	-0.62
951.948	-0.62
952.678	0.38
953.407	-0.62
954.136	-0.62
954.865	-2.62
955.594	-1.62
956.323	-0.62
957.052	1.38
957.78	0.38
958.509	0.38
959.238	-1.62
959.966	0.38
960.695	-0.62
961.423	-2.62
962.151	-0.62
962.88	-1.62
963.608	-0.62
964.336	-0.62
965.064	-0.62
965.792	0.38
966.52	-1.62
967.247	1.38
967.975	-2.62
968.703	-0.62
969.43	-0.62
970.158	1.38
970.885	1.38
971.613	-1.62
972.34	-0.62
973.067	-0.62
973.794	-0.62
974.521	-2.62
975.248	-2.62
975.975	-1.62
976.702	0.38
977.429	0.38
978.156	-1.62
978.882	0.38
979.609	-1.62
980.335	-1.62
981.062	-2.62
981.788	0.38
982.514	-1.62
983.24	-0.62
983.967	0.38
984.693	0.38
985.419	-1.62
986.144	-0.62
986.87	-0.62
987.596	-1.62
988.322	-1.62
989.047	-1.62
989.773	0.38
990.498	-2.62
991.224	-0.62
991.949	0.38
992.674	-1.62
993.399	-0.62
994.124	-0.62
994.849	-1.62
995.574	-2.62
996.299	0.38
997.024	-0.62
997.749	-1.62
998.473	-0.62
999.198	-1.62
999.922	0.38
1000.647	0.38
1001.371	3.38
1002.095	-2.62
1002.82	-1.62
1003.544	-0.62
1004.268	0.38
1004.992	-1.62
1005.716	-2.62
1006.439	-1.62
1007.163	0.38
1007.887	2.38
1008.611	-0.62
1009.334	-0.62
1010.058	0.38
1010.781	-0.62
1011.504	0.38
1012.228	-0.62
1012.951	-0.62
1013.674	0.38
1014.397	-0.62
1015.12	2.38
