节点500_145_QEPB04081__31__11-29-26-784.txt的数据

Date: Wed Nov 12 11:29:26 CST 2025
User: PC
Spectrometer: QEPB0408
触发模式: 0
积分时间 (秒): 1.000000E-2
Scans to average: 1
启用暗噪声校正: true
启用非线性校正: false
滑动平均宽度: 0
X轴模式: Wavelengths
Number of Pixels in Spectrum: 1044
>>>>>Begin Spectral Data<<<<<
220.843	-0.38
221.644	-1.38
222.444	0.62
223.244	0.62
224.045	0.62
224.845	-0.38
225.645	-2.38
226.445	0.62
227.245	-2.38
228.045	-0.38
228.845	-1.38
229.645	0.62
230.444	-0.38
231.244	-1.38
232.043	0.62
232.843	1.62
233.642	1.62
234.442	1.62
235.241	-0.38
236.04	-0.38
236.839	0.62
237.638	1.62
238.437	1.62
239.236	1.62
240.035	-0.38
240.833	1.62
241.632	2.62
242.43	-0.38
243.229	1.62
244.027	2.62
244.826	1.62
245.624	-2.38
246.422	0.62
247.22	2.62
248.018	1.62
248.816	2.62
249.614	3.62
250.412	1.62
251.21	1.62
252.007	0.62
252.805	1.62
253.602	0.62
254.4	2.62
255.197	4.62
255.994	3.62
256.791	2.62
257.589	4.62
258.386	4.62
259.183	4.62
259.979	5.62
260.776	1.62
261.573	1.62
262.37	5.62
263.166	3.62
263.963	7.62
264.759	6.62
265.556	7.62
266.352	5.62
267.148	7.62
267.944	7.62
268.74	8.62
269.536	7.62
270.332	6.62
271.128	8.62
271.924	9.62
272.719	10.62
273.515	8.62
274.311	5.62
275.106	9.62
275.901	9.62
276.697	9.62
277.492	9.62
278.287	7.62
279.082	9.62
279.877	9.62
280.672	12.62
281.467	12.62
282.262	9.62
283.056	8.62
283.851	8.62
284.646	12.62
285.44	12.62
286.234	11.62
287.029	12.62
287.823	11.62
288.617	12.62
289.411	10.62
290.205	12.62
290.999	13.62
291.793	10.62
292.587	8.62
293.381	8.62
294.174	11.62
294.968	9.62
295.761	11.62
296.555	9.62
297.348	11.62
298.141	10.62
298.935	6.62
299.728	11.62
300.521	6.62
301.314	8.62
302.107	8.62
302.899	8.62
303.692	8.62
304.485	9.62
305.277	7.62
306.07	8.62
306.862	8.62
307.655	6.62
308.447	6.62
309.239	6.62
310.031	6.62
310.823	7.62
311.615	6.62
312.407	6.62
313.199	5.62
313.991	4.62
314.783	5.62
315.574	4.62
316.366	4.62
317.157	5.62
317.949	5.62
318.74	4.62
319.531	4.62
320.322	4.62
321.113	1.62
321.904	5.62
322.695	4.62
323.486	5.62
324.277	5.62
325.068	2.62
325.858	4.62
326.649	3.62
327.439	4.62
328.23	3.62
329.02	3.62
329.81	3.62
330.6	0.62
331.391	3.62
332.181	3.62
332.971	5.62
333.76	5.62
334.55	1.62
335.34	2.62
336.13	3.62
336.919	2.62
337.709	4.62
338.498	3.62
339.287	2.62
340.077	2.62
340.866	4.62
341.655	1.62
342.444	2.62
343.233	3.62
344.022	1.62
344.811	2.62
345.6	2.62
346.388	4.62
347.177	2.62
347.965	2.62
348.754	3.62
349.542	4.62
350.33	3.62
351.119	1.62
351.907	4.62
352.695	1.62
353.483	1.62
354.271	1.62
355.059	2.62
355.846	2.62
356.634	2.62
357.422	3.62
358.209	1.62
358.997	2.62
359.784	2.62
360.571	2.62
361.359	1.62
362.146	2.62
362.933	2.62
363.72	1.62
364.507	2.62
365.294	1.62
366.081	1.62
366.867	1.62
367.654	1.62
368.44	1.62
369.227	0.62
370.013	0.62
370.8	2.62
371.586	3.62
372.372	4.62
373.158	-0.38
373.944	1.62
374.73	1.62
375.516	0.62
376.302	-0.38
377.088	3.62
377.873	0.62
378.659	2.62
379.445	3.62
380.23	2.62
381.015	2.62
381.801	0.62
382.586	1.62
383.371	3.62
384.156	1.62
384.941	1.62
385.726	3.62
386.511	3.62
387.296	2.62
388.08	3.62
388.865	2.62
389.649	3.62
390.434	0.62
391.218	2.62
392.003	3.62
392.787	3.62
393.571	1.62
394.355	0.62
395.139	2.62
395.923	2.62
396.707	1.62
397.491	3.62
398.274	5.62
399.058	3.62
399.842	4.62
400.625	1.62
401.408	2.62
402.192	1.62
402.975	2.62
403.758	3.62
404.541	1.62
405.324	3.62
406.107	2.62
406.89	3.62
407.673	4.62
408.456	3.62
409.238	6.62
410.021	0.62
410.803	4.62
411.586	6.62
412.368	3.62
413.151	5.62
413.933	5.62
414.715	4.62
415.497	5.62
416.279	4.62
417.061	3.62
417.843	5.62
418.624	3.62
419.406	5.62
420.188	6.62
420.969	3.62
421.751	7.62
422.532	4.62
423.313	6.62
424.095	5.62
424.876	2.62
425.657	5.62
426.438	7.62
427.219	6.62
428	5.62
428.78	3.62
429.561	5.62
430.342	5.62
431.122	7.62
431.903	7.62
432.683	9.62
433.464	4.62
434.244	8.62
435.024	7.62
435.804	7.62
436.584	8.62
437.364	6.62
438.144	8.62
438.924	9.62
439.704	10.62
440.483	13.62
441.263	12.62
442.042	12.62
442.822	11.62
443.601	13.62
444.38	13.62
445.16	12.62
445.939	15.62
446.718	16.62
447.497	15.62
448.276	17.62
449.054	20.62
449.833	21.62
450.612	21.62
451.391	23.62
452.169	25.62
452.948	31.62
453.726	33.62
454.504	35.62
455.282	35.62
456.061	41.62
456.839	45.62
457.617	47.62
458.395	52.62
459.172	58.62
459.95	64.62
460.728	73.62
461.506	80.62
462.283	88.62
463.061	98.62
463.838	109.62
464.615	122.62
465.393	133.62
466.17	153.62
466.947	162.62
467.724	186.62
468.501	213.62
469.278	240.62
470.055	262.62
470.831	293.62
471.608	327.62
472.385	377.62
473.161	423.62
473.938	465.62
474.714	522.62
475.49	586.62
476.266	646.62
477.043	719.62
477.819	811.62
478.595	899.62
479.371	984.62
480.146	1110.62
480.922	1226.62
481.698	1368.62
482.473	1519.62
483.249	1687.62
484.024	1878.62
484.8	2101.62
485.575	2337.62
486.35	2578.62
487.126	2855.62
487.901	3170.62
488.676	3524.62
489.451	3916.62
490.225	4297.62
491	4805.62
491.775	5289.62
492.55	5821.62
493.324	6429.62
494.099	7084.62
494.873	7736.62
495.647	8490.62
496.422	9239.62
497.196	10024.62
497.97	10832.62
498.744	11655.62
499.518	12514.62
500.292	13265.62
501.066	14130.62
501.839	14826.62
502.613	15454.62
503.387	16097.62
504.16	16628.62
504.934	17015.62
505.707	17345.62
506.48	17465.62
507.253	17479.62
508.027	17410.62
508.8	17260.62
509.573	16902.62
510.346	16547.62
511.118	16049.62
511.891	15507.62
512.664	14909.62
513.437	14269.62
514.209	13692.62
514.982	13016.62
515.754	12471.62
516.526	11852.62
517.298	11316.62
518.071	10785.62
518.843	10290.62
519.615	9865.62
520.387	9461.62
521.159	9117.62
521.93	8764.62
522.702	8390.62
523.474	8059.62
524.245	7733.62
525.017	7448.62
525.788	7134.62
526.56	6851.62
527.331	6531.62
528.102	6251.62
528.873	5938.62
529.644	5647.62
530.415	5397.62
531.186	5112.62
531.957	4821.62
532.728	4568.62
533.498	4333.62
534.269	4090.62
535.039	3825.62
535.81	3626.62
536.58	3419.62
537.351	3249.62
538.121	3048.62
538.891	2885.62
539.661	2709.62
540.431	2581.62
541.201	2416.62
541.971	2317.62
542.741	2191.62
543.51	2052.62
544.28	1957.62
545.05	1872.62
545.819	1783.62
546.588	1691.62
547.358	1602.62
548.127	1538.62
548.896	1454.62
549.665	1378.62
550.434	1308.62
551.203	1226.62
551.972	1176.62
552.741	1114.62
553.51	1041.62
554.278	986.62
555.047	929.62
555.815	872.62
556.584	823.62
557.352	779.62
558.121	727.62
558.889	690.62
559.657	644.62
560.425	608.62
561.193	578.62
561.961	543.62
562.729	515.62
563.496	487.62
564.264	460.62
565.032	427.62
565.799	409.62
566.567	381.62
567.334	365.62
568.101	343.62
568.869	323.62
569.636	300.62
570.403	292.62
571.17	270.62
571.937	253.62
572.704	241.62
573.471	230.62
574.237	215.62
575.004	200.62
575.771	189.62
576.537	175.62
577.303	170.62
578.07	156.62
578.836	149.62
579.602	139.62
580.368	132.62
581.134	124.62
581.9	117.62
582.666	117.62
583.432	107.62
584.198	95.62
584.964	93.62
585.729	89.62
586.495	81.62
587.26	79.62
588.025	75.62
588.791	72.62
589.556	66.62
590.321	65.62
591.086	61.62
591.851	58.62
592.616	55.62
593.381	52.62
594.146	48.62
594.911	47.62
595.675	45.62
596.44	40.62
597.204	40.62
597.969	38.62
598.733	36.62
599.497	33.62
600.261	31.62
601.025	29.62
601.79	32.62
602.553	28.62
603.317	27.62
604.081	27.62
604.845	26.62
605.609	22.62
606.372	21.62
607.136	24.62
607.899	21.62
608.662	20.62
609.426	19.62
610.189	17.62
610.952	15.62
611.715	16.62
612.478	16.62
613.241	17.62
614.004	13.62
614.767	15.62
615.529	13.62
616.292	11.62
617.055	14.62
617.817	15.62
618.579	12.62
619.342	11.62
620.104	11.62
620.866	9.62
621.628	11.62
622.39	11.62
623.152	10.62
623.914	10.62
624.676	11.62
625.438	7.62
626.199	12.62
626.961	8.62
627.722	10.62
628.484	10.62
629.245	5.62
630.006	6.62
630.768	6.62
631.529	7.62
632.29	6.62
633.051	5.62
633.812	7.62
634.573	3.62
635.333	6.62
636.094	4.62
636.855	5.62
637.615	5.62
638.376	4.62
639.136	6.62
639.896	4.62
640.657	7.62
641.417	5.62
642.177	4.62
642.937	2.62
643.697	4.62
644.457	4.62
645.216	3.62
645.976	3.62
646.736	2.62
647.495	3.62
648.255	5.62
649.014	4.62
649.774	3.62
650.533	3.62
651.292	2.62
652.051	3.62
652.81	1.62
653.569	0.62
654.328	3.62
655.087	3.62
655.846	4.62
656.604	3.62
657.363	1.62
658.121	1.62
658.88	1.62
659.638	1.62
660.397	2.62
661.155	0.62
661.913	3.62
662.671	4.62
663.429	2.62
664.187	0.62
664.945	3.62
665.703	2.62
666.46	0.62
667.218	3.62
667.976	0.62
668.733	2.62
669.49	0.62
670.248	4.62
671.005	-0.38
671.762	2.62
672.519	2.62
673.276	1.62
674.033	2.62
674.79	0.62
675.547	0.62
676.304	2.62
677.06	3.62
677.817	1.62
678.574	1.62
679.33	1.62
680.086	0.62
680.843	2.62
681.599	0.62
682.355	0.62
683.111	1.62
683.867	1.62
684.623	1.62
685.379	0.62
686.135	1.62
686.89	0.62
687.646	0.62
688.402	1.62
689.157	1.62
689.912	-1.38
690.668	1.62
691.423	0.62
692.178	-0.38
692.933	4.62
693.688	2.62
694.443	1.62
695.198	3.62
695.953	0.62
696.708	0.62
697.462	3.62
698.217	-0.38
698.972	3.62
699.726	1.62
700.48	0.62
701.235	1.62
701.989	-0.38
702.743	1.62
703.497	3.62
704.251	0.62
705.005	5.62
705.759	-0.38
706.513	-0.38
707.266	1.62
708.02	2.62
708.774	1.62
709.527	2.62
710.28	2.62
711.034	2.62
711.787	-0.38
712.54	0.62
713.293	1.62
714.046	1.62
714.799	-3.38
715.552	1.62
716.305	-0.38
717.058	1.62
717.81	-1.38
718.563	1.62
719.315	2.62
720.068	1.62
720.82	1.62
721.573	0.62
722.325	0.62
723.077	2.62
723.829	0.62
724.581	0.62
725.333	1.62
726.085	0.62
726.836	0.62
727.588	3.62
728.34	1.62
729.091	1.62
729.843	1.62
730.594	1.62
731.346	1.62
732.097	1.62
732.848	2.62
733.599	1.62
734.35	3.62
735.101	3.62
735.852	0.62
736.603	1.62
737.354	1.62
738.104	1.62
738.855	1.62
739.605	0.62
740.356	2.62
741.106	0.62
741.856	-1.38
742.607	1.62
743.357	2.62
744.107	1.62
744.857	0.62
745.607	4.62
746.357	-1.38
747.106	3.62
747.856	2.62
748.606	3.62
749.355	2.62
750.105	1.62
750.854	0.62
751.603	1.62
752.353	4.62
753.102	2.62
753.851	2.62
754.6	2.62
755.349	3.62
756.098	2.62
756.847	2.62
757.595	2.62
758.344	1.62
759.093	1.62
759.841	2.62
760.589	1.62
761.338	1.62
762.086	1.62
762.834	2.62
763.582	3.62
764.331	0.62
765.079	3.62
765.826	1.62
766.574	2.62
767.322	2.62
768.07	4.62
768.817	3.62
769.565	3.62
770.312	3.62
771.06	4.62
771.807	1.62
772.554	3.62
773.302	1.62
774.049	4.62
774.796	4.62
775.543	3.62
776.29	4.62
777.036	4.62
777.783	6.62
778.53	5.62
779.276	4.62
780.023	3.62
780.769	3.62
781.516	2.62
782.262	4.62
783.008	7.62
783.754	6.62
784.5	5.62
785.246	4.62
785.992	3.62
786.738	5.62
787.484	2.62
788.23	6.62
788.975	5.62
789.721	5.62
790.466	4.62
791.212	5.62
791.957	5.62
792.702	5.62
793.447	6.62
794.193	5.62
794.938	3.62
795.683	3.62
796.427	6.62
797.172	5.62
797.917	2.62
798.662	4.62
799.406	3.62
800.151	4.62
800.895	3.62
801.64	6.62
802.384	1.62
803.128	4.62
803.872	3.62
804.616	3.62
805.36	6.62
806.104	4.62
806.848	1.62
807.592	5.62
808.336	3.62
809.079	1.62
809.823	1.62
810.566	4.62
811.31	1.62
812.053	4.62
812.796	3.62
813.539	2.62
814.283	3.62
815.026	1.62
815.769	3.62
816.511	3.62
817.254	3.62
817.997	2.62
818.74	1.62
819.482	1.62
820.225	-0.38
820.967	1.62
821.71	2.62
822.452	3.62
823.194	4.62
823.936	0.62
824.678	3.62
825.42	1.62
826.162	2.62
826.904	1.62
827.646	4.62
828.388	0.62
829.129	1.62
829.871	3.62
830.612	3.62
831.354	2.62
832.095	1.62
832.836	0.62
833.577	1.62
834.319	0.62
835.06	2.62
835.801	-1.38
836.542	2.62
837.282	1.62
838.023	0.62
838.764	2.62
839.504	0.62
840.245	2.62
840.985	2.62
841.726	-0.38
842.466	3.62
843.206	2.62
843.946	-0.38
844.687	0.62
845.427	1.62
846.166	1.62
846.906	1.62
847.646	3.62
848.386	1.62
849.125	0.62
849.865	1.62
850.605	4.62
851.344	0.62
852.083	-2.38
852.823	1.62
853.562	-0.38
854.301	3.62
855.04	1.62
855.779	1.62
856.518	-1.38
857.257	1.62
857.995	2.62
858.734	-0.38
859.473	1.62
860.211	0.62
860.95	0.62
861.688	-0.38
862.426	-0.38
863.165	-0.38
863.903	1.62
864.641	1.62
865.379	1.62
866.117	-1.38
866.855	0.62
867.593	-1.38
868.33	3.62
869.068	-0.38
869.806	0.62
870.543	0.62
871.28	-0.38
872.018	2.62
872.755	0.62
873.492	1.62
874.229	-0.38
874.967	0.62
875.703	-0.38
876.44	1.62
877.177	0.62
877.914	0.62
878.651	-0.38
879.387	-2.38
880.124	0.62
880.86	0.62
881.597	0.62
882.333	-1.38
883.069	0.62
883.806	0.62
884.542	0.62
885.278	-0.38
886.014	-0.38
886.749	-0.38
887.485	1.62
888.221	-1.38
888.957	1.62
889.692	0.62
890.428	0.62
891.163	-0.38
891.899	0.62
892.634	-0.38
893.369	-0.38
894.104	1.62
894.839	-2.38
895.574	-0.38
896.309	-0.38
897.044	0.62
897.779	-0.38
898.514	0.62
899.248	-0.38
899.983	0.62
900.717	-1.38
901.452	-0.38
902.186	-1.38
902.92	1.62
903.654	-2.38
904.389	-1.38
905.123	-0.38
905.857	-2.38
906.59	1.62
907.324	-1.38
908.058	-0.38
908.792	-4.38
909.525	0.62
910.259	-1.38
910.992	-1.38
911.726	-0.38
912.459	1.62
913.192	1.62
913.925	-0.38
914.658	-1.38
915.391	-0.38
916.124	0.62
916.857	-0.38
917.59	1.62
918.323	0.62
919.055	-2.38
919.788	-1.38
920.521	0.62
921.253	1.62
921.985	0.62
922.718	0.62
923.45	-1.38
924.182	1.62
924.914	0.62
925.646	0.62
926.378	0.62
927.11	-0.38
927.841	-3.38
928.573	0.62
929.305	-0.38
930.036	-0.38
930.768	-0.38
931.499	-1.38
932.23	0.62
932.962	0.62
933.693	-1.38
934.424	-0.38
935.155	1.62
935.886	-0.38
936.617	-0.38
937.348	-0.38
938.078	0.62
938.809	-0.38
939.54	-0.38
940.27	-0.38
941.001	0.62
941.731	-1.38
942.461	0.62
943.191	-2.38
943.922	-1.38
944.652	-1.38
945.382	-0.38
946.112	-0.38
946.841	-0.38
947.571	-2.38
948.301	-2.38
949.031	-0.38
949.76	1.62
950.49	-2.38
951.219	-2.38
951.948	-1.38
952.678	0.62
953.407	-2.38
954.136	-1.38
954.865	0.62
955.594	-2.38
956.323	-1.38
957.052	1.62
957.78	1.62
958.509	-2.38
959.238	0.62
959.966	-0.38
960.695	-2.38
961.423	1.62
962.151	0.62
962.88	3.62
963.608	0.62
964.336	0.62
965.064	1.62
965.792	-1.38
966.52	1.62
967.247	-0.38
967.975	-2.38
968.703	-0.38
969.43	-0.38
970.158	-1.38
970.885	0.62
971.613	-2.38
972.34	-1.38
973.067	-0.38
973.794	-1.38
974.521	0.62
975.248	0.62
975.975	-0.38
976.702	-0.38
977.429	0.62
978.156	-3.38
978.882	2.62
979.609	0.62
980.335	-0.38
981.062	-0.38
981.788	0.62
982.514	-0.38
983.24	0.62
983.967	0.62
984.693	-2.38
985.419	0.62
986.144	-2.38
986.87	0.62
987.596	-1.38
988.322	-0.38
989.047	0.62
989.773	-0.38
990.498	0.62
991.224	-2.38
991.949	0.62
992.674	-0.38
993.399	1.62
994.124	0.62
994.849	-0.38
995.574	-1.38
996.299	0.62
997.024	0.62
997.749	0.62
998.473	0.62
999.198	-1.38
999.922	-0.38
1000.647	0.62
1001.371	3.62
1002.095	-0.38
1002.82	-1.38
1003.544	-1.38
1004.268	-0.38
1004.992	-1.38
1005.716	-2.38
1006.439	-2.38
1007.163	0.62
1007.887	-1.38
1008.611	0.62
1009.334	0.62
1010.058	0.62
1010.781	-0.38
1011.504	-0.38
1012.228	-1.38
1012.951	0.62
1013.674	-0.38
1014.397	-0.38
1015.12	-0.38
