节点500_145_QEPB04081__36__11-29-31-772.txt的数据

Date: Wed Nov 12 11:29:31 CST 2025
User: PC
Spectrometer: QEPB0408
触发模式: 0
积分时间 (秒): 1.000000E-2
Scans to average: 1
启用暗噪声校正: true
启用非线性校正: false
滑动平均宽度: 0
X轴模式: Wavelengths
Number of Pixels in Spectrum: 1044
>>>>>Begin Spectral Data<<<<<
220.843	0.12
221.644	0.12
222.444	0.12
223.244	1.12
224.045	-0.88
224.845	0.12
225.645	2.12
226.445	0.12
227.245	0.12
228.045	-0.88
228.845	0.12
229.645	-0.88
230.444	2.12
231.244	0.12
232.043	2.12
232.843	1.12
233.642	1.12
234.442	1.12
235.241	2.12
236.04	0.12
236.839	2.12
237.638	-0.88
238.437	0.12
239.236	0.12
240.035	1.12
240.833	1.12
241.632	-0.88
242.43	0.12
243.229	1.12
244.027	3.12
244.826	3.12
245.624	1.12
246.422	1.12
247.22	4.12
248.018	2.12
248.816	1.12
249.614	4.12
250.412	3.12
251.21	4.12
252.007	2.12
252.805	4.12
253.602	3.12
254.4	5.12
255.197	3.12
255.994	2.12
256.791	3.12
257.589	4.12
258.386	5.12
259.183	4.12
259.979	4.12
260.776	6.12
261.573	5.12
262.37	7.12
263.166	6.12
263.963	5.12
264.759	5.12
265.556	6.12
266.352	5.12
267.148	5.12
267.944	8.12
268.74	5.12
269.536	6.12
270.332	6.12
271.128	6.12
271.924	10.12
272.719	9.12
273.515	9.12
274.311	11.12
275.106	10.12
275.901	9.12
276.697	8.12
277.492	10.12
278.287	9.12
279.082	9.12
279.877	10.12
280.672	8.12
281.467	10.12
282.262	11.12
283.056	14.12
283.851	9.12
284.646	11.12
285.44	10.12
286.234	12.12
287.029	11.12
287.823	11.12
288.617	11.12
289.411	11.12
290.205	11.12
290.999	13.12
291.793	13.12
292.587	13.12
293.381	13.12
294.174	12.12
294.968	11.12
295.761	10.12
296.555	10.12
297.348	10.12
298.141	12.12
298.935	10.12
299.728	9.12
300.521	10.12
301.314	9.12
302.107	10.12
302.899	6.12
303.692	9.12
304.485	10.12
305.277	8.12
306.07	7.12
306.862	9.12
307.655	8.12
308.447	8.12
309.239	10.12
310.031	8.12
310.823	8.12
311.615	8.12
312.407	6.12
313.199	9.12
313.991	5.12
314.783	7.12
315.574	6.12
316.366	6.12
317.157	4.12
317.949	6.12
318.74	6.12
319.531	3.12
320.322	7.12
321.113	7.12
321.904	5.12
322.695	5.12
323.486	5.12
324.277	7.12
325.068	3.12
325.858	5.12
326.649	5.12
327.439	3.12
328.23	6.12
329.02	4.12
329.81	7.12
330.6	2.12
331.391	4.12
332.181	5.12
332.971	4.12
333.76	4.12
334.55	4.12
335.34	5.12
336.13	2.12
336.919	4.12
337.709	4.12
338.498	3.12
339.287	6.12
340.077	3.12
340.866	2.12
341.655	6.12
342.444	5.12
343.233	5.12
344.022	3.12
344.811	4.12
345.6	4.12
346.388	4.12
347.177	2.12
347.965	4.12
348.754	4.12
349.542	2.12
350.33	2.12
351.119	6.12
351.907	2.12
352.695	2.12
353.483	3.12
354.271	4.12
355.059	5.12
355.846	5.12
356.634	2.12
357.422	0.12
358.209	5.12
358.997	4.12
359.784	5.12
360.571	5.12
361.359	4.12
362.146	0.12
362.933	3.12
363.72	6.12
364.507	1.12
365.294	2.12
366.081	3.12
366.867	6.12
367.654	3.12
368.44	4.12
369.227	-0.88
370.013	2.12
370.8	3.12
371.586	4.12
372.372	1.12
373.158	1.12
373.944	2.12
374.73	2.12
375.516	3.12
376.302	6.12
377.088	0.12
377.873	3.12
378.659	1.12
379.445	2.12
380.23	4.12
381.015	2.12
381.801	2.12
382.586	3.12
383.371	2.12
384.156	0.12
384.941	1.12
385.726	4.12
386.511	3.12
387.296	5.12
388.08	5.12
388.865	2.12
389.649	2.12
390.434	1.12
391.218	3.12
392.003	3.12
392.787	3.12
393.571	4.12
394.355	3.12
395.139	4.12
395.923	2.12
396.707	4.12
397.491	3.12
398.274	3.12
399.058	4.12
399.842	3.12
400.625	5.12
401.408	5.12
402.192	4.12
402.975	5.12
403.758	5.12
404.541	2.12
405.324	4.12
406.107	4.12
406.89	4.12
407.673	7.12
408.456	6.12
409.238	4.12
410.021	4.12
410.803	3.12
411.586	5.12
412.368	5.12
413.151	4.12
413.933	6.12
414.715	5.12
415.497	4.12
416.279	4.12
417.061	5.12
417.843	3.12
418.624	6.12
419.406	6.12
420.188	4.12
420.969	8.12
421.751	5.12
422.532	6.12
423.313	8.12
424.095	7.12
424.876	6.12
425.657	6.12
426.438	6.12
427.219	6.12
428	7.12
428.78	9.12
429.561	8.12
430.342	8.12
431.122	9.12
431.903	6.12
432.683	8.12
433.464	7.12
434.244	9.12
435.024	7.12
435.804	9.12
436.584	9.12
437.364	11.12
438.144	9.12
438.924	12.12
439.704	11.12
440.483	9.12
441.263	10.12
442.042	13.12
442.822	12.12
443.601	13.12
444.38	14.12
445.16	14.12
445.939	18.12
446.718	18.12
447.497	20.12
448.276	19.12
449.054	24.12
449.833	23.12
450.612	22.12
451.391	23.12
452.169	26.12
452.948	30.12
453.726	32.12
454.504	35.12
455.282	40.12
456.061	41.12
456.839	42.12
457.617	47.12
458.395	50.12
459.172	60.12
459.95	61.12
460.728	70.12
461.506	83.12
462.283	90.12
463.061	102.12
463.838	108.12
464.615	122.12
465.393	140.12
466.17	155.12
466.947	175.12
467.724	188.12
468.501	219.12
469.278	242.12
470.055	265.12
470.831	294.12
471.608	337.12
472.385	370.12
473.161	417.12
473.938	475.12
474.714	529.12
475.49	580.12
476.266	644.12
477.043	730.12
477.819	808.12
478.595	906.12
479.371	998.12
480.146	1107.12
480.922	1237.12
481.698	1371.12
482.473	1534.12
483.249	1691.12
484.024	1875.12
484.8	2078.12
485.575	2313.12
486.35	2547.12
487.126	2866.12
487.901	3166.12
488.676	3499.12
489.451	3915.12
490.225	4298.12
491	4786.12
491.775	5237.12
492.55	5838.12
493.324	6425.12
494.099	7071.12
494.873	7710.12
495.647	8443.12
496.422	9235.12
497.196	9963.12
497.97	10787.12
498.744	11578.12
499.518	12459.12
500.292	13259.12
501.066	14064.12
501.839	14760.12
502.613	15440.12
503.387	16039.12
504.16	16603.12
504.934	16974.12
505.707	17266.12
506.48	17458.12
507.253	17540.12
508.027	17392.12
508.8	17153.12
509.573	16963.12
510.346	16535.12
511.118	16058.12
511.891	15520.12
512.664	14903.12
513.437	14270.12
514.209	13653.12
514.982	13045.12
515.754	12500.12
516.526	11900.12
517.298	11321.12
518.071	10850.12
518.843	10319.12
519.615	9906.12
520.387	9514.12
521.159	9090.12
521.93	8743.12
522.702	8418.12
523.474	8097.12
524.245	7774.12
525.017	7467.12
525.788	7164.12
526.56	6850.12
527.331	6559.12
528.102	6250.12
528.873	5983.12
529.644	5696.12
530.415	5406.12
531.186	5125.12
531.957	4851.12
532.728	4626.12
533.498	4356.12
534.269	4095.12
535.039	3840.12
535.81	3661.12
536.58	3402.12
537.351	3247.12
538.121	3041.12
538.891	2872.12
539.661	2734.12
540.431	2572.12
541.201	2446.12
541.971	2314.12
542.741	2179.12
543.51	2089.12
544.28	1980.12
545.05	1875.12
545.819	1777.12
546.588	1682.12
547.358	1613.12
548.127	1538.12
548.896	1449.12
549.665	1387.12
550.434	1315.12
551.203	1241.12
551.972	1184.12
552.741	1114.12
553.51	1059.12
554.278	991.12
555.047	933.12
555.815	875.12
556.584	832.12
557.352	798.12
558.121	733.12
558.889	694.12
559.657	661.12
560.425	622.12
561.193	580.12
561.961	542.12
562.729	516.12
563.496	479.12
564.264	461.12
565.032	432.12
565.799	411.12
566.567	391.12
567.334	362.12
568.101	343.12
568.869	331.12
569.636	307.12
570.403	284.12
571.17	279.12
571.937	261.12
572.704	245.12
573.471	230.12
574.237	214.12
575.004	212.12
575.771	194.12
576.537	183.12
577.303	167.12
578.07	161.12
578.836	151.12
579.602	141.12
580.368	132.12
581.134	132.12
581.9	118.12
582.666	108.12
583.432	108.12
584.198	99.12
584.964	97.12
585.729	89.12
586.495	85.12
587.26	82.12
588.025	75.12
588.791	76.12
589.556	68.12
590.321	64.12
591.086	60.12
591.851	60.12
592.616	53.12
593.381	53.12
594.146	50.12
594.911	48.12
595.675	43.12
596.44	45.12
597.204	41.12
597.969	39.12
598.733	38.12
599.497	37.12
600.261	33.12
601.025	37.12
601.79	34.12
602.553	29.12
603.317	28.12
604.081	26.12
604.845	24.12
605.609	24.12
606.372	25.12
607.136	24.12
607.899	23.12
608.662	21.12
609.426	20.12
610.189	21.12
610.952	18.12
611.715	20.12
612.478	19.12
613.241	16.12
614.004	16.12
614.767	15.12
615.529	16.12
616.292	16.12
617.055	12.12
617.817	12.12
618.579	12.12
619.342	14.12
620.104	10.12
620.866	11.12
621.628	11.12
622.39	11.12
623.152	13.12
623.914	9.12
624.676	14.12
625.438	10.12
626.199	14.12
626.961	6.12
627.722	9.12
628.484	6.12
629.245	8.12
630.006	8.12
630.768	7.12
631.529	9.12
632.29	9.12
633.051	7.12
633.812	8.12
634.573	6.12
635.333	7.12
636.094	7.12
636.855	7.12
637.615	5.12
638.376	7.12
639.136	7.12
639.896	4.12
640.657	6.12
641.417	7.12
642.177	6.12
642.937	6.12
643.697	6.12
644.457	4.12
645.216	5.12
645.976	5.12
646.736	5.12
647.495	3.12
648.255	4.12
649.014	4.12
649.774	5.12
650.533	3.12
651.292	4.12
652.051	2.12
652.81	3.12
653.569	6.12
654.328	4.12
655.087	4.12
655.846	-0.88
656.604	4.12
657.363	5.12
658.121	1.12
658.88	4.12
659.638	3.12
660.397	5.12
661.155	4.12
661.913	5.12
662.671	2.12
663.429	0.12
664.187	4.12
664.945	2.12
665.703	5.12
666.46	2.12
667.218	2.12
667.976	4.12
668.733	3.12
669.49	3.12
670.248	3.12
671.005	2.12
671.762	3.12
672.519	5.12
673.276	3.12
674.033	2.12
674.79	3.12
675.547	4.12
676.304	3.12
677.06	3.12
677.817	2.12
678.574	0.12
679.33	3.12
680.086	2.12
680.843	1.12
681.599	2.12
682.355	0.12
683.111	3.12
683.867	2.12
684.623	2.12
685.379	2.12
686.135	2.12
686.89	1.12
687.646	2.12
688.402	2.12
689.157	3.12
689.912	1.12
690.668	2.12
691.423	2.12
692.178	3.12
692.933	3.12
693.688	3.12
694.443	2.12
695.198	3.12
695.953	4.12
696.708	4.12
697.462	3.12
698.217	3.12
698.972	2.12
699.726	2.12
700.48	1.12
701.235	3.12
701.989	3.12
702.743	4.12
703.497	0.12
704.251	1.12
705.005	2.12
705.759	1.12
706.513	2.12
707.266	2.12
708.02	3.12
708.774	1.12
709.527	2.12
710.28	4.12
711.034	1.12
711.787	5.12
712.54	2.12
713.293	0.12
714.046	5.12
714.799	2.12
715.552	0.12
716.305	2.12
717.058	1.12
717.81	3.12
718.563	2.12
719.315	4.12
720.068	2.12
720.82	0.12
721.573	4.12
722.325	2.12
723.077	3.12
723.829	4.12
724.581	2.12
725.333	3.12
726.085	0.12
726.836	2.12
727.588	3.12
728.34	3.12
729.091	1.12
729.843	4.12
730.594	4.12
731.346	4.12
732.097	2.12
732.848	2.12
733.599	1.12
734.35	2.12
735.101	4.12
735.852	0.12
736.603	1.12
737.354	2.12
738.104	1.12
738.855	3.12
739.605	2.12
740.356	4.12
741.106	2.12
741.856	2.12
742.607	2.12
743.357	1.12
744.107	2.12
744.857	5.12
745.607	2.12
746.357	3.12
747.106	2.12
747.856	2.12
748.606	0.12
749.355	4.12
750.105	4.12
750.854	-0.88
751.603	2.12
752.353	3.12
753.102	4.12
753.851	2.12
754.6	4.12
755.349	5.12
756.098	1.12
756.847	3.12
757.595	6.12
758.344	4.12
759.093	1.12
759.841	4.12
760.589	5.12
761.338	0.12
762.086	3.12
762.834	2.12
763.582	3.12
764.331	5.12
765.079	3.12
765.826	4.12
766.574	5.12
767.322	4.12
768.07	5.12
768.817	5.12
769.565	5.12
770.312	6.12
771.06	4.12
771.807	3.12
772.554	5.12
773.302	4.12
774.049	4.12
774.796	7.12
775.543	3.12
776.29	5.12
777.036	2.12
777.783	5.12
778.53	3.12
779.276	6.12
780.023	4.12
780.769	5.12
781.516	5.12
782.262	5.12
783.008	6.12
783.754	6.12
784.5	5.12
785.246	7.12
785.992	5.12
786.738	7.12
787.484	6.12
788.23	7.12
788.975	3.12
789.721	6.12
790.466	6.12
791.212	4.12
791.957	8.12
792.702	4.12
793.447	6.12
794.193	6.12
794.938	5.12
795.683	6.12
796.427	6.12
797.172	6.12
797.917	7.12
798.662	6.12
799.406	5.12
800.151	7.12
800.895	5.12
801.64	4.12
802.384	3.12
803.128	5.12
803.872	5.12
804.616	7.12
805.36	4.12
806.104	6.12
806.848	7.12
807.592	3.12
808.336	3.12
809.079	4.12
809.823	5.12
810.566	4.12
811.31	2.12
812.053	2.12
812.796	2.12
813.539	4.12
814.283	3.12
815.026	6.12
815.769	3.12
816.511	5.12
817.254	1.12
817.997	5.12
818.74	3.12
819.482	2.12
820.225	4.12
820.967	3.12
821.71	1.12
822.452	2.12
823.194	4.12
823.936	1.12
824.678	2.12
825.42	5.12
826.162	1.12
826.904	3.12
827.646	2.12
828.388	4.12
829.129	2.12
829.871	4.12
830.612	4.12
831.354	2.12
832.095	3.12
832.836	4.12
833.577	3.12
834.319	4.12
835.06	5.12
835.801	1.12
836.542	1.12
837.282	4.12
838.023	2.12
838.764	4.12
839.504	5.12
840.245	2.12
840.985	3.12
841.726	2.12
842.466	5.12
843.206	4.12
843.946	2.12
844.687	3.12
845.427	4.12
846.166	5.12
846.906	3.12
847.646	4.12
848.386	2.12
849.125	3.12
849.865	1.12
850.605	0.12
851.344	3.12
852.083	1.12
852.823	3.12
853.562	4.12
854.301	0.12
855.04	1.12
855.779	2.12
856.518	1.12
857.257	2.12
857.995	1.12
858.734	4.12
859.473	3.12
860.211	1.12
860.95	1.12
861.688	2.12
862.426	3.12
863.165	3.12
863.903	1.12
864.641	-0.88
865.379	0.12
866.117	3.12
866.855	2.12
867.593	1.12
868.33	1.12
869.068	2.12
869.806	1.12
870.543	1.12
871.28	1.12
872.018	1.12
872.755	-0.88
873.492	2.12
874.229	1.12
874.967	4.12
875.703	0.12
876.44	0.12
877.177	2.12
877.914	2.12
878.651	-1.88
879.387	1.12
880.124	2.12
880.86	1.12
881.597	0.12
882.333	2.12
883.069	2.12
883.806	-1.88
884.542	0.12
885.278	-0.88
886.014	0.12
886.749	1.12
887.485	1.12
888.221	1.12
888.957	1.12
889.692	0.12
890.428	2.12
891.163	1.12
891.899	1.12
892.634	1.12
893.369	1.12
894.104	-0.88
894.839	2.12
895.574	-0.88
896.309	1.12
897.044	1.12
897.779	-1.88
898.514	0.12
899.248	-0.88
899.983	1.12
900.717	0.12
901.452	0.12
902.186	2.12
902.92	1.12
903.654	1.12
904.389	-0.88
905.123	1.12
905.857	0.12
906.59	0.12
907.324	0.12
908.058	0.12
908.792	-0.88
909.525	1.12
910.259	0.12
910.992	1.12
911.726	1.12
912.459	-0.88
913.192	-0.88
913.925	-0.88
914.658	-0.88
915.391	0.12
916.124	0.12
916.857	0.12
917.59	1.12
918.323	-1.88
919.055	0.12
919.788	1.12
920.521	3.12
921.253	-1.88
921.985	1.12
922.718	0.12
923.45	2.12
924.182	0.12
924.914	2.12
925.646	0.12
926.378	1.12
927.11	1.12
927.841	2.12
928.573	1.12
929.305	1.12
930.036	1.12
930.768	-1.88
931.499	2.12
932.23	-1.88
932.962	-1.88
933.693	0.12
934.424	-1.88
935.155	-0.88
935.886	0.12
936.617	0.12
937.348	0.12
938.078	0.12
938.809	-0.88
939.54	0.12
940.27	1.12
941.001	1.12
941.731	-0.88
942.461	0.12
943.191	2.12
943.922	1.12
944.652	3.12
945.382	1.12
946.112	3.12
946.841	2.12
947.571	0.12
948.301	0.12
949.031	1.12
949.76	1.12
950.49	0.12
951.219	-0.88
951.948	1.12
952.678	-1.88
953.407	0.12
954.136	-1.88
954.865	0.12
955.594	-0.88
956.323	1.12
957.052	2.12
957.78	1.12
958.509	-0.88
959.238	-0.88
959.966	2.12
960.695	1.12
961.423	0.12
962.151	1.12
962.88	1.12
963.608	0.12
964.336	-0.88
965.064	0.12
965.792	-0.88
966.52	1.12
967.247	0.12
967.975	-0.88
968.703	1.12
969.43	1.12
970.158	1.12
970.885	1.12
971.613	1.12
972.34	-1.88
973.067	0.12
973.794	0.12
974.521	0.12
975.248	-0.88
975.975	2.12
976.702	1.12
977.429	0.12
978.156	1.12
978.882	-0.88
979.609	1.12
980.335	1.12
981.062	-0.88
981.788	0.12
982.514	1.12
983.24	-0.88
983.967	0.12
984.693	-0.88
985.419	0.12
986.144	1.12
986.87	-0.88
987.596	0.12
988.322	1.12
989.047	1.12
989.773	1.12
990.498	0.12
991.224	0.12
991.949	-0.88
992.674	3.12
993.399	1.12
994.124	0.12
994.849	0.12
995.574	0.12
996.299	0.12
997.024	0.12
997.749	1.12
998.473	1.12
999.198	-1.88
999.922	3.12
1000.647	0.12
1001.371	4.12
1002.095	-1.88
1002.82	-1.88
1003.544	-0.88
1004.268	0.12
1004.992	-0.88
1005.716	1.12
1006.439	1.12
1007.163	-0.88
1007.887	-0.88
1008.611	-0.88
1009.334	1.12
1010.058	1.12
1010.781	0.12
1011.504	-0.88
1012.228	0.12
1012.951	0.12
1013.674	1.12
1014.397	0.12
1015.12	-0.88
