节点500_145_QEPB04081__223__11-32-32-501.txt的数据

Date: Wed Nov 12 11:32:32 CST 2025
User: PC
Spectrometer: QEPB0408
触发模式: 0
积分时间 (秒): 1.000000E-2
Scans to average: 1
启用暗噪声校正: true
启用非线性校正: false
滑动平均宽度: 0
X轴模式: Wavelengths
Number of Pixels in Spectrum: 1044
>>>>>Begin Spectral Data<<<<<
220.843	-0.25
221.644	1.75
222.444	-2.25
223.244	-1.25
224.045	1.75
224.845	-2.25
225.645	-0.25
226.445	-0.25
227.245	-0.25
228.045	0.75
228.845	-1.25
229.645	-2.25
230.444	-0.25
231.244	0.75
232.043	-0.25
232.843	-0.25
233.642	0.75
234.442	-1.25
235.241	0.75
236.04	-0.25
236.839	-0.25
237.638	0.75
238.437	0.75
239.236	1.75
240.035	3.75
240.833	0.75
241.632	-0.25
242.43	0.75
243.229	-1.25
244.027	-0.25
244.826	2.75
245.624	-2.25
246.422	-0.25
247.22	1.75
248.018	1.75
248.816	1.75
249.614	2.75
250.412	0.75
251.21	-0.25
252.007	1.75
252.805	1.75
253.602	2.75
254.4	1.75
255.197	1.75
255.994	2.75
256.791	0.75
257.589	3.75
258.386	0.75
259.183	2.75
259.979	0.75
260.776	4.75
261.573	5.75
262.37	3.75
263.166	7.75
263.963	7.75
264.759	5.75
265.556	4.75
266.352	5.75
267.148	5.75
267.944	4.75
268.74	6.75
269.536	6.75
270.332	8.75
271.128	7.75
271.924	5.75
272.719	7.75
273.515	4.75
274.311	9.75
275.106	10.75
275.901	10.75
276.697	7.75
277.492	6.75
278.287	9.75
279.082	7.75
279.877	9.75
280.672	6.75
281.467	7.75
282.262	9.75
283.056	10.75
283.851	11.75
284.646	10.75
285.44	8.75
286.234	11.75
287.029	7.75
287.823	12.75
288.617	7.75
289.411	13.75
290.205	7.75
290.999	9.75
291.793	9.75
292.587	7.75
293.381	9.75
294.174	12.75
294.968	11.75
295.761	9.75
296.555	8.75
297.348	9.75
298.141	8.75
298.935	8.75
299.728	7.75
300.521	9.75
301.314	6.75
302.107	7.75
302.899	9.75
303.692	7.75
304.485	8.75
305.277	7.75
306.07	9.75
306.862	6.75
307.655	9.75
308.447	7.75
309.239	7.75
310.031	8.75
310.823	6.75
311.615	5.75
312.407	5.75
313.199	6.75
313.991	4.75
314.783	6.75
315.574	4.75
316.366	2.75
317.157	6.75
317.949	4.75
318.74	4.75
319.531	4.75
320.322	2.75
321.113	2.75
321.904	2.75
322.695	6.75
323.486	2.75
324.277	4.75
325.068	4.75
325.858	4.75
326.649	4.75
327.439	2.75
328.23	4.75
329.02	4.75
329.81	3.75
330.6	4.75
331.391	2.75
332.181	1.75
332.971	1.75
333.76	4.75
334.55	1.75
335.34	2.75
336.13	2.75
336.919	1.75
337.709	3.75
338.498	1.75
339.287	2.75
340.077	0.75
340.866	1.75
341.655	4.75
342.444	3.75
343.233	1.75
344.022	2.75
344.811	2.75
345.6	2.75
346.388	4.75
347.177	1.75
347.965	4.75
348.754	3.75
349.542	4.75
350.33	0.75
351.119	4.75
351.907	3.75
352.695	0.75
353.483	1.75
354.271	5.75
355.059	4.75
355.846	1.75
356.634	2.75
357.422	0.75
358.209	0.75
358.997	0.75
359.784	2.75
360.571	1.75
361.359	1.75
362.146	2.75
362.933	2.75
363.72	0.75
364.507	1.75
365.294	2.75
366.081	2.75
366.867	0.75
367.654	4.75
368.44	2.75
369.227	1.75
370.013	3.75
370.8	1.75
371.586	1.75
372.372	1.75
373.158	4.75
373.944	1.75
374.73	1.75
375.516	0.75
376.302	1.75
377.088	3.75
377.873	1.75
378.659	1.75
379.445	3.75
380.23	1.75
381.015	1.75
381.801	1.75
382.586	0.75
383.371	2.75
384.156	5.75
384.941	2.75
385.726	4.75
386.511	1.75
387.296	3.75
388.08	2.75
388.865	1.75
389.649	2.75
390.434	1.75
391.218	4.75
392.003	2.75
392.787	3.75
393.571	2.75
394.355	1.75
395.139	1.75
395.923	2.75
396.707	1.75
397.491	2.75
398.274	-0.25
399.058	1.75
399.842	3.75
400.625	4.75
401.408	0.75
402.192	4.75
402.975	4.75
403.758	4.75
404.541	3.75
405.324	2.75
406.107	2.75
406.89	3.75
407.673	2.75
408.456	1.75
409.238	3.75
410.021	3.75
410.803	1.75
411.586	1.75
412.368	3.75
413.151	3.75
413.933	2.75
414.715	2.75
415.497	4.75
416.279	2.75
417.061	2.75
417.843	5.75
418.624	4.75
419.406	3.75
420.188	5.75
420.969	2.75
421.751	5.75
422.532	5.75
423.313	4.75
424.095	2.75
424.876	4.75
425.657	5.75
426.438	6.75
427.219	4.75
428	6.75
428.78	7.75
429.561	6.75
430.342	5.75
431.122	6.75
431.903	5.75
432.683	4.75
433.464	9.75
434.244	8.75
435.024	6.75
435.804	7.75
436.584	9.75
437.364	8.75
438.144	8.75
438.924	10.75
439.704	10.75
440.483	11.75
441.263	12.75
442.042	12.75
442.822	15.75
443.601	13.75
444.38	14.75
445.16	15.75
445.939	12.75
446.718	17.75
447.497	17.75
448.276	20.75
449.054	19.75
449.833	21.75
450.612	24.75
451.391	25.75
452.169	28.75
452.948	28.75
453.726	32.75
454.504	30.75
455.282	38.75
456.061	42.75
456.839	46.75
457.617	50.75
458.395	54.75
459.172	65.75
459.95	71.75
460.728	82.75
461.506	86.75
462.283	96.75
463.061	110.75
463.838	120.75
464.615	134.75
465.393	152.75
466.17	167.75
466.947	188.75
467.724	210.75
468.501	235.75
469.278	263.75
470.055	296.75
470.831	324.75
471.608	370.75
472.385	404.75
473.161	454.75
473.938	510.75
474.714	553.75
475.49	619.75
476.266	690.75
477.043	759.75
477.819	846.75
478.595	923.75
479.371	1037.75
480.146	1135.75
480.922	1273.75
481.698	1404.75
482.473	1553.75
483.249	1706.75
484.024	1882.75
484.8	2067.75
485.575	2301.75
486.35	2543.75
487.126	2801.75
487.901	3115.75
488.676	3414.75
489.451	3775.75
490.225	4174.75
491	4580.75
491.775	5051.75
492.55	5517.75
493.324	6061.75
494.099	6620.75
494.873	7229.75
495.647	7948.75
496.422	8604.75
497.196	9325.75
497.97	10030.75
498.744	10790.75
499.518	11608.75
500.292	12356.75
501.066	13050.75
501.839	13732.75
502.613	14443.75
503.387	15092.75
504.16	15650.75
504.934	16045.75
505.707	16468.75
506.48	16612.75
507.253	16815.75
508.027	16831.75
508.8	16758.75
509.573	16530.75
510.346	16246.75
511.118	15921.75
511.891	15502.75
512.664	14952.75
513.437	14435.75
514.209	13797.75
514.982	13356.75
515.754	12769.75
516.526	12174.75
517.298	11643.75
518.071	11156.75
518.843	10645.75
519.615	10166.75
520.387	9767.75
521.159	9352.75
521.93	8988.75
522.702	8606.75
523.474	8297.75
524.245	7969.75
525.017	7640.75
525.788	7354.75
526.56	7030.75
527.331	6716.75
528.102	6412.75
528.873	6136.75
529.644	5857.75
530.415	5609.75
531.186	5315.75
531.957	5047.75
532.728	4802.75
533.498	4530.75
534.269	4293.75
535.039	4066.75
535.81	3847.75
536.58	3600.75
537.351	3403.75
538.121	3234.75
538.891	3041.75
539.661	2871.75
540.431	2711.75
541.201	2568.75
541.971	2443.75
542.741	2308.75
543.51	2191.75
544.28	2089.75
545.05	1983.75
545.819	1884.75
546.588	1792.75
547.358	1696.75
548.127	1602.75
548.896	1535.75
549.665	1464.75
550.434	1397.75
551.203	1304.75
551.972	1249.75
552.741	1178.75
553.51	1115.75
554.278	1041.75
555.047	977.75
555.815	926.75
556.584	886.75
557.352	821.75
558.121	781.75
558.889	744.75
559.657	694.75
560.425	658.75
561.193	610.75
561.961	591.75
562.729	549.75
563.496	519.75
564.264	494.75
565.032	462.75
565.799	438.75
566.567	410.75
567.334	385.75
568.101	372.75
568.869	347.75
569.636	323.75
570.403	311.75
571.17	283.75
571.937	280.75
572.704	260.75
573.471	241.75
574.237	228.75
575.004	213.75
575.771	197.75
576.537	193.75
577.303	177.75
578.07	167.75
578.836	162.75
579.602	151.75
580.368	144.75
581.134	136.75
581.9	126.75
582.666	118.75
583.432	110.75
584.198	105.75
584.964	99.75
585.729	97.75
586.495	89.75
587.26	85.75
588.025	80.75
588.791	78.75
589.556	73.75
590.321	65.75
591.086	66.75
591.851	58.75
592.616	56.75
593.381	56.75
594.146	51.75
594.911	50.75
595.675	44.75
596.44	44.75
597.204	45.75
597.969	41.75
598.733	40.75
599.497	38.75
600.261	33.75
601.025	34.75
601.79	32.75
602.553	29.75
603.317	28.75
604.081	29.75
604.845	28.75
605.609	25.75
606.372	24.75
607.136	23.75
607.899	23.75
608.662	22.75
609.426	23.75
610.189	20.75
610.952	16.75
611.715	20.75
612.478	17.75
613.241	15.75
614.004	17.75
614.767	15.75
615.529	13.75
616.292	15.75
617.055	12.75
617.817	12.75
618.579	9.75
619.342	10.75
620.104	10.75
620.866	10.75
621.628	11.75
622.39	13.75
623.152	9.75
623.914	8.75
624.676	9.75
625.438	9.75
626.199	10.75
626.961	11.75
627.722	8.75
628.484	7.75
629.245	4.75
630.006	7.75
630.768	8.75
631.529	7.75
632.29	3.75
633.051	7.75
633.812	6.75
634.573	6.75
635.333	3.75
636.094	6.75
636.855	8.75
637.615	5.75
638.376	3.75
639.136	6.75
639.896	6.75
640.657	6.75
641.417	2.75
642.177	5.75
642.937	2.75
643.697	5.75
644.457	3.75
645.216	6.75
645.976	5.75
646.736	4.75
647.495	4.75
648.255	0.75
649.014	4.75
649.774	4.75
650.533	3.75
651.292	4.75
652.051	2.75
652.81	5.75
653.569	3.75
654.328	2.75
655.087	3.75
655.846	5.75
656.604	3.75
657.363	1.75
658.121	3.75
658.88	1.75
659.638	3.75
660.397	3.75
661.155	3.75
661.913	2.75
662.671	4.75
663.429	1.75
664.187	1.75
664.945	2.75
665.703	0.75
666.46	3.75
667.218	3.75
667.976	3.75
668.733	2.75
669.49	0.75
670.248	4.75
671.005	1.75
671.762	2.75
672.519	1.75
673.276	2.75
674.033	2.75
674.79	0.75
675.547	3.75
676.304	1.75
677.06	0.75
677.817	1.75
678.574	1.75
679.33	-0.25
680.086	2.75
680.843	3.75
681.599	1.75
682.355	0.75
683.111	3.75
683.867	0.75
684.623	3.75
685.379	0.75
686.135	2.75
686.89	1.75
687.646	0.75
688.402	1.75
689.157	3.75
689.912	0.75
690.668	0.75
691.423	0.75
692.178	1.75
692.933	1.75
693.688	2.75
694.443	-1.25
695.198	-0.25
695.953	1.75
696.708	3.75
697.462	1.75
698.217	2.75
698.972	2.75
699.726	2.75
700.48	2.75
701.235	0.75
701.989	0.75
702.743	0.75
703.497	-0.25
704.251	3.75
705.005	0.75
705.759	1.75
706.513	1.75
707.266	1.75
708.02	0.75
708.774	1.75
709.527	2.75
710.28	0.75
711.034	-0.25
711.787	0.75
712.54	1.75
713.293	1.75
714.046	0.75
714.799	2.75
715.552	-1.25
716.305	0.75
717.058	1.75
717.81	3.75
718.563	1.75
719.315	0.75
720.068	1.75
720.82	1.75
721.573	2.75
722.325	2.75
723.077	0.75
723.829	1.75
724.581	0.75
725.333	1.75
726.085	-0.25
726.836	2.75
727.588	1.75
728.34	3.75
729.091	2.75
729.843	-1.25
730.594	1.75
731.346	1.75
732.097	3.75
732.848	0.75
733.599	0.75
734.35	2.75
735.101	1.75
735.852	1.75
736.603	2.75
737.354	1.75
738.104	-0.25
738.855	2.75
739.605	1.75
740.356	-0.25
741.106	3.75
741.856	2.75
742.607	1.75
743.357	0.75
744.107	0.75
744.857	0.75
745.607	-0.25
746.357	1.75
747.106	3.75
747.856	2.75
748.606	1.75
749.355	1.75
750.105	3.75
750.854	2.75
751.603	3.75
752.353	2.75
753.102	0.75
753.851	0.75
754.6	0.75
755.349	3.75
756.098	3.75
756.847	1.75
757.595	3.75
758.344	1.75
759.093	1.75
759.841	0.75
760.589	1.75
761.338	2.75
762.086	2.75
762.834	1.75
763.582	4.75
764.331	3.75
765.079	1.75
765.826	1.75
766.574	1.75
767.322	3.75
768.07	1.75
768.817	1.75
769.565	2.75
770.312	3.75
771.06	2.75
771.807	3.75
772.554	1.75
773.302	6.75
774.049	3.75
774.796	5.75
775.543	4.75
776.29	2.75
777.036	1.75
777.783	5.75
778.53	2.75
779.276	3.75
780.023	4.75
780.769	1.75
781.516	2.75
782.262	6.75
783.008	4.75
783.754	2.75
784.5	4.75
785.246	4.75
785.992	6.75
786.738	6.75
787.484	5.75
788.23	4.75
788.975	3.75
789.721	2.75
790.466	5.75
791.212	4.75
791.957	6.75
792.702	6.75
793.447	6.75
794.193	4.75
794.938	4.75
795.683	6.75
796.427	6.75
797.172	4.75
797.917	3.75
798.662	2.75
799.406	4.75
800.151	3.75
800.895	3.75
801.64	4.75
802.384	6.75
803.128	4.75
803.872	4.75
804.616	2.75
805.36	4.75
806.104	2.75
806.848	2.75
807.592	1.75
808.336	2.75
809.079	2.75
809.823	2.75
810.566	4.75
811.31	4.75
812.053	4.75
812.796	3.75
813.539	1.75
814.283	3.75
815.026	4.75
815.769	-0.25
816.511	2.75
817.254	2.75
817.997	0.75
818.74	3.75
819.482	2.75
820.225	4.75
820.967	3.75
821.71	3.75
822.452	1.75
823.194	1.75
823.936	4.75
824.678	2.75
825.42	2.75
826.162	1.75
826.904	3.75
827.646	1.75
828.388	2.75
829.129	1.75
829.871	3.75
830.612	1.75
831.354	3.75
832.095	2.75
832.836	-2.25
833.577	2.75
834.319	1.75
835.06	0.75
835.801	2.75
836.542	0.75
837.282	1.75
838.023	0.75
838.764	0.75
839.504	1.75
840.245	0.75
840.985	1.75
841.726	1.75
842.466	2.75
843.206	2.75
843.946	1.75
844.687	1.75
845.427	-0.25
846.166	0.75
846.906	1.75
847.646	-0.25
848.386	1.75
849.125	1.75
849.865	1.75
850.605	1.75
851.344	2.75
852.083	1.75
852.823	1.75
853.562	1.75
854.301	-0.25
855.04	-0.25
855.779	0.75
856.518	-0.25
857.257	1.75
857.995	2.75
858.734	0.75
859.473	2.75
860.211	3.75
860.95	0.75
861.688	-0.25
862.426	2.75
863.165	1.75
863.903	1.75
864.641	-0.25
865.379	3.75
866.117	-1.25
866.855	0.75
867.593	-0.25
868.33	0.75
869.068	1.75
869.806	-0.25
870.543	-0.25
871.28	0.75
872.018	0.75
872.755	1.75
873.492	0.75
874.229	2.75
874.967	-1.25
875.703	-1.25
876.44	-0.25
877.177	-0.25
877.914	-0.25
878.651	-0.25
879.387	-2.25
880.124	0.75
880.86	0.75
881.597	-1.25
882.333	-0.25
883.069	0.75
883.806	1.75
884.542	1.75
885.278	-0.25
886.014	1.75
886.749	-1.25
887.485	-0.25
888.221	-0.25
888.957	0.75
889.692	2.75
890.428	-2.25
891.163	1.75
891.899	-0.25
892.634	-0.25
893.369	-1.25
894.104	0.75
894.839	0.75
895.574	1.75
896.309	0.75
897.044	0.75
897.779	0.75
898.514	-1.25
899.248	0.75
899.983	2.75
900.717	-1.25
901.452	-0.25
902.186	0.75
902.92	0.75
903.654	-0.25
904.389	0.75
905.123	-1.25
905.857	-0.25
906.59	0.75
907.324	-1.25
908.058	0.75
908.792	0.75
909.525	1.75
910.259	0.75
910.992	0.75
911.726	1.75
912.459	0.75
913.192	0.75
913.925	0.75
914.658	-1.25
915.391	-0.25
916.124	-2.25
916.857	0.75
917.59	-0.25
918.323	0.75
919.055	1.75
919.788	-0.25
920.521	1.75
921.253	-1.25
921.985	1.75
922.718	-0.25
923.45	1.75
924.182	0.75
924.914	-2.25
925.646	-1.25
926.378	0.75
927.11	2.75
927.841	0.75
928.573	0.75
929.305	-1.25
930.036	-0.25
930.768	-3.25
931.499	-0.25
932.23	0.75
932.962	-0.25
933.693	0.75
934.424	-1.25
935.155	-0.25
935.886	-2.25
936.617	0.75
937.348	-1.25
938.078	-1.25
938.809	1.75
939.54	-2.25
940.27	-2.25
941.001	-0.25
941.731	0.75
942.461	1.75
943.191	-2.25
943.922	-1.25
944.652	1.75
945.382	-3.25
946.112	0.75
946.841	-0.25
947.571	-1.25
948.301	-0.25
949.031	-2.25
949.76	0.75
950.49	-1.25
951.219	1.75
951.948	0.75
952.678	0.75
953.407	0.75
954.136	-3.25
954.865	-0.25
955.594	0.75
956.323	-0.25
957.052	-1.25
957.78	0.75
958.509	-2.25
959.238	-3.25
959.966	-0.25
960.695	0.75
961.423	-1.25
962.151	0.75
962.88	-0.25
963.608	1.75
964.336	-4.25
965.064	0.75
965.792	0.75
966.52	0.75
967.247	0.75
967.975	-0.25
968.703	0.75
969.43	-0.25
970.158	1.75
970.885	-0.25
971.613	0.75
972.34	0.75
973.067	-0.25
973.794	1.75
974.521	-2.25
975.248	0.75
975.975	1.75
976.702	0.75
977.429	-1.25
978.156	-0.25
978.882	1.75
979.609	-1.25
980.335	1.75
981.062	0.75
981.788	0.75
982.514	0.75
983.24	-0.25
983.967	0.75
984.693	-1.25
985.419	1.75
986.144	-1.25
986.87	0.75
987.596	-3.25
988.322	-2.25
989.047	-0.25
989.773	1.75
990.498	1.75
991.224	-0.25
991.949	1.75
992.674	-1.25
993.399	0.75
994.124	0.75
994.849	1.75
995.574	2.75
996.299	1.75
997.024	-2.25
997.749	0.75
998.473	-1.25
999.198	-0.25
999.922	-1.25
1000.647	-0.25
1001.371	4.75
1002.095	-0.25
1002.82	0.75
1003.544	-2.25
1004.268	-1.25
1004.992	-0.25
1005.716	-2.25
1006.439	0.75
1007.163	0.75
1007.887	0.75
1008.611	0.75
1009.334	-1.25
1010.058	-0.25
1010.781	-1.25
1011.504	-1.25
1012.228	-0.25
1012.951	-0.25
1013.674	0.75
1014.397	-1.25
1015.12	-2.25
