节点500_145_QEPB04081__349__11-34-31-543.txt的数据

Date: Wed Nov 12 11:34:31 CST 2025
User: PC
Spectrometer: QEPB0408
触发模式: 0
积分时间 (秒): 1.000000E-2
Scans to average: 1
启用暗噪声校正: true
启用非线性校正: false
滑动平均宽度: 0
X轴模式: Wavelengths
Number of Pixels in Spectrum: 1044
>>>>>Begin Spectral Data<<<<<
220.843	-0.12
221.644	-2.12
222.444	-1.12
223.244	-2.12
224.045	-0.12
224.845	2.88
225.645	-2.12
226.445	-1.12
227.245	0.88
228.045	0.88
228.845	0.88
229.645	-0.12
230.444	0.88
231.244	-2.12
232.043	0.88
232.843	-0.12
233.642	1.88
234.442	0.88
235.241	0.88
236.04	-0.12
236.839	-1.12
237.638	1.88
238.437	0.88
239.236	1.88
240.035	-0.12
240.833	0.88
241.632	0.88
242.43	-0.12
243.229	1.88
244.027	0.88
244.826	2.88
245.624	0.88
246.422	1.88
247.22	0.88
248.018	1.88
248.816	2.88
249.614	0.88
250.412	0.88
251.21	2.88
252.007	0.88
252.805	1.88
253.602	1.88
254.4	2.88
255.197	3.88
255.994	1.88
256.791	1.88
257.589	3.88
258.386	2.88
259.183	2.88
259.979	4.88
260.776	2.88
261.573	3.88
262.37	3.88
263.166	3.88
263.963	4.88
264.759	4.88
265.556	3.88
266.352	2.88
267.148	3.88
267.944	6.88
268.74	4.88
269.536	6.88
270.332	4.88
271.128	8.88
271.924	6.88
272.719	6.88
273.515	5.88
274.311	6.88
275.106	8.88
275.901	7.88
276.697	5.88
277.492	10.88
278.287	8.88
279.082	8.88
279.877	9.88
280.672	5.88
281.467	10.88
282.262	8.88
283.056	6.88
283.851	9.88
284.646	12.88
285.44	8.88
286.234	11.88
287.029	7.88
287.823	9.88
288.617	7.88
289.411	7.88
290.205	11.88
290.999	11.88
291.793	12.88
292.587	10.88
293.381	8.88
294.174	9.88
294.968	8.88
295.761	9.88
296.555	9.88
297.348	9.88
298.141	7.88
298.935	8.88
299.728	7.88
300.521	4.88
301.314	6.88
302.107	8.88
302.899	7.88
303.692	9.88
304.485	6.88
305.277	8.88
306.07	8.88
306.862	6.88
307.655	9.88
308.447	4.88
309.239	8.88
310.031	6.88
310.823	5.88
311.615	5.88
312.407	5.88
313.199	6.88
313.991	7.88
314.783	4.88
315.574	2.88
316.366	5.88
317.157	4.88
317.949	5.88
318.74	4.88
319.531	6.88
320.322	1.88
321.113	2.88
321.904	3.88
322.695	5.88
323.486	4.88
324.277	1.88
325.068	4.88
325.858	4.88
326.649	3.88
327.439	6.88
328.23	2.88
329.02	2.88
329.81	2.88
330.6	3.88
331.391	3.88
332.181	3.88
332.971	2.88
333.76	2.88
334.55	2.88
335.34	2.88
336.13	3.88
336.919	2.88
337.709	1.88
338.498	3.88
339.287	2.88
340.077	1.88
340.866	3.88
341.655	2.88
342.444	1.88
343.233	3.88
344.022	3.88
344.811	3.88
345.6	-0.12
346.388	5.88
347.177	1.88
347.965	3.88
348.754	0.88
349.542	2.88
350.33	0.88
351.119	4.88
351.907	2.88
352.695	2.88
353.483	1.88
354.271	2.88
355.059	1.88
355.846	3.88
356.634	2.88
357.422	3.88
358.209	2.88
358.997	1.88
359.784	2.88
360.571	3.88
361.359	2.88
362.146	3.88
362.933	1.88
363.72	-0.12
364.507	3.88
365.294	1.88
366.081	4.88
366.867	3.88
367.654	0.88
368.44	1.88
369.227	-0.12
370.013	1.88
370.8	3.88
371.586	3.88
372.372	1.88
373.158	1.88
373.944	3.88
374.73	1.88
375.516	1.88
376.302	2.88
377.088	3.88
377.873	4.88
378.659	2.88
379.445	1.88
380.23	2.88
381.015	4.88
381.801	1.88
382.586	2.88
383.371	2.88
384.156	-0.12
384.941	1.88
385.726	1.88
386.511	1.88
387.296	3.88
388.08	2.88
388.865	4.88
389.649	3.88
390.434	2.88
391.218	2.88
392.003	2.88
392.787	2.88
393.571	1.88
394.355	2.88
395.139	3.88
395.923	3.88
396.707	1.88
397.491	1.88
398.274	4.88
399.058	1.88
399.842	3.88
400.625	2.88
401.408	2.88
402.192	3.88
402.975	4.88
403.758	3.88
404.541	4.88
405.324	4.88
406.107	4.88
406.89	5.88
407.673	3.88
408.456	2.88
409.238	4.88
410.021	2.88
410.803	3.88
411.586	2.88
412.368	6.88
413.151	4.88
413.933	3.88
414.715	4.88
415.497	2.88
416.279	3.88
417.061	6.88
417.843	5.88
418.624	4.88
419.406	3.88
420.188	3.88
420.969	4.88
421.751	4.88
422.532	4.88
423.313	6.88
424.095	5.88
424.876	4.88
425.657	6.88
426.438	3.88
427.219	5.88
428	5.88
428.78	5.88
429.561	8.88
430.342	6.88
431.122	7.88
431.903	6.88
432.683	6.88
433.464	5.88
434.244	7.88
435.024	8.88
435.804	7.88
436.584	7.88
437.364	7.88
438.144	9.88
438.924	9.88
439.704	8.88
440.483	10.88
441.263	13.88
442.042	12.88
442.822	13.88
443.601	13.88
444.38	14.88
445.16	13.88
445.939	14.88
446.718	18.88
447.497	17.88
448.276	16.88
449.054	20.88
449.833	22.88
450.612	25.88
451.391	26.88
452.169	30.88
452.948	28.88
453.726	34.88
454.504	34.88
455.282	38.88
456.061	48.88
456.839	50.88
457.617	56.88
458.395	61.88
459.172	68.88
459.95	76.88
460.728	84.88
461.506	95.88
462.283	103.88
463.061	116.88
463.838	127.88
464.615	140.88
465.393	165.88
466.17	173.88
466.947	198.88
467.724	222.88
468.501	247.88
469.278	275.88
470.055	301.88
470.831	336.88
471.608	372.88
472.385	415.88
473.161	464.88
473.938	510.88
474.714	566.88
475.49	632.88
476.266	702.88
477.043	779.88
477.819	854.88
478.595	946.88
479.371	1043.88
480.146	1145.88
480.922	1273.88
481.698	1406.88
482.473	1536.88
483.249	1700.88
484.024	1861.88
484.8	2066.88
485.575	2278.88
486.35	2493.88
487.126	2765.88
487.901	3040.88
488.676	3311.88
489.451	3628.88
490.225	4015.88
491	4380.88
491.775	4812.88
492.55	5282.88
493.324	5785.88
494.099	6323.88
494.873	6868.88
495.647	7472.88
496.422	8160.88
497.196	8790.88
497.97	9507.88
498.744	10195.88
499.518	10942.88
500.292	11649.88
501.066	12384.88
501.839	12989.88
502.613	13758.88
503.387	14319.88
504.16	14881.88
504.934	15303.88
505.707	15717.88
506.48	15982.88
507.253	16191.88
508.027	16273.88
508.8	16243.88
509.573	16130.88
510.346	15928.88
511.118	15650.88
511.891	15247.88
512.664	14804.88
513.437	14339.88
514.209	13809.88
514.982	13309.88
515.754	12733.88
516.526	12208.88
517.298	11680.88
518.071	11170.88
518.843	10644.88
519.615	10192.88
520.387	9805.88
521.159	9442.88
521.93	9060.88
522.702	8652.88
523.474	8362.88
524.245	8006.88
525.017	7690.88
525.788	7394.88
526.56	7111.88
527.331	6744.88
528.102	6498.88
528.873	6236.88
529.644	5949.88
530.415	5683.88
531.186	5387.88
531.957	5143.88
532.728	4873.88
533.498	4623.88
534.269	4368.88
535.039	4094.88
535.81	3930.88
536.58	3695.88
537.351	3478.88
538.121	3313.88
538.891	3125.88
539.661	2941.88
540.431	2773.88
541.201	2642.88
541.971	2492.88
542.741	2352.88
543.51	2223.88
544.28	2123.88
545.05	2011.88
545.819	1918.88
546.588	1835.88
547.358	1732.88
548.127	1662.88
548.896	1565.88
549.665	1483.88
550.434	1410.88
551.203	1353.88
551.972	1280.88
552.741	1193.88
553.51	1136.88
554.278	1073.88
555.047	1013.88
555.815	955.88
556.584	904.88
557.352	863.88
558.121	811.88
558.889	764.88
559.657	717.88
560.425	667.88
561.193	641.88
561.961	602.88
562.729	572.88
563.496	528.88
564.264	500.88
565.032	475.88
565.799	449.88
566.567	427.88
567.334	402.88
568.101	377.88
568.869	352.88
569.636	331.88
570.403	326.88
571.17	303.88
571.937	284.88
572.704	270.88
573.471	250.88
574.237	236.88
575.004	226.88
575.771	208.88
576.537	192.88
577.303	189.88
578.07	170.88
578.836	162.88
579.602	155.88
580.368	145.88
581.134	137.88
581.9	134.88
582.666	125.88
583.432	121.88
584.198	107.88
584.964	106.88
585.729	100.88
586.495	94.88
587.26	89.88
588.025	85.88
588.791	81.88
589.556	74.88
590.321	70.88
591.086	70.88
591.851	64.88
592.616	59.88
593.381	56.88
594.146	53.88
594.911	53.88
595.675	45.88
596.44	46.88
597.204	44.88
597.969	39.88
598.733	40.88
599.497	41.88
600.261	35.88
601.025	32.88
601.79	32.88
602.553	31.88
603.317	30.88
604.081	28.88
604.845	27.88
605.609	26.88
606.372	24.88
607.136	25.88
607.899	25.88
608.662	23.88
609.426	20.88
610.189	19.88
610.952	20.88
611.715	18.88
612.478	17.88
613.241	14.88
614.004	16.88
614.767	16.88
615.529	17.88
616.292	14.88
617.055	14.88
617.817	15.88
618.579	12.88
619.342	10.88
620.104	11.88
620.866	10.88
621.628	12.88
622.39	11.88
623.152	9.88
623.914	9.88
624.676	9.88
625.438	9.88
626.199	8.88
626.961	8.88
627.722	7.88
628.484	7.88
629.245	8.88
630.006	8.88
630.768	6.88
631.529	5.88
632.29	8.88
633.051	6.88
633.812	6.88
634.573	6.88
635.333	6.88
636.094	7.88
636.855	8.88
637.615	5.88
638.376	6.88
639.136	6.88
639.896	3.88
640.657	5.88
641.417	2.88
642.177	4.88
642.937	4.88
643.697	4.88
644.457	5.88
645.216	5.88
645.976	4.88
646.736	3.88
647.495	4.88
648.255	6.88
649.014	2.88
649.774	3.88
650.533	4.88
651.292	4.88
652.051	2.88
652.81	3.88
653.569	2.88
654.328	3.88
655.087	0.88
655.846	2.88
656.604	4.88
657.363	3.88
658.121	4.88
658.88	3.88
659.638	2.88
660.397	2.88
661.155	2.88
661.913	2.88
662.671	2.88
663.429	1.88
664.187	1.88
664.945	3.88
665.703	1.88
666.46	1.88
667.218	1.88
667.976	0.88
668.733	2.88
669.49	4.88
670.248	0.88
671.005	4.88
671.762	0.88
672.519	0.88
673.276	1.88
674.033	3.88
674.79	2.88
675.547	0.88
676.304	2.88
677.06	0.88
677.817	2.88
678.574	0.88
679.33	2.88
680.086	0.88
680.843	1.88
681.599	2.88
682.355	0.88
683.111	1.88
683.867	1.88
684.623	0.88
685.379	0.88
686.135	1.88
686.89	3.88
687.646	0.88
688.402	1.88
689.157	2.88
689.912	1.88
690.668	-0.12
691.423	2.88
692.178	2.88
692.933	1.88
693.688	1.88
694.443	0.88
695.198	1.88
695.953	0.88
696.708	1.88
697.462	3.88
698.217	0.88
698.972	1.88
699.726	2.88
700.48	0.88
701.235	2.88
701.989	2.88
702.743	0.88
703.497	1.88
704.251	3.88
705.005	0.88
705.759	-0.12
706.513	2.88
707.266	-0.12
708.02	0.88
708.774	2.88
709.527	0.88
710.28	0.88
711.034	0.88
711.787	1.88
712.54	-1.12
713.293	2.88
714.046	-0.12
714.799	1.88
715.552	0.88
716.305	0.88
717.058	0.88
717.81	2.88
718.563	1.88
719.315	1.88
720.068	3.88
720.82	0.88
721.573	1.88
722.325	-0.12
723.077	0.88
723.829	0.88
724.581	0.88
725.333	0.88
726.085	1.88
726.836	0.88
727.588	1.88
728.34	1.88
729.091	1.88
729.843	0.88
730.594	-0.12
731.346	2.88
732.097	1.88
732.848	1.88
733.599	2.88
734.35	0.88
735.101	0.88
735.852	1.88
736.603	2.88
737.354	-0.12
738.104	1.88
738.855	0.88
739.605	2.88
740.356	1.88
741.106	3.88
741.856	3.88
742.607	2.88
743.357	2.88
744.107	1.88
744.857	3.88
745.607	1.88
746.357	2.88
747.106	0.88
747.856	2.88
748.606	1.88
749.355	2.88
750.105	1.88
750.854	1.88
751.603	-0.12
752.353	2.88
753.102	1.88
753.851	4.88
754.6	2.88
755.349	1.88
756.098	1.88
756.847	0.88
757.595	2.88
758.344	1.88
759.093	1.88
759.841	1.88
760.589	1.88
761.338	4.88
762.086	2.88
762.834	2.88
763.582	1.88
764.331	4.88
765.079	1.88
765.826	3.88
766.574	4.88
767.322	3.88
768.07	2.88
768.817	4.88
769.565	4.88
770.312	3.88
771.06	1.88
771.807	2.88
772.554	1.88
773.302	3.88
774.049	2.88
774.796	3.88
775.543	1.88
776.29	4.88
777.036	4.88
777.783	4.88
778.53	4.88
779.276	3.88
780.023	2.88
780.769	4.88
781.516	3.88
782.262	4.88
783.008	5.88
783.754	5.88
784.5	3.88
785.246	5.88
785.992	3.88
786.738	3.88
787.484	4.88
788.23	7.88
788.975	4.88
789.721	4.88
790.466	4.88
791.212	3.88
791.957	4.88
792.702	6.88
793.447	3.88
794.193	2.88
794.938	4.88
795.683	3.88
796.427	2.88
797.172	5.88
797.917	5.88
798.662	3.88
799.406	4.88
800.151	1.88
800.895	3.88
801.64	2.88
802.384	5.88
803.128	3.88
803.872	2.88
804.616	5.88
805.36	2.88
806.104	2.88
806.848	0.88
807.592	3.88
808.336	2.88
809.079	4.88
809.823	2.88
810.566	2.88
811.31	1.88
812.053	3.88
812.796	2.88
813.539	1.88
814.283	2.88
815.026	2.88
815.769	2.88
816.511	5.88
817.254	0.88
817.997	2.88
818.74	2.88
819.482	4.88
820.225	3.88
820.967	2.88
821.71	3.88
822.452	1.88
823.194	2.88
823.936	0.88
824.678	1.88
825.42	4.88
826.162	3.88
826.904	2.88
827.646	1.88
828.388	1.88
829.129	2.88
829.871	0.88
830.612	1.88
831.354	3.88
832.095	1.88
832.836	1.88
833.577	3.88
834.319	2.88
835.06	3.88
835.801	1.88
836.542	0.88
837.282	1.88
838.023	1.88
838.764	2.88
839.504	2.88
840.245	2.88
840.985	0.88
841.726	-0.12
842.466	0.88
843.206	4.88
843.946	1.88
844.687	0.88
845.427	3.88
846.166	1.88
846.906	2.88
847.646	1.88
848.386	1.88
849.125	1.88
849.865	0.88
850.605	1.88
851.344	2.88
852.083	-0.12
852.823	2.88
853.562	2.88
854.301	0.88
855.04	1.88
855.779	-0.12
856.518	3.88
857.257	1.88
857.995	-2.12
858.734	0.88
859.473	0.88
860.211	2.88
860.95	0.88
861.688	1.88
862.426	0.88
863.165	1.88
863.903	0.88
864.641	0.88
865.379	1.88
866.117	2.88
866.855	1.88
867.593	0.88
868.33	-0.12
869.068	-0.12
869.806	-0.12
870.543	-0.12
871.28	-1.12
872.018	1.88
872.755	1.88
873.492	0.88
874.229	-1.12
874.967	-0.12
875.703	0.88
876.44	1.88
877.177	0.88
877.914	0.88
878.651	-1.12
879.387	1.88
880.124	1.88
880.86	-1.12
881.597	-1.12
882.333	1.88
883.069	0.88
883.806	1.88
884.542	0.88
885.278	0.88
886.014	0.88
886.749	-1.12
887.485	-0.12
888.221	-1.12
888.957	1.88
889.692	0.88
890.428	-1.12
891.163	-0.12
891.899	-1.12
892.634	1.88
893.369	1.88
894.104	-0.12
894.839	2.88
895.574	-2.12
896.309	-1.12
897.044	0.88
897.779	1.88
898.514	1.88
899.248	-0.12
899.983	0.88
900.717	0.88
901.452	0.88
902.186	-0.12
902.92	-0.12
903.654	-1.12
904.389	-2.12
905.123	0.88
905.857	-1.12
906.59	0.88
907.324	-1.12
908.058	0.88
908.792	-1.12
909.525	-1.12
910.259	1.88
910.992	-0.12
911.726	1.88
912.459	-1.12
913.192	-0.12
913.925	-2.12
914.658	-0.12
915.391	-1.12
916.124	-1.12
916.857	-0.12
917.59	0.88
918.323	0.88
919.055	-1.12
919.788	-0.12
920.521	-1.12
921.253	0.88
921.985	0.88
922.718	-0.12
923.45	-2.12
924.182	0.88
924.914	0.88
925.646	-0.12
926.378	-0.12
927.11	0.88
927.841	-1.12
928.573	0.88
929.305	-1.12
930.036	-0.12
930.768	0.88
931.499	-1.12
932.23	0.88
932.962	1.88
933.693	-1.12
934.424	1.88
935.155	-1.12
935.886	2.88
936.617	-1.12
937.348	-0.12
938.078	1.88
938.809	0.88
939.54	0.88
940.27	-0.12
941.001	1.88
941.731	-0.12
942.461	0.88
943.191	-1.12
943.922	-2.12
944.652	1.88
945.382	1.88
946.112	0.88
946.841	-2.12
947.571	0.88
948.301	0.88
949.031	-1.12
949.76	-0.12
950.49	-0.12
951.219	-0.12
951.948	-0.12
952.678	1.88
953.407	-0.12
954.136	-1.12
954.865	-0.12
955.594	-0.12
956.323	1.88
957.052	-1.12
957.78	0.88
958.509	1.88
959.238	-0.12
959.966	0.88
960.695	-0.12
961.423	0.88
962.151	-2.12
962.88	-0.12
963.608	-0.12
964.336	-0.12
965.064	0.88
965.792	0.88
966.52	0.88
967.247	-0.12
967.975	-2.12
968.703	0.88
969.43	-1.12
970.158	-0.12
970.885	1.88
971.613	-1.12
972.34	-1.12
973.067	0.88
973.794	-0.12
974.521	-0.12
975.248	-2.12
975.975	-2.12
976.702	-0.12
977.429	-1.12
978.156	-0.12
978.882	-0.12
979.609	-0.12
980.335	-1.12
981.062	-0.12
981.788	0.88
982.514	1.88
983.24	0.88
983.967	1.88
984.693	1.88
985.419	1.88
986.144	-0.12
986.87	-1.12
987.596	-0.12
988.322	-1.12
989.047	-0.12
989.773	-0.12
990.498	1.88
991.224	-0.12
991.949	-0.12
992.674	1.88
993.399	0.88
994.124	-0.12
994.849	-2.12
995.574	-0.12
996.299	-1.12
997.024	0.88
997.749	-1.12
998.473	0.88
999.198	2.88
999.922	-0.12
1000.647	0.88
1001.371	2.88
1002.095	-2.12
1002.82	-2.12
1003.544	0.88
1004.268	-0.12
1004.992	-2.12
1005.716	-2.12
1006.439	-1.12
1007.163	-1.12
1007.887	-2.12
1008.611	1.88
1009.334	1.88
1010.058	0.88
1010.781	0.88
1011.504	-0.12
1012.228	-1.12
1012.951	1.88
1013.674	-1.12
1014.397	-0.12
1015.12	-0.12
