节点500_145_QEPB04081__153__11-31-23-611.txt的数据

Date: Wed Nov 12 11:31:23 CST 2025
User: PC
Spectrometer: QEPB0408
触发模式: 0
积分时间 (秒): 1.000000E-2
Scans to average: 1
启用暗噪声校正: true
启用非线性校正: false
滑动平均宽度: 0
X轴模式: Wavelengths
Number of Pixels in Spectrum: 1044
>>>>>Begin Spectral Data<<<<<
220.843	1.25
221.644	2.25
222.444	0.25
223.244	-2.75
224.045	-2.75
224.845	0.25
225.645	1.25
226.445	0.25
227.245	0.25
228.045	1.25
228.845	-0.75
229.645	0.25
230.444	0.25
231.244	0.25
232.043	1.25
232.843	1.25
233.642	1.25
234.442	0.25
235.241	-1.75
236.04	2.25
236.839	1.25
237.638	1.25
238.437	2.25
239.236	2.25
240.035	2.25
240.833	1.25
241.632	1.25
242.43	1.25
243.229	2.25
244.027	1.25
244.826	5.25
245.624	1.25
246.422	2.25
247.22	3.25
248.018	2.25
248.816	1.25
249.614	1.25
250.412	2.25
251.21	2.25
252.007	2.25
252.805	4.25
253.602	2.25
254.4	3.25
255.197	0.25
255.994	5.25
256.791	5.25
257.589	3.25
258.386	5.25
259.183	5.25
259.979	5.25
260.776	3.25
261.573	7.25
262.37	5.25
263.166	5.25
263.963	6.25
264.759	5.25
265.556	7.25
266.352	7.25
267.148	5.25
267.944	6.25
268.74	6.25
269.536	6.25
270.332	8.25
271.128	7.25
271.924	8.25
272.719	9.25
273.515	11.25
274.311	9.25
275.106	7.25
275.901	9.25
276.697	8.25
277.492	12.25
278.287	9.25
279.082	11.25
279.877	11.25
280.672	11.25
281.467	11.25
282.262	11.25
283.056	12.25
283.851	10.25
284.646	9.25
285.44	14.25
286.234	10.25
287.029	11.25
287.823	11.25
288.617	10.25
289.411	13.25
290.205	11.25
290.999	12.25
291.793	14.25
292.587	8.25
293.381	11.25
294.174	10.25
294.968	13.25
295.761	11.25
296.555	10.25
297.348	10.25
298.141	8.25
298.935	10.25
299.728	10.25
300.521	10.25
301.314	10.25
302.107	8.25
302.899	9.25
303.692	7.25
304.485	7.25
305.277	9.25
306.07	6.25
306.862	9.25
307.655	5.25
308.447	7.25
309.239	9.25
310.031	9.25
310.823	7.25
311.615	8.25
312.407	5.25
313.199	8.25
313.991	6.25
314.783	6.25
315.574	8.25
316.366	4.25
317.157	5.25
317.949	6.25
318.74	4.25
319.531	5.25
320.322	3.25
321.113	6.25
321.904	6.25
322.695	5.25
323.486	5.25
324.277	3.25
325.068	2.25
325.858	4.25
326.649	5.25
327.439	4.25
328.23	4.25
329.02	5.25
329.81	2.25
330.6	5.25
331.391	4.25
332.181	4.25
332.971	3.25
333.76	3.25
334.55	4.25
335.34	4.25
336.13	5.25
336.919	2.25
337.709	4.25
338.498	2.25
339.287	3.25
340.077	4.25
340.866	2.25
341.655	4.25
342.444	5.25
343.233	4.25
344.022	6.25
344.811	4.25
345.6	4.25
346.388	2.25
347.177	6.25
347.965	2.25
348.754	1.25
349.542	4.25
350.33	3.25
351.119	5.25
351.907	1.25
352.695	6.25
353.483	2.25
354.271	3.25
355.059	2.25
355.846	4.25
356.634	4.25
357.422	2.25
358.209	3.25
358.997	3.25
359.784	3.25
360.571	4.25
361.359	4.25
362.146	5.25
362.933	0.25
363.72	3.25
364.507	4.25
365.294	3.25
366.081	3.25
366.867	1.25
367.654	4.25
368.44	1.25
369.227	2.25
370.013	4.25
370.8	3.25
371.586	4.25
372.372	2.25
373.158	4.25
373.944	3.25
374.73	5.25
375.516	2.25
376.302	1.25
377.088	2.25
377.873	2.25
378.659	2.25
379.445	2.25
380.23	2.25
381.015	3.25
381.801	2.25
382.586	3.25
383.371	1.25
384.156	5.25
384.941	3.25
385.726	5.25
386.511	3.25
387.296	3.25
388.08	5.25
388.865	3.25
389.649	3.25
390.434	1.25
391.218	3.25
392.003	4.25
392.787	2.25
393.571	5.25
394.355	1.25
395.139	4.25
395.923	3.25
396.707	6.25
397.491	4.25
398.274	3.25
399.058	6.25
399.842	2.25
400.625	4.25
401.408	5.25
402.192	2.25
402.975	5.25
403.758	5.25
404.541	3.25
405.324	2.25
406.107	2.25
406.89	5.25
407.673	4.25
408.456	4.25
409.238	3.25
410.021	4.25
410.803	2.25
411.586	2.25
412.368	6.25
413.151	5.25
413.933	5.25
414.715	5.25
415.497	6.25
416.279	5.25
417.061	7.25
417.843	5.25
418.624	3.25
419.406	6.25
420.188	6.25
420.969	6.25
421.751	6.25
422.532	7.25
423.313	5.25
424.095	5.25
424.876	9.25
425.657	7.25
426.438	7.25
427.219	7.25
428	8.25
428.78	4.25
429.561	5.25
430.342	8.25
431.122	7.25
431.903	8.25
432.683	9.25
433.464	9.25
434.244	10.25
435.024	8.25
435.804	9.25
436.584	10.25
437.364	10.25
438.144	11.25
438.924	10.25
439.704	11.25
440.483	10.25
441.263	11.25
442.042	12.25
442.822	14.25
443.601	14.25
444.38	15.25
445.16	16.25
445.939	17.25
446.718	19.25
447.497	18.25
448.276	21.25
449.054	24.25
449.833	23.25
450.612	26.25
451.391	26.25
452.169	26.25
452.948	31.25
453.726	31.25
454.504	36.25
455.282	37.25
456.061	43.25
456.839	45.25
457.617	51.25
458.395	54.25
459.172	60.25
459.95	68.25
460.728	78.25
461.506	88.25
462.283	97.25
463.061	109.25
463.838	122.25
464.615	134.25
465.393	150.25
466.17	167.25
466.947	181.25
467.724	204.25
468.501	237.25
469.278	261.25
470.055	283.25
470.831	314.25
471.608	367.25
472.385	391.25
473.161	440.25
473.938	491.25
474.714	559.25
475.49	613.25
476.266	667.25
477.043	758.25
477.819	836.25
478.595	926.25
479.371	1021.25
480.146	1137.25
480.922	1273.25
481.698	1426.25
482.473	1559.25
483.249	1719.25
484.024	1897.25
484.8	2100.25
485.575	2318.25
486.35	2575.25
487.126	2864.25
487.901	3159.25
488.676	3458.25
489.451	3870.25
490.225	4243.25
491	4727.25
491.775	5170.25
492.55	5691.25
493.324	6235.25
494.099	6872.25
494.873	7488.25
495.647	8202.25
496.422	8897.25
497.196	9635.25
497.97	10399.25
498.744	11237.25
499.518	12032.25
500.292	12779.25
501.066	13556.25
501.839	14262.25
502.613	14974.25
503.387	15590.25
504.16	16074.25
504.934	16572.25
505.707	16891.25
506.48	17011.25
507.253	17211.25
508.027	17181.25
508.8	17069.25
509.573	16796.25
510.346	16480.25
511.118	16048.25
511.891	15574.25
512.664	15006.25
513.437	14453.25
514.209	13861.25
514.982	13316.25
515.754	12729.25
516.526	12128.25
517.298	11537.25
518.071	11105.25
518.843	10582.25
519.615	10142.25
520.387	9695.25
521.159	9305.25
521.93	8939.25
522.702	8581.25
523.474	8265.25
524.245	7954.25
525.017	7614.25
525.788	7293.25
526.56	7003.25
527.331	6679.25
528.102	6407.25
528.873	6093.25
529.644	5844.25
530.415	5559.25
531.186	5265.25
531.957	5025.25
532.728	4749.25
533.498	4472.25
534.269	4213.25
535.039	4036.25
535.81	3754.25
536.58	3538.25
537.351	3368.25
538.121	3166.25
538.891	2993.25
539.661	2841.25
540.431	2669.25
541.201	2542.25
541.971	2394.25
542.741	2280.25
543.51	2137.25
544.28	2054.25
545.05	1943.25
545.819	1840.25
546.588	1751.25
547.358	1678.25
548.127	1590.25
548.896	1518.25
549.665	1428.25
550.434	1365.25
551.203	1290.25
551.972	1222.25
552.741	1150.25
553.51	1094.25
554.278	1029.25
555.047	970.25
555.815	918.25
556.584	856.25
557.352	819.25
558.121	769.25
558.889	723.25
559.657	685.25
560.425	642.25
561.193	603.25
561.961	560.25
562.729	533.25
563.496	506.25
564.264	482.25
565.032	441.25
565.799	427.25
566.567	406.25
567.334	378.25
568.101	359.25
568.869	352.25
569.636	315.25
570.403	299.25
571.17	285.25
571.937	267.25
572.704	256.25
573.471	241.25
574.237	230.25
575.004	213.25
575.771	200.25
576.537	187.25
577.303	174.25
578.07	173.25
578.836	155.25
579.602	152.25
580.368	139.25
581.134	135.25
581.9	129.25
582.666	117.25
583.432	113.25
584.198	104.25
584.964	100.25
585.729	96.25
586.495	85.25
587.26	82.25
588.025	81.25
588.791	78.25
589.556	74.25
590.321	68.25
591.086	62.25
591.851	60.25
592.616	55.25
593.381	54.25
594.146	51.25
594.911	50.25
595.675	49.25
596.44	44.25
597.204	43.25
597.969	44.25
598.733	36.25
599.497	39.25
600.261	33.25
601.025	32.25
601.79	32.25
602.553	32.25
603.317	32.25
604.081	29.25
604.845	26.25
605.609	27.25
606.372	26.25
607.136	24.25
607.899	23.25
608.662	23.25
609.426	20.25
610.189	21.25
610.952	21.25
611.715	20.25
612.478	16.25
613.241	16.25
614.004	20.25
614.767	15.25
615.529	13.25
616.292	16.25
617.055	16.25
617.817	14.25
618.579	14.25
619.342	12.25
620.104	12.25
620.866	12.25
621.628	11.25
622.39	10.25
623.152	9.25
623.914	10.25
624.676	10.25
625.438	12.25
626.199	9.25
626.961	8.25
627.722	10.25
628.484	10.25
629.245	9.25
630.006	8.25
630.768	9.25
631.529	9.25
632.29	6.25
633.051	7.25
633.812	7.25
634.573	7.25
635.333	6.25
636.094	5.25
636.855	8.25
637.615	7.25
638.376	6.25
639.136	7.25
639.896	7.25
640.657	5.25
641.417	4.25
642.177	5.25
642.937	5.25
643.697	3.25
644.457	6.25
645.216	5.25
645.976	4.25
646.736	4.25
647.495	3.25
648.255	4.25
649.014	3.25
649.774	3.25
650.533	5.25
651.292	2.25
652.051	4.25
652.81	4.25
653.569	4.25
654.328	3.25
655.087	5.25
655.846	4.25
656.604	1.25
657.363	4.25
658.121	2.25
658.88	5.25
659.638	1.25
660.397	4.25
661.155	0.25
661.913	3.25
662.671	3.25
663.429	1.25
664.187	4.25
664.945	2.25
665.703	3.25
666.46	2.25
667.218	3.25
667.976	2.25
668.733	3.25
669.49	2.25
670.248	1.25
671.005	3.25
671.762	2.25
672.519	1.25
673.276	4.25
674.033	4.25
674.79	2.25
675.547	1.25
676.304	5.25
677.06	2.25
677.817	2.25
678.574	3.25
679.33	3.25
680.086	1.25
680.843	1.25
681.599	3.25
682.355	2.25
683.111	3.25
683.867	4.25
684.623	1.25
685.379	1.25
686.135	2.25
686.89	3.25
687.646	1.25
688.402	3.25
689.157	1.25
689.912	2.25
690.668	0.25
691.423	3.25
692.178	3.25
692.933	3.25
693.688	2.25
694.443	2.25
695.198	1.25
695.953	3.25
696.708	2.25
697.462	3.25
698.217	2.25
698.972	0.25
699.726	0.25
700.48	-0.75
701.235	3.25
701.989	1.25
702.743	3.25
703.497	1.25
704.251	1.25
705.005	-0.75
705.759	2.25
706.513	2.25
707.266	4.25
708.02	-1.75
708.774	2.25
709.527	0.25
710.28	2.25
711.034	0.25
711.787	2.25
712.54	3.25
713.293	2.25
714.046	2.25
714.799	0.25
715.552	1.25
716.305	-1.75
717.058	3.25
717.81	1.25
718.563	2.25
719.315	4.25
720.068	1.25
720.82	3.25
721.573	0.25
722.325	3.25
723.077	4.25
723.829	3.25
724.581	2.25
725.333	1.25
726.085	4.25
726.836	4.25
727.588	2.25
728.34	1.25
729.091	1.25
729.843	2.25
730.594	1.25
731.346	3.25
732.097	1.25
732.848	3.25
733.599	0.25
734.35	3.25
735.101	4.25
735.852	4.25
736.603	3.25
737.354	4.25
738.104	1.25
738.855	3.25
739.605	2.25
740.356	3.25
741.106	2.25
741.856	2.25
742.607	3.25
743.357	3.25
744.107	1.25
744.857	4.25
745.607	4.25
746.357	4.25
747.106	1.25
747.856	4.25
748.606	1.25
749.355	4.25
750.105	2.25
750.854	2.25
751.603	4.25
752.353	3.25
753.102	5.25
753.851	3.25
754.6	4.25
755.349	3.25
756.098	3.25
756.847	4.25
757.595	2.25
758.344	4.25
759.093	2.25
759.841	4.25
760.589	4.25
761.338	5.25
762.086	4.25
762.834	4.25
763.582	2.25
764.331	4.25
765.079	5.25
765.826	5.25
766.574	3.25
767.322	5.25
768.07	3.25
768.817	6.25
769.565	3.25
770.312	4.25
771.06	1.25
771.807	3.25
772.554	5.25
773.302	4.25
774.049	6.25
774.796	3.25
775.543	6.25
776.29	5.25
777.036	9.25
777.783	5.25
778.53	3.25
779.276	5.25
780.023	5.25
780.769	5.25
781.516	5.25
782.262	6.25
783.008	7.25
783.754	5.25
784.5	3.25
785.246	4.25
785.992	6.25
786.738	4.25
787.484	4.25
788.23	5.25
788.975	6.25
789.721	6.25
790.466	5.25
791.212	7.25
791.957	2.25
792.702	5.25
793.447	6.25
794.193	4.25
794.938	7.25
795.683	4.25
796.427	6.25
797.172	4.25
797.917	5.25
798.662	6.25
799.406	4.25
800.151	6.25
800.895	5.25
801.64	5.25
802.384	4.25
803.128	5.25
803.872	4.25
804.616	3.25
805.36	4.25
806.104	5.25
806.848	3.25
807.592	3.25
808.336	5.25
809.079	4.25
809.823	1.25
810.566	5.25
811.31	5.25
812.053	3.25
812.796	4.25
813.539	3.25
814.283	4.25
815.026	3.25
815.769	2.25
816.511	5.25
817.254	3.25
817.997	4.25
818.74	0.25
819.482	4.25
820.225	5.25
820.967	4.25
821.71	1.25
822.452	2.25
823.194	2.25
823.936	3.25
824.678	4.25
825.42	2.25
826.162	4.25
826.904	5.25
827.646	4.25
828.388	3.25
829.129	1.25
829.871	5.25
830.612	0.25
831.354	4.25
832.095	3.25
832.836	2.25
833.577	3.25
834.319	3.25
835.06	2.25
835.801	2.25
836.542	1.25
837.282	2.25
838.023	1.25
838.764	4.25
839.504	1.25
840.245	2.25
840.985	4.25
841.726	2.25
842.466	3.25
843.206	2.25
843.946	2.25
844.687	3.25
845.427	2.25
846.166	3.25
846.906	5.25
847.646	3.25
848.386	1.25
849.125	4.25
849.865	2.25
850.605	2.25
851.344	3.25
852.083	0.25
852.823	0.25
853.562	1.25
854.301	0.25
855.04	1.25
855.779	1.25
856.518	3.25
857.257	2.25
857.995	4.25
858.734	0.25
859.473	5.25
860.211	0.25
860.95	2.25
861.688	2.25
862.426	0.25
863.165	0.25
863.903	1.25
864.641	2.25
865.379	0.25
866.117	2.25
866.855	1.25
867.593	-1.75
868.33	5.25
869.068	2.25
869.806	3.25
870.543	1.25
871.28	0.25
872.018	1.25
872.755	1.25
873.492	2.25
874.229	0.25
874.967	0.25
875.703	1.25
876.44	1.25
877.177	1.25
877.914	1.25
878.651	0.25
879.387	1.25
880.124	2.25
880.86	1.25
881.597	2.25
882.333	2.25
883.069	1.25
883.806	0.25
884.542	1.25
885.278	1.25
886.014	1.25
886.749	1.25
887.485	-0.75
888.221	0.25
888.957	2.25
889.692	1.25
890.428	1.25
891.163	2.25
891.899	-0.75
892.634	3.25
893.369	0.25
894.104	1.25
894.839	0.25
895.574	1.25
896.309	1.25
897.044	-0.75
897.779	1.25
898.514	1.25
899.248	2.25
899.983	1.25
900.717	3.25
901.452	0.25
902.186	2.25
902.92	2.25
903.654	0.25
904.389	-1.75
905.123	-0.75
905.857	0.25
906.59	1.25
907.324	2.25
908.058	0.25
908.792	-0.75
909.525	1.25
910.259	0.25
910.992	0.25
911.726	2.25
912.459	0.25
913.192	2.25
913.925	0.25
914.658	0.25
915.391	0.25
916.124	0.25
916.857	-0.75
917.59	-1.75
918.323	0.25
919.055	-0.75
919.788	0.25
920.521	1.25
921.253	-0.75
921.985	1.25
922.718	2.25
923.45	-0.75
924.182	2.25
924.914	1.25
925.646	0.25
926.378	1.25
927.11	-1.75
927.841	1.25
928.573	0.25
929.305	-1.75
930.036	0.25
930.768	0.25
931.499	1.25
932.23	-1.75
932.962	2.25
933.693	1.25
934.424	2.25
935.155	-1.75
935.886	-0.75
936.617	-0.75
937.348	-1.75
938.078	-2.75
938.809	0.25
939.54	0.25
940.27	2.25
941.001	1.25
941.731	0.25
942.461	-1.75
943.191	0.25
943.922	0.25
944.652	1.25
945.382	0.25
946.112	-1.75
946.841	-0.75
947.571	0.25
948.301	-0.75
949.031	0.25
949.76	-0.75
950.49	-0.75
951.219	0.25
951.948	0.25
952.678	0.25
953.407	1.25
954.136	0.25
954.865	0.25
955.594	0.25
956.323	2.25
957.052	-0.75
957.78	1.25
958.509	0.25
959.238	0.25
959.966	-1.75
960.695	0.25
961.423	-0.75
962.151	-1.75
962.88	2.25
963.608	-1.75
964.336	1.25
965.064	0.25
965.792	0.25
966.52	1.25
967.247	1.25
967.975	2.25
968.703	-0.75
969.43	0.25
970.158	-0.75
970.885	1.25
971.613	2.25
972.34	1.25
973.067	-1.75
973.794	-1.75
974.521	0.25
975.248	-0.75
975.975	0.25
976.702	2.25
977.429	-0.75
978.156	1.25
978.882	1.25
979.609	1.25
980.335	0.25
981.062	-1.75
981.788	0.25
982.514	-0.75
983.24	0.25
983.967	1.25
984.693	0.25
985.419	1.25
986.144	-1.75
986.87	1.25
987.596	0.25
988.322	1.25
989.047	0.25
989.773	-2.75
990.498	1.25
991.224	2.25
991.949	-0.75
992.674	-0.75
993.399	3.25
994.124	1.25
994.849	1.25
995.574	-0.75
996.299	0.25
997.024	1.25
997.749	1.25
998.473	2.25
999.198	1.25
999.922	1.25
1000.647	-0.75
1001.371	3.25
1002.095	-2.75
1002.82	-0.75
1003.544	-1.75
1004.268	0.25
1004.992	2.25
1005.716	1.25
1006.439	0.25
1007.163	-0.75
1007.887	1.25
1008.611	1.25
1009.334	0.25
1010.058	2.25
1010.781	0.25
1011.504	1.25
1012.228	-0.75
1012.951	0.25
1013.674	0.25
1014.397	-0.75
1015.12	2.25
