节点500_145_QEPB04081__65__11-29-59-706.txt的数据

Date: Wed Nov 12 11:29:59 CST 2025
User: PC
Spectrometer: QEPB0408
触发模式: 0
积分时间 (秒): 1.000000E-2
Scans to average: 1
启用暗噪声校正: true
启用非线性校正: false
滑动平均宽度: 0
X轴模式: Wavelengths
Number of Pixels in Spectrum: 1044
>>>>>Begin Spectral Data<<<<<
220.843	1.88
221.644	0.88
222.444	-3.12
223.244	0.88
224.045	0.88
224.845	0.88
225.645	-1.12
226.445	-2.12
227.245	0.88
228.045	-0.12
228.845	2.88
229.645	-0.12
230.444	0.88
231.244	0.88
232.043	2.88
232.843	0.88
233.642	-0.12
234.442	1.88
235.241	2.88
236.04	-0.12
236.839	2.88
237.638	0.88
238.437	2.88
239.236	0.88
240.035	1.88
240.833	2.88
241.632	0.88
242.43	-1.12
243.229	0.88
244.027	1.88
244.826	1.88
245.624	3.88
246.422	1.88
247.22	1.88
248.018	-0.12
248.816	2.88
249.614	2.88
250.412	2.88
251.21	2.88
252.007	2.88
252.805	1.88
253.602	2.88
254.4	4.88
255.197	3.88
255.994	2.88
256.791	2.88
257.589	2.88
258.386	2.88
259.183	3.88
259.979	4.88
260.776	3.88
261.573	2.88
262.37	4.88
263.166	6.88
263.963	6.88
264.759	3.88
265.556	4.88
266.352	5.88
267.148	6.88
267.944	5.88
268.74	6.88
269.536	7.88
270.332	4.88
271.128	8.88
271.924	7.88
272.719	6.88
273.515	7.88
274.311	6.88
275.106	7.88
275.901	7.88
276.697	8.88
277.492	9.88
278.287	11.88
279.082	7.88
279.877	9.88
280.672	10.88
281.467	10.88
282.262	11.88
283.056	12.88
283.851	8.88
284.646	9.88
285.44	12.88
286.234	9.88
287.029	9.88
287.823	10.88
288.617	11.88
289.411	10.88
290.205	12.88
290.999	9.88
291.793	8.88
292.587	7.88
293.381	9.88
294.174	10.88
294.968	11.88
295.761	9.88
296.555	10.88
297.348	8.88
298.141	8.88
298.935	6.88
299.728	9.88
300.521	8.88
301.314	7.88
302.107	8.88
302.899	7.88
303.692	8.88
304.485	8.88
305.277	8.88
306.07	9.88
306.862	8.88
307.655	6.88
308.447	6.88
309.239	7.88
310.031	5.88
310.823	7.88
311.615	6.88
312.407	5.88
313.199	6.88
313.991	5.88
314.783	5.88
315.574	6.88
316.366	4.88
317.157	5.88
317.949	4.88
318.74	4.88
319.531	4.88
320.322	4.88
321.113	3.88
321.904	1.88
322.695	5.88
323.486	2.88
324.277	4.88
325.068	4.88
325.858	3.88
326.649	1.88
327.439	2.88
328.23	4.88
329.02	3.88
329.81	3.88
330.6	5.88
331.391	4.88
332.181	2.88
332.971	3.88
333.76	1.88
334.55	1.88
335.34	4.88
336.13	3.88
336.919	3.88
337.709	3.88
338.498	4.88
339.287	3.88
340.077	3.88
340.866	3.88
341.655	1.88
342.444	3.88
343.233	4.88
344.022	0.88
344.811	1.88
345.6	0.88
346.388	3.88
347.177	2.88
347.965	4.88
348.754	5.88
349.542	2.88
350.33	2.88
351.119	3.88
351.907	0.88
352.695	2.88
353.483	3.88
354.271	2.88
355.059	3.88
355.846	1.88
356.634	0.88
357.422	1.88
358.209	0.88
358.997	3.88
359.784	1.88
360.571	3.88
361.359	1.88
362.146	4.88
362.933	1.88
363.72	3.88
364.507	0.88
365.294	3.88
366.081	2.88
366.867	5.88
367.654	1.88
368.44	2.88
369.227	1.88
370.013	0.88
370.8	0.88
371.586	-0.12
372.372	5.88
373.158	1.88
373.944	1.88
374.73	2.88
375.516	0.88
376.302	2.88
377.088	0.88
377.873	2.88
378.659	1.88
379.445	0.88
380.23	-0.12
381.015	0.88
381.801	2.88
382.586	1.88
383.371	4.88
384.156	1.88
384.941	1.88
385.726	0.88
386.511	1.88
387.296	6.88
388.08	1.88
388.865	2.88
389.649	3.88
390.434	1.88
391.218	1.88
392.003	2.88
392.787	0.88
393.571	1.88
394.355	2.88
395.139	2.88
395.923	0.88
396.707	4.88
397.491	2.88
398.274	3.88
399.058	3.88
399.842	5.88
400.625	0.88
401.408	1.88
402.192	3.88
402.975	1.88
403.758	3.88
404.541	2.88
405.324	1.88
406.107	4.88
406.89	3.88
407.673	2.88
408.456	3.88
409.238	3.88
410.021	3.88
410.803	2.88
411.586	1.88
412.368	0.88
413.151	4.88
413.933	2.88
414.715	5.88
415.497	6.88
416.279	3.88
417.061	3.88
417.843	2.88
418.624	6.88
419.406	6.88
420.188	4.88
420.969	7.88
421.751	3.88
422.532	5.88
423.313	4.88
424.095	6.88
424.876	2.88
425.657	5.88
426.438	7.88
427.219	6.88
428	6.88
428.78	5.88
429.561	7.88
430.342	6.88
431.122	4.88
431.903	6.88
432.683	8.88
433.464	9.88
434.244	6.88
435.024	10.88
435.804	7.88
436.584	8.88
437.364	9.88
438.144	7.88
438.924	10.88
439.704	6.88
440.483	12.88
441.263	11.88
442.042	12.88
442.822	12.88
443.601	11.88
444.38	12.88
445.16	15.88
445.939	15.88
446.718	17.88
447.497	14.88
448.276	17.88
449.054	19.88
449.833	22.88
450.612	19.88
451.391	27.88
452.169	28.88
452.948	30.88
453.726	29.88
454.504	30.88
455.282	34.88
456.061	38.88
456.839	44.88
457.617	49.88
458.395	56.88
459.172	59.88
459.95	65.88
460.728	75.88
461.506	85.88
462.283	90.88
463.061	99.88
463.838	112.88
464.615	127.88
465.393	144.88
466.17	157.88
466.947	175.88
467.724	192.88
468.501	224.88
469.278	242.88
470.055	270.88
470.831	303.88
471.608	344.88
472.385	374.88
473.161	434.88
473.938	470.88
474.714	524.88
475.49	591.88
476.266	664.88
477.043	743.88
477.819	806.88
478.595	906.88
479.371	1001.88
480.146	1109.88
480.922	1240.88
481.698	1377.88
482.473	1536.88
483.249	1700.88
484.024	1888.88
484.8	2087.88
485.575	2304.88
486.35	2548.88
487.126	2843.88
487.901	3142.88
488.676	3468.88
489.451	3849.88
490.225	4257.88
491	4705.88
491.775	5215.88
492.55	5763.88
493.324	6343.88
494.099	6941.88
494.873	7597.88
495.647	8309.88
496.422	9028.88
497.196	9809.88
497.97	10586.88
498.744	11388.88
499.518	12245.88
500.292	13037.88
501.066	13837.88
501.839	14537.88
502.613	15212.88
503.387	15844.88
504.16	16408.88
504.934	16749.88
505.707	17090.88
506.48	17277.88
507.253	17334.88
508.027	17290.88
508.8	17061.88
509.573	16805.88
510.346	16510.88
511.118	15985.88
511.891	15488.88
512.664	14877.88
513.437	14320.88
514.209	13749.88
514.982	13108.88
515.754	12536.88
516.526	11894.88
517.298	11397.88
518.071	10865.88
518.843	10430.88
519.615	9932.88
520.387	9530.88
521.159	9147.88
521.93	8797.88
522.702	8465.88
523.474	8127.88
524.245	7828.88
525.017	7485.88
525.788	7204.88
526.56	6897.88
527.331	6593.88
528.102	6280.88
528.873	6020.88
529.644	5704.88
530.415	5443.88
531.186	5191.88
531.957	4894.88
532.728	4637.88
533.498	4395.88
534.269	4156.88
535.039	3901.88
535.81	3687.88
536.58	3473.88
537.351	3274.88
538.121	3089.88
538.891	2928.88
539.661	2742.88
540.431	2610.88
541.201	2479.88
541.971	2349.88
542.741	2209.88
543.51	2100.88
544.28	1993.88
545.05	1889.88
545.819	1816.88
546.588	1715.88
547.358	1638.88
548.127	1559.88
548.896	1475.88
549.665	1395.88
550.434	1324.88
551.203	1247.88
551.972	1195.88
552.741	1120.88
553.51	1067.88
554.278	989.88
555.047	948.88
555.815	885.88
556.584	843.88
557.352	791.88
558.121	750.88
558.889	699.88
559.657	666.88
560.425	613.88
561.193	586.88
561.961	551.88
562.729	523.88
563.496	492.88
564.264	468.88
565.032	433.88
565.799	417.88
566.567	385.88
567.334	367.88
568.101	345.88
568.869	330.88
569.636	305.88
570.403	292.88
571.17	282.88
571.937	262.88
572.704	245.88
573.471	231.88
574.237	216.88
575.004	202.88
575.771	190.88
576.537	175.88
577.303	171.88
578.07	160.88
578.836	147.88
579.602	140.88
580.368	133.88
581.134	126.88
581.9	119.88
582.666	113.88
583.432	109.88
584.198	102.88
584.964	95.88
585.729	91.88
586.495	89.88
587.26	84.88
588.025	77.88
588.791	71.88
589.556	68.88
590.321	67.88
591.086	60.88
591.851	56.88
592.616	54.88
593.381	53.88
594.146	46.88
594.911	46.88
595.675	44.88
596.44	38.88
597.204	42.88
597.969	39.88
598.733	37.88
599.497	35.88
600.261	37.88
601.025	32.88
601.79	31.88
602.553	28.88
603.317	29.88
604.081	27.88
604.845	26.88
605.609	21.88
606.372	24.88
607.136	25.88
607.899	22.88
608.662	20.88
609.426	17.88
610.189	19.88
610.952	16.88
611.715	18.88
612.478	16.88
613.241	16.88
614.004	12.88
614.767	17.88
615.529	14.88
616.292	12.88
617.055	11.88
617.817	12.88
618.579	13.88
619.342	10.88
620.104	10.88
620.866	12.88
621.628	8.88
622.39	11.88
623.152	10.88
623.914	9.88
624.676	9.88
625.438	8.88
626.199	5.88
626.961	8.88
627.722	9.88
628.484	12.88
629.245	7.88
630.006	6.88
630.768	6.88
631.529	5.88
632.29	8.88
633.051	6.88
633.812	4.88
634.573	4.88
635.333	4.88
636.094	4.88
636.855	4.88
637.615	3.88
638.376	4.88
639.136	5.88
639.896	4.88
640.657	7.88
641.417	4.88
642.177	6.88
642.937	3.88
643.697	1.88
644.457	4.88
645.216	5.88
645.976	5.88
646.736	5.88
647.495	1.88
648.255	3.88
649.014	2.88
649.774	1.88
650.533	3.88
651.292	5.88
652.051	1.88
652.81	3.88
653.569	3.88
654.328	1.88
655.087	2.88
655.846	4.88
656.604	3.88
657.363	2.88
658.121	5.88
658.88	4.88
659.638	1.88
660.397	0.88
661.155	3.88
661.913	1.88
662.671	2.88
663.429	3.88
664.187	2.88
664.945	0.88
665.703	2.88
666.46	0.88
667.218	1.88
667.976	2.88
668.733	1.88
669.49	3.88
670.248	1.88
671.005	3.88
671.762	0.88
672.519	3.88
673.276	2.88
674.033	3.88
674.79	1.88
675.547	0.88
676.304	1.88
677.06	3.88
677.817	1.88
678.574	0.88
679.33	0.88
680.086	1.88
680.843	0.88
681.599	1.88
682.355	0.88
683.111	1.88
683.867	0.88
684.623	1.88
685.379	0.88
686.135	3.88
686.89	2.88
687.646	2.88
688.402	3.88
689.157	0.88
689.912	1.88
690.668	1.88
691.423	-1.12
692.178	3.88
692.933	1.88
693.688	-0.12
694.443	3.88
695.198	-0.12
695.953	3.88
696.708	-1.12
697.462	3.88
698.217	-1.12
698.972	-0.12
699.726	-1.12
700.48	1.88
701.235	1.88
701.989	2.88
702.743	2.88
703.497	2.88
704.251	1.88
705.005	2.88
705.759	1.88
706.513	1.88
707.266	1.88
708.02	1.88
708.774	1.88
709.527	2.88
710.28	-0.12
711.034	-2.12
711.787	2.88
712.54	0.88
713.293	1.88
714.046	2.88
714.799	-0.12
715.552	0.88
716.305	0.88
717.058	1.88
717.81	1.88
718.563	1.88
719.315	1.88
720.068	1.88
720.82	2.88
721.573	0.88
722.325	-0.12
723.077	0.88
723.829	2.88
724.581	1.88
725.333	2.88
726.085	0.88
726.836	1.88
727.588	0.88
728.34	3.88
729.091	0.88
729.843	3.88
730.594	2.88
731.346	0.88
732.097	-0.12
732.848	2.88
733.599	3.88
734.35	2.88
735.101	1.88
735.852	0.88
736.603	2.88
737.354	0.88
738.104	2.88
738.855	1.88
739.605	3.88
740.356	1.88
741.106	0.88
741.856	1.88
742.607	1.88
743.357	1.88
744.107	3.88
744.857	2.88
745.607	3.88
746.357	1.88
747.106	3.88
747.856	2.88
748.606	1.88
749.355	2.88
750.105	-0.12
750.854	1.88
751.603	-0.12
752.353	1.88
753.102	2.88
753.851	1.88
754.6	0.88
755.349	2.88
756.098	3.88
756.847	1.88
757.595	3.88
758.344	1.88
759.093	2.88
759.841	4.88
760.589	2.88
761.338	5.88
762.086	0.88
762.834	2.88
763.582	3.88
764.331	4.88
765.079	2.88
765.826	1.88
766.574	4.88
767.322	5.88
768.07	4.88
768.817	2.88
769.565	2.88
770.312	3.88
771.06	4.88
771.807	4.88
772.554	4.88
773.302	5.88
774.049	3.88
774.796	3.88
775.543	3.88
776.29	1.88
777.036	4.88
777.783	3.88
778.53	2.88
779.276	4.88
780.023	3.88
780.769	3.88
781.516	2.88
782.262	4.88
783.008	1.88
783.754	5.88
784.5	4.88
785.246	3.88
785.992	5.88
786.738	1.88
787.484	6.88
788.23	3.88
788.975	5.88
789.721	5.88
790.466	6.88
791.212	7.88
791.957	4.88
792.702	5.88
793.447	5.88
794.193	6.88
794.938	4.88
795.683	5.88
796.427	3.88
797.172	3.88
797.917	5.88
798.662	3.88
799.406	3.88
800.151	5.88
800.895	0.88
801.64	5.88
802.384	2.88
803.128	5.88
803.872	3.88
804.616	1.88
805.36	3.88
806.104	1.88
806.848	4.88
807.592	3.88
808.336	-0.12
809.079	1.88
809.823	2.88
810.566	4.88
811.31	3.88
812.053	3.88
812.796	1.88
813.539	1.88
814.283	2.88
815.026	0.88
815.769	3.88
816.511	1.88
817.254	3.88
817.997	2.88
818.74	2.88
819.482	0.88
820.225	1.88
820.967	1.88
821.71	2.88
822.452	2.88
823.194	1.88
823.936	-0.12
824.678	0.88
825.42	0.88
826.162	0.88
826.904	2.88
827.646	2.88
828.388	2.88
829.129	2.88
829.871	1.88
830.612	-0.12
831.354	5.88
832.095	0.88
832.836	1.88
833.577	0.88
834.319	2.88
835.06	0.88
835.801	2.88
836.542	3.88
837.282	2.88
838.023	-2.12
838.764	0.88
839.504	2.88
840.245	2.88
840.985	2.88
841.726	1.88
842.466	1.88
843.206	0.88
843.946	-0.12
844.687	1.88
845.427	3.88
846.166	1.88
846.906	0.88
847.646	-1.12
848.386	0.88
849.125	1.88
849.865	2.88
850.605	0.88
851.344	1.88
852.083	1.88
852.823	3.88
853.562	1.88
854.301	2.88
855.04	2.88
855.779	0.88
856.518	1.88
857.257	-2.12
857.995	1.88
858.734	1.88
859.473	0.88
860.211	-0.12
860.95	2.88
861.688	1.88
862.426	1.88
863.165	1.88
863.903	1.88
864.641	1.88
865.379	1.88
866.117	0.88
866.855	-1.12
867.593	0.88
868.33	2.88
869.068	-0.12
869.806	3.88
870.543	-0.12
871.28	0.88
872.018	0.88
872.755	1.88
873.492	0.88
874.229	0.88
874.967	-2.12
875.703	0.88
876.44	1.88
877.177	-0.12
877.914	-1.12
878.651	2.88
879.387	-1.12
880.124	0.88
880.86	-1.12
881.597	0.88
882.333	1.88
883.069	0.88
883.806	0.88
884.542	-0.12
885.278	0.88
886.014	-0.12
886.749	-1.12
887.485	3.88
888.221	-3.12
888.957	1.88
889.692	-1.12
890.428	2.88
891.163	2.88
891.899	-1.12
892.634	0.88
893.369	-3.12
894.104	1.88
894.839	-0.12
895.574	0.88
896.309	1.88
897.044	-0.12
897.779	1.88
898.514	-2.12
899.248	-0.12
899.983	-1.12
900.717	2.88
901.452	0.88
902.186	-0.12
902.92	0.88
903.654	-0.12
904.389	0.88
905.123	-0.12
905.857	-1.12
906.59	1.88
907.324	-0.12
908.058	0.88
908.792	0.88
909.525	2.88
910.259	2.88
910.992	0.88
911.726	-0.12
912.459	0.88
913.192	1.88
913.925	-0.12
914.658	0.88
915.391	-0.12
916.124	-1.12
916.857	1.88
917.59	0.88
918.323	-2.12
919.055	-1.12
919.788	-0.12
920.521	0.88
921.253	-0.12
921.985	-0.12
922.718	0.88
923.45	-0.12
924.182	-3.12
924.914	0.88
925.646	-0.12
926.378	-0.12
927.11	1.88
927.841	0.88
928.573	0.88
929.305	-0.12
930.036	0.88
930.768	0.88
931.499	-1.12
932.23	-0.12
932.962	-1.12
933.693	0.88
934.424	-0.12
935.155	-0.12
935.886	-0.12
936.617	0.88
937.348	0.88
938.078	-2.12
938.809	0.88
939.54	-0.12
940.27	0.88
941.001	0.88
941.731	-1.12
942.461	0.88
943.191	0.88
943.922	-0.12
944.652	0.88
945.382	-1.12
946.112	-1.12
946.841	-0.12
947.571	1.88
948.301	1.88
949.031	-2.12
949.76	-0.12
950.49	-3.12
951.219	0.88
951.948	0.88
952.678	-0.12
953.407	0.88
954.136	-1.12
954.865	-1.12
955.594	0.88
956.323	-0.12
957.052	-0.12
957.78	-1.12
958.509	-1.12
959.238	-1.12
959.966	-1.12
960.695	-0.12
961.423	-1.12
962.151	-0.12
962.88	-0.12
963.608	-1.12
964.336	-0.12
965.064	0.88
965.792	0.88
966.52	1.88
967.247	-0.12
967.975	-0.12
968.703	-0.12
969.43	-1.12
970.158	0.88
970.885	-1.12
971.613	0.88
972.34	-2.12
973.067	0.88
973.794	-0.12
974.521	0.88
975.248	-2.12
975.975	-1.12
976.702	0.88
977.429	-1.12
978.156	0.88
978.882	-0.12
979.609	-0.12
980.335	0.88
981.062	0.88
981.788	-0.12
982.514	-2.12
983.24	-2.12
983.967	-0.12
984.693	-2.12
985.419	-0.12
986.144	0.88
986.87	-0.12
987.596	0.88
988.322	-0.12
989.047	-1.12
989.773	0.88
990.498	-0.12
991.224	-0.12
991.949	0.88
992.674	0.88
993.399	1.88
994.124	-1.12
994.849	0.88
995.574	0.88
996.299	-2.12
997.024	0.88
997.749	-1.12
998.473	0.88
999.198	-0.12
999.922	0.88
1000.647	-1.12
1001.371	1.88
1002.095	-2.12
1002.82	-0.12
1003.544	-1.12
1004.268	-2.12
1004.992	-1.12
1005.716	-0.12
1006.439	-0.12
1007.163	0.88
1007.887	-0.12
1008.611	-2.12
1009.334	1.88
1010.058	-1.12
1010.781	-2.12
1011.504	0.88
1012.228	-0.12
1012.951	1.88
1013.674	-0.12
1014.397	-2.12
1015.12	1.88
