节点500_145_QEPB04081__148__11-31-18-610.txt的数据

Date: Wed Nov 12 11:31:18 CST 2025
User: PC
Spectrometer: QEPB0408
触发模式: 0
积分时间 (秒): 1.000000E-2
Scans to average: 1
启用暗噪声校正: true
启用非线性校正: false
滑动平均宽度: 0
X轴模式: Wavelengths
Number of Pixels in Spectrum: 1044
>>>>>Begin Spectral Data<<<<<
220.843	1.38
221.644	1.38
222.444	-0.62
223.244	-0.62
224.045	1.38
224.845	0.38
225.645	-0.62
226.445	0.38
227.245	0.38
228.045	-1.62
228.845	0.38
229.645	3.38
230.444	0.38
231.244	-0.62
232.043	0.38
232.843	2.38
233.642	-0.62
234.442	1.38
235.241	-0.62
236.04	0.38
236.839	0.38
237.638	2.38
238.437	3.38
239.236	-0.62
240.035	2.38
240.833	1.38
241.632	2.38
242.43	1.38
243.229	1.38
244.027	4.38
244.826	1.38
245.624	1.38
246.422	2.38
247.22	1.38
248.018	0.38
248.816	3.38
249.614	4.38
250.412	0.38
251.21	5.38
252.007	0.38
252.805	3.38
253.602	3.38
254.4	0.38
255.197	4.38
255.994	4.38
256.791	4.38
257.589	5.38
258.386	5.38
259.183	5.38
259.979	4.38
260.776	5.38
261.573	4.38
262.37	4.38
263.166	5.38
263.963	5.38
264.759	8.38
265.556	7.38
266.352	7.38
267.148	6.38
267.944	3.38
268.74	7.38
269.536	4.38
270.332	7.38
271.128	9.38
271.924	8.38
272.719	8.38
273.515	9.38
274.311	9.38
275.106	10.38
275.901	10.38
276.697	10.38
277.492	8.38
278.287	8.38
279.082	12.38
279.877	11.38
280.672	7.38
281.467	10.38
282.262	9.38
283.056	10.38
283.851	13.38
284.646	11.38
285.44	14.38
286.234	11.38
287.029	11.38
287.823	12.38
288.617	11.38
289.411	11.38
290.205	8.38
290.999	13.38
291.793	10.38
292.587	11.38
293.381	11.38
294.174	12.38
294.968	12.38
295.761	9.38
296.555	11.38
297.348	10.38
298.141	10.38
298.935	10.38
299.728	11.38
300.521	9.38
301.314	8.38
302.107	10.38
302.899	5.38
303.692	11.38
304.485	7.38
305.277	11.38
306.07	8.38
306.862	8.38
307.655	6.38
308.447	9.38
309.239	8.38
310.031	7.38
310.823	7.38
311.615	9.38
312.407	7.38
313.199	6.38
313.991	6.38
314.783	4.38
315.574	5.38
316.366	5.38
317.157	6.38
317.949	5.38
318.74	4.38
319.531	4.38
320.322	5.38
321.113	3.38
321.904	2.38
322.695	6.38
323.486	4.38
324.277	4.38
325.068	3.38
325.858	2.38
326.649	5.38
327.439	4.38
328.23	2.38
329.02	4.38
329.81	3.38
330.6	2.38
331.391	3.38
332.181	3.38
332.971	3.38
333.76	6.38
334.55	2.38
335.34	4.38
336.13	4.38
336.919	3.38
337.709	5.38
338.498	3.38
339.287	4.38
340.077	5.38
340.866	3.38
341.655	5.38
342.444	3.38
343.233	4.38
344.022	5.38
344.811	4.38
345.6	3.38
346.388	2.38
347.177	5.38
347.965	5.38
348.754	1.38
349.542	0.38
350.33	4.38
351.119	2.38
351.907	3.38
352.695	4.38
353.483	2.38
354.271	5.38
355.059	2.38
355.846	3.38
356.634	3.38
357.422	5.38
358.209	3.38
358.997	1.38
359.784	4.38
360.571	2.38
361.359	2.38
362.146	1.38
362.933	2.38
363.72	4.38
364.507	1.38
365.294	1.38
366.081	4.38
366.867	3.38
367.654	4.38
368.44	3.38
369.227	1.38
370.013	2.38
370.8	4.38
371.586	4.38
372.372	3.38
373.158	1.38
373.944	1.38
374.73	2.38
375.516	2.38
376.302	5.38
377.088	3.38
377.873	4.38
378.659	2.38
379.445	1.38
380.23	4.38
381.015	3.38
381.801	2.38
382.586	2.38
383.371	2.38
384.156	2.38
384.941	2.38
385.726	4.38
386.511	2.38
387.296	5.38
388.08	5.38
388.865	1.38
389.649	3.38
390.434	4.38
391.218	4.38
392.003	2.38
392.787	2.38
393.571	3.38
394.355	0.38
395.139	1.38
395.923	2.38
396.707	2.38
397.491	2.38
398.274	2.38
399.058	1.38
399.842	1.38
400.625	5.38
401.408	4.38
402.192	6.38
402.975	2.38
403.758	5.38
404.541	4.38
405.324	6.38
406.107	5.38
406.89	5.38
407.673	5.38
408.456	4.38
409.238	3.38
410.021	6.38
410.803	3.38
411.586	4.38
412.368	6.38
413.151	4.38
413.933	3.38
414.715	4.38
415.497	7.38
416.279	5.38
417.061	5.38
417.843	7.38
418.624	6.38
419.406	5.38
420.188	4.38
420.969	4.38
421.751	6.38
422.532	6.38
423.313	3.38
424.095	7.38
424.876	6.38
425.657	7.38
426.438	7.38
427.219	5.38
428	6.38
428.78	5.38
429.561	5.38
430.342	7.38
431.122	6.38
431.903	7.38
432.683	6.38
433.464	8.38
434.244	8.38
435.024	10.38
435.804	11.38
436.584	9.38
437.364	8.38
438.144	9.38
438.924	10.38
439.704	11.38
440.483	11.38
441.263	12.38
442.042	13.38
442.822	14.38
443.601	12.38
444.38	16.38
445.16	12.38
445.939	16.38
446.718	17.38
447.497	16.38
448.276	17.38
449.054	19.38
449.833	21.38
450.612	23.38
451.391	24.38
452.169	26.38
452.948	29.38
453.726	34.38
454.504	38.38
455.282	38.38
456.061	39.38
456.839	46.38
457.617	50.38
458.395	54.38
459.172	63.38
459.95	68.38
460.728	76.38
461.506	84.38
462.283	93.38
463.061	106.38
463.838	116.38
464.615	130.38
465.393	149.38
466.17	163.38
466.947	183.38
467.724	209.38
468.501	225.38
469.278	258.38
470.055	281.38
470.831	318.38
471.608	356.38
472.385	395.38
473.161	437.38
473.938	491.38
474.714	541.38
475.49	603.38
476.266	681.38
477.043	746.38
477.819	833.38
478.595	930.38
479.371	1020.38
480.146	1143.38
480.922	1257.38
481.698	1405.38
482.473	1552.38
483.249	1722.38
484.024	1896.38
484.8	2111.38
485.575	2317.38
486.35	2575.38
487.126	2866.38
487.901	3167.38
488.676	3486.38
489.451	3837.38
490.225	4245.38
491	4725.38
491.775	5179.38
492.55	5690.38
493.324	6252.38
494.099	6843.38
494.873	7509.38
495.647	8170.38
496.422	8847.38
497.196	9609.38
497.97	10435.38
498.744	11226.38
499.518	12014.38
500.292	12793.38
501.066	13544.38
501.839	14267.38
502.613	14994.38
503.387	15604.38
504.16	16110.38
504.934	16587.38
505.707	16902.38
506.48	17064.38
507.253	17176.38
508.027	17214.38
508.8	17034.38
509.573	16840.38
510.346	16455.38
511.118	16046.38
511.891	15591.38
512.664	15039.38
513.437	14494.38
514.209	13884.38
514.982	13303.38
515.754	12755.38
516.526	12123.38
517.298	11540.38
518.071	11062.38
518.843	10602.38
519.615	10106.38
520.387	9692.38
521.159	9285.38
521.93	8912.38
522.702	8560.38
523.474	8257.38
524.245	7939.38
525.017	7601.38
525.788	7313.38
526.56	6972.38
527.331	6700.38
528.102	6400.38
528.873	6136.38
529.644	5858.38
530.415	5559.38
531.186	5281.38
531.957	5002.38
532.728	4737.38
533.498	4461.38
534.269	4224.38
535.039	4001.38
535.81	3774.38
536.58	3561.38
537.351	3361.38
538.121	3152.38
538.891	2986.38
539.661	2835.38
540.431	2679.38
541.201	2542.38
541.971	2418.38
542.741	2279.38
543.51	2141.38
544.28	2056.38
545.05	1942.38
545.819	1842.38
546.588	1761.38
547.358	1670.38
548.127	1587.38
548.896	1502.38
549.665	1447.38
550.434	1354.38
551.203	1287.38
551.972	1222.38
552.741	1158.38
553.51	1090.38
554.278	1023.38
555.047	975.38
555.815	920.38
556.584	858.38
557.352	813.38
558.121	766.38
558.889	717.38
559.657	681.38
560.425	641.38
561.193	601.38
561.961	563.38
562.729	537.38
563.496	512.38
564.264	482.38
565.032	451.38
565.799	426.38
566.567	399.38
567.334	380.38
568.101	357.38
568.869	340.38
569.636	319.38
570.403	306.38
571.17	286.38
571.937	270.38
572.704	250.38
573.471	241.38
574.237	229.38
575.004	213.38
575.771	197.38
576.537	182.38
577.303	171.38
578.07	165.38
578.836	157.38
579.602	142.38
580.368	138.38
581.134	130.38
581.9	126.38
582.666	120.38
583.432	113.38
584.198	104.38
584.964	97.38
585.729	91.38
586.495	90.38
587.26	83.38
588.025	80.38
588.791	74.38
589.556	69.38
590.321	70.38
591.086	64.38
591.851	62.38
592.616	60.38
593.381	55.38
594.146	50.38
594.911	51.38
595.675	48.38
596.44	45.38
597.204	45.38
597.969	44.38
598.733	39.38
599.497	40.38
600.261	35.38
601.025	33.38
601.79	30.38
602.553	28.38
603.317	29.38
604.081	28.38
604.845	26.38
605.609	26.38
606.372	26.38
607.136	24.38
607.899	23.38
608.662	20.38
609.426	22.38
610.189	20.38
610.952	19.38
611.715	18.38
612.478	17.38
613.241	16.38
614.004	17.38
614.767	17.38
615.529	13.38
616.292	14.38
617.055	14.38
617.817	16.38
618.579	12.38
619.342	12.38
620.104	11.38
620.866	13.38
621.628	10.38
622.39	10.38
623.152	9.38
623.914	11.38
624.676	10.38
625.438	9.38
626.199	9.38
626.961	12.38
627.722	8.38
628.484	9.38
629.245	8.38
630.006	10.38
630.768	8.38
631.529	8.38
632.29	10.38
633.051	7.38
633.812	7.38
634.573	5.38
635.333	7.38
636.094	4.38
636.855	8.38
637.615	4.38
638.376	6.38
639.136	8.38
639.896	7.38
640.657	5.38
641.417	5.38
642.177	5.38
642.937	7.38
643.697	4.38
644.457	3.38
645.216	3.38
645.976	6.38
646.736	5.38
647.495	4.38
648.255	4.38
649.014	4.38
649.774	4.38
650.533	6.38
651.292	4.38
652.051	4.38
652.81	5.38
653.569	2.38
654.328	4.38
655.087	5.38
655.846	0.38
656.604	4.38
657.363	3.38
658.121	5.38
658.88	3.38
659.638	2.38
660.397	2.38
661.155	5.38
661.913	1.38
662.671	2.38
663.429	3.38
664.187	4.38
664.945	3.38
665.703	3.38
666.46	3.38
667.218	3.38
667.976	3.38
668.733	3.38
669.49	4.38
670.248	2.38
671.005	1.38
671.762	4.38
672.519	6.38
673.276	3.38
674.033	1.38
674.79	6.38
675.547	1.38
676.304	2.38
677.06	-0.62
677.817	2.38
678.574	4.38
679.33	5.38
680.086	5.38
680.843	1.38
681.599	3.38
682.355	2.38
683.111	2.38
683.867	1.38
684.623	3.38
685.379	3.38
686.135	3.38
686.89	1.38
687.646	0.38
688.402	2.38
689.157	3.38
689.912	4.38
690.668	1.38
691.423	2.38
692.178	1.38
692.933	0.38
693.688	4.38
694.443	2.38
695.198	3.38
695.953	1.38
696.708	0.38
697.462	1.38
698.217	2.38
698.972	4.38
699.726	2.38
700.48	2.38
701.235	2.38
701.989	4.38
702.743	4.38
703.497	0.38
704.251	2.38
705.005	3.38
705.759	1.38
706.513	3.38
707.266	1.38
708.02	3.38
708.774	3.38
709.527	3.38
710.28	1.38
711.034	2.38
711.787	3.38
712.54	0.38
713.293	2.38
714.046	3.38
714.799	4.38
715.552	2.38
716.305	0.38
717.058	2.38
717.81	2.38
718.563	2.38
719.315	0.38
720.068	2.38
720.82	2.38
721.573	0.38
722.325	5.38
723.077	3.38
723.829	2.38
724.581	1.38
725.333	3.38
726.085	2.38
726.836	2.38
727.588	3.38
728.34	1.38
729.091	2.38
729.843	2.38
730.594	1.38
731.346	1.38
732.097	1.38
732.848	2.38
733.599	2.38
734.35	2.38
735.101	0.38
735.852	4.38
736.603	4.38
737.354	1.38
738.104	3.38
738.855	1.38
739.605	2.38
740.356	2.38
741.106	3.38
741.856	5.38
742.607	2.38
743.357	3.38
744.107	2.38
744.857	2.38
745.607	3.38
746.357	1.38
747.106	2.38
747.856	3.38
748.606	3.38
749.355	1.38
750.105	2.38
750.854	2.38
751.603	6.38
752.353	4.38
753.102	3.38
753.851	3.38
754.6	4.38
755.349	6.38
756.098	4.38
756.847	5.38
757.595	2.38
758.344	3.38
759.093	4.38
759.841	3.38
760.589	5.38
761.338	5.38
762.086	3.38
762.834	3.38
763.582	2.38
764.331	3.38
765.079	3.38
765.826	5.38
766.574	5.38
767.322	4.38
768.07	2.38
768.817	3.38
769.565	5.38
770.312	5.38
771.06	5.38
771.807	3.38
772.554	6.38
773.302	3.38
774.049	3.38
774.796	5.38
775.543	5.38
776.29	3.38
777.036	5.38
777.783	3.38
778.53	6.38
779.276	5.38
780.023	6.38
780.769	5.38
781.516	7.38
782.262	5.38
783.008	6.38
783.754	5.38
784.5	7.38
785.246	8.38
785.992	7.38
786.738	6.38
787.484	5.38
788.23	4.38
788.975	5.38
789.721	5.38
790.466	7.38
791.212	4.38
791.957	5.38
792.702	5.38
793.447	3.38
794.193	6.38
794.938	7.38
795.683	4.38
796.427	4.38
797.172	7.38
797.917	4.38
798.662	4.38
799.406	7.38
800.151	3.38
800.895	6.38
801.64	4.38
802.384	4.38
803.128	5.38
803.872	4.38
804.616	6.38
805.36	5.38
806.104	3.38
806.848	3.38
807.592	5.38
808.336	5.38
809.079	3.38
809.823	4.38
810.566	3.38
811.31	5.38
812.053	4.38
812.796	4.38
813.539	1.38
814.283	1.38
815.026	3.38
815.769	3.38
816.511	3.38
817.254	4.38
817.997	2.38
818.74	4.38
819.482	2.38
820.225	6.38
820.967	5.38
821.71	3.38
822.452	2.38
823.194	4.38
823.936	3.38
824.678	3.38
825.42	4.38
826.162	4.38
826.904	3.38
827.646	2.38
828.388	1.38
829.129	3.38
829.871	2.38
830.612	3.38
831.354	3.38
832.095	3.38
832.836	5.38
833.577	2.38
834.319	3.38
835.06	2.38
835.801	5.38
836.542	2.38
837.282	1.38
838.023	2.38
838.764	4.38
839.504	2.38
840.245	1.38
840.985	4.38
841.726	1.38
842.466	3.38
843.206	2.38
843.946	4.38
844.687	1.38
845.427	3.38
846.166	1.38
846.906	4.38
847.646	1.38
848.386	2.38
849.125	0.38
849.865	4.38
850.605	3.38
851.344	2.38
852.083	2.38
852.823	2.38
853.562	1.38
854.301	1.38
855.04	0.38
855.779	2.38
856.518	2.38
857.257	3.38
857.995	-1.62
858.734	2.38
859.473	0.38
860.211	3.38
860.95	0.38
861.688	0.38
862.426	1.38
863.165	2.38
863.903	2.38
864.641	2.38
865.379	1.38
866.117	1.38
866.855	3.38
867.593	0.38
868.33	2.38
869.068	1.38
869.806	-0.62
870.543	0.38
871.28	-0.62
872.018	2.38
872.755	0.38
873.492	0.38
874.229	-0.62
874.967	-0.62
875.703	1.38
876.44	1.38
877.177	0.38
877.914	-0.62
878.651	-1.62
879.387	2.38
880.124	1.38
880.86	3.38
881.597	1.38
882.333	2.38
883.069	1.38
883.806	1.38
884.542	0.38
885.278	0.38
886.014	0.38
886.749	2.38
887.485	3.38
888.221	1.38
888.957	1.38
889.692	1.38
890.428	2.38
891.163	1.38
891.899	0.38
892.634	1.38
893.369	0.38
894.104	-0.62
894.839	1.38
895.574	0.38
896.309	1.38
897.044	1.38
897.779	-0.62
898.514	0.38
899.248	0.38
899.983	2.38
900.717	0.38
901.452	1.38
902.186	1.38
902.92	1.38
903.654	-1.62
904.389	0.38
905.123	1.38
905.857	0.38
906.59	-0.62
907.324	0.38
908.058	1.38
908.792	2.38
909.525	-0.62
910.259	1.38
910.992	1.38
911.726	0.38
912.459	1.38
913.192	-1.62
913.925	0.38
914.658	0.38
915.391	1.38
916.124	0.38
916.857	0.38
917.59	2.38
918.323	0.38
919.055	2.38
919.788	-0.62
920.521	2.38
921.253	1.38
921.985	1.38
922.718	1.38
923.45	-0.62
924.182	1.38
924.914	-0.62
925.646	1.38
926.378	2.38
927.11	-1.62
927.841	-0.62
928.573	0.38
929.305	-0.62
930.036	-0.62
930.768	-0.62
931.499	0.38
932.23	0.38
932.962	-0.62
933.693	-0.62
934.424	1.38
935.155	-0.62
935.886	-1.62
936.617	0.38
937.348	0.38
938.078	2.38
938.809	-0.62
939.54	-1.62
940.27	0.38
941.001	-0.62
941.731	1.38
942.461	-1.62
943.191	0.38
943.922	-1.62
944.652	2.38
945.382	0.38
946.112	3.38
946.841	0.38
947.571	0.38
948.301	0.38
949.031	1.38
949.76	1.38
950.49	-0.62
951.219	-0.62
951.948	-0.62
952.678	-1.62
953.407	0.38
954.136	-1.62
954.865	-1.62
955.594	1.38
956.323	1.38
957.052	1.38
957.78	2.38
958.509	0.38
959.238	1.38
959.966	-0.62
960.695	0.38
961.423	0.38
962.151	-0.62
962.88	0.38
963.608	1.38
964.336	1.38
965.064	0.38
965.792	1.38
966.52	1.38
967.247	-0.62
967.975	-0.62
968.703	1.38
969.43	1.38
970.158	0.38
970.885	2.38
971.613	-1.62
972.34	1.38
973.067	0.38
973.794	2.38
974.521	2.38
975.248	-1.62
975.975	-0.62
976.702	-0.62
977.429	1.38
978.156	-1.62
978.882	2.38
979.609	-1.62
980.335	0.38
981.062	0.38
981.788	1.38
982.514	0.38
983.24	1.38
983.967	1.38
984.693	0.38
985.419	1.38
986.144	1.38
986.87	0.38
987.596	1.38
988.322	-0.62
989.047	0.38
989.773	-0.62
990.498	0.38
991.224	0.38
991.949	0.38
992.674	3.38
993.399	1.38
994.124	1.38
994.849	0.38
995.574	0.38
996.299	-0.62
997.024	2.38
997.749	1.38
998.473	-0.62
999.198	-1.62
999.922	0.38
1000.647	-1.62
1001.371	4.38
1002.095	-1.62
1002.82	-1.62
1003.544	-2.62
1004.268	0.38
1004.992	2.38
1005.716	-0.62
1006.439	0.38
1007.163	2.38
1007.887	2.38
1008.611	0.38
1009.334	2.38
1010.058	2.38
1010.781	1.38
1011.504	0.38
1012.228	0.38
1012.951	0.38
1013.674	0.38
1014.397	1.38
1015.12	-0.62
