节点500_145_QEPB04081__127__11-30-58-619.txt的数据

Date: Wed Nov 12 11:30:58 CST 2025
User: PC
Spectrometer: QEPB0408
触发模式: 0
积分时间 (秒): 1.000000E-2
Scans to average: 1
启用暗噪声校正: true
启用非线性校正: false
滑动平均宽度: 0
X轴模式: Wavelengths
Number of Pixels in Spectrum: 1044
>>>>>Begin Spectral Data<<<<<
220.843	0.38
221.644	0.38
222.444	0.38
223.244	2.38
224.045	-0.62
224.845	1.38
225.645	0.38
226.445	0.38
227.245	-0.62
228.045	-1.62
228.845	2.38
229.645	0.38
230.444	0.38
231.244	1.38
232.043	2.38
232.843	1.38
233.642	1.38
234.442	2.38
235.241	-0.62
236.04	2.38
236.839	-0.62
237.638	4.38
238.437	2.38
239.236	1.38
240.035	2.38
240.833	1.38
241.632	1.38
242.43	2.38
243.229	2.38
244.027	2.38
244.826	2.38
245.624	1.38
246.422	1.38
247.22	4.38
248.018	2.38
248.816	3.38
249.614	3.38
250.412	-0.62
251.21	4.38
252.007	3.38
252.805	3.38
253.602	4.38
254.4	1.38
255.197	4.38
255.994	3.38
256.791	4.38
257.589	2.38
258.386	6.38
259.183	3.38
259.979	4.38
260.776	4.38
261.573	3.38
262.37	4.38
263.166	4.38
263.963	4.38
264.759	7.38
265.556	7.38
266.352	7.38
267.148	7.38
267.944	8.38
268.74	4.38
269.536	7.38
270.332	7.38
271.128	7.38
271.924	8.38
272.719	6.38
273.515	7.38
274.311	8.38
275.106	10.38
275.901	8.38
276.697	7.38
277.492	11.38
278.287	10.38
279.082	10.38
279.877	12.38
280.672	10.38
281.467	10.38
282.262	12.38
283.056	9.38
283.851	13.38
284.646	9.38
285.44	11.38
286.234	11.38
287.029	11.38
287.823	9.38
288.617	10.38
289.411	9.38
290.205	13.38
290.999	9.38
291.793	9.38
292.587	11.38
293.381	12.38
294.174	11.38
294.968	10.38
295.761	11.38
296.555	12.38
297.348	9.38
298.141	10.38
298.935	11.38
299.728	11.38
300.521	10.38
301.314	10.38
302.107	11.38
302.899	7.38
303.692	9.38
304.485	7.38
305.277	8.38
306.07	6.38
306.862	8.38
307.655	5.38
308.447	9.38
309.239	10.38
310.031	5.38
310.823	9.38
311.615	6.38
312.407	6.38
313.199	7.38
313.991	7.38
314.783	7.38
315.574	3.38
316.366	7.38
317.157	5.38
317.949	5.38
318.74	4.38
319.531	4.38
320.322	6.38
321.113	4.38
321.904	4.38
322.695	2.38
323.486	5.38
324.277	5.38
325.068	3.38
325.858	4.38
326.649	5.38
327.439	3.38
328.23	4.38
329.02	3.38
329.81	6.38
330.6	2.38
331.391	5.38
332.181	4.38
332.971	3.38
333.76	3.38
334.55	5.38
335.34	2.38
336.13	4.38
336.919	6.38
337.709	2.38
338.498	4.38
339.287	4.38
340.077	5.38
340.866	4.38
341.655	3.38
342.444	4.38
343.233	1.38
344.022	2.38
344.811	5.38
345.6	4.38
346.388	4.38
347.177	5.38
347.965	5.38
348.754	4.38
349.542	6.38
350.33	4.38
351.119	3.38
351.907	3.38
352.695	3.38
353.483	2.38
354.271	3.38
355.059	4.38
355.846	3.38
356.634	1.38
357.422	2.38
358.209	5.38
358.997	4.38
359.784	2.38
360.571	3.38
361.359	3.38
362.146	2.38
362.933	1.38
363.72	4.38
364.507	2.38
365.294	2.38
366.081	1.38
366.867	1.38
367.654	2.38
368.44	2.38
369.227	3.38
370.013	3.38
370.8	4.38
371.586	1.38
372.372	1.38
373.158	5.38
373.944	4.38
374.73	2.38
375.516	4.38
376.302	2.38
377.088	3.38
377.873	3.38
378.659	2.38
379.445	2.38
380.23	2.38
381.015	2.38
381.801	2.38
382.586	3.38
383.371	3.38
384.156	4.38
384.941	3.38
385.726	2.38
386.511	4.38
387.296	2.38
388.08	4.38
388.865	4.38
389.649	3.38
390.434	3.38
391.218	5.38
392.003	2.38
392.787	3.38
393.571	1.38
394.355	4.38
395.139	2.38
395.923	4.38
396.707	3.38
397.491	4.38
398.274	7.38
399.058	2.38
399.842	2.38
400.625	5.38
401.408	2.38
402.192	5.38
402.975	5.38
403.758	5.38
404.541	2.38
405.324	3.38
406.107	5.38
406.89	3.38
407.673	4.38
408.456	4.38
409.238	4.38
410.021	2.38
410.803	6.38
411.586	6.38
412.368	5.38
413.151	3.38
413.933	5.38
414.715	6.38
415.497	3.38
416.279	4.38
417.061	6.38
417.843	5.38
418.624	6.38
419.406	5.38
420.188	6.38
420.969	5.38
421.751	2.38
422.532	6.38
423.313	6.38
424.095	6.38
424.876	8.38
425.657	5.38
426.438	6.38
427.219	7.38
428	3.38
428.78	7.38
429.561	6.38
430.342	5.38
431.122	8.38
431.903	5.38
432.683	7.38
433.464	9.38
434.244	9.38
435.024	13.38
435.804	9.38
436.584	11.38
437.364	9.38
438.144	8.38
438.924	11.38
439.704	11.38
440.483	13.38
441.263	13.38
442.042	12.38
442.822	13.38
443.601	15.38
444.38	13.38
445.16	15.38
445.939	16.38
446.718	17.38
447.497	21.38
448.276	19.38
449.054	19.38
449.833	21.38
450.612	22.38
451.391	26.38
452.169	29.38
452.948	30.38
453.726	30.38
454.504	35.38
455.282	39.38
456.061	38.38
456.839	48.38
457.617	54.38
458.395	57.38
459.172	62.38
459.95	70.38
460.728	73.38
461.506	86.38
462.283	97.38
463.061	110.38
463.838	121.38
464.615	130.38
465.393	150.38
466.17	166.38
466.947	187.38
467.724	202.38
468.501	232.38
469.278	256.38
470.055	282.38
470.831	320.38
471.608	352.38
472.385	385.38
473.161	443.38
473.938	493.38
474.714	552.38
475.49	611.38
476.266	678.38
477.043	753.38
477.819	845.38
478.595	931.38
479.371	1024.38
480.146	1141.38
480.922	1265.38
481.698	1401.38
482.473	1555.38
483.249	1733.38
484.024	1922.38
484.8	2112.38
485.575	2336.38
486.35	2575.38
487.126	2859.38
487.901	3162.38
488.676	3479.38
489.451	3843.38
490.225	4264.38
491	4727.38
491.775	5174.38
492.55	5704.38
493.324	6283.38
494.099	6903.38
494.873	7535.38
495.647	8226.38
496.422	8991.38
497.196	9713.38
497.97	10496.38
498.744	11286.38
499.518	12114.38
500.292	12872.38
501.066	13631.38
501.839	14386.38
502.613	15046.38
503.387	15688.38
504.16	16217.38
504.934	16661.38
505.707	16969.38
506.48	17170.38
507.253	17234.38
508.027	17271.38
508.8	17100.38
509.573	16851.38
510.346	16516.38
511.118	16062.38
511.891	15599.38
512.664	15042.38
513.437	14446.38
514.209	13882.38
514.982	13304.38
515.754	12698.38
516.526	12074.38
517.298	11523.38
518.071	11016.38
518.843	10565.38
519.615	10082.38
520.387	9690.38
521.159	9322.38
521.93	8905.38
522.702	8567.38
523.474	8228.38
524.245	7927.38
525.017	7612.38
525.788	7294.38
526.56	6990.38
527.331	6676.38
528.102	6402.38
528.873	6129.38
529.644	5796.38
530.415	5564.38
531.186	5248.38
531.957	5011.38
532.728	4716.38
533.498	4454.38
534.269	4220.38
535.039	3979.38
535.81	3754.38
536.58	3557.38
537.351	3369.38
538.121	3153.38
538.891	2970.38
539.661	2830.38
540.431	2665.38
541.201	2511.38
541.971	2379.38
542.741	2273.38
543.51	2140.38
544.28	2030.38
545.05	1933.38
545.819	1843.38
546.588	1756.38
547.358	1678.38
548.127	1607.38
548.896	1509.38
549.665	1431.38
550.434	1339.38
551.203	1292.38
551.972	1219.38
552.741	1159.38
553.51	1101.38
554.278	1023.38
555.047	967.38
555.815	910.38
556.584	871.38
557.352	806.38
558.121	764.38
558.889	720.38
559.657	670.38
560.425	645.38
561.193	597.38
561.961	567.38
562.729	533.38
563.496	500.38
564.264	485.38
565.032	451.38
565.799	427.38
566.567	403.38
567.334	378.38
568.101	357.38
568.869	341.38
569.636	324.38
570.403	297.38
571.17	287.38
571.937	266.38
572.704	252.38
573.471	239.38
574.237	227.38
575.004	210.38
575.771	205.38
576.537	189.38
577.303	175.38
578.07	164.38
578.836	158.38
579.602	148.38
580.368	138.38
581.134	135.38
581.9	126.38
582.666	117.38
583.432	111.38
584.198	112.38
584.964	97.38
585.729	95.38
586.495	91.38
587.26	86.38
588.025	79.38
588.791	75.38
589.556	72.38
590.321	68.38
591.086	61.38
591.851	61.38
592.616	58.38
593.381	57.38
594.146	51.38
594.911	51.38
595.675	46.38
596.44	46.38
597.204	44.38
597.969	44.38
598.733	42.38
599.497	37.38
600.261	37.38
601.025	36.38
601.79	33.38
602.553	34.38
603.317	30.38
604.081	31.38
604.845	25.38
605.609	25.38
606.372	25.38
607.136	25.38
607.899	25.38
608.662	21.38
609.426	24.38
610.189	18.38
610.952	22.38
611.715	20.38
612.478	14.38
613.241	15.38
614.004	16.38
614.767	14.38
615.529	16.38
616.292	14.38
617.055	13.38
617.817	13.38
618.579	13.38
619.342	11.38
620.104	12.38
620.866	11.38
621.628	12.38
622.39	11.38
623.152	11.38
623.914	13.38
624.676	9.38
625.438	9.38
626.199	8.38
626.961	8.38
627.722	8.38
628.484	10.38
629.245	7.38
630.006	8.38
630.768	7.38
631.529	8.38
632.29	8.38
633.051	6.38
633.812	6.38
634.573	5.38
635.333	7.38
636.094	6.38
636.855	6.38
637.615	6.38
638.376	6.38
639.136	2.38
639.896	4.38
640.657	4.38
641.417	5.38
642.177	6.38
642.937	4.38
643.697	8.38
644.457	6.38
645.216	5.38
645.976	4.38
646.736	6.38
647.495	4.38
648.255	3.38
649.014	5.38
649.774	3.38
650.533	7.38
651.292	5.38
652.051	4.38
652.81	4.38
653.569	3.38
654.328	3.38
655.087	4.38
655.846	7.38
656.604	5.38
657.363	2.38
658.121	1.38
658.88	4.38
659.638	1.38
660.397	4.38
661.155	2.38
661.913	4.38
662.671	1.38
663.429	4.38
664.187	1.38
664.945	6.38
665.703	2.38
666.46	5.38
667.218	2.38
667.976	2.38
668.733	5.38
669.49	2.38
670.248	2.38
671.005	3.38
671.762	3.38
672.519	3.38
673.276	3.38
674.033	4.38
674.79	1.38
675.547	3.38
676.304	2.38
677.06	2.38
677.817	3.38
678.574	3.38
679.33	1.38
680.086	1.38
680.843	2.38
681.599	2.38
682.355	1.38
683.111	2.38
683.867	2.38
684.623	2.38
685.379	3.38
686.135	1.38
686.89	2.38
687.646	2.38
688.402	3.38
689.157	2.38
689.912	2.38
690.668	1.38
691.423	3.38
692.178	2.38
692.933	3.38
693.688	2.38
694.443	1.38
695.198	1.38
695.953	4.38
696.708	4.38
697.462	3.38
698.217	1.38
698.972	1.38
699.726	-1.62
700.48	3.38
701.235	0.38
701.989	0.38
702.743	0.38
703.497	4.38
704.251	2.38
705.005	0.38
705.759	2.38
706.513	3.38
707.266	2.38
708.02	1.38
708.774	1.38
709.527	2.38
710.28	0.38
711.034	2.38
711.787	1.38
712.54	3.38
713.293	4.38
714.046	1.38
714.799	3.38
715.552	2.38
716.305	1.38
717.058	1.38
717.81	2.38
718.563	3.38
719.315	1.38
720.068	2.38
720.82	1.38
721.573	3.38
722.325	1.38
723.077	0.38
723.829	1.38
724.581	1.38
725.333	2.38
726.085	0.38
726.836	5.38
727.588	2.38
728.34	2.38
729.091	2.38
729.843	1.38
730.594	2.38
731.346	3.38
732.097	3.38
732.848	2.38
733.599	0.38
734.35	2.38
735.101	1.38
735.852	2.38
736.603	4.38
737.354	1.38
738.104	1.38
738.855	1.38
739.605	1.38
740.356	3.38
741.106	3.38
741.856	2.38
742.607	2.38
743.357	3.38
744.107	4.38
744.857	2.38
745.607	4.38
746.357	2.38
747.106	1.38
747.856	2.38
748.606	2.38
749.355	2.38
750.105	4.38
750.854	2.38
751.603	4.38
752.353	3.38
753.102	2.38
753.851	4.38
754.6	2.38
755.349	3.38
756.098	3.38
756.847	3.38
757.595	4.38
758.344	4.38
759.093	4.38
759.841	2.38
760.589	5.38
761.338	5.38
762.086	4.38
762.834	3.38
763.582	6.38
764.331	5.38
765.079	5.38
765.826	5.38
766.574	2.38
767.322	4.38
768.07	4.38
768.817	5.38
769.565	5.38
770.312	4.38
771.06	3.38
771.807	5.38
772.554	6.38
773.302	5.38
774.049	3.38
774.796	6.38
775.543	3.38
776.29	6.38
777.036	6.38
777.783	4.38
778.53	5.38
779.276	3.38
780.023	8.38
780.769	7.38
781.516	7.38
782.262	6.38
783.008	6.38
783.754	5.38
784.5	6.38
785.246	5.38
785.992	4.38
786.738	7.38
787.484	4.38
788.23	7.38
788.975	7.38
789.721	4.38
790.466	6.38
791.212	5.38
791.957	6.38
792.702	5.38
793.447	5.38
794.193	5.38
794.938	4.38
795.683	5.38
796.427	4.38
797.172	7.38
797.917	6.38
798.662	4.38
799.406	5.38
800.151	7.38
800.895	7.38
801.64	5.38
802.384	5.38
803.128	5.38
803.872	3.38
804.616	4.38
805.36	4.38
806.104	4.38
806.848	3.38
807.592	5.38
808.336	4.38
809.079	5.38
809.823	5.38
810.566	4.38
811.31	5.38
812.053	1.38
812.796	4.38
813.539	4.38
814.283	5.38
815.026	3.38
815.769	4.38
816.511	5.38
817.254	2.38
817.997	2.38
818.74	5.38
819.482	2.38
820.225	3.38
820.967	3.38
821.71	5.38
822.452	2.38
823.194	1.38
823.936	4.38
824.678	4.38
825.42	4.38
826.162	5.38
826.904	4.38
827.646	1.38
828.388	2.38
829.129	3.38
829.871	4.38
830.612	4.38
831.354	1.38
832.095	1.38
832.836	3.38
833.577	4.38
834.319	2.38
835.06	3.38
835.801	2.38
836.542	4.38
837.282	1.38
838.023	3.38
838.764	2.38
839.504	2.38
840.245	3.38
840.985	2.38
841.726	2.38
842.466	1.38
843.206	3.38
843.946	0.38
844.687	2.38
845.427	1.38
846.166	3.38
846.906	1.38
847.646	1.38
848.386	2.38
849.125	2.38
849.865	4.38
850.605	2.38
851.344	2.38
852.083	1.38
852.823	2.38
853.562	1.38
854.301	1.38
855.04	0.38
855.779	-0.62
856.518	2.38
857.257	0.38
857.995	1.38
858.734	1.38
859.473	2.38
860.211	1.38
860.95	3.38
861.688	5.38
862.426	2.38
863.165	3.38
863.903	2.38
864.641	2.38
865.379	3.38
866.117	0.38
866.855	2.38
867.593	0.38
868.33	1.38
869.068	3.38
869.806	0.38
870.543	2.38
871.28	3.38
872.018	2.38
872.755	2.38
873.492	2.38
874.229	2.38
874.967	0.38
875.703	0.38
876.44	3.38
877.177	-0.62
877.914	1.38
878.651	0.38
879.387	2.38
880.124	0.38
880.86	0.38
881.597	3.38
882.333	0.38
883.069	-0.62
883.806	1.38
884.542	0.38
885.278	-0.62
886.014	2.38
886.749	0.38
887.485	-0.62
888.221	1.38
888.957	0.38
889.692	1.38
890.428	1.38
891.163	1.38
891.899	0.38
892.634	2.38
893.369	1.38
894.104	0.38
894.839	3.38
895.574	-0.62
896.309	0.38
897.044	1.38
897.779	0.38
898.514	1.38
899.248	-0.62
899.983	4.38
900.717	2.38
901.452	1.38
902.186	-0.62
902.92	-1.62
903.654	1.38
904.389	1.38
905.123	0.38
905.857	0.38
906.59	0.38
907.324	0.38
908.058	1.38
908.792	-0.62
909.525	-0.62
910.259	1.38
910.992	-1.62
911.726	-0.62
912.459	0.38
913.192	0.38
913.925	0.38
914.658	0.38
915.391	0.38
916.124	0.38
916.857	-0.62
917.59	-1.62
918.323	-0.62
919.055	-0.62
919.788	1.38
920.521	1.38
921.253	-1.62
921.985	1.38
922.718	-0.62
923.45	-0.62
924.182	0.38
924.914	-0.62
925.646	0.38
926.378	1.38
927.11	0.38
927.841	1.38
928.573	-0.62
929.305	2.38
930.036	0.38
930.768	-0.62
931.499	1.38
932.23	2.38
932.962	-0.62
933.693	-2.62
934.424	0.38
935.155	-1.62
935.886	3.38
936.617	1.38
937.348	-0.62
938.078	1.38
938.809	0.38
939.54	-0.62
940.27	0.38
941.001	-1.62
941.731	0.38
942.461	0.38
943.191	1.38
943.922	0.38
944.652	1.38
945.382	-0.62
946.112	1.38
946.841	1.38
947.571	1.38
948.301	2.38
949.031	-1.62
949.76	0.38
950.49	2.38
951.219	-0.62
951.948	0.38
952.678	-0.62
953.407	0.38
954.136	-1.62
954.865	0.38
955.594	-1.62
956.323	1.38
957.052	0.38
957.78	0.38
958.509	1.38
959.238	1.38
959.966	0.38
960.695	0.38
961.423	1.38
962.151	0.38
962.88	0.38
963.608	1.38
964.336	0.38
965.064	1.38
965.792	0.38
966.52	0.38
967.247	0.38
967.975	-0.62
968.703	-0.62
969.43	2.38
970.158	1.38
970.885	-2.62
971.613	-1.62
972.34	-1.62
973.067	0.38
973.794	0.38
974.521	0.38
975.248	-0.62
975.975	0.38
976.702	-1.62
977.429	0.38
978.156	2.38
978.882	0.38
979.609	0.38
980.335	0.38
981.062	3.38
981.788	-0.62
982.514	2.38
983.24	-1.62
983.967	1.38
984.693	1.38
985.419	-0.62
986.144	-0.62
986.87	2.38
987.596	0.38
988.322	-1.62
989.047	1.38
989.773	1.38
990.498	-1.62
991.224	0.38
991.949	-0.62
992.674	2.38
993.399	1.38
994.124	0.38
994.849	3.38
995.574	-1.62
996.299	1.38
997.024	1.38
997.749	2.38
998.473	1.38
999.198	0.38
999.922	0.38
1000.647	0.38
1001.371	3.38
1002.095	0.38
1002.82	-1.62
1003.544	0.38
1004.268	0.38
1004.992	0.38
1005.716	-2.62
1006.439	-0.62
1007.163	3.38
1007.887	-1.62
1008.611	0.38
1009.334	0.38
1010.058	0.38
1010.781	1.38
1011.504	1.38
1012.228	2.38
1012.951	-2.62
1013.674	1.38
1014.397	0.38
1015.12	-1.62
