节点500_145_QEPB04081__629__11-38-58-210.txt的数据

Date: Wed Nov 12 11:38:58 CST 2025
User: PC
Spectrometer: QEPB0408
触发模式: 0
积分时间 (秒): 1.000000E-2
Scans to average: 1
启用暗噪声校正: true
启用非线性校正: false
滑动平均宽度: 0
X轴模式: Wavelengths
Number of Pixels in Spectrum: 1044
>>>>>Begin Spectral Data<<<<<
220.843	-2.88
221.644	0.12
222.444	1.12
223.244	-1.88
224.045	0.12
224.845	-1.88
225.645	-4.88
226.445	-1.88
227.245	-0.88
228.045	0.12
228.845	0.12
229.645	0.12
230.444	1.12
231.244	-1.88
232.043	1.12
232.843	2.12
233.642	2.12
234.442	-0.88
235.241	0.12
236.04	2.12
236.839	-1.88
237.638	2.12
238.437	2.12
239.236	2.12
240.035	2.12
240.833	2.12
241.632	-1.88
242.43	2.12
243.229	1.12
244.027	0.12
244.826	2.12
245.624	1.12
246.422	2.12
247.22	2.12
248.018	2.12
248.816	3.12
249.614	2.12
250.412	2.12
251.21	1.12
252.007	2.12
252.805	2.12
253.602	2.12
254.4	3.12
255.197	1.12
255.994	3.12
256.791	1.12
257.589	2.12
258.386	5.12
259.183	5.12
259.979	3.12
260.776	2.12
261.573	5.12
262.37	4.12
263.166	4.12
263.963	5.12
264.759	5.12
265.556	6.12
266.352	3.12
267.148	5.12
267.944	7.12
268.74	5.12
269.536	3.12
270.332	7.12
271.128	5.12
271.924	6.12
272.719	8.12
273.515	7.12
274.311	7.12
275.106	9.12
275.901	7.12
276.697	7.12
277.492	9.12
278.287	7.12
279.082	8.12
279.877	9.12
280.672	9.12
281.467	9.12
282.262	9.12
283.056	10.12
283.851	7.12
284.646	9.12
285.44	10.12
286.234	8.12
287.029	10.12
287.823	10.12
288.617	11.12
289.411	10.12
290.205	10.12
290.999	10.12
291.793	10.12
292.587	11.12
293.381	11.12
294.174	11.12
294.968	9.12
295.761	9.12
296.555	7.12
297.348	7.12
298.141	9.12
298.935	11.12
299.728	9.12
300.521	7.12
301.314	6.12
302.107	10.12
302.899	8.12
303.692	6.12
304.485	9.12
305.277	9.12
306.07	8.12
306.862	9.12
307.655	7.12
308.447	10.12
309.239	6.12
310.031	7.12
310.823	5.12
311.615	7.12
312.407	7.12
313.199	6.12
313.991	6.12
314.783	7.12
315.574	3.12
316.366	4.12
317.157	6.12
317.949	5.12
318.74	6.12
319.531	5.12
320.322	5.12
321.113	4.12
321.904	4.12
322.695	5.12
323.486	3.12
324.277	3.12
325.068	4.12
325.858	3.12
326.649	5.12
327.439	6.12
328.23	4.12
329.02	3.12
329.81	3.12
330.6	2.12
331.391	3.12
332.181	4.12
332.971	2.12
333.76	2.12
334.55	4.12
335.34	2.12
336.13	4.12
336.919	3.12
337.709	2.12
338.498	4.12
339.287	2.12
340.077	4.12
340.866	2.12
341.655	2.12
342.444	2.12
343.233	3.12
344.022	3.12
344.811	3.12
345.6	3.12
346.388	3.12
347.177	4.12
347.965	3.12
348.754	1.12
349.542	2.12
350.33	2.12
351.119	3.12
351.907	2.12
352.695	3.12
353.483	2.12
354.271	2.12
355.059	2.12
355.846	4.12
356.634	0.12
357.422	3.12
358.209	3.12
358.997	3.12
359.784	2.12
360.571	2.12
361.359	1.12
362.146	2.12
362.933	1.12
363.72	3.12
364.507	1.12
365.294	1.12
366.081	3.12
366.867	0.12
367.654	2.12
368.44	4.12
369.227	1.12
370.013	2.12
370.8	1.12
371.586	4.12
372.372	0.12
373.158	4.12
373.944	2.12
374.73	3.12
375.516	4.12
376.302	1.12
377.088	3.12
377.873	2.12
378.659	2.12
379.445	4.12
380.23	5.12
381.015	1.12
381.801	0.12
382.586	4.12
383.371	-0.88
384.156	3.12
384.941	1.12
385.726	1.12
386.511	4.12
387.296	3.12
388.08	3.12
388.865	0.12
389.649	3.12
390.434	2.12
391.218	2.12
392.003	2.12
392.787	1.12
393.571	3.12
394.355	3.12
395.139	3.12
395.923	3.12
396.707	4.12
397.491	2.12
398.274	1.12
399.058	2.12
399.842	2.12
400.625	2.12
401.408	3.12
402.192	2.12
402.975	4.12
403.758	2.12
404.541	3.12
405.324	2.12
406.107	5.12
406.89	2.12
407.673	6.12
408.456	6.12
409.238	4.12
410.021	4.12
410.803	3.12
411.586	4.12
412.368	6.12
413.151	5.12
413.933	3.12
414.715	1.12
415.497	5.12
416.279	3.12
417.061	3.12
417.843	3.12
418.624	7.12
419.406	5.12
420.188	5.12
420.969	4.12
421.751	3.12
422.532	8.12
423.313	4.12
424.095	6.12
424.876	6.12
425.657	4.12
426.438	5.12
427.219	4.12
428	6.12
428.78	3.12
429.561	6.12
430.342	8.12
431.122	6.12
431.903	7.12
432.683	8.12
433.464	6.12
434.244	9.12
435.024	7.12
435.804	8.12
436.584	8.12
437.364	11.12
438.144	9.12
438.924	10.12
439.704	10.12
440.483	11.12
441.263	13.12
442.042	13.12
442.822	14.12
443.601	18.12
444.38	14.12
445.16	16.12
445.939	17.12
446.718	19.12
447.497	18.12
448.276	21.12
449.054	20.12
449.833	25.12
450.612	28.12
451.391	25.12
452.169	33.12
452.948	33.12
453.726	40.12
454.504	40.12
455.282	47.12
456.061	49.12
456.839	57.12
457.617	58.12
458.395	65.12
459.172	72.12
459.95	80.12
460.728	94.12
461.506	101.12
462.283	115.12
463.061	125.12
463.838	140.12
464.615	156.12
465.393	170.12
466.17	187.12
466.947	216.12
467.724	235.12
468.501	265.12
469.278	287.12
470.055	326.12
470.831	360.12
471.608	405.12
472.385	439.12
473.161	492.12
473.938	549.12
474.714	596.12
475.49	649.12
476.266	718.12
477.043	802.12
477.819	881.12
478.595	965.12
479.371	1051.12
480.146	1152.12
480.922	1267.12
481.698	1390.12
482.473	1516.12
483.249	1672.12
484.024	1819.12
484.8	2005.12
485.575	2190.12
486.35	2395.12
487.126	2615.12
487.901	2859.12
488.676	3109.12
489.451	3403.12
490.225	3707.12
491	4069.12
491.775	4436.12
492.55	4813.12
493.324	5285.12
494.099	5729.12
494.873	6215.12
495.647	6708.12
496.422	7312.12
497.196	7852.12
497.97	8473.12
498.744	9085.12
499.518	9745.12
500.292	10351.12
501.066	11043.12
501.839	11683.12
502.613	12247.12
503.387	12835.12
504.16	13349.12
504.934	13917.12
505.707	14300.12
506.48	14576.12
507.253	14882.12
508.027	15047.12
508.8	15203.12
509.573	15151.12
510.346	15058.12
511.118	14881.12
511.891	14644.12
512.664	14369.12
513.437	13944.12
514.209	13569.12
514.982	13046.12
515.754	12602.12
516.526	12155.12
517.298	11633.12
518.071	11146.12
518.843	10730.12
519.615	10204.12
520.387	9846.12
521.159	9418.12
521.93	9072.12
522.702	8731.12
523.474	8409.12
524.245	8060.12
525.017	7706.12
525.788	7425.12
526.56	7148.12
527.331	6848.12
528.102	6544.12
528.873	6303.12
529.644	6002.12
530.415	5775.12
531.186	5498.12
531.957	5254.12
532.728	4987.12
533.498	4725.12
534.269	4497.12
535.039	4266.12
535.81	4049.12
536.58	3834.12
537.351	3625.12
538.121	3413.12
538.891	3255.12
539.661	3072.12
540.431	2906.12
541.201	2738.12
541.971	2588.12
542.741	2467.12
543.51	2330.12
544.28	2221.12
545.05	2092.12
545.819	1994.12
546.588	1911.12
547.358	1795.12
548.127	1714.12
548.896	1639.12
549.665	1557.12
550.434	1469.12
551.203	1377.12
551.972	1324.12
552.741	1268.12
553.51	1197.12
554.278	1128.12
555.047	1071.12
555.815	1006.12
556.584	957.12
557.352	904.12
558.121	860.12
558.889	799.12
559.657	764.12
560.425	712.12
561.193	681.12
561.961	632.12
562.729	596.12
563.496	571.12
564.264	538.12
565.032	503.12
565.799	477.12
566.567	450.12
567.334	422.12
568.101	401.12
568.869	380.12
569.636	354.12
570.403	341.12
571.17	321.12
571.937	297.12
572.704	289.12
573.471	261.12
574.237	249.12
575.004	235.12
575.771	220.12
576.537	215.12
577.303	192.12
578.07	185.12
578.836	172.12
579.602	165.12
580.368	159.12
581.134	147.12
581.9	139.12
582.666	137.12
583.432	128.12
584.198	123.12
584.964	112.12
585.729	105.12
586.495	97.12
587.26	94.12
588.025	91.12
588.791	87.12
589.556	80.12
590.321	75.12
591.086	69.12
591.851	68.12
592.616	65.12
593.381	61.12
594.146	57.12
594.911	54.12
595.675	52.12
596.44	49.12
597.204	46.12
597.969	46.12
598.733	44.12
599.497	39.12
600.261	39.12
601.025	37.12
601.79	37.12
602.553	31.12
603.317	31.12
604.081	32.12
604.845	29.12
605.609	29.12
606.372	26.12
607.136	28.12
607.899	24.12
608.662	22.12
609.426	23.12
610.189	23.12
610.952	19.12
611.715	21.12
612.478	18.12
613.241	18.12
614.004	18.12
614.767	18.12
615.529	15.12
616.292	14.12
617.055	16.12
617.817	13.12
618.579	17.12
619.342	14.12
620.104	14.12
620.866	13.12
621.628	11.12
622.39	12.12
623.152	11.12
623.914	11.12
624.676	12.12
625.438	12.12
626.199	10.12
626.961	10.12
627.722	9.12
628.484	8.12
629.245	9.12
630.006	8.12
630.768	9.12
631.529	9.12
632.29	7.12
633.051	8.12
633.812	6.12
634.573	8.12
635.333	5.12
636.094	6.12
636.855	4.12
637.615	6.12
638.376	7.12
639.136	5.12
639.896	6.12
640.657	6.12
641.417	5.12
642.177	5.12
642.937	5.12
643.697	6.12
644.457	3.12
645.216	6.12
645.976	3.12
646.736	6.12
647.495	4.12
648.255	4.12
649.014	6.12
649.774	3.12
650.533	4.12
651.292	5.12
652.051	5.12
652.81	5.12
653.569	4.12
654.328	4.12
655.087	5.12
655.846	5.12
656.604	5.12
657.363	3.12
658.121	3.12
658.88	2.12
659.638	5.12
660.397	1.12
661.155	3.12
661.913	4.12
662.671	3.12
663.429	4.12
664.187	3.12
664.945	2.12
665.703	0.12
666.46	3.12
667.218	3.12
667.976	2.12
668.733	3.12
669.49	1.12
670.248	2.12
671.005	2.12
671.762	1.12
672.519	2.12
673.276	2.12
674.033	1.12
674.79	2.12
675.547	3.12
676.304	4.12
677.06	2.12
677.817	4.12
678.574	4.12
679.33	2.12
680.086	1.12
680.843	1.12
681.599	2.12
682.355	1.12
683.111	2.12
683.867	2.12
684.623	3.12
685.379	1.12
686.135	2.12
686.89	2.12
687.646	3.12
688.402	2.12
689.157	1.12
689.912	1.12
690.668	1.12
691.423	1.12
692.178	0.12
692.933	1.12
693.688	2.12
694.443	0.12
695.198	2.12
695.953	2.12
696.708	0.12
697.462	0.12
698.217	3.12
698.972	3.12
699.726	1.12
700.48	2.12
701.235	2.12
701.989	1.12
702.743	1.12
703.497	-0.88
704.251	2.12
705.005	3.12
705.759	1.12
706.513	1.12
707.266	2.12
708.02	0.12
708.774	2.12
709.527	1.12
710.28	1.12
711.034	3.12
711.787	1.12
712.54	3.12
713.293	1.12
714.046	3.12
714.799	1.12
715.552	0.12
716.305	3.12
717.058	2.12
717.81	3.12
718.563	0.12
719.315	1.12
720.068	1.12
720.82	2.12
721.573	3.12
722.325	3.12
723.077	1.12
723.829	2.12
724.581	1.12
725.333	2.12
726.085	0.12
726.836	2.12
727.588	1.12
728.34	3.12
729.091	1.12
729.843	0.12
730.594	1.12
731.346	1.12
732.097	-0.88
732.848	1.12
733.599	2.12
734.35	2.12
735.101	1.12
735.852	2.12
736.603	3.12
737.354	2.12
738.104	0.12
738.855	3.12
739.605	0.12
740.356	2.12
741.106	2.12
741.856	1.12
742.607	1.12
743.357	2.12
744.107	2.12
744.857	1.12
745.607	2.12
746.357	2.12
747.106	1.12
747.856	1.12
748.606	3.12
749.355	2.12
750.105	1.12
750.854	2.12
751.603	2.12
752.353	1.12
753.102	2.12
753.851	0.12
754.6	4.12
755.349	4.12
756.098	2.12
756.847	1.12
757.595	2.12
758.344	3.12
759.093	0.12
759.841	3.12
760.589	4.12
761.338	2.12
762.086	1.12
762.834	3.12
763.582	2.12
764.331	3.12
765.079	2.12
765.826	2.12
766.574	3.12
767.322	5.12
768.07	5.12
768.817	5.12
769.565	5.12
770.312	4.12
771.06	4.12
771.807	2.12
772.554	4.12
773.302	1.12
774.049	4.12
774.796	5.12
775.543	5.12
776.29	2.12
777.036	3.12
777.783	3.12
778.53	1.12
779.276	3.12
780.023	3.12
780.769	5.12
781.516	3.12
782.262	3.12
783.008	5.12
783.754	7.12
784.5	5.12
785.246	5.12
785.992	4.12
786.738	5.12
787.484	5.12
788.23	5.12
788.975	5.12
789.721	3.12
790.466	4.12
791.212	6.12
791.957	5.12
792.702	5.12
793.447	5.12
794.193	3.12
794.938	4.12
795.683	4.12
796.427	4.12
797.172	6.12
797.917	4.12
798.662	7.12
799.406	5.12
800.151	4.12
800.895	4.12
801.64	3.12
802.384	4.12
803.128	3.12
803.872	5.12
804.616	2.12
805.36	4.12
806.104	3.12
806.848	1.12
807.592	5.12
808.336	2.12
809.079	4.12
809.823	4.12
810.566	4.12
811.31	4.12
812.053	5.12
812.796	2.12
813.539	3.12
814.283	2.12
815.026	2.12
815.769	4.12
816.511	1.12
817.254	0.12
817.997	4.12
818.74	0.12
819.482	3.12
820.225	3.12
820.967	2.12
821.71	0.12
822.452	2.12
823.194	2.12
823.936	4.12
824.678	3.12
825.42	2.12
826.162	2.12
826.904	0.12
827.646	1.12
828.388	1.12
829.129	2.12
829.871	5.12
830.612	2.12
831.354	0.12
832.095	1.12
832.836	3.12
833.577	5.12
834.319	1.12
835.06	2.12
835.801	2.12
836.542	1.12
837.282	2.12
838.023	2.12
838.764	2.12
839.504	1.12
840.245	2.12
840.985	3.12
841.726	2.12
842.466	3.12
843.206	3.12
843.946	3.12
844.687	0.12
845.427	3.12
846.166	2.12
846.906	1.12
847.646	2.12
848.386	2.12
849.125	3.12
849.865	1.12
850.605	1.12
851.344	0.12
852.083	3.12
852.823	2.12
853.562	1.12
854.301	4.12
855.04	1.12
855.779	3.12
856.518	1.12
857.257	0.12
857.995	2.12
858.734	-0.88
859.473	1.12
860.211	1.12
860.95	2.12
861.688	1.12
862.426	1.12
863.165	3.12
863.903	1.12
864.641	1.12
865.379	0.12
866.117	0.12
866.855	2.12
867.593	0.12
868.33	0.12
869.068	-0.88
869.806	0.12
870.543	-0.88
871.28	1.12
872.018	0.12
872.755	3.12
873.492	2.12
874.229	1.12
874.967	1.12
875.703	1.12
876.44	1.12
877.177	2.12
877.914	-1.88
878.651	-0.88
879.387	0.12
880.124	-1.88
880.86	0.12
881.597	1.12
882.333	2.12
883.069	1.12
883.806	2.12
884.542	0.12
885.278	2.12
886.014	-0.88
886.749	0.12
887.485	-0.88
888.221	0.12
888.957	1.12
889.692	0.12
890.428	2.12
891.163	0.12
891.899	-0.88
892.634	0.12
893.369	-1.88
894.104	1.12
894.839	1.12
895.574	1.12
896.309	1.12
897.044	0.12
897.779	0.12
898.514	-1.88
899.248	2.12
899.983	0.12
900.717	1.12
901.452	-0.88
902.186	-1.88
902.92	-1.88
903.654	1.12
904.389	1.12
905.123	1.12
905.857	-1.88
906.59	0.12
907.324	0.12
908.058	3.12
908.792	-1.88
909.525	2.12
910.259	0.12
910.992	0.12
911.726	1.12
912.459	0.12
913.192	1.12
913.925	-0.88
914.658	1.12
915.391	0.12
916.124	0.12
916.857	1.12
917.59	-1.88
918.323	1.12
919.055	-1.88
919.788	1.12
920.521	0.12
921.253	1.12
921.985	1.12
922.718	-1.88
923.45	1.12
924.182	0.12
924.914	-0.88
925.646	2.12
926.378	0.12
927.11	1.12
927.841	1.12
928.573	0.12
929.305	1.12
930.036	0.12
930.768	0.12
931.499	0.12
932.23	2.12
932.962	-1.88
933.693	0.12
934.424	-0.88
935.155	0.12
935.886	-0.88
936.617	1.12
937.348	-1.88
938.078	-2.88
938.809	-0.88
939.54	0.12
940.27	-0.88
941.001	0.12
941.731	1.12
942.461	-0.88
943.191	0.12
943.922	-1.88
944.652	-1.88
945.382	1.12
946.112	0.12
946.841	-0.88
947.571	0.12
948.301	-0.88
949.031	0.12
949.76	-0.88
950.49	1.12
951.219	0.12
951.948	1.12
952.678	-0.88
953.407	-1.88
954.136	1.12
954.865	0.12
955.594	0.12
956.323	1.12
957.052	-1.88
957.78	2.12
958.509	-0.88
959.238	-2.88
959.966	-0.88
960.695	1.12
961.423	-0.88
962.151	0.12
962.88	0.12
963.608	-0.88
964.336	4.12
965.064	1.12
965.792	-0.88
966.52	1.12
967.247	-2.88
967.975	0.12
968.703	0.12
969.43	0.12
970.158	0.12
970.885	1.12
971.613	-1.88
972.34	1.12
973.067	-0.88
973.794	-0.88
974.521	1.12
975.248	0.12
975.975	-1.88
976.702	0.12
977.429	-0.88
978.156	0.12
978.882	-2.88
979.609	1.12
980.335	0.12
981.062	1.12
981.788	0.12
982.514	0.12
983.24	-0.88
983.967	-1.88
984.693	-0.88
985.419	-0.88
986.144	-2.88
986.87	0.12
987.596	-1.88
988.322	1.12
989.047	-0.88
989.773	2.12
990.498	-0.88
991.224	-0.88
991.949	0.12
992.674	-0.88
993.399	1.12
994.124	1.12
994.849	0.12
995.574	1.12
996.299	0.12
997.024	0.12
997.749	1.12
998.473	0.12
999.198	-0.88
999.922	0.12
1000.647	0.12
1001.371	3.12
1002.095	0.12
1002.82	-1.88
1003.544	0.12
1004.268	-0.88
1004.992	1.12
1005.716	-2.88
1006.439	-0.88
1007.163	-0.88
1007.887	-0.88
1008.611	1.12
1009.334	-0.88
1010.058	-0.88
1010.781	-1.88
1011.504	-0.88
1012.228	-0.88
1012.951	1.12
1013.674	0.12
1014.397	-0.88
1015.12	-1.88
