节点500_145_QEPB04081__312__11-33-58-453.txt的数据

Date: Wed Nov 12 11:33:58 CST 2025
User: PC
Spectrometer: QEPB0408
触发模式: 0
积分时间 (秒): 1.000000E-2
Scans to average: 1
启用暗噪声校正: true
启用非线性校正: false
滑动平均宽度: 0
X轴模式: Wavelengths
Number of Pixels in Spectrum: 1044
>>>>>Begin Spectral Data<<<<<
220.843	0.25
221.644	-0.75
222.444	1.25
223.244	2.25
224.045	1.25
224.845	2.25
225.645	-0.75
226.445	0.25
227.245	0.25
228.045	1.25
228.845	2.25
229.645	-0.75
230.444	2.25
231.244	0.25
232.043	-1.75
232.843	1.25
233.642	2.25
234.442	2.25
235.241	3.25
236.04	2.25
236.839	1.25
237.638	1.25
238.437	4.25
239.236	2.25
240.035	4.25
240.833	0.25
241.632	2.25
242.43	1.25
243.229	2.25
244.027	2.25
244.826	2.25
245.624	3.25
246.422	3.25
247.22	2.25
248.018	3.25
248.816	3.25
249.614	4.25
250.412	1.25
251.21	5.25
252.007	5.25
252.805	3.25
253.602	4.25
254.4	3.25
255.197	4.25
255.994	4.25
256.791	6.25
257.589	5.25
258.386	3.25
259.183	4.25
259.979	5.25
260.776	3.25
261.573	4.25
262.37	6.25
263.166	5.25
263.963	6.25
264.759	6.25
265.556	4.25
266.352	6.25
267.148	7.25
267.944	9.25
268.74	7.25
269.536	10.25
270.332	8.25
271.128	8.25
271.924	8.25
272.719	11.25
273.515	10.25
274.311	8.25
275.106	9.25
275.901	11.25
276.697	11.25
277.492	11.25
278.287	12.25
279.082	10.25
279.877	13.25
280.672	10.25
281.467	11.25
282.262	10.25
283.056	11.25
283.851	13.25
284.646	11.25
285.44	9.25
286.234	8.25
287.029	11.25
287.823	10.25
288.617	15.25
289.411	12.25
290.205	11.25
290.999	10.25
291.793	11.25
292.587	12.25
293.381	11.25
294.174	9.25
294.968	14.25
295.761	10.25
296.555	11.25
297.348	11.25
298.141	9.25
298.935	7.25
299.728	11.25
300.521	10.25
301.314	10.25
302.107	11.25
302.899	10.25
303.692	12.25
304.485	8.25
305.277	10.25
306.07	7.25
306.862	9.25
307.655	8.25
308.447	8.25
309.239	10.25
310.031	7.25
310.823	8.25
311.615	6.25
312.407	5.25
313.199	9.25
313.991	8.25
314.783	8.25
315.574	7.25
316.366	8.25
317.157	4.25
317.949	6.25
318.74	6.25
319.531	5.25
320.322	7.25
321.113	6.25
321.904	4.25
322.695	6.25
323.486	3.25
324.277	3.25
325.068	4.25
325.858	7.25
326.649	4.25
327.439	7.25
328.23	6.25
329.02	3.25
329.81	5.25
330.6	2.25
331.391	4.25
332.181	4.25
332.971	6.25
333.76	4.25
334.55	5.25
335.34	4.25
336.13	6.25
336.919	5.25
337.709	6.25
338.498	6.25
339.287	7.25
340.077	4.25
340.866	4.25
341.655	5.25
342.444	4.25
343.233	4.25
344.022	6.25
344.811	7.25
345.6	3.25
346.388	2.25
347.177	4.25
347.965	4.25
348.754	4.25
349.542	4.25
350.33	2.25
351.119	2.25
351.907	4.25
352.695	2.25
353.483	6.25
354.271	4.25
355.059	4.25
355.846	7.25
356.634	1.25
357.422	3.25
358.209	5.25
358.997	4.25
359.784	6.25
360.571	4.25
361.359	5.25
362.146	3.25
362.933	4.25
363.72	5.25
364.507	6.25
365.294	6.25
366.081	1.25
366.867	4.25
367.654	3.25
368.44	3.25
369.227	3.25
370.013	5.25
370.8	4.25
371.586	1.25
372.372	3.25
373.158	3.25
373.944	3.25
374.73	6.25
375.516	3.25
376.302	5.25
377.088	5.25
377.873	5.25
378.659	3.25
379.445	3.25
380.23	2.25
381.015	3.25
381.801	5.25
382.586	3.25
383.371	4.25
384.156	3.25
384.941	2.25
385.726	3.25
386.511	4.25
387.296	4.25
388.08	4.25
388.865	3.25
389.649	3.25
390.434	5.25
391.218	4.25
392.003	6.25
392.787	4.25
393.571	4.25
394.355	3.25
395.139	3.25
395.923	6.25
396.707	3.25
397.491	2.25
398.274	4.25
399.058	6.25
399.842	5.25
400.625	4.25
401.408	5.25
402.192	3.25
402.975	3.25
403.758	4.25
404.541	3.25
405.324	6.25
406.107	5.25
406.89	4.25
407.673	5.25
408.456	6.25
409.238	6.25
410.021	6.25
410.803	6.25
411.586	5.25
412.368	6.25
413.151	6.25
413.933	5.25
414.715	7.25
415.497	3.25
416.279	7.25
417.061	7.25
417.843	9.25
418.624	7.25
419.406	6.25
420.188	7.25
420.969	3.25
421.751	7.25
422.532	6.25
423.313	8.25
424.095	6.25
424.876	5.25
425.657	7.25
426.438	8.25
427.219	6.25
428	8.25
428.78	8.25
429.561	9.25
430.342	9.25
431.122	8.25
431.903	6.25
432.683	10.25
433.464	8.25
434.244	8.25
435.024	8.25
435.804	9.25
436.584	11.25
437.364	10.25
438.144	11.25
438.924	12.25
439.704	10.25
440.483	10.25
441.263	10.25
442.042	14.25
442.822	15.25
443.601	15.25
444.38	16.25
445.16	14.25
445.939	18.25
446.718	18.25
447.497	21.25
448.276	19.25
449.054	22.25
449.833	24.25
450.612	25.25
451.391	26.25
452.169	29.25
452.948	31.25
453.726	35.25
454.504	39.25
455.282	43.25
456.061	46.25
456.839	50.25
457.617	55.25
458.395	63.25
459.172	67.25
459.95	77.25
460.728	81.25
461.506	97.25
462.283	104.25
463.061	112.25
463.838	131.25
464.615	142.25
465.393	158.25
466.17	174.25
466.947	194.25
467.724	215.25
468.501	245.25
469.278	274.25
470.055	302.25
470.831	335.25
471.608	367.25
472.385	411.25
473.161	455.25
473.938	511.25
474.714	571.25
475.49	627.25
476.266	696.25
477.043	777.25
477.819	852.25
478.595	956.25
479.371	1039.25
480.146	1161.25
480.922	1273.25
481.698	1400.25
482.473	1534.25
483.249	1709.25
484.024	1867.25
484.8	2062.25
485.575	2279.25
486.35	2496.25
487.126	2761.25
487.901	3037.25
488.676	3338.25
489.451	3677.25
490.225	4031.25
491	4427.25
491.775	4870.25
492.55	5331.25
493.324	5851.25
494.099	6424.25
494.873	6961.25
495.647	7611.25
496.422	8242.25
497.196	8937.25
497.97	9643.25
498.744	10364.25
499.518	11150.25
500.292	11869.25
501.066	12559.25
501.839	13274.25
502.613	13950.25
503.387	14572.25
504.16	15114.25
504.934	15578.25
505.707	15941.25
506.48	16197.25
507.253	16352.25
508.027	16454.25
508.8	16454.25
509.573	16270.25
510.346	15979.25
511.118	15684.25
511.891	15287.25
512.664	14856.25
513.437	14337.25
514.209	13824.25
514.982	13309.25
515.754	12789.25
516.526	12183.25
517.298	11688.25
518.071	11110.25
518.843	10657.25
519.615	10218.25
520.387	9781.25
521.159	9439.25
521.93	8984.25
522.702	8656.25
523.474	8355.25
524.245	8005.25
525.017	7653.25
525.788	7365.25
526.56	7074.25
527.331	6775.25
528.102	6472.25
528.873	6188.25
529.644	5933.25
530.415	5657.25
531.186	5370.25
531.957	5103.25
532.728	4843.25
533.498	4597.25
534.269	4330.25
535.039	4082.25
535.81	3889.25
536.58	3678.25
537.351	3434.25
538.121	3266.25
538.891	3097.25
539.661	2901.25
540.431	2761.25
541.201	2600.25
541.971	2468.25
542.741	2347.25
543.51	2204.25
544.28	2106.25
545.05	1991.25
545.819	1908.25
546.588	1814.25
547.358	1707.25
548.127	1640.25
548.896	1564.25
549.665	1474.25
550.434	1389.25
551.203	1326.25
551.972	1261.25
552.741	1208.25
553.51	1129.25
554.278	1085.25
555.047	1011.25
555.815	942.25
556.584	896.25
557.352	830.25
558.121	805.25
558.889	750.25
559.657	710.25
560.425	658.25
561.193	628.25
561.961	604.25
562.729	556.25
563.496	537.25
564.264	496.25
565.032	473.25
565.799	460.25
566.567	423.25
567.334	401.25
568.101	376.25
568.869	345.25
569.636	329.25
570.403	308.25
571.17	301.25
571.937	281.25
572.704	268.25
573.471	249.25
574.237	236.25
575.004	219.25
575.771	213.25
576.537	196.25
577.303	182.25
578.07	173.25
578.836	167.25
579.602	155.25
580.368	141.25
581.134	138.25
581.9	128.25
582.666	126.25
583.432	120.25
584.198	112.25
584.964	108.25
585.729	100.25
586.495	90.25
587.26	92.25
588.025	84.25
588.791	77.25
589.556	79.25
590.321	72.25
591.086	69.25
591.851	65.25
592.616	62.25
593.381	59.25
594.146	57.25
594.911	50.25
595.675	47.25
596.44	48.25
597.204	45.25
597.969	46.25
598.733	41.25
599.497	40.25
600.261	40.25
601.025	36.25
601.79	34.25
602.553	32.25
603.317	32.25
604.081	30.25
604.845	29.25
605.609	29.25
606.372	27.25
607.136	23.25
607.899	24.25
608.662	24.25
609.426	25.25
610.189	20.25
610.952	18.25
611.715	20.25
612.478	18.25
613.241	19.25
614.004	17.25
614.767	21.25
615.529	17.25
616.292	14.25
617.055	14.25
617.817	14.25
618.579	16.25
619.342	15.25
620.104	12.25
620.866	14.25
621.628	12.25
622.39	11.25
623.152	11.25
623.914	10.25
624.676	12.25
625.438	14.25
626.199	10.25
626.961	9.25
627.722	11.25
628.484	12.25
629.245	8.25
630.006	13.25
630.768	8.25
631.529	12.25
632.29	8.25
633.051	8.25
633.812	8.25
634.573	5.25
635.333	5.25
636.094	5.25
636.855	7.25
637.615	6.25
638.376	8.25
639.136	8.25
639.896	6.25
640.657	9.25
641.417	8.25
642.177	5.25
642.937	7.25
643.697	5.25
644.457	7.25
645.216	6.25
645.976	4.25
646.736	6.25
647.495	6.25
648.255	5.25
649.014	3.25
649.774	4.25
650.533	4.25
651.292	5.25
652.051	6.25
652.81	4.25
653.569	5.25
654.328	3.25
655.087	6.25
655.846	4.25
656.604	4.25
657.363	5.25
658.121	5.25
658.88	4.25
659.638	4.25
660.397	6.25
661.155	3.25
661.913	5.25
662.671	3.25
663.429	3.25
664.187	3.25
664.945	4.25
665.703	3.25
666.46	3.25
667.218	5.25
667.976	3.25
668.733	4.25
669.49	3.25
670.248	3.25
671.005	5.25
671.762	4.25
672.519	3.25
673.276	5.25
674.033	2.25
674.79	2.25
675.547	4.25
676.304	4.25
677.06	1.25
677.817	4.25
678.574	2.25
679.33	6.25
680.086	5.25
680.843	3.25
681.599	5.25
682.355	3.25
683.111	3.25
683.867	2.25
684.623	3.25
685.379	2.25
686.135	3.25
686.89	2.25
687.646	4.25
688.402	2.25
689.157	2.25
689.912	3.25
690.668	3.25
691.423	2.25
692.178	4.25
692.933	2.25
693.688	2.25
694.443	1.25
695.198	3.25
695.953	2.25
696.708	2.25
697.462	4.25
698.217	3.25
698.972	3.25
699.726	2.25
700.48	4.25
701.235	2.25
701.989	1.25
702.743	3.25
703.497	2.25
704.251	4.25
705.005	1.25
705.759	2.25
706.513	3.25
707.266	5.25
708.02	4.25
708.774	0.25
709.527	5.25
710.28	3.25
711.034	3.25
711.787	3.25
712.54	2.25
713.293	2.25
714.046	1.25
714.799	-0.75
715.552	4.25
716.305	3.25
717.058	3.25
717.81	2.25
718.563	2.25
719.315	0.25
720.068	1.25
720.82	1.25
721.573	2.25
722.325	3.25
723.077	5.25
723.829	3.25
724.581	2.25
725.333	4.25
726.085	2.25
726.836	1.25
727.588	4.25
728.34	2.25
729.091	4.25
729.843	3.25
730.594	3.25
731.346	4.25
732.097	1.25
732.848	4.25
733.599	3.25
734.35	5.25
735.101	7.25
735.852	3.25
736.603	5.25
737.354	3.25
738.104	3.25
738.855	3.25
739.605	3.25
740.356	3.25
741.106	3.25
741.856	1.25
742.607	2.25
743.357	6.25
744.107	3.25
744.857	6.25
745.607	3.25
746.357	2.25
747.106	2.25
747.856	2.25
748.606	3.25
749.355	3.25
750.105	3.25
750.854	2.25
751.603	5.25
752.353	6.25
753.102	3.25
753.851	3.25
754.6	6.25
755.349	6.25
756.098	4.25
756.847	4.25
757.595	3.25
758.344	3.25
759.093	5.25
759.841	3.25
760.589	3.25
761.338	1.25
762.086	2.25
762.834	6.25
763.582	5.25
764.331	4.25
765.079	6.25
765.826	5.25
766.574	4.25
767.322	4.25
768.07	6.25
768.817	5.25
769.565	4.25
770.312	4.25
771.06	6.25
771.807	4.25
772.554	1.25
773.302	6.25
774.049	5.25
774.796	5.25
775.543	6.25
776.29	6.25
777.036	6.25
777.783	6.25
778.53	8.25
779.276	2.25
780.023	6.25
780.769	4.25
781.516	5.25
782.262	8.25
783.008	6.25
783.754	8.25
784.5	8.25
785.246	4.25
785.992	5.25
786.738	5.25
787.484	6.25
788.23	4.25
788.975	5.25
789.721	7.25
790.466	4.25
791.212	7.25
791.957	6.25
792.702	7.25
793.447	6.25
794.193	6.25
794.938	5.25
795.683	4.25
796.427	5.25
797.172	6.25
797.917	7.25
798.662	5.25
799.406	6.25
800.151	5.25
800.895	6.25
801.64	6.25
802.384	5.25
803.128	5.25
803.872	6.25
804.616	7.25
805.36	5.25
806.104	5.25
806.848	4.25
807.592	7.25
808.336	6.25
809.079	2.25
809.823	6.25
810.566	4.25
811.31	6.25
812.053	4.25
812.796	3.25
813.539	5.25
814.283	2.25
815.026	6.25
815.769	7.25
816.511	5.25
817.254	4.25
817.997	3.25
818.74	3.25
819.482	5.25
820.225	6.25
820.967	2.25
821.71	5.25
822.452	5.25
823.194	2.25
823.936	4.25
824.678	5.25
825.42	6.25
826.162	4.25
826.904	3.25
827.646	0.25
828.388	2.25
829.129	6.25
829.871	1.25
830.612	4.25
831.354	3.25
832.095	3.25
832.836	2.25
833.577	3.25
834.319	3.25
835.06	2.25
835.801	4.25
836.542	3.25
837.282	2.25
838.023	3.25
838.764	3.25
839.504	3.25
840.245	3.25
840.985	6.25
841.726	3.25
842.466	3.25
843.206	2.25
843.946	3.25
844.687	6.25
845.427	3.25
846.166	2.25
846.906	2.25
847.646	3.25
848.386	3.25
849.125	3.25
849.865	3.25
850.605	1.25
851.344	2.25
852.083	0.25
852.823	4.25
853.562	2.25
854.301	3.25
855.04	2.25
855.779	3.25
856.518	2.25
857.257	4.25
857.995	1.25
858.734	4.25
859.473	5.25
860.211	0.25
860.95	1.25
861.688	4.25
862.426	2.25
863.165	3.25
863.903	4.25
864.641	3.25
865.379	1.25
866.117	2.25
866.855	3.25
867.593	0.25
868.33	2.25
869.068	1.25
869.806	2.25
870.543	2.25
871.28	3.25
872.018	2.25
872.755	2.25
873.492	2.25
874.229	2.25
874.967	1.25
875.703	0.25
876.44	0.25
877.177	1.25
877.914	0.25
878.651	1.25
879.387	3.25
880.124	1.25
880.86	2.25
881.597	2.25
882.333	3.25
883.069	1.25
883.806	2.25
884.542	2.25
885.278	1.25
886.014	3.25
886.749	3.25
887.485	0.25
888.221	1.25
888.957	-0.75
889.692	2.25
890.428	1.25
891.163	1.25
891.899	1.25
892.634	1.25
893.369	4.25
894.104	3.25
894.839	1.25
895.574	2.25
896.309	2.25
897.044	1.25
897.779	2.25
898.514	1.25
899.248	2.25
899.983	1.25
900.717	1.25
901.452	2.25
902.186	1.25
902.92	1.25
903.654	1.25
904.389	2.25
905.123	1.25
905.857	1.25
906.59	2.25
907.324	2.25
908.058	-0.75
908.792	0.25
909.525	1.25
910.259	3.25
910.992	1.25
911.726	1.25
912.459	-0.75
913.192	-0.75
913.925	1.25
914.658	0.25
915.391	2.25
916.124	2.25
916.857	-0.75
917.59	0.25
918.323	0.25
919.055	0.25
919.788	1.25
920.521	2.25
921.253	1.25
921.985	-0.75
922.718	2.25
923.45	0.25
924.182	-1.75
924.914	0.25
925.646	1.25
926.378	0.25
927.11	0.25
927.841	1.25
928.573	0.25
929.305	4.25
930.036	1.25
930.768	1.25
931.499	3.25
932.23	1.25
932.962	0.25
933.693	1.25
934.424	1.25
935.155	-0.75
935.886	0.25
936.617	1.25
937.348	2.25
938.078	1.25
938.809	1.25
939.54	1.25
940.27	1.25
941.001	2.25
941.731	0.25
942.461	-0.75
943.191	2.25
943.922	2.25
944.652	1.25
945.382	0.25
946.112	0.25
946.841	3.25
947.571	1.25
948.301	1.25
949.031	0.25
949.76	2.25
950.49	-1.75
951.219	1.25
951.948	0.25
952.678	1.25
953.407	2.25
954.136	1.25
954.865	1.25
955.594	0.25
956.323	2.25
957.052	1.25
957.78	1.25
958.509	2.25
959.238	2.25
959.966	1.25
960.695	0.25
961.423	-0.75
962.151	-0.75
962.88	3.25
963.608	2.25
964.336	0.25
965.064	1.25
965.792	2.25
966.52	0.25
967.247	0.25
967.975	1.25
968.703	2.25
969.43	2.25
970.158	1.25
970.885	0.25
971.613	0.25
972.34	-1.75
973.067	1.25
973.794	4.25
974.521	-1.75
975.248	3.25
975.975	1.25
976.702	3.25
977.429	0.25
978.156	2.25
978.882	1.25
979.609	-1.75
980.335	0.25
981.062	2.25
981.788	1.25
982.514	2.25
983.24	-0.75
983.967	1.25
984.693	0.25
985.419	2.25
986.144	0.25
986.87	1.25
987.596	2.25
988.322	0.25
989.047	1.25
989.773	0.25
990.498	3.25
991.224	-0.75
991.949	3.25
992.674	2.25
993.399	2.25
994.124	3.25
994.849	0.25
995.574	0.25
996.299	1.25
997.024	-0.75
997.749	2.25
998.473	3.25
999.198	0.25
999.922	1.25
1000.647	2.25
1001.371	3.25
1002.095	-1.75
1002.82	-0.75
1003.544	-0.75
1004.268	2.25
1004.992	-0.75
1005.716	-0.75
1006.439	3.25
1007.163	1.25
1007.887	-0.75
1008.611	0.25
1009.334	2.25
1010.058	0.25
1010.781	1.25
1011.504	2.25
1012.228	2.25
1012.951	-1.75
1013.674	0.25
1014.397	0.25
1015.12	1.25
