节点500_145_QEPB04081__551__11-37-42-455.txt的数据

Date: Wed Nov 12 11:37:42 CST 2025
User: PC
Spectrometer: QEPB0408
触发模式: 0
积分时间 (秒): 1.000000E-2
Scans to average: 1
启用暗噪声校正: true
启用非线性校正: false
滑动平均宽度: 0
X轴模式: Wavelengths
Number of Pixels in Spectrum: 1044
>>>>>Begin Spectral Data<<<<<
220.843	-0.25
221.644	-1.25
222.444	0.75
223.244	-0.25
224.045	0.75
224.845	-0.25
225.645	-2.25
226.445	-0.25
227.245	0.75
228.045	-0.25
228.845	-0.25
229.645	0.75
230.444	0.75
231.244	-0.25
232.043	1.75
232.843	0.75
233.642	-1.25
234.442	0.75
235.241	2.75
236.04	0.75
236.839	0.75
237.638	2.75
238.437	-2.25
239.236	0.75
240.035	-0.25
240.833	-1.25
241.632	-0.25
242.43	2.75
243.229	2.75
244.027	-0.25
244.826	0.75
245.624	1.75
246.422	-0.25
247.22	1.75
248.018	0.75
248.816	1.75
249.614	2.75
250.412	0.75
251.21	1.75
252.007	0.75
252.805	3.75
253.602	0.75
254.4	0.75
255.197	0.75
255.994	1.75
256.791	3.75
257.589	3.75
258.386	3.75
259.183	4.75
259.979	2.75
260.776	2.75
261.573	0.75
262.37	3.75
263.166	2.75
263.963	4.75
264.759	2.75
265.556	4.75
266.352	3.75
267.148	3.75
267.944	5.75
268.74	5.75
269.536	6.75
270.332	6.75
271.128	5.75
271.924	7.75
272.719	8.75
273.515	8.75
274.311	6.75
275.106	7.75
275.901	7.75
276.697	8.75
277.492	4.75
278.287	6.75
279.082	9.75
279.877	6.75
280.672	10.75
281.467	6.75
282.262	7.75
283.056	7.75
283.851	10.75
284.646	9.75
285.44	10.75
286.234	9.75
287.029	9.75
287.823	9.75
288.617	9.75
289.411	7.75
290.205	10.75
290.999	9.75
291.793	8.75
292.587	9.75
293.381	6.75
294.174	7.75
294.968	9.75
295.761	7.75
296.555	7.75
297.348	8.75
298.141	9.75
298.935	9.75
299.728	8.75
300.521	7.75
301.314	8.75
302.107	9.75
302.899	7.75
303.692	8.75
304.485	4.75
305.277	7.75
306.07	5.75
306.862	8.75
307.655	4.75
308.447	7.75
309.239	8.75
310.031	5.75
310.823	5.75
311.615	5.75
312.407	7.75
313.199	3.75
313.991	5.75
314.783	3.75
315.574	4.75
316.366	4.75
317.157	2.75
317.949	4.75
318.74	0.75
319.531	2.75
320.322	4.75
321.113	4.75
321.904	5.75
322.695	4.75
323.486	5.75
324.277	4.75
325.068	4.75
325.858	2.75
326.649	4.75
327.439	2.75
328.23	2.75
329.02	4.75
329.81	2.75
330.6	2.75
331.391	2.75
332.181	-1.25
332.971	4.75
333.76	3.75
334.55	2.75
335.34	1.75
336.13	4.75
336.919	3.75
337.709	3.75
338.498	4.75
339.287	4.75
340.077	4.75
340.866	4.75
341.655	2.75
342.444	0.75
343.233	3.75
344.022	1.75
344.811	4.75
345.6	3.75
346.388	3.75
347.177	1.75
347.965	1.75
348.754	2.75
349.542	3.75
350.33	1.75
351.119	0.75
351.907	1.75
352.695	3.75
353.483	4.75
354.271	3.75
355.059	0.75
355.846	2.75
356.634	4.75
357.422	3.75
358.209	2.75
358.997	2.75
359.784	0.75
360.571	6.75
361.359	2.75
362.146	2.75
362.933	3.75
363.72	1.75
364.507	1.75
365.294	1.75
366.081	1.75
366.867	3.75
367.654	2.75
368.44	0.75
369.227	3.75
370.013	4.75
370.8	2.75
371.586	2.75
372.372	-0.25
373.158	1.75
373.944	2.75
374.73	1.75
375.516	1.75
376.302	1.75
377.088	2.75
377.873	0.75
378.659	2.75
379.445	0.75
380.23	-0.25
381.015	1.75
381.801	4.75
382.586	-1.25
383.371	0.75
384.156	2.75
384.941	1.75
385.726	1.75
386.511	0.75
387.296	1.75
388.08	2.75
388.865	2.75
389.649	1.75
390.434	2.75
391.218	3.75
392.003	3.75
392.787	4.75
393.571	2.75
394.355	2.75
395.139	3.75
395.923	3.75
396.707	3.75
397.491	2.75
398.274	1.75
399.058	3.75
399.842	2.75
400.625	4.75
401.408	2.75
402.192	1.75
402.975	2.75
403.758	4.75
404.541	3.75
405.324	1.75
406.107	3.75
406.89	2.75
407.673	1.75
408.456	0.75
409.238	5.75
410.021	1.75
410.803	5.75
411.586	4.75
412.368	5.75
413.151	2.75
413.933	5.75
414.715	4.75
415.497	3.75
416.279	2.75
417.061	3.75
417.843	3.75
418.624	4.75
419.406	3.75
420.188	4.75
420.969	4.75
421.751	4.75
422.532	4.75
423.313	4.75
424.095	5.75
424.876	4.75
425.657	6.75
426.438	6.75
427.219	7.75
428	3.75
428.78	6.75
429.561	6.75
430.342	7.75
431.122	8.75
431.903	6.75
432.683	8.75
433.464	8.75
434.244	9.75
435.024	7.75
435.804	8.75
436.584	8.75
437.364	10.75
438.144	10.75
438.924	7.75
439.704	9.75
440.483	10.75
441.263	8.75
442.042	11.75
442.822	12.75
443.601	15.75
444.38	13.75
445.16	15.75
445.939	16.75
446.718	17.75
447.497	18.75
448.276	20.75
449.054	20.75
449.833	22.75
450.612	25.75
451.391	28.75
452.169	29.75
452.948	33.75
453.726	38.75
454.504	36.75
455.282	43.75
456.061	50.75
456.839	49.75
457.617	54.75
458.395	64.75
459.172	71.75
459.95	76.75
460.728	85.75
461.506	103.75
462.283	108.75
463.061	123.75
463.838	132.75
464.615	148.75
465.393	165.75
466.17	186.75
466.947	209.75
467.724	231.75
468.501	258.75
469.278	283.75
470.055	317.75
470.831	355.75
471.608	394.75
472.385	430.75
473.161	484.75
473.938	529.75
474.714	588.75
475.49	647.75
476.266	713.75
477.043	797.75
477.819	870.75
478.595	968.75
479.371	1061.75
480.146	1173.75
480.922	1266.75
481.698	1405.75
482.473	1548.75
483.249	1680.75
484.024	1845.75
484.8	2021.75
485.575	2239.75
486.35	2414.75
487.126	2667.75
487.901	2924.75
488.676	3208.75
489.451	3533.75
490.225	3811.75
491	4200.75
491.775	4568.75
492.55	5017.75
493.324	5453.75
494.099	5943.75
494.873	6436.75
495.647	7014.75
496.422	7606.75
497.196	8198.75
497.97	8865.75
498.744	9523.75
499.518	10150.75
500.292	10913.75
501.066	11534.75
501.839	12161.75
502.613	12808.75
503.387	13410.75
504.16	14008.75
504.934	14430.75
505.707	14812.75
506.48	15182.75
507.253	15386.75
508.027	15581.75
508.8	15623.75
509.573	15592.75
510.346	15425.75
511.118	15252.75
511.891	14900.75
512.664	14561.75
513.437	14149.75
514.209	13746.75
514.982	13207.75
515.754	12701.75
516.526	12205.75
517.298	11727.75
518.071	11192.75
518.843	10733.75
519.615	10277.75
520.387	9834.75
521.159	9477.75
521.93	9102.75
522.702	8722.75
523.474	8388.75
524.245	8044.75
525.017	7775.75
525.788	7433.75
526.56	7099.75
527.331	6808.75
528.102	6525.75
528.873	6273.75
529.644	6020.75
530.415	5751.75
531.186	5470.75
531.957	5231.75
532.728	4972.75
533.498	4729.75
534.269	4469.75
535.039	4218.75
535.81	4002.75
536.58	3779.75
537.351	3572.75
538.121	3371.75
538.891	3195.75
539.661	3023.75
540.431	2868.75
541.201	2720.75
541.971	2557.75
542.741	2428.75
543.51	2301.75
544.28	2185.75
545.05	2068.75
545.819	1965.75
546.588	1883.75
547.358	1788.75
548.127	1699.75
548.896	1623.75
549.665	1535.75
550.434	1462.75
551.203	1376.75
551.972	1313.75
552.741	1253.75
553.51	1183.75
554.278	1115.75
555.047	1058.75
555.815	989.75
556.584	936.75
557.352	890.75
558.121	844.75
558.889	791.75
559.657	737.75
560.425	710.75
561.193	663.75
561.961	630.75
562.729	591.75
563.496	560.75
564.264	526.75
565.032	500.75
565.799	463.75
566.567	441.75
567.334	409.75
568.101	396.75
568.869	375.75
569.636	347.75
570.403	330.75
571.17	317.75
571.937	298.75
572.704	278.75
573.471	261.75
574.237	251.75
575.004	230.75
575.771	220.75
576.537	200.75
577.303	202.75
578.07	180.75
578.836	173.75
579.602	158.75
580.368	155.75
581.134	139.75
581.9	140.75
582.666	130.75
583.432	120.75
584.198	115.75
584.964	113.75
585.729	102.75
586.495	98.75
587.26	93.75
588.025	80.75
588.791	83.75
589.556	78.75
590.321	77.75
591.086	68.75
591.851	60.75
592.616	62.75
593.381	60.75
594.146	55.75
594.911	53.75
595.675	48.75
596.44	49.75
597.204	49.75
597.969	45.75
598.733	43.75
599.497	38.75
600.261	38.75
601.025	38.75
601.79	32.75
602.553	33.75
603.317	32.75
604.081	29.75
604.845	28.75
605.609	26.75
606.372	28.75
607.136	25.75
607.899	21.75
608.662	24.75
609.426	19.75
610.189	18.75
610.952	17.75
611.715	17.75
612.478	18.75
613.241	16.75
614.004	16.75
614.767	15.75
615.529	14.75
616.292	16.75
617.055	13.75
617.817	15.75
618.579	13.75
619.342	11.75
620.104	10.75
620.866	11.75
621.628	10.75
622.39	12.75
623.152	10.75
623.914	9.75
624.676	9.75
625.438	8.75
626.199	9.75
626.961	8.75
627.722	7.75
628.484	9.75
629.245	8.75
630.006	7.75
630.768	8.75
631.529	9.75
632.29	6.75
633.051	5.75
633.812	5.75
634.573	3.75
635.333	4.75
636.094	4.75
636.855	6.75
637.615	4.75
638.376	5.75
639.136	5.75
639.896	4.75
640.657	4.75
641.417	3.75
642.177	4.75
642.937	3.75
643.697	5.75
644.457	5.75
645.216	5.75
645.976	4.75
646.736	5.75
647.495	2.75
648.255	3.75
649.014	2.75
649.774	5.75
650.533	2.75
651.292	4.75
652.051	1.75
652.81	4.75
653.569	2.75
654.328	3.75
655.087	5.75
655.846	1.75
656.604	5.75
657.363	1.75
658.121	1.75
658.88	4.75
659.638	0.75
660.397	2.75
661.155	2.75
661.913	3.75
662.671	1.75
663.429	2.75
664.187	1.75
664.945	1.75
665.703	1.75
666.46	3.75
667.218	1.75
667.976	2.75
668.733	3.75
669.49	2.75
670.248	4.75
671.005	3.75
671.762	0.75
672.519	3.75
673.276	1.75
674.033	1.75
674.79	2.75
675.547	1.75
676.304	2.75
677.06	1.75
677.817	0.75
678.574	2.75
679.33	1.75
680.086	2.75
680.843	-0.25
681.599	1.75
682.355	3.75
683.111	2.75
683.867	0.75
684.623	2.75
685.379	1.75
686.135	0.75
686.89	0.75
687.646	2.75
688.402	2.75
689.157	-0.25
689.912	2.75
690.668	1.75
691.423	1.75
692.178	2.75
692.933	1.75
693.688	1.75
694.443	1.75
695.198	-0.25
695.953	1.75
696.708	-0.25
697.462	1.75
698.217	0.75
698.972	-0.25
699.726	0.75
700.48	1.75
701.235	3.75
701.989	2.75
702.743	2.75
703.497	3.75
704.251	1.75
705.005	0.75
705.759	0.75
706.513	1.75
707.266	1.75
708.02	0.75
708.774	2.75
709.527	1.75
710.28	0.75
711.034	0.75
711.787	0.75
712.54	1.75
713.293	2.75
714.046	0.75
714.799	0.75
715.552	0.75
716.305	0.75
717.058	0.75
717.81	-0.25
718.563	-1.25
719.315	1.75
720.068	3.75
720.82	2.75
721.573	0.75
722.325	-0.25
723.077	1.75
723.829	3.75
724.581	1.75
725.333	1.75
726.085	-0.25
726.836	-1.25
727.588	1.75
728.34	0.75
729.091	1.75
729.843	1.75
730.594	-0.25
731.346	2.75
732.097	1.75
732.848	2.75
733.599	0.75
734.35	1.75
735.101	1.75
735.852	0.75
736.603	2.75
737.354	2.75
738.104	2.75
738.855	-0.25
739.605	2.75
740.356	1.75
741.106	-0.25
741.856	1.75
742.607	1.75
743.357	2.75
744.107	3.75
744.857	2.75
745.607	2.75
746.357	1.75
747.106	2.75
747.856	3.75
748.606	2.75
749.355	0.75
750.105	1.75
750.854	1.75
751.603	0.75
752.353	3.75
753.102	1.75
753.851	2.75
754.6	1.75
755.349	4.75
756.098	1.75
756.847	2.75
757.595	3.75
758.344	2.75
759.093	4.75
759.841	2.75
760.589	2.75
761.338	1.75
762.086	2.75
762.834	1.75
763.582	0.75
764.331	2.75
765.079	1.75
765.826	1.75
766.574	2.75
767.322	3.75
768.07	1.75
768.817	2.75
769.565	3.75
770.312	2.75
771.06	2.75
771.807	3.75
772.554	2.75
773.302	3.75
774.049	2.75
774.796	4.75
775.543	2.75
776.29	3.75
777.036	2.75
777.783	1.75
778.53	4.75
779.276	3.75
780.023	3.75
780.769	4.75
781.516	4.75
782.262	5.75
783.008	0.75
783.754	2.75
784.5	2.75
785.246	3.75
785.992	4.75
786.738	3.75
787.484	4.75
788.23	4.75
788.975	6.75
789.721	2.75
790.466	2.75
791.212	4.75
791.957	4.75
792.702	4.75
793.447	4.75
794.193	5.75
794.938	3.75
795.683	4.75
796.427	4.75
797.172	3.75
797.917	2.75
798.662	4.75
799.406	3.75
800.151	3.75
800.895	2.75
801.64	2.75
802.384	1.75
803.128	4.75
803.872	3.75
804.616	5.75
805.36	3.75
806.104	5.75
806.848	1.75
807.592	3.75
808.336	2.75
809.079	2.75
809.823	4.75
810.566	2.75
811.31	0.75
812.053	2.75
812.796	3.75
813.539	1.75
814.283	1.75
815.026	4.75
815.769	1.75
816.511	3.75
817.254	2.75
817.997	1.75
818.74	3.75
819.482	4.75
820.225	-0.25
820.967	-0.25
821.71	1.75
822.452	1.75
823.194	4.75
823.936	3.75
824.678	0.75
825.42	3.75
826.162	1.75
826.904	2.75
827.646	2.75
828.388	-1.25
829.129	1.75
829.871	0.75
830.612	-0.25
831.354	2.75
832.095	3.75
832.836	0.75
833.577	1.75
834.319	1.75
835.06	1.75
835.801	1.75
836.542	-0.25
837.282	0.75
838.023	0.75
838.764	-1.25
839.504	2.75
840.245	2.75
840.985	5.75
841.726	1.75
842.466	1.75
843.206	3.75
843.946	-0.25
844.687	0.75
845.427	0.75
846.166	2.75
846.906	1.75
847.646	1.75
848.386	2.75
849.125	1.75
849.865	0.75
850.605	0.75
851.344	2.75
852.083	0.75
852.823	0.75
853.562	4.75
854.301	1.75
855.04	-0.25
855.779	1.75
856.518	1.75
857.257	1.75
857.995	-0.25
858.734	0.75
859.473	1.75
860.211	1.75
860.95	0.75
861.688	-0.25
862.426	0.75
863.165	-1.25
863.903	1.75
864.641	1.75
865.379	-0.25
866.117	-0.25
866.855	0.75
867.593	-0.25
868.33	0.75
869.068	-0.25
869.806	-1.25
870.543	3.75
871.28	0.75
872.018	0.75
872.755	-1.25
873.492	-0.25
874.229	1.75
874.967	0.75
875.703	0.75
876.44	-1.25
877.177	-0.25
877.914	0.75
878.651	0.75
879.387	0.75
880.124	0.75
880.86	0.75
881.597	0.75
882.333	0.75
883.069	0.75
883.806	-0.25
884.542	-1.25
885.278	-1.25
886.014	0.75
886.749	-0.25
887.485	2.75
888.221	1.75
888.957	-0.25
889.692	0.75
890.428	-0.25
891.163	0.75
891.899	0.75
892.634	-0.25
893.369	0.75
894.104	-0.25
894.839	0.75
895.574	0.75
896.309	0.75
897.044	0.75
897.779	1.75
898.514	-0.25
899.248	-0.25
899.983	0.75
900.717	-0.25
901.452	0.75
902.186	0.75
902.92	0.75
903.654	0.75
904.389	0.75
905.123	1.75
905.857	-2.25
906.59	2.75
907.324	-2.25
908.058	-0.25
908.792	-0.25
909.525	-0.25
910.259	0.75
910.992	-0.25
911.726	0.75
912.459	1.75
913.192	0.75
913.925	-0.25
914.658	-0.25
915.391	-1.25
916.124	-1.25
916.857	-0.25
917.59	-0.25
918.323	-0.25
919.055	-0.25
919.788	-3.25
920.521	-0.25
921.253	0.75
921.985	-2.25
922.718	1.75
923.45	0.75
924.182	1.75
924.914	-0.25
925.646	1.75
926.378	1.75
927.11	-1.25
927.841	-0.25
928.573	0.75
929.305	-0.25
930.036	-0.25
930.768	-0.25
931.499	-0.25
932.23	-1.25
932.962	0.75
933.693	-1.25
934.424	-0.25
935.155	-2.25
935.886	0.75
936.617	0.75
937.348	-0.25
938.078	-1.25
938.809	-1.25
939.54	0.75
940.27	-0.25
941.001	-1.25
941.731	-0.25
942.461	-2.25
943.191	0.75
943.922	-1.25
944.652	-2.25
945.382	-0.25
946.112	-0.25
946.841	-2.25
947.571	0.75
948.301	0.75
949.031	0.75
949.76	1.75
950.49	-0.25
951.219	-1.25
951.948	-2.25
952.678	-0.25
953.407	-0.25
954.136	-2.25
954.865	0.75
955.594	-0.25
956.323	0.75
957.052	-0.25
957.78	-2.25
958.509	-2.25
959.238	-0.25
959.966	-0.25
960.695	0.75
961.423	-0.25
962.151	-2.25
962.88	-0.25
963.608	-0.25
964.336	-2.25
965.064	-1.25
965.792	-0.25
966.52	-0.25
967.247	-0.25
967.975	-2.25
968.703	-2.25
969.43	-1.25
970.158	-2.25
970.885	-1.25
971.613	-0.25
972.34	0.75
973.067	-1.25
973.794	2.75
974.521	-2.25
975.248	1.75
975.975	1.75
976.702	-0.25
977.429	-0.25
978.156	0.75
978.882	1.75
979.609	0.75
980.335	-2.25
981.062	0.75
981.788	-0.25
982.514	-1.25
983.24	-2.25
983.967	-1.25
984.693	-2.25
985.419	0.75
986.144	-0.25
986.87	-2.25
987.596	-0.25
988.322	-0.25
989.047	0.75
989.773	-0.25
990.498	-0.25
991.224	0.75
991.949	-0.25
992.674	-1.25
993.399	-2.25
994.124	0.75
994.849	-2.25
995.574	3.75
996.299	-0.25
997.024	0.75
997.749	-0.25
998.473	0.75
999.198	0.75
999.922	-0.25
1000.647	-0.25
1001.371	5.75
1002.095	-2.25
1002.82	-1.25
1003.544	-2.25
1004.268	-1.25
1004.992	-1.25
1005.716	-1.25
1006.439	-3.25
1007.163	-1.25
1007.887	-1.25
1008.611	-0.25
1009.334	-2.25
1010.058	-0.25
1010.781	-0.25
1011.504	0.75
1012.228	-1.25
1012.951	-0.25
1013.674	-0.25
1014.397	0.75
1015.12	-0.25
