节点500_145_QEPB04081__95__11-30-29-588.txt的数据

Date: Wed Nov 12 11:30:29 CST 2025
User: PC
Spectrometer: QEPB0408
触发模式: 0
积分时间 (秒): 1.000000E-2
Scans to average: 1
启用暗噪声校正: true
启用非线性校正: false
滑动平均宽度: 0
X轴模式: Wavelengths
Number of Pixels in Spectrum: 1044
>>>>>Begin Spectral Data<<<<<
220.843	0.38
221.644	-0.62
222.444	0.38
223.244	0.38
224.045	2.38
224.845	1.38
225.645	1.38
226.445	1.38
227.245	2.38
228.045	2.38
228.845	-0.62
229.645	1.38
230.444	2.38
231.244	4.38
232.043	-0.62
232.843	1.38
233.642	0.38
234.442	1.38
235.241	1.38
236.04	-0.62
236.839	-1.62
237.638	-2.62
238.437	1.38
239.236	0.38
240.035	3.38
240.833	-0.62
241.632	1.38
242.43	0.38
243.229	3.38
244.027	2.38
244.826	1.38
245.624	1.38
246.422	2.38
247.22	3.38
248.018	2.38
248.816	1.38
249.614	1.38
250.412	-0.62
251.21	2.38
252.007	2.38
252.805	3.38
253.602	2.38
254.4	2.38
255.197	2.38
255.994	4.38
256.791	2.38
257.589	4.38
258.386	4.38
259.183	6.38
259.979	5.38
260.776	4.38
261.573	7.38
262.37	5.38
263.166	6.38
263.963	8.38
264.759	5.38
265.556	6.38
266.352	6.38
267.148	6.38
267.944	8.38
268.74	7.38
269.536	6.38
270.332	9.38
271.128	9.38
271.924	5.38
272.719	8.38
273.515	8.38
274.311	9.38
275.106	9.38
275.901	6.38
276.697	10.38
277.492	8.38
278.287	9.38
279.082	10.38
279.877	7.38
280.672	10.38
281.467	11.38
282.262	11.38
283.056	10.38
283.851	10.38
284.646	10.38
285.44	10.38
286.234	10.38
287.029	12.38
287.823	12.38
288.617	12.38
289.411	10.38
290.205	10.38
290.999	10.38
291.793	12.38
292.587	10.38
293.381	11.38
294.174	12.38
294.968	9.38
295.761	12.38
296.555	10.38
297.348	9.38
298.141	12.38
298.935	10.38
299.728	10.38
300.521	9.38
301.314	9.38
302.107	9.38
302.899	6.38
303.692	10.38
304.485	9.38
305.277	8.38
306.07	7.38
306.862	7.38
307.655	9.38
308.447	8.38
309.239	9.38
310.031	7.38
310.823	9.38
311.615	7.38
312.407	7.38
313.199	5.38
313.991	5.38
314.783	5.38
315.574	5.38
316.366	4.38
317.157	5.38
317.949	5.38
318.74	4.38
319.531	5.38
320.322	5.38
321.113	5.38
321.904	6.38
322.695	3.38
323.486	4.38
324.277	4.38
325.068	7.38
325.858	4.38
326.649	3.38
327.439	3.38
328.23	4.38
329.02	1.38
329.81	3.38
330.6	4.38
331.391	3.38
332.181	2.38
332.971	2.38
333.76	5.38
334.55	7.38
335.34	3.38
336.13	4.38
336.919	3.38
337.709	3.38
338.498	5.38
339.287	3.38
340.077	4.38
340.866	5.38
341.655	4.38
342.444	4.38
343.233	4.38
344.022	5.38
344.811	2.38
345.6	1.38
346.388	2.38
347.177	2.38
347.965	1.38
348.754	3.38
349.542	3.38
350.33	2.38
351.119	1.38
351.907	6.38
352.695	2.38
353.483	5.38
354.271	1.38
355.059	2.38
355.846	3.38
356.634	2.38
357.422	4.38
358.209	3.38
358.997	2.38
359.784	2.38
360.571	2.38
361.359	3.38
362.146	2.38
362.933	3.38
363.72	2.38
364.507	3.38
365.294	3.38
366.081	1.38
366.867	5.38
367.654	3.38
368.44	3.38
369.227	2.38
370.013	2.38
370.8	2.38
371.586	3.38
372.372	3.38
373.158	4.38
373.944	5.38
374.73	2.38
375.516	4.38
376.302	2.38
377.088	2.38
377.873	2.38
378.659	2.38
379.445	2.38
380.23	5.38
381.015	4.38
381.801	1.38
382.586	3.38
383.371	4.38
384.156	2.38
384.941	4.38
385.726	2.38
386.511	3.38
387.296	2.38
388.08	2.38
388.865	3.38
389.649	2.38
390.434	2.38
391.218	1.38
392.003	3.38
392.787	3.38
393.571	2.38
394.355	5.38
395.139	2.38
395.923	2.38
396.707	3.38
397.491	3.38
398.274	3.38
399.058	5.38
399.842	2.38
400.625	4.38
401.408	5.38
402.192	5.38
402.975	5.38
403.758	2.38
404.541	3.38
405.324	5.38
406.107	6.38
406.89	3.38
407.673	4.38
408.456	5.38
409.238	5.38
410.021	3.38
410.803	5.38
411.586	5.38
412.368	7.38
413.151	5.38
413.933	4.38
414.715	5.38
415.497	5.38
416.279	5.38
417.061	3.38
417.843	4.38
418.624	6.38
419.406	6.38
420.188	5.38
420.969	7.38
421.751	7.38
422.532	6.38
423.313	7.38
424.095	5.38
424.876	7.38
425.657	8.38
426.438	5.38
427.219	6.38
428	7.38
428.78	6.38
429.561	9.38
430.342	10.38
431.122	8.38
431.903	4.38
432.683	10.38
433.464	6.38
434.244	9.38
435.024	11.38
435.804	8.38
436.584	8.38
437.364	10.38
438.144	9.38
438.924	12.38
439.704	12.38
440.483	10.38
441.263	12.38
442.042	13.38
442.822	13.38
443.601	13.38
444.38	13.38
445.16	16.38
445.939	17.38
446.718	14.38
447.497	20.38
448.276	21.38
449.054	23.38
449.833	20.38
450.612	23.38
451.391	25.38
452.169	25.38
452.948	32.38
453.726	30.38
454.504	37.38
455.282	39.38
456.061	43.38
456.839	47.38
457.617	46.38
458.395	58.38
459.172	61.38
459.95	70.38
460.728	75.38
461.506	88.38
462.283	95.38
463.061	109.38
463.838	118.38
464.615	130.38
465.393	145.38
466.17	162.38
466.947	182.38
467.724	204.38
468.501	224.38
469.278	246.38
470.055	274.38
470.831	315.38
471.608	345.38
472.385	393.38
473.161	438.38
473.938	484.38
474.714	542.38
475.49	596.38
476.266	678.38
477.043	739.38
477.819	822.38
478.595	928.38
479.371	1016.38
480.146	1124.38
480.922	1265.38
481.698	1387.38
482.473	1547.38
483.249	1726.38
484.024	1906.38
484.8	2114.38
485.575	2363.38
486.35	2595.38
487.126	2866.38
487.901	3173.38
488.676	3525.38
489.451	3901.38
490.225	4286.38
491	4756.38
491.775	5209.38
492.55	5785.38
493.324	6348.38
494.099	6999.38
494.873	7640.38
495.647	8301.38
496.422	9059.38
497.196	9871.38
497.97	10655.38
498.744	11441.38
499.518	12250.38
500.292	13029.38
501.066	13824.38
501.839	14555.38
502.613	15239.38
503.387	15838.38
504.16	16389.38
504.934	16824.38
505.707	17122.38
506.48	17341.38
507.253	17341.38
508.027	17363.38
508.8	17190.38
509.573	16957.38
510.346	16579.38
511.118	16128.38
511.891	15582.38
512.664	15034.38
513.437	14451.38
514.209	13903.38
514.982	13276.38
515.754	12713.38
516.526	12083.38
517.298	11485.38
518.071	11014.38
518.843	10510.38
519.615	10037.38
520.387	9621.38
521.159	9265.38
521.93	8912.38
522.702	8521.38
523.474	8218.38
524.245	7919.38
525.017	7574.38
525.788	7278.38
526.56	6976.38
527.331	6697.38
528.102	6391.38
528.873	6077.38
529.644	5803.38
530.415	5533.38
531.186	5248.38
531.957	4944.38
532.728	4693.38
533.498	4427.38
534.269	4187.38
535.039	3967.38
535.81	3724.38
536.58	3537.38
537.351	3326.38
538.121	3145.38
538.891	2946.38
539.661	2808.38
540.431	2657.38
541.201	2511.38
541.971	2363.38
542.741	2263.38
543.51	2129.38
544.28	2022.38
545.05	1927.38
545.819	1819.38
546.588	1731.38
547.358	1656.38
548.127	1564.38
548.896	1494.38
549.665	1426.38
550.434	1367.38
551.203	1280.38
551.972	1200.38
552.741	1138.38
553.51	1084.38
554.278	1016.38
555.047	963.38
555.815	900.38
556.584	843.38
557.352	792.38
558.121	754.38
558.889	701.38
559.657	669.38
560.425	629.38
561.193	603.38
561.961	564.38
562.729	527.38
563.496	495.38
564.264	474.38
565.032	450.38
565.799	422.38
566.567	400.38
567.334	379.38
568.101	358.38
568.869	334.38
569.636	313.38
570.403	300.38
571.17	282.38
571.937	269.38
572.704	248.38
573.471	231.38
574.237	225.38
575.004	206.38
575.771	204.38
576.537	186.38
577.303	179.38
578.07	162.38
578.836	156.38
579.602	140.38
580.368	136.38
581.134	127.38
581.9	121.38
582.666	119.38
583.432	111.38
584.198	104.38
584.964	99.38
585.729	93.38
586.495	82.38
587.26	88.38
588.025	80.38
588.791	75.38
589.556	68.38
590.321	66.38
591.086	67.38
591.851	61.38
592.616	58.38
593.381	56.38
594.146	53.38
594.911	50.38
595.675	46.38
596.44	43.38
597.204	43.38
597.969	38.38
598.733	38.38
599.497	36.38
600.261	37.38
601.025	33.38
601.79	34.38
602.553	34.38
603.317	26.38
604.081	27.38
604.845	27.38
605.609	27.38
606.372	28.38
607.136	23.38
607.899	24.38
608.662	21.38
609.426	21.38
610.189	21.38
610.952	18.38
611.715	17.38
612.478	17.38
613.241	17.38
614.004	16.38
614.767	17.38
615.529	15.38
616.292	15.38
617.055	17.38
617.817	13.38
618.579	12.38
619.342	12.38
620.104	13.38
620.866	12.38
621.628	15.38
622.39	11.38
623.152	9.38
623.914	9.38
624.676	8.38
625.438	11.38
626.199	10.38
626.961	8.38
627.722	9.38
628.484	7.38
629.245	5.38
630.006	8.38
630.768	9.38
631.529	6.38
632.29	7.38
633.051	8.38
633.812	5.38
634.573	8.38
635.333	7.38
636.094	6.38
636.855	8.38
637.615	5.38
638.376	6.38
639.136	6.38
639.896	6.38
640.657	4.38
641.417	8.38
642.177	5.38
642.937	6.38
643.697	6.38
644.457	4.38
645.216	5.38
645.976	2.38
646.736	4.38
647.495	5.38
648.255	5.38
649.014	4.38
649.774	4.38
650.533	5.38
651.292	6.38
652.051	3.38
652.81	3.38
653.569	4.38
654.328	0.38
655.087	2.38
655.846	4.38
656.604	3.38
657.363	5.38
658.121	4.38
658.88	2.38
659.638	3.38
660.397	3.38
661.155	3.38
661.913	4.38
662.671	2.38
663.429	5.38
664.187	2.38
664.945	4.38
665.703	3.38
666.46	1.38
667.218	3.38
667.976	3.38
668.733	5.38
669.49	3.38
670.248	2.38
671.005	0.38
671.762	4.38
672.519	4.38
673.276	2.38
674.033	2.38
674.79	1.38
675.547	3.38
676.304	2.38
677.06	3.38
677.817	3.38
678.574	0.38
679.33	3.38
680.086	3.38
680.843	4.38
681.599	4.38
682.355	3.38
683.111	3.38
683.867	3.38
684.623	3.38
685.379	3.38
686.135	2.38
686.89	1.38
687.646	2.38
688.402	4.38
689.157	2.38
689.912	0.38
690.668	1.38
691.423	1.38
692.178	2.38
692.933	1.38
693.688	3.38
694.443	3.38
695.198	4.38
695.953	0.38
696.708	1.38
697.462	1.38
698.217	2.38
698.972	3.38
699.726	1.38
700.48	3.38
701.235	1.38
701.989	1.38
702.743	3.38
703.497	3.38
704.251	2.38
705.005	1.38
705.759	2.38
706.513	2.38
707.266	2.38
708.02	4.38
708.774	2.38
709.527	2.38
710.28	2.38
711.034	3.38
711.787	2.38
712.54	2.38
713.293	2.38
714.046	0.38
714.799	1.38
715.552	2.38
716.305	1.38
717.058	2.38
717.81	3.38
718.563	2.38
719.315	2.38
720.068	1.38
720.82	0.38
721.573	4.38
722.325	0.38
723.077	1.38
723.829	3.38
724.581	1.38
725.333	2.38
726.085	1.38
726.836	2.38
727.588	1.38
728.34	4.38
729.091	1.38
729.843	3.38
730.594	4.38
731.346	1.38
732.097	4.38
732.848	3.38
733.599	4.38
734.35	3.38
735.101	2.38
735.852	4.38
736.603	1.38
737.354	3.38
738.104	1.38
738.855	3.38
739.605	2.38
740.356	0.38
741.106	2.38
741.856	2.38
742.607	3.38
743.357	2.38
744.107	1.38
744.857	1.38
745.607	1.38
746.357	3.38
747.106	2.38
747.856	3.38
748.606	2.38
749.355	2.38
750.105	3.38
750.854	5.38
751.603	4.38
752.353	2.38
753.102	5.38
753.851	1.38
754.6	2.38
755.349	2.38
756.098	3.38
756.847	1.38
757.595	5.38
758.344	4.38
759.093	4.38
759.841	2.38
760.589	1.38
761.338	3.38
762.086	3.38
762.834	3.38
763.582	5.38
764.331	5.38
765.079	3.38
765.826	2.38
766.574	5.38
767.322	5.38
768.07	6.38
768.817	7.38
769.565	5.38
770.312	3.38
771.06	3.38
771.807	4.38
772.554	5.38
773.302	5.38
774.049	6.38
774.796	8.38
775.543	5.38
776.29	4.38
777.036	6.38
777.783	4.38
778.53	6.38
779.276	4.38
780.023	4.38
780.769	5.38
781.516	8.38
782.262	6.38
783.008	5.38
783.754	4.38
784.5	5.38
785.246	8.38
785.992	4.38
786.738	5.38
787.484	5.38
788.23	4.38
788.975	7.38
789.721	6.38
790.466	4.38
791.212	6.38
791.957	4.38
792.702	3.38
793.447	5.38
794.193	6.38
794.938	5.38
795.683	6.38
796.427	5.38
797.172	3.38
797.917	4.38
798.662	5.38
799.406	3.38
800.151	4.38
800.895	3.38
801.64	4.38
802.384	5.38
803.128	4.38
803.872	6.38
804.616	5.38
805.36	5.38
806.104	4.38
806.848	4.38
807.592	6.38
808.336	4.38
809.079	5.38
809.823	1.38
810.566	4.38
811.31	4.38
812.053	1.38
812.796	4.38
813.539	4.38
814.283	6.38
815.026	2.38
815.769	2.38
816.511	1.38
817.254	5.38
817.997	4.38
818.74	3.38
819.482	3.38
820.225	3.38
820.967	2.38
821.71	4.38
822.452	3.38
823.194	3.38
823.936	3.38
824.678	2.38
825.42	3.38
826.162	4.38
826.904	3.38
827.646	3.38
828.388	2.38
829.129	4.38
829.871	3.38
830.612	4.38
831.354	2.38
832.095	5.38
832.836	2.38
833.577	2.38
834.319	3.38
835.06	3.38
835.801	3.38
836.542	0.38
837.282	4.38
838.023	3.38
838.764	5.38
839.504	3.38
840.245	2.38
840.985	3.38
841.726	0.38
842.466	2.38
843.206	2.38
843.946	3.38
844.687	1.38
845.427	2.38
846.166	2.38
846.906	2.38
847.646	2.38
848.386	3.38
849.125	3.38
849.865	3.38
850.605	0.38
851.344	0.38
852.083	1.38
852.823	2.38
853.562	2.38
854.301	2.38
855.04	2.38
855.779	1.38
856.518	1.38
857.257	2.38
857.995	3.38
858.734	0.38
859.473	0.38
860.211	2.38
860.95	0.38
861.688	2.38
862.426	1.38
863.165	3.38
863.903	2.38
864.641	1.38
865.379	0.38
866.117	0.38
866.855	2.38
867.593	0.38
868.33	1.38
869.068	2.38
869.806	0.38
870.543	1.38
871.28	1.38
872.018	-0.62
872.755	2.38
873.492	1.38
874.229	1.38
874.967	0.38
875.703	0.38
876.44	0.38
877.177	1.38
877.914	2.38
878.651	0.38
879.387	2.38
880.124	1.38
880.86	3.38
881.597	4.38
882.333	1.38
883.069	1.38
883.806	0.38
884.542	1.38
885.278	-0.62
886.014	2.38
886.749	2.38
887.485	1.38
888.221	3.38
888.957	2.38
889.692	2.38
890.428	-0.62
891.163	1.38
891.899	0.38
892.634	2.38
893.369	0.38
894.104	1.38
894.839	2.38
895.574	1.38
896.309	0.38
897.044	2.38
897.779	-1.62
898.514	3.38
899.248	1.38
899.983	1.38
900.717	0.38
901.452	2.38
902.186	-0.62
902.92	0.38
903.654	2.38
904.389	-1.62
905.123	1.38
905.857	-0.62
906.59	1.38
907.324	-1.62
908.058	1.38
908.792	1.38
909.525	-0.62
910.259	0.38
910.992	2.38
911.726	2.38
912.459	0.38
913.192	-2.62
913.925	0.38
914.658	0.38
915.391	0.38
916.124	-0.62
916.857	-2.62
917.59	3.38
918.323	1.38
919.055	0.38
919.788	1.38
920.521	-0.62
921.253	0.38
921.985	1.38
922.718	0.38
923.45	1.38
924.182	1.38
924.914	-0.62
925.646	0.38
926.378	0.38
927.11	0.38
927.841	0.38
928.573	1.38
929.305	1.38
930.036	-0.62
930.768	2.38
931.499	1.38
932.23	2.38
932.962	1.38
933.693	0.38
934.424	0.38
935.155	1.38
935.886	0.38
936.617	1.38
937.348	0.38
938.078	2.38
938.809	-1.62
939.54	1.38
940.27	0.38
941.001	2.38
941.731	-1.62
942.461	0.38
943.191	1.38
943.922	-0.62
944.652	1.38
945.382	0.38
946.112	1.38
946.841	1.38
947.571	0.38
948.301	1.38
949.031	-0.62
949.76	0.38
950.49	1.38
951.219	1.38
951.948	0.38
952.678	-1.62
953.407	1.38
954.136	-1.62
954.865	2.38
955.594	-0.62
956.323	1.38
957.052	1.38
957.78	0.38
958.509	0.38
959.238	-1.62
959.966	-0.62
960.695	-1.62
961.423	-0.62
962.151	1.38
962.88	-1.62
963.608	1.38
964.336	1.38
965.064	-2.62
965.792	1.38
966.52	-0.62
967.247	1.38
967.975	-3.62
968.703	0.38
969.43	0.38
970.158	1.38
970.885	-0.62
971.613	-1.62
972.34	0.38
973.067	1.38
973.794	0.38
974.521	-0.62
975.248	1.38
975.975	0.38
976.702	0.38
977.429	2.38
978.156	0.38
978.882	2.38
979.609	2.38
980.335	-1.62
981.062	2.38
981.788	1.38
982.514	-1.62
983.24	0.38
983.967	0.38
984.693	1.38
985.419	-0.62
986.144	2.38
986.87	1.38
987.596	0.38
988.322	2.38
989.047	2.38
989.773	-1.62
990.498	-0.62
991.224	0.38
991.949	2.38
992.674	1.38
993.399	0.38
994.124	2.38
994.849	-0.62
995.574	0.38
996.299	1.38
997.024	1.38
997.749	1.38
998.473	-0.62
999.198	2.38
999.922	-0.62
1000.647	2.38
1001.371	1.38
1002.095	-1.62
1002.82	-1.62
1003.544	-0.62
1004.268	-0.62
1004.992	-0.62
1005.716	-1.62
1006.439	1.38
1007.163	0.38
1007.887	0.38
1008.611	-1.62
1009.334	2.38
1010.058	0.38
1010.781	0.38
1011.504	2.38
1012.228	0.38
1012.951	0.38
1013.674	-0.62
1014.397	1.38
1015.12	1.38
