节点500_145_QEPB04081__113__11-30-46-563.txt的数据

Date: Wed Nov 12 11:30:46 CST 2025
User: PC
Spectrometer: QEPB0408
触发模式: 0
积分时间 (秒): 1.000000E-2
Scans to average: 1
启用暗噪声校正: true
启用非线性校正: false
滑动平均宽度: 0
X轴模式: Wavelengths
Number of Pixels in Spectrum: 1044
>>>>>Begin Spectral Data<<<<<
220.843	-0.88
221.644	2.12
222.444	-1.88
223.244	-0.88
224.045	1.12
224.845	0.12
225.645	0.12
226.445	-1.88
227.245	-0.88
228.045	1.12
228.845	2.12
229.645	1.12
230.444	-0.88
231.244	2.12
232.043	3.12
232.843	0.12
233.642	2.12
234.442	1.12
235.241	0.12
236.04	0.12
236.839	1.12
237.638	0.12
238.437	2.12
239.236	1.12
240.035	3.12
240.833	2.12
241.632	1.12
242.43	3.12
243.229	1.12
244.027	2.12
244.826	1.12
245.624	3.12
246.422	2.12
247.22	2.12
248.018	2.12
248.816	1.12
249.614	1.12
250.412	2.12
251.21	3.12
252.007	2.12
252.805	5.12
253.602	2.12
254.4	2.12
255.197	3.12
255.994	4.12
256.791	2.12
257.589	2.12
258.386	3.12
259.183	3.12
259.979	4.12
260.776	3.12
261.573	5.12
262.37	3.12
263.166	6.12
263.963	6.12
264.759	7.12
265.556	7.12
266.352	8.12
267.148	8.12
267.944	6.12
268.74	7.12
269.536	7.12
270.332	10.12
271.128	6.12
271.924	8.12
272.719	8.12
273.515	6.12
274.311	11.12
275.106	7.12
275.901	10.12
276.697	9.12
277.492	10.12
278.287	10.12
279.082	9.12
279.877	8.12
280.672	12.12
281.467	9.12
282.262	9.12
283.056	12.12
283.851	12.12
284.646	12.12
285.44	13.12
286.234	13.12
287.029	11.12
287.823	12.12
288.617	10.12
289.411	11.12
290.205	9.12
290.999	12.12
291.793	13.12
292.587	10.12
293.381	11.12
294.174	11.12
294.968	8.12
295.761	10.12
296.555	9.12
297.348	10.12
298.141	10.12
298.935	9.12
299.728	9.12
300.521	9.12
301.314	9.12
302.107	9.12
302.899	7.12
303.692	10.12
304.485	9.12
305.277	8.12
306.07	9.12
306.862	6.12
307.655	7.12
308.447	6.12
309.239	8.12
310.031	7.12
310.823	8.12
311.615	8.12
312.407	5.12
313.199	5.12
313.991	6.12
314.783	5.12
315.574	6.12
316.366	5.12
317.157	6.12
317.949	3.12
318.74	6.12
319.531	2.12
320.322	4.12
321.113	5.12
321.904	4.12
322.695	5.12
323.486	5.12
324.277	5.12
325.068	7.12
325.858	2.12
326.649	4.12
327.439	4.12
328.23	5.12
329.02	5.12
329.81	5.12
330.6	4.12
331.391	3.12
332.181	3.12
332.971	4.12
333.76	2.12
334.55	5.12
335.34	2.12
336.13	3.12
336.919	4.12
337.709	4.12
338.498	2.12
339.287	3.12
340.077	3.12
340.866	3.12
341.655	5.12
342.444	1.12
343.233	4.12
344.022	1.12
344.811	4.12
345.6	4.12
346.388	2.12
347.177	4.12
347.965	2.12
348.754	3.12
349.542	4.12
350.33	3.12
351.119	3.12
351.907	1.12
352.695	5.12
353.483	3.12
354.271	5.12
355.059	2.12
355.846	6.12
356.634	4.12
357.422	3.12
358.209	0.12
358.997	2.12
359.784	5.12
360.571	2.12
361.359	4.12
362.146	4.12
362.933	2.12
363.72	2.12
364.507	3.12
365.294	3.12
366.081	1.12
366.867	2.12
367.654	1.12
368.44	3.12
369.227	1.12
370.013	2.12
370.8	4.12
371.586	3.12
372.372	2.12
373.158	3.12
373.944	2.12
374.73	2.12
375.516	1.12
376.302	3.12
377.088	0.12
377.873	3.12
378.659	4.12
379.445	1.12
380.23	2.12
381.015	-0.88
381.801	3.12
382.586	4.12
383.371	3.12
384.156	2.12
384.941	1.12
385.726	3.12
386.511	3.12
387.296	2.12
388.08	3.12
388.865	3.12
389.649	2.12
390.434	3.12
391.218	3.12
392.003	5.12
392.787	3.12
393.571	5.12
394.355	4.12
395.139	3.12
395.923	3.12
396.707	5.12
397.491	4.12
398.274	5.12
399.058	3.12
399.842	5.12
400.625	2.12
401.408	2.12
402.192	5.12
402.975	2.12
403.758	3.12
404.541	5.12
405.324	2.12
406.107	4.12
406.89	4.12
407.673	4.12
408.456	3.12
409.238	6.12
410.021	5.12
410.803	5.12
411.586	7.12
412.368	4.12
413.151	7.12
413.933	5.12
414.715	4.12
415.497	6.12
416.279	5.12
417.061	7.12
417.843	4.12
418.624	7.12
419.406	6.12
420.188	4.12
420.969	5.12
421.751	6.12
422.532	4.12
423.313	6.12
424.095	6.12
424.876	5.12
425.657	5.12
426.438	8.12
427.219	5.12
428	6.12
428.78	7.12
429.561	9.12
430.342	7.12
431.122	7.12
431.903	7.12
432.683	7.12
433.464	8.12
434.244	6.12
435.024	11.12
435.804	10.12
436.584	9.12
437.364	10.12
438.144	8.12
438.924	11.12
439.704	10.12
440.483	12.12
441.263	12.12
442.042	10.12
442.822	13.12
443.601	14.12
444.38	18.12
445.16	15.12
445.939	14.12
446.718	15.12
447.497	19.12
448.276	20.12
449.054	21.12
449.833	23.12
450.612	26.12
451.391	26.12
452.169	26.12
452.948	33.12
453.726	31.12
454.504	37.12
455.282	37.12
456.061	43.12
456.839	45.12
457.617	49.12
458.395	59.12
459.172	63.12
459.95	69.12
460.728	79.12
461.506	84.12
462.283	93.12
463.061	110.12
463.838	115.12
464.615	131.12
465.393	142.12
466.17	163.12
466.947	180.12
467.724	199.12
468.501	229.12
469.278	254.12
470.055	280.12
470.831	319.12
471.608	348.12
472.385	391.12
473.161	433.12
473.938	494.12
474.714	538.12
475.49	597.12
476.266	679.12
477.043	744.12
477.819	826.12
478.595	931.12
479.371	1032.12
480.146	1145.12
480.922	1270.12
481.698	1390.12
482.473	1558.12
483.249	1716.12
484.024	1916.12
484.8	2100.12
485.575	2322.12
486.35	2574.12
487.126	2875.12
487.901	3161.12
488.676	3513.12
489.451	3875.12
490.225	4284.12
491	4705.12
491.775	5219.12
492.55	5727.12
493.324	6280.12
494.099	6906.12
494.873	7570.12
495.647	8274.12
496.422	8981.12
497.196	9764.12
497.97	10542.12
498.744	11341.12
499.518	12201.12
500.292	12941.12
501.066	13695.12
501.839	14450.12
502.613	15110.12
503.387	15723.12
504.16	16208.12
504.934	16713.12
505.707	17004.12
506.48	17233.12
507.253	17318.12
508.027	17294.12
508.8	17146.12
509.573	16879.12
510.346	16515.12
511.118	16078.12
511.891	15567.12
512.664	15023.12
513.437	14489.12
514.209	13859.12
514.982	13289.12
515.754	12704.12
516.526	12128.12
517.298	11557.12
518.071	11024.12
518.843	10538.12
519.615	10078.12
520.387	9674.12
521.159	9278.12
521.93	8914.12
522.702	8577.12
523.474	8198.12
524.245	7909.12
525.017	7625.12
525.788	7284.12
526.56	6978.12
527.331	6705.12
528.102	6411.12
528.873	6128.12
529.644	5807.12
530.415	5543.12
531.186	5229.12
531.957	5012.12
532.728	4737.12
533.498	4472.12
534.269	4216.12
535.039	3980.12
535.81	3768.12
536.58	3523.12
537.351	3329.12
538.121	3153.12
538.891	2955.12
539.661	2812.12
540.431	2645.12
541.201	2508.12
541.971	2376.12
542.741	2267.12
543.51	2147.12
544.28	2041.12
545.05	1936.12
545.819	1842.12
546.588	1752.12
547.358	1665.12
548.127	1583.12
548.896	1476.12
549.665	1431.12
550.434	1355.12
551.203	1283.12
551.972	1212.12
552.741	1134.12
553.51	1091.12
554.278	1033.12
555.047	978.12
555.815	914.12
556.584	862.12
557.352	812.12
558.121	758.12
558.889	724.12
559.657	684.12
560.425	633.12
561.193	600.12
561.961	565.12
562.729	530.12
563.496	509.12
564.264	476.12
565.032	441.12
565.799	416.12
566.567	393.12
567.334	379.12
568.101	355.12
568.869	334.12
569.636	316.12
570.403	306.12
571.17	280.12
571.937	269.12
572.704	245.12
573.471	244.12
574.237	222.12
575.004	213.12
575.771	200.12
576.537	186.12
577.303	176.12
578.07	162.12
578.836	150.12
579.602	147.12
580.368	139.12
581.134	130.12
581.9	126.12
582.666	119.12
583.432	117.12
584.198	105.12
584.964	95.12
585.729	97.12
586.495	86.12
587.26	85.12
588.025	75.12
588.791	74.12
589.556	69.12
590.321	68.12
591.086	62.12
591.851	65.12
592.616	58.12
593.381	56.12
594.146	55.12
594.911	48.12
595.675	47.12
596.44	44.12
597.204	43.12
597.969	41.12
598.733	38.12
599.497	38.12
600.261	33.12
601.025	35.12
601.79	30.12
602.553	30.12
603.317	28.12
604.081	32.12
604.845	28.12
605.609	26.12
606.372	24.12
607.136	23.12
607.899	22.12
608.662	22.12
609.426	21.12
610.189	18.12
610.952	20.12
611.715	20.12
612.478	18.12
613.241	15.12
614.004	16.12
614.767	13.12
615.529	17.12
616.292	14.12
617.055	12.12
617.817	14.12
618.579	14.12
619.342	13.12
620.104	13.12
620.866	13.12
621.628	9.12
622.39	11.12
623.152	8.12
623.914	7.12
624.676	10.12
625.438	12.12
626.199	10.12
626.961	12.12
627.722	8.12
628.484	8.12
629.245	9.12
630.006	7.12
630.768	5.12
631.529	9.12
632.29	6.12
633.051	8.12
633.812	6.12
634.573	7.12
635.333	6.12
636.094	7.12
636.855	8.12
637.615	5.12
638.376	7.12
639.136	6.12
639.896	5.12
640.657	7.12
641.417	4.12
642.177	5.12
642.937	5.12
643.697	3.12
644.457	4.12
645.216	4.12
645.976	6.12
646.736	4.12
647.495	3.12
648.255	4.12
649.014	3.12
649.774	5.12
650.533	2.12
651.292	5.12
652.051	5.12
652.81	2.12
653.569	4.12
654.328	4.12
655.087	4.12
655.846	5.12
656.604	4.12
657.363	4.12
658.121	2.12
658.88	4.12
659.638	2.12
660.397	6.12
661.155	2.12
661.913	5.12
662.671	4.12
663.429	1.12
664.187	3.12
664.945	1.12
665.703	5.12
666.46	4.12
667.218	3.12
667.976	3.12
668.733	2.12
669.49	2.12
670.248	5.12
671.005	1.12
671.762	1.12
672.519	2.12
673.276	2.12
674.033	3.12
674.79	0.12
675.547	3.12
676.304	3.12
677.06	4.12
677.817	4.12
678.574	1.12
679.33	0.12
680.086	2.12
680.843	1.12
681.599	6.12
682.355	1.12
683.111	0.12
683.867	2.12
684.623	2.12
685.379	3.12
686.135	1.12
686.89	2.12
687.646	2.12
688.402	1.12
689.157	2.12
689.912	-0.88
690.668	0.12
691.423	1.12
692.178	1.12
692.933	4.12
693.688	3.12
694.443	3.12
695.198	2.12
695.953	1.12
696.708	1.12
697.462	0.12
698.217	2.12
698.972	2.12
699.726	4.12
700.48	1.12
701.235	2.12
701.989	2.12
702.743	0.12
703.497	1.12
704.251	0.12
705.005	3.12
705.759	2.12
706.513	4.12
707.266	3.12
708.02	3.12
708.774	0.12
709.527	2.12
710.28	2.12
711.034	0.12
711.787	1.12
712.54	1.12
713.293	1.12
714.046	1.12
714.799	2.12
715.552	1.12
716.305	3.12
717.058	3.12
717.81	3.12
718.563	3.12
719.315	2.12
720.068	2.12
720.82	2.12
721.573	0.12
722.325	3.12
723.077	1.12
723.829	3.12
724.581	2.12
725.333	2.12
726.085	1.12
726.836	0.12
727.588	5.12
728.34	2.12
729.091	2.12
729.843	0.12
730.594	2.12
731.346	2.12
732.097	1.12
732.848	3.12
733.599	0.12
734.35	2.12
735.101	4.12
735.852	1.12
736.603	3.12
737.354	0.12
738.104	2.12
738.855	3.12
739.605	3.12
740.356	3.12
741.106	2.12
741.856	1.12
742.607	3.12
743.357	3.12
744.107	1.12
744.857	2.12
745.607	3.12
746.357	2.12
747.106	3.12
747.856	1.12
748.606	2.12
749.355	2.12
750.105	4.12
750.854	3.12
751.603	2.12
752.353	4.12
753.102	2.12
753.851	3.12
754.6	4.12
755.349	2.12
756.098	1.12
756.847	1.12
757.595	4.12
758.344	3.12
759.093	2.12
759.841	5.12
760.589	2.12
761.338	4.12
762.086	3.12
762.834	4.12
763.582	4.12
764.331	5.12
765.079	4.12
765.826	3.12
766.574	4.12
767.322	7.12
768.07	2.12
768.817	5.12
769.565	3.12
770.312	5.12
771.06	4.12
771.807	5.12
772.554	5.12
773.302	5.12
774.049	6.12
774.796	4.12
775.543	4.12
776.29	2.12
777.036	6.12
777.783	6.12
778.53	6.12
779.276	4.12
780.023	4.12
780.769	6.12
781.516	5.12
782.262	6.12
783.008	3.12
783.754	5.12
784.5	6.12
785.246	5.12
785.992	5.12
786.738	7.12
787.484	7.12
788.23	6.12
788.975	4.12
789.721	6.12
790.466	6.12
791.212	6.12
791.957	7.12
792.702	5.12
793.447	6.12
794.193	7.12
794.938	4.12
795.683	4.12
796.427	5.12
797.172	5.12
797.917	5.12
798.662	6.12
799.406	4.12
800.151	7.12
800.895	4.12
801.64	9.12
802.384	5.12
803.128	5.12
803.872	3.12
804.616	4.12
805.36	3.12
806.104	5.12
806.848	3.12
807.592	7.12
808.336	3.12
809.079	2.12
809.823	2.12
810.566	5.12
811.31	4.12
812.053	4.12
812.796	2.12
813.539	5.12
814.283	2.12
815.026	0.12
815.769	3.12
816.511	1.12
817.254	2.12
817.997	4.12
818.74	4.12
819.482	5.12
820.225	3.12
820.967	1.12
821.71	3.12
822.452	5.12
823.194	3.12
823.936	5.12
824.678	3.12
825.42	1.12
826.162	4.12
826.904	2.12
827.646	5.12
828.388	4.12
829.129	4.12
829.871	2.12
830.612	0.12
831.354	4.12
832.095	2.12
832.836	3.12
833.577	3.12
834.319	1.12
835.06	2.12
835.801	2.12
836.542	2.12
837.282	3.12
838.023	3.12
838.764	1.12
839.504	3.12
840.245	4.12
840.985	2.12
841.726	2.12
842.466	2.12
843.206	1.12
843.946	4.12
844.687	1.12
845.427	0.12
846.166	0.12
846.906	2.12
847.646	2.12
848.386	1.12
849.125	3.12
849.865	0.12
850.605	1.12
851.344	0.12
852.083	2.12
852.823	2.12
853.562	1.12
854.301	1.12
855.04	1.12
855.779	0.12
856.518	2.12
857.257	2.12
857.995	1.12
858.734	1.12
859.473	2.12
860.211	1.12
860.95	0.12
861.688	4.12
862.426	3.12
863.165	2.12
863.903	3.12
864.641	1.12
865.379	2.12
866.117	0.12
866.855	1.12
867.593	2.12
868.33	1.12
869.068	-1.88
869.806	4.12
870.543	-1.88
871.28	2.12
872.018	2.12
872.755	0.12
873.492	1.12
874.229	1.12
874.967	0.12
875.703	0.12
876.44	-0.88
877.177	2.12
877.914	2.12
878.651	1.12
879.387	-0.88
880.124	1.12
880.86	1.12
881.597	1.12
882.333	0.12
883.069	0.12
883.806	2.12
884.542	2.12
885.278	3.12
886.014	1.12
886.749	0.12
887.485	1.12
888.221	-1.88
888.957	1.12
889.692	-0.88
890.428	5.12
891.163	1.12
891.899	-0.88
892.634	0.12
893.369	1.12
894.104	2.12
894.839	0.12
895.574	1.12
896.309	2.12
897.044	1.12
897.779	1.12
898.514	-0.88
899.248	2.12
899.983	-1.88
900.717	1.12
901.452	3.12
902.186	1.12
902.92	0.12
903.654	1.12
904.389	-1.88
905.123	-1.88
905.857	-0.88
906.59	3.12
907.324	-1.88
908.058	0.12
908.792	1.12
909.525	0.12
910.259	-1.88
910.992	1.12
911.726	0.12
912.459	-0.88
913.192	2.12
913.925	-0.88
914.658	2.12
915.391	1.12
916.124	1.12
916.857	2.12
917.59	1.12
918.323	0.12
919.055	1.12
919.788	0.12
920.521	1.12
921.253	0.12
921.985	-0.88
922.718	2.12
923.45	0.12
924.182	-0.88
924.914	-0.88
925.646	-0.88
926.378	0.12
927.11	0.12
927.841	-0.88
928.573	-1.88
929.305	1.12
930.036	1.12
930.768	1.12
931.499	1.12
932.23	0.12
932.962	1.12
933.693	2.12
934.424	0.12
935.155	2.12
935.886	1.12
936.617	-0.88
937.348	0.12
938.078	-0.88
938.809	0.12
939.54	-1.88
940.27	1.12
941.001	0.12
941.731	-0.88
942.461	-0.88
943.191	-0.88
943.922	1.12
944.652	1.12
945.382	-0.88
946.112	-0.88
946.841	2.12
947.571	2.12
948.301	-1.88
949.031	0.12
949.76	-0.88
950.49	1.12
951.219	-0.88
951.948	1.12
952.678	0.12
953.407	-0.88
954.136	0.12
954.865	-1.88
955.594	-1.88
956.323	0.12
957.052	-0.88
957.78	2.12
958.509	-1.88
959.238	1.12
959.966	0.12
960.695	0.12
961.423	2.12
962.151	-1.88
962.88	-0.88
963.608	2.12
964.336	1.12
965.064	-0.88
965.792	0.12
966.52	1.12
967.247	2.12
967.975	2.12
968.703	-1.88
969.43	0.12
970.158	-1.88
970.885	0.12
971.613	0.12
972.34	0.12
973.067	0.12
973.794	-1.88
974.521	-0.88
975.248	1.12
975.975	0.12
976.702	0.12
977.429	0.12
978.156	1.12
978.882	0.12
979.609	1.12
980.335	0.12
981.062	1.12
981.788	1.12
982.514	-1.88
983.24	0.12
983.967	0.12
984.693	-0.88
985.419	-0.88
986.144	1.12
986.87	0.12
987.596	-0.88
988.322	2.12
989.047	0.12
989.773	1.12
990.498	-0.88
991.224	1.12
991.949	-0.88
992.674	1.12
993.399	0.12
994.124	-0.88
994.849	1.12
995.574	1.12
996.299	0.12
997.024	1.12
997.749	-1.88
998.473	0.12
999.198	1.12
999.922	1.12
1000.647	-0.88
1001.371	3.12
1002.095	0.12
1002.82	-0.88
1003.544	-0.88
1004.268	0.12
1004.992	-0.88
1005.716	-0.88
1006.439	-1.88
1007.163	0.12
1007.887	0.12
1008.611	1.12
1009.334	-1.88
1010.058	1.12
1010.781	1.12
1011.504	1.12
1012.228	-0.88
1012.951	1.12
1013.674	-1.88
1014.397	-0.88
1015.12	0.12
