节点500_145_QEPB04081__284__11-33-30-499.txt的数据

Date: Wed Nov 12 11:33:30 CST 2025
User: PC
Spectrometer: QEPB0408
触发模式: 0
积分时间 (秒): 1.000000E-2
Scans to average: 1
启用暗噪声校正: true
启用非线性校正: false
滑动平均宽度: 0
X轴模式: Wavelengths
Number of Pixels in Spectrum: 1044
>>>>>Begin Spectral Data<<<<<
220.843	-0.88
221.644	-1.88
222.444	-0.88
223.244	-0.88
224.045	-1.88
224.845	-0.88
225.645	0.12
226.445	-1.88
227.245	-1.88
228.045	0.12
228.845	2.12
229.645	1.12
230.444	1.12
231.244	2.12
232.043	3.12
232.843	1.12
233.642	3.12
234.442	3.12
235.241	-0.88
236.04	2.12
236.839	1.12
237.638	1.12
238.437	2.12
239.236	0.12
240.035	2.12
240.833	0.12
241.632	0.12
242.43	1.12
243.229	1.12
244.027	2.12
244.826	3.12
245.624	3.12
246.422	3.12
247.22	1.12
248.018	2.12
248.816	2.12
249.614	2.12
250.412	1.12
251.21	2.12
252.007	1.12
252.805	3.12
253.602	3.12
254.4	1.12
255.197	4.12
255.994	3.12
256.791	4.12
257.589	3.12
258.386	5.12
259.183	3.12
259.979	4.12
260.776	4.12
261.573	5.12
262.37	1.12
263.166	5.12
263.963	7.12
264.759	6.12
265.556	5.12
266.352	6.12
267.148	5.12
267.944	4.12
268.74	6.12
269.536	4.12
270.332	7.12
271.128	5.12
271.924	5.12
272.719	7.12
273.515	9.12
274.311	6.12
275.106	9.12
275.901	8.12
276.697	9.12
277.492	10.12
278.287	7.12
279.082	6.12
279.877	9.12
280.672	11.12
281.467	7.12
282.262	10.12
283.056	10.12
283.851	11.12
284.646	10.12
285.44	10.12
286.234	12.12
287.029	12.12
287.823	9.12
288.617	11.12
289.411	10.12
290.205	12.12
290.999	11.12
291.793	10.12
292.587	10.12
293.381	11.12
294.174	11.12
294.968	9.12
295.761	9.12
296.555	11.12
297.348	10.12
298.141	10.12
298.935	9.12
299.728	11.12
300.521	12.12
301.314	12.12
302.107	5.12
302.899	8.12
303.692	10.12
304.485	8.12
305.277	9.12
306.07	9.12
306.862	9.12
307.655	7.12
308.447	6.12
309.239	8.12
310.031	8.12
310.823	9.12
311.615	6.12
312.407	6.12
313.199	4.12
313.991	5.12
314.783	6.12
315.574	5.12
316.366	8.12
317.157	3.12
317.949	6.12
318.74	5.12
319.531	6.12
320.322	7.12
321.113	6.12
321.904	4.12
322.695	4.12
323.486	2.12
324.277	4.12
325.068	0.12
325.858	5.12
326.649	1.12
327.439	5.12
328.23	4.12
329.02	3.12
329.81	7.12
330.6	2.12
331.391	5.12
332.181	3.12
332.971	2.12
333.76	3.12
334.55	6.12
335.34	4.12
336.13	3.12
336.919	3.12
337.709	4.12
338.498	2.12
339.287	3.12
340.077	3.12
340.866	5.12
341.655	4.12
342.444	3.12
343.233	3.12
344.022	4.12
344.811	2.12
345.6	2.12
346.388	5.12
347.177	-1.88
347.965	1.12
348.754	4.12
349.542	3.12
350.33	2.12
351.119	3.12
351.907	6.12
352.695	4.12
353.483	3.12
354.271	3.12
355.059	0.12
355.846	3.12
356.634	0.12
357.422	4.12
358.209	2.12
358.997	5.12
359.784	2.12
360.571	4.12
361.359	3.12
362.146	2.12
362.933	3.12
363.72	1.12
364.507	3.12
365.294	0.12
366.081	2.12
366.867	4.12
367.654	2.12
368.44	2.12
369.227	5.12
370.013	3.12
370.8	3.12
371.586	1.12
372.372	5.12
373.158	1.12
373.944	4.12
374.73	2.12
375.516	0.12
376.302	3.12
377.088	2.12
377.873	1.12
378.659	4.12
379.445	2.12
380.23	1.12
381.015	2.12
381.801	5.12
382.586	3.12
383.371	4.12
384.156	1.12
384.941	1.12
385.726	3.12
386.511	1.12
387.296	3.12
388.08	4.12
388.865	2.12
389.649	4.12
390.434	1.12
391.218	3.12
392.003	1.12
392.787	4.12
393.571	4.12
394.355	5.12
395.139	2.12
395.923	2.12
396.707	2.12
397.491	2.12
398.274	0.12
399.058	5.12
399.842	4.12
400.625	3.12
401.408	5.12
402.192	3.12
402.975	4.12
403.758	2.12
404.541	4.12
405.324	5.12
406.107	4.12
406.89	3.12
407.673	4.12
408.456	5.12
409.238	5.12
410.021	4.12
410.803	4.12
411.586	5.12
412.368	3.12
413.151	4.12
413.933	2.12
414.715	7.12
415.497	5.12
416.279	5.12
417.061	5.12
417.843	3.12
418.624	7.12
419.406	2.12
420.188	7.12
420.969	4.12
421.751	3.12
422.532	5.12
423.313	8.12
424.095	5.12
424.876	3.12
425.657	7.12
426.438	5.12
427.219	6.12
428	8.12
428.78	7.12
429.561	9.12
430.342	9.12
431.122	7.12
431.903	7.12
432.683	6.12
433.464	8.12
434.244	8.12
435.024	8.12
435.804	10.12
436.584	9.12
437.364	11.12
438.144	12.12
438.924	12.12
439.704	10.12
440.483	17.12
441.263	9.12
442.042	11.12
442.822	12.12
443.601	14.12
444.38	14.12
445.16	13.12
445.939	18.12
446.718	17.12
447.497	17.12
448.276	22.12
449.054	21.12
449.833	24.12
450.612	23.12
451.391	29.12
452.169	29.12
452.948	30.12
453.726	35.12
454.504	37.12
455.282	41.12
456.061	47.12
456.839	47.12
457.617	54.12
458.395	60.12
459.172	68.12
459.95	73.12
460.728	79.12
461.506	88.12
462.283	100.12
463.061	111.12
463.838	128.12
464.615	137.12
465.393	154.12
466.17	172.12
466.947	197.12
467.724	216.12
468.501	238.12
469.278	260.12
470.055	302.12
470.831	328.12
471.608	372.12
472.385	418.12
473.161	458.12
473.938	502.12
474.714	565.12
475.49	632.12
476.266	692.12
477.043	776.12
477.819	853.12
478.595	937.12
479.371	1031.12
480.146	1138.12
480.922	1250.12
481.698	1403.12
482.473	1537.12
483.249	1706.12
484.024	1867.12
484.8	2055.12
485.575	2292.12
486.35	2540.12
487.126	2775.12
487.901	3057.12
488.676	3377.12
489.451	3685.12
490.225	4046.12
491	4455.12
491.775	4914.12
492.55	5385.12
493.324	5914.12
494.099	6450.12
494.873	7066.12
495.647	7707.12
496.422	8360.12
497.196	8999.12
497.97	9683.12
498.744	10470.12
499.518	11230.12
500.292	11983.12
501.066	12650.12
501.839	13360.12
502.613	14044.12
503.387	14658.12
504.16	15205.12
504.934	15650.12
505.707	16018.12
506.48	16254.12
507.253	16494.12
508.027	16561.12
508.8	16472.12
509.573	16314.12
510.346	16038.12
511.118	15756.12
511.891	15334.12
512.664	14868.12
513.437	14305.12
514.209	13800.12
514.982	13262.12
515.754	12744.12
516.526	12190.12
517.298	11614.12
518.071	11091.12
518.843	10610.12
519.615	10167.12
520.387	9752.12
521.159	9354.12
521.93	9001.12
522.702	8590.12
523.474	8298.12
524.245	7983.12
525.017	7647.12
525.788	7342.12
526.56	7064.12
527.331	6754.12
528.102	6484.12
528.873	6138.12
529.644	5852.12
530.415	5653.12
531.186	5357.12
531.957	5107.12
532.728	4841.12
533.498	4553.12
534.269	4349.12
535.039	4077.12
535.81	3854.12
536.58	3655.12
537.351	3423.12
538.121	3253.12
538.891	3071.12
539.661	2891.12
540.431	2757.12
541.201	2614.12
541.971	2469.12
542.741	2334.12
543.51	2192.12
544.28	2095.12
545.05	1994.12
545.819	1901.12
546.588	1808.12
547.358	1712.12
548.127	1637.12
548.896	1561.12
549.665	1475.12
550.434	1410.12
551.203	1320.12
551.972	1264.12
552.741	1188.12
553.51	1120.12
554.278	1067.12
555.047	988.12
555.815	947.12
556.584	892.12
557.352	833.12
558.121	797.12
558.889	748.12
559.657	702.12
560.425	662.12
561.193	626.12
561.961	586.12
562.729	552.12
563.496	521.12
564.264	490.12
565.032	461.12
565.799	439.12
566.567	420.12
567.334	379.12
568.101	370.12
568.869	350.12
569.636	328.12
570.403	312.12
571.17	301.12
571.937	279.12
572.704	269.12
573.471	247.12
574.237	236.12
575.004	219.12
575.771	204.12
576.537	196.12
577.303	183.12
578.07	172.12
578.836	164.12
579.602	152.12
580.368	149.12
581.134	133.12
581.9	127.12
582.666	124.12
583.432	119.12
584.198	110.12
584.964	102.12
585.729	98.12
586.495	92.12
587.26	83.12
588.025	83.12
588.791	76.12
589.556	73.12
590.321	72.12
591.086	66.12
591.851	63.12
592.616	63.12
593.381	60.12
594.146	50.12
594.911	47.12
595.675	47.12
596.44	43.12
597.204	42.12
597.969	39.12
598.733	41.12
599.497	38.12
600.261	36.12
601.025	34.12
601.79	34.12
602.553	28.12
603.317	30.12
604.081	29.12
604.845	29.12
605.609	27.12
606.372	24.12
607.136	27.12
607.899	25.12
608.662	23.12
609.426	22.12
610.189	21.12
610.952	21.12
611.715	19.12
612.478	20.12
613.241	17.12
614.004	18.12
614.767	17.12
615.529	14.12
616.292	17.12
617.055	15.12
617.817	14.12
618.579	13.12
619.342	14.12
620.104	12.12
620.866	10.12
621.628	11.12
622.39	10.12
623.152	13.12
623.914	12.12
624.676	9.12
625.438	9.12
626.199	9.12
626.961	8.12
627.722	8.12
628.484	7.12
629.245	6.12
630.006	7.12
630.768	8.12
631.529	4.12
632.29	8.12
633.051	6.12
633.812	5.12
634.573	8.12
635.333	5.12
636.094	8.12
636.855	6.12
637.615	5.12
638.376	4.12
639.136	7.12
639.896	7.12
640.657	3.12
641.417	6.12
642.177	5.12
642.937	6.12
643.697	6.12
644.457	4.12
645.216	4.12
645.976	3.12
646.736	5.12
647.495	5.12
648.255	6.12
649.014	3.12
649.774	6.12
650.533	5.12
651.292	2.12
652.051	5.12
652.81	4.12
653.569	5.12
654.328	6.12
655.087	3.12
655.846	3.12
656.604	2.12
657.363	4.12
658.121	2.12
658.88	5.12
659.638	3.12
660.397	3.12
661.155	4.12
661.913	5.12
662.671	5.12
663.429	4.12
664.187	2.12
664.945	2.12
665.703	3.12
666.46	1.12
667.218	3.12
667.976	3.12
668.733	2.12
669.49	2.12
670.248	3.12
671.005	2.12
671.762	2.12
672.519	3.12
673.276	1.12
674.033	1.12
674.79	1.12
675.547	2.12
676.304	2.12
677.06	2.12
677.817	3.12
678.574	5.12
679.33	2.12
680.086	2.12
680.843	1.12
681.599	1.12
682.355	3.12
683.111	2.12
683.867	2.12
684.623	1.12
685.379	1.12
686.135	2.12
686.89	1.12
687.646	2.12
688.402	-1.88
689.157	2.12
689.912	2.12
690.668	1.12
691.423	2.12
692.178	1.12
692.933	2.12
693.688	1.12
694.443	1.12
695.198	2.12
695.953	3.12
696.708	3.12
697.462	3.12
698.217	1.12
698.972	-1.88
699.726	2.12
700.48	2.12
701.235	2.12
701.989	2.12
702.743	2.12
703.497	-0.88
704.251	0.12
705.005	2.12
705.759	1.12
706.513	2.12
707.266	3.12
708.02	2.12
708.774	1.12
709.527	2.12
710.28	2.12
711.034	1.12
711.787	5.12
712.54	1.12
713.293	2.12
714.046	1.12
714.799	1.12
715.552	4.12
716.305	-0.88
717.058	1.12
717.81	3.12
718.563	2.12
719.315	4.12
720.068	3.12
720.82	1.12
721.573	1.12
722.325	1.12
723.077	2.12
723.829	1.12
724.581	2.12
725.333	3.12
726.085	3.12
726.836	2.12
727.588	2.12
728.34	3.12
729.091	2.12
729.843	2.12
730.594	1.12
731.346	0.12
732.097	3.12
732.848	2.12
733.599	2.12
734.35	1.12
735.101	4.12
735.852	-0.88
736.603	-1.88
737.354	2.12
738.104	1.12
738.855	1.12
739.605	2.12
740.356	2.12
741.106	1.12
741.856	3.12
742.607	3.12
743.357	2.12
744.107	2.12
744.857	0.12
745.607	1.12
746.357	1.12
747.106	5.12
747.856	4.12
748.606	2.12
749.355	4.12
750.105	2.12
750.854	2.12
751.603	2.12
752.353	2.12
753.102	4.12
753.851	3.12
754.6	4.12
755.349	1.12
756.098	4.12
756.847	3.12
757.595	1.12
758.344	2.12
759.093	2.12
759.841	2.12
760.589	3.12
761.338	5.12
762.086	1.12
762.834	2.12
763.582	2.12
764.331	0.12
765.079	3.12
765.826	4.12
766.574	5.12
767.322	2.12
768.07	4.12
768.817	3.12
769.565	5.12
770.312	2.12
771.06	2.12
771.807	4.12
772.554	3.12
773.302	5.12
774.049	3.12
774.796	3.12
775.543	4.12
776.29	3.12
777.036	5.12
777.783	7.12
778.53	5.12
779.276	7.12
780.023	3.12
780.769	3.12
781.516	2.12
782.262	4.12
783.008	6.12
783.754	3.12
784.5	3.12
785.246	5.12
785.992	6.12
786.738	5.12
787.484	6.12
788.23	5.12
788.975	5.12
789.721	7.12
790.466	3.12
791.212	4.12
791.957	4.12
792.702	5.12
793.447	5.12
794.193	5.12
794.938	6.12
795.683	5.12
796.427	4.12
797.172	4.12
797.917	5.12
798.662	6.12
799.406	4.12
800.151	4.12
800.895	3.12
801.64	5.12
802.384	6.12
803.128	4.12
803.872	2.12
804.616	5.12
805.36	2.12
806.104	4.12
806.848	3.12
807.592	4.12
808.336	5.12
809.079	4.12
809.823	3.12
810.566	5.12
811.31	2.12
812.053	3.12
812.796	2.12
813.539	4.12
814.283	6.12
815.026	4.12
815.769	4.12
816.511	2.12
817.254	5.12
817.997	4.12
818.74	3.12
819.482	2.12
820.225	3.12
820.967	2.12
821.71	3.12
822.452	3.12
823.194	5.12
823.936	3.12
824.678	1.12
825.42	4.12
826.162	3.12
826.904	1.12
827.646	5.12
828.388	4.12
829.129	1.12
829.871	2.12
830.612	1.12
831.354	3.12
832.095	1.12
832.836	0.12
833.577	2.12
834.319	3.12
835.06	2.12
835.801	3.12
836.542	4.12
837.282	2.12
838.023	5.12
838.764	1.12
839.504	2.12
840.245	1.12
840.985	2.12
841.726	0.12
842.466	1.12
843.206	2.12
843.946	1.12
844.687	3.12
845.427	2.12
846.166	1.12
846.906	2.12
847.646	3.12
848.386	2.12
849.125	2.12
849.865	1.12
850.605	3.12
851.344	1.12
852.083	2.12
852.823	2.12
853.562	2.12
854.301	2.12
855.04	-1.88
855.779	4.12
856.518	1.12
857.257	2.12
857.995	1.12
858.734	2.12
859.473	1.12
860.211	1.12
860.95	1.12
861.688	3.12
862.426	3.12
863.165	2.12
863.903	2.12
864.641	1.12
865.379	0.12
866.117	1.12
866.855	0.12
867.593	-1.88
868.33	1.12
869.068	-0.88
869.806	0.12
870.543	0.12
871.28	2.12
872.018	0.12
872.755	2.12
873.492	1.12
874.229	1.12
874.967	0.12
875.703	1.12
876.44	3.12
877.177	-0.88
877.914	-0.88
878.651	0.12
879.387	0.12
880.124	1.12
880.86	1.12
881.597	-0.88
882.333	0.12
883.069	2.12
883.806	1.12
884.542	0.12
885.278	1.12
886.014	-0.88
886.749	2.12
887.485	1.12
888.221	-1.88
888.957	1.12
889.692	1.12
890.428	1.12
891.163	0.12
891.899	1.12
892.634	-0.88
893.369	1.12
894.104	1.12
894.839	0.12
895.574	1.12
896.309	-1.88
897.044	3.12
897.779	-1.88
898.514	-0.88
899.248	0.12
899.983	-1.88
900.717	0.12
901.452	-0.88
902.186	1.12
902.92	1.12
903.654	0.12
904.389	-0.88
905.123	1.12
905.857	1.12
906.59	0.12
907.324	2.12
908.058	-1.88
908.792	-0.88
909.525	1.12
910.259	0.12
910.992	2.12
911.726	1.12
912.459	1.12
913.192	0.12
913.925	-1.88
914.658	2.12
915.391	-1.88
916.124	1.12
916.857	1.12
917.59	1.12
918.323	1.12
919.055	-0.88
919.788	1.12
920.521	0.12
921.253	2.12
921.985	1.12
922.718	1.12
923.45	-0.88
924.182	0.12
924.914	1.12
925.646	-0.88
926.378	0.12
927.11	1.12
927.841	-1.88
928.573	1.12
929.305	1.12
930.036	1.12
930.768	-2.88
931.499	0.12
932.23	1.12
932.962	1.12
933.693	0.12
934.424	-1.88
935.155	0.12
935.886	0.12
936.617	2.12
937.348	-0.88
938.078	2.12
938.809	-0.88
939.54	0.12
940.27	1.12
941.001	0.12
941.731	3.12
942.461	1.12
943.191	1.12
943.922	0.12
944.652	0.12
945.382	-0.88
946.112	1.12
946.841	1.12
947.571	-1.88
948.301	1.12
949.031	0.12
949.76	0.12
950.49	1.12
951.219	1.12
951.948	-1.88
952.678	-1.88
953.407	0.12
954.136	3.12
954.865	-0.88
955.594	1.12
956.323	1.12
957.052	-1.88
957.78	1.12
958.509	1.12
959.238	-1.88
959.966	0.12
960.695	2.12
961.423	0.12
962.151	0.12
962.88	1.12
963.608	1.12
964.336	0.12
965.064	0.12
965.792	0.12
966.52	0.12
967.247	0.12
967.975	-0.88
968.703	-0.88
969.43	-0.88
970.158	-0.88
970.885	-0.88
971.613	1.12
972.34	2.12
973.067	1.12
973.794	-2.88
974.521	0.12
975.248	1.12
975.975	0.12
976.702	1.12
977.429	1.12
978.156	1.12
978.882	-0.88
979.609	0.12
980.335	1.12
981.062	1.12
981.788	-0.88
982.514	-0.88
983.24	-0.88
983.967	-1.88
984.693	3.12
985.419	-1.88
986.144	1.12
986.87	1.12
987.596	1.12
988.322	2.12
989.047	-3.88
989.773	-0.88
990.498	2.12
991.224	0.12
991.949	-1.88
992.674	-2.88
993.399	1.12
994.124	-1.88
994.849	1.12
995.574	1.12
996.299	1.12
997.024	-0.88
997.749	0.12
998.473	0.12
999.198	1.12
999.922	0.12
1000.647	2.12
1001.371	4.12
1002.095	1.12
1002.82	0.12
1003.544	-2.88
1004.268	-0.88
1004.992	1.12
1005.716	-2.88
1006.439	1.12
1007.163	-0.88
1007.887	1.12
1008.611	2.12
1009.334	-0.88
1010.058	0.12
1010.781	-0.88
1011.504	1.12
1012.228	2.12
1012.951	-1.88
1013.674	-0.88
1014.397	0.12
1015.12	0.12
