节点500_145_QEPB04081__700__11-40-03-712.txt的数据

Date: Wed Nov 12 11:40:03 CST 2025
User: PC
Spectrometer: QEPB0408
触发模式: 0
积分时间 (秒): 1.000000E-2
Scans to average: 1
启用暗噪声校正: true
启用非线性校正: false
滑动平均宽度: 0
X轴模式: Wavelengths
Number of Pixels in Spectrum: 1044
>>>>>Begin Spectral Data<<<<<
220.843	-0.75
221.644	0.25
222.444	1.25
223.244	2.25
224.045	0.25
224.845	2.25
225.645	1.25
226.445	-0.75
227.245	-2.75
228.045	-0.75
228.845	-0.75
229.645	1.25
230.444	-1.75
231.244	1.25
232.043	1.25
232.843	0.25
233.642	1.25
234.442	-0.75
235.241	1.25
236.04	3.25
236.839	1.25
237.638	2.25
238.437	1.25
239.236	3.25
240.035	1.25
240.833	5.25
241.632	2.25
242.43	3.25
243.229	1.25
244.027	3.25
244.826	0.25
245.624	2.25
246.422	1.25
247.22	0.25
248.018	-0.75
248.816	1.25
249.614	-1.75
250.412	5.25
251.21	2.25
252.007	2.25
252.805	5.25
253.602	1.25
254.4	1.25
255.197	1.25
255.994	2.25
256.791	-0.75
257.589	1.25
258.386	4.25
259.183	3.25
259.979	4.25
260.776	1.25
261.573	5.25
262.37	4.25
263.166	5.25
263.963	5.25
264.759	5.25
265.556	5.25
266.352	3.25
267.148	7.25
267.944	3.25
268.74	6.25
269.536	6.25
270.332	6.25
271.128	7.25
271.924	7.25
272.719	6.25
273.515	7.25
274.311	6.25
275.106	6.25
275.901	9.25
276.697	6.25
277.492	8.25
278.287	7.25
279.082	8.25
279.877	10.25
280.672	11.25
281.467	9.25
282.262	9.25
283.056	8.25
283.851	9.25
284.646	9.25
285.44	10.25
286.234	12.25
287.029	8.25
287.823	9.25
288.617	7.25
289.411	9.25
290.205	10.25
290.999	9.25
291.793	9.25
292.587	9.25
293.381	8.25
294.174	8.25
294.968	8.25
295.761	11.25
296.555	8.25
297.348	10.25
298.141	9.25
298.935	9.25
299.728	8.25
300.521	9.25
301.314	8.25
302.107	7.25
302.899	8.25
303.692	9.25
304.485	9.25
305.277	8.25
306.07	8.25
306.862	8.25
307.655	7.25
308.447	10.25
309.239	5.25
310.031	8.25
310.823	8.25
311.615	9.25
312.407	6.25
313.199	7.25
313.991	6.25
314.783	5.25
315.574	8.25
316.366	4.25
317.157	6.25
317.949	7.25
318.74	8.25
319.531	4.25
320.322	4.25
321.113	3.25
321.904	4.25
322.695	3.25
323.486	5.25
324.277	5.25
325.068	6.25
325.858	6.25
326.649	3.25
327.439	4.25
328.23	1.25
329.02	4.25
329.81	2.25
330.6	6.25
331.391	1.25
332.181	4.25
332.971	4.25
333.76	3.25
334.55	4.25
335.34	3.25
336.13	5.25
336.919	2.25
337.709	3.25
338.498	4.25
339.287	5.25
340.077	5.25
340.866	3.25
341.655	3.25
342.444	4.25
343.233	3.25
344.022	3.25
344.811	3.25
345.6	3.25
346.388	3.25
347.177	5.25
347.965	3.25
348.754	3.25
349.542	4.25
350.33	3.25
351.119	4.25
351.907	2.25
352.695	2.25
353.483	2.25
354.271	5.25
355.059	4.25
355.846	2.25
356.634	3.25
357.422	1.25
358.209	1.25
358.997	3.25
359.784	4.25
360.571	1.25
361.359	2.25
362.146	2.25
362.933	1.25
363.72	2.25
364.507	1.25
365.294	3.25
366.081	2.25
366.867	3.25
367.654	2.25
368.44	0.25
369.227	2.25
370.013	1.25
370.8	5.25
371.586	2.25
372.372	1.25
373.158	2.25
373.944	2.25
374.73	4.25
375.516	3.25
376.302	2.25
377.088	1.25
377.873	1.25
378.659	3.25
379.445	2.25
380.23	2.25
381.015	1.25
381.801	1.25
382.586	2.25
383.371	2.25
384.156	2.25
384.941	0.25
385.726	4.25
386.511	1.25
387.296	2.25
388.08	3.25
388.865	2.25
389.649	1.25
390.434	2.25
391.218	3.25
392.003	4.25
392.787	1.25
393.571	3.25
394.355	1.25
395.139	6.25
395.923	4.25
396.707	3.25
397.491	3.25
398.274	3.25
399.058	5.25
399.842	3.25
400.625	3.25
401.408	2.25
402.192	2.25
402.975	6.25
403.758	2.25
404.541	5.25
405.324	2.25
406.107	4.25
406.89	1.25
407.673	3.25
408.456	4.25
409.238	3.25
410.021	5.25
410.803	2.25
411.586	3.25
412.368	4.25
413.151	5.25
413.933	5.25
414.715	4.25
415.497	3.25
416.279	3.25
417.061	3.25
417.843	2.25
418.624	5.25
419.406	4.25
420.188	5.25
420.969	7.25
421.751	7.25
422.532	4.25
423.313	5.25
424.095	5.25
424.876	6.25
425.657	7.25
426.438	6.25
427.219	5.25
428	10.25
428.78	7.25
429.561	9.25
430.342	7.25
431.122	9.25
431.903	9.25
432.683	7.25
433.464	7.25
434.244	8.25
435.024	8.25
435.804	9.25
436.584	8.25
437.364	11.25
438.144	8.25
438.924	12.25
439.704	14.25
440.483	9.25
441.263	10.25
442.042	13.25
442.822	13.25
443.601	14.25
444.38	16.25
445.16	16.25
445.939	17.25
446.718	17.25
447.497	19.25
448.276	20.25
449.054	22.25
449.833	25.25
450.612	27.25
451.391	27.25
452.169	33.25
452.948	34.25
453.726	39.25
454.504	43.25
455.282	44.25
456.061	54.25
456.839	52.25
457.617	62.25
458.395	69.25
459.172	73.25
459.95	88.25
460.728	95.25
461.506	104.25
462.283	115.25
463.061	131.25
463.838	145.25
464.615	160.25
465.393	178.25
466.17	198.25
466.947	221.25
467.724	242.25
468.501	268.25
469.278	293.25
470.055	330.25
470.831	362.25
471.608	399.25
472.385	441.25
473.161	495.25
473.938	545.25
474.714	597.25
475.49	652.25
476.266	729.25
477.043	798.25
477.819	882.25
478.595	969.25
479.371	1065.25
480.146	1155.25
480.922	1272.25
481.698	1388.25
482.473	1535.25
483.249	1664.25
484.024	1831.25
484.8	1973.25
485.575	2171.25
486.35	2386.25
487.126	2605.25
487.901	2829.25
488.676	3102.25
489.451	3378.25
490.225	3680.25
491	4046.25
491.775	4380.25
492.55	4777.25
493.324	5202.25
494.099	5645.25
494.873	6142.25
495.647	6614.25
496.422	7191.25
497.196	7729.25
497.97	8314.25
498.744	8922.25
499.518	9586.25
500.292	10213.25
501.066	10852.25
501.839	11469.25
502.613	12044.25
503.387	12628.25
504.16	13160.25
504.934	13660.25
505.707	14004.25
506.48	14393.25
507.253	14699.25
508.027	14885.25
508.8	15001.25
509.573	15008.25
510.346	14970.25
511.118	14825.25
511.891	14592.25
512.664	14259.25
513.437	13926.25
514.209	13491.25
514.982	13037.25
515.754	12592.25
516.526	12146.25
517.298	11649.25
518.071	11205.25
518.843	10717.25
519.615	10303.25
520.387	9899.25
521.159	9464.25
521.93	9082.25
522.702	8723.25
523.474	8389.25
524.245	8078.25
525.017	7794.25
525.788	7429.25
526.56	7133.25
527.331	6880.25
528.102	6559.25
528.873	6316.25
529.644	6044.25
530.415	5782.25
531.186	5537.25
531.957	5264.25
532.728	5036.25
533.498	4781.25
534.269	4531.25
535.039	4294.25
535.81	4064.25
536.58	3841.25
537.351	3641.25
538.121	3414.25
538.891	3258.25
539.661	3058.25
540.431	2916.25
541.201	2758.25
541.971	2601.25
542.741	2484.25
543.51	2335.25
544.28	2208.25
545.05	2121.25
545.819	1999.25
546.588	1914.25
547.358	1826.25
548.127	1713.25
548.896	1635.25
549.665	1568.25
550.434	1484.25
551.203	1423.25
551.972	1333.25
552.741	1267.25
553.51	1199.25
554.278	1132.25
555.047	1071.25
555.815	1024.25
556.584	972.25
557.352	910.25
558.121	868.25
558.889	814.25
559.657	762.25
560.425	724.25
561.193	678.25
561.961	650.25
562.729	601.25
563.496	573.25
564.264	541.25
565.032	522.25
565.799	491.25
566.567	449.25
567.334	431.25
568.101	404.25
568.869	381.25
569.636	371.25
570.403	344.25
571.17	321.25
571.937	304.25
572.704	285.25
573.471	272.25
574.237	244.25
575.004	243.25
575.771	219.25
576.537	215.25
577.303	202.25
578.07	185.25
578.836	175.25
579.602	169.25
580.368	156.25
581.134	150.25
581.9	143.25
582.666	134.25
583.432	126.25
584.198	118.25
584.964	116.25
585.729	109.25
586.495	110.25
587.26	96.25
588.025	92.25
588.791	83.25
589.556	85.25
590.321	77.25
591.086	76.25
591.851	68.25
592.616	66.25
593.381	62.25
594.146	58.25
594.911	53.25
595.675	54.25
596.44	48.25
597.204	48.25
597.969	44.25
598.733	43.25
599.497	38.25
600.261	41.25
601.025	37.25
601.79	35.25
602.553	35.25
603.317	33.25
604.081	32.25
604.845	29.25
605.609	27.25
606.372	28.25
607.136	25.25
607.899	26.25
608.662	25.25
609.426	21.25
610.189	26.25
610.952	24.25
611.715	23.25
612.478	18.25
613.241	18.25
614.004	21.25
614.767	15.25
615.529	17.25
616.292	14.25
617.055	16.25
617.817	13.25
618.579	13.25
619.342	15.25
620.104	13.25
620.866	13.25
621.628	15.25
622.39	12.25
623.152	9.25
623.914	10.25
624.676	9.25
625.438	10.25
626.199	9.25
626.961	8.25
627.722	10.25
628.484	9.25
629.245	9.25
630.006	9.25
630.768	6.25
631.529	9.25
632.29	7.25
633.051	6.25
633.812	9.25
634.573	8.25
635.333	6.25
636.094	8.25
636.855	6.25
637.615	10.25
638.376	6.25
639.136	7.25
639.896	5.25
640.657	5.25
641.417	8.25
642.177	4.25
642.937	6.25
643.697	5.25
644.457	7.25
645.216	2.25
645.976	5.25
646.736	5.25
647.495	4.25
648.255	5.25
649.014	5.25
649.774	3.25
650.533	4.25
651.292	3.25
652.051	2.25
652.81	2.25
653.569	1.25
654.328	3.25
655.087	1.25
655.846	5.25
656.604	1.25
657.363	6.25
658.121	6.25
658.88	3.25
659.638	3.25
660.397	2.25
661.155	3.25
661.913	3.25
662.671	3.25
663.429	2.25
664.187	2.25
664.945	4.25
665.703	2.25
666.46	4.25
667.218	1.25
667.976	5.25
668.733	4.25
669.49	3.25
670.248	2.25
671.005	2.25
671.762	2.25
672.519	1.25
673.276	2.25
674.033	2.25
674.79	3.25
675.547	-1.75
676.304	2.25
677.06	3.25
677.817	0.25
678.574	2.25
679.33	2.25
680.086	0.25
680.843	3.25
681.599	3.25
682.355	3.25
683.111	3.25
683.867	2.25
684.623	1.25
685.379	2.25
686.135	3.25
686.89	2.25
687.646	0.25
688.402	1.25
689.157	3.25
689.912	1.25
690.668	3.25
691.423	1.25
692.178	-0.75
692.933	0.25
693.688	5.25
694.443	1.25
695.198	2.25
695.953	4.25
696.708	0.25
697.462	1.25
698.217	2.25
698.972	-0.75
699.726	3.25
700.48	2.25
701.235	2.25
701.989	3.25
702.743	1.25
703.497	1.25
704.251	1.25
705.005	4.25
705.759	1.25
706.513	1.25
707.266	4.25
708.02	0.25
708.774	1.25
709.527	1.25
710.28	0.25
711.034	2.25
711.787	3.25
712.54	4.25
713.293	1.25
714.046	2.25
714.799	2.25
715.552	2.25
716.305	0.25
717.058	2.25
717.81	2.25
718.563	0.25
719.315	3.25
720.068	4.25
720.82	3.25
721.573	1.25
722.325	-0.75
723.077	1.25
723.829	1.25
724.581	2.25
725.333	2.25
726.085	2.25
726.836	1.25
727.588	1.25
728.34	3.25
729.091	2.25
729.843	1.25
730.594	2.25
731.346	1.25
732.097	0.25
732.848	1.25
733.599	0.25
734.35	1.25
735.101	2.25
735.852	2.25
736.603	2.25
737.354	1.25
738.104	3.25
738.855	5.25
739.605	1.25
740.356	2.25
741.106	3.25
741.856	-0.75
742.607	3.25
743.357	3.25
744.107	3.25
744.857	2.25
745.607	2.25
746.357	1.25
747.106	2.25
747.856	1.25
748.606	2.25
749.355	2.25
750.105	2.25
750.854	2.25
751.603	2.25
752.353	2.25
753.102	3.25
753.851	2.25
754.6	1.25
755.349	1.25
756.098	3.25
756.847	1.25
757.595	2.25
758.344	4.25
759.093	0.25
759.841	5.25
760.589	2.25
761.338	3.25
762.086	1.25
762.834	4.25
763.582	3.25
764.331	2.25
765.079	3.25
765.826	3.25
766.574	2.25
767.322	5.25
768.07	3.25
768.817	3.25
769.565	2.25
770.312	3.25
771.06	3.25
771.807	3.25
772.554	3.25
773.302	4.25
774.049	5.25
774.796	4.25
775.543	5.25
776.29	6.25
777.036	5.25
777.783	5.25
778.53	4.25
779.276	5.25
780.023	4.25
780.769	5.25
781.516	3.25
782.262	4.25
783.008	5.25
783.754	5.25
784.5	3.25
785.246	4.25
785.992	5.25
786.738	4.25
787.484	6.25
788.23	5.25
788.975	4.25
789.721	5.25
790.466	5.25
791.212	6.25
791.957	4.25
792.702	5.25
793.447	4.25
794.193	3.25
794.938	4.25
795.683	3.25
796.427	5.25
797.172	4.25
797.917	2.25
798.662	4.25
799.406	1.25
800.151	4.25
800.895	2.25
801.64	4.25
802.384	4.25
803.128	7.25
803.872	5.25
804.616	2.25
805.36	5.25
806.104	1.25
806.848	4.25
807.592	4.25
808.336	4.25
809.079	4.25
809.823	3.25
810.566	1.25
811.31	1.25
812.053	6.25
812.796	2.25
813.539	2.25
814.283	4.25
815.026	2.25
815.769	5.25
816.511	3.25
817.254	3.25
817.997	3.25
818.74	3.25
819.482	0.25
820.225	3.25
820.967	4.25
821.71	2.25
822.452	1.25
823.194	2.25
823.936	3.25
824.678	3.25
825.42	5.25
826.162	3.25
826.904	2.25
827.646	2.25
828.388	2.25
829.129	3.25
829.871	2.25
830.612	3.25
831.354	3.25
832.095	2.25
832.836	0.25
833.577	3.25
834.319	2.25
835.06	1.25
835.801	0.25
836.542	1.25
837.282	4.25
838.023	3.25
838.764	3.25
839.504	2.25
840.245	3.25
840.985	1.25
841.726	2.25
842.466	0.25
843.206	2.25
843.946	4.25
844.687	1.25
845.427	1.25
846.166	1.25
846.906	2.25
847.646	4.25
848.386	3.25
849.125	4.25
849.865	1.25
850.605	2.25
851.344	-1.75
852.083	3.25
852.823	1.25
853.562	2.25
854.301	1.25
855.04	3.25
855.779	1.25
856.518	2.25
857.257	1.25
857.995	1.25
858.734	1.25
859.473	2.25
860.211	0.25
860.95	0.25
861.688	3.25
862.426	2.25
863.165	1.25
863.903	1.25
864.641	1.25
865.379	0.25
866.117	2.25
866.855	1.25
867.593	5.25
868.33	0.25
869.068	-1.75
869.806	5.25
870.543	1.25
871.28	3.25
872.018	1.25
872.755	1.25
873.492	2.25
874.229	2.25
874.967	2.25
875.703	-0.75
876.44	3.25
877.177	-0.75
877.914	2.25
878.651	-0.75
879.387	1.25
880.124	1.25
880.86	0.25
881.597	4.25
882.333	-1.75
883.069	1.25
883.806	0.25
884.542	0.25
885.278	2.25
886.014	1.25
886.749	-0.75
887.485	3.25
888.221	-1.75
888.957	2.25
889.692	0.25
890.428	0.25
891.163	1.25
891.899	1.25
892.634	0.25
893.369	3.25
894.104	1.25
894.839	-0.75
895.574	-0.75
896.309	0.25
897.044	1.25
897.779	1.25
898.514	3.25
899.248	-0.75
899.983	0.25
900.717	-0.75
901.452	1.25
902.186	0.25
902.92	0.25
903.654	0.25
904.389	-0.75
905.123	2.25
905.857	0.25
906.59	-2.75
907.324	3.25
908.058	1.25
908.792	1.25
909.525	-1.75
910.259	0.25
910.992	0.25
911.726	1.25
912.459	1.25
913.192	1.25
913.925	1.25
914.658	2.25
915.391	1.25
916.124	-1.75
916.857	-0.75
917.59	0.25
918.323	1.25
919.055	2.25
919.788	1.25
920.521	0.25
921.253	-0.75
921.985	0.25
922.718	2.25
923.45	-1.75
924.182	0.25
924.914	-0.75
925.646	0.25
926.378	0.25
927.11	-1.75
927.841	-0.75
928.573	1.25
929.305	2.25
930.036	-0.75
930.768	0.25
931.499	-1.75
932.23	-1.75
932.962	3.25
933.693	2.25
934.424	-0.75
935.155	-0.75
935.886	-1.75
936.617	0.25
937.348	-1.75
938.078	1.25
938.809	1.25
939.54	1.25
940.27	0.25
941.001	-0.75
941.731	0.25
942.461	-0.75
943.191	1.25
943.922	-1.75
944.652	-0.75
945.382	1.25
946.112	0.25
946.841	1.25
947.571	1.25
948.301	-0.75
949.031	1.25
949.76	0.25
950.49	-0.75
951.219	-1.75
951.948	1.25
952.678	-0.75
953.407	-1.75
954.136	1.25
954.865	0.25
955.594	0.25
956.323	0.25
957.052	-1.75
957.78	-2.75
958.509	0.25
959.238	2.25
959.966	0.25
960.695	1.25
961.423	-2.75
962.151	1.25
962.88	-0.75
963.608	0.25
964.336	1.25
965.064	2.25
965.792	-0.75
966.52	-1.75
967.247	0.25
967.975	1.25
968.703	0.25
969.43	0.25
970.158	-0.75
970.885	1.25
971.613	-0.75
972.34	0.25
973.067	1.25
973.794	-1.75
974.521	0.25
975.248	1.25
975.975	-0.75
976.702	-1.75
977.429	0.25
978.156	-1.75
978.882	-0.75
979.609	2.25
980.335	-1.75
981.062	-0.75
981.788	0.25
982.514	2.25
983.24	0.25
983.967	1.25
984.693	-0.75
985.419	0.25
986.144	0.25
986.87	-0.75
987.596	1.25
988.322	1.25
989.047	2.25
989.773	3.25
990.498	-0.75
991.224	2.25
991.949	0.25
992.674	-0.75
993.399	-0.75
994.124	-1.75
994.849	1.25
995.574	-0.75
996.299	1.25
997.024	-0.75
997.749	1.25
998.473	0.25
999.198	1.25
999.922	1.25
1000.647	1.25
1001.371	2.25
1002.095	0.25
1002.82	-1.75
1003.544	0.25
1004.268	0.25
1004.992	-0.75
1005.716	-1.75
1006.439	-0.75
1007.163	0.25
1007.887	-1.75
1008.611	2.25
1009.334	1.25
1010.058	1.25
1010.781	0.25
1011.504	0.25
1012.228	0.25
1012.951	-1.75
1013.674	0.25
1014.397	0.25
1015.12	0.25
