节点500_145_QEPB04081__348__11-34-30-531.txt的数据

Date: Wed Nov 12 11:34:30 CST 2025
User: PC
Spectrometer: QEPB0408
触发模式: 0
积分时间 (秒): 1.000000E-2
Scans to average: 1
启用暗噪声校正: true
启用非线性校正: false
滑动平均宽度: 0
X轴模式: Wavelengths
Number of Pixels in Spectrum: 1044
>>>>>Begin Spectral Data<<<<<
220.843	1.12
221.644	-0.88
222.444	0.12
223.244	1.12
224.045	2.12
224.845	0.12
225.645	0.12
226.445	0.12
227.245	1.12
228.045	1.12
228.845	0.12
229.645	1.12
230.444	0.12
231.244	0.12
232.043	0.12
232.843	0.12
233.642	2.12
234.442	-0.88
235.241	1.12
236.04	1.12
236.839	-0.88
237.638	2.12
238.437	1.12
239.236	-0.88
240.035	1.12
240.833	1.12
241.632	0.12
242.43	1.12
243.229	1.12
244.027	3.12
244.826	2.12
245.624	3.12
246.422	0.12
247.22	0.12
248.018	1.12
248.816	2.12
249.614	3.12
250.412	0.12
251.21	2.12
252.007	3.12
252.805	2.12
253.602	2.12
254.4	1.12
255.197	1.12
255.994	4.12
256.791	5.12
257.589	2.12
258.386	2.12
259.183	7.12
259.979	2.12
260.776	5.12
261.573	5.12
262.37	3.12
263.166	4.12
263.963	5.12
264.759	5.12
265.556	4.12
266.352	5.12
267.148	6.12
267.944	5.12
268.74	4.12
269.536	5.12
270.332	8.12
271.128	5.12
271.924	8.12
272.719	9.12
273.515	9.12
274.311	6.12
275.106	8.12
275.901	9.12
276.697	7.12
277.492	9.12
278.287	8.12
279.082	8.12
279.877	10.12
280.672	9.12
281.467	10.12
282.262	11.12
283.056	10.12
283.851	13.12
284.646	10.12
285.44	8.12
286.234	10.12
287.029	12.12
287.823	9.12
288.617	10.12
289.411	11.12
290.205	6.12
290.999	11.12
291.793	11.12
292.587	9.12
293.381	8.12
294.174	9.12
294.968	9.12
295.761	9.12
296.555	7.12
297.348	9.12
298.141	8.12
298.935	8.12
299.728	11.12
300.521	8.12
301.314	8.12
302.107	11.12
302.899	8.12
303.692	8.12
304.485	8.12
305.277	7.12
306.07	9.12
306.862	6.12
307.655	7.12
308.447	5.12
309.239	9.12
310.031	8.12
310.823	8.12
311.615	7.12
312.407	5.12
313.199	6.12
313.991	8.12
314.783	7.12
315.574	5.12
316.366	6.12
317.157	6.12
317.949	5.12
318.74	5.12
319.531	5.12
320.322	3.12
321.113	5.12
321.904	7.12
322.695	5.12
323.486	6.12
324.277	4.12
325.068	4.12
325.858	5.12
326.649	4.12
327.439	7.12
328.23	5.12
329.02	5.12
329.81	4.12
330.6	2.12
331.391	4.12
332.181	5.12
332.971	5.12
333.76	5.12
334.55	4.12
335.34	4.12
336.13	3.12
336.919	5.12
337.709	5.12
338.498	3.12
339.287	2.12
340.077	3.12
340.866	5.12
341.655	5.12
342.444	3.12
343.233	5.12
344.022	3.12
344.811	2.12
345.6	3.12
346.388	2.12
347.177	4.12
347.965	3.12
348.754	4.12
349.542	4.12
350.33	3.12
351.119	4.12
351.907	4.12
352.695	3.12
353.483	2.12
354.271	2.12
355.059	2.12
355.846	2.12
356.634	2.12
357.422	3.12
358.209	3.12
358.997	4.12
359.784	3.12
360.571	3.12
361.359	2.12
362.146	2.12
362.933	3.12
363.72	2.12
364.507	5.12
365.294	3.12
366.081	3.12
366.867	2.12
367.654	2.12
368.44	2.12
369.227	1.12
370.013	3.12
370.8	3.12
371.586	2.12
372.372	3.12
373.158	3.12
373.944	4.12
374.73	2.12
375.516	2.12
376.302	2.12
377.088	1.12
377.873	3.12
378.659	1.12
379.445	3.12
380.23	0.12
381.015	3.12
381.801	3.12
382.586	3.12
383.371	2.12
384.156	3.12
384.941	2.12
385.726	4.12
386.511	1.12
387.296	2.12
388.08	3.12
388.865	4.12
389.649	2.12
390.434	4.12
391.218	3.12
392.003	3.12
392.787	3.12
393.571	4.12
394.355	2.12
395.139	2.12
395.923	5.12
396.707	2.12
397.491	4.12
398.274	4.12
399.058	2.12
399.842	3.12
400.625	2.12
401.408	4.12
402.192	3.12
402.975	4.12
403.758	3.12
404.541	2.12
405.324	3.12
406.107	4.12
406.89	2.12
407.673	3.12
408.456	1.12
409.238	5.12
410.021	5.12
410.803	4.12
411.586	5.12
412.368	6.12
413.151	3.12
413.933	6.12
414.715	5.12
415.497	3.12
416.279	6.12
417.061	5.12
417.843	7.12
418.624	4.12
419.406	5.12
420.188	5.12
420.969	3.12
421.751	4.12
422.532	6.12
423.313	6.12
424.095	4.12
424.876	6.12
425.657	5.12
426.438	4.12
427.219	9.12
428	9.12
428.78	5.12
429.561	8.12
430.342	5.12
431.122	7.12
431.903	3.12
432.683	9.12
433.464	8.12
434.244	11.12
435.024	9.12
435.804	6.12
436.584	8.12
437.364	8.12
438.144	9.12
438.924	12.12
439.704	9.12
440.483	11.12
441.263	11.12
442.042	15.12
442.822	11.12
443.601	16.12
444.38	14.12
445.16	13.12
445.939	17.12
446.718	15.12
447.497	21.12
448.276	19.12
449.054	21.12
449.833	21.12
450.612	23.12
451.391	26.12
452.169	30.12
452.948	29.12
453.726	32.12
454.504	39.12
455.282	43.12
456.061	47.12
456.839	52.12
457.617	55.12
458.395	62.12
459.172	71.12
459.95	73.12
460.728	81.12
461.506	92.12
462.283	100.12
463.061	119.12
463.838	132.12
464.615	141.12
465.393	161.12
466.17	173.12
466.947	193.12
467.724	220.12
468.501	247.12
469.278	272.12
470.055	308.12
470.831	342.12
471.608	377.12
472.385	410.12
473.161	469.12
473.938	517.12
474.714	573.12
475.49	636.12
476.266	693.12
477.043	775.12
477.819	864.12
478.595	947.12
479.371	1043.12
480.146	1165.12
480.922	1282.12
481.698	1399.12
482.473	1554.12
483.249	1709.12
484.024	1882.12
484.8	2066.12
485.575	2275.12
486.35	2492.12
487.126	2750.12
487.901	3006.12
488.676	3323.12
489.451	3659.12
490.225	3999.12
491	4379.12
491.775	4824.12
492.55	5286.12
493.324	5776.12
494.099	6335.12
494.873	6870.12
495.647	7488.12
496.422	8133.12
497.196	8803.12
497.97	9491.12
498.744	10183.12
499.518	10987.12
500.292	11688.12
501.066	12396.12
501.839	13063.12
502.613	13750.12
503.387	14398.12
504.16	14932.12
504.934	15376.12
505.707	15751.12
506.48	16039.12
507.253	16231.12
508.027	16245.12
508.8	16275.12
509.573	16147.12
510.346	15954.12
511.118	15644.12
511.891	15229.12
512.664	14793.12
513.437	14360.12
514.209	13855.12
514.982	13346.12
515.754	12747.12
516.526	12293.12
517.298	11697.12
518.071	11171.12
518.843	10666.12
519.615	10251.12
520.387	9809.12
521.159	9403.12
521.93	9061.12
522.702	8708.12
523.474	8319.12
524.245	8009.12
525.017	7671.12
525.788	7375.12
526.56	7112.12
527.331	6788.12
528.102	6497.12
528.873	6220.12
529.644	5964.12
530.415	5664.12
531.186	5417.12
531.957	5125.12
532.728	4872.12
533.498	4626.12
534.269	4349.12
535.039	4133.12
535.81	3934.12
536.58	3697.12
537.351	3484.12
538.121	3320.12
538.891	3114.12
539.661	2934.12
540.431	2789.12
541.201	2638.12
541.971	2485.12
542.741	2349.12
543.51	2242.12
544.28	2126.12
545.05	2023.12
545.819	1917.12
546.588	1835.12
547.358	1742.12
548.127	1637.12
548.896	1560.12
549.665	1481.12
550.434	1406.12
551.203	1335.12
551.972	1267.12
552.741	1203.12
553.51	1150.12
554.278	1073.12
555.047	1009.12
555.815	963.12
556.584	900.12
557.352	850.12
558.121	798.12
558.889	757.12
559.657	719.12
560.425	674.12
561.193	638.12
561.961	610.12
562.729	576.12
563.496	547.12
564.264	506.12
565.032	480.12
565.799	449.12
566.567	423.12
567.334	402.12
568.101	375.12
568.869	350.12
569.636	339.12
570.403	322.12
571.17	301.12
571.937	285.12
572.704	269.12
573.471	255.12
574.237	240.12
575.004	223.12
575.771	204.12
576.537	198.12
577.303	187.12
578.07	174.12
578.836	166.12
579.602	151.12
580.368	144.12
581.134	139.12
581.9	131.12
582.666	125.12
583.432	120.12
584.198	116.12
584.964	104.12
585.729	101.12
586.495	94.12
587.26	94.12
588.025	85.12
588.791	78.12
589.556	79.12
590.321	74.12
591.086	65.12
591.851	67.12
592.616	59.12
593.381	59.12
594.146	57.12
594.911	51.12
595.675	51.12
596.44	46.12
597.204	44.12
597.969	44.12
598.733	41.12
599.497	38.12
600.261	39.12
601.025	35.12
601.79	34.12
602.553	30.12
603.317	32.12
604.081	29.12
604.845	27.12
605.609	29.12
606.372	24.12
607.136	26.12
607.899	22.12
608.662	23.12
609.426	23.12
610.189	20.12
610.952	22.12
611.715	17.12
612.478	18.12
613.241	17.12
614.004	20.12
614.767	16.12
615.529	16.12
616.292	15.12
617.055	14.12
617.817	14.12
618.579	13.12
619.342	15.12
620.104	13.12
620.866	13.12
621.628	12.12
622.39	12.12
623.152	12.12
623.914	11.12
624.676	8.12
625.438	8.12
626.199	11.12
626.961	12.12
627.722	10.12
628.484	6.12
629.245	9.12
630.006	10.12
630.768	8.12
631.529	8.12
632.29	7.12
633.051	4.12
633.812	7.12
634.573	5.12
635.333	7.12
636.094	6.12
636.855	7.12
637.615	9.12
638.376	5.12
639.136	5.12
639.896	6.12
640.657	8.12
641.417	3.12
642.177	5.12
642.937	6.12
643.697	5.12
644.457	5.12
645.216	6.12
645.976	5.12
646.736	7.12
647.495	5.12
648.255	5.12
649.014	4.12
649.774	3.12
650.533	4.12
651.292	3.12
652.051	5.12
652.81	3.12
653.569	5.12
654.328	5.12
655.087	1.12
655.846	4.12
656.604	6.12
657.363	4.12
658.121	3.12
658.88	1.12
659.638	1.12
660.397	3.12
661.155	1.12
661.913	2.12
662.671	2.12
663.429	2.12
664.187	2.12
664.945	1.12
665.703	3.12
666.46	4.12
667.218	2.12
667.976	2.12
668.733	2.12
669.49	3.12
670.248	2.12
671.005	3.12
671.762	2.12
672.519	2.12
673.276	0.12
674.033	3.12
674.79	0.12
675.547	3.12
676.304	4.12
677.06	2.12
677.817	1.12
678.574	2.12
679.33	0.12
680.086	1.12
680.843	0.12
681.599	2.12
682.355	0.12
683.111	3.12
683.867	2.12
684.623	4.12
685.379	1.12
686.135	1.12
686.89	1.12
687.646	1.12
688.402	4.12
689.157	0.12
689.912	1.12
690.668	2.12
691.423	0.12
692.178	0.12
692.933	3.12
693.688	3.12
694.443	4.12
695.198	0.12
695.953	3.12
696.708	1.12
697.462	2.12
698.217	1.12
698.972	5.12
699.726	3.12
700.48	4.12
701.235	0.12
701.989	0.12
702.743	2.12
703.497	2.12
704.251	3.12
705.005	3.12
705.759	1.12
706.513	1.12
707.266	2.12
708.02	1.12
708.774	1.12
709.527	1.12
710.28	0.12
711.034	0.12
711.787	0.12
712.54	2.12
713.293	3.12
714.046	0.12
714.799	4.12
715.552	1.12
716.305	1.12
717.058	2.12
717.81	1.12
718.563	2.12
719.315	3.12
720.068	2.12
720.82	2.12
721.573	1.12
722.325	1.12
723.077	0.12
723.829	2.12
724.581	1.12
725.333	-0.88
726.085	3.12
726.836	-0.88
727.588	4.12
728.34	2.12
729.091	2.12
729.843	-0.88
730.594	3.12
731.346	2.12
732.097	2.12
732.848	3.12
733.599	-1.88
734.35	3.12
735.101	1.12
735.852	2.12
736.603	0.12
737.354	2.12
738.104	2.12
738.855	2.12
739.605	1.12
740.356	2.12
741.106	3.12
741.856	1.12
742.607	1.12
743.357	2.12
744.107	1.12
744.857	2.12
745.607	1.12
746.357	1.12
747.106	3.12
747.856	2.12
748.606	4.12
749.355	1.12
750.105	2.12
750.854	3.12
751.603	2.12
752.353	2.12
753.102	2.12
753.851	2.12
754.6	0.12
755.349	3.12
756.098	1.12
756.847	5.12
757.595	4.12
758.344	4.12
759.093	2.12
759.841	1.12
760.589	4.12
761.338	3.12
762.086	4.12
762.834	3.12
763.582	4.12
764.331	4.12
765.079	4.12
765.826	4.12
766.574	3.12
767.322	4.12
768.07	4.12
768.817	6.12
769.565	5.12
770.312	1.12
771.06	6.12
771.807	2.12
772.554	3.12
773.302	4.12
774.049	2.12
774.796	6.12
775.543	6.12
776.29	6.12
777.036	7.12
777.783	3.12
778.53	6.12
779.276	5.12
780.023	4.12
780.769	7.12
781.516	6.12
782.262	4.12
783.008	4.12
783.754	4.12
784.5	3.12
785.246	6.12
785.992	4.12
786.738	4.12
787.484	3.12
788.23	5.12
788.975	5.12
789.721	5.12
790.466	5.12
791.212	7.12
791.957	6.12
792.702	6.12
793.447	4.12
794.193	5.12
794.938	6.12
795.683	5.12
796.427	5.12
797.172	4.12
797.917	5.12
798.662	6.12
799.406	5.12
800.151	5.12
800.895	5.12
801.64	3.12
802.384	5.12
803.128	6.12
803.872	3.12
804.616	5.12
805.36	2.12
806.104	4.12
806.848	6.12
807.592	6.12
808.336	5.12
809.079	2.12
809.823	4.12
810.566	2.12
811.31	5.12
812.053	3.12
812.796	2.12
813.539	3.12
814.283	3.12
815.026	3.12
815.769	4.12
816.511	2.12
817.254	1.12
817.997	1.12
818.74	3.12
819.482	0.12
820.225	3.12
820.967	4.12
821.71	3.12
822.452	2.12
823.194	5.12
823.936	3.12
824.678	3.12
825.42	2.12
826.162	2.12
826.904	2.12
827.646	3.12
828.388	2.12
829.129	5.12
829.871	2.12
830.612	2.12
831.354	2.12
832.095	3.12
832.836	3.12
833.577	5.12
834.319	4.12
835.06	1.12
835.801	4.12
836.542	0.12
837.282	3.12
838.023	2.12
838.764	-1.88
839.504	3.12
840.245	2.12
840.985	2.12
841.726	1.12
842.466	3.12
843.206	1.12
843.946	1.12
844.687	4.12
845.427	1.12
846.166	2.12
846.906	1.12
847.646	3.12
848.386	2.12
849.125	2.12
849.865	3.12
850.605	1.12
851.344	1.12
852.083	2.12
852.823	0.12
853.562	3.12
854.301	3.12
855.04	2.12
855.779	1.12
856.518	3.12
857.257	3.12
857.995	3.12
858.734	3.12
859.473	-1.88
860.211	1.12
860.95	1.12
861.688	2.12
862.426	1.12
863.165	2.12
863.903	0.12
864.641	2.12
865.379	1.12
866.117	1.12
866.855	1.12
867.593	-1.88
868.33	1.12
869.068	1.12
869.806	1.12
870.543	-0.88
871.28	0.12
872.018	1.12
872.755	1.12
873.492	1.12
874.229	1.12
874.967	0.12
875.703	1.12
876.44	2.12
877.177	1.12
877.914	2.12
878.651	0.12
879.387	1.12
880.124	0.12
880.86	-1.88
881.597	1.12
882.333	-0.88
883.069	1.12
883.806	1.12
884.542	1.12
885.278	-0.88
886.014	1.12
886.749	1.12
887.485	1.12
888.221	0.12
888.957	1.12
889.692	-0.88
890.428	-0.88
891.163	0.12
891.899	-0.88
892.634	4.12
893.369	2.12
894.104	-0.88
894.839	1.12
895.574	1.12
896.309	1.12
897.044	-1.88
897.779	1.12
898.514	1.12
899.248	0.12
899.983	1.12
900.717	0.12
901.452	1.12
902.186	-0.88
902.92	1.12
903.654	1.12
904.389	1.12
905.123	1.12
905.857	-1.88
906.59	-0.88
907.324	1.12
908.058	1.12
908.792	0.12
909.525	0.12
910.259	1.12
910.992	-1.88
911.726	0.12
912.459	0.12
913.192	0.12
913.925	1.12
914.658	-1.88
915.391	0.12
916.124	-1.88
916.857	2.12
917.59	-0.88
918.323	-1.88
919.055	0.12
919.788	1.12
920.521	0.12
921.253	0.12
921.985	2.12
922.718	1.12
923.45	-1.88
924.182	0.12
924.914	-0.88
925.646	-1.88
926.378	-1.88
927.11	0.12
927.841	0.12
928.573	2.12
929.305	1.12
930.036	-1.88
930.768	3.12
931.499	-0.88
932.23	0.12
932.962	2.12
933.693	-0.88
934.424	1.12
935.155	1.12
935.886	2.12
936.617	-1.88
937.348	0.12
938.078	1.12
938.809	2.12
939.54	0.12
940.27	-1.88
941.001	-0.88
941.731	1.12
942.461	1.12
943.191	0.12
943.922	1.12
944.652	-1.88
945.382	-0.88
946.112	2.12
946.841	-2.88
947.571	0.12
948.301	2.12
949.031	1.12
949.76	0.12
950.49	-1.88
951.219	-1.88
951.948	-1.88
952.678	-1.88
953.407	-0.88
954.136	0.12
954.865	-1.88
955.594	-0.88
956.323	1.12
957.052	-0.88
957.78	0.12
958.509	-1.88
959.238	0.12
959.966	-0.88
960.695	1.12
961.423	0.12
962.151	-0.88
962.88	-1.88
963.608	0.12
964.336	1.12
965.064	1.12
965.792	-1.88
966.52	1.12
967.247	-1.88
967.975	1.12
968.703	-1.88
969.43	-1.88
970.158	1.12
970.885	-0.88
971.613	1.12
972.34	-1.88
973.067	-0.88
973.794	2.12
974.521	-0.88
975.248	0.12
975.975	-0.88
976.702	1.12
977.429	1.12
978.156	-0.88
978.882	2.12
979.609	0.12
980.335	0.12
981.062	0.12
981.788	1.12
982.514	-1.88
983.24	0.12
983.967	2.12
984.693	1.12
985.419	1.12
986.144	-1.88
986.87	-1.88
987.596	0.12
988.322	-0.88
989.047	1.12
989.773	0.12
990.498	-0.88
991.224	0.12
991.949	-1.88
992.674	1.12
993.399	0.12
994.124	1.12
994.849	-0.88
995.574	-1.88
996.299	1.12
997.024	0.12
997.749	1.12
998.473	1.12
999.198	0.12
999.922	-0.88
1000.647	0.12
1001.371	3.12
1002.095	0.12
1002.82	0.12
1003.544	-0.88
1004.268	0.12
1004.992	-0.88
1005.716	-1.88
1006.439	0.12
1007.163	0.12
1007.887	-0.88
1008.611	0.12
1009.334	0.12
1010.058	-0.88
1010.781	-2.88
1011.504	1.12
1012.228	0.12
1012.951	-0.88
1013.674	-1.88
1014.397	0.12
1015.12	0.12
