节点500_145_QEPB04081__697__11-40-00-727.txt的数据

Date: Wed Nov 12 11:40:00 CST 2025
User: PC
Spectrometer: QEPB0408
触发模式: 0
积分时间 (秒): 1.000000E-2
Scans to average: 1
启用暗噪声校正: true
启用非线性校正: false
滑动平均宽度: 0
X轴模式: Wavelengths
Number of Pixels in Spectrum: 1044
>>>>>Begin Spectral Data<<<<<
220.843	0.75
221.644	0.75
222.444	1.75
223.244	1.75
224.045	-0.25
224.845	0.75
225.645	-3.25
226.445	1.75
227.245	-1.25
228.045	-0.25
228.845	-1.25
229.645	0.75
230.444	1.75
231.244	-0.25
232.043	1.75
232.843	-0.25
233.642	2.75
234.442	0.75
235.241	0.75
236.04	0.75
236.839	1.75
237.638	1.75
238.437	2.75
239.236	2.75
240.035	0.75
240.833	0.75
241.632	3.75
242.43	2.75
243.229	0.75
244.027	1.75
244.826	1.75
245.624	3.75
246.422	2.75
247.22	-0.25
248.018	0.75
248.816	2.75
249.614	0.75
250.412	2.75
251.21	4.75
252.007	-0.25
252.805	0.75
253.602	3.75
254.4	3.75
255.197	3.75
255.994	3.75
256.791	1.75
257.589	1.75
258.386	3.75
259.183	5.75
259.979	0.75
260.776	3.75
261.573	6.75
262.37	3.75
263.166	3.75
263.963	5.75
264.759	3.75
265.556	3.75
266.352	3.75
267.148	4.75
267.944	5.75
268.74	6.75
269.536	7.75
270.332	5.75
271.128	6.75
271.924	6.75
272.719	5.75
273.515	5.75
274.311	8.75
275.106	8.75
275.901	9.75
276.697	8.75
277.492	5.75
278.287	8.75
279.082	8.75
279.877	7.75
280.672	10.75
281.467	8.75
282.262	9.75
283.056	10.75
283.851	11.75
284.646	7.75
285.44	8.75
286.234	9.75
287.029	10.75
287.823	9.75
288.617	10.75
289.411	9.75
290.205	13.75
290.999	8.75
291.793	9.75
292.587	10.75
293.381	8.75
294.174	11.75
294.968	8.75
295.761	10.75
296.555	10.75
297.348	9.75
298.141	7.75
298.935	10.75
299.728	8.75
300.521	6.75
301.314	8.75
302.107	4.75
302.899	8.75
303.692	6.75
304.485	8.75
305.277	5.75
306.07	7.75
306.862	6.75
307.655	6.75
308.447	7.75
309.239	7.75
310.031	6.75
310.823	10.75
311.615	6.75
312.407	7.75
313.199	7.75
313.991	4.75
314.783	6.75
315.574	7.75
316.366	5.75
317.157	5.75
317.949	4.75
318.74	5.75
319.531	5.75
320.322	3.75
321.113	5.75
321.904	5.75
322.695	3.75
323.486	5.75
324.277	4.75
325.068	3.75
325.858	2.75
326.649	3.75
327.439	3.75
328.23	4.75
329.02	5.75
329.81	2.75
330.6	5.75
331.391	3.75
332.181	4.75
332.971	3.75
333.76	4.75
334.55	5.75
335.34	2.75
336.13	3.75
336.919	2.75
337.709	3.75
338.498	5.75
339.287	3.75
340.077	4.75
340.866	3.75
341.655	2.75
342.444	4.75
343.233	2.75
344.022	1.75
344.811	2.75
345.6	2.75
346.388	4.75
347.177	5.75
347.965	2.75
348.754	2.75
349.542	3.75
350.33	1.75
351.119	3.75
351.907	4.75
352.695	2.75
353.483	2.75
354.271	2.75
355.059	3.75
355.846	1.75
356.634	1.75
357.422	1.75
358.209	3.75
358.997	2.75
359.784	3.75
360.571	2.75
361.359	1.75
362.146	4.75
362.933	1.75
363.72	1.75
364.507	3.75
365.294	0.75
366.081	2.75
366.867	2.75
367.654	1.75
368.44	3.75
369.227	2.75
370.013	5.75
370.8	0.75
371.586	3.75
372.372	3.75
373.158	2.75
373.944	2.75
374.73	3.75
375.516	2.75
376.302	1.75
377.088	2.75
377.873	2.75
378.659	2.75
379.445	0.75
380.23	1.75
381.015	3.75
381.801	1.75
382.586	3.75
383.371	5.75
384.156	1.75
384.941	2.75
385.726	2.75
386.511	1.75
387.296	3.75
388.08	3.75
388.865	2.75
389.649	3.75
390.434	1.75
391.218	3.75
392.003	1.75
392.787	1.75
393.571	3.75
394.355	1.75
395.139	3.75
395.923	3.75
396.707	0.75
397.491	5.75
398.274	1.75
399.058	2.75
399.842	1.75
400.625	3.75
401.408	2.75
402.192	2.75
402.975	2.75
403.758	2.75
404.541	4.75
405.324	2.75
406.107	1.75
406.89	4.75
407.673	5.75
408.456	3.75
409.238	2.75
410.021	6.75
410.803	3.75
411.586	3.75
412.368	2.75
413.151	4.75
413.933	4.75
414.715	4.75
415.497	5.75
416.279	6.75
417.061	7.75
417.843	7.75
418.624	6.75
419.406	4.75
420.188	1.75
420.969	6.75
421.751	5.75
422.532	4.75
423.313	5.75
424.095	6.75
424.876	6.75
425.657	6.75
426.438	5.75
427.219	5.75
428	6.75
428.78	7.75
429.561	5.75
430.342	6.75
431.122	6.75
431.903	7.75
432.683	5.75
433.464	8.75
434.244	7.75
435.024	10.75
435.804	8.75
436.584	8.75
437.364	9.75
438.144	9.75
438.924	13.75
439.704	12.75
440.483	9.75
441.263	11.75
442.042	13.75
442.822	13.75
443.601	13.75
444.38	16.75
445.16	17.75
445.939	17.75
446.718	18.75
447.497	21.75
448.276	21.75
449.054	23.75
449.833	25.75
450.612	27.75
451.391	30.75
452.169	33.75
452.948	33.75
453.726	38.75
454.504	40.75
455.282	45.75
456.061	52.75
456.839	54.75
457.617	63.75
458.395	69.75
459.172	73.75
459.95	81.75
460.728	92.75
461.506	106.75
462.283	117.75
463.061	130.75
463.838	145.75
464.615	157.75
465.393	175.75
466.17	196.75
466.947	220.75
467.724	241.75
468.501	269.75
469.278	298.75
470.055	327.75
470.831	363.75
471.608	401.75
472.385	437.75
473.161	488.75
473.938	535.75
474.714	604.75
475.49	655.75
476.266	718.75
477.043	791.75
477.819	881.75
478.595	972.75
479.371	1055.75
480.146	1158.75
480.922	1269.75
481.698	1403.75
482.473	1518.75
483.249	1673.75
484.024	1828.75
484.8	1994.75
485.575	2166.75
486.35	2369.75
487.126	2602.75
487.901	2844.75
488.676	3084.75
489.451	3388.75
490.225	3697.75
491	4036.75
491.775	4375.75
492.55	4764.75
493.324	5202.75
494.099	5640.75
494.873	6118.75
495.647	6636.75
496.422	7135.75
497.196	7766.75
497.97	8351.75
498.744	8954.75
499.518	9561.75
500.292	10215.75
501.066	10852.75
501.839	11451.75
502.613	12041.75
503.387	12648.75
504.16	13188.75
504.934	13632.75
505.707	14121.75
506.48	14408.75
507.253	14737.75
508.027	14907.75
508.8	15021.75
509.573	14999.75
510.346	14973.75
511.118	14777.75
511.891	14583.75
512.664	14254.75
513.437	13906.75
514.209	13561.75
514.982	13087.75
515.754	12614.75
516.526	12099.75
517.298	11689.75
518.071	11182.75
518.843	10730.75
519.615	10303.75
520.387	9877.75
521.159	9458.75
521.93	9067.75
522.702	8728.75
523.474	8388.75
524.245	8086.75
525.017	7729.75
525.788	7441.75
526.56	7107.75
527.331	6854.75
528.102	6575.75
528.873	6280.75
529.644	6066.75
530.415	5789.75
531.186	5502.75
531.957	5264.75
532.728	5023.75
533.498	4766.75
534.269	4529.75
535.039	4302.75
535.81	4078.75
536.58	3836.75
537.351	3646.75
538.121	3424.75
538.891	3266.75
539.661	3056.75
540.431	2899.75
541.201	2768.75
541.971	2622.75
542.741	2470.75
543.51	2346.75
544.28	2221.75
545.05	2108.75
545.819	2008.75
546.588	1918.75
547.358	1821.75
548.127	1722.75
548.896	1635.75
549.665	1563.75
550.434	1491.75
551.203	1397.75
551.972	1331.75
552.741	1273.75
553.51	1210.75
554.278	1148.75
555.047	1073.75
555.815	1018.75
556.584	955.75
557.352	910.75
558.121	856.75
558.889	821.75
559.657	764.75
560.425	720.75
561.193	678.75
561.961	644.75
562.729	607.75
563.496	574.75
564.264	543.75
565.032	510.75
565.799	483.75
566.567	448.75
567.334	426.75
568.101	408.75
568.869	383.75
569.636	364.75
570.403	340.75
571.17	319.75
571.937	307.75
572.704	287.75
573.471	270.75
574.237	258.75
575.004	243.75
575.771	223.75
576.537	215.75
577.303	196.75
578.07	186.75
578.836	176.75
579.602	165.75
580.368	157.75
581.134	151.75
581.9	139.75
582.666	138.75
583.432	124.75
584.198	125.75
584.964	114.75
585.729	106.75
586.495	103.75
587.26	99.75
588.025	86.75
588.791	81.75
589.556	81.75
590.321	74.75
591.086	72.75
591.851	67.75
592.616	63.75
593.381	63.75
594.146	62.75
594.911	55.75
595.675	51.75
596.44	48.75
597.204	48.75
597.969	43.75
598.733	44.75
599.497	42.75
600.261	41.75
601.025	34.75
601.79	37.75
602.553	35.75
603.317	33.75
604.081	31.75
604.845	30.75
605.609	30.75
606.372	29.75
607.136	23.75
607.899	26.75
608.662	21.75
609.426	17.75
610.189	23.75
610.952	23.75
611.715	20.75
612.478	19.75
613.241	19.75
614.004	20.75
614.767	19.75
615.529	14.75
616.292	17.75
617.055	15.75
617.817	13.75
618.579	14.75
619.342	13.75
620.104	11.75
620.866	13.75
621.628	12.75
622.39	13.75
623.152	12.75
623.914	12.75
624.676	9.75
625.438	9.75
626.199	9.75
626.961	8.75
627.722	10.75
628.484	8.75
629.245	7.75
630.006	7.75
630.768	10.75
631.529	8.75
632.29	8.75
633.051	6.75
633.812	6.75
634.573	5.75
635.333	5.75
636.094	8.75
636.855	5.75
637.615	7.75
638.376	5.75
639.136	7.75
639.896	5.75
640.657	6.75
641.417	5.75
642.177	3.75
642.937	6.75
643.697	5.75
644.457	5.75
645.216	4.75
645.976	3.75
646.736	6.75
647.495	1.75
648.255	3.75
649.014	5.75
649.774	6.75
650.533	2.75
651.292	3.75
652.051	5.75
652.81	3.75
653.569	3.75
654.328	2.75
655.087	2.75
655.846	2.75
656.604	2.75
657.363	5.75
658.121	3.75
658.88	1.75
659.638	4.75
660.397	2.75
661.155	3.75
661.913	1.75
662.671	4.75
663.429	1.75
664.187	4.75
664.945	2.75
665.703	2.75
666.46	2.75
667.218	1.75
667.976	3.75
668.733	3.75
669.49	2.75
670.248	2.75
671.005	2.75
671.762	5.75
672.519	4.75
673.276	3.75
674.033	2.75
674.79	2.75
675.547	2.75
676.304	4.75
677.06	-0.25
677.817	2.75
678.574	2.75
679.33	2.75
680.086	3.75
680.843	3.75
681.599	1.75
682.355	3.75
683.111	1.75
683.867	3.75
684.623	4.75
685.379	3.75
686.135	1.75
686.89	2.75
687.646	1.75
688.402	2.75
689.157	3.75
689.912	2.75
690.668	0.75
691.423	2.75
692.178	0.75
692.933	2.75
693.688	3.75
694.443	3.75
695.198	0.75
695.953	1.75
696.708	-0.25
697.462	1.75
698.217	2.75
698.972	0.75
699.726	4.75
700.48	-0.25
701.235	0.75
701.989	3.75
702.743	2.75
703.497	0.75
704.251	2.75
705.005	3.75
705.759	1.75
706.513	4.75
707.266	2.75
708.02	1.75
708.774	2.75
709.527	1.75
710.28	1.75
711.034	1.75
711.787	1.75
712.54	0.75
713.293	1.75
714.046	3.75
714.799	0.75
715.552	0.75
716.305	1.75
717.058	0.75
717.81	4.75
718.563	1.75
719.315	2.75
720.068	2.75
720.82	2.75
721.573	1.75
722.325	1.75
723.077	0.75
723.829	1.75
724.581	3.75
725.333	1.75
726.085	0.75
726.836	2.75
727.588	0.75
728.34	0.75
729.091	0.75
729.843	2.75
730.594	0.75
731.346	3.75
732.097	1.75
732.848	2.75
733.599	0.75
734.35	1.75
735.101	1.75
735.852	2.75
736.603	2.75
737.354	2.75
738.104	2.75
738.855	3.75
739.605	2.75
740.356	3.75
741.106	1.75
741.856	2.75
742.607	4.75
743.357	4.75
744.107	4.75
744.857	1.75
745.607	0.75
746.357	0.75
747.106	2.75
747.856	1.75
748.606	0.75
749.355	5.75
750.105	3.75
750.854	2.75
751.603	1.75
752.353	2.75
753.102	3.75
753.851	1.75
754.6	1.75
755.349	2.75
756.098	3.75
756.847	3.75
757.595	1.75
758.344	1.75
759.093	1.75
759.841	2.75
760.589	3.75
761.338	0.75
762.086	3.75
762.834	3.75
763.582	-0.25
764.331	2.75
765.079	4.75
765.826	2.75
766.574	4.75
767.322	4.75
768.07	4.75
768.817	4.75
769.565	3.75
770.312	3.75
771.06	4.75
771.807	2.75
772.554	4.75
773.302	3.75
774.049	4.75
774.796	4.75
775.543	6.75
776.29	3.75
777.036	4.75
777.783	3.75
778.53	5.75
779.276	3.75
780.023	3.75
780.769	4.75
781.516	4.75
782.262	3.75
783.008	5.75
783.754	6.75
784.5	6.75
785.246	3.75
785.992	4.75
786.738	1.75
787.484	4.75
788.23	5.75
788.975	5.75
789.721	3.75
790.466	6.75
791.212	3.75
791.957	5.75
792.702	5.75
793.447	3.75
794.193	5.75
794.938	3.75
795.683	4.75
796.427	4.75
797.172	3.75
797.917	4.75
798.662	4.75
799.406	5.75
800.151	3.75
800.895	4.75
801.64	4.75
802.384	3.75
803.128	4.75
803.872	2.75
804.616	4.75
805.36	5.75
806.104	5.75
806.848	5.75
807.592	4.75
808.336	3.75
809.079	4.75
809.823	5.75
810.566	2.75
811.31	2.75
812.053	4.75
812.796	3.75
813.539	5.75
814.283	5.75
815.026	0.75
815.769	4.75
816.511	2.75
817.254	4.75
817.997	2.75
818.74	2.75
819.482	2.75
820.225	2.75
820.967	3.75
821.71	4.75
822.452	4.75
823.194	1.75
823.936	3.75
824.678	2.75
825.42	1.75
826.162	2.75
826.904	2.75
827.646	4.75
828.388	2.75
829.129	4.75
829.871	1.75
830.612	2.75
831.354	2.75
832.095	2.75
832.836	2.75
833.577	2.75
834.319	3.75
835.06	1.75
835.801	1.75
836.542	3.75
837.282	2.75
838.023	4.75
838.764	1.75
839.504	2.75
840.245	2.75
840.985	-1.25
841.726	2.75
842.466	0.75
843.206	2.75
843.946	1.75
844.687	3.75
845.427	2.75
846.166	1.75
846.906	1.75
847.646	1.75
848.386	2.75
849.125	1.75
849.865	-0.25
850.605	1.75
851.344	1.75
852.083	2.75
852.823	1.75
853.562	3.75
854.301	1.75
855.04	1.75
855.779	2.75
856.518	0.75
857.257	0.75
857.995	-0.25
858.734	2.75
859.473	2.75
860.211	2.75
860.95	0.75
861.688	1.75
862.426	1.75
863.165	1.75
863.903	0.75
864.641	0.75
865.379	1.75
866.117	1.75
866.855	0.75
867.593	0.75
868.33	-1.25
869.068	-0.25
869.806	2.75
870.543	1.75
871.28	0.75
872.018	-1.25
872.755	1.75
873.492	0.75
874.229	2.75
874.967	1.75
875.703	-2.25
876.44	0.75
877.177	0.75
877.914	1.75
878.651	1.75
879.387	0.75
880.124	3.75
880.86	0.75
881.597	-0.25
882.333	0.75
883.069	-0.25
883.806	1.75
884.542	1.75
885.278	1.75
886.014	2.75
886.749	1.75
887.485	-0.25
888.221	1.75
888.957	1.75
889.692	0.75
890.428	1.75
891.163	0.75
891.899	1.75
892.634	-2.25
893.369	1.75
894.104	1.75
894.839	0.75
895.574	-0.25
896.309	-0.25
897.044	1.75
897.779	1.75
898.514	2.75
899.248	0.75
899.983	-0.25
900.717	1.75
901.452	0.75
902.186	1.75
902.92	-0.25
903.654	1.75
904.389	-1.25
905.123	-0.25
905.857	0.75
906.59	-2.25
907.324	0.75
908.058	-1.25
908.792	1.75
909.525	0.75
910.259	-1.25
910.992	-0.25
911.726	-0.25
912.459	0.75
913.192	0.75
913.925	1.75
914.658	0.75
915.391	-0.25
916.124	0.75
916.857	0.75
917.59	-0.25
918.323	-1.25
919.055	0.75
919.788	-0.25
920.521	-0.25
921.253	1.75
921.985	2.75
922.718	1.75
923.45	-1.25
924.182	1.75
924.914	0.75
925.646	1.75
926.378	-0.25
927.11	-1.25
927.841	2.75
928.573	-2.25
929.305	-2.25
930.036	-0.25
930.768	1.75
931.499	1.75
932.23	0.75
932.962	-0.25
933.693	0.75
934.424	-1.25
935.155	1.75
935.886	-0.25
936.617	-0.25
937.348	-1.25
938.078	1.75
938.809	-0.25
939.54	1.75
940.27	-0.25
941.001	-1.25
941.731	1.75
942.461	-1.25
943.191	-0.25
943.922	0.75
944.652	-0.25
945.382	1.75
946.112	-1.25
946.841	1.75
947.571	-0.25
948.301	-0.25
949.031	1.75
949.76	0.75
950.49	2.75
951.219	1.75
951.948	0.75
952.678	0.75
953.407	0.75
954.136	1.75
954.865	-1.25
955.594	1.75
956.323	1.75
957.052	-0.25
957.78	-2.25
958.509	-0.25
959.238	-1.25
959.966	-0.25
960.695	-0.25
961.423	1.75
962.151	0.75
962.88	-1.25
963.608	0.75
964.336	0.75
965.064	-0.25
965.792	2.75
966.52	0.75
967.247	0.75
967.975	-0.25
968.703	1.75
969.43	0.75
970.158	-1.25
970.885	2.75
971.613	2.75
972.34	0.75
973.067	0.75
973.794	0.75
974.521	-3.25
975.248	-1.25
975.975	0.75
976.702	0.75
977.429	0.75
978.156	-0.25
978.882	-0.25
979.609	2.75
980.335	-0.25
981.062	-0.25
981.788	0.75
982.514	0.75
983.24	1.75
983.967	-1.25
984.693	-2.25
985.419	1.75
986.144	1.75
986.87	-1.25
987.596	0.75
988.322	-0.25
989.047	2.75
989.773	0.75
990.498	-1.25
991.224	0.75
991.949	-0.25
992.674	1.75
993.399	1.75
994.124	1.75
994.849	0.75
995.574	-1.25
996.299	0.75
997.024	-1.25
997.749	2.75
998.473	-0.25
999.198	-1.25
999.922	0.75
1000.647	1.75
1001.371	5.75
1002.095	-1.25
1002.82	-1.25
1003.544	-1.25
1004.268	1.75
1004.992	-1.25
1005.716	-1.25
1006.439	0.75
1007.163	-0.25
1007.887	-1.25
1008.611	1.75
1009.334	-0.25
1010.058	0.75
1010.781	0.75
1011.504	3.75
1012.228	-1.25
1012.951	-0.25
1013.674	-1.25
1014.397	-1.25
1015.12	0.75
