节点500_145_QEPB04081__23__11-29-18-811.txt的数据

Date: Wed Nov 12 11:29:18 CST 2025
User: PC
Spectrometer: QEPB0408
触发模式: 0
积分时间 (秒): 1.000000E-2
Scans to average: 1
启用暗噪声校正: true
启用非线性校正: false
滑动平均宽度: 0
X轴模式: Wavelengths
Number of Pixels in Spectrum: 1044
>>>>>Begin Spectral Data<<<<<
220.843	1.38
221.644	-1.62
222.444	1.38
223.244	1.38
224.045	-0.62
224.845	1.38
225.645	1.38
226.445	-1.62
227.245	-0.62
228.045	1.38
228.845	0.38
229.645	1.38
230.444	0.38
231.244	-0.62
232.043	1.38
232.843	1.38
233.642	1.38
234.442	2.38
235.241	1.38
236.04	0.38
236.839	1.38
237.638	2.38
238.437	2.38
239.236	0.38
240.035	2.38
240.833	0.38
241.632	2.38
242.43	2.38
243.229	0.38
244.027	1.38
244.826	-0.62
245.624	2.38
246.422	0.38
247.22	4.38
248.018	1.38
248.816	4.38
249.614	4.38
250.412	4.38
251.21	3.38
252.007	4.38
252.805	3.38
253.602	1.38
254.4	3.38
255.197	5.38
255.994	4.38
256.791	5.38
257.589	2.38
258.386	2.38
259.183	2.38
259.979	4.38
260.776	4.38
261.573	6.38
262.37	6.38
263.166	7.38
263.963	6.38
264.759	6.38
265.556	5.38
266.352	9.38
267.148	6.38
267.944	7.38
268.74	5.38
269.536	8.38
270.332	8.38
271.128	7.38
271.924	10.38
272.719	7.38
273.515	10.38
274.311	7.38
275.106	8.38
275.901	14.38
276.697	10.38
277.492	11.38
278.287	9.38
279.082	8.38
279.877	10.38
280.672	11.38
281.467	10.38
282.262	9.38
283.056	11.38
283.851	13.38
284.646	9.38
285.44	9.38
286.234	9.38
287.029	12.38
287.823	13.38
288.617	14.38
289.411	10.38
290.205	13.38
290.999	13.38
291.793	11.38
292.587	11.38
293.381	9.38
294.174	11.38
294.968	12.38
295.761	7.38
296.555	9.38
297.348	8.38
298.141	10.38
298.935	10.38
299.728	10.38
300.521	9.38
301.314	7.38
302.107	9.38
302.899	10.38
303.692	11.38
304.485	8.38
305.277	10.38
306.07	7.38
306.862	7.38
307.655	8.38
308.447	7.38
309.239	7.38
310.031	10.38
310.823	3.38
311.615	8.38
312.407	6.38
313.199	7.38
313.991	6.38
314.783	6.38
315.574	7.38
316.366	4.38
317.157	7.38
317.949	4.38
318.74	4.38
319.531	5.38
320.322	6.38
321.113	5.38
321.904	5.38
322.695	5.38
323.486	6.38
324.277	3.38
325.068	5.38
325.858	5.38
326.649	2.38
327.439	3.38
328.23	5.38
329.02	4.38
329.81	5.38
330.6	4.38
331.391	7.38
332.181	2.38
332.971	3.38
333.76	6.38
334.55	4.38
335.34	5.38
336.13	4.38
336.919	5.38
337.709	5.38
338.498	2.38
339.287	3.38
340.077	5.38
340.866	3.38
341.655	2.38
342.444	4.38
343.233	6.38
344.022	4.38
344.811	5.38
345.6	2.38
346.388	3.38
347.177	6.38
347.965	1.38
348.754	4.38
349.542	5.38
350.33	3.38
351.119	2.38
351.907	1.38
352.695	2.38
353.483	3.38
354.271	5.38
355.059	3.38
355.846	3.38
356.634	5.38
357.422	2.38
358.209	5.38
358.997	1.38
359.784	1.38
360.571	4.38
361.359	2.38
362.146	4.38
362.933	1.38
363.72	4.38
364.507	2.38
365.294	3.38
366.081	1.38
366.867	3.38
367.654	2.38
368.44	2.38
369.227	2.38
370.013	0.38
370.8	1.38
371.586	3.38
372.372	4.38
373.158	4.38
373.944	2.38
374.73	4.38
375.516	3.38
376.302	3.38
377.088	1.38
377.873	3.38
378.659	5.38
379.445	3.38
380.23	5.38
381.015	0.38
381.801	1.38
382.586	3.38
383.371	3.38
384.156	2.38
384.941	2.38
385.726	5.38
386.511	5.38
387.296	2.38
388.08	3.38
388.865	3.38
389.649	3.38
390.434	2.38
391.218	1.38
392.003	2.38
392.787	2.38
393.571	2.38
394.355	4.38
395.139	2.38
395.923	4.38
396.707	4.38
397.491	3.38
398.274	5.38
399.058	5.38
399.842	4.38
400.625	4.38
401.408	2.38
402.192	3.38
402.975	5.38
403.758	4.38
404.541	2.38
405.324	2.38
406.107	5.38
406.89	3.38
407.673	3.38
408.456	6.38
409.238	4.38
410.021	5.38
410.803	4.38
411.586	7.38
412.368	6.38
413.151	5.38
413.933	7.38
414.715	7.38
415.497	6.38
416.279	4.38
417.061	6.38
417.843	5.38
418.624	6.38
419.406	5.38
420.188	4.38
420.969	5.38
421.751	5.38
422.532	5.38
423.313	5.38
424.095	8.38
424.876	7.38
425.657	4.38
426.438	7.38
427.219	6.38
428	7.38
428.78	6.38
429.561	6.38
430.342	7.38
431.122	6.38
431.903	8.38
432.683	7.38
433.464	7.38
434.244	10.38
435.024	9.38
435.804	8.38
436.584	7.38
437.364	10.38
438.144	11.38
438.924	10.38
439.704	9.38
440.483	10.38
441.263	9.38
442.042	11.38
442.822	15.38
443.601	13.38
444.38	13.38
445.16	15.38
445.939	14.38
446.718	15.38
447.497	19.38
448.276	20.38
449.054	22.38
449.833	21.38
450.612	23.38
451.391	23.38
452.169	26.38
452.948	32.38
453.726	32.38
454.504	36.38
455.282	38.38
456.061	39.38
456.839	44.38
457.617	48.38
458.395	52.38
459.172	59.38
459.95	64.38
460.728	73.38
461.506	77.38
462.283	84.38
463.061	99.38
463.838	108.38
464.615	126.38
465.393	141.38
466.17	149.38
466.947	177.38
467.724	187.38
468.501	224.38
469.278	240.38
470.055	262.38
470.831	305.38
471.608	334.38
472.385	371.38
473.161	426.38
473.938	468.38
474.714	524.38
475.49	580.38
476.266	644.38
477.043	719.38
477.819	806.38
478.595	874.38
479.371	986.38
480.146	1114.38
480.922	1226.38
481.698	1364.38
482.473	1526.38
483.249	1682.38
484.024	1866.38
484.8	2090.38
485.575	2310.38
486.35	2579.38
487.126	2834.38
487.901	3175.38
488.676	3518.38
489.451	3895.38
490.225	4322.38
491	4794.38
491.775	5282.38
492.55	5856.38
493.324	6441.38
494.099	7076.38
494.873	7747.38
495.647	8493.38
496.422	9310.38
497.196	9996.38
497.97	10866.38
498.744	11675.38
499.518	12530.38
500.292	13337.38
501.066	14055.38
501.839	14832.38
502.613	15534.38
503.387	16165.38
504.16	16669.38
504.934	17055.38
505.707	17309.38
506.48	17497.38
507.253	17514.38
508.027	17469.38
508.8	17221.38
509.573	16948.38
510.346	16523.38
511.118	16035.38
511.891	15555.38
512.664	14884.38
513.437	14235.38
514.209	13681.38
514.982	13061.38
515.754	12443.38
516.526	11901.38
517.298	11309.38
518.071	10806.38
518.843	10304.38
519.615	9894.38
520.387	9456.38
521.159	9096.38
521.93	8727.38
522.702	8420.38
523.474	8067.38
524.245	7783.38
525.017	7420.38
525.788	7152.38
526.56	6853.38
527.331	6540.38
528.102	6221.38
528.873	5945.38
529.644	5681.38
530.415	5389.38
531.186	5102.38
531.957	4851.38
532.728	4558.38
533.498	4323.38
534.269	4081.38
535.039	3828.38
535.81	3633.38
536.58	3437.38
537.351	3216.38
538.121	3029.38
538.891	2867.38
539.661	2708.38
540.431	2577.38
541.201	2428.38
541.971	2290.38
542.741	2192.38
543.51	2073.38
544.28	1968.38
545.05	1900.38
545.819	1775.38
546.588	1681.38
547.358	1613.38
548.127	1530.38
548.896	1465.38
549.665	1382.38
550.434	1306.38
551.203	1243.38
551.972	1160.38
552.741	1100.38
553.51	1053.38
554.278	987.38
555.047	925.38
555.815	876.38
556.584	821.38
557.352	777.38
558.121	729.38
558.889	682.38
559.657	657.38
560.425	610.38
561.193	577.38
561.961	542.38
562.729	512.38
563.496	490.38
564.264	456.38
565.032	433.38
565.799	403.38
566.567	386.38
567.334	365.38
568.101	345.38
568.869	329.38
569.636	302.38
570.403	285.38
571.17	275.38
571.937	257.38
572.704	242.38
573.471	231.38
574.237	217.38
575.004	203.38
575.771	190.38
576.537	176.38
577.303	167.38
578.07	159.38
578.836	151.38
579.602	145.38
580.368	137.38
581.134	123.38
581.9	117.38
582.666	112.38
583.432	111.38
584.198	102.38
584.964	94.38
585.729	87.38
586.495	85.38
587.26	79.38
588.025	75.38
588.791	72.38
589.556	69.38
590.321	61.38
591.086	61.38
591.851	59.38
592.616	55.38
593.381	53.38
594.146	51.38
594.911	51.38
595.675	44.38
596.44	41.38
597.204	41.38
597.969	42.38
598.733	36.38
599.497	34.38
600.261	33.38
601.025	31.38
601.79	31.38
602.553	27.38
603.317	26.38
604.081	27.38
604.845	27.38
605.609	27.38
606.372	25.38
607.136	23.38
607.899	23.38
608.662	21.38
609.426	20.38
610.189	19.38
610.952	21.38
611.715	19.38
612.478	15.38
613.241	13.38
614.004	14.38
614.767	16.38
615.529	11.38
616.292	15.38
617.055	14.38
617.817	15.38
618.579	14.38
619.342	14.38
620.104	12.38
620.866	12.38
621.628	13.38
622.39	11.38
623.152	9.38
623.914	9.38
624.676	10.38
625.438	8.38
626.199	12.38
626.961	11.38
627.722	7.38
628.484	8.38
629.245	6.38
630.006	9.38
630.768	10.38
631.529	5.38
632.29	5.38
633.051	8.38
633.812	7.38
634.573	7.38
635.333	6.38
636.094	5.38
636.855	7.38
637.615	5.38
638.376	7.38
639.136	7.38
639.896	6.38
640.657	6.38
641.417	5.38
642.177	5.38
642.937	5.38
643.697	5.38
644.457	6.38
645.216	6.38
645.976	3.38
646.736	5.38
647.495	5.38
648.255	6.38
649.014	4.38
649.774	3.38
650.533	4.38
651.292	4.38
652.051	4.38
652.81	3.38
653.569	6.38
654.328	5.38
655.087	2.38
655.846	4.38
656.604	3.38
657.363	4.38
658.121	5.38
658.88	4.38
659.638	3.38
660.397	1.38
661.155	2.38
661.913	2.38
662.671	5.38
663.429	4.38
664.187	3.38
664.945	1.38
665.703	4.38
666.46	1.38
667.218	1.38
667.976	3.38
668.733	2.38
669.49	1.38
670.248	4.38
671.005	2.38
671.762	6.38
672.519	2.38
673.276	3.38
674.033	2.38
674.79	3.38
675.547	4.38
676.304	1.38
677.06	3.38
677.817	2.38
678.574	2.38
679.33	3.38
680.086	3.38
680.843	2.38
681.599	2.38
682.355	1.38
683.111	2.38
683.867	3.38
684.623	1.38
685.379	4.38
686.135	4.38
686.89	3.38
687.646	5.38
688.402	3.38
689.157	2.38
689.912	3.38
690.668	1.38
691.423	3.38
692.178	1.38
692.933	3.38
693.688	0.38
694.443	5.38
695.198	1.38
695.953	3.38
696.708	2.38
697.462	2.38
698.217	2.38
698.972	2.38
699.726	1.38
700.48	3.38
701.235	2.38
701.989	1.38
702.743	0.38
703.497	2.38
704.251	2.38
705.005	0.38
705.759	3.38
706.513	1.38
707.266	2.38
708.02	1.38
708.774	3.38
709.527	0.38
710.28	5.38
711.034	3.38
711.787	3.38
712.54	1.38
713.293	0.38
714.046	3.38
714.799	4.38
715.552	2.38
716.305	2.38
717.058	3.38
717.81	1.38
718.563	0.38
719.315	0.38
720.068	3.38
720.82	2.38
721.573	2.38
722.325	-1.62
723.077	2.38
723.829	4.38
724.581	3.38
725.333	2.38
726.085	2.38
726.836	1.38
727.588	0.38
728.34	1.38
729.091	2.38
729.843	3.38
730.594	2.38
731.346	2.38
732.097	2.38
732.848	-1.62
733.599	2.38
734.35	2.38
735.101	1.38
735.852	3.38
736.603	0.38
737.354	2.38
738.104	3.38
738.855	1.38
739.605	1.38
740.356	4.38
741.106	2.38
741.856	1.38
742.607	3.38
743.357	1.38
744.107	2.38
744.857	1.38
745.607	3.38
746.357	2.38
747.106	3.38
747.856	2.38
748.606	2.38
749.355	3.38
750.105	2.38
750.854	2.38
751.603	1.38
752.353	5.38
753.102	5.38
753.851	5.38
754.6	4.38
755.349	3.38
756.098	2.38
756.847	3.38
757.595	4.38
758.344	4.38
759.093	2.38
759.841	3.38
760.589	5.38
761.338	3.38
762.086	3.38
762.834	2.38
763.582	2.38
764.331	6.38
765.079	4.38
765.826	7.38
766.574	4.38
767.322	3.38
768.07	4.38
768.817	6.38
769.565	2.38
770.312	4.38
771.06	5.38
771.807	2.38
772.554	4.38
773.302	5.38
774.049	4.38
774.796	4.38
775.543	6.38
776.29	5.38
777.036	5.38
777.783	6.38
778.53	6.38
779.276	7.38
780.023	4.38
780.769	4.38
781.516	6.38
782.262	5.38
783.008	4.38
783.754	6.38
784.5	5.38
785.246	5.38
785.992	7.38
786.738	7.38
787.484	5.38
788.23	7.38
788.975	4.38
789.721	6.38
790.466	7.38
791.212	4.38
791.957	8.38
792.702	4.38
793.447	6.38
794.193	5.38
794.938	2.38
795.683	3.38
796.427	5.38
797.172	4.38
797.917	5.38
798.662	4.38
799.406	5.38
800.151	5.38
800.895	4.38
801.64	5.38
802.384	7.38
803.128	5.38
803.872	5.38
804.616	4.38
805.36	5.38
806.104	7.38
806.848	3.38
807.592	4.38
808.336	3.38
809.079	3.38
809.823	4.38
810.566	4.38
811.31	2.38
812.053	5.38
812.796	3.38
813.539	7.38
814.283	4.38
815.026	4.38
815.769	5.38
816.511	2.38
817.254	3.38
817.997	3.38
818.74	4.38
819.482	5.38
820.225	2.38
820.967	2.38
821.71	3.38
822.452	1.38
823.194	3.38
823.936	3.38
824.678	2.38
825.42	2.38
826.162	3.38
826.904	5.38
827.646	2.38
828.388	4.38
829.129	2.38
829.871	5.38
830.612	3.38
831.354	2.38
832.095	4.38
832.836	0.38
833.577	3.38
834.319	1.38
835.06	2.38
835.801	3.38
836.542	1.38
837.282	3.38
838.023	2.38
838.764	2.38
839.504	0.38
840.245	2.38
840.985	2.38
841.726	4.38
842.466	2.38
843.206	2.38
843.946	0.38
844.687	1.38
845.427	2.38
846.166	2.38
846.906	2.38
847.646	3.38
848.386	1.38
849.125	3.38
849.865	2.38
850.605	4.38
851.344	3.38
852.083	0.38
852.823	2.38
853.562	2.38
854.301	2.38
855.04	2.38
855.779	2.38
856.518	4.38
857.257	-0.62
857.995	1.38
858.734	1.38
859.473	3.38
860.211	1.38
860.95	1.38
861.688	1.38
862.426	1.38
863.165	0.38
863.903	2.38
864.641	2.38
865.379	2.38
866.117	-1.62
866.855	1.38
867.593	0.38
868.33	1.38
869.068	0.38
869.806	1.38
870.543	4.38
871.28	0.38
872.018	2.38
872.755	1.38
873.492	1.38
874.229	0.38
874.967	0.38
875.703	0.38
876.44	1.38
877.177	2.38
877.914	0.38
878.651	1.38
879.387	-0.62
880.124	-0.62
880.86	0.38
881.597	4.38
882.333	2.38
883.069	0.38
883.806	2.38
884.542	0.38
885.278	-0.62
886.014	2.38
886.749	1.38
887.485	1.38
888.221	2.38
888.957	-1.62
889.692	2.38
890.428	-1.62
891.163	2.38
891.899	2.38
892.634	2.38
893.369	2.38
894.104	0.38
894.839	1.38
895.574	0.38
896.309	2.38
897.044	0.38
897.779	2.38
898.514	1.38
899.248	1.38
899.983	0.38
900.717	1.38
901.452	0.38
902.186	-1.62
902.92	-1.62
903.654	0.38
904.389	0.38
905.123	0.38
905.857	-1.62
906.59	1.38
907.324	1.38
908.058	-1.62
908.792	1.38
909.525	-1.62
910.259	2.38
910.992	1.38
911.726	0.38
912.459	1.38
913.192	0.38
913.925	1.38
914.658	1.38
915.391	1.38
916.124	0.38
916.857	0.38
917.59	2.38
918.323	1.38
919.055	1.38
919.788	-1.62
920.521	1.38
921.253	1.38
921.985	-0.62
922.718	2.38
923.45	0.38
924.182	1.38
924.914	-0.62
925.646	-1.62
926.378	1.38
927.11	-1.62
927.841	0.38
928.573	-1.62
929.305	0.38
930.036	-0.62
930.768	0.38
931.499	0.38
932.23	1.38
932.962	2.38
933.693	-1.62
934.424	1.38
935.155	0.38
935.886	1.38
936.617	0.38
937.348	-1.62
938.078	2.38
938.809	0.38
939.54	-1.62
940.27	1.38
941.001	0.38
941.731	2.38
942.461	2.38
943.191	1.38
943.922	0.38
944.652	1.38
945.382	0.38
946.112	-0.62
946.841	-0.62
947.571	0.38
948.301	0.38
949.031	0.38
949.76	0.38
950.49	-1.62
951.219	0.38
951.948	0.38
952.678	0.38
953.407	1.38
954.136	-1.62
954.865	2.38
955.594	2.38
956.323	0.38
957.052	1.38
957.78	-1.62
958.509	0.38
959.238	0.38
959.966	2.38
960.695	1.38
961.423	-0.62
962.151	0.38
962.88	0.38
963.608	0.38
964.336	0.38
965.064	2.38
965.792	1.38
966.52	-0.62
967.247	0.38
967.975	-0.62
968.703	-0.62
969.43	1.38
970.158	2.38
970.885	-0.62
971.613	0.38
972.34	2.38
973.067	0.38
973.794	1.38
974.521	2.38
975.248	-1.62
975.975	-1.62
976.702	-0.62
977.429	1.38
978.156	-0.62
978.882	2.38
979.609	0.38
980.335	1.38
981.062	2.38
981.788	-0.62
982.514	1.38
983.24	1.38
983.967	0.38
984.693	0.38
985.419	2.38
986.144	-0.62
986.87	1.38
987.596	1.38
988.322	-0.62
989.047	0.38
989.773	0.38
990.498	-0.62
991.224	1.38
991.949	2.38
992.674	2.38
993.399	0.38
994.124	1.38
994.849	2.38
995.574	-1.62
996.299	1.38
997.024	1.38
997.749	2.38
998.473	0.38
999.198	0.38
999.922	0.38
1000.647	-1.62
1001.371	3.38
1002.095	-0.62
1002.82	-1.62
1003.544	-1.62
1004.268	-0.62
1004.992	0.38
1005.716	2.38
1006.439	-1.62
1007.163	2.38
1007.887	-0.62
1008.611	3.38
1009.334	1.38
1010.058	0.38
1010.781	-0.62
1011.504	1.38
1012.228	0.38
1012.951	1.38
1013.674	-1.62
1014.397	0.38
1015.12	0.38
