节点500_145_QEPB04081__8__11-29-04-797.txt的数据

Date: Wed Nov 12 11:29:04 CST 2025
User: PC
Spectrometer: QEPB0408
触发模式: 0
积分时间 (秒): 1.000000E-2
Scans to average: 1
启用暗噪声校正: true
启用非线性校正: false
滑动平均宽度: 0
X轴模式: Wavelengths
Number of Pixels in Spectrum: 1044
>>>>>Begin Spectral Data<<<<<
220.843	-2.38
221.644	-2.38
222.444	-3.38
223.244	1.62
224.045	-2.38
224.845	-0.38
225.645	0.62
226.445	-2.38
227.245	-0.38
228.045	-1.38
228.845	1.62
229.645	2.62
230.444	-1.38
231.244	-1.38
232.043	-0.38
232.843	1.62
233.642	-0.38
234.442	0.62
235.241	-1.38
236.04	2.62
236.839	0.62
237.638	1.62
238.437	2.62
239.236	2.62
240.035	2.62
240.833	1.62
241.632	-0.38
242.43	1.62
243.229	1.62
244.027	-0.38
244.826	0.62
245.624	0.62
246.422	1.62
247.22	0.62
248.018	0.62
248.816	0.62
249.614	1.62
250.412	2.62
251.21	1.62
252.007	2.62
252.805	1.62
253.602	1.62
254.4	2.62
255.197	4.62
255.994	2.62
256.791	4.62
257.589	4.62
258.386	1.62
259.183	3.62
259.979	2.62
260.776	4.62
261.573	4.62
262.37	5.62
263.166	4.62
263.963	5.62
264.759	5.62
265.556	5.62
266.352	3.62
267.148	8.62
267.944	7.62
268.74	8.62
269.536	7.62
270.332	8.62
271.128	8.62
271.924	8.62
272.719	8.62
273.515	9.62
274.311	9.62
275.106	8.62
275.901	7.62
276.697	8.62
277.492	9.62
278.287	9.62
279.082	9.62
279.877	10.62
280.672	9.62
281.467	11.62
282.262	8.62
283.056	10.62
283.851	9.62
284.646	11.62
285.44	10.62
286.234	10.62
287.029	10.62
287.823	10.62
288.617	12.62
289.411	11.62
290.205	9.62
290.999	11.62
291.793	11.62
292.587	9.62
293.381	10.62
294.174	9.62
294.968	12.62
295.761	10.62
296.555	8.62
297.348	9.62
298.141	9.62
298.935	8.62
299.728	9.62
300.521	9.62
301.314	7.62
302.107	8.62
302.899	7.62
303.692	9.62
304.485	8.62
305.277	8.62
306.07	7.62
306.862	5.62
307.655	8.62
308.447	7.62
309.239	7.62
310.031	6.62
310.823	5.62
311.615	7.62
312.407	6.62
313.199	6.62
313.991	5.62
314.783	4.62
315.574	5.62
316.366	5.62
317.157	4.62
317.949	3.62
318.74	4.62
319.531	5.62
320.322	6.62
321.113	5.62
321.904	5.62
322.695	4.62
323.486	3.62
324.277	3.62
325.068	2.62
325.858	2.62
326.649	3.62
327.439	3.62
328.23	4.62
329.02	3.62
329.81	3.62
330.6	3.62
331.391	4.62
332.181	4.62
332.971	0.62
333.76	2.62
334.55	3.62
335.34	2.62
336.13	4.62
336.919	3.62
337.709	3.62
338.498	5.62
339.287	3.62
340.077	1.62
340.866	5.62
341.655	1.62
342.444	2.62
343.233	3.62
344.022	0.62
344.811	4.62
345.6	3.62
346.388	3.62
347.177	3.62
347.965	4.62
348.754	2.62
349.542	1.62
350.33	3.62
351.119	4.62
351.907	3.62
352.695	3.62
353.483	0.62
354.271	-0.38
355.059	1.62
355.846	4.62
356.634	3.62
357.422	0.62
358.209	2.62
358.997	3.62
359.784	4.62
360.571	1.62
361.359	3.62
362.146	4.62
362.933	1.62
363.72	-0.38
364.507	1.62
365.294	3.62
366.081	2.62
366.867	0.62
367.654	1.62
368.44	1.62
369.227	3.62
370.013	0.62
370.8	0.62
371.586	3.62
372.372	-0.38
373.158	2.62
373.944	2.62
374.73	2.62
375.516	1.62
376.302	1.62
377.088	1.62
377.873	1.62
378.659	1.62
379.445	3.62
380.23	1.62
381.015	0.62
381.801	-0.38
382.586	3.62
383.371	1.62
384.156	2.62
384.941	1.62
385.726	2.62
386.511	2.62
387.296	0.62
388.08	1.62
388.865	1.62
389.649	0.62
390.434	0.62
391.218	2.62
392.003	4.62
392.787	3.62
393.571	4.62
394.355	3.62
395.139	3.62
395.923	0.62
396.707	3.62
397.491	2.62
398.274	3.62
399.058	1.62
399.842	2.62
400.625	3.62
401.408	2.62
402.192	3.62
402.975	0.62
403.758	4.62
404.541	4.62
405.324	4.62
406.107	3.62
406.89	4.62
407.673	4.62
408.456	4.62
409.238	5.62
410.021	6.62
410.803	6.62
411.586	4.62
412.368	3.62
413.151	3.62
413.933	5.62
414.715	6.62
415.497	4.62
416.279	2.62
417.061	6.62
417.843	4.62
418.624	2.62
419.406	3.62
420.188	7.62
420.969	5.62
421.751	3.62
422.532	6.62
423.313	6.62
424.095	4.62
424.876	5.62
425.657	6.62
426.438	7.62
427.219	7.62
428	6.62
428.78	5.62
429.561	7.62
430.342	5.62
431.122	8.62
431.903	6.62
432.683	6.62
433.464	7.62
434.244	6.62
435.024	7.62
435.804	9.62
436.584	8.62
437.364	11.62
438.144	7.62
438.924	12.62
439.704	9.62
440.483	9.62
441.263	11.62
442.042	12.62
442.822	11.62
443.601	12.62
444.38	10.62
445.16	14.62
445.939	12.62
446.718	16.62
447.497	17.62
448.276	19.62
449.054	22.62
449.833	19.62
450.612	22.62
451.391	23.62
452.169	26.62
452.948	30.62
453.726	30.62
454.504	36.62
455.282	36.62
456.061	43.62
456.839	39.62
457.617	48.62
458.395	49.62
459.172	59.62
459.95	66.62
460.728	68.62
461.506	80.62
462.283	90.62
463.061	98.62
463.838	108.62
464.615	119.62
465.393	134.62
466.17	148.62
466.947	165.62
467.724	189.62
468.501	214.62
469.278	240.62
470.055	263.62
470.831	299.62
471.608	333.62
472.385	373.62
473.161	419.62
473.938	461.62
474.714	523.62
475.49	576.62
476.266	647.62
477.043	714.62
477.819	809.62
478.595	892.62
479.371	996.62
480.146	1112.62
480.922	1241.62
481.698	1363.62
482.473	1520.62
483.249	1711.62
484.024	1873.62
484.8	2080.62
485.575	2313.62
486.35	2582.62
487.126	2865.62
487.901	3188.62
488.676	3512.62
489.451	3920.62
490.225	4319.62
491	4795.62
491.775	5279.62
492.55	5853.62
493.324	6431.62
494.099	7125.62
494.873	7736.62
495.647	8488.62
496.422	9316.62
497.196	10082.62
497.97	10901.62
498.744	11699.62
499.518	12581.62
500.292	13375.62
501.066	14110.62
501.839	14873.62
502.613	15608.62
503.387	16181.62
504.16	16690.62
504.934	17051.62
505.707	17302.62
506.48	17485.62
507.253	17585.62
508.027	17487.62
508.8	17262.62
509.573	16942.62
510.346	16581.62
511.118	16032.62
511.891	15516.62
512.664	14830.62
513.437	14257.62
514.209	13655.62
514.982	13076.62
515.754	12435.62
516.526	11860.62
517.298	11333.62
518.071	10786.62
518.843	10325.62
519.615	9909.62
520.387	9488.62
521.159	9098.62
521.93	8751.62
522.702	8421.62
523.474	8055.62
524.245	7769.62
525.017	7443.62
525.788	7110.62
526.56	6840.62
527.331	6547.62
528.102	6267.62
528.873	5969.62
529.644	5680.62
530.415	5380.62
531.186	5104.62
531.957	4832.62
532.728	4599.62
533.498	4308.62
534.269	4074.62
535.039	3818.62
535.81	3617.62
536.58	3427.62
537.351	3224.62
538.121	3020.62
538.891	2878.62
539.661	2705.62
540.431	2558.62
541.201	2427.62
541.971	2310.62
542.741	2214.62
543.51	2081.62
544.28	1965.62
545.05	1878.62
545.819	1780.62
546.588	1687.62
547.358	1604.62
548.127	1532.62
548.896	1443.62
549.665	1388.62
550.434	1298.62
551.203	1236.62
551.972	1169.62
552.741	1103.62
553.51	1040.62
554.278	994.62
555.047	936.62
555.815	884.62
556.584	817.62
557.352	781.62
558.121	728.62
558.889	685.62
559.657	646.62
560.425	612.62
561.193	571.62
561.961	536.62
562.729	515.62
563.496	486.62
564.264	459.62
565.032	440.62
565.799	405.62
566.567	380.62
567.334	366.62
568.101	345.62
568.869	325.62
569.636	303.62
570.403	288.62
571.17	267.62
571.937	251.62
572.704	242.62
573.471	223.62
574.237	209.62
575.004	198.62
575.771	188.62
576.537	176.62
577.303	170.62
578.07	165.62
578.836	149.62
579.602	137.62
580.368	133.62
581.134	123.62
581.9	113.62
582.666	108.62
583.432	104.62
584.198	98.62
584.964	91.62
585.729	90.62
586.495	80.62
587.26	80.62
588.025	75.62
588.791	74.62
589.556	66.62
590.321	62.62
591.086	59.62
591.851	53.62
592.616	50.62
593.381	52.62
594.146	48.62
594.911	44.62
595.675	43.62
596.44	41.62
597.204	40.62
597.969	39.62
598.733	37.62
599.497	34.62
600.261	36.62
601.025	31.62
601.79	27.62
602.553	29.62
603.317	26.62
604.081	25.62
604.845	26.62
605.609	25.62
606.372	21.62
607.136	20.62
607.899	20.62
608.662	18.62
609.426	22.62
610.189	18.62
610.952	17.62
611.715	16.62
612.478	14.62
613.241	13.62
614.004	15.62
614.767	19.62
615.529	13.62
616.292	11.62
617.055	15.62
617.817	11.62
618.579	9.62
619.342	11.62
620.104	12.62
620.866	10.62
621.628	11.62
622.39	9.62
623.152	10.62
623.914	10.62
624.676	8.62
625.438	7.62
626.199	6.62
626.961	11.62
627.722	5.62
628.484	8.62
629.245	5.62
630.006	8.62
630.768	9.62
631.529	6.62
632.29	5.62
633.051	4.62
633.812	5.62
634.573	5.62
635.333	4.62
636.094	6.62
636.855	6.62
637.615	6.62
638.376	5.62
639.136	6.62
639.896	4.62
640.657	4.62
641.417	5.62
642.177	3.62
642.937	4.62
643.697	3.62
644.457	3.62
645.216	4.62
645.976	5.62
646.736	4.62
647.495	2.62
648.255	5.62
649.014	3.62
649.774	5.62
650.533	5.62
651.292	4.62
652.051	3.62
652.81	1.62
653.569	3.62
654.328	5.62
655.087	2.62
655.846	4.62
656.604	2.62
657.363	6.62
658.121	3.62
658.88	3.62
659.638	3.62
660.397	3.62
661.155	2.62
661.913	3.62
662.671	1.62
663.429	-0.38
664.187	3.62
664.945	2.62
665.703	4.62
666.46	4.62
667.218	1.62
667.976	3.62
668.733	0.62
669.49	3.62
670.248	3.62
671.005	1.62
671.762	0.62
672.519	2.62
673.276	0.62
674.033	2.62
674.79	0.62
675.547	1.62
676.304	1.62
677.06	1.62
677.817	-0.38
678.574	3.62
679.33	3.62
680.086	4.62
680.843	3.62
681.599	2.62
682.355	1.62
683.111	1.62
683.867	2.62
684.623	0.62
685.379	0.62
686.135	1.62
686.89	0.62
687.646	4.62
688.402	2.62
689.157	2.62
689.912	1.62
690.668	3.62
691.423	0.62
692.178	1.62
692.933	2.62
693.688	2.62
694.443	2.62
695.198	0.62
695.953	1.62
696.708	1.62
697.462	-0.38
698.217	-0.38
698.972	0.62
699.726	2.62
700.48	3.62
701.235	2.62
701.989	1.62
702.743	2.62
703.497	1.62
704.251	0.62
705.005	-0.38
705.759	0.62
706.513	2.62
707.266	0.62
708.02	0.62
708.774	0.62
709.527	3.62
710.28	0.62
711.034	1.62
711.787	0.62
712.54	3.62
713.293	2.62
714.046	2.62
714.799	0.62
715.552	2.62
716.305	1.62
717.058	-0.38
717.81	1.62
718.563	2.62
719.315	1.62
720.068	1.62
720.82	1.62
721.573	2.62
722.325	-0.38
723.077	0.62
723.829	0.62
724.581	1.62
725.333	1.62
726.085	2.62
726.836	0.62
727.588	-0.38
728.34	2.62
729.091	1.62
729.843	0.62
730.594	1.62
731.346	0.62
732.097	-0.38
732.848	1.62
733.599	2.62
734.35	3.62
735.101	0.62
735.852	2.62
736.603	1.62
737.354	1.62
738.104	1.62
738.855	1.62
739.605	2.62
740.356	2.62
741.106	1.62
741.856	1.62
742.607	2.62
743.357	2.62
744.107	1.62
744.857	3.62
745.607	2.62
746.357	2.62
747.106	1.62
747.856	0.62
748.606	3.62
749.355	2.62
750.105	1.62
750.854	1.62
751.603	3.62
752.353	1.62
753.102	1.62
753.851	1.62
754.6	2.62
755.349	2.62
756.098	1.62
756.847	3.62
757.595	2.62
758.344	3.62
759.093	4.62
759.841	3.62
760.589	2.62
761.338	4.62
762.086	3.62
762.834	3.62
763.582	2.62
764.331	4.62
765.079	4.62
765.826	3.62
766.574	1.62
767.322	2.62
768.07	5.62
768.817	4.62
769.565	3.62
770.312	3.62
771.06	4.62
771.807	6.62
772.554	5.62
773.302	5.62
774.049	3.62
774.796	1.62
775.543	3.62
776.29	4.62
777.036	3.62
777.783	7.62
778.53	3.62
779.276	4.62
780.023	4.62
780.769	6.62
781.516	3.62
782.262	3.62
783.008	5.62
783.754	5.62
784.5	1.62
785.246	4.62
785.992	6.62
786.738	4.62
787.484	3.62
788.23	4.62
788.975	3.62
789.721	5.62
790.466	4.62
791.212	4.62
791.957	3.62
792.702	4.62
793.447	3.62
794.193	2.62
794.938	4.62
795.683	5.62
796.427	5.62
797.172	4.62
797.917	5.62
798.662	4.62
799.406	5.62
800.151	7.62
800.895	3.62
801.64	2.62
802.384	4.62
803.128	4.62
803.872	1.62
804.616	7.62
805.36	2.62
806.104	3.62
806.848	2.62
807.592	5.62
808.336	5.62
809.079	3.62
809.823	4.62
810.566	3.62
811.31	3.62
812.053	1.62
812.796	2.62
813.539	4.62
814.283	2.62
815.026	3.62
815.769	2.62
816.511	4.62
817.254	1.62
817.997	4.62
818.74	2.62
819.482	0.62
820.225	2.62
820.967	0.62
821.71	3.62
822.452	2.62
823.194	0.62
823.936	1.62
824.678	5.62
825.42	1.62
826.162	2.62
826.904	2.62
827.646	3.62
828.388	-0.38
829.129	1.62
829.871	-0.38
830.612	2.62
831.354	0.62
832.095	2.62
832.836	1.62
833.577	3.62
834.319	-0.38
835.06	2.62
835.801	1.62
836.542	1.62
837.282	1.62
838.023	1.62
838.764	2.62
839.504	2.62
840.245	1.62
840.985	1.62
841.726	1.62
842.466	0.62
843.206	0.62
843.946	2.62
844.687	0.62
845.427	1.62
846.166	1.62
846.906	-0.38
847.646	4.62
848.386	1.62
849.125	-1.38
849.865	4.62
850.605	2.62
851.344	3.62
852.083	0.62
852.823	0.62
853.562	1.62
854.301	0.62
855.04	1.62
855.779	1.62
856.518	0.62
857.257	0.62
857.995	-0.38
858.734	0.62
859.473	0.62
860.211	2.62
860.95	0.62
861.688	0.62
862.426	-0.38
863.165	0.62
863.903	1.62
864.641	-2.38
865.379	2.62
866.117	2.62
866.855	-0.38
867.593	1.62
868.33	0.62
869.068	0.62
869.806	1.62
870.543	1.62
871.28	1.62
872.018	0.62
872.755	1.62
873.492	-2.38
874.229	1.62
874.967	0.62
875.703	-0.38
876.44	1.62
877.177	-0.38
877.914	0.62
878.651	-0.38
879.387	0.62
880.124	-2.38
880.86	-1.38
881.597	0.62
882.333	-1.38
883.069	-0.38
883.806	-0.38
884.542	0.62
885.278	-2.38
886.014	-1.38
886.749	-0.38
887.485	0.62
888.221	0.62
888.957	-1.38
889.692	1.62
890.428	-0.38
891.163	2.62
891.899	-0.38
892.634	-0.38
893.369	-1.38
894.104	0.62
894.839	1.62
895.574	-2.38
896.309	2.62
897.044	-1.38
897.779	0.62
898.514	0.62
899.248	1.62
899.983	1.62
900.717	-0.38
901.452	0.62
902.186	1.62
902.92	-1.38
903.654	-1.38
904.389	-0.38
905.123	2.62
905.857	1.62
906.59	0.62
907.324	1.62
908.058	1.62
908.792	0.62
909.525	1.62
910.259	-0.38
910.992	-1.38
911.726	1.62
912.459	0.62
913.192	-0.38
913.925	0.62
914.658	1.62
915.391	0.62
916.124	-0.38
916.857	0.62
917.59	-1.38
918.323	-0.38
919.055	0.62
919.788	0.62
920.521	0.62
921.253	-0.38
921.985	-2.38
922.718	-0.38
923.45	-1.38
924.182	0.62
924.914	-2.38
925.646	0.62
926.378	-2.38
927.11	1.62
927.841	0.62
928.573	0.62
929.305	-0.38
930.036	1.62
930.768	-2.38
931.499	0.62
932.23	-1.38
932.962	-2.38
933.693	-0.38
934.424	-0.38
935.155	-1.38
935.886	0.62
936.617	-0.38
937.348	-0.38
938.078	1.62
938.809	-1.38
939.54	-0.38
940.27	-2.38
941.001	-2.38
941.731	1.62
942.461	0.62
943.191	-1.38
943.922	0.62
944.652	1.62
945.382	0.62
946.112	-0.38
946.841	0.62
947.571	-0.38
948.301	-2.38
949.031	-1.38
949.76	-1.38
950.49	-2.38
951.219	0.62
951.948	-1.38
952.678	0.62
953.407	-0.38
954.136	-0.38
954.865	-2.38
955.594	0.62
956.323	-0.38
957.052	-0.38
957.78	0.62
958.509	-0.38
959.238	0.62
959.966	0.62
960.695	-1.38
961.423	-2.38
962.151	2.62
962.88	1.62
963.608	4.62
964.336	0.62
965.064	0.62
965.792	1.62
966.52	0.62
967.247	-0.38
967.975	-1.38
968.703	-0.38
969.43	0.62
970.158	0.62
970.885	1.62
971.613	-0.38
972.34	-0.38
973.067	0.62
973.794	-0.38
974.521	-2.38
975.248	0.62
975.975	1.62
976.702	1.62
977.429	1.62
978.156	0.62
978.882	-2.38
979.609	-0.38
980.335	0.62
981.062	-2.38
981.788	-2.38
982.514	-0.38
983.24	-2.38
983.967	1.62
984.693	0.62
985.419	-0.38
986.144	0.62
986.87	-1.38
987.596	-2.38
988.322	-1.38
989.047	-2.38
989.773	-0.38
990.498	-0.38
991.224	-0.38
991.949	-2.38
992.674	-0.38
993.399	1.62
994.124	-1.38
994.849	-0.38
995.574	-0.38
996.299	0.62
997.024	0.62
997.749	-0.38
998.473	-3.38
999.198	-0.38
999.922	-0.38
1000.647	-0.38
1001.371	2.62
1002.095	-1.38
1002.82	-2.38
1003.544	-0.38
1004.268	-0.38
1004.992	-1.38
1005.716	0.62
1006.439	-1.38
1007.163	0.62
1007.887	0.62
1008.611	1.62
1009.334	0.62
1010.058	-1.38
1010.781	1.62
1011.504	-1.38
1012.228	-1.38
1012.951	0.62
1013.674	0.62
1014.397	0.62
1015.12	-0.38
