节点500_145_QEPB04081__598__11-38-27-347.txt的数据

Date: Wed Nov 12 11:38:27 CST 2025
User: PC
Spectrometer: QEPB0408
触发模式: 0
积分时间 (秒): 1.000000E-2
Scans to average: 1
启用暗噪声校正: true
启用非线性校正: false
滑动平均宽度: 0
X轴模式: Wavelengths
Number of Pixels in Spectrum: 1044
>>>>>Begin Spectral Data<<<<<
220.843	1.88
221.644	-0.12
222.444	1.88
223.244	1.88
224.045	1.88
224.845	1.88
225.645	0.88
226.445	0.88
227.245	0.88
228.045	0.88
228.845	-2.12
229.645	0.88
230.444	-0.12
231.244	-0.12
232.043	1.88
232.843	-0.12
233.642	-0.12
234.442	1.88
235.241	0.88
236.04	1.88
236.839	-2.12
237.638	0.88
238.437	1.88
239.236	0.88
240.035	1.88
240.833	1.88
241.632	2.88
242.43	0.88
243.229	0.88
244.027	-0.12
244.826	-0.12
245.624	2.88
246.422	0.88
247.22	1.88
248.018	1.88
248.816	4.88
249.614	3.88
250.412	2.88
251.21	0.88
252.007	3.88
252.805	4.88
253.602	1.88
254.4	3.88
255.197	3.88
255.994	2.88
256.791	3.88
257.589	3.88
258.386	4.88
259.183	4.88
259.979	3.88
260.776	2.88
261.573	6.88
262.37	3.88
263.166	3.88
263.963	4.88
264.759	0.88
265.556	3.88
266.352	5.88
267.148	5.88
267.944	7.88
268.74	5.88
269.536	6.88
270.332	5.88
271.128	7.88
271.924	5.88
272.719	6.88
273.515	7.88
274.311	7.88
275.106	7.88
275.901	8.88
276.697	9.88
277.492	10.88
278.287	8.88
279.082	8.88
279.877	8.88
280.672	7.88
281.467	7.88
282.262	11.88
283.056	10.88
283.851	11.88
284.646	10.88
285.44	8.88
286.234	11.88
287.029	11.88
287.823	10.88
288.617	8.88
289.411	10.88
290.205	11.88
290.999	9.88
291.793	11.88
292.587	9.88
293.381	9.88
294.174	9.88
294.968	8.88
295.761	8.88
296.555	7.88
297.348	8.88
298.141	12.88
298.935	9.88
299.728	10.88
300.521	6.88
301.314	10.88
302.107	8.88
302.899	9.88
303.692	9.88
304.485	6.88
305.277	6.88
306.07	10.88
306.862	10.88
307.655	7.88
308.447	8.88
309.239	5.88
310.031	7.88
310.823	9.88
311.615	8.88
312.407	6.88
313.199	6.88
313.991	6.88
314.783	6.88
315.574	5.88
316.366	6.88
317.157	5.88
317.949	7.88
318.74	3.88
319.531	5.88
320.322	4.88
321.113	5.88
321.904	4.88
322.695	5.88
323.486	5.88
324.277	0.88
325.068	3.88
325.858	4.88
326.649	3.88
327.439	5.88
328.23	1.88
329.02	4.88
329.81	2.88
330.6	6.88
331.391	6.88
332.181	2.88
332.971	1.88
333.76	1.88
334.55	5.88
335.34	2.88
336.13	5.88
336.919	4.88
337.709	2.88
338.498	4.88
339.287	4.88
340.077	2.88
340.866	1.88
341.655	2.88
342.444	2.88
343.233	3.88
344.022	1.88
344.811	2.88
345.6	3.88
346.388	2.88
347.177	6.88
347.965	2.88
348.754	2.88
349.542	2.88
350.33	3.88
351.119	6.88
351.907	3.88
352.695	2.88
353.483	4.88
354.271	2.88
355.059	2.88
355.846	2.88
356.634	1.88
357.422	2.88
358.209	2.88
358.997	3.88
359.784	0.88
360.571	5.88
361.359	-1.12
362.146	3.88
362.933	1.88
363.72	3.88
364.507	1.88
365.294	2.88
366.081	3.88
366.867	1.88
367.654	2.88
368.44	2.88
369.227	3.88
370.013	2.88
370.8	2.88
371.586	1.88
372.372	1.88
373.158	4.88
373.944	0.88
374.73	2.88
375.516	3.88
376.302	2.88
377.088	4.88
377.873	2.88
378.659	2.88
379.445	4.88
380.23	3.88
381.015	1.88
381.801	3.88
382.586	2.88
383.371	3.88
384.156	3.88
384.941	1.88
385.726	0.88
386.511	3.88
387.296	1.88
388.08	2.88
388.865	2.88
389.649	2.88
390.434	3.88
391.218	1.88
392.003	3.88
392.787	2.88
393.571	3.88
394.355	3.88
395.139	1.88
395.923	0.88
396.707	3.88
397.491	3.88
398.274	1.88
399.058	2.88
399.842	5.88
400.625	4.88
401.408	2.88
402.192	2.88
402.975	4.88
403.758	1.88
404.541	3.88
405.324	2.88
406.107	3.88
406.89	2.88
407.673	2.88
408.456	5.88
409.238	2.88
410.021	3.88
410.803	2.88
411.586	5.88
412.368	3.88
413.151	4.88
413.933	5.88
414.715	5.88
415.497	5.88
416.279	2.88
417.061	4.88
417.843	4.88
418.624	5.88
419.406	5.88
420.188	3.88
420.969	4.88
421.751	4.88
422.532	5.88
423.313	5.88
424.095	5.88
424.876	4.88
425.657	5.88
426.438	5.88
427.219	6.88
428	8.88
428.78	4.88
429.561	6.88
430.342	7.88
431.122	8.88
431.903	9.88
432.683	4.88
433.464	9.88
434.244	8.88
435.024	7.88
435.804	8.88
436.584	9.88
437.364	11.88
438.144	9.88
438.924	8.88
439.704	14.88
440.483	9.88
441.263	11.88
442.042	12.88
442.822	13.88
443.601	14.88
444.38	16.88
445.16	15.88
445.939	17.88
446.718	17.88
447.497	17.88
448.276	21.88
449.054	22.88
449.833	25.88
450.612	29.88
451.391	26.88
452.169	32.88
452.948	29.88
453.726	36.88
454.504	41.88
455.282	44.88
456.061	48.88
456.839	50.88
457.617	64.88
458.395	64.88
459.172	74.88
459.95	82.88
460.728	88.88
461.506	102.88
462.283	116.88
463.061	122.88
463.838	139.88
464.615	152.88
465.393	171.88
466.17	188.88
466.947	207.88
467.724	230.88
468.501	264.88
469.278	292.88
470.055	322.88
470.831	350.88
471.608	396.88
472.385	438.88
473.161	477.88
473.938	533.88
474.714	582.88
475.49	655.88
476.266	725.88
477.043	789.88
477.819	862.88
478.595	953.88
479.371	1058.88
480.146	1145.88
480.922	1261.88
481.698	1387.88
482.473	1516.88
483.249	1670.88
484.024	1825.88
484.8	1986.88
485.575	2187.88
486.35	2372.88
487.126	2625.88
487.901	2841.88
488.676	3135.88
489.451	3416.88
490.225	3747.88
491	4103.88
491.775	4453.88
492.55	4836.88
493.324	5295.88
494.099	5773.88
494.873	6255.88
495.647	6809.88
496.422	7352.88
497.196	7946.88
497.97	8569.88
498.744	9224.88
499.518	9889.88
500.292	10504.88
501.066	11151.88
501.839	11782.88
502.613	12361.88
503.387	13006.88
504.16	13504.88
504.934	14014.88
505.707	14358.88
506.48	14735.88
507.253	14978.88
508.027	15134.88
508.8	15237.88
509.573	15206.88
510.346	15115.88
511.118	14928.88
511.891	14652.88
512.664	14300.88
513.437	13926.88
514.209	13517.88
514.982	13001.88
515.754	12499.88
516.526	12066.88
517.298	11612.88
518.071	11094.88
518.843	10666.88
519.615	10194.88
520.387	9789.88
521.159	9381.88
521.93	9006.88
522.702	8614.88
523.474	8353.88
524.245	7971.88
525.017	7692.88
525.788	7345.88
526.56	7057.88
527.331	6779.88
528.102	6527.88
528.873	6246.88
529.644	5981.88
530.415	5706.88
531.186	5447.88
531.957	5180.88
532.728	4975.88
533.498	4681.88
534.269	4433.88
535.039	4221.88
535.81	3986.88
536.58	3773.88
537.351	3562.88
538.121	3387.88
538.891	3199.88
539.661	3018.88
540.431	2843.88
541.201	2734.88
541.971	2573.88
542.741	2418.88
543.51	2289.88
544.28	2176.88
545.05	2089.88
545.819	1977.88
546.588	1888.88
547.358	1781.88
548.127	1699.88
548.896	1610.88
549.665	1545.88
550.434	1457.88
551.203	1374.88
551.972	1307.88
552.741	1251.88
553.51	1182.88
554.278	1113.88
555.047	1057.88
555.815	986.88
556.584	936.88
557.352	890.88
558.121	839.88
558.889	785.88
559.657	753.88
560.425	709.88
561.193	667.88
561.961	622.88
562.729	592.88
563.496	564.88
564.264	526.88
565.032	493.88
565.799	462.88
566.567	435.88
567.334	420.88
568.101	392.88
568.869	373.88
569.636	351.88
570.403	330.88
571.17	313.88
571.937	301.88
572.704	274.88
573.471	263.88
574.237	252.88
575.004	235.88
575.771	215.88
576.537	205.88
577.303	195.88
578.07	181.88
578.836	175.88
579.602	163.88
580.368	153.88
581.134	146.88
581.9	139.88
582.666	134.88
583.432	124.88
584.198	117.88
584.964	110.88
585.729	101.88
586.495	102.88
587.26	92.88
588.025	86.88
588.791	81.88
589.556	78.88
590.321	76.88
591.086	69.88
591.851	68.88
592.616	63.88
593.381	63.88
594.146	57.88
594.911	57.88
595.675	53.88
596.44	48.88
597.204	47.88
597.969	41.88
598.733	43.88
599.497	40.88
600.261	37.88
601.025	37.88
601.79	33.88
602.553	35.88
603.317	33.88
604.081	30.88
604.845	27.88
605.609	28.88
606.372	26.88
607.136	26.88
607.899	29.88
608.662	22.88
609.426	23.88
610.189	23.88
610.952	19.88
611.715	18.88
612.478	17.88
613.241	21.88
614.004	18.88
614.767	16.88
615.529	16.88
616.292	15.88
617.055	14.88
617.817	15.88
618.579	13.88
619.342	14.88
620.104	15.88
620.866	14.88
621.628	10.88
622.39	11.88
623.152	12.88
623.914	14.88
624.676	8.88
625.438	9.88
626.199	9.88
626.961	9.88
627.722	9.88
628.484	6.88
629.245	8.88
630.006	7.88
630.768	9.88
631.529	7.88
632.29	8.88
633.051	6.88
633.812	3.88
634.573	7.88
635.333	5.88
636.094	7.88
636.855	7.88
637.615	5.88
638.376	5.88
639.136	6.88
639.896	5.88
640.657	7.88
641.417	6.88
642.177	7.88
642.937	3.88
643.697	3.88
644.457	4.88
645.216	4.88
645.976	3.88
646.736	2.88
647.495	4.88
648.255	4.88
649.014	3.88
649.774	5.88
650.533	4.88
651.292	3.88
652.051	4.88
652.81	5.88
653.569	3.88
654.328	5.88
655.087	2.88
655.846	4.88
656.604	2.88
657.363	2.88
658.121	2.88
658.88	2.88
659.638	4.88
660.397	3.88
661.155	4.88
661.913	4.88
662.671	2.88
663.429	2.88
664.187	1.88
664.945	2.88
665.703	2.88
666.46	3.88
667.218	2.88
667.976	1.88
668.733	5.88
669.49	2.88
670.248	0.88
671.005	3.88
671.762	3.88
672.519	2.88
673.276	4.88
674.033	3.88
674.79	1.88
675.547	1.88
676.304	1.88
677.06	2.88
677.817	4.88
678.574	2.88
679.33	2.88
680.086	7.88
680.843	4.88
681.599	1.88
682.355	2.88
683.111	0.88
683.867	2.88
684.623	3.88
685.379	2.88
686.135	1.88
686.89	1.88
687.646	0.88
688.402	3.88
689.157	0.88
689.912	2.88
690.668	1.88
691.423	2.88
692.178	3.88
692.933	2.88
693.688	1.88
694.443	0.88
695.198	3.88
695.953	2.88
696.708	1.88
697.462	0.88
698.217	3.88
698.972	1.88
699.726	3.88
700.48	1.88
701.235	1.88
701.989	1.88
702.743	3.88
703.497	1.88
704.251	4.88
705.005	0.88
705.759	3.88
706.513	1.88
707.266	1.88
708.02	1.88
708.774	2.88
709.527	1.88
710.28	1.88
711.034	2.88
711.787	0.88
712.54	2.88
713.293	4.88
714.046	1.88
714.799	1.88
715.552	1.88
716.305	2.88
717.058	0.88
717.81	0.88
718.563	0.88
719.315	1.88
720.068	1.88
720.82	2.88
721.573	2.88
722.325	0.88
723.077	1.88
723.829	0.88
724.581	1.88
725.333	1.88
726.085	1.88
726.836	2.88
727.588	3.88
728.34	2.88
729.091	3.88
729.843	2.88
730.594	2.88
731.346	1.88
732.097	4.88
732.848	1.88
733.599	2.88
734.35	0.88
735.101	-0.12
735.852	1.88
736.603	1.88
737.354	1.88
738.104	2.88
738.855	1.88
739.605	1.88
740.356	1.88
741.106	2.88
741.856	2.88
742.607	0.88
743.357	2.88
744.107	1.88
744.857	2.88
745.607	1.88
746.357	1.88
747.106	1.88
747.856	5.88
748.606	1.88
749.355	0.88
750.105	2.88
750.854	3.88
751.603	3.88
752.353	1.88
753.102	3.88
753.851	1.88
754.6	1.88
755.349	2.88
756.098	4.88
756.847	4.88
757.595	1.88
758.344	4.88
759.093	1.88
759.841	2.88
760.589	4.88
761.338	0.88
762.086	6.88
762.834	4.88
763.582	3.88
764.331	4.88
765.079	4.88
765.826	5.88
766.574	3.88
767.322	3.88
768.07	3.88
768.817	2.88
769.565	2.88
770.312	2.88
771.06	4.88
771.807	3.88
772.554	3.88
773.302	3.88
774.049	5.88
774.796	5.88
775.543	5.88
776.29	5.88
777.036	3.88
777.783	7.88
778.53	2.88
779.276	7.88
780.023	5.88
780.769	3.88
781.516	5.88
782.262	2.88
783.008	3.88
783.754	4.88
784.5	4.88
785.246	5.88
785.992	4.88
786.738	5.88
787.484	5.88
788.23	4.88
788.975	6.88
789.721	3.88
790.466	4.88
791.212	3.88
791.957	3.88
792.702	3.88
793.447	3.88
794.193	5.88
794.938	6.88
795.683	2.88
796.427	5.88
797.172	3.88
797.917	4.88
798.662	5.88
799.406	6.88
800.151	3.88
800.895	5.88
801.64	3.88
802.384	4.88
803.128	3.88
803.872	2.88
804.616	3.88
805.36	4.88
806.104	2.88
806.848	4.88
807.592	5.88
808.336	2.88
809.079	4.88
809.823	4.88
810.566	3.88
811.31	3.88
812.053	2.88
812.796	2.88
813.539	5.88
814.283	5.88
815.026	2.88
815.769	4.88
816.511	3.88
817.254	1.88
817.997	4.88
818.74	2.88
819.482	4.88
820.225	2.88
820.967	2.88
821.71	1.88
822.452	3.88
823.194	2.88
823.936	3.88
824.678	1.88
825.42	2.88
826.162	3.88
826.904	1.88
827.646	1.88
828.388	3.88
829.129	3.88
829.871	3.88
830.612	3.88
831.354	4.88
832.095	2.88
832.836	2.88
833.577	3.88
834.319	3.88
835.06	3.88
835.801	6.88
836.542	2.88
837.282	2.88
838.023	1.88
838.764	1.88
839.504	3.88
840.245	2.88
840.985	1.88
841.726	1.88
842.466	1.88
843.206	0.88
843.946	5.88
844.687	0.88
845.427	4.88
846.166	-0.12
846.906	2.88
847.646	1.88
848.386	1.88
849.125	2.88
849.865	2.88
850.605	0.88
851.344	1.88
852.083	1.88
852.823	1.88
853.562	-0.12
854.301	4.88
855.04	0.88
855.779	1.88
856.518	0.88
857.257	1.88
857.995	2.88
858.734	-1.12
859.473	2.88
860.211	1.88
860.95	1.88
861.688	1.88
862.426	-0.12
863.165	1.88
863.903	-1.12
864.641	3.88
865.379	-0.12
866.117	1.88
866.855	1.88
867.593	1.88
868.33	1.88
869.068	1.88
869.806	3.88
870.543	0.88
871.28	-0.12
872.018	2.88
872.755	-1.12
873.492	2.88
874.229	0.88
874.967	1.88
875.703	1.88
876.44	0.88
877.177	2.88
877.914	2.88
878.651	-2.12
879.387	0.88
880.124	1.88
880.86	0.88
881.597	1.88
882.333	1.88
883.069	0.88
883.806	0.88
884.542	0.88
885.278	0.88
886.014	-1.12
886.749	1.88
887.485	1.88
888.221	1.88
888.957	1.88
889.692	1.88
890.428	0.88
891.163	-1.12
891.899	0.88
892.634	0.88
893.369	-0.12
894.104	1.88
894.839	-1.12
895.574	0.88
896.309	1.88
897.044	-0.12
897.779	0.88
898.514	2.88
899.248	2.88
899.983	1.88
900.717	0.88
901.452	0.88
902.186	1.88
902.92	0.88
903.654	-1.12
904.389	0.88
905.123	-0.12
905.857	0.88
906.59	0.88
907.324	-0.12
908.058	0.88
908.792	-2.12
909.525	0.88
910.259	-0.12
910.992	1.88
911.726	0.88
912.459	-0.12
913.192	-1.12
913.925	-1.12
914.658	2.88
915.391	-0.12
916.124	2.88
916.857	1.88
917.59	-1.12
918.323	1.88
919.055	1.88
919.788	1.88
920.521	-1.12
921.253	0.88
921.985	1.88
922.718	0.88
923.45	-0.12
924.182	1.88
924.914	-0.12
925.646	0.88
926.378	0.88
927.11	1.88
927.841	0.88
928.573	1.88
929.305	1.88
930.036	1.88
930.768	0.88
931.499	-2.12
932.23	1.88
932.962	-0.12
933.693	0.88
934.424	-2.12
935.155	0.88
935.886	-0.12
936.617	1.88
937.348	0.88
938.078	-0.12
938.809	1.88
939.54	-1.12
940.27	0.88
941.001	-0.12
941.731	1.88
942.461	-0.12
943.191	-1.12
943.922	-0.12
944.652	1.88
945.382	-0.12
946.112	3.88
946.841	1.88
947.571	1.88
948.301	-0.12
949.031	-1.12
949.76	3.88
950.49	2.88
951.219	0.88
951.948	1.88
952.678	1.88
953.407	1.88
954.136	1.88
954.865	-1.12
955.594	1.88
956.323	-0.12
957.052	0.88
957.78	-1.12
958.509	1.88
959.238	1.88
959.966	-0.12
960.695	1.88
961.423	1.88
962.151	0.88
962.88	2.88
963.608	0.88
964.336	1.88
965.064	0.88
965.792	-0.12
966.52	-0.12
967.247	-0.12
967.975	-0.12
968.703	1.88
969.43	0.88
970.158	0.88
970.885	0.88
971.613	0.88
972.34	-0.12
973.067	0.88
973.794	-0.12
974.521	1.88
975.248	1.88
975.975	0.88
976.702	2.88
977.429	-0.12
978.156	-0.12
978.882	-0.12
979.609	0.88
980.335	0.88
981.062	1.88
981.788	0.88
982.514	-1.12
983.24	-0.12
983.967	0.88
984.693	0.88
985.419	1.88
986.144	1.88
986.87	-1.12
987.596	-1.12
988.322	-1.12
989.047	0.88
989.773	-0.12
990.498	-0.12
991.224	1.88
991.949	0.88
992.674	-0.12
993.399	1.88
994.124	-1.12
994.849	0.88
995.574	1.88
996.299	-0.12
997.024	1.88
997.749	2.88
998.473	0.88
999.198	-0.12
999.922	0.88
1000.647	0.88
1001.371	3.88
1002.095	-1.12
1002.82	-1.12
1003.544	0.88
1004.268	-0.12
1004.992	0.88
1005.716	1.88
1006.439	-0.12
1007.163	0.88
1007.887	-1.12
1008.611	-1.12
1009.334	0.88
1010.058	0.88
1010.781	2.88
1011.504	1.88
1012.228	0.88
1012.951	-1.12
1013.674	-0.12
1014.397	-0.12
1015.12	-1.12
