节点500_145_QEPB04081__190__11-31-59-536.txt的数据

Date: Wed Nov 12 11:31:59 CST 2025
User: PC
Spectrometer: QEPB0408
触发模式: 0
积分时间 (秒): 1.000000E-2
Scans to average: 1
启用暗噪声校正: true
启用非线性校正: false
滑动平均宽度: 0
X轴模式: Wavelengths
Number of Pixels in Spectrum: 1044
>>>>>Begin Spectral Data<<<<<
220.843	-0.75
221.644	-0.75
222.444	1.25
223.244	-1.75
224.045	1.25
224.845	-0.75
225.645	0.25
226.445	0.25
227.245	-1.75
228.045	0.25
228.845	0.25
229.645	2.25
230.444	-1.75
231.244	1.25
232.043	0.25
232.843	-0.75
233.642	-0.75
234.442	1.25
235.241	2.25
236.04	1.25
236.839	2.25
237.638	1.25
238.437	2.25
239.236	-0.75
240.035	-0.75
240.833	1.25
241.632	2.25
242.43	3.25
243.229	3.25
244.027	0.25
244.826	0.25
245.624	1.25
246.422	2.25
247.22	2.25
248.018	2.25
248.816	0.25
249.614	2.25
250.412	2.25
251.21	0.25
252.007	4.25
252.805	3.25
253.602	3.25
254.4	7.25
255.197	3.25
255.994	3.25
256.791	2.25
257.589	4.25
258.386	5.25
259.183	5.25
259.979	5.25
260.776	4.25
261.573	7.25
262.37	3.25
263.166	7.25
263.963	4.25
264.759	4.25
265.556	6.25
266.352	6.25
267.148	4.25
267.944	7.25
268.74	9.25
269.536	3.25
270.332	8.25
271.128	8.25
271.924	7.25
272.719	9.25
273.515	9.25
274.311	9.25
275.106	7.25
275.901	8.25
276.697	10.25
277.492	12.25
278.287	10.25
279.082	10.25
279.877	10.25
280.672	11.25
281.467	11.25
282.262	10.25
283.056	11.25
283.851	11.25
284.646	13.25
285.44	8.25
286.234	14.25
287.029	13.25
287.823	11.25
288.617	12.25
289.411	12.25
290.205	12.25
290.999	13.25
291.793	10.25
292.587	8.25
293.381	11.25
294.174	11.25
294.968	11.25
295.761	10.25
296.555	11.25
297.348	8.25
298.141	9.25
298.935	10.25
299.728	7.25
300.521	9.25
301.314	9.25
302.107	7.25
302.899	7.25
303.692	7.25
304.485	9.25
305.277	9.25
306.07	11.25
306.862	7.25
307.655	8.25
308.447	10.25
309.239	7.25
310.031	10.25
310.823	7.25
311.615	7.25
312.407	6.25
313.199	5.25
313.991	7.25
314.783	5.25
315.574	5.25
316.366	5.25
317.157	8.25
317.949	6.25
318.74	4.25
319.531	4.25
320.322	3.25
321.113	4.25
321.904	3.25
322.695	7.25
323.486	5.25
324.277	6.25
325.068	5.25
325.858	3.25
326.649	3.25
327.439	2.25
328.23	5.25
329.02	3.25
329.81	4.25
330.6	5.25
331.391	3.25
332.181	4.25
332.971	5.25
333.76	5.25
334.55	5.25
335.34	4.25
336.13	4.25
336.919	5.25
337.709	4.25
338.498	2.25
339.287	2.25
340.077	3.25
340.866	4.25
341.655	3.25
342.444	2.25
343.233	1.25
344.022	4.25
344.811	5.25
345.6	5.25
346.388	4.25
347.177	2.25
347.965	2.25
348.754	1.25
349.542	3.25
350.33	3.25
351.119	4.25
351.907	4.25
352.695	3.25
353.483	1.25
354.271	2.25
355.059	3.25
355.846	4.25
356.634	5.25
357.422	1.25
358.209	4.25
358.997	1.25
359.784	2.25
360.571	2.25
361.359	5.25
362.146	3.25
362.933	2.25
363.72	3.25
364.507	3.25
365.294	5.25
366.081	2.25
366.867	4.25
367.654	2.25
368.44	3.25
369.227	2.25
370.013	2.25
370.8	2.25
371.586	2.25
372.372	4.25
373.158	3.25
373.944	1.25
374.73	2.25
375.516	3.25
376.302	1.25
377.088	2.25
377.873	2.25
378.659	2.25
379.445	0.25
380.23	5.25
381.015	4.25
381.801	4.25
382.586	4.25
383.371	3.25
384.156	3.25
384.941	3.25
385.726	3.25
386.511	4.25
387.296	3.25
388.08	3.25
388.865	2.25
389.649	3.25
390.434	2.25
391.218	4.25
392.003	1.25
392.787	2.25
393.571	4.25
394.355	3.25
395.139	3.25
395.923	3.25
396.707	3.25
397.491	5.25
398.274	3.25
399.058	6.25
399.842	2.25
400.625	5.25
401.408	4.25
402.192	2.25
402.975	5.25
403.758	4.25
404.541	4.25
405.324	2.25
406.107	4.25
406.89	3.25
407.673	3.25
408.456	5.25
409.238	3.25
410.021	5.25
410.803	4.25
411.586	5.25
412.368	4.25
413.151	5.25
413.933	5.25
414.715	5.25
415.497	5.25
416.279	4.25
417.061	7.25
417.843	4.25
418.624	5.25
419.406	5.25
420.188	4.25
420.969	6.25
421.751	6.25
422.532	3.25
423.313	7.25
424.095	5.25
424.876	8.25
425.657	6.25
426.438	6.25
427.219	5.25
428	5.25
428.78	8.25
429.561	7.25
430.342	10.25
431.122	8.25
431.903	8.25
432.683	7.25
433.464	9.25
434.244	7.25
435.024	8.25
435.804	11.25
436.584	9.25
437.364	12.25
438.144	11.25
438.924	10.25
439.704	12.25
440.483	10.25
441.263	12.25
442.042	12.25
442.822	16.25
443.601	14.25
444.38	14.25
445.16	16.25
445.939	15.25
446.718	17.25
447.497	20.25
448.276	21.25
449.054	20.25
449.833	21.25
450.612	24.25
451.391	28.25
452.169	28.25
452.948	30.25
453.726	35.25
454.504	35.25
455.282	41.25
456.061	45.25
456.839	46.25
457.617	56.25
458.395	57.25
459.172	62.25
459.95	74.25
460.728	81.25
461.506	88.25
462.283	96.25
463.061	108.25
463.838	120.25
464.615	134.25
465.393	153.25
466.17	166.25
466.947	191.25
467.724	209.25
468.501	230.25
469.278	259.25
470.055	289.25
470.831	322.25
471.608	361.25
472.385	399.25
473.161	452.25
473.938	492.25
474.714	558.25
475.49	605.25
476.266	680.25
477.043	758.25
477.819	828.25
478.595	937.25
479.371	1037.25
480.146	1152.25
480.922	1257.25
481.698	1401.25
482.473	1557.25
483.249	1711.25
484.024	1894.25
484.8	2088.25
485.575	2305.25
486.35	2544.25
487.126	2839.25
487.901	3110.25
488.676	3471.25
489.451	3783.25
490.225	4179.25
491	4590.25
491.775	5102.25
492.55	5602.25
493.324	6134.25
494.099	6710.25
494.873	7343.25
495.647	8008.25
496.422	8682.25
497.196	9425.25
497.97	10209.25
498.744	10999.25
499.518	11783.25
500.292	12509.25
501.066	13273.25
501.839	13974.25
502.613	14662.25
503.387	15278.25
504.16	15839.25
504.934	16266.25
505.707	16623.25
506.48	16824.25
507.253	16965.25
508.027	16978.25
508.8	16905.25
509.573	16628.25
510.346	16345.25
511.118	15980.25
511.891	15499.25
512.664	14989.25
513.437	14428.25
514.209	13838.25
514.982	13270.25
515.754	12770.25
516.526	12139.25
517.298	11603.25
518.071	11069.25
518.843	10595.25
519.615	10131.25
520.387	9708.25
521.159	9308.25
521.93	8933.25
522.702	8601.25
523.474	8269.25
524.245	7937.25
525.017	7627.25
525.788	7288.25
526.56	7018.25
527.331	6721.25
528.102	6450.25
528.873	6136.25
529.644	5833.25
530.415	5566.25
531.186	5307.25
531.957	5031.25
532.728	4769.25
533.498	4511.25
534.269	4271.25
535.039	4029.25
535.81	3799.25
536.58	3578.25
537.351	3374.25
538.121	3193.25
538.891	3037.25
539.661	2851.25
540.431	2681.25
541.201	2548.25
541.971	2432.25
542.741	2309.25
543.51	2146.25
544.28	2081.25
545.05	1967.25
545.819	1866.25
546.588	1766.25
547.358	1678.25
548.127	1602.25
548.896	1511.25
549.665	1431.25
550.434	1368.25
551.203	1302.25
551.972	1232.25
552.741	1164.25
553.51	1102.25
554.278	1031.25
555.047	983.25
555.815	940.25
556.584	876.25
557.352	818.25
558.121	773.25
558.889	727.25
559.657	689.25
560.425	651.25
561.193	607.25
561.961	576.25
562.729	544.25
563.496	512.25
564.264	474.25
565.032	453.25
565.799	428.25
566.567	404.25
567.334	389.25
568.101	357.25
568.869	339.25
569.636	320.25
570.403	307.25
571.17	281.25
571.937	268.25
572.704	258.25
573.471	247.25
574.237	231.25
575.004	213.25
575.771	203.25
576.537	191.25
577.303	174.25
578.07	174.25
578.836	158.25
579.602	151.25
580.368	141.25
581.134	135.25
581.9	129.25
582.666	121.25
583.432	113.25
584.198	110.25
584.964	107.25
585.729	95.25
586.495	90.25
587.26	86.25
588.025	81.25
588.791	79.25
589.556	78.25
590.321	71.25
591.086	67.25
591.851	66.25
592.616	56.25
593.381	54.25
594.146	50.25
594.911	51.25
595.675	49.25
596.44	45.25
597.204	44.25
597.969	41.25
598.733	39.25
599.497	39.25
600.261	39.25
601.025	35.25
601.79	34.25
602.553	28.25
603.317	30.25
604.081	28.25
604.845	29.25
605.609	26.25
606.372	27.25
607.136	22.25
607.899	25.25
608.662	21.25
609.426	22.25
610.189	18.25
610.952	20.25
611.715	18.25
612.478	16.25
613.241	21.25
614.004	17.25
614.767	14.25
615.529	16.25
616.292	14.25
617.055	13.25
617.817	12.25
618.579	14.25
619.342	13.25
620.104	13.25
620.866	14.25
621.628	11.25
622.39	12.25
623.152	12.25
623.914	11.25
624.676	10.25
625.438	10.25
626.199	10.25
626.961	8.25
627.722	8.25
628.484	9.25
629.245	7.25
630.006	10.25
630.768	10.25
631.529	5.25
632.29	6.25
633.051	8.25
633.812	6.25
634.573	9.25
635.333	7.25
636.094	8.25
636.855	6.25
637.615	7.25
638.376	3.25
639.136	4.25
639.896	6.25
640.657	4.25
641.417	4.25
642.177	5.25
642.937	6.25
643.697	6.25
644.457	4.25
645.216	3.25
645.976	4.25
646.736	4.25
647.495	5.25
648.255	2.25
649.014	4.25
649.774	5.25
650.533	4.25
651.292	2.25
652.051	4.25
652.81	3.25
653.569	4.25
654.328	5.25
655.087	3.25
655.846	3.25
656.604	2.25
657.363	4.25
658.121	3.25
658.88	5.25
659.638	3.25
660.397	3.25
661.155	3.25
661.913	4.25
662.671	2.25
663.429	2.25
664.187	2.25
664.945	1.25
665.703	3.25
666.46	2.25
667.218	2.25
667.976	2.25
668.733	3.25
669.49	2.25
670.248	2.25
671.005	4.25
671.762	2.25
672.519	2.25
673.276	1.25
674.033	0.25
674.79	2.25
675.547	3.25
676.304	5.25
677.06	3.25
677.817	0.25
678.574	1.25
679.33	2.25
680.086	3.25
680.843	1.25
681.599	2.25
682.355	0.25
683.111	2.25
683.867	2.25
684.623	1.25
685.379	3.25
686.135	2.25
686.89	2.25
687.646	3.25
688.402	2.25
689.157	4.25
689.912	0.25
690.668	3.25
691.423	3.25
692.178	3.25
692.933	4.25
693.688	3.25
694.443	2.25
695.198	1.25
695.953	1.25
696.708	4.25
697.462	0.25
698.217	2.25
698.972	3.25
699.726	1.25
700.48	5.25
701.235	3.25
701.989	1.25
702.743	4.25
703.497	1.25
704.251	6.25
705.005	2.25
705.759	4.25
706.513	1.25
707.266	2.25
708.02	1.25
708.774	2.25
709.527	3.25
710.28	4.25
711.034	1.25
711.787	3.25
712.54	3.25
713.293	1.25
714.046	1.25
714.799	2.25
715.552	4.25
716.305	3.25
717.058	2.25
717.81	-0.75
718.563	4.25
719.315	2.25
720.068	1.25
720.82	2.25
721.573	3.25
722.325	1.25
723.077	1.25
723.829	1.25
724.581	2.25
725.333	4.25
726.085	0.25
726.836	3.25
727.588	4.25
728.34	2.25
729.091	3.25
729.843	1.25
730.594	2.25
731.346	3.25
732.097	1.25
732.848	1.25
733.599	2.25
734.35	3.25
735.101	1.25
735.852	3.25
736.603	2.25
737.354	0.25
738.104	2.25
738.855	1.25
739.605	0.25
740.356	3.25
741.106	1.25
741.856	3.25
742.607	3.25
743.357	3.25
744.107	2.25
744.857	6.25
745.607	5.25
746.357	2.25
747.106	3.25
747.856	1.25
748.606	3.25
749.355	3.25
750.105	4.25
750.854	3.25
751.603	2.25
752.353	0.25
753.102	3.25
753.851	6.25
754.6	1.25
755.349	5.25
756.098	3.25
756.847	1.25
757.595	2.25
758.344	2.25
759.093	4.25
759.841	3.25
760.589	2.25
761.338	5.25
762.086	4.25
762.834	4.25
763.582	3.25
764.331	5.25
765.079	2.25
765.826	5.25
766.574	5.25
767.322	4.25
768.07	3.25
768.817	3.25
769.565	4.25
770.312	4.25
771.06	6.25
771.807	5.25
772.554	6.25
773.302	5.25
774.049	4.25
774.796	6.25
775.543	5.25
776.29	5.25
777.036	7.25
777.783	3.25
778.53	3.25
779.276	5.25
780.023	4.25
780.769	5.25
781.516	5.25
782.262	5.25
783.008	5.25
783.754	7.25
784.5	5.25
785.246	6.25
785.992	5.25
786.738	6.25
787.484	6.25
788.23	6.25
788.975	6.25
789.721	6.25
790.466	6.25
791.212	4.25
791.957	7.25
792.702	3.25
793.447	4.25
794.193	5.25
794.938	7.25
795.683	3.25
796.427	5.25
797.172	4.25
797.917	3.25
798.662	5.25
799.406	7.25
800.151	4.25
800.895	5.25
801.64	3.25
802.384	2.25
803.128	4.25
803.872	3.25
804.616	4.25
805.36	4.25
806.104	2.25
806.848	5.25
807.592	4.25
808.336	4.25
809.079	5.25
809.823	6.25
810.566	5.25
811.31	4.25
812.053	3.25
812.796	3.25
813.539	4.25
814.283	4.25
815.026	4.25
815.769	5.25
816.511	4.25
817.254	3.25
817.997	2.25
818.74	4.25
819.482	5.25
820.225	4.25
820.967	4.25
821.71	1.25
822.452	3.25
823.194	2.25
823.936	4.25
824.678	2.25
825.42	4.25
826.162	3.25
826.904	2.25
827.646	3.25
828.388	2.25
829.129	4.25
829.871	2.25
830.612	4.25
831.354	2.25
832.095	2.25
832.836	4.25
833.577	2.25
834.319	2.25
835.06	2.25
835.801	5.25
836.542	2.25
837.282	3.25
838.023	3.25
838.764	1.25
839.504	2.25
840.245	2.25
840.985	3.25
841.726	4.25
842.466	3.25
843.206	3.25
843.946	2.25
844.687	2.25
845.427	2.25
846.166	3.25
846.906	3.25
847.646	0.25
848.386	2.25
849.125	1.25
849.865	3.25
850.605	2.25
851.344	1.25
852.083	3.25
852.823	1.25
853.562	1.25
854.301	2.25
855.04	2.25
855.779	2.25
856.518	3.25
857.257	-1.75
857.995	2.25
858.734	4.25
859.473	0.25
860.211	3.25
860.95	1.25
861.688	0.25
862.426	2.25
863.165	1.25
863.903	0.25
864.641	-0.75
865.379	3.25
866.117	1.25
866.855	1.25
867.593	-1.75
868.33	2.25
869.068	2.25
869.806	1.25
870.543	2.25
871.28	3.25
872.018	0.25
872.755	2.25
873.492	1.25
874.229	4.25
874.967	0.25
875.703	2.25
876.44	3.25
877.177	1.25
877.914	0.25
878.651	0.25
879.387	0.25
880.124	1.25
880.86	1.25
881.597	1.25
882.333	0.25
883.069	0.25
883.806	0.25
884.542	0.25
885.278	0.25
886.014	2.25
886.749	2.25
887.485	0.25
888.221	3.25
888.957	0.25
889.692	-3.75
890.428	0.25
891.163	1.25
891.899	2.25
892.634	-1.75
893.369	1.25
894.104	2.25
894.839	0.25
895.574	1.25
896.309	1.25
897.044	2.25
897.779	1.25
898.514	0.25
899.248	2.25
899.983	4.25
900.717	-1.75
901.452	-1.75
902.186	0.25
902.92	-2.75
903.654	1.25
904.389	0.25
905.123	3.25
905.857	1.25
906.59	1.25
907.324	0.25
908.058	0.25
908.792	0.25
909.525	-0.75
910.259	0.25
910.992	1.25
911.726	2.25
912.459	2.25
913.192	0.25
913.925	1.25
914.658	-0.75
915.391	2.25
916.124	1.25
916.857	0.25
917.59	0.25
918.323	-1.75
919.055	1.25
919.788	-0.75
920.521	-1.75
921.253	-0.75
921.985	0.25
922.718	0.25
923.45	-0.75
924.182	2.25
924.914	-0.75
925.646	1.25
926.378	2.25
927.11	2.25
927.841	-0.75
928.573	-0.75
929.305	1.25
930.036	1.25
930.768	1.25
931.499	2.25
932.23	1.25
932.962	-0.75
933.693	-1.75
934.424	2.25
935.155	0.25
935.886	0.25
936.617	3.25
937.348	2.25
938.078	-0.75
938.809	1.25
939.54	0.25
940.27	2.25
941.001	-1.75
941.731	1.25
942.461	-0.75
943.191	1.25
943.922	3.25
944.652	0.25
945.382	1.25
946.112	-0.75
946.841	0.25
947.571	2.25
948.301	0.25
949.031	-1.75
949.76	4.25
950.49	-0.75
951.219	0.25
951.948	0.25
952.678	1.25
953.407	0.25
954.136	1.25
954.865	1.25
955.594	-1.75
956.323	-0.75
957.052	0.25
957.78	0.25
958.509	-0.75
959.238	0.25
959.966	1.25
960.695	1.25
961.423	0.25
962.151	0.25
962.88	1.25
963.608	1.25
964.336	0.25
965.064	1.25
965.792	-1.75
966.52	-0.75
967.247	2.25
967.975	-1.75
968.703	1.25
969.43	0.25
970.158	1.25
970.885	-1.75
971.613	-2.75
972.34	0.25
973.067	0.25
973.794	2.25
974.521	0.25
975.248	3.25
975.975	-0.75
976.702	-0.75
977.429	0.25
978.156	-0.75
978.882	0.25
979.609	0.25
980.335	0.25
981.062	2.25
981.788	0.25
982.514	0.25
983.24	-0.75
983.967	2.25
984.693	1.25
985.419	-0.75
986.144	-0.75
986.87	0.25
987.596	0.25
988.322	0.25
989.047	1.25
989.773	0.25
990.498	-0.75
991.224	0.25
991.949	1.25
992.674	1.25
993.399	0.25
994.124	2.25
994.849	1.25
995.574	-1.75
996.299	-0.75
997.024	-1.75
997.749	0.25
998.473	1.25
999.198	2.25
999.922	0.25
1000.647	2.25
1001.371	4.25
1002.095	-1.75
1002.82	-0.75
1003.544	-2.75
1004.268	0.25
1004.992	1.25
1005.716	-0.75
1006.439	0.25
1007.163	-0.75
1007.887	1.25
1008.611	1.25
1009.334	-1.75
1010.058	2.25
1010.781	-0.75
1011.504	0.25
1012.228	0.25
1012.951	-1.75
1013.674	1.25
1014.397	0.25
1015.12	1.25
