节点500_145_QEPB04081__220__11-32-29-492.txt的数据

Date: Wed Nov 12 11:32:29 CST 2025
User: PC
Spectrometer: QEPB0408
触发模式: 0
积分时间 (秒): 1.000000E-2
Scans to average: 1
启用暗噪声校正: true
启用非线性校正: false
滑动平均宽度: 0
X轴模式: Wavelengths
Number of Pixels in Spectrum: 1044
>>>>>Begin Spectral Data<<<<<
220.843	0.25
221.644	0.25
222.444	1.25
223.244	0.25
224.045	0.25
224.845	1.25
225.645	1.25
226.445	1.25
227.245	1.25
228.045	-0.75
228.845	1.25
229.645	0.25
230.444	1.25
231.244	2.25
232.043	3.25
232.843	1.25
233.642	-0.75
234.442	1.25
235.241	3.25
236.04	1.25
236.839	0.25
237.638	3.25
238.437	0.25
239.236	1.25
240.035	-0.75
240.833	-0.75
241.632	1.25
242.43	1.25
243.229	0.25
244.027	1.25
244.826	3.25
245.624	1.25
246.422	2.25
247.22	1.25
248.018	4.25
248.816	2.25
249.614	2.25
250.412	2.25
251.21	3.25
252.007	0.25
252.805	2.25
253.602	3.25
254.4	4.25
255.197	2.25
255.994	4.25
256.791	2.25
257.589	5.25
258.386	4.25
259.183	4.25
259.979	6.25
260.776	3.25
261.573	4.25
262.37	5.25
263.166	5.25
263.963	9.25
264.759	7.25
265.556	3.25
266.352	6.25
267.148	3.25
267.944	5.25
268.74	7.25
269.536	6.25
270.332	8.25
271.128	9.25
271.924	8.25
272.719	8.25
273.515	9.25
274.311	6.25
275.106	9.25
275.901	10.25
276.697	9.25
277.492	12.25
278.287	8.25
279.082	9.25
279.877	9.25
280.672	8.25
281.467	8.25
282.262	7.25
283.056	9.25
283.851	11.25
284.646	13.25
285.44	10.25
286.234	10.25
287.029	11.25
287.823	11.25
288.617	11.25
289.411	13.25
290.205	10.25
290.999	10.25
291.793	10.25
292.587	9.25
293.381	11.25
294.174	9.25
294.968	8.25
295.761	11.25
296.555	9.25
297.348	9.25
298.141	10.25
298.935	10.25
299.728	9.25
300.521	9.25
301.314	8.25
302.107	8.25
302.899	7.25
303.692	8.25
304.485	7.25
305.277	8.25
306.07	6.25
306.862	6.25
307.655	7.25
308.447	6.25
309.239	10.25
310.031	8.25
310.823	7.25
311.615	5.25
312.407	5.25
313.199	8.25
313.991	4.25
314.783	7.25
315.574	4.25
316.366	4.25
317.157	7.25
317.949	6.25
318.74	6.25
319.531	7.25
320.322	4.25
321.113	4.25
321.904	5.25
322.695	2.25
323.486	5.25
324.277	4.25
325.068	3.25
325.858	6.25
326.649	3.25
327.439	6.25
328.23	4.25
329.02	5.25
329.81	4.25
330.6	5.25
331.391	5.25
332.181	5.25
332.971	3.25
333.76	3.25
334.55	3.25
335.34	3.25
336.13	1.25
336.919	5.25
337.709	2.25
338.498	3.25
339.287	4.25
340.077	3.25
340.866	3.25
341.655	1.25
342.444	2.25
343.233	3.25
344.022	4.25
344.811	3.25
345.6	3.25
346.388	4.25
347.177	1.25
347.965	5.25
348.754	2.25
349.542	4.25
350.33	4.25
351.119	3.25
351.907	3.25
352.695	1.25
353.483	3.25
354.271	4.25
355.059	5.25
355.846	3.25
356.634	2.25
357.422	2.25
358.209	3.25
358.997	1.25
359.784	3.25
360.571	2.25
361.359	3.25
362.146	3.25
362.933	3.25
363.72	3.25
364.507	2.25
365.294	3.25
366.081	5.25
366.867	1.25
367.654	1.25
368.44	2.25
369.227	0.25
370.013	2.25
370.8	0.25
371.586	2.25
372.372	2.25
373.158	2.25
373.944	4.25
374.73	2.25
375.516	4.25
376.302	3.25
377.088	2.25
377.873	3.25
378.659	2.25
379.445	2.25
380.23	6.25
381.015	1.25
381.801	2.25
382.586	2.25
383.371	3.25
384.156	4.25
384.941	3.25
385.726	5.25
386.511	3.25
387.296	5.25
388.08	3.25
388.865	5.25
389.649	0.25
390.434	4.25
391.218	0.25
392.003	4.25
392.787	2.25
393.571	0.25
394.355	4.25
395.139	1.25
395.923	2.25
396.707	1.25
397.491	3.25
398.274	3.25
399.058	3.25
399.842	1.25
400.625	4.25
401.408	4.25
402.192	1.25
402.975	4.25
403.758	4.25
404.541	3.25
405.324	3.25
406.107	4.25
406.89	6.25
407.673	4.25
408.456	3.25
409.238	6.25
410.021	3.25
410.803	4.25
411.586	5.25
412.368	5.25
413.151	4.25
413.933	6.25
414.715	3.25
415.497	5.25
416.279	4.25
417.061	5.25
417.843	4.25
418.624	6.25
419.406	5.25
420.188	6.25
420.969	3.25
421.751	4.25
422.532	5.25
423.313	7.25
424.095	4.25
424.876	4.25
425.657	7.25
426.438	6.25
427.219	5.25
428	6.25
428.78	6.25
429.561	8.25
430.342	6.25
431.122	9.25
431.903	7.25
432.683	8.25
433.464	9.25
434.244	8.25
435.024	9.25
435.804	8.25
436.584	7.25
437.364	9.25
438.144	10.25
438.924	10.25
439.704	11.25
440.483	10.25
441.263	11.25
442.042	13.25
442.822	13.25
443.601	17.25
444.38	15.25
445.16	17.25
445.939	18.25
446.718	17.25
447.497	18.25
448.276	21.25
449.054	23.25
449.833	25.25
450.612	23.25
451.391	26.25
452.169	30.25
452.948	31.25
453.726	34.25
454.504	38.25
455.282	36.25
456.061	41.25
456.839	49.25
457.617	52.25
458.395	56.25
459.172	65.25
459.95	70.25
460.728	79.25
461.506	90.25
462.283	99.25
463.061	110.25
463.838	126.25
464.615	130.25
465.393	157.25
466.17	169.25
466.947	192.25
467.724	209.25
468.501	239.25
469.278	270.25
470.055	297.25
470.831	323.25
471.608	362.25
472.385	405.25
473.161	452.25
473.938	497.25
474.714	558.25
475.49	610.25
476.266	686.25
477.043	755.25
477.819	847.25
478.595	934.25
479.371	1033.25
480.146	1145.25
480.922	1269.25
481.698	1401.25
482.473	1550.25
483.249	1713.25
484.024	1904.25
484.8	2081.25
485.575	2316.25
486.35	2542.25
487.126	2800.25
487.901	3100.25
488.676	3405.25
489.451	3779.25
490.225	4165.25
491	4583.25
491.775	5039.25
492.55	5506.25
493.324	6037.25
494.099	6640.25
494.873	7229.25
495.647	7932.25
496.422	8566.25
497.196	9336.25
497.97	10060.25
498.744	10822.25
499.518	11580.25
500.292	12305.25
501.066	13056.25
501.839	13794.25
502.613	14525.25
503.387	15138.25
504.16	15631.25
504.934	16088.25
505.707	16416.25
506.48	16719.25
507.253	16821.25
508.027	16889.25
508.8	16750.25
509.573	16559.25
510.346	16284.25
511.118	15950.25
511.891	15470.25
512.664	14971.25
513.437	14434.25
514.209	13882.25
514.982	13301.25
515.754	12773.25
516.526	12202.25
517.298	11619.25
518.071	11105.25
518.843	10606.25
519.615	10170.25
520.387	9756.25
521.159	9370.25
521.93	8984.25
522.702	8603.25
523.474	8287.25
524.245	7939.25
525.017	7633.25
525.788	7318.25
526.56	7047.25
527.331	6745.25
528.102	6423.25
528.873	6170.25
529.644	5864.25
530.415	5593.25
531.186	5340.25
531.957	5049.25
532.728	4790.25
533.498	4555.25
534.269	4277.25
535.039	4045.25
535.81	3805.25
536.58	3612.25
537.351	3402.25
538.121	3223.25
538.891	3035.25
539.661	2858.25
540.431	2715.25
541.201	2574.25
541.971	2448.25
542.741	2297.25
543.51	2187.25
544.28	2074.25
545.05	1973.25
545.819	1885.25
546.588	1787.25
547.358	1697.25
548.127	1619.25
548.896	1537.25
549.665	1452.25
550.434	1385.25
551.203	1307.25
551.972	1235.25
552.741	1166.25
553.51	1102.25
554.278	1052.25
555.047	981.25
555.815	932.25
556.584	881.25
557.352	824.25
558.121	781.25
558.889	738.25
559.657	692.25
560.425	657.25
561.193	618.25
561.961	581.25
562.729	553.25
563.496	510.25
564.264	490.25
565.032	453.25
565.799	437.25
566.567	407.25
567.334	387.25
568.101	368.25
568.869	344.25
569.636	322.25
570.403	311.25
571.17	291.25
571.937	269.25
572.704	257.25
573.471	244.25
574.237	231.25
575.004	215.25
575.771	204.25
576.537	194.25
577.303	177.25
578.07	169.25
578.836	165.25
579.602	149.25
580.368	142.25
581.134	134.25
581.9	128.25
582.666	120.25
583.432	118.25
584.198	110.25
584.964	103.25
585.729	95.25
586.495	88.25
587.26	88.25
588.025	82.25
588.791	80.25
589.556	74.25
590.321	66.25
591.086	66.25
591.851	61.25
592.616	57.25
593.381	57.25
594.146	57.25
594.911	48.25
595.675	48.25
596.44	47.25
597.204	39.25
597.969	42.25
598.733	42.25
599.497	37.25
600.261	35.25
601.025	32.25
601.79	34.25
602.553	31.25
603.317	31.25
604.081	29.25
604.845	27.25
605.609	30.25
606.372	24.25
607.136	24.25
607.899	24.25
608.662	22.25
609.426	22.25
610.189	18.25
610.952	21.25
611.715	19.25
612.478	22.25
613.241	14.25
614.004	17.25
614.767	15.25
615.529	12.25
616.292	14.25
617.055	12.25
617.817	14.25
618.579	12.25
619.342	12.25
620.104	12.25
620.866	10.25
621.628	10.25
622.39	12.25
623.152	10.25
623.914	9.25
624.676	9.25
625.438	9.25
626.199	9.25
626.961	8.25
627.722	5.25
628.484	7.25
629.245	8.25
630.006	8.25
630.768	7.25
631.529	8.25
632.29	7.25
633.051	7.25
633.812	9.25
634.573	8.25
635.333	7.25
636.094	5.25
636.855	5.25
637.615	6.25
638.376	4.25
639.136	6.25
639.896	4.25
640.657	5.25
641.417	7.25
642.177	4.25
642.937	5.25
643.697	5.25
644.457	7.25
645.216	4.25
645.976	6.25
646.736	4.25
647.495	2.25
648.255	5.25
649.014	2.25
649.774	5.25
650.533	6.25
651.292	4.25
652.051	5.25
652.81	0.25
653.569	2.25
654.328	3.25
655.087	4.25
655.846	5.25
656.604	2.25
657.363	5.25
658.121	0.25
658.88	5.25
659.638	0.25
660.397	5.25
661.155	5.25
661.913	3.25
662.671	3.25
663.429	3.25
664.187	4.25
664.945	0.25
665.703	3.25
666.46	1.25
667.218	6.25
667.976	1.25
668.733	1.25
669.49	2.25
670.248	2.25
671.005	4.25
671.762	1.25
672.519	5.25
673.276	4.25
674.033	2.25
674.79	2.25
675.547	1.25
676.304	1.25
677.06	3.25
677.817	2.25
678.574	1.25
679.33	0.25
680.086	2.25
680.843	4.25
681.599	3.25
682.355	0.25
683.111	3.25
683.867	3.25
684.623	1.25
685.379	3.25
686.135	3.25
686.89	2.25
687.646	4.25
688.402	1.25
689.157	0.25
689.912	2.25
690.668	2.25
691.423	2.25
692.178	2.25
692.933	3.25
693.688	1.25
694.443	1.25
695.198	2.25
695.953	1.25
696.708	4.25
697.462	0.25
698.217	2.25
698.972	2.25
699.726	3.25
700.48	3.25
701.235	3.25
701.989	0.25
702.743	2.25
703.497	1.25
704.251	0.25
705.005	0.25
705.759	0.25
706.513	3.25
707.266	3.25
708.02	2.25
708.774	2.25
709.527	3.25
710.28	0.25
711.034	1.25
711.787	1.25
712.54	1.25
713.293	4.25
714.046	1.25
714.799	2.25
715.552	4.25
716.305	2.25
717.058	-0.75
717.81	3.25
718.563	1.25
719.315	3.25
720.068	-0.75
720.82	3.25
721.573	2.25
722.325	2.25
723.077	2.25
723.829	2.25
724.581	0.25
725.333	1.25
726.085	3.25
726.836	1.25
727.588	3.25
728.34	1.25
729.091	1.25
729.843	3.25
730.594	0.25
731.346	2.25
732.097	2.25
732.848	3.25
733.599	2.25
734.35	3.25
735.101	2.25
735.852	0.25
736.603	3.25
737.354	0.25
738.104	4.25
738.855	2.25
739.605	3.25
740.356	2.25
741.106	2.25
741.856	4.25
742.607	2.25
743.357	2.25
744.107	2.25
744.857	0.25
745.607	1.25
746.357	1.25
747.106	2.25
747.856	2.25
748.606	3.25
749.355	3.25
750.105	3.25
750.854	4.25
751.603	2.25
752.353	2.25
753.102	1.25
753.851	1.25
754.6	4.25
755.349	1.25
756.098	3.25
756.847	2.25
757.595	3.25
758.344	2.25
759.093	1.25
759.841	5.25
760.589	3.25
761.338	1.25
762.086	1.25
762.834	1.25
763.582	5.25
764.331	4.25
765.079	4.25
765.826	0.25
766.574	4.25
767.322	3.25
768.07	3.25
768.817	4.25
769.565	6.25
770.312	6.25
771.06	5.25
771.807	3.25
772.554	5.25
773.302	7.25
774.049	4.25
774.796	1.25
775.543	5.25
776.29	3.25
777.036	4.25
777.783	6.25
778.53	4.25
779.276	7.25
780.023	3.25
780.769	5.25
781.516	2.25
782.262	5.25
783.008	3.25
783.754	4.25
784.5	7.25
785.246	4.25
785.992	4.25
786.738	5.25
787.484	4.25
788.23	5.25
788.975	9.25
789.721	6.25
790.466	5.25
791.212	6.25
791.957	5.25
792.702	5.25
793.447	5.25
794.193	5.25
794.938	5.25
795.683	4.25
796.427	5.25
797.172	5.25
797.917	5.25
798.662	5.25
799.406	4.25
800.151	5.25
800.895	6.25
801.64	4.25
802.384	3.25
803.128	4.25
803.872	6.25
804.616	5.25
805.36	7.25
806.104	3.25
806.848	6.25
807.592	4.25
808.336	5.25
809.079	3.25
809.823	0.25
810.566	5.25
811.31	2.25
812.053	3.25
812.796	3.25
813.539	5.25
814.283	2.25
815.026	2.25
815.769	3.25
816.511	4.25
817.254	3.25
817.997	4.25
818.74	1.25
819.482	4.25
820.225	2.25
820.967	5.25
821.71	2.25
822.452	3.25
823.194	1.25
823.936	1.25
824.678	3.25
825.42	3.25
826.162	2.25
826.904	4.25
827.646	1.25
828.388	2.25
829.129	2.25
829.871	2.25
830.612	0.25
831.354	4.25
832.095	1.25
832.836	1.25
833.577	2.25
834.319	2.25
835.06	1.25
835.801	0.25
836.542	3.25
837.282	3.25
838.023	1.25
838.764	3.25
839.504	2.25
840.245	3.25
840.985	0.25
841.726	2.25
842.466	2.25
843.206	1.25
843.946	3.25
844.687	2.25
845.427	1.25
846.166	3.25
846.906	3.25
847.646	2.25
848.386	-0.75
849.125	3.25
849.865	1.25
850.605	2.25
851.344	1.25
852.083	3.25
852.823	0.25
853.562	1.25
854.301	2.25
855.04	2.25
855.779	2.25
856.518	1.25
857.257	0.25
857.995	3.25
858.734	1.25
859.473	3.25
860.211	3.25
860.95	0.25
861.688	4.25
862.426	1.25
863.165	1.25
863.903	1.25
864.641	-0.75
865.379	1.25
866.117	3.25
866.855	-0.75
867.593	1.25
868.33	1.25
869.068	2.25
869.806	2.25
870.543	0.25
871.28	3.25
872.018	1.25
872.755	2.25
873.492	1.25
874.229	-0.75
874.967	0.25
875.703	0.25
876.44	2.25
877.177	0.25
877.914	1.25
878.651	1.25
879.387	1.25
880.124	2.25
880.86	1.25
881.597	0.25
882.333	2.25
883.069	1.25
883.806	0.25
884.542	0.25
885.278	1.25
886.014	1.25
886.749	-0.75
887.485	0.25
888.221	3.25
888.957	0.25
889.692	-2.75
890.428	1.25
891.163	1.25
891.899	-0.75
892.634	0.25
893.369	-0.75
894.104	0.25
894.839	1.25
895.574	4.25
896.309	3.25
897.044	1.25
897.779	1.25
898.514	0.25
899.248	2.25
899.983	-1.75
900.717	0.25
901.452	0.25
902.186	0.25
902.92	0.25
903.654	-2.75
904.389	0.25
905.123	0.25
905.857	0.25
906.59	1.25
907.324	-0.75
908.058	2.25
908.792	0.25
909.525	0.25
910.259	0.25
910.992	3.25
911.726	0.25
912.459	1.25
913.192	1.25
913.925	-1.75
914.658	1.25
915.391	0.25
916.124	0.25
916.857	-1.75
917.59	0.25
918.323	0.25
919.055	-0.75
919.788	1.25
920.521	1.25
921.253	0.25
921.985	-1.75
922.718	1.25
923.45	-0.75
924.182	0.25
924.914	0.25
925.646	0.25
926.378	-0.75
927.11	0.25
927.841	-0.75
928.573	2.25
929.305	-1.75
930.036	0.25
930.768	-0.75
931.499	0.25
932.23	0.25
932.962	1.25
933.693	-1.75
934.424	-1.75
935.155	0.25
935.886	-0.75
936.617	-1.75
937.348	0.25
938.078	1.25
938.809	2.25
939.54	-1.75
940.27	0.25
941.001	-0.75
941.731	3.25
942.461	-0.75
943.191	-2.75
943.922	0.25
944.652	-0.75
945.382	-0.75
946.112	0.25
946.841	1.25
947.571	-0.75
948.301	-0.75
949.031	0.25
949.76	1.25
950.49	2.25
951.219	-2.75
951.948	1.25
952.678	-0.75
953.407	1.25
954.136	0.25
954.865	0.25
955.594	1.25
956.323	0.25
957.052	0.25
957.78	1.25
958.509	-0.75
959.238	-0.75
959.966	0.25
960.695	1.25
961.423	-2.75
962.151	-0.75
962.88	-1.75
963.608	0.25
964.336	1.25
965.064	-1.75
965.792	0.25
966.52	-0.75
967.247	0.25
967.975	0.25
968.703	2.25
969.43	0.25
970.158	-1.75
970.885	-1.75
971.613	-0.75
972.34	1.25
973.067	1.25
973.794	-1.75
974.521	1.25
975.248	0.25
975.975	-1.75
976.702	-1.75
977.429	2.25
978.156	0.25
978.882	0.25
979.609	1.25
980.335	-1.75
981.062	0.25
981.788	2.25
982.514	-1.75
983.24	-0.75
983.967	0.25
984.693	-0.75
985.419	-0.75
986.144	-1.75
986.87	-1.75
987.596	-1.75
988.322	1.25
989.047	-0.75
989.773	1.25
990.498	0.25
991.224	0.25
991.949	0.25
992.674	-0.75
993.399	2.25
994.124	-1.75
994.849	0.25
995.574	-1.75
996.299	1.25
997.024	1.25
997.749	-0.75
998.473	0.25
999.198	0.25
999.922	2.25
1000.647	1.25
1001.371	4.25
1002.095	-1.75
1002.82	-1.75
1003.544	-0.75
1004.268	-0.75
1004.992	-1.75
1005.716	0.25
1006.439	-1.75
1007.163	0.25
1007.887	-0.75
1008.611	-1.75
1009.334	2.25
1010.058	1.25
1010.781	0.25
1011.504	-0.75
1012.228	0.25
1012.951	0.25
1013.674	1.25
1014.397	-1.75
1015.12	0.25
