节点500_145_QEPB04081__110__11-30-43-574.txt的数据

Date: Wed Nov 12 11:30:43 CST 2025
User: PC
Spectrometer: QEPB0408
触发模式: 0
积分时间 (秒): 1.000000E-2
Scans to average: 1
启用暗噪声校正: true
启用非线性校正: false
滑动平均宽度: 0
X轴模式: Wavelengths
Number of Pixels in Spectrum: 1044
>>>>>Begin Spectral Data<<<<<
220.843	1.38
221.644	-2.62
222.444	0.38
223.244	-0.62
224.045	-1.62
224.845	-0.62
225.645	1.38
226.445	-0.62
227.245	2.38
228.045	-0.62
228.845	1.38
229.645	1.38
230.444	-1.62
231.244	1.38
232.043	2.38
232.843	1.38
233.642	0.38
234.442	1.38
235.241	-0.62
236.04	0.38
236.839	-1.62
237.638	-0.62
238.437	2.38
239.236	1.38
240.035	1.38
240.833	0.38
241.632	2.38
242.43	2.38
243.229	1.38
244.027	3.38
244.826	2.38
245.624	1.38
246.422	2.38
247.22	3.38
248.018	0.38
248.816	1.38
249.614	2.38
250.412	2.38
251.21	3.38
252.007	2.38
252.805	4.38
253.602	3.38
254.4	2.38
255.197	1.38
255.994	4.38
256.791	4.38
257.589	4.38
258.386	2.38
259.183	5.38
259.979	6.38
260.776	5.38
261.573	6.38
262.37	4.38
263.166	5.38
263.963	6.38
264.759	6.38
265.556	7.38
266.352	5.38
267.148	6.38
267.944	7.38
268.74	9.38
269.536	6.38
270.332	10.38
271.128	9.38
271.924	10.38
272.719	10.38
273.515	8.38
274.311	9.38
275.106	10.38
275.901	8.38
276.697	10.38
277.492	10.38
278.287	9.38
279.082	10.38
279.877	10.38
280.672	9.38
281.467	10.38
282.262	11.38
283.056	9.38
283.851	12.38
284.646	12.38
285.44	12.38
286.234	11.38
287.029	10.38
287.823	13.38
288.617	10.38
289.411	9.38
290.205	11.38
290.999	11.38
291.793	9.38
292.587	12.38
293.381	13.38
294.174	11.38
294.968	9.38
295.761	10.38
296.555	11.38
297.348	9.38
298.141	10.38
298.935	9.38
299.728	8.38
300.521	12.38
301.314	8.38
302.107	10.38
302.899	8.38
303.692	10.38
304.485	9.38
305.277	8.38
306.07	9.38
306.862	7.38
307.655	9.38
308.447	7.38
309.239	7.38
310.031	7.38
310.823	5.38
311.615	6.38
312.407	8.38
313.199	7.38
313.991	5.38
314.783	6.38
315.574	5.38
316.366	5.38
317.157	7.38
317.949	2.38
318.74	6.38
319.531	5.38
320.322	5.38
321.113	4.38
321.904	5.38
322.695	4.38
323.486	4.38
324.277	7.38
325.068	5.38
325.858	5.38
326.649	5.38
327.439	4.38
328.23	6.38
329.02	3.38
329.81	5.38
330.6	4.38
331.391	1.38
332.181	5.38
332.971	4.38
333.76	3.38
334.55	2.38
335.34	2.38
336.13	5.38
336.919	2.38
337.709	6.38
338.498	4.38
339.287	5.38
340.077	4.38
340.866	3.38
341.655	3.38
342.444	4.38
343.233	3.38
344.022	4.38
344.811	3.38
345.6	2.38
346.388	4.38
347.177	4.38
347.965	3.38
348.754	3.38
349.542	0.38
350.33	4.38
351.119	4.38
351.907	2.38
352.695	4.38
353.483	4.38
354.271	2.38
355.059	-0.62
355.846	4.38
356.634	1.38
357.422	3.38
358.209	3.38
358.997	3.38
359.784	3.38
360.571	2.38
361.359	7.38
362.146	3.38
362.933	2.38
363.72	4.38
364.507	3.38
365.294	4.38
366.081	1.38
366.867	3.38
367.654	3.38
368.44	1.38
369.227	3.38
370.013	2.38
370.8	3.38
371.586	1.38
372.372	3.38
373.158	3.38
373.944	2.38
374.73	1.38
375.516	0.38
376.302	4.38
377.088	3.38
377.873	3.38
378.659	2.38
379.445	1.38
380.23	1.38
381.015	2.38
381.801	5.38
382.586	4.38
383.371	2.38
384.156	2.38
384.941	1.38
385.726	3.38
386.511	1.38
387.296	5.38
388.08	4.38
388.865	2.38
389.649	5.38
390.434	2.38
391.218	5.38
392.003	3.38
392.787	2.38
393.571	1.38
394.355	2.38
395.139	4.38
395.923	4.38
396.707	4.38
397.491	3.38
398.274	5.38
399.058	3.38
399.842	1.38
400.625	5.38
401.408	5.38
402.192	3.38
402.975	4.38
403.758	4.38
404.541	2.38
405.324	3.38
406.107	6.38
406.89	4.38
407.673	5.38
408.456	4.38
409.238	4.38
410.021	6.38
410.803	4.38
411.586	5.38
412.368	5.38
413.151	4.38
413.933	2.38
414.715	7.38
415.497	7.38
416.279	5.38
417.061	4.38
417.843	7.38
418.624	6.38
419.406	6.38
420.188	4.38
420.969	5.38
421.751	5.38
422.532	3.38
423.313	4.38
424.095	7.38
424.876	5.38
425.657	7.38
426.438	7.38
427.219	8.38
428	9.38
428.78	7.38
429.561	4.38
430.342	7.38
431.122	7.38
431.903	9.38
432.683	9.38
433.464	9.38
434.244	9.38
435.024	9.38
435.804	9.38
436.584	7.38
437.364	10.38
438.144	10.38
438.924	10.38
439.704	11.38
440.483	11.38
441.263	11.38
442.042	12.38
442.822	13.38
443.601	13.38
444.38	15.38
445.16	16.38
445.939	18.38
446.718	18.38
447.497	16.38
448.276	20.38
449.054	20.38
449.833	23.38
450.612	28.38
451.391	26.38
452.169	29.38
452.948	28.38
453.726	33.38
454.504	36.38
455.282	39.38
456.061	42.38
456.839	45.38
457.617	53.38
458.395	56.38
459.172	59.38
459.95	70.38
460.728	77.38
461.506	87.38
462.283	94.38
463.061	105.38
463.838	115.38
464.615	128.38
465.393	145.38
466.17	164.38
466.947	177.38
467.724	205.38
468.501	225.38
469.278	250.38
470.055	286.38
470.831	317.38
471.608	349.38
472.385	388.38
473.161	427.38
473.938	489.38
474.714	533.38
475.49	605.38
476.266	680.38
477.043	759.38
477.819	821.38
478.595	918.38
479.371	1028.38
480.146	1143.38
480.922	1264.38
481.698	1391.38
482.473	1547.38
483.249	1706.38
484.024	1921.38
484.8	2108.38
485.575	2329.38
486.35	2582.38
487.126	2870.38
487.901	3175.38
488.676	3522.38
489.451	3894.38
490.225	4312.38
491	4722.38
491.775	5213.38
492.55	5735.38
493.324	6332.38
494.099	6903.38
494.873	7582.38
495.647	8304.38
496.422	9000.38
497.196	9750.38
497.97	10572.38
498.744	11367.38
499.518	12218.38
500.292	12952.38
501.066	13737.38
501.839	14466.38
502.613	15172.38
503.387	15807.38
504.16	16307.38
504.934	16660.38
505.707	17037.38
506.48	17188.38
507.253	17342.38
508.027	17327.38
508.8	17157.38
509.573	16881.38
510.346	16550.38
511.118	16084.38
511.891	15569.38
512.664	15049.38
513.437	14507.38
514.209	13900.38
514.982	13307.38
515.754	12706.38
516.526	12093.38
517.298	11554.38
518.071	11023.38
518.843	10500.38
519.615	10079.38
520.387	9708.38
521.159	9257.38
521.93	8937.38
522.702	8611.38
523.474	8254.38
524.245	7901.38
525.017	7610.38
525.788	7289.38
526.56	7027.38
527.331	6656.38
528.102	6377.38
528.873	6094.38
529.644	5821.38
530.415	5551.38
531.186	5261.38
531.957	4987.38
532.728	4730.38
533.498	4451.38
534.269	4194.38
535.039	3988.38
535.81	3758.38
536.58	3557.38
537.351	3331.38
538.121	3132.38
538.891	2974.38
539.661	2804.38
540.431	2652.38
541.201	2493.38
541.971	2372.38
542.741	2269.38
543.51	2157.38
544.28	2018.38
545.05	1948.38
545.819	1829.38
546.588	1739.38
547.358	1675.38
548.127	1592.38
548.896	1507.38
549.665	1421.38
550.434	1365.38
551.203	1268.38
551.972	1210.38
552.741	1143.38
553.51	1082.38
554.278	1031.38
555.047	954.38
555.815	905.38
556.584	861.38
557.352	814.38
558.121	760.38
558.889	716.38
559.657	672.38
560.425	634.38
561.193	600.38
561.961	567.38
562.729	535.38
563.496	500.38
564.264	476.38
565.032	454.38
565.799	421.38
566.567	394.38
567.334	371.38
568.101	356.38
568.869	336.38
569.636	321.38
570.403	292.38
571.17	291.38
571.937	266.38
572.704	260.38
573.471	236.38
574.237	225.38
575.004	211.38
575.771	201.38
576.537	188.38
577.303	181.38
578.07	166.38
578.836	162.38
579.602	141.38
580.368	139.38
581.134	126.38
581.9	126.38
582.666	117.38
583.432	111.38
584.198	100.38
584.964	99.38
585.729	92.38
586.495	88.38
587.26	78.38
588.025	78.38
588.791	74.38
589.556	73.38
590.321	68.38
591.086	61.38
591.851	63.38
592.616	58.38
593.381	55.38
594.146	52.38
594.911	49.38
595.675	46.38
596.44	45.38
597.204	42.38
597.969	40.38
598.733	38.38
599.497	37.38
600.261	33.38
601.025	33.38
601.79	29.38
602.553	32.38
603.317	29.38
604.081	27.38
604.845	28.38
605.609	26.38
606.372	23.38
607.136	23.38
607.899	25.38
608.662	19.38
609.426	21.38
610.189	21.38
610.952	17.38
611.715	19.38
612.478	18.38
613.241	19.38
614.004	18.38
614.767	14.38
615.529	17.38
616.292	14.38
617.055	13.38
617.817	14.38
618.579	14.38
619.342	14.38
620.104	14.38
620.866	12.38
621.628	10.38
622.39	11.38
623.152	8.38
623.914	9.38
624.676	10.38
625.438	13.38
626.199	11.38
626.961	8.38
627.722	7.38
628.484	8.38
629.245	9.38
630.006	9.38
630.768	6.38
631.529	5.38
632.29	6.38
633.051	7.38
633.812	9.38
634.573	7.38
635.333	9.38
636.094	5.38
636.855	5.38
637.615	8.38
638.376	6.38
639.136	7.38
639.896	5.38
640.657	8.38
641.417	4.38
642.177	5.38
642.937	7.38
643.697	4.38
644.457	5.38
645.216	6.38
645.976	5.38
646.736	4.38
647.495	6.38
648.255	4.38
649.014	5.38
649.774	6.38
650.533	2.38
651.292	4.38
652.051	3.38
652.81	4.38
653.569	2.38
654.328	2.38
655.087	3.38
655.846	2.38
656.604	4.38
657.363	2.38
658.121	4.38
658.88	4.38
659.638	2.38
660.397	4.38
661.155	1.38
661.913	2.38
662.671	4.38
663.429	3.38
664.187	2.38
664.945	4.38
665.703	2.38
666.46	3.38
667.218	1.38
667.976	0.38
668.733	3.38
669.49	5.38
670.248	1.38
671.005	0.38
671.762	3.38
672.519	3.38
673.276	4.38
674.033	1.38
674.79	4.38
675.547	3.38
676.304	4.38
677.06	1.38
677.817	4.38
678.574	3.38
679.33	1.38
680.086	1.38
680.843	1.38
681.599	2.38
682.355	3.38
683.111	3.38
683.867	1.38
684.623	1.38
685.379	2.38
686.135	2.38
686.89	3.38
687.646	1.38
688.402	2.38
689.157	2.38
689.912	3.38
690.668	1.38
691.423	2.38
692.178	2.38
692.933	2.38
693.688	2.38
694.443	3.38
695.198	1.38
695.953	3.38
696.708	3.38
697.462	2.38
698.217	1.38
698.972	2.38
699.726	1.38
700.48	1.38
701.235	1.38
701.989	2.38
702.743	2.38
703.497	1.38
704.251	3.38
705.005	2.38
705.759	2.38
706.513	1.38
707.266	2.38
708.02	3.38
708.774	2.38
709.527	1.38
710.28	2.38
711.034	4.38
711.787	1.38
712.54	2.38
713.293	1.38
714.046	1.38
714.799	4.38
715.552	4.38
716.305	1.38
717.058	1.38
717.81	2.38
718.563	2.38
719.315	2.38
720.068	1.38
720.82	6.38
721.573	3.38
722.325	3.38
723.077	3.38
723.829	4.38
724.581	1.38
725.333	2.38
726.085	4.38
726.836	-0.62
727.588	4.38
728.34	1.38
729.091	4.38
729.843	1.38
730.594	1.38
731.346	4.38
732.097	1.38
732.848	3.38
733.599	3.38
734.35	2.38
735.101	2.38
735.852	0.38
736.603	4.38
737.354	4.38
738.104	2.38
738.855	4.38
739.605	0.38
740.356	2.38
741.106	3.38
741.856	1.38
742.607	2.38
743.357	3.38
744.107	2.38
744.857	3.38
745.607	5.38
746.357	4.38
747.106	2.38
747.856	2.38
748.606	4.38
749.355	3.38
750.105	3.38
750.854	3.38
751.603	1.38
752.353	3.38
753.102	1.38
753.851	2.38
754.6	1.38
755.349	4.38
756.098	3.38
756.847	2.38
757.595	2.38
758.344	4.38
759.093	3.38
759.841	3.38
760.589	4.38
761.338	3.38
762.086	4.38
762.834	3.38
763.582	3.38
764.331	2.38
765.079	6.38
765.826	5.38
766.574	5.38
767.322	3.38
768.07	4.38
768.817	3.38
769.565	6.38
770.312	6.38
771.06	4.38
771.807	1.38
772.554	4.38
773.302	4.38
774.049	4.38
774.796	7.38
775.543	2.38
776.29	5.38
777.036	5.38
777.783	4.38
778.53	3.38
779.276	5.38
780.023	7.38
780.769	5.38
781.516	2.38
782.262	6.38
783.008	6.38
783.754	7.38
784.5	6.38
785.246	7.38
785.992	7.38
786.738	5.38
787.484	5.38
788.23	7.38
788.975	6.38
789.721	5.38
790.466	5.38
791.212	7.38
791.957	3.38
792.702	6.38
793.447	3.38
794.193	5.38
794.938	6.38
795.683	5.38
796.427	5.38
797.172	4.38
797.917	7.38
798.662	5.38
799.406	6.38
800.151	4.38
800.895	3.38
801.64	5.38
802.384	3.38
803.128	4.38
803.872	5.38
804.616	6.38
805.36	6.38
806.104	2.38
806.848	6.38
807.592	4.38
808.336	5.38
809.079	6.38
809.823	3.38
810.566	5.38
811.31	3.38
812.053	4.38
812.796	5.38
813.539	4.38
814.283	2.38
815.026	1.38
815.769	3.38
816.511	3.38
817.254	3.38
817.997	1.38
818.74	1.38
819.482	3.38
820.225	3.38
820.967	2.38
821.71	3.38
822.452	2.38
823.194	5.38
823.936	5.38
824.678	2.38
825.42	0.38
826.162	1.38
826.904	4.38
827.646	3.38
828.388	3.38
829.129	2.38
829.871	6.38
830.612	2.38
831.354	1.38
832.095	2.38
832.836	4.38
833.577	-0.62
834.319	2.38
835.06	0.38
835.801	0.38
836.542	3.38
837.282	3.38
838.023	2.38
838.764	5.38
839.504	3.38
840.245	1.38
840.985	1.38
841.726	1.38
842.466	-0.62
843.206	2.38
843.946	1.38
844.687	1.38
845.427	1.38
846.166	1.38
846.906	4.38
847.646	1.38
848.386	0.38
849.125	1.38
849.865	1.38
850.605	2.38
851.344	2.38
852.083	5.38
852.823	1.38
853.562	3.38
854.301	2.38
855.04	1.38
855.779	2.38
856.518	0.38
857.257	2.38
857.995	0.38
858.734	1.38
859.473	1.38
860.211	0.38
860.95	2.38
861.688	1.38
862.426	1.38
863.165	0.38
863.903	2.38
864.641	2.38
865.379	-0.62
866.117	0.38
866.855	3.38
867.593	1.38
868.33	-0.62
869.068	2.38
869.806	0.38
870.543	2.38
871.28	-0.62
872.018	-0.62
872.755	1.38
873.492	2.38
874.229	1.38
874.967	1.38
875.703	1.38
876.44	2.38
877.177	-0.62
877.914	1.38
878.651	2.38
879.387	0.38
880.124	0.38
880.86	1.38
881.597	2.38
882.333	1.38
883.069	-0.62
883.806	2.38
884.542	1.38
885.278	2.38
886.014	2.38
886.749	1.38
887.485	-1.62
888.221	1.38
888.957	-0.62
889.692	-1.62
890.428	2.38
891.163	0.38
891.899	2.38
892.634	1.38
893.369	0.38
894.104	1.38
894.839	-0.62
895.574	2.38
896.309	-0.62
897.044	1.38
897.779	-0.62
898.514	-0.62
899.248	2.38
899.983	0.38
900.717	-1.62
901.452	-1.62
902.186	0.38
902.92	1.38
903.654	0.38
904.389	-0.62
905.123	1.38
905.857	-1.62
906.59	-0.62
907.324	4.38
908.058	-0.62
908.792	2.38
909.525	1.38
910.259	2.38
910.992	2.38
911.726	0.38
912.459	1.38
913.192	0.38
913.925	1.38
914.658	0.38
915.391	-1.62
916.124	0.38
916.857	0.38
917.59	0.38
918.323	1.38
919.055	-0.62
919.788	2.38
920.521	-1.62
921.253	1.38
921.985	1.38
922.718	0.38
923.45	1.38
924.182	-0.62
924.914	-0.62
925.646	-1.62
926.378	0.38
927.11	0.38
927.841	0.38
928.573	-1.62
929.305	-1.62
930.036	2.38
930.768	0.38
931.499	0.38
932.23	2.38
932.962	0.38
933.693	1.38
934.424	-1.62
935.155	-0.62
935.886	1.38
936.617	0.38
937.348	0.38
938.078	0.38
938.809	0.38
939.54	-0.62
940.27	0.38
941.001	1.38
941.731	-0.62
942.461	2.38
943.191	1.38
943.922	1.38
944.652	-1.62
945.382	-1.62
946.112	0.38
946.841	0.38
947.571	2.38
948.301	0.38
949.031	1.38
949.76	-0.62
950.49	1.38
951.219	1.38
951.948	-0.62
952.678	0.38
953.407	-0.62
954.136	1.38
954.865	1.38
955.594	2.38
956.323	1.38
957.052	1.38
957.78	1.38
958.509	-0.62
959.238	1.38
959.966	1.38
960.695	0.38
961.423	0.38
962.151	1.38
962.88	1.38
963.608	-1.62
964.336	-0.62
965.064	-0.62
965.792	3.38
966.52	-0.62
967.247	0.38
967.975	-0.62
968.703	-0.62
969.43	0.38
970.158	0.38
970.885	0.38
971.613	0.38
972.34	0.38
973.067	0.38
973.794	-0.62
974.521	0.38
975.248	-0.62
975.975	2.38
976.702	0.38
977.429	-0.62
978.156	-0.62
978.882	-1.62
979.609	0.38
980.335	-0.62
981.062	-0.62
981.788	0.38
982.514	0.38
983.24	1.38
983.967	0.38
984.693	1.38
985.419	0.38
986.144	0.38
986.87	1.38
987.596	0.38
988.322	1.38
989.047	0.38
989.773	1.38
990.498	1.38
991.224	1.38
991.949	1.38
992.674	0.38
993.399	0.38
994.124	-0.62
994.849	-0.62
995.574	0.38
996.299	0.38
997.024	1.38
997.749	-0.62
998.473	0.38
999.198	-0.62
999.922	0.38
1000.647	0.38
1001.371	2.38
1002.095	-1.62
1002.82	-1.62
1003.544	-1.62
1004.268	-0.62
1004.992	-1.62
1005.716	0.38
1006.439	1.38
1007.163	0.38
1007.887	1.38
1008.611	1.38
1009.334	1.38
1010.058	1.38
1010.781	0.38
1011.504	-1.62
1012.228	-0.62
1012.951	1.38
1013.674	0.38
1014.397	1.38
1015.12	-0.62
