节点500_145_QEPB04081__109__11-30-42-582.txt的数据

Date: Wed Nov 12 11:30:42 CST 2025
User: PC
Spectrometer: QEPB0408
触发模式: 0
积分时间 (秒): 1.000000E-2
Scans to average: 1
启用暗噪声校正: true
启用非线性校正: false
滑动平均宽度: 0
X轴模式: Wavelengths
Number of Pixels in Spectrum: 1044
>>>>>Begin Spectral Data<<<<<
220.843	1.38
221.644	1.38
222.444	0.38
223.244	-2.62
224.045	2.38
224.845	0.38
225.645	-0.62
226.445	1.38
227.245	0.38
228.045	1.38
228.845	0.38
229.645	1.38
230.444	1.38
231.244	2.38
232.043	2.38
232.843	2.38
233.642	2.38
234.442	2.38
235.241	1.38
236.04	0.38
236.839	-0.62
237.638	0.38
238.437	2.38
239.236	2.38
240.035	0.38
240.833	2.38
241.632	1.38
242.43	1.38
243.229	1.38
244.027	2.38
244.826	4.38
245.624	1.38
246.422	2.38
247.22	3.38
248.018	1.38
248.816	3.38
249.614	0.38
250.412	4.38
251.21	1.38
252.007	2.38
252.805	4.38
253.602	3.38
254.4	5.38
255.197	4.38
255.994	3.38
256.791	3.38
257.589	4.38
258.386	3.38
259.183	5.38
259.979	5.38
260.776	5.38
261.573	4.38
262.37	5.38
263.166	5.38
263.963	5.38
264.759	4.38
265.556	5.38
266.352	5.38
267.148	8.38
267.944	6.38
268.74	8.38
269.536	6.38
270.332	7.38
271.128	8.38
271.924	8.38
272.719	7.38
273.515	7.38
274.311	11.38
275.106	8.38
275.901	11.38
276.697	10.38
277.492	9.38
278.287	8.38
279.082	8.38
279.877	10.38
280.672	11.38
281.467	13.38
282.262	12.38
283.056	11.38
283.851	14.38
284.646	12.38
285.44	10.38
286.234	10.38
287.029	11.38
287.823	13.38
288.617	11.38
289.411	12.38
290.205	10.38
290.999	14.38
291.793	13.38
292.587	10.38
293.381	12.38
294.174	12.38
294.968	10.38
295.761	10.38
296.555	10.38
297.348	12.38
298.141	7.38
298.935	13.38
299.728	12.38
300.521	8.38
301.314	8.38
302.107	7.38
302.899	9.38
303.692	7.38
304.485	9.38
305.277	10.38
306.07	9.38
306.862	7.38
307.655	9.38
308.447	9.38
309.239	9.38
310.031	5.38
310.823	7.38
311.615	8.38
312.407	5.38
313.199	7.38
313.991	5.38
314.783	8.38
315.574	6.38
316.366	6.38
317.157	8.38
317.949	5.38
318.74	7.38
319.531	9.38
320.322	5.38
321.113	4.38
321.904	5.38
322.695	4.38
323.486	7.38
324.277	3.38
325.068	6.38
325.858	5.38
326.649	4.38
327.439	4.38
328.23	4.38
329.02	7.38
329.81	4.38
330.6	5.38
331.391	4.38
332.181	2.38
332.971	5.38
333.76	5.38
334.55	4.38
335.34	2.38
336.13	5.38
336.919	5.38
337.709	2.38
338.498	2.38
339.287	4.38
340.077	2.38
340.866	4.38
341.655	1.38
342.444	1.38
343.233	4.38
344.022	3.38
344.811	5.38
345.6	3.38
346.388	1.38
347.177	3.38
347.965	3.38
348.754	4.38
349.542	3.38
350.33	4.38
351.119	2.38
351.907	2.38
352.695	4.38
353.483	4.38
354.271	3.38
355.059	3.38
355.846	2.38
356.634	2.38
357.422	2.38
358.209	3.38
358.997	3.38
359.784	1.38
360.571	3.38
361.359	4.38
362.146	2.38
362.933	3.38
363.72	2.38
364.507	4.38
365.294	3.38
366.081	2.38
366.867	4.38
367.654	2.38
368.44	2.38
369.227	2.38
370.013	3.38
370.8	2.38
371.586	1.38
372.372	2.38
373.158	2.38
373.944	4.38
374.73	3.38
375.516	5.38
376.302	4.38
377.088	2.38
377.873	3.38
378.659	4.38
379.445	3.38
380.23	5.38
381.015	3.38
381.801	0.38
382.586	2.38
383.371	1.38
384.156	3.38
384.941	3.38
385.726	2.38
386.511	4.38
387.296	5.38
388.08	3.38
388.865	2.38
389.649	3.38
390.434	1.38
391.218	2.38
392.003	3.38
392.787	3.38
393.571	6.38
394.355	2.38
395.139	5.38
395.923	3.38
396.707	3.38
397.491	4.38
398.274	6.38
399.058	3.38
399.842	2.38
400.625	2.38
401.408	5.38
402.192	2.38
402.975	4.38
403.758	3.38
404.541	2.38
405.324	3.38
406.107	2.38
406.89	4.38
407.673	5.38
408.456	3.38
409.238	4.38
410.021	6.38
410.803	3.38
411.586	5.38
412.368	5.38
413.151	3.38
413.933	5.38
414.715	4.38
415.497	4.38
416.279	5.38
417.061	4.38
417.843	5.38
418.624	6.38
419.406	5.38
420.188	4.38
420.969	7.38
421.751	6.38
422.532	5.38
423.313	7.38
424.095	6.38
424.876	7.38
425.657	7.38
426.438	4.38
427.219	5.38
428	6.38
428.78	6.38
429.561	6.38
430.342	7.38
431.122	7.38
431.903	5.38
432.683	6.38
433.464	5.38
434.244	9.38
435.024	6.38
435.804	11.38
436.584	8.38
437.364	14.38
438.144	11.38
438.924	8.38
439.704	11.38
440.483	10.38
441.263	14.38
442.042	13.38
442.822	13.38
443.601	17.38
444.38	14.38
445.16	18.38
445.939	17.38
446.718	17.38
447.497	18.38
448.276	20.38
449.054	19.38
449.833	22.38
450.612	25.38
451.391	27.38
452.169	28.38
452.948	27.38
453.726	30.38
454.504	33.38
455.282	40.38
456.061	42.38
456.839	45.38
457.617	50.38
458.395	55.38
459.172	65.38
459.95	69.38
460.728	74.38
461.506	85.38
462.283	94.38
463.061	105.38
463.838	113.38
464.615	128.38
465.393	146.38
466.17	159.38
466.947	186.38
467.724	202.38
468.501	222.38
469.278	248.38
470.055	281.38
470.831	317.38
471.608	348.38
472.385	389.38
473.161	439.38
473.938	478.38
474.714	562.38
475.49	607.38
476.266	680.38
477.043	745.38
477.819	822.38
478.595	920.38
479.371	1019.38
480.146	1125.38
480.922	1264.38
481.698	1407.38
482.473	1546.38
483.249	1715.38
484.024	1908.38
484.8	2106.38
485.575	2348.38
486.35	2583.38
487.126	2857.38
487.901	3172.38
488.676	3495.38
489.451	3872.38
490.225	4274.38
491	4752.38
491.775	5202.38
492.55	5758.38
493.324	6321.38
494.099	6911.38
494.873	7613.38
495.647	8297.38
496.422	9000.38
497.196	9770.38
497.97	10564.38
498.744	11353.38
499.518	12210.38
500.292	12969.38
501.066	13700.38
501.839	14467.38
502.613	15156.38
503.387	15763.38
504.16	16292.38
504.934	16724.38
505.707	17015.38
506.48	17283.38
507.253	17296.38
508.027	17309.38
508.8	17153.38
509.573	16895.38
510.346	16542.38
511.118	16067.38
511.891	15569.38
512.664	15022.38
513.437	14478.38
514.209	13889.38
514.982	13309.38
515.754	12706.38
516.526	12097.38
517.298	11506.38
518.071	11000.38
518.843	10527.38
519.615	10068.38
520.387	9681.38
521.159	9297.38
521.93	8920.38
522.702	8540.38
523.474	8220.38
524.245	7937.38
525.017	7608.38
525.788	7277.38
526.56	6973.38
527.331	6672.38
528.102	6382.38
528.873	6092.38
529.644	5818.38
530.415	5548.38
531.186	5235.38
531.957	4974.38
532.728	4707.38
533.498	4475.38
534.269	4208.38
535.039	3973.38
535.81	3715.38
536.58	3526.38
537.351	3333.38
538.121	3149.38
538.891	2984.38
539.661	2798.38
540.431	2658.38
541.201	2495.38
541.971	2359.38
542.741	2268.38
543.51	2126.38
544.28	2015.38
545.05	1914.38
545.819	1828.38
546.588	1772.38
547.358	1646.38
548.127	1599.38
548.896	1500.38
549.665	1419.38
550.434	1360.38
551.203	1275.38
551.972	1205.38
552.741	1166.38
553.51	1091.38
554.278	1017.38
555.047	965.38
555.815	907.38
556.584	862.38
557.352	808.38
558.121	760.38
558.889	715.38
559.657	675.38
560.425	627.38
561.193	605.38
561.961	566.38
562.729	530.38
563.496	502.38
564.264	481.38
565.032	445.38
565.799	432.38
566.567	393.38
567.334	384.38
568.101	357.38
568.869	343.38
569.636	318.38
570.403	303.38
571.17	275.38
571.937	266.38
572.704	254.38
573.471	234.38
574.237	225.38
575.004	214.38
575.771	199.38
576.537	180.38
577.303	173.38
578.07	164.38
578.836	153.38
579.602	143.38
580.368	137.38
581.134	130.38
581.9	124.38
582.666	117.38
583.432	117.38
584.198	103.38
584.964	100.38
585.729	93.38
586.495	90.38
587.26	88.38
588.025	81.38
588.791	76.38
589.556	72.38
590.321	65.38
591.086	67.38
591.851	57.38
592.616	58.38
593.381	53.38
594.146	47.38
594.911	46.38
595.675	46.38
596.44	45.38
597.204	43.38
597.969	42.38
598.733	37.38
599.497	34.38
600.261	36.38
601.025	32.38
601.79	34.38
602.553	29.38
603.317	33.38
604.081	28.38
604.845	25.38
605.609	28.38
606.372	22.38
607.136	26.38
607.899	25.38
608.662	22.38
609.426	21.38
610.189	18.38
610.952	18.38
611.715	18.38
612.478	17.38
613.241	16.38
614.004	17.38
614.767	17.38
615.529	14.38
616.292	13.38
617.055	12.38
617.817	13.38
618.579	14.38
619.342	12.38
620.104	11.38
620.866	15.38
621.628	11.38
622.39	10.38
623.152	9.38
623.914	10.38
624.676	10.38
625.438	10.38
626.199	11.38
626.961	11.38
627.722	10.38
628.484	10.38
629.245	8.38
630.006	9.38
630.768	7.38
631.529	7.38
632.29	5.38
633.051	6.38
633.812	9.38
634.573	8.38
635.333	7.38
636.094	6.38
636.855	7.38
637.615	5.38
638.376	9.38
639.136	4.38
639.896	4.38
640.657	4.38
641.417	4.38
642.177	3.38
642.937	7.38
643.697	5.38
644.457	7.38
645.216	5.38
645.976	5.38
646.736	4.38
647.495	3.38
648.255	3.38
649.014	4.38
649.774	2.38
650.533	5.38
651.292	4.38
652.051	6.38
652.81	3.38
653.569	7.38
654.328	4.38
655.087	2.38
655.846	4.38
656.604	3.38
657.363	4.38
658.121	4.38
658.88	3.38
659.638	4.38
660.397	4.38
661.155	4.38
661.913	2.38
662.671	2.38
663.429	1.38
664.187	3.38
664.945	4.38
665.703	2.38
666.46	3.38
667.218	2.38
667.976	3.38
668.733	2.38
669.49	5.38
670.248	2.38
671.005	1.38
671.762	2.38
672.519	2.38
673.276	5.38
674.033	2.38
674.79	1.38
675.547	3.38
676.304	3.38
677.06	3.38
677.817	2.38
678.574	1.38
679.33	3.38
680.086	3.38
680.843	3.38
681.599	1.38
682.355	4.38
683.111	3.38
683.867	0.38
684.623	1.38
685.379	3.38
686.135	2.38
686.89	1.38
687.646	2.38
688.402	2.38
689.157	1.38
689.912	2.38
690.668	1.38
691.423	2.38
692.178	0.38
692.933	4.38
693.688	2.38
694.443	2.38
695.198	3.38
695.953	1.38
696.708	0.38
697.462	3.38
698.217	2.38
698.972	1.38
699.726	1.38
700.48	0.38
701.235	1.38
701.989	2.38
702.743	2.38
703.497	2.38
704.251	2.38
705.005	2.38
705.759	1.38
706.513	3.38
707.266	2.38
708.02	3.38
708.774	2.38
709.527	1.38
710.28	1.38
711.034	2.38
711.787	1.38
712.54	1.38
713.293	2.38
714.046	3.38
714.799	1.38
715.552	2.38
716.305	3.38
717.058	1.38
717.81	3.38
718.563	2.38
719.315	1.38
720.068	3.38
720.82	2.38
721.573	1.38
722.325	-0.62
723.077	2.38
723.829	0.38
724.581	2.38
725.333	1.38
726.085	0.38
726.836	1.38
727.588	2.38
728.34	3.38
729.091	2.38
729.843	2.38
730.594	2.38
731.346	1.38
732.097	2.38
732.848	2.38
733.599	4.38
734.35	2.38
735.101	5.38
735.852	3.38
736.603	2.38
737.354	2.38
738.104	3.38
738.855	1.38
739.605	4.38
740.356	5.38
741.106	1.38
741.856	-0.62
742.607	3.38
743.357	2.38
744.107	4.38
744.857	3.38
745.607	4.38
746.357	3.38
747.106	4.38
747.856	0.38
748.606	2.38
749.355	1.38
750.105	2.38
750.854	1.38
751.603	2.38
752.353	2.38
753.102	4.38
753.851	3.38
754.6	6.38
755.349	4.38
756.098	5.38
756.847	5.38
757.595	2.38
758.344	2.38
759.093	0.38
759.841	4.38
760.589	5.38
761.338	4.38
762.086	3.38
762.834	2.38
763.582	7.38
764.331	5.38
765.079	6.38
765.826	4.38
766.574	3.38
767.322	5.38
768.07	4.38
768.817	5.38
769.565	3.38
770.312	4.38
771.06	5.38
771.807	3.38
772.554	6.38
773.302	6.38
774.049	4.38
774.796	4.38
775.543	6.38
776.29	5.38
777.036	5.38
777.783	5.38
778.53	2.38
779.276	4.38
780.023	5.38
780.769	5.38
781.516	5.38
782.262	7.38
783.008	3.38
783.754	5.38
784.5	4.38
785.246	7.38
785.992	5.38
786.738	3.38
787.484	4.38
788.23	6.38
788.975	5.38
789.721	6.38
790.466	7.38
791.212	4.38
791.957	6.38
792.702	3.38
793.447	3.38
794.193	5.38
794.938	7.38
795.683	4.38
796.427	3.38
797.172	5.38
797.917	5.38
798.662	5.38
799.406	4.38
800.151	5.38
800.895	4.38
801.64	7.38
802.384	5.38
803.128	8.38
803.872	5.38
804.616	2.38
805.36	7.38
806.104	4.38
806.848	2.38
807.592	5.38
808.336	1.38
809.079	5.38
809.823	2.38
810.566	4.38
811.31	4.38
812.053	2.38
812.796	4.38
813.539	4.38
814.283	4.38
815.026	4.38
815.769	5.38
816.511	5.38
817.254	2.38
817.997	4.38
818.74	4.38
819.482	2.38
820.225	3.38
820.967	2.38
821.71	5.38
822.452	1.38
823.194	4.38
823.936	4.38
824.678	4.38
825.42	4.38
826.162	4.38
826.904	6.38
827.646	3.38
828.388	5.38
829.129	0.38
829.871	5.38
830.612	1.38
831.354	2.38
832.095	3.38
832.836	2.38
833.577	2.38
834.319	2.38
835.06	4.38
835.801	3.38
836.542	2.38
837.282	2.38
838.023	3.38
838.764	2.38
839.504	2.38
840.245	2.38
840.985	2.38
841.726	1.38
842.466	2.38
843.206	2.38
843.946	4.38
844.687	1.38
845.427	1.38
846.166	2.38
846.906	2.38
847.646	2.38
848.386	1.38
849.125	2.38
849.865	2.38
850.605	3.38
851.344	3.38
852.083	1.38
852.823	1.38
853.562	1.38
854.301	1.38
855.04	2.38
855.779	2.38
856.518	2.38
857.257	-0.62
857.995	1.38
858.734	2.38
859.473	2.38
860.211	3.38
860.95	3.38
861.688	1.38
862.426	-0.62
863.165	6.38
863.903	1.38
864.641	2.38
865.379	2.38
866.117	2.38
866.855	1.38
867.593	1.38
868.33	3.38
869.068	2.38
869.806	4.38
870.543	1.38
871.28	-0.62
872.018	0.38
872.755	0.38
873.492	2.38
874.229	-1.62
874.967	0.38
875.703	1.38
876.44	0.38
877.177	1.38
877.914	1.38
878.651	1.38
879.387	1.38
880.124	1.38
880.86	1.38
881.597	0.38
882.333	1.38
883.069	0.38
883.806	3.38
884.542	1.38
885.278	2.38
886.014	1.38
886.749	1.38
887.485	4.38
888.221	1.38
888.957	0.38
889.692	0.38
890.428	-0.62
891.163	1.38
891.899	0.38
892.634	3.38
893.369	1.38
894.104	2.38
894.839	0.38
895.574	-0.62
896.309	0.38
897.044	0.38
897.779	2.38
898.514	2.38
899.248	1.38
899.983	-0.62
900.717	1.38
901.452	-1.62
902.186	-0.62
902.92	1.38
903.654	0.38
904.389	2.38
905.123	0.38
905.857	1.38
906.59	0.38
907.324	1.38
908.058	3.38
908.792	0.38
909.525	0.38
910.259	-0.62
910.992	0.38
911.726	0.38
912.459	-1.62
913.192	0.38
913.925	1.38
914.658	1.38
915.391	1.38
916.124	-1.62
916.857	-0.62
917.59	-0.62
918.323	1.38
919.055	0.38
919.788	0.38
920.521	0.38
921.253	1.38
921.985	2.38
922.718	-0.62
923.45	-1.62
924.182	0.38
924.914	-0.62
925.646	-0.62
926.378	-1.62
927.11	-1.62
927.841	0.38
928.573	-1.62
929.305	2.38
930.036	0.38
930.768	-1.62
931.499	1.38
932.23	1.38
932.962	-1.62
933.693	0.38
934.424	0.38
935.155	-0.62
935.886	0.38
936.617	-2.62
937.348	2.38
938.078	0.38
938.809	0.38
939.54	-1.62
940.27	2.38
941.001	0.38
941.731	2.38
942.461	1.38
943.191	2.38
943.922	-0.62
944.652	2.38
945.382	-0.62
946.112	-0.62
946.841	1.38
947.571	-0.62
948.301	1.38
949.031	2.38
949.76	0.38
950.49	-1.62
951.219	-1.62
951.948	1.38
952.678	0.38
953.407	2.38
954.136	0.38
954.865	1.38
955.594	0.38
956.323	3.38
957.052	1.38
957.78	1.38
958.509	0.38
959.238	0.38
959.966	0.38
960.695	0.38
961.423	2.38
962.151	-0.62
962.88	1.38
963.608	0.38
964.336	-0.62
965.064	0.38
965.792	1.38
966.52	0.38
967.247	-0.62
967.975	0.38
968.703	1.38
969.43	1.38
970.158	0.38
970.885	1.38
971.613	0.38
972.34	-1.62
973.067	-0.62
973.794	0.38
974.521	0.38
975.248	2.38
975.975	1.38
976.702	-0.62
977.429	1.38
978.156	-0.62
978.882	2.38
979.609	-1.62
980.335	1.38
981.062	-1.62
981.788	0.38
982.514	-0.62
983.24	0.38
983.967	0.38
984.693	-0.62
985.419	2.38
986.144	-1.62
986.87	2.38
987.596	1.38
988.322	0.38
989.047	-0.62
989.773	-0.62
990.498	1.38
991.224	0.38
991.949	1.38
992.674	-0.62
993.399	-0.62
994.124	-0.62
994.849	-0.62
995.574	3.38
996.299	0.38
997.024	1.38
997.749	1.38
998.473	-0.62
999.198	1.38
999.922	-1.62
1000.647	1.38
1001.371	3.38
1002.095	-1.62
1002.82	-0.62
1003.544	-1.62
1004.268	1.38
1004.992	-1.62
1005.716	-2.62
1006.439	0.38
1007.163	-1.62
1007.887	1.38
1008.611	1.38
1009.334	-0.62
1010.058	0.38
1010.781	0.38
1011.504	1.38
1012.228	0.38
1012.951	0.38
1013.674	0.38
1014.397	-1.62
1015.12	1.38
