节点500_145_QEPB04081__15__11-29-10-825.txt的数据

Date: Wed Nov 12 11:29:10 CST 2025
User: PC
Spectrometer: QEPB0408
触发模式: 0
积分时间 (秒): 1.000000E-2
Scans to average: 1
启用暗噪声校正: true
启用非线性校正: false
滑动平均宽度: 0
X轴模式: Wavelengths
Number of Pixels in Spectrum: 1044
>>>>>Begin Spectral Data<<<<<
220.843	0
221.644	-1
222.444	-1
223.244	-2
224.045	1
224.845	-1
225.645	2
226.445	1
227.245	-2
228.045	1
228.845	4
229.645	0
230.444	0
231.244	2
232.043	0
232.843	0
233.642	3
234.442	0
235.241	0
236.04	0
236.839	4
237.638	4
238.437	-2
239.236	3
240.035	3
240.833	0
241.632	0
242.43	3
243.229	1
244.027	2
244.826	2
245.624	0
246.422	4
247.22	1
248.018	1
248.816	5
249.614	4
250.412	1
251.21	3
252.007	3
252.805	-2
253.602	5
254.4	-1
255.197	5
255.994	4
256.791	4
257.589	4
258.386	5
259.183	4
259.979	6
260.776	4
261.573	5
262.37	2
263.166	5
263.963	5
264.759	7
265.556	4
266.352	6
267.148	8
267.944	6
268.74	8
269.536	6
270.332	8
271.128	8
271.924	6
272.719	7
273.515	8
274.311	10
275.106	10
275.901	9
276.697	10
277.492	7
278.287	10
279.082	11
279.877	12
280.672	11
281.467	10
282.262	12
283.056	12
283.851	12
284.646	11
285.44	11
286.234	9
287.029	13
287.823	10
288.617	13
289.411	10
290.205	11
290.999	8
291.793	11
292.587	12
293.381	12
294.174	9
294.968	10
295.761	9
296.555	8
297.348	11
298.141	9
298.935	11
299.728	8
300.521	10
301.314	11
302.107	9
302.899	9
303.692	6
304.485	8
305.277	9
306.07	8
306.862	9
307.655	11
308.447	8
309.239	5
310.031	9
310.823	7
311.615	6
312.407	6
313.199	7
313.991	8
314.783	5
315.574	6
316.366	3
317.157	5
317.949	4
318.74	7
319.531	6
320.322	4
321.113	4
321.904	2
322.695	3
323.486	7
324.277	3
325.068	5
325.858	5
326.649	5
327.439	5
328.23	5
329.02	6
329.81	5
330.6	3
331.391	5
332.181	5
332.971	3
333.76	4
334.55	3
335.34	2
336.13	4
336.919	3
337.709	4
338.498	3
339.287	5
340.077	5
340.866	3
341.655	5
342.444	2
343.233	4
344.022	3
344.811	3
345.6	3
346.388	1
347.177	3
347.965	5
348.754	0
349.542	2
350.33	3
351.119	2
351.907	3
352.695	3
353.483	2
354.271	3
355.059	6
355.846	4
356.634	2
357.422	3
358.209	3
358.997	0
359.784	2
360.571	1
361.359	3
362.146	4
362.933	1
363.72	3
364.507	3
365.294	4
366.081	2
366.867	4
367.654	2
368.44	3
369.227	3
370.013	2
370.8	1
371.586	1
372.372	1
373.158	2
373.944	4
374.73	2
375.516	2
376.302	1
377.088	3
377.873	3
378.659	3
379.445	1
380.23	3
381.015	2
381.801	3
382.586	4
383.371	3
384.156	2
384.941	2
385.726	3
386.511	3
387.296	3
388.08	3
388.865	2
389.649	3
390.434	5
391.218	3
392.003	3
392.787	3
393.571	3
394.355	2
395.139	6
395.923	3
396.707	4
397.491	4
398.274	3
399.058	3
399.842	2
400.625	5
401.408	4
402.192	5
402.975	4
403.758	4
404.541	4
405.324	7
406.107	4
406.89	2
407.673	5
408.456	5
409.238	3
410.021	4
410.803	6
411.586	6
412.368	5
413.151	3
413.933	8
414.715	5
415.497	6
416.279	5
417.061	5
417.843	6
418.624	2
419.406	6
420.188	7
420.969	7
421.751	5
422.532	6
423.313	8
424.095	5
424.876	7
425.657	5
426.438	7
427.219	8
428	7
428.78	7
429.561	6
430.342	6
431.122	7
431.903	9
432.683	8
433.464	8
434.244	9
435.024	10
435.804	10
436.584	9
437.364	8
438.144	10
438.924	11
439.704	10
440.483	12
441.263	12
442.042	12
442.822	12
443.601	12
444.38	15
445.16	15
445.939	14
446.718	18
447.497	19
448.276	18
449.054	17
449.833	20
450.612	23
451.391	25
452.169	25
452.948	30
453.726	31
454.504	36
455.282	36
456.061	38
456.839	43
457.617	50
458.395	53
459.172	59
459.95	64
460.728	73
461.506	82
462.283	85
463.061	96
463.838	109
464.615	126
465.393	138
466.17	151
466.947	168
467.724	190
468.501	210
469.278	242
470.055	267
470.831	305
471.608	338
472.385	363
473.161	425
473.938	462
474.714	520
475.49	574
476.266	642
477.043	723
477.819	806
478.595	891
479.371	993
480.146	1106
480.922	1228
481.698	1357
482.473	1517
483.249	1674
484.024	1875
484.8	2086
485.575	2315
486.35	2596
487.126	2840
487.901	3164
488.676	3518
489.451	3890
490.225	4305
491	4774
491.775	5269
492.55	5874
493.324	6438
494.099	7106
494.873	7750
495.647	8489
496.422	9259
497.196	10030
497.97	10874
498.744	11686
499.518	12556
500.292	13308
501.066	14112
501.839	14799
502.613	15514
503.387	16109
504.16	16583
504.934	17022
505.707	17280
506.48	17417
507.253	17512
508.027	17438
508.8	17206
509.573	16913
510.346	16524
511.118	16041
511.891	15451
512.664	14858
513.437	14219
514.209	13667
514.982	13048
515.754	12432
516.526	11842
517.298	11282
518.071	10808
518.843	10294
519.615	9852
520.387	9439
521.159	9100
521.93	8748
522.702	8407
523.474	8054
524.245	7759
525.017	7427
525.788	7117
526.56	6818
527.331	6556
528.102	6221
528.873	5969
529.644	5651
530.415	5390
531.186	5119
531.957	4839
532.728	4549
533.498	4328
534.269	4066
535.039	3848
535.81	3634
536.58	3428
537.351	3193
538.121	3025
538.891	2864
539.661	2704
540.431	2545
541.201	2445
541.971	2293
542.741	2187
543.51	2067
544.28	1971
545.05	1874
545.819	1792
546.588	1677
547.358	1621
548.127	1528
548.896	1453
549.665	1379
550.434	1303
551.203	1248
551.972	1153
552.741	1113
553.51	1038
554.278	996
555.047	925
555.815	872
556.584	835
557.352	776
558.121	730
558.889	700
559.657	650
560.425	602
561.193	585
561.961	540
562.729	509
563.496	483
564.264	452
565.032	428
565.799	407
566.567	388
567.334	358
568.101	342
568.869	323
569.636	301
570.403	293
571.17	282
571.937	253
572.704	243
573.471	225
574.237	214
575.004	201
575.771	190
576.537	178
577.303	167
578.07	164
578.836	147
579.602	142
580.368	133
581.134	124
581.9	118
582.666	109
583.432	104
584.198	98
584.964	99
585.729	89
586.495	84
587.26	79
588.025	76
588.791	70
589.556	67
590.321	67
591.086	61
591.851	57
592.616	55
593.381	51
594.146	50
594.911	48
595.675	45
596.44	42
597.204	39
597.969	40
598.733	38
599.497	36
600.261	34
601.025	35
601.79	32
602.553	27
603.317	30
604.081	27
604.845	26
605.609	24
606.372	23
607.136	22
607.899	21
608.662	22
609.426	21
610.189	18
610.952	18
611.715	15
612.478	18
613.241	18
614.004	18
614.767	12
615.529	15
616.292	13
617.055	11
617.817	13
618.579	11
619.342	11
620.104	12
620.866	14
621.628	10
622.39	9
623.152	10
623.914	12
624.676	7
625.438	12
626.199	8
626.961	8
627.722	8
628.484	8
629.245	8
630.006	9
630.768	7
631.529	5
632.29	8
633.051	5
633.812	6
634.573	7
635.333	5
636.094	6
636.855	4
637.615	5
638.376	7
639.136	6
639.896	6
640.657	4
641.417	7
642.177	3
642.937	6
643.697	3
644.457	5
645.216	5
645.976	3
646.736	3
647.495	3
648.255	5
649.014	5
649.774	4
650.533	2
651.292	4
652.051	5
652.81	5
653.569	6
654.328	4
655.087	2
655.846	4
656.604	3
657.363	5
658.121	3
658.88	3
659.638	4
660.397	3
661.155	5
661.913	2
662.671	3
663.429	2
664.187	3
664.945	2
665.703	1
666.46	1
667.218	1
667.976	4
668.733	2
669.49	1
670.248	2
671.005	3
671.762	2
672.519	1
673.276	3
674.033	1
674.79	1
675.547	2
676.304	3
677.06	4
677.817	0
678.574	3
679.33	2
680.086	2
680.843	2
681.599	1
682.355	2
683.111	3
683.867	2
684.623	3
685.379	1
686.135	-1
686.89	1
687.646	3
688.402	3
689.157	1
689.912	2
690.668	3
691.423	1
692.178	2
692.933	2
693.688	1
694.443	2
695.198	1
695.953	2
696.708	4
697.462	1
698.217	2
698.972	1
699.726	2
700.48	2
701.235	2
701.989	2
702.743	3
703.497	2
704.251	3
705.005	0
705.759	4
706.513	3
707.266	2
708.02	0
708.774	3
709.527	3
710.28	0
711.034	2
711.787	1
712.54	4
713.293	2
714.046	5
714.799	2
715.552	2
716.305	1
717.058	-1
717.81	2
718.563	2
719.315	3
720.068	3
720.82	2
721.573	2
722.325	2
723.077	3
723.829	3
724.581	2
725.333	2
726.085	2
726.836	2
727.588	3
728.34	4
729.091	0
729.843	3
730.594	2
731.346	1
732.097	1
732.848	4
733.599	2
734.35	0
735.101	3
735.852	3
736.603	1
737.354	5
738.104	4
738.855	2
739.605	2
740.356	2
741.106	2
741.856	0
742.607	3
743.357	4
744.107	2
744.857	4
745.607	2
746.357	1
747.106	1
747.856	4
748.606	1
749.355	2
750.105	3
750.854	4
751.603	4
752.353	3
753.102	3
753.851	5
754.6	4
755.349	2
756.098	3
756.847	4
757.595	4
758.344	2
759.093	4
759.841	1
760.589	4
761.338	3
762.086	4
762.834	3
763.582	3
764.331	3
765.079	2
765.826	5
766.574	4
767.322	4
768.07	4
768.817	2
769.565	5
770.312	4
771.06	4
771.807	4
772.554	5
773.302	6
774.049	7
774.796	6
775.543	4
776.29	5
777.036	2
777.783	4
778.53	3
779.276	6
780.023	4
780.769	4
781.516	5
782.262	5
783.008	4
783.754	5
784.5	7
785.246	5
785.992	5
786.738	3
787.484	6
788.23	6
788.975	6
789.721	4
790.466	6
791.212	4
791.957	7
792.702	4
793.447	4
794.193	6
794.938	4
795.683	4
796.427	4
797.172	3
797.917	5
798.662	4
799.406	5
800.151	3
800.895	4
801.64	4
802.384	4
803.128	4
803.872	5
804.616	4
805.36	5
806.104	4
806.848	6
807.592	5
808.336	4
809.079	1
809.823	4
810.566	2
811.31	5
812.053	4
812.796	5
813.539	5
814.283	2
815.026	4
815.769	4
816.511	3
817.254	2
817.997	2
818.74	2
819.482	3
820.225	2
820.967	2
821.71	2
822.452	3
823.194	4
823.936	2
824.678	3
825.42	2
826.162	3
826.904	3
827.646	2
828.388	2
829.129	2
829.871	2
830.612	3
831.354	1
832.095	4
832.836	2
833.577	2
834.319	2
835.06	2
835.801	3
836.542	4
837.282	2
838.023	2
838.764	3
839.504	2
840.245	2
840.985	0
841.726	0
842.466	1
843.206	2
843.946	2
844.687	4
845.427	2
846.166	3
846.906	0
847.646	3
848.386	4
849.125	0
849.865	3
850.605	5
851.344	2
852.083	2
852.823	2
853.562	4
854.301	3
855.04	2
855.779	3
856.518	1
857.257	3
857.995	0
858.734	2
859.473	1
860.211	1
860.95	2
861.688	3
862.426	1
863.165	1
863.903	3
864.641	1
865.379	1
866.117	0
866.855	-1
867.593	1
868.33	1
869.068	2
869.806	1
870.543	2
871.28	1
872.018	1
872.755	1
873.492	-2
874.229	0
874.967	1
875.703	3
876.44	3
877.177	-2
877.914	2
878.651	-2
879.387	0
880.124	0
880.86	0
881.597	0
882.333	2
883.069	0
883.806	1
884.542	1
885.278	2
886.014	1
886.749	0
887.485	-1
888.221	0
888.957	1
889.692	1
890.428	2
891.163	-1
891.899	1
892.634	-1
893.369	3
894.104	-2
894.839	-1
895.574	1
896.309	-1
897.044	2
897.779	0
898.514	-1
899.248	0
899.983	2
900.717	1
901.452	0
902.186	1
902.92	0
903.654	-1
904.389	0
905.123	1
905.857	1
906.59	-1
907.324	0
908.058	0
908.792	-1
909.525	-2
910.259	1
910.992	0
911.726	0
912.459	-2
913.192	1
913.925	0
914.658	-2
915.391	-2
916.124	-1
916.857	2
917.59	0
918.323	-1
919.055	1
919.788	1
920.521	-1
921.253	0
921.985	0
922.718	0
923.45	0
924.182	1
924.914	1
925.646	1
926.378	-2
927.11	0
927.841	1
928.573	-2
929.305	-1
930.036	0
930.768	-2
931.499	1
932.23	-1
932.962	2
933.693	1
934.424	0
935.155	1
935.886	-1
936.617	1
937.348	-2
938.078	2
938.809	-1
939.54	-1
940.27	0
941.001	0
941.731	1
942.461	-1
943.191	0
943.922	0
944.652	2
945.382	0
946.112	1
946.841	1
947.571	1
948.301	0
949.031	0
949.76	-1
950.49	0
951.219	0
951.948	-1
952.678	0
953.407	2
954.136	0
954.865	-1
955.594	1
956.323	-1
957.052	2
957.78	0
958.509	0
959.238	1
959.966	0
960.695	0
961.423	-2
962.151	2
962.88	1
963.608	-2
964.336	1
965.064	0
965.792	2
966.52	-2
967.247	2
967.975	2
968.703	-1
969.43	1
970.158	-2
970.885	0
971.613	-1
972.34	1
973.067	0
973.794	-1
974.521	-3
975.248	0
975.975	1
976.702	0
977.429	1
978.156	-2
978.882	-1
979.609	0
980.335	0
981.062	1
981.788	0
982.514	-1
983.24	1
983.967	1
984.693	-1
985.419	0
986.144	3
986.87	-1
987.596	0
988.322	-1
989.047	0
989.773	1
990.498	2
991.224	0
991.949	0
992.674	2
993.399	-2
994.124	-3
994.849	0
995.574	0
996.299	1
997.024	-3
997.749	0
998.473	-1
999.198	1
999.922	-2
1000.647	0
1001.371	5
1002.095	-1
1002.82	-3
1003.544	-2
1004.268	1
1004.992	-2
1005.716	-2
1006.439	1
1007.163	-4
1007.887	1
1008.611	1
1009.334	-1
1010.058	-1
1010.781	1
1011.504	1
1012.228	1
1012.951	1
1013.674	-1
1014.397	1
1015.12	0
