节点500_145_QEPB04081__610__11-38-39-326.txt的数据

Date: Wed Nov 12 11:38:39 CST 2025
User: PC
Spectrometer: QEPB0408
触发模式: 0
积分时间 (秒): 1.000000E-2
Scans to average: 1
启用暗噪声校正: true
启用非线性校正: false
滑动平均宽度: 0
X轴模式: Wavelengths
Number of Pixels in Spectrum: 1044
>>>>>Begin Spectral Data<<<<<
220.843	0.88
221.644	-0.12
222.444	1.88
223.244	0.88
224.045	0.88
224.845	0.88
225.645	-0.12
226.445	0.88
227.245	-0.12
228.045	0.88
228.845	-0.12
229.645	0.88
230.444	-0.12
231.244	0.88
232.043	0.88
232.843	1.88
233.642	1.88
234.442	-0.12
235.241	1.88
236.04	1.88
236.839	0.88
237.638	-0.12
238.437	2.88
239.236	1.88
240.035	1.88
240.833	2.88
241.632	1.88
242.43	-1.12
243.229	2.88
244.027	0.88
244.826	3.88
245.624	1.88
246.422	1.88
247.22	2.88
248.018	1.88
248.816	2.88
249.614	2.88
250.412	1.88
251.21	1.88
252.007	2.88
252.805	3.88
253.602	1.88
254.4	1.88
255.197	2.88
255.994	6.88
256.791	2.88
257.589	1.88
258.386	2.88
259.183	2.88
259.979	6.88
260.776	3.88
261.573	4.88
262.37	4.88
263.166	4.88
263.963	5.88
264.759	6.88
265.556	5.88
266.352	5.88
267.148	5.88
267.944	3.88
268.74	7.88
269.536	5.88
270.332	6.88
271.128	4.88
271.924	6.88
272.719	6.88
273.515	9.88
274.311	7.88
275.106	7.88
275.901	6.88
276.697	8.88
277.492	9.88
278.287	7.88
279.082	9.88
279.877	9.88
280.672	10.88
281.467	10.88
282.262	10.88
283.056	10.88
283.851	7.88
284.646	8.88
285.44	9.88
286.234	10.88
287.029	6.88
287.823	14.88
288.617	9.88
289.411	8.88
290.205	10.88
290.999	9.88
291.793	10.88
292.587	11.88
293.381	10.88
294.174	9.88
294.968	10.88
295.761	9.88
296.555	8.88
297.348	10.88
298.141	10.88
298.935	10.88
299.728	10.88
300.521	5.88
301.314	9.88
302.107	6.88
302.899	8.88
303.692	9.88
304.485	5.88
305.277	8.88
306.07	9.88
306.862	10.88
307.655	7.88
308.447	9.88
309.239	7.88
310.031	7.88
310.823	8.88
311.615	6.88
312.407	6.88
313.199	6.88
313.991	5.88
314.783	7.88
315.574	7.88
316.366	6.88
317.157	4.88
317.949	4.88
318.74	4.88
319.531	5.88
320.322	6.88
321.113	5.88
321.904	5.88
322.695	3.88
323.486	4.88
324.277	5.88
325.068	5.88
325.858	3.88
326.649	6.88
327.439	4.88
328.23	4.88
329.02	4.88
329.81	3.88
330.6	2.88
331.391	5.88
332.181	3.88
332.971	4.88
333.76	3.88
334.55	5.88
335.34	6.88
336.13	5.88
336.919	4.88
337.709	2.88
338.498	3.88
339.287	1.88
340.077	3.88
340.866	3.88
341.655	3.88
342.444	3.88
343.233	4.88
344.022	3.88
344.811	3.88
345.6	4.88
346.388	2.88
347.177	5.88
347.965	3.88
348.754	4.88
349.542	3.88
350.33	3.88
351.119	3.88
351.907	1.88
352.695	3.88
353.483	3.88
354.271	3.88
355.059	1.88
355.846	4.88
356.634	4.88
357.422	1.88
358.209	2.88
358.997	1.88
359.784	2.88
360.571	6.88
361.359	3.88
362.146	4.88
362.933	0.88
363.72	2.88
364.507	1.88
365.294	3.88
366.081	0.88
366.867	3.88
367.654	1.88
368.44	5.88
369.227	4.88
370.013	2.88
370.8	3.88
371.586	4.88
372.372	4.88
373.158	4.88
373.944	2.88
374.73	2.88
375.516	2.88
376.302	2.88
377.088	2.88
377.873	2.88
378.659	3.88
379.445	2.88
380.23	2.88
381.015	3.88
381.801	2.88
382.586	1.88
383.371	2.88
384.156	3.88
384.941	2.88
385.726	3.88
386.511	3.88
387.296	1.88
388.08	1.88
388.865	1.88
389.649	4.88
390.434	2.88
391.218	3.88
392.003	3.88
392.787	5.88
393.571	4.88
394.355	2.88
395.139	2.88
395.923	3.88
396.707	4.88
397.491	2.88
398.274	3.88
399.058	2.88
399.842	4.88
400.625	5.88
401.408	1.88
402.192	0.88
402.975	5.88
403.758	1.88
404.541	3.88
405.324	2.88
406.107	4.88
406.89	3.88
407.673	3.88
408.456	5.88
409.238	3.88
410.021	6.88
410.803	4.88
411.586	4.88
412.368	6.88
413.151	4.88
413.933	4.88
414.715	5.88
415.497	5.88
416.279	5.88
417.061	5.88
417.843	5.88
418.624	6.88
419.406	5.88
420.188	3.88
420.969	6.88
421.751	7.88
422.532	5.88
423.313	5.88
424.095	5.88
424.876	6.88
425.657	7.88
426.438	7.88
427.219	5.88
428	8.88
428.78	6.88
429.561	6.88
430.342	7.88
431.122	6.88
431.903	9.88
432.683	5.88
433.464	9.88
434.244	6.88
435.024	7.88
435.804	9.88
436.584	8.88
437.364	10.88
438.144	9.88
438.924	13.88
439.704	12.88
440.483	11.88
441.263	13.88
442.042	14.88
442.822	13.88
443.601	16.88
444.38	17.88
445.16	15.88
445.939	17.88
446.718	16.88
447.497	19.88
448.276	22.88
449.054	23.88
449.833	25.88
450.612	25.88
451.391	30.88
452.169	33.88
452.948	32.88
453.726	37.88
454.504	43.88
455.282	42.88
456.061	51.88
456.839	52.88
457.617	59.88
458.395	66.88
459.172	72.88
459.95	81.88
460.728	87.88
461.506	103.88
462.283	113.88
463.061	125.88
463.838	140.88
464.615	156.88
465.393	174.88
466.17	184.88
466.947	212.88
467.724	237.88
468.501	259.88
469.278	281.88
470.055	322.88
470.831	363.88
471.608	397.88
472.385	439.88
473.161	482.88
473.938	541.88
474.714	594.88
475.49	650.88
476.266	724.88
477.043	796.88
477.819	866.88
478.595	965.88
479.371	1047.88
480.146	1155.88
480.922	1267.88
481.698	1388.88
482.473	1532.88
483.249	1659.88
484.024	1829.88
484.8	1996.88
485.575	2186.88
486.35	2374.88
487.126	2648.88
487.901	2870.88
488.676	3152.88
489.451	3430.88
490.225	3758.88
491	4103.88
491.775	4464.88
492.55	4874.88
493.324	5292.88
494.099	5781.88
494.873	6284.88
495.647	6800.88
496.422	7365.88
497.196	7944.88
497.97	8521.88
498.744	9166.88
499.518	9860.88
500.292	10441.88
501.066	11127.88
501.839	11782.88
502.613	12365.88
503.387	12963.88
504.16	13487.88
504.934	14042.88
505.707	14401.88
506.48	14705.88
507.253	14989.88
508.027	15151.88
508.8	15287.88
509.573	15257.88
510.346	15096.88
511.118	14952.88
511.891	14695.88
512.664	14325.88
513.437	14014.88
514.209	13563.88
514.982	13066.88
515.754	12617.88
516.526	12122.88
517.298	11595.88
518.071	11185.88
518.843	10681.88
519.615	10234.88
520.387	9833.88
521.159	9429.88
521.93	9047.88
522.702	8669.88
523.474	8362.88
524.245	8057.88
525.017	7697.88
525.788	7393.88
526.56	7096.88
527.331	6794.88
528.102	6538.88
528.873	6259.88
529.644	5960.88
530.415	5711.88
531.186	5466.88
531.957	5216.88
532.728	4957.88
533.498	4735.88
534.269	4485.88
535.039	4262.88
535.81	4034.88
536.58	3796.88
537.351	3598.88
538.121	3393.88
538.891	3241.88
539.661	3035.88
540.431	2890.88
541.201	2715.88
541.971	2571.88
542.741	2423.88
543.51	2314.88
544.28	2204.88
545.05	2080.88
545.819	2001.88
546.588	1884.88
547.358	1777.88
548.127	1696.88
548.896	1618.88
549.665	1538.88
550.434	1459.88
551.203	1398.88
551.972	1336.88
552.741	1256.88
553.51	1188.88
554.278	1122.88
555.047	1063.88
555.815	1002.88
556.584	950.88
557.352	885.88
558.121	848.88
558.889	799.88
559.657	757.88
560.425	707.88
561.193	661.88
561.961	636.88
562.729	604.88
563.496	566.88
564.264	532.88
565.032	496.88
565.799	473.88
566.567	451.88
567.334	423.88
568.101	402.88
568.869	368.88
569.636	349.88
570.403	329.88
571.17	313.88
571.937	291.88
572.704	282.88
573.471	263.88
574.237	251.88
575.004	233.88
575.771	218.88
576.537	206.88
577.303	201.88
578.07	189.88
578.836	175.88
579.602	162.88
580.368	156.88
581.134	146.88
581.9	138.88
582.666	131.88
583.432	127.88
584.198	118.88
584.964	111.88
585.729	109.88
586.495	100.88
587.26	92.88
588.025	90.88
588.791	80.88
589.556	79.88
590.321	75.88
591.086	73.88
591.851	68.88
592.616	58.88
593.381	61.88
594.146	58.88
594.911	54.88
595.675	56.88
596.44	47.88
597.204	48.88
597.969	46.88
598.733	45.88
599.497	42.88
600.261	37.88
601.025	38.88
601.79	35.88
602.553	36.88
603.317	30.88
604.081	32.88
604.845	30.88
605.609	28.88
606.372	27.88
607.136	28.88
607.899	24.88
608.662	24.88
609.426	23.88
610.189	23.88
610.952	20.88
611.715	19.88
612.478	21.88
613.241	20.88
614.004	18.88
614.767	17.88
615.529	16.88
616.292	14.88
617.055	13.88
617.817	12.88
618.579	14.88
619.342	14.88
620.104	13.88
620.866	12.88
621.628	14.88
622.39	13.88
623.152	11.88
623.914	11.88
624.676	7.88
625.438	12.88
626.199	8.88
626.961	7.88
627.722	9.88
628.484	10.88
629.245	9.88
630.006	9.88
630.768	9.88
631.529	6.88
632.29	7.88
633.051	6.88
633.812	6.88
634.573	8.88
635.333	5.88
636.094	7.88
636.855	5.88
637.615	7.88
638.376	5.88
639.136	6.88
639.896	5.88
640.657	5.88
641.417	5.88
642.177	4.88
642.937	5.88
643.697	6.88
644.457	6.88
645.216	4.88
645.976	5.88
646.736	6.88
647.495	2.88
648.255	3.88
649.014	2.88
649.774	3.88
650.533	3.88
651.292	3.88
652.051	4.88
652.81	4.88
653.569	3.88
654.328	2.88
655.087	2.88
655.846	4.88
656.604	6.88
657.363	4.88
658.121	3.88
658.88	3.88
659.638	5.88
660.397	5.88
661.155	6.88
661.913	4.88
662.671	2.88
663.429	2.88
664.187	3.88
664.945	4.88
665.703	4.88
666.46	2.88
667.218	4.88
667.976	3.88
668.733	5.88
669.49	2.88
670.248	3.88
671.005	2.88
671.762	2.88
672.519	2.88
673.276	2.88
674.033	2.88
674.79	2.88
675.547	3.88
676.304	-1.12
677.06	1.88
677.817	2.88
678.574	4.88
679.33	2.88
680.086	2.88
680.843	1.88
681.599	2.88
682.355	3.88
683.111	1.88
683.867	2.88
684.623	2.88
685.379	2.88
686.135	2.88
686.89	-1.12
687.646	1.88
688.402	0.88
689.157	2.88
689.912	1.88
690.668	2.88
691.423	2.88
692.178	1.88
692.933	4.88
693.688	1.88
694.443	1.88
695.198	2.88
695.953	0.88
696.708	2.88
697.462	2.88
698.217	3.88
698.972	1.88
699.726	2.88
700.48	1.88
701.235	2.88
701.989	0.88
702.743	1.88
703.497	1.88
704.251	4.88
705.005	2.88
705.759	2.88
706.513	0.88
707.266	3.88
708.02	2.88
708.774	1.88
709.527	3.88
710.28	2.88
711.034	2.88
711.787	2.88
712.54	2.88
713.293	1.88
714.046	1.88
714.799	-0.12
715.552	2.88
716.305	1.88
717.058	2.88
717.81	1.88
718.563	0.88
719.315	4.88
720.068	3.88
720.82	0.88
721.573	2.88
722.325	0.88
723.077	-1.12
723.829	1.88
724.581	2.88
725.333	2.88
726.085	0.88
726.836	2.88
727.588	1.88
728.34	4.88
729.091	2.88
729.843	1.88
730.594	4.88
731.346	2.88
732.097	2.88
732.848	1.88
733.599	3.88
734.35	-0.12
735.101	0.88
735.852	2.88
736.603	1.88
737.354	2.88
738.104	0.88
738.855	1.88
739.605	3.88
740.356	2.88
741.106	3.88
741.856	2.88
742.607	2.88
743.357	3.88
744.107	1.88
744.857	0.88
745.607	1.88
746.357	2.88
747.106	1.88
747.856	3.88
748.606	0.88
749.355	1.88
750.105	1.88
750.854	3.88
751.603	1.88
752.353	1.88
753.102	3.88
753.851	4.88
754.6	2.88
755.349	3.88
756.098	2.88
756.847	3.88
757.595	2.88
758.344	3.88
759.093	1.88
759.841	4.88
760.589	3.88
761.338	1.88
762.086	5.88
762.834	4.88
763.582	3.88
764.331	3.88
765.079	2.88
765.826	4.88
766.574	2.88
767.322	4.88
768.07	3.88
768.817	3.88
769.565	5.88
770.312	5.88
771.06	7.88
771.807	1.88
772.554	5.88
773.302	2.88
774.049	4.88
774.796	3.88
775.543	3.88
776.29	5.88
777.036	2.88
777.783	6.88
778.53	2.88
779.276	7.88
780.023	3.88
780.769	2.88
781.516	5.88
782.262	5.88
783.008	3.88
783.754	5.88
784.5	4.88
785.246	5.88
785.992	4.88
786.738	3.88
787.484	3.88
788.23	4.88
788.975	6.88
789.721	4.88
790.466	4.88
791.212	5.88
791.957	4.88
792.702	2.88
793.447	6.88
794.193	5.88
794.938	5.88
795.683	4.88
796.427	3.88
797.172	3.88
797.917	4.88
798.662	3.88
799.406	5.88
800.151	4.88
800.895	5.88
801.64	4.88
802.384	5.88
803.128	2.88
803.872	3.88
804.616	2.88
805.36	2.88
806.104	4.88
806.848	2.88
807.592	5.88
808.336	3.88
809.079	5.88
809.823	3.88
810.566	4.88
811.31	2.88
812.053	4.88
812.796	2.88
813.539	3.88
814.283	3.88
815.026	2.88
815.769	2.88
816.511	6.88
817.254	1.88
817.997	5.88
818.74	5.88
819.482	4.88
820.225	2.88
820.967	1.88
821.71	2.88
822.452	4.88
823.194	4.88
823.936	4.88
824.678	2.88
825.42	1.88
826.162	3.88
826.904	3.88
827.646	2.88
828.388	5.88
829.129	1.88
829.871	3.88
830.612	1.88
831.354	2.88
832.095	4.88
832.836	1.88
833.577	5.88
834.319	3.88
835.06	3.88
835.801	5.88
836.542	5.88
837.282	2.88
838.023	1.88
838.764	0.88
839.504	1.88
840.245	3.88
840.985	2.88
841.726	1.88
842.466	2.88
843.206	2.88
843.946	2.88
844.687	0.88
845.427	1.88
846.166	1.88
846.906	1.88
847.646	2.88
848.386	1.88
849.125	0.88
849.865	1.88
850.605	3.88
851.344	1.88
852.083	0.88
852.823	2.88
853.562	3.88
854.301	2.88
855.04	0.88
855.779	1.88
856.518	3.88
857.257	0.88
857.995	2.88
858.734	3.88
859.473	2.88
860.211	2.88
860.95	2.88
861.688	3.88
862.426	1.88
863.165	2.88
863.903	2.88
864.641	-0.12
865.379	1.88
866.117	1.88
866.855	2.88
867.593	1.88
868.33	2.88
869.068	0.88
869.806	0.88
870.543	2.88
871.28	3.88
872.018	2.88
872.755	-0.12
873.492	1.88
874.229	-0.12
874.967	1.88
875.703	1.88
876.44	1.88
877.177	3.88
877.914	2.88
878.651	1.88
879.387	1.88
880.124	1.88
880.86	1.88
881.597	2.88
882.333	3.88
883.069	-0.12
883.806	1.88
884.542	1.88
885.278	2.88
886.014	0.88
886.749	0.88
887.485	3.88
888.221	0.88
888.957	1.88
889.692	-0.12
890.428	-0.12
891.163	0.88
891.899	1.88
892.634	3.88
893.369	1.88
894.104	2.88
894.839	0.88
895.574	0.88
896.309	0.88
897.044	1.88
897.779	1.88
898.514	-1.12
899.248	1.88
899.983	1.88
900.717	0.88
901.452	-0.12
902.186	1.88
902.92	-0.12
903.654	1.88
904.389	1.88
905.123	-1.12
905.857	0.88
906.59	1.88
907.324	-0.12
908.058	3.88
908.792	1.88
909.525	2.88
910.259	1.88
910.992	-0.12
911.726	2.88
912.459	0.88
913.192	0.88
913.925	-0.12
914.658	1.88
915.391	2.88
916.124	2.88
916.857	2.88
917.59	0.88
918.323	0.88
919.055	2.88
919.788	-0.12
920.521	-0.12
921.253	-0.12
921.985	2.88
922.718	-0.12
923.45	0.88
924.182	-0.12
924.914	1.88
925.646	0.88
926.378	2.88
927.11	1.88
927.841	0.88
928.573	1.88
929.305	0.88
930.036	-1.12
930.768	-0.12
931.499	0.88
932.23	2.88
932.962	0.88
933.693	2.88
934.424	1.88
935.155	0.88
935.886	0.88
936.617	-0.12
937.348	2.88
938.078	0.88
938.809	0.88
939.54	0.88
940.27	-1.12
941.001	-1.12
941.731	-0.12
942.461	0.88
943.191	-0.12
943.922	3.88
944.652	1.88
945.382	1.88
946.112	0.88
946.841	1.88
947.571	-0.12
948.301	0.88
949.031	-0.12
949.76	0.88
950.49	3.88
951.219	0.88
951.948	1.88
952.678	-0.12
953.407	-0.12
954.136	2.88
954.865	0.88
955.594	-0.12
956.323	1.88
957.052	0.88
957.78	1.88
958.509	1.88
959.238	0.88
959.966	0.88
960.695	1.88
961.423	1.88
962.151	0.88
962.88	-0.12
963.608	-2.12
964.336	-0.12
965.064	0.88
965.792	0.88
966.52	-0.12
967.247	-2.12
967.975	1.88
968.703	0.88
969.43	0.88
970.158	-0.12
970.885	0.88
971.613	0.88
972.34	-0.12
973.067	-0.12
973.794	0.88
974.521	-1.12
975.248	0.88
975.975	-0.12
976.702	0.88
977.429	-1.12
978.156	-0.12
978.882	1.88
979.609	0.88
980.335	-0.12
981.062	0.88
981.788	1.88
982.514	-0.12
983.24	0.88
983.967	0.88
984.693	1.88
985.419	-0.12
986.144	1.88
986.87	1.88
987.596	0.88
988.322	-0.12
989.047	-0.12
989.773	0.88
990.498	-0.12
991.224	-1.12
991.949	1.88
992.674	-0.12
993.399	1.88
994.124	0.88
994.849	1.88
995.574	0.88
996.299	0.88
997.024	1.88
997.749	-0.12
998.473	1.88
999.198	-0.12
999.922	2.88
1000.647	-0.12
1001.371	1.88
1002.095	-1.12
1002.82	-1.12
1003.544	0.88
1004.268	0.88
1004.992	-1.12
1005.716	-1.12
1006.439	-0.12
1007.163	0.88
1007.887	1.88
1008.611	0.88
1009.334	1.88
1010.058	-0.12
1010.781	0.88
1011.504	-2.12
1012.228	2.88
1012.951	-1.12
1013.674	-1.12
1014.397	1.88
1015.12	-0.12
