节点500_145_QEPB04081__597__11-38-26-356.txt的数据

Date: Wed Nov 12 11:38:26 CST 2025
User: PC
Spectrometer: QEPB0408
触发模式: 0
积分时间 (秒): 1.000000E-2
Scans to average: 1
启用暗噪声校正: true
启用非线性校正: false
滑动平均宽度: 0
X轴模式: Wavelengths
Number of Pixels in Spectrum: 1044
>>>>>Begin Spectral Data<<<<<
220.843	-0.62
221.644	-2.62
222.444	-1.62
223.244	-1.62
224.045	1.38
224.845	-0.62
225.645	-0.62
226.445	2.38
227.245	-0.62
228.045	2.38
228.845	-0.62
229.645	0.38
230.444	1.38
231.244	2.38
232.043	1.38
232.843	1.38
233.642	0.38
234.442	-1.62
235.241	0.38
236.04	0.38
236.839	1.38
237.638	1.38
238.437	1.38
239.236	1.38
240.035	-0.62
240.833	3.38
241.632	0.38
242.43	3.38
243.229	0.38
244.027	3.38
244.826	2.38
245.624	-2.62
246.422	1.38
247.22	1.38
248.018	3.38
248.816	4.38
249.614	1.38
250.412	1.38
251.21	2.38
252.007	2.38
252.805	3.38
253.602	3.38
254.4	2.38
255.197	2.38
255.994	0.38
256.791	2.38
257.589	3.38
258.386	3.38
259.183	3.38
259.979	3.38
260.776	2.38
261.573	4.38
262.37	2.38
263.166	3.38
263.963	2.38
264.759	4.38
265.556	5.38
266.352	3.38
267.148	4.38
267.944	5.38
268.74	5.38
269.536	3.38
270.332	6.38
271.128	5.38
271.924	9.38
272.719	8.38
273.515	9.38
274.311	8.38
275.106	7.38
275.901	10.38
276.697	6.38
277.492	8.38
278.287	10.38
279.082	9.38
279.877	9.38
280.672	10.38
281.467	8.38
282.262	9.38
283.056	9.38
283.851	9.38
284.646	11.38
285.44	10.38
286.234	9.38
287.029	10.38
287.823	8.38
288.617	11.38
289.411	9.38
290.205	9.38
290.999	10.38
291.793	10.38
292.587	10.38
293.381	12.38
294.174	10.38
294.968	9.38
295.761	7.38
296.555	8.38
297.348	9.38
298.141	11.38
298.935	9.38
299.728	9.38
300.521	9.38
301.314	8.38
302.107	9.38
302.899	8.38
303.692	7.38
304.485	7.38
305.277	7.38
306.07	7.38
306.862	6.38
307.655	9.38
308.447	5.38
309.239	5.38
310.031	6.38
310.823	6.38
311.615	7.38
312.407	6.38
313.199	7.38
313.991	5.38
314.783	4.38
315.574	4.38
316.366	5.38
317.157	5.38
317.949	2.38
318.74	4.38
319.531	4.38
320.322	4.38
321.113	7.38
321.904	3.38
322.695	6.38
323.486	2.38
324.277	3.38
325.068	5.38
325.858	4.38
326.649	2.38
327.439	4.38
328.23	4.38
329.02	4.38
329.81	3.38
330.6	4.38
331.391	2.38
332.181	5.38
332.971	-0.62
333.76	1.38
334.55	3.38
335.34	3.38
336.13	3.38
336.919	3.38
337.709	5.38
338.498	4.38
339.287	5.38
340.077	2.38
340.866	3.38
341.655	2.38
342.444	2.38
343.233	3.38
344.022	3.38
344.811	4.38
345.6	3.38
346.388	3.38
347.177	4.38
347.965	2.38
348.754	2.38
349.542	6.38
350.33	4.38
351.119	4.38
351.907	2.38
352.695	5.38
353.483	2.38
354.271	2.38
355.059	5.38
355.846	2.38
356.634	3.38
357.422	3.38
358.209	1.38
358.997	3.38
359.784	4.38
360.571	4.38
361.359	4.38
362.146	2.38
362.933	2.38
363.72	3.38
364.507	3.38
365.294	3.38
366.081	2.38
366.867	2.38
367.654	2.38
368.44	2.38
369.227	2.38
370.013	0.38
370.8	3.38
371.586	2.38
372.372	2.38
373.158	3.38
373.944	2.38
374.73	1.38
375.516	2.38
376.302	2.38
377.088	1.38
377.873	3.38
378.659	2.38
379.445	2.38
380.23	3.38
381.015	2.38
381.801	-0.62
382.586	3.38
383.371	3.38
384.156	3.38
384.941	3.38
385.726	1.38
386.511	3.38
387.296	0.38
388.08	1.38
388.865	1.38
389.649	1.38
390.434	0.38
391.218	2.38
392.003	2.38
392.787	6.38
393.571	2.38
394.355	2.38
395.139	2.38
395.923	3.38
396.707	4.38
397.491	3.38
398.274	1.38
399.058	3.38
399.842	1.38
400.625	4.38
401.408	1.38
402.192	4.38
402.975	3.38
403.758	4.38
404.541	5.38
405.324	3.38
406.107	2.38
406.89	2.38
407.673	2.38
408.456	3.38
409.238	5.38
410.021	4.38
410.803	6.38
411.586	4.38
412.368	3.38
413.151	6.38
413.933	2.38
414.715	2.38
415.497	5.38
416.279	5.38
417.061	4.38
417.843	5.38
418.624	7.38
419.406	6.38
420.188	5.38
420.969	4.38
421.751	4.38
422.532	4.38
423.313	4.38
424.095	7.38
424.876	6.38
425.657	8.38
426.438	6.38
427.219	6.38
428	5.38
428.78	6.38
429.561	7.38
430.342	5.38
431.122	7.38
431.903	9.38
432.683	7.38
433.464	8.38
434.244	8.38
435.024	6.38
435.804	8.38
436.584	7.38
437.364	10.38
438.144	9.38
438.924	11.38
439.704	13.38
440.483	8.38
441.263	13.38
442.042	11.38
442.822	12.38
443.601	12.38
444.38	14.38
445.16	15.38
445.939	17.38
446.718	18.38
447.497	19.38
448.276	21.38
449.054	21.38
449.833	25.38
450.612	28.38
451.391	26.38
452.169	27.38
452.948	31.38
453.726	38.38
454.504	39.38
455.282	43.38
456.061	49.38
456.839	53.38
457.617	57.38
458.395	66.38
459.172	75.38
459.95	82.38
460.728	91.38
461.506	101.38
462.283	111.38
463.061	123.38
463.838	133.38
464.615	149.38
465.393	167.38
466.17	186.38
466.947	205.38
467.724	229.38
468.501	257.38
469.278	288.38
470.055	308.38
470.831	359.38
471.608	391.38
472.385	430.38
473.161	472.38
473.938	528.38
474.714	570.38
475.49	635.38
476.266	713.38
477.043	769.38
477.819	852.38
478.595	935.38
479.371	1033.38
480.146	1126.38
480.922	1248.38
481.698	1386.38
482.473	1504.38
483.249	1638.38
484.024	1789.38
484.8	1960.38
485.575	2154.38
486.35	2363.38
487.126	2597.38
487.901	2834.38
488.676	3088.38
489.451	3372.38
490.225	3699.38
491	4029.38
491.775	4379.38
492.55	4796.38
493.324	5227.38
494.099	5694.38
494.873	6207.38
495.647	6704.38
496.422	7264.38
497.196	7846.38
497.97	8430.38
498.744	9079.38
499.518	9736.38
500.292	10376.38
501.066	11003.38
501.839	11620.38
502.613	12204.38
503.387	12789.38
504.16	13361.38
504.934	13831.38
505.707	14204.38
506.48	14511.38
507.253	14801.38
508.027	14915.38
508.8	15031.38
509.573	15012.38
510.346	14868.38
511.118	14707.38
511.891	14508.38
512.664	14098.38
513.437	13754.38
514.209	13369.38
514.982	12858.38
515.754	12383.38
516.526	11899.38
517.298	11423.38
518.071	10968.38
518.843	10507.38
519.615	10055.38
520.387	9652.38
521.159	9279.38
521.93	8882.38
522.702	8529.38
523.474	8214.38
524.245	7886.38
525.017	7574.38
525.788	7273.38
526.56	6972.38
527.331	6656.38
528.102	6422.38
528.873	6148.38
529.644	5895.38
530.415	5645.38
531.186	5381.38
531.957	5137.38
532.728	4903.38
533.498	4644.38
534.269	4386.38
535.039	4145.38
535.81	3941.38
536.58	3728.38
537.351	3535.38
538.121	3330.38
538.891	3160.38
539.661	2978.38
540.431	2807.38
541.201	2656.38
541.971	2510.38
542.741	2402.38
543.51	2289.38
544.28	2164.38
545.05	2039.38
545.819	1938.38
546.588	1844.38
547.358	1752.38
548.127	1681.38
548.896	1591.38
549.665	1509.38
550.434	1445.38
551.203	1360.38
551.972	1291.38
552.741	1221.38
553.51	1163.38
554.278	1103.38
555.047	1047.38
555.815	974.38
556.584	928.38
557.352	878.38
558.121	826.38
558.889	777.38
559.657	726.38
560.425	708.38
561.193	652.38
561.961	625.38
562.729	589.38
563.496	552.38
564.264	515.38
565.032	490.38
565.799	463.38
566.567	444.38
567.334	410.38
568.101	389.38
568.869	363.38
569.636	351.38
570.403	326.38
571.17	306.38
571.937	293.38
572.704	274.38
573.471	262.38
574.237	244.38
575.004	227.38
575.771	215.38
576.537	196.38
577.303	186.38
578.07	184.38
578.836	173.38
579.602	156.38
580.368	157.38
581.134	147.38
581.9	136.38
582.666	130.38
583.432	119.38
584.198	116.38
584.964	108.38
585.729	102.38
586.495	102.38
587.26	88.38
588.025	85.38
588.791	81.38
589.556	78.38
590.321	74.38
591.086	70.38
591.851	65.38
592.616	62.38
593.381	60.38
594.146	54.38
594.911	53.38
595.675	50.38
596.44	49.38
597.204	45.38
597.969	43.38
598.733	45.38
599.497	37.38
600.261	36.38
601.025	36.38
601.79	34.38
602.553	30.38
603.317	32.38
604.081	33.38
604.845	27.38
605.609	26.38
606.372	27.38
607.136	26.38
607.899	26.38
608.662	24.38
609.426	24.38
610.189	22.38
610.952	21.38
611.715	17.38
612.478	23.38
613.241	17.38
614.004	16.38
614.767	17.38
615.529	18.38
616.292	17.38
617.055	13.38
617.817	15.38
618.579	14.38
619.342	12.38
620.104	11.38
620.866	10.38
621.628	14.38
622.39	9.38
623.152	10.38
623.914	9.38
624.676	10.38
625.438	9.38
626.199	9.38
626.961	9.38
627.722	9.38
628.484	7.38
629.245	9.38
630.006	9.38
630.768	8.38
631.529	8.38
632.29	7.38
633.051	6.38
633.812	7.38
634.573	7.38
635.333	5.38
636.094	8.38
636.855	5.38
637.615	6.38
638.376	5.38
639.136	4.38
639.896	9.38
640.657	5.38
641.417	3.38
642.177	5.38
642.937	5.38
643.697	5.38
644.457	5.38
645.216	3.38
645.976	6.38
646.736	5.38
647.495	5.38
648.255	6.38
649.014	5.38
649.774	4.38
650.533	7.38
651.292	4.38
652.051	4.38
652.81	3.38
653.569	1.38
654.328	5.38
655.087	3.38
655.846	2.38
656.604	2.38
657.363	4.38
658.121	3.38
658.88	5.38
659.638	4.38
660.397	2.38
661.155	2.38
661.913	2.38
662.671	2.38
663.429	2.38
664.187	1.38
664.945	1.38
665.703	3.38
666.46	2.38
667.218	4.38
667.976	2.38
668.733	3.38
669.49	3.38
670.248	1.38
671.005	1.38
671.762	2.38
672.519	2.38
673.276	4.38
674.033	2.38
674.79	3.38
675.547	5.38
676.304	2.38
677.06	2.38
677.817	2.38
678.574	1.38
679.33	1.38
680.086	0.38
680.843	2.38
681.599	2.38
682.355	1.38
683.111	2.38
683.867	2.38
684.623	0.38
685.379	1.38
686.135	1.38
686.89	2.38
687.646	1.38
688.402	1.38
689.157	2.38
689.912	4.38
690.668	2.38
691.423	2.38
692.178	3.38
692.933	0.38
693.688	0.38
694.443	2.38
695.198	1.38
695.953	2.38
696.708	0.38
697.462	1.38
698.217	0.38
698.972	4.38
699.726	1.38
700.48	3.38
701.235	1.38
701.989	3.38
702.743	1.38
703.497	3.38
704.251	0.38
705.005	1.38
705.759	2.38
706.513	1.38
707.266	2.38
708.02	0.38
708.774	2.38
709.527	2.38
710.28	2.38
711.034	2.38
711.787	1.38
712.54	2.38
713.293	2.38
714.046	3.38
714.799	2.38
715.552	1.38
716.305	0.38
717.058	1.38
717.81	3.38
718.563	2.38
719.315	2.38
720.068	2.38
720.82	1.38
721.573	3.38
722.325	2.38
723.077	2.38
723.829	4.38
724.581	3.38
725.333	0.38
726.085	0.38
726.836	1.38
727.588	2.38
728.34	2.38
729.091	3.38
729.843	2.38
730.594	2.38
731.346	1.38
732.097	2.38
732.848	1.38
733.599	4.38
734.35	3.38
735.101	1.38
735.852	1.38
736.603	0.38
737.354	4.38
738.104	2.38
738.855	0.38
739.605	1.38
740.356	1.38
741.106	1.38
741.856	2.38
742.607	3.38
743.357	2.38
744.107	5.38
744.857	2.38
745.607	3.38
746.357	1.38
747.106	0.38
747.856	3.38
748.606	2.38
749.355	5.38
750.105	1.38
750.854	4.38
751.603	5.38
752.353	3.38
753.102	5.38
753.851	2.38
754.6	5.38
755.349	3.38
756.098	4.38
756.847	2.38
757.595	2.38
758.344	2.38
759.093	2.38
759.841	3.38
760.589	3.38
761.338	2.38
762.086	3.38
762.834	3.38
763.582	4.38
764.331	2.38
765.079	3.38
765.826	1.38
766.574	2.38
767.322	2.38
768.07	1.38
768.817	3.38
769.565	3.38
770.312	4.38
771.06	5.38
771.807	3.38
772.554	3.38
773.302	3.38
774.049	3.38
774.796	2.38
775.543	3.38
776.29	2.38
777.036	6.38
777.783	5.38
778.53	5.38
779.276	7.38
780.023	3.38
780.769	3.38
781.516	3.38
782.262	5.38
783.008	4.38
783.754	4.38
784.5	5.38
785.246	4.38
785.992	6.38
786.738	3.38
787.484	4.38
788.23	4.38
788.975	6.38
789.721	3.38
790.466	2.38
791.212	7.38
791.957	4.38
792.702	2.38
793.447	2.38
794.193	4.38
794.938	6.38
795.683	5.38
796.427	5.38
797.172	2.38
797.917	5.38
798.662	5.38
799.406	2.38
800.151	3.38
800.895	2.38
801.64	3.38
802.384	5.38
803.128	2.38
803.872	5.38
804.616	3.38
805.36	4.38
806.104	2.38
806.848	2.38
807.592	6.38
808.336	3.38
809.079	4.38
809.823	4.38
810.566	2.38
811.31	5.38
812.053	3.38
812.796	4.38
813.539	3.38
814.283	5.38
815.026	3.38
815.769	5.38
816.511	2.38
817.254	3.38
817.997	5.38
818.74	-1.62
819.482	2.38
820.225	1.38
820.967	4.38
821.71	1.38
822.452	1.38
823.194	3.38
823.936	5.38
824.678	3.38
825.42	3.38
826.162	1.38
826.904	2.38
827.646	2.38
828.388	4.38
829.129	2.38
829.871	4.38
830.612	2.38
831.354	2.38
832.095	1.38
832.836	1.38
833.577	2.38
834.319	1.38
835.06	2.38
835.801	3.38
836.542	3.38
837.282	2.38
838.023	2.38
838.764	2.38
839.504	3.38
840.245	5.38
840.985	1.38
841.726	2.38
842.466	2.38
843.206	1.38
843.946	2.38
844.687	3.38
845.427	2.38
846.166	1.38
846.906	1.38
847.646	2.38
848.386	3.38
849.125	3.38
849.865	1.38
850.605	2.38
851.344	1.38
852.083	1.38
852.823	3.38
853.562	1.38
854.301	3.38
855.04	0.38
855.779	2.38
856.518	2.38
857.257	0.38
857.995	1.38
858.734	2.38
859.473	1.38
860.211	-0.62
860.95	1.38
861.688	2.38
862.426	1.38
863.165	2.38
863.903	1.38
864.641	4.38
865.379	0.38
866.117	3.38
866.855	0.38
867.593	2.38
868.33	3.38
869.068	2.38
869.806	-0.62
870.543	1.38
871.28	-0.62
872.018	-0.62
872.755	1.38
873.492	2.38
874.229	-2.62
874.967	1.38
875.703	0.38
876.44	-0.62
877.177	1.38
877.914	-1.62
878.651	1.38
879.387	0.38
880.124	3.38
880.86	1.38
881.597	0.38
882.333	0.38
883.069	1.38
883.806	1.38
884.542	-1.62
885.278	2.38
886.014	0.38
886.749	0.38
887.485	1.38
888.221	0.38
888.957	-0.62
889.692	0.38
890.428	2.38
891.163	0.38
891.899	-0.62
892.634	-1.62
893.369	0.38
894.104	0.38
894.839	-1.62
895.574	0.38
896.309	1.38
897.044	2.38
897.779	1.38
898.514	1.38
899.248	1.38
899.983	0.38
900.717	2.38
901.452	-1.62
902.186	0.38
902.92	1.38
903.654	1.38
904.389	1.38
905.123	-0.62
905.857	-1.62
906.59	0.38
907.324	2.38
908.058	1.38
908.792	-0.62
909.525	0.38
910.259	-1.62
910.992	1.38
911.726	1.38
912.459	-0.62
913.192	-0.62
913.925	-0.62
914.658	-0.62
915.391	1.38
916.124	0.38
916.857	0.38
917.59	0.38
918.323	1.38
919.055	1.38
919.788	2.38
920.521	-1.62
921.253	1.38
921.985	1.38
922.718	-1.62
923.45	2.38
924.182	0.38
924.914	0.38
925.646	-1.62
926.378	2.38
927.11	-0.62
927.841	1.38
928.573	0.38
929.305	0.38
930.036	1.38
930.768	0.38
931.499	0.38
932.23	0.38
932.962	0.38
933.693	1.38
934.424	0.38
935.155	1.38
935.886	0.38
936.617	-1.62
937.348	0.38
938.078	0.38
938.809	1.38
939.54	-0.62
940.27	0.38
941.001	-0.62
941.731	1.38
942.461	1.38
943.191	0.38
943.922	0.38
944.652	0.38
945.382	1.38
946.112	-0.62
946.841	1.38
947.571	0.38
948.301	0.38
949.031	0.38
949.76	-0.62
950.49	2.38
951.219	0.38
951.948	1.38
952.678	-1.62
953.407	-0.62
954.136	0.38
954.865	-0.62
955.594	1.38
956.323	-2.62
957.052	-0.62
957.78	-0.62
958.509	-0.62
959.238	0.38
959.966	1.38
960.695	1.38
961.423	-2.62
962.151	1.38
962.88	1.38
963.608	1.38
964.336	1.38
965.064	-1.62
965.792	0.38
966.52	2.38
967.247	0.38
967.975	0.38
968.703	0.38
969.43	0.38
970.158	-1.62
970.885	1.38
971.613	0.38
972.34	-0.62
973.067	-1.62
973.794	-1.62
974.521	1.38
975.248	-0.62
975.975	0.38
976.702	2.38
977.429	-0.62
978.156	1.38
978.882	1.38
979.609	1.38
980.335	-0.62
981.062	-0.62
981.788	-0.62
982.514	-0.62
983.24	-1.62
983.967	-0.62
984.693	0.38
985.419	-0.62
986.144	0.38
986.87	0.38
987.596	0.38
988.322	-1.62
989.047	-0.62
989.773	1.38
990.498	-1.62
991.224	-0.62
991.949	-0.62
992.674	-1.62
993.399	-0.62
994.124	-1.62
994.849	0.38
995.574	0.38
996.299	-0.62
997.024	0.38
997.749	0.38
998.473	1.38
999.198	-1.62
999.922	-1.62
1000.647	1.38
1001.371	5.38
1002.095	-2.62
1002.82	1.38
1003.544	-1.62
1004.268	0.38
1004.992	-1.62
1005.716	-1.62
1006.439	-1.62
1007.163	0.38
1007.887	0.38
1008.611	0.38
1009.334	1.38
1010.058	1.38
1010.781	0.38
1011.504	1.38
1012.228	1.38
1012.951	2.38
1013.674	-2.62
1014.397	-2.62
1015.12	0.38
