节点500_145_QEPB04081__199__11-32-08-511.txt的数据

Date: Wed Nov 12 11:32:08 CST 2025
User: PC
Spectrometer: QEPB0408
触发模式: 0
积分时间 (秒): 1.000000E-2
Scans to average: 1
启用暗噪声校正: true
启用非线性校正: false
滑动平均宽度: 0
X轴模式: Wavelengths
Number of Pixels in Spectrum: 1044
>>>>>Begin Spectral Data<<<<<
220.843	-2
221.644	-1
222.444	0
223.244	-1
224.045	0
224.845	-2
225.645	0
226.445	1
227.245	0
228.045	2
228.845	-1
229.645	-1
230.444	0
231.244	-1
232.043	-2
232.843	1
233.642	0
234.442	-2
235.241	3
236.04	1
236.839	2
237.638	1
238.437	2
239.236	1
240.035	0
240.833	0
241.632	0
242.43	1
243.229	1
244.027	1
244.826	3
245.624	0
246.422	3
247.22	1
248.018	3
248.816	1
249.614	2
250.412	2
251.21	4
252.007	3
252.805	3
253.602	4
254.4	5
255.197	2
255.994	6
256.791	5
257.589	5
258.386	2
259.183	2
259.979	1
260.776	6
261.573	4
262.37	4
263.166	5
263.963	5
264.759	5
265.556	6
266.352	2
267.148	7
267.944	6
268.74	6
269.536	5
270.332	10
271.128	6
271.924	9
272.719	8
273.515	10
274.311	9
275.106	8
275.901	10
276.697	9
277.492	9
278.287	10
279.082	10
279.877	9
280.672	9
281.467	11
282.262	9
283.056	10
283.851	12
284.646	9
285.44	12
286.234	11
287.029	12
287.823	10
288.617	9
289.411	10
290.205	9
290.999	14
291.793	10
292.587	10
293.381	10
294.174	12
294.968	12
295.761	10
296.555	8
297.348	10
298.141	10
298.935	9
299.728	10
300.521	8
301.314	7
302.107	10
302.899	9
303.692	10
304.485	8
305.277	6
306.07	9
306.862	8
307.655	9
308.447	9
309.239	9
310.031	6
310.823	7
311.615	9
312.407	7
313.199	7
313.991	6
314.783	5
315.574	4
316.366	5
317.157	5
317.949	3
318.74	3
319.531	5
320.322	5
321.113	5
321.904	4
322.695	6
323.486	5
324.277	6
325.068	5
325.858	5
326.649	5
327.439	5
328.23	4
329.02	5
329.81	4
330.6	5
331.391	3
332.181	5
332.971	2
333.76	4
334.55	4
335.34	4
336.13	5
336.919	3
337.709	3
338.498	4
339.287	5
340.077	3
340.866	6
341.655	3
342.444	3
343.233	5
344.022	1
344.811	5
345.6	3
346.388	6
347.177	4
347.965	3
348.754	5
349.542	2
350.33	2
351.119	4
351.907	5
352.695	4
353.483	2
354.271	3
355.059	3
355.846	2
356.634	4
357.422	7
358.209	4
358.997	2
359.784	3
360.571	2
361.359	4
362.146	0
362.933	1
363.72	3
364.507	1
365.294	1
366.081	1
366.867	2
367.654	3
368.44	4
369.227	5
370.013	3
370.8	4
371.586	2
372.372	3
373.158	2
373.944	2
374.73	2
375.516	1
376.302	3
377.088	4
377.873	3
378.659	3
379.445	4
380.23	2
381.015	1
381.801	1
382.586	4
383.371	4
384.156	4
384.941	2
385.726	3
386.511	3
387.296	3
388.08	2
388.865	2
389.649	3
390.434	2
391.218	3
392.003	3
392.787	5
393.571	3
394.355	2
395.139	2
395.923	3
396.707	4
397.491	1
398.274	6
399.058	5
399.842	5
400.625	4
401.408	5
402.192	4
402.975	1
403.758	5
404.541	6
405.324	3
406.107	5
406.89	4
407.673	4
408.456	4
409.238	6
410.021	4
410.803	5
411.586	6
412.368	5
413.151	5
413.933	2
414.715	3
415.497	7
416.279	4
417.061	4
417.843	4
418.624	4
419.406	5
420.188	6
420.969	6
421.751	4
422.532	6
423.313	7
424.095	6
424.876	6
425.657	4
426.438	9
427.219	9
428	6
428.78	6
429.561	6
430.342	8
431.122	6
431.903	5
432.683	9
433.464	10
434.244	10
435.024	11
435.804	12
436.584	8
437.364	8
438.144	10
438.924	12
439.704	12
440.483	13
441.263	13
442.042	13
442.822	14
443.601	13
444.38	14
445.16	14
445.939	17
446.718	18
447.497	18
448.276	19
449.054	19
449.833	25
450.612	24
451.391	27
452.169	30
452.948	28
453.726	34
454.504	35
455.282	41
456.061	45
456.839	48
457.617	50
458.395	58
459.172	64
459.95	70
460.728	81
461.506	84
462.283	98
463.061	113
463.838	123
464.615	130
465.393	152
466.17	169
466.947	191
467.724	205
468.501	232
469.278	257
470.055	290
470.831	327
471.608	361
472.385	401
473.161	455
473.938	494
474.714	550
475.49	613
476.266	679
477.043	756
477.819	847
478.595	916
479.371	1033
480.146	1137
480.922	1270
481.698	1411
482.473	1549
483.249	1710
484.024	1874
484.8	2092
485.575	2309
486.35	2543
487.126	2830
487.901	3124
488.676	3434
489.451	3783
490.225	4164
491	4620
491.775	5076
492.55	5554
493.324	6068
494.099	6665
494.873	7317
495.647	8013
496.422	8653
497.196	9393
497.97	10113
498.744	10934
499.518	11669
500.292	12492
501.066	13187
501.839	13894
502.613	14654
503.387	15227
504.16	15766
504.934	16203
505.707	16579
506.48	16787
507.253	16995
508.027	16929
508.8	16827
509.573	16625
510.346	16300
511.118	15942
511.891	15491
512.664	14997
513.437	14442
514.209	13891
514.982	13277
515.754	12750
516.526	12157
517.298	11583
518.071	11093
518.843	10589
519.615	10138
520.387	9760
521.159	9319
521.93	8963
522.702	8600
523.474	8282
524.245	7929
525.017	7621
525.788	7310
526.56	7051
527.331	6733
528.102	6428
528.873	6134
529.644	5813
530.415	5616
531.186	5331
531.957	5028
532.728	4772
533.498	4504
534.269	4243
535.039	4021
535.81	3792
536.58	3596
537.351	3385
538.121	3211
538.891	3014
539.661	2865
540.431	2678
541.201	2578
541.971	2409
542.741	2288
543.51	2175
544.28	2060
545.05	1953
545.819	1852
546.588	1784
547.358	1702
548.127	1593
548.896	1535
549.665	1447
550.434	1384
551.203	1309
551.972	1227
552.741	1171
553.51	1099
554.278	1054
555.047	980
555.815	926
556.584	873
557.352	825
558.121	776
558.889	727
559.657	693
560.425	657
561.193	612
561.961	583
562.729	543
563.496	509
564.264	480
565.032	465
565.799	433
566.567	411
567.334	380
568.101	367
568.869	349
569.636	328
570.403	314
571.17	289
571.937	273
572.704	254
573.471	237
574.237	226
575.004	223
575.771	202
576.537	193
577.303	177
578.07	167
578.836	153
579.602	148
580.368	147
581.134	137
581.9	127
582.666	118
583.432	109
584.198	106
584.964	105
585.729	97
586.495	93
587.26	88
588.025	82
588.791	76
589.556	73
590.321	69
591.086	65
591.851	61
592.616	56
593.381	57
594.146	53
594.911	51
595.675	46
596.44	45
597.204	44
597.969	40
598.733	40
599.497	39
600.261	37
601.025	37
601.79	31
602.553	30
603.317	31
604.081	30
604.845	26
605.609	28
606.372	27
607.136	24
607.899	23
608.662	20
609.426	23
610.189	20
610.952	19
611.715	17
612.478	21
613.241	16
614.004	15
614.767	17
615.529	13
616.292	14
617.055	15
617.817	15
618.579	14
619.342	11
620.104	13
620.866	10
621.628	10
622.39	10
623.152	10
623.914	13
624.676	7
625.438	9
626.199	10
626.961	8
627.722	8
628.484	7
629.245	8
630.006	9
630.768	7
631.529	6
632.29	8
633.051	8
633.812	6
634.573	6
635.333	6
636.094	8
636.855	5
637.615	5
638.376	6
639.136	5
639.896	7
640.657	4
641.417	4
642.177	6
642.937	6
643.697	5
644.457	3
645.216	3
645.976	2
646.736	7
647.495	3
648.255	7
649.014	5
649.774	5
650.533	5
651.292	2
652.051	2
652.81	3
653.569	2
654.328	3
655.087	0
655.846	5
656.604	2
657.363	4
658.121	4
658.88	2
659.638	2
660.397	2
661.155	4
661.913	2
662.671	1
663.429	2
664.187	3
664.945	5
665.703	1
666.46	2
667.218	5
667.976	2
668.733	5
669.49	1
670.248	0
671.005	1
671.762	2
672.519	2
673.276	2
674.033	3
674.79	2
675.547	5
676.304	4
677.06	4
677.817	2
678.574	3
679.33	2
680.086	2
680.843	2
681.599	3
682.355	1
683.111	1
683.867	1
684.623	5
685.379	1
686.135	3
686.89	4
687.646	2
688.402	2
689.157	2
689.912	1
690.668	1
691.423	3
692.178	5
692.933	1
693.688	0
694.443	2
695.198	4
695.953	3
696.708	2
697.462	3
698.217	2
698.972	1
699.726	2
700.48	1
701.235	1
701.989	2
702.743	2
703.497	2
704.251	1
705.005	2
705.759	4
706.513	4
707.266	1
708.02	2
708.774	3
709.527	3
710.28	1
711.034	2
711.787	-1
712.54	1
713.293	2
714.046	2
714.799	4
715.552	1
716.305	3
717.058	1
717.81	2
718.563	1
719.315	4
720.068	3
720.82	-1
721.573	2
722.325	2
723.077	3
723.829	3
724.581	4
725.333	1
726.085	0
726.836	2
727.588	2
728.34	2
729.091	2
729.843	2
730.594	1
731.346	0
732.097	1
732.848	3
733.599	1
734.35	1
735.101	1
735.852	2
736.603	2
737.354	2
738.104	1
738.855	4
739.605	5
740.356	2
741.106	2
741.856	3
742.607	3
743.357	4
744.107	3
744.857	4
745.607	3
746.357	3
747.106	2
747.856	2
748.606	2
749.355	0
750.105	2
750.854	2
751.603	2
752.353	3
753.102	0
753.851	4
754.6	2
755.349	5
756.098	0
756.847	4
757.595	3
758.344	3
759.093	2
759.841	2
760.589	3
761.338	1
762.086	5
762.834	4
763.582	3
764.331	2
765.079	2
765.826	2
766.574	3
767.322	5
768.07	4
768.817	6
769.565	3
770.312	3
771.06	5
771.807	3
772.554	4
773.302	3
774.049	1
774.796	6
775.543	6
776.29	7
777.036	6
777.783	6
778.53	5
779.276	5
780.023	5
780.769	4
781.516	5
782.262	6
783.008	6
783.754	2
784.5	3
785.246	5
785.992	5
786.738	9
787.484	7
788.23	5
788.975	5
789.721	4
790.466	5
791.212	5
791.957	6
792.702	4
793.447	5
794.193	5
794.938	5
795.683	6
796.427	7
797.172	7
797.917	4
798.662	2
799.406	4
800.151	4
800.895	7
801.64	5
802.384	2
803.128	7
803.872	5
804.616	5
805.36	5
806.104	4
806.848	5
807.592	3
808.336	4
809.079	7
809.823	4
810.566	5
811.31	5
812.053	3
812.796	4
813.539	4
814.283	5
815.026	3
815.769	2
816.511	4
817.254	2
817.997	3
818.74	3
819.482	3
820.225	5
820.967	4
821.71	2
822.452	4
823.194	3
823.936	6
824.678	4
825.42	3
826.162	3
826.904	3
827.646	5
828.388	3
829.129	3
829.871	3
830.612	2
831.354	0
832.095	4
832.836	3
833.577	1
834.319	4
835.06	1
835.801	2
836.542	2
837.282	1
838.023	5
838.764	1
839.504	2
840.245	1
840.985	3
841.726	4
842.466	3
843.206	2
843.946	3
844.687	-2
845.427	3
846.166	4
846.906	1
847.646	2
848.386	3
849.125	2
849.865	2
850.605	0
851.344	3
852.083	2
852.823	0
853.562	3
854.301	-1
855.04	3
855.779	1
856.518	2
857.257	2
857.995	-2
858.734	1
859.473	0
860.211	3
860.95	2
861.688	2
862.426	-1
863.165	2
863.903	2
864.641	2
865.379	3
866.117	2
866.855	1
867.593	1
868.33	3
869.068	3
869.806	0
870.543	1
871.28	-1
872.018	2
872.755	-1
873.492	0
874.229	1
874.967	1
875.703	1
876.44	1
877.177	1
877.914	0
878.651	1
879.387	2
880.124	0
880.86	-1
881.597	1
882.333	0
883.069	2
883.806	0
884.542	0
885.278	1
886.014	-1
886.749	0
887.485	3
888.221	-1
888.957	-1
889.692	0
890.428	0
891.163	1
891.899	0
892.634	-1
893.369	0
894.104	-2
894.839	1
895.574	0
896.309	1
897.044	-1
897.779	-1
898.514	1
899.248	0
899.983	0
900.717	-2
901.452	0
902.186	1
902.92	-1
903.654	0
904.389	-1
905.123	1
905.857	-1
906.59	1
907.324	0
908.058	1
908.792	0
909.525	-1
910.259	0
910.992	3
911.726	1
912.459	-1
913.192	0
913.925	0
914.658	-1
915.391	2
916.124	0
916.857	0
917.59	2
918.323	-3
919.055	1
919.788	1
920.521	2
921.253	0
921.985	0
922.718	0
923.45	1
924.182	2
924.914	-2
925.646	0
926.378	0
927.11	0
927.841	1
928.573	-2
929.305	0
930.036	1
930.768	1
931.499	-2
932.23	0
932.962	0
933.693	1
934.424	2
935.155	1
935.886	0
936.617	1
937.348	1
938.078	0
938.809	0
939.54	-2
940.27	-2
941.001	0
941.731	-2
942.461	0
943.191	2
943.922	1
944.652	0
945.382	-1
946.112	0
946.841	-1
947.571	-1
948.301	0
949.031	0
949.76	1
950.49	0
951.219	0
951.948	0
952.678	-1
953.407	-1
954.136	1
954.865	3
955.594	-1
956.323	0
957.052	2
957.78	-1
958.509	-2
959.238	0
959.966	2
960.695	0
961.423	-1
962.151	-2
962.88	-1
963.608	1
964.336	-2
965.064	1
965.792	-2
966.52	2
967.247	0
967.975	1
968.703	1
969.43	0
970.158	2
970.885	0
971.613	-1
972.34	1
973.067	0
973.794	0
974.521	-4
975.248	0
975.975	-2
976.702	1
977.429	2
978.156	0
978.882	0
979.609	-1
980.335	0
981.062	1
981.788	2
982.514	2
983.24	-1
983.967	-2
984.693	-2
985.419	1
986.144	-1
986.87	1
987.596	2
988.322	0
989.047	1
989.773	-2
990.498	2
991.224	2
991.949	1
992.674	1
993.399	2
994.124	1
994.849	0
995.574	0
996.299	-1
997.024	-1
997.749	0
998.473	-2
999.198	0
999.922	-1
1000.647	1
1001.371	3
1002.095	-2
1002.82	-2
1003.544	-2
1004.268	-1
1004.992	1
1005.716	-3
1006.439	1
1007.163	-1
1007.887	0
1008.611	1
1009.334	-1
1010.058	-1
1010.781	0
1011.504	1
1012.228	-2
1012.951	2
1013.674	0
1014.397	0
1015.12	1
