节点500_145_QEPB04081__457__11-36-15-529.txt的数据

Date: Wed Nov 12 11:36:15 CST 2025
User: PC
Spectrometer: QEPB0408
触发模式: 0
积分时间 (秒): 1.000000E-2
Scans to average: 1
启用暗噪声校正: true
启用非线性校正: false
滑动平均宽度: 0
X轴模式: Wavelengths
Number of Pixels in Spectrum: 1044
>>>>>Begin Spectral Data<<<<<
220.843	-0.62
221.644	-1.62
222.444	0.38
223.244	2.38
224.045	3.38
224.845	1.38
225.645	-0.62
226.445	3.38
227.245	0.38
228.045	1.38
228.845	3.38
229.645	1.38
230.444	4.38
231.244	0.38
232.043	1.38
232.843	2.38
233.642	1.38
234.442	0.38
235.241	3.38
236.04	0.38
236.839	1.38
237.638	2.38
238.437	2.38
239.236	2.38
240.035	-0.62
240.833	2.38
241.632	2.38
242.43	1.38
243.229	3.38
244.027	1.38
244.826	3.38
245.624	1.38
246.422	2.38
247.22	3.38
248.018	1.38
248.816	4.38
249.614	2.38
250.412	4.38
251.21	3.38
252.007	3.38
252.805	2.38
253.602	1.38
254.4	6.38
255.197	4.38
255.994	5.38
256.791	3.38
257.589	3.38
258.386	7.38
259.183	2.38
259.979	6.38
260.776	5.38
261.573	4.38
262.37	4.38
263.166	4.38
263.963	6.38
264.759	5.38
265.556	7.38
266.352	6.38
267.148	7.38
267.944	7.38
268.74	5.38
269.536	7.38
270.332	6.38
271.128	7.38
271.924	9.38
272.719	7.38
273.515	8.38
274.311	8.38
275.106	8.38
275.901	8.38
276.697	8.38
277.492	5.38
278.287	9.38
279.082	10.38
279.877	11.38
280.672	9.38
281.467	10.38
282.262	12.38
283.056	8.38
283.851	10.38
284.646	9.38
285.44	10.38
286.234	12.38
287.029	11.38
287.823	12.38
288.617	9.38
289.411	10.38
290.205	8.38
290.999	9.38
291.793	11.38
292.587	14.38
293.381	12.38
294.174	11.38
294.968	10.38
295.761	7.38
296.555	9.38
297.348	9.38
298.141	8.38
298.935	11.38
299.728	9.38
300.521	8.38
301.314	9.38
302.107	7.38
302.899	9.38
303.692	8.38
304.485	11.38
305.277	9.38
306.07	11.38
306.862	8.38
307.655	6.38
308.447	12.38
309.239	8.38
310.031	8.38
310.823	7.38
311.615	6.38
312.407	7.38
313.199	6.38
313.991	8.38
314.783	8.38
315.574	9.38
316.366	4.38
317.157	3.38
317.949	5.38
318.74	7.38
319.531	5.38
320.322	5.38
321.113	5.38
321.904	5.38
322.695	5.38
323.486	6.38
324.277	5.38
325.068	6.38
325.858	5.38
326.649	7.38
327.439	4.38
328.23	6.38
329.02	6.38
329.81	2.38
330.6	4.38
331.391	5.38
332.181	2.38
332.971	3.38
333.76	6.38
334.55	3.38
335.34	3.38
336.13	4.38
336.919	4.38
337.709	3.38
338.498	5.38
339.287	4.38
340.077	3.38
340.866	2.38
341.655	6.38
342.444	2.38
343.233	3.38
344.022	4.38
344.811	2.38
345.6	2.38
346.388	3.38
347.177	4.38
347.965	4.38
348.754	3.38
349.542	4.38
350.33	3.38
351.119	1.38
351.907	5.38
352.695	6.38
353.483	3.38
354.271	5.38
355.059	5.38
355.846	2.38
356.634	4.38
357.422	3.38
358.209	4.38
358.997	2.38
359.784	4.38
360.571	6.38
361.359	3.38
362.146	4.38
362.933	3.38
363.72	5.38
364.507	5.38
365.294	3.38
366.081	3.38
366.867	0.38
367.654	4.38
368.44	4.38
369.227	5.38
370.013	4.38
370.8	4.38
371.586	3.38
372.372	2.38
373.158	4.38
373.944	3.38
374.73	3.38
375.516	4.38
376.302	3.38
377.088	4.38
377.873	3.38
378.659	2.38
379.445	3.38
380.23	5.38
381.015	4.38
381.801	3.38
382.586	5.38
383.371	2.38
384.156	3.38
384.941	5.38
385.726	2.38
386.511	5.38
387.296	2.38
388.08	3.38
388.865	1.38
389.649	5.38
390.434	3.38
391.218	6.38
392.003	3.38
392.787	4.38
393.571	5.38
394.355	3.38
395.139	4.38
395.923	3.38
396.707	4.38
397.491	5.38
398.274	3.38
399.058	5.38
399.842	4.38
400.625	3.38
401.408	1.38
402.192	3.38
402.975	4.38
403.758	3.38
404.541	4.38
405.324	6.38
406.107	4.38
406.89	3.38
407.673	3.38
408.456	6.38
409.238	7.38
410.021	6.38
410.803	5.38
411.586	4.38
412.368	5.38
413.151	5.38
413.933	5.38
414.715	5.38
415.497	4.38
416.279	6.38
417.061	2.38
417.843	8.38
418.624	4.38
419.406	8.38
420.188	4.38
420.969	5.38
421.751	6.38
422.532	5.38
423.313	8.38
424.095	6.38
424.876	9.38
425.657	6.38
426.438	8.38
427.219	9.38
428	7.38
428.78	6.38
429.561	6.38
430.342	7.38
431.122	7.38
431.903	8.38
432.683	9.38
433.464	11.38
434.244	11.38
435.024	10.38
435.804	12.38
436.584	10.38
437.364	11.38
438.144	13.38
438.924	12.38
439.704	11.38
440.483	13.38
441.263	13.38
442.042	11.38
442.822	15.38
443.601	15.38
444.38	15.38
445.16	18.38
445.939	20.38
446.718	19.38
447.497	20.38
448.276	24.38
449.054	21.38
449.833	25.38
450.612	29.38
451.391	27.38
452.169	31.38
452.948	36.38
453.726	36.38
454.504	40.38
455.282	44.38
456.061	46.38
456.839	51.38
457.617	59.38
458.395	63.38
459.172	73.38
459.95	79.38
460.728	86.38
461.506	100.38
462.283	110.38
463.061	123.38
463.838	134.38
464.615	153.38
465.393	169.38
466.17	184.38
466.947	210.38
467.724	228.38
468.501	254.38
469.278	281.38
470.055	314.38
470.831	346.38
471.608	387.38
472.385	428.38
473.161	476.38
473.938	522.38
474.714	576.38
475.49	646.38
476.266	718.38
477.043	782.38
477.819	873.38
478.595	948.38
479.371	1062.38
480.146	1163.38
480.922	1278.38
481.698	1404.38
482.473	1542.38
483.249	1704.38
484.024	1848.38
484.8	2048.38
485.575	2244.38
486.35	2460.38
487.126	2720.38
487.901	2969.38
488.676	3266.38
489.451	3587.38
490.225	3938.38
491	4285.38
491.775	4700.38
492.55	5117.38
493.324	5613.38
494.099	6103.38
494.873	6667.38
495.647	7216.38
496.422	7874.38
497.196	8507.38
497.97	9151.38
498.744	9819.38
499.518	10571.38
500.292	11202.38
501.066	11923.38
501.839	12615.38
502.613	13245.38
503.387	13858.38
504.16	14377.38
504.934	14887.38
505.707	15284.38
506.48	15553.38
507.253	15821.38
508.027	15904.38
508.8	15975.38
509.573	15868.38
510.346	15748.38
511.118	15425.38
511.891	15132.38
512.664	14735.38
513.437	14283.38
514.209	13811.38
514.982	13271.38
515.754	12739.38
516.526	12259.38
517.298	11704.38
518.071	11258.38
518.843	10730.38
519.615	10281.38
520.387	9901.38
521.159	9493.38
521.93	9095.38
522.702	8725.38
523.474	8400.38
524.245	8036.38
525.017	7749.38
525.788	7417.38
526.56	7134.38
527.331	6822.38
528.102	6549.38
528.873	6301.38
529.644	5984.38
530.415	5719.38
531.186	5440.38
531.957	5205.38
532.728	4949.38
533.498	4672.38
534.269	4444.38
535.039	4199.38
535.81	3973.38
536.58	3759.38
537.351	3558.38
538.121	3369.38
538.891	3199.38
539.661	3000.38
540.431	2847.38
541.201	2679.38
541.971	2546.38
542.741	2398.38
543.51	2287.38
544.28	2163.38
545.05	2064.38
545.819	1944.38
546.588	1863.38
547.358	1775.38
548.127	1666.38
548.896	1593.38
549.665	1527.38
550.434	1439.38
551.203	1377.38
551.972	1311.38
552.741	1219.38
553.51	1173.38
554.278	1108.38
555.047	1044.38
555.815	978.38
556.584	930.38
557.352	870.38
558.121	828.38
558.889	785.38
559.657	733.38
560.425	685.38
561.193	647.38
561.961	612.38
562.729	575.38
563.496	557.38
564.264	514.38
565.032	492.38
565.799	465.38
566.567	444.38
567.334	413.38
568.101	397.38
568.869	370.38
569.636	343.38
570.403	327.38
571.17	310.38
571.937	294.38
572.704	271.38
573.471	264.38
574.237	240.38
575.004	226.38
575.771	216.38
576.537	199.38
577.303	190.38
578.07	181.38
578.836	171.38
579.602	160.38
580.368	153.38
581.134	143.38
581.9	135.38
582.666	129.38
583.432	122.38
584.198	114.38
584.964	109.38
585.729	102.38
586.495	98.38
587.26	91.38
588.025	89.38
588.791	84.38
589.556	83.38
590.321	73.38
591.086	69.38
591.851	66.38
592.616	62.38
593.381	58.38
594.146	55.38
594.911	54.38
595.675	53.38
596.44	50.38
597.204	47.38
597.969	46.38
598.733	45.38
599.497	39.38
600.261	38.38
601.025	37.38
601.79	40.38
602.553	34.38
603.317	30.38
604.081	29.38
604.845	31.38
605.609	28.38
606.372	29.38
607.136	27.38
607.899	26.38
608.662	23.38
609.426	24.38
610.189	20.38
610.952	24.38
611.715	20.38
612.478	19.38
613.241	22.38
614.004	17.38
614.767	19.38
615.529	18.38
616.292	13.38
617.055	15.38
617.817	16.38
618.579	13.38
619.342	15.38
620.104	16.38
620.866	16.38
621.628	13.38
622.39	12.38
623.152	13.38
623.914	13.38
624.676	13.38
625.438	10.38
626.199	11.38
626.961	10.38
627.722	10.38
628.484	11.38
629.245	10.38
630.006	8.38
630.768	10.38
631.529	7.38
632.29	9.38
633.051	8.38
633.812	9.38
634.573	9.38
635.333	6.38
636.094	5.38
636.855	6.38
637.615	5.38
638.376	5.38
639.136	7.38
639.896	7.38
640.657	6.38
641.417	6.38
642.177	4.38
642.937	7.38
643.697	6.38
644.457	6.38
645.216	7.38
645.976	5.38
646.736	3.38
647.495	4.38
648.255	6.38
649.014	6.38
649.774	5.38
650.533	7.38
651.292	3.38
652.051	4.38
652.81	5.38
653.569	5.38
654.328	6.38
655.087	4.38
655.846	5.38
656.604	3.38
657.363	5.38
658.121	3.38
658.88	2.38
659.638	5.38
660.397	4.38
661.155	5.38
661.913	3.38
662.671	4.38
663.429	6.38
664.187	4.38
664.945	3.38
665.703	3.38
666.46	4.38
667.218	4.38
667.976	1.38
668.733	3.38
669.49	2.38
670.248	3.38
671.005	3.38
671.762	3.38
672.519	3.38
673.276	3.38
674.033	4.38
674.79	3.38
675.547	4.38
676.304	0.38
677.06	3.38
677.817	3.38
678.574	1.38
679.33	3.38
680.086	2.38
680.843	4.38
681.599	3.38
682.355	4.38
683.111	4.38
683.867	4.38
684.623	4.38
685.379	4.38
686.135	3.38
686.89	2.38
687.646	3.38
688.402	2.38
689.157	3.38
689.912	4.38
690.668	6.38
691.423	2.38
692.178	3.38
692.933	2.38
693.688	1.38
694.443	3.38
695.198	4.38
695.953	2.38
696.708	4.38
697.462	1.38
698.217	5.38
698.972	1.38
699.726	4.38
700.48	3.38
701.235	1.38
701.989	3.38
702.743	4.38
703.497	2.38
704.251	3.38
705.005	2.38
705.759	3.38
706.513	3.38
707.266	4.38
708.02	5.38
708.774	1.38
709.527	5.38
710.28	2.38
711.034	5.38
711.787	1.38
712.54	3.38
713.293	4.38
714.046	2.38
714.799	2.38
715.552	2.38
716.305	2.38
717.058	3.38
717.81	3.38
718.563	3.38
719.315	1.38
720.068	3.38
720.82	1.38
721.573	5.38
722.325	2.38
723.077	1.38
723.829	-0.62
724.581	5.38
725.333	1.38
726.085	1.38
726.836	2.38
727.588	4.38
728.34	2.38
729.091	4.38
729.843	1.38
730.594	3.38
731.346	1.38
732.097	2.38
732.848	3.38
733.599	1.38
734.35	2.38
735.101	1.38
735.852	3.38
736.603	4.38
737.354	3.38
738.104	0.38
738.855	-0.62
739.605	2.38
740.356	2.38
741.106	5.38
741.856	2.38
742.607	3.38
743.357	3.38
744.107	3.38
744.857	5.38
745.607	5.38
746.357	3.38
747.106	3.38
747.856	3.38
748.606	3.38
749.355	6.38
750.105	3.38
750.854	3.38
751.603	2.38
752.353	2.38
753.102	6.38
753.851	3.38
754.6	4.38
755.349	5.38
756.098	3.38
756.847	4.38
757.595	2.38
758.344	3.38
759.093	3.38
759.841	5.38
760.589	3.38
761.338	2.38
762.086	3.38
762.834	4.38
763.582	5.38
764.331	4.38
765.079	3.38
765.826	3.38
766.574	2.38
767.322	5.38
768.07	4.38
768.817	5.38
769.565	5.38
770.312	3.38
771.06	2.38
771.807	3.38
772.554	4.38
773.302	2.38
774.049	6.38
774.796	7.38
775.543	5.38
776.29	6.38
777.036	4.38
777.783	4.38
778.53	5.38
779.276	6.38
780.023	5.38
780.769	6.38
781.516	6.38
782.262	6.38
783.008	7.38
783.754	7.38
784.5	6.38
785.246	4.38
785.992	5.38
786.738	5.38
787.484	6.38
788.23	6.38
788.975	8.38
789.721	6.38
790.466	6.38
791.212	5.38
791.957	8.38
792.702	5.38
793.447	8.38
794.193	3.38
794.938	9.38
795.683	5.38
796.427	6.38
797.172	7.38
797.917	5.38
798.662	4.38
799.406	6.38
800.151	6.38
800.895	4.38
801.64	6.38
802.384	6.38
803.128	4.38
803.872	6.38
804.616	6.38
805.36	6.38
806.104	8.38
806.848	3.38
807.592	5.38
808.336	5.38
809.079	5.38
809.823	2.38
810.566	6.38
811.31	5.38
812.053	2.38
812.796	6.38
813.539	3.38
814.283	6.38
815.026	4.38
815.769	3.38
816.511	1.38
817.254	4.38
817.997	3.38
818.74	2.38
819.482	3.38
820.225	7.38
820.967	3.38
821.71	1.38
822.452	3.38
823.194	3.38
823.936	3.38
824.678	3.38
825.42	5.38
826.162	2.38
826.904	3.38
827.646	4.38
828.388	2.38
829.129	3.38
829.871	3.38
830.612	4.38
831.354	5.38
832.095	3.38
832.836	3.38
833.577	5.38
834.319	2.38
835.06	5.38
835.801	3.38
836.542	4.38
837.282	3.38
838.023	4.38
838.764	3.38
839.504	3.38
840.245	3.38
840.985	0.38
841.726	3.38
842.466	3.38
843.206	4.38
843.946	4.38
844.687	1.38
845.427	2.38
846.166	2.38
846.906	3.38
847.646	3.38
848.386	3.38
849.125	4.38
849.865	3.38
850.605	1.38
851.344	1.38
852.083	3.38
852.823	2.38
853.562	2.38
854.301	3.38
855.04	4.38
855.779	2.38
856.518	4.38
857.257	3.38
857.995	4.38
858.734	3.38
859.473	4.38
860.211	1.38
860.95	2.38
861.688	1.38
862.426	2.38
863.165	1.38
863.903	2.38
864.641	2.38
865.379	0.38
866.117	2.38
866.855	4.38
867.593	3.38
868.33	2.38
869.068	2.38
869.806	0.38
870.543	4.38
871.28	2.38
872.018	4.38
872.755	2.38
873.492	0.38
874.229	1.38
874.967	2.38
875.703	2.38
876.44	2.38
877.177	-0.62
877.914	0.38
878.651	1.38
879.387	-0.62
880.124	0.38
880.86	1.38
881.597	1.38
882.333	2.38
883.069	1.38
883.806	3.38
884.542	1.38
885.278	3.38
886.014	2.38
886.749	1.38
887.485	3.38
888.221	2.38
888.957	1.38
889.692	1.38
890.428	-0.62
891.163	1.38
891.899	0.38
892.634	0.38
893.369	0.38
894.104	1.38
894.839	1.38
895.574	2.38
896.309	3.38
897.044	3.38
897.779	2.38
898.514	1.38
899.248	2.38
899.983	0.38
900.717	3.38
901.452	2.38
902.186	1.38
902.92	3.38
903.654	1.38
904.389	4.38
905.123	-1.62
905.857	1.38
906.59	1.38
907.324	-0.62
908.058	1.38
908.792	1.38
909.525	1.38
910.259	1.38
910.992	2.38
911.726	1.38
912.459	-1.62
913.192	1.38
913.925	0.38
914.658	2.38
915.391	0.38
916.124	2.38
916.857	1.38
917.59	1.38
918.323	-0.62
919.055	1.38
919.788	4.38
920.521	0.38
921.253	2.38
921.985	1.38
922.718	0.38
923.45	1.38
924.182	2.38
924.914	1.38
925.646	3.38
926.378	0.38
927.11	-0.62
927.841	-1.62
928.573	3.38
929.305	1.38
930.036	1.38
930.768	0.38
931.499	3.38
932.23	-0.62
932.962	1.38
933.693	1.38
934.424	-0.62
935.155	2.38
935.886	1.38
936.617	1.38
937.348	-0.62
938.078	1.38
938.809	2.38
939.54	-0.62
940.27	3.38
941.001	-0.62
941.731	-0.62
942.461	1.38
943.191	0.38
943.922	-0.62
944.652	0.38
945.382	0.38
946.112	1.38
946.841	-0.62
947.571	1.38
948.301	-0.62
949.031	1.38
949.76	-1.62
950.49	2.38
951.219	3.38
951.948	0.38
952.678	1.38
953.407	2.38
954.136	1.38
954.865	1.38
955.594	2.38
956.323	3.38
957.052	1.38
957.78	1.38
958.509	0.38
959.238	2.38
959.966	-1.62
960.695	2.38
961.423	1.38
962.151	-0.62
962.88	5.38
963.608	1.38
964.336	0.38
965.064	0.38
965.792	3.38
966.52	2.38
967.247	1.38
967.975	3.38
968.703	2.38
969.43	2.38
970.158	-0.62
970.885	1.38
971.613	-0.62
972.34	0.38
973.067	-1.62
973.794	0.38
974.521	0.38
975.248	0.38
975.975	0.38
976.702	1.38
977.429	-0.62
978.156	1.38
978.882	0.38
979.609	2.38
980.335	3.38
981.062	-0.62
981.788	1.38
982.514	1.38
983.24	0.38
983.967	-0.62
984.693	1.38
985.419	2.38
986.144	2.38
986.87	0.38
987.596	-2.62
988.322	0.38
989.047	1.38
989.773	2.38
990.498	0.38
991.224	2.38
991.949	2.38
992.674	-2.62
993.399	3.38
994.124	0.38
994.849	1.38
995.574	0.38
996.299	0.38
997.024	3.38
997.749	2.38
998.473	2.38
999.198	-1.62
999.922	1.38
1000.647	-0.62
1001.371	3.38
1002.095	-1.62
1002.82	-1.62
1003.544	-2.62
1004.268	-0.62
1004.992	-0.62
1005.716	1.38
1006.439	1.38
1007.163	0.38
1007.887	2.38
1008.611	0.38
1009.334	2.38
1010.058	-0.62
1010.781	2.38
1011.504	-0.62
1012.228	2.38
1012.951	-0.62
1013.674	1.38
1014.397	1.38
1015.12	0.38
