节点500_145_QEPB04081__536__11-37-27-477.txt的数据

Date: Wed Nov 12 11:37:27 CST 2025
User: PC
Spectrometer: QEPB0408
触发模式: 0
积分时间 (秒): 1.000000E-2
Scans to average: 1
启用暗噪声校正: true
启用非线性校正: false
滑动平均宽度: 0
X轴模式: Wavelengths
Number of Pixels in Spectrum: 1044
>>>>>Begin Spectral Data<<<<<
220.843	-1
221.644	-2
222.444	-2
223.244	3
224.045	-1
224.845	2
225.645	2
226.445	2
227.245	0
228.045	0
228.845	-1
229.645	-2
230.444	1
231.244	2
232.043	0
232.843	0
233.642	1
234.442	1
235.241	2
236.04	2
236.839	2
237.638	1
238.437	-1
239.236	1
240.035	3
240.833	0
241.632	1
242.43	1
243.229	-1
244.027	-1
244.826	0
245.624	1
246.422	-1
247.22	3
248.018	3
248.816	2
249.614	2
250.412	3
251.21	3
252.007	1
252.805	2
253.602	4
254.4	2
255.197	2
255.994	5
256.791	4
257.589	3
258.386	5
259.183	1
259.979	7
260.776	6
261.573	4
262.37	6
263.166	4
263.963	7
264.759	4
265.556	6
266.352	5
267.148	5
267.944	7
268.74	3
269.536	7
270.332	6
271.128	8
271.924	9
272.719	7
273.515	6
274.311	8
275.106	8
275.901	8
276.697	7
277.492	7
278.287	9
279.082	10
279.877	10
280.672	11
281.467	7
282.262	8
283.056	11
283.851	11
284.646	13
285.44	9
286.234	10
287.029	9
287.823	10
288.617	11
289.411	9
290.205	12
290.999	10
291.793	10
292.587	9
293.381	9
294.174	8
294.968	9
295.761	9
296.555	12
297.348	10
298.141	12
298.935	11
299.728	11
300.521	8
301.314	11
302.107	8
302.899	9
303.692	7
304.485	10
305.277	8
306.07	9
306.862	8
307.655	9
308.447	7
309.239	8
310.031	8
310.823	6
311.615	7
312.407	7
313.199	8
313.991	7
314.783	8
315.574	7
316.366	6
317.157	7
317.949	9
318.74	6
319.531	5
320.322	4
321.113	6
321.904	7
322.695	4
323.486	5
324.277	5
325.068	5
325.858	3
326.649	5
327.439	5
328.23	4
329.02	3
329.81	3
330.6	4
331.391	6
332.181	2
332.971	4
333.76	5
334.55	6
335.34	7
336.13	4
336.919	6
337.709	5
338.498	5
339.287	2
340.077	4
340.866	5
341.655	3
342.444	4
343.233	4
344.022	4
344.811	6
345.6	2
346.388	4
347.177	4
347.965	3
348.754	2
349.542	3
350.33	4
351.119	5
351.907	5
352.695	2
353.483	4
354.271	3
355.059	4
355.846	3
356.634	3
357.422	3
358.209	2
358.997	4
359.784	3
360.571	4
361.359	3
362.146	3
362.933	5
363.72	2
364.507	3
365.294	2
366.081	5
366.867	3
367.654	3
368.44	3
369.227	3
370.013	5
370.8	3
371.586	4
372.372	5
373.158	4
373.944	4
374.73	4
375.516	3
376.302	4
377.088	4
377.873	4
378.659	3
379.445	2
380.23	2
381.015	3
381.801	4
382.586	3
383.371	2
384.156	2
384.941	5
385.726	2
386.511	6
387.296	2
388.08	3
388.865	5
389.649	2
390.434	5
391.218	3
392.003	5
392.787	3
393.571	3
394.355	3
395.139	3
395.923	3
396.707	2
397.491	5
398.274	4
399.058	6
399.842	6
400.625	3
401.408	4
402.192	3
402.975	7
403.758	5
404.541	2
405.324	3
406.107	4
406.89	4
407.673	4
408.456	4
409.238	4
410.021	4
410.803	7
411.586	6
412.368	6
413.151	6
413.933	6
414.715	6
415.497	5
416.279	7
417.061	2
417.843	6
418.624	4
419.406	8
420.188	5
420.969	4
421.751	7
422.532	8
423.313	6
424.095	5
424.876	9
425.657	6
426.438	7
427.219	7
428	5
428.78	9
429.561	6
430.342	8
431.122	9
431.903	7
432.683	9
433.464	4
434.244	9
435.024	9
435.804	9
436.584	8
437.364	10
438.144	11
438.924	10
439.704	12
440.483	14
441.263	13
442.042	13
442.822	14
443.601	15
444.38	14
445.16	15
445.939	17
446.718	20
447.497	22
448.276	24
449.054	22
449.833	24
450.612	26
451.391	32
452.169	32
452.948	34
453.726	38
454.504	40
455.282	46
456.061	53
456.839	51
457.617	63
458.395	65
459.172	72
459.95	80
460.728	87
461.506	100
462.283	114
463.061	119
463.838	139
464.615	151
465.393	165
466.17	187
466.947	214
467.724	232
468.501	249
469.278	286
470.055	318
470.831	358
471.608	384
472.385	432
473.161	484
473.938	527
474.714	600
475.49	648
476.266	725
477.043	793
477.819	876
478.595	953
479.371	1048
480.146	1171
480.922	1275
481.698	1398
482.473	1541
483.249	1691
484.024	1846
484.8	2030
485.575	2247
486.35	2439
487.126	2690
487.901	2958
488.676	3201
489.451	3529
490.225	3861
491	4197
491.775	4583
492.55	5020
493.324	5477
494.099	5992
494.873	6530
495.647	7061
496.422	7647
497.196	8250
497.97	8911
498.744	9563
499.518	10240
500.292	10945
501.066	11563
501.839	12268
502.613	12874
503.387	13464
504.16	14027
504.934	14486
505.707	14892
506.48	15252
507.253	15481
508.027	15617
508.8	15707
509.573	15626
510.346	15484
511.118	15234
511.891	14979
512.664	14528
513.437	14186
514.209	13716
514.982	13228
515.754	12735
516.526	12220
517.298	11680
518.071	11202
518.843	10714
519.615	10267
520.387	9859
521.159	9440
521.93	9073
522.702	8682
523.474	8368
524.245	8054
525.017	7696
525.788	7421
526.56	7104
527.331	6838
528.102	6517
528.873	6271
529.644	5966
530.415	5729
531.186	5477
531.957	5187
532.728	4938
533.498	4698
534.269	4465
535.039	4199
535.81	3995
536.58	3789
537.351	3576
538.121	3371
538.891	3192
539.661	3018
540.431	2859
541.201	2695
541.971	2568
542.741	2427
543.51	2295
544.28	2183
545.05	2088
545.819	1974
546.588	1861
547.358	1787
548.127	1697
548.896	1604
549.665	1537
550.434	1453
551.203	1373
551.972	1312
552.741	1242
553.51	1158
554.278	1122
555.047	1056
555.815	987
556.584	935
557.352	877
558.121	841
558.889	788
559.657	748
560.425	695
561.193	651
561.961	624
562.729	595
563.496	566
564.264	524
565.032	496
565.799	468
566.567	445
567.334	423
568.101	400
568.869	379
569.636	354
570.403	335
571.17	316
571.937	289
572.704	286
573.471	259
574.237	246
575.004	228
575.771	225
576.537	206
577.303	194
578.07	185
578.836	175
579.602	168
580.368	157
581.134	145
581.9	137
582.666	129
583.432	123
584.198	118
584.964	109
585.729	102
586.495	100
587.26	91
588.025	89
588.791	81
589.556	78
590.321	76
591.086	68
591.851	67
592.616	63
593.381	59
594.146	62
594.911	54
595.675	53
596.44	49
597.204	47
597.969	47
598.733	42
599.497	42
600.261	41
601.025	41
601.79	35
602.553	35
603.317	33
604.081	31
604.845	32
605.609	29
606.372	30
607.136	28
607.899	25
608.662	23
609.426	21
610.189	24
610.952	18
611.715	25
612.478	18
613.241	21
614.004	16
614.767	13
615.529	17
616.292	17
617.055	17
617.817	17
618.579	14
619.342	13
620.104	14
620.866	14
621.628	11
622.39	12
623.152	10
623.914	10
624.676	10
625.438	11
626.199	11
626.961	9
627.722	9
628.484	11
629.245	7
630.006	9
630.768	9
631.529	11
632.29	7
633.051	9
633.812	8
634.573	7
635.333	7
636.094	6
636.855	7
637.615	7
638.376	7
639.136	8
639.896	6
640.657	3
641.417	5
642.177	3
642.937	5
643.697	4
644.457	7
645.216	5
645.976	4
646.736	3
647.495	5
648.255	4
649.014	5
649.774	5
650.533	4
651.292	5
652.051	2
652.81	5
653.569	6
654.328	5
655.087	5
655.846	3
656.604	4
657.363	3
658.121	6
658.88	4
659.638	5
660.397	4
661.155	3
661.913	6
662.671	2
663.429	4
664.187	3
664.945	6
665.703	5
666.46	1
667.218	5
667.976	7
668.733	2
669.49	2
670.248	3
671.005	2
671.762	4
672.519	4
673.276	2
674.033	3
674.79	4
675.547	3
676.304	4
677.06	3
677.817	3
678.574	3
679.33	4
680.086	3
680.843	4
681.599	1
682.355	3
683.111	3
683.867	3
684.623	4
685.379	6
686.135	2
686.89	5
687.646	2
688.402	6
689.157	4
689.912	3
690.668	2
691.423	3
692.178	3
692.933	3
693.688	3
694.443	3
695.198	3
695.953	4
696.708	5
697.462	3
698.217	3
698.972	2
699.726	2
700.48	4
701.235	2
701.989	1
702.743	2
703.497	2
704.251	5
705.005	2
705.759	3
706.513	4
707.266	2
708.02	3
708.774	2
709.527	3
710.28	3
711.034	2
711.787	3
712.54	2
713.293	2
714.046	2
714.799	2
715.552	1
716.305	5
717.058	4
717.81	2
718.563	2
719.315	0
720.068	4
720.82	3
721.573	3
722.325	3
723.077	1
723.829	1
724.581	3
725.333	2
726.085	3
726.836	2
727.588	2
728.34	2
729.091	6
729.843	2
730.594	0
731.346	4
732.097	3
732.848	4
733.599	3
734.35	5
735.101	6
735.852	4
736.603	3
737.354	2
738.104	3
738.855	2
739.605	3
740.356	1
741.106	2
741.856	1
742.607	3
743.357	3
744.107	3
744.857	4
745.607	2
746.357	5
747.106	2
747.856	4
748.606	3
749.355	4
750.105	3
750.854	5
751.603	2
752.353	5
753.102	1
753.851	1
754.6	4
755.349	3
756.098	4
756.847	5
757.595	5
758.344	3
759.093	3
759.841	3
760.589	4
761.338	3
762.086	6
762.834	3
763.582	2
764.331	3
765.079	4
765.826	3
766.574	4
767.322	4
768.07	3
768.817	3
769.565	3
770.312	4
771.06	5
771.807	6
772.554	4
773.302	3
774.049	7
774.796	6
775.543	2
776.29	4
777.036	5
777.783	4
778.53	4
779.276	4
780.023	5
780.769	5
781.516	5
782.262	1
783.008	6
783.754	5
784.5	6
785.246	5
785.992	1
786.738	5
787.484	3
788.23	6
788.975	4
789.721	6
790.466	6
791.212	3
791.957	7
792.702	5
793.447	6
794.193	5
794.938	6
795.683	4
796.427	4
797.172	5
797.917	8
798.662	5
799.406	4
800.151	5
800.895	4
801.64	4
802.384	7
803.128	5
803.872	5
804.616	5
805.36	6
806.104	5
806.848	6
807.592	6
808.336	4
809.079	5
809.823	4
810.566	3
811.31	7
812.053	2
812.796	5
813.539	3
814.283	5
815.026	5
815.769	1
816.511	4
817.254	5
817.997	2
818.74	5
819.482	2
820.225	6
820.967	5
821.71	3
822.452	5
823.194	3
823.936	5
824.678	2
825.42	3
826.162	3
826.904	2
827.646	3
828.388	2
829.129	4
829.871	2
830.612	5
831.354	2
832.095	2
832.836	4
833.577	4
834.319	4
835.06	2
835.801	4
836.542	2
837.282	4
838.023	1
838.764	2
839.504	2
840.245	2
840.985	4
841.726	2
842.466	2
843.206	2
843.946	2
844.687	3
845.427	1
846.166	2
846.906	2
847.646	5
848.386	4
849.125	3
849.865	4
850.605	1
851.344	3
852.083	3
852.823	3
853.562	4
854.301	1
855.04	1
855.779	1
856.518	2
857.257	1
857.995	2
858.734	0
859.473	4
860.211	2
860.95	3
861.688	2
862.426	3
863.165	4
863.903	2
864.641	2
865.379	2
866.117	0
866.855	1
867.593	0
868.33	2
869.068	2
869.806	1
870.543	3
871.28	-1
872.018	3
872.755	2
873.492	0
874.229	0
874.967	3
875.703	2
876.44	1
877.177	4
877.914	-1
878.651	3
879.387	2
880.124	2
880.86	3
881.597	2
882.333	3
883.069	0
883.806	3
884.542	3
885.278	3
886.014	2
886.749	1
887.485	-1
888.221	1
888.957	-1
889.692	4
890.428	2
891.163	1
891.899	1
892.634	2
893.369	2
894.104	1
894.839	1
895.574	2
896.309	0
897.044	1
897.779	2
898.514	-1
899.248	2
899.983	3
900.717	1
901.452	1
902.186	0
902.92	3
903.654	3
904.389	0
905.123	1
905.857	-1
906.59	0
907.324	2
908.058	3
908.792	3
909.525	-1
910.259	0
910.992	-2
911.726	0
912.459	0
913.192	2
913.925	1
914.658	0
915.391	0
916.124	-2
916.857	1
917.59	-1
918.323	1
919.055	1
919.788	3
920.521	3
921.253	-2
921.985	2
922.718	2
923.45	0
924.182	1
924.914	-1
925.646	2
926.378	1
927.11	2
927.841	2
928.573	0
929.305	1
930.036	-1
930.768	2
931.499	-1
932.23	2
932.962	1
933.693	2
934.424	-1
935.155	1
935.886	1
936.617	-1
937.348	1
938.078	0
938.809	2
939.54	-1
940.27	-1
941.001	3
941.731	2
942.461	2
943.191	1
943.922	0
944.652	-2
945.382	0
946.112	0
946.841	2
947.571	0
948.301	2
949.031	0
949.76	0
950.49	1
951.219	2
951.948	1
952.678	1
953.407	2
954.136	1
954.865	1
955.594	1
956.323	1
957.052	2
957.78	0
958.509	1
959.238	1
959.966	1
960.695	-1
961.423	-1
962.151	1
962.88	3
963.608	-1
964.336	1
965.064	2
965.792	0
966.52	2
967.247	0
967.975	2
968.703	0
969.43	1
970.158	3
970.885	-1
971.613	-1
972.34	1
973.067	-1
973.794	2
974.521	3
975.248	2
975.975	0
976.702	0
977.429	-1
978.156	3
978.882	1
979.609	1
980.335	2
981.062	-1
981.788	1
982.514	4
983.24	-1
983.967	1
984.693	1
985.419	1
986.144	-1
986.87	-1
987.596	0
988.322	2
989.047	2
989.773	0
990.498	2
991.224	0
991.949	2
992.674	2
993.399	3
994.124	-1
994.849	1
995.574	1
996.299	1
997.024	0
997.749	1
998.473	2
999.198	1
999.922	0
1000.647	1
1001.371	3
1002.095	0
1002.82	1
1003.544	-3
1004.268	-2
1004.992	2
1005.716	-1
1006.439	-1
1007.163	0
1007.887	-1
1008.611	1
1009.334	1
1010.058	1
1010.781	0
1011.504	2
1012.228	0
1012.951	0
1013.674	-1
1014.397	1
1015.12	-1
