节点500_145_QEPB04081__137__11-31-07-630.txt的数据

Date: Wed Nov 12 11:31:07 CST 2025
User: PC
Spectrometer: QEPB0408
触发模式: 0
积分时间 (秒): 1.000000E-2
Scans to average: 1
启用暗噪声校正: true
启用非线性校正: false
滑动平均宽度: 0
X轴模式: Wavelengths
Number of Pixels in Spectrum: 1044
>>>>>Begin Spectral Data<<<<<
220.843	0.5
221.644	0.5
222.444	0.5
223.244	-0.5
224.045	0.5
224.845	0.5
225.645	0.5
226.445	0.5
227.245	-1.5
228.045	-0.5
228.845	1.5
229.645	1.5
230.444	1.5
231.244	0.5
232.043	0.5
232.843	0.5
233.642	1.5
234.442	2.5
235.241	0.5
236.04	1.5
236.839	3.5
237.638	0.5
238.437	-0.5
239.236	0.5
240.035	-0.5
240.833	1.5
241.632	3.5
242.43	2.5
243.229	2.5
244.027	3.5
244.826	-0.5
245.624	2.5
246.422	1.5
247.22	2.5
248.018	2.5
248.816	0.5
249.614	1.5
250.412	0.5
251.21	2.5
252.007	0.5
252.805	4.5
253.602	2.5
254.4	5.5
255.197	3.5
255.994	3.5
256.791	4.5
257.589	4.5
258.386	4.5
259.183	3.5
259.979	3.5
260.776	3.5
261.573	8.5
262.37	4.5
263.166	5.5
263.963	8.5
264.759	5.5
265.556	5.5
266.352	7.5
267.148	7.5
267.944	7.5
268.74	7.5
269.536	6.5
270.332	8.5
271.128	7.5
271.924	7.5
272.719	9.5
273.515	10.5
274.311	11.5
275.106	9.5
275.901	11.5
276.697	6.5
277.492	10.5
278.287	7.5
279.082	10.5
279.877	10.5
280.672	10.5
281.467	8.5
282.262	11.5
283.056	10.5
283.851	11.5
284.646	11.5
285.44	10.5
286.234	11.5
287.029	10.5
287.823	10.5
288.617	11.5
289.411	14.5
290.205	12.5
290.999	11.5
291.793	11.5
292.587	14.5
293.381	13.5
294.174	11.5
294.968	12.5
295.761	11.5
296.555	11.5
297.348	7.5
298.141	10.5
298.935	13.5
299.728	11.5
300.521	8.5
301.314	8.5
302.107	7.5
302.899	7.5
303.692	10.5
304.485	8.5
305.277	9.5
306.07	8.5
306.862	9.5
307.655	9.5
308.447	7.5
309.239	12.5
310.031	9.5
310.823	6.5
311.615	10.5
312.407	6.5
313.199	5.5
313.991	5.5
314.783	5.5
315.574	7.5
316.366	4.5
317.157	2.5
317.949	5.5
318.74	4.5
319.531	6.5
320.322	7.5
321.113	4.5
321.904	2.5
322.695	5.5
323.486	5.5
324.277	5.5
325.068	5.5
325.858	4.5
326.649	6.5
327.439	3.5
328.23	3.5
329.02	4.5
329.81	4.5
330.6	3.5
331.391	3.5
332.181	3.5
332.971	4.5
333.76	2.5
334.55	1.5
335.34	5.5
336.13	5.5
336.919	6.5
337.709	3.5
338.498	2.5
339.287	3.5
340.077	4.5
340.866	7.5
341.655	2.5
342.444	4.5
343.233	1.5
344.022	2.5
344.811	2.5
345.6	3.5
346.388	2.5
347.177	4.5
347.965	4.5
348.754	3.5
349.542	4.5
350.33	4.5
351.119	3.5
351.907	4.5
352.695	3.5
353.483	2.5
354.271	2.5
355.059	4.5
355.846	5.5
356.634	3.5
357.422	2.5
358.209	5.5
358.997	4.5
359.784	3.5
360.571	2.5
361.359	3.5
362.146	1.5
362.933	2.5
363.72	2.5
364.507	2.5
365.294	4.5
366.081	2.5
366.867	2.5
367.654	5.5
368.44	2.5
369.227	2.5
370.013	1.5
370.8	5.5
371.586	3.5
372.372	1.5
373.158	5.5
373.944	2.5
374.73	5.5
375.516	2.5
376.302	2.5
377.088	4.5
377.873	3.5
378.659	2.5
379.445	3.5
380.23	1.5
381.015	4.5
381.801	3.5
382.586	4.5
383.371	2.5
384.156	3.5
384.941	2.5
385.726	2.5
386.511	2.5
387.296	1.5
388.08	4.5
388.865	3.5
389.649	4.5
390.434	4.5
391.218	3.5
392.003	2.5
392.787	3.5
393.571	2.5
394.355	4.5
395.139	4.5
395.923	2.5
396.707	2.5
397.491	3.5
398.274	3.5
399.058	2.5
399.842	5.5
400.625	6.5
401.408	3.5
402.192	4.5
402.975	2.5
403.758	4.5
404.541	6.5
405.324	3.5
406.107	4.5
406.89	2.5
407.673	2.5
408.456	5.5
409.238	5.5
410.021	4.5
410.803	4.5
411.586	5.5
412.368	2.5
413.151	3.5
413.933	7.5
414.715	5.5
415.497	4.5
416.279	3.5
417.061	6.5
417.843	4.5
418.624	5.5
419.406	5.5
420.188	5.5
420.969	6.5
421.751	5.5
422.532	7.5
423.313	5.5
424.095	5.5
424.876	7.5
425.657	6.5
426.438	5.5
427.219	7.5
428	7.5
428.78	9.5
429.561	5.5
430.342	6.5
431.122	7.5
431.903	8.5
432.683	9.5
433.464	10.5
434.244	9.5
435.024	10.5
435.804	8.5
436.584	9.5
437.364	11.5
438.144	11.5
438.924	11.5
439.704	11.5
440.483	12.5
441.263	13.5
442.042	14.5
442.822	11.5
443.601	14.5
444.38	16.5
445.16	17.5
445.939	15.5
446.718	18.5
447.497	19.5
448.276	19.5
449.054	19.5
449.833	21.5
450.612	24.5
451.391	27.5
452.169	27.5
452.948	30.5
453.726	34.5
454.504	37.5
455.282	39.5
456.061	42.5
456.839	48.5
457.617	53.5
458.395	56.5
459.172	65.5
459.95	66.5
460.728	78.5
461.506	84.5
462.283	94.5
463.061	105.5
463.838	116.5
464.615	140.5
465.393	149.5
466.17	165.5
466.947	182.5
467.724	207.5
468.501	227.5
469.278	257.5
470.055	286.5
470.831	321.5
471.608	353.5
472.385	400.5
473.161	438.5
473.938	489.5
474.714	546.5
475.49	608.5
476.266	677.5
477.043	741.5
477.819	827.5
478.595	934.5
479.371	1033.5
480.146	1149.5
480.922	1268.5
481.698	1399.5
482.473	1557.5
483.249	1724.5
484.024	1913.5
484.8	2110.5
485.575	2324.5
486.35	2579.5
487.126	2849.5
487.901	3166.5
488.676	3502.5
489.451	3851.5
490.225	4277.5
491	4711.5
491.775	5200.5
492.55	5681.5
493.324	6252.5
494.099	6884.5
494.873	7555.5
495.647	8211.5
496.422	8939.5
497.196	9701.5
497.97	10458.5
498.744	11268.5
499.518	12059.5
500.292	12814.5
501.066	13575.5
501.839	14314.5
502.613	15018.5
503.387	15653.5
504.16	16154.5
504.934	16623.5
505.707	16942.5
506.48	17099.5
507.253	17201.5
508.027	17262.5
508.8	17120.5
509.573	16766.5
510.346	16506.5
511.118	16073.5
511.891	15586.5
512.664	15014.5
513.437	14512.5
514.209	13895.5
514.982	13324.5
515.754	12652.5
516.526	12109.5
517.298	11533.5
518.071	11044.5
518.843	10568.5
519.615	10078.5
520.387	9666.5
521.159	9283.5
521.93	8929.5
522.702	8547.5
523.474	8225.5
524.245	7977.5
525.017	7601.5
525.788	7274.5
526.56	7013.5
527.331	6737.5
528.102	6409.5
528.873	6087.5
529.644	5840.5
530.415	5540.5
531.186	5273.5
531.957	5010.5
532.728	4708.5
533.498	4479.5
534.269	4214.5
535.039	4004.5
535.81	3761.5
536.58	3541.5
537.351	3337.5
538.121	3164.5
538.891	2988.5
539.661	2812.5
540.431	2674.5
541.201	2515.5
541.971	2408.5
542.741	2269.5
543.51	2154.5
544.28	2049.5
545.05	1939.5
545.819	1851.5
546.588	1755.5
547.358	1670.5
548.127	1581.5
548.896	1496.5
549.665	1435.5
550.434	1354.5
551.203	1293.5
551.972	1206.5
552.741	1162.5
553.51	1096.5
554.278	1020.5
555.047	973.5
555.815	921.5
556.584	859.5
557.352	818.5
558.121	764.5
558.889	727.5
559.657	675.5
560.425	631.5
561.193	600.5
561.961	571.5
562.729	528.5
563.496	502.5
564.264	473.5
565.032	449.5
565.799	432.5
566.567	402.5
567.334	381.5
568.101	360.5
568.869	343.5
569.636	311.5
570.403	302.5
571.17	283.5
571.937	268.5
572.704	249.5
573.471	237.5
574.237	225.5
575.004	207.5
575.771	202.5
576.537	186.5
577.303	177.5
578.07	165.5
578.836	158.5
579.602	145.5
580.368	134.5
581.134	133.5
581.9	125.5
582.666	118.5
583.432	112.5
584.198	103.5
584.964	98.5
585.729	95.5
586.495	89.5
587.26	87.5
588.025	76.5
588.791	74.5
589.556	67.5
590.321	65.5
591.086	64.5
591.851	57.5
592.616	55.5
593.381	52.5
594.146	47.5
594.911	49.5
595.675	46.5
596.44	47.5
597.204	43.5
597.969	41.5
598.733	40.5
599.497	39.5
600.261	35.5
601.025	33.5
601.79	34.5
602.553	32.5
603.317	27.5
604.081	28.5
604.845	25.5
605.609	28.5
606.372	25.5
607.136	21.5
607.899	23.5
608.662	22.5
609.426	22.5
610.189	20.5
610.952	18.5
611.715	18.5
612.478	17.5
613.241	19.5
614.004	15.5
614.767	16.5
615.529	15.5
616.292	15.5
617.055	17.5
617.817	13.5
618.579	12.5
619.342	13.5
620.104	13.5
620.866	9.5
621.628	12.5
622.39	12.5
623.152	9.5
623.914	12.5
624.676	10.5
625.438	11.5
626.199	9.5
626.961	8.5
627.722	10.5
628.484	9.5
629.245	7.5
630.006	9.5
630.768	7.5
631.529	8.5
632.29	9.5
633.051	8.5
633.812	7.5
634.573	7.5
635.333	5.5
636.094	7.5
636.855	6.5
637.615	6.5
638.376	7.5
639.136	5.5
639.896	6.5
640.657	7.5
641.417	5.5
642.177	6.5
642.937	6.5
643.697	4.5
644.457	5.5
645.216	8.5
645.976	4.5
646.736	2.5
647.495	4.5
648.255	4.5
649.014	5.5
649.774	3.5
650.533	5.5
651.292	4.5
652.051	5.5
652.81	2.5
653.569	3.5
654.328	4.5
655.087	2.5
655.846	3.5
656.604	2.5
657.363	3.5
658.121	4.5
658.88	3.5
659.638	4.5
660.397	4.5
661.155	3.5
661.913	3.5
662.671	3.5
663.429	3.5
664.187	3.5
664.945	3.5
665.703	2.5
666.46	5.5
667.218	3.5
667.976	1.5
668.733	2.5
669.49	1.5
670.248	3.5
671.005	2.5
671.762	3.5
672.519	3.5
673.276	1.5
674.033	3.5
674.79	-0.5
675.547	2.5
676.304	3.5
677.06	3.5
677.817	4.5
678.574	0.5
679.33	2.5
680.086	1.5
680.843	3.5
681.599	3.5
682.355	2.5
683.111	3.5
683.867	1.5
684.623	3.5
685.379	3.5
686.135	1.5
686.89	2.5
687.646	1.5
688.402	0.5
689.157	2.5
689.912	2.5
690.668	1.5
691.423	2.5
692.178	4.5
692.933	1.5
693.688	3.5
694.443	2.5
695.198	4.5
695.953	3.5
696.708	1.5
697.462	2.5
698.217	1.5
698.972	3.5
699.726	1.5
700.48	2.5
701.235	3.5
701.989	0.5
702.743	2.5
703.497	1.5
704.251	3.5
705.005	2.5
705.759	1.5
706.513	0.5
707.266	1.5
708.02	4.5
708.774	1.5
709.527	2.5
710.28	2.5
711.034	2.5
711.787	0.5
712.54	0.5
713.293	3.5
714.046	2.5
714.799	1.5
715.552	1.5
716.305	2.5
717.058	2.5
717.81	1.5
718.563	4.5
719.315	3.5
720.068	1.5
720.82	4.5
721.573	2.5
722.325	1.5
723.077	0.5
723.829	1.5
724.581	2.5
725.333	2.5
726.085	2.5
726.836	3.5
727.588	2.5
728.34	1.5
729.091	3.5
729.843	2.5
730.594	1.5
731.346	3.5
732.097	1.5
732.848	1.5
733.599	1.5
734.35	3.5
735.101	1.5
735.852	2.5
736.603	1.5
737.354	2.5
738.104	1.5
738.855	0.5
739.605	3.5
740.356	0.5
741.106	2.5
741.856	3.5
742.607	3.5
743.357	1.5
744.107	3.5
744.857	3.5
745.607	1.5
746.357	3.5
747.106	4.5
747.856	1.5
748.606	4.5
749.355	3.5
750.105	4.5
750.854	4.5
751.603	4.5
752.353	3.5
753.102	3.5
753.851	2.5
754.6	1.5
755.349	3.5
756.098	4.5
756.847	3.5
757.595	2.5
758.344	1.5
759.093	5.5
759.841	3.5
760.589	2.5
761.338	2.5
762.086	3.5
762.834	4.5
763.582	2.5
764.331	4.5
765.079	4.5
765.826	5.5
766.574	4.5
767.322	5.5
768.07	5.5
768.817	3.5
769.565	3.5
770.312	5.5
771.06	5.5
771.807	4.5
772.554	3.5
773.302	6.5
774.049	6.5
774.796	7.5
775.543	6.5
776.29	3.5
777.036	4.5
777.783	3.5
778.53	2.5
779.276	6.5
780.023	6.5
780.769	5.5
781.516	6.5
782.262	5.5
783.008	7.5
783.754	6.5
784.5	5.5
785.246	7.5
785.992	5.5
786.738	6.5
787.484	5.5
788.23	5.5
788.975	5.5
789.721	3.5
790.466	4.5
791.212	7.5
791.957	6.5
792.702	4.5
793.447	4.5
794.193	7.5
794.938	3.5
795.683	4.5
796.427	6.5
797.172	5.5
797.917	4.5
798.662	4.5
799.406	5.5
800.151	4.5
800.895	6.5
801.64	5.5
802.384	5.5
803.128	5.5
803.872	6.5
804.616	4.5
805.36	5.5
806.104	5.5
806.848	2.5
807.592	2.5
808.336	5.5
809.079	3.5
809.823	6.5
810.566	2.5
811.31	2.5
812.053	2.5
812.796	4.5
813.539	2.5
814.283	4.5
815.026	4.5
815.769	4.5
816.511	4.5
817.254	4.5
817.997	2.5
818.74	4.5
819.482	3.5
820.225	2.5
820.967	2.5
821.71	4.5
822.452	3.5
823.194	1.5
823.936	4.5
824.678	5.5
825.42	5.5
826.162	3.5
826.904	3.5
827.646	3.5
828.388	3.5
829.129	3.5
829.871	6.5
830.612	5.5
831.354	3.5
832.095	2.5
832.836	1.5
833.577	3.5
834.319	2.5
835.06	1.5
835.801	2.5
836.542	3.5
837.282	2.5
838.023	0.5
838.764	1.5
839.504	4.5
840.245	1.5
840.985	3.5
841.726	1.5
842.466	3.5
843.206	3.5
843.946	2.5
844.687	0.5
845.427	1.5
846.166	2.5
846.906	0.5
847.646	2.5
848.386	2.5
849.125	0.5
849.865	2.5
850.605	3.5
851.344	3.5
852.083	1.5
852.823	1.5
853.562	2.5
854.301	2.5
855.04	4.5
855.779	1.5
856.518	1.5
857.257	2.5
857.995	1.5
858.734	1.5
859.473	0.5
860.211	2.5
860.95	2.5
861.688	1.5
862.426	2.5
863.165	2.5
863.903	0.5
864.641	2.5
865.379	1.5
866.117	2.5
866.855	0.5
867.593	1.5
868.33	0.5
869.068	3.5
869.806	0.5
870.543	2.5
871.28	1.5
872.018	1.5
872.755	1.5
873.492	-0.5
874.229	2.5
874.967	1.5
875.703	-0.5
876.44	1.5
877.177	-0.5
877.914	1.5
878.651	-1.5
879.387	1.5
880.124	1.5
880.86	2.5
881.597	1.5
882.333	1.5
883.069	1.5
883.806	2.5
884.542	1.5
885.278	1.5
886.014	1.5
886.749	-0.5
887.485	0.5
888.221	-2.5
888.957	1.5
889.692	-0.5
890.428	1.5
891.163	0.5
891.899	-0.5
892.634	2.5
893.369	0.5
894.104	-1.5
894.839	0.5
895.574	0.5
896.309	0.5
897.044	2.5
897.779	1.5
898.514	1.5
899.248	-1.5
899.983	1.5
900.717	0.5
901.452	1.5
902.186	-1.5
902.92	1.5
903.654	1.5
904.389	1.5
905.123	0.5
905.857	0.5
906.59	-1.5
907.324	1.5
908.058	-0.5
908.792	2.5
909.525	-1.5
910.259	-1.5
910.992	-0.5
911.726	3.5
912.459	0.5
913.192	-1.5
913.925	-0.5
914.658	1.5
915.391	1.5
916.124	0.5
916.857	-2.5
917.59	3.5
918.323	1.5
919.055	1.5
919.788	1.5
920.521	1.5
921.253	1.5
921.985	-0.5
922.718	1.5
923.45	1.5
924.182	1.5
924.914	0.5
925.646	2.5
926.378	2.5
927.11	0.5
927.841	1.5
928.573	0.5
929.305	1.5
930.036	-1.5
930.768	0.5
931.499	-0.5
932.23	-0.5
932.962	-1.5
933.693	1.5
934.424	2.5
935.155	-1.5
935.886	0.5
936.617	3.5
937.348	1.5
938.078	0.5
938.809	-1.5
939.54	-0.5
940.27	1.5
941.001	2.5
941.731	3.5
942.461	2.5
943.191	2.5
943.922	1.5
944.652	1.5
945.382	2.5
946.112	0.5
946.841	1.5
947.571	-0.5
948.301	1.5
949.031	1.5
949.76	-0.5
950.49	1.5
951.219	1.5
951.948	-0.5
952.678	-2.5
953.407	2.5
954.136	-0.5
954.865	-0.5
955.594	0.5
956.323	0.5
957.052	1.5
957.78	-2.5
958.509	2.5
959.238	0.5
959.966	0.5
960.695	0.5
961.423	0.5
962.151	1.5
962.88	1.5
963.608	-2.5
964.336	0.5
965.064	1.5
965.792	1.5
966.52	-1.5
967.247	2.5
967.975	-0.5
968.703	0.5
969.43	1.5
970.158	-0.5
970.885	2.5
971.613	0.5
972.34	1.5
973.067	-1.5
973.794	-0.5
974.521	2.5
975.248	-1.5
975.975	0.5
976.702	-1.5
977.429	1.5
978.156	0.5
978.882	-0.5
979.609	-0.5
980.335	-0.5
981.062	0.5
981.788	2.5
982.514	0.5
983.24	-0.5
983.967	-0.5
984.693	2.5
985.419	0.5
986.144	-0.5
986.87	1.5
987.596	1.5
988.322	0.5
989.047	-2.5
989.773	1.5
990.498	1.5
991.224	0.5
991.949	0.5
992.674	1.5
993.399	-1.5
994.124	0.5
994.849	1.5
995.574	-0.5
996.299	1.5
997.024	1.5
997.749	0.5
998.473	1.5
999.198	0.5
999.922	2.5
1000.647	1.5
1001.371	3.5
1002.095	-2.5
1002.82	0.5
1003.544	-1.5
1004.268	0.5
1004.992	-0.5
1005.716	-1.5
1006.439	-0.5
1007.163	-0.5
1007.887	0.5
1008.611	0.5
1009.334	-0.5
1010.058	0.5
1010.781	-1.5
1011.504	1.5
1012.228	0.5
1012.951	-0.5
1013.674	0.5
1014.397	1.5
1015.12	-1.5
