节点500_145_QEPB04081__327__11-34-11-514.txt的数据

Date: Wed Nov 12 11:34:11 CST 2025
User: PC
Spectrometer: QEPB0408
触发模式: 0
积分时间 (秒): 1.000000E-2
Scans to average: 1
启用暗噪声校正: true
启用非线性校正: false
滑动平均宽度: 0
X轴模式: Wavelengths
Number of Pixels in Spectrum: 1044
>>>>>Begin Spectral Data<<<<<
220.843	-1.38
221.644	-2.38
222.444	-2.38
223.244	0.62
224.045	1.62
224.845	1.62
225.645	0.62
226.445	-0.38
227.245	2.62
228.045	-0.38
228.845	0.62
229.645	1.62
230.444	-0.38
231.244	0.62
232.043	0.62
232.843	3.62
233.642	-2.38
234.442	2.62
235.241	2.62
236.04	0.62
236.839	3.62
237.638	1.62
238.437	2.62
239.236	1.62
240.035	1.62
240.833	0.62
241.632	1.62
242.43	2.62
243.229	-0.38
244.027	0.62
244.826	0.62
245.624	0.62
246.422	2.62
247.22	2.62
248.018	0.62
248.816	2.62
249.614	2.62
250.412	2.62
251.21	2.62
252.007	2.62
252.805	1.62
253.602	4.62
254.4	0.62
255.197	3.62
255.994	3.62
256.791	4.62
257.589	2.62
258.386	4.62
259.183	3.62
259.979	3.62
260.776	4.62
261.573	3.62
262.37	4.62
263.166	6.62
263.963	3.62
264.759	6.62
265.556	3.62
266.352	8.62
267.148	6.62
267.944	7.62
268.74	5.62
269.536	6.62
270.332	6.62
271.128	6.62
271.924	7.62
272.719	8.62
273.515	10.62
274.311	8.62
275.106	11.62
275.901	8.62
276.697	8.62
277.492	10.62
278.287	10.62
279.082	7.62
279.877	9.62
280.672	10.62
281.467	9.62
282.262	10.62
283.056	11.62
283.851	8.62
284.646	10.62
285.44	12.62
286.234	11.62
287.029	9.62
287.823	11.62
288.617	10.62
289.411	11.62
290.205	10.62
290.999	11.62
291.793	10.62
292.587	11.62
293.381	10.62
294.174	9.62
294.968	9.62
295.761	7.62
296.555	11.62
297.348	9.62
298.141	7.62
298.935	9.62
299.728	9.62
300.521	10.62
301.314	8.62
302.107	10.62
302.899	8.62
303.692	8.62
304.485	9.62
305.277	8.62
306.07	8.62
306.862	10.62
307.655	9.62
308.447	8.62
309.239	7.62
310.031	4.62
310.823	6.62
311.615	8.62
312.407	8.62
313.199	6.62
313.991	6.62
314.783	5.62
315.574	8.62
316.366	6.62
317.157	2.62
317.949	5.62
318.74	6.62
319.531	3.62
320.322	5.62
321.113	6.62
321.904	6.62
322.695	6.62
323.486	4.62
324.277	2.62
325.068	3.62
325.858	5.62
326.649	1.62
327.439	5.62
328.23	3.62
329.02	3.62
329.81	4.62
330.6	1.62
331.391	4.62
332.181	4.62
332.971	2.62
333.76	4.62
334.55	3.62
335.34	4.62
336.13	3.62
336.919	4.62
337.709	3.62
338.498	5.62
339.287	3.62
340.077	3.62
340.866	3.62
341.655	3.62
342.444	3.62
343.233	5.62
344.022	5.62
344.811	4.62
345.6	3.62
346.388	2.62
347.177	2.62
347.965	4.62
348.754	3.62
349.542	1.62
350.33	4.62
351.119	4.62
351.907	5.62
352.695	1.62
353.483	5.62
354.271	3.62
355.059	2.62
355.846	2.62
356.634	5.62
357.422	4.62
358.209	2.62
358.997	2.62
359.784	1.62
360.571	3.62
361.359	1.62
362.146	1.62
362.933	2.62
363.72	1.62
364.507	4.62
365.294	4.62
366.081	2.62
366.867	1.62
367.654	3.62
368.44	5.62
369.227	2.62
370.013	4.62
370.8	4.62
371.586	2.62
372.372	3.62
373.158	2.62
373.944	2.62
374.73	2.62
375.516	3.62
376.302	5.62
377.088	3.62
377.873	2.62
378.659	1.62
379.445	2.62
380.23	2.62
381.015	0.62
381.801	4.62
382.586	2.62
383.371	2.62
384.156	1.62
384.941	2.62
385.726	2.62
386.511	1.62
387.296	1.62
388.08	2.62
388.865	2.62
389.649	0.62
390.434	4.62
391.218	4.62
392.003	3.62
392.787	4.62
393.571	3.62
394.355	2.62
395.139	3.62
395.923	4.62
396.707	1.62
397.491	3.62
398.274	3.62
399.058	7.62
399.842	3.62
400.625	4.62
401.408	3.62
402.192	2.62
402.975	4.62
403.758	3.62
404.541	5.62
405.324	5.62
406.107	3.62
406.89	6.62
407.673	2.62
408.456	6.62
409.238	2.62
410.021	3.62
410.803	3.62
411.586	5.62
412.368	3.62
413.151	4.62
413.933	5.62
414.715	4.62
415.497	3.62
416.279	4.62
417.061	5.62
417.843	5.62
418.624	5.62
419.406	6.62
420.188	3.62
420.969	6.62
421.751	6.62
422.532	4.62
423.313	3.62
424.095	5.62
424.876	6.62
425.657	7.62
426.438	5.62
427.219	7.62
428	5.62
428.78	7.62
429.561	9.62
430.342	6.62
431.122	9.62
431.903	6.62
432.683	10.62
433.464	10.62
434.244	8.62
435.024	9.62
435.804	7.62
436.584	10.62
437.364	9.62
438.144	9.62
438.924	8.62
439.704	14.62
440.483	12.62
441.263	12.62
442.042	13.62
442.822	13.62
443.601	13.62
444.38	15.62
445.16	16.62
445.939	16.62
446.718	17.62
447.497	19.62
448.276	19.62
449.054	22.62
449.833	22.62
450.612	26.62
451.391	24.62
452.169	28.62
452.948	31.62
453.726	35.62
454.504	38.62
455.282	41.62
456.061	45.62
456.839	49.62
457.617	56.62
458.395	60.62
459.172	66.62
459.95	73.62
460.728	82.62
461.506	89.62
462.283	100.62
463.061	111.62
463.838	129.62
464.615	146.62
465.393	156.62
466.17	178.62
466.947	197.62
467.724	214.62
468.501	238.62
469.278	266.62
470.055	300.62
470.831	335.62
471.608	372.62
472.385	409.62
473.161	467.62
473.938	510.62
474.714	563.62
475.49	636.62
476.266	691.62
477.043	761.62
477.819	851.62
478.595	954.62
479.371	1047.62
480.146	1145.62
480.922	1262.62
481.698	1411.62
482.473	1534.62
483.249	1722.62
484.024	1873.62
484.8	2051.62
485.575	2272.62
486.35	2514.62
487.126	2769.62
487.901	3034.62
488.676	3351.62
489.451	3657.62
490.225	4032.62
491	4430.62
491.775	4878.62
492.55	5325.62
493.324	5821.62
494.099	6373.62
494.873	6971.62
495.647	7570.62
496.422	8226.62
497.196	8930.62
497.97	9628.62
498.744	10357.62
499.518	11067.62
500.292	11803.62
501.066	12537.62
501.839	13261.62
502.613	13874.62
503.387	14458.62
504.16	15113.62
504.934	15475.62
505.707	15879.62
506.48	16165.62
507.253	16308.62
508.027	16393.62
508.8	16376.62
509.573	16247.62
510.346	15993.62
511.118	15698.62
511.891	15328.62
512.664	14848.62
513.437	14358.62
514.209	13816.62
514.982	13224.62
515.754	12719.62
516.526	12194.62
517.298	11703.62
518.071	11152.62
518.843	10667.62
519.615	10157.62
520.387	9757.62
521.159	9372.62
521.93	8971.62
522.702	8629.62
523.474	8334.62
524.245	7978.62
525.017	7640.62
525.788	7337.62
526.56	7047.62
527.331	6761.62
528.102	6481.62
528.873	6198.62
529.644	5937.62
530.415	5626.62
531.186	5370.62
531.957	5104.62
532.728	4865.62
533.498	4590.62
534.269	4351.62
535.039	4096.62
535.81	3884.62
536.58	3685.62
537.351	3457.62
538.121	3273.62
538.891	3092.62
539.661	2930.62
540.431	2744.62
541.201	2607.62
541.971	2465.62
542.741	2335.62
543.51	2217.62
544.28	2109.62
545.05	1992.62
545.819	1918.62
546.588	1808.62
547.358	1724.62
548.127	1637.62
548.896	1565.62
549.665	1471.62
550.434	1414.62
551.203	1326.62
551.972	1245.62
552.741	1198.62
553.51	1142.62
554.278	1074.62
555.047	1003.62
555.815	940.62
556.584	903.62
557.352	839.62
558.121	800.62
558.889	750.62
559.657	709.62
560.425	665.62
561.193	634.62
561.961	589.62
562.729	561.62
563.496	542.62
564.264	494.62
565.032	464.62
565.799	455.62
566.567	421.62
567.334	394.62
568.101	380.62
568.869	350.62
569.636	335.62
570.403	313.62
571.17	295.62
571.937	281.62
572.704	266.62
573.471	248.62
574.237	235.62
575.004	222.62
575.771	211.62
576.537	193.62
577.303	186.62
578.07	170.62
578.836	160.62
579.602	153.62
580.368	149.62
581.134	138.62
581.9	130.62
582.666	123.62
583.432	122.62
584.198	111.62
584.964	105.62
585.729	95.62
586.495	94.62
587.26	91.62
588.025	84.62
588.791	83.62
589.556	77.62
590.321	72.62
591.086	64.62
591.851	64.62
592.616	62.62
593.381	57.62
594.146	57.62
594.911	51.62
595.675	51.62
596.44	46.62
597.204	45.62
597.969	43.62
598.733	40.62
599.497	36.62
600.261	36.62
601.025	34.62
601.79	34.62
602.553	31.62
603.317	31.62
604.081	29.62
604.845	29.62
605.609	22.62
606.372	26.62
607.136	27.62
607.899	21.62
608.662	23.62
609.426	20.62
610.189	24.62
610.952	18.62
611.715	18.62
612.478	17.62
613.241	17.62
614.004	17.62
614.767	19.62
615.529	16.62
616.292	13.62
617.055	13.62
617.817	11.62
618.579	11.62
619.342	12.62
620.104	12.62
620.866	12.62
621.628	12.62
622.39	12.62
623.152	11.62
623.914	10.62
624.676	11.62
625.438	8.62
626.199	10.62
626.961	8.62
627.722	9.62
628.484	9.62
629.245	6.62
630.006	10.62
630.768	7.62
631.529	8.62
632.29	8.62
633.051	8.62
633.812	6.62
634.573	7.62
635.333	9.62
636.094	5.62
636.855	8.62
637.615	7.62
638.376	5.62
639.136	5.62
639.896	3.62
640.657	5.62
641.417	5.62
642.177	5.62
642.937	5.62
643.697	5.62
644.457	4.62
645.216	4.62
645.976	6.62
646.736	4.62
647.495	6.62
648.255	5.62
649.014	3.62
649.774	2.62
650.533	4.62
651.292	2.62
652.051	2.62
652.81	4.62
653.569	2.62
654.328	5.62
655.087	4.62
655.846	3.62
656.604	4.62
657.363	5.62
658.121	4.62
658.88	4.62
659.638	2.62
660.397	3.62
661.155	2.62
661.913	2.62
662.671	2.62
663.429	3.62
664.187	1.62
664.945	4.62
665.703	4.62
666.46	4.62
667.218	3.62
667.976	3.62
668.733	2.62
669.49	3.62
670.248	0.62
671.005	4.62
671.762	2.62
672.519	2.62
673.276	2.62
674.033	2.62
674.79	2.62
675.547	2.62
676.304	0.62
677.06	4.62
677.817	5.62
678.574	1.62
679.33	5.62
680.086	1.62
680.843	1.62
681.599	3.62
682.355	2.62
683.111	3.62
683.867	3.62
684.623	1.62
685.379	1.62
686.135	1.62
686.89	2.62
687.646	1.62
688.402	4.62
689.157	-1.38
689.912	0.62
690.668	3.62
691.423	-0.38
692.178	2.62
692.933	0.62
693.688	3.62
694.443	-0.38
695.198	4.62
695.953	2.62
696.708	1.62
697.462	2.62
698.217	1.62
698.972	2.62
699.726	1.62
700.48	2.62
701.235	2.62
701.989	1.62
702.743	2.62
703.497	1.62
704.251	0.62
705.005	2.62
705.759	2.62
706.513	2.62
707.266	0.62
708.02	2.62
708.774	1.62
709.527	2.62
710.28	2.62
711.034	2.62
711.787	3.62
712.54	1.62
713.293	3.62
714.046	0.62
714.799	2.62
715.552	0.62
716.305	0.62
717.058	1.62
717.81	2.62
718.563	2.62
719.315	1.62
720.068	3.62
720.82	2.62
721.573	2.62
722.325	2.62
723.077	3.62
723.829	1.62
724.581	2.62
725.333	2.62
726.085	1.62
726.836	1.62
727.588	1.62
728.34	3.62
729.091	2.62
729.843	1.62
730.594	1.62
731.346	3.62
732.097	4.62
732.848	0.62
733.599	2.62
734.35	4.62
735.101	1.62
735.852	1.62
736.603	2.62
737.354	1.62
738.104	3.62
738.855	-0.38
739.605	0.62
740.356	2.62
741.106	1.62
741.856	3.62
742.607	3.62
743.357	2.62
744.107	2.62
744.857	3.62
745.607	2.62
746.357	2.62
747.106	4.62
747.856	4.62
748.606	2.62
749.355	2.62
750.105	3.62
750.854	1.62
751.603	3.62
752.353	3.62
753.102	2.62
753.851	3.62
754.6	1.62
755.349	1.62
756.098	0.62
756.847	2.62
757.595	5.62
758.344	2.62
759.093	2.62
759.841	1.62
760.589	4.62
761.338	4.62
762.086	5.62
762.834	0.62
763.582	3.62
764.331	4.62
765.079	5.62
765.826	3.62
766.574	2.62
767.322	4.62
768.07	3.62
768.817	3.62
769.565	4.62
770.312	4.62
771.06	2.62
771.807	4.62
772.554	4.62
773.302	2.62
774.049	5.62
774.796	6.62
775.543	3.62
776.29	3.62
777.036	5.62
777.783	4.62
778.53	2.62
779.276	5.62
780.023	5.62
780.769	5.62
781.516	3.62
782.262	3.62
783.008	3.62
783.754	3.62
784.5	5.62
785.246	5.62
785.992	5.62
786.738	5.62
787.484	5.62
788.23	4.62
788.975	4.62
789.721	3.62
790.466	5.62
791.212	4.62
791.957	7.62
792.702	7.62
793.447	4.62
794.193	4.62
794.938	3.62
795.683	5.62
796.427	5.62
797.172	5.62
797.917	5.62
798.662	4.62
799.406	4.62
800.151	2.62
800.895	4.62
801.64	5.62
802.384	5.62
803.128	5.62
803.872	3.62
804.616	4.62
805.36	4.62
806.104	3.62
806.848	5.62
807.592	1.62
808.336	2.62
809.079	4.62
809.823	2.62
810.566	3.62
811.31	3.62
812.053	3.62
812.796	4.62
813.539	3.62
814.283	2.62
815.026	3.62
815.769	4.62
816.511	4.62
817.254	3.62
817.997	2.62
818.74	3.62
819.482	0.62
820.225	3.62
820.967	0.62
821.71	2.62
822.452	2.62
823.194	2.62
823.936	2.62
824.678	2.62
825.42	2.62
826.162	2.62
826.904	2.62
827.646	3.62
828.388	4.62
829.129	2.62
829.871	1.62
830.612	3.62
831.354	2.62
832.095	-0.38
832.836	3.62
833.577	2.62
834.319	2.62
835.06	3.62
835.801	4.62
836.542	1.62
837.282	2.62
838.023	1.62
838.764	1.62
839.504	3.62
840.245	1.62
840.985	4.62
841.726	1.62
842.466	2.62
843.206	1.62
843.946	2.62
844.687	2.62
845.427	3.62
846.166	1.62
846.906	4.62
847.646	2.62
848.386	2.62
849.125	3.62
849.865	2.62
850.605	0.62
851.344	4.62
852.083	2.62
852.823	-0.38
853.562	1.62
854.301	1.62
855.04	0.62
855.779	1.62
856.518	2.62
857.257	1.62
857.995	-0.38
858.734	3.62
859.473	1.62
860.211	1.62
860.95	-0.38
861.688	1.62
862.426	1.62
863.165	1.62
863.903	0.62
864.641	0.62
865.379	1.62
866.117	1.62
866.855	3.62
867.593	0.62
868.33	-0.38
869.068	1.62
869.806	-1.38
870.543	2.62
871.28	1.62
872.018	1.62
872.755	1.62
873.492	0.62
874.229	-1.38
874.967	0.62
875.703	1.62
876.44	0.62
877.177	2.62
877.914	1.62
878.651	0.62
879.387	1.62
880.124	0.62
880.86	-0.38
881.597	0.62
882.333	0.62
883.069	-0.38
883.806	1.62
884.542	2.62
885.278	1.62
886.014	1.62
886.749	0.62
887.485	2.62
888.221	-1.38
888.957	1.62
889.692	0.62
890.428	1.62
891.163	-2.38
891.899	-0.38
892.634	1.62
893.369	-1.38
894.104	1.62
894.839	0.62
895.574	0.62
896.309	-0.38
897.044	-1.38
897.779	2.62
898.514	1.62
899.248	-0.38
899.983	-0.38
900.717	-0.38
901.452	2.62
902.186	1.62
902.92	1.62
903.654	2.62
904.389	-1.38
905.123	-0.38
905.857	2.62
906.59	1.62
907.324	1.62
908.058	1.62
908.792	-0.38
909.525	0.62
910.259	0.62
910.992	-1.38
911.726	0.62
912.459	-0.38
913.192	1.62
913.925	1.62
914.658	-2.38
915.391	-0.38
916.124	-1.38
916.857	2.62
917.59	-0.38
918.323	1.62
919.055	0.62
919.788	0.62
920.521	0.62
921.253	2.62
921.985	-0.38
922.718	-1.38
923.45	0.62
924.182	1.62
924.914	-1.38
925.646	-0.38
926.378	0.62
927.11	0.62
927.841	-1.38
928.573	0.62
929.305	1.62
930.036	-1.38
930.768	1.62
931.499	-0.38
932.23	0.62
932.962	-0.38
933.693	-0.38
934.424	0.62
935.155	2.62
935.886	2.62
936.617	-1.38
937.348	1.62
938.078	0.62
938.809	-0.38
939.54	0.62
940.27	-0.38
941.001	2.62
941.731	-1.38
942.461	0.62
943.191	0.62
943.922	-0.38
944.652	0.62
945.382	-0.38
946.112	-0.38
946.841	-0.38
947.571	-0.38
948.301	1.62
949.031	0.62
949.76	1.62
950.49	-1.38
951.219	2.62
951.948	1.62
952.678	0.62
953.407	-0.38
954.136	1.62
954.865	0.62
955.594	-0.38
956.323	2.62
957.052	-1.38
957.78	1.62
958.509	1.62
959.238	-1.38
959.966	0.62
960.695	-0.38
961.423	1.62
962.151	1.62
962.88	-0.38
963.608	-0.38
964.336	-0.38
965.064	0.62
965.792	-0.38
966.52	0.62
967.247	0.62
967.975	2.62
968.703	0.62
969.43	0.62
970.158	2.62
970.885	-1.38
971.613	1.62
972.34	-0.38
973.067	0.62
973.794	0.62
974.521	-1.38
975.248	1.62
975.975	-0.38
976.702	1.62
977.429	-0.38
978.156	-2.38
978.882	0.62
979.609	-1.38
980.335	2.62
981.062	-0.38
981.788	1.62
982.514	0.62
983.24	-0.38
983.967	0.62
984.693	0.62
985.419	0.62
986.144	-2.38
986.87	1.62
987.596	0.62
988.322	1.62
989.047	0.62
989.773	0.62
990.498	0.62
991.224	-1.38
991.949	2.62
992.674	1.62
993.399	1.62
994.124	1.62
994.849	-1.38
995.574	-0.38
996.299	-1.38
997.024	1.62
997.749	-2.38
998.473	0.62
999.198	2.62
999.922	0.62
1000.647	-0.38
1001.371	2.62
1002.095	-1.38
1002.82	-1.38
1003.544	-1.38
1004.268	0.62
1004.992	-1.38
1005.716	-0.38
1006.439	0.62
1007.163	1.62
1007.887	-1.38
1008.611	-1.38
1009.334	1.62
1010.058	2.62
1010.781	-0.38
1011.504	0.62
1012.228	-0.38
1012.951	0.62
1013.674	-0.38
1014.397	2.62
1015.12	-1.38
