节点500_145_QEPB04081__542__11-37-33-467.txt的数据

Date: Wed Nov 12 11:37:33 CST 2025
User: PC
Spectrometer: QEPB0408
触发模式: 0
积分时间 (秒): 1.000000E-2
Scans to average: 1
启用暗噪声校正: true
启用非线性校正: false
滑动平均宽度: 0
X轴模式: Wavelengths
Number of Pixels in Spectrum: 1044
>>>>>Begin Spectral Data<<<<<
220.843	0
221.644	-1
222.444	0
223.244	-2
224.045	0
224.845	-1
225.645	0
226.445	-2
227.245	-1
228.045	-2
228.845	-1
229.645	-1
230.444	-1
231.244	0
232.043	0
232.843	0
233.642	2
234.442	1
235.241	1
236.04	1
236.839	0
237.638	-1
238.437	1
239.236	-1
240.035	1
240.833	2
241.632	1
242.43	0
243.229	1
244.027	2
244.826	3
245.624	3
246.422	0
247.22	2
248.018	3
248.816	1
249.614	2
250.412	1
251.21	2
252.007	4
252.805	4
253.602	1
254.4	1
255.197	3
255.994	4
256.791	2
257.589	2
258.386	3
259.183	4
259.979	1
260.776	6
261.573	5
262.37	4
263.166	4
263.963	5
264.759	2
265.556	3
266.352	5
267.148	3
267.944	4
268.74	5
269.536	4
270.332	5
271.128	6
271.924	9
272.719	4
273.515	6
274.311	5
275.106	6
275.901	7
276.697	7
277.492	8
278.287	9
279.082	10
279.877	8
280.672	9
281.467	8
282.262	11
283.056	11
283.851	9
284.646	8
285.44	11
286.234	9
287.029	9
287.823	11
288.617	10
289.411	7
290.205	10
290.999	9
291.793	11
292.587	9
293.381	6
294.174	11
294.968	11
295.761	10
296.555	9
297.348	8
298.141	8
298.935	8
299.728	9
300.521	11
301.314	6
302.107	9
302.899	7
303.692	9
304.485	8
305.277	8
306.07	6
306.862	10
307.655	9
308.447	9
309.239	8
310.031	9
310.823	7
311.615	4
312.407	6
313.199	8
313.991	7
314.783	5
315.574	3
316.366	4
317.157	6
317.949	6
318.74	7
319.531	7
320.322	5
321.113	5
321.904	5
322.695	2
323.486	5
324.277	5
325.068	4
325.858	6
326.649	2
327.439	5
328.23	3
329.02	5
329.81	4
330.6	3
331.391	4
332.181	3
332.971	5
333.76	1
334.55	3
335.34	2
336.13	5
336.919	3
337.709	1
338.498	2
339.287	4
340.077	4
340.866	0
341.655	3
342.444	4
343.233	3
344.022	3
344.811	4
345.6	4
346.388	3
347.177	3
347.965	2
348.754	3
349.542	5
350.33	5
351.119	3
351.907	6
352.695	3
353.483	2
354.271	2
355.059	0
355.846	1
356.634	2
357.422	3
358.209	2
358.997	3
359.784	4
360.571	3
361.359	3
362.146	4
362.933	0
363.72	4
364.507	2
365.294	2
366.081	-1
366.867	3
367.654	3
368.44	1
369.227	0
370.013	1
370.8	0
371.586	3
372.372	2
373.158	0
373.944	2
374.73	0
375.516	2
376.302	3
377.088	0
377.873	2
378.659	3
379.445	2
380.23	3
381.015	4
381.801	0
382.586	1
383.371	3
384.156	3
384.941	4
385.726	2
386.511	2
387.296	2
388.08	4
388.865	3
389.649	5
390.434	2
391.218	1
392.003	0
392.787	0
393.571	2
394.355	2
395.139	2
395.923	4
396.707	2
397.491	4
398.274	2
399.058	4
399.842	2
400.625	2
401.408	4
402.192	5
402.975	3
403.758	2
404.541	2
405.324	2
406.107	2
406.89	4
407.673	3
408.456	4
409.238	5
410.021	6
410.803	4
411.586	2
412.368	4
413.151	3
413.933	2
414.715	3
415.497	5
416.279	2
417.061	3
417.843	7
418.624	4
419.406	5
420.188	7
420.969	5
421.751	6
422.532	8
423.313	6
424.095	6
424.876	7
425.657	5
426.438	5
427.219	4
428	6
428.78	9
429.561	5
430.342	8
431.122	8
431.903	6
432.683	7
433.464	8
434.244	10
435.024	9
435.804	10
436.584	10
437.364	9
438.144	12
438.924	8
439.704	10
440.483	9
441.263	12
442.042	15
442.822	14
443.601	15
444.38	15
445.16	18
445.939	17
446.718	19
447.497	20
448.276	20
449.054	21
449.833	24
450.612	27
451.391	30
452.169	34
452.948	32
453.726	37
454.504	41
455.282	41
456.061	49
456.839	54
457.617	58
458.395	65
459.172	71
459.95	78
460.728	87
461.506	100
462.283	109
463.061	119
463.838	137
464.615	150
465.393	168
466.17	186
466.947	210
467.724	231
468.501	260
469.278	289
470.055	322
470.831	351
471.608	393
472.385	430
473.161	480
473.938	538
474.714	589
475.49	653
476.266	723
477.043	785
477.819	871
478.595	954
479.371	1058
480.146	1154
480.922	1276
481.698	1394
482.473	1538
483.249	1674
484.024	1847
484.8	2014
485.575	2216
486.35	2449
487.126	2664
487.901	2904
488.676	3208
489.451	3496
490.225	3853
491	4191
491.775	4576
492.55	5005
493.324	5466
494.099	5978
494.873	6468
495.647	7025
496.422	7627
497.196	8230
497.97	8855
498.744	9531
499.518	10207
500.292	10953
501.066	11569
501.839	12276
502.613	12858
503.387	13436
504.16	14015
504.934	14483
505.707	14870
506.48	15205
507.253	15479
508.027	15583
508.8	15607
509.573	15576
510.346	15442
511.118	15227
511.891	14924
512.664	14562
513.437	14152
514.209	13678
514.982	13201
515.754	12752
516.526	12206
517.298	11688
518.071	11212
518.843	10754
519.615	10266
520.387	9870
521.159	9459
521.93	9076
522.702	8731
523.474	8361
524.245	8043
525.017	7745
525.788	7449
526.56	7118
527.331	6829
528.102	6551
528.873	6296
529.644	5996
530.415	5716
531.186	5461
531.957	5238
532.728	4965
533.498	4697
534.269	4473
535.039	4210
535.81	3998
536.58	3775
537.351	3568
538.121	3379
538.891	3195
539.661	3013
540.431	2853
541.201	2695
541.971	2561
542.741	2428
543.51	2322
544.28	2182
545.05	2062
545.819	1952
546.588	1874
547.358	1774
548.127	1707
548.896	1616
549.665	1526
550.434	1456
551.203	1370
551.972	1315
552.741	1237
553.51	1180
554.278	1118
555.047	1060
555.815	997
556.584	948
557.352	880
558.121	827
558.889	793
559.657	741
560.425	701
561.193	657
561.961	621
562.729	585
563.496	554
564.264	525
565.032	485
565.799	479
566.567	438
567.334	423
568.101	396
568.869	380
569.636	338
570.403	325
571.17	314
571.937	293
572.704	276
573.471	262
574.237	249
575.004	232
575.771	222
576.537	207
577.303	189
578.07	181
578.836	171
579.602	159
580.368	156
581.134	142
581.9	140
582.666	134
583.432	121
584.198	115
584.964	111
585.729	104
586.495	100
587.26	95
588.025	87
588.791	83
589.556	78
590.321	70
591.086	72
591.851	67
592.616	63
593.381	59
594.146	56
594.911	54
595.675	54
596.44	51
597.204	49
597.969	45
598.733	43
599.497	41
600.261	38
601.025	37
601.79	37
602.553	35
603.317	30
604.081	29
604.845	32
605.609	25
606.372	25
607.136	26
607.899	24
608.662	23
609.426	23
610.189	22
610.952	22
611.715	21
612.478	17
613.241	17
614.004	17
614.767	16
615.529	17
616.292	13
617.055	14
617.817	15
618.579	12
619.342	15
620.104	13
620.866	12
621.628	12
622.39	12
623.152	12
623.914	11
624.676	13
625.438	10
626.199	10
626.961	9
627.722	9
628.484	11
629.245	6
630.006	9
630.768	7
631.529	7
632.29	7
633.051	9
633.812	7
634.573	7
635.333	6
636.094	6
636.855	7
637.615	6
638.376	6
639.136	7
639.896	5
640.657	7
641.417	5
642.177	6
642.937	4
643.697	5
644.457	3
645.216	7
645.976	4
646.736	4
647.495	5
648.255	4
649.014	5
649.774	4
650.533	6
651.292	3
652.051	3
652.81	6
653.569	5
654.328	6
655.087	2
655.846	2
656.604	5
657.363	1
658.121	3
658.88	3
659.638	6
660.397	3
661.155	4
661.913	2
662.671	0
663.429	4
664.187	2
664.945	4
665.703	2
666.46	1
667.218	4
667.976	2
668.733	4
669.49	4
670.248	3
671.005	2
671.762	0
672.519	3
673.276	2
674.033	2
674.79	3
675.547	4
676.304	1
677.06	1
677.817	1
678.574	2
679.33	2
680.086	0
680.843	3
681.599	2
682.355	2
683.111	2
683.867	1
684.623	2
685.379	0
686.135	0
686.89	2
687.646	0
688.402	1
689.157	0
689.912	0
690.668	4
691.423	1
692.178	3
692.933	1
693.688	3
694.443	1
695.198	-1
695.953	1
696.708	1
697.462	1
698.217	-2
698.972	3
699.726	0
700.48	2
701.235	1
701.989	1
702.743	1
703.497	0
704.251	2
705.005	1
705.759	0
706.513	2
707.266	5
708.02	2
708.774	1
709.527	2
710.28	2
711.034	2
711.787	2
712.54	1
713.293	1
714.046	0
714.799	3
715.552	-1
716.305	2
717.058	4
717.81	2
718.563	1
719.315	3
720.068	4
720.82	1
721.573	1
722.325	1
723.077	1
723.829	1
724.581	1
725.333	3
726.085	-1
726.836	2
727.588	1
728.34	5
729.091	2
729.843	3
730.594	2
731.346	1
732.097	2
732.848	1
733.599	2
734.35	2
735.101	3
735.852	3
736.603	3
737.354	1
738.104	1
738.855	3
739.605	3
740.356	1
741.106	1
741.856	2
742.607	3
743.357	3
744.107	4
744.857	2
745.607	1
746.357	3
747.106	2
747.856	2
748.606	3
749.355	3
750.105	1
750.854	0
751.603	3
752.353	4
753.102	3
753.851	2
754.6	4
755.349	6
756.098	1
756.847	3
757.595	3
758.344	3
759.093	3
759.841	1
760.589	1
761.338	0
762.086	1
762.834	2
763.582	4
764.331	3
765.079	2
765.826	4
766.574	3
767.322	4
768.07	4
768.817	2
769.565	3
770.312	2
771.06	3
771.807	4
772.554	3
773.302	4
774.049	3
774.796	4
775.543	3
776.29	6
777.036	5
777.783	1
778.53	3
779.276	6
780.023	4
780.769	5
781.516	3
782.262	4
783.008	4
783.754	6
784.5	3
785.246	5
785.992	5
786.738	7
787.484	4
788.23	4
788.975	3
789.721	4
790.466	4
791.212	5
791.957	2
792.702	3
793.447	3
794.193	6
794.938	4
795.683	5
796.427	4
797.172	4
797.917	4
798.662	4
799.406	4
800.151	5
800.895	7
801.64	2
802.384	7
803.128	4
803.872	4
804.616	5
805.36	3
806.104	5
806.848	1
807.592	5
808.336	3
809.079	3
809.823	4
810.566	2
811.31	2
812.053	3
812.796	4
813.539	3
814.283	5
815.026	5
815.769	0
816.511	3
817.254	2
817.997	4
818.74	3
819.482	3
820.225	2
820.967	1
821.71	0
822.452	2
823.194	1
823.936	2
824.678	2
825.42	2
826.162	3
826.904	2
827.646	3
828.388	5
829.129	4
829.871	2
830.612	2
831.354	0
832.095	3
832.836	2
833.577	1
834.319	4
835.06	1
835.801	2
836.542	2
837.282	1
838.023	1
838.764	4
839.504	4
840.245	2
840.985	3
841.726	2
842.466	2
843.206	2
843.946	2
844.687	3
845.427	3
846.166	2
846.906	1
847.646	2
848.386	2
849.125	2
849.865	0
850.605	0
851.344	2
852.083	3
852.823	3
853.562	0
854.301	0
855.04	3
855.779	2
856.518	1
857.257	0
857.995	2
858.734	1
859.473	1
860.211	1
860.95	-1
861.688	2
862.426	0
863.165	2
863.903	2
864.641	2
865.379	0
866.117	0
866.855	1
867.593	1
868.33	1
869.068	0
869.806	-1
870.543	1
871.28	2
872.018	2
872.755	1
873.492	0
874.229	2
874.967	0
875.703	1
876.44	0
877.177	2
877.914	0
878.651	1
879.387	2
880.124	1
880.86	2
881.597	1
882.333	0
883.069	1
883.806	-1
884.542	0
885.278	-1
886.014	1
886.749	1
887.485	1
888.221	1
888.957	1
889.692	2
890.428	0
891.163	2
891.899	-1
892.634	1
893.369	0
894.104	0
894.839	-1
895.574	0
896.309	1
897.044	-3
897.779	0
898.514	-2
899.248	-1
899.983	0
900.717	0
901.452	1
902.186	0
902.92	1
903.654	-2
904.389	-2
905.123	1
905.857	1
906.59	1
907.324	0
908.058	0
908.792	-1
909.525	-2
910.259	1
910.992	-1
911.726	3
912.459	0
913.192	0
913.925	-2
914.658	1
915.391	-2
916.124	-2
916.857	-2
917.59	0
918.323	1
919.055	0
919.788	-1
920.521	-1
921.253	-3
921.985	0
922.718	1
923.45	-2
924.182	0
924.914	-1
925.646	0
926.378	-2
927.11	0
927.841	-1
928.573	2
929.305	0
930.036	2
930.768	1
931.499	-1
932.23	1
932.962	1
933.693	1
934.424	3
935.155	-1
935.886	0
936.617	0
937.348	0
938.078	0
938.809	-2
939.54	1
940.27	0
941.001	1
941.731	1
942.461	0
943.191	-1
943.922	1
944.652	1
945.382	0
946.112	1
946.841	0
947.571	-1
948.301	-2
949.031	-1
949.76	-1
950.49	-2
951.219	0
951.948	0
952.678	1
953.407	-2
954.136	1
954.865	1
955.594	0
956.323	0
957.052	-2
957.78	0
958.509	0
959.238	-2
959.966	-1
960.695	-2
961.423	1
962.151	-1
962.88	0
963.608	-1
964.336	-2
965.064	-1
965.792	-2
966.52	-2
967.247	-1
967.975	3
968.703	1
969.43	2
970.158	0
970.885	0
971.613	1
972.34	-2
973.067	-2
973.794	0
974.521	0
975.248	-2
975.975	-1
976.702	1
977.429	-1
978.156	-1
978.882	-1
979.609	1
980.335	2
981.062	1
981.788	1
982.514	1
983.24	0
983.967	1
984.693	-1
985.419	0
986.144	-1
986.87	-2
987.596	1
988.322	2
989.047	-2
989.773	-1
990.498	1
991.224	2
991.949	0
992.674	0
993.399	-1
994.124	1
994.849	1
995.574	-1
996.299	-1
997.024	1
997.749	-1
998.473	0
999.198	1
999.922	0
1000.647	1
1001.371	3
1002.095	-2
1002.82	0
1003.544	-3
1004.268	-3
1004.992	1
1005.716	-3
1006.439	-4
1007.163	1
1007.887	1
1008.611	0
1009.334	-1
1010.058	0
1010.781	-1
1011.504	0
1012.228	2
1012.951	2
1013.674	-1
1014.397	1
1015.12	0
