节点500_145_QEPB04081__392__11-35-13-561.txt的数据

Date: Wed Nov 12 11:35:13 CST 2025
User: PC
Spectrometer: QEPB0408
触发模式: 0
积分时间 (秒): 1.000000E-2
Scans to average: 1
启用暗噪声校正: true
启用非线性校正: false
滑动平均宽度: 0
X轴模式: Wavelengths
Number of Pixels in Spectrum: 1044
>>>>>Begin Spectral Data<<<<<
220.843	0.38
221.644	1.38
222.444	2.38
223.244	3.38
224.045	3.38
224.845	1.38
225.645	0.38
226.445	1.38
227.245	0.38
228.045	2.38
228.845	3.38
229.645	-1.62
230.444	4.38
231.244	2.38
232.043	2.38
232.843	0.38
233.642	2.38
234.442	2.38
235.241	2.38
236.04	4.38
236.839	0.38
237.638	2.38
238.437	1.38
239.236	-0.62
240.035	1.38
240.833	1.38
241.632	2.38
242.43	2.38
243.229	3.38
244.027	3.38
244.826	3.38
245.624	2.38
246.422	1.38
247.22	3.38
248.018	3.38
248.816	3.38
249.614	2.38
250.412	2.38
251.21	3.38
252.007	3.38
252.805	3.38
253.602	1.38
254.4	3.38
255.197	2.38
255.994	6.38
256.791	6.38
257.589	6.38
258.386	5.38
259.183	6.38
259.979	5.38
260.776	6.38
261.573	7.38
262.37	5.38
263.166	5.38
263.963	5.38
264.759	6.38
265.556	5.38
266.352	8.38
267.148	6.38
267.944	8.38
268.74	5.38
269.536	7.38
270.332	9.38
271.128	7.38
271.924	7.38
272.719	9.38
273.515	11.38
274.311	7.38
275.106	10.38
275.901	8.38
276.697	8.38
277.492	10.38
278.287	10.38
279.082	11.38
279.877	10.38
280.672	11.38
281.467	11.38
282.262	12.38
283.056	11.38
283.851	11.38
284.646	11.38
285.44	10.38
286.234	11.38
287.029	8.38
287.823	14.38
288.617	13.38
289.411	11.38
290.205	12.38
290.999	12.38
291.793	12.38
292.587	13.38
293.381	12.38
294.174	9.38
294.968	11.38
295.761	13.38
296.555	10.38
297.348	12.38
298.141	13.38
298.935	10.38
299.728	11.38
300.521	6.38
301.314	10.38
302.107	9.38
302.899	9.38
303.692	6.38
304.485	9.38
305.277	9.38
306.07	10.38
306.862	10.38
307.655	8.38
308.447	9.38
309.239	8.38
310.031	10.38
310.823	7.38
311.615	8.38
312.407	7.38
313.199	7.38
313.991	7.38
314.783	7.38
315.574	6.38
316.366	5.38
317.157	7.38
317.949	7.38
318.74	5.38
319.531	5.38
320.322	6.38
321.113	5.38
321.904	5.38
322.695	5.38
323.486	6.38
324.277	5.38
325.068	6.38
325.858	4.38
326.649	6.38
327.439	4.38
328.23	4.38
329.02	3.38
329.81	4.38
330.6	7.38
331.391	3.38
332.181	4.38
332.971	3.38
333.76	3.38
334.55	6.38
335.34	3.38
336.13	3.38
336.919	5.38
337.709	2.38
338.498	3.38
339.287	4.38
340.077	5.38
340.866	6.38
341.655	3.38
342.444	3.38
343.233	1.38
344.022	3.38
344.811	2.38
345.6	6.38
346.388	3.38
347.177	3.38
347.965	3.38
348.754	2.38
349.542	4.38
350.33	5.38
351.119	5.38
351.907	2.38
352.695	4.38
353.483	2.38
354.271	4.38
355.059	5.38
355.846	3.38
356.634	3.38
357.422	3.38
358.209	3.38
358.997	5.38
359.784	5.38
360.571	4.38
361.359	3.38
362.146	6.38
362.933	3.38
363.72	4.38
364.507	5.38
365.294	3.38
366.081	4.38
366.867	4.38
367.654	4.38
368.44	2.38
369.227	2.38
370.013	5.38
370.8	2.38
371.586	6.38
372.372	1.38
373.158	4.38
373.944	3.38
374.73	1.38
375.516	5.38
376.302	2.38
377.088	3.38
377.873	4.38
378.659	3.38
379.445	4.38
380.23	3.38
381.015	4.38
381.801	4.38
382.586	4.38
383.371	3.38
384.156	6.38
384.941	4.38
385.726	1.38
386.511	5.38
387.296	6.38
388.08	2.38
388.865	4.38
389.649	3.38
390.434	4.38
391.218	3.38
392.003	3.38
392.787	4.38
393.571	4.38
394.355	3.38
395.139	2.38
395.923	5.38
396.707	4.38
397.491	3.38
398.274	6.38
399.058	5.38
399.842	5.38
400.625	4.38
401.408	5.38
402.192	4.38
402.975	5.38
403.758	5.38
404.541	5.38
405.324	3.38
406.107	3.38
406.89	5.38
407.673	5.38
408.456	4.38
409.238	3.38
410.021	6.38
410.803	5.38
411.586	4.38
412.368	7.38
413.151	3.38
413.933	7.38
414.715	5.38
415.497	7.38
416.279	5.38
417.061	5.38
417.843	5.38
418.624	3.38
419.406	6.38
420.188	6.38
420.969	4.38
421.751	7.38
422.532	7.38
423.313	7.38
424.095	6.38
424.876	8.38
425.657	7.38
426.438	8.38
427.219	6.38
428	7.38
428.78	8.38
429.561	10.38
430.342	7.38
431.122	10.38
431.903	9.38
432.683	9.38
433.464	7.38
434.244	12.38
435.024	7.38
435.804	11.38
436.584	12.38
437.364	10.38
438.144	10.38
438.924	11.38
439.704	14.38
440.483	10.38
441.263	14.38
442.042	15.38
442.822	15.38
443.601	17.38
444.38	15.38
445.16	18.38
445.939	17.38
446.718	18.38
447.497	21.38
448.276	21.38
449.054	24.38
449.833	23.38
450.612	24.38
451.391	25.38
452.169	28.38
452.948	35.38
453.726	38.38
454.504	42.38
455.282	40.38
456.061	48.38
456.839	55.38
457.617	56.38
458.395	64.38
459.172	69.38
459.95	78.38
460.728	84.38
461.506	98.38
462.283	106.38
463.061	121.38
463.838	130.38
464.615	150.38
465.393	160.38
466.17	183.38
466.947	200.38
467.724	224.38
468.501	247.38
469.278	279.38
470.055	305.38
470.831	343.38
471.608	373.38
472.385	423.38
473.161	474.38
473.938	525.38
474.714	574.38
475.49	632.38
476.266	702.38
477.043	766.38
477.819	852.38
478.595	947.38
479.371	1060.38
480.146	1159.38
480.922	1275.38
481.698	1398.38
482.473	1547.38
483.249	1701.38
484.024	1896.38
484.8	2048.38
485.575	2262.38
486.35	2488.38
487.126	2733.38
487.901	3005.38
488.676	3284.38
489.451	3636.38
490.225	3962.38
491	4352.38
491.775	4746.38
492.55	5217.38
493.324	5695.38
494.099	6220.38
494.873	6790.38
495.647	7380.38
496.422	8025.38
497.196	8674.38
497.97	9329.38
498.744	10061.38
499.518	10770.38
500.292	11442.38
501.066	12209.38
501.839	12844.38
502.613	13500.38
503.387	14095.38
504.16	14708.38
504.934	15102.38
505.707	15503.38
506.48	15795.38
507.253	16038.38
508.027	16156.38
508.8	16186.38
509.573	16003.38
510.346	15893.38
511.118	15536.38
511.891	15187.38
512.664	14774.38
513.437	14275.38
514.209	13786.38
514.982	13279.38
515.754	12788.38
516.526	12248.38
517.298	11697.38
518.071	11153.38
518.843	10683.38
519.615	10263.38
520.387	9829.38
521.159	9433.38
521.93	9043.38
522.702	8664.38
523.474	8339.38
524.245	8017.38
525.017	7691.38
525.788	7393.38
526.56	7106.38
527.331	6796.38
528.102	6532.38
528.873	6271.38
529.644	5974.38
530.415	5697.38
531.186	5420.38
531.957	5169.38
532.728	4912.38
533.498	4626.38
534.269	4384.38
535.039	4180.38
535.81	3960.38
536.58	3712.38
537.351	3504.38
538.121	3320.38
538.891	3165.38
539.661	2961.38
540.431	2796.38
541.201	2666.38
541.971	2488.38
542.741	2384.38
543.51	2265.38
544.28	2126.38
545.05	2041.38
545.819	1926.38
546.588	1851.38
547.358	1749.38
548.127	1656.38
548.896	1572.38
549.665	1502.38
550.434	1431.38
551.203	1356.38
551.972	1278.38
552.741	1200.38
553.51	1149.38
554.278	1091.38
555.047	1025.38
555.815	974.38
556.584	915.38
557.352	862.38
558.121	823.38
558.889	773.38
559.657	738.38
560.425	688.38
561.193	642.38
561.961	605.38
562.729	580.38
563.496	543.38
564.264	516.38
565.032	485.38
565.799	461.38
566.567	428.38
567.334	392.38
568.101	393.38
568.869	361.38
569.636	339.38
570.403	324.38
571.17	305.38
571.937	289.38
572.704	269.38
573.471	263.38
574.237	241.38
575.004	226.38
575.771	214.38
576.537	202.38
577.303	195.38
578.07	176.38
578.836	168.38
579.602	155.38
580.368	150.38
581.134	137.38
581.9	134.38
582.666	132.38
583.432	123.38
584.198	113.38
584.964	110.38
585.729	105.38
586.495	98.38
587.26	92.38
588.025	86.38
588.791	81.38
589.556	75.38
590.321	72.38
591.086	68.38
591.851	64.38
592.616	60.38
593.381	62.38
594.146	54.38
594.911	55.38
595.675	54.38
596.44	49.38
597.204	46.38
597.969	43.38
598.733	42.38
599.497	41.38
600.261	39.38
601.025	38.38
601.79	31.38
602.553	34.38
603.317	33.38
604.081	30.38
604.845	28.38
605.609	27.38
606.372	27.38
607.136	23.38
607.899	25.38
608.662	24.38
609.426	23.38
610.189	21.38
610.952	19.38
611.715	22.38
612.478	20.38
613.241	18.38
614.004	15.38
614.767	18.38
615.529	18.38
616.292	17.38
617.055	15.38
617.817	14.38
618.579	13.38
619.342	12.38
620.104	13.38
620.866	14.38
621.628	13.38
622.39	11.38
623.152	14.38
623.914	10.38
624.676	11.38
625.438	10.38
626.199	12.38
626.961	14.38
627.722	14.38
628.484	10.38
629.245	6.38
630.006	10.38
630.768	10.38
631.529	7.38
632.29	10.38
633.051	7.38
633.812	7.38
634.573	7.38
635.333	9.38
636.094	8.38
636.855	7.38
637.615	6.38
638.376	9.38
639.136	6.38
639.896	5.38
640.657	8.38
641.417	5.38
642.177	5.38
642.937	5.38
643.697	5.38
644.457	5.38
645.216	5.38
645.976	5.38
646.736	4.38
647.495	6.38
648.255	4.38
649.014	6.38
649.774	6.38
650.533	4.38
651.292	6.38
652.051	3.38
652.81	5.38
653.569	3.38
654.328	6.38
655.087	4.38
655.846	4.38
656.604	3.38
657.363	4.38
658.121	5.38
658.88	4.38
659.638	6.38
660.397	3.38
661.155	4.38
661.913	6.38
662.671	1.38
663.429	5.38
664.187	5.38
664.945	3.38
665.703	0.38
666.46	3.38
667.218	6.38
667.976	4.38
668.733	5.38
669.49	3.38
670.248	3.38
671.005	4.38
671.762	3.38
672.519	4.38
673.276	2.38
674.033	4.38
674.79	0.38
675.547	3.38
676.304	3.38
677.06	3.38
677.817	2.38
678.574	2.38
679.33	5.38
680.086	1.38
680.843	2.38
681.599	4.38
682.355	2.38
683.111	4.38
683.867	2.38
684.623	1.38
685.379	2.38
686.135	5.38
686.89	3.38
687.646	5.38
688.402	3.38
689.157	2.38
689.912	4.38
690.668	0.38
691.423	4.38
692.178	4.38
692.933	1.38
693.688	2.38
694.443	2.38
695.198	4.38
695.953	2.38
696.708	1.38
697.462	3.38
698.217	3.38
698.972	3.38
699.726	1.38
700.48	4.38
701.235	2.38
701.989	4.38
702.743	3.38
703.497	3.38
704.251	3.38
705.005	0.38
705.759	2.38
706.513	2.38
707.266	3.38
708.02	2.38
708.774	2.38
709.527	2.38
710.28	4.38
711.034	4.38
711.787	4.38
712.54	2.38
713.293	3.38
714.046	3.38
714.799	3.38
715.552	2.38
716.305	5.38
717.058	2.38
717.81	2.38
718.563	2.38
719.315	3.38
720.068	2.38
720.82	2.38
721.573	2.38
722.325	3.38
723.077	5.38
723.829	3.38
724.581	4.38
725.333	5.38
726.085	3.38
726.836	2.38
727.588	2.38
728.34	2.38
729.091	2.38
729.843	2.38
730.594	2.38
731.346	3.38
732.097	2.38
732.848	3.38
733.599	3.38
734.35	2.38
735.101	1.38
735.852	5.38
736.603	1.38
737.354	2.38
738.104	3.38
738.855	6.38
739.605	1.38
740.356	0.38
741.106	3.38
741.856	4.38
742.607	4.38
743.357	2.38
744.107	3.38
744.857	2.38
745.607	3.38
746.357	3.38
747.106	2.38
747.856	5.38
748.606	3.38
749.355	1.38
750.105	4.38
750.854	2.38
751.603	6.38
752.353	3.38
753.102	6.38
753.851	3.38
754.6	3.38
755.349	4.38
756.098	4.38
756.847	4.38
757.595	4.38
758.344	5.38
759.093	3.38
759.841	3.38
760.589	5.38
761.338	6.38
762.086	6.38
762.834	3.38
763.582	5.38
764.331	4.38
765.079	4.38
765.826	5.38
766.574	4.38
767.322	6.38
768.07	4.38
768.817	4.38
769.565	6.38
770.312	6.38
771.06	4.38
771.807	4.38
772.554	4.38
773.302	4.38
774.049	4.38
774.796	6.38
775.543	5.38
776.29	6.38
777.036	6.38
777.783	5.38
778.53	6.38
779.276	7.38
780.023	6.38
780.769	6.38
781.516	4.38
782.262	5.38
783.008	9.38
783.754	7.38
784.5	7.38
785.246	7.38
785.992	6.38
786.738	8.38
787.484	4.38
788.23	5.38
788.975	7.38
789.721	5.38
790.466	6.38
791.212	6.38
791.957	5.38
792.702	7.38
793.447	7.38
794.193	6.38
794.938	6.38
795.683	5.38
796.427	3.38
797.172	7.38
797.917	5.38
798.662	6.38
799.406	4.38
800.151	5.38
800.895	5.38
801.64	5.38
802.384	5.38
803.128	4.38
803.872	5.38
804.616	3.38
805.36	4.38
806.104	5.38
806.848	5.38
807.592	6.38
808.336	6.38
809.079	3.38
809.823	6.38
810.566	4.38
811.31	4.38
812.053	4.38
812.796	6.38
813.539	4.38
814.283	5.38
815.026	4.38
815.769	5.38
816.511	3.38
817.254	3.38
817.997	5.38
818.74	3.38
819.482	5.38
820.225	4.38
820.967	5.38
821.71	2.38
822.452	3.38
823.194	3.38
823.936	3.38
824.678	4.38
825.42	3.38
826.162	3.38
826.904	4.38
827.646	2.38
828.388	5.38
829.129	2.38
829.871	3.38
830.612	4.38
831.354	1.38
832.095	4.38
832.836	3.38
833.577	3.38
834.319	3.38
835.06	6.38
835.801	3.38
836.542	4.38
837.282	3.38
838.023	1.38
838.764	4.38
839.504	3.38
840.245	2.38
840.985	5.38
841.726	3.38
842.466	1.38
843.206	2.38
843.946	3.38
844.687	3.38
845.427	4.38
846.166	2.38
846.906	3.38
847.646	3.38
848.386	2.38
849.125	2.38
849.865	2.38
850.605	3.38
851.344	2.38
852.083	3.38
852.823	2.38
853.562	4.38
854.301	1.38
855.04	-0.62
855.779	5.38
856.518	3.38
857.257	1.38
857.995	4.38
858.734	2.38
859.473	3.38
860.211	3.38
860.95	3.38
861.688	1.38
862.426	3.38
863.165	-0.62
863.903	2.38
864.641	3.38
865.379	1.38
866.117	2.38
866.855	3.38
867.593	-0.62
868.33	2.38
869.068	1.38
869.806	1.38
870.543	0.38
871.28	2.38
872.018	2.38
872.755	2.38
873.492	4.38
874.229	1.38
874.967	4.38
875.703	2.38
876.44	1.38
877.177	4.38
877.914	1.38
878.651	-0.62
879.387	0.38
880.124	2.38
880.86	2.38
881.597	4.38
882.333	2.38
883.069	4.38
883.806	1.38
884.542	1.38
885.278	3.38
886.014	2.38
886.749	2.38
887.485	1.38
888.221	2.38
888.957	2.38
889.692	-0.62
890.428	2.38
891.163	2.38
891.899	3.38
892.634	1.38
893.369	1.38
894.104	3.38
894.839	3.38
895.574	2.38
896.309	2.38
897.044	2.38
897.779	0.38
898.514	1.38
899.248	2.38
899.983	1.38
900.717	-0.62
901.452	-0.62
902.186	1.38
902.92	0.38
903.654	3.38
904.389	1.38
905.123	0.38
905.857	2.38
906.59	1.38
907.324	0.38
908.058	-0.62
908.792	1.38
909.525	3.38
910.259	-0.62
910.992	3.38
911.726	2.38
912.459	1.38
913.192	-0.62
913.925	1.38
914.658	-0.62
915.391	3.38
916.124	0.38
916.857	2.38
917.59	0.38
918.323	1.38
919.055	1.38
919.788	3.38
920.521	2.38
921.253	1.38
921.985	2.38
922.718	1.38
923.45	2.38
924.182	0.38
924.914	3.38
925.646	-0.62
926.378	0.38
927.11	2.38
927.841	0.38
928.573	2.38
929.305	1.38
930.036	4.38
930.768	0.38
931.499	0.38
932.23	1.38
932.962	0.38
933.693	2.38
934.424	1.38
935.155	1.38
935.886	1.38
936.617	2.38
937.348	1.38
938.078	2.38
938.809	-0.62
939.54	2.38
940.27	1.38
941.001	1.38
941.731	1.38
942.461	0.38
943.191	1.38
943.922	2.38
944.652	2.38
945.382	1.38
946.112	0.38
946.841	2.38
947.571	-1.62
948.301	1.38
949.031	1.38
949.76	-0.62
950.49	2.38
951.219	-0.62
951.948	1.38
952.678	2.38
953.407	1.38
954.136	1.38
954.865	0.38
955.594	2.38
956.323	1.38
957.052	-0.62
957.78	3.38
958.509	-0.62
959.238	0.38
959.966	-0.62
960.695	1.38
961.423	0.38
962.151	1.38
962.88	0.38
963.608	1.38
964.336	2.38
965.064	0.38
965.792	1.38
966.52	0.38
967.247	3.38
967.975	2.38
968.703	-1.62
969.43	1.38
970.158	2.38
970.885	1.38
971.613	1.38
972.34	1.38
973.067	2.38
973.794	-0.62
974.521	4.38
975.248	2.38
975.975	3.38
976.702	1.38
977.429	-0.62
978.156	1.38
978.882	1.38
979.609	-0.62
980.335	-0.62
981.062	3.38
981.788	1.38
982.514	1.38
983.24	1.38
983.967	-0.62
984.693	3.38
985.419	2.38
986.144	1.38
986.87	1.38
987.596	0.38
988.322	0.38
989.047	0.38
989.773	3.38
990.498	2.38
991.224	1.38
991.949	-0.62
992.674	0.38
993.399	1.38
994.124	0.38
994.849	-0.62
995.574	3.38
996.299	0.38
997.024	1.38
997.749	1.38
998.473	3.38
999.198	0.38
999.922	2.38
1000.647	1.38
1001.371	3.38
1002.095	-0.62
1002.82	-0.62
1003.544	-1.62
1004.268	-0.62
1004.992	-0.62
1005.716	1.38
1006.439	0.38
1007.163	-0.62
1007.887	0.38
1008.611	1.38
1009.334	2.38
1010.058	-0.62
1010.781	2.38
1011.504	2.38
1012.228	-0.62
1012.951	2.38
1013.674	-1.62
1014.397	-0.62
1015.12	-0.62
