节点500_145_QEPB04081__637__11-39-06-169.txt的数据

Date: Wed Nov 12 11:39:06 CST 2025
User: PC
Spectrometer: QEPB0408
触发模式: 0
积分时间 (秒): 1.000000E-2
Scans to average: 1
启用暗噪声校正: true
启用非线性校正: false
滑动平均宽度: 0
X轴模式: Wavelengths
Number of Pixels in Spectrum: 1044
>>>>>Begin Spectral Data<<<<<
220.843	0.62
221.644	-1.38
222.444	-0.38
223.244	0.62
224.045	-0.38
224.845	0.62
225.645	-0.38
226.445	0.62
227.245	0.62
228.045	0.62
228.845	-0.38
229.645	-1.38
230.444	-0.38
231.244	-0.38
232.043	1.62
232.843	-1.38
233.642	1.62
234.442	-0.38
235.241	3.62
236.04	0.62
236.839	-1.38
237.638	0.62
238.437	1.62
239.236	-1.38
240.035	1.62
240.833	1.62
241.632	1.62
242.43	1.62
243.229	1.62
244.027	1.62
244.826	2.62
245.624	0.62
246.422	2.62
247.22	2.62
248.018	0.62
248.816	2.62
249.614	0.62
250.412	2.62
251.21	0.62
252.007	2.62
252.805	2.62
253.602	2.62
254.4	3.62
255.197	3.62
255.994	3.62
256.791	2.62
257.589	5.62
258.386	3.62
259.183	3.62
259.979	5.62
260.776	4.62
261.573	5.62
262.37	4.62
263.166	2.62
263.963	2.62
264.759	4.62
265.556	5.62
266.352	5.62
267.148	7.62
267.944	4.62
268.74	5.62
269.536	3.62
270.332	3.62
271.128	6.62
271.924	6.62
272.719	6.62
273.515	5.62
274.311	6.62
275.106	7.62
275.901	8.62
276.697	8.62
277.492	7.62
278.287	6.62
279.082	5.62
279.877	6.62
280.672	7.62
281.467	9.62
282.262	10.62
283.056	13.62
283.851	10.62
284.646	10.62
285.44	9.62
286.234	10.62
287.029	13.62
287.823	10.62
288.617	11.62
289.411	10.62
290.205	11.62
290.999	7.62
291.793	10.62
292.587	9.62
293.381	7.62
294.174	8.62
294.968	9.62
295.761	8.62
296.555	8.62
297.348	9.62
298.141	7.62
298.935	10.62
299.728	9.62
300.521	7.62
301.314	7.62
302.107	9.62
302.899	8.62
303.692	7.62
304.485	8.62
305.277	9.62
306.07	8.62
306.862	8.62
307.655	7.62
308.447	8.62
309.239	6.62
310.031	7.62
310.823	6.62
311.615	6.62
312.407	4.62
313.199	6.62
313.991	8.62
314.783	5.62
315.574	5.62
316.366	7.62
317.157	7.62
317.949	5.62
318.74	3.62
319.531	6.62
320.322	5.62
321.113	5.62
321.904	4.62
322.695	5.62
323.486	3.62
324.277	2.62
325.068	5.62
325.858	4.62
326.649	4.62
327.439	2.62
328.23	3.62
329.02	5.62
329.81	3.62
330.6	2.62
331.391	6.62
332.181	4.62
332.971	3.62
333.76	3.62
334.55	4.62
335.34	2.62
336.13	2.62
336.919	4.62
337.709	5.62
338.498	2.62
339.287	0.62
340.077	5.62
340.866	2.62
341.655	2.62
342.444	2.62
343.233	3.62
344.022	2.62
344.811	2.62
345.6	3.62
346.388	2.62
347.177	2.62
347.965	3.62
348.754	2.62
349.542	2.62
350.33	1.62
351.119	3.62
351.907	3.62
352.695	3.62
353.483	2.62
354.271	3.62
355.059	4.62
355.846	1.62
356.634	4.62
357.422	2.62
358.209	2.62
358.997	2.62
359.784	0.62
360.571	5.62
361.359	2.62
362.146	3.62
362.933	2.62
363.72	3.62
364.507	5.62
365.294	3.62
366.081	2.62
366.867	2.62
367.654	4.62
368.44	2.62
369.227	3.62
370.013	2.62
370.8	2.62
371.586	4.62
372.372	1.62
373.158	3.62
373.944	4.62
374.73	3.62
375.516	2.62
376.302	2.62
377.088	4.62
377.873	2.62
378.659	1.62
379.445	1.62
380.23	1.62
381.015	2.62
381.801	2.62
382.586	3.62
383.371	2.62
384.156	3.62
384.941	4.62
385.726	0.62
386.511	4.62
387.296	2.62
388.08	2.62
388.865	2.62
389.649	5.62
390.434	2.62
391.218	2.62
392.003	1.62
392.787	2.62
393.571	3.62
394.355	3.62
395.139	3.62
395.923	3.62
396.707	2.62
397.491	2.62
398.274	2.62
399.058	2.62
399.842	4.62
400.625	3.62
401.408	4.62
402.192	5.62
402.975	4.62
403.758	1.62
404.541	3.62
405.324	3.62
406.107	2.62
406.89	3.62
407.673	3.62
408.456	4.62
409.238	4.62
410.021	4.62
410.803	5.62
411.586	4.62
412.368	4.62
413.151	4.62
413.933	6.62
414.715	3.62
415.497	5.62
416.279	7.62
417.061	2.62
417.843	3.62
418.624	4.62
419.406	4.62
420.188	4.62
420.969	3.62
421.751	5.62
422.532	6.62
423.313	3.62
424.095	5.62
424.876	6.62
425.657	5.62
426.438	6.62
427.219	6.62
428	6.62
428.78	6.62
429.561	5.62
430.342	9.62
431.122	9.62
431.903	9.62
432.683	8.62
433.464	9.62
434.244	7.62
435.024	8.62
435.804	10.62
436.584	6.62
437.364	9.62
438.144	11.62
438.924	10.62
439.704	11.62
440.483	11.62
441.263	14.62
442.042	13.62
442.822	11.62
443.601	13.62
444.38	15.62
445.16	17.62
445.939	17.62
446.718	18.62
447.497	19.62
448.276	21.62
449.054	23.62
449.833	23.62
450.612	28.62
451.391	27.62
452.169	34.62
452.948	38.62
453.726	37.62
454.504	38.62
455.282	46.62
456.061	52.62
456.839	54.62
457.617	60.62
458.395	64.62
459.172	74.62
459.95	83.62
460.728	93.62
461.506	100.62
462.283	117.62
463.061	123.62
463.838	142.62
464.615	155.62
465.393	171.62
466.17	191.62
466.947	214.62
467.724	236.62
468.501	262.62
469.278	293.62
470.055	322.62
470.831	357.62
471.608	398.62
472.385	447.62
473.161	482.62
473.938	547.62
474.714	594.62
475.49	650.62
476.266	723.62
477.043	789.62
477.819	885.62
478.595	957.62
479.371	1053.62
480.146	1163.62
480.922	1281.62
481.698	1402.62
482.473	1514.62
483.249	1673.62
484.024	1848.62
484.8	2003.62
485.575	2190.62
486.35	2410.62
487.126	2623.62
487.901	2859.62
488.676	3112.62
489.451	3401.62
490.225	3703.62
491	4033.62
491.775	4428.62
492.55	4807.62
493.324	5227.62
494.099	5699.62
494.873	6184.62
495.647	6693.62
496.422	7213.62
497.196	7803.62
497.97	8446.62
498.744	9058.62
499.518	9702.62
500.292	10321.62
501.066	10966.62
501.839	11624.62
502.613	12240.62
503.387	12831.62
504.16	13328.62
504.934	13817.62
505.707	14234.62
506.48	14563.62
507.253	14861.62
508.027	14985.62
508.8	15143.62
509.573	15115.62
510.346	15053.62
511.118	14893.62
511.891	14630.62
512.664	14295.62
513.437	13977.62
514.209	13534.62
514.982	13153.62
515.754	12648.62
516.526	12163.62
517.298	11638.62
518.071	11158.62
518.843	10714.62
519.615	10249.62
520.387	9805.62
521.159	9501.62
521.93	9057.62
522.702	8734.62
523.474	8388.62
524.245	8072.62
525.017	7735.62
525.788	7398.62
526.56	7133.62
527.331	6847.62
528.102	6570.62
528.873	6258.62
529.644	6014.62
530.415	5732.62
531.186	5497.62
531.957	5253.62
532.728	5002.62
533.498	4723.62
534.269	4505.62
535.039	4291.62
535.81	4044.62
536.58	3808.62
537.351	3607.62
538.121	3458.62
538.891	3256.62
539.661	3075.62
540.431	2910.62
541.201	2740.62
541.971	2601.62
542.741	2488.62
543.51	2341.62
544.28	2209.62
545.05	2110.62
545.819	1994.62
546.588	1905.62
547.358	1799.62
548.127	1725.62
548.896	1632.62
549.665	1551.62
550.434	1467.62
551.203	1392.62
551.972	1339.62
552.741	1257.62
553.51	1213.62
554.278	1130.62
555.047	1076.62
555.815	1017.62
556.584	961.62
557.352	893.62
558.121	853.62
558.889	809.62
559.657	766.62
560.425	723.62
561.193	682.62
561.961	632.62
562.729	599.62
563.496	565.62
564.264	543.62
565.032	508.62
565.799	473.62
566.567	441.62
567.334	425.62
568.101	394.62
568.869	387.62
569.636	364.62
570.403	331.62
571.17	321.62
571.937	297.62
572.704	283.62
573.471	265.62
574.237	250.62
575.004	233.62
575.771	223.62
576.537	212.62
577.303	196.62
578.07	188.62
578.836	178.62
579.602	164.62
580.368	155.62
581.134	146.62
581.9	135.62
582.666	134.62
583.432	124.62
584.198	119.62
584.964	115.62
585.729	107.62
586.495	101.62
587.26	91.62
588.025	90.62
588.791	83.62
589.556	79.62
590.321	74.62
591.086	72.62
591.851	69.62
592.616	65.62
593.381	59.62
594.146	58.62
594.911	57.62
595.675	54.62
596.44	49.62
597.204	46.62
597.969	44.62
598.733	44.62
599.497	41.62
600.261	41.62
601.025	35.62
601.79	36.62
602.553	35.62
603.317	36.62
604.081	30.62
604.845	29.62
605.609	28.62
606.372	25.62
607.136	25.62
607.899	24.62
608.662	22.62
609.426	25.62
610.189	21.62
610.952	21.62
611.715	21.62
612.478	21.62
613.241	19.62
614.004	17.62
614.767	17.62
615.529	16.62
616.292	16.62
617.055	16.62
617.817	15.62
618.579	12.62
619.342	13.62
620.104	13.62
620.866	10.62
621.628	12.62
622.39	12.62
623.152	12.62
623.914	13.62
624.676	10.62
625.438	11.62
626.199	7.62
626.961	7.62
627.722	9.62
628.484	8.62
629.245	11.62
630.006	6.62
630.768	9.62
631.529	9.62
632.29	6.62
633.051	9.62
633.812	7.62
634.573	5.62
635.333	6.62
636.094	7.62
636.855	5.62
637.615	6.62
638.376	7.62
639.136	4.62
639.896	6.62
640.657	5.62
641.417	3.62
642.177	9.62
642.937	4.62
643.697	5.62
644.457	3.62
645.216	8.62
645.976	6.62
646.736	6.62
647.495	3.62
648.255	3.62
649.014	5.62
649.774	3.62
650.533	6.62
651.292	3.62
652.051	2.62
652.81	3.62
653.569	1.62
654.328	5.62
655.087	3.62
655.846	5.62
656.604	-0.38
657.363	2.62
658.121	3.62
658.88	4.62
659.638	2.62
660.397	4.62
661.155	3.62
661.913	5.62
662.671	3.62
663.429	3.62
664.187	1.62
664.945	4.62
665.703	3.62
666.46	5.62
667.218	2.62
667.976	3.62
668.733	2.62
669.49	0.62
670.248	2.62
671.005	4.62
671.762	2.62
672.519	2.62
673.276	3.62
674.033	2.62
674.79	1.62
675.547	2.62
676.304	2.62
677.06	1.62
677.817	2.62
678.574	1.62
679.33	4.62
680.086	0.62
680.843	0.62
681.599	1.62
682.355	5.62
683.111	2.62
683.867	2.62
684.623	3.62
685.379	0.62
686.135	2.62
686.89	-0.38
687.646	1.62
688.402	4.62
689.157	2.62
689.912	2.62
690.668	2.62
691.423	3.62
692.178	4.62
692.933	1.62
693.688	1.62
694.443	3.62
695.198	1.62
695.953	2.62
696.708	2.62
697.462	1.62
698.217	1.62
698.972	2.62
699.726	0.62
700.48	1.62
701.235	2.62
701.989	3.62
702.743	3.62
703.497	4.62
704.251	1.62
705.005	1.62
705.759	1.62
706.513	1.62
707.266	1.62
708.02	2.62
708.774	2.62
709.527	4.62
710.28	0.62
711.034	3.62
711.787	0.62
712.54	1.62
713.293	0.62
714.046	3.62
714.799	0.62
715.552	0.62
716.305	2.62
717.058	1.62
717.81	2.62
718.563	1.62
719.315	2.62
720.068	0.62
720.82	2.62
721.573	1.62
722.325	0.62
723.077	2.62
723.829	2.62
724.581	-0.38
725.333	2.62
726.085	1.62
726.836	0.62
727.588	2.62
728.34	2.62
729.091	2.62
729.843	2.62
730.594	2.62
731.346	0.62
732.097	4.62
732.848	0.62
733.599	0.62
734.35	1.62
735.101	2.62
735.852	0.62
736.603	3.62
737.354	2.62
738.104	2.62
738.855	1.62
739.605	1.62
740.356	2.62
741.106	1.62
741.856	1.62
742.607	2.62
743.357	0.62
744.107	3.62
744.857	-0.38
745.607	1.62
746.357	2.62
747.106	1.62
747.856	2.62
748.606	1.62
749.355	3.62
750.105	0.62
750.854	1.62
751.603	2.62
752.353	2.62
753.102	1.62
753.851	2.62
754.6	1.62
755.349	3.62
756.098	2.62
756.847	4.62
757.595	1.62
758.344	1.62
759.093	1.62
759.841	3.62
760.589	0.62
761.338	1.62
762.086	4.62
762.834	1.62
763.582	2.62
764.331	7.62
765.079	3.62
765.826	2.62
766.574	5.62
767.322	4.62
768.07	4.62
768.817	2.62
769.565	1.62
770.312	3.62
771.06	3.62
771.807	3.62
772.554	2.62
773.302	2.62
774.049	3.62
774.796	4.62
775.543	5.62
776.29	5.62
777.036	2.62
777.783	3.62
778.53	4.62
779.276	6.62
780.023	2.62
780.769	3.62
781.516	2.62
782.262	2.62
783.008	4.62
783.754	3.62
784.5	4.62
785.246	6.62
785.992	3.62
786.738	4.62
787.484	5.62
788.23	4.62
788.975	4.62
789.721	5.62
790.466	6.62
791.212	6.62
791.957	4.62
792.702	2.62
793.447	7.62
794.193	5.62
794.938	5.62
795.683	5.62
796.427	6.62
797.172	3.62
797.917	5.62
798.662	5.62
799.406	0.62
800.151	3.62
800.895	3.62
801.64	3.62
802.384	4.62
803.128	5.62
803.872	4.62
804.616	3.62
805.36	5.62
806.104	1.62
806.848	4.62
807.592	2.62
808.336	3.62
809.079	4.62
809.823	3.62
810.566	4.62
811.31	3.62
812.053	1.62
812.796	3.62
813.539	4.62
814.283	1.62
815.026	2.62
815.769	3.62
816.511	5.62
817.254	2.62
817.997	3.62
818.74	3.62
819.482	2.62
820.225	2.62
820.967	2.62
821.71	3.62
822.452	3.62
823.194	4.62
823.936	3.62
824.678	4.62
825.42	4.62
826.162	5.62
826.904	3.62
827.646	0.62
828.388	2.62
829.129	1.62
829.871	3.62
830.612	0.62
831.354	4.62
832.095	3.62
832.836	5.62
833.577	4.62
834.319	2.62
835.06	4.62
835.801	3.62
836.542	2.62
837.282	2.62
838.023	2.62
838.764	3.62
839.504	2.62
840.245	2.62
840.985	1.62
841.726	5.62
842.466	1.62
843.206	2.62
843.946	1.62
844.687	0.62
845.427	3.62
846.166	1.62
846.906	2.62
847.646	3.62
848.386	2.62
849.125	1.62
849.865	3.62
850.605	2.62
851.344	1.62
852.083	2.62
852.823	1.62
853.562	1.62
854.301	0.62
855.04	1.62
855.779	1.62
856.518	1.62
857.257	2.62
857.995	1.62
858.734	1.62
859.473	2.62
860.211	2.62
860.95	2.62
861.688	2.62
862.426	3.62
863.165	0.62
863.903	0.62
864.641	0.62
865.379	1.62
866.117	1.62
866.855	0.62
867.593	0.62
868.33	0.62
869.068	1.62
869.806	0.62
870.543	1.62
871.28	1.62
872.018	-0.38
872.755	1.62
873.492	2.62
874.229	1.62
874.967	-1.38
875.703	1.62
876.44	0.62
877.177	1.62
877.914	-0.38
878.651	-0.38
879.387	0.62
880.124	2.62
880.86	-0.38
881.597	2.62
882.333	0.62
883.069	-0.38
883.806	1.62
884.542	0.62
885.278	0.62
886.014	-1.38
886.749	-1.38
887.485	-0.38
888.221	2.62
888.957	0.62
889.692	0.62
890.428	1.62
891.163	1.62
891.899	1.62
892.634	-1.38
893.369	1.62
894.104	-1.38
894.839	-1.38
895.574	1.62
896.309	0.62
897.044	1.62
897.779	0.62
898.514	1.62
899.248	-1.38
899.983	-0.38
900.717	2.62
901.452	0.62
902.186	1.62
902.92	1.62
903.654	0.62
904.389	-1.38
905.123	1.62
905.857	0.62
906.59	0.62
907.324	0.62
908.058	1.62
908.792	0.62
909.525	-0.38
910.259	-0.38
910.992	1.62
911.726	0.62
912.459	-1.38
913.192	1.62
913.925	0.62
914.658	0.62
915.391	-0.38
916.124	-0.38
916.857	-0.38
917.59	0.62
918.323	1.62
919.055	0.62
919.788	0.62
920.521	-0.38
921.253	2.62
921.985	0.62
922.718	1.62
923.45	-0.38
924.182	-0.38
924.914	0.62
925.646	-0.38
926.378	-0.38
927.11	-0.38
927.841	0.62
928.573	1.62
929.305	-1.38
930.036	0.62
930.768	-1.38
931.499	1.62
932.23	1.62
932.962	-0.38
933.693	1.62
934.424	-0.38
935.155	-0.38
935.886	-0.38
936.617	-1.38
937.348	0.62
938.078	0.62
938.809	-0.38
939.54	-0.38
940.27	-0.38
941.001	0.62
941.731	1.62
942.461	-1.38
943.191	-1.38
943.922	-0.38
944.652	-0.38
945.382	-0.38
946.112	0.62
946.841	-0.38
947.571	1.62
948.301	0.62
949.031	2.62
949.76	-0.38
950.49	1.62
951.219	-1.38
951.948	2.62
952.678	0.62
953.407	-0.38
954.136	-0.38
954.865	0.62
955.594	-0.38
956.323	0.62
957.052	1.62
957.78	1.62
958.509	1.62
959.238	-0.38
959.966	-0.38
960.695	2.62
961.423	-0.38
962.151	1.62
962.88	-2.38
963.608	-1.38
964.336	-1.38
965.064	-1.38
965.792	-0.38
966.52	-1.38
967.247	0.62
967.975	-0.38
968.703	-1.38
969.43	0.62
970.158	-1.38
970.885	0.62
971.613	1.62
972.34	2.62
973.067	-0.38
973.794	-1.38
974.521	0.62
975.248	2.62
975.975	0.62
976.702	1.62
977.429	-1.38
978.156	0.62
978.882	1.62
979.609	0.62
980.335	0.62
981.062	2.62
981.788	-1.38
982.514	0.62
983.24	0.62
983.967	-1.38
984.693	2.62
985.419	0.62
986.144	0.62
986.87	2.62
987.596	2.62
988.322	-0.38
989.047	0.62
989.773	0.62
990.498	-1.38
991.224	2.62
991.949	2.62
992.674	0.62
993.399	0.62
994.124	-1.38
994.849	-1.38
995.574	0.62
996.299	-0.38
997.024	-0.38
997.749	-0.38
998.473	-0.38
999.198	0.62
999.922	0.62
1000.647	1.62
1001.371	3.62
1002.095	0.62
1002.82	-1.38
1003.544	-1.38
1004.268	0.62
1004.992	0.62
1005.716	-0.38
1006.439	-0.38
1007.163	-1.38
1007.887	1.62
1008.611	-0.38
1009.334	-2.38
1010.058	-0.38
1010.781	0.62
1011.504	-2.38
1012.228	-0.38
1012.951	-0.38
1013.674	-1.38
1014.397	-0.38
1015.12	0.62
