节点500_145_QEPB04081__534__11-37-25-489.txt的数据

Date: Wed Nov 12 11:37:25 CST 2025
User: PC
Spectrometer: QEPB0408
触发模式: 0
积分时间 (秒): 1.000000E-2
Scans to average: 1
启用暗噪声校正: true
启用非线性校正: false
滑动平均宽度: 0
X轴模式: Wavelengths
Number of Pixels in Spectrum: 1044
>>>>>Begin Spectral Data<<<<<
220.843	0.38
221.644	2.38
222.444	0.38
223.244	0.38
224.045	1.38
224.845	-0.62
225.645	0.38
226.445	2.38
227.245	-1.62
228.045	-1.62
228.845	1.38
229.645	0.38
230.444	1.38
231.244	0.38
232.043	1.38
232.843	0.38
233.642	-0.62
234.442	1.38
235.241	1.38
236.04	2.38
236.839	0.38
237.638	-0.62
238.437	4.38
239.236	1.38
240.035	3.38
240.833	1.38
241.632	2.38
242.43	2.38
243.229	1.38
244.027	2.38
244.826	0.38
245.624	-0.62
246.422	2.38
247.22	0.38
248.018	1.38
248.816	2.38
249.614	3.38
250.412	2.38
251.21	3.38
252.007	2.38
252.805	2.38
253.602	3.38
254.4	2.38
255.197	2.38
255.994	2.38
256.791	3.38
257.589	4.38
258.386	4.38
259.183	2.38
259.979	2.38
260.776	3.38
261.573	4.38
262.37	3.38
263.166	3.38
263.963	4.38
264.759	3.38
265.556	5.38
266.352	5.38
267.148	2.38
267.944	5.38
268.74	6.38
269.536	5.38
270.332	5.38
271.128	7.38
271.924	8.38
272.719	7.38
273.515	8.38
274.311	6.38
275.106	9.38
275.901	7.38
276.697	9.38
277.492	8.38
278.287	7.38
279.082	5.38
279.877	7.38
280.672	10.38
281.467	10.38
282.262	11.38
283.056	10.38
283.851	7.38
284.646	9.38
285.44	9.38
286.234	10.38
287.029	9.38
287.823	8.38
288.617	10.38
289.411	9.38
290.205	9.38
290.999	10.38
291.793	10.38
292.587	12.38
293.381	11.38
294.174	11.38
294.968	10.38
295.761	10.38
296.555	10.38
297.348	11.38
298.141	9.38
298.935	9.38
299.728	9.38
300.521	8.38
301.314	6.38
302.107	8.38
302.899	8.38
303.692	8.38
304.485	8.38
305.277	9.38
306.07	8.38
306.862	10.38
307.655	5.38
308.447	9.38
309.239	6.38
310.031	9.38
310.823	5.38
311.615	4.38
312.407	7.38
313.199	6.38
313.991	6.38
314.783	8.38
315.574	4.38
316.366	7.38
317.157	7.38
317.949	6.38
318.74	6.38
319.531	3.38
320.322	4.38
321.113	4.38
321.904	6.38
322.695	4.38
323.486	4.38
324.277	2.38
325.068	4.38
325.858	6.38
326.649	4.38
327.439	2.38
328.23	3.38
329.02	5.38
329.81	5.38
330.6	2.38
331.391	5.38
332.181	3.38
332.971	4.38
333.76	2.38
334.55	3.38
335.34	1.38
336.13	4.38
336.919	3.38
337.709	3.38
338.498	3.38
339.287	2.38
340.077	2.38
340.866	5.38
341.655	2.38
342.444	4.38
343.233	1.38
344.022	4.38
344.811	1.38
345.6	2.38
346.388	4.38
347.177	4.38
347.965	5.38
348.754	2.38
349.542	2.38
350.33	2.38
351.119	3.38
351.907	3.38
352.695	2.38
353.483	2.38
354.271	4.38
355.059	3.38
355.846	2.38
356.634	1.38
357.422	2.38
358.209	2.38
358.997	4.38
359.784	2.38
360.571	2.38
361.359	4.38
362.146	2.38
362.933	3.38
363.72	2.38
364.507	2.38
365.294	2.38
366.081	3.38
366.867	2.38
367.654	2.38
368.44	2.38
369.227	1.38
370.013	4.38
370.8	1.38
371.586	5.38
372.372	1.38
373.158	2.38
373.944	2.38
374.73	2.38
375.516	2.38
376.302	4.38
377.088	2.38
377.873	3.38
378.659	4.38
379.445	1.38
380.23	2.38
381.015	4.38
381.801	3.38
382.586	4.38
383.371	5.38
384.156	2.38
384.941	5.38
385.726	1.38
386.511	2.38
387.296	1.38
388.08	3.38
388.865	1.38
389.649	6.38
390.434	4.38
391.218	4.38
392.003	4.38
392.787	3.38
393.571	2.38
394.355	4.38
395.139	2.38
395.923	4.38
396.707	2.38
397.491	2.38
398.274	3.38
399.058	2.38
399.842	2.38
400.625	2.38
401.408	2.38
402.192	2.38
402.975	5.38
403.758	2.38
404.541	4.38
405.324	1.38
406.107	5.38
406.89	3.38
407.673	2.38
408.456	4.38
409.238	4.38
410.021	3.38
410.803	4.38
411.586	2.38
412.368	5.38
413.151	4.38
413.933	5.38
414.715	3.38
415.497	4.38
416.279	3.38
417.061	5.38
417.843	3.38
418.624	4.38
419.406	5.38
420.188	4.38
420.969	5.38
421.751	4.38
422.532	4.38
423.313	7.38
424.095	7.38
424.876	5.38
425.657	4.38
426.438	4.38
427.219	7.38
428	6.38
428.78	8.38
429.561	7.38
430.342	7.38
431.122	7.38
431.903	5.38
432.683	9.38
433.464	7.38
434.244	8.38
435.024	9.38
435.804	10.38
436.584	8.38
437.364	10.38
438.144	8.38
438.924	10.38
439.704	9.38
440.483	13.38
441.263	11.38
442.042	12.38
442.822	13.38
443.601	14.38
444.38	13.38
445.16	15.38
445.939	17.38
446.718	17.38
447.497	20.38
448.276	23.38
449.054	19.38
449.833	23.38
450.612	28.38
451.391	28.38
452.169	31.38
452.948	30.38
453.726	36.38
454.504	43.38
455.282	41.38
456.061	49.38
456.839	51.38
457.617	58.38
458.395	67.38
459.172	69.38
459.95	80.38
460.728	89.38
461.506	101.38
462.283	104.38
463.061	123.38
463.838	136.38
464.615	153.38
465.393	168.38
466.17	192.38
466.947	205.38
467.724	236.38
468.501	261.38
469.278	286.38
470.055	325.38
470.831	353.38
471.608	398.38
472.385	430.38
473.161	488.38
473.938	538.38
474.714	594.38
475.49	649.38
476.266	716.38
477.043	797.38
477.819	866.38
478.595	965.38
479.371	1061.38
480.146	1164.38
480.922	1276.38
481.698	1404.38
482.473	1551.38
483.249	1694.38
484.024	1850.38
484.8	2034.38
485.575	2228.38
486.35	2457.38
487.126	2685.38
487.901	2954.38
488.676	3225.38
489.451	3534.38
490.225	3856.38
491	4208.38
491.775	4603.38
492.55	5046.38
493.324	5504.38
494.099	5992.38
494.873	6488.38
495.647	7054.38
496.422	7657.38
497.196	8270.38
497.97	8918.38
498.744	9587.38
499.518	10262.38
500.292	10933.38
501.066	11646.38
501.839	12302.38
502.613	12872.38
503.387	13478.38
504.16	14054.38
504.934	14583.38
505.707	14973.38
506.48	15229.38
507.253	15470.38
508.027	15633.38
508.8	15680.38
509.573	15675.38
510.346	15504.38
511.118	15278.38
511.891	14953.38
512.664	14584.38
513.437	14171.38
514.209	13744.38
514.982	13198.38
515.754	12769.38
516.526	12243.38
517.298	11705.38
518.071	11218.38
518.843	10755.38
519.615	10318.38
520.387	9809.38
521.159	9448.38
521.93	9087.38
522.702	8722.38
523.474	8415.38
524.245	8073.38
525.017	7768.38
525.788	7443.38
526.56	7102.38
527.331	6831.38
528.102	6550.38
528.873	6256.38
529.644	5993.38
530.415	5735.38
531.186	5473.38
531.957	5213.38
532.728	4941.38
533.498	4677.38
534.269	4443.38
535.039	4241.38
535.81	3997.38
536.58	3785.38
537.351	3586.38
538.121	3373.38
538.891	3199.38
539.661	3016.38
540.431	2850.38
541.201	2694.38
541.971	2559.38
542.741	2423.38
543.51	2299.38
544.28	2173.38
545.05	2071.38
545.819	1958.38
546.588	1868.38
547.358	1792.38
548.127	1694.38
548.896	1610.38
549.665	1530.38
550.434	1441.38
551.203	1380.38
551.972	1311.38
552.741	1240.38
553.51	1175.38
554.278	1117.38
555.047	1070.38
555.815	1000.38
556.584	945.38
557.352	872.38
558.121	841.38
558.889	795.38
559.657	742.38
560.425	703.38
561.193	652.38
561.961	625.38
562.729	590.38
563.496	560.38
564.264	520.38
565.032	491.38
565.799	465.38
566.567	436.38
567.334	423.38
568.101	391.38
568.869	370.38
569.636	349.38
570.403	330.38
571.17	313.38
571.937	293.38
572.704	273.38
573.471	259.38
574.237	238.38
575.004	227.38
575.771	221.38
576.537	203.38
577.303	193.38
578.07	182.38
578.836	170.38
579.602	160.38
580.368	153.38
581.134	144.38
581.9	140.38
582.666	131.38
583.432	124.38
584.198	111.38
584.964	110.38
585.729	105.38
586.495	101.38
587.26	94.38
588.025	83.38
588.791	85.38
589.556	79.38
590.321	71.38
591.086	67.38
591.851	64.38
592.616	63.38
593.381	57.38
594.146	57.38
594.911	53.38
595.675	51.38
596.44	47.38
597.204	43.38
597.969	45.38
598.733	40.38
599.497	41.38
600.261	39.38
601.025	39.38
601.79	34.38
602.553	30.38
603.317	31.38
604.081	32.38
604.845	29.38
605.609	28.38
606.372	27.38
607.136	25.38
607.899	22.38
608.662	22.38
609.426	19.38
610.189	21.38
610.952	18.38
611.715	21.38
612.478	18.38
613.241	20.38
614.004	19.38
614.767	17.38
615.529	15.38
616.292	15.38
617.055	15.38
617.817	12.38
618.579	14.38
619.342	13.38
620.104	12.38
620.866	13.38
621.628	14.38
622.39	9.38
623.152	11.38
623.914	12.38
624.676	9.38
625.438	7.38
626.199	11.38
626.961	11.38
627.722	10.38
628.484	10.38
629.245	7.38
630.006	10.38
630.768	6.38
631.529	9.38
632.29	9.38
633.051	7.38
633.812	6.38
634.573	7.38
635.333	7.38
636.094	3.38
636.855	7.38
637.615	7.38
638.376	7.38
639.136	7.38
639.896	3.38
640.657	7.38
641.417	6.38
642.177	6.38
642.937	6.38
643.697	5.38
644.457	5.38
645.216	5.38
645.976	4.38
646.736	6.38
647.495	6.38
648.255	3.38
649.014	4.38
649.774	5.38
650.533	5.38
651.292	2.38
652.051	3.38
652.81	3.38
653.569	5.38
654.328	3.38
655.087	4.38
655.846	4.38
656.604	2.38
657.363	4.38
658.121	4.38
658.88	4.38
659.638	3.38
660.397	2.38
661.155	2.38
661.913	3.38
662.671	2.38
663.429	3.38
664.187	2.38
664.945	2.38
665.703	4.38
666.46	2.38
667.218	-0.62
667.976	3.38
668.733	2.38
669.49	2.38
670.248	1.38
671.005	5.38
671.762	3.38
672.519	4.38
673.276	3.38
674.033	1.38
674.79	4.38
675.547	1.38
676.304	2.38
677.06	2.38
677.817	2.38
678.574	2.38
679.33	2.38
680.086	2.38
680.843	1.38
681.599	2.38
682.355	2.38
683.111	0.38
683.867	3.38
684.623	1.38
685.379	2.38
686.135	1.38
686.89	3.38
687.646	0.38
688.402	2.38
689.157	2.38
689.912	1.38
690.668	3.38
691.423	0.38
692.178	3.38
692.933	1.38
693.688	2.38
694.443	1.38
695.198	1.38
695.953	3.38
696.708	1.38
697.462	1.38
698.217	2.38
698.972	3.38
699.726	2.38
700.48	1.38
701.235	2.38
701.989	3.38
702.743	1.38
703.497	2.38
704.251	1.38
705.005	3.38
705.759	2.38
706.513	1.38
707.266	3.38
708.02	3.38
708.774	2.38
709.527	2.38
710.28	0.38
711.034	1.38
711.787	1.38
712.54	2.38
713.293	0.38
714.046	0.38
714.799	2.38
715.552	-0.62
716.305	-0.62
717.058	1.38
717.81	2.38
718.563	4.38
719.315	2.38
720.068	0.38
720.82	3.38
721.573	2.38
722.325	3.38
723.077	2.38
723.829	1.38
724.581	3.38
725.333	2.38
726.085	3.38
726.836	1.38
727.588	2.38
728.34	1.38
729.091	0.38
729.843	1.38
730.594	0.38
731.346	1.38
732.097	2.38
732.848	3.38
733.599	1.38
734.35	1.38
735.101	3.38
735.852	4.38
736.603	3.38
737.354	0.38
738.104	4.38
738.855	1.38
739.605	3.38
740.356	4.38
741.106	1.38
741.856	1.38
742.607	1.38
743.357	2.38
744.107	1.38
744.857	3.38
745.607	2.38
746.357	2.38
747.106	4.38
747.856	1.38
748.606	4.38
749.355	4.38
750.105	2.38
750.854	2.38
751.603	2.38
752.353	2.38
753.102	3.38
753.851	3.38
754.6	3.38
755.349	4.38
756.098	2.38
756.847	2.38
757.595	2.38
758.344	1.38
759.093	2.38
759.841	1.38
760.589	1.38
761.338	2.38
762.086	5.38
762.834	2.38
763.582	1.38
764.331	6.38
765.079	4.38
765.826	3.38
766.574	4.38
767.322	3.38
768.07	3.38
768.817	2.38
769.565	2.38
770.312	3.38
771.06	4.38
771.807	2.38
772.554	5.38
773.302	4.38
774.049	3.38
774.796	3.38
775.543	4.38
776.29	5.38
777.036	4.38
777.783	5.38
778.53	5.38
779.276	2.38
780.023	7.38
780.769	5.38
781.516	5.38
782.262	5.38
783.008	3.38
783.754	7.38
784.5	3.38
785.246	6.38
785.992	5.38
786.738	3.38
787.484	5.38
788.23	7.38
788.975	4.38
789.721	5.38
790.466	4.38
791.212	5.38
791.957	3.38
792.702	4.38
793.447	3.38
794.193	3.38
794.938	6.38
795.683	2.38
796.427	4.38
797.172	4.38
797.917	5.38
798.662	4.38
799.406	5.38
800.151	3.38
800.895	3.38
801.64	4.38
802.384	2.38
803.128	7.38
803.872	2.38
804.616	5.38
805.36	3.38
806.104	5.38
806.848	5.38
807.592	1.38
808.336	5.38
809.079	1.38
809.823	2.38
810.566	1.38
811.31	4.38
812.053	4.38
812.796	0.38
813.539	4.38
814.283	3.38
815.026	3.38
815.769	3.38
816.511	4.38
817.254	2.38
817.997	0.38
818.74	2.38
819.482	3.38
820.225	2.38
820.967	2.38
821.71	4.38
822.452	4.38
823.194	3.38
823.936	2.38
824.678	1.38
825.42	3.38
826.162	1.38
826.904	1.38
827.646	1.38
828.388	2.38
829.129	0.38
829.871	1.38
830.612	2.38
831.354	2.38
832.095	3.38
832.836	3.38
833.577	0.38
834.319	1.38
835.06	1.38
835.801	2.38
836.542	3.38
837.282	1.38
838.023	1.38
838.764	1.38
839.504	3.38
840.245	1.38
840.985	3.38
841.726	2.38
842.466	0.38
843.206	2.38
843.946	1.38
844.687	2.38
845.427	1.38
846.166	3.38
846.906	2.38
847.646	3.38
848.386	4.38
849.125	1.38
849.865	2.38
850.605	1.38
851.344	0.38
852.083	2.38
852.823	0.38
853.562	0.38
854.301	2.38
855.04	4.38
855.779	0.38
856.518	5.38
857.257	0.38
857.995	0.38
858.734	1.38
859.473	1.38
860.211	1.38
860.95	2.38
861.688	1.38
862.426	1.38
863.165	1.38
863.903	0.38
864.641	0.38
865.379	2.38
866.117	4.38
866.855	3.38
867.593	1.38
868.33	0.38
869.068	0.38
869.806	-0.62
870.543	1.38
871.28	0.38
872.018	2.38
872.755	0.38
873.492	0.38
874.229	3.38
874.967	-2.62
875.703	2.38
876.44	2.38
877.177	2.38
877.914	0.38
878.651	-0.62
879.387	-1.62
880.124	2.38
880.86	3.38
881.597	1.38
882.333	-0.62
883.069	-0.62
883.806	-0.62
884.542	1.38
885.278	0.38
886.014	0.38
886.749	1.38
887.485	-0.62
888.221	0.38
888.957	1.38
889.692	1.38
890.428	1.38
891.163	0.38
891.899	1.38
892.634	0.38
893.369	0.38
894.104	-0.62
894.839	1.38
895.574	-2.62
896.309	1.38
897.044	1.38
897.779	3.38
898.514	-1.62
899.248	-0.62
899.983	-0.62
900.717	0.38
901.452	1.38
902.186	0.38
902.92	3.38
903.654	2.38
904.389	-0.62
905.123	2.38
905.857	2.38
906.59	-0.62
907.324	1.38
908.058	2.38
908.792	1.38
909.525	1.38
910.259	0.38
910.992	-0.62
911.726	2.38
912.459	1.38
913.192	0.38
913.925	1.38
914.658	0.38
915.391	1.38
916.124	2.38
916.857	0.38
917.59	-0.62
918.323	-0.62
919.055	-1.62
919.788	0.38
920.521	-0.62
921.253	-0.62
921.985	0.38
922.718	2.38
923.45	-0.62
924.182	0.38
924.914	1.38
925.646	0.38
926.378	0.38
927.11	1.38
927.841	-1.62
928.573	-1.62
929.305	-0.62
930.036	-2.62
930.768	0.38
931.499	2.38
932.23	-0.62
932.962	-0.62
933.693	-3.62
934.424	0.38
935.155	-1.62
935.886	1.38
936.617	-1.62
937.348	0.38
938.078	0.38
938.809	0.38
939.54	-0.62
940.27	0.38
941.001	1.38
941.731	0.38
942.461	0.38
943.191	1.38
943.922	0.38
944.652	-1.62
945.382	0.38
946.112	0.38
946.841	-0.62
947.571	0.38
948.301	1.38
949.031	-0.62
949.76	-0.62
950.49	-0.62
951.219	1.38
951.948	0.38
952.678	-0.62
953.407	-0.62
954.136	-0.62
954.865	0.38
955.594	1.38
956.323	0.38
957.052	-1.62
957.78	-0.62
958.509	-0.62
959.238	-0.62
959.966	0.38
960.695	1.38
961.423	-1.62
962.151	-0.62
962.88	0.38
963.608	1.38
964.336	-2.62
965.064	2.38
965.792	-1.62
966.52	-0.62
967.247	0.38
967.975	0.38
968.703	1.38
969.43	-0.62
970.158	1.38
970.885	1.38
971.613	1.38
972.34	-0.62
973.067	0.38
973.794	1.38
974.521	1.38
975.248	1.38
975.975	1.38
976.702	-2.62
977.429	0.38
978.156	-1.62
978.882	0.38
979.609	-2.62
980.335	-0.62
981.062	1.38
981.788	-0.62
982.514	0.38
983.24	-0.62
983.967	-0.62
984.693	0.38
985.419	2.38
986.144	1.38
986.87	0.38
987.596	0.38
988.322	-2.62
989.047	1.38
989.773	-0.62
990.498	3.38
991.224	-0.62
991.949	-0.62
992.674	0.38
993.399	-1.62
994.124	1.38
994.849	-1.62
995.574	-1.62
996.299	0.38
997.024	-2.62
997.749	1.38
998.473	-1.62
999.198	1.38
999.922	-0.62
1000.647	-1.62
1001.371	1.38
1002.095	-0.62
1002.82	-1.62
1003.544	0.38
1004.268	1.38
1004.992	-1.62
1005.716	3.38
1006.439	0.38
1007.163	-0.62
1007.887	-1.62
1008.611	-0.62
1009.334	0.38
1010.058	1.38
1010.781	-0.62
1011.504	2.38
1012.228	-1.62
1012.951	1.38
1013.674	-0.62
1014.397	-0.62
1015.12	0.38
