节点500_145_QEPB04081__523__11-37-14-522.txt的数据

Date: Wed Nov 12 11:37:14 CST 2025
User: PC
Spectrometer: QEPB0408
触发模式: 0
积分时间 (秒): 1.000000E-2
Scans to average: 1
启用暗噪声校正: true
启用非线性校正: false
滑动平均宽度: 0
X轴模式: Wavelengths
Number of Pixels in Spectrum: 1044
>>>>>Begin Spectral Data<<<<<
220.843	-2.75
221.644	-1.75
222.444	0.25
223.244	2.25
224.045	-0.75
224.845	1.25
225.645	0.25
226.445	0.25
227.245	-1.75
228.045	-0.75
228.845	-0.75
229.645	1.25
230.444	-1.75
231.244	1.25
232.043	-1.75
232.843	-0.75
233.642	0.25
234.442	-0.75
235.241	0.25
236.04	0.25
236.839	3.25
237.638	-1.75
238.437	0.25
239.236	2.25
240.035	1.25
240.833	-0.75
241.632	0.25
242.43	0.25
243.229	2.25
244.027	4.25
244.826	-0.75
245.624	0.25
246.422	2.25
247.22	1.25
248.018	0.25
248.816	1.25
249.614	3.25
250.412	2.25
251.21	1.25
252.007	1.25
252.805	4.25
253.602	2.25
254.4	3.25
255.197	4.25
255.994	5.25
256.791	3.25
257.589	3.25
258.386	2.25
259.183	2.25
259.979	5.25
260.776	2.25
261.573	4.25
262.37	5.25
263.166	3.25
263.963	4.25
264.759	6.25
265.556	2.25
266.352	7.25
267.148	5.25
267.944	2.25
268.74	5.25
269.536	8.25
270.332	6.25
271.128	5.25
271.924	7.25
272.719	8.25
273.515	7.25
274.311	10.25
275.106	7.25
275.901	9.25
276.697	5.25
277.492	6.25
278.287	8.25
279.082	10.25
279.877	9.25
280.672	8.25
281.467	10.25
282.262	9.25
283.056	10.25
283.851	12.25
284.646	9.25
285.44	10.25
286.234	11.25
287.029	10.25
287.823	9.25
288.617	11.25
289.411	8.25
290.205	11.25
290.999	10.25
291.793	9.25
292.587	10.25
293.381	7.25
294.174	9.25
294.968	12.25
295.761	10.25
296.555	10.25
297.348	8.25
298.141	11.25
298.935	10.25
299.728	9.25
300.521	10.25
301.314	7.25
302.107	8.25
302.899	6.25
303.692	10.25
304.485	6.25
305.277	8.25
306.07	6.25
306.862	9.25
307.655	8.25
308.447	7.25
309.239	8.25
310.031	5.25
310.823	7.25
311.615	6.25
312.407	7.25
313.199	8.25
313.991	6.25
314.783	5.25
315.574	5.25
316.366	5.25
317.157	5.25
317.949	2.25
318.74	4.25
319.531	4.25
320.322	5.25
321.113	4.25
321.904	7.25
322.695	5.25
323.486	4.25
324.277	3.25
325.068	4.25
325.858	3.25
326.649	3.25
327.439	3.25
328.23	5.25
329.02	4.25
329.81	4.25
330.6	2.25
331.391	3.25
332.181	3.25
332.971	3.25
333.76	4.25
334.55	4.25
335.34	3.25
336.13	1.25
336.919	2.25
337.709	4.25
338.498	4.25
339.287	4.25
340.077	4.25
340.866	1.25
341.655	2.25
342.444	2.25
343.233	1.25
344.022	5.25
344.811	6.25
345.6	3.25
346.388	2.25
347.177	1.25
347.965	3.25
348.754	4.25
349.542	3.25
350.33	3.25
351.119	1.25
351.907	2.25
352.695	1.25
353.483	3.25
354.271	3.25
355.059	3.25
355.846	0.25
356.634	1.25
357.422	2.25
358.209	3.25
358.997	2.25
359.784	2.25
360.571	1.25
361.359	2.25
362.146	-0.75
362.933	1.25
363.72	1.25
364.507	2.25
365.294	5.25
366.081	1.25
366.867	2.25
367.654	4.25
368.44	3.25
369.227	3.25
370.013	1.25
370.8	3.25
371.586	0.25
372.372	2.25
373.158	0.25
373.944	2.25
374.73	3.25
375.516	3.25
376.302	3.25
377.088	4.25
377.873	3.25
378.659	2.25
379.445	1.25
380.23	3.25
381.015	1.25
381.801	2.25
382.586	1.25
383.371	3.25
384.156	2.25
384.941	4.25
385.726	2.25
386.511	3.25
387.296	3.25
388.08	2.25
388.865	3.25
389.649	4.25
390.434	3.25
391.218	2.25
392.003	1.25
392.787	2.25
393.571	3.25
394.355	3.25
395.139	4.25
395.923	4.25
396.707	4.25
397.491	4.25
398.274	2.25
399.058	1.25
399.842	5.25
400.625	1.25
401.408	2.25
402.192	5.25
402.975	3.25
403.758	3.25
404.541	0.25
405.324	3.25
406.107	3.25
406.89	4.25
407.673	3.25
408.456	2.25
409.238	5.25
410.021	2.25
410.803	4.25
411.586	2.25
412.368	5.25
413.151	4.25
413.933	4.25
414.715	4.25
415.497	1.25
416.279	5.25
417.061	4.25
417.843	5.25
418.624	2.25
419.406	5.25
420.188	4.25
420.969	4.25
421.751	7.25
422.532	3.25
423.313	5.25
424.095	4.25
424.876	6.25
425.657	6.25
426.438	6.25
427.219	4.25
428	6.25
428.78	7.25
429.561	5.25
430.342	6.25
431.122	6.25
431.903	5.25
432.683	6.25
433.464	9.25
434.244	6.25
435.024	9.25
435.804	7.25
436.584	10.25
437.364	8.25
438.144	10.25
438.924	10.25
439.704	9.25
440.483	10.25
441.263	11.25
442.042	16.25
442.822	12.25
443.601	13.25
444.38	13.25
445.16	15.25
445.939	16.25
446.718	17.25
447.497	18.25
448.276	18.25
449.054	23.25
449.833	21.25
450.612	26.25
451.391	29.25
452.169	32.25
452.948	36.25
453.726	39.25
454.504	41.25
455.282	46.25
456.061	49.25
456.839	54.25
457.617	56.25
458.395	66.25
459.172	69.25
459.95	77.25
460.728	89.25
461.506	100.25
462.283	113.25
463.061	126.25
463.838	133.25
464.615	157.25
465.393	164.25
466.17	185.25
466.947	209.25
467.724	227.25
468.501	262.25
469.278	285.25
470.055	312.25
470.831	347.25
471.608	392.25
472.385	429.25
473.161	472.25
473.938	533.25
474.714	582.25
475.49	646.25
476.266	717.25
477.043	791.25
477.819	861.25
478.595	967.25
479.371	1053.25
480.146	1157.25
480.922	1274.25
481.698	1401.25
482.473	1533.25
483.249	1683.25
484.024	1834.25
484.8	2032.25
485.575	2221.25
486.35	2447.25
487.126	2670.25
487.901	2959.25
488.676	3211.25
489.451	3523.25
490.225	3856.25
491	4214.25
491.775	4599.25
492.55	5033.25
493.324	5515.25
494.099	5985.25
494.873	6514.25
495.647	7069.25
496.422	7630.25
497.196	8274.25
497.97	8945.25
498.744	9592.25
499.518	10252.25
500.292	10967.25
501.066	11610.25
501.839	12271.25
502.613	12937.25
503.387	13477.25
504.16	14071.25
504.934	14578.25
505.707	14954.25
506.48	15309.25
507.253	15458.25
508.027	15669.25
508.8	15670.25
509.573	15654.25
510.346	15505.25
511.118	15265.25
511.891	14947.25
512.664	14553.25
513.437	14188.25
514.209	13740.25
514.982	13201.25
515.754	12685.25
516.526	12205.25
517.298	11697.25
518.071	11188.25
518.843	10673.25
519.615	10219.25
520.387	9838.25
521.159	9405.25
521.93	9030.25
522.702	8712.25
523.474	8364.25
524.245	8039.25
525.017	7729.25
525.788	7431.25
526.56	7057.25
527.331	6828.25
528.102	6524.25
528.873	6222.25
529.644	5969.25
530.415	5733.25
531.186	5480.25
531.957	5201.25
532.728	4960.25
533.498	4688.25
534.269	4451.25
535.039	4234.25
535.81	3976.25
536.58	3768.25
537.351	3565.25
538.121	3379.25
538.891	3163.25
539.661	3014.25
540.431	2839.25
541.201	2685.25
541.971	2552.25
542.741	2442.25
543.51	2293.25
544.28	2158.25
545.05	2074.25
545.819	1969.25
546.588	1854.25
547.358	1776.25
548.127	1676.25
548.896	1595.25
549.665	1521.25
550.434	1434.25
551.203	1374.25
551.972	1310.25
552.741	1228.25
553.51	1184.25
554.278	1098.25
555.047	1038.25
555.815	982.25
556.584	938.25
557.352	876.25
558.121	831.25
558.889	781.25
559.657	741.25
560.425	694.25
561.193	654.25
561.961	633.25
562.729	590.25
563.496	545.25
564.264	517.25
565.032	494.25
565.799	464.25
566.567	436.25
567.334	417.25
568.101	393.25
568.869	370.25
569.636	351.25
570.403	333.25
571.17	310.25
571.937	293.25
572.704	272.25
573.471	262.25
574.237	245.25
575.004	224.25
575.771	215.25
576.537	204.25
577.303	193.25
578.07	181.25
578.836	166.25
579.602	162.25
580.368	148.25
581.134	142.25
581.9	139.25
582.666	129.25
583.432	124.25
584.198	113.25
584.964	111.25
585.729	105.25
586.495	94.25
587.26	92.25
588.025	90.25
588.791	82.25
589.556	76.25
590.321	77.25
591.086	71.25
591.851	61.25
592.616	63.25
593.381	57.25
594.146	56.25
594.911	54.25
595.675	52.25
596.44	45.25
597.204	48.25
597.969	43.25
598.733	40.25
599.497	42.25
600.261	39.25
601.025	37.25
601.79	33.25
602.553	34.25
603.317	31.25
604.081	30.25
604.845	29.25
605.609	27.25
606.372	28.25
607.136	26.25
607.899	23.25
608.662	22.25
609.426	22.25
610.189	24.25
610.952	20.25
611.715	19.25
612.478	19.25
613.241	16.25
614.004	18.25
614.767	16.25
615.529	20.25
616.292	12.25
617.055	14.25
617.817	14.25
618.579	15.25
619.342	13.25
620.104	14.25
620.866	11.25
621.628	12.25
622.39	11.25
623.152	10.25
623.914	9.25
624.676	12.25
625.438	10.25
626.199	10.25
626.961	10.25
627.722	8.25
628.484	8.25
629.245	7.25
630.006	7.25
630.768	8.25
631.529	7.25
632.29	9.25
633.051	7.25
633.812	5.25
634.573	6.25
635.333	7.25
636.094	7.25
636.855	6.25
637.615	6.25
638.376	6.25
639.136	8.25
639.896	4.25
640.657	4.25
641.417	6.25
642.177	4.25
642.937	3.25
643.697	5.25
644.457	5.25
645.216	4.25
645.976	4.25
646.736	7.25
647.495	5.25
648.255	4.25
649.014	2.25
649.774	4.25
650.533	4.25
651.292	2.25
652.051	4.25
652.81	3.25
653.569	3.25
654.328	5.25
655.087	4.25
655.846	1.25
656.604	3.25
657.363	2.25
658.121	3.25
658.88	2.25
659.638	3.25
660.397	3.25
661.155	2.25
661.913	3.25
662.671	0.25
663.429	3.25
664.187	3.25
664.945	1.25
665.703	3.25
666.46	1.25
667.218	3.25
667.976	3.25
668.733	2.25
669.49	2.25
670.248	0.25
671.005	3.25
671.762	4.25
672.519	4.25
673.276	1.25
674.033	1.25
674.79	2.25
675.547	1.25
676.304	2.25
677.06	2.25
677.817	0.25
678.574	3.25
679.33	3.25
680.086	1.25
680.843	1.25
681.599	2.25
682.355	1.25
683.111	4.25
683.867	2.25
684.623	1.25
685.379	1.25
686.135	1.25
686.89	3.25
687.646	1.25
688.402	3.25
689.157	0.25
689.912	-0.75
690.668	2.25
691.423	0.25
692.178	2.25
692.933	2.25
693.688	4.25
694.443	2.25
695.198	2.25
695.953	2.25
696.708	1.25
697.462	0.25
698.217	3.25
698.972	2.25
699.726	1.25
700.48	3.25
701.235	1.25
701.989	1.25
702.743	2.25
703.497	2.25
704.251	3.25
705.005	1.25
705.759	-0.75
706.513	2.25
707.266	-0.75
708.02	1.25
708.774	3.25
709.527	0.25
710.28	3.25
711.034	0.25
711.787	2.25
712.54	0.25
713.293	1.25
714.046	2.25
714.799	1.25
715.552	1.25
716.305	1.25
717.058	2.25
717.81	1.25
718.563	2.25
719.315	0.25
720.068	1.25
720.82	1.25
721.573	1.25
722.325	3.25
723.077	2.25
723.829	2.25
724.581	3.25
725.333	1.25
726.085	2.25
726.836	1.25
727.588	2.25
728.34	1.25
729.091	2.25
729.843	2.25
730.594	-0.75
731.346	3.25
732.097	-1.75
732.848	1.25
733.599	0.25
734.35	0.25
735.101	1.25
735.852	2.25
736.603	5.25
737.354	0.25
738.104	2.25
738.855	1.25
739.605	2.25
740.356	0.25
741.106	1.25
741.856	2.25
742.607	1.25
743.357	3.25
744.107	2.25
744.857	2.25
745.607	5.25
746.357	3.25
747.106	2.25
747.856	2.25
748.606	3.25
749.355	2.25
750.105	1.25
750.854	0.25
751.603	1.25
752.353	2.25
753.102	3.25
753.851	2.25
754.6	2.25
755.349	3.25
756.098	4.25
756.847	3.25
757.595	3.25
758.344	2.25
759.093	1.25
759.841	2.25
760.589	3.25
761.338	4.25
762.086	1.25
762.834	5.25
763.582	4.25
764.331	4.25
765.079	3.25
765.826	2.25
766.574	4.25
767.322	6.25
768.07	7.25
768.817	1.25
769.565	5.25
770.312	2.25
771.06	5.25
771.807	5.25
772.554	4.25
773.302	3.25
774.049	3.25
774.796	4.25
775.543	3.25
776.29	4.25
777.036	5.25
777.783	3.25
778.53	5.25
779.276	5.25
780.023	6.25
780.769	5.25
781.516	2.25
782.262	5.25
783.008	2.25
783.754	4.25
784.5	4.25
785.246	5.25
785.992	3.25
786.738	5.25
787.484	6.25
788.23	3.25
788.975	4.25
789.721	6.25
790.466	7.25
791.212	4.25
791.957	2.25
792.702	5.25
793.447	6.25
794.193	7.25
794.938	4.25
795.683	4.25
796.427	7.25
797.172	5.25
797.917	5.25
798.662	2.25
799.406	5.25
800.151	3.25
800.895	3.25
801.64	5.25
802.384	4.25
803.128	7.25
803.872	2.25
804.616	3.25
805.36	5.25
806.104	5.25
806.848	3.25
807.592	1.25
808.336	3.25
809.079	1.25
809.823	4.25
810.566	3.25
811.31	3.25
812.053	4.25
812.796	2.25
813.539	1.25
814.283	4.25
815.026	3.25
815.769	2.25
816.511	2.25
817.254	3.25
817.997	3.25
818.74	5.25
819.482	4.25
820.225	2.25
820.967	3.25
821.71	3.25
822.452	3.25
823.194	3.25
823.936	2.25
824.678	1.25
825.42	4.25
826.162	3.25
826.904	1.25
827.646	1.25
828.388	2.25
829.129	2.25
829.871	2.25
830.612	2.25
831.354	2.25
832.095	3.25
832.836	4.25
833.577	1.25
834.319	2.25
835.06	1.25
835.801	1.25
836.542	2.25
837.282	1.25
838.023	2.25
838.764	3.25
839.504	2.25
840.245	1.25
840.985	1.25
841.726	0.25
842.466	2.25
843.206	1.25
843.946	0.25
844.687	3.25
845.427	4.25
846.166	2.25
846.906	3.25
847.646	1.25
848.386	2.25
849.125	1.25
849.865	4.25
850.605	4.25
851.344	2.25
852.083	1.25
852.823	3.25
853.562	2.25
854.301	-0.75
855.04	3.25
855.779	4.25
856.518	3.25
857.257	2.25
857.995	1.25
858.734	1.25
859.473	1.25
860.211	1.25
860.95	3.25
861.688	1.25
862.426	0.25
863.165	1.25
863.903	1.25
864.641	1.25
865.379	1.25
866.117	3.25
866.855	1.25
867.593	1.25
868.33	0.25
869.068	3.25
869.806	0.25
870.543	2.25
871.28	-1.75
872.018	2.25
872.755	0.25
873.492	1.25
874.229	1.25
874.967	-1.75
875.703	-0.75
876.44	0.25
877.177	-0.75
877.914	-1.75
878.651	-2.75
879.387	0.25
880.124	0.25
880.86	0.25
881.597	1.25
882.333	1.25
883.069	0.25
883.806	0.25
884.542	1.25
885.278	1.25
886.014	0.25
886.749	0.25
887.485	-1.75
888.221	-1.75
888.957	1.25
889.692	0.25
890.428	0.25
891.163	-0.75
891.899	2.25
892.634	0.25
893.369	1.25
894.104	1.25
894.839	-0.75
895.574	1.25
896.309	1.25
897.044	0.25
897.779	1.25
898.514	1.25
899.248	2.25
899.983	-0.75
900.717	-0.75
901.452	1.25
902.186	0.25
902.92	0.25
903.654	1.25
904.389	0.25
905.123	2.25
905.857	2.25
906.59	1.25
907.324	-0.75
908.058	0.25
908.792	0.25
909.525	-2.75
910.259	0.25
910.992	-1.75
911.726	1.25
912.459	-0.75
913.192	-1.75
913.925	1.25
914.658	0.25
915.391	1.25
916.124	0.25
916.857	1.25
917.59	0.25
918.323	-1.75
919.055	0.25
919.788	-1.75
920.521	0.25
921.253	1.25
921.985	1.25
922.718	-0.75
923.45	0.25
924.182	1.25
924.914	-1.75
925.646	1.25
926.378	-1.75
927.11	0.25
927.841	0.25
928.573	-1.75
929.305	1.25
930.036	1.25
930.768	1.25
931.499	1.25
932.23	1.25
932.962	0.25
933.693	1.25
934.424	0.25
935.155	-1.75
935.886	0.25
936.617	0.25
937.348	0.25
938.078	1.25
938.809	-2.75
939.54	1.25
940.27	-0.75
941.001	3.25
941.731	-0.75
942.461	0.25
943.191	0.25
943.922	-0.75
944.652	0.25
945.382	0.25
946.112	1.25
946.841	0.25
947.571	0.25
948.301	1.25
949.031	0.25
949.76	-0.75
950.49	0.25
951.219	1.25
951.948	0.25
952.678	2.25
953.407	-1.75
954.136	-1.75
954.865	1.25
955.594	0.25
956.323	1.25
957.052	-1.75
957.78	1.25
958.509	0.25
959.238	-1.75
959.966	1.25
960.695	1.25
961.423	-0.75
962.151	-1.75
962.88	-1.75
963.608	2.25
964.336	-0.75
965.064	-0.75
965.792	0.25
966.52	-1.75
967.247	-0.75
967.975	-2.75
968.703	-0.75
969.43	0.25
970.158	-1.75
970.885	0.25
971.613	-0.75
972.34	1.25
973.067	1.25
973.794	0.25
974.521	-0.75
975.248	0.25
975.975	1.25
976.702	1.25
977.429	1.25
978.156	-0.75
978.882	-0.75
979.609	-0.75
980.335	-0.75
981.062	-0.75
981.788	-0.75
982.514	1.25
983.24	1.25
983.967	-1.75
984.693	-1.75
985.419	-1.75
986.144	0.25
986.87	-0.75
987.596	2.25
988.322	-0.75
989.047	1.25
989.773	-0.75
990.498	2.25
991.224	-0.75
991.949	0.25
992.674	-0.75
993.399	0.25
994.124	1.25
994.849	0.25
995.574	-0.75
996.299	-0.75
997.024	1.25
997.749	-1.75
998.473	-2.75
999.198	-1.75
999.922	0.25
1000.647	2.25
1001.371	3.25
1002.095	-2.75
1002.82	2.25
1003.544	-2.75
1004.268	-0.75
1004.992	-1.75
1005.716	-2.75
1006.439	-1.75
1007.163	1.25
1007.887	0.25
1008.611	-0.75
1009.334	-0.75
1010.058	2.25
1010.781	1.25
1011.504	1.25
1012.228	1.25
1012.951	0.25
1013.674	1.25
1014.397	-1.75
1015.12	0.25
