节点500_145_QEPB04081__286__11-33-32-484.txt的数据

Date: Wed Nov 12 11:33:32 CST 2025
User: PC
Spectrometer: QEPB0408
触发模式: 0
积分时间 (秒): 1.000000E-2
Scans to average: 1
启用暗噪声校正: true
启用非线性校正: false
滑动平均宽度: 0
X轴模式: Wavelengths
Number of Pixels in Spectrum: 1044
>>>>>Begin Spectral Data<<<<<
220.843	1.75
221.644	-2.25
222.444	0.75
223.244	0.75
224.045	-1.25
224.845	0.75
225.645	-0.25
226.445	0.75
227.245	-0.25
228.045	0.75
228.845	2.75
229.645	-1.25
230.444	1.75
231.244	1.75
232.043	1.75
232.843	1.75
233.642	1.75
234.442	1.75
235.241	0.75
236.04	2.75
236.839	1.75
237.638	1.75
238.437	2.75
239.236	-0.25
240.035	-1.25
240.833	1.75
241.632	1.75
242.43	0.75
243.229	1.75
244.027	1.75
244.826	1.75
245.624	2.75
246.422	1.75
247.22	3.75
248.018	1.75
248.816	4.75
249.614	2.75
250.412	3.75
251.21	4.75
252.007	2.75
252.805	1.75
253.602	3.75
254.4	1.75
255.197	5.75
255.994	2.75
256.791	3.75
257.589	2.75
258.386	3.75
259.183	4.75
259.979	6.75
260.776	4.75
261.573	1.75
262.37	7.75
263.166	3.75
263.963	6.75
264.759	7.75
265.556	4.75
266.352	6.75
267.148	4.75
267.944	8.75
268.74	5.75
269.536	9.75
270.332	7.75
271.128	7.75
271.924	8.75
272.719	5.75
273.515	5.75
274.311	6.75
275.106	10.75
275.901	9.75
276.697	9.75
277.492	9.75
278.287	9.75
279.082	9.75
279.877	10.75
280.672	8.75
281.467	9.75
282.262	8.75
283.056	11.75
283.851	7.75
284.646	10.75
285.44	10.75
286.234	11.75
287.029	9.75
287.823	9.75
288.617	9.75
289.411	10.75
290.205	12.75
290.999	12.75
291.793	12.75
292.587	11.75
293.381	7.75
294.174	7.75
294.968	10.75
295.761	8.75
296.555	10.75
297.348	10.75
298.141	11.75
298.935	11.75
299.728	10.75
300.521	11.75
301.314	10.75
302.107	10.75
302.899	8.75
303.692	8.75
304.485	4.75
305.277	9.75
306.07	5.75
306.862	7.75
307.655	8.75
308.447	8.75
309.239	7.75
310.031	9.75
310.823	6.75
311.615	6.75
312.407	6.75
313.199	7.75
313.991	6.75
314.783	8.75
315.574	5.75
316.366	7.75
317.157	3.75
317.949	3.75
318.74	2.75
319.531	5.75
320.322	4.75
321.113	4.75
321.904	3.75
322.695	5.75
323.486	4.75
324.277	4.75
325.068	5.75
325.858	5.75
326.649	4.75
327.439	4.75
328.23	4.75
329.02	4.75
329.81	3.75
330.6	4.75
331.391	5.75
332.181	5.75
332.971	5.75
333.76	5.75
334.55	2.75
335.34	4.75
336.13	5.75
336.919	3.75
337.709	4.75
338.498	5.75
339.287	4.75
340.077	2.75
340.866	4.75
341.655	2.75
342.444	4.75
343.233	2.75
344.022	3.75
344.811	5.75
345.6	2.75
346.388	3.75
347.177	2.75
347.965	3.75
348.754	3.75
349.542	3.75
350.33	4.75
351.119	3.75
351.907	5.75
352.695	3.75
353.483	1.75
354.271	2.75
355.059	4.75
355.846	1.75
356.634	2.75
357.422	3.75
358.209	3.75
358.997	0.75
359.784	3.75
360.571	3.75
361.359	1.75
362.146	1.75
362.933	1.75
363.72	1.75
364.507	2.75
365.294	5.75
366.081	4.75
366.867	5.75
367.654	1.75
368.44	2.75
369.227	3.75
370.013	3.75
370.8	0.75
371.586	3.75
372.372	3.75
373.158	1.75
373.944	2.75
374.73	2.75
375.516	4.75
376.302	4.75
377.088	2.75
377.873	5.75
378.659	4.75
379.445	3.75
380.23	2.75
381.015	2.75
381.801	1.75
382.586	3.75
383.371	3.75
384.156	2.75
384.941	3.75
385.726	2.75
386.511	2.75
387.296	2.75
388.08	3.75
388.865	2.75
389.649	1.75
390.434	3.75
391.218	3.75
392.003	3.75
392.787	3.75
393.571	1.75
394.355	4.75
395.139	3.75
395.923	3.75
396.707	3.75
397.491	2.75
398.274	2.75
399.058	1.75
399.842	5.75
400.625	4.75
401.408	3.75
402.192	3.75
402.975	4.75
403.758	3.75
404.541	5.75
405.324	3.75
406.107	2.75
406.89	3.75
407.673	2.75
408.456	4.75
409.238	2.75
410.021	4.75
410.803	5.75
411.586	2.75
412.368	3.75
413.151	4.75
413.933	6.75
414.715	3.75
415.497	3.75
416.279	7.75
417.061	2.75
417.843	4.75
418.624	7.75
419.406	4.75
420.188	7.75
420.969	5.75
421.751	5.75
422.532	5.75
423.313	4.75
424.095	6.75
424.876	6.75
425.657	6.75
426.438	4.75
427.219	8.75
428	5.75
428.78	9.75
429.561	8.75
430.342	5.75
431.122	6.75
431.903	6.75
432.683	9.75
433.464	8.75
434.244	8.75
435.024	9.75
435.804	11.75
436.584	9.75
437.364	9.75
438.144	9.75
438.924	11.75
439.704	11.75
440.483	11.75
441.263	11.75
442.042	11.75
442.822	11.75
443.601	13.75
444.38	14.75
445.16	14.75
445.939	14.75
446.718	16.75
447.497	17.75
448.276	22.75
449.054	21.75
449.833	21.75
450.612	27.75
451.391	30.75
452.169	30.75
452.948	32.75
453.726	35.75
454.504	37.75
455.282	39.75
456.061	45.75
456.839	47.75
457.617	56.75
458.395	62.75
459.172	65.75
459.95	72.75
460.728	82.75
461.506	93.75
462.283	102.75
463.061	112.75
463.838	129.75
464.615	142.75
465.393	157.75
466.17	173.75
466.947	192.75
467.724	215.75
468.501	239.75
469.278	269.75
470.055	294.75
470.831	329.75
471.608	371.75
472.385	415.75
473.161	456.75
473.938	512.75
474.714	563.75
475.49	631.75
476.266	683.75
477.043	766.75
477.819	851.75
478.595	940.75
479.371	1036.75
480.146	1146.75
480.922	1274.75
481.698	1410.75
482.473	1532.75
483.249	1713.75
484.024	1864.75
484.8	2077.75
485.575	2295.75
486.35	2512.75
487.126	2786.75
487.901	3062.75
488.676	3360.75
489.451	3692.75
490.225	4052.75
491	4488.75
491.775	4894.75
492.55	5383.75
493.324	5907.75
494.099	6450.75
494.873	7039.75
495.647	7635.75
496.422	8347.75
497.196	9046.75
497.97	9733.75
498.744	10478.75
499.518	11203.75
500.292	11955.75
501.066	12718.75
501.839	13362.75
502.613	14059.75
503.387	14643.75
504.16	15272.75
504.934	15634.75
505.707	15996.75
506.48	16252.75
507.253	16466.75
508.027	16502.75
508.8	16463.75
509.573	16333.75
510.346	16057.75
511.118	15732.75
511.891	15299.75
512.664	14877.75
513.437	14261.75
514.209	13782.75
514.982	13312.75
515.754	12737.75
516.526	12223.75
517.298	11658.75
518.071	11100.75
518.843	10576.75
519.615	10189.75
520.387	9771.75
521.159	9363.75
521.93	9001.75
522.702	8620.75
523.474	8290.75
524.245	7984.75
525.017	7666.75
525.788	7326.75
526.56	7074.75
527.331	6790.75
528.102	6448.75
528.873	6202.75
529.644	5906.75
530.415	5648.75
531.186	5374.75
531.957	5084.75
532.728	4839.75
533.498	4559.75
534.269	4309.75
535.039	4070.75
535.81	3844.75
536.58	3623.75
537.351	3423.75
538.121	3259.75
538.891	3060.75
539.661	2900.75
540.431	2747.75
541.201	2599.75
541.971	2465.75
542.741	2342.75
543.51	2208.75
544.28	2094.75
545.05	1983.75
545.819	1896.75
546.588	1818.75
547.358	1706.75
548.127	1629.75
548.896	1546.75
549.665	1465.75
550.434	1387.75
551.203	1330.75
551.972	1249.75
552.741	1181.75
553.51	1133.75
554.278	1050.75
555.047	998.75
555.815	932.75
556.584	893.75
557.352	839.75
558.121	792.75
558.889	743.75
559.657	704.75
560.425	660.75
561.193	629.75
561.961	590.75
562.729	560.75
563.496	529.75
564.264	497.75
565.032	472.75
565.799	446.75
566.567	414.75
567.334	403.75
568.101	373.75
568.869	353.75
569.636	328.75
570.403	318.75
571.17	297.75
571.937	283.75
572.704	266.75
573.471	249.75
574.237	234.75
575.004	221.75
575.771	205.75
576.537	194.75
577.303	185.75
578.07	173.75
578.836	162.75
579.602	149.75
580.368	145.75
581.134	136.75
581.9	127.75
582.666	121.75
583.432	118.75
584.198	107.75
584.964	99.75
585.729	97.75
586.495	93.75
587.26	87.75
588.025	82.75
588.791	74.75
589.556	75.75
590.321	70.75
591.086	67.75
591.851	62.75
592.616	57.75
593.381	57.75
594.146	57.75
594.911	52.75
595.675	44.75
596.44	45.75
597.204	45.75
597.969	44.75
598.733	38.75
599.497	40.75
600.261	35.75
601.025	33.75
601.79	30.75
602.553	30.75
603.317	31.75
604.081	30.75
604.845	30.75
605.609	26.75
606.372	25.75
607.136	25.75
607.899	21.75
608.662	23.75
609.426	22.75
610.189	21.75
610.952	22.75
611.715	20.75
612.478	14.75
613.241	17.75
614.004	17.75
614.767	14.75
615.529	15.75
616.292	14.75
617.055	13.75
617.817	16.75
618.579	12.75
619.342	13.75
620.104	14.75
620.866	10.75
621.628	13.75
622.39	10.75
623.152	14.75
623.914	11.75
624.676	10.75
625.438	10.75
626.199	8.75
626.961	9.75
627.722	9.75
628.484	8.75
629.245	7.75
630.006	7.75
630.768	7.75
631.529	9.75
632.29	8.75
633.051	9.75
633.812	7.75
634.573	7.75
635.333	5.75
636.094	6.75
636.855	7.75
637.615	5.75
638.376	6.75
639.136	6.75
639.896	5.75
640.657	6.75
641.417	4.75
642.177	3.75
642.937	3.75
643.697	3.75
644.457	4.75
645.216	4.75
645.976	4.75
646.736	5.75
647.495	3.75
648.255	3.75
649.014	2.75
649.774	7.75
650.533	2.75
651.292	5.75
652.051	6.75
652.81	5.75
653.569	2.75
654.328	0.75
655.087	2.75
655.846	4.75
656.604	3.75
657.363	2.75
658.121	2.75
658.88	5.75
659.638	2.75
660.397	4.75
661.155	2.75
661.913	2.75
662.671	2.75
663.429	3.75
664.187	4.75
664.945	2.75
665.703	5.75
666.46	2.75
667.218	2.75
667.976	2.75
668.733	1.75
669.49	3.75
670.248	2.75
671.005	2.75
671.762	3.75
672.519	2.75
673.276	1.75
674.033	2.75
674.79	3.75
675.547	1.75
676.304	4.75
677.06	3.75
677.817	4.75
678.574	2.75
679.33	1.75
680.086	3.75
680.843	0.75
681.599	3.75
682.355	2.75
683.111	2.75
683.867	3.75
684.623	3.75
685.379	3.75
686.135	1.75
686.89	1.75
687.646	2.75
688.402	1.75
689.157	-0.25
689.912	2.75
690.668	3.75
691.423	1.75
692.178	4.75
692.933	2.75
693.688	1.75
694.443	2.75
695.198	0.75
695.953	0.75
696.708	1.75
697.462	0.75
698.217	2.75
698.972	2.75
699.726	2.75
700.48	2.75
701.235	3.75
701.989	4.75
702.743	2.75
703.497	3.75
704.251	1.75
705.005	1.75
705.759	-0.25
706.513	1.75
707.266	2.75
708.02	1.75
708.774	1.75
709.527	1.75
710.28	1.75
711.034	0.75
711.787	2.75
712.54	1.75
713.293	0.75
714.046	2.75
714.799	1.75
715.552	2.75
716.305	1.75
717.058	3.75
717.81	1.75
718.563	2.75
719.315	3.75
720.068	1.75
720.82	2.75
721.573	2.75
722.325	2.75
723.077	2.75
723.829	3.75
724.581	0.75
725.333	2.75
726.085	1.75
726.836	0.75
727.588	1.75
728.34	2.75
729.091	2.75
729.843	3.75
730.594	2.75
731.346	2.75
732.097	1.75
732.848	1.75
733.599	3.75
734.35	4.75
735.101	1.75
735.852	2.75
736.603	1.75
737.354	2.75
738.104	2.75
738.855	2.75
739.605	1.75
740.356	3.75
741.106	0.75
741.856	4.75
742.607	2.75
743.357	1.75
744.107	2.75
744.857	2.75
745.607	2.75
746.357	1.75
747.106	2.75
747.856	2.75
748.606	3.75
749.355	2.75
750.105	0.75
750.854	1.75
751.603	1.75
752.353	1.75
753.102	1.75
753.851	5.75
754.6	3.75
755.349	0.75
756.098	3.75
756.847	3.75
757.595	4.75
758.344	3.75
759.093	3.75
759.841	1.75
760.589	1.75
761.338	2.75
762.086	4.75
762.834	2.75
763.582	4.75
764.331	2.75
765.079	5.75
765.826	5.75
766.574	3.75
767.322	3.75
768.07	3.75
768.817	3.75
769.565	4.75
770.312	3.75
771.06	4.75
771.807	3.75
772.554	3.75
773.302	2.75
774.049	5.75
774.796	5.75
775.543	3.75
776.29	4.75
777.036	6.75
777.783	3.75
778.53	6.75
779.276	3.75
780.023	3.75
780.769	6.75
781.516	5.75
782.262	6.75
783.008	4.75
783.754	4.75
784.5	2.75
785.246	4.75
785.992	5.75
786.738	6.75
787.484	5.75
788.23	3.75
788.975	4.75
789.721	5.75
790.466	8.75
791.212	5.75
791.957	5.75
792.702	7.75
793.447	6.75
794.193	6.75
794.938	6.75
795.683	3.75
796.427	7.75
797.172	3.75
797.917	5.75
798.662	4.75
799.406	5.75
800.151	5.75
800.895	5.75
801.64	4.75
802.384	3.75
803.128	6.75
803.872	3.75
804.616	4.75
805.36	3.75
806.104	5.75
806.848	4.75
807.592	3.75
808.336	4.75
809.079	4.75
809.823	3.75
810.566	2.75
811.31	4.75
812.053	2.75
812.796	3.75
813.539	3.75
814.283	3.75
815.026	3.75
815.769	3.75
816.511	1.75
817.254	4.75
817.997	1.75
818.74	3.75
819.482	2.75
820.225	1.75
820.967	2.75
821.71	2.75
822.452	2.75
823.194	2.75
823.936	6.75
824.678	2.75
825.42	3.75
826.162	2.75
826.904	0.75
827.646	2.75
828.388	0.75
829.129	3.75
829.871	1.75
830.612	0.75
831.354	2.75
832.095	2.75
832.836	2.75
833.577	1.75
834.319	2.75
835.06	0.75
835.801	1.75
836.542	6.75
837.282	1.75
838.023	2.75
838.764	3.75
839.504	4.75
840.245	3.75
840.985	2.75
841.726	0.75
842.466	0.75
843.206	2.75
843.946	1.75
844.687	3.75
845.427	4.75
846.166	4.75
846.906	2.75
847.646	0.75
848.386	2.75
849.125	-0.25
849.865	3.75
850.605	0.75
851.344	1.75
852.083	2.75
852.823	0.75
853.562	3.75
854.301	2.75
855.04	0.75
855.779	1.75
856.518	1.75
857.257	1.75
857.995	2.75
858.734	2.75
859.473	1.75
860.211	2.75
860.95	1.75
861.688	0.75
862.426	2.75
863.165	0.75
863.903	2.75
864.641	1.75
865.379	2.75
866.117	2.75
866.855	-0.25
867.593	0.75
868.33	1.75
869.068	0.75
869.806	2.75
870.543	2.75
871.28	2.75
872.018	0.75
872.755	0.75
873.492	0.75
874.229	3.75
874.967	-1.25
875.703	-0.25
876.44	0.75
877.177	0.75
877.914	0.75
878.651	-0.25
879.387	1.75
880.124	1.75
880.86	-0.25
881.597	1.75
882.333	-0.25
883.069	2.75
883.806	1.75
884.542	0.75
885.278	2.75
886.014	0.75
886.749	0.75
887.485	0.75
888.221	0.75
888.957	1.75
889.692	2.75
890.428	0.75
891.163	-1.25
891.899	2.75
892.634	1.75
893.369	2.75
894.104	0.75
894.839	0.75
895.574	0.75
896.309	0.75
897.044	1.75
897.779	-2.25
898.514	2.75
899.248	1.75
899.983	0.75
900.717	2.75
901.452	1.75
902.186	0.75
902.92	1.75
903.654	1.75
904.389	-0.25
905.123	0.75
905.857	0.75
906.59	0.75
907.324	1.75
908.058	-2.25
908.792	0.75
909.525	-0.25
910.259	2.75
910.992	0.75
911.726	-0.25
912.459	1.75
913.192	0.75
913.925	-0.25
914.658	0.75
915.391	0.75
916.124	2.75
916.857	-0.25
917.59	0.75
918.323	1.75
919.055	1.75
919.788	1.75
920.521	-1.25
921.253	0.75
921.985	-0.25
922.718	0.75
923.45	-1.25
924.182	-0.25
924.914	1.75
925.646	-0.25
926.378	1.75
927.11	-1.25
927.841	0.75
928.573	-0.25
929.305	0.75
930.036	-0.25
930.768	-0.25
931.499	1.75
932.23	-0.25
932.962	0.75
933.693	0.75
934.424	-0.25
935.155	-1.25
935.886	-0.25
936.617	-0.25
937.348	-1.25
938.078	0.75
938.809	0.75
939.54	-0.25
940.27	0.75
941.001	-1.25
941.731	-0.25
942.461	-2.25
943.191	0.75
943.922	1.75
944.652	0.75
945.382	0.75
946.112	-1.25
946.841	1.75
947.571	0.75
948.301	0.75
949.031	2.75
949.76	0.75
950.49	1.75
951.219	-2.25
951.948	-0.25
952.678	-1.25
953.407	2.75
954.136	-1.25
954.865	-1.25
955.594	-0.25
956.323	0.75
957.052	-1.25
957.78	2.75
958.509	0.75
959.238	-1.25
959.966	2.75
960.695	0.75
961.423	1.75
962.151	0.75
962.88	-1.25
963.608	0.75
964.336	1.75
965.064	1.75
965.792	0.75
966.52	0.75
967.247	1.75
967.975	-0.25
968.703	-0.25
969.43	-1.25
970.158	1.75
970.885	1.75
971.613	0.75
972.34	0.75
973.067	0.75
973.794	0.75
974.521	-1.25
975.248	1.75
975.975	-2.25
976.702	1.75
977.429	0.75
978.156	1.75
978.882	2.75
979.609	1.75
980.335	0.75
981.062	2.75
981.788	-0.25
982.514	0.75
983.24	-0.25
983.967	-0.25
984.693	1.75
985.419	-0.25
986.144	-0.25
986.87	-0.25
987.596	1.75
988.322	-2.25
989.047	1.75
989.773	1.75
990.498	0.75
991.224	1.75
991.949	1.75
992.674	1.75
993.399	1.75
994.124	-0.25
994.849	0.75
995.574	-1.25
996.299	0.75
997.024	-0.25
997.749	0.75
998.473	-1.25
999.198	0.75
999.922	1.75
1000.647	-2.25
1001.371	2.75
1002.095	0.75
1002.82	-2.25
1003.544	-1.25
1004.268	1.75
1004.992	-0.25
1005.716	-0.25
1006.439	-1.25
1007.163	1.75
1007.887	0.75
1008.611	-0.25
1009.334	1.75
1010.058	1.75
1010.781	-0.25
1011.504	-0.25
1012.228	-1.25
1012.951	-1.25
1013.674	0.75
1014.397	-1.25
1015.12	1.75
