节点500_145_QEPB04081__527__11-37-18-496.txt的数据

Date: Wed Nov 12 11:37:18 CST 2025
User: PC
Spectrometer: QEPB0408
触发模式: 0
积分时间 (秒): 1.000000E-2
Scans to average: 1
启用暗噪声校正: true
启用非线性校正: false
滑动平均宽度: 0
X轴模式: Wavelengths
Number of Pixels in Spectrum: 1044
>>>>>Begin Spectral Data<<<<<
220.843	-1.5
221.644	-0.5
222.444	1.5
223.244	0.5
224.045	0.5
224.845	-1.5
225.645	-0.5
226.445	0.5
227.245	-1.5
228.045	-0.5
228.845	0.5
229.645	-0.5
230.444	1.5
231.244	0.5
232.043	2.5
232.843	0.5
233.642	2.5
234.442	0.5
235.241	-1.5
236.04	1.5
236.839	-0.5
237.638	0.5
238.437	0.5
239.236	2.5
240.035	0.5
240.833	0.5
241.632	-0.5
242.43	2.5
243.229	1.5
244.027	0.5
244.826	2.5
245.624	3.5
246.422	2.5
247.22	1.5
248.018	1.5
248.816	3.5
249.614	1.5
250.412	2.5
251.21	2.5
252.007	2.5
252.805	2.5
253.602	2.5
254.4	3.5
255.197	2.5
255.994	3.5
256.791	3.5
257.589	3.5
258.386	3.5
259.183	3.5
259.979	4.5
260.776	3.5
261.573	5.5
262.37	5.5
263.166	5.5
263.963	3.5
264.759	3.5
265.556	6.5
266.352	3.5
267.148	5.5
267.944	6.5
268.74	3.5
269.536	5.5
270.332	3.5
271.128	7.5
271.924	6.5
272.719	9.5
273.515	9.5
274.311	5.5
275.106	9.5
275.901	8.5
276.697	8.5
277.492	7.5
278.287	9.5
279.082	10.5
279.877	7.5
280.672	10.5
281.467	9.5
282.262	10.5
283.056	9.5
283.851	10.5
284.646	10.5
285.44	9.5
286.234	9.5
287.029	10.5
287.823	11.5
288.617	9.5
289.411	9.5
290.205	8.5
290.999	9.5
291.793	11.5
292.587	9.5
293.381	9.5
294.174	8.5
294.968	9.5
295.761	9.5
296.555	9.5
297.348	10.5
298.141	7.5
298.935	10.5
299.728	10.5
300.521	8.5
301.314	10.5
302.107	7.5
302.899	8.5
303.692	9.5
304.485	10.5
305.277	7.5
306.07	8.5
306.862	7.5
307.655	7.5
308.447	8.5
309.239	9.5
310.031	7.5
310.823	9.5
311.615	5.5
312.407	3.5
313.199	6.5
313.991	5.5
314.783	4.5
315.574	5.5
316.366	4.5
317.157	5.5
317.949	3.5
318.74	6.5
319.531	5.5
320.322	3.5
321.113	6.5
321.904	5.5
322.695	2.5
323.486	3.5
324.277	3.5
325.068	6.5
325.858	5.5
326.649	5.5
327.439	3.5
328.23	4.5
329.02	4.5
329.81	2.5
330.6	4.5
331.391	5.5
332.181	4.5
332.971	2.5
333.76	5.5
334.55	5.5
335.34	3.5
336.13	4.5
336.919	3.5
337.709	4.5
338.498	4.5
339.287	3.5
340.077	2.5
340.866	3.5
341.655	3.5
342.444	2.5
343.233	2.5
344.022	3.5
344.811	2.5
345.6	-0.5
346.388	3.5
347.177	4.5
347.965	4.5
348.754	3.5
349.542	3.5
350.33	2.5
351.119	3.5
351.907	5.5
352.695	5.5
353.483	2.5
354.271	1.5
355.059	5.5
355.846	1.5
356.634	1.5
357.422	0.5
358.209	4.5
358.997	0.5
359.784	1.5
360.571	2.5
361.359	1.5
362.146	1.5
362.933	3.5
363.72	3.5
364.507	2.5
365.294	2.5
366.081	4.5
366.867	2.5
367.654	3.5
368.44	4.5
369.227	3.5
370.013	3.5
370.8	2.5
371.586	2.5
372.372	1.5
373.158	1.5
373.944	5.5
374.73	4.5
375.516	2.5
376.302	2.5
377.088	0.5
377.873	0.5
378.659	6.5
379.445	2.5
380.23	2.5
381.015	2.5
381.801	3.5
382.586	0.5
383.371	1.5
384.156	7.5
384.941	6.5
385.726	0.5
386.511	2.5
387.296	4.5
388.08	5.5
388.865	2.5
389.649	1.5
390.434	2.5
391.218	2.5
392.003	2.5
392.787	1.5
393.571	2.5
394.355	5.5
395.139	2.5
395.923	1.5
396.707	3.5
397.491	3.5
398.274	1.5
399.058	4.5
399.842	2.5
400.625	1.5
401.408	5.5
402.192	0.5
402.975	4.5
403.758	3.5
404.541	3.5
405.324	3.5
406.107	3.5
406.89	3.5
407.673	2.5
408.456	6.5
409.238	5.5
410.021	5.5
410.803	3.5
411.586	5.5
412.368	5.5
413.151	4.5
413.933	4.5
414.715	4.5
415.497	2.5
416.279	5.5
417.061	3.5
417.843	5.5
418.624	5.5
419.406	4.5
420.188	2.5
420.969	6.5
421.751	7.5
422.532	8.5
423.313	5.5
424.095	5.5
424.876	5.5
425.657	5.5
426.438	7.5
427.219	5.5
428	5.5
428.78	7.5
429.561	8.5
430.342	7.5
431.122	6.5
431.903	10.5
432.683	6.5
433.464	8.5
434.244	7.5
435.024	7.5
435.804	8.5
436.584	7.5
437.364	8.5
438.144	10.5
438.924	9.5
439.704	13.5
440.483	13.5
441.263	11.5
442.042	12.5
442.822	13.5
443.601	15.5
444.38	15.5
445.16	15.5
445.939	17.5
446.718	21.5
447.497	19.5
448.276	22.5
449.054	24.5
449.833	23.5
450.612	27.5
451.391	29.5
452.169	31.5
452.948	31.5
453.726	37.5
454.504	43.5
455.282	46.5
456.061	48.5
456.839	52.5
457.617	59.5
458.395	67.5
459.172	72.5
459.95	81.5
460.728	85.5
461.506	101.5
462.283	112.5
463.061	122.5
463.838	133.5
464.615	153.5
465.393	169.5
466.17	186.5
466.947	209.5
467.724	230.5
468.501	257.5
469.278	287.5
470.055	315.5
470.831	348.5
471.608	389.5
472.385	434.5
473.161	483.5
473.938	533.5
474.714	583.5
475.49	642.5
476.266	717.5
477.043	801.5
477.819	866.5
478.595	969.5
479.371	1042.5
480.146	1154.5
480.922	1286.5
481.698	1415.5
482.473	1535.5
483.249	1676.5
484.024	1851.5
484.8	2029.5
485.575	2226.5
486.35	2437.5
487.126	2713.5
487.901	2963.5
488.676	3221.5
489.451	3539.5
490.225	3857.5
491	4220.5
491.775	4615.5
492.55	5020.5
493.324	5489.5
494.099	5970.5
494.873	6520.5
495.647	7070.5
496.422	7684.5
497.196	8286.5
497.97	8907.5
498.744	9614.5
499.518	10309.5
500.292	10965.5
501.066	11633.5
501.839	12283.5
502.613	12944.5
503.387	13516.5
504.16	14073.5
504.934	14543.5
505.707	14957.5
506.48	15252.5
507.253	15511.5
508.027	15676.5
508.8	15760.5
509.573	15666.5
510.346	15510.5
511.118	15324.5
511.891	14970.5
512.664	14601.5
513.437	14199.5
514.209	13738.5
514.982	13236.5
515.754	12741.5
516.526	12212.5
517.298	11688.5
518.071	11238.5
518.843	10760.5
519.615	10294.5
520.387	9829.5
521.159	9491.5
521.93	9080.5
522.702	8747.5
523.474	8392.5
524.245	8087.5
525.017	7740.5
525.788	7413.5
526.56	7134.5
527.331	6801.5
528.102	6587.5
528.873	6323.5
529.644	5993.5
530.415	5733.5
531.186	5481.5
531.957	5224.5
532.728	4960.5
533.498	4676.5
534.269	4442.5
535.039	4214.5
535.81	3990.5
536.58	3774.5
537.351	3576.5
538.121	3378.5
538.891	3204.5
539.661	3040.5
540.431	2844.5
541.201	2702.5
541.971	2562.5
542.741	2436.5
543.51	2293.5
544.28	2186.5
545.05	2076.5
545.819	1965.5
546.588	1874.5
547.358	1774.5
548.127	1687.5
548.896	1613.5
549.665	1523.5
550.434	1448.5
551.203	1382.5
551.972	1302.5
552.741	1240.5
553.51	1168.5
554.278	1121.5
555.047	1058.5
555.815	999.5
556.584	934.5
557.352	887.5
558.121	830.5
558.889	787.5
559.657	743.5
560.425	703.5
561.193	660.5
561.961	626.5
562.729	589.5
563.496	555.5
564.264	520.5
565.032	486.5
565.799	469.5
566.567	440.5
567.334	413.5
568.101	392.5
568.869	377.5
569.636	349.5
570.403	329.5
571.17	309.5
571.937	299.5
572.704	273.5
573.471	259.5
574.237	245.5
575.004	230.5
575.771	219.5
576.537	197.5
577.303	195.5
578.07	182.5
578.836	175.5
579.602	159.5
580.368	155.5
581.134	145.5
581.9	138.5
582.666	128.5
583.432	122.5
584.198	115.5
584.964	111.5
585.729	101.5
586.495	101.5
587.26	89.5
588.025	85.5
588.791	85.5
589.556	83.5
590.321	76.5
591.086	69.5
591.851	64.5
592.616	61.5
593.381	59.5
594.146	58.5
594.911	53.5
595.675	53.5
596.44	49.5
597.204	48.5
597.969	45.5
598.733	41.5
599.497	42.5
600.261	37.5
601.025	38.5
601.79	34.5
602.553	34.5
603.317	33.5
604.081	31.5
604.845	27.5
605.609	26.5
606.372	28.5
607.136	22.5
607.899	25.5
608.662	23.5
609.426	22.5
610.189	19.5
610.952	19.5
611.715	20.5
612.478	17.5
613.241	18.5
614.004	17.5
614.767	18.5
615.529	18.5
616.292	17.5
617.055	13.5
617.817	13.5
618.579	13.5
619.342	15.5
620.104	12.5
620.866	12.5
621.628	10.5
622.39	13.5
623.152	12.5
623.914	12.5
624.676	8.5
625.438	8.5
626.199	12.5
626.961	10.5
627.722	9.5
628.484	7.5
629.245	8.5
630.006	8.5
630.768	9.5
631.529	5.5
632.29	8.5
633.051	9.5
633.812	6.5
634.573	8.5
635.333	4.5
636.094	7.5
636.855	7.5
637.615	7.5
638.376	5.5
639.136	5.5
639.896	6.5
640.657	5.5
641.417	5.5
642.177	5.5
642.937	3.5
643.697	5.5
644.457	4.5
645.216	5.5
645.976	4.5
646.736	3.5
647.495	6.5
648.255	2.5
649.014	4.5
649.774	4.5
650.533	3.5
651.292	4.5
652.051	4.5
652.81	6.5
653.569	3.5
654.328	3.5
655.087	4.5
655.846	3.5
656.604	2.5
657.363	3.5
658.121	4.5
658.88	3.5
659.638	4.5
660.397	4.5
661.155	3.5
661.913	4.5
662.671	1.5
663.429	3.5
664.187	3.5
664.945	3.5
665.703	2.5
666.46	2.5
667.218	2.5
667.976	3.5
668.733	3.5
669.49	0.5
670.248	3.5
671.005	3.5
671.762	4.5
672.519	3.5
673.276	1.5
674.033	1.5
674.79	3.5
675.547	1.5
676.304	3.5
677.06	1.5
677.817	2.5
678.574	2.5
679.33	1.5
680.086	3.5
680.843	2.5
681.599	3.5
682.355	1.5
683.111	2.5
683.867	2.5
684.623	3.5
685.379	2.5
686.135	2.5
686.89	3.5
687.646	1.5
688.402	0.5
689.157	1.5
689.912	1.5
690.668	0.5
691.423	1.5
692.178	3.5
692.933	1.5
693.688	0.5
694.443	1.5
695.198	0.5
695.953	1.5
696.708	3.5
697.462	1.5
698.217	3.5
698.972	1.5
699.726	3.5
700.48	3.5
701.235	2.5
701.989	1.5
702.743	2.5
703.497	1.5
704.251	1.5
705.005	-1.5
705.759	1.5
706.513	0.5
707.266	4.5
708.02	2.5
708.774	1.5
709.527	4.5
710.28	3.5
711.034	1.5
711.787	1.5
712.54	0.5
713.293	-1.5
714.046	1.5
714.799	4.5
715.552	0.5
716.305	2.5
717.058	-1.5
717.81	1.5
718.563	2.5
719.315	2.5
720.068	2.5
720.82	1.5
721.573	2.5
722.325	0.5
723.077	1.5
723.829	1.5
724.581	0.5
725.333	3.5
726.085	1.5
726.836	2.5
727.588	1.5
728.34	1.5
729.091	2.5
729.843	1.5
730.594	2.5
731.346	0.5
732.097	2.5
732.848	3.5
733.599	1.5
734.35	3.5
735.101	2.5
735.852	2.5
736.603	1.5
737.354	1.5
738.104	1.5
738.855	2.5
739.605	2.5
740.356	1.5
741.106	2.5
741.856	2.5
742.607	1.5
743.357	3.5
744.107	2.5
744.857	2.5
745.607	1.5
746.357	2.5
747.106	4.5
747.856	3.5
748.606	2.5
749.355	1.5
750.105	4.5
750.854	0.5
751.603	0.5
752.353	2.5
753.102	3.5
753.851	5.5
754.6	2.5
755.349	3.5
756.098	1.5
756.847	0.5
757.595	4.5
758.344	1.5
759.093	1.5
759.841	2.5
760.589	2.5
761.338	3.5
762.086	2.5
762.834	1.5
763.582	1.5
764.331	5.5
765.079	3.5
765.826	5.5
766.574	2.5
767.322	5.5
768.07	5.5
768.817	4.5
769.565	5.5
770.312	4.5
771.06	3.5
771.807	3.5
772.554	4.5
773.302	4.5
774.049	4.5
774.796	4.5
775.543	5.5
776.29	3.5
777.036	4.5
777.783	7.5
778.53	6.5
779.276	5.5
780.023	4.5
780.769	3.5
781.516	7.5
782.262	3.5
783.008	4.5
783.754	4.5
784.5	4.5
785.246	5.5
785.992	2.5
786.738	6.5
787.484	5.5
788.23	6.5
788.975	4.5
789.721	5.5
790.466	5.5
791.212	5.5
791.957	6.5
792.702	2.5
793.447	5.5
794.193	3.5
794.938	5.5
795.683	3.5
796.427	5.5
797.172	3.5
797.917	5.5
798.662	3.5
799.406	5.5
800.151	2.5
800.895	8.5
801.64	2.5
802.384	6.5
803.128	3.5
803.872	5.5
804.616	4.5
805.36	2.5
806.104	5.5
806.848	2.5
807.592	4.5
808.336	4.5
809.079	2.5
809.823	5.5
810.566	2.5
811.31	4.5
812.053	2.5
812.796	3.5
813.539	1.5
814.283	4.5
815.026	4.5
815.769	2.5
816.511	4.5
817.254	4.5
817.997	4.5
818.74	2.5
819.482	2.5
820.225	3.5
820.967	2.5
821.71	3.5
822.452	3.5
823.194	4.5
823.936	2.5
824.678	0.5
825.42	2.5
826.162	3.5
826.904	3.5
827.646	1.5
828.388	5.5
829.129	-0.5
829.871	1.5
830.612	3.5
831.354	3.5
832.095	2.5
832.836	2.5
833.577	5.5
834.319	2.5
835.06	3.5
835.801	1.5
836.542	1.5
837.282	5.5
838.023	3.5
838.764	2.5
839.504	3.5
840.245	2.5
840.985	0.5
841.726	2.5
842.466	2.5
843.206	-0.5
843.946	2.5
844.687	2.5
845.427	2.5
846.166	2.5
846.906	0.5
847.646	2.5
848.386	2.5
849.125	0.5
849.865	1.5
850.605	5.5
851.344	3.5
852.083	2.5
852.823	1.5
853.562	1.5
854.301	0.5
855.04	3.5
855.779	1.5
856.518	0.5
857.257	1.5
857.995	-0.5
858.734	0.5
859.473	3.5
860.211	2.5
860.95	1.5
861.688	2.5
862.426	1.5
863.165	0.5
863.903	0.5
864.641	0.5
865.379	3.5
866.117	-1.5
866.855	-1.5
867.593	0.5
868.33	1.5
869.068	1.5
869.806	2.5
870.543	0.5
871.28	1.5
872.018	0.5
872.755	1.5
873.492	1.5
874.229	0.5
874.967	3.5
875.703	0.5
876.44	-2.5
877.177	-0.5
877.914	1.5
878.651	2.5
879.387	1.5
880.124	-1.5
880.86	0.5
881.597	3.5
882.333	0.5
883.069	0.5
883.806	1.5
884.542	-0.5
885.278	1.5
886.014	1.5
886.749	-0.5
887.485	0.5
888.221	1.5
888.957	0.5
889.692	1.5
890.428	-1.5
891.163	1.5
891.899	-0.5
892.634	1.5
893.369	-1.5
894.104	1.5
894.839	0.5
895.574	1.5
896.309	-1.5
897.044	-0.5
897.779	2.5
898.514	0.5
899.248	-0.5
899.983	2.5
900.717	1.5
901.452	2.5
902.186	0.5
902.92	1.5
903.654	0.5
904.389	0.5
905.123	2.5
905.857	-1.5
906.59	1.5
907.324	-0.5
908.058	1.5
908.792	0.5
909.525	1.5
910.259	1.5
910.992	0.5
911.726	1.5
912.459	0.5
913.192	0.5
913.925	-1.5
914.658	-1.5
915.391	0.5
916.124	0.5
916.857	2.5
917.59	-0.5
918.323	2.5
919.055	0.5
919.788	2.5
920.521	0.5
921.253	0.5
921.985	0.5
922.718	-0.5
923.45	0.5
924.182	1.5
924.914	0.5
925.646	-1.5
926.378	1.5
927.11	-0.5
927.841	0.5
928.573	0.5
929.305	1.5
930.036	1.5
930.768	2.5
931.499	0.5
932.23	2.5
932.962	-1.5
933.693	1.5
934.424	1.5
935.155	-0.5
935.886	0.5
936.617	0.5
937.348	-0.5
938.078	-1.5
938.809	-0.5
939.54	1.5
940.27	-0.5
941.001	-0.5
941.731	-0.5
942.461	1.5
943.191	-1.5
943.922	1.5
944.652	-1.5
945.382	2.5
946.112	0.5
946.841	-1.5
947.571	-0.5
948.301	0.5
949.031	-0.5
949.76	2.5
950.49	-0.5
951.219	0.5
951.948	-2.5
952.678	-0.5
953.407	-1.5
954.136	1.5
954.865	-0.5
955.594	-0.5
956.323	-1.5
957.052	-0.5
957.78	1.5
958.509	1.5
959.238	1.5
959.966	-1.5
960.695	0.5
961.423	1.5
962.151	-0.5
962.88	0.5
963.608	1.5
964.336	-0.5
965.064	0.5
965.792	1.5
966.52	2.5
967.247	-1.5
967.975	1.5
968.703	1.5
969.43	-0.5
970.158	-1.5
970.885	0.5
971.613	-1.5
972.34	-0.5
973.067	0.5
973.794	0.5
974.521	-0.5
975.248	-1.5
975.975	0.5
976.702	0.5
977.429	0.5
978.156	0.5
978.882	0.5
979.609	1.5
980.335	1.5
981.062	0.5
981.788	1.5
982.514	-2.5
983.24	1.5
983.967	-1.5
984.693	1.5
985.419	-0.5
986.144	-0.5
986.87	-0.5
987.596	-2.5
988.322	-0.5
989.047	-1.5
989.773	-0.5
990.498	3.5
991.224	-0.5
991.949	0.5
992.674	0.5
993.399	3.5
994.124	-0.5
994.849	1.5
995.574	-2.5
996.299	0.5
997.024	1.5
997.749	-0.5
998.473	2.5
999.198	0.5
999.922	0.5
1000.647	-1.5
1001.371	4.5
1002.095	-0.5
1002.82	-2.5
1003.544	-0.5
1004.268	1.5
1004.992	2.5
1005.716	0.5
1006.439	0.5
1007.163	0.5
1007.887	-1.5
1008.611	1.5
1009.334	-0.5
1010.058	-1.5
1010.781	0.5
1011.504	-0.5
1012.228	-0.5
1012.951	0.5
1013.674	-1.5
1014.397	0.5
1015.12	-0.5
