节点500_145_QEPB04081__33__11-29-28-786.txt的数据

Date: Wed Nov 12 11:29:28 CST 2025
User: PC
Spectrometer: QEPB0408
触发模式: 0
积分时间 (秒): 1.000000E-2
Scans to average: 1
启用暗噪声校正: true
启用非线性校正: false
滑动平均宽度: 0
X轴模式: Wavelengths
Number of Pixels in Spectrum: 1044
>>>>>Begin Spectral Data<<<<<
220.843	0.62
221.644	-1.38
222.444	0.62
223.244	-0.38
224.045	1.62
224.845	-2.38
225.645	-0.38
226.445	0.62
227.245	1.62
228.045	2.62
228.845	-0.38
229.645	1.62
230.444	-1.38
231.244	0.62
232.043	0.62
232.843	-1.38
233.642	0.62
234.442	0.62
235.241	0.62
236.04	1.62
236.839	2.62
237.638	0.62
238.437	0.62
239.236	-0.38
240.035	1.62
240.833	1.62
241.632	2.62
242.43	0.62
243.229	0.62
244.027	2.62
244.826	2.62
245.624	0.62
246.422	1.62
247.22	1.62
248.018	1.62
248.816	1.62
249.614	2.62
250.412	1.62
251.21	2.62
252.007	2.62
252.805	4.62
253.602	2.62
254.4	6.62
255.197	3.62
255.994	5.62
256.791	5.62
257.589	2.62
258.386	4.62
259.183	3.62
259.979	2.62
260.776	4.62
261.573	4.62
262.37	6.62
263.166	6.62
263.963	5.62
264.759	4.62
265.556	6.62
266.352	7.62
267.148	6.62
267.944	6.62
268.74	6.62
269.536	8.62
270.332	4.62
271.128	6.62
271.924	11.62
272.719	7.62
273.515	9.62
274.311	9.62
275.106	11.62
275.901	9.62
276.697	12.62
277.492	7.62
278.287	11.62
279.082	10.62
279.877	9.62
280.672	10.62
281.467	11.62
282.262	13.62
283.056	10.62
283.851	11.62
284.646	12.62
285.44	11.62
286.234	11.62
287.029	11.62
287.823	13.62
288.617	9.62
289.411	10.62
290.205	12.62
290.999	12.62
291.793	11.62
292.587	11.62
293.381	14.62
294.174	10.62
294.968	12.62
295.761	12.62
296.555	10.62
297.348	11.62
298.141	8.62
298.935	11.62
299.728	10.62
300.521	8.62
301.314	8.62
302.107	10.62
302.899	7.62
303.692	8.62
304.485	9.62
305.277	9.62
306.07	9.62
306.862	8.62
307.655	10.62
308.447	8.62
309.239	7.62
310.031	6.62
310.823	9.62
311.615	8.62
312.407	5.62
313.199	6.62
313.991	5.62
314.783	7.62
315.574	6.62
316.366	5.62
317.157	5.62
317.949	5.62
318.74	5.62
319.531	2.62
320.322	4.62
321.113	2.62
321.904	5.62
322.695	3.62
323.486	5.62
324.277	3.62
325.068	4.62
325.858	4.62
326.649	5.62
327.439	2.62
328.23	3.62
329.02	5.62
329.81	4.62
330.6	3.62
331.391	5.62
332.181	1.62
332.971	4.62
333.76	3.62
334.55	4.62
335.34	5.62
336.13	1.62
336.919	3.62
337.709	4.62
338.498	3.62
339.287	3.62
340.077	2.62
340.866	4.62
341.655	2.62
342.444	3.62
343.233	4.62
344.022	4.62
344.811	4.62
345.6	1.62
346.388	5.62
347.177	3.62
347.965	3.62
348.754	1.62
349.542	2.62
350.33	3.62
351.119	3.62
351.907	5.62
352.695	2.62
353.483	3.62
354.271	3.62
355.059	4.62
355.846	3.62
356.634	2.62
357.422	2.62
358.209	2.62
358.997	5.62
359.784	4.62
360.571	3.62
361.359	2.62
362.146	2.62
362.933	4.62
363.72	3.62
364.507	5.62
365.294	2.62
366.081	5.62
366.867	3.62
367.654	3.62
368.44	4.62
369.227	2.62
370.013	2.62
370.8	3.62
371.586	4.62
372.372	2.62
373.158	2.62
373.944	3.62
374.73	2.62
375.516	3.62
376.302	4.62
377.088	1.62
377.873	3.62
378.659	0.62
379.445	2.62
380.23	3.62
381.015	3.62
381.801	5.62
382.586	2.62
383.371	2.62
384.156	3.62
384.941	3.62
385.726	2.62
386.511	1.62
387.296	2.62
388.08	2.62
388.865	3.62
389.649	3.62
390.434	4.62
391.218	3.62
392.003	1.62
392.787	4.62
393.571	2.62
394.355	2.62
395.139	1.62
395.923	5.62
396.707	1.62
397.491	2.62
398.274	1.62
399.058	4.62
399.842	5.62
400.625	4.62
401.408	5.62
402.192	5.62
402.975	4.62
403.758	5.62
404.541	5.62
405.324	5.62
406.107	2.62
406.89	7.62
407.673	3.62
408.456	5.62
409.238	5.62
410.021	5.62
410.803	5.62
411.586	4.62
412.368	4.62
413.151	6.62
413.933	2.62
414.715	7.62
415.497	0.62
416.279	4.62
417.061	6.62
417.843	5.62
418.624	3.62
419.406	2.62
420.188	6.62
420.969	4.62
421.751	5.62
422.532	6.62
423.313	6.62
424.095	5.62
424.876	7.62
425.657	8.62
426.438	6.62
427.219	5.62
428	6.62
428.78	7.62
429.561	5.62
430.342	6.62
431.122	6.62
431.903	7.62
432.683	9.62
433.464	10.62
434.244	10.62
435.024	10.62
435.804	12.62
436.584	8.62
437.364	7.62
438.144	9.62
438.924	7.62
439.704	13.62
440.483	10.62
441.263	10.62
442.042	12.62
442.822	11.62
443.601	10.62
444.38	13.62
445.16	16.62
445.939	16.62
446.718	17.62
447.497	16.62
448.276	19.62
449.054	20.62
449.833	24.62
450.612	25.62
451.391	23.62
452.169	28.62
452.948	28.62
453.726	30.62
454.504	32.62
455.282	36.62
456.061	41.62
456.839	44.62
457.617	49.62
458.395	54.62
459.172	57.62
459.95	69.62
460.728	73.62
461.506	75.62
462.283	90.62
463.061	100.62
463.838	111.62
464.615	127.62
465.393	133.62
466.17	152.62
466.947	171.62
467.724	194.62
468.501	211.62
469.278	241.62
470.055	266.62
470.831	294.62
471.608	332.62
472.385	370.62
473.161	422.62
473.938	472.62
474.714	518.62
475.49	582.62
476.266	643.62
477.043	723.62
477.819	804.62
478.595	888.62
479.371	1015.62
480.146	1108.62
480.922	1234.62
481.698	1352.62
482.473	1521.62
483.249	1693.62
484.024	1893.62
484.8	2088.62
485.575	2315.62
486.35	2561.62
487.126	2846.62
487.901	3168.62
488.676	3517.62
489.451	3887.62
490.225	4304.62
491	4743.62
491.775	5278.62
492.55	5803.62
493.324	6428.62
494.099	7051.62
494.873	7747.62
495.647	8454.62
496.422	9246.62
497.196	9997.62
497.97	10825.62
498.744	11670.62
499.518	12493.62
500.292	13298.62
501.066	14058.62
501.839	14776.62
502.613	15498.62
503.387	16105.62
504.16	16563.62
504.934	17019.62
505.707	17272.62
506.48	17491.62
507.253	17466.62
508.027	17435.62
508.8	17165.62
509.573	16959.62
510.346	16565.62
511.118	16042.62
511.891	15470.62
512.664	14879.62
513.437	14291.62
514.209	13694.62
514.982	13064.62
515.754	12411.62
516.526	11878.62
517.298	11344.62
518.071	10809.62
518.843	10323.62
519.615	9898.62
520.387	9459.62
521.159	9094.62
521.93	8706.62
522.702	8411.62
523.474	8077.62
524.245	7747.62
525.017	7433.62
525.788	7144.62
526.56	6837.62
527.331	6557.62
528.102	6251.62
528.873	5949.62
529.644	5674.62
530.415	5399.62
531.186	5125.62
531.957	4839.62
532.728	4579.62
533.498	4326.62
534.269	4078.62
535.039	3855.62
535.81	3627.62
536.58	3433.62
537.351	3229.62
538.121	3026.62
538.891	2871.62
539.661	2726.62
540.431	2598.62
541.201	2444.62
541.971	2307.62
542.741	2190.62
543.51	2071.62
544.28	1974.62
545.05	1897.62
545.819	1792.62
546.588	1706.62
547.358	1625.62
548.127	1532.62
548.896	1462.62
549.665	1370.62
550.434	1308.62
551.203	1240.62
551.972	1171.62
552.741	1121.62
553.51	1049.62
554.278	991.62
555.047	930.62
555.815	881.62
556.584	821.62
557.352	781.62
558.121	735.62
558.889	691.62
559.657	649.62
560.425	610.62
561.193	581.62
561.961	544.62
562.729	514.62
563.496	487.62
564.264	460.62
565.032	432.62
565.799	413.62
566.567	393.62
567.334	361.62
568.101	344.62
568.869	325.62
569.636	307.62
570.403	295.62
571.17	270.62
571.937	259.62
572.704	239.62
573.471	230.62
574.237	215.62
575.004	200.62
575.771	189.62
576.537	179.62
577.303	170.62
578.07	160.62
578.836	147.62
579.602	139.62
580.368	129.62
581.134	128.62
581.9	116.62
582.666	110.62
583.432	107.62
584.198	99.62
584.964	94.62
585.729	87.62
586.495	86.62
587.26	81.62
588.025	78.62
588.791	69.62
589.556	63.62
590.321	62.62
591.086	61.62
591.851	60.62
592.616	57.62
593.381	57.62
594.146	48.62
594.911	45.62
595.675	44.62
596.44	41.62
597.204	41.62
597.969	42.62
598.733	40.62
599.497	32.62
600.261	33.62
601.025	34.62
601.79	30.62
602.553	31.62
603.317	29.62
604.081	26.62
604.845	24.62
605.609	25.62
606.372	23.62
607.136	23.62
607.899	20.62
608.662	19.62
609.426	20.62
610.189	17.62
610.952	15.62
611.715	20.62
612.478	16.62
613.241	14.62
614.004	16.62
614.767	13.62
615.529	17.62
616.292	13.62
617.055	11.62
617.817	11.62
618.579	14.62
619.342	13.62
620.104	12.62
620.866	13.62
621.628	11.62
622.39	11.62
623.152	9.62
623.914	10.62
624.676	11.62
625.438	11.62
626.199	11.62
626.961	8.62
627.722	9.62
628.484	7.62
629.245	8.62
630.006	7.62
630.768	6.62
631.529	7.62
632.29	7.62
633.051	7.62
633.812	8.62
634.573	4.62
635.333	5.62
636.094	5.62
636.855	6.62
637.615	5.62
638.376	8.62
639.136	7.62
639.896	5.62
640.657	7.62
641.417	3.62
642.177	4.62
642.937	2.62
643.697	6.62
644.457	5.62
645.216	2.62
645.976	4.62
646.736	4.62
647.495	5.62
648.255	4.62
649.014	8.62
649.774	5.62
650.533	3.62
651.292	5.62
652.051	2.62
652.81	3.62
653.569	4.62
654.328	3.62
655.087	4.62
655.846	3.62
656.604	5.62
657.363	4.62
658.121	3.62
658.88	1.62
659.638	3.62
660.397	4.62
661.155	1.62
661.913	4.62
662.671	3.62
663.429	5.62
664.187	2.62
664.945	2.62
665.703	2.62
666.46	0.62
667.218	3.62
667.976	2.62
668.733	5.62
669.49	1.62
670.248	3.62
671.005	4.62
671.762	5.62
672.519	3.62
673.276	3.62
674.033	2.62
674.79	2.62
675.547	4.62
676.304	1.62
677.06	3.62
677.817	3.62
678.574	2.62
679.33	2.62
680.086	0.62
680.843	2.62
681.599	1.62
682.355	3.62
683.111	2.62
683.867	2.62
684.623	2.62
685.379	1.62
686.135	2.62
686.89	2.62
687.646	1.62
688.402	1.62
689.157	2.62
689.912	2.62
690.668	3.62
691.423	2.62
692.178	3.62
692.933	1.62
693.688	2.62
694.443	2.62
695.198	1.62
695.953	2.62
696.708	2.62
697.462	2.62
698.217	1.62
698.972	1.62
699.726	2.62
700.48	4.62
701.235	1.62
701.989	2.62
702.743	2.62
703.497	4.62
704.251	2.62
705.005	2.62
705.759	3.62
706.513	3.62
707.266	2.62
708.02	4.62
708.774	1.62
709.527	2.62
710.28	1.62
711.034	0.62
711.787	3.62
712.54	0.62
713.293	2.62
714.046	1.62
714.799	1.62
715.552	1.62
716.305	3.62
717.058	3.62
717.81	0.62
718.563	1.62
719.315	0.62
720.068	4.62
720.82	1.62
721.573	2.62
722.325	3.62
723.077	2.62
723.829	2.62
724.581	3.62
725.333	1.62
726.085	2.62
726.836	1.62
727.588	1.62
728.34	2.62
729.091	1.62
729.843	1.62
730.594	3.62
731.346	0.62
732.097	3.62
732.848	2.62
733.599	4.62
734.35	2.62
735.101	3.62
735.852	-1.38
736.603	2.62
737.354	1.62
738.104	4.62
738.855	1.62
739.605	2.62
740.356	1.62
741.106	2.62
741.856	1.62
742.607	3.62
743.357	4.62
744.107	1.62
744.857	2.62
745.607	5.62
746.357	2.62
747.106	2.62
747.856	2.62
748.606	3.62
749.355	-0.38
750.105	3.62
750.854	2.62
751.603	1.62
752.353	6.62
753.102	2.62
753.851	3.62
754.6	4.62
755.349	2.62
756.098	2.62
756.847	2.62
757.595	3.62
758.344	2.62
759.093	2.62
759.841	0.62
760.589	3.62
761.338	3.62
762.086	3.62
762.834	5.62
763.582	3.62
764.331	3.62
765.079	4.62
765.826	3.62
766.574	4.62
767.322	4.62
768.07	4.62
768.817	4.62
769.565	6.62
770.312	6.62
771.06	4.62
771.807	7.62
772.554	4.62
773.302	5.62
774.049	2.62
774.796	2.62
775.543	4.62
776.29	4.62
777.036	4.62
777.783	2.62
778.53	4.62
779.276	6.62
780.023	5.62
780.769	6.62
781.516	6.62
782.262	4.62
783.008	4.62
783.754	5.62
784.5	5.62
785.246	5.62
785.992	7.62
786.738	5.62
787.484	6.62
788.23	4.62
788.975	7.62
789.721	2.62
790.466	5.62
791.212	7.62
791.957	5.62
792.702	5.62
793.447	4.62
794.193	5.62
794.938	4.62
795.683	5.62
796.427	5.62
797.172	6.62
797.917	5.62
798.662	6.62
799.406	3.62
800.151	4.62
800.895	6.62
801.64	4.62
802.384	4.62
803.128	3.62
803.872	6.62
804.616	6.62
805.36	5.62
806.104	4.62
806.848	4.62
807.592	3.62
808.336	5.62
809.079	2.62
809.823	4.62
810.566	2.62
811.31	4.62
812.053	3.62
812.796	3.62
813.539	5.62
814.283	5.62
815.026	0.62
815.769	3.62
816.511	3.62
817.254	4.62
817.997	2.62
818.74	1.62
819.482	7.62
820.225	1.62
820.967	2.62
821.71	2.62
822.452	1.62
823.194	3.62
823.936	4.62
824.678	4.62
825.42	1.62
826.162	5.62
826.904	4.62
827.646	2.62
828.388	3.62
829.129	0.62
829.871	2.62
830.612	3.62
831.354	3.62
832.095	1.62
832.836	4.62
833.577	2.62
834.319	2.62
835.06	4.62
835.801	1.62
836.542	2.62
837.282	2.62
838.023	3.62
838.764	3.62
839.504	1.62
840.245	3.62
840.985	0.62
841.726	2.62
842.466	0.62
843.206	2.62
843.946	4.62
844.687	1.62
845.427	2.62
846.166	1.62
846.906	1.62
847.646	2.62
848.386	1.62
849.125	3.62
849.865	1.62
850.605	2.62
851.344	2.62
852.083	3.62
852.823	3.62
853.562	2.62
854.301	0.62
855.04	1.62
855.779	2.62
856.518	0.62
857.257	4.62
857.995	2.62
858.734	1.62
859.473	0.62
860.211	-0.38
860.95	-0.38
861.688	3.62
862.426	2.62
863.165	2.62
863.903	3.62
864.641	1.62
865.379	1.62
866.117	2.62
866.855	1.62
867.593	2.62
868.33	0.62
869.068	0.62
869.806	-1.38
870.543	1.62
871.28	0.62
872.018	0.62
872.755	2.62
873.492	2.62
874.229	2.62
874.967	1.62
875.703	0.62
876.44	2.62
877.177	2.62
877.914	1.62
878.651	1.62
879.387	1.62
880.124	-0.38
880.86	-1.38
881.597	2.62
882.333	1.62
883.069	0.62
883.806	2.62
884.542	0.62
885.278	1.62
886.014	1.62
886.749	2.62
887.485	1.62
888.221	0.62
888.957	0.62
889.692	-0.38
890.428	0.62
891.163	-0.38
891.899	-1.38
892.634	0.62
893.369	-1.38
894.104	-1.38
894.839	0.62
895.574	1.62
896.309	-0.38
897.044	0.62
897.779	1.62
898.514	-1.38
899.248	0.62
899.983	-2.38
900.717	2.62
901.452	0.62
902.186	1.62
902.92	0.62
903.654	-0.38
904.389	1.62
905.123	-0.38
905.857	1.62
906.59	-0.38
907.324	0.62
908.058	1.62
908.792	0.62
909.525	0.62
910.259	-0.38
910.992	-0.38
911.726	2.62
912.459	-0.38
913.192	0.62
913.925	1.62
914.658	2.62
915.391	1.62
916.124	1.62
916.857	0.62
917.59	-0.38
918.323	-0.38
919.055	1.62
919.788	3.62
920.521	2.62
921.253	0.62
921.985	0.62
922.718	0.62
923.45	0.62
924.182	0.62
924.914	2.62
925.646	1.62
926.378	-0.38
927.11	3.62
927.841	-1.38
928.573	1.62
929.305	-1.38
930.036	0.62
930.768	-1.38
931.499	1.62
932.23	0.62
932.962	-0.38
933.693	1.62
934.424	0.62
935.155	1.62
935.886	-0.38
936.617	2.62
937.348	0.62
938.078	-0.38
938.809	0.62
939.54	0.62
940.27	0.62
941.001	1.62
941.731	1.62
942.461	-0.38
943.191	1.62
943.922	1.62
944.652	0.62
945.382	1.62
946.112	0.62
946.841	-1.38
947.571	-1.38
948.301	1.62
949.031	1.62
949.76	1.62
950.49	-1.38
951.219	0.62
951.948	3.62
952.678	0.62
953.407	0.62
954.136	-0.38
954.865	0.62
955.594	-0.38
956.323	2.62
957.052	0.62
957.78	-1.38
958.509	0.62
959.238	0.62
959.966	0.62
960.695	0.62
961.423	1.62
962.151	0.62
962.88	1.62
963.608	1.62
964.336	3.62
965.064	1.62
965.792	-0.38
966.52	2.62
967.247	2.62
967.975	1.62
968.703	0.62
969.43	1.62
970.158	1.62
970.885	0.62
971.613	0.62
972.34	-1.38
973.067	0.62
973.794	1.62
974.521	1.62
975.248	-0.38
975.975	0.62
976.702	-1.38
977.429	1.62
978.156	0.62
978.882	1.62
979.609	0.62
980.335	-1.38
981.062	0.62
981.788	1.62
982.514	0.62
983.24	-0.38
983.967	2.62
984.693	-1.38
985.419	1.62
986.144	0.62
986.87	-1.38
987.596	1.62
988.322	-1.38
989.047	1.62
989.773	-1.38
990.498	0.62
991.224	-0.38
991.949	-0.38
992.674	1.62
993.399	-1.38
994.124	-0.38
994.849	1.62
995.574	1.62
996.299	-0.38
997.024	1.62
997.749	2.62
998.473	-1.38
999.198	-0.38
999.922	0.62
1000.647	1.62
1001.371	4.62
1002.095	0.62
1002.82	-2.38
1003.544	-1.38
1004.268	-0.38
1004.992	0.62
1005.716	0.62
1006.439	0.62
1007.163	-3.38
1007.887	-1.38
1008.611	-0.38
1009.334	1.62
1010.058	-0.38
1010.781	0.62
1011.504	3.62
1012.228	-0.38
1012.951	-0.38
1013.674	-0.38
1014.397	0.62
1015.12	-1.38
