节点500_145_QEPB04081__136__11-31-06-628.txt的数据

Date: Wed Nov 12 11:31:06 CST 2025
User: PC
Spectrometer: QEPB0408
触发模式: 0
积分时间 (秒): 1.000000E-2
Scans to average: 1
启用暗噪声校正: true
启用非线性校正: false
滑动平均宽度: 0
X轴模式: Wavelengths
Number of Pixels in Spectrum: 1044
>>>>>Begin Spectral Data<<<<<
220.843	-0.62
221.644	-0.62
222.444	0.38
223.244	-0.62
224.045	1.38
224.845	0.38
225.645	2.38
226.445	0.38
227.245	2.38
228.045	0.38
228.845	-0.62
229.645	1.38
230.444	-0.62
231.244	-1.62
232.043	-0.62
232.843	0.38
233.642	1.38
234.442	2.38
235.241	0.38
236.04	2.38
236.839	1.38
237.638	1.38
238.437	2.38
239.236	1.38
240.035	2.38
240.833	1.38
241.632	1.38
242.43	2.38
243.229	1.38
244.027	3.38
244.826	4.38
245.624	2.38
246.422	2.38
247.22	0.38
248.018	3.38
248.816	2.38
249.614	2.38
250.412	2.38
251.21	2.38
252.007	3.38
252.805	3.38
253.602	4.38
254.4	2.38
255.197	0.38
255.994	3.38
256.791	4.38
257.589	3.38
258.386	2.38
259.183	7.38
259.979	5.38
260.776	5.38
261.573	5.38
262.37	4.38
263.166	6.38
263.963	4.38
264.759	4.38
265.556	7.38
266.352	6.38
267.148	7.38
267.944	7.38
268.74	7.38
269.536	8.38
270.332	11.38
271.128	10.38
271.924	7.38
272.719	8.38
273.515	8.38
274.311	9.38
275.106	10.38
275.901	8.38
276.697	9.38
277.492	9.38
278.287	8.38
279.082	13.38
279.877	9.38
280.672	10.38
281.467	9.38
282.262	8.38
283.056	11.38
283.851	10.38
284.646	10.38
285.44	13.38
286.234	11.38
287.029	11.38
287.823	11.38
288.617	11.38
289.411	13.38
290.205	9.38
290.999	12.38
291.793	10.38
292.587	11.38
293.381	10.38
294.174	12.38
294.968	10.38
295.761	11.38
296.555	8.38
297.348	10.38
298.141	9.38
298.935	13.38
299.728	10.38
300.521	10.38
301.314	7.38
302.107	11.38
302.899	10.38
303.692	10.38
304.485	11.38
305.277	6.38
306.07	10.38
306.862	7.38
307.655	10.38
308.447	8.38
309.239	7.38
310.031	7.38
310.823	9.38
311.615	6.38
312.407	6.38
313.199	6.38
313.991	5.38
314.783	7.38
315.574	7.38
316.366	7.38
317.157	5.38
317.949	6.38
318.74	6.38
319.531	6.38
320.322	3.38
321.113	5.38
321.904	1.38
322.695	4.38
323.486	4.38
324.277	6.38
325.068	5.38
325.858	3.38
326.649	5.38
327.439	4.38
328.23	3.38
329.02	1.38
329.81	5.38
330.6	6.38
331.391	4.38
332.181	4.38
332.971	2.38
333.76	3.38
334.55	2.38
335.34	4.38
336.13	5.38
336.919	2.38
337.709	3.38
338.498	5.38
339.287	4.38
340.077	4.38
340.866	4.38
341.655	4.38
342.444	3.38
343.233	4.38
344.022	2.38
344.811	4.38
345.6	4.38
346.388	3.38
347.177	0.38
347.965	4.38
348.754	4.38
349.542	3.38
350.33	5.38
351.119	2.38
351.907	1.38
352.695	0.38
353.483	1.38
354.271	3.38
355.059	4.38
355.846	1.38
356.634	3.38
357.422	2.38
358.209	1.38
358.997	2.38
359.784	4.38
360.571	4.38
361.359	1.38
362.146	3.38
362.933	2.38
363.72	2.38
364.507	3.38
365.294	6.38
366.081	2.38
366.867	4.38
367.654	2.38
368.44	4.38
369.227	2.38
370.013	2.38
370.8	4.38
371.586	2.38
372.372	1.38
373.158	2.38
373.944	0.38
374.73	2.38
375.516	4.38
376.302	2.38
377.088	2.38
377.873	3.38
378.659	3.38
379.445	1.38
380.23	2.38
381.015	3.38
381.801	3.38
382.586	2.38
383.371	3.38
384.156	2.38
384.941	2.38
385.726	1.38
386.511	0.38
387.296	1.38
388.08	5.38
388.865	3.38
389.649	2.38
390.434	3.38
391.218	2.38
392.003	3.38
392.787	5.38
393.571	2.38
394.355	2.38
395.139	2.38
395.923	0.38
396.707	4.38
397.491	3.38
398.274	5.38
399.058	3.38
399.842	3.38
400.625	4.38
401.408	1.38
402.192	5.38
402.975	4.38
403.758	2.38
404.541	6.38
405.324	5.38
406.107	6.38
406.89	3.38
407.673	3.38
408.456	3.38
409.238	4.38
410.021	5.38
410.803	3.38
411.586	5.38
412.368	5.38
413.151	3.38
413.933	5.38
414.715	5.38
415.497	3.38
416.279	3.38
417.061	5.38
417.843	6.38
418.624	6.38
419.406	4.38
420.188	5.38
420.969	4.38
421.751	5.38
422.532	6.38
423.313	5.38
424.095	4.38
424.876	8.38
425.657	5.38
426.438	8.38
427.219	5.38
428	9.38
428.78	5.38
429.561	4.38
430.342	6.38
431.122	7.38
431.903	7.38
432.683	10.38
433.464	8.38
434.244	10.38
435.024	9.38
435.804	8.38
436.584	12.38
437.364	10.38
438.144	9.38
438.924	12.38
439.704	10.38
440.483	9.38
441.263	13.38
442.042	10.38
442.822	14.38
443.601	14.38
444.38	14.38
445.16	16.38
445.939	13.38
446.718	17.38
447.497	16.38
448.276	22.38
449.054	21.38
449.833	21.38
450.612	24.38
451.391	26.38
452.169	26.38
452.948	31.38
453.726	36.38
454.504	37.38
455.282	39.38
456.061	45.38
456.839	48.38
457.617	56.38
458.395	53.38
459.172	63.38
459.95	72.38
460.728	83.38
461.506	85.38
462.283	93.38
463.061	104.38
463.838	117.38
464.615	136.38
465.393	148.38
466.17	163.38
466.947	189.38
467.724	201.38
468.501	228.38
469.278	259.38
470.055	288.38
470.831	319.38
471.608	347.38
472.385	402.38
473.161	439.38
473.938	485.38
474.714	546.38
475.49	607.38
476.266	667.38
477.043	749.38
477.819	822.38
478.595	916.38
479.371	1023.38
480.146	1128.38
480.922	1255.38
481.698	1401.38
482.473	1549.38
483.249	1729.38
484.024	1894.38
484.8	2097.38
485.575	2333.38
486.35	2581.38
487.126	2857.38
487.901	3177.38
488.676	3504.38
489.451	3847.38
490.225	4245.38
491	4688.38
491.775	5154.38
492.55	5703.38
493.324	6252.38
494.099	6867.38
494.873	7554.38
495.647	8207.38
496.422	8935.38
497.196	9672.38
497.97	10474.38
498.744	11241.38
499.518	12074.38
500.292	12865.38
501.066	13620.38
501.839	14296.38
502.613	15078.38
503.387	15644.38
504.16	16188.38
504.934	16594.38
505.707	16914.38
506.48	17118.38
507.253	17181.38
508.027	17169.38
508.8	17067.38
509.573	16812.38
510.346	16442.38
511.118	16001.38
511.891	15573.38
512.664	15015.38
513.437	14475.38
514.209	13905.38
514.982	13338.38
515.754	12730.38
516.526	12078.38
517.298	11610.38
518.071	11051.38
518.843	10572.38
519.615	10076.38
520.387	9717.38
521.159	9348.38
521.93	8925.38
522.702	8614.38
523.474	8238.38
524.245	7952.38
525.017	7623.38
525.788	7296.38
526.56	6998.38
527.331	6742.38
528.102	6394.38
528.873	6100.38
529.644	5810.38
530.415	5547.38
531.186	5271.38
531.957	4987.38
532.728	4726.38
533.498	4495.38
534.269	4236.38
535.039	3990.38
535.81	3767.38
536.58	3550.38
537.351	3345.38
538.121	3162.38
538.891	3012.38
539.661	2822.38
540.431	2672.38
541.201	2521.38
541.971	2378.38
542.741	2257.38
543.51	2146.38
544.28	2043.38
545.05	1948.38
545.819	1858.38
546.588	1753.38
547.358	1676.38
548.127	1577.38
548.896	1512.38
549.665	1440.38
550.434	1352.38
551.203	1290.38
551.972	1217.38
552.741	1143.38
553.51	1085.38
554.278	1020.38
555.047	963.38
555.815	909.38
556.584	869.38
557.352	812.38
558.121	772.38
558.889	727.38
559.657	684.38
560.425	645.38
561.193	598.38
561.961	569.38
562.729	540.38
563.496	514.38
564.264	478.38
565.032	449.38
565.799	423.38
566.567	399.38
567.334	370.38
568.101	358.38
568.869	339.38
569.636	324.38
570.403	301.38
571.17	278.38
571.937	273.38
572.704	252.38
573.471	242.38
574.237	223.38
575.004	211.38
575.771	198.38
576.537	185.38
577.303	174.38
578.07	167.38
578.836	159.38
579.602	150.38
580.368	141.38
581.134	124.38
581.9	123.38
582.666	114.38
583.432	114.38
584.198	108.38
584.964	100.38
585.729	94.38
586.495	87.38
587.26	84.38
588.025	79.38
588.791	73.38
589.556	72.38
590.321	72.38
591.086	67.38
591.851	61.38
592.616	57.38
593.381	54.38
594.146	51.38
594.911	51.38
595.675	50.38
596.44	46.38
597.204	43.38
597.969	43.38
598.733	41.38
599.497	40.38
600.261	35.38
601.025	36.38
601.79	35.38
602.553	30.38
603.317	28.38
604.081	26.38
604.845	26.38
605.609	25.38
606.372	26.38
607.136	24.38
607.899	23.38
608.662	22.38
609.426	19.38
610.189	21.38
610.952	19.38
611.715	16.38
612.478	15.38
613.241	17.38
614.004	19.38
614.767	17.38
615.529	16.38
616.292	13.38
617.055	14.38
617.817	11.38
618.579	10.38
619.342	12.38
620.104	14.38
620.866	14.38
621.628	10.38
622.39	12.38
623.152	12.38
623.914	11.38
624.676	10.38
625.438	9.38
626.199	9.38
626.961	10.38
627.722	7.38
628.484	8.38
629.245	7.38
630.006	7.38
630.768	7.38
631.529	9.38
632.29	8.38
633.051	7.38
633.812	7.38
634.573	8.38
635.333	7.38
636.094	7.38
636.855	6.38
637.615	6.38
638.376	8.38
639.136	5.38
639.896	7.38
640.657	5.38
641.417	1.38
642.177	6.38
642.937	5.38
643.697	6.38
644.457	7.38
645.216	5.38
645.976	5.38
646.736	3.38
647.495	6.38
648.255	4.38
649.014	3.38
649.774	3.38
650.533	3.38
651.292	4.38
652.051	4.38
652.81	3.38
653.569	2.38
654.328	3.38
655.087	3.38
655.846	4.38
656.604	5.38
657.363	2.38
658.121	5.38
658.88	3.38
659.638	4.38
660.397	2.38
661.155	5.38
661.913	3.38
662.671	1.38
663.429	2.38
664.187	5.38
664.945	2.38
665.703	2.38
666.46	2.38
667.218	3.38
667.976	2.38
668.733	1.38
669.49	1.38
670.248	2.38
671.005	4.38
671.762	2.38
672.519	5.38
673.276	2.38
674.033	5.38
674.79	2.38
675.547	2.38
676.304	2.38
677.06	2.38
677.817	4.38
678.574	3.38
679.33	1.38
680.086	3.38
680.843	4.38
681.599	2.38
682.355	2.38
683.111	2.38
683.867	3.38
684.623	4.38
685.379	2.38
686.135	1.38
686.89	5.38
687.646	2.38
688.402	2.38
689.157	3.38
689.912	0.38
690.668	2.38
691.423	2.38
692.178	2.38
692.933	2.38
693.688	3.38
694.443	2.38
695.198	2.38
695.953	1.38
696.708	1.38
697.462	7.38
698.217	0.38
698.972	4.38
699.726	2.38
700.48	2.38
701.235	2.38
701.989	3.38
702.743	4.38
703.497	3.38
704.251	2.38
705.005	1.38
705.759	2.38
706.513	1.38
707.266	1.38
708.02	1.38
708.774	1.38
709.527	1.38
710.28	2.38
711.034	1.38
711.787	2.38
712.54	3.38
713.293	3.38
714.046	1.38
714.799	0.38
715.552	1.38
716.305	1.38
717.058	4.38
717.81	1.38
718.563	2.38
719.315	4.38
720.068	2.38
720.82	4.38
721.573	2.38
722.325	1.38
723.077	1.38
723.829	2.38
724.581	1.38
725.333	3.38
726.085	1.38
726.836	1.38
727.588	3.38
728.34	2.38
729.091	3.38
729.843	1.38
730.594	3.38
731.346	3.38
732.097	0.38
732.848	1.38
733.599	5.38
734.35	3.38
735.101	4.38
735.852	2.38
736.603	3.38
737.354	0.38
738.104	1.38
738.855	4.38
739.605	2.38
740.356	2.38
741.106	2.38
741.856	4.38
742.607	0.38
743.357	3.38
744.107	2.38
744.857	2.38
745.607	4.38
746.357	2.38
747.106	2.38
747.856	5.38
748.606	3.38
749.355	3.38
750.105	1.38
750.854	2.38
751.603	2.38
752.353	3.38
753.102	3.38
753.851	4.38
754.6	2.38
755.349	2.38
756.098	2.38
756.847	1.38
757.595	5.38
758.344	2.38
759.093	3.38
759.841	5.38
760.589	2.38
761.338	5.38
762.086	3.38
762.834	3.38
763.582	4.38
764.331	5.38
765.079	2.38
765.826	2.38
766.574	2.38
767.322	6.38
768.07	4.38
768.817	5.38
769.565	3.38
770.312	4.38
771.06	2.38
771.807	5.38
772.554	3.38
773.302	3.38
774.049	4.38
774.796	5.38
775.543	4.38
776.29	5.38
777.036	5.38
777.783	4.38
778.53	4.38
779.276	3.38
780.023	4.38
780.769	5.38
781.516	6.38
782.262	9.38
783.008	5.38
783.754	5.38
784.5	5.38
785.246	3.38
785.992	6.38
786.738	6.38
787.484	6.38
788.23	7.38
788.975	5.38
789.721	5.38
790.466	5.38
791.212	4.38
791.957	4.38
792.702	6.38
793.447	5.38
794.193	4.38
794.938	5.38
795.683	6.38
796.427	5.38
797.172	7.38
797.917	4.38
798.662	4.38
799.406	5.38
800.151	7.38
800.895	4.38
801.64	6.38
802.384	4.38
803.128	4.38
803.872	3.38
804.616	2.38
805.36	5.38
806.104	6.38
806.848	2.38
807.592	3.38
808.336	5.38
809.079	4.38
809.823	5.38
810.566	4.38
811.31	3.38
812.053	3.38
812.796	4.38
813.539	2.38
814.283	4.38
815.026	4.38
815.769	4.38
816.511	3.38
817.254	3.38
817.997	4.38
818.74	4.38
819.482	2.38
820.225	2.38
820.967	4.38
821.71	5.38
822.452	3.38
823.194	1.38
823.936	4.38
824.678	3.38
825.42	4.38
826.162	3.38
826.904	3.38
827.646	4.38
828.388	1.38
829.129	5.38
829.871	2.38
830.612	1.38
831.354	3.38
832.095	3.38
832.836	2.38
833.577	3.38
834.319	4.38
835.06	3.38
835.801	2.38
836.542	3.38
837.282	2.38
838.023	2.38
838.764	3.38
839.504	5.38
840.245	2.38
840.985	3.38
841.726	3.38
842.466	3.38
843.206	0.38
843.946	3.38
844.687	2.38
845.427	1.38
846.166	1.38
846.906	4.38
847.646	2.38
848.386	2.38
849.125	-0.62
849.865	3.38
850.605	2.38
851.344	1.38
852.083	2.38
852.823	3.38
853.562	2.38
854.301	0.38
855.04	2.38
855.779	3.38
856.518	4.38
857.257	2.38
857.995	1.38
858.734	1.38
859.473	2.38
860.211	0.38
860.95	2.38
861.688	0.38
862.426	4.38
863.165	1.38
863.903	2.38
864.641	1.38
865.379	1.38
866.117	2.38
866.855	0.38
867.593	3.38
868.33	2.38
869.068	0.38
869.806	1.38
870.543	-1.62
871.28	4.38
872.018	2.38
872.755	0.38
873.492	1.38
874.229	0.38
874.967	4.38
875.703	1.38
876.44	2.38
877.177	1.38
877.914	1.38
878.651	2.38
879.387	2.38
880.124	1.38
880.86	0.38
881.597	0.38
882.333	-0.62
883.069	1.38
883.806	1.38
884.542	-0.62
885.278	-1.62
886.014	-1.62
886.749	1.38
887.485	0.38
888.221	0.38
888.957	1.38
889.692	0.38
890.428	3.38
891.163	-0.62
891.899	2.38
892.634	0.38
893.369	1.38
894.104	0.38
894.839	0.38
895.574	0.38
896.309	-0.62
897.044	2.38
897.779	-0.62
898.514	1.38
899.248	-0.62
899.983	-0.62
900.717	0.38
901.452	1.38
902.186	0.38
902.92	-1.62
903.654	3.38
904.389	0.38
905.123	-1.62
905.857	2.38
906.59	-1.62
907.324	0.38
908.058	0.38
908.792	1.38
909.525	1.38
910.259	0.38
910.992	-0.62
911.726	0.38
912.459	2.38
913.192	0.38
913.925	1.38
914.658	-0.62
915.391	0.38
916.124	-1.62
916.857	1.38
917.59	1.38
918.323	1.38
919.055	-1.62
919.788	-0.62
920.521	-0.62
921.253	1.38
921.985	1.38
922.718	0.38
923.45	1.38
924.182	-1.62
924.914	2.38
925.646	-1.62
926.378	0.38
927.11	1.38
927.841	1.38
928.573	-0.62
929.305	0.38
930.036	1.38
930.768	0.38
931.499	-0.62
932.23	-1.62
932.962	1.38
933.693	2.38
934.424	-0.62
935.155	0.38
935.886	0.38
936.617	1.38
937.348	2.38
938.078	1.38
938.809	-0.62
939.54	0.38
940.27	1.38
941.001	-0.62
941.731	1.38
942.461	-0.62
943.191	1.38
943.922	0.38
944.652	1.38
945.382	0.38
946.112	-0.62
946.841	2.38
947.571	1.38
948.301	0.38
949.031	1.38
949.76	-1.62
950.49	-0.62
951.219	0.38
951.948	1.38
952.678	0.38
953.407	-0.62
954.136	-0.62
954.865	-0.62
955.594	1.38
956.323	-0.62
957.052	3.38
957.78	-0.62
958.509	0.38
959.238	3.38
959.966	-0.62
960.695	0.38
961.423	1.38
962.151	1.38
962.88	2.38
963.608	-0.62
964.336	0.38
965.064	1.38
965.792	1.38
966.52	-2.62
967.247	0.38
967.975	-0.62
968.703	-1.62
969.43	1.38
970.158	-1.62
970.885	1.38
971.613	2.38
972.34	1.38
973.067	0.38
973.794	0.38
974.521	-0.62
975.248	-0.62
975.975	2.38
976.702	0.38
977.429	0.38
978.156	0.38
978.882	0.38
979.609	0.38
980.335	0.38
981.062	0.38
981.788	-0.62
982.514	-0.62
983.24	-1.62
983.967	-0.62
984.693	1.38
985.419	1.38
986.144	0.38
986.87	1.38
987.596	-0.62
988.322	1.38
989.047	-1.62
989.773	0.38
990.498	1.38
991.224	0.38
991.949	-0.62
992.674	1.38
993.399	1.38
994.124	1.38
994.849	0.38
995.574	0.38
996.299	1.38
997.024	0.38
997.749	-1.62
998.473	0.38
999.198	-1.62
999.922	-1.62
1000.647	1.38
1001.371	5.38
1002.095	-1.62
1002.82	-1.62
1003.544	-1.62
1004.268	-0.62
1004.992	0.38
1005.716	-2.62
1006.439	0.38
1007.163	-0.62
1007.887	-0.62
1008.611	1.38
1009.334	-1.62
1010.058	1.38
1010.781	0.38
1011.504	0.38
1012.228	1.38
1012.951	-0.62
1013.674	0.38
1014.397	1.38
1015.12	-1.62
