节点500_145_QEPB04081__177__11-31-46-555.txt的数据

Date: Wed Nov 12 11:31:46 CST 2025
User: PC
Spectrometer: QEPB0408
触发模式: 0
积分时间 (秒): 1.000000E-2
Scans to average: 1
启用暗噪声校正: true
启用非线性校正: false
滑动平均宽度: 0
X轴模式: Wavelengths
Number of Pixels in Spectrum: 1044
>>>>>Begin Spectral Data<<<<<
220.843	-0.75
221.644	-0.75
222.444	-0.75
223.244	0.25
224.045	2.25
224.845	1.25
225.645	-0.75
226.445	-0.75
227.245	0.25
228.045	1.25
228.845	2.25
229.645	0.25
230.444	0.25
231.244	2.25
232.043	1.25
232.843	2.25
233.642	0.25
234.442	0.25
235.241	2.25
236.04	0.25
236.839	0.25
237.638	2.25
238.437	1.25
239.236	-0.75
240.035	1.25
240.833	2.25
241.632	0.25
242.43	3.25
243.229	4.25
244.027	1.25
244.826	2.25
245.624	3.25
246.422	0.25
247.22	2.25
248.018	2.25
248.816	3.25
249.614	1.25
250.412	1.25
251.21	1.25
252.007	4.25
252.805	4.25
253.602	2.25
254.4	2.25
255.197	3.25
255.994	5.25
256.791	3.25
257.589	4.25
258.386	5.25
259.183	2.25
259.979	2.25
260.776	6.25
261.573	4.25
262.37	6.25
263.166	5.25
263.963	6.25
264.759	6.25
265.556	4.25
266.352	5.25
267.148	8.25
267.944	8.25
268.74	6.25
269.536	7.25
270.332	5.25
271.128	7.25
271.924	9.25
272.719	8.25
273.515	6.25
274.311	9.25
275.106	10.25
275.901	8.25
276.697	12.25
277.492	11.25
278.287	8.25
279.082	11.25
279.877	8.25
280.672	13.25
281.467	10.25
282.262	11.25
283.056	10.25
283.851	10.25
284.646	10.25
285.44	10.25
286.234	9.25
287.029	11.25
287.823	10.25
288.617	11.25
289.411	10.25
290.205	10.25
290.999	11.25
291.793	11.25
292.587	11.25
293.381	10.25
294.174	10.25
294.968	14.25
295.761	10.25
296.555	10.25
297.348	9.25
298.141	7.25
298.935	9.25
299.728	12.25
300.521	5.25
301.314	8.25
302.107	10.25
302.899	8.25
303.692	8.25
304.485	6.25
305.277	10.25
306.07	7.25
306.862	9.25
307.655	8.25
308.447	8.25
309.239	9.25
310.031	7.25
310.823	7.25
311.615	5.25
312.407	6.25
313.199	6.25
313.991	6.25
314.783	7.25
315.574	5.25
316.366	5.25
317.157	3.25
317.949	5.25
318.74	4.25
319.531	4.25
320.322	7.25
321.113	4.25
321.904	5.25
322.695	5.25
323.486	6.25
324.277	5.25
325.068	4.25
325.858	4.25
326.649	3.25
327.439	4.25
328.23	3.25
329.02	6.25
329.81	4.25
330.6	1.25
331.391	5.25
332.181	4.25
332.971	2.25
333.76	5.25
334.55	6.25
335.34	5.25
336.13	2.25
336.919	7.25
337.709	1.25
338.498	6.25
339.287	5.25
340.077	2.25
340.866	4.25
341.655	1.25
342.444	5.25
343.233	2.25
344.022	1.25
344.811	4.25
345.6	2.25
346.388	4.25
347.177	3.25
347.965	2.25
348.754	5.25
349.542	3.25
350.33	4.25
351.119	3.25
351.907	2.25
352.695	2.25
353.483	3.25
354.271	4.25
355.059	4.25
355.846	3.25
356.634	3.25
357.422	5.25
358.209	4.25
358.997	2.25
359.784	4.25
360.571	2.25
361.359	1.25
362.146	2.25
362.933	4.25
363.72	4.25
364.507	4.25
365.294	2.25
366.081	1.25
366.867	5.25
367.654	2.25
368.44	4.25
369.227	2.25
370.013	2.25
370.8	2.25
371.586	3.25
372.372	4.25
373.158	3.25
373.944	3.25
374.73	1.25
375.516	5.25
376.302	3.25
377.088	3.25
377.873	3.25
378.659	2.25
379.445	3.25
380.23	3.25
381.015	1.25
381.801	4.25
382.586	2.25
383.371	3.25
384.156	2.25
384.941	3.25
385.726	2.25
386.511	4.25
387.296	5.25
388.08	2.25
388.865	5.25
389.649	4.25
390.434	0.25
391.218	0.25
392.003	3.25
392.787	1.25
393.571	3.25
394.355	4.25
395.139	2.25
395.923	4.25
396.707	4.25
397.491	4.25
398.274	3.25
399.058	1.25
399.842	6.25
400.625	4.25
401.408	4.25
402.192	3.25
402.975	4.25
403.758	5.25
404.541	2.25
405.324	4.25
406.107	4.25
406.89	2.25
407.673	4.25
408.456	3.25
409.238	3.25
410.021	2.25
410.803	3.25
411.586	5.25
412.368	5.25
413.151	4.25
413.933	6.25
414.715	6.25
415.497	4.25
416.279	5.25
417.061	8.25
417.843	6.25
418.624	4.25
419.406	6.25
420.188	6.25
420.969	8.25
421.751	6.25
422.532	5.25
423.313	7.25
424.095	8.25
424.876	4.25
425.657	8.25
426.438	7.25
427.219	7.25
428	7.25
428.78	6.25
429.561	6.25
430.342	7.25
431.122	8.25
431.903	10.25
432.683	11.25
433.464	7.25
434.244	8.25
435.024	9.25
435.804	7.25
436.584	9.25
437.364	10.25
438.144	10.25
438.924	10.25
439.704	10.25
440.483	11.25
441.263	11.25
442.042	15.25
442.822	14.25
443.601	13.25
444.38	12.25
445.16	15.25
445.939	18.25
446.718	18.25
447.497	18.25
448.276	20.25
449.054	21.25
449.833	20.25
450.612	23.25
451.391	24.25
452.169	29.25
452.948	31.25
453.726	33.25
454.504	37.25
455.282	39.25
456.061	43.25
456.839	50.25
457.617	52.25
458.395	57.25
459.172	65.25
459.95	73.25
460.728	77.25
461.506	86.25
462.283	98.25
463.061	106.25
463.838	117.25
464.615	135.25
465.393	145.25
466.17	166.25
466.947	177.25
467.724	208.25
468.501	228.25
469.278	259.25
470.055	288.25
470.831	318.25
471.608	354.25
472.385	400.25
473.161	449.25
473.938	486.25
474.714	552.25
475.49	618.25
476.266	668.25
477.043	760.25
477.819	829.25
478.595	927.25
479.371	1017.25
480.146	1151.25
480.922	1255.25
481.698	1400.25
482.473	1551.25
483.249	1712.25
484.024	1896.25
484.8	2085.25
485.575	2298.25
486.35	2573.25
487.126	2839.25
487.901	3129.25
488.676	3451.25
489.451	3829.25
490.225	4209.25
491	4665.25
491.775	5125.25
492.55	5611.25
493.324	6161.25
494.099	6788.25
494.873	7413.25
495.647	8071.25
496.422	8781.25
497.196	9527.25
497.97	10291.25
498.744	11061.25
499.518	11897.25
500.292	12659.25
501.066	13377.25
501.839	14080.25
502.613	14843.25
503.387	15381.25
504.16	15971.25
504.934	16389.25
505.707	16705.25
506.48	16946.25
507.253	17033.25
508.027	17079.25
508.8	16930.25
509.573	16692.25
510.346	16417.25
511.118	15986.25
511.891	15487.25
512.664	15015.25
513.437	14452.25
514.209	13855.25
514.982	13246.25
515.754	12682.25
516.526	12107.25
517.298	11534.25
518.071	11047.25
518.843	10550.25
519.615	10043.25
520.387	9664.25
521.159	9293.25
521.93	8917.25
522.702	8570.25
523.474	8262.25
524.245	7938.25
525.017	7617.25
525.788	7262.25
526.56	7014.25
527.331	6728.25
528.102	6405.25
528.873	6099.25
529.644	5820.25
530.415	5541.25
531.186	5275.25
531.957	4997.25
532.728	4744.25
533.498	4496.25
534.269	4235.25
535.039	4009.25
535.81	3774.25
536.58	3569.25
537.351	3364.25
538.121	3200.25
538.891	2988.25
539.661	2834.25
540.431	2664.25
541.201	2515.25
541.971	2408.25
542.741	2278.25
543.51	2163.25
544.28	2054.25
545.05	1954.25
545.819	1856.25
546.588	1761.25
547.358	1660.25
548.127	1580.25
548.896	1499.25
549.665	1434.25
550.434	1360.25
551.203	1281.25
551.972	1219.25
552.741	1166.25
553.51	1104.25
554.278	1038.25
555.047	971.25
555.815	919.25
556.584	869.25
557.352	821.25
558.121	771.25
558.889	731.25
559.657	676.25
560.425	645.25
561.193	608.25
561.961	576.25
562.729	538.25
563.496	509.25
564.264	469.25
565.032	452.25
565.799	429.25
566.567	401.25
567.334	375.25
568.101	363.25
568.869	337.25
569.636	318.25
570.403	307.25
571.17	285.25
571.937	274.25
572.704	257.25
573.471	245.25
574.237	227.25
575.004	209.25
575.771	199.25
576.537	193.25
577.303	176.25
578.07	167.25
578.836	159.25
579.602	146.25
580.368	140.25
581.134	129.25
581.9	125.25
582.666	120.25
583.432	112.25
584.198	109.25
584.964	102.25
585.729	99.25
586.495	90.25
587.26	84.25
588.025	77.25
588.791	78.25
589.556	68.25
590.321	69.25
591.086	69.25
591.851	59.25
592.616	62.25
593.381	56.25
594.146	55.25
594.911	50.25
595.675	46.25
596.44	45.25
597.204	44.25
597.969	45.25
598.733	39.25
599.497	35.25
600.261	35.25
601.025	29.25
601.79	33.25
602.553	33.25
603.317	31.25
604.081	26.25
604.845	27.25
605.609	28.25
606.372	22.25
607.136	24.25
607.899	22.25
608.662	21.25
609.426	19.25
610.189	18.25
610.952	18.25
611.715	18.25
612.478	17.25
613.241	19.25
614.004	16.25
614.767	15.25
615.529	14.25
616.292	17.25
617.055	14.25
617.817	16.25
618.579	13.25
619.342	14.25
620.104	13.25
620.866	12.25
621.628	13.25
622.39	12.25
623.152	11.25
623.914	10.25
624.676	9.25
625.438	10.25
626.199	10.25
626.961	9.25
627.722	10.25
628.484	9.25
629.245	9.25
630.006	8.25
630.768	7.25
631.529	8.25
632.29	7.25
633.051	7.25
633.812	6.25
634.573	6.25
635.333	8.25
636.094	8.25
636.855	9.25
637.615	5.25
638.376	7.25
639.136	5.25
639.896	6.25
640.657	4.25
641.417	7.25
642.177	3.25
642.937	4.25
643.697	4.25
644.457	6.25
645.216	3.25
645.976	2.25
646.736	4.25
647.495	3.25
648.255	4.25
649.014	6.25
649.774	2.25
650.533	5.25
651.292	5.25
652.051	4.25
652.81	3.25
653.569	4.25
654.328	3.25
655.087	4.25
655.846	5.25
656.604	2.25
657.363	4.25
658.121	1.25
658.88	5.25
659.638	4.25
660.397	2.25
661.155	4.25
661.913	3.25
662.671	2.25
663.429	3.25
664.187	2.25
664.945	3.25
665.703	1.25
666.46	5.25
667.218	3.25
667.976	4.25
668.733	3.25
669.49	3.25
670.248	2.25
671.005	1.25
671.762	2.25
672.519	1.25
673.276	3.25
674.033	1.25
674.79	2.25
675.547	1.25
676.304	1.25
677.06	3.25
677.817	1.25
678.574	3.25
679.33	2.25
680.086	2.25
680.843	1.25
681.599	2.25
682.355	1.25
683.111	0.25
683.867	4.25
684.623	2.25
685.379	3.25
686.135	1.25
686.89	1.25
687.646	2.25
688.402	4.25
689.157	2.25
689.912	2.25
690.668	3.25
691.423	3.25
692.178	4.25
692.933	2.25
693.688	1.25
694.443	0.25
695.198	1.25
695.953	1.25
696.708	1.25
697.462	2.25
698.217	2.25
698.972	5.25
699.726	2.25
700.48	3.25
701.235	1.25
701.989	2.25
702.743	2.25
703.497	4.25
704.251	4.25
705.005	3.25
705.759	2.25
706.513	1.25
707.266	3.25
708.02	0.25
708.774	2.25
709.527	3.25
710.28	2.25
711.034	1.25
711.787	2.25
712.54	2.25
713.293	1.25
714.046	2.25
714.799	-1.75
715.552	1.25
716.305	3.25
717.058	2.25
717.81	1.25
718.563	3.25
719.315	3.25
720.068	2.25
720.82	2.25
721.573	5.25
722.325	2.25
723.077	0.25
723.829	-0.75
724.581	3.25
725.333	2.25
726.085	1.25
726.836	5.25
727.588	0.25
728.34	4.25
729.091	4.25
729.843	3.25
730.594	1.25
731.346	2.25
732.097	2.25
732.848	2.25
733.599	3.25
734.35	2.25
735.101	0.25
735.852	1.25
736.603	0.25
737.354	2.25
738.104	3.25
738.855	3.25
739.605	4.25
740.356	3.25
741.106	3.25
741.856	1.25
742.607	3.25
743.357	4.25
744.107	2.25
744.857	3.25
745.607	1.25
746.357	3.25
747.106	3.25
747.856	3.25
748.606	3.25
749.355	1.25
750.105	3.25
750.854	4.25
751.603	5.25
752.353	1.25
753.102	2.25
753.851	1.25
754.6	2.25
755.349	5.25
756.098	3.25
756.847	4.25
757.595	2.25
758.344	2.25
759.093	5.25
759.841	5.25
760.589	5.25
761.338	3.25
762.086	5.25
762.834	2.25
763.582	5.25
764.331	3.25
765.079	2.25
765.826	3.25
766.574	4.25
767.322	5.25
768.07	4.25
768.817	4.25
769.565	4.25
770.312	4.25
771.06	2.25
771.807	4.25
772.554	5.25
773.302	6.25
774.049	6.25
774.796	6.25
775.543	6.25
776.29	6.25
777.036	3.25
777.783	4.25
778.53	2.25
779.276	5.25
780.023	3.25
780.769	4.25
781.516	6.25
782.262	4.25
783.008	6.25
783.754	6.25
784.5	7.25
785.246	5.25
785.992	6.25
786.738	7.25
787.484	5.25
788.23	4.25
788.975	6.25
789.721	5.25
790.466	7.25
791.212	4.25
791.957	5.25
792.702	6.25
793.447	5.25
794.193	3.25
794.938	5.25
795.683	4.25
796.427	5.25
797.172	6.25
797.917	5.25
798.662	5.25
799.406	6.25
800.151	4.25
800.895	4.25
801.64	3.25
802.384	5.25
803.128	4.25
803.872	3.25
804.616	5.25
805.36	5.25
806.104	3.25
806.848	3.25
807.592	2.25
808.336	1.25
809.079	4.25
809.823	3.25
810.566	5.25
811.31	2.25
812.053	3.25
812.796	4.25
813.539	3.25
814.283	4.25
815.026	5.25
815.769	4.25
816.511	2.25
817.254	4.25
817.997	4.25
818.74	1.25
819.482	2.25
820.225	4.25
820.967	5.25
821.71	2.25
822.452	1.25
823.194	4.25
823.936	1.25
824.678	3.25
825.42	3.25
826.162	3.25
826.904	2.25
827.646	2.25
828.388	4.25
829.129	2.25
829.871	2.25
830.612	3.25
831.354	1.25
832.095	2.25
832.836	1.25
833.577	2.25
834.319	3.25
835.06	3.25
835.801	1.25
836.542	2.25
837.282	3.25
838.023	1.25
838.764	0.25
839.504	3.25
840.245	2.25
840.985	1.25
841.726	0.25
842.466	1.25
843.206	2.25
843.946	3.25
844.687	2.25
845.427	2.25
846.166	3.25
846.906	1.25
847.646	1.25
848.386	2.25
849.125	3.25
849.865	2.25
850.605	3.25
851.344	2.25
852.083	0.25
852.823	2.25
853.562	1.25
854.301	4.25
855.04	2.25
855.779	4.25
856.518	0.25
857.257	3.25
857.995	1.25
858.734	2.25
859.473	1.25
860.211	2.25
860.95	0.25
861.688	1.25
862.426	1.25
863.165	0.25
863.903	0.25
864.641	1.25
865.379	1.25
866.117	0.25
866.855	0.25
867.593	-0.75
868.33	1.25
869.068	1.25
869.806	2.25
870.543	-0.75
871.28	2.25
872.018	3.25
872.755	-1.75
873.492	1.25
874.229	0.25
874.967	1.25
875.703	-1.75
876.44	2.25
877.177	1.25
877.914	1.25
878.651	3.25
879.387	0.25
880.124	0.25
880.86	0.25
881.597	1.25
882.333	0.25
883.069	0.25
883.806	1.25
884.542	0.25
885.278	1.25
886.014	1.25
886.749	0.25
887.485	0.25
888.221	-1.75
888.957	0.25
889.692	0.25
890.428	3.25
891.163	0.25
891.899	1.25
892.634	1.25
893.369	-1.75
894.104	2.25
894.839	1.25
895.574	2.25
896.309	1.25
897.044	2.25
897.779	2.25
898.514	1.25
899.248	1.25
899.983	-0.75
900.717	1.25
901.452	0.25
902.186	0.25
902.92	0.25
903.654	-1.75
904.389	-0.75
905.123	-0.75
905.857	-2.75
906.59	0.25
907.324	2.25
908.058	2.25
908.792	-0.75
909.525	2.25
910.259	-0.75
910.992	-2.75
911.726	0.25
912.459	-1.75
913.192	-0.75
913.925	2.25
914.658	0.25
915.391	-0.75
916.124	0.25
916.857	1.25
917.59	0.25
918.323	1.25
919.055	0.25
919.788	-0.75
920.521	0.25
921.253	-0.75
921.985	1.25
922.718	-0.75
923.45	1.25
924.182	-0.75
924.914	0.25
925.646	1.25
926.378	0.25
927.11	1.25
927.841	1.25
928.573	0.25
929.305	-0.75
930.036	0.25
930.768	2.25
931.499	1.25
932.23	1.25
932.962	-0.75
933.693	2.25
934.424	-1.75
935.155	1.25
935.886	0.25
936.617	0.25
937.348	-1.75
938.078	0.25
938.809	1.25
939.54	0.25
940.27	0.25
941.001	-0.75
941.731	-1.75
942.461	2.25
943.191	0.25
943.922	3.25
944.652	1.25
945.382	1.25
946.112	-0.75
946.841	-2.75
947.571	2.25
948.301	3.25
949.031	3.25
949.76	1.25
950.49	-0.75
951.219	1.25
951.948	-0.75
952.678	2.25
953.407	-0.75
954.136	0.25
954.865	-0.75
955.594	-0.75
956.323	1.25
957.052	-1.75
957.78	-0.75
958.509	0.25
959.238	-0.75
959.966	-1.75
960.695	0.25
961.423	2.25
962.151	-0.75
962.88	0.25
963.608	0.25
964.336	-0.75
965.064	2.25
965.792	0.25
966.52	1.25
967.247	-0.75
967.975	0.25
968.703	1.25
969.43	-1.75
970.158	-1.75
970.885	-0.75
971.613	0.25
972.34	-1.75
973.067	2.25
973.794	0.25
974.521	-0.75
975.248	2.25
975.975	1.25
976.702	1.25
977.429	2.25
978.156	-1.75
978.882	2.25
979.609	0.25
980.335	-0.75
981.062	1.25
981.788	0.25
982.514	1.25
983.24	1.25
983.967	1.25
984.693	0.25
985.419	-0.75
986.144	0.25
986.87	1.25
987.596	0.25
988.322	1.25
989.047	1.25
989.773	-2.75
990.498	0.25
991.224	-1.75
991.949	2.25
992.674	-0.75
993.399	-0.75
994.124	0.25
994.849	1.25
995.574	2.25
996.299	0.25
997.024	0.25
997.749	-0.75
998.473	-0.75
999.198	1.25
999.922	1.25
1000.647	1.25
1001.371	2.25
1002.095	-1.75
1002.82	-1.75
1003.544	1.25
1004.268	0.25
1004.992	-0.75
1005.716	0.25
1006.439	0.25
1007.163	0.25
1007.887	-0.75
1008.611	0.25
1009.334	1.25
1010.058	2.25
1010.781	0.25
1011.504	-1.75
1012.228	0.25
1012.951	0.25
1013.674	1.25
1014.397	-0.75
1015.12	-0.75
