节点500_145_QEPB04081__477__11-36-33-528.txt的数据

Date: Wed Nov 12 11:36:33 CST 2025
User: PC
Spectrometer: QEPB0408
触发模式: 0
积分时间 (秒): 1.000000E-2
Scans to average: 1
启用暗噪声校正: true
启用非线性校正: false
滑动平均宽度: 0
X轴模式: Wavelengths
Number of Pixels in Spectrum: 1044
>>>>>Begin Spectral Data<<<<<
220.843	-0.88
221.644	0.12
222.444	2.12
223.244	1.12
224.045	0.12
224.845	2.12
225.645	-1.88
226.445	1.12
227.245	1.12
228.045	0.12
228.845	2.12
229.645	-1.88
230.444	-0.88
231.244	0.12
232.043	1.12
232.843	1.12
233.642	0.12
234.442	2.12
235.241	3.12
236.04	0.12
236.839	1.12
237.638	2.12
238.437	1.12
239.236	-1.88
240.035	0.12
240.833	1.12
241.632	1.12
242.43	3.12
243.229	3.12
244.027	2.12
244.826	-0.88
245.624	3.12
246.422	0.12
247.22	2.12
248.018	0.12
248.816	3.12
249.614	1.12
250.412	3.12
251.21	4.12
252.007	0.12
252.805	1.12
253.602	2.12
254.4	2.12
255.197	4.12
255.994	0.12
256.791	2.12
257.589	3.12
258.386	5.12
259.183	5.12
259.979	6.12
260.776	4.12
261.573	4.12
262.37	5.12
263.166	5.12
263.963	5.12
264.759	6.12
265.556	6.12
266.352	5.12
267.148	3.12
267.944	6.12
268.74	5.12
269.536	5.12
270.332	7.12
271.128	8.12
271.924	7.12
272.719	7.12
273.515	7.12
274.311	7.12
275.106	10.12
275.901	10.12
276.697	9.12
277.492	8.12
278.287	8.12
279.082	5.12
279.877	6.12
280.672	11.12
281.467	10.12
282.262	9.12
283.056	9.12
283.851	8.12
284.646	10.12
285.44	10.12
286.234	9.12
287.029	9.12
287.823	10.12
288.617	9.12
289.411	10.12
290.205	11.12
290.999	9.12
291.793	8.12
292.587	10.12
293.381	9.12
294.174	9.12
294.968	9.12
295.761	10.12
296.555	7.12
297.348	10.12
298.141	10.12
298.935	8.12
299.728	10.12
300.521	10.12
301.314	9.12
302.107	8.12
302.899	6.12
303.692	7.12
304.485	5.12
305.277	7.12
306.07	9.12
306.862	9.12
307.655	8.12
308.447	8.12
309.239	8.12
310.031	7.12
310.823	7.12
311.615	6.12
312.407	4.12
313.199	6.12
313.991	6.12
314.783	7.12
315.574	4.12
316.366	7.12
317.157	5.12
317.949	5.12
318.74	5.12
319.531	5.12
320.322	4.12
321.113	4.12
321.904	2.12
322.695	4.12
323.486	3.12
324.277	2.12
325.068	5.12
325.858	3.12
326.649	2.12
327.439	4.12
328.23	5.12
329.02	3.12
329.81	2.12
330.6	3.12
331.391	1.12
332.181	5.12
332.971	4.12
333.76	4.12
334.55	5.12
335.34	5.12
336.13	5.12
336.919	3.12
337.709	1.12
338.498	2.12
339.287	3.12
340.077	4.12
340.866	4.12
341.655	2.12
342.444	5.12
343.233	4.12
344.022	3.12
344.811	2.12
345.6	5.12
346.388	4.12
347.177	1.12
347.965	4.12
348.754	1.12
349.542	5.12
350.33	2.12
351.119	2.12
351.907	3.12
352.695	1.12
353.483	2.12
354.271	2.12
355.059	4.12
355.846	4.12
356.634	-1.88
357.422	1.12
358.209	4.12
358.997	3.12
359.784	2.12
360.571	5.12
361.359	4.12
362.146	2.12
362.933	2.12
363.72	2.12
364.507	1.12
365.294	3.12
366.081	2.12
366.867	1.12
367.654	3.12
368.44	0.12
369.227	2.12
370.013	3.12
370.8	2.12
371.586	2.12
372.372	3.12
373.158	1.12
373.944	3.12
374.73	2.12
375.516	0.12
376.302	2.12
377.088	3.12
377.873	2.12
378.659	1.12
379.445	2.12
380.23	2.12
381.015	1.12
381.801	5.12
382.586	3.12
383.371	3.12
384.156	4.12
384.941	3.12
385.726	1.12
386.511	3.12
387.296	3.12
388.08	0.12
388.865	2.12
389.649	1.12
390.434	2.12
391.218	2.12
392.003	0.12
392.787	3.12
393.571	3.12
394.355	2.12
395.139	4.12
395.923	6.12
396.707	3.12
397.491	5.12
398.274	2.12
399.058	2.12
399.842	6.12
400.625	4.12
401.408	3.12
402.192	4.12
402.975	5.12
403.758	5.12
404.541	3.12
405.324	4.12
406.107	1.12
406.89	2.12
407.673	4.12
408.456	5.12
409.238	4.12
410.021	3.12
410.803	4.12
411.586	3.12
412.368	2.12
413.151	5.12
413.933	5.12
414.715	4.12
415.497	5.12
416.279	4.12
417.061	5.12
417.843	6.12
418.624	5.12
419.406	4.12
420.188	4.12
420.969	2.12
421.751	5.12
422.532	5.12
423.313	7.12
424.095	5.12
424.876	5.12
425.657	5.12
426.438	6.12
427.219	5.12
428	4.12
428.78	6.12
429.561	6.12
430.342	5.12
431.122	9.12
431.903	6.12
432.683	9.12
433.464	7.12
434.244	10.12
435.024	8.12
435.804	7.12
436.584	9.12
437.364	9.12
438.144	11.12
438.924	11.12
439.704	9.12
440.483	13.12
441.263	10.12
442.042	12.12
442.822	11.12
443.601	15.12
444.38	13.12
445.16	18.12
445.939	14.12
446.718	16.12
447.497	20.12
448.276	16.12
449.054	22.12
449.833	22.12
450.612	27.12
451.391	27.12
452.169	29.12
452.948	32.12
453.726	35.12
454.504	42.12
455.282	40.12
456.061	46.12
456.839	52.12
457.617	55.12
458.395	65.12
459.172	70.12
459.95	75.12
460.728	84.12
461.506	98.12
462.283	109.12
463.061	123.12
463.838	133.12
464.615	145.12
465.393	165.12
466.17	182.12
466.947	205.12
467.724	224.12
468.501	256.12
469.278	279.12
470.055	323.12
470.831	344.12
471.608	385.12
472.385	420.12
473.161	471.12
473.938	532.12
474.714	582.12
475.49	642.12
476.266	717.12
477.043	784.12
477.819	864.12
478.595	962.12
479.371	1045.12
480.146	1158.12
480.922	1282.12
481.698	1404.12
482.473	1550.12
483.249	1696.12
484.024	1863.12
484.8	2046.12
485.575	2250.12
486.35	2443.12
487.126	2703.12
487.901	2979.12
488.676	3258.12
489.451	3574.12
490.225	3916.12
491	4279.12
491.775	4698.12
492.55	5085.12
493.324	5588.12
494.099	6120.12
494.873	6617.12
495.647	7233.12
496.422	7851.12
497.196	8462.12
497.97	9140.12
498.744	9757.12
499.518	10502.12
500.292	11191.12
501.066	11889.12
501.839	12587.12
502.613	13201.12
503.387	13820.12
504.16	14347.12
504.934	14841.12
505.707	15264.12
506.48	15552.12
507.253	15762.12
508.027	15871.12
508.8	15958.12
509.573	15834.12
510.346	15684.12
511.118	15373.12
511.891	15050.12
512.664	14687.12
513.437	14298.12
514.209	13791.12
514.982	13274.12
515.754	12743.12
516.526	12270.12
517.298	11701.12
518.071	11201.12
518.843	10705.12
519.615	10308.12
520.387	9883.12
521.159	9466.12
521.93	9107.12
522.702	8748.12
523.474	8382.12
524.245	8038.12
525.017	7773.12
525.788	7432.12
526.56	7146.12
527.331	6847.12
528.102	6578.12
528.873	6279.12
529.644	6015.12
530.415	5736.12
531.186	5453.12
531.957	5198.12
532.728	4950.12
533.498	4708.12
534.269	4422.12
535.039	4213.12
535.81	3987.12
536.58	3770.12
537.351	3539.12
538.121	3365.12
538.891	3193.12
539.661	2988.12
540.431	2832.12
541.201	2686.12
541.971	2557.12
542.741	2412.12
543.51	2299.12
544.28	2167.12
545.05	2046.12
545.819	1954.12
546.588	1861.12
547.358	1762.12
548.127	1674.12
548.896	1586.12
549.665	1509.12
550.434	1445.12
551.203	1370.12
551.972	1296.12
552.741	1229.12
553.51	1166.12
554.278	1099.12
555.047	1045.12
555.815	978.12
556.584	941.12
557.352	875.12
558.121	830.12
558.889	770.12
559.657	749.12
560.425	688.12
561.193	653.12
561.961	618.12
562.729	583.12
563.496	545.12
564.264	525.12
565.032	496.12
565.799	463.12
566.567	437.12
567.334	417.12
568.101	389.12
568.869	363.12
569.636	352.12
570.403	321.12
571.17	313.12
571.937	292.12
572.704	274.12
573.471	265.12
574.237	240.12
575.004	229.12
575.771	217.12
576.537	204.12
577.303	194.12
578.07	179.12
578.836	161.12
579.602	166.12
580.368	146.12
581.134	140.12
581.9	133.12
582.666	129.12
583.432	122.12
584.198	116.12
584.964	111.12
585.729	100.12
586.495	96.12
587.26	93.12
588.025	86.12
588.791	82.12
589.556	77.12
590.321	74.12
591.086	71.12
591.851	62.12
592.616	62.12
593.381	59.12
594.146	58.12
594.911	51.12
595.675	53.12
596.44	45.12
597.204	45.12
597.969	43.12
598.733	39.12
599.497	43.12
600.261	37.12
601.025	39.12
601.79	32.12
602.553	34.12
603.317	34.12
604.081	32.12
604.845	32.12
605.609	27.12
606.372	25.12
607.136	26.12
607.899	20.12
608.662	21.12
609.426	22.12
610.189	19.12
610.952	19.12
611.715	20.12
612.478	20.12
613.241	17.12
614.004	17.12
614.767	17.12
615.529	16.12
616.292	16.12
617.055	14.12
617.817	13.12
618.579	11.12
619.342	13.12
620.104	12.12
620.866	13.12
621.628	12.12
622.39	13.12
623.152	10.12
623.914	11.12
624.676	10.12
625.438	8.12
626.199	10.12
626.961	10.12
627.722	9.12
628.484	7.12
629.245	6.12
630.006	9.12
630.768	7.12
631.529	7.12
632.29	7.12
633.051	8.12
633.812	6.12
634.573	4.12
635.333	7.12
636.094	6.12
636.855	7.12
637.615	6.12
638.376	7.12
639.136	5.12
639.896	5.12
640.657	7.12
641.417	1.12
642.177	5.12
642.937	3.12
643.697	5.12
644.457	5.12
645.216	4.12
645.976	3.12
646.736	6.12
647.495	3.12
648.255	5.12
649.014	4.12
649.774	4.12
650.533	3.12
651.292	2.12
652.051	4.12
652.81	3.12
653.569	2.12
654.328	5.12
655.087	2.12
655.846	3.12
656.604	4.12
657.363	2.12
658.121	3.12
658.88	3.12
659.638	4.12
660.397	2.12
661.155	2.12
661.913	5.12
662.671	2.12
663.429	3.12
664.187	6.12
664.945	2.12
665.703	4.12
666.46	2.12
667.218	4.12
667.976	1.12
668.733	3.12
669.49	-0.88
670.248	2.12
671.005	2.12
671.762	2.12
672.519	3.12
673.276	5.12
674.033	3.12
674.79	2.12
675.547	2.12
676.304	2.12
677.06	2.12
677.817	3.12
678.574	2.12
679.33	4.12
680.086	3.12
680.843	1.12
681.599	2.12
682.355	1.12
683.111	3.12
683.867	0.12
684.623	1.12
685.379	1.12
686.135	0.12
686.89	1.12
687.646	1.12
688.402	3.12
689.157	1.12
689.912	1.12
690.668	0.12
691.423	1.12
692.178	1.12
692.933	1.12
693.688	2.12
694.443	2.12
695.198	2.12
695.953	2.12
696.708	1.12
697.462	0.12
698.217	1.12
698.972	3.12
699.726	1.12
700.48	1.12
701.235	3.12
701.989	2.12
702.743	1.12
703.497	1.12
704.251	2.12
705.005	1.12
705.759	1.12
706.513	2.12
707.266	2.12
708.02	3.12
708.774	1.12
709.527	2.12
710.28	0.12
711.034	0.12
711.787	3.12
712.54	2.12
713.293	5.12
714.046	2.12
714.799	3.12
715.552	1.12
716.305	2.12
717.058	3.12
717.81	1.12
718.563	2.12
719.315	2.12
720.068	5.12
720.82	5.12
721.573	2.12
722.325	3.12
723.077	1.12
723.829	2.12
724.581	1.12
725.333	3.12
726.085	3.12
726.836	1.12
727.588	3.12
728.34	3.12
729.091	3.12
729.843	2.12
730.594	0.12
731.346	0.12
732.097	-0.88
732.848	0.12
733.599	3.12
734.35	2.12
735.101	4.12
735.852	4.12
736.603	1.12
737.354	2.12
738.104	3.12
738.855	2.12
739.605	1.12
740.356	1.12
741.106	1.12
741.856	1.12
742.607	-0.88
743.357	1.12
744.107	3.12
744.857	2.12
745.607	2.12
746.357	2.12
747.106	2.12
747.856	4.12
748.606	2.12
749.355	2.12
750.105	2.12
750.854	3.12
751.603	-1.88
752.353	2.12
753.102	3.12
753.851	5.12
754.6	4.12
755.349	4.12
756.098	2.12
756.847	2.12
757.595	4.12
758.344	3.12
759.093	3.12
759.841	2.12
760.589	2.12
761.338	4.12
762.086	2.12
762.834	2.12
763.582	4.12
764.331	1.12
765.079	3.12
765.826	5.12
766.574	2.12
767.322	1.12
768.07	3.12
768.817	2.12
769.565	4.12
770.312	4.12
771.06	4.12
771.807	3.12
772.554	3.12
773.302	3.12
774.049	4.12
774.796	4.12
775.543	1.12
776.29	2.12
777.036	4.12
777.783	4.12
778.53	6.12
779.276	4.12
780.023	5.12
780.769	6.12
781.516	4.12
782.262	7.12
783.008	5.12
783.754	6.12
784.5	5.12
785.246	5.12
785.992	4.12
786.738	5.12
787.484	6.12
788.23	4.12
788.975	4.12
789.721	3.12
790.466	5.12
791.212	5.12
791.957	3.12
792.702	3.12
793.447	3.12
794.193	5.12
794.938	5.12
795.683	4.12
796.427	3.12
797.172	5.12
797.917	2.12
798.662	2.12
799.406	4.12
800.151	4.12
800.895	4.12
801.64	4.12
802.384	4.12
803.128	2.12
803.872	2.12
804.616	5.12
805.36	3.12
806.104	4.12
806.848	3.12
807.592	2.12
808.336	4.12
809.079	3.12
809.823	4.12
810.566	5.12
811.31	4.12
812.053	4.12
812.796	2.12
813.539	5.12
814.283	1.12
815.026	5.12
815.769	3.12
816.511	3.12
817.254	2.12
817.997	3.12
818.74	1.12
819.482	4.12
820.225	2.12
820.967	2.12
821.71	3.12
822.452	4.12
823.194	1.12
823.936	4.12
824.678	2.12
825.42	3.12
826.162	2.12
826.904	5.12
827.646	3.12
828.388	1.12
829.129	3.12
829.871	0.12
830.612	3.12
831.354	1.12
832.095	3.12
832.836	3.12
833.577	1.12
834.319	2.12
835.06	2.12
835.801	3.12
836.542	2.12
837.282	3.12
838.023	2.12
838.764	2.12
839.504	2.12
840.245	4.12
840.985	5.12
841.726	3.12
842.466	3.12
843.206	2.12
843.946	1.12
844.687	2.12
845.427	2.12
846.166	3.12
846.906	2.12
847.646	1.12
848.386	3.12
849.125	1.12
849.865	2.12
850.605	1.12
851.344	2.12
852.083	3.12
852.823	2.12
853.562	2.12
854.301	0.12
855.04	1.12
855.779	1.12
856.518	2.12
857.257	1.12
857.995	1.12
858.734	1.12
859.473	2.12
860.211	2.12
860.95	0.12
861.688	3.12
862.426	3.12
863.165	1.12
863.903	2.12
864.641	1.12
865.379	2.12
866.117	2.12
866.855	1.12
867.593	1.12
868.33	0.12
869.068	2.12
869.806	-0.88
870.543	1.12
871.28	1.12
872.018	1.12
872.755	1.12
873.492	0.12
874.229	1.12
874.967	-0.88
875.703	2.12
876.44	0.12
877.177	2.12
877.914	1.12
878.651	2.12
879.387	1.12
880.124	1.12
880.86	2.12
881.597	1.12
882.333	0.12
883.069	1.12
883.806	-0.88
884.542	-0.88
885.278	1.12
886.014	1.12
886.749	-0.88
887.485	0.12
888.221	1.12
888.957	1.12
889.692	-1.88
890.428	2.12
891.163	1.12
891.899	-1.88
892.634	2.12
893.369	-0.88
894.104	2.12
894.839	1.12
895.574	-0.88
896.309	1.12
897.044	0.12
897.779	2.12
898.514	0.12
899.248	2.12
899.983	0.12
900.717	0.12
901.452	1.12
902.186	0.12
902.92	2.12
903.654	1.12
904.389	-1.88
905.123	1.12
905.857	-0.88
906.59	2.12
907.324	-1.88
908.058	-1.88
908.792	-0.88
909.525	1.12
910.259	0.12
910.992	-2.88
911.726	0.12
912.459	0.12
913.192	2.12
913.925	0.12
914.658	1.12
915.391	0.12
916.124	0.12
916.857	1.12
917.59	-1.88
918.323	1.12
919.055	3.12
919.788	1.12
920.521	0.12
921.253	-2.88
921.985	2.12
922.718	0.12
923.45	1.12
924.182	-0.88
924.914	-0.88
925.646	1.12
926.378	0.12
927.11	-1.88
927.841	1.12
928.573	-0.88
929.305	-0.88
930.036	-1.88
930.768	0.12
931.499	-1.88
932.23	0.12
932.962	0.12
933.693	2.12
934.424	0.12
935.155	0.12
935.886	-0.88
936.617	-0.88
937.348	-1.88
938.078	-1.88
938.809	-1.88
939.54	-1.88
940.27	-1.88
941.001	-1.88
941.731	2.12
942.461	-1.88
943.191	1.12
943.922	-0.88
944.652	-0.88
945.382	-2.88
946.112	0.12
946.841	-0.88
947.571	1.12
948.301	-0.88
949.031	0.12
949.76	-1.88
950.49	-1.88
951.219	1.12
951.948	-0.88
952.678	-1.88
953.407	1.12
954.136	0.12
954.865	0.12
955.594	0.12
956.323	0.12
957.052	0.12
957.78	-0.88
958.509	0.12
959.238	0.12
959.966	0.12
960.695	0.12
961.423	-0.88
962.151	0.12
962.88	-1.88
963.608	2.12
964.336	-0.88
965.064	-0.88
965.792	2.12
966.52	-0.88
967.247	-0.88
967.975	1.12
968.703	-1.88
969.43	1.12
970.158	0.12
970.885	-0.88
971.613	0.12
972.34	0.12
973.067	-1.88
973.794	3.12
974.521	1.12
975.248	0.12
975.975	2.12
976.702	0.12
977.429	1.12
978.156	0.12
978.882	1.12
979.609	-1.88
980.335	2.12
981.062	2.12
981.788	-1.88
982.514	2.12
983.24	-0.88
983.967	-1.88
984.693	1.12
985.419	0.12
986.144	-0.88
986.87	1.12
987.596	0.12
988.322	0.12
989.047	1.12
989.773	1.12
990.498	0.12
991.224	-1.88
991.949	-0.88
992.674	0.12
993.399	0.12
994.124	-0.88
994.849	-2.88
995.574	2.12
996.299	2.12
997.024	0.12
997.749	0.12
998.473	0.12
999.198	1.12
999.922	1.12
1000.647	2.12
1001.371	2.12
1002.095	-0.88
1002.82	-0.88
1003.544	-2.88
1004.268	0.12
1004.992	-1.88
1005.716	0.12
1006.439	-0.88
1007.163	0.12
1007.887	-0.88
1008.611	0.12
1009.334	1.12
1010.058	1.12
1010.781	1.12
1011.504	0.12
1012.228	-0.88
1012.951	1.12
1013.674	1.12
1014.397	-0.88
1015.12	1.12
