节点500_145_QEPB04081__672__11-39-37-925.txt的数据

Date: Wed Nov 12 11:39:37 CST 2025
User: PC
Spectrometer: QEPB0408
触发模式: 0
积分时间 (秒): 1.000000E-2
Scans to average: 1
启用暗噪声校正: true
启用非线性校正: false
滑动平均宽度: 0
X轴模式: Wavelengths
Number of Pixels in Spectrum: 1044
>>>>>Begin Spectral Data<<<<<
220.843	1.62
221.644	-1.38
222.444	-2.38
223.244	0.62
224.045	0.62
224.845	1.62
225.645	0.62
226.445	2.62
227.245	-1.38
228.045	0.62
228.845	-0.38
229.645	1.62
230.444	0.62
231.244	0.62
232.043	2.62
232.843	0.62
233.642	-0.38
234.442	1.62
235.241	1.62
236.04	1.62
236.839	1.62
237.638	0.62
238.437	0.62
239.236	0.62
240.035	1.62
240.833	0.62
241.632	0.62
242.43	0.62
243.229	1.62
244.027	-0.38
244.826	2.62
245.624	1.62
246.422	5.62
247.22	-0.38
248.018	-0.38
248.816	3.62
249.614	1.62
250.412	1.62
251.21	1.62
252.007	3.62
252.805	2.62
253.602	5.62
254.4	1.62
255.197	2.62
255.994	6.62
256.791	3.62
257.589	3.62
258.386	4.62
259.183	4.62
259.979	5.62
260.776	3.62
261.573	2.62
262.37	2.62
263.166	3.62
263.963	4.62
264.759	5.62
265.556	3.62
266.352	3.62
267.148	5.62
267.944	5.62
268.74	5.62
269.536	6.62
270.332	6.62
271.128	6.62
271.924	6.62
272.719	7.62
273.515	5.62
274.311	8.62
275.106	7.62
275.901	6.62
276.697	10.62
277.492	8.62
278.287	8.62
279.082	8.62
279.877	8.62
280.672	9.62
281.467	8.62
282.262	8.62
283.056	7.62
283.851	10.62
284.646	8.62
285.44	10.62
286.234	10.62
287.029	11.62
287.823	8.62
288.617	8.62
289.411	8.62
290.205	8.62
290.999	9.62
291.793	8.62
292.587	9.62
293.381	10.62
294.174	9.62
294.968	8.62
295.761	10.62
296.555	9.62
297.348	10.62
298.141	6.62
298.935	8.62
299.728	7.62
300.521	10.62
301.314	8.62
302.107	8.62
302.899	9.62
303.692	6.62
304.485	7.62
305.277	7.62
306.07	9.62
306.862	7.62
307.655	7.62
308.447	8.62
309.239	6.62
310.031	8.62
310.823	7.62
311.615	6.62
312.407	6.62
313.199	5.62
313.991	5.62
314.783	4.62
315.574	5.62
316.366	5.62
317.157	5.62
317.949	5.62
318.74	3.62
319.531	5.62
320.322	3.62
321.113	4.62
321.904	5.62
322.695	5.62
323.486	2.62
324.277	3.62
325.068	6.62
325.858	5.62
326.649	5.62
327.439	1.62
328.23	2.62
329.02	6.62
329.81	4.62
330.6	4.62
331.391	3.62
332.181	4.62
332.971	4.62
333.76	3.62
334.55	3.62
335.34	3.62
336.13	2.62
336.919	3.62
337.709	2.62
338.498	5.62
339.287	3.62
340.077	4.62
340.866	3.62
341.655	3.62
342.444	3.62
343.233	3.62
344.022	3.62
344.811	3.62
345.6	5.62
346.388	2.62
347.177	4.62
347.965	1.62
348.754	2.62
349.542	4.62
350.33	3.62
351.119	5.62
351.907	2.62
352.695	5.62
353.483	3.62
354.271	3.62
355.059	1.62
355.846	2.62
356.634	1.62
357.422	1.62
358.209	1.62
358.997	3.62
359.784	2.62
360.571	2.62
361.359	2.62
362.146	2.62
362.933	2.62
363.72	0.62
364.507	3.62
365.294	3.62
366.081	1.62
366.867	2.62
367.654	2.62
368.44	2.62
369.227	4.62
370.013	2.62
370.8	1.62
371.586	2.62
372.372	3.62
373.158	0.62
373.944	1.62
374.73	2.62
375.516	2.62
376.302	2.62
377.088	2.62
377.873	0.62
378.659	2.62
379.445	1.62
380.23	1.62
381.015	3.62
381.801	1.62
382.586	2.62
383.371	2.62
384.156	1.62
384.941	3.62
385.726	3.62
386.511	1.62
387.296	2.62
388.08	2.62
388.865	2.62
389.649	2.62
390.434	1.62
391.218	1.62
392.003	2.62
392.787	5.62
393.571	2.62
394.355	2.62
395.139	4.62
395.923	2.62
396.707	4.62
397.491	1.62
398.274	3.62
399.058	6.62
399.842	2.62
400.625	2.62
401.408	2.62
402.192	5.62
402.975	3.62
403.758	3.62
404.541	3.62
405.324	3.62
406.107	3.62
406.89	1.62
407.673	3.62
408.456	3.62
409.238	4.62
410.021	4.62
410.803	5.62
411.586	4.62
412.368	5.62
413.151	4.62
413.933	4.62
414.715	5.62
415.497	4.62
416.279	3.62
417.061	3.62
417.843	3.62
418.624	3.62
419.406	4.62
420.188	4.62
420.969	6.62
421.751	4.62
422.532	7.62
423.313	5.62
424.095	5.62
424.876	7.62
425.657	6.62
426.438	5.62
427.219	6.62
428	5.62
428.78	4.62
429.561	5.62
430.342	8.62
431.122	6.62
431.903	5.62
432.683	5.62
433.464	8.62
434.244	7.62
435.024	7.62
435.804	9.62
436.584	8.62
437.364	9.62
438.144	10.62
438.924	10.62
439.704	9.62
440.483	12.62
441.263	12.62
442.042	15.62
442.822	12.62
443.601	11.62
444.38	16.62
445.16	17.62
445.939	18.62
446.718	17.62
447.497	20.62
448.276	20.62
449.054	22.62
449.833	25.62
450.612	26.62
451.391	28.62
452.169	30.62
452.948	35.62
453.726	40.62
454.504	41.62
455.282	48.62
456.061	51.62
456.839	57.62
457.617	59.62
458.395	72.62
459.172	74.62
459.95	81.62
460.728	92.62
461.506	102.62
462.283	118.62
463.061	126.62
463.838	142.62
464.615	153.62
465.393	173.62
466.17	196.62
466.947	218.62
467.724	233.62
468.501	261.62
469.278	293.62
470.055	324.62
470.831	354.62
471.608	407.62
472.385	441.62
473.161	497.62
473.938	544.62
474.714	597.62
475.49	662.62
476.266	722.62
477.043	793.62
477.819	879.62
478.595	967.62
479.371	1049.62
480.146	1152.62
480.922	1267.62
481.698	1407.62
482.473	1524.62
483.249	1662.62
484.024	1839.62
484.8	1994.62
485.575	2153.62
486.35	2390.62
487.126	2597.62
487.901	2872.62
488.676	3105.62
489.451	3395.62
490.225	3687.62
491	4035.62
491.775	4389.62
492.55	4783.62
493.324	5170.62
494.099	5643.62
494.873	6124.62
495.647	6643.62
496.422	7201.62
497.196	7766.62
497.97	8328.62
498.744	8965.62
499.518	9602.62
500.292	10267.62
501.066	10921.62
501.839	11463.62
502.613	12071.62
503.387	12680.62
504.16	13191.62
504.934	13687.62
505.707	14152.62
506.48	14403.62
507.253	14752.62
508.027	14910.62
508.8	15053.62
509.573	15010.62
510.346	14978.62
511.118	14821.62
511.891	14574.62
512.664	14216.62
513.437	13893.62
514.209	13518.62
514.982	13090.62
515.754	12640.62
516.526	12154.62
517.298	11640.62
518.071	11223.62
518.843	10722.62
519.615	10270.62
520.387	9862.62
521.159	9451.62
521.93	9108.62
522.702	8760.62
523.474	8411.62
524.245	8102.62
525.017	7738.62
525.788	7462.62
526.56	7160.62
527.331	6826.62
528.102	6573.62
528.873	6320.62
529.644	6042.62
530.415	5801.62
531.186	5514.62
531.957	5274.62
532.728	5037.62
533.498	4773.62
534.269	4521.62
535.039	4294.62
535.81	4057.62
536.58	3853.62
537.351	3639.62
538.121	3432.62
538.891	3252.62
539.661	3069.62
540.431	2902.62
541.201	2758.62
541.971	2619.62
542.741	2472.62
543.51	2359.62
544.28	2234.62
545.05	2124.62
545.819	2006.62
546.588	1896.62
547.358	1806.62
548.127	1720.62
548.896	1636.62
549.665	1567.62
550.434	1491.62
551.203	1398.62
551.972	1350.62
552.741	1263.62
553.51	1193.62
554.278	1123.62
555.047	1072.62
555.815	1010.62
556.584	955.62
557.352	921.62
558.121	861.62
558.889	810.62
559.657	771.62
560.425	716.62
561.193	673.62
561.961	652.62
562.729	609.62
563.496	576.62
564.264	546.62
565.032	517.62
565.799	488.62
566.567	455.62
567.334	428.62
568.101	401.62
568.869	381.62
569.636	359.62
570.403	334.62
571.17	317.62
571.937	302.62
572.704	286.62
573.471	266.62
574.237	251.62
575.004	233.62
575.771	221.62
576.537	213.62
577.303	197.62
578.07	189.62
578.836	168.62
579.602	167.62
580.368	160.62
581.134	151.62
581.9	147.62
582.666	140.62
583.432	128.62
584.198	120.62
584.964	113.62
585.729	107.62
586.495	102.62
587.26	91.62
588.025	91.62
588.791	84.62
589.556	83.62
590.321	79.62
591.086	74.62
591.851	67.62
592.616	67.62
593.381	59.62
594.146	60.62
594.911	54.62
595.675	53.62
596.44	52.62
597.204	48.62
597.969	45.62
598.733	46.62
599.497	41.62
600.261	39.62
601.025	37.62
601.79	35.62
602.553	36.62
603.317	29.62
604.081	32.62
604.845	28.62
605.609	27.62
606.372	27.62
607.136	24.62
607.899	24.62
608.662	25.62
609.426	22.62
610.189	21.62
610.952	22.62
611.715	19.62
612.478	20.62
613.241	17.62
614.004	19.62
614.767	16.62
615.529	18.62
616.292	17.62
617.055	14.62
617.817	17.62
618.579	16.62
619.342	15.62
620.104	13.62
620.866	11.62
621.628	11.62
622.39	10.62
623.152	12.62
623.914	11.62
624.676	12.62
625.438	10.62
626.199	10.62
626.961	9.62
627.722	12.62
628.484	7.62
629.245	9.62
630.006	11.62
630.768	7.62
631.529	8.62
632.29	9.62
633.051	6.62
633.812	7.62
634.573	6.62
635.333	6.62
636.094	8.62
636.855	5.62
637.615	5.62
638.376	3.62
639.136	6.62
639.896	5.62
640.657	5.62
641.417	7.62
642.177	5.62
642.937	5.62
643.697	5.62
644.457	3.62
645.216	3.62
645.976	6.62
646.736	4.62
647.495	2.62
648.255	6.62
649.014	3.62
649.774	2.62
650.533	5.62
651.292	6.62
652.051	2.62
652.81	4.62
653.569	3.62
654.328	2.62
655.087	4.62
655.846	3.62
656.604	6.62
657.363	4.62
658.121	0.62
658.88	5.62
659.638	2.62
660.397	2.62
661.155	3.62
661.913	4.62
662.671	4.62
663.429	3.62
664.187	4.62
664.945	-1.38
665.703	4.62
666.46	2.62
667.218	3.62
667.976	2.62
668.733	1.62
669.49	3.62
670.248	2.62
671.005	1.62
671.762	2.62
672.519	0.62
673.276	2.62
674.033	1.62
674.79	2.62
675.547	1.62
676.304	3.62
677.06	5.62
677.817	3.62
678.574	1.62
679.33	0.62
680.086	1.62
680.843	1.62
681.599	1.62
682.355	3.62
683.111	1.62
683.867	4.62
684.623	2.62
685.379	3.62
686.135	2.62
686.89	3.62
687.646	1.62
688.402	1.62
689.157	1.62
689.912	0.62
690.668	1.62
691.423	1.62
692.178	2.62
692.933	3.62
693.688	1.62
694.443	3.62
695.198	1.62
695.953	1.62
696.708	1.62
697.462	1.62
698.217	2.62
698.972	2.62
699.726	4.62
700.48	1.62
701.235	4.62
701.989	1.62
702.743	1.62
703.497	1.62
704.251	2.62
705.005	2.62
705.759	2.62
706.513	4.62
707.266	0.62
708.02	1.62
708.774	3.62
709.527	3.62
710.28	0.62
711.034	1.62
711.787	1.62
712.54	1.62
713.293	1.62
714.046	2.62
714.799	-2.38
715.552	2.62
716.305	0.62
717.058	1.62
717.81	-0.38
718.563	4.62
719.315	2.62
720.068	1.62
720.82	1.62
721.573	1.62
722.325	3.62
723.077	2.62
723.829	0.62
724.581	1.62
725.333	3.62
726.085	0.62
726.836	0.62
727.588	3.62
728.34	1.62
729.091	2.62
729.843	2.62
730.594	1.62
731.346	1.62
732.097	1.62
732.848	2.62
733.599	2.62
734.35	3.62
735.101	2.62
735.852	2.62
736.603	2.62
737.354	1.62
738.104	3.62
738.855	0.62
739.605	2.62
740.356	0.62
741.106	3.62
741.856	3.62
742.607	1.62
743.357	3.62
744.107	1.62
744.857	1.62
745.607	0.62
746.357	-1.38
747.106	4.62
747.856	4.62
748.606	2.62
749.355	1.62
750.105	2.62
750.854	2.62
751.603	1.62
752.353	2.62
753.102	1.62
753.851	2.62
754.6	3.62
755.349	-0.38
756.098	2.62
756.847	0.62
757.595	1.62
758.344	4.62
759.093	2.62
759.841	3.62
760.589	1.62
761.338	3.62
762.086	2.62
762.834	1.62
763.582	3.62
764.331	2.62
765.079	3.62
765.826	4.62
766.574	2.62
767.322	1.62
768.07	6.62
768.817	3.62
769.565	4.62
770.312	4.62
771.06	1.62
771.807	4.62
772.554	5.62
773.302	2.62
774.049	1.62
774.796	2.62
775.543	2.62
776.29	3.62
777.036	3.62
777.783	2.62
778.53	4.62
779.276	4.62
780.023	4.62
780.769	4.62
781.516	2.62
782.262	6.62
783.008	3.62
783.754	4.62
784.5	2.62
785.246	4.62
785.992	2.62
786.738	1.62
787.484	5.62
788.23	3.62
788.975	4.62
789.721	3.62
790.466	2.62
791.212	4.62
791.957	3.62
792.702	5.62
793.447	6.62
794.193	2.62
794.938	5.62
795.683	4.62
796.427	6.62
797.172	5.62
797.917	5.62
798.662	5.62
799.406	5.62
800.151	3.62
800.895	4.62
801.64	4.62
802.384	3.62
803.128	4.62
803.872	4.62
804.616	3.62
805.36	2.62
806.104	2.62
806.848	3.62
807.592	0.62
808.336	4.62
809.079	3.62
809.823	2.62
810.566	3.62
811.31	1.62
812.053	2.62
812.796	3.62
813.539	5.62
814.283	2.62
815.026	3.62
815.769	4.62
816.511	4.62
817.254	2.62
817.997	2.62
818.74	5.62
819.482	3.62
820.225	2.62
820.967	4.62
821.71	3.62
822.452	3.62
823.194	1.62
823.936	4.62
824.678	3.62
825.42	0.62
826.162	2.62
826.904	3.62
827.646	5.62
828.388	2.62
829.129	4.62
829.871	1.62
830.612	1.62
831.354	2.62
832.095	2.62
832.836	2.62
833.577	2.62
834.319	1.62
835.06	3.62
835.801	2.62
836.542	2.62
837.282	-0.38
838.023	2.62
838.764	3.62
839.504	2.62
840.245	1.62
840.985	1.62
841.726	2.62
842.466	1.62
843.206	0.62
843.946	2.62
844.687	3.62
845.427	3.62
846.166	4.62
846.906	3.62
847.646	2.62
848.386	2.62
849.125	-0.38
849.865	3.62
850.605	1.62
851.344	1.62
852.083	3.62
852.823	1.62
853.562	0.62
854.301	0.62
855.04	2.62
855.779	2.62
856.518	-0.38
857.257	-0.38
857.995	2.62
858.734	2.62
859.473	1.62
860.211	3.62
860.95	0.62
861.688	2.62
862.426	0.62
863.165	2.62
863.903	3.62
864.641	-0.38
865.379	1.62
866.117	1.62
866.855	1.62
867.593	1.62
868.33	-0.38
869.068	0.62
869.806	2.62
870.543	1.62
871.28	-0.38
872.018	0.62
872.755	3.62
873.492	2.62
874.229	3.62
874.967	1.62
875.703	2.62
876.44	-0.38
877.177	2.62
877.914	1.62
878.651	-2.38
879.387	-0.38
880.124	-0.38
880.86	1.62
881.597	0.62
882.333	1.62
883.069	1.62
883.806	1.62
884.542	1.62
885.278	1.62
886.014	0.62
886.749	0.62
887.485	1.62
888.221	0.62
888.957	1.62
889.692	1.62
890.428	-1.38
891.163	0.62
891.899	0.62
892.634	0.62
893.369	-1.38
894.104	0.62
894.839	-0.38
895.574	-0.38
896.309	1.62
897.044	1.62
897.779	0.62
898.514	-1.38
899.248	1.62
899.983	0.62
900.717	-0.38
901.452	1.62
902.186	1.62
902.92	-0.38
903.654	-0.38
904.389	-1.38
905.123	0.62
905.857	3.62
906.59	0.62
907.324	1.62
908.058	0.62
908.792	1.62
909.525	-0.38
910.259	0.62
910.992	0.62
911.726	-0.38
912.459	-1.38
913.192	-0.38
913.925	1.62
914.658	1.62
915.391	-0.38
916.124	-0.38
916.857	-0.38
917.59	1.62
918.323	-1.38
919.055	0.62
919.788	-0.38
920.521	0.62
921.253	1.62
921.985	-2.38
922.718	0.62
923.45	-0.38
924.182	-0.38
924.914	0.62
925.646	0.62
926.378	0.62
927.11	-0.38
927.841	1.62
928.573	-0.38
929.305	1.62
930.036	-1.38
930.768	1.62
931.499	2.62
932.23	0.62
932.962	1.62
933.693	-0.38
934.424	1.62
935.155	-1.38
935.886	-0.38
936.617	-1.38
937.348	0.62
938.078	1.62
938.809	0.62
939.54	0.62
940.27	1.62
941.001	1.62
941.731	1.62
942.461	1.62
943.191	1.62
943.922	-1.38
944.652	1.62
945.382	-0.38
946.112	2.62
946.841	-0.38
947.571	-0.38
948.301	2.62
949.031	-0.38
949.76	2.62
950.49	-0.38
951.219	1.62
951.948	1.62
952.678	1.62
953.407	1.62
954.136	0.62
954.865	-0.38
955.594	1.62
956.323	-0.38
957.052	2.62
957.78	-1.38
958.509	0.62
959.238	0.62
959.966	2.62
960.695	-0.38
961.423	0.62
962.151	1.62
962.88	-1.38
963.608	-0.38
964.336	0.62
965.064	-0.38
965.792	0.62
966.52	1.62
967.247	0.62
967.975	-0.38
968.703	-0.38
969.43	-0.38
970.158	-0.38
970.885	2.62
971.613	-0.38
972.34	-1.38
973.067	0.62
973.794	0.62
974.521	-0.38
975.248	0.62
975.975	0.62
976.702	1.62
977.429	2.62
978.156	0.62
978.882	-0.38
979.609	0.62
980.335	-0.38
981.062	-3.38
981.788	0.62
982.514	0.62
983.24	-0.38
983.967	1.62
984.693	-1.38
985.419	-1.38
986.144	0.62
986.87	-0.38
987.596	-0.38
988.322	-1.38
989.047	0.62
989.773	-1.38
990.498	-0.38
991.224	1.62
991.949	1.62
992.674	-1.38
993.399	1.62
994.124	2.62
994.849	1.62
995.574	-1.38
996.299	-0.38
997.024	0.62
997.749	0.62
998.473	-1.38
999.198	-0.38
999.922	0.62
1000.647	1.62
1001.371	3.62
1002.095	-0.38
1002.82	-1.38
1003.544	-1.38
1004.268	-0.38
1004.992	-0.38
1005.716	-1.38
1006.439	-0.38
1007.163	2.62
1007.887	-0.38
1008.611	1.62
1009.334	-0.38
1010.058	0.62
1010.781	-0.38
1011.504	-1.38
1012.228	-0.38
1012.951	0.62
1013.674	-1.38
1014.397	-1.38
1015.12	1.62
