节点500_145_QEPB04081__52__11-29-46-724.txt的数据

Date: Wed Nov 12 11:29:46 CST 2025
User: PC
Spectrometer: QEPB0408
触发模式: 0
积分时间 (秒): 1.000000E-2
Scans to average: 1
启用暗噪声校正: true
启用非线性校正: false
滑动平均宽度: 0
X轴模式: Wavelengths
Number of Pixels in Spectrum: 1044
>>>>>Begin Spectral Data<<<<<
220.843	1.38
221.644	-0.62
222.444	0.38
223.244	-0.62
224.045	-1.62
224.845	0.38
225.645	1.38
226.445	-0.62
227.245	2.38
228.045	0.38
228.845	1.38
229.645	1.38
230.444	0.38
231.244	-0.62
232.043	2.38
232.843	3.38
233.642	2.38
234.442	2.38
235.241	2.38
236.04	2.38
236.839	-0.62
237.638	1.38
238.437	2.38
239.236	2.38
240.035	2.38
240.833	3.38
241.632	3.38
242.43	0.38
243.229	2.38
244.027	2.38
244.826	1.38
245.624	3.38
246.422	3.38
247.22	1.38
248.018	2.38
248.816	2.38
249.614	1.38
250.412	1.38
251.21	1.38
252.007	5.38
252.805	6.38
253.602	3.38
254.4	1.38
255.197	5.38
255.994	2.38
256.791	5.38
257.589	5.38
258.386	4.38
259.183	6.38
259.979	3.38
260.776	7.38
261.573	5.38
262.37	4.38
263.166	6.38
263.963	5.38
264.759	5.38
265.556	4.38
266.352	9.38
267.148	5.38
267.944	8.38
268.74	5.38
269.536	6.38
270.332	8.38
271.128	8.38
271.924	9.38
272.719	7.38
273.515	11.38
274.311	8.38
275.106	8.38
275.901	9.38
276.697	8.38
277.492	12.38
278.287	11.38
279.082	9.38
279.877	9.38
280.672	12.38
281.467	13.38
282.262	10.38
283.056	13.38
283.851	10.38
284.646	12.38
285.44	11.38
286.234	12.38
287.029	12.38
287.823	11.38
288.617	11.38
289.411	9.38
290.205	12.38
290.999	13.38
291.793	9.38
292.587	11.38
293.381	9.38
294.174	11.38
294.968	13.38
295.761	9.38
296.555	11.38
297.348	7.38
298.141	9.38
298.935	7.38
299.728	9.38
300.521	10.38
301.314	10.38
302.107	12.38
302.899	8.38
303.692	8.38
304.485	10.38
305.277	10.38
306.07	8.38
306.862	7.38
307.655	10.38
308.447	7.38
309.239	9.38
310.031	6.38
310.823	6.38
311.615	6.38
312.407	7.38
313.199	6.38
313.991	4.38
314.783	5.38
315.574	7.38
316.366	8.38
317.157	4.38
317.949	6.38
318.74	5.38
319.531	4.38
320.322	4.38
321.113	7.38
321.904	4.38
322.695	4.38
323.486	2.38
324.277	4.38
325.068	4.38
325.858	3.38
326.649	4.38
327.439	3.38
328.23	5.38
329.02	3.38
329.81	3.38
330.6	4.38
331.391	1.38
332.181	4.38
332.971	5.38
333.76	6.38
334.55	3.38
335.34	5.38
336.13	3.38
336.919	4.38
337.709	2.38
338.498	2.38
339.287	4.38
340.077	5.38
340.866	2.38
341.655	5.38
342.444	2.38
343.233	4.38
344.022	5.38
344.811	5.38
345.6	2.38
346.388	5.38
347.177	2.38
347.965	2.38
348.754	6.38
349.542	3.38
350.33	2.38
351.119	2.38
351.907	1.38
352.695	4.38
353.483	2.38
354.271	3.38
355.059	2.38
355.846	2.38
356.634	3.38
357.422	3.38
358.209	3.38
358.997	1.38
359.784	0.38
360.571	2.38
361.359	5.38
362.146	2.38
362.933	4.38
363.72	3.38
364.507	2.38
365.294	3.38
366.081	3.38
366.867	5.38
367.654	3.38
368.44	1.38
369.227	7.38
370.013	1.38
370.8	2.38
371.586	4.38
372.372	5.38
373.158	3.38
373.944	3.38
374.73	5.38
375.516	1.38
376.302	4.38
377.088	4.38
377.873	2.38
378.659	3.38
379.445	2.38
380.23	3.38
381.015	3.38
381.801	3.38
382.586	4.38
383.371	2.38
384.156	2.38
384.941	1.38
385.726	4.38
386.511	4.38
387.296	0.38
388.08	2.38
388.865	4.38
389.649	3.38
390.434	2.38
391.218	2.38
392.003	0.38
392.787	3.38
393.571	5.38
394.355	4.38
395.139	4.38
395.923	3.38
396.707	2.38
397.491	5.38
398.274	4.38
399.058	4.38
399.842	4.38
400.625	3.38
401.408	5.38
402.192	6.38
402.975	5.38
403.758	5.38
404.541	5.38
405.324	5.38
406.107	4.38
406.89	2.38
407.673	6.38
408.456	6.38
409.238	4.38
410.021	5.38
410.803	2.38
411.586	4.38
412.368	7.38
413.151	6.38
413.933	5.38
414.715	4.38
415.497	5.38
416.279	6.38
417.061	7.38
417.843	5.38
418.624	5.38
419.406	7.38
420.188	3.38
420.969	6.38
421.751	3.38
422.532	6.38
423.313	6.38
424.095	7.38
424.876	5.38
425.657	6.38
426.438	7.38
427.219	6.38
428	7.38
428.78	6.38
429.561	8.38
430.342	7.38
431.122	6.38
431.903	8.38
432.683	8.38
433.464	10.38
434.244	7.38
435.024	7.38
435.804	9.38
436.584	10.38
437.364	12.38
438.144	9.38
438.924	8.38
439.704	9.38
440.483	12.38
441.263	12.38
442.042	12.38
442.822	16.38
443.601	13.38
444.38	14.38
445.16	17.38
445.939	16.38
446.718	18.38
447.497	18.38
448.276	18.38
449.054	24.38
449.833	20.38
450.612	24.38
451.391	26.38
452.169	28.38
452.948	25.38
453.726	30.38
454.504	34.38
455.282	39.38
456.061	43.38
456.839	45.38
457.617	49.38
458.395	51.38
459.172	58.38
459.95	67.38
460.728	72.38
461.506	80.38
462.283	93.38
463.061	100.38
463.838	115.38
464.615	125.38
465.393	141.38
466.17	156.38
466.947	177.38
467.724	197.38
468.501	217.38
469.278	246.38
470.055	274.38
470.831	302.38
471.608	339.38
472.385	383.38
473.161	417.38
473.938	470.38
474.714	531.38
475.49	584.38
476.266	649.38
477.043	721.38
477.819	816.38
478.595	906.38
479.371	993.38
480.146	1113.38
480.922	1238.38
481.698	1371.38
482.473	1518.38
483.249	1704.38
484.024	1861.38
484.8	2078.38
485.575	2333.38
486.35	2564.38
487.126	2843.38
487.901	3137.38
488.676	3485.38
489.451	3852.38
490.225	4290.38
491	4737.38
491.775	5223.38
492.55	5757.38
493.324	6364.38
494.099	6969.38
494.873	7650.38
495.647	8336.38
496.422	9121.38
497.196	9846.38
497.97	10664.38
498.744	11490.38
499.518	12272.38
500.292	13084.38
501.066	13861.38
501.839	14606.38
502.613	15315.38
503.387	15877.38
504.16	16397.38
504.934	16816.38
505.707	17147.38
506.48	17331.38
507.253	17350.38
508.027	17288.38
508.8	17092.38
509.573	16862.38
510.346	16538.38
511.118	15987.38
511.891	15516.38
512.664	14845.38
513.437	14346.38
514.209	13749.38
514.982	13116.38
515.754	12551.38
516.526	11922.38
517.298	11373.38
518.071	10897.38
518.843	10378.38
519.615	9965.38
520.387	9529.38
521.159	9131.38
521.93	8794.38
522.702	8462.38
523.474	8095.38
524.245	7809.38
525.017	7468.38
525.788	7175.38
526.56	6903.38
527.331	6612.38
528.102	6299.38
528.873	6010.38
529.644	5691.38
530.415	5439.38
531.186	5152.38
531.957	4903.38
532.728	4634.38
533.498	4379.38
534.269	4158.38
535.039	3883.38
535.81	3677.38
536.58	3451.38
537.351	3264.38
538.121	3091.38
538.891	2911.38
539.661	2749.38
540.431	2608.38
541.201	2476.38
541.971	2318.38
542.741	2217.38
543.51	2099.38
544.28	1986.38
545.05	1902.38
545.819	1804.38
546.588	1709.38
547.358	1632.38
548.127	1544.38
548.896	1470.38
549.665	1385.38
550.434	1326.38
551.203	1240.38
551.972	1194.38
552.741	1120.38
553.51	1049.38
554.278	1000.38
555.047	933.38
555.815	892.38
556.584	836.38
557.352	794.38
558.121	729.38
558.889	696.38
559.657	656.38
560.425	619.38
561.193	588.38
561.961	550.38
562.729	526.38
563.496	500.38
564.264	465.38
565.032	440.38
565.799	421.38
566.567	385.38
567.334	365.38
568.101	342.38
568.869	333.38
569.636	304.38
570.403	294.38
571.17	279.38
571.937	269.38
572.704	247.38
573.471	233.38
574.237	219.38
575.004	205.38
575.771	193.38
576.537	185.38
577.303	171.38
578.07	157.38
578.836	153.38
579.602	141.38
580.368	137.38
581.134	126.38
581.9	121.38
582.666	114.38
583.432	108.38
584.198	101.38
584.964	96.38
585.729	92.38
586.495	88.38
587.26	81.38
588.025	77.38
588.791	77.38
589.556	70.38
590.321	67.38
591.086	60.38
591.851	62.38
592.616	57.38
593.381	54.38
594.146	50.38
594.911	49.38
595.675	48.38
596.44	44.38
597.204	43.38
597.969	36.38
598.733	36.38
599.497	36.38
600.261	34.38
601.025	32.38
601.79	32.38
602.553	34.38
603.317	28.38
604.081	26.38
604.845	29.38
605.609	26.38
606.372	25.38
607.136	22.38
607.899	22.38
608.662	24.38
609.426	20.38
610.189	22.38
610.952	18.38
611.715	20.38
612.478	19.38
613.241	16.38
614.004	16.38
614.767	14.38
615.529	14.38
616.292	12.38
617.055	13.38
617.817	12.38
618.579	11.38
619.342	12.38
620.104	10.38
620.866	12.38
621.628	9.38
622.39	9.38
623.152	10.38
623.914	10.38
624.676	10.38
625.438	8.38
626.199	10.38
626.961	6.38
627.722	9.38
628.484	9.38
629.245	8.38
630.006	8.38
630.768	6.38
631.529	8.38
632.29	8.38
633.051	6.38
633.812	6.38
634.573	8.38
635.333	7.38
636.094	5.38
636.855	6.38
637.615	5.38
638.376	7.38
639.136	6.38
639.896	3.38
640.657	5.38
641.417	6.38
642.177	7.38
642.937	4.38
643.697	5.38
644.457	6.38
645.216	3.38
645.976	6.38
646.736	3.38
647.495	6.38
648.255	3.38
649.014	5.38
649.774	2.38
650.533	4.38
651.292	5.38
652.051	2.38
652.81	2.38
653.569	4.38
654.328	5.38
655.087	4.38
655.846	3.38
656.604	5.38
657.363	4.38
658.121	4.38
658.88	5.38
659.638	2.38
660.397	3.38
661.155	3.38
661.913	4.38
662.671	4.38
663.429	5.38
664.187	5.38
664.945	1.38
665.703	3.38
666.46	2.38
667.218	5.38
667.976	3.38
668.733	3.38
669.49	1.38
670.248	2.38
671.005	3.38
671.762	2.38
672.519	2.38
673.276	2.38
674.033	1.38
674.79	2.38
675.547	2.38
676.304	4.38
677.06	2.38
677.817	3.38
678.574	2.38
679.33	1.38
680.086	2.38
680.843	2.38
681.599	1.38
682.355	3.38
683.111	6.38
683.867	3.38
684.623	2.38
685.379	2.38
686.135	-0.62
686.89	5.38
687.646	5.38
688.402	2.38
689.157	1.38
689.912	4.38
690.668	1.38
691.423	2.38
692.178	3.38
692.933	0.38
693.688	1.38
694.443	3.38
695.198	1.38
695.953	2.38
696.708	1.38
697.462	2.38
698.217	3.38
698.972	1.38
699.726	1.38
700.48	0.38
701.235	2.38
701.989	2.38
702.743	4.38
703.497	2.38
704.251	1.38
705.005	1.38
705.759	2.38
706.513	2.38
707.266	1.38
708.02	3.38
708.774	3.38
709.527	3.38
710.28	1.38
711.034	2.38
711.787	0.38
712.54	2.38
713.293	0.38
714.046	2.38
714.799	3.38
715.552	2.38
716.305	1.38
717.058	2.38
717.81	2.38
718.563	2.38
719.315	2.38
720.068	2.38
720.82	2.38
721.573	0.38
722.325	2.38
723.077	0.38
723.829	2.38
724.581	1.38
725.333	2.38
726.085	1.38
726.836	2.38
727.588	2.38
728.34	3.38
729.091	3.38
729.843	2.38
730.594	1.38
731.346	1.38
732.097	1.38
732.848	2.38
733.599	1.38
734.35	0.38
735.101	2.38
735.852	3.38
736.603	2.38
737.354	2.38
738.104	4.38
738.855	2.38
739.605	2.38
740.356	2.38
741.106	2.38
741.856	3.38
742.607	4.38
743.357	5.38
744.107	4.38
744.857	1.38
745.607	4.38
746.357	1.38
747.106	5.38
747.856	3.38
748.606	3.38
749.355	2.38
750.105	0.38
750.854	3.38
751.603	3.38
752.353	4.38
753.102	4.38
753.851	3.38
754.6	2.38
755.349	4.38
756.098	5.38
756.847	4.38
757.595	5.38
758.344	4.38
759.093	4.38
759.841	2.38
760.589	2.38
761.338	3.38
762.086	3.38
762.834	2.38
763.582	4.38
764.331	2.38
765.079	4.38
765.826	4.38
766.574	6.38
767.322	3.38
768.07	3.38
768.817	6.38
769.565	4.38
770.312	6.38
771.06	4.38
771.807	5.38
772.554	7.38
773.302	4.38
774.049	4.38
774.796	3.38
775.543	5.38
776.29	3.38
777.036	8.38
777.783	6.38
778.53	4.38
779.276	6.38
780.023	5.38
780.769	7.38
781.516	6.38
782.262	6.38
783.008	5.38
783.754	6.38
784.5	3.38
785.246	7.38
785.992	8.38
786.738	4.38
787.484	6.38
788.23	8.38
788.975	5.38
789.721	8.38
790.466	6.38
791.212	4.38
791.957	5.38
792.702	6.38
793.447	7.38
794.193	6.38
794.938	5.38
795.683	4.38
796.427	4.38
797.172	5.38
797.917	2.38
798.662	5.38
799.406	3.38
800.151	5.38
800.895	4.38
801.64	5.38
802.384	3.38
803.128	6.38
803.872	4.38
804.616	4.38
805.36	3.38
806.104	2.38
806.848	7.38
807.592	0.38
808.336	5.38
809.079	3.38
809.823	4.38
810.566	5.38
811.31	3.38
812.053	3.38
812.796	4.38
813.539	3.38
814.283	2.38
815.026	3.38
815.769	5.38
816.511	0.38
817.254	4.38
817.997	3.38
818.74	3.38
819.482	1.38
820.225	2.38
820.967	5.38
821.71	5.38
822.452	2.38
823.194	3.38
823.936	3.38
824.678	3.38
825.42	2.38
826.162	3.38
826.904	2.38
827.646	2.38
828.388	4.38
829.129	2.38
829.871	1.38
830.612	4.38
831.354	3.38
832.095	3.38
832.836	2.38
833.577	2.38
834.319	1.38
835.06	3.38
835.801	3.38
836.542	2.38
837.282	3.38
838.023	1.38
838.764	3.38
839.504	2.38
840.245	4.38
840.985	3.38
841.726	3.38
842.466	2.38
843.206	1.38
843.946	2.38
844.687	2.38
845.427	3.38
846.166	2.38
846.906	3.38
847.646	2.38
848.386	3.38
849.125	1.38
849.865	3.38
850.605	2.38
851.344	4.38
852.083	2.38
852.823	1.38
853.562	2.38
854.301	4.38
855.04	1.38
855.779	0.38
856.518	3.38
857.257	3.38
857.995	1.38
858.734	1.38
859.473	1.38
860.211	1.38
860.95	2.38
861.688	2.38
862.426	3.38
863.165	0.38
863.903	1.38
864.641	2.38
865.379	2.38
866.117	3.38
866.855	-0.62
867.593	3.38
868.33	0.38
869.068	2.38
869.806	1.38
870.543	0.38
871.28	1.38
872.018	2.38
872.755	3.38
873.492	1.38
874.229	0.38
874.967	0.38
875.703	0.38
876.44	1.38
877.177	2.38
877.914	1.38
878.651	0.38
879.387	2.38
880.124	2.38
880.86	1.38
881.597	3.38
882.333	1.38
883.069	0.38
883.806	1.38
884.542	-1.62
885.278	-1.62
886.014	-0.62
886.749	0.38
887.485	0.38
888.221	2.38
888.957	2.38
889.692	0.38
890.428	0.38
891.163	0.38
891.899	1.38
892.634	2.38
893.369	0.38
894.104	1.38
894.839	0.38
895.574	1.38
896.309	0.38
897.044	0.38
897.779	0.38
898.514	-0.62
899.248	-0.62
899.983	-1.62
900.717	2.38
901.452	-0.62
902.186	1.38
902.92	3.38
903.654	0.38
904.389	0.38
905.123	0.38
905.857	0.38
906.59	-1.62
907.324	1.38
908.058	1.38
908.792	0.38
909.525	0.38
910.259	0.38
910.992	0.38
911.726	-0.62
912.459	0.38
913.192	0.38
913.925	1.38
914.658	1.38
915.391	1.38
916.124	1.38
916.857	-0.62
917.59	0.38
918.323	1.38
919.055	1.38
919.788	1.38
920.521	1.38
921.253	0.38
921.985	1.38
922.718	0.38
923.45	3.38
924.182	-1.62
924.914	-0.62
925.646	0.38
926.378	1.38
927.11	3.38
927.841	2.38
928.573	0.38
929.305	-1.62
930.036	-0.62
930.768	0.38
931.499	-2.62
932.23	0.38
932.962	0.38
933.693	1.38
934.424	-0.62
935.155	-0.62
935.886	1.38
936.617	-0.62
937.348	0.38
938.078	0.38
938.809	1.38
939.54	-0.62
940.27	1.38
941.001	-0.62
941.731	2.38
942.461	1.38
943.191	-0.62
943.922	1.38
944.652	-0.62
945.382	0.38
946.112	0.38
946.841	1.38
947.571	-0.62
948.301	-0.62
949.031	0.38
949.76	0.38
950.49	-1.62
951.219	1.38
951.948	-0.62
952.678	2.38
953.407	0.38
954.136	0.38
954.865	0.38
955.594	0.38
956.323	1.38
957.052	-1.62
957.78	-1.62
958.509	0.38
959.238	-0.62
959.966	1.38
960.695	1.38
961.423	0.38
962.151	-0.62
962.88	1.38
963.608	-0.62
964.336	1.38
965.064	4.38
965.792	-1.62
966.52	-0.62
967.247	0.38
967.975	1.38
968.703	0.38
969.43	1.38
970.158	-0.62
970.885	0.38
971.613	1.38
972.34	0.38
973.067	1.38
973.794	-0.62
974.521	-0.62
975.248	0.38
975.975	1.38
976.702	1.38
977.429	0.38
978.156	0.38
978.882	3.38
979.609	2.38
980.335	-0.62
981.062	-2.62
981.788	-0.62
982.514	-1.62
983.24	1.38
983.967	1.38
984.693	0.38
985.419	-1.62
986.144	0.38
986.87	-1.62
987.596	2.38
988.322	2.38
989.047	0.38
989.773	-0.62
990.498	1.38
991.224	0.38
991.949	1.38
992.674	1.38
993.399	1.38
994.124	0.38
994.849	-0.62
995.574	-0.62
996.299	-2.62
997.024	-1.62
997.749	0.38
998.473	0.38
999.198	-1.62
999.922	0.38
1000.647	-0.62
1001.371	2.38
1002.095	-1.62
1002.82	-0.62
1003.544	0.38
1004.268	1.38
1004.992	-0.62
1005.716	-2.62
1006.439	-0.62
1007.163	0.38
1007.887	2.38
1008.611	1.38
1009.334	-0.62
1010.058	1.38
1010.781	1.38
1011.504	0.38
1012.228	2.38
1012.951	1.38
1013.674	-2.62
1014.397	1.38
1015.12	-0.62
