节点500_145_QEPB04081__72__11-30-06-679.txt的数据

Date: Wed Nov 12 11:30:06 CST 2025
User: PC
Spectrometer: QEPB0408
触发模式: 0
积分时间 (秒): 1.000000E-2
Scans to average: 1
启用暗噪声校正: true
启用非线性校正: false
滑动平均宽度: 0
X轴模式: Wavelengths
Number of Pixels in Spectrum: 1044
>>>>>Begin Spectral Data<<<<<
220.843	-1.38
221.644	-0.38
222.444	-1.38
223.244	1.62
224.045	-2.38
224.845	-0.38
225.645	1.62
226.445	-1.38
227.245	1.62
228.045	-1.38
228.845	-0.38
229.645	1.62
230.444	-0.38
231.244	0.62
232.043	-0.38
232.843	-0.38
233.642	1.62
234.442	2.62
235.241	-0.38
236.04	1.62
236.839	1.62
237.638	0.62
238.437	1.62
239.236	1.62
240.035	0.62
240.833	-0.38
241.632	0.62
242.43	1.62
243.229	0.62
244.027	2.62
244.826	0.62
245.624	0.62
246.422	1.62
247.22	-0.38
248.018	3.62
248.816	0.62
249.614	3.62
250.412	2.62
251.21	2.62
252.007	1.62
252.805	2.62
253.602	3.62
254.4	3.62
255.197	2.62
255.994	2.62
256.791	2.62
257.589	4.62
258.386	2.62
259.183	2.62
259.979	3.62
260.776	5.62
261.573	3.62
262.37	4.62
263.166	5.62
263.963	5.62
264.759	4.62
265.556	6.62
266.352	5.62
267.148	5.62
267.944	6.62
268.74	7.62
269.536	4.62
270.332	6.62
271.128	7.62
271.924	8.62
272.719	7.62
273.515	8.62
274.311	6.62
275.106	8.62
275.901	9.62
276.697	11.62
277.492	8.62
278.287	9.62
279.082	10.62
279.877	11.62
280.672	10.62
281.467	11.62
282.262	7.62
283.056	10.62
283.851	11.62
284.646	9.62
285.44	12.62
286.234	9.62
287.029	8.62
287.823	10.62
288.617	8.62
289.411	10.62
290.205	10.62
290.999	11.62
291.793	10.62
292.587	11.62
293.381	9.62
294.174	11.62
294.968	10.62
295.761	7.62
296.555	9.62
297.348	8.62
298.141	11.62
298.935	11.62
299.728	10.62
300.521	9.62
301.314	8.62
302.107	8.62
302.899	8.62
303.692	7.62
304.485	8.62
305.277	8.62
306.07	5.62
306.862	5.62
307.655	8.62
308.447	7.62
309.239	5.62
310.031	6.62
310.823	7.62
311.615	5.62
312.407	4.62
313.199	6.62
313.991	5.62
314.783	5.62
315.574	6.62
316.366	4.62
317.157	4.62
317.949	4.62
318.74	4.62
319.531	2.62
320.322	5.62
321.113	5.62
321.904	3.62
322.695	6.62
323.486	3.62
324.277	6.62
325.068	3.62
325.858	4.62
326.649	1.62
327.439	3.62
328.23	2.62
329.02	4.62
329.81	4.62
330.6	5.62
331.391	4.62
332.181	4.62
332.971	1.62
333.76	4.62
334.55	1.62
335.34	3.62
336.13	2.62
336.919	3.62
337.709	2.62
338.498	3.62
339.287	1.62
340.077	2.62
340.866	3.62
341.655	2.62
342.444	2.62
343.233	4.62
344.022	1.62
344.811	3.62
345.6	2.62
346.388	1.62
347.177	3.62
347.965	2.62
348.754	3.62
349.542	3.62
350.33	4.62
351.119	2.62
351.907	3.62
352.695	2.62
353.483	1.62
354.271	2.62
355.059	2.62
355.846	1.62
356.634	3.62
357.422	4.62
358.209	2.62
358.997	4.62
359.784	1.62
360.571	4.62
361.359	3.62
362.146	1.62
362.933	1.62
363.72	2.62
364.507	0.62
365.294	4.62
366.081	1.62
366.867	1.62
367.654	2.62
368.44	1.62
369.227	1.62
370.013	0.62
370.8	4.62
371.586	2.62
372.372	4.62
373.158	3.62
373.944	-0.38
374.73	2.62
375.516	1.62
376.302	2.62
377.088	1.62
377.873	2.62
378.659	1.62
379.445	1.62
380.23	0.62
381.015	2.62
381.801	2.62
382.586	3.62
383.371	1.62
384.156	3.62
384.941	4.62
385.726	4.62
386.511	2.62
387.296	2.62
388.08	2.62
388.865	4.62
389.649	1.62
390.434	2.62
391.218	3.62
392.003	2.62
392.787	2.62
393.571	1.62
394.355	4.62
395.139	1.62
395.923	2.62
396.707	1.62
397.491	2.62
398.274	3.62
399.058	1.62
399.842	1.62
400.625	2.62
401.408	2.62
402.192	2.62
402.975	4.62
403.758	4.62
404.541	2.62
405.324	3.62
406.107	3.62
406.89	2.62
407.673	4.62
408.456	1.62
409.238	1.62
410.021	2.62
410.803	4.62
411.586	6.62
412.368	7.62
413.151	3.62
413.933	3.62
414.715	4.62
415.497	5.62
416.279	6.62
417.061	6.62
417.843	4.62
418.624	3.62
419.406	5.62
420.188	3.62
420.969	6.62
421.751	6.62
422.532	6.62
423.313	1.62
424.095	7.62
424.876	8.62
425.657	7.62
426.438	6.62
427.219	4.62
428	8.62
428.78	6.62
429.561	5.62
430.342	6.62
431.122	5.62
431.903	8.62
432.683	8.62
433.464	9.62
434.244	10.62
435.024	8.62
435.804	7.62
436.584	6.62
437.364	11.62
438.144	7.62
438.924	10.62
439.704	10.62
440.483	11.62
441.263	12.62
442.042	10.62
442.822	12.62
443.601	13.62
444.38	14.62
445.16	13.62
445.939	14.62
446.718	18.62
447.497	17.62
448.276	21.62
449.054	23.62
449.833	20.62
450.612	23.62
451.391	25.62
452.169	24.62
452.948	27.62
453.726	30.62
454.504	33.62
455.282	35.62
456.061	39.62
456.839	45.62
457.617	50.62
458.395	54.62
459.172	62.62
459.95	61.62
460.728	71.62
461.506	86.62
462.283	90.62
463.061	98.62
463.838	109.62
464.615	127.62
465.393	145.62
466.17	158.62
466.947	176.62
467.724	199.62
468.501	221.62
469.278	248.62
470.055	270.62
470.831	309.62
471.608	352.62
472.385	387.62
473.161	430.62
473.938	477.62
474.714	536.62
475.49	600.62
476.266	663.62
477.043	732.62
477.819	828.62
478.595	912.62
479.371	1021.62
480.146	1123.62
480.922	1249.62
481.698	1388.62
482.473	1549.62
483.249	1728.62
484.024	1908.62
484.8	2104.62
485.575	2327.62
486.35	2596.62
487.126	2880.62
487.901	3189.62
488.676	3529.62
489.451	3884.62
490.225	4328.62
491	4759.62
491.775	5269.62
492.55	5770.62
493.324	6352.62
494.099	6978.62
494.873	7676.62
495.647	8389.62
496.422	9140.62
497.196	9927.62
497.97	10755.62
498.744	11493.62
499.518	12312.62
500.292	13117.62
501.066	13989.62
501.839	14643.62
502.613	15352.62
503.387	15942.62
504.16	16426.62
504.934	16926.62
505.707	17199.62
506.48	17337.62
507.253	17453.62
508.027	17382.62
508.8	17184.62
509.573	16972.62
510.346	16589.62
511.118	16121.62
511.891	15589.62
512.664	15017.62
513.437	14491.62
514.209	13822.62
514.982	13266.62
515.754	12609.62
516.526	12056.62
517.298	11478.62
518.071	10980.62
518.843	10464.62
519.615	10087.62
520.387	9604.62
521.159	9236.62
521.93	8894.62
522.702	8504.62
523.474	8205.62
524.245	7895.62
525.017	7572.62
525.788	7247.62
526.56	6953.62
527.331	6679.62
528.102	6361.62
528.873	6058.62
529.644	5785.62
530.415	5495.62
531.186	5253.62
531.957	4952.62
532.728	4675.62
533.498	4398.62
534.269	4146.62
535.039	3918.62
535.81	3704.62
536.58	3494.62
537.351	3301.62
538.121	3115.62
538.891	2940.62
539.661	2783.62
540.431	2632.62
541.201	2484.62
541.971	2359.62
542.741	2244.62
543.51	2130.62
544.28	2017.62
545.05	1909.62
545.819	1816.62
546.588	1726.62
547.358	1656.62
548.127	1564.62
548.896	1489.62
549.665	1415.62
550.434	1338.62
551.203	1255.62
551.972	1203.62
552.741	1128.62
553.51	1075.62
554.278	1011.62
555.047	960.62
555.815	897.62
556.584	839.62
557.352	804.62
558.121	754.62
558.889	702.62
559.657	667.62
560.425	625.62
561.193	600.62
561.961	556.62
562.729	526.62
563.496	490.62
564.264	467.62
565.032	443.62
565.799	422.62
566.567	391.62
567.334	374.62
568.101	358.62
568.869	324.62
569.636	314.62
570.403	295.62
571.17	282.62
571.937	259.62
572.704	250.62
573.471	233.62
574.237	215.62
575.004	208.62
575.771	195.62
576.537	185.62
577.303	172.62
578.07	159.62
578.836	153.62
579.602	143.62
580.368	137.62
581.134	127.62
581.9	120.62
582.666	115.62
583.432	109.62
584.198	101.62
584.964	100.62
585.729	94.62
586.495	87.62
587.26	81.62
588.025	77.62
588.791	75.62
589.556	69.62
590.321	67.62
591.086	64.62
591.851	60.62
592.616	54.62
593.381	51.62
594.146	51.62
594.911	46.62
595.675	49.62
596.44	44.62
597.204	42.62
597.969	37.62
598.733	39.62
599.497	37.62
600.261	35.62
601.025	34.62
601.79	33.62
602.553	28.62
603.317	27.62
604.081	27.62
604.845	25.62
605.609	23.62
606.372	24.62
607.136	22.62
607.899	21.62
608.662	23.62
609.426	17.62
610.189	21.62
610.952	16.62
611.715	18.62
612.478	16.62
613.241	15.62
614.004	14.62
614.767	17.62
615.529	14.62
616.292	12.62
617.055	12.62
617.817	14.62
618.579	13.62
619.342	12.62
620.104	11.62
620.866	13.62
621.628	10.62
622.39	10.62
623.152	10.62
623.914	10.62
624.676	11.62
625.438	7.62
626.199	9.62
626.961	7.62
627.722	9.62
628.484	7.62
629.245	7.62
630.006	6.62
630.768	4.62
631.529	7.62
632.29	6.62
633.051	5.62
633.812	8.62
634.573	6.62
635.333	9.62
636.094	3.62
636.855	6.62
637.615	3.62
638.376	6.62
639.136	4.62
639.896	4.62
640.657	5.62
641.417	3.62
642.177	5.62
642.937	3.62
643.697	3.62
644.457	4.62
645.216	0.62
645.976	4.62
646.736	4.62
647.495	3.62
648.255	5.62
649.014	1.62
649.774	2.62
650.533	1.62
651.292	5.62
652.051	3.62
652.81	3.62
653.569	3.62
654.328	3.62
655.087	3.62
655.846	2.62
656.604	5.62
657.363	2.62
658.121	1.62
658.88	3.62
659.638	1.62
660.397	2.62
661.155	0.62
661.913	1.62
662.671	1.62
663.429	-0.38
664.187	3.62
664.945	2.62
665.703	2.62
666.46	3.62
667.218	4.62
667.976	2.62
668.733	1.62
669.49	2.62
670.248	1.62
671.005	4.62
671.762	-0.38
672.519	2.62
673.276	1.62
674.033	0.62
674.79	3.62
675.547	3.62
676.304	1.62
677.06	1.62
677.817	1.62
678.574	0.62
679.33	1.62
680.086	-0.38
680.843	-0.38
681.599	3.62
682.355	-0.38
683.111	3.62
683.867	-0.38
684.623	1.62
685.379	2.62
686.135	1.62
686.89	-0.38
687.646	1.62
688.402	-1.38
689.157	-0.38
689.912	1.62
690.668	1.62
691.423	-0.38
692.178	0.62
692.933	3.62
693.688	2.62
694.443	3.62
695.198	-0.38
695.953	1.62
696.708	3.62
697.462	0.62
698.217	0.62
698.972	1.62
699.726	1.62
700.48	2.62
701.235	0.62
701.989	2.62
702.743	2.62
703.497	0.62
704.251	1.62
705.005	1.62
705.759	0.62
706.513	0.62
707.266	0.62
708.02	0.62
708.774	2.62
709.527	-0.38
710.28	2.62
711.034	0.62
711.787	1.62
712.54	-0.38
713.293	2.62
714.046	3.62
714.799	0.62
715.552	-1.38
716.305	1.62
717.058	1.62
717.81	3.62
718.563	2.62
719.315	1.62
720.068	0.62
720.82	2.62
721.573	1.62
722.325	-0.38
723.077	0.62
723.829	3.62
724.581	0.62
725.333	1.62
726.085	1.62
726.836	1.62
727.588	1.62
728.34	3.62
729.091	1.62
729.843	3.62
730.594	0.62
731.346	0.62
732.097	0.62
732.848	4.62
733.599	2.62
734.35	0.62
735.101	1.62
735.852	1.62
736.603	1.62
737.354	1.62
738.104	3.62
738.855	3.62
739.605	1.62
740.356	1.62
741.106	1.62
741.856	1.62
742.607	1.62
743.357	0.62
744.107	4.62
744.857	0.62
745.607	2.62
746.357	0.62
747.106	3.62
747.856	2.62
748.606	0.62
749.355	3.62
750.105	-0.38
750.854	1.62
751.603	2.62
752.353	3.62
753.102	4.62
753.851	1.62
754.6	2.62
755.349	2.62
756.098	2.62
756.847	4.62
757.595	1.62
758.344	1.62
759.093	2.62
759.841	1.62
760.589	2.62
761.338	1.62
762.086	1.62
762.834	2.62
763.582	4.62
764.331	2.62
765.079	0.62
765.826	4.62
766.574	3.62
767.322	3.62
768.07	3.62
768.817	3.62
769.565	1.62
770.312	4.62
771.06	4.62
771.807	4.62
772.554	5.62
773.302	3.62
774.049	6.62
774.796	6.62
775.543	4.62
776.29	4.62
777.036	4.62
777.783	5.62
778.53	4.62
779.276	6.62
780.023	4.62
780.769	5.62
781.516	3.62
782.262	5.62
783.008	4.62
783.754	5.62
784.5	6.62
785.246	5.62
785.992	3.62
786.738	7.62
787.484	3.62
788.23	5.62
788.975	4.62
789.721	4.62
790.466	4.62
791.212	5.62
791.957	4.62
792.702	4.62
793.447	3.62
794.193	3.62
794.938	5.62
795.683	4.62
796.427	4.62
797.172	5.62
797.917	7.62
798.662	5.62
799.406	5.62
800.151	5.62
800.895	2.62
801.64	5.62
802.384	4.62
803.128	2.62
803.872	4.62
804.616	4.62
805.36	4.62
806.104	2.62
806.848	4.62
807.592	1.62
808.336	4.62
809.079	4.62
809.823	2.62
810.566	5.62
811.31	2.62
812.053	2.62
812.796	2.62
813.539	0.62
814.283	2.62
815.026	4.62
815.769	3.62
816.511	3.62
817.254	3.62
817.997	2.62
818.74	3.62
819.482	1.62
820.225	2.62
820.967	2.62
821.71	2.62
822.452	0.62
823.194	4.62
823.936	0.62
824.678	4.62
825.42	2.62
826.162	2.62
826.904	2.62
827.646	1.62
828.388	3.62
829.129	1.62
829.871	1.62
830.612	1.62
831.354	5.62
832.095	2.62
832.836	1.62
833.577	2.62
834.319	-0.38
835.06	3.62
835.801	2.62
836.542	2.62
837.282	1.62
838.023	-0.38
838.764	2.62
839.504	3.62
840.245	3.62
840.985	0.62
841.726	1.62
842.466	1.62
843.206	2.62
843.946	1.62
844.687	2.62
845.427	0.62
846.166	3.62
846.906	1.62
847.646	2.62
848.386	3.62
849.125	3.62
849.865	3.62
850.605	2.62
851.344	1.62
852.083	0.62
852.823	1.62
853.562	1.62
854.301	4.62
855.04	-1.38
855.779	0.62
856.518	1.62
857.257	3.62
857.995	3.62
858.734	-2.38
859.473	2.62
860.211	-1.38
860.95	1.62
861.688	-0.38
862.426	-0.38
863.165	-0.38
863.903	0.62
864.641	1.62
865.379	-1.38
866.117	2.62
866.855	-0.38
867.593	-0.38
868.33	2.62
869.068	-1.38
869.806	3.62
870.543	0.62
871.28	-1.38
872.018	0.62
872.755	0.62
873.492	-3.38
874.229	2.62
874.967	1.62
875.703	1.62
876.44	0.62
877.177	4.62
877.914	-0.38
878.651	0.62
879.387	-0.38
880.124	1.62
880.86	-0.38
881.597	-0.38
882.333	0.62
883.069	-1.38
883.806	-0.38
884.542	-0.38
885.278	1.62
886.014	0.62
886.749	-1.38
887.485	-0.38
888.221	1.62
888.957	1.62
889.692	-0.38
890.428	0.62
891.163	0.62
891.899	1.62
892.634	-1.38
893.369	2.62
894.104	2.62
894.839	-0.38
895.574	-0.38
896.309	-1.38
897.044	-0.38
897.779	-0.38
898.514	-0.38
899.248	0.62
899.983	-2.38
900.717	-0.38
901.452	-1.38
902.186	0.62
902.92	-2.38
903.654	-0.38
904.389	-2.38
905.123	-1.38
905.857	-1.38
906.59	-0.38
907.324	-0.38
908.058	0.62
908.792	0.62
909.525	1.62
910.259	-1.38
910.992	-2.38
911.726	-0.38
912.459	0.62
913.192	0.62
913.925	0.62
914.658	0.62
915.391	-2.38
916.124	0.62
916.857	-2.38
917.59	-0.38
918.323	0.62
919.055	-1.38
919.788	0.62
920.521	1.62
921.253	-0.38
921.985	-0.38
922.718	0.62
923.45	-2.38
924.182	0.62
924.914	-0.38
925.646	0.62
926.378	1.62
927.11	-0.38
927.841	0.62
928.573	1.62
929.305	-2.38
930.036	0.62
930.768	0.62
931.499	2.62
932.23	0.62
932.962	-0.38
933.693	-0.38
934.424	0.62
935.155	-0.38
935.886	-1.38
936.617	-1.38
937.348	0.62
938.078	-2.38
938.809	-0.38
939.54	-1.38
940.27	1.62
941.001	0.62
941.731	0.62
942.461	0.62
943.191	-0.38
943.922	0.62
944.652	-2.38
945.382	-0.38
946.112	-1.38
946.841	-0.38
947.571	-2.38
948.301	-2.38
949.031	0.62
949.76	-0.38
950.49	-0.38
951.219	1.62
951.948	0.62
952.678	-0.38
953.407	1.62
954.136	0.62
954.865	-0.38
955.594	-0.38
956.323	0.62
957.052	0.62
957.78	-0.38
958.509	-0.38
959.238	-1.38
959.966	-2.38
960.695	-0.38
961.423	-0.38
962.151	-0.38
962.88	-1.38
963.608	0.62
964.336	-0.38
965.064	-0.38
965.792	-2.38
966.52	0.62
967.247	-2.38
967.975	0.62
968.703	-2.38
969.43	0.62
970.158	-1.38
970.885	0.62
971.613	1.62
972.34	-2.38
973.067	-1.38
973.794	-0.38
974.521	1.62
975.248	1.62
975.975	-2.38
976.702	0.62
977.429	-0.38
978.156	-2.38
978.882	0.62
979.609	1.62
980.335	1.62
981.062	-2.38
981.788	-1.38
982.514	0.62
983.24	-0.38
983.967	-0.38
984.693	-1.38
985.419	-0.38
986.144	0.62
986.87	-0.38
987.596	0.62
988.322	-0.38
989.047	0.62
989.773	-0.38
990.498	-1.38
991.224	-0.38
991.949	0.62
992.674	-1.38
993.399	-0.38
994.124	0.62
994.849	-2.38
995.574	0.62
996.299	-2.38
997.024	1.62
997.749	1.62
998.473	-1.38
999.198	0.62
999.922	-0.38
1000.647	0.62
1001.371	2.62
1002.095	0.62
1002.82	1.62
1003.544	0.62
1004.268	-1.38
1004.992	-2.38
1005.716	1.62
1006.439	-1.38
1007.163	-1.38
1007.887	-0.38
1008.611	-0.38
1009.334	0.62
1010.058	-1.38
1010.781	0.62
1011.504	1.62
1012.228	0.62
1012.951	-0.38
1013.674	-1.38
1014.397	-2.38
1015.12	-1.38
