节点500_145_QEPB04081__183__11-31-52-545.txt的数据

Date: Wed Nov 12 11:31:52 CST 2025
User: PC
Spectrometer: QEPB0408
触发模式: 0
积分时间 (秒): 1.000000E-2
Scans to average: 1
启用暗噪声校正: true
启用非线性校正: false
滑动平均宽度: 0
X轴模式: Wavelengths
Number of Pixels in Spectrum: 1044
>>>>>Begin Spectral Data<<<<<
220.843	0.38
221.644	0.38
222.444	-0.62
223.244	-0.62
224.045	-1.62
224.845	1.38
225.645	-1.62
226.445	-0.62
227.245	-0.62
228.045	0.38
228.845	2.38
229.645	-0.62
230.444	2.38
231.244	-0.62
232.043	1.38
232.843	2.38
233.642	0.38
234.442	2.38
235.241	-1.62
236.04	2.38
236.839	2.38
237.638	1.38
238.437	2.38
239.236	0.38
240.035	2.38
240.833	1.38
241.632	3.38
242.43	-0.62
243.229	1.38
244.027	2.38
244.826	2.38
245.624	3.38
246.422	2.38
247.22	-1.62
248.018	4.38
248.816	2.38
249.614	1.38
250.412	2.38
251.21	1.38
252.007	2.38
252.805	2.38
253.602	3.38
254.4	1.38
255.197	4.38
255.994	0.38
256.791	4.38
257.589	2.38
258.386	4.38
259.183	3.38
259.979	5.38
260.776	3.38
261.573	2.38
262.37	6.38
263.166	6.38
263.963	7.38
264.759	5.38
265.556	5.38
266.352	6.38
267.148	3.38
267.944	6.38
268.74	5.38
269.536	6.38
270.332	8.38
271.128	9.38
271.924	6.38
272.719	6.38
273.515	9.38
274.311	9.38
275.106	10.38
275.901	10.38
276.697	8.38
277.492	7.38
278.287	10.38
279.082	12.38
279.877	10.38
280.672	10.38
281.467	10.38
282.262	8.38
283.056	7.38
283.851	11.38
284.646	12.38
285.44	12.38
286.234	10.38
287.029	10.38
287.823	12.38
288.617	12.38
289.411	11.38
290.205	11.38
290.999	10.38
291.793	9.38
292.587	11.38
293.381	9.38
294.174	14.38
294.968	9.38
295.761	10.38
296.555	11.38
297.348	10.38
298.141	10.38
298.935	9.38
299.728	10.38
300.521	7.38
301.314	11.38
302.107	7.38
302.899	7.38
303.692	7.38
304.485	6.38
305.277	7.38
306.07	8.38
306.862	9.38
307.655	5.38
308.447	7.38
309.239	9.38
310.031	6.38
310.823	7.38
311.615	6.38
312.407	7.38
313.199	5.38
313.991	5.38
314.783	6.38
315.574	4.38
316.366	6.38
317.157	5.38
317.949	5.38
318.74	5.38
319.531	6.38
320.322	4.38
321.113	6.38
321.904	4.38
322.695	4.38
323.486	5.38
324.277	3.38
325.068	1.38
325.858	5.38
326.649	5.38
327.439	3.38
328.23	4.38
329.02	4.38
329.81	4.38
330.6	2.38
331.391	3.38
332.181	2.38
332.971	5.38
333.76	4.38
334.55	5.38
335.34	6.38
336.13	4.38
336.919	5.38
337.709	3.38
338.498	4.38
339.287	5.38
340.077	5.38
340.866	2.38
341.655	3.38
342.444	7.38
343.233	2.38
344.022	2.38
344.811	2.38
345.6	1.38
346.388	2.38
347.177	5.38
347.965	5.38
348.754	3.38
349.542	3.38
350.33	4.38
351.119	2.38
351.907	3.38
352.695	1.38
353.483	5.38
354.271	0.38
355.059	1.38
355.846	1.38
356.634	3.38
357.422	2.38
358.209	3.38
358.997	4.38
359.784	3.38
360.571	2.38
361.359	2.38
362.146	2.38
362.933	4.38
363.72	2.38
364.507	3.38
365.294	1.38
366.081	2.38
366.867	1.38
367.654	3.38
368.44	4.38
369.227	0.38
370.013	2.38
370.8	3.38
371.586	3.38
372.372	3.38
373.158	2.38
373.944	3.38
374.73	3.38
375.516	4.38
376.302	3.38
377.088	2.38
377.873	4.38
378.659	1.38
379.445	1.38
380.23	5.38
381.015	4.38
381.801	4.38
382.586	2.38
383.371	5.38
384.156	1.38
384.941	3.38
385.726	2.38
386.511	1.38
387.296	4.38
388.08	3.38
388.865	3.38
389.649	2.38
390.434	3.38
391.218	1.38
392.003	2.38
392.787	4.38
393.571	1.38
394.355	3.38
395.139	3.38
395.923	3.38
396.707	2.38
397.491	1.38
398.274	5.38
399.058	2.38
399.842	5.38
400.625	4.38
401.408	3.38
402.192	3.38
402.975	3.38
403.758	3.38
404.541	1.38
405.324	2.38
406.107	2.38
406.89	5.38
407.673	4.38
408.456	2.38
409.238	5.38
410.021	5.38
410.803	4.38
411.586	5.38
412.368	6.38
413.151	3.38
413.933	4.38
414.715	7.38
415.497	4.38
416.279	5.38
417.061	6.38
417.843	6.38
418.624	3.38
419.406	4.38
420.188	5.38
420.969	6.38
421.751	7.38
422.532	9.38
423.313	6.38
424.095	6.38
424.876	4.38
425.657	8.38
426.438	5.38
427.219	6.38
428	7.38
428.78	6.38
429.561	7.38
430.342	6.38
431.122	7.38
431.903	6.38
432.683	9.38
433.464	7.38
434.244	9.38
435.024	8.38
435.804	7.38
436.584	9.38
437.364	10.38
438.144	13.38
438.924	9.38
439.704	11.38
440.483	10.38
441.263	12.38
442.042	14.38
442.822	14.38
443.601	14.38
444.38	14.38
445.16	15.38
445.939	18.38
446.718	16.38
447.497	21.38
448.276	18.38
449.054	22.38
449.833	21.38
450.612	21.38
451.391	26.38
452.169	25.38
452.948	32.38
453.726	34.38
454.504	35.38
455.282	40.38
456.061	41.38
456.839	46.38
457.617	51.38
458.395	60.38
459.172	67.38
459.95	69.38
460.728	80.38
461.506	88.38
462.283	93.38
463.061	110.38
463.838	121.38
464.615	136.38
465.393	147.38
466.17	163.38
466.947	184.38
467.724	200.38
468.501	230.38
469.278	265.38
470.055	284.38
470.831	314.38
471.608	356.38
472.385	404.38
473.161	440.38
473.938	498.38
474.714	555.38
475.49	608.38
476.266	679.38
477.043	764.38
477.819	843.38
478.595	925.38
479.371	1043.38
480.146	1136.38
480.922	1259.38
481.698	1405.38
482.473	1551.38
483.249	1720.38
484.024	1894.38
484.8	2114.38
485.575	2327.38
486.35	2561.38
487.126	2824.38
487.901	3138.38
488.676	3454.38
489.451	3807.38
490.225	4182.38
491	4635.38
491.775	5080.38
492.55	5591.38
493.324	6202.38
494.099	6739.38
494.873	7370.38
495.647	8046.38
496.422	8763.38
497.196	9531.38
497.97	10261.38
498.744	11040.38
499.518	11792.38
500.292	12568.38
501.066	13328.38
501.839	14055.38
502.613	14787.38
503.387	15356.38
504.16	15901.38
504.934	16305.38
505.707	16690.38
506.48	16867.38
507.253	16981.38
508.027	17065.38
508.8	16883.38
509.573	16659.38
510.346	16389.38
511.118	16006.38
511.891	15564.38
512.664	15035.38
513.437	14432.38
514.209	13887.38
514.982	13314.38
515.754	12717.38
516.526	12102.38
517.298	11562.38
518.071	11045.38
518.843	10554.38
519.615	10083.38
520.387	9690.38
521.159	9308.38
521.93	8911.38
522.702	8585.38
523.474	8255.38
524.245	7966.38
525.017	7604.38
525.788	7328.38
526.56	6997.38
527.331	6695.38
528.102	6427.38
528.873	6136.38
529.644	5847.38
530.415	5561.38
531.186	5280.38
531.957	4988.38
532.728	4738.38
533.498	4489.38
534.269	4269.38
535.039	4011.38
535.81	3795.38
536.58	3592.38
537.351	3386.38
538.121	3175.38
538.891	3004.38
539.661	2835.38
540.431	2681.38
541.201	2538.38
541.971	2423.38
542.741	2276.38
543.51	2164.38
544.28	2036.38
545.05	1948.38
545.819	1862.38
546.588	1774.38
547.358	1676.38
548.127	1607.38
548.896	1517.38
549.665	1445.38
550.434	1368.38
551.203	1297.38
551.972	1215.38
552.741	1166.38
553.51	1103.38
554.278	1038.38
555.047	977.38
555.815	913.38
556.584	866.38
557.352	814.38
558.121	773.38
558.889	721.38
559.657	682.38
560.425	652.38
561.193	598.38
561.961	574.38
562.729	536.38
563.496	515.38
564.264	485.38
565.032	458.38
565.799	435.38
566.567	410.38
567.334	382.38
568.101	365.38
568.869	347.38
569.636	321.38
570.403	303.38
571.17	291.38
571.937	270.38
572.704	254.38
573.471	247.38
574.237	228.38
575.004	217.38
575.771	202.38
576.537	191.38
577.303	176.38
578.07	167.38
578.836	156.38
579.602	144.38
580.368	142.38
581.134	135.38
581.9	129.38
582.666	121.38
583.432	114.38
584.198	111.38
584.964	98.38
585.729	97.38
586.495	89.38
587.26	83.38
588.025	83.38
588.791	75.38
589.556	74.38
590.321	63.38
591.086	67.38
591.851	65.38
592.616	57.38
593.381	55.38
594.146	49.38
594.911	50.38
595.675	47.38
596.44	47.38
597.204	44.38
597.969	41.38
598.733	37.38
599.497	36.38
600.261	36.38
601.025	33.38
601.79	30.38
602.553	31.38
603.317	29.38
604.081	29.38
604.845	26.38
605.609	26.38
606.372	25.38
607.136	24.38
607.899	24.38
608.662	19.38
609.426	22.38
610.189	21.38
610.952	18.38
611.715	18.38
612.478	17.38
613.241	19.38
614.004	15.38
614.767	14.38
615.529	14.38
616.292	17.38
617.055	12.38
617.817	16.38
618.579	13.38
619.342	13.38
620.104	13.38
620.866	10.38
621.628	13.38
622.39	8.38
623.152	10.38
623.914	11.38
624.676	10.38
625.438	9.38
626.199	9.38
626.961	11.38
627.722	8.38
628.484	9.38
629.245	8.38
630.006	6.38
630.768	7.38
631.529	5.38
632.29	7.38
633.051	7.38
633.812	7.38
634.573	6.38
635.333	7.38
636.094	6.38
636.855	6.38
637.615	8.38
638.376	6.38
639.136	5.38
639.896	5.38
640.657	6.38
641.417	4.38
642.177	5.38
642.937	7.38
643.697	7.38
644.457	3.38
645.216	5.38
645.976	5.38
646.736	5.38
647.495	4.38
648.255	5.38
649.014	5.38
649.774	3.38
650.533	4.38
651.292	5.38
652.051	5.38
652.81	3.38
653.569	5.38
654.328	3.38
655.087	3.38
655.846	2.38
656.604	4.38
657.363	3.38
658.121	4.38
658.88	5.38
659.638	2.38
660.397	2.38
661.155	5.38
661.913	3.38
662.671	2.38
663.429	4.38
664.187	0.38
664.945	2.38
665.703	4.38
666.46	4.38
667.218	3.38
667.976	1.38
668.733	-0.62
669.49	2.38
670.248	2.38
671.005	4.38
671.762	2.38
672.519	2.38
673.276	4.38
674.033	1.38
674.79	4.38
675.547	2.38
676.304	1.38
677.06	3.38
677.817	0.38
678.574	2.38
679.33	2.38
680.086	1.38
680.843	2.38
681.599	0.38
682.355	5.38
683.111	1.38
683.867	3.38
684.623	-0.62
685.379	1.38
686.135	2.38
686.89	2.38
687.646	5.38
688.402	4.38
689.157	3.38
689.912	1.38
690.668	2.38
691.423	1.38
692.178	2.38
692.933	3.38
693.688	1.38
694.443	2.38
695.198	2.38
695.953	1.38
696.708	-0.62
697.462	3.38
698.217	2.38
698.972	1.38
699.726	5.38
700.48	1.38
701.235	2.38
701.989	0.38
702.743	0.38
703.497	3.38
704.251	3.38
705.005	1.38
705.759	4.38
706.513	1.38
707.266	4.38
708.02	2.38
708.774	3.38
709.527	1.38
710.28	1.38
711.034	1.38
711.787	-1.62
712.54	2.38
713.293	1.38
714.046	1.38
714.799	4.38
715.552	1.38
716.305	2.38
717.058	0.38
717.81	2.38
718.563	3.38
719.315	0.38
720.068	2.38
720.82	3.38
721.573	3.38
722.325	1.38
723.077	2.38
723.829	2.38
724.581	2.38
725.333	5.38
726.085	2.38
726.836	1.38
727.588	1.38
728.34	1.38
729.091	2.38
729.843	2.38
730.594	1.38
731.346	3.38
732.097	0.38
732.848	0.38
733.599	2.38
734.35	4.38
735.101	2.38
735.852	3.38
736.603	0.38
737.354	1.38
738.104	2.38
738.855	4.38
739.605	2.38
740.356	1.38
741.106	3.38
741.856	2.38
742.607	3.38
743.357	0.38
744.107	3.38
744.857	3.38
745.607	2.38
746.357	2.38
747.106	2.38
747.856	2.38
748.606	2.38
749.355	-0.62
750.105	1.38
750.854	2.38
751.603	2.38
752.353	1.38
753.102	3.38
753.851	3.38
754.6	5.38
755.349	6.38
756.098	3.38
756.847	0.38
757.595	3.38
758.344	3.38
759.093	2.38
759.841	4.38
760.589	3.38
761.338	1.38
762.086	3.38
762.834	3.38
763.582	5.38
764.331	2.38
765.079	3.38
765.826	3.38
766.574	3.38
767.322	4.38
768.07	4.38
768.817	4.38
769.565	5.38
770.312	2.38
771.06	3.38
771.807	4.38
772.554	6.38
773.302	3.38
774.049	6.38
774.796	4.38
775.543	6.38
776.29	4.38
777.036	3.38
777.783	3.38
778.53	3.38
779.276	7.38
780.023	5.38
780.769	6.38
781.516	5.38
782.262	7.38
783.008	5.38
783.754	5.38
784.5	6.38
785.246	5.38
785.992	3.38
786.738	4.38
787.484	5.38
788.23	7.38
788.975	6.38
789.721	4.38
790.466	5.38
791.212	4.38
791.957	2.38
792.702	5.38
793.447	5.38
794.193	5.38
794.938	4.38
795.683	5.38
796.427	5.38
797.172	6.38
797.917	5.38
798.662	4.38
799.406	3.38
800.151	6.38
800.895	4.38
801.64	2.38
802.384	6.38
803.128	4.38
803.872	6.38
804.616	4.38
805.36	7.38
806.104	4.38
806.848	5.38
807.592	5.38
808.336	1.38
809.079	5.38
809.823	3.38
810.566	2.38
811.31	1.38
812.053	2.38
812.796	2.38
813.539	4.38
814.283	4.38
815.026	2.38
815.769	4.38
816.511	5.38
817.254	4.38
817.997	4.38
818.74	2.38
819.482	2.38
820.225	2.38
820.967	4.38
821.71	3.38
822.452	3.38
823.194	3.38
823.936	2.38
824.678	2.38
825.42	2.38
826.162	3.38
826.904	4.38
827.646	5.38
828.388	2.38
829.129	3.38
829.871	3.38
830.612	2.38
831.354	2.38
832.095	2.38
832.836	1.38
833.577	1.38
834.319	1.38
835.06	2.38
835.801	2.38
836.542	2.38
837.282	3.38
838.023	3.38
838.764	2.38
839.504	5.38
840.245	3.38
840.985	3.38
841.726	0.38
842.466	3.38
843.206	-0.62
843.946	1.38
844.687	0.38
845.427	2.38
846.166	3.38
846.906	2.38
847.646	2.38
848.386	3.38
849.125	1.38
849.865	3.38
850.605	2.38
851.344	1.38
852.083	1.38
852.823	3.38
853.562	1.38
854.301	1.38
855.04	2.38
855.779	2.38
856.518	0.38
857.257	1.38
857.995	2.38
858.734	-0.62
859.473	3.38
860.211	1.38
860.95	3.38
861.688	3.38
862.426	1.38
863.165	2.38
863.903	1.38
864.641	1.38
865.379	-0.62
866.117	2.38
866.855	1.38
867.593	0.38
868.33	2.38
869.068	0.38
869.806	0.38
870.543	1.38
871.28	0.38
872.018	2.38
872.755	0.38
873.492	-0.62
874.229	0.38
874.967	1.38
875.703	1.38
876.44	2.38
877.177	2.38
877.914	-0.62
878.651	0.38
879.387	1.38
880.124	1.38
880.86	2.38
881.597	2.38
882.333	-1.62
883.069	0.38
883.806	2.38
884.542	-0.62
885.278	0.38
886.014	0.38
886.749	2.38
887.485	0.38
888.221	0.38
888.957	1.38
889.692	-1.62
890.428	-0.62
891.163	0.38
891.899	-0.62
892.634	1.38
893.369	0.38
894.104	1.38
894.839	-1.62
895.574	1.38
896.309	0.38
897.044	-0.62
897.779	2.38
898.514	0.38
899.248	1.38
899.983	-0.62
900.717	-0.62
901.452	-0.62
902.186	-1.62
902.92	2.38
903.654	1.38
904.389	1.38
905.123	-1.62
905.857	-0.62
906.59	-1.62
907.324	0.38
908.058	-0.62
908.792	0.38
909.525	-0.62
910.259	1.38
910.992	-0.62
911.726	0.38
912.459	-0.62
913.192	-0.62
913.925	0.38
914.658	0.38
915.391	-0.62
916.124	-1.62
916.857	-0.62
917.59	1.38
918.323	-0.62
919.055	0.38
919.788	1.38
920.521	0.38
921.253	0.38
921.985	-1.62
922.718	0.38
923.45	2.38
924.182	-0.62
924.914	1.38
925.646	-0.62
926.378	0.38
927.11	2.38
927.841	0.38
928.573	1.38
929.305	-0.62
930.036	0.38
930.768	2.38
931.499	-0.62
932.23	-0.62
932.962	-1.62
933.693	1.38
934.424	0.38
935.155	0.38
935.886	1.38
936.617	1.38
937.348	0.38
938.078	-1.62
938.809	-0.62
939.54	1.38
940.27	1.38
941.001	-1.62
941.731	0.38
942.461	0.38
943.191	0.38
943.922	0.38
944.652	2.38
945.382	-1.62
946.112	1.38
946.841	1.38
947.571	1.38
948.301	-0.62
949.031	-0.62
949.76	1.38
950.49	-0.62
951.219	2.38
951.948	0.38
952.678	0.38
953.407	1.38
954.136	0.38
954.865	0.38
955.594	1.38
956.323	0.38
957.052	-1.62
957.78	1.38
958.509	-1.62
959.238	0.38
959.966	1.38
960.695	-0.62
961.423	-0.62
962.151	-2.62
962.88	-0.62
963.608	0.38
964.336	1.38
965.064	-0.62
965.792	1.38
966.52	-1.62
967.247	-2.62
967.975	1.38
968.703	0.38
969.43	0.38
970.158	0.38
970.885	0.38
971.613	-0.62
972.34	-0.62
973.067	1.38
973.794	-0.62
974.521	-1.62
975.248	-1.62
975.975	-0.62
976.702	1.38
977.429	-0.62
978.156	1.38
978.882	1.38
979.609	-0.62
980.335	1.38
981.062	-1.62
981.788	1.38
982.514	-0.62
983.24	-0.62
983.967	-0.62
984.693	1.38
985.419	1.38
986.144	1.38
986.87	0.38
987.596	-0.62
988.322	-1.62
989.047	-0.62
989.773	0.38
990.498	0.38
991.224	-1.62
991.949	-0.62
992.674	-1.62
993.399	0.38
994.124	0.38
994.849	1.38
995.574	0.38
996.299	-1.62
997.024	1.38
997.749	0.38
998.473	0.38
999.198	0.38
999.922	1.38
1000.647	1.38
1001.371	2.38
1002.095	-0.62
1002.82	-0.62
1003.544	-0.62
1004.268	1.38
1004.992	-1.62
1005.716	1.38
1006.439	-1.62
1007.163	-1.62
1007.887	1.38
1008.611	0.38
1009.334	1.38
1010.058	-0.62
1010.781	0.38
1011.504	0.38
1012.228	-0.62
1012.951	1.38
1013.674	-2.62
1014.397	0.38
1015.12	0.38
