节点500_145_QEPB04081__259__11-33-07-464.txt的数据

Date: Wed Nov 12 11:33:07 CST 2025
User: PC
Spectrometer: QEPB0408
触发模式: 0
积分时间 (秒): 1.000000E-2
Scans to average: 1
启用暗噪声校正: true
启用非线性校正: false
滑动平均宽度: 0
X轴模式: Wavelengths
Number of Pixels in Spectrum: 1044
>>>>>Begin Spectral Data<<<<<
220.843	-1.5
221.644	0.5
222.444	0.5
223.244	-1.5
224.045	-0.5
224.845	1.5
225.645	1.5
226.445	0.5
227.245	1.5
228.045	0.5
228.845	-0.5
229.645	-0.5
230.444	1.5
231.244	0.5
232.043	3.5
232.843	1.5
233.642	-1.5
234.442	2.5
235.241	1.5
236.04	1.5
236.839	0.5
237.638	-1.5
238.437	1.5
239.236	2.5
240.035	2.5
240.833	2.5
241.632	3.5
242.43	1.5
243.229	0.5
244.027	3.5
244.826	1.5
245.624	2.5
246.422	2.5
247.22	1.5
248.018	3.5
248.816	2.5
249.614	2.5
250.412	2.5
251.21	2.5
252.007	2.5
252.805	3.5
253.602	3.5
254.4	2.5
255.197	3.5
255.994	2.5
256.791	3.5
257.589	2.5
258.386	5.5
259.183	2.5
259.979	5.5
260.776	2.5
261.573	2.5
262.37	5.5
263.166	6.5
263.963	5.5
264.759	5.5
265.556	7.5
266.352	5.5
267.148	5.5
267.944	7.5
268.74	6.5
269.536	5.5
270.332	9.5
271.128	7.5
271.924	8.5
272.719	7.5
273.515	9.5
274.311	10.5
275.106	7.5
275.901	9.5
276.697	6.5
277.492	8.5
278.287	10.5
279.082	12.5
279.877	6.5
280.672	10.5
281.467	11.5
282.262	11.5
283.056	10.5
283.851	10.5
284.646	10.5
285.44	12.5
286.234	9.5
287.029	10.5
287.823	11.5
288.617	10.5
289.411	10.5
290.205	13.5
290.999	11.5
291.793	9.5
292.587	12.5
293.381	12.5
294.174	11.5
294.968	9.5
295.761	12.5
296.555	11.5
297.348	7.5
298.141	10.5
298.935	10.5
299.728	9.5
300.521	11.5
301.314	9.5
302.107	8.5
302.899	9.5
303.692	10.5
304.485	8.5
305.277	11.5
306.07	8.5
306.862	8.5
307.655	9.5
308.447	8.5
309.239	7.5
310.031	7.5
310.823	8.5
311.615	7.5
312.407	7.5
313.199	6.5
313.991	5.5
314.783	6.5
315.574	6.5
316.366	7.5
317.157	5.5
317.949	5.5
318.74	5.5
319.531	5.5
320.322	3.5
321.113	3.5
321.904	5.5
322.695	2.5
323.486	5.5
324.277	7.5
325.068	4.5
325.858	5.5
326.649	4.5
327.439	7.5
328.23	4.5
329.02	4.5
329.81	5.5
330.6	2.5
331.391	4.5
332.181	4.5
332.971	3.5
333.76	5.5
334.55	4.5
335.34	5.5
336.13	1.5
336.919	3.5
337.709	4.5
338.498	4.5
339.287	2.5
340.077	3.5
340.866	2.5
341.655	5.5
342.444	4.5
343.233	3.5
344.022	4.5
344.811	3.5
345.6	2.5
346.388	3.5
347.177	4.5
347.965	3.5
348.754	5.5
349.542	5.5
350.33	3.5
351.119	4.5
351.907	3.5
352.695	3.5
353.483	3.5
354.271	2.5
355.059	4.5
355.846	2.5
356.634	0.5
357.422	2.5
358.209	3.5
358.997	4.5
359.784	4.5
360.571	2.5
361.359	3.5
362.146	2.5
362.933	1.5
363.72	2.5
364.507	1.5
365.294	2.5
366.081	2.5
366.867	5.5
367.654	-0.5
368.44	3.5
369.227	3.5
370.013	4.5
370.8	3.5
371.586	1.5
372.372	3.5
373.158	-0.5
373.944	3.5
374.73	0.5
375.516	3.5
376.302	2.5
377.088	2.5
377.873	4.5
378.659	0.5
379.445	4.5
380.23	3.5
381.015	4.5
381.801	1.5
382.586	3.5
383.371	4.5
384.156	1.5
384.941	3.5
385.726	3.5
386.511	3.5
387.296	3.5
388.08	2.5
388.865	4.5
389.649	2.5
390.434	2.5
391.218	1.5
392.003	3.5
392.787	3.5
393.571	2.5
394.355	3.5
395.139	2.5
395.923	6.5
396.707	2.5
397.491	3.5
398.274	3.5
399.058	2.5
399.842	2.5
400.625	2.5
401.408	3.5
402.192	3.5
402.975	4.5
403.758	3.5
404.541	3.5
405.324	5.5
406.107	2.5
406.89	4.5
407.673	3.5
408.456	5.5
409.238	6.5
410.021	4.5
410.803	5.5
411.586	3.5
412.368	6.5
413.151	4.5
413.933	3.5
414.715	7.5
415.497	5.5
416.279	6.5
417.061	2.5
417.843	5.5
418.624	2.5
419.406	6.5
420.188	5.5
420.969	3.5
421.751	8.5
422.532	4.5
423.313	8.5
424.095	5.5
424.876	3.5
425.657	6.5
426.438	7.5
427.219	8.5
428	8.5
428.78	5.5
429.561	8.5
430.342	6.5
431.122	6.5
431.903	7.5
432.683	9.5
433.464	7.5
434.244	9.5
435.024	9.5
435.804	10.5
436.584	8.5
437.364	8.5
438.144	12.5
438.924	10.5
439.704	12.5
440.483	13.5
441.263	12.5
442.042	9.5
442.822	13.5
443.601	15.5
444.38	15.5
445.16	16.5
445.939	16.5
446.718	20.5
447.497	19.5
448.276	19.5
449.054	19.5
449.833	24.5
450.612	25.5
451.391	26.5
452.169	29.5
452.948	33.5
453.726	30.5
454.504	37.5
455.282	43.5
456.061	44.5
456.839	49.5
457.617	56.5
458.395	59.5
459.172	65.5
459.95	75.5
460.728	85.5
461.506	93.5
462.283	97.5
463.061	111.5
463.838	124.5
464.615	137.5
465.393	153.5
466.17	171.5
466.947	191.5
467.724	214.5
468.501	236.5
469.278	261.5
470.055	301.5
470.831	329.5
471.608	373.5
472.385	410.5
473.161	456.5
473.938	504.5
474.714	568.5
475.49	632.5
476.266	682.5
477.043	762.5
477.819	850.5
478.595	936.5
479.371	1040.5
480.146	1142.5
480.922	1274.5
481.698	1411.5
482.473	1546.5
483.249	1692.5
484.024	1869.5
484.8	2068.5
485.575	2275.5
486.35	2526.5
487.126	2774.5
487.901	3059.5
488.676	3359.5
489.451	3735.5
490.225	4091.5
491	4489.5
491.775	4915.5
492.55	5415.5
493.324	5954.5
494.099	6484.5
494.873	7088.5
495.647	7732.5
496.422	8413.5
497.196	9142.5
497.97	9795.5
498.744	10588.5
499.518	11320.5
500.292	12044.5
501.066	12796.5
501.839	13458.5
502.613	14158.5
503.387	14802.5
504.16	15366.5
504.934	15860.5
505.707	16131.5
506.48	16395.5
507.253	16568.5
508.027	16669.5
508.8	16515.5
509.573	16398.5
510.346	16078.5
511.118	15736.5
511.891	15361.5
512.664	14864.5
513.437	14322.5
514.209	13764.5
514.982	13257.5
515.754	12725.5
516.526	12179.5
517.298	11636.5
518.071	11117.5
518.843	10599.5
519.615	10150.5
520.387	9751.5
521.159	9343.5
521.93	8958.5
522.702	8574.5
523.474	8304.5
524.245	7943.5
525.017	7644.5
525.788	7345.5
526.56	7049.5
527.331	6727.5
528.102	6459.5
528.873	6150.5
529.644	5886.5
530.415	5624.5
531.186	5321.5
531.957	5074.5
532.728	4819.5
533.498	4549.5
534.269	4293.5
535.039	4059.5
535.81	3847.5
536.58	3622.5
537.351	3442.5
538.121	3243.5
538.891	3039.5
539.661	2861.5
540.431	2706.5
541.201	2573.5
541.971	2443.5
542.741	2319.5
543.51	2182.5
544.28	2091.5
545.05	1966.5
545.819	1892.5
546.588	1793.5
547.358	1713.5
548.127	1624.5
548.896	1533.5
549.665	1469.5
550.434	1380.5
551.203	1313.5
551.972	1239.5
552.741	1186.5
553.51	1117.5
554.278	1053.5
555.047	998.5
555.815	942.5
556.584	892.5
557.352	834.5
558.121	780.5
558.889	744.5
559.657	687.5
560.425	656.5
561.193	619.5
561.961	591.5
562.729	561.5
563.496	523.5
564.264	487.5
565.032	469.5
565.799	435.5
566.567	405.5
567.334	387.5
568.101	368.5
568.869	346.5
569.636	324.5
570.403	312.5
571.17	293.5
571.937	281.5
572.704	261.5
573.471	245.5
574.237	228.5
575.004	219.5
575.771	207.5
576.537	192.5
577.303	184.5
578.07	170.5
578.836	160.5
579.602	153.5
580.368	141.5
581.134	137.5
581.9	129.5
582.666	117.5
583.432	115.5
584.198	113.5
584.964	103.5
585.729	98.5
586.495	92.5
587.26	85.5
588.025	79.5
588.791	79.5
589.556	70.5
590.321	70.5
591.086	65.5
591.851	62.5
592.616	64.5
593.381	56.5
594.146	56.5
594.911	50.5
595.675	48.5
596.44	44.5
597.204	42.5
597.969	40.5
598.733	39.5
599.497	39.5
600.261	35.5
601.025	37.5
601.79	35.5
602.553	31.5
603.317	32.5
604.081	27.5
604.845	30.5
605.609	27.5
606.372	28.5
607.136	24.5
607.899	21.5
608.662	23.5
609.426	19.5
610.189	19.5
610.952	20.5
611.715	18.5
612.478	22.5
613.241	16.5
614.004	20.5
614.767	18.5
615.529	14.5
616.292	15.5
617.055	13.5
617.817	14.5
618.579	10.5
619.342	13.5
620.104	13.5
620.866	10.5
621.628	10.5
622.39	11.5
623.152	11.5
623.914	10.5
624.676	10.5
625.438	10.5
626.199	8.5
626.961	10.5
627.722	5.5
628.484	10.5
629.245	7.5
630.006	7.5
630.768	8.5
631.529	8.5
632.29	7.5
633.051	6.5
633.812	9.5
634.573	4.5
635.333	4.5
636.094	6.5
636.855	7.5
637.615	5.5
638.376	7.5
639.136	3.5
639.896	6.5
640.657	6.5
641.417	4.5
642.177	8.5
642.937	6.5
643.697	1.5
644.457	4.5
645.216	5.5
645.976	5.5
646.736	7.5
647.495	4.5
648.255	5.5
649.014	5.5
649.774	2.5
650.533	1.5
651.292	3.5
652.051	4.5
652.81	4.5
653.569	5.5
654.328	3.5
655.087	5.5
655.846	6.5
656.604	4.5
657.363	3.5
658.121	4.5
658.88	2.5
659.638	3.5
660.397	4.5
661.155	2.5
661.913	2.5
662.671	3.5
663.429	2.5
664.187	3.5
664.945	1.5
665.703	4.5
666.46	3.5
667.218	2.5
667.976	2.5
668.733	4.5
669.49	3.5
670.248	2.5
671.005	3.5
671.762	2.5
672.519	4.5
673.276	3.5
674.033	1.5
674.79	3.5
675.547	2.5
676.304	3.5
677.06	2.5
677.817	3.5
678.574	2.5
679.33	1.5
680.086	2.5
680.843	0.5
681.599	3.5
682.355	2.5
683.111	1.5
683.867	1.5
684.623	2.5
685.379	3.5
686.135	3.5
686.89	3.5
687.646	1.5
688.402	4.5
689.157	2.5
689.912	1.5
690.668	4.5
691.423	0.5
692.178	2.5
692.933	1.5
693.688	1.5
694.443	0.5
695.198	1.5
695.953	1.5
696.708	0.5
697.462	3.5
698.217	2.5
698.972	3.5
699.726	4.5
700.48	-0.5
701.235	2.5
701.989	4.5
702.743	-0.5
703.497	1.5
704.251	2.5
705.005	1.5
705.759	1.5
706.513	1.5
707.266	2.5
708.02	2.5
708.774	1.5
709.527	4.5
710.28	2.5
711.034	-0.5
711.787	4.5
712.54	1.5
713.293	0.5
714.046	2.5
714.799	2.5
715.552	3.5
716.305	3.5
717.058	1.5
717.81	-0.5
718.563	2.5
719.315	3.5
720.068	5.5
720.82	1.5
721.573	2.5
722.325	2.5
723.077	5.5
723.829	1.5
724.581	1.5
725.333	1.5
726.085	1.5
726.836	2.5
727.588	1.5
728.34	2.5
729.091	4.5
729.843	5.5
730.594	2.5
731.346	1.5
732.097	2.5
732.848	2.5
733.599	5.5
734.35	3.5
735.101	2.5
735.852	1.5
736.603	3.5
737.354	-0.5
738.104	2.5
738.855	2.5
739.605	-0.5
740.356	2.5
741.106	1.5
741.856	3.5
742.607	0.5
743.357	4.5
744.107	2.5
744.857	2.5
745.607	3.5
746.357	2.5
747.106	2.5
747.856	1.5
748.606	3.5
749.355	5.5
750.105	1.5
750.854	1.5
751.603	2.5
752.353	3.5
753.102	3.5
753.851	1.5
754.6	1.5
755.349	1.5
756.098	2.5
756.847	2.5
757.595	5.5
758.344	5.5
759.093	3.5
759.841	2.5
760.589	3.5
761.338	4.5
762.086	2.5
762.834	2.5
763.582	2.5
764.331	4.5
765.079	5.5
765.826	3.5
766.574	3.5
767.322	3.5
768.07	3.5
768.817	3.5
769.565	5.5
770.312	3.5
771.06	4.5
771.807	5.5
772.554	3.5
773.302	4.5
774.049	3.5
774.796	4.5
775.543	2.5
776.29	3.5
777.036	6.5
777.783	3.5
778.53	2.5
779.276	4.5
780.023	4.5
780.769	3.5
781.516	4.5
782.262	4.5
783.008	4.5
783.754	4.5
784.5	5.5
785.246	5.5
785.992	7.5
786.738	4.5
787.484	6.5
788.23	6.5
788.975	5.5
789.721	6.5
790.466	5.5
791.212	4.5
791.957	4.5
792.702	6.5
793.447	5.5
794.193	5.5
794.938	5.5
795.683	5.5
796.427	4.5
797.172	4.5
797.917	2.5
798.662	6.5
799.406	6.5
800.151	4.5
800.895	3.5
801.64	4.5
802.384	5.5
803.128	5.5
803.872	3.5
804.616	9.5
805.36	2.5
806.104	2.5
806.848	5.5
807.592	5.5
808.336	5.5
809.079	4.5
809.823	5.5
810.566	3.5
811.31	4.5
812.053	2.5
812.796	1.5
813.539	4.5
814.283	4.5
815.026	1.5
815.769	4.5
816.511	2.5
817.254	4.5
817.997	4.5
818.74	4.5
819.482	2.5
820.225	2.5
820.967	1.5
821.71	1.5
822.452	5.5
823.194	4.5
823.936	2.5
824.678	2.5
825.42	2.5
826.162	2.5
826.904	2.5
827.646	5.5
828.388	3.5
829.129	1.5
829.871	3.5
830.612	-1.5
831.354	2.5
832.095	0.5
832.836	3.5
833.577	0.5
834.319	2.5
835.06	2.5
835.801	0.5
836.542	4.5
837.282	2.5
838.023	2.5
838.764	1.5
839.504	3.5
840.245	2.5
840.985	2.5
841.726	0.5
842.466	3.5
843.206	2.5
843.946	2.5
844.687	3.5
845.427	2.5
846.166	3.5
846.906	3.5
847.646	2.5
848.386	3.5
849.125	3.5
849.865	2.5
850.605	5.5
851.344	1.5
852.083	1.5
852.823	2.5
853.562	2.5
854.301	2.5
855.04	1.5
855.779	1.5
856.518	1.5
857.257	3.5
857.995	1.5
858.734	3.5
859.473	1.5
860.211	0.5
860.95	0.5
861.688	1.5
862.426	3.5
863.165	1.5
863.903	0.5
864.641	2.5
865.379	2.5
866.117	0.5
866.855	-1.5
867.593	2.5
868.33	1.5
869.068	1.5
869.806	2.5
870.543	-1.5
871.28	1.5
872.018	-0.5
872.755	3.5
873.492	-1.5
874.229	1.5
874.967	1.5
875.703	1.5
876.44	1.5
877.177	1.5
877.914	3.5
878.651	1.5
879.387	0.5
880.124	1.5
880.86	0.5
881.597	0.5
882.333	1.5
883.069	0.5
883.806	4.5
884.542	-1.5
885.278	0.5
886.014	1.5
886.749	0.5
887.485	-0.5
888.221	2.5
888.957	2.5
889.692	-1.5
890.428	1.5
891.163	2.5
891.899	0.5
892.634	-0.5
893.369	1.5
894.104	1.5
894.839	1.5
895.574	1.5
896.309	1.5
897.044	2.5
897.779	-0.5
898.514	0.5
899.248	0.5
899.983	2.5
900.717	0.5
901.452	-1.5
902.186	1.5
902.92	-0.5
903.654	4.5
904.389	0.5
905.123	0.5
905.857	0.5
906.59	1.5
907.324	2.5
908.058	1.5
908.792	0.5
909.525	0.5
910.259	0.5
910.992	1.5
911.726	-1.5
912.459	1.5
913.192	-0.5
913.925	2.5
914.658	0.5
915.391	-1.5
916.124	0.5
916.857	-0.5
917.59	0.5
918.323	1.5
919.055	0.5
919.788	4.5
920.521	-0.5
921.253	0.5
921.985	1.5
922.718	1.5
923.45	-0.5
924.182	3.5
924.914	2.5
925.646	0.5
926.378	0.5
927.11	-0.5
927.841	-0.5
928.573	0.5
929.305	-0.5
930.036	1.5
930.768	-0.5
931.499	0.5
932.23	0.5
932.962	1.5
933.693	1.5
934.424	-0.5
935.155	1.5
935.886	1.5
936.617	-0.5
937.348	0.5
938.078	-1.5
938.809	-0.5
939.54	0.5
940.27	-1.5
941.001	0.5
941.731	1.5
942.461	0.5
943.191	0.5
943.922	-1.5
944.652	0.5
945.382	1.5
946.112	0.5
946.841	1.5
947.571	-0.5
948.301	-0.5
949.031	-0.5
949.76	0.5
950.49	1.5
951.219	-1.5
951.948	-0.5
952.678	-0.5
953.407	-0.5
954.136	0.5
954.865	0.5
955.594	0.5
956.323	-0.5
957.052	0.5
957.78	-0.5
958.509	-0.5
959.238	-1.5
959.966	-0.5
960.695	0.5
961.423	-1.5
962.151	0.5
962.88	-0.5
963.608	0.5
964.336	-0.5
965.064	-1.5
965.792	-0.5
966.52	-0.5
967.247	1.5
967.975	-1.5
968.703	2.5
969.43	-0.5
970.158	-0.5
970.885	-0.5
971.613	-2.5
972.34	0.5
973.067	-1.5
973.794	0.5
974.521	-1.5
975.248	2.5
975.975	-0.5
976.702	-2.5
977.429	-0.5
978.156	3.5
978.882	1.5
979.609	-1.5
980.335	1.5
981.062	-1.5
981.788	-0.5
982.514	-0.5
983.24	0.5
983.967	2.5
984.693	0.5
985.419	1.5
986.144	0.5
986.87	-0.5
987.596	0.5
988.322	0.5
989.047	-1.5
989.773	-0.5
990.498	0.5
991.224	-0.5
991.949	-1.5
992.674	2.5
993.399	1.5
994.124	0.5
994.849	0.5
995.574	0.5
996.299	2.5
997.024	-1.5
997.749	2.5
998.473	1.5
999.198	0.5
999.922	1.5
1000.647	0.5
1001.371	3.5
1002.095	-1.5
1002.82	-2.5
1003.544	0.5
1004.268	-0.5
1004.992	-1.5
1005.716	0.5
1006.439	-0.5
1007.163	0.5
1007.887	-0.5
1008.611	-0.5
1009.334	0.5
1010.058	1.5
1010.781	0.5
1011.504	2.5
1012.228	-0.5
1012.951	-1.5
1013.674	0.5
1014.397	-0.5
1015.12	1.5
