节点500_145_QEPB04081__269__11-33-16-519.txt的数据

Date: Wed Nov 12 11:33:16 CST 2025
User: PC
Spectrometer: QEPB0408
触发模式: 0
积分时间 (秒): 1.000000E-2
Scans to average: 1
启用暗噪声校正: true
启用非线性校正: false
滑动平均宽度: 0
X轴模式: Wavelengths
Number of Pixels in Spectrum: 1044
>>>>>Begin Spectral Data<<<<<
220.843	-1.38
221.644	-1.38
222.444	-0.38
223.244	-1.38
224.045	3.62
224.845	-0.38
225.645	-0.38
226.445	-1.38
227.245	-0.38
228.045	-0.38
228.845	-0.38
229.645	0.62
230.444	-0.38
231.244	2.62
232.043	1.62
232.843	1.62
233.642	1.62
234.442	2.62
235.241	-0.38
236.04	-0.38
236.839	2.62
237.638	0.62
238.437	0.62
239.236	1.62
240.035	2.62
240.833	2.62
241.632	1.62
242.43	1.62
243.229	1.62
244.027	2.62
244.826	3.62
245.624	3.62
246.422	1.62
247.22	2.62
248.018	0.62
248.816	3.62
249.614	2.62
250.412	3.62
251.21	4.62
252.007	3.62
252.805	4.62
253.602	2.62
254.4	2.62
255.197	2.62
255.994	1.62
256.791	2.62
257.589	3.62
258.386	4.62
259.183	3.62
259.979	5.62
260.776	3.62
261.573	2.62
262.37	8.62
263.166	5.62
263.963	4.62
264.759	7.62
265.556	7.62
266.352	7.62
267.148	6.62
267.944	9.62
268.74	6.62
269.536	7.62
270.332	4.62
271.128	7.62
271.924	7.62
272.719	9.62
273.515	9.62
274.311	8.62
275.106	6.62
275.901	11.62
276.697	9.62
277.492	8.62
278.287	9.62
279.082	9.62
279.877	11.62
280.672	10.62
281.467	9.62
282.262	12.62
283.056	8.62
283.851	11.62
284.646	7.62
285.44	10.62
286.234	10.62
287.029	10.62
287.823	9.62
288.617	10.62
289.411	13.62
290.205	11.62
290.999	9.62
291.793	9.62
292.587	12.62
293.381	9.62
294.174	12.62
294.968	13.62
295.761	9.62
296.555	13.62
297.348	11.62
298.141	10.62
298.935	10.62
299.728	8.62
300.521	9.62
301.314	9.62
302.107	8.62
302.899	8.62
303.692	9.62
304.485	10.62
305.277	7.62
306.07	9.62
306.862	7.62
307.655	11.62
308.447	6.62
309.239	7.62
310.031	7.62
310.823	6.62
311.615	9.62
312.407	7.62
313.199	6.62
313.991	7.62
314.783	5.62
315.574	6.62
316.366	3.62
317.157	6.62
317.949	7.62
318.74	4.62
319.531	7.62
320.322	5.62
321.113	5.62
321.904	5.62
322.695	5.62
323.486	3.62
324.277	5.62
325.068	4.62
325.858	4.62
326.649	2.62
327.439	3.62
328.23	5.62
329.02	4.62
329.81	3.62
330.6	3.62
331.391	3.62
332.181	4.62
332.971	2.62
333.76	1.62
334.55	5.62
335.34	4.62
336.13	3.62
336.919	3.62
337.709	3.62
338.498	4.62
339.287	3.62
340.077	4.62
340.866	5.62
341.655	2.62
342.444	5.62
343.233	4.62
344.022	4.62
344.811	4.62
345.6	2.62
346.388	3.62
347.177	4.62
347.965	3.62
348.754	2.62
349.542	2.62
350.33	3.62
351.119	3.62
351.907	1.62
352.695	2.62
353.483	1.62
354.271	3.62
355.059	3.62
355.846	2.62
356.634	2.62
357.422	5.62
358.209	3.62
358.997	2.62
359.784	4.62
360.571	2.62
361.359	4.62
362.146	3.62
362.933	4.62
363.72	3.62
364.507	3.62
365.294	2.62
366.081	2.62
366.867	2.62
367.654	3.62
368.44	2.62
369.227	2.62
370.013	2.62
370.8	1.62
371.586	3.62
372.372	3.62
373.158	3.62
373.944	4.62
374.73	4.62
375.516	3.62
376.302	4.62
377.088	1.62
377.873	3.62
378.659	3.62
379.445	4.62
380.23	5.62
381.015	1.62
381.801	2.62
382.586	3.62
383.371	4.62
384.156	4.62
384.941	5.62
385.726	3.62
386.511	2.62
387.296	2.62
388.08	4.62
388.865	3.62
389.649	4.62
390.434	1.62
391.218	3.62
392.003	0.62
392.787	5.62
393.571	2.62
394.355	0.62
395.139	5.62
395.923	3.62
396.707	4.62
397.491	2.62
398.274	6.62
399.058	3.62
399.842	5.62
400.625	0.62
401.408	2.62
402.192	3.62
402.975	4.62
403.758	5.62
404.541	2.62
405.324	2.62
406.107	5.62
406.89	5.62
407.673	6.62
408.456	4.62
409.238	2.62
410.021	4.62
410.803	5.62
411.586	4.62
412.368	4.62
413.151	6.62
413.933	4.62
414.715	5.62
415.497	8.62
416.279	4.62
417.061	6.62
417.843	5.62
418.624	7.62
419.406	6.62
420.188	5.62
420.969	5.62
421.751	5.62
422.532	6.62
423.313	5.62
424.095	7.62
424.876	5.62
425.657	6.62
426.438	6.62
427.219	5.62
428	6.62
428.78	6.62
429.561	8.62
430.342	8.62
431.122	9.62
431.903	8.62
432.683	7.62
433.464	8.62
434.244	9.62
435.024	8.62
435.804	7.62
436.584	10.62
437.364	9.62
438.144	9.62
438.924	10.62
439.704	12.62
440.483	11.62
441.263	12.62
442.042	10.62
442.822	11.62
443.601	12.62
444.38	13.62
445.16	14.62
445.939	17.62
446.718	17.62
447.497	17.62
448.276	18.62
449.054	22.62
449.833	22.62
450.612	23.62
451.391	28.62
452.169	28.62
452.948	31.62
453.726	35.62
454.504	35.62
455.282	40.62
456.061	44.62
456.839	49.62
457.617	51.62
458.395	59.62
459.172	64.62
459.95	71.62
460.728	82.62
461.506	87.62
462.283	105.62
463.061	113.62
463.838	124.62
464.615	137.62
465.393	153.62
466.17	172.62
466.947	193.62
467.724	209.62
468.501	239.62
469.278	264.62
470.055	294.62
470.831	328.62
471.608	373.62
472.385	414.62
473.161	450.62
473.938	500.62
474.714	551.62
475.49	622.62
476.266	689.62
477.043	771.62
477.819	851.62
478.595	929.62
479.371	1040.62
480.146	1145.62
480.922	1273.62
481.698	1395.62
482.473	1550.62
483.249	1713.62
484.024	1885.62
484.8	2080.62
485.575	2302.62
486.35	2526.62
487.126	2782.62
487.901	3074.62
488.676	3342.62
489.451	3699.62
490.225	4101.62
491	4495.62
491.775	4932.62
492.55	5397.62
493.324	5923.62
494.099	6473.62
494.873	7054.62
495.647	7678.62
496.422	8378.62
497.196	9071.62
497.97	9781.62
498.744	10535.62
499.518	11296.62
500.292	12010.62
501.066	12747.62
501.839	13462.62
502.613	14117.62
503.387	14780.62
504.16	15335.62
504.934	15721.62
505.707	16068.62
506.48	16347.62
507.253	16507.62
508.027	16604.62
508.8	16506.62
509.573	16302.62
510.346	16073.62
511.118	15747.62
511.891	15374.62
512.664	14838.62
513.437	14363.62
514.209	13802.62
514.982	13312.62
515.754	12716.62
516.526	12161.62
517.298	11645.62
518.071	11108.62
518.843	10626.62
519.615	10158.62
520.387	9745.62
521.159	9373.62
521.93	8983.62
522.702	8573.62
523.474	8272.62
524.245	7956.62
525.017	7648.62
525.788	7330.62
526.56	7045.62
527.331	6723.62
528.102	6456.62
528.873	6170.62
529.644	5923.62
530.415	5611.62
531.186	5366.62
531.957	5094.62
532.728	4822.62
533.498	4568.62
534.269	4332.62
535.039	4077.62
535.81	3853.62
536.58	3631.62
537.351	3422.62
538.121	3235.62
538.891	3073.62
539.661	2892.62
540.431	2728.62
541.201	2585.62
541.971	2436.62
542.741	2331.62
543.51	2200.62
544.28	2086.62
545.05	1993.62
545.819	1894.62
546.588	1813.62
547.358	1712.62
548.127	1632.62
548.896	1550.62
549.665	1473.62
550.434	1389.62
551.203	1310.62
551.972	1251.62
552.741	1176.62
553.51	1115.62
554.278	1058.62
555.047	1000.62
555.815	933.62
556.584	895.62
557.352	845.62
558.121	782.62
558.889	743.62
559.657	698.62
560.425	659.62
561.193	628.62
561.961	593.62
562.729	551.62
563.496	530.62
564.264	494.62
565.032	463.62
565.799	441.62
566.567	422.62
567.334	391.62
568.101	377.62
568.869	350.62
569.636	337.62
570.403	309.62
571.17	288.62
571.937	274.62
572.704	263.62
573.471	246.62
574.237	227.62
575.004	217.62
575.771	209.62
576.537	193.62
577.303	182.62
578.07	169.62
578.836	160.62
579.602	153.62
580.368	146.62
581.134	136.62
581.9	133.62
582.666	124.62
583.432	115.62
584.198	108.62
584.964	102.62
585.729	102.62
586.495	93.62
587.26	87.62
588.025	82.62
588.791	77.62
589.556	72.62
590.321	69.62
591.086	66.62
591.851	66.62
592.616	58.62
593.381	53.62
594.146	51.62
594.911	48.62
595.675	46.62
596.44	47.62
597.204	46.62
597.969	42.62
598.733	41.62
599.497	36.62
600.261	38.62
601.025	33.62
601.79	34.62
602.553	35.62
603.317	29.62
604.081	28.62
604.845	28.62
605.609	29.62
606.372	26.62
607.136	25.62
607.899	24.62
608.662	22.62
609.426	24.62
610.189	20.62
610.952	20.62
611.715	20.62
612.478	19.62
613.241	19.62
614.004	18.62
614.767	17.62
615.529	17.62
616.292	14.62
617.055	13.62
617.817	16.62
618.579	13.62
619.342	11.62
620.104	12.62
620.866	12.62
621.628	13.62
622.39	10.62
623.152	11.62
623.914	8.62
624.676	8.62
625.438	9.62
626.199	7.62
626.961	8.62
627.722	6.62
628.484	10.62
629.245	8.62
630.006	5.62
630.768	9.62
631.529	7.62
632.29	7.62
633.051	8.62
633.812	7.62
634.573	6.62
635.333	5.62
636.094	7.62
636.855	7.62
637.615	9.62
638.376	6.62
639.136	3.62
639.896	9.62
640.657	6.62
641.417	7.62
642.177	7.62
642.937	4.62
643.697	3.62
644.457	4.62
645.216	7.62
645.976	6.62
646.736	5.62
647.495	5.62
648.255	3.62
649.014	6.62
649.774	3.62
650.533	4.62
651.292	6.62
652.051	2.62
652.81	5.62
653.569	3.62
654.328	2.62
655.087	2.62
655.846	2.62
656.604	3.62
657.363	2.62
658.121	2.62
658.88	2.62
659.638	3.62
660.397	2.62
661.155	3.62
661.913	2.62
662.671	1.62
663.429	2.62
664.187	3.62
664.945	4.62
665.703	2.62
666.46	2.62
667.218	2.62
667.976	3.62
668.733	3.62
669.49	3.62
670.248	4.62
671.005	3.62
671.762	4.62
672.519	2.62
673.276	3.62
674.033	3.62
674.79	1.62
675.547	3.62
676.304	1.62
677.06	2.62
677.817	3.62
678.574	3.62
679.33	3.62
680.086	1.62
680.843	2.62
681.599	0.62
682.355	3.62
683.111	2.62
683.867	2.62
684.623	1.62
685.379	3.62
686.135	3.62
686.89	2.62
687.646	3.62
688.402	2.62
689.157	1.62
689.912	3.62
690.668	3.62
691.423	2.62
692.178	3.62
692.933	6.62
693.688	0.62
694.443	1.62
695.198	3.62
695.953	1.62
696.708	2.62
697.462	3.62
698.217	2.62
698.972	2.62
699.726	0.62
700.48	3.62
701.235	2.62
701.989	0.62
702.743	2.62
703.497	2.62
704.251	3.62
705.005	1.62
705.759	1.62
706.513	1.62
707.266	1.62
708.02	3.62
708.774	4.62
709.527	3.62
710.28	2.62
711.034	3.62
711.787	1.62
712.54	4.62
713.293	2.62
714.046	1.62
714.799	3.62
715.552	2.62
716.305	3.62
717.058	1.62
717.81	1.62
718.563	0.62
719.315	3.62
720.068	1.62
720.82	2.62
721.573	1.62
722.325	0.62
723.077	3.62
723.829	2.62
724.581	2.62
725.333	3.62
726.085	3.62
726.836	1.62
727.588	2.62
728.34	4.62
729.091	-0.38
729.843	1.62
730.594	4.62
731.346	2.62
732.097	2.62
732.848	2.62
733.599	2.62
734.35	3.62
735.101	3.62
735.852	2.62
736.603	3.62
737.354	0.62
738.104	0.62
738.855	1.62
739.605	0.62
740.356	3.62
741.106	2.62
741.856	1.62
742.607	4.62
743.357	2.62
744.107	1.62
744.857	2.62
745.607	1.62
746.357	2.62
747.106	3.62
747.856	5.62
748.606	2.62
749.355	5.62
750.105	1.62
750.854	2.62
751.603	2.62
752.353	0.62
753.102	3.62
753.851	2.62
754.6	5.62
755.349	2.62
756.098	2.62
756.847	2.62
757.595	3.62
758.344	4.62
759.093	3.62
759.841	4.62
760.589	2.62
761.338	4.62
762.086	2.62
762.834	2.62
763.582	3.62
764.331	4.62
765.079	2.62
765.826	4.62
766.574	4.62
767.322	2.62
768.07	2.62
768.817	5.62
769.565	3.62
770.312	1.62
771.06	5.62
771.807	2.62
772.554	4.62
773.302	5.62
774.049	4.62
774.796	3.62
775.543	5.62
776.29	5.62
777.036	4.62
777.783	7.62
778.53	6.62
779.276	5.62
780.023	7.62
780.769	5.62
781.516	5.62
782.262	5.62
783.008	3.62
783.754	3.62
784.5	7.62
785.246	5.62
785.992	3.62
786.738	5.62
787.484	5.62
788.23	5.62
788.975	3.62
789.721	5.62
790.466	2.62
791.212	5.62
791.957	7.62
792.702	2.62
793.447	3.62
794.193	4.62
794.938	5.62
795.683	6.62
796.427	8.62
797.172	5.62
797.917	4.62
798.662	5.62
799.406	4.62
800.151	5.62
800.895	7.62
801.64	2.62
802.384	4.62
803.128	4.62
803.872	5.62
804.616	5.62
805.36	5.62
806.104	2.62
806.848	3.62
807.592	5.62
808.336	2.62
809.079	3.62
809.823	3.62
810.566	3.62
811.31	5.62
812.053	2.62
812.796	4.62
813.539	3.62
814.283	5.62
815.026	3.62
815.769	5.62
816.511	3.62
817.254	0.62
817.997	3.62
818.74	-0.38
819.482	2.62
820.225	0.62
820.967	4.62
821.71	4.62
822.452	2.62
823.194	3.62
823.936	2.62
824.678	2.62
825.42	1.62
826.162	4.62
826.904	2.62
827.646	3.62
828.388	1.62
829.129	6.62
829.871	2.62
830.612	5.62
831.354	3.62
832.095	1.62
832.836	3.62
833.577	4.62
834.319	2.62
835.06	2.62
835.801	2.62
836.542	2.62
837.282	1.62
838.023	4.62
838.764	2.62
839.504	0.62
840.245	3.62
840.985	3.62
841.726	1.62
842.466	1.62
843.206	2.62
843.946	4.62
844.687	1.62
845.427	3.62
846.166	1.62
846.906	3.62
847.646	1.62
848.386	1.62
849.125	3.62
849.865	2.62
850.605	1.62
851.344	3.62
852.083	3.62
852.823	3.62
853.562	1.62
854.301	3.62
855.04	2.62
855.779	1.62
856.518	-0.38
857.257	1.62
857.995	2.62
858.734	2.62
859.473	2.62
860.211	2.62
860.95	1.62
861.688	2.62
862.426	0.62
863.165	1.62
863.903	1.62
864.641	3.62
865.379	1.62
866.117	2.62
866.855	1.62
867.593	2.62
868.33	0.62
869.068	2.62
869.806	1.62
870.543	-0.38
871.28	1.62
872.018	-0.38
872.755	1.62
873.492	1.62
874.229	1.62
874.967	1.62
875.703	1.62
876.44	1.62
877.177	2.62
877.914	0.62
878.651	-0.38
879.387	-1.38
880.124	1.62
880.86	0.62
881.597	2.62
882.333	2.62
883.069	-0.38
883.806	-0.38
884.542	-0.38
885.278	0.62
886.014	-1.38
886.749	1.62
887.485	1.62
888.221	0.62
888.957	1.62
889.692	-2.38
890.428	0.62
891.163	1.62
891.899	-0.38
892.634	-1.38
893.369	-2.38
894.104	-0.38
894.839	1.62
895.574	1.62
896.309	1.62
897.044	2.62
897.779	2.62
898.514	1.62
899.248	0.62
899.983	0.62
900.717	1.62
901.452	-0.38
902.186	-1.38
902.92	-0.38
903.654	0.62
904.389	0.62
905.123	1.62
905.857	1.62
906.59	-1.38
907.324	-0.38
908.058	1.62
908.792	0.62
909.525	-0.38
910.259	0.62
910.992	2.62
911.726	1.62
912.459	-1.38
913.192	-0.38
913.925	-0.38
914.658	1.62
915.391	-0.38
916.124	0.62
916.857	0.62
917.59	0.62
918.323	0.62
919.055	-0.38
919.788	-0.38
920.521	-0.38
921.253	-1.38
921.985	-1.38
922.718	1.62
923.45	0.62
924.182	0.62
924.914	-0.38
925.646	-0.38
926.378	-0.38
927.11	-0.38
927.841	1.62
928.573	0.62
929.305	-0.38
930.036	1.62
930.768	0.62
931.499	3.62
932.23	2.62
932.962	0.62
933.693	1.62
934.424	-0.38
935.155	0.62
935.886	-0.38
936.617	1.62
937.348	1.62
938.078	1.62
938.809	0.62
939.54	-1.38
940.27	0.62
941.001	1.62
941.731	2.62
942.461	-0.38
943.191	-0.38
943.922	2.62
944.652	-0.38
945.382	2.62
946.112	-0.38
946.841	0.62
947.571	0.62
948.301	-0.38
949.031	1.62
949.76	-0.38
950.49	2.62
951.219	2.62
951.948	0.62
952.678	0.62
953.407	1.62
954.136	-0.38
954.865	0.62
955.594	0.62
956.323	0.62
957.052	-0.38
957.78	1.62
958.509	-0.38
959.238	0.62
959.966	0.62
960.695	2.62
961.423	-0.38
962.151	1.62
962.88	0.62
963.608	-0.38
964.336	0.62
965.064	1.62
965.792	2.62
966.52	2.62
967.247	-0.38
967.975	0.62
968.703	0.62
969.43	1.62
970.158	0.62
970.885	0.62
971.613	0.62
972.34	0.62
973.067	1.62
973.794	-1.38
974.521	-0.38
975.248	1.62
975.975	-0.38
976.702	1.62
977.429	1.62
978.156	0.62
978.882	0.62
979.609	-0.38
980.335	0.62
981.062	-0.38
981.788	0.62
982.514	0.62
983.24	1.62
983.967	0.62
984.693	1.62
985.419	-0.38
986.144	-0.38
986.87	-0.38
987.596	1.62
988.322	1.62
989.047	1.62
989.773	2.62
990.498	0.62
991.224	-0.38
991.949	2.62
992.674	1.62
993.399	1.62
994.124	1.62
994.849	0.62
995.574	0.62
996.299	1.62
997.024	0.62
997.749	1.62
998.473	0.62
999.198	-2.38
999.922	-0.38
1000.647	-0.38
1001.371	3.62
1002.095	-1.38
1002.82	0.62
1003.544	-1.38
1004.268	-1.38
1004.992	-1.38
1005.716	-4.38
1006.439	0.62
1007.163	3.62
1007.887	0.62
1008.611	0.62
1009.334	0.62
1010.058	0.62
1010.781	2.62
1011.504	-0.38
1012.228	1.62
1012.951	-1.38
1013.674	0.62
1014.397	0.62
1015.12	-1.38
