节点500_145_QEPB04081__585__11-38-15-384.txt的数据

Date: Wed Nov 12 11:38:15 CST 2025
User: PC
Spectrometer: QEPB0408
触发模式: 0
积分时间 (秒): 1.000000E-2
Scans to average: 1
启用暗噪声校正: true
启用非线性校正: false
滑动平均宽度: 0
X轴模式: Wavelengths
Number of Pixels in Spectrum: 1044
>>>>>Begin Spectral Data<<<<<
220.843	-0.5
221.644	-0.5
222.444	1.5
223.244	-3.5
224.045	1.5
224.845	2.5
225.645	3.5
226.445	-1.5
227.245	2.5
228.045	0.5
228.845	1.5
229.645	-0.5
230.444	0.5
231.244	1.5
232.043	1.5
232.843	-0.5
233.642	-0.5
234.442	1.5
235.241	0.5
236.04	2.5
236.839	1.5
237.638	2.5
238.437	1.5
239.236	5.5
240.035	0.5
240.833	0.5
241.632	3.5
242.43	-0.5
243.229	1.5
244.027	-0.5
244.826	1.5
245.624	1.5
246.422	1.5
247.22	2.5
248.018	2.5
248.816	1.5
249.614	0.5
250.412	3.5
251.21	2.5
252.007	3.5
252.805	1.5
253.602	3.5
254.4	2.5
255.197	2.5
255.994	2.5
256.791	2.5
257.589	3.5
258.386	2.5
259.183	3.5
259.979	3.5
260.776	4.5
261.573	4.5
262.37	2.5
263.166	4.5
263.963	3.5
264.759	3.5
265.556	6.5
266.352	4.5
267.148	5.5
267.944	5.5
268.74	6.5
269.536	6.5
270.332	7.5
271.128	6.5
271.924	4.5
272.719	7.5
273.515	5.5
274.311	8.5
275.106	7.5
275.901	6.5
276.697	12.5
277.492	8.5
278.287	8.5
279.082	9.5
279.877	9.5
280.672	10.5
281.467	9.5
282.262	7.5
283.056	7.5
283.851	9.5
284.646	9.5
285.44	11.5
286.234	10.5
287.029	10.5
287.823	10.5
288.617	11.5
289.411	11.5
290.205	11.5
290.999	9.5
291.793	10.5
292.587	11.5
293.381	11.5
294.174	8.5
294.968	8.5
295.761	10.5
296.555	9.5
297.348	9.5
298.141	8.5
298.935	10.5
299.728	7.5
300.521	8.5
301.314	7.5
302.107	9.5
302.899	9.5
303.692	7.5
304.485	9.5
305.277	8.5
306.07	8.5
306.862	8.5
307.655	9.5
308.447	10.5
309.239	7.5
310.031	7.5
310.823	5.5
311.615	6.5
312.407	6.5
313.199	6.5
313.991	6.5
314.783	5.5
315.574	7.5
316.366	5.5
317.157	5.5
317.949	4.5
318.74	4.5
319.531	4.5
320.322	1.5
321.113	4.5
321.904	3.5
322.695	6.5
323.486	4.5
324.277	6.5
325.068	7.5
325.858	0.5
326.649	3.5
327.439	4.5
328.23	4.5
329.02	4.5
329.81	5.5
330.6	5.5
331.391	2.5
332.181	5.5
332.971	6.5
333.76	4.5
334.55	3.5
335.34	1.5
336.13	4.5
336.919	4.5
337.709	3.5
338.498	4.5
339.287	4.5
340.077	3.5
340.866	2.5
341.655	4.5
342.444	2.5
343.233	2.5
344.022	2.5
344.811	4.5
345.6	2.5
346.388	4.5
347.177	2.5
347.965	3.5
348.754	4.5
349.542	4.5
350.33	1.5
351.119	6.5
351.907	3.5
352.695	5.5
353.483	3.5
354.271	5.5
355.059	4.5
355.846	5.5
356.634	2.5
357.422	3.5
358.209	3.5
358.997	4.5
359.784	2.5
360.571	4.5
361.359	5.5
362.146	3.5
362.933	3.5
363.72	2.5
364.507	0.5
365.294	1.5
366.081	2.5
366.867	3.5
367.654	5.5
368.44	4.5
369.227	1.5
370.013	3.5
370.8	6.5
371.586	1.5
372.372	3.5
373.158	0.5
373.944	4.5
374.73	4.5
375.516	3.5
376.302	2.5
377.088	3.5
377.873	2.5
378.659	3.5
379.445	2.5
380.23	1.5
381.015	3.5
381.801	5.5
382.586	4.5
383.371	5.5
384.156	5.5
384.941	2.5
385.726	6.5
386.511	3.5
387.296	3.5
388.08	4.5
388.865	3.5
389.649	4.5
390.434	1.5
391.218	3.5
392.003	2.5
392.787	4.5
393.571	6.5
394.355	2.5
395.139	3.5
395.923	2.5
396.707	5.5
397.491	3.5
398.274	7.5
399.058	3.5
399.842	1.5
400.625	5.5
401.408	2.5
402.192	4.5
402.975	3.5
403.758	3.5
404.541	1.5
405.324	4.5
406.107	6.5
406.89	2.5
407.673	5.5
408.456	5.5
409.238	3.5
410.021	4.5
410.803	5.5
411.586	5.5
412.368	3.5
413.151	4.5
413.933	4.5
414.715	3.5
415.497	5.5
416.279	5.5
417.061	5.5
417.843	4.5
418.624	2.5
419.406	4.5
420.188	6.5
420.969	4.5
421.751	3.5
422.532	5.5
423.313	6.5
424.095	7.5
424.876	5.5
425.657	7.5
426.438	7.5
427.219	9.5
428	8.5
428.78	7.5
429.561	8.5
430.342	8.5
431.122	9.5
431.903	7.5
432.683	7.5
433.464	8.5
434.244	7.5
435.024	9.5
435.804	6.5
436.584	9.5
437.364	9.5
438.144	10.5
438.924	10.5
439.704	9.5
440.483	13.5
441.263	10.5
442.042	13.5
442.822	11.5
443.601	12.5
444.38	17.5
445.16	16.5
445.939	17.5
446.718	18.5
447.497	21.5
448.276	19.5
449.054	21.5
449.833	25.5
450.612	23.5
451.391	28.5
452.169	29.5
452.948	31.5
453.726	38.5
454.504	38.5
455.282	43.5
456.061	45.5
456.839	55.5
457.617	59.5
458.395	70.5
459.172	76.5
459.95	85.5
460.728	87.5
461.506	98.5
462.283	117.5
463.061	128.5
463.838	141.5
464.615	154.5
465.393	177.5
466.17	193.5
466.947	219.5
467.724	238.5
468.501	259.5
469.278	287.5
470.055	321.5
470.831	360.5
471.608	399.5
472.385	439.5
473.161	494.5
473.938	533.5
474.714	589.5
475.49	667.5
476.266	723.5
477.043	785.5
477.819	872.5
478.595	963.5
479.371	1059.5
480.146	1174.5
480.922	1279.5
481.698	1403.5
482.473	1540.5
483.249	1687.5
484.024	1849.5
484.8	2010.5
485.575	2194.5
486.35	2422.5
487.126	2679.5
487.901	2902.5
488.676	3190.5
489.451	3453.5
490.225	3790.5
491	4126.5
491.775	4518.5
492.55	4964.5
493.324	5362.5
494.099	5876.5
494.873	6377.5
495.647	6888.5
496.422	7490.5
497.196	8113.5
497.97	8657.5
498.744	9326.5
499.518	10036.5
500.292	10650.5
501.066	11304.5
501.839	11968.5
502.613	12607.5
503.387	13191.5
504.16	13706.5
504.934	14230.5
505.707	14573.5
506.48	14942.5
507.253	15183.5
508.027	15356.5
508.8	15472.5
509.573	15416.5
510.346	15306.5
511.118	15148.5
511.891	14823.5
512.664	14530.5
513.437	14093.5
514.209	13679.5
514.982	13243.5
515.754	12699.5
516.526	12203.5
517.298	11742.5
518.071	11254.5
518.843	10770.5
519.615	10289.5
520.387	9902.5
521.159	9490.5
521.93	9076.5
522.702	8723.5
523.474	8429.5
524.245	8079.5
525.017	7768.5
525.788	7475.5
526.56	7133.5
527.331	6853.5
528.102	6578.5
528.873	6286.5
529.644	6004.5
530.415	5765.5
531.186	5507.5
531.957	5261.5
532.728	5002.5
533.498	4756.5
534.269	4507.5
535.039	4284.5
535.81	4049.5
536.58	3805.5
537.351	3602.5
538.121	3420.5
538.891	3248.5
539.661	3066.5
540.431	2882.5
541.201	2747.5
541.971	2597.5
542.741	2440.5
543.51	2337.5
544.28	2199.5
545.05	2093.5
545.819	2000.5
546.588	1900.5
547.358	1781.5
548.127	1715.5
548.896	1620.5
549.665	1549.5
550.434	1471.5
551.203	1406.5
551.972	1322.5
552.741	1249.5
553.51	1186.5
554.278	1126.5
555.047	1075.5
555.815	1002.5
556.584	958.5
557.352	884.5
558.121	837.5
558.889	798.5
559.657	759.5
560.425	718.5
561.193	672.5
561.961	640.5
562.729	606.5
563.496	569.5
564.264	533.5
565.032	496.5
565.799	473.5
566.567	454.5
567.334	423.5
568.101	394.5
568.869	376.5
569.636	361.5
570.403	339.5
571.17	320.5
571.937	298.5
572.704	275.5
573.471	264.5
574.237	247.5
575.004	234.5
575.771	221.5
576.537	206.5
577.303	196.5
578.07	186.5
578.836	170.5
579.602	165.5
580.368	155.5
581.134	149.5
581.9	140.5
582.666	130.5
583.432	121.5
584.198	122.5
584.964	110.5
585.729	103.5
586.495	101.5
587.26	94.5
588.025	89.5
588.791	84.5
589.556	81.5
590.321	74.5
591.086	70.5
591.851	66.5
592.616	60.5
593.381	60.5
594.146	58.5
594.911	54.5
595.675	52.5
596.44	49.5
597.204	46.5
597.969	43.5
598.733	42.5
599.497	42.5
600.261	40.5
601.025	39.5
601.79	36.5
602.553	34.5
603.317	31.5
604.081	32.5
604.845	33.5
605.609	31.5
606.372	29.5
607.136	27.5
607.899	25.5
608.662	23.5
609.426	22.5
610.189	21.5
610.952	21.5
611.715	20.5
612.478	23.5
613.241	18.5
614.004	18.5
614.767	20.5
615.529	16.5
616.292	18.5
617.055	13.5
617.817	16.5
618.579	15.5
619.342	13.5
620.104	13.5
620.866	13.5
621.628	12.5
622.39	12.5
623.152	10.5
623.914	10.5
624.676	10.5
625.438	11.5
626.199	7.5
626.961	11.5
627.722	10.5
628.484	10.5
629.245	8.5
630.006	7.5
630.768	7.5
631.529	8.5
632.29	6.5
633.051	9.5
633.812	8.5
634.573	7.5
635.333	5.5
636.094	7.5
636.855	6.5
637.615	8.5
638.376	7.5
639.136	6.5
639.896	7.5
640.657	5.5
641.417	5.5
642.177	7.5
642.937	5.5
643.697	5.5
644.457	6.5
645.216	5.5
645.976	4.5
646.736	4.5
647.495	3.5
648.255	5.5
649.014	5.5
649.774	6.5
650.533	4.5
651.292	5.5
652.051	5.5
652.81	5.5
653.569	4.5
654.328	2.5
655.087	3.5
655.846	3.5
656.604	3.5
657.363	3.5
658.121	3.5
658.88	3.5
659.638	4.5
660.397	1.5
661.155	3.5
661.913	5.5
662.671	2.5
663.429	3.5
664.187	3.5
664.945	3.5
665.703	2.5
666.46	3.5
667.218	3.5
667.976	3.5
668.733	3.5
669.49	2.5
670.248	2.5
671.005	5.5
671.762	2.5
672.519	2.5
673.276	3.5
674.033	1.5
674.79	2.5
675.547	1.5
676.304	2.5
677.06	3.5
677.817	1.5
678.574	2.5
679.33	2.5
680.086	1.5
680.843	1.5
681.599	4.5
682.355	3.5
683.111	2.5
683.867	2.5
684.623	3.5
685.379	2.5
686.135	1.5
686.89	1.5
687.646	2.5
688.402	2.5
689.157	3.5
689.912	1.5
690.668	2.5
691.423	2.5
692.178	0.5
692.933	2.5
693.688	3.5
694.443	4.5
695.198	1.5
695.953	1.5
696.708	4.5
697.462	2.5
698.217	4.5
698.972	3.5
699.726	0.5
700.48	3.5
701.235	3.5
701.989	2.5
702.743	4.5
703.497	2.5
704.251	2.5
705.005	3.5
705.759	1.5
706.513	2.5
707.266	3.5
708.02	1.5
708.774	2.5
709.527	3.5
710.28	2.5
711.034	1.5
711.787	2.5
712.54	3.5
713.293	1.5
714.046	1.5
714.799	3.5
715.552	4.5
716.305	3.5
717.058	1.5
717.81	0.5
718.563	-0.5
719.315	1.5
720.068	2.5
720.82	1.5
721.573	1.5
722.325	1.5
723.077	4.5
723.829	2.5
724.581	1.5
725.333	0.5
726.085	2.5
726.836	4.5
727.588	3.5
728.34	0.5
729.091	1.5
729.843	1.5
730.594	1.5
731.346	2.5
732.097	2.5
732.848	0.5
733.599	2.5
734.35	1.5
735.101	2.5
735.852	3.5
736.603	2.5
737.354	2.5
738.104	3.5
738.855	2.5
739.605	1.5
740.356	4.5
741.106	2.5
741.856	4.5
742.607	3.5
743.357	4.5
744.107	1.5
744.857	1.5
745.607	4.5
746.357	2.5
747.106	1.5
747.856	0.5
748.606	1.5
749.355	4.5
750.105	1.5
750.854	2.5
751.603	3.5
752.353	3.5
753.102	2.5
753.851	2.5
754.6	2.5
755.349	3.5
756.098	3.5
756.847	3.5
757.595	2.5
758.344	2.5
759.093	3.5
759.841	4.5
760.589	2.5
761.338	4.5
762.086	1.5
762.834	2.5
763.582	3.5
764.331	3.5
765.079	4.5
765.826	3.5
766.574	3.5
767.322	2.5
768.07	4.5
768.817	6.5
769.565	2.5
770.312	4.5
771.06	2.5
771.807	5.5
772.554	6.5
773.302	3.5
774.049	5.5
774.796	4.5
775.543	2.5
776.29	5.5
777.036	5.5
777.783	4.5
778.53	3.5
779.276	4.5
780.023	5.5
780.769	4.5
781.516	4.5
782.262	3.5
783.008	5.5
783.754	5.5
784.5	5.5
785.246	5.5
785.992	3.5
786.738	5.5
787.484	5.5
788.23	7.5
788.975	6.5
789.721	5.5
790.466	4.5
791.212	6.5
791.957	3.5
792.702	5.5
793.447	5.5
794.193	3.5
794.938	6.5
795.683	5.5
796.427	5.5
797.172	4.5
797.917	3.5
798.662	5.5
799.406	6.5
800.151	6.5
800.895	4.5
801.64	6.5
802.384	4.5
803.128	5.5
803.872	4.5
804.616	5.5
805.36	4.5
806.104	4.5
806.848	3.5
807.592	2.5
808.336	3.5
809.079	5.5
809.823	5.5
810.566	3.5
811.31	3.5
812.053	5.5
812.796	5.5
813.539	7.5
814.283	3.5
815.026	2.5
815.769	2.5
816.511	3.5
817.254	2.5
817.997	3.5
818.74	2.5
819.482	4.5
820.225	2.5
820.967	4.5
821.71	2.5
822.452	2.5
823.194	3.5
823.936	2.5
824.678	1.5
825.42	3.5
826.162	3.5
826.904	5.5
827.646	2.5
828.388	3.5
829.129	3.5
829.871	4.5
830.612	3.5
831.354	1.5
832.095	2.5
832.836	3.5
833.577	1.5
834.319	1.5
835.06	3.5
835.801	3.5
836.542	4.5
837.282	2.5
838.023	2.5
838.764	0.5
839.504	1.5
840.245	4.5
840.985	1.5
841.726	4.5
842.466	1.5
843.206	0.5
843.946	2.5
844.687	0.5
845.427	3.5
846.166	1.5
846.906	3.5
847.646	1.5
848.386	3.5
849.125	4.5
849.865	1.5
850.605	2.5
851.344	4.5
852.083	2.5
852.823	1.5
853.562	0.5
854.301	0.5
855.04	-0.5
855.779	1.5
856.518	2.5
857.257	3.5
857.995	2.5
858.734	0.5
859.473	3.5
860.211	2.5
860.95	2.5
861.688	2.5
862.426	1.5
863.165	0.5
863.903	0.5
864.641	-0.5
865.379	1.5
866.117	-0.5
866.855	2.5
867.593	-0.5
868.33	2.5
869.068	0.5
869.806	0.5
870.543	1.5
871.28	0.5
872.018	0.5
872.755	2.5
873.492	3.5
874.229	1.5
874.967	2.5
875.703	-0.5
876.44	2.5
877.177	1.5
877.914	-0.5
878.651	-0.5
879.387	-0.5
880.124	2.5
880.86	-0.5
881.597	1.5
882.333	1.5
883.069	1.5
883.806	-0.5
884.542	1.5
885.278	1.5
886.014	-1.5
886.749	-0.5
887.485	2.5
888.221	0.5
888.957	2.5
889.692	1.5
890.428	1.5
891.163	0.5
891.899	1.5
892.634	0.5
893.369	-0.5
894.104	1.5
894.839	0.5
895.574	1.5
896.309	-0.5
897.044	0.5
897.779	1.5
898.514	3.5
899.248	-0.5
899.983	-1.5
900.717	-1.5
901.452	3.5
902.186	0.5
902.92	0.5
903.654	0.5
904.389	-0.5
905.123	0.5
905.857	1.5
906.59	0.5
907.324	0.5
908.058	0.5
908.792	1.5
909.525	1.5
910.259	-1.5
910.992	-0.5
911.726	1.5
912.459	0.5
913.192	0.5
913.925	1.5
914.658	-1.5
915.391	-0.5
916.124	2.5
916.857	-0.5
917.59	2.5
918.323	0.5
919.055	1.5
919.788	0.5
920.521	-1.5
921.253	-0.5
921.985	-1.5
922.718	-0.5
923.45	3.5
924.182	-1.5
924.914	0.5
925.646	0.5
926.378	0.5
927.11	1.5
927.841	1.5
928.573	2.5
929.305	-1.5
930.036	2.5
930.768	0.5
931.499	1.5
932.23	1.5
932.962	0.5
933.693	1.5
934.424	-1.5
935.155	2.5
935.886	-1.5
936.617	-0.5
937.348	0.5
938.078	-0.5
938.809	0.5
939.54	0.5
940.27	0.5
941.001	1.5
941.731	0.5
942.461	0.5
943.191	1.5
943.922	0.5
944.652	1.5
945.382	-0.5
946.112	1.5
946.841	0.5
947.571	-0.5
948.301	-0.5
949.031	1.5
949.76	0.5
950.49	2.5
951.219	-2.5
951.948	-0.5
952.678	1.5
953.407	2.5
954.136	1.5
954.865	-1.5
955.594	2.5
956.323	2.5
957.052	-0.5
957.78	0.5
958.509	-0.5
959.238	-1.5
959.966	1.5
960.695	0.5
961.423	0.5
962.151	-0.5
962.88	0.5
963.608	0.5
964.336	0.5
965.064	0.5
965.792	0.5
966.52	0.5
967.247	0.5
967.975	1.5
968.703	-0.5
969.43	0.5
970.158	-0.5
970.885	1.5
971.613	0.5
972.34	0.5
973.067	-0.5
973.794	1.5
974.521	0.5
975.248	0.5
975.975	0.5
976.702	-0.5
977.429	1.5
978.156	2.5
978.882	-1.5
979.609	0.5
980.335	-0.5
981.062	-0.5
981.788	-0.5
982.514	0.5
983.24	2.5
983.967	1.5
984.693	1.5
985.419	-1.5
986.144	0.5
986.87	1.5
987.596	2.5
988.322	-0.5
989.047	0.5
989.773	0.5
990.498	-1.5
991.224	-0.5
991.949	-1.5
992.674	1.5
993.399	0.5
994.124	-0.5
994.849	1.5
995.574	0.5
996.299	1.5
997.024	-1.5
997.749	-0.5
998.473	1.5
999.198	-0.5
999.922	0.5
1000.647	1.5
1001.371	3.5
1002.095	-0.5
1002.82	-0.5
1003.544	-1.5
1004.268	-0.5
1004.992	-1.5
1005.716	-1.5
1006.439	-0.5
1007.163	1.5
1007.887	1.5
1008.611	2.5
1009.334	-0.5
1010.058	-0.5
1010.781	0.5
1011.504	1.5
1012.228	0.5
1012.951	0.5
1013.674	-1.5
1014.397	0.5
1015.12	-0.5
