节点500_145_QEPB04081__334__11-34-16-572.txt的数据

Date: Wed Nov 12 11:34:16 CST 2025
User: PC
Spectrometer: QEPB0408
触发模式: 0
积分时间 (秒): 1.000000E-2
Scans to average: 1
启用暗噪声校正: true
启用非线性校正: false
滑动平均宽度: 0
X轴模式: Wavelengths
Number of Pixels in Spectrum: 1044
>>>>>Begin Spectral Data<<<<<
220.843	0.38
221.644	1.38
222.444	-0.62
223.244	1.38
224.045	1.38
224.845	1.38
225.645	0.38
226.445	0.38
227.245	2.38
228.045	1.38
228.845	2.38
229.645	-0.62
230.444	1.38
231.244	1.38
232.043	2.38
232.843	-1.62
233.642	1.38
234.442	1.38
235.241	1.38
236.04	-0.62
236.839	1.38
237.638	3.38
238.437	-0.62
239.236	-1.62
240.035	4.38
240.833	0.38
241.632	4.38
242.43	1.38
243.229	2.38
244.027	0.38
244.826	0.38
245.624	1.38
246.422	0.38
247.22	4.38
248.018	2.38
248.816	4.38
249.614	2.38
250.412	2.38
251.21	2.38
252.007	3.38
252.805	2.38
253.602	1.38
254.4	1.38
255.197	3.38
255.994	4.38
256.791	3.38
257.589	4.38
258.386	4.38
259.183	2.38
259.979	6.38
260.776	4.38
261.573	4.38
262.37	7.38
263.166	4.38
263.963	5.38
264.759	3.38
265.556	6.38
266.352	7.38
267.148	5.38
267.944	6.38
268.74	6.38
269.536	6.38
270.332	4.38
271.128	7.38
271.924	7.38
272.719	8.38
273.515	7.38
274.311	8.38
275.106	10.38
275.901	9.38
276.697	9.38
277.492	11.38
278.287	11.38
279.082	10.38
279.877	10.38
280.672	10.38
281.467	9.38
282.262	9.38
283.056	11.38
283.851	11.38
284.646	11.38
285.44	9.38
286.234	10.38
287.029	11.38
287.823	12.38
288.617	9.38
289.411	8.38
290.205	11.38
290.999	11.38
291.793	11.38
292.587	11.38
293.381	11.38
294.174	11.38
294.968	8.38
295.761	10.38
296.555	10.38
297.348	11.38
298.141	10.38
298.935	9.38
299.728	9.38
300.521	9.38
301.314	9.38
302.107	9.38
302.899	7.38
303.692	7.38
304.485	7.38
305.277	8.38
306.07	9.38
306.862	9.38
307.655	7.38
308.447	9.38
309.239	6.38
310.031	8.38
310.823	8.38
311.615	8.38
312.407	8.38
313.199	7.38
313.991	5.38
314.783	7.38
315.574	5.38
316.366	5.38
317.157	3.38
317.949	5.38
318.74	4.38
319.531	5.38
320.322	3.38
321.113	3.38
321.904	3.38
322.695	4.38
323.486	7.38
324.277	4.38
325.068	4.38
325.858	4.38
326.649	3.38
327.439	2.38
328.23	5.38
329.02	6.38
329.81	3.38
330.6	5.38
331.391	4.38
332.181	3.38
332.971	4.38
333.76	3.38
334.55	5.38
335.34	5.38
336.13	2.38
336.919	2.38
337.709	3.38
338.498	4.38
339.287	5.38
340.077	5.38
340.866	3.38
341.655	4.38
342.444	3.38
343.233	3.38
344.022	4.38
344.811	2.38
345.6	2.38
346.388	3.38
347.177	4.38
347.965	2.38
348.754	4.38
349.542	3.38
350.33	1.38
351.119	3.38
351.907	5.38
352.695	4.38
353.483	5.38
354.271	0.38
355.059	4.38
355.846	1.38
356.634	2.38
357.422	2.38
358.209	2.38
358.997	4.38
359.784	1.38
360.571	4.38
361.359	0.38
362.146	4.38
362.933	5.38
363.72	2.38
364.507	1.38
365.294	1.38
366.081	4.38
366.867	3.38
367.654	2.38
368.44	2.38
369.227	2.38
370.013	4.38
370.8	0.38
371.586	5.38
372.372	3.38
373.158	3.38
373.944	2.38
374.73	2.38
375.516	5.38
376.302	2.38
377.088	4.38
377.873	2.38
378.659	2.38
379.445	5.38
380.23	2.38
381.015	4.38
381.801	3.38
382.586	5.38
383.371	3.38
384.156	3.38
384.941	4.38
385.726	3.38
386.511	4.38
387.296	3.38
388.08	4.38
388.865	2.38
389.649	2.38
390.434	1.38
391.218	3.38
392.003	3.38
392.787	0.38
393.571	4.38
394.355	3.38
395.139	4.38
395.923	4.38
396.707	5.38
397.491	2.38
398.274	3.38
399.058	3.38
399.842	4.38
400.625	3.38
401.408	5.38
402.192	1.38
402.975	2.38
403.758	3.38
404.541	3.38
405.324	4.38
406.107	1.38
406.89	2.38
407.673	5.38
408.456	4.38
409.238	4.38
410.021	4.38
410.803	1.38
411.586	3.38
412.368	5.38
413.151	1.38
413.933	6.38
414.715	5.38
415.497	5.38
416.279	6.38
417.061	3.38
417.843	6.38
418.624	5.38
419.406	4.38
420.188	7.38
420.969	4.38
421.751	7.38
422.532	5.38
423.313	8.38
424.095	4.38
424.876	6.38
425.657	5.38
426.438	7.38
427.219	5.38
428	5.38
428.78	7.38
429.561	6.38
430.342	6.38
431.122	7.38
431.903	8.38
432.683	10.38
433.464	8.38
434.244	8.38
435.024	7.38
435.804	8.38
436.584	9.38
437.364	8.38
438.144	10.38
438.924	12.38
439.704	10.38
440.483	13.38
441.263	12.38
442.042	12.38
442.822	14.38
443.601	16.38
444.38	11.38
445.16	17.38
445.939	15.38
446.718	18.38
447.497	18.38
448.276	19.38
449.054	21.38
449.833	24.38
450.612	28.38
451.391	23.38
452.169	29.38
452.948	30.38
453.726	31.38
454.504	41.38
455.282	39.38
456.061	46.38
456.839	48.38
457.617	56.38
458.395	62.38
459.172	65.38
459.95	75.38
460.728	83.38
461.506	89.38
462.283	101.38
463.061	118.38
463.838	129.38
464.615	149.38
465.393	161.38
466.17	177.38
466.947	192.38
467.724	217.38
468.501	244.38
469.278	276.38
470.055	307.38
470.831	341.38
471.608	372.38
472.385	421.38
473.161	459.38
473.938	502.38
474.714	574.38
475.49	631.38
476.266	705.38
477.043	763.38
477.819	862.38
478.595	932.38
479.371	1039.38
480.146	1150.38
480.922	1263.38
481.698	1408.38
482.473	1544.38
483.249	1708.38
484.024	1872.38
484.8	2071.38
485.575	2287.38
486.35	2487.38
487.126	2772.38
487.901	3046.38
488.676	3344.38
489.451	3674.38
490.225	4057.38
491	4453.38
491.775	4842.38
492.55	5304.38
493.324	5823.38
494.099	6389.38
494.873	6965.38
495.647	7543.38
496.422	8211.38
497.196	8905.38
497.97	9623.38
498.744	10340.38
499.518	11060.38
500.292	11779.38
501.066	12507.38
501.839	13218.38
502.613	13857.38
503.387	14470.38
504.16	15034.38
504.934	15484.38
505.707	15880.38
506.48	16122.38
507.253	16323.38
508.027	16402.38
508.8	16396.38
509.573	16238.38
510.346	16040.38
511.118	15672.38
511.891	15327.38
512.664	14852.38
513.437	14331.38
514.209	13834.38
514.982	13340.38
515.754	12739.38
516.526	12217.38
517.298	11671.38
518.071	11144.38
518.843	10678.38
519.615	10187.38
520.387	9754.38
521.159	9355.38
521.93	9027.38
522.702	8668.38
523.474	8327.38
524.245	7982.38
525.017	7656.38
525.788	7377.38
526.56	7070.38
527.331	6753.38
528.102	6475.38
528.873	6178.38
529.644	5909.38
530.415	5647.38
531.186	5377.38
531.957	5149.38
532.728	4856.38
533.498	4606.38
534.269	4343.38
535.039	4104.38
535.81	3871.38
536.58	3671.38
537.351	3461.38
538.121	3262.38
538.891	3089.38
539.661	2911.38
540.431	2760.38
541.201	2617.38
541.971	2487.38
542.741	2355.38
543.51	2221.38
544.28	2132.38
545.05	2032.38
545.819	1925.38
546.588	1835.38
547.358	1726.38
548.127	1649.38
548.896	1551.38
549.665	1467.38
550.434	1404.38
551.203	1328.38
551.972	1264.38
552.741	1188.38
553.51	1137.38
554.278	1075.38
555.047	1008.38
555.815	951.38
556.584	904.38
557.352	858.38
558.121	804.38
558.889	745.38
559.657	727.38
560.425	677.38
561.193	639.38
561.961	590.38
562.729	569.38
563.496	529.38
564.264	491.38
565.032	477.38
565.799	449.38
566.567	416.38
567.334	401.38
568.101	376.38
568.869	360.38
569.636	334.38
570.403	321.38
571.17	303.38
571.937	284.38
572.704	268.38
573.471	250.38
574.237	231.38
575.004	225.38
575.771	212.38
576.537	191.38
577.303	187.38
578.07	177.38
578.836	163.38
579.602	154.38
580.368	145.38
581.134	142.38
581.9	130.38
582.666	126.38
583.432	118.38
584.198	115.38
584.964	107.38
585.729	96.38
586.495	92.38
587.26	86.38
588.025	83.38
588.791	77.38
589.556	76.38
590.321	69.38
591.086	68.38
591.851	64.38
592.616	59.38
593.381	57.38
594.146	58.38
594.911	50.38
595.675	48.38
596.44	48.38
597.204	47.38
597.969	42.38
598.733	42.38
599.497	43.38
600.261	37.38
601.025	35.38
601.79	31.38
602.553	34.38
603.317	31.38
604.081	29.38
604.845	28.38
605.609	26.38
606.372	26.38
607.136	24.38
607.899	25.38
608.662	22.38
609.426	20.38
610.189	21.38
610.952	17.38
611.715	22.38
612.478	18.38
613.241	19.38
614.004	14.38
614.767	16.38
615.529	16.38
616.292	16.38
617.055	13.38
617.817	14.38
618.579	15.38
619.342	13.38
620.104	12.38
620.866	13.38
621.628	13.38
622.39	11.38
623.152	12.38
623.914	8.38
624.676	10.38
625.438	9.38
626.199	10.38
626.961	8.38
627.722	10.38
628.484	10.38
629.245	8.38
630.006	8.38
630.768	8.38
631.529	8.38
632.29	9.38
633.051	7.38
633.812	6.38
634.573	8.38
635.333	7.38
636.094	4.38
636.855	6.38
637.615	6.38
638.376	3.38
639.136	8.38
639.896	4.38
640.657	3.38
641.417	4.38
642.177	5.38
642.937	2.38
643.697	8.38
644.457	6.38
645.216	4.38
645.976	5.38
646.736	4.38
647.495	8.38
648.255	5.38
649.014	4.38
649.774	2.38
650.533	5.38
651.292	4.38
652.051	3.38
652.81	4.38
653.569	3.38
654.328	3.38
655.087	4.38
655.846	5.38
656.604	5.38
657.363	3.38
658.121	3.38
658.88	3.38
659.638	4.38
660.397	3.38
661.155	4.38
661.913	4.38
662.671	4.38
663.429	1.38
664.187	1.38
664.945	3.38
665.703	2.38
666.46	2.38
667.218	2.38
667.976	4.38
668.733	2.38
669.49	4.38
670.248	1.38
671.005	3.38
671.762	2.38
672.519	0.38
673.276	2.38
674.033	1.38
674.79	1.38
675.547	0.38
676.304	2.38
677.06	1.38
677.817	3.38
678.574	1.38
679.33	2.38
680.086	3.38
680.843	2.38
681.599	2.38
682.355	2.38
683.111	2.38
683.867	3.38
684.623	3.38
685.379	4.38
686.135	0.38
686.89	1.38
687.646	1.38
688.402	1.38
689.157	3.38
689.912	4.38
690.668	3.38
691.423	2.38
692.178	2.38
692.933	2.38
693.688	2.38
694.443	1.38
695.198	2.38
695.953	2.38
696.708	0.38
697.462	2.38
698.217	1.38
698.972	4.38
699.726	2.38
700.48	2.38
701.235	1.38
701.989	2.38
702.743	4.38
703.497	1.38
704.251	1.38
705.005	-0.62
705.759	2.38
706.513	4.38
707.266	1.38
708.02	2.38
708.774	3.38
709.527	3.38
710.28	4.38
711.034	2.38
711.787	2.38
712.54	2.38
713.293	2.38
714.046	2.38
714.799	2.38
715.552	1.38
716.305	1.38
717.058	2.38
717.81	3.38
718.563	2.38
719.315	0.38
720.068	3.38
720.82	3.38
721.573	-0.62
722.325	3.38
723.077	0.38
723.829	2.38
724.581	1.38
725.333	3.38
726.085	1.38
726.836	4.38
727.588	2.38
728.34	2.38
729.091	1.38
729.843	2.38
730.594	2.38
731.346	2.38
732.097	-0.62
732.848	2.38
733.599	0.38
734.35	4.38
735.101	3.38
735.852	4.38
736.603	3.38
737.354	2.38
738.104	2.38
738.855	2.38
739.605	3.38
740.356	3.38
741.106	1.38
741.856	1.38
742.607	1.38
743.357	4.38
744.107	1.38
744.857	3.38
745.607	2.38
746.357	2.38
747.106	5.38
747.856	4.38
748.606	2.38
749.355	2.38
750.105	4.38
750.854	4.38
751.603	-0.62
752.353	2.38
753.102	1.38
753.851	3.38
754.6	2.38
755.349	2.38
756.098	2.38
756.847	3.38
757.595	1.38
758.344	1.38
759.093	4.38
759.841	4.38
760.589	3.38
761.338	4.38
762.086	0.38
762.834	2.38
763.582	1.38
764.331	3.38
765.079	2.38
765.826	4.38
766.574	5.38
767.322	5.38
768.07	5.38
768.817	3.38
769.565	5.38
770.312	5.38
771.06	2.38
771.807	5.38
772.554	5.38
773.302	6.38
774.049	3.38
774.796	6.38
775.543	7.38
776.29	4.38
777.036	2.38
777.783	3.38
778.53	4.38
779.276	5.38
780.023	6.38
780.769	5.38
781.516	2.38
782.262	5.38
783.008	7.38
783.754	5.38
784.5	6.38
785.246	6.38
785.992	3.38
786.738	7.38
787.484	5.38
788.23	2.38
788.975	6.38
789.721	5.38
790.466	4.38
791.212	5.38
791.957	6.38
792.702	7.38
793.447	5.38
794.193	5.38
794.938	5.38
795.683	5.38
796.427	5.38
797.172	4.38
797.917	7.38
798.662	5.38
799.406	7.38
800.151	5.38
800.895	5.38
801.64	6.38
802.384	2.38
803.128	4.38
803.872	5.38
804.616	4.38
805.36	2.38
806.104	7.38
806.848	2.38
807.592	4.38
808.336	4.38
809.079	2.38
809.823	5.38
810.566	3.38
811.31	5.38
812.053	3.38
812.796	2.38
813.539	3.38
814.283	2.38
815.026	3.38
815.769	2.38
816.511	5.38
817.254	1.38
817.997	3.38
818.74	4.38
819.482	3.38
820.225	4.38
820.967	4.38
821.71	5.38
822.452	2.38
823.194	4.38
823.936	3.38
824.678	3.38
825.42	3.38
826.162	3.38
826.904	3.38
827.646	4.38
828.388	1.38
829.129	3.38
829.871	4.38
830.612	3.38
831.354	4.38
832.095	2.38
832.836	1.38
833.577	1.38
834.319	1.38
835.06	1.38
835.801	3.38
836.542	3.38
837.282	2.38
838.023	0.38
838.764	1.38
839.504	2.38
840.245	3.38
840.985	3.38
841.726	2.38
842.466	1.38
843.206	3.38
843.946	1.38
844.687	2.38
845.427	2.38
846.166	3.38
846.906	2.38
847.646	2.38
848.386	2.38
849.125	1.38
849.865	-0.62
850.605	1.38
851.344	3.38
852.083	2.38
852.823	1.38
853.562	0.38
854.301	0.38
855.04	3.38
855.779	2.38
856.518	3.38
857.257	2.38
857.995	2.38
858.734	1.38
859.473	2.38
860.211	1.38
860.95	2.38
861.688	1.38
862.426	0.38
863.165	1.38
863.903	0.38
864.641	1.38
865.379	3.38
866.117	-1.62
866.855	1.38
867.593	2.38
868.33	0.38
869.068	0.38
869.806	-0.62
870.543	2.38
871.28	-1.62
872.018	2.38
872.755	1.38
873.492	2.38
874.229	-0.62
874.967	0.38
875.703	2.38
876.44	1.38
877.177	3.38
877.914	2.38
878.651	1.38
879.387	-0.62
880.124	-0.62
880.86	1.38
881.597	2.38
882.333	2.38
883.069	1.38
883.806	2.38
884.542	0.38
885.278	-2.62
886.014	1.38
886.749	0.38
887.485	0.38
888.221	1.38
888.957	2.38
889.692	0.38
890.428	0.38
891.163	0.38
891.899	1.38
892.634	-0.62
893.369	1.38
894.104	0.38
894.839	1.38
895.574	-1.62
896.309	1.38
897.044	1.38
897.779	1.38
898.514	-1.62
899.248	-1.62
899.983	1.38
900.717	0.38
901.452	0.38
902.186	0.38
902.92	1.38
903.654	1.38
904.389	1.38
905.123	1.38
905.857	0.38
906.59	1.38
907.324	0.38
908.058	1.38
908.792	0.38
909.525	2.38
910.259	-0.62
910.992	-1.62
911.726	2.38
912.459	-0.62
913.192	0.38
913.925	-2.62
914.658	2.38
915.391	0.38
916.124	1.38
916.857	4.38
917.59	-1.62
918.323	1.38
919.055	0.38
919.788	1.38
920.521	1.38
921.253	1.38
921.985	-0.62
922.718	-0.62
923.45	-1.62
924.182	0.38
924.914	0.38
925.646	0.38
926.378	0.38
927.11	1.38
927.841	0.38
928.573	0.38
929.305	1.38
930.036	1.38
930.768	0.38
931.499	-1.62
932.23	2.38
932.962	0.38
933.693	0.38
934.424	1.38
935.155	-0.62
935.886	3.38
936.617	0.38
937.348	1.38
938.078	0.38
938.809	0.38
939.54	0.38
940.27	-1.62
941.001	-1.62
941.731	1.38
942.461	-0.62
943.191	0.38
943.922	-0.62
944.652	1.38
945.382	-0.62
946.112	1.38
946.841	1.38
947.571	0.38
948.301	0.38
949.031	-2.62
949.76	3.38
950.49	0.38
951.219	0.38
951.948	0.38
952.678	0.38
953.407	-0.62
954.136	-0.62
954.865	0.38
955.594	1.38
956.323	2.38
957.052	0.38
957.78	1.38
958.509	-0.62
959.238	0.38
959.966	-0.62
960.695	0.38
961.423	0.38
962.151	1.38
962.88	0.38
963.608	1.38
964.336	1.38
965.064	-0.62
965.792	0.38
966.52	1.38
967.247	1.38
967.975	0.38
968.703	1.38
969.43	0.38
970.158	-1.62
970.885	1.38
971.613	1.38
972.34	-1.62
973.067	-0.62
973.794	2.38
974.521	0.38
975.248	1.38
975.975	1.38
976.702	3.38
977.429	-1.62
978.156	0.38
978.882	0.38
979.609	0.38
980.335	-0.62
981.062	0.38
981.788	0.38
982.514	-0.62
983.24	0.38
983.967	1.38
984.693	-0.62
985.419	0.38
986.144	0.38
986.87	1.38
987.596	0.38
988.322	-0.62
989.047	4.38
989.773	-0.62
990.498	1.38
991.224	-0.62
991.949	2.38
992.674	2.38
993.399	-0.62
994.124	1.38
994.849	1.38
995.574	2.38
996.299	-0.62
997.024	0.38
997.749	0.38
998.473	0.38
999.198	-0.62
999.922	-1.62
1000.647	-1.62
1001.371	1.38
1002.095	0.38
1002.82	-2.62
1003.544	-0.62
1004.268	1.38
1004.992	1.38
1005.716	1.38
1006.439	0.38
1007.163	-0.62
1007.887	-1.62
1008.611	-1.62
1009.334	2.38
1010.058	1.38
1010.781	-0.62
1011.504	1.38
1012.228	-0.62
1012.951	0.38
1013.674	-0.62
1014.397	1.38
1015.12	0.38
