节点500_145_QEPB04081__653__11-39-19-095.txt的数据

Date: Wed Nov 12 11:39:19 CST 2025
User: PC
Spectrometer: QEPB0408
触发模式: 0
积分时间 (秒): 1.000000E-2
Scans to average: 1
启用暗噪声校正: true
启用非线性校正: false
滑动平均宽度: 0
X轴模式: Wavelengths
Number of Pixels in Spectrum: 1044
>>>>>Begin Spectral Data<<<<<
220.843	-2
221.644	-1
222.444	-1
223.244	-2
224.045	-1
224.845	-2
225.645	-3
226.445	-1
227.245	2
228.045	0
228.845	-1
229.645	-1
230.444	-2
231.244	-1
232.043	1
232.843	1
233.642	1
234.442	1
235.241	1
236.04	-1
236.839	2
237.638	0
238.437	2
239.236	-1
240.035	1
240.833	3
241.632	3
242.43	1
243.229	-1
244.027	2
244.826	2
245.624	2
246.422	1
247.22	1
248.018	1
248.816	1
249.614	3
250.412	-1
251.21	1
252.007	2
252.805	1
253.602	3
254.4	0
255.197	4
255.994	4
256.791	2
257.589	5
258.386	1
259.183	3
259.979	3
260.776	4
261.573	4
262.37	2
263.166	4
263.963	3
264.759	2
265.556	4
266.352	4
267.148	6
267.944	8
268.74	6
269.536	7
270.332	5
271.128	8
271.924	8
272.719	6
273.515	6
274.311	8
275.106	3
275.901	8
276.697	7
277.492	8
278.287	9
279.082	9
279.877	8
280.672	7
281.467	9
282.262	9
283.056	11
283.851	11
284.646	8
285.44	12
286.234	8
287.029	11
287.823	8
288.617	9
289.411	9
290.205	9
290.999	9
291.793	10
292.587	11
293.381	8
294.174	11
294.968	10
295.761	8
296.555	9
297.348	6
298.141	7
298.935	11
299.728	5
300.521	7
301.314	10
302.107	7
302.899	8
303.692	7
304.485	8
305.277	7
306.07	9
306.862	5
307.655	7
308.447	7
309.239	6
310.031	7
310.823	7
311.615	7
312.407	8
313.199	8
313.991	6
314.783	6
315.574	4
316.366	7
317.157	4
317.949	3
318.74	5
319.531	5
320.322	4
321.113	4
321.904	5
322.695	5
323.486	3
324.277	5
325.068	4
325.858	5
326.649	5
327.439	4
328.23	3
329.02	4
329.81	5
330.6	2
331.391	5
332.181	3
332.971	1
333.76	1
334.55	4
335.34	5
336.13	4
336.919	2
337.709	3
338.498	2
339.287	2
340.077	2
340.866	4
341.655	4
342.444	3
343.233	2
344.022	2
344.811	2
345.6	3
346.388	6
347.177	1
347.965	2
348.754	0
349.542	3
350.33	1
351.119	2
351.907	1
352.695	5
353.483	3
354.271	3
355.059	1
355.846	2
356.634	2
357.422	1
358.209	4
358.997	2
359.784	2
360.571	0
361.359	2
362.146	2
362.933	1
363.72	0
364.507	1
365.294	3
366.081	1
366.867	3
367.654	1
368.44	5
369.227	4
370.013	3
370.8	3
371.586	1
372.372	4
373.158	3
373.944	2
374.73	2
375.516	2
376.302	1
377.088	2
377.873	4
378.659	2
379.445	4
380.23	2
381.015	2
381.801	2
382.586	3
383.371	3
384.156	4
384.941	4
385.726	2
386.511	5
387.296	1
388.08	2
388.865	5
389.649	2
390.434	2
391.218	3
392.003	5
392.787	3
393.571	2
394.355	4
395.139	5
395.923	1
396.707	2
397.491	2
398.274	3
399.058	1
399.842	3
400.625	1
401.408	2
402.192	1
402.975	3
403.758	4
404.541	1
405.324	6
406.107	2
406.89	4
407.673	3
408.456	5
409.238	6
410.021	4
410.803	3
411.586	4
412.368	3
413.151	3
413.933	3
414.715	3
415.497	5
416.279	6
417.061	4
417.843	4
418.624	6
419.406	6
420.188	3
420.969	3
421.751	5
422.532	3
423.313	5
424.095	7
424.876	7
425.657	6
426.438	6
427.219	9
428	7
428.78	6
429.561	6
430.342	6
431.122	7
431.903	7
432.683	10
433.464	7
434.244	9
435.024	8
435.804	8
436.584	9
437.364	7
438.144	11
438.924	12
439.704	8
440.483	13
441.263	11
442.042	13
442.822	14
443.601	14
444.38	12
445.16	17
445.939	19
446.718	21
447.497	21
448.276	19
449.054	24
449.833	25
450.612	25
451.391	30
452.169	29
452.948	35
453.726	37
454.504	44
455.282	49
456.061	50
456.839	58
457.617	61
458.395	68
459.172	73
459.95	82
460.728	88
461.506	101
462.283	115
463.061	125
463.838	143
464.615	160
465.393	176
466.17	194
466.947	217
467.724	242
468.501	269
469.278	292
470.055	327
470.831	367
471.608	403
472.385	446
473.161	488
473.938	542
474.714	603
475.49	654
476.266	716
477.043	797
477.819	888
478.595	963
479.371	1036
480.146	1164
480.922	1269
481.698	1395
482.473	1522
483.249	1661
484.024	1821
484.8	1996
485.575	2155
486.35	2392
487.126	2607
487.901	2841
488.676	3078
489.451	3390
490.225	3697
491	4037
491.775	4435
492.55	4791
493.324	5204
494.099	5693
494.873	6155
495.647	6666
496.422	7193
497.196	7775
497.97	8391
498.744	8990
499.518	9673
500.292	10258
501.066	10917
501.839	11479
502.613	12085
503.387	12723
504.16	13261
504.934	13717
505.707	14139
506.48	14469
507.253	14753
508.027	14975
508.8	15033
509.573	15045
510.346	14981
511.118	14827
511.891	14546
512.664	14251
513.437	13927
514.209	13490
514.982	13107
515.754	12590
516.526	12139
517.298	11638
518.071	11151
518.843	10711
519.615	10256
520.387	9849
521.159	9464
521.93	9078
522.702	8698
523.474	8398
524.245	8033
525.017	7731
525.788	7423
526.56	7126
527.331	6856
528.102	6567
528.873	6286
529.644	6035
530.415	5757
531.186	5513
531.957	5260
532.728	5015
533.498	4770
534.269	4500
535.039	4297
535.81	4039
536.58	3856
537.351	3629
538.121	3450
538.891	3271
539.661	3089
540.431	2891
541.201	2757
541.971	2600
542.741	2475
543.51	2341
544.28	2231
545.05	2100
545.819	2001
546.588	1913
547.358	1820
548.127	1721
548.896	1635
549.665	1557
550.434	1495
551.203	1407
551.972	1326
552.741	1273
553.51	1207
554.278	1133
555.047	1071
555.815	1013
556.584	954
557.352	907
558.121	859
558.889	809
559.657	757
560.425	721
561.193	686
561.961	637
562.729	605
563.496	579
564.264	529
565.032	511
565.799	485
566.567	450
567.334	422
568.101	404
568.869	383
569.636	361
570.403	338
571.17	314
571.937	305
572.704	282
573.471	270
574.237	254
575.004	229
575.771	220
576.537	212
577.303	197
578.07	188
578.836	180
579.602	160
580.368	165
581.134	151
581.9	145
582.666	137
583.432	125
584.198	119
584.964	112
585.729	108
586.495	102
587.26	95
588.025	90
588.791	86
589.556	80
590.321	77
591.086	72
591.851	70
592.616	66
593.381	61
594.146	59
594.911	55
595.675	52
596.44	47
597.204	45
597.969	47
598.733	45
599.497	41
600.261	40
601.025	35
601.79	39
602.553	33
603.317	32
604.081	30
604.845	34
605.609	26
606.372	29
607.136	27
607.899	26
608.662	23
609.426	21
610.189	20
610.952	20
611.715	21
612.478	16
613.241	17
614.004	19
614.767	17
615.529	16
616.292	16
617.055	14
617.817	11
618.579	14
619.342	14
620.104	13
620.866	15
621.628	12
622.39	12
623.152	12
623.914	13
624.676	13
625.438	12
626.199	9
626.961	11
627.722	9
628.484	11
629.245	7
630.006	9
630.768	9
631.529	8
632.29	7
633.051	8
633.812	7
634.573	5
635.333	6
636.094	6
636.855	5
637.615	6
638.376	6
639.136	7
639.896	4
640.657	7
641.417	6
642.177	7
642.937	6
643.697	5
644.457	5
645.216	4
645.976	5
646.736	4
647.495	4
648.255	5
649.014	2
649.774	4
650.533	3
651.292	2
652.051	6
652.81	4
653.569	4
654.328	2
655.087	4
655.846	2
656.604	6
657.363	3
658.121	2
658.88	4
659.638	4
660.397	3
661.155	0
661.913	4
662.671	1
663.429	2
664.187	4
664.945	3
665.703	3
666.46	3
667.218	4
667.976	1
668.733	1
669.49	3
670.248	2
671.005	2
671.762	0
672.519	3
673.276	2
674.033	3
674.79	3
675.547	2
676.304	2
677.06	2
677.817	3
678.574	0
679.33	1
680.086	2
680.843	4
681.599	2
682.355	1
683.111	4
683.867	2
684.623	1
685.379	2
686.135	-1
686.89	4
687.646	-1
688.402	2
689.157	3
689.912	4
690.668	3
691.423	-1
692.178	1
692.933	3
693.688	3
694.443	2
695.198	1
695.953	2
696.708	1
697.462	2
698.217	1
698.972	3
699.726	2
700.48	1
701.235	2
701.989	2
702.743	1
703.497	3
704.251	1
705.005	2
705.759	3
706.513	0
707.266	0
708.02	3
708.774	1
709.527	3
710.28	3
711.034	1
711.787	2
712.54	1
713.293	0
714.046	2
714.799	2
715.552	-1
716.305	1
717.058	1
717.81	1
718.563	2
719.315	3
720.068	3
720.82	1
721.573	2
722.325	1
723.077	-2
723.829	3
724.581	1
725.333	3
726.085	2
726.836	3
727.588	1
728.34	0
729.091	0
729.843	2
730.594	1
731.346	3
732.097	2
732.848	3
733.599	1
734.35	2
735.101	3
735.852	1
736.603	1
737.354	3
738.104	2
738.855	1
739.605	1
740.356	0
741.106	4
741.856	2
742.607	2
743.357	2
744.107	2
744.857	1
745.607	1
746.357	3
747.106	1
747.856	1
748.606	3
749.355	3
750.105	3
750.854	3
751.603	3
752.353	4
753.102	2
753.851	3
754.6	2
755.349	1
756.098	1
756.847	1
757.595	3
758.344	3
759.093	0
759.841	1
760.589	3
761.338	5
762.086	2
762.834	4
763.582	5
764.331	3
765.079	2
765.826	3
766.574	4
767.322	4
768.07	2
768.817	5
769.565	1
770.312	2
771.06	5
771.807	5
772.554	2
773.302	3
774.049	3
774.796	4
775.543	2
776.29	5
777.036	5
777.783	5
778.53	4
779.276	4
780.023	3
780.769	6
781.516	5
782.262	6
783.008	2
783.754	4
784.5	2
785.246	4
785.992	4
786.738	5
787.484	5
788.23	5
788.975	4
789.721	4
790.466	6
791.212	6
791.957	3
792.702	5
793.447	5
794.193	4
794.938	4
795.683	3
796.427	3
797.172	3
797.917	5
798.662	2
799.406	4
800.151	5
800.895	5
801.64	5
802.384	3
803.128	2
803.872	2
804.616	4
805.36	3
806.104	3
806.848	3
807.592	4
808.336	7
809.079	4
809.823	6
810.566	1
811.31	3
812.053	3
812.796	3
813.539	3
814.283	3
815.026	5
815.769	3
816.511	2
817.254	2
817.997	2
818.74	2
819.482	3
820.225	2
820.967	2
821.71	2
822.452	1
823.194	1
823.936	3
824.678	3
825.42	1
826.162	4
826.904	5
827.646	2
828.388	3
829.129	2
829.871	0
830.612	1
831.354	3
832.095	3
832.836	1
833.577	1
834.319	1
835.06	0
835.801	2
836.542	2
837.282	3
838.023	2
838.764	2
839.504	1
840.245	1
840.985	2
841.726	3
842.466	2
843.206	2
843.946	2
844.687	2
845.427	-1
846.166	3
846.906	1
847.646	2
848.386	2
849.125	1
849.865	2
850.605	1
851.344	1
852.083	2
852.823	-1
853.562	3
854.301	1
855.04	1
855.779	2
856.518	3
857.257	2
857.995	3
858.734	2
859.473	1
860.211	1
860.95	1
861.688	2
862.426	0
863.165	0
863.903	3
864.641	0
865.379	1
866.117	0
866.855	0
867.593	1
868.33	3
869.068	0
869.806	-1
870.543	2
871.28	2
872.018	0
872.755	1
873.492	0
874.229	1
874.967	-1
875.703	0
876.44	1
877.177	1
877.914	2
878.651	0
879.387	1
880.124	0
880.86	-1
881.597	0
882.333	0
883.069	2
883.806	-1
884.542	0
885.278	-2
886.014	0
886.749	0
887.485	-1
888.221	1
888.957	0
889.692	2
890.428	1
891.163	0
891.899	0
892.634	2
893.369	1
894.104	1
894.839	1
895.574	-2
896.309	1
897.044	1
897.779	0
898.514	0
899.248	-2
899.983	0
900.717	1
901.452	0
902.186	1
902.92	-2
903.654	1
904.389	0
905.123	1
905.857	-3
906.59	-1
907.324	-2
908.058	1
908.792	-1
909.525	1
910.259	1
910.992	1
911.726	-1
912.459	2
913.192	-1
913.925	-2
914.658	-1
915.391	1
916.124	-1
916.857	2
917.59	1
918.323	3
919.055	2
919.788	0
920.521	-2
921.253	0
921.985	-2
922.718	-2
923.45	0
924.182	-1
924.914	1
925.646	2
926.378	-2
927.11	1
927.841	0
928.573	-1
929.305	-1
930.036	2
930.768	1
931.499	1
932.23	-2
932.962	0
933.693	0
934.424	-2
935.155	-1
935.886	0
936.617	1
937.348	0
938.078	-1
938.809	0
939.54	-2
940.27	0
941.001	0
941.731	-2
942.461	-2
943.191	-1
943.922	1
944.652	-1
945.382	2
946.112	0
946.841	0
947.571	0
948.301	2
949.031	0
949.76	-1
950.49	-1
951.219	0
951.948	0
952.678	1
953.407	0
954.136	1
954.865	-1
955.594	-2
956.323	1
957.052	0
957.78	1
958.509	1
959.238	0
959.966	0
960.695	-1
961.423	0
962.151	-3
962.88	2
963.608	-1
964.336	0
965.064	1
965.792	-2
966.52	-2
967.247	0
967.975	0
968.703	-4
969.43	-2
970.158	-1
970.885	-2
971.613	1
972.34	-1
973.067	2
973.794	0
974.521	-2
975.248	1
975.975	-2
976.702	1
977.429	-1
978.156	1
978.882	-2
979.609	0
980.335	0
981.062	0
981.788	2
982.514	1
983.24	-1
983.967	1
984.693	2
985.419	-1
986.144	-1
986.87	1
987.596	-2
988.322	2
989.047	-1
989.773	1
990.498	0
991.224	1
991.949	2
992.674	0
993.399	-1
994.124	0
994.849	1
995.574	0
996.299	1
997.024	0
997.749	0
998.473	2
999.198	-1
999.922	-1
1000.647	0
1001.371	5
1002.095	0
1002.82	1
1003.544	-2
1004.268	0
1004.992	-2
1005.716	-2
1006.439	-1
1007.163	0
1007.887	1
1008.611	1
1009.334	-2
1010.058	0
1010.781	-1
1011.504	2
1012.228	0
1012.951	-2
1013.674	-2
1014.397	2
1015.12	-2
