节点500_145_QEPB04081__167__11-31-37-549.txt的数据

Date: Wed Nov 12 11:31:37 CST 2025
User: PC
Spectrometer: QEPB0408
触发模式: 0
积分时间 (秒): 1.000000E-2
Scans to average: 1
启用暗噪声校正: true
启用非线性校正: false
滑动平均宽度: 0
X轴模式: Wavelengths
Number of Pixels in Spectrum: 1044
>>>>>Begin Spectral Data<<<<<
220.843	2.38
221.644	0.38
222.444	-0.62
223.244	0.38
224.045	0.38
224.845	-0.62
225.645	1.38
226.445	-1.62
227.245	1.38
228.045	0.38
228.845	1.38
229.645	-1.62
230.444	1.38
231.244	3.38
232.043	1.38
232.843	1.38
233.642	-1.62
234.442	1.38
235.241	2.38
236.04	4.38
236.839	0.38
237.638	0.38
238.437	1.38
239.236	1.38
240.035	1.38
240.833	1.38
241.632	1.38
242.43	1.38
243.229	0.38
244.027	-2.62
244.826	2.38
245.624	1.38
246.422	0.38
247.22	2.38
248.018	3.38
248.816	2.38
249.614	3.38
250.412	3.38
251.21	1.38
252.007	1.38
252.805	3.38
253.602	3.38
254.4	1.38
255.197	3.38
255.994	5.38
256.791	5.38
257.589	5.38
258.386	4.38
259.183	2.38
259.979	2.38
260.776	5.38
261.573	3.38
262.37	3.38
263.166	5.38
263.963	3.38
264.759	6.38
265.556	4.38
266.352	6.38
267.148	6.38
267.944	4.38
268.74	7.38
269.536	8.38
270.332	8.38
271.128	6.38
271.924	9.38
272.719	11.38
273.515	10.38
274.311	8.38
275.106	8.38
275.901	10.38
276.697	8.38
277.492	8.38
278.287	10.38
279.082	9.38
279.877	11.38
280.672	11.38
281.467	12.38
282.262	12.38
283.056	12.38
283.851	11.38
284.646	9.38
285.44	13.38
286.234	10.38
287.029	10.38
287.823	10.38
288.617	11.38
289.411	11.38
290.205	11.38
290.999	13.38
291.793	11.38
292.587	10.38
293.381	10.38
294.174	10.38
294.968	12.38
295.761	10.38
296.555	11.38
297.348	9.38
298.141	11.38
298.935	10.38
299.728	9.38
300.521	9.38
301.314	9.38
302.107	11.38
302.899	5.38
303.692	8.38
304.485	8.38
305.277	7.38
306.07	9.38
306.862	6.38
307.655	7.38
308.447	8.38
309.239	8.38
310.031	10.38
310.823	6.38
311.615	7.38
312.407	5.38
313.199	6.38
313.991	7.38
314.783	5.38
315.574	6.38
316.366	6.38
317.157	7.38
317.949	7.38
318.74	5.38
319.531	5.38
320.322	7.38
321.113	5.38
321.904	3.38
322.695	4.38
323.486	4.38
324.277	3.38
325.068	4.38
325.858	5.38
326.649	5.38
327.439	3.38
328.23	2.38
329.02	3.38
329.81	5.38
330.6	3.38
331.391	3.38
332.181	5.38
332.971	4.38
333.76	5.38
334.55	3.38
335.34	6.38
336.13	4.38
336.919	4.38
337.709	5.38
338.498	2.38
339.287	5.38
340.077	3.38
340.866	3.38
341.655	2.38
342.444	3.38
343.233	3.38
344.022	2.38
344.811	4.38
345.6	4.38
346.388	2.38
347.177	2.38
347.965	1.38
348.754	1.38
349.542	2.38
350.33	4.38
351.119	1.38
351.907	3.38
352.695	4.38
353.483	3.38
354.271	4.38
355.059	4.38
355.846	4.38
356.634	2.38
357.422	4.38
358.209	3.38
358.997	2.38
359.784	2.38
360.571	0.38
361.359	5.38
362.146	3.38
362.933	2.38
363.72	1.38
364.507	2.38
365.294	3.38
366.081	2.38
366.867	4.38
367.654	2.38
368.44	3.38
369.227	0.38
370.013	1.38
370.8	2.38
371.586	3.38
372.372	3.38
373.158	4.38
373.944	1.38
374.73	2.38
375.516	3.38
376.302	4.38
377.088	4.38
377.873	4.38
378.659	3.38
379.445	2.38
380.23	3.38
381.015	3.38
381.801	3.38
382.586	3.38
383.371	2.38
384.156	5.38
384.941	2.38
385.726	2.38
386.511	2.38
387.296	5.38
388.08	3.38
388.865	2.38
389.649	4.38
390.434	5.38
391.218	3.38
392.003	2.38
392.787	4.38
393.571	7.38
394.355	5.38
395.139	3.38
395.923	3.38
396.707	4.38
397.491	3.38
398.274	5.38
399.058	1.38
399.842	6.38
400.625	2.38
401.408	4.38
402.192	5.38
402.975	3.38
403.758	4.38
404.541	4.38
405.324	3.38
406.107	6.38
406.89	2.38
407.673	5.38
408.456	5.38
409.238	5.38
410.021	1.38
410.803	3.38
411.586	6.38
412.368	6.38
413.151	6.38
413.933	5.38
414.715	5.38
415.497	5.38
416.279	5.38
417.061	5.38
417.843	6.38
418.624	3.38
419.406	4.38
420.188	4.38
420.969	5.38
421.751	8.38
422.532	7.38
423.313	5.38
424.095	7.38
424.876	6.38
425.657	4.38
426.438	6.38
427.219	7.38
428	7.38
428.78	7.38
429.561	7.38
430.342	6.38
431.122	6.38
431.903	7.38
432.683	8.38
433.464	8.38
434.244	9.38
435.024	10.38
435.804	10.38
436.584	9.38
437.364	12.38
438.144	10.38
438.924	10.38
439.704	10.38
440.483	10.38
441.263	11.38
442.042	14.38
442.822	14.38
443.601	12.38
444.38	14.38
445.16	17.38
445.939	18.38
446.718	17.38
447.497	20.38
448.276	18.38
449.054	19.38
449.833	23.38
450.612	22.38
451.391	28.38
452.169	28.38
452.948	31.38
453.726	33.38
454.504	37.38
455.282	37.38
456.061	42.38
456.839	47.38
457.617	49.38
458.395	59.38
459.172	63.38
459.95	68.38
460.728	78.38
461.506	84.38
462.283	97.38
463.061	104.38
463.838	120.38
464.615	129.38
465.393	145.38
466.17	172.38
466.947	179.38
467.724	203.38
468.501	234.38
469.278	258.38
470.055	287.38
470.831	322.38
471.608	356.38
472.385	387.38
473.161	436.38
473.938	490.38
474.714	545.38
475.49	611.38
476.266	688.38
477.043	757.38
477.819	827.38
478.595	928.38
479.371	1048.38
480.146	1133.38
480.922	1258.38
481.698	1402.38
482.473	1547.38
483.249	1697.38
484.024	1889.38
484.8	2080.38
485.575	2317.38
486.35	2563.38
487.126	2855.38
487.901	3158.38
488.676	3445.38
489.451	3849.38
490.225	4209.38
491	4669.38
491.775	5116.38
492.55	5648.38
493.324	6192.38
494.099	6769.38
494.873	7436.38
495.647	8143.38
496.422	8837.38
497.196	9558.38
497.97	10341.38
498.744	11090.38
499.518	11925.38
500.292	12676.38
501.066	13511.38
501.839	14166.38
502.613	14917.38
503.387	15506.38
504.16	16035.38
504.934	16462.38
505.707	16765.38
506.48	17039.38
507.253	17063.38
508.027	17060.38
508.8	16974.38
509.573	16738.38
510.346	16408.38
511.118	16005.38
511.891	15509.38
512.664	15048.38
513.437	14424.38
514.209	13876.38
514.982	13188.38
515.754	12687.38
516.526	12105.38
517.298	11541.38
518.071	11013.38
518.843	10519.38
519.615	10074.38
520.387	9671.38
521.159	9270.38
521.93	8924.38
522.702	8561.38
523.474	8244.38
524.245	7935.38
525.017	7579.38
525.788	7291.38
526.56	6973.38
527.331	6710.38
528.102	6388.38
528.873	6116.38
529.644	5816.38
530.415	5557.38
531.186	5292.38
531.957	4970.38
532.728	4708.38
533.498	4492.38
534.269	4240.38
535.039	4020.38
535.81	3761.38
536.58	3546.38
537.351	3356.38
538.121	3180.38
538.891	2989.38
539.661	2817.38
540.431	2651.38
541.201	2533.38
541.971	2394.38
542.741	2263.38
543.51	2129.38
544.28	2053.38
545.05	1942.38
545.819	1841.38
546.588	1757.38
547.358	1667.38
548.127	1593.38
548.896	1497.38
549.665	1444.38
550.434	1364.38
551.203	1287.38
551.972	1223.38
552.741	1139.38
553.51	1092.38
554.278	1037.38
555.047	975.38
555.815	918.38
556.584	855.38
557.352	814.38
558.121	771.38
558.889	717.38
559.657	685.38
560.425	635.38
561.193	624.38
561.961	568.38
562.729	530.38
563.496	513.38
564.264	487.38
565.032	445.38
565.799	431.38
566.567	395.38
567.334	388.38
568.101	358.38
568.869	335.38
569.636	321.38
570.403	301.38
571.17	285.38
571.937	272.38
572.704	252.38
573.471	237.38
574.237	229.38
575.004	211.38
575.771	192.38
576.537	182.38
577.303	178.38
578.07	163.38
578.836	157.38
579.602	145.38
580.368	140.38
581.134	134.38
581.9	125.38
582.666	119.38
583.432	110.38
584.198	111.38
584.964	97.38
585.729	98.38
586.495	88.38
587.26	84.38
588.025	80.38
588.791	75.38
589.556	73.38
590.321	73.38
591.086	65.38
591.851	61.38
592.616	59.38
593.381	60.38
594.146	53.38
594.911	48.38
595.675	49.38
596.44	44.38
597.204	40.38
597.969	43.38
598.733	40.38
599.497	38.38
600.261	34.38
601.025	33.38
601.79	34.38
602.553	32.38
603.317	31.38
604.081	29.38
604.845	29.38
605.609	22.38
606.372	26.38
607.136	24.38
607.899	25.38
608.662	23.38
609.426	21.38
610.189	19.38
610.952	19.38
611.715	20.38
612.478	18.38
613.241	18.38
614.004	17.38
614.767	14.38
615.529	12.38
616.292	17.38
617.055	14.38
617.817	14.38
618.579	14.38
619.342	12.38
620.104	12.38
620.866	13.38
621.628	13.38
622.39	12.38
623.152	11.38
623.914	10.38
624.676	11.38
625.438	12.38
626.199	8.38
626.961	7.38
627.722	8.38
628.484	7.38
629.245	8.38
630.006	8.38
630.768	7.38
631.529	9.38
632.29	6.38
633.051	7.38
633.812	6.38
634.573	9.38
635.333	7.38
636.094	5.38
636.855	9.38
637.615	7.38
638.376	5.38
639.136	7.38
639.896	5.38
640.657	5.38
641.417	7.38
642.177	5.38
642.937	4.38
643.697	7.38
644.457	4.38
645.216	5.38
645.976	5.38
646.736	5.38
647.495	4.38
648.255	6.38
649.014	5.38
649.774	3.38
650.533	5.38
651.292	3.38
652.051	6.38
652.81	3.38
653.569	4.38
654.328	2.38
655.087	2.38
655.846	2.38
656.604	2.38
657.363	4.38
658.121	1.38
658.88	3.38
659.638	5.38
660.397	3.38
661.155	3.38
661.913	2.38
662.671	3.38
663.429	4.38
664.187	3.38
664.945	5.38
665.703	3.38
666.46	4.38
667.218	3.38
667.976	1.38
668.733	4.38
669.49	3.38
670.248	4.38
671.005	2.38
671.762	1.38
672.519	3.38
673.276	0.38
674.033	2.38
674.79	0.38
675.547	1.38
676.304	2.38
677.06	2.38
677.817	3.38
678.574	2.38
679.33	1.38
680.086	1.38
680.843	2.38
681.599	4.38
682.355	0.38
683.111	3.38
683.867	4.38
684.623	3.38
685.379	2.38
686.135	3.38
686.89	2.38
687.646	2.38
688.402	2.38
689.157	1.38
689.912	4.38
690.668	1.38
691.423	3.38
692.178	2.38
692.933	1.38
693.688	1.38
694.443	-1.62
695.198	2.38
695.953	2.38
696.708	2.38
697.462	2.38
698.217	5.38
698.972	3.38
699.726	1.38
700.48	2.38
701.235	3.38
701.989	2.38
702.743	4.38
703.497	3.38
704.251	3.38
705.005	3.38
705.759	2.38
706.513	0.38
707.266	2.38
708.02	1.38
708.774	1.38
709.527	3.38
710.28	2.38
711.034	2.38
711.787	3.38
712.54	2.38
713.293	3.38
714.046	3.38
714.799	1.38
715.552	3.38
716.305	2.38
717.058	3.38
717.81	4.38
718.563	3.38
719.315	3.38
720.068	2.38
720.82	1.38
721.573	1.38
722.325	2.38
723.077	2.38
723.829	1.38
724.581	1.38
725.333	4.38
726.085	1.38
726.836	3.38
727.588	4.38
728.34	2.38
729.091	0.38
729.843	2.38
730.594	4.38
731.346	3.38
732.097	4.38
732.848	1.38
733.599	3.38
734.35	2.38
735.101	1.38
735.852	2.38
736.603	3.38
737.354	2.38
738.104	1.38
738.855	5.38
739.605	4.38
740.356	2.38
741.106	3.38
741.856	3.38
742.607	0.38
743.357	2.38
744.107	3.38
744.857	3.38
745.607	3.38
746.357	2.38
747.106	1.38
747.856	2.38
748.606	3.38
749.355	0.38
750.105	4.38
750.854	5.38
751.603	2.38
752.353	3.38
753.102	1.38
753.851	2.38
754.6	2.38
755.349	2.38
756.098	2.38
756.847	3.38
757.595	2.38
758.344	2.38
759.093	5.38
759.841	2.38
760.589	3.38
761.338	5.38
762.086	4.38
762.834	5.38
763.582	4.38
764.331	2.38
765.079	3.38
765.826	3.38
766.574	4.38
767.322	5.38
768.07	3.38
768.817	3.38
769.565	4.38
770.312	4.38
771.06	2.38
771.807	5.38
772.554	4.38
773.302	6.38
774.049	5.38
774.796	5.38
775.543	3.38
776.29	5.38
777.036	6.38
777.783	4.38
778.53	6.38
779.276	6.38
780.023	7.38
780.769	3.38
781.516	5.38
782.262	7.38
783.008	3.38
783.754	7.38
784.5	5.38
785.246	5.38
785.992	6.38
786.738	8.38
787.484	7.38
788.23	8.38
788.975	6.38
789.721	5.38
790.466	7.38
791.212	3.38
791.957	5.38
792.702	6.38
793.447	5.38
794.193	6.38
794.938	5.38
795.683	5.38
796.427	5.38
797.172	4.38
797.917	3.38
798.662	2.38
799.406	5.38
800.151	6.38
800.895	7.38
801.64	3.38
802.384	5.38
803.128	4.38
803.872	5.38
804.616	7.38
805.36	5.38
806.104	4.38
806.848	5.38
807.592	3.38
808.336	4.38
809.079	5.38
809.823	3.38
810.566	3.38
811.31	3.38
812.053	2.38
812.796	4.38
813.539	3.38
814.283	3.38
815.026	4.38
815.769	-0.62
816.511	4.38
817.254	3.38
817.997	4.38
818.74	2.38
819.482	4.38
820.225	5.38
820.967	2.38
821.71	5.38
822.452	4.38
823.194	3.38
823.936	4.38
824.678	2.38
825.42	4.38
826.162	1.38
826.904	3.38
827.646	2.38
828.388	1.38
829.129	2.38
829.871	2.38
830.612	2.38
831.354	3.38
832.095	3.38
832.836	1.38
833.577	2.38
834.319	1.38
835.06	1.38
835.801	3.38
836.542	1.38
837.282	1.38
838.023	1.38
838.764	3.38
839.504	5.38
840.245	3.38
840.985	1.38
841.726	-0.62
842.466	2.38
843.206	1.38
843.946	3.38
844.687	1.38
845.427	2.38
846.166	2.38
846.906	3.38
847.646	4.38
848.386	3.38
849.125	2.38
849.865	0.38
850.605	0.38
851.344	2.38
852.083	0.38
852.823	4.38
853.562	3.38
854.301	-0.62
855.04	3.38
855.779	2.38
856.518	1.38
857.257	1.38
857.995	1.38
858.734	1.38
859.473	1.38
860.211	2.38
860.95	0.38
861.688	3.38
862.426	3.38
863.165	2.38
863.903	2.38
864.641	3.38
865.379	2.38
866.117	-0.62
866.855	2.38
867.593	1.38
868.33	2.38
869.068	1.38
869.806	0.38
870.543	3.38
871.28	1.38
872.018	2.38
872.755	-0.62
873.492	1.38
874.229	0.38
874.967	-0.62
875.703	1.38
876.44	2.38
877.177	3.38
877.914	1.38
878.651	1.38
879.387	-0.62
880.124	1.38
880.86	2.38
881.597	2.38
882.333	-1.62
883.069	-1.62
883.806	0.38
884.542	0.38
885.278	1.38
886.014	2.38
886.749	1.38
887.485	0.38
888.221	0.38
888.957	0.38
889.692	0.38
890.428	0.38
891.163	-0.62
891.899	2.38
892.634	1.38
893.369	0.38
894.104	1.38
894.839	2.38
895.574	-1.62
896.309	0.38
897.044	0.38
897.779	-0.62
898.514	0.38
899.248	0.38
899.983	-0.62
900.717	-0.62
901.452	0.38
902.186	-1.62
902.92	2.38
903.654	2.38
904.389	0.38
905.123	0.38
905.857	-0.62
906.59	2.38
907.324	0.38
908.058	0.38
908.792	0.38
909.525	1.38
910.259	0.38
910.992	-0.62
911.726	1.38
912.459	1.38
913.192	0.38
913.925	1.38
914.658	1.38
915.391	1.38
916.124	-0.62
916.857	-1.62
917.59	2.38
918.323	1.38
919.055	2.38
919.788	2.38
920.521	0.38
921.253	1.38
921.985	1.38
922.718	1.38
923.45	0.38
924.182	-0.62
924.914	-1.62
925.646	1.38
926.378	1.38
927.11	-0.62
927.841	0.38
928.573	-1.62
929.305	1.38
930.036	0.38
930.768	2.38
931.499	0.38
932.23	0.38
932.962	0.38
933.693	0.38
934.424	0.38
935.155	1.38
935.886	2.38
936.617	-0.62
937.348	1.38
938.078	0.38
938.809	0.38
939.54	0.38
940.27	1.38
941.001	2.38
941.731	-0.62
942.461	-1.62
943.191	0.38
943.922	-0.62
944.652	-0.62
945.382	0.38
946.112	0.38
946.841	0.38
947.571	2.38
948.301	-0.62
949.031	0.38
949.76	1.38
950.49	1.38
951.219	1.38
951.948	1.38
952.678	1.38
953.407	-0.62
954.136	0.38
954.865	1.38
955.594	-0.62
956.323	1.38
957.052	-0.62
957.78	-0.62
958.509	0.38
959.238	0.38
959.966	2.38
960.695	-1.62
961.423	0.38
962.151	1.38
962.88	0.38
963.608	2.38
964.336	-1.62
965.064	-1.62
965.792	-0.62
966.52	0.38
967.247	1.38
967.975	-1.62
968.703	0.38
969.43	0.38
970.158	2.38
970.885	-1.62
971.613	-0.62
972.34	-0.62
973.067	-0.62
973.794	3.38
974.521	-0.62
975.248	1.38
975.975	-0.62
976.702	1.38
977.429	0.38
978.156	0.38
978.882	0.38
979.609	1.38
980.335	1.38
981.062	-1.62
981.788	-0.62
982.514	-1.62
983.24	0.38
983.967	1.38
984.693	-1.62
985.419	2.38
986.144	-0.62
986.87	0.38
987.596	1.38
988.322	1.38
989.047	0.38
989.773	1.38
990.498	1.38
991.224	-1.62
991.949	0.38
992.674	2.38
993.399	-1.62
994.124	1.38
994.849	-0.62
995.574	1.38
996.299	-0.62
997.024	0.38
997.749	1.38
998.473	-0.62
999.198	1.38
999.922	1.38
1000.647	3.38
1001.371	4.38
1002.095	-2.62
1002.82	0.38
1003.544	-1.62
1004.268	0.38
1004.992	-2.62
1005.716	-0.62
1006.439	-1.62
1007.163	-1.62
1007.887	1.38
1008.611	-1.62
1009.334	-0.62
1010.058	1.38
1010.781	-0.62
1011.504	1.38
1012.228	-0.62
1012.951	-2.62
1013.674	2.38
1014.397	-0.62
1015.12	0.38
