节点500_145_QEPB04081__336__11-34-18-574.txt的数据

Date: Wed Nov 12 11:34:18 CST 2025
User: PC
Spectrometer: QEPB0408
触发模式: 0
积分时间 (秒): 1.000000E-2
Scans to average: 1
启用暗噪声校正: true
启用非线性校正: false
滑动平均宽度: 0
X轴模式: Wavelengths
Number of Pixels in Spectrum: 1044
>>>>>Begin Spectral Data<<<<<
220.843	-1.75
221.644	-1.75
222.444	1.25
223.244	1.25
224.045	-0.75
224.845	0.25
225.645	0.25
226.445	-1.75
227.245	-0.75
228.045	0.25
228.845	-0.75
229.645	-1.75
230.444	1.25
231.244	2.25
232.043	1.25
232.843	-0.75
233.642	3.25
234.442	0.25
235.241	3.25
236.04	0.25
236.839	-0.75
237.638	0.25
238.437	1.25
239.236	2.25
240.035	1.25
240.833	2.25
241.632	2.25
242.43	-0.75
243.229	1.25
244.027	2.25
244.826	1.25
245.624	3.25
246.422	4.25
247.22	-0.75
248.018	2.25
248.816	4.25
249.614	1.25
250.412	1.25
251.21	5.25
252.007	4.25
252.805	3.25
253.602	1.25
254.4	2.25
255.197	2.25
255.994	2.25
256.791	5.25
257.589	2.25
258.386	5.25
259.183	1.25
259.979	5.25
260.776	2.25
261.573	5.25
262.37	4.25
263.166	6.25
263.963	5.25
264.759	6.25
265.556	5.25
266.352	4.25
267.148	5.25
267.944	6.25
268.74	7.25
269.536	5.25
270.332	6.25
271.128	9.25
271.924	7.25
272.719	7.25
273.515	8.25
274.311	8.25
275.106	8.25
275.901	10.25
276.697	8.25
277.492	8.25
278.287	12.25
279.082	7.25
279.877	7.25
280.672	10.25
281.467	8.25
282.262	10.25
283.056	8.25
283.851	13.25
284.646	9.25
285.44	10.25
286.234	9.25
287.029	10.25
287.823	12.25
288.617	9.25
289.411	10.25
290.205	10.25
290.999	11.25
291.793	9.25
292.587	8.25
293.381	9.25
294.174	11.25
294.968	11.25
295.761	8.25
296.555	11.25
297.348	12.25
298.141	8.25
298.935	11.25
299.728	10.25
300.521	11.25
301.314	9.25
302.107	9.25
302.899	8.25
303.692	9.25
304.485	9.25
305.277	7.25
306.07	10.25
306.862	9.25
307.655	5.25
308.447	7.25
309.239	5.25
310.031	10.25
310.823	8.25
311.615	6.25
312.407	6.25
313.199	7.25
313.991	7.25
314.783	4.25
315.574	4.25
316.366	5.25
317.157	7.25
317.949	4.25
318.74	5.25
319.531	5.25
320.322	4.25
321.113	4.25
321.904	7.25
322.695	3.25
323.486	3.25
324.277	3.25
325.068	4.25
325.858	4.25
326.649	5.25
327.439	4.25
328.23	4.25
329.02	4.25
329.81	5.25
330.6	6.25
331.391	2.25
332.181	4.25
332.971	2.25
333.76	2.25
334.55	6.25
335.34	1.25
336.13	4.25
336.919	3.25
337.709	5.25
338.498	2.25
339.287	1.25
340.077	4.25
340.866	4.25
341.655	3.25
342.444	5.25
343.233	3.25
344.022	5.25
344.811	3.25
345.6	5.25
346.388	1.25
347.177	5.25
347.965	2.25
348.754	2.25
349.542	2.25
350.33	5.25
351.119	2.25
351.907	1.25
352.695	4.25
353.483	1.25
354.271	3.25
355.059	5.25
355.846	3.25
356.634	3.25
357.422	2.25
358.209	2.25
358.997	3.25
359.784	2.25
360.571	4.25
361.359	4.25
362.146	2.25
362.933	3.25
363.72	5.25
364.507	5.25
365.294	3.25
366.081	2.25
366.867	3.25
367.654	1.25
368.44	1.25
369.227	5.25
370.013	2.25
370.8	1.25
371.586	1.25
372.372	2.25
373.158	5.25
373.944	2.25
374.73	4.25
375.516	3.25
376.302	3.25
377.088	2.25
377.873	1.25
378.659	3.25
379.445	2.25
380.23	3.25
381.015	1.25
381.801	4.25
382.586	1.25
383.371	4.25
384.156	2.25
384.941	-1.75
385.726	3.25
386.511	1.25
387.296	1.25
388.08	4.25
388.865	1.25
389.649	4.25
390.434	3.25
391.218	4.25
392.003	3.25
392.787	2.25
393.571	1.25
394.355	4.25
395.139	4.25
395.923	3.25
396.707	5.25
397.491	3.25
398.274	2.25
399.058	4.25
399.842	3.25
400.625	3.25
401.408	3.25
402.192	4.25
402.975	3.25
403.758	2.25
404.541	5.25
405.324	5.25
406.107	5.25
406.89	2.25
407.673	4.25
408.456	7.25
409.238	4.25
410.021	3.25
410.803	4.25
411.586	7.25
412.368	2.25
413.151	5.25
413.933	5.25
414.715	5.25
415.497	4.25
416.279	5.25
417.061	3.25
417.843	7.25
418.624	4.25
419.406	6.25
420.188	5.25
420.969	5.25
421.751	8.25
422.532	8.25
423.313	8.25
424.095	6.25
424.876	8.25
425.657	7.25
426.438	8.25
427.219	5.25
428	6.25
428.78	7.25
429.561	6.25
430.342	5.25
431.122	7.25
431.903	6.25
432.683	7.25
433.464	10.25
434.244	6.25
435.024	11.25
435.804	10.25
436.584	7.25
437.364	11.25
438.144	8.25
438.924	11.25
439.704	11.25
440.483	11.25
441.263	13.25
442.042	9.25
442.822	11.25
443.601	14.25
444.38	16.25
445.16	14.25
445.939	14.25
446.718	18.25
447.497	17.25
448.276	19.25
449.054	23.25
449.833	24.25
450.612	27.25
451.391	28.25
452.169	31.25
452.948	30.25
453.726	37.25
454.504	35.25
455.282	42.25
456.061	45.25
456.839	52.25
457.617	55.25
458.395	61.25
459.172	64.25
459.95	73.25
460.728	83.25
461.506	93.25
462.283	102.25
463.061	113.25
463.838	127.25
464.615	142.25
465.393	163.25
466.17	178.25
466.947	200.25
467.724	217.25
468.501	242.25
469.278	271.25
470.055	301.25
470.831	332.25
471.608	379.25
472.385	419.25
473.161	463.25
473.938	509.25
474.714	570.25
475.49	632.25
476.266	695.25
477.043	776.25
477.819	848.25
478.595	949.25
479.371	1044.25
480.146	1156.25
480.922	1269.25
481.698	1399.25
482.473	1534.25
483.249	1705.25
484.024	1865.25
484.8	2057.25
485.575	2266.25
486.35	2486.25
487.126	2749.25
487.901	3056.25
488.676	3334.25
489.451	3674.25
490.225	4020.25
491	4425.25
491.775	4842.25
492.55	5329.25
493.324	5817.25
494.099	6362.25
494.873	6935.25
495.647	7550.25
496.422	8183.25
497.196	8912.25
497.97	9573.25
498.744	10310.25
499.518	11050.25
500.292	11766.25
501.066	12443.25
501.839	13183.25
502.613	13871.25
503.387	14423.25
504.16	15011.25
504.934	15493.25
505.707	15821.25
506.48	16095.25
507.253	16345.25
508.027	16385.25
508.8	16357.25
509.573	16253.25
510.346	15992.25
511.118	15658.25
511.891	15319.25
512.664	14838.25
513.437	14367.25
514.209	13806.25
514.982	13305.25
515.754	12714.25
516.526	12179.25
517.298	11693.25
518.071	11121.25
518.843	10676.25
519.615	10199.25
520.387	9821.25
521.159	9385.25
521.93	9023.25
522.702	8626.25
523.474	8300.25
524.245	7973.25
525.017	7650.25
525.788	7361.25
526.56	7085.25
527.331	6765.25
528.102	6451.25
528.873	6210.25
529.644	5971.25
530.415	5667.25
531.186	5375.25
531.957	5113.25
532.728	4866.25
533.498	4615.25
534.269	4359.25
535.039	4101.25
535.81	3879.25
536.58	3691.25
537.351	3446.25
538.121	3281.25
538.891	3113.25
539.661	2921.25
540.431	2744.25
541.201	2617.25
541.971	2471.25
542.741	2340.25
543.51	2243.25
544.28	2125.25
545.05	1988.25
545.819	1903.25
546.588	1818.25
547.358	1734.25
548.127	1635.25
548.896	1561.25
549.665	1480.25
550.434	1413.25
551.203	1325.25
551.972	1270.25
552.741	1196.25
553.51	1123.25
554.278	1076.25
555.047	1010.25
555.815	952.25
556.584	890.25
557.352	857.25
558.121	801.25
558.889	750.25
559.657	709.25
560.425	676.25
561.193	636.25
561.961	596.25
562.729	555.25
563.496	536.25
564.264	502.25
565.032	461.25
565.799	444.25
566.567	424.25
567.334	401.25
568.101	374.25
568.869	353.25
569.636	336.25
570.403	314.25
571.17	302.25
571.937	279.25
572.704	266.25
573.471	246.25
574.237	235.25
575.004	222.25
575.771	209.25
576.537	191.25
577.303	186.25
578.07	175.25
578.836	161.25
579.602	155.25
580.368	147.25
581.134	136.25
581.9	134.25
582.666	116.25
583.432	118.25
584.198	112.25
584.964	105.25
585.729	99.25
586.495	98.25
587.26	90.25
588.025	82.25
588.791	78.25
589.556	76.25
590.321	70.25
591.086	65.25
591.851	63.25
592.616	61.25
593.381	59.25
594.146	54.25
594.911	51.25
595.675	46.25
596.44	48.25
597.204	45.25
597.969	42.25
598.733	41.25
599.497	35.25
600.261	38.25
601.025	36.25
601.79	33.25
602.553	32.25
603.317	30.25
604.081	32.25
604.845	28.25
605.609	26.25
606.372	26.25
607.136	24.25
607.899	20.25
608.662	24.25
609.426	23.25
610.189	19.25
610.952	21.25
611.715	19.25
612.478	20.25
613.241	17.25
614.004	17.25
614.767	18.25
615.529	18.25
616.292	17.25
617.055	16.25
617.817	10.25
618.579	14.25
619.342	13.25
620.104	12.25
620.866	10.25
621.628	11.25
622.39	11.25
623.152	9.25
623.914	13.25
624.676	10.25
625.438	10.25
626.199	8.25
626.961	8.25
627.722	9.25
628.484	7.25
629.245	7.25
630.006	8.25
630.768	10.25
631.529	7.25
632.29	7.25
633.051	9.25
633.812	5.25
634.573	8.25
635.333	6.25
636.094	8.25
636.855	6.25
637.615	5.25
638.376	7.25
639.136	4.25
639.896	5.25
640.657	3.25
641.417	7.25
642.177	4.25
642.937	3.25
643.697	6.25
644.457	4.25
645.216	6.25
645.976	3.25
646.736	4.25
647.495	0.25
648.255	2.25
649.014	3.25
649.774	3.25
650.533	5.25
651.292	3.25
652.051	4.25
652.81	6.25
653.569	2.25
654.328	2.25
655.087	1.25
655.846	3.25
656.604	5.25
657.363	2.25
658.121	2.25
658.88	3.25
659.638	5.25
660.397	2.25
661.155	5.25
661.913	0.25
662.671	4.25
663.429	5.25
664.187	3.25
664.945	2.25
665.703	2.25
666.46	3.25
667.218	4.25
667.976	1.25
668.733	0.25
669.49	2.25
670.248	3.25
671.005	2.25
671.762	4.25
672.519	2.25
673.276	2.25
674.033	2.25
674.79	0.25
675.547	4.25
676.304	1.25
677.06	4.25
677.817	2.25
678.574	2.25
679.33	2.25
680.086	1.25
680.843	2.25
681.599	2.25
682.355	2.25
683.111	3.25
683.867	2.25
684.623	1.25
685.379	3.25
686.135	2.25
686.89	2.25
687.646	2.25
688.402	2.25
689.157	1.25
689.912	2.25
690.668	0.25
691.423	1.25
692.178	2.25
692.933	4.25
693.688	4.25
694.443	1.25
695.198	1.25
695.953	2.25
696.708	2.25
697.462	4.25
698.217	3.25
698.972	2.25
699.726	2.25
700.48	1.25
701.235	2.25
701.989	1.25
702.743	2.25
703.497	3.25
704.251	2.25
705.005	2.25
705.759	1.25
706.513	1.25
707.266	2.25
708.02	2.25
708.774	2.25
709.527	2.25
710.28	1.25
711.034	2.25
711.787	-0.75
712.54	0.25
713.293	2.25
714.046	2.25
714.799	3.25
715.552	2.25
716.305	3.25
717.058	2.25
717.81	1.25
718.563	2.25
719.315	2.25
720.068	2.25
720.82	1.25
721.573	4.25
722.325	1.25
723.077	4.25
723.829	1.25
724.581	3.25
725.333	0.25
726.085	2.25
726.836	1.25
727.588	2.25
728.34	1.25
729.091	2.25
729.843	2.25
730.594	3.25
731.346	2.25
732.097	3.25
732.848	2.25
733.599	2.25
734.35	3.25
735.101	2.25
735.852	1.25
736.603	3.25
737.354	1.25
738.104	2.25
738.855	3.25
739.605	1.25
740.356	2.25
741.106	3.25
741.856	2.25
742.607	3.25
743.357	1.25
744.107	2.25
744.857	2.25
745.607	4.25
746.357	2.25
747.106	1.25
747.856	2.25
748.606	2.25
749.355	4.25
750.105	3.25
750.854	1.25
751.603	4.25
752.353	2.25
753.102	2.25
753.851	2.25
754.6	4.25
755.349	3.25
756.098	2.25
756.847	3.25
757.595	3.25
758.344	3.25
759.093	3.25
759.841	4.25
760.589	4.25
761.338	5.25
762.086	2.25
762.834	2.25
763.582	5.25
764.331	2.25
765.079	5.25
765.826	4.25
766.574	3.25
767.322	3.25
768.07	2.25
768.817	3.25
769.565	4.25
770.312	2.25
771.06	2.25
771.807	5.25
772.554	7.25
773.302	5.25
774.049	3.25
774.796	5.25
775.543	5.25
776.29	3.25
777.036	5.25
777.783	4.25
778.53	5.25
779.276	7.25
780.023	5.25
780.769	7.25
781.516	3.25
782.262	5.25
783.008	2.25
783.754	5.25
784.5	4.25
785.246	5.25
785.992	5.25
786.738	6.25
787.484	4.25
788.23	4.25
788.975	4.25
789.721	6.25
790.466	3.25
791.212	5.25
791.957	4.25
792.702	7.25
793.447	6.25
794.193	3.25
794.938	5.25
795.683	3.25
796.427	4.25
797.172	4.25
797.917	4.25
798.662	5.25
799.406	2.25
800.151	4.25
800.895	5.25
801.64	4.25
802.384	3.25
803.128	4.25
803.872	5.25
804.616	2.25
805.36	4.25
806.104	5.25
806.848	3.25
807.592	5.25
808.336	7.25
809.079	3.25
809.823	2.25
810.566	5.25
811.31	3.25
812.053	3.25
812.796	4.25
813.539	-0.75
814.283	5.25
815.026	4.25
815.769	4.25
816.511	4.25
817.254	3.25
817.997	2.25
818.74	2.25
819.482	3.25
820.225	5.25
820.967	2.25
821.71	2.25
822.452	1.25
823.194	5.25
823.936	3.25
824.678	3.25
825.42	2.25
826.162	5.25
826.904	0.25
827.646	3.25
828.388	4.25
829.129	2.25
829.871	5.25
830.612	4.25
831.354	4.25
832.095	3.25
832.836	2.25
833.577	2.25
834.319	1.25
835.06	5.25
835.801	4.25
836.542	3.25
837.282	3.25
838.023	2.25
838.764	3.25
839.504	1.25
840.245	5.25
840.985	3.25
841.726	2.25
842.466	1.25
843.206	3.25
843.946	1.25
844.687	3.25
845.427	1.25
846.166	2.25
846.906	2.25
847.646	2.25
848.386	1.25
849.125	2.25
849.865	2.25
850.605	-0.75
851.344	1.25
852.083	2.25
852.823	3.25
853.562	0.25
854.301	2.25
855.04	-0.75
855.779	1.25
856.518	1.25
857.257	0.25
857.995	1.25
858.734	1.25
859.473	-0.75
860.211	0.25
860.95	1.25
861.688	1.25
862.426	2.25
863.165	3.25
863.903	-0.75
864.641	3.25
865.379	-0.75
866.117	3.25
866.855	1.25
867.593	2.25
868.33	2.25
869.068	2.25
869.806	1.25
870.543	2.25
871.28	0.25
872.018	2.25
872.755	1.25
873.492	-0.75
874.229	0.25
874.967	1.25
875.703	2.25
876.44	2.25
877.177	1.25
877.914	0.25
878.651	3.25
879.387	0.25
880.124	2.25
880.86	1.25
881.597	-0.75
882.333	1.25
883.069	0.25
883.806	-0.75
884.542	0.25
885.278	-0.75
886.014	1.25
886.749	0.25
887.485	1.25
888.221	1.25
888.957	0.25
889.692	-0.75
890.428	0.25
891.163	1.25
891.899	1.25
892.634	2.25
893.369	3.25
894.104	1.25
894.839	1.25
895.574	2.25
896.309	0.25
897.044	-0.75
897.779	0.25
898.514	0.25
899.248	-0.75
899.983	1.25
900.717	0.25
901.452	0.25
902.186	2.25
902.92	2.25
903.654	-1.75
904.389	0.25
905.123	0.25
905.857	2.25
906.59	1.25
907.324	-2.75
908.058	1.25
908.792	-0.75
909.525	1.25
910.259	2.25
910.992	2.25
911.726	-0.75
912.459	0.25
913.192	2.25
913.925	0.25
914.658	1.25
915.391	1.25
916.124	-0.75
916.857	0.25
917.59	-0.75
918.323	0.25
919.055	0.25
919.788	2.25
920.521	2.25
921.253	1.25
921.985	1.25
922.718	0.25
923.45	3.25
924.182	-1.75
924.914	-0.75
925.646	0.25
926.378	2.25
927.11	0.25
927.841	0.25
928.573	1.25
929.305	0.25
930.036	-1.75
930.768	2.25
931.499	3.25
932.23	0.25
932.962	0.25
933.693	0.25
934.424	0.25
935.155	-0.75
935.886	2.25
936.617	2.25
937.348	0.25
938.078	-0.75
938.809	-0.75
939.54	-1.75
940.27	0.25
941.001	0.25
941.731	0.25
942.461	0.25
943.191	-0.75
943.922	0.25
944.652	-2.75
945.382	0.25
946.112	0.25
946.841	-1.75
947.571	-0.75
948.301	1.25
949.031	0.25
949.76	-1.75
950.49	-0.75
951.219	1.25
951.948	2.25
952.678	1.25
953.407	0.25
954.136	1.25
954.865	-0.75
955.594	2.25
956.323	0.25
957.052	2.25
957.78	-0.75
958.509	0.25
959.238	0.25
959.966	1.25
960.695	2.25
961.423	-1.75
962.151	0.25
962.88	1.25
963.608	-0.75
964.336	2.25
965.064	0.25
965.792	0.25
966.52	-1.75
967.247	1.25
967.975	1.25
968.703	0.25
969.43	1.25
970.158	0.25
970.885	0.25
971.613	-0.75
972.34	1.25
973.067	1.25
973.794	0.25
974.521	0.25
975.248	0.25
975.975	1.25
976.702	0.25
977.429	0.25
978.156	0.25
978.882	0.25
979.609	2.25
980.335	-0.75
981.062	0.25
981.788	0.25
982.514	-0.75
983.24	-0.75
983.967	1.25
984.693	1.25
985.419	1.25
986.144	0.25
986.87	-0.75
987.596	-0.75
988.322	0.25
989.047	0.25
989.773	-0.75
990.498	0.25
991.224	0.25
991.949	2.25
992.674	0.25
993.399	-0.75
994.124	-2.75
994.849	-0.75
995.574	2.25
996.299	1.25
997.024	-0.75
997.749	0.25
998.473	-0.75
999.198	-0.75
999.922	1.25
1000.647	0.25
1001.371	3.25
1002.095	-1.75
1002.82	-2.75
1003.544	0.25
1004.268	-1.75
1004.992	-1.75
1005.716	-2.75
1006.439	1.25
1007.163	0.25
1007.887	1.25
1008.611	3.25
1009.334	-1.75
1010.058	2.25
1010.781	-1.75
1011.504	-1.75
1012.228	1.25
1012.951	0.25
1013.674	-0.75
1014.397	0.25
1015.12	1.25
