节点500_145_QEPB04081__35__11-29-30-775.txt的数据

Date: Wed Nov 12 11:29:30 CST 2025
User: PC
Spectrometer: QEPB0408
触发模式: 0
积分时间 (秒): 1.000000E-2
Scans to average: 1
启用暗噪声校正: true
启用非线性校正: false
滑动平均宽度: 0
X轴模式: Wavelengths
Number of Pixels in Spectrum: 1044
>>>>>Begin Spectral Data<<<<<
220.843	1.88
221.644	-0.12
222.444	-1.12
223.244	-0.12
224.045	0.88
224.845	-1.12
225.645	0.88
226.445	0.88
227.245	1.88
228.045	0.88
228.845	-1.12
229.645	1.88
230.444	-0.12
231.244	0.88
232.043	0.88
232.843	0.88
233.642	0.88
234.442	-0.12
235.241	2.88
236.04	-1.12
236.839	0.88
237.638	2.88
238.437	0.88
239.236	2.88
240.035	1.88
240.833	1.88
241.632	0.88
242.43	1.88
243.229	2.88
244.027	1.88
244.826	1.88
245.624	2.88
246.422	2.88
247.22	2.88
248.018	3.88
248.816	4.88
249.614	0.88
250.412	1.88
251.21	2.88
252.007	1.88
252.805	1.88
253.602	2.88
254.4	4.88
255.197	5.88
255.994	3.88
256.791	2.88
257.589	3.88
258.386	5.88
259.183	3.88
259.979	5.88
260.776	4.88
261.573	8.88
262.37	4.88
263.166	5.88
263.963	5.88
264.759	4.88
265.556	6.88
266.352	6.88
267.148	7.88
267.944	8.88
268.74	4.88
269.536	9.88
270.332	5.88
271.128	8.88
271.924	8.88
272.719	9.88
273.515	9.88
274.311	11.88
275.106	10.88
275.901	12.88
276.697	13.88
277.492	11.88
278.287	9.88
279.082	10.88
279.877	10.88
280.672	8.88
281.467	11.88
282.262	10.88
283.056	10.88
283.851	11.88
284.646	11.88
285.44	12.88
286.234	13.88
287.029	14.88
287.823	10.88
288.617	15.88
289.411	9.88
290.205	14.88
290.999	12.88
291.793	11.88
292.587	11.88
293.381	13.88
294.174	10.88
294.968	10.88
295.761	11.88
296.555	10.88
297.348	8.88
298.141	8.88
298.935	10.88
299.728	11.88
300.521	7.88
301.314	10.88
302.107	10.88
302.899	8.88
303.692	6.88
304.485	11.88
305.277	9.88
306.07	6.88
306.862	8.88
307.655	9.88
308.447	7.88
309.239	7.88
310.031	6.88
310.823	8.88
311.615	5.88
312.407	8.88
313.199	6.88
313.991	7.88
314.783	6.88
315.574	6.88
316.366	6.88
317.157	5.88
317.949	4.88
318.74	4.88
319.531	5.88
320.322	4.88
321.113	3.88
321.904	5.88
322.695	5.88
323.486	3.88
324.277	5.88
325.068	1.88
325.858	5.88
326.649	4.88
327.439	4.88
328.23	3.88
329.02	2.88
329.81	2.88
330.6	2.88
331.391	3.88
332.181	4.88
332.971	4.88
333.76	3.88
334.55	5.88
335.34	2.88
336.13	3.88
336.919	1.88
337.709	3.88
338.498	4.88
339.287	2.88
340.077	4.88
340.866	3.88
341.655	5.88
342.444	3.88
343.233	1.88
344.022	3.88
344.811	5.88
345.6	3.88
346.388	3.88
347.177	2.88
347.965	2.88
348.754	2.88
349.542	3.88
350.33	2.88
351.119	1.88
351.907	5.88
352.695	3.88
353.483	3.88
354.271	2.88
355.059	4.88
355.846	2.88
356.634	3.88
357.422	3.88
358.209	1.88
358.997	4.88
359.784	4.88
360.571	4.88
361.359	5.88
362.146	3.88
362.933	4.88
363.72	3.88
364.507	2.88
365.294	0.88
366.081	1.88
366.867	3.88
367.654	2.88
368.44	3.88
369.227	2.88
370.013	2.88
370.8	1.88
371.586	1.88
372.372	4.88
373.158	2.88
373.944	2.88
374.73	2.88
375.516	1.88
376.302	4.88
377.088	1.88
377.873	4.88
378.659	2.88
379.445	3.88
380.23	3.88
381.015	3.88
381.801	4.88
382.586	3.88
383.371	2.88
384.156	4.88
384.941	1.88
385.726	2.88
386.511	1.88
387.296	4.88
388.08	3.88
388.865	4.88
389.649	1.88
390.434	2.88
391.218	5.88
392.003	-0.12
392.787	3.88
393.571	3.88
394.355	4.88
395.139	3.88
395.923	5.88
396.707	3.88
397.491	2.88
398.274	1.88
399.058	3.88
399.842	5.88
400.625	5.88
401.408	2.88
402.192	4.88
402.975	1.88
403.758	2.88
404.541	4.88
405.324	3.88
406.107	5.88
406.89	5.88
407.673	3.88
408.456	5.88
409.238	6.88
410.021	5.88
410.803	4.88
411.586	6.88
412.368	3.88
413.151	5.88
413.933	5.88
414.715	4.88
415.497	4.88
416.279	7.88
417.061	6.88
417.843	4.88
418.624	3.88
419.406	3.88
420.188	6.88
420.969	5.88
421.751	8.88
422.532	6.88
423.313	5.88
424.095	6.88
424.876	7.88
425.657	6.88
426.438	5.88
427.219	8.88
428	7.88
428.78	6.88
429.561	9.88
430.342	9.88
431.122	8.88
431.903	7.88
432.683	8.88
433.464	8.88
434.244	8.88
435.024	8.88
435.804	7.88
436.584	10.88
437.364	12.88
438.144	9.88
438.924	10.88
439.704	11.88
440.483	9.88
441.263	10.88
442.042	12.88
442.822	13.88
443.601	17.88
444.38	14.88
445.16	13.88
445.939	17.88
446.718	14.88
447.497	19.88
448.276	19.88
449.054	20.88
449.833	25.88
450.612	25.88
451.391	23.88
452.169	25.88
452.948	29.88
453.726	30.88
454.504	35.88
455.282	36.88
456.061	41.88
456.839	43.88
457.617	48.88
458.395	55.88
459.172	61.88
459.95	67.88
460.728	72.88
461.506	77.88
462.283	88.88
463.061	100.88
463.838	114.88
464.615	123.88
465.393	139.88
466.17	154.88
466.947	167.88
467.724	190.88
468.501	217.88
469.278	236.88
470.055	270.88
470.831	299.88
471.608	330.88
472.385	375.88
473.161	418.88
473.938	455.88
474.714	527.88
475.49	582.88
476.266	640.88
477.043	713.88
477.819	806.88
478.595	900.88
479.371	1014.88
480.146	1107.88
480.922	1230.88
481.698	1369.88
482.473	1514.88
483.249	1694.88
484.024	1878.88
484.8	2099.88
485.575	2326.88
486.35	2589.88
487.126	2866.88
487.901	3202.88
488.676	3504.88
489.451	3890.88
490.225	4345.88
491	4771.88
491.775	5280.88
492.55	5801.88
493.324	6417.88
494.099	7024.88
494.873	7738.88
495.647	8450.88
496.422	9192.88
497.196	9997.88
497.97	10832.88
498.744	11639.88
499.518	12475.88
500.292	13256.88
501.066	14026.88
501.839	14782.88
502.613	15495.88
503.387	16043.88
504.16	16618.88
504.934	17037.88
505.707	17247.88
506.48	17409.88
507.253	17483.88
508.027	17376.88
508.8	17194.88
509.573	16896.88
510.346	16545.88
511.118	16079.88
511.891	15556.88
512.664	14876.88
513.437	14268.88
514.209	13709.88
514.982	13054.88
515.754	12436.88
516.526	11893.88
517.298	11386.88
518.071	10817.88
518.843	10329.88
519.615	9928.88
520.387	9470.88
521.159	9135.88
521.93	8752.88
522.702	8440.88
523.474	8097.88
524.245	7790.88
525.017	7466.88
525.788	7149.88
526.56	6855.88
527.331	6562.88
528.102	6255.88
528.873	5940.88
529.644	5698.88
530.415	5402.88
531.186	5160.88
531.957	4850.88
532.728	4599.88
533.498	4339.88
534.269	4097.88
535.039	3864.88
535.81	3650.88
536.58	3412.88
537.351	3246.88
538.121	3042.88
538.891	2884.88
539.661	2727.88
540.431	2599.88
541.201	2442.88
541.971	2318.88
542.741	2187.88
543.51	2074.88
544.28	1987.88
545.05	1878.88
545.819	1791.88
546.588	1705.88
547.358	1619.88
548.127	1539.88
548.896	1456.88
549.665	1378.88
550.434	1317.88
551.203	1240.88
551.972	1168.88
552.741	1109.88
553.51	1059.88
554.278	996.88
555.047	928.88
555.815	879.88
556.584	827.88
557.352	780.88
558.121	737.88
558.889	693.88
559.657	655.88
560.425	617.88
561.193	577.88
561.961	547.88
562.729	510.88
563.496	488.88
564.264	456.88
565.032	438.88
565.799	411.88
566.567	383.88
567.334	366.88
568.101	347.88
568.869	327.88
569.636	310.88
570.403	288.88
571.17	273.88
571.937	255.88
572.704	239.88
573.471	227.88
574.237	220.88
575.004	203.88
575.771	192.88
576.537	180.88
577.303	168.88
578.07	162.88
578.836	151.88
579.602	145.88
580.368	134.88
581.134	120.88
581.9	121.88
582.666	118.88
583.432	110.88
584.198	102.88
584.964	96.88
585.729	88.88
586.495	86.88
587.26	83.88
588.025	75.88
588.791	72.88
589.556	68.88
590.321	67.88
591.086	61.88
591.851	58.88
592.616	57.88
593.381	49.88
594.146	50.88
594.911	44.88
595.675	47.88
596.44	41.88
597.204	40.88
597.969	42.88
598.733	40.88
599.497	33.88
600.261	33.88
601.025	33.88
601.79	29.88
602.553	30.88
603.317	30.88
604.081	27.88
604.845	25.88
605.609	23.88
606.372	26.88
607.136	22.88
607.899	22.88
608.662	24.88
609.426	20.88
610.189	19.88
610.952	21.88
611.715	19.88
612.478	17.88
613.241	17.88
614.004	17.88
614.767	12.88
615.529	17.88
616.292	15.88
617.055	13.88
617.817	12.88
618.579	15.88
619.342	13.88
620.104	13.88
620.866	11.88
621.628	10.88
622.39	12.88
623.152	12.88
623.914	12.88
624.676	9.88
625.438	10.88
626.199	9.88
626.961	7.88
627.722	10.88
628.484	8.88
629.245	9.88
630.006	8.88
630.768	7.88
631.529	8.88
632.29	8.88
633.051	8.88
633.812	7.88
634.573	7.88
635.333	5.88
636.094	5.88
636.855	8.88
637.615	6.88
638.376	7.88
639.136	4.88
639.896	7.88
640.657	6.88
641.417	5.88
642.177	3.88
642.937	7.88
643.697	6.88
644.457	5.88
645.216	4.88
645.976	5.88
646.736	7.88
647.495	3.88
648.255	4.88
649.014	4.88
649.774	3.88
650.533	4.88
651.292	4.88
652.051	5.88
652.81	5.88
653.569	7.88
654.328	2.88
655.087	4.88
655.846	5.88
656.604	5.88
657.363	2.88
658.121	3.88
658.88	5.88
659.638	3.88
660.397	3.88
661.155	2.88
661.913	3.88
662.671	2.88
663.429	3.88
664.187	4.88
664.945	-0.12
665.703	2.88
666.46	3.88
667.218	4.88
667.976	2.88
668.733	1.88
669.49	0.88
670.248	2.88
671.005	4.88
671.762	4.88
672.519	3.88
673.276	2.88
674.033	2.88
674.79	2.88
675.547	3.88
676.304	2.88
677.06	4.88
677.817	-1.12
678.574	2.88
679.33	3.88
680.086	3.88
680.843	1.88
681.599	4.88
682.355	1.88
683.111	2.88
683.867	4.88
684.623	1.88
685.379	1.88
686.135	3.88
686.89	2.88
687.646	2.88
688.402	4.88
689.157	1.88
689.912	2.88
690.668	1.88
691.423	2.88
692.178	0.88
692.933	2.88
693.688	2.88
694.443	1.88
695.198	2.88
695.953	4.88
696.708	0.88
697.462	3.88
698.217	2.88
698.972	3.88
699.726	4.88
700.48	1.88
701.235	1.88
701.989	2.88
702.743	2.88
703.497	1.88
704.251	2.88
705.005	2.88
705.759	-0.12
706.513	2.88
707.266	2.88
708.02	1.88
708.774	3.88
709.527	3.88
710.28	3.88
711.034	3.88
711.787	4.88
712.54	3.88
713.293	3.88
714.046	2.88
714.799	2.88
715.552	1.88
716.305	1.88
717.058	2.88
717.81	2.88
718.563	2.88
719.315	3.88
720.068	1.88
720.82	0.88
721.573	2.88
722.325	5.88
723.077	3.88
723.829	1.88
724.581	2.88
725.333	3.88
726.085	3.88
726.836	0.88
727.588	1.88
728.34	2.88
729.091	3.88
729.843	3.88
730.594	1.88
731.346	2.88
732.097	3.88
732.848	2.88
733.599	2.88
734.35	2.88
735.101	2.88
735.852	1.88
736.603	1.88
737.354	2.88
738.104	2.88
738.855	2.88
739.605	3.88
740.356	4.88
741.106	1.88
741.856	3.88
742.607	2.88
743.357	4.88
744.107	3.88
744.857	1.88
745.607	4.88
746.357	1.88
747.106	2.88
747.856	4.88
748.606	0.88
749.355	3.88
750.105	2.88
750.854	0.88
751.603	2.88
752.353	4.88
753.102	2.88
753.851	4.88
754.6	1.88
755.349	3.88
756.098	4.88
756.847	0.88
757.595	2.88
758.344	6.88
759.093	0.88
759.841	2.88
760.589	1.88
761.338	2.88
762.086	3.88
762.834	5.88
763.582	3.88
764.331	3.88
765.079	4.88
765.826	5.88
766.574	4.88
767.322	5.88
768.07	3.88
768.817	4.88
769.565	4.88
770.312	4.88
771.06	4.88
771.807	5.88
772.554	7.88
773.302	4.88
774.049	6.88
774.796	6.88
775.543	3.88
776.29	5.88
777.036	6.88
777.783	6.88
778.53	4.88
779.276	6.88
780.023	4.88
780.769	6.88
781.516	3.88
782.262	5.88
783.008	7.88
783.754	5.88
784.5	7.88
785.246	4.88
785.992	5.88
786.738	5.88
787.484	6.88
788.23	6.88
788.975	5.88
789.721	4.88
790.466	7.88
791.212	5.88
791.957	4.88
792.702	7.88
793.447	6.88
794.193	6.88
794.938	6.88
795.683	6.88
796.427	6.88
797.172	3.88
797.917	6.88
798.662	5.88
799.406	5.88
800.151	3.88
800.895	4.88
801.64	7.88
802.384	6.88
803.128	6.88
803.872	4.88
804.616	2.88
805.36	3.88
806.104	4.88
806.848	4.88
807.592	4.88
808.336	2.88
809.079	4.88
809.823	4.88
810.566	2.88
811.31	5.88
812.053	2.88
812.796	4.88
813.539	4.88
814.283	1.88
815.026	0.88
815.769	4.88
816.511	3.88
817.254	5.88
817.997	4.88
818.74	3.88
819.482	2.88
820.225	2.88
820.967	2.88
821.71	4.88
822.452	2.88
823.194	2.88
823.936	3.88
824.678	3.88
825.42	1.88
826.162	4.88
826.904	3.88
827.646	3.88
828.388	2.88
829.129	1.88
829.871	4.88
830.612	4.88
831.354	1.88
832.095	1.88
832.836	3.88
833.577	4.88
834.319	2.88
835.06	5.88
835.801	1.88
836.542	3.88
837.282	2.88
838.023	2.88
838.764	3.88
839.504	2.88
840.245	3.88
840.985	0.88
841.726	3.88
842.466	2.88
843.206	2.88
843.946	2.88
844.687	3.88
845.427	4.88
846.166	1.88
846.906	3.88
847.646	2.88
848.386	2.88
849.125	2.88
849.865	0.88
850.605	2.88
851.344	3.88
852.083	2.88
852.823	3.88
853.562	0.88
854.301	3.88
855.04	1.88
855.779	1.88
856.518	0.88
857.257	1.88
857.995	2.88
858.734	1.88
859.473	2.88
860.211	0.88
860.95	3.88
861.688	0.88
862.426	2.88
863.165	2.88
863.903	0.88
864.641	0.88
865.379	0.88
866.117	2.88
866.855	3.88
867.593	2.88
868.33	1.88
869.068	2.88
869.806	0.88
870.543	0.88
871.28	0.88
872.018	2.88
872.755	3.88
873.492	1.88
874.229	-0.12
874.967	1.88
875.703	-1.12
876.44	0.88
877.177	-2.12
877.914	1.88
878.651	0.88
879.387	1.88
880.124	1.88
880.86	1.88
881.597	0.88
882.333	-0.12
883.069	1.88
883.806	2.88
884.542	0.88
885.278	0.88
886.014	3.88
886.749	1.88
887.485	1.88
888.221	2.88
888.957	0.88
889.692	0.88
890.428	0.88
891.163	1.88
891.899	-1.12
892.634	1.88
893.369	0.88
894.104	2.88
894.839	1.88
895.574	0.88
896.309	1.88
897.044	1.88
897.779	2.88
898.514	1.88
899.248	1.88
899.983	-1.12
900.717	2.88
901.452	1.88
902.186	-1.12
902.92	0.88
903.654	0.88
904.389	2.88
905.123	0.88
905.857	-0.12
906.59	1.88
907.324	1.88
908.058	-0.12
908.792	0.88
909.525	0.88
910.259	0.88
910.992	1.88
911.726	2.88
912.459	-1.12
913.192	1.88
913.925	1.88
914.658	-0.12
915.391	1.88
916.124	1.88
916.857	-1.12
917.59	0.88
918.323	1.88
919.055	1.88
919.788	0.88
920.521	2.88
921.253	0.88
921.985	1.88
922.718	0.88
923.45	1.88
924.182	-1.12
924.914	2.88
925.646	0.88
926.378	1.88
927.11	0.88
927.841	1.88
928.573	0.88
929.305	1.88
930.036	1.88
930.768	2.88
931.499	3.88
932.23	1.88
932.962	0.88
933.693	-0.12
934.424	0.88
935.155	0.88
935.886	0.88
936.617	0.88
937.348	-0.12
938.078	-0.12
938.809	1.88
939.54	1.88
940.27	-0.12
941.001	1.88
941.731	-0.12
942.461	0.88
943.191	1.88
943.922	0.88
944.652	3.88
945.382	0.88
946.112	1.88
946.841	0.88
947.571	0.88
948.301	1.88
949.031	2.88
949.76	0.88
950.49	-1.12
951.219	2.88
951.948	0.88
952.678	-0.12
953.407	-0.12
954.136	-1.12
954.865	-0.12
955.594	-0.12
956.323	0.88
957.052	0.88
957.78	0.88
958.509	1.88
959.238	0.88
959.966	0.88
960.695	-0.12
961.423	0.88
962.151	1.88
962.88	1.88
963.608	1.88
964.336	0.88
965.064	-0.12
965.792	-0.12
966.52	1.88
967.247	0.88
967.975	-0.12
968.703	1.88
969.43	-1.12
970.158	1.88
970.885	1.88
971.613	0.88
972.34	0.88
973.067	-1.12
973.794	-0.12
974.521	-0.12
975.248	0.88
975.975	-0.12
976.702	0.88
977.429	1.88
978.156	1.88
978.882	1.88
979.609	1.88
980.335	0.88
981.062	1.88
981.788	-0.12
982.514	0.88
983.24	1.88
983.967	2.88
984.693	-1.12
985.419	2.88
986.144	1.88
986.87	-0.12
987.596	2.88
988.322	1.88
989.047	1.88
989.773	-0.12
990.498	1.88
991.224	-0.12
991.949	0.88
992.674	1.88
993.399	-0.12
994.124	-0.12
994.849	0.88
995.574	0.88
996.299	0.88
997.024	1.88
997.749	1.88
998.473	-1.12
999.198	-1.12
999.922	0.88
1000.647	0.88
1001.371	3.88
1002.095	-1.12
1002.82	-1.12
1003.544	0.88
1004.268	1.88
1004.992	0.88
1005.716	1.88
1006.439	-0.12
1007.163	0.88
1007.887	-0.12
1008.611	-0.12
1009.334	0.88
1010.058	-0.12
1010.781	-1.12
1011.504	0.88
1012.228	0.88
1012.951	0.88
1013.674	-1.12
1014.397	-2.12
1015.12	-0.12
