节点500_145_QEPB04081__498__11-36-54-466.txt的数据

Date: Wed Nov 12 11:36:54 CST 2025
User: PC
Spectrometer: QEPB0408
触发模式: 0
积分时间 (秒): 1.000000E-2
Scans to average: 1
启用暗噪声校正: true
启用非线性校正: false
滑动平均宽度: 0
X轴模式: Wavelengths
Number of Pixels in Spectrum: 1044
>>>>>Begin Spectral Data<<<<<
220.843	-0.25
221.644	1.75
222.444	1.75
223.244	1.75
224.045	-0.25
224.845	-0.25
225.645	-0.25
226.445	-0.25
227.245	-0.25
228.045	-0.25
228.845	-1.25
229.645	0.75
230.444	-1.25
231.244	-0.25
232.043	2.75
232.843	1.75
233.642	0.75
234.442	1.75
235.241	0.75
236.04	-0.25
236.839	1.75
237.638	-0.25
238.437	1.75
239.236	1.75
240.035	-0.25
240.833	1.75
241.632	1.75
242.43	2.75
243.229	2.75
244.027	2.75
244.826	2.75
245.624	4.75
246.422	2.75
247.22	0.75
248.018	2.75
248.816	1.75
249.614	1.75
250.412	2.75
251.21	2.75
252.007	5.75
252.805	2.75
253.602	3.75
254.4	1.75
255.197	4.75
255.994	5.75
256.791	4.75
257.589	2.75
258.386	3.75
259.183	2.75
259.979	2.75
260.776	4.75
261.573	3.75
262.37	4.75
263.166	4.75
263.963	3.75
264.759	8.75
265.556	6.75
266.352	6.75
267.148	6.75
267.944	5.75
268.74	7.75
269.536	6.75
270.332	6.75
271.128	8.75
271.924	7.75
272.719	4.75
273.515	7.75
274.311	8.75
275.106	7.75
275.901	10.75
276.697	7.75
277.492	10.75
278.287	9.75
279.082	7.75
279.877	11.75
280.672	9.75
281.467	10.75
282.262	7.75
283.056	11.75
283.851	11.75
284.646	9.75
285.44	11.75
286.234	9.75
287.029	12.75
287.823	10.75
288.617	10.75
289.411	9.75
290.205	8.75
290.999	8.75
291.793	12.75
292.587	8.75
293.381	8.75
294.174	11.75
294.968	10.75
295.761	9.75
296.555	10.75
297.348	7.75
298.141	10.75
298.935	10.75
299.728	8.75
300.521	10.75
301.314	9.75
302.107	8.75
302.899	7.75
303.692	9.75
304.485	7.75
305.277	9.75
306.07	9.75
306.862	10.75
307.655	9.75
308.447	6.75
309.239	10.75
310.031	7.75
310.823	6.75
311.615	9.75
312.407	6.75
313.199	8.75
313.991	4.75
314.783	8.75
315.574	6.75
316.366	5.75
317.157	3.75
317.949	2.75
318.74	7.75
319.531	3.75
320.322	5.75
321.113	3.75
321.904	5.75
322.695	6.75
323.486	3.75
324.277	2.75
325.068	2.75
325.858	5.75
326.649	3.75
327.439	2.75
328.23	5.75
329.02	3.75
329.81	3.75
330.6	3.75
331.391	2.75
332.181	5.75
332.971	3.75
333.76	2.75
334.55	4.75
335.34	3.75
336.13	4.75
336.919	1.75
337.709	1.75
338.498	-0.25
339.287	3.75
340.077	3.75
340.866	5.75
341.655	4.75
342.444	3.75
343.233	2.75
344.022	2.75
344.811	4.75
345.6	3.75
346.388	3.75
347.177	4.75
347.965	2.75
348.754	2.75
349.542	3.75
350.33	5.75
351.119	1.75
351.907	4.75
352.695	2.75
353.483	3.75
354.271	2.75
355.059	2.75
355.846	2.75
356.634	4.75
357.422	1.75
358.209	3.75
358.997	3.75
359.784	3.75
360.571	3.75
361.359	3.75
362.146	5.75
362.933	3.75
363.72	3.75
364.507	0.75
365.294	3.75
366.081	3.75
366.867	2.75
367.654	3.75
368.44	1.75
369.227	2.75
370.013	2.75
370.8	2.75
371.586	3.75
372.372	2.75
373.158	3.75
373.944	2.75
374.73	2.75
375.516	1.75
376.302	1.75
377.088	1.75
377.873	3.75
378.659	1.75
379.445	1.75
380.23	4.75
381.015	-0.25
381.801	2.75
382.586	2.75
383.371	3.75
384.156	0.75
384.941	3.75
385.726	3.75
386.511	0.75
387.296	3.75
388.08	2.75
388.865	4.75
389.649	3.75
390.434	3.75
391.218	4.75
392.003	1.75
392.787	4.75
393.571	1.75
394.355	2.75
395.139	2.75
395.923	2.75
396.707	1.75
397.491	2.75
398.274	3.75
399.058	3.75
399.842	2.75
400.625	6.75
401.408	4.75
402.192	4.75
402.975	3.75
403.758	4.75
404.541	3.75
405.324	5.75
406.107	3.75
406.89	2.75
407.673	5.75
408.456	5.75
409.238	5.75
410.021	4.75
410.803	4.75
411.586	4.75
412.368	3.75
413.151	6.75
413.933	3.75
414.715	5.75
415.497	4.75
416.279	5.75
417.061	5.75
417.843	4.75
418.624	5.75
419.406	2.75
420.188	7.75
420.969	4.75
421.751	5.75
422.532	5.75
423.313	5.75
424.095	5.75
424.876	5.75
425.657	4.75
426.438	6.75
427.219	8.75
428	6.75
428.78	6.75
429.561	7.75
430.342	6.75
431.122	8.75
431.903	9.75
432.683	8.75
433.464	9.75
434.244	7.75
435.024	8.75
435.804	7.75
436.584	9.75
437.364	10.75
438.144	10.75
438.924	11.75
439.704	12.75
440.483	11.75
441.263	10.75
442.042	15.75
442.822	14.75
443.601	12.75
444.38	13.75
445.16	15.75
445.939	16.75
446.718	16.75
447.497	18.75
448.276	19.75
449.054	20.75
449.833	26.75
450.612	23.75
451.391	27.75
452.169	29.75
452.948	32.75
453.726	36.75
454.504	39.75
455.282	44.75
456.061	43.75
456.839	50.75
457.617	54.75
458.395	67.75
459.172	72.75
459.95	80.75
460.728	89.75
461.506	95.75
462.283	111.75
463.061	118.75
463.838	133.75
464.615	151.75
465.393	168.75
466.17	190.75
466.947	212.75
467.724	229.75
468.501	253.75
469.278	283.75
470.055	312.75
470.831	349.75
471.608	384.75
472.385	437.75
473.161	483.75
473.938	522.75
474.714	582.75
475.49	656.75
476.266	711.75
477.043	778.75
477.819	876.75
478.595	948.75
479.371	1053.75
480.146	1163.75
480.922	1274.75
481.698	1388.75
482.473	1544.75
483.249	1684.75
484.024	1845.75
484.8	2038.75
485.575	2227.75
486.35	2430.75
487.126	2702.75
487.901	2951.75
488.676	3235.75
489.451	3557.75
490.225	3863.75
491	4252.75
491.775	4627.75
492.55	5067.75
493.324	5517.75
494.099	6047.75
494.873	6589.75
495.647	7116.75
496.422	7780.75
497.196	8392.75
497.97	9010.75
498.744	9679.75
499.518	10368.75
500.292	11105.75
501.066	11789.75
501.839	12416.75
502.613	13039.75
503.387	13658.75
504.16	14204.75
504.934	14647.75
505.707	15028.75
506.48	15364.75
507.253	15597.75
508.027	15832.75
508.8	15792.75
509.573	15702.75
510.346	15529.75
511.118	15366.75
511.891	15025.75
512.664	14655.75
513.437	14211.75
514.209	13724.75
514.982	13217.75
515.754	12673.75
516.526	12214.75
517.298	11689.75
518.071	11167.75
518.843	10713.75
519.615	10255.75
520.387	9863.75
521.159	9448.75
521.93	9059.75
522.702	8717.75
523.474	8391.75
524.245	8022.75
525.017	7749.75
525.788	7420.75
526.56	7137.75
527.331	6809.75
528.102	6528.75
528.873	6249.75
529.644	5988.75
530.415	5691.75
531.186	5450.75
531.957	5202.75
532.728	4950.75
533.498	4677.75
534.269	4428.75
535.039	4201.75
535.81	3973.75
536.58	3779.75
537.351	3547.75
538.121	3343.75
538.891	3193.75
539.661	3017.75
540.431	2832.75
541.201	2698.75
541.971	2553.75
542.741	2413.75
543.51	2301.75
544.28	2163.75
545.05	2060.75
545.819	1961.75
546.588	1866.75
547.358	1769.75
548.127	1677.75
548.896	1599.75
549.665	1511.75
550.434	1437.75
551.203	1369.75
551.972	1296.75
552.741	1231.75
553.51	1152.75
554.278	1096.75
555.047	1032.75
555.815	978.75
556.584	924.75
557.352	884.75
558.121	829.75
558.889	787.75
559.657	731.75
560.425	694.75
561.193	651.75
561.961	615.75
562.729	581.75
563.496	558.75
564.264	511.75
565.032	496.75
565.799	455.75
566.567	434.75
567.334	421.75
568.101	392.75
568.869	365.75
569.636	346.75
570.403	324.75
571.17	302.75
571.937	284.75
572.704	272.75
573.471	261.75
574.237	246.75
575.004	232.75
575.771	213.75
576.537	208.75
577.303	193.75
578.07	178.75
578.836	167.75
579.602	160.75
580.368	155.75
581.134	143.75
581.9	136.75
582.666	132.75
583.432	120.75
584.198	115.75
584.964	110.75
585.729	100.75
586.495	99.75
587.26	91.75
588.025	86.75
588.791	83.75
589.556	77.75
590.321	74.75
591.086	70.75
591.851	67.75
592.616	63.75
593.381	57.75
594.146	58.75
594.911	55.75
595.675	54.75
596.44	46.75
597.204	43.75
597.969	44.75
598.733	44.75
599.497	38.75
600.261	35.75
601.025	34.75
601.79	33.75
602.553	32.75
603.317	33.75
604.081	33.75
604.845	28.75
605.609	27.75
606.372	25.75
607.136	25.75
607.899	22.75
608.662	25.75
609.426	23.75
610.189	23.75
610.952	23.75
611.715	19.75
612.478	20.75
613.241	17.75
614.004	19.75
614.767	19.75
615.529	16.75
616.292	14.75
617.055	16.75
617.817	15.75
618.579	12.75
619.342	17.75
620.104	13.75
620.866	13.75
621.628	11.75
622.39	10.75
623.152	12.75
623.914	9.75
624.676	11.75
625.438	11.75
626.199	10.75
626.961	7.75
627.722	10.75
628.484	5.75
629.245	8.75
630.006	10.75
630.768	7.75
631.529	10.75
632.29	9.75
633.051	6.75
633.812	9.75
634.573	9.75
635.333	5.75
636.094	9.75
636.855	5.75
637.615	5.75
638.376	6.75
639.136	8.75
639.896	7.75
640.657	5.75
641.417	7.75
642.177	3.75
642.937	7.75
643.697	4.75
644.457	5.75
645.216	4.75
645.976	5.75
646.736	5.75
647.495	5.75
648.255	4.75
649.014	4.75
649.774	5.75
650.533	2.75
651.292	3.75
652.051	2.75
652.81	3.75
653.569	3.75
654.328	2.75
655.087	4.75
655.846	3.75
656.604	2.75
657.363	4.75
658.121	4.75
658.88	4.75
659.638	3.75
660.397	3.75
661.155	5.75
661.913	1.75
662.671	4.75
663.429	2.75
664.187	3.75
664.945	5.75
665.703	1.75
666.46	2.75
667.218	1.75
667.976	2.75
668.733	2.75
669.49	3.75
670.248	2.75
671.005	4.75
671.762	4.75
672.519	1.75
673.276	2.75
674.033	0.75
674.79	1.75
675.547	3.75
676.304	3.75
677.06	0.75
677.817	3.75
678.574	0.75
679.33	1.75
680.086	3.75
680.843	-0.25
681.599	2.75
682.355	4.75
683.111	1.75
683.867	5.75
684.623	2.75
685.379	2.75
686.135	4.75
686.89	1.75
687.646	3.75
688.402	2.75
689.157	1.75
689.912	4.75
690.668	1.75
691.423	0.75
692.178	1.75
692.933	3.75
693.688	1.75
694.443	2.75
695.198	1.75
695.953	-1.25
696.708	2.75
697.462	3.75
698.217	4.75
698.972	3.75
699.726	1.75
700.48	2.75
701.235	0.75
701.989	0.75
702.743	1.75
703.497	0.75
704.251	3.75
705.005	2.75
705.759	1.75
706.513	3.75
707.266	1.75
708.02	3.75
708.774	1.75
709.527	2.75
710.28	1.75
711.034	3.75
711.787	2.75
712.54	2.75
713.293	0.75
714.046	3.75
714.799	0.75
715.552	2.75
716.305	2.75
717.058	1.75
717.81	2.75
718.563	2.75
719.315	2.75
720.068	1.75
720.82	2.75
721.573	2.75
722.325	2.75
723.077	3.75
723.829	1.75
724.581	2.75
725.333	0.75
726.085	0.75
726.836	0.75
727.588	1.75
728.34	2.75
729.091	3.75
729.843	3.75
730.594	2.75
731.346	1.75
732.097	2.75
732.848	1.75
733.599	1.75
734.35	2.75
735.101	2.75
735.852	3.75
736.603	4.75
737.354	3.75
738.104	0.75
738.855	2.75
739.605	1.75
740.356	3.75
741.106	0.75
741.856	3.75
742.607	2.75
743.357	0.75
744.107	2.75
744.857	1.75
745.607	2.75
746.357	1.75
747.106	4.75
747.856	4.75
748.606	2.75
749.355	1.75
750.105	2.75
750.854	3.75
751.603	1.75
752.353	3.75
753.102	2.75
753.851	3.75
754.6	3.75
755.349	1.75
756.098	2.75
756.847	4.75
757.595	3.75
758.344	1.75
759.093	2.75
759.841	3.75
760.589	1.75
761.338	2.75
762.086	2.75
762.834	4.75
763.582	2.75
764.331	1.75
765.079	3.75
765.826	4.75
766.574	2.75
767.322	3.75
768.07	5.75
768.817	4.75
769.565	3.75
770.312	3.75
771.06	3.75
771.807	3.75
772.554	3.75
773.302	4.75
774.049	2.75
774.796	4.75
775.543	5.75
776.29	5.75
777.036	5.75
777.783	3.75
778.53	4.75
779.276	3.75
780.023	6.75
780.769	5.75
781.516	2.75
782.262	3.75
783.008	4.75
783.754	4.75
784.5	3.75
785.246	4.75
785.992	7.75
786.738	2.75
787.484	6.75
788.23	5.75
788.975	5.75
789.721	5.75
790.466	4.75
791.212	3.75
791.957	3.75
792.702	3.75
793.447	2.75
794.193	5.75
794.938	5.75
795.683	3.75
796.427	2.75
797.172	5.75
797.917	6.75
798.662	5.75
799.406	3.75
800.151	3.75
800.895	2.75
801.64	4.75
802.384	5.75
803.128	4.75
803.872	5.75
804.616	4.75
805.36	5.75
806.104	4.75
806.848	4.75
807.592	4.75
808.336	5.75
809.079	4.75
809.823	4.75
810.566	2.75
811.31	1.75
812.053	3.75
812.796	0.75
813.539	3.75
814.283	3.75
815.026	2.75
815.769	3.75
816.511	3.75
817.254	4.75
817.997	1.75
818.74	3.75
819.482	2.75
820.225	3.75
820.967	3.75
821.71	1.75
822.452	2.75
823.194	4.75
823.936	3.75
824.678	4.75
825.42	1.75
826.162	2.75
826.904	2.75
827.646	2.75
828.388	3.75
829.129	0.75
829.871	3.75
830.612	1.75
831.354	2.75
832.095	2.75
832.836	4.75
833.577	1.75
834.319	2.75
835.06	4.75
835.801	2.75
836.542	4.75
837.282	4.75
838.023	2.75
838.764	2.75
839.504	1.75
840.245	5.75
840.985	2.75
841.726	2.75
842.466	0.75
843.206	3.75
843.946	1.75
844.687	3.75
845.427	3.75
846.166	1.75
846.906	4.75
847.646	1.75
848.386	2.75
849.125	2.75
849.865	4.75
850.605	1.75
851.344	1.75
852.083	1.75
852.823	0.75
853.562	2.75
854.301	-0.25
855.04	3.75
855.779	0.75
856.518	1.75
857.257	4.75
857.995	3.75
858.734	0.75
859.473	1.75
860.211	2.75
860.95	3.75
861.688	3.75
862.426	1.75
863.165	2.75
863.903	2.75
864.641	2.75
865.379	1.75
866.117	1.75
866.855	2.75
867.593	1.75
868.33	1.75
869.068	3.75
869.806	1.75
870.543	1.75
871.28	0.75
872.018	0.75
872.755	3.75
873.492	1.75
874.229	2.75
874.967	1.75
875.703	0.75
876.44	1.75
877.177	1.75
877.914	0.75
878.651	0.75
879.387	1.75
880.124	-0.25
880.86	-0.25
881.597	1.75
882.333	0.75
883.069	0.75
883.806	1.75
884.542	1.75
885.278	0.75
886.014	1.75
886.749	0.75
887.485	0.75
888.221	1.75
888.957	-0.25
889.692	1.75
890.428	0.75
891.163	2.75
891.899	0.75
892.634	1.75
893.369	0.75
894.104	-1.25
894.839	-1.25
895.574	1.75
896.309	1.75
897.044	-0.25
897.779	0.75
898.514	1.75
899.248	2.75
899.983	0.75
900.717	1.75
901.452	-1.25
902.186	1.75
902.92	0.75
903.654	1.75
904.389	2.75
905.123	1.75
905.857	1.75
906.59	-0.25
907.324	0.75
908.058	-0.25
908.792	1.75
909.525	1.75
910.259	0.75
910.992	0.75
911.726	0.75
912.459	0.75
913.192	-1.25
913.925	1.75
914.658	-0.25
915.391	2.75
916.124	0.75
916.857	1.75
917.59	2.75
918.323	0.75
919.055	0.75
919.788	1.75
920.521	1.75
921.253	1.75
921.985	-0.25
922.718	2.75
923.45	-1.25
924.182	-0.25
924.914	1.75
925.646	-2.25
926.378	0.75
927.11	-1.25
927.841	1.75
928.573	-1.25
929.305	-0.25
930.036	-0.25
930.768	1.75
931.499	-0.25
932.23	0.75
932.962	-0.25
933.693	0.75
934.424	-1.25
935.155	0.75
935.886	-1.25
936.617	0.75
937.348	0.75
938.078	-0.25
938.809	1.75
939.54	-1.25
940.27	0.75
941.001	-0.25
941.731	1.75
942.461	-1.25
943.191	1.75
943.922	0.75
944.652	-1.25
945.382	1.75
946.112	3.75
946.841	2.75
947.571	-1.25
948.301	1.75
949.031	-2.25
949.76	0.75
950.49	0.75
951.219	0.75
951.948	1.75
952.678	0.75
953.407	-0.25
954.136	2.75
954.865	0.75
955.594	-0.25
956.323	2.75
957.052	0.75
957.78	2.75
958.509	2.75
959.238	0.75
959.966	1.75
960.695	2.75
961.423	1.75
962.151	0.75
962.88	-0.25
963.608	1.75
964.336	1.75
965.064	-1.25
965.792	0.75
966.52	1.75
967.247	-0.25
967.975	1.75
968.703	0.75
969.43	-1.25
970.158	1.75
970.885	2.75
971.613	1.75
972.34	1.75
973.067	0.75
973.794	0.75
974.521	-0.25
975.248	0.75
975.975	-1.25
976.702	-1.25
977.429	0.75
978.156	0.75
978.882	-1.25
979.609	0.75
980.335	1.75
981.062	3.75
981.788	0.75
982.514	-1.25
983.24	0.75
983.967	-0.25
984.693	0.75
985.419	1.75
986.144	-1.25
986.87	1.75
987.596	1.75
988.322	1.75
989.047	0.75
989.773	0.75
990.498	0.75
991.224	1.75
991.949	-0.25
992.674	0.75
993.399	1.75
994.124	0.75
994.849	-0.25
995.574	-0.25
996.299	-0.25
997.024	-1.25
997.749	1.75
998.473	1.75
999.198	0.75
999.922	0.75
1000.647	1.75
1001.371	4.75
1002.095	-1.25
1002.82	-2.25
1003.544	-0.25
1004.268	0.75
1004.992	-1.25
1005.716	-0.25
1006.439	-0.25
1007.163	-1.25
1007.887	-1.25
1008.611	1.75
1009.334	0.75
1010.058	1.75
1010.781	1.75
1011.504	1.75
1012.228	-1.25
1012.951	-1.25
1013.674	0.75
1014.397	-1.25
1015.12	0.75
