节点500_145_QEPB04081__215__11-32-24-486.txt的数据

Date: Wed Nov 12 11:32:24 CST 2025
User: PC
Spectrometer: QEPB0408
触发模式: 0
积分时间 (秒): 1.000000E-2
Scans to average: 1
启用暗噪声校正: true
启用非线性校正: false
滑动平均宽度: 0
X轴模式: Wavelengths
Number of Pixels in Spectrum: 1044
>>>>>Begin Spectral Data<<<<<
220.843	-0.62
221.644	0.38
222.444	2.38
223.244	-0.62
224.045	1.38
224.845	0.38
225.645	-1.62
226.445	2.38
227.245	-2.62
228.045	-1.62
228.845	0.38
229.645	2.38
230.444	0.38
231.244	1.38
232.043	1.38
232.843	3.38
233.642	2.38
234.442	2.38
235.241	2.38
236.04	1.38
236.839	1.38
237.638	2.38
238.437	-1.62
239.236	2.38
240.035	3.38
240.833	1.38
241.632	2.38
242.43	-0.62
243.229	3.38
244.027	0.38
244.826	2.38
245.624	1.38
246.422	3.38
247.22	0.38
248.018	2.38
248.816	2.38
249.614	1.38
250.412	2.38
251.21	5.38
252.007	2.38
252.805	2.38
253.602	2.38
254.4	2.38
255.197	5.38
255.994	4.38
256.791	5.38
257.589	4.38
258.386	3.38
259.183	5.38
259.979	4.38
260.776	3.38
261.573	4.38
262.37	5.38
263.166	5.38
263.963	5.38
264.759	6.38
265.556	7.38
266.352	7.38
267.148	5.38
267.944	5.38
268.74	6.38
269.536	9.38
270.332	5.38
271.128	7.38
271.924	7.38
272.719	8.38
273.515	8.38
274.311	10.38
275.106	8.38
275.901	10.38
276.697	8.38
277.492	10.38
278.287	10.38
279.082	10.38
279.877	10.38
280.672	12.38
281.467	10.38
282.262	12.38
283.056	9.38
283.851	10.38
284.646	10.38
285.44	10.38
286.234	12.38
287.029	9.38
287.823	11.38
288.617	12.38
289.411	10.38
290.205	11.38
290.999	12.38
291.793	10.38
292.587	9.38
293.381	10.38
294.174	10.38
294.968	9.38
295.761	10.38
296.555	10.38
297.348	12.38
298.141	9.38
298.935	13.38
299.728	12.38
300.521	9.38
301.314	11.38
302.107	8.38
302.899	9.38
303.692	7.38
304.485	8.38
305.277	7.38
306.07	5.38
306.862	7.38
307.655	8.38
308.447	9.38
309.239	9.38
310.031	6.38
310.823	7.38
311.615	5.38
312.407	7.38
313.199	8.38
313.991	5.38
314.783	6.38
315.574	6.38
316.366	6.38
317.157	4.38
317.949	4.38
318.74	5.38
319.531	7.38
320.322	5.38
321.113	5.38
321.904	7.38
322.695	5.38
323.486	5.38
324.277	4.38
325.068	3.38
325.858	4.38
326.649	4.38
327.439	3.38
328.23	2.38
329.02	3.38
329.81	6.38
330.6	3.38
331.391	4.38
332.181	3.38
332.971	3.38
333.76	3.38
334.55	5.38
335.34	5.38
336.13	4.38
336.919	4.38
337.709	0.38
338.498	5.38
339.287	1.38
340.077	4.38
340.866	2.38
341.655	4.38
342.444	3.38
343.233	3.38
344.022	4.38
344.811	1.38
345.6	5.38
346.388	3.38
347.177	4.38
347.965	3.38
348.754	4.38
349.542	4.38
350.33	4.38
351.119	2.38
351.907	3.38
352.695	2.38
353.483	4.38
354.271	2.38
355.059	3.38
355.846	4.38
356.634	1.38
357.422	5.38
358.209	3.38
358.997	3.38
359.784	0.38
360.571	5.38
361.359	2.38
362.146	3.38
362.933	2.38
363.72	3.38
364.507	2.38
365.294	1.38
366.081	2.38
366.867	2.38
367.654	3.38
368.44	2.38
369.227	2.38
370.013	4.38
370.8	2.38
371.586	2.38
372.372	3.38
373.158	1.38
373.944	3.38
374.73	-0.62
375.516	4.38
376.302	2.38
377.088	2.38
377.873	4.38
378.659	3.38
379.445	5.38
380.23	2.38
381.015	5.38
381.801	3.38
382.586	2.38
383.371	1.38
384.156	2.38
384.941	4.38
385.726	4.38
386.511	2.38
387.296	4.38
388.08	3.38
388.865	4.38
389.649	3.38
390.434	5.38
391.218	3.38
392.003	3.38
392.787	2.38
393.571	4.38
394.355	1.38
395.139	3.38
395.923	3.38
396.707	5.38
397.491	5.38
398.274	2.38
399.058	5.38
399.842	5.38
400.625	2.38
401.408	5.38
402.192	3.38
402.975	3.38
403.758	4.38
404.541	4.38
405.324	2.38
406.107	4.38
406.89	4.38
407.673	3.38
408.456	5.38
409.238	5.38
410.021	3.38
410.803	3.38
411.586	5.38
412.368	5.38
413.151	4.38
413.933	7.38
414.715	6.38
415.497	4.38
416.279	5.38
417.061	3.38
417.843	7.38
418.624	7.38
419.406	6.38
420.188	5.38
420.969	5.38
421.751	6.38
422.532	3.38
423.313	6.38
424.095	5.38
424.876	4.38
425.657	4.38
426.438	5.38
427.219	5.38
428	7.38
428.78	9.38
429.561	6.38
430.342	7.38
431.122	6.38
431.903	5.38
432.683	9.38
433.464	8.38
434.244	9.38
435.024	8.38
435.804	9.38
436.584	9.38
437.364	7.38
438.144	11.38
438.924	13.38
439.704	13.38
440.483	12.38
441.263	11.38
442.042	11.38
442.822	12.38
443.601	13.38
444.38	13.38
445.16	18.38
445.939	16.38
446.718	16.38
447.497	18.38
448.276	18.38
449.054	21.38
449.833	23.38
450.612	24.38
451.391	27.38
452.169	30.38
452.948	29.38
453.726	30.38
454.504	35.38
455.282	41.38
456.061	46.38
456.839	45.38
457.617	53.38
458.395	60.38
459.172	64.38
459.95	71.38
460.728	81.38
461.506	90.38
462.283	100.38
463.061	112.38
463.838	125.38
464.615	136.38
465.393	149.38
466.17	168.38
466.947	191.38
467.724	213.38
468.501	234.38
469.278	266.38
470.055	297.38
470.831	330.38
471.608	365.38
472.385	407.38
473.161	437.38
473.938	511.38
474.714	560.38
475.49	614.38
476.266	688.38
477.043	756.38
477.819	849.38
478.595	930.38
479.371	1024.38
480.146	1150.38
480.922	1267.38
481.698	1402.38
482.473	1545.38
483.249	1722.38
484.024	1901.38
484.8	2073.38
485.575	2297.38
486.35	2535.38
487.126	2811.38
487.901	3110.38
488.676	3452.38
489.451	3779.38
490.225	4151.38
491	4584.38
491.775	5034.38
492.55	5533.38
493.324	6046.38
494.099	6653.38
494.873	7309.38
495.647	7918.38
496.422	8624.38
497.196	9304.38
497.97	10053.38
498.744	10858.38
499.518	11624.38
500.292	12343.38
501.066	13148.38
501.839	13789.38
502.613	14501.38
503.387	15162.38
504.16	15692.38
504.934	16078.38
505.707	16455.38
506.48	16643.38
507.253	16843.38
508.027	16885.38
508.8	16755.38
509.573	16561.38
510.346	16250.38
511.118	15897.38
511.891	15523.38
512.664	15002.38
513.437	14374.38
514.209	13805.38
514.982	13297.38
515.754	12761.38
516.526	12194.38
517.298	11663.38
518.071	11088.38
518.843	10612.38
519.615	10175.38
520.387	9756.38
521.159	9344.38
521.93	8925.38
522.702	8579.38
523.474	8294.38
524.245	7963.38
525.017	7625.38
525.788	7353.38
526.56	7024.38
527.331	6737.38
528.102	6410.38
528.873	6166.38
529.644	5865.38
530.415	5611.38
531.186	5317.38
531.957	5049.38
532.728	4777.38
533.498	4543.38
534.269	4323.38
535.039	4051.38
535.81	3822.38
536.58	3623.38
537.351	3402.38
538.121	3219.38
538.891	3029.38
539.661	2883.38
540.431	2692.38
541.201	2569.38
541.971	2450.38
542.741	2300.38
543.51	2164.38
544.28	2068.38
545.05	1978.38
545.819	1861.38
546.588	1786.38
547.358	1678.38
548.127	1622.38
548.896	1529.38
549.665	1449.38
550.434	1380.38
551.203	1304.38
551.972	1236.38
552.741	1172.38
553.51	1119.38
554.278	1045.38
555.047	976.38
555.815	942.38
556.584	885.38
557.352	833.38
558.121	779.38
558.889	738.38
559.657	699.38
560.425	653.38
561.193	614.38
561.961	569.38
562.729	549.38
563.496	517.38
564.264	485.38
565.032	460.38
565.799	432.38
566.567	409.38
567.334	393.38
568.101	372.38
568.869	347.38
569.636	323.38
570.403	311.38
571.17	286.38
571.937	280.38
572.704	260.38
573.471	244.38
574.237	229.38
575.004	220.38
575.771	206.38
576.537	188.38
577.303	179.38
578.07	169.38
578.836	158.38
579.602	148.38
580.368	142.38
581.134	134.38
581.9	129.38
582.666	121.38
583.432	117.38
584.198	108.38
584.964	106.38
585.729	94.38
586.495	89.38
587.26	86.38
588.025	80.38
588.791	77.38
589.556	71.38
590.321	66.38
591.086	66.38
591.851	61.38
592.616	57.38
593.381	56.38
594.146	51.38
594.911	51.38
595.675	47.38
596.44	46.38
597.204	45.38
597.969	40.38
598.733	40.38
599.497	38.38
600.261	36.38
601.025	38.38
601.79	30.38
602.553	32.38
603.317	30.38
604.081	29.38
604.845	28.38
605.609	25.38
606.372	25.38
607.136	26.38
607.899	24.38
608.662	25.38
609.426	19.38
610.189	22.38
610.952	19.38
611.715	19.38
612.478	17.38
613.241	14.38
614.004	15.38
614.767	17.38
615.529	17.38
616.292	14.38
617.055	13.38
617.817	13.38
618.579	13.38
619.342	12.38
620.104	14.38
620.866	11.38
621.628	11.38
622.39	12.38
623.152	13.38
623.914	11.38
624.676	11.38
625.438	11.38
626.199	9.38
626.961	7.38
627.722	9.38
628.484	8.38
629.245	7.38
630.006	7.38
630.768	9.38
631.529	7.38
632.29	7.38
633.051	10.38
633.812	8.38
634.573	5.38
635.333	6.38
636.094	7.38
636.855	6.38
637.615	7.38
638.376	5.38
639.136	5.38
639.896	4.38
640.657	6.38
641.417	3.38
642.177	6.38
642.937	4.38
643.697	5.38
644.457	6.38
645.216	5.38
645.976	3.38
646.736	6.38
647.495	5.38
648.255	3.38
649.014	5.38
649.774	5.38
650.533	5.38
651.292	3.38
652.051	5.38
652.81	2.38
653.569	1.38
654.328	3.38
655.087	3.38
655.846	3.38
656.604	3.38
657.363	1.38
658.121	3.38
658.88	5.38
659.638	-0.62
660.397	4.38
661.155	3.38
661.913	2.38
662.671	3.38
663.429	1.38
664.187	3.38
664.945	1.38
665.703	2.38
666.46	3.38
667.218	2.38
667.976	2.38
668.733	3.38
669.49	2.38
670.248	3.38
671.005	3.38
671.762	1.38
672.519	0.38
673.276	1.38
674.033	0.38
674.79	1.38
675.547	1.38
676.304	2.38
677.06	2.38
677.817	2.38
678.574	2.38
679.33	4.38
680.086	2.38
680.843	-0.62
681.599	2.38
682.355	2.38
683.111	0.38
683.867	2.38
684.623	4.38
685.379	2.38
686.135	3.38
686.89	3.38
687.646	0.38
688.402	5.38
689.157	3.38
689.912	0.38
690.668	3.38
691.423	1.38
692.178	1.38
692.933	4.38
693.688	4.38
694.443	1.38
695.198	1.38
695.953	2.38
696.708	1.38
697.462	3.38
698.217	4.38
698.972	3.38
699.726	2.38
700.48	-0.62
701.235	2.38
701.989	3.38
702.743	2.38
703.497	-1.62
704.251	0.38
705.005	3.38
705.759	2.38
706.513	2.38
707.266	2.38
708.02	3.38
708.774	3.38
709.527	3.38
710.28	1.38
711.034	1.38
711.787	2.38
712.54	1.38
713.293	2.38
714.046	2.38
714.799	1.38
715.552	4.38
716.305	1.38
717.058	3.38
717.81	1.38
718.563	2.38
719.315	4.38
720.068	2.38
720.82	2.38
721.573	3.38
722.325	0.38
723.077	0.38
723.829	2.38
724.581	5.38
725.333	3.38
726.085	0.38
726.836	0.38
727.588	1.38
728.34	0.38
729.091	3.38
729.843	3.38
730.594	0.38
731.346	4.38
732.097	3.38
732.848	4.38
733.599	2.38
734.35	1.38
735.101	3.38
735.852	2.38
736.603	3.38
737.354	-0.62
738.104	4.38
738.855	1.38
739.605	2.38
740.356	3.38
741.106	3.38
741.856	2.38
742.607	0.38
743.357	5.38
744.107	2.38
744.857	4.38
745.607	2.38
746.357	0.38
747.106	4.38
747.856	0.38
748.606	2.38
749.355	2.38
750.105	2.38
750.854	2.38
751.603	2.38
752.353	2.38
753.102	-0.62
753.851	4.38
754.6	4.38
755.349	3.38
756.098	2.38
756.847	2.38
757.595	3.38
758.344	4.38
759.093	2.38
759.841	6.38
760.589	2.38
761.338	3.38
762.086	1.38
762.834	4.38
763.582	2.38
764.331	3.38
765.079	4.38
765.826	5.38
766.574	5.38
767.322	2.38
768.07	5.38
768.817	3.38
769.565	3.38
770.312	5.38
771.06	4.38
771.807	4.38
772.554	5.38
773.302	6.38
774.049	3.38
774.796	5.38
775.543	4.38
776.29	5.38
777.036	4.38
777.783	6.38
778.53	5.38
779.276	4.38
780.023	5.38
780.769	5.38
781.516	4.38
782.262	6.38
783.008	3.38
783.754	7.38
784.5	3.38
785.246	5.38
785.992	5.38
786.738	4.38
787.484	5.38
788.23	7.38
788.975	5.38
789.721	6.38
790.466	7.38
791.212	5.38
791.957	4.38
792.702	4.38
793.447	6.38
794.193	7.38
794.938	6.38
795.683	4.38
796.427	5.38
797.172	4.38
797.917	3.38
798.662	3.38
799.406	3.38
800.151	4.38
800.895	5.38
801.64	5.38
802.384	4.38
803.128	6.38
803.872	2.38
804.616	6.38
805.36	4.38
806.104	5.38
806.848	4.38
807.592	4.38
808.336	3.38
809.079	1.38
809.823	2.38
810.566	1.38
811.31	3.38
812.053	3.38
812.796	2.38
813.539	5.38
814.283	2.38
815.026	4.38
815.769	2.38
816.511	4.38
817.254	3.38
817.997	2.38
818.74	3.38
819.482	3.38
820.225	4.38
820.967	2.38
821.71	3.38
822.452	2.38
823.194	2.38
823.936	3.38
824.678	4.38
825.42	3.38
826.162	2.38
826.904	2.38
827.646	3.38
828.388	1.38
829.129	3.38
829.871	2.38
830.612	4.38
831.354	2.38
832.095	3.38
832.836	5.38
833.577	5.38
834.319	5.38
835.06	4.38
835.801	4.38
836.542	1.38
837.282	2.38
838.023	3.38
838.764	1.38
839.504	-0.62
840.245	2.38
840.985	3.38
841.726	2.38
842.466	3.38
843.206	2.38
843.946	0.38
844.687	3.38
845.427	3.38
846.166	3.38
846.906	2.38
847.646	3.38
848.386	3.38
849.125	3.38
849.865	1.38
850.605	1.38
851.344	1.38
852.083	2.38
852.823	1.38
853.562	2.38
854.301	2.38
855.04	1.38
855.779	2.38
856.518	1.38
857.257	2.38
857.995	1.38
858.734	1.38
859.473	2.38
860.211	1.38
860.95	2.38
861.688	1.38
862.426	1.38
863.165	0.38
863.903	0.38
864.641	1.38
865.379	2.38
866.117	1.38
866.855	-0.62
867.593	2.38
868.33	2.38
869.068	1.38
869.806	2.38
870.543	2.38
871.28	1.38
872.018	2.38
872.755	2.38
873.492	-1.62
874.229	0.38
874.967	1.38
875.703	1.38
876.44	2.38
877.177	1.38
877.914	0.38
878.651	-1.62
879.387	1.38
880.124	2.38
880.86	-0.62
881.597	1.38
882.333	-1.62
883.069	2.38
883.806	1.38
884.542	1.38
885.278	0.38
886.014	0.38
886.749	1.38
887.485	-0.62
888.221	1.38
888.957	2.38
889.692	1.38
890.428	1.38
891.163	1.38
891.899	0.38
892.634	0.38
893.369	0.38
894.104	-0.62
894.839	1.38
895.574	-0.62
896.309	-0.62
897.044	-1.62
897.779	0.38
898.514	1.38
899.248	-0.62
899.983	2.38
900.717	0.38
901.452	-0.62
902.186	-1.62
902.92	0.38
903.654	0.38
904.389	1.38
905.123	2.38
905.857	-0.62
906.59	0.38
907.324	1.38
908.058	1.38
908.792	0.38
909.525	1.38
910.259	2.38
910.992	2.38
911.726	-0.62
912.459	0.38
913.192	0.38
913.925	1.38
914.658	0.38
915.391	1.38
916.124	-1.62
916.857	0.38
917.59	-0.62
918.323	1.38
919.055	2.38
919.788	1.38
920.521	-1.62
921.253	1.38
921.985	1.38
922.718	3.38
923.45	0.38
924.182	-1.62
924.914	0.38
925.646	-0.62
926.378	3.38
927.11	-1.62
927.841	-0.62
928.573	0.38
929.305	2.38
930.036	1.38
930.768	-0.62
931.499	1.38
932.23	0.38
932.962	0.38
933.693	-1.62
934.424	-1.62
935.155	-0.62
935.886	-0.62
936.617	1.38
937.348	0.38
938.078	1.38
938.809	1.38
939.54	0.38
940.27	0.38
941.001	0.38
941.731	2.38
942.461	1.38
943.191	0.38
943.922	-1.62
944.652	2.38
945.382	1.38
946.112	1.38
946.841	0.38
947.571	-0.62
948.301	2.38
949.031	-0.62
949.76	-1.62
950.49	0.38
951.219	2.38
951.948	2.38
952.678	-1.62
953.407	0.38
954.136	2.38
954.865	-0.62
955.594	1.38
956.323	0.38
957.052	-0.62
957.78	0.38
958.509	1.38
959.238	1.38
959.966	-1.62
960.695	2.38
961.423	-1.62
962.151	2.38
962.88	-0.62
963.608	1.38
964.336	0.38
965.064	-0.62
965.792	0.38
966.52	3.38
967.247	1.38
967.975	-1.62
968.703	3.38
969.43	0.38
970.158	-1.62
970.885	2.38
971.613	-0.62
972.34	1.38
973.067	-2.62
973.794	0.38
974.521	0.38
975.248	0.38
975.975	-1.62
976.702	0.38
977.429	-0.62
978.156	1.38
978.882	-0.62
979.609	1.38
980.335	0.38
981.062	1.38
981.788	2.38
982.514	2.38
983.24	0.38
983.967	1.38
984.693	1.38
985.419	-0.62
986.144	0.38
986.87	-1.62
987.596	0.38
988.322	0.38
989.047	2.38
989.773	1.38
990.498	-1.62
991.224	0.38
991.949	1.38
992.674	-0.62
993.399	-0.62
994.124	0.38
994.849	1.38
995.574	0.38
996.299	-0.62
997.024	0.38
997.749	0.38
998.473	-0.62
999.198	0.38
999.922	0.38
1000.647	-0.62
1001.371	5.38
1002.095	-1.62
1002.82	0.38
1003.544	-2.62
1004.268	-1.62
1004.992	1.38
1005.716	-0.62
1006.439	1.38
1007.163	1.38
1007.887	1.38
1008.611	1.38
1009.334	1.38
1010.058	-0.62
1010.781	-0.62
1011.504	-0.62
1012.228	0.38
1012.951	-1.62
1013.674	1.38
1014.397	-0.62
1015.12	-0.62
