节点500_145_QEPB04081__125__11-30-56-617.txt的数据

Date: Wed Nov 12 11:30:56 CST 2025
User: PC
Spectrometer: QEPB0408
触发模式: 0
积分时间 (秒): 1.000000E-2
Scans to average: 1
启用暗噪声校正: true
启用非线性校正: false
滑动平均宽度: 0
X轴模式: Wavelengths
Number of Pixels in Spectrum: 1044
>>>>>Begin Spectral Data<<<<<
220.843	-2
221.644	-1
222.444	-1
223.244	2
224.045	2
224.845	3
225.645	-2
226.445	-1
227.245	1
228.045	0
228.845	-1
229.645	-1
230.444	1
231.244	1
232.043	1
232.843	0
233.642	1
234.442	2
235.241	-1
236.04	1
236.839	2
237.638	-1
238.437	1
239.236	3
240.035	1
240.833	3
241.632	1
242.43	0
243.229	2
244.027	1
244.826	2
245.624	2
246.422	0
247.22	3
248.018	2
248.816	3
249.614	1
250.412	2
251.21	2
252.007	5
252.805	0
253.602	2
254.4	6
255.197	4
255.994	6
256.791	2
257.589	3
258.386	4
259.183	2
259.979	4
260.776	5
261.573	6
262.37	3
263.166	3
263.963	4
264.759	3
265.556	6
266.352	5
267.148	7
267.944	6
268.74	6
269.536	7
270.332	5
271.128	10
271.924	9
272.719	5
273.515	9
274.311	9
275.106	10
275.901	9
276.697	10
277.492	9
278.287	7
279.082	9
279.877	9
280.672	9
281.467	12
282.262	13
283.056	11
283.851	11
284.646	10
285.44	12
286.234	10
287.029	11
287.823	10
288.617	12
289.411	11
290.205	13
290.999	10
291.793	11
292.587	12
293.381	12
294.174	11
294.968	7
295.761	12
296.555	9
297.348	9
298.141	9
298.935	9
299.728	11
300.521	10
301.314	10
302.107	7
302.899	10
303.692	9
304.485	8
305.277	7
306.07	11
306.862	9
307.655	8
308.447	8
309.239	8
310.031	8
310.823	7
311.615	6
312.407	6
313.199	8
313.991	5
314.783	5
315.574	9
316.366	7
317.157	4
317.949	7
318.74	3
319.531	6
320.322	5
321.113	6
321.904	2
322.695	3
323.486	3
324.277	3
325.068	3
325.858	4
326.649	4
327.439	5
328.23	5
329.02	1
329.81	2
330.6	1
331.391	4
332.181	2
332.971	3
333.76	4
334.55	3
335.34	2
336.13	6
336.919	2
337.709	1
338.498	5
339.287	5
340.077	2
340.866	3
341.655	2
342.444	4
343.233	4
344.022	2
344.811	4
345.6	3
346.388	1
347.177	6
347.965	3
348.754	3
349.542	4
350.33	1
351.119	4
351.907	3
352.695	2
353.483	3
354.271	2
355.059	3
355.846	1
356.634	1
357.422	2
358.209	3
358.997	4
359.784	3
360.571	3
361.359	5
362.146	1
362.933	2
363.72	4
364.507	3
365.294	3
366.081	2
366.867	2
367.654	3
368.44	4
369.227	1
370.013	3
370.8	2
371.586	3
372.372	3
373.158	4
373.944	3
374.73	3
375.516	4
376.302	2
377.088	2
377.873	2
378.659	3
379.445	1
380.23	1
381.015	3
381.801	4
382.586	1
383.371	3
384.156	2
384.941	3
385.726	2
386.511	4
387.296	3
388.08	2
388.865	3
389.649	2
390.434	3
391.218	4
392.003	2
392.787	4
393.571	1
394.355	1
395.139	6
395.923	2
396.707	3
397.491	3
398.274	3
399.058	4
399.842	1
400.625	3
401.408	3
402.192	4
402.975	4
403.758	6
404.541	2
405.324	4
406.107	2
406.89	2
407.673	2
408.456	5
409.238	4
410.021	5
410.803	6
411.586	4
412.368	7
413.151	5
413.933	3
414.715	5
415.497	3
416.279	6
417.061	4
417.843	3
418.624	3
419.406	5
420.188	6
420.969	5
421.751	6
422.532	3
423.313	7
424.095	6
424.876	7
425.657	6
426.438	6
427.219	8
428	6
428.78	8
429.561	6
430.342	5
431.122	6
431.903	6
432.683	8
433.464	8
434.244	10
435.024	10
435.804	10
436.584	10
437.364	11
438.144	13
438.924	11
439.704	10
440.483	12
441.263	12
442.042	11
442.822	12
443.601	12
444.38	13
445.16	13
445.939	16
446.718	15
447.497	18
448.276	21
449.054	23
449.833	22
450.612	24
451.391	26
452.169	26
452.948	29
453.726	31
454.504	35
455.282	41
456.061	43
456.839	48
457.617	54
458.395	55
459.172	59
459.95	68
460.728	78
461.506	84
462.283	100
463.061	102
463.838	118
464.615	129
465.393	149
466.17	164
466.947	182
467.724	203
468.501	221
469.278	256
470.055	274
470.831	316
471.608	347
472.385	400
473.161	439
473.938	490
474.714	545
475.49	615
476.266	678
477.043	750
477.819	835
478.595	920
479.371	1019
480.146	1151
480.922	1260
481.698	1403
482.473	1539
483.249	1719
484.024	1898
484.8	2112
485.575	2327
486.35	2580
487.126	2846
487.901	3151
488.676	3501
489.451	3870
490.225	4278
491	4696
491.775	5202
492.55	5682
493.324	6283
494.099	6859
494.873	7556
495.647	8241
496.422	8944
497.196	9674
497.97	10500
498.744	11277
499.518	12091
500.292	12857
501.066	13656
501.839	14427
502.613	15083
503.387	15700
504.16	16208
504.934	16647
505.707	16985
506.48	17186
507.253	17244
508.027	17282
508.8	17057
509.573	16823
510.346	16527
511.118	16089
511.891	15609
512.664	15019
513.437	14498
514.209	13909
514.982	13276
515.754	12687
516.526	12108
517.298	11574
518.071	11022
518.843	10561
519.615	10089
520.387	9661
521.159	9335
521.93	8916
522.702	8566
523.474	8250
524.245	7901
525.017	7596
525.788	7311
526.56	7002
527.331	6694
528.102	6381
528.873	6102
529.644	5826
530.415	5546
531.186	5261
531.957	4990
532.728	4702
533.498	4491
534.269	4201
535.039	3984
535.81	3767
536.58	3543
537.351	3329
538.121	3156
538.891	2966
539.661	2810
540.431	2657
541.201	2517
541.971	2378
542.741	2258
543.51	2146
544.28	2028
545.05	1933
545.819	1821
546.588	1757
547.358	1666
548.127	1578
548.896	1497
549.665	1441
550.434	1353
551.203	1292
551.972	1222
552.741	1154
553.51	1084
554.278	1019
555.047	960
555.815	904
556.584	857
557.352	807
558.121	763
558.889	721
559.657	677
560.425	634
561.193	606
561.961	569
562.729	536
563.496	505
564.264	474
565.032	449
565.799	431
566.567	403
567.334	378
568.101	357
568.869	339
569.636	315
570.403	301
571.17	284
571.937	260
572.704	247
573.471	239
574.237	226
575.004	211
575.771	199
576.537	188
577.303	173
578.07	164
578.836	158
579.602	148
580.368	137
581.134	131
581.9	124
582.666	120
583.432	111
584.198	104
584.964	97
585.729	95
586.495	87
587.26	81
588.025	80
588.791	79
589.556	72
590.321	67
591.086	65
591.851	62
592.616	55
593.381	52
594.146	50
594.911	50
595.675	46
596.44	44
597.204	46
597.969	42
598.733	37
599.497	37
600.261	35
601.025	33
601.79	32
602.553	31
603.317	28
604.081	28
604.845	26
605.609	26
606.372	25
607.136	24
607.899	22
608.662	23
609.426	22
610.189	19
610.952	19
611.715	17
612.478	19
613.241	16
614.004	16
614.767	18
615.529	13
616.292	14
617.055	15
617.817	13
618.579	12
619.342	13
620.104	14
620.866	10
621.628	10
622.39	9
623.152	11
623.914	11
624.676	10
625.438	11
626.199	5
626.961	10
627.722	10
628.484	8
629.245	8
630.006	6
630.768	8
631.529	8
632.29	9
633.051	7
633.812	6
634.573	7
635.333	5
636.094	6
636.855	5
637.615	8
638.376	4
639.136	7
639.896	5
640.657	4
641.417	5
642.177	2
642.937	7
643.697	5
644.457	5
645.216	3
645.976	3
646.736	5
647.495	2
648.255	4
649.014	3
649.774	3
650.533	3
651.292	3
652.051	5
652.81	2
653.569	3
654.328	2
655.087	2
655.846	2
656.604	3
657.363	1
658.121	3
658.88	3
659.638	4
660.397	5
661.155	5
661.913	1
662.671	4
663.429	2
664.187	3
664.945	0
665.703	4
666.46	2
667.218	3
667.976	3
668.733	2
669.49	2
670.248	5
671.005	1
671.762	2
672.519	2
673.276	3
674.033	1
674.79	3
675.547	2
676.304	1
677.06	2
677.817	1
678.574	3
679.33	2
680.086	3
680.843	2
681.599	1
682.355	0
683.111	2
683.867	2
684.623	2
685.379	3
686.135	1
686.89	3
687.646	4
688.402	1
689.157	1
689.912	3
690.668	0
691.423	2
692.178	3
692.933	3
693.688	3
694.443	1
695.198	1
695.953	2
696.708	2
697.462	1
698.217	1
698.972	0
699.726	2
700.48	4
701.235	1
701.989	2
702.743	1
703.497	1
704.251	1
705.005	2
705.759	1
706.513	0
707.266	2
708.02	3
708.774	4
709.527	4
710.28	1
711.034	-1
711.787	2
712.54	2
713.293	-1
714.046	1
714.799	2
715.552	1
716.305	2
717.058	4
717.81	4
718.563	4
719.315	2
720.068	3
720.82	3
721.573	2
722.325	2
723.077	3
723.829	3
724.581	3
725.333	1
726.085	0
726.836	2
727.588	1
728.34	4
729.091	3
729.843	3
730.594	1
731.346	1
732.097	2
732.848	1
733.599	3
734.35	1
735.101	3
735.852	3
736.603	-1
737.354	2
738.104	2
738.855	2
739.605	3
740.356	2
741.106	3
741.856	1
742.607	2
743.357	2
744.107	3
744.857	2
745.607	3
746.357	3
747.106	2
747.856	4
748.606	3
749.355	1
750.105	2
750.854	1
751.603	3
752.353	4
753.102	2
753.851	3
754.6	4
755.349	2
756.098	1
756.847	4
757.595	2
758.344	3
759.093	2
759.841	2
760.589	2
761.338	2
762.086	5
762.834	3
763.582	3
764.331	6
765.079	3
765.826	3
766.574	3
767.322	4
768.07	4
768.817	1
769.565	2
770.312	4
771.06	5
771.807	2
772.554	4
773.302	2
774.049	3
774.796	3
775.543	3
776.29	4
777.036	4
777.783	7
778.53	7
779.276	4
780.023	6
780.769	4
781.516	5
782.262	6
783.008	5
783.754	5
784.5	4
785.246	8
785.992	2
786.738	7
787.484	5
788.23	6
788.975	5
789.721	6
790.466	2
791.212	8
791.957	5
792.702	6
793.447	6
794.193	7
794.938	3
795.683	6
796.427	6
797.172	4
797.917	6
798.662	5
799.406	6
800.151	5
800.895	3
801.64	3
802.384	6
803.128	4
803.872	5
804.616	3
805.36	4
806.104	6
806.848	4
807.592	3
808.336	4
809.079	2
809.823	1
810.566	2
811.31	4
812.053	4
812.796	2
813.539	4
814.283	4
815.026	3
815.769	1
816.511	1
817.254	2
817.997	2
818.74	2
819.482	2
820.225	3
820.967	1
821.71	5
822.452	2
823.194	2
823.936	3
824.678	4
825.42	3
826.162	5
826.904	4
827.646	2
828.388	4
829.129	4
829.871	2
830.612	2
831.354	2
832.095	3
832.836	4
833.577	2
834.319	1
835.06	2
835.801	2
836.542	1
837.282	2
838.023	0
838.764	2
839.504	0
840.245	3
840.985	1
841.726	-2
842.466	1
843.206	3
843.946	2
844.687	2
845.427	3
846.166	1
846.906	1
847.646	3
848.386	4
849.125	0
849.865	4
850.605	1
851.344	1
852.083	3
852.823	2
853.562	2
854.301	1
855.04	4
855.779	1
856.518	0
857.257	1
857.995	1
858.734	1
859.473	2
860.211	2
860.95	1
861.688	3
862.426	1
863.165	1
863.903	3
864.641	1
865.379	1
866.117	-1
866.855	1
867.593	1
868.33	1
869.068	0
869.806	1
870.543	2
871.28	3
872.018	1
872.755	1
873.492	0
874.229	1
874.967	0
875.703	1
876.44	2
877.177	0
877.914	1
878.651	3
879.387	1
880.124	1
880.86	1
881.597	0
882.333	1
883.069	0
883.806	1
884.542	1
885.278	1
886.014	1
886.749	0
887.485	2
888.221	1
888.957	2
889.692	0
890.428	0
891.163	1
891.899	1
892.634	0
893.369	2
894.104	1
894.839	1
895.574	-2
896.309	2
897.044	-1
897.779	1
898.514	1
899.248	1
899.983	0
900.717	-1
901.452	1
902.186	1
902.92	0
903.654	-2
904.389	0
905.123	1
905.857	-1
906.59	0
907.324	-2
908.058	-1
908.792	2
909.525	-2
910.259	1
910.992	-2
911.726	1
912.459	0
913.192	0
913.925	-1
914.658	-1
915.391	0
916.124	-1
916.857	-2
917.59	1
918.323	1
919.055	1
919.788	0
920.521	5
921.253	1
921.985	1
922.718	-1
923.45	2
924.182	2
924.914	0
925.646	0
926.378	0
927.11	-1
927.841	0
928.573	-1
929.305	0
930.036	-2
930.768	1
931.499	1
932.23	0
932.962	0
933.693	1
934.424	1
935.155	0
935.886	0
936.617	-1
937.348	1
938.078	1
938.809	-2
939.54	1
940.27	1
941.001	-1
941.731	0
942.461	0
943.191	0
943.922	2
944.652	-2
945.382	-1
946.112	0
946.841	1
947.571	0
948.301	2
949.031	0
949.76	1
950.49	0
951.219	-1
951.948	-1
952.678	-1
953.407	-3
954.136	1
954.865	2
955.594	-2
956.323	3
957.052	0
957.78	0
958.509	0
959.238	1
959.966	-1
960.695	0
961.423	2
962.151	-2
962.88	0
963.608	2
964.336	-1
965.064	1
965.792	-2
966.52	0
967.247	0
967.975	0
968.703	0
969.43	1
970.158	2
970.885	0
971.613	1
972.34	1
973.067	-1
973.794	0
974.521	-1
975.248	1
975.975	-2
976.702	1
977.429	-2
978.156	-2
978.882	0
979.609	0
980.335	0
981.062	-1
981.788	1
982.514	2
983.24	0
983.967	1
984.693	1
985.419	1
986.144	-1
986.87	1
987.596	2
988.322	1
989.047	0
989.773	1
990.498	2
991.224	0
991.949	1
992.674	1
993.399	-1
994.124	1
994.849	1
995.574	2
996.299	1
997.024	0
997.749	1
998.473	0
999.198	-1
999.922	0
1000.647	0
1001.371	3
1002.095	1
1002.82	-3
1003.544	1
1004.268	2
1004.992	-1
1005.716	1
1006.439	0
1007.163	0
1007.887	-2
1008.611	2
1009.334	-1
1010.058	1
1010.781	-1
1011.504	0
1012.228	0
1012.951	-2
1013.674	0
1014.397	2
1015.12	-2
