节点500_145_QEPB04081__176__11-31-45-560.txt的数据

Date: Wed Nov 12 11:31:45 CST 2025
User: PC
Spectrometer: QEPB0408
触发模式: 0
积分时间 (秒): 1.000000E-2
Scans to average: 1
启用暗噪声校正: true
启用非线性校正: false
滑动平均宽度: 0
X轴模式: Wavelengths
Number of Pixels in Spectrum: 1044
>>>>>Begin Spectral Data<<<<<
220.843	-0.62
221.644	1.38
222.444	-0.62
223.244	-0.62
224.045	1.38
224.845	-0.62
225.645	-0.62
226.445	1.38
227.245	2.38
228.045	-0.62
228.845	1.38
229.645	0.38
230.444	1.38
231.244	2.38
232.043	0.38
232.843	1.38
233.642	-0.62
234.442	2.38
235.241	-0.62
236.04	2.38
236.839	1.38
237.638	1.38
238.437	2.38
239.236	-0.62
240.035	0.38
240.833	-1.62
241.632	1.38
242.43	2.38
243.229	2.38
244.027	1.38
244.826	2.38
245.624	3.38
246.422	1.38
247.22	2.38
248.018	3.38
248.816	3.38
249.614	3.38
250.412	0.38
251.21	3.38
252.007	2.38
252.805	3.38
253.602	1.38
254.4	0.38
255.197	2.38
255.994	3.38
256.791	5.38
257.589	5.38
258.386	3.38
259.183	4.38
259.979	4.38
260.776	5.38
261.573	3.38
262.37	4.38
263.166	3.38
263.963	4.38
264.759	4.38
265.556	6.38
266.352	6.38
267.148	4.38
267.944	7.38
268.74	7.38
269.536	9.38
270.332	6.38
271.128	7.38
271.924	7.38
272.719	11.38
273.515	12.38
274.311	7.38
275.106	9.38
275.901	9.38
276.697	9.38
277.492	10.38
278.287	8.38
279.082	10.38
279.877	10.38
280.672	8.38
281.467	11.38
282.262	9.38
283.056	13.38
283.851	12.38
284.646	11.38
285.44	12.38
286.234	12.38
287.029	11.38
287.823	11.38
288.617	10.38
289.411	11.38
290.205	10.38
290.999	10.38
291.793	10.38
292.587	8.38
293.381	9.38
294.174	12.38
294.968	10.38
295.761	7.38
296.555	10.38
297.348	9.38
298.141	10.38
298.935	7.38
299.728	10.38
300.521	9.38
301.314	10.38
302.107	9.38
302.899	9.38
303.692	7.38
304.485	7.38
305.277	7.38
306.07	6.38
306.862	7.38
307.655	9.38
308.447	6.38
309.239	9.38
310.031	7.38
310.823	8.38
311.615	8.38
312.407	8.38
313.199	6.38
313.991	8.38
314.783	5.38
315.574	6.38
316.366	5.38
317.157	7.38
317.949	4.38
318.74	5.38
319.531	3.38
320.322	5.38
321.113	5.38
321.904	3.38
322.695	4.38
323.486	5.38
324.277	5.38
325.068	2.38
325.858	7.38
326.649	5.38
327.439	4.38
328.23	3.38
329.02	5.38
329.81	3.38
330.6	4.38
331.391	5.38
332.181	3.38
332.971	3.38
333.76	3.38
334.55	3.38
335.34	6.38
336.13	2.38
336.919	4.38
337.709	3.38
338.498	2.38
339.287	3.38
340.077	1.38
340.866	7.38
341.655	2.38
342.444	3.38
343.233	5.38
344.022	5.38
344.811	2.38
345.6	2.38
346.388	3.38
347.177	4.38
347.965	4.38
348.754	3.38
349.542	2.38
350.33	1.38
351.119	3.38
351.907	2.38
352.695	2.38
353.483	5.38
354.271	1.38
355.059	1.38
355.846	2.38
356.634	2.38
357.422	2.38
358.209	1.38
358.997	1.38
359.784	5.38
360.571	4.38
361.359	3.38
362.146	2.38
362.933	3.38
363.72	2.38
364.507	2.38
365.294	2.38
366.081	2.38
366.867	3.38
367.654	1.38
368.44	4.38
369.227	0.38
370.013	3.38
370.8	2.38
371.586	2.38
372.372	4.38
373.158	5.38
373.944	3.38
374.73	3.38
375.516	4.38
376.302	2.38
377.088	2.38
377.873	3.38
378.659	2.38
379.445	3.38
380.23	4.38
381.015	5.38
381.801	3.38
382.586	2.38
383.371	2.38
384.156	1.38
384.941	4.38
385.726	1.38
386.511	3.38
387.296	4.38
388.08	3.38
388.865	2.38
389.649	2.38
390.434	3.38
391.218	2.38
392.003	3.38
392.787	5.38
393.571	1.38
394.355	4.38
395.139	0.38
395.923	2.38
396.707	5.38
397.491	3.38
398.274	5.38
399.058	4.38
399.842	5.38
400.625	4.38
401.408	4.38
402.192	2.38
402.975	3.38
403.758	4.38
404.541	3.38
405.324	3.38
406.107	5.38
406.89	5.38
407.673	4.38
408.456	4.38
409.238	6.38
410.021	5.38
410.803	5.38
411.586	3.38
412.368	6.38
413.151	6.38
413.933	4.38
414.715	5.38
415.497	2.38
416.279	6.38
417.061	4.38
417.843	5.38
418.624	5.38
419.406	7.38
420.188	5.38
420.969	5.38
421.751	5.38
422.532	6.38
423.313	5.38
424.095	7.38
424.876	6.38
425.657	8.38
426.438	6.38
427.219	8.38
428	5.38
428.78	5.38
429.561	9.38
430.342	5.38
431.122	10.38
431.903	6.38
432.683	6.38
433.464	7.38
434.244	7.38
435.024	10.38
435.804	7.38
436.584	14.38
437.364	9.38
438.144	11.38
438.924	10.38
439.704	11.38
440.483	13.38
441.263	12.38
442.042	11.38
442.822	16.38
443.601	13.38
444.38	14.38
445.16	16.38
445.939	17.38
446.718	17.38
447.497	17.38
448.276	19.38
449.054	20.38
449.833	22.38
450.612	25.38
451.391	28.38
452.169	27.38
452.948	31.38
453.726	34.38
454.504	37.38
455.282	38.38
456.061	43.38
456.839	50.38
457.617	51.38
458.395	53.38
459.172	64.38
459.95	71.38
460.728	76.38
461.506	83.38
462.283	98.38
463.061	108.38
463.838	124.38
464.615	134.38
465.393	147.38
466.17	167.38
466.947	182.38
467.724	205.38
468.501	224.38
469.278	251.38
470.055	286.38
470.831	310.38
471.608	357.38
472.385	390.38
473.161	443.38
473.938	488.38
474.714	546.38
475.49	604.38
476.266	681.38
477.043	758.38
477.819	823.38
478.595	919.38
479.371	1029.38
480.146	1137.38
480.922	1268.38
481.698	1394.38
482.473	1566.38
483.249	1717.38
484.024	1899.38
484.8	2105.38
485.575	2314.38
486.35	2578.38
487.126	2863.38
487.901	3150.38
488.676	3472.38
489.451	3805.38
490.225	4222.38
491	4647.38
491.775	5117.38
492.55	5634.38
493.324	6178.38
494.099	6779.38
494.873	7426.38
495.647	8083.38
496.422	8786.38
497.196	9516.38
497.97	10275.38
498.744	11055.38
499.518	11861.38
500.292	12668.38
501.066	13397.38
501.839	14114.38
502.613	14836.38
503.387	15413.38
504.16	16008.38
504.934	16398.38
505.707	16730.38
506.48	16971.38
507.253	17079.38
508.027	17114.38
508.8	16947.38
509.573	16697.38
510.346	16420.38
511.118	15982.38
511.891	15498.38
512.664	14976.38
513.437	14349.38
514.209	13824.38
514.982	13252.38
515.754	12737.38
516.526	12138.38
517.298	11600.38
518.071	11046.38
518.843	10564.38
519.615	10118.38
520.387	9710.38
521.159	9310.38
521.93	8932.38
522.702	8572.38
523.474	8230.38
524.245	7952.38
525.017	7585.38
525.788	7291.38
526.56	7015.38
527.331	6714.38
528.102	6419.38
528.873	6108.38
529.644	5837.38
530.415	5569.38
531.186	5267.38
531.957	5005.38
532.728	4751.38
533.498	4483.38
534.269	4248.38
535.039	4020.38
535.81	3762.38
536.58	3578.38
537.351	3353.38
538.121	3200.38
538.891	2983.38
539.661	2838.38
540.431	2646.38
541.201	2549.38
541.971	2407.38
542.741	2283.38
543.51	2178.38
544.28	2042.38
545.05	1953.38
545.819	1866.38
546.588	1763.38
547.358	1688.38
548.127	1592.38
548.896	1513.38
549.665	1436.38
550.434	1371.38
551.203	1274.38
551.972	1222.38
552.741	1168.38
553.51	1100.38
554.278	1038.38
555.047	981.38
555.815	919.38
556.584	865.38
557.352	817.38
558.121	768.38
558.889	727.38
559.657	680.38
560.425	648.38
561.193	609.38
561.961	573.38
562.729	545.38
563.496	515.38
564.264	476.38
565.032	456.38
565.799	432.38
566.567	401.38
567.334	379.38
568.101	358.38
568.869	347.38
569.636	321.38
570.403	303.38
571.17	283.38
571.937	271.38
572.704	253.38
573.471	241.38
574.237	228.38
575.004	217.38
575.771	203.38
576.537	188.38
577.303	182.38
578.07	173.38
578.836	158.38
579.602	145.38
580.368	140.38
581.134	130.38
581.9	126.38
582.666	122.38
583.432	115.38
584.198	107.38
584.964	99.38
585.729	96.38
586.495	91.38
587.26	81.38
588.025	82.38
588.791	76.38
589.556	70.38
590.321	65.38
591.086	67.38
591.851	57.38
592.616	57.38
593.381	56.38
594.146	53.38
594.911	49.38
595.675	46.38
596.44	47.38
597.204	44.38
597.969	41.38
598.733	37.38
599.497	42.38
600.261	36.38
601.025	33.38
601.79	32.38
602.553	30.38
603.317	28.38
604.081	30.38
604.845	28.38
605.609	27.38
606.372	26.38
607.136	23.38
607.899	25.38
608.662	24.38
609.426	21.38
610.189	20.38
610.952	19.38
611.715	17.38
612.478	17.38
613.241	16.38
614.004	15.38
614.767	18.38
615.529	15.38
616.292	13.38
617.055	14.38
617.817	11.38
618.579	13.38
619.342	11.38
620.104	12.38
620.866	11.38
621.628	14.38
622.39	10.38
623.152	9.38
623.914	11.38
624.676	8.38
625.438	9.38
626.199	10.38
626.961	9.38
627.722	8.38
628.484	9.38
629.245	9.38
630.006	7.38
630.768	7.38
631.529	7.38
632.29	7.38
633.051	6.38
633.812	8.38
634.573	8.38
635.333	8.38
636.094	5.38
636.855	5.38
637.615	7.38
638.376	5.38
639.136	4.38
639.896	9.38
640.657	4.38
641.417	4.38
642.177	5.38
642.937	4.38
643.697	4.38
644.457	4.38
645.216	5.38
645.976	5.38
646.736	4.38
647.495	5.38
648.255	3.38
649.014	4.38
649.774	5.38
650.533	5.38
651.292	5.38
652.051	4.38
652.81	3.38
653.569	5.38
654.328	4.38
655.087	4.38
655.846	4.38
656.604	5.38
657.363	3.38
658.121	3.38
658.88	4.38
659.638	5.38
660.397	4.38
661.155	2.38
661.913	2.38
662.671	3.38
663.429	3.38
664.187	1.38
664.945	3.38
665.703	2.38
666.46	2.38
667.218	2.38
667.976	0.38
668.733	0.38
669.49	3.38
670.248	3.38
671.005	3.38
671.762	3.38
672.519	3.38
673.276	4.38
674.033	3.38
674.79	2.38
675.547	0.38
676.304	2.38
677.06	4.38
677.817	3.38
678.574	-0.62
679.33	5.38
680.086	0.38
680.843	1.38
681.599	0.38
682.355	2.38
683.111	2.38
683.867	1.38
684.623	2.38
685.379	1.38
686.135	3.38
686.89	1.38
687.646	3.38
688.402	1.38
689.157	0.38
689.912	3.38
690.668	2.38
691.423	2.38
692.178	2.38
692.933	3.38
693.688	1.38
694.443	1.38
695.198	-1.62
695.953	3.38
696.708	3.38
697.462	1.38
698.217	2.38
698.972	2.38
699.726	3.38
700.48	1.38
701.235	1.38
701.989	3.38
702.743	1.38
703.497	2.38
704.251	1.38
705.005	2.38
705.759	1.38
706.513	2.38
707.266	1.38
708.02	1.38
708.774	-0.62
709.527	1.38
710.28	1.38
711.034	2.38
711.787	4.38
712.54	3.38
713.293	1.38
714.046	2.38
714.799	2.38
715.552	1.38
716.305	1.38
717.058	1.38
717.81	1.38
718.563	3.38
719.315	1.38
720.068	3.38
720.82	2.38
721.573	3.38
722.325	0.38
723.077	0.38
723.829	1.38
724.581	2.38
725.333	1.38
726.085	3.38
726.836	2.38
727.588	0.38
728.34	2.38
729.091	3.38
729.843	2.38
730.594	2.38
731.346	2.38
732.097	2.38
732.848	1.38
733.599	2.38
734.35	1.38
735.101	1.38
735.852	4.38
736.603	3.38
737.354	1.38
738.104	-0.62
738.855	3.38
739.605	3.38
740.356	2.38
741.106	2.38
741.856	-1.62
742.607	1.38
743.357	-0.62
744.107	2.38
744.857	3.38
745.607	1.38
746.357	4.38
747.106	2.38
747.856	3.38
748.606	2.38
749.355	2.38
750.105	1.38
750.854	2.38
751.603	1.38
752.353	1.38
753.102	4.38
753.851	3.38
754.6	2.38
755.349	2.38
756.098	4.38
756.847	2.38
757.595	3.38
758.344	2.38
759.093	3.38
759.841	4.38
760.589	2.38
761.338	4.38
762.086	2.38
762.834	3.38
763.582	2.38
764.331	3.38
765.079	4.38
765.826	3.38
766.574	3.38
767.322	4.38
768.07	5.38
768.817	5.38
769.565	3.38
770.312	3.38
771.06	5.38
771.807	2.38
772.554	3.38
773.302	2.38
774.049	6.38
774.796	5.38
775.543	4.38
776.29	3.38
777.036	5.38
777.783	5.38
778.53	3.38
779.276	4.38
780.023	4.38
780.769	3.38
781.516	7.38
782.262	4.38
783.008	2.38
783.754	5.38
784.5	5.38
785.246	4.38
785.992	5.38
786.738	4.38
787.484	5.38
788.23	7.38
788.975	5.38
789.721	3.38
790.466	5.38
791.212	4.38
791.957	6.38
792.702	5.38
793.447	5.38
794.193	5.38
794.938	5.38
795.683	7.38
796.427	3.38
797.172	2.38
797.917	4.38
798.662	5.38
799.406	6.38
800.151	4.38
800.895	5.38
801.64	4.38
802.384	5.38
803.128	4.38
803.872	6.38
804.616	4.38
805.36	5.38
806.104	5.38
806.848	3.38
807.592	2.38
808.336	3.38
809.079	3.38
809.823	2.38
810.566	5.38
811.31	2.38
812.053	4.38
812.796	2.38
813.539	2.38
814.283	4.38
815.026	3.38
815.769	1.38
816.511	5.38
817.254	2.38
817.997	5.38
818.74	3.38
819.482	2.38
820.225	1.38
820.967	1.38
821.71	3.38
822.452	4.38
823.194	3.38
823.936	2.38
824.678	5.38
825.42	2.38
826.162	4.38
826.904	4.38
827.646	1.38
828.388	4.38
829.129	2.38
829.871	1.38
830.612	2.38
831.354	1.38
832.095	2.38
832.836	1.38
833.577	4.38
834.319	2.38
835.06	2.38
835.801	5.38
836.542	1.38
837.282	1.38
838.023	2.38
838.764	2.38
839.504	1.38
840.245	0.38
840.985	3.38
841.726	-0.62
842.466	2.38
843.206	1.38
843.946	2.38
844.687	1.38
845.427	4.38
846.166	2.38
846.906	1.38
847.646	4.38
848.386	2.38
849.125	0.38
849.865	2.38
850.605	3.38
851.344	1.38
852.083	0.38
852.823	2.38
853.562	2.38
854.301	1.38
855.04	2.38
855.779	3.38
856.518	1.38
857.257	0.38
857.995	-0.62
858.734	-0.62
859.473	1.38
860.211	1.38
860.95	-0.62
861.688	0.38
862.426	2.38
863.165	1.38
863.903	1.38
864.641	3.38
865.379	1.38
866.117	3.38
866.855	1.38
867.593	0.38
868.33	1.38
869.068	1.38
869.806	1.38
870.543	1.38
871.28	0.38
872.018	2.38
872.755	0.38
873.492	3.38
874.229	3.38
874.967	1.38
875.703	1.38
876.44	1.38
877.177	0.38
877.914	0.38
878.651	1.38
879.387	0.38
880.124	1.38
880.86	0.38
881.597	-1.62
882.333	2.38
883.069	1.38
883.806	2.38
884.542	1.38
885.278	1.38
886.014	0.38
886.749	1.38
887.485	1.38
888.221	1.38
888.957	2.38
889.692	-2.62
890.428	-0.62
891.163	1.38
891.899	1.38
892.634	1.38
893.369	0.38
894.104	1.38
894.839	1.38
895.574	0.38
896.309	1.38
897.044	0.38
897.779	1.38
898.514	0.38
899.248	1.38
899.983	1.38
900.717	1.38
901.452	1.38
902.186	0.38
902.92	1.38
903.654	-1.62
904.389	1.38
905.123	-0.62
905.857	0.38
906.59	2.38
907.324	-2.62
908.058	2.38
908.792	-1.62
909.525	0.38
910.259	1.38
910.992	-0.62
911.726	2.38
912.459	-1.62
913.192	0.38
913.925	1.38
914.658	1.38
915.391	1.38
916.124	1.38
916.857	0.38
917.59	-1.62
918.323	-0.62
919.055	0.38
919.788	0.38
920.521	0.38
921.253	0.38
921.985	2.38
922.718	0.38
923.45	-0.62
924.182	0.38
924.914	0.38
925.646	-1.62
926.378	0.38
927.11	-0.62
927.841	0.38
928.573	0.38
929.305	-1.62
930.036	1.38
930.768	1.38
931.499	-1.62
932.23	1.38
932.962	-0.62
933.693	1.38
934.424	1.38
935.155	2.38
935.886	4.38
936.617	1.38
937.348	1.38
938.078	0.38
938.809	-1.62
939.54	-1.62
940.27	0.38
941.001	2.38
941.731	0.38
942.461	2.38
943.191	0.38
943.922	0.38
944.652	0.38
945.382	4.38
946.112	2.38
946.841	-0.62
947.571	1.38
948.301	0.38
949.031	1.38
949.76	-0.62
950.49	-0.62
951.219	0.38
951.948	-1.62
952.678	0.38
953.407	1.38
954.136	-0.62
954.865	0.38
955.594	1.38
956.323	1.38
957.052	-0.62
957.78	0.38
958.509	1.38
959.238	0.38
959.966	0.38
960.695	1.38
961.423	0.38
962.151	0.38
962.88	0.38
963.608	-1.62
964.336	0.38
965.064	1.38
965.792	1.38
966.52	1.38
967.247	0.38
967.975	2.38
968.703	0.38
969.43	-0.62
970.158	-1.62
970.885	-0.62
971.613	4.38
972.34	1.38
973.067	0.38
973.794	1.38
974.521	1.38
975.248	0.38
975.975	-1.62
976.702	0.38
977.429	-0.62
978.156	1.38
978.882	1.38
979.609	0.38
980.335	-1.62
981.062	-0.62
981.788	0.38
982.514	0.38
983.24	-1.62
983.967	0.38
984.693	1.38
985.419	0.38
986.144	-0.62
986.87	0.38
987.596	-0.62
988.322	-0.62
989.047	2.38
989.773	-2.62
990.498	0.38
991.224	-0.62
991.949	-0.62
992.674	1.38
993.399	0.38
994.124	-1.62
994.849	-0.62
995.574	0.38
996.299	0.38
997.024	1.38
997.749	0.38
998.473	2.38
999.198	-0.62
999.922	0.38
1000.647	-0.62
1001.371	4.38
1002.095	-0.62
1002.82	-0.62
1003.544	-2.62
1004.268	0.38
1004.992	-1.62
1005.716	-0.62
1006.439	-1.62
1007.163	1.38
1007.887	-0.62
1008.611	-0.62
1009.334	1.38
1010.058	0.38
1010.781	-0.62
1011.504	1.38
1012.228	0.38
1012.951	2.38
1013.674	-1.62
1014.397	0.38
1015.12	-1.62
