节点500_145_QEPB04081__673__11-39-38-917.txt的数据

Date: Wed Nov 12 11:39:38 CST 2025
User: PC
Spectrometer: QEPB0408
触发模式: 0
积分时间 (秒): 1.000000E-2
Scans to average: 1
启用暗噪声校正: true
启用非线性校正: false
滑动平均宽度: 0
X轴模式: Wavelengths
Number of Pixels in Spectrum: 1044
>>>>>Begin Spectral Data<<<<<
220.843	0.25
221.644	1.25
222.444	-2.75
223.244	-0.75
224.045	-1.75
224.845	1.25
225.645	-1.75
226.445	1.25
227.245	0.25
228.045	-0.75
228.845	2.25
229.645	1.25
230.444	-2.75
231.244	1.25
232.043	1.25
232.843	-0.75
233.642	-0.75
234.442	1.25
235.241	1.25
236.04	3.25
236.839	0.25
237.638	2.25
238.437	1.25
239.236	1.25
240.035	-1.75
240.833	-1.75
241.632	1.25
242.43	2.25
243.229	1.25
244.027	3.25
244.826	1.25
245.624	2.25
246.422	1.25
247.22	2.25
248.018	0.25
248.816	2.25
249.614	3.25
250.412	0.25
251.21	2.25
252.007	2.25
252.805	3.25
253.602	3.25
254.4	2.25
255.197	1.25
255.994	2.25
256.791	3.25
257.589	2.25
258.386	3.25
259.183	2.25
259.979	2.25
260.776	3.25
261.573	4.25
262.37	4.25
263.166	5.25
263.963	5.25
264.759	5.25
265.556	5.25
266.352	6.25
267.148	3.25
267.944	7.25
268.74	3.25
269.536	4.25
270.332	6.25
271.128	8.25
271.924	6.25
272.719	5.25
273.515	8.25
274.311	5.25
275.106	8.25
275.901	8.25
276.697	9.25
277.492	7.25
278.287	8.25
279.082	8.25
279.877	7.25
280.672	9.25
281.467	9.25
282.262	6.25
283.056	10.25
283.851	11.25
284.646	11.25
285.44	8.25
286.234	10.25
287.029	8.25
287.823	8.25
288.617	10.25
289.411	7.25
290.205	10.25
290.999	9.25
291.793	10.25
292.587	9.25
293.381	10.25
294.174	8.25
294.968	8.25
295.761	9.25
296.555	9.25
297.348	8.25
298.141	8.25
298.935	8.25
299.728	9.25
300.521	8.25
301.314	10.25
302.107	8.25
302.899	8.25
303.692	7.25
304.485	7.25
305.277	7.25
306.07	8.25
306.862	9.25
307.655	8.25
308.447	7.25
309.239	7.25
310.031	8.25
310.823	9.25
311.615	8.25
312.407	7.25
313.199	6.25
313.991	7.25
314.783	7.25
315.574	4.25
316.366	7.25
317.157	4.25
317.949	6.25
318.74	4.25
319.531	5.25
320.322	5.25
321.113	3.25
321.904	5.25
322.695	6.25
323.486	5.25
324.277	3.25
325.068	1.25
325.858	5.25
326.649	3.25
327.439	3.25
328.23	3.25
329.02	3.25
329.81	3.25
330.6	3.25
331.391	2.25
332.181	2.25
332.971	6.25
333.76	4.25
334.55	5.25
335.34	3.25
336.13	3.25
336.919	4.25
337.709	6.25
338.498	7.25
339.287	2.25
340.077	5.25
340.866	4.25
341.655	2.25
342.444	2.25
343.233	3.25
344.022	2.25
344.811	1.25
345.6	4.25
346.388	4.25
347.177	3.25
347.965	4.25
348.754	2.25
349.542	3.25
350.33	2.25
351.119	2.25
351.907	2.25
352.695	1.25
353.483	2.25
354.271	4.25
355.059	3.25
355.846	3.25
356.634	1.25
357.422	1.25
358.209	1.25
358.997	3.25
359.784	1.25
360.571	5.25
361.359	4.25
362.146	2.25
362.933	4.25
363.72	1.25
364.507	2.25
365.294	2.25
366.081	2.25
366.867	1.25
367.654	2.25
368.44	2.25
369.227	4.25
370.013	1.25
370.8	3.25
371.586	1.25
372.372	2.25
373.158	4.25
373.944	1.25
374.73	3.25
375.516	2.25
376.302	0.25
377.088	5.25
377.873	1.25
378.659	4.25
379.445	0.25
380.23	2.25
381.015	2.25
381.801	3.25
382.586	3.25
383.371	0.25
384.156	2.25
384.941	2.25
385.726	3.25
386.511	3.25
387.296	3.25
388.08	3.25
388.865	2.25
389.649	0.25
390.434	2.25
391.218	1.25
392.003	2.25
392.787	2.25
393.571	3.25
394.355	2.25
395.139	2.25
395.923	3.25
396.707	2.25
397.491	5.25
398.274	3.25
399.058	4.25
399.842	1.25
400.625	1.25
401.408	3.25
402.192	2.25
402.975	4.25
403.758	3.25
404.541	4.25
405.324	3.25
406.107	3.25
406.89	3.25
407.673	2.25
408.456	2.25
409.238	3.25
410.021	4.25
410.803	4.25
411.586	4.25
412.368	4.25
413.151	3.25
413.933	4.25
414.715	5.25
415.497	3.25
416.279	2.25
417.061	5.25
417.843	5.25
418.624	2.25
419.406	5.25
420.188	3.25
420.969	6.25
421.751	7.25
422.532	5.25
423.313	5.25
424.095	5.25
424.876	4.25
425.657	8.25
426.438	7.25
427.219	8.25
428	5.25
428.78	8.25
429.561	7.25
430.342	6.25
431.122	7.25
431.903	9.25
432.683	8.25
433.464	7.25
434.244	8.25
435.024	7.25
435.804	9.25
436.584	10.25
437.364	9.25
438.144	12.25
438.924	11.25
439.704	10.25
440.483	11.25
441.263	12.25
442.042	12.25
442.822	12.25
443.601	15.25
444.38	14.25
445.16	15.25
445.939	19.25
446.718	19.25
447.497	17.25
448.276	20.25
449.054	24.25
449.833	24.25
450.612	26.25
451.391	31.25
452.169	33.25
452.948	38.25
453.726	39.25
454.504	39.25
455.282	44.25
456.061	50.25
456.839	50.25
457.617	57.25
458.395	68.25
459.172	77.25
459.95	86.25
460.728	94.25
461.506	104.25
462.283	118.25
463.061	130.25
463.838	141.25
464.615	161.25
465.393	173.25
466.17	193.25
466.947	216.25
467.724	243.25
468.501	269.25
469.278	296.25
470.055	328.25
470.831	363.25
471.608	404.25
472.385	447.25
473.161	497.25
473.938	543.25
474.714	597.25
475.49	659.25
476.266	714.25
477.043	806.25
477.819	875.25
478.595	975.25
479.371	1046.25
480.146	1154.25
480.922	1268.25
481.698	1376.25
482.473	1522.25
483.249	1655.25
484.024	1822.25
484.8	1998.25
485.575	2168.25
486.35	2384.25
487.126	2587.25
487.901	2845.25
488.676	3095.25
489.451	3379.25
490.225	3674.25
491	4022.25
491.775	4392.25
492.55	4790.25
493.324	5176.25
494.099	5651.25
494.873	6104.25
495.647	6649.25
496.422	7154.25
497.196	7744.25
497.97	8338.25
498.744	8973.25
499.518	9582.25
500.292	10210.25
501.066	10821.25
501.839	11456.25
502.613	12094.25
503.387	12671.25
504.16	13195.25
504.934	13668.25
505.707	14101.25
506.48	14429.25
507.253	14687.25
508.027	14849.25
508.8	15005.25
509.573	15011.25
510.346	14976.25
511.118	14814.25
511.891	14530.25
512.664	14237.25
513.437	13904.25
514.209	13513.25
514.982	13123.25
515.754	12644.25
516.526	12164.25
517.298	11637.25
518.071	11178.25
518.843	10687.25
519.615	10299.25
520.387	9862.25
521.159	9437.25
521.93	9082.25
522.702	8709.25
523.474	8392.25
524.245	8069.25
525.017	7743.25
525.788	7417.25
526.56	7116.25
527.331	6821.25
528.102	6552.25
528.873	6278.25
529.644	6023.25
530.415	5780.25
531.186	5497.25
531.957	5271.25
532.728	5029.25
533.498	4758.25
534.269	4535.25
535.039	4295.25
535.81	4057.25
536.58	3828.25
537.351	3629.25
538.121	3436.25
538.891	3239.25
539.661	3083.25
540.431	2912.25
541.201	2764.25
541.971	2603.25
542.741	2489.25
543.51	2341.25
544.28	2219.25
545.05	2100.25
545.819	2003.25
546.588	1903.25
547.358	1822.25
548.127	1720.25
548.896	1645.25
549.665	1552.25
550.434	1476.25
551.203	1411.25
551.972	1334.25
552.741	1270.25
553.51	1210.25
554.278	1128.25
555.047	1064.25
555.815	1031.25
556.584	953.25
557.352	916.25
558.121	862.25
558.889	798.25
559.657	765.25
560.425	723.25
561.193	679.25
561.961	635.25
562.729	609.25
563.496	568.25
564.264	550.25
565.032	511.25
565.799	483.25
566.567	450.25
567.334	435.25
568.101	409.25
568.869	381.25
569.636	357.25
570.403	343.25
571.17	322.25
571.937	305.25
572.704	291.25
573.471	269.25
574.237	256.25
575.004	239.25
575.771	221.25
576.537	206.25
577.303	202.25
578.07	183.25
578.836	178.25
579.602	164.25
580.368	161.25
581.134	147.25
581.9	141.25
582.666	135.25
583.432	131.25
584.198	115.25
584.964	112.25
585.729	106.25
586.495	102.25
587.26	97.25
588.025	90.25
588.791	87.25
589.556	82.25
590.321	78.25
591.086	70.25
591.851	66.25
592.616	67.25
593.381	62.25
594.146	58.25
594.911	52.25
595.675	53.25
596.44	52.25
597.204	48.25
597.969	43.25
598.733	42.25
599.497	42.25
600.261	38.25
601.025	38.25
601.79	33.25
602.553	33.25
603.317	36.25
604.081	32.25
604.845	29.25
605.609	26.25
606.372	28.25
607.136	25.25
607.899	25.25
608.662	25.25
609.426	21.25
610.189	23.25
610.952	23.25
611.715	17.25
612.478	20.25
613.241	20.25
614.004	19.25
614.767	18.25
615.529	19.25
616.292	14.25
617.055	13.25
617.817	15.25
618.579	11.25
619.342	13.25
620.104	14.25
620.866	13.25
621.628	8.25
622.39	11.25
623.152	9.25
623.914	11.25
624.676	11.25
625.438	8.25
626.199	9.25
626.961	10.25
627.722	8.25
628.484	8.25
629.245	9.25
630.006	6.25
630.768	9.25
631.529	6.25
632.29	8.25
633.051	9.25
633.812	7.25
634.573	6.25
635.333	5.25
636.094	6.25
636.855	7.25
637.615	6.25
638.376	6.25
639.136	4.25
639.896	5.25
640.657	4.25
641.417	4.25
642.177	4.25
642.937	4.25
643.697	6.25
644.457	3.25
645.216	2.25
645.976	5.25
646.736	4.25
647.495	6.25
648.255	5.25
649.014	3.25
649.774	3.25
650.533	4.25
651.292	5.25
652.051	2.25
652.81	6.25
653.569	5.25
654.328	3.25
655.087	3.25
655.846	2.25
656.604	3.25
657.363	4.25
658.121	3.25
658.88	2.25
659.638	5.25
660.397	4.25
661.155	3.25
661.913	4.25
662.671	2.25
663.429	3.25
664.187	1.25
664.945	3.25
665.703	3.25
666.46	2.25
667.218	3.25
667.976	1.25
668.733	2.25
669.49	2.25
670.248	2.25
671.005	3.25
671.762	3.25
672.519	2.25
673.276	1.25
674.033	4.25
674.79	2.25
675.547	1.25
676.304	1.25
677.06	0.25
677.817	1.25
678.574	1.25
679.33	4.25
680.086	1.25
680.843	2.25
681.599	2.25
682.355	3.25
683.111	3.25
683.867	1.25
684.623	3.25
685.379	2.25
686.135	3.25
686.89	1.25
687.646	0.25
688.402	0.25
689.157	-0.75
689.912	2.25
690.668	2.25
691.423	1.25
692.178	4.25
692.933	0.25
693.688	1.25
694.443	2.25
695.198	3.25
695.953	-0.75
696.708	2.25
697.462	2.25
698.217	3.25
698.972	1.25
699.726	1.25
700.48	2.25
701.235	1.25
701.989	2.25
702.743	1.25
703.497	3.25
704.251	0.25
705.005	0.25
705.759	2.25
706.513	1.25
707.266	1.25
708.02	2.25
708.774	1.25
709.527	1.25
710.28	3.25
711.034	3.25
711.787	2.25
712.54	3.25
713.293	0.25
714.046	2.25
714.799	3.25
715.552	0.25
716.305	1.25
717.058	2.25
717.81	4.25
718.563	2.25
719.315	2.25
720.068	2.25
720.82	1.25
721.573	2.25
722.325	1.25
723.077	0.25
723.829	0.25
724.581	-1.75
725.333	3.25
726.085	3.25
726.836	2.25
727.588	1.25
728.34	2.25
729.091	2.25
729.843	0.25
730.594	0.25
731.346	1.25
732.097	1.25
732.848	2.25
733.599	1.25
734.35	2.25
735.101	0.25
735.852	1.25
736.603	-0.75
737.354	1.25
738.104	2.25
738.855	1.25
739.605	3.25
740.356	0.25
741.106	3.25
741.856	3.25
742.607	3.25
743.357	1.25
744.107	3.25
744.857	1.25
745.607	2.25
746.357	3.25
747.106	2.25
747.856	2.25
748.606	0.25
749.355	2.25
750.105	3.25
750.854	0.25
751.603	1.25
752.353	2.25
753.102	4.25
753.851	1.25
754.6	0.25
755.349	3.25
756.098	3.25
756.847	2.25
757.595	5.25
758.344	2.25
759.093	3.25
759.841	2.25
760.589	3.25
761.338	3.25
762.086	3.25
762.834	1.25
763.582	3.25
764.331	3.25
765.079	1.25
765.826	3.25
766.574	3.25
767.322	3.25
768.07	2.25
768.817	4.25
769.565	4.25
770.312	3.25
771.06	2.25
771.807	1.25
772.554	4.25
773.302	3.25
774.049	2.25
774.796	4.25
775.543	4.25
776.29	3.25
777.036	2.25
777.783	3.25
778.53	5.25
779.276	2.25
780.023	3.25
780.769	5.25
781.516	3.25
782.262	5.25
783.008	3.25
783.754	3.25
784.5	5.25
785.246	2.25
785.992	5.25
786.738	3.25
787.484	4.25
788.23	6.25
788.975	7.25
789.721	3.25
790.466	4.25
791.212	4.25
791.957	4.25
792.702	2.25
793.447	4.25
794.193	3.25
794.938	4.25
795.683	7.25
796.427	3.25
797.172	4.25
797.917	2.25
798.662	4.25
799.406	3.25
800.151	4.25
800.895	5.25
801.64	4.25
802.384	6.25
803.128	3.25
803.872	3.25
804.616	5.25
805.36	3.25
806.104	2.25
806.848	4.25
807.592	5.25
808.336	3.25
809.079	3.25
809.823	2.25
810.566	2.25
811.31	3.25
812.053	5.25
812.796	4.25
813.539	2.25
814.283	4.25
815.026	3.25
815.769	5.25
816.511	2.25
817.254	2.25
817.997	3.25
818.74	2.25
819.482	3.25
820.225	3.25
820.967	1.25
821.71	2.25
822.452	2.25
823.194	3.25
823.936	2.25
824.678	3.25
825.42	4.25
826.162	1.25
826.904	2.25
827.646	3.25
828.388	4.25
829.129	2.25
829.871	1.25
830.612	2.25
831.354	3.25
832.095	3.25
832.836	3.25
833.577	0.25
834.319	2.25
835.06	1.25
835.801	1.25
836.542	1.25
837.282	1.25
838.023	1.25
838.764	5.25
839.504	1.25
840.245	1.25
840.985	2.25
841.726	0.25
842.466	2.25
843.206	2.25
843.946	2.25
844.687	2.25
845.427	2.25
846.166	3.25
846.906	3.25
847.646	3.25
848.386	3.25
849.125	4.25
849.865	4.25
850.605	3.25
851.344	1.25
852.083	0.25
852.823	2.25
853.562	1.25
854.301	1.25
855.04	1.25
855.779	3.25
856.518	1.25
857.257	2.25
857.995	1.25
858.734	2.25
859.473	1.25
860.211	1.25
860.95	1.25
861.688	1.25
862.426	1.25
863.165	3.25
863.903	1.25
864.641	2.25
865.379	0.25
866.117	1.25
866.855	0.25
867.593	0.25
868.33	3.25
869.068	0.25
869.806	0.25
870.543	1.25
871.28	2.25
872.018	0.25
872.755	0.25
873.492	2.25
874.229	-0.75
874.967	2.25
875.703	2.25
876.44	-0.75
877.177	0.25
877.914	0.25
878.651	2.25
879.387	0.25
880.124	0.25
880.86	1.25
881.597	-2.75
882.333	1.25
883.069	1.25
883.806	3.25
884.542	0.25
885.278	0.25
886.014	1.25
886.749	2.25
887.485	0.25
888.221	0.25
888.957	-1.75
889.692	-1.75
890.428	1.25
891.163	2.25
891.899	-0.75
892.634	0.25
893.369	0.25
894.104	2.25
894.839	0.25
895.574	-1.75
896.309	1.25
897.044	0.25
897.779	0.25
898.514	1.25
899.248	0.25
899.983	0.25
900.717	0.25
901.452	0.25
902.186	-0.75
902.92	2.25
903.654	0.25
904.389	-0.75
905.123	1.25
905.857	-0.75
906.59	1.25
907.324	-0.75
908.058	1.25
908.792	0.25
909.525	-0.75
910.259	1.25
910.992	-1.75
911.726	0.25
912.459	-0.75
913.192	-0.75
913.925	-0.75
914.658	1.25
915.391	0.25
916.124	1.25
916.857	0.25
917.59	-1.75
918.323	0.25
919.055	0.25
919.788	1.25
920.521	0.25
921.253	-0.75
921.985	0.25
922.718	-1.75
923.45	-0.75
924.182	-0.75
924.914	0.25
925.646	1.25
926.378	0.25
927.11	1.25
927.841	-0.75
928.573	1.25
929.305	1.25
930.036	0.25
930.768	1.25
931.499	0.25
932.23	-1.75
932.962	0.25
933.693	1.25
934.424	0.25
935.155	1.25
935.886	1.25
936.617	-3.75
937.348	-0.75
938.078	0.25
938.809	-1.75
939.54	0.25
940.27	0.25
941.001	-1.75
941.731	-0.75
942.461	1.25
943.191	-1.75
943.922	0.25
944.652	2.25
945.382	-0.75
946.112	1.25
946.841	-2.75
947.571	-0.75
948.301	-1.75
949.031	2.25
949.76	-0.75
950.49	1.25
951.219	0.25
951.948	-1.75
952.678	2.25
953.407	0.25
954.136	0.25
954.865	-1.75
955.594	3.25
956.323	1.25
957.052	-1.75
957.78	1.25
958.509	-1.75
959.238	2.25
959.966	-1.75
960.695	-2.75
961.423	1.25
962.151	0.25
962.88	1.25
963.608	1.25
964.336	-0.75
965.064	0.25
965.792	1.25
966.52	0.25
967.247	1.25
967.975	0.25
968.703	1.25
969.43	0.25
970.158	1.25
970.885	-0.75
971.613	2.25
972.34	-1.75
973.067	0.25
973.794	-1.75
974.521	-1.75
975.248	-0.75
975.975	0.25
976.702	0.25
977.429	1.25
978.156	0.25
978.882	-0.75
979.609	-0.75
980.335	-1.75
981.062	-1.75
981.788	-1.75
982.514	-0.75
983.24	-0.75
983.967	-1.75
984.693	1.25
985.419	-0.75
986.144	0.25
986.87	0.25
987.596	-0.75
988.322	0.25
989.047	0.25
989.773	-0.75
990.498	1.25
991.224	3.25
991.949	0.25
992.674	-1.75
993.399	0.25
994.124	0.25
994.849	1.25
995.574	-0.75
996.299	1.25
997.024	0.25
997.749	0.25
998.473	1.25
999.198	0.25
999.922	0.25
1000.647	1.25
1001.371	1.25
1002.095	-0.75
1002.82	-0.75
1003.544	0.25
1004.268	1.25
1004.992	-1.75
1005.716	0.25
1006.439	-0.75
1007.163	-1.75
1007.887	1.25
1008.611	1.25
1009.334	-0.75
1010.058	-0.75
1010.781	2.25
1011.504	0.25
1012.228	3.25
1012.951	2.25
1013.674	-0.75
1014.397	0.25
1015.12	-1.75
