节点500_145_QEPB04081__242__11-32-51-458.txt的数据

Date: Wed Nov 12 11:32:51 CST 2025
User: PC
Spectrometer: QEPB0408
触发模式: 0
积分时间 (秒): 1.000000E-2
Scans to average: 1
启用暗噪声校正: true
启用非线性校正: false
滑动平均宽度: 0
X轴模式: Wavelengths
Number of Pixels in Spectrum: 1044
>>>>>Begin Spectral Data<<<<<
220.843	0.12
221.644	0.12
222.444	0.12
223.244	0.12
224.045	2.12
224.845	-2.88
225.645	1.12
226.445	0.12
227.245	-1.88
228.045	1.12
228.845	-0.88
229.645	0.12
230.444	-0.88
231.244	2.12
232.043	0.12
232.843	0.12
233.642	1.12
234.442	2.12
235.241	1.12
236.04	-0.88
236.839	2.12
237.638	3.12
238.437	0.12
239.236	2.12
240.035	-0.88
240.833	0.12
241.632	5.12
242.43	2.12
243.229	1.12
244.027	1.12
244.826	3.12
245.624	1.12
246.422	2.12
247.22	1.12
248.018	1.12
248.816	1.12
249.614	2.12
250.412	1.12
251.21	1.12
252.007	3.12
252.805	5.12
253.602	4.12
254.4	2.12
255.197	2.12
255.994	4.12
256.791	1.12
257.589	3.12
258.386	3.12
259.183	3.12
259.979	6.12
260.776	4.12
261.573	3.12
262.37	5.12
263.166	3.12
263.963	4.12
264.759	5.12
265.556	7.12
266.352	8.12
267.148	7.12
267.944	5.12
268.74	6.12
269.536	9.12
270.332	7.12
271.128	9.12
271.924	6.12
272.719	9.12
273.515	9.12
274.311	9.12
275.106	9.12
275.901	9.12
276.697	10.12
277.492	10.12
278.287	9.12
279.082	10.12
279.877	10.12
280.672	9.12
281.467	10.12
282.262	12.12
283.056	12.12
283.851	10.12
284.646	12.12
285.44	9.12
286.234	13.12
287.029	10.12
287.823	11.12
288.617	10.12
289.411	12.12
290.205	9.12
290.999	11.12
291.793	10.12
292.587	10.12
293.381	10.12
294.174	11.12
294.968	9.12
295.761	10.12
296.555	7.12
297.348	10.12
298.141	12.12
298.935	10.12
299.728	10.12
300.521	8.12
301.314	11.12
302.107	6.12
302.899	7.12
303.692	9.12
304.485	10.12
305.277	5.12
306.07	8.12
306.862	7.12
307.655	7.12
308.447	8.12
309.239	7.12
310.031	8.12
310.823	7.12
311.615	9.12
312.407	5.12
313.199	8.12
313.991	9.12
314.783	6.12
315.574	7.12
316.366	6.12
317.157	4.12
317.949	7.12
318.74	7.12
319.531	5.12
320.322	3.12
321.113	6.12
321.904	3.12
322.695	5.12
323.486	5.12
324.277	3.12
325.068	5.12
325.858	4.12
326.649	5.12
327.439	4.12
328.23	5.12
329.02	4.12
329.81	5.12
330.6	4.12
331.391	4.12
332.181	4.12
332.971	4.12
333.76	1.12
334.55	3.12
335.34	4.12
336.13	3.12
336.919	3.12
337.709	4.12
338.498	5.12
339.287	4.12
340.077	6.12
340.866	4.12
341.655	5.12
342.444	5.12
343.233	3.12
344.022	4.12
344.811	4.12
345.6	5.12
346.388	1.12
347.177	3.12
347.965	4.12
348.754	3.12
349.542	4.12
350.33	3.12
351.119	3.12
351.907	3.12
352.695	2.12
353.483	2.12
354.271	4.12
355.059	2.12
355.846	1.12
356.634	2.12
357.422	2.12
358.209	3.12
358.997	2.12
359.784	2.12
360.571	5.12
361.359	3.12
362.146	5.12
362.933	2.12
363.72	2.12
364.507	4.12
365.294	2.12
366.081	3.12
366.867	3.12
367.654	2.12
368.44	1.12
369.227	1.12
370.013	2.12
370.8	1.12
371.586	2.12
372.372	1.12
373.158	2.12
373.944	1.12
374.73	3.12
375.516	2.12
376.302	2.12
377.088	2.12
377.873	3.12
378.659	1.12
379.445	2.12
380.23	5.12
381.015	1.12
381.801	3.12
382.586	4.12
383.371	5.12
384.156	3.12
384.941	2.12
385.726	3.12
386.511	5.12
387.296	3.12
388.08	2.12
388.865	4.12
389.649	4.12
390.434	3.12
391.218	5.12
392.003	6.12
392.787	4.12
393.571	4.12
394.355	5.12
395.139	3.12
395.923	4.12
396.707	4.12
397.491	4.12
398.274	4.12
399.058	4.12
399.842	1.12
400.625	5.12
401.408	2.12
402.192	5.12
402.975	4.12
403.758	5.12
404.541	6.12
405.324	2.12
406.107	5.12
406.89	2.12
407.673	6.12
408.456	5.12
409.238	4.12
410.021	4.12
410.803	3.12
411.586	6.12
412.368	5.12
413.151	3.12
413.933	5.12
414.715	5.12
415.497	5.12
416.279	2.12
417.061	4.12
417.843	4.12
418.624	2.12
419.406	4.12
420.188	4.12
420.969	6.12
421.751	4.12
422.532	5.12
423.313	5.12
424.095	7.12
424.876	4.12
425.657	9.12
426.438	9.12
427.219	7.12
428	7.12
428.78	7.12
429.561	7.12
430.342	6.12
431.122	9.12
431.903	9.12
432.683	8.12
433.464	9.12
434.244	6.12
435.024	10.12
435.804	9.12
436.584	8.12
437.364	10.12
438.144	11.12
438.924	11.12
439.704	14.12
440.483	10.12
441.263	11.12
442.042	11.12
442.822	15.12
443.601	16.12
444.38	14.12
445.16	15.12
445.939	14.12
446.718	18.12
447.497	20.12
448.276	19.12
449.054	23.12
449.833	23.12
450.612	24.12
451.391	26.12
452.169	30.12
452.948	30.12
453.726	35.12
454.504	35.12
455.282	41.12
456.061	44.12
456.839	50.12
457.617	55.12
458.395	59.12
459.172	70.12
459.95	71.12
460.728	78.12
461.506	87.12
462.283	100.12
463.061	110.12
463.838	123.12
464.615	136.12
465.393	154.12
466.17	167.12
466.947	189.12
467.724	208.12
468.501	230.12
469.278	265.12
470.055	290.12
470.831	331.12
471.608	368.12
472.385	411.12
473.161	448.12
473.938	501.12
474.714	554.12
475.49	617.12
476.266	683.12
477.043	764.12
477.819	854.12
478.595	919.12
479.371	1032.12
480.146	1154.12
480.922	1270.12
481.698	1406.12
482.473	1549.12
483.249	1713.12
484.024	1870.12
484.8	2087.12
485.575	2286.12
486.35	2515.12
487.126	2805.12
487.901	3066.12
488.676	3394.12
489.451	3747.12
490.225	4120.12
491	4513.12
491.775	4970.12
492.55	5479.12
493.324	5993.12
494.099	6565.12
494.873	7182.12
495.647	7797.12
496.422	8517.12
497.196	9210.12
497.97	9920.12
498.744	10725.12
499.518	11442.12
500.292	12187.12
501.066	12915.12
501.839	13629.12
502.613	14316.12
503.387	14922.12
504.16	15430.12
504.934	15930.12
505.707	16238.12
506.48	16534.12
507.253	16663.12
508.027	16685.12
508.8	16602.12
509.573	16481.12
510.346	16140.12
511.118	15783.12
511.891	15373.12
512.664	14873.12
513.437	14341.12
514.209	13766.12
514.982	13255.12
515.754	12676.12
516.526	12137.12
517.298	11566.12
518.071	11053.12
518.843	10583.12
519.615	10114.12
520.387	9682.12
521.159	9306.12
521.93	8930.12
522.702	8593.12
523.474	8213.12
524.245	7945.12
525.017	7602.12
525.788	7299.12
526.56	7009.12
527.331	6696.12
528.102	6422.12
528.873	6116.12
529.644	5857.12
530.415	5614.12
531.186	5334.12
531.957	5030.12
532.728	4752.12
533.498	4508.12
534.269	4263.12
535.039	4013.12
535.81	3784.12
536.58	3611.12
537.351	3410.12
538.121	3208.12
538.891	3036.12
539.661	2839.12
540.431	2707.12
541.201	2577.12
541.971	2446.12
542.741	2290.12
543.51	2195.12
544.28	2066.12
545.05	1983.12
545.819	1870.12
546.588	1788.12
547.358	1694.12
548.127	1598.12
548.896	1529.12
549.665	1442.12
550.434	1389.12
551.203	1301.12
551.972	1251.12
552.741	1178.12
553.51	1107.12
554.278	1050.12
555.047	988.12
555.815	946.12
556.584	867.12
557.352	832.12
558.121	785.12
558.889	742.12
559.657	695.12
560.425	651.12
561.193	619.12
561.961	585.12
562.729	543.12
563.496	513.12
564.264	486.12
565.032	461.12
565.799	445.12
566.567	418.12
567.334	383.12
568.101	367.12
568.869	341.12
569.636	328.12
570.403	310.12
571.17	288.12
571.937	273.12
572.704	257.12
573.471	242.12
574.237	225.12
575.004	209.12
575.771	205.12
576.537	191.12
577.303	180.12
578.07	168.12
578.836	160.12
579.602	147.12
580.368	145.12
581.134	136.12
581.9	127.12
582.666	118.12
583.432	117.12
584.198	111.12
584.964	101.12
585.729	92.12
586.495	93.12
587.26	83.12
588.025	83.12
588.791	78.12
589.556	72.12
590.321	69.12
591.086	63.12
591.851	61.12
592.616	56.12
593.381	56.12
594.146	57.12
594.911	51.12
595.675	48.12
596.44	46.12
597.204	45.12
597.969	39.12
598.733	41.12
599.497	40.12
600.261	33.12
601.025	35.12
601.79	30.12
602.553	32.12
603.317	31.12
604.081	29.12
604.845	25.12
605.609	25.12
606.372	26.12
607.136	26.12
607.899	24.12
608.662	23.12
609.426	21.12
610.189	20.12
610.952	18.12
611.715	19.12
612.478	16.12
613.241	18.12
614.004	18.12
614.767	17.12
615.529	17.12
616.292	14.12
617.055	16.12
617.817	12.12
618.579	13.12
619.342	13.12
620.104	14.12
620.866	10.12
621.628	13.12
622.39	11.12
623.152	10.12
623.914	10.12
624.676	7.12
625.438	10.12
626.199	10.12
626.961	11.12
627.722	11.12
628.484	9.12
629.245	9.12
630.006	10.12
630.768	6.12
631.529	10.12
632.29	6.12
633.051	8.12
633.812	5.12
634.573	8.12
635.333	7.12
636.094	6.12
636.855	8.12
637.615	5.12
638.376	6.12
639.136	7.12
639.896	5.12
640.657	7.12
641.417	6.12
642.177	5.12
642.937	3.12
643.697	6.12
644.457	8.12
645.216	7.12
645.976	5.12
646.736	5.12
647.495	4.12
648.255	2.12
649.014	4.12
649.774	6.12
650.533	5.12
651.292	2.12
652.051	3.12
652.81	2.12
653.569	2.12
654.328	6.12
655.087	2.12
655.846	5.12
656.604	4.12
657.363	4.12
658.121	5.12
658.88	2.12
659.638	2.12
660.397	3.12
661.155	3.12
661.913	2.12
662.671	3.12
663.429	6.12
664.187	3.12
664.945	3.12
665.703	2.12
666.46	4.12
667.218	2.12
667.976	3.12
668.733	1.12
669.49	2.12
670.248	3.12
671.005	1.12
671.762	1.12
672.519	2.12
673.276	3.12
674.033	2.12
674.79	1.12
675.547	3.12
676.304	2.12
677.06	1.12
677.817	2.12
678.574	2.12
679.33	1.12
680.086	0.12
680.843	3.12
681.599	2.12
682.355	3.12
683.111	2.12
683.867	3.12
684.623	5.12
685.379	3.12
686.135	1.12
686.89	3.12
687.646	2.12
688.402	3.12
689.157	3.12
689.912	2.12
690.668	1.12
691.423	2.12
692.178	2.12
692.933	1.12
693.688	1.12
694.443	2.12
695.198	3.12
695.953	2.12
696.708	1.12
697.462	-0.88
698.217	4.12
698.972	1.12
699.726	2.12
700.48	1.12
701.235	-0.88
701.989	0.12
702.743	1.12
703.497	0.12
704.251	1.12
705.005	1.12
705.759	4.12
706.513	1.12
707.266	1.12
708.02	2.12
708.774	0.12
709.527	-0.88
710.28	1.12
711.034	2.12
711.787	-1.88
712.54	3.12
713.293	0.12
714.046	2.12
714.799	2.12
715.552	1.12
716.305	1.12
717.058	3.12
717.81	3.12
718.563	2.12
719.315	3.12
720.068	1.12
720.82	2.12
721.573	2.12
722.325	2.12
723.077	2.12
723.829	3.12
724.581	1.12
725.333	2.12
726.085	1.12
726.836	1.12
727.588	-0.88
728.34	2.12
729.091	2.12
729.843	-0.88
730.594	3.12
731.346	1.12
732.097	2.12
732.848	1.12
733.599	4.12
734.35	1.12
735.101	1.12
735.852	4.12
736.603	2.12
737.354	2.12
738.104	2.12
738.855	2.12
739.605	0.12
740.356	2.12
741.106	3.12
741.856	3.12
742.607	3.12
743.357	2.12
744.107	1.12
744.857	2.12
745.607	1.12
746.357	5.12
747.106	5.12
747.856	4.12
748.606	2.12
749.355	2.12
750.105	2.12
750.854	2.12
751.603	1.12
752.353	3.12
753.102	3.12
753.851	3.12
754.6	3.12
755.349	2.12
756.098	1.12
756.847	2.12
757.595	4.12
758.344	4.12
759.093	1.12
759.841	2.12
760.589	3.12
761.338	4.12
762.086	3.12
762.834	5.12
763.582	3.12
764.331	7.12
765.079	2.12
765.826	3.12
766.574	3.12
767.322	5.12
768.07	2.12
768.817	6.12
769.565	5.12
770.312	5.12
771.06	4.12
771.807	5.12
772.554	5.12
773.302	2.12
774.049	2.12
774.796	5.12
775.543	5.12
776.29	3.12
777.036	4.12
777.783	6.12
778.53	5.12
779.276	5.12
780.023	5.12
780.769	8.12
781.516	5.12
782.262	3.12
783.008	6.12
783.754	6.12
784.5	4.12
785.246	5.12
785.992	6.12
786.738	5.12
787.484	5.12
788.23	4.12
788.975	5.12
789.721	5.12
790.466	5.12
791.212	2.12
791.957	6.12
792.702	7.12
793.447	7.12
794.193	5.12
794.938	6.12
795.683	6.12
796.427	5.12
797.172	7.12
797.917	7.12
798.662	5.12
799.406	5.12
800.151	3.12
800.895	5.12
801.64	5.12
802.384	5.12
803.128	5.12
803.872	5.12
804.616	4.12
805.36	2.12
806.104	5.12
806.848	3.12
807.592	4.12
808.336	3.12
809.079	5.12
809.823	2.12
810.566	2.12
811.31	3.12
812.053	2.12
812.796	6.12
813.539	2.12
814.283	3.12
815.026	5.12
815.769	3.12
816.511	4.12
817.254	4.12
817.997	6.12
818.74	3.12
819.482	3.12
820.225	2.12
820.967	3.12
821.71	3.12
822.452	3.12
823.194	2.12
823.936	4.12
824.678	2.12
825.42	5.12
826.162	2.12
826.904	4.12
827.646	3.12
828.388	2.12
829.129	1.12
829.871	4.12
830.612	1.12
831.354	1.12
832.095	2.12
832.836	2.12
833.577	2.12
834.319	2.12
835.06	1.12
835.801	2.12
836.542	3.12
837.282	3.12
838.023	3.12
838.764	2.12
839.504	0.12
840.245	0.12
840.985	0.12
841.726	1.12
842.466	2.12
843.206	1.12
843.946	1.12
844.687	1.12
845.427	2.12
846.166	2.12
846.906	1.12
847.646	3.12
848.386	3.12
849.125	1.12
849.865	2.12
850.605	1.12
851.344	1.12
852.083	1.12
852.823	2.12
853.562	4.12
854.301	3.12
855.04	0.12
855.779	0.12
856.518	1.12
857.257	2.12
857.995	0.12
858.734	2.12
859.473	2.12
860.211	3.12
860.95	2.12
861.688	0.12
862.426	-0.88
863.165	0.12
863.903	2.12
864.641	2.12
865.379	1.12
866.117	1.12
866.855	2.12
867.593	0.12
868.33	1.12
869.068	3.12
869.806	1.12
870.543	1.12
871.28	0.12
872.018	2.12
872.755	1.12
873.492	2.12
874.229	-0.88
874.967	0.12
875.703	1.12
876.44	-1.88
877.177	4.12
877.914	-0.88
878.651	1.12
879.387	0.12
880.124	0.12
880.86	1.12
881.597	1.12
882.333	2.12
883.069	1.12
883.806	3.12
884.542	2.12
885.278	0.12
886.014	-1.88
886.749	1.12
887.485	1.12
888.221	1.12
888.957	0.12
889.692	1.12
890.428	2.12
891.163	1.12
891.899	-0.88
892.634	0.12
893.369	1.12
894.104	2.12
894.839	-0.88
895.574	1.12
896.309	0.12
897.044	0.12
897.779	1.12
898.514	-0.88
899.248	0.12
899.983	4.12
900.717	0.12
901.452	1.12
902.186	0.12
902.92	2.12
903.654	1.12
904.389	0.12
905.123	-1.88
905.857	1.12
906.59	1.12
907.324	2.12
908.058	-0.88
908.792	1.12
909.525	0.12
910.259	-1.88
910.992	-0.88
911.726	1.12
912.459	-0.88
913.192	2.12
913.925	0.12
914.658	0.12
915.391	1.12
916.124	-1.88
916.857	0.12
917.59	1.12
918.323	0.12
919.055	0.12
919.788	1.12
920.521	-0.88
921.253	2.12
921.985	0.12
922.718	0.12
923.45	2.12
924.182	0.12
924.914	-0.88
925.646	-0.88
926.378	-1.88
927.11	-1.88
927.841	0.12
928.573	1.12
929.305	1.12
930.036	0.12
930.768	0.12
931.499	0.12
932.23	2.12
932.962	-1.88
933.693	0.12
934.424	0.12
935.155	0.12
935.886	0.12
936.617	-0.88
937.348	1.12
938.078	0.12
938.809	0.12
939.54	1.12
940.27	-0.88
941.001	0.12
941.731	1.12
942.461	1.12
943.191	3.12
943.922	-0.88
944.652	3.12
945.382	0.12
946.112	1.12
946.841	-0.88
947.571	-0.88
948.301	1.12
949.031	2.12
949.76	0.12
950.49	-0.88
951.219	0.12
951.948	1.12
952.678	1.12
953.407	2.12
954.136	1.12
954.865	-1.88
955.594	-1.88
956.323	0.12
957.052	0.12
957.78	-0.88
958.509	1.12
959.238	1.12
959.966	1.12
960.695	1.12
961.423	0.12
962.151	1.12
962.88	1.12
963.608	1.12
964.336	0.12
965.064	2.12
965.792	-0.88
966.52	2.12
967.247	0.12
967.975	2.12
968.703	0.12
969.43	0.12
970.158	-0.88
970.885	0.12
971.613	1.12
972.34	0.12
973.067	1.12
973.794	0.12
974.521	-1.88
975.248	1.12
975.975	1.12
976.702	1.12
977.429	0.12
978.156	2.12
978.882	-1.88
979.609	0.12
980.335	-1.88
981.062	0.12
981.788	2.12
982.514	1.12
983.24	2.12
983.967	1.12
984.693	0.12
985.419	0.12
986.144	-0.88
986.87	0.12
987.596	-0.88
988.322	1.12
989.047	1.12
989.773	1.12
990.498	0.12
991.224	-1.88
991.949	1.12
992.674	0.12
993.399	1.12
994.124	1.12
994.849	-1.88
995.574	1.12
996.299	-1.88
997.024	0.12
997.749	-0.88
998.473	-2.88
999.198	2.12
999.922	1.12
1000.647	0.12
1001.371	3.12
1002.095	-1.88
1002.82	0.12
1003.544	-0.88
1004.268	-2.88
1004.992	0.12
1005.716	-1.88
1006.439	1.12
1007.163	0.12
1007.887	0.12
1008.611	-0.88
1009.334	1.12
1010.058	0.12
1010.781	1.12
1011.504	2.12
1012.228	-1.88
1012.951	0.12
1013.674	-0.88
1014.397	1.12
1015.12	-0.88
