节点500_145_QEPB04081__440__11-35-59-539.txt的数据

Date: Wed Nov 12 11:35:59 CST 2025
User: PC
Spectrometer: QEPB0408
触发模式: 0
积分时间 (秒): 1.000000E-2
Scans to average: 1
启用暗噪声校正: true
启用非线性校正: false
滑动平均宽度: 0
X轴模式: Wavelengths
Number of Pixels in Spectrum: 1044
>>>>>Begin Spectral Data<<<<<
220.843	0.62
221.644	-0.38
222.444	0.62
223.244	-0.38
224.045	1.62
224.845	0.62
225.645	1.62
226.445	-1.38
227.245	-0.38
228.045	0.62
228.845	1.62
229.645	-0.38
230.444	-0.38
231.244	-0.38
232.043	-0.38
232.843	2.62
233.642	0.62
234.442	-1.38
235.241	0.62
236.04	-0.38
236.839	0.62
237.638	-0.38
238.437	0.62
239.236	-0.38
240.035	-0.38
240.833	1.62
241.632	-0.38
242.43	3.62
243.229	1.62
244.027	0.62
244.826	0.62
245.624	1.62
246.422	0.62
247.22	1.62
248.018	4.62
248.816	1.62
249.614	3.62
250.412	3.62
251.21	2.62
252.007	0.62
252.805	1.62
253.602	3.62
254.4	1.62
255.197	4.62
255.994	3.62
256.791	0.62
257.589	2.62
258.386	1.62
259.183	6.62
259.979	6.62
260.776	4.62
261.573	6.62
262.37	4.62
263.166	4.62
263.963	5.62
264.759	4.62
265.556	6.62
266.352	6.62
267.148	3.62
267.944	6.62
268.74	7.62
269.536	7.62
270.332	7.62
271.128	7.62
271.924	7.62
272.719	8.62
273.515	7.62
274.311	7.62
275.106	8.62
275.901	8.62
276.697	9.62
277.492	5.62
278.287	9.62
279.082	8.62
279.877	8.62
280.672	9.62
281.467	11.62
282.262	9.62
283.056	10.62
283.851	9.62
284.646	10.62
285.44	10.62
286.234	11.62
287.029	11.62
287.823	9.62
288.617	7.62
289.411	13.62
290.205	8.62
290.999	11.62
291.793	7.62
292.587	10.62
293.381	11.62
294.174	9.62
294.968	8.62
295.761	10.62
296.555	11.62
297.348	8.62
298.141	9.62
298.935	10.62
299.728	10.62
300.521	10.62
301.314	6.62
302.107	9.62
302.899	7.62
303.692	9.62
304.485	7.62
305.277	8.62
306.07	9.62
306.862	5.62
307.655	6.62
308.447	8.62
309.239	7.62
310.031	9.62
310.823	5.62
311.615	7.62
312.407	5.62
313.199	7.62
313.991	7.62
314.783	5.62
315.574	5.62
316.366	8.62
317.157	4.62
317.949	6.62
318.74	8.62
319.531	6.62
320.322	4.62
321.113	7.62
321.904	4.62
322.695	6.62
323.486	4.62
324.277	3.62
325.068	2.62
325.858	7.62
326.649	4.62
327.439	3.62
328.23	4.62
329.02	2.62
329.81	5.62
330.6	5.62
331.391	3.62
332.181	4.62
332.971	3.62
333.76	4.62
334.55	3.62
335.34	5.62
336.13	3.62
336.919	2.62
337.709	3.62
338.498	0.62
339.287	2.62
340.077	3.62
340.866	3.62
341.655	3.62
342.444	4.62
343.233	4.62
344.022	3.62
344.811	5.62
345.6	3.62
346.388	4.62
347.177	2.62
347.965	3.62
348.754	2.62
349.542	5.62
350.33	1.62
351.119	4.62
351.907	6.62
352.695	3.62
353.483	2.62
354.271	1.62
355.059	4.62
355.846	2.62
356.634	4.62
357.422	0.62
358.209	2.62
358.997	3.62
359.784	3.62
360.571	2.62
361.359	4.62
362.146	4.62
362.933	3.62
363.72	2.62
364.507	3.62
365.294	5.62
366.081	3.62
366.867	3.62
367.654	3.62
368.44	1.62
369.227	2.62
370.013	0.62
370.8	3.62
371.586	2.62
372.372	1.62
373.158	3.62
373.944	2.62
374.73	0.62
375.516	4.62
376.302	3.62
377.088	2.62
377.873	2.62
378.659	2.62
379.445	3.62
380.23	2.62
381.015	0.62
381.801	3.62
382.586	-0.38
383.371	3.62
384.156	5.62
384.941	3.62
385.726	2.62
386.511	2.62
387.296	2.62
388.08	3.62
388.865	6.62
389.649	2.62
390.434	2.62
391.218	4.62
392.003	2.62
392.787	4.62
393.571	2.62
394.355	4.62
395.139	2.62
395.923	3.62
396.707	3.62
397.491	1.62
398.274	4.62
399.058	3.62
399.842	4.62
400.625	4.62
401.408	5.62
402.192	5.62
402.975	1.62
403.758	3.62
404.541	4.62
405.324	4.62
406.107	5.62
406.89	4.62
407.673	1.62
408.456	3.62
409.238	5.62
410.021	1.62
410.803	6.62
411.586	2.62
412.368	4.62
413.151	8.62
413.933	3.62
414.715	5.62
415.497	3.62
416.279	8.62
417.061	6.62
417.843	3.62
418.624	5.62
419.406	5.62
420.188	5.62
420.969	2.62
421.751	8.62
422.532	4.62
423.313	7.62
424.095	5.62
424.876	5.62
425.657	6.62
426.438	6.62
427.219	5.62
428	7.62
428.78	5.62
429.561	8.62
430.342	7.62
431.122	8.62
431.903	9.62
432.683	6.62
433.464	7.62
434.244	8.62
435.024	9.62
435.804	9.62
436.584	10.62
437.364	11.62
438.144	10.62
438.924	12.62
439.704	11.62
440.483	13.62
441.263	12.62
442.042	12.62
442.822	16.62
443.601	15.62
444.38	12.62
445.16	15.62
445.939	16.62
446.718	18.62
447.497	21.62
448.276	18.62
449.054	24.62
449.833	25.62
450.612	26.62
451.391	28.62
452.169	31.62
452.948	32.62
453.726	35.62
454.504	37.62
455.282	45.62
456.061	49.62
456.839	50.62
457.617	57.62
458.395	62.62
459.172	69.62
459.95	80.62
460.728	87.62
461.506	97.62
462.283	106.62
463.061	120.62
463.838	134.62
464.615	147.62
465.393	163.62
466.17	190.62
466.947	201.62
467.724	227.62
468.501	254.62
469.278	285.62
470.055	312.62
470.831	350.62
471.608	384.62
472.385	425.62
473.161	474.62
473.938	522.62
474.714	582.62
475.49	644.62
476.266	723.62
477.043	786.62
477.819	864.62
478.595	942.62
479.371	1053.62
480.146	1163.62
480.922	1280.62
481.698	1414.62
482.473	1557.62
483.249	1693.62
484.024	1881.62
484.8	2047.62
485.575	2266.62
486.35	2445.62
487.126	2726.62
487.901	2959.62
488.676	3264.62
489.451	3583.62
490.225	3936.62
491	4291.62
491.775	4708.62
492.55	5124.62
493.324	5594.62
494.099	6118.62
494.873	6670.62
495.647	7255.62
496.422	7885.62
497.196	8521.62
497.97	9165.62
498.744	9864.62
499.518	10604.62
500.292	11262.62
501.066	11976.62
501.839	12619.62
502.613	13244.62
503.387	13887.62
504.16	14382.62
504.934	14880.62
505.707	15286.62
506.48	15601.62
507.253	15814.62
508.027	15920.62
508.8	15967.62
509.573	15882.62
510.346	15734.62
511.118	15481.62
511.891	15136.62
512.664	14745.62
513.437	14321.62
514.209	13840.62
514.982	13290.62
515.754	12726.62
516.526	12257.62
517.298	11680.62
518.071	11234.62
518.843	10714.62
519.615	10283.62
520.387	9828.62
521.159	9476.62
521.93	9054.62
522.702	8730.62
523.474	8383.62
524.245	8034.62
525.017	7737.62
525.788	7399.62
526.56	7165.62
527.331	6850.62
528.102	6554.62
528.873	6249.62
529.644	6017.62
530.415	5744.62
531.186	5445.62
531.957	5172.62
532.728	4917.62
533.498	4667.62
534.269	4428.62
535.039	4193.62
535.81	3955.62
536.58	3763.62
537.351	3565.62
538.121	3353.62
538.891	3171.62
539.661	2995.62
540.431	2820.62
541.201	2670.62
541.971	2538.62
542.741	2401.62
543.51	2263.62
544.28	2165.62
545.05	2047.62
545.819	1931.62
546.588	1856.62
547.358	1750.62
548.127	1678.62
548.896	1588.62
549.665	1517.62
550.434	1434.62
551.203	1372.62
551.972	1292.62
552.741	1232.62
553.51	1169.62
554.278	1103.62
555.047	1036.62
555.815	985.62
556.584	927.62
557.352	880.62
558.121	828.62
558.889	775.62
559.657	724.62
560.425	693.62
561.193	653.62
561.961	621.62
562.729	581.62
563.496	544.62
564.264	521.62
565.032	493.62
565.799	457.62
566.567	441.62
567.334	409.62
568.101	383.62
568.869	370.62
569.636	351.62
570.403	325.62
571.17	300.62
571.937	290.62
572.704	279.62
573.471	259.62
574.237	248.62
575.004	232.62
575.771	214.62
576.537	204.62
577.303	189.62
578.07	176.62
578.836	170.62
579.602	162.62
580.368	153.62
581.134	147.62
581.9	134.62
582.666	132.62
583.432	117.62
584.198	117.62
584.964	108.62
585.729	102.62
586.495	96.62
587.26	90.62
588.025	87.62
588.791	83.62
589.556	82.62
590.321	71.62
591.086	67.62
591.851	62.62
592.616	58.62
593.381	60.62
594.146	54.62
594.911	54.62
595.675	49.62
596.44	47.62
597.204	44.62
597.969	44.62
598.733	43.62
599.497	38.62
600.261	38.62
601.025	36.62
601.79	34.62
602.553	32.62
603.317	33.62
604.081	28.62
604.845	28.62
605.609	27.62
606.372	24.62
607.136	26.62
607.899	23.62
608.662	24.62
609.426	26.62
610.189	20.62
610.952	20.62
611.715	21.62
612.478	19.62
613.241	17.62
614.004	19.62
614.767	17.62
615.529	16.62
616.292	15.62
617.055	13.62
617.817	13.62
618.579	13.62
619.342	15.62
620.104	11.62
620.866	10.62
621.628	9.62
622.39	11.62
623.152	11.62
623.914	9.62
624.676	10.62
625.438	11.62
626.199	10.62
626.961	6.62
627.722	6.62
628.484	7.62
629.245	8.62
630.006	9.62
630.768	8.62
631.529	8.62
632.29	4.62
633.051	8.62
633.812	7.62
634.573	9.62
635.333	7.62
636.094	9.62
636.855	7.62
637.615	5.62
638.376	4.62
639.136	6.62
639.896	7.62
640.657	5.62
641.417	4.62
642.177	5.62
642.937	5.62
643.697	4.62
644.457	6.62
645.216	5.62
645.976	6.62
646.736	7.62
647.495	3.62
648.255	3.62
649.014	4.62
649.774	4.62
650.533	3.62
651.292	1.62
652.051	6.62
652.81	2.62
653.569	5.62
654.328	4.62
655.087	5.62
655.846	3.62
656.604	4.62
657.363	2.62
658.121	3.62
658.88	1.62
659.638	1.62
660.397	7.62
661.155	2.62
661.913	3.62
662.671	3.62
663.429	3.62
664.187	3.62
664.945	3.62
665.703	3.62
666.46	4.62
667.218	4.62
667.976	4.62
668.733	4.62
669.49	4.62
670.248	2.62
671.005	3.62
671.762	1.62
672.519	3.62
673.276	0.62
674.033	1.62
674.79	4.62
675.547	3.62
676.304	3.62
677.06	3.62
677.817	2.62
678.574	1.62
679.33	0.62
680.086	0.62
680.843	1.62
681.599	3.62
682.355	1.62
683.111	3.62
683.867	5.62
684.623	2.62
685.379	3.62
686.135	-0.38
686.89	3.62
687.646	1.62
688.402	2.62
689.157	2.62
689.912	1.62
690.668	5.62
691.423	0.62
692.178	1.62
692.933	2.62
693.688	1.62
694.443	5.62
695.198	3.62
695.953	4.62
696.708	1.62
697.462	0.62
698.217	1.62
698.972	3.62
699.726	2.62
700.48	0.62
701.235	1.62
701.989	1.62
702.743	2.62
703.497	4.62
704.251	3.62
705.005	2.62
705.759	-0.38
706.513	2.62
707.266	-0.38
708.02	1.62
708.774	2.62
709.527	3.62
710.28	3.62
711.034	0.62
711.787	3.62
712.54	3.62
713.293	3.62
714.046	2.62
714.799	2.62
715.552	3.62
716.305	1.62
717.058	2.62
717.81	1.62
718.563	4.62
719.315	0.62
720.068	2.62
720.82	3.62
721.573	1.62
722.325	0.62
723.077	1.62
723.829	3.62
724.581	1.62
725.333	0.62
726.085	2.62
726.836	1.62
727.588	-0.38
728.34	3.62
729.091	3.62
729.843	3.62
730.594	2.62
731.346	0.62
732.097	1.62
732.848	0.62
733.599	2.62
734.35	2.62
735.101	0.62
735.852	1.62
736.603	2.62
737.354	1.62
738.104	4.62
738.855	2.62
739.605	2.62
740.356	2.62
741.106	2.62
741.856	5.62
742.607	2.62
743.357	2.62
744.107	-1.38
744.857	2.62
745.607	2.62
746.357	2.62
747.106	1.62
747.856	-0.38
748.606	3.62
749.355	2.62
750.105	2.62
750.854	3.62
751.603	2.62
752.353	3.62
753.102	4.62
753.851	1.62
754.6	2.62
755.349	4.62
756.098	3.62
756.847	3.62
757.595	4.62
758.344	2.62
759.093	4.62
759.841	1.62
760.589	3.62
761.338	3.62
762.086	1.62
762.834	2.62
763.582	4.62
764.331	3.62
765.079	2.62
765.826	3.62
766.574	2.62
767.322	3.62
768.07	2.62
768.817	5.62
769.565	2.62
770.312	4.62
771.06	3.62
771.807	4.62
772.554	4.62
773.302	3.62
774.049	5.62
774.796	5.62
775.543	5.62
776.29	4.62
777.036	3.62
777.783	6.62
778.53	3.62
779.276	4.62
780.023	4.62
780.769	6.62
781.516	5.62
782.262	4.62
783.008	4.62
783.754	5.62
784.5	4.62
785.246	5.62
785.992	6.62
786.738	5.62
787.484	5.62
788.23	4.62
788.975	7.62
789.721	2.62
790.466	5.62
791.212	3.62
791.957	5.62
792.702	5.62
793.447	5.62
794.193	6.62
794.938	4.62
795.683	7.62
796.427	6.62
797.172	5.62
797.917	3.62
798.662	4.62
799.406	4.62
800.151	5.62
800.895	4.62
801.64	4.62
802.384	7.62
803.128	3.62
803.872	3.62
804.616	2.62
805.36	3.62
806.104	2.62
806.848	5.62
807.592	3.62
808.336	1.62
809.079	4.62
809.823	3.62
810.566	2.62
811.31	2.62
812.053	4.62
812.796	3.62
813.539	4.62
814.283	1.62
815.026	4.62
815.769	4.62
816.511	3.62
817.254	4.62
817.997	0.62
818.74	2.62
819.482	4.62
820.225	3.62
820.967	1.62
821.71	0.62
822.452	2.62
823.194	2.62
823.936	5.62
824.678	1.62
825.42	3.62
826.162	2.62
826.904	4.62
827.646	2.62
828.388	3.62
829.129	4.62
829.871	1.62
830.612	3.62
831.354	4.62
832.095	3.62
832.836	2.62
833.577	1.62
834.319	3.62
835.06	2.62
835.801	3.62
836.542	3.62
837.282	-1.38
838.023	2.62
838.764	2.62
839.504	3.62
840.245	1.62
840.985	1.62
841.726	2.62
842.466	2.62
843.206	3.62
843.946	1.62
844.687	3.62
845.427	2.62
846.166	3.62
846.906	2.62
847.646	3.62
848.386	0.62
849.125	2.62
849.865	1.62
850.605	0.62
851.344	2.62
852.083	3.62
852.823	0.62
853.562	5.62
854.301	2.62
855.04	-1.38
855.779	3.62
856.518	0.62
857.257	0.62
857.995	-0.38
858.734	2.62
859.473	1.62
860.211	1.62
860.95	1.62
861.688	2.62
862.426	1.62
863.165	0.62
863.903	1.62
864.641	0.62
865.379	2.62
866.117	0.62
866.855	0.62
867.593	-1.38
868.33	0.62
869.068	1.62
869.806	1.62
870.543	0.62
871.28	0.62
872.018	-0.38
872.755	2.62
873.492	0.62
874.229	3.62
874.967	0.62
875.703	1.62
876.44	-0.38
877.177	0.62
877.914	2.62
878.651	0.62
879.387	2.62
880.124	2.62
880.86	-1.38
881.597	3.62
882.333	1.62
883.069	2.62
883.806	-0.38
884.542	3.62
885.278	1.62
886.014	1.62
886.749	-1.38
887.485	1.62
888.221	-0.38
888.957	1.62
889.692	3.62
890.428	0.62
891.163	-0.38
891.899	-0.38
892.634	0.62
893.369	1.62
894.104	-1.38
894.839	0.62
895.574	0.62
896.309	-0.38
897.044	1.62
897.779	-0.38
898.514	1.62
899.248	0.62
899.983	2.62
900.717	1.62
901.452	-0.38
902.186	0.62
902.92	0.62
903.654	0.62
904.389	0.62
905.123	-0.38
905.857	0.62
906.59	0.62
907.324	-0.38
908.058	0.62
908.792	-0.38
909.525	2.62
910.259	0.62
910.992	0.62
911.726	0.62
912.459	1.62
913.192	0.62
913.925	-0.38
914.658	1.62
915.391	2.62
916.124	-0.38
916.857	-1.38
917.59	2.62
918.323	-0.38
919.055	2.62
919.788	1.62
920.521	1.62
921.253	-1.38
921.985	-0.38
922.718	2.62
923.45	0.62
924.182	0.62
924.914	0.62
925.646	1.62
926.378	-0.38
927.11	-1.38
927.841	-0.38
928.573	2.62
929.305	0.62
930.036	0.62
930.768	-0.38
931.499	-0.38
932.23	-0.38
932.962	0.62
933.693	-0.38
934.424	0.62
935.155	0.62
935.886	0.62
936.617	1.62
937.348	0.62
938.078	-0.38
938.809	1.62
939.54	1.62
940.27	2.62
941.001	-1.38
941.731	1.62
942.461	0.62
943.191	-0.38
943.922	-0.38
944.652	-1.38
945.382	2.62
946.112	1.62
946.841	0.62
947.571	0.62
948.301	0.62
949.031	-1.38
949.76	-0.38
950.49	0.62
951.219	-1.38
951.948	1.62
952.678	-0.38
953.407	0.62
954.136	1.62
954.865	-0.38
955.594	-0.38
956.323	-0.38
957.052	1.62
957.78	-0.38
958.509	-0.38
959.238	1.62
959.966	0.62
960.695	-1.38
961.423	1.62
962.151	2.62
962.88	0.62
963.608	0.62
964.336	0.62
965.064	0.62
965.792	-1.38
966.52	-1.38
967.247	1.62
967.975	1.62
968.703	0.62
969.43	-1.38
970.158	0.62
970.885	0.62
971.613	-0.38
972.34	2.62
973.067	0.62
973.794	1.62
974.521	-0.38
975.248	1.62
975.975	-0.38
976.702	-1.38
977.429	0.62
978.156	-1.38
978.882	1.62
979.609	0.62
980.335	0.62
981.062	-0.38
981.788	-1.38
982.514	-0.38
983.24	-2.38
983.967	0.62
984.693	0.62
985.419	-0.38
986.144	2.62
986.87	1.62
987.596	2.62
988.322	0.62
989.047	1.62
989.773	-1.38
990.498	3.62
991.224	1.62
991.949	-1.38
992.674	1.62
993.399	-1.38
994.124	0.62
994.849	0.62
995.574	1.62
996.299	0.62
997.024	2.62
997.749	1.62
998.473	-2.38
999.198	1.62
999.922	-0.38
1000.647	-0.38
1001.371	4.62
1002.095	-2.38
1002.82	-2.38
1003.544	-1.38
1004.268	1.62
1004.992	-1.38
1005.716	-0.38
1006.439	0.62
1007.163	-0.38
1007.887	0.62
1008.611	0.62
1009.334	-1.38
1010.058	0.62
1010.781	0.62
1011.504	2.62
1012.228	-0.38
1012.951	1.62
1013.674	0.62
1014.397	-1.38
1015.12	0.62
