节点500_145_QEPB04081__92__11-30-26-603.txt的数据

Date: Wed Nov 12 11:30:26 CST 2025
User: PC
Spectrometer: QEPB0408
触发模式: 0
积分时间 (秒): 1.000000E-2
Scans to average: 1
启用暗噪声校正: true
启用非线性校正: false
滑动平均宽度: 0
X轴模式: Wavelengths
Number of Pixels in Spectrum: 1044
>>>>>Begin Spectral Data<<<<<
220.843	-1.62
221.644	0.38
222.444	-1.62
223.244	-0.62
224.045	-3.62
224.845	-0.62
225.645	2.38
226.445	-2.62
227.245	1.38
228.045	0.38
228.845	-1.62
229.645	1.38
230.444	0.38
231.244	1.38
232.043	0.38
232.843	1.38
233.642	1.38
234.442	-0.62
235.241	0.38
236.04	-0.62
236.839	-0.62
237.638	0.38
238.437	0.38
239.236	-0.62
240.035	-0.62
240.833	-1.62
241.632	-0.62
242.43	1.38
243.229	1.38
244.027	0.38
244.826	1.38
245.624	0.38
246.422	5.38
247.22	1.38
248.018	1.38
248.816	1.38
249.614	1.38
250.412	3.38
251.21	1.38
252.007	1.38
252.805	2.38
253.602	0.38
254.4	1.38
255.197	3.38
255.994	2.38
256.791	0.38
257.589	2.38
258.386	1.38
259.183	1.38
259.979	2.38
260.776	4.38
261.573	5.38
262.37	6.38
263.166	6.38
263.963	5.38
264.759	5.38
265.556	6.38
266.352	5.38
267.148	4.38
267.944	4.38
268.74	6.38
269.536	6.38
270.332	6.38
271.128	5.38
271.924	8.38
272.719	11.38
273.515	4.38
274.311	8.38
275.106	9.38
275.901	8.38
276.697	10.38
277.492	9.38
278.287	8.38
279.082	10.38
279.877	9.38
280.672	10.38
281.467	10.38
282.262	9.38
283.056	8.38
283.851	9.38
284.646	10.38
285.44	11.38
286.234	10.38
287.029	10.38
287.823	13.38
288.617	11.38
289.411	12.38
290.205	9.38
290.999	10.38
291.793	11.38
292.587	11.38
293.381	9.38
294.174	9.38
294.968	10.38
295.761	9.38
296.555	9.38
297.348	9.38
298.141	9.38
298.935	11.38
299.728	6.38
300.521	8.38
301.314	8.38
302.107	10.38
302.899	8.38
303.692	7.38
304.485	5.38
305.277	7.38
306.07	8.38
306.862	9.38
307.655	7.38
308.447	7.38
309.239	6.38
310.031	6.38
310.823	7.38
311.615	6.38
312.407	6.38
313.199	7.38
313.991	4.38
314.783	5.38
315.574	7.38
316.366	4.38
317.157	4.38
317.949	4.38
318.74	5.38
319.531	4.38
320.322	2.38
321.113	3.38
321.904	4.38
322.695	2.38
323.486	4.38
324.277	3.38
325.068	2.38
325.858	3.38
326.649	1.38
327.439	4.38
328.23	3.38
329.02	2.38
329.81	3.38
330.6	5.38
331.391	2.38
332.181	3.38
332.971	2.38
333.76	2.38
334.55	1.38
335.34	3.38
336.13	4.38
336.919	4.38
337.709	2.38
338.498	2.38
339.287	0.38
340.077	4.38
340.866	2.38
341.655	1.38
342.444	2.38
343.233	2.38
344.022	3.38
344.811	2.38
345.6	3.38
346.388	2.38
347.177	2.38
347.965	1.38
348.754	2.38
349.542	1.38
350.33	3.38
351.119	4.38
351.907	3.38
352.695	1.38
353.483	3.38
354.271	3.38
355.059	5.38
355.846	1.38
356.634	1.38
357.422	3.38
358.209	3.38
358.997	3.38
359.784	1.38
360.571	3.38
361.359	2.38
362.146	2.38
362.933	0.38
363.72	3.38
364.507	-0.62
365.294	1.38
366.081	2.38
366.867	-1.62
367.654	4.38
368.44	1.38
369.227	2.38
370.013	1.38
370.8	2.38
371.586	2.38
372.372	0.38
373.158	1.38
373.944	1.38
374.73	1.38
375.516	1.38
376.302	3.38
377.088	3.38
377.873	0.38
378.659	4.38
379.445	0.38
380.23	3.38
381.015	3.38
381.801	0.38
382.586	3.38
383.371	2.38
384.156	3.38
384.941	2.38
385.726	1.38
386.511	3.38
387.296	0.38
388.08	2.38
388.865	1.38
389.649	3.38
390.434	2.38
391.218	1.38
392.003	2.38
392.787	3.38
393.571	3.38
394.355	1.38
395.139	2.38
395.923	4.38
396.707	2.38
397.491	3.38
398.274	3.38
399.058	0.38
399.842	1.38
400.625	3.38
401.408	3.38
402.192	3.38
402.975	2.38
403.758	2.38
404.541	4.38
405.324	3.38
406.107	4.38
406.89	1.38
407.673	1.38
408.456	1.38
409.238	3.38
410.021	2.38
410.803	2.38
411.586	2.38
412.368	3.38
413.151	3.38
413.933	7.38
414.715	4.38
415.497	4.38
416.279	2.38
417.061	2.38
417.843	4.38
418.624	3.38
419.406	7.38
420.188	6.38
420.969	4.38
421.751	3.38
422.532	3.38
423.313	4.38
424.095	4.38
424.876	7.38
425.657	4.38
426.438	4.38
427.219	7.38
428	5.38
428.78	4.38
429.561	6.38
430.342	5.38
431.122	6.38
431.903	7.38
432.683	6.38
433.464	7.38
434.244	8.38
435.024	8.38
435.804	8.38
436.584	9.38
437.364	9.38
438.144	8.38
438.924	11.38
439.704	10.38
440.483	11.38
441.263	12.38
442.042	13.38
442.822	12.38
443.601	12.38
444.38	14.38
445.16	13.38
445.939	15.38
446.718	16.38
447.497	17.38
448.276	20.38
449.054	21.38
449.833	21.38
450.612	22.38
451.391	23.38
452.169	27.38
452.948	27.38
453.726	33.38
454.504	31.38
455.282	36.38
456.061	43.38
456.839	45.38
457.617	52.38
458.395	53.38
459.172	58.38
459.95	67.38
460.728	75.38
461.506	82.38
462.283	92.38
463.061	105.38
463.838	114.38
464.615	129.38
465.393	144.38
466.17	163.38
466.947	181.38
467.724	208.38
468.501	224.38
469.278	249.38
470.055	277.38
470.831	313.38
471.608	352.38
472.385	391.38
473.161	426.38
473.938	482.38
474.714	530.38
475.49	596.38
476.266	672.38
477.043	736.38
477.819	827.38
478.595	912.38
479.371	1016.38
480.146	1131.38
480.922	1269.38
481.698	1393.38
482.473	1552.38
483.249	1704.38
484.024	1889.38
484.8	2104.38
485.575	2320.38
486.35	2600.38
487.126	2876.38
487.901	3195.38
488.676	3509.38
489.451	3892.38
490.225	4297.38
491	4763.38
491.775	5221.38
492.55	5773.38
493.324	6390.38
494.099	6958.38
494.873	7633.38
495.647	8327.38
496.422	9080.38
497.196	9836.38
497.97	10668.38
498.744	11447.38
499.518	12294.38
500.292	13031.38
501.066	13810.38
501.839	14582.38
502.613	15313.38
503.387	15851.38
504.16	16407.38
504.934	16841.38
505.707	17143.38
506.48	17317.38
507.253	17409.38
508.027	17377.38
508.8	17225.38
509.573	16961.38
510.346	16597.38
511.118	16136.38
511.891	15577.38
512.664	15006.38
513.437	14475.38
514.209	13906.38
514.982	13282.38
515.754	12681.38
516.526	12062.38
517.298	11539.38
518.071	11020.38
518.843	10541.38
519.615	10020.38
520.387	9664.38
521.159	9251.38
521.93	8896.38
522.702	8513.38
523.474	8228.38
524.245	7885.38
525.017	7587.38
525.788	7286.38
526.56	6976.38
527.331	6687.38
528.102	6385.38
528.873	6087.38
529.644	5779.38
530.415	5512.38
531.186	5228.38
531.957	4971.38
532.728	4720.38
533.498	4419.38
534.269	4194.38
535.039	3954.38
535.81	3730.38
536.58	3512.38
537.351	3318.38
538.121	3133.38
538.891	2950.38
539.661	2794.38
540.431	2632.38
541.201	2501.38
541.971	2380.38
542.741	2258.38
543.51	2133.38
544.28	2019.38
545.05	1917.38
545.819	1839.38
546.588	1745.38
547.358	1650.38
548.127	1555.38
548.896	1484.38
549.665	1418.38
550.434	1348.38
551.203	1285.38
551.972	1203.38
552.741	1149.38
553.51	1078.38
554.278	1015.38
555.047	958.38
555.815	909.38
556.584	851.38
557.352	786.38
558.121	761.38
558.889	710.38
559.657	660.38
560.425	625.38
561.193	594.38
561.961	556.38
562.729	539.38
563.496	510.38
564.264	470.38
565.032	445.38
565.799	428.38
566.567	405.38
567.334	374.38
568.101	361.38
568.869	340.38
569.636	317.38
570.403	292.38
571.17	277.38
571.937	260.38
572.704	252.38
573.471	238.38
574.237	230.38
575.004	210.38
575.771	194.38
576.537	182.38
577.303	172.38
578.07	161.38
578.836	155.38
579.602	143.38
580.368	132.38
581.134	127.38
581.9	124.38
582.666	120.38
583.432	113.38
584.198	107.38
584.964	96.38
585.729	96.38
586.495	84.38
587.26	84.38
588.025	76.38
588.791	75.38
589.556	68.38
590.321	66.38
591.086	61.38
591.851	57.38
592.616	56.38
593.381	53.38
594.146	50.38
594.911	48.38
595.675	46.38
596.44	45.38
597.204	42.38
597.969	38.38
598.733	34.38
599.497	36.38
600.261	35.38
601.025	31.38
601.79	33.38
602.553	28.38
603.317	28.38
604.081	28.38
604.845	25.38
605.609	24.38
606.372	23.38
607.136	22.38
607.899	19.38
608.662	21.38
609.426	18.38
610.189	18.38
610.952	18.38
611.715	18.38
612.478	18.38
613.241	16.38
614.004	18.38
614.767	12.38
615.529	15.38
616.292	12.38
617.055	10.38
617.817	15.38
618.579	10.38
619.342	11.38
620.104	11.38
620.866	9.38
621.628	11.38
622.39	10.38
623.152	10.38
623.914	9.38
624.676	8.38
625.438	10.38
626.199	8.38
626.961	9.38
627.722	9.38
628.484	9.38
629.245	6.38
630.006	6.38
630.768	5.38
631.529	5.38
632.29	6.38
633.051	5.38
633.812	6.38
634.573	4.38
635.333	7.38
636.094	5.38
636.855	6.38
637.615	6.38
638.376	5.38
639.136	5.38
639.896	4.38
640.657	6.38
641.417	3.38
642.177	5.38
642.937	2.38
643.697	5.38
644.457	4.38
645.216	5.38
645.976	3.38
646.736	5.38
647.495	3.38
648.255	1.38
649.014	4.38
649.774	4.38
650.533	5.38
651.292	2.38
652.051	3.38
652.81	2.38
653.569	0.38
654.328	2.38
655.087	6.38
655.846	2.38
656.604	1.38
657.363	5.38
658.121	3.38
658.88	2.38
659.638	2.38
660.397	1.38
661.155	2.38
661.913	1.38
662.671	-0.62
663.429	3.38
664.187	3.38
664.945	2.38
665.703	2.38
666.46	3.38
667.218	0.38
667.976	-0.62
668.733	1.38
669.49	1.38
670.248	0.38
671.005	2.38
671.762	4.38
672.519	0.38
673.276	2.38
674.033	2.38
674.79	2.38
675.547	1.38
676.304	-0.62
677.06	3.38
677.817	0.38
678.574	0.38
679.33	3.38
680.086	2.38
680.843	2.38
681.599	3.38
682.355	1.38
683.111	2.38
683.867	0.38
684.623	2.38
685.379	3.38
686.135	1.38
686.89	-0.62
687.646	3.38
688.402	-0.62
689.157	1.38
689.912	-0.62
690.668	0.38
691.423	2.38
692.178	2.38
692.933	0.38
693.688	-1.62
694.443	1.38
695.198	0.38
695.953	0.38
696.708	1.38
697.462	1.38
698.217	1.38
698.972	0.38
699.726	2.38
700.48	-1.62
701.235	1.38
701.989	0.38
702.743	1.38
703.497	2.38
704.251	3.38
705.005	1.38
705.759	2.38
706.513	-1.62
707.266	2.38
708.02	-0.62
708.774	2.38
709.527	0.38
710.28	1.38
711.034	3.38
711.787	2.38
712.54	2.38
713.293	-1.62
714.046	1.38
714.799	1.38
715.552	-0.62
716.305	-0.62
717.058	0.38
717.81	0.38
718.563	1.38
719.315	1.38
720.068	0.38
720.82	2.38
721.573	0.38
722.325	-0.62
723.077	0.38
723.829	-3.62
724.581	-0.62
725.333	3.38
726.085	2.38
726.836	2.38
727.588	2.38
728.34	1.38
729.091	1.38
729.843	1.38
730.594	1.38
731.346	2.38
732.097	2.38
732.848	0.38
733.599	3.38
734.35	1.38
735.101	1.38
735.852	0.38
736.603	0.38
737.354	1.38
738.104	2.38
738.855	1.38
739.605	0.38
740.356	2.38
741.106	3.38
741.856	2.38
742.607	1.38
743.357	2.38
744.107	2.38
744.857	2.38
745.607	2.38
746.357	3.38
747.106	0.38
747.856	2.38
748.606	2.38
749.355	3.38
750.105	1.38
750.854	2.38
751.603	-0.62
752.353	2.38
753.102	3.38
753.851	4.38
754.6	2.38
755.349	3.38
756.098	0.38
756.847	3.38
757.595	2.38
758.344	2.38
759.093	2.38
759.841	4.38
760.589	1.38
761.338	3.38
762.086	3.38
762.834	4.38
763.582	4.38
764.331	1.38
765.079	3.38
765.826	2.38
766.574	1.38
767.322	4.38
768.07	2.38
768.817	4.38
769.565	2.38
770.312	6.38
771.06	1.38
771.807	2.38
772.554	4.38
773.302	3.38
774.049	3.38
774.796	6.38
775.543	2.38
776.29	5.38
777.036	4.38
777.783	5.38
778.53	4.38
779.276	4.38
780.023	3.38
780.769	5.38
781.516	4.38
782.262	3.38
783.008	4.38
783.754	3.38
784.5	2.38
785.246	4.38
785.992	8.38
786.738	6.38
787.484	4.38
788.23	5.38
788.975	6.38
789.721	5.38
790.466	4.38
791.212	2.38
791.957	2.38
792.702	6.38
793.447	5.38
794.193	3.38
794.938	6.38
795.683	3.38
796.427	4.38
797.172	5.38
797.917	3.38
798.662	3.38
799.406	5.38
800.151	3.38
800.895	4.38
801.64	2.38
802.384	4.38
803.128	4.38
803.872	2.38
804.616	3.38
805.36	3.38
806.104	3.38
806.848	2.38
807.592	4.38
808.336	4.38
809.079	2.38
809.823	3.38
810.566	2.38
811.31	2.38
812.053	3.38
812.796	2.38
813.539	2.38
814.283	5.38
815.026	4.38
815.769	2.38
816.511	4.38
817.254	2.38
817.997	3.38
818.74	1.38
819.482	2.38
820.225	3.38
820.967	3.38
821.71	0.38
822.452	2.38
823.194	4.38
823.936	3.38
824.678	2.38
825.42	2.38
826.162	1.38
826.904	3.38
827.646	1.38
828.388	1.38
829.129	2.38
829.871	2.38
830.612	3.38
831.354	2.38
832.095	1.38
832.836	2.38
833.577	4.38
834.319	1.38
835.06	4.38
835.801	4.38
836.542	-1.62
837.282	2.38
838.023	1.38
838.764	2.38
839.504	1.38
840.245	1.38
840.985	2.38
841.726	-0.62
842.466	2.38
843.206	0.38
843.946	2.38
844.687	3.38
845.427	4.38
846.166	0.38
846.906	0.38
847.646	0.38
848.386	1.38
849.125	-0.62
849.865	0.38
850.605	3.38
851.344	0.38
852.083	0.38
852.823	1.38
853.562	0.38
854.301	0.38
855.04	1.38
855.779	0.38
856.518	1.38
857.257	0.38
857.995	1.38
858.734	1.38
859.473	0.38
860.211	2.38
860.95	0.38
861.688	0.38
862.426	1.38
863.165	1.38
863.903	-2.62
864.641	0.38
865.379	2.38
866.117	1.38
866.855	1.38
867.593	-0.62
868.33	0.38
869.068	1.38
869.806	1.38
870.543	-0.62
871.28	0.38
872.018	-0.62
872.755	-1.62
873.492	-1.62
874.229	-1.62
874.967	-0.62
875.703	4.38
876.44	0.38
877.177	-0.62
877.914	-0.62
878.651	-0.62
879.387	-2.62
880.124	0.38
880.86	0.38
881.597	-2.62
882.333	-1.62
883.069	0.38
883.806	-0.62
884.542	-1.62
885.278	1.38
886.014	1.38
886.749	0.38
887.485	1.38
888.221	-1.62
888.957	0.38
889.692	-0.62
890.428	1.38
891.163	-1.62
891.899	-0.62
892.634	0.38
893.369	-0.62
894.104	0.38
894.839	-2.62
895.574	-0.62
896.309	0.38
897.044	-2.62
897.779	-0.62
898.514	-0.62
899.248	0.38
899.983	-0.62
900.717	-2.62
901.452	-0.62
902.186	-2.62
902.92	0.38
903.654	1.38
904.389	-0.62
905.123	-2.62
905.857	-1.62
906.59	1.38
907.324	-0.62
908.058	-0.62
908.792	-0.62
909.525	-0.62
910.259	0.38
910.992	0.38
911.726	0.38
912.459	0.38
913.192	-3.62
913.925	-1.62
914.658	0.38
915.391	-0.62
916.124	-2.62
916.857	2.38
917.59	-0.62
918.323	0.38
919.055	0.38
919.788	-0.62
920.521	0.38
921.253	-0.62
921.985	-1.62
922.718	0.38
923.45	-1.62
924.182	-0.62
924.914	0.38
925.646	1.38
926.378	-0.62
927.11	1.38
927.841	-0.62
928.573	0.38
929.305	0.38
930.036	0.38
930.768	-0.62
931.499	-2.62
932.23	-0.62
932.962	-0.62
933.693	-0.62
934.424	-1.62
935.155	-1.62
935.886	-0.62
936.617	-3.62
937.348	-0.62
938.078	-1.62
938.809	1.38
939.54	1.38
940.27	0.38
941.001	-0.62
941.731	-2.62
942.461	0.38
943.191	-1.62
943.922	-2.62
944.652	0.38
945.382	-2.62
946.112	0.38
946.841	-0.62
947.571	-0.62
948.301	2.38
949.031	-2.62
949.76	-1.62
950.49	-0.62
951.219	0.38
951.948	1.38
952.678	-2.62
953.407	1.38
954.136	0.38
954.865	1.38
955.594	-1.62
956.323	1.38
957.052	0.38
957.78	-0.62
958.509	-2.62
959.238	-0.62
959.966	-2.62
960.695	0.38
961.423	0.38
962.151	1.38
962.88	-2.62
963.608	0.38
964.336	-1.62
965.064	1.38
965.792	-1.62
966.52	-0.62
967.247	0.38
967.975	0.38
968.703	1.38
969.43	-2.62
970.158	0.38
970.885	-0.62
971.613	-2.62
972.34	1.38
973.067	-1.62
973.794	1.38
974.521	0.38
975.248	1.38
975.975	-0.62
976.702	-0.62
977.429	-2.62
978.156	-0.62
978.882	0.38
979.609	-0.62
980.335	-2.62
981.062	0.38
981.788	-0.62
982.514	-1.62
983.24	-1.62
983.967	0.38
984.693	-2.62
985.419	-2.62
986.144	0.38
986.87	-0.62
987.596	-2.62
988.322	-0.62
989.047	0.38
989.773	-3.62
990.498	1.38
991.224	-1.62
991.949	-0.62
992.674	1.38
993.399	0.38
994.124	-0.62
994.849	-0.62
995.574	1.38
996.299	-0.62
997.024	-1.62
997.749	-2.62
998.473	-1.62
999.198	-0.62
999.922	-1.62
1000.647	-1.62
1001.371	2.38
1002.095	-0.62
1002.82	-0.62
1003.544	-0.62
1004.268	-1.62
1004.992	-2.62
1005.716	-0.62
1006.439	0.38
1007.163	-1.62
1007.887	-0.62
1008.611	-1.62
1009.334	-2.62
1010.058	-1.62
1010.781	0.38
1011.504	1.38
1012.228	0.38
1012.951	-0.62
1013.674	-1.62
1014.397	0.38
1015.12	1.38
