节点500_145_QEPB04081__372__11-34-53-579.txt的数据

Date: Wed Nov 12 11:34:53 CST 2025
User: PC
Spectrometer: QEPB0408
触发模式: 0
积分时间 (秒): 1.000000E-2
Scans to average: 1
启用暗噪声校正: true
启用非线性校正: false
滑动平均宽度: 0
X轴模式: Wavelengths
Number of Pixels in Spectrum: 1044
>>>>>Begin Spectral Data<<<<<
220.843	-3.88
221.644	1.12
222.444	0.12
223.244	-1.88
224.045	1.12
224.845	-0.88
225.645	0.12
226.445	1.12
227.245	-1.88
228.045	2.12
228.845	1.12
229.645	-0.88
230.444	0.12
231.244	-0.88
232.043	0.12
232.843	1.12
233.642	1.12
234.442	1.12
235.241	1.12
236.04	3.12
236.839	2.12
237.638	2.12
238.437	1.12
239.236	2.12
240.035	1.12
240.833	-0.88
241.632	0.12
242.43	-1.88
243.229	2.12
244.027	2.12
244.826	1.12
245.624	2.12
246.422	1.12
247.22	3.12
248.018	1.12
248.816	5.12
249.614	1.12
250.412	2.12
251.21	2.12
252.007	0.12
252.805	2.12
253.602	1.12
254.4	2.12
255.197	2.12
255.994	3.12
256.791	4.12
257.589	3.12
258.386	6.12
259.183	5.12
259.979	6.12
260.776	2.12
261.573	5.12
262.37	4.12
263.166	2.12
263.963	6.12
264.759	3.12
265.556	4.12
266.352	6.12
267.148	3.12
267.944	4.12
268.74	5.12
269.536	8.12
270.332	4.12
271.128	7.12
271.924	8.12
272.719	10.12
273.515	7.12
274.311	7.12
275.106	9.12
275.901	9.12
276.697	10.12
277.492	9.12
278.287	10.12
279.082	7.12
279.877	10.12
280.672	10.12
281.467	7.12
282.262	10.12
283.056	10.12
283.851	9.12
284.646	11.12
285.44	8.12
286.234	10.12
287.029	9.12
287.823	11.12
288.617	9.12
289.411	10.12
290.205	6.12
290.999	10.12
291.793	11.12
292.587	9.12
293.381	10.12
294.174	11.12
294.968	9.12
295.761	10.12
296.555	8.12
297.348	9.12
298.141	8.12
298.935	12.12
299.728	8.12
300.521	9.12
301.314	9.12
302.107	8.12
302.899	9.12
303.692	7.12
304.485	7.12
305.277	9.12
306.07	7.12
306.862	10.12
307.655	6.12
308.447	6.12
309.239	6.12
310.031	11.12
310.823	4.12
311.615	7.12
312.407	6.12
313.199	6.12
313.991	5.12
314.783	5.12
315.574	5.12
316.366	7.12
317.157	7.12
317.949	2.12
318.74	5.12
319.531	4.12
320.322	4.12
321.113	3.12
321.904	3.12
322.695	4.12
323.486	7.12
324.277	5.12
325.068	3.12
325.858	4.12
326.649	7.12
327.439	5.12
328.23	4.12
329.02	4.12
329.81	3.12
330.6	4.12
331.391	3.12
332.181	1.12
332.971	3.12
333.76	2.12
334.55	4.12
335.34	1.12
336.13	5.12
336.919	4.12
337.709	3.12
338.498	5.12
339.287	2.12
340.077	5.12
340.866	2.12
341.655	3.12
342.444	4.12
343.233	5.12
344.022	4.12
344.811	3.12
345.6	2.12
346.388	2.12
347.177	4.12
347.965	3.12
348.754	2.12
349.542	2.12
350.33	3.12
351.119	3.12
351.907	2.12
352.695	3.12
353.483	6.12
354.271	4.12
355.059	4.12
355.846	1.12
356.634	3.12
357.422	3.12
358.209	5.12
358.997	3.12
359.784	2.12
360.571	2.12
361.359	2.12
362.146	3.12
362.933	3.12
363.72	3.12
364.507	4.12
365.294	0.12
366.081	1.12
366.867	1.12
367.654	3.12
368.44	3.12
369.227	1.12
370.013	2.12
370.8	3.12
371.586	1.12
372.372	2.12
373.158	3.12
373.944	2.12
374.73	3.12
375.516	2.12
376.302	1.12
377.088	1.12
377.873	2.12
378.659	0.12
379.445	1.12
380.23	2.12
381.015	5.12
381.801	1.12
382.586	2.12
383.371	2.12
384.156	3.12
384.941	4.12
385.726	5.12
386.511	3.12
387.296	3.12
388.08	2.12
388.865	3.12
389.649	3.12
390.434	3.12
391.218	2.12
392.003	3.12
392.787	3.12
393.571	3.12
394.355	1.12
395.139	3.12
395.923	3.12
396.707	2.12
397.491	2.12
398.274	0.12
399.058	2.12
399.842	2.12
400.625	2.12
401.408	2.12
402.192	1.12
402.975	3.12
403.758	1.12
404.541	1.12
405.324	4.12
406.107	3.12
406.89	4.12
407.673	4.12
408.456	4.12
409.238	4.12
410.021	6.12
410.803	4.12
411.586	3.12
412.368	7.12
413.151	4.12
413.933	4.12
414.715	4.12
415.497	5.12
416.279	5.12
417.061	3.12
417.843	5.12
418.624	4.12
419.406	5.12
420.188	3.12
420.969	7.12
421.751	6.12
422.532	6.12
423.313	6.12
424.095	4.12
424.876	6.12
425.657	8.12
426.438	8.12
427.219	8.12
428	6.12
428.78	7.12
429.561	5.12
430.342	4.12
431.122	6.12
431.903	7.12
432.683	8.12
433.464	8.12
434.244	9.12
435.024	7.12
435.804	8.12
436.584	13.12
437.364	9.12
438.144	9.12
438.924	10.12
439.704	10.12
440.483	13.12
441.263	10.12
442.042	14.12
442.822	13.12
443.601	12.12
444.38	14.12
445.16	15.12
445.939	16.12
446.718	18.12
447.497	17.12
448.276	20.12
449.054	23.12
449.833	22.12
450.612	26.12
451.391	28.12
452.169	28.12
452.948	34.12
453.726	37.12
454.504	41.12
455.282	40.12
456.061	46.12
456.839	52.12
457.617	57.12
458.395	62.12
459.172	67.12
459.95	72.12
460.728	85.12
461.506	96.12
462.283	105.12
463.061	115.12
463.838	127.12
464.615	145.12
465.393	154.12
466.17	178.12
466.947	192.12
467.724	226.12
468.501	248.12
469.278	274.12
470.055	307.12
470.831	346.12
471.608	381.12
472.385	426.12
473.161	468.12
473.938	502.12
474.714	576.12
475.49	639.12
476.266	690.12
477.043	772.12
477.819	853.12
478.595	952.12
479.371	1030.12
480.146	1155.12
480.922	1283.12
481.698	1403.12
482.473	1540.12
483.249	1717.12
484.024	1868.12
484.8	2049.12
485.575	2263.12
486.35	2495.12
487.126	2736.12
487.901	2988.12
488.676	3292.12
489.451	3606.12
490.225	3977.12
491	4382.12
491.775	4771.12
492.55	5229.12
493.324	5752.12
494.099	6227.12
494.873	6818.12
495.647	7442.12
496.422	8028.12
497.196	8681.12
497.97	9390.12
498.744	10100.12
499.518	10815.12
500.292	11515.12
501.066	12266.12
501.839	12940.12
502.613	13499.12
503.387	14182.12
504.16	14756.12
504.934	15178.12
505.707	15591.12
506.48	15849.12
507.253	16040.12
508.027	16185.12
508.8	16137.12
509.573	16035.12
510.346	15862.12
511.118	15593.12
511.891	15228.12
512.664	14759.12
513.437	14339.12
514.209	13779.12
514.982	13291.12
515.754	12715.12
516.526	12207.12
517.298	11663.12
518.071	11158.12
518.843	10694.12
519.615	10212.12
520.387	9774.12
521.159	9369.12
521.93	9024.12
522.702	8694.12
523.474	8326.12
524.245	8020.12
525.017	7649.12
525.788	7374.12
526.56	7080.12
527.331	6817.12
528.102	6533.12
528.873	6225.12
529.644	5948.12
530.415	5707.12
531.186	5420.12
531.957	5126.12
532.728	4896.12
533.498	4624.12
534.269	4376.12
535.039	4154.12
535.81	3931.12
536.58	3710.12
537.351	3500.12
538.121	3301.12
538.891	3138.12
539.661	2975.12
540.431	2801.12
541.201	2651.12
541.971	2505.12
542.741	2364.12
543.51	2274.12
544.28	2144.12
545.05	2040.12
545.819	1942.12
546.588	1837.12
547.358	1739.12
548.127	1651.12
548.896	1586.12
549.665	1501.12
550.434	1437.12
551.203	1339.12
551.972	1271.12
552.741	1207.12
553.51	1154.12
554.278	1091.12
555.047	1017.12
555.815	975.12
556.584	904.12
557.352	868.12
558.121	807.12
558.889	769.12
559.657	725.12
560.425	685.12
561.193	641.12
561.961	612.12
562.729	562.12
563.496	530.12
564.264	508.12
565.032	477.12
565.799	453.12
566.567	429.12
567.334	404.12
568.101	376.12
568.869	360.12
569.636	341.12
570.403	321.12
571.17	304.12
571.937	282.12
572.704	261.12
573.471	261.12
574.237	237.12
575.004	222.12
575.771	207.12
576.537	201.12
577.303	190.12
578.07	179.12
578.836	159.12
579.602	156.12
580.368	146.12
581.134	140.12
581.9	136.12
582.666	127.12
583.432	120.12
584.198	114.12
584.964	107.12
585.729	97.12
586.495	94.12
587.26	89.12
588.025	85.12
588.791	79.12
589.556	72.12
590.321	67.12
591.086	67.12
591.851	65.12
592.616	64.12
593.381	58.12
594.146	55.12
594.911	51.12
595.675	49.12
596.44	49.12
597.204	46.12
597.969	42.12
598.733	41.12
599.497	40.12
600.261	38.12
601.025	38.12
601.79	35.12
602.553	31.12
603.317	31.12
604.081	30.12
604.845	29.12
605.609	28.12
606.372	26.12
607.136	24.12
607.899	24.12
608.662	22.12
609.426	24.12
610.189	21.12
610.952	23.12
611.715	20.12
612.478	21.12
613.241	15.12
614.004	17.12
614.767	15.12
615.529	17.12
616.292	13.12
617.055	14.12
617.817	14.12
618.579	14.12
619.342	12.12
620.104	14.12
620.866	10.12
621.628	12.12
622.39	9.12
623.152	12.12
623.914	14.12
624.676	10.12
625.438	8.12
626.199	13.12
626.961	13.12
627.722	10.12
628.484	9.12
629.245	8.12
630.006	7.12
630.768	9.12
631.529	7.12
632.29	11.12
633.051	7.12
633.812	5.12
634.573	9.12
635.333	7.12
636.094	9.12
636.855	5.12
637.615	5.12
638.376	5.12
639.136	4.12
639.896	6.12
640.657	4.12
641.417	7.12
642.177	4.12
642.937	6.12
643.697	3.12
644.457	3.12
645.216	6.12
645.976	6.12
646.736	4.12
647.495	3.12
648.255	3.12
649.014	3.12
649.774	4.12
650.533	4.12
651.292	5.12
652.051	3.12
652.81	5.12
653.569	2.12
654.328	1.12
655.087	3.12
655.846	1.12
656.604	0.12
657.363	4.12
658.121	1.12
658.88	2.12
659.638	4.12
660.397	2.12
661.155	2.12
661.913	1.12
662.671	4.12
663.429	1.12
664.187	3.12
664.945	4.12
665.703	2.12
666.46	2.12
667.218	1.12
667.976	3.12
668.733	3.12
669.49	1.12
670.248	2.12
671.005	1.12
671.762	1.12
672.519	3.12
673.276	3.12
674.033	1.12
674.79	1.12
675.547	4.12
676.304	2.12
677.06	2.12
677.817	2.12
678.574	4.12
679.33	5.12
680.086	4.12
680.843	4.12
681.599	4.12
682.355	3.12
683.111	1.12
683.867	3.12
684.623	2.12
685.379	1.12
686.135	1.12
686.89	1.12
687.646	2.12
688.402	1.12
689.157	0.12
689.912	1.12
690.668	1.12
691.423	2.12
692.178	2.12
692.933	5.12
693.688	2.12
694.443	2.12
695.198	2.12
695.953	1.12
696.708	2.12
697.462	1.12
698.217	1.12
698.972	1.12
699.726	3.12
700.48	2.12
701.235	3.12
701.989	2.12
702.743	-0.88
703.497	1.12
704.251	-1.88
705.005	2.12
705.759	2.12
706.513	2.12
707.266	1.12
708.02	2.12
708.774	1.12
709.527	2.12
710.28	2.12
711.034	3.12
711.787	0.12
712.54	3.12
713.293	3.12
714.046	2.12
714.799	2.12
715.552	2.12
716.305	-0.88
717.058	1.12
717.81	2.12
718.563	0.12
719.315	2.12
720.068	2.12
720.82	1.12
721.573	2.12
722.325	-0.88
723.077	0.12
723.829	1.12
724.581	1.12
725.333	3.12
726.085	1.12
726.836	0.12
727.588	0.12
728.34	2.12
729.091	2.12
729.843	2.12
730.594	2.12
731.346	2.12
732.097	2.12
732.848	1.12
733.599	2.12
734.35	2.12
735.101	2.12
735.852	0.12
736.603	2.12
737.354	2.12
738.104	1.12
738.855	3.12
739.605	1.12
740.356	1.12
741.106	3.12
741.856	0.12
742.607	4.12
743.357	1.12
744.107	3.12
744.857	5.12
745.607	4.12
746.357	0.12
747.106	2.12
747.856	2.12
748.606	4.12
749.355	4.12
750.105	2.12
750.854	1.12
751.603	2.12
752.353	2.12
753.102	2.12
753.851	3.12
754.6	3.12
755.349	1.12
756.098	2.12
756.847	2.12
757.595	3.12
758.344	4.12
759.093	3.12
759.841	1.12
760.589	2.12
761.338	5.12
762.086	3.12
762.834	4.12
763.582	4.12
764.331	1.12
765.079	3.12
765.826	2.12
766.574	4.12
767.322	4.12
768.07	2.12
768.817	3.12
769.565	2.12
770.312	4.12
771.06	1.12
771.807	5.12
772.554	0.12
773.302	5.12
774.049	2.12
774.796	3.12
775.543	3.12
776.29	2.12
777.036	4.12
777.783	6.12
778.53	5.12
779.276	5.12
780.023	7.12
780.769	7.12
781.516	3.12
782.262	3.12
783.008	5.12
783.754	3.12
784.5	5.12
785.246	4.12
785.992	7.12
786.738	2.12
787.484	5.12
788.23	3.12
788.975	5.12
789.721	4.12
790.466	4.12
791.212	5.12
791.957	5.12
792.702	4.12
793.447	5.12
794.193	3.12
794.938	6.12
795.683	6.12
796.427	5.12
797.172	3.12
797.917	4.12
798.662	5.12
799.406	4.12
800.151	5.12
800.895	4.12
801.64	4.12
802.384	5.12
803.128	4.12
803.872	3.12
804.616	3.12
805.36	6.12
806.104	3.12
806.848	5.12
807.592	4.12
808.336	5.12
809.079	3.12
809.823	5.12
810.566	3.12
811.31	3.12
812.053	4.12
812.796	1.12
813.539	5.12
814.283	3.12
815.026	6.12
815.769	4.12
816.511	3.12
817.254	3.12
817.997	3.12
818.74	2.12
819.482	4.12
820.225	4.12
820.967	5.12
821.71	3.12
822.452	2.12
823.194	2.12
823.936	2.12
824.678	4.12
825.42	2.12
826.162	2.12
826.904	0.12
827.646	6.12
828.388	3.12
829.129	3.12
829.871	2.12
830.612	0.12
831.354	2.12
832.095	1.12
832.836	2.12
833.577	2.12
834.319	0.12
835.06	1.12
835.801	2.12
836.542	1.12
837.282	3.12
838.023	4.12
838.764	2.12
839.504	1.12
840.245	1.12
840.985	5.12
841.726	3.12
842.466	1.12
843.206	2.12
843.946	2.12
844.687	0.12
845.427	3.12
846.166	2.12
846.906	2.12
847.646	1.12
848.386	2.12
849.125	2.12
849.865	1.12
850.605	1.12
851.344	-0.88
852.083	4.12
852.823	2.12
853.562	2.12
854.301	3.12
855.04	1.12
855.779	0.12
856.518	0.12
857.257	1.12
857.995	0.12
858.734	1.12
859.473	1.12
860.211	1.12
860.95	1.12
861.688	-0.88
862.426	2.12
863.165	1.12
863.903	2.12
864.641	-1.88
865.379	0.12
866.117	1.12
866.855	-0.88
867.593	0.12
868.33	1.12
869.068	0.12
869.806	0.12
870.543	-1.88
871.28	-0.88
872.018	-1.88
872.755	0.12
873.492	2.12
874.229	2.12
874.967	2.12
875.703	-1.88
876.44	2.12
877.177	-0.88
877.914	2.12
878.651	2.12
879.387	0.12
880.124	3.12
880.86	1.12
881.597	-0.88
882.333	1.12
883.069	2.12
883.806	-1.88
884.542	2.12
885.278	2.12
886.014	1.12
886.749	1.12
887.485	0.12
888.221	0.12
888.957	2.12
889.692	0.12
890.428	0.12
891.163	2.12
891.899	1.12
892.634	1.12
893.369	3.12
894.104	0.12
894.839	-1.88
895.574	1.12
896.309	-1.88
897.044	-1.88
897.779	-0.88
898.514	2.12
899.248	0.12
899.983	0.12
900.717	0.12
901.452	1.12
902.186	0.12
902.92	0.12
903.654	2.12
904.389	-0.88
905.123	0.12
905.857	0.12
906.59	0.12
907.324	-1.88
908.058	-0.88
908.792	1.12
909.525	-1.88
910.259	0.12
910.992	-0.88
911.726	-1.88
912.459	-1.88
913.192	-1.88
913.925	0.12
914.658	-1.88
915.391	1.12
916.124	1.12
916.857	1.12
917.59	0.12
918.323	0.12
919.055	1.12
919.788	1.12
920.521	0.12
921.253	-0.88
921.985	0.12
922.718	1.12
923.45	1.12
924.182	-0.88
924.914	0.12
925.646	-2.88
926.378	2.12
927.11	0.12
927.841	-1.88
928.573	0.12
929.305	0.12
930.036	-1.88
930.768	2.12
931.499	1.12
932.23	0.12
932.962	1.12
933.693	1.12
934.424	1.12
935.155	1.12
935.886	-0.88
936.617	1.12
937.348	-1.88
938.078	1.12
938.809	-1.88
939.54	2.12
940.27	-2.88
941.001	-0.88
941.731	-0.88
942.461	-1.88
943.191	1.12
943.922	-0.88
944.652	-0.88
945.382	-1.88
946.112	1.12
946.841	-0.88
947.571	-1.88
948.301	-0.88
949.031	1.12
949.76	-2.88
950.49	1.12
951.219	0.12
951.948	-1.88
952.678	0.12
953.407	1.12
954.136	2.12
954.865	1.12
955.594	1.12
956.323	-0.88
957.052	1.12
957.78	-1.88
958.509	0.12
959.238	-1.88
959.966	-0.88
960.695	1.12
961.423	-1.88
962.151	0.12
962.88	0.12
963.608	-1.88
964.336	-1.88
965.064	-1.88
965.792	1.12
966.52	-0.88
967.247	0.12
967.975	0.12
968.703	-1.88
969.43	-1.88
970.158	-1.88
970.885	0.12
971.613	-0.88
972.34	0.12
973.067	1.12
973.794	1.12
974.521	0.12
975.248	2.12
975.975	0.12
976.702	-1.88
977.429	-0.88
978.156	0.12
978.882	1.12
979.609	0.12
980.335	1.12
981.062	-0.88
981.788	-0.88
982.514	1.12
983.24	-0.88
983.967	0.12
984.693	1.12
985.419	-1.88
986.144	-0.88
986.87	-1.88
987.596	1.12
988.322	0.12
989.047	1.12
989.773	0.12
990.498	3.12
991.224	1.12
991.949	-0.88
992.674	-1.88
993.399	-1.88
994.124	-0.88
994.849	-0.88
995.574	0.12
996.299	-0.88
997.024	-1.88
997.749	0.12
998.473	0.12
999.198	2.12
999.922	1.12
1000.647	0.12
1001.371	4.12
1002.095	-1.88
1002.82	-1.88
1003.544	-0.88
1004.268	1.12
1004.992	-0.88
1005.716	0.12
1006.439	-1.88
1007.163	0.12
1007.887	0.12
1008.611	0.12
1009.334	-0.88
1010.058	0.12
1010.781	1.12
1011.504	-1.88
1012.228	-1.88
1012.951	-1.88
1013.674	1.12
1014.397	-1.88
1015.12	3.12
