节点500_145_QEPB04081__467__11-36-23-563.txt的数据

Date: Wed Nov 12 11:36:23 CST 2025
User: PC
Spectrometer: QEPB0408
触发模式: 0
积分时间 (秒): 1.000000E-2
Scans to average: 1
启用暗噪声校正: true
启用非线性校正: false
滑动平均宽度: 0
X轴模式: Wavelengths
Number of Pixels in Spectrum: 1044
>>>>>Begin Spectral Data<<<<<
220.843	-1.62
221.644	-0.62
222.444	1.38
223.244	0.38
224.045	1.38
224.845	2.38
225.645	-1.62
226.445	0.38
227.245	-1.62
228.045	0.38
228.845	-1.62
229.645	-0.62
230.444	0.38
231.244	1.38
232.043	2.38
232.843	1.38
233.642	2.38
234.442	2.38
235.241	1.38
236.04	1.38
236.839	0.38
237.638	1.38
238.437	-0.62
239.236	2.38
240.035	3.38
240.833	1.38
241.632	-0.62
242.43	-0.62
243.229	2.38
244.027	3.38
244.826	3.38
245.624	3.38
246.422	1.38
247.22	3.38
248.018	0.38
248.816	3.38
249.614	0.38
250.412	0.38
251.21	4.38
252.007	4.38
252.805	2.38
253.602	5.38
254.4	2.38
255.197	2.38
255.994	3.38
256.791	2.38
257.589	2.38
258.386	3.38
259.183	4.38
259.979	5.38
260.776	3.38
261.573	5.38
262.37	2.38
263.166	7.38
263.963	7.38
264.759	4.38
265.556	5.38
266.352	3.38
267.148	7.38
267.944	4.38
268.74	3.38
269.536	7.38
270.332	5.38
271.128	8.38
271.924	6.38
272.719	8.38
273.515	7.38
274.311	7.38
275.106	9.38
275.901	7.38
276.697	8.38
277.492	10.38
278.287	10.38
279.082	8.38
279.877	7.38
280.672	10.38
281.467	13.38
282.262	7.38
283.056	7.38
283.851	10.38
284.646	10.38
285.44	9.38
286.234	10.38
287.029	11.38
287.823	11.38
288.617	11.38
289.411	10.38
290.205	10.38
290.999	10.38
291.793	10.38
292.587	9.38
293.381	9.38
294.174	9.38
294.968	11.38
295.761	10.38
296.555	12.38
297.348	9.38
298.141	8.38
298.935	9.38
299.728	9.38
300.521	8.38
301.314	12.38
302.107	8.38
302.899	9.38
303.692	9.38
304.485	8.38
305.277	10.38
306.07	7.38
306.862	8.38
307.655	8.38
308.447	6.38
309.239	7.38
310.031	7.38
310.823	7.38
311.615	7.38
312.407	4.38
313.199	3.38
313.991	7.38
314.783	6.38
315.574	8.38
316.366	10.38
317.157	4.38
317.949	5.38
318.74	5.38
319.531	4.38
320.322	5.38
321.113	5.38
321.904	4.38
322.695	6.38
323.486	4.38
324.277	6.38
325.068	5.38
325.858	2.38
326.649	5.38
327.439	6.38
328.23	3.38
329.02	3.38
329.81	5.38
330.6	4.38
331.391	5.38
332.181	2.38
332.971	3.38
333.76	4.38
334.55	5.38
335.34	3.38
336.13	7.38
336.919	2.38
337.709	6.38
338.498	4.38
339.287	4.38
340.077	1.38
340.866	4.38
341.655	5.38
342.444	2.38
343.233	3.38
344.022	3.38
344.811	5.38
345.6	2.38
346.388	5.38
347.177	3.38
347.965	2.38
348.754	3.38
349.542	3.38
350.33	2.38
351.119	3.38
351.907	2.38
352.695	1.38
353.483	3.38
354.271	4.38
355.059	4.38
355.846	4.38
356.634	5.38
357.422	1.38
358.209	2.38
358.997	5.38
359.784	3.38
360.571	3.38
361.359	3.38
362.146	3.38
362.933	1.38
363.72	5.38
364.507	0.38
365.294	1.38
366.081	3.38
366.867	3.38
367.654	4.38
368.44	3.38
369.227	1.38
370.013	1.38
370.8	3.38
371.586	2.38
372.372	1.38
373.158	3.38
373.944	1.38
374.73	2.38
375.516	1.38
376.302	4.38
377.088	4.38
377.873	2.38
378.659	1.38
379.445	2.38
380.23	2.38
381.015	4.38
381.801	3.38
382.586	1.38
383.371	2.38
384.156	2.38
384.941	1.38
385.726	3.38
386.511	3.38
387.296	2.38
388.08	3.38
388.865	3.38
389.649	4.38
390.434	3.38
391.218	3.38
392.003	3.38
392.787	1.38
393.571	3.38
394.355	0.38
395.139	3.38
395.923	4.38
396.707	5.38
397.491	2.38
398.274	3.38
399.058	3.38
399.842	2.38
400.625	4.38
401.408	4.38
402.192	3.38
402.975	2.38
403.758	4.38
404.541	3.38
405.324	2.38
406.107	2.38
406.89	4.38
407.673	0.38
408.456	5.38
409.238	3.38
410.021	5.38
410.803	2.38
411.586	4.38
412.368	4.38
413.151	2.38
413.933	2.38
414.715	5.38
415.497	5.38
416.279	3.38
417.061	3.38
417.843	4.38
418.624	5.38
419.406	5.38
420.188	7.38
420.969	7.38
421.751	4.38
422.532	6.38
423.313	4.38
424.095	7.38
424.876	6.38
425.657	3.38
426.438	7.38
427.219	4.38
428	4.38
428.78	7.38
429.561	8.38
430.342	8.38
431.122	8.38
431.903	7.38
432.683	7.38
433.464	8.38
434.244	6.38
435.024	8.38
435.804	10.38
436.584	9.38
437.364	11.38
438.144	7.38
438.924	10.38
439.704	10.38
440.483	12.38
441.263	14.38
442.042	13.38
442.822	12.38
443.601	12.38
444.38	14.38
445.16	18.38
445.939	18.38
446.718	18.38
447.497	19.38
448.276	24.38
449.054	21.38
449.833	26.38
450.612	29.38
451.391	29.38
452.169	29.38
452.948	32.38
453.726	39.38
454.504	38.38
455.282	43.38
456.061	48.38
456.839	52.38
457.617	55.38
458.395	62.38
459.172	73.38
459.95	80.38
460.728	88.38
461.506	97.38
462.283	109.38
463.061	122.38
463.838	127.38
464.615	150.38
465.393	167.38
466.17	186.38
466.947	204.38
467.724	228.38
468.501	251.38
469.278	283.38
470.055	314.38
470.831	347.38
471.608	380.38
472.385	421.38
473.161	476.38
473.938	533.38
474.714	574.38
475.49	650.38
476.266	717.38
477.043	785.38
477.819	869.38
478.595	972.38
479.371	1045.38
480.146	1172.38
480.922	1287.38
481.698	1406.38
482.473	1550.38
483.249	1700.38
484.024	1861.38
484.8	2054.38
485.575	2247.38
486.35	2460.38
487.126	2705.38
487.901	2989.38
488.676	3249.38
489.451	3582.38
490.225	3914.38
491	4277.38
491.775	4704.38
492.55	5134.38
493.324	5573.38
494.099	6116.38
494.873	6657.38
495.647	7232.38
496.422	7844.38
497.196	8518.38
497.97	9144.38
498.744	9844.38
499.518	10553.38
500.292	11255.38
501.066	11911.38
501.839	12581.38
502.613	13218.38
503.387	13792.38
504.16	14402.38
504.934	14838.38
505.707	15243.38
506.48	15516.38
507.253	15788.38
508.027	15905.38
508.8	15966.38
509.573	15879.38
510.346	15698.38
511.118	15448.38
511.891	15160.38
512.664	14723.38
513.437	14287.38
514.209	13810.38
514.982	13265.38
515.754	12782.38
516.526	12253.38
517.298	11729.38
518.071	11250.38
518.843	10743.38
519.615	10269.38
520.387	9881.38
521.159	9466.38
521.93	9103.38
522.702	8732.38
523.474	8404.38
524.245	8046.38
525.017	7717.38
525.788	7390.38
526.56	7120.38
527.331	6844.38
528.102	6549.38
528.873	6272.38
529.644	6000.38
530.415	5728.38
531.186	5478.38
531.957	5214.38
532.728	4944.38
533.498	4698.38
534.269	4453.38
535.039	4168.38
535.81	3966.38
536.58	3762.38
537.351	3538.38
538.121	3370.38
538.891	3177.38
539.661	2989.38
540.431	2840.38
541.201	2670.38
541.971	2543.38
542.741	2391.38
543.51	2285.38
544.28	2169.38
545.05	2062.38
545.819	1950.38
546.588	1848.38
547.358	1778.38
548.127	1693.38
548.896	1593.38
549.665	1518.38
550.434	1430.38
551.203	1372.38
551.972	1291.38
552.741	1224.38
553.51	1155.38
554.278	1109.38
555.047	1037.38
555.815	993.38
556.584	927.38
557.352	877.38
558.121	827.38
558.889	765.38
559.657	731.38
560.425	686.38
561.193	652.38
561.961	619.38
562.729	581.38
563.496	542.38
564.264	525.38
565.032	489.38
565.799	461.38
566.567	435.38
567.334	411.38
568.101	389.38
568.869	367.38
569.636	342.38
570.403	336.38
571.17	305.38
571.937	300.38
572.704	273.38
573.471	262.38
574.237	243.38
575.004	231.38
575.771	220.38
576.537	200.38
577.303	190.38
578.07	179.38
578.836	165.38
579.602	157.38
580.368	150.38
581.134	141.38
581.9	133.38
582.666	132.38
583.432	126.38
584.198	117.38
584.964	106.38
585.729	101.38
586.495	97.38
587.26	90.38
588.025	87.38
588.791	83.38
589.556	75.38
590.321	72.38
591.086	71.38
591.851	70.38
592.616	67.38
593.381	59.38
594.146	55.38
594.911	51.38
595.675	53.38
596.44	48.38
597.204	43.38
597.969	44.38
598.733	45.38
599.497	41.38
600.261	36.38
601.025	35.38
601.79	35.38
602.553	32.38
603.317	30.38
604.081	30.38
604.845	27.38
605.609	26.38
606.372	28.38
607.136	27.38
607.899	27.38
608.662	21.38
609.426	24.38
610.189	21.38
610.952	20.38
611.715	19.38
612.478	17.38
613.241	17.38
614.004	18.38
614.767	18.38
615.529	18.38
616.292	17.38
617.055	15.38
617.817	13.38
618.579	15.38
619.342	11.38
620.104	14.38
620.866	13.38
621.628	12.38
622.39	10.38
623.152	11.38
623.914	10.38
624.676	10.38
625.438	10.38
626.199	8.38
626.961	8.38
627.722	9.38
628.484	9.38
629.245	12.38
630.006	6.38
630.768	7.38
631.529	5.38
632.29	6.38
633.051	8.38
633.812	9.38
634.573	7.38
635.333	5.38
636.094	7.38
636.855	8.38
637.615	7.38
638.376	6.38
639.136	3.38
639.896	6.38
640.657	4.38
641.417	7.38
642.177	4.38
642.937	5.38
643.697	6.38
644.457	5.38
645.216	7.38
645.976	3.38
646.736	2.38
647.495	3.38
648.255	6.38
649.014	6.38
649.774	2.38
650.533	5.38
651.292	2.38
652.051	5.38
652.81	1.38
653.569	4.38
654.328	5.38
655.087	5.38
655.846	4.38
656.604	2.38
657.363	4.38
658.121	3.38
658.88	3.38
659.638	3.38
660.397	4.38
661.155	3.38
661.913	1.38
662.671	3.38
663.429	4.38
664.187	3.38
664.945	2.38
665.703	3.38
666.46	3.38
667.218	2.38
667.976	3.38
668.733	2.38
669.49	3.38
670.248	2.38
671.005	2.38
671.762	3.38
672.519	1.38
673.276	1.38
674.033	2.38
674.79	1.38
675.547	3.38
676.304	2.38
677.06	1.38
677.817	4.38
678.574	4.38
679.33	4.38
680.086	1.38
680.843	4.38
681.599	2.38
682.355	2.38
683.111	2.38
683.867	1.38
684.623	-0.62
685.379	1.38
686.135	2.38
686.89	1.38
687.646	3.38
688.402	2.38
689.157	1.38
689.912	1.38
690.668	2.38
691.423	2.38
692.178	-0.62
692.933	3.38
693.688	2.38
694.443	2.38
695.198	2.38
695.953	1.38
696.708	3.38
697.462	5.38
698.217	7.38
698.972	-0.62
699.726	0.38
700.48	2.38
701.235	1.38
701.989	2.38
702.743	3.38
703.497	4.38
704.251	3.38
705.005	0.38
705.759	1.38
706.513	3.38
707.266	1.38
708.02	2.38
708.774	1.38
709.527	0.38
710.28	0.38
711.034	1.38
711.787	-0.62
712.54	2.38
713.293	2.38
714.046	2.38
714.799	2.38
715.552	0.38
716.305	4.38
717.058	-0.62
717.81	1.38
718.563	0.38
719.315	2.38
720.068	2.38
720.82	1.38
721.573	2.38
722.325	1.38
723.077	2.38
723.829	2.38
724.581	1.38
725.333	2.38
726.085	1.38
726.836	2.38
727.588	2.38
728.34	1.38
729.091	4.38
729.843	2.38
730.594	0.38
731.346	2.38
732.097	2.38
732.848	1.38
733.599	2.38
734.35	1.38
735.101	3.38
735.852	3.38
736.603	-0.62
737.354	1.38
738.104	1.38
738.855	3.38
739.605	2.38
740.356	0.38
741.106	2.38
741.856	2.38
742.607	3.38
743.357	4.38
744.107	3.38
744.857	2.38
745.607	2.38
746.357	1.38
747.106	-0.62
747.856	2.38
748.606	5.38
749.355	1.38
750.105	3.38
750.854	3.38
751.603	3.38
752.353	1.38
753.102	2.38
753.851	2.38
754.6	3.38
755.349	2.38
756.098	0.38
756.847	3.38
757.595	2.38
758.344	2.38
759.093	2.38
759.841	3.38
760.589	3.38
761.338	2.38
762.086	1.38
762.834	4.38
763.582	3.38
764.331	3.38
765.079	2.38
765.826	5.38
766.574	3.38
767.322	2.38
768.07	4.38
768.817	3.38
769.565	4.38
770.312	1.38
771.06	4.38
771.807	5.38
772.554	5.38
773.302	3.38
774.049	3.38
774.796	2.38
775.543	4.38
776.29	2.38
777.036	5.38
777.783	5.38
778.53	2.38
779.276	3.38
780.023	4.38
780.769	3.38
781.516	4.38
782.262	5.38
783.008	3.38
783.754	6.38
784.5	4.38
785.246	6.38
785.992	3.38
786.738	4.38
787.484	2.38
788.23	4.38
788.975	5.38
789.721	6.38
790.466	6.38
791.212	5.38
791.957	2.38
792.702	5.38
793.447	7.38
794.193	5.38
794.938	3.38
795.683	4.38
796.427	5.38
797.172	5.38
797.917	3.38
798.662	2.38
799.406	4.38
800.151	5.38
800.895	2.38
801.64	5.38
802.384	5.38
803.128	2.38
803.872	4.38
804.616	7.38
805.36	4.38
806.104	3.38
806.848	5.38
807.592	4.38
808.336	1.38
809.079	1.38
809.823	4.38
810.566	4.38
811.31	4.38
812.053	2.38
812.796	4.38
813.539	1.38
814.283	4.38
815.026	2.38
815.769	3.38
816.511	2.38
817.254	2.38
817.997	3.38
818.74	2.38
819.482	5.38
820.225	3.38
820.967	3.38
821.71	3.38
822.452	2.38
823.194	2.38
823.936	2.38
824.678	3.38
825.42	4.38
826.162	2.38
826.904	5.38
827.646	1.38
828.388	2.38
829.129	2.38
829.871	3.38
830.612	4.38
831.354	2.38
832.095	2.38
832.836	1.38
833.577	2.38
834.319	1.38
835.06	2.38
835.801	1.38
836.542	1.38
837.282	3.38
838.023	2.38
838.764	3.38
839.504	3.38
840.245	4.38
840.985	3.38
841.726	1.38
842.466	2.38
843.206	1.38
843.946	1.38
844.687	2.38
845.427	2.38
846.166	3.38
846.906	3.38
847.646	3.38
848.386	0.38
849.125	3.38
849.865	4.38
850.605	1.38
851.344	3.38
852.083	0.38
852.823	3.38
853.562	1.38
854.301	2.38
855.04	3.38
855.779	1.38
856.518	3.38
857.257	0.38
857.995	1.38
858.734	-1.62
859.473	-0.62
860.211	1.38
860.95	2.38
861.688	2.38
862.426	1.38
863.165	0.38
863.903	1.38
864.641	3.38
865.379	0.38
866.117	1.38
866.855	2.38
867.593	2.38
868.33	3.38
869.068	1.38
869.806	2.38
870.543	2.38
871.28	-0.62
872.018	1.38
872.755	-2.62
873.492	1.38
874.229	2.38
874.967	1.38
875.703	1.38
876.44	0.38
877.177	3.38
877.914	-0.62
878.651	1.38
879.387	2.38
880.124	1.38
880.86	2.38
881.597	0.38
882.333	0.38
883.069	-1.62
883.806	-0.62
884.542	0.38
885.278	2.38
886.014	1.38
886.749	0.38
887.485	1.38
888.221	-1.62
888.957	1.38
889.692	-0.62
890.428	0.38
891.163	2.38
891.899	-0.62
892.634	1.38
893.369	1.38
894.104	0.38
894.839	1.38
895.574	1.38
896.309	0.38
897.044	-1.62
897.779	-1.62
898.514	2.38
899.248	-1.62
899.983	0.38
900.717	-0.62
901.452	0.38
902.186	1.38
902.92	0.38
903.654	-0.62
904.389	-0.62
905.123	0.38
905.857	0.38
906.59	2.38
907.324	2.38
908.058	1.38
908.792	-0.62
909.525	3.38
910.259	1.38
910.992	2.38
911.726	0.38
912.459	-0.62
913.192	1.38
913.925	0.38
914.658	0.38
915.391	-1.62
916.124	0.38
916.857	0.38
917.59	1.38
918.323	0.38
919.055	-0.62
919.788	0.38
920.521	0.38
921.253	-0.62
921.985	0.38
922.718	-2.62
923.45	1.38
924.182	-1.62
924.914	0.38
925.646	1.38
926.378	-0.62
927.11	1.38
927.841	-2.62
928.573	1.38
929.305	-0.62
930.036	-0.62
930.768	-0.62
931.499	-1.62
932.23	0.38
932.962	1.38
933.693	-0.62
934.424	1.38
935.155	0.38
935.886	2.38
936.617	1.38
937.348	0.38
938.078	-1.62
938.809	1.38
939.54	-0.62
940.27	-0.62
941.001	1.38
941.731	1.38
942.461	0.38
943.191	-0.62
943.922	-0.62
944.652	-0.62
945.382	0.38
946.112	1.38
946.841	-1.62
947.571	-0.62
948.301	1.38
949.031	-0.62
949.76	0.38
950.49	1.38
951.219	0.38
951.948	0.38
952.678	-0.62
953.407	1.38
954.136	-0.62
954.865	-1.62
955.594	1.38
956.323	2.38
957.052	-0.62
957.78	0.38
958.509	0.38
959.238	2.38
959.966	-1.62
960.695	0.38
961.423	1.38
962.151	-1.62
962.88	2.38
963.608	-0.62
964.336	0.38
965.064	0.38
965.792	0.38
966.52	-1.62
967.247	-1.62
967.975	0.38
968.703	-0.62
969.43	0.38
970.158	0.38
970.885	-1.62
971.613	0.38
972.34	1.38
973.067	2.38
973.794	-0.62
974.521	1.38
975.248	1.38
975.975	0.38
976.702	0.38
977.429	-0.62
978.156	2.38
978.882	1.38
979.609	1.38
980.335	0.38
981.062	-0.62
981.788	-0.62
982.514	1.38
983.24	4.38
983.967	-1.62
984.693	1.38
985.419	-0.62
986.144	-0.62
986.87	2.38
987.596	-0.62
988.322	0.38
989.047	1.38
989.773	-1.62
990.498	-1.62
991.224	1.38
991.949	1.38
992.674	-0.62
993.399	-2.62
994.124	-1.62
994.849	1.38
995.574	-0.62
996.299	2.38
997.024	0.38
997.749	-2.62
998.473	1.38
999.198	0.38
999.922	0.38
1000.647	0.38
1001.371	5.38
1002.095	1.38
1002.82	-3.62
1003.544	0.38
1004.268	2.38
1004.992	0.38
1005.716	-2.62
1006.439	1.38
1007.163	0.38
1007.887	1.38
1008.611	0.38
1009.334	1.38
1010.058	1.38
1010.781	0.38
1011.504	3.38
1012.228	2.38
1012.951	-0.62
1013.674	-1.62
1014.397	0.38
1015.12	-1.62
