节点500_145_QEPB04081__359__11-34-41-561.txt的数据

Date: Wed Nov 12 11:34:41 CST 2025
User: PC
Spectrometer: QEPB0408
触发模式: 0
积分时间 (秒): 1.000000E-2
Scans to average: 1
启用暗噪声校正: true
启用非线性校正: false
滑动平均宽度: 0
X轴模式: Wavelengths
Number of Pixels in Spectrum: 1044
>>>>>Begin Spectral Data<<<<<
220.843	0.62
221.644	0.62
222.444	0.62
223.244	-2.38
224.045	-2.38
224.845	-0.38
225.645	-1.38
226.445	0.62
227.245	-0.38
228.045	-1.38
228.845	0.62
229.645	0.62
230.444	1.62
231.244	0.62
232.043	1.62
232.843	0.62
233.642	0.62
234.442	1.62
235.241	1.62
236.04	0.62
236.839	0.62
237.638	2.62
238.437	-1.38
239.236	0.62
240.035	3.62
240.833	-0.38
241.632	1.62
242.43	0.62
243.229	-0.38
244.027	2.62
244.826	0.62
245.624	1.62
246.422	3.62
247.22	2.62
248.018	0.62
248.816	0.62
249.614	3.62
250.412	0.62
251.21	2.62
252.007	0.62
252.805	0.62
253.602	2.62
254.4	5.62
255.197	0.62
255.994	2.62
256.791	4.62
257.589	3.62
258.386	4.62
259.183	4.62
259.979	4.62
260.776	4.62
261.573	0.62
262.37	5.62
263.166	2.62
263.963	4.62
264.759	4.62
265.556	5.62
266.352	5.62
267.148	4.62
267.944	6.62
268.74	4.62
269.536	5.62
270.332	7.62
271.128	5.62
271.924	8.62
272.719	7.62
273.515	6.62
274.311	7.62
275.106	5.62
275.901	8.62
276.697	8.62
277.492	7.62
278.287	8.62
279.082	7.62
279.877	9.62
280.672	9.62
281.467	8.62
282.262	9.62
283.056	8.62
283.851	7.62
284.646	11.62
285.44	8.62
286.234	9.62
287.029	9.62
287.823	8.62
288.617	10.62
289.411	11.62
290.205	9.62
290.999	9.62
291.793	10.62
292.587	8.62
293.381	11.62
294.174	11.62
294.968	7.62
295.761	9.62
296.555	6.62
297.348	8.62
298.141	6.62
298.935	9.62
299.728	9.62
300.521	8.62
301.314	8.62
302.107	5.62
302.899	8.62
303.692	7.62
304.485	6.62
305.277	7.62
306.07	7.62
306.862	5.62
307.655	5.62
308.447	8.62
309.239	8.62
310.031	7.62
310.823	7.62
311.615	5.62
312.407	6.62
313.199	4.62
313.991	4.62
314.783	5.62
315.574	3.62
316.366	6.62
317.157	7.62
317.949	6.62
318.74	4.62
319.531	6.62
320.322	5.62
321.113	4.62
321.904	4.62
322.695	3.62
323.486	2.62
324.277	5.62
325.068	2.62
325.858	3.62
326.649	3.62
327.439	5.62
328.23	3.62
329.02	3.62
329.81	3.62
330.6	1.62
331.391	3.62
332.181	2.62
332.971	2.62
333.76	3.62
334.55	4.62
335.34	1.62
336.13	1.62
336.919	4.62
337.709	2.62
338.498	4.62
339.287	3.62
340.077	2.62
340.866	3.62
341.655	2.62
342.444	4.62
343.233	3.62
344.022	3.62
344.811	1.62
345.6	2.62
346.388	0.62
347.177	4.62
347.965	2.62
348.754	1.62
349.542	2.62
350.33	2.62
351.119	2.62
351.907	0.62
352.695	3.62
353.483	2.62
354.271	0.62
355.059	2.62
355.846	1.62
356.634	4.62
357.422	2.62
358.209	1.62
358.997	4.62
359.784	2.62
360.571	1.62
361.359	0.62
362.146	2.62
362.933	1.62
363.72	2.62
364.507	4.62
365.294	3.62
366.081	1.62
366.867	2.62
367.654	1.62
368.44	1.62
369.227	0.62
370.013	1.62
370.8	1.62
371.586	1.62
372.372	1.62
373.158	2.62
373.944	2.62
374.73	2.62
375.516	4.62
376.302	1.62
377.088	1.62
377.873	2.62
378.659	1.62
379.445	1.62
380.23	1.62
381.015	0.62
381.801	0.62
382.586	0.62
383.371	2.62
384.156	1.62
384.941	0.62
385.726	1.62
386.511	2.62
387.296	2.62
388.08	0.62
388.865	2.62
389.649	3.62
390.434	2.62
391.218	-0.38
392.003	3.62
392.787	2.62
393.571	4.62
394.355	2.62
395.139	1.62
395.923	3.62
396.707	2.62
397.491	2.62
398.274	1.62
399.058	0.62
399.842	4.62
400.625	1.62
401.408	4.62
402.192	3.62
402.975	4.62
403.758	1.62
404.541	4.62
405.324	3.62
406.107	2.62
406.89	2.62
407.673	1.62
408.456	1.62
409.238	4.62
410.021	2.62
410.803	5.62
411.586	2.62
412.368	3.62
413.151	3.62
413.933	2.62
414.715	4.62
415.497	4.62
416.279	5.62
417.061	3.62
417.843	3.62
418.624	4.62
419.406	4.62
420.188	4.62
420.969	1.62
421.751	3.62
422.532	4.62
423.313	6.62
424.095	4.62
424.876	4.62
425.657	4.62
426.438	6.62
427.219	4.62
428	4.62
428.78	6.62
429.561	3.62
430.342	6.62
431.122	5.62
431.903	7.62
432.683	7.62
433.464	5.62
434.244	9.62
435.024	7.62
435.804	7.62
436.584	13.62
437.364	10.62
438.144	7.62
438.924	10.62
439.704	10.62
440.483	11.62
441.263	12.62
442.042	12.62
442.822	11.62
443.601	12.62
444.38	10.62
445.16	14.62
445.939	14.62
446.718	20.62
447.497	16.62
448.276	18.62
449.054	21.62
449.833	18.62
450.612	23.62
451.391	26.62
452.169	27.62
452.948	28.62
453.726	32.62
454.504	40.62
455.282	39.62
456.061	45.62
456.839	50.62
457.617	52.62
458.395	64.62
459.172	67.62
459.95	74.62
460.728	83.62
461.506	91.62
462.283	104.62
463.061	116.62
463.838	128.62
464.615	140.62
465.393	162.62
466.17	177.62
466.947	199.62
467.724	215.62
468.501	250.62
469.278	274.62
470.055	306.62
470.831	348.62
471.608	381.62
472.385	422.62
473.161	470.62
473.938	516.62
474.714	569.62
475.49	627.62
476.266	706.62
477.043	772.62
477.819	861.62
478.595	943.62
479.371	1055.62
480.146	1158.62
480.922	1273.62
481.698	1400.62
482.473	1539.62
483.249	1702.62
484.024	1861.62
484.8	2059.62
485.575	2247.62
486.35	2474.62
487.126	2735.62
487.901	3010.62
488.676	3303.62
489.451	3670.62
490.225	4016.62
491	4381.62
491.775	4810.62
492.55	5250.62
493.324	5750.62
494.099	6281.62
494.873	6871.62
495.647	7428.62
496.422	8103.62
497.196	8818.62
497.97	9474.62
498.744	10135.62
499.518	10905.62
500.292	11587.62
501.066	12380.62
501.839	13012.62
502.613	13621.62
503.387	14263.62
504.16	14846.62
504.934	15323.62
505.707	15651.62
506.48	15911.62
507.253	16128.62
508.027	16291.62
508.8	16240.62
509.573	16131.62
510.346	15865.62
511.118	15558.62
511.891	15219.62
512.664	14792.62
513.437	14351.62
514.209	13809.62
514.982	13319.62
515.754	12714.62
516.526	12244.62
517.298	11697.62
518.071	11123.62
518.843	10671.62
519.615	10201.62
520.387	9775.62
521.159	9423.62
521.93	9064.62
522.702	8677.62
523.474	8391.62
524.245	7992.62
525.017	7696.62
525.788	7388.62
526.56	7076.62
527.331	6811.62
528.102	6488.62
528.873	6238.62
529.644	5962.62
530.415	5656.62
531.186	5391.62
531.957	5134.62
532.728	4904.62
533.498	4595.62
534.269	4372.62
535.039	4141.62
535.81	3917.62
536.58	3687.62
537.351	3502.62
538.121	3295.62
538.891	3107.62
539.661	2949.62
540.431	2792.62
541.201	2639.62
541.971	2506.62
542.741	2367.62
543.51	2234.62
544.28	2133.62
545.05	2045.62
545.819	1921.62
546.588	1844.62
547.358	1731.62
548.127	1652.62
548.896	1577.62
549.665	1492.62
550.434	1421.62
551.203	1336.62
551.972	1270.62
552.741	1206.62
553.51	1149.62
554.278	1084.62
555.047	1024.62
555.815	969.62
556.584	906.62
557.352	855.62
558.121	805.62
558.889	756.62
559.657	719.62
560.425	672.62
561.193	646.62
561.961	597.62
562.729	564.62
563.496	536.62
564.264	506.62
565.032	480.62
565.799	453.62
566.567	429.62
567.334	408.62
568.101	373.62
568.869	359.62
569.636	336.62
570.403	318.62
571.17	292.62
571.937	282.62
572.704	272.62
573.471	249.62
574.237	246.62
575.004	231.62
575.771	209.62
576.537	196.62
577.303	188.62
578.07	177.62
578.836	167.62
579.602	155.62
580.368	148.62
581.134	144.62
581.9	137.62
582.666	128.62
583.432	118.62
584.198	113.62
584.964	104.62
585.729	99.62
586.495	99.62
587.26	87.62
588.025	84.62
588.791	82.62
589.556	76.62
590.321	71.62
591.086	65.62
591.851	61.62
592.616	59.62
593.381	61.62
594.146	52.62
594.911	55.62
595.675	46.62
596.44	48.62
597.204	45.62
597.969	43.62
598.733	47.62
599.497	41.62
600.261	38.62
601.025	35.62
601.79	32.62
602.553	31.62
603.317	32.62
604.081	29.62
604.845	28.62
605.609	28.62
606.372	26.62
607.136	23.62
607.899	26.62
608.662	23.62
609.426	20.62
610.189	19.62
610.952	18.62
611.715	21.62
612.478	15.62
613.241	18.62
614.004	17.62
614.767	13.62
615.529	13.62
616.292	14.62
617.055	14.62
617.817	14.62
618.579	14.62
619.342	10.62
620.104	11.62
620.866	10.62
621.628	10.62
622.39	10.62
623.152	12.62
623.914	11.62
624.676	9.62
625.438	10.62
626.199	8.62
626.961	7.62
627.722	7.62
628.484	9.62
629.245	9.62
630.006	6.62
630.768	6.62
631.529	7.62
632.29	7.62
633.051	8.62
633.812	6.62
634.573	6.62
635.333	5.62
636.094	6.62
636.855	5.62
637.615	4.62
638.376	5.62
639.136	3.62
639.896	4.62
640.657	5.62
641.417	5.62
642.177	4.62
642.937	4.62
643.697	6.62
644.457	2.62
645.216	4.62
645.976	5.62
646.736	4.62
647.495	3.62
648.255	3.62
649.014	6.62
649.774	-0.38
650.533	4.62
651.292	2.62
652.051	4.62
652.81	3.62
653.569	3.62
654.328	5.62
655.087	1.62
655.846	4.62
656.604	5.62
657.363	4.62
658.121	5.62
658.88	2.62
659.638	4.62
660.397	2.62
661.155	1.62
661.913	3.62
662.671	0.62
663.429	2.62
664.187	1.62
664.945	0.62
665.703	1.62
666.46	1.62
667.218	2.62
667.976	2.62
668.733	3.62
669.49	-0.38
670.248	3.62
671.005	2.62
671.762	1.62
672.519	4.62
673.276	0.62
674.033	1.62
674.79	4.62
675.547	-2.38
676.304	4.62
677.06	2.62
677.817	4.62
678.574	2.62
679.33	1.62
680.086	1.62
680.843	3.62
681.599	2.62
682.355	0.62
683.111	2.62
683.867	0.62
684.623	3.62
685.379	1.62
686.135	1.62
686.89	3.62
687.646	0.62
688.402	2.62
689.157	0.62
689.912	1.62
690.668	0.62
691.423	2.62
692.178	2.62
692.933	-0.38
693.688	0.62
694.443	1.62
695.198	-0.38
695.953	1.62
696.708	-0.38
697.462	0.62
698.217	2.62
698.972	2.62
699.726	-0.38
700.48	1.62
701.235	0.62
701.989	2.62
702.743	4.62
703.497	3.62
704.251	1.62
705.005	1.62
705.759	-0.38
706.513	0.62
707.266	1.62
708.02	2.62
708.774	-0.38
709.527	1.62
710.28	0.62
711.034	1.62
711.787	2.62
712.54	3.62
713.293	2.62
714.046	1.62
714.799	2.62
715.552	0.62
716.305	2.62
717.058	1.62
717.81	1.62
718.563	0.62
719.315	-0.38
720.068	3.62
720.82	2.62
721.573	1.62
722.325	4.62
723.077	0.62
723.829	1.62
724.581	0.62
725.333	3.62
726.085	-0.38
726.836	1.62
727.588	1.62
728.34	2.62
729.091	0.62
729.843	-0.38
730.594	0.62
731.346	2.62
732.097	1.62
732.848	2.62
733.599	0.62
734.35	0.62
735.101	0.62
735.852	1.62
736.603	1.62
737.354	1.62
738.104	0.62
738.855	3.62
739.605	1.62
740.356	2.62
741.106	2.62
741.856	1.62
742.607	0.62
743.357	1.62
744.107	2.62
744.857	0.62
745.607	0.62
746.357	3.62
747.106	3.62
747.856	1.62
748.606	2.62
749.355	1.62
750.105	2.62
750.854	0.62
751.603	0.62
752.353	3.62
753.102	1.62
753.851	3.62
754.6	1.62
755.349	3.62
756.098	1.62
756.847	2.62
757.595	1.62
758.344	2.62
759.093	0.62
759.841	4.62
760.589	2.62
761.338	1.62
762.086	2.62
762.834	1.62
763.582	3.62
764.331	2.62
765.079	1.62
765.826	3.62
766.574	1.62
767.322	2.62
768.07	3.62
768.817	4.62
769.565	2.62
770.312	2.62
771.06	3.62
771.807	2.62
772.554	1.62
773.302	3.62
774.049	3.62
774.796	6.62
775.543	3.62
776.29	4.62
777.036	1.62
777.783	3.62
778.53	2.62
779.276	6.62
780.023	4.62
780.769	3.62
781.516	2.62
782.262	3.62
783.008	4.62
783.754	5.62
784.5	2.62
785.246	5.62
785.992	1.62
786.738	4.62
787.484	3.62
788.23	2.62
788.975	3.62
789.721	5.62
790.466	4.62
791.212	3.62
791.957	4.62
792.702	6.62
793.447	4.62
794.193	4.62
794.938	5.62
795.683	5.62
796.427	3.62
797.172	3.62
797.917	4.62
798.662	2.62
799.406	2.62
800.151	4.62
800.895	4.62
801.64	2.62
802.384	2.62
803.128	4.62
803.872	3.62
804.616	4.62
805.36	3.62
806.104	3.62
806.848	1.62
807.592	4.62
808.336	3.62
809.079	1.62
809.823	2.62
810.566	1.62
811.31	5.62
812.053	2.62
812.796	2.62
813.539	3.62
814.283	2.62
815.026	2.62
815.769	0.62
816.511	1.62
817.254	2.62
817.997	2.62
818.74	2.62
819.482	2.62
820.225	3.62
820.967	0.62
821.71	2.62
822.452	1.62
823.194	1.62
823.936	3.62
824.678	1.62
825.42	2.62
826.162	4.62
826.904	3.62
827.646	2.62
828.388	4.62
829.129	1.62
829.871	2.62
830.612	1.62
831.354	1.62
832.095	2.62
832.836	0.62
833.577	1.62
834.319	1.62
835.06	0.62
835.801	1.62
836.542	1.62
837.282	2.62
838.023	2.62
838.764	4.62
839.504	0.62
840.245	1.62
840.985	3.62
841.726	0.62
842.466	2.62
843.206	1.62
843.946	1.62
844.687	1.62
845.427	2.62
846.166	1.62
846.906	1.62
847.646	1.62
848.386	0.62
849.125	1.62
849.865	1.62
850.605	-0.38
851.344	0.62
852.083	1.62
852.823	2.62
853.562	1.62
854.301	2.62
855.04	1.62
855.779	-0.38
856.518	3.62
857.257	1.62
857.995	0.62
858.734	1.62
859.473	1.62
860.211	1.62
860.95	2.62
861.688	0.62
862.426	1.62
863.165	-1.38
863.903	0.62
864.641	-2.38
865.379	1.62
866.117	0.62
866.855	1.62
867.593	1.62
868.33	0.62
869.068	-2.38
869.806	-2.38
870.543	1.62
871.28	0.62
872.018	1.62
872.755	0.62
873.492	-0.38
874.229	0.62
874.967	0.62
875.703	-0.38
876.44	-0.38
877.177	0.62
877.914	-1.38
878.651	-2.38
879.387	0.62
880.124	0.62
880.86	1.62
881.597	0.62
882.333	1.62
883.069	2.62
883.806	1.62
884.542	-0.38
885.278	0.62
886.014	0.62
886.749	-1.38
887.485	2.62
888.221	1.62
888.957	-0.38
889.692	0.62
890.428	0.62
891.163	0.62
891.899	-0.38
892.634	-0.38
893.369	0.62
894.104	1.62
894.839	1.62
895.574	-1.38
896.309	-1.38
897.044	-1.38
897.779	-1.38
898.514	1.62
899.248	-0.38
899.983	-0.38
900.717	-0.38
901.452	0.62
902.186	-1.38
902.92	-0.38
903.654	0.62
904.389	0.62
905.123	-0.38
905.857	-1.38
906.59	-0.38
907.324	-0.38
908.058	-1.38
908.792	-1.38
909.525	0.62
910.259	-0.38
910.992	-1.38
911.726	-1.38
912.459	-0.38
913.192	1.62
913.925	0.62
914.658	-1.38
915.391	0.62
916.124	1.62
916.857	0.62
917.59	-0.38
918.323	-0.38
919.055	-1.38
919.788	-1.38
920.521	0.62
921.253	-0.38
921.985	0.62
922.718	-0.38
923.45	0.62
924.182	1.62
924.914	-1.38
925.646	-1.38
926.378	-2.38
927.11	-1.38
927.841	-2.38
928.573	0.62
929.305	1.62
930.036	0.62
930.768	-0.38
931.499	0.62
932.23	0.62
932.962	-0.38
933.693	-1.38
934.424	-1.38
935.155	-1.38
935.886	-0.38
936.617	-0.38
937.348	-0.38
938.078	-0.38
938.809	1.62
939.54	-0.38
940.27	-2.38
941.001	0.62
941.731	2.62
942.461	-0.38
943.191	-0.38
943.922	-0.38
944.652	-2.38
945.382	-0.38
946.112	-1.38
946.841	-1.38
947.571	-0.38
948.301	-2.38
949.031	-0.38
949.76	0.62
950.49	-0.38
951.219	0.62
951.948	-2.38
952.678	-1.38
953.407	0.62
954.136	1.62
954.865	0.62
955.594	-2.38
956.323	1.62
957.052	-1.38
957.78	1.62
958.509	-0.38
959.238	-0.38
959.966	-0.38
960.695	-1.38
961.423	-1.38
962.151	1.62
962.88	-0.38
963.608	0.62
964.336	1.62
965.064	-0.38
965.792	-1.38
966.52	-1.38
967.247	-2.38
967.975	1.62
968.703	-1.38
969.43	1.62
970.158	0.62
970.885	-1.38
971.613	-1.38
972.34	-2.38
973.067	-0.38
973.794	-0.38
974.521	-2.38
975.248	-1.38
975.975	0.62
976.702	-1.38
977.429	2.62
978.156	-2.38
978.882	0.62
979.609	-2.38
980.335	-0.38
981.062	0.62
981.788	-1.38
982.514	-1.38
983.24	0.62
983.967	-2.38
984.693	1.62
985.419	-0.38
986.144	0.62
986.87	-2.38
987.596	-2.38
988.322	-0.38
989.047	-1.38
989.773	-2.38
990.498	0.62
991.224	-1.38
991.949	-0.38
992.674	-0.38
993.399	-0.38
994.124	-0.38
994.849	1.62
995.574	0.62
996.299	-0.38
997.024	1.62
997.749	0.62
998.473	-0.38
999.198	0.62
999.922	-1.38
1000.647	-1.38
1001.371	2.62
1002.095	0.62
1002.82	-2.38
1003.544	-2.38
1004.268	-0.38
1004.992	1.62
1005.716	-1.38
1006.439	-1.38
1007.163	-0.38
1007.887	0.62
1008.611	-0.38
1009.334	-0.38
1010.058	1.62
1010.781	1.62
1011.504	-1.38
1012.228	-0.38
1012.951	0.62
1013.674	-1.38
1014.397	0.62
1015.12	1.62
