节点500_145_QEPB04081__5__11-29-01-803.txt的数据

Date: Wed Nov 12 11:29:01 CST 2025
User: PC
Spectrometer: QEPB0408
触发模式: 0
积分时间 (秒): 1.000000E-2
Scans to average: 1
启用暗噪声校正: true
启用非线性校正: false
滑动平均宽度: 0
X轴模式: Wavelengths
Number of Pixels in Spectrum: 1044
>>>>>Begin Spectral Data<<<<<
220.843	-3.25
221.644	-2.25
222.444	-1.25
223.244	-0.25
224.045	-1.25
224.845	-2.25
225.645	1.75
226.445	-2.25
227.245	-4.25
228.045	-0.25
228.845	-2.25
229.645	-2.25
230.444	-0.25
231.244	-2.25
232.043	-1.25
232.843	-1.25
233.642	-1.25
234.442	0.75
235.241	1.75
236.04	-1.25
236.839	-0.25
237.638	-2.25
238.437	-0.25
239.236	-4.25
240.035	-2.25
240.833	-0.25
241.632	-1.25
242.43	-1.25
243.229	-2.25
244.027	-1.25
244.826	0.75
245.624	0.75
246.422	-0.25
247.22	-1.25
248.018	-3.25
248.816	0.75
249.614	1.75
250.412	-1.25
251.21	-0.25
252.007	0.75
252.805	-3.25
253.602	1.75
254.4	-1.25
255.197	-0.25
255.994	1.75
256.791	-0.25
257.589	0.75
258.386	-0.25
259.183	-0.25
259.979	-0.25
260.776	0.75
261.573	-0.25
262.37	2.75
263.166	-1.25
263.963	-0.25
264.759	-1.25
265.556	-0.25
266.352	-0.25
267.148	-0.25
267.944	-1.25
268.74	1.75
269.536	-1.25
270.332	-1.25
271.128	-1.25
271.924	1.75
272.719	-2.25
273.515	-0.25
274.311	0.75
275.106	0.75
275.901	0.75
276.697	0.75
277.492	-1.25
278.287	-1.25
279.082	-1.25
279.877	-1.25
280.672	-3.25
281.467	0.75
282.262	-3.25
283.056	0.75
283.851	-1.25
284.646	-1.25
285.44	-3.25
286.234	-1.25
287.029	-1.25
287.823	1.75
288.617	-2.25
289.411	-1.25
290.205	-1.25
290.999	-0.25
291.793	-1.25
292.587	0.75
293.381	0.75
294.174	0.75
294.968	-1.25
295.761	-1.25
296.555	-0.25
297.348	-1.25
298.141	-1.25
298.935	0.75
299.728	0.75
300.521	-0.25
301.314	-3.25
302.107	-1.25
302.899	-1.25
303.692	-0.25
304.485	-1.25
305.277	-1.25
306.07	-1.25
306.862	-0.25
307.655	-0.25
308.447	0.75
309.239	-1.25
310.031	-0.25
310.823	-0.25
311.615	-1.25
312.407	-1.25
313.199	-0.25
313.991	0.75
314.783	-1.25
315.574	-1.25
316.366	-1.25
317.157	0.75
317.949	-2.25
318.74	-0.25
319.531	-0.25
320.322	-0.25
321.113	0.75
321.904	-2.25
322.695	0.75
323.486	0.75
324.277	-0.25
325.068	-1.25
325.858	-1.25
326.649	-1.25
327.439	-0.25
328.23	1.75
329.02	-3.25
329.81	0.75
330.6	-1.25
331.391	-1.25
332.181	-1.25
332.971	-1.25
333.76	-1.25
334.55	-1.25
335.34	1.75
336.13	-0.25
336.919	0.75
337.709	-1.25
338.498	-0.25
339.287	0.75
340.077	0.75
340.866	-0.25
341.655	0.75
342.444	-0.25
343.233	-0.25
344.022	-2.25
344.811	0.75
345.6	1.75
346.388	-0.25
347.177	1.75
347.965	0.75
348.754	-0.25
349.542	-1.25
350.33	-0.25
351.119	1.75
351.907	-1.25
352.695	-1.25
353.483	-2.25
354.271	1.75
355.059	1.75
355.846	0.75
356.634	1.75
357.422	0.75
358.209	0.75
358.997	-1.25
359.784	1.75
360.571	-0.25
361.359	-0.25
362.146	-1.25
362.933	0.75
363.72	0.75
364.507	-0.25
365.294	1.75
366.081	0.75
366.867	0.75
367.654	-1.25
368.44	1.75
369.227	1.75
370.013	0.75
370.8	-0.25
371.586	-1.25
372.372	1.75
373.158	1.75
373.944	2.75
374.73	-1.25
375.516	-0.25
376.302	2.75
377.088	-0.25
377.873	-1.25
378.659	0.75
379.445	-2.25
380.23	-1.25
381.015	-0.25
381.801	1.75
382.586	1.75
383.371	0.75
384.156	3.75
384.941	0.75
385.726	0.75
386.511	-0.25
387.296	1.75
388.08	-2.25
388.865	0.75
389.649	1.75
390.434	-1.25
391.218	-1.25
392.003	1.75
392.787	-1.25
393.571	0.75
394.355	-2.25
395.139	-1.25
395.923	-1.25
396.707	-1.25
397.491	-2.25
398.274	0.75
399.058	-1.25
399.842	0.75
400.625	0.75
401.408	1.75
402.192	0.75
402.975	-0.25
403.758	-0.25
404.541	0.75
405.324	0.75
406.107	0.75
406.89	0.75
407.673	-1.25
408.456	2.75
409.238	-0.25
410.021	0.75
410.803	0.75
411.586	-0.25
412.368	1.75
413.151	-0.25
413.933	0.75
414.715	0.75
415.497	-0.25
416.279	0.75
417.061	2.75
417.843	1.75
418.624	0.75
419.406	1.75
420.188	0.75
420.969	0.75
421.751	0.75
422.532	1.75
423.313	1.75
424.095	0.75
424.876	0.75
425.657	-1.25
426.438	1.75
427.219	-1.25
428	0.75
428.78	2.75
429.561	-1.25
430.342	0.75
431.122	1.75
431.903	0.75
432.683	-1.25
433.464	-0.25
434.244	1.75
435.024	-0.25
435.804	1.75
436.584	0.75
437.364	-1.25
438.144	0.75
438.924	-0.25
439.704	0.75
440.483	-1.25
441.263	1.75
442.042	0.75
442.822	-0.25
443.601	0.75
444.38	-1.25
445.16	2.75
445.939	2.75
446.718	0.75
447.497	-0.25
448.276	-1.25
449.054	-1.25
449.833	0.75
450.612	1.75
451.391	-1.25
452.169	2.75
452.948	0.75
453.726	-2.25
454.504	0.75
455.282	-0.25
456.061	1.75
456.839	0.75
457.617	-0.25
458.395	1.75
459.172	-0.25
459.95	1.75
460.728	-1.25
461.506	0.75
462.283	-0.25
463.061	-2.25
463.838	1.75
464.615	0.75
465.393	1.75
466.17	-0.25
466.947	2.75
467.724	-0.25
468.501	-2.25
469.278	1.75
470.055	-0.25
470.831	1.75
471.608	0.75
472.385	1.75
473.161	0.75
473.938	-0.25
474.714	0.75
475.49	-2.25
476.266	-0.25
477.043	0.75
477.819	2.75
478.595	-0.25
479.371	0.75
480.146	0.75
480.922	-0.25
481.698	-0.25
482.473	-1.25
483.249	1.75
484.024	1.75
484.8	-1.25
485.575	1.75
486.35	-1.25
487.126	0.75
487.901	0.75
488.676	-0.25
489.451	-1.25
490.225	-0.25
491	0.75
491.775	-1.25
492.55	1.75
493.324	0.75
494.099	0.75
494.873	-1.25
495.647	0.75
496.422	0.75
497.196	1.75
497.97	-0.25
498.744	-0.25
499.518	2.75
500.292	-0.25
501.066	1.75
501.839	-0.25
502.613	0.75
503.387	0.75
504.16	-1.25
504.934	-0.25
505.707	0.75
506.48	-1.25
507.253	-1.25
508.027	-0.25
508.8	1.75
509.573	2.75
510.346	-0.25
511.118	1.75
511.891	-0.25
512.664	0.75
513.437	-0.25
514.209	0.75
514.982	0.75
515.754	0.75
516.526	2.75
517.298	-0.25
518.071	-0.25
518.843	-0.25
519.615	-0.25
520.387	-1.25
521.159	0.75
521.93	2.75
522.702	-0.25
523.474	1.75
524.245	2.75
525.017	0.75
525.788	1.75
526.56	0.75
527.331	0.75
528.102	-0.25
528.873	2.75
529.644	0.75
530.415	0.75
531.186	0.75
531.957	-1.25
532.728	2.75
533.498	-0.25
534.269	1.75
535.039	-0.25
535.81	-1.25
536.58	1.75
537.351	-0.25
538.121	0.75
538.891	0.75
539.661	0.75
540.431	-0.25
541.201	-1.25
541.971	-0.25
542.741	0.75
543.51	-1.25
544.28	0.75
545.05	-0.25
545.819	1.75
546.588	-1.25
547.358	-0.25
548.127	0.75
548.896	1.75
549.665	0.75
550.434	0.75
551.203	1.75
551.972	2.75
552.741	1.75
553.51	0.75
554.278	-1.25
555.047	-0.25
555.815	0.75
556.584	1.75
557.352	1.75
558.121	0.75
558.889	-0.25
559.657	-0.25
560.425	1.75
561.193	1.75
561.961	1.75
562.729	-1.25
563.496	1.75
564.264	1.75
565.032	2.75
565.799	1.75
566.567	0.75
567.334	0.75
568.101	0.75
568.869	0.75
569.636	0.75
570.403	1.75
571.17	0.75
571.937	0.75
572.704	0.75
573.471	-0.25
574.237	-0.25
575.004	2.75
575.771	0.75
576.537	2.75
577.303	-0.25
578.07	1.75
578.836	-0.25
579.602	2.75
580.368	0.75
581.134	1.75
581.9	-1.25
582.666	1.75
583.432	0.75
584.198	1.75
584.964	-0.25
585.729	1.75
586.495	0.75
587.26	2.75
588.025	0.75
588.791	1.75
589.556	1.75
590.321	1.75
591.086	0.75
591.851	0.75
592.616	0.75
593.381	1.75
594.146	1.75
594.911	0.75
595.675	0.75
596.44	1.75
597.204	0.75
597.969	1.75
598.733	-1.25
599.497	1.75
600.261	-1.25
601.025	-1.25
601.79	0.75
602.553	0.75
603.317	-0.25
604.081	1.75
604.845	-0.25
605.609	0.75
606.372	1.75
607.136	-0.25
607.899	-0.25
608.662	0.75
609.426	-0.25
610.189	1.75
610.952	-0.25
611.715	-1.25
612.478	1.75
613.241	0.75
614.004	-0.25
614.767	-0.25
615.529	1.75
616.292	2.75
617.055	1.75
617.817	-1.25
618.579	-1.25
619.342	1.75
620.104	0.75
620.866	1.75
621.628	0.75
622.39	0.75
623.152	2.75
623.914	2.75
624.676	0.75
625.438	0.75
626.199	0.75
626.961	0.75
627.722	-2.25
628.484	2.75
629.245	-0.25
630.006	0.75
630.768	-0.25
631.529	0.75
632.29	1.75
633.051	1.75
633.812	-1.25
634.573	-1.25
635.333	-1.25
636.094	1.75
636.855	0.75
637.615	1.75
638.376	-1.25
639.136	1.75
639.896	-0.25
640.657	-0.25
641.417	-0.25
642.177	0.75
642.937	-0.25
643.697	-1.25
644.457	2.75
645.216	-0.25
645.976	-0.25
646.736	-0.25
647.495	-0.25
648.255	3.75
649.014	-2.25
649.774	1.75
650.533	-1.25
651.292	-2.25
652.051	-0.25
652.81	0.75
653.569	-0.25
654.328	-0.25
655.087	1.75
655.846	-1.25
656.604	1.75
657.363	1.75
658.121	0.75
658.88	1.75
659.638	0.75
660.397	3.75
661.155	1.75
661.913	0.75
662.671	1.75
663.429	0.75
664.187	-1.25
664.945	-1.25
665.703	1.75
666.46	0.75
667.218	0.75
667.976	1.75
668.733	-1.25
669.49	2.75
670.248	-1.25
671.005	0.75
671.762	2.75
672.519	-1.25
673.276	-0.25
674.033	0.75
674.79	1.75
675.547	-1.25
676.304	2.75
677.06	-0.25
677.817	-0.25
678.574	1.75
679.33	1.75
680.086	0.75
680.843	0.75
681.599	0.75
682.355	0.75
683.111	0.75
683.867	0.75
684.623	-1.25
685.379	2.75
686.135	-0.25
686.89	0.75
687.646	1.75
688.402	1.75
689.157	0.75
689.912	-1.25
690.668	0.75
691.423	-0.25
692.178	1.75
692.933	-0.25
693.688	-2.25
694.443	1.75
695.198	1.75
695.953	0.75
696.708	0.75
697.462	-1.25
698.217	0.75
698.972	0.75
699.726	2.75
700.48	-1.25
701.235	0.75
701.989	-0.25
702.743	-1.25
703.497	2.75
704.251	-0.25
705.005	0.75
705.759	-0.25
706.513	2.75
707.266	-0.25
708.02	1.75
708.774	1.75
709.527	0.75
710.28	0.75
711.034	-2.25
711.787	-0.25
712.54	0.75
713.293	-1.25
714.046	-1.25
714.799	1.75
715.552	2.75
716.305	1.75
717.058	-0.25
717.81	-1.25
718.563	0.75
719.315	0.75
720.068	-1.25
720.82	0.75
721.573	0.75
722.325	0.75
723.077	1.75
723.829	2.75
724.581	1.75
725.333	-1.25
726.085	0.75
726.836	1.75
727.588	-1.25
728.34	1.75
729.091	0.75
729.843	-0.25
730.594	1.75
731.346	-0.25
732.097	2.75
732.848	0.75
733.599	0.75
734.35	0.75
735.101	-1.25
735.852	0.75
736.603	0.75
737.354	0.75
738.104	-0.25
738.855	1.75
739.605	0.75
740.356	0.75
741.106	1.75
741.856	1.75
742.607	2.75
743.357	0.75
744.107	1.75
744.857	-2.25
745.607	1.75
746.357	0.75
747.106	1.75
747.856	1.75
748.606	1.75
749.355	1.75
750.105	-1.25
750.854	-1.25
751.603	1.75
752.353	0.75
753.102	1.75
753.851	1.75
754.6	0.75
755.349	1.75
756.098	-0.25
756.847	-1.25
757.595	-0.25
758.344	-0.25
759.093	-0.25
759.841	0.75
760.589	1.75
761.338	-1.25
762.086	1.75
762.834	1.75
763.582	1.75
764.331	-0.25
765.079	-1.25
765.826	0.75
766.574	1.75
767.322	0.75
768.07	-0.25
768.817	-1.25
769.565	-0.25
770.312	0.75
771.06	-0.25
771.807	-0.25
772.554	2.75
773.302	-1.25
774.049	1.75
774.796	0.75
775.543	-0.25
776.29	1.75
777.036	-0.25
777.783	0.75
778.53	1.75
779.276	0.75
780.023	0.75
780.769	-1.25
781.516	-1.25
782.262	1.75
783.008	-1.25
783.754	2.75
784.5	1.75
785.246	-0.25
785.992	-0.25
786.738	0.75
787.484	-1.25
788.23	1.75
788.975	0.75
789.721	-1.25
790.466	1.75
791.212	0.75
791.957	1.75
792.702	1.75
793.447	0.75
794.193	-1.25
794.938	0.75
795.683	-0.25
796.427	-1.25
797.172	0.75
797.917	0.75
798.662	1.75
799.406	1.75
800.151	0.75
800.895	2.75
801.64	1.75
802.384	-0.25
803.128	2.75
803.872	0.75
804.616	1.75
805.36	-1.25
806.104	1.75
806.848	-0.25
807.592	0.75
808.336	-2.25
809.079	-0.25
809.823	-1.25
810.566	-1.25
811.31	1.75
812.053	-0.25
812.796	2.75
813.539	-0.25
814.283	1.75
815.026	-0.25
815.769	0.75
816.511	1.75
817.254	1.75
817.997	0.75
818.74	0.75
819.482	0.75
820.225	0.75
820.967	1.75
821.71	1.75
822.452	2.75
823.194	0.75
823.936	3.75
824.678	-0.25
825.42	-0.25
826.162	-0.25
826.904	1.75
827.646	-0.25
828.388	1.75
829.129	0.75
829.871	1.75
830.612	1.75
831.354	-1.25
832.095	0.75
832.836	-0.25
833.577	1.75
834.319	0.75
835.06	-1.25
835.801	1.75
836.542	-1.25
837.282	0.75
838.023	0.75
838.764	1.75
839.504	-0.25
840.245	1.75
840.985	0.75
841.726	1.75
842.466	2.75
843.206	2.75
843.946	-2.25
844.687	-0.25
845.427	-3.25
846.166	-0.25
846.906	-0.25
847.646	0.75
848.386	-0.25
849.125	0.75
849.865	0.75
850.605	-1.25
851.344	1.75
852.083	-0.25
852.823	0.75
853.562	-1.25
854.301	-3.25
855.04	0.75
855.779	-0.25
856.518	2.75
857.257	1.75
857.995	-0.25
858.734	0.75
859.473	-0.25
860.211	-0.25
860.95	-0.25
861.688	1.75
862.426	0.75
863.165	-0.25
863.903	1.75
864.641	-0.25
865.379	2.75
866.117	-0.25
866.855	1.75
867.593	-1.25
868.33	-0.25
869.068	1.75
869.806	0.75
870.543	2.75
871.28	0.75
872.018	-1.25
872.755	-1.25
873.492	0.75
874.229	1.75
874.967	1.75
875.703	0.75
876.44	-0.25
877.177	2.75
877.914	-0.25
878.651	-0.25
879.387	1.75
880.124	-0.25
880.86	-0.25
881.597	0.75
882.333	0.75
883.069	0.75
883.806	-1.25
884.542	0.75
885.278	0.75
886.014	1.75
886.749	0.75
887.485	2.75
888.221	-1.25
888.957	2.75
889.692	-0.25
890.428	0.75
891.163	1.75
891.899	0.75
892.634	1.75
893.369	0.75
894.104	0.75
894.839	0.75
895.574	-1.25
896.309	2.75
897.044	2.75
897.779	1.75
898.514	1.75
899.248	0.75
899.983	0.75
900.717	2.75
901.452	0.75
902.186	-1.25
902.92	1.75
903.654	-0.25
904.389	-0.25
905.123	1.75
905.857	-1.25
906.59	-0.25
907.324	1.75
908.058	0.75
908.792	1.75
909.525	1.75
910.259	-0.25
910.992	-0.25
911.726	1.75
912.459	-0.25
913.192	-1.25
913.925	-1.25
914.658	1.75
915.391	0.75
916.124	-0.25
916.857	1.75
917.59	0.75
918.323	-0.25
919.055	0.75
919.788	0.75
920.521	0.75
921.253	1.75
921.985	1.75
922.718	1.75
923.45	1.75
924.182	0.75
924.914	1.75
925.646	0.75
926.378	0.75
927.11	-1.25
927.841	1.75
928.573	-0.25
929.305	1.75
930.036	0.75
930.768	1.75
931.499	1.75
932.23	0.75
932.962	-1.25
933.693	0.75
934.424	2.75
935.155	0.75
935.886	-1.25
936.617	-1.25
937.348	-1.25
938.078	-1.25
938.809	0.75
939.54	-0.25
940.27	0.75
941.001	2.75
941.731	0.75
942.461	2.75
943.191	0.75
943.922	0.75
944.652	0.75
945.382	1.75
946.112	2.75
946.841	-0.25
947.571	-1.25
948.301	0.75
949.031	0.75
949.76	-0.25
950.49	0.75
951.219	0.75
951.948	1.75
952.678	-0.25
953.407	2.75
954.136	-0.25
954.865	2.75
955.594	0.75
956.323	-1.25
957.052	1.75
957.78	1.75
958.509	1.75
959.238	1.75
959.966	2.75
960.695	-1.25
961.423	2.75
962.151	-1.25
962.88	0.75
963.608	1.75
964.336	-0.25
965.064	1.75
965.792	1.75
966.52	0.75
967.247	0.75
967.975	1.75
968.703	1.75
969.43	1.75
970.158	-1.25
970.885	1.75
971.613	-1.25
972.34	0.75
973.067	0.75
973.794	1.75
974.521	0.75
975.248	-0.25
975.975	-0.25
976.702	0.75
977.429	2.75
978.156	0.75
978.882	2.75
979.609	1.75
980.335	0.75
981.062	-0.25
981.788	1.75
982.514	-0.25
983.24	-0.25
983.967	0.75
984.693	-0.25
985.419	1.75
986.144	0.75
986.87	0.75
987.596	-0.25
988.322	0.75
989.047	-0.25
989.773	1.75
990.498	-0.25
991.224	0.75
991.949	0.75
992.674	0.75
993.399	0.75
994.124	0.75
994.849	0.75
995.574	-1.25
996.299	1.75
997.024	-0.25
997.749	0.75
998.473	1.75
999.198	1.75
999.922	-0.25
1000.647	0.75
1001.371	2.75
1002.095	-0.25
1002.82	-2.25
1003.544	-1.25
1004.268	-0.25
1004.992	-0.25
1005.716	1.75
1006.439	-0.25
1007.163	-0.25
1007.887	-1.25
1008.611	1.75
1009.334	-0.25
1010.058	-1.25
1010.781	-0.25
1011.504	1.75
1012.228	1.75
1012.951	0.75
1013.674	0.75
1014.397	0.75
1015.12	-1.25
