节点500_145_QEPB04081__198__11-32-07-513.txt的数据

Date: Wed Nov 12 11:32:07 CST 2025
User: PC
Spectrometer: QEPB0408
触发模式: 0
积分时间 (秒): 1.000000E-2
Scans to average: 1
启用暗噪声校正: true
启用非线性校正: false
滑动平均宽度: 0
X轴模式: Wavelengths
Number of Pixels in Spectrum: 1044
>>>>>Begin Spectral Data<<<<<
220.843	-1.12
221.644	-2.12
222.444	-2.12
223.244	-2.12
224.045	-2.12
224.845	-1.12
225.645	-1.12
226.445	-1.12
227.245	-0.12
228.045	-1.12
228.845	-0.12
229.645	0.88
230.444	-2.12
231.244	-1.12
232.043	-1.12
232.843	-3.12
233.642	-0.12
234.442	-0.12
235.241	-0.12
236.04	-2.12
236.839	-1.12
237.638	-0.12
238.437	-0.12
239.236	-0.12
240.035	-1.12
240.833	-0.12
241.632	1.88
242.43	-0.12
243.229	0.88
244.027	0.88
244.826	1.88
245.624	0.88
246.422	-1.12
247.22	-0.12
248.018	1.88
248.816	-1.12
249.614	1.88
250.412	-1.12
251.21	3.88
252.007	0.88
252.805	1.88
253.602	2.88
254.4	1.88
255.197	-0.12
255.994	-0.12
256.791	1.88
257.589	2.88
258.386	1.88
259.183	2.88
259.979	4.88
260.776	2.88
261.573	2.88
262.37	2.88
263.166	4.88
263.963	2.88
264.759	6.88
265.556	5.88
266.352	3.88
267.148	3.88
267.944	4.88
268.74	6.88
269.536	1.88
270.332	6.88
271.128	4.88
271.924	6.88
272.719	7.88
273.515	5.88
274.311	6.88
275.106	8.88
275.901	6.88
276.697	8.88
277.492	9.88
278.287	5.88
279.082	9.88
279.877	7.88
280.672	9.88
281.467	8.88
282.262	8.88
283.056	8.88
283.851	9.88
284.646	10.88
285.44	10.88
286.234	8.88
287.029	9.88
287.823	12.88
288.617	9.88
289.411	9.88
290.205	6.88
290.999	9.88
291.793	10.88
292.587	8.88
293.381	6.88
294.174	8.88
294.968	6.88
295.761	6.88
296.555	8.88
297.348	5.88
298.141	7.88
298.935	8.88
299.728	7.88
300.521	11.88
301.314	7.88
302.107	8.88
302.899	7.88
303.692	7.88
304.485	6.88
305.277	5.88
306.07	5.88
306.862	7.88
307.655	6.88
308.447	4.88
309.239	5.88
310.031	7.88
310.823	5.88
311.615	5.88
312.407	4.88
313.199	4.88
313.991	4.88
314.783	4.88
315.574	3.88
316.366	3.88
317.157	2.88
317.949	3.88
318.74	3.88
319.531	3.88
320.322	3.88
321.113	2.88
321.904	4.88
322.695	3.88
323.486	2.88
324.277	3.88
325.068	1.88
325.858	3.88
326.649	2.88
327.439	2.88
328.23	-0.12
329.02	1.88
329.81	2.88
330.6	4.88
331.391	5.88
332.181	1.88
332.971	1.88
333.76	3.88
334.55	4.88
335.34	2.88
336.13	2.88
336.919	3.88
337.709	1.88
338.498	3.88
339.287	2.88
340.077	0.88
340.866	3.88
341.655	2.88
342.444	1.88
343.233	0.88
344.022	1.88
344.811	2.88
345.6	1.88
346.388	4.88
347.177	0.88
347.965	1.88
348.754	1.88
349.542	-2.12
350.33	3.88
351.119	0.88
351.907	1.88
352.695	2.88
353.483	-0.12
354.271	0.88
355.059	2.88
355.846	2.88
356.634	3.88
357.422	1.88
358.209	2.88
358.997	2.88
359.784	0.88
360.571	2.88
361.359	1.88
362.146	2.88
362.933	1.88
363.72	1.88
364.507	2.88
365.294	1.88
366.081	-0.12
366.867	0.88
367.654	0.88
368.44	1.88
369.227	-0.12
370.013	-0.12
370.8	-0.12
371.586	0.88
372.372	1.88
373.158	0.88
373.944	-1.12
374.73	2.88
375.516	0.88
376.302	0.88
377.088	-0.12
377.873	0.88
378.659	0.88
379.445	1.88
380.23	0.88
381.015	-0.12
381.801	2.88
382.586	-1.12
383.371	0.88
384.156	0.88
384.941	-0.12
385.726	2.88
386.511	2.88
387.296	2.88
388.08	2.88
388.865	0.88
389.649	1.88
390.434	0.88
391.218	1.88
392.003	1.88
392.787	4.88
393.571	3.88
394.355	1.88
395.139	1.88
395.923	-0.12
396.707	1.88
397.491	-0.12
398.274	1.88
399.058	1.88
399.842	1.88
400.625	2.88
401.408	1.88
402.192	2.88
402.975	0.88
403.758	2.88
404.541	0.88
405.324	3.88
406.107	1.88
406.89	2.88
407.673	1.88
408.456	0.88
409.238	2.88
410.021	1.88
410.803	1.88
411.586	3.88
412.368	-0.12
413.151	3.88
413.933	3.88
414.715	3.88
415.497	3.88
416.279	2.88
417.061	2.88
417.843	3.88
418.624	3.88
419.406	4.88
420.188	2.88
420.969	4.88
421.751	3.88
422.532	5.88
423.313	5.88
424.095	7.88
424.876	3.88
425.657	6.88
426.438	4.88
427.219	3.88
428	5.88
428.78	2.88
429.561	4.88
430.342	4.88
431.122	5.88
431.903	4.88
432.683	7.88
433.464	7.88
434.244	5.88
435.024	8.88
435.804	6.88
436.584	6.88
437.364	8.88
438.144	8.88
438.924	7.88
439.704	11.88
440.483	8.88
441.263	10.88
442.042	9.88
442.822	12.88
443.601	10.88
444.38	11.88
445.16	15.88
445.939	14.88
446.718	15.88
447.497	16.88
448.276	21.88
449.054	18.88
449.833	21.88
450.612	22.88
451.391	22.88
452.169	25.88
452.948	31.88
453.726	34.88
454.504	31.88
455.282	38.88
456.061	40.88
456.839	45.88
457.617	51.88
458.395	56.88
459.172	63.88
459.95	69.88
460.728	76.88
461.506	83.88
462.283	92.88
463.061	111.88
463.838	119.88
464.615	140.88
465.393	152.88
466.17	164.88
466.947	189.88
467.724	201.88
468.501	232.88
469.278	258.88
470.055	295.88
470.831	330.88
471.608	355.88
472.385	400.88
473.161	437.88
473.938	502.88
474.714	551.88
475.49	611.88
476.266	679.88
477.043	753.88
477.819	833.88
478.595	932.88
479.371	1035.88
480.146	1157.88
480.922	1269.88
481.698	1405.88
482.473	1539.88
483.249	1714.88
484.024	1903.88
484.8	2098.88
485.575	2302.88
486.35	2562.88
487.126	2825.88
487.901	3111.88
488.676	3452.88
489.451	3790.88
490.225	4186.88
491	4605.88
491.775	5077.88
492.55	5581.88
493.324	6106.88
494.099	6701.88
494.873	7324.88
495.647	8014.88
496.422	8682.88
497.196	9406.88
497.97	10094.88
498.744	10956.88
499.518	11677.88
500.292	12415.88
501.066	13223.88
501.839	13895.88
502.613	14581.88
503.387	15249.88
504.16	15762.88
504.934	16191.88
505.707	16596.88
506.48	16756.88
507.253	16927.88
508.027	16934.88
508.8	16821.88
509.573	16638.88
510.346	16318.88
511.118	15951.88
511.891	15486.88
512.664	15025.88
513.437	14383.88
514.209	13810.88
514.982	13272.88
515.754	12761.88
516.526	12154.88
517.298	11584.88
518.071	11103.88
518.843	10533.88
519.615	10141.88
520.387	9750.88
521.159	9356.88
521.93	9014.88
522.702	8635.88
523.474	8263.88
524.245	7978.88
525.017	7639.88
525.788	7330.88
526.56	7039.88
527.331	6737.88
528.102	6442.88
528.873	6127.88
529.644	5856.88
530.415	5574.88
531.186	5302.88
531.957	5038.88
532.728	4756.88
533.498	4511.88
534.269	4275.88
535.039	4031.88
535.81	3797.88
536.58	3598.88
537.351	3379.88
538.121	3198.88
538.891	3039.88
539.661	2848.88
540.431	2706.88
541.201	2547.88
541.971	2433.88
542.741	2298.88
543.51	2162.88
544.28	2070.88
545.05	1967.88
545.819	1880.88
546.588	1771.88
547.358	1690.88
548.127	1601.88
548.896	1529.88
549.665	1438.88
550.434	1375.88
551.203	1308.88
551.972	1239.88
552.741	1174.88
553.51	1113.88
554.278	1052.88
555.047	981.88
555.815	922.88
556.584	862.88
557.352	824.88
558.121	770.88
558.889	732.88
559.657	678.88
560.425	646.88
561.193	610.88
561.961	569.88
562.729	548.88
563.496	515.88
564.264	484.88
565.032	459.88
565.799	437.88
566.567	409.88
567.334	382.88
568.101	363.88
568.869	340.88
569.636	322.88
570.403	304.88
571.17	290.88
571.937	272.88
572.704	254.88
573.471	244.88
574.237	231.88
575.004	214.88
575.771	198.88
576.537	189.88
577.303	175.88
578.07	165.88
578.836	156.88
579.602	152.88
580.368	143.88
581.134	138.88
581.9	127.88
582.666	119.88
583.432	111.88
584.198	104.88
584.964	96.88
585.729	99.88
586.495	87.88
587.26	84.88
588.025	81.88
588.791	74.88
589.556	70.88
590.321	69.88
591.086	60.88
591.851	58.88
592.616	58.88
593.381	56.88
594.146	47.88
594.911	49.88
595.675	47.88
596.44	43.88
597.204	41.88
597.969	39.88
598.733	38.88
599.497	36.88
600.261	35.88
601.025	32.88
601.79	31.88
602.553	30.88
603.317	28.88
604.081	27.88
604.845	28.88
605.609	25.88
606.372	26.88
607.136	24.88
607.899	22.88
608.662	18.88
609.426	19.88
610.189	16.88
610.952	18.88
611.715	15.88
612.478	15.88
613.241	14.88
614.004	14.88
614.767	13.88
615.529	15.88
616.292	12.88
617.055	11.88
617.817	12.88
618.579	12.88
619.342	10.88
620.104	9.88
620.866	9.88
621.628	11.88
622.39	9.88
623.152	10.88
623.914	12.88
624.676	6.88
625.438	9.88
626.199	6.88
626.961	7.88
627.722	6.88
628.484	6.88
629.245	5.88
630.006	5.88
630.768	7.88
631.529	4.88
632.29	6.88
633.051	6.88
633.812	3.88
634.573	5.88
635.333	4.88
636.094	5.88
636.855	2.88
637.615	2.88
638.376	5.88
639.136	1.88
639.896	2.88
640.657	0.88
641.417	3.88
642.177	4.88
642.937	2.88
643.697	3.88
644.457	1.88
645.216	3.88
645.976	4.88
646.736	4.88
647.495	3.88
648.255	3.88
649.014	3.88
649.774	3.88
650.533	0.88
651.292	2.88
652.051	2.88
652.81	1.88
653.569	0.88
654.328	3.88
655.087	0.88
655.846	0.88
656.604	2.88
657.363	2.88
658.121	0.88
658.88	0.88
659.638	1.88
660.397	0.88
661.155	3.88
661.913	1.88
662.671	0.88
663.429	-0.12
664.187	1.88
664.945	0.88
665.703	0.88
666.46	1.88
667.218	-0.12
667.976	1.88
668.733	0.88
669.49	0.88
670.248	1.88
671.005	-0.12
671.762	0.88
672.519	-0.12
673.276	1.88
674.033	-0.12
674.79	0.88
675.547	0.88
676.304	-1.12
677.06	0.88
677.817	1.88
678.574	0.88
679.33	4.88
680.086	0.88
680.843	0.88
681.599	0.88
682.355	-2.12
683.111	0.88
683.867	-0.12
684.623	1.88
685.379	0.88
686.135	-0.12
686.89	0.88
687.646	-0.12
688.402	2.88
689.157	-0.12
689.912	0.88
690.668	1.88
691.423	-0.12
692.178	-0.12
692.933	-1.12
693.688	2.88
694.443	-0.12
695.198	0.88
695.953	-0.12
696.708	0.88
697.462	0.88
698.217	0.88
698.972	-0.12
699.726	-0.12
700.48	1.88
701.235	0.88
701.989	-0.12
702.743	1.88
703.497	-0.12
704.251	0.88
705.005	-0.12
705.759	0.88
706.513	0.88
707.266	0.88
708.02	2.88
708.774	-1.12
709.527	0.88
710.28	0.88
711.034	-0.12
711.787	1.88
712.54	-0.12
713.293	-0.12
714.046	-0.12
714.799	-0.12
715.552	-0.12
716.305	0.88
717.058	0.88
717.81	0.88
718.563	1.88
719.315	-3.12
720.068	0.88
720.82	0.88
721.573	0.88
722.325	-2.12
723.077	-0.12
723.829	-0.12
724.581	0.88
725.333	-0.12
726.085	-0.12
726.836	1.88
727.588	-0.12
728.34	1.88
729.091	-0.12
729.843	0.88
730.594	-0.12
731.346	-1.12
732.097	2.88
732.848	-0.12
733.599	-0.12
734.35	1.88
735.101	-1.12
735.852	1.88
736.603	-0.12
737.354	0.88
738.104	1.88
738.855	0.88
739.605	0.88
740.356	0.88
741.106	-0.12
741.856	-0.12
742.607	1.88
743.357	2.88
744.107	0.88
744.857	-0.12
745.607	0.88
746.357	-0.12
747.106	0.88
747.856	-0.12
748.606	2.88
749.355	0.88
750.105	3.88
750.854	1.88
751.603	0.88
752.353	-0.12
753.102	0.88
753.851	-0.12
754.6	3.88
755.349	1.88
756.098	0.88
756.847	1.88
757.595	2.88
758.344	1.88
759.093	3.88
759.841	2.88
760.589	1.88
761.338	2.88
762.086	0.88
762.834	2.88
763.582	2.88
764.331	2.88
765.079	2.88
765.826	4.88
766.574	3.88
767.322	2.88
768.07	1.88
768.817	0.88
769.565	2.88
770.312	3.88
771.06	0.88
771.807	3.88
772.554	4.88
773.302	1.88
774.049	2.88
774.796	3.88
775.543	2.88
776.29	5.88
777.036	4.88
777.783	5.88
778.53	4.88
779.276	2.88
780.023	2.88
780.769	2.88
781.516	3.88
782.262	0.88
783.008	2.88
783.754	4.88
784.5	3.88
785.246	2.88
785.992	2.88
786.738	3.88
787.484	1.88
788.23	4.88
788.975	3.88
789.721	3.88
790.466	3.88
791.212	5.88
791.957	5.88
792.702	3.88
793.447	1.88
794.193	5.88
794.938	1.88
795.683	2.88
796.427	1.88
797.172	3.88
797.917	2.88
798.662	2.88
799.406	4.88
800.151	0.88
800.895	4.88
801.64	3.88
802.384	2.88
803.128	3.88
803.872	2.88
804.616	0.88
805.36	3.88
806.104	3.88
806.848	1.88
807.592	2.88
808.336	1.88
809.079	1.88
809.823	2.88
810.566	1.88
811.31	3.88
812.053	0.88
812.796	2.88
813.539	4.88
814.283	0.88
815.026	-0.12
815.769	3.88
816.511	0.88
817.254	1.88
817.997	2.88
818.74	1.88
819.482	0.88
820.225	2.88
820.967	1.88
821.71	2.88
822.452	1.88
823.194	2.88
823.936	1.88
824.678	1.88
825.42	2.88
826.162	1.88
826.904	0.88
827.646	0.88
828.388	1.88
829.129	-0.12
829.871	0.88
830.612	2.88
831.354	1.88
832.095	0.88
832.836	-0.12
833.577	3.88
834.319	2.88
835.06	0.88
835.801	0.88
836.542	0.88
837.282	0.88
838.023	-0.12
838.764	2.88
839.504	1.88
840.245	2.88
840.985	1.88
841.726	1.88
842.466	2.88
843.206	2.88
843.946	3.88
844.687	0.88
845.427	-0.12
846.166	1.88
846.906	-0.12
847.646	4.88
848.386	-1.12
849.125	-0.12
849.865	2.88
850.605	0.88
851.344	-0.12
852.083	-1.12
852.823	0.88
853.562	1.88
854.301	1.88
855.04	-0.12
855.779	0.88
856.518	0.88
857.257	-2.12
857.995	0.88
858.734	-0.12
859.473	-1.12
860.211	-0.12
860.95	0.88
861.688	-1.12
862.426	-2.12
863.165	3.88
863.903	0.88
864.641	0.88
865.379	0.88
866.117	-2.12
866.855	0.88
867.593	-1.12
868.33	1.88
869.068	-0.12
869.806	-0.12
870.543	0.88
871.28	-2.12
872.018	0.88
872.755	-1.12
873.492	-2.12
874.229	-0.12
874.967	1.88
875.703	-1.12
876.44	-0.12
877.177	-0.12
877.914	-0.12
878.651	-1.12
879.387	-1.12
880.124	-2.12
880.86	-0.12
881.597	-0.12
882.333	-2.12
883.069	-2.12
883.806	-1.12
884.542	0.88
885.278	0.88
886.014	-0.12
886.749	-2.12
887.485	-0.12
888.221	-0.12
888.957	0.88
889.692	-1.12
890.428	-0.12
891.163	-1.12
891.899	-2.12
892.634	0.88
893.369	-1.12
894.104	-3.12
894.839	-1.12
895.574	-2.12
896.309	-2.12
897.044	-1.12
897.779	-0.12
898.514	-0.12
899.248	-0.12
899.983	-1.12
900.717	-2.12
901.452	-0.12
902.186	-1.12
902.92	1.88
903.654	-0.12
904.389	-0.12
905.123	-1.12
905.857	-2.12
906.59	-0.12
907.324	-1.12
908.058	-0.12
908.792	-1.12
909.525	-2.12
910.259	-0.12
910.992	-2.12
911.726	0.88
912.459	-3.12
913.192	-3.12
913.925	-0.12
914.658	0.88
915.391	-2.12
916.124	-2.12
916.857	-1.12
917.59	-1.12
918.323	0.88
919.055	-1.12
919.788	-2.12
920.521	-0.12
921.253	-1.12
921.985	-2.12
922.718	-0.12
923.45	-2.12
924.182	-1.12
924.914	-1.12
925.646	-0.12
926.378	-3.12
927.11	-1.12
927.841	-1.12
928.573	2.88
929.305	-2.12
930.036	-3.12
930.768	-0.12
931.499	-2.12
932.23	-0.12
932.962	-1.12
933.693	-0.12
934.424	-2.12
935.155	-2.12
935.886	-1.12
936.617	-2.12
937.348	-0.12
938.078	-0.12
938.809	-1.12
939.54	0.88
940.27	-2.12
941.001	-0.12
941.731	-0.12
942.461	-0.12
943.191	-1.12
943.922	-0.12
944.652	0.88
945.382	-1.12
946.112	-1.12
946.841	-0.12
947.571	-0.12
948.301	-1.12
949.031	-2.12
949.76	-0.12
950.49	-1.12
951.219	0.88
951.948	-4.12
952.678	-2.12
953.407	-2.12
954.136	-1.12
954.865	-1.12
955.594	-1.12
956.323	-1.12
957.052	-2.12
957.78	-2.12
958.509	0.88
959.238	-3.12
959.966	-0.12
960.695	-2.12
961.423	-1.12
962.151	-0.12
962.88	-0.12
963.608	-0.12
964.336	-1.12
965.064	0.88
965.792	-1.12
966.52	1.88
967.247	-3.12
967.975	-0.12
968.703	-1.12
969.43	-2.12
970.158	-0.12
970.885	-0.12
971.613	0.88
972.34	-1.12
973.067	0.88
973.794	0.88
974.521	-1.12
975.248	1.88
975.975	-1.12
976.702	-1.12
977.429	-3.12
978.156	-1.12
978.882	-1.12
979.609	-0.12
980.335	-0.12
981.062	-1.12
981.788	-2.12
982.514	-3.12
983.24	0.88
983.967	0.88
984.693	-2.12
985.419	-1.12
986.144	-3.12
986.87	-0.12
987.596	-2.12
988.322	-1.12
989.047	-0.12
989.773	-3.12
990.498	-0.12
991.224	-1.12
991.949	-1.12
992.674	-1.12
993.399	-0.12
994.124	-1.12
994.849	-0.12
995.574	-0.12
996.299	-1.12
997.024	-1.12
997.749	-1.12
998.473	-0.12
999.198	-1.12
999.922	-3.12
1000.647	-0.12
1001.371	2.88
1002.095	-3.12
1002.82	-0.12
1003.544	-0.12
1004.268	-3.12
1004.992	-2.12
1005.716	-5.12
1006.439	-2.12
1007.163	-2.12
1007.887	-1.12
1008.611	-3.12
1009.334	-0.12
1010.058	1.88
1010.781	-0.12
1011.504	-2.12
1012.228	-1.12
1012.951	-2.12
1013.674	0.88
1014.397	0.88
1015.12	0.88
