节点500_145_QEPB04081__547__11-37-38-443.txt的数据

Date: Wed Nov 12 11:37:38 CST 2025
User: PC
Spectrometer: QEPB0408
触发模式: 0
积分时间 (秒): 1.000000E-2
Scans to average: 1
启用暗噪声校正: true
启用非线性校正: false
滑动平均宽度: 0
X轴模式: Wavelengths
Number of Pixels in Spectrum: 1044
>>>>>Begin Spectral Data<<<<<
220.843	0.5
221.644	1.5
222.444	1.5
223.244	-0.5
224.045	0.5
224.845	0.5
225.645	1.5
226.445	0.5
227.245	-0.5
228.045	1.5
228.845	-0.5
229.645	0.5
230.444	3.5
231.244	1.5
232.043	0.5
232.843	2.5
233.642	-1.5
234.442	1.5
235.241	1.5
236.04	1.5
236.839	0.5
237.638	-1.5
238.437	1.5
239.236	0.5
240.035	2.5
240.833	-0.5
241.632	3.5
242.43	1.5
243.229	2.5
244.027	0.5
244.826	-0.5
245.624	2.5
246.422	2.5
247.22	2.5
248.018	2.5
248.816	-1.5
249.614	0.5
250.412	2.5
251.21	3.5
252.007	5.5
252.805	3.5
253.602	1.5
254.4	2.5
255.197	2.5
255.994	2.5
256.791	2.5
257.589	4.5
258.386	2.5
259.183	4.5
259.979	3.5
260.776	3.5
261.573	2.5
262.37	4.5
263.166	2.5
263.963	4.5
264.759	3.5
265.556	5.5
266.352	3.5
267.148	5.5
267.944	6.5
268.74	7.5
269.536	7.5
270.332	6.5
271.128	7.5
271.924	7.5
272.719	5.5
273.515	8.5
274.311	8.5
275.106	5.5
275.901	8.5
276.697	7.5
277.492	10.5
278.287	9.5
279.082	7.5
279.877	9.5
280.672	9.5
281.467	8.5
282.262	6.5
283.056	11.5
283.851	9.5
284.646	11.5
285.44	8.5
286.234	10.5
287.029	10.5
287.823	8.5
288.617	8.5
289.411	10.5
290.205	9.5
290.999	10.5
291.793	9.5
292.587	10.5
293.381	7.5
294.174	9.5
294.968	9.5
295.761	10.5
296.555	9.5
297.348	9.5
298.141	8.5
298.935	10.5
299.728	8.5
300.521	9.5
301.314	7.5
302.107	8.5
302.899	10.5
303.692	8.5
304.485	6.5
305.277	6.5
306.07	6.5
306.862	6.5
307.655	7.5
308.447	7.5
309.239	9.5
310.031	7.5
310.823	6.5
311.615	7.5
312.407	5.5
313.199	6.5
313.991	5.5
314.783	5.5
315.574	5.5
316.366	7.5
317.157	5.5
317.949	5.5
318.74	3.5
319.531	4.5
320.322	4.5
321.113	6.5
321.904	3.5
322.695	5.5
323.486	5.5
324.277	3.5
325.068	1.5
325.858	5.5
326.649	2.5
327.439	4.5
328.23	4.5
329.02	3.5
329.81	2.5
330.6	1.5
331.391	5.5
332.181	3.5
332.971	4.5
333.76	3.5
334.55	4.5
335.34	3.5
336.13	5.5
336.919	5.5
337.709	4.5
338.498	3.5
339.287	1.5
340.077	2.5
340.866	-0.5
341.655	1.5
342.444	4.5
343.233	3.5
344.022	3.5
344.811	3.5
345.6	1.5
346.388	5.5
347.177	1.5
347.965	3.5
348.754	0.5
349.542	4.5
350.33	3.5
351.119	3.5
351.907	2.5
352.695	2.5
353.483	3.5
354.271	3.5
355.059	3.5
355.846	3.5
356.634	2.5
357.422	5.5
358.209	2.5
358.997	4.5
359.784	2.5
360.571	4.5
361.359	5.5
362.146	2.5
362.933	2.5
363.72	1.5
364.507	2.5
365.294	2.5
366.081	4.5
366.867	2.5
367.654	2.5
368.44	2.5
369.227	3.5
370.013	2.5
370.8	2.5
371.586	4.5
372.372	3.5
373.158	2.5
373.944	5.5
374.73	2.5
375.516	1.5
376.302	4.5
377.088	2.5
377.873	4.5
378.659	1.5
379.445	1.5
380.23	3.5
381.015	4.5
381.801	3.5
382.586	3.5
383.371	2.5
384.156	0.5
384.941	3.5
385.726	1.5
386.511	2.5
387.296	1.5
388.08	2.5
388.865	3.5
389.649	1.5
390.434	2.5
391.218	2.5
392.003	2.5
392.787	1.5
393.571	3.5
394.355	4.5
395.139	3.5
395.923	4.5
396.707	4.5
397.491	2.5
398.274	2.5
399.058	4.5
399.842	4.5
400.625	2.5
401.408	5.5
402.192	3.5
402.975	2.5
403.758	3.5
404.541	3.5
405.324	3.5
406.107	4.5
406.89	3.5
407.673	5.5
408.456	4.5
409.238	3.5
410.021	4.5
410.803	6.5
411.586	2.5
412.368	5.5
413.151	3.5
413.933	5.5
414.715	5.5
415.497	4.5
416.279	5.5
417.061	4.5
417.843	5.5
418.624	5.5
419.406	2.5
420.188	4.5
420.969	5.5
421.751	6.5
422.532	6.5
423.313	7.5
424.095	7.5
424.876	4.5
425.657	5.5
426.438	6.5
427.219	6.5
428	7.5
428.78	6.5
429.561	7.5
430.342	7.5
431.122	6.5
431.903	7.5
432.683	8.5
433.464	6.5
434.244	8.5
435.024	10.5
435.804	10.5
436.584	9.5
437.364	11.5
438.144	12.5
438.924	9.5
439.704	10.5
440.483	11.5
441.263	13.5
442.042	11.5
442.822	12.5
443.601	15.5
444.38	14.5
445.16	14.5
445.939	17.5
446.718	18.5
447.497	17.5
448.276	21.5
449.054	22.5
449.833	27.5
450.612	27.5
451.391	30.5
452.169	30.5
452.948	32.5
453.726	38.5
454.504	41.5
455.282	41.5
456.061	43.5
456.839	49.5
457.617	60.5
458.395	65.5
459.172	74.5
459.95	79.5
460.728	89.5
461.506	98.5
462.283	109.5
463.061	119.5
463.838	135.5
464.615	153.5
465.393	168.5
466.17	187.5
466.947	206.5
467.724	236.5
468.501	255.5
469.278	287.5
470.055	319.5
470.831	362.5
471.608	395.5
472.385	439.5
473.161	492.5
473.938	533.5
474.714	588.5
475.49	653.5
476.266	716.5
477.043	798.5
477.819	867.5
478.595	973.5
479.371	1048.5
480.146	1164.5
480.922	1276.5
481.698	1405.5
482.473	1534.5
483.249	1683.5
484.024	1850.5
484.8	2038.5
485.575	2232.5
486.35	2448.5
487.126	2675.5
487.901	2929.5
488.676	3202.5
489.451	3511.5
490.225	3838.5
491	4192.5
491.775	4586.5
492.55	4979.5
493.324	5464.5
494.099	5963.5
494.873	6457.5
495.647	7013.5
496.422	7618.5
497.196	8209.5
497.97	8855.5
498.744	9491.5
499.518	10238.5
500.292	10901.5
501.066	11557.5
501.839	12197.5
502.613	12826.5
503.387	13418.5
504.16	14017.5
504.934	14476.5
505.707	14877.5
506.48	15175.5
507.253	15444.5
508.027	15553.5
508.8	15624.5
509.573	15597.5
510.346	15474.5
511.118	15252.5
511.891	14916.5
512.664	14533.5
513.437	14153.5
514.209	13687.5
514.982	13237.5
515.754	12686.5
516.526	12189.5
517.298	11661.5
518.071	11244.5
518.843	10723.5
519.615	10272.5
520.387	9890.5
521.159	9465.5
521.93	9055.5
522.702	8736.5
523.474	8382.5
524.245	8085.5
525.017	7713.5
525.788	7415.5
526.56	7124.5
527.331	6825.5
528.102	6550.5
528.873	6290.5
529.644	6008.5
530.415	5741.5
531.186	5493.5
531.957	5199.5
532.728	4979.5
533.498	4692.5
534.269	4520.5
535.039	4207.5
535.81	4010.5
536.58	3774.5
537.351	3593.5
538.121	3389.5
538.891	3187.5
539.661	3034.5
540.431	2856.5
541.201	2701.5
541.971	2570.5
542.741	2411.5
543.51	2305.5
544.28	2169.5
545.05	2078.5
545.819	1983.5
546.588	1855.5
547.358	1783.5
548.127	1680.5
548.896	1612.5
549.665	1528.5
550.434	1449.5
551.203	1374.5
551.972	1291.5
552.741	1241.5
553.51	1164.5
554.278	1116.5
555.047	1053.5
555.815	1006.5
556.584	939.5
557.352	883.5
558.121	836.5
558.889	790.5
559.657	743.5
560.425	710.5
561.193	654.5
561.961	621.5
562.729	588.5
563.496	550.5
564.264	528.5
565.032	495.5
565.799	470.5
566.567	445.5
567.334	421.5
568.101	390.5
568.869	379.5
569.636	353.5
570.403	330.5
571.17	312.5
571.937	292.5
572.704	277.5
573.471	270.5
574.237	243.5
575.004	231.5
575.771	214.5
576.537	203.5
577.303	193.5
578.07	179.5
578.836	172.5
579.602	161.5
580.368	153.5
581.134	144.5
581.9	143.5
582.666	125.5
583.432	123.5
584.198	121.5
584.964	112.5
585.729	101.5
586.495	98.5
587.26	94.5
588.025	85.5
588.791	83.5
589.556	77.5
590.321	77.5
591.086	65.5
591.851	66.5
592.616	61.5
593.381	58.5
594.146	54.5
594.911	51.5
595.675	52.5
596.44	51.5
597.204	48.5
597.969	43.5
598.733	44.5
599.497	39.5
600.261	38.5
601.025	37.5
601.79	35.5
602.553	32.5
603.317	35.5
604.081	34.5
604.845	28.5
605.609	29.5
606.372	25.5
607.136	26.5
607.899	24.5
608.662	24.5
609.426	23.5
610.189	24.5
610.952	20.5
611.715	19.5
612.478	19.5
613.241	18.5
614.004	18.5
614.767	18.5
615.529	17.5
616.292	15.5
617.055	15.5
617.817	15.5
618.579	10.5
619.342	16.5
620.104	12.5
620.866	14.5
621.628	10.5
622.39	13.5
623.152	10.5
623.914	11.5
624.676	10.5
625.438	9.5
626.199	10.5
626.961	9.5
627.722	7.5
628.484	9.5
629.245	9.5
630.006	10.5
630.768	8.5
631.529	9.5
632.29	9.5
633.051	6.5
633.812	8.5
634.573	6.5
635.333	6.5
636.094	7.5
636.855	8.5
637.615	4.5
638.376	5.5
639.136	7.5
639.896	6.5
640.657	6.5
641.417	4.5
642.177	3.5
642.937	8.5
643.697	1.5
644.457	4.5
645.216	4.5
645.976	6.5
646.736	5.5
647.495	5.5
648.255	4.5
649.014	3.5
649.774	4.5
650.533	3.5
651.292	3.5
652.051	4.5
652.81	4.5
653.569	5.5
654.328	3.5
655.087	2.5
655.846	5.5
656.604	4.5
657.363	2.5
658.121	1.5
658.88	3.5
659.638	3.5
660.397	3.5
661.155	3.5
661.913	2.5
662.671	4.5
663.429	4.5
664.187	3.5
664.945	3.5
665.703	3.5
666.46	0.5
667.218	2.5
667.976	1.5
668.733	1.5
669.49	4.5
670.248	2.5
671.005	2.5
671.762	4.5
672.519	4.5
673.276	2.5
674.033	4.5
674.79	2.5
675.547	2.5
676.304	2.5
677.06	1.5
677.817	1.5
678.574	2.5
679.33	1.5
680.086	3.5
680.843	0.5
681.599	2.5
682.355	0.5
683.111	3.5
683.867	2.5
684.623	1.5
685.379	2.5
686.135	1.5
686.89	2.5
687.646	0.5
688.402	1.5
689.157	4.5
689.912	2.5
690.668	1.5
691.423	2.5
692.178	2.5
692.933	1.5
693.688	-1.5
694.443	3.5
695.198	3.5
695.953	2.5
696.708	2.5
697.462	3.5
698.217	3.5
698.972	1.5
699.726	3.5
700.48	0.5
701.235	4.5
701.989	-0.5
702.743	0.5
703.497	2.5
704.251	4.5
705.005	1.5
705.759	2.5
706.513	3.5
707.266	1.5
708.02	3.5
708.774	2.5
709.527	3.5
710.28	0.5
711.034	0.5
711.787	2.5
712.54	-0.5
713.293	1.5
714.046	2.5
714.799	1.5
715.552	1.5
716.305	4.5
717.058	1.5
717.81	0.5
718.563	-0.5
719.315	4.5
720.068	3.5
720.82	2.5
721.573	2.5
722.325	2.5
723.077	1.5
723.829	3.5
724.581	0.5
725.333	2.5
726.085	1.5
726.836	1.5
727.588	0.5
728.34	-0.5
729.091	1.5
729.843	1.5
730.594	0.5
731.346	1.5
732.097	0.5
732.848	2.5
733.599	1.5
734.35	3.5
735.101	2.5
735.852	0.5
736.603	1.5
737.354	2.5
738.104	5.5
738.855	2.5
739.605	1.5
740.356	0.5
741.106	1.5
741.856	2.5
742.607	2.5
743.357	2.5
744.107	1.5
744.857	2.5
745.607	2.5
746.357	3.5
747.106	1.5
747.856	2.5
748.606	3.5
749.355	2.5
750.105	1.5
750.854	2.5
751.603	1.5
752.353	2.5
753.102	3.5
753.851	3.5
754.6	1.5
755.349	2.5
756.098	3.5
756.847	1.5
757.595	1.5
758.344	1.5
759.093	1.5
759.841	2.5
760.589	2.5
761.338	6.5
762.086	2.5
762.834	2.5
763.582	4.5
764.331	3.5
765.079	3.5
765.826	3.5
766.574	3.5
767.322	3.5
768.07	3.5
768.817	3.5
769.565	6.5
770.312	1.5
771.06	6.5
771.807	5.5
772.554	2.5
773.302	5.5
774.049	5.5
774.796	4.5
775.543	5.5
776.29	2.5
777.036	5.5
777.783	3.5
778.53	4.5
779.276	5.5
780.023	5.5
780.769	4.5
781.516	5.5
782.262	6.5
783.008	5.5
783.754	6.5
784.5	3.5
785.246	6.5
785.992	4.5
786.738	5.5
787.484	5.5
788.23	4.5
788.975	4.5
789.721	6.5
790.466	4.5
791.212	4.5
791.957	6.5
792.702	5.5
793.447	5.5
794.193	2.5
794.938	4.5
795.683	5.5
796.427	2.5
797.172	5.5
797.917	5.5
798.662	3.5
799.406	6.5
800.151	2.5
800.895	6.5
801.64	4.5
802.384	1.5
803.128	4.5
803.872	3.5
804.616	5.5
805.36	2.5
806.104	2.5
806.848	5.5
807.592	4.5
808.336	4.5
809.079	3.5
809.823	3.5
810.566	2.5
811.31	4.5
812.053	4.5
812.796	4.5
813.539	2.5
814.283	2.5
815.026	3.5
815.769	4.5
816.511	3.5
817.254	4.5
817.997	2.5
818.74	4.5
819.482	3.5
820.225	2.5
820.967	3.5
821.71	2.5
822.452	3.5
823.194	3.5
823.936	1.5
824.678	1.5
825.42	3.5
826.162	3.5
826.904	0.5
827.646	1.5
828.388	1.5
829.129	3.5
829.871	1.5
830.612	1.5
831.354	3.5
832.095	2.5
832.836	1.5
833.577	3.5
834.319	1.5
835.06	3.5
835.801	3.5
836.542	2.5
837.282	3.5
838.023	3.5
838.764	0.5
839.504	2.5
840.245	2.5
840.985	1.5
841.726	2.5
842.466	0.5
843.206	3.5
843.946	1.5
844.687	1.5
845.427	1.5
846.166	2.5
846.906	1.5
847.646	1.5
848.386	3.5
849.125	1.5
849.865	1.5
850.605	1.5
851.344	2.5
852.083	1.5
852.823	0.5
853.562	0.5
854.301	1.5
855.04	3.5
855.779	1.5
856.518	1.5
857.257	1.5
857.995	1.5
858.734	2.5
859.473	3.5
860.211	2.5
860.95	1.5
861.688	0.5
862.426	0.5
863.165	1.5
863.903	3.5
864.641	1.5
865.379	1.5
866.117	-1.5
866.855	0.5
867.593	3.5
868.33	2.5
869.068	1.5
869.806	1.5
870.543	0.5
871.28	2.5
872.018	2.5
872.755	1.5
873.492	0.5
874.229	1.5
874.967	-1.5
875.703	1.5
876.44	2.5
877.177	1.5
877.914	0.5
878.651	1.5
879.387	2.5
880.124	2.5
880.86	1.5
881.597	2.5
882.333	-0.5
883.069	0.5
883.806	0.5
884.542	1.5
885.278	-1.5
886.014	-1.5
886.749	0.5
887.485	-0.5
888.221	-0.5
888.957	-1.5
889.692	2.5
890.428	0.5
891.163	2.5
891.899	0.5
892.634	1.5
893.369	1.5
894.104	0.5
894.839	-0.5
895.574	2.5
896.309	0.5
897.044	-0.5
897.779	1.5
898.514	-1.5
899.248	0.5
899.983	0.5
900.717	1.5
901.452	1.5
902.186	-1.5
902.92	-0.5
903.654	1.5
904.389	1.5
905.123	1.5
905.857	0.5
906.59	1.5
907.324	-0.5
908.058	1.5
908.792	-0.5
909.525	1.5
910.259	0.5
910.992	1.5
911.726	1.5
912.459	1.5
913.192	-0.5
913.925	0.5
914.658	0.5
915.391	1.5
916.124	-0.5
916.857	0.5
917.59	1.5
918.323	0.5
919.055	1.5
919.788	-0.5
920.521	0.5
921.253	0.5
921.985	0.5
922.718	2.5
923.45	0.5
924.182	-0.5
924.914	1.5
925.646	1.5
926.378	0.5
927.11	0.5
927.841	1.5
928.573	0.5
929.305	0.5
930.036	-1.5
930.768	-1.5
931.499	0.5
932.23	-1.5
932.962	1.5
933.693	-1.5
934.424	-0.5
935.155	-0.5
935.886	0.5
936.617	0.5
937.348	-0.5
938.078	1.5
938.809	-0.5
939.54	2.5
940.27	0.5
941.001	0.5
941.731	0.5
942.461	-0.5
943.191	1.5
943.922	0.5
944.652	1.5
945.382	-0.5
946.112	0.5
946.841	-1.5
947.571	0.5
948.301	1.5
949.031	-0.5
949.76	0.5
950.49	-0.5
951.219	-1.5
951.948	0.5
952.678	-2.5
953.407	-1.5
954.136	-0.5
954.865	2.5
955.594	-1.5
956.323	2.5
957.052	0.5
957.78	1.5
958.509	1.5
959.238	0.5
959.966	0.5
960.695	0.5
961.423	0.5
962.151	-1.5
962.88	0.5
963.608	0.5
964.336	-1.5
965.064	2.5
965.792	-1.5
966.52	0.5
967.247	-1.5
967.975	0.5
968.703	0.5
969.43	1.5
970.158	0.5
970.885	2.5
971.613	-0.5
972.34	2.5
973.067	-2.5
973.794	0.5
974.521	-0.5
975.248	1.5
975.975	-1.5
976.702	-0.5
977.429	-0.5
978.156	-1.5
978.882	0.5
979.609	-0.5
980.335	0.5
981.062	-0.5
981.788	1.5
982.514	-1.5
983.24	2.5
983.967	-0.5
984.693	0.5
985.419	1.5
986.144	0.5
986.87	1.5
987.596	-0.5
988.322	-0.5
989.047	-0.5
989.773	-0.5
990.498	1.5
991.224	1.5
991.949	-0.5
992.674	1.5
993.399	2.5
994.124	3.5
994.849	2.5
995.574	0.5
996.299	-1.5
997.024	-1.5
997.749	0.5
998.473	1.5
999.198	0.5
999.922	-0.5
1000.647	4.5
1001.371	1.5
1002.095	1.5
1002.82	-0.5
1003.544	-1.5
1004.268	1.5
1004.992	-2.5
1005.716	-0.5
1006.439	-0.5
1007.163	0.5
1007.887	-0.5
1008.611	0.5
1009.334	-0.5
1010.058	0.5
1010.781	0.5
1011.504	1.5
1012.228	3.5
1012.951	-1.5
1013.674	0.5
1014.397	-0.5
1015.12	0.5
