节点500_145_QEPB04081__607__11-38-36-336.txt的数据

Date: Wed Nov 12 11:38:36 CST 2025
User: PC
Spectrometer: QEPB0408
触发模式: 0
积分时间 (秒): 1.000000E-2
Scans to average: 1
启用暗噪声校正: true
启用非线性校正: false
滑动平均宽度: 0
X轴模式: Wavelengths
Number of Pixels in Spectrum: 1044
>>>>>Begin Spectral Data<<<<<
220.843	-1.38
221.644	0.62
222.444	-0.38
223.244	-0.38
224.045	1.62
224.845	-0.38
225.645	-1.38
226.445	-1.38
227.245	0.62
228.045	0.62
228.845	1.62
229.645	1.62
230.444	-0.38
231.244	1.62
232.043	0.62
232.843	0.62
233.642	1.62
234.442	2.62
235.241	-0.38
236.04	-1.38
236.839	4.62
237.638	1.62
238.437	2.62
239.236	1.62
240.035	0.62
240.833	2.62
241.632	0.62
242.43	0.62
243.229	-0.38
244.027	-0.38
244.826	0.62
245.624	2.62
246.422	2.62
247.22	2.62
248.018	3.62
248.816	-0.38
249.614	4.62
250.412	0.62
251.21	1.62
252.007	3.62
252.805	1.62
253.602	1.62
254.4	2.62
255.197	1.62
255.994	2.62
256.791	3.62
257.589	4.62
258.386	1.62
259.183	3.62
259.979	3.62
260.776	1.62
261.573	4.62
262.37	3.62
263.166	7.62
263.963	5.62
264.759	6.62
265.556	5.62
266.352	5.62
267.148	4.62
267.944	5.62
268.74	6.62
269.536	5.62
270.332	4.62
271.128	6.62
271.924	6.62
272.719	6.62
273.515	5.62
274.311	4.62
275.106	10.62
275.901	8.62
276.697	6.62
277.492	7.62
278.287	7.62
279.082	7.62
279.877	9.62
280.672	5.62
281.467	9.62
282.262	7.62
283.056	7.62
283.851	8.62
284.646	9.62
285.44	8.62
286.234	9.62
287.029	8.62
287.823	8.62
288.617	10.62
289.411	10.62
290.205	9.62
290.999	9.62
291.793	9.62
292.587	8.62
293.381	11.62
294.174	7.62
294.968	9.62
295.761	11.62
296.555	9.62
297.348	10.62
298.141	9.62
298.935	12.62
299.728	7.62
300.521	9.62
301.314	9.62
302.107	9.62
302.899	7.62
303.692	7.62
304.485	8.62
305.277	4.62
306.07	9.62
306.862	5.62
307.655	9.62
308.447	5.62
309.239	7.62
310.031	7.62
310.823	6.62
311.615	7.62
312.407	7.62
313.199	6.62
313.991	8.62
314.783	5.62
315.574	9.62
316.366	3.62
317.157	4.62
317.949	6.62
318.74	5.62
319.531	6.62
320.322	2.62
321.113	5.62
321.904	2.62
322.695	3.62
323.486	5.62
324.277	2.62
325.068	4.62
325.858	2.62
326.649	5.62
327.439	2.62
328.23	3.62
329.02	3.62
329.81	2.62
330.6	3.62
331.391	4.62
332.181	4.62
332.971	3.62
333.76	4.62
334.55	5.62
335.34	3.62
336.13	2.62
336.919	2.62
337.709	3.62
338.498	2.62
339.287	4.62
340.077	2.62
340.866	5.62
341.655	3.62
342.444	0.62
343.233	1.62
344.022	3.62
344.811	4.62
345.6	4.62
346.388	3.62
347.177	2.62
347.965	5.62
348.754	6.62
349.542	5.62
350.33	3.62
351.119	5.62
351.907	1.62
352.695	5.62
353.483	4.62
354.271	3.62
355.059	2.62
355.846	1.62
356.634	3.62
357.422	3.62
358.209	2.62
358.997	2.62
359.784	3.62
360.571	0.62
361.359	4.62
362.146	3.62
362.933	2.62
363.72	2.62
364.507	1.62
365.294	2.62
366.081	1.62
366.867	3.62
367.654	0.62
368.44	3.62
369.227	2.62
370.013	0.62
370.8	3.62
371.586	1.62
372.372	1.62
373.158	2.62
373.944	2.62
374.73	2.62
375.516	-1.38
376.302	1.62
377.088	5.62
377.873	4.62
378.659	3.62
379.445	1.62
380.23	4.62
381.015	2.62
381.801	3.62
382.586	2.62
383.371	3.62
384.156	2.62
384.941	1.62
385.726	2.62
386.511	2.62
387.296	2.62
388.08	3.62
388.865	3.62
389.649	2.62
390.434	1.62
391.218	0.62
392.003	3.62
392.787	1.62
393.571	3.62
394.355	1.62
395.139	2.62
395.923	1.62
396.707	2.62
397.491	1.62
398.274	4.62
399.058	4.62
399.842	2.62
400.625	4.62
401.408	2.62
402.192	4.62
402.975	4.62
403.758	4.62
404.541	2.62
405.324	0.62
406.107	3.62
406.89	3.62
407.673	2.62
408.456	2.62
409.238	4.62
410.021	3.62
410.803	5.62
411.586	2.62
412.368	1.62
413.151	4.62
413.933	6.62
414.715	2.62
415.497	6.62
416.279	5.62
417.061	4.62
417.843	5.62
418.624	3.62
419.406	2.62
420.188	4.62
420.969	5.62
421.751	5.62
422.532	5.62
423.313	4.62
424.095	4.62
424.876	8.62
425.657	4.62
426.438	7.62
427.219	4.62
428	3.62
428.78	6.62
429.561	5.62
430.342	5.62
431.122	6.62
431.903	8.62
432.683	9.62
433.464	10.62
434.244	8.62
435.024	7.62
435.804	7.62
436.584	9.62
437.364	10.62
438.144	10.62
438.924	11.62
439.704	10.62
440.483	12.62
441.263	12.62
442.042	14.62
442.822	13.62
443.601	14.62
444.38	14.62
445.16	16.62
445.939	17.62
446.718	16.62
447.497	22.62
448.276	21.62
449.054	23.62
449.833	22.62
450.612	27.62
451.391	31.62
452.169	34.62
452.948	34.62
453.726	36.62
454.504	38.62
455.282	43.62
456.061	48.62
456.839	53.62
457.617	55.62
458.395	63.62
459.172	74.62
459.95	82.62
460.728	90.62
461.506	102.62
462.283	117.62
463.061	128.62
463.838	137.62
464.615	160.62
465.393	169.62
466.17	187.62
466.947	205.62
467.724	238.62
468.501	261.62
469.278	287.62
470.055	325.62
470.831	356.62
471.608	396.62
472.385	442.62
473.161	483.62
473.938	530.62
474.714	586.62
475.49	652.62
476.266	720.62
477.043	794.62
477.819	856.62
478.595	960.62
479.371	1053.62
480.146	1155.62
480.922	1266.62
481.698	1388.62
482.473	1539.62
483.249	1676.62
484.024	1818.62
484.8	2005.62
485.575	2205.62
486.35	2399.62
487.126	2629.62
487.901	2868.62
488.676	3140.62
489.451	3445.62
490.225	3740.62
491	4093.62
491.775	4470.62
492.55	4843.62
493.324	5310.62
494.099	5786.62
494.873	6258.62
495.647	6825.62
496.422	7400.62
497.196	7967.62
497.97	8572.62
498.744	9189.62
499.518	9850.62
500.292	10532.62
501.066	11147.62
501.839	11805.62
502.613	12381.62
503.387	12949.62
504.16	13549.62
504.934	14039.62
505.707	14427.62
506.48	14743.62
507.253	14995.62
508.027	15161.62
508.8	15299.62
509.573	15233.62
510.346	15166.62
511.118	14920.62
511.891	14706.62
512.664	14323.62
513.437	13929.62
514.209	13548.62
514.982	13110.62
515.754	12616.62
516.526	12133.62
517.298	11622.62
518.071	11177.62
518.843	10654.62
519.615	10225.62
520.387	9808.62
521.159	9424.62
521.93	9061.62
522.702	8642.62
523.474	8358.62
524.245	7998.62
525.017	7706.62
525.788	7373.62
526.56	7105.62
527.331	6784.62
528.102	6550.62
528.873	6261.62
529.644	5957.62
530.415	5702.62
531.186	5447.62
531.957	5219.62
532.728	4946.62
533.498	4711.62
534.269	4465.62
535.039	4241.62
535.81	4014.62
536.58	3817.62
537.351	3589.62
538.121	3389.62
538.891	3221.62
539.661	3051.62
540.431	2865.62
541.201	2706.62
541.971	2581.62
542.741	2436.62
543.51	2306.62
544.28	2210.62
545.05	2095.62
545.819	1993.62
546.588	1884.62
547.358	1778.62
548.127	1713.62
548.896	1609.62
549.665	1529.62
550.434	1468.62
551.203	1384.62
551.972	1316.62
552.741	1252.62
553.51	1187.62
554.278	1110.62
555.047	1061.62
555.815	1001.62
556.584	950.62
557.352	898.62
558.121	845.62
558.889	795.62
559.657	756.62
560.425	713.62
561.193	660.62
561.961	635.62
562.729	602.62
563.496	559.62
564.264	526.62
565.032	495.62
565.799	467.62
566.567	446.62
567.334	423.62
568.101	405.62
568.869	368.62
569.636	353.62
570.403	337.62
571.17	312.62
571.937	291.62
572.704	282.62
573.471	263.62
574.237	247.62
575.004	230.62
575.771	222.62
576.537	204.62
577.303	195.62
578.07	183.62
578.836	185.62
579.602	159.62
580.368	151.62
581.134	144.62
581.9	137.62
582.666	130.62
583.432	120.62
584.198	116.62
584.964	111.62
585.729	110.62
586.495	100.62
587.26	95.62
588.025	88.62
588.791	81.62
589.556	80.62
590.321	73.62
591.086	71.62
591.851	63.62
592.616	64.62
593.381	57.62
594.146	56.62
594.911	54.62
595.675	53.62
596.44	50.62
597.204	46.62
597.969	44.62
598.733	40.62
599.497	39.62
600.261	40.62
601.025	35.62
601.79	35.62
602.553	34.62
603.317	30.62
604.081	33.62
604.845	30.62
605.609	28.62
606.372	28.62
607.136	25.62
607.899	25.62
608.662	25.62
609.426	23.62
610.189	19.62
610.952	23.62
611.715	18.62
612.478	18.62
613.241	17.62
614.004	17.62
614.767	17.62
615.529	15.62
616.292	19.62
617.055	17.62
617.817	15.62
618.579	15.62
619.342	11.62
620.104	14.62
620.866	11.62
621.628	10.62
622.39	11.62
623.152	11.62
623.914	10.62
624.676	11.62
625.438	11.62
626.199	8.62
626.961	10.62
627.722	9.62
628.484	10.62
629.245	8.62
630.006	7.62
630.768	6.62
631.529	8.62
632.29	8.62
633.051	6.62
633.812	8.62
634.573	7.62
635.333	7.62
636.094	7.62
636.855	5.62
637.615	8.62
638.376	4.62
639.136	5.62
639.896	7.62
640.657	4.62
641.417	6.62
642.177	3.62
642.937	6.62
643.697	4.62
644.457	6.62
645.216	6.62
645.976	3.62
646.736	4.62
647.495	5.62
648.255	4.62
649.014	5.62
649.774	5.62
650.533	2.62
651.292	3.62
652.051	3.62
652.81	3.62
653.569	3.62
654.328	6.62
655.087	5.62
655.846	5.62
656.604	5.62
657.363	3.62
658.121	3.62
658.88	1.62
659.638	2.62
660.397	2.62
661.155	3.62
661.913	2.62
662.671	2.62
663.429	-1.38
664.187	3.62
664.945	3.62
665.703	1.62
666.46	3.62
667.218	3.62
667.976	2.62
668.733	1.62
669.49	3.62
670.248	3.62
671.005	2.62
671.762	4.62
672.519	3.62
673.276	2.62
674.033	2.62
674.79	4.62
675.547	0.62
676.304	1.62
677.06	2.62
677.817	2.62
678.574	1.62
679.33	0.62
680.086	2.62
680.843	3.62
681.599	2.62
682.355	2.62
683.111	0.62
683.867	1.62
684.623	3.62
685.379	3.62
686.135	2.62
686.89	-0.38
687.646	2.62
688.402	0.62
689.157	3.62
689.912	1.62
690.668	4.62
691.423	2.62
692.178	0.62
692.933	1.62
693.688	-0.38
694.443	1.62
695.198	3.62
695.953	2.62
696.708	2.62
697.462	1.62
698.217	0.62
698.972	1.62
699.726	2.62
700.48	0.62
701.235	2.62
701.989	3.62
702.743	1.62
703.497	2.62
704.251	1.62
705.005	0.62
705.759	2.62
706.513	4.62
707.266	1.62
708.02	2.62
708.774	4.62
709.527	1.62
710.28	2.62
711.034	2.62
711.787	1.62
712.54	2.62
713.293	2.62
714.046	0.62
714.799	3.62
715.552	4.62
716.305	2.62
717.058	1.62
717.81	1.62
718.563	1.62
719.315	2.62
720.068	1.62
720.82	3.62
721.573	-0.38
722.325	0.62
723.077	0.62
723.829	0.62
724.581	3.62
725.333	0.62
726.085	3.62
726.836	2.62
727.588	0.62
728.34	0.62
729.091	3.62
729.843	4.62
730.594	-0.38
731.346	2.62
732.097	3.62
732.848	2.62
733.599	1.62
734.35	2.62
735.101	1.62
735.852	-0.38
736.603	2.62
737.354	0.62
738.104	1.62
738.855	3.62
739.605	3.62
740.356	5.62
741.106	2.62
741.856	1.62
742.607	2.62
743.357	3.62
744.107	2.62
744.857	2.62
745.607	2.62
746.357	1.62
747.106	1.62
747.856	2.62
748.606	1.62
749.355	2.62
750.105	2.62
750.854	3.62
751.603	2.62
752.353	2.62
753.102	3.62
753.851	3.62
754.6	2.62
755.349	2.62
756.098	5.62
756.847	3.62
757.595	2.62
758.344	2.62
759.093	3.62
759.841	0.62
760.589	1.62
761.338	2.62
762.086	0.62
762.834	4.62
763.582	2.62
764.331	2.62
765.079	3.62
765.826	2.62
766.574	5.62
767.322	3.62
768.07	3.62
768.817	4.62
769.565	2.62
770.312	5.62
771.06	4.62
771.807	6.62
772.554	4.62
773.302	3.62
774.049	0.62
774.796	1.62
775.543	2.62
776.29	2.62
777.036	4.62
777.783	2.62
778.53	3.62
779.276	4.62
780.023	1.62
780.769	4.62
781.516	4.62
782.262	5.62
783.008	4.62
783.754	2.62
784.5	5.62
785.246	2.62
785.992	4.62
786.738	5.62
787.484	3.62
788.23	5.62
788.975	1.62
789.721	3.62
790.466	6.62
791.212	2.62
791.957	5.62
792.702	5.62
793.447	5.62
794.193	7.62
794.938	4.62
795.683	4.62
796.427	4.62
797.172	4.62
797.917	5.62
798.662	5.62
799.406	3.62
800.151	3.62
800.895	2.62
801.64	2.62
802.384	2.62
803.128	2.62
803.872	2.62
804.616	3.62
805.36	4.62
806.104	3.62
806.848	3.62
807.592	2.62
808.336	3.62
809.079	4.62
809.823	4.62
810.566	4.62
811.31	3.62
812.053	3.62
812.796	3.62
813.539	3.62
814.283	5.62
815.026	3.62
815.769	4.62
816.511	2.62
817.254	2.62
817.997	4.62
818.74	2.62
819.482	2.62
820.225	2.62
820.967	2.62
821.71	4.62
822.452	3.62
823.194	1.62
823.936	3.62
824.678	4.62
825.42	3.62
826.162	0.62
826.904	4.62
827.646	2.62
828.388	3.62
829.129	1.62
829.871	3.62
830.612	3.62
831.354	5.62
832.095	2.62
832.836	3.62
833.577	2.62
834.319	3.62
835.06	1.62
835.801	3.62
836.542	2.62
837.282	3.62
838.023	3.62
838.764	2.62
839.504	3.62
840.245	2.62
840.985	2.62
841.726	2.62
842.466	2.62
843.206	2.62
843.946	0.62
844.687	1.62
845.427	3.62
846.166	1.62
846.906	2.62
847.646	1.62
848.386	1.62
849.125	0.62
849.865	1.62
850.605	0.62
851.344	1.62
852.083	2.62
852.823	1.62
853.562	1.62
854.301	2.62
855.04	1.62
855.779	0.62
856.518	1.62
857.257	2.62
857.995	1.62
858.734	0.62
859.473	2.62
860.211	-1.38
860.95	1.62
861.688	0.62
862.426	2.62
863.165	0.62
863.903	0.62
864.641	-1.38
865.379	1.62
866.117	3.62
866.855	0.62
867.593	1.62
868.33	0.62
869.068	2.62
869.806	-1.38
870.543	0.62
871.28	0.62
872.018	1.62
872.755	2.62
873.492	-1.38
874.229	0.62
874.967	0.62
875.703	1.62
876.44	1.62
877.177	0.62
877.914	1.62
878.651	1.62
879.387	0.62
880.124	0.62
880.86	3.62
881.597	1.62
882.333	-0.38
883.069	1.62
883.806	-0.38
884.542	1.62
885.278	2.62
886.014	-1.38
886.749	0.62
887.485	-1.38
888.221	1.62
888.957	1.62
889.692	-1.38
890.428	0.62
891.163	-0.38
891.899	2.62
892.634	1.62
893.369	0.62
894.104	0.62
894.839	0.62
895.574	1.62
896.309	-1.38
897.044	1.62
897.779	-0.38
898.514	1.62
899.248	2.62
899.983	-0.38
900.717	0.62
901.452	1.62
902.186	1.62
902.92	-0.38
903.654	0.62
904.389	0.62
905.123	-1.38
905.857	2.62
906.59	-1.38
907.324	0.62
908.058	-0.38
908.792	2.62
909.525	-0.38
910.259	-0.38
910.992	1.62
911.726	2.62
912.459	2.62
913.192	0.62
913.925	-1.38
914.658	-0.38
915.391	-1.38
916.124	-1.38
916.857	-0.38
917.59	1.62
918.323	1.62
919.055	-0.38
919.788	-0.38
920.521	0.62
921.253	-0.38
921.985	0.62
922.718	1.62
923.45	-0.38
924.182	-0.38
924.914	3.62
925.646	-1.38
926.378	1.62
927.11	0.62
927.841	2.62
928.573	1.62
929.305	-1.38
930.036	0.62
930.768	-1.38
931.499	1.62
932.23	0.62
932.962	1.62
933.693	3.62
934.424	-0.38
935.155	0.62
935.886	-0.38
936.617	0.62
937.348	-2.38
938.078	0.62
938.809	-0.38
939.54	1.62
940.27	-0.38
941.001	1.62
941.731	-0.38
942.461	0.62
943.191	-0.38
943.922	0.62
944.652	-0.38
945.382	-0.38
946.112	-1.38
946.841	1.62
947.571	1.62
948.301	0.62
949.031	0.62
949.76	1.62
950.49	-1.38
951.219	-0.38
951.948	-0.38
952.678	0.62
953.407	-1.38
954.136	-0.38
954.865	-0.38
955.594	1.62
956.323	1.62
957.052	2.62
957.78	1.62
958.509	2.62
959.238	-1.38
959.966	-0.38
960.695	1.62
961.423	0.62
962.151	1.62
962.88	0.62
963.608	0.62
964.336	0.62
965.064	-1.38
965.792	-0.38
966.52	0.62
967.247	1.62
967.975	-0.38
968.703	0.62
969.43	-1.38
970.158	-1.38
970.885	1.62
971.613	0.62
972.34	1.62
973.067	-1.38
973.794	-0.38
974.521	1.62
975.248	-0.38
975.975	1.62
976.702	-0.38
977.429	-1.38
978.156	-0.38
978.882	-1.38
979.609	-0.38
980.335	-0.38
981.062	-0.38
981.788	-0.38
982.514	0.62
983.24	1.62
983.967	-0.38
984.693	-1.38
985.419	-0.38
986.144	0.62
986.87	-0.38
987.596	-0.38
988.322	-0.38
989.047	0.62
989.773	-0.38
990.498	0.62
991.224	1.62
991.949	0.62
992.674	0.62
993.399	1.62
994.124	-0.38
994.849	0.62
995.574	-1.38
996.299	0.62
997.024	0.62
997.749	-1.38
998.473	0.62
999.198	-1.38
999.922	1.62
1000.647	-1.38
1001.371	3.62
1002.095	-2.38
1002.82	-1.38
1003.544	-1.38
1004.268	-0.38
1004.992	-1.38
1005.716	-0.38
1006.439	1.62
1007.163	-1.38
1007.887	1.62
1008.611	2.62
1009.334	-0.38
1010.058	-0.38
1010.781	0.62
1011.504	-1.38
1012.228	1.62
1012.951	-1.38
1013.674	1.62
1014.397	0.62
1015.12	0.62
