节点500_145_QEPB04081__584__11-38-14-376.txt的数据

Date: Wed Nov 12 11:38:14 CST 2025
User: PC
Spectrometer: QEPB0408
触发模式: 0
积分时间 (秒): 1.000000E-2
Scans to average: 1
启用暗噪声校正: true
启用非线性校正: false
滑动平均宽度: 0
X轴模式: Wavelengths
Number of Pixels in Spectrum: 1044
>>>>>Begin Spectral Data<<<<<
220.843	-2.88
221.644	-0.88
222.444	-0.88
223.244	-0.88
224.045	1.12
224.845	0.12
225.645	-1.88
226.445	2.12
227.245	0.12
228.045	0.12
228.845	0.12
229.645	-1.88
230.444	0.12
231.244	1.12
232.043	0.12
232.843	-1.88
233.642	2.12
234.442	-1.88
235.241	1.12
236.04	-0.88
236.839	4.12
237.638	2.12
238.437	1.12
239.236	0.12
240.035	1.12
240.833	2.12
241.632	1.12
242.43	2.12
243.229	1.12
244.027	3.12
244.826	4.12
245.624	1.12
246.422	1.12
247.22	6.12
248.018	1.12
248.816	0.12
249.614	3.12
250.412	3.12
251.21	2.12
252.007	3.12
252.805	1.12
253.602	4.12
254.4	2.12
255.197	0.12
255.994	2.12
256.791	3.12
257.589	4.12
258.386	2.12
259.183	2.12
259.979	5.12
260.776	4.12
261.573	2.12
262.37	3.12
263.166	2.12
263.963	5.12
264.759	3.12
265.556	3.12
266.352	2.12
267.148	6.12
267.944	3.12
268.74	7.12
269.536	6.12
270.332	5.12
271.128	6.12
271.924	5.12
272.719	9.12
273.515	6.12
274.311	7.12
275.106	8.12
275.901	6.12
276.697	9.12
277.492	9.12
278.287	7.12
279.082	8.12
279.877	10.12
280.672	10.12
281.467	11.12
282.262	9.12
283.056	8.12
283.851	10.12
284.646	9.12
285.44	10.12
286.234	12.12
287.029	8.12
287.823	10.12
288.617	7.12
289.411	9.12
290.205	7.12
290.999	8.12
291.793	11.12
292.587	7.12
293.381	11.12
294.174	8.12
294.968	10.12
295.761	7.12
296.555	11.12
297.348	9.12
298.141	10.12
298.935	9.12
299.728	9.12
300.521	9.12
301.314	7.12
302.107	6.12
302.899	10.12
303.692	7.12
304.485	7.12
305.277	6.12
306.07	9.12
306.862	8.12
307.655	7.12
308.447	9.12
309.239	6.12
310.031	6.12
310.823	5.12
311.615	8.12
312.407	8.12
313.199	5.12
313.991	4.12
314.783	4.12
315.574	6.12
316.366	4.12
317.157	3.12
317.949	6.12
318.74	4.12
319.531	6.12
320.322	2.12
321.113	3.12
321.904	3.12
322.695	6.12
323.486	3.12
324.277	6.12
325.068	4.12
325.858	2.12
326.649	6.12
327.439	3.12
328.23	7.12
329.02	4.12
329.81	4.12
330.6	4.12
331.391	2.12
332.181	4.12
332.971	4.12
333.76	6.12
334.55	4.12
335.34	5.12
336.13	3.12
336.919	3.12
337.709	3.12
338.498	2.12
339.287	3.12
340.077	3.12
340.866	4.12
341.655	4.12
342.444	6.12
343.233	3.12
344.022	3.12
344.811	2.12
345.6	4.12
346.388	2.12
347.177	1.12
347.965	3.12
348.754	3.12
349.542	4.12
350.33	4.12
351.119	6.12
351.907	4.12
352.695	3.12
353.483	2.12
354.271	7.12
355.059	1.12
355.846	3.12
356.634	5.12
357.422	0.12
358.209	2.12
358.997	3.12
359.784	1.12
360.571	1.12
361.359	5.12
362.146	3.12
362.933	2.12
363.72	0.12
364.507	1.12
365.294	3.12
366.081	2.12
366.867	2.12
367.654	4.12
368.44	2.12
369.227	3.12
370.013	1.12
370.8	2.12
371.586	3.12
372.372	2.12
373.158	2.12
373.944	1.12
374.73	3.12
375.516	1.12
376.302	2.12
377.088	1.12
377.873	1.12
378.659	-0.88
379.445	-0.88
380.23	-0.88
381.015	2.12
381.801	4.12
382.586	0.12
383.371	4.12
384.156	3.12
384.941	2.12
385.726	4.12
386.511	2.12
387.296	4.12
388.08	3.12
388.865	1.12
389.649	3.12
390.434	3.12
391.218	4.12
392.003	2.12
392.787	5.12
393.571	4.12
394.355	3.12
395.139	1.12
395.923	2.12
396.707	4.12
397.491	1.12
398.274	1.12
399.058	4.12
399.842	3.12
400.625	4.12
401.408	3.12
402.192	4.12
402.975	2.12
403.758	4.12
404.541	5.12
405.324	5.12
406.107	2.12
406.89	2.12
407.673	1.12
408.456	1.12
409.238	6.12
410.021	4.12
410.803	4.12
411.586	3.12
412.368	4.12
413.151	4.12
413.933	3.12
414.715	4.12
415.497	5.12
416.279	1.12
417.061	7.12
417.843	3.12
418.624	3.12
419.406	4.12
420.188	4.12
420.969	3.12
421.751	5.12
422.532	5.12
423.313	4.12
424.095	6.12
424.876	6.12
425.657	6.12
426.438	7.12
427.219	4.12
428	4.12
428.78	4.12
429.561	9.12
430.342	6.12
431.122	7.12
431.903	7.12
432.683	7.12
433.464	8.12
434.244	10.12
435.024	9.12
435.804	10.12
436.584	10.12
437.364	11.12
438.144	10.12
438.924	9.12
439.704	9.12
440.483	11.12
441.263	13.12
442.042	14.12
442.822	12.12
443.601	12.12
444.38	15.12
445.16	14.12
445.939	19.12
446.718	19.12
447.497	18.12
448.276	21.12
449.054	23.12
449.833	19.12
450.612	23.12
451.391	26.12
452.169	31.12
452.948	34.12
453.726	39.12
454.504	40.12
455.282	44.12
456.061	46.12
456.839	53.12
457.617	61.12
458.395	66.12
459.172	72.12
459.95	82.12
460.728	92.12
461.506	97.12
462.283	119.12
463.061	129.12
463.838	137.12
464.615	156.12
465.393	168.12
466.17	191.12
466.947	208.12
467.724	235.12
468.501	260.12
469.278	295.12
470.055	321.12
470.831	359.12
471.608	394.12
472.385	435.12
473.161	497.12
473.938	538.12
474.714	597.12
475.49	658.12
476.266	725.12
477.043	803.12
477.819	875.12
478.595	970.12
479.371	1068.12
480.146	1168.12
480.922	1278.12
481.698	1410.12
482.473	1543.12
483.249	1686.12
484.024	1859.12
484.8	2030.12
485.575	2213.12
486.35	2430.12
487.126	2635.12
487.901	2884.12
488.676	3162.12
489.451	3495.12
490.225	3797.12
491	4118.12
491.775	4527.12
492.55	4926.12
493.324	5380.12
494.099	5862.12
494.873	6351.12
495.647	6899.12
496.422	7490.12
497.196	8089.12
497.97	8645.12
498.744	9333.12
499.518	10029.12
500.292	10654.12
501.066	11345.12
501.839	11958.12
502.613	12585.12
503.387	13184.12
504.16	13725.12
504.934	14238.12
505.707	14612.12
506.48	14914.12
507.253	15179.12
508.027	15325.12
508.8	15449.12
509.573	15444.12
510.346	15334.12
511.118	15052.12
511.891	14857.12
512.664	14487.12
513.437	14061.12
514.209	13669.12
514.982	13201.12
515.754	12725.12
516.526	12221.12
517.298	11700.12
518.071	11253.12
518.843	10737.12
519.615	10309.12
520.387	9886.12
521.159	9497.12
521.93	9088.12
522.702	8731.12
523.474	8425.12
524.245	8072.12
525.017	7739.12
525.788	7426.12
526.56	7148.12
527.331	6857.12
528.102	6549.12
528.873	6309.12
529.644	6014.12
530.415	5751.12
531.186	5480.12
531.957	5276.12
532.728	4981.12
533.498	4740.12
534.269	4501.12
535.039	4247.12
535.81	4029.12
536.58	3818.12
537.351	3624.12
538.121	3402.12
538.891	3236.12
539.661	3050.12
540.431	2896.12
541.201	2743.12
541.971	2593.12
542.741	2443.12
543.51	2318.12
544.28	2209.12
545.05	2115.12
545.819	1981.12
546.588	1885.12
547.358	1780.12
548.127	1706.12
548.896	1620.12
549.665	1552.12
550.434	1465.12
551.203	1394.12
551.972	1323.12
552.741	1257.12
553.51	1187.12
554.278	1115.12
555.047	1070.12
555.815	1007.12
556.584	947.12
557.352	889.12
558.121	851.12
558.889	794.12
559.657	737.12
560.425	711.12
561.193	673.12
561.961	645.12
562.729	602.12
563.496	569.12
564.264	540.12
565.032	510.12
565.799	468.12
566.567	446.12
567.334	420.12
568.101	398.12
568.869	369.12
569.636	356.12
570.403	339.12
571.17	322.12
571.937	298.12
572.704	277.12
573.471	270.12
574.237	256.12
575.004	238.12
575.771	224.12
576.537	212.12
577.303	199.12
578.07	185.12
578.836	176.12
579.602	163.12
580.368	150.12
581.134	145.12
581.9	142.12
582.666	131.12
583.432	124.12
584.198	121.12
584.964	113.12
585.729	106.12
586.495	96.12
587.26	91.12
588.025	87.12
588.791	85.12
589.556	81.12
590.321	74.12
591.086	74.12
591.851	68.12
592.616	61.12
593.381	61.12
594.146	58.12
594.911	57.12
595.675	50.12
596.44	49.12
597.204	46.12
597.969	46.12
598.733	41.12
599.497	41.12
600.261	37.12
601.025	36.12
601.79	36.12
602.553	34.12
603.317	30.12
604.081	32.12
604.845	29.12
605.609	29.12
606.372	29.12
607.136	23.12
607.899	24.12
608.662	22.12
609.426	21.12
610.189	22.12
610.952	19.12
611.715	22.12
612.478	21.12
613.241	17.12
614.004	15.12
614.767	18.12
615.529	16.12
616.292	17.12
617.055	14.12
617.817	13.12
618.579	13.12
619.342	15.12
620.104	13.12
620.866	9.12
621.628	13.12
622.39	13.12
623.152	10.12
623.914	11.12
624.676	10.12
625.438	9.12
626.199	5.12
626.961	11.12
627.722	6.12
628.484	8.12
629.245	7.12
630.006	9.12
630.768	9.12
631.529	9.12
632.29	9.12
633.051	7.12
633.812	10.12
634.573	6.12
635.333	7.12
636.094	7.12
636.855	7.12
637.615	6.12
638.376	5.12
639.136	6.12
639.896	5.12
640.657	4.12
641.417	6.12
642.177	5.12
642.937	5.12
643.697	6.12
644.457	4.12
645.216	5.12
645.976	3.12
646.736	4.12
647.495	3.12
648.255	4.12
649.014	4.12
649.774	3.12
650.533	4.12
651.292	3.12
652.051	3.12
652.81	3.12
653.569	4.12
654.328	3.12
655.087	1.12
655.846	3.12
656.604	2.12
657.363	4.12
658.121	2.12
658.88	2.12
659.638	2.12
660.397	2.12
661.155	4.12
661.913	3.12
662.671	3.12
663.429	1.12
664.187	3.12
664.945	2.12
665.703	2.12
666.46	1.12
667.218	2.12
667.976	4.12
668.733	1.12
669.49	2.12
670.248	2.12
671.005	1.12
671.762	3.12
672.519	2.12
673.276	3.12
674.033	1.12
674.79	2.12
675.547	1.12
676.304	2.12
677.06	1.12
677.817	1.12
678.574	0.12
679.33	1.12
680.086	2.12
680.843	2.12
681.599	2.12
682.355	0.12
683.111	1.12
683.867	0.12
684.623	0.12
685.379	3.12
686.135	2.12
686.89	3.12
687.646	2.12
688.402	0.12
689.157	4.12
689.912	1.12
690.668	1.12
691.423	1.12
692.178	3.12
692.933	2.12
693.688	1.12
694.443	2.12
695.198	0.12
695.953	2.12
696.708	-0.88
697.462	1.12
698.217	1.12
698.972	1.12
699.726	2.12
700.48	1.12
701.235	2.12
701.989	1.12
702.743	2.12
703.497	2.12
704.251	3.12
705.005	3.12
705.759	1.12
706.513	3.12
707.266	2.12
708.02	1.12
708.774	2.12
709.527	3.12
710.28	2.12
711.034	2.12
711.787	1.12
712.54	2.12
713.293	2.12
714.046	0.12
714.799	1.12
715.552	2.12
716.305	1.12
717.058	0.12
717.81	2.12
718.563	-1.88
719.315	0.12
720.068	1.12
720.82	1.12
721.573	1.12
722.325	3.12
723.077	2.12
723.829	1.12
724.581	2.12
725.333	1.12
726.085	2.12
726.836	0.12
727.588	4.12
728.34	2.12
729.091	-0.88
729.843	2.12
730.594	1.12
731.346	2.12
732.097	1.12
732.848	1.12
733.599	0.12
734.35	2.12
735.101	2.12
735.852	0.12
736.603	1.12
737.354	0.12
738.104	3.12
738.855	3.12
739.605	1.12
740.356	1.12
741.106	1.12
741.856	1.12
742.607	1.12
743.357	-1.88
744.107	2.12
744.857	1.12
745.607	3.12
746.357	0.12
747.106	4.12
747.856	2.12
748.606	4.12
749.355	2.12
750.105	1.12
750.854	1.12
751.603	2.12
752.353	2.12
753.102	5.12
753.851	2.12
754.6	1.12
755.349	2.12
756.098	3.12
756.847	3.12
757.595	2.12
758.344	5.12
759.093	2.12
759.841	3.12
760.589	1.12
761.338	3.12
762.086	3.12
762.834	6.12
763.582	3.12
764.331	3.12
765.079	3.12
765.826	2.12
766.574	3.12
767.322	3.12
768.07	4.12
768.817	3.12
769.565	1.12
770.312	5.12
771.06	1.12
771.807	7.12
772.554	5.12
773.302	4.12
774.049	4.12
774.796	4.12
775.543	6.12
776.29	5.12
777.036	7.12
777.783	4.12
778.53	1.12
779.276	7.12
780.023	5.12
780.769	5.12
781.516	3.12
782.262	6.12
783.008	6.12
783.754	4.12
784.5	3.12
785.246	2.12
785.992	4.12
786.738	4.12
787.484	6.12
788.23	4.12
788.975	4.12
789.721	5.12
790.466	4.12
791.212	5.12
791.957	3.12
792.702	3.12
793.447	5.12
794.193	3.12
794.938	6.12
795.683	6.12
796.427	4.12
797.172	4.12
797.917	3.12
798.662	4.12
799.406	3.12
800.151	3.12
800.895	5.12
801.64	5.12
802.384	5.12
803.128	5.12
803.872	4.12
804.616	3.12
805.36	2.12
806.104	5.12
806.848	5.12
807.592	4.12
808.336	3.12
809.079	3.12
809.823	2.12
810.566	5.12
811.31	3.12
812.053	3.12
812.796	2.12
813.539	5.12
814.283	2.12
815.026	3.12
815.769	4.12
816.511	2.12
817.254	3.12
817.997	2.12
818.74	4.12
819.482	3.12
820.225	2.12
820.967	0.12
821.71	4.12
822.452	2.12
823.194	2.12
823.936	2.12
824.678	2.12
825.42	1.12
826.162	3.12
826.904	3.12
827.646	2.12
828.388	2.12
829.129	2.12
829.871	4.12
830.612	1.12
831.354	4.12
832.095	2.12
832.836	3.12
833.577	2.12
834.319	1.12
835.06	4.12
835.801	2.12
836.542	2.12
837.282	4.12
838.023	3.12
838.764	2.12
839.504	0.12
840.245	3.12
840.985	3.12
841.726	2.12
842.466	2.12
843.206	2.12
843.946	3.12
844.687	1.12
845.427	1.12
846.166	0.12
846.906	3.12
847.646	2.12
848.386	2.12
849.125	3.12
849.865	0.12
850.605	1.12
851.344	2.12
852.083	6.12
852.823	1.12
853.562	3.12
854.301	0.12
855.04	1.12
855.779	4.12
856.518	1.12
857.257	1.12
857.995	2.12
858.734	-0.88
859.473	1.12
860.211	0.12
860.95	3.12
861.688	-0.88
862.426	4.12
863.165	-2.88
863.903	1.12
864.641	2.12
865.379	1.12
866.117	1.12
866.855	0.12
867.593	2.12
868.33	-1.88
869.068	1.12
869.806	2.12
870.543	-0.88
871.28	1.12
872.018	0.12
872.755	3.12
873.492	1.12
874.229	3.12
874.967	1.12
875.703	1.12
876.44	0.12
877.177	0.12
877.914	1.12
878.651	1.12
879.387	0.12
880.124	1.12
880.86	1.12
881.597	-1.88
882.333	1.12
883.069	3.12
883.806	3.12
884.542	0.12
885.278	1.12
886.014	-1.88
886.749	0.12
887.485	0.12
888.221	-1.88
888.957	0.12
889.692	-0.88
890.428	0.12
891.163	-0.88
891.899	0.12
892.634	1.12
893.369	1.12
894.104	1.12
894.839	0.12
895.574	0.12
896.309	-0.88
897.044	-0.88
897.779	0.12
898.514	1.12
899.248	0.12
899.983	-1.88
900.717	0.12
901.452	-1.88
902.186	1.12
902.92	3.12
903.654	1.12
904.389	1.12
905.123	0.12
905.857	0.12
906.59	1.12
907.324	0.12
908.058	-0.88
908.792	1.12
909.525	0.12
910.259	-0.88
910.992	-0.88
911.726	-1.88
912.459	0.12
913.192	2.12
913.925	-1.88
914.658	1.12
915.391	1.12
916.124	-0.88
916.857	1.12
917.59	0.12
918.323	0.12
919.055	1.12
919.788	-0.88
920.521	-0.88
921.253	3.12
921.985	3.12
922.718	1.12
923.45	-0.88
924.182	1.12
924.914	0.12
925.646	-0.88
926.378	0.12
927.11	0.12
927.841	0.12
928.573	-1.88
929.305	1.12
930.036	1.12
930.768	-0.88
931.499	1.12
932.23	0.12
932.962	-0.88
933.693	1.12
934.424	-0.88
935.155	2.12
935.886	-1.88
936.617	2.12
937.348	-0.88
938.078	1.12
938.809	0.12
939.54	-2.88
940.27	2.12
941.001	1.12
941.731	0.12
942.461	1.12
943.191	0.12
943.922	0.12
944.652	1.12
945.382	1.12
946.112	0.12
946.841	-0.88
947.571	0.12
948.301	0.12
949.031	1.12
949.76	1.12
950.49	1.12
951.219	-0.88
951.948	0.12
952.678	-1.88
953.407	0.12
954.136	-0.88
954.865	1.12
955.594	0.12
956.323	-1.88
957.052	-2.88
957.78	-0.88
958.509	0.12
959.238	-1.88
959.966	1.12
960.695	1.12
961.423	1.12
962.151	1.12
962.88	-0.88
963.608	1.12
964.336	0.12
965.064	1.12
965.792	0.12
966.52	0.12
967.247	0.12
967.975	1.12
968.703	-0.88
969.43	0.12
970.158	-1.88
970.885	-0.88
971.613	-3.88
972.34	1.12
973.067	0.12
973.794	0.12
974.521	1.12
975.248	-0.88
975.975	-0.88
976.702	-0.88
977.429	1.12
978.156	-1.88
978.882	-0.88
979.609	0.12
980.335	1.12
981.062	1.12
981.788	0.12
982.514	0.12
983.24	-0.88
983.967	1.12
984.693	1.12
985.419	-1.88
986.144	-2.88
986.87	0.12
987.596	2.12
988.322	3.12
989.047	-0.88
989.773	2.12
990.498	1.12
991.224	0.12
991.949	-2.88
992.674	-0.88
993.399	0.12
994.124	0.12
994.849	1.12
995.574	0.12
996.299	0.12
997.024	-0.88
997.749	1.12
998.473	-0.88
999.198	-1.88
999.922	3.12
1000.647	1.12
1001.371	4.12
1002.095	-0.88
1002.82	-0.88
1003.544	-1.88
1004.268	0.12
1004.992	0.12
1005.716	0.12
1006.439	-0.88
1007.163	1.12
1007.887	-0.88
1008.611	0.12
1009.334	-0.88
1010.058	-0.88
1010.781	0.12
1011.504	-0.88
1012.228	0.12
1012.951	-0.88
1013.674	1.12
1014.397	-0.88
1015.12	0.12
