节点500_145_QEPB04081__615__11-38-44-300.txt的数据

Date: Wed Nov 12 11:38:44 CST 2025
User: PC
Spectrometer: QEPB0408
触发模式: 0
积分时间 (秒): 1.000000E-2
Scans to average: 1
启用暗噪声校正: true
启用非线性校正: false
滑动平均宽度: 0
X轴模式: Wavelengths
Number of Pixels in Spectrum: 1044
>>>>>Begin Spectral Data<<<<<
220.843	-0.62
221.644	-0.62
222.444	-0.62
223.244	-0.62
224.045	1.38
224.845	-0.62
225.645	2.38
226.445	-0.62
227.245	1.38
228.045	0.38
228.845	0.38
229.645	2.38
230.444	1.38
231.244	1.38
232.043	0.38
232.843	-1.62
233.642	2.38
234.442	0.38
235.241	2.38
236.04	3.38
236.839	0.38
237.638	3.38
238.437	3.38
239.236	1.38
240.035	1.38
240.833	2.38
241.632	2.38
242.43	2.38
243.229	0.38
244.027	0.38
244.826	1.38
245.624	-1.62
246.422	2.38
247.22	1.38
248.018	2.38
248.816	1.38
249.614	3.38
250.412	2.38
251.21	2.38
252.007	5.38
252.805	3.38
253.602	2.38
254.4	3.38
255.197	2.38
255.994	5.38
256.791	3.38
257.589	3.38
258.386	5.38
259.183	1.38
259.979	1.38
260.776	4.38
261.573	2.38
262.37	2.38
263.166	3.38
263.963	5.38
264.759	5.38
265.556	6.38
266.352	3.38
267.148	4.38
267.944	5.38
268.74	3.38
269.536	5.38
270.332	5.38
271.128	5.38
271.924	6.38
272.719	7.38
273.515	6.38
274.311	9.38
275.106	7.38
275.901	8.38
276.697	10.38
277.492	6.38
278.287	8.38
279.082	9.38
279.877	10.38
280.672	8.38
281.467	9.38
282.262	9.38
283.056	10.38
283.851	10.38
284.646	9.38
285.44	13.38
286.234	11.38
287.029	8.38
287.823	6.38
288.617	9.38
289.411	10.38
290.205	11.38
290.999	11.38
291.793	10.38
292.587	13.38
293.381	9.38
294.174	9.38
294.968	10.38
295.761	10.38
296.555	9.38
297.348	11.38
298.141	8.38
298.935	7.38
299.728	8.38
300.521	9.38
301.314	7.38
302.107	10.38
302.899	7.38
303.692	6.38
304.485	6.38
305.277	9.38
306.07	8.38
306.862	10.38
307.655	6.38
308.447	10.38
309.239	5.38
310.031	7.38
310.823	5.38
311.615	8.38
312.407	6.38
313.199	5.38
313.991	6.38
314.783	5.38
315.574	6.38
316.366	4.38
317.157	7.38
317.949	5.38
318.74	4.38
319.531	4.38
320.322	2.38
321.113	5.38
321.904	4.38
322.695	5.38
323.486	4.38
324.277	4.38
325.068	4.38
325.858	3.38
326.649	6.38
327.439	4.38
328.23	3.38
329.02	4.38
329.81	5.38
330.6	3.38
331.391	3.38
332.181	2.38
332.971	5.38
333.76	3.38
334.55	3.38
335.34	3.38
336.13	4.38
336.919	3.38
337.709	4.38
338.498	3.38
339.287	5.38
340.077	3.38
340.866	3.38
341.655	4.38
342.444	1.38
343.233	3.38
344.022	0.38
344.811	2.38
345.6	2.38
346.388	4.38
347.177	3.38
347.965	5.38
348.754	4.38
349.542	3.38
350.33	2.38
351.119	2.38
351.907	3.38
352.695	1.38
353.483	1.38
354.271	1.38
355.059	1.38
355.846	2.38
356.634	3.38
357.422	0.38
358.209	2.38
358.997	2.38
359.784	4.38
360.571	1.38
361.359	3.38
362.146	3.38
362.933	2.38
363.72	4.38
364.507	1.38
365.294	5.38
366.081	2.38
366.867	2.38
367.654	4.38
368.44	3.38
369.227	2.38
370.013	3.38
370.8	3.38
371.586	1.38
372.372	2.38
373.158	1.38
373.944	3.38
374.73	5.38
375.516	3.38
376.302	3.38
377.088	2.38
377.873	3.38
378.659	1.38
379.445	2.38
380.23	2.38
381.015	0.38
381.801	2.38
382.586	1.38
383.371	1.38
384.156	3.38
384.941	2.38
385.726	4.38
386.511	2.38
387.296	2.38
388.08	4.38
388.865	5.38
389.649	4.38
390.434	3.38
391.218	2.38
392.003	2.38
392.787	6.38
393.571	3.38
394.355	2.38
395.139	2.38
395.923	2.38
396.707	3.38
397.491	2.38
398.274	4.38
399.058	3.38
399.842	3.38
400.625	3.38
401.408	0.38
402.192	2.38
402.975	3.38
403.758	4.38
404.541	1.38
405.324	1.38
406.107	3.38
406.89	3.38
407.673	4.38
408.456	2.38
409.238	5.38
410.021	2.38
410.803	5.38
411.586	3.38
412.368	3.38
413.151	5.38
413.933	3.38
414.715	7.38
415.497	2.38
416.279	6.38
417.061	4.38
417.843	1.38
418.624	4.38
419.406	3.38
420.188	5.38
420.969	5.38
421.751	5.38
422.532	4.38
423.313	6.38
424.095	4.38
424.876	5.38
425.657	7.38
426.438	5.38
427.219	7.38
428	6.38
428.78	6.38
429.561	8.38
430.342	8.38
431.122	8.38
431.903	8.38
432.683	7.38
433.464	8.38
434.244	7.38
435.024	10.38
435.804	8.38
436.584	9.38
437.364	8.38
438.144	9.38
438.924	11.38
439.704	10.38
440.483	12.38
441.263	12.38
442.042	14.38
442.822	17.38
443.601	14.38
444.38	15.38
445.16	15.38
445.939	15.38
446.718	18.38
447.497	19.38
448.276	21.38
449.054	21.38
449.833	24.38
450.612	25.38
451.391	29.38
452.169	29.38
452.948	34.38
453.726	38.38
454.504	41.38
455.282	44.38
456.061	48.38
456.839	56.38
457.617	58.38
458.395	66.38
459.172	76.38
459.95	82.38
460.728	92.38
461.506	101.38
462.283	111.38
463.061	126.38
463.838	142.38
464.615	158.38
465.393	173.38
466.17	193.38
466.947	210.38
467.724	241.38
468.501	265.38
469.278	297.38
470.055	326.38
470.831	354.38
471.608	394.38
472.385	437.38
473.161	485.38
473.938	535.38
474.714	589.38
475.49	644.38
476.266	719.38
477.043	798.38
477.819	873.38
478.595	965.38
479.371	1058.38
480.146	1168.38
480.922	1261.38
481.698	1397.38
482.473	1536.38
483.249	1664.38
484.024	1833.38
484.8	2015.38
485.575	2175.38
486.35	2393.38
487.126	2622.38
487.901	2870.38
488.676	3120.38
489.451	3424.38
490.225	3737.38
491	4087.38
491.775	4442.38
492.55	4866.38
493.324	5274.38
494.099	5759.38
494.873	6266.38
495.647	6794.38
496.422	7362.38
497.196	7945.38
497.97	8508.38
498.744	9147.38
499.518	9872.38
500.292	10508.38
501.066	11119.38
501.839	11706.38
502.613	12324.38
503.387	12937.38
504.16	13521.38
504.934	13942.38
505.707	14362.38
506.48	14742.38
507.253	14966.38
508.027	15109.38
508.8	15224.38
509.573	15202.38
510.346	15146.38
511.118	14915.38
511.891	14665.38
512.664	14328.38
513.437	13960.38
514.209	13576.38
514.982	13095.38
515.754	12629.38
516.526	12137.38
517.298	11638.38
518.071	11179.38
518.843	10744.38
519.615	10237.38
520.387	9813.38
521.159	9442.38
521.93	9054.38
522.702	8687.38
523.474	8363.38
524.245	8069.38
525.017	7727.38
525.788	7421.38
526.56	7108.38
527.331	6835.38
528.102	6528.38
528.873	6288.38
529.644	6002.38
530.415	5744.38
531.186	5486.38
531.957	5234.38
532.728	4964.38
533.498	4713.38
534.269	4479.38
535.039	4265.38
535.81	4016.38
536.58	3813.38
537.351	3612.38
538.121	3390.38
538.891	3214.38
539.661	3055.38
540.431	2897.38
541.201	2735.38
541.971	2583.38
542.741	2442.38
543.51	2308.38
544.28	2195.38
545.05	2107.38
545.819	1985.38
546.588	1893.38
547.358	1789.38
548.127	1695.38
548.896	1633.38
549.665	1539.38
550.434	1467.38
551.203	1392.38
551.972	1326.38
552.741	1253.38
553.51	1195.38
554.278	1134.38
555.047	1063.38
555.815	1011.38
556.584	950.38
557.352	892.38
558.121	849.38
558.889	794.38
559.657	749.38
560.425	710.38
561.193	672.38
561.961	637.38
562.729	605.38
563.496	566.38
564.264	540.38
565.032	505.38
565.799	474.38
566.567	450.38
567.334	419.38
568.101	399.38
568.869	374.38
569.636	355.38
570.403	336.38
571.17	318.38
571.937	298.38
572.704	282.38
573.471	263.38
574.237	243.38
575.004	243.38
575.771	221.38
576.537	213.38
577.303	199.38
578.07	188.38
578.836	174.38
579.602	162.38
580.368	157.38
581.134	146.38
581.9	138.38
582.666	130.38
583.432	121.38
584.198	119.38
584.964	115.38
585.729	108.38
586.495	93.38
587.26	99.38
588.025	90.38
588.791	85.38
589.556	79.38
590.321	76.38
591.086	74.38
591.851	69.38
592.616	63.38
593.381	61.38
594.146	59.38
594.911	55.38
595.675	52.38
596.44	48.38
597.204	48.38
597.969	45.38
598.733	42.38
599.497	38.38
600.261	40.38
601.025	37.38
601.79	37.38
602.553	35.38
603.317	37.38
604.081	28.38
604.845	29.38
605.609	28.38
606.372	27.38
607.136	27.38
607.899	24.38
608.662	24.38
609.426	23.38
610.189	23.38
610.952	22.38
611.715	23.38
612.478	18.38
613.241	17.38
614.004	15.38
614.767	14.38
615.529	15.38
616.292	16.38
617.055	16.38
617.817	14.38
618.579	13.38
619.342	14.38
620.104	10.38
620.866	14.38
621.628	11.38
622.39	10.38
623.152	7.38
623.914	12.38
624.676	10.38
625.438	10.38
626.199	9.38
626.961	11.38
627.722	9.38
628.484	8.38
629.245	9.38
630.006	6.38
630.768	8.38
631.529	7.38
632.29	7.38
633.051	6.38
633.812	5.38
634.573	7.38
635.333	7.38
636.094	7.38
636.855	5.38
637.615	6.38
638.376	4.38
639.136	7.38
639.896	6.38
640.657	5.38
641.417	7.38
642.177	4.38
642.937	3.38
643.697	6.38
644.457	5.38
645.216	6.38
645.976	5.38
646.736	3.38
647.495	3.38
648.255	6.38
649.014	6.38
649.774	2.38
650.533	4.38
651.292	5.38
652.051	2.38
652.81	1.38
653.569	6.38
654.328	3.38
655.087	3.38
655.846	2.38
656.604	3.38
657.363	1.38
658.121	2.38
658.88	3.38
659.638	5.38
660.397	2.38
661.155	3.38
661.913	3.38
662.671	4.38
663.429	2.38
664.187	3.38
664.945	1.38
665.703	1.38
666.46	2.38
667.218	1.38
667.976	2.38
668.733	5.38
669.49	3.38
670.248	5.38
671.005	1.38
671.762	2.38
672.519	3.38
673.276	1.38
674.033	4.38
674.79	3.38
675.547	5.38
676.304	-0.62
677.06	4.38
677.817	1.38
678.574	2.38
679.33	1.38
680.086	2.38
680.843	2.38
681.599	4.38
682.355	1.38
683.111	1.38
683.867	3.38
684.623	3.38
685.379	3.38
686.135	4.38
686.89	2.38
687.646	1.38
688.402	1.38
689.157	2.38
689.912	2.38
690.668	1.38
691.423	3.38
692.178	3.38
692.933	3.38
693.688	2.38
694.443	3.38
695.198	2.38
695.953	2.38
696.708	3.38
697.462	2.38
698.217	0.38
698.972	3.38
699.726	1.38
700.48	0.38
701.235	2.38
701.989	1.38
702.743	0.38
703.497	2.38
704.251	1.38
705.005	3.38
705.759	2.38
706.513	1.38
707.266	1.38
708.02	0.38
708.774	2.38
709.527	-1.62
710.28	-0.62
711.034	-0.62
711.787	5.38
712.54	1.38
713.293	0.38
714.046	3.38
714.799	2.38
715.552	1.38
716.305	2.38
717.058	1.38
717.81	1.38
718.563	3.38
719.315	2.38
720.068	3.38
720.82	2.38
721.573	0.38
722.325	1.38
723.077	2.38
723.829	1.38
724.581	4.38
725.333	1.38
726.085	0.38
726.836	3.38
727.588	-0.62
728.34	1.38
729.091	0.38
729.843	3.38
730.594	0.38
731.346	2.38
732.097	3.38
732.848	1.38
733.599	2.38
734.35	1.38
735.101	0.38
735.852	1.38
736.603	-0.62
737.354	0.38
738.104	1.38
738.855	3.38
739.605	1.38
740.356	3.38
741.106	1.38
741.856	2.38
742.607	3.38
743.357	0.38
744.107	4.38
744.857	0.38
745.607	3.38
746.357	2.38
747.106	4.38
747.856	4.38
748.606	2.38
749.355	2.38
750.105	1.38
750.854	5.38
751.603	3.38
752.353	1.38
753.102	2.38
753.851	3.38
754.6	3.38
755.349	3.38
756.098	1.38
756.847	1.38
757.595	2.38
758.344	3.38
759.093	2.38
759.841	2.38
760.589	2.38
761.338	1.38
762.086	3.38
762.834	-0.62
763.582	3.38
764.331	6.38
765.079	2.38
765.826	4.38
766.574	3.38
767.322	2.38
768.07	2.38
768.817	5.38
769.565	2.38
770.312	5.38
771.06	3.38
771.807	2.38
772.554	2.38
773.302	4.38
774.049	4.38
774.796	4.38
775.543	4.38
776.29	2.38
777.036	5.38
777.783	4.38
778.53	2.38
779.276	3.38
780.023	5.38
780.769	2.38
781.516	7.38
782.262	6.38
783.008	1.38
783.754	6.38
784.5	2.38
785.246	5.38
785.992	4.38
786.738	7.38
787.484	4.38
788.23	4.38
788.975	4.38
789.721	7.38
790.466	7.38
791.212	3.38
791.957	5.38
792.702	2.38
793.447	3.38
794.193	6.38
794.938	3.38
795.683	3.38
796.427	5.38
797.172	3.38
797.917	2.38
798.662	4.38
799.406	5.38
800.151	4.38
800.895	6.38
801.64	4.38
802.384	5.38
803.128	5.38
803.872	5.38
804.616	4.38
805.36	5.38
806.104	3.38
806.848	3.38
807.592	3.38
808.336	3.38
809.079	3.38
809.823	2.38
810.566	2.38
811.31	4.38
812.053	4.38
812.796	3.38
813.539	1.38
814.283	2.38
815.026	2.38
815.769	4.38
816.511	2.38
817.254	1.38
817.997	4.38
818.74	1.38
819.482	4.38
820.225	1.38
820.967	3.38
821.71	4.38
822.452	5.38
823.194	3.38
823.936	5.38
824.678	4.38
825.42	3.38
826.162	2.38
826.904	3.38
827.646	1.38
828.388	3.38
829.129	2.38
829.871	2.38
830.612	2.38
831.354	3.38
832.095	3.38
832.836	1.38
833.577	4.38
834.319	1.38
835.06	1.38
835.801	2.38
836.542	3.38
837.282	2.38
838.023	2.38
838.764	3.38
839.504	-1.62
840.245	3.38
840.985	2.38
841.726	1.38
842.466	1.38
843.206	1.38
843.946	0.38
844.687	2.38
845.427	1.38
846.166	4.38
846.906	2.38
847.646	2.38
848.386	3.38
849.125	1.38
849.865	2.38
850.605	2.38
851.344	3.38
852.083	2.38
852.823	2.38
853.562	1.38
854.301	2.38
855.04	0.38
855.779	1.38
856.518	3.38
857.257	1.38
857.995	1.38
858.734	1.38
859.473	1.38
860.211	2.38
860.95	0.38
861.688	1.38
862.426	1.38
863.165	3.38
863.903	-0.62
864.641	0.38
865.379	1.38
866.117	2.38
866.855	1.38
867.593	-0.62
868.33	1.38
869.068	1.38
869.806	1.38
870.543	-0.62
871.28	1.38
872.018	0.38
872.755	1.38
873.492	1.38
874.229	-0.62
874.967	0.38
875.703	1.38
876.44	3.38
877.177	-2.62
877.914	0.38
878.651	0.38
879.387	-1.62
880.124	3.38
880.86	-0.62
881.597	1.38
882.333	0.38
883.069	2.38
883.806	-0.62
884.542	0.38
885.278	0.38
886.014	0.38
886.749	0.38
887.485	1.38
888.221	-1.62
888.957	0.38
889.692	1.38
890.428	1.38
891.163	3.38
891.899	1.38
892.634	1.38
893.369	1.38
894.104	0.38
894.839	2.38
895.574	1.38
896.309	-1.62
897.044	0.38
897.779	0.38
898.514	0.38
899.248	0.38
899.983	-1.62
900.717	0.38
901.452	3.38
902.186	1.38
902.92	3.38
903.654	-0.62
904.389	1.38
905.123	1.38
905.857	-0.62
906.59	2.38
907.324	-0.62
908.058	1.38
908.792	0.38
909.525	1.38
910.259	0.38
910.992	0.38
911.726	0.38
912.459	0.38
913.192	2.38
913.925	-0.62
914.658	1.38
915.391	1.38
916.124	1.38
916.857	-0.62
917.59	-1.62
918.323	1.38
919.055	1.38
919.788	3.38
920.521	-1.62
921.253	-0.62
921.985	-0.62
922.718	1.38
923.45	0.38
924.182	-0.62
924.914	-0.62
925.646	-0.62
926.378	-0.62
927.11	1.38
927.841	-0.62
928.573	1.38
929.305	-0.62
930.036	0.38
930.768	-0.62
931.499	1.38
932.23	1.38
932.962	-3.62
933.693	1.38
934.424	1.38
935.155	0.38
935.886	-2.62
936.617	1.38
937.348	1.38
938.078	0.38
938.809	1.38
939.54	-0.62
940.27	1.38
941.001	-1.62
941.731	0.38
942.461	0.38
943.191	1.38
943.922	1.38
944.652	1.38
945.382	0.38
946.112	0.38
946.841	1.38
947.571	0.38
948.301	-1.62
949.031	-0.62
949.76	-0.62
950.49	0.38
951.219	-0.62
951.948	0.38
952.678	0.38
953.407	-0.62
954.136	0.38
954.865	1.38
955.594	-0.62
956.323	0.38
957.052	1.38
957.78	-0.62
958.509	0.38
959.238	0.38
959.966	-1.62
960.695	1.38
961.423	-0.62
962.151	2.38
962.88	-1.62
963.608	0.38
964.336	1.38
965.064	1.38
965.792	1.38
966.52	-1.62
967.247	2.38
967.975	1.38
968.703	0.38
969.43	-1.62
970.158	-0.62
970.885	0.38
971.613	0.38
972.34	1.38
973.067	-0.62
973.794	1.38
974.521	0.38
975.248	0.38
975.975	0.38
976.702	0.38
977.429	0.38
978.156	0.38
978.882	0.38
979.609	1.38
980.335	0.38
981.062	-0.62
981.788	1.38
982.514	0.38
983.24	-0.62
983.967	-1.62
984.693	1.38
985.419	0.38
986.144	-1.62
986.87	0.38
987.596	0.38
988.322	-1.62
989.047	-1.62
989.773	-0.62
990.498	1.38
991.224	1.38
991.949	0.38
992.674	0.38
993.399	-1.62
994.124	0.38
994.849	0.38
995.574	-0.62
996.299	-0.62
997.024	2.38
997.749	1.38
998.473	1.38
999.198	0.38
999.922	-0.62
1000.647	-1.62
1001.371	2.38
1002.095	-1.62
1002.82	-0.62
1003.544	1.38
1004.268	0.38
1004.992	-0.62
1005.716	-2.62
1006.439	-0.62
1007.163	-0.62
1007.887	-0.62
1008.611	-0.62
1009.334	1.38
1010.058	0.38
1010.781	-0.62
1011.504	-1.62
1012.228	2.38
1012.951	0.38
1013.674	1.38
1014.397	-1.62
1015.12	-1.62
