节点500_145_QEPB04081__39__11-29-33-775.txt的数据

Date: Wed Nov 12 11:29:33 CST 2025
User: PC
Spectrometer: QEPB0408
触发模式: 0
积分时间 (秒): 1.000000E-2
Scans to average: 1
启用暗噪声校正: true
启用非线性校正: false
滑动平均宽度: 0
X轴模式: Wavelengths
Number of Pixels in Spectrum: 1044
>>>>>Begin Spectral Data<<<<<
220.843	-1.38
221.644	-1.38
222.444	-0.38
223.244	-1.38
224.045	-2.38
224.845	-0.38
225.645	-1.38
226.445	-0.38
227.245	-1.38
228.045	-2.38
228.845	0.62
229.645	-1.38
230.444	0.62
231.244	1.62
232.043	0.62
232.843	0.62
233.642	0.62
234.442	0.62
235.241	0.62
236.04	2.62
236.839	0.62
237.638	2.62
238.437	-0.38
239.236	3.62
240.035	1.62
240.833	0.62
241.632	0.62
242.43	1.62
243.229	3.62
244.027	2.62
244.826	1.62
245.624	0.62
246.422	1.62
247.22	1.62
248.018	1.62
248.816	2.62
249.614	1.62
250.412	1.62
251.21	0.62
252.007	2.62
252.805	2.62
253.602	3.62
254.4	1.62
255.197	1.62
255.994	2.62
256.791	2.62
257.589	3.62
258.386	2.62
259.183	4.62
259.979	2.62
260.776	5.62
261.573	4.62
262.37	7.62
263.166	5.62
263.963	3.62
264.759	4.62
265.556	6.62
266.352	5.62
267.148	5.62
267.944	6.62
268.74	8.62
269.536	7.62
270.332	9.62
271.128	7.62
271.924	6.62
272.719	6.62
273.515	8.62
274.311	6.62
275.106	9.62
275.901	9.62
276.697	7.62
277.492	9.62
278.287	9.62
279.082	9.62
279.877	11.62
280.672	11.62
281.467	12.62
282.262	8.62
283.056	9.62
283.851	7.62
284.646	10.62
285.44	13.62
286.234	9.62
287.029	12.62
287.823	11.62
288.617	13.62
289.411	12.62
290.205	12.62
290.999	8.62
291.793	9.62
292.587	12.62
293.381	10.62
294.174	10.62
294.968	8.62
295.761	10.62
296.555	8.62
297.348	7.62
298.141	8.62
298.935	11.62
299.728	8.62
300.521	9.62
301.314	7.62
302.107	7.62
302.899	6.62
303.692	8.62
304.485	8.62
305.277	6.62
306.07	7.62
306.862	10.62
307.655	6.62
308.447	6.62
309.239	8.62
310.031	7.62
310.823	8.62
311.615	7.62
312.407	2.62
313.199	7.62
313.991	4.62
314.783	6.62
315.574	4.62
316.366	4.62
317.157	4.62
317.949	2.62
318.74	6.62
319.531	3.62
320.322	4.62
321.113	2.62
321.904	4.62
322.695	5.62
323.486	5.62
324.277	3.62
325.068	2.62
325.858	1.62
326.649	2.62
327.439	1.62
328.23	2.62
329.02	3.62
329.81	4.62
330.6	1.62
331.391	3.62
332.181	3.62
332.971	2.62
333.76	3.62
334.55	1.62
335.34	2.62
336.13	3.62
336.919	3.62
337.709	2.62
338.498	4.62
339.287	4.62
340.077	0.62
340.866	2.62
341.655	1.62
342.444	0.62
343.233	4.62
344.022	0.62
344.811	5.62
345.6	3.62
346.388	2.62
347.177	2.62
347.965	1.62
348.754	3.62
349.542	2.62
350.33	2.62
351.119	3.62
351.907	4.62
352.695	2.62
353.483	1.62
354.271	4.62
355.059	1.62
355.846	4.62
356.634	3.62
357.422	1.62
358.209	2.62
358.997	2.62
359.784	1.62
360.571	0.62
361.359	1.62
362.146	2.62
362.933	3.62
363.72	1.62
364.507	2.62
365.294	2.62
366.081	1.62
366.867	3.62
367.654	2.62
368.44	1.62
369.227	1.62
370.013	4.62
370.8	3.62
371.586	1.62
372.372	1.62
373.158	0.62
373.944	2.62
374.73	2.62
375.516	0.62
376.302	4.62
377.088	1.62
377.873	1.62
378.659	4.62
379.445	3.62
380.23	1.62
381.015	1.62
381.801	2.62
382.586	2.62
383.371	1.62
384.156	3.62
384.941	2.62
385.726	1.62
386.511	0.62
387.296	3.62
388.08	3.62
388.865	5.62
389.649	3.62
390.434	1.62
391.218	0.62
392.003	3.62
392.787	4.62
393.571	3.62
394.355	2.62
395.139	2.62
395.923	2.62
396.707	1.62
397.491	3.62
398.274	1.62
399.058	4.62
399.842	4.62
400.625	1.62
401.408	2.62
402.192	3.62
402.975	4.62
403.758	3.62
404.541	1.62
405.324	2.62
406.107	1.62
406.89	1.62
407.673	3.62
408.456	4.62
409.238	2.62
410.021	3.62
410.803	5.62
411.586	3.62
412.368	4.62
413.151	3.62
413.933	4.62
414.715	6.62
415.497	4.62
416.279	6.62
417.061	5.62
417.843	3.62
418.624	4.62
419.406	2.62
420.188	3.62
420.969	5.62
421.751	4.62
422.532	7.62
423.313	7.62
424.095	6.62
424.876	4.62
425.657	5.62
426.438	5.62
427.219	5.62
428	6.62
428.78	7.62
429.561	9.62
430.342	5.62
431.122	6.62
431.903	7.62
432.683	6.62
433.464	7.62
434.244	8.62
435.024	7.62
435.804	9.62
436.584	5.62
437.364	10.62
438.144	8.62
438.924	10.62
439.704	9.62
440.483	10.62
441.263	11.62
442.042	12.62
442.822	12.62
443.601	13.62
444.38	14.62
445.16	16.62
445.939	15.62
446.718	18.62
447.497	17.62
448.276	22.62
449.054	22.62
449.833	25.62
450.612	22.62
451.391	21.62
452.169	28.62
452.948	29.62
453.726	29.62
454.504	35.62
455.282	33.62
456.061	39.62
456.839	41.62
457.617	49.62
458.395	51.62
459.172	60.62
459.95	64.62
460.728	70.62
461.506	78.62
462.283	83.62
463.061	98.62
463.838	111.62
464.615	121.62
465.393	138.62
466.17	152.62
466.947	166.62
467.724	187.62
468.501	214.62
469.278	239.62
470.055	268.62
470.831	297.62
471.608	334.62
472.385	369.62
473.161	418.62
473.938	462.62
474.714	526.62
475.49	588.62
476.266	643.62
477.043	729.62
477.819	805.62
478.595	906.62
479.371	1005.62
480.146	1109.62
480.922	1245.62
481.698	1370.62
482.473	1520.62
483.249	1679.62
484.024	1873.62
484.8	2090.62
485.575	2300.62
486.35	2555.62
487.126	2853.62
487.901	3167.62
488.676	3496.62
489.451	3865.62
490.225	4302.62
491	4746.62
491.775	5263.62
492.55	5824.62
493.324	6387.62
494.099	7000.62
494.873	7689.62
495.647	8458.62
496.422	9228.62
497.196	9977.62
497.97	10786.62
498.744	11590.62
499.518	12381.62
500.292	13215.62
501.066	14005.62
501.839	14726.62
502.613	15459.62
503.387	16012.62
504.16	16557.62
504.934	16921.62
505.707	17226.62
506.48	17399.62
507.253	17446.62
508.027	17383.62
508.8	17167.62
509.573	16932.62
510.346	16539.62
511.118	15991.62
511.891	15492.62
512.664	14871.62
513.437	14313.62
514.209	13745.62
514.982	13097.62
515.754	12503.62
516.526	11915.62
517.298	11318.62
518.071	10855.62
518.843	10326.62
519.615	9904.62
520.387	9481.62
521.159	9116.62
521.93	8735.62
522.702	8382.62
523.474	8110.62
524.245	7758.62
525.017	7448.62
525.788	7193.62
526.56	6853.62
527.331	6540.62
528.102	6303.62
528.873	5985.62
529.644	5671.62
530.415	5412.62
531.186	5156.62
531.957	4877.62
532.728	4582.62
533.498	4318.62
534.269	4114.62
535.039	3850.62
535.81	3656.62
536.58	3418.62
537.351	3246.62
538.121	3071.62
538.891	2894.62
539.661	2729.62
540.431	2570.62
541.201	2430.62
541.971	2315.62
542.741	2185.62
543.51	2073.62
544.28	1976.62
545.05	1901.62
545.819	1789.62
546.588	1708.62
547.358	1628.62
548.127	1531.62
548.896	1460.62
549.665	1390.62
550.434	1312.62
551.203	1245.62
551.972	1157.62
552.741	1105.62
553.51	1050.62
554.278	994.62
555.047	934.62
555.815	880.62
556.584	831.62
557.352	770.62
558.121	747.62
558.889	693.62
559.657	654.62
560.425	625.62
561.193	586.62
561.961	549.62
562.729	517.62
563.496	481.62
564.264	459.62
565.032	430.62
565.799	413.62
566.567	390.62
567.334	364.62
568.101	344.62
568.869	328.62
569.636	311.62
570.403	290.62
571.17	278.62
571.937	264.62
572.704	238.62
573.471	230.62
574.237	215.62
575.004	201.62
575.771	193.62
576.537	180.62
577.303	169.62
578.07	159.62
578.836	147.62
579.602	141.62
580.368	135.62
581.134	123.62
581.9	119.62
582.666	110.62
583.432	105.62
584.198	102.62
584.964	95.62
585.729	88.62
586.495	85.62
587.26	81.62
588.025	76.62
588.791	69.62
589.556	70.62
590.321	64.62
591.086	62.62
591.851	58.62
592.616	52.62
593.381	54.62
594.146	49.62
594.911	49.62
595.675	46.62
596.44	41.62
597.204	41.62
597.969	37.62
598.733	34.62
599.497	35.62
600.261	36.62
601.025	32.62
601.79	30.62
602.553	29.62
603.317	25.62
604.081	24.62
604.845	24.62
605.609	23.62
606.372	23.62
607.136	21.62
607.899	22.62
608.662	21.62
609.426	21.62
610.189	19.62
610.952	18.62
611.715	15.62
612.478	13.62
613.241	16.62
614.004	13.62
614.767	14.62
615.529	13.62
616.292	14.62
617.055	14.62
617.817	14.62
618.579	13.62
619.342	13.62
620.104	11.62
620.866	14.62
621.628	9.62
622.39	10.62
623.152	11.62
623.914	9.62
624.676	9.62
625.438	7.62
626.199	7.62
626.961	6.62
627.722	7.62
628.484	9.62
629.245	8.62
630.006	10.62
630.768	6.62
631.529	6.62
632.29	5.62
633.051	6.62
633.812	7.62
634.573	6.62
635.333	7.62
636.094	7.62
636.855	3.62
637.615	3.62
638.376	5.62
639.136	3.62
639.896	3.62
640.657	6.62
641.417	4.62
642.177	4.62
642.937	5.62
643.697	5.62
644.457	5.62
645.216	4.62
645.976	4.62
646.736	5.62
647.495	3.62
648.255	4.62
649.014	4.62
649.774	1.62
650.533	0.62
651.292	4.62
652.051	2.62
652.81	2.62
653.569	3.62
654.328	2.62
655.087	2.62
655.846	1.62
656.604	5.62
657.363	6.62
658.121	1.62
658.88	0.62
659.638	2.62
660.397	1.62
661.155	3.62
661.913	1.62
662.671	4.62
663.429	1.62
664.187	2.62
664.945	3.62
665.703	2.62
666.46	4.62
667.218	2.62
667.976	3.62
668.733	1.62
669.49	3.62
670.248	1.62
671.005	4.62
671.762	1.62
672.519	4.62
673.276	2.62
674.033	2.62
674.79	2.62
675.547	2.62
676.304	0.62
677.06	0.62
677.817	1.62
678.574	3.62
679.33	1.62
680.086	3.62
680.843	1.62
681.599	1.62
682.355	-0.38
683.111	-2.38
683.867	0.62
684.623	-0.38
685.379	1.62
686.135	2.62
686.89	3.62
687.646	0.62
688.402	-0.38
689.157	1.62
689.912	1.62
690.668	-0.38
691.423	2.62
692.178	0.62
692.933	3.62
693.688	-0.38
694.443	0.62
695.198	-0.38
695.953	2.62
696.708	1.62
697.462	0.62
698.217	1.62
698.972	0.62
699.726	1.62
700.48	0.62
701.235	0.62
701.989	1.62
702.743	0.62
703.497	3.62
704.251	0.62
705.005	1.62
705.759	1.62
706.513	2.62
707.266	0.62
708.02	1.62
708.774	1.62
709.527	-1.38
710.28	4.62
711.034	0.62
711.787	1.62
712.54	1.62
713.293	1.62
714.046	3.62
714.799	1.62
715.552	-0.38
716.305	1.62
717.058	2.62
717.81	0.62
718.563	0.62
719.315	1.62
720.068	1.62
720.82	0.62
721.573	1.62
722.325	-0.38
723.077	2.62
723.829	0.62
724.581	0.62
725.333	1.62
726.085	2.62
726.836	0.62
727.588	-0.38
728.34	2.62
729.091	-0.38
729.843	1.62
730.594	0.62
731.346	2.62
732.097	4.62
732.848	-0.38
733.599	3.62
734.35	-0.38
735.101	2.62
735.852	2.62
736.603	1.62
737.354	1.62
738.104	0.62
738.855	1.62
739.605	0.62
740.356	3.62
741.106	1.62
741.856	2.62
742.607	2.62
743.357	2.62
744.107	1.62
744.857	2.62
745.607	2.62
746.357	1.62
747.106	0.62
747.856	1.62
748.606	0.62
749.355	2.62
750.105	0.62
750.854	1.62
751.603	3.62
752.353	1.62
753.102	2.62
753.851	2.62
754.6	4.62
755.349	0.62
756.098	2.62
756.847	3.62
757.595	2.62
758.344	1.62
759.093	1.62
759.841	2.62
760.589	2.62
761.338	1.62
762.086	2.62
762.834	4.62
763.582	3.62
764.331	5.62
765.079	1.62
765.826	1.62
766.574	3.62
767.322	2.62
768.07	3.62
768.817	2.62
769.565	1.62
770.312	4.62
771.06	3.62
771.807	4.62
772.554	5.62
773.302	4.62
774.049	3.62
774.796	3.62
775.543	3.62
776.29	3.62
777.036	2.62
777.783	4.62
778.53	4.62
779.276	5.62
780.023	5.62
780.769	4.62
781.516	6.62
782.262	4.62
783.008	4.62
783.754	5.62
784.5	5.62
785.246	4.62
785.992	3.62
786.738	4.62
787.484	6.62
788.23	5.62
788.975	5.62
789.721	6.62
790.466	6.62
791.212	3.62
791.957	4.62
792.702	4.62
793.447	3.62
794.193	5.62
794.938	3.62
795.683	4.62
796.427	4.62
797.172	3.62
797.917	5.62
798.662	4.62
799.406	5.62
800.151	2.62
800.895	6.62
801.64	5.62
802.384	3.62
803.128	4.62
803.872	5.62
804.616	3.62
805.36	2.62
806.104	5.62
806.848	1.62
807.592	1.62
808.336	4.62
809.079	4.62
809.823	2.62
810.566	0.62
811.31	1.62
812.053	2.62
812.796	5.62
813.539	2.62
814.283	2.62
815.026	3.62
815.769	2.62
816.511	4.62
817.254	2.62
817.997	3.62
818.74	3.62
819.482	2.62
820.225	1.62
820.967	1.62
821.71	1.62
822.452	2.62
823.194	5.62
823.936	3.62
824.678	1.62
825.42	4.62
826.162	0.62
826.904	1.62
827.646	1.62
828.388	1.62
829.129	1.62
829.871	3.62
830.612	2.62
831.354	-1.38
832.095	2.62
832.836	2.62
833.577	1.62
834.319	1.62
835.06	1.62
835.801	2.62
836.542	1.62
837.282	2.62
838.023	2.62
838.764	0.62
839.504	2.62
840.245	0.62
840.985	1.62
841.726	-0.38
842.466	1.62
843.206	1.62
843.946	0.62
844.687	3.62
845.427	0.62
846.166	1.62
846.906	3.62
847.646	1.62
848.386	0.62
849.125	0.62
849.865	1.62
850.605	1.62
851.344	1.62
852.083	2.62
852.823	2.62
853.562	0.62
854.301	-0.38
855.04	-0.38
855.779	0.62
856.518	2.62
857.257	2.62
857.995	4.62
858.734	5.62
859.473	0.62
860.211	0.62
860.95	0.62
861.688	0.62
862.426	1.62
863.165	2.62
863.903	3.62
864.641	-0.38
865.379	-0.38
866.117	-1.38
866.855	1.62
867.593	0.62
868.33	1.62
869.068	2.62
869.806	-2.38
870.543	-1.38
871.28	-0.38
872.018	1.62
872.755	0.62
873.492	2.62
874.229	1.62
874.967	-2.38
875.703	0.62
876.44	-0.38
877.177	-0.38
877.914	-2.38
878.651	0.62
879.387	1.62
880.124	0.62
880.86	-2.38
881.597	-1.38
882.333	-0.38
883.069	2.62
883.806	-1.38
884.542	0.62
885.278	-2.38
886.014	1.62
886.749	-0.38
887.485	1.62
888.221	1.62
888.957	2.62
889.692	0.62
890.428	-0.38
891.163	-0.38
891.899	0.62
892.634	-2.38
893.369	0.62
894.104	0.62
894.839	1.62
895.574	0.62
896.309	-0.38
897.044	-1.38
897.779	3.62
898.514	0.62
899.248	-0.38
899.983	0.62
900.717	-1.38
901.452	0.62
902.186	-1.38
902.92	-0.38
903.654	-0.38
904.389	0.62
905.123	0.62
905.857	-1.38
906.59	0.62
907.324	1.62
908.058	0.62
908.792	2.62
909.525	-0.38
910.259	0.62
910.992	0.62
911.726	0.62
912.459	-0.38
913.192	0.62
913.925	-0.38
914.658	0.62
915.391	-0.38
916.124	-0.38
916.857	-1.38
917.59	-1.38
918.323	-0.38
919.055	-0.38
919.788	-0.38
920.521	1.62
921.253	-1.38
921.985	0.62
922.718	-0.38
923.45	-2.38
924.182	0.62
924.914	-2.38
925.646	1.62
926.378	-2.38
927.11	-0.38
927.841	-1.38
928.573	-1.38
929.305	-2.38
930.036	-1.38
930.768	1.62
931.499	0.62
932.23	0.62
932.962	1.62
933.693	-0.38
934.424	-1.38
935.155	0.62
935.886	1.62
936.617	-0.38
937.348	0.62
938.078	-0.38
938.809	-0.38
939.54	-0.38
940.27	0.62
941.001	1.62
941.731	1.62
942.461	-0.38
943.191	-2.38
943.922	-2.38
944.652	-0.38
945.382	-0.38
946.112	2.62
946.841	-2.38
947.571	-2.38
948.301	-2.38
949.031	0.62
949.76	0.62
950.49	0.62
951.219	-1.38
951.948	-0.38
952.678	0.62
953.407	-2.38
954.136	0.62
954.865	-1.38
955.594	0.62
956.323	-0.38
957.052	-1.38
957.78	-0.38
958.509	2.62
959.238	-2.38
959.966	0.62
960.695	-2.38
961.423	-0.38
962.151	0.62
962.88	-0.38
963.608	1.62
964.336	2.62
965.064	-0.38
965.792	-1.38
966.52	0.62
967.247	0.62
967.975	-0.38
968.703	-0.38
969.43	0.62
970.158	1.62
970.885	-2.38
971.613	0.62
972.34	0.62
973.067	1.62
973.794	0.62
974.521	1.62
975.248	2.62
975.975	-1.38
976.702	0.62
977.429	0.62
978.156	0.62
978.882	-0.38
979.609	0.62
980.335	-0.38
981.062	-0.38
981.788	-2.38
982.514	0.62
983.24	1.62
983.967	-1.38
984.693	-0.38
985.419	-0.38
986.144	-1.38
986.87	-1.38
987.596	1.62
988.322	-2.38
989.047	-1.38
989.773	-0.38
990.498	0.62
991.224	-2.38
991.949	-0.38
992.674	1.62
993.399	-3.38
994.124	-0.38
994.849	-0.38
995.574	-1.38
996.299	-0.38
997.024	-0.38
997.749	-0.38
998.473	0.62
999.198	-2.38
999.922	0.62
1000.647	-0.38
1001.371	2.62
1002.095	-0.38
1002.82	-0.38
1003.544	-1.38
1004.268	-0.38
1004.992	-3.38
1005.716	-2.38
1006.439	-0.38
1007.163	0.62
1007.887	1.62
1008.611	1.62
1009.334	1.62
1010.058	-0.38
1010.781	0.62
1011.504	0.62
1012.228	-0.38
1012.951	-0.38
1013.674	-0.38
1014.397	-0.38
1015.12	0.62
