节点500_145_QEPB04081__131__11-31-02-599.txt的数据

Date: Wed Nov 12 11:31:02 CST 2025
User: PC
Spectrometer: QEPB0408
触发模式: 0
积分时间 (秒): 1.000000E-2
Scans to average: 1
启用暗噪声校正: true
启用非线性校正: false
滑动平均宽度: 0
X轴模式: Wavelengths
Number of Pixels in Spectrum: 1044
>>>>>Begin Spectral Data<<<<<
220.843	-0.62
221.644	-1.62
222.444	1.38
223.244	-1.62
224.045	1.38
224.845	1.38
225.645	2.38
226.445	0.38
227.245	-0.62
228.045	-0.62
228.845	1.38
229.645	1.38
230.444	1.38
231.244	1.38
232.043	-1.62
232.843	0.38
233.642	1.38
234.442	1.38
235.241	2.38
236.04	0.38
236.839	1.38
237.638	2.38
238.437	-0.62
239.236	2.38
240.035	1.38
240.833	2.38
241.632	2.38
242.43	3.38
243.229	0.38
244.027	2.38
244.826	4.38
245.624	0.38
246.422	3.38
247.22	1.38
248.018	4.38
248.816	2.38
249.614	2.38
250.412	3.38
251.21	3.38
252.007	4.38
252.805	3.38
253.602	3.38
254.4	6.38
255.197	3.38
255.994	4.38
256.791	4.38
257.589	5.38
258.386	4.38
259.183	5.38
259.979	5.38
260.776	5.38
261.573	4.38
262.37	4.38
263.166	5.38
263.963	8.38
264.759	3.38
265.556	7.38
266.352	5.38
267.148	5.38
267.944	4.38
268.74	7.38
269.536	6.38
270.332	8.38
271.128	6.38
271.924	8.38
272.719	8.38
273.515	7.38
274.311	8.38
275.106	9.38
275.901	9.38
276.697	7.38
277.492	8.38
278.287	10.38
279.082	12.38
279.877	9.38
280.672	13.38
281.467	11.38
282.262	10.38
283.056	9.38
283.851	13.38
284.646	11.38
285.44	10.38
286.234	12.38
287.029	9.38
287.823	10.38
288.617	11.38
289.411	8.38
290.205	9.38
290.999	10.38
291.793	13.38
292.587	11.38
293.381	12.38
294.174	12.38
294.968	10.38
295.761	9.38
296.555	9.38
297.348	9.38
298.141	7.38
298.935	10.38
299.728	9.38
300.521	7.38
301.314	9.38
302.107	8.38
302.899	10.38
303.692	9.38
304.485	10.38
305.277	9.38
306.07	9.38
306.862	9.38
307.655	8.38
308.447	10.38
309.239	7.38
310.031	8.38
310.823	6.38
311.615	7.38
312.407	8.38
313.199	6.38
313.991	5.38
314.783	8.38
315.574	7.38
316.366	7.38
317.157	4.38
317.949	5.38
318.74	5.38
319.531	3.38
320.322	5.38
321.113	4.38
321.904	5.38
322.695	3.38
323.486	5.38
324.277	4.38
325.068	3.38
325.858	5.38
326.649	4.38
327.439	5.38
328.23	3.38
329.02	5.38
329.81	3.38
330.6	5.38
331.391	3.38
332.181	3.38
332.971	4.38
333.76	2.38
334.55	5.38
335.34	3.38
336.13	5.38
336.919	2.38
337.709	4.38
338.498	4.38
339.287	4.38
340.077	5.38
340.866	3.38
341.655	2.38
342.444	1.38
343.233	5.38
344.022	3.38
344.811	4.38
345.6	6.38
346.388	4.38
347.177	4.38
347.965	5.38
348.754	6.38
349.542	3.38
350.33	3.38
351.119	4.38
351.907	1.38
352.695	4.38
353.483	2.38
354.271	3.38
355.059	4.38
355.846	2.38
356.634	4.38
357.422	4.38
358.209	3.38
358.997	3.38
359.784	4.38
360.571	5.38
361.359	2.38
362.146	3.38
362.933	3.38
363.72	3.38
364.507	3.38
365.294	2.38
366.081	3.38
366.867	2.38
367.654	2.38
368.44	3.38
369.227	2.38
370.013	4.38
370.8	0.38
371.586	1.38
372.372	1.38
373.158	3.38
373.944	4.38
374.73	2.38
375.516	1.38
376.302	3.38
377.088	3.38
377.873	1.38
378.659	4.38
379.445	2.38
380.23	5.38
381.015	1.38
381.801	2.38
382.586	3.38
383.371	2.38
384.156	5.38
384.941	2.38
385.726	0.38
386.511	3.38
387.296	0.38
388.08	2.38
388.865	3.38
389.649	4.38
390.434	1.38
391.218	3.38
392.003	4.38
392.787	4.38
393.571	4.38
394.355	4.38
395.139	1.38
395.923	3.38
396.707	1.38
397.491	4.38
398.274	2.38
399.058	4.38
399.842	3.38
400.625	6.38
401.408	5.38
402.192	3.38
402.975	5.38
403.758	2.38
404.541	4.38
405.324	7.38
406.107	5.38
406.89	3.38
407.673	4.38
408.456	4.38
409.238	6.38
410.021	5.38
410.803	7.38
411.586	5.38
412.368	3.38
413.151	5.38
413.933	5.38
414.715	5.38
415.497	6.38
416.279	7.38
417.061	3.38
417.843	4.38
418.624	2.38
419.406	6.38
420.188	5.38
420.969	7.38
421.751	5.38
422.532	5.38
423.313	7.38
424.095	5.38
424.876	4.38
425.657	7.38
426.438	8.38
427.219	8.38
428	6.38
428.78	9.38
429.561	5.38
430.342	8.38
431.122	10.38
431.903	8.38
432.683	7.38
433.464	7.38
434.244	9.38
435.024	8.38
435.804	10.38
436.584	7.38
437.364	10.38
438.144	11.38
438.924	9.38
439.704	12.38
440.483	14.38
441.263	13.38
442.042	14.38
442.822	13.38
443.601	12.38
444.38	14.38
445.16	18.38
445.939	17.38
446.718	18.38
447.497	19.38
448.276	17.38
449.054	20.38
449.833	21.38
450.612	26.38
451.391	23.38
452.169	29.38
452.948	29.38
453.726	28.38
454.504	37.38
455.282	37.38
456.061	46.38
456.839	49.38
457.617	53.38
458.395	55.38
459.172	64.38
459.95	70.38
460.728	76.38
461.506	84.38
462.283	99.38
463.061	109.38
463.838	120.38
464.615	133.38
465.393	147.38
466.17	165.38
466.947	182.38
467.724	201.38
468.501	233.38
469.278	253.38
470.055	283.38
470.831	320.38
471.608	350.38
472.385	392.38
473.161	432.38
473.938	489.38
474.714	559.38
475.49	609.38
476.266	675.38
477.043	747.38
477.819	838.38
478.595	930.38
479.371	1022.38
480.146	1132.38
480.922	1249.38
481.698	1400.38
482.473	1549.38
483.249	1718.38
484.024	1900.38
484.8	2099.38
485.575	2327.38
486.35	2572.38
487.126	2869.38
487.901	3175.38
488.676	3487.38
489.451	3881.38
490.225	4257.38
491	4716.38
491.775	5203.38
492.55	5678.38
493.324	6277.38
494.099	6872.38
494.873	7534.38
495.647	8217.38
496.422	8904.38
497.196	9689.38
497.97	10461.38
498.744	11274.38
499.518	12066.38
500.292	12856.38
501.066	13593.38
501.839	14310.38
502.613	15023.38
503.387	15632.38
504.16	16148.38
504.934	16573.38
505.707	16901.38
506.48	17121.38
507.253	17227.38
508.027	17209.38
508.8	17070.38
509.573	16846.38
510.346	16483.38
511.118	16074.38
511.891	15606.38
512.664	15052.38
513.437	14470.38
514.209	13861.38
514.982	13287.38
515.754	12713.38
516.526	12092.38
517.298	11527.38
518.071	10993.38
518.843	10537.38
519.615	10092.38
520.387	9686.38
521.159	9275.38
521.93	8945.38
522.702	8584.38
523.474	8228.38
524.245	7943.38
525.017	7588.38
525.788	7305.38
526.56	6994.38
527.331	6700.38
528.102	6405.38
528.873	6081.38
529.644	5837.38
530.415	5524.38
531.186	5263.38
531.957	4985.38
532.728	4747.38
533.498	4454.38
534.269	4214.38
535.039	3994.38
535.81	3774.38
536.58	3550.38
537.351	3333.38
538.121	3164.38
538.891	2990.38
539.661	2800.38
540.431	2659.38
541.201	2533.38
541.971	2388.38
542.741	2275.38
543.51	2153.38
544.28	2044.38
545.05	1946.38
545.819	1830.38
546.588	1742.38
547.358	1685.38
548.127	1575.38
548.896	1505.38
549.665	1420.38
550.434	1357.38
551.203	1299.38
551.972	1214.38
552.741	1150.38
553.51	1086.38
554.278	1024.38
555.047	967.38
555.815	908.38
556.584	863.38
557.352	814.38
558.121	762.38
558.889	717.38
559.657	665.38
560.425	642.38
561.193	601.38
561.961	566.38
562.729	537.38
563.496	507.38
564.264	468.38
565.032	455.38
565.799	421.38
566.567	408.38
567.334	374.38
568.101	359.38
568.869	337.38
569.636	312.38
570.403	297.38
571.17	285.38
571.937	276.38
572.704	248.38
573.471	236.38
574.237	225.38
575.004	211.38
575.771	201.38
576.537	188.38
577.303	174.38
578.07	161.38
578.836	154.38
579.602	146.38
580.368	134.38
581.134	132.38
581.9	130.38
582.666	120.38
583.432	110.38
584.198	105.38
584.964	101.38
585.729	94.38
586.495	90.38
587.26	83.38
588.025	76.38
588.791	73.38
589.556	71.38
590.321	69.38
591.086	64.38
591.851	58.38
592.616	60.38
593.381	52.38
594.146	49.38
594.911	52.38
595.675	46.38
596.44	44.38
597.204	42.38
597.969	39.38
598.733	37.38
599.497	39.38
600.261	38.38
601.025	33.38
601.79	33.38
602.553	33.38
603.317	30.38
604.081	30.38
604.845	24.38
605.609	26.38
606.372	24.38
607.136	23.38
607.899	23.38
608.662	21.38
609.426	22.38
610.189	17.38
610.952	20.38
611.715	15.38
612.478	15.38
613.241	17.38
614.004	19.38
614.767	17.38
615.529	16.38
616.292	16.38
617.055	12.38
617.817	13.38
618.579	14.38
619.342	11.38
620.104	13.38
620.866	9.38
621.628	14.38
622.39	11.38
623.152	10.38
623.914	11.38
624.676	10.38
625.438	9.38
626.199	10.38
626.961	10.38
627.722	8.38
628.484	9.38
629.245	9.38
630.006	9.38
630.768	7.38
631.529	8.38
632.29	6.38
633.051	7.38
633.812	7.38
634.573	8.38
635.333	7.38
636.094	6.38
636.855	6.38
637.615	7.38
638.376	3.38
639.136	4.38
639.896	7.38
640.657	4.38
641.417	6.38
642.177	5.38
642.937	4.38
643.697	4.38
644.457	7.38
645.216	3.38
645.976	3.38
646.736	5.38
647.495	6.38
648.255	4.38
649.014	5.38
649.774	2.38
650.533	5.38
651.292	4.38
652.051	2.38
652.81	1.38
653.569	5.38
654.328	5.38
655.087	4.38
655.846	4.38
656.604	1.38
657.363	4.38
658.121	3.38
658.88	4.38
659.638	3.38
660.397	3.38
661.155	3.38
661.913	-0.62
662.671	3.38
663.429	2.38
664.187	2.38
664.945	1.38
665.703	2.38
666.46	1.38
667.218	2.38
667.976	2.38
668.733	4.38
669.49	1.38
670.248	2.38
671.005	2.38
671.762	5.38
672.519	3.38
673.276	4.38
674.033	1.38
674.79	0.38
675.547	5.38
676.304	2.38
677.06	1.38
677.817	-0.62
678.574	2.38
679.33	3.38
680.086	2.38
680.843	4.38
681.599	2.38
682.355	2.38
683.111	2.38
683.867	5.38
684.623	2.38
685.379	4.38
686.135	2.38
686.89	3.38
687.646	3.38
688.402	1.38
689.157	2.38
689.912	3.38
690.668	2.38
691.423	4.38
692.178	3.38
692.933	2.38
693.688	-0.62
694.443	4.38
695.198	2.38
695.953	3.38
696.708	1.38
697.462	1.38
698.217	2.38
698.972	2.38
699.726	3.38
700.48	3.38
701.235	2.38
701.989	3.38
702.743	2.38
703.497	3.38
704.251	2.38
705.005	2.38
705.759	1.38
706.513	4.38
707.266	1.38
708.02	-0.62
708.774	1.38
709.527	2.38
710.28	1.38
711.034	3.38
711.787	1.38
712.54	2.38
713.293	1.38
714.046	5.38
714.799	1.38
715.552	4.38
716.305	2.38
717.058	1.38
717.81	2.38
718.563	2.38
719.315	3.38
720.068	1.38
720.82	2.38
721.573	1.38
722.325	0.38
723.077	4.38
723.829	1.38
724.581	2.38
725.333	1.38
726.085	3.38
726.836	2.38
727.588	2.38
728.34	3.38
729.091	0.38
729.843	1.38
730.594	0.38
731.346	2.38
732.097	2.38
732.848	1.38
733.599	2.38
734.35	1.38
735.101	2.38
735.852	4.38
736.603	4.38
737.354	3.38
738.104	5.38
738.855	3.38
739.605	1.38
740.356	3.38
741.106	3.38
741.856	1.38
742.607	2.38
743.357	1.38
744.107	4.38
744.857	3.38
745.607	2.38
746.357	5.38
747.106	3.38
747.856	1.38
748.606	2.38
749.355	3.38
750.105	2.38
750.854	3.38
751.603	2.38
752.353	2.38
753.102	6.38
753.851	3.38
754.6	4.38
755.349	0.38
756.098	3.38
756.847	2.38
757.595	4.38
758.344	3.38
759.093	3.38
759.841	3.38
760.589	3.38
761.338	4.38
762.086	2.38
762.834	4.38
763.582	6.38
764.331	4.38
765.079	4.38
765.826	2.38
766.574	5.38
767.322	4.38
768.07	3.38
768.817	5.38
769.565	2.38
770.312	5.38
771.06	5.38
771.807	3.38
772.554	4.38
773.302	3.38
774.049	4.38
774.796	5.38
775.543	2.38
776.29	6.38
777.036	1.38
777.783	4.38
778.53	5.38
779.276	4.38
780.023	4.38
780.769	5.38
781.516	3.38
782.262	5.38
783.008	4.38
783.754	6.38
784.5	8.38
785.246	5.38
785.992	5.38
786.738	6.38
787.484	4.38
788.23	5.38
788.975	3.38
789.721	4.38
790.466	7.38
791.212	5.38
791.957	8.38
792.702	5.38
793.447	6.38
794.193	4.38
794.938	3.38
795.683	3.38
796.427	6.38
797.172	6.38
797.917	3.38
798.662	6.38
799.406	6.38
800.151	7.38
800.895	4.38
801.64	3.38
802.384	3.38
803.128	6.38
803.872	5.38
804.616	3.38
805.36	5.38
806.104	4.38
806.848	6.38
807.592	4.38
808.336	2.38
809.079	2.38
809.823	3.38
810.566	3.38
811.31	7.38
812.053	4.38
812.796	6.38
813.539	2.38
814.283	5.38
815.026	3.38
815.769	2.38
816.511	5.38
817.254	2.38
817.997	6.38
818.74	3.38
819.482	2.38
820.225	3.38
820.967	6.38
821.71	2.38
822.452	5.38
823.194	3.38
823.936	4.38
824.678	3.38
825.42	2.38
826.162	1.38
826.904	3.38
827.646	3.38
828.388	5.38
829.129	5.38
829.871	2.38
830.612	4.38
831.354	2.38
832.095	3.38
832.836	2.38
833.577	2.38
834.319	2.38
835.06	1.38
835.801	3.38
836.542	2.38
837.282	3.38
838.023	1.38
838.764	4.38
839.504	1.38
840.245	2.38
840.985	2.38
841.726	0.38
842.466	3.38
843.206	1.38
843.946	1.38
844.687	0.38
845.427	-0.62
846.166	1.38
846.906	3.38
847.646	2.38
848.386	1.38
849.125	1.38
849.865	2.38
850.605	1.38
851.344	3.38
852.083	1.38
852.823	3.38
853.562	1.38
854.301	2.38
855.04	-0.62
855.779	2.38
856.518	2.38
857.257	2.38
857.995	2.38
858.734	1.38
859.473	2.38
860.211	4.38
860.95	2.38
861.688	2.38
862.426	1.38
863.165	2.38
863.903	0.38
864.641	3.38
865.379	3.38
866.117	3.38
866.855	3.38
867.593	0.38
868.33	2.38
869.068	1.38
869.806	0.38
870.543	0.38
871.28	1.38
872.018	1.38
872.755	0.38
873.492	2.38
874.229	1.38
874.967	1.38
875.703	1.38
876.44	1.38
877.177	-1.62
877.914	1.38
878.651	3.38
879.387	0.38
880.124	1.38
880.86	-0.62
881.597	0.38
882.333	-3.62
883.069	1.38
883.806	1.38
884.542	1.38
885.278	0.38
886.014	3.38
886.749	2.38
887.485	0.38
888.221	0.38
888.957	1.38
889.692	0.38
890.428	-0.62
891.163	0.38
891.899	-0.62
892.634	0.38
893.369	0.38
894.104	1.38
894.839	0.38
895.574	0.38
896.309	3.38
897.044	-1.62
897.779	1.38
898.514	1.38
899.248	-0.62
899.983	1.38
900.717	-0.62
901.452	3.38
902.186	0.38
902.92	2.38
903.654	-0.62
904.389	-1.62
905.123	0.38
905.857	-2.62
906.59	0.38
907.324	-1.62
908.058	0.38
908.792	0.38
909.525	1.38
910.259	0.38
910.992	1.38
911.726	-0.62
912.459	-0.62
913.192	-0.62
913.925	-0.62
914.658	0.38
915.391	2.38
916.124	0.38
916.857	2.38
917.59	-0.62
918.323	1.38
919.055	2.38
919.788	1.38
920.521	1.38
921.253	-0.62
921.985	0.38
922.718	-1.62
923.45	3.38
924.182	0.38
924.914	-1.62
925.646	1.38
926.378	-0.62
927.11	1.38
927.841	0.38
928.573	0.38
929.305	1.38
930.036	-1.62
930.768	0.38
931.499	1.38
932.23	0.38
932.962	1.38
933.693	0.38
934.424	2.38
935.155	0.38
935.886	-0.62
936.617	-1.62
937.348	0.38
938.078	1.38
938.809	-0.62
939.54	0.38
940.27	1.38
941.001	1.38
941.731	-1.62
942.461	1.38
943.191	1.38
943.922	0.38
944.652	1.38
945.382	-1.62
946.112	1.38
946.841	-1.62
947.571	1.38
948.301	3.38
949.031	1.38
949.76	1.38
950.49	1.38
951.219	0.38
951.948	1.38
952.678	0.38
953.407	0.38
954.136	0.38
954.865	0.38
955.594	-1.62
956.323	2.38
957.052	0.38
957.78	1.38
958.509	-2.62
959.238	1.38
959.966	1.38
960.695	-0.62
961.423	2.38
962.151	1.38
962.88	1.38
963.608	0.38
964.336	0.38
965.064	1.38
965.792	-0.62
966.52	0.38
967.247	1.38
967.975	1.38
968.703	0.38
969.43	-1.62
970.158	-1.62
970.885	0.38
971.613	0.38
972.34	0.38
973.067	1.38
973.794	1.38
974.521	-0.62
975.248	1.38
975.975	2.38
976.702	1.38
977.429	-1.62
978.156	0.38
978.882	0.38
979.609	-1.62
980.335	3.38
981.062	0.38
981.788	0.38
982.514	0.38
983.24	1.38
983.967	-0.62
984.693	0.38
985.419	-0.62
986.144	0.38
986.87	1.38
987.596	1.38
988.322	0.38
989.047	1.38
989.773	-0.62
990.498	0.38
991.224	3.38
991.949	0.38
992.674	2.38
993.399	0.38
994.124	1.38
994.849	0.38
995.574	-1.62
996.299	-1.62
997.024	0.38
997.749	1.38
998.473	0.38
999.198	1.38
999.922	-2.62
1000.647	1.38
1001.371	2.38
1002.095	-0.62
1002.82	-0.62
1003.544	0.38
1004.268	-1.62
1004.992	1.38
1005.716	-1.62
1006.439	0.38
1007.163	0.38
1007.887	0.38
1008.611	0.38
1009.334	1.38
1010.058	1.38
1010.781	1.38
1011.504	-1.62
1012.228	0.38
1012.951	-0.62
1013.674	-1.62
1014.397	1.38
1015.12	-0.62
