节点500_145_QEPB04081__416__11-35-37-528.txt的数据

Date: Wed Nov 12 11:35:37 CST 2025
User: PC
Spectrometer: QEPB0408
触发模式: 0
积分时间 (秒): 1.000000E-2
Scans to average: 1
启用暗噪声校正: true
启用非线性校正: false
滑动平均宽度: 0
X轴模式: Wavelengths
Number of Pixels in Spectrum: 1044
>>>>>Begin Spectral Data<<<<<
220.843	0
221.644	-1
222.444	-3
223.244	2
224.045	1
224.845	1
225.645	0
226.445	-3
227.245	-1
228.045	-1
228.845	0
229.645	0
230.444	-2
231.244	0
232.043	1
232.843	0
233.642	1
234.442	0
235.241	0
236.04	-1
236.839	2
237.638	-1
238.437	3
239.236	1
240.035	0
240.833	0
241.632	0
242.43	2
243.229	1
244.027	0
244.826	0
245.624	2
246.422	1
247.22	2
248.018	3
248.816	0
249.614	2
250.412	2
251.21	2
252.007	3
252.805	4
253.602	0
254.4	1
255.197	5
255.994	1
256.791	2
257.589	2
258.386	5
259.183	3
259.979	4
260.776	4
261.573	4
262.37	7
263.166	2
263.963	4
264.759	5
265.556	3
266.352	5
267.148	4
267.944	7
268.74	7
269.536	5
270.332	10
271.128	6
271.924	5
272.719	8
273.515	8
274.311	9
275.106	7
275.901	8
276.697	8
277.492	11
278.287	10
279.082	9
279.877	9
280.672	11
281.467	10
282.262	9
283.056	10
283.851	10
284.646	9
285.44	11
286.234	10
287.029	11
287.823	12
288.617	10
289.411	10
290.205	9
290.999	10
291.793	11
292.587	10
293.381	10
294.174	11
294.968	11
295.761	9
296.555	10
297.348	9
298.141	10
298.935	10
299.728	10
300.521	10
301.314	6
302.107	9
302.899	6
303.692	10
304.485	10
305.277	8
306.07	6
306.862	10
307.655	9
308.447	7
309.239	8
310.031	6
310.823	8
311.615	8
312.407	7
313.199	6
313.991	5
314.783	6
315.574	8
316.366	6
317.157	5
317.949	3
318.74	6
319.531	5
320.322	4
321.113	3
321.904	4
322.695	5
323.486	4
324.277	6
325.068	3
325.858	4
326.649	3
327.439	4
328.23	4
329.02	2
329.81	3
330.6	5
331.391	4
332.181	3
332.971	5
333.76	2
334.55	3
335.34	3
336.13	4
336.919	6
337.709	3
338.498	3
339.287	3
340.077	5
340.866	5
341.655	2
342.444	5
343.233	1
344.022	3
344.811	4
345.6	3
346.388	5
347.177	5
347.965	4
348.754	2
349.542	4
350.33	3
351.119	2
351.907	3
352.695	3
353.483	0
354.271	2
355.059	3
355.846	1
356.634	3
357.422	3
358.209	3
358.997	5
359.784	1
360.571	2
361.359	1
362.146	3
362.933	2
363.72	1
364.507	5
365.294	1
366.081	4
366.867	1
367.654	1
368.44	4
369.227	1
370.013	4
370.8	1
371.586	2
372.372	2
373.158	2
373.944	1
374.73	1
375.516	2
376.302	2
377.088	1
377.873	4
378.659	1
379.445	2
380.23	2
381.015	2
381.801	3
382.586	3
383.371	2
384.156	3
384.941	4
385.726	2
386.511	4
387.296	5
388.08	0
388.865	1
389.649	3
390.434	2
391.218	2
392.003	5
392.787	2
393.571	4
394.355	3
395.139	2
395.923	4
396.707	2
397.491	3
398.274	3
399.058	3
399.842	3
400.625	2
401.408	3
402.192	3
402.975	4
403.758	2
404.541	1
405.324	6
406.107	3
406.89	2
407.673	2
408.456	4
409.238	5
410.021	2
410.803	4
411.586	4
412.368	6
413.151	4
413.933	4
414.715	5
415.497	5
416.279	5
417.061	2
417.843	4
418.624	6
419.406	3
420.188	6
420.969	5
421.751	4
422.532	4
423.313	7
424.095	7
424.876	5
425.657	7
426.438	6
427.219	6
428	7
428.78	8
429.561	7
430.342	6
431.122	8
431.903	7
432.683	9
433.464	4
434.244	12
435.024	7
435.804	8
436.584	10
437.364	11
438.144	8
438.924	10
439.704	9
440.483	12
441.263	14
442.042	9
442.822	11
443.601	15
444.38	17
445.16	16
445.939	16
446.718	19
447.497	18
448.276	22
449.054	21
449.833	25
450.612	27
451.391	30
452.169	27
452.948	32
453.726	38
454.504	42
455.282	41
456.061	50
456.839	55
457.617	58
458.395	61
459.172	66
459.95	78
460.728	86
461.506	94
462.283	109
463.061	116
463.838	135
464.615	143
465.393	165
466.17	183
466.947	207
467.724	226
468.501	252
469.278	277
470.055	312
470.831	345
471.608	381
472.385	426
473.161	470
473.938	530
474.714	581
475.49	645
476.266	711
477.043	780
477.819	872
478.595	965
479.371	1040
480.146	1176
480.922	1280
481.698	1397
482.473	1555
483.249	1698
484.024	1868
484.8	2048
485.575	2248
486.35	2465
487.126	2720
487.901	2999
488.676	3271
489.451	3599
490.225	3954
491	4296
491.775	4704
492.55	5158
493.324	5634
494.099	6182
494.873	6738
495.647	7342
496.422	7920
497.196	8567
497.97	9251
498.744	9961
499.518	10612
500.292	11363
501.066	12053
501.839	12717
502.613	13313
503.387	13971
504.16	14539
504.934	14992
505.707	15337
506.48	15679
507.253	15907
508.027	16050
508.8	16036
509.573	15975
510.346	15777
511.118	15496
511.891	15128
512.664	14787
513.437	14283
514.209	13861
514.982	13265
515.754	12775
516.526	12247
517.298	11715
518.071	11196
518.843	10757
519.615	10268
520.387	9846
521.159	9436
521.93	9104
522.702	8704
523.474	8368
524.245	8046
525.017	7718
525.788	7375
526.56	7102
527.331	6835
528.102	6522
528.873	6250
529.644	5981
530.415	5728
531.186	5439
531.957	5203
532.728	4958
533.498	4660
534.269	4424
535.039	4209
535.81	3975
536.58	3750
537.351	3527
538.121	3351
538.891	3173
539.661	3004
540.431	2827
541.201	2684
541.971	2514
542.741	2385
543.51	2289
544.28	2151
545.05	2039
545.819	1964
546.588	1839
547.358	1768
548.127	1686
548.896	1598
549.665	1503
550.434	1426
551.203	1347
551.972	1295
552.741	1232
553.51	1145
554.278	1094
555.047	1043
555.815	985
556.584	929
557.352	875
558.121	817
558.889	770
559.657	729
560.425	684
561.193	653
561.961	612
562.729	574
563.496	554
564.264	507
565.032	487
565.799	458
566.567	433
567.334	413
568.101	383
568.869	362
569.636	349
570.403	327
571.17	308
571.937	289
572.704	276
573.471	253
574.237	232
575.004	217
575.771	211
576.537	197
577.303	193
578.07	183
578.836	169
579.602	161
580.368	148
581.134	142
581.9	134
582.666	126
583.432	120
584.198	114
584.964	103
585.729	101
586.495	94
587.26	87
588.025	88
588.791	82
589.556	80
590.321	73
591.086	69
591.851	64
592.616	59
593.381	60
594.146	57
594.911	57
595.675	53
596.44	47
597.204	47
597.969	43
598.733	40
599.497	40
600.261	38
601.025	39
601.79	32
602.553	34
603.317	33
604.081	30
604.845	27
605.609	27
606.372	28
607.136	24
607.899	25
608.662	25
609.426	20
610.189	21
610.952	21
611.715	20
612.478	19
613.241	19
614.004	18
614.767	17
615.529	18
616.292	14
617.055	16
617.817	13
618.579	14
619.342	13
620.104	12
620.866	15
621.628	10
622.39	10
623.152	10
623.914	8
624.676	11
625.438	9
626.199	7
626.961	9
627.722	12
628.484	8
629.245	9
630.006	8
630.768	8
631.529	10
632.29	8
633.051	8
633.812	6
634.573	8
635.333	6
636.094	6
636.855	5
637.615	7
638.376	8
639.136	6
639.896	3
640.657	4
641.417	5
642.177	7
642.937	5
643.697	5
644.457	5
645.216	3
645.976	5
646.736	3
647.495	7
648.255	5
649.014	6
649.774	7
650.533	2
651.292	5
652.051	5
652.81	4
653.569	4
654.328	3
655.087	5
655.846	2
656.604	3
657.363	4
658.121	3
658.88	4
659.638	5
660.397	3
661.155	3
661.913	2
662.671	5
663.429	3
664.187	2
664.945	5
665.703	4
666.46	2
667.218	4
667.976	3
668.733	2
669.49	2
670.248	3
671.005	3
671.762	1
672.519	2
673.276	1
674.033	2
674.79	3
675.547	4
676.304	3
677.06	2
677.817	1
678.574	-1
679.33	4
680.086	2
680.843	1
681.599	2
682.355	2
683.111	3
683.867	1
684.623	3
685.379	3
686.135	1
686.89	1
687.646	2
688.402	1
689.157	3
689.912	2
690.668	1
691.423	1
692.178	0
692.933	1
693.688	0
694.443	0
695.198	4
695.953	3
696.708	1
697.462	4
698.217	3
698.972	0
699.726	2
700.48	3
701.235	2
701.989	3
702.743	2
703.497	1
704.251	1
705.005	2
705.759	1
706.513	1
707.266	3
708.02	2
708.774	-1
709.527	3
710.28	1
711.034	2
711.787	2
712.54	1
713.293	1
714.046	0
714.799	3
715.552	0
716.305	3
717.058	3
717.81	2
718.563	1
719.315	1
720.068	2
720.82	2
721.573	2
722.325	3
723.077	2
723.829	2
724.581	2
725.333	1
726.085	1
726.836	2
727.588	2
728.34	1
729.091	1
729.843	3
730.594	2
731.346	1
732.097	2
732.848	1
733.599	-1
734.35	1
735.101	2
735.852	4
736.603	3
737.354	3
738.104	2
738.855	3
739.605	1
740.356	1
741.106	1
741.856	1
742.607	2
743.357	2
744.107	4
744.857	1
745.607	-1
746.357	4
747.106	1
747.856	4
748.606	2
749.355	2
750.105	1
750.854	3
751.603	2
752.353	5
753.102	1
753.851	1
754.6	1
755.349	4
756.098	1
756.847	2
757.595	3
758.344	4
759.093	2
759.841	3
760.589	3
761.338	5
762.086	5
762.834	3
763.582	0
764.331	5
765.079	3
765.826	4
766.574	2
767.322	5
768.07	4
768.817	4
769.565	4
770.312	2
771.06	3
771.807	3
772.554	2
773.302	5
774.049	4
774.796	6
775.543	4
776.29	4
777.036	3
777.783	6
778.53	3
779.276	3
780.023	4
780.769	4
781.516	4
782.262	5
783.008	3
783.754	5
784.5	6
785.246	6
785.992	5
786.738	4
787.484	5
788.23	3
788.975	4
789.721	3
790.466	4
791.212	4
791.957	4
792.702	5
793.447	4
794.193	3
794.938	4
795.683	6
796.427	4
797.172	4
797.917	3
798.662	4
799.406	5
800.151	4
800.895	4
801.64	3
802.384	4
803.128	6
803.872	5
804.616	5
805.36	2
806.104	3
806.848	2
807.592	3
808.336	7
809.079	4
809.823	4
810.566	3
811.31	2
812.053	1
812.796	5
813.539	5
814.283	5
815.026	2
815.769	4
816.511	3
817.254	3
817.997	4
818.74	3
819.482	4
820.225	2
820.967	3
821.71	2
822.452	4
823.194	2
823.936	2
824.678	3
825.42	2
826.162	-1
826.904	3
827.646	1
828.388	4
829.129	0
829.871	1
830.612	1
831.354	3
832.095	3
832.836	3
833.577	2
834.319	2
835.06	2
835.801	2
836.542	0
837.282	3
838.023	2
838.764	3
839.504	2
840.245	1
840.985	2
841.726	1
842.466	2
843.206	3
843.946	2
844.687	0
845.427	2
846.166	0
846.906	3
847.646	4
848.386	1
849.125	0
849.865	2
850.605	1
851.344	2
852.083	4
852.823	1
853.562	2
854.301	1
855.04	3
855.779	1
856.518	4
857.257	0
857.995	3
858.734	1
859.473	2
860.211	3
860.95	1
861.688	1
862.426	0
863.165	2
863.903	1
864.641	1
865.379	3
866.117	1
866.855	1
867.593	1
868.33	2
869.068	0
869.806	2
870.543	1
871.28	0
872.018	0
872.755	1
873.492	1
874.229	0
874.967	1
875.703	0
876.44	0
877.177	1
877.914	1
878.651	3
879.387	0
880.124	1
880.86	-2
881.597	1
882.333	1
883.069	1
883.806	-1
884.542	1
885.278	-1
886.014	2
886.749	2
887.485	-2
888.221	1
888.957	1
889.692	1
890.428	0
891.163	0
891.899	0
892.634	-1
893.369	1
894.104	2
894.839	-2
895.574	-1
896.309	1
897.044	-1
897.779	1
898.514	0
899.248	1
899.983	-1
900.717	3
901.452	0
902.186	0
902.92	2
903.654	1
904.389	1
905.123	0
905.857	1
906.59	0
907.324	-1
908.058	1
908.792	-1
909.525	0
910.259	1
910.992	1
911.726	0
912.459	-1
913.192	0
913.925	-1
914.658	0
915.391	-1
916.124	0
916.857	0
917.59	-1
918.323	0
919.055	2
919.788	1
920.521	-2
921.253	1
921.985	-1
922.718	0
923.45	0
924.182	-1
924.914	-1
925.646	-2
926.378	2
927.11	1
927.841	-1
928.573	1
929.305	0
930.036	0
930.768	0
931.499	0
932.23	-3
932.962	-2
933.693	0
934.424	0
935.155	2
935.886	0
936.617	2
937.348	0
938.078	-1
938.809	-1
939.54	0
940.27	-1
941.001	-1
941.731	1
942.461	1
943.191	-2
943.922	1
944.652	-2
945.382	-1
946.112	-1
946.841	-1
947.571	0
948.301	-2
949.031	0
949.76	0
950.49	-2
951.219	-1
951.948	1
952.678	-1
953.407	1
954.136	2
954.865	-2
955.594	1
956.323	1
957.052	-2
957.78	1
958.509	0
959.238	2
959.966	1
960.695	0
961.423	0
962.151	0
962.88	-1
963.608	0
964.336	1
965.064	-2
965.792	-1
966.52	0
967.247	0
967.975	2
968.703	-1
969.43	0
970.158	1
970.885	0
971.613	1
972.34	1
973.067	0
973.794	0
974.521	0
975.248	-1
975.975	-1
976.702	0
977.429	2
978.156	-2
978.882	-2
979.609	-1
980.335	-1
981.062	1
981.788	0
982.514	0
983.24	0
983.967	0
984.693	-2
985.419	0
986.144	1
986.87	-2
987.596	-2
988.322	2
989.047	1
989.773	0
990.498	0
991.224	1
991.949	0
992.674	-2
993.399	1
994.124	0
994.849	-1
995.574	1
996.299	1
997.024	0
997.749	-1
998.473	1
999.198	-2
999.922	1
1000.647	-3
1001.371	5
1002.095	-2
1002.82	-2
1003.544	-1
1004.268	1
1004.992	-1
1005.716	0
1006.439	2
1007.163	-1
1007.887	1
1008.611	-2
1009.334	-1
1010.058	1
1010.781	0
1011.504	-3
1012.228	1
1012.951	1
1013.674	0
1014.397	0
1015.12	-1
