节点500_145_QEPB04081__107__11-30-40-595.txt的数据

Date: Wed Nov 12 11:30:40 CST 2025
User: PC
Spectrometer: QEPB0408
触发模式: 0
积分时间 (秒): 1.000000E-2
Scans to average: 1
启用暗噪声校正: true
启用非线性校正: false
滑动平均宽度: 0
X轴模式: Wavelengths
Number of Pixels in Spectrum: 1044
>>>>>Begin Spectral Data<<<<<
220.843	-0.38
221.644	-1.38
222.444	-1.38
223.244	-0.38
224.045	0.62
224.845	1.62
225.645	-0.38
226.445	-0.38
227.245	-0.38
228.045	-3.38
228.845	-2.38
229.645	-1.38
230.444	0.62
231.244	1.62
232.043	1.62
232.843	0.62
233.642	-1.38
234.442	0.62
235.241	1.62
236.04	0.62
236.839	-0.38
237.638	1.62
238.437	0.62
239.236	-1.38
240.035	1.62
240.833	-0.38
241.632	1.62
242.43	2.62
243.229	0.62
244.027	0.62
244.826	1.62
245.624	3.62
246.422	1.62
247.22	-0.38
248.018	1.62
248.816	1.62
249.614	0.62
250.412	0.62
251.21	2.62
252.007	3.62
252.805	2.62
253.602	-0.38
254.4	0.62
255.197	4.62
255.994	2.62
256.791	2.62
257.589	4.62
258.386	5.62
259.183	2.62
259.979	2.62
260.776	3.62
261.573	1.62
262.37	3.62
263.166	5.62
263.963	3.62
264.759	5.62
265.556	4.62
266.352	6.62
267.148	5.62
267.944	6.62
268.74	6.62
269.536	5.62
270.332	9.62
271.128	6.62
271.924	9.62
272.719	7.62
273.515	7.62
274.311	7.62
275.106	7.62
275.901	8.62
276.697	10.62
277.492	9.62
278.287	9.62
279.082	10.62
279.877	8.62
280.672	8.62
281.467	10.62
282.262	10.62
283.056	8.62
283.851	11.62
284.646	7.62
285.44	8.62
286.234	10.62
287.029	11.62
287.823	10.62
288.617	10.62
289.411	11.62
290.205	11.62
290.999	11.62
291.793	10.62
292.587	11.62
293.381	8.62
294.174	8.62
294.968	11.62
295.761	8.62
296.555	9.62
297.348	8.62
298.141	9.62
298.935	10.62
299.728	11.62
300.521	9.62
301.314	8.62
302.107	7.62
302.899	8.62
303.692	8.62
304.485	8.62
305.277	8.62
306.07	8.62
306.862	4.62
307.655	7.62
308.447	8.62
309.239	5.62
310.031	6.62
310.823	7.62
311.615	5.62
312.407	5.62
313.199	7.62
313.991	4.62
314.783	7.62
315.574	4.62
316.366	5.62
317.157	6.62
317.949	5.62
318.74	4.62
319.531	5.62
320.322	5.62
321.113	4.62
321.904	3.62
322.695	4.62
323.486	3.62
324.277	3.62
325.068	2.62
325.858	4.62
326.649	5.62
327.439	3.62
328.23	3.62
329.02	2.62
329.81	4.62
330.6	2.62
331.391	4.62
332.181	2.62
332.971	1.62
333.76	1.62
334.55	2.62
335.34	3.62
336.13	3.62
336.919	1.62
337.709	4.62
338.498	1.62
339.287	3.62
340.077	2.62
340.866	4.62
341.655	1.62
342.444	3.62
343.233	3.62
344.022	2.62
344.811	4.62
345.6	0.62
346.388	2.62
347.177	2.62
347.965	3.62
348.754	1.62
349.542	0.62
350.33	2.62
351.119	2.62
351.907	4.62
352.695	0.62
353.483	2.62
354.271	2.62
355.059	1.62
355.846	3.62
356.634	2.62
357.422	4.62
358.209	2.62
358.997	3.62
359.784	4.62
360.571	0.62
361.359	2.62
362.146	1.62
362.933	2.62
363.72	1.62
364.507	3.62
365.294	5.62
366.081	3.62
366.867	1.62
367.654	1.62
368.44	0.62
369.227	1.62
370.013	0.62
370.8	2.62
371.586	1.62
372.372	3.62
373.158	0.62
373.944	2.62
374.73	1.62
375.516	2.62
376.302	0.62
377.088	3.62
377.873	2.62
378.659	0.62
379.445	0.62
380.23	2.62
381.015	3.62
381.801	0.62
382.586	3.62
383.371	4.62
384.156	1.62
384.941	1.62
385.726	2.62
386.511	2.62
387.296	1.62
388.08	4.62
388.865	3.62
389.649	5.62
390.434	1.62
391.218	4.62
392.003	1.62
392.787	2.62
393.571	2.62
394.355	3.62
395.139	3.62
395.923	0.62
396.707	4.62
397.491	1.62
398.274	3.62
399.058	4.62
399.842	8.62
400.625	2.62
401.408	3.62
402.192	2.62
402.975	1.62
403.758	3.62
404.541	4.62
405.324	2.62
406.107	4.62
406.89	6.62
407.673	6.62
408.456	4.62
409.238	2.62
410.021	4.62
410.803	3.62
411.586	4.62
412.368	2.62
413.151	3.62
413.933	2.62
414.715	4.62
415.497	5.62
416.279	5.62
417.061	3.62
417.843	4.62
418.624	4.62
419.406	4.62
420.188	5.62
420.969	6.62
421.751	4.62
422.532	4.62
423.313	6.62
424.095	7.62
424.876	4.62
425.657	7.62
426.438	7.62
427.219	5.62
428	5.62
428.78	6.62
429.561	8.62
430.342	5.62
431.122	9.62
431.903	7.62
432.683	8.62
433.464	8.62
434.244	7.62
435.024	4.62
435.804	7.62
436.584	9.62
437.364	8.62
438.144	9.62
438.924	11.62
439.704	11.62
440.483	10.62
441.263	13.62
442.042	10.62
442.822	12.62
443.601	13.62
444.38	15.62
445.16	16.62
445.939	15.62
446.718	15.62
447.497	18.62
448.276	19.62
449.054	21.62
449.833	23.62
450.612	22.62
451.391	25.62
452.169	26.62
452.948	28.62
453.726	34.62
454.504	34.62
455.282	38.62
456.061	43.62
456.839	45.62
457.617	51.62
458.395	52.62
459.172	63.62
459.95	68.62
460.728	77.62
461.506	80.62
462.283	96.62
463.061	106.62
463.838	116.62
464.615	129.62
465.393	143.62
466.17	163.62
466.947	182.62
467.724	203.62
468.501	228.62
469.278	248.62
470.055	286.62
470.831	306.62
471.608	353.62
472.385	388.62
473.161	439.62
473.938	485.62
474.714	545.62
475.49	602.62
476.266	675.62
477.043	759.62
477.819	837.62
478.595	925.62
479.371	1019.62
480.146	1144.62
480.922	1255.62
481.698	1401.62
482.473	1528.62
483.249	1722.62
484.024	1894.62
484.8	2098.62
485.575	2324.62
486.35	2564.62
487.126	2863.62
487.901	3169.62
488.676	3514.62
489.451	3916.62
490.225	4278.62
491	4753.62
491.775	5235.62
492.55	5708.62
493.324	6353.62
494.099	6954.62
494.873	7613.62
495.647	8323.62
496.422	8974.62
497.196	9768.62
497.97	10597.62
498.744	11398.62
499.518	12162.62
500.292	13025.62
501.066	13803.62
501.839	14464.62
502.613	15187.62
503.387	15746.62
504.16	16322.62
504.934	16773.62
505.707	17047.62
506.48	17283.62
507.253	17349.62
508.027	17290.62
508.8	17120.62
509.573	16892.62
510.346	16573.62
511.118	16071.62
511.891	15621.62
512.664	15033.62
513.437	14479.62
514.209	13899.62
514.982	13291.62
515.754	12689.62
516.526	12106.62
517.298	11529.62
518.071	11017.62
518.843	10516.62
519.615	10091.62
520.387	9681.62
521.159	9284.62
521.93	8923.62
522.702	8553.62
523.474	8214.62
524.245	7929.62
525.017	7585.62
525.788	7281.62
526.56	6973.62
527.331	6731.62
528.102	6367.62
528.873	6102.62
529.644	5813.62
530.415	5556.62
531.186	5262.62
531.957	5003.62
532.728	4700.62
533.498	4444.62
534.269	4187.62
535.039	3968.62
535.81	3722.62
536.58	3517.62
537.351	3321.62
538.121	3142.62
538.891	2980.62
539.661	2803.62
540.431	2655.62
541.201	2507.62
541.971	2387.62
542.741	2256.62
543.51	2134.62
544.28	2019.62
545.05	1922.62
545.819	1830.62
546.588	1740.62
547.358	1659.62
548.127	1581.62
548.896	1500.62
549.665	1421.62
550.434	1350.62
551.203	1269.62
551.972	1208.62
552.741	1147.62
553.51	1067.62
554.278	1024.62
555.047	957.62
555.815	914.62
556.584	856.62
557.352	810.62
558.121	744.62
558.889	717.62
559.657	672.62
560.425	639.62
561.193	604.62
561.961	556.62
562.729	532.62
563.496	505.62
564.264	472.62
565.032	452.62
565.799	423.62
566.567	398.62
567.334	380.62
568.101	352.62
568.869	335.62
569.636	317.62
570.403	294.62
571.17	284.62
571.937	275.62
572.704	250.62
573.471	234.62
574.237	224.62
575.004	209.62
575.771	199.62
576.537	185.62
577.303	178.62
578.07	153.62
578.836	152.62
579.602	150.62
580.368	135.62
581.134	130.62
581.9	122.62
582.666	116.62
583.432	109.62
584.198	106.62
584.964	98.62
585.729	91.62
586.495	88.62
587.26	83.62
588.025	76.62
588.791	74.62
589.556	70.62
590.321	67.62
591.086	63.62
591.851	60.62
592.616	56.62
593.381	53.62
594.146	48.62
594.911	46.62
595.675	48.62
596.44	42.62
597.204	45.62
597.969	37.62
598.733	38.62
599.497	37.62
600.261	35.62
601.025	31.62
601.79	31.62
602.553	30.62
603.317	28.62
604.081	27.62
604.845	23.62
605.609	24.62
606.372	24.62
607.136	22.62
607.899	24.62
608.662	22.62
609.426	19.62
610.189	16.62
610.952	19.62
611.715	17.62
612.478	19.62
613.241	15.62
614.004	15.62
614.767	15.62
615.529	15.62
616.292	13.62
617.055	15.62
617.817	12.62
618.579	13.62
619.342	10.62
620.104	11.62
620.866	11.62
621.628	11.62
622.39	12.62
623.152	8.62
623.914	10.62
624.676	8.62
625.438	8.62
626.199	9.62
626.961	8.62
627.722	10.62
628.484	7.62
629.245	6.62
630.006	4.62
630.768	6.62
631.529	7.62
632.29	7.62
633.051	10.62
633.812	6.62
634.573	5.62
635.333	5.62
636.094	5.62
636.855	4.62
637.615	2.62
638.376	6.62
639.136	6.62
639.896	5.62
640.657	3.62
641.417	6.62
642.177	5.62
642.937	6.62
643.697	4.62
644.457	0.62
645.216	2.62
645.976	5.62
646.736	3.62
647.495	4.62
648.255	2.62
649.014	4.62
649.774	5.62
650.533	2.62
651.292	3.62
652.051	2.62
652.81	2.62
653.569	1.62
654.328	1.62
655.087	3.62
655.846	2.62
656.604	2.62
657.363	2.62
658.121	4.62
658.88	4.62
659.638	3.62
660.397	2.62
661.155	3.62
661.913	3.62
662.671	2.62
663.429	3.62
664.187	3.62
664.945	-0.38
665.703	3.62
666.46	-0.38
667.218	2.62
667.976	0.62
668.733	3.62
669.49	3.62
670.248	1.62
671.005	2.62
671.762	1.62
672.519	1.62
673.276	2.62
674.033	1.62
674.79	2.62
675.547	0.62
676.304	4.62
677.06	0.62
677.817	3.62
678.574	-0.38
679.33	2.62
680.086	1.62
680.843	0.62
681.599	-0.38
682.355	1.62
683.111	4.62
683.867	0.62
684.623	2.62
685.379	1.62
686.135	2.62
686.89	0.62
687.646	0.62
688.402	2.62
689.157	1.62
689.912	2.62
690.668	2.62
691.423	2.62
692.178	3.62
692.933	1.62
693.688	1.62
694.443	-0.38
695.198	1.62
695.953	1.62
696.708	0.62
697.462	3.62
698.217	-0.38
698.972	0.62
699.726	1.62
700.48	4.62
701.235	0.62
701.989	2.62
702.743	1.62
703.497	0.62
704.251	2.62
705.005	-0.38
705.759	-0.38
706.513	1.62
707.266	0.62
708.02	1.62
708.774	0.62
709.527	2.62
710.28	-0.38
711.034	3.62
711.787	0.62
712.54	0.62
713.293	1.62
714.046	0.62
714.799	0.62
715.552	1.62
716.305	1.62
717.058	0.62
717.81	1.62
718.563	0.62
719.315	-0.38
720.068	4.62
720.82	1.62
721.573	3.62
722.325	2.62
723.077	1.62
723.829	2.62
724.581	0.62
725.333	1.62
726.085	2.62
726.836	2.62
727.588	0.62
728.34	2.62
729.091	3.62
729.843	-0.38
730.594	1.62
731.346	0.62
732.097	0.62
732.848	2.62
733.599	2.62
734.35	1.62
735.101	-0.38
735.852	3.62
736.603	2.62
737.354	1.62
738.104	-1.38
738.855	1.62
739.605	2.62
740.356	1.62
741.106	0.62
741.856	1.62
742.607	3.62
743.357	1.62
744.107	1.62
744.857	1.62
745.607	2.62
746.357	-0.38
747.106	2.62
747.856	3.62
748.606	1.62
749.355	3.62
750.105	1.62
750.854	3.62
751.603	2.62
752.353	-0.38
753.102	2.62
753.851	0.62
754.6	-0.38
755.349	1.62
756.098	1.62
756.847	2.62
757.595	3.62
758.344	2.62
759.093	2.62
759.841	3.62
760.589	1.62
761.338	3.62
762.086	3.62
762.834	2.62
763.582	5.62
764.331	2.62
765.079	0.62
765.826	3.62
766.574	2.62
767.322	2.62
768.07	5.62
768.817	3.62
769.565	4.62
770.312	4.62
771.06	4.62
771.807	2.62
772.554	3.62
773.302	5.62
774.049	1.62
774.796	5.62
775.543	3.62
776.29	3.62
777.036	4.62
777.783	4.62
778.53	4.62
779.276	3.62
780.023	6.62
780.769	4.62
781.516	5.62
782.262	3.62
783.008	4.62
783.754	5.62
784.5	5.62
785.246	4.62
785.992	5.62
786.738	6.62
787.484	5.62
788.23	4.62
788.975	4.62
789.721	5.62
790.466	4.62
791.212	2.62
791.957	4.62
792.702	4.62
793.447	3.62
794.193	5.62
794.938	3.62
795.683	3.62
796.427	4.62
797.172	3.62
797.917	4.62
798.662	2.62
799.406	4.62
800.151	4.62
800.895	1.62
801.64	4.62
802.384	4.62
803.128	4.62
803.872	5.62
804.616	4.62
805.36	4.62
806.104	3.62
806.848	5.62
807.592	4.62
808.336	3.62
809.079	0.62
809.823	4.62
810.566	2.62
811.31	3.62
812.053	2.62
812.796	4.62
813.539	1.62
814.283	3.62
815.026	2.62
815.769	2.62
816.511	2.62
817.254	2.62
817.997	1.62
818.74	1.62
819.482	1.62
820.225	4.62
820.967	0.62
821.71	1.62
822.452	2.62
823.194	1.62
823.936	2.62
824.678	4.62
825.42	4.62
826.162	0.62
826.904	2.62
827.646	3.62
828.388	2.62
829.129	0.62
829.871	-0.38
830.612	2.62
831.354	3.62
832.095	3.62
832.836	1.62
833.577	1.62
834.319	2.62
835.06	1.62
835.801	1.62
836.542	1.62
837.282	1.62
838.023	4.62
838.764	1.62
839.504	2.62
840.245	-0.38
840.985	4.62
841.726	2.62
842.466	1.62
843.206	3.62
843.946	2.62
844.687	-0.38
845.427	0.62
846.166	3.62
846.906	0.62
847.646	1.62
848.386	1.62
849.125	0.62
849.865	2.62
850.605	0.62
851.344	0.62
852.083	2.62
852.823	1.62
853.562	1.62
854.301	0.62
855.04	2.62
855.779	1.62
856.518	1.62
857.257	3.62
857.995	0.62
858.734	0.62
859.473	1.62
860.211	0.62
860.95	0.62
861.688	-0.38
862.426	3.62
863.165	1.62
863.903	0.62
864.641	-0.38
865.379	0.62
866.117	0.62
866.855	-0.38
867.593	1.62
868.33	-2.38
869.068	1.62
869.806	1.62
870.543	1.62
871.28	0.62
872.018	-0.38
872.755	0.62
873.492	0.62
874.229	-2.38
874.967	-0.38
875.703	1.62
876.44	2.62
877.177	0.62
877.914	-0.38
878.651	0.62
879.387	0.62
880.124	-0.38
880.86	-0.38
881.597	0.62
882.333	-0.38
883.069	0.62
883.806	-0.38
884.542	0.62
885.278	0.62
886.014	0.62
886.749	1.62
887.485	-0.38
888.221	-1.38
888.957	0.62
889.692	-1.38
890.428	-1.38
891.163	0.62
891.899	-3.38
892.634	-1.38
893.369	0.62
894.104	0.62
894.839	1.62
895.574	-0.38
896.309	0.62
897.044	0.62
897.779	0.62
898.514	1.62
899.248	3.62
899.983	-1.38
900.717	-0.38
901.452	-1.38
902.186	-2.38
902.92	-0.38
903.654	-0.38
904.389	-0.38
905.123	-1.38
905.857	-1.38
906.59	-2.38
907.324	0.62
908.058	0.62
908.792	-1.38
909.525	0.62
910.259	-0.38
910.992	-1.38
911.726	-2.38
912.459	-1.38
913.192	-0.38
913.925	0.62
914.658	-1.38
915.391	-4.38
916.124	-1.38
916.857	-0.38
917.59	-1.38
918.323	-2.38
919.055	2.62
919.788	-2.38
920.521	0.62
921.253	-0.38
921.985	-1.38
922.718	-1.38
923.45	0.62
924.182	-0.38
924.914	0.62
925.646	0.62
926.378	0.62
927.11	0.62
927.841	0.62
928.573	-0.38
929.305	1.62
930.036	0.62
930.768	-1.38
931.499	-0.38
932.23	-3.38
932.962	-0.38
933.693	0.62
934.424	-2.38
935.155	0.62
935.886	0.62
936.617	0.62
937.348	-2.38
938.078	1.62
938.809	-1.38
939.54	0.62
940.27	0.62
941.001	-1.38
941.731	-0.38
942.461	-1.38
943.191	-1.38
943.922	-0.38
944.652	0.62
945.382	-1.38
946.112	-0.38
946.841	0.62
947.571	-1.38
948.301	-0.38
949.031	-0.38
949.76	-0.38
950.49	-0.38
951.219	-2.38
951.948	-3.38
952.678	0.62
953.407	-0.38
954.136	0.62
954.865	-0.38
955.594	-0.38
956.323	-2.38
957.052	-1.38
957.78	-1.38
958.509	1.62
959.238	-0.38
959.966	-1.38
960.695	0.62
961.423	-0.38
962.151	0.62
962.88	-2.38
963.608	1.62
964.336	-1.38
965.064	0.62
965.792	-2.38
966.52	-2.38
967.247	1.62
967.975	-0.38
968.703	-2.38
969.43	-0.38
970.158	-2.38
970.885	-0.38
971.613	-0.38
972.34	-2.38
973.067	-0.38
973.794	0.62
974.521	0.62
975.248	-0.38
975.975	0.62
976.702	0.62
977.429	0.62
978.156	-2.38
978.882	-0.38
979.609	-1.38
980.335	-0.38
981.062	-0.38
981.788	-2.38
982.514	-0.38
983.24	-0.38
983.967	-0.38
984.693	0.62
985.419	-0.38
986.144	-0.38
986.87	-2.38
987.596	2.62
988.322	0.62
989.047	-0.38
989.773	-0.38
990.498	-1.38
991.224	-1.38
991.949	-0.38
992.674	0.62
993.399	-0.38
994.124	0.62
994.849	-0.38
995.574	0.62
996.299	-0.38
997.024	-2.38
997.749	-0.38
998.473	-1.38
999.198	0.62
999.922	0.62
1000.647	1.62
1001.371	1.62
1002.095	-0.38
1002.82	-0.38
1003.544	-0.38
1004.268	-3.38
1004.992	-1.38
1005.716	-2.38
1006.439	0.62
1007.163	-0.38
1007.887	-0.38
1008.611	0.62
1009.334	0.62
1010.058	-2.38
1010.781	-1.38
1011.504	-2.38
1012.228	1.62
1012.951	-0.38
1013.674	0.62
1014.397	-0.38
1015.12	-0.38
