节点500_145_QEPB04081__268__11-33-16-501.txt的数据

Date: Wed Nov 12 11:33:16 CST 2025
User: PC
Spectrometer: QEPB0408
触发模式: 0
积分时间 (秒): 1.000000E-2
Scans to average: 1
启用暗噪声校正: true
启用非线性校正: false
滑动平均宽度: 0
X轴模式: Wavelengths
Number of Pixels in Spectrum: 1044
>>>>>Begin Spectral Data<<<<<
220.843	-1.88
221.644	-0.88
222.444	1.12
223.244	-0.88
224.045	-2.88
224.845	-0.88
225.645	-0.88
226.445	-2.88
227.245	-1.88
228.045	-0.88
228.845	0.12
229.645	-1.88
230.444	0.12
231.244	0.12
232.043	1.12
232.843	0.12
233.642	0.12
234.442	-0.88
235.241	1.12
236.04	2.12
236.839	-0.88
237.638	-0.88
238.437	0.12
239.236	2.12
240.035	0.12
240.833	0.12
241.632	1.12
242.43	1.12
243.229	0.12
244.027	1.12
244.826	0.12
245.624	3.12
246.422	2.12
247.22	2.12
248.018	0.12
248.816	1.12
249.614	0.12
250.412	0.12
251.21	2.12
252.007	1.12
252.805	3.12
253.602	2.12
254.4	2.12
255.197	1.12
255.994	2.12
256.791	2.12
257.589	1.12
258.386	3.12
259.183	3.12
259.979	3.12
260.776	3.12
261.573	1.12
262.37	2.12
263.166	6.12
263.963	3.12
264.759	2.12
265.556	5.12
266.352	5.12
267.148	5.12
267.944	5.12
268.74	6.12
269.536	4.12
270.332	5.12
271.128	8.12
271.924	4.12
272.719	6.12
273.515	7.12
274.311	5.12
275.106	9.12
275.901	7.12
276.697	7.12
277.492	10.12
278.287	9.12
279.082	10.12
279.877	8.12
280.672	9.12
281.467	8.12
282.262	7.12
283.056	10.12
283.851	7.12
284.646	9.12
285.44	7.12
286.234	10.12
287.029	8.12
287.823	9.12
288.617	11.12
289.411	10.12
290.205	10.12
290.999	12.12
291.793	12.12
292.587	10.12
293.381	8.12
294.174	9.12
294.968	8.12
295.761	9.12
296.555	6.12
297.348	7.12
298.141	8.12
298.935	10.12
299.728	11.12
300.521	8.12
301.314	6.12
302.107	6.12
302.899	9.12
303.692	6.12
304.485	8.12
305.277	6.12
306.07	8.12
306.862	6.12
307.655	6.12
308.447	8.12
309.239	4.12
310.031	5.12
310.823	7.12
311.615	7.12
312.407	5.12
313.199	5.12
313.991	5.12
314.783	6.12
315.574	4.12
316.366	6.12
317.157	3.12
317.949	6.12
318.74	3.12
319.531	4.12
320.322	4.12
321.113	4.12
321.904	3.12
322.695	4.12
323.486	4.12
324.277	3.12
325.068	4.12
325.858	3.12
326.649	2.12
327.439	4.12
328.23	2.12
329.02	3.12
329.81	2.12
330.6	4.12
331.391	3.12
332.181	3.12
332.971	3.12
333.76	4.12
334.55	3.12
335.34	1.12
336.13	4.12
336.919	3.12
337.709	3.12
338.498	4.12
339.287	4.12
340.077	2.12
340.866	2.12
341.655	2.12
342.444	3.12
343.233	2.12
344.022	4.12
344.811	1.12
345.6	2.12
346.388	4.12
347.177	2.12
347.965	4.12
348.754	2.12
349.542	2.12
350.33	3.12
351.119	-0.88
351.907	0.12
352.695	1.12
353.483	2.12
354.271	3.12
355.059	3.12
355.846	2.12
356.634	2.12
357.422	0.12
358.209	1.12
358.997	3.12
359.784	1.12
360.571	0.12
361.359	2.12
362.146	0.12
362.933	1.12
363.72	3.12
364.507	0.12
365.294	1.12
366.081	1.12
366.867	1.12
367.654	1.12
368.44	3.12
369.227	2.12
370.013	2.12
370.8	0.12
371.586	1.12
372.372	1.12
373.158	2.12
373.944	1.12
374.73	1.12
375.516	1.12
376.302	1.12
377.088	3.12
377.873	-0.88
378.659	0.12
379.445	0.12
380.23	0.12
381.015	0.12
381.801	2.12
382.586	1.12
383.371	0.12
384.156	3.12
384.941	1.12
385.726	0.12
386.511	3.12
387.296	4.12
388.08	2.12
388.865	2.12
389.649	1.12
390.434	3.12
391.218	1.12
392.003	1.12
392.787	1.12
393.571	3.12
394.355	0.12
395.139	3.12
395.923	2.12
396.707	2.12
397.491	2.12
398.274	3.12
399.058	2.12
399.842	2.12
400.625	4.12
401.408	2.12
402.192	2.12
402.975	1.12
403.758	3.12
404.541	3.12
405.324	1.12
406.107	6.12
406.89	4.12
407.673	4.12
408.456	4.12
409.238	3.12
410.021	7.12
410.803	1.12
411.586	3.12
412.368	4.12
413.151	3.12
413.933	5.12
414.715	1.12
415.497	3.12
416.279	2.12
417.061	4.12
417.843	4.12
418.624	6.12
419.406	5.12
420.188	6.12
420.969	3.12
421.751	6.12
422.532	4.12
423.313	3.12
424.095	4.12
424.876	5.12
425.657	5.12
426.438	5.12
427.219	7.12
428	5.12
428.78	6.12
429.561	6.12
430.342	6.12
431.122	6.12
431.903	5.12
432.683	6.12
433.464	9.12
434.244	10.12
435.024	7.12
435.804	9.12
436.584	7.12
437.364	10.12
438.144	8.12
438.924	11.12
439.704	9.12
440.483	11.12
441.263	7.12
442.042	11.12
442.822	13.12
443.601	11.12
444.38	15.12
445.16	14.12
445.939	13.12
446.718	18.12
447.497	17.12
448.276	19.12
449.054	19.12
449.833	25.12
450.612	22.12
451.391	24.12
452.169	27.12
452.948	31.12
453.726	34.12
454.504	37.12
455.282	39.12
456.061	42.12
456.839	48.12
457.617	52.12
458.395	58.12
459.172	65.12
459.95	74.12
460.728	80.12
461.506	91.12
462.283	101.12
463.061	113.12
463.838	120.12
464.615	144.12
465.393	156.12
466.17	172.12
466.947	190.12
467.724	218.12
468.501	238.12
469.278	268.12
470.055	304.12
470.831	332.12
471.608	367.12
472.385	414.12
473.161	447.12
473.938	508.12
474.714	567.12
475.49	619.12
476.266	685.12
477.043	762.12
477.819	848.12
478.595	934.12
479.371	1027.12
480.146	1141.12
480.922	1267.12
481.698	1403.12
482.473	1542.12
483.249	1697.12
484.024	1864.12
484.8	2071.12
485.575	2301.12
486.35	2490.12
487.126	2776.12
487.901	3082.12
488.676	3340.12
489.451	3696.12
490.225	4100.12
491	4485.12
491.775	4921.12
492.55	5405.12
493.324	5921.12
494.099	6483.12
494.873	7053.12
495.647	7732.12
496.422	8368.12
497.196	9069.12
497.97	9772.12
498.744	10554.12
499.518	11277.12
500.292	12024.12
501.066	12740.12
501.839	13429.12
502.613	14093.12
503.387	14744.12
504.16	15300.12
504.934	15749.12
505.707	16070.12
506.48	16352.12
507.253	16515.12
508.027	16582.12
508.8	16491.12
509.573	16317.12
510.346	16111.12
511.118	15752.12
511.891	15364.12
512.664	14861.12
513.437	14320.12
514.209	13782.12
514.982	13295.12
515.754	12705.12
516.526	12183.12
517.298	11636.12
518.071	11071.12
518.843	10590.12
519.615	10187.12
520.387	9737.12
521.159	9360.12
521.93	8999.12
522.702	8623.12
523.474	8280.12
524.245	7943.12
525.017	7631.12
525.788	7341.12
526.56	7057.12
527.331	6752.12
528.102	6452.12
528.873	6155.12
529.644	5881.12
530.415	5612.12
531.186	5316.12
531.957	5071.12
532.728	4824.12
533.498	4576.12
534.269	4286.12
535.039	4089.12
535.81	3836.12
536.58	3635.12
537.351	3430.12
538.121	3223.12
538.891	3052.12
539.661	2897.12
540.431	2744.12
541.201	2574.12
541.971	2467.12
542.741	2320.12
543.51	2184.12
544.28	2096.12
545.05	1992.12
545.819	1880.12
546.588	1794.12
547.358	1701.12
548.127	1632.12
548.896	1552.12
549.665	1461.12
550.434	1395.12
551.203	1314.12
551.972	1242.12
552.741	1188.12
553.51	1112.12
554.278	1062.12
555.047	997.12
555.815	946.12
556.584	885.12
557.352	841.12
558.121	796.12
558.889	743.12
559.657	704.12
560.425	644.12
561.193	629.12
561.961	585.12
562.729	561.12
563.496	527.12
564.264	489.12
565.032	466.12
565.799	438.12
566.567	415.12
567.334	395.12
568.101	376.12
568.869	355.12
569.636	333.12
570.403	314.12
571.17	286.12
571.937	277.12
572.704	259.12
573.471	250.12
574.237	231.12
575.004	219.12
575.771	210.12
576.537	195.12
577.303	185.12
578.07	175.12
578.836	163.12
579.602	153.12
580.368	144.12
581.134	133.12
581.9	127.12
582.666	126.12
583.432	115.12
584.198	107.12
584.964	100.12
585.729	99.12
586.495	92.12
587.26	84.12
588.025	85.12
588.791	77.12
589.556	70.12
590.321	66.12
591.086	63.12
591.851	59.12
592.616	56.12
593.381	61.12
594.146	53.12
594.911	50.12
595.675	46.12
596.44	44.12
597.204	44.12
597.969	41.12
598.733	41.12
599.497	40.12
600.261	38.12
601.025	34.12
601.79	32.12
602.553	30.12
603.317	29.12
604.081	28.12
604.845	27.12
605.609	23.12
606.372	25.12
607.136	25.12
607.899	25.12
608.662	22.12
609.426	19.12
610.189	18.12
610.952	17.12
611.715	18.12
612.478	18.12
613.241	17.12
614.004	16.12
614.767	15.12
615.529	14.12
616.292	15.12
617.055	11.12
617.817	11.12
618.579	12.12
619.342	14.12
620.104	11.12
620.866	14.12
621.628	11.12
622.39	10.12
623.152	9.12
623.914	6.12
624.676	10.12
625.438	9.12
626.199	9.12
626.961	7.12
627.722	9.12
628.484	8.12
629.245	6.12
630.006	8.12
630.768	8.12
631.529	7.12
632.29	5.12
633.051	6.12
633.812	6.12
634.573	5.12
635.333	6.12
636.094	5.12
636.855	5.12
637.615	5.12
638.376	4.12
639.136	3.12
639.896	6.12
640.657	5.12
641.417	6.12
642.177	4.12
642.937	2.12
643.697	4.12
644.457	4.12
645.216	5.12
645.976	1.12
646.736	6.12
647.495	2.12
648.255	2.12
649.014	3.12
649.774	2.12
650.533	3.12
651.292	4.12
652.051	4.12
652.81	3.12
653.569	3.12
654.328	1.12
655.087	1.12
655.846	2.12
656.604	1.12
657.363	1.12
658.121	4.12
658.88	1.12
659.638	2.12
660.397	1.12
661.155	3.12
661.913	1.12
662.671	3.12
663.429	1.12
664.187	3.12
664.945	1.12
665.703	-0.88
666.46	1.12
667.218	4.12
667.976	2.12
668.733	4.12
669.49	1.12
670.248	2.12
671.005	4.12
671.762	1.12
672.519	2.12
673.276	2.12
674.033	5.12
674.79	2.12
675.547	1.12
676.304	0.12
677.06	1.12
677.817	2.12
678.574	2.12
679.33	0.12
680.086	0.12
680.843	2.12
681.599	3.12
682.355	1.12
683.111	4.12
683.867	3.12
684.623	0.12
685.379	-0.88
686.135	3.12
686.89	0.12
687.646	1.12
688.402	2.12
689.157	2.12
689.912	0.12
690.668	-0.88
691.423	3.12
692.178	-0.88
692.933	1.12
693.688	1.12
694.443	1.12
695.198	1.12
695.953	0.12
696.708	1.12
697.462	1.12
698.217	2.12
698.972	0.12
699.726	0.12
700.48	0.12
701.235	0.12
701.989	0.12
702.743	1.12
703.497	1.12
704.251	3.12
705.005	2.12
705.759	2.12
706.513	-0.88
707.266	1.12
708.02	1.12
708.774	3.12
709.527	1.12
710.28	2.12
711.034	3.12
711.787	0.12
712.54	2.12
713.293	1.12
714.046	1.12
714.799	1.12
715.552	1.12
716.305	1.12
717.058	3.12
717.81	2.12
718.563	1.12
719.315	1.12
720.068	2.12
720.82	-0.88
721.573	3.12
722.325	2.12
723.077	2.12
723.829	0.12
724.581	1.12
725.333	0.12
726.085	0.12
726.836	1.12
727.588	2.12
728.34	-0.88
729.091	0.12
729.843	1.12
730.594	3.12
731.346	1.12
732.097	1.12
732.848	1.12
733.599	0.12
734.35	2.12
735.101	0.12
735.852	2.12
736.603	1.12
737.354	1.12
738.104	1.12
738.855	0.12
739.605	3.12
740.356	0.12
741.106	3.12
741.856	1.12
742.607	2.12
743.357	1.12
744.107	2.12
744.857	0.12
745.607	1.12
746.357	3.12
747.106	1.12
747.856	3.12
748.606	1.12
749.355	3.12
750.105	1.12
750.854	0.12
751.603	1.12
752.353	2.12
753.102	0.12
753.851	1.12
754.6	1.12
755.349	2.12
756.098	1.12
756.847	5.12
757.595	2.12
758.344	1.12
759.093	2.12
759.841	0.12
760.589	1.12
761.338	0.12
762.086	2.12
762.834	3.12
763.582	0.12
764.331	2.12
765.079	2.12
765.826	3.12
766.574	1.12
767.322	5.12
768.07	1.12
768.817	4.12
769.565	4.12
770.312	4.12
771.06	5.12
771.807	3.12
772.554	4.12
773.302	3.12
774.049	3.12
774.796	6.12
775.543	5.12
776.29	1.12
777.036	3.12
777.783	4.12
778.53	5.12
779.276	2.12
780.023	3.12
780.769	0.12
781.516	4.12
782.262	4.12
783.008	4.12
783.754	3.12
784.5	4.12
785.246	5.12
785.992	1.12
786.738	6.12
787.484	5.12
788.23	5.12
788.975	1.12
789.721	4.12
790.466	4.12
791.212	4.12
791.957	5.12
792.702	5.12
793.447	5.12
794.193	5.12
794.938	3.12
795.683	2.12
796.427	2.12
797.172	5.12
797.917	2.12
798.662	3.12
799.406	6.12
800.151	2.12
800.895	5.12
801.64	4.12
802.384	2.12
803.128	4.12
803.872	5.12
804.616	1.12
805.36	2.12
806.104	3.12
806.848	2.12
807.592	3.12
808.336	2.12
809.079	3.12
809.823	4.12
810.566	2.12
811.31	4.12
812.053	1.12
812.796	3.12
813.539	4.12
814.283	2.12
815.026	4.12
815.769	1.12
816.511	1.12
817.254	4.12
817.997	3.12
818.74	4.12
819.482	4.12
820.225	1.12
820.967	4.12
821.71	3.12
822.452	1.12
823.194	1.12
823.936	1.12
824.678	2.12
825.42	2.12
826.162	2.12
826.904	5.12
827.646	0.12
828.388	4.12
829.129	2.12
829.871	0.12
830.612	2.12
831.354	0.12
832.095	2.12
832.836	1.12
833.577	-0.88
834.319	1.12
835.06	-0.88
835.801	2.12
836.542	0.12
837.282	1.12
838.023	3.12
838.764	2.12
839.504	3.12
840.245	1.12
840.985	2.12
841.726	2.12
842.466	1.12
843.206	2.12
843.946	2.12
844.687	1.12
845.427	-0.88
846.166	1.12
846.906	0.12
847.646	0.12
848.386	0.12
849.125	0.12
849.865	1.12
850.605	1.12
851.344	1.12
852.083	1.12
852.823	2.12
853.562	0.12
854.301	1.12
855.04	0.12
855.779	-1.88
856.518	3.12
857.257	1.12
857.995	0.12
858.734	0.12
859.473	0.12
860.211	1.12
860.95	1.12
861.688	1.12
862.426	1.12
863.165	0.12
863.903	1.12
864.641	-0.88
865.379	2.12
866.117	0.12
866.855	0.12
867.593	0.12
868.33	0.12
869.068	-0.88
869.806	-1.88
870.543	0.12
871.28	2.12
872.018	0.12
872.755	-0.88
873.492	1.12
874.229	0.12
874.967	2.12
875.703	0.12
876.44	0.12
877.177	0.12
877.914	1.12
878.651	1.12
879.387	0.12
880.124	0.12
880.86	-1.88
881.597	1.12
882.333	0.12
883.069	-0.88
883.806	-2.88
884.542	-1.88
885.278	0.12
886.014	1.12
886.749	-2.88
887.485	1.12
888.221	1.12
888.957	0.12
889.692	-0.88
890.428	1.12
891.163	-0.88
891.899	-1.88
892.634	-0.88
893.369	-0.88
894.104	0.12
894.839	0.12
895.574	-1.88
896.309	1.12
897.044	0.12
897.779	-0.88
898.514	0.12
899.248	-0.88
899.983	-2.88
900.717	0.12
901.452	-0.88
902.186	-0.88
902.92	-0.88
903.654	2.12
904.389	1.12
905.123	-0.88
905.857	1.12
906.59	-0.88
907.324	-0.88
908.058	2.12
908.792	1.12
909.525	0.12
910.259	-1.88
910.992	-2.88
911.726	0.12
912.459	1.12
913.192	0.12
913.925	-1.88
914.658	-0.88
915.391	-0.88
916.124	0.12
916.857	1.12
917.59	-1.88
918.323	3.12
919.055	0.12
919.788	-2.88
920.521	0.12
921.253	1.12
921.985	0.12
922.718	0.12
923.45	0.12
924.182	-1.88
924.914	-0.88
925.646	1.12
926.378	-0.88
927.11	0.12
927.841	-0.88
928.573	-0.88
929.305	1.12
930.036	0.12
930.768	-1.88
931.499	-0.88
932.23	-1.88
932.962	-1.88
933.693	0.12
934.424	-1.88
935.155	-0.88
935.886	0.12
936.617	-2.88
937.348	-1.88
938.078	0.12
938.809	-0.88
939.54	0.12
940.27	-0.88
941.001	-2.88
941.731	-0.88
942.461	-1.88
943.191	0.12
943.922	-2.88
944.652	-0.88
945.382	-1.88
946.112	-0.88
946.841	1.12
947.571	0.12
948.301	-0.88
949.031	-1.88
949.76	-0.88
950.49	0.12
951.219	-2.88
951.948	-0.88
952.678	-2.88
953.407	1.12
954.136	1.12
954.865	0.12
955.594	-0.88
956.323	0.12
957.052	-0.88
957.78	0.12
958.509	2.12
959.238	0.12
959.966	0.12
960.695	0.12
961.423	-0.88
962.151	-1.88
962.88	0.12
963.608	-1.88
964.336	0.12
965.064	-1.88
965.792	-0.88
966.52	-2.88
967.247	0.12
967.975	0.12
968.703	-0.88
969.43	-1.88
970.158	0.12
970.885	-0.88
971.613	1.12
972.34	-1.88
973.067	0.12
973.794	0.12
974.521	-2.88
975.248	0.12
975.975	-0.88
976.702	1.12
977.429	-0.88
978.156	0.12
978.882	-2.88
979.609	1.12
980.335	-2.88
981.062	-2.88
981.788	1.12
982.514	-1.88
983.24	0.12
983.967	-1.88
984.693	0.12
985.419	1.12
986.144	-0.88
986.87	-2.88
987.596	-2.88
988.322	-1.88
989.047	-0.88
989.773	-0.88
990.498	-0.88
991.224	0.12
991.949	1.12
992.674	-0.88
993.399	-2.88
994.124	0.12
994.849	-1.88
995.574	-2.88
996.299	0.12
997.024	1.12
997.749	-0.88
998.473	0.12
999.198	0.12
999.922	0.12
1000.647	-0.88
1001.371	4.12
1002.095	1.12
1002.82	-3.88
1003.544	-0.88
1004.268	-0.88
1004.992	-1.88
1005.716	0.12
1006.439	-2.88
1007.163	0.12
1007.887	0.12
1008.611	0.12
1009.334	1.12
1010.058	-1.88
1010.781	-1.88
1011.504	-2.88
1012.228	-2.88
1012.951	-0.88
1013.674	0.12
1014.397	1.12
1015.12	-0.88
