节点500_145_QEPB04081__423__11-35-42-554.txt的数据

Date: Wed Nov 12 11:35:42 CST 2025
User: PC
Spectrometer: QEPB0408
触发模式: 0
积分时间 (秒): 1.000000E-2
Scans to average: 1
启用暗噪声校正: true
启用非线性校正: false
滑动平均宽度: 0
X轴模式: Wavelengths
Number of Pixels in Spectrum: 1044
>>>>>Begin Spectral Data<<<<<
220.843	0.25
221.644	-1.75
222.444	0.25
223.244	1.25
224.045	0.25
224.845	0.25
225.645	0.25
226.445	-1.75
227.245	0.25
228.045	0.25
228.845	0.25
229.645	1.25
230.444	1.25
231.244	0.25
232.043	0.25
232.843	0.25
233.642	-0.75
234.442	0.25
235.241	1.25
236.04	1.25
236.839	-0.75
237.638	1.25
238.437	-1.75
239.236	-1.75
240.035	2.25
240.833	0.25
241.632	3.25
242.43	0.25
243.229	1.25
244.027	-0.75
244.826	1.25
245.624	2.25
246.422	2.25
247.22	2.25
248.018	3.25
248.816	2.25
249.614	2.25
250.412	0.25
251.21	2.25
252.007	1.25
252.805	3.25
253.602	0.25
254.4	4.25
255.197	6.25
255.994	3.25
256.791	4.25
257.589	3.25
258.386	5.25
259.183	3.25
259.979	5.25
260.776	6.25
261.573	3.25
262.37	5.25
263.166	7.25
263.963	6.25
264.759	4.25
265.556	7.25
266.352	8.25
267.148	6.25
267.944	5.25
268.74	6.25
269.536	7.25
270.332	6.25
271.128	6.25
271.924	8.25
272.719	4.25
273.515	7.25
274.311	9.25
275.106	7.25
275.901	7.25
276.697	7.25
277.492	8.25
278.287	7.25
279.082	8.25
279.877	9.25
280.672	9.25
281.467	10.25
282.262	9.25
283.056	12.25
283.851	10.25
284.646	12.25
285.44	10.25
286.234	9.25
287.029	12.25
287.823	11.25
288.617	11.25
289.411	12.25
290.205	11.25
290.999	7.25
291.793	9.25
292.587	12.25
293.381	9.25
294.174	11.25
294.968	8.25
295.761	11.25
296.555	7.25
297.348	12.25
298.141	12.25
298.935	8.25
299.728	11.25
300.521	7.25
301.314	9.25
302.107	9.25
302.899	6.25
303.692	9.25
304.485	8.25
305.277	10.25
306.07	8.25
306.862	9.25
307.655	5.25
308.447	9.25
309.239	6.25
310.031	6.25
310.823	8.25
311.615	7.25
312.407	8.25
313.199	7.25
313.991	4.25
314.783	7.25
315.574	5.25
316.366	6.25
317.157	4.25
317.949	7.25
318.74	5.25
319.531	7.25
320.322	3.25
321.113	6.25
321.904	4.25
322.695	5.25
323.486	6.25
324.277	5.25
325.068	5.25
325.858	8.25
326.649	1.25
327.439	4.25
328.23	2.25
329.02	3.25
329.81	2.25
330.6	4.25
331.391	3.25
332.181	1.25
332.971	3.25
333.76	2.25
334.55	3.25
335.34	2.25
336.13	3.25
336.919	2.25
337.709	3.25
338.498	3.25
339.287	3.25
340.077	4.25
340.866	3.25
341.655	3.25
342.444	5.25
343.233	1.25
344.022	3.25
344.811	4.25
345.6	3.25
346.388	2.25
347.177	3.25
347.965	5.25
348.754	3.25
349.542	4.25
350.33	2.25
351.119	1.25
351.907	2.25
352.695	3.25
353.483	3.25
354.271	2.25
355.059	3.25
355.846	3.25
356.634	3.25
357.422	2.25
358.209	0.25
358.997	3.25
359.784	3.25
360.571	2.25
361.359	2.25
362.146	2.25
362.933	2.25
363.72	2.25
364.507	2.25
365.294	2.25
366.081	5.25
366.867	1.25
367.654	0.25
368.44	2.25
369.227	2.25
370.013	2.25
370.8	2.25
371.586	2.25
372.372	3.25
373.158	2.25
373.944	3.25
374.73	2.25
375.516	5.25
376.302	2.25
377.088	2.25
377.873	2.25
378.659	2.25
379.445	1.25
380.23	2.25
381.015	4.25
381.801	2.25
382.586	3.25
383.371	2.25
384.156	4.25
384.941	0.25
385.726	3.25
386.511	4.25
387.296	3.25
388.08	5.25
388.865	1.25
389.649	4.25
390.434	1.25
391.218	0.25
392.003	2.25
392.787	2.25
393.571	3.25
394.355	3.25
395.139	2.25
395.923	2.25
396.707	1.25
397.491	2.25
398.274	2.25
399.058	5.25
399.842	2.25
400.625	3.25
401.408	4.25
402.192	4.25
402.975	3.25
403.758	2.25
404.541	4.25
405.324	4.25
406.107	2.25
406.89	4.25
407.673	3.25
408.456	4.25
409.238	3.25
410.021	5.25
410.803	4.25
411.586	3.25
412.368	5.25
413.151	4.25
413.933	6.25
414.715	6.25
415.497	4.25
416.279	3.25
417.061	4.25
417.843	7.25
418.624	4.25
419.406	5.25
420.188	6.25
420.969	4.25
421.751	5.25
422.532	5.25
423.313	5.25
424.095	3.25
424.876	6.25
425.657	7.25
426.438	4.25
427.219	7.25
428	7.25
428.78	9.25
429.561	8.25
430.342	8.25
431.122	7.25
431.903	6.25
432.683	10.25
433.464	6.25
434.244	9.25
435.024	7.25
435.804	9.25
436.584	9.25
437.364	11.25
438.144	9.25
438.924	13.25
439.704	11.25
440.483	12.25
441.263	13.25
442.042	12.25
442.822	13.25
443.601	13.25
444.38	14.25
445.16	16.25
445.939	16.25
446.718	18.25
447.497	20.25
448.276	19.25
449.054	22.25
449.833	22.25
450.612	25.25
451.391	26.25
452.169	30.25
452.948	35.25
453.726	33.25
454.504	39.25
455.282	43.25
456.061	47.25
456.839	54.25
457.617	59.25
458.395	63.25
459.172	72.25
459.95	75.25
460.728	88.25
461.506	95.25
462.283	105.25
463.061	117.25
463.838	132.25
464.615	147.25
465.393	162.25
466.17	184.25
466.947	208.25
467.724	228.25
468.501	253.25
469.278	278.25
470.055	310.25
470.831	346.25
471.608	380.25
472.385	428.25
473.161	476.25
473.938	522.25
474.714	580.25
475.49	635.25
476.266	697.25
477.043	786.25
477.819	866.25
478.595	955.25
479.371	1057.25
480.146	1171.25
480.922	1274.25
481.698	1406.25
482.473	1544.25
483.249	1688.25
484.024	1870.25
484.8	2027.25
485.575	2252.25
486.35	2480.25
487.126	2716.25
487.901	2999.25
488.676	3261.25
489.451	3574.25
490.225	3915.25
491	4321.25
491.775	4732.25
492.55	5143.25
493.324	5653.25
494.099	6142.25
494.873	6718.25
495.647	7310.25
496.422	7913.25
497.196	8574.25
497.97	9206.25
498.744	9909.25
499.518	10621.25
500.292	11308.25
501.066	12051.25
501.839	12701.25
502.613	13352.25
503.387	13955.25
504.16	14486.25
504.934	14973.25
505.707	15357.25
506.48	15660.25
507.253	15875.25
508.027	15955.25
508.8	16064.25
509.573	15921.25
510.346	15783.25
511.118	15535.25
511.891	15125.25
512.664	14743.25
513.437	14341.25
514.209	13826.25
514.982	13243.25
515.754	12797.25
516.526	12248.25
517.298	11712.25
518.071	11205.25
518.843	10718.25
519.615	10249.25
520.387	9837.25
521.159	9446.25
521.93	9063.25
522.702	8721.25
523.474	8363.25
524.245	8057.25
525.017	7697.25
525.788	7418.25
526.56	7130.25
527.331	6829.25
528.102	6542.25
528.873	6274.25
529.644	5986.25
530.415	5737.25
531.186	5436.25
531.957	5190.25
532.728	4938.25
533.498	4669.25
534.269	4416.25
535.039	4178.25
535.81	3953.25
536.58	3770.25
537.351	3521.25
538.121	3374.25
538.891	3149.25
539.661	2976.25
540.431	2821.25
541.201	2681.25
541.971	2536.25
542.741	2383.25
543.51	2263.25
544.28	2157.25
545.05	2044.25
545.819	1963.25
546.588	1847.25
547.358	1761.25
548.127	1670.25
548.896	1597.25
549.665	1514.25
550.434	1439.25
551.203	1355.25
551.972	1286.25
552.741	1233.25
553.51	1151.25
554.278	1100.25
555.047	1028.25
555.815	989.25
556.584	921.25
557.352	875.25
558.121	832.25
558.889	775.25
559.657	728.25
560.425	687.25
561.193	652.25
561.961	619.25
562.729	584.25
563.496	543.25
564.264	522.25
565.032	481.25
565.799	461.25
566.567	434.25
567.334	410.25
568.101	391.25
568.869	360.25
569.636	348.25
570.403	329.25
571.17	308.25
571.937	288.25
572.704	267.25
573.471	256.25
574.237	244.25
575.004	227.25
575.771	214.25
576.537	200.25
577.303	189.25
578.07	177.25
578.836	169.25
579.602	165.25
580.368	153.25
581.134	145.25
581.9	131.25
582.666	123.25
583.432	123.25
584.198	111.25
584.964	108.25
585.729	100.25
586.495	101.25
587.26	94.25
588.025	86.25
588.791	81.25
589.556	74.25
590.321	73.25
591.086	67.25
591.851	65.25
592.616	65.25
593.381	61.25
594.146	55.25
594.911	52.25
595.675	49.25
596.44	50.25
597.204	47.25
597.969	44.25
598.733	40.25
599.497	41.25
600.261	37.25
601.025	35.25
601.79	31.25
602.553	33.25
603.317	33.25
604.081	30.25
604.845	29.25
605.609	28.25
606.372	28.25
607.136	25.25
607.899	23.25
608.662	22.25
609.426	23.25
610.189	23.25
610.952	19.25
611.715	18.25
612.478	19.25
613.241	18.25
614.004	18.25
614.767	16.25
615.529	17.25
616.292	14.25
617.055	13.25
617.817	11.25
618.579	15.25
619.342	13.25
620.104	13.25
620.866	13.25
621.628	13.25
622.39	12.25
623.152	11.25
623.914	11.25
624.676	8.25
625.438	12.25
626.199	11.25
626.961	9.25
627.722	9.25
628.484	9.25
629.245	7.25
630.006	9.25
630.768	9.25
631.529	8.25
632.29	9.25
633.051	7.25
633.812	8.25
634.573	7.25
635.333	6.25
636.094	5.25
636.855	6.25
637.615	7.25
638.376	4.25
639.136	7.25
639.896	7.25
640.657	7.25
641.417	2.25
642.177	5.25
642.937	3.25
643.697	7.25
644.457	3.25
645.216	6.25
645.976	3.25
646.736	5.25
647.495	4.25
648.255	3.25
649.014	3.25
649.774	6.25
650.533	2.25
651.292	5.25
652.051	4.25
652.81	2.25
653.569	5.25
654.328	4.25
655.087	3.25
655.846	5.25
656.604	1.25
657.363	4.25
658.121	6.25
658.88	3.25
659.638	3.25
660.397	4.25
661.155	2.25
661.913	3.25
662.671	2.25
663.429	3.25
664.187	1.25
664.945	5.25
665.703	1.25
666.46	1.25
667.218	5.25
667.976	3.25
668.733	1.25
669.49	1.25
670.248	5.25
671.005	3.25
671.762	3.25
672.519	1.25
673.276	1.25
674.033	2.25
674.79	3.25
675.547	2.25
676.304	1.25
677.06	2.25
677.817	2.25
678.574	3.25
679.33	1.25
680.086	0.25
680.843	1.25
681.599	0.25
682.355	3.25
683.111	3.25
683.867	1.25
684.623	3.25
685.379	2.25
686.135	3.25
686.89	2.25
687.646	2.25
688.402	1.25
689.157	0.25
689.912	2.25
690.668	0.25
691.423	2.25
692.178	3.25
692.933	3.25
693.688	1.25
694.443	2.25
695.198	5.25
695.953	2.25
696.708	3.25
697.462	3.25
698.217	1.25
698.972	2.25
699.726	1.25
700.48	1.25
701.235	1.25
701.989	3.25
702.743	1.25
703.497	1.25
704.251	2.25
705.005	0.25
705.759	2.25
706.513	2.25
707.266	1.25
708.02	3.25
708.774	3.25
709.527	2.25
710.28	2.25
711.034	2.25
711.787	0.25
712.54	0.25
713.293	1.25
714.046	2.25
714.799	3.25
715.552	-1.75
716.305	2.25
717.058	1.25
717.81	2.25
718.563	2.25
719.315	1.25
720.068	1.25
720.82	1.25
721.573	2.25
722.325	2.25
723.077	4.25
723.829	5.25
724.581	1.25
725.333	3.25
726.085	2.25
726.836	4.25
727.588	2.25
728.34	1.25
729.091	2.25
729.843	3.25
730.594	2.25
731.346	1.25
732.097	1.25
732.848	2.25
733.599	1.25
734.35	2.25
735.101	4.25
735.852	2.25
736.603	1.25
737.354	5.25
738.104	2.25
738.855	3.25
739.605	3.25
740.356	1.25
741.106	3.25
741.856	0.25
742.607	3.25
743.357	1.25
744.107	1.25
744.857	1.25
745.607	1.25
746.357	-1.75
747.106	1.25
747.856	4.25
748.606	2.25
749.355	4.25
750.105	2.25
750.854	3.25
751.603	4.25
752.353	3.25
753.102	3.25
753.851	2.25
754.6	4.25
755.349	4.25
756.098	3.25
756.847	3.25
757.595	3.25
758.344	2.25
759.093	4.25
759.841	3.25
760.589	5.25
761.338	3.25
762.086	2.25
762.834	3.25
763.582	3.25
764.331	4.25
765.079	0.25
765.826	4.25
766.574	3.25
767.322	5.25
768.07	3.25
768.817	4.25
769.565	2.25
770.312	3.25
771.06	4.25
771.807	4.25
772.554	5.25
773.302	5.25
774.049	5.25
774.796	2.25
775.543	3.25
776.29	3.25
777.036	3.25
777.783	5.25
778.53	4.25
779.276	4.25
780.023	5.25
780.769	4.25
781.516	5.25
782.262	5.25
783.008	6.25
783.754	4.25
784.5	4.25
785.246	3.25
785.992	3.25
786.738	5.25
787.484	5.25
788.23	6.25
788.975	4.25
789.721	6.25
790.466	4.25
791.212	4.25
791.957	3.25
792.702	5.25
793.447	5.25
794.193	2.25
794.938	5.25
795.683	2.25
796.427	5.25
797.172	5.25
797.917	2.25
798.662	5.25
799.406	3.25
800.151	4.25
800.895	6.25
801.64	3.25
802.384	4.25
803.128	4.25
803.872	5.25
804.616	5.25
805.36	3.25
806.104	5.25
806.848	3.25
807.592	3.25
808.336	3.25
809.079	5.25
809.823	4.25
810.566	3.25
811.31	4.25
812.053	1.25
812.796	5.25
813.539	3.25
814.283	3.25
815.026	3.25
815.769	2.25
816.511	5.25
817.254	3.25
817.997	4.25
818.74	4.25
819.482	3.25
820.225	7.25
820.967	2.25
821.71	1.25
822.452	2.25
823.194	5.25
823.936	2.25
824.678	3.25
825.42	0.25
826.162	3.25
826.904	4.25
827.646	3.25
828.388	5.25
829.129	1.25
829.871	3.25
830.612	3.25
831.354	3.25
832.095	4.25
832.836	1.25
833.577	3.25
834.319	2.25
835.06	4.25
835.801	4.25
836.542	1.25
837.282	2.25
838.023	3.25
838.764	3.25
839.504	2.25
840.245	3.25
840.985	2.25
841.726	2.25
842.466	1.25
843.206	1.25
843.946	0.25
844.687	2.25
845.427	2.25
846.166	3.25
846.906	3.25
847.646	2.25
848.386	1.25
849.125	2.25
849.865	2.25
850.605	0.25
851.344	2.25
852.083	1.25
852.823	3.25
853.562	1.25
854.301	3.25
855.04	2.25
855.779	1.25
856.518	1.25
857.257	1.25
857.995	2.25
858.734	3.25
859.473	2.25
860.211	6.25
860.95	1.25
861.688	2.25
862.426	1.25
863.165	2.25
863.903	-0.75
864.641	3.25
865.379	3.25
866.117	-0.75
866.855	2.25
867.593	2.25
868.33	-0.75
869.068	-0.75
869.806	0.25
870.543	0.25
871.28	-0.75
872.018	2.25
872.755	-0.75
873.492	2.25
874.229	-0.75
874.967	-0.75
875.703	2.25
876.44	1.25
877.177	0.25
877.914	-0.75
878.651	-0.75
879.387	0.25
880.124	1.25
880.86	2.25
881.597	-0.75
882.333	0.25
883.069	1.25
883.806	1.25
884.542	1.25
885.278	1.25
886.014	1.25
886.749	1.25
887.485	0.25
888.221	0.25
888.957	2.25
889.692	-0.75
890.428	0.25
891.163	0.25
891.899	0.25
892.634	1.25
893.369	-2.75
894.104	-0.75
894.839	2.25
895.574	0.25
896.309	-0.75
897.044	-1.75
897.779	2.25
898.514	0.25
899.248	-0.75
899.983	2.25
900.717	0.25
901.452	2.25
902.186	-1.75
902.92	1.25
903.654	1.25
904.389	1.25
905.123	-1.75
905.857	-1.75
906.59	1.25
907.324	-0.75
908.058	1.25
908.792	1.25
909.525	0.25
910.259	1.25
910.992	1.25
911.726	-0.75
912.459	0.25
913.192	-2.75
913.925	2.25
914.658	-0.75
915.391	1.25
916.124	1.25
916.857	0.25
917.59	-1.75
918.323	1.25
919.055	-0.75
919.788	1.25
920.521	0.25
921.253	-0.75
921.985	1.25
922.718	0.25
923.45	0.25
924.182	1.25
924.914	1.25
925.646	-1.75
926.378	-0.75
927.11	1.25
927.841	-1.75
928.573	0.25
929.305	0.25
930.036	-1.75
930.768	1.25
931.499	2.25
932.23	-0.75
932.962	-0.75
933.693	1.25
934.424	1.25
935.155	1.25
935.886	2.25
936.617	0.25
937.348	1.25
938.078	-0.75
938.809	1.25
939.54	4.25
940.27	1.25
941.001	1.25
941.731	-1.75
942.461	1.25
943.191	0.25
943.922	1.25
944.652	0.25
945.382	1.25
946.112	0.25
946.841	-1.75
947.571	0.25
948.301	-0.75
949.031	0.25
949.76	0.25
950.49	1.25
951.219	1.25
951.948	-0.75
952.678	1.25
953.407	-2.75
954.136	-0.75
954.865	1.25
955.594	1.25
956.323	1.25
957.052	-0.75
957.78	1.25
958.509	-1.75
959.238	1.25
959.966	0.25
960.695	0.25
961.423	1.25
962.151	1.25
962.88	3.25
963.608	1.25
964.336	1.25
965.064	1.25
965.792	0.25
966.52	-3.75
967.247	0.25
967.975	2.25
968.703	-1.75
969.43	3.25
970.158	1.25
970.885	1.25
971.613	2.25
972.34	-0.75
973.067	1.25
973.794	2.25
974.521	0.25
975.248	0.25
975.975	-1.75
976.702	1.25
977.429	0.25
978.156	2.25
978.882	0.25
979.609	-0.75
980.335	0.25
981.062	0.25
981.788	-0.75
982.514	0.25
983.24	1.25
983.967	0.25
984.693	-0.75
985.419	-0.75
986.144	0.25
986.87	0.25
987.596	-0.75
988.322	0.25
989.047	0.25
989.773	1.25
990.498	2.25
991.224	2.25
991.949	1.25
992.674	0.25
993.399	1.25
994.124	0.25
994.849	-0.75
995.574	1.25
996.299	0.25
997.024	-0.75
997.749	1.25
998.473	0.25
999.198	1.25
999.922	0.25
1000.647	1.25
1001.371	4.25
1002.095	-1.75
1002.82	-2.75
1003.544	-0.75
1004.268	-0.75
1004.992	0.25
1005.716	-0.75
1006.439	-0.75
1007.163	0.25
1007.887	-0.75
1008.611	0.25
1009.334	1.25
1010.058	-1.75
1010.781	-2.75
1011.504	0.25
1012.228	1.25
1012.951	1.25
1013.674	0.25
1014.397	1.25
1015.12	-1.75
