节点500_145_QEPB04081__274__11-33-21-494.txt的数据

Date: Wed Nov 12 11:33:21 CST 2025
User: PC
Spectrometer: QEPB0408
触发模式: 0
积分时间 (秒): 1.000000E-2
Scans to average: 1
启用暗噪声校正: true
启用非线性校正: false
滑动平均宽度: 0
X轴模式: Wavelengths
Number of Pixels in Spectrum: 1044
>>>>>Begin Spectral Data<<<<<
220.843	-2
221.644	-1
222.444	-1
223.244	-1
224.045	2
224.845	-2
225.645	-2
226.445	-2
227.245	-1
228.045	0
228.845	1
229.645	0
230.444	2
231.244	2
232.043	2
232.843	-1
233.642	0
234.442	2
235.241	0
236.04	1
236.839	-2
237.638	-1
238.437	0
239.236	1
240.035	-1
240.833	-1
241.632	1
242.43	-2
243.229	1
244.027	2
244.826	2
245.624	4
246.422	0
247.22	1
248.018	2
248.816	3
249.614	2
250.412	1
251.21	1
252.007	3
252.805	3
253.602	2
254.4	5
255.197	2
255.994	2
256.791	1
257.589	4
258.386	6
259.183	3
259.979	4
260.776	4
261.573	5
262.37	4
263.166	5
263.963	4
264.759	6
265.556	6
266.352	8
267.148	7
267.944	5
268.74	5
269.536	8
270.332	7
271.128	7
271.924	4
272.719	7
273.515	7
274.311	9
275.106	12
275.901	7
276.697	8
277.492	9
278.287	7
279.082	13
279.877	11
280.672	8
281.467	8
282.262	13
283.056	11
283.851	11
284.646	12
285.44	9
286.234	11
287.029	9
287.823	10
288.617	9
289.411	13
290.205	12
290.999	12
291.793	12
292.587	9
293.381	11
294.174	10
294.968	11
295.761	10
296.555	11
297.348	11
298.141	9
298.935	7
299.728	11
300.521	12
301.314	11
302.107	8
302.899	8
303.692	7
304.485	5
305.277	8
306.07	8
306.862	9
307.655	6
308.447	10
309.239	7
310.031	9
310.823	7
311.615	5
312.407	7
313.199	3
313.991	8
314.783	8
315.574	7
316.366	5
317.157	6
317.949	5
318.74	4
319.531	6
320.322	4
321.113	2
321.904	2
322.695	6
323.486	4
324.277	4
325.068	7
325.858	4
326.649	6
327.439	4
328.23	5
329.02	2
329.81	5
330.6	3
331.391	2
332.181	4
332.971	3
333.76	2
334.55	3
335.34	3
336.13	6
336.919	2
337.709	5
338.498	3
339.287	5
340.077	2
340.866	2
341.655	6
342.444	5
343.233	5
344.022	2
344.811	0
345.6	3
346.388	4
347.177	3
347.965	2
348.754	2
349.542	3
350.33	4
351.119	5
351.907	1
352.695	5
353.483	1
354.271	2
355.059	5
355.846	2
356.634	3
357.422	2
358.209	4
358.997	5
359.784	5
360.571	2
361.359	0
362.146	4
362.933	3
363.72	3
364.507	1
365.294	2
366.081	1
366.867	4
367.654	3
368.44	1
369.227	2
370.013	4
370.8	3
371.586	3
372.372	3
373.158	4
373.944	2
374.73	3
375.516	4
376.302	-2
377.088	2
377.873	0
378.659	3
379.445	2
380.23	3
381.015	2
381.801	2
382.586	3
383.371	1
384.156	2
384.941	2
385.726	1
386.511	3
387.296	2
388.08	2
388.865	3
389.649	3
390.434	2
391.218	2
392.003	0
392.787	3
393.571	5
394.355	2
395.139	3
395.923	0
396.707	2
397.491	4
398.274	4
399.058	3
399.842	4
400.625	5
401.408	2
402.192	3
402.975	4
403.758	3
404.541	5
405.324	3
406.107	5
406.89	5
407.673	2
408.456	6
409.238	4
410.021	5
410.803	4
411.586	6
412.368	5
413.151	6
413.933	2
414.715	3
415.497	7
416.279	3
417.061	5
417.843	4
418.624	4
419.406	6
420.188	3
420.969	4
421.751	9
422.532	7
423.313	5
424.095	6
424.876	6
425.657	5
426.438	7
427.219	6
428	7
428.78	7
429.561	7
430.342	7
431.122	5
431.903	6
432.683	9
433.464	7
434.244	7
435.024	11
435.804	11
436.584	8
437.364	11
438.144	9
438.924	12
439.704	12
440.483	10
441.263	12
442.042	13
442.822	15
443.601	14
444.38	12
445.16	14
445.939	16
446.718	18
447.497	19
448.276	20
449.054	21
449.833	22
450.612	23
451.391	27
452.169	29
452.948	29
453.726	32
454.504	35
455.282	41
456.061	45
456.839	48
457.617	54
458.395	58
459.172	67
459.95	73
460.728	80
461.506	90
462.283	100
463.061	112
463.838	129
464.615	134
465.393	155
466.17	173
466.947	193
467.724	209
468.501	238
469.278	265
470.055	298
470.831	333
471.608	371
472.385	412
473.161	457
473.938	502
474.714	550
475.49	622
476.266	700
477.043	765
477.819	849
478.595	933
479.371	1041
480.146	1144
480.922	1285
481.698	1404
482.473	1548
483.249	1715
484.024	1890
484.8	2078
485.575	2268
486.35	2529
487.126	2761
487.901	3062
488.676	3367
489.451	3714
490.225	4112
491	4467
491.775	4926
492.55	5403
493.324	5923
494.099	6470
494.873	7058
495.647	7717
496.422	8357
497.196	9065
497.97	9735
498.744	10530
499.518	11233
500.292	11984
501.066	12730
501.839	13414
502.613	14085
503.387	14710
504.16	15268
504.934	15700
505.707	16046
506.48	16308
507.253	16508
508.027	16536
508.8	16441
509.573	16306
510.346	16064
511.118	15793
511.891	15348
512.664	14894
513.437	14338
514.209	13804
514.982	13280
515.754	12670
516.526	12194
517.298	11643
518.071	11123
518.843	10632
519.615	10194
520.387	9765
521.159	9404
521.93	8980
522.702	8651
523.474	8291
524.245	7961
525.017	7627
525.788	7321
526.56	7074
527.331	6766
528.102	6441
528.873	6154
529.644	5921
530.415	5622
531.186	5320
531.957	5054
532.728	4825
533.498	4574
534.269	4312
535.039	4096
535.81	3863
536.58	3620
537.351	3428
538.121	3261
538.891	3045
539.661	2891
540.431	2742
541.201	2611
541.971	2462
542.741	2334
543.51	2207
544.28	2088
545.05	1977
545.819	1880
546.588	1798
547.358	1716
548.127	1638
548.896	1549
549.665	1462
550.434	1395
551.203	1332
551.972	1249
552.741	1185
553.51	1135
554.278	1060
555.047	990
555.815	949
556.584	899
557.352	848
558.121	800
558.889	743
559.657	697
560.425	657
561.193	619
561.961	579
562.729	566
563.496	529
564.264	498
565.032	470
565.799	439
566.567	419
567.334	387
568.101	371
568.869	355
569.636	337
570.403	310
571.17	290
571.937	276
572.704	267
573.471	246
574.237	238
575.004	216
575.771	202
576.537	193
577.303	182
578.07	173
578.836	167
579.602	158
580.368	145
581.134	137
581.9	130
582.666	125
583.432	118
584.198	115
584.964	103
585.729	96
586.495	93
587.26	90
588.025	86
588.791	77
589.556	75
590.321	68
591.086	65
591.851	64
592.616	58
593.381	57
594.146	52
594.911	49
595.675	47
596.44	45
597.204	44
597.969	42
598.733	41
599.497	39
600.261	37
601.025	37
601.79	32
602.553	30
603.317	28
604.081	33
604.845	27
605.609	27
606.372	26
607.136	25
607.899	23
608.662	24
609.426	21
610.189	20
610.952	20
611.715	17
612.478	19
613.241	18
614.004	20
614.767	16
615.529	16
616.292	14
617.055	15
617.817	13
618.579	12
619.342	12
620.104	11
620.866	14
621.628	13
622.39	13
623.152	11
623.914	11
624.676	10
625.438	13
626.199	9
626.961	6
627.722	9
628.484	8
629.245	7
630.006	6
630.768	4
631.529	8
632.29	8
633.051	7
633.812	9
634.573	7
635.333	7
636.094	8
636.855	6
637.615	5
638.376	6
639.136	5
639.896	6
640.657	6
641.417	6
642.177	5
642.937	2
643.697	5
644.457	3
645.216	3
645.976	2
646.736	4
647.495	7
648.255	6
649.014	3
649.774	3
650.533	3
651.292	5
652.051	5
652.81	3
653.569	4
654.328	4
655.087	3
655.846	5
656.604	4
657.363	3
658.121	4
658.88	3
659.638	4
660.397	4
661.155	4
661.913	1
662.671	4
663.429	1
664.187	1
664.945	4
665.703	3
666.46	1
667.218	3
667.976	1
668.733	3
669.49	2
670.248	4
671.005	1
671.762	4
672.519	2
673.276	2
674.033	2
674.79	0
675.547	4
676.304	4
677.06	2
677.817	3
678.574	2
679.33	3
680.086	1
680.843	1
681.599	0
682.355	3
683.111	2
683.867	2
684.623	3
685.379	3
686.135	3
686.89	2
687.646	2
688.402	3
689.157	2
689.912	5
690.668	1
691.423	4
692.178	2
692.933	3
693.688	1
694.443	2
695.198	2
695.953	2
696.708	1
697.462	3
698.217	4
698.972	3
699.726	1
700.48	2
701.235	0
701.989	2
702.743	2
703.497	1
704.251	3
705.005	0
705.759	3
706.513	3
707.266	1
708.02	1
708.774	1
709.527	2
710.28	-1
711.034	3
711.787	3
712.54	3
713.293	2
714.046	1
714.799	2
715.552	1
716.305	1
717.058	3
717.81	2
718.563	3
719.315	2
720.068	2
720.82	1
721.573	1
722.325	3
723.077	0
723.829	1
724.581	2
725.333	1
726.085	2
726.836	3
727.588	4
728.34	2
729.091	1
729.843	2
730.594	2
731.346	2
732.097	1
732.848	2
733.599	5
734.35	2
735.101	2
735.852	3
736.603	1
737.354	4
738.104	2
738.855	2
739.605	1
740.356	1
741.106	2
741.856	3
742.607	3
743.357	3
744.107	1
744.857	0
745.607	2
746.357	1
747.106	2
747.856	2
748.606	2
749.355	2
750.105	4
750.854	2
751.603	2
752.353	1
753.102	2
753.851	4
754.6	3
755.349	2
756.098	1
756.847	5
757.595	2
758.344	5
759.093	4
759.841	1
760.589	2
761.338	5
762.086	5
762.834	0
763.582	5
764.331	4
765.079	0
765.826	4
766.574	2
767.322	4
768.07	5
768.817	3
769.565	5
770.312	5
771.06	5
771.807	5
772.554	3
773.302	4
774.049	3
774.796	2
775.543	3
776.29	6
777.036	6
777.783	5
778.53	5
779.276	6
780.023	6
780.769	4
781.516	3
782.262	5
783.008	7
783.754	4
784.5	3
785.246	4
785.992	5
786.738	7
787.484	3
788.23	5
788.975	5
789.721	5
790.466	7
791.212	4
791.957	5
792.702	4
793.447	5
794.193	4
794.938	4
795.683	7
796.427	4
797.172	6
797.917	5
798.662	4
799.406	4
800.151	6
800.895	5
801.64	5
802.384	3
803.128	4
803.872	5
804.616	2
805.36	6
806.104	5
806.848	1
807.592	5
808.336	7
809.079	1
809.823	3
810.566	4
811.31	2
812.053	3
812.796	3
813.539	5
814.283	5
815.026	4
815.769	4
816.511	3
817.254	2
817.997	4
818.74	3
819.482	3
820.225	2
820.967	1
821.71	1
822.452	2
823.194	3
823.936	2
824.678	3
825.42	4
826.162	3
826.904	3
827.646	3
828.388	0
829.129	1
829.871	1
830.612	2
831.354	1
832.095	3
832.836	4
833.577	4
834.319	3
835.06	3
835.801	2
836.542	1
837.282	1
838.023	0
838.764	4
839.504	2
840.245	4
840.985	3
841.726	1
842.466	2
843.206	1
843.946	2
844.687	1
845.427	0
846.166	3
846.906	2
847.646	0
848.386	2
849.125	1
849.865	5
850.605	1
851.344	4
852.083	0
852.823	2
853.562	2
854.301	-1
855.04	2
855.779	0
856.518	2
857.257	0
857.995	3
858.734	1
859.473	2
860.211	2
860.95	0
861.688	2
862.426	0
863.165	2
863.903	1
864.641	1
865.379	-1
866.117	2
866.855	1
867.593	1
868.33	0
869.068	0
869.806	0
870.543	2
871.28	-2
872.018	1
872.755	1
873.492	3
874.229	-1
874.967	0
875.703	0
876.44	-1
877.177	0
877.914	1
878.651	3
879.387	-1
880.124	1
880.86	0
881.597	-1
882.333	-2
883.069	2
883.806	0
884.542	3
885.278	-1
886.014	1
886.749	1
887.485	1
888.221	-1
888.957	0
889.692	1
890.428	-2
891.163	1
891.899	0
892.634	1
893.369	0
894.104	-1
894.839	2
895.574	0
896.309	0
897.044	2
897.779	-1
898.514	-1
899.248	0
899.983	1
900.717	0
901.452	1
902.186	-1
902.92	1
903.654	-2
904.389	2
905.123	1
905.857	-2
906.59	-1
907.324	0
908.058	1
908.792	1
909.525	0
910.259	1
910.992	-2
911.726	1
912.459	0
913.192	-2
913.925	-1
914.658	0
915.391	-1
916.124	-1
916.857	0
917.59	0
918.323	-2
919.055	-2
919.788	0
920.521	2
921.253	-1
921.985	-2
922.718	-2
923.45	2
924.182	-1
924.914	1
925.646	1
926.378	0
927.11	0
927.841	0
928.573	-1
929.305	-1
930.036	2
930.768	-1
931.499	-1
932.23	1
932.962	0
933.693	1
934.424	1
935.155	2
935.886	0
936.617	-2
937.348	1
938.078	2
938.809	0
939.54	-2
940.27	-1
941.001	-2
941.731	-2
942.461	-1
943.191	1
943.922	0
944.652	-2
945.382	-1
946.112	1
946.841	0
947.571	-2
948.301	-2
949.031	0
949.76	-1
950.49	0
951.219	1
951.948	-2
952.678	2
953.407	-1
954.136	0
954.865	0
955.594	0
956.323	0
957.052	1
957.78	0
958.509	-1
959.238	0
959.966	1
960.695	-2
961.423	-1
962.151	-2
962.88	0
963.608	-1
964.336	0
965.064	-1
965.792	-1
966.52	2
967.247	-1
967.975	-1
968.703	-2
969.43	1
970.158	1
970.885	2
971.613	0
972.34	0
973.067	0
973.794	0
974.521	0
975.248	-1
975.975	0
976.702	0
977.429	-2
978.156	0
978.882	-2
979.609	-1
980.335	-1
981.062	-2
981.788	1
982.514	-1
983.24	2
983.967	0
984.693	0
985.419	-2
986.144	0
986.87	0
987.596	-1
988.322	2
989.047	0
989.773	-1
990.498	2
991.224	0
991.949	1
992.674	-1
993.399	1
994.124	-2
994.849	2
995.574	-1
996.299	-2
997.024	-1
997.749	0
998.473	1
999.198	-2
999.922	1
1000.647	-2
1001.371	3
1002.095	-1
1002.82	0
1003.544	-2
1004.268	-2
1004.992	-1
1005.716	-3
1006.439	0
1007.163	0
1007.887	-1
1008.611	-2
1009.334	1
1010.058	-1
1010.781	2
1011.504	2
1012.228	0
1012.951	2
1013.674	0
1014.397	-2
1015.12	0
