节点500_145_QEPB04081__666__11-39-31-994.txt的数据

Date: Wed Nov 12 11:39:31 CST 2025
User: PC
Spectrometer: QEPB0408
触发模式: 0
积分时间 (秒): 1.000000E-2
Scans to average: 1
启用暗噪声校正: true
启用非线性校正: false
滑动平均宽度: 0
X轴模式: Wavelengths
Number of Pixels in Spectrum: 1044
>>>>>Begin Spectral Data<<<<<
220.843	-0.25
221.644	-0.25
222.444	-0.25
223.244	1.75
224.045	-0.25
224.845	1.75
225.645	-0.25
226.445	1.75
227.245	2.75
228.045	-1.25
228.845	-1.25
229.645	-1.25
230.444	-0.25
231.244	-2.25
232.043	-1.25
232.843	2.75
233.642	0.75
234.442	0.75
235.241	0.75
236.04	0.75
236.839	1.75
237.638	1.75
238.437	1.75
239.236	0.75
240.035	1.75
240.833	4.75
241.632	1.75
242.43	2.75
243.229	-0.25
244.027	2.75
244.826	1.75
245.624	2.75
246.422	2.75
247.22	1.75
248.018	3.75
248.816	1.75
249.614	3.75
250.412	-0.25
251.21	2.75
252.007	2.75
252.805	1.75
253.602	2.75
254.4	1.75
255.197	1.75
255.994	3.75
256.791	3.75
257.589	5.75
258.386	2.75
259.183	3.75
259.979	2.75
260.776	4.75
261.573	2.75
262.37	4.75
263.166	3.75
263.963	4.75
264.759	4.75
265.556	3.75
266.352	6.75
267.148	5.75
267.944	9.75
268.74	6.75
269.536	7.75
270.332	8.75
271.128	3.75
271.924	7.75
272.719	7.75
273.515	7.75
274.311	7.75
275.106	6.75
275.901	7.75
276.697	8.75
277.492	6.75
278.287	8.75
279.082	4.75
279.877	8.75
280.672	7.75
281.467	10.75
282.262	6.75
283.056	8.75
283.851	10.75
284.646	11.75
285.44	10.75
286.234	9.75
287.029	9.75
287.823	7.75
288.617	13.75
289.411	7.75
290.205	10.75
290.999	10.75
291.793	8.75
292.587	10.75
293.381	6.75
294.174	8.75
294.968	9.75
295.761	9.75
296.555	10.75
297.348	9.75
298.141	10.75
298.935	9.75
299.728	7.75
300.521	9.75
301.314	7.75
302.107	7.75
302.899	7.75
303.692	7.75
304.485	5.75
305.277	8.75
306.07	9.75
306.862	5.75
307.655	9.75
308.447	7.75
309.239	7.75
310.031	6.75
310.823	5.75
311.615	10.75
312.407	8.75
313.199	4.75
313.991	5.75
314.783	6.75
315.574	6.75
316.366	5.75
317.157	4.75
317.949	4.75
318.74	5.75
319.531	6.75
320.322	6.75
321.113	4.75
321.904	4.75
322.695	4.75
323.486	3.75
324.277	6.75
325.068	5.75
325.858	3.75
326.649	5.75
327.439	3.75
328.23	3.75
329.02	4.75
329.81	4.75
330.6	3.75
331.391	5.75
332.181	2.75
332.971	5.75
333.76	3.75
334.55	6.75
335.34	4.75
336.13	4.75
336.919	2.75
337.709	3.75
338.498	3.75
339.287	2.75
340.077	2.75
340.866	3.75
341.655	3.75
342.444	3.75
343.233	3.75
344.022	4.75
344.811	3.75
345.6	2.75
346.388	2.75
347.177	2.75
347.965	4.75
348.754	2.75
349.542	4.75
350.33	3.75
351.119	3.75
351.907	3.75
352.695	3.75
353.483	2.75
354.271	4.75
355.059	3.75
355.846	4.75
356.634	1.75
357.422	4.75
358.209	1.75
358.997	1.75
359.784	2.75
360.571	3.75
361.359	2.75
362.146	2.75
362.933	3.75
363.72	3.75
364.507	3.75
365.294	2.75
366.081	3.75
366.867	3.75
367.654	1.75
368.44	1.75
369.227	1.75
370.013	2.75
370.8	2.75
371.586	4.75
372.372	2.75
373.158	1.75
373.944	1.75
374.73	1.75
375.516	-1.25
376.302	1.75
377.088	0.75
377.873	-0.25
378.659	2.75
379.445	1.75
380.23	1.75
381.015	4.75
381.801	2.75
382.586	2.75
383.371	3.75
384.156	1.75
384.941	3.75
385.726	2.75
386.511	1.75
387.296	3.75
388.08	3.75
388.865	4.75
389.649	1.75
390.434	2.75
391.218	2.75
392.003	4.75
392.787	0.75
393.571	4.75
394.355	3.75
395.139	2.75
395.923	2.75
396.707	2.75
397.491	5.75
398.274	1.75
399.058	0.75
399.842	3.75
400.625	1.75
401.408	4.75
402.192	4.75
402.975	1.75
403.758	4.75
404.541	4.75
405.324	2.75
406.107	3.75
406.89	3.75
407.673	4.75
408.456	1.75
409.238	3.75
410.021	2.75
410.803	4.75
411.586	2.75
412.368	4.75
413.151	4.75
413.933	5.75
414.715	4.75
415.497	4.75
416.279	4.75
417.061	2.75
417.843	2.75
418.624	3.75
419.406	5.75
420.188	5.75
420.969	5.75
421.751	6.75
422.532	5.75
423.313	5.75
424.095	6.75
424.876	5.75
425.657	5.75
426.438	5.75
427.219	7.75
428	5.75
428.78	7.75
429.561	5.75
430.342	8.75
431.122	8.75
431.903	5.75
432.683	10.75
433.464	8.75
434.244	5.75
435.024	10.75
435.804	8.75
436.584	9.75
437.364	9.75
438.144	11.75
438.924	8.75
439.704	11.75
440.483	10.75
441.263	10.75
442.042	13.75
442.822	10.75
443.601	13.75
444.38	16.75
445.16	14.75
445.939	17.75
446.718	16.75
447.497	18.75
448.276	22.75
449.054	23.75
449.833	26.75
450.612	29.75
451.391	29.75
452.169	31.75
452.948	33.75
453.726	37.75
454.504	41.75
455.282	44.75
456.061	54.75
456.839	54.75
457.617	63.75
458.395	72.75
459.172	74.75
459.95	81.75
460.728	95.75
461.506	98.75
462.283	112.75
463.061	126.75
463.838	146.75
464.615	163.75
465.393	174.75
466.17	197.75
466.947	220.75
467.724	242.75
468.501	260.75
469.278	297.75
470.055	324.75
470.831	368.75
471.608	392.75
472.385	442.75
473.161	497.75
473.938	532.75
474.714	593.75
475.49	660.75
476.266	722.75
477.043	784.75
477.819	867.75
478.595	961.75
479.371	1059.75
480.146	1158.75
480.922	1283.75
481.698	1391.75
482.473	1535.75
483.249	1666.75
484.024	1814.75
484.8	1999.75
485.575	2184.75
486.35	2395.75
487.126	2601.75
487.901	2842.75
488.676	3087.75
489.451	3379.75
490.225	3709.75
491	4022.75
491.775	4391.75
492.55	4774.75
493.324	5214.75
494.099	5658.75
494.873	6123.75
495.647	6656.75
496.422	7168.75
497.196	7761.75
497.97	8375.75
498.744	8962.75
499.518	9595.75
500.292	10237.75
501.066	10880.75
501.839	11473.75
502.613	12057.75
503.387	12663.75
504.16	13187.75
504.934	13703.75
505.707	14083.75
506.48	14390.75
507.253	14734.75
508.027	14921.75
508.8	15052.75
509.573	14976.75
510.346	14958.75
511.118	14834.75
511.891	14604.75
512.664	14261.75
513.437	13886.75
514.209	13511.75
514.982	13077.75
515.754	12616.75
516.526	12149.75
517.298	11651.75
518.071	11182.75
518.843	10738.75
519.615	10294.75
520.387	9869.75
521.159	9410.75
521.93	9038.75
522.702	8733.75
523.474	8382.75
524.245	8072.75
525.017	7711.75
525.788	7432.75
526.56	7155.75
527.331	6834.75
528.102	6512.75
528.873	6278.75
529.644	6017.75
530.415	5766.75
531.186	5502.75
531.957	5291.75
532.728	5021.75
533.498	4779.75
534.269	4518.75
535.039	4249.75
535.81	4061.75
536.58	3827.75
537.351	3648.75
538.121	3438.75
538.891	3278.75
539.661	3085.75
540.431	2931.75
541.201	2761.75
541.971	2623.75
542.741	2471.75
543.51	2364.75
544.28	2209.75
545.05	2115.75
545.819	2001.75
546.588	1907.75
547.358	1794.75
548.127	1717.75
548.896	1651.75
549.665	1556.75
550.434	1475.75
551.203	1406.75
551.972	1342.75
552.741	1294.75
553.51	1193.75
554.278	1135.75
555.047	1066.75
555.815	1026.75
556.584	962.75
557.352	904.75
558.121	855.75
558.889	810.75
559.657	768.75
560.425	739.75
561.193	681.75
561.961	643.75
562.729	611.75
563.496	581.75
564.264	544.75
565.032	509.75
565.799	474.75
566.567	453.75
567.334	440.75
568.101	406.75
568.869	380.75
569.636	356.75
570.403	338.75
571.17	317.75
571.937	306.75
572.704	286.75
573.471	269.75
574.237	246.75
575.004	236.75
575.771	225.75
576.537	215.75
577.303	196.75
578.07	186.75
578.836	176.75
579.602	167.75
580.368	158.75
581.134	149.75
581.9	141.75
582.666	131.75
583.432	126.75
584.198	127.75
584.964	117.75
585.729	106.75
586.495	105.75
587.26	99.75
588.025	89.75
588.791	86.75
589.556	80.75
590.321	76.75
591.086	71.75
591.851	66.75
592.616	64.75
593.381	58.75
594.146	60.75
594.911	55.75
595.675	50.75
596.44	49.75
597.204	49.75
597.969	44.75
598.733	42.75
599.497	41.75
600.261	36.75
601.025	37.75
601.79	37.75
602.553	33.75
603.317	32.75
604.081	32.75
604.845	30.75
605.609	31.75
606.372	28.75
607.136	24.75
607.899	24.75
608.662	26.75
609.426	21.75
610.189	22.75
610.952	19.75
611.715	22.75
612.478	18.75
613.241	21.75
614.004	17.75
614.767	20.75
615.529	19.75
616.292	15.75
617.055	18.75
617.817	13.75
618.579	14.75
619.342	14.75
620.104	13.75
620.866	15.75
621.628	12.75
622.39	12.75
623.152	11.75
623.914	13.75
624.676	9.75
625.438	9.75
626.199	9.75
626.961	8.75
627.722	9.75
628.484	9.75
629.245	9.75
630.006	11.75
630.768	5.75
631.529	9.75
632.29	8.75
633.051	6.75
633.812	3.75
634.573	7.75
635.333	7.75
636.094	5.75
636.855	8.75
637.615	5.75
638.376	7.75
639.136	9.75
639.896	5.75
640.657	4.75
641.417	6.75
642.177	4.75
642.937	5.75
643.697	5.75
644.457	5.75
645.216	5.75
645.976	4.75
646.736	3.75
647.495	2.75
648.255	2.75
649.014	5.75
649.774	4.75
650.533	3.75
651.292	3.75
652.051	4.75
652.81	4.75
653.569	3.75
654.328	4.75
655.087	2.75
655.846	2.75
656.604	0.75
657.363	1.75
658.121	1.75
658.88	2.75
659.638	3.75
660.397	2.75
661.155	4.75
661.913	2.75
662.671	4.75
663.429	4.75
664.187	2.75
664.945	2.75
665.703	3.75
666.46	1.75
667.218	1.75
667.976	3.75
668.733	3.75
669.49	3.75
670.248	3.75
671.005	4.75
671.762	1.75
672.519	2.75
673.276	0.75
674.033	3.75
674.79	3.75
675.547	1.75
676.304	3.75
677.06	3.75
677.817	3.75
678.574	0.75
679.33	1.75
680.086	1.75
680.843	4.75
681.599	1.75
682.355	0.75
683.111	3.75
683.867	0.75
684.623	2.75
685.379	2.75
686.135	0.75
686.89	1.75
687.646	1.75
688.402	0.75
689.157	0.75
689.912	1.75
690.668	2.75
691.423	1.75
692.178	2.75
692.933	0.75
693.688	3.75
694.443	1.75
695.198	1.75
695.953	2.75
696.708	4.75
697.462	2.75
698.217	1.75
698.972	2.75
699.726	1.75
700.48	0.75
701.235	0.75
701.989	0.75
702.743	3.75
703.497	1.75
704.251	2.75
705.005	0.75
705.759	3.75
706.513	2.75
707.266	2.75
708.02	2.75
708.774	2.75
709.527	0.75
710.28	1.75
711.034	3.75
711.787	0.75
712.54	2.75
713.293	1.75
714.046	1.75
714.799	2.75
715.552	0.75
716.305	1.75
717.058	2.75
717.81	0.75
718.563	0.75
719.315	2.75
720.068	1.75
720.82	1.75
721.573	1.75
722.325	2.75
723.077	0.75
723.829	2.75
724.581	1.75
725.333	1.75
726.085	-0.25
726.836	3.75
727.588	2.75
728.34	2.75
729.091	1.75
729.843	0.75
730.594	2.75
731.346	1.75
732.097	1.75
732.848	3.75
733.599	1.75
734.35	4.75
735.101	1.75
735.852	3.75
736.603	1.75
737.354	2.75
738.104	1.75
738.855	2.75
739.605	1.75
740.356	1.75
741.106	1.75
741.856	0.75
742.607	4.75
743.357	2.75
744.107	2.75
744.857	1.75
745.607	1.75
746.357	5.75
747.106	1.75
747.856	2.75
748.606	1.75
749.355	0.75
750.105	1.75
750.854	1.75
751.603	-0.25
752.353	2.75
753.102	2.75
753.851	2.75
754.6	4.75
755.349	4.75
756.098	1.75
756.847	3.75
757.595	1.75
758.344	3.75
759.093	4.75
759.841	4.75
760.589	2.75
761.338	1.75
762.086	3.75
762.834	3.75
763.582	4.75
764.331	5.75
765.079	4.75
765.826	1.75
766.574	2.75
767.322	5.75
768.07	4.75
768.817	4.75
769.565	3.75
770.312	2.75
771.06	2.75
771.807	4.75
772.554	0.75
773.302	2.75
774.049	2.75
774.796	3.75
775.543	5.75
776.29	3.75
777.036	4.75
777.783	4.75
778.53	2.75
779.276	5.75
780.023	2.75
780.769	6.75
781.516	4.75
782.262	4.75
783.008	2.75
783.754	4.75
784.5	4.75
785.246	5.75
785.992	3.75
786.738	5.75
787.484	4.75
788.23	5.75
788.975	4.75
789.721	4.75
790.466	4.75
791.212	3.75
791.957	3.75
792.702	3.75
793.447	5.75
794.193	2.75
794.938	4.75
795.683	6.75
796.427	3.75
797.172	6.75
797.917	3.75
798.662	5.75
799.406	5.75
800.151	6.75
800.895	5.75
801.64	5.75
802.384	5.75
803.128	3.75
803.872	6.75
804.616	3.75
805.36	4.75
806.104	5.75
806.848	2.75
807.592	2.75
808.336	2.75
809.079	3.75
809.823	2.75
810.566	3.75
811.31	3.75
812.053	2.75
812.796	2.75
813.539	1.75
814.283	4.75
815.026	4.75
815.769	0.75
816.511	3.75
817.254	2.75
817.997	5.75
818.74	1.75
819.482	1.75
820.225	3.75
820.967	2.75
821.71	0.75
822.452	0.75
823.194	3.75
823.936	3.75
824.678	3.75
825.42	4.75
826.162	2.75
826.904	2.75
827.646	4.75
828.388	1.75
829.129	5.75
829.871	4.75
830.612	3.75
831.354	3.75
832.095	1.75
832.836	0.75
833.577	2.75
834.319	0.75
835.06	1.75
835.801	3.75
836.542	2.75
837.282	2.75
838.023	-0.25
838.764	3.75
839.504	1.75
840.245	2.75
840.985	5.75
841.726	2.75
842.466	2.75
843.206	1.75
843.946	1.75
844.687	2.75
845.427	2.75
846.166	2.75
846.906	1.75
847.646	5.75
848.386	1.75
849.125	5.75
849.865	3.75
850.605	1.75
851.344	4.75
852.083	1.75
852.823	-0.25
853.562	-0.25
854.301	0.75
855.04	2.75
855.779	-0.25
856.518	0.75
857.257	2.75
857.995	1.75
858.734	0.75
859.473	2.75
860.211	0.75
860.95	-0.25
861.688	3.75
862.426	1.75
863.165	1.75
863.903	2.75
864.641	0.75
865.379	0.75
866.117	0.75
866.855	1.75
867.593	2.75
868.33	1.75
869.068	1.75
869.806	2.75
870.543	0.75
871.28	0.75
872.018	1.75
872.755	1.75
873.492	2.75
874.229	-0.25
874.967	2.75
875.703	-2.25
876.44	-0.25
877.177	1.75
877.914	0.75
878.651	1.75
879.387	-1.25
880.124	1.75
880.86	0.75
881.597	-1.25
882.333	-0.25
883.069	0.75
883.806	1.75
884.542	1.75
885.278	1.75
886.014	0.75
886.749	0.75
887.485	0.75
888.221	-0.25
888.957	1.75
889.692	-1.25
890.428	3.75
891.163	1.75
891.899	-0.25
892.634	-0.25
893.369	1.75
894.104	0.75
894.839	0.75
895.574	0.75
896.309	1.75
897.044	-1.25
897.779	0.75
898.514	-1.25
899.248	2.75
899.983	1.75
900.717	1.75
901.452	-1.25
902.186	1.75
902.92	0.75
903.654	2.75
904.389	0.75
905.123	0.75
905.857	0.75
906.59	-2.25
907.324	1.75
908.058	0.75
908.792	-0.25
909.525	2.75
910.259	3.75
910.992	0.75
911.726	0.75
912.459	-1.25
913.192	1.75
913.925	1.75
914.658	2.75
915.391	-0.25
916.124	-1.25
916.857	-1.25
917.59	-1.25
918.323	1.75
919.055	0.75
919.788	2.75
920.521	0.75
921.253	0.75
921.985	0.75
922.718	-0.25
923.45	1.75
924.182	-1.25
924.914	1.75
925.646	1.75
926.378	-0.25
927.11	1.75
927.841	0.75
928.573	0.75
929.305	-1.25
930.036	0.75
930.768	2.75
931.499	0.75
932.23	-0.25
932.962	1.75
933.693	1.75
934.424	1.75
935.155	1.75
935.886	-0.25
936.617	0.75
937.348	1.75
938.078	-1.25
938.809	-1.25
939.54	-2.25
940.27	-1.25
941.001	-1.25
941.731	0.75
942.461	-1.25
943.191	-1.25
943.922	-0.25
944.652	0.75
945.382	0.75
946.112	0.75
946.841	-0.25
947.571	-1.25
948.301	-0.25
949.031	-1.25
949.76	-0.25
950.49	0.75
951.219	-1.25
951.948	-0.25
952.678	-0.25
953.407	1.75
954.136	0.75
954.865	1.75
955.594	2.75
956.323	-0.25
957.052	0.75
957.78	0.75
958.509	-1.25
959.238	0.75
959.966	-1.25
960.695	-0.25
961.423	-0.25
962.151	-2.25
962.88	-0.25
963.608	-1.25
964.336	0.75
965.064	-0.25
965.792	-0.25
966.52	-0.25
967.247	0.75
967.975	0.75
968.703	-1.25
969.43	2.75
970.158	-1.25
970.885	-0.25
971.613	0.75
972.34	-1.25
973.067	0.75
973.794	0.75
974.521	0.75
975.248	1.75
975.975	0.75
976.702	-1.25
977.429	1.75
978.156	0.75
978.882	-1.25
979.609	1.75
980.335	-0.25
981.062	0.75
981.788	1.75
982.514	1.75
983.24	1.75
983.967	0.75
984.693	1.75
985.419	0.75
986.144	1.75
986.87	1.75
987.596	0.75
988.322	0.75
989.047	-0.25
989.773	-0.25
990.498	0.75
991.224	1.75
991.949	0.75
992.674	0.75
993.399	0.75
994.124	0.75
994.849	2.75
995.574	-0.25
996.299	0.75
997.024	1.75
997.749	-1.25
998.473	0.75
999.198	-0.25
999.922	1.75
1000.647	0.75
1001.371	1.75
1002.095	-1.25
1002.82	-2.25
1003.544	-1.25
1004.268	-0.25
1004.992	-1.25
1005.716	-3.25
1006.439	0.75
1007.163	0.75
1007.887	2.75
1008.611	0.75
1009.334	0.75
1010.058	0.75
1010.781	-0.25
1011.504	-0.25
1012.228	-0.25
1012.951	-0.25
1013.674	0.75
1014.397	0.75
1015.12	1.75
