节点500_145_QEPB04081__476__11-36-32-537.txt的数据

Date: Wed Nov 12 11:36:32 CST 2025
User: PC
Spectrometer: QEPB0408
触发模式: 0
积分时间 (秒): 1.000000E-2
Scans to average: 1
启用暗噪声校正: true
启用非线性校正: false
滑动平均宽度: 0
X轴模式: Wavelengths
Number of Pixels in Spectrum: 1044
>>>>>Begin Spectral Data<<<<<
220.843	0.5
221.644	-0.5
222.444	2.5
223.244	-0.5
224.045	-0.5
224.845	0.5
225.645	0.5
226.445	2.5
227.245	0.5
228.045	-0.5
228.845	0.5
229.645	2.5
230.444	-0.5
231.244	-0.5
232.043	2.5
232.843	-0.5
233.642	1.5
234.442	1.5
235.241	1.5
236.04	0.5
236.839	3.5
237.638	1.5
238.437	-1.5
239.236	1.5
240.035	3.5
240.833	0.5
241.632	0.5
242.43	4.5
243.229	2.5
244.027	1.5
244.826	4.5
245.624	0.5
246.422	2.5
247.22	3.5
248.018	1.5
248.816	3.5
249.614	0.5
250.412	0.5
251.21	2.5
252.007	0.5
252.805	1.5
253.602	2.5
254.4	2.5
255.197	3.5
255.994	3.5
256.791	2.5
257.589	1.5
258.386	2.5
259.183	4.5
259.979	5.5
260.776	0.5
261.573	3.5
262.37	4.5
263.166	5.5
263.963	4.5
264.759	3.5
265.556	6.5
266.352	5.5
267.148	5.5
267.944	6.5
268.74	6.5
269.536	8.5
270.332	4.5
271.128	7.5
271.924	6.5
272.719	7.5
273.515	6.5
274.311	10.5
275.106	9.5
275.901	10.5
276.697	9.5
277.492	7.5
278.287	7.5
279.082	8.5
279.877	7.5
280.672	9.5
281.467	7.5
282.262	10.5
283.056	9.5
283.851	10.5
284.646	8.5
285.44	10.5
286.234	9.5
287.029	10.5
287.823	11.5
288.617	9.5
289.411	11.5
290.205	12.5
290.999	9.5
291.793	12.5
292.587	9.5
293.381	9.5
294.174	10.5
294.968	8.5
295.761	10.5
296.555	9.5
297.348	8.5
298.141	8.5
298.935	10.5
299.728	9.5
300.521	9.5
301.314	8.5
302.107	9.5
302.899	8.5
303.692	9.5
304.485	10.5
305.277	9.5
306.07	8.5
306.862	8.5
307.655	7.5
308.447	6.5
309.239	5.5
310.031	8.5
310.823	6.5
311.615	6.5
312.407	6.5
313.199	6.5
313.991	7.5
314.783	5.5
315.574	7.5
316.366	6.5
317.157	5.5
317.949	4.5
318.74	4.5
319.531	5.5
320.322	5.5
321.113	4.5
321.904	8.5
322.695	5.5
323.486	5.5
324.277	4.5
325.068	3.5
325.858	4.5
326.649	4.5
327.439	3.5
328.23	4.5
329.02	4.5
329.81	1.5
330.6	3.5
331.391	2.5
332.181	5.5
332.971	4.5
333.76	7.5
334.55	5.5
335.34	4.5
336.13	5.5
336.919	3.5
337.709	4.5
338.498	1.5
339.287	5.5
340.077	3.5
340.866	4.5
341.655	7.5
342.444	3.5
343.233	4.5
344.022	1.5
344.811	3.5
345.6	4.5
346.388	4.5
347.177	3.5
347.965	1.5
348.754	1.5
349.542	3.5
350.33	2.5
351.119	3.5
351.907	2.5
352.695	3.5
353.483	4.5
354.271	4.5
355.059	4.5
355.846	2.5
356.634	4.5
357.422	3.5
358.209	2.5
358.997	4.5
359.784	-0.5
360.571	4.5
361.359	2.5
362.146	2.5
362.933	3.5
363.72	2.5
364.507	0.5
365.294	3.5
366.081	4.5
366.867	0.5
367.654	1.5
368.44	3.5
369.227	2.5
370.013	5.5
370.8	1.5
371.586	3.5
372.372	3.5
373.158	1.5
373.944	2.5
374.73	1.5
375.516	4.5
376.302	2.5
377.088	2.5
377.873	1.5
378.659	3.5
379.445	2.5
380.23	1.5
381.015	2.5
381.801	3.5
382.586	1.5
383.371	2.5
384.156	4.5
384.941	3.5
385.726	3.5
386.511	2.5
387.296	2.5
388.08	3.5
388.865	1.5
389.649	4.5
390.434	3.5
391.218	2.5
392.003	3.5
392.787	3.5
393.571	4.5
394.355	3.5
395.139	2.5
395.923	1.5
396.707	1.5
397.491	1.5
398.274	3.5
399.058	5.5
399.842	3.5
400.625	2.5
401.408	3.5
402.192	1.5
402.975	5.5
403.758	4.5
404.541	1.5
405.324	2.5
406.107	3.5
406.89	5.5
407.673	4.5
408.456	3.5
409.238	5.5
410.021	2.5
410.803	3.5
411.586	6.5
412.368	3.5
413.151	2.5
413.933	4.5
414.715	2.5
415.497	4.5
416.279	5.5
417.061	5.5
417.843	5.5
418.624	6.5
419.406	7.5
420.188	4.5
420.969	3.5
421.751	5.5
422.532	6.5
423.313	6.5
424.095	6.5
424.876	3.5
425.657	4.5
426.438	10.5
427.219	7.5
428	7.5
428.78	8.5
429.561	6.5
430.342	8.5
431.122	6.5
431.903	7.5
432.683	5.5
433.464	10.5
434.244	9.5
435.024	8.5
435.804	8.5
436.584	8.5
437.364	10.5
438.144	9.5
438.924	7.5
439.704	10.5
440.483	9.5
441.263	13.5
442.042	12.5
442.822	14.5
443.601	14.5
444.38	13.5
445.16	16.5
445.939	15.5
446.718	19.5
447.497	19.5
448.276	23.5
449.054	25.5
449.833	23.5
450.612	28.5
451.391	27.5
452.169	31.5
452.948	31.5
453.726	36.5
454.504	37.5
455.282	43.5
456.061	52.5
456.839	54.5
457.617	61.5
458.395	61.5
459.172	73.5
459.95	77.5
460.728	88.5
461.506	99.5
462.283	109.5
463.061	120.5
463.838	133.5
464.615	149.5
465.393	163.5
466.17	185.5
466.947	200.5
467.724	228.5
468.501	254.5
469.278	284.5
470.055	314.5
470.831	350.5
471.608	388.5
472.385	434.5
473.161	467.5
473.938	518.5
474.714	589.5
475.49	634.5
476.266	706.5
477.043	783.5
477.819	872.5
478.595	955.5
479.371	1061.5
480.146	1151.5
480.922	1272.5
481.698	1400.5
482.473	1536.5
483.249	1691.5
484.024	1856.5
484.8	2058.5
485.575	2235.5
486.35	2469.5
487.126	2713.5
487.901	2987.5
488.676	3261.5
489.451	3570.5
490.225	3926.5
491	4275.5
491.775	4696.5
492.55	5113.5
493.324	5592.5
494.099	6123.5
494.873	6637.5
495.647	7251.5
496.422	7802.5
497.196	8451.5
497.97	9118.5
498.744	9831.5
499.518	10519.5
500.292	11213.5
501.066	11880.5
501.839	12554.5
502.613	13199.5
503.387	13813.5
504.16	14351.5
504.934	14827.5
505.707	15219.5
506.48	15503.5
507.253	15778.5
508.027	15881.5
508.8	15936.5
509.573	15824.5
510.346	15710.5
511.118	15420.5
511.891	15058.5
512.664	14744.5
513.437	14280.5
514.209	13796.5
514.982	13241.5
515.754	12808.5
516.526	12209.5
517.298	11677.5
518.071	11192.5
518.843	10733.5
519.615	10272.5
520.387	9868.5
521.159	9439.5
521.93	9084.5
522.702	8732.5
523.474	8407.5
524.245	8059.5
525.017	7722.5
525.788	7422.5
526.56	7118.5
527.331	6826.5
528.102	6571.5
528.873	6290.5
529.644	6006.5
530.415	5738.5
531.186	5474.5
531.957	5194.5
532.728	4933.5
533.498	4672.5
534.269	4431.5
535.039	4209.5
535.81	3977.5
536.58	3772.5
537.351	3550.5
538.121	3353.5
538.891	3166.5
539.661	3006.5
540.431	2831.5
541.201	2696.5
541.971	2541.5
542.741	2396.5
543.51	2285.5
544.28	2169.5
545.05	2058.5
545.819	1966.5
546.588	1840.5
547.358	1766.5
548.127	1689.5
548.896	1597.5
549.665	1518.5
550.434	1437.5
551.203	1372.5
551.972	1299.5
552.741	1225.5
553.51	1166.5
554.278	1097.5
555.047	1044.5
555.815	972.5
556.584	921.5
557.352	877.5
558.121	818.5
558.889	782.5
559.657	739.5
560.425	691.5
561.193	652.5
561.961	614.5
562.729	580.5
563.496	550.5
564.264	517.5
565.032	488.5
565.799	460.5
566.567	439.5
567.334	406.5
568.101	391.5
568.869	368.5
569.636	348.5
570.403	334.5
571.17	312.5
571.937	284.5
572.704	275.5
573.471	262.5
574.237	241.5
575.004	233.5
575.771	221.5
576.537	198.5
577.303	194.5
578.07	181.5
578.836	168.5
579.602	163.5
580.368	146.5
581.134	146.5
581.9	134.5
582.666	129.5
583.432	119.5
584.198	113.5
584.964	107.5
585.729	101.5
586.495	94.5
587.26	89.5
588.025	85.5
588.791	83.5
589.556	78.5
590.321	73.5
591.086	68.5
591.851	69.5
592.616	58.5
593.381	55.5
594.146	57.5
594.911	51.5
595.675	48.5
596.44	48.5
597.204	46.5
597.969	45.5
598.733	42.5
599.497	44.5
600.261	37.5
601.025	40.5
601.79	34.5
602.553	34.5
603.317	31.5
604.081	31.5
604.845	30.5
605.609	27.5
606.372	29.5
607.136	27.5
607.899	24.5
608.662	20.5
609.426	23.5
610.189	22.5
610.952	20.5
611.715	19.5
612.478	20.5
613.241	19.5
614.004	15.5
614.767	18.5
615.529	15.5
616.292	15.5
617.055	15.5
617.817	12.5
618.579	15.5
619.342	13.5
620.104	14.5
620.866	12.5
621.628	13.5
622.39	11.5
623.152	10.5
623.914	9.5
624.676	9.5
625.438	13.5
626.199	10.5
626.961	8.5
627.722	10.5
628.484	6.5
629.245	9.5
630.006	7.5
630.768	9.5
631.529	8.5
632.29	8.5
633.051	7.5
633.812	6.5
634.573	8.5
635.333	6.5
636.094	4.5
636.855	7.5
637.615	4.5
638.376	3.5
639.136	7.5
639.896	4.5
640.657	4.5
641.417	5.5
642.177	5.5
642.937	3.5
643.697	4.5
644.457	5.5
645.216	5.5
645.976	4.5
646.736	5.5
647.495	3.5
648.255	7.5
649.014	4.5
649.774	4.5
650.533	4.5
651.292	2.5
652.051	2.5
652.81	3.5
653.569	2.5
654.328	3.5
655.087	5.5
655.846	4.5
656.604	2.5
657.363	3.5
658.121	4.5
658.88	2.5
659.638	5.5
660.397	3.5
661.155	4.5
661.913	3.5
662.671	2.5
663.429	4.5
664.187	2.5
664.945	1.5
665.703	3.5
666.46	1.5
667.218	3.5
667.976	0.5
668.733	1.5
669.49	2.5
670.248	4.5
671.005	1.5
671.762	1.5
672.519	2.5
673.276	2.5
674.033	3.5
674.79	1.5
675.547	0.5
676.304	3.5
677.06	0.5
677.817	2.5
678.574	3.5
679.33	2.5
680.086	2.5
680.843	2.5
681.599	1.5
682.355	4.5
683.111	3.5
683.867	-1.5
684.623	2.5
685.379	1.5
686.135	1.5
686.89	2.5
687.646	3.5
688.402	2.5
689.157	3.5
689.912	1.5
690.668	0.5
691.423	3.5
692.178	1.5
692.933	0.5
693.688	1.5
694.443	0.5
695.198	1.5
695.953	3.5
696.708	1.5
697.462	3.5
698.217	2.5
698.972	1.5
699.726	0.5
700.48	3.5
701.235	1.5
701.989	0.5
702.743	1.5
703.497	1.5
704.251	3.5
705.005	3.5
705.759	2.5
706.513	3.5
707.266	3.5
708.02	2.5
708.774	1.5
709.527	1.5
710.28	-0.5
711.034	3.5
711.787	0.5
712.54	1.5
713.293	2.5
714.046	1.5
714.799	3.5
715.552	2.5
716.305	0.5
717.058	-0.5
717.81	2.5
718.563	0.5
719.315	5.5
720.068	3.5
720.82	3.5
721.573	0.5
722.325	1.5
723.077	2.5
723.829	2.5
724.581	1.5
725.333	3.5
726.085	-1.5
726.836	2.5
727.588	0.5
728.34	3.5
729.091	0.5
729.843	1.5
730.594	3.5
731.346	0.5
732.097	1.5
732.848	2.5
733.599	-0.5
734.35	3.5
735.101	-0.5
735.852	1.5
736.603	-0.5
737.354	4.5
738.104	3.5
738.855	2.5
739.605	0.5
740.356	1.5
741.106	3.5
741.856	1.5
742.607	3.5
743.357	3.5
744.107	3.5
744.857	2.5
745.607	0.5
746.357	5.5
747.106	2.5
747.856	2.5
748.606	4.5
749.355	1.5
750.105	2.5
750.854	2.5
751.603	2.5
752.353	2.5
753.102	2.5
753.851	2.5
754.6	3.5
755.349	2.5
756.098	1.5
756.847	2.5
757.595	0.5
758.344	3.5
759.093	2.5
759.841	1.5
760.589	4.5
761.338	4.5
762.086	4.5
762.834	2.5
763.582	3.5
764.331	3.5
765.079	3.5
765.826	3.5
766.574	3.5
767.322	7.5
768.07	1.5
768.817	3.5
769.565	7.5
770.312	4.5
771.06	3.5
771.807	3.5
772.554	2.5
773.302	4.5
774.049	4.5
774.796	3.5
775.543	5.5
776.29	2.5
777.036	2.5
777.783	5.5
778.53	2.5
779.276	3.5
780.023	5.5
780.769	5.5
781.516	4.5
782.262	4.5
783.008	5.5
783.754	2.5
784.5	4.5
785.246	6.5
785.992	5.5
786.738	7.5
787.484	5.5
788.23	4.5
788.975	5.5
789.721	5.5
790.466	4.5
791.212	5.5
791.957	4.5
792.702	4.5
793.447	5.5
794.193	5.5
794.938	6.5
795.683	5.5
796.427	2.5
797.172	4.5
797.917	4.5
798.662	5.5
799.406	5.5
800.151	5.5
800.895	2.5
801.64	4.5
802.384	1.5
803.128	3.5
803.872	4.5
804.616	3.5
805.36	5.5
806.104	2.5
806.848	3.5
807.592	5.5
808.336	4.5
809.079	4.5
809.823	3.5
810.566	3.5
811.31	5.5
812.053	2.5
812.796	5.5
813.539	2.5
814.283	3.5
815.026	4.5
815.769	4.5
816.511	3.5
817.254	2.5
817.997	1.5
818.74	2.5
819.482	3.5
820.225	2.5
820.967	3.5
821.71	3.5
822.452	1.5
823.194	3.5
823.936	5.5
824.678	4.5
825.42	4.5
826.162	4.5
826.904	2.5
827.646	2.5
828.388	6.5
829.129	1.5
829.871	2.5
830.612	-0.5
831.354	2.5
832.095	4.5
832.836	3.5
833.577	3.5
834.319	2.5
835.06	1.5
835.801	1.5
836.542	1.5
837.282	2.5
838.023	4.5
838.764	2.5
839.504	1.5
840.245	4.5
840.985	2.5
841.726	5.5
842.466	2.5
843.206	1.5
843.946	3.5
844.687	1.5
845.427	1.5
846.166	1.5
846.906	1.5
847.646	2.5
848.386	2.5
849.125	2.5
849.865	0.5
850.605	4.5
851.344	2.5
852.083	3.5
852.823	2.5
853.562	1.5
854.301	2.5
855.04	0.5
855.779	4.5
856.518	2.5
857.257	1.5
857.995	0.5
858.734	0.5
859.473	1.5
860.211	1.5
860.95	1.5
861.688	2.5
862.426	-0.5
863.165	1.5
863.903	3.5
864.641	0.5
865.379	1.5
866.117	1.5
866.855	0.5
867.593	-0.5
868.33	2.5
869.068	1.5
869.806	0.5
870.543	1.5
871.28	3.5
872.018	2.5
872.755	-1.5
873.492	0.5
874.229	-0.5
874.967	1.5
875.703	0.5
876.44	2.5
877.177	2.5
877.914	0.5
878.651	0.5
879.387	-0.5
880.124	2.5
880.86	-0.5
881.597	3.5
882.333	1.5
883.069	1.5
883.806	2.5
884.542	-0.5
885.278	2.5
886.014	-0.5
886.749	0.5
887.485	1.5
888.221	-0.5
888.957	0.5
889.692	0.5
890.428	1.5
891.163	0.5
891.899	1.5
892.634	-0.5
893.369	-0.5
894.104	-1.5
894.839	-2.5
895.574	-0.5
896.309	-0.5
897.044	0.5
897.779	0.5
898.514	-0.5
899.248	0.5
899.983	0.5
900.717	1.5
901.452	0.5
902.186	2.5
902.92	1.5
903.654	-1.5
904.389	0.5
905.123	1.5
905.857	-0.5
906.59	1.5
907.324	2.5
908.058	-1.5
908.792	1.5
909.525	1.5
910.259	1.5
910.992	0.5
911.726	-0.5
912.459	2.5
913.192	-1.5
913.925	0.5
914.658	1.5
915.391	-0.5
916.124	0.5
916.857	2.5
917.59	-0.5
918.323	2.5
919.055	1.5
919.788	-0.5
920.521	1.5
921.253	1.5
921.985	1.5
922.718	0.5
923.45	-0.5
924.182	-0.5
924.914	0.5
925.646	1.5
926.378	0.5
927.11	-0.5
927.841	0.5
928.573	1.5
929.305	1.5
930.036	1.5
930.768	-1.5
931.499	1.5
932.23	1.5
932.962	2.5
933.693	1.5
934.424	-2.5
935.155	1.5
935.886	1.5
936.617	-0.5
937.348	1.5
938.078	0.5
938.809	0.5
939.54	-1.5
940.27	3.5
941.001	-0.5
941.731	-0.5
942.461	-0.5
943.191	-0.5
943.922	1.5
944.652	-0.5
945.382	-0.5
946.112	1.5
946.841	-1.5
947.571	0.5
948.301	0.5
949.031	0.5
949.76	-0.5
950.49	-0.5
951.219	-0.5
951.948	-1.5
952.678	0.5
953.407	-1.5
954.136	2.5
954.865	1.5
955.594	-0.5
956.323	0.5
957.052	0.5
957.78	0.5
958.509	-1.5
959.238	0.5
959.966	-1.5
960.695	-1.5
961.423	-1.5
962.151	1.5
962.88	-0.5
963.608	-1.5
964.336	-1.5
965.064	1.5
965.792	0.5
966.52	-0.5
967.247	-0.5
967.975	-0.5
968.703	0.5
969.43	2.5
970.158	1.5
970.885	2.5
971.613	2.5
972.34	-0.5
973.067	1.5
973.794	0.5
974.521	-1.5
975.248	1.5
975.975	-1.5
976.702	0.5
977.429	-1.5
978.156	0.5
978.882	0.5
979.609	-0.5
980.335	1.5
981.062	0.5
981.788	1.5
982.514	1.5
983.24	-0.5
983.967	-1.5
984.693	-1.5
985.419	1.5
986.144	1.5
986.87	1.5
987.596	-1.5
988.322	1.5
989.047	-0.5
989.773	1.5
990.498	1.5
991.224	0.5
991.949	-0.5
992.674	1.5
993.399	0.5
994.124	0.5
994.849	1.5
995.574	1.5
996.299	0.5
997.024	-0.5
997.749	-1.5
998.473	0.5
999.198	2.5
999.922	-0.5
1000.647	1.5
1001.371	3.5
1002.095	-2.5
1002.82	-0.5
1003.544	-2.5
1004.268	-1.5
1004.992	-0.5
1005.716	0.5
1006.439	0.5
1007.163	-0.5
1007.887	-0.5
1008.611	-1.5
1009.334	-0.5
1010.058	1.5
1010.781	0.5
1011.504	-0.5
1012.228	1.5
1012.951	0.5
1013.674	0.5
1014.397	1.5
1015.12	-0.5
