节点500_145_QEPB04081__521__11-37-12-525.txt的数据

Date: Wed Nov 12 11:37:12 CST 2025
User: PC
Spectrometer: QEPB0408
触发模式: 0
积分时间 (秒): 1.000000E-2
Scans to average: 1
启用暗噪声校正: true
启用非线性校正: false
滑动平均宽度: 0
X轴模式: Wavelengths
Number of Pixels in Spectrum: 1044
>>>>>Begin Spectral Data<<<<<
220.843	-1
221.644	1
222.444	-1
223.244	-2
224.045	-2
224.845	1
225.645	-2
226.445	1
227.245	0
228.045	1
228.845	1
229.645	0
230.444	1
231.244	-2
232.043	1
232.843	-2
233.642	2
234.442	1
235.241	0
236.04	1
236.839	2
237.638	1
238.437	0
239.236	0
240.035	4
240.833	-1
241.632	2
242.43	1
243.229	1
244.027	1
244.826	3
245.624	2
246.422	1
247.22	1
248.018	0
248.816	2
249.614	0
250.412	0
251.21	2
252.007	1
252.805	2
253.602	3
254.4	4
255.197	0
255.994	3
256.791	3
257.589	5
258.386	5
259.183	2
259.979	2
260.776	5
261.573	5
262.37	4
263.166	4
263.963	4
264.759	6
265.556	5
266.352	3
267.148	5
267.944	5
268.74	7
269.536	7
270.332	6
271.128	7
271.924	6
272.719	8
273.515	7
274.311	7
275.106	8
275.901	8
276.697	6
277.492	7
278.287	8
279.082	9
279.877	9
280.672	8
281.467	8
282.262	11
283.056	10
283.851	8
284.646	10
285.44	11
286.234	10
287.029	10
287.823	10
288.617	10
289.411	10
290.205	9
290.999	10
291.793	10
292.587	9
293.381	10
294.174	12
294.968	10
295.761	10
296.555	8
297.348	9
298.141	6
298.935	10
299.728	10
300.521	7
301.314	9
302.107	10
302.899	6
303.692	7
304.485	9
305.277	8
306.07	7
306.862	7
307.655	9
308.447	8
309.239	9
310.031	6
310.823	8
311.615	7
312.407	6
313.199	6
313.991	4
314.783	8
315.574	4
316.366	2
317.157	6
317.949	4
318.74	4
319.531	4
320.322	5
321.113	4
321.904	4
322.695	3
323.486	3
324.277	6
325.068	3
325.858	3
326.649	3
327.439	6
328.23	4
329.02	2
329.81	2
330.6	3
331.391	5
332.181	4
332.971	1
333.76	6
334.55	3
335.34	4
336.13	2
336.919	5
337.709	2
338.498	1
339.287	4
340.077	2
340.866	1
341.655	4
342.444	4
343.233	4
344.022	2
344.811	4
345.6	4
346.388	3
347.177	5
347.965	3
348.754	4
349.542	4
350.33	2
351.119	3
351.907	1
352.695	2
353.483	2
354.271	4
355.059	2
355.846	1
356.634	2
357.422	4
358.209	2
358.997	5
359.784	4
360.571	5
361.359	2
362.146	2
362.933	2
363.72	1
364.507	4
365.294	4
366.081	1
366.867	2
367.654	0
368.44	3
369.227	3
370.013	1
370.8	4
371.586	3
372.372	2
373.158	4
373.944	1
374.73	2
375.516	4
376.302	2
377.088	2
377.873	0
378.659	3
379.445	1
380.23	2
381.015	3
381.801	2
382.586	0
383.371	1
384.156	2
384.941	4
385.726	1
386.511	2
387.296	2
388.08	3
388.865	1
389.649	1
390.434	4
391.218	0
392.003	2
392.787	2
393.571	2
394.355	2
395.139	2
395.923	5
396.707	4
397.491	3
398.274	4
399.058	4
399.842	3
400.625	4
401.408	4
402.192	3
402.975	5
403.758	2
404.541	4
405.324	6
406.107	4
406.89	4
407.673	3
408.456	5
409.238	6
410.021	4
410.803	3
411.586	3
412.368	5
413.151	2
413.933	5
414.715	2
415.497	2
416.279	4
417.061	5
417.843	6
418.624	5
419.406	2
420.188	2
420.969	4
421.751	5
422.532	5
423.313	7
424.095	6
424.876	5
425.657	7
426.438	5
427.219	4
428	7
428.78	5
429.561	8
430.342	6
431.122	7
431.903	7
432.683	8
433.464	7
434.244	10
435.024	7
435.804	9
436.584	9
437.364	7
438.144	9
438.924	8
439.704	13
440.483	11
441.263	13
442.042	10
442.822	14
443.601	15
444.38	17
445.16	17
445.939	17
446.718	16
447.497	18
448.276	20
449.054	23
449.833	23
450.612	25
451.391	29
452.169	28
452.948	33
453.726	35
454.504	38
455.282	44
456.061	49
456.839	54
457.617	56
458.395	65
459.172	72
459.95	82
460.728	85
461.506	99
462.283	109
463.061	121
463.838	136
464.615	152
465.393	167
466.17	187
466.947	209
467.724	233
468.501	257
469.278	284
470.055	317
470.831	352
471.608	390
472.385	434
473.161	475
473.938	520
474.714	598
475.49	642
476.266	724
477.043	782
477.819	863
478.595	970
479.371	1056
480.146	1155
480.922	1270
481.698	1406
482.473	1553
483.249	1683
484.024	1857
484.8	2039
485.575	2225
486.35	2442
487.126	2683
487.901	2932
488.676	3187
489.451	3516
490.225	3862
491	4212
491.775	4627
492.55	5016
493.324	5544
494.099	5995
494.873	6509
495.647	7064
496.422	7671
497.196	8270
497.97	8936
498.744	9605
499.518	10291
500.292	11011
501.066	11605
501.839	12322
502.613	12905
503.387	13532
504.16	14079
504.934	14588
505.707	14979
506.48	15302
507.253	15544
508.027	15671
508.8	15728
509.573	15679
510.346	15577
511.118	15265
511.891	15017
512.664	14600
513.437	14225
514.209	13676
514.982	13214
515.754	12786
516.526	12242
517.298	11741
518.071	11190
518.843	10710
519.615	10275
520.387	9845
521.159	9429
521.93	9081
522.702	8721
523.474	8403
524.245	8063
525.017	7735
525.788	7399
526.56	7139
527.331	6830
528.102	6518
528.873	6284
529.644	6043
530.415	5737
531.186	5498
531.957	5244
532.728	4962
533.498	4688
534.269	4438
535.039	4209
535.81	3976
536.58	3775
537.351	3576
538.121	3383
538.891	3184
539.661	3011
540.431	2842
541.201	2679
541.971	2552
542.741	2429
543.51	2310
544.28	2189
545.05	2072
545.819	1976
546.588	1875
547.358	1772
548.127	1681
548.896	1596
549.665	1530
550.434	1452
551.203	1358
551.972	1300
552.741	1244
553.51	1175
554.278	1105
555.047	1053
555.815	991
556.584	943
557.352	891
558.121	837
558.889	780
559.657	745
560.425	700
561.193	653
561.961	622
562.729	584
563.496	559
564.264	523
565.032	484
565.799	463
566.567	439
567.334	412
568.101	394
568.869	376
569.636	344
570.403	329
571.17	308
571.937	297
572.704	269
573.471	257
574.237	250
575.004	234
575.771	215
576.537	208
577.303	193
578.07	178
578.836	170
579.602	162
580.368	154
581.134	140
581.9	138
582.666	130
583.432	126
584.198	118
584.964	108
585.729	109
586.495	100
587.26	92
588.025	85
588.791	82
589.556	78
590.321	75
591.086	70
591.851	66
592.616	62
593.381	61
594.146	58
594.911	54
595.675	48
596.44	52
597.204	44
597.969	45
598.733	41
599.497	40
600.261	36
601.025	42
601.79	36
602.553	34
603.317	33
604.081	28
604.845	30
605.609	30
606.372	25
607.136	27
607.899	22
608.662	24
609.426	25
610.189	24
610.952	21
611.715	19
612.478	21
613.241	17
614.004	20
614.767	17
615.529	15
616.292	12
617.055	13
617.817	15
618.579	11
619.342	14
620.104	9
620.866	13
621.628	11
622.39	11
623.152	12
623.914	12
624.676	8
625.438	10
626.199	11
626.961	9
627.722	9
628.484	8
629.245	8
630.006	11
630.768	6
631.529	10
632.29	8
633.051	6
633.812	8
634.573	5
635.333	7
636.094	5
636.855	6
637.615	7
638.376	2
639.136	5
639.896	6
640.657	7
641.417	5
642.177	8
642.937	4
643.697	3
644.457	5
645.216	1
645.976	3
646.736	3
647.495	2
648.255	7
649.014	7
649.774	6
650.533	4
651.292	4
652.051	2
652.81	4
653.569	5
654.328	5
655.087	3
655.846	3
656.604	3
657.363	1
658.121	4
658.88	6
659.638	2
660.397	4
661.155	3
661.913	4
662.671	3
663.429	3
664.187	2
664.945	0
665.703	2
666.46	1
667.218	2
667.976	2
668.733	2
669.49	3
670.248	1
671.005	3
671.762	0
672.519	4
673.276	3
674.033	2
674.79	2
675.547	1
676.304	2
677.06	0
677.817	2
678.574	2
679.33	3
680.086	1
680.843	1
681.599	1
682.355	1
683.111	2
683.867	3
684.623	2
685.379	2
686.135	0
686.89	2
687.646	2
688.402	5
689.157	1
689.912	-1
690.668	1
691.423	0
692.178	1
692.933	1
693.688	1
694.443	2
695.198	1
695.953	2
696.708	2
697.462	3
698.217	1
698.972	3
699.726	1
700.48	2
701.235	1
701.989	-1
702.743	4
703.497	3
704.251	4
705.005	1
705.759	2
706.513	1
707.266	1
708.02	0
708.774	0
709.527	0
710.28	2
711.034	2
711.787	2
712.54	0
713.293	2
714.046	0
714.799	1
715.552	1
716.305	0
717.058	1
717.81	0
718.563	2
719.315	3
720.068	1
720.82	3
721.573	1
722.325	1
723.077	3
723.829	2
724.581	1
725.333	4
726.085	3
726.836	2
727.588	0
728.34	1
729.091	3
729.843	1
730.594	1
731.346	1
732.097	3
732.848	1
733.599	1
734.35	2
735.101	5
735.852	3
736.603	2
737.354	3
738.104	-2
738.855	2
739.605	4
740.356	4
741.106	2
741.856	2
742.607	2
743.357	3
744.107	2
744.857	4
745.607	1
746.357	2
747.106	4
747.856	4
748.606	4
749.355	2
750.105	1
750.854	4
751.603	2
752.353	3
753.102	5
753.851	3
754.6	1
755.349	4
756.098	2
756.847	1
757.595	1
758.344	3
759.093	2
759.841	2
760.589	1
761.338	2
762.086	3
762.834	2
763.582	0
764.331	1
765.079	2
765.826	5
766.574	1
767.322	3
768.07	3
768.817	3
769.565	4
770.312	3
771.06	5
771.807	4
772.554	5
773.302	5
774.049	3
774.796	5
775.543	3
776.29	4
777.036	5
777.783	5
778.53	5
779.276	2
780.023	3
780.769	4
781.516	5
782.262	4
783.008	3
783.754	3
784.5	5
785.246	4
785.992	4
786.738	8
787.484	5
788.23	3
788.975	5
789.721	4
790.466	5
791.212	5
791.957	5
792.702	4
793.447	5
794.193	4
794.938	4
795.683	4
796.427	6
797.172	3
797.917	5
798.662	5
799.406	3
800.151	7
800.895	4
801.64	3
802.384	2
803.128	4
803.872	3
804.616	5
805.36	3
806.104	4
806.848	2
807.592	2
808.336	4
809.079	4
809.823	4
810.566	3
811.31	2
812.053	5
812.796	5
813.539	3
814.283	3
815.026	3
815.769	5
816.511	4
817.254	4
817.997	4
818.74	2
819.482	3
820.225	5
820.967	1
821.71	4
822.452	4
823.194	3
823.936	4
824.678	3
825.42	4
826.162	3
826.904	4
827.646	1
828.388	3
829.129	5
829.871	1
830.612	1
831.354	1
832.095	2
832.836	3
833.577	2
834.319	3
835.06	4
835.801	3
836.542	3
837.282	1
838.023	2
838.764	2
839.504	3
840.245	3
840.985	4
841.726	2
842.466	4
843.206	1
843.946	0
844.687	3
845.427	-2
846.166	2
846.906	1
847.646	3
848.386	2
849.125	1
849.865	2
850.605	4
851.344	1
852.083	2
852.823	0
853.562	3
854.301	2
855.04	3
855.779	-1
856.518	2
857.257	2
857.995	3
858.734	1
859.473	2
860.211	2
860.95	0
861.688	1
862.426	3
863.165	1
863.903	1
864.641	0
865.379	3
866.117	-2
866.855	1
867.593	-1
868.33	3
869.068	1
869.806	0
870.543	2
871.28	1
872.018	3
872.755	3
873.492	-2
874.229	1
874.967	0
875.703	2
876.44	0
877.177	0
877.914	0
878.651	-1
879.387	0
880.124	-1
880.86	-1
881.597	1
882.333	0
883.069	-1
883.806	1
884.542	1
885.278	1
886.014	0
886.749	1
887.485	2
888.221	-2
888.957	-2
889.692	-1
890.428	-2
891.163	-1
891.899	2
892.634	0
893.369	2
894.104	0
894.839	-1
895.574	0
896.309	-1
897.044	0
897.779	3
898.514	0
899.248	-1
899.983	0
900.717	0
901.452	1
902.186	1
902.92	0
903.654	-1
904.389	1
905.123	0
905.857	-2
906.59	-1
907.324	-2
908.058	0
908.792	1
909.525	0
910.259	2
910.992	1
911.726	0
912.459	0
913.192	1
913.925	-2
914.658	1
915.391	0
916.124	1
916.857	1
917.59	0
918.323	-3
919.055	2
919.788	1
920.521	0
921.253	-1
921.985	1
922.718	0
923.45	-2
924.182	0
924.914	-1
925.646	1
926.378	-2
927.11	1
927.841	3
928.573	0
929.305	-1
930.036	1
930.768	1
931.499	-2
932.23	0
932.962	2
933.693	-2
934.424	-2
935.155	0
935.886	0
936.617	0
937.348	0
938.078	1
938.809	0
939.54	-1
940.27	-2
941.001	-2
941.731	1
942.461	2
943.191	-2
943.922	1
944.652	1
945.382	-1
946.112	3
946.841	-1
947.571	-1
948.301	-1
949.031	-2
949.76	1
950.49	-1
951.219	2
951.948	0
952.678	2
953.407	1
954.136	-2
954.865	1
955.594	-3
956.323	-1
957.052	1
957.78	1
958.509	-1
959.238	1
959.966	-1
960.695	-1
961.423	1
962.151	1
962.88	-2
963.608	-1
964.336	0
965.064	0
965.792	2
966.52	3
967.247	-2
967.975	1
968.703	-1
969.43	0
970.158	0
970.885	-1
971.613	2
972.34	-2
973.067	-2
973.794	2
974.521	1
975.248	4
975.975	0
976.702	2
977.429	0
978.156	2
978.882	1
979.609	0
980.335	1
981.062	-2
981.788	0
982.514	1
983.24	0
983.967	-2
984.693	-2
985.419	2
986.144	-2
986.87	1
987.596	-1
988.322	1
989.047	1
989.773	-2
990.498	1
991.224	-1
991.949	-2
992.674	2
993.399	1
994.124	2
994.849	-2
995.574	0
996.299	-1
997.024	1
997.749	-1
998.473	-1
999.198	-1
999.922	-2
1000.647	2
1001.371	3
1002.095	-2
1002.82	0
1003.544	-1
1004.268	0
1004.992	-2
1005.716	0
1006.439	-2
1007.163	0
1007.887	0
1008.611	1
1009.334	0
1010.058	-1
1010.781	1
1011.504	0
1012.228	-2
1012.951	1
1013.674	0
1014.397	-1
1015.12	0
