节点500_145_QEPB04081__504__11-36-59-467.txt的数据

Date: Wed Nov 12 11:36:59 CST 2025
User: PC
Spectrometer: QEPB0408
触发模式: 0
积分时间 (秒): 1.000000E-2
Scans to average: 1
启用暗噪声校正: true
启用非线性校正: false
滑动平均宽度: 0
X轴模式: Wavelengths
Number of Pixels in Spectrum: 1044
>>>>>Begin Spectral Data<<<<<
220.843	-1.38
221.644	-1.38
222.444	1.62
223.244	-0.38
224.045	-1.38
224.845	0.62
225.645	-0.38
226.445	-0.38
227.245	1.62
228.045	0.62
228.845	-0.38
229.645	-0.38
230.444	-1.38
231.244	0.62
232.043	-0.38
232.843	0.62
233.642	0.62
234.442	0.62
235.241	-0.38
236.04	2.62
236.839	2.62
237.638	1.62
238.437	1.62
239.236	1.62
240.035	3.62
240.833	1.62
241.632	4.62
242.43	0.62
243.229	1.62
244.027	2.62
244.826	3.62
245.624	0.62
246.422	2.62
247.22	3.62
248.018	4.62
248.816	1.62
249.614	4.62
250.412	2.62
251.21	1.62
252.007	2.62
252.805	3.62
253.602	2.62
254.4	1.62
255.197	2.62
255.994	1.62
256.791	4.62
257.589	4.62
258.386	4.62
259.183	3.62
259.979	0.62
260.776	6.62
261.573	3.62
262.37	2.62
263.166	5.62
263.963	5.62
264.759	5.62
265.556	3.62
266.352	3.62
267.148	3.62
267.944	5.62
268.74	5.62
269.536	5.62
270.332	3.62
271.128	5.62
271.924	7.62
272.719	7.62
273.515	7.62
274.311	8.62
275.106	9.62
275.901	8.62
276.697	7.62
277.492	7.62
278.287	9.62
279.082	13.62
279.877	6.62
280.672	6.62
281.467	9.62
282.262	9.62
283.056	10.62
283.851	9.62
284.646	9.62
285.44	10.62
286.234	12.62
287.029	10.62
287.823	9.62
288.617	8.62
289.411	9.62
290.205	9.62
290.999	11.62
291.793	9.62
292.587	10.62
293.381	10.62
294.174	12.62
294.968	8.62
295.761	7.62
296.555	10.62
297.348	9.62
298.141	10.62
298.935	10.62
299.728	9.62
300.521	10.62
301.314	7.62
302.107	7.62
302.899	6.62
303.692	6.62
304.485	8.62
305.277	7.62
306.07	8.62
306.862	6.62
307.655	10.62
308.447	8.62
309.239	6.62
310.031	8.62
310.823	7.62
311.615	6.62
312.407	6.62
313.199	7.62
313.991	5.62
314.783	5.62
315.574	5.62
316.366	3.62
317.157	4.62
317.949	5.62
318.74	5.62
319.531	3.62
320.322	4.62
321.113	4.62
321.904	4.62
322.695	6.62
323.486	3.62
324.277	4.62
325.068	6.62
325.858	5.62
326.649	4.62
327.439	4.62
328.23	1.62
329.02	5.62
329.81	3.62
330.6	3.62
331.391	2.62
332.181	5.62
332.971	3.62
333.76	3.62
334.55	2.62
335.34	2.62
336.13	2.62
336.919	4.62
337.709	2.62
338.498	4.62
339.287	3.62
340.077	3.62
340.866	4.62
341.655	1.62
342.444	3.62
343.233	1.62
344.022	1.62
344.811	2.62
345.6	4.62
346.388	3.62
347.177	2.62
347.965	4.62
348.754	5.62
349.542	4.62
350.33	4.62
351.119	2.62
351.907	2.62
352.695	3.62
353.483	3.62
354.271	0.62
355.059	4.62
355.846	2.62
356.634	2.62
357.422	3.62
358.209	1.62
358.997	4.62
359.784	1.62
360.571	2.62
361.359	3.62
362.146	2.62
362.933	2.62
363.72	3.62
364.507	2.62
365.294	3.62
366.081	2.62
366.867	1.62
367.654	1.62
368.44	2.62
369.227	0.62
370.013	3.62
370.8	4.62
371.586	4.62
372.372	2.62
373.158	1.62
373.944	2.62
374.73	2.62
375.516	3.62
376.302	1.62
377.088	1.62
377.873	4.62
378.659	0.62
379.445	2.62
380.23	2.62
381.015	2.62
381.801	2.62
382.586	2.62
383.371	2.62
384.156	3.62
384.941	2.62
385.726	0.62
386.511	2.62
387.296	2.62
388.08	3.62
388.865	3.62
389.649	2.62
390.434	3.62
391.218	2.62
392.003	3.62
392.787	3.62
393.571	2.62
394.355	5.62
395.139	2.62
395.923	1.62
396.707	3.62
397.491	2.62
398.274	5.62
399.058	1.62
399.842	2.62
400.625	0.62
401.408	2.62
402.192	1.62
402.975	4.62
403.758	2.62
404.541	3.62
405.324	2.62
406.107	3.62
406.89	3.62
407.673	3.62
408.456	5.62
409.238	4.62
410.021	3.62
410.803	4.62
411.586	2.62
412.368	6.62
413.151	3.62
413.933	4.62
414.715	5.62
415.497	5.62
416.279	4.62
417.061	4.62
417.843	4.62
418.624	4.62
419.406	6.62
420.188	6.62
420.969	4.62
421.751	7.62
422.532	5.62
423.313	6.62
424.095	3.62
424.876	7.62
425.657	4.62
426.438	4.62
427.219	5.62
428	6.62
428.78	5.62
429.561	7.62
430.342	6.62
431.122	9.62
431.903	5.62
432.683	6.62
433.464	8.62
434.244	10.62
435.024	6.62
435.804	9.62
436.584	10.62
437.364	10.62
438.144	9.62
438.924	10.62
439.704	11.62
440.483	10.62
441.263	12.62
442.042	11.62
442.822	12.62
443.601	14.62
444.38	14.62
445.16	15.62
445.939	17.62
446.718	17.62
447.497	18.62
448.276	21.62
449.054	22.62
449.833	22.62
450.612	27.62
451.391	30.62
452.169	31.62
452.948	32.62
453.726	35.62
454.504	40.62
455.282	42.62
456.061	46.62
456.839	54.62
457.617	57.62
458.395	61.62
459.172	70.62
459.95	76.62
460.728	91.62
461.506	98.62
462.283	115.62
463.061	121.62
463.838	135.62
464.615	148.62
465.393	168.62
466.17	189.62
466.947	205.62
467.724	224.62
468.501	249.62
469.278	290.62
470.055	313.62
470.831	353.62
471.608	389.62
472.385	432.62
473.161	476.62
473.938	527.62
474.714	575.62
475.49	641.62
476.266	715.62
477.043	797.62
477.819	863.62
478.595	949.62
479.371	1046.62
480.146	1145.62
480.922	1273.62
481.698	1403.62
482.473	1529.62
483.249	1705.62
484.024	1836.62
484.8	2041.62
485.575	2236.62
486.35	2441.62
487.126	2667.62
487.901	2948.62
488.676	3211.62
489.451	3563.62
490.225	3853.62
491	4251.62
491.775	4627.62
492.55	5034.62
493.324	5543.62
494.099	6050.62
494.873	6564.62
495.647	7124.62
496.422	7717.62
497.196	8318.62
497.97	8978.62
498.744	9627.62
499.518	10344.62
500.292	11069.62
501.066	11697.62
501.839	12405.62
502.613	13010.62
503.387	13624.62
504.16	14121.62
504.934	14654.62
505.707	15043.62
506.48	15327.62
507.253	15600.62
508.027	15704.62
508.8	15804.62
509.573	15671.62
510.346	15614.62
511.118	15353.62
511.891	14990.62
512.664	14632.62
513.437	14175.62
514.209	13713.62
514.982	13249.62
515.754	12722.62
516.526	12217.62
517.298	11716.62
518.071	11207.62
518.843	10714.62
519.615	10262.62
520.387	9816.62
521.159	9460.62
521.93	9076.62
522.702	8751.62
523.474	8345.62
524.245	8072.62
525.017	7723.62
525.788	7401.62
526.56	7132.62
527.331	6840.62
528.102	6543.62
528.873	6258.62
529.644	5973.62
530.415	5733.62
531.186	5477.62
531.957	5222.62
532.728	4955.62
533.498	4675.62
534.269	4446.62
535.039	4205.62
535.81	3987.62
536.58	3752.62
537.351	3551.62
538.121	3365.62
538.891	3170.62
539.661	3008.62
540.431	2837.62
541.201	2681.62
541.971	2538.62
542.741	2403.62
543.51	2291.62
544.28	2146.62
545.05	2072.62
545.819	1971.62
546.588	1863.62
547.358	1762.62
548.127	1690.62
548.896	1582.62
549.665	1502.62
550.434	1445.62
551.203	1374.62
551.972	1304.62
552.741	1231.62
553.51	1175.62
554.278	1097.62
555.047	1038.62
555.815	976.62
556.584	919.62
557.352	868.62
558.121	829.62
558.889	790.62
559.657	739.62
560.425	688.62
561.193	649.62
561.961	620.62
562.729	585.62
563.496	551.62
564.264	511.62
565.032	485.62
565.799	463.62
566.567	441.62
567.334	410.62
568.101	387.62
568.869	372.62
569.636	344.62
570.403	331.62
571.17	307.62
571.937	288.62
572.704	272.62
573.471	261.62
574.237	242.62
575.004	234.62
575.771	215.62
576.537	197.62
577.303	191.62
578.07	186.62
578.836	167.62
579.602	157.62
580.368	156.62
581.134	146.62
581.9	136.62
582.666	130.62
583.432	125.62
584.198	117.62
584.964	109.62
585.729	105.62
586.495	96.62
587.26	92.62
588.025	89.62
588.791	82.62
589.556	77.62
590.321	74.62
591.086	72.62
591.851	65.62
592.616	61.62
593.381	60.62
594.146	60.62
594.911	53.62
595.675	48.62
596.44	48.62
597.204	44.62
597.969	45.62
598.733	37.62
599.497	39.62
600.261	40.62
601.025	35.62
601.79	34.62
602.553	33.62
603.317	30.62
604.081	30.62
604.845	29.62
605.609	28.62
606.372	25.62
607.136	26.62
607.899	24.62
608.662	25.62
609.426	22.62
610.189	21.62
610.952	20.62
611.715	19.62
612.478	18.62
613.241	16.62
614.004	15.62
614.767	14.62
615.529	18.62
616.292	17.62
617.055	12.62
617.817	14.62
618.579	14.62
619.342	12.62
620.104	14.62
620.866	11.62
621.628	10.62
622.39	11.62
623.152	11.62
623.914	10.62
624.676	12.62
625.438	6.62
626.199	11.62
626.961	8.62
627.722	6.62
628.484	7.62
629.245	7.62
630.006	9.62
630.768	8.62
631.529	10.62
632.29	7.62
633.051	7.62
633.812	5.62
634.573	7.62
635.333	5.62
636.094	6.62
636.855	7.62
637.615	6.62
638.376	4.62
639.136	6.62
639.896	5.62
640.657	5.62
641.417	5.62
642.177	6.62
642.937	4.62
643.697	5.62
644.457	4.62
645.216	3.62
645.976	5.62
646.736	5.62
647.495	5.62
648.255	7.62
649.014	3.62
649.774	5.62
650.533	3.62
651.292	3.62
652.051	2.62
652.81	4.62
653.569	5.62
654.328	1.62
655.087	5.62
655.846	3.62
656.604	4.62
657.363	4.62
658.121	3.62
658.88	2.62
659.638	4.62
660.397	3.62
661.155	2.62
661.913	2.62
662.671	0.62
663.429	3.62
664.187	3.62
664.945	1.62
665.703	1.62
666.46	3.62
667.218	2.62
667.976	2.62
668.733	0.62
669.49	3.62
670.248	3.62
671.005	5.62
671.762	3.62
672.519	2.62
673.276	2.62
674.033	1.62
674.79	1.62
675.547	1.62
676.304	2.62
677.06	1.62
677.817	3.62
678.574	4.62
679.33	3.62
680.086	1.62
680.843	1.62
681.599	2.62
682.355	2.62
683.111	2.62
683.867	2.62
684.623	3.62
685.379	2.62
686.135	1.62
686.89	2.62
687.646	1.62
688.402	1.62
689.157	2.62
689.912	2.62
690.668	-0.38
691.423	2.62
692.178	2.62
692.933	0.62
693.688	3.62
694.443	2.62
695.198	4.62
695.953	2.62
696.708	0.62
697.462	2.62
698.217	4.62
698.972	0.62
699.726	3.62
700.48	2.62
701.235	4.62
701.989	1.62
702.743	2.62
703.497	0.62
704.251	2.62
705.005	1.62
705.759	2.62
706.513	2.62
707.266	2.62
708.02	4.62
708.774	-1.38
709.527	1.62
710.28	1.62
711.034	0.62
711.787	0.62
712.54	-0.38
713.293	3.62
714.046	2.62
714.799	4.62
715.552	4.62
716.305	1.62
717.058	2.62
717.81	2.62
718.563	1.62
719.315	3.62
720.068	3.62
720.82	2.62
721.573	2.62
722.325	4.62
723.077	1.62
723.829	1.62
724.581	0.62
725.333	0.62
726.085	2.62
726.836	1.62
727.588	2.62
728.34	0.62
729.091	3.62
729.843	4.62
730.594	2.62
731.346	0.62
732.097	1.62
732.848	3.62
733.599	0.62
734.35	3.62
735.101	1.62
735.852	1.62
736.603	2.62
737.354	3.62
738.104	3.62
738.855	1.62
739.605	2.62
740.356	1.62
741.106	2.62
741.856	3.62
742.607	1.62
743.357	1.62
744.107	1.62
744.857	3.62
745.607	6.62
746.357	3.62
747.106	3.62
747.856	2.62
748.606	4.62
749.355	1.62
750.105	4.62
750.854	3.62
751.603	2.62
752.353	5.62
753.102	-1.38
753.851	0.62
754.6	2.62
755.349	5.62
756.098	1.62
756.847	4.62
757.595	2.62
758.344	2.62
759.093	2.62
759.841	2.62
760.589	1.62
761.338	2.62
762.086	2.62
762.834	1.62
763.582	1.62
764.331	3.62
765.079	1.62
765.826	4.62
766.574	2.62
767.322	5.62
768.07	4.62
768.817	2.62
769.565	4.62
770.312	4.62
771.06	2.62
771.807	5.62
772.554	2.62
773.302	6.62
774.049	1.62
774.796	6.62
775.543	4.62
776.29	5.62
777.036	6.62
777.783	2.62
778.53	4.62
779.276	2.62
780.023	4.62
780.769	5.62
781.516	5.62
782.262	4.62
783.008	5.62
783.754	5.62
784.5	4.62
785.246	6.62
785.992	4.62
786.738	5.62
787.484	7.62
788.23	5.62
788.975	4.62
789.721	3.62
790.466	4.62
791.212	4.62
791.957	5.62
792.702	4.62
793.447	4.62
794.193	6.62
794.938	2.62
795.683	5.62
796.427	3.62
797.172	5.62
797.917	0.62
798.662	3.62
799.406	4.62
800.151	3.62
800.895	4.62
801.64	3.62
802.384	3.62
803.128	5.62
803.872	2.62
804.616	5.62
805.36	4.62
806.104	4.62
806.848	1.62
807.592	1.62
808.336	4.62
809.079	2.62
809.823	3.62
810.566	3.62
811.31	3.62
812.053	3.62
812.796	2.62
813.539	3.62
814.283	2.62
815.026	3.62
815.769	2.62
816.511	2.62
817.254	1.62
817.997	0.62
818.74	1.62
819.482	3.62
820.225	5.62
820.967	4.62
821.71	3.62
822.452	1.62
823.194	2.62
823.936	3.62
824.678	3.62
825.42	2.62
826.162	4.62
826.904	3.62
827.646	3.62
828.388	1.62
829.129	1.62
829.871	1.62
830.612	2.62
831.354	2.62
832.095	1.62
832.836	2.62
833.577	2.62
834.319	3.62
835.06	3.62
835.801	3.62
836.542	2.62
837.282	2.62
838.023	3.62
838.764	2.62
839.504	4.62
840.245	2.62
840.985	1.62
841.726	2.62
842.466	2.62
843.206	4.62
843.946	1.62
844.687	3.62
845.427	1.62
846.166	2.62
846.906	0.62
847.646	1.62
848.386	2.62
849.125	-0.38
849.865	2.62
850.605	2.62
851.344	4.62
852.083	1.62
852.823	1.62
853.562	1.62
854.301	1.62
855.04	3.62
855.779	4.62
856.518	0.62
857.257	1.62
857.995	1.62
858.734	0.62
859.473	2.62
860.211	1.62
860.95	2.62
861.688	5.62
862.426	1.62
863.165	0.62
863.903	3.62
864.641	-0.38
865.379	1.62
866.117	-0.38
866.855	1.62
867.593	1.62
868.33	1.62
869.068	3.62
869.806	0.62
870.543	3.62
871.28	1.62
872.018	1.62
872.755	3.62
873.492	0.62
874.229	-0.38
874.967	2.62
875.703	2.62
876.44	1.62
877.177	1.62
877.914	3.62
878.651	-0.38
879.387	3.62
880.124	-0.38
880.86	0.62
881.597	0.62
882.333	1.62
883.069	1.62
883.806	0.62
884.542	1.62
885.278	-1.38
886.014	3.62
886.749	-1.38
887.485	2.62
888.221	2.62
888.957	0.62
889.692	1.62
890.428	-1.38
891.163	0.62
891.899	2.62
892.634	-0.38
893.369	0.62
894.104	-0.38
894.839	2.62
895.574	1.62
896.309	2.62
897.044	0.62
897.779	0.62
898.514	1.62
899.248	1.62
899.983	1.62
900.717	0.62
901.452	0.62
902.186	0.62
902.92	1.62
903.654	2.62
904.389	-1.38
905.123	1.62
905.857	0.62
906.59	-0.38
907.324	0.62
908.058	0.62
908.792	-0.38
909.525	-1.38
910.259	1.62
910.992	0.62
911.726	-2.38
912.459	1.62
913.192	-0.38
913.925	1.62
914.658	-2.38
915.391	1.62
916.124	1.62
916.857	0.62
917.59	1.62
918.323	-0.38
919.055	0.62
919.788	1.62
920.521	1.62
921.253	0.62
921.985	0.62
922.718	0.62
923.45	-0.38
924.182	1.62
924.914	-1.38
925.646	1.62
926.378	0.62
927.11	1.62
927.841	-1.38
928.573	-1.38
929.305	0.62
930.036	1.62
930.768	0.62
931.499	1.62
932.23	0.62
932.962	1.62
933.693	-0.38
934.424	0.62
935.155	0.62
935.886	-0.38
936.617	-1.38
937.348	-1.38
938.078	-0.38
938.809	1.62
939.54	2.62
940.27	0.62
941.001	1.62
941.731	0.62
942.461	-0.38
943.191	-0.38
943.922	-1.38
944.652	0.62
945.382	1.62
946.112	0.62
946.841	1.62
947.571	-0.38
948.301	-1.38
949.031	-2.38
949.76	1.62
950.49	2.62
951.219	0.62
951.948	0.62
952.678	0.62
953.407	2.62
954.136	-1.38
954.865	2.62
955.594	1.62
956.323	0.62
957.052	2.62
957.78	-0.38
958.509	-0.38
959.238	0.62
959.966	-0.38
960.695	-0.38
961.423	3.62
962.151	1.62
962.88	1.62
963.608	0.62
964.336	-0.38
965.064	0.62
965.792	-0.38
966.52	0.62
967.247	1.62
967.975	1.62
968.703	-1.38
969.43	0.62
970.158	-0.38
970.885	1.62
971.613	-0.38
972.34	-0.38
973.067	-0.38
973.794	-0.38
974.521	-1.38
975.248	-0.38
975.975	-1.38
976.702	1.62
977.429	0.62
978.156	1.62
978.882	0.62
979.609	-1.38
980.335	1.62
981.062	-0.38
981.788	0.62
982.514	0.62
983.24	-1.38
983.967	-0.38
984.693	-1.38
985.419	-0.38
986.144	1.62
986.87	-1.38
987.596	2.62
988.322	-3.38
989.047	0.62
989.773	-0.38
990.498	2.62
991.224	-0.38
991.949	2.62
992.674	0.62
993.399	1.62
994.124	0.62
994.849	-0.38
995.574	0.62
996.299	1.62
997.024	1.62
997.749	1.62
998.473	-0.38
999.198	1.62
999.922	0.62
1000.647	1.62
1001.371	2.62
1002.095	-2.38
1002.82	-2.38
1003.544	-0.38
1004.268	-0.38
1004.992	-1.38
1005.716	-0.38
1006.439	-0.38
1007.163	-0.38
1007.887	0.62
1008.611	0.62
1009.334	-1.38
1010.058	0.62
1010.781	1.62
1011.504	-0.38
1012.228	-1.38
1012.951	2.62
1013.674	-0.38
1014.397	-0.38
1015.12	0.62
