节点500_145_QEPB04081__659__11-39-25-051.txt的数据

Date: Wed Nov 12 11:39:25 CST 2025
User: PC
Spectrometer: QEPB0408
触发模式: 0
积分时间 (秒): 1.000000E-2
Scans to average: 1
启用暗噪声校正: true
启用非线性校正: false
滑动平均宽度: 0
X轴模式: Wavelengths
Number of Pixels in Spectrum: 1044
>>>>>Begin Spectral Data<<<<<
220.843	-0.25
221.644	0.75
222.444	-1.25
223.244	-1.25
224.045	-0.25
224.845	-0.25
225.645	3.75
226.445	-1.25
227.245	0.75
228.045	-0.25
228.845	1.75
229.645	0.75
230.444	1.75
231.244	1.75
232.043	2.75
232.843	0.75
233.642	1.75
234.442	1.75
235.241	1.75
236.04	0.75
236.839	2.75
237.638	2.75
238.437	2.75
239.236	-2.25
240.035	2.75
240.833	0.75
241.632	1.75
242.43	3.75
243.229	0.75
244.027	2.75
244.826	1.75
245.624	2.75
246.422	1.75
247.22	1.75
248.018	1.75
248.816	2.75
249.614	3.75
250.412	1.75
251.21	1.75
252.007	3.75
252.805	1.75
253.602	5.75
254.4	3.75
255.197	4.75
255.994	2.75
256.791	2.75
257.589	3.75
258.386	4.75
259.183	4.75
259.979	1.75
260.776	3.75
261.573	5.75
262.37	2.75
263.166	6.75
263.963	3.75
264.759	4.75
265.556	6.75
266.352	5.75
267.148	7.75
267.944	5.75
268.74	5.75
269.536	4.75
270.332	6.75
271.128	5.75
271.924	7.75
272.719	6.75
273.515	7.75
274.311	6.75
275.106	6.75
275.901	7.75
276.697	4.75
277.492	8.75
278.287	7.75
279.082	8.75
279.877	7.75
280.672	8.75
281.467	10.75
282.262	6.75
283.056	9.75
283.851	10.75
284.646	8.75
285.44	11.75
286.234	7.75
287.029	8.75
287.823	10.75
288.617	11.75
289.411	10.75
290.205	11.75
290.999	9.75
291.793	9.75
292.587	8.75
293.381	8.75
294.174	8.75
294.968	8.75
295.761	7.75
296.555	10.75
297.348	8.75
298.141	9.75
298.935	8.75
299.728	9.75
300.521	8.75
301.314	7.75
302.107	10.75
302.899	7.75
303.692	5.75
304.485	8.75
305.277	5.75
306.07	7.75
306.862	9.75
307.655	7.75
308.447	10.75
309.239	7.75
310.031	7.75
310.823	7.75
311.615	7.75
312.407	3.75
313.199	7.75
313.991	6.75
314.783	6.75
315.574	5.75
316.366	5.75
317.157	5.75
317.949	4.75
318.74	7.75
319.531	3.75
320.322	5.75
321.113	3.75
321.904	5.75
322.695	3.75
323.486	4.75
324.277	6.75
325.068	4.75
325.858	4.75
326.649	2.75
327.439	5.75
328.23	3.75
329.02	5.75
329.81	2.75
330.6	2.75
331.391	2.75
332.181	4.75
332.971	2.75
333.76	4.75
334.55	3.75
335.34	3.75
336.13	2.75
336.919	4.75
337.709	4.75
338.498	5.75
339.287	5.75
340.077	3.75
340.866	4.75
341.655	4.75
342.444	5.75
343.233	4.75
344.022	3.75
344.811	2.75
345.6	1.75
346.388	3.75
347.177	2.75
347.965	2.75
348.754	3.75
349.542	2.75
350.33	2.75
351.119	2.75
351.907	5.75
352.695	1.75
353.483	4.75
354.271	5.75
355.059	3.75
355.846	2.75
356.634	3.75
357.422	3.75
358.209	2.75
358.997	3.75
359.784	2.75
360.571	3.75
361.359	1.75
362.146	2.75
362.933	0.75
363.72	3.75
364.507	1.75
365.294	3.75
366.081	2.75
366.867	2.75
367.654	3.75
368.44	3.75
369.227	4.75
370.013	2.75
370.8	3.75
371.586	2.75
372.372	2.75
373.158	4.75
373.944	2.75
374.73	2.75
375.516	2.75
376.302	1.75
377.088	1.75
377.873	2.75
378.659	-0.25
379.445	1.75
380.23	3.75
381.015	3.75
381.801	3.75
382.586	2.75
383.371	2.75
384.156	3.75
384.941	1.75
385.726	2.75
386.511	2.75
387.296	1.75
388.08	3.75
388.865	4.75
389.649	1.75
390.434	3.75
391.218	1.75
392.003	4.75
392.787	3.75
393.571	5.75
394.355	6.75
395.139	2.75
395.923	4.75
396.707	3.75
397.491	6.75
398.274	2.75
399.058	1.75
399.842	2.75
400.625	2.75
401.408	3.75
402.192	2.75
402.975	1.75
403.758	5.75
404.541	2.75
405.324	3.75
406.107	3.75
406.89	2.75
407.673	4.75
408.456	4.75
409.238	3.75
410.021	1.75
410.803	5.75
411.586	2.75
412.368	6.75
413.151	5.75
413.933	5.75
414.715	6.75
415.497	5.75
416.279	6.75
417.061	5.75
417.843	6.75
418.624	4.75
419.406	4.75
420.188	6.75
420.969	4.75
421.751	6.75
422.532	2.75
423.313	5.75
424.095	4.75
424.876	4.75
425.657	6.75
426.438	8.75
427.219	8.75
428	5.75
428.78	5.75
429.561	8.75
430.342	7.75
431.122	6.75
431.903	6.75
432.683	6.75
433.464	5.75
434.244	7.75
435.024	9.75
435.804	11.75
436.584	10.75
437.364	8.75
438.144	10.75
438.924	10.75
439.704	11.75
440.483	11.75
441.263	13.75
442.042	10.75
442.822	13.75
443.601	16.75
444.38	14.75
445.16	15.75
445.939	15.75
446.718	18.75
447.497	18.75
448.276	22.75
449.054	25.75
449.833	23.75
450.612	24.75
451.391	30.75
452.169	32.75
452.948	35.75
453.726	37.75
454.504	40.75
455.282	44.75
456.061	50.75
456.839	56.75
457.617	62.75
458.395	71.75
459.172	73.75
459.95	82.75
460.728	91.75
461.506	108.75
462.283	115.75
463.061	129.75
463.838	142.75
464.615	157.75
465.393	174.75
466.17	190.75
466.947	210.75
467.724	241.75
468.501	266.75
469.278	294.75
470.055	328.75
470.831	366.75
471.608	400.75
472.385	441.75
473.161	494.75
473.938	545.75
474.714	597.75
475.49	655.75
476.266	724.75
477.043	788.75
477.819	870.75
478.595	968.75
479.371	1066.75
480.146	1171.75
480.922	1277.75
481.698	1388.75
482.473	1525.75
483.249	1674.75
484.024	1821.75
484.8	1986.75
485.575	2179.75
486.35	2378.75
487.126	2582.75
487.901	2820.75
488.676	3097.75
489.451	3421.75
490.225	3696.75
491	4033.75
491.775	4390.75
492.55	4755.75
493.324	5203.75
494.099	5641.75
494.873	6137.75
495.647	6633.75
496.422	7173.75
497.196	7775.75
497.97	8319.75
498.744	9013.75
499.518	9605.75
500.292	10229.75
501.066	10895.75
501.839	11512.75
502.613	12103.75
503.387	12658.75
504.16	13237.75
504.934	13729.75
505.707	14134.75
506.48	14483.75
507.253	14720.75
508.027	14897.75
508.8	15064.75
509.573	15028.75
510.346	14978.75
511.118	14875.75
511.891	14588.75
512.664	14253.75
513.437	13896.75
514.209	13532.75
514.982	13054.75
515.754	12588.75
516.526	12145.75
517.298	11672.75
518.071	11186.75
518.843	10718.75
519.615	10284.75
520.387	9881.75
521.159	9474.75
521.93	9087.75
522.702	8687.75
523.474	8387.75
524.245	8056.75
525.017	7740.75
525.788	7467.75
526.56	7150.75
527.331	6843.75
528.102	6558.75
528.873	6310.75
529.644	6043.75
530.415	5767.75
531.186	5497.75
531.957	5262.75
532.728	5035.75
533.498	4778.75
534.269	4522.75
535.039	4277.75
535.81	4056.75
536.58	3832.75
537.351	3621.75
538.121	3436.75
538.891	3243.75
539.661	3086.75
540.431	2917.75
541.201	2749.75
541.971	2603.75
542.741	2462.75
543.51	2358.75
544.28	2217.75
545.05	2118.75
545.819	2019.75
546.588	1916.75
547.358	1805.75
548.127	1729.75
548.896	1638.75
549.665	1541.75
550.434	1473.75
551.203	1410.75
551.972	1335.75
552.741	1268.75
553.51	1198.75
554.278	1125.75
555.047	1065.75
555.815	1017.75
556.584	960.75
557.352	906.75
558.121	849.75
558.889	812.75
559.657	760.75
560.425	726.75
561.193	674.75
561.961	641.75
562.729	609.75
563.496	571.75
564.264	538.75
565.032	512.75
565.799	471.75
566.567	453.75
567.334	434.75
568.101	402.75
568.869	381.75
569.636	363.75
570.403	341.75
571.17	321.75
571.937	299.75
572.704	285.75
573.471	271.75
574.237	254.75
575.004	241.75
575.771	226.75
576.537	213.75
577.303	202.75
578.07	188.75
578.836	179.75
579.602	167.75
580.368	153.75
581.134	148.75
581.9	139.75
582.666	134.75
583.432	128.75
584.198	118.75
584.964	114.75
585.729	108.75
586.495	102.75
587.26	97.75
588.025	90.75
588.791	84.75
589.556	85.75
590.321	75.75
591.086	73.75
591.851	69.75
592.616	62.75
593.381	60.75
594.146	56.75
594.911	56.75
595.675	55.75
596.44	53.75
597.204	47.75
597.969	46.75
598.733	43.75
599.497	41.75
600.261	43.75
601.025	37.75
601.79	37.75
602.553	34.75
603.317	34.75
604.081	32.75
604.845	30.75
605.609	28.75
606.372	25.75
607.136	26.75
607.899	22.75
608.662	26.75
609.426	25.75
610.189	23.75
610.952	23.75
611.715	20.75
612.478	20.75
613.241	17.75
614.004	20.75
614.767	16.75
615.529	15.75
616.292	16.75
617.055	14.75
617.817	13.75
618.579	10.75
619.342	14.75
620.104	13.75
620.866	12.75
621.628	11.75
622.39	14.75
623.152	10.75
623.914	11.75
624.676	11.75
625.438	11.75
626.199	9.75
626.961	7.75
627.722	9.75
628.484	9.75
629.245	7.75
630.006	9.75
630.768	9.75
631.529	8.75
632.29	7.75
633.051	4.75
633.812	6.75
634.573	5.75
635.333	9.75
636.094	7.75
636.855	5.75
637.615	7.75
638.376	3.75
639.136	6.75
639.896	5.75
640.657	4.75
641.417	5.75
642.177	4.75
642.937	3.75
643.697	4.75
644.457	5.75
645.216	4.75
645.976	5.75
646.736	3.75
647.495	4.75
648.255	3.75
649.014	2.75
649.774	3.75
650.533	5.75
651.292	3.75
652.051	0.75
652.81	5.75
653.569	6.75
654.328	3.75
655.087	5.75
655.846	2.75
656.604	5.75
657.363	3.75
658.121	4.75
658.88	3.75
659.638	0.75
660.397	4.75
661.155	3.75
661.913	3.75
662.671	3.75
663.429	3.75
664.187	3.75
664.945	1.75
665.703	4.75
666.46	2.75
667.218	4.75
667.976	3.75
668.733	1.75
669.49	4.75
670.248	2.75
671.005	3.75
671.762	3.75
672.519	2.75
673.276	1.75
674.033	1.75
674.79	3.75
675.547	2.75
676.304	2.75
677.06	1.75
677.817	2.75
678.574	1.75
679.33	5.75
680.086	4.75
680.843	3.75
681.599	4.75
682.355	1.75
683.111	3.75
683.867	3.75
684.623	3.75
685.379	1.75
686.135	0.75
686.89	2.75
687.646	1.75
688.402	4.75
689.157	1.75
689.912	5.75
690.668	3.75
691.423	0.75
692.178	2.75
692.933	-0.25
693.688	2.75
694.443	1.75
695.198	2.75
695.953	2.75
696.708	1.75
697.462	2.75
698.217	2.75
698.972	1.75
699.726	2.75
700.48	1.75
701.235	1.75
701.989	1.75
702.743	5.75
703.497	0.75
704.251	4.75
705.005	3.75
705.759	3.75
706.513	2.75
707.266	1.75
708.02	0.75
708.774	0.75
709.527	2.75
710.28	3.75
711.034	1.75
711.787	4.75
712.54	-0.25
713.293	2.75
714.046	1.75
714.799	1.75
715.552	3.75
716.305	2.75
717.058	2.75
717.81	1.75
718.563	2.75
719.315	0.75
720.068	2.75
720.82	3.75
721.573	2.75
722.325	2.75
723.077	3.75
723.829	2.75
724.581	1.75
725.333	2.75
726.085	5.75
726.836	0.75
727.588	1.75
728.34	1.75
729.091	3.75
729.843	3.75
730.594	1.75
731.346	4.75
732.097	1.75
732.848	2.75
733.599	1.75
734.35	4.75
735.101	1.75
735.852	4.75
736.603	3.75
737.354	3.75
738.104	1.75
738.855	0.75
739.605	3.75
740.356	3.75
741.106	2.75
741.856	3.75
742.607	0.75
743.357	3.75
744.107	2.75
744.857	0.75
745.607	2.75
746.357	3.75
747.106	0.75
747.856	2.75
748.606	2.75
749.355	2.75
750.105	2.75
750.854	2.75
751.603	-0.25
752.353	5.75
753.102	3.75
753.851	3.75
754.6	4.75
755.349	2.75
756.098	4.75
756.847	2.75
757.595	3.75
758.344	1.75
759.093	2.75
759.841	4.75
760.589	4.75
761.338	0.75
762.086	4.75
762.834	3.75
763.582	2.75
764.331	2.75
765.079	2.75
765.826	5.75
766.574	1.75
767.322	6.75
768.07	3.75
768.817	3.75
769.565	3.75
770.312	5.75
771.06	3.75
771.807	1.75
772.554	5.75
773.302	4.75
774.049	4.75
774.796	5.75
775.543	3.75
776.29	4.75
777.036	2.75
777.783	2.75
778.53	2.75
779.276	3.75
780.023	3.75
780.769	4.75
781.516	5.75
782.262	5.75
783.008	3.75
783.754	6.75
784.5	2.75
785.246	5.75
785.992	4.75
786.738	4.75
787.484	4.75
788.23	4.75
788.975	6.75
789.721	5.75
790.466	6.75
791.212	5.75
791.957	3.75
792.702	6.75
793.447	3.75
794.193	4.75
794.938	4.75
795.683	7.75
796.427	4.75
797.172	5.75
797.917	3.75
798.662	5.75
799.406	4.75
800.151	5.75
800.895	4.75
801.64	4.75
802.384	4.75
803.128	2.75
803.872	5.75
804.616	4.75
805.36	1.75
806.104	5.75
806.848	2.75
807.592	2.75
808.336	4.75
809.079	4.75
809.823	4.75
810.566	3.75
811.31	3.75
812.053	4.75
812.796	3.75
813.539	3.75
814.283	4.75
815.026	2.75
815.769	3.75
816.511	3.75
817.254	3.75
817.997	5.75
818.74	2.75
819.482	1.75
820.225	2.75
820.967	2.75
821.71	1.75
822.452	5.75
823.194	2.75
823.936	2.75
824.678	2.75
825.42	4.75
826.162	5.75
826.904	1.75
827.646	1.75
828.388	1.75
829.129	1.75
829.871	2.75
830.612	4.75
831.354	4.75
832.095	3.75
832.836	4.75
833.577	0.75
834.319	2.75
835.06	2.75
835.801	4.75
836.542	2.75
837.282	2.75
838.023	2.75
838.764	1.75
839.504	2.75
840.245	4.75
840.985	1.75
841.726	4.75
842.466	2.75
843.206	1.75
843.946	1.75
844.687	2.75
845.427	1.75
846.166	2.75
846.906	2.75
847.646	2.75
848.386	1.75
849.125	0.75
849.865	1.75
850.605	0.75
851.344	1.75
852.083	2.75
852.823	2.75
853.562	2.75
854.301	-0.25
855.04	0.75
855.779	0.75
856.518	1.75
857.257	1.75
857.995	1.75
858.734	2.75
859.473	3.75
860.211	1.75
860.95	0.75
861.688	2.75
862.426	1.75
863.165	0.75
863.903	1.75
864.641	3.75
865.379	1.75
866.117	0.75
866.855	-0.25
867.593	0.75
868.33	0.75
869.068	1.75
869.806	0.75
870.543	0.75
871.28	0.75
872.018	0.75
872.755	-1.25
873.492	-0.25
874.229	0.75
874.967	2.75
875.703	1.75
876.44	1.75
877.177	1.75
877.914	1.75
878.651	0.75
879.387	-0.25
880.124	0.75
880.86	0.75
881.597	0.75
882.333	1.75
883.069	1.75
883.806	2.75
884.542	-0.25
885.278	0.75
886.014	0.75
886.749	-1.25
887.485	1.75
888.221	-0.25
888.957	1.75
889.692	2.75
890.428	0.75
891.163	0.75
891.899	1.75
892.634	0.75
893.369	2.75
894.104	-1.25
894.839	0.75
895.574	-1.25
896.309	0.75
897.044	0.75
897.779	1.75
898.514	-0.25
899.248	0.75
899.983	1.75
900.717	0.75
901.452	1.75
902.186	-0.25
902.92	1.75
903.654	1.75
904.389	1.75
905.123	0.75
905.857	-1.25
906.59	1.75
907.324	0.75
908.058	0.75
908.792	2.75
909.525	-1.25
910.259	1.75
910.992	0.75
911.726	0.75
912.459	-0.25
913.192	0.75
913.925	-2.25
914.658	-0.25
915.391	1.75
916.124	0.75
916.857	1.75
917.59	2.75
918.323	1.75
919.055	1.75
919.788	-0.25
920.521	1.75
921.253	1.75
921.985	2.75
922.718	-0.25
923.45	-1.25
924.182	1.75
924.914	0.75
925.646	1.75
926.378	-1.25
927.11	1.75
927.841	-0.25
928.573	-0.25
929.305	1.75
930.036	0.75
930.768	-2.25
931.499	-1.25
932.23	1.75
932.962	1.75
933.693	0.75
934.424	0.75
935.155	0.75
935.886	-0.25
936.617	-0.25
937.348	0.75
938.078	0.75
938.809	-0.25
939.54	-0.25
940.27	0.75
941.001	-0.25
941.731	0.75
942.461	-0.25
943.191	1.75
943.922	0.75
944.652	0.75
945.382	-1.25
946.112	0.75
946.841	1.75
947.571	0.75
948.301	0.75
949.031	0.75
949.76	-1.25
950.49	1.75
951.219	1.75
951.948	-0.25
952.678	1.75
953.407	0.75
954.136	-1.25
954.865	-0.25
955.594	-1.25
956.323	-0.25
957.052	0.75
957.78	-0.25
958.509	1.75
959.238	0.75
959.966	0.75
960.695	-1.25
961.423	-0.25
962.151	0.75
962.88	1.75
963.608	1.75
964.336	1.75
965.064	2.75
965.792	-1.25
966.52	0.75
967.247	-0.25
967.975	-0.25
968.703	2.75
969.43	1.75
970.158	1.75
970.885	1.75
971.613	0.75
972.34	-0.25
973.067	-1.25
973.794	1.75
974.521	-1.25
975.248	1.75
975.975	-0.25
976.702	1.75
977.429	0.75
978.156	2.75
978.882	0.75
979.609	-0.25
980.335	0.75
981.062	0.75
981.788	1.75
982.514	-1.25
983.24	1.75
983.967	1.75
984.693	-0.25
985.419	1.75
986.144	-1.25
986.87	2.75
987.596	-0.25
988.322	1.75
989.047	1.75
989.773	-0.25
990.498	-0.25
991.224	0.75
991.949	1.75
992.674	0.75
993.399	0.75
994.124	1.75
994.849	3.75
995.574	1.75
996.299	-1.25
997.024	0.75
997.749	0.75
998.473	0.75
999.198	1.75
999.922	1.75
1000.647	1.75
1001.371	2.75
1002.095	-1.25
1002.82	-0.25
1003.544	-1.25
1004.268	-1.25
1004.992	-1.25
1005.716	1.75
1006.439	-2.25
1007.163	0.75
1007.887	0.75
1008.611	-0.25
1009.334	-0.25
1010.058	0.75
1010.781	-1.25
1011.504	2.75
1012.228	-0.25
1012.951	0.75
1013.674	-2.25
1014.397	1.75
1015.12	-0.25
