节点500_145_QEPB04081__382__11-35-03-610.txt的数据

Date: Wed Nov 12 11:35:03 CST 2025
User: PC
Spectrometer: QEPB0408
触发模式: 0
积分时间 (秒): 1.000000E-2
Scans to average: 1
启用暗噪声校正: true
启用非线性校正: false
滑动平均宽度: 0
X轴模式: Wavelengths
Number of Pixels in Spectrum: 1044
>>>>>Begin Spectral Data<<<<<
220.843	1
221.644	-1
222.444	1
223.244	-1
224.045	1
224.845	-3
225.645	-2
226.445	0
227.245	1
228.045	-1
228.845	0
229.645	1
230.444	2
231.244	1
232.043	-1
232.843	2
233.642	-2
234.442	1
235.241	0
236.04	-1
236.839	2
237.638	2
238.437	0
239.236	2
240.035	1
240.833	0
241.632	1
242.43	-1
243.229	1
244.027	0
244.826	1
245.624	2
246.422	3
247.22	1
248.018	2
248.816	4
249.614	3
250.412	1
251.21	3
252.007	2
252.805	2
253.602	3
254.4	2
255.197	2
255.994	2
256.791	1
257.589	4
258.386	3
259.183	6
259.979	5
260.776	6
261.573	4
262.37	3
263.166	3
263.963	5
264.759	7
265.556	4
266.352	3
267.148	6
267.944	5
268.74	6
269.536	5
270.332	7
271.128	8
271.924	5
272.719	6
273.515	7
274.311	9
275.106	9
275.901	9
276.697	8
277.492	7
278.287	11
279.082	9
279.877	8
280.672	10
281.467	10
282.262	13
283.056	9
283.851	10
284.646	12
285.44	10
286.234	11
287.029	13
287.823	8
288.617	10
289.411	10
290.205	10
290.999	10
291.793	10
292.587	12
293.381	9
294.174	10
294.968	10
295.761	8
296.555	11
297.348	10
298.141	8
298.935	10
299.728	9
300.521	9
301.314	7
302.107	9
302.899	8
303.692	7
304.485	8
305.277	6
306.07	11
306.862	9
307.655	6
308.447	8
309.239	7
310.031	8
310.823	4
311.615	6
312.407	8
313.199	10
313.991	7
314.783	5
315.574	3
316.366	5
317.157	4
317.949	3
318.74	5
319.531	3
320.322	5
321.113	5
321.904	3
322.695	5
323.486	4
324.277	3
325.068	5
325.858	5
326.649	4
327.439	3
328.23	4
329.02	3
329.81	6
330.6	4
331.391	4
332.181	5
332.971	2
333.76	5
334.55	3
335.34	6
336.13	2
336.919	3
337.709	2
338.498	4
339.287	4
340.077	3
340.866	3
341.655	2
342.444	1
343.233	3
344.022	4
344.811	5
345.6	3
346.388	5
347.177	4
347.965	2
348.754	3
349.542	2
350.33	5
351.119	4
351.907	3
352.695	0
353.483	4
354.271	3
355.059	5
355.846	3
356.634	4
357.422	3
358.209	4
358.997	2
359.784	4
360.571	2
361.359	3
362.146	1
362.933	2
363.72	3
364.507	2
365.294	2
366.081	1
366.867	4
367.654	2
368.44	2
369.227	3
370.013	1
370.8	2
371.586	4
372.372	2
373.158	0
373.944	4
374.73	4
375.516	0
376.302	3
377.088	4
377.873	3
378.659	3
379.445	4
380.23	3
381.015	5
381.801	2
382.586	2
383.371	1
384.156	4
384.941	4
385.726	3
386.511	4
387.296	3
388.08	2
388.865	2
389.649	2
390.434	2
391.218	0
392.003	4
392.787	4
393.571	2
394.355	3
395.139	2
395.923	2
396.707	2
397.491	3
398.274	5
399.058	1
399.842	5
400.625	2
401.408	5
402.192	5
402.975	3
403.758	4
404.541	3
405.324	5
406.107	7
406.89	1
407.673	5
408.456	5
409.238	5
410.021	4
410.803	5
411.586	4
412.368	3
413.151	4
413.933	7
414.715	4
415.497	4
416.279	2
417.061	5
417.843	4
418.624	5
419.406	3
420.188	5
420.969	4
421.751	6
422.532	6
423.313	3
424.095	4
424.876	7
425.657	4
426.438	9
427.219	5
428	5
428.78	5
429.561	5
430.342	7
431.122	7
431.903	8
432.683	10
433.464	8
434.244	9
435.024	8
435.804	7
436.584	10
437.364	10
438.144	10
438.924	10
439.704	12
440.483	12
441.263	13
442.042	15
442.822	14
443.601	15
444.38	16
445.16	14
445.939	17
446.718	17
447.497	19
448.276	20
449.054	21
449.833	22
450.612	22
451.391	26
452.169	30
452.948	34
453.726	36
454.504	39
455.282	40
456.061	48
456.839	53
457.617	56
458.395	62
459.172	69
459.95	78
460.728	86
461.506	94
462.283	106
463.061	115
463.838	129
464.615	146
465.393	165
466.17	183
466.947	198
467.724	216
468.501	242
469.278	274
470.055	315
470.831	345
471.608	381
472.385	419
473.161	471
473.938	515
474.714	574
475.49	632
476.266	707
477.043	779
477.819	859
478.595	945
479.371	1047
480.146	1168
480.922	1260
481.698	1409
482.473	1540
483.249	1710
484.024	1873
484.8	2052
485.575	2261
486.35	2496
487.126	2719
487.901	3007
488.676	3283
489.451	3614
490.225	3953
491	4371
491.775	4759
492.55	5213
493.324	5709
494.099	6223
494.873	6797
495.647	7359
496.422	8028
497.196	8668
497.97	9322
498.744	10023
499.518	10766
500.292	11482
501.066	12154
501.839	12849
502.613	13508
503.387	14141
504.16	14682
504.934	15182
505.707	15448
506.48	15761
507.253	16005
508.027	16146
508.8	16118
509.573	16030
510.346	15822
511.118	15576
511.891	15175
512.664	14723
513.437	14298
514.209	13805
514.982	13341
515.754	12768
516.526	12199
517.298	11698
518.071	11135
518.843	10636
519.615	10215
520.387	9815
521.159	9437
521.93	9022
522.702	8722
523.474	8314
524.245	7996
525.017	7689
525.788	7364
526.56	7104
527.331	6815
528.102	6506
528.873	6214
529.644	5947
530.415	5667
531.186	5382
531.957	5162
532.728	4890
533.498	4630
534.269	4387
535.039	4142
535.81	3936
536.58	3697
537.351	3485
538.121	3315
538.891	3134
539.661	2958
540.431	2793
541.201	2669
541.971	2511
542.741	2384
543.51	2250
544.28	2129
545.05	2028
545.819	1944
546.588	1817
547.358	1723
548.127	1663
548.896	1577
549.665	1496
550.434	1416
551.203	1344
551.972	1291
552.741	1209
553.51	1145
554.278	1097
555.047	1022
555.815	965
556.584	916
557.352	864
558.121	803
558.889	762
559.657	720
560.425	679
561.193	639
561.961	601
562.729	576
563.496	536
564.264	507
565.032	480
565.799	458
566.567	431
567.334	403
568.101	379
568.869	367
569.636	339
570.403	323
571.17	300
571.937	292
572.704	271
573.471	250
574.237	241
575.004	227
575.771	215
576.537	197
577.303	195
578.07	179
578.836	162
579.602	154
580.368	146
581.134	138
581.9	135
582.666	126
583.432	121
584.198	109
584.964	104
585.729	102
586.495	95
587.26	91
588.025	83
588.791	81
589.556	72
590.321	70
591.086	68
591.851	64
592.616	60
593.381	60
594.146	54
594.911	47
595.675	50
596.44	50
597.204	46
597.969	43
598.733	42
599.497	41
600.261	37
601.025	32
601.79	34
602.553	32
603.317	34
604.081	28
604.845	28
605.609	29
606.372	26
607.136	24
607.899	22
608.662	22
609.426	22
610.189	23
610.952	19
611.715	21
612.478	17
613.241	18
614.004	19
614.767	17
615.529	13
616.292	14
617.055	16
617.817	14
618.579	16
619.342	13
620.104	13
620.866	14
621.628	13
622.39	9
623.152	11
623.914	12
624.676	10
625.438	12
626.199	11
626.961	9
627.722	8
628.484	8
629.245	8
630.006	10
630.768	9
631.529	5
632.29	7
633.051	5
633.812	7
634.573	7
635.333	6
636.094	5
636.855	5
637.615	8
638.376	5
639.136	5
639.896	4
640.657	6
641.417	6
642.177	4
642.937	6
643.697	3
644.457	3
645.216	1
645.976	4
646.736	4
647.495	3
648.255	5
649.014	3
649.774	2
650.533	4
651.292	2
652.051	4
652.81	3
653.569	5
654.328	4
655.087	4
655.846	3
656.604	3
657.363	3
658.121	1
658.88	3
659.638	2
660.397	5
661.155	2
661.913	2
662.671	2
663.429	1
664.187	3
664.945	2
665.703	4
666.46	4
667.218	4
667.976	3
668.733	2
669.49	4
670.248	1
671.005	3
671.762	2
672.519	2
673.276	3
674.033	1
674.79	2
675.547	1
676.304	4
677.06	1
677.817	1
678.574	4
679.33	-1
680.086	2
680.843	1
681.599	2
682.355	1
683.111	1
683.867	3
684.623	1
685.379	4
686.135	-1
686.89	2
687.646	1
688.402	0
689.157	3
689.912	3
690.668	2
691.423	2
692.178	5
692.933	0
693.688	2
694.443	0
695.198	2
695.953	4
696.708	2
697.462	3
698.217	5
698.972	0
699.726	1
700.48	2
701.235	2
701.989	1
702.743	2
703.497	2
704.251	-1
705.005	2
705.759	1
706.513	1
707.266	0
708.02	2
708.774	2
709.527	1
710.28	0
711.034	1
711.787	2
712.54	2
713.293	3
714.046	2
714.799	1
715.552	1
716.305	2
717.058	2
717.81	3
718.563	2
719.315	3
720.068	2
720.82	0
721.573	1
722.325	1
723.077	2
723.829	1
724.581	2
725.333	1
726.085	0
726.836	4
727.588	1
728.34	3
729.091	1
729.843	3
730.594	1
731.346	1
732.097	2
732.848	2
733.599	1
734.35	2
735.101	1
735.852	1
736.603	3
737.354	3
738.104	2
738.855	1
739.605	3
740.356	2
741.106	2
741.856	1
742.607	0
743.357	2
744.107	2
744.857	3
745.607	1
746.357	2
747.106	5
747.856	5
748.606	2
749.355	2
750.105	3
750.854	5
751.603	2
752.353	3
753.102	1
753.851	3
754.6	2
755.349	1
756.098	1
756.847	4
757.595	4
758.344	5
759.093	3
759.841	4
760.589	4
761.338	2
762.086	3
762.834	5
763.582	3
764.331	3
765.079	5
765.826	2
766.574	3
767.322	3
768.07	4
768.817	2
769.565	3
770.312	4
771.06	2
771.807	3
772.554	2
773.302	3
774.049	6
774.796	4
775.543	5
776.29	3
777.036	6
777.783	5
778.53	4
779.276	5
780.023	6
780.769	4
781.516	4
782.262	4
783.008	3
783.754	7
784.5	3
785.246	5
785.992	3
786.738	3
787.484	4
788.23	5
788.975	5
789.721	4
790.466	5
791.212	4
791.957	4
792.702	4
793.447	5
794.193	6
794.938	7
795.683	5
796.427	4
797.172	5
797.917	3
798.662	3
799.406	3
800.151	2
800.895	3
801.64	5
802.384	3
803.128	5
803.872	2
804.616	5
805.36	4
806.104	4
806.848	5
807.592	2
808.336	2
809.079	1
809.823	4
810.566	4
811.31	3
812.053	3
812.796	4
813.539	4
814.283	3
815.026	5
815.769	3
816.511	3
817.254	3
817.997	3
818.74	4
819.482	1
820.225	3
820.967	3
821.71	3
822.452	2
823.194	2
823.936	2
824.678	2
825.42	4
826.162	3
826.904	1
827.646	5
828.388	4
829.129	2
829.871	5
830.612	1
831.354	2
832.095	2
832.836	1
833.577	1
834.319	3
835.06	0
835.801	2
836.542	1
837.282	2
838.023	3
838.764	0
839.504	1
840.245	3
840.985	2
841.726	1
842.466	1
843.206	2
843.946	2
844.687	3
845.427	1
846.166	4
846.906	1
847.646	1
848.386	2
849.125	1
849.865	2
850.605	1
851.344	2
852.083	1
852.823	1
853.562	2
854.301	-1
855.04	2
855.779	0
856.518	1
857.257	1
857.995	2
858.734	1
859.473	0
860.211	0
860.95	3
861.688	2
862.426	1
863.165	-2
863.903	-2
864.641	-2
865.379	4
866.117	0
866.855	3
867.593	1
868.33	-1
869.068	1
869.806	0
870.543	-2
871.28	0
872.018	2
872.755	0
873.492	-1
874.229	0
874.967	0
875.703	1
876.44	0
877.177	1
877.914	-2
878.651	1
879.387	2
880.124	-1
880.86	-2
881.597	0
882.333	0
883.069	1
883.806	0
884.542	1
885.278	-1
886.014	0
886.749	1
887.485	1
888.221	0
888.957	1
889.692	1
890.428	1
891.163	1
891.899	2
892.634	3
893.369	3
894.104	1
894.839	1
895.574	0
896.309	-1
897.044	3
897.779	1
898.514	2
899.248	2
899.983	1
900.717	-2
901.452	1
902.186	0
902.92	-1
903.654	0
904.389	0
905.123	-2
905.857	0
906.59	0
907.324	1
908.058	1
908.792	1
909.525	-2
910.259	1
910.992	-2
911.726	0
912.459	0
913.192	-2
913.925	2
914.658	1
915.391	0
916.124	-2
916.857	2
917.59	3
918.323	0
919.055	1
919.788	-2
920.521	0
921.253	1
921.985	0
922.718	0
923.45	-2
924.182	0
924.914	-2
925.646	-1
926.378	-3
927.11	-2
927.841	0
928.573	-2
929.305	-1
930.036	-1
930.768	0
931.499	2
932.23	1
932.962	2
933.693	-2
934.424	1
935.155	-1
935.886	0
936.617	0
937.348	-1
938.078	1
938.809	-1
939.54	1
940.27	0
941.001	-3
941.731	2
942.461	-1
943.191	-2
943.922	0
944.652	-1
945.382	0
946.112	1
946.841	-1
947.571	-2
948.301	0
949.031	-1
949.76	0
950.49	0
951.219	-1
951.948	-2
952.678	1
953.407	-1
954.136	-1
954.865	0
955.594	1
956.323	1
957.052	0
957.78	-1
958.509	0
959.238	-3
959.966	3
960.695	-1
961.423	-1
962.151	0
962.88	1
963.608	1
964.336	-1
965.064	0
965.792	-1
966.52	1
967.247	1
967.975	-2
968.703	-1
969.43	1
970.158	-2
970.885	-2
971.613	0
972.34	0
973.067	-1
973.794	1
974.521	-1
975.248	0
975.975	0
976.702	0
977.429	1
978.156	1
978.882	0
979.609	1
980.335	2
981.062	-3
981.788	2
982.514	1
983.24	1
983.967	1
984.693	-1
985.419	-2
986.144	0
986.87	-1
987.596	0
988.322	-1
989.047	0
989.773	0
990.498	1
991.224	2
991.949	0
992.674	1
993.399	-2
994.124	-1
994.849	0
995.574	2
996.299	0
997.024	1
997.749	-2
998.473	1
999.198	1
999.922	0
1000.647	-2
1001.371	2
1002.095	-1
1002.82	-1
1003.544	-2
1004.268	2
1004.992	0
1005.716	0
1006.439	0
1007.163	-2
1007.887	3
1008.611	1
1009.334	-1
1010.058	-2
1010.781	0
1011.504	1
1012.228	0
1012.951	1
1013.674	0
1014.397	1
1015.12	0
