节点500_145_QEPB04081__179__11-31-48-566.txt的数据

Date: Wed Nov 12 11:31:48 CST 2025
User: PC
Spectrometer: QEPB0408
触发模式: 0
积分时间 (秒): 1.000000E-2
Scans to average: 1
启用暗噪声校正: true
启用非线性校正: false
滑动平均宽度: 0
X轴模式: Wavelengths
Number of Pixels in Spectrum: 1044
>>>>>Begin Spectral Data<<<<<
220.843	2.12
221.644	-1.88
222.444	-1.88
223.244	-0.88
224.045	0.12
224.845	1.12
225.645	-1.88
226.445	0.12
227.245	0.12
228.045	0.12
228.845	0.12
229.645	1.12
230.444	4.12
231.244	1.12
232.043	1.12
232.843	1.12
233.642	0.12
234.442	2.12
235.241	0.12
236.04	2.12
236.839	3.12
237.638	-1.88
238.437	3.12
239.236	0.12
240.035	1.12
240.833	1.12
241.632	1.12
242.43	1.12
243.229	1.12
244.027	0.12
244.826	0.12
245.624	2.12
246.422	2.12
247.22	1.12
248.018	3.12
248.816	1.12
249.614	1.12
250.412	1.12
251.21	3.12
252.007	1.12
252.805	3.12
253.602	3.12
254.4	4.12
255.197	3.12
255.994	1.12
256.791	4.12
257.589	3.12
258.386	4.12
259.183	3.12
259.979	3.12
260.776	4.12
261.573	5.12
262.37	7.12
263.166	3.12
263.963	7.12
264.759	4.12
265.556	6.12
266.352	8.12
267.148	3.12
267.944	5.12
268.74	9.12
269.536	6.12
270.332	10.12
271.128	7.12
271.924	8.12
272.719	7.12
273.515	11.12
274.311	8.12
275.106	10.12
275.901	9.12
276.697	9.12
277.492	8.12
278.287	11.12
279.082	9.12
279.877	10.12
280.672	7.12
281.467	12.12
282.262	10.12
283.056	10.12
283.851	9.12
284.646	11.12
285.44	11.12
286.234	12.12
287.029	12.12
287.823	10.12
288.617	10.12
289.411	12.12
290.205	11.12
290.999	9.12
291.793	11.12
292.587	10.12
293.381	13.12
294.174	9.12
294.968	12.12
295.761	13.12
296.555	12.12
297.348	11.12
298.141	9.12
298.935	10.12
299.728	11.12
300.521	10.12
301.314	10.12
302.107	10.12
302.899	7.12
303.692	9.12
304.485	6.12
305.277	8.12
306.07	6.12
306.862	10.12
307.655	9.12
308.447	6.12
309.239	6.12
310.031	7.12
310.823	7.12
311.615	8.12
312.407	6.12
313.199	7.12
313.991	1.12
314.783	5.12
315.574	3.12
316.366	8.12
317.157	4.12
317.949	4.12
318.74	6.12
319.531	4.12
320.322	5.12
321.113	7.12
321.904	5.12
322.695	4.12
323.486	4.12
324.277	5.12
325.068	3.12
325.858	5.12
326.649	3.12
327.439	4.12
328.23	4.12
329.02	3.12
329.81	2.12
330.6	2.12
331.391	4.12
332.181	2.12
332.971	5.12
333.76	4.12
334.55	2.12
335.34	4.12
336.13	2.12
336.919	7.12
337.709	2.12
338.498	4.12
339.287	5.12
340.077	3.12
340.866	4.12
341.655	2.12
342.444	2.12
343.233	2.12
344.022	3.12
344.811	3.12
345.6	2.12
346.388	2.12
347.177	4.12
347.965	2.12
348.754	1.12
349.542	3.12
350.33	4.12
351.119	3.12
351.907	4.12
352.695	4.12
353.483	3.12
354.271	2.12
355.059	2.12
355.846	4.12
356.634	1.12
357.422	1.12
358.209	5.12
358.997	3.12
359.784	5.12
360.571	4.12
361.359	1.12
362.146	2.12
362.933	4.12
363.72	1.12
364.507	3.12
365.294	4.12
366.081	4.12
366.867	3.12
367.654	1.12
368.44	2.12
369.227	0.12
370.013	2.12
370.8	2.12
371.586	3.12
372.372	5.12
373.158	1.12
373.944	2.12
374.73	1.12
375.516	1.12
376.302	3.12
377.088	3.12
377.873	5.12
378.659	2.12
379.445	4.12
380.23	1.12
381.015	3.12
381.801	3.12
382.586	1.12
383.371	1.12
384.156	2.12
384.941	2.12
385.726	3.12
386.511	2.12
387.296	3.12
388.08	3.12
388.865	1.12
389.649	2.12
390.434	2.12
391.218	0.12
392.003	2.12
392.787	3.12
393.571	2.12
394.355	4.12
395.139	2.12
395.923	4.12
396.707	3.12
397.491	2.12
398.274	4.12
399.058	2.12
399.842	4.12
400.625	3.12
401.408	0.12
402.192	6.12
402.975	3.12
403.758	4.12
404.541	5.12
405.324	4.12
406.107	5.12
406.89	3.12
407.673	5.12
408.456	3.12
409.238	3.12
410.021	3.12
410.803	2.12
411.586	4.12
412.368	8.12
413.151	4.12
413.933	5.12
414.715	4.12
415.497	4.12
416.279	4.12
417.061	6.12
417.843	5.12
418.624	5.12
419.406	7.12
420.188	6.12
420.969	5.12
421.751	7.12
422.532	6.12
423.313	5.12
424.095	7.12
424.876	7.12
425.657	8.12
426.438	7.12
427.219	7.12
428	7.12
428.78	5.12
429.561	8.12
430.342	6.12
431.122	8.12
431.903	8.12
432.683	7.12
433.464	8.12
434.244	8.12
435.024	9.12
435.804	8.12
436.584	8.12
437.364	8.12
438.144	10.12
438.924	9.12
439.704	12.12
440.483	11.12
441.263	11.12
442.042	13.12
442.822	13.12
443.601	12.12
444.38	16.12
445.16	14.12
445.939	16.12
446.718	14.12
447.497	16.12
448.276	22.12
449.054	22.12
449.833	22.12
450.612	25.12
451.391	26.12
452.169	26.12
452.948	33.12
453.726	30.12
454.504	36.12
455.282	37.12
456.061	44.12
456.839	47.12
457.617	52.12
458.395	56.12
459.172	62.12
459.95	66.12
460.728	78.12
461.506	88.12
462.283	97.12
463.061	106.12
463.838	120.12
464.615	133.12
465.393	148.12
466.17	166.12
466.947	186.12
467.724	206.12
468.501	237.12
469.278	255.12
470.055	284.12
470.831	323.12
471.608	361.12
472.385	395.12
473.161	448.12
473.938	497.12
474.714	543.12
475.49	611.12
476.266	681.12
477.043	751.12
477.819	838.12
478.595	936.12
479.371	1025.12
480.146	1132.12
480.922	1257.12
481.698	1403.12
482.473	1550.12
483.249	1704.12
484.024	1885.12
484.8	2084.12
485.575	2313.12
486.35	2550.12
487.126	2842.12
487.901	3134.12
488.676	3456.12
489.451	3793.12
490.225	4195.12
491	4670.12
491.775	5108.12
492.55	5626.12
493.324	6177.12
494.099	6752.12
494.873	7388.12
495.647	8076.12
496.422	8813.12
497.196	9526.12
497.97	10312.12
498.744	11060.12
499.518	11873.12
500.292	12598.12
501.066	13345.12
501.839	14127.12
502.613	14793.12
503.387	15419.12
504.16	15959.12
504.934	16406.12
505.707	16724.12
506.48	16888.12
507.253	16989.12
508.027	17062.12
508.8	16921.12
509.573	16724.12
510.346	16410.12
511.118	15954.12
511.891	15502.12
512.664	15001.12
513.437	14422.12
514.209	13818.12
514.982	13288.12
515.754	12693.12
516.526	12141.12
517.298	11581.12
518.071	11084.12
518.843	10552.12
519.615	10081.12
520.387	9655.12
521.159	9338.12
521.93	8941.12
522.702	8556.12
523.474	8263.12
524.245	7928.12
525.017	7613.12
525.788	7292.12
526.56	7016.12
527.331	6705.12
528.102	6434.12
528.873	6106.12
529.644	5863.12
530.415	5550.12
531.186	5276.12
531.957	5017.12
532.728	4753.12
533.498	4503.12
534.269	4239.12
535.039	4027.12
535.81	3774.12
536.58	3566.12
537.351	3364.12
538.121	3181.12
538.891	3017.12
539.661	2829.12
540.431	2702.12
541.201	2527.12
541.971	2399.12
542.741	2285.12
543.51	2147.12
544.28	2058.12
545.05	1926.12
545.819	1854.12
546.588	1763.12
547.358	1665.12
548.127	1586.12
548.896	1525.12
549.665	1438.12
550.434	1364.12
551.203	1287.12
551.972	1224.12
552.741	1164.12
553.51	1116.12
554.278	1039.12
555.047	974.12
555.815	914.12
556.584	871.12
557.352	820.12
558.121	773.12
558.889	728.12
559.657	678.12
560.425	644.12
561.193	610.12
561.961	574.12
562.729	540.12
563.496	511.12
564.264	479.12
565.032	452.12
565.799	428.12
566.567	403.12
567.334	381.12
568.101	370.12
568.869	341.12
569.636	327.12
570.403	305.12
571.17	292.12
571.937	270.12
572.704	255.12
573.471	242.12
574.237	222.12
575.004	207.12
575.771	201.12
576.537	190.12
577.303	172.12
578.07	168.12
578.836	153.12
579.602	145.12
580.368	136.12
581.134	127.12
581.9	125.12
582.666	117.12
583.432	110.12
584.198	105.12
584.964	99.12
585.729	96.12
586.495	87.12
587.26	87.12
588.025	81.12
588.791	76.12
589.556	72.12
590.321	66.12
591.086	65.12
591.851	65.12
592.616	59.12
593.381	58.12
594.146	51.12
594.911	51.12
595.675	49.12
596.44	45.12
597.204	43.12
597.969	39.12
598.733	39.12
599.497	37.12
600.261	37.12
601.025	35.12
601.79	34.12
602.553	30.12
603.317	27.12
604.081	32.12
604.845	29.12
605.609	27.12
606.372	23.12
607.136	23.12
607.899	24.12
608.662	23.12
609.426	21.12
610.189	19.12
610.952	18.12
611.715	20.12
612.478	16.12
613.241	17.12
614.004	16.12
614.767	18.12
615.529	14.12
616.292	12.12
617.055	14.12
617.817	15.12
618.579	12.12
619.342	9.12
620.104	12.12
620.866	10.12
621.628	12.12
622.39	10.12
623.152	10.12
623.914	10.12
624.676	9.12
625.438	9.12
626.199	9.12
626.961	9.12
627.722	6.12
628.484	9.12
629.245	11.12
630.006	7.12
630.768	6.12
631.529	7.12
632.29	6.12
633.051	7.12
633.812	8.12
634.573	6.12
635.333	7.12
636.094	7.12
636.855	2.12
637.615	8.12
638.376	6.12
639.136	7.12
639.896	4.12
640.657	3.12
641.417	5.12
642.177	5.12
642.937	2.12
643.697	4.12
644.457	5.12
645.216	6.12
645.976	6.12
646.736	6.12
647.495	3.12
648.255	5.12
649.014	2.12
649.774	2.12
650.533	3.12
651.292	4.12
652.051	4.12
652.81	4.12
653.569	5.12
654.328	5.12
655.087	2.12
655.846	2.12
656.604	2.12
657.363	4.12
658.121	2.12
658.88	3.12
659.638	2.12
660.397	2.12
661.155	2.12
661.913	3.12
662.671	2.12
663.429	3.12
664.187	2.12
664.945	4.12
665.703	4.12
666.46	4.12
667.218	0.12
667.976	3.12
668.733	0.12
669.49	3.12
670.248	2.12
671.005	5.12
671.762	2.12
672.519	1.12
673.276	3.12
674.033	2.12
674.79	2.12
675.547	2.12
676.304	2.12
677.06	2.12
677.817	3.12
678.574	1.12
679.33	3.12
680.086	3.12
680.843	3.12
681.599	2.12
682.355	3.12
683.111	0.12
683.867	2.12
684.623	2.12
685.379	2.12
686.135	2.12
686.89	2.12
687.646	2.12
688.402	2.12
689.157	1.12
689.912	4.12
690.668	1.12
691.423	3.12
692.178	1.12
692.933	1.12
693.688	2.12
694.443	2.12
695.198	1.12
695.953	2.12
696.708	1.12
697.462	2.12
698.217	1.12
698.972	1.12
699.726	3.12
700.48	1.12
701.235	2.12
701.989	2.12
702.743	0.12
703.497	2.12
704.251	0.12
705.005	1.12
705.759	0.12
706.513	1.12
707.266	1.12
708.02	2.12
708.774	5.12
709.527	1.12
710.28	3.12
711.034	2.12
711.787	2.12
712.54	3.12
713.293	0.12
714.046	2.12
714.799	-0.88
715.552	2.12
716.305	3.12
717.058	3.12
717.81	1.12
718.563	0.12
719.315	4.12
720.068	-0.88
720.82	-0.88
721.573	4.12
722.325	-0.88
723.077	1.12
723.829	3.12
724.581	2.12
725.333	1.12
726.085	0.12
726.836	-0.88
727.588	1.12
728.34	2.12
729.091	2.12
729.843	3.12
730.594	2.12
731.346	3.12
732.097	2.12
732.848	1.12
733.599	1.12
734.35	1.12
735.101	1.12
735.852	4.12
736.603	1.12
737.354	4.12
738.104	1.12
738.855	4.12
739.605	1.12
740.356	4.12
741.106	3.12
741.856	2.12
742.607	1.12
743.357	1.12
744.107	3.12
744.857	1.12
745.607	3.12
746.357	3.12
747.106	2.12
747.856	2.12
748.606	0.12
749.355	4.12
750.105	3.12
750.854	3.12
751.603	4.12
752.353	3.12
753.102	2.12
753.851	1.12
754.6	2.12
755.349	1.12
756.098	2.12
756.847	4.12
757.595	2.12
758.344	3.12
759.093	2.12
759.841	2.12
760.589	2.12
761.338	3.12
762.086	3.12
762.834	3.12
763.582	2.12
764.331	4.12
765.079	5.12
765.826	5.12
766.574	3.12
767.322	3.12
768.07	2.12
768.817	4.12
769.565	6.12
770.312	4.12
771.06	7.12
771.807	3.12
772.554	3.12
773.302	5.12
774.049	5.12
774.796	5.12
775.543	5.12
776.29	2.12
777.036	4.12
777.783	5.12
778.53	3.12
779.276	6.12
780.023	4.12
780.769	7.12
781.516	4.12
782.262	5.12
783.008	5.12
783.754	3.12
784.5	5.12
785.246	4.12
785.992	6.12
786.738	7.12
787.484	5.12
788.23	5.12
788.975	4.12
789.721	6.12
790.466	5.12
791.212	5.12
791.957	5.12
792.702	6.12
793.447	6.12
794.193	3.12
794.938	6.12
795.683	3.12
796.427	6.12
797.172	5.12
797.917	4.12
798.662	6.12
799.406	3.12
800.151	4.12
800.895	3.12
801.64	5.12
802.384	6.12
803.128	7.12
803.872	5.12
804.616	3.12
805.36	4.12
806.104	4.12
806.848	4.12
807.592	4.12
808.336	4.12
809.079	4.12
809.823	4.12
810.566	3.12
811.31	3.12
812.053	4.12
812.796	4.12
813.539	2.12
814.283	6.12
815.026	4.12
815.769	3.12
816.511	4.12
817.254	3.12
817.997	6.12
818.74	3.12
819.482	4.12
820.225	1.12
820.967	5.12
821.71	4.12
822.452	5.12
823.194	3.12
823.936	3.12
824.678	3.12
825.42	3.12
826.162	3.12
826.904	2.12
827.646	2.12
828.388	3.12
829.129	1.12
829.871	4.12
830.612	4.12
831.354	2.12
832.095	2.12
832.836	2.12
833.577	3.12
834.319	1.12
835.06	3.12
835.801	3.12
836.542	3.12
837.282	3.12
838.023	2.12
838.764	2.12
839.504	1.12
840.245	2.12
840.985	3.12
841.726	2.12
842.466	1.12
843.206	1.12
843.946	4.12
844.687	1.12
845.427	5.12
846.166	0.12
846.906	1.12
847.646	3.12
848.386	2.12
849.125	3.12
849.865	0.12
850.605	2.12
851.344	2.12
852.083	2.12
852.823	1.12
853.562	1.12
854.301	2.12
855.04	2.12
855.779	3.12
856.518	0.12
857.257	3.12
857.995	1.12
858.734	5.12
859.473	2.12
860.211	1.12
860.95	1.12
861.688	1.12
862.426	3.12
863.165	2.12
863.903	2.12
864.641	2.12
865.379	1.12
866.117	2.12
866.855	3.12
867.593	2.12
868.33	1.12
869.068	1.12
869.806	2.12
870.543	1.12
871.28	3.12
872.018	2.12
872.755	1.12
873.492	0.12
874.229	-0.88
874.967	2.12
875.703	2.12
876.44	1.12
877.177	-0.88
877.914	0.12
878.651	1.12
879.387	-1.88
880.124	3.12
880.86	1.12
881.597	0.12
882.333	-0.88
883.069	1.12
883.806	0.12
884.542	1.12
885.278	2.12
886.014	1.12
886.749	-0.88
887.485	2.12
888.221	0.12
888.957	1.12
889.692	-0.88
890.428	1.12
891.163	1.12
891.899	0.12
892.634	0.12
893.369	0.12
894.104	1.12
894.839	2.12
895.574	0.12
896.309	-1.88
897.044	0.12
897.779	1.12
898.514	0.12
899.248	1.12
899.983	0.12
900.717	1.12
901.452	2.12
902.186	1.12
902.92	0.12
903.654	0.12
904.389	0.12
905.123	1.12
905.857	2.12
906.59	0.12
907.324	-2.88
908.058	1.12
908.792	1.12
909.525	1.12
910.259	2.12
910.992	1.12
911.726	-1.88
912.459	1.12
913.192	-1.88
913.925	-0.88
914.658	1.12
915.391	-0.88
916.124	0.12
916.857	0.12
917.59	-0.88
918.323	2.12
919.055	1.12
919.788	-1.88
920.521	0.12
921.253	2.12
921.985	0.12
922.718	0.12
923.45	0.12
924.182	0.12
924.914	0.12
925.646	0.12
926.378	1.12
927.11	0.12
927.841	-0.88
928.573	0.12
929.305	1.12
930.036	0.12
930.768	0.12
931.499	1.12
932.23	2.12
932.962	2.12
933.693	2.12
934.424	-1.88
935.155	2.12
935.886	-1.88
936.617	-1.88
937.348	0.12
938.078	1.12
938.809	0.12
939.54	-2.88
940.27	1.12
941.001	1.12
941.731	1.12
942.461	0.12
943.191	0.12
943.922	0.12
944.652	0.12
945.382	1.12
946.112	0.12
946.841	-0.88
947.571	0.12
948.301	-0.88
949.031	-0.88
949.76	-1.88
950.49	0.12
951.219	0.12
951.948	-1.88
952.678	1.12
953.407	0.12
954.136	0.12
954.865	1.12
955.594	1.12
956.323	-1.88
957.052	1.12
957.78	1.12
958.509	0.12
959.238	0.12
959.966	-0.88
960.695	0.12
961.423	1.12
962.151	-0.88
962.88	0.12
963.608	0.12
964.336	0.12
965.064	-0.88
965.792	0.12
966.52	2.12
967.247	0.12
967.975	2.12
968.703	-1.88
969.43	1.12
970.158	-2.88
970.885	-0.88
971.613	1.12
972.34	0.12
973.067	0.12
973.794	-0.88
974.521	0.12
975.248	1.12
975.975	0.12
976.702	0.12
977.429	-1.88
978.156	3.12
978.882	-0.88
979.609	1.12
980.335	0.12
981.062	1.12
981.788	-0.88
982.514	1.12
983.24	-1.88
983.967	0.12
984.693	2.12
985.419	-1.88
986.144	1.12
986.87	1.12
987.596	-1.88
988.322	0.12
989.047	1.12
989.773	0.12
990.498	0.12
991.224	1.12
991.949	1.12
992.674	1.12
993.399	0.12
994.124	-0.88
994.849	1.12
995.574	0.12
996.299	2.12
997.024	-1.88
997.749	0.12
998.473	-0.88
999.198	0.12
999.922	-1.88
1000.647	0.12
1001.371	4.12
1002.095	-0.88
1002.82	-1.88
1003.544	0.12
1004.268	-0.88
1004.992	-2.88
1005.716	-0.88
1006.439	1.12
1007.163	1.12
1007.887	0.12
1008.611	1.12
1009.334	4.12
1010.058	0.12
1010.781	-0.88
1011.504	1.12
1012.228	0.12
1012.951	-0.88
1013.674	0.12
1014.397	0.12
1015.12	-0.88
