节点500_145_QEPB04081__692__11-39-55-766.txt的数据

Date: Wed Nov 12 11:39:55 CST 2025
User: PC
Spectrometer: QEPB0408
触发模式: 0
积分时间 (秒): 1.000000E-2
Scans to average: 1
启用暗噪声校正: true
启用非线性校正: false
滑动平均宽度: 0
X轴模式: Wavelengths
Number of Pixels in Spectrum: 1044
>>>>>Begin Spectral Data<<<<<
220.843	-1.75
221.644	-0.75
222.444	-0.75
223.244	-0.75
224.045	0.25
224.845	0.25
225.645	-0.75
226.445	0.25
227.245	-0.75
228.045	-1.75
228.845	0.25
229.645	-0.75
230.444	-0.75
231.244	0.25
232.043	1.25
232.843	2.25
233.642	-0.75
234.442	-0.75
235.241	3.25
236.04	-2.75
236.839	2.25
237.638	2.25
238.437	1.25
239.236	0.25
240.035	0.25
240.833	-1.75
241.632	3.25
242.43	2.25
243.229	1.25
244.027	1.25
244.826	1.25
245.624	0.25
246.422	0.25
247.22	1.25
248.018	1.25
248.816	2.25
249.614	-1.75
250.412	2.25
251.21	2.25
252.007	1.25
252.805	1.25
253.602	1.25
254.4	2.25
255.197	4.25
255.994	2.25
256.791	2.25
257.589	3.25
258.386	3.25
259.183	3.25
259.979	3.25
260.776	2.25
261.573	3.25
262.37	2.25
263.166	5.25
263.963	3.25
264.759	2.25
265.556	2.25
266.352	3.25
267.148	2.25
267.944	4.25
268.74	7.25
269.536	5.25
270.332	6.25
271.128	3.25
271.924	7.25
272.719	4.25
273.515	6.25
274.311	8.25
275.106	8.25
275.901	5.25
276.697	8.25
277.492	5.25
278.287	9.25
279.082	7.25
279.877	7.25
280.672	11.25
281.467	8.25
282.262	9.25
283.056	9.25
283.851	8.25
284.646	8.25
285.44	8.25
286.234	9.25
287.029	10.25
287.823	10.25
288.617	9.25
289.411	9.25
290.205	9.25
290.999	9.25
291.793	10.25
292.587	9.25
293.381	11.25
294.174	8.25
294.968	8.25
295.761	9.25
296.555	10.25
297.348	10.25
298.141	9.25
298.935	8.25
299.728	9.25
300.521	8.25
301.314	8.25
302.107	7.25
302.899	8.25
303.692	8.25
304.485	7.25
305.277	8.25
306.07	7.25
306.862	7.25
307.655	6.25
308.447	7.25
309.239	7.25
310.031	7.25
310.823	6.25
311.615	5.25
312.407	5.25
313.199	6.25
313.991	4.25
314.783	6.25
315.574	6.25
316.366	4.25
317.157	5.25
317.949	4.25
318.74	5.25
319.531	4.25
320.322	5.25
321.113	5.25
321.904	2.25
322.695	5.25
323.486	4.25
324.277	5.25
325.068	5.25
325.858	2.25
326.649	4.25
327.439	4.25
328.23	4.25
329.02	2.25
329.81	4.25
330.6	2.25
331.391	3.25
332.181	2.25
332.971	2.25
333.76	2.25
334.55	4.25
335.34	2.25
336.13	3.25
336.919	1.25
337.709	1.25
338.498	4.25
339.287	3.25
340.077	2.25
340.866	3.25
341.655	1.25
342.444	3.25
343.233	4.25
344.022	2.25
344.811	2.25
345.6	2.25
346.388	3.25
347.177	2.25
347.965	2.25
348.754	4.25
349.542	4.25
350.33	4.25
351.119	3.25
351.907	5.25
352.695	2.25
353.483	2.25
354.271	3.25
355.059	3.25
355.846	1.25
356.634	2.25
357.422	3.25
358.209	3.25
358.997	2.25
359.784	2.25
360.571	2.25
361.359	1.25
362.146	2.25
362.933	2.25
363.72	0.25
364.507	1.25
365.294	2.25
366.081	1.25
366.867	2.25
367.654	0.25
368.44	3.25
369.227	3.25
370.013	3.25
370.8	2.25
371.586	2.25
372.372	3.25
373.158	3.25
373.944	2.25
374.73	6.25
375.516	4.25
376.302	-0.75
377.088	2.25
377.873	3.25
378.659	5.25
379.445	2.25
380.23	3.25
381.015	2.25
381.801	1.25
382.586	1.25
383.371	2.25
384.156	1.25
384.941	2.25
385.726	5.25
386.511	1.25
387.296	1.25
388.08	2.25
388.865	1.25
389.649	5.25
390.434	1.25
391.218	2.25
392.003	3.25
392.787	4.25
393.571	2.25
394.355	3.25
395.139	1.25
395.923	4.25
396.707	2.25
397.491	1.25
398.274	2.25
399.058	2.25
399.842	2.25
400.625	2.25
401.408	3.25
402.192	4.25
402.975	2.25
403.758	3.25
404.541	2.25
405.324	5.25
406.107	3.25
406.89	3.25
407.673	5.25
408.456	4.25
409.238	7.25
410.021	2.25
410.803	4.25
411.586	3.25
412.368	5.25
413.151	1.25
413.933	2.25
414.715	4.25
415.497	4.25
416.279	5.25
417.061	4.25
417.843	5.25
418.624	6.25
419.406	4.25
420.188	6.25
420.969	4.25
421.751	4.25
422.532	5.25
423.313	5.25
424.095	4.25
424.876	4.25
425.657	5.25
426.438	7.25
427.219	7.25
428	9.25
428.78	7.25
429.561	5.25
430.342	5.25
431.122	6.25
431.903	7.25
432.683	4.25
433.464	5.25
434.244	7.25
435.024	8.25
435.804	6.25
436.584	11.25
437.364	11.25
438.144	9.25
438.924	11.25
439.704	11.25
440.483	10.25
441.263	13.25
442.042	13.25
442.822	13.25
443.601	14.25
444.38	16.25
445.16	16.25
445.939	18.25
446.718	19.25
447.497	18.25
448.276	20.25
449.054	26.25
449.833	22.25
450.612	25.25
451.391	29.25
452.169	32.25
452.948	33.25
453.726	40.25
454.504	39.25
455.282	43.25
456.061	50.25
456.839	60.25
457.617	65.25
458.395	68.25
459.172	77.25
459.95	79.25
460.728	96.25
461.506	105.25
462.283	117.25
463.061	126.25
463.838	142.25
464.615	155.25
465.393	174.25
466.17	201.25
466.947	213.25
467.724	237.25
468.501	263.25
469.278	286.25
470.055	323.25
470.831	367.25
471.608	403.25
472.385	447.25
473.161	494.25
473.938	539.25
474.714	602.25
475.49	659.25
476.266	719.25
477.043	791.25
477.819	868.25
478.595	964.25
479.371	1047.25
480.146	1159.25
480.922	1270.25
481.698	1391.25
482.473	1522.25
483.249	1671.25
484.024	1821.25
484.8	1998.25
485.575	2185.25
486.35	2378.25
487.126	2591.25
487.901	2863.25
488.676	3087.25
489.451	3379.25
490.225	3674.25
491	4027.25
491.775	4388.25
492.55	4748.25
493.324	5175.25
494.099	5626.25
494.873	6117.25
495.647	6656.25
496.422	7175.25
497.196	7734.25
497.97	8348.25
498.744	8913.25
499.518	9549.25
500.292	10178.25
501.066	10846.25
501.839	11423.25
502.613	12015.25
503.387	12570.25
504.16	13162.25
504.934	13681.25
505.707	14111.25
506.48	14427.25
507.253	14701.25
508.027	14869.25
508.8	15035.25
509.573	14989.25
510.346	14943.25
511.118	14741.25
511.891	14558.25
512.664	14253.25
513.437	13914.25
514.209	13542.25
514.982	13064.25
515.754	12579.25
516.526	12167.25
517.298	11658.25
518.071	11151.25
518.843	10701.25
519.615	10324.25
520.387	9866.25
521.159	9489.25
521.93	9091.25
522.702	8691.25
523.474	8420.25
524.245	8066.25
525.017	7737.25
525.788	7417.25
526.56	7127.25
527.331	6811.25
528.102	6578.25
528.873	6291.25
529.644	6039.25
530.415	5785.25
531.186	5518.25
531.957	5272.25
532.728	5006.25
533.498	4788.25
534.269	4528.25
535.039	4286.25
535.81	4073.25
536.58	3842.25
537.351	3642.25
538.121	3445.25
538.891	3267.25
539.661	3080.25
540.431	2903.25
541.201	2754.25
541.971	2633.25
542.741	2470.25
543.51	2334.25
544.28	2241.25
545.05	2109.25
545.819	2017.25
546.588	1912.25
547.358	1817.25
548.127	1725.25
548.896	1629.25
549.665	1552.25
550.434	1496.25
551.203	1404.25
551.972	1341.25
552.741	1265.25
553.51	1190.25
554.278	1144.25
555.047	1078.25
555.815	1016.25
556.584	965.25
557.352	905.25
558.121	862.25
558.889	814.25
559.657	759.25
560.425	724.25
561.193	677.25
561.961	653.25
562.729	605.25
563.496	574.25
564.264	543.25
565.032	515.25
565.799	482.25
566.567	445.25
567.334	434.25
568.101	408.25
568.869	377.25
569.636	363.25
570.403	344.25
571.17	329.25
571.937	300.25
572.704	287.25
573.471	272.25
574.237	256.25
575.004	236.25
575.771	224.25
576.537	214.25
577.303	205.25
578.07	182.25
578.836	181.25
579.602	171.25
580.368	151.25
581.134	151.25
581.9	145.25
582.666	136.25
583.432	128.25
584.198	127.25
584.964	109.25
585.729	109.25
586.495	97.25
587.26	94.25
588.025	89.25
588.791	85.25
589.556	81.25
590.321	77.25
591.086	73.25
591.851	65.25
592.616	69.25
593.381	59.25
594.146	57.25
594.911	57.25
595.675	54.25
596.44	52.25
597.204	50.25
597.969	46.25
598.733	49.25
599.497	40.25
600.261	38.25
601.025	37.25
601.79	38.25
602.553	33.25
603.317	34.25
604.081	30.25
604.845	31.25
605.609	31.25
606.372	26.25
607.136	26.25
607.899	22.25
608.662	20.25
609.426	19.25
610.189	23.25
610.952	22.25
611.715	19.25
612.478	19.25
613.241	18.25
614.004	19.25
614.767	15.25
615.529	16.25
616.292	17.25
617.055	15.25
617.817	14.25
618.579	14.25
619.342	11.25
620.104	12.25
620.866	10.25
621.628	11.25
622.39	12.25
623.152	11.25
623.914	11.25
624.676	11.25
625.438	10.25
626.199	10.25
626.961	7.25
627.722	9.25
628.484	9.25
629.245	8.25
630.006	8.25
630.768	8.25
631.529	9.25
632.29	7.25
633.051	7.25
633.812	7.25
634.573	5.25
635.333	4.25
636.094	8.25
636.855	6.25
637.615	6.25
638.376	6.25
639.136	5.25
639.896	4.25
640.657	5.25
641.417	2.25
642.177	5.25
642.937	5.25
643.697	6.25
644.457	4.25
645.216	6.25
645.976	6.25
646.736	2.25
647.495	3.25
648.255	4.25
649.014	5.25
649.774	4.25
650.533	5.25
651.292	4.25
652.051	4.25
652.81	3.25
653.569	2.25
654.328	2.25
655.087	5.25
655.846	5.25
656.604	1.25
657.363	4.25
658.121	4.25
658.88	3.25
659.638	4.25
660.397	4.25
661.155	3.25
661.913	3.25
662.671	3.25
663.429	2.25
664.187	3.25
664.945	1.25
665.703	3.25
666.46	4.25
667.218	2.25
667.976	4.25
668.733	1.25
669.49	2.25
670.248	1.25
671.005	2.25
671.762	2.25
672.519	3.25
673.276	2.25
674.033	1.25
674.79	3.25
675.547	1.25
676.304	3.25
677.06	1.25
677.817	2.25
678.574	2.25
679.33	1.25
680.086	1.25
680.843	1.25
681.599	4.25
682.355	2.25
683.111	3.25
683.867	3.25
684.623	1.25
685.379	2.25
686.135	0.25
686.89	2.25
687.646	1.25
688.402	2.25
689.157	2.25
689.912	1.25
690.668	5.25
691.423	1.25
692.178	3.25
692.933	1.25
693.688	1.25
694.443	3.25
695.198	1.25
695.953	2.25
696.708	2.25
697.462	1.25
698.217	1.25
698.972	0.25
699.726	2.25
700.48	-0.75
701.235	3.25
701.989	1.25
702.743	0.25
703.497	3.25
704.251	3.25
705.005	3.25
705.759	2.25
706.513	3.25
707.266	2.25
708.02	1.25
708.774	2.25
709.527	0.25
710.28	3.25
711.034	1.25
711.787	5.25
712.54	2.25
713.293	0.25
714.046	0.25
714.799	2.25
715.552	1.25
716.305	1.25
717.058	1.25
717.81	3.25
718.563	0.25
719.315	2.25
720.068	0.25
720.82	2.25
721.573	0.25
722.325	1.25
723.077	2.25
723.829	1.25
724.581	2.25
725.333	0.25
726.085	3.25
726.836	2.25
727.588	2.25
728.34	1.25
729.091	3.25
729.843	2.25
730.594	1.25
731.346	2.25
732.097	1.25
732.848	3.25
733.599	1.25
734.35	3.25
735.101	1.25
735.852	1.25
736.603	1.25
737.354	3.25
738.104	2.25
738.855	3.25
739.605	0.25
740.356	4.25
741.106	0.25
741.856	3.25
742.607	0.25
743.357	1.25
744.107	2.25
744.857	1.25
745.607	2.25
746.357	0.25
747.106	0.25
747.856	3.25
748.606	1.25
749.355	4.25
750.105	1.25
750.854	2.25
751.603	1.25
752.353	4.25
753.102	2.25
753.851	2.25
754.6	1.25
755.349	1.25
756.098	3.25
756.847	1.25
757.595	1.25
758.344	2.25
759.093	1.25
759.841	3.25
760.589	0.25
761.338	2.25
762.086	1.25
762.834	3.25
763.582	3.25
764.331	4.25
765.079	4.25
765.826	1.25
766.574	2.25
767.322	2.25
768.07	3.25
768.817	4.25
769.565	2.25
770.312	3.25
771.06	5.25
771.807	4.25
772.554	3.25
773.302	5.25
774.049	2.25
774.796	2.25
775.543	6.25
776.29	4.25
777.036	4.25
777.783	3.25
778.53	2.25
779.276	5.25
780.023	3.25
780.769	5.25
781.516	2.25
782.262	5.25
783.008	2.25
783.754	3.25
784.5	0.25
785.246	3.25
785.992	5.25
786.738	2.25
787.484	5.25
788.23	2.25
788.975	4.25
789.721	5.25
790.466	2.25
791.212	0.25
791.957	4.25
792.702	5.25
793.447	4.25
794.193	4.25
794.938	3.25
795.683	4.25
796.427	5.25
797.172	2.25
797.917	5.25
798.662	3.25
799.406	3.25
800.151	4.25
800.895	4.25
801.64	2.25
802.384	6.25
803.128	3.25
803.872	4.25
804.616	4.25
805.36	3.25
806.104	4.25
806.848	1.25
807.592	2.25
808.336	4.25
809.079	5.25
809.823	3.25
810.566	6.25
811.31	1.25
812.053	3.25
812.796	3.25
813.539	2.25
814.283	3.25
815.026	5.25
815.769	3.25
816.511	0.25
817.254	2.25
817.997	2.25
818.74	1.25
819.482	3.25
820.225	5.25
820.967	1.25
821.71	5.25
822.452	3.25
823.194	2.25
823.936	2.25
824.678	2.25
825.42	2.25
826.162	4.25
826.904	2.25
827.646	4.25
828.388	2.25
829.129	2.25
829.871	3.25
830.612	3.25
831.354	2.25
832.095	3.25
832.836	3.25
833.577	2.25
834.319	2.25
835.06	3.25
835.801	0.25
836.542	3.25
837.282	3.25
838.023	3.25
838.764	-0.75
839.504	3.25
840.245	1.25
840.985	1.25
841.726	2.25
842.466	1.25
843.206	4.25
843.946	2.25
844.687	-0.75
845.427	1.25
846.166	1.25
846.906	2.25
847.646	1.25
848.386	2.25
849.125	-0.75
849.865	3.25
850.605	2.25
851.344	2.25
852.083	3.25
852.823	2.25
853.562	1.25
854.301	2.25
855.04	2.25
855.779	1.25
856.518	1.25
857.257	1.25
857.995	1.25
858.734	2.25
859.473	0.25
860.211	4.25
860.95	1.25
861.688	0.25
862.426	1.25
863.165	0.25
863.903	2.25
864.641	1.25
865.379	0.25
866.117	0.25
866.855	2.25
867.593	-0.75
868.33	1.25
869.068	3.25
869.806	0.25
870.543	1.25
871.28	1.25
872.018	1.25
872.755	3.25
873.492	0.25
874.229	2.25
874.967	1.25
875.703	1.25
876.44	0.25
877.177	2.25
877.914	1.25
878.651	1.25
879.387	2.25
880.124	0.25
880.86	2.25
881.597	-0.75
882.333	-0.75
883.069	1.25
883.806	0.25
884.542	1.25
885.278	0.25
886.014	1.25
886.749	1.25
887.485	2.25
888.221	0.25
888.957	-2.75
889.692	1.25
890.428	1.25
891.163	0.25
891.899	0.25
892.634	-1.75
893.369	0.25
894.104	0.25
894.839	1.25
895.574	-2.75
896.309	1.25
897.044	1.25
897.779	0.25
898.514	0.25
899.248	-1.75
899.983	1.25
900.717	-1.75
901.452	1.25
902.186	0.25
902.92	2.25
903.654	-1.75
904.389	0.25
905.123	0.25
905.857	1.25
906.59	1.25
907.324	1.25
908.058	-0.75
908.792	0.25
909.525	0.25
910.259	1.25
910.992	-1.75
911.726	-0.75
912.459	1.25
913.192	0.25
913.925	2.25
914.658	-0.75
915.391	-0.75
916.124	1.25
916.857	1.25
917.59	0.25
918.323	-1.75
919.055	-2.75
919.788	-1.75
920.521	1.25
921.253	1.25
921.985	1.25
922.718	1.25
923.45	1.25
924.182	1.25
924.914	1.25
925.646	1.25
926.378	-0.75
927.11	1.25
927.841	-0.75
928.573	-1.75
929.305	-0.75
930.036	1.25
930.768	2.25
931.499	1.25
932.23	1.25
932.962	0.25
933.693	-0.75
934.424	0.25
935.155	0.25
935.886	1.25
936.617	0.25
937.348	1.25
938.078	1.25
938.809	0.25
939.54	1.25
940.27	1.25
941.001	1.25
941.731	-0.75
942.461	2.25
943.191	-2.75
943.922	-0.75
944.652	0.25
945.382	-1.75
946.112	0.25
946.841	0.25
947.571	0.25
948.301	-0.75
949.031	0.25
949.76	0.25
950.49	0.25
951.219	-0.75
951.948	-1.75
952.678	0.25
953.407	1.25
954.136	-0.75
954.865	-1.75
955.594	0.25
956.323	-1.75
957.052	0.25
957.78	-1.75
958.509	-0.75
959.238	-0.75
959.966	0.25
960.695	-0.75
961.423	1.25
962.151	1.25
962.88	-0.75
963.608	-1.75
964.336	-2.75
965.064	1.25
965.792	-1.75
966.52	0.25
967.247	0.25
967.975	0.25
968.703	1.25
969.43	1.25
970.158	0.25
970.885	-0.75
971.613	-1.75
972.34	-1.75
973.067	1.25
973.794	-1.75
974.521	-1.75
975.248	-0.75
975.975	1.25
976.702	2.25
977.429	0.25
978.156	1.25
978.882	1.25
979.609	-1.75
980.335	-0.75
981.062	-1.75
981.788	1.25
982.514	-0.75
983.24	1.25
983.967	-0.75
984.693	-1.75
985.419	1.25
986.144	0.25
986.87	1.25
987.596	0.25
988.322	0.25
989.047	-0.75
989.773	-1.75
990.498	0.25
991.224	0.25
991.949	0.25
992.674	0.25
993.399	0.25
994.124	-0.75
994.849	-2.75
995.574	4.25
996.299	1.25
997.024	-1.75
997.749	-0.75
998.473	1.25
999.198	0.25
999.922	-0.75
1000.647	0.25
1001.371	5.25
1002.095	-1.75
1002.82	-2.75
1003.544	-1.75
1004.268	-1.75
1004.992	-0.75
1005.716	-2.75
1006.439	-1.75
1007.163	-0.75
1007.887	-0.75
1008.611	-0.75
1009.334	0.25
1010.058	-0.75
1010.781	0.25
1011.504	-0.75
1012.228	2.25
1012.951	2.25
1013.674	0.25
1014.397	-1.75
1015.12	0.25
