节点500_145_QEPB04081__678__11-39-42-902.txt的数据

Date: Wed Nov 12 11:39:42 CST 2025
User: PC
Spectrometer: QEPB0408
触发模式: 0
积分时间 (秒): 1.000000E-2
Scans to average: 1
启用暗噪声校正: true
启用非线性校正: false
滑动平均宽度: 0
X轴模式: Wavelengths
Number of Pixels in Spectrum: 1044
>>>>>Begin Spectral Data<<<<<
220.843	-0.5
221.644	-0.5
222.444	0.5
223.244	-0.5
224.045	0.5
224.845	0.5
225.645	-1.5
226.445	-2.5
227.245	0.5
228.045	1.5
228.845	1.5
229.645	0.5
230.444	-1.5
231.244	-1.5
232.043	-1.5
232.843	1.5
233.642	0.5
234.442	0.5
235.241	-1.5
236.04	0.5
236.839	2.5
237.638	2.5
238.437	2.5
239.236	0.5
240.035	1.5
240.833	0.5
241.632	3.5
242.43	3.5
243.229	0.5
244.027	2.5
244.826	3.5
245.624	2.5
246.422	1.5
247.22	1.5
248.018	2.5
248.816	2.5
249.614	2.5
250.412	3.5
251.21	-0.5
252.007	-0.5
252.805	2.5
253.602	2.5
254.4	1.5
255.197	3.5
255.994	1.5
256.791	3.5
257.589	3.5
258.386	3.5
259.183	4.5
259.979	4.5
260.776	6.5
261.573	3.5
262.37	4.5
263.166	4.5
263.963	5.5
264.759	6.5
265.556	5.5
266.352	3.5
267.148	4.5
267.944	3.5
268.74	6.5
269.536	6.5
270.332	7.5
271.128	4.5
271.924	8.5
272.719	6.5
273.515	7.5
274.311	8.5
275.106	5.5
275.901	7.5
276.697	5.5
277.492	6.5
278.287	9.5
279.082	7.5
279.877	9.5
280.672	9.5
281.467	9.5
282.262	8.5
283.056	10.5
283.851	8.5
284.646	9.5
285.44	11.5
286.234	8.5
287.029	12.5
287.823	9.5
288.617	10.5
289.411	9.5
290.205	8.5
290.999	8.5
291.793	9.5
292.587	12.5
293.381	10.5
294.174	8.5
294.968	9.5
295.761	9.5
296.555	9.5
297.348	8.5
298.141	8.5
298.935	10.5
299.728	9.5
300.521	8.5
301.314	7.5
302.107	8.5
302.899	6.5
303.692	9.5
304.485	7.5
305.277	8.5
306.07	7.5
306.862	6.5
307.655	7.5
308.447	5.5
309.239	8.5
310.031	7.5
310.823	7.5
311.615	6.5
312.407	7.5
313.199	8.5
313.991	5.5
314.783	7.5
315.574	6.5
316.366	4.5
317.157	5.5
317.949	6.5
318.74	4.5
319.531	6.5
320.322	5.5
321.113	4.5
321.904	4.5
322.695	4.5
323.486	5.5
324.277	5.5
325.068	5.5
325.858	4.5
326.649	3.5
327.439	4.5
328.23	4.5
329.02	5.5
329.81	4.5
330.6	3.5
331.391	3.5
332.181	4.5
332.971	5.5
333.76	4.5
334.55	5.5
335.34	5.5
336.13	2.5
336.919	2.5
337.709	5.5
338.498	3.5
339.287	4.5
340.077	1.5
340.866	3.5
341.655	1.5
342.444	2.5
343.233	3.5
344.022	4.5
344.811	3.5
345.6	2.5
346.388	2.5
347.177	0.5
347.965	3.5
348.754	3.5
349.542	2.5
350.33	2.5
351.119	1.5
351.907	3.5
352.695	3.5
353.483	2.5
354.271	1.5
355.059	2.5
355.846	3.5
356.634	1.5
357.422	3.5
358.209	1.5
358.997	3.5
359.784	1.5
360.571	2.5
361.359	4.5
362.146	1.5
362.933	4.5
363.72	2.5
364.507	2.5
365.294	3.5
366.081	3.5
366.867	2.5
367.654	0.5
368.44	3.5
369.227	1.5
370.013	3.5
370.8	4.5
371.586	3.5
372.372	2.5
373.158	2.5
373.944	4.5
374.73	-0.5
375.516	2.5
376.302	3.5
377.088	3.5
377.873	3.5
378.659	2.5
379.445	2.5
380.23	2.5
381.015	3.5
381.801	1.5
382.586	1.5
383.371	1.5
384.156	2.5
384.941	3.5
385.726	2.5
386.511	2.5
387.296	1.5
388.08	1.5
388.865	2.5
389.649	3.5
390.434	3.5
391.218	2.5
392.003	6.5
392.787	5.5
393.571	3.5
394.355	3.5
395.139	3.5
395.923	6.5
396.707	2.5
397.491	3.5
398.274	2.5
399.058	2.5
399.842	2.5
400.625	3.5
401.408	4.5
402.192	4.5
402.975	4.5
403.758	3.5
404.541	3.5
405.324	5.5
406.107	4.5
406.89	3.5
407.673	2.5
408.456	4.5
409.238	4.5
410.021	2.5
410.803	3.5
411.586	4.5
412.368	5.5
413.151	5.5
413.933	3.5
414.715	4.5
415.497	4.5
416.279	5.5
417.061	5.5
417.843	3.5
418.624	4.5
419.406	5.5
420.188	3.5
420.969	4.5
421.751	6.5
422.532	5.5
423.313	4.5
424.095	4.5
424.876	8.5
425.657	4.5
426.438	5.5
427.219	5.5
428	3.5
428.78	6.5
429.561	7.5
430.342	7.5
431.122	5.5
431.903	6.5
432.683	8.5
433.464	6.5
434.244	11.5
435.024	7.5
435.804	7.5
436.584	8.5
437.364	8.5
438.144	10.5
438.924	9.5
439.704	12.5
440.483	10.5
441.263	9.5
442.042	11.5
442.822	13.5
443.601	16.5
444.38	14.5
445.16	17.5
445.939	17.5
446.718	19.5
447.497	18.5
448.276	21.5
449.054	23.5
449.833	25.5
450.612	25.5
451.391	26.5
452.169	35.5
452.948	34.5
453.726	35.5
454.504	41.5
455.282	47.5
456.061	52.5
456.839	56.5
457.617	62.5
458.395	70.5
459.172	73.5
459.95	85.5
460.728	93.5
461.506	109.5
462.283	114.5
463.061	128.5
463.838	140.5
464.615	159.5
465.393	177.5
466.17	198.5
466.947	219.5
467.724	238.5
468.501	266.5
469.278	292.5
470.055	325.5
470.831	358.5
471.608	398.5
472.385	451.5
473.161	485.5
473.938	543.5
474.714	602.5
475.49	638.5
476.266	721.5
477.043	793.5
477.819	871.5
478.595	961.5
479.371	1062.5
480.146	1160.5
480.922	1277.5
481.698	1395.5
482.473	1519.5
483.249	1680.5
484.024	1837.5
484.8	1985.5
485.575	2160.5
486.35	2379.5
487.126	2596.5
487.901	2851.5
488.676	3104.5
489.451	3378.5
490.225	3682.5
491	4030.5
491.775	4374.5
492.55	4769.5
493.324	5208.5
494.099	5648.5
494.873	6146.5
495.647	6647.5
496.422	7198.5
497.196	7743.5
497.97	8289.5
498.744	8955.5
499.518	9580.5
500.292	10263.5
501.066	10876.5
501.839	11472.5
502.613	12087.5
503.387	12620.5
504.16	13206.5
504.934	13652.5
505.707	14060.5
506.48	14410.5
507.253	14700.5
508.027	14898.5
508.8	14984.5
509.573	15023.5
510.346	14933.5
511.118	14856.5
511.891	14605.5
512.664	14220.5
513.437	13905.5
514.209	13507.5
514.982	13072.5
515.754	12621.5
516.526	12094.5
517.298	11656.5
518.071	11193.5
518.843	10715.5
519.615	10271.5
520.387	9882.5
521.159	9462.5
521.93	9089.5
522.702	8738.5
523.474	8394.5
524.245	8113.5
525.017	7703.5
525.788	7428.5
526.56	7134.5
527.331	6859.5
528.102	6598.5
528.873	6296.5
529.644	6041.5
530.415	5757.5
531.186	5542.5
531.957	5281.5
532.728	5016.5
533.498	4764.5
534.269	4507.5
535.039	4287.5
535.81	4055.5
536.58	3864.5
537.351	3656.5
538.121	3439.5
538.891	3274.5
539.661	3082.5
540.431	2903.5
541.201	2759.5
541.971	2614.5
542.741	2469.5
543.51	2337.5
544.28	2233.5
545.05	2114.5
545.819	2008.5
546.588	1902.5
547.358	1828.5
548.127	1732.5
548.896	1651.5
549.665	1570.5
550.434	1477.5
551.203	1407.5
551.972	1345.5
552.741	1265.5
553.51	1198.5
554.278	1144.5
555.047	1078.5
555.815	1013.5
556.584	951.5
557.352	915.5
558.121	874.5
558.889	816.5
559.657	765.5
560.425	714.5
561.193	673.5
561.961	649.5
562.729	607.5
563.496	563.5
564.264	547.5
565.032	510.5
565.799	477.5
566.567	451.5
567.334	425.5
568.101	401.5
568.869	383.5
569.636	361.5
570.403	335.5
571.17	320.5
571.937	305.5
572.704	282.5
573.471	271.5
574.237	257.5
575.004	243.5
575.771	226.5
576.537	213.5
577.303	205.5
578.07	186.5
578.836	176.5
579.602	172.5
580.368	156.5
581.134	150.5
581.9	142.5
582.666	135.5
583.432	131.5
584.198	121.5
584.964	117.5
585.729	110.5
586.495	103.5
587.26	96.5
588.025	93.5
588.791	88.5
589.556	75.5
590.321	77.5
591.086	73.5
591.851	69.5
592.616	65.5
593.381	66.5
594.146	56.5
594.911	57.5
595.675	54.5
596.44	53.5
597.204	53.5
597.969	48.5
598.733	46.5
599.497	41.5
600.261	39.5
601.025	35.5
601.79	35.5
602.553	30.5
603.317	35.5
604.081	30.5
604.845	35.5
605.609	29.5
606.372	27.5
607.136	24.5
607.899	22.5
608.662	27.5
609.426	23.5
610.189	23.5
610.952	20.5
611.715	22.5
612.478	20.5
613.241	19.5
614.004	16.5
614.767	16.5
615.529	18.5
616.292	17.5
617.055	15.5
617.817	12.5
618.579	12.5
619.342	14.5
620.104	14.5
620.866	11.5
621.628	13.5
622.39	12.5
623.152	12.5
623.914	15.5
624.676	12.5
625.438	11.5
626.199	9.5
626.961	7.5
627.722	10.5
628.484	10.5
629.245	8.5
630.006	9.5
630.768	5.5
631.529	11.5
632.29	8.5
633.051	7.5
633.812	4.5
634.573	9.5
635.333	5.5
636.094	5.5
636.855	7.5
637.615	9.5
638.376	5.5
639.136	4.5
639.896	5.5
640.657	6.5
641.417	3.5
642.177	8.5
642.937	5.5
643.697	4.5
644.457	4.5
645.216	4.5
645.976	4.5
646.736	4.5
647.495	6.5
648.255	2.5
649.014	3.5
649.774	6.5
650.533	3.5
651.292	2.5
652.051	2.5
652.81	5.5
653.569	3.5
654.328	3.5
655.087	1.5
655.846	3.5
656.604	2.5
657.363	0.5
658.121	2.5
658.88	3.5
659.638	1.5
660.397	3.5
661.155	0.5
661.913	2.5
662.671	4.5
663.429	5.5
664.187	4.5
664.945	3.5
665.703	2.5
666.46	1.5
667.218	2.5
667.976	2.5
668.733	2.5
669.49	2.5
670.248	2.5
671.005	2.5
671.762	2.5
672.519	3.5
673.276	0.5
674.033	3.5
674.79	0.5
675.547	1.5
676.304	2.5
677.06	1.5
677.817	1.5
678.574	3.5
679.33	4.5
680.086	3.5
680.843	3.5
681.599	1.5
682.355	1.5
683.111	2.5
683.867	1.5
684.623	3.5
685.379	3.5
686.135	2.5
686.89	1.5
687.646	-0.5
688.402	1.5
689.157	1.5
689.912	1.5
690.668	0.5
691.423	0.5
692.178	2.5
692.933	1.5
693.688	2.5
694.443	3.5
695.198	3.5
695.953	1.5
696.708	2.5
697.462	1.5
698.217	3.5
698.972	3.5
699.726	1.5
700.48	1.5
701.235	3.5
701.989	2.5
702.743	1.5
703.497	2.5
704.251	1.5
705.005	1.5
705.759	2.5
706.513	1.5
707.266	0.5
708.02	1.5
708.774	1.5
709.527	2.5
710.28	3.5
711.034	2.5
711.787	1.5
712.54	4.5
713.293	1.5
714.046	2.5
714.799	2.5
715.552	1.5
716.305	2.5
717.058	1.5
717.81	2.5
718.563	1.5
719.315	1.5
720.068	3.5
720.82	2.5
721.573	1.5
722.325	0.5
723.077	1.5
723.829	3.5
724.581	1.5
725.333	2.5
726.085	0.5
726.836	3.5
727.588	2.5
728.34	1.5
729.091	3.5
729.843	1.5
730.594	4.5
731.346	1.5
732.097	3.5
732.848	3.5
733.599	1.5
734.35	3.5
735.101	1.5
735.852	0.5
736.603	1.5
737.354	2.5
738.104	1.5
738.855	2.5
739.605	3.5
740.356	2.5
741.106	2.5
741.856	1.5
742.607	1.5
743.357	2.5
744.107	1.5
744.857	0.5
745.607	1.5
746.357	4.5
747.106	0.5
747.856	3.5
748.606	2.5
749.355	2.5
750.105	2.5
750.854	1.5
751.603	4.5
752.353	0.5
753.102	3.5
753.851	1.5
754.6	0.5
755.349	3.5
756.098	3.5
756.847	2.5
757.595	4.5
758.344	3.5
759.093	3.5
759.841	4.5
760.589	5.5
761.338	1.5
762.086	5.5
762.834	2.5
763.582	3.5
764.331	2.5
765.079	3.5
765.826	2.5
766.574	1.5
767.322	2.5
768.07	3.5
768.817	4.5
769.565	2.5
770.312	3.5
771.06	3.5
771.807	2.5
772.554	4.5
773.302	2.5
774.049	2.5
774.796	2.5
775.543	6.5
776.29	2.5
777.036	5.5
777.783	5.5
778.53	2.5
779.276	3.5
780.023	5.5
780.769	5.5
781.516	3.5
782.262	3.5
783.008	5.5
783.754	3.5
784.5	6.5
785.246	5.5
785.992	2.5
786.738	6.5
787.484	4.5
788.23	5.5
788.975	3.5
789.721	3.5
790.466	3.5
791.212	4.5
791.957	5.5
792.702	3.5
793.447	6.5
794.193	5.5
794.938	5.5
795.683	5.5
796.427	3.5
797.172	2.5
797.917	3.5
798.662	3.5
799.406	3.5
800.151	7.5
800.895	5.5
801.64	4.5
802.384	5.5
803.128	3.5
803.872	2.5
804.616	5.5
805.36	6.5
806.104	7.5
806.848	2.5
807.592	4.5
808.336	3.5
809.079	5.5
809.823	2.5
810.566	0.5
811.31	1.5
812.053	3.5
812.796	3.5
813.539	4.5
814.283	3.5
815.026	4.5
815.769	2.5
816.511	5.5
817.254	1.5
817.997	4.5
818.74	3.5
819.482	3.5
820.225	3.5
820.967	1.5
821.71	2.5
822.452	4.5
823.194	1.5
823.936	3.5
824.678	4.5
825.42	1.5
826.162	0.5
826.904	3.5
827.646	1.5
828.388	2.5
829.129	2.5
829.871	2.5
830.612	4.5
831.354	3.5
832.095	3.5
832.836	2.5
833.577	2.5
834.319	1.5
835.06	1.5
835.801	2.5
836.542	1.5
837.282	3.5
838.023	5.5
838.764	2.5
839.504	3.5
840.245	1.5
840.985	2.5
841.726	2.5
842.466	2.5
843.206	2.5
843.946	3.5
844.687	1.5
845.427	2.5
846.166	1.5
846.906	1.5
847.646	5.5
848.386	3.5
849.125	4.5
849.865	1.5
850.605	1.5
851.344	0.5
852.083	1.5
852.823	2.5
853.562	1.5
854.301	1.5
855.04	3.5
855.779	2.5
856.518	2.5
857.257	2.5
857.995	2.5
858.734	3.5
859.473	0.5
860.211	-0.5
860.95	0.5
861.688	0.5
862.426	2.5
863.165	2.5
863.903	-0.5
864.641	2.5
865.379	0.5
866.117	1.5
866.855	2.5
867.593	-0.5
868.33	2.5
869.068	-0.5
869.806	0.5
870.543	0.5
871.28	0.5
872.018	1.5
872.755	1.5
873.492	-0.5
874.229	1.5
874.967	-0.5
875.703	2.5
876.44	2.5
877.177	1.5
877.914	0.5
878.651	2.5
879.387	-1.5
880.124	1.5
880.86	0.5
881.597	-0.5
882.333	0.5
883.069	0.5
883.806	0.5
884.542	2.5
885.278	0.5
886.014	1.5
886.749	-1.5
887.485	1.5
888.221	-1.5
888.957	0.5
889.692	0.5
890.428	0.5
891.163	1.5
891.899	-0.5
892.634	1.5
893.369	1.5
894.104	3.5
894.839	0.5
895.574	1.5
896.309	0.5
897.044	-1.5
897.779	0.5
898.514	-0.5
899.248	2.5
899.983	2.5
900.717	0.5
901.452	-0.5
902.186	-0.5
902.92	2.5
903.654	-1.5
904.389	-0.5
905.123	0.5
905.857	0.5
906.59	2.5
907.324	0.5
908.058	3.5
908.792	-1.5
909.525	-1.5
910.259	0.5
910.992	1.5
911.726	0.5
912.459	1.5
913.192	-0.5
913.925	2.5
914.658	0.5
915.391	2.5
916.124	-1.5
916.857	0.5
917.59	-0.5
918.323	1.5
919.055	1.5
919.788	-0.5
920.521	-0.5
921.253	-0.5
921.985	0.5
922.718	-1.5
923.45	-0.5
924.182	1.5
924.914	1.5
925.646	-1.5
926.378	1.5
927.11	1.5
927.841	-0.5
928.573	2.5
929.305	1.5
930.036	-0.5
930.768	-0.5
931.499	-0.5
932.23	1.5
932.962	1.5
933.693	0.5
934.424	-0.5
935.155	0.5
935.886	1.5
936.617	-1.5
937.348	2.5
938.078	1.5
938.809	2.5
939.54	2.5
940.27	-0.5
941.001	0.5
941.731	-1.5
942.461	1.5
943.191	0.5
943.922	-1.5
944.652	0.5
945.382	-0.5
946.112	0.5
946.841	-2.5
947.571	1.5
948.301	0.5
949.031	1.5
949.76	-0.5
950.49	0.5
951.219	0.5
951.948	-0.5
952.678	-0.5
953.407	-0.5
954.136	0.5
954.865	-1.5
955.594	1.5
956.323	0.5
957.052	-0.5
957.78	0.5
958.509	1.5
959.238	-0.5
959.966	0.5
960.695	0.5
961.423	1.5
962.151	-0.5
962.88	-0.5
963.608	-0.5
964.336	1.5
965.064	2.5
965.792	0.5
966.52	0.5
967.247	-1.5
967.975	2.5
968.703	1.5
969.43	-1.5
970.158	1.5
970.885	0.5
971.613	0.5
972.34	-1.5
973.067	-0.5
973.794	0.5
974.521	1.5
975.248	1.5
975.975	-1.5
976.702	0.5
977.429	-2.5
978.156	0.5
978.882	-0.5
979.609	0.5
980.335	0.5
981.062	-1.5
981.788	2.5
982.514	-0.5
983.24	0.5
983.967	1.5
984.693	0.5
985.419	-1.5
986.144	0.5
986.87	1.5
987.596	-0.5
988.322	-1.5
989.047	0.5
989.773	3.5
990.498	0.5
991.224	-0.5
991.949	-1.5
992.674	-0.5
993.399	-0.5
994.124	0.5
994.849	-1.5
995.574	-0.5
996.299	-0.5
997.024	0.5
997.749	-0.5
998.473	-1.5
999.198	-1.5
999.922	0.5
1000.647	2.5
1001.371	4.5
1002.095	-0.5
1002.82	0.5
1003.544	-2.5
1004.268	0.5
1004.992	0.5
1005.716	-0.5
1006.439	-1.5
1007.163	-0.5
1007.887	0.5
1008.611	1.5
1009.334	1.5
1010.058	1.5
1010.781	0.5
1011.504	1.5
1012.228	1.5
1012.951	-0.5
1013.674	-0.5
1014.397	0.5
1015.12	-1.5
