节点500_145_QEPB04081__98__11-30-32-585.txt的数据

Date: Wed Nov 12 11:30:32 CST 2025
User: PC
Spectrometer: QEPB0408
触发模式: 0
积分时间 (秒): 1.000000E-2
Scans to average: 1
启用暗噪声校正: true
启用非线性校正: false
滑动平均宽度: 0
X轴模式: Wavelengths
Number of Pixels in Spectrum: 1044
>>>>>Begin Spectral Data<<<<<
220.843	0.38
221.644	-1.62
222.444	0.38
223.244	1.38
224.045	-0.62
224.845	3.38
225.645	-0.62
226.445	0.38
227.245	-1.62
228.045	0.38
228.845	-1.62
229.645	0.38
230.444	1.38
231.244	-1.62
232.043	1.38
232.843	0.38
233.642	0.38
234.442	2.38
235.241	2.38
236.04	2.38
236.839	2.38
237.638	2.38
238.437	2.38
239.236	1.38
240.035	1.38
240.833	1.38
241.632	3.38
242.43	1.38
243.229	0.38
244.027	4.38
244.826	1.38
245.624	1.38
246.422	1.38
247.22	3.38
248.018	1.38
248.816	3.38
249.614	1.38
250.412	4.38
251.21	5.38
252.007	1.38
252.805	5.38
253.602	2.38
254.4	4.38
255.197	3.38
255.994	1.38
256.791	2.38
257.589	5.38
258.386	4.38
259.183	3.38
259.979	7.38
260.776	6.38
261.573	2.38
262.37	5.38
263.166	4.38
263.963	6.38
264.759	5.38
265.556	7.38
266.352	5.38
267.148	7.38
267.944	8.38
268.74	6.38
269.536	9.38
270.332	6.38
271.128	10.38
271.924	8.38
272.719	6.38
273.515	9.38
274.311	7.38
275.106	7.38
275.901	7.38
276.697	10.38
277.492	9.38
278.287	10.38
279.082	10.38
279.877	7.38
280.672	13.38
281.467	10.38
282.262	13.38
283.056	10.38
283.851	13.38
284.646	10.38
285.44	12.38
286.234	13.38
287.029	10.38
287.823	14.38
288.617	9.38
289.411	8.38
290.205	12.38
290.999	11.38
291.793	11.38
292.587	11.38
293.381	12.38
294.174	11.38
294.968	9.38
295.761	11.38
296.555	10.38
297.348	10.38
298.141	9.38
298.935	9.38
299.728	8.38
300.521	10.38
301.314	10.38
302.107	9.38
302.899	8.38
303.692	7.38
304.485	10.38
305.277	9.38
306.07	8.38
306.862	9.38
307.655	8.38
308.447	7.38
309.239	7.38
310.031	9.38
310.823	6.38
311.615	7.38
312.407	6.38
313.199	5.38
313.991	5.38
314.783	6.38
315.574	7.38
316.366	6.38
317.157	5.38
317.949	3.38
318.74	5.38
319.531	4.38
320.322	2.38
321.113	4.38
321.904	6.38
322.695	3.38
323.486	4.38
324.277	5.38
325.068	6.38
325.858	1.38
326.649	4.38
327.439	5.38
328.23	4.38
329.02	4.38
329.81	3.38
330.6	3.38
331.391	5.38
332.181	3.38
332.971	5.38
333.76	2.38
334.55	4.38
335.34	2.38
336.13	4.38
336.919	3.38
337.709	3.38
338.498	3.38
339.287	4.38
340.077	5.38
340.866	2.38
341.655	1.38
342.444	1.38
343.233	3.38
344.022	4.38
344.811	0.38
345.6	6.38
346.388	6.38
347.177	3.38
347.965	4.38
348.754	0.38
349.542	3.38
350.33	5.38
351.119	2.38
351.907	3.38
352.695	2.38
353.483	4.38
354.271	4.38
355.059	4.38
355.846	1.38
356.634	4.38
357.422	2.38
358.209	1.38
358.997	3.38
359.784	2.38
360.571	5.38
361.359	0.38
362.146	3.38
362.933	3.38
363.72	1.38
364.507	3.38
365.294	1.38
366.081	2.38
366.867	1.38
367.654	2.38
368.44	2.38
369.227	3.38
370.013	2.38
370.8	2.38
371.586	3.38
372.372	2.38
373.158	2.38
373.944	2.38
374.73	2.38
375.516	2.38
376.302	1.38
377.088	3.38
377.873	2.38
378.659	3.38
379.445	2.38
380.23	1.38
381.015	3.38
381.801	2.38
382.586	4.38
383.371	2.38
384.156	4.38
384.941	2.38
385.726	2.38
386.511	3.38
387.296	3.38
388.08	2.38
388.865	2.38
389.649	0.38
390.434	5.38
391.218	3.38
392.003	5.38
392.787	3.38
393.571	4.38
394.355	4.38
395.139	3.38
395.923	5.38
396.707	2.38
397.491	2.38
398.274	1.38
399.058	3.38
399.842	3.38
400.625	4.38
401.408	3.38
402.192	1.38
402.975	3.38
403.758	3.38
404.541	4.38
405.324	4.38
406.107	1.38
406.89	3.38
407.673	2.38
408.456	3.38
409.238	3.38
410.021	5.38
410.803	5.38
411.586	1.38
412.368	5.38
413.151	4.38
413.933	4.38
414.715	4.38
415.497	4.38
416.279	7.38
417.061	5.38
417.843	7.38
418.624	6.38
419.406	5.38
420.188	6.38
420.969	6.38
421.751	7.38
422.532	7.38
423.313	6.38
424.095	5.38
424.876	8.38
425.657	7.38
426.438	7.38
427.219	7.38
428	7.38
428.78	6.38
429.561	6.38
430.342	7.38
431.122	8.38
431.903	7.38
432.683	7.38
433.464	8.38
434.244	11.38
435.024	10.38
435.804	9.38
436.584	12.38
437.364	7.38
438.144	11.38
438.924	10.38
439.704	15.38
440.483	14.38
441.263	13.38
442.042	13.38
442.822	11.38
443.601	18.38
444.38	13.38
445.16	15.38
445.939	15.38
446.718	20.38
447.497	20.38
448.276	17.38
449.054	22.38
449.833	22.38
450.612	24.38
451.391	26.38
452.169	26.38
452.948	26.38
453.726	31.38
454.504	32.38
455.282	38.38
456.061	41.38
456.839	45.38
457.617	51.38
458.395	53.38
459.172	61.38
459.95	70.38
460.728	74.38
461.506	82.38
462.283	95.38
463.061	104.38
463.838	118.38
464.615	134.38
465.393	148.38
466.17	156.38
466.947	177.38
467.724	202.38
468.501	231.38
469.278	254.38
470.055	276.38
470.831	316.38
471.608	354.38
472.385	389.38
473.161	434.38
473.938	478.38
474.714	536.38
475.49	609.38
476.266	672.38
477.043	747.38
477.819	825.38
478.595	917.38
479.371	1031.38
480.146	1136.38
480.922	1249.38
481.698	1403.38
482.473	1542.38
483.249	1733.38
484.024	1896.38
484.8	2100.38
485.575	2321.38
486.35	2584.38
487.126	2878.38
487.901	3170.38
488.676	3527.38
489.451	3890.38
490.225	4322.38
491	4750.38
491.775	5217.38
492.55	5763.38
493.324	6353.38
494.099	6938.38
494.873	7652.38
495.647	8349.38
496.422	9067.38
497.196	9848.38
497.97	10638.38
498.744	11429.38
499.518	12248.38
500.292	13057.38
501.066	13847.38
501.839	14602.38
502.613	15210.38
503.387	15830.38
504.16	16367.38
504.934	16751.38
505.707	17156.38
506.48	17298.38
507.253	17378.38
508.027	17360.38
508.8	17186.38
509.573	16978.38
510.346	16605.38
511.118	16062.38
511.891	15580.38
512.664	15033.38
513.437	14470.38
514.209	13876.38
514.982	13304.38
515.754	12668.38
516.526	12059.38
517.298	11475.38
518.071	10978.38
518.843	10518.38
519.615	10041.38
520.387	9654.38
521.159	9286.38
521.93	8911.38
522.702	8541.38
523.474	8183.38
524.245	7898.38
525.017	7613.38
525.788	7268.38
526.56	6949.38
527.331	6666.38
528.102	6366.38
528.873	6093.38
529.644	5785.38
530.415	5505.38
531.186	5219.38
531.957	4949.38
532.728	4690.38
533.498	4432.38
534.269	4177.38
535.039	3979.38
535.81	3712.38
536.58	3499.38
537.351	3331.38
538.121	3159.38
538.891	2955.38
539.661	2797.38
540.431	2646.38
541.201	2491.38
541.971	2385.38
542.741	2249.38
543.51	2137.38
544.28	2014.38
545.05	1915.38
545.819	1823.38
546.588	1731.38
547.358	1656.38
548.127	1585.38
548.896	1496.38
549.665	1423.38
550.434	1362.38
551.203	1281.38
551.972	1205.38
552.741	1137.38
553.51	1068.38
554.278	1007.38
555.047	958.38
555.815	903.38
556.584	852.38
557.352	803.38
558.121	754.38
558.889	717.38
559.657	674.38
560.425	633.38
561.193	589.38
561.961	561.38
562.729	534.38
563.496	496.38
564.264	478.38
565.032	437.38
565.799	423.38
566.567	404.38
567.334	381.38
568.101	357.38
568.869	335.38
569.636	315.38
570.403	300.38
571.17	285.38
571.937	269.38
572.704	252.38
573.471	233.38
574.237	224.38
575.004	207.38
575.771	196.38
576.537	183.38
577.303	174.38
578.07	163.38
578.836	151.38
579.602	145.38
580.368	134.38
581.134	130.38
581.9	129.38
582.666	119.38
583.432	106.38
584.198	103.38
584.964	96.38
585.729	96.38
586.495	89.38
587.26	84.38
588.025	79.38
588.791	75.38
589.556	69.38
590.321	65.38
591.086	67.38
591.851	58.38
592.616	57.38
593.381	54.38
594.146	53.38
594.911	48.38
595.675	44.38
596.44	43.38
597.204	40.38
597.969	42.38
598.733	37.38
599.497	39.38
600.261	34.38
601.025	27.38
601.79	32.38
602.553	29.38
603.317	28.38
604.081	30.38
604.845	25.38
605.609	25.38
606.372	23.38
607.136	24.38
607.899	22.38
608.662	21.38
609.426	21.38
610.189	19.38
610.952	21.38
611.715	17.38
612.478	14.38
613.241	16.38
614.004	19.38
614.767	17.38
615.529	13.38
616.292	14.38
617.055	14.38
617.817	15.38
618.579	11.38
619.342	11.38
620.104	10.38
620.866	10.38
621.628	11.38
622.39	12.38
623.152	11.38
623.914	8.38
624.676	9.38
625.438	11.38
626.199	9.38
626.961	10.38
627.722	8.38
628.484	10.38
629.245	7.38
630.006	8.38
630.768	9.38
631.529	4.38
632.29	6.38
633.051	7.38
633.812	7.38
634.573	9.38
635.333	5.38
636.094	5.38
636.855	6.38
637.615	6.38
638.376	5.38
639.136	5.38
639.896	2.38
640.657	5.38
641.417	4.38
642.177	5.38
642.937	6.38
643.697	5.38
644.457	6.38
645.216	6.38
645.976	6.38
646.736	6.38
647.495	5.38
648.255	4.38
649.014	4.38
649.774	6.38
650.533	3.38
651.292	6.38
652.051	6.38
652.81	3.38
653.569	4.38
654.328	1.38
655.087	7.38
655.846	2.38
656.604	2.38
657.363	5.38
658.121	2.38
658.88	4.38
659.638	6.38
660.397	3.38
661.155	4.38
661.913	2.38
662.671	0.38
663.429	-0.62
664.187	3.38
664.945	1.38
665.703	3.38
666.46	3.38
667.218	2.38
667.976	4.38
668.733	3.38
669.49	3.38
670.248	2.38
671.005	3.38
671.762	2.38
672.519	5.38
673.276	5.38
674.033	1.38
674.79	2.38
675.547	1.38
676.304	4.38
677.06	2.38
677.817	0.38
678.574	4.38
679.33	2.38
680.086	4.38
680.843	5.38
681.599	2.38
682.355	1.38
683.111	2.38
683.867	3.38
684.623	0.38
685.379	0.38
686.135	4.38
686.89	2.38
687.646	4.38
688.402	3.38
689.157	0.38
689.912	1.38
690.668	3.38
691.423	-0.62
692.178	1.38
692.933	3.38
693.688	3.38
694.443	1.38
695.198	2.38
695.953	1.38
696.708	2.38
697.462	0.38
698.217	0.38
698.972	2.38
699.726	4.38
700.48	1.38
701.235	0.38
701.989	1.38
702.743	1.38
703.497	0.38
704.251	0.38
705.005	2.38
705.759	1.38
706.513	0.38
707.266	2.38
708.02	1.38
708.774	1.38
709.527	3.38
710.28	1.38
711.034	3.38
711.787	3.38
712.54	2.38
713.293	0.38
714.046	2.38
714.799	1.38
715.552	1.38
716.305	3.38
717.058	0.38
717.81	1.38
718.563	3.38
719.315	1.38
720.068	1.38
720.82	3.38
721.573	3.38
722.325	1.38
723.077	4.38
723.829	1.38
724.581	2.38
725.333	2.38
726.085	1.38
726.836	3.38
727.588	1.38
728.34	0.38
729.091	2.38
729.843	2.38
730.594	1.38
731.346	1.38
732.097	2.38
732.848	2.38
733.599	1.38
734.35	1.38
735.101	3.38
735.852	2.38
736.603	2.38
737.354	1.38
738.104	2.38
738.855	1.38
739.605	3.38
740.356	4.38
741.106	-0.62
741.856	2.38
742.607	4.38
743.357	2.38
744.107	3.38
744.857	0.38
745.607	3.38
746.357	5.38
747.106	1.38
747.856	1.38
748.606	2.38
749.355	3.38
750.105	2.38
750.854	2.38
751.603	4.38
752.353	4.38
753.102	6.38
753.851	3.38
754.6	4.38
755.349	3.38
756.098	3.38
756.847	4.38
757.595	3.38
758.344	3.38
759.093	5.38
759.841	4.38
760.589	3.38
761.338	1.38
762.086	3.38
762.834	3.38
763.582	5.38
764.331	2.38
765.079	5.38
765.826	5.38
766.574	5.38
767.322	4.38
768.07	3.38
768.817	5.38
769.565	5.38
770.312	5.38
771.06	5.38
771.807	3.38
772.554	5.38
773.302	5.38
774.049	7.38
774.796	3.38
775.543	5.38
776.29	6.38
777.036	4.38
777.783	2.38
778.53	4.38
779.276	8.38
780.023	5.38
780.769	5.38
781.516	5.38
782.262	6.38
783.008	7.38
783.754	6.38
784.5	6.38
785.246	5.38
785.992	6.38
786.738	4.38
787.484	7.38
788.23	5.38
788.975	3.38
789.721	5.38
790.466	5.38
791.212	5.38
791.957	7.38
792.702	6.38
793.447	6.38
794.193	3.38
794.938	5.38
795.683	4.38
796.427	6.38
797.172	5.38
797.917	5.38
798.662	3.38
799.406	5.38
800.151	5.38
800.895	5.38
801.64	7.38
802.384	6.38
803.128	3.38
803.872	5.38
804.616	4.38
805.36	4.38
806.104	5.38
806.848	3.38
807.592	5.38
808.336	3.38
809.079	5.38
809.823	3.38
810.566	3.38
811.31	2.38
812.053	4.38
812.796	2.38
813.539	3.38
814.283	6.38
815.026	2.38
815.769	4.38
816.511	2.38
817.254	3.38
817.997	5.38
818.74	3.38
819.482	2.38
820.225	4.38
820.967	1.38
821.71	3.38
822.452	2.38
823.194	2.38
823.936	4.38
824.678	5.38
825.42	3.38
826.162	5.38
826.904	3.38
827.646	2.38
828.388	1.38
829.129	4.38
829.871	3.38
830.612	2.38
831.354	2.38
832.095	4.38
832.836	3.38
833.577	-0.62
834.319	2.38
835.06	4.38
835.801	3.38
836.542	5.38
837.282	1.38
838.023	2.38
838.764	3.38
839.504	2.38
840.245	-0.62
840.985	3.38
841.726	-0.62
842.466	1.38
843.206	4.38
843.946	2.38
844.687	2.38
845.427	0.38
846.166	3.38
846.906	0.38
847.646	4.38
848.386	3.38
849.125	2.38
849.865	2.38
850.605	2.38
851.344	2.38
852.083	1.38
852.823	2.38
853.562	-0.62
854.301	3.38
855.04	2.38
855.779	3.38
856.518	2.38
857.257	1.38
857.995	5.38
858.734	0.38
859.473	-0.62
860.211	0.38
860.95	1.38
861.688	2.38
862.426	0.38
863.165	2.38
863.903	-1.62
864.641	1.38
865.379	2.38
866.117	-0.62
866.855	2.38
867.593	1.38
868.33	0.38
869.068	1.38
869.806	3.38
870.543	0.38
871.28	0.38
872.018	1.38
872.755	-0.62
873.492	2.38
874.229	2.38
874.967	2.38
875.703	1.38
876.44	1.38
877.177	1.38
877.914	-0.62
878.651	-1.62
879.387	2.38
880.124	-1.62
880.86	2.38
881.597	-1.62
882.333	1.38
883.069	3.38
883.806	-0.62
884.542	1.38
885.278	-1.62
886.014	1.38
886.749	1.38
887.485	1.38
888.221	1.38
888.957	2.38
889.692	0.38
890.428	1.38
891.163	1.38
891.899	-0.62
892.634	3.38
893.369	-0.62
894.104	2.38
894.839	0.38
895.574	0.38
896.309	-0.62
897.044	-1.62
897.779	0.38
898.514	0.38
899.248	1.38
899.983	0.38
900.717	-1.62
901.452	2.38
902.186	-0.62
902.92	-1.62
903.654	3.38
904.389	1.38
905.123	0.38
905.857	1.38
906.59	0.38
907.324	0.38
908.058	2.38
908.792	2.38
909.525	0.38
910.259	-1.62
910.992	-1.62
911.726	0.38
912.459	-1.62
913.192	0.38
913.925	0.38
914.658	-0.62
915.391	0.38
916.124	-0.62
916.857	0.38
917.59	2.38
918.323	1.38
919.055	1.38
919.788	-2.62
920.521	3.38
921.253	1.38
921.985	1.38
922.718	1.38
923.45	2.38
924.182	0.38
924.914	1.38
925.646	1.38
926.378	-0.62
927.11	-0.62
927.841	-1.62
928.573	0.38
929.305	-1.62
930.036	-1.62
930.768	2.38
931.499	-0.62
932.23	0.38
932.962	0.38
933.693	1.38
934.424	3.38
935.155	-0.62
935.886	1.38
936.617	0.38
937.348	-0.62
938.078	1.38
938.809	-0.62
939.54	2.38
940.27	-1.62
941.001	-0.62
941.731	0.38
942.461	1.38
943.191	1.38
943.922	0.38
944.652	-0.62
945.382	-0.62
946.112	2.38
946.841	-0.62
947.571	-0.62
948.301	0.38
949.031	-1.62
949.76	1.38
950.49	2.38
951.219	0.38
951.948	-1.62
952.678	2.38
953.407	1.38
954.136	-1.62
954.865	0.38
955.594	-1.62
956.323	-0.62
957.052	1.38
957.78	1.38
958.509	1.38
959.238	-1.62
959.966	0.38
960.695	-0.62
961.423	1.38
962.151	-0.62
962.88	0.38
963.608	2.38
964.336	-0.62
965.064	0.38
965.792	-1.62
966.52	-1.62
967.247	0.38
967.975	1.38
968.703	1.38
969.43	-0.62
970.158	0.38
970.885	-0.62
971.613	1.38
972.34	0.38
973.067	1.38
973.794	1.38
974.521	1.38
975.248	1.38
975.975	0.38
976.702	0.38
977.429	1.38
978.156	-0.62
978.882	0.38
979.609	2.38
980.335	1.38
981.062	0.38
981.788	1.38
982.514	0.38
983.24	0.38
983.967	1.38
984.693	-1.62
985.419	1.38
986.144	0.38
986.87	0.38
987.596	2.38
988.322	-0.62
989.047	1.38
989.773	1.38
990.498	0.38
991.224	1.38
991.949	-1.62
992.674	-0.62
993.399	-1.62
994.124	1.38
994.849	-1.62
995.574	1.38
996.299	0.38
997.024	0.38
997.749	2.38
998.473	0.38
999.198	0.38
999.922	-1.62
1000.647	1.38
1001.371	3.38
1002.095	-2.62
1002.82	-1.62
1003.544	0.38
1004.268	0.38
1004.992	0.38
1005.716	-0.62
1006.439	0.38
1007.163	0.38
1007.887	-1.62
1008.611	-1.62
1009.334	-1.62
1010.058	1.38
1010.781	-0.62
1011.504	0.38
1012.228	2.38
1012.951	-0.62
1013.674	-0.62
1014.397	-0.62
1015.12	2.38
