节点500_145_QEPB04081__564__11-37-55-401.txt的数据

Date: Wed Nov 12 11:37:55 CST 2025
User: PC
Spectrometer: QEPB0408
触发模式: 0
积分时间 (秒): 1.000000E-2
Scans to average: 1
启用暗噪声校正: true
启用非线性校正: false
滑动平均宽度: 0
X轴模式: Wavelengths
Number of Pixels in Spectrum: 1044
>>>>>Begin Spectral Data<<<<<
220.843	-0.62
221.644	0.38
222.444	0.38
223.244	0.38
224.045	-0.62
224.845	1.38
225.645	-0.62
226.445	2.38
227.245	-2.62
228.045	2.38
228.845	-0.62
229.645	0.38
230.444	0.38
231.244	1.38
232.043	0.38
232.843	-0.62
233.642	1.38
234.442	1.38
235.241	0.38
236.04	2.38
236.839	0.38
237.638	-1.62
238.437	-1.62
239.236	0.38
240.035	1.38
240.833	1.38
241.632	2.38
242.43	1.38
243.229	1.38
244.027	3.38
244.826	3.38
245.624	1.38
246.422	2.38
247.22	2.38
248.018	1.38
248.816	0.38
249.614	2.38
250.412	2.38
251.21	2.38
252.007	2.38
252.805	1.38
253.602	4.38
254.4	1.38
255.197	3.38
255.994	4.38
256.791	5.38
257.589	2.38
258.386	2.38
259.183	5.38
259.979	4.38
260.776	4.38
261.573	5.38
262.37	5.38
263.166	4.38
263.963	3.38
264.759	4.38
265.556	5.38
266.352	4.38
267.148	6.38
267.944	5.38
268.74	5.38
269.536	7.38
270.332	8.38
271.128	4.38
271.924	6.38
272.719	6.38
273.515	8.38
274.311	6.38
275.106	7.38
275.901	8.38
276.697	6.38
277.492	10.38
278.287	9.38
279.082	9.38
279.877	12.38
280.672	10.38
281.467	8.38
282.262	10.38
283.056	8.38
283.851	9.38
284.646	12.38
285.44	10.38
286.234	10.38
287.029	10.38
287.823	11.38
288.617	8.38
289.411	11.38
290.205	5.38
290.999	11.38
291.793	12.38
292.587	10.38
293.381	9.38
294.174	10.38
294.968	9.38
295.761	10.38
296.555	11.38
297.348	9.38
298.141	9.38
298.935	10.38
299.728	9.38
300.521	11.38
301.314	8.38
302.107	9.38
302.899	9.38
303.692	8.38
304.485	7.38
305.277	7.38
306.07	8.38
306.862	7.38
307.655	8.38
308.447	7.38
309.239	7.38
310.031	9.38
310.823	8.38
311.615	5.38
312.407	5.38
313.199	5.38
313.991	5.38
314.783	5.38
315.574	5.38
316.366	5.38
317.157	5.38
317.949	5.38
318.74	6.38
319.531	5.38
320.322	4.38
321.113	2.38
321.904	2.38
322.695	8.38
323.486	4.38
324.277	2.38
325.068	5.38
325.858	5.38
326.649	3.38
327.439	3.38
328.23	2.38
329.02	4.38
329.81	3.38
330.6	4.38
331.391	4.38
332.181	3.38
332.971	4.38
333.76	4.38
334.55	2.38
335.34	4.38
336.13	5.38
336.919	3.38
337.709	4.38
338.498	2.38
339.287	4.38
340.077	5.38
340.866	2.38
341.655	5.38
342.444	4.38
343.233	5.38
344.022	5.38
344.811	4.38
345.6	4.38
346.388	3.38
347.177	5.38
347.965	2.38
348.754	3.38
349.542	2.38
350.33	2.38
351.119	2.38
351.907	4.38
352.695	5.38
353.483	4.38
354.271	2.38
355.059	2.38
355.846	0.38
356.634	0.38
357.422	3.38
358.209	3.38
358.997	2.38
359.784	2.38
360.571	1.38
361.359	0.38
362.146	4.38
362.933	1.38
363.72	3.38
364.507	2.38
365.294	1.38
366.081	2.38
366.867	5.38
367.654	4.38
368.44	2.38
369.227	2.38
370.013	2.38
370.8	3.38
371.586	2.38
372.372	3.38
373.158	3.38
373.944	-0.62
374.73	3.38
375.516	2.38
376.302	5.38
377.088	3.38
377.873	2.38
378.659	0.38
379.445	2.38
380.23	2.38
381.015	2.38
381.801	5.38
382.586	1.38
383.371	2.38
384.156	1.38
384.941	3.38
385.726	3.38
386.511	2.38
387.296	3.38
388.08	2.38
388.865	4.38
389.649	2.38
390.434	0.38
391.218	3.38
392.003	3.38
392.787	2.38
393.571	4.38
394.355	2.38
395.139	4.38
395.923	1.38
396.707	3.38
397.491	5.38
398.274	2.38
399.058	1.38
399.842	3.38
400.625	3.38
401.408	3.38
402.192	3.38
402.975	3.38
403.758	3.38
404.541	2.38
405.324	5.38
406.107	5.38
406.89	2.38
407.673	3.38
408.456	5.38
409.238	5.38
410.021	5.38
410.803	5.38
411.586	6.38
412.368	4.38
413.151	5.38
413.933	5.38
414.715	4.38
415.497	6.38
416.279	4.38
417.061	5.38
417.843	5.38
418.624	2.38
419.406	5.38
420.188	3.38
420.969	4.38
421.751	4.38
422.532	6.38
423.313	5.38
424.095	6.38
424.876	6.38
425.657	3.38
426.438	6.38
427.219	3.38
428	5.38
428.78	5.38
429.561	7.38
430.342	9.38
431.122	7.38
431.903	7.38
432.683	8.38
433.464	7.38
434.244	8.38
435.024	8.38
435.804	9.38
436.584	10.38
437.364	7.38
438.144	9.38
438.924	12.38
439.704	12.38
440.483	12.38
441.263	12.38
442.042	10.38
442.822	13.38
443.601	14.38
444.38	12.38
445.16	17.38
445.939	16.38
446.718	17.38
447.497	16.38
448.276	22.38
449.054	21.38
449.833	25.38
450.612	28.38
451.391	31.38
452.169	31.38
452.948	33.38
453.726	37.38
454.504	42.38
455.282	45.38
456.061	50.38
456.839	55.38
457.617	59.38
458.395	67.38
459.172	73.38
459.95	80.38
460.728	88.38
461.506	102.38
462.283	115.38
463.061	125.38
463.838	136.38
464.615	158.38
465.393	168.38
466.17	194.38
466.947	210.38
467.724	227.38
468.501	263.38
469.278	288.38
470.055	320.38
470.831	357.38
471.608	400.38
472.385	435.38
473.161	477.38
473.938	531.38
474.714	588.38
475.49	662.38
476.266	721.38
477.043	801.38
477.819	879.38
478.595	969.38
479.371	1070.38
480.146	1145.38
480.922	1281.38
481.698	1394.38
482.473	1534.38
483.249	1674.38
484.024	1848.38
484.8	2043.38
485.575	2238.38
486.35	2443.38
487.126	2669.38
487.901	2909.38
488.676	3179.38
489.451	3483.38
490.225	3796.38
491	4174.38
491.775	4542.38
492.55	4935.38
493.324	5408.38
494.099	5908.38
494.873	6412.38
495.647	6969.38
496.422	7553.38
497.196	8144.38
497.97	8770.38
498.744	9396.38
499.518	10122.38
500.292	10765.38
501.066	11445.38
501.839	12076.38
502.613	12640.38
503.387	13297.38
504.16	13854.38
504.934	14347.38
505.707	14724.38
506.48	15030.38
507.253	15288.38
508.027	15467.38
508.8	15560.38
509.573	15453.38
510.346	15365.38
511.118	15159.38
511.891	14922.38
512.664	14558.38
513.437	14116.38
514.209	13777.38
514.982	13219.38
515.754	12707.38
516.526	12240.38
517.298	11685.38
518.071	11223.38
518.843	10764.38
519.615	10318.38
520.387	9886.38
521.159	9483.38
521.93	9078.38
522.702	8759.38
523.474	8377.38
524.245	8088.38
525.017	7755.38
525.788	7441.38
526.56	7153.38
527.331	6847.38
528.102	6555.38
528.873	6295.38
529.644	6024.38
530.415	5768.38
531.186	5481.38
531.957	5242.38
532.728	4962.38
533.498	4727.38
534.269	4474.38
535.039	4266.38
535.81	4024.38
536.58	3789.38
537.351	3602.38
538.121	3411.38
538.891	3236.38
539.661	3038.38
540.431	2865.38
541.201	2719.38
541.971	2570.38
542.741	2438.38
543.51	2311.38
544.28	2197.38
545.05	2102.38
545.819	1978.38
546.588	1866.38
547.358	1783.38
548.127	1705.38
548.896	1636.38
549.665	1545.38
550.434	1469.38
551.203	1375.38
551.972	1322.38
552.741	1249.38
553.51	1193.38
554.278	1120.38
555.047	1054.38
555.815	997.38
556.584	950.38
557.352	874.38
558.121	844.38
558.889	795.38
559.657	751.38
560.425	709.38
561.193	669.38
561.961	639.38
562.729	605.38
563.496	561.38
564.264	527.38
565.032	498.38
565.799	479.38
566.567	440.38
567.334	417.38
568.101	396.38
568.869	378.38
569.636	353.38
570.403	338.38
571.17	310.38
571.937	297.38
572.704	279.38
573.471	264.38
574.237	243.38
575.004	236.38
575.771	218.38
576.537	207.38
577.303	193.38
578.07	186.38
578.836	173.38
579.602	158.38
580.368	155.38
581.134	148.38
581.9	141.38
582.666	129.38
583.432	127.38
584.198	114.38
584.964	117.38
585.729	100.38
586.495	100.38
587.26	93.38
588.025	91.38
588.791	84.38
589.556	78.38
590.321	72.38
591.086	68.38
591.851	68.38
592.616	61.38
593.381	61.38
594.146	57.38
594.911	53.38
595.675	51.38
596.44	52.38
597.204	49.38
597.969	42.38
598.733	41.38
599.497	38.38
600.261	40.38
601.025	37.38
601.79	35.38
602.553	34.38
603.317	27.38
604.081	29.38
604.845	29.38
605.609	28.38
606.372	30.38
607.136	23.38
607.899	24.38
608.662	21.38
609.426	24.38
610.189	21.38
610.952	18.38
611.715	19.38
612.478	19.38
613.241	17.38
614.004	17.38
614.767	18.38
615.529	16.38
616.292	18.38
617.055	16.38
617.817	13.38
618.579	15.38
619.342	14.38
620.104	13.38
620.866	11.38
621.628	10.38
622.39	12.38
623.152	13.38
623.914	12.38
624.676	12.38
625.438	11.38
626.199	11.38
626.961	9.38
627.722	6.38
628.484	6.38
629.245	9.38
630.006	8.38
630.768	9.38
631.529	8.38
632.29	8.38
633.051	8.38
633.812	8.38
634.573	8.38
635.333	7.38
636.094	7.38
636.855	6.38
637.615	6.38
638.376	7.38
639.136	7.38
639.896	4.38
640.657	7.38
641.417	4.38
642.177	4.38
642.937	4.38
643.697	5.38
644.457	3.38
645.216	7.38
645.976	3.38
646.736	5.38
647.495	3.38
648.255	4.38
649.014	5.38
649.774	4.38
650.533	4.38
651.292	4.38
652.051	4.38
652.81	6.38
653.569	3.38
654.328	7.38
655.087	4.38
655.846	4.38
656.604	1.38
657.363	5.38
658.121	3.38
658.88	2.38
659.638	3.38
660.397	2.38
661.155	4.38
661.913	3.38
662.671	4.38
663.429	5.38
664.187	4.38
664.945	2.38
665.703	3.38
666.46	3.38
667.218	1.38
667.976	1.38
668.733	2.38
669.49	1.38
670.248	3.38
671.005	3.38
671.762	4.38
672.519	3.38
673.276	3.38
674.033	1.38
674.79	4.38
675.547	3.38
676.304	0.38
677.06	1.38
677.817	3.38
678.574	2.38
679.33	1.38
680.086	2.38
680.843	1.38
681.599	3.38
682.355	3.38
683.111	1.38
683.867	1.38
684.623	1.38
685.379	0.38
686.135	1.38
686.89	3.38
687.646	0.38
688.402	1.38
689.157	0.38
689.912	2.38
690.668	2.38
691.423	3.38
692.178	1.38
692.933	1.38
693.688	1.38
694.443	2.38
695.198	3.38
695.953	2.38
696.708	2.38
697.462	0.38
698.217	1.38
698.972	4.38
699.726	3.38
700.48	1.38
701.235	2.38
701.989	1.38
702.743	2.38
703.497	1.38
704.251	2.38
705.005	0.38
705.759	3.38
706.513	1.38
707.266	3.38
708.02	2.38
708.774	3.38
709.527	2.38
710.28	3.38
711.034	3.38
711.787	1.38
712.54	4.38
713.293	2.38
714.046	-0.62
714.799	2.38
715.552	1.38
716.305	4.38
717.058	1.38
717.81	1.38
718.563	2.38
719.315	2.38
720.068	1.38
720.82	2.38
721.573	1.38
722.325	1.38
723.077	3.38
723.829	0.38
724.581	0.38
725.333	3.38
726.085	-0.62
726.836	4.38
727.588	2.38
728.34	1.38
729.091	2.38
729.843	3.38
730.594	5.38
731.346	1.38
732.097	3.38
732.848	2.38
733.599	3.38
734.35	1.38
735.101	1.38
735.852	2.38
736.603	2.38
737.354	4.38
738.104	3.38
738.855	3.38
739.605	2.38
740.356	1.38
741.106	3.38
741.856	2.38
742.607	3.38
743.357	3.38
744.107	4.38
744.857	3.38
745.607	3.38
746.357	3.38
747.106	1.38
747.856	2.38
748.606	1.38
749.355	0.38
750.105	1.38
750.854	2.38
751.603	4.38
752.353	2.38
753.102	2.38
753.851	0.38
754.6	0.38
755.349	3.38
756.098	0.38
756.847	4.38
757.595	2.38
758.344	5.38
759.093	2.38
759.841	3.38
760.589	4.38
761.338	-1.62
762.086	2.38
762.834	3.38
763.582	4.38
764.331	5.38
765.079	5.38
765.826	6.38
766.574	2.38
767.322	4.38
768.07	2.38
768.817	3.38
769.565	4.38
770.312	3.38
771.06	2.38
771.807	5.38
772.554	2.38
773.302	4.38
774.049	4.38
774.796	5.38
775.543	5.38
776.29	4.38
777.036	4.38
777.783	5.38
778.53	4.38
779.276	5.38
780.023	5.38
780.769	5.38
781.516	6.38
782.262	4.38
783.008	3.38
783.754	5.38
784.5	2.38
785.246	5.38
785.992	4.38
786.738	5.38
787.484	5.38
788.23	8.38
788.975	2.38
789.721	5.38
790.466	2.38
791.212	4.38
791.957	6.38
792.702	5.38
793.447	4.38
794.193	7.38
794.938	4.38
795.683	4.38
796.427	5.38
797.172	2.38
797.917	2.38
798.662	4.38
799.406	3.38
800.151	3.38
800.895	4.38
801.64	5.38
802.384	6.38
803.128	3.38
803.872	5.38
804.616	3.38
805.36	3.38
806.104	4.38
806.848	3.38
807.592	7.38
808.336	3.38
809.079	5.38
809.823	3.38
810.566	3.38
811.31	2.38
812.053	1.38
812.796	4.38
813.539	2.38
814.283	3.38
815.026	2.38
815.769	3.38
816.511	3.38
817.254	3.38
817.997	3.38
818.74	0.38
819.482	5.38
820.225	5.38
820.967	3.38
821.71	2.38
822.452	1.38
823.194	2.38
823.936	2.38
824.678	5.38
825.42	1.38
826.162	4.38
826.904	3.38
827.646	2.38
828.388	2.38
829.129	5.38
829.871	3.38
830.612	3.38
831.354	3.38
832.095	-0.62
832.836	0.38
833.577	-0.62
834.319	5.38
835.06	2.38
835.801	3.38
836.542	1.38
837.282	3.38
838.023	1.38
838.764	1.38
839.504	4.38
840.245	3.38
840.985	2.38
841.726	2.38
842.466	1.38
843.206	3.38
843.946	3.38
844.687	3.38
845.427	1.38
846.166	2.38
846.906	2.38
847.646	1.38
848.386	1.38
849.125	4.38
849.865	2.38
850.605	4.38
851.344	0.38
852.083	2.38
852.823	4.38
853.562	-0.62
854.301	2.38
855.04	1.38
855.779	1.38
856.518	0.38
857.257	1.38
857.995	1.38
858.734	-2.62
859.473	4.38
860.211	0.38
860.95	2.38
861.688	3.38
862.426	-0.62
863.165	-0.62
863.903	1.38
864.641	1.38
865.379	1.38
866.117	2.38
866.855	2.38
867.593	1.38
868.33	2.38
869.068	2.38
869.806	1.38
870.543	3.38
871.28	2.38
872.018	1.38
872.755	1.38
873.492	2.38
874.229	-0.62
874.967	1.38
875.703	1.38
876.44	-0.62
877.177	1.38
877.914	1.38
878.651	2.38
879.387	0.38
880.124	2.38
880.86	-1.62
881.597	2.38
882.333	1.38
883.069	-0.62
883.806	-2.62
884.542	0.38
885.278	-0.62
886.014	-0.62
886.749	0.38
887.485	2.38
888.221	-0.62
888.957	0.38
889.692	-0.62
890.428	2.38
891.163	2.38
891.899	-1.62
892.634	0.38
893.369	-0.62
894.104	1.38
894.839	0.38
895.574	-0.62
896.309	1.38
897.044	1.38
897.779	0.38
898.514	-1.62
899.248	1.38
899.983	1.38
900.717	1.38
901.452	1.38
902.186	1.38
902.92	0.38
903.654	0.38
904.389	1.38
905.123	1.38
905.857	-0.62
906.59	1.38
907.324	-0.62
908.058	3.38
908.792	-0.62
909.525	0.38
910.259	1.38
910.992	1.38
911.726	1.38
912.459	-0.62
913.192	1.38
913.925	-1.62
914.658	0.38
915.391	-0.62
916.124	-1.62
916.857	0.38
917.59	1.38
918.323	2.38
919.055	-0.62
919.788	1.38
920.521	-0.62
921.253	-0.62
921.985	-1.62
922.718	-1.62
923.45	0.38
924.182	-0.62
924.914	-0.62
925.646	-1.62
926.378	2.38
927.11	1.38
927.841	-0.62
928.573	1.38
929.305	0.38
930.036	1.38
930.768	-1.62
931.499	-1.62
932.23	0.38
932.962	-1.62
933.693	-0.62
934.424	0.38
935.155	0.38
935.886	-0.62
936.617	-1.62
937.348	0.38
938.078	-1.62
938.809	1.38
939.54	1.38
940.27	-1.62
941.001	1.38
941.731	-1.62
942.461	0.38
943.191	-0.62
943.922	2.38
944.652	0.38
945.382	1.38
946.112	1.38
946.841	1.38
947.571	0.38
948.301	-0.62
949.031	1.38
949.76	0.38
950.49	0.38
951.219	0.38
951.948	-0.62
952.678	-0.62
953.407	-1.62
954.136	0.38
954.865	0.38
955.594	1.38
956.323	2.38
957.052	-2.62
957.78	-0.62
958.509	0.38
959.238	2.38
959.966	1.38
960.695	2.38
961.423	-0.62
962.151	-0.62
962.88	0.38
963.608	1.38
964.336	0.38
965.064	-1.62
965.792	0.38
966.52	0.38
967.247	-1.62
967.975	-1.62
968.703	2.38
969.43	2.38
970.158	0.38
970.885	-2.62
971.613	-0.62
972.34	-1.62
973.067	0.38
973.794	1.38
974.521	0.38
975.248	-0.62
975.975	2.38
976.702	1.38
977.429	0.38
978.156	-0.62
978.882	-0.62
979.609	0.38
980.335	1.38
981.062	1.38
981.788	-1.62
982.514	-1.62
983.24	1.38
983.967	2.38
984.693	2.38
985.419	1.38
986.144	-0.62
986.87	1.38
987.596	0.38
988.322	1.38
989.047	1.38
989.773	1.38
990.498	1.38
991.224	-1.62
991.949	0.38
992.674	0.38
993.399	1.38
994.124	0.38
994.849	-0.62
995.574	-1.62
996.299	-0.62
997.024	-0.62
997.749	0.38
998.473	1.38
999.198	-0.62
999.922	0.38
1000.647	0.38
1001.371	4.38
1002.095	-1.62
1002.82	-0.62
1003.544	-1.62
1004.268	0.38
1004.992	0.38
1005.716	-1.62
1006.439	-0.62
1007.163	0.38
1007.887	1.38
1008.611	2.38
1009.334	1.38
1010.058	-2.62
1010.781	3.38
1011.504	1.38
1012.228	-0.62
1012.951	1.38
1013.674	-1.62
1014.397	-0.62
1015.12	0.38
