节点500_145_QEPB04081__375__11-34-56-584.txt的数据

Date: Wed Nov 12 11:34:56 CST 2025
User: PC
Spectrometer: QEPB0408
触发模式: 0
积分时间 (秒): 1.000000E-2
Scans to average: 1
启用暗噪声校正: true
启用非线性校正: false
滑动平均宽度: 0
X轴模式: Wavelengths
Number of Pixels in Spectrum: 1044
>>>>>Begin Spectral Data<<<<<
220.843	0.38
221.644	-1.62
222.444	1.38
223.244	0.38
224.045	1.38
224.845	-0.62
225.645	0.38
226.445	1.38
227.245	0.38
228.045	1.38
228.845	1.38
229.645	-1.62
230.444	-0.62
231.244	2.38
232.043	-0.62
232.843	2.38
233.642	0.38
234.442	0.38
235.241	2.38
236.04	4.38
236.839	3.38
237.638	-0.62
238.437	1.38
239.236	2.38
240.035	1.38
240.833	0.38
241.632	2.38
242.43	2.38
243.229	0.38
244.027	3.38
244.826	0.38
245.624	1.38
246.422	1.38
247.22	2.38
248.018	2.38
248.816	1.38
249.614	4.38
250.412	0.38
251.21	2.38
252.007	5.38
252.805	4.38
253.602	2.38
254.4	0.38
255.197	3.38
255.994	1.38
256.791	5.38
257.589	2.38
258.386	4.38
259.183	5.38
259.979	4.38
260.776	3.38
261.573	4.38
262.37	4.38
263.166	5.38
263.963	4.38
264.759	6.38
265.556	5.38
266.352	5.38
267.148	7.38
267.944	7.38
268.74	9.38
269.536	6.38
270.332	8.38
271.128	5.38
271.924	7.38
272.719	9.38
273.515	6.38
274.311	7.38
275.106	8.38
275.901	7.38
276.697	7.38
277.492	9.38
278.287	11.38
279.082	9.38
279.877	8.38
280.672	9.38
281.467	8.38
282.262	12.38
283.056	12.38
283.851	10.38
284.646	11.38
285.44	12.38
286.234	6.38
287.029	12.38
287.823	11.38
288.617	12.38
289.411	11.38
290.205	10.38
290.999	10.38
291.793	12.38
292.587	8.38
293.381	12.38
294.174	7.38
294.968	9.38
295.761	7.38
296.555	11.38
297.348	9.38
298.141	11.38
298.935	9.38
299.728	8.38
300.521	7.38
301.314	7.38
302.107	6.38
302.899	9.38
303.692	9.38
304.485	7.38
305.277	8.38
306.07	9.38
306.862	7.38
307.655	9.38
308.447	6.38
309.239	9.38
310.031	7.38
310.823	7.38
311.615	7.38
312.407	6.38
313.199	6.38
313.991	6.38
314.783	3.38
315.574	5.38
316.366	5.38
317.157	6.38
317.949	5.38
318.74	3.38
319.531	5.38
320.322	3.38
321.113	5.38
321.904	5.38
322.695	6.38
323.486	4.38
324.277	3.38
325.068	4.38
325.858	4.38
326.649	6.38
327.439	3.38
328.23	4.38
329.02	5.38
329.81	3.38
330.6	4.38
331.391	5.38
332.181	3.38
332.971	3.38
333.76	4.38
334.55	3.38
335.34	4.38
336.13	4.38
336.919	4.38
337.709	3.38
338.498	2.38
339.287	4.38
340.077	3.38
340.866	4.38
341.655	5.38
342.444	3.38
343.233	0.38
344.022	2.38
344.811	2.38
345.6	4.38
346.388	5.38
347.177	1.38
347.965	3.38
348.754	2.38
349.542	2.38
350.33	4.38
351.119	4.38
351.907	3.38
352.695	2.38
353.483	3.38
354.271	4.38
355.059	1.38
355.846	4.38
356.634	2.38
357.422	3.38
358.209	3.38
358.997	2.38
359.784	3.38
360.571	2.38
361.359	3.38
362.146	3.38
362.933	4.38
363.72	3.38
364.507	4.38
365.294	3.38
366.081	0.38
366.867	3.38
367.654	2.38
368.44	1.38
369.227	4.38
370.013	4.38
370.8	4.38
371.586	2.38
372.372	3.38
373.158	3.38
373.944	3.38
374.73	3.38
375.516	4.38
376.302	4.38
377.088	0.38
377.873	5.38
378.659	2.38
379.445	2.38
380.23	2.38
381.015	1.38
381.801	1.38
382.586	0.38
383.371	3.38
384.156	4.38
384.941	0.38
385.726	0.38
386.511	0.38
387.296	2.38
388.08	5.38
388.865	4.38
389.649	4.38
390.434	1.38
391.218	3.38
392.003	2.38
392.787	4.38
393.571	2.38
394.355	5.38
395.139	2.38
395.923	5.38
396.707	2.38
397.491	2.38
398.274	5.38
399.058	3.38
399.842	3.38
400.625	3.38
401.408	3.38
402.192	2.38
402.975	2.38
403.758	3.38
404.541	6.38
405.324	5.38
406.107	4.38
406.89	4.38
407.673	3.38
408.456	8.38
409.238	5.38
410.021	6.38
410.803	4.38
411.586	4.38
412.368	2.38
413.151	4.38
413.933	4.38
414.715	2.38
415.497	4.38
416.279	6.38
417.061	4.38
417.843	5.38
418.624	4.38
419.406	4.38
420.188	7.38
420.969	5.38
421.751	5.38
422.532	7.38
423.313	4.38
424.095	6.38
424.876	5.38
425.657	4.38
426.438	9.38
427.219	7.38
428	6.38
428.78	7.38
429.561	7.38
430.342	7.38
431.122	7.38
431.903	9.38
432.683	7.38
433.464	8.38
434.244	7.38
435.024	10.38
435.804	10.38
436.584	11.38
437.364	7.38
438.144	8.38
438.924	11.38
439.704	10.38
440.483	12.38
441.263	12.38
442.042	11.38
442.822	13.38
443.601	14.38
444.38	14.38
445.16	14.38
445.939	17.38
446.718	14.38
447.497	19.38
448.276	21.38
449.054	22.38
449.833	24.38
450.612	24.38
451.391	28.38
452.169	28.38
452.948	35.38
453.726	38.38
454.504	40.38
455.282	41.38
456.061	46.38
456.839	51.38
457.617	54.38
458.395	60.38
459.172	68.38
459.95	76.38
460.728	84.38
461.506	93.38
462.283	106.38
463.061	114.38
463.838	126.38
464.615	145.38
465.393	161.38
466.17	179.38
466.947	198.38
467.724	227.38
468.501	250.38
469.278	278.38
470.055	310.38
470.831	335.38
471.608	370.38
472.385	415.38
473.161	467.38
473.938	521.38
474.714	574.38
475.49	626.38
476.266	698.38
477.043	785.38
477.819	856.38
478.595	938.38
479.371	1037.38
480.146	1153.38
480.922	1278.38
481.698	1392.38
482.473	1534.38
483.249	1693.38
484.024	1860.38
484.8	2046.38
485.575	2269.38
486.35	2491.38
487.126	2743.38
487.901	3004.38
488.676	3294.38
489.451	3627.38
490.225	3964.38
491	4354.38
491.775	4787.38
492.55	5225.38
493.324	5712.38
494.099	6247.38
494.873	6795.38
495.647	7414.38
496.422	8041.38
497.196	8746.38
497.97	9361.38
498.744	10106.38
499.518	10837.38
500.292	11509.38
501.066	12230.38
501.839	12930.38
502.613	13559.38
503.387	14210.38
504.16	14690.38
504.934	15192.38
505.707	15551.38
506.48	15881.38
507.253	16061.38
508.027	16180.38
508.8	16160.38
509.573	16091.38
510.346	15803.38
511.118	15616.38
511.891	15215.38
512.664	14762.38
513.437	14326.38
514.209	13808.38
514.982	13267.38
515.754	12769.38
516.526	12205.38
517.298	11670.38
518.071	11178.38
518.843	10705.38
519.615	10238.38
520.387	9799.38
521.159	9429.38
521.93	9052.38
522.702	8688.38
523.474	8326.38
524.245	8007.38
525.017	7668.38
525.788	7409.38
526.56	7088.38
527.331	6810.38
528.102	6482.38
528.873	6238.38
529.644	5977.38
530.415	5684.38
531.186	5395.38
531.957	5153.38
532.728	4883.38
533.498	4611.38
534.269	4380.38
535.039	4130.38
535.81	3928.38
536.58	3704.38
537.351	3493.38
538.121	3317.38
538.891	3144.38
539.661	2954.38
540.431	2799.38
541.201	2650.38
541.971	2516.38
542.741	2370.38
543.51	2243.38
544.28	2113.38
545.05	2046.38
545.819	1945.38
546.588	1839.38
547.358	1741.38
548.127	1676.38
548.896	1573.38
549.665	1493.38
550.434	1421.38
551.203	1353.38
551.972	1280.38
552.741	1212.38
553.51	1148.38
554.278	1074.38
555.047	1026.38
555.815	964.38
556.584	901.38
557.352	868.38
558.121	813.38
558.889	769.38
559.657	723.38
560.425	685.38
561.193	637.38
561.961	609.38
562.729	567.38
563.496	540.38
564.264	502.38
565.032	482.38
565.799	456.38
566.567	427.38
567.334	398.38
568.101	381.38
568.869	357.38
569.636	340.38
570.403	320.38
571.17	311.38
571.937	282.38
572.704	277.38
573.471	255.38
574.237	242.38
575.004	226.38
575.771	210.38
576.537	199.38
577.303	191.38
578.07	177.38
578.836	161.38
579.602	156.38
580.368	141.38
581.134	138.38
581.9	135.38
582.666	122.38
583.432	119.38
584.198	106.38
584.964	111.38
585.729	102.38
586.495	96.38
587.26	90.38
588.025	84.38
588.791	80.38
589.556	76.38
590.321	69.38
591.086	68.38
591.851	66.38
592.616	62.38
593.381	58.38
594.146	55.38
594.911	51.38
595.675	53.38
596.44	46.38
597.204	44.38
597.969	46.38
598.733	41.38
599.497	38.38
600.261	39.38
601.025	36.38
601.79	32.38
602.553	34.38
603.317	30.38
604.081	28.38
604.845	28.38
605.609	25.38
606.372	25.38
607.136	25.38
607.899	23.38
608.662	26.38
609.426	23.38
610.189	21.38
610.952	21.38
611.715	19.38
612.478	18.38
613.241	16.38
614.004	18.38
614.767	17.38
615.529	17.38
616.292	13.38
617.055	14.38
617.817	12.38
618.579	13.38
619.342	13.38
620.104	11.38
620.866	13.38
621.628	11.38
622.39	11.38
623.152	11.38
623.914	11.38
624.676	9.38
625.438	8.38
626.199	11.38
626.961	9.38
627.722	10.38
628.484	8.38
629.245	7.38
630.006	7.38
630.768	9.38
631.529	8.38
632.29	10.38
633.051	6.38
633.812	9.38
634.573	7.38
635.333	7.38
636.094	5.38
636.855	7.38
637.615	9.38
638.376	6.38
639.136	5.38
639.896	5.38
640.657	7.38
641.417	3.38
642.177	4.38
642.937	4.38
643.697	7.38
644.457	5.38
645.216	4.38
645.976	4.38
646.736	3.38
647.495	5.38
648.255	4.38
649.014	4.38
649.774	2.38
650.533	2.38
651.292	4.38
652.051	2.38
652.81	2.38
653.569	3.38
654.328	4.38
655.087	5.38
655.846	4.38
656.604	5.38
657.363	4.38
658.121	3.38
658.88	3.38
659.638	4.38
660.397	3.38
661.155	2.38
661.913	2.38
662.671	2.38
663.429	3.38
664.187	4.38
664.945	2.38
665.703	1.38
666.46	3.38
667.218	3.38
667.976	3.38
668.733	3.38
669.49	6.38
670.248	0.38
671.005	3.38
671.762	3.38
672.519	2.38
673.276	2.38
674.033	1.38
674.79	3.38
675.547	4.38
676.304	4.38
677.06	-0.62
677.817	4.38
678.574	4.38
679.33	2.38
680.086	3.38
680.843	1.38
681.599	-0.62
682.355	2.38
683.111	3.38
683.867	3.38
684.623	2.38
685.379	3.38
686.135	0.38
686.89	2.38
687.646	2.38
688.402	-1.62
689.157	3.38
689.912	4.38
690.668	5.38
691.423	1.38
692.178	1.38
692.933	3.38
693.688	3.38
694.443	2.38
695.198	3.38
695.953	5.38
696.708	1.38
697.462	2.38
698.217	0.38
698.972	3.38
699.726	0.38
700.48	4.38
701.235	4.38
701.989	3.38
702.743	1.38
703.497	2.38
704.251	2.38
705.005	2.38
705.759	1.38
706.513	1.38
707.266	-1.62
708.02	5.38
708.774	2.38
709.527	2.38
710.28	4.38
711.034	1.38
711.787	3.38
712.54	2.38
713.293	1.38
714.046	1.38
714.799	2.38
715.552	1.38
716.305	2.38
717.058	2.38
717.81	2.38
718.563	1.38
719.315	0.38
720.068	3.38
720.82	3.38
721.573	0.38
722.325	2.38
723.077	-0.62
723.829	1.38
724.581	1.38
725.333	2.38
726.085	5.38
726.836	2.38
727.588	6.38
728.34	0.38
729.091	1.38
729.843	-0.62
730.594	3.38
731.346	1.38
732.097	0.38
732.848	1.38
733.599	1.38
734.35	3.38
735.101	2.38
735.852	1.38
736.603	1.38
737.354	0.38
738.104	4.38
738.855	2.38
739.605	1.38
740.356	4.38
741.106	3.38
741.856	3.38
742.607	2.38
743.357	2.38
744.107	3.38
744.857	2.38
745.607	3.38
746.357	3.38
747.106	2.38
747.856	1.38
748.606	3.38
749.355	2.38
750.105	4.38
750.854	1.38
751.603	5.38
752.353	1.38
753.102	1.38
753.851	2.38
754.6	2.38
755.349	5.38
756.098	3.38
756.847	4.38
757.595	3.38
758.344	1.38
759.093	3.38
759.841	2.38
760.589	4.38
761.338	2.38
762.086	3.38
762.834	5.38
763.582	4.38
764.331	5.38
765.079	3.38
765.826	2.38
766.574	3.38
767.322	4.38
768.07	4.38
768.817	2.38
769.565	4.38
770.312	3.38
771.06	5.38
771.807	3.38
772.554	3.38
773.302	5.38
774.049	2.38
774.796	6.38
775.543	3.38
776.29	5.38
777.036	4.38
777.783	4.38
778.53	6.38
779.276	4.38
780.023	5.38
780.769	4.38
781.516	6.38
782.262	4.38
783.008	5.38
783.754	6.38
784.5	6.38
785.246	4.38
785.992	5.38
786.738	8.38
787.484	7.38
788.23	4.38
788.975	2.38
789.721	5.38
790.466	5.38
791.212	4.38
791.957	6.38
792.702	5.38
793.447	4.38
794.193	4.38
794.938	5.38
795.683	5.38
796.427	5.38
797.172	5.38
797.917	7.38
798.662	5.38
799.406	5.38
800.151	2.38
800.895	5.38
801.64	5.38
802.384	5.38
803.128	2.38
803.872	5.38
804.616	4.38
805.36	5.38
806.104	6.38
806.848	3.38
807.592	1.38
808.336	2.38
809.079	3.38
809.823	4.38
810.566	1.38
811.31	5.38
812.053	4.38
812.796	4.38
813.539	6.38
814.283	3.38
815.026	4.38
815.769	2.38
816.511	5.38
817.254	2.38
817.997	5.38
818.74	2.38
819.482	1.38
820.225	3.38
820.967	2.38
821.71	2.38
822.452	3.38
823.194	5.38
823.936	3.38
824.678	2.38
825.42	3.38
826.162	2.38
826.904	3.38
827.646	2.38
828.388	4.38
829.129	1.38
829.871	2.38
830.612	2.38
831.354	1.38
832.095	7.38
832.836	3.38
833.577	3.38
834.319	1.38
835.06	1.38
835.801	2.38
836.542	1.38
837.282	3.38
838.023	3.38
838.764	4.38
839.504	3.38
840.245	2.38
840.985	5.38
841.726	0.38
842.466	4.38
843.206	0.38
843.946	1.38
844.687	2.38
845.427	3.38
846.166	2.38
846.906	1.38
847.646	4.38
848.386	2.38
849.125	4.38
849.865	0.38
850.605	1.38
851.344	1.38
852.083	2.38
852.823	3.38
853.562	0.38
854.301	2.38
855.04	2.38
855.779	2.38
856.518	2.38
857.257	1.38
857.995	3.38
858.734	0.38
859.473	2.38
860.211	2.38
860.95	1.38
861.688	1.38
862.426	0.38
863.165	1.38
863.903	-0.62
864.641	2.38
865.379	1.38
866.117	0.38
866.855	-0.62
867.593	-0.62
868.33	1.38
869.068	-2.62
869.806	0.38
870.543	1.38
871.28	1.38
872.018	0.38
872.755	1.38
873.492	0.38
874.229	0.38
874.967	1.38
875.703	1.38
876.44	-0.62
877.177	2.38
877.914	-1.62
878.651	0.38
879.387	0.38
880.124	1.38
880.86	1.38
881.597	1.38
882.333	0.38
883.069	1.38
883.806	-0.62
884.542	0.38
885.278	1.38
886.014	1.38
886.749	-0.62
887.485	1.38
888.221	0.38
888.957	2.38
889.692	1.38
890.428	2.38
891.163	1.38
891.899	0.38
892.634	0.38
893.369	0.38
894.104	1.38
894.839	3.38
895.574	1.38
896.309	2.38
897.044	2.38
897.779	2.38
898.514	0.38
899.248	2.38
899.983	0.38
900.717	0.38
901.452	3.38
902.186	-0.62
902.92	1.38
903.654	-0.62
904.389	2.38
905.123	0.38
905.857	0.38
906.59	0.38
907.324	-1.62
908.058	1.38
908.792	-2.62
909.525	-1.62
910.259	-0.62
910.992	0.38
911.726	0.38
912.459	-0.62
913.192	2.38
913.925	1.38
914.658	1.38
915.391	0.38
916.124	0.38
916.857	-0.62
917.59	1.38
918.323	0.38
919.055	-1.62
919.788	0.38
920.521	-1.62
921.253	0.38
921.985	1.38
922.718	-0.62
923.45	0.38
924.182	-2.62
924.914	-0.62
925.646	0.38
926.378	-0.62
927.11	0.38
927.841	-0.62
928.573	0.38
929.305	-0.62
930.036	1.38
930.768	0.38
931.499	0.38
932.23	1.38
932.962	-2.62
933.693	2.38
934.424	-0.62
935.155	2.38
935.886	0.38
936.617	-0.62
937.348	-1.62
938.078	-1.62
938.809	0.38
939.54	-0.62
940.27	0.38
941.001	2.38
941.731	-1.62
942.461	1.38
943.191	-0.62
943.922	-0.62
944.652	2.38
945.382	1.38
946.112	1.38
946.841	-0.62
947.571	-0.62
948.301	-1.62
949.031	1.38
949.76	1.38
950.49	-1.62
951.219	0.38
951.948	1.38
952.678	0.38
953.407	-0.62
954.136	1.38
954.865	-0.62
955.594	0.38
956.323	0.38
957.052	0.38
957.78	2.38
958.509	0.38
959.238	-0.62
959.966	1.38
960.695	0.38
961.423	1.38
962.151	0.38
962.88	2.38
963.608	-1.62
964.336	-1.62
965.064	-1.62
965.792	2.38
966.52	2.38
967.247	0.38
967.975	2.38
968.703	1.38
969.43	1.38
970.158	0.38
970.885	-1.62
971.613	0.38
972.34	1.38
973.067	2.38
973.794	-1.62
974.521	1.38
975.248	-0.62
975.975	-0.62
976.702	1.38
977.429	1.38
978.156	1.38
978.882	0.38
979.609	1.38
980.335	-0.62
981.062	1.38
981.788	-1.62
982.514	1.38
983.24	0.38
983.967	0.38
984.693	1.38
985.419	-0.62
986.144	-1.62
986.87	1.38
987.596	-0.62
988.322	-0.62
989.047	1.38
989.773	1.38
990.498	1.38
991.224	1.38
991.949	1.38
992.674	-0.62
993.399	2.38
994.124	0.38
994.849	0.38
995.574	-0.62
996.299	-0.62
997.024	1.38
997.749	-2.62
998.473	0.38
999.198	0.38
999.922	1.38
1000.647	0.38
1001.371	3.38
1002.095	-1.62
1002.82	-1.62
1003.544	2.38
1004.268	0.38
1004.992	-1.62
1005.716	-0.62
1006.439	-1.62
1007.163	0.38
1007.887	-0.62
1008.611	0.38
1009.334	0.38
1010.058	-1.62
1010.781	1.38
1011.504	1.38
1012.228	0.38
1012.951	-0.62
1013.674	0.38
1014.397	-1.62
1015.12	-0.62
