节点500_145_QEPB04081__386__11-35-07-593.txt的数据

Date: Wed Nov 12 11:35:07 CST 2025
User: PC
Spectrometer: QEPB0408
触发模式: 0
积分时间 (秒): 1.000000E-2
Scans to average: 1
启用暗噪声校正: true
启用非线性校正: false
滑动平均宽度: 0
X轴模式: Wavelengths
Number of Pixels in Spectrum: 1044
>>>>>Begin Spectral Data<<<<<
220.843	0.12
221.644	0.12
222.444	0.12
223.244	-0.88
224.045	0.12
224.845	-0.88
225.645	0.12
226.445	1.12
227.245	0.12
228.045	-0.88
228.845	0.12
229.645	0.12
230.444	1.12
231.244	1.12
232.043	-0.88
232.843	1.12
233.642	2.12
234.442	-0.88
235.241	2.12
236.04	0.12
236.839	1.12
237.638	2.12
238.437	-0.88
239.236	0.12
240.035	1.12
240.833	3.12
241.632	1.12
242.43	3.12
243.229	0.12
244.027	2.12
244.826	3.12
245.624	0.12
246.422	1.12
247.22	2.12
248.018	3.12
248.816	3.12
249.614	2.12
250.412	3.12
251.21	1.12
252.007	4.12
252.805	1.12
253.602	2.12
254.4	1.12
255.197	3.12
255.994	4.12
256.791	2.12
257.589	3.12
258.386	2.12
259.183	2.12
259.979	6.12
260.776	3.12
261.573	5.12
262.37	2.12
263.166	3.12
263.963	6.12
264.759	4.12
265.556	3.12
266.352	5.12
267.148	8.12
267.944	8.12
268.74	5.12
269.536	7.12
270.332	7.12
271.128	6.12
271.924	6.12
272.719	10.12
273.515	5.12
274.311	10.12
275.106	9.12
275.901	7.12
276.697	10.12
277.492	9.12
278.287	7.12
279.082	10.12
279.877	10.12
280.672	10.12
281.467	8.12
282.262	9.12
283.056	11.12
283.851	11.12
284.646	9.12
285.44	10.12
286.234	10.12
287.029	10.12
287.823	12.12
288.617	10.12
289.411	12.12
290.205	8.12
290.999	9.12
291.793	10.12
292.587	9.12
293.381	10.12
294.174	9.12
294.968	10.12
295.761	9.12
296.555	8.12
297.348	9.12
298.141	9.12
298.935	9.12
299.728	9.12
300.521	7.12
301.314	8.12
302.107	6.12
302.899	8.12
303.692	9.12
304.485	11.12
305.277	9.12
306.07	8.12
306.862	9.12
307.655	8.12
308.447	7.12
309.239	8.12
310.031	6.12
310.823	7.12
311.615	6.12
312.407	8.12
313.199	7.12
313.991	6.12
314.783	5.12
315.574	8.12
316.366	6.12
317.157	4.12
317.949	3.12
318.74	1.12
319.531	5.12
320.322	2.12
321.113	6.12
321.904	6.12
322.695	5.12
323.486	4.12
324.277	2.12
325.068	4.12
325.858	3.12
326.649	4.12
327.439	5.12
328.23	4.12
329.02	3.12
329.81	5.12
330.6	3.12
331.391	3.12
332.181	3.12
332.971	4.12
333.76	2.12
334.55	4.12
335.34	3.12
336.13	1.12
336.919	3.12
337.709	2.12
338.498	3.12
339.287	3.12
340.077	4.12
340.866	3.12
341.655	4.12
342.444	2.12
343.233	3.12
344.022	2.12
344.811	4.12
345.6	3.12
346.388	2.12
347.177	5.12
347.965	3.12
348.754	2.12
349.542	2.12
350.33	2.12
351.119	4.12
351.907	2.12
352.695	2.12
353.483	0.12
354.271	3.12
355.059	4.12
355.846	5.12
356.634	0.12
357.422	2.12
358.209	5.12
358.997	1.12
359.784	3.12
360.571	2.12
361.359	3.12
362.146	2.12
362.933	1.12
363.72	4.12
364.507	2.12
365.294	3.12
366.081	2.12
366.867	2.12
367.654	3.12
368.44	1.12
369.227	3.12
370.013	4.12
370.8	4.12
371.586	3.12
372.372	2.12
373.158	1.12
373.944	4.12
374.73	1.12
375.516	2.12
376.302	-0.88
377.088	5.12
377.873	1.12
378.659	2.12
379.445	2.12
380.23	1.12
381.015	0.12
381.801	3.12
382.586	3.12
383.371	1.12
384.156	3.12
384.941	1.12
385.726	4.12
386.511	2.12
387.296	4.12
388.08	2.12
388.865	2.12
389.649	4.12
390.434	2.12
391.218	1.12
392.003	3.12
392.787	2.12
393.571	3.12
394.355	3.12
395.139	2.12
395.923	3.12
396.707	3.12
397.491	2.12
398.274	6.12
399.058	1.12
399.842	2.12
400.625	2.12
401.408	1.12
402.192	5.12
402.975	4.12
403.758	4.12
404.541	5.12
405.324	3.12
406.107	4.12
406.89	5.12
407.673	6.12
408.456	5.12
409.238	5.12
410.021	3.12
410.803	4.12
411.586	5.12
412.368	5.12
413.151	6.12
413.933	5.12
414.715	5.12
415.497	7.12
416.279	3.12
417.061	4.12
417.843	5.12
418.624	5.12
419.406	6.12
420.188	3.12
420.969	5.12
421.751	5.12
422.532	4.12
423.313	7.12
424.095	6.12
424.876	6.12
425.657	6.12
426.438	6.12
427.219	7.12
428	4.12
428.78	5.12
429.561	8.12
430.342	6.12
431.122	9.12
431.903	5.12
432.683	6.12
433.464	9.12
434.244	8.12
435.024	10.12
435.804	9.12
436.584	9.12
437.364	7.12
438.144	8.12
438.924	10.12
439.704	9.12
440.483	10.12
441.263	12.12
442.042	10.12
442.822	14.12
443.601	15.12
444.38	18.12
445.16	15.12
445.939	16.12
446.718	18.12
447.497	19.12
448.276	19.12
449.054	20.12
449.833	23.12
450.612	24.12
451.391	27.12
452.169	30.12
452.948	34.12
453.726	34.12
454.504	36.12
455.282	42.12
456.061	47.12
456.839	50.12
457.617	57.12
458.395	64.12
459.172	70.12
459.95	79.12
460.728	89.12
461.506	92.12
462.283	107.12
463.061	121.12
463.838	131.12
464.615	146.12
465.393	164.12
466.17	181.12
466.947	197.12
467.724	219.12
468.501	254.12
469.278	280.12
470.055	308.12
470.831	344.12
471.608	379.12
472.385	432.12
473.161	467.12
473.938	524.12
474.714	582.12
475.49	636.12
476.266	709.12
477.043	770.12
477.819	858.12
478.595	954.12
479.371	1042.12
480.146	1158.12
480.922	1285.12
481.698	1417.12
482.473	1555.12
483.249	1700.12
484.024	1878.12
484.8	2033.12
485.575	2263.12
486.35	2495.12
487.126	2738.12
487.901	3008.12
488.676	3310.12
489.451	3600.12
490.225	3954.12
491	4346.12
491.775	4806.12
492.55	5199.12
493.324	5693.12
494.099	6231.12
494.873	6757.12
495.647	7367.12
496.422	8016.12
497.196	8647.12
497.97	9349.12
498.744	10064.12
499.518	10784.12
500.292	11479.12
501.066	12198.12
501.839	12860.12
502.613	13545.12
503.387	14149.12
504.16	14688.12
504.934	15173.12
505.707	15475.12
506.48	15789.12
507.253	16041.12
508.027	16151.12
508.8	16120.12
509.573	16042.12
510.346	15850.12
511.118	15617.12
511.891	15267.12
512.664	14747.12
513.437	14323.12
514.209	13843.12
514.982	13318.12
515.754	12759.12
516.526	12276.12
517.298	11720.12
518.071	11175.12
518.843	10728.12
519.615	10261.12
520.387	9826.12
521.159	9468.12
521.93	9070.12
522.702	8670.12
523.474	8345.12
524.245	8054.12
525.017	7692.12
525.788	7405.12
526.56	7153.12
527.331	6848.12
528.102	6521.12
528.873	6268.12
529.644	5969.12
530.415	5721.12
531.186	5426.12
531.957	5141.12
532.728	4913.12
533.498	4644.12
534.269	4403.12
535.039	4166.12
535.81	3926.12
536.58	3721.12
537.351	3495.12
538.121	3320.12
538.891	3136.12
539.661	2970.12
540.431	2785.12
541.201	2646.12
541.971	2509.12
542.741	2379.12
543.51	2254.12
544.28	2148.12
545.05	2059.12
545.819	1928.12
546.588	1836.12
547.358	1757.12
548.127	1660.12
548.896	1581.12
549.665	1502.12
550.434	1436.12
551.203	1353.12
551.972	1284.12
552.741	1208.12
553.51	1145.12
554.278	1086.12
555.047	1021.12
555.815	976.12
556.584	913.12
557.352	865.12
558.121	823.12
558.889	767.12
559.657	730.12
560.425	684.12
561.193	651.12
561.961	611.12
562.729	580.12
563.496	547.12
564.264	515.12
565.032	489.12
565.799	453.12
566.567	430.12
567.334	404.12
568.101	396.12
568.869	359.12
569.636	338.12
570.403	324.12
571.17	299.12
571.937	284.12
572.704	269.12
573.471	249.12
574.237	240.12
575.004	222.12
575.771	210.12
576.537	206.12
577.303	192.12
578.07	182.12
578.836	164.12
579.602	157.12
580.368	150.12
581.134	141.12
581.9	134.12
582.666	126.12
583.432	121.12
584.198	110.12
584.964	109.12
585.729	105.12
586.495	100.12
587.26	87.12
588.025	89.12
588.791	79.12
589.556	76.12
590.321	73.12
591.086	67.12
591.851	62.12
592.616	64.12
593.381	60.12
594.146	53.12
594.911	53.12
595.675	48.12
596.44	49.12
597.204	41.12
597.969	46.12
598.733	41.12
599.497	37.12
600.261	39.12
601.025	38.12
601.79	36.12
602.553	30.12
603.317	34.12
604.081	28.12
604.845	26.12
605.609	30.12
606.372	27.12
607.136	24.12
607.899	20.12
608.662	21.12
609.426	21.12
610.189	23.12
610.952	22.12
611.715	17.12
612.478	20.12
613.241	16.12
614.004	18.12
614.767	16.12
615.529	16.12
616.292	18.12
617.055	13.12
617.817	14.12
618.579	15.12
619.342	10.12
620.104	12.12
620.866	13.12
621.628	12.12
622.39	12.12
623.152	12.12
623.914	10.12
624.676	9.12
625.438	10.12
626.199	9.12
626.961	10.12
627.722	8.12
628.484	9.12
629.245	8.12
630.006	10.12
630.768	9.12
631.529	6.12
632.29	8.12
633.051	5.12
633.812	6.12
634.573	6.12
635.333	7.12
636.094	9.12
636.855	5.12
637.615	5.12
638.376	6.12
639.136	5.12
639.896	7.12
640.657	5.12
641.417	4.12
642.177	3.12
642.937	5.12
643.697	3.12
644.457	4.12
645.216	5.12
645.976	3.12
646.736	5.12
647.495	5.12
648.255	5.12
649.014	3.12
649.774	4.12
650.533	7.12
651.292	1.12
652.051	2.12
652.81	4.12
653.569	4.12
654.328	3.12
655.087	2.12
655.846	3.12
656.604	2.12
657.363	3.12
658.121	2.12
658.88	2.12
659.638	4.12
660.397	3.12
661.155	4.12
661.913	3.12
662.671	4.12
663.429	2.12
664.187	2.12
664.945	2.12
665.703	2.12
666.46	3.12
667.218	2.12
667.976	2.12
668.733	0.12
669.49	1.12
670.248	3.12
671.005	4.12
671.762	4.12
672.519	2.12
673.276	3.12
674.033	-0.88
674.79	1.12
675.547	1.12
676.304	1.12
677.06	3.12
677.817	3.12
678.574	4.12
679.33	-0.88
680.086	3.12
680.843	1.12
681.599	0.12
682.355	2.12
683.111	1.12
683.867	1.12
684.623	1.12
685.379	3.12
686.135	2.12
686.89	1.12
687.646	5.12
688.402	0.12
689.157	4.12
689.912	2.12
690.668	2.12
691.423	3.12
692.178	2.12
692.933	1.12
693.688	-1.88
694.443	0.12
695.198	1.12
695.953	3.12
696.708	3.12
697.462	0.12
698.217	3.12
698.972	2.12
699.726	1.12
700.48	1.12
701.235	1.12
701.989	3.12
702.743	2.12
703.497	0.12
704.251	2.12
705.005	3.12
705.759	1.12
706.513	0.12
707.266	1.12
708.02	1.12
708.774	3.12
709.527	2.12
710.28	4.12
711.034	1.12
711.787	3.12
712.54	2.12
713.293	3.12
714.046	2.12
714.799	1.12
715.552	2.12
716.305	1.12
717.058	3.12
717.81	3.12
718.563	1.12
719.315	2.12
720.068	2.12
720.82	2.12
721.573	2.12
722.325	2.12
723.077	2.12
723.829	0.12
724.581	2.12
725.333	1.12
726.085	1.12
726.836	0.12
727.588	1.12
728.34	0.12
729.091	3.12
729.843	1.12
730.594	1.12
731.346	2.12
732.097	-0.88
732.848	1.12
733.599	1.12
734.35	1.12
735.101	2.12
735.852	0.12
736.603	0.12
737.354	1.12
738.104	1.12
738.855	1.12
739.605	1.12
740.356	1.12
741.106	2.12
741.856	2.12
742.607	2.12
743.357	3.12
744.107	5.12
744.857	1.12
745.607	4.12
746.357	1.12
747.106	3.12
747.856	1.12
748.606	3.12
749.355	2.12
750.105	1.12
750.854	2.12
751.603	1.12
752.353	4.12
753.102	3.12
753.851	3.12
754.6	3.12
755.349	1.12
756.098	4.12
756.847	4.12
757.595	2.12
758.344	1.12
759.093	4.12
759.841	2.12
760.589	2.12
761.338	3.12
762.086	2.12
762.834	3.12
763.582	2.12
764.331	2.12
765.079	3.12
765.826	5.12
766.574	4.12
767.322	3.12
768.07	2.12
768.817	5.12
769.565	4.12
770.312	4.12
771.06	4.12
771.807	4.12
772.554	1.12
773.302	5.12
774.049	5.12
774.796	3.12
775.543	5.12
776.29	2.12
777.036	5.12
777.783	4.12
778.53	5.12
779.276	3.12
780.023	4.12
780.769	4.12
781.516	6.12
782.262	7.12
783.008	3.12
783.754	5.12
784.5	4.12
785.246	6.12
785.992	6.12
786.738	5.12
787.484	5.12
788.23	4.12
788.975	3.12
789.721	7.12
790.466	4.12
791.212	6.12
791.957	6.12
792.702	6.12
793.447	4.12
794.193	6.12
794.938	5.12
795.683	2.12
796.427	6.12
797.172	3.12
797.917	4.12
798.662	3.12
799.406	6.12
800.151	7.12
800.895	5.12
801.64	5.12
802.384	4.12
803.128	5.12
803.872	5.12
804.616	2.12
805.36	5.12
806.104	4.12
806.848	3.12
807.592	2.12
808.336	3.12
809.079	4.12
809.823	5.12
810.566	5.12
811.31	3.12
812.053	2.12
812.796	4.12
813.539	3.12
814.283	1.12
815.026	4.12
815.769	2.12
816.511	1.12
817.254	3.12
817.997	1.12
818.74	5.12
819.482	1.12
820.225	1.12
820.967	0.12
821.71	3.12
822.452	3.12
823.194	3.12
823.936	4.12
824.678	3.12
825.42	2.12
826.162	4.12
826.904	2.12
827.646	2.12
828.388	3.12
829.129	2.12
829.871	3.12
830.612	2.12
831.354	1.12
832.095	1.12
832.836	2.12
833.577	1.12
834.319	3.12
835.06	0.12
835.801	1.12
836.542	3.12
837.282	3.12
838.023	3.12
838.764	0.12
839.504	3.12
840.245	1.12
840.985	3.12
841.726	2.12
842.466	2.12
843.206	1.12
843.946	3.12
844.687	3.12
845.427	2.12
846.166	1.12
846.906	3.12
847.646	4.12
848.386	3.12
849.125	2.12
849.865	1.12
850.605	1.12
851.344	1.12
852.083	0.12
852.823	-0.88
853.562	2.12
854.301	2.12
855.04	1.12
855.779	2.12
856.518	-0.88
857.257	3.12
857.995	3.12
858.734	2.12
859.473	1.12
860.211	0.12
860.95	2.12
861.688	2.12
862.426	0.12
863.165	0.12
863.903	1.12
864.641	1.12
865.379	0.12
866.117	0.12
866.855	-0.88
867.593	1.12
868.33	0.12
869.068	1.12
869.806	-0.88
870.543	2.12
871.28	1.12
872.018	0.12
872.755	0.12
873.492	0.12
874.229	3.12
874.967	2.12
875.703	0.12
876.44	2.12
877.177	-0.88
877.914	1.12
878.651	2.12
879.387	1.12
880.124	2.12
880.86	-1.88
881.597	2.12
882.333	-0.88
883.069	2.12
883.806	0.12
884.542	-0.88
885.278	0.12
886.014	0.12
886.749	0.12
887.485	1.12
888.221	2.12
888.957	-1.88
889.692	3.12
890.428	0.12
891.163	-0.88
891.899	-1.88
892.634	-0.88
893.369	1.12
894.104	1.12
894.839	1.12
895.574	2.12
896.309	-1.88
897.044	1.12
897.779	0.12
898.514	0.12
899.248	0.12
899.983	-0.88
900.717	-0.88
901.452	-1.88
902.186	1.12
902.92	-1.88
903.654	1.12
904.389	1.12
905.123	1.12
905.857	-0.88
906.59	-0.88
907.324	-0.88
908.058	-0.88
908.792	1.12
909.525	-1.88
910.259	0.12
910.992	1.12
911.726	0.12
912.459	0.12
913.192	0.12
913.925	-0.88
914.658	-1.88
915.391	0.12
916.124	1.12
916.857	0.12
917.59	0.12
918.323	-1.88
919.055	-0.88
919.788	0.12
920.521	1.12
921.253	2.12
921.985	-0.88
922.718	0.12
923.45	0.12
924.182	1.12
924.914	1.12
925.646	1.12
926.378	1.12
927.11	0.12
927.841	0.12
928.573	-1.88
929.305	0.12
930.036	1.12
930.768	0.12
931.499	0.12
932.23	0.12
932.962	-1.88
933.693	-1.88
934.424	-1.88
935.155	0.12
935.886	0.12
936.617	2.12
937.348	-1.88
938.078	3.12
938.809	1.12
939.54	0.12
940.27	-0.88
941.001	-0.88
941.731	0.12
942.461	-0.88
943.191	-0.88
943.922	-0.88
944.652	0.12
945.382	1.12
946.112	1.12
946.841	-1.88
947.571	-0.88
948.301	1.12
949.031	0.12
949.76	1.12
950.49	1.12
951.219	1.12
951.948	1.12
952.678	0.12
953.407	1.12
954.136	0.12
954.865	-1.88
955.594	-0.88
956.323	-1.88
957.052	-1.88
957.78	0.12
958.509	1.12
959.238	-1.88
959.966	0.12
960.695	-1.88
961.423	0.12
962.151	-0.88
962.88	-0.88
963.608	-0.88
964.336	2.12
965.064	-0.88
965.792	0.12
966.52	-2.88
967.247	1.12
967.975	-0.88
968.703	1.12
969.43	0.12
970.158	0.12
970.885	-0.88
971.613	1.12
972.34	0.12
973.067	0.12
973.794	-0.88
974.521	0.12
975.248	0.12
975.975	-1.88
976.702	0.12
977.429	2.12
978.156	0.12
978.882	-1.88
979.609	-1.88
980.335	-1.88
981.062	1.12
981.788	1.12
982.514	-1.88
983.24	1.12
983.967	2.12
984.693	0.12
985.419	-2.88
986.144	-0.88
986.87	-0.88
987.596	-0.88
988.322	-0.88
989.047	1.12
989.773	0.12
990.498	-0.88
991.224	3.12
991.949	1.12
992.674	-0.88
993.399	0.12
994.124	1.12
994.849	0.12
995.574	-0.88
996.299	-0.88
997.024	-0.88
997.749	-0.88
998.473	-0.88
999.198	-1.88
999.922	1.12
1000.647	0.12
1001.371	3.12
1002.095	0.12
1002.82	0.12
1003.544	-1.88
1004.268	-1.88
1004.992	1.12
1005.716	0.12
1006.439	-0.88
1007.163	-0.88
1007.887	-0.88
1008.611	0.12
1009.334	1.12
1010.058	0.12
1010.781	0.12
1011.504	1.12
1012.228	1.12
1012.951	0.12
1013.674	-0.88
1014.397	-0.88
1015.12	0.12
