节点500_145_QEPB04081__601__11-38-30-360.txt的数据

Date: Wed Nov 12 11:38:30 CST 2025
User: PC
Spectrometer: QEPB0408
触发模式: 0
积分时间 (秒): 1.000000E-2
Scans to average: 1
启用暗噪声校正: true
启用非线性校正: false
滑动平均宽度: 0
X轴模式: Wavelengths
Number of Pixels in Spectrum: 1044
>>>>>Begin Spectral Data<<<<<
220.843	1.88
221.644	-0.12
222.444	-1.12
223.244	-0.12
224.045	0.88
224.845	0.88
225.645	-3.12
226.445	0.88
227.245	0.88
228.045	0.88
228.845	1.88
229.645	-0.12
230.444	0.88
231.244	-0.12
232.043	1.88
232.843	1.88
233.642	1.88
234.442	3.88
235.241	2.88
236.04	1.88
236.839	-0.12
237.638	-0.12
238.437	1.88
239.236	2.88
240.035	-0.12
240.833	0.88
241.632	0.88
242.43	2.88
243.229	-0.12
244.027	1.88
244.826	1.88
245.624	2.88
246.422	2.88
247.22	2.88
248.018	3.88
248.816	2.88
249.614	2.88
250.412	2.88
251.21	4.88
252.007	3.88
252.805	-0.12
253.602	3.88
254.4	3.88
255.197	2.88
255.994	3.88
256.791	5.88
257.589	4.88
258.386	3.88
259.183	5.88
259.979	3.88
260.776	4.88
261.573	3.88
262.37	4.88
263.166	4.88
263.963	4.88
264.759	5.88
265.556	4.88
266.352	5.88
267.148	7.88
267.944	5.88
268.74	6.88
269.536	5.88
270.332	6.88
271.128	6.88
271.924	9.88
272.719	5.88
273.515	7.88
274.311	8.88
275.106	7.88
275.901	9.88
276.697	10.88
277.492	7.88
278.287	7.88
279.082	6.88
279.877	9.88
280.672	6.88
281.467	10.88
282.262	7.88
283.056	8.88
283.851	6.88
284.646	9.88
285.44	10.88
286.234	9.88
287.029	11.88
287.823	11.88
288.617	10.88
289.411	11.88
290.205	9.88
290.999	9.88
291.793	9.88
292.587	9.88
293.381	8.88
294.174	8.88
294.968	10.88
295.761	7.88
296.555	10.88
297.348	7.88
298.141	10.88
298.935	10.88
299.728	9.88
300.521	10.88
301.314	7.88
302.107	9.88
302.899	7.88
303.692	10.88
304.485	9.88
305.277	6.88
306.07	8.88
306.862	7.88
307.655	8.88
308.447	7.88
309.239	5.88
310.031	9.88
310.823	6.88
311.615	5.88
312.407	5.88
313.199	9.88
313.991	6.88
314.783	7.88
315.574	5.88
316.366	5.88
317.157	7.88
317.949	7.88
318.74	7.88
319.531	5.88
320.322	4.88
321.113	4.88
321.904	5.88
322.695	5.88
323.486	5.88
324.277	3.88
325.068	4.88
325.858	5.88
326.649	3.88
327.439	3.88
328.23	4.88
329.02	5.88
329.81	3.88
330.6	3.88
331.391	3.88
332.181	5.88
332.971	2.88
333.76	5.88
334.55	4.88
335.34	5.88
336.13	3.88
336.919	3.88
337.709	3.88
338.498	2.88
339.287	2.88
340.077	3.88
340.866	3.88
341.655	4.88
342.444	3.88
343.233	4.88
344.022	3.88
344.811	3.88
345.6	1.88
346.388	4.88
347.177	1.88
347.965	4.88
348.754	2.88
349.542	3.88
350.33	3.88
351.119	3.88
351.907	3.88
352.695	2.88
353.483	1.88
354.271	1.88
355.059	2.88
355.846	2.88
356.634	2.88
357.422	4.88
358.209	2.88
358.997	2.88
359.784	4.88
360.571	4.88
361.359	3.88
362.146	1.88
362.933	1.88
363.72	2.88
364.507	2.88
365.294	3.88
366.081	3.88
366.867	2.88
367.654	2.88
368.44	1.88
369.227	3.88
370.013	-0.12
370.8	3.88
371.586	1.88
372.372	4.88
373.158	2.88
373.944	3.88
374.73	3.88
375.516	3.88
376.302	4.88
377.088	1.88
377.873	3.88
378.659	0.88
379.445	4.88
380.23	2.88
381.015	4.88
381.801	2.88
382.586	2.88
383.371	2.88
384.156	3.88
384.941	2.88
385.726	4.88
386.511	3.88
387.296	1.88
388.08	2.88
388.865	3.88
389.649	3.88
390.434	3.88
391.218	2.88
392.003	2.88
392.787	5.88
393.571	2.88
394.355	4.88
395.139	4.88
395.923	3.88
396.707	2.88
397.491	2.88
398.274	3.88
399.058	2.88
399.842	4.88
400.625	5.88
401.408	5.88
402.192	4.88
402.975	4.88
403.758	2.88
404.541	3.88
405.324	2.88
406.107	5.88
406.89	2.88
407.673	3.88
408.456	1.88
409.238	5.88
410.021	3.88
410.803	5.88
411.586	3.88
412.368	3.88
413.151	5.88
413.933	3.88
414.715	3.88
415.497	4.88
416.279	4.88
417.061	4.88
417.843	5.88
418.624	5.88
419.406	6.88
420.188	7.88
420.969	3.88
421.751	6.88
422.532	5.88
423.313	7.88
424.095	5.88
424.876	6.88
425.657	5.88
426.438	7.88
427.219	5.88
428	6.88
428.78	6.88
429.561	4.88
430.342	6.88
431.122	6.88
431.903	9.88
432.683	10.88
433.464	9.88
434.244	10.88
435.024	9.88
435.804	8.88
436.584	10.88
437.364	9.88
438.144	12.88
438.924	8.88
439.704	10.88
440.483	10.88
441.263	10.88
442.042	13.88
442.822	14.88
443.601	13.88
444.38	14.88
445.16	16.88
445.939	17.88
446.718	18.88
447.497	21.88
448.276	23.88
449.054	25.88
449.833	25.88
450.612	25.88
451.391	29.88
452.169	29.88
452.948	37.88
453.726	37.88
454.504	41.88
455.282	47.88
456.061	50.88
456.839	49.88
457.617	59.88
458.395	65.88
459.172	75.88
459.95	80.88
460.728	87.88
461.506	99.88
462.283	117.88
463.061	122.88
463.838	138.88
464.615	157.88
465.393	176.88
466.17	191.88
466.947	212.88
467.724	235.88
468.501	269.88
469.278	294.88
470.055	319.88
470.831	351.88
471.608	394.88
472.385	441.88
473.161	483.88
473.938	526.88
474.714	587.88
475.49	651.88
476.266	718.88
477.043	785.88
477.819	879.88
478.595	956.88
479.371	1055.88
480.146	1153.88
480.922	1256.88
481.698	1384.88
482.473	1535.88
483.249	1663.88
484.024	1813.88
484.8	2011.88
485.575	2182.88
486.35	2383.88
487.126	2634.88
487.901	2873.88
488.676	3133.88
489.451	3445.88
490.225	3757.88
491	4121.88
491.775	4467.88
492.55	4865.88
493.324	5317.88
494.099	5776.88
494.873	6293.88
495.647	6817.88
496.422	7375.88
497.196	7946.88
497.97	8545.88
498.744	9222.88
499.518	9885.88
500.292	10535.88
501.066	11210.88
501.839	11809.88
502.613	12434.88
503.387	12960.88
504.16	13565.88
504.934	14049.88
505.707	14462.88
506.48	14773.88
507.253	14977.88
508.027	15171.88
508.8	15318.88
509.573	15235.88
510.346	15172.88
511.118	14950.88
511.891	14712.88
512.664	14273.88
513.437	13975.88
514.209	13515.88
514.982	13090.88
515.754	12558.88
516.526	12096.88
517.298	11613.88
518.071	11139.88
518.843	10681.88
519.615	10250.88
520.387	9788.88
521.159	9390.88
521.93	9030.88
522.702	8690.88
523.474	8334.88
524.245	8002.88
525.017	7712.88
525.788	7382.88
526.56	7072.88
527.331	6789.88
528.102	6545.88
528.873	6258.88
529.644	5958.88
530.415	5748.88
531.186	5462.88
531.957	5219.88
532.728	4937.88
533.498	4720.88
534.269	4451.88
535.039	4237.88
535.81	4008.88
536.58	3773.88
537.351	3597.88
538.121	3384.88
538.891	3220.88
539.661	3017.88
540.431	2864.88
541.201	2691.88
541.971	2570.88
542.741	2449.88
543.51	2308.88
544.28	2184.88
545.05	2086.88
545.819	1964.88
546.588	1874.88
547.358	1786.88
548.127	1716.88
548.896	1611.88
549.665	1540.88
550.434	1472.88
551.203	1387.88
551.972	1329.88
552.741	1261.88
553.51	1175.88
554.278	1112.88
555.047	1058.88
555.815	997.88
556.584	937.88
557.352	899.88
558.121	841.88
558.889	793.88
559.657	745.88
560.425	708.88
561.193	662.88
561.961	628.88
562.729	594.88
563.496	567.88
564.264	528.88
565.032	501.88
565.799	469.88
566.567	441.88
567.334	421.88
568.101	396.88
568.869	374.88
569.636	349.88
570.403	336.88
571.17	316.88
571.937	296.88
572.704	273.88
573.471	271.88
574.237	241.88
575.004	230.88
575.771	222.88
576.537	207.88
577.303	197.88
578.07	184.88
578.836	170.88
579.602	162.88
580.368	152.88
581.134	144.88
581.9	136.88
582.666	131.88
583.432	126.88
584.198	122.88
584.964	112.88
585.729	106.88
586.495	99.88
587.26	96.88
588.025	89.88
588.791	83.88
589.556	78.88
590.321	72.88
591.086	70.88
591.851	69.88
592.616	64.88
593.381	60.88
594.146	54.88
594.911	51.88
595.675	53.88
596.44	49.88
597.204	47.88
597.969	43.88
598.733	43.88
599.497	42.88
600.261	39.88
601.025	38.88
601.79	35.88
602.553	34.88
603.317	31.88
604.081	28.88
604.845	30.88
605.609	28.88
606.372	29.88
607.136	25.88
607.899	25.88
608.662	25.88
609.426	19.88
610.189	24.88
610.952	21.88
611.715	19.88
612.478	19.88
613.241	18.88
614.004	18.88
614.767	18.88
615.529	14.88
616.292	18.88
617.055	14.88
617.817	17.88
618.579	13.88
619.342	15.88
620.104	12.88
620.866	9.88
621.628	12.88
622.39	10.88
623.152	11.88
623.914	10.88
624.676	9.88
625.438	11.88
626.199	13.88
626.961	11.88
627.722	9.88
628.484	7.88
629.245	8.88
630.006	11.88
630.768	8.88
631.529	9.88
632.29	7.88
633.051	8.88
633.812	8.88
634.573	7.88
635.333	7.88
636.094	3.88
636.855	7.88
637.615	6.88
638.376	4.88
639.136	8.88
639.896	3.88
640.657	7.88
641.417	5.88
642.177	5.88
642.937	6.88
643.697	6.88
644.457	7.88
645.216	2.88
645.976	6.88
646.736	5.88
647.495	1.88
648.255	5.88
649.014	3.88
649.774	5.88
650.533	5.88
651.292	5.88
652.051	5.88
652.81	4.88
653.569	3.88
654.328	5.88
655.087	3.88
655.846	4.88
656.604	2.88
657.363	6.88
658.121	1.88
658.88	3.88
659.638	4.88
660.397	3.88
661.155	2.88
661.913	0.88
662.671	4.88
663.429	5.88
664.187	1.88
664.945	3.88
665.703	3.88
666.46	3.88
667.218	3.88
667.976	4.88
668.733	2.88
669.49	3.88
670.248	2.88
671.005	3.88
671.762	2.88
672.519	2.88
673.276	1.88
674.033	3.88
674.79	1.88
675.547	1.88
676.304	2.88
677.06	0.88
677.817	2.88
678.574	3.88
679.33	-2.12
680.086	2.88
680.843	3.88
681.599	3.88
682.355	3.88
683.111	2.88
683.867	2.88
684.623	2.88
685.379	2.88
686.135	1.88
686.89	5.88
687.646	2.88
688.402	2.88
689.157	3.88
689.912	1.88
690.668	1.88
691.423	2.88
692.178	2.88
692.933	2.88
693.688	2.88
694.443	2.88
695.198	3.88
695.953	0.88
696.708	1.88
697.462	1.88
698.217	2.88
698.972	1.88
699.726	3.88
700.48	1.88
701.235	2.88
701.989	0.88
702.743	-0.12
703.497	2.88
704.251	0.88
705.005	2.88
705.759	-0.12
706.513	4.88
707.266	2.88
708.02	1.88
708.774	-1.12
709.527	0.88
710.28	4.88
711.034	1.88
711.787	2.88
712.54	3.88
713.293	-0.12
714.046	3.88
714.799	0.88
715.552	2.88
716.305	2.88
717.058	3.88
717.81	2.88
718.563	2.88
719.315	3.88
720.068	2.88
720.82	1.88
721.573	1.88
722.325	5.88
723.077	1.88
723.829	2.88
724.581	0.88
725.333	3.88
726.085	1.88
726.836	2.88
727.588	2.88
728.34	2.88
729.091	1.88
729.843	2.88
730.594	2.88
731.346	1.88
732.097	-1.12
732.848	0.88
733.599	1.88
734.35	2.88
735.101	3.88
735.852	-0.12
736.603	3.88
737.354	2.88
738.104	1.88
738.855	2.88
739.605	2.88
740.356	4.88
741.106	1.88
741.856	1.88
742.607	3.88
743.357	3.88
744.107	1.88
744.857	2.88
745.607	2.88
746.357	3.88
747.106	2.88
747.856	3.88
748.606	4.88
749.355	2.88
750.105	2.88
750.854	3.88
751.603	2.88
752.353	3.88
753.102	1.88
753.851	3.88
754.6	4.88
755.349	2.88
756.098	3.88
756.847	3.88
757.595	4.88
758.344	3.88
759.093	2.88
759.841	3.88
760.589	2.88
761.338	1.88
762.086	2.88
762.834	3.88
763.582	2.88
764.331	2.88
765.079	2.88
765.826	4.88
766.574	2.88
767.322	1.88
768.07	2.88
768.817	1.88
769.565	3.88
770.312	2.88
771.06	5.88
771.807	4.88
772.554	5.88
773.302	3.88
774.049	4.88
774.796	3.88
775.543	5.88
776.29	3.88
777.036	4.88
777.783	3.88
778.53	3.88
779.276	6.88
780.023	4.88
780.769	6.88
781.516	6.88
782.262	5.88
783.008	5.88
783.754	4.88
784.5	4.88
785.246	6.88
785.992	3.88
786.738	2.88
787.484	4.88
788.23	4.88
788.975	4.88
789.721	5.88
790.466	2.88
791.212	4.88
791.957	4.88
792.702	3.88
793.447	5.88
794.193	3.88
794.938	6.88
795.683	3.88
796.427	4.88
797.172	5.88
797.917	4.88
798.662	3.88
799.406	3.88
800.151	6.88
800.895	5.88
801.64	4.88
802.384	3.88
803.128	3.88
803.872	2.88
804.616	4.88
805.36	6.88
806.104	4.88
806.848	5.88
807.592	2.88
808.336	5.88
809.079	7.88
809.823	6.88
810.566	2.88
811.31	2.88
812.053	4.88
812.796	2.88
813.539	4.88
814.283	3.88
815.026	5.88
815.769	2.88
816.511	2.88
817.254	4.88
817.997	2.88
818.74	3.88
819.482	4.88
820.225	3.88
820.967	5.88
821.71	4.88
822.452	4.88
823.194	3.88
823.936	3.88
824.678	1.88
825.42	4.88
826.162	4.88
826.904	2.88
827.646	1.88
828.388	3.88
829.129	3.88
829.871	2.88
830.612	2.88
831.354	1.88
832.095	2.88
832.836	1.88
833.577	3.88
834.319	2.88
835.06	1.88
835.801	1.88
836.542	2.88
837.282	2.88
838.023	3.88
838.764	5.88
839.504	3.88
840.245	-0.12
840.985	2.88
841.726	4.88
842.466	2.88
843.206	3.88
843.946	2.88
844.687	3.88
845.427	2.88
846.166	1.88
846.906	0.88
847.646	2.88
848.386	3.88
849.125	1.88
849.865	0.88
850.605	3.88
851.344	2.88
852.083	2.88
852.823	2.88
853.562	1.88
854.301	1.88
855.04	1.88
855.779	1.88
856.518	1.88
857.257	0.88
857.995	1.88
858.734	1.88
859.473	2.88
860.211	2.88
860.95	1.88
861.688	0.88
862.426	1.88
863.165	0.88
863.903	3.88
864.641	1.88
865.379	-0.12
866.117	3.88
866.855	-0.12
867.593	1.88
868.33	2.88
869.068	2.88
869.806	1.88
870.543	0.88
871.28	2.88
872.018	0.88
872.755	2.88
873.492	0.88
874.229	2.88
874.967	1.88
875.703	0.88
876.44	2.88
877.177	1.88
877.914	2.88
878.651	1.88
879.387	3.88
880.124	-1.12
880.86	2.88
881.597	2.88
882.333	2.88
883.069	-1.12
883.806	1.88
884.542	2.88
885.278	2.88
886.014	1.88
886.749	0.88
887.485	0.88
888.221	-0.12
888.957	-1.12
889.692	0.88
890.428	0.88
891.163	0.88
891.899	1.88
892.634	1.88
893.369	1.88
894.104	0.88
894.839	2.88
895.574	0.88
896.309	1.88
897.044	-0.12
897.779	-1.12
898.514	-1.12
899.248	0.88
899.983	0.88
900.717	-1.12
901.452	2.88
902.186	-0.12
902.92	0.88
903.654	1.88
904.389	-0.12
905.123	0.88
905.857	-0.12
906.59	0.88
907.324	1.88
908.058	-1.12
908.792	-0.12
909.525	1.88
910.259	1.88
910.992	-1.12
911.726	2.88
912.459	2.88
913.192	-1.12
913.925	2.88
914.658	0.88
915.391	0.88
916.124	0.88
916.857	0.88
917.59	0.88
918.323	1.88
919.055	1.88
919.788	1.88
920.521	0.88
921.253	-0.12
921.985	0.88
922.718	0.88
923.45	0.88
924.182	-0.12
924.914	-1.12
925.646	1.88
926.378	0.88
927.11	0.88
927.841	0.88
928.573	-1.12
929.305	1.88
930.036	-0.12
930.768	-0.12
931.499	3.88
932.23	2.88
932.962	1.88
933.693	1.88
934.424	1.88
935.155	-0.12
935.886	1.88
936.617	0.88
937.348	0.88
938.078	2.88
938.809	1.88
939.54	1.88
940.27	-0.12
941.001	-1.12
941.731	1.88
942.461	0.88
943.191	-0.12
943.922	0.88
944.652	-1.12
945.382	-0.12
946.112	0.88
946.841	0.88
947.571	1.88
948.301	1.88
949.031	2.88
949.76	1.88
950.49	1.88
951.219	-0.12
951.948	0.88
952.678	0.88
953.407	-1.12
954.136	-2.12
954.865	1.88
955.594	0.88
956.323	2.88
957.052	0.88
957.78	1.88
958.509	1.88
959.238	-0.12
959.966	-0.12
960.695	2.88
961.423	1.88
962.151	1.88
962.88	-1.12
963.608	0.88
964.336	-0.12
965.064	3.88
965.792	-1.12
966.52	-0.12
967.247	1.88
967.975	-0.12
968.703	-0.12
969.43	0.88
970.158	-0.12
970.885	0.88
971.613	1.88
972.34	3.88
973.067	1.88
973.794	0.88
974.521	-0.12
975.248	1.88
975.975	1.88
976.702	0.88
977.429	1.88
978.156	1.88
978.882	1.88
979.609	0.88
980.335	1.88
981.062	1.88
981.788	1.88
982.514	1.88
983.24	-0.12
983.967	2.88
984.693	-1.12
985.419	2.88
986.144	-1.12
986.87	0.88
987.596	0.88
988.322	-1.12
989.047	1.88
989.773	-0.12
990.498	0.88
991.224	0.88
991.949	2.88
992.674	0.88
993.399	-0.12
994.124	0.88
994.849	2.88
995.574	1.88
996.299	0.88
997.024	2.88
997.749	0.88
998.473	-0.12
999.198	-1.12
999.922	-0.12
1000.647	2.88
1001.371	2.88
1002.095	-2.12
1002.82	-0.12
1003.544	-1.12
1004.268	-0.12
1004.992	0.88
1005.716	-2.12
1006.439	-2.12
1007.163	1.88
1007.887	-0.12
1008.611	2.88
1009.334	-0.12
1010.058	1.88
1010.781	-0.12
1011.504	-0.12
1012.228	-1.12
1012.951	-0.12
1013.674	0.88
1014.397	0.88
1015.12	-1.12
