节点500_145_QEPB04081__320__11-34-04-491.txt的数据

Date: Wed Nov 12 11:34:04 CST 2025
User: PC
Spectrometer: QEPB0408
触发模式: 0
积分时间 (秒): 1.000000E-2
Scans to average: 1
启用暗噪声校正: true
启用非线性校正: false
滑动平均宽度: 0
X轴模式: Wavelengths
Number of Pixels in Spectrum: 1044
>>>>>Begin Spectral Data<<<<<
220.843	-2.12
221.644	-0.12
222.444	-0.12
223.244	0.88
224.045	-0.12
224.845	0.88
225.645	-1.12
226.445	-0.12
227.245	0.88
228.045	0.88
228.845	-1.12
229.645	-0.12
230.444	-1.12
231.244	1.88
232.043	1.88
232.843	-1.12
233.642	-1.12
234.442	-1.12
235.241	0.88
236.04	0.88
236.839	1.88
237.638	-1.12
238.437	-0.12
239.236	1.88
240.035	-1.12
240.833	1.88
241.632	0.88
242.43	0.88
243.229	0.88
244.027	-2.12
244.826	-0.12
245.624	1.88
246.422	-0.12
247.22	-0.12
248.018	2.88
248.816	1.88
249.614	2.88
250.412	0.88
251.21	1.88
252.007	1.88
252.805	0.88
253.602	-0.12
254.4	2.88
255.197	1.88
255.994	0.88
256.791	0.88
257.589	5.88
258.386	3.88
259.183	1.88
259.979	4.88
260.776	2.88
261.573	6.88
262.37	3.88
263.166	2.88
263.963	1.88
264.759	4.88
265.556	3.88
266.352	3.88
267.148	4.88
267.944	4.88
268.74	6.88
269.536	5.88
270.332	4.88
271.128	8.88
271.924	6.88
272.719	6.88
273.515	4.88
274.311	7.88
275.106	8.88
275.901	8.88
276.697	7.88
277.492	6.88
278.287	8.88
279.082	5.88
279.877	6.88
280.672	9.88
281.467	10.88
282.262	8.88
283.056	8.88
283.851	6.88
284.646	10.88
285.44	9.88
286.234	9.88
287.029	9.88
287.823	9.88
288.617	9.88
289.411	10.88
290.205	8.88
290.999	10.88
291.793	10.88
292.587	8.88
293.381	9.88
294.174	10.88
294.968	11.88
295.761	8.88
296.555	8.88
297.348	9.88
298.141	9.88
298.935	10.88
299.728	7.88
300.521	10.88
301.314	7.88
302.107	8.88
302.899	8.88
303.692	7.88
304.485	6.88
305.277	4.88
306.07	7.88
306.862	6.88
307.655	6.88
308.447	6.88
309.239	3.88
310.031	6.88
310.823	5.88
311.615	5.88
312.407	3.88
313.199	2.88
313.991	4.88
314.783	6.88
315.574	6.88
316.366	4.88
317.157	4.88
317.949	5.88
318.74	3.88
319.531	5.88
320.322	0.88
321.113	7.88
321.904	0.88
322.695	3.88
323.486	1.88
324.277	4.88
325.068	2.88
325.858	6.88
326.649	3.88
327.439	2.88
328.23	5.88
329.02	2.88
329.81	2.88
330.6	3.88
331.391	2.88
332.181	3.88
332.971	2.88
333.76	4.88
334.55	1.88
335.34	3.88
336.13	4.88
336.919	0.88
337.709	3.88
338.498	2.88
339.287	4.88
340.077	1.88
340.866	0.88
341.655	2.88
342.444	0.88
343.233	-0.12
344.022	2.88
344.811	1.88
345.6	1.88
346.388	1.88
347.177	3.88
347.965	2.88
348.754	0.88
349.542	1.88
350.33	2.88
351.119	2.88
351.907	2.88
352.695	2.88
353.483	0.88
354.271	3.88
355.059	2.88
355.846	4.88
356.634	-0.12
357.422	3.88
358.209	2.88
358.997	3.88
359.784	1.88
360.571	3.88
361.359	3.88
362.146	2.88
362.933	-0.12
363.72	1.88
364.507	2.88
365.294	5.88
366.081	0.88
366.867	3.88
367.654	0.88
368.44	1.88
369.227	2.88
370.013	1.88
370.8	1.88
371.586	0.88
372.372	1.88
373.158	2.88
373.944	1.88
374.73	0.88
375.516	-0.12
376.302	1.88
377.088	2.88
377.873	1.88
378.659	1.88
379.445	-0.12
380.23	1.88
381.015	-0.12
381.801	3.88
382.586	2.88
383.371	2.88
384.156	2.88
384.941	1.88
385.726	2.88
386.511	-0.12
387.296	2.88
388.08	1.88
388.865	0.88
389.649	3.88
390.434	2.88
391.218	1.88
392.003	2.88
392.787	2.88
393.571	2.88
394.355	3.88
395.139	4.88
395.923	2.88
396.707	5.88
397.491	-1.12
398.274	1.88
399.058	1.88
399.842	1.88
400.625	1.88
401.408	4.88
402.192	1.88
402.975	3.88
403.758	2.88
404.541	1.88
405.324	3.88
406.107	4.88
406.89	1.88
407.673	5.88
408.456	2.88
409.238	2.88
410.021	3.88
410.803	5.88
411.586	3.88
412.368	5.88
413.151	1.88
413.933	3.88
414.715	3.88
415.497	3.88
416.279	6.88
417.061	4.88
417.843	3.88
418.624	1.88
419.406	3.88
420.188	4.88
420.969	4.88
421.751	6.88
422.532	2.88
423.313	4.88
424.095	3.88
424.876	4.88
425.657	5.88
426.438	6.88
427.219	5.88
428	7.88
428.78	4.88
429.561	6.88
430.342	4.88
431.122	7.88
431.903	7.88
432.683	5.88
433.464	6.88
434.244	7.88
435.024	9.88
435.804	7.88
436.584	10.88
437.364	7.88
438.144	6.88
438.924	11.88
439.704	8.88
440.483	11.88
441.263	9.88
442.042	10.88
442.822	9.88
443.601	13.88
444.38	12.88
445.16	12.88
445.939	16.88
446.718	19.88
447.497	15.88
448.276	18.88
449.054	20.88
449.833	22.88
450.612	23.88
451.391	21.88
452.169	27.88
452.948	30.88
453.726	33.88
454.504	38.88
455.282	38.88
456.061	42.88
456.839	44.88
457.617	49.88
458.395	57.88
459.172	62.88
459.95	71.88
460.728	79.88
461.506	91.88
462.283	98.88
463.061	116.88
463.838	117.88
464.615	133.88
465.393	146.88
466.17	168.88
466.947	189.88
467.724	212.88
468.501	231.88
469.278	257.88
470.055	292.88
470.831	319.88
471.608	354.88
472.385	400.88
473.161	442.88
473.938	488.88
474.714	538.88
475.49	601.88
476.266	669.88
477.043	742.88
477.819	811.88
478.595	917.88
479.371	997.88
480.146	1102.88
480.922	1233.88
481.698	1347.88
482.473	1493.88
483.249	1629.88
484.024	1797.88
484.8	1997.88
485.575	2196.88
486.35	2412.88
487.126	2669.88
487.901	2915.88
488.676	3192.88
489.451	3554.88
490.225	3866.88
491	4264.88
491.775	4672.88
492.55	5105.88
493.324	5617.88
494.099	6181.88
494.873	6685.88
495.647	7306.88
496.422	7949.88
497.196	8570.88
497.97	9255.88
498.744	9937.88
499.518	10680.88
500.292	11382.88
501.066	12086.88
501.839	12726.88
502.613	13393.88
503.387	13961.88
504.16	14485.88
504.934	14958.88
505.707	15303.88
506.48	15543.88
507.253	15710.88
508.027	15789.88
508.8	15706.88
509.573	15616.88
510.346	15409.88
511.118	15067.88
511.891	14751.88
512.664	14266.88
513.437	13805.88
514.209	13284.88
514.982	12735.88
515.754	12256.88
516.526	11722.88
517.298	11245.88
518.071	10670.88
518.843	10232.88
519.615	9784.88
520.387	9392.88
521.159	9004.88
521.93	8654.88
522.702	8301.88
523.474	8005.88
524.245	7665.88
525.017	7371.88
525.788	7088.88
526.56	6790.88
527.331	6501.88
528.102	6224.88
528.873	5933.88
529.644	5672.88
530.415	5440.88
531.186	5170.88
531.957	4892.88
532.728	4659.88
533.498	4430.88
534.269	4151.88
535.039	3941.88
535.81	3712.88
536.58	3505.88
537.351	3323.88
538.121	3167.88
538.891	2965.88
539.661	2806.88
540.431	2644.88
541.201	2515.88
541.971	2362.88
542.741	2247.88
543.51	2126.88
544.28	2025.88
545.05	1921.88
545.819	1835.88
546.588	1755.88
547.358	1642.88
548.127	1582.88
548.896	1495.88
549.665	1434.88
550.434	1340.88
551.203	1276.88
551.972	1205.88
552.741	1163.88
553.51	1085.88
554.278	1031.88
555.047	958.88
555.815	914.88
556.584	868.88
557.352	813.88
558.121	765.88
558.889	722.88
559.657	682.88
560.425	636.88
561.193	606.88
561.961	581.88
562.729	546.88
563.496	507.88
564.264	485.88
565.032	452.88
565.799	424.88
566.567	402.88
567.334	379.88
568.101	364.88
568.869	343.88
569.636	318.88
570.403	296.88
571.17	280.88
571.937	271.88
572.704	248.88
573.471	236.88
574.237	224.88
575.004	212.88
575.771	200.88
576.537	187.88
577.303	178.88
578.07	166.88
578.836	156.88
579.602	146.88
580.368	140.88
581.134	132.88
581.9	127.88
582.666	114.88
583.432	111.88
584.198	102.88
584.964	102.88
585.729	95.88
586.495	87.88
587.26	85.88
588.025	78.88
588.791	74.88
589.556	73.88
590.321	64.88
591.086	60.88
591.851	60.88
592.616	57.88
593.381	52.88
594.146	49.88
594.911	48.88
595.675	44.88
596.44	48.88
597.204	41.88
597.969	40.88
598.733	39.88
599.497	37.88
600.261	33.88
601.025	29.88
601.79	34.88
602.553	28.88
603.317	26.88
604.081	30.88
604.845	24.88
605.609	26.88
606.372	23.88
607.136	26.88
607.899	21.88
608.662	18.88
609.426	19.88
610.189	18.88
610.952	17.88
611.715	17.88
612.478	19.88
613.241	16.88
614.004	15.88
614.767	14.88
615.529	11.88
616.292	13.88
617.055	16.88
617.817	12.88
618.579	11.88
619.342	11.88
620.104	12.88
620.866	8.88
621.628	11.88
622.39	7.88
623.152	8.88
623.914	11.88
624.676	8.88
625.438	7.88
626.199	6.88
626.961	8.88
627.722	8.88
628.484	6.88
629.245	4.88
630.006	8.88
630.768	6.88
631.529	6.88
632.29	4.88
633.051	5.88
633.812	6.88
634.573	5.88
635.333	8.88
636.094	7.88
636.855	6.88
637.615	3.88
638.376	5.88
639.136	6.88
639.896	4.88
640.657	3.88
641.417	4.88
642.177	3.88
642.937	4.88
643.697	4.88
644.457	4.88
645.216	3.88
645.976	6.88
646.736	3.88
647.495	4.88
648.255	5.88
649.014	2.88
649.774	1.88
650.533	4.88
651.292	2.88
652.051	0.88
652.81	2.88
653.569	1.88
654.328	3.88
655.087	1.88
655.846	2.88
656.604	0.88
657.363	2.88
658.121	1.88
658.88	4.88
659.638	4.88
660.397	4.88
661.155	1.88
661.913	0.88
662.671	2.88
663.429	2.88
664.187	2.88
664.945	1.88
665.703	0.88
666.46	3.88
667.218	0.88
667.976	2.88
668.733	1.88
669.49	1.88
670.248	0.88
671.005	2.88
671.762	1.88
672.519	0.88
673.276	3.88
674.033	0.88
674.79	2.88
675.547	-1.12
676.304	3.88
677.06	0.88
677.817	0.88
678.574	0.88
679.33	2.88
680.086	1.88
680.843	1.88
681.599	3.88
682.355	1.88
683.111	1.88
683.867	2.88
684.623	0.88
685.379	1.88
686.135	0.88
686.89	1.88
687.646	2.88
688.402	2.88
689.157	1.88
689.912	0.88
690.668	0.88
691.423	1.88
692.178	0.88
692.933	1.88
693.688	0.88
694.443	-0.12
695.198	0.88
695.953	0.88
696.708	2.88
697.462	0.88
698.217	3.88
698.972	0.88
699.726	0.88
700.48	-2.12
701.235	-0.12
701.989	0.88
702.743	0.88
703.497	0.88
704.251	0.88
705.005	1.88
705.759	0.88
706.513	3.88
707.266	0.88
708.02	0.88
708.774	0.88
709.527	-0.12
710.28	0.88
711.034	0.88
711.787	3.88
712.54	1.88
713.293	1.88
714.046	0.88
714.799	1.88
715.552	0.88
716.305	1.88
717.058	1.88
717.81	1.88
718.563	0.88
719.315	-0.12
720.068	1.88
720.82	0.88
721.573	0.88
722.325	2.88
723.077	0.88
723.829	2.88
724.581	-0.12
725.333	1.88
726.085	1.88
726.836	0.88
727.588	1.88
728.34	1.88
729.091	1.88
729.843	0.88
730.594	1.88
731.346	0.88
732.097	1.88
732.848	1.88
733.599	2.88
734.35	3.88
735.101	1.88
735.852	1.88
736.603	2.88
737.354	1.88
738.104	0.88
738.855	1.88
739.605	1.88
740.356	1.88
741.106	2.88
741.856	4.88
742.607	1.88
743.357	1.88
744.107	1.88
744.857	0.88
745.607	0.88
746.357	1.88
747.106	2.88
747.856	2.88
748.606	3.88
749.355	1.88
750.105	0.88
750.854	1.88
751.603	0.88
752.353	2.88
753.102	0.88
753.851	1.88
754.6	0.88
755.349	1.88
756.098	2.88
756.847	-1.12
757.595	1.88
758.344	2.88
759.093	2.88
759.841	3.88
760.589	3.88
761.338	3.88
762.086	3.88
762.834	0.88
763.582	0.88
764.331	3.88
765.079	2.88
765.826	0.88
766.574	1.88
767.322	3.88
768.07	1.88
768.817	3.88
769.565	4.88
770.312	3.88
771.06	1.88
771.807	4.88
772.554	-0.12
773.302	2.88
774.049	2.88
774.796	3.88
775.543	5.88
776.29	1.88
777.036	3.88
777.783	4.88
778.53	4.88
779.276	4.88
780.023	3.88
780.769	2.88
781.516	1.88
782.262	6.88
783.008	4.88
783.754	1.88
784.5	3.88
785.246	4.88
785.992	3.88
786.738	4.88
787.484	4.88
788.23	3.88
788.975	3.88
789.721	1.88
790.466	3.88
791.212	3.88
791.957	3.88
792.702	4.88
793.447	2.88
794.193	1.88
794.938	4.88
795.683	3.88
796.427	3.88
797.172	4.88
797.917	4.88
798.662	5.88
799.406	3.88
800.151	2.88
800.895	3.88
801.64	6.88
802.384	2.88
803.128	4.88
803.872	6.88
804.616	1.88
805.36	2.88
806.104	4.88
806.848	4.88
807.592	1.88
808.336	3.88
809.079	4.88
809.823	2.88
810.566	6.88
811.31	1.88
812.053	2.88
812.796	0.88
813.539	2.88
814.283	2.88
815.026	2.88
815.769	4.88
816.511	1.88
817.254	3.88
817.997	0.88
818.74	2.88
819.482	3.88
820.225	1.88
820.967	1.88
821.71	0.88
822.452	2.88
823.194	1.88
823.936	1.88
824.678	4.88
825.42	1.88
826.162	2.88
826.904	0.88
827.646	0.88
828.388	2.88
829.129	1.88
829.871	1.88
830.612	1.88
831.354	3.88
832.095	1.88
832.836	1.88
833.577	2.88
834.319	2.88
835.06	1.88
835.801	-0.12
836.542	4.88
837.282	1.88
838.023	2.88
838.764	1.88
839.504	1.88
840.245	1.88
840.985	-0.12
841.726	3.88
842.466	1.88
843.206	2.88
843.946	2.88
844.687	3.88
845.427	1.88
846.166	0.88
846.906	1.88
847.646	0.88
848.386	1.88
849.125	1.88
849.865	0.88
850.605	1.88
851.344	1.88
852.083	1.88
852.823	0.88
853.562	0.88
854.301	2.88
855.04	0.88
855.779	0.88
856.518	0.88
857.257	1.88
857.995	-0.12
858.734	-0.12
859.473	0.88
860.211	2.88
860.95	0.88
861.688	-0.12
862.426	-0.12
863.165	-1.12
863.903	3.88
864.641	-2.12
865.379	-1.12
866.117	1.88
866.855	-0.12
867.593	0.88
868.33	1.88
869.068	-2.12
869.806	1.88
870.543	-0.12
871.28	0.88
872.018	-0.12
872.755	1.88
873.492	1.88
874.229	-0.12
874.967	0.88
875.703	-0.12
876.44	-1.12
877.177	-0.12
877.914	3.88
878.651	1.88
879.387	0.88
880.124	-2.12
880.86	0.88
881.597	0.88
882.333	-1.12
883.069	-1.12
883.806	2.88
884.542	-0.12
885.278	-0.12
886.014	-0.12
886.749	2.88
887.485	0.88
888.221	0.88
888.957	0.88
889.692	-0.12
890.428	0.88
891.163	-0.12
891.899	1.88
892.634	-2.12
893.369	2.88
894.104	-1.12
894.839	0.88
895.574	-0.12
896.309	-1.12
897.044	1.88
897.779	-1.12
898.514	0.88
899.248	0.88
899.983	0.88
900.717	-0.12
901.452	0.88
902.186	1.88
902.92	-2.12
903.654	0.88
904.389	0.88
905.123	-0.12
905.857	0.88
906.59	-1.12
907.324	1.88
908.058	-1.12
908.792	0.88
909.525	1.88
910.259	0.88
910.992	-2.12
911.726	-0.12
912.459	-2.12
913.192	1.88
913.925	0.88
914.658	-0.12
915.391	-0.12
916.124	0.88
916.857	-0.12
917.59	0.88
918.323	-2.12
919.055	-2.12
919.788	-0.12
920.521	-0.12
921.253	0.88
921.985	-1.12
922.718	-1.12
923.45	-1.12
924.182	-0.12
924.914	-2.12
925.646	0.88
926.378	-0.12
927.11	-1.12
927.841	-0.12
928.573	-3.12
929.305	-2.12
930.036	1.88
930.768	-0.12
931.499	0.88
932.23	-1.12
932.962	1.88
933.693	-1.12
934.424	1.88
935.155	-0.12
935.886	-0.12
936.617	-0.12
937.348	-1.12
938.078	-1.12
938.809	-0.12
939.54	0.88
940.27	-1.12
941.001	-1.12
941.731	-1.12
942.461	-0.12
943.191	1.88
943.922	0.88
944.652	-0.12
945.382	1.88
946.112	-3.12
946.841	-2.12
947.571	-0.12
948.301	-0.12
949.031	0.88
949.76	-1.12
950.49	0.88
951.219	-0.12
951.948	-0.12
952.678	-2.12
953.407	-0.12
954.136	-0.12
954.865	1.88
955.594	0.88
956.323	-1.12
957.052	1.88
957.78	0.88
958.509	-2.12
959.238	-0.12
959.966	-1.12
960.695	-1.12
961.423	-0.12
962.151	-1.12
962.88	-0.12
963.608	0.88
964.336	0.88
965.064	-1.12
965.792	-0.12
966.52	-0.12
967.247	-2.12
967.975	-0.12
968.703	-1.12
969.43	1.88
970.158	-2.12
970.885	-1.12
971.613	-2.12
972.34	-1.12
973.067	-1.12
973.794	-0.12
974.521	-0.12
975.248	-1.12
975.975	-2.12
976.702	-0.12
977.429	-1.12
978.156	-2.12
978.882	2.88
979.609	1.88
980.335	-1.12
981.062	1.88
981.788	0.88
982.514	4.88
983.24	-1.12
983.967	-1.12
984.693	-2.12
985.419	-1.12
986.144	-1.12
986.87	-0.12
987.596	0.88
988.322	-1.12
989.047	0.88
989.773	0.88
990.498	-2.12
991.224	-2.12
991.949	-2.12
992.674	0.88
993.399	-0.12
994.124	-0.12
994.849	-0.12
995.574	0.88
996.299	0.88
997.024	-0.12
997.749	-2.12
998.473	-0.12
999.198	0.88
999.922	-1.12
1000.647	-0.12
1001.371	2.88
1002.095	-2.12
1002.82	0.88
1003.544	-1.12
1004.268	1.88
1004.992	-2.12
1005.716	0.88
1006.439	-1.12
1007.163	-0.12
1007.887	-0.12
1008.611	0.88
1009.334	-1.12
1010.058	0.88
1010.781	-3.12
1011.504	-1.12
1012.228	0.88
1012.951	0.88
1013.674	-2.12
1014.397	-1.12
1015.12	1.88
