节点500_145_QEPB04081__472__11-36-28-545.txt的数据

Date: Wed Nov 12 11:36:28 CST 2025
User: PC
Spectrometer: QEPB0408
触发模式: 0
积分时间 (秒): 1.000000E-2
Scans to average: 1
启用暗噪声校正: true
启用非线性校正: false
滑动平均宽度: 0
X轴模式: Wavelengths
Number of Pixels in Spectrum: 1044
>>>>>Begin Spectral Data<<<<<
220.843	-0.88
221.644	-2.88
222.444	1.12
223.244	0.12
224.045	1.12
224.845	0.12
225.645	-0.88
226.445	-1.88
227.245	1.12
228.045	-0.88
228.845	0.12
229.645	1.12
230.444	0.12
231.244	0.12
232.043	3.12
232.843	1.12
233.642	1.12
234.442	2.12
235.241	1.12
236.04	1.12
236.839	-0.88
237.638	1.12
238.437	1.12
239.236	0.12
240.035	2.12
240.833	0.12
241.632	2.12
242.43	3.12
243.229	2.12
244.027	0.12
244.826	2.12
245.624	3.12
246.422	2.12
247.22	2.12
248.018	2.12
248.816	4.12
249.614	2.12
250.412	1.12
251.21	0.12
252.007	1.12
252.805	0.12
253.602	3.12
254.4	2.12
255.197	1.12
255.994	3.12
256.791	1.12
257.589	3.12
258.386	4.12
259.183	3.12
259.979	4.12
260.776	4.12
261.573	4.12
262.37	3.12
263.166	3.12
263.963	5.12
264.759	6.12
265.556	7.12
266.352	4.12
267.148	4.12
267.944	6.12
268.74	4.12
269.536	5.12
270.332	5.12
271.128	9.12
271.924	6.12
272.719	7.12
273.515	7.12
274.311	7.12
275.106	9.12
275.901	9.12
276.697	6.12
277.492	9.12
278.287	9.12
279.082	9.12
279.877	10.12
280.672	11.12
281.467	9.12
282.262	9.12
283.056	10.12
283.851	6.12
284.646	10.12
285.44	11.12
286.234	9.12
287.029	12.12
287.823	12.12
288.617	9.12
289.411	11.12
290.205	9.12
290.999	11.12
291.793	10.12
292.587	11.12
293.381	11.12
294.174	11.12
294.968	9.12
295.761	10.12
296.555	7.12
297.348	11.12
298.141	13.12
298.935	9.12
299.728	8.12
300.521	8.12
301.314	9.12
302.107	7.12
302.899	9.12
303.692	9.12
304.485	7.12
305.277	8.12
306.07	7.12
306.862	9.12
307.655	7.12
308.447	11.12
309.239	6.12
310.031	7.12
310.823	6.12
311.615	5.12
312.407	6.12
313.199	6.12
313.991	7.12
314.783	5.12
315.574	7.12
316.366	3.12
317.157	5.12
317.949	7.12
318.74	4.12
319.531	7.12
320.322	6.12
321.113	6.12
321.904	2.12
322.695	6.12
323.486	5.12
324.277	1.12
325.068	4.12
325.858	3.12
326.649	4.12
327.439	3.12
328.23	2.12
329.02	5.12
329.81	2.12
330.6	3.12
331.391	3.12
332.181	3.12
332.971	6.12
333.76	2.12
334.55	2.12
335.34	4.12
336.13	3.12
336.919	6.12
337.709	3.12
338.498	2.12
339.287	3.12
340.077	4.12
340.866	5.12
341.655	5.12
342.444	3.12
343.233	3.12
344.022	4.12
344.811	2.12
345.6	3.12
346.388	4.12
347.177	1.12
347.965	5.12
348.754	5.12
349.542	1.12
350.33	2.12
351.119	4.12
351.907	2.12
352.695	2.12
353.483	2.12
354.271	1.12
355.059	3.12
355.846	1.12
356.634	3.12
357.422	2.12
358.209	5.12
358.997	2.12
359.784	1.12
360.571	3.12
361.359	1.12
362.146	2.12
362.933	4.12
363.72	3.12
364.507	3.12
365.294	3.12
366.081	4.12
366.867	0.12
367.654	2.12
368.44	2.12
369.227	2.12
370.013	3.12
370.8	0.12
371.586	3.12
372.372	5.12
373.158	3.12
373.944	3.12
374.73	2.12
375.516	4.12
376.302	2.12
377.088	1.12
377.873	2.12
378.659	4.12
379.445	3.12
380.23	3.12
381.015	1.12
381.801	3.12
382.586	3.12
383.371	2.12
384.156	5.12
384.941	1.12
385.726	2.12
386.511	3.12
387.296	2.12
388.08	2.12
388.865	3.12
389.649	2.12
390.434	3.12
391.218	4.12
392.003	2.12
392.787	2.12
393.571	4.12
394.355	4.12
395.139	4.12
395.923	1.12
396.707	4.12
397.491	4.12
398.274	2.12
399.058	2.12
399.842	2.12
400.625	4.12
401.408	3.12
402.192	1.12
402.975	5.12
403.758	3.12
404.541	4.12
405.324	4.12
406.107	4.12
406.89	4.12
407.673	5.12
408.456	3.12
409.238	5.12
410.021	6.12
410.803	3.12
411.586	5.12
412.368	4.12
413.151	3.12
413.933	5.12
414.715	6.12
415.497	5.12
416.279	5.12
417.061	5.12
417.843	4.12
418.624	4.12
419.406	5.12
420.188	3.12
420.969	5.12
421.751	2.12
422.532	4.12
423.313	4.12
424.095	4.12
424.876	6.12
425.657	8.12
426.438	7.12
427.219	5.12
428	6.12
428.78	7.12
429.561	6.12
430.342	8.12
431.122	3.12
431.903	7.12
432.683	6.12
433.464	8.12
434.244	9.12
435.024	8.12
435.804	8.12
436.584	10.12
437.364	9.12
438.144	6.12
438.924	11.12
439.704	12.12
440.483	12.12
441.263	12.12
442.042	14.12
442.822	12.12
443.601	14.12
444.38	13.12
445.16	15.12
445.939	14.12
446.718	20.12
447.497	20.12
448.276	20.12
449.054	22.12
449.833	21.12
450.612	27.12
451.391	25.12
452.169	31.12
452.948	31.12
453.726	37.12
454.504	41.12
455.282	44.12
456.061	46.12
456.839	51.12
457.617	61.12
458.395	61.12
459.172	69.12
459.95	75.12
460.728	86.12
461.506	99.12
462.283	107.12
463.061	117.12
463.838	134.12
464.615	146.12
465.393	166.12
466.17	186.12
466.947	202.12
467.724	224.12
468.501	255.12
469.278	282.12
470.055	313.12
470.831	350.12
471.608	380.12
472.385	427.12
473.161	469.12
473.938	520.12
474.714	574.12
475.49	645.12
476.266	713.12
477.043	784.12
477.819	876.12
478.595	967.12
479.371	1062.12
480.146	1159.12
480.922	1267.12
481.698	1417.12
482.473	1557.12
483.249	1703.12
484.024	1871.12
484.8	2064.12
485.575	2250.12
486.35	2463.12
487.126	2699.12
487.901	2960.12
488.676	3266.12
489.451	3573.12
490.225	3917.12
491	4298.12
491.775	4683.12
492.55	5119.12
493.324	5590.12
494.099	6099.12
494.873	6630.12
495.647	7215.12
496.422	7862.12
497.196	8491.12
497.97	9130.12
498.744	9810.12
499.518	10538.12
500.292	11261.12
501.066	11910.12
501.839	12575.12
502.613	13207.12
503.387	13844.12
504.16	14332.12
504.934	14862.12
505.707	15208.12
506.48	15510.12
507.253	15783.12
508.027	15930.12
508.8	15971.12
509.573	15819.12
510.346	15664.12
511.118	15406.12
511.891	15087.12
512.664	14700.12
513.437	14277.12
514.209	13799.12
514.982	13287.12
515.754	12743.12
516.526	12288.12
517.298	11708.12
518.071	11196.12
518.843	10743.12
519.615	10253.12
520.387	9870.12
521.159	9465.12
521.93	9078.12
522.702	8700.12
523.474	8382.12
524.245	8055.12
525.017	7723.12
525.788	7431.12
526.56	7135.12
527.331	6855.12
528.102	6565.12
528.873	6239.12
529.644	5993.12
530.415	5740.12
531.186	5462.12
531.957	5205.12
532.728	4934.12
533.498	4676.12
534.269	4441.12
535.039	4198.12
535.81	3966.12
536.58	3748.12
537.351	3581.12
538.121	3364.12
538.891	3190.12
539.661	3010.12
540.431	2837.12
541.201	2678.12
541.971	2544.12
542.741	2415.12
543.51	2279.12
544.28	2155.12
545.05	2055.12
545.819	1961.12
546.588	1866.12
547.358	1779.12
548.127	1700.12
548.896	1603.12
549.665	1499.12
550.434	1441.12
551.203	1382.12
551.972	1299.12
552.741	1236.12
553.51	1160.12
554.278	1105.12
555.047	1043.12
555.815	992.12
556.584	924.12
557.352	870.12
558.121	819.12
558.889	783.12
559.657	738.12
560.425	692.12
561.193	656.12
561.961	614.12
562.729	587.12
563.496	547.12
564.264	520.12
565.032	487.12
565.799	461.12
566.567	436.12
567.334	410.12
568.101	384.12
568.869	374.12
569.636	335.12
570.403	326.12
571.17	310.12
571.937	291.12
572.704	274.12
573.471	261.12
574.237	246.12
575.004	232.12
575.771	215.12
576.537	203.12
577.303	190.12
578.07	182.12
578.836	167.12
579.602	156.12
580.368	155.12
581.134	143.12
581.9	134.12
582.666	128.12
583.432	119.12
584.198	114.12
584.964	107.12
585.729	100.12
586.495	96.12
587.26	89.12
588.025	88.12
588.791	77.12
589.556	77.12
590.321	70.12
591.086	69.12
591.851	69.12
592.616	64.12
593.381	57.12
594.146	55.12
594.911	51.12
595.675	50.12
596.44	48.12
597.204	47.12
597.969	45.12
598.733	42.12
599.497	41.12
600.261	39.12
601.025	36.12
601.79	33.12
602.553	31.12
603.317	31.12
604.081	29.12
604.845	29.12
605.609	28.12
606.372	25.12
607.136	22.12
607.899	26.12
608.662	22.12
609.426	23.12
610.189	21.12
610.952	24.12
611.715	21.12
612.478	18.12
613.241	21.12
614.004	19.12
614.767	16.12
615.529	17.12
616.292	17.12
617.055	17.12
617.817	14.12
618.579	12.12
619.342	13.12
620.104	12.12
620.866	11.12
621.628	13.12
622.39	11.12
623.152	10.12
623.914	10.12
624.676	11.12
625.438	12.12
626.199	10.12
626.961	7.12
627.722	12.12
628.484	10.12
629.245	9.12
630.006	8.12
630.768	7.12
631.529	7.12
632.29	4.12
633.051	6.12
633.812	5.12
634.573	9.12
635.333	7.12
636.094	6.12
636.855	7.12
637.615	7.12
638.376	8.12
639.136	5.12
639.896	6.12
640.657	8.12
641.417	5.12
642.177	5.12
642.937	4.12
643.697	5.12
644.457	5.12
645.216	4.12
645.976	5.12
646.736	3.12
647.495	5.12
648.255	2.12
649.014	4.12
649.774	4.12
650.533	2.12
651.292	3.12
652.051	4.12
652.81	3.12
653.569	3.12
654.328	4.12
655.087	2.12
655.846	4.12
656.604	4.12
657.363	2.12
658.121	2.12
658.88	2.12
659.638	5.12
660.397	2.12
661.155	1.12
661.913	3.12
662.671	4.12
663.429	2.12
664.187	3.12
664.945	3.12
665.703	3.12
666.46	4.12
667.218	3.12
667.976	2.12
668.733	7.12
669.49	2.12
670.248	3.12
671.005	3.12
671.762	3.12
672.519	3.12
673.276	3.12
674.033	2.12
674.79	2.12
675.547	5.12
676.304	1.12
677.06	2.12
677.817	2.12
678.574	0.12
679.33	1.12
680.086	1.12
680.843	3.12
681.599	-0.88
682.355	5.12
683.111	0.12
683.867	1.12
684.623	3.12
685.379	2.12
686.135	0.12
686.89	4.12
687.646	3.12
688.402	2.12
689.157	1.12
689.912	2.12
690.668	1.12
691.423	1.12
692.178	3.12
692.933	2.12
693.688	0.12
694.443	2.12
695.198	1.12
695.953	1.12
696.708	2.12
697.462	2.12
698.217	2.12
698.972	4.12
699.726	1.12
700.48	2.12
701.235	0.12
701.989	2.12
702.743	2.12
703.497	6.12
704.251	1.12
705.005	1.12
705.759	1.12
706.513	2.12
707.266	3.12
708.02	1.12
708.774	2.12
709.527	2.12
710.28	0.12
711.034	0.12
711.787	3.12
712.54	3.12
713.293	0.12
714.046	1.12
714.799	1.12
715.552	2.12
716.305	1.12
717.058	3.12
717.81	1.12
718.563	1.12
719.315	1.12
720.068	2.12
720.82	2.12
721.573	2.12
722.325	2.12
723.077	2.12
723.829	3.12
724.581	2.12
725.333	1.12
726.085	1.12
726.836	2.12
727.588	1.12
728.34	2.12
729.091	3.12
729.843	4.12
730.594	1.12
731.346	0.12
732.097	3.12
732.848	2.12
733.599	2.12
734.35	2.12
735.101	1.12
735.852	2.12
736.603	0.12
737.354	3.12
738.104	2.12
738.855	2.12
739.605	1.12
740.356	3.12
741.106	4.12
741.856	0.12
742.607	5.12
743.357	1.12
744.107	2.12
744.857	2.12
745.607	2.12
746.357	3.12
747.106	3.12
747.856	3.12
748.606	2.12
749.355	3.12
750.105	2.12
750.854	1.12
751.603	2.12
752.353	2.12
753.102	5.12
753.851	2.12
754.6	3.12
755.349	3.12
756.098	4.12
756.847	3.12
757.595	1.12
758.344	3.12
759.093	2.12
759.841	3.12
760.589	3.12
761.338	1.12
762.086	4.12
762.834	3.12
763.582	5.12
764.331	1.12
765.079	3.12
765.826	2.12
766.574	4.12
767.322	7.12
768.07	3.12
768.817	4.12
769.565	3.12
770.312	2.12
771.06	3.12
771.807	3.12
772.554	6.12
773.302	3.12
774.049	4.12
774.796	3.12
775.543	6.12
776.29	5.12
777.036	6.12
777.783	5.12
778.53	4.12
779.276	4.12
780.023	4.12
780.769	4.12
781.516	4.12
782.262	3.12
783.008	5.12
783.754	5.12
784.5	6.12
785.246	4.12
785.992	4.12
786.738	5.12
787.484	3.12
788.23	3.12
788.975	3.12
789.721	7.12
790.466	4.12
791.212	4.12
791.957	5.12
792.702	4.12
793.447	4.12
794.193	6.12
794.938	5.12
795.683	5.12
796.427	7.12
797.172	6.12
797.917	1.12
798.662	6.12
799.406	3.12
800.151	6.12
800.895	6.12
801.64	4.12
802.384	4.12
803.128	3.12
803.872	2.12
804.616	5.12
805.36	7.12
806.104	3.12
806.848	2.12
807.592	3.12
808.336	2.12
809.079	0.12
809.823	4.12
810.566	3.12
811.31	5.12
812.053	2.12
812.796	3.12
813.539	2.12
814.283	4.12
815.026	3.12
815.769	4.12
816.511	2.12
817.254	2.12
817.997	1.12
818.74	3.12
819.482	3.12
820.225	4.12
820.967	0.12
821.71	2.12
822.452	0.12
823.194	4.12
823.936	3.12
824.678	5.12
825.42	3.12
826.162	2.12
826.904	3.12
827.646	0.12
828.388	5.12
829.129	2.12
829.871	0.12
830.612	4.12
831.354	2.12
832.095	3.12
832.836	4.12
833.577	2.12
834.319	2.12
835.06	1.12
835.801	2.12
836.542	2.12
837.282	2.12
838.023	2.12
838.764	3.12
839.504	3.12
840.245	2.12
840.985	2.12
841.726	1.12
842.466	2.12
843.206	1.12
843.946	0.12
844.687	-0.88
845.427	1.12
846.166	2.12
846.906	2.12
847.646	1.12
848.386	1.12
849.125	2.12
849.865	2.12
850.605	1.12
851.344	2.12
852.083	2.12
852.823	4.12
853.562	2.12
854.301	0.12
855.04	-0.88
855.779	3.12
856.518	2.12
857.257	1.12
857.995	0.12
858.734	1.12
859.473	1.12
860.211	3.12
860.95	2.12
861.688	0.12
862.426	1.12
863.165	3.12
863.903	-1.88
864.641	-0.88
865.379	1.12
866.117	1.12
866.855	2.12
867.593	2.12
868.33	2.12
869.068	-1.88
869.806	-0.88
870.543	-0.88
871.28	2.12
872.018	2.12
872.755	1.12
873.492	0.12
874.229	0.12
874.967	0.12
875.703	1.12
876.44	1.12
877.177	1.12
877.914	0.12
878.651	1.12
879.387	0.12
880.124	1.12
880.86	3.12
881.597	0.12
882.333	1.12
883.069	-1.88
883.806	-0.88
884.542	0.12
885.278	-1.88
886.014	0.12
886.749	-0.88
887.485	-0.88
888.221	1.12
888.957	1.12
889.692	0.12
890.428	1.12
891.163	2.12
891.899	-1.88
892.634	1.12
893.369	0.12
894.104	-1.88
894.839	1.12
895.574	0.12
896.309	-0.88
897.044	2.12
897.779	0.12
898.514	1.12
899.248	1.12
899.983	-0.88
900.717	1.12
901.452	1.12
902.186	-0.88
902.92	0.12
903.654	0.12
904.389	1.12
905.123	0.12
905.857	-0.88
906.59	1.12
907.324	1.12
908.058	2.12
908.792	-1.88
909.525	1.12
910.259	1.12
910.992	1.12
911.726	0.12
912.459	-1.88
913.192	0.12
913.925	0.12
914.658	2.12
915.391	0.12
916.124	0.12
916.857	-0.88
917.59	-0.88
918.323	1.12
919.055	-1.88
919.788	-0.88
920.521	2.12
921.253	-1.88
921.985	0.12
922.718	1.12
923.45	-1.88
924.182	-1.88
924.914	1.12
925.646	1.12
926.378	1.12
927.11	0.12
927.841	-0.88
928.573	-1.88
929.305	-0.88
930.036	-1.88
930.768	0.12
931.499	0.12
932.23	1.12
932.962	-1.88
933.693	-1.88
934.424	1.12
935.155	-0.88
935.886	-1.88
936.617	0.12
937.348	1.12
938.078	-0.88
938.809	2.12
939.54	1.12
940.27	0.12
941.001	1.12
941.731	0.12
942.461	0.12
943.191	-0.88
943.922	0.12
944.652	-0.88
945.382	0.12
946.112	1.12
946.841	-1.88
947.571	1.12
948.301	-0.88
949.031	-1.88
949.76	1.12
950.49	1.12
951.219	1.12
951.948	0.12
952.678	-0.88
953.407	1.12
954.136	3.12
954.865	1.12
955.594	0.12
956.323	-1.88
957.052	-0.88
957.78	0.12
958.509	-0.88
959.238	1.12
959.966	0.12
960.695	-0.88
961.423	0.12
962.151	1.12
962.88	-0.88
963.608	1.12
964.336	-1.88
965.064	1.12
965.792	1.12
966.52	2.12
967.247	-0.88
967.975	0.12
968.703	0.12
969.43	0.12
970.158	1.12
970.885	0.12
971.613	0.12
972.34	-0.88
973.067	-0.88
973.794	0.12
974.521	2.12
975.248	-0.88
975.975	-1.88
976.702	-1.88
977.429	1.12
978.156	1.12
978.882	0.12
979.609	0.12
980.335	1.12
981.062	-0.88
981.788	0.12
982.514	-0.88
983.24	1.12
983.967	-1.88
984.693	1.12
985.419	0.12
986.144	-0.88
986.87	0.12
987.596	0.12
988.322	-1.88
989.047	0.12
989.773	-0.88
990.498	0.12
991.224	-2.88
991.949	0.12
992.674	0.12
993.399	0.12
994.124	0.12
994.849	0.12
995.574	1.12
996.299	-0.88
997.024	0.12
997.749	-0.88
998.473	-2.88
999.198	-1.88
999.922	-0.88
1000.647	1.12
1001.371	4.12
1002.095	-1.88
1002.82	-0.88
1003.544	0.12
1004.268	-0.88
1004.992	-0.88
1005.716	0.12
1006.439	1.12
1007.163	0.12
1007.887	-1.88
1008.611	0.12
1009.334	0.12
1010.058	-0.88
1010.781	2.12
1011.504	0.12
1012.228	1.12
1012.951	-0.88
1013.674	1.12
1014.397	-0.88
1015.12	-0.88
