节点500_145_QEPB04081__670__11-39-35-940.txt的数据

Date: Wed Nov 12 11:39:35 CST 2025
User: PC
Spectrometer: QEPB0408
触发模式: 0
积分时间 (秒): 1.000000E-2
Scans to average: 1
启用暗噪声校正: true
启用非线性校正: false
滑动平均宽度: 0
X轴模式: Wavelengths
Number of Pixels in Spectrum: 1044
>>>>>Begin Spectral Data<<<<<
220.843	0.25
221.644	1.25
222.444	1.25
223.244	0.25
224.045	0.25
224.845	-0.75
225.645	-0.75
226.445	-0.75
227.245	0.25
228.045	-0.75
228.845	1.25
229.645	0.25
230.444	-1.75
231.244	0.25
232.043	0.25
232.843	0.25
233.642	0.25
234.442	-0.75
235.241	2.25
236.04	0.25
236.839	2.25
237.638	1.25
238.437	1.25
239.236	1.25
240.035	3.25
240.833	2.25
241.632	2.25
242.43	0.25
243.229	1.25
244.027	0.25
244.826	2.25
245.624	0.25
246.422	4.25
247.22	1.25
248.018	1.25
248.816	4.25
249.614	1.25
250.412	2.25
251.21	4.25
252.007	2.25
252.805	2.25
253.602	1.25
254.4	2.25
255.197	2.25
255.994	2.25
256.791	1.25
257.589	2.25
258.386	3.25
259.183	5.25
259.979	6.25
260.776	6.25
261.573	6.25
262.37	3.25
263.166	4.25
263.963	2.25
264.759	2.25
265.556	6.25
266.352	5.25
267.148	5.25
267.944	3.25
268.74	3.25
269.536	7.25
270.332	6.25
271.128	6.25
271.924	7.25
272.719	9.25
273.515	7.25
274.311	5.25
275.106	5.25
275.901	6.25
276.697	6.25
277.492	7.25
278.287	7.25
279.082	9.25
279.877	7.25
280.672	7.25
281.467	9.25
282.262	10.25
283.056	8.25
283.851	9.25
284.646	8.25
285.44	10.25
286.234	9.25
287.029	12.25
287.823	8.25
288.617	10.25
289.411	10.25
290.205	10.25
290.999	9.25
291.793	7.25
292.587	9.25
293.381	8.25
294.174	8.25
294.968	8.25
295.761	7.25
296.555	10.25
297.348	11.25
298.141	9.25
298.935	9.25
299.728	9.25
300.521	9.25
301.314	9.25
302.107	8.25
302.899	5.25
303.692	7.25
304.485	8.25
305.277	6.25
306.07	6.25
306.862	6.25
307.655	10.25
308.447	8.25
309.239	7.25
310.031	7.25
310.823	7.25
311.615	5.25
312.407	5.25
313.199	5.25
313.991	5.25
314.783	6.25
315.574	5.25
316.366	5.25
317.157	7.25
317.949	5.25
318.74	4.25
319.531	5.25
320.322	3.25
321.113	5.25
321.904	5.25
322.695	5.25
323.486	2.25
324.277	4.25
325.068	3.25
325.858	3.25
326.649	2.25
327.439	5.25
328.23	4.25
329.02	3.25
329.81	4.25
330.6	4.25
331.391	1.25
332.181	3.25
332.971	4.25
333.76	1.25
334.55	2.25
335.34	4.25
336.13	4.25
336.919	2.25
337.709	5.25
338.498	1.25
339.287	7.25
340.077	2.25
340.866	3.25
341.655	3.25
342.444	5.25
343.233	2.25
344.022	3.25
344.811	6.25
345.6	1.25
346.388	4.25
347.177	3.25
347.965	5.25
348.754	3.25
349.542	0.25
350.33	2.25
351.119	5.25
351.907	3.25
352.695	1.25
353.483	1.25
354.271	2.25
355.059	2.25
355.846	5.25
356.634	2.25
357.422	1.25
358.209	3.25
358.997	2.25
359.784	3.25
360.571	1.25
361.359	3.25
362.146	2.25
362.933	4.25
363.72	2.25
364.507	2.25
365.294	2.25
366.081	1.25
366.867	1.25
367.654	1.25
368.44	1.25
369.227	2.25
370.013	1.25
370.8	4.25
371.586	2.25
372.372	3.25
373.158	1.25
373.944	3.25
374.73	3.25
375.516	2.25
376.302	2.25
377.088	1.25
377.873	3.25
378.659	2.25
379.445	2.25
380.23	1.25
381.015	5.25
381.801	1.25
382.586	1.25
383.371	3.25
384.156	2.25
384.941	2.25
385.726	1.25
386.511	0.25
387.296	3.25
388.08	1.25
388.865	0.25
389.649	0.25
390.434	2.25
391.218	0.25
392.003	4.25
392.787	5.25
393.571	1.25
394.355	1.25
395.139	5.25
395.923	4.25
396.707	4.25
397.491	3.25
398.274	4.25
399.058	1.25
399.842	2.25
400.625	3.25
401.408	5.25
402.192	4.25
402.975	4.25
403.758	2.25
404.541	2.25
405.324	3.25
406.107	4.25
406.89	3.25
407.673	1.25
408.456	1.25
409.238	5.25
410.021	2.25
410.803	4.25
411.586	4.25
412.368	5.25
413.151	2.25
413.933	1.25
414.715	5.25
415.497	5.25
416.279	7.25
417.061	3.25
417.843	7.25
418.624	6.25
419.406	3.25
420.188	5.25
420.969	3.25
421.751	7.25
422.532	6.25
423.313	3.25
424.095	6.25
424.876	4.25
425.657	5.25
426.438	5.25
427.219	6.25
428	6.25
428.78	6.25
429.561	8.25
430.342	7.25
431.122	9.25
431.903	5.25
432.683	7.25
433.464	6.25
434.244	4.25
435.024	7.25
435.804	6.25
436.584	9.25
437.364	10.25
438.144	9.25
438.924	12.25
439.704	11.25
440.483	10.25
441.263	14.25
442.042	12.25
442.822	14.25
443.601	15.25
444.38	14.25
445.16	16.25
445.939	19.25
446.718	17.25
447.497	18.25
448.276	20.25
449.054	22.25
449.833	24.25
450.612	26.25
451.391	32.25
452.169	29.25
452.948	38.25
453.726	38.25
454.504	39.25
455.282	43.25
456.061	48.25
456.839	56.25
457.617	65.25
458.395	68.25
459.172	78.25
459.95	85.25
460.728	94.25
461.506	99.25
462.283	113.25
463.061	129.25
463.838	142.25
464.615	156.25
465.393	170.25
466.17	195.25
466.947	219.25
467.724	238.25
468.501	273.25
469.278	293.25
470.055	326.25
470.831	361.25
471.608	411.25
472.385	447.25
473.161	489.25
473.938	541.25
474.714	599.25
475.49	659.25
476.266	712.25
477.043	793.25
477.819	874.25
478.595	964.25
479.371	1062.25
480.146	1163.25
480.922	1276.25
481.698	1393.25
482.473	1521.25
483.249	1668.25
484.024	1834.25
484.8	1992.25
485.575	2161.25
486.35	2383.25
487.126	2595.25
487.901	2871.25
488.676	3099.25
489.451	3374.25
490.225	3690.25
491	4019.25
491.775	4399.25
492.55	4761.25
493.324	5211.25
494.099	5621.25
494.873	6132.25
495.647	6605.25
496.422	7185.25
497.196	7734.25
497.97	8329.25
498.744	8962.25
499.518	9554.25
500.292	10207.25
501.066	10856.25
501.839	11461.25
502.613	12044.25
503.387	12632.25
504.16	13181.25
504.934	13678.25
505.707	14060.25
506.48	14445.25
507.253	14707.25
508.027	14911.25
508.8	14989.25
509.573	15011.25
510.346	14969.25
511.118	14801.25
511.891	14543.25
512.664	14279.25
513.437	13852.25
514.209	13491.25
514.982	13058.25
515.754	12619.25
516.526	12117.25
517.298	11647.25
518.071	11166.25
518.843	10689.25
519.615	10273.25
520.387	9874.25
521.159	9466.25
521.93	9040.25
522.702	8704.25
523.474	8418.25
524.245	8066.25
525.017	7716.25
525.788	7450.25
526.56	7137.25
527.331	6847.25
528.102	6567.25
528.873	6323.25
529.644	6045.25
530.415	5781.25
531.186	5513.25
531.957	5264.25
532.728	5002.25
533.498	4765.25
534.269	4509.25
535.039	4292.25
535.81	4058.25
536.58	3833.25
537.351	3640.25
538.121	3436.25
538.891	3235.25
539.661	3066.25
540.431	2912.25
541.201	2757.25
541.971	2604.25
542.741	2463.25
543.51	2337.25
544.28	2227.25
545.05	2110.25
545.819	2002.25
546.588	1919.25
547.358	1810.25
548.127	1720.25
548.896	1643.25
549.665	1554.25
550.434	1479.25
551.203	1408.25
551.972	1337.25
552.741	1266.25
553.51	1202.25
554.278	1144.25
555.047	1076.25
555.815	1011.25
556.584	970.25
557.352	909.25
558.121	857.25
558.889	796.25
559.657	765.25
560.425	720.25
561.193	679.25
561.961	652.25
562.729	613.25
563.496	572.25
564.264	542.25
565.032	501.25
565.799	476.25
566.567	450.25
567.334	426.25
568.101	408.25
568.869	383.25
569.636	354.25
570.403	339.25
571.17	321.25
571.937	300.25
572.704	279.25
573.471	269.25
574.237	256.25
575.004	240.25
575.771	217.25
576.537	211.25
577.303	197.25
578.07	189.25
578.836	178.25
579.602	167.25
580.368	155.25
581.134	148.25
581.9	139.25
582.666	144.25
583.432	128.25
584.198	121.25
584.964	113.25
585.729	109.25
586.495	100.25
587.26	94.25
588.025	91.25
588.791	80.25
589.556	77.25
590.321	75.25
591.086	73.25
591.851	67.25
592.616	65.25
593.381	62.25
594.146	59.25
594.911	54.25
595.675	53.25
596.44	51.25
597.204	45.25
597.969	49.25
598.733	46.25
599.497	41.25
600.261	41.25
601.025	38.25
601.79	39.25
602.553	36.25
603.317	33.25
604.081	29.25
604.845	29.25
605.609	29.25
606.372	31.25
607.136	25.25
607.899	24.25
608.662	26.25
609.426	24.25
610.189	24.25
610.952	23.25
611.715	22.25
612.478	20.25
613.241	17.25
614.004	18.25
614.767	19.25
615.529	18.25
616.292	19.25
617.055	16.25
617.817	13.25
618.579	12.25
619.342	17.25
620.104	12.25
620.866	13.25
621.628	11.25
622.39	12.25
623.152	11.25
623.914	10.25
624.676	10.25
625.438	11.25
626.199	6.25
626.961	10.25
627.722	10.25
628.484	9.25
629.245	9.25
630.006	11.25
630.768	10.25
631.529	8.25
632.29	7.25
633.051	8.25
633.812	7.25
634.573	7.25
635.333	8.25
636.094	6.25
636.855	7.25
637.615	7.25
638.376	7.25
639.136	6.25
639.896	3.25
640.657	5.25
641.417	6.25
642.177	7.25
642.937	6.25
643.697	6.25
644.457	4.25
645.216	4.25
645.976	5.25
646.736	2.25
647.495	6.25
648.255	4.25
649.014	6.25
649.774	4.25
650.533	4.25
651.292	6.25
652.051	4.25
652.81	5.25
653.569	4.25
654.328	4.25
655.087	2.25
655.846	4.25
656.604	4.25
657.363	5.25
658.121	5.25
658.88	4.25
659.638	2.25
660.397	5.25
661.155	1.25
661.913	4.25
662.671	4.25
663.429	2.25
664.187	2.25
664.945	1.25
665.703	3.25
666.46	3.25
667.218	3.25
667.976	3.25
668.733	2.25
669.49	2.25
670.248	2.25
671.005	2.25
671.762	0.25
672.519	3.25
673.276	2.25
674.033	4.25
674.79	2.25
675.547	3.25
676.304	2.25
677.06	2.25
677.817	3.25
678.574	2.25
679.33	2.25
680.086	-0.75
680.843	4.25
681.599	4.25
682.355	3.25
683.111	2.25
683.867	-0.75
684.623	3.25
685.379	1.25
686.135	0.25
686.89	3.25
687.646	1.25
688.402	2.25
689.157	2.25
689.912	2.25
690.668	2.25
691.423	0.25
692.178	2.25
692.933	0.25
693.688	3.25
694.443	1.25
695.198	2.25
695.953	2.25
696.708	2.25
697.462	2.25
698.217	2.25
698.972	-0.75
699.726	1.25
700.48	2.25
701.235	2.25
701.989	1.25
702.743	2.25
703.497	1.25
704.251	1.25
705.005	3.25
705.759	1.25
706.513	4.25
707.266	1.25
708.02	3.25
708.774	2.25
709.527	3.25
710.28	2.25
711.034	1.25
711.787	1.25
712.54	-0.75
713.293	3.25
714.046	-0.75
714.799	1.25
715.552	3.25
716.305	1.25
717.058	2.25
717.81	1.25
718.563	2.25
719.315	1.25
720.068	0.25
720.82	2.25
721.573	2.25
722.325	2.25
723.077	3.25
723.829	2.25
724.581	1.25
725.333	1.25
726.085	2.25
726.836	1.25
727.588	1.25
728.34	2.25
729.091	-0.75
729.843	1.25
730.594	1.25
731.346	2.25
732.097	0.25
732.848	1.25
733.599	2.25
734.35	0.25
735.101	2.25
735.852	2.25
736.603	2.25
737.354	3.25
738.104	1.25
738.855	2.25
739.605	1.25
740.356	3.25
741.106	0.25
741.856	2.25
742.607	1.25
743.357	1.25
744.107	1.25
744.857	4.25
745.607	2.25
746.357	0.25
747.106	2.25
747.856	2.25
748.606	3.25
749.355	0.25
750.105	1.25
750.854	5.25
751.603	1.25
752.353	5.25
753.102	3.25
753.851	3.25
754.6	4.25
755.349	1.25
756.098	3.25
756.847	3.25
757.595	3.25
758.344	2.25
759.093	4.25
759.841	2.25
760.589	6.25
761.338	2.25
762.086	1.25
762.834	4.25
763.582	3.25
764.331	5.25
765.079	2.25
765.826	3.25
766.574	2.25
767.322	2.25
768.07	3.25
768.817	2.25
769.565	4.25
770.312	2.25
771.06	3.25
771.807	0.25
772.554	3.25
773.302	4.25
774.049	3.25
774.796	7.25
775.543	2.25
776.29	3.25
777.036	2.25
777.783	3.25
778.53	3.25
779.276	4.25
780.023	4.25
780.769	2.25
781.516	5.25
782.262	4.25
783.008	1.25
783.754	5.25
784.5	3.25
785.246	5.25
785.992	5.25
786.738	3.25
787.484	4.25
788.23	5.25
788.975	6.25
789.721	5.25
790.466	4.25
791.212	5.25
791.957	2.25
792.702	5.25
793.447	4.25
794.193	5.25
794.938	4.25
795.683	3.25
796.427	5.25
797.172	3.25
797.917	4.25
798.662	5.25
799.406	6.25
800.151	5.25
800.895	2.25
801.64	6.25
802.384	3.25
803.128	4.25
803.872	1.25
804.616	6.25
805.36	4.25
806.104	3.25
806.848	3.25
807.592	2.25
808.336	4.25
809.079	3.25
809.823	5.25
810.566	4.25
811.31	2.25
812.053	4.25
812.796	2.25
813.539	3.25
814.283	2.25
815.026	4.25
815.769	1.25
816.511	2.25
817.254	2.25
817.997	2.25
818.74	4.25
819.482	3.25
820.225	1.25
820.967	0.25
821.71	2.25
822.452	3.25
823.194	0.25
823.936	5.25
824.678	3.25
825.42	4.25
826.162	5.25
826.904	3.25
827.646	5.25
828.388	2.25
829.129	5.25
829.871	3.25
830.612	1.25
831.354	1.25
832.095	1.25
832.836	2.25
833.577	3.25
834.319	2.25
835.06	3.25
835.801	3.25
836.542	2.25
837.282	3.25
838.023	1.25
838.764	1.25
839.504	2.25
840.245	1.25
840.985	1.25
841.726	2.25
842.466	3.25
843.206	3.25
843.946	1.25
844.687	2.25
845.427	0.25
846.166	0.25
846.906	2.25
847.646	1.25
848.386	3.25
849.125	0.25
849.865	2.25
850.605	2.25
851.344	1.25
852.083	2.25
852.823	1.25
853.562	3.25
854.301	2.25
855.04	4.25
855.779	0.25
856.518	0.25
857.257	3.25
857.995	1.25
858.734	2.25
859.473	0.25
860.211	3.25
860.95	1.25
861.688	2.25
862.426	0.25
863.165	0.25
863.903	2.25
864.641	-1.75
865.379	1.25
866.117	1.25
866.855	0.25
867.593	0.25
868.33	-0.75
869.068	1.25
869.806	-1.75
870.543	0.25
871.28	3.25
872.018	1.25
872.755	1.25
873.492	-0.75
874.229	1.25
874.967	0.25
875.703	0.25
876.44	0.25
877.177	0.25
877.914	2.25
878.651	-0.75
879.387	-0.75
880.124	1.25
880.86	1.25
881.597	2.25
882.333	1.25
883.069	1.25
883.806	-0.75
884.542	0.25
885.278	-0.75
886.014	1.25
886.749	1.25
887.485	0.25
888.221	1.25
888.957	-0.75
889.692	-2.75
890.428	1.25
891.163	1.25
891.899	1.25
892.634	-1.75
893.369	1.25
894.104	-1.75
894.839	1.25
895.574	1.25
896.309	0.25
897.044	0.25
897.779	1.25
898.514	1.25
899.248	1.25
899.983	1.25
900.717	-1.75
901.452	2.25
902.186	1.25
902.92	-0.75
903.654	-0.75
904.389	1.25
905.123	-0.75
905.857	2.25
906.59	-0.75
907.324	1.25
908.058	-0.75
908.792	0.25
909.525	0.25
910.259	0.25
910.992	0.25
911.726	1.25
912.459	1.25
913.192	-0.75
913.925	-0.75
914.658	0.25
915.391	-1.75
916.124	1.25
916.857	-0.75
917.59	0.25
918.323	-1.75
919.055	0.25
919.788	1.25
920.521	-0.75
921.253	0.25
921.985	-0.75
922.718	0.25
923.45	-0.75
924.182	1.25
924.914	-1.75
925.646	2.25
926.378	0.25
927.11	-0.75
927.841	1.25
928.573	1.25
929.305	1.25
930.036	0.25
930.768	3.25
931.499	0.25
932.23	0.25
932.962	-0.75
933.693	-1.75
934.424	0.25
935.155	0.25
935.886	-0.75
936.617	1.25
937.348	1.25
938.078	0.25
938.809	-1.75
939.54	0.25
940.27	-2.75
941.001	0.25
941.731	0.25
942.461	1.25
943.191	1.25
943.922	-0.75
944.652	-2.75
945.382	-1.75
946.112	2.25
946.841	1.25
947.571	-1.75
948.301	1.25
949.031	-0.75
949.76	2.25
950.49	-1.75
951.219	1.25
951.948	0.25
952.678	1.25
953.407	1.25
954.136	0.25
954.865	1.25
955.594	-0.75
956.323	0.25
957.052	0.25
957.78	0.25
958.509	1.25
959.238	0.25
959.966	0.25
960.695	0.25
961.423	-1.75
962.151	-0.75
962.88	-1.75
963.608	1.25
964.336	-1.75
965.064	0.25
965.792	1.25
966.52	1.25
967.247	2.25
967.975	-1.75
968.703	1.25
969.43	-2.75
970.158	-1.75
970.885	-0.75
971.613	0.25
972.34	-1.75
973.067	-1.75
973.794	0.25
974.521	-1.75
975.248	1.25
975.975	0.25
976.702	0.25
977.429	0.25
978.156	-0.75
978.882	-0.75
979.609	1.25
980.335	1.25
981.062	2.25
981.788	1.25
982.514	0.25
983.24	0.25
983.967	-0.75
984.693	-0.75
985.419	1.25
986.144	-0.75
986.87	-0.75
987.596	1.25
988.322	1.25
989.047	-0.75
989.773	1.25
990.498	0.25
991.224	-0.75
991.949	1.25
992.674	1.25
993.399	-3.75
994.124	0.25
994.849	1.25
995.574	-1.75
996.299	0.25
997.024	2.25
997.749	-1.75
998.473	2.25
999.198	0.25
999.922	1.25
1000.647	0.25
1001.371	4.25
1002.095	0.25
1002.82	-1.75
1003.544	-4.75
1004.268	1.25
1004.992	-0.75
1005.716	0.25
1006.439	-0.75
1007.163	-1.75
1007.887	1.25
1008.611	1.25
1009.334	-1.75
1010.058	0.25
1010.781	0.25
1011.504	1.25
1012.228	-0.75
1012.951	0.25
1013.674	2.25
1014.397	-0.75
1015.12	0.25
