节点500_145_QEPB04081__497__11-36-53-470.txt的数据

Date: Wed Nov 12 11:36:53 CST 2025
User: PC
Spectrometer: QEPB0408
触发模式: 0
积分时间 (秒): 1.000000E-2
Scans to average: 1
启用暗噪声校正: true
启用非线性校正: false
滑动平均宽度: 0
X轴模式: Wavelengths
Number of Pixels in Spectrum: 1044
>>>>>Begin Spectral Data<<<<<
220.843	0
221.644	-1
222.444	0
223.244	1
224.045	1
224.845	-1
225.645	-1
226.445	0
227.245	-1
228.045	0
228.845	-1
229.645	-2
230.444	0
231.244	0
232.043	0
232.843	0
233.642	0
234.442	-1
235.241	3
236.04	1
236.839	1
237.638	1
238.437	3
239.236	3
240.035	1
240.833	0
241.632	0
242.43	2
243.229	2
244.027	4
244.826	0
245.624	3
246.422	4
247.22	1
248.018	4
248.816	3
249.614	1
250.412	0
251.21	3
252.007	4
252.805	1
253.602	4
254.4	3
255.197	1
255.994	3
256.791	2
257.589	5
258.386	2
259.183	4
259.979	2
260.776	3
261.573	5
262.37	5
263.166	5
263.963	5
264.759	7
265.556	5
266.352	5
267.148	4
267.944	5
268.74	7
269.536	5
270.332	9
271.128	6
271.924	7
272.719	6
273.515	8
274.311	5
275.106	7
275.901	7
276.697	8
277.492	10
278.287	9
279.082	9
279.877	8
280.672	9
281.467	9
282.262	9
283.056	9
283.851	10
284.646	11
285.44	8
286.234	10
287.029	9
287.823	9
288.617	10
289.411	10
290.205	9
290.999	11
291.793	9
292.587	11
293.381	9
294.174	13
294.968	12
295.761	10
296.555	12
297.348	10
298.141	8
298.935	9
299.728	10
300.521	12
301.314	9
302.107	6
302.899	7
303.692	7
304.485	8
305.277	9
306.07	7
306.862	6
307.655	7
308.447	7
309.239	7
310.031	7
310.823	6
311.615	7
312.407	7
313.199	6
313.991	6
314.783	8
315.574	8
316.366	7
317.157	5
317.949	5
318.74	7
319.531	5
320.322	6
321.113	6
321.904	5
322.695	4
323.486	4
324.277	7
325.068	4
325.858	5
326.649	6
327.439	1
328.23	5
329.02	1
329.81	5
330.6	3
331.391	5
332.181	4
332.971	5
333.76	3
334.55	4
335.34	4
336.13	3
336.919	4
337.709	4
338.498	5
339.287	3
340.077	3
340.866	3
341.655	4
342.444	3
343.233	5
344.022	4
344.811	3
345.6	3
346.388	2
347.177	3
347.965	3
348.754	2
349.542	3
350.33	1
351.119	4
351.907	4
352.695	2
353.483	3
354.271	2
355.059	2
355.846	4
356.634	1
357.422	3
358.209	4
358.997	2
359.784	1
360.571	1
361.359	4
362.146	2
362.933	1
363.72	2
364.507	3
365.294	2
366.081	1
366.867	2
367.654	3
368.44	2
369.227	3
370.013	0
370.8	2
371.586	1
372.372	3
373.158	3
373.944	5
374.73	2
375.516	2
376.302	1
377.088	1
377.873	2
378.659	3
379.445	2
380.23	4
381.015	0
381.801	2
382.586	1
383.371	4
384.156	0
384.941	2
385.726	2
386.511	3
387.296	1
388.08	1
388.865	3
389.649	2
390.434	3
391.218	1
392.003	2
392.787	2
393.571	1
394.355	5
395.139	2
395.923	5
396.707	2
397.491	3
398.274	3
399.058	5
399.842	3
400.625	4
401.408	5
402.192	2
402.975	3
403.758	0
404.541	6
405.324	5
406.107	3
406.89	1
407.673	5
408.456	2
409.238	4
410.021	5
410.803	4
411.586	6
412.368	5
413.151	5
413.933	3
414.715	8
415.497	5
416.279	5
417.061	4
417.843	5
418.624	6
419.406	7
420.188	6
420.969	5
421.751	4
422.532	4
423.313	6
424.095	5
424.876	4
425.657	5
426.438	6
427.219	7
428	7
428.78	4
429.561	6
430.342	9
431.122	4
431.903	8
432.683	6
433.464	8
434.244	7
435.024	10
435.804	9
436.584	9
437.364	10
438.144	11
438.924	12
439.704	11
440.483	11
441.263	13
442.042	14
442.822	11
443.601	16
444.38	15
445.16	14
445.939	19
446.718	18
447.497	18
448.276	21
449.054	20
449.833	24
450.612	25
451.391	28
452.169	30
452.948	33
453.726	33
454.504	39
455.282	45
456.061	47
456.839	52
457.617	58
458.395	64
459.172	70
459.95	80
460.728	87
461.506	99
462.283	110
463.061	121
463.838	139
464.615	148
465.393	164
466.17	184
466.947	210
467.724	228
468.501	250
469.278	281
470.055	320
470.831	349
471.608	387
472.385	430
473.161	474
473.938	528
474.714	582
475.49	648
476.266	706
477.043	784
477.819	881
478.595	954
479.371	1047
480.146	1169
480.922	1278
481.698	1388
482.473	1554
483.249	1699
484.024	1859
484.8	2028
485.575	2240
486.35	2456
487.126	2700
487.901	2957
488.676	3218
489.451	3550
490.225	3863
491	4247
491.775	4639
492.55	5055
493.324	5559
494.099	6035
494.873	6592
495.647	7159
496.422	7727
497.196	8364
497.97	9004
498.744	9702
499.518	10411
500.292	11070
501.066	11736
501.839	12438
502.613	13021
503.387	13637
504.16	14200
504.934	14702
505.707	15081
506.48	15395
507.253	15576
508.027	15790
508.8	15782
509.573	15731
510.346	15561
511.118	15377
511.891	15035
512.664	14586
513.437	14198
514.209	13729
514.982	13212
515.754	12684
516.526	12211
517.298	11688
518.071	11153
518.843	10746
519.615	10273
520.387	9848
521.159	9443
521.93	9101
522.702	8721
523.474	8391
524.245	8018
525.017	7701
525.788	7387
526.56	7073
527.331	6818
528.102	6542
528.873	6231
529.644	5964
530.415	5707
531.186	5468
531.957	5190
532.728	4952
533.498	4688
534.269	4434
535.039	4175
535.81	3962
536.58	3754
537.351	3563
538.121	3365
538.891	3181
539.661	2985
540.431	2835
541.201	2685
541.971	2547
542.741	2403
543.51	2285
544.28	2166
545.05	2050
545.819	1963
546.588	1862
547.358	1760
548.127	1678
548.896	1603
549.665	1520
550.434	1445
551.203	1372
551.972	1292
552.741	1232
553.51	1169
554.278	1114
555.047	1027
555.815	993
556.584	937
557.352	881
558.121	822
558.889	786
559.657	729
560.425	689
561.193	646
561.961	622
562.729	583
563.496	546
564.264	517
565.032	490
565.799	459
566.567	435
567.334	417
568.101	389
568.869	367
569.636	349
570.403	326
571.17	313
571.937	293
572.704	275
573.471	254
574.237	242
575.004	231
575.771	217
576.537	201
577.303	191
578.07	176
578.836	168
579.602	162
580.368	146
581.134	142
581.9	137
582.666	124
583.432	121
584.198	115
584.964	108
585.729	98
586.495	99
587.26	93
588.025	87
588.791	80
589.556	77
590.321	75
591.086	70
591.851	65
592.616	62
593.381	61
594.146	55
594.911	54
595.675	50
596.44	55
597.204	44
597.969	46
598.733	43
599.497	37
600.261	37
601.025	34
601.79	37
602.553	33
603.317	31
604.081	30
604.845	31
605.609	27
606.372	27
607.136	25
607.899	24
608.662	21
609.426	22
610.189	21
610.952	20
611.715	19
612.478	21
613.241	19
614.004	17
614.767	13
615.529	17
616.292	14
617.055	16
617.817	14
618.579	13
619.342	11
620.104	12
620.866	13
621.628	12
622.39	14
623.152	11
623.914	11
624.676	12
625.438	12
626.199	9
626.961	6
627.722	9
628.484	11
629.245	10
630.006	9
630.768	8
631.529	7
632.29	9
633.051	7
633.812	9
634.573	7
635.333	6
636.094	5
636.855	7
637.615	4
638.376	5
639.136	7
639.896	6
640.657	6
641.417	6
642.177	6
642.937	6
643.697	4
644.457	6
645.216	3
645.976	5
646.736	3
647.495	5
648.255	5
649.014	2
649.774	4
650.533	5
651.292	3
652.051	3
652.81	5
653.569	5
654.328	3
655.087	2
655.846	4
656.604	5
657.363	3
658.121	4
658.88	4
659.638	3
660.397	3
661.155	3
661.913	5
662.671	2
663.429	3
664.187	5
664.945	2
665.703	4
666.46	3
667.218	5
667.976	2
668.733	3
669.49	2
670.248	3
671.005	3
671.762	2
672.519	4
673.276	4
674.033	1
674.79	5
675.547	2
676.304	1
677.06	2
677.817	2
678.574	2
679.33	2
680.086	4
680.843	2
681.599	2
682.355	1
683.111	2
683.867	0
684.623	3
685.379	3
686.135	0
686.89	4
687.646	2
688.402	0
689.157	2
689.912	2
690.668	5
691.423	2
692.178	4
692.933	1
693.688	0
694.443	3
695.198	0
695.953	3
696.708	5
697.462	2
698.217	2
698.972	1
699.726	1
700.48	2
701.235	1
701.989	1
702.743	1
703.497	2
704.251	2
705.005	2
705.759	2
706.513	2
707.266	2
708.02	2
708.774	3
709.527	1
710.28	2
711.034	0
711.787	3
712.54	-1
713.293	-2
714.046	3
714.799	1
715.552	4
716.305	1
717.058	2
717.81	-1
718.563	2
719.315	2
720.068	1
720.82	2
721.573	1
722.325	1
723.077	2
723.829	1
724.581	3
725.333	0
726.085	4
726.836	0
727.588	2
728.34	2
729.091	2
729.843	2
730.594	1
731.346	3
732.097	2
732.848	3
733.599	2
734.35	2
735.101	3
735.852	1
736.603	2
737.354	2
738.104	3
738.855	1
739.605	3
740.356	2
741.106	1
741.856	4
742.607	1
743.357	1
744.107	2
744.857	2
745.607	4
746.357	1
747.106	3
747.856	2
748.606	2
749.355	3
750.105	2
750.854	-1
751.603	3
752.353	3
753.102	4
753.851	2
754.6	1
755.349	2
756.098	4
756.847	2
757.595	2
758.344	4
759.093	2
759.841	5
760.589	2
761.338	3
762.086	2
762.834	3
763.582	5
764.331	1
765.079	3
765.826	5
766.574	5
767.322	2
768.07	4
768.817	2
769.565	4
770.312	5
771.06	2
771.807	7
772.554	3
773.302	3
774.049	4
774.796	5
775.543	4
776.29	2
777.036	5
777.783	5
778.53	5
779.276	5
780.023	4
780.769	5
781.516	6
782.262	8
783.008	3
783.754	6
784.5	6
785.246	5
785.992	5
786.738	2
787.484	3
788.23	6
788.975	7
789.721	7
790.466	2
791.212	5
791.957	3
792.702	5
793.447	5
794.193	4
794.938	5
795.683	5
796.427	5
797.172	3
797.917	5
798.662	4
799.406	7
800.151	3
800.895	4
801.64	5
802.384	3
803.128	5
803.872	5
804.616	5
805.36	3
806.104	4
806.848	3
807.592	4
808.336	4
809.079	2
809.823	2
810.566	4
811.31	1
812.053	4
812.796	2
813.539	3
814.283	2
815.026	4
815.769	4
816.511	0
817.254	4
817.997	3
818.74	3
819.482	5
820.225	2
820.967	3
821.71	1
822.452	2
823.194	2
823.936	2
824.678	1
825.42	0
826.162	2
826.904	2
827.646	3
828.388	1
829.129	3
829.871	3
830.612	2
831.354	3
832.095	1
832.836	1
833.577	3
834.319	4
835.06	1
835.801	1
836.542	4
837.282	-2
838.023	3
838.764	0
839.504	1
840.245	1
840.985	3
841.726	3
842.466	1
843.206	2
843.946	2
844.687	1
845.427	3
846.166	5
846.906	4
847.646	1
848.386	5
849.125	3
849.865	3
850.605	3
851.344	2
852.083	0
852.823	1
853.562	2
854.301	3
855.04	2
855.779	0
856.518	1
857.257	0
857.995	0
858.734	0
859.473	4
860.211	2
860.95	1
861.688	2
862.426	2
863.165	1
863.903	2
864.641	1
865.379	1
866.117	3
866.855	1
867.593	3
868.33	3
869.068	2
869.806	2
870.543	1
871.28	2
872.018	1
872.755	2
873.492	-2
874.229	2
874.967	0
875.703	0
876.44	2
877.177	-1
877.914	-1
878.651	1
879.387	2
880.124	0
880.86	-1
881.597	0
882.333	-1
883.069	0
883.806	0
884.542	0
885.278	2
886.014	0
886.749	0
887.485	-1
888.221	2
888.957	1
889.692	-1
890.428	1
891.163	-2
891.899	1
892.634	1
893.369	0
894.104	-1
894.839	2
895.574	1
896.309	-2
897.044	0
897.779	-2
898.514	0
899.248	2
899.983	1
900.717	0
901.452	-2
902.186	-1
902.92	-1
903.654	1
904.389	-2
905.123	0
905.857	-2
906.59	-1
907.324	1
908.058	2
908.792	2
909.525	0
910.259	-2
910.992	1
911.726	-1
912.459	0
913.192	1
913.925	0
914.658	-1
915.391	-1
916.124	1
916.857	-1
917.59	-1
918.323	0
919.055	0
919.788	-1
920.521	1
921.253	-2
921.985	-1
922.718	1
923.45	1
924.182	-1
924.914	-1
925.646	-1
926.378	1
927.11	0
927.841	0
928.573	0
929.305	1
930.036	0
930.768	0
931.499	0
932.23	1
932.962	-1
933.693	-3
934.424	1
935.155	-2
935.886	0
936.617	0
937.348	-2
938.078	1
938.809	-2
939.54	-1
940.27	0
941.001	1
941.731	0
942.461	-3
943.191	0
943.922	-1
944.652	0
945.382	-2
946.112	-3
946.841	-1
947.571	-1
948.301	0
949.031	1
949.76	3
950.49	0
951.219	-1
951.948	0
952.678	-1
953.407	-1
954.136	0
954.865	0
955.594	2
956.323	0
957.052	-1
957.78	0
958.509	1
959.238	-2
959.966	0
960.695	-1
961.423	1
962.151	0
962.88	-2
963.608	-1
964.336	-1
965.064	1
965.792	1
966.52	0
967.247	2
967.975	1
968.703	1
969.43	-4
970.158	-1
970.885	-1
971.613	1
972.34	1
973.067	-1
973.794	1
974.521	-1
975.248	-2
975.975	0
976.702	0
977.429	1
978.156	1
978.882	1
979.609	3
980.335	-2
981.062	2
981.788	-1
982.514	0
983.24	-1
983.967	0
984.693	0
985.419	2
986.144	1
986.87	-1
987.596	1
988.322	1
989.047	1
989.773	-2
990.498	2
991.224	1
991.949	-1
992.674	0
993.399	1
994.124	0
994.849	-1
995.574	0
996.299	-1
997.024	-1
997.749	-1
998.473	1
999.198	1
999.922	1
1000.647	1
1001.371	3
1002.095	1
1002.82	0
1003.544	-2
1004.268	0
1004.992	0
1005.716	-2
1006.439	0
1007.163	-1
1007.887	1
1008.611	0
1009.334	0
1010.058	0
1010.781	-2
1011.504	-1
1012.228	0
1012.951	-3
1013.674	0
1014.397	0
1015.12	1
