节点500_145_QEPB04081__237__11-32-46-468.txt的数据

Date: Wed Nov 12 11:32:46 CST 2025
User: PC
Spectrometer: QEPB0408
触发模式: 0
积分时间 (秒): 1.000000E-2
Scans to average: 1
启用暗噪声校正: true
启用非线性校正: false
滑动平均宽度: 0
X轴模式: Wavelengths
Number of Pixels in Spectrum: 1044
>>>>>Begin Spectral Data<<<<<
220.843	-0.5
221.644	-0.5
222.444	-0.5
223.244	-0.5
224.045	0.5
224.845	0.5
225.645	-0.5
226.445	-1.5
227.245	1.5
228.045	1.5
228.845	0.5
229.645	-1.5
230.444	-0.5
231.244	0.5
232.043	0.5
232.843	-0.5
233.642	0.5
234.442	1.5
235.241	0.5
236.04	0.5
236.839	-1.5
237.638	1.5
238.437	-0.5
239.236	-0.5
240.035	0.5
240.833	1.5
241.632	-0.5
242.43	1.5
243.229	-2.5
244.027	2.5
244.826	1.5
245.624	-1.5
246.422	1.5
247.22	0.5
248.018	0.5
248.816	0.5
249.614	2.5
250.412	0.5
251.21	4.5
252.007	1.5
252.805	2.5
253.602	0.5
254.4	1.5
255.197	1.5
255.994	1.5
256.791	4.5
257.589	2.5
258.386	3.5
259.183	1.5
259.979	5.5
260.776	3.5
261.573	4.5
262.37	2.5
263.166	5.5
263.963	2.5
264.759	3.5
265.556	4.5
266.352	5.5
267.148	3.5
267.944	5.5
268.74	7.5
269.536	4.5
270.332	7.5
271.128	7.5
271.924	6.5
272.719	5.5
273.515	8.5
274.311	9.5
275.106	8.5
275.901	9.5
276.697	8.5
277.492	9.5
278.287	8.5
279.082	8.5
279.877	7.5
280.672	9.5
281.467	9.5
282.262	11.5
283.056	7.5
283.851	9.5
284.646	9.5
285.44	9.5
286.234	10.5
287.029	10.5
287.823	11.5
288.617	8.5
289.411	8.5
290.205	11.5
290.999	11.5
291.793	9.5
292.587	9.5
293.381	11.5
294.174	8.5
294.968	9.5
295.761	10.5
296.555	9.5
297.348	6.5
298.141	6.5
298.935	9.5
299.728	9.5
300.521	7.5
301.314	6.5
302.107	5.5
302.899	4.5
303.692	9.5
304.485	7.5
305.277	7.5
306.07	7.5
306.862	6.5
307.655	8.5
308.447	5.5
309.239	9.5
310.031	7.5
310.823	4.5
311.615	8.5
312.407	5.5
313.199	4.5
313.991	5.5
314.783	5.5
315.574	6.5
316.366	2.5
317.157	4.5
317.949	5.5
318.74	3.5
319.531	4.5
320.322	4.5
321.113	5.5
321.904	2.5
322.695	3.5
323.486	4.5
324.277	4.5
325.068	3.5
325.858	3.5
326.649	3.5
327.439	3.5
328.23	4.5
329.02	3.5
329.81	1.5
330.6	2.5
331.391	3.5
332.181	2.5
332.971	0.5
333.76	1.5
334.55	1.5
335.34	3.5
336.13	3.5
336.919	3.5
337.709	2.5
338.498	3.5
339.287	3.5
340.077	2.5
340.866	1.5
341.655	2.5
342.444	4.5
343.233	2.5
344.022	0.5
344.811	3.5
345.6	2.5
346.388	3.5
347.177	0.5
347.965	3.5
348.754	3.5
349.542	1.5
350.33	2.5
351.119	1.5
351.907	2.5
352.695	2.5
353.483	3.5
354.271	0.5
355.059	0.5
355.846	2.5
356.634	1.5
357.422	3.5
358.209	2.5
358.997	-0.5
359.784	1.5
360.571	0.5
361.359	2.5
362.146	-0.5
362.933	2.5
363.72	0.5
364.507	3.5
365.294	1.5
366.081	2.5
366.867	3.5
367.654	-0.5
368.44	0.5
369.227	1.5
370.013	2.5
370.8	-0.5
371.586	2.5
372.372	1.5
373.158	1.5
373.944	1.5
374.73	0.5
375.516	1.5
376.302	1.5
377.088	0.5
377.873	1.5
378.659	1.5
379.445	3.5
380.23	2.5
381.015	0.5
381.801	1.5
382.586	-0.5
383.371	0.5
384.156	2.5
384.941	2.5
385.726	1.5
386.511	1.5
387.296	2.5
388.08	2.5
388.865	6.5
389.649	1.5
390.434	0.5
391.218	1.5
392.003	-1.5
392.787	4.5
393.571	1.5
394.355	2.5
395.139	3.5
395.923	3.5
396.707	1.5
397.491	0.5
398.274	4.5
399.058	1.5
399.842	0.5
400.625	3.5
401.408	3.5
402.192	4.5
402.975	1.5
403.758	4.5
404.541	0.5
405.324	2.5
406.107	1.5
406.89	3.5
407.673	4.5
408.456	3.5
409.238	4.5
410.021	2.5
410.803	2.5
411.586	1.5
412.368	3.5
413.151	3.5
413.933	1.5
414.715	4.5
415.497	2.5
416.279	6.5
417.061	2.5
417.843	3.5
418.624	4.5
419.406	4.5
420.188	3.5
420.969	7.5
421.751	4.5
422.532	5.5
423.313	4.5
424.095	4.5
424.876	5.5
425.657	5.5
426.438	6.5
427.219	5.5
428	5.5
428.78	6.5
429.561	7.5
430.342	6.5
431.122	6.5
431.903	6.5
432.683	6.5
433.464	9.5
434.244	7.5
435.024	7.5
435.804	9.5
436.584	10.5
437.364	8.5
438.144	9.5
438.924	11.5
439.704	10.5
440.483	8.5
441.263	9.5
442.042	10.5
442.822	12.5
443.601	12.5
444.38	15.5
445.16	15.5
445.939	17.5
446.718	16.5
447.497	17.5
448.276	16.5
449.054	18.5
449.833	20.5
450.612	24.5
451.391	23.5
452.169	26.5
452.948	28.5
453.726	33.5
454.504	33.5
455.282	39.5
456.061	44.5
456.839	46.5
457.617	53.5
458.395	58.5
459.172	61.5
459.95	72.5
460.728	78.5
461.506	84.5
462.283	101.5
463.061	110.5
463.838	123.5
464.615	137.5
465.393	147.5
466.17	169.5
466.947	185.5
467.724	214.5
468.501	231.5
469.278	261.5
470.055	299.5
470.831	325.5
471.608	360.5
472.385	404.5
473.161	447.5
473.938	511.5
474.714	557.5
475.49	611.5
476.266	692.5
477.043	764.5
477.819	834.5
478.595	933.5
479.371	1040.5
480.146	1129.5
480.922	1254.5
481.698	1395.5
482.473	1527.5
483.249	1696.5
484.024	1862.5
484.8	2078.5
485.575	2283.5
486.35	2513.5
487.126	2787.5
487.901	3099.5
488.676	3407.5
489.451	3760.5
490.225	4103.5
491	4515.5
491.775	4954.5
492.55	5469.5
493.324	5984.5
494.099	6563.5
494.873	7140.5
495.647	7816.5
496.422	8477.5
497.196	9223.5
497.97	9907.5
498.744	10697.5
499.518	11470.5
500.292	12171.5
501.066	12967.5
501.839	13653.5
502.613	14306.5
503.387	15001.5
504.16	15475.5
504.934	15916.5
505.707	16258.5
506.48	16521.5
507.253	16639.5
508.027	16686.5
508.8	16537.5
509.573	16389.5
510.346	16152.5
511.118	15807.5
511.891	15339.5
512.664	14817.5
513.437	14326.5
514.209	13746.5
514.982	13265.5
515.754	12679.5
516.526	12081.5
517.298	11541.5
518.071	11041.5
518.843	10551.5
519.615	10143.5
520.387	9691.5
521.159	9304.5
521.93	8901.5
522.702	8571.5
523.474	8265.5
524.245	7956.5
525.017	7576.5
525.788	7272.5
526.56	7030.5
527.331	6711.5
528.102	6390.5
528.873	6125.5
529.644	5855.5
530.415	5584.5
531.186	5298.5
531.957	5008.5
532.728	4765.5
533.498	4517.5
534.269	4258.5
535.039	4015.5
535.81	3792.5
536.58	3587.5
537.351	3389.5
538.121	3198.5
538.891	3030.5
539.661	2847.5
540.431	2708.5
541.201	2555.5
541.971	2426.5
542.741	2289.5
543.51	2187.5
544.28	2059.5
545.05	1955.5
545.819	1866.5
546.588	1769.5
547.358	1693.5
548.127	1605.5
548.896	1529.5
549.665	1455.5
550.434	1375.5
551.203	1292.5
551.972	1233.5
552.741	1173.5
553.51	1114.5
554.278	1040.5
555.047	989.5
555.815	925.5
556.584	883.5
557.352	831.5
558.121	791.5
558.889	734.5
559.657	692.5
560.425	645.5
561.193	617.5
561.961	573.5
562.729	540.5
563.496	517.5
564.264	494.5
565.032	450.5
565.799	428.5
566.567	412.5
567.334	383.5
568.101	363.5
568.869	338.5
569.636	329.5
570.403	310.5
571.17	294.5
571.937	276.5
572.704	259.5
573.471	245.5
574.237	228.5
575.004	212.5
575.771	204.5
576.537	190.5
577.303	180.5
578.07	171.5
578.836	157.5
579.602	151.5
580.368	138.5
581.134	132.5
581.9	128.5
582.666	117.5
583.432	117.5
584.198	107.5
584.964	102.5
585.729	96.5
586.495	93.5
587.26	85.5
588.025	77.5
588.791	76.5
589.556	65.5
590.321	69.5
591.086	62.5
591.851	57.5
592.616	61.5
593.381	54.5
594.146	51.5
594.911	48.5
595.675	48.5
596.44	46.5
597.204	45.5
597.969	42.5
598.733	42.5
599.497	37.5
600.261	34.5
601.025	35.5
601.79	31.5
602.553	31.5
603.317	30.5
604.081	27.5
604.845	25.5
605.609	28.5
606.372	22.5
607.136	24.5
607.899	22.5
608.662	20.5
609.426	19.5
610.189	20.5
610.952	19.5
611.715	15.5
612.478	15.5
613.241	14.5
614.004	15.5
614.767	17.5
615.529	12.5
616.292	13.5
617.055	13.5
617.817	9.5
618.579	13.5
619.342	10.5
620.104	9.5
620.866	9.5
621.628	8.5
622.39	10.5
623.152	14.5
623.914	8.5
624.676	10.5
625.438	8.5
626.199	7.5
626.961	6.5
627.722	9.5
628.484	7.5
629.245	8.5
630.006	8.5
630.768	8.5
631.529	6.5
632.29	6.5
633.051	4.5
633.812	6.5
634.573	7.5
635.333	4.5
636.094	8.5
636.855	4.5
637.615	5.5
638.376	4.5
639.136	5.5
639.896	2.5
640.657	5.5
641.417	1.5
642.177	3.5
642.937	2.5
643.697	4.5
644.457	6.5
645.216	2.5
645.976	4.5
646.736	6.5
647.495	4.5
648.255	2.5
649.014	3.5
649.774	3.5
650.533	2.5
651.292	2.5
652.051	3.5
652.81	3.5
653.569	1.5
654.328	2.5
655.087	0.5
655.846	4.5
656.604	1.5
657.363	6.5
658.121	4.5
658.88	2.5
659.638	2.5
660.397	0.5
661.155	1.5
661.913	1.5
662.671	5.5
663.429	2.5
664.187	1.5
664.945	2.5
665.703	2.5
666.46	3.5
667.218	0.5
667.976	1.5
668.733	2.5
669.49	1.5
670.248	2.5
671.005	4.5
671.762	3.5
672.519	2.5
673.276	0.5
674.033	3.5
674.79	2.5
675.547	2.5
676.304	3.5
677.06	1.5
677.817	1.5
678.574	3.5
679.33	2.5
680.086	0.5
680.843	1.5
681.599	0.5
682.355	0.5
683.111	4.5
683.867	3.5
684.623	3.5
685.379	0.5
686.135	1.5
686.89	-0.5
687.646	0.5
688.402	1.5
689.157	2.5
689.912	2.5
690.668	1.5
691.423	1.5
692.178	-2.5
692.933	1.5
693.688	0.5
694.443	-0.5
695.198	-0.5
695.953	1.5
696.708	3.5
697.462	0.5
698.217	1.5
698.972	-0.5
699.726	0.5
700.48	3.5
701.235	0.5
701.989	-0.5
702.743	0.5
703.497	0.5
704.251	3.5
705.005	1.5
705.759	1.5
706.513	1.5
707.266	0.5
708.02	2.5
708.774	0.5
709.527	2.5
710.28	2.5
711.034	1.5
711.787	2.5
712.54	1.5
713.293	2.5
714.046	2.5
714.799	3.5
715.552	1.5
716.305	0.5
717.058	-0.5
717.81	0.5
718.563	-0.5
719.315	2.5
720.068	0.5
720.82	-0.5
721.573	0.5
722.325	0.5
723.077	2.5
723.829	1.5
724.581	1.5
725.333	1.5
726.085	2.5
726.836	2.5
727.588	1.5
728.34	1.5
729.091	1.5
729.843	1.5
730.594	0.5
731.346	0.5
732.097	0.5
732.848	1.5
733.599	2.5
734.35	1.5
735.101	2.5
735.852	1.5
736.603	2.5
737.354	0.5
738.104	0.5
738.855	1.5
739.605	1.5
740.356	2.5
741.106	1.5
741.856	0.5
742.607	2.5
743.357	0.5
744.107	3.5
744.857	0.5
745.607	1.5
746.357	2.5
747.106	2.5
747.856	4.5
748.606	2.5
749.355	0.5
750.105	0.5
750.854	1.5
751.603	3.5
752.353	1.5
753.102	1.5
753.851	0.5
754.6	2.5
755.349	2.5
756.098	2.5
756.847	4.5
757.595	4.5
758.344	1.5
759.093	1.5
759.841	3.5
760.589	2.5
761.338	2.5
762.086	1.5
762.834	1.5
763.582	3.5
764.331	4.5
765.079	2.5
765.826	0.5
766.574	5.5
767.322	2.5
768.07	0.5
768.817	4.5
769.565	3.5
770.312	3.5
771.06	4.5
771.807	1.5
772.554	4.5
773.302	3.5
774.049	1.5
774.796	5.5
775.543	4.5
776.29	3.5
777.036	5.5
777.783	2.5
778.53	3.5
779.276	4.5
780.023	4.5
780.769	5.5
781.516	3.5
782.262	2.5
783.008	2.5
783.754	1.5
784.5	4.5
785.246	4.5
785.992	4.5
786.738	5.5
787.484	5.5
788.23	4.5
788.975	2.5
789.721	3.5
790.466	7.5
791.212	3.5
791.957	2.5
792.702	4.5
793.447	6.5
794.193	4.5
794.938	6.5
795.683	4.5
796.427	3.5
797.172	5.5
797.917	2.5
798.662	4.5
799.406	2.5
800.151	3.5
800.895	4.5
801.64	4.5
802.384	1.5
803.128	4.5
803.872	4.5
804.616	3.5
805.36	4.5
806.104	5.5
806.848	3.5
807.592	1.5
808.336	2.5
809.079	3.5
809.823	1.5
810.566	4.5
811.31	4.5
812.053	3.5
812.796	0.5
813.539	-0.5
814.283	3.5
815.026	0.5
815.769	0.5
816.511	2.5
817.254	3.5
817.997	3.5
818.74	2.5
819.482	1.5
820.225	1.5
820.967	2.5
821.71	1.5
822.452	1.5
823.194	1.5
823.936	1.5
824.678	3.5
825.42	1.5
826.162	0.5
826.904	5.5
827.646	2.5
828.388	1.5
829.129	1.5
829.871	-0.5
830.612	1.5
831.354	2.5
832.095	3.5
832.836	1.5
833.577	-0.5
834.319	2.5
835.06	2.5
835.801	3.5
836.542	3.5
837.282	1.5
838.023	0.5
838.764	0.5
839.504	-0.5
840.245	2.5
840.985	1.5
841.726	3.5
842.466	2.5
843.206	1.5
843.946	1.5
844.687	3.5
845.427	0.5
846.166	-0.5
846.906	1.5
847.646	0.5
848.386	2.5
849.125	1.5
849.865	2.5
850.605	0.5
851.344	0.5
852.083	-2.5
852.823	0.5
853.562	0.5
854.301	0.5
855.04	1.5
855.779	2.5
856.518	-0.5
857.257	0.5
857.995	-2.5
858.734	1.5
859.473	0.5
860.211	-1.5
860.95	1.5
861.688	1.5
862.426	1.5
863.165	1.5
863.903	2.5
864.641	1.5
865.379	0.5
866.117	-1.5
866.855	-0.5
867.593	1.5
868.33	-1.5
869.068	-0.5
869.806	0.5
870.543	-0.5
871.28	0.5
872.018	2.5
872.755	0.5
873.492	-0.5
874.229	1.5
874.967	-0.5
875.703	1.5
876.44	-0.5
877.177	1.5
877.914	-0.5
878.651	0.5
879.387	-2.5
880.124	1.5
880.86	-0.5
881.597	0.5
882.333	-0.5
883.069	1.5
883.806	1.5
884.542	0.5
885.278	0.5
886.014	-0.5
886.749	2.5
887.485	0.5
888.221	-0.5
888.957	-2.5
889.692	-0.5
890.428	-0.5
891.163	-1.5
891.899	1.5
892.634	-0.5
893.369	0.5
894.104	-0.5
894.839	0.5
895.574	1.5
896.309	-0.5
897.044	0.5
897.779	-0.5
898.514	0.5
899.248	0.5
899.983	-0.5
900.717	0.5
901.452	1.5
902.186	2.5
902.92	0.5
903.654	-2.5
904.389	1.5
905.123	-2.5
905.857	1.5
906.59	-0.5
907.324	1.5
908.058	1.5
908.792	-1.5
909.525	-0.5
910.259	-1.5
910.992	-1.5
911.726	-0.5
912.459	-1.5
913.192	0.5
913.925	-1.5
914.658	1.5
915.391	-1.5
916.124	-0.5
916.857	-0.5
917.59	-0.5
918.323	-1.5
919.055	-0.5
919.788	0.5
920.521	-1.5
921.253	-0.5
921.985	-1.5
922.718	0.5
923.45	-0.5
924.182	-1.5
924.914	-1.5
925.646	0.5
926.378	0.5
927.11	-0.5
927.841	0.5
928.573	-1.5
929.305	-1.5
930.036	-1.5
930.768	-0.5
931.499	-0.5
932.23	-1.5
932.962	0.5
933.693	-1.5
934.424	0.5
935.155	-0.5
935.886	0.5
936.617	0.5
937.348	-1.5
938.078	-2.5
938.809	0.5
939.54	-2.5
940.27	0.5
941.001	-2.5
941.731	1.5
942.461	-0.5
943.191	-0.5
943.922	0.5
944.652	-1.5
945.382	-0.5
946.112	-0.5
946.841	-0.5
947.571	-0.5
948.301	-0.5
949.031	-0.5
949.76	-2.5
950.49	-1.5
951.219	-2.5
951.948	-0.5
952.678	-2.5
953.407	0.5
954.136	0.5
954.865	-2.5
955.594	1.5
956.323	0.5
957.052	0.5
957.78	-1.5
958.509	-2.5
959.238	-1.5
959.966	0.5
960.695	-0.5
961.423	1.5
962.151	1.5
962.88	1.5
963.608	-0.5
964.336	0.5
965.064	-0.5
965.792	0.5
966.52	-2.5
967.247	-1.5
967.975	0.5
968.703	-1.5
969.43	-0.5
970.158	1.5
970.885	-0.5
971.613	1.5
972.34	0.5
973.067	-0.5
973.794	-1.5
974.521	0.5
975.248	-0.5
975.975	-2.5
976.702	1.5
977.429	0.5
978.156	-0.5
978.882	2.5
979.609	-2.5
980.335	-2.5
981.062	-0.5
981.788	-0.5
982.514	-4.5
983.24	-0.5
983.967	-1.5
984.693	-0.5
985.419	0.5
986.144	-2.5
986.87	0.5
987.596	-0.5
988.322	-1.5
989.047	-0.5
989.773	1.5
990.498	-0.5
991.224	-1.5
991.949	-1.5
992.674	-0.5
993.399	-2.5
994.124	-0.5
994.849	0.5
995.574	1.5
996.299	-2.5
997.024	0.5
997.749	-3.5
998.473	0.5
999.198	-1.5
999.922	-1.5
1000.647	-1.5
1001.371	3.5
1002.095	-0.5
1002.82	-2.5
1003.544	0.5
1004.268	-1.5
1004.992	-2.5
1005.716	-2.5
1006.439	-1.5
1007.163	-3.5
1007.887	-0.5
1008.611	-1.5
1009.334	-0.5
1010.058	-2.5
1010.781	4.5
1011.504	-0.5
1012.228	0.5
1012.951	0.5
1013.674	0.5
1014.397	-1.5
1015.12	-0.5
