节点500_145_QEPB04081__404__11-35-25-551.txt的数据

Date: Wed Nov 12 11:35:25 CST 2025
User: PC
Spectrometer: QEPB0408
触发模式: 0
积分时间 (秒): 1.000000E-2
Scans to average: 1
启用暗噪声校正: true
启用非线性校正: false
滑动平均宽度: 0
X轴模式: Wavelengths
Number of Pixels in Spectrum: 1044
>>>>>Begin Spectral Data<<<<<
220.843	0.62
221.644	1.62
222.444	0.62
223.244	2.62
224.045	0.62
224.845	-1.38
225.645	1.62
226.445	-1.38
227.245	2.62
228.045	0.62
228.845	1.62
229.645	0.62
230.444	2.62
231.244	1.62
232.043	-1.38
232.843	1.62
233.642	0.62
234.442	0.62
235.241	1.62
236.04	1.62
236.839	0.62
237.638	1.62
238.437	3.62
239.236	-0.38
240.035	3.62
240.833	2.62
241.632	0.62
242.43	0.62
243.229	2.62
244.027	4.62
244.826	3.62
245.624	2.62
246.422	1.62
247.22	2.62
248.018	2.62
248.816	-0.38
249.614	3.62
250.412	3.62
251.21	5.62
252.007	2.62
252.805	3.62
253.602	4.62
254.4	2.62
255.197	3.62
255.994	3.62
256.791	5.62
257.589	1.62
258.386	3.62
259.183	3.62
259.979	3.62
260.776	7.62
261.573	3.62
262.37	6.62
263.166	6.62
263.963	4.62
264.759	5.62
265.556	5.62
266.352	6.62
267.148	4.62
267.944	5.62
268.74	5.62
269.536	5.62
270.332	8.62
271.128	8.62
271.924	6.62
272.719	6.62
273.515	6.62
274.311	8.62
275.106	7.62
275.901	11.62
276.697	8.62
277.492	9.62
278.287	6.62
279.082	10.62
279.877	10.62
280.672	10.62
281.467	10.62
282.262	12.62
283.056	11.62
283.851	11.62
284.646	9.62
285.44	10.62
286.234	11.62
287.029	11.62
287.823	9.62
288.617	10.62
289.411	10.62
290.205	10.62
290.999	11.62
291.793	9.62
292.587	10.62
293.381	9.62
294.174	10.62
294.968	10.62
295.761	9.62
296.555	6.62
297.348	10.62
298.141	10.62
298.935	10.62
299.728	11.62
300.521	9.62
301.314	11.62
302.107	8.62
302.899	8.62
303.692	9.62
304.485	8.62
305.277	7.62
306.07	8.62
306.862	7.62
307.655	5.62
308.447	11.62
309.239	9.62
310.031	7.62
310.823	7.62
311.615	8.62
312.407	6.62
313.199	7.62
313.991	5.62
314.783	5.62
315.574	5.62
316.366	5.62
317.157	4.62
317.949	4.62
318.74	4.62
319.531	5.62
320.322	5.62
321.113	6.62
321.904	5.62
322.695	4.62
323.486	2.62
324.277	5.62
325.068	3.62
325.858	4.62
326.649	3.62
327.439	5.62
328.23	3.62
329.02	4.62
329.81	4.62
330.6	3.62
331.391	4.62
332.181	4.62
332.971	5.62
333.76	5.62
334.55	3.62
335.34	4.62
336.13	1.62
336.919	5.62
337.709	5.62
338.498	5.62
339.287	3.62
340.077	2.62
340.866	3.62
341.655	4.62
342.444	3.62
343.233	4.62
344.022	5.62
344.811	4.62
345.6	2.62
346.388	4.62
347.177	3.62
347.965	3.62
348.754	7.62
349.542	2.62
350.33	3.62
351.119	1.62
351.907	3.62
352.695	4.62
353.483	3.62
354.271	2.62
355.059	1.62
355.846	3.62
356.634	1.62
357.422	5.62
358.209	3.62
358.997	4.62
359.784	3.62
360.571	2.62
361.359	1.62
362.146	2.62
362.933	4.62
363.72	1.62
364.507	2.62
365.294	3.62
366.081	4.62
366.867	3.62
367.654	2.62
368.44	2.62
369.227	1.62
370.013	3.62
370.8	1.62
371.586	1.62
372.372	4.62
373.158	-0.38
373.944	2.62
374.73	3.62
375.516	2.62
376.302	3.62
377.088	2.62
377.873	1.62
378.659	2.62
379.445	3.62
380.23	4.62
381.015	5.62
381.801	3.62
382.586	1.62
383.371	2.62
384.156	0.62
384.941	2.62
385.726	1.62
386.511	3.62
387.296	2.62
388.08	2.62
388.865	4.62
389.649	1.62
390.434	3.62
391.218	3.62
392.003	3.62
392.787	2.62
393.571	5.62
394.355	3.62
395.139	6.62
395.923	3.62
396.707	5.62
397.491	2.62
398.274	5.62
399.058	1.62
399.842	3.62
400.625	2.62
401.408	4.62
402.192	5.62
402.975	4.62
403.758	4.62
404.541	3.62
405.324	5.62
406.107	4.62
406.89	4.62
407.673	3.62
408.456	3.62
409.238	5.62
410.021	0.62
410.803	5.62
411.586	3.62
412.368	5.62
413.151	4.62
413.933	4.62
414.715	6.62
415.497	5.62
416.279	3.62
417.061	4.62
417.843	7.62
418.624	5.62
419.406	4.62
420.188	4.62
420.969	4.62
421.751	7.62
422.532	5.62
423.313	7.62
424.095	7.62
424.876	4.62
425.657	5.62
426.438	5.62
427.219	3.62
428	7.62
428.78	5.62
429.561	4.62
430.342	4.62
431.122	7.62
431.903	8.62
432.683	11.62
433.464	6.62
434.244	9.62
435.024	8.62
435.804	8.62
436.584	9.62
437.364	10.62
438.144	11.62
438.924	10.62
439.704	12.62
440.483	12.62
441.263	13.62
442.042	13.62
442.822	13.62
443.601	15.62
444.38	13.62
445.16	14.62
445.939	14.62
446.718	17.62
447.497	19.62
448.276	22.62
449.054	24.62
449.833	23.62
450.612	28.62
451.391	26.62
452.169	30.62
452.948	32.62
453.726	35.62
454.504	36.62
455.282	40.62
456.061	47.62
456.839	51.62
457.617	56.62
458.395	63.62
459.172	65.62
459.95	78.62
460.728	83.62
461.506	98.62
462.283	105.62
463.061	118.62
463.838	132.62
464.615	146.62
465.393	159.62
466.17	182.62
466.947	199.62
467.724	225.62
468.501	254.62
469.278	282.62
470.055	313.62
470.831	347.62
471.608	386.62
472.385	420.62
473.161	470.62
473.938	519.62
474.714	581.62
475.49	644.62
476.266	707.62
477.043	782.62
477.819	862.62
478.595	957.62
479.371	1046.62
480.146	1162.62
480.922	1282.62
481.698	1408.62
482.473	1544.62
483.249	1716.62
484.024	1883.62
484.8	2051.62
485.575	2273.62
486.35	2471.62
487.126	2730.62
487.901	3018.62
488.676	3279.62
489.451	3603.62
490.225	3933.62
491	4345.62
491.775	4756.62
492.55	5215.62
493.324	5720.62
494.099	6211.62
494.873	6754.62
495.647	7371.62
496.422	7979.62
497.196	8657.62
497.97	9325.62
498.744	10027.62
499.518	10705.62
500.292	11407.62
501.066	12160.62
501.839	12813.62
502.613	13459.62
503.387	14052.62
504.16	14656.62
504.934	15112.62
505.707	15468.62
506.48	15809.62
507.253	16039.62
508.027	16111.62
508.8	16104.62
509.573	16035.62
510.346	15841.62
511.118	15578.62
511.891	15267.62
512.664	14735.62
513.437	14326.62
514.209	13862.62
514.982	13317.62
515.754	12766.62
516.526	12277.62
517.298	11751.62
518.071	11197.62
518.843	10739.62
519.615	10309.62
520.387	9844.62
521.159	9493.62
521.93	9083.62
522.702	8755.62
523.474	8343.62
524.245	8015.62
525.017	7720.62
525.788	7387.62
526.56	7147.62
527.331	6870.62
528.102	6521.62
528.873	6244.62
529.644	5965.62
530.415	5688.62
531.186	5420.62
531.957	5189.62
532.728	4910.62
533.498	4648.62
534.269	4422.62
535.039	4204.62
535.81	3962.62
536.58	3734.62
537.351	3517.62
538.121	3344.62
538.891	3139.62
539.661	2967.62
540.431	2802.62
541.201	2660.62
541.971	2518.62
542.741	2400.62
543.51	2271.62
544.28	2142.62
545.05	2041.62
545.819	1945.62
546.588	1853.62
547.358	1749.62
548.127	1670.62
548.896	1578.62
549.665	1501.62
550.434	1442.62
551.203	1363.62
551.972	1285.62
552.741	1217.62
553.51	1164.62
554.278	1103.62
555.047	1027.62
555.815	964.62
556.584	926.62
557.352	867.62
558.121	832.62
558.889	769.62
559.657	728.62
560.425	685.62
561.193	654.62
561.961	617.62
562.729	570.62
563.496	547.62
564.264	523.62
565.032	476.62
565.799	469.62
566.567	433.62
567.334	407.62
568.101	390.62
568.869	366.62
569.636	344.62
570.403	325.62
571.17	304.62
571.937	285.62
572.704	274.62
573.471	256.62
574.237	241.62
575.004	228.62
575.771	210.62
576.537	203.62
577.303	192.62
578.07	184.62
578.836	171.62
579.602	163.62
580.368	151.62
581.134	146.62
581.9	137.62
582.666	127.62
583.432	119.62
584.198	116.62
584.964	107.62
585.729	98.62
586.495	95.62
587.26	95.62
588.025	86.62
588.791	83.62
589.556	75.62
590.321	70.62
591.086	70.62
591.851	67.62
592.616	62.62
593.381	55.62
594.146	58.62
594.911	49.62
595.675	52.62
596.44	48.62
597.204	45.62
597.969	45.62
598.733	41.62
599.497	40.62
600.261	38.62
601.025	39.62
601.79	38.62
602.553	33.62
603.317	31.62
604.081	30.62
604.845	32.62
605.609	26.62
606.372	27.62
607.136	24.62
607.899	25.62
608.662	22.62
609.426	19.62
610.189	23.62
610.952	19.62
611.715	21.62
612.478	21.62
613.241	18.62
614.004	15.62
614.767	17.62
615.529	18.62
616.292	14.62
617.055	15.62
617.817	14.62
618.579	13.62
619.342	13.62
620.104	11.62
620.866	13.62
621.628	11.62
622.39	10.62
623.152	12.62
623.914	13.62
624.676	8.62
625.438	8.62
626.199	13.62
626.961	10.62
627.722	7.62
628.484	10.62
629.245	7.62
630.006	9.62
630.768	8.62
631.529	9.62
632.29	8.62
633.051	8.62
633.812	5.62
634.573	4.62
635.333	7.62
636.094	7.62
636.855	7.62
637.615	7.62
638.376	8.62
639.136	5.62
639.896	3.62
640.657	3.62
641.417	5.62
642.177	4.62
642.937	5.62
643.697	4.62
644.457	3.62
645.216	5.62
645.976	4.62
646.736	5.62
647.495	4.62
648.255	5.62
649.014	5.62
649.774	3.62
650.533	4.62
651.292	3.62
652.051	2.62
652.81	4.62
653.569	2.62
654.328	4.62
655.087	5.62
655.846	3.62
656.604	3.62
657.363	2.62
658.121	3.62
658.88	1.62
659.638	2.62
660.397	2.62
661.155	4.62
661.913	3.62
662.671	2.62
663.429	3.62
664.187	2.62
664.945	5.62
665.703	3.62
666.46	1.62
667.218	2.62
667.976	3.62
668.733	3.62
669.49	2.62
670.248	3.62
671.005	2.62
671.762	1.62
672.519	4.62
673.276	3.62
674.033	2.62
674.79	3.62
675.547	3.62
676.304	3.62
677.06	1.62
677.817	5.62
678.574	5.62
679.33	2.62
680.086	2.62
680.843	3.62
681.599	2.62
682.355	1.62
683.111	2.62
683.867	2.62
684.623	1.62
685.379	2.62
686.135	1.62
686.89	4.62
687.646	1.62
688.402	3.62
689.157	1.62
689.912	1.62
690.668	5.62
691.423	2.62
692.178	4.62
692.933	2.62
693.688	2.62
694.443	1.62
695.198	4.62
695.953	0.62
696.708	3.62
697.462	1.62
698.217	2.62
698.972	3.62
699.726	3.62
700.48	1.62
701.235	2.62
701.989	1.62
702.743	1.62
703.497	1.62
704.251	1.62
705.005	1.62
705.759	3.62
706.513	2.62
707.266	1.62
708.02	2.62
708.774	2.62
709.527	3.62
710.28	4.62
711.034	0.62
711.787	2.62
712.54	-0.38
713.293	1.62
714.046	1.62
714.799	2.62
715.552	2.62
716.305	4.62
717.058	3.62
717.81	1.62
718.563	3.62
719.315	4.62
720.068	2.62
720.82	2.62
721.573	1.62
722.325	2.62
723.077	0.62
723.829	2.62
724.581	1.62
725.333	3.62
726.085	3.62
726.836	-0.38
727.588	2.62
728.34	1.62
729.091	2.62
729.843	0.62
730.594	3.62
731.346	2.62
732.097	1.62
732.848	2.62
733.599	3.62
734.35	3.62
735.101	3.62
735.852	1.62
736.603	2.62
737.354	1.62
738.104	2.62
738.855	5.62
739.605	1.62
740.356	1.62
741.106	0.62
741.856	2.62
742.607	2.62
743.357	3.62
744.107	1.62
744.857	2.62
745.607	3.62
746.357	3.62
747.106	1.62
747.856	2.62
748.606	3.62
749.355	3.62
750.105	3.62
750.854	5.62
751.603	0.62
752.353	3.62
753.102	2.62
753.851	4.62
754.6	4.62
755.349	4.62
756.098	2.62
756.847	3.62
757.595	2.62
758.344	0.62
759.093	3.62
759.841	2.62
760.589	4.62
761.338	4.62
762.086	2.62
762.834	5.62
763.582	4.62
764.331	2.62
765.079	3.62
765.826	4.62
766.574	2.62
767.322	3.62
768.07	1.62
768.817	5.62
769.565	3.62
770.312	3.62
771.06	6.62
771.807	4.62
772.554	3.62
773.302	4.62
774.049	4.62
774.796	5.62
775.543	1.62
776.29	2.62
777.036	2.62
777.783	3.62
778.53	4.62
779.276	5.62
780.023	4.62
780.769	4.62
781.516	5.62
782.262	5.62
783.008	6.62
783.754	5.62
784.5	5.62
785.246	4.62
785.992	6.62
786.738	4.62
787.484	5.62
788.23	5.62
788.975	3.62
789.721	3.62
790.466	6.62
791.212	6.62
791.957	5.62
792.702	4.62
793.447	5.62
794.193	4.62
794.938	3.62
795.683	6.62
796.427	5.62
797.172	4.62
797.917	3.62
798.662	4.62
799.406	3.62
800.151	3.62
800.895	6.62
801.64	3.62
802.384	6.62
803.128	5.62
803.872	4.62
804.616	3.62
805.36	2.62
806.104	4.62
806.848	2.62
807.592	3.62
808.336	4.62
809.079	2.62
809.823	5.62
810.566	3.62
811.31	3.62
812.053	2.62
812.796	4.62
813.539	4.62
814.283	3.62
815.026	4.62
815.769	4.62
816.511	3.62
817.254	3.62
817.997	3.62
818.74	3.62
819.482	3.62
820.225	2.62
820.967	1.62
821.71	4.62
822.452	3.62
823.194	2.62
823.936	3.62
824.678	2.62
825.42	5.62
826.162	3.62
826.904	4.62
827.646	4.62
828.388	2.62
829.129	3.62
829.871	4.62
830.612	3.62
831.354	5.62
832.095	3.62
832.836	0.62
833.577	2.62
834.319	1.62
835.06	4.62
835.801	4.62
836.542	3.62
837.282	2.62
838.023	2.62
838.764	2.62
839.504	0.62
840.245	1.62
840.985	1.62
841.726	1.62
842.466	3.62
843.206	-0.38
843.946	-0.38
844.687	3.62
845.427	1.62
846.166	5.62
846.906	1.62
847.646	2.62
848.386	1.62
849.125	0.62
849.865	0.62
850.605	0.62
851.344	2.62
852.083	0.62
852.823	2.62
853.562	0.62
854.301	2.62
855.04	1.62
855.779	3.62
856.518	1.62
857.257	3.62
857.995	2.62
858.734	1.62
859.473	2.62
860.211	3.62
860.95	-1.38
861.688	2.62
862.426	0.62
863.165	0.62
863.903	0.62
864.641	-0.38
865.379	4.62
866.117	0.62
866.855	0.62
867.593	3.62
868.33	0.62
869.068	1.62
869.806	1.62
870.543	0.62
871.28	-1.38
872.018	1.62
872.755	3.62
873.492	1.62
874.229	1.62
874.967	2.62
875.703	0.62
876.44	-0.38
877.177	2.62
877.914	0.62
878.651	-1.38
879.387	1.62
880.124	0.62
880.86	0.62
881.597	1.62
882.333	-0.38
883.069	1.62
883.806	0.62
884.542	1.62
885.278	1.62
886.014	2.62
886.749	1.62
887.485	2.62
888.221	-0.38
888.957	0.62
889.692	0.62
890.428	1.62
891.163	1.62
891.899	-0.38
892.634	1.62
893.369	0.62
894.104	1.62
894.839	0.62
895.574	-0.38
896.309	1.62
897.044	1.62
897.779	2.62
898.514	2.62
899.248	1.62
899.983	1.62
900.717	-0.38
901.452	3.62
902.186	1.62
902.92	-0.38
903.654	-0.38
904.389	1.62
905.123	0.62
905.857	0.62
906.59	-0.38
907.324	0.62
908.058	1.62
908.792	1.62
909.525	2.62
910.259	-1.38
910.992	-0.38
911.726	0.62
912.459	0.62
913.192	0.62
913.925	1.62
914.658	-0.38
915.391	2.62
916.124	0.62
916.857	2.62
917.59	-0.38
918.323	-0.38
919.055	1.62
919.788	-0.38
920.521	1.62
921.253	0.62
921.985	1.62
922.718	0.62
923.45	0.62
924.182	-0.38
924.914	2.62
925.646	-0.38
926.378	-1.38
927.11	0.62
927.841	-0.38
928.573	2.62
929.305	1.62
930.036	1.62
930.768	-1.38
931.499	1.62
932.23	1.62
932.962	-0.38
933.693	0.62
934.424	-1.38
935.155	0.62
935.886	-0.38
936.617	-1.38
937.348	1.62
938.078	0.62
938.809	0.62
939.54	-0.38
940.27	0.62
941.001	-0.38
941.731	-0.38
942.461	2.62
943.191	1.62
943.922	0.62
944.652	-0.38
945.382	0.62
946.112	0.62
946.841	-1.38
947.571	-0.38
948.301	-0.38
949.031	1.62
949.76	0.62
950.49	-0.38
951.219	0.62
951.948	-2.38
952.678	1.62
953.407	0.62
954.136	2.62
954.865	1.62
955.594	0.62
956.323	1.62
957.052	-0.38
957.78	0.62
958.509	-1.38
959.238	0.62
959.966	1.62
960.695	-2.38
961.423	-1.38
962.151	0.62
962.88	1.62
963.608	1.62
964.336	-0.38
965.064	1.62
965.792	0.62
966.52	-1.38
967.247	0.62
967.975	0.62
968.703	1.62
969.43	-0.38
970.158	0.62
970.885	0.62
971.613	0.62
972.34	-2.38
973.067	0.62
973.794	2.62
974.521	1.62
975.248	2.62
975.975	1.62
976.702	-0.38
977.429	-0.38
978.156	1.62
978.882	0.62
979.609	-1.38
980.335	0.62
981.062	1.62
981.788	0.62
982.514	0.62
983.24	0.62
983.967	-0.38
984.693	0.62
985.419	1.62
986.144	0.62
986.87	-1.38
987.596	0.62
988.322	0.62
989.047	1.62
989.773	-0.38
990.498	1.62
991.224	-0.38
991.949	2.62
992.674	1.62
993.399	0.62
994.124	1.62
994.849	0.62
995.574	1.62
996.299	-1.38
997.024	-1.38
997.749	-1.38
998.473	0.62
999.198	-0.38
999.922	0.62
1000.647	-0.38
1001.371	2.62
1002.095	-1.38
1002.82	-0.38
1003.544	-2.38
1004.268	0.62
1004.992	-1.38
1005.716	0.62
1006.439	-0.38
1007.163	-0.38
1007.887	-0.38
1008.611	1.62
1009.334	1.62
1010.058	0.62
1010.781	1.62
1011.504	0.62
1012.228	0.62
1012.951	0.62
1013.674	1.62
1014.397	-0.38
1015.12	-0.38
