节点500_145_QEPB04081__9__11-29-05-799.txt的数据

Date: Wed Nov 12 11:29:05 CST 2025
User: PC
Spectrometer: QEPB0408
触发模式: 0
积分时间 (秒): 1.000000E-2
Scans to average: 1
启用暗噪声校正: true
启用非线性校正: false
滑动平均宽度: 0
X轴模式: Wavelengths
Number of Pixels in Spectrum: 1044
>>>>>Begin Spectral Data<<<<<
220.843	-0.38
221.644	1.62
222.444	-1.38
223.244	-1.38
224.045	0.62
224.845	-0.38
225.645	0.62
226.445	-0.38
227.245	-0.38
228.045	0.62
228.845	-0.38
229.645	0.62
230.444	-1.38
231.244	-0.38
232.043	-2.38
232.843	1.62
233.642	-1.38
234.442	1.62
235.241	-0.38
236.04	2.62
236.839	1.62
237.638	0.62
238.437	-0.38
239.236	-1.38
240.035	1.62
240.833	1.62
241.632	0.62
242.43	0.62
243.229	-0.38
244.027	1.62
244.826	0.62
245.624	3.62
246.422	2.62
247.22	-0.38
248.018	1.62
248.816	0.62
249.614	3.62
250.412	-0.38
251.21	1.62
252.007	2.62
252.805	0.62
253.602	3.62
254.4	3.62
255.197	3.62
255.994	2.62
256.791	3.62
257.589	4.62
258.386	3.62
259.183	5.62
259.979	2.62
260.776	5.62
261.573	3.62
262.37	4.62
263.166	5.62
263.963	5.62
264.759	3.62
265.556	4.62
266.352	6.62
267.148	5.62
267.944	5.62
268.74	5.62
269.536	5.62
270.332	5.62
271.128	7.62
271.924	7.62
272.719	8.62
273.515	6.62
274.311	8.62
275.106	6.62
275.901	10.62
276.697	8.62
277.492	10.62
278.287	9.62
279.082	7.62
279.877	11.62
280.672	12.62
281.467	12.62
282.262	9.62
283.056	10.62
283.851	11.62
284.646	9.62
285.44	9.62
286.234	10.62
287.029	12.62
287.823	12.62
288.617	13.62
289.411	13.62
290.205	8.62
290.999	11.62
291.793	8.62
292.587	10.62
293.381	9.62
294.174	12.62
294.968	11.62
295.761	7.62
296.555	9.62
297.348	10.62
298.141	11.62
298.935	11.62
299.728	9.62
300.521	9.62
301.314	7.62
302.107	7.62
302.899	9.62
303.692	9.62
304.485	8.62
305.277	4.62
306.07	7.62
306.862	6.62
307.655	7.62
308.447	7.62
309.239	6.62
310.031	5.62
310.823	5.62
311.615	6.62
312.407	4.62
313.199	6.62
313.991	6.62
314.783	4.62
315.574	5.62
316.366	5.62
317.157	4.62
317.949	3.62
318.74	4.62
319.531	4.62
320.322	3.62
321.113	5.62
321.904	4.62
322.695	2.62
323.486	2.62
324.277	2.62
325.068	4.62
325.858	1.62
326.649	3.62
327.439	3.62
328.23	3.62
329.02	-0.38
329.81	1.62
330.6	2.62
331.391	4.62
332.181	4.62
332.971	4.62
333.76	4.62
334.55	4.62
335.34	3.62
336.13	1.62
336.919	2.62
337.709	4.62
338.498	4.62
339.287	4.62
340.077	2.62
340.866	3.62
341.655	3.62
342.444	3.62
343.233	2.62
344.022	2.62
344.811	3.62
345.6	3.62
346.388	3.62
347.177	5.62
347.965	5.62
348.754	3.62
349.542	4.62
350.33	0.62
351.119	4.62
351.907	4.62
352.695	3.62
353.483	2.62
354.271	3.62
355.059	1.62
355.846	1.62
356.634	3.62
357.422	0.62
358.209	2.62
358.997	1.62
359.784	1.62
360.571	2.62
361.359	1.62
362.146	2.62
362.933	3.62
363.72	3.62
364.507	2.62
365.294	2.62
366.081	1.62
366.867	1.62
367.654	2.62
368.44	2.62
369.227	4.62
370.013	0.62
370.8	0.62
371.586	2.62
372.372	3.62
373.158	2.62
373.944	3.62
374.73	4.62
375.516	3.62
376.302	1.62
377.088	0.62
377.873	1.62
378.659	4.62
379.445	2.62
380.23	1.62
381.015	0.62
381.801	3.62
382.586	2.62
383.371	1.62
384.156	2.62
384.941	3.62
385.726	1.62
386.511	1.62
387.296	3.62
388.08	1.62
388.865	2.62
389.649	3.62
390.434	2.62
391.218	0.62
392.003	2.62
392.787	3.62
393.571	2.62
394.355	2.62
395.139	2.62
395.923	2.62
396.707	2.62
397.491	1.62
398.274	2.62
399.058	3.62
399.842	2.62
400.625	3.62
401.408	2.62
402.192	4.62
402.975	2.62
403.758	3.62
404.541	4.62
405.324	2.62
406.107	4.62
406.89	7.62
407.673	1.62
408.456	2.62
409.238	3.62
410.021	5.62
410.803	4.62
411.586	4.62
412.368	3.62
413.151	4.62
413.933	6.62
414.715	7.62
415.497	6.62
416.279	4.62
417.061	5.62
417.843	4.62
418.624	2.62
419.406	3.62
420.188	5.62
420.969	5.62
421.751	4.62
422.532	5.62
423.313	6.62
424.095	6.62
424.876	6.62
425.657	5.62
426.438	6.62
427.219	6.62
428	6.62
428.78	6.62
429.561	6.62
430.342	6.62
431.122	7.62
431.903	8.62
432.683	5.62
433.464	7.62
434.244	9.62
435.024	9.62
435.804	9.62
436.584	9.62
437.364	9.62
438.144	10.62
438.924	9.62
439.704	9.62
440.483	10.62
441.263	11.62
442.042	11.62
442.822	13.62
443.601	12.62
444.38	13.62
445.16	15.62
445.939	13.62
446.718	13.62
447.497	15.62
448.276	16.62
449.054	20.62
449.833	22.62
450.612	23.62
451.391	22.62
452.169	28.62
452.948	27.62
453.726	28.62
454.504	31.62
455.282	35.62
456.061	41.62
456.839	43.62
457.617	46.62
458.395	55.62
459.172	59.62
459.95	62.62
460.728	65.62
461.506	77.62
462.283	86.62
463.061	96.62
463.838	109.62
464.615	124.62
465.393	134.62
466.17	146.62
466.947	172.62
467.724	195.62
468.501	206.62
469.278	239.62
470.055	264.62
470.831	293.62
471.608	343.62
472.385	376.62
473.161	415.62
473.938	466.62
474.714	512.62
475.49	583.62
476.266	649.62
477.043	730.62
477.819	795.62
478.595	886.62
479.371	998.62
480.146	1100.62
480.922	1220.62
481.698	1368.62
482.473	1517.62
483.249	1689.62
484.024	1892.62
484.8	2078.62
485.575	2341.62
486.35	2555.62
487.126	2864.62
487.901	3168.62
488.676	3525.62
489.451	3889.62
490.225	4346.62
491	4791.62
491.775	5284.62
492.55	5836.62
493.324	6430.62
494.099	7071.62
494.873	7741.62
495.647	8481.62
496.422	9272.62
497.196	10049.62
497.97	10888.62
498.744	11707.62
499.518	12521.62
500.292	13339.62
501.066	14133.62
501.839	14841.62
502.613	15542.62
503.387	16173.62
504.16	16648.62
504.934	17078.62
505.707	17377.62
506.48	17440.62
507.253	17534.62
508.027	17429.62
508.8	17244.62
509.573	16910.62
510.346	16538.62
511.118	16041.62
511.891	15517.62
512.664	14844.62
513.437	14259.62
514.209	13689.62
514.982	13028.62
515.754	12405.62
516.526	11879.62
517.298	11327.62
518.071	10801.62
518.843	10281.62
519.615	9871.62
520.387	9429.62
521.159	9053.62
521.93	8736.62
522.702	8373.62
523.474	8043.62
524.245	7756.62
525.017	7424.62
525.788	7124.62
526.56	6848.62
527.331	6518.62
528.102	6237.62
528.873	5951.62
529.644	5676.62
530.415	5391.62
531.186	5124.62
531.957	4840.62
532.728	4575.62
533.498	4331.62
534.269	4096.62
535.039	3837.62
535.81	3614.62
536.58	3427.62
537.351	3231.62
538.121	3042.62
538.891	2867.62
539.661	2706.62
540.431	2586.62
541.201	2437.62
541.971	2317.62
542.741	2187.62
543.51	2088.62
544.28	1951.62
545.05	1880.62
545.819	1787.62
546.588	1699.62
547.358	1612.62
548.127	1520.62
548.896	1458.62
549.665	1383.62
550.434	1303.62
551.203	1238.62
551.972	1173.62
552.741	1095.62
553.51	1043.62
554.278	986.62
555.047	931.62
555.815	874.62
556.584	829.62
557.352	760.62
558.121	723.62
558.889	692.62
559.657	645.62
560.425	608.62
561.193	576.62
561.961	547.62
562.729	520.62
563.496	486.62
564.264	462.62
565.032	440.62
565.799	409.62
566.567	387.62
567.334	352.62
568.101	333.62
568.869	325.62
569.636	303.62
570.403	286.62
571.17	270.62
571.937	254.62
572.704	242.62
573.471	225.62
574.237	213.62
575.004	204.62
575.771	184.62
576.537	180.62
577.303	166.62
578.07	160.62
578.836	149.62
579.602	142.62
580.368	132.62
581.134	121.62
581.9	116.62
582.666	107.62
583.432	107.62
584.198	100.62
584.964	89.62
585.729	91.62
586.495	83.62
587.26	80.62
588.025	73.62
588.791	69.62
589.556	69.62
590.321	64.62
591.086	57.62
591.851	56.62
592.616	54.62
593.381	52.62
594.146	48.62
594.911	48.62
595.675	43.62
596.44	38.62
597.204	39.62
597.969	40.62
598.733	37.62
599.497	34.62
600.261	34.62
601.025	30.62
601.79	31.62
602.553	25.62
603.317	25.62
604.081	25.62
604.845	25.62
605.609	25.62
606.372	19.62
607.136	20.62
607.899	22.62
608.662	21.62
609.426	17.62
610.189	18.62
610.952	21.62
611.715	19.62
612.478	18.62
613.241	13.62
614.004	13.62
614.767	14.62
615.529	13.62
616.292	12.62
617.055	11.62
617.817	15.62
618.579	12.62
619.342	12.62
620.104	11.62
620.866	10.62
621.628	10.62
622.39	9.62
623.152	12.62
623.914	7.62
624.676	6.62
625.438	7.62
626.199	8.62
626.961	7.62
627.722	7.62
628.484	5.62
629.245	7.62
630.006	6.62
630.768	8.62
631.529	5.62
632.29	7.62
633.051	6.62
633.812	7.62
634.573	5.62
635.333	6.62
636.094	6.62
636.855	6.62
637.615	6.62
638.376	6.62
639.136	5.62
639.896	6.62
640.657	4.62
641.417	4.62
642.177	4.62
642.937	3.62
643.697	8.62
644.457	3.62
645.216	4.62
645.976	4.62
646.736	6.62
647.495	4.62
648.255	4.62
649.014	1.62
649.774	1.62
650.533	3.62
651.292	3.62
652.051	5.62
652.81	1.62
653.569	3.62
654.328	2.62
655.087	2.62
655.846	3.62
656.604	2.62
657.363	4.62
658.121	3.62
658.88	3.62
659.638	5.62
660.397	3.62
661.155	1.62
661.913	2.62
662.671	2.62
663.429	2.62
664.187	2.62
664.945	1.62
665.703	1.62
666.46	4.62
667.218	1.62
667.976	-0.38
668.733	2.62
669.49	0.62
670.248	1.62
671.005	2.62
671.762	1.62
672.519	2.62
673.276	1.62
674.033	-0.38
674.79	1.62
675.547	1.62
676.304	0.62
677.06	1.62
677.817	3.62
678.574	3.62
679.33	1.62
680.086	0.62
680.843	2.62
681.599	1.62
682.355	0.62
683.111	0.62
683.867	4.62
684.623	1.62
685.379	0.62
686.135	1.62
686.89	0.62
687.646	1.62
688.402	1.62
689.157	2.62
689.912	0.62
690.668	-0.38
691.423	1.62
692.178	2.62
692.933	2.62
693.688	2.62
694.443	2.62
695.198	1.62
695.953	1.62
696.708	4.62
697.462	1.62
698.217	2.62
698.972	1.62
699.726	-0.38
700.48	3.62
701.235	0.62
701.989	4.62
702.743	0.62
703.497	1.62
704.251	-0.38
705.005	2.62
705.759	1.62
706.513	2.62
707.266	-0.38
708.02	1.62
708.774	0.62
709.527	3.62
710.28	0.62
711.034	0.62
711.787	0.62
712.54	1.62
713.293	0.62
714.046	0.62
714.799	0.62
715.552	0.62
716.305	1.62
717.058	-0.38
717.81	1.62
718.563	1.62
719.315	0.62
720.068	2.62
720.82	1.62
721.573	1.62
722.325	0.62
723.077	3.62
723.829	3.62
724.581	-0.38
725.333	1.62
726.085	0.62
726.836	0.62
727.588	1.62
728.34	0.62
729.091	1.62
729.843	1.62
730.594	1.62
731.346	1.62
732.097	1.62
732.848	2.62
733.599	0.62
734.35	0.62
735.101	1.62
735.852	2.62
736.603	0.62
737.354	2.62
738.104	1.62
738.855	2.62
739.605	0.62
740.356	1.62
741.106	3.62
741.856	2.62
742.607	1.62
743.357	1.62
744.107	1.62
744.857	3.62
745.607	2.62
746.357	-0.38
747.106	3.62
747.856	1.62
748.606	1.62
749.355	2.62
750.105	2.62
750.854	1.62
751.603	3.62
752.353	1.62
753.102	2.62
753.851	2.62
754.6	-1.38
755.349	3.62
756.098	2.62
756.847	3.62
757.595	1.62
758.344	1.62
759.093	3.62
759.841	2.62
760.589	1.62
761.338	2.62
762.086	3.62
762.834	1.62
763.582	5.62
764.331	4.62
765.079	4.62
765.826	3.62
766.574	4.62
767.322	5.62
768.07	3.62
768.817	5.62
769.565	2.62
770.312	1.62
771.06	5.62
771.807	4.62
772.554	5.62
773.302	5.62
774.049	2.62
774.796	5.62
775.543	2.62
776.29	4.62
777.036	5.62
777.783	3.62
778.53	3.62
779.276	5.62
780.023	4.62
780.769	2.62
781.516	5.62
782.262	5.62
783.008	3.62
783.754	8.62
784.5	4.62
785.246	4.62
785.992	4.62
786.738	6.62
787.484	3.62
788.23	4.62
788.975	5.62
789.721	6.62
790.466	5.62
791.212	4.62
791.957	4.62
792.702	6.62
793.447	6.62
794.193	4.62
794.938	4.62
795.683	4.62
796.427	1.62
797.172	4.62
797.917	5.62
798.662	4.62
799.406	8.62
800.151	2.62
800.895	3.62
801.64	5.62
802.384	5.62
803.128	3.62
803.872	1.62
804.616	3.62
805.36	3.62
806.104	3.62
806.848	3.62
807.592	4.62
808.336	3.62
809.079	2.62
809.823	3.62
810.566	1.62
811.31	3.62
812.053	5.62
812.796	4.62
813.539	2.62
814.283	2.62
815.026	2.62
815.769	-2.38
816.511	1.62
817.254	1.62
817.997	0.62
818.74	2.62
819.482	1.62
820.225	4.62
820.967	2.62
821.71	2.62
822.452	3.62
823.194	2.62
823.936	3.62
824.678	2.62
825.42	1.62
826.162	5.62
826.904	3.62
827.646	3.62
828.388	4.62
829.129	4.62
829.871	-0.38
830.612	1.62
831.354	1.62
832.095	1.62
832.836	5.62
833.577	3.62
834.319	2.62
835.06	2.62
835.801	0.62
836.542	3.62
837.282	0.62
838.023	2.62
838.764	-0.38
839.504	2.62
840.245	-1.38
840.985	1.62
841.726	2.62
842.466	3.62
843.206	1.62
843.946	3.62
844.687	0.62
845.427	-0.38
846.166	0.62
846.906	1.62
847.646	3.62
848.386	0.62
849.125	-0.38
849.865	-1.38
850.605	2.62
851.344	3.62
852.083	0.62
852.823	0.62
853.562	1.62
854.301	0.62
855.04	2.62
855.779	3.62
856.518	2.62
857.257	-0.38
857.995	0.62
858.734	2.62
859.473	0.62
860.211	0.62
860.95	0.62
861.688	-1.38
862.426	-0.38
863.165	1.62
863.903	0.62
864.641	1.62
865.379	-1.38
866.117	1.62
866.855	-0.38
867.593	1.62
868.33	-0.38
869.068	-0.38
869.806	2.62
870.543	1.62
871.28	1.62
872.018	-0.38
872.755	2.62
873.492	1.62
874.229	-0.38
874.967	-0.38
875.703	-0.38
876.44	0.62
877.177	1.62
877.914	2.62
878.651	2.62
879.387	2.62
880.124	-0.38
880.86	-0.38
881.597	0.62
882.333	-2.38
883.069	-0.38
883.806	1.62
884.542	1.62
885.278	0.62
886.014	1.62
886.749	0.62
887.485	-0.38
888.221	0.62
888.957	-1.38
889.692	-0.38
890.428	1.62
891.163	1.62
891.899	1.62
892.634	-0.38
893.369	0.62
894.104	0.62
894.839	-1.38
895.574	0.62
896.309	0.62
897.044	-1.38
897.779	-2.38
898.514	-0.38
899.248	-1.38
899.983	-0.38
900.717	-3.38
901.452	0.62
902.186	0.62
902.92	0.62
903.654	-0.38
904.389	-0.38
905.123	1.62
905.857	0.62
906.59	-2.38
907.324	-1.38
908.058	-0.38
908.792	-0.38
909.525	-1.38
910.259	-0.38
910.992	1.62
911.726	0.62
912.459	0.62
913.192	-1.38
913.925	-0.38
914.658	-0.38
915.391	0.62
916.124	-0.38
916.857	1.62
917.59	0.62
918.323	-0.38
919.055	-1.38
919.788	-1.38
920.521	0.62
921.253	-0.38
921.985	-2.38
922.718	0.62
923.45	-2.38
924.182	1.62
924.914	-2.38
925.646	-1.38
926.378	1.62
927.11	-0.38
927.841	0.62
928.573	-0.38
929.305	-1.38
930.036	-0.38
930.768	0.62
931.499	-0.38
932.23	-1.38
932.962	0.62
933.693	0.62
934.424	0.62
935.155	-1.38
935.886	-3.38
936.617	0.62
937.348	-1.38
938.078	-0.38
938.809	-0.38
939.54	-0.38
940.27	0.62
941.001	-1.38
941.731	0.62
942.461	-0.38
943.191	-1.38
943.922	0.62
944.652	-2.38
945.382	-0.38
946.112	-0.38
946.841	0.62
947.571	-1.38
948.301	1.62
949.031	0.62
949.76	-0.38
950.49	-2.38
951.219	-1.38
951.948	0.62
952.678	-0.38
953.407	-0.38
954.136	-1.38
954.865	-2.38
955.594	0.62
956.323	-0.38
957.052	-1.38
957.78	0.62
958.509	-0.38
959.238	-0.38
959.966	1.62
960.695	0.62
961.423	0.62
962.151	-2.38
962.88	-0.38
963.608	-1.38
964.336	-0.38
965.064	-1.38
965.792	0.62
966.52	-0.38
967.247	1.62
967.975	-0.38
968.703	-1.38
969.43	0.62
970.158	0.62
970.885	0.62
971.613	-0.38
972.34	0.62
973.067	-0.38
973.794	-2.38
974.521	-2.38
975.248	0.62
975.975	1.62
976.702	-1.38
977.429	-0.38
978.156	-2.38
978.882	0.62
979.609	-0.38
980.335	-0.38
981.062	-0.38
981.788	-1.38
982.514	-0.38
983.24	1.62
983.967	0.62
984.693	1.62
985.419	-1.38
986.144	-0.38
986.87	0.62
987.596	0.62
988.322	-0.38
989.047	-1.38
989.773	0.62
990.498	-1.38
991.224	0.62
991.949	0.62
992.674	-2.38
993.399	-0.38
994.124	-1.38
994.849	-0.38
995.574	-0.38
996.299	-1.38
997.024	0.62
997.749	-0.38
998.473	-0.38
999.198	-1.38
999.922	0.62
1000.647	-0.38
1001.371	4.62
1002.095	0.62
1002.82	-1.38
1003.544	-1.38
1004.268	-0.38
1004.992	-2.38
1005.716	-1.38
1006.439	-1.38
1007.163	-2.38
1007.887	-2.38
1008.611	-2.38
1009.334	1.62
1010.058	-2.38
1010.781	0.62
1011.504	1.62
1012.228	0.62
1012.951	-1.38
1013.674	0.62
1014.397	-0.38
1015.12	-1.38
