节点500_145_QEPB04081__383__11-35-04-605.txt的数据

Date: Wed Nov 12 11:35:04 CST 2025
User: PC
Spectrometer: QEPB0408
触发模式: 0
积分时间 (秒): 1.000000E-2
Scans to average: 1
启用暗噪声校正: true
启用非线性校正: false
滑动平均宽度: 0
X轴模式: Wavelengths
Number of Pixels in Spectrum: 1044
>>>>>Begin Spectral Data<<<<<
220.843	-0.38
221.644	-1.38
222.444	-1.38
223.244	0.62
224.045	-0.38
224.845	0.62
225.645	1.62
226.445	-0.38
227.245	0.62
228.045	-0.38
228.845	0.62
229.645	-0.38
230.444	-2.38
231.244	-1.38
232.043	0.62
232.843	0.62
233.642	-1.38
234.442	1.62
235.241	1.62
236.04	-0.38
236.839	-1.38
237.638	-0.38
238.437	0.62
239.236	1.62
240.035	-0.38
240.833	0.62
241.632	1.62
242.43	0.62
243.229	0.62
244.027	3.62
244.826	1.62
245.624	1.62
246.422	-0.38
247.22	0.62
248.018	0.62
248.816	1.62
249.614	2.62
250.412	0.62
251.21	1.62
252.007	2.62
252.805	1.62
253.602	2.62
254.4	1.62
255.197	1.62
255.994	4.62
256.791	3.62
257.589	2.62
258.386	3.62
259.183	2.62
259.979	1.62
260.776	4.62
261.573	2.62
262.37	4.62
263.166	5.62
263.963	6.62
264.759	3.62
265.556	3.62
266.352	3.62
267.148	4.62
267.944	5.62
268.74	5.62
269.536	6.62
270.332	6.62
271.128	6.62
271.924	6.62
272.719	7.62
273.515	8.62
274.311	6.62
275.106	6.62
275.901	8.62
276.697	6.62
277.492	9.62
278.287	7.62
279.082	7.62
279.877	6.62
280.672	8.62
281.467	9.62
282.262	10.62
283.056	8.62
283.851	8.62
284.646	11.62
285.44	9.62
286.234	7.62
287.029	11.62
287.823	7.62
288.617	10.62
289.411	10.62
290.205	10.62
290.999	9.62
291.793	6.62
292.587	9.62
293.381	8.62
294.174	9.62
294.968	8.62
295.761	9.62
296.555	7.62
297.348	8.62
298.141	8.62
298.935	9.62
299.728	8.62
300.521	9.62
301.314	5.62
302.107	8.62
302.899	5.62
303.692	8.62
304.485	6.62
305.277	7.62
306.07	8.62
306.862	6.62
307.655	8.62
308.447	8.62
309.239	6.62
310.031	6.62
310.823	5.62
311.615	6.62
312.407	4.62
313.199	5.62
313.991	4.62
314.783	2.62
315.574	6.62
316.366	5.62
317.157	3.62
317.949	4.62
318.74	4.62
319.531	2.62
320.322	4.62
321.113	3.62
321.904	2.62
322.695	4.62
323.486	3.62
324.277	3.62
325.068	4.62
325.858	2.62
326.649	5.62
327.439	4.62
328.23	4.62
329.02	3.62
329.81	2.62
330.6	3.62
331.391	3.62
332.181	2.62
332.971	3.62
333.76	3.62
334.55	0.62
335.34	3.62
336.13	1.62
336.919	5.62
337.709	5.62
338.498	3.62
339.287	4.62
340.077	3.62
340.866	4.62
341.655	3.62
342.444	3.62
343.233	1.62
344.022	1.62
344.811	3.62
345.6	2.62
346.388	3.62
347.177	1.62
347.965	3.62
348.754	1.62
349.542	1.62
350.33	3.62
351.119	3.62
351.907	3.62
352.695	2.62
353.483	3.62
354.271	3.62
355.059	2.62
355.846	2.62
356.634	2.62
357.422	2.62
358.209	2.62
358.997	0.62
359.784	1.62
360.571	1.62
361.359	2.62
362.146	1.62
362.933	0.62
363.72	3.62
364.507	1.62
365.294	2.62
366.081	1.62
366.867	1.62
367.654	0.62
368.44	1.62
369.227	0.62
370.013	0.62
370.8	2.62
371.586	1.62
372.372	2.62
373.158	2.62
373.944	3.62
374.73	2.62
375.516	1.62
376.302	1.62
377.088	2.62
377.873	2.62
378.659	3.62
379.445	2.62
380.23	2.62
381.015	1.62
381.801	1.62
382.586	0.62
383.371	1.62
384.156	2.62
384.941	3.62
385.726	1.62
386.511	2.62
387.296	3.62
388.08	0.62
388.865	3.62
389.649	1.62
390.434	2.62
391.218	3.62
392.003	0.62
392.787	0.62
393.571	2.62
394.355	1.62
395.139	1.62
395.923	2.62
396.707	0.62
397.491	3.62
398.274	2.62
399.058	2.62
399.842	2.62
400.625	3.62
401.408	4.62
402.192	1.62
402.975	4.62
403.758	2.62
404.541	2.62
405.324	4.62
406.107	2.62
406.89	1.62
407.673	3.62
408.456	5.62
409.238	4.62
410.021	1.62
410.803	1.62
411.586	2.62
412.368	4.62
413.151	4.62
413.933	1.62
414.715	2.62
415.497	1.62
416.279	1.62
417.061	6.62
417.843	3.62
418.624	3.62
419.406	3.62
420.188	2.62
420.969	3.62
421.751	4.62
422.532	5.62
423.313	5.62
424.095	3.62
424.876	2.62
425.657	4.62
426.438	5.62
427.219	5.62
428	6.62
428.78	5.62
429.561	7.62
430.342	6.62
431.122	6.62
431.903	7.62
432.683	8.62
433.464	6.62
434.244	8.62
435.024	7.62
435.804	7.62
436.584	10.62
437.364	7.62
438.144	8.62
438.924	8.62
439.704	10.62
440.483	11.62
441.263	9.62
442.042	13.62
442.822	10.62
443.601	14.62
444.38	13.62
445.16	14.62
445.939	15.62
446.718	13.62
447.497	19.62
448.276	16.62
449.054	22.62
449.833	22.62
450.612	25.62
451.391	26.62
452.169	30.62
452.948	30.62
453.726	34.62
454.504	38.62
455.282	40.62
456.061	47.62
456.839	53.62
457.617	57.62
458.395	64.62
459.172	67.62
459.95	79.62
460.728	85.62
461.506	90.62
462.283	106.62
463.061	113.62
463.838	130.62
464.615	147.62
465.393	160.62
466.17	173.62
466.947	202.62
467.724	222.62
468.501	244.62
469.278	276.62
470.055	308.62
470.831	344.62
471.608	379.62
472.385	415.62
473.161	471.62
473.938	517.62
474.714	568.62
475.49	636.62
476.266	700.62
477.043	776.62
477.819	859.62
478.595	957.62
479.371	1037.62
480.146	1151.62
480.922	1272.62
481.698	1406.62
482.473	1542.62
483.249	1698.62
484.024	1878.62
484.8	2049.62
485.575	2250.62
486.35	2473.62
487.126	2738.62
487.901	3005.62
488.676	3286.62
489.451	3632.62
490.225	3988.62
491	4335.62
491.775	4765.62
492.55	5212.62
493.324	5711.62
494.099	6234.62
494.873	6774.62
495.647	7369.62
496.422	8012.62
497.196	8671.62
497.97	9329.62
498.744	10047.62
499.518	10797.62
500.292	11540.62
501.066	12178.62
501.839	12876.62
502.613	13549.62
503.387	14097.62
504.16	14697.62
504.934	15117.62
505.707	15535.62
506.48	15808.62
507.253	16046.62
508.027	16184.62
508.8	16152.62
509.573	16084.62
510.346	15873.62
511.118	15571.62
511.891	15180.62
512.664	14779.62
513.437	14256.62
514.209	13811.62
514.982	13296.62
515.754	12776.62
516.526	12252.62
517.298	11705.62
518.071	11142.62
518.843	10702.62
519.615	10240.62
520.387	9829.62
521.159	9436.62
521.93	9042.62
522.702	8708.62
523.474	8371.62
524.245	8009.62
525.017	7688.62
525.788	7400.62
526.56	7109.62
527.331	6796.62
528.102	6505.62
528.873	6220.62
529.644	5961.62
530.415	5703.62
531.186	5391.62
531.957	5142.62
532.728	4905.62
533.498	4645.62
534.269	4393.62
535.039	4166.62
535.81	3935.62
536.58	3721.62
537.351	3527.62
538.121	3334.62
538.891	3140.62
539.661	2983.62
540.431	2797.62
541.201	2655.62
541.971	2507.62
542.741	2388.62
543.51	2248.62
544.28	2140.62
545.05	2024.62
545.819	1919.62
546.588	1852.62
547.358	1749.62
548.127	1647.62
548.896	1575.62
549.665	1503.62
550.434	1416.62
551.203	1358.62
551.972	1291.62
552.741	1217.62
553.51	1145.62
554.278	1079.62
555.047	1026.62
555.815	973.62
556.584	918.62
557.352	862.62
558.121	809.62
558.889	761.62
559.657	730.62
560.425	673.62
561.193	653.62
561.961	602.62
562.729	575.62
563.496	541.62
564.264	494.62
565.032	486.62
565.799	459.62
566.567	428.62
567.334	409.62
568.101	383.62
568.869	357.62
569.636	344.62
570.403	314.62
571.17	305.62
571.937	285.62
572.704	269.62
573.471	251.62
574.237	237.62
575.004	225.62
575.771	213.62
576.537	200.62
577.303	186.62
578.07	176.62
578.836	167.62
579.602	162.62
580.368	139.62
581.134	140.62
581.9	132.62
582.666	125.62
583.432	123.62
584.198	109.62
584.964	108.62
585.729	98.62
586.495	95.62
587.26	90.62
588.025	85.62
588.791	78.62
589.556	79.62
590.321	71.62
591.086	70.62
591.851	65.62
592.616	62.62
593.381	56.62
594.146	55.62
594.911	50.62
595.675	48.62
596.44	50.62
597.204	43.62
597.969	45.62
598.733	41.62
599.497	38.62
600.261	38.62
601.025	33.62
601.79	32.62
602.553	32.62
603.317	29.62
604.081	29.62
604.845	28.62
605.609	23.62
606.372	24.62
607.136	24.62
607.899	23.62
608.662	22.62
609.426	23.62
610.189	21.62
610.952	20.62
611.715	19.62
612.478	18.62
613.241	17.62
614.004	18.62
614.767	15.62
615.529	14.62
616.292	13.62
617.055	14.62
617.817	13.62
618.579	16.62
619.342	10.62
620.104	11.62
620.866	10.62
621.628	11.62
622.39	11.62
623.152	9.62
623.914	12.62
624.676	9.62
625.438	8.62
626.199	8.62
626.961	9.62
627.722	10.62
628.484	5.62
629.245	7.62
630.006	6.62
630.768	8.62
631.529	9.62
632.29	9.62
633.051	7.62
633.812	8.62
634.573	5.62
635.333	6.62
636.094	6.62
636.855	4.62
637.615	3.62
638.376	6.62
639.136	4.62
639.896	4.62
640.657	3.62
641.417	4.62
642.177	3.62
642.937	3.62
643.697	4.62
644.457	6.62
645.216	1.62
645.976	2.62
646.736	2.62
647.495	5.62
648.255	4.62
649.014	2.62
649.774	1.62
650.533	3.62
651.292	2.62
652.051	2.62
652.81	4.62
653.569	4.62
654.328	2.62
655.087	3.62
655.846	4.62
656.604	1.62
657.363	1.62
658.121	3.62
658.88	0.62
659.638	3.62
660.397	2.62
661.155	0.62
661.913	5.62
662.671	0.62
663.429	4.62
664.187	2.62
664.945	5.62
665.703	0.62
666.46	1.62
667.218	4.62
667.976	1.62
668.733	0.62
669.49	2.62
670.248	3.62
671.005	3.62
671.762	0.62
672.519	2.62
673.276	0.62
674.033	1.62
674.79	1.62
675.547	0.62
676.304	0.62
677.06	-0.38
677.817	2.62
678.574	1.62
679.33	2.62
680.086	1.62
680.843	-1.38
681.599	2.62
682.355	0.62
683.111	0.62
683.867	-0.38
684.623	1.62
685.379	0.62
686.135	0.62
686.89	1.62
687.646	2.62
688.402	2.62
689.157	1.62
689.912	1.62
690.668	0.62
691.423	0.62
692.178	1.62
692.933	-0.38
693.688	2.62
694.443	1.62
695.198	-0.38
695.953	0.62
696.708	0.62
697.462	0.62
698.217	-0.38
698.972	2.62
699.726	0.62
700.48	0.62
701.235	-1.38
701.989	1.62
702.743	2.62
703.497	0.62
704.251	3.62
705.005	2.62
705.759	2.62
706.513	1.62
707.266	-0.38
708.02	0.62
708.774	0.62
709.527	-0.38
710.28	1.62
711.034	-1.38
711.787	3.62
712.54	0.62
713.293	1.62
714.046	-0.38
714.799	0.62
715.552	-1.38
716.305	2.62
717.058	0.62
717.81	0.62
718.563	3.62
719.315	-0.38
720.068	2.62
720.82	1.62
721.573	0.62
722.325	0.62
723.077	1.62
723.829	1.62
724.581	1.62
725.333	1.62
726.085	-0.38
726.836	1.62
727.588	3.62
728.34	1.62
729.091	2.62
729.843	-0.38
730.594	1.62
731.346	0.62
732.097	0.62
732.848	2.62
733.599	0.62
734.35	0.62
735.101	0.62
735.852	2.62
736.603	1.62
737.354	-0.38
738.104	-0.38
738.855	0.62
739.605	-0.38
740.356	0.62
741.106	3.62
741.856	2.62
742.607	3.62
743.357	1.62
744.107	0.62
744.857	1.62
745.607	-0.38
746.357	2.62
747.106	0.62
747.856	4.62
748.606	1.62
749.355	0.62
750.105	0.62
750.854	1.62
751.603	3.62
752.353	1.62
753.102	1.62
753.851	2.62
754.6	3.62
755.349	1.62
756.098	-0.38
756.847	2.62
757.595	0.62
758.344	0.62
759.093	1.62
759.841	-0.38
760.589	1.62
761.338	2.62
762.086	3.62
762.834	2.62
763.582	1.62
764.331	4.62
765.079	1.62
765.826	3.62
766.574	1.62
767.322	4.62
768.07	2.62
768.817	4.62
769.565	2.62
770.312	2.62
771.06	2.62
771.807	1.62
772.554	4.62
773.302	3.62
774.049	1.62
774.796	5.62
775.543	1.62
776.29	4.62
777.036	5.62
777.783	5.62
778.53	3.62
779.276	3.62
780.023	4.62
780.769	5.62
781.516	6.62
782.262	4.62
783.008	3.62
783.754	3.62
784.5	1.62
785.246	3.62
785.992	5.62
786.738	4.62
787.484	4.62
788.23	3.62
788.975	2.62
789.721	4.62
790.466	4.62
791.212	4.62
791.957	4.62
792.702	5.62
793.447	2.62
794.193	4.62
794.938	3.62
795.683	3.62
796.427	1.62
797.172	3.62
797.917	4.62
798.662	5.62
799.406	2.62
800.151	4.62
800.895	2.62
801.64	3.62
802.384	3.62
803.128	2.62
803.872	3.62
804.616	5.62
805.36	2.62
806.104	2.62
806.848	3.62
807.592	4.62
808.336	2.62
809.079	5.62
809.823	1.62
810.566	5.62
811.31	5.62
812.053	2.62
812.796	3.62
813.539	2.62
814.283	1.62
815.026	2.62
815.769	2.62
816.511	3.62
817.254	2.62
817.997	4.62
818.74	1.62
819.482	1.62
820.225	3.62
820.967	1.62
821.71	1.62
822.452	1.62
823.194	1.62
823.936	2.62
824.678	2.62
825.42	4.62
826.162	1.62
826.904	1.62
827.646	-0.38
828.388	3.62
829.129	0.62
829.871	1.62
830.612	0.62
831.354	-0.38
832.095	2.62
832.836	2.62
833.577	2.62
834.319	2.62
835.06	1.62
835.801	1.62
836.542	1.62
837.282	1.62
838.023	0.62
838.764	0.62
839.504	1.62
840.245	1.62
840.985	0.62
841.726	0.62
842.466	1.62
843.206	2.62
843.946	-0.38
844.687	0.62
845.427	1.62
846.166	1.62
846.906	0.62
847.646	1.62
848.386	1.62
849.125	1.62
849.865	0.62
850.605	0.62
851.344	1.62
852.083	2.62
852.823	3.62
853.562	0.62
854.301	-0.38
855.04	0.62
855.779	-0.38
856.518	2.62
857.257	1.62
857.995	0.62
858.734	1.62
859.473	2.62
860.211	0.62
860.95	1.62
861.688	0.62
862.426	0.62
863.165	-0.38
863.903	2.62
864.641	1.62
865.379	-0.38
866.117	3.62
866.855	1.62
867.593	-0.38
868.33	1.62
869.068	0.62
869.806	1.62
870.543	0.62
871.28	-1.38
872.018	1.62
872.755	0.62
873.492	-1.38
874.229	0.62
874.967	1.62
875.703	3.62
876.44	-0.38
877.177	2.62
877.914	-0.38
878.651	0.62
879.387	0.62
880.124	-0.38
880.86	-2.38
881.597	0.62
882.333	-1.38
883.069	-0.38
883.806	1.62
884.542	0.62
885.278	-0.38
886.014	1.62
886.749	-0.38
887.485	-0.38
888.221	0.62
888.957	0.62
889.692	-0.38
890.428	1.62
891.163	-1.38
891.899	0.62
892.634	0.62
893.369	-1.38
894.104	0.62
894.839	1.62
895.574	-1.38
896.309	0.62
897.044	0.62
897.779	-0.38
898.514	-0.38
899.248	-0.38
899.983	0.62
900.717	0.62
901.452	-0.38
902.186	0.62
902.92	-2.38
903.654	-1.38
904.389	-0.38
905.123	-2.38
905.857	-0.38
906.59	1.62
907.324	-2.38
908.058	0.62
908.792	0.62
909.525	1.62
910.259	-0.38
910.992	-0.38
911.726	-0.38
912.459	-1.38
913.192	-1.38
913.925	-2.38
914.658	2.62
915.391	1.62
916.124	-2.38
916.857	0.62
917.59	-1.38
918.323	-0.38
919.055	-0.38
919.788	0.62
920.521	-1.38
921.253	0.62
921.985	0.62
922.718	0.62
923.45	0.62
924.182	-1.38
924.914	0.62
925.646	-1.38
926.378	-0.38
927.11	-0.38
927.841	0.62
928.573	0.62
929.305	-0.38
930.036	-0.38
930.768	-2.38
931.499	-0.38
932.23	1.62
932.962	-0.38
933.693	-2.38
934.424	-0.38
935.155	-1.38
935.886	-0.38
936.617	0.62
937.348	-1.38
938.078	-1.38
938.809	0.62
939.54	-0.38
940.27	-0.38
941.001	-0.38
941.731	-1.38
942.461	-0.38
943.191	-2.38
943.922	0.62
944.652	-0.38
945.382	0.62
946.112	-0.38
946.841	-2.38
947.571	0.62
948.301	-3.38
949.031	0.62
949.76	-1.38
950.49	0.62
951.219	0.62
951.948	-2.38
952.678	-1.38
953.407	-2.38
954.136	0.62
954.865	0.62
955.594	-2.38
956.323	-0.38
957.052	-0.38
957.78	0.62
958.509	-0.38
959.238	1.62
959.966	1.62
960.695	-1.38
961.423	-0.38
962.151	-0.38
962.88	2.62
963.608	-1.38
964.336	1.62
965.064	0.62
965.792	-0.38
966.52	-0.38
967.247	-2.38
967.975	-0.38
968.703	-0.38
969.43	-1.38
970.158	-0.38
970.885	0.62
971.613	-1.38
972.34	-2.38
973.067	-2.38
973.794	-1.38
974.521	1.62
975.248	-1.38
975.975	0.62
976.702	-0.38
977.429	-1.38
978.156	0.62
978.882	-0.38
979.609	1.62
980.335	-0.38
981.062	-1.38
981.788	-2.38
982.514	-2.38
983.24	-0.38
983.967	0.62
984.693	1.62
985.419	-1.38
986.144	-2.38
986.87	1.62
987.596	-0.38
988.322	-1.38
989.047	-0.38
989.773	-1.38
990.498	-1.38
991.224	0.62
991.949	0.62
992.674	-1.38
993.399	1.62
994.124	-0.38
994.849	-0.38
995.574	-0.38
996.299	1.62
997.024	-0.38
997.749	-1.38
998.473	1.62
999.198	0.62
999.922	-0.38
1000.647	1.62
1001.371	4.62
1002.095	-3.38
1002.82	0.62
1003.544	-3.38
1004.268	-0.38
1004.992	-2.38
1005.716	0.62
1006.439	-1.38
1007.163	-1.38
1007.887	-2.38
1008.611	-0.38
1009.334	-2.38
1010.058	0.62
1010.781	2.62
1011.504	-0.38
1012.228	-0.38
1012.951	2.62
1013.674	-3.38
1014.397	1.62
1015.12	0.62
