节点500_145_QEPB04081__575__11-38-06-370.txt的数据

Date: Wed Nov 12 11:38:06 CST 2025
User: PC
Spectrometer: QEPB0408
触发模式: 0
积分时间 (秒): 1.000000E-2
Scans to average: 1
启用暗噪声校正: true
启用非线性校正: false
滑动平均宽度: 0
X轴模式: Wavelengths
Number of Pixels in Spectrum: 1044
>>>>>Begin Spectral Data<<<<<
220.843	0.38
221.644	-0.62
222.444	0.38
223.244	0.38
224.045	1.38
224.845	-1.62
225.645	0.38
226.445	0.38
227.245	1.38
228.045	-0.62
228.845	-0.62
229.645	1.38
230.444	1.38
231.244	1.38
232.043	0.38
232.843	1.38
233.642	0.38
234.442	2.38
235.241	1.38
236.04	-0.62
236.839	2.38
237.638	1.38
238.437	3.38
239.236	1.38
240.035	1.38
240.833	-0.62
241.632	1.38
242.43	0.38
243.229	0.38
244.027	1.38
244.826	1.38
245.624	1.38
246.422	1.38
247.22	3.38
248.018	3.38
248.816	1.38
249.614	1.38
250.412	3.38
251.21	0.38
252.007	3.38
252.805	3.38
253.602	3.38
254.4	1.38
255.197	5.38
255.994	3.38
256.791	3.38
257.589	2.38
258.386	4.38
259.183	3.38
259.979	2.38
260.776	5.38
261.573	6.38
262.37	4.38
263.166	6.38
263.963	4.38
264.759	6.38
265.556	7.38
266.352	4.38
267.148	6.38
267.944	5.38
268.74	6.38
269.536	7.38
270.332	5.38
271.128	7.38
271.924	6.38
272.719	5.38
273.515	6.38
274.311	7.38
275.106	7.38
275.901	8.38
276.697	8.38
277.492	5.38
278.287	8.38
279.082	7.38
279.877	10.38
280.672	9.38
281.467	7.38
282.262	10.38
283.056	10.38
283.851	9.38
284.646	10.38
285.44	12.38
286.234	8.38
287.029	10.38
287.823	11.38
288.617	9.38
289.411	10.38
290.205	10.38
290.999	10.38
291.793	10.38
292.587	9.38
293.381	11.38
294.174	12.38
294.968	7.38
295.761	9.38
296.555	8.38
297.348	6.38
298.141	9.38
298.935	13.38
299.728	10.38
300.521	9.38
301.314	9.38
302.107	11.38
302.899	9.38
303.692	9.38
304.485	8.38
305.277	6.38
306.07	9.38
306.862	7.38
307.655	4.38
308.447	7.38
309.239	6.38
310.031	6.38
310.823	7.38
311.615	6.38
312.407	6.38
313.199	6.38
313.991	5.38
314.783	6.38
315.574	4.38
316.366	5.38
317.157	4.38
317.949	5.38
318.74	7.38
319.531	4.38
320.322	5.38
321.113	4.38
321.904	5.38
322.695	7.38
323.486	5.38
324.277	4.38
325.068	3.38
325.858	1.38
326.649	5.38
327.439	2.38
328.23	2.38
329.02	2.38
329.81	4.38
330.6	5.38
331.391	3.38
332.181	3.38
332.971	1.38
333.76	4.38
334.55	3.38
335.34	2.38
336.13	3.38
336.919	3.38
337.709	4.38
338.498	4.38
339.287	3.38
340.077	2.38
340.866	2.38
341.655	3.38
342.444	2.38
343.233	5.38
344.022	1.38
344.811	4.38
345.6	3.38
346.388	3.38
347.177	7.38
347.965	1.38
348.754	4.38
349.542	1.38
350.33	4.38
351.119	3.38
351.907	4.38
352.695	3.38
353.483	1.38
354.271	2.38
355.059	2.38
355.846	3.38
356.634	3.38
357.422	3.38
358.209	5.38
358.997	0.38
359.784	2.38
360.571	3.38
361.359	3.38
362.146	4.38
362.933	2.38
363.72	1.38
364.507	1.38
365.294	2.38
366.081	0.38
366.867	2.38
367.654	1.38
368.44	1.38
369.227	2.38
370.013	2.38
370.8	1.38
371.586	2.38
372.372	1.38
373.158	2.38
373.944	0.38
374.73	5.38
375.516	1.38
376.302	3.38
377.088	2.38
377.873	3.38
378.659	-0.62
379.445	2.38
380.23	3.38
381.015	3.38
381.801	3.38
382.586	3.38
383.371	2.38
384.156	3.38
384.941	2.38
385.726	2.38
386.511	2.38
387.296	1.38
388.08	1.38
388.865	3.38
389.649	3.38
390.434	4.38
391.218	3.38
392.003	1.38
392.787	4.38
393.571	3.38
394.355	1.38
395.139	4.38
395.923	1.38
396.707	4.38
397.491	2.38
398.274	4.38
399.058	2.38
399.842	3.38
400.625	3.38
401.408	3.38
402.192	2.38
402.975	2.38
403.758	4.38
404.541	2.38
405.324	1.38
406.107	2.38
406.89	3.38
407.673	5.38
408.456	5.38
409.238	4.38
410.021	3.38
410.803	3.38
411.586	6.38
412.368	4.38
413.151	6.38
413.933	4.38
414.715	6.38
415.497	4.38
416.279	3.38
417.061	5.38
417.843	5.38
418.624	5.38
419.406	4.38
420.188	6.38
420.969	8.38
421.751	3.38
422.532	6.38
423.313	8.38
424.095	7.38
424.876	7.38
425.657	4.38
426.438	6.38
427.219	5.38
428	6.38
428.78	5.38
429.561	7.38
430.342	8.38
431.122	6.38
431.903	10.38
432.683	6.38
433.464	6.38
434.244	8.38
435.024	9.38
435.804	10.38
436.584	9.38
437.364	9.38
438.144	9.38
438.924	10.38
439.704	9.38
440.483	10.38
441.263	14.38
442.042	13.38
442.822	12.38
443.601	12.38
444.38	14.38
445.16	15.38
445.939	17.38
446.718	19.38
447.497	18.38
448.276	21.38
449.054	23.38
449.833	23.38
450.612	26.38
451.391	28.38
452.169	30.38
452.948	34.38
453.726	35.38
454.504	41.38
455.282	44.38
456.061	52.38
456.839	54.38
457.617	60.38
458.395	68.38
459.172	72.38
459.95	81.38
460.728	90.38
461.506	101.38
462.283	115.38
463.061	128.38
463.838	136.38
464.615	156.38
465.393	173.38
466.17	189.38
466.947	211.38
467.724	233.38
468.501	270.38
469.278	289.38
470.055	322.38
470.831	355.38
471.608	406.38
472.385	435.38
473.161	482.38
473.938	541.38
474.714	594.38
475.49	659.38
476.266	723.38
477.043	802.38
477.819	883.38
478.595	954.38
479.371	1050.38
480.146	1173.38
480.922	1280.38
481.698	1397.38
482.473	1543.38
483.249	1684.38
484.024	1847.38
484.8	2023.38
485.575	2225.38
486.35	2422.38
487.126	2666.38
487.901	2910.38
488.676	3178.38
489.451	3475.38
490.225	3814.38
491	4173.38
491.775	4522.38
492.55	4939.38
493.324	5414.38
494.099	5883.38
494.873	6374.38
495.647	6951.38
496.422	7504.38
497.196	8125.38
497.97	8705.38
498.744	9382.38
499.518	10031.38
500.292	10701.38
501.066	11376.38
501.839	11945.38
502.613	12576.38
503.387	13191.38
504.16	13799.38
504.934	14263.38
505.707	14608.38
506.48	14933.38
507.253	15212.38
508.027	15348.38
508.8	15540.38
509.573	15439.38
510.346	15362.38
511.118	15140.38
511.891	14903.38
512.664	14522.38
513.437	14095.38
514.209	13692.38
514.982	13178.38
515.754	12723.38
516.526	12239.38
517.298	11701.38
518.071	11225.38
518.843	10733.38
519.615	10311.38
520.387	9882.38
521.159	9496.38
521.93	9119.38
522.702	8718.38
523.474	8441.38
524.245	8075.38
525.017	7765.38
525.788	7426.38
526.56	7133.38
527.331	6853.38
528.102	6582.38
528.873	6305.38
529.644	6037.38
530.415	5781.38
531.186	5510.38
531.957	5211.38
532.728	5011.38
533.498	4745.38
534.269	4478.38
535.039	4236.38
535.81	4021.38
536.58	3830.38
537.351	3613.38
538.121	3408.38
538.891	3232.38
539.661	3037.38
540.431	2881.38
541.201	2732.38
541.971	2591.38
542.741	2459.38
543.51	2326.38
544.28	2206.38
545.05	2106.38
545.819	1975.38
546.588	1884.38
547.358	1790.38
548.127	1704.38
548.896	1634.38
549.665	1541.38
550.434	1477.38
551.203	1377.38
551.972	1331.38
552.741	1264.38
553.51	1198.38
554.278	1122.38
555.047	1058.38
555.815	1000.38
556.584	946.38
557.352	892.38
558.121	846.38
558.889	800.38
559.657	749.38
560.425	712.38
561.193	671.38
561.961	629.38
562.729	601.38
563.496	571.38
564.264	540.38
565.032	497.38
565.799	471.38
566.567	449.38
567.334	418.38
568.101	394.38
568.869	372.38
569.636	355.38
570.403	333.38
571.17	314.38
571.937	302.38
572.704	285.38
573.471	267.38
574.237	254.38
575.004	233.38
575.771	225.38
576.537	209.38
577.303	201.38
578.07	181.38
578.836	176.38
579.602	170.38
580.368	157.38
581.134	145.38
581.9	142.38
582.666	130.38
583.432	127.38
584.198	116.38
584.964	112.38
585.729	105.38
586.495	96.38
587.26	95.38
588.025	93.38
588.791	84.38
589.556	81.38
590.321	74.38
591.086	74.38
591.851	69.38
592.616	67.38
593.381	62.38
594.146	58.38
594.911	52.38
595.675	49.38
596.44	47.38
597.204	48.38
597.969	45.38
598.733	45.38
599.497	39.38
600.261	40.38
601.025	37.38
601.79	35.38
602.553	32.38
603.317	31.38
604.081	35.38
604.845	30.38
605.609	28.38
606.372	23.38
607.136	24.38
607.899	25.38
608.662	24.38
609.426	21.38
610.189	22.38
610.952	18.38
611.715	20.38
612.478	21.38
613.241	18.38
614.004	17.38
614.767	16.38
615.529	20.38
616.292	13.38
617.055	16.38
617.817	15.38
618.579	12.38
619.342	13.38
620.104	14.38
620.866	13.38
621.628	14.38
622.39	9.38
623.152	10.38
623.914	11.38
624.676	10.38
625.438	12.38
626.199	10.38
626.961	11.38
627.722	9.38
628.484	8.38
629.245	8.38
630.006	6.38
630.768	7.38
631.529	9.38
632.29	7.38
633.051	5.38
633.812	8.38
634.573	9.38
635.333	6.38
636.094	5.38
636.855	6.38
637.615	5.38
638.376	7.38
639.136	4.38
639.896	5.38
640.657	5.38
641.417	6.38
642.177	5.38
642.937	5.38
643.697	6.38
644.457	6.38
645.216	6.38
645.976	4.38
646.736	4.38
647.495	2.38
648.255	4.38
649.014	3.38
649.774	3.38
650.533	5.38
651.292	3.38
652.051	3.38
652.81	3.38
653.569	5.38
654.328	2.38
655.087	4.38
655.846	4.38
656.604	3.38
657.363	2.38
658.121	4.38
658.88	3.38
659.638	3.38
660.397	4.38
661.155	4.38
661.913	2.38
662.671	2.38
663.429	1.38
664.187	4.38
664.945	2.38
665.703	2.38
666.46	2.38
667.218	3.38
667.976	3.38
668.733	4.38
669.49	2.38
670.248	2.38
671.005	3.38
671.762	5.38
672.519	1.38
673.276	4.38
674.033	2.38
674.79	3.38
675.547	2.38
676.304	1.38
677.06	2.38
677.817	3.38
678.574	6.38
679.33	0.38
680.086	1.38
680.843	2.38
681.599	3.38
682.355	1.38
683.111	0.38
683.867	0.38
684.623	1.38
685.379	2.38
686.135	1.38
686.89	1.38
687.646	4.38
688.402	5.38
689.157	3.38
689.912	3.38
690.668	2.38
691.423	-1.62
692.178	0.38
692.933	1.38
693.688	1.38
694.443	5.38
695.198	0.38
695.953	1.38
696.708	5.38
697.462	2.38
698.217	1.38
698.972	1.38
699.726	2.38
700.48	1.38
701.235	1.38
701.989	-0.62
702.743	3.38
703.497	3.38
704.251	1.38
705.005	3.38
705.759	2.38
706.513	1.38
707.266	2.38
708.02	1.38
708.774	0.38
709.527	1.38
710.28	1.38
711.034	2.38
711.787	1.38
712.54	1.38
713.293	2.38
714.046	2.38
714.799	-0.62
715.552	3.38
716.305	1.38
717.058	3.38
717.81	4.38
718.563	-1.62
719.315	1.38
720.068	1.38
720.82	2.38
721.573	3.38
722.325	3.38
723.077	3.38
723.829	5.38
724.581	3.38
725.333	1.38
726.085	3.38
726.836	0.38
727.588	3.38
728.34	4.38
729.091	-0.62
729.843	2.38
730.594	2.38
731.346	3.38
732.097	2.38
732.848	0.38
733.599	3.38
734.35	1.38
735.101	4.38
735.852	0.38
736.603	4.38
737.354	2.38
738.104	2.38
738.855	3.38
739.605	1.38
740.356	2.38
741.106	2.38
741.856	1.38
742.607	1.38
743.357	-0.62
744.107	5.38
744.857	1.38
745.607	4.38
746.357	3.38
747.106	1.38
747.856	2.38
748.606	0.38
749.355	0.38
750.105	2.38
750.854	3.38
751.603	1.38
752.353	3.38
753.102	2.38
753.851	1.38
754.6	4.38
755.349	1.38
756.098	1.38
756.847	3.38
757.595	2.38
758.344	3.38
759.093	3.38
759.841	2.38
760.589	3.38
761.338	2.38
762.086	4.38
762.834	4.38
763.582	4.38
764.331	2.38
765.079	3.38
765.826	5.38
766.574	1.38
767.322	1.38
768.07	2.38
768.817	4.38
769.565	2.38
770.312	3.38
771.06	2.38
771.807	3.38
772.554	4.38
773.302	3.38
774.049	5.38
774.796	4.38
775.543	4.38
776.29	6.38
777.036	4.38
777.783	5.38
778.53	5.38
779.276	5.38
780.023	4.38
780.769	3.38
781.516	5.38
782.262	3.38
783.008	4.38
783.754	4.38
784.5	4.38
785.246	4.38
785.992	6.38
786.738	4.38
787.484	4.38
788.23	2.38
788.975	5.38
789.721	3.38
790.466	5.38
791.212	7.38
791.957	5.38
792.702	7.38
793.447	5.38
794.193	5.38
794.938	5.38
795.683	5.38
796.427	7.38
797.172	5.38
797.917	3.38
798.662	4.38
799.406	5.38
800.151	6.38
800.895	3.38
801.64	7.38
802.384	4.38
803.128	2.38
803.872	4.38
804.616	3.38
805.36	4.38
806.104	1.38
806.848	3.38
807.592	3.38
808.336	4.38
809.079	4.38
809.823	1.38
810.566	3.38
811.31	3.38
812.053	5.38
812.796	2.38
813.539	2.38
814.283	4.38
815.026	3.38
815.769	2.38
816.511	2.38
817.254	3.38
817.997	3.38
818.74	2.38
819.482	2.38
820.225	3.38
820.967	3.38
821.71	4.38
822.452	1.38
823.194	3.38
823.936	3.38
824.678	4.38
825.42	1.38
826.162	2.38
826.904	3.38
827.646	2.38
828.388	1.38
829.129	3.38
829.871	2.38
830.612	0.38
831.354	4.38
832.095	3.38
832.836	3.38
833.577	5.38
834.319	2.38
835.06	1.38
835.801	2.38
836.542	1.38
837.282	1.38
838.023	3.38
838.764	5.38
839.504	0.38
840.245	3.38
840.985	0.38
841.726	1.38
842.466	3.38
843.206	4.38
843.946	4.38
844.687	1.38
845.427	3.38
846.166	2.38
846.906	5.38
847.646	0.38
848.386	3.38
849.125	2.38
849.865	0.38
850.605	2.38
851.344	1.38
852.083	0.38
852.823	1.38
853.562	0.38
854.301	2.38
855.04	1.38
855.779	0.38
856.518	0.38
857.257	2.38
857.995	0.38
858.734	1.38
859.473	2.38
860.211	2.38
860.95	2.38
861.688	0.38
862.426	0.38
863.165	1.38
863.903	1.38
864.641	2.38
865.379	-0.62
866.117	2.38
866.855	-1.62
867.593	3.38
868.33	2.38
869.068	1.38
869.806	0.38
870.543	-1.62
871.28	2.38
872.018	1.38
872.755	0.38
873.492	0.38
874.229	3.38
874.967	1.38
875.703	0.38
876.44	3.38
877.177	2.38
877.914	-0.62
878.651	3.38
879.387	2.38
880.124	1.38
880.86	1.38
881.597	1.38
882.333	1.38
883.069	1.38
883.806	0.38
884.542	0.38
885.278	1.38
886.014	0.38
886.749	1.38
887.485	-0.62
888.221	-1.62
888.957	-1.62
889.692	2.38
890.428	0.38
891.163	0.38
891.899	1.38
892.634	0.38
893.369	2.38
894.104	1.38
894.839	0.38
895.574	2.38
896.309	-0.62
897.044	0.38
897.779	-1.62
898.514	2.38
899.248	0.38
899.983	0.38
900.717	-0.62
901.452	1.38
902.186	-0.62
902.92	1.38
903.654	-0.62
904.389	2.38
905.123	1.38
905.857	2.38
906.59	-1.62
907.324	0.38
908.058	0.38
908.792	0.38
909.525	-1.62
910.259	2.38
910.992	0.38
911.726	2.38
912.459	0.38
913.192	-0.62
913.925	2.38
914.658	1.38
915.391	1.38
916.124	1.38
916.857	-1.62
917.59	1.38
918.323	2.38
919.055	1.38
919.788	-0.62
920.521	-3.62
921.253	-0.62
921.985	2.38
922.718	-0.62
923.45	-1.62
924.182	0.38
924.914	-0.62
925.646	-1.62
926.378	-0.62
927.11	1.38
927.841	2.38
928.573	1.38
929.305	0.38
930.036	1.38
930.768	-0.62
931.499	-0.62
932.23	-1.62
932.962	0.38
933.693	0.38
934.424	0.38
935.155	0.38
935.886	-0.62
936.617	-0.62
937.348	-1.62
938.078	1.38
938.809	0.38
939.54	-0.62
940.27	-0.62
941.001	-1.62
941.731	2.38
942.461	-0.62
943.191	1.38
943.922	-0.62
944.652	-1.62
945.382	0.38
946.112	0.38
946.841	3.38
947.571	-0.62
948.301	0.38
949.031	-0.62
949.76	-1.62
950.49	0.38
951.219	-1.62
951.948	1.38
952.678	-2.62
953.407	0.38
954.136	1.38
954.865	1.38
955.594	0.38
956.323	0.38
957.052	1.38
957.78	-0.62
958.509	-0.62
959.238	1.38
959.966	-0.62
960.695	-1.62
961.423	-0.62
962.151	0.38
962.88	0.38
963.608	-0.62
964.336	-0.62
965.064	1.38
965.792	1.38
966.52	0.38
967.247	1.38
967.975	-0.62
968.703	1.38
969.43	-0.62
970.158	-0.62
970.885	0.38
971.613	-0.62
972.34	-0.62
973.067	-1.62
973.794	2.38
974.521	1.38
975.248	1.38
975.975	0.38
976.702	-0.62
977.429	0.38
978.156	1.38
978.882	0.38
979.609	0.38
980.335	0.38
981.062	-0.62
981.788	0.38
982.514	1.38
983.24	-0.62
983.967	0.38
984.693	1.38
985.419	-1.62
986.144	2.38
986.87	0.38
987.596	0.38
988.322	1.38
989.047	-1.62
989.773	1.38
990.498	1.38
991.224	0.38
991.949	0.38
992.674	-0.62
993.399	0.38
994.124	1.38
994.849	3.38
995.574	-1.62
996.299	0.38
997.024	-0.62
997.749	2.38
998.473	0.38
999.198	1.38
999.922	1.38
1000.647	-0.62
1001.371	2.38
1002.095	0.38
1002.82	0.38
1003.544	-0.62
1004.268	-0.62
1004.992	-1.62
1005.716	0.38
1006.439	-0.62
1007.163	-2.62
1007.887	0.38
1008.611	-1.62
1009.334	-1.62
1010.058	2.38
1010.781	-0.62
1011.504	-1.62
1012.228	1.38
1012.951	-0.62
1013.674	-0.62
1014.397	-0.62
1015.12	-0.62
