节点500_145_QEPB04081__108__11-30-41-589.txt的数据

Date: Wed Nov 12 11:30:41 CST 2025
User: PC
Spectrometer: QEPB0408
触发模式: 0
积分时间 (秒): 1.000000E-2
Scans to average: 1
启用暗噪声校正: true
启用非线性校正: false
滑动平均宽度: 0
X轴模式: Wavelengths
Number of Pixels in Spectrum: 1044
>>>>>Begin Spectral Data<<<<<
220.843	-1.38
221.644	0.62
222.444	-1.38
223.244	-1.38
224.045	1.62
224.845	-0.38
225.645	0.62
226.445	-0.38
227.245	-1.38
228.045	1.62
228.845	0.62
229.645	0.62
230.444	0.62
231.244	-1.38
232.043	-0.38
232.843	0.62
233.642	0.62
234.442	-0.38
235.241	2.62
236.04	1.62
236.839	2.62
237.638	3.62
238.437	0.62
239.236	2.62
240.035	-1.38
240.833	2.62
241.632	-0.38
242.43	2.62
243.229	1.62
244.027	0.62
244.826	1.62
245.624	2.62
246.422	2.62
247.22	2.62
248.018	4.62
248.816	1.62
249.614	1.62
250.412	2.62
251.21	3.62
252.007	-0.38
252.805	3.62
253.602	3.62
254.4	2.62
255.197	2.62
255.994	5.62
256.791	3.62
257.589	4.62
258.386	3.62
259.183	3.62
259.979	3.62
260.776	4.62
261.573	4.62
262.37	3.62
263.166	4.62
263.963	6.62
264.759	5.62
265.556	7.62
266.352	5.62
267.148	9.62
267.944	6.62
268.74	10.62
269.536	7.62
270.332	7.62
271.128	9.62
271.924	7.62
272.719	8.62
273.515	10.62
274.311	9.62
275.106	9.62
275.901	8.62
276.697	10.62
277.492	7.62
278.287	7.62
279.082	11.62
279.877	9.62
280.672	11.62
281.467	10.62
282.262	10.62
283.056	9.62
283.851	10.62
284.646	10.62
285.44	8.62
286.234	11.62
287.029	13.62
287.823	10.62
288.617	10.62
289.411	14.62
290.205	11.62
290.999	13.62
291.793	13.62
292.587	14.62
293.381	12.62
294.174	9.62
294.968	10.62
295.761	10.62
296.555	8.62
297.348	10.62
298.141	10.62
298.935	11.62
299.728	9.62
300.521	8.62
301.314	8.62
302.107	7.62
302.899	6.62
303.692	7.62
304.485	7.62
305.277	7.62
306.07	9.62
306.862	9.62
307.655	8.62
308.447	10.62
309.239	6.62
310.031	7.62
310.823	5.62
311.615	9.62
312.407	9.62
313.199	5.62
313.991	6.62
314.783	5.62
315.574	8.62
316.366	4.62
317.157	6.62
317.949	5.62
318.74	3.62
319.531	4.62
320.322	5.62
321.113	4.62
321.904	4.62
322.695	6.62
323.486	4.62
324.277	4.62
325.068	2.62
325.858	4.62
326.649	5.62
327.439	2.62
328.23	1.62
329.02	4.62
329.81	4.62
330.6	2.62
331.391	4.62
332.181	4.62
332.971	3.62
333.76	3.62
334.55	1.62
335.34	4.62
336.13	5.62
336.919	1.62
337.709	3.62
338.498	4.62
339.287	4.62
340.077	3.62
340.866	3.62
341.655	5.62
342.444	3.62
343.233	3.62
344.022	3.62
344.811	2.62
345.6	2.62
346.388	2.62
347.177	2.62
347.965	4.62
348.754	4.62
349.542	5.62
350.33	3.62
351.119	4.62
351.907	4.62
352.695	3.62
353.483	2.62
354.271	3.62
355.059	4.62
355.846	3.62
356.634	2.62
357.422	2.62
358.209	3.62
358.997	2.62
359.784	2.62
360.571	2.62
361.359	0.62
362.146	3.62
362.933	2.62
363.72	3.62
364.507	5.62
365.294	1.62
366.081	2.62
366.867	2.62
367.654	0.62
368.44	1.62
369.227	2.62
370.013	1.62
370.8	1.62
371.586	4.62
372.372	3.62
373.158	3.62
373.944	3.62
374.73	1.62
375.516	2.62
376.302	2.62
377.088	4.62
377.873	3.62
378.659	2.62
379.445	1.62
380.23	2.62
381.015	2.62
381.801	3.62
382.586	3.62
383.371	3.62
384.156	3.62
384.941	3.62
385.726	2.62
386.511	5.62
387.296	2.62
388.08	1.62
388.865	2.62
389.649	3.62
390.434	2.62
391.218	4.62
392.003	4.62
392.787	4.62
393.571	5.62
394.355	2.62
395.139	3.62
395.923	5.62
396.707	4.62
397.491	2.62
398.274	4.62
399.058	3.62
399.842	5.62
400.625	4.62
401.408	3.62
402.192	5.62
402.975	5.62
403.758	1.62
404.541	5.62
405.324	2.62
406.107	2.62
406.89	6.62
407.673	3.62
408.456	2.62
409.238	1.62
410.021	5.62
410.803	6.62
411.586	5.62
412.368	3.62
413.151	5.62
413.933	7.62
414.715	4.62
415.497	6.62
416.279	4.62
417.061	6.62
417.843	4.62
418.624	7.62
419.406	5.62
420.188	5.62
420.969	5.62
421.751	5.62
422.532	7.62
423.313	9.62
424.095	5.62
424.876	6.62
425.657	6.62
426.438	6.62
427.219	6.62
428	5.62
428.78	5.62
429.561	8.62
430.342	7.62
431.122	8.62
431.903	8.62
432.683	6.62
433.464	5.62
434.244	9.62
435.024	9.62
435.804	11.62
436.584	9.62
437.364	10.62
438.144	10.62
438.924	9.62
439.704	10.62
440.483	12.62
441.263	11.62
442.042	11.62
442.822	13.62
443.601	15.62
444.38	15.62
445.16	16.62
445.939	18.62
446.718	16.62
447.497	19.62
448.276	20.62
449.054	23.62
449.833	22.62
450.612	26.62
451.391	26.62
452.169	26.62
452.948	27.62
453.726	33.62
454.504	36.62
455.282	39.62
456.061	43.62
456.839	46.62
457.617	56.62
458.395	55.62
459.172	66.62
459.95	69.62
460.728	73.62
461.506	84.62
462.283	89.62
463.061	104.62
463.838	117.62
464.615	132.62
465.393	145.62
466.17	159.62
466.947	178.62
467.724	203.62
468.501	219.62
469.278	253.62
470.055	276.62
470.831	316.62
471.608	356.62
472.385	397.62
473.161	440.62
473.938	496.62
474.714	546.62
475.49	591.62
476.266	664.62
477.043	746.62
477.819	835.62
478.595	923.62
479.371	1019.62
480.146	1131.62
480.922	1277.62
481.698	1391.62
482.473	1546.62
483.249	1719.62
484.024	1898.62
484.8	2109.62
485.575	2338.62
486.35	2585.62
487.126	2865.62
487.901	3192.62
488.676	3510.62
489.451	3859.62
490.225	4296.62
491	4748.62
491.775	5221.62
492.55	5709.62
493.324	6330.62
494.099	6951.62
494.873	7593.62
495.647	8286.62
496.422	9046.62
497.196	9792.62
497.97	10586.62
498.744	11368.62
499.518	12231.62
500.292	12985.62
501.066	13759.62
501.839	14491.62
502.613	15184.62
503.387	15766.62
504.16	16319.62
504.934	16719.62
505.707	17106.62
506.48	17242.62
507.253	17366.62
508.027	17362.62
508.8	17167.62
509.573	16938.62
510.346	16556.62
511.118	16073.62
511.891	15606.62
512.664	15041.62
513.437	14458.62
514.209	13844.62
514.982	13320.62
515.754	12666.62
516.526	12071.62
517.298	11548.62
518.071	11036.62
518.843	10495.62
519.615	10098.62
520.387	9657.62
521.159	9293.62
521.93	8884.62
522.702	8528.62
523.474	8200.62
524.245	7916.62
525.017	7606.62
525.788	7296.62
526.56	6981.62
527.331	6700.62
528.102	6390.62
528.873	6135.62
529.644	5815.62
530.415	5527.62
531.186	5256.62
531.957	4963.62
532.728	4675.62
533.498	4437.62
534.269	4212.62
535.039	3974.62
535.81	3746.62
536.58	3552.62
537.351	3322.62
538.121	3126.62
538.891	2975.62
539.661	2804.62
540.431	2635.62
541.201	2521.62
541.971	2378.62
542.741	2266.62
543.51	2115.62
544.28	2032.62
545.05	1925.62
545.819	1849.62
546.588	1729.62
547.358	1649.62
548.127	1595.62
548.896	1500.62
549.665	1427.62
550.434	1360.62
551.203	1270.62
551.972	1207.62
552.741	1150.62
553.51	1087.62
554.278	1029.62
555.047	960.62
555.815	907.62
556.584	853.62
557.352	792.62
558.121	758.62
558.889	720.62
559.657	674.62
560.425	635.62
561.193	598.62
561.961	570.62
562.729	538.62
563.496	501.62
564.264	476.62
565.032	443.62
565.799	418.62
566.567	398.62
567.334	379.62
568.101	361.62
568.869	338.62
569.636	318.62
570.403	299.62
571.17	285.62
571.937	267.62
572.704	253.62
573.471	238.62
574.237	222.62
575.004	206.62
575.771	196.62
576.537	188.62
577.303	171.62
578.07	164.62
578.836	153.62
579.602	143.62
580.368	138.62
581.134	130.62
581.9	121.62
582.666	117.62
583.432	112.62
584.198	103.62
584.964	102.62
585.729	92.62
586.495	88.62
587.26	90.62
588.025	75.62
588.791	76.62
589.556	69.62
590.321	71.62
591.086	62.62
591.851	60.62
592.616	61.62
593.381	56.62
594.146	52.62
594.911	48.62
595.675	44.62
596.44	45.62
597.204	41.62
597.969	39.62
598.733	36.62
599.497	39.62
600.261	34.62
601.025	34.62
601.79	33.62
602.553	28.62
603.317	30.62
604.081	27.62
604.845	27.62
605.609	25.62
606.372	24.62
607.136	22.62
607.899	22.62
608.662	22.62
609.426	21.62
610.189	20.62
610.952	18.62
611.715	17.62
612.478	17.62
613.241	17.62
614.004	18.62
614.767	15.62
615.529	16.62
616.292	16.62
617.055	12.62
617.817	15.62
618.579	14.62
619.342	11.62
620.104	12.62
620.866	14.62
621.628	12.62
622.39	12.62
623.152	12.62
623.914	10.62
624.676	11.62
625.438	9.62
626.199	9.62
626.961	10.62
627.722	10.62
628.484	7.62
629.245	9.62
630.006	9.62
630.768	6.62
631.529	9.62
632.29	4.62
633.051	8.62
633.812	8.62
634.573	7.62
635.333	3.62
636.094	9.62
636.855	6.62
637.615	6.62
638.376	7.62
639.136	4.62
639.896	3.62
640.657	7.62
641.417	7.62
642.177	3.62
642.937	6.62
643.697	5.62
644.457	6.62
645.216	6.62
645.976	5.62
646.736	4.62
647.495	1.62
648.255	5.62
649.014	5.62
649.774	5.62
650.533	3.62
651.292	4.62
652.051	3.62
652.81	3.62
653.569	5.62
654.328	4.62
655.087	4.62
655.846	4.62
656.604	3.62
657.363	6.62
658.121	1.62
658.88	3.62
659.638	3.62
660.397	2.62
661.155	3.62
661.913	2.62
662.671	5.62
663.429	4.62
664.187	3.62
664.945	2.62
665.703	3.62
666.46	3.62
667.218	1.62
667.976	3.62
668.733	1.62
669.49	3.62
670.248	3.62
671.005	4.62
671.762	5.62
672.519	0.62
673.276	4.62
674.033	0.62
674.79	3.62
675.547	2.62
676.304	1.62
677.06	4.62
677.817	2.62
678.574	3.62
679.33	1.62
680.086	4.62
680.843	2.62
681.599	1.62
682.355	2.62
683.111	2.62
683.867	3.62
684.623	1.62
685.379	-0.38
686.135	0.62
686.89	1.62
687.646	1.62
688.402	2.62
689.157	1.62
689.912	2.62
690.668	4.62
691.423	3.62
692.178	3.62
692.933	1.62
693.688	2.62
694.443	1.62
695.198	3.62
695.953	2.62
696.708	3.62
697.462	3.62
698.217	1.62
698.972	1.62
699.726	2.62
700.48	1.62
701.235	4.62
701.989	2.62
702.743	1.62
703.497	2.62
704.251	5.62
705.005	1.62
705.759	2.62
706.513	-0.38
707.266	2.62
708.02	0.62
708.774	2.62
709.527	1.62
710.28	2.62
711.034	2.62
711.787	1.62
712.54	3.62
713.293	2.62
714.046	3.62
714.799	1.62
715.552	4.62
716.305	5.62
717.058	1.62
717.81	2.62
718.563	2.62
719.315	4.62
720.068	3.62
720.82	1.62
721.573	3.62
722.325	1.62
723.077	0.62
723.829	3.62
724.581	3.62
725.333	2.62
726.085	1.62
726.836	3.62
727.588	1.62
728.34	4.62
729.091	2.62
729.843	3.62
730.594	1.62
731.346	2.62
732.097	2.62
732.848	-0.38
733.599	3.62
734.35	2.62
735.101	3.62
735.852	3.62
736.603	2.62
737.354	2.62
738.104	0.62
738.855	1.62
739.605	1.62
740.356	4.62
741.106	5.62
741.856	4.62
742.607	3.62
743.357	2.62
744.107	1.62
744.857	2.62
745.607	5.62
746.357	4.62
747.106	3.62
747.856	4.62
748.606	2.62
749.355	1.62
750.105	1.62
750.854	3.62
751.603	1.62
752.353	1.62
753.102	3.62
753.851	3.62
754.6	2.62
755.349	2.62
756.098	5.62
756.847	2.62
757.595	2.62
758.344	4.62
759.093	3.62
759.841	4.62
760.589	3.62
761.338	4.62
762.086	5.62
762.834	4.62
763.582	3.62
764.331	4.62
765.079	6.62
765.826	5.62
766.574	5.62
767.322	6.62
768.07	2.62
768.817	6.62
769.565	5.62
770.312	3.62
771.06	3.62
771.807	3.62
772.554	7.62
773.302	5.62
774.049	6.62
774.796	6.62
775.543	3.62
776.29	4.62
777.036	3.62
777.783	5.62
778.53	4.62
779.276	6.62
780.023	6.62
780.769	7.62
781.516	5.62
782.262	4.62
783.008	6.62
783.754	4.62
784.5	8.62
785.246	4.62
785.992	6.62
786.738	4.62
787.484	2.62
788.23	7.62
788.975	5.62
789.721	6.62
790.466	5.62
791.212	5.62
791.957	6.62
792.702	4.62
793.447	7.62
794.193	7.62
794.938	5.62
795.683	4.62
796.427	4.62
797.172	5.62
797.917	5.62
798.662	7.62
799.406	4.62
800.151	5.62
800.895	5.62
801.64	5.62
802.384	4.62
803.128	3.62
803.872	5.62
804.616	5.62
805.36	4.62
806.104	3.62
806.848	5.62
807.592	3.62
808.336	3.62
809.079	4.62
809.823	3.62
810.566	4.62
811.31	4.62
812.053	6.62
812.796	3.62
813.539	3.62
814.283	4.62
815.026	2.62
815.769	2.62
816.511	3.62
817.254	2.62
817.997	5.62
818.74	3.62
819.482	3.62
820.225	3.62
820.967	4.62
821.71	3.62
822.452	1.62
823.194	4.62
823.936	1.62
824.678	5.62
825.42	2.62
826.162	2.62
826.904	3.62
827.646	0.62
828.388	3.62
829.129	2.62
829.871	2.62
830.612	3.62
831.354	4.62
832.095	0.62
832.836	0.62
833.577	4.62
834.319	3.62
835.06	5.62
835.801	1.62
836.542	3.62
837.282	2.62
838.023	0.62
838.764	2.62
839.504	4.62
840.245	3.62
840.985	4.62
841.726	1.62
842.466	2.62
843.206	2.62
843.946	3.62
844.687	1.62
845.427	3.62
846.166	3.62
846.906	-0.38
847.646	0.62
848.386	2.62
849.125	3.62
849.865	2.62
850.605	1.62
851.344	-0.38
852.083	1.62
852.823	2.62
853.562	0.62
854.301	2.62
855.04	3.62
855.779	2.62
856.518	1.62
857.257	1.62
857.995	2.62
858.734	1.62
859.473	3.62
860.211	1.62
860.95	0.62
861.688	2.62
862.426	-0.38
863.165	2.62
863.903	2.62
864.641	0.62
865.379	0.62
866.117	1.62
866.855	0.62
867.593	0.62
868.33	0.62
869.068	1.62
869.806	2.62
870.543	1.62
871.28	-0.38
872.018	2.62
872.755	3.62
873.492	2.62
874.229	2.62
874.967	1.62
875.703	3.62
876.44	2.62
877.177	1.62
877.914	0.62
878.651	1.62
879.387	2.62
880.124	1.62
880.86	2.62
881.597	1.62
882.333	-0.38
883.069	1.62
883.806	1.62
884.542	1.62
885.278	1.62
886.014	-0.38
886.749	0.62
887.485	2.62
888.221	0.62
888.957	1.62
889.692	2.62
890.428	0.62
891.163	1.62
891.899	2.62
892.634	-1.38
893.369	0.62
894.104	1.62
894.839	-0.38
895.574	1.62
896.309	1.62
897.044	1.62
897.779	1.62
898.514	-0.38
899.248	-0.38
899.983	0.62
900.717	3.62
901.452	0.62
902.186	1.62
902.92	-0.38
903.654	-0.38
904.389	-1.38
905.123	0.62
905.857	0.62
906.59	2.62
907.324	0.62
908.058	2.62
908.792	1.62
909.525	2.62
910.259	2.62
910.992	-0.38
911.726	1.62
912.459	0.62
913.192	2.62
913.925	-0.38
914.658	0.62
915.391	0.62
916.124	0.62
916.857	0.62
917.59	-0.38
918.323	1.62
919.055	1.62
919.788	1.62
920.521	0.62
921.253	1.62
921.985	-1.38
922.718	0.62
923.45	1.62
924.182	1.62
924.914	0.62
925.646	0.62
926.378	0.62
927.11	1.62
927.841	-2.38
928.573	-0.38
929.305	0.62
930.036	1.62
930.768	-1.38
931.499	1.62
932.23	-1.38
932.962	-1.38
933.693	1.62
934.424	0.62
935.155	0.62
935.886	1.62
936.617	-1.38
937.348	2.62
938.078	0.62
938.809	1.62
939.54	-0.38
940.27	0.62
941.001	1.62
941.731	0.62
942.461	2.62
943.191	-1.38
943.922	0.62
944.652	0.62
945.382	2.62
946.112	0.62
946.841	1.62
947.571	0.62
948.301	0.62
949.031	3.62
949.76	-0.38
950.49	-0.38
951.219	1.62
951.948	0.62
952.678	1.62
953.407	1.62
954.136	1.62
954.865	1.62
955.594	-0.38
956.323	2.62
957.052	-1.38
957.78	2.62
958.509	0.62
959.238	-1.38
959.966	2.62
960.695	0.62
961.423	0.62
962.151	1.62
962.88	0.62
963.608	1.62
964.336	1.62
965.064	1.62
965.792	1.62
966.52	-1.38
967.247	-1.38
967.975	2.62
968.703	3.62
969.43	0.62
970.158	0.62
970.885	0.62
971.613	1.62
972.34	0.62
973.067	0.62
973.794	1.62
974.521	-1.38
975.248	0.62
975.975	1.62
976.702	3.62
977.429	0.62
978.156	-1.38
978.882	1.62
979.609	-0.38
980.335	2.62
981.062	-1.38
981.788	0.62
982.514	0.62
983.24	1.62
983.967	-2.38
984.693	0.62
985.419	-0.38
986.144	0.62
986.87	0.62
987.596	1.62
988.322	0.62
989.047	0.62
989.773	0.62
990.498	0.62
991.224	1.62
991.949	1.62
992.674	2.62
993.399	-0.38
994.124	-1.38
994.849	-0.38
995.574	-0.38
996.299	0.62
997.024	1.62
997.749	-1.38
998.473	0.62
999.198	1.62
999.922	-1.38
1000.647	2.62
1001.371	1.62
1002.095	-1.38
1002.82	-1.38
1003.544	-0.38
1004.268	0.62
1004.992	-0.38
1005.716	-1.38
1006.439	0.62
1007.163	2.62
1007.887	1.62
1008.611	1.62
1009.334	1.62
1010.058	0.62
1010.781	-0.38
1011.504	0.62
1012.228	0.62
1012.951	-0.38
1013.674	0.62
1014.397	0.62
1015.12	0.62
