节点500_145_QEPB04081__49__11-29-43-741.txt的数据

Date: Wed Nov 12 11:29:43 CST 2025
User: PC
Spectrometer: QEPB0408
触发模式: 0
积分时间 (秒): 1.000000E-2
Scans to average: 1
启用暗噪声校正: true
启用非线性校正: false
滑动平均宽度: 0
X轴模式: Wavelengths
Number of Pixels in Spectrum: 1044
>>>>>Begin Spectral Data<<<<<
220.843	-2
221.644	-2
222.444	0
223.244	-1
224.045	-3
224.845	0
225.645	-1
226.445	-3
227.245	1
228.045	0
228.845	0
229.645	1
230.444	-1
231.244	2
232.043	-1
232.843	-3
233.642	-2
234.442	0
235.241	-1
236.04	0
236.839	-1
237.638	0
238.437	1
239.236	0
240.035	1
240.833	0
241.632	-1
242.43	-3
243.229	1
244.027	1
244.826	0
245.624	1
246.422	0
247.22	0
248.018	-1
248.816	3
249.614	1
250.412	2
251.21	5
252.007	2
252.805	2
253.602	2
254.4	2
255.197	2
255.994	2
256.791	2
257.589	3
258.386	5
259.183	3
259.979	5
260.776	3
261.573	3
262.37	4
263.166	5
263.963	6
264.759	6
265.556	4
266.352	3
267.148	3
267.944	5
268.74	4
269.536	9
270.332	8
271.128	7
271.924	8
272.719	7
273.515	11
274.311	8
275.106	8
275.901	9
276.697	10
277.492	9
278.287	7
279.082	11
279.877	10
280.672	8
281.467	12
282.262	9
283.056	12
283.851	9
284.646	9
285.44	9
286.234	10
287.029	10
287.823	10
288.617	11
289.411	11
290.205	10
290.999	12
291.793	10
292.587	9
293.381	8
294.174	9
294.968	9
295.761	9
296.555	11
297.348	8
298.141	9
298.935	7
299.728	9
300.521	8
301.314	8
302.107	7
302.899	7
303.692	7
304.485	7
305.277	8
306.07	5
306.862	8
307.655	6
308.447	5
309.239	7
310.031	7
310.823	6
311.615	6
312.407	6
313.199	5
313.991	5
314.783	5
315.574	3
316.366	3
317.157	6
317.949	3
318.74	6
319.531	5
320.322	6
321.113	5
321.904	3
322.695	4
323.486	2
324.277	4
325.068	3
325.858	1
326.649	3
327.439	5
328.23	1
329.02	3
329.81	4
330.6	3
331.391	3
332.181	3
332.971	1
333.76	3
334.55	2
335.34	4
336.13	1
336.919	2
337.709	5
338.498	4
339.287	3
340.077	1
340.866	3
341.655	3
342.444	4
343.233	2
344.022	3
344.811	3
345.6	0
346.388	2
347.177	2
347.965	2
348.754	3
349.542	4
350.33	3
351.119	3
351.907	3
352.695	1
353.483	3
354.271	3
355.059	0
355.846	1
356.634	1
357.422	2
358.209	3
358.997	5
359.784	4
360.571	0
361.359	4
362.146	2
362.933	0
363.72	2
364.507	-2
365.294	2
366.081	1
366.867	4
367.654	1
368.44	1
369.227	1
370.013	1
370.8	3
371.586	1
372.372	2
373.158	2
373.944	1
374.73	1
375.516	1
376.302	1
377.088	2
377.873	3
378.659	2
379.445	1
380.23	1
381.015	1
381.801	3
382.586	3
383.371	1
384.156	0
384.941	2
385.726	3
386.511	3
387.296	1
388.08	3
388.865	2
389.649	2
390.434	2
391.218	4
392.003	1
392.787	1
393.571	4
394.355	2
395.139	3
395.923	1
396.707	3
397.491	2
398.274	6
399.058	3
399.842	2
400.625	3
401.408	1
402.192	2
402.975	2
403.758	3
404.541	4
405.324	2
406.107	4
406.89	3
407.673	4
408.456	7
409.238	3
410.021	6
410.803	3
411.586	6
412.368	4
413.151	6
413.933	1
414.715	6
415.497	5
416.279	6
417.061	4
417.843	4
418.624	4
419.406	5
420.188	2
420.969	4
421.751	4
422.532	5
423.313	6
424.095	5
424.876	6
425.657	6
426.438	6
427.219	7
428	5
428.78	6
429.561	5
430.342	6
431.122	6
431.903	8
432.683	7
433.464	6
434.244	10
435.024	8
435.804	7
436.584	9
437.364	9
438.144	11
438.924	12
439.704	10
440.483	10
441.263	10
442.042	12
442.822	13
443.601	14
444.38	13
445.16	15
445.939	16
446.718	16
447.497	15
448.276	17
449.054	19
449.833	22
450.612	24
451.391	24
452.169	25
452.948	25
453.726	30
454.504	33
455.282	37
456.061	38
456.839	43
457.617	46
458.395	54
459.172	60
459.95	61
460.728	74
461.506	81
462.283	91
463.061	100
463.838	110
464.615	124
465.393	132
466.17	158
466.947	167
467.724	189
468.501	219
469.278	235
470.055	269
470.831	302
471.608	337
472.385	381
473.161	417
473.938	466
474.714	528
475.49	592
476.266	662
477.043	720
477.819	808
478.595	888
479.371	1015
480.146	1120
480.922	1225
481.698	1377
482.473	1528
483.249	1680
484.024	1887
484.8	2082
485.575	2310
486.35	2550
487.126	2852
487.901	3155
488.676	3515
489.451	3874
490.225	4289
491	4733
491.775	5247
492.55	5759
493.324	6375
494.099	6995
494.873	7669
495.647	8403
496.422	9117
497.196	9884
497.97	10684
498.744	11473
499.518	12345
500.292	13134
501.066	13882
501.839	14601
502.613	15261
503.387	15929
504.16	16418
504.934	16856
505.707	17137
506.48	17321
507.253	17381
508.027	17262
508.8	17187
509.573	16879
510.346	16505
511.118	16032
511.891	15451
512.664	14880
513.437	14305
514.209	13725
514.982	13113
515.754	12494
516.526	11962
517.298	11366
518.071	10846
518.843	10345
519.615	9950
520.387	9527
521.159	9147
521.93	8768
522.702	8463
523.474	8113
524.245	7807
525.017	7498
525.788	7195
526.56	6865
527.331	6577
528.102	6262
528.873	5980
529.644	5709
530.415	5426
531.186	5167
531.957	4863
532.728	4652
533.498	4371
534.269	4135
535.039	3883
535.81	3640
536.58	3458
537.351	3256
538.121	3059
538.891	2906
539.661	2751
540.431	2597
541.201	2454
541.971	2327
542.741	2211
543.51	2090
544.28	1971
545.05	1916
545.819	1786
546.588	1710
547.358	1628
548.127	1549
548.896	1467
549.665	1395
550.434	1307
551.203	1254
551.972	1172
552.741	1124
553.51	1056
554.278	991
555.047	946
555.815	888
556.584	843
557.352	788
558.121	744
558.889	690
559.657	645
560.425	624
561.193	582
561.961	556
562.729	520
563.496	486
564.264	462
565.032	434
565.799	409
566.567	391
567.334	365
568.101	344
568.869	335
569.636	308
570.403	292
571.17	269
571.937	255
572.704	246
573.471	234
574.237	216
575.004	202
575.771	193
576.537	180
577.303	173
578.07	157
578.836	152
579.602	140
580.368	137
581.134	124
581.9	120
582.666	115
583.432	104
584.198	105
584.964	99
585.729	91
586.495	85
587.26	80
588.025	77
588.791	74
589.556	65
590.321	65
591.086	61
591.851	57
592.616	55
593.381	50
594.146	53
594.911	47
595.675	48
596.44	41
597.204	41
597.969	37
598.733	39
599.497	34
600.261	34
601.025	32
601.79	30
602.553	28
603.317	27
604.081	26
604.845	25
605.609	25
606.372	24
607.136	22
607.899	18
608.662	20
609.426	20
610.189	20
610.952	18
611.715	17
612.478	14
613.241	12
614.004	15
614.767	14
615.529	16
616.292	12
617.055	13
617.817	14
618.579	10
619.342	13
620.104	13
620.866	9
621.628	8
622.39	10
623.152	12
623.914	10
624.676	5
625.438	7
626.199	9
626.961	9
627.722	7
628.484	8
629.245	8
630.006	6
630.768	7
631.529	5
632.29	8
633.051	5
633.812	7
634.573	4
635.333	7
636.094	6
636.855	5
637.615	5
638.376	6
639.136	6
639.896	2
640.657	4
641.417	3
642.177	5
642.937	5
643.697	3
644.457	4
645.216	4
645.976	4
646.736	5
647.495	4
648.255	5
649.014	3
649.774	2
650.533	2
651.292	3
652.051	1
652.81	4
653.569	3
654.328	4
655.087	2
655.846	3
656.604	3
657.363	2
658.121	3
658.88	2
659.638	0
660.397	3
661.155	1
661.913	3
662.671	3
663.429	2
664.187	1
664.945	1
665.703	3
666.46	2
667.218	2
667.976	1
668.733	3
669.49	2
670.248	2
671.005	3
671.762	0
672.519	2
673.276	1
674.033	2
674.79	4
675.547	0
676.304	3
677.06	2
677.817	3
678.574	2
679.33	-1
680.086	2
680.843	1
681.599	3
682.355	1
683.111	0
683.867	1
684.623	1
685.379	0
686.135	1
686.89	1
687.646	0
688.402	4
689.157	0
689.912	0
690.668	2
691.423	1
692.178	0
692.933	1
693.688	1
694.443	1
695.198	0
695.953	1
696.708	1
697.462	1
698.217	1
698.972	1
699.726	1
700.48	1
701.235	1
701.989	0
702.743	4
703.497	0
704.251	2
705.005	3
705.759	1
706.513	2
707.266	2
708.02	3
708.774	1
709.527	2
710.28	2
711.034	-1
711.787	1
712.54	0
713.293	1
714.046	3
714.799	1
715.552	1
716.305	-1
717.058	3
717.81	1
718.563	0
719.315	1
720.068	0
720.82	1
721.573	1
722.325	1
723.077	0
723.829	2
724.581	1
725.333	-1
726.085	3
726.836	0
727.588	2
728.34	0
729.091	1
729.843	2
730.594	0
731.346	-1
732.097	0
732.848	1
733.599	-1
734.35	-1
735.101	0
735.852	1
736.603	1
737.354	-1
738.104	2
738.855	1
739.605	1
740.356	-1
741.106	-1
741.856	2
742.607	1
743.357	0
744.107	2
744.857	-1
745.607	3
746.357	0
747.106	2
747.856	2
748.606	0
749.355	2
750.105	1
750.854	2
751.603	2
752.353	3
753.102	2
753.851	0
754.6	4
755.349	2
756.098	1
756.847	3
757.595	4
758.344	2
759.093	3
759.841	1
760.589	3
761.338	4
762.086	3
762.834	4
763.582	2
764.331	1
765.079	3
765.826	2
766.574	4
767.322	3
768.07	2
768.817	3
769.565	6
770.312	4
771.06	3
771.807	1
772.554	2
773.302	4
774.049	3
774.796	5
775.543	6
776.29	5
777.036	5
777.783	1
778.53	5
779.276	2
780.023	5
780.769	3
781.516	4
782.262	4
783.008	3
783.754	3
784.5	4
785.246	4
785.992	5
786.738	6
787.484	5
788.23	6
788.975	6
789.721	4
790.466	3
791.212	6
791.957	3
792.702	7
793.447	4
794.193	3
794.938	5
795.683	1
796.427	5
797.172	6
797.917	3
798.662	3
799.406	5
800.151	4
800.895	2
801.64	5
802.384	5
803.128	4
803.872	4
804.616	2
805.36	6
806.104	2
806.848	4
807.592	3
808.336	5
809.079	2
809.823	1
810.566	4
811.31	3
812.053	4
812.796	4
813.539	1
814.283	1
815.026	1
815.769	3
816.511	1
817.254	1
817.997	4
818.74	2
819.482	2
820.225	0
820.967	3
821.71	1
822.452	0
823.194	0
823.936	2
824.678	4
825.42	2
826.162	3
826.904	1
827.646	3
828.388	4
829.129	-1
829.871	3
830.612	1
831.354	0
832.095	2
832.836	0
833.577	0
834.319	0
835.06	2
835.801	1
836.542	2
837.282	1
838.023	0
838.764	2
839.504	1
840.245	3
840.985	2
841.726	2
842.466	3
843.206	-1
843.946	0
844.687	1
845.427	2
846.166	1
846.906	1
847.646	1
848.386	0
849.125	0
849.865	1
850.605	1
851.344	0
852.083	0
852.823	4
853.562	0
854.301	1
855.04	2
855.779	3
856.518	0
857.257	0
857.995	3
858.734	0
859.473	-1
860.211	-1
860.95	1
861.688	1
862.426	0
863.165	1
863.903	1
864.641	2
865.379	-1
866.117	2
866.855	1
867.593	-1
868.33	0
869.068	-3
869.806	1
870.543	0
871.28	0
872.018	1
872.755	0
873.492	-1
874.229	1
874.967	2
875.703	0
876.44	0
877.177	-2
877.914	-1
878.651	2
879.387	1
880.124	-5
880.86	-1
881.597	1
882.333	1
883.069	-2
883.806	2
884.542	0
885.278	0
886.014	0
886.749	0
887.485	1
888.221	-2
888.957	-1
889.692	-3
890.428	2
891.163	-2
891.899	0
892.634	0
893.369	-1
894.104	0
894.839	-1
895.574	0
896.309	0
897.044	-2
897.779	-3
898.514	-3
899.248	0
899.983	-2
900.717	-1
901.452	1
902.186	-3
902.92	1
903.654	-1
904.389	2
905.123	0
905.857	-1
906.59	-2
907.324	2
908.058	0
908.792	1
909.525	1
910.259	0
910.992	-2
911.726	-1
912.459	2
913.192	2
913.925	0
914.658	-1
915.391	-2
916.124	-3
916.857	-3
917.59	-2
918.323	0
919.055	-2
919.788	-1
920.521	-1
921.253	-2
921.985	1
922.718	0
923.45	-2
924.182	-3
924.914	-1
925.646	0
926.378	-1
927.11	-3
927.841	-1
928.573	1
929.305	-2
930.036	-1
930.768	1
931.499	-3
932.23	-2
932.962	0
933.693	-1
934.424	0
935.155	-2
935.886	-1
936.617	-3
937.348	0
938.078	-2
938.809	0
939.54	-1
940.27	0
941.001	0
941.731	-2
942.461	-1
943.191	-3
943.922	0
944.652	-2
945.382	0
946.112	1
946.841	-4
947.571	-2
948.301	0
949.031	-3
949.76	-1
950.49	-2
951.219	0
951.948	-2
952.678	-1
953.407	-2
954.136	1
954.865	0
955.594	0
956.323	0
957.052	-2
957.78	-1
958.509	-2
959.238	0
959.966	1
960.695	0
961.423	-2
962.151	-2
962.88	-1
963.608	0
964.336	-1
965.064	-3
965.792	-3
966.52	-1
967.247	0
967.975	-2
968.703	1
969.43	-2
970.158	0
970.885	-1
971.613	1
972.34	0
973.067	-2
973.794	-1
974.521	-2
975.248	0
975.975	-3
976.702	-2
977.429	2
978.156	-1
978.882	-1
979.609	-2
980.335	1
981.062	0
981.788	0
982.514	-2
983.24	-2
983.967	2
984.693	-1
985.419	1
986.144	-1
986.87	-3
987.596	0
988.322	-1
989.047	1
989.773	-1
990.498	-1
991.224	-1
991.949	2
992.674	-3
993.399	-2
994.124	0
994.849	-3
995.574	1
996.299	0
997.024	-1
997.749	-1
998.473	-1
999.198	1
999.922	-1
1000.647	-1
1001.371	3
1002.095	1
1002.82	-1
1003.544	-3
1004.268	-3
1004.992	-2
1005.716	0
1006.439	0
1007.163	0
1007.887	1
1008.611	-1
1009.334	1
1010.058	-1
1010.781	-3
1011.504	-1
1012.228	-2
1012.951	1
1013.674	1
1014.397	0
1015.12	-2
