节点500_145_QEPB04081__681__11-39-45-877.txt的数据

Date: Wed Nov 12 11:39:45 CST 2025
User: PC
Spectrometer: QEPB0408
触发模式: 0
积分时间 (秒): 1.000000E-2
Scans to average: 1
启用暗噪声校正: true
启用非线性校正: false
滑动平均宽度: 0
X轴模式: Wavelengths
Number of Pixels in Spectrum: 1044
>>>>>Begin Spectral Data<<<<<
220.843	0.25
221.644	-1.75
222.444	-1.75
223.244	-0.75
224.045	-0.75
224.845	2.25
225.645	-1.75
226.445	-2.75
227.245	1.25
228.045	-0.75
228.845	-1.75
229.645	-0.75
230.444	-1.75
231.244	1.25
232.043	-1.75
232.843	-0.75
233.642	2.25
234.442	-1.75
235.241	-1.75
236.04	1.25
236.839	3.25
237.638	2.25
238.437	-0.75
239.236	1.25
240.035	0.25
240.833	1.25
241.632	0.25
242.43	2.25
243.229	0.25
244.027	1.25
244.826	1.25
245.624	1.25
246.422	2.25
247.22	3.25
248.018	2.25
248.816	2.25
249.614	1.25
250.412	2.25
251.21	-0.75
252.007	3.25
252.805	1.25
253.602	1.25
254.4	3.25
255.197	3.25
255.994	2.25
256.791	2.25
257.589	3.25
258.386	5.25
259.183	2.25
259.979	5.25
260.776	4.25
261.573	3.25
262.37	4.25
263.166	5.25
263.963	3.25
264.759	3.25
265.556	5.25
266.352	4.25
267.148	4.25
267.944	6.25
268.74	7.25
269.536	6.25
270.332	3.25
271.128	5.25
271.924	6.25
272.719	8.25
273.515	4.25
274.311	7.25
275.106	6.25
275.901	9.25
276.697	8.25
277.492	7.25
278.287	8.25
279.082	9.25
279.877	7.25
280.672	9.25
281.467	7.25
282.262	8.25
283.056	9.25
283.851	10.25
284.646	8.25
285.44	9.25
286.234	11.25
287.029	9.25
287.823	10.25
288.617	9.25
289.411	10.25
290.205	9.25
290.999	9.25
291.793	10.25
292.587	10.25
293.381	10.25
294.174	9.25
294.968	10.25
295.761	7.25
296.555	9.25
297.348	9.25
298.141	7.25
298.935	7.25
299.728	7.25
300.521	8.25
301.314	7.25
302.107	7.25
302.899	7.25
303.692	5.25
304.485	10.25
305.277	7.25
306.07	7.25
306.862	6.25
307.655	7.25
308.447	8.25
309.239	8.25
310.031	6.25
310.823	5.25
311.615	5.25
312.407	4.25
313.199	6.25
313.991	5.25
314.783	5.25
315.574	9.25
316.366	7.25
317.157	4.25
317.949	5.25
318.74	4.25
319.531	7.25
320.322	2.25
321.113	2.25
321.904	7.25
322.695	4.25
323.486	7.25
324.277	3.25
325.068	3.25
325.858	4.25
326.649	6.25
327.439	3.25
328.23	3.25
329.02	3.25
329.81	4.25
330.6	4.25
331.391	2.25
332.181	5.25
332.971	5.25
333.76	6.25
334.55	5.25
335.34	3.25
336.13	5.25
336.919	1.25
337.709	5.25
338.498	2.25
339.287	4.25
340.077	5.25
340.866	5.25
341.655	4.25
342.444	3.25
343.233	2.25
344.022	4.25
344.811	2.25
345.6	1.25
346.388	4.25
347.177	3.25
347.965	2.25
348.754	3.25
349.542	4.25
350.33	1.25
351.119	3.25
351.907	2.25
352.695	3.25
353.483	3.25
354.271	2.25
355.059	1.25
355.846	3.25
356.634	4.25
357.422	0.25
358.209	3.25
358.997	2.25
359.784	3.25
360.571	1.25
361.359	2.25
362.146	1.25
362.933	1.25
363.72	3.25
364.507	3.25
365.294	2.25
366.081	4.25
366.867	1.25
367.654	0.25
368.44	2.25
369.227	2.25
370.013	1.25
370.8	2.25
371.586	1.25
372.372	-0.75
373.158	2.25
373.944	0.25
374.73	3.25
375.516	4.25
376.302	2.25
377.088	1.25
377.873	2.25
378.659	2.25
379.445	1.25
380.23	2.25
381.015	1.25
381.801	3.25
382.586	1.25
383.371	2.25
384.156	2.25
384.941	2.25
385.726	5.25
386.511	1.25
387.296	1.25
388.08	2.25
388.865	1.25
389.649	3.25
390.434	1.25
391.218	4.25
392.003	2.25
392.787	3.25
393.571	2.25
394.355	1.25
395.139	3.25
395.923	0.25
396.707	3.25
397.491	2.25
398.274	5.25
399.058	3.25
399.842	1.25
400.625	7.25
401.408	1.25
402.192	3.25
402.975	5.25
403.758	4.25
404.541	2.25
405.324	3.25
406.107	2.25
406.89	3.25
407.673	4.25
408.456	3.25
409.238	5.25
410.021	4.25
410.803	2.25
411.586	4.25
412.368	4.25
413.151	5.25
413.933	4.25
414.715	5.25
415.497	5.25
416.279	4.25
417.061	2.25
417.843	5.25
418.624	5.25
419.406	3.25
420.188	6.25
420.969	3.25
421.751	3.25
422.532	3.25
423.313	4.25
424.095	7.25
424.876	5.25
425.657	6.25
426.438	7.25
427.219	6.25
428	6.25
428.78	5.25
429.561	5.25
430.342	7.25
431.122	5.25
431.903	7.25
432.683	7.25
433.464	8.25
434.244	6.25
435.024	10.25
435.804	9.25
436.584	9.25
437.364	10.25
438.144	12.25
438.924	12.25
439.704	9.25
440.483	12.25
441.263	11.25
442.042	13.25
442.822	15.25
443.601	15.25
444.38	16.25
445.16	15.25
445.939	22.25
446.718	17.25
447.497	20.25
448.276	21.25
449.054	19.25
449.833	27.25
450.612	23.25
451.391	30.25
452.169	29.25
452.948	35.25
453.726	37.25
454.504	44.25
455.282	48.25
456.061	50.25
456.839	58.25
457.617	58.25
458.395	68.25
459.172	80.25
459.95	83.25
460.728	96.25
461.506	100.25
462.283	117.25
463.061	123.25
463.838	143.25
464.615	154.25
465.393	173.25
466.17	196.25
466.947	210.25
467.724	241.25
468.501	259.25
469.278	299.25
470.055	326.25
470.831	356.25
471.608	401.25
472.385	439.25
473.161	493.25
473.938	540.25
474.714	598.25
475.49	659.25
476.266	711.25
477.043	791.25
477.819	871.25
478.595	964.25
479.371	1047.25
480.146	1154.25
480.922	1273.25
481.698	1382.25
482.473	1508.25
483.249	1660.25
484.024	1815.25
484.8	1998.25
485.575	2182.25
486.35	2352.25
487.126	2601.25
487.901	2825.25
488.676	3113.25
489.451	3379.25
490.225	3680.25
491	4014.25
491.775	4373.25
492.55	4748.25
493.324	5216.25
494.099	5615.25
494.873	6086.25
495.647	6663.25
496.422	7168.25
497.196	7725.25
497.97	8302.25
498.744	8960.25
499.518	9569.25
500.292	10265.25
501.066	10848.25
501.839	11488.25
502.613	11983.25
503.387	12631.25
504.16	13158.25
504.934	13644.25
505.707	14067.25
506.48	14411.25
507.253	14654.25
508.027	14880.25
508.8	15048.25
509.573	15040.25
510.346	14899.25
511.118	14777.25
511.891	14588.25
512.664	14238.25
513.437	13848.25
514.209	13454.25
514.982	13093.25
515.754	12607.25
516.526	12113.25
517.298	11667.25
518.071	11200.25
518.843	10714.25
519.615	10240.25
520.387	9841.25
521.159	9445.25
521.93	9090.25
522.702	8731.25
523.474	8384.25
524.245	8078.25
525.017	7730.25
525.788	7441.25
526.56	7118.25
527.331	6845.25
528.102	6571.25
528.873	6289.25
529.644	6048.25
530.415	5803.25
531.186	5534.25
531.957	5267.25
532.728	4995.25
533.498	4779.25
534.269	4510.25
535.039	4317.25
535.81	4059.25
536.58	3844.25
537.351	3638.25
538.121	3444.25
538.891	3257.25
539.661	3085.25
540.431	2914.25
541.201	2758.25
541.971	2604.25
542.741	2473.25
543.51	2332.25
544.28	2219.25
545.05	2121.25
545.819	1996.25
546.588	1893.25
547.358	1806.25
548.127	1727.25
548.896	1638.25
549.665	1556.25
550.434	1485.25
551.203	1406.25
551.972	1340.25
552.741	1257.25
553.51	1206.25
554.278	1135.25
555.047	1073.25
555.815	1010.25
556.584	963.25
557.352	894.25
558.121	846.25
558.889	807.25
559.657	766.25
560.425	716.25
561.193	680.25
561.961	652.25
562.729	596.25
563.496	579.25
564.264	538.25
565.032	524.25
565.799	474.25
566.567	448.25
567.334	423.25
568.101	406.25
568.869	378.25
569.636	358.25
570.403	343.25
571.17	319.25
571.937	303.25
572.704	286.25
573.471	269.25
574.237	260.25
575.004	239.25
575.771	226.25
576.537	213.25
577.303	199.25
578.07	187.25
578.836	175.25
579.602	166.25
580.368	160.25
581.134	146.25
581.9	147.25
582.666	135.25
583.432	129.25
584.198	124.25
584.964	112.25
585.729	105.25
586.495	103.25
587.26	96.25
588.025	90.25
588.791	86.25
589.556	82.25
590.321	76.25
591.086	75.25
591.851	70.25
592.616	62.25
593.381	59.25
594.146	61.25
594.911	57.25
595.675	56.25
596.44	50.25
597.204	46.25
597.969	44.25
598.733	45.25
599.497	40.25
600.261	40.25
601.025	38.25
601.79	36.25
602.553	33.25
603.317	36.25
604.081	31.25
604.845	32.25
605.609	27.25
606.372	27.25
607.136	25.25
607.899	25.25
608.662	23.25
609.426	24.25
610.189	20.25
610.952	20.25
611.715	22.25
612.478	15.25
613.241	19.25
614.004	19.25
614.767	16.25
615.529	15.25
616.292	14.25
617.055	14.25
617.817	17.25
618.579	13.25
619.342	12.25
620.104	13.25
620.866	14.25
621.628	13.25
622.39	13.25
623.152	13.25
623.914	10.25
624.676	13.25
625.438	8.25
626.199	8.25
626.961	9.25
627.722	6.25
628.484	9.25
629.245	9.25
630.006	7.25
630.768	6.25
631.529	10.25
632.29	7.25
633.051	9.25
633.812	7.25
634.573	7.25
635.333	5.25
636.094	9.25
636.855	3.25
637.615	7.25
638.376	5.25
639.136	6.25
639.896	8.25
640.657	5.25
641.417	5.25
642.177	6.25
642.937	4.25
643.697	4.25
644.457	5.25
645.216	5.25
645.976	5.25
646.736	3.25
647.495	5.25
648.255	4.25
649.014	5.25
649.774	3.25
650.533	4.25
651.292	4.25
652.051	4.25
652.81	2.25
653.569	4.25
654.328	6.25
655.087	4.25
655.846	2.25
656.604	5.25
657.363	2.25
658.121	2.25
658.88	2.25
659.638	4.25
660.397	3.25
661.155	2.25
661.913	2.25
662.671	2.25
663.429	2.25
664.187	5.25
664.945	1.25
665.703	4.25
666.46	1.25
667.218	2.25
667.976	4.25
668.733	2.25
669.49	2.25
670.248	3.25
671.005	1.25
671.762	1.25
672.519	3.25
673.276	2.25
674.033	1.25
674.79	3.25
675.547	1.25
676.304	1.25
677.06	1.25
677.817	1.25
678.574	2.25
679.33	0.25
680.086	1.25
680.843	2.25
681.599	3.25
682.355	2.25
683.111	2.25
683.867	3.25
684.623	2.25
685.379	2.25
686.135	2.25
686.89	1.25
687.646	1.25
688.402	1.25
689.157	3.25
689.912	0.25
690.668	3.25
691.423	3.25
692.178	2.25
692.933	3.25
693.688	1.25
694.443	3.25
695.198	2.25
695.953	2.25
696.708	0.25
697.462	3.25
698.217	3.25
698.972	0.25
699.726	1.25
700.48	3.25
701.235	2.25
701.989	1.25
702.743	2.25
703.497	3.25
704.251	0.25
705.005	2.25
705.759	1.25
706.513	1.25
707.266	0.25
708.02	2.25
708.774	2.25
709.527	0.25
710.28	2.25
711.034	0.25
711.787	1.25
712.54	3.25
713.293	1.25
714.046	1.25
714.799	3.25
715.552	2.25
716.305	2.25
717.058	4.25
717.81	2.25
718.563	3.25
719.315	1.25
720.068	1.25
720.82	4.25
721.573	4.25
722.325	1.25
723.077	2.25
723.829	2.25
724.581	1.25
725.333	-0.75
726.085	0.25
726.836	1.25
727.588	4.25
728.34	1.25
729.091	3.25
729.843	1.25
730.594	-1.75
731.346	3.25
732.097	0.25
732.848	3.25
733.599	2.25
734.35	1.25
735.101	3.25
735.852	1.25
736.603	2.25
737.354	2.25
738.104	3.25
738.855	2.25
739.605	1.25
740.356	0.25
741.106	1.25
741.856	2.25
742.607	3.25
743.357	1.25
744.107	2.25
744.857	1.25
745.607	2.25
746.357	0.25
747.106	3.25
747.856	3.25
748.606	4.25
749.355	2.25
750.105	0.25
750.854	2.25
751.603	2.25
752.353	2.25
753.102	1.25
753.851	3.25
754.6	2.25
755.349	1.25
756.098	0.25
756.847	0.25
757.595	5.25
758.344	3.25
759.093	2.25
759.841	2.25
760.589	0.25
761.338	2.25
762.086	4.25
762.834	3.25
763.582	1.25
764.331	2.25
765.079	6.25
765.826	2.25
766.574	4.25
767.322	5.25
768.07	1.25
768.817	3.25
769.565	1.25
770.312	5.25
771.06	2.25
771.807	4.25
772.554	2.25
773.302	3.25
774.049	4.25
774.796	3.25
775.543	5.25
776.29	4.25
777.036	4.25
777.783	4.25
778.53	5.25
779.276	3.25
780.023	3.25
780.769	5.25
781.516	1.25
782.262	2.25
783.008	4.25
783.754	5.25
784.5	2.25
785.246	4.25
785.992	3.25
786.738	5.25
787.484	5.25
788.23	7.25
788.975	3.25
789.721	4.25
790.466	5.25
791.212	7.25
791.957	3.25
792.702	3.25
793.447	6.25
794.193	2.25
794.938	5.25
795.683	2.25
796.427	6.25
797.172	3.25
797.917	6.25
798.662	2.25
799.406	2.25
800.151	4.25
800.895	2.25
801.64	4.25
802.384	3.25
803.128	3.25
803.872	2.25
804.616	4.25
805.36	5.25
806.104	4.25
806.848	2.25
807.592	2.25
808.336	4.25
809.079	3.25
809.823	4.25
810.566	4.25
811.31	4.25
812.053	3.25
812.796	3.25
813.539	3.25
814.283	1.25
815.026	3.25
815.769	2.25
816.511	2.25
817.254	3.25
817.997	3.25
818.74	2.25
819.482	2.25
820.225	3.25
820.967	2.25
821.71	3.25
822.452	2.25
823.194	2.25
823.936	1.25
824.678	2.25
825.42	3.25
826.162	1.25
826.904	1.25
827.646	2.25
828.388	3.25
829.129	3.25
829.871	1.25
830.612	2.25
831.354	1.25
832.095	3.25
832.836	0.25
833.577	2.25
834.319	2.25
835.06	1.25
835.801	2.25
836.542	3.25
837.282	1.25
838.023	2.25
838.764	0.25
839.504	1.25
840.245	1.25
840.985	1.25
841.726	1.25
842.466	0.25
843.206	2.25
843.946	2.25
844.687	2.25
845.427	2.25
846.166	1.25
846.906	4.25
847.646	0.25
848.386	2.25
849.125	3.25
849.865	1.25
850.605	3.25
851.344	2.25
852.083	2.25
852.823	1.25
853.562	3.25
854.301	1.25
855.04	1.25
855.779	2.25
856.518	0.25
857.257	1.25
857.995	5.25
858.734	1.25
859.473	1.25
860.211	4.25
860.95	1.25
861.688	2.25
862.426	1.25
863.165	-1.75
863.903	3.25
864.641	0.25
865.379	-0.75
866.117	0.25
866.855	2.25
867.593	1.25
868.33	1.25
869.068	3.25
869.806	0.25
870.543	1.25
871.28	1.25
872.018	2.25
872.755	2.25
873.492	-0.75
874.229	1.25
874.967	2.25
875.703	0.25
876.44	1.25
877.177	-0.75
877.914	2.25
878.651	0.25
879.387	1.25
880.124	1.25
880.86	0.25
881.597	0.25
882.333	-2.75
883.069	1.25
883.806	0.25
884.542	-0.75
885.278	0.25
886.014	1.25
886.749	0.25
887.485	1.25
888.221	1.25
888.957	1.25
889.692	0.25
890.428	0.25
891.163	-2.75
891.899	0.25
892.634	-0.75
893.369	0.25
894.104	0.25
894.839	1.25
895.574	-2.75
896.309	0.25
897.044	1.25
897.779	1.25
898.514	1.25
899.248	-0.75
899.983	3.25
900.717	-0.75
901.452	0.25
902.186	-2.75
902.92	-1.75
903.654	2.25
904.389	-0.75
905.123	2.25
905.857	2.25
906.59	1.25
907.324	2.25
908.058	-1.75
908.792	3.25
909.525	0.25
910.259	-0.75
910.992	0.25
911.726	0.25
912.459	-0.75
913.192	0.25
913.925	-1.75
914.658	-0.75
915.391	1.25
916.124	-0.75
916.857	-0.75
917.59	-0.75
918.323	1.25
919.055	2.25
919.788	-1.75
920.521	0.25
921.253	1.25
921.985	0.25
922.718	3.25
923.45	-0.75
924.182	-0.75
924.914	0.25
925.646	-1.75
926.378	2.25
927.11	0.25
927.841	0.25
928.573	1.25
929.305	-0.75
930.036	-0.75
930.768	0.25
931.499	1.25
932.23	0.25
932.962	0.25
933.693	-1.75
934.424	-0.75
935.155	0.25
935.886	-1.75
936.617	-1.75
937.348	-1.75
938.078	1.25
938.809	-0.75
939.54	-0.75
940.27	0.25
941.001	1.25
941.731	0.25
942.461	1.25
943.191	0.25
943.922	-0.75
944.652	1.25
945.382	1.25
946.112	-2.75
946.841	0.25
947.571	-0.75
948.301	0.25
949.031	-0.75
949.76	-0.75
950.49	-1.75
951.219	1.25
951.948	0.25
952.678	0.25
953.407	0.25
954.136	-0.75
954.865	1.25
955.594	0.25
956.323	0.25
957.052	0.25
957.78	-3.75
958.509	-1.75
959.238	1.25
959.966	1.25
960.695	0.25
961.423	0.25
962.151	-0.75
962.88	0.25
963.608	1.25
964.336	-1.75
965.064	0.25
965.792	1.25
966.52	-0.75
967.247	0.25
967.975	0.25
968.703	0.25
969.43	-1.75
970.158	-1.75
970.885	-0.75
971.613	-1.75
972.34	0.25
973.067	-0.75
973.794	-2.75
974.521	1.25
975.248	0.25
975.975	0.25
976.702	-0.75
977.429	2.25
978.156	-0.75
978.882	0.25
979.609	-1.75
980.335	1.25
981.062	1.25
981.788	-1.75
982.514	1.25
983.24	0.25
983.967	-0.75
984.693	1.25
985.419	-1.75
986.144	-0.75
986.87	1.25
987.596	0.25
988.322	-1.75
989.047	2.25
989.773	2.25
990.498	0.25
991.224	-0.75
991.949	0.25
992.674	1.25
993.399	0.25
994.124	-0.75
994.849	1.25
995.574	-0.75
996.299	1.25
997.024	-1.75
997.749	-0.75
998.473	0.25
999.198	2.25
999.922	-0.75
1000.647	1.25
1001.371	2.25
1002.095	0.25
1002.82	-1.75
1003.544	-1.75
1004.268	-1.75
1004.992	-0.75
1005.716	-1.75
1006.439	0.25
1007.163	0.25
1007.887	-0.75
1008.611	0.25
1009.334	-1.75
1010.058	1.25
1010.781	0.25
1011.504	-1.75
1012.228	-0.75
1012.951	-1.75
1013.674	1.25
1014.397	1.25
1015.12	0.25
