节点500_145_QEPB04081__184__11-31-53-553.txt的数据

Date: Wed Nov 12 11:31:53 CST 2025
User: PC
Spectrometer: QEPB0408
触发模式: 0
积分时间 (秒): 1.000000E-2
Scans to average: 1
启用暗噪声校正: true
启用非线性校正: false
滑动平均宽度: 0
X轴模式: Wavelengths
Number of Pixels in Spectrum: 1044
>>>>>Begin Spectral Data<<<<<
220.843	-0.5
221.644	0.5
222.444	0.5
223.244	1.5
224.045	0.5
224.845	1.5
225.645	0.5
226.445	-0.5
227.245	1.5
228.045	2.5
228.845	3.5
229.645	-0.5
230.444	1.5
231.244	-0.5
232.043	1.5
232.843	-0.5
233.642	1.5
234.442	2.5
235.241	2.5
236.04	0.5
236.839	1.5
237.638	-0.5
238.437	1.5
239.236	1.5
240.035	1.5
240.833	1.5
241.632	0.5
242.43	2.5
243.229	3.5
244.027	1.5
244.826	3.5
245.624	1.5
246.422	2.5
247.22	1.5
248.018	3.5
248.816	2.5
249.614	2.5
250.412	3.5
251.21	2.5
252.007	3.5
252.805	1.5
253.602	3.5
254.4	3.5
255.197	2.5
255.994	6.5
256.791	2.5
257.589	4.5
258.386	2.5
259.183	4.5
259.979	5.5
260.776	4.5
261.573	4.5
262.37	5.5
263.166	5.5
263.963	4.5
264.759	7.5
265.556	5.5
266.352	6.5
267.148	5.5
267.944	5.5
268.74	7.5
269.536	6.5
270.332	5.5
271.128	9.5
271.924	8.5
272.719	6.5
273.515	9.5
274.311	9.5
275.106	7.5
275.901	10.5
276.697	10.5
277.492	9.5
278.287	7.5
279.082	9.5
279.877	10.5
280.672	12.5
281.467	10.5
282.262	10.5
283.056	11.5
283.851	9.5
284.646	9.5
285.44	12.5
286.234	13.5
287.029	11.5
287.823	12.5
288.617	12.5
289.411	13.5
290.205	11.5
290.999	12.5
291.793	8.5
292.587	12.5
293.381	11.5
294.174	10.5
294.968	10.5
295.761	10.5
296.555	11.5
297.348	10.5
298.141	8.5
298.935	12.5
299.728	11.5
300.521	10.5
301.314	9.5
302.107	9.5
302.899	8.5
303.692	10.5
304.485	9.5
305.277	9.5
306.07	8.5
306.862	8.5
307.655	9.5
308.447	7.5
309.239	6.5
310.031	9.5
310.823	6.5
311.615	8.5
312.407	7.5
313.199	10.5
313.991	7.5
314.783	6.5
315.574	7.5
316.366	5.5
317.157	6.5
317.949	5.5
318.74	4.5
319.531	5.5
320.322	4.5
321.113	5.5
321.904	3.5
322.695	7.5
323.486	4.5
324.277	4.5
325.068	4.5
325.858	4.5
326.649	5.5
327.439	5.5
328.23	3.5
329.02	4.5
329.81	6.5
330.6	2.5
331.391	5.5
332.181	3.5
332.971	2.5
333.76	5.5
334.55	3.5
335.34	2.5
336.13	4.5
336.919	4.5
337.709	3.5
338.498	5.5
339.287	2.5
340.077	2.5
340.866	3.5
341.655	3.5
342.444	3.5
343.233	2.5
344.022	2.5
344.811	2.5
345.6	5.5
346.388	1.5
347.177	3.5
347.965	4.5
348.754	2.5
349.542	5.5
350.33	3.5
351.119	5.5
351.907	4.5
352.695	2.5
353.483	3.5
354.271	3.5
355.059	1.5
355.846	3.5
356.634	2.5
357.422	4.5
358.209	1.5
358.997	2.5
359.784	3.5
360.571	2.5
361.359	3.5
362.146	4.5
362.933	-0.5
363.72	2.5
364.507	0.5
365.294	3.5
366.081	1.5
366.867	3.5
367.654	1.5
368.44	4.5
369.227	3.5
370.013	3.5
370.8	3.5
371.586	3.5
372.372	2.5
373.158	2.5
373.944	2.5
374.73	5.5
375.516	2.5
376.302	5.5
377.088	1.5
377.873	3.5
378.659	2.5
379.445	2.5
380.23	3.5
381.015	2.5
381.801	2.5
382.586	3.5
383.371	3.5
384.156	0.5
384.941	3.5
385.726	2.5
386.511	2.5
387.296	3.5
388.08	4.5
388.865	3.5
389.649	2.5
390.434	1.5
391.218	2.5
392.003	2.5
392.787	5.5
393.571	5.5
394.355	2.5
395.139	3.5
395.923	1.5
396.707	4.5
397.491	3.5
398.274	4.5
399.058	2.5
399.842	2.5
400.625	6.5
401.408	4.5
402.192	4.5
402.975	5.5
403.758	5.5
404.541	5.5
405.324	3.5
406.107	5.5
406.89	3.5
407.673	5.5
408.456	3.5
409.238	4.5
410.021	4.5
410.803	5.5
411.586	5.5
412.368	3.5
413.151	6.5
413.933	3.5
414.715	3.5
415.497	4.5
416.279	4.5
417.061	3.5
417.843	4.5
418.624	8.5
419.406	5.5
420.188	7.5
420.969	5.5
421.751	4.5
422.532	5.5
423.313	4.5
424.095	6.5
424.876	6.5
425.657	7.5
426.438	9.5
427.219	5.5
428	9.5
428.78	5.5
429.561	7.5
430.342	4.5
431.122	6.5
431.903	7.5
432.683	9.5
433.464	8.5
434.244	8.5
435.024	9.5
435.804	10.5
436.584	9.5
437.364	12.5
438.144	10.5
438.924	10.5
439.704	10.5
440.483	14.5
441.263	12.5
442.042	12.5
442.822	13.5
443.601	14.5
444.38	16.5
445.16	15.5
445.939	14.5
446.718	18.5
447.497	19.5
448.276	19.5
449.054	19.5
449.833	21.5
450.612	24.5
451.391	31.5
452.169	27.5
452.948	31.5
453.726	30.5
454.504	35.5
455.282	37.5
456.061	43.5
456.839	50.5
457.617	54.5
458.395	60.5
459.172	64.5
459.95	73.5
460.728	78.5
461.506	88.5
462.283	97.5
463.061	111.5
463.838	117.5
464.615	134.5
465.393	151.5
466.17	164.5
466.947	190.5
467.724	207.5
468.501	235.5
469.278	259.5
470.055	295.5
470.831	323.5
471.608	351.5
472.385	400.5
473.161	450.5
473.938	500.5
474.714	557.5
475.49	608.5
476.266	688.5
477.043	758.5
477.819	836.5
478.595	922.5
479.371	1038.5
480.146	1145.5
480.922	1269.5
481.698	1401.5
482.473	1546.5
483.249	1731.5
484.024	1900.5
484.8	2061.5
485.575	2322.5
486.35	2538.5
487.126	2852.5
487.901	3141.5
488.676	3461.5
489.451	3826.5
490.225	4187.5
491	4632.5
491.775	5088.5
492.55	5627.5
493.324	6178.5
494.099	6710.5
494.873	7376.5
495.647	8040.5
496.422	8760.5
497.196	9484.5
497.97	10255.5
498.744	11041.5
499.518	11821.5
500.292	12599.5
501.066	13361.5
501.839	14030.5
502.613	14782.5
503.387	15393.5
504.16	15937.5
504.934	16334.5
505.707	16677.5
506.48	16891.5
507.253	17023.5
508.027	17043.5
508.8	16877.5
509.573	16649.5
510.346	16392.5
511.118	15973.5
511.891	15502.5
512.664	14981.5
513.437	14506.5
514.209	13834.5
514.982	13266.5
515.754	12741.5
516.526	12137.5
517.298	11597.5
518.071	11013.5
518.843	10571.5
519.615	10122.5
520.387	9707.5
521.159	9350.5
521.93	8962.5
522.702	8581.5
523.474	8223.5
524.245	7925.5
525.017	7618.5
525.788	7274.5
526.56	7019.5
527.331	6721.5
528.102	6431.5
528.873	6144.5
529.644	5862.5
530.415	5558.5
531.186	5307.5
531.957	5019.5
532.728	4753.5
533.498	4502.5
534.269	4240.5
535.039	4000.5
535.81	3794.5
536.58	3570.5
537.351	3393.5
538.121	3196.5
538.891	3019.5
539.661	2849.5
540.431	2691.5
541.201	2548.5
541.971	2402.5
542.741	2291.5
543.51	2165.5
544.28	2051.5
545.05	1962.5
545.819	1864.5
546.588	1772.5
547.358	1669.5
548.127	1598.5
548.896	1530.5
549.665	1436.5
550.434	1359.5
551.203	1286.5
551.972	1221.5
552.741	1167.5
553.51	1107.5
554.278	1045.5
555.047	986.5
555.815	929.5
556.584	885.5
557.352	813.5
558.121	784.5
558.889	721.5
559.657	686.5
560.425	647.5
561.193	610.5
561.961	580.5
562.729	541.5
563.496	516.5
564.264	480.5
565.032	452.5
565.799	436.5
566.567	402.5
567.334	386.5
568.101	367.5
568.869	338.5
569.636	330.5
570.403	304.5
571.17	290.5
571.937	282.5
572.704	258.5
573.471	241.5
574.237	231.5
575.004	216.5
575.771	201.5
576.537	182.5
577.303	178.5
578.07	171.5
578.836	155.5
579.602	151.5
580.368	140.5
581.134	130.5
581.9	131.5
582.666	121.5
583.432	117.5
584.198	106.5
584.964	98.5
585.729	97.5
586.495	92.5
587.26	84.5
588.025	83.5
588.791	77.5
589.556	71.5
590.321	69.5
591.086	61.5
591.851	60.5
592.616	57.5
593.381	58.5
594.146	51.5
594.911	51.5
595.675	46.5
596.44	48.5
597.204	43.5
597.969	39.5
598.733	38.5
599.497	38.5
600.261	34.5
601.025	36.5
601.79	32.5
602.553	32.5
603.317	27.5
604.081	28.5
604.845	29.5
605.609	24.5
606.372	25.5
607.136	23.5
607.899	23.5
608.662	22.5
609.426	21.5
610.189	21.5
610.952	18.5
611.715	20.5
612.478	18.5
613.241	18.5
614.004	16.5
614.767	14.5
615.529	14.5
616.292	15.5
617.055	14.5
617.817	12.5
618.579	11.5
619.342	13.5
620.104	11.5
620.866	13.5
621.628	10.5
622.39	11.5
623.152	9.5
623.914	9.5
624.676	8.5
625.438	11.5
626.199	11.5
626.961	9.5
627.722	11.5
628.484	9.5
629.245	9.5
630.006	9.5
630.768	8.5
631.529	11.5
632.29	6.5
633.051	4.5
633.812	6.5
634.573	8.5
635.333	5.5
636.094	6.5
636.855	6.5
637.615	5.5
638.376	6.5
639.136	6.5
639.896	5.5
640.657	5.5
641.417	5.5
642.177	4.5
642.937	2.5
643.697	8.5
644.457	7.5
645.216	4.5
645.976	5.5
646.736	4.5
647.495	5.5
648.255	2.5
649.014	4.5
649.774	6.5
650.533	5.5
651.292	2.5
652.051	4.5
652.81	4.5
653.569	2.5
654.328	5.5
655.087	1.5
655.846	3.5
656.604	2.5
657.363	3.5
658.121	2.5
658.88	5.5
659.638	3.5
660.397	5.5
661.155	4.5
661.913	5.5
662.671	3.5
663.429	2.5
664.187	2.5
664.945	2.5
665.703	1.5
666.46	4.5
667.218	3.5
667.976	2.5
668.733	2.5
669.49	1.5
670.248	4.5
671.005	5.5
671.762	2.5
672.519	3.5
673.276	3.5
674.033	5.5
674.79	1.5
675.547	5.5
676.304	4.5
677.06	2.5
677.817	3.5
678.574	1.5
679.33	3.5
680.086	3.5
680.843	2.5
681.599	2.5
682.355	3.5
683.111	2.5
683.867	3.5
684.623	0.5
685.379	2.5
686.135	3.5
686.89	0.5
687.646	2.5
688.402	5.5
689.157	1.5
689.912	2.5
690.668	1.5
691.423	3.5
692.178	1.5
692.933	2.5
693.688	4.5
694.443	3.5
695.198	1.5
695.953	2.5
696.708	5.5
697.462	2.5
698.217	2.5
698.972	2.5
699.726	0.5
700.48	2.5
701.235	2.5
701.989	2.5
702.743	1.5
703.497	1.5
704.251	4.5
705.005	2.5
705.759	4.5
706.513	2.5
707.266	2.5
708.02	4.5
708.774	2.5
709.527	3.5
710.28	5.5
711.034	-0.5
711.787	3.5
712.54	2.5
713.293	5.5
714.046	1.5
714.799	2.5
715.552	3.5
716.305	1.5
717.058	2.5
717.81	3.5
718.563	3.5
719.315	0.5
720.068	1.5
720.82	1.5
721.573	3.5
722.325	2.5
723.077	1.5
723.829	4.5
724.581	-0.5
725.333	2.5
726.085	2.5
726.836	2.5
727.588	2.5
728.34	5.5
729.091	1.5
729.843	2.5
730.594	2.5
731.346	2.5
732.097	2.5
732.848	2.5
733.599	1.5
734.35	3.5
735.101	3.5
735.852	3.5
736.603	1.5
737.354	4.5
738.104	2.5
738.855	1.5
739.605	3.5
740.356	1.5
741.106	3.5
741.856	4.5
742.607	3.5
743.357	2.5
744.107	-0.5
744.857	1.5
745.607	1.5
746.357	3.5
747.106	1.5
747.856	5.5
748.606	5.5
749.355	4.5
750.105	2.5
750.854	3.5
751.603	2.5
752.353	5.5
753.102	3.5
753.851	2.5
754.6	1.5
755.349	4.5
756.098	4.5
756.847	3.5
757.595	0.5
758.344	4.5
759.093	2.5
759.841	3.5
760.589	4.5
761.338	4.5
762.086	4.5
762.834	3.5
763.582	3.5
764.331	4.5
765.079	1.5
765.826	4.5
766.574	3.5
767.322	5.5
768.07	4.5
768.817	2.5
769.565	7.5
770.312	5.5
771.06	4.5
771.807	5.5
772.554	6.5
773.302	3.5
774.049	3.5
774.796	5.5
775.543	1.5
776.29	7.5
777.036	1.5
777.783	6.5
778.53	8.5
779.276	7.5
780.023	7.5
780.769	6.5
781.516	5.5
782.262	2.5
783.008	5.5
783.754	4.5
784.5	4.5
785.246	7.5
785.992	5.5
786.738	7.5
787.484	5.5
788.23	5.5
788.975	4.5
789.721	4.5
790.466	10.5
791.212	5.5
791.957	4.5
792.702	4.5
793.447	4.5
794.193	4.5
794.938	6.5
795.683	6.5
796.427	5.5
797.172	4.5
797.917	5.5
798.662	3.5
799.406	4.5
800.151	6.5
800.895	5.5
801.64	6.5
802.384	5.5
803.128	5.5
803.872	5.5
804.616	4.5
805.36	6.5
806.104	5.5
806.848	4.5
807.592	4.5
808.336	7.5
809.079	1.5
809.823	3.5
810.566	4.5
811.31	5.5
812.053	6.5
812.796	3.5
813.539	1.5
814.283	2.5
815.026	4.5
815.769	2.5
816.511	4.5
817.254	3.5
817.997	4.5
818.74	6.5
819.482	5.5
820.225	2.5
820.967	5.5
821.71	1.5
822.452	3.5
823.194	3.5
823.936	2.5
824.678	1.5
825.42	3.5
826.162	3.5
826.904	3.5
827.646	4.5
828.388	1.5
829.129	3.5
829.871	2.5
830.612	2.5
831.354	1.5
832.095	1.5
832.836	3.5
833.577	1.5
834.319	2.5
835.06	1.5
835.801	4.5
836.542	2.5
837.282	1.5
838.023	2.5
838.764	4.5
839.504	1.5
840.245	2.5
840.985	3.5
841.726	3.5
842.466	2.5
843.206	4.5
843.946	2.5
844.687	3.5
845.427	2.5
846.166	2.5
846.906	1.5
847.646	1.5
848.386	4.5
849.125	3.5
849.865	2.5
850.605	3.5
851.344	3.5
852.083	1.5
852.823	5.5
853.562	1.5
854.301	-0.5
855.04	2.5
855.779	0.5
856.518	3.5
857.257	2.5
857.995	1.5
858.734	2.5
859.473	1.5
860.211	2.5
860.95	1.5
861.688	2.5
862.426	1.5
863.165	0.5
863.903	2.5
864.641	1.5
865.379	2.5
866.117	-0.5
866.855	0.5
867.593	2.5
868.33	1.5
869.068	-1.5
869.806	3.5
870.543	2.5
871.28	2.5
872.018	0.5
872.755	1.5
873.492	0.5
874.229	2.5
874.967	1.5
875.703	2.5
876.44	1.5
877.177	2.5
877.914	0.5
878.651	1.5
879.387	0.5
880.124	2.5
880.86	2.5
881.597	1.5
882.333	-0.5
883.069	2.5
883.806	2.5
884.542	1.5
885.278	2.5
886.014	-1.5
886.749	0.5
887.485	-0.5
888.221	2.5
888.957	1.5
889.692	1.5
890.428	-1.5
891.163	0.5
891.899	0.5
892.634	-0.5
893.369	2.5
894.104	0.5
894.839	1.5
895.574	0.5
896.309	0.5
897.044	-0.5
897.779	1.5
898.514	2.5
899.248	0.5
899.983	2.5
900.717	1.5
901.452	0.5
902.186	1.5
902.92	1.5
903.654	3.5
904.389	1.5
905.123	1.5
905.857	0.5
906.59	-1.5
907.324	-1.5
908.058	0.5
908.792	0.5
909.525	-0.5
910.259	1.5
910.992	-1.5
911.726	1.5
912.459	2.5
913.192	1.5
913.925	1.5
914.658	2.5
915.391	1.5
916.124	0.5
916.857	2.5
917.59	0.5
918.323	-0.5
919.055	0.5
919.788	1.5
920.521	2.5
921.253	-0.5
921.985	0.5
922.718	1.5
923.45	-1.5
924.182	0.5
924.914	2.5
925.646	1.5
926.378	0.5
927.11	2.5
927.841	1.5
928.573	1.5
929.305	0.5
930.036	2.5
930.768	1.5
931.499	3.5
932.23	-0.5
932.962	1.5
933.693	2.5
934.424	1.5
935.155	0.5
935.886	1.5
936.617	-0.5
937.348	-1.5
938.078	-0.5
938.809	-1.5
939.54	1.5
940.27	-1.5
941.001	0.5
941.731	-1.5
942.461	1.5
943.191	0.5
943.922	0.5
944.652	2.5
945.382	0.5
946.112	0.5
946.841	0.5
947.571	-2.5
948.301	1.5
949.031	0.5
949.76	1.5
950.49	-0.5
951.219	-0.5
951.948	0.5
952.678	-1.5
953.407	0.5
954.136	1.5
954.865	2.5
955.594	-0.5
956.323	-0.5
957.052	1.5
957.78	1.5
958.509	1.5
959.238	1.5
959.966	1.5
960.695	-0.5
961.423	0.5
962.151	1.5
962.88	-0.5
963.608	0.5
964.336	1.5
965.064	-0.5
965.792	0.5
966.52	1.5
967.247	1.5
967.975	-0.5
968.703	2.5
969.43	-1.5
970.158	2.5
970.885	2.5
971.613	-0.5
972.34	1.5
973.067	0.5
973.794	1.5
974.521	1.5
975.248	1.5
975.975	0.5
976.702	1.5
977.429	1.5
978.156	-0.5
978.882	2.5
979.609	1.5
980.335	1.5
981.062	1.5
981.788	1.5
982.514	1.5
983.24	-1.5
983.967	-0.5
984.693	2.5
985.419	-1.5
986.144	1.5
986.87	-0.5
987.596	1.5
988.322	-1.5
989.047	0.5
989.773	0.5
990.498	0.5
991.224	-1.5
991.949	-2.5
992.674	1.5
993.399	2.5
994.124	1.5
994.849	2.5
995.574	-1.5
996.299	2.5
997.024	1.5
997.749	1.5
998.473	1.5
999.198	0.5
999.922	1.5
1000.647	0.5
1001.371	5.5
1002.095	-1.5
1002.82	-1.5
1003.544	-2.5
1004.268	-1.5
1004.992	-1.5
1005.716	0.5
1006.439	-1.5
1007.163	0.5
1007.887	0.5
1008.611	1.5
1009.334	1.5
1010.058	1.5
1010.781	-0.5
1011.504	0.5
1012.228	-0.5
1012.951	-1.5
1013.674	0.5
1014.397	-0.5
1015.12	1.5
