节点500_145_QEPB04081__352__11-34-34-548.txt的数据

Date: Wed Nov 12 11:34:34 CST 2025
User: PC
Spectrometer: QEPB0408
触发模式: 0
积分时间 (秒): 1.000000E-2
Scans to average: 1
启用暗噪声校正: true
启用非线性校正: false
滑动平均宽度: 0
X轴模式: Wavelengths
Number of Pixels in Spectrum: 1044
>>>>>Begin Spectral Data<<<<<
220.843	-2.5
221.644	0.5
222.444	0.5
223.244	-1.5
224.045	0.5
224.845	-1.5
225.645	1.5
226.445	0.5
227.245	1.5
228.045	-1.5
228.845	1.5
229.645	-1.5
230.444	0.5
231.244	0.5
232.043	-0.5
232.843	1.5
233.642	-0.5
234.442	0.5
235.241	0.5
236.04	-1.5
236.839	1.5
237.638	1.5
238.437	2.5
239.236	-0.5
240.035	2.5
240.833	0.5
241.632	1.5
242.43	1.5
243.229	1.5
244.027	3.5
244.826	1.5
245.624	1.5
246.422	2.5
247.22	1.5
248.018	5.5
248.816	2.5
249.614	1.5
250.412	1.5
251.21	2.5
252.007	3.5
252.805	2.5
253.602	0.5
254.4	3.5
255.197	2.5
255.994	3.5
256.791	3.5
257.589	7.5
258.386	4.5
259.183	4.5
259.979	2.5
260.776	4.5
261.573	2.5
262.37	4.5
263.166	4.5
263.963	7.5
264.759	6.5
265.556	2.5
266.352	7.5
267.148	7.5
267.944	7.5
268.74	6.5
269.536	7.5
270.332	9.5
271.128	5.5
271.924	8.5
272.719	7.5
273.515	8.5
274.311	7.5
275.106	8.5
275.901	9.5
276.697	10.5
277.492	10.5
278.287	10.5
279.082	7.5
279.877	10.5
280.672	7.5
281.467	10.5
282.262	7.5
283.056	8.5
283.851	10.5
284.646	10.5
285.44	9.5
286.234	7.5
287.029	11.5
287.823	9.5
288.617	12.5
289.411	9.5
290.205	7.5
290.999	8.5
291.793	7.5
292.587	13.5
293.381	8.5
294.174	13.5
294.968	10.5
295.761	10.5
296.555	10.5
297.348	8.5
298.141	12.5
298.935	8.5
299.728	10.5
300.521	10.5
301.314	8.5
302.107	8.5
302.899	6.5
303.692	9.5
304.485	7.5
305.277	6.5
306.07	7.5
306.862	8.5
307.655	6.5
308.447	9.5
309.239	6.5
310.031	7.5
310.823	7.5
311.615	6.5
312.407	3.5
313.199	5.5
313.991	5.5
314.783	8.5
315.574	5.5
316.366	6.5
317.157	4.5
317.949	5.5
318.74	3.5
319.531	4.5
320.322	5.5
321.113	4.5
321.904	4.5
322.695	4.5
323.486	3.5
324.277	6.5
325.068	2.5
325.858	5.5
326.649	5.5
327.439	6.5
328.23	3.5
329.02	4.5
329.81	7.5
330.6	2.5
331.391	2.5
332.181	3.5
332.971	4.5
333.76	4.5
334.55	4.5
335.34	6.5
336.13	3.5
336.919	4.5
337.709	3.5
338.498	4.5
339.287	5.5
340.077	4.5
340.866	3.5
341.655	1.5
342.444	4.5
343.233	2.5
344.022	3.5
344.811	4.5
345.6	3.5
346.388	2.5
347.177	0.5
347.965	1.5
348.754	3.5
349.542	3.5
350.33	2.5
351.119	3.5
351.907	3.5
352.695	2.5
353.483	2.5
354.271	4.5
355.059	5.5
355.846	4.5
356.634	1.5
357.422	4.5
358.209	2.5
358.997	3.5
359.784	3.5
360.571	5.5
361.359	5.5
362.146	1.5
362.933	1.5
363.72	2.5
364.507	2.5
365.294	2.5
366.081	4.5
366.867	3.5
367.654	3.5
368.44	2.5
369.227	0.5
370.013	4.5
370.8	1.5
371.586	4.5
372.372	3.5
373.158	1.5
373.944	2.5
374.73	2.5
375.516	3.5
376.302	3.5
377.088	2.5
377.873	1.5
378.659	1.5
379.445	3.5
380.23	1.5
381.015	5.5
381.801	0.5
382.586	3.5
383.371	4.5
384.156	1.5
384.941	3.5
385.726	2.5
386.511	2.5
387.296	4.5
388.08	2.5
388.865	2.5
389.649	2.5
390.434	4.5
391.218	2.5
392.003	3.5
392.787	3.5
393.571	4.5
394.355	1.5
395.139	4.5
395.923	4.5
396.707	4.5
397.491	4.5
398.274	1.5
399.058	3.5
399.842	3.5
400.625	2.5
401.408	3.5
402.192	4.5
402.975	4.5
403.758	2.5
404.541	1.5
405.324	2.5
406.107	3.5
406.89	2.5
407.673	1.5
408.456	7.5
409.238	3.5
410.021	4.5
410.803	7.5
411.586	4.5
412.368	5.5
413.151	5.5
413.933	4.5
414.715	5.5
415.497	4.5
416.279	3.5
417.061	2.5
417.843	3.5
418.624	6.5
419.406	3.5
420.188	6.5
420.969	5.5
421.751	7.5
422.532	5.5
423.313	4.5
424.095	4.5
424.876	7.5
425.657	4.5
426.438	7.5
427.219	7.5
428	4.5
428.78	6.5
429.561	8.5
430.342	6.5
431.122	8.5
431.903	7.5
432.683	9.5
433.464	7.5
434.244	6.5
435.024	9.5
435.804	9.5
436.584	9.5
437.364	10.5
438.144	9.5
438.924	8.5
439.704	9.5
440.483	9.5
441.263	12.5
442.042	13.5
442.822	12.5
443.601	15.5
444.38	16.5
445.16	18.5
445.939	17.5
446.718	18.5
447.497	17.5
448.276	21.5
449.054	23.5
449.833	22.5
450.612	25.5
451.391	29.5
452.169	30.5
452.948	33.5
453.726	36.5
454.504	41.5
455.282	38.5
456.061	48.5
456.839	49.5
457.617	56.5
458.395	64.5
459.172	68.5
459.95	77.5
460.728	83.5
461.506	87.5
462.283	107.5
463.061	112.5
463.838	126.5
464.615	141.5
465.393	159.5
466.17	172.5
466.947	208.5
467.724	219.5
468.501	245.5
469.278	272.5
470.055	307.5
470.831	345.5
471.608	384.5
472.385	422.5
473.161	468.5
473.938	516.5
474.714	570.5
475.49	638.5
476.266	701.5
477.043	769.5
477.819	852.5
478.595	950.5
479.371	1036.5
480.146	1157.5
480.922	1278.5
481.698	1396.5
482.473	1538.5
483.249	1712.5
484.024	1888.5
484.8	2059.5
485.575	2271.5
486.35	2522.5
487.126	2762.5
487.901	3021.5
488.676	3293.5
489.451	3634.5
490.225	4008.5
491	4418.5
491.775	4817.5
492.55	5282.5
493.324	5784.5
494.099	6294.5
494.873	6884.5
495.647	7505.5
496.422	8126.5
497.196	8769.5
497.97	9476.5
498.744	10158.5
499.518	10881.5
500.292	11615.5
501.066	12362.5
501.839	13016.5
502.613	13708.5
503.387	14298.5
504.16	14884.5
504.934	15349.5
505.707	15755.5
506.48	15997.5
507.253	16186.5
508.027	16299.5
508.8	16212.5
509.573	16103.5
510.346	15920.5
511.118	15688.5
511.891	15298.5
512.664	14801.5
513.437	14299.5
514.209	13809.5
514.982	13313.5
515.754	12757.5
516.526	12189.5
517.298	11669.5
518.071	11181.5
518.843	10676.5
519.615	10206.5
520.387	9807.5
521.159	9448.5
521.93	9015.5
522.702	8654.5
523.474	8362.5
524.245	7992.5
525.017	7697.5
525.788	7380.5
526.56	7108.5
527.331	6787.5
528.102	6519.5
528.873	6190.5
529.644	5934.5
530.415	5666.5
531.186	5384.5
531.957	5157.5
532.728	4865.5
533.498	4626.5
534.269	4352.5
535.039	4146.5
535.81	3901.5
536.58	3702.5
537.351	3489.5
538.121	3289.5
538.891	3102.5
539.661	2940.5
540.431	2783.5
541.201	2643.5
541.971	2472.5
542.741	2362.5
543.51	2243.5
544.28	2111.5
545.05	2017.5
545.819	1921.5
546.588	1832.5
547.358	1745.5
548.127	1644.5
548.896	1592.5
549.665	1504.5
550.434	1423.5
551.203	1335.5
551.972	1272.5
552.741	1199.5
553.51	1145.5
554.278	1085.5
555.047	1025.5
555.815	970.5
556.584	904.5
557.352	853.5
558.121	805.5
558.889	755.5
559.657	722.5
560.425	676.5
561.193	643.5
561.961	606.5
562.729	577.5
563.496	536.5
564.264	503.5
565.032	472.5
565.799	447.5
566.567	432.5
567.334	399.5
568.101	373.5
568.869	359.5
569.636	335.5
570.403	320.5
571.17	301.5
571.937	283.5
572.704	268.5
573.471	251.5
574.237	245.5
575.004	224.5
575.771	208.5
576.537	195.5
577.303	190.5
578.07	179.5
578.836	169.5
579.602	152.5
580.368	145.5
581.134	136.5
581.9	132.5
582.666	126.5
583.432	114.5
584.198	110.5
584.964	105.5
585.729	105.5
586.495	93.5
587.26	89.5
588.025	82.5
588.791	79.5
589.556	76.5
590.321	71.5
591.086	70.5
591.851	64.5
592.616	61.5
593.381	59.5
594.146	55.5
594.911	53.5
595.675	45.5
596.44	49.5
597.204	44.5
597.969	45.5
598.733	42.5
599.497	41.5
600.261	38.5
601.025	34.5
601.79	31.5
602.553	34.5
603.317	29.5
604.081	29.5
604.845	29.5
605.609	29.5
606.372	24.5
607.136	26.5
607.899	25.5
608.662	25.5
609.426	21.5
610.189	22.5
610.952	20.5
611.715	20.5
612.478	19.5
613.241	14.5
614.004	16.5
614.767	16.5
615.529	17.5
616.292	12.5
617.055	14.5
617.817	14.5
618.579	11.5
619.342	13.5
620.104	14.5
620.866	14.5
621.628	10.5
622.39	12.5
623.152	12.5
623.914	9.5
624.676	10.5
625.438	10.5
626.199	10.5
626.961	10.5
627.722	8.5
628.484	8.5
629.245	8.5
630.006	7.5
630.768	9.5
631.529	8.5
632.29	7.5
633.051	8.5
633.812	6.5
634.573	5.5
635.333	7.5
636.094	4.5
636.855	6.5
637.615	8.5
638.376	8.5
639.136	5.5
639.896	2.5
640.657	7.5
641.417	4.5
642.177	7.5
642.937	6.5
643.697	4.5
644.457	5.5
645.216	7.5
645.976	5.5
646.736	6.5
647.495	3.5
648.255	5.5
649.014	8.5
649.774	2.5
650.533	3.5
651.292	4.5
652.051	2.5
652.81	4.5
653.569	5.5
654.328	4.5
655.087	2.5
655.846	3.5
656.604	2.5
657.363	2.5
658.121	2.5
658.88	2.5
659.638	1.5
660.397	3.5
661.155	3.5
661.913	3.5
662.671	1.5
663.429	1.5
664.187	0.5
664.945	2.5
665.703	2.5
666.46	2.5
667.218	2.5
667.976	3.5
668.733	2.5
669.49	2.5
670.248	2.5
671.005	3.5
671.762	2.5
672.519	2.5
673.276	1.5
674.033	3.5
674.79	0.5
675.547	1.5
676.304	2.5
677.06	2.5
677.817	1.5
678.574	3.5
679.33	1.5
680.086	0.5
680.843	1.5
681.599	3.5
682.355	-0.5
683.111	2.5
683.867	1.5
684.623	1.5
685.379	3.5
686.135	1.5
686.89	1.5
687.646	2.5
688.402	1.5
689.157	1.5
689.912	3.5
690.668	2.5
691.423	-0.5
692.178	0.5
692.933	2.5
693.688	2.5
694.443	1.5
695.198	2.5
695.953	2.5
696.708	1.5
697.462	0.5
698.217	-0.5
698.972	3.5
699.726	3.5
700.48	0.5
701.235	4.5
701.989	2.5
702.743	4.5
703.497	1.5
704.251	2.5
705.005	2.5
705.759	2.5
706.513	0.5
707.266	0.5
708.02	2.5
708.774	1.5
709.527	3.5
710.28	5.5
711.034	2.5
711.787	3.5
712.54	3.5
713.293	1.5
714.046	2.5
714.799	4.5
715.552	3.5
716.305	2.5
717.058	2.5
717.81	1.5
718.563	2.5
719.315	1.5
720.068	1.5
720.82	4.5
721.573	3.5
722.325	1.5
723.077	2.5
723.829	4.5
724.581	1.5
725.333	1.5
726.085	1.5
726.836	2.5
727.588	4.5
728.34	1.5
729.091	2.5
729.843	3.5
730.594	2.5
731.346	4.5
732.097	3.5
732.848	2.5
733.599	2.5
734.35	2.5
735.101	2.5
735.852	1.5
736.603	0.5
737.354	2.5
738.104	1.5
738.855	0.5
739.605	0.5
740.356	2.5
741.106	2.5
741.856	1.5
742.607	2.5
743.357	3.5
744.107	1.5
744.857	3.5
745.607	1.5
746.357	4.5
747.106	2.5
747.856	3.5
748.606	1.5
749.355	4.5
750.105	3.5
750.854	1.5
751.603	3.5
752.353	3.5
753.102	2.5
753.851	2.5
754.6	3.5
755.349	3.5
756.098	2.5
756.847	4.5
757.595	2.5
758.344	5.5
759.093	2.5
759.841	1.5
760.589	2.5
761.338	4.5
762.086	4.5
762.834	2.5
763.582	5.5
764.331	2.5
765.079	3.5
765.826	2.5
766.574	4.5
767.322	4.5
768.07	2.5
768.817	2.5
769.565	3.5
770.312	4.5
771.06	4.5
771.807	4.5
772.554	6.5
773.302	5.5
774.049	3.5
774.796	7.5
775.543	3.5
776.29	5.5
777.036	2.5
777.783	4.5
778.53	5.5
779.276	6.5
780.023	3.5
780.769	3.5
781.516	6.5
782.262	5.5
783.008	5.5
783.754	6.5
784.5	3.5
785.246	4.5
785.992	5.5
786.738	5.5
787.484	5.5
788.23	6.5
788.975	6.5
789.721	7.5
790.466	6.5
791.212	5.5
791.957	7.5
792.702	5.5
793.447	7.5
794.193	6.5
794.938	2.5
795.683	7.5
796.427	5.5
797.172	3.5
797.917	6.5
798.662	5.5
799.406	4.5
800.151	6.5
800.895	4.5
801.64	3.5
802.384	4.5
803.128	5.5
803.872	5.5
804.616	5.5
805.36	1.5
806.104	5.5
806.848	1.5
807.592	2.5
808.336	3.5
809.079	2.5
809.823	3.5
810.566	5.5
811.31	6.5
812.053	5.5
812.796	5.5
813.539	4.5
814.283	2.5
815.026	2.5
815.769	2.5
816.511	4.5
817.254	3.5
817.997	2.5
818.74	4.5
819.482	3.5
820.225	4.5
820.967	3.5
821.71	3.5
822.452	3.5
823.194	0.5
823.936	5.5
824.678	2.5
825.42	4.5
826.162	0.5
826.904	4.5
827.646	1.5
828.388	2.5
829.129	5.5
829.871	2.5
830.612	2.5
831.354	0.5
832.095	2.5
832.836	1.5
833.577	5.5
834.319	4.5
835.06	4.5
835.801	3.5
836.542	2.5
837.282	1.5
838.023	3.5
838.764	5.5
839.504	1.5
840.245	3.5
840.985	4.5
841.726	4.5
842.466	1.5
843.206	3.5
843.946	2.5
844.687	2.5
845.427	3.5
846.166	5.5
846.906	2.5
847.646	2.5
848.386	0.5
849.125	1.5
849.865	2.5
850.605	1.5
851.344	1.5
852.083	0.5
852.823	4.5
853.562	1.5
854.301	0.5
855.04	0.5
855.779	1.5
856.518	2.5
857.257	2.5
857.995	3.5
858.734	0.5
859.473	-0.5
860.211	1.5
860.95	-0.5
861.688	3.5
862.426	1.5
863.165	2.5
863.903	2.5
864.641	1.5
865.379	0.5
866.117	2.5
866.855	3.5
867.593	-0.5
868.33	1.5
869.068	2.5
869.806	-0.5
870.543	1.5
871.28	0.5
872.018	0.5
872.755	2.5
873.492	2.5
874.229	1.5
874.967	0.5
875.703	0.5
876.44	0.5
877.177	0.5
877.914	2.5
878.651	1.5
879.387	1.5
880.124	-0.5
880.86	-0.5
881.597	0.5
882.333	1.5
883.069	0.5
883.806	1.5
884.542	-0.5
885.278	0.5
886.014	0.5
886.749	-0.5
887.485	1.5
888.221	0.5
888.957	1.5
889.692	-0.5
890.428	-1.5
891.163	1.5
891.899	1.5
892.634	1.5
893.369	1.5
894.104	0.5
894.839	-0.5
895.574	-1.5
896.309	2.5
897.044	-1.5
897.779	1.5
898.514	2.5
899.248	0.5
899.983	-0.5
900.717	-2.5
901.452	-1.5
902.186	1.5
902.92	1.5
903.654	-0.5
904.389	0.5
905.123	0.5
905.857	-0.5
906.59	2.5
907.324	1.5
908.058	1.5
908.792	-0.5
909.525	0.5
910.259	-1.5
910.992	0.5
911.726	1.5
912.459	-1.5
913.192	-0.5
913.925	2.5
914.658	-1.5
915.391	1.5
916.124	0.5
916.857	1.5
917.59	-1.5
918.323	2.5
919.055	0.5
919.788	1.5
920.521	0.5
921.253	-1.5
921.985	-0.5
922.718	0.5
923.45	0.5
924.182	0.5
924.914	0.5
925.646	0.5
926.378	1.5
927.11	4.5
927.841	0.5
928.573	-1.5
929.305	-0.5
930.036	1.5
930.768	0.5
931.499	0.5
932.23	1.5
932.962	-0.5
933.693	1.5
934.424	1.5
935.155	-0.5
935.886	0.5
936.617	-1.5
937.348	1.5
938.078	-0.5
938.809	-0.5
939.54	1.5
940.27	1.5
941.001	-0.5
941.731	1.5
942.461	0.5
943.191	-1.5
943.922	-0.5
944.652	1.5
945.382	1.5
946.112	1.5
946.841	1.5
947.571	0.5
948.301	0.5
949.031	1.5
949.76	0.5
950.49	-3.5
951.219	0.5
951.948	-1.5
952.678	0.5
953.407	0.5
954.136	2.5
954.865	1.5
955.594	-0.5
956.323	0.5
957.052	0.5
957.78	-1.5
958.509	0.5
959.238	2.5
959.966	2.5
960.695	0.5
961.423	-1.5
962.151	0.5
962.88	-1.5
963.608	0.5
964.336	0.5
965.064	-1.5
965.792	0.5
966.52	1.5
967.247	-0.5
967.975	0.5
968.703	-0.5
969.43	0.5
970.158	2.5
970.885	-0.5
971.613	0.5
972.34	-0.5
973.067	1.5
973.794	0.5
974.521	-1.5
975.248	1.5
975.975	1.5
976.702	1.5
977.429	1.5
978.156	1.5
978.882	-0.5
979.609	0.5
980.335	-1.5
981.062	1.5
981.788	0.5
982.514	-1.5
983.24	-0.5
983.967	0.5
984.693	-0.5
985.419	0.5
986.144	-2.5
986.87	2.5
987.596	-1.5
988.322	-0.5
989.047	1.5
989.773	1.5
990.498	1.5
991.224	2.5
991.949	0.5
992.674	0.5
993.399	0.5
994.124	2.5
994.849	-0.5
995.574	1.5
996.299	-1.5
997.024	0.5
997.749	0.5
998.473	1.5
999.198	2.5
999.922	0.5
1000.647	0.5
1001.371	2.5
1002.095	-0.5
1002.82	0.5
1003.544	-3.5
1004.268	-0.5
1004.992	-1.5
1005.716	0.5
1006.439	-2.5
1007.163	1.5
1007.887	0.5
1008.611	-0.5
1009.334	-0.5
1010.058	-1.5
1010.781	0.5
1011.504	2.5
1012.228	2.5
1012.951	0.5
1013.674	1.5
1014.397	-1.5
1015.12	0.5
