节点500_145_QEPB04081__685__11-39-48-852.txt的数据

Date: Wed Nov 12 11:39:48 CST 2025
User: PC
Spectrometer: QEPB0408
触发模式: 0
积分时间 (秒): 1.000000E-2
Scans to average: 1
启用暗噪声校正: true
启用非线性校正: false
滑动平均宽度: 0
X轴模式: Wavelengths
Number of Pixels in Spectrum: 1044
>>>>>Begin Spectral Data<<<<<
220.843	-0.88
221.644	-1.88
222.444	-0.88
223.244	-0.88
224.045	-1.88
224.845	-0.88
225.645	-2.88
226.445	-0.88
227.245	-2.88
228.045	-0.88
228.845	1.12
229.645	-0.88
230.444	2.12
231.244	0.12
232.043	0.12
232.843	0.12
233.642	-1.88
234.442	2.12
235.241	1.12
236.04	1.12
236.839	-0.88
237.638	1.12
238.437	1.12
239.236	2.12
240.035	2.12
240.833	-1.88
241.632	1.12
242.43	0.12
243.229	2.12
244.027	1.12
244.826	1.12
245.624	1.12
246.422	2.12
247.22	4.12
248.018	0.12
248.816	1.12
249.614	2.12
250.412	1.12
251.21	1.12
252.007	3.12
252.805	2.12
253.602	1.12
254.4	3.12
255.197	2.12
255.994	3.12
256.791	3.12
257.589	1.12
258.386	4.12
259.183	2.12
259.979	3.12
260.776	4.12
261.573	4.12
262.37	6.12
263.166	1.12
263.963	4.12
264.759	4.12
265.556	5.12
266.352	3.12
267.148	3.12
267.944	4.12
268.74	5.12
269.536	7.12
270.332	4.12
271.128	7.12
271.924	7.12
272.719	7.12
273.515	7.12
274.311	6.12
275.106	7.12
275.901	7.12
276.697	8.12
277.492	6.12
278.287	7.12
279.082	8.12
279.877	7.12
280.672	7.12
281.467	8.12
282.262	11.12
283.056	9.12
283.851	7.12
284.646	12.12
285.44	9.12
286.234	9.12
287.029	9.12
287.823	11.12
288.617	10.12
289.411	9.12
290.205	11.12
290.999	9.12
291.793	9.12
292.587	8.12
293.381	7.12
294.174	11.12
294.968	9.12
295.761	7.12
296.555	8.12
297.348	8.12
298.141	8.12
298.935	10.12
299.728	6.12
300.521	9.12
301.314	10.12
302.107	7.12
302.899	11.12
303.692	8.12
304.485	8.12
305.277	7.12
306.07	8.12
306.862	7.12
307.655	5.12
308.447	9.12
309.239	6.12
310.031	8.12
310.823	7.12
311.615	6.12
312.407	9.12
313.199	7.12
313.991	5.12
314.783	6.12
315.574	5.12
316.366	5.12
317.157	4.12
317.949	6.12
318.74	2.12
319.531	6.12
320.322	3.12
321.113	4.12
321.904	4.12
322.695	5.12
323.486	2.12
324.277	3.12
325.068	5.12
325.858	4.12
326.649	5.12
327.439	4.12
328.23	3.12
329.02	6.12
329.81	3.12
330.6	4.12
331.391	5.12
332.181	2.12
332.971	5.12
333.76	2.12
334.55	3.12
335.34	4.12
336.13	5.12
336.919	2.12
337.709	3.12
338.498	5.12
339.287	6.12
340.077	2.12
340.866	2.12
341.655	3.12
342.444	2.12
343.233	3.12
344.022	3.12
344.811	1.12
345.6	5.12
346.388	2.12
347.177	3.12
347.965	1.12
348.754	4.12
349.542	3.12
350.33	3.12
351.119	5.12
351.907	3.12
352.695	5.12
353.483	2.12
354.271	5.12
355.059	3.12
355.846	3.12
356.634	5.12
357.422	0.12
358.209	1.12
358.997	4.12
359.784	2.12
360.571	2.12
361.359	2.12
362.146	5.12
362.933	2.12
363.72	3.12
364.507	1.12
365.294	3.12
366.081	2.12
366.867	1.12
367.654	3.12
368.44	1.12
369.227	2.12
370.013	1.12
370.8	2.12
371.586	2.12
372.372	3.12
373.158	2.12
373.944	2.12
374.73	2.12
375.516	3.12
376.302	4.12
377.088	3.12
377.873	2.12
378.659	2.12
379.445	4.12
380.23	3.12
381.015	2.12
381.801	3.12
382.586	1.12
383.371	2.12
384.156	1.12
384.941	0.12
385.726	6.12
386.511	2.12
387.296	3.12
388.08	4.12
388.865	3.12
389.649	2.12
390.434	3.12
391.218	4.12
392.003	1.12
392.787	1.12
393.571	2.12
394.355	2.12
395.139	3.12
395.923	2.12
396.707	2.12
397.491	2.12
398.274	2.12
399.058	5.12
399.842	3.12
400.625	2.12
401.408	3.12
402.192	3.12
402.975	3.12
403.758	3.12
404.541	2.12
405.324	1.12
406.107	2.12
406.89	2.12
407.673	4.12
408.456	5.12
409.238	4.12
410.021	3.12
410.803	5.12
411.586	4.12
412.368	2.12
413.151	5.12
413.933	4.12
414.715	3.12
415.497	5.12
416.279	2.12
417.061	3.12
417.843	2.12
418.624	5.12
419.406	5.12
420.188	5.12
420.969	6.12
421.751	3.12
422.532	7.12
423.313	6.12
424.095	4.12
424.876	6.12
425.657	3.12
426.438	8.12
427.219	5.12
428	7.12
428.78	6.12
429.561	5.12
430.342	9.12
431.122	5.12
431.903	7.12
432.683	6.12
433.464	8.12
434.244	10.12
435.024	9.12
435.804	11.12
436.584	6.12
437.364	10.12
438.144	11.12
438.924	11.12
439.704	13.12
440.483	11.12
441.263	12.12
442.042	10.12
442.822	11.12
443.601	13.12
444.38	18.12
445.16	16.12
445.939	16.12
446.718	21.12
447.497	18.12
448.276	23.12
449.054	21.12
449.833	25.12
450.612	28.12
451.391	28.12
452.169	31.12
452.948	36.12
453.726	38.12
454.504	39.12
455.282	46.12
456.061	51.12
456.839	54.12
457.617	62.12
458.395	68.12
459.172	78.12
459.95	85.12
460.728	101.12
461.506	104.12
462.283	120.12
463.061	131.12
463.838	145.12
464.615	157.12
465.393	175.12
466.17	196.12
466.947	213.12
467.724	236.12
468.501	269.12
469.278	293.12
470.055	320.12
470.831	363.12
471.608	403.12
472.385	445.12
473.161	499.12
473.938	536.12
474.714	600.12
475.49	654.12
476.266	726.12
477.043	795.12
477.819	876.12
478.595	969.12
479.371	1064.12
480.146	1166.12
480.922	1257.12
481.698	1385.12
482.473	1526.12
483.249	1669.12
484.024	1827.12
484.8	1967.12
485.575	2173.12
486.35	2375.12
487.126	2604.12
487.901	2845.12
488.676	3100.12
489.451	3385.12
490.225	3685.12
491	4009.12
491.775	4399.12
492.55	4754.12
493.324	5189.12
494.099	5648.12
494.873	6091.12
495.647	6636.12
496.422	7179.12
497.196	7738.12
497.97	8310.12
498.744	8951.12
499.518	9610.12
500.292	10179.12
501.066	10854.12
501.839	11474.12
502.613	12029.12
503.387	12629.12
504.16	13197.12
504.934	13685.12
505.707	14054.12
506.48	14416.12
507.253	14713.12
508.027	14862.12
508.8	15015.12
509.573	15005.12
510.346	14915.12
511.118	14766.12
511.891	14550.12
512.664	14243.12
513.437	13923.12
514.209	13474.12
514.982	13103.12
515.754	12641.12
516.526	12115.12
517.298	11627.12
518.071	11185.12
518.843	10717.12
519.615	10297.12
520.387	9841.12
521.159	9426.12
521.93	9083.12
522.702	8694.12
523.474	8404.12
524.245	8064.12
525.017	7717.12
525.788	7442.12
526.56	7147.12
527.331	6841.12
528.102	6549.12
528.873	6280.12
529.644	6012.12
530.415	5755.12
531.186	5516.12
531.957	5268.12
532.728	5021.12
533.498	4765.12
534.269	4546.12
535.039	4273.12
535.81	4059.12
536.58	3863.12
537.351	3624.12
538.121	3447.12
538.891	3261.12
539.661	3066.12
540.431	2903.12
541.201	2746.12
541.971	2618.12
542.741	2489.12
543.51	2350.12
544.28	2217.12
545.05	2119.12
545.819	2008.12
546.588	1911.12
547.358	1811.12
548.127	1730.12
548.896	1638.12
549.665	1554.12
550.434	1478.12
551.203	1405.12
551.972	1353.12
552.741	1267.12
553.51	1211.12
554.278	1137.12
555.047	1087.12
555.815	1022.12
556.584	967.12
557.352	909.12
558.121	860.12
558.889	809.12
559.657	759.12
560.425	716.12
561.193	683.12
561.961	636.12
562.729	608.12
563.496	580.12
564.264	544.12
565.032	499.12
565.799	488.12
566.567	455.12
567.334	433.12
568.101	402.12
568.869	385.12
569.636	361.12
570.403	337.12
571.17	319.12
571.937	304.12
572.704	284.12
573.471	270.12
574.237	254.12
575.004	241.12
575.771	231.12
576.537	213.12
577.303	198.12
578.07	185.12
578.836	180.12
579.602	160.12
580.368	161.12
581.134	149.12
581.9	139.12
582.666	135.12
583.432	127.12
584.198	122.12
584.964	116.12
585.729	109.12
586.495	96.12
587.26	94.12
588.025	92.12
588.791	85.12
589.556	83.12
590.321	76.12
591.086	71.12
591.851	67.12
592.616	64.12
593.381	62.12
594.146	57.12
594.911	54.12
595.675	54.12
596.44	51.12
597.204	50.12
597.969	45.12
598.733	43.12
599.497	41.12
600.261	42.12
601.025	40.12
601.79	40.12
602.553	35.12
603.317	32.12
604.081	32.12
604.845	25.12
605.609	32.12
606.372	27.12
607.136	25.12
607.899	24.12
608.662	25.12
609.426	22.12
610.189	23.12
610.952	22.12
611.715	21.12
612.478	18.12
613.241	18.12
614.004	17.12
614.767	17.12
615.529	18.12
616.292	16.12
617.055	17.12
617.817	13.12
618.579	14.12
619.342	14.12
620.104	14.12
620.866	13.12
621.628	12.12
622.39	13.12
623.152	10.12
623.914	11.12
624.676	10.12
625.438	9.12
626.199	8.12
626.961	10.12
627.722	10.12
628.484	9.12
629.245	8.12
630.006	6.12
630.768	9.12
631.529	10.12
632.29	9.12
633.051	8.12
633.812	5.12
634.573	6.12
635.333	6.12
636.094	7.12
636.855	9.12
637.615	8.12
638.376	8.12
639.136	5.12
639.896	5.12
640.657	5.12
641.417	3.12
642.177	5.12
642.937	7.12
643.697	5.12
644.457	6.12
645.216	5.12
645.976	2.12
646.736	5.12
647.495	3.12
648.255	5.12
649.014	2.12
649.774	5.12
650.533	3.12
651.292	1.12
652.051	5.12
652.81	5.12
653.569	3.12
654.328	4.12
655.087	3.12
655.846	5.12
656.604	2.12
657.363	3.12
658.121	4.12
658.88	4.12
659.638	2.12
660.397	2.12
661.155	3.12
661.913	2.12
662.671	4.12
663.429	2.12
664.187	2.12
664.945	3.12
665.703	2.12
666.46	4.12
667.218	3.12
667.976	4.12
668.733	0.12
669.49	2.12
670.248	3.12
671.005	0.12
671.762	1.12
672.519	1.12
673.276	0.12
674.033	2.12
674.79	1.12
675.547	2.12
676.304	1.12
677.06	2.12
677.817	3.12
678.574	1.12
679.33	0.12
680.086	1.12
680.843	1.12
681.599	2.12
682.355	5.12
683.111	1.12
683.867	3.12
684.623	2.12
685.379	2.12
686.135	2.12
686.89	2.12
687.646	4.12
688.402	3.12
689.157	2.12
689.912	0.12
690.668	1.12
691.423	2.12
692.178	1.12
692.933	2.12
693.688	1.12
694.443	1.12
695.198	2.12
695.953	5.12
696.708	1.12
697.462	-0.88
698.217	2.12
698.972	2.12
699.726	2.12
700.48	2.12
701.235	2.12
701.989	2.12
702.743	3.12
703.497	2.12
704.251	2.12
705.005	1.12
705.759	2.12
706.513	3.12
707.266	2.12
708.02	0.12
708.774	2.12
709.527	3.12
710.28	2.12
711.034	2.12
711.787	3.12
712.54	1.12
713.293	1.12
714.046	1.12
714.799	2.12
715.552	5.12
716.305	1.12
717.058	3.12
717.81	0.12
718.563	3.12
719.315	4.12
720.068	0.12
720.82	1.12
721.573	3.12
722.325	1.12
723.077	0.12
723.829	-0.88
724.581	1.12
725.333	2.12
726.085	2.12
726.836	0.12
727.588	0.12
728.34	1.12
729.091	0.12
729.843	2.12
730.594	0.12
731.346	4.12
732.097	2.12
732.848	3.12
733.599	2.12
734.35	2.12
735.101	2.12
735.852	0.12
736.603	2.12
737.354	2.12
738.104	1.12
738.855	1.12
739.605	2.12
740.356	1.12
741.106	1.12
741.856	1.12
742.607	2.12
743.357	3.12
744.107	2.12
744.857	1.12
745.607	3.12
746.357	2.12
747.106	1.12
747.856	2.12
748.606	2.12
749.355	3.12
750.105	2.12
750.854	1.12
751.603	2.12
752.353	4.12
753.102	2.12
753.851	0.12
754.6	2.12
755.349	1.12
756.098	1.12
756.847	4.12
757.595	5.12
758.344	3.12
759.093	1.12
759.841	2.12
760.589	1.12
761.338	0.12
762.086	2.12
762.834	2.12
763.582	0.12
764.331	2.12
765.079	3.12
765.826	2.12
766.574	5.12
767.322	3.12
768.07	3.12
768.817	4.12
769.565	3.12
770.312	3.12
771.06	2.12
771.807	5.12
772.554	4.12
773.302	4.12
774.049	1.12
774.796	1.12
775.543	5.12
776.29	2.12
777.036	3.12
777.783	3.12
778.53	5.12
779.276	4.12
780.023	5.12
780.769	6.12
781.516	2.12
782.262	4.12
783.008	5.12
783.754	7.12
784.5	5.12
785.246	2.12
785.992	3.12
786.738	5.12
787.484	6.12
788.23	4.12
788.975	4.12
789.721	2.12
790.466	6.12
791.212	6.12
791.957	2.12
792.702	5.12
793.447	5.12
794.193	3.12
794.938	3.12
795.683	5.12
796.427	5.12
797.172	6.12
797.917	4.12
798.662	4.12
799.406	5.12
800.151	5.12
800.895	5.12
801.64	5.12
802.384	2.12
803.128	4.12
803.872	2.12
804.616	3.12
805.36	2.12
806.104	5.12
806.848	3.12
807.592	3.12
808.336	5.12
809.079	3.12
809.823	5.12
810.566	5.12
811.31	3.12
812.053	2.12
812.796	3.12
813.539	4.12
814.283	3.12
815.026	3.12
815.769	5.12
816.511	2.12
817.254	1.12
817.997	1.12
818.74	3.12
819.482	3.12
820.225	3.12
820.967	2.12
821.71	1.12
822.452	4.12
823.194	2.12
823.936	-0.88
824.678	3.12
825.42	2.12
826.162	3.12
826.904	1.12
827.646	3.12
828.388	1.12
829.129	3.12
829.871	2.12
830.612	2.12
831.354	3.12
832.095	1.12
832.836	3.12
833.577	1.12
834.319	1.12
835.06	4.12
835.801	1.12
836.542	1.12
837.282	2.12
838.023	1.12
838.764	3.12
839.504	1.12
840.245	1.12
840.985	0.12
841.726	5.12
842.466	1.12
843.206	2.12
843.946	2.12
844.687	2.12
845.427	2.12
846.166	3.12
846.906	3.12
847.646	2.12
848.386	2.12
849.125	0.12
849.865	2.12
850.605	1.12
851.344	0.12
852.083	1.12
852.823	1.12
853.562	3.12
854.301	2.12
855.04	0.12
855.779	3.12
856.518	3.12
857.257	3.12
857.995	2.12
858.734	1.12
859.473	1.12
860.211	0.12
860.95	4.12
861.688	1.12
862.426	2.12
863.165	-0.88
863.903	1.12
864.641	0.12
865.379	1.12
866.117	2.12
866.855	0.12
867.593	2.12
868.33	1.12
869.068	0.12
869.806	1.12
870.543	1.12
871.28	2.12
872.018	-0.88
872.755	2.12
873.492	-1.88
874.229	1.12
874.967	1.12
875.703	0.12
876.44	2.12
877.177	1.12
877.914	1.12
878.651	0.12
879.387	-0.88
880.124	1.12
880.86	1.12
881.597	1.12
882.333	1.12
883.069	1.12
883.806	2.12
884.542	0.12
885.278	1.12
886.014	1.12
886.749	2.12
887.485	2.12
888.221	1.12
888.957	-1.88
889.692	-1.88
890.428	0.12
891.163	-0.88
891.899	3.12
892.634	-0.88
893.369	2.12
894.104	0.12
894.839	0.12
895.574	-1.88
896.309	-0.88
897.044	-1.88
897.779	0.12
898.514	1.12
899.248	-1.88
899.983	2.12
900.717	1.12
901.452	1.12
902.186	1.12
902.92	0.12
903.654	1.12
904.389	1.12
905.123	0.12
905.857	1.12
906.59	0.12
907.324	0.12
908.058	1.12
908.792	2.12
909.525	0.12
910.259	-1.88
910.992	1.12
911.726	2.12
912.459	0.12
913.192	-0.88
913.925	0.12
914.658	0.12
915.391	1.12
916.124	-0.88
916.857	1.12
917.59	0.12
918.323	-0.88
919.055	2.12
919.788	0.12
920.521	0.12
921.253	-1.88
921.985	0.12
922.718	2.12
923.45	-0.88
924.182	-0.88
924.914	-0.88
925.646	1.12
926.378	0.12
927.11	2.12
927.841	-0.88
928.573	-0.88
929.305	0.12
930.036	-0.88
930.768	1.12
931.499	1.12
932.23	0.12
932.962	1.12
933.693	0.12
934.424	1.12
935.155	0.12
935.886	1.12
936.617	-0.88
937.348	0.12
938.078	1.12
938.809	-0.88
939.54	1.12
940.27	0.12
941.001	0.12
941.731	1.12
942.461	2.12
943.191	1.12
943.922	-1.88
944.652	-0.88
945.382	1.12
946.112	-0.88
946.841	1.12
947.571	1.12
948.301	0.12
949.031	0.12
949.76	1.12
950.49	-1.88
951.219	0.12
951.948	1.12
952.678	0.12
953.407	0.12
954.136	-1.88
954.865	1.12
955.594	-0.88
956.323	3.12
957.052	1.12
957.78	0.12
958.509	0.12
959.238	-0.88
959.966	2.12
960.695	0.12
961.423	0.12
962.151	2.12
962.88	2.12
963.608	1.12
964.336	-1.88
965.064	1.12
965.792	1.12
966.52	1.12
967.247	5.12
967.975	-1.88
968.703	1.12
969.43	1.12
970.158	0.12
970.885	-0.88
971.613	-1.88
972.34	0.12
973.067	-0.88
973.794	1.12
974.521	-0.88
975.248	0.12
975.975	-0.88
976.702	0.12
977.429	1.12
978.156	0.12
978.882	1.12
979.609	1.12
980.335	-0.88
981.062	0.12
981.788	-0.88
982.514	2.12
983.24	0.12
983.967	0.12
984.693	0.12
985.419	0.12
986.144	2.12
986.87	0.12
987.596	-1.88
988.322	0.12
989.047	1.12
989.773	1.12
990.498	1.12
991.224	-0.88
991.949	-0.88
992.674	-0.88
993.399	1.12
994.124	0.12
994.849	2.12
995.574	1.12
996.299	0.12
997.024	-1.88
997.749	-1.88
998.473	0.12
999.198	0.12
999.922	-0.88
1000.647	0.12
1001.371	5.12
1002.095	-2.88
1002.82	-1.88
1003.544	-0.88
1004.268	-0.88
1004.992	-1.88
1005.716	-0.88
1006.439	-1.88
1007.163	-2.88
1007.887	-0.88
1008.611	-0.88
1009.334	-0.88
1010.058	1.12
1010.781	0.12
1011.504	1.12
1012.228	0.12
1012.951	1.12
1013.674	1.12
1014.397	1.12
1015.12	-2.88
