节点500_145_QEPB04081__410__11-35-31-544.txt的数据

Date: Wed Nov 12 11:35:31 CST 2025
User: PC
Spectrometer: QEPB0408
触发模式: 0
积分时间 (秒): 1.000000E-2
Scans to average: 1
启用暗噪声校正: true
启用非线性校正: false
滑动平均宽度: 0
X轴模式: Wavelengths
Number of Pixels in Spectrum: 1044
>>>>>Begin Spectral Data<<<<<
220.843	-0.38
221.644	-0.38
222.444	-0.38
223.244	1.62
224.045	1.62
224.845	1.62
225.645	-0.38
226.445	-1.38
227.245	-0.38
228.045	-0.38
228.845	0.62
229.645	0.62
230.444	2.62
231.244	1.62
232.043	-0.38
232.843	2.62
233.642	0.62
234.442	-0.38
235.241	1.62
236.04	1.62
236.839	-0.38
237.638	1.62
238.437	1.62
239.236	1.62
240.035	1.62
240.833	0.62
241.632	3.62
242.43	2.62
243.229	0.62
244.027	1.62
244.826	0.62
245.624	1.62
246.422	3.62
247.22	3.62
248.018	0.62
248.816	2.62
249.614	2.62
250.412	1.62
251.21	1.62
252.007	2.62
252.805	1.62
253.602	3.62
254.4	-1.38
255.197	4.62
255.994	3.62
256.791	4.62
257.589	2.62
258.386	3.62
259.183	3.62
259.979	3.62
260.776	5.62
261.573	3.62
262.37	2.62
263.166	4.62
263.963	3.62
264.759	5.62
265.556	5.62
266.352	5.62
267.148	5.62
267.944	5.62
268.74	4.62
269.536	7.62
270.332	6.62
271.128	6.62
271.924	6.62
272.719	7.62
273.515	7.62
274.311	9.62
275.106	8.62
275.901	9.62
276.697	10.62
277.492	8.62
278.287	8.62
279.082	9.62
279.877	9.62
280.672	9.62
281.467	9.62
282.262	8.62
283.056	10.62
283.851	10.62
284.646	10.62
285.44	9.62
286.234	11.62
287.029	8.62
287.823	11.62
288.617	11.62
289.411	11.62
290.205	9.62
290.999	8.62
291.793	10.62
292.587	12.62
293.381	10.62
294.174	9.62
294.968	10.62
295.761	12.62
296.555	10.62
297.348	9.62
298.141	9.62
298.935	10.62
299.728	10.62
300.521	9.62
301.314	7.62
302.107	8.62
302.899	6.62
303.692	7.62
304.485	7.62
305.277	9.62
306.07	8.62
306.862	9.62
307.655	8.62
308.447	8.62
309.239	8.62
310.031	9.62
310.823	8.62
311.615	7.62
312.407	7.62
313.199	4.62
313.991	7.62
314.783	5.62
315.574	6.62
316.366	4.62
317.157	5.62
317.949	7.62
318.74	5.62
319.531	6.62
320.322	7.62
321.113	5.62
321.904	4.62
322.695	5.62
323.486	4.62
324.277	4.62
325.068	5.62
325.858	6.62
326.649	5.62
327.439	3.62
328.23	4.62
329.02	2.62
329.81	3.62
330.6	4.62
331.391	4.62
332.181	1.62
332.971	4.62
333.76	3.62
334.55	4.62
335.34	4.62
336.13	3.62
336.919	3.62
337.709	2.62
338.498	4.62
339.287	3.62
340.077	3.62
340.866	4.62
341.655	1.62
342.444	2.62
343.233	3.62
344.022	4.62
344.811	2.62
345.6	3.62
346.388	3.62
347.177	3.62
347.965	4.62
348.754	3.62
349.542	4.62
350.33	3.62
351.119	4.62
351.907	2.62
352.695	0.62
353.483	-0.38
354.271	1.62
355.059	4.62
355.846	4.62
356.634	3.62
357.422	2.62
358.209	1.62
358.997	4.62
359.784	2.62
360.571	2.62
361.359	5.62
362.146	3.62
362.933	2.62
363.72	3.62
364.507	3.62
365.294	3.62
366.081	2.62
366.867	2.62
367.654	3.62
368.44	1.62
369.227	1.62
370.013	1.62
370.8	1.62
371.586	4.62
372.372	1.62
373.158	1.62
373.944	6.62
374.73	0.62
375.516	3.62
376.302	2.62
377.088	2.62
377.873	2.62
378.659	1.62
379.445	3.62
380.23	0.62
381.015	1.62
381.801	1.62
382.586	3.62
383.371	2.62
384.156	3.62
384.941	2.62
385.726	3.62
386.511	4.62
387.296	3.62
388.08	3.62
388.865	3.62
389.649	1.62
390.434	3.62
391.218	0.62
392.003	4.62
392.787	2.62
393.571	3.62
394.355	1.62
395.139	1.62
395.923	0.62
396.707	3.62
397.491	3.62
398.274	2.62
399.058	3.62
399.842	1.62
400.625	2.62
401.408	5.62
402.192	4.62
402.975	4.62
403.758	3.62
404.541	3.62
405.324	2.62
406.107	3.62
406.89	4.62
407.673	2.62
408.456	5.62
409.238	6.62
410.021	3.62
410.803	3.62
411.586	2.62
412.368	4.62
413.151	4.62
413.933	5.62
414.715	6.62
415.497	6.62
416.279	5.62
417.061	4.62
417.843	7.62
418.624	3.62
419.406	6.62
420.188	5.62
420.969	7.62
421.751	4.62
422.532	4.62
423.313	7.62
424.095	4.62
424.876	6.62
425.657	5.62
426.438	7.62
427.219	7.62
428	5.62
428.78	7.62
429.561	9.62
430.342	7.62
431.122	8.62
431.903	8.62
432.683	7.62
433.464	7.62
434.244	10.62
435.024	9.62
435.804	9.62
436.584	9.62
437.364	8.62
438.144	8.62
438.924	10.62
439.704	11.62
440.483	12.62
441.263	10.62
442.042	12.62
442.822	12.62
443.601	13.62
444.38	14.62
445.16	16.62
445.939	20.62
446.718	19.62
447.497	20.62
448.276	20.62
449.054	22.62
449.833	21.62
450.612	24.62
451.391	28.62
452.169	36.62
452.948	30.62
453.726	35.62
454.504	39.62
455.282	43.62
456.061	49.62
456.839	53.62
457.617	56.62
458.395	61.62
459.172	68.62
459.95	82.62
460.728	87.62
461.506	94.62
462.283	110.62
463.061	115.62
463.838	131.62
464.615	145.62
465.393	165.62
466.17	181.62
466.947	202.62
467.724	221.62
468.501	254.62
469.278	279.62
470.055	306.62
470.831	343.62
471.608	380.62
472.385	430.62
473.161	465.62
473.938	522.62
474.714	583.62
475.49	638.62
476.266	705.62
477.043	788.62
477.819	871.62
478.595	945.62
479.371	1029.62
480.146	1156.62
480.922	1265.62
481.698	1409.62
482.473	1533.62
483.249	1717.62
484.024	1869.62
484.8	2057.62
485.575	2246.62
486.35	2499.62
487.126	2717.62
487.901	2985.62
488.676	3268.62
489.451	3590.62
490.225	3951.62
491	4356.62
491.775	4742.62
492.55	5168.62
493.324	5664.62
494.099	6157.62
494.873	6713.62
495.647	7314.62
496.422	7945.62
497.196	8600.62
497.97	9251.62
498.744	9990.62
499.518	10666.62
500.292	11392.62
501.066	12083.62
501.839	12732.62
502.613	13392.62
503.387	14021.62
504.16	14567.62
504.934	15082.62
505.707	15408.62
506.48	15664.62
507.253	15883.62
508.027	16081.62
508.8	16098.62
509.573	15974.62
510.346	15789.62
511.118	15521.62
511.891	15194.62
512.664	14741.62
513.437	14282.62
514.209	13804.62
514.982	13289.62
515.754	12744.62
516.526	12243.62
517.298	11685.62
518.071	11184.62
518.843	10713.62
519.615	10254.62
520.387	9850.62
521.159	9448.62
521.93	9073.62
522.702	8683.62
523.474	8382.62
524.245	8029.62
525.017	7722.62
525.788	7410.62
526.56	7123.62
527.331	6810.62
528.102	6505.62
528.873	6250.62
529.644	5976.62
530.415	5731.62
531.186	5445.62
531.957	5191.62
532.728	4938.62
533.498	4669.62
534.269	4426.62
535.039	4160.62
535.81	3941.62
536.58	3723.62
537.351	3536.62
538.121	3341.62
538.891	3173.62
539.661	2977.62
540.431	2807.62
541.201	2672.62
541.971	2527.62
542.741	2395.62
543.51	2267.62
544.28	2167.62
545.05	2050.62
545.819	1954.62
546.588	1849.62
547.358	1749.62
548.127	1673.62
548.896	1594.62
549.665	1506.62
550.434	1441.62
551.203	1365.62
551.972	1290.62
552.741	1223.62
553.51	1158.62
554.278	1109.62
555.047	1034.62
555.815	983.62
556.584	921.62
557.352	869.62
558.121	816.62
558.889	784.62
559.657	729.62
560.425	698.62
561.193	653.62
561.961	612.62
562.729	575.62
563.496	545.62
564.264	516.62
565.032	485.62
565.799	450.62
566.567	433.62
567.334	413.62
568.101	386.62
568.869	366.62
569.636	350.62
570.403	323.62
571.17	306.62
571.937	291.62
572.704	267.62
573.471	257.62
574.237	243.62
575.004	225.62
575.771	215.62
576.537	200.62
577.303	197.62
578.07	175.62
578.836	170.62
579.602	163.62
580.368	146.62
581.134	145.62
581.9	130.62
582.666	130.62
583.432	119.62
584.198	117.62
584.964	109.62
585.729	101.62
586.495	95.62
587.26	90.62
588.025	85.62
588.791	79.62
589.556	76.62
590.321	69.62
591.086	68.62
591.851	72.62
592.616	61.62
593.381	60.62
594.146	51.62
594.911	54.62
595.675	52.62
596.44	45.62
597.204	49.62
597.969	48.62
598.733	43.62
599.497	41.62
600.261	40.62
601.025	35.62
601.79	32.62
602.553	34.62
603.317	32.62
604.081	28.62
604.845	31.62
605.609	28.62
606.372	26.62
607.136	22.62
607.899	24.62
608.662	23.62
609.426	23.62
610.189	21.62
610.952	20.62
611.715	19.62
612.478	20.62
613.241	20.62
614.004	18.62
614.767	18.62
615.529	15.62
616.292	13.62
617.055	15.62
617.817	14.62
618.579	15.62
619.342	13.62
620.104	15.62
620.866	11.62
621.628	11.62
622.39	14.62
623.152	13.62
623.914	11.62
624.676	9.62
625.438	9.62
626.199	10.62
626.961	11.62
627.722	11.62
628.484	11.62
629.245	7.62
630.006	7.62
630.768	7.62
631.529	7.62
632.29	8.62
633.051	7.62
633.812	6.62
634.573	8.62
635.333	8.62
636.094	7.62
636.855	7.62
637.615	3.62
638.376	4.62
639.136	5.62
639.896	6.62
640.657	6.62
641.417	7.62
642.177	7.62
642.937	5.62
643.697	5.62
644.457	5.62
645.216	5.62
645.976	5.62
646.736	4.62
647.495	4.62
648.255	4.62
649.014	4.62
649.774	5.62
650.533	4.62
651.292	2.62
652.051	4.62
652.81	5.62
653.569	3.62
654.328	4.62
655.087	4.62
655.846	2.62
656.604	2.62
657.363	3.62
658.121	3.62
658.88	2.62
659.638	3.62
660.397	2.62
661.155	2.62
661.913	4.62
662.671	-0.38
663.429	6.62
664.187	4.62
664.945	4.62
665.703	4.62
666.46	3.62
667.218	1.62
667.976	3.62
668.733	2.62
669.49	2.62
670.248	2.62
671.005	2.62
671.762	4.62
672.519	3.62
673.276	-0.38
674.033	1.62
674.79	2.62
675.547	1.62
676.304	3.62
677.06	2.62
677.817	3.62
678.574	1.62
679.33	3.62
680.086	3.62
680.843	2.62
681.599	4.62
682.355	1.62
683.111	2.62
683.867	2.62
684.623	3.62
685.379	4.62
686.135	2.62
686.89	1.62
687.646	2.62
688.402	2.62
689.157	1.62
689.912	2.62
690.668	1.62
691.423	3.62
692.178	1.62
692.933	2.62
693.688	1.62
694.443	0.62
695.198	2.62
695.953	2.62
696.708	3.62
697.462	2.62
698.217	1.62
698.972	1.62
699.726	2.62
700.48	0.62
701.235	0.62
701.989	1.62
702.743	1.62
703.497	0.62
704.251	2.62
705.005	2.62
705.759	4.62
706.513	2.62
707.266	0.62
708.02	3.62
708.774	-0.38
709.527	2.62
710.28	1.62
711.034	2.62
711.787	2.62
712.54	2.62
713.293	0.62
714.046	2.62
714.799	3.62
715.552	3.62
716.305	3.62
717.058	0.62
717.81	1.62
718.563	3.62
719.315	1.62
720.068	4.62
720.82	1.62
721.573	2.62
722.325	2.62
723.077	-0.38
723.829	1.62
724.581	3.62
725.333	3.62
726.085	1.62
726.836	3.62
727.588	2.62
728.34	1.62
729.091	2.62
729.843	0.62
730.594	3.62
731.346	1.62
732.097	2.62
732.848	0.62
733.599	1.62
734.35	1.62
735.101	0.62
735.852	2.62
736.603	1.62
737.354	1.62
738.104	3.62
738.855	1.62
739.605	3.62
740.356	3.62
741.106	5.62
741.856	2.62
742.607	3.62
743.357	2.62
744.107	2.62
744.857	2.62
745.607	1.62
746.357	1.62
747.106	3.62
747.856	3.62
748.606	2.62
749.355	3.62
750.105	2.62
750.854	2.62
751.603	2.62
752.353	3.62
753.102	2.62
753.851	4.62
754.6	3.62
755.349	3.62
756.098	2.62
756.847	4.62
757.595	5.62
758.344	2.62
759.093	3.62
759.841	3.62
760.589	4.62
761.338	1.62
762.086	1.62
762.834	3.62
763.582	2.62
764.331	3.62
765.079	1.62
765.826	3.62
766.574	3.62
767.322	3.62
768.07	0.62
768.817	3.62
769.565	5.62
770.312	2.62
771.06	5.62
771.807	4.62
772.554	3.62
773.302	5.62
774.049	5.62
774.796	3.62
775.543	2.62
776.29	6.62
777.036	6.62
777.783	6.62
778.53	4.62
779.276	4.62
780.023	5.62
780.769	6.62
781.516	4.62
782.262	4.62
783.008	4.62
783.754	3.62
784.5	4.62
785.246	4.62
785.992	4.62
786.738	5.62
787.484	4.62
788.23	5.62
788.975	6.62
789.721	5.62
790.466	3.62
791.212	3.62
791.957	4.62
792.702	4.62
793.447	3.62
794.193	7.62
794.938	5.62
795.683	3.62
796.427	4.62
797.172	4.62
797.917	1.62
798.662	4.62
799.406	4.62
800.151	5.62
800.895	5.62
801.64	6.62
802.384	2.62
803.128	3.62
803.872	5.62
804.616	3.62
805.36	4.62
806.104	5.62
806.848	3.62
807.592	4.62
808.336	4.62
809.079	6.62
809.823	3.62
810.566	3.62
811.31	3.62
812.053	2.62
812.796	3.62
813.539	3.62
814.283	3.62
815.026	4.62
815.769	1.62
816.511	2.62
817.254	2.62
817.997	3.62
818.74	2.62
819.482	2.62
820.225	4.62
820.967	3.62
821.71	0.62
822.452	2.62
823.194	5.62
823.936	3.62
824.678	2.62
825.42	3.62
826.162	1.62
826.904	2.62
827.646	4.62
828.388	2.62
829.129	3.62
829.871	3.62
830.612	4.62
831.354	1.62
832.095	2.62
832.836	2.62
833.577	1.62
834.319	4.62
835.06	3.62
835.801	4.62
836.542	1.62
837.282	5.62
838.023	2.62
838.764	3.62
839.504	0.62
840.245	3.62
840.985	2.62
841.726	2.62
842.466	2.62
843.206	0.62
843.946	4.62
844.687	2.62
845.427	0.62
846.166	2.62
846.906	2.62
847.646	2.62
848.386	1.62
849.125	2.62
849.865	3.62
850.605	3.62
851.344	0.62
852.083	1.62
852.823	2.62
853.562	1.62
854.301	2.62
855.04	0.62
855.779	3.62
856.518	0.62
857.257	2.62
857.995	-0.38
858.734	1.62
859.473	2.62
860.211	0.62
860.95	1.62
861.688	-0.38
862.426	1.62
863.165	-0.38
863.903	-0.38
864.641	-1.38
865.379	-0.38
866.117	0.62
866.855	0.62
867.593	2.62
868.33	0.62
869.068	-0.38
869.806	2.62
870.543	2.62
871.28	-0.38
872.018	-0.38
872.755	1.62
873.492	2.62
874.229	0.62
874.967	0.62
875.703	0.62
876.44	1.62
877.177	1.62
877.914	-1.38
878.651	0.62
879.387	-0.38
880.124	1.62
880.86	2.62
881.597	0.62
882.333	-1.38
883.069	3.62
883.806	0.62
884.542	0.62
885.278	2.62
886.014	1.62
886.749	0.62
887.485	2.62
888.221	0.62
888.957	1.62
889.692	2.62
890.428	2.62
891.163	1.62
891.899	1.62
892.634	1.62
893.369	-2.38
894.104	1.62
894.839	0.62
895.574	2.62
896.309	0.62
897.044	1.62
897.779	2.62
898.514	1.62
899.248	3.62
899.983	-0.38
900.717	-1.38
901.452	0.62
902.186	0.62
902.92	1.62
903.654	1.62
904.389	0.62
905.123	-0.38
905.857	2.62
906.59	0.62
907.324	-0.38
908.058	0.62
908.792	-0.38
909.525	0.62
910.259	1.62
910.992	0.62
911.726	-0.38
912.459	0.62
913.192	1.62
913.925	-1.38
914.658	-0.38
915.391	1.62
916.124	2.62
916.857	-2.38
917.59	-0.38
918.323	1.62
919.055	1.62
919.788	0.62
920.521	0.62
921.253	0.62
921.985	1.62
922.718	0.62
923.45	1.62
924.182	-1.38
924.914	-1.38
925.646	-1.38
926.378	-1.38
927.11	1.62
927.841	-1.38
928.573	0.62
929.305	-0.38
930.036	1.62
930.768	0.62
931.499	0.62
932.23	0.62
932.962	-0.38
933.693	-1.38
934.424	2.62
935.155	-0.38
935.886	0.62
936.617	1.62
937.348	1.62
938.078	0.62
938.809	0.62
939.54	2.62
940.27	0.62
941.001	1.62
941.731	1.62
942.461	-0.38
943.191	-1.38
943.922	-0.38
944.652	1.62
945.382	1.62
946.112	-1.38
946.841	1.62
947.571	-2.38
948.301	0.62
949.031	2.62
949.76	-0.38
950.49	-0.38
951.219	0.62
951.948	-0.38
952.678	-1.38
953.407	1.62
954.136	1.62
954.865	-1.38
955.594	0.62
956.323	-1.38
957.052	0.62
957.78	-1.38
958.509	-0.38
959.238	0.62
959.966	-0.38
960.695	-1.38
961.423	-0.38
962.151	0.62
962.88	1.62
963.608	-1.38
964.336	1.62
965.064	-0.38
965.792	-0.38
966.52	-0.38
967.247	0.62
967.975	2.62
968.703	2.62
969.43	3.62
970.158	-1.38
970.885	2.62
971.613	-0.38
972.34	-1.38
973.067	0.62
973.794	0.62
974.521	1.62
975.248	1.62
975.975	1.62
976.702	0.62
977.429	-0.38
978.156	1.62
978.882	0.62
979.609	1.62
980.335	0.62
981.062	2.62
981.788	1.62
982.514	-0.38
983.24	2.62
983.967	-0.38
984.693	0.62
985.419	-0.38
986.144	2.62
986.87	0.62
987.596	0.62
988.322	2.62
989.047	-1.38
989.773	1.62
990.498	1.62
991.224	1.62
991.949	1.62
992.674	-0.38
993.399	1.62
994.124	-2.38
994.849	1.62
995.574	-0.38
996.299	0.62
997.024	0.62
997.749	0.62
998.473	2.62
999.198	2.62
999.922	-1.38
1000.647	0.62
1001.371	3.62
1002.095	1.62
1002.82	-0.38
1003.544	-1.38
1004.268	0.62
1004.992	-0.38
1005.716	-0.38
1006.439	-0.38
1007.163	0.62
1007.887	-0.38
1008.611	-0.38
1009.334	1.62
1010.058	-1.38
1010.781	1.62
1011.504	0.62
1012.228	-1.38
1012.951	-1.38
1013.674	-1.38
1014.397	0.62
1015.12	-1.38
