节点500_145_QEPB04081__357__11-34-39-558.txt的数据

Date: Wed Nov 12 11:34:39 CST 2025
User: PC
Spectrometer: QEPB0408
触发模式: 0
积分时间 (秒): 1.000000E-2
Scans to average: 1
启用暗噪声校正: true
启用非线性校正: false
滑动平均宽度: 0
X轴模式: Wavelengths
Number of Pixels in Spectrum: 1044
>>>>>Begin Spectral Data<<<<<
220.843	-1.5
221.644	1.5
222.444	0.5
223.244	-0.5
224.045	-0.5
224.845	1.5
225.645	-0.5
226.445	0.5
227.245	1.5
228.045	0.5
228.845	0.5
229.645	-2.5
230.444	1.5
231.244	-1.5
232.043	0.5
232.843	1.5
233.642	2.5
234.442	2.5
235.241	0.5
236.04	1.5
236.839	0.5
237.638	0.5
238.437	1.5
239.236	1.5
240.035	-0.5
240.833	-0.5
241.632	2.5
242.43	-0.5
243.229	1.5
244.027	0.5
244.826	2.5
245.624	3.5
246.422	2.5
247.22	4.5
248.018	2.5
248.816	2.5
249.614	4.5
250.412	2.5
251.21	1.5
252.007	3.5
252.805	3.5
253.602	2.5
254.4	4.5
255.197	4.5
255.994	3.5
256.791	4.5
257.589	4.5
258.386	4.5
259.183	3.5
259.979	2.5
260.776	6.5
261.573	3.5
262.37	6.5
263.166	5.5
263.963	6.5
264.759	6.5
265.556	5.5
266.352	5.5
267.148	5.5
267.944	7.5
268.74	6.5
269.536	6.5
270.332	8.5
271.128	7.5
271.924	7.5
272.719	8.5
273.515	9.5
274.311	7.5
275.106	6.5
275.901	10.5
276.697	8.5
277.492	8.5
278.287	9.5
279.082	9.5
279.877	9.5
280.672	11.5
281.467	12.5
282.262	11.5
283.056	9.5
283.851	9.5
284.646	11.5
285.44	9.5
286.234	13.5
287.029	12.5
287.823	10.5
288.617	9.5
289.411	10.5
290.205	12.5
290.999	11.5
291.793	11.5
292.587	13.5
293.381	11.5
294.174	12.5
294.968	10.5
295.761	8.5
296.555	8.5
297.348	8.5
298.141	8.5
298.935	9.5
299.728	10.5
300.521	8.5
301.314	6.5
302.107	9.5
302.899	8.5
303.692	9.5
304.485	9.5
305.277	8.5
306.07	10.5
306.862	10.5
307.655	7.5
308.447	7.5
309.239	9.5
310.031	8.5
310.823	7.5
311.615	5.5
312.407	7.5
313.199	6.5
313.991	7.5
314.783	7.5
315.574	5.5
316.366	6.5
317.157	5.5
317.949	5.5
318.74	2.5
319.531	7.5
320.322	6.5
321.113	4.5
321.904	6.5
322.695	4.5
323.486	5.5
324.277	5.5
325.068	5.5
325.858	5.5
326.649	5.5
327.439	4.5
328.23	5.5
329.02	5.5
329.81	2.5
330.6	4.5
331.391	2.5
332.181	3.5
332.971	4.5
333.76	5.5
334.55	2.5
335.34	5.5
336.13	2.5
336.919	2.5
337.709	2.5
338.498	4.5
339.287	5.5
340.077	5.5
340.866	3.5
341.655	3.5
342.444	4.5
343.233	1.5
344.022	4.5
344.811	3.5
345.6	3.5
346.388	3.5
347.177	5.5
347.965	4.5
348.754	5.5
349.542	4.5
350.33	4.5
351.119	5.5
351.907	5.5
352.695	4.5
353.483	3.5
354.271	3.5
355.059	3.5
355.846	3.5
356.634	4.5
357.422	2.5
358.209	2.5
358.997	5.5
359.784	5.5
360.571	2.5
361.359	2.5
362.146	1.5
362.933	2.5
363.72	2.5
364.507	3.5
365.294	4.5
366.081	2.5
366.867	2.5
367.654	2.5
368.44	1.5
369.227	1.5
370.013	3.5
370.8	2.5
371.586	4.5
372.372	2.5
373.158	2.5
373.944	3.5
374.73	2.5
375.516	1.5
376.302	3.5
377.088	2.5
377.873	5.5
378.659	2.5
379.445	2.5
380.23	2.5
381.015	3.5
381.801	2.5
382.586	4.5
383.371	2.5
384.156	2.5
384.941	2.5
385.726	4.5
386.511	4.5
387.296	2.5
388.08	2.5
388.865	2.5
389.649	2.5
390.434	6.5
391.218	3.5
392.003	2.5
392.787	3.5
393.571	3.5
394.355	4.5
395.139	3.5
395.923	3.5
396.707	2.5
397.491	3.5
398.274	3.5
399.058	4.5
399.842	4.5
400.625	2.5
401.408	5.5
402.192	4.5
402.975	3.5
403.758	1.5
404.541	3.5
405.324	4.5
406.107	5.5
406.89	5.5
407.673	5.5
408.456	4.5
409.238	3.5
410.021	5.5
410.803	9.5
411.586	4.5
412.368	5.5
413.151	4.5
413.933	4.5
414.715	5.5
415.497	2.5
416.279	4.5
417.061	4.5
417.843	5.5
418.624	8.5
419.406	3.5
420.188	4.5
420.969	5.5
421.751	8.5
422.532	4.5
423.313	8.5
424.095	8.5
424.876	5.5
425.657	7.5
426.438	5.5
427.219	7.5
428	8.5
428.78	8.5
429.561	7.5
430.342	7.5
431.122	9.5
431.903	9.5
432.683	9.5
433.464	8.5
434.244	9.5
435.024	10.5
435.804	10.5
436.584	9.5
437.364	8.5
438.144	10.5
438.924	8.5
439.704	13.5
440.483	12.5
441.263	11.5
442.042	12.5
442.822	14.5
443.601	11.5
444.38	18.5
445.16	13.5
445.939	14.5
446.718	13.5
447.497	19.5
448.276	22.5
449.054	23.5
449.833	26.5
450.612	26.5
451.391	28.5
452.169	29.5
452.948	33.5
453.726	35.5
454.504	38.5
455.282	39.5
456.061	46.5
456.839	47.5
457.617	57.5
458.395	61.5
459.172	69.5
459.95	77.5
460.728	85.5
461.506	93.5
462.283	106.5
463.061	114.5
463.838	133.5
464.615	146.5
465.393	159.5
466.17	181.5
466.947	205.5
467.724	221.5
468.501	246.5
469.278	278.5
470.055	304.5
470.831	339.5
471.608	373.5
472.385	414.5
473.161	463.5
473.938	511.5
474.714	576.5
475.49	628.5
476.266	697.5
477.043	770.5
477.819	860.5
478.595	941.5
479.371	1034.5
480.146	1152.5
480.922	1272.5
481.698	1397.5
482.473	1532.5
483.249	1700.5
484.024	1869.5
484.8	2067.5
485.575	2258.5
486.35	2482.5
487.126	2744.5
487.901	3017.5
488.676	3320.5
489.451	3650.5
490.225	3994.5
491	4394.5
491.775	4802.5
492.55	5261.5
493.324	5761.5
494.099	6259.5
494.873	6853.5
495.647	7478.5
496.422	8098.5
497.196	8778.5
497.97	9444.5
498.744	10171.5
499.518	10899.5
500.292	11608.5
501.066	12303.5
501.839	12998.5
502.613	13700.5
503.387	14283.5
504.16	14833.5
504.934	15318.5
505.707	15655.5
506.48	15946.5
507.253	16113.5
508.027	16261.5
508.8	16273.5
509.573	16146.5
510.346	15942.5
511.118	15620.5
511.891	15256.5
512.664	14861.5
513.437	14307.5
514.209	13834.5
514.982	13281.5
515.754	12700.5
516.526	12226.5
517.298	11695.5
518.071	11154.5
518.843	10710.5
519.615	10248.5
520.387	9803.5
521.159	9421.5
521.93	9027.5
522.702	8695.5
523.474	8335.5
524.245	8015.5
525.017	7699.5
525.788	7407.5
526.56	7100.5
527.331	6792.5
528.102	6472.5
528.873	6230.5
529.644	5961.5
530.415	5672.5
531.186	5386.5
531.957	5141.5
532.728	4845.5
533.498	4645.5
534.269	4376.5
535.039	4141.5
535.81	3888.5
536.58	3677.5
537.351	3498.5
538.121	3319.5
538.891	3111.5
539.661	2939.5
540.431	2775.5
541.201	2635.5
541.971	2508.5
542.741	2367.5
543.51	2247.5
544.28	2133.5
545.05	2019.5
545.819	1932.5
546.588	1828.5
547.358	1741.5
548.127	1665.5
548.896	1571.5
549.665	1496.5
550.434	1409.5
551.203	1361.5
551.972	1283.5
552.741	1191.5
553.51	1143.5
554.278	1083.5
555.047	1014.5
555.815	971.5
556.584	904.5
557.352	852.5
558.121	803.5
558.889	766.5
559.657	719.5
560.425	677.5
561.193	638.5
561.961	604.5
562.729	562.5
563.496	538.5
564.264	512.5
565.032	470.5
565.799	453.5
566.567	421.5
567.334	401.5
568.101	378.5
568.869	358.5
569.636	336.5
570.403	318.5
571.17	299.5
571.937	292.5
572.704	265.5
573.471	248.5
574.237	237.5
575.004	224.5
575.771	214.5
576.537	193.5
577.303	189.5
578.07	181.5
578.836	161.5
579.602	154.5
580.368	146.5
581.134	140.5
581.9	131.5
582.666	124.5
583.432	124.5
584.198	114.5
584.964	105.5
585.729	100.5
586.495	99.5
587.26	86.5
588.025	82.5
588.791	78.5
589.556	78.5
590.321	74.5
591.086	68.5
591.851	67.5
592.616	60.5
593.381	59.5
594.146	53.5
594.911	53.5
595.675	49.5
596.44	47.5
597.204	45.5
597.969	45.5
598.733	41.5
599.497	37.5
600.261	33.5
601.025	37.5
601.79	32.5
602.553	31.5
603.317	31.5
604.081	31.5
604.845	28.5
605.609	24.5
606.372	25.5
607.136	25.5
607.899	25.5
608.662	24.5
609.426	25.5
610.189	22.5
610.952	19.5
611.715	18.5
612.478	18.5
613.241	17.5
614.004	14.5
614.767	16.5
615.529	15.5
616.292	15.5
617.055	13.5
617.817	12.5
618.579	14.5
619.342	9.5
620.104	13.5
620.866	12.5
621.628	9.5
622.39	12.5
623.152	10.5
623.914	11.5
624.676	12.5
625.438	10.5
626.199	10.5
626.961	9.5
627.722	8.5
628.484	8.5
629.245	9.5
630.006	7.5
630.768	8.5
631.529	9.5
632.29	5.5
633.051	7.5
633.812	8.5
634.573	7.5
635.333	5.5
636.094	4.5
636.855	6.5
637.615	5.5
638.376	5.5
639.136	7.5
639.896	4.5
640.657	4.5
641.417	5.5
642.177	5.5
642.937	5.5
643.697	7.5
644.457	5.5
645.216	5.5
645.976	5.5
646.736	3.5
647.495	5.5
648.255	2.5
649.014	2.5
649.774	2.5
650.533	3.5
651.292	4.5
652.051	4.5
652.81	3.5
653.569	3.5
654.328	2.5
655.087	2.5
655.846	5.5
656.604	3.5
657.363	2.5
658.121	4.5
658.88	1.5
659.638	2.5
660.397	2.5
661.155	2.5
661.913	3.5
662.671	2.5
663.429	4.5
664.187	3.5
664.945	4.5
665.703	3.5
666.46	1.5
667.218	3.5
667.976	3.5
668.733	2.5
669.49	2.5
670.248	2.5
671.005	1.5
671.762	3.5
672.519	4.5
673.276	2.5
674.033	1.5
674.79	3.5
675.547	1.5
676.304	2.5
677.06	2.5
677.817	4.5
678.574	3.5
679.33	3.5
680.086	0.5
680.843	2.5
681.599	3.5
682.355	4.5
683.111	4.5
683.867	2.5
684.623	2.5
685.379	2.5
686.135	2.5
686.89	2.5
687.646	2.5
688.402	1.5
689.157	1.5
689.912	1.5
690.668	4.5
691.423	2.5
692.178	2.5
692.933	-0.5
693.688	1.5
694.443	4.5
695.198	2.5
695.953	1.5
696.708	2.5
697.462	2.5
698.217	2.5
698.972	1.5
699.726	2.5
700.48	2.5
701.235	3.5
701.989	0.5
702.743	1.5
703.497	1.5
704.251	1.5
705.005	2.5
705.759	1.5
706.513	2.5
707.266	2.5
708.02	3.5
708.774	2.5
709.527	3.5
710.28	3.5
711.034	3.5
711.787	2.5
712.54	2.5
713.293	2.5
714.046	0.5
714.799	1.5
715.552	1.5
716.305	3.5
717.058	1.5
717.81	2.5
718.563	-0.5
719.315	2.5
720.068	3.5
720.82	2.5
721.573	4.5
722.325	2.5
723.077	2.5
723.829	2.5
724.581	2.5
725.333	3.5
726.085	1.5
726.836	2.5
727.588	1.5
728.34	1.5
729.091	3.5
729.843	2.5
730.594	1.5
731.346	1.5
732.097	3.5
732.848	3.5
733.599	3.5
734.35	2.5
735.101	5.5
735.852	1.5
736.603	2.5
737.354	1.5
738.104	2.5
738.855	3.5
739.605	2.5
740.356	1.5
741.106	0.5
741.856	0.5
742.607	1.5
743.357	2.5
744.107	1.5
744.857	2.5
745.607	3.5
746.357	1.5
747.106	2.5
747.856	1.5
748.606	2.5
749.355	3.5
750.105	3.5
750.854	0.5
751.603	1.5
752.353	3.5
753.102	1.5
753.851	4.5
754.6	3.5
755.349	4.5
756.098	2.5
756.847	3.5
757.595	4.5
758.344	3.5
759.093	2.5
759.841	0.5
760.589	4.5
761.338	2.5
762.086	3.5
762.834	1.5
763.582	3.5
764.331	4.5
765.079	3.5
765.826	2.5
766.574	2.5
767.322	5.5
768.07	4.5
768.817	5.5
769.565	5.5
770.312	3.5
771.06	4.5
771.807	4.5
772.554	2.5
773.302	2.5
774.049	4.5
774.796	5.5
775.543	2.5
776.29	6.5
777.036	4.5
777.783	4.5
778.53	6.5
779.276	5.5
780.023	3.5
780.769	4.5
781.516	6.5
782.262	7.5
783.008	5.5
783.754	7.5
784.5	4.5
785.246	5.5
785.992	6.5
786.738	5.5
787.484	2.5
788.23	4.5
788.975	4.5
789.721	5.5
790.466	5.5
791.212	4.5
791.957	6.5
792.702	6.5
793.447	6.5
794.193	4.5
794.938	5.5
795.683	7.5
796.427	4.5
797.172	3.5
797.917	6.5
798.662	5.5
799.406	5.5
800.151	3.5
800.895	5.5
801.64	3.5
802.384	4.5
803.128	4.5
803.872	5.5
804.616	5.5
805.36	4.5
806.104	4.5
806.848	6.5
807.592	6.5
808.336	3.5
809.079	2.5
809.823	3.5
810.566	2.5
811.31	4.5
812.053	3.5
812.796	1.5
813.539	4.5
814.283	3.5
815.026	4.5
815.769	4.5
816.511	4.5
817.254	3.5
817.997	3.5
818.74	3.5
819.482	3.5
820.225	4.5
820.967	2.5
821.71	3.5
822.452	4.5
823.194	4.5
823.936	2.5
824.678	2.5
825.42	2.5
826.162	3.5
826.904	5.5
827.646	2.5
828.388	3.5
829.129	3.5
829.871	2.5
830.612	2.5
831.354	2.5
832.095	1.5
832.836	2.5
833.577	1.5
834.319	4.5
835.06	0.5
835.801	3.5
836.542	3.5
837.282	2.5
838.023	5.5
838.764	3.5
839.504	3.5
840.245	1.5
840.985	2.5
841.726	2.5
842.466	1.5
843.206	1.5
843.946	2.5
844.687	4.5
845.427	3.5
846.166	5.5
846.906	2.5
847.646	1.5
848.386	3.5
849.125	2.5
849.865	1.5
850.605	2.5
851.344	0.5
852.083	2.5
852.823	3.5
853.562	1.5
854.301	0.5
855.04	2.5
855.779	0.5
856.518	1.5
857.257	1.5
857.995	3.5
858.734	3.5
859.473	2.5
860.211	4.5
860.95	0.5
861.688	2.5
862.426	3.5
863.165	2.5
863.903	-0.5
864.641	1.5
865.379	2.5
866.117	3.5
866.855	-0.5
867.593	-1.5
868.33	2.5
869.068	3.5
869.806	1.5
870.543	1.5
871.28	1.5
872.018	2.5
872.755	0.5
873.492	3.5
874.229	1.5
874.967	1.5
875.703	-1.5
876.44	2.5
877.177	1.5
877.914	0.5
878.651	2.5
879.387	1.5
880.124	0.5
880.86	2.5
881.597	1.5
882.333	0.5
883.069	1.5
883.806	3.5
884.542	1.5
885.278	1.5
886.014	0.5
886.749	1.5
887.485	1.5
888.221	2.5
888.957	0.5
889.692	1.5
890.428	0.5
891.163	1.5
891.899	-0.5
892.634	1.5
893.369	2.5
894.104	1.5
894.839	1.5
895.574	1.5
896.309	1.5
897.044	1.5
897.779	0.5
898.514	1.5
899.248	-0.5
899.983	0.5
900.717	1.5
901.452	-0.5
902.186	-1.5
902.92	0.5
903.654	0.5
904.389	1.5
905.123	0.5
905.857	-2.5
906.59	1.5
907.324	1.5
908.058	0.5
908.792	0.5
909.525	1.5
910.259	1.5
910.992	0.5
911.726	1.5
912.459	-1.5
913.192	-0.5
913.925	0.5
914.658	0.5
915.391	0.5
916.124	0.5
916.857	0.5
917.59	-0.5
918.323	2.5
919.055	1.5
919.788	1.5
920.521	-0.5
921.253	-1.5
921.985	0.5
922.718	1.5
923.45	0.5
924.182	0.5
924.914	-1.5
925.646	1.5
926.378	0.5
927.11	1.5
927.841	0.5
928.573	0.5
929.305	0.5
930.036	-0.5
930.768	-0.5
931.499	-0.5
932.23	1.5
932.962	3.5
933.693	1.5
934.424	1.5
935.155	0.5
935.886	0.5
936.617	0.5
937.348	-1.5
938.078	0.5
938.809	0.5
939.54	0.5
940.27	0.5
941.001	2.5
941.731	-1.5
942.461	-1.5
943.191	-0.5
943.922	-0.5
944.652	1.5
945.382	-0.5
946.112	2.5
946.841	-1.5
947.571	-1.5
948.301	-0.5
949.031	1.5
949.76	-0.5
950.49	0.5
951.219	-1.5
951.948	-0.5
952.678	-0.5
953.407	0.5
954.136	0.5
954.865	1.5
955.594	-0.5
956.323	1.5
957.052	-1.5
957.78	1.5
958.509	1.5
959.238	-0.5
959.966	-0.5
960.695	1.5
961.423	-0.5
962.151	0.5
962.88	0.5
963.608	3.5
964.336	-1.5
965.064	1.5
965.792	-1.5
966.52	1.5
967.247	1.5
967.975	-1.5
968.703	-0.5
969.43	2.5
970.158	0.5
970.885	-1.5
971.613	2.5
972.34	2.5
973.067	-0.5
973.794	-0.5
974.521	1.5
975.248	0.5
975.975	1.5
976.702	1.5
977.429	-0.5
978.156	0.5
978.882	1.5
979.609	-0.5
980.335	0.5
981.062	-0.5
981.788	1.5
982.514	0.5
983.24	-1.5
983.967	1.5
984.693	0.5
985.419	2.5
986.144	-0.5
986.87	1.5
987.596	2.5
988.322	-0.5
989.047	0.5
989.773	1.5
990.498	0.5
991.224	1.5
991.949	-0.5
992.674	0.5
993.399	0.5
994.124	2.5
994.849	0.5
995.574	0.5
996.299	0.5
997.024	1.5
997.749	0.5
998.473	1.5
999.198	-0.5
999.922	-0.5
1000.647	0.5
1001.371	3.5
1002.095	-1.5
1002.82	-1.5
1003.544	-0.5
1004.268	-1.5
1004.992	-2.5
1005.716	-0.5
1006.439	-1.5
1007.163	0.5
1007.887	1.5
1008.611	1.5
1009.334	0.5
1010.058	-1.5
1010.781	1.5
1011.504	0.5
1012.228	-2.5
1012.951	2.5
1013.674	-1.5
1014.397	-1.5
1015.12	0.5
