节点500_145_QEPB04081__270__11-33-17-509.txt的数据

Date: Wed Nov 12 11:33:17 CST 2025
User: PC
Spectrometer: QEPB0408
触发模式: 0
积分时间 (秒): 1.000000E-2
Scans to average: 1
启用暗噪声校正: true
启用非线性校正: false
滑动平均宽度: 0
X轴模式: Wavelengths
Number of Pixels in Spectrum: 1044
>>>>>Begin Spectral Data<<<<<
220.843	-1
221.644	2
222.444	0
223.244	0
224.045	1
224.845	1
225.645	-1
226.445	1
227.245	2
228.045	1
228.845	2
229.645	0
230.444	-1
231.244	0
232.043	1
232.843	0
233.642	2
234.442	3
235.241	1
236.04	2
236.839	3
237.638	3
238.437	4
239.236	1
240.035	4
240.833	2
241.632	1
242.43	1
243.229	1
244.027	3
244.826	6
245.624	2
246.422	1
247.22	3
248.018	2
248.816	3
249.614	5
250.412	1
251.21	2
252.007	4
252.805	4
253.602	5
254.4	4
255.197	4
255.994	3
256.791	4
257.589	3
258.386	3
259.183	6
259.979	6
260.776	4
261.573	6
262.37	5
263.166	8
263.963	6
264.759	8
265.556	3
266.352	7
267.148	8
267.944	8
268.74	6
269.536	6
270.332	7
271.128	7
271.924	9
272.719	8
273.515	7
274.311	10
275.106	9
275.901	10
276.697	7
277.492	9
278.287	11
279.082	10
279.877	10
280.672	10
281.467	11
282.262	15
283.056	11
283.851	11
284.646	10
285.44	11
286.234	8
287.029	13
287.823	11
288.617	13
289.411	11
290.205	9
290.999	10
291.793	10
292.587	10
293.381	10
294.174	11
294.968	10
295.761	8
296.555	9
297.348	6
298.141	10
298.935	12
299.728	10
300.521	12
301.314	9
302.107	10
302.899	9
303.692	10
304.485	10
305.277	7
306.07	9
306.862	9
307.655	8
308.447	10
309.239	9
310.031	8
310.823	8
311.615	9
312.407	8
313.199	7
313.991	9
314.783	6
315.574	6
316.366	5
317.157	7
317.949	6
318.74	6
319.531	7
320.322	6
321.113	6
321.904	5
322.695	6
323.486	8
324.277	3
325.068	6
325.858	7
326.649	6
327.439	5
328.23	6
329.02	3
329.81	7
330.6	6
331.391	5
332.181	5
332.971	3
333.76	2
334.55	3
335.34	4
336.13	5
336.919	3
337.709	5
338.498	4
339.287	4
340.077	5
340.866	3
341.655	2
342.444	3
343.233	5
344.022	3
344.811	3
345.6	2
346.388	5
347.177	4
347.965	4
348.754	6
349.542	3
350.33	6
351.119	4
351.907	4
352.695	3
353.483	4
354.271	3
355.059	5
355.846	4
356.634	4
357.422	5
358.209	6
358.997	3
359.784	4
360.571	4
361.359	4
362.146	4
362.933	5
363.72	4
364.507	3
365.294	3
366.081	3
366.867	3
367.654	3
368.44	5
369.227	2
370.013	1
370.8	4
371.586	3
372.372	2
373.158	5
373.944	4
374.73	2
375.516	3
376.302	6
377.088	5
377.873	2
378.659	4
379.445	3
380.23	3
381.015	3
381.801	5
382.586	4
383.371	3
384.156	3
384.941	2
385.726	4
386.511	4
387.296	6
388.08	3
388.865	3
389.649	4
390.434	3
391.218	6
392.003	6
392.787	4
393.571	3
394.355	4
395.139	4
395.923	3
396.707	3
397.491	5
398.274	4
399.058	3
399.842	4
400.625	5
401.408	3
402.192	5
402.975	3
403.758	6
404.541	6
405.324	3
406.107	4
406.89	4
407.673	3
408.456	3
409.238	5
410.021	6
410.803	6
411.586	6
412.368	6
413.151	6
413.933	8
414.715	6
415.497	8
416.279	4
417.061	6
417.843	5
418.624	8
419.406	3
420.188	4
420.969	6
421.751	5
422.532	5
423.313	6
424.095	8
424.876	8
425.657	7
426.438	6
427.219	6
428	6
428.78	5
429.561	6
430.342	9
431.122	8
431.903	8
432.683	7
433.464	10
434.244	9
435.024	11
435.804	12
436.584	11
437.364	10
438.144	13
438.924	13
439.704	10
440.483	13
441.263	13
442.042	11
442.822	14
443.601	13
444.38	16
445.16	14
445.939	17
446.718	20
447.497	20
448.276	20
449.054	18
449.833	26
450.612	24
451.391	28
452.169	31
452.948	35
453.726	37
454.504	38
455.282	43
456.061	46
456.839	50
457.617	52
458.395	60
459.172	69
459.95	74
460.728	85
461.506	93
462.283	104
463.061	112
463.838	124
464.615	143
465.393	158
466.17	173
466.947	193
467.724	215
468.501	236
469.278	271
470.055	300
470.831	336
471.608	373
472.385	411
473.161	464
473.938	511
474.714	566
475.49	614
476.266	686
477.043	769
477.819	846
478.595	935
479.371	1038
480.146	1154
480.922	1270
481.698	1391
482.473	1541
483.249	1713
484.024	1885
484.8	2061
485.575	2280
486.35	2505
487.126	2787
487.901	3083
488.676	3353
489.451	3675
490.225	4081
491	4485
491.775	4913
492.55	5424
493.324	5901
494.099	6475
494.873	7079
495.647	7698
496.422	8375
497.196	9039
497.97	9764
498.744	10510
499.518	11302
500.292	12017
501.066	12744
501.839	13443
502.613	14085
503.387	14723
504.16	15291
504.934	15701
505.707	16049
506.48	16275
507.253	16522
508.027	16608
508.8	16496
509.573	16322
510.346	16106
511.118	15725
511.891	15346
512.664	14850
513.437	14383
514.209	13785
514.982	13307
515.754	12702
516.526	12187
517.298	11623
518.071	11118
518.843	10633
519.615	10184
520.387	9720
521.159	9329
521.93	8950
522.702	8633
523.474	8282
524.245	7929
525.017	7651
525.788	7345
526.56	7049
527.331	6756
528.102	6432
528.873	6175
529.644	5895
530.415	5614
531.186	5347
531.957	5067
532.728	4806
533.498	4537
534.269	4292
535.039	4060
535.81	3838
536.58	3646
537.351	3422
538.121	3231
538.891	3077
539.661	2880
540.431	2734
541.201	2621
541.971	2469
542.741	2339
543.51	2187
544.28	2092
545.05	1979
545.819	1877
546.588	1804
547.358	1696
548.127	1629
548.896	1550
549.665	1472
550.434	1385
551.203	1334
551.972	1246
552.741	1184
553.51	1118
554.278	1067
555.047	1000
555.815	948
556.584	892
557.352	845
558.121	801
558.889	752
559.657	701
560.425	662
561.193	627
561.961	584
562.729	548
563.496	527
564.264	504
565.032	473
565.799	443
566.567	419
567.334	394
568.101	367
568.869	350
569.636	336
570.403	311
571.17	291
571.937	283
572.704	266
573.471	243
574.237	236
575.004	223
575.771	209
576.537	190
577.303	185
578.07	171
578.836	167
579.602	150
580.368	143
581.134	135
581.9	128
582.666	125
583.432	112
584.198	111
584.964	102
585.729	102
586.495	94
587.26	89
588.025	85
588.791	80
589.556	76
590.321	68
591.086	67
591.851	63
592.616	64
593.381	56
594.146	50
594.911	52
595.675	51
596.44	48
597.204	43
597.969	42
598.733	41
599.497	43
600.261	40
601.025	34
601.79	33
602.553	31
603.317	33
604.081	30
604.845	31
605.609	28
606.372	26
607.136	26
607.899	26
608.662	26
609.426	23
610.189	22
610.952	22
611.715	17
612.478	18
613.241	19
614.004	18
614.767	15
615.529	14
616.292	15
617.055	17
617.817	16
618.579	15
619.342	14
620.104	15
620.866	10
621.628	12
622.39	11
623.152	14
623.914	11
624.676	10
625.438	11
626.199	11
626.961	9
627.722	11
628.484	9
629.245	11
630.006	8
630.768	9
631.529	7
632.29	6
633.051	7
633.812	6
634.573	8
635.333	6
636.094	7
636.855	8
637.615	8
638.376	6
639.136	7
639.896	6
640.657	6
641.417	7
642.177	7
642.937	8
643.697	4
644.457	5
645.216	6
645.976	8
646.736	5
647.495	4
648.255	3
649.014	6
649.774	3
650.533	6
651.292	5
652.051	6
652.81	3
653.569	5
654.328	5
655.087	4
655.846	5
656.604	4
657.363	6
658.121	3
658.88	4
659.638	6
660.397	2
661.155	6
661.913	4
662.671	5
663.429	3
664.187	5
664.945	6
665.703	3
666.46	4
667.218	2
667.976	6
668.733	7
669.49	5
670.248	3
671.005	2
671.762	5
672.519	2
673.276	5
674.033	2
674.79	2
675.547	3
676.304	3
677.06	2
677.817	2
678.574	3
679.33	5
680.086	1
680.843	4
681.599	4
682.355	4
683.111	2
683.867	4
684.623	2
685.379	6
686.135	3
686.89	2
687.646	3
688.402	3
689.157	2
689.912	2
690.668	1
691.423	3
692.178	1
692.933	2
693.688	0
694.443	2
695.198	3
695.953	4
696.708	1
697.462	2
698.217	5
698.972	2
699.726	2
700.48	3
701.235	2
701.989	3
702.743	3
703.497	4
704.251	3
705.005	2
705.759	2
706.513	3
707.266	3
708.02	2
708.774	2
709.527	3
710.28	4
711.034	3
711.787	2
712.54	2
713.293	0
714.046	5
714.799	2
715.552	3
716.305	4
717.058	-1
717.81	2
718.563	1
719.315	3
720.068	4
720.82	1
721.573	-1
722.325	3
723.077	5
723.829	3
724.581	4
725.333	2
726.085	2
726.836	3
727.588	3
728.34	4
729.091	3
729.843	2
730.594	4
731.346	2
732.097	4
732.848	1
733.599	5
734.35	3
735.101	3
735.852	2
736.603	5
737.354	4
738.104	3
738.855	2
739.605	3
740.356	5
741.106	3
741.856	2
742.607	4
743.357	1
744.107	3
744.857	2
745.607	3
746.357	3
747.106	2
747.856	3
748.606	2
749.355	4
750.105	3
750.854	3
751.603	4
752.353	2
753.102	3
753.851	1
754.6	5
755.349	3
756.098	1
756.847	4
757.595	4
758.344	4
759.093	6
759.841	4
760.589	4
761.338	3
762.086	3
762.834	5
763.582	6
764.331	3
765.079	4
765.826	3
766.574	3
767.322	6
768.07	4
768.817	4
769.565	7
770.312	2
771.06	5
771.807	4
772.554	6
773.302	4
774.049	5
774.796	4
775.543	4
776.29	6
777.036	4
777.783	5
778.53	5
779.276	7
780.023	7
780.769	6
781.516	7
782.262	5
783.008	7
783.754	6
784.5	7
785.246	6
785.992	6
786.738	5
787.484	7
788.23	6
788.975	6
789.721	5
790.466	7
791.212	7
791.957	4
792.702	5
793.447	8
794.193	6
794.938	6
795.683	7
796.427	6
797.172	8
797.917	5
798.662	4
799.406	3
800.151	4
800.895	7
801.64	5
802.384	7
803.128	6
803.872	4
804.616	6
805.36	6
806.104	6
806.848	5
807.592	2
808.336	6
809.079	4
809.823	5
810.566	6
811.31	5
812.053	5
812.796	5
813.539	4
814.283	6
815.026	3
815.769	5
816.511	2
817.254	3
817.997	4
818.74	3
819.482	6
820.225	4
820.967	5
821.71	6
822.452	1
823.194	4
823.936	4
824.678	5
825.42	4
826.162	3
826.904	3
827.646	3
828.388	4
829.129	4
829.871	4
830.612	2
831.354	3
832.095	2
832.836	4
833.577	3
834.319	4
835.06	5
835.801	4
836.542	3
837.282	3
838.023	4
838.764	3
839.504	4
840.245	4
840.985	2
841.726	3
842.466	3
843.206	2
843.946	5
844.687	2
845.427	3
846.166	1
846.906	2
847.646	2
848.386	2
849.125	5
849.865	3
850.605	5
851.344	1
852.083	4
852.823	2
853.562	3
854.301	2
855.04	2
855.779	2
856.518	3
857.257	4
857.995	3
858.734	2
859.473	2
860.211	1
860.95	1
861.688	4
862.426	3
863.165	1
863.903	2
864.641	3
865.379	1
866.117	2
866.855	2
867.593	2
868.33	2
869.068	0
869.806	1
870.543	0
871.28	3
872.018	0
872.755	3
873.492	3
874.229	1
874.967	1
875.703	3
876.44	2
877.177	2
877.914	1
878.651	1
879.387	0
880.124	2
880.86	1
881.597	1
882.333	1
883.069	0
883.806	1
884.542	0
885.278	1
886.014	3
886.749	2
887.485	2
888.221	3
888.957	2
889.692	3
890.428	3
891.163	1
891.899	2
892.634	1
893.369	1
894.104	1
894.839	-1
895.574	1
896.309	3
897.044	1
897.779	1
898.514	2
899.248	-1
899.983	2
900.717	0
901.452	2
902.186	2
902.92	0
903.654	1
904.389	1
905.123	1
905.857	2
906.59	1
907.324	2
908.058	0
908.792	0
909.525	2
910.259	2
910.992	3
911.726	2
912.459	1
913.192	2
913.925	-1
914.658	1
915.391	2
916.124	2
916.857	2
917.59	1
918.323	1
919.055	2
919.788	1
920.521	1
921.253	3
921.985	1
922.718	0
923.45	1
924.182	0
924.914	2
925.646	-1
926.378	1
927.11	2
927.841	-1
928.573	2
929.305	0
930.036	1
930.768	0
931.499	1
932.23	1
932.962	1
933.693	0
934.424	0
935.155	2
935.886	0
936.617	0
937.348	-1
938.078	-1
938.809	1
939.54	-1
940.27	1
941.001	-1
941.731	1
942.461	2
943.191	2
943.922	-1
944.652	1
945.382	2
946.112	2
946.841	2
947.571	2
948.301	0
949.031	1
949.76	1
950.49	1
951.219	-1
951.948	0
952.678	-1
953.407	3
954.136	1
954.865	0
955.594	1
956.323	0
957.052	0
957.78	1
958.509	0
959.238	0
959.966	0
960.695	0
961.423	1
962.151	2
962.88	1
963.608	1
964.336	2
965.064	-1
965.792	0
966.52	2
967.247	1
967.975	0
968.703	0
969.43	1
970.158	0
970.885	1
971.613	2
972.34	-1
973.067	2
973.794	-1
974.521	1
975.248	1
975.975	0
976.702	1
977.429	2
978.156	3
978.882	-2
979.609	1
980.335	1
981.062	-2
981.788	1
982.514	1
983.24	1
983.967	1
984.693	1
985.419	2
986.144	0
986.87	-1
987.596	0
988.322	1
989.047	1
989.773	1
990.498	2
991.224	1
991.949	0
992.674	-1
993.399	0
994.124	1
994.849	2
995.574	0
996.299	1
997.024	2
997.749	3
998.473	3
999.198	1
999.922	-1
1000.647	0
1001.371	1
1002.095	-2
1002.82	1
1003.544	-1
1004.268	2
1004.992	2
1005.716	1
1006.439	1
1007.163	-1
1007.887	0
1008.611	1
1009.334	0
1010.058	1
1010.781	-1
1011.504	0
1012.228	1
1012.951	1
1013.674	2
1014.397	-1
1015.12	-1
