节点500_145_QEPB04081__512__11-37-07-476.txt的数据

Date: Wed Nov 12 11:37:07 CST 2025
User: PC
Spectrometer: QEPB0408
触发模式: 0
积分时间 (秒): 1.000000E-2
Scans to average: 1
启用暗噪声校正: true
启用非线性校正: false
滑动平均宽度: 0
X轴模式: Wavelengths
Number of Pixels in Spectrum: 1044
>>>>>Begin Spectral Data<<<<<
220.843	-1.12
221.644	0.88
222.444	0.88
223.244	1.88
224.045	-1.12
224.845	1.88
225.645	0.88
226.445	2.88
227.245	-1.12
228.045	-0.12
228.845	3.88
229.645	1.88
230.444	1.88
231.244	0.88
232.043	0.88
232.843	2.88
233.642	0.88
234.442	1.88
235.241	-1.12
236.04	1.88
236.839	1.88
237.638	1.88
238.437	-0.12
239.236	1.88
240.035	1.88
240.833	2.88
241.632	1.88
242.43	0.88
243.229	0.88
244.027	2.88
244.826	-0.12
245.624	2.88
246.422	3.88
247.22	3.88
248.018	3.88
248.816	5.88
249.614	2.88
250.412	1.88
251.21	1.88
252.007	4.88
252.805	2.88
253.602	4.88
254.4	4.88
255.197	4.88
255.994	1.88
256.791	2.88
257.589	3.88
258.386	6.88
259.183	4.88
259.979	3.88
260.776	5.88
261.573	4.88
262.37	3.88
263.166	2.88
263.963	5.88
264.759	6.88
265.556	3.88
266.352	6.88
267.148	5.88
267.944	8.88
268.74	6.88
269.536	7.88
270.332	9.88
271.128	9.88
271.924	8.88
272.719	6.88
273.515	6.88
274.311	7.88
275.106	9.88
275.901	8.88
276.697	7.88
277.492	8.88
278.287	7.88
279.082	9.88
279.877	7.88
280.672	9.88
281.467	10.88
282.262	7.88
283.056	10.88
283.851	8.88
284.646	8.88
285.44	10.88
286.234	9.88
287.029	13.88
287.823	10.88
288.617	10.88
289.411	10.88
290.205	12.88
290.999	10.88
291.793	11.88
292.587	11.88
293.381	9.88
294.174	11.88
294.968	10.88
295.761	10.88
296.555	7.88
297.348	10.88
298.141	9.88
298.935	9.88
299.728	10.88
300.521	8.88
301.314	9.88
302.107	9.88
302.899	7.88
303.692	11.88
304.485	9.88
305.277	10.88
306.07	11.88
306.862	7.88
307.655	8.88
308.447	9.88
309.239	10.88
310.031	6.88
310.823	8.88
311.615	8.88
312.407	10.88
313.199	6.88
313.991	8.88
314.783	6.88
315.574	5.88
316.366	6.88
317.157	7.88
317.949	5.88
318.74	5.88
319.531	6.88
320.322	6.88
321.113	3.88
321.904	6.88
322.695	1.88
323.486	4.88
324.277	4.88
325.068	3.88
325.858	4.88
326.649	6.88
327.439	7.88
328.23	5.88
329.02	3.88
329.81	5.88
330.6	2.88
331.391	3.88
332.181	3.88
332.971	5.88
333.76	3.88
334.55	2.88
335.34	5.88
336.13	1.88
336.919	4.88
337.709	4.88
338.498	2.88
339.287	5.88
340.077	4.88
340.866	1.88
341.655	3.88
342.444	2.88
343.233	2.88
344.022	3.88
344.811	5.88
345.6	3.88
346.388	4.88
347.177	3.88
347.965	4.88
348.754	3.88
349.542	4.88
350.33	3.88
351.119	3.88
351.907	2.88
352.695	2.88
353.483	3.88
354.271	4.88
355.059	1.88
355.846	4.88
356.634	3.88
357.422	1.88
358.209	2.88
358.997	4.88
359.784	1.88
360.571	3.88
361.359	5.88
362.146	3.88
362.933	2.88
363.72	2.88
364.507	2.88
365.294	3.88
366.081	3.88
366.867	2.88
367.654	0.88
368.44	3.88
369.227	3.88
370.013	1.88
370.8	3.88
371.586	2.88
372.372	1.88
373.158	1.88
373.944	3.88
374.73	0.88
375.516	1.88
376.302	1.88
377.088	2.88
377.873	2.88
378.659	2.88
379.445	4.88
380.23	2.88
381.015	3.88
381.801	3.88
382.586	3.88
383.371	4.88
384.156	2.88
384.941	1.88
385.726	3.88
386.511	2.88
387.296	3.88
388.08	2.88
388.865	2.88
389.649	2.88
390.434	4.88
391.218	-0.12
392.003	3.88
392.787	1.88
393.571	2.88
394.355	4.88
395.139	2.88
395.923	3.88
396.707	4.88
397.491	4.88
398.274	2.88
399.058	3.88
399.842	3.88
400.625	3.88
401.408	4.88
402.192	5.88
402.975	3.88
403.758	4.88
404.541	5.88
405.324	4.88
406.107	4.88
406.89	5.88
407.673	4.88
408.456	3.88
409.238	2.88
410.021	4.88
410.803	4.88
411.586	3.88
412.368	5.88
413.151	4.88
413.933	5.88
414.715	5.88
415.497	4.88
416.279	5.88
417.061	2.88
417.843	5.88
418.624	5.88
419.406	4.88
420.188	6.88
420.969	5.88
421.751	6.88
422.532	6.88
423.313	7.88
424.095	5.88
424.876	5.88
425.657	5.88
426.438	6.88
427.219	6.88
428	5.88
428.78	7.88
429.561	7.88
430.342	9.88
431.122	8.88
431.903	5.88
432.683	9.88
433.464	8.88
434.244	9.88
435.024	9.88
435.804	11.88
436.584	9.88
437.364	9.88
438.144	9.88
438.924	10.88
439.704	13.88
440.483	11.88
441.263	12.88
442.042	11.88
442.822	11.88
443.601	15.88
444.38	14.88
445.16	14.88
445.939	17.88
446.718	16.88
447.497	21.88
448.276	20.88
449.054	24.88
449.833	25.88
450.612	23.88
451.391	28.88
452.169	32.88
452.948	33.88
453.726	39.88
454.504	38.88
455.282	44.88
456.061	48.88
456.839	54.88
457.617	58.88
458.395	69.88
459.172	69.88
459.95	78.88
460.728	87.88
461.506	99.88
462.283	109.88
463.061	123.88
463.838	134.88
464.615	149.88
465.393	166.88
466.17	186.88
466.947	208.88
467.724	234.88
468.501	261.88
469.278	286.88
470.055	318.88
470.831	347.88
471.608	391.88
472.385	432.88
473.161	484.88
473.938	525.88
474.714	590.88
475.49	644.88
476.266	724.88
477.043	792.88
477.819	870.88
478.595	962.88
479.371	1069.88
480.146	1150.88
480.922	1283.88
481.698	1397.88
482.473	1540.88
483.249	1689.88
484.024	1846.88
484.8	2031.88
485.575	2228.88
486.35	2444.88
487.126	2689.88
487.901	2949.88
488.676	3233.88
489.451	3526.88
490.225	3839.88
491	4230.88
491.775	4622.88
492.55	5033.88
493.324	5527.88
494.099	6025.88
494.873	6556.88
495.647	7101.88
496.422	7685.88
497.196	8319.88
497.97	8960.88
498.744	9632.88
499.518	10299.88
500.292	11015.88
501.066	11699.88
501.839	12296.88
502.613	12949.88
503.387	13534.88
504.16	14126.88
504.934	14590.88
505.707	14931.88
506.48	15292.88
507.253	15582.88
508.027	15701.88
508.8	15763.88
509.573	15686.88
510.346	15545.88
511.118	15287.88
511.891	15006.88
512.664	14590.88
513.437	14186.88
514.209	13710.88
514.982	13175.88
515.754	12699.88
516.526	12246.88
517.298	11743.88
518.071	11208.88
518.843	10766.88
519.615	10276.88
520.387	9816.88
521.159	9443.88
521.93	9080.88
522.702	8747.88
523.474	8378.88
524.245	8065.88
525.017	7750.88
525.788	7430.88
526.56	7089.88
527.331	6827.88
528.102	6543.88
528.873	6264.88
529.644	5979.88
530.415	5744.88
531.186	5494.88
531.957	5189.88
532.728	4952.88
533.498	4703.88
534.269	4459.88
535.039	4220.88
535.81	3983.88
536.58	3773.88
537.351	3592.88
538.121	3367.88
538.891	3199.88
539.661	2996.88
540.431	2840.88
541.201	2687.88
541.971	2563.88
542.741	2413.88
543.51	2296.88
544.28	2177.88
545.05	2082.88
545.819	1963.88
546.588	1843.88
547.358	1774.88
548.127	1682.88
548.896	1606.88
549.665	1530.88
550.434	1454.88
551.203	1370.88
551.972	1289.88
552.741	1221.88
553.51	1174.88
554.278	1113.88
555.047	1052.88
555.815	988.88
556.584	931.88
557.352	880.88
558.121	839.88
558.889	787.88
559.657	735.88
560.425	699.88
561.193	653.88
561.961	624.88
562.729	595.88
563.496	554.88
564.264	523.88
565.032	497.88
565.799	469.88
566.567	437.88
567.334	413.88
568.101	390.88
568.869	366.88
569.636	351.88
570.403	327.88
571.17	312.88
571.937	296.88
572.704	286.88
573.471	263.88
574.237	246.88
575.004	230.88
575.771	214.88
576.537	209.88
577.303	198.88
578.07	181.88
578.836	175.88
579.602	159.88
580.368	150.88
581.134	145.88
581.9	139.88
582.666	134.88
583.432	126.88
584.198	117.88
584.964	105.88
585.729	105.88
586.495	100.88
587.26	95.88
588.025	83.88
588.791	82.88
589.556	80.88
590.321	72.88
591.086	76.88
591.851	67.88
592.616	69.88
593.381	59.88
594.146	56.88
594.911	55.88
595.675	51.88
596.44	51.88
597.204	50.88
597.969	44.88
598.733	39.88
599.497	41.88
600.261	38.88
601.025	36.88
601.79	34.88
602.553	34.88
603.317	31.88
604.081	33.88
604.845	28.88
605.609	29.88
606.372	26.88
607.136	27.88
607.899	24.88
608.662	25.88
609.426	23.88
610.189	23.88
610.952	21.88
611.715	18.88
612.478	20.88
613.241	18.88
614.004	19.88
614.767	16.88
615.529	17.88
616.292	16.88
617.055	16.88
617.817	15.88
618.579	15.88
619.342	13.88
620.104	11.88
620.866	12.88
621.628	11.88
622.39	10.88
623.152	11.88
623.914	10.88
624.676	11.88
625.438	10.88
626.199	9.88
626.961	9.88
627.722	7.88
628.484	9.88
629.245	8.88
630.006	9.88
630.768	6.88
631.529	7.88
632.29	5.88
633.051	3.88
633.812	7.88
634.573	8.88
635.333	7.88
636.094	7.88
636.855	7.88
637.615	5.88
638.376	5.88
639.136	8.88
639.896	8.88
640.657	5.88
641.417	5.88
642.177	5.88
642.937	2.88
643.697	5.88
644.457	6.88
645.216	2.88
645.976	5.88
646.736	6.88
647.495	5.88
648.255	3.88
649.014	2.88
649.774	3.88
650.533	2.88
651.292	6.88
652.051	5.88
652.81	5.88
653.569	2.88
654.328	2.88
655.087	0.88
655.846	5.88
656.604	1.88
657.363	2.88
658.121	5.88
658.88	3.88
659.638	2.88
660.397	3.88
661.155	1.88
661.913	3.88
662.671	1.88
663.429	4.88
664.187	2.88
664.945	4.88
665.703	3.88
666.46	1.88
667.218	4.88
667.976	2.88
668.733	3.88
669.49	3.88
670.248	2.88
671.005	3.88
671.762	4.88
672.519	2.88
673.276	2.88
674.033	3.88
674.79	1.88
675.547	1.88
676.304	4.88
677.06	2.88
677.817	2.88
678.574	4.88
679.33	2.88
680.086	3.88
680.843	2.88
681.599	3.88
682.355	4.88
683.111	2.88
683.867	1.88
684.623	1.88
685.379	3.88
686.135	1.88
686.89	1.88
687.646	2.88
688.402	0.88
689.157	4.88
689.912	3.88
690.668	1.88
691.423	1.88
692.178	2.88
692.933	0.88
693.688	3.88
694.443	2.88
695.198	1.88
695.953	3.88
696.708	2.88
697.462	1.88
698.217	2.88
698.972	1.88
699.726	2.88
700.48	-0.12
701.235	3.88
701.989	1.88
702.743	0.88
703.497	3.88
704.251	0.88
705.005	2.88
705.759	1.88
706.513	3.88
707.266	0.88
708.02	2.88
708.774	3.88
709.527	1.88
710.28	1.88
711.034	2.88
711.787	4.88
712.54	3.88
713.293	1.88
714.046	0.88
714.799	1.88
715.552	2.88
716.305	2.88
717.058	2.88
717.81	2.88
718.563	4.88
719.315	4.88
720.068	1.88
720.82	4.88
721.573	4.88
722.325	1.88
723.077	1.88
723.829	4.88
724.581	3.88
725.333	0.88
726.085	0.88
726.836	1.88
727.588	1.88
728.34	0.88
729.091	2.88
729.843	4.88
730.594	0.88
731.346	2.88
732.097	1.88
732.848	2.88
733.599	2.88
734.35	-0.12
735.101	2.88
735.852	2.88
736.603	3.88
737.354	3.88
738.104	4.88
738.855	-0.12
739.605	1.88
740.356	2.88
741.106	1.88
741.856	4.88
742.607	2.88
743.357	2.88
744.107	-0.12
744.857	3.88
745.607	2.88
746.357	3.88
747.106	2.88
747.856	1.88
748.606	1.88
749.355	3.88
750.105	0.88
750.854	2.88
751.603	3.88
752.353	2.88
753.102	2.88
753.851	3.88
754.6	3.88
755.349	2.88
756.098	3.88
756.847	0.88
757.595	3.88
758.344	4.88
759.093	2.88
759.841	4.88
760.589	3.88
761.338	2.88
762.086	1.88
762.834	5.88
763.582	2.88
764.331	3.88
765.079	3.88
765.826	1.88
766.574	4.88
767.322	3.88
768.07	3.88
768.817	4.88
769.565	3.88
770.312	4.88
771.06	1.88
771.807	2.88
772.554	6.88
773.302	6.88
774.049	2.88
774.796	3.88
775.543	4.88
776.29	4.88
777.036	4.88
777.783	3.88
778.53	3.88
779.276	2.88
780.023	4.88
780.769	5.88
781.516	3.88
782.262	4.88
783.008	3.88
783.754	5.88
784.5	5.88
785.246	2.88
785.992	7.88
786.738	5.88
787.484	4.88
788.23	4.88
788.975	5.88
789.721	3.88
790.466	5.88
791.212	5.88
791.957	5.88
792.702	5.88
793.447	4.88
794.193	6.88
794.938	8.88
795.683	7.88
796.427	5.88
797.172	4.88
797.917	6.88
798.662	5.88
799.406	5.88
800.151	4.88
800.895	5.88
801.64	4.88
802.384	5.88
803.128	3.88
803.872	3.88
804.616	3.88
805.36	4.88
806.104	4.88
806.848	3.88
807.592	4.88
808.336	4.88
809.079	5.88
809.823	3.88
810.566	5.88
811.31	4.88
812.053	5.88
812.796	3.88
813.539	4.88
814.283	2.88
815.026	4.88
815.769	5.88
816.511	5.88
817.254	2.88
817.997	2.88
818.74	3.88
819.482	4.88
820.225	3.88
820.967	3.88
821.71	0.88
822.452	4.88
823.194	1.88
823.936	3.88
824.678	0.88
825.42	3.88
826.162	1.88
826.904	1.88
827.646	3.88
828.388	0.88
829.129	5.88
829.871	2.88
830.612	5.88
831.354	2.88
832.095	2.88
832.836	3.88
833.577	2.88
834.319	1.88
835.06	3.88
835.801	0.88
836.542	2.88
837.282	2.88
838.023	2.88
838.764	0.88
839.504	3.88
840.245	2.88
840.985	3.88
841.726	3.88
842.466	2.88
843.206	3.88
843.946	1.88
844.687	3.88
845.427	1.88
846.166	2.88
846.906	1.88
847.646	1.88
848.386	2.88
849.125	1.88
849.865	4.88
850.605	0.88
851.344	2.88
852.083	3.88
852.823	1.88
853.562	2.88
854.301	5.88
855.04	1.88
855.779	1.88
856.518	1.88
857.257	1.88
857.995	-1.12
858.734	2.88
859.473	2.88
860.211	2.88
860.95	2.88
861.688	1.88
862.426	-0.12
863.165	-1.12
863.903	1.88
864.641	0.88
865.379	2.88
866.117	1.88
866.855	1.88
867.593	1.88
868.33	1.88
869.068	2.88
869.806	0.88
870.543	2.88
871.28	3.88
872.018	0.88
872.755	0.88
873.492	1.88
874.229	-0.12
874.967	2.88
875.703	2.88
876.44	3.88
877.177	1.88
877.914	-0.12
878.651	-1.12
879.387	-0.12
880.124	0.88
880.86	0.88
881.597	-0.12
882.333	1.88
883.069	0.88
883.806	-0.12
884.542	2.88
885.278	-0.12
886.014	0.88
886.749	2.88
887.485	-1.12
888.221	1.88
888.957	0.88
889.692	-0.12
890.428	-0.12
891.163	0.88
891.899	1.88
892.634	1.88
893.369	2.88
894.104	1.88
894.839	0.88
895.574	1.88
896.309	-0.12
897.044	1.88
897.779	-0.12
898.514	0.88
899.248	1.88
899.983	-0.12
900.717	1.88
901.452	0.88
902.186	0.88
902.92	-1.12
903.654	2.88
904.389	0.88
905.123	1.88
905.857	2.88
906.59	-0.12
907.324	0.88
908.058	-0.12
908.792	1.88
909.525	0.88
910.259	0.88
910.992	0.88
911.726	-1.12
912.459	2.88
913.192	-0.12
913.925	0.88
914.658	0.88
915.391	2.88
916.124	1.88
916.857	2.88
917.59	2.88
918.323	1.88
919.055	1.88
919.788	1.88
920.521	-0.12
921.253	3.88
921.985	1.88
922.718	1.88
923.45	0.88
924.182	1.88
924.914	0.88
925.646	-1.12
926.378	-1.12
927.11	-0.12
927.841	0.88
928.573	0.88
929.305	1.88
930.036	0.88
930.768	-0.12
931.499	0.88
932.23	-1.12
932.962	1.88
933.693	1.88
934.424	-0.12
935.155	1.88
935.886	-1.12
936.617	-0.12
937.348	1.88
938.078	0.88
938.809	0.88
939.54	0.88
940.27	2.88
941.001	0.88
941.731	0.88
942.461	-1.12
943.191	-1.12
943.922	1.88
944.652	1.88
945.382	1.88
946.112	1.88
946.841	0.88
947.571	1.88
948.301	3.88
949.031	1.88
949.76	1.88
950.49	1.88
951.219	-3.12
951.948	0.88
952.678	-1.12
953.407	0.88
954.136	1.88
954.865	0.88
955.594	-0.12
956.323	2.88
957.052	1.88
957.78	-1.12
958.509	0.88
959.238	-0.12
959.966	-1.12
960.695	0.88
961.423	0.88
962.151	-0.12
962.88	-0.12
963.608	-1.12
964.336	1.88
965.064	-0.12
965.792	1.88
966.52	-0.12
967.247	-0.12
967.975	0.88
968.703	0.88
969.43	-0.12
970.158	0.88
970.885	2.88
971.613	-1.12
972.34	-2.12
973.067	1.88
973.794	1.88
974.521	3.88
975.248	0.88
975.975	-1.12
976.702	-0.12
977.429	0.88
978.156	0.88
978.882	2.88
979.609	0.88
980.335	0.88
981.062	1.88
981.788	1.88
982.514	1.88
983.24	1.88
983.967	0.88
984.693	0.88
985.419	-0.12
986.144	-0.12
986.87	0.88
987.596	2.88
988.322	0.88
989.047	0.88
989.773	-1.12
990.498	0.88
991.224	-0.12
991.949	1.88
992.674	0.88
993.399	-1.12
994.124	-0.12
994.849	1.88
995.574	-1.12
996.299	0.88
997.024	1.88
997.749	0.88
998.473	0.88
999.198	0.88
999.922	0.88
1000.647	-1.12
1001.371	2.88
1002.095	-1.12
1002.82	-1.12
1003.544	1.88
1004.268	1.88
1004.992	-2.12
1005.716	-0.12
1006.439	-0.12
1007.163	-0.12
1007.887	1.88
1008.611	1.88
1009.334	0.88
1010.058	1.88
1010.781	-0.12
1011.504	-0.12
1012.228	4.88
1012.951	-2.12
1013.674	-1.12
1014.397	-0.12
1015.12	0.88
