节点500_145_QEPB04081__537__11-37-28-472.txt的数据

Date: Wed Nov 12 11:37:28 CST 2025
User: PC
Spectrometer: QEPB0408
触发模式: 0
积分时间 (秒): 1.000000E-2
Scans to average: 1
启用暗噪声校正: true
启用非线性校正: false
滑动平均宽度: 0
X轴模式: Wavelengths
Number of Pixels in Spectrum: 1044
>>>>>Begin Spectral Data<<<<<
220.843	-1
221.644	-2
222.444	0
223.244	-1
224.045	0
224.845	0
225.645	-1
226.445	1
227.245	1
228.045	1
228.845	1
229.645	0
230.444	-1
231.244	-1
232.043	0
232.843	0
233.642	1
234.442	-1
235.241	2
236.04	0
236.839	1
237.638	-2
238.437	1
239.236	-1
240.035	1
240.833	0
241.632	0
242.43	2
243.229	1
244.027	3
244.826	3
245.624	1
246.422	2
247.22	2
248.018	2
248.816	1
249.614	2
250.412	2
251.21	0
252.007	2
252.805	3
253.602	3
254.4	2
255.197	4
255.994	5
256.791	1
257.589	1
258.386	3
259.183	5
259.979	2
260.776	5
261.573	3
262.37	1
263.166	5
263.963	6
264.759	5
265.556	5
266.352	5
267.148	4
267.944	5
268.74	5
269.536	5
270.332	9
271.128	8
271.924	7
272.719	6
273.515	5
274.311	7
275.106	8
275.901	7
276.697	9
277.492	7
278.287	8
279.082	8
279.877	9
280.672	9
281.467	11
282.262	12
283.056	8
283.851	11
284.646	7
285.44	10
286.234	9
287.029	8
287.823	10
288.617	10
289.411	10
290.205	8
290.999	7
291.793	10
292.587	9
293.381	8
294.174	8
294.968	11
295.761	11
296.555	8
297.348	7
298.141	7
298.935	9
299.728	6
300.521	9
301.314	7
302.107	8
302.899	8
303.692	7
304.485	10
305.277	8
306.07	7
306.862	7
307.655	7
308.447	7
309.239	5
310.031	7
310.823	6
311.615	8
312.407	6
313.199	7
313.991	7
314.783	5
315.574	5
316.366	7
317.157	6
317.949	4
318.74	3
319.531	4
320.322	4
321.113	3
321.904	3
322.695	4
323.486	4
324.277	3
325.068	5
325.858	2
326.649	2
327.439	4
328.23	3
329.02	4
329.81	2
330.6	5
331.391	2
332.181	1
332.971	3
333.76	3
334.55	3
335.34	1
336.13	7
336.919	5
337.709	4
338.498	1
339.287	3
340.077	2
340.866	4
341.655	2
342.444	2
343.233	2
344.022	2
344.811	2
345.6	0
346.388	2
347.177	3
347.965	2
348.754	2
349.542	3
350.33	5
351.119	4
351.907	2
352.695	2
353.483	2
354.271	4
355.059	0
355.846	1
356.634	2
357.422	2
358.209	1
358.997	3
359.784	2
360.571	1
361.359	3
362.146	3
362.933	3
363.72	0
364.507	3
365.294	4
366.081	0
366.867	4
367.654	1
368.44	3
369.227	5
370.013	2
370.8	1
371.586	2
372.372	2
373.158	2
373.944	0
374.73	2
375.516	3
376.302	4
377.088	3
377.873	2
378.659	1
379.445	2
380.23	4
381.015	1
381.801	4
382.586	3
383.371	2
384.156	2
384.941	1
385.726	3
386.511	0
387.296	3
388.08	2
388.865	2
389.649	3
390.434	1
391.218	4
392.003	1
392.787	4
393.571	4
394.355	2
395.139	2
395.923	4
396.707	3
397.491	4
398.274	1
399.058	2
399.842	3
400.625	4
401.408	5
402.192	3
402.975	2
403.758	3
404.541	3
405.324	3
406.107	3
406.89	2
407.673	2
408.456	2
409.238	7
410.021	3
410.803	3
411.586	6
412.368	3
413.151	2
413.933	4
414.715	4
415.497	4
416.279	5
417.061	3
417.843	2
418.624	3
419.406	5
420.188	5
420.969	4
421.751	4
422.532	7
423.313	4
424.095	5
424.876	6
425.657	4
426.438	6
427.219	7
428	8
428.78	6
429.561	8
430.342	5
431.122	8
431.903	8
432.683	9
433.464	10
434.244	9
435.024	11
435.804	8
436.584	9
437.364	10
438.144	10
438.924	8
439.704	12
440.483	10
441.263	10
442.042	13
442.822	12
443.601	11
444.38	14
445.16	13
445.939	15
446.718	16
447.497	21
448.276	21
449.054	18
449.833	24
450.612	23
451.391	30
452.169	30
452.948	34
453.726	38
454.504	40
455.282	43
456.061	48
456.839	56
457.617	55
458.395	62
459.172	73
459.95	77
460.728	92
461.506	94
462.283	110
463.061	122
463.838	131
464.615	152
465.393	167
466.17	181
466.947	204
467.724	228
468.501	248
469.278	277
470.055	315
470.831	353
471.608	388
472.385	425
473.161	475
473.938	513
474.714	579
475.49	641
476.266	708
477.043	781
477.819	861
478.595	954
479.371	1036
480.146	1151
480.922	1249
481.698	1371
482.473	1513
483.249	1668
484.024	1838
484.8	2008
485.575	2198
486.35	2419
487.126	2618
487.901	2902
488.676	3175
489.451	3475
490.225	3807
491	4181
491.775	4547
492.55	4965
493.324	5372
494.099	5905
494.873	6426
495.647	6958
496.422	7552
497.196	8168
497.97	8786
498.744	9460
499.518	10136
500.292	10791
501.066	11507
501.839	12119
502.613	12733
503.387	13328
504.16	13843
504.934	14328
505.707	14739
506.48	15018
507.253	15291
508.027	15428
508.8	15472
509.573	15432
510.346	15344
511.118	15054
511.891	14768
512.664	14415
513.437	13978
514.209	13557
514.982	13048
515.754	12567
516.526	12079
517.298	11594
518.071	11083
518.843	10584
519.615	10156
520.387	9733
521.159	9354
521.93	8964
522.702	8595
523.474	8315
524.245	7954
525.017	7661
525.788	7314
526.56	7058
527.331	6780
528.102	6472
528.873	6191
529.644	5909
530.415	5632
531.186	5418
531.957	5165
532.728	4892
533.498	4647
534.269	4411
535.039	4163
535.81	3944
536.58	3738
537.351	3533
538.121	3325
538.891	3171
539.661	2983
540.431	2818
541.201	2656
541.971	2524
542.741	2399
543.51	2259
544.28	2154
545.05	2035
545.819	1952
546.588	1844
547.358	1736
548.127	1650
548.896	1590
549.665	1487
550.434	1430
551.203	1369
551.972	1293
552.741	1220
553.51	1146
554.278	1089
555.047	1043
555.815	974
556.584	924
557.352	859
558.121	824
558.889	774
559.657	729
560.425	688
561.193	654
561.961	619
562.729	574
563.496	547
564.264	519
565.032	486
565.799	464
566.567	439
567.334	416
568.101	388
568.869	365
569.636	344
570.403	324
571.17	306
571.937	289
572.704	276
573.471	254
574.237	250
575.004	232
575.771	210
576.537	201
577.303	195
578.07	185
578.836	177
579.602	158
580.368	153
581.134	135
581.9	139
582.666	137
583.432	120
584.198	114
584.964	112
585.729	99
586.495	94
587.26	91
588.025	90
588.791	78
589.556	75
590.321	73
591.086	68
591.851	65
592.616	59
593.381	61
594.146	53
594.911	55
595.675	51
596.44	51
597.204	48
597.969	46
598.733	43
599.497	39
600.261	37
601.025	38
601.79	35
602.553	31
603.317	31
604.081	31
604.845	29
605.609	29
606.372	25
607.136	24
607.899	23
608.662	22
609.426	24
610.189	21
610.952	21
611.715	18
612.478	19
613.241	16
614.004	17
614.767	18
615.529	18
616.292	16
617.055	13
617.817	14
618.579	14
619.342	12
620.104	12
620.866	11
621.628	11
622.39	11
623.152	12
623.914	10
624.676	9
625.438	12
626.199	6
626.961	11
627.722	9
628.484	8
629.245	8
630.006	7
630.768	9
631.529	7
632.29	9
633.051	5
633.812	5
634.573	7
635.333	9
636.094	5
636.855	7
637.615	6
638.376	3
639.136	7
639.896	7
640.657	4
641.417	6
642.177	4
642.937	7
643.697	5
644.457	5
645.216	4
645.976	3
646.736	4
647.495	2
648.255	2
649.014	4
649.774	2
650.533	4
651.292	4
652.051	1
652.81	3
653.569	5
654.328	2
655.087	1
655.846	6
656.604	0
657.363	5
658.121	2
658.88	3
659.638	2
660.397	2
661.155	2
661.913	3
662.671	2
663.429	0
664.187	3
664.945	1
665.703	3
666.46	3
667.218	3
667.976	4
668.733	1
669.49	3
670.248	2
671.005	1
671.762	1
672.519	1
673.276	1
674.033	1
674.79	3
675.547	2
676.304	3
677.06	2
677.817	1
678.574	2
679.33	0
680.086	4
680.843	2
681.599	1
682.355	2
683.111	2
683.867	1
684.623	2
685.379	5
686.135	1
686.89	-2
687.646	1
688.402	1
689.157	2
689.912	2
690.668	1
691.423	5
692.178	2
692.933	2
693.688	-1
694.443	3
695.198	3
695.953	1
696.708	4
697.462	1
698.217	1
698.972	1
699.726	0
700.48	2
701.235	1
701.989	1
702.743	1
703.497	3
704.251	-1
705.005	2
705.759	1
706.513	1
707.266	2
708.02	0
708.774	2
709.527	2
710.28	2
711.034	1
711.787	1
712.54	3
713.293	1
714.046	2
714.799	3
715.552	1
716.305	4
717.058	2
717.81	1
718.563	2
719.315	1
720.068	0
720.82	3
721.573	3
722.325	2
723.077	2
723.829	2
724.581	2
725.333	2
726.085	1
726.836	1
727.588	1
728.34	1
729.091	0
729.843	2
730.594	3
731.346	2
732.097	1
732.848	1
733.599	4
734.35	0
735.101	2
735.852	0
736.603	0
737.354	4
738.104	1
738.855	2
739.605	3
740.356	2
741.106	1
741.856	1
742.607	-1
743.357	0
744.107	3
744.857	0
745.607	2
746.357	2
747.106	0
747.856	0
748.606	3
749.355	3
750.105	3
750.854	3
751.603	3
752.353	4
753.102	1
753.851	2
754.6	2
755.349	1
756.098	2
756.847	1
757.595	3
758.344	2
759.093	1
759.841	3
760.589	2
761.338	3
762.086	2
762.834	3
763.582	3
764.331	2
765.079	3
765.826	0
766.574	5
767.322	3
768.07	3
768.817	3
769.565	3
770.312	6
771.06	3
771.807	4
772.554	3
773.302	2
774.049	4
774.796	3
775.543	4
776.29	4
777.036	4
777.783	4
778.53	4
779.276	6
780.023	5
780.769	3
781.516	1
782.262	5
783.008	2
783.754	5
784.5	3
785.246	5
785.992	6
786.738	2
787.484	4
788.23	5
788.975	4
789.721	5
790.466	3
791.212	5
791.957	4
792.702	4
793.447	5
794.193	5
794.938	4
795.683	4
796.427	4
797.172	2
797.917	2
798.662	4
799.406	5
800.151	4
800.895	4
801.64	6
802.384	3
803.128	3
803.872	2
804.616	3
805.36	5
806.104	2
806.848	6
807.592	4
808.336	3
809.079	3
809.823	2
810.566	4
811.31	6
812.053	2
812.796	2
813.539	3
814.283	3
815.026	4
815.769	3
816.511	1
817.254	2
817.997	2
818.74	3
819.482	3
820.225	4
820.967	4
821.71	3
822.452	3
823.194	3
823.936	4
824.678	2
825.42	4
826.162	3
826.904	-1
827.646	3
828.388	2
829.129	4
829.871	3
830.612	4
831.354	3
832.095	1
832.836	2
833.577	1
834.319	4
835.06	3
835.801	2
836.542	2
837.282	0
838.023	4
838.764	2
839.504	0
840.245	3
840.985	4
841.726	1
842.466	2
843.206	1
843.946	1
844.687	-1
845.427	1
846.166	3
846.906	3
847.646	1
848.386	0
849.125	2
849.865	3
850.605	2
851.344	0
852.083	1
852.823	0
853.562	1
854.301	0
855.04	1
855.779	3
856.518	2
857.257	1
857.995	1
858.734	3
859.473	1
860.211	1
860.95	1
861.688	-2
862.426	2
863.165	2
863.903	1
864.641	2
865.379	-2
866.117	0
866.855	-2
867.593	2
868.33	1
869.068	1
869.806	0
870.543	1
871.28	1
872.018	0
872.755	1
873.492	1
874.229	1
874.967	-1
875.703	-2
876.44	2
877.177	-1
877.914	0
878.651	1
879.387	2
880.124	1
880.86	2
881.597	0
882.333	1
883.069	1
883.806	-1
884.542	1
885.278	4
886.014	2
886.749	1
887.485	2
888.221	0
888.957	-1
889.692	1
890.428	0
891.163	-1
891.899	1
892.634	0
893.369	0
894.104	2
894.839	1
895.574	0
896.309	1
897.044	1
897.779	-1
898.514	2
899.248	0
899.983	2
900.717	-1
901.452	3
902.186	2
902.92	0
903.654	-1
904.389	0
905.123	-1
905.857	-1
906.59	0
907.324	3
908.058	-2
908.792	0
909.525	-2
910.259	-2
910.992	2
911.726	-2
912.459	1
913.192	-2
913.925	1
914.658	1
915.391	0
916.124	-1
916.857	0
917.59	0
918.323	-2
919.055	2
919.788	0
920.521	0
921.253	1
921.985	0
922.718	0
923.45	-2
924.182	0
924.914	2
925.646	0
926.378	0
927.11	-1
927.841	0
928.573	2
929.305	1
930.036	0
930.768	0
931.499	-1
932.23	0
932.962	1
933.693	-1
934.424	-2
935.155	-2
935.886	0
936.617	1
937.348	-1
938.078	1
938.809	0
939.54	0
940.27	1
941.001	0
941.731	-1
942.461	-2
943.191	1
943.922	1
944.652	-1
945.382	3
946.112	1
946.841	0
947.571	-1
948.301	-3
949.031	0
949.76	-1
950.49	0
951.219	1
951.948	1
952.678	-2
953.407	1
954.136	-3
954.865	-2
955.594	2
956.323	0
957.052	2
957.78	-1
958.509	-1
959.238	2
959.966	-2
960.695	0
961.423	0
962.151	-1
962.88	-2
963.608	0
964.336	-1
965.064	1
965.792	-1
966.52	0
967.247	-2
967.975	-1
968.703	0
969.43	0
970.158	-1
970.885	-1
971.613	-4
972.34	-2
973.067	0
973.794	-2
974.521	1
975.248	2
975.975	-2
976.702	-2
977.429	-1
978.156	-1
978.882	-1
979.609	-2
980.335	-2
981.062	1
981.788	-4
982.514	0
983.24	-2
983.967	0
984.693	-2
985.419	-2
986.144	-3
986.87	-2
987.596	0
988.322	1
989.047	0
989.773	0
990.498	0
991.224	1
991.949	0
992.674	2
993.399	0
994.124	3
994.849	-1
995.574	0
996.299	-1
997.024	-1
997.749	1
998.473	-1
999.198	-2
999.922	1
1000.647	-1
1001.371	4
1002.095	-2
1002.82	1
1003.544	-2
1004.268	0
1004.992	1
1005.716	-3
1006.439	-1
1007.163	-2
1007.887	-1
1008.611	1
1009.334	-2
1010.058	0
1010.781	-2
1011.504	0
1012.228	0
1012.951	2
1013.674	-2
1014.397	-1
1015.12	0
