节点500_145_QEPB04081__412__11-35-33-550.txt的数据

Date: Wed Nov 12 11:35:33 CST 2025
User: PC
Spectrometer: QEPB0408
触发模式: 0
积分时间 (秒): 1.000000E-2
Scans to average: 1
启用暗噪声校正: true
启用非线性校正: false
滑动平均宽度: 0
X轴模式: Wavelengths
Number of Pixels in Spectrum: 1044
>>>>>Begin Spectral Data<<<<<
220.843	1.25
221.644	2.25
222.444	-0.75
223.244	1.25
224.045	2.25
224.845	2.25
225.645	3.25
226.445	0.25
227.245	0.25
228.045	1.25
228.845	1.25
229.645	-1.75
230.444	0.25
231.244	3.25
232.043	2.25
232.843	1.25
233.642	2.25
234.442	1.25
235.241	2.25
236.04	0.25
236.839	3.25
237.638	2.25
238.437	2.25
239.236	1.25
240.035	3.25
240.833	2.25
241.632	4.25
242.43	2.25
243.229	4.25
244.027	1.25
244.826	3.25
245.624	2.25
246.422	5.25
247.22	2.25
248.018	2.25
248.816	2.25
249.614	3.25
250.412	3.25
251.21	-0.75
252.007	5.25
252.805	2.25
253.602	5.25
254.4	6.25
255.197	4.25
255.994	2.25
256.791	6.25
257.589	4.25
258.386	2.25
259.183	3.25
259.979	5.25
260.776	6.25
261.573	6.25
262.37	6.25
263.166	7.25
263.963	6.25
264.759	5.25
265.556	5.25
266.352	7.25
267.148	6.25
267.944	6.25
268.74	10.25
269.536	5.25
270.332	8.25
271.128	8.25
271.924	6.25
272.719	8.25
273.515	10.25
274.311	6.25
275.106	8.25
275.901	9.25
276.697	11.25
277.492	9.25
278.287	10.25
279.082	10.25
279.877	10.25
280.672	9.25
281.467	11.25
282.262	9.25
283.056	10.25
283.851	11.25
284.646	10.25
285.44	13.25
286.234	11.25
287.029	10.25
287.823	14.25
288.617	14.25
289.411	12.25
290.205	11.25
290.999	10.25
291.793	11.25
292.587	12.25
293.381	9.25
294.174	11.25
294.968	11.25
295.761	8.25
296.555	10.25
297.348	10.25
298.141	13.25
298.935	11.25
299.728	9.25
300.521	8.25
301.314	10.25
302.107	8.25
302.899	8.25
303.692	8.25
304.485	10.25
305.277	9.25
306.07	9.25
306.862	10.25
307.655	7.25
308.447	6.25
309.239	9.25
310.031	7.25
310.823	7.25
311.615	9.25
312.407	6.25
313.199	7.25
313.991	8.25
314.783	6.25
315.574	6.25
316.366	8.25
317.157	7.25
317.949	4.25
318.74	8.25
319.531	6.25
320.322	6.25
321.113	4.25
321.904	5.25
322.695	6.25
323.486	6.25
324.277	6.25
325.068	7.25
325.858	6.25
326.649	4.25
327.439	4.25
328.23	4.25
329.02	3.25
329.81	4.25
330.6	3.25
331.391	4.25
332.181	6.25
332.971	6.25
333.76	4.25
334.55	3.25
335.34	5.25
336.13	4.25
336.919	4.25
337.709	3.25
338.498	3.25
339.287	5.25
340.077	3.25
340.866	4.25
341.655	4.25
342.444	4.25
343.233	4.25
344.022	5.25
344.811	6.25
345.6	4.25
346.388	3.25
347.177	5.25
347.965	2.25
348.754	3.25
349.542	3.25
350.33	6.25
351.119	5.25
351.907	4.25
352.695	6.25
353.483	4.25
354.271	5.25
355.059	3.25
355.846	2.25
356.634	3.25
357.422	3.25
358.209	5.25
358.997	5.25
359.784	4.25
360.571	0.25
361.359	3.25
362.146	2.25
362.933	3.25
363.72	4.25
364.507	3.25
365.294	2.25
366.081	2.25
366.867	2.25
367.654	3.25
368.44	4.25
369.227	5.25
370.013	3.25
370.8	4.25
371.586	2.25
372.372	3.25
373.158	5.25
373.944	3.25
374.73	3.25
375.516	4.25
376.302	3.25
377.088	3.25
377.873	2.25
378.659	4.25
379.445	3.25
380.23	3.25
381.015	3.25
381.801	3.25
382.586	1.25
383.371	6.25
384.156	6.25
384.941	-0.75
385.726	3.25
386.511	2.25
387.296	6.25
388.08	-0.75
388.865	3.25
389.649	3.25
390.434	5.25
391.218	6.25
392.003	4.25
392.787	3.25
393.571	4.25
394.355	5.25
395.139	6.25
395.923	4.25
396.707	5.25
397.491	3.25
398.274	6.25
399.058	5.25
399.842	4.25
400.625	3.25
401.408	4.25
402.192	4.25
402.975	2.25
403.758	3.25
404.541	3.25
405.324	3.25
406.107	6.25
406.89	5.25
407.673	5.25
408.456	8.25
409.238	6.25
410.021	2.25
410.803	5.25
411.586	7.25
412.368	7.25
413.151	5.25
413.933	4.25
414.715	7.25
415.497	6.25
416.279	5.25
417.061	4.25
417.843	5.25
418.624	7.25
419.406	5.25
420.188	7.25
420.969	8.25
421.751	7.25
422.532	7.25
423.313	4.25
424.095	6.25
424.876	7.25
425.657	4.25
426.438	8.25
427.219	8.25
428	6.25
428.78	6.25
429.561	8.25
430.342	8.25
431.122	8.25
431.903	8.25
432.683	11.25
433.464	10.25
434.244	9.25
435.024	8.25
435.804	9.25
436.584	11.25
437.364	10.25
438.144	11.25
438.924	11.25
439.704	11.25
440.483	12.25
441.263	11.25
442.042	16.25
442.822	16.25
443.601	15.25
444.38	14.25
445.16	16.25
445.939	20.25
446.718	19.25
447.497	20.25
448.276	21.25
449.054	22.25
449.833	27.25
450.612	24.25
451.391	28.25
452.169	29.25
452.948	34.25
453.726	36.25
454.504	38.25
455.282	45.25
456.061	47.25
456.839	51.25
457.617	58.25
458.395	63.25
459.172	71.25
459.95	77.25
460.728	88.25
461.506	91.25
462.283	106.25
463.061	117.25
463.838	133.25
464.615	151.25
465.393	169.25
466.17	181.25
466.947	207.25
467.724	225.25
468.501	251.25
469.278	279.25
470.055	308.25
470.831	349.25
471.608	388.25
472.385	425.25
473.161	473.25
473.938	526.25
474.714	579.25
475.49	646.25
476.266	708.25
477.043	785.25
477.819	862.25
478.595	957.25
479.371	1055.25
480.146	1164.25
480.922	1279.25
481.698	1404.25
482.473	1561.25
483.249	1692.25
484.024	1880.25
484.8	2049.25
485.575	2251.25
486.35	2483.25
487.126	2752.25
487.901	2972.25
488.676	3291.25
489.451	3620.25
490.225	3963.25
491	4324.25
491.775	4747.25
492.55	5169.25
493.324	5668.25
494.099	6188.25
494.873	6717.25
495.647	7331.25
496.422	7960.25
497.196	8589.25
497.97	9256.25
498.744	9970.25
499.518	10715.25
500.292	11358.25
501.066	12073.25
501.839	12750.25
502.613	13405.25
503.387	13983.25
504.16	14530.25
504.934	15023.25
505.707	15374.25
506.48	15713.25
507.253	15976.25
508.027	16041.25
508.8	16031.25
509.573	15966.25
510.346	15852.25
511.118	15551.25
511.891	15180.25
512.664	14700.25
513.437	14279.25
514.209	13819.25
514.982	13245.25
515.754	12773.25
516.526	12272.25
517.298	11735.25
518.071	11203.25
518.843	10748.25
519.615	10253.25
520.387	9869.25
521.159	9447.25
521.93	9107.25
522.702	8679.25
523.474	8312.25
524.245	8055.25
525.017	7724.25
525.788	7411.25
526.56	7090.25
527.331	6809.25
528.102	6506.25
528.873	6235.25
529.644	5988.25
530.415	5739.25
531.186	5438.25
531.957	5160.25
532.728	4919.25
533.498	4668.25
534.269	4408.25
535.039	4167.25
535.81	3937.25
536.58	3720.25
537.351	3525.25
538.121	3356.25
538.891	3175.25
539.661	2977.25
540.431	2819.25
541.201	2664.25
541.971	2529.25
542.741	2387.25
543.51	2283.25
544.28	2146.25
545.05	2043.25
545.819	1931.25
546.588	1849.25
547.358	1742.25
548.127	1671.25
548.896	1590.25
549.665	1509.25
550.434	1434.25
551.203	1369.25
551.972	1298.25
552.741	1228.25
553.51	1172.25
554.278	1110.25
555.047	1035.25
555.815	983.25
556.584	904.25
557.352	881.25
558.121	824.25
558.889	774.25
559.657	731.25
560.425	689.25
561.193	656.25
561.961	614.25
562.729	584.25
563.496	542.25
564.264	516.25
565.032	483.25
565.799	459.25
566.567	430.25
567.334	413.25
568.101	391.25
568.869	372.25
569.636	341.25
570.403	331.25
571.17	310.25
571.937	286.25
572.704	270.25
573.471	258.25
574.237	240.25
575.004	223.25
575.771	216.25
576.537	203.25
577.303	189.25
578.07	183.25
578.836	171.25
579.602	157.25
580.368	152.25
581.134	146.25
581.9	135.25
582.666	127.25
583.432	122.25
584.198	118.25
584.964	104.25
585.729	101.25
586.495	93.25
587.26	93.25
588.025	83.25
588.791	79.25
589.556	78.25
590.321	74.25
591.086	67.25
591.851	67.25
592.616	62.25
593.381	59.25
594.146	61.25
594.911	54.25
595.675	49.25
596.44	48.25
597.204	45.25
597.969	47.25
598.733	42.25
599.497	39.25
600.261	39.25
601.025	40.25
601.79	36.25
602.553	34.25
603.317	32.25
604.081	31.25
604.845	29.25
605.609	31.25
606.372	25.25
607.136	27.25
607.899	24.25
608.662	23.25
609.426	25.25
610.189	21.25
610.952	22.25
611.715	20.25
612.478	23.25
613.241	19.25
614.004	18.25
614.767	19.25
615.529	17.25
616.292	17.25
617.055	14.25
617.817	14.25
618.579	15.25
619.342	18.25
620.104	15.25
620.866	13.25
621.628	12.25
622.39	11.25
623.152	13.25
623.914	11.25
624.676	11.25
625.438	11.25
626.199	11.25
626.961	9.25
627.722	9.25
628.484	8.25
629.245	9.25
630.006	9.25
630.768	9.25
631.529	11.25
632.29	8.25
633.051	9.25
633.812	8.25
634.573	7.25
635.333	8.25
636.094	8.25
636.855	6.25
637.615	6.25
638.376	6.25
639.136	8.25
639.896	6.25
640.657	10.25
641.417	4.25
642.177	5.25
642.937	5.25
643.697	4.25
644.457	6.25
645.216	4.25
645.976	7.25
646.736	5.25
647.495	5.25
648.255	4.25
649.014	4.25
649.774	6.25
650.533	4.25
651.292	6.25
652.051	7.25
652.81	4.25
653.569	6.25
654.328	4.25
655.087	6.25
655.846	4.25
656.604	4.25
657.363	4.25
658.121	4.25
658.88	4.25
659.638	5.25
660.397	5.25
661.155	3.25
661.913	5.25
662.671	4.25
663.429	4.25
664.187	3.25
664.945	3.25
665.703	-0.75
666.46	5.25
667.218	3.25
667.976	4.25
668.733	3.25
669.49	4.25
670.248	4.25
671.005	5.25
671.762	3.25
672.519	3.25
673.276	4.25
674.033	2.25
674.79	4.25
675.547	2.25
676.304	2.25
677.06	3.25
677.817	4.25
678.574	3.25
679.33	3.25
680.086	3.25
680.843	3.25
681.599	5.25
682.355	2.25
683.111	6.25
683.867	4.25
684.623	3.25
685.379	4.25
686.135	3.25
686.89	2.25
687.646	2.25
688.402	4.25
689.157	3.25
689.912	2.25
690.668	4.25
691.423	0.25
692.178	4.25
692.933	2.25
693.688	4.25
694.443	4.25
695.198	2.25
695.953	3.25
696.708	4.25
697.462	3.25
698.217	2.25
698.972	3.25
699.726	4.25
700.48	2.25
701.235	4.25
701.989	3.25
702.743	3.25
703.497	4.25
704.251	1.25
705.005	0.25
705.759	2.25
706.513	2.25
707.266	2.25
708.02	2.25
708.774	2.25
709.527	3.25
710.28	1.25
711.034	2.25
711.787	4.25
712.54	2.25
713.293	3.25
714.046	3.25
714.799	2.25
715.552	2.25
716.305	0.25
717.058	4.25
717.81	2.25
718.563	4.25
719.315	1.25
720.068	4.25
720.82	3.25
721.573	4.25
722.325	4.25
723.077	3.25
723.829	3.25
724.581	3.25
725.333	4.25
726.085	1.25
726.836	2.25
727.588	3.25
728.34	2.25
729.091	2.25
729.843	4.25
730.594	2.25
731.346	3.25
732.097	3.25
732.848	6.25
733.599	2.25
734.35	3.25
735.101	2.25
735.852	1.25
736.603	4.25
737.354	4.25
738.104	4.25
738.855	2.25
739.605	5.25
740.356	3.25
741.106	3.25
741.856	5.25
742.607	2.25
743.357	4.25
744.107	5.25
744.857	4.25
745.607	1.25
746.357	4.25
747.106	5.25
747.856	1.25
748.606	3.25
749.355	3.25
750.105	3.25
750.854	5.25
751.603	2.25
752.353	6.25
753.102	2.25
753.851	7.25
754.6	5.25
755.349	3.25
756.098	4.25
756.847	4.25
757.595	4.25
758.344	2.25
759.093	5.25
759.841	5.25
760.589	4.25
761.338	5.25
762.086	0.25
762.834	5.25
763.582	4.25
764.331	7.25
765.079	5.25
765.826	5.25
766.574	3.25
767.322	4.25
768.07	5.25
768.817	3.25
769.565	2.25
770.312	6.25
771.06	6.25
771.807	6.25
772.554	4.25
773.302	4.25
774.049	2.25
774.796	5.25
775.543	3.25
776.29	5.25
777.036	5.25
777.783	5.25
778.53	4.25
779.276	8.25
780.023	6.25
780.769	7.25
781.516	7.25
782.262	5.25
783.008	6.25
783.754	6.25
784.5	5.25
785.246	5.25
785.992	6.25
786.738	5.25
787.484	7.25
788.23	7.25
788.975	8.25
789.721	4.25
790.466	6.25
791.212	7.25
791.957	4.25
792.702	5.25
793.447	6.25
794.193	6.25
794.938	6.25
795.683	6.25
796.427	4.25
797.172	3.25
797.917	6.25
798.662	5.25
799.406	6.25
800.151	5.25
800.895	5.25
801.64	7.25
802.384	3.25
803.128	7.25
803.872	6.25
804.616	5.25
805.36	6.25
806.104	4.25
806.848	6.25
807.592	3.25
808.336	6.25
809.079	5.25
809.823	6.25
810.566	4.25
811.31	4.25
812.053	5.25
812.796	4.25
813.539	5.25
814.283	4.25
815.026	7.25
815.769	3.25
816.511	3.25
817.254	4.25
817.997	4.25
818.74	3.25
819.482	4.25
820.225	5.25
820.967	4.25
821.71	2.25
822.452	3.25
823.194	2.25
823.936	4.25
824.678	3.25
825.42	4.25
826.162	3.25
826.904	4.25
827.646	5.25
828.388	5.25
829.129	5.25
829.871	5.25
830.612	3.25
831.354	3.25
832.095	2.25
832.836	5.25
833.577	3.25
834.319	3.25
835.06	4.25
835.801	4.25
836.542	3.25
837.282	3.25
838.023	3.25
838.764	3.25
839.504	1.25
840.245	2.25
840.985	1.25
841.726	3.25
842.466	3.25
843.206	4.25
843.946	2.25
844.687	4.25
845.427	2.25
846.166	4.25
846.906	3.25
847.646	3.25
848.386	3.25
849.125	2.25
849.865	2.25
850.605	2.25
851.344	2.25
852.083	5.25
852.823	1.25
853.562	1.25
854.301	1.25
855.04	4.25
855.779	2.25
856.518	5.25
857.257	1.25
857.995	2.25
858.734	4.25
859.473	2.25
860.211	3.25
860.95	2.25
861.688	2.25
862.426	1.25
863.165	0.25
863.903	3.25
864.641	2.25
865.379	2.25
866.117	2.25
866.855	1.25
867.593	1.25
868.33	1.25
869.068	4.25
869.806	1.25
870.543	-0.75
871.28	3.25
872.018	3.25
872.755	1.25
873.492	3.25
874.229	5.25
874.967	0.25
875.703	1.25
876.44	1.25
877.177	1.25
877.914	1.25
878.651	1.25
879.387	0.25
880.124	3.25
880.86	1.25
881.597	0.25
882.333	2.25
883.069	1.25
883.806	-0.75
884.542	2.25
885.278	0.25
886.014	3.25
886.749	4.25
887.485	0.25
888.221	1.25
888.957	1.25
889.692	1.25
890.428	0.25
891.163	1.25
891.899	2.25
892.634	1.25
893.369	2.25
894.104	1.25
894.839	3.25
895.574	2.25
896.309	1.25
897.044	2.25
897.779	-0.75
898.514	3.25
899.248	2.25
899.983	3.25
900.717	2.25
901.452	1.25
902.186	1.25
902.92	0.25
903.654	0.25
904.389	2.25
905.123	2.25
905.857	2.25
906.59	2.25
907.324	1.25
908.058	2.25
908.792	1.25
909.525	2.25
910.259	2.25
910.992	2.25
911.726	0.25
912.459	2.25
913.192	0.25
913.925	0.25
914.658	2.25
915.391	1.25
916.124	-0.75
916.857	2.25
917.59	2.25
918.323	0.25
919.055	1.25
919.788	1.25
920.521	1.25
921.253	2.25
921.985	1.25
922.718	2.25
923.45	-0.75
924.182	2.25
924.914	1.25
925.646	0.25
926.378	3.25
927.11	1.25
927.841	2.25
928.573	-0.75
929.305	2.25
930.036	1.25
930.768	1.25
931.499	2.25
932.23	0.25
932.962	1.25
933.693	-0.75
934.424	3.25
935.155	0.25
935.886	1.25
936.617	2.25
937.348	2.25
938.078	4.25
938.809	0.25
939.54	2.25
940.27	0.25
941.001	2.25
941.731	1.25
942.461	-0.75
943.191	0.25
943.922	2.25
944.652	4.25
945.382	1.25
946.112	1.25
946.841	-0.75
947.571	4.25
948.301	1.25
949.031	0.25
949.76	3.25
950.49	1.25
951.219	-0.75
951.948	3.25
952.678	3.25
953.407	0.25
954.136	-0.75
954.865	2.25
955.594	-0.75
956.323	1.25
957.052	1.25
957.78	0.25
958.509	-0.75
959.238	1.25
959.966	3.25
960.695	-0.75
961.423	1.25
962.151	0.25
962.88	0.25
963.608	4.25
964.336	-0.75
965.064	0.25
965.792	2.25
966.52	1.25
967.247	-1.75
967.975	1.25
968.703	3.25
969.43	2.25
970.158	2.25
970.885	1.25
971.613	4.25
972.34	3.25
973.067	1.25
973.794	2.25
974.521	2.25
975.248	2.25
975.975	2.25
976.702	1.25
977.429	0.25
978.156	0.25
978.882	0.25
979.609	1.25
980.335	3.25
981.062	0.25
981.788	1.25
982.514	4.25
983.24	0.25
983.967	2.25
984.693	0.25
985.419	2.25
986.144	-1.75
986.87	2.25
987.596	0.25
988.322	-0.75
989.047	1.25
989.773	2.25
990.498	1.25
991.224	-0.75
991.949	1.25
992.674	2.25
993.399	-0.75
994.124	0.25
994.849	-0.75
995.574	2.25
996.299	0.25
997.024	1.25
997.749	1.25
998.473	2.25
999.198	2.25
999.922	0.25
1000.647	0.25
1001.371	2.25
1002.095	-1.75
1002.82	-0.75
1003.544	0.25
1004.268	-0.75
1004.992	0.25
1005.716	-0.75
1006.439	-0.75
1007.163	0.25
1007.887	2.25
1008.611	3.25
1009.334	0.25
1010.058	-0.75
1010.781	1.25
1011.504	-0.75
1012.228	2.25
1012.951	1.25
1013.674	-0.75
1014.397	-0.75
1015.12	0.25
