节点500_145_QEPB04081__405__11-35-26-548.txt的数据

Date: Wed Nov 12 11:35:26 CST 2025
User: PC
Spectrometer: QEPB0408
触发模式: 0
积分时间 (秒): 1.000000E-2
Scans to average: 1
启用暗噪声校正: true
启用非线性校正: false
滑动平均宽度: 0
X轴模式: Wavelengths
Number of Pixels in Spectrum: 1044
>>>>>Begin Spectral Data<<<<<
220.843	-0.25
221.644	-1.25
222.444	0.75
223.244	-0.25
224.045	-0.25
224.845	1.75
225.645	-1.25
226.445	0.75
227.245	-2.25
228.045	0.75
228.845	-0.25
229.645	-2.25
230.444	0.75
231.244	-1.25
232.043	0.75
232.843	2.75
233.642	-0.25
234.442	2.75
235.241	1.75
236.04	0.75
236.839	0.75
237.638	-0.25
238.437	-0.25
239.236	1.75
240.035	-0.25
240.833	-0.25
241.632	0.75
242.43	0.75
243.229	-1.25
244.027	1.75
244.826	2.75
245.624	2.75
246.422	0.75
247.22	1.75
248.018	-2.25
248.816	2.75
249.614	-0.25
250.412	1.75
251.21	1.75
252.007	-0.25
252.805	-0.25
253.602	-0.25
254.4	3.75
255.197	-0.25
255.994	1.75
256.791	2.75
257.589	2.75
258.386	3.75
259.183	1.75
259.979	8.75
260.776	4.75
261.573	5.75
262.37	1.75
263.166	3.75
263.963	2.75
264.759	4.75
265.556	5.75
266.352	5.75
267.148	6.75
267.944	6.75
268.74	4.75
269.536	8.75
270.332	6.75
271.128	8.75
271.924	5.75
272.719	4.75
273.515	6.75
274.311	8.75
275.106	8.75
275.901	7.75
276.697	6.75
277.492	6.75
278.287	10.75
279.082	7.75
279.877	8.75
280.672	6.75
281.467	6.75
282.262	9.75
283.056	9.75
283.851	10.75
284.646	9.75
285.44	8.75
286.234	8.75
287.029	9.75
287.823	9.75
288.617	9.75
289.411	9.75
290.205	9.75
290.999	8.75
291.793	8.75
292.587	8.75
293.381	8.75
294.174	8.75
294.968	8.75
295.761	9.75
296.555	7.75
297.348	9.75
298.141	8.75
298.935	8.75
299.728	6.75
300.521	7.75
301.314	7.75
302.107	8.75
302.899	6.75
303.692	5.75
304.485	7.75
305.277	5.75
306.07	8.75
306.862	6.75
307.655	7.75
308.447	9.75
309.239	7.75
310.031	7.75
310.823	6.75
311.615	5.75
312.407	7.75
313.199	5.75
313.991	5.75
314.783	3.75
315.574	6.75
316.366	3.75
317.157	2.75
317.949	2.75
318.74	1.75
319.531	4.75
320.322	4.75
321.113	5.75
321.904	5.75
322.695	3.75
323.486	3.75
324.277	2.75
325.068	3.75
325.858	1.75
326.649	5.75
327.439	2.75
328.23	4.75
329.02	2.75
329.81	3.75
330.6	2.75
331.391	2.75
332.181	3.75
332.971	4.75
333.76	2.75
334.55	4.75
335.34	1.75
336.13	3.75
336.919	0.75
337.709	2.75
338.498	3.75
339.287	2.75
340.077	1.75
340.866	0.75
341.655	3.75
342.444	2.75
343.233	2.75
344.022	2.75
344.811	3.75
345.6	2.75
346.388	1.75
347.177	3.75
347.965	1.75
348.754	1.75
349.542	3.75
350.33	1.75
351.119	4.75
351.907	1.75
352.695	0.75
353.483	2.75
354.271	0.75
355.059	2.75
355.846	2.75
356.634	1.75
357.422	2.75
358.209	3.75
358.997	3.75
359.784	2.75
360.571	3.75
361.359	2.75
362.146	3.75
362.933	-0.25
363.72	1.75
364.507	0.75
365.294	4.75
366.081	2.75
366.867	-0.25
367.654	1.75
368.44	2.75
369.227	3.75
370.013	1.75
370.8	1.75
371.586	1.75
372.372	0.75
373.158	3.75
373.944	2.75
374.73	2.75
375.516	1.75
376.302	2.75
377.088	5.75
377.873	0.75
378.659	1.75
379.445	0.75
380.23	3.75
381.015	2.75
381.801	2.75
382.586	1.75
383.371	4.75
384.156	3.75
384.941	1.75
385.726	3.75
386.511	1.75
387.296	2.75
388.08	3.75
388.865	0.75
389.649	2.75
390.434	0.75
391.218	3.75
392.003	0.75
392.787	4.75
393.571	1.75
394.355	3.75
395.139	2.75
395.923	-0.25
396.707	3.75
397.491	1.75
398.274	3.75
399.058	1.75
399.842	1.75
400.625	5.75
401.408	4.75
402.192	3.75
402.975	3.75
403.758	2.75
404.541	3.75
405.324	1.75
406.107	3.75
406.89	5.75
407.673	2.75
408.456	2.75
409.238	1.75
410.021	1.75
410.803	3.75
411.586	3.75
412.368	3.75
413.151	5.75
413.933	2.75
414.715	3.75
415.497	5.75
416.279	2.75
417.061	4.75
417.843	2.75
418.624	5.75
419.406	4.75
420.188	4.75
420.969	4.75
421.751	3.75
422.532	5.75
423.313	4.75
424.095	6.75
424.876	3.75
425.657	5.75
426.438	4.75
427.219	6.75
428	5.75
428.78	8.75
429.561	6.75
430.342	4.75
431.122	7.75
431.903	6.75
432.683	7.75
433.464	8.75
434.244	7.75
435.024	8.75
435.804	5.75
436.584	8.75
437.364	10.75
438.144	9.75
438.924	10.75
439.704	8.75
440.483	14.75
441.263	10.75
442.042	10.75
442.822	11.75
443.601	12.75
444.38	12.75
445.16	16.75
445.939	15.75
446.718	19.75
447.497	18.75
448.276	19.75
449.054	20.75
449.833	24.75
450.612	24.75
451.391	26.75
452.169	28.75
452.948	28.75
453.726	36.75
454.504	36.75
455.282	44.75
456.061	46.75
456.839	48.75
457.617	59.75
458.395	64.75
459.172	67.75
459.95	73.75
460.728	83.75
461.506	96.75
462.283	103.75
463.061	115.75
463.838	128.75
464.615	150.75
465.393	161.75
466.17	179.75
466.947	203.75
467.724	224.75
468.501	249.75
469.278	279.75
470.055	301.75
470.831	345.75
471.608	373.75
472.385	435.75
473.161	461.75
473.938	523.75
474.714	579.75
475.49	640.75
476.266	700.75
477.043	775.75
477.819	875.75
478.595	937.75
479.371	1048.75
480.146	1148.75
480.922	1277.75
481.698	1386.75
482.473	1541.75
483.249	1710.75
484.024	1876.75
484.8	2049.75
485.575	2268.75
486.35	2469.75
487.126	2738.75
487.901	2988.75
488.676	3303.75
489.451	3619.75
490.225	3952.75
491	4325.75
491.775	4741.75
492.55	5189.75
493.324	5681.75
494.099	6180.75
494.873	6726.75
495.647	7355.75
496.422	7931.75
497.196	8644.75
497.97	9305.75
498.744	9990.75
499.518	10667.75
500.292	11435.75
501.066	12116.75
501.839	12799.75
502.613	13429.75
503.387	14026.75
504.16	14605.75
504.934	15064.75
505.707	15490.75
506.48	15786.75
507.253	15949.75
508.027	16080.75
508.8	16098.75
509.573	15999.75
510.346	15781.75
511.118	15539.75
511.891	15201.75
512.664	14790.75
513.437	14301.75
514.209	13844.75
514.982	13275.75
515.754	12749.75
516.526	12256.75
517.298	11687.75
518.071	11227.75
518.843	10713.75
519.615	10231.75
520.387	9839.75
521.159	9467.75
521.93	9060.75
522.702	8729.75
523.474	8365.75
524.245	8021.75
525.017	7730.75
525.788	7383.75
526.56	7093.75
527.331	6847.75
528.102	6540.75
528.873	6242.75
529.644	5983.75
530.415	5697.75
531.186	5431.75
531.957	5172.75
532.728	4932.75
533.498	4657.75
534.269	4397.75
535.039	4183.75
535.81	3960.75
536.58	3727.75
537.351	3529.75
538.121	3346.75
538.891	3160.75
539.661	2976.75
540.431	2823.75
541.201	2656.75
541.971	2540.75
542.741	2395.75
543.51	2250.75
544.28	2162.75
545.05	2035.75
545.819	1945.75
546.588	1847.75
547.358	1760.75
548.127	1656.75
548.896	1584.75
549.665	1516.75
550.434	1443.75
551.203	1356.75
551.972	1297.75
552.741	1212.75
553.51	1167.75
554.278	1085.75
555.047	1029.75
555.815	976.75
556.584	915.75
557.352	868.75
558.121	825.75
558.889	778.75
559.657	724.75
560.425	680.75
561.193	639.75
561.961	616.75
562.729	576.75
563.496	540.75
564.264	511.75
565.032	483.75
565.799	458.75
566.567	432.75
567.334	404.75
568.101	389.75
568.869	362.75
569.636	347.75
570.403	319.75
571.17	300.75
571.937	284.75
572.704	267.75
573.471	255.75
574.237	237.75
575.004	225.75
575.771	212.75
576.537	200.75
577.303	190.75
578.07	180.75
578.836	168.75
579.602	157.75
580.368	149.75
581.134	137.75
581.9	133.75
582.666	126.75
583.432	120.75
584.198	111.75
584.964	108.75
585.729	101.75
586.495	98.75
587.26	89.75
588.025	84.75
588.791	82.75
589.556	77.75
590.321	68.75
591.086	66.75
591.851	64.75
592.616	64.75
593.381	58.75
594.146	53.75
594.911	54.75
595.675	50.75
596.44	43.75
597.204	44.75
597.969	41.75
598.733	38.75
599.497	38.75
600.261	38.75
601.025	34.75
601.79	36.75
602.553	36.75
603.317	29.75
604.081	29.75
604.845	25.75
605.609	24.75
606.372	29.75
607.136	23.75
607.899	24.75
608.662	24.75
609.426	19.75
610.189	17.75
610.952	18.75
611.715	18.75
612.478	18.75
613.241	18.75
614.004	16.75
614.767	14.75
615.529	14.75
616.292	15.75
617.055	15.75
617.817	16.75
618.579	12.75
619.342	9.75
620.104	12.75
620.866	8.75
621.628	13.75
622.39	11.75
623.152	11.75
623.914	8.75
624.676	7.75
625.438	9.75
626.199	8.75
626.961	8.75
627.722	8.75
628.484	7.75
629.245	8.75
630.006	7.75
630.768	7.75
631.529	6.75
632.29	8.75
633.051	7.75
633.812	7.75
634.573	6.75
635.333	4.75
636.094	8.75
636.855	3.75
637.615	6.75
638.376	5.75
639.136	4.75
639.896	6.75
640.657	5.75
641.417	6.75
642.177	4.75
642.937	5.75
643.697	7.75
644.457	4.75
645.216	4.75
645.976	1.75
646.736	1.75
647.495	3.75
648.255	4.75
649.014	5.75
649.774	1.75
650.533	2.75
651.292	3.75
652.051	4.75
652.81	1.75
653.569	3.75
654.328	4.75
655.087	1.75
655.846	1.75
656.604	2.75
657.363	2.75
658.121	2.75
658.88	5.75
659.638	0.75
660.397	1.75
661.155	2.75
661.913	0.75
662.671	1.75
663.429	2.75
664.187	1.75
664.945	1.75
665.703	1.75
666.46	2.75
667.218	1.75
667.976	1.75
668.733	-0.25
669.49	1.75
670.248	2.75
671.005	2.75
671.762	4.75
672.519	1.75
673.276	2.75
674.033	2.75
674.79	1.75
675.547	0.75
676.304	1.75
677.06	2.75
677.817	3.75
678.574	0.75
679.33	1.75
680.086	2.75
680.843	4.75
681.599	2.75
682.355	0.75
683.111	2.75
683.867	-2.25
684.623	0.75
685.379	2.75
686.135	1.75
686.89	0.75
687.646	1.75
688.402	0.75
689.157	2.75
689.912	3.75
690.668	2.75
691.423	2.75
692.178	2.75
692.933	3.75
693.688	1.75
694.443	-0.25
695.198	0.75
695.953	2.75
696.708	1.75
697.462	-2.25
698.217	-0.25
698.972	1.75
699.726	2.75
700.48	1.75
701.235	-0.25
701.989	3.75
702.743	1.75
703.497	2.75
704.251	0.75
705.005	-0.25
705.759	-1.25
706.513	0.75
707.266	1.75
708.02	0.75
708.774	2.75
709.527	0.75
710.28	1.75
711.034	2.75
711.787	0.75
712.54	2.75
713.293	3.75
714.046	1.75
714.799	0.75
715.552	0.75
716.305	1.75
717.058	0.75
717.81	0.75
718.563	1.75
719.315	2.75
720.068	-0.25
720.82	0.75
721.573	1.75
722.325	1.75
723.077	0.75
723.829	1.75
724.581	-0.25
725.333	0.75
726.085	1.75
726.836	1.75
727.588	3.75
728.34	0.75
729.091	1.75
729.843	0.75
730.594	0.75
731.346	1.75
732.097	1.75
732.848	3.75
733.599	2.75
734.35	1.75
735.101	1.75
735.852	0.75
736.603	1.75
737.354	1.75
738.104	2.75
738.855	1.75
739.605	0.75
740.356	0.75
741.106	-0.25
741.856	1.75
742.607	1.75
743.357	0.75
744.107	0.75
744.857	0.75
745.607	2.75
746.357	1.75
747.106	3.75
747.856	2.75
748.606	2.75
749.355	2.75
750.105	4.75
750.854	2.75
751.603	0.75
752.353	2.75
753.102	1.75
753.851	0.75
754.6	-0.25
755.349	-0.25
756.098	1.75
756.847	2.75
757.595	3.75
758.344	2.75
759.093	3.75
759.841	1.75
760.589	1.75
761.338	3.75
762.086	5.75
762.834	2.75
763.582	0.75
764.331	3.75
765.079	2.75
765.826	2.75
766.574	3.75
767.322	3.75
768.07	2.75
768.817	3.75
769.565	2.75
770.312	2.75
771.06	3.75
771.807	3.75
772.554	2.75
773.302	2.75
774.049	4.75
774.796	3.75
775.543	1.75
776.29	3.75
777.036	2.75
777.783	2.75
778.53	3.75
779.276	2.75
780.023	5.75
780.769	4.75
781.516	2.75
782.262	2.75
783.008	6.75
783.754	2.75
784.5	3.75
785.246	1.75
785.992	2.75
786.738	2.75
787.484	4.75
788.23	1.75
788.975	4.75
789.721	4.75
790.466	4.75
791.212	4.75
791.957	3.75
792.702	3.75
793.447	3.75
794.193	1.75
794.938	4.75
795.683	3.75
796.427	2.75
797.172	4.75
797.917	4.75
798.662	0.75
799.406	2.75
800.151	2.75
800.895	6.75
801.64	4.75
802.384	2.75
803.128	3.75
803.872	2.75
804.616	4.75
805.36	2.75
806.104	2.75
806.848	1.75
807.592	2.75
808.336	6.75
809.079	4.75
809.823	1.75
810.566	3.75
811.31	3.75
812.053	3.75
812.796	2.75
813.539	2.75
814.283	1.75
815.026	1.75
815.769	2.75
816.511	0.75
817.254	1.75
817.997	1.75
818.74	3.75
819.482	1.75
820.225	-0.25
820.967	2.75
821.71	2.75
822.452	2.75
823.194	1.75
823.936	1.75
824.678	1.75
825.42	2.75
826.162	2.75
826.904	3.75
827.646	3.75
828.388	1.75
829.129	0.75
829.871	2.75
830.612	0.75
831.354	3.75
832.095	3.75
832.836	3.75
833.577	0.75
834.319	1.75
835.06	0.75
835.801	0.75
836.542	3.75
837.282	1.75
838.023	2.75
838.764	1.75
839.504	1.75
840.245	0.75
840.985	0.75
841.726	1.75
842.466	1.75
843.206	1.75
843.946	-0.25
844.687	2.75
845.427	0.75
846.166	-0.25
846.906	1.75
847.646	1.75
848.386	1.75
849.125	0.75
849.865	0.75
850.605	1.75
851.344	-0.25
852.083	0.75
852.823	0.75
853.562	2.75
854.301	-0.25
855.04	1.75
855.779	0.75
856.518	1.75
857.257	1.75
857.995	1.75
858.734	-0.25
859.473	1.75
860.211	0.75
860.95	1.75
861.688	0.75
862.426	0.75
863.165	1.75
863.903	0.75
864.641	-0.25
865.379	-1.25
866.117	0.75
866.855	0.75
867.593	2.75
868.33	0.75
869.068	1.75
869.806	-0.25
870.543	1.75
871.28	3.75
872.018	-0.25
872.755	0.75
873.492	0.75
874.229	-0.25
874.967	0.75
875.703	0.75
876.44	1.75
877.177	-2.25
877.914	1.75
878.651	0.75
879.387	0.75
880.124	0.75
880.86	-2.25
881.597	-0.25
882.333	-2.25
883.069	1.75
883.806	-1.25
884.542	0.75
885.278	-1.25
886.014	-0.25
886.749	0.75
887.485	-1.25
888.221	-0.25
888.957	0.75
889.692	-1.25
890.428	-0.25
891.163	-0.25
891.899	-1.25
892.634	0.75
893.369	-0.25
894.104	0.75
894.839	-0.25
895.574	0.75
896.309	-0.25
897.044	-0.25
897.779	0.75
898.514	-1.25
899.248	-0.25
899.983	-0.25
900.717	-0.25
901.452	-2.25
902.186	-0.25
902.92	-0.25
903.654	0.75
904.389	0.75
905.123	-1.25
905.857	-0.25
906.59	1.75
907.324	-1.25
908.058	-2.25
908.792	0.75
909.525	-2.25
910.259	-2.25
910.992	-1.25
911.726	-0.25
912.459	0.75
913.192	0.75
913.925	-0.25
914.658	-2.25
915.391	1.75
916.124	-0.25
916.857	-1.25
917.59	0.75
918.323	-0.25
919.055	-2.25
919.788	-1.25
920.521	-1.25
921.253	-0.25
921.985	0.75
922.718	-0.25
923.45	-2.25
924.182	-1.25
924.914	-1.25
925.646	-0.25
926.378	1.75
927.11	-1.25
927.841	-0.25
928.573	-1.25
929.305	-0.25
930.036	-0.25
930.768	-1.25
931.499	0.75
932.23	-2.25
932.962	2.75
933.693	-0.25
934.424	-3.25
935.155	0.75
935.886	-2.25
936.617	-1.25
937.348	-2.25
938.078	0.75
938.809	-1.25
939.54	1.75
940.27	-0.25
941.001	-0.25
941.731	2.75
942.461	-0.25
943.191	0.75
943.922	-1.25
944.652	0.75
945.382	-1.25
946.112	-1.25
946.841	0.75
947.571	-2.25
948.301	-2.25
949.031	0.75
949.76	0.75
950.49	-1.25
951.219	0.75
951.948	-1.25
952.678	-0.25
953.407	-2.25
954.136	-0.25
954.865	-0.25
955.594	-1.25
956.323	0.75
957.052	-0.25
957.78	-0.25
958.509	0.75
959.238	-1.25
959.966	-1.25
960.695	-2.25
961.423	-2.25
962.151	-0.25
962.88	-0.25
963.608	-0.25
964.336	-0.25
965.064	1.75
965.792	-0.25
966.52	0.75
967.247	0.75
967.975	0.75
968.703	-0.25
969.43	0.75
970.158	-0.25
970.885	1.75
971.613	-0.25
972.34	-3.25
973.067	-0.25
973.794	-1.25
974.521	0.75
975.248	1.75
975.975	-1.25
976.702	-2.25
977.429	-1.25
978.156	-3.25
978.882	-0.25
979.609	-0.25
980.335	-0.25
981.062	-2.25
981.788	-2.25
982.514	-0.25
983.24	-2.25
983.967	-1.25
984.693	0.75
985.419	3.75
986.144	0.75
986.87	-2.25
987.596	-0.25
988.322	-2.25
989.047	0.75
989.773	0.75
990.498	-0.25
991.224	1.75
991.949	-1.25
992.674	-1.25
993.399	-0.25
994.124	-0.25
994.849	-2.25
995.574	0.75
996.299	1.75
997.024	-2.25
997.749	-0.25
998.473	-0.25
999.198	0.75
999.922	1.75
1000.647	-1.25
1001.371	1.75
1002.095	-0.25
1002.82	-1.25
1003.544	-0.25
1004.268	-1.25
1004.992	1.75
1005.716	-3.25
1006.439	-2.25
1007.163	-1.25
1007.887	-2.25
1008.611	-2.25
1009.334	-0.25
1010.058	-0.25
1010.781	-0.25
1011.504	-1.25
1012.228	0.75
1012.951	-0.25
1013.674	-1.25
1014.397	-0.25
1015.12	1.75
