节点500_145_QEPB04081__627__11-38-56-222.txt的数据

Date: Wed Nov 12 11:38:56 CST 2025
User: PC
Spectrometer: QEPB0408
触发模式: 0
积分时间 (秒): 1.000000E-2
Scans to average: 1
启用暗噪声校正: true
启用非线性校正: false
滑动平均宽度: 0
X轴模式: Wavelengths
Number of Pixels in Spectrum: 1044
>>>>>Begin Spectral Data<<<<<
220.843	-1.5
221.644	-1.5
222.444	1.5
223.244	0.5
224.045	1.5
224.845	0.5
225.645	0.5
226.445	0.5
227.245	1.5
228.045	-2.5
228.845	1.5
229.645	-0.5
230.444	-0.5
231.244	-0.5
232.043	1.5
232.843	0.5
233.642	-0.5
234.442	2.5
235.241	1.5
236.04	0.5
236.839	-0.5
237.638	1.5
238.437	4.5
239.236	1.5
240.035	1.5
240.833	0.5
241.632	1.5
242.43	2.5
243.229	2.5
244.027	3.5
244.826	1.5
245.624	1.5
246.422	1.5
247.22	3.5
248.018	4.5
248.816	2.5
249.614	0.5
250.412	1.5
251.21	3.5
252.007	2.5
252.805	2.5
253.602	5.5
254.4	3.5
255.197	0.5
255.994	2.5
256.791	2.5
257.589	5.5
258.386	5.5
259.183	5.5
259.979	2.5
260.776	4.5
261.573	4.5
262.37	3.5
263.166	4.5
263.963	4.5
264.759	3.5
265.556	2.5
266.352	5.5
267.148	5.5
267.944	7.5
268.74	5.5
269.536	5.5
270.332	7.5
271.128	7.5
271.924	5.5
272.719	4.5
273.515	6.5
274.311	7.5
275.106	6.5
275.901	5.5
276.697	7.5
277.492	9.5
278.287	7.5
279.082	10.5
279.877	9.5
280.672	8.5
281.467	9.5
282.262	8.5
283.056	9.5
283.851	9.5
284.646	10.5
285.44	8.5
286.234	8.5
287.029	9.5
287.823	10.5
288.617	9.5
289.411	10.5
290.205	9.5
290.999	8.5
291.793	8.5
292.587	10.5
293.381	11.5
294.174	9.5
294.968	8.5
295.761	10.5
296.555	9.5
297.348	10.5
298.141	9.5
298.935	8.5
299.728	10.5
300.521	10.5
301.314	10.5
302.107	6.5
302.899	7.5
303.692	8.5
304.485	6.5
305.277	8.5
306.07	5.5
306.862	8.5
307.655	8.5
308.447	7.5
309.239	8.5
310.031	6.5
310.823	7.5
311.615	7.5
312.407	4.5
313.199	6.5
313.991	4.5
314.783	7.5
315.574	3.5
316.366	7.5
317.157	2.5
317.949	6.5
318.74	1.5
319.531	5.5
320.322	5.5
321.113	2.5
321.904	3.5
322.695	2.5
323.486	2.5
324.277	2.5
325.068	4.5
325.858	5.5
326.649	4.5
327.439	5.5
328.23	5.5
329.02	4.5
329.81	5.5
330.6	3.5
331.391	4.5
332.181	3.5
332.971	3.5
333.76	5.5
334.55	3.5
335.34	4.5
336.13	3.5
336.919	5.5
337.709	2.5
338.498	2.5
339.287	2.5
340.077	3.5
340.866	3.5
341.655	2.5
342.444	3.5
343.233	3.5
344.022	5.5
344.811	4.5
345.6	2.5
346.388	2.5
347.177	0.5
347.965	2.5
348.754	2.5
349.542	4.5
350.33	2.5
351.119	1.5
351.907	2.5
352.695	2.5
353.483	2.5
354.271	3.5
355.059	3.5
355.846	2.5
356.634	3.5
357.422	2.5
358.209	3.5
358.997	1.5
359.784	1.5
360.571	3.5
361.359	3.5
362.146	3.5
362.933	4.5
363.72	3.5
364.507	2.5
365.294	1.5
366.081	0.5
366.867	1.5
367.654	3.5
368.44	3.5
369.227	0.5
370.013	4.5
370.8	0.5
371.586	3.5
372.372	4.5
373.158	3.5
373.944	2.5
374.73	4.5
375.516	0.5
376.302	0.5
377.088	1.5
377.873	3.5
378.659	2.5
379.445	3.5
380.23	1.5
381.015	2.5
381.801	0.5
382.586	4.5
383.371	2.5
384.156	2.5
384.941	1.5
385.726	4.5
386.511	5.5
387.296	1.5
388.08	3.5
388.865	2.5
389.649	3.5
390.434	4.5
391.218	1.5
392.003	4.5
392.787	1.5
393.571	4.5
394.355	2.5
395.139	2.5
395.923	3.5
396.707	3.5
397.491	4.5
398.274	4.5
399.058	1.5
399.842	4.5
400.625	2.5
401.408	1.5
402.192	1.5
402.975	3.5
403.758	2.5
404.541	2.5
405.324	5.5
406.107	1.5
406.89	2.5
407.673	2.5
408.456	4.5
409.238	2.5
410.021	3.5
410.803	5.5
411.586	2.5
412.368	5.5
413.151	4.5
413.933	2.5
414.715	1.5
415.497	4.5
416.279	5.5
417.061	2.5
417.843	5.5
418.624	4.5
419.406	7.5
420.188	7.5
420.969	6.5
421.751	6.5
422.532	3.5
423.313	4.5
424.095	5.5
424.876	6.5
425.657	4.5
426.438	7.5
427.219	7.5
428	5.5
428.78	6.5
429.561	6.5
430.342	8.5
431.122	8.5
431.903	7.5
432.683	8.5
433.464	6.5
434.244	7.5
435.024	4.5
435.804	11.5
436.584	11.5
437.364	7.5
438.144	11.5
438.924	10.5
439.704	9.5
440.483	9.5
441.263	12.5
442.042	14.5
442.822	14.5
443.601	14.5
444.38	14.5
445.16	18.5
445.939	15.5
446.718	18.5
447.497	19.5
448.276	21.5
449.054	23.5
449.833	23.5
450.612	27.5
451.391	28.5
452.169	32.5
452.948	33.5
453.726	34.5
454.504	42.5
455.282	49.5
456.061	53.5
456.839	54.5
457.617	61.5
458.395	71.5
459.172	72.5
459.95	84.5
460.728	90.5
461.506	96.5
462.283	114.5
463.061	121.5
463.838	139.5
464.615	162.5
465.393	177.5
466.17	192.5
466.947	217.5
467.724	241.5
468.501	268.5
469.278	286.5
470.055	323.5
470.831	358.5
471.608	396.5
472.385	439.5
473.161	485.5
473.938	540.5
474.714	594.5
475.49	649.5
476.266	725.5
477.043	804.5
477.819	875.5
478.595	963.5
479.371	1056.5
480.146	1153.5
480.922	1270.5
481.698	1382.5
482.473	1528.5
483.249	1683.5
484.024	1828.5
484.8	2004.5
485.575	2197.5
486.35	2400.5
487.126	2620.5
487.901	2869.5
488.676	3120.5
489.451	3420.5
490.225	3744.5
491	4066.5
491.775	4434.5
492.55	4840.5
493.324	5255.5
494.099	5733.5
494.873	6190.5
495.647	6718.5
496.422	7285.5
497.196	7881.5
497.97	8490.5
498.744	9083.5
499.518	9757.5
500.292	10404.5
501.066	10981.5
501.839	11675.5
502.613	12234.5
503.387	12841.5
504.16	13449.5
504.934	13901.5
505.707	14242.5
506.48	14595.5
507.253	14878.5
508.027	15127.5
508.8	15189.5
509.573	15193.5
510.346	15102.5
511.118	14898.5
511.891	14664.5
512.664	14347.5
513.437	13950.5
514.209	13553.5
514.982	13109.5
515.754	12635.5
516.526	12141.5
517.298	11645.5
518.071	11172.5
518.843	10685.5
519.615	10300.5
520.387	9835.5
521.159	9452.5
521.93	9058.5
522.702	8735.5
523.474	8364.5
524.245	8041.5
525.017	7736.5
525.788	7404.5
526.56	7106.5
527.331	6841.5
528.102	6539.5
528.873	6294.5
529.644	6009.5
530.415	5775.5
531.186	5493.5
531.957	5237.5
532.728	4982.5
533.498	4728.5
534.269	4526.5
535.039	4245.5
535.81	4037.5
536.58	3814.5
537.351	3593.5
538.121	3439.5
538.891	3249.5
539.661	3072.5
540.431	2898.5
541.201	2746.5
541.971	2591.5
542.741	2464.5
543.51	2337.5
544.28	2216.5
545.05	2121.5
545.819	2000.5
546.588	1899.5
547.358	1789.5
548.127	1717.5
548.896	1626.5
549.665	1555.5
550.434	1489.5
551.203	1400.5
551.972	1336.5
552.741	1273.5
553.51	1200.5
554.278	1130.5
555.047	1077.5
555.815	998.5
556.584	954.5
557.352	914.5
558.121	857.5
558.889	803.5
559.657	752.5
560.425	720.5
561.193	670.5
561.961	642.5
562.729	611.5
563.496	566.5
564.264	537.5
565.032	506.5
565.799	482.5
566.567	450.5
567.334	425.5
568.101	400.5
568.869	378.5
569.636	354.5
570.403	334.5
571.17	321.5
571.937	294.5
572.704	285.5
573.471	267.5
574.237	255.5
575.004	240.5
575.771	222.5
576.537	211.5
577.303	196.5
578.07	189.5
578.836	172.5
579.602	166.5
580.368	162.5
581.134	149.5
581.9	143.5
582.666	131.5
583.432	124.5
584.198	114.5
584.964	112.5
585.729	103.5
586.495	100.5
587.26	102.5
588.025	87.5
588.791	83.5
589.556	86.5
590.321	78.5
591.086	74.5
591.851	66.5
592.616	65.5
593.381	61.5
594.146	57.5
594.911	55.5
595.675	51.5
596.44	47.5
597.204	48.5
597.969	45.5
598.733	43.5
599.497	41.5
600.261	36.5
601.025	37.5
601.79	35.5
602.553	32.5
603.317	35.5
604.081	30.5
604.845	29.5
605.609	29.5
606.372	27.5
607.136	25.5
607.899	25.5
608.662	26.5
609.426	25.5
610.189	21.5
610.952	21.5
611.715	20.5
612.478	18.5
613.241	17.5
614.004	18.5
614.767	16.5
615.529	14.5
616.292	16.5
617.055	15.5
617.817	16.5
618.579	14.5
619.342	17.5
620.104	11.5
620.866	15.5
621.628	11.5
622.39	14.5
623.152	11.5
623.914	11.5
624.676	11.5
625.438	8.5
626.199	12.5
626.961	9.5
627.722	7.5
628.484	8.5
629.245	10.5
630.006	10.5
630.768	8.5
631.529	12.5
632.29	10.5
633.051	7.5
633.812	8.5
634.573	4.5
635.333	7.5
636.094	8.5
636.855	7.5
637.615	5.5
638.376	5.5
639.136	5.5
639.896	3.5
640.657	4.5
641.417	5.5
642.177	6.5
642.937	2.5
643.697	6.5
644.457	4.5
645.216	5.5
645.976	6.5
646.736	3.5
647.495	4.5
648.255	3.5
649.014	5.5
649.774	3.5
650.533	2.5
651.292	5.5
652.051	1.5
652.81	4.5
653.569	3.5
654.328	4.5
655.087	4.5
655.846	2.5
656.604	3.5
657.363	4.5
658.121	2.5
658.88	1.5
659.638	1.5
660.397	3.5
661.155	2.5
661.913	2.5
662.671	2.5
663.429	1.5
664.187	2.5
664.945	2.5
665.703	2.5
666.46	1.5
667.218	3.5
667.976	0.5
668.733	1.5
669.49	2.5
670.248	3.5
671.005	1.5
671.762	4.5
672.519	3.5
673.276	3.5
674.033	4.5
674.79	1.5
675.547	3.5
676.304	1.5
677.06	2.5
677.817	2.5
678.574	2.5
679.33	2.5
680.086	5.5
680.843	3.5
681.599	4.5
682.355	-0.5
683.111	3.5
683.867	3.5
684.623	3.5
685.379	4.5
686.135	1.5
686.89	0.5
687.646	0.5
688.402	1.5
689.157	2.5
689.912	3.5
690.668	2.5
691.423	1.5
692.178	1.5
692.933	1.5
693.688	2.5
694.443	3.5
695.198	1.5
695.953	2.5
696.708	2.5
697.462	2.5
698.217	-0.5
698.972	2.5
699.726	0.5
700.48	3.5
701.235	2.5
701.989	0.5
702.743	3.5
703.497	2.5
704.251	2.5
705.005	1.5
705.759	-0.5
706.513	2.5
707.266	2.5
708.02	4.5
708.774	1.5
709.527	3.5
710.28	-0.5
711.034	1.5
711.787	1.5
712.54	3.5
713.293	1.5
714.046	1.5
714.799	2.5
715.552	0.5
716.305	2.5
717.058	2.5
717.81	2.5
718.563	3.5
719.315	1.5
720.068	1.5
720.82	2.5
721.573	-0.5
722.325	4.5
723.077	1.5
723.829	2.5
724.581	-0.5
725.333	2.5
726.085	2.5
726.836	2.5
727.588	2.5
728.34	1.5
729.091	1.5
729.843	0.5
730.594	1.5
731.346	1.5
732.097	1.5
732.848	2.5
733.599	1.5
734.35	2.5
735.101	1.5
735.852	4.5
736.603	1.5
737.354	2.5
738.104	0.5
738.855	0.5
739.605	1.5
740.356	3.5
741.106	3.5
741.856	3.5
742.607	1.5
743.357	1.5
744.107	1.5
744.857	2.5
745.607	0.5
746.357	2.5
747.106	2.5
747.856	1.5
748.606	2.5
749.355	0.5
750.105	2.5
750.854	2.5
751.603	2.5
752.353	2.5
753.102	2.5
753.851	3.5
754.6	1.5
755.349	5.5
756.098	2.5
756.847	3.5
757.595	3.5
758.344	1.5
759.093	5.5
759.841	2.5
760.589	4.5
761.338	2.5
762.086	-0.5
762.834	2.5
763.582	4.5
764.331	3.5
765.079	1.5
765.826	3.5
766.574	6.5
767.322	1.5
768.07	2.5
768.817	4.5
769.565	3.5
770.312	3.5
771.06	3.5
771.807	4.5
772.554	3.5
773.302	4.5
774.049	4.5
774.796	4.5
775.543	3.5
776.29	5.5
777.036	4.5
777.783	2.5
778.53	5.5
779.276	3.5
780.023	4.5
780.769	2.5
781.516	4.5
782.262	5.5
783.008	3.5
783.754	2.5
784.5	5.5
785.246	4.5
785.992	6.5
786.738	3.5
787.484	3.5
788.23	4.5
788.975	4.5
789.721	5.5
790.466	6.5
791.212	3.5
791.957	2.5
792.702	3.5
793.447	3.5
794.193	7.5
794.938	2.5
795.683	5.5
796.427	4.5
797.172	4.5
797.917	2.5
798.662	3.5
799.406	4.5
800.151	3.5
800.895	4.5
801.64	4.5
802.384	6.5
803.128	3.5
803.872	2.5
804.616	3.5
805.36	2.5
806.104	3.5
806.848	5.5
807.592	2.5
808.336	5.5
809.079	3.5
809.823	4.5
810.566	1.5
811.31	4.5
812.053	3.5
812.796	3.5
813.539	3.5
814.283	2.5
815.026	5.5
815.769	3.5
816.511	2.5
817.254	4.5
817.997	3.5
818.74	2.5
819.482	2.5
820.225	4.5
820.967	2.5
821.71	3.5
822.452	4.5
823.194	2.5
823.936	3.5
824.678	2.5
825.42	4.5
826.162	2.5
826.904	4.5
827.646	5.5
828.388	3.5
829.129	1.5
829.871	2.5
830.612	3.5
831.354	3.5
832.095	1.5
832.836	1.5
833.577	0.5
834.319	2.5
835.06	2.5
835.801	2.5
836.542	1.5
837.282	5.5
838.023	2.5
838.764	2.5
839.504	3.5
840.245	0.5
840.985	0.5
841.726	2.5
842.466	0.5
843.206	2.5
843.946	1.5
844.687	1.5
845.427	2.5
846.166	3.5
846.906	0.5
847.646	-0.5
848.386	1.5
849.125	5.5
849.865	0.5
850.605	2.5
851.344	3.5
852.083	0.5
852.823	3.5
853.562	3.5
854.301	2.5
855.04	4.5
855.779	0.5
856.518	1.5
857.257	1.5
857.995	2.5
858.734	1.5
859.473	-1.5
860.211	2.5
860.95	-0.5
861.688	2.5
862.426	2.5
863.165	-0.5
863.903	1.5
864.641	0.5
865.379	1.5
866.117	1.5
866.855	-1.5
867.593	2.5
868.33	2.5
869.068	1.5
869.806	2.5
870.543	3.5
871.28	2.5
872.018	0.5
872.755	0.5
873.492	0.5
874.229	2.5
874.967	1.5
875.703	2.5
876.44	1.5
877.177	3.5
877.914	1.5
878.651	0.5
879.387	1.5
880.124	-1.5
880.86	3.5
881.597	1.5
882.333	-0.5
883.069	0.5
883.806	1.5
884.542	0.5
885.278	-1.5
886.014	2.5
886.749	0.5
887.485	1.5
888.221	1.5
888.957	0.5
889.692	-0.5
890.428	0.5
891.163	-1.5
891.899	-0.5
892.634	3.5
893.369	-0.5
894.104	-0.5
894.839	0.5
895.574	0.5
896.309	0.5
897.044	0.5
897.779	2.5
898.514	0.5
899.248	1.5
899.983	2.5
900.717	1.5
901.452	-0.5
902.186	-1.5
902.92	1.5
903.654	-0.5
904.389	-0.5
905.123	0.5
905.857	-1.5
906.59	1.5
907.324	0.5
908.058	-0.5
908.792	-1.5
909.525	-0.5
910.259	-0.5
910.992	1.5
911.726	-0.5
912.459	1.5
913.192	1.5
913.925	2.5
914.658	-1.5
915.391	0.5
916.124	-2.5
916.857	0.5
917.59	1.5
918.323	-0.5
919.055	0.5
919.788	-0.5
920.521	0.5
921.253	-0.5
921.985	-0.5
922.718	1.5
923.45	0.5
924.182	0.5
924.914	-1.5
925.646	0.5
926.378	-0.5
927.11	1.5
927.841	-0.5
928.573	1.5
929.305	-1.5
930.036	0.5
930.768	-1.5
931.499	0.5
932.23	1.5
932.962	1.5
933.693	-1.5
934.424	0.5
935.155	-0.5
935.886	2.5
936.617	1.5
937.348	-0.5
938.078	-1.5
938.809	-0.5
939.54	-0.5
940.27	-2.5
941.001	-0.5
941.731	0.5
942.461	0.5
943.191	2.5
943.922	-2.5
944.652	-0.5
945.382	-1.5
946.112	-1.5
946.841	0.5
947.571	0.5
948.301	-0.5
949.031	1.5
949.76	-0.5
950.49	0.5
951.219	-1.5
951.948	0.5
952.678	0.5
953.407	-0.5
954.136	0.5
954.865	-1.5
955.594	-1.5
956.323	2.5
957.052	0.5
957.78	1.5
958.509	-0.5
959.238	-1.5
959.966	1.5
960.695	-0.5
961.423	-1.5
962.151	-0.5
962.88	-0.5
963.608	0.5
964.336	0.5
965.064	0.5
965.792	0.5
966.52	1.5
967.247	-1.5
967.975	2.5
968.703	0.5
969.43	1.5
970.158	2.5
970.885	1.5
971.613	2.5
972.34	-0.5
973.067	-1.5
973.794	1.5
974.521	0.5
975.248	1.5
975.975	0.5
976.702	0.5
977.429	-0.5
978.156	0.5
978.882	0.5
979.609	-1.5
980.335	1.5
981.062	1.5
981.788	0.5
982.514	-0.5
983.24	1.5
983.967	1.5
984.693	0.5
985.419	2.5
986.144	-1.5
986.87	1.5
987.596	0.5
988.322	-0.5
989.047	-1.5
989.773	1.5
990.498	3.5
991.224	1.5
991.949	-0.5
992.674	0.5
993.399	0.5
994.124	-0.5
994.849	0.5
995.574	2.5
996.299	-2.5
997.024	0.5
997.749	1.5
998.473	2.5
999.198	1.5
999.922	-0.5
1000.647	-2.5
1001.371	4.5
1002.095	-1.5
1002.82	-1.5
1003.544	-0.5
1004.268	1.5
1004.992	-0.5
1005.716	1.5
1006.439	-1.5
1007.163	0.5
1007.887	0.5
1008.611	-0.5
1009.334	0.5
1010.058	-1.5
1010.781	0.5
1011.504	0.5
1012.228	-1.5
1012.951	0.5
1013.674	-2.5
1014.397	-0.5
1015.12	1.5
