节点500_145_QEPB04081__58__11-29-52-712.txt的数据

Date: Wed Nov 12 11:29:52 CST 2025
User: PC
Spectrometer: QEPB0408
触发模式: 0
积分时间 (秒): 1.000000E-2
Scans to average: 1
启用暗噪声校正: true
启用非线性校正: false
滑动平均宽度: 0
X轴模式: Wavelengths
Number of Pixels in Spectrum: 1044
>>>>>Begin Spectral Data<<<<<
220.843	0.25
221.644	0.25
222.444	0.25
223.244	0.25
224.045	2.25
224.845	0.25
225.645	1.25
226.445	1.25
227.245	0.25
228.045	3.25
228.845	1.25
229.645	2.25
230.444	1.25
231.244	-1.75
232.043	-1.75
232.843	1.25
233.642	0.25
234.442	2.25
235.241	0.25
236.04	0.25
236.839	-0.75
237.638	2.25
238.437	0.25
239.236	0.25
240.035	2.25
240.833	-1.75
241.632	2.25
242.43	1.25
243.229	2.25
244.027	1.25
244.826	1.25
245.624	2.25
246.422	3.25
247.22	3.25
248.018	2.25
248.816	4.25
249.614	3.25
250.412	3.25
251.21	3.25
252.007	1.25
252.805	3.25
253.602	1.25
254.4	3.25
255.197	2.25
255.994	6.25
256.791	5.25
257.589	3.25
258.386	5.25
259.183	4.25
259.979	4.25
260.776	4.25
261.573	4.25
262.37	4.25
263.166	5.25
263.963	7.25
264.759	4.25
265.556	8.25
266.352	7.25
267.148	7.25
267.944	9.25
268.74	7.25
269.536	6.25
270.332	7.25
271.128	9.25
271.924	7.25
272.719	9.25
273.515	13.25
274.311	10.25
275.106	10.25
275.901	11.25
276.697	12.25
277.492	9.25
278.287	12.25
279.082	11.25
279.877	11.25
280.672	9.25
281.467	13.25
282.262	12.25
283.056	11.25
283.851	12.25
284.646	13.25
285.44	10.25
286.234	12.25
287.029	10.25
287.823	11.25
288.617	12.25
289.411	9.25
290.205	11.25
290.999	11.25
291.793	11.25
292.587	13.25
293.381	11.25
294.174	11.25
294.968	12.25
295.761	10.25
296.555	9.25
297.348	10.25
298.141	9.25
298.935	10.25
299.728	11.25
300.521	9.25
301.314	9.25
302.107	11.25
302.899	7.25
303.692	9.25
304.485	7.25
305.277	7.25
306.07	7.25
306.862	9.25
307.655	8.25
308.447	9.25
309.239	7.25
310.031	6.25
310.823	8.25
311.615	7.25
312.407	9.25
313.199	7.25
313.991	5.25
314.783	5.25
315.574	5.25
316.366	6.25
317.157	6.25
317.949	4.25
318.74	4.25
319.531	7.25
320.322	6.25
321.113	5.25
321.904	5.25
322.695	4.25
323.486	5.25
324.277	4.25
325.068	3.25
325.858	3.25
326.649	6.25
327.439	3.25
328.23	3.25
329.02	5.25
329.81	3.25
330.6	4.25
331.391	3.25
332.181	3.25
332.971	4.25
333.76	2.25
334.55	5.25
335.34	4.25
336.13	4.25
336.919	5.25
337.709	5.25
338.498	3.25
339.287	1.25
340.077	2.25
340.866	6.25
341.655	4.25
342.444	4.25
343.233	3.25
344.022	3.25
344.811	2.25
345.6	5.25
346.388	4.25
347.177	4.25
347.965	5.25
348.754	3.25
349.542	1.25
350.33	5.25
351.119	3.25
351.907	2.25
352.695	2.25
353.483	4.25
354.271	3.25
355.059	2.25
355.846	4.25
356.634	2.25
357.422	3.25
358.209	5.25
358.997	4.25
359.784	2.25
360.571	3.25
361.359	4.25
362.146	2.25
362.933	2.25
363.72	3.25
364.507	2.25
365.294	2.25
366.081	2.25
366.867	3.25
367.654	1.25
368.44	4.25
369.227	0.25
370.013	4.25
370.8	4.25
371.586	3.25
372.372	3.25
373.158	2.25
373.944	2.25
374.73	3.25
375.516	5.25
376.302	4.25
377.088	1.25
377.873	2.25
378.659	1.25
379.445	1.25
380.23	3.25
381.015	3.25
381.801	0.25
382.586	1.25
383.371	2.25
384.156	-0.75
384.941	2.25
385.726	2.25
386.511	3.25
387.296	3.25
388.08	0.25
388.865	1.25
389.649	3.25
390.434	5.25
391.218	5.25
392.003	1.25
392.787	6.25
393.571	3.25
394.355	6.25
395.139	3.25
395.923	3.25
396.707	4.25
397.491	3.25
398.274	3.25
399.058	4.25
399.842	5.25
400.625	4.25
401.408	6.25
402.192	2.25
402.975	3.25
403.758	1.25
404.541	3.25
405.324	5.25
406.107	2.25
406.89	3.25
407.673	4.25
408.456	2.25
409.238	4.25
410.021	2.25
410.803	7.25
411.586	6.25
412.368	3.25
413.151	4.25
413.933	6.25
414.715	4.25
415.497	4.25
416.279	5.25
417.061	4.25
417.843	4.25
418.624	4.25
419.406	5.25
420.188	6.25
420.969	5.25
421.751	6.25
422.532	7.25
423.313	7.25
424.095	5.25
424.876	4.25
425.657	5.25
426.438	6.25
427.219	6.25
428	5.25
428.78	5.25
429.561	7.25
430.342	6.25
431.122	7.25
431.903	8.25
432.683	10.25
433.464	9.25
434.244	7.25
435.024	8.25
435.804	7.25
436.584	12.25
437.364	10.25
438.144	10.25
438.924	10.25
439.704	10.25
440.483	11.25
441.263	10.25
442.042	13.25
442.822	10.25
443.601	10.25
444.38	15.25
445.16	16.25
445.939	16.25
446.718	17.25
447.497	17.25
448.276	19.25
449.054	23.25
449.833	22.25
450.612	25.25
451.391	26.25
452.169	26.25
452.948	29.25
453.726	32.25
454.504	34.25
455.282	38.25
456.061	43.25
456.839	47.25
457.617	51.25
458.395	54.25
459.172	60.25
459.95	65.25
460.728	76.25
461.506	84.25
462.283	88.25
463.061	105.25
463.838	110.25
464.615	122.25
465.393	145.25
466.17	150.25
466.947	170.25
467.724	194.25
468.501	222.25
469.278	241.25
470.055	273.25
470.831	304.25
471.608	341.25
472.385	376.25
473.161	419.25
473.938	478.25
474.714	527.25
475.49	592.25
476.266	659.25
477.043	733.25
477.819	811.25
478.595	902.25
479.371	1014.25
480.146	1111.25
480.922	1238.25
481.698	1367.25
482.473	1525.25
483.249	1701.25
484.024	1873.25
484.8	2082.25
485.575	2304.25
486.35	2565.25
487.126	2842.25
487.901	3122.25
488.676	3481.25
489.451	3840.25
490.225	4280.25
491	4693.25
491.775	5212.25
492.55	5761.25
493.324	6300.25
494.099	6973.25
494.873	7607.25
495.647	8345.25
496.422	9098.25
497.196	9835.25
497.97	10702.25
498.744	11502.25
499.518	12258.25
500.292	13099.25
501.066	13830.25
501.839	14567.25
502.613	15282.25
503.387	15842.25
504.16	16427.25
504.934	16746.25
505.707	17071.25
506.48	17255.25
507.253	17312.25
508.027	17318.25
508.8	17108.25
509.573	16855.25
510.346	16487.25
511.118	15999.25
511.891	15496.25
512.664	14900.25
513.437	14258.25
514.209	13745.25
514.982	13108.25
515.754	12539.25
516.526	11938.25
517.298	11347.25
518.071	10860.25
518.843	10377.25
519.615	9947.25
520.387	9547.25
521.159	9167.25
521.93	8776.25
522.702	8429.25
523.474	8133.25
524.245	7834.25
525.017	7477.25
525.788	7200.25
526.56	6890.25
527.331	6547.25
528.102	6266.25
528.873	6043.25
529.644	5709.25
530.415	5450.25
531.186	5181.25
531.957	4892.25
532.728	4643.25
533.498	4363.25
534.269	4129.25
535.039	3894.25
535.81	3676.25
536.58	3474.25
537.351	3283.25
538.121	3109.25
538.891	2899.25
539.661	2741.25
540.431	2619.25
541.201	2460.25
541.971	2330.25
542.741	2222.25
543.51	2096.25
544.28	2007.25
545.05	1905.25
545.819	1803.25
546.588	1726.25
547.358	1632.25
548.127	1534.25
548.896	1467.25
549.665	1393.25
550.434	1322.25
551.203	1261.25
551.972	1175.25
552.741	1130.25
553.51	1075.25
554.278	997.25
555.047	951.25
555.815	892.25
556.584	845.25
557.352	791.25
558.121	745.25
558.889	693.25
559.657	653.25
560.425	624.25
561.193	591.25
561.961	548.25
562.729	518.25
563.496	493.25
564.264	463.25
565.032	430.25
565.799	416.25
566.567	394.25
567.334	367.25
568.101	346.25
568.869	326.25
569.636	311.25
570.403	292.25
571.17	275.25
571.937	259.25
572.704	245.25
573.471	234.25
574.237	218.25
575.004	207.25
575.771	198.25
576.537	182.25
577.303	168.25
578.07	162.25
578.836	159.25
579.602	142.25
580.368	135.25
581.134	124.25
581.9	121.25
582.666	116.25
583.432	109.25
584.198	105.25
584.964	100.25
585.729	87.25
586.495	84.25
587.26	84.25
588.025	79.25
588.791	76.25
589.556	72.25
590.321	67.25
591.086	61.25
591.851	58.25
592.616	52.25
593.381	55.25
594.146	50.25
594.911	46.25
595.675	44.25
596.44	47.25
597.204	42.25
597.969	39.25
598.733	40.25
599.497	38.25
600.261	34.25
601.025	33.25
601.79	31.25
602.553	29.25
603.317	28.25
604.081	25.25
604.845	26.25
605.609	23.25
606.372	23.25
607.136	23.25
607.899	23.25
608.662	21.25
609.426	22.25
610.189	19.25
610.952	21.25
611.715	18.25
612.478	17.25
613.241	16.25
614.004	13.25
614.767	15.25
615.529	16.25
616.292	14.25
617.055	14.25
617.817	11.25
618.579	12.25
619.342	11.25
620.104	12.25
620.866	12.25
621.628	10.25
622.39	11.25
623.152	8.25
623.914	10.25
624.676	10.25
625.438	9.25
626.199	12.25
626.961	10.25
627.722	11.25
628.484	9.25
629.245	7.25
630.006	5.25
630.768	10.25
631.529	9.25
632.29	7.25
633.051	8.25
633.812	7.25
634.573	8.25
635.333	6.25
636.094	7.25
636.855	8.25
637.615	7.25
638.376	5.25
639.136	6.25
639.896	8.25
640.657	5.25
641.417	4.25
642.177	5.25
642.937	3.25
643.697	5.25
644.457	5.25
645.216	5.25
645.976	5.25
646.736	4.25
647.495	5.25
648.255	5.25
649.014	4.25
649.774	3.25
650.533	4.25
651.292	7.25
652.051	5.25
652.81	1.25
653.569	5.25
654.328	3.25
655.087	2.25
655.846	4.25
656.604	4.25
657.363	2.25
658.121	4.25
658.88	-1.75
659.638	3.25
660.397	2.25
661.155	3.25
661.913	3.25
662.671	2.25
663.429	4.25
664.187	4.25
664.945	5.25
665.703	3.25
666.46	3.25
667.218	4.25
667.976	1.25
668.733	3.25
669.49	3.25
670.248	5.25
671.005	4.25
671.762	4.25
672.519	2.25
673.276	2.25
674.033	3.25
674.79	1.25
675.547	3.25
676.304	2.25
677.06	2.25
677.817	2.25
678.574	1.25
679.33	2.25
680.086	2.25
680.843	3.25
681.599	4.25
682.355	3.25
683.111	1.25
683.867	2.25
684.623	2.25
685.379	2.25
686.135	3.25
686.89	2.25
687.646	2.25
688.402	3.25
689.157	3.25
689.912	2.25
690.668	4.25
691.423	2.25
692.178	3.25
692.933	1.25
693.688	2.25
694.443	0.25
695.198	5.25
695.953	3.25
696.708	2.25
697.462	4.25
698.217	-0.75
698.972	2.25
699.726	2.25
700.48	2.25
701.235	2.25
701.989	3.25
702.743	2.25
703.497	2.25
704.251	2.25
705.005	1.25
705.759	2.25
706.513	2.25
707.266	1.25
708.02	4.25
708.774	2.25
709.527	2.25
710.28	3.25
711.034	2.25
711.787	2.25
712.54	2.25
713.293	3.25
714.046	0.25
714.799	2.25
715.552	-0.75
716.305	1.25
717.058	2.25
717.81	1.25
718.563	3.25
719.315	-0.75
720.068	-0.75
720.82	0.25
721.573	3.25
722.325	2.25
723.077	1.25
723.829	2.25
724.581	2.25
725.333	4.25
726.085	3.25
726.836	4.25
727.588	1.25
728.34	2.25
729.091	3.25
729.843	2.25
730.594	4.25
731.346	1.25
732.097	2.25
732.848	2.25
733.599	0.25
734.35	3.25
735.101	1.25
735.852	2.25
736.603	2.25
737.354	1.25
738.104	2.25
738.855	1.25
739.605	4.25
740.356	3.25
741.106	3.25
741.856	4.25
742.607	4.25
743.357	2.25
744.107	0.25
744.857	5.25
745.607	3.25
746.357	2.25
747.106	4.25
747.856	4.25
748.606	4.25
749.355	2.25
750.105	0.25
750.854	4.25
751.603	3.25
752.353	4.25
753.102	2.25
753.851	4.25
754.6	3.25
755.349	4.25
756.098	4.25
756.847	1.25
757.595	2.25
758.344	3.25
759.093	5.25
759.841	3.25
760.589	3.25
761.338	4.25
762.086	4.25
762.834	5.25
763.582	2.25
764.331	4.25
765.079	3.25
765.826	5.25
766.574	4.25
767.322	3.25
768.07	3.25
768.817	2.25
769.565	4.25
770.312	1.25
771.06	3.25
771.807	4.25
772.554	6.25
773.302	5.25
774.049	4.25
774.796	4.25
775.543	5.25
776.29	6.25
777.036	6.25
777.783	7.25
778.53	5.25
779.276	3.25
780.023	5.25
780.769	5.25
781.516	5.25
782.262	8.25
783.008	4.25
783.754	5.25
784.5	5.25
785.246	6.25
785.992	3.25
786.738	3.25
787.484	4.25
788.23	4.25
788.975	7.25
789.721	4.25
790.466	3.25
791.212	7.25
791.957	5.25
792.702	7.25
793.447	6.25
794.193	5.25
794.938	4.25
795.683	5.25
796.427	4.25
797.172	6.25
797.917	7.25
798.662	5.25
799.406	4.25
800.151	3.25
800.895	4.25
801.64	5.25
802.384	4.25
803.128	6.25
803.872	4.25
804.616	6.25
805.36	4.25
806.104	4.25
806.848	3.25
807.592	5.25
808.336	3.25
809.079	2.25
809.823	4.25
810.566	5.25
811.31	6.25
812.053	4.25
812.796	4.25
813.539	3.25
814.283	3.25
815.026	5.25
815.769	5.25
816.511	3.25
817.254	4.25
817.997	2.25
818.74	3.25
819.482	3.25
820.225	4.25
820.967	2.25
821.71	0.25
822.452	2.25
823.194	3.25
823.936	2.25
824.678	2.25
825.42	6.25
826.162	4.25
826.904	3.25
827.646	3.25
828.388	3.25
829.129	0.25
829.871	3.25
830.612	2.25
831.354	2.25
832.095	2.25
832.836	5.25
833.577	2.25
834.319	3.25
835.06	2.25
835.801	0.25
836.542	3.25
837.282	4.25
838.023	2.25
838.764	2.25
839.504	1.25
840.245	1.25
840.985	4.25
841.726	1.25
842.466	0.25
843.206	2.25
843.946	5.25
844.687	2.25
845.427	2.25
846.166	2.25
846.906	2.25
847.646	2.25
848.386	4.25
849.125	4.25
849.865	3.25
850.605	1.25
851.344	2.25
852.083	2.25
852.823	2.25
853.562	3.25
854.301	1.25
855.04	2.25
855.779	0.25
856.518	2.25
857.257	2.25
857.995	2.25
858.734	1.25
859.473	-0.75
860.211	3.25
860.95	1.25
861.688	1.25
862.426	4.25
863.165	2.25
863.903	2.25
864.641	0.25
865.379	0.25
866.117	0.25
866.855	1.25
867.593	3.25
868.33	3.25
869.068	2.25
869.806	1.25
870.543	-0.75
871.28	-0.75
872.018	0.25
872.755	2.25
873.492	1.25
874.229	2.25
874.967	1.25
875.703	1.25
876.44	3.25
877.177	-1.75
877.914	1.25
878.651	0.25
879.387	4.25
880.124	1.25
880.86	0.25
881.597	1.25
882.333	0.25
883.069	1.25
883.806	2.25
884.542	-1.75
885.278	2.25
886.014	1.25
886.749	3.25
887.485	2.25
888.221	-0.75
888.957	-0.75
889.692	1.25
890.428	2.25
891.163	1.25
891.899	4.25
892.634	1.25
893.369	1.25
894.104	0.25
894.839	0.25
895.574	2.25
896.309	-0.75
897.044	0.25
897.779	0.25
898.514	2.25
899.248	1.25
899.983	1.25
900.717	1.25
901.452	1.25
902.186	1.25
902.92	1.25
903.654	1.25
904.389	1.25
905.123	2.25
905.857	-0.75
906.59	1.25
907.324	-0.75
908.058	1.25
908.792	-0.75
909.525	0.25
910.259	0.25
910.992	0.25
911.726	0.25
912.459	0.25
913.192	0.25
913.925	0.25
914.658	0.25
915.391	0.25
916.124	0.25
916.857	0.25
917.59	1.25
918.323	3.25
919.055	-0.75
919.788	1.25
920.521	0.25
921.253	0.25
921.985	0.25
922.718	1.25
923.45	-0.75
924.182	1.25
924.914	-1.75
925.646	0.25
926.378	0.25
927.11	0.25
927.841	0.25
928.573	-0.75
929.305	-0.75
930.036	2.25
930.768	0.25
931.499	2.25
932.23	1.25
932.962	0.25
933.693	0.25
934.424	0.25
935.155	1.25
935.886	0.25
936.617	1.25
937.348	-1.75
938.078	-0.75
938.809	3.25
939.54	0.25
940.27	-0.75
941.001	-0.75
941.731	2.25
942.461	-0.75
943.191	-2.75
943.922	1.25
944.652	1.25
945.382	0.25
946.112	0.25
946.841	0.25
947.571	0.25
948.301	1.25
949.031	-0.75
949.76	1.25
950.49	1.25
951.219	0.25
951.948	0.25
952.678	3.25
953.407	0.25
954.136	1.25
954.865	1.25
955.594	1.25
956.323	1.25
957.052	-1.75
957.78	0.25
958.509	-1.75
959.238	2.25
959.966	1.25
960.695	1.25
961.423	-0.75
962.151	0.25
962.88	0.25
963.608	0.25
964.336	-0.75
965.064	-1.75
965.792	0.25
966.52	0.25
967.247	-1.75
967.975	0.25
968.703	-1.75
969.43	1.25
970.158	-0.75
970.885	0.25
971.613	-1.75
972.34	0.25
973.067	-0.75
973.794	0.25
974.521	-0.75
975.248	2.25
975.975	-1.75
976.702	0.25
977.429	1.25
978.156	1.25
978.882	0.25
979.609	1.25
980.335	0.25
981.062	1.25
981.788	1.25
982.514	1.25
983.24	-0.75
983.967	-0.75
984.693	2.25
985.419	2.25
986.144	0.25
986.87	-0.75
987.596	0.25
988.322	1.25
989.047	-1.75
989.773	1.25
990.498	-1.75
991.224	1.25
991.949	0.25
992.674	-1.75
993.399	1.25
994.124	-1.75
994.849	2.25
995.574	-0.75
996.299	0.25
997.024	2.25
997.749	2.25
998.473	0.25
999.198	-1.75
999.922	2.25
1000.647	1.25
1001.371	4.25
1002.095	0.25
1002.82	-0.75
1003.544	-1.75
1004.268	-0.75
1004.992	-1.75
1005.716	2.25
1006.439	2.25
1007.163	-0.75
1007.887	-1.75
1008.611	0.25
1009.334	-0.75
1010.058	0.25
1010.781	-0.75
1011.504	0.25
1012.228	2.25
1012.951	-1.75
1013.674	-0.75
1014.397	0.25
1015.12	0.25
