节点500_145_QEPB04081__414__11-35-35-537.txt的数据

Date: Wed Nov 12 11:35:35 CST 2025
User: PC
Spectrometer: QEPB0408
触发模式: 0
积分时间 (秒): 1.000000E-2
Scans to average: 1
启用暗噪声校正: true
启用非线性校正: false
滑动平均宽度: 0
X轴模式: Wavelengths
Number of Pixels in Spectrum: 1044
>>>>>Begin Spectral Data<<<<<
220.843	0.5
221.644	-0.5
222.444	1.5
223.244	1.5
224.045	0.5
224.845	-0.5
225.645	-0.5
226.445	0.5
227.245	-0.5
228.045	0.5
228.845	0.5
229.645	-0.5
230.444	1.5
231.244	0.5
232.043	1.5
232.843	0.5
233.642	1.5
234.442	-0.5
235.241	0.5
236.04	0.5
236.839	0.5
237.638	1.5
238.437	2.5
239.236	3.5
240.035	0.5
240.833	0.5
241.632	-0.5
242.43	2.5
243.229	1.5
244.027	2.5
244.826	3.5
245.624	2.5
246.422	0.5
247.22	-0.5
248.018	1.5
248.816	2.5
249.614	4.5
250.412	2.5
251.21	4.5
252.007	1.5
252.805	2.5
253.602	3.5
254.4	2.5
255.197	2.5
255.994	3.5
256.791	3.5
257.589	3.5
258.386	5.5
259.183	1.5
259.979	6.5
260.776	6.5
261.573	4.5
262.37	2.5
263.166	5.5
263.963	6.5
264.759	5.5
265.556	4.5
266.352	4.5
267.148	5.5
267.944	5.5
268.74	8.5
269.536	6.5
270.332	9.5
271.128	5.5
271.924	7.5
272.719	6.5
273.515	7.5
274.311	8.5
275.106	8.5
275.901	7.5
276.697	10.5
277.492	9.5
278.287	7.5
279.082	10.5
279.877	9.5
280.672	9.5
281.467	12.5
282.262	11.5
283.056	10.5
283.851	9.5
284.646	10.5
285.44	8.5
286.234	12.5
287.029	11.5
287.823	11.5
288.617	11.5
289.411	12.5
290.205	10.5
290.999	11.5
291.793	8.5
292.587	9.5
293.381	10.5
294.174	8.5
294.968	10.5
295.761	10.5
296.555	9.5
297.348	8.5
298.141	8.5
298.935	14.5
299.728	7.5
300.521	10.5
301.314	11.5
302.107	5.5
302.899	8.5
303.692	7.5
304.485	10.5
305.277	10.5
306.07	9.5
306.862	8.5
307.655	9.5
308.447	9.5
309.239	5.5
310.031	9.5
310.823	8.5
311.615	6.5
312.407	7.5
313.199	5.5
313.991	7.5
314.783	6.5
315.574	5.5
316.366	5.5
317.157	5.5
317.949	5.5
318.74	5.5
319.531	4.5
320.322	5.5
321.113	4.5
321.904	3.5
322.695	4.5
323.486	3.5
324.277	4.5
325.068	2.5
325.858	6.5
326.649	5.5
327.439	6.5
328.23	2.5
329.02	2.5
329.81	2.5
330.6	3.5
331.391	3.5
332.181	2.5
332.971	6.5
333.76	4.5
334.55	6.5
335.34	4.5
336.13	4.5
336.919	5.5
337.709	2.5
338.498	4.5
339.287	3.5
340.077	2.5
340.866	3.5
341.655	5.5
342.444	1.5
343.233	5.5
344.022	6.5
344.811	2.5
345.6	5.5
346.388	4.5
347.177	2.5
347.965	5.5
348.754	2.5
349.542	3.5
350.33	5.5
351.119	3.5
351.907	1.5
352.695	1.5
353.483	3.5
354.271	2.5
355.059	5.5
355.846	2.5
356.634	2.5
357.422	4.5
358.209	3.5
358.997	4.5
359.784	2.5
360.571	3.5
361.359	2.5
362.146	4.5
362.933	2.5
363.72	1.5
364.507	3.5
365.294	3.5
366.081	2.5
366.867	0.5
367.654	4.5
368.44	2.5
369.227	1.5
370.013	1.5
370.8	1.5
371.586	2.5
372.372	2.5
373.158	5.5
373.944	2.5
374.73	3.5
375.516	1.5
376.302	0.5
377.088	4.5
377.873	1.5
378.659	2.5
379.445	2.5
380.23	1.5
381.015	5.5
381.801	2.5
382.586	4.5
383.371	4.5
384.156	4.5
384.941	1.5
385.726	4.5
386.511	2.5
387.296	3.5
388.08	5.5
388.865	1.5
389.649	1.5
390.434	2.5
391.218	3.5
392.003	1.5
392.787	1.5
393.571	2.5
394.355	3.5
395.139	2.5
395.923	3.5
396.707	2.5
397.491	1.5
398.274	1.5
399.058	4.5
399.842	3.5
400.625	4.5
401.408	3.5
402.192	3.5
402.975	5.5
403.758	3.5
404.541	3.5
405.324	6.5
406.107	6.5
406.89	3.5
407.673	3.5
408.456	2.5
409.238	2.5
410.021	3.5
410.803	6.5
411.586	6.5
412.368	6.5
413.151	2.5
413.933	5.5
414.715	1.5
415.497	7.5
416.279	4.5
417.061	5.5
417.843	5.5
418.624	3.5
419.406	4.5
420.188	6.5
420.969	6.5
421.751	5.5
422.532	5.5
423.313	5.5
424.095	3.5
424.876	7.5
425.657	6.5
426.438	6.5
427.219	5.5
428	5.5
428.78	7.5
429.561	9.5
430.342	9.5
431.122	7.5
431.903	4.5
432.683	10.5
433.464	10.5
434.244	9.5
435.024	7.5
435.804	9.5
436.584	10.5
437.364	10.5
438.144	13.5
438.924	13.5
439.704	9.5
440.483	13.5
441.263	11.5
442.042	11.5
442.822	13.5
443.601	12.5
444.38	14.5
445.16	16.5
445.939	16.5
446.718	17.5
447.497	18.5
448.276	18.5
449.054	23.5
449.833	22.5
450.612	25.5
451.391	28.5
452.169	30.5
452.948	32.5
453.726	34.5
454.504	38.5
455.282	43.5
456.061	50.5
456.839	53.5
457.617	59.5
458.395	65.5
459.172	70.5
459.95	77.5
460.728	87.5
461.506	96.5
462.283	107.5
463.061	118.5
463.838	128.5
464.615	146.5
465.393	167.5
466.17	182.5
466.947	207.5
467.724	222.5
468.501	250.5
469.278	279.5
470.055	314.5
470.831	352.5
471.608	377.5
472.385	423.5
473.161	467.5
473.938	532.5
474.714	572.5
475.49	638.5
476.266	709.5
477.043	794.5
477.819	864.5
478.595	968.5
479.371	1052.5
480.146	1161.5
480.922	1278.5
481.698	1397.5
482.473	1548.5
483.249	1717.5
484.024	1857.5
484.8	2049.5
485.575	2255.5
486.35	2480.5
487.126	2719.5
487.901	2991.5
488.676	3280.5
489.451	3580.5
490.225	3942.5
491	4332.5
491.775	4744.5
492.55	5187.5
493.324	5672.5
494.099	6195.5
494.873	6717.5
495.647	7335.5
496.422	7931.5
497.196	8604.5
497.97	9239.5
498.744	9924.5
499.518	10675.5
500.292	11351.5
501.066	12058.5
501.839	12756.5
502.613	13371.5
503.387	13994.5
504.16	14513.5
504.934	15062.5
505.707	15435.5
506.48	15729.5
507.253	15903.5
508.027	16045.5
508.8	16102.5
509.573	15957.5
510.346	15740.5
511.118	15591.5
511.891	15188.5
512.664	14749.5
513.437	14323.5
514.209	13899.5
514.982	13327.5
515.754	12790.5
516.526	12255.5
517.298	11747.5
518.071	11185.5
518.843	10730.5
519.615	10293.5
520.387	9895.5
521.159	9466.5
521.93	9076.5
522.702	8721.5
523.474	8413.5
524.245	8071.5
525.017	7707.5
525.788	7443.5
526.56	7119.5
527.331	6841.5
528.102	6543.5
528.873	6251.5
529.644	5968.5
530.415	5686.5
531.186	5445.5
531.957	5176.5
532.728	4927.5
533.498	4667.5
534.269	4424.5
535.039	4187.5
535.81	3974.5
536.58	3716.5
537.351	3539.5
538.121	3351.5
538.891	3155.5
539.661	2962.5
540.431	2814.5
541.201	2660.5
541.971	2520.5
542.741	2409.5
543.51	2278.5
544.28	2161.5
545.05	2053.5
545.819	1953.5
546.588	1864.5
547.358	1754.5
548.127	1674.5
548.896	1601.5
549.665	1489.5
550.434	1434.5
551.203	1354.5
551.972	1292.5
552.741	1222.5
553.51	1165.5
554.278	1094.5
555.047	1034.5
555.815	977.5
556.584	916.5
557.352	874.5
558.121	822.5
558.889	770.5
559.657	737.5
560.425	683.5
561.193	649.5
561.961	613.5
562.729	589.5
563.496	545.5
564.264	519.5
565.032	490.5
565.799	456.5
566.567	447.5
567.334	414.5
568.101	383.5
568.869	368.5
569.636	340.5
570.403	329.5
571.17	308.5
571.937	289.5
572.704	270.5
573.471	259.5
574.237	238.5
575.004	224.5
575.771	214.5
576.537	199.5
577.303	189.5
578.07	181.5
578.836	169.5
579.602	157.5
580.368	149.5
581.134	144.5
581.9	135.5
582.666	130.5
583.432	123.5
584.198	118.5
584.964	102.5
585.729	105.5
586.495	99.5
587.26	93.5
588.025	91.5
588.791	82.5
589.556	76.5
590.321	75.5
591.086	65.5
591.851	64.5
592.616	63.5
593.381	60.5
594.146	56.5
594.911	54.5
595.675	50.5
596.44	49.5
597.204	45.5
597.969	41.5
598.733	41.5
599.497	39.5
600.261	38.5
601.025	34.5
601.79	35.5
602.553	33.5
603.317	28.5
604.081	33.5
604.845	27.5
605.609	26.5
606.372	28.5
607.136	25.5
607.899	26.5
608.662	24.5
609.426	20.5
610.189	21.5
610.952	20.5
611.715	18.5
612.478	18.5
613.241	21.5
614.004	13.5
614.767	16.5
615.529	16.5
616.292	15.5
617.055	14.5
617.817	14.5
618.579	14.5
619.342	15.5
620.104	11.5
620.866	12.5
621.628	12.5
622.39	11.5
623.152	13.5
623.914	10.5
624.676	9.5
625.438	10.5
626.199	9.5
626.961	9.5
627.722	9.5
628.484	6.5
629.245	9.5
630.006	7.5
630.768	7.5
631.529	10.5
632.29	7.5
633.051	7.5
633.812	7.5
634.573	7.5
635.333	6.5
636.094	7.5
636.855	5.5
637.615	7.5
638.376	5.5
639.136	5.5
639.896	6.5
640.657	5.5
641.417	6.5
642.177	4.5
642.937	2.5
643.697	5.5
644.457	4.5
645.216	6.5
645.976	4.5
646.736	4.5
647.495	5.5
648.255	3.5
649.014	5.5
649.774	4.5
650.533	5.5
651.292	1.5
652.051	5.5
652.81	1.5
653.569	1.5
654.328	5.5
655.087	1.5
655.846	4.5
656.604	4.5
657.363	2.5
658.121	3.5
658.88	2.5
659.638	5.5
660.397	2.5
661.155	3.5
661.913	4.5
662.671	3.5
663.429	1.5
664.187	2.5
664.945	5.5
665.703	2.5
666.46	3.5
667.218	5.5
667.976	4.5
668.733	2.5
669.49	3.5
670.248	1.5
671.005	2.5
671.762	1.5
672.519	3.5
673.276	2.5
674.033	1.5
674.79	1.5
675.547	3.5
676.304	1.5
677.06	3.5
677.817	0.5
678.574	-0.5
679.33	3.5
680.086	1.5
680.843	1.5
681.599	2.5
682.355	3.5
683.111	-1.5
683.867	3.5
684.623	3.5
685.379	2.5
686.135	3.5
686.89	3.5
687.646	1.5
688.402	-0.5
689.157	0.5
689.912	2.5
690.668	2.5
691.423	5.5
692.178	3.5
692.933	2.5
693.688	2.5
694.443	1.5
695.198	3.5
695.953	3.5
696.708	2.5
697.462	3.5
698.217	2.5
698.972	2.5
699.726	1.5
700.48	3.5
701.235	1.5
701.989	2.5
702.743	2.5
703.497	1.5
704.251	2.5
705.005	1.5
705.759	2.5
706.513	2.5
707.266	1.5
708.02	4.5
708.774	-0.5
709.527	3.5
710.28	1.5
711.034	0.5
711.787	1.5
712.54	3.5
713.293	2.5
714.046	1.5
714.799	5.5
715.552	-0.5
716.305	2.5
717.058	2.5
717.81	1.5
718.563	2.5
719.315	3.5
720.068	2.5
720.82	1.5
721.573	2.5
722.325	3.5
723.077	3.5
723.829	0.5
724.581	-1.5
725.333	1.5
726.085	0.5
726.836	2.5
727.588	2.5
728.34	1.5
729.091	2.5
729.843	1.5
730.594	2.5
731.346	1.5
732.097	3.5
732.848	4.5
733.599	0.5
734.35	1.5
735.101	1.5
735.852	6.5
736.603	1.5
737.354	3.5
738.104	2.5
738.855	2.5
739.605	1.5
740.356	4.5
741.106	2.5
741.856	2.5
742.607	3.5
743.357	3.5
744.107	1.5
744.857	1.5
745.607	1.5
746.357	3.5
747.106	2.5
747.856	3.5
748.606	4.5
749.355	4.5
750.105	0.5
750.854	4.5
751.603	1.5
752.353	1.5
753.102	-0.5
753.851	3.5
754.6	3.5
755.349	3.5
756.098	1.5
756.847	3.5
757.595	2.5
758.344	2.5
759.093	6.5
759.841	2.5
760.589	4.5
761.338	1.5
762.086	1.5
762.834	1.5
763.582	3.5
764.331	3.5
765.079	2.5
765.826	7.5
766.574	3.5
767.322	4.5
768.07	4.5
768.817	3.5
769.565	3.5
770.312	3.5
771.06	2.5
771.807	1.5
772.554	6.5
773.302	4.5
774.049	3.5
774.796	3.5
775.543	7.5
776.29	6.5
777.036	3.5
777.783	4.5
778.53	4.5
779.276	6.5
780.023	5.5
780.769	2.5
781.516	2.5
782.262	3.5
783.008	4.5
783.754	2.5
784.5	4.5
785.246	5.5
785.992	4.5
786.738	6.5
787.484	4.5
788.23	3.5
788.975	5.5
789.721	5.5
790.466	5.5
791.212	5.5
791.957	4.5
792.702	5.5
793.447	4.5
794.193	3.5
794.938	5.5
795.683	4.5
796.427	4.5
797.172	5.5
797.917	4.5
798.662	5.5
799.406	5.5
800.151	5.5
800.895	6.5
801.64	5.5
802.384	7.5
803.128	4.5
803.872	3.5
804.616	4.5
805.36	6.5
806.104	4.5
806.848	4.5
807.592	5.5
808.336	2.5
809.079	5.5
809.823	2.5
810.566	4.5
811.31	4.5
812.053	2.5
812.796	3.5
813.539	1.5
814.283	2.5
815.026	2.5
815.769	4.5
816.511	2.5
817.254	3.5
817.997	4.5
818.74	3.5
819.482	4.5
820.225	3.5
820.967	3.5
821.71	1.5
822.452	3.5
823.194	3.5
823.936	2.5
824.678	3.5
825.42	3.5
826.162	3.5
826.904	1.5
827.646	1.5
828.388	2.5
829.129	1.5
829.871	2.5
830.612	1.5
831.354	-0.5
832.095	2.5
832.836	3.5
833.577	1.5
834.319	1.5
835.06	1.5
835.801	2.5
836.542	1.5
837.282	2.5
838.023	3.5
838.764	4.5
839.504	3.5
840.245	2.5
840.985	2.5
841.726	0.5
842.466	3.5
843.206	2.5
843.946	3.5
844.687	1.5
845.427	2.5
846.166	1.5
846.906	0.5
847.646	5.5
848.386	1.5
849.125	3.5
849.865	-0.5
850.605	1.5
851.344	1.5
852.083	1.5
852.823	2.5
853.562	1.5
854.301	2.5
855.04	0.5
855.779	4.5
856.518	3.5
857.257	0.5
857.995	1.5
858.734	-1.5
859.473	1.5
860.211	2.5
860.95	2.5
861.688	-1.5
862.426	1.5
863.165	1.5
863.903	1.5
864.641	1.5
865.379	-1.5
866.117	1.5
866.855	1.5
867.593	1.5
868.33	2.5
869.068	-0.5
869.806	0.5
870.543	2.5
871.28	2.5
872.018	3.5
872.755	1.5
873.492	-0.5
874.229	-0.5
874.967	1.5
875.703	0.5
876.44	1.5
877.177	1.5
877.914	1.5
878.651	-0.5
879.387	0.5
880.124	2.5
880.86	0.5
881.597	0.5
882.333	-0.5
883.069	1.5
883.806	0.5
884.542	0.5
885.278	1.5
886.014	-0.5
886.749	-1.5
887.485	1.5
888.221	1.5
888.957	-0.5
889.692	1.5
890.428	0.5
891.163	1.5
891.899	0.5
892.634	2.5
893.369	-0.5
894.104	-0.5
894.839	0.5
895.574	0.5
896.309	0.5
897.044	0.5
897.779	3.5
898.514	1.5
899.248	3.5
899.983	-0.5
900.717	0.5
901.452	2.5
902.186	0.5
902.92	2.5
903.654	-0.5
904.389	2.5
905.123	-2.5
905.857	1.5
906.59	1.5
907.324	2.5
908.058	1.5
908.792	0.5
909.525	0.5
910.259	-1.5
910.992	0.5
911.726	1.5
912.459	-1.5
913.192	2.5
913.925	-1.5
914.658	-0.5
915.391	0.5
916.124	-0.5
916.857	-1.5
917.59	-1.5
918.323	-0.5
919.055	0.5
919.788	1.5
920.521	1.5
921.253	2.5
921.985	2.5
922.718	-1.5
923.45	0.5
924.182	0.5
924.914	-0.5
925.646	1.5
926.378	1.5
927.11	1.5
927.841	0.5
928.573	-0.5
929.305	-1.5
930.036	2.5
930.768	0.5
931.499	1.5
932.23	0.5
932.962	-1.5
933.693	1.5
934.424	-0.5
935.155	1.5
935.886	-1.5
936.617	0.5
937.348	1.5
938.078	0.5
938.809	-0.5
939.54	0.5
940.27	2.5
941.001	0.5
941.731	-1.5
942.461	1.5
943.191	0.5
943.922	0.5
944.652	0.5
945.382	1.5
946.112	1.5
946.841	0.5
947.571	-0.5
948.301	0.5
949.031	1.5
949.76	0.5
950.49	0.5
951.219	2.5
951.948	0.5
952.678	-0.5
953.407	0.5
954.136	0.5
954.865	-0.5
955.594	1.5
956.323	-0.5
957.052	1.5
957.78	-1.5
958.509	-0.5
959.238	1.5
959.966	0.5
960.695	-0.5
961.423	2.5
962.151	0.5
962.88	1.5
963.608	-1.5
964.336	-0.5
965.064	-0.5
965.792	1.5
966.52	-0.5
967.247	0.5
967.975	1.5
968.703	0.5
969.43	-0.5
970.158	-0.5
970.885	-0.5
971.613	-1.5
972.34	-1.5
973.067	1.5
973.794	-0.5
974.521	0.5
975.248	0.5
975.975	1.5
976.702	-0.5
977.429	-1.5
978.156	-1.5
978.882	0.5
979.609	0.5
980.335	0.5
981.062	1.5
981.788	1.5
982.514	0.5
983.24	1.5
983.967	1.5
984.693	0.5
985.419	-1.5
986.144	0.5
986.87	0.5
987.596	0.5
988.322	1.5
989.047	-0.5
989.773	0.5
990.498	0.5
991.224	2.5
991.949	1.5
992.674	2.5
993.399	1.5
994.124	0.5
994.849	-0.5
995.574	-0.5
996.299	1.5
997.024	1.5
997.749	0.5
998.473	-0.5
999.198	0.5
999.922	1.5
1000.647	-0.5
1001.371	4.5
1002.095	-1.5
1002.82	-2.5
1003.544	-0.5
1004.268	-0.5
1004.992	-0.5
1005.716	0.5
1006.439	0.5
1007.163	-1.5
1007.887	-1.5
1008.611	2.5
1009.334	0.5
1010.058	1.5
1010.781	1.5
1011.504	0.5
1012.228	0.5
1012.951	1.5
1013.674	0.5
1014.397	-1.5
1015.12	-0.5
