节点500_145_QEPB04081__233__11-32-42-474.txt的数据

Date: Wed Nov 12 11:32:42 CST 2025
User: PC
Spectrometer: QEPB0408
触发模式: 0
积分时间 (秒): 1.000000E-2
Scans to average: 1
启用暗噪声校正: true
启用非线性校正: false
滑动平均宽度: 0
X轴模式: Wavelengths
Number of Pixels in Spectrum: 1044
>>>>>Begin Spectral Data<<<<<
220.843	-1.25
221.644	-0.25
222.444	-1.25
223.244	-2.25
224.045	-0.25
224.845	0.75
225.645	0.75
226.445	-0.25
227.245	-2.25
228.045	-2.25
228.845	-1.25
229.645	-0.25
230.444	0.75
231.244	0.75
232.043	-0.25
232.843	-2.25
233.642	-0.25
234.442	-1.25
235.241	-0.25
236.04	-1.25
236.839	2.75
237.638	1.75
238.437	0.75
239.236	-1.25
240.035	-1.25
240.833	-0.25
241.632	1.75
242.43	0.75
243.229	1.75
244.027	0.75
244.826	-0.25
245.624	-2.25
246.422	1.75
247.22	1.75
248.018	0.75
248.816	0.75
249.614	0.75
250.412	1.75
251.21	1.75
252.007	3.75
252.805	1.75
253.602	0.75
254.4	2.75
255.197	2.75
255.994	2.75
256.791	0.75
257.589	2.75
258.386	3.75
259.183	3.75
259.979	5.75
260.776	3.75
261.573	3.75
262.37	1.75
263.166	5.75
263.963	4.75
264.759	4.75
265.556	4.75
266.352	3.75
267.148	7.75
267.944	4.75
268.74	5.75
269.536	10.75
270.332	4.75
271.128	6.75
271.924	6.75
272.719	9.75
273.515	4.75
274.311	9.75
275.106	7.75
275.901	8.75
276.697	7.75
277.492	7.75
278.287	9.75
279.082	6.75
279.877	10.75
280.672	8.75
281.467	10.75
282.262	9.75
283.056	9.75
283.851	10.75
284.646	11.75
285.44	9.75
286.234	11.75
287.029	9.75
287.823	10.75
288.617	9.75
289.411	8.75
290.205	7.75
290.999	12.75
291.793	11.75
292.587	9.75
293.381	9.75
294.174	9.75
294.968	10.75
295.761	10.75
296.555	7.75
297.348	9.75
298.141	6.75
298.935	7.75
299.728	6.75
300.521	11.75
301.314	8.75
302.107	8.75
302.899	8.75
303.692	5.75
304.485	7.75
305.277	5.75
306.07	8.75
306.862	8.75
307.655	6.75
308.447	6.75
309.239	5.75
310.031	6.75
310.823	6.75
311.615	3.75
312.407	4.75
313.199	4.75
313.991	5.75
314.783	3.75
315.574	5.75
316.366	4.75
317.157	5.75
317.949	4.75
318.74	2.75
319.531	3.75
320.322	4.75
321.113	3.75
321.904	2.75
322.695	2.75
323.486	3.75
324.277	2.75
325.068	3.75
325.858	4.75
326.649	4.75
327.439	2.75
328.23	3.75
329.02	2.75
329.81	3.75
330.6	4.75
331.391	1.75
332.181	2.75
332.971	2.75
333.76	3.75
334.55	1.75
335.34	3.75
336.13	4.75
336.919	2.75
337.709	2.75
338.498	3.75
339.287	3.75
340.077	1.75
340.866	3.75
341.655	4.75
342.444	3.75
343.233	1.75
344.022	1.75
344.811	3.75
345.6	2.75
346.388	3.75
347.177	4.75
347.965	3.75
348.754	2.75
349.542	3.75
350.33	2.75
351.119	4.75
351.907	3.75
352.695	3.75
353.483	1.75
354.271	6.75
355.059	3.75
355.846	1.75
356.634	3.75
357.422	4.75
358.209	2.75
358.997	1.75
359.784	1.75
360.571	2.75
361.359	2.75
362.146	4.75
362.933	1.75
363.72	3.75
364.507	3.75
365.294	0.75
366.081	1.75
366.867	2.75
367.654	1.75
368.44	2.75
369.227	1.75
370.013	0.75
370.8	2.75
371.586	2.75
372.372	1.75
373.158	2.75
373.944	-0.25
374.73	2.75
375.516	2.75
376.302	3.75
377.088	2.75
377.873	1.75
378.659	3.75
379.445	1.75
380.23	0.75
381.015	0.75
381.801	3.75
382.586	0.75
383.371	1.75
384.156	3.75
384.941	3.75
385.726	4.75
386.511	4.75
387.296	3.75
388.08	2.75
388.865	2.75
389.649	4.75
390.434	0.75
391.218	2.75
392.003	3.75
392.787	2.75
393.571	3.75
394.355	1.75
395.139	2.75
395.923	4.75
396.707	0.75
397.491	1.75
398.274	2.75
399.058	3.75
399.842	2.75
400.625	6.75
401.408	0.75
402.192	2.75
402.975	5.75
403.758	1.75
404.541	3.75
405.324	4.75
406.107	1.75
406.89	3.75
407.673	2.75
408.456	4.75
409.238	5.75
410.021	3.75
410.803	1.75
411.586	3.75
412.368	3.75
413.151	3.75
413.933	4.75
414.715	3.75
415.497	2.75
416.279	3.75
417.061	6.75
417.843	6.75
418.624	4.75
419.406	3.75
420.188	3.75
420.969	6.75
421.751	5.75
422.532	4.75
423.313	4.75
424.095	7.75
424.876	3.75
425.657	5.75
426.438	6.75
427.219	3.75
428	6.75
428.78	5.75
429.561	7.75
430.342	9.75
431.122	7.75
431.903	8.75
432.683	5.75
433.464	7.75
434.244	4.75
435.024	7.75
435.804	5.75
436.584	9.75
437.364	9.75
438.144	5.75
438.924	12.75
439.704	11.75
440.483	11.75
441.263	12.75
442.042	9.75
442.822	12.75
443.601	13.75
444.38	12.75
445.16	13.75
445.939	16.75
446.718	14.75
447.497	13.75
448.276	19.75
449.054	17.75
449.833	23.75
450.612	22.75
451.391	23.75
452.169	28.75
452.948	26.75
453.726	33.75
454.504	35.75
455.282	39.75
456.061	37.75
456.839	45.75
457.617	49.75
458.395	54.75
459.172	62.75
459.95	64.75
460.728	71.75
461.506	86.75
462.283	98.75
463.061	105.75
463.838	121.75
464.615	129.75
465.393	143.75
466.17	160.75
466.947	178.75
467.724	204.75
468.501	228.75
469.278	243.75
470.055	286.75
470.831	307.75
471.608	342.75
472.385	382.75
473.161	429.75
473.938	475.75
474.714	530.75
475.49	594.75
476.266	656.75
477.043	733.75
477.819	804.75
478.595	885.75
479.371	993.75
480.146	1090.75
480.922	1219.75
481.698	1344.75
482.473	1471.75
483.249	1641.75
484.024	1792.75
484.8	1985.75
485.575	2180.75
486.35	2424.75
487.126	2659.75
487.901	2957.75
488.676	3267.75
489.451	3564.75
490.225	3968.75
491	4357.75
491.775	4758.75
492.55	5227.75
493.324	5751.75
494.099	6301.75
494.873	6869.75
495.647	7464.75
496.422	8166.75
497.196	8847.75
497.97	9493.75
498.744	10282.75
499.518	11006.75
500.292	11715.75
501.066	12427.75
501.839	13110.75
502.613	13736.75
503.387	14373.75
504.16	14862.75
504.934	15336.75
505.707	15602.75
506.48	15871.75
507.253	15982.75
508.027	16034.75
508.8	15938.75
509.573	15755.75
510.346	15466.75
511.118	15112.75
511.891	14730.75
512.664	14287.75
513.437	13711.75
514.209	13208.75
514.982	12674.75
515.754	12172.75
516.526	11623.75
517.298	11115.75
518.071	10606.75
518.843	10099.75
519.615	9667.75
520.387	9291.75
521.159	8919.75
521.93	8547.75
522.702	8233.75
523.474	7886.75
524.245	7611.75
525.017	7283.75
525.788	6971.75
526.56	6700.75
527.331	6429.75
528.102	6130.75
528.873	5869.75
529.644	5616.75
530.415	5356.75
531.186	5059.75
531.957	4854.75
532.728	4582.75
533.498	4328.75
534.269	4102.75
535.039	3849.75
535.81	3661.75
536.58	3464.75
537.351	3249.75
538.121	3069.75
538.891	2893.75
539.661	2736.75
540.431	2590.75
541.201	2455.75
541.971	2340.75
542.741	2215.75
543.51	2076.75
544.28	1980.75
545.05	1900.75
545.819	1812.75
546.588	1699.75
547.358	1631.75
548.127	1548.75
548.896	1472.75
549.665	1397.75
550.434	1312.75
551.203	1243.75
551.972	1186.75
552.741	1119.75
553.51	1063.75
554.278	1007.75
555.047	944.75
555.815	882.75
556.584	824.75
557.352	788.75
558.121	743.75
558.889	704.75
559.657	670.75
560.425	618.75
561.193	593.75
561.961	558.75
562.729	529.75
563.496	495.75
564.264	459.75
565.032	445.75
565.799	409.75
566.567	393.75
567.334	372.75
568.101	348.75
568.869	325.75
569.636	315.75
570.403	289.75
571.17	275.75
571.937	263.75
572.704	249.75
573.471	239.75
574.237	217.75
575.004	208.75
575.771	198.75
576.537	181.75
577.303	172.75
578.07	160.75
578.836	149.75
579.602	142.75
580.368	132.75
581.134	129.75
581.9	120.75
582.666	119.75
583.432	108.75
584.198	102.75
584.964	95.75
585.729	93.75
586.495	92.75
587.26	83.75
588.025	77.75
588.791	74.75
589.556	66.75
590.321	66.75
591.086	63.75
591.851	59.75
592.616	54.75
593.381	54.75
594.146	51.75
594.911	46.75
595.675	44.75
596.44	43.75
597.204	41.75
597.969	40.75
598.733	39.75
599.497	37.75
600.261	33.75
601.025	30.75
601.79	32.75
602.553	31.75
603.317	25.75
604.081	27.75
604.845	25.75
605.609	22.75
606.372	22.75
607.136	22.75
607.899	20.75
608.662	18.75
609.426	19.75
610.189	19.75
610.952	18.75
611.715	16.75
612.478	14.75
613.241	16.75
614.004	13.75
614.767	13.75
615.529	14.75
616.292	13.75
617.055	15.75
617.817	12.75
618.579	12.75
619.342	10.75
620.104	13.75
620.866	8.75
621.628	10.75
622.39	8.75
623.152	8.75
623.914	9.75
624.676	6.75
625.438	11.75
626.199	7.75
626.961	6.75
627.722	8.75
628.484	6.75
629.245	7.75
630.006	6.75
630.768	6.75
631.529	8.75
632.29	7.75
633.051	9.75
633.812	3.75
634.573	6.75
635.333	4.75
636.094	7.75
636.855	5.75
637.615	6.75
638.376	5.75
639.136	4.75
639.896	2.75
640.657	5.75
641.417	5.75
642.177	5.75
642.937	4.75
643.697	6.75
644.457	4.75
645.216	2.75
645.976	2.75
646.736	4.75
647.495	4.75
648.255	2.75
649.014	4.75
649.774	2.75
650.533	4.75
651.292	5.75
652.051	4.75
652.81	3.75
653.569	4.75
654.328	2.75
655.087	1.75
655.846	4.75
656.604	2.75
657.363	3.75
658.121	2.75
658.88	2.75
659.638	-0.25
660.397	1.75
661.155	4.75
661.913	3.75
662.671	1.75
663.429	3.75
664.187	2.75
664.945	2.75
665.703	-2.25
666.46	0.75
667.218	0.75
667.976	0.75
668.733	1.75
669.49	1.75
670.248	2.75
671.005	0.75
671.762	2.75
672.519	2.75
673.276	1.75
674.033	2.75
674.79	-0.25
675.547	1.75
676.304	0.75
677.06	1.75
677.817	1.75
678.574	1.75
679.33	0.75
680.086	0.75
680.843	-0.25
681.599	1.75
682.355	1.75
683.111	4.75
683.867	2.75
684.623	1.75
685.379	1.75
686.135	0.75
686.89	2.75
687.646	-0.25
688.402	2.75
689.157	1.75
689.912	3.75
690.668	-0.25
691.423	2.75
692.178	0.75
692.933	0.75
693.688	4.75
694.443	2.75
695.198	1.75
695.953	1.75
696.708	1.75
697.462	1.75
698.217	1.75
698.972	2.75
699.726	1.75
700.48	2.75
701.235	-0.25
701.989	1.75
702.743	0.75
703.497	0.75
704.251	1.75
705.005	1.75
705.759	1.75
706.513	1.75
707.266	1.75
708.02	0.75
708.774	-0.25
709.527	0.75
710.28	0.75
711.034	3.75
711.787	2.75
712.54	1.75
713.293	-1.25
714.046	-1.25
714.799	-0.25
715.552	0.75
716.305	1.75
717.058	0.75
717.81	0.75
718.563	2.75
719.315	-1.25
720.068	3.75
720.82	-2.25
721.573	1.75
722.325	1.75
723.077	3.75
723.829	1.75
724.581	2.75
725.333	6.75
726.085	-0.25
726.836	3.75
727.588	1.75
728.34	2.75
729.091	1.75
729.843	-0.25
730.594	3.75
731.346	1.75
732.097	1.75
732.848	1.75
733.599	1.75
734.35	1.75
735.101	1.75
735.852	2.75
736.603	1.75
737.354	1.75
738.104	0.75
738.855	1.75
739.605	1.75
740.356	0.75
741.106	3.75
741.856	3.75
742.607	2.75
743.357	-0.25
744.107	1.75
744.857	2.75
745.607	1.75
746.357	0.75
747.106	2.75
747.856	1.75
748.606	1.75
749.355	1.75
750.105	2.75
750.854	1.75
751.603	2.75
752.353	1.75
753.102	4.75
753.851	1.75
754.6	0.75
755.349	2.75
756.098	0.75
756.847	3.75
757.595	1.75
758.344	0.75
759.093	1.75
759.841	4.75
760.589	1.75
761.338	2.75
762.086	2.75
762.834	1.75
763.582	5.75
764.331	2.75
765.079	0.75
765.826	4.75
766.574	2.75
767.322	2.75
768.07	1.75
768.817	4.75
769.565	4.75
770.312	3.75
771.06	4.75
771.807	2.75
772.554	3.75
773.302	1.75
774.049	3.75
774.796	4.75
775.543	2.75
776.29	4.75
777.036	3.75
777.783	2.75
778.53	4.75
779.276	3.75
780.023	4.75
780.769	5.75
781.516	4.75
782.262	4.75
783.008	3.75
783.754	4.75
784.5	2.75
785.246	5.75
785.992	5.75
786.738	5.75
787.484	2.75
788.23	6.75
788.975	5.75
789.721	4.75
790.466	4.75
791.212	6.75
791.957	4.75
792.702	1.75
793.447	5.75
794.193	3.75
794.938	2.75
795.683	3.75
796.427	3.75
797.172	4.75
797.917	3.75
798.662	4.75
799.406	4.75
800.151	4.75
800.895	6.75
801.64	1.75
802.384	3.75
803.128	2.75
803.872	2.75
804.616	5.75
805.36	2.75
806.104	3.75
806.848	3.75
807.592	5.75
808.336	1.75
809.079	3.75
809.823	1.75
810.566	2.75
811.31	4.75
812.053	2.75
812.796	3.75
813.539	2.75
814.283	4.75
815.026	1.75
815.769	2.75
816.511	1.75
817.254	0.75
817.997	2.75
818.74	1.75
819.482	1.75
820.225	1.75
820.967	1.75
821.71	1.75
822.452	-0.25
823.194	2.75
823.936	1.75
824.678	3.75
825.42	0.75
826.162	1.75
826.904	1.75
827.646	2.75
828.388	1.75
829.129	2.75
829.871	-1.25
830.612	1.75
831.354	2.75
832.095	-0.25
832.836	1.75
833.577	1.75
834.319	0.75
835.06	2.75
835.801	1.75
836.542	1.75
837.282	1.75
838.023	1.75
838.764	0.75
839.504	1.75
840.245	2.75
840.985	1.75
841.726	0.75
842.466	1.75
843.206	1.75
843.946	1.75
844.687	2.75
845.427	0.75
846.166	1.75
846.906	2.75
847.646	2.75
848.386	1.75
849.125	2.75
849.865	1.75
850.605	-0.25
851.344	1.75
852.083	0.75
852.823	1.75
853.562	2.75
854.301	0.75
855.04	0.75
855.779	0.75
856.518	3.75
857.257	0.75
857.995	0.75
858.734	-0.25
859.473	2.75
860.211	1.75
860.95	0.75
861.688	0.75
862.426	-0.25
863.165	0.75
863.903	1.75
864.641	0.75
865.379	2.75
866.117	0.75
866.855	-0.25
867.593	-0.25
868.33	0.75
869.068	-2.25
869.806	-0.25
870.543	-0.25
871.28	0.75
872.018	-2.25
872.755	0.75
873.492	0.75
874.229	-0.25
874.967	-0.25
875.703	-1.25
876.44	0.75
877.177	-0.25
877.914	-2.25
878.651	2.75
879.387	1.75
880.124	0.75
880.86	-0.25
881.597	-1.25
882.333	0.75
883.069	-2.25
883.806	-1.25
884.542	0.75
885.278	0.75
886.014	1.75
886.749	-0.25
887.485	1.75
888.221	-0.25
888.957	0.75
889.692	-0.25
890.428	0.75
891.163	-0.25
891.899	0.75
892.634	-0.25
893.369	-1.25
894.104	1.75
894.839	-1.25
895.574	-0.25
896.309	-0.25
897.044	-0.25
897.779	-1.25
898.514	0.75
899.248	0.75
899.983	-0.25
900.717	0.75
901.452	-0.25
902.186	-0.25
902.92	-0.25
903.654	-0.25
904.389	-0.25
905.123	0.75
905.857	-0.25
906.59	0.75
907.324	0.75
908.058	1.75
908.792	-1.25
909.525	0.75
910.259	0.75
910.992	0.75
911.726	-1.25
912.459	-2.25
913.192	-1.25
913.925	-1.25
914.658	-2.25
915.391	-1.25
916.124	0.75
916.857	-0.25
917.59	-0.25
918.323	-0.25
919.055	-0.25
919.788	0.75
920.521	0.75
921.253	-0.25
921.985	-0.25
922.718	-1.25
923.45	0.75
924.182	1.75
924.914	0.75
925.646	-0.25
926.378	2.75
927.11	-0.25
927.841	-1.25
928.573	-0.25
929.305	0.75
930.036	-0.25
930.768	0.75
931.499	0.75
932.23	-1.25
932.962	-0.25
933.693	-1.25
934.424	-1.25
935.155	-1.25
935.886	-2.25
936.617	-1.25
937.348	-0.25
938.078	-1.25
938.809	-1.25
939.54	-1.25
940.27	-0.25
941.001	0.75
941.731	-2.25
942.461	1.75
943.191	-0.25
943.922	-0.25
944.652	-2.25
945.382	-0.25
946.112	0.75
946.841	-2.25
947.571	0.75
948.301	-3.25
949.031	-1.25
949.76	0.75
950.49	0.75
951.219	-0.25
951.948	-1.25
952.678	-1.25
953.407	-1.25
954.136	-0.25
954.865	-0.25
955.594	-0.25
956.323	0.75
957.052	1.75
957.78	0.75
958.509	-0.25
959.238	-0.25
959.966	0.75
960.695	0.75
961.423	-2.25
962.151	0.75
962.88	1.75
963.608	1.75
964.336	-2.25
965.064	1.75
965.792	-1.25
966.52	0.75
967.247	-2.25
967.975	-1.25
968.703	-1.25
969.43	-0.25
970.158	-1.25
970.885	-0.25
971.613	-1.25
972.34	-0.25
973.067	0.75
973.794	0.75
974.521	-2.25
975.248	-0.25
975.975	-1.25
976.702	-0.25
977.429	0.75
978.156	-1.25
978.882	0.75
979.609	-1.25
980.335	-0.25
981.062	-1.25
981.788	0.75
982.514	-0.25
983.24	-0.25
983.967	-1.25
984.693	0.75
985.419	-1.25
986.144	-3.25
986.87	0.75
987.596	-0.25
988.322	0.75
989.047	0.75
989.773	0.75
990.498	-2.25
991.224	-1.25
991.949	-2.25
992.674	-0.25
993.399	1.75
994.124	0.75
994.849	-2.25
995.574	-0.25
996.299	-1.25
997.024	-0.25
997.749	-0.25
998.473	-0.25
999.198	0.75
999.922	-0.25
1000.647	0.75
1001.371	3.75
1002.095	-1.25
1002.82	-0.25
1003.544	-1.25
1004.268	-2.25
1004.992	-3.25
1005.716	-1.25
1006.439	-0.25
1007.163	0.75
1007.887	-1.25
1008.611	-0.25
1009.334	1.75
1010.058	-0.25
1010.781	-0.25
1011.504	-1.25
1012.228	-2.25
1012.951	-0.25
1013.674	-1.25
1014.397	-0.25
1015.12	0.75
