节点500_145_QEPB04081__307__11-33-53-431.txt的数据

Date: Wed Nov 12 11:33:53 CST 2025
User: PC
Spectrometer: QEPB0408
触发模式: 0
积分时间 (秒): 1.000000E-2
Scans to average: 1
启用暗噪声校正: true
启用非线性校正: false
滑动平均宽度: 0
X轴模式: Wavelengths
Number of Pixels in Spectrum: 1044
>>>>>Begin Spectral Data<<<<<
220.843	1.5
221.644	-0.5
222.444	1.5
223.244	-0.5
224.045	-0.5
224.845	-0.5
225.645	-2.5
226.445	-0.5
227.245	0.5
228.045	0.5
228.845	1.5
229.645	0.5
230.444	1.5
231.244	1.5
232.043	0.5
232.843	1.5
233.642	4.5
234.442	-0.5
235.241	1.5
236.04	0.5
236.839	-1.5
237.638	0.5
238.437	1.5
239.236	3.5
240.035	1.5
240.833	0.5
241.632	1.5
242.43	2.5
243.229	0.5
244.027	0.5
244.826	1.5
245.624	1.5
246.422	1.5
247.22	2.5
248.018	1.5
248.816	2.5
249.614	3.5
250.412	4.5
251.21	2.5
252.007	4.5
252.805	3.5
253.602	3.5
254.4	1.5
255.197	1.5
255.994	4.5
256.791	4.5
257.589	0.5
258.386	5.5
259.183	1.5
259.979	5.5
260.776	5.5
261.573	3.5
262.37	5.5
263.166	5.5
263.963	5.5
264.759	6.5
265.556	7.5
266.352	8.5
267.148	7.5
267.944	8.5
268.74	5.5
269.536	6.5
270.332	6.5
271.128	6.5
271.924	7.5
272.719	7.5
273.515	7.5
274.311	7.5
275.106	8.5
275.901	8.5
276.697	9.5
277.492	10.5
278.287	6.5
279.082	10.5
279.877	11.5
280.672	8.5
281.467	7.5
282.262	13.5
283.056	9.5
283.851	11.5
284.646	10.5
285.44	10.5
286.234	10.5
287.029	10.5
287.823	12.5
288.617	10.5
289.411	11.5
290.205	9.5
290.999	12.5
291.793	12.5
292.587	9.5
293.381	11.5
294.174	8.5
294.968	11.5
295.761	10.5
296.555	8.5
297.348	10.5
298.141	7.5
298.935	9.5
299.728	8.5
300.521	10.5
301.314	8.5
302.107	6.5
302.899	9.5
303.692	6.5
304.485	8.5
305.277	7.5
306.07	8.5
306.862	7.5
307.655	9.5
308.447	7.5
309.239	7.5
310.031	5.5
310.823	8.5
311.615	5.5
312.407	8.5
313.199	7.5
313.991	5.5
314.783	8.5
315.574	6.5
316.366	6.5
317.157	6.5
317.949	4.5
318.74	4.5
319.531	5.5
320.322	4.5
321.113	3.5
321.904	2.5
322.695	5.5
323.486	6.5
324.277	4.5
325.068	6.5
325.858	5.5
326.649	4.5
327.439	7.5
328.23	1.5
329.02	5.5
329.81	5.5
330.6	4.5
331.391	5.5
332.181	4.5
332.971	4.5
333.76	5.5
334.55	6.5
335.34	2.5
336.13	6.5
336.919	5.5
337.709	5.5
338.498	2.5
339.287	3.5
340.077	4.5
340.866	3.5
341.655	7.5
342.444	3.5
343.233	1.5
344.022	3.5
344.811	3.5
345.6	3.5
346.388	3.5
347.177	3.5
347.965	5.5
348.754	4.5
349.542	3.5
350.33	0.5
351.119	7.5
351.907	5.5
352.695	3.5
353.483	1.5
354.271	2.5
355.059	3.5
355.846	1.5
356.634	3.5
357.422	2.5
358.209	3.5
358.997	3.5
359.784	1.5
360.571	2.5
361.359	2.5
362.146	4.5
362.933	1.5
363.72	4.5
364.507	1.5
365.294	1.5
366.081	3.5
366.867	2.5
367.654	5.5
368.44	3.5
369.227	3.5
370.013	2.5
370.8	1.5
371.586	2.5
372.372	1.5
373.158	4.5
373.944	2.5
374.73	1.5
375.516	1.5
376.302	2.5
377.088	3.5
377.873	1.5
378.659	4.5
379.445	3.5
380.23	3.5
381.015	3.5
381.801	4.5
382.586	2.5
383.371	3.5
384.156	1.5
384.941	4.5
385.726	1.5
386.511	3.5
387.296	0.5
388.08	2.5
388.865	3.5
389.649	3.5
390.434	3.5
391.218	2.5
392.003	2.5
392.787	3.5
393.571	2.5
394.355	1.5
395.139	2.5
395.923	4.5
396.707	4.5
397.491	2.5
398.274	1.5
399.058	4.5
399.842	3.5
400.625	3.5
401.408	3.5
402.192	5.5
402.975	3.5
403.758	2.5
404.541	5.5
405.324	1.5
406.107	3.5
406.89	4.5
407.673	2.5
408.456	3.5
409.238	3.5
410.021	2.5
410.803	4.5
411.586	5.5
412.368	4.5
413.151	6.5
413.933	3.5
414.715	2.5
415.497	6.5
416.279	4.5
417.061	6.5
417.843	7.5
418.624	6.5
419.406	6.5
420.188	5.5
420.969	4.5
421.751	6.5
422.532	7.5
423.313	4.5
424.095	5.5
424.876	5.5
425.657	5.5
426.438	5.5
427.219	6.5
428	8.5
428.78	6.5
429.561	7.5
430.342	8.5
431.122	7.5
431.903	9.5
432.683	7.5
433.464	8.5
434.244	6.5
435.024	8.5
435.804	7.5
436.584	8.5
437.364	12.5
438.144	12.5
438.924	10.5
439.704	10.5
440.483	11.5
441.263	11.5
442.042	12.5
442.822	15.5
443.601	12.5
444.38	14.5
445.16	15.5
445.939	15.5
446.718	15.5
447.497	17.5
448.276	20.5
449.054	22.5
449.833	21.5
450.612	26.5
451.391	28.5
452.169	29.5
452.948	31.5
453.726	34.5
454.504	37.5
455.282	40.5
456.061	47.5
456.839	49.5
457.617	54.5
458.395	58.5
459.172	66.5
459.95	72.5
460.728	83.5
461.506	93.5
462.283	100.5
463.061	116.5
463.838	131.5
464.615	140.5
465.393	158.5
466.17	176.5
466.947	193.5
467.724	210.5
468.501	242.5
469.278	276.5
470.055	298.5
470.831	328.5
471.608	379.5
472.385	421.5
473.161	461.5
473.938	511.5
474.714	566.5
475.49	627.5
476.266	700.5
477.043	767.5
477.819	859.5
478.595	944.5
479.371	1027.5
480.146	1155.5
480.922	1265.5
481.698	1402.5
482.473	1540.5
483.249	1712.5
484.024	1881.5
484.8	2054.5
485.575	2282.5
486.35	2507.5
487.126	2762.5
487.901	3044.5
488.676	3359.5
489.451	3685.5
490.225	4043.5
491	4453.5
491.775	4881.5
492.55	5363.5
493.324	5880.5
494.099	6411.5
494.873	6989.5
495.647	7636.5
496.422	8286.5
497.196	8972.5
497.97	9675.5
498.744	10407.5
499.518	11146.5
500.292	11862.5
501.066	12611.5
501.839	13292.5
502.613	13920.5
503.387	14565.5
504.16	15151.5
504.934	15573.5
505.707	15959.5
506.48	16176.5
507.253	16420.5
508.027	16446.5
508.8	16422.5
509.573	16273.5
510.346	16000.5
511.118	15665.5
511.891	15375.5
512.664	14862.5
513.437	14323.5
514.209	13811.5
514.982	13281.5
515.754	12744.5
516.526	12204.5
517.298	11646.5
518.071	11160.5
518.843	10637.5
519.615	10220.5
520.387	9765.5
521.159	9426.5
521.93	9020.5
522.702	8662.5
523.474	8335.5
524.245	7986.5
525.017	7655.5
525.788	7380.5
526.56	7051.5
527.331	6755.5
528.102	6459.5
528.873	6202.5
529.644	5947.5
530.415	5667.5
531.186	5390.5
531.957	5103.5
532.728	4858.5
533.498	4583.5
534.269	4330.5
535.039	4093.5
535.81	3896.5
536.58	3673.5
537.351	3471.5
538.121	3290.5
538.891	3073.5
539.661	2886.5
540.431	2757.5
541.201	2614.5
541.971	2470.5
542.741	2331.5
543.51	2211.5
544.28	2115.5
545.05	2006.5
545.819	1891.5
546.588	1795.5
547.358	1733.5
548.127	1646.5
548.896	1561.5
549.665	1483.5
550.434	1411.5
551.203	1333.5
551.972	1254.5
552.741	1183.5
553.51	1134.5
554.278	1071.5
555.047	1007.5
555.815	950.5
556.584	899.5
557.352	841.5
558.121	788.5
558.889	755.5
559.657	711.5
560.425	657.5
561.193	622.5
561.961	596.5
562.729	565.5
563.496	535.5
564.264	503.5
565.032	475.5
565.799	441.5
566.567	420.5
567.334	401.5
568.101	375.5
568.869	348.5
569.636	333.5
570.403	315.5
571.17	296.5
571.937	279.5
572.704	268.5
573.471	245.5
574.237	231.5
575.004	224.5
575.771	211.5
576.537	195.5
577.303	191.5
578.07	174.5
578.836	166.5
579.602	151.5
580.368	144.5
581.134	139.5
581.9	131.5
582.666	121.5
583.432	117.5
584.198	109.5
584.964	102.5
585.729	95.5
586.495	95.5
587.26	86.5
588.025	82.5
588.791	79.5
589.556	71.5
590.321	68.5
591.086	71.5
591.851	62.5
592.616	63.5
593.381	59.5
594.146	53.5
594.911	51.5
595.675	49.5
596.44	49.5
597.204	42.5
597.969	45.5
598.733	38.5
599.497	40.5
600.261	37.5
601.025	35.5
601.79	33.5
602.553	34.5
603.317	30.5
604.081	30.5
604.845	27.5
605.609	26.5
606.372	24.5
607.136	23.5
607.899	25.5
608.662	24.5
609.426	20.5
610.189	23.5
610.952	21.5
611.715	19.5
612.478	17.5
613.241	19.5
614.004	16.5
614.767	19.5
615.529	16.5
616.292	14.5
617.055	17.5
617.817	13.5
618.579	14.5
619.342	14.5
620.104	14.5
620.866	13.5
621.628	10.5
622.39	11.5
623.152	12.5
623.914	10.5
624.676	10.5
625.438	11.5
626.199	9.5
626.961	8.5
627.722	10.5
628.484	9.5
629.245	8.5
630.006	6.5
630.768	8.5
631.529	9.5
632.29	7.5
633.051	9.5
633.812	4.5
634.573	7.5
635.333	4.5
636.094	8.5
636.855	5.5
637.615	6.5
638.376	6.5
639.136	5.5
639.896	5.5
640.657	7.5
641.417	4.5
642.177	5.5
642.937	3.5
643.697	5.5
644.457	3.5
645.216	5.5
645.976	4.5
646.736	4.5
647.495	7.5
648.255	4.5
649.014	5.5
649.774	4.5
650.533	3.5
651.292	3.5
652.051	5.5
652.81	1.5
653.569	3.5
654.328	3.5
655.087	3.5
655.846	7.5
656.604	3.5
657.363	2.5
658.121	1.5
658.88	5.5
659.638	4.5
660.397	3.5
661.155	3.5
661.913	5.5
662.671	4.5
663.429	0.5
664.187	3.5
664.945	2.5
665.703	2.5
666.46	2.5
667.218	2.5
667.976	3.5
668.733	2.5
669.49	5.5
670.248	3.5
671.005	2.5
671.762	4.5
672.519	2.5
673.276	3.5
674.033	2.5
674.79	3.5
675.547	2.5
676.304	3.5
677.06	1.5
677.817	2.5
678.574	1.5
679.33	3.5
680.086	2.5
680.843	1.5
681.599	2.5
682.355	5.5
683.111	2.5
683.867	-0.5
684.623	3.5
685.379	3.5
686.135	1.5
686.89	3.5
687.646	1.5
688.402	0.5
689.157	2.5
689.912	4.5
690.668	1.5
691.423	0.5
692.178	2.5
692.933	3.5
693.688	2.5
694.443	1.5
695.198	3.5
695.953	4.5
696.708	0.5
697.462	2.5
698.217	3.5
698.972	1.5
699.726	3.5
700.48	2.5
701.235	2.5
701.989	3.5
702.743	5.5
703.497	1.5
704.251	4.5
705.005	1.5
705.759	2.5
706.513	3.5
707.266	2.5
708.02	1.5
708.774	0.5
709.527	3.5
710.28	1.5
711.034	2.5
711.787	3.5
712.54	1.5
713.293	1.5
714.046	3.5
714.799	3.5
715.552	1.5
716.305	2.5
717.058	0.5
717.81	1.5
718.563	1.5
719.315	2.5
720.068	1.5
720.82	2.5
721.573	3.5
722.325	3.5
723.077	2.5
723.829	2.5
724.581	-2.5
725.333	2.5
726.085	2.5
726.836	-1.5
727.588	5.5
728.34	2.5
729.091	3.5
729.843	-0.5
730.594	2.5
731.346	2.5
732.097	3.5
732.848	2.5
733.599	3.5
734.35	0.5
735.101	2.5
735.852	3.5
736.603	3.5
737.354	3.5
738.104	-0.5
738.855	1.5
739.605	3.5
740.356	2.5
741.106	4.5
741.856	3.5
742.607	2.5
743.357	3.5
744.107	3.5
744.857	4.5
745.607	3.5
746.357	3.5
747.106	3.5
747.856	3.5
748.606	1.5
749.355	3.5
750.105	3.5
750.854	0.5
751.603	1.5
752.353	2.5
753.102	2.5
753.851	3.5
754.6	2.5
755.349	5.5
756.098	4.5
756.847	2.5
757.595	2.5
758.344	4.5
759.093	3.5
759.841	3.5
760.589	4.5
761.338	2.5
762.086	4.5
762.834	4.5
763.582	2.5
764.331	4.5
765.079	4.5
765.826	5.5
766.574	2.5
767.322	5.5
768.07	3.5
768.817	5.5
769.565	4.5
770.312	4.5
771.06	5.5
771.807	5.5
772.554	5.5
773.302	2.5
774.049	0.5
774.796	3.5
775.543	3.5
776.29	5.5
777.036	2.5
777.783	4.5
778.53	6.5
779.276	3.5
780.023	4.5
780.769	3.5
781.516	4.5
782.262	3.5
783.008	6.5
783.754	5.5
784.5	4.5
785.246	6.5
785.992	5.5
786.738	8.5
787.484	2.5
788.23	7.5
788.975	4.5
789.721	7.5
790.466	5.5
791.212	3.5
791.957	4.5
792.702	3.5
793.447	6.5
794.193	6.5
794.938	4.5
795.683	5.5
796.427	5.5
797.172	4.5
797.917	4.5
798.662	5.5
799.406	4.5
800.151	4.5
800.895	4.5
801.64	5.5
802.384	5.5
803.128	3.5
803.872	5.5
804.616	4.5
805.36	5.5
806.104	7.5
806.848	3.5
807.592	4.5
808.336	3.5
809.079	3.5
809.823	2.5
810.566	5.5
811.31	4.5
812.053	3.5
812.796	5.5
813.539	2.5
814.283	4.5
815.026	1.5
815.769	4.5
816.511	4.5
817.254	4.5
817.997	3.5
818.74	3.5
819.482	5.5
820.225	4.5
820.967	3.5
821.71	4.5
822.452	0.5
823.194	2.5
823.936	2.5
824.678	5.5
825.42	3.5
826.162	2.5
826.904	3.5
827.646	3.5
828.388	1.5
829.129	5.5
829.871	2.5
830.612	2.5
831.354	1.5
832.095	3.5
832.836	2.5
833.577	1.5
834.319	1.5
835.06	2.5
835.801	5.5
836.542	4.5
837.282	2.5
838.023	2.5
838.764	2.5
839.504	3.5
840.245	2.5
840.985	2.5
841.726	3.5
842.466	3.5
843.206	2.5
843.946	1.5
844.687	1.5
845.427	1.5
846.166	4.5
846.906	2.5
847.646	2.5
848.386	2.5
849.125	4.5
849.865	2.5
850.605	1.5
851.344	-0.5
852.083	1.5
852.823	2.5
853.562	0.5
854.301	2.5
855.04	3.5
855.779	1.5
856.518	1.5
857.257	2.5
857.995	0.5
858.734	-0.5
859.473	1.5
860.211	2.5
860.95	0.5
861.688	3.5
862.426	2.5
863.165	1.5
863.903	1.5
864.641	0.5
865.379	1.5
866.117	1.5
866.855	3.5
867.593	0.5
868.33	1.5
869.068	0.5
869.806	3.5
870.543	3.5
871.28	2.5
872.018	1.5
872.755	1.5
873.492	2.5
874.229	0.5
874.967	1.5
875.703	0.5
876.44	0.5
877.177	-0.5
877.914	2.5
878.651	3.5
879.387	1.5
880.124	1.5
880.86	0.5
881.597	2.5
882.333	3.5
883.069	1.5
883.806	1.5
884.542	-0.5
885.278	0.5
886.014	0.5
886.749	2.5
887.485	1.5
888.221	1.5
888.957	1.5
889.692	0.5
890.428	0.5
891.163	1.5
891.899	1.5
892.634	3.5
893.369	-1.5
894.104	0.5
894.839	1.5
895.574	-1.5
896.309	2.5
897.044	2.5
897.779	0.5
898.514	1.5
899.248	0.5
899.983	0.5
900.717	-0.5
901.452	0.5
902.186	-0.5
902.92	0.5
903.654	-1.5
904.389	-0.5
905.123	1.5
905.857	2.5
906.59	0.5
907.324	0.5
908.058	-0.5
908.792	-0.5
909.525	-1.5
910.259	-0.5
910.992	-0.5
911.726	1.5
912.459	-0.5
913.192	0.5
913.925	0.5
914.658	0.5
915.391	1.5
916.124	0.5
916.857	-0.5
917.59	-1.5
918.323	1.5
919.055	-1.5
919.788	-0.5
920.521	2.5
921.253	-0.5
921.985	0.5
922.718	0.5
923.45	1.5
924.182	1.5
924.914	0.5
925.646	-0.5
926.378	-0.5
927.11	1.5
927.841	-1.5
928.573	-0.5
929.305	1.5
930.036	2.5
930.768	0.5
931.499	1.5
932.23	0.5
932.962	0.5
933.693	0.5
934.424	-2.5
935.155	1.5
935.886	1.5
936.617	-0.5
937.348	0.5
938.078	1.5
938.809	-0.5
939.54	-1.5
940.27	-0.5
941.001	0.5
941.731	-1.5
942.461	-1.5
943.191	1.5
943.922	-1.5
944.652	0.5
945.382	-1.5
946.112	1.5
946.841	0.5
947.571	0.5
948.301	-1.5
949.031	-0.5
949.76	3.5
950.49	0.5
951.219	0.5
951.948	1.5
952.678	1.5
953.407	1.5
954.136	1.5
954.865	0.5
955.594	1.5
956.323	1.5
957.052	-1.5
957.78	-0.5
958.509	1.5
959.238	1.5
959.966	0.5
960.695	2.5
961.423	1.5
962.151	-0.5
962.88	1.5
963.608	1.5
964.336	0.5
965.064	0.5
965.792	-2.5
966.52	1.5
967.247	-0.5
967.975	0.5
968.703	2.5
969.43	3.5
970.158	0.5
970.885	-1.5
971.613	1.5
972.34	1.5
973.067	2.5
973.794	-0.5
974.521	0.5
975.248	-0.5
975.975	-2.5
976.702	3.5
977.429	-0.5
978.156	-0.5
978.882	1.5
979.609	-1.5
980.335	2.5
981.062	-0.5
981.788	0.5
982.514	1.5
983.24	0.5
983.967	-0.5
984.693	1.5
985.419	0.5
986.144	-0.5
986.87	1.5
987.596	1.5
988.322	2.5
989.047	1.5
989.773	0.5
990.498	1.5
991.224	-1.5
991.949	1.5
992.674	-0.5
993.399	0.5
994.124	-1.5
994.849	-0.5
995.574	-0.5
996.299	-0.5
997.024	-0.5
997.749	-1.5
998.473	0.5
999.198	-0.5
999.922	-1.5
1000.647	1.5
1001.371	4.5
1002.095	-0.5
1002.82	-0.5
1003.544	-0.5
1004.268	-1.5
1004.992	0.5
1005.716	-0.5
1006.439	1.5
1007.163	0.5
1007.887	-0.5
1008.611	-0.5
1009.334	1.5
1010.058	1.5
1010.781	0.5
1011.504	0.5
1012.228	2.5
1012.951	-0.5
1013.674	-2.5
1014.397	2.5
1015.12	-2.5
