节点500_145_QEPB04081__239__11-32-48-459.txt的数据

Date: Wed Nov 12 11:32:48 CST 2025
User: PC
Spectrometer: QEPB0408
触发模式: 0
积分时间 (秒): 1.000000E-2
Scans to average: 1
启用暗噪声校正: true
启用非线性校正: false
滑动平均宽度: 0
X轴模式: Wavelengths
Number of Pixels in Spectrum: 1044
>>>>>Begin Spectral Data<<<<<
220.843	1
221.644	1
222.444	0
223.244	1
224.045	0
224.845	2
225.645	2
226.445	1
227.245	0
228.045	1
228.845	1
229.645	1
230.444	-1
231.244	3
232.043	1
232.843	-1
233.642	5
234.442	0
235.241	2
236.04	-1
236.839	2
237.638	1
238.437	2
239.236	3
240.035	3
240.833	2
241.632	3
242.43	3
243.229	2
244.027	3
244.826	3
245.624	3
246.422	2
247.22	2
248.018	3
248.816	3
249.614	4
250.412	5
251.21	3
252.007	4
252.805	2
253.602	3
254.4	4
255.197	3
255.994	5
256.791	4
257.589	5
258.386	2
259.183	4
259.979	7
260.776	6
261.573	6
262.37	5
263.166	8
263.963	5
264.759	6
265.556	6
266.352	9
267.148	6
267.944	7
268.74	6
269.536	6
270.332	8
271.128	5
271.924	8
272.719	9
273.515	8
274.311	10
275.106	9
275.901	13
276.697	10
277.492	11
278.287	11
279.082	10
279.877	10
280.672	12
281.467	12
282.262	11
283.056	11
283.851	13
284.646	13
285.44	13
286.234	13
287.029	12
287.823	12
288.617	10
289.411	11
290.205	11
290.999	10
291.793	12
292.587	10
293.381	11
294.174	12
294.968	12
295.761	11
296.555	8
297.348	10
298.141	10
298.935	12
299.728	7
300.521	11
301.314	7
302.107	10
302.899	11
303.692	9
304.485	10
305.277	8
306.07	10
306.862	8
307.655	10
308.447	10
309.239	8
310.031	6
310.823	8
311.615	9
312.407	6
313.199	9
313.991	7
314.783	8
315.574	7
316.366	6
317.157	6
317.949	6
318.74	8
319.531	6
320.322	6
321.113	7
321.904	7
322.695	6
323.486	5
324.277	4
325.068	6
325.858	5
326.649	4
327.439	6
328.23	3
329.02	5
329.81	5
330.6	4
331.391	4
332.181	7
332.971	3
333.76	4
334.55	6
335.34	6
336.13	6
336.919	4
337.709	6
338.498	3
339.287	6
340.077	5
340.866	4
341.655	3
342.444	5
343.233	6
344.022	3
344.811	4
345.6	3
346.388	3
347.177	2
347.965	3
348.754	5
349.542	3
350.33	4
351.119	4
351.907	4
352.695	4
353.483	2
354.271	5
355.059	4
355.846	5
356.634	5
357.422	3
358.209	3
358.997	6
359.784	4
360.571	3
361.359	2
362.146	4
362.933	4
363.72	2
364.507	4
365.294	3
366.081	3
366.867	4
367.654	4
368.44	3
369.227	4
370.013	4
370.8	4
371.586	2
372.372	3
373.158	3
373.944	2
374.73	5
375.516	1
376.302	5
377.088	2
377.873	4
378.659	2
379.445	1
380.23	4
381.015	2
381.801	6
382.586	3
383.371	3
384.156	3
384.941	3
385.726	2
386.511	3
387.296	3
388.08	4
388.865	5
389.649	2
390.434	2
391.218	4
392.003	2
392.787	4
393.571	3
394.355	4
395.139	3
395.923	3
396.707	3
397.491	2
398.274	6
399.058	6
399.842	5
400.625	3
401.408	6
402.192	5
402.975	3
403.758	5
404.541	7
405.324	6
406.107	5
406.89	4
407.673	4
408.456	3
409.238	5
410.021	4
410.803	5
411.586	5
412.368	6
413.151	6
413.933	4
414.715	5
415.497	2
416.279	5
417.061	6
417.843	3
418.624	5
419.406	6
420.188	6
420.969	6
421.751	7
422.532	6
423.313	8
424.095	5
424.876	6
425.657	7
426.438	9
427.219	6
428	9
428.78	6
429.561	11
430.342	8
431.122	10
431.903	9
432.683	8
433.464	7
434.244	9
435.024	10
435.804	13
436.584	11
437.364	9
438.144	12
438.924	11
439.704	12
440.483	12
441.263	13
442.042	11
442.822	15
443.601	17
444.38	17
445.16	15
445.939	19
446.718	18
447.497	19
448.276	22
449.054	22
449.833	24
450.612	24
451.391	27
452.169	27
452.948	32
453.726	35
454.504	35
455.282	43
456.061	42
456.839	47
457.617	53
458.395	59
459.172	67
459.95	75
460.728	80
461.506	87
462.283	104
463.061	110
463.838	119
464.615	134
465.393	152
466.17	166
466.947	190
467.724	212
468.501	234
469.278	266
470.055	294
470.831	318
471.608	360
472.385	409
473.161	441
473.938	499
474.714	554
475.49	623
476.266	677
477.043	776
477.819	837
478.595	935
479.371	1031
480.146	1159
480.922	1257
481.698	1386
482.473	1544
483.249	1687
484.024	1889
484.8	2076
485.575	2298
486.35	2539
487.126	2805
487.901	3073
488.676	3411
489.451	3739
490.225	4107
491	4551
491.775	4953
492.55	5447
493.324	6011
494.099	6559
494.873	7183
495.647	7785
496.422	8501
497.196	9177
497.97	9913
498.744	10706
499.518	11508
500.292	12224
501.066	12969
501.839	13602
502.613	14328
503.387	14942
504.16	15494
504.934	15960
505.707	16290
506.48	16503
507.253	16651
508.027	16681
508.8	16649
509.573	16390
510.346	16150
511.118	15815
511.891	15322
512.664	14828
513.437	14318
514.209	13794
514.982	13239
515.754	12679
516.526	12139
517.298	11579
518.071	11056
518.843	10565
519.615	10109
520.387	9697
521.159	9298
521.93	8911
522.702	8583
523.474	8252
524.245	7927
525.017	7584
525.788	7306
526.56	6989
527.331	6742
528.102	6427
528.873	6115
529.644	5848
530.415	5567
531.186	5285
531.957	5039
532.728	4770
533.498	4548
534.269	4274
535.039	4045
535.81	3805
536.58	3599
537.351	3403
538.121	3217
538.891	3020
539.661	2862
540.431	2703
541.201	2589
541.971	2436
542.741	2310
543.51	2175
544.28	2079
545.05	1966
545.819	1899
546.588	1775
547.358	1703
548.127	1597
548.896	1541
549.665	1467
550.434	1390
551.203	1293
551.972	1233
552.741	1164
553.51	1127
554.278	1048
555.047	990
555.815	927
556.584	875
557.352	822
558.121	775
558.889	725
559.657	699
560.425	651
561.193	614
561.961	578
562.729	562
563.496	512
564.264	491
565.032	458
565.799	436
566.567	414
567.334	390
568.101	368
568.869	342
569.636	327
570.403	310
571.17	287
571.937	281
572.704	259
573.471	247
574.237	228
575.004	217
575.771	205
576.537	194
577.303	180
578.07	174
578.836	162
579.602	152
580.368	147
581.134	143
581.9	128
582.666	128
583.432	113
584.198	109
584.964	106
585.729	99
586.495	93
587.26	87
588.025	82
588.791	77
589.556	75
590.321	74
591.086	65
591.851	64
592.616	59
593.381	56
594.146	56
594.911	49
595.675	50
596.44	45
597.204	43
597.969	42
598.733	43
599.497	37
600.261	39
601.025	35
601.79	31
602.553	35
603.317	29
604.081	30
604.845	29
605.609	28
606.372	24
607.136	25
607.899	25
608.662	22
609.426	23
610.189	23
610.952	21
611.715	19
612.478	18
613.241	16
614.004	15
614.767	16
615.529	16
616.292	15
617.055	15
617.817	17
618.579	15
619.342	12
620.104	15
620.866	13
621.628	12
622.39	11
623.152	9
623.914	13
624.676	11
625.438	12
626.199	12
626.961	10
627.722	11
628.484	8
629.245	10
630.006	10
630.768	9
631.529	8
632.29	6
633.051	8
633.812	7
634.573	7
635.333	7
636.094	9
636.855	8
637.615	7
638.376	8
639.136	8
639.896	5
640.657	7
641.417	6
642.177	7
642.937	7
643.697	6
644.457	5
645.216	6
645.976	4
646.736	4
647.495	3
648.255	7
649.014	5
649.774	4
650.533	2
651.292	5
652.051	7
652.81	4
653.569	3
654.328	3
655.087	2
655.846	5
656.604	3
657.363	4
658.121	4
658.88	3
659.638	4
660.397	6
661.155	4
661.913	4
662.671	4
663.429	4
664.187	3
664.945	4
665.703	3
666.46	8
667.218	4
667.976	5
668.733	4
669.49	2
670.248	3
671.005	4
671.762	4
672.519	2
673.276	3
674.033	5
674.79	2
675.547	5
676.304	4
677.06	0
677.817	4
678.574	3
679.33	1
680.086	4
680.843	3
681.599	1
682.355	3
683.111	0
683.867	5
684.623	6
685.379	1
686.135	3
686.89	1
687.646	3
688.402	2
689.157	1
689.912	2
690.668	3
691.423	2
692.178	3
692.933	3
693.688	5
694.443	1
695.198	3
695.953	4
696.708	0
697.462	0
698.217	4
698.972	1
699.726	3
700.48	2
701.235	4
701.989	3
702.743	3
703.497	4
704.251	3
705.005	3
705.759	3
706.513	2
707.266	3
708.02	3
708.774	4
709.527	5
710.28	1
711.034	2
711.787	2
712.54	2
713.293	2
714.046	5
714.799	5
715.552	2
716.305	3
717.058	2
717.81	1
718.563	2
719.315	5
720.068	3
720.82	2
721.573	2
722.325	2
723.077	2
723.829	2
724.581	2
725.333	1
726.085	3
726.836	2
727.588	2
728.34	4
729.091	4
729.843	3
730.594	2
731.346	0
732.097	2
732.848	1
733.599	3
734.35	2
735.101	3
735.852	1
736.603	4
737.354	2
738.104	3
738.855	4
739.605	5
740.356	3
741.106	3
741.856	4
742.607	3
743.357	3
744.107	3
744.857	3
745.607	1
746.357	3
747.106	3
747.856	2
748.606	4
749.355	2
750.105	5
750.854	2
751.603	4
752.353	3
753.102	5
753.851	4
754.6	4
755.349	3
756.098	3
756.847	4
757.595	4
758.344	6
759.093	1
759.841	2
760.589	3
761.338	2
762.086	3
762.834	3
763.582	2
764.331	4
765.079	4
765.826	5
766.574	6
767.322	6
768.07	5
768.817	6
769.565	3
770.312	4
771.06	5
771.807	4
772.554	5
773.302	5
774.049	4
774.796	6
775.543	5
776.29	5
777.036	5
777.783	6
778.53	6
779.276	6
780.023	8
780.769	5
781.516	6
782.262	7
783.008	8
783.754	4
784.5	5
785.246	6
785.992	8
786.738	5
787.484	5
788.23	8
788.975	8
789.721	5
790.466	8
791.212	6
791.957	4
792.702	7
793.447	6
794.193	6
794.938	4
795.683	6
796.427	7
797.172	8
797.917	6
798.662	7
799.406	4
800.151	7
800.895	6
801.64	5
802.384	7
803.128	3
803.872	7
804.616	5
805.36	6
806.104	6
806.848	4
807.592	6
808.336	4
809.079	6
809.823	5
810.566	4
811.31	6
812.053	4
812.796	6
813.539	2
814.283	5
815.026	3
815.769	3
816.511	4
817.254	5
817.997	3
818.74	2
819.482	4
820.225	6
820.967	3
821.71	2
822.452	5
823.194	5
823.936	0
824.678	5
825.42	2
826.162	4
826.904	5
827.646	4
828.388	5
829.129	2
829.871	3
830.612	3
831.354	3
832.095	3
832.836	3
833.577	2
834.319	2
835.06	5
835.801	2
836.542	2
837.282	3
838.023	2
838.764	3
839.504	2
840.245	5
840.985	3
841.726	2
842.466	3
843.206	2
843.946	3
844.687	2
845.427	2
846.166	4
846.906	4
847.646	3
848.386	3
849.125	4
849.865	1
850.605	0
851.344	3
852.083	2
852.823	3
853.562	1
854.301	4
855.04	3
855.779	3
856.518	3
857.257	0
857.995	4
858.734	1
859.473	3
860.211	2
860.95	2
861.688	2
862.426	4
863.165	3
863.903	2
864.641	3
865.379	3
866.117	4
866.855	3
867.593	1
868.33	3
869.068	-1
869.806	2
870.543	3
871.28	2
872.018	2
872.755	-1
873.492	3
874.229	2
874.967	1
875.703	2
876.44	2
877.177	2
877.914	1
878.651	3
879.387	3
880.124	4
880.86	2
881.597	2
882.333	2
883.069	2
883.806	-1
884.542	2
885.278	0
886.014	2
886.749	1
887.485	2
888.221	0
888.957	3
889.692	1
890.428	1
891.163	1
891.899	1
892.634	2
893.369	-1
894.104	1
894.839	2
895.574	0
896.309	3
897.044	-1
897.779	1
898.514	0
899.248	1
899.983	3
900.717	1
901.452	2
902.186	1
902.92	2
903.654	2
904.389	3
905.123	2
905.857	1
906.59	2
907.324	0
908.058	0
908.792	-1
909.525	3
910.259	1
910.992	0
911.726	0
912.459	1
913.192	1
913.925	0
914.658	1
915.391	-1
916.124	1
916.857	3
917.59	-1
918.323	1
919.055	3
919.788	2
920.521	3
921.253	1
921.985	1
922.718	1
923.45	2
924.182	1
924.914	1
925.646	1
926.378	4
927.11	2
927.841	-1
928.573	1
929.305	2
930.036	1
930.768	1
931.499	-1
932.23	1
932.962	1
933.693	-1
934.424	3
935.155	5
935.886	2
936.617	0
937.348	0
938.078	1
938.809	0
939.54	1
940.27	2
941.001	1
941.731	2
942.461	2
943.191	1
943.922	2
944.652	1
945.382	-1
946.112	0
946.841	1
947.571	1
948.301	2
949.031	1
949.76	2
950.49	-1
951.219	-1
951.948	1
952.678	1
953.407	1
954.136	2
954.865	0
955.594	-1
956.323	1
957.052	3
957.78	2
958.509	1
959.238	2
959.966	3
960.695	2
961.423	3
962.151	-1
962.88	1
963.608	1
964.336	1
965.064	1
965.792	0
966.52	-1
967.247	2
967.975	1
968.703	3
969.43	1
970.158	3
970.885	-2
971.613	0
972.34	-1
973.067	1
973.794	3
974.521	1
975.248	-1
975.975	0
976.702	-1
977.429	2
978.156	0
978.882	2
979.609	1
980.335	2
981.062	0
981.788	-1
982.514	2
983.24	2
983.967	2
984.693	-1
985.419	1
986.144	0
986.87	0
987.596	3
988.322	1
989.047	2
989.773	1
990.498	3
991.224	-1
991.949	0
992.674	1
993.399	1
994.124	2
994.849	1
995.574	1
996.299	-1
997.024	2
997.749	1
998.473	2
999.198	2
999.922	-1
1000.647	2
1001.371	3
1002.095	-1
1002.82	-1
1003.544	-2
1004.268	2
1004.992	2
1005.716	-1
1006.439	2
1007.163	0
1007.887	1
1008.611	-1
1009.334	1
1010.058	1
1010.781	1
1011.504	0
1012.228	1
1012.951	3
1013.674	-1
1014.397	0
1015.12	-1
