节点500_145_QEPB04081__399__11-35-20-546.txt的数据

Date: Wed Nov 12 11:35:20 CST 2025
User: PC
Spectrometer: QEPB0408
触发模式: 0
积分时间 (秒): 1.000000E-2
Scans to average: 1
启用暗噪声校正: true
启用非线性校正: false
滑动平均宽度: 0
X轴模式: Wavelengths
Number of Pixels in Spectrum: 1044
>>>>>Begin Spectral Data<<<<<
220.843	-2.62
221.644	-1.62
222.444	0.38
223.244	-1.62
224.045	-0.62
224.845	-2.62
225.645	-1.62
226.445	-1.62
227.245	1.38
228.045	-1.62
228.845	-0.62
229.645	-0.62
230.444	0.38
231.244	-0.62
232.043	-0.62
232.843	-1.62
233.642	0.38
234.442	0.38
235.241	0.38
236.04	-0.62
236.839	-2.62
237.638	-1.62
238.437	0.38
239.236	0.38
240.035	1.38
240.833	1.38
241.632	-0.62
242.43	-0.62
243.229	2.38
244.027	-2.62
244.826	3.38
245.624	-0.62
246.422	2.38
247.22	1.38
248.018	0.38
248.816	1.38
249.614	-0.62
250.412	1.38
251.21	0.38
252.007	3.38
252.805	0.38
253.602	2.38
254.4	2.38
255.197	2.38
255.994	2.38
256.791	4.38
257.589	2.38
258.386	2.38
259.183	3.38
259.979	3.38
260.776	2.38
261.573	5.38
262.37	1.38
263.166	2.38
263.963	2.38
264.759	6.38
265.556	6.38
266.352	3.38
267.148	4.38
267.944	7.38
268.74	5.38
269.536	4.38
270.332	6.38
271.128	7.38
271.924	5.38
272.719	8.38
273.515	6.38
274.311	7.38
275.106	8.38
275.901	7.38
276.697	9.38
277.492	9.38
278.287	8.38
279.082	9.38
279.877	10.38
280.672	8.38
281.467	8.38
282.262	10.38
283.056	9.38
283.851	10.38
284.646	11.38
285.44	8.38
286.234	9.38
287.029	9.38
287.823	10.38
288.617	12.38
289.411	9.38
290.205	9.38
290.999	9.38
291.793	9.38
292.587	9.38
293.381	9.38
294.174	8.38
294.968	6.38
295.761	9.38
296.555	9.38
297.348	12.38
298.141	9.38
298.935	9.38
299.728	7.38
300.521	9.38
301.314	9.38
302.107	7.38
302.899	8.38
303.692	6.38
304.485	7.38
305.277	6.38
306.07	6.38
306.862	7.38
307.655	6.38
308.447	8.38
309.239	6.38
310.031	6.38
310.823	8.38
311.615	5.38
312.407	4.38
313.199	6.38
313.991	6.38
314.783	4.38
315.574	5.38
316.366	7.38
317.157	3.38
317.949	4.38
318.74	3.38
319.531	3.38
320.322	1.38
321.113	5.38
321.904	4.38
322.695	4.38
323.486	3.38
324.277	4.38
325.068	4.38
325.858	3.38
326.649	3.38
327.439	6.38
328.23	2.38
329.02	0.38
329.81	3.38
330.6	5.38
331.391	1.38
332.181	3.38
332.971	4.38
333.76	3.38
334.55	4.38
335.34	3.38
336.13	2.38
336.919	-0.62
337.709	1.38
338.498	1.38
339.287	4.38
340.077	3.38
340.866	2.38
341.655	3.38
342.444	2.38
343.233	2.38
344.022	2.38
344.811	2.38
345.6	1.38
346.388	0.38
347.177	3.38
347.965	2.38
348.754	2.38
349.542	4.38
350.33	1.38
351.119	1.38
351.907	4.38
352.695	4.38
353.483	3.38
354.271	2.38
355.059	0.38
355.846	1.38
356.634	0.38
357.422	2.38
358.209	2.38
358.997	0.38
359.784	5.38
360.571	1.38
361.359	2.38
362.146	0.38
362.933	3.38
363.72	2.38
364.507	2.38
365.294	1.38
366.081	0.38
366.867	-0.62
367.654	1.38
368.44	-0.62
369.227	3.38
370.013	1.38
370.8	1.38
371.586	3.38
372.372	1.38
373.158	4.38
373.944	1.38
374.73	2.38
375.516	2.38
376.302	2.38
377.088	2.38
377.873	1.38
378.659	3.38
379.445	0.38
380.23	0.38
381.015	-0.62
381.801	1.38
382.586	2.38
383.371	1.38
384.156	3.38
384.941	1.38
385.726	1.38
386.511	2.38
387.296	-0.62
388.08	0.38
388.865	1.38
389.649	3.38
390.434	1.38
391.218	2.38
392.003	4.38
392.787	2.38
393.571	2.38
394.355	-1.62
395.139	1.38
395.923	4.38
396.707	0.38
397.491	2.38
398.274	2.38
399.058	4.38
399.842	2.38
400.625	7.38
401.408	2.38
402.192	1.38
402.975	0.38
403.758	1.38
404.541	3.38
405.324	3.38
406.107	4.38
406.89	2.38
407.673	2.38
408.456	1.38
409.238	2.38
410.021	4.38
410.803	3.38
411.586	2.38
412.368	4.38
413.151	2.38
413.933	3.38
414.715	4.38
415.497	3.38
416.279	2.38
417.061	2.38
417.843	3.38
418.624	3.38
419.406	4.38
420.188	1.38
420.969	3.38
421.751	6.38
422.532	4.38
423.313	4.38
424.095	4.38
424.876	4.38
425.657	3.38
426.438	7.38
427.219	6.38
428	5.38
428.78	6.38
429.561	4.38
430.342	7.38
431.122	6.38
431.903	8.38
432.683	7.38
433.464	9.38
434.244	6.38
435.024	7.38
435.804	8.38
436.584	6.38
437.364	9.38
438.144	8.38
438.924	8.38
439.704	8.38
440.483	11.38
441.263	13.38
442.042	11.38
442.822	14.38
443.601	13.38
444.38	12.38
445.16	16.38
445.939	17.38
446.718	19.38
447.497	16.38
448.276	19.38
449.054	18.38
449.833	24.38
450.612	24.38
451.391	25.38
452.169	30.38
452.948	29.38
453.726	29.38
454.504	38.38
455.282	41.38
456.061	44.38
456.839	47.38
457.617	51.38
458.395	58.38
459.172	72.38
459.95	76.38
460.728	88.38
461.506	94.38
462.283	105.38
463.061	116.38
463.838	132.38
464.615	146.38
465.393	165.38
466.17	180.38
466.947	201.38
467.724	221.38
468.501	249.38
469.278	280.38
470.055	308.38
470.831	344.38
471.608	385.38
472.385	419.38
473.161	470.38
473.938	522.38
474.714	572.38
475.49	631.38
476.266	703.38
477.043	786.38
477.819	859.38
478.595	942.38
479.371	1057.38
480.146	1152.38
480.922	1279.38
481.698	1400.38
482.473	1545.38
483.249	1696.38
484.024	1859.38
484.8	2041.38
485.575	2262.38
486.35	2484.38
487.126	2732.38
487.901	2986.38
488.676	3286.38
489.451	3615.38
490.225	3947.38
491	4368.38
491.775	4773.38
492.55	5186.38
493.324	5709.38
494.099	6188.38
494.873	6776.38
495.647	7347.38
496.422	8007.38
497.196	8671.38
497.97	9357.38
498.744	10023.38
499.518	10729.38
500.292	11452.38
501.066	12163.38
501.839	12815.38
502.613	13488.38
503.387	14064.38
504.16	14620.38
504.934	15097.38
505.707	15522.38
506.48	15824.38
507.253	15999.38
508.027	16162.38
508.8	16124.38
509.573	15982.38
510.346	15836.38
511.118	15547.38
511.891	15221.38
512.664	14727.38
513.437	14353.38
514.209	13822.38
514.982	13263.38
515.754	12739.38
516.526	12259.38
517.298	11670.38
518.071	11191.38
518.843	10716.38
519.615	10263.38
520.387	9840.38
521.159	9463.38
521.93	9063.38
522.702	8679.38
523.474	8385.38
524.245	8029.38
525.017	7708.38
525.788	7383.38
526.56	7084.38
527.331	6816.38
528.102	6525.38
528.873	6251.38
529.644	5988.38
530.415	5706.38
531.186	5426.38
531.957	5136.38
532.728	4923.38
533.498	4669.38
534.269	4379.38
535.039	4185.38
535.81	3952.38
536.58	3734.38
537.351	3514.38
538.121	3334.38
538.891	3148.38
539.661	2968.38
540.431	2820.38
541.201	2663.38
541.971	2527.38
542.741	2370.38
543.51	2238.38
544.28	2148.38
545.05	2041.38
545.819	1939.38
546.588	1843.38
547.358	1744.38
548.127	1659.38
548.896	1592.38
549.665	1511.38
550.434	1425.38
551.203	1367.38
551.972	1280.38
552.741	1209.38
553.51	1150.38
554.278	1085.38
555.047	1029.38
555.815	965.38
556.584	909.38
557.352	873.38
558.121	806.38
558.889	772.38
559.657	719.38
560.425	680.38
561.193	651.38
561.961	618.38
562.729	571.38
563.496	543.38
564.264	507.38
565.032	482.38
565.799	454.38
566.567	423.38
567.334	408.38
568.101	389.38
568.869	363.38
569.636	340.38
570.403	325.38
571.17	302.38
571.937	284.38
572.704	266.38
573.471	258.38
574.237	238.38
575.004	228.38
575.771	208.38
576.537	200.38
577.303	193.38
578.07	175.38
578.836	166.38
579.602	152.38
580.368	151.38
581.134	140.38
581.9	128.38
582.666	125.38
583.432	117.38
584.198	108.38
584.964	105.38
585.729	102.38
586.495	97.38
587.26	90.38
588.025	85.38
588.791	77.38
589.556	76.38
590.321	71.38
591.086	66.38
591.851	64.38
592.616	62.38
593.381	58.38
594.146	54.38
594.911	54.38
595.675	50.38
596.44	47.38
597.204	47.38
597.969	44.38
598.733	39.38
599.497	36.38
600.261	38.38
601.025	35.38
601.79	35.38
602.553	32.38
603.317	30.38
604.081	30.38
604.845	27.38
605.609	27.38
606.372	23.38
607.136	24.38
607.899	22.38
608.662	18.38
609.426	19.38
610.189	20.38
610.952	16.38
611.715	19.38
612.478	18.38
613.241	16.38
614.004	14.38
614.767	13.38
615.529	13.38
616.292	15.38
617.055	14.38
617.817	12.38
618.579	13.38
619.342	11.38
620.104	12.38
620.866	10.38
621.628	13.38
622.39	10.38
623.152	11.38
623.914	10.38
624.676	9.38
625.438	6.38
626.199	9.38
626.961	9.38
627.722	6.38
628.484	6.38
629.245	7.38
630.006	8.38
630.768	6.38
631.529	5.38
632.29	8.38
633.051	7.38
633.812	6.38
634.573	6.38
635.333	7.38
636.094	5.38
636.855	3.38
637.615	4.38
638.376	7.38
639.136	2.38
639.896	1.38
640.657	4.38
641.417	3.38
642.177	6.38
642.937	5.38
643.697	3.38
644.457	4.38
645.216	4.38
645.976	4.38
646.736	4.38
647.495	4.38
648.255	5.38
649.014	4.38
649.774	4.38
650.533	4.38
651.292	4.38
652.051	4.38
652.81	3.38
653.569	1.38
654.328	5.38
655.087	4.38
655.846	2.38
656.604	-1.62
657.363	3.38
658.121	2.38
658.88	2.38
659.638	1.38
660.397	2.38
661.155	1.38
661.913	0.38
662.671	0.38
663.429	2.38
664.187	-0.62
664.945	2.38
665.703	1.38
666.46	0.38
667.218	0.38
667.976	1.38
668.733	2.38
669.49	3.38
670.248	2.38
671.005	2.38
671.762	3.38
672.519	1.38
673.276	2.38
674.033	-0.62
674.79	1.38
675.547	2.38
676.304	1.38
677.06	0.38
677.817	2.38
678.574	0.38
679.33	-0.62
680.086	1.38
680.843	-0.62
681.599	1.38
682.355	2.38
683.111	1.38
683.867	0.38
684.623	1.38
685.379	0.38
686.135	0.38
686.89	3.38
687.646	0.38
688.402	1.38
689.157	2.38
689.912	-0.62
690.668	-2.62
691.423	1.38
692.178	0.38
692.933	1.38
693.688	0.38
694.443	2.38
695.198	0.38
695.953	-0.62
696.708	1.38
697.462	-1.62
698.217	0.38
698.972	-2.62
699.726	1.38
700.48	1.38
701.235	1.38
701.989	1.38
702.743	-0.62
703.497	1.38
704.251	1.38
705.005	-0.62
705.759	1.38
706.513	-1.62
707.266	-0.62
708.02	0.38
708.774	0.38
709.527	0.38
710.28	1.38
711.034	1.38
711.787	0.38
712.54	0.38
713.293	-0.62
714.046	1.38
714.799	-0.62
715.552	2.38
716.305	1.38
717.058	0.38
717.81	2.38
718.563	1.38
719.315	1.38
720.068	0.38
720.82	0.38
721.573	1.38
722.325	-1.62
723.077	1.38
723.829	-0.62
724.581	0.38
725.333	2.38
726.085	1.38
726.836	0.38
727.588	-0.62
728.34	1.38
729.091	0.38
729.843	2.38
730.594	0.38
731.346	-0.62
732.097	0.38
732.848	1.38
733.599	1.38
734.35	2.38
735.101	1.38
735.852	-0.62
736.603	0.38
737.354	-0.62
738.104	3.38
738.855	0.38
739.605	0.38
740.356	0.38
741.106	2.38
741.856	1.38
742.607	3.38
743.357	1.38
744.107	2.38
744.857	2.38
745.607	1.38
746.357	2.38
747.106	1.38
747.856	0.38
748.606	1.38
749.355	3.38
750.105	1.38
750.854	1.38
751.603	3.38
752.353	3.38
753.102	1.38
753.851	1.38
754.6	2.38
755.349	0.38
756.098	2.38
756.847	1.38
757.595	1.38
758.344	1.38
759.093	0.38
759.841	3.38
760.589	2.38
761.338	0.38
762.086	2.38
762.834	0.38
763.582	2.38
764.331	3.38
765.079	2.38
765.826	2.38
766.574	1.38
767.322	3.38
768.07	2.38
768.817	1.38
769.565	0.38
770.312	4.38
771.06	4.38
771.807	2.38
772.554	2.38
773.302	3.38
774.049	1.38
774.796	5.38
775.543	2.38
776.29	3.38
777.036	4.38
777.783	3.38
778.53	3.38
779.276	1.38
780.023	2.38
780.769	5.38
781.516	2.38
782.262	2.38
783.008	5.38
783.754	3.38
784.5	3.38
785.246	1.38
785.992	6.38
786.738	3.38
787.484	3.38
788.23	6.38
788.975	3.38
789.721	3.38
790.466	4.38
791.212	2.38
791.957	4.38
792.702	0.38
793.447	3.38
794.193	0.38
794.938	5.38
795.683	6.38
796.427	4.38
797.172	3.38
797.917	3.38
798.662	5.38
799.406	3.38
800.151	3.38
800.895	4.38
801.64	1.38
802.384	4.38
803.128	5.38
803.872	6.38
804.616	2.38
805.36	6.38
806.104	3.38
806.848	3.38
807.592	3.38
808.336	1.38
809.079	4.38
809.823	3.38
810.566	2.38
811.31	4.38
812.053	2.38
812.796	1.38
813.539	4.38
814.283	3.38
815.026	1.38
815.769	3.38
816.511	1.38
817.254	2.38
817.997	2.38
818.74	4.38
819.482	3.38
820.225	1.38
820.967	0.38
821.71	2.38
822.452	2.38
823.194	3.38
823.936	0.38
824.678	1.38
825.42	4.38
826.162	3.38
826.904	1.38
827.646	2.38
828.388	3.38
829.129	0.38
829.871	0.38
830.612	2.38
831.354	2.38
832.095	-0.62
832.836	0.38
833.577	2.38
834.319	1.38
835.06	4.38
835.801	1.38
836.542	3.38
837.282	1.38
838.023	2.38
838.764	2.38
839.504	-0.62
840.245	3.38
840.985	1.38
841.726	1.38
842.466	0.38
843.206	0.38
843.946	1.38
844.687	0.38
845.427	1.38
846.166	0.38
846.906	-0.62
847.646	0.38
848.386	0.38
849.125	1.38
849.865	0.38
850.605	0.38
851.344	0.38
852.083	1.38
852.823	0.38
853.562	0.38
854.301	-0.62
855.04	0.38
855.779	2.38
856.518	0.38
857.257	-0.62
857.995	0.38
858.734	3.38
859.473	0.38
860.211	0.38
860.95	1.38
861.688	0.38
862.426	0.38
863.165	-0.62
863.903	0.38
864.641	-0.62
865.379	-2.62
866.117	1.38
866.855	-0.62
867.593	-0.62
868.33	2.38
869.068	1.38
869.806	1.38
870.543	-0.62
871.28	1.38
872.018	-0.62
872.755	-1.62
873.492	-0.62
874.229	-0.62
874.967	1.38
875.703	-2.62
876.44	-0.62
877.177	0.38
877.914	-0.62
878.651	1.38
879.387	0.38
880.124	1.38
880.86	-0.62
881.597	1.38
882.333	1.38
883.069	1.38
883.806	-0.62
884.542	0.38
885.278	-0.62
886.014	0.38
886.749	-0.62
887.485	-0.62
888.221	1.38
888.957	-2.62
889.692	0.38
890.428	1.38
891.163	-1.62
891.899	-2.62
892.634	0.38
893.369	-1.62
894.104	-0.62
894.839	0.38
895.574	-0.62
896.309	-0.62
897.044	0.38
897.779	1.38
898.514	0.38
899.248	0.38
899.983	0.38
900.717	2.38
901.452	0.38
902.186	0.38
902.92	-0.62
903.654	-0.62
904.389	-0.62
905.123	-1.62
905.857	-1.62
906.59	-2.62
907.324	-1.62
908.058	-0.62
908.792	-0.62
909.525	-1.62
910.259	0.38
910.992	-1.62
911.726	-2.62
912.459	-0.62
913.192	-2.62
913.925	-0.62
914.658	0.38
915.391	-2.62
916.124	-2.62
916.857	-2.62
917.59	0.38
918.323	0.38
919.055	-0.62
919.788	-0.62
920.521	0.38
921.253	0.38
921.985	-0.62
922.718	0.38
923.45	-0.62
924.182	-1.62
924.914	1.38
925.646	-1.62
926.378	0.38
927.11	1.38
927.841	0.38
928.573	-0.62
929.305	-1.62
930.036	2.38
930.768	0.38
931.499	-0.62
932.23	-1.62
932.962	0.38
933.693	1.38
934.424	-0.62
935.155	-3.62
935.886	-2.62
936.617	1.38
937.348	0.38
938.078	-0.62
938.809	-1.62
939.54	-0.62
940.27	-2.62
941.001	0.38
941.731	0.38
942.461	-1.62
943.191	-0.62
943.922	-0.62
944.652	-0.62
945.382	0.38
946.112	-0.62
946.841	1.38
947.571	-2.62
948.301	0.38
949.031	-1.62
949.76	-0.62
950.49	-1.62
951.219	-2.62
951.948	1.38
952.678	1.38
953.407	-1.62
954.136	-1.62
954.865	0.38
955.594	-0.62
956.323	-2.62
957.052	0.38
957.78	0.38
958.509	0.38
959.238	0.38
959.966	-2.62
960.695	-2.62
961.423	0.38
962.151	-1.62
962.88	1.38
963.608	-0.62
964.336	-1.62
965.064	-1.62
965.792	-0.62
966.52	-1.62
967.247	0.38
967.975	-0.62
968.703	-0.62
969.43	-0.62
970.158	-2.62
970.885	-2.62
971.613	-0.62
972.34	0.38
973.067	-0.62
973.794	0.38
974.521	-0.62
975.248	-2.62
975.975	0.38
976.702	-0.62
977.429	-0.62
978.156	-2.62
978.882	-0.62
979.609	0.38
980.335	-1.62
981.062	-1.62
981.788	-0.62
982.514	-0.62
983.24	-1.62
983.967	1.38
984.693	0.38
985.419	-0.62
986.144	-0.62
986.87	0.38
987.596	2.38
988.322	-1.62
989.047	-1.62
989.773	-0.62
990.498	-1.62
991.224	-0.62
991.949	-1.62
992.674	-0.62
993.399	1.38
994.124	0.38
994.849	-0.62
995.574	-0.62
996.299	1.38
997.024	-1.62
997.749	1.38
998.473	0.38
999.198	0.38
999.922	-0.62
1000.647	-0.62
1001.371	4.38
1002.095	-2.62
1002.82	0.38
1003.544	-0.62
1004.268	-3.62
1004.992	1.38
1005.716	-3.62
1006.439	-3.62
1007.163	-2.62
1007.887	1.38
1008.611	0.38
1009.334	-1.62
1010.058	1.38
1010.781	-1.62
1011.504	-1.62
1012.228	0.38
1012.951	0.38
1013.674	0.38
1014.397	-1.62
1015.12	-0.62
