节点500_145_QEPB04081__458__11-36-16-534.txt的数据

Date: Wed Nov 12 11:36:16 CST 2025
User: PC
Spectrometer: QEPB0408
触发模式: 0
积分时间 (秒): 1.000000E-2
Scans to average: 1
启用暗噪声校正: true
启用非线性校正: false
滑动平均宽度: 0
X轴模式: Wavelengths
Number of Pixels in Spectrum: 1044
>>>>>Begin Spectral Data<<<<<
220.843	1.25
221.644	-1.75
222.444	-1.75
223.244	0.25
224.045	1.25
224.845	0.25
225.645	0.25
226.445	0.25
227.245	-0.75
228.045	0.25
228.845	2.25
229.645	0.25
230.444	1.25
231.244	1.25
232.043	3.25
232.843	1.25
233.642	-0.75
234.442	0.25
235.241	-0.75
236.04	2.25
236.839	1.25
237.638	3.25
238.437	1.25
239.236	1.25
240.035	0.25
240.833	-0.75
241.632	1.25
242.43	0.25
243.229	0.25
244.027	-0.75
244.826	3.25
245.624	0.25
246.422	2.25
247.22	2.25
248.018	1.25
248.816	3.25
249.614	4.25
250.412	1.25
251.21	1.25
252.007	3.25
252.805	5.25
253.602	3.25
254.4	3.25
255.197	4.25
255.994	2.25
256.791	3.25
257.589	1.25
258.386	4.25
259.183	5.25
259.979	2.25
260.776	3.25
261.573	6.25
262.37	5.25
263.166	5.25
263.963	7.25
264.759	5.25
265.556	5.25
266.352	6.25
267.148	5.25
267.944	6.25
268.74	6.25
269.536	4.25
270.332	7.25
271.128	7.25
271.924	9.25
272.719	9.25
273.515	9.25
274.311	8.25
275.106	8.25
275.901	6.25
276.697	8.25
277.492	7.25
278.287	10.25
279.082	8.25
279.877	11.25
280.672	10.25
281.467	8.25
282.262	12.25
283.056	10.25
283.851	9.25
284.646	11.25
285.44	11.25
286.234	12.25
287.029	14.25
287.823	12.25
288.617	9.25
289.411	8.25
290.205	10.25
290.999	9.25
291.793	11.25
292.587	10.25
293.381	9.25
294.174	11.25
294.968	9.25
295.761	9.25
296.555	7.25
297.348	9.25
298.141	8.25
298.935	10.25
299.728	7.25
300.521	8.25
301.314	9.25
302.107	10.25
302.899	9.25
303.692	8.25
304.485	7.25
305.277	7.25
306.07	6.25
306.862	8.25
307.655	8.25
308.447	7.25
309.239	6.25
310.031	9.25
310.823	7.25
311.615	8.25
312.407	7.25
313.199	6.25
313.991	8.25
314.783	4.25
315.574	5.25
316.366	7.25
317.157	5.25
317.949	7.25
318.74	3.25
319.531	5.25
320.322	3.25
321.113	4.25
321.904	3.25
322.695	6.25
323.486	5.25
324.277	4.25
325.068	5.25
325.858	4.25
326.649	4.25
327.439	5.25
328.23	3.25
329.02	4.25
329.81	2.25
330.6	3.25
331.391	3.25
332.181	5.25
332.971	3.25
333.76	3.25
334.55	4.25
335.34	3.25
336.13	5.25
336.919	1.25
337.709	3.25
338.498	2.25
339.287	2.25
340.077	4.25
340.866	5.25
341.655	2.25
342.444	1.25
343.233	5.25
344.022	5.25
344.811	3.25
345.6	3.25
346.388	5.25
347.177	4.25
347.965	3.25
348.754	2.25
349.542	3.25
350.33	4.25
351.119	3.25
351.907	4.25
352.695	5.25
353.483	5.25
354.271	2.25
355.059	3.25
355.846	0.25
356.634	5.25
357.422	4.25
358.209	2.25
358.997	1.25
359.784	4.25
360.571	4.25
361.359	3.25
362.146	3.25
362.933	3.25
363.72	1.25
364.507	2.25
365.294	4.25
366.081	3.25
366.867	1.25
367.654	3.25
368.44	3.25
369.227	2.25
370.013	2.25
370.8	0.25
371.586	3.25
372.372	3.25
373.158	4.25
373.944	1.25
374.73	2.25
375.516	1.25
376.302	5.25
377.088	5.25
377.873	3.25
378.659	2.25
379.445	3.25
380.23	2.25
381.015	4.25
381.801	2.25
382.586	2.25
383.371	2.25
384.156	3.25
384.941	3.25
385.726	2.25
386.511	3.25
387.296	3.25
388.08	2.25
388.865	1.25
389.649	5.25
390.434	3.25
391.218	2.25
392.003	3.25
392.787	2.25
393.571	4.25
394.355	0.25
395.139	3.25
395.923	5.25
396.707	1.25
397.491	2.25
398.274	1.25
399.058	3.25
399.842	1.25
400.625	2.25
401.408	2.25
402.192	4.25
402.975	1.25
403.758	4.25
404.541	5.25
405.324	4.25
406.107	4.25
406.89	6.25
407.673	3.25
408.456	3.25
409.238	2.25
410.021	5.25
410.803	4.25
411.586	5.25
412.368	6.25
413.151	2.25
413.933	4.25
414.715	5.25
415.497	3.25
416.279	3.25
417.061	4.25
417.843	5.25
418.624	4.25
419.406	7.25
420.188	3.25
420.969	5.25
421.751	5.25
422.532	5.25
423.313	3.25
424.095	5.25
424.876	6.25
425.657	5.25
426.438	4.25
427.219	9.25
428	7.25
428.78	6.25
429.561	8.25
430.342	5.25
431.122	7.25
431.903	9.25
432.683	7.25
433.464	9.25
434.244	8.25
435.024	8.25
435.804	11.25
436.584	7.25
437.364	9.25
438.144	10.25
438.924	9.25
439.704	11.25
440.483	11.25
441.263	13.25
442.042	13.25
442.822	12.25
443.601	12.25
444.38	14.25
445.16	15.25
445.939	17.25
446.718	21.25
447.497	19.25
448.276	19.25
449.054	25.25
449.833	21.25
450.612	25.25
451.391	30.25
452.169	30.25
452.948	33.25
453.726	33.25
454.504	38.25
455.282	43.25
456.061	46.25
456.839	55.25
457.617	60.25
458.395	64.25
459.172	70.25
459.95	79.25
460.728	86.25
461.506	97.25
462.283	103.25
463.061	124.25
463.838	133.25
464.615	143.25
465.393	162.25
466.17	186.25
466.947	205.25
467.724	223.25
468.501	251.25
469.278	279.25
470.055	317.25
470.831	349.25
471.608	384.25
472.385	432.25
473.161	469.25
473.938	530.25
474.714	584.25
475.49	648.25
476.266	716.25
477.043	779.25
477.819	869.25
478.595	955.25
479.371	1051.25
480.146	1149.25
480.922	1280.25
481.698	1414.25
482.473	1547.25
483.249	1701.25
484.024	1867.25
484.8	2045.25
485.575	2258.25
486.35	2476.25
487.126	2737.25
487.901	2959.25
488.676	3246.25
489.451	3569.25
490.225	3937.25
491	4302.25
491.775	4689.25
492.55	5140.25
493.324	5614.25
494.099	6106.25
494.873	6653.25
495.647	7246.25
496.422	7868.25
497.196	8459.25
497.97	9146.25
498.744	9843.25
499.518	10552.25
500.292	11224.25
501.066	11954.25
501.839	12631.25
502.613	13229.25
503.387	13867.25
504.16	14453.25
504.934	14922.25
505.707	15234.25
506.48	15627.25
507.253	15838.25
508.027	15931.25
508.8	15926.25
509.573	15897.25
510.346	15765.25
511.118	15464.25
511.891	15134.25
512.664	14752.25
513.437	14286.25
514.209	13835.25
514.982	13282.25
515.754	12766.25
516.526	12276.25
517.298	11691.25
518.071	11208.25
518.843	10723.25
519.615	10284.25
520.387	9866.25
521.159	9515.25
521.93	9090.25
522.702	8725.25
523.474	8383.25
524.245	8080.25
525.017	7742.25
525.788	7450.25
526.56	7111.25
527.331	6814.25
528.102	6532.25
528.873	6261.25
529.644	5994.25
530.415	5725.25
531.186	5445.25
531.957	5223.25
532.728	4922.25
533.498	4691.25
534.269	4434.25
535.039	4180.25
535.81	3964.25
536.58	3782.25
537.351	3561.25
538.121	3360.25
538.891	3152.25
539.661	3016.25
540.431	2848.25
541.201	2669.25
541.971	2534.25
542.741	2410.25
543.51	2289.25
544.28	2154.25
545.05	2048.25
545.819	1960.25
546.588	1853.25
547.358	1771.25
548.127	1666.25
548.896	1593.25
549.665	1506.25
550.434	1428.25
551.203	1357.25
551.972	1294.25
552.741	1222.25
553.51	1163.25
554.278	1101.25
555.047	1037.25
555.815	987.25
556.584	924.25
557.352	875.25
558.121	832.25
558.889	787.25
559.657	731.25
560.425	690.25
561.193	660.25
561.961	627.25
562.729	574.25
563.496	554.25
564.264	517.25
565.032	488.25
565.799	457.25
566.567	437.25
567.334	403.25
568.101	389.25
568.869	377.25
569.636	344.25
570.403	330.25
571.17	313.25
571.937	297.25
572.704	270.25
573.471	255.25
574.237	247.25
575.004	231.25
575.771	215.25
576.537	206.25
577.303	193.25
578.07	181.25
578.836	171.25
579.602	161.25
580.368	151.25
581.134	144.25
581.9	134.25
582.666	133.25
583.432	126.25
584.198	120.25
584.964	106.25
585.729	101.25
586.495	95.25
587.26	93.25
588.025	88.25
588.791	79.25
589.556	80.25
590.321	75.25
591.086	71.25
591.851	67.25
592.616	62.25
593.381	57.25
594.146	54.25
594.911	53.25
595.675	52.25
596.44	46.25
597.204	49.25
597.969	45.25
598.733	43.25
599.497	40.25
600.261	38.25
601.025	37.25
601.79	37.25
602.553	33.25
603.317	30.25
604.081	30.25
604.845	28.25
605.609	26.25
606.372	26.25
607.136	25.25
607.899	25.25
608.662	26.25
609.426	23.25
610.189	23.25
610.952	23.25
611.715	20.25
612.478	19.25
613.241	19.25
614.004	18.25
614.767	19.25
615.529	19.25
616.292	15.25
617.055	14.25
617.817	13.25
618.579	12.25
619.342	12.25
620.104	13.25
620.866	12.25
621.628	11.25
622.39	8.25
623.152	11.25
623.914	11.25
624.676	11.25
625.438	11.25
626.199	11.25
626.961	10.25
627.722	10.25
628.484	9.25
629.245	7.25
630.006	6.25
630.768	8.25
631.529	9.25
632.29	5.25
633.051	8.25
633.812	5.25
634.573	7.25
635.333	5.25
636.094	7.25
636.855	6.25
637.615	5.25
638.376	5.25
639.136	4.25
639.896	4.25
640.657	5.25
641.417	5.25
642.177	4.25
642.937	4.25
643.697	6.25
644.457	6.25
645.216	5.25
645.976	7.25
646.736	5.25
647.495	4.25
648.255	3.25
649.014	5.25
649.774	2.25
650.533	7.25
651.292	4.25
652.051	5.25
652.81	4.25
653.569	3.25
654.328	2.25
655.087	4.25
655.846	4.25
656.604	3.25
657.363	5.25
658.121	3.25
658.88	2.25
659.638	2.25
660.397	2.25
661.155	3.25
661.913	2.25
662.671	2.25
663.429	2.25
664.187	3.25
664.945	2.25
665.703	1.25
666.46	2.25
667.218	2.25
667.976	2.25
668.733	4.25
669.49	2.25
670.248	3.25
671.005	3.25
671.762	3.25
672.519	2.25
673.276	2.25
674.033	2.25
674.79	3.25
675.547	3.25
676.304	3.25
677.06	2.25
677.817	1.25
678.574	1.25
679.33	2.25
680.086	1.25
680.843	2.25
681.599	1.25
682.355	2.25
683.111	4.25
683.867	2.25
684.623	2.25
685.379	2.25
686.135	2.25
686.89	-0.75
687.646	2.25
688.402	2.25
689.157	0.25
689.912	2.25
690.668	0.25
691.423	1.25
692.178	3.25
692.933	2.25
693.688	2.25
694.443	1.25
695.198	1.25
695.953	2.25
696.708	2.25
697.462	3.25
698.217	0.25
698.972	2.25
699.726	1.25
700.48	3.25
701.235	1.25
701.989	2.25
702.743	0.25
703.497	2.25
704.251	2.25
705.005	2.25
705.759	0.25
706.513	3.25
707.266	2.25
708.02	0.25
708.774	1.25
709.527	2.25
710.28	1.25
711.034	2.25
711.787	1.25
712.54	3.25
713.293	2.25
714.046	2.25
714.799	2.25
715.552	-0.75
716.305	2.25
717.058	1.25
717.81	3.25
718.563	1.25
719.315	2.25
720.068	1.25
720.82	0.25
721.573	3.25
722.325	2.25
723.077	2.25
723.829	2.25
724.581	0.25
725.333	4.25
726.085	1.25
726.836	3.25
727.588	2.25
728.34	1.25
729.091	1.25
729.843	0.25
730.594	2.25
731.346	2.25
732.097	2.25
732.848	2.25
733.599	1.25
734.35	1.25
735.101	0.25
735.852	3.25
736.603	3.25
737.354	3.25
738.104	2.25
738.855	0.25
739.605	4.25
740.356	2.25
741.106	3.25
741.856	0.25
742.607	1.25
743.357	3.25
744.107	3.25
744.857	4.25
745.607	2.25
746.357	2.25
747.106	2.25
747.856	1.25
748.606	2.25
749.355	3.25
750.105	2.25
750.854	4.25
751.603	2.25
752.353	4.25
753.102	2.25
753.851	1.25
754.6	1.25
755.349	5.25
756.098	2.25
756.847	4.25
757.595	3.25
758.344	0.25
759.093	2.25
759.841	4.25
760.589	4.25
761.338	4.25
762.086	2.25
762.834	1.25
763.582	2.25
764.331	3.25
765.079	1.25
765.826	2.25
766.574	3.25
767.322	2.25
768.07	5.25
768.817	3.25
769.565	4.25
770.312	2.25
771.06	3.25
771.807	3.25
772.554	2.25
773.302	2.25
774.049	1.25
774.796	7.25
775.543	3.25
776.29	7.25
777.036	5.25
777.783	5.25
778.53	5.25
779.276	3.25
780.023	7.25
780.769	6.25
781.516	7.25
782.262	5.25
783.008	5.25
783.754	6.25
784.5	5.25
785.246	5.25
785.992	1.25
786.738	7.25
787.484	4.25
788.23	2.25
788.975	5.25
789.721	4.25
790.466	7.25
791.212	5.25
791.957	8.25
792.702	6.25
793.447	5.25
794.193	5.25
794.938	3.25
795.683	5.25
796.427	2.25
797.172	6.25
797.917	5.25
798.662	3.25
799.406	4.25
800.151	5.25
800.895	3.25
801.64	4.25
802.384	5.25
803.128	5.25
803.872	4.25
804.616	5.25
805.36	4.25
806.104	4.25
806.848	3.25
807.592	3.25
808.336	3.25
809.079	5.25
809.823	5.25
810.566	5.25
811.31	4.25
812.053	-1.75
812.796	3.25
813.539	3.25
814.283	4.25
815.026	6.25
815.769	2.25
816.511	4.25
817.254	3.25
817.997	2.25
818.74	4.25
819.482	0.25
820.225	2.25
820.967	2.25
821.71	3.25
822.452	2.25
823.194	3.25
823.936	6.25
824.678	2.25
825.42	3.25
826.162	3.25
826.904	3.25
827.646	2.25
828.388	3.25
829.129	3.25
829.871	3.25
830.612	2.25
831.354	2.25
832.095	2.25
832.836	5.25
833.577	2.25
834.319	3.25
835.06	1.25
835.801	4.25
836.542	3.25
837.282	1.25
838.023	3.25
838.764	3.25
839.504	2.25
840.245	2.25
840.985	3.25
841.726	2.25
842.466	2.25
843.206	2.25
843.946	-0.75
844.687	-1.75
845.427	-0.75
846.166	2.25
846.906	-0.75
847.646	4.25
848.386	1.25
849.125	3.25
849.865	2.25
850.605	3.25
851.344	2.25
852.083	1.25
852.823	1.25
853.562	0.25
854.301	1.25
855.04	2.25
855.779	2.25
856.518	2.25
857.257	1.25
857.995	2.25
858.734	3.25
859.473	2.25
860.211	-0.75
860.95	1.25
861.688	1.25
862.426	1.25
863.165	1.25
863.903	-0.75
864.641	2.25
865.379	2.25
866.117	1.25
866.855	0.25
867.593	-2.75
868.33	1.25
869.068	1.25
869.806	1.25
870.543	1.25
871.28	1.25
872.018	1.25
872.755	-1.75
873.492	3.25
874.229	1.25
874.967	1.25
875.703	-0.75
876.44	1.25
877.177	2.25
877.914	-0.75
878.651	1.25
879.387	2.25
880.124	1.25
880.86	0.25
881.597	0.25
882.333	1.25
883.069	-0.75
883.806	-0.75
884.542	0.25
885.278	2.25
886.014	2.25
886.749	2.25
887.485	3.25
888.221	-0.75
888.957	1.25
889.692	2.25
890.428	0.25
891.163	1.25
891.899	0.25
892.634	0.25
893.369	1.25
894.104	0.25
894.839	0.25
895.574	1.25
896.309	1.25
897.044	1.25
897.779	1.25
898.514	1.25
899.248	0.25
899.983	1.25
900.717	0.25
901.452	-0.75
902.186	0.25
902.92	2.25
903.654	-0.75
904.389	1.25
905.123	1.25
905.857	1.25
906.59	1.25
907.324	-0.75
908.058	1.25
908.792	1.25
909.525	1.25
910.259	-1.75
910.992	0.25
911.726	0.25
912.459	0.25
913.192	0.25
913.925	2.25
914.658	0.25
915.391	0.25
916.124	1.25
916.857	2.25
917.59	1.25
918.323	1.25
919.055	-0.75
919.788	0.25
920.521	1.25
921.253	0.25
921.985	-2.75
922.718	-0.75
923.45	-0.75
924.182	0.25
924.914	0.25
925.646	2.25
926.378	0.25
927.11	2.25
927.841	-1.75
928.573	1.25
929.305	0.25
930.036	0.25
930.768	-0.75
931.499	0.25
932.23	-0.75
932.962	1.25
933.693	1.25
934.424	-0.75
935.155	0.25
935.886	1.25
936.617	-1.75
937.348	0.25
938.078	0.25
938.809	1.25
939.54	-0.75
940.27	0.25
941.001	-0.75
941.731	-1.75
942.461	0.25
943.191	1.25
943.922	0.25
944.652	0.25
945.382	1.25
946.112	-1.75
946.841	0.25
947.571	1.25
948.301	0.25
949.031	1.25
949.76	1.25
950.49	0.25
951.219	-0.75
951.948	0.25
952.678	1.25
953.407	1.25
954.136	-0.75
954.865	0.25
955.594	2.25
956.323	-0.75
957.052	0.25
957.78	2.25
958.509	2.25
959.238	1.25
959.966	-1.75
960.695	0.25
961.423	3.25
962.151	0.25
962.88	0.25
963.608	-0.75
964.336	1.25
965.064	1.25
965.792	1.25
966.52	2.25
967.247	1.25
967.975	1.25
968.703	1.25
969.43	-1.75
970.158	1.25
970.885	1.25
971.613	-0.75
972.34	-1.75
973.067	2.25
973.794	0.25
974.521	1.25
975.248	1.25
975.975	1.25
976.702	0.25
977.429	-1.75
978.156	0.25
978.882	0.25
979.609	-0.75
980.335	2.25
981.062	-2.75
981.788	-1.75
982.514	-1.75
983.24	-2.75
983.967	-0.75
984.693	0.25
985.419	-0.75
986.144	1.25
986.87	0.25
987.596	-1.75
988.322	0.25
989.047	0.25
989.773	1.25
990.498	1.25
991.224	-1.75
991.949	1.25
992.674	2.25
993.399	0.25
994.124	0.25
994.849	1.25
995.574	-0.75
996.299	-1.75
997.024	3.25
997.749	-0.75
998.473	0.25
999.198	-0.75
999.922	-0.75
1000.647	1.25
1001.371	2.25
1002.095	1.25
1002.82	-2.75
1003.544	0.25
1004.268	-0.75
1004.992	-0.75
1005.716	0.25
1006.439	-1.75
1007.163	1.25
1007.887	0.25
1008.611	1.25
1009.334	0.25
1010.058	3.25
1010.781	1.25
1011.504	-0.75
1012.228	1.25
1012.951	1.25
1013.674	-0.75
1014.397	0.25
1015.12	-1.75
