节点500_145_QEPB04081__123__11-30-54-618.txt的数据

Date: Wed Nov 12 11:30:54 CST 2025
User: PC
Spectrometer: QEPB0408
触发模式: 0
积分时间 (秒): 1.000000E-2
Scans to average: 1
启用暗噪声校正: true
启用非线性校正: false
滑动平均宽度: 0
X轴模式: Wavelengths
Number of Pixels in Spectrum: 1044
>>>>>Begin Spectral Data<<<<<
220.843	0.75
221.644	0.75
222.444	0.75
223.244	0.75
224.045	0.75
224.845	-1.25
225.645	0.75
226.445	-0.25
227.245	1.75
228.045	-0.25
228.845	2.75
229.645	0.75
230.444	-0.25
231.244	0.75
232.043	1.75
232.843	1.75
233.642	1.75
234.442	2.75
235.241	0.75
236.04	1.75
236.839	1.75
237.638	1.75
238.437	1.75
239.236	-0.25
240.035	1.75
240.833	3.75
241.632	3.75
242.43	2.75
243.229	1.75
244.027	4.75
244.826	4.75
245.624	2.75
246.422	2.75
247.22	0.75
248.018	3.75
248.816	2.75
249.614	1.75
250.412	2.75
251.21	0.75
252.007	4.75
252.805	1.75
253.602	4.75
254.4	2.75
255.197	6.75
255.994	4.75
256.791	5.75
257.589	4.75
258.386	3.75
259.183	5.75
259.979	3.75
260.776	6.75
261.573	4.75
262.37	6.75
263.166	8.75
263.963	7.75
264.759	6.75
265.556	5.75
266.352	7.75
267.148	5.75
267.944	5.75
268.74	9.75
269.536	6.75
270.332	11.75
271.128	8.75
271.924	11.75
272.719	8.75
273.515	7.75
274.311	10.75
275.106	9.75
275.901	10.75
276.697	9.75
277.492	11.75
278.287	8.75
279.082	12.75
279.877	11.75
280.672	10.75
281.467	11.75
282.262	12.75
283.056	13.75
283.851	10.75
284.646	12.75
285.44	10.75
286.234	10.75
287.029	13.75
287.823	11.75
288.617	15.75
289.411	12.75
290.205	13.75
290.999	13.75
291.793	12.75
292.587	9.75
293.381	13.75
294.174	10.75
294.968	10.75
295.761	10.75
296.555	11.75
297.348	11.75
298.141	13.75
298.935	11.75
299.728	9.75
300.521	8.75
301.314	9.75
302.107	10.75
302.899	10.75
303.692	8.75
304.485	10.75
305.277	9.75
306.07	6.75
306.862	7.75
307.655	9.75
308.447	7.75
309.239	7.75
310.031	7.75
310.823	8.75
311.615	7.75
312.407	6.75
313.199	6.75
313.991	7.75
314.783	8.75
315.574	6.75
316.366	5.75
317.157	5.75
317.949	5.75
318.74	7.75
319.531	6.75
320.322	5.75
321.113	7.75
321.904	5.75
322.695	6.75
323.486	3.75
324.277	5.75
325.068	7.75
325.858	2.75
326.649	5.75
327.439	3.75
328.23	5.75
329.02	4.75
329.81	3.75
330.6	3.75
331.391	1.75
332.181	4.75
332.971	4.75
333.76	4.75
334.55	5.75
335.34	6.75
336.13	4.75
336.919	2.75
337.709	7.75
338.498	4.75
339.287	3.75
340.077	2.75
340.866	5.75
341.655	5.75
342.444	5.75
343.233	5.75
344.022	4.75
344.811	2.75
345.6	3.75
346.388	4.75
347.177	2.75
347.965	4.75
348.754	4.75
349.542	2.75
350.33	5.75
351.119	3.75
351.907	5.75
352.695	1.75
353.483	3.75
354.271	3.75
355.059	5.75
355.846	2.75
356.634	5.75
357.422	4.75
358.209	2.75
358.997	3.75
359.784	4.75
360.571	5.75
361.359	1.75
362.146	4.75
362.933	2.75
363.72	3.75
364.507	2.75
365.294	5.75
366.081	2.75
366.867	1.75
367.654	3.75
368.44	4.75
369.227	5.75
370.013	5.75
370.8	3.75
371.586	2.75
372.372	2.75
373.158	3.75
373.944	1.75
374.73	4.75
375.516	3.75
376.302	3.75
377.088	4.75
377.873	1.75
378.659	1.75
379.445	3.75
380.23	4.75
381.015	3.75
381.801	2.75
382.586	2.75
383.371	3.75
384.156	3.75
384.941	2.75
385.726	4.75
386.511	2.75
387.296	4.75
388.08	4.75
388.865	4.75
389.649	3.75
390.434	3.75
391.218	3.75
392.003	2.75
392.787	4.75
393.571	2.75
394.355	-0.25
395.139	5.75
395.923	1.75
396.707	4.75
397.491	3.75
398.274	3.75
399.058	4.75
399.842	5.75
400.625	3.75
401.408	5.75
402.192	5.75
402.975	6.75
403.758	8.75
404.541	5.75
405.324	3.75
406.107	4.75
406.89	4.75
407.673	4.75
408.456	5.75
409.238	2.75
410.021	3.75
410.803	5.75
411.586	4.75
412.368	3.75
413.151	4.75
413.933	4.75
414.715	3.75
415.497	8.75
416.279	4.75
417.061	6.75
417.843	7.75
418.624	5.75
419.406	5.75
420.188	5.75
420.969	4.75
421.751	3.75
422.532	7.75
423.313	6.75
424.095	6.75
424.876	7.75
425.657	5.75
426.438	7.75
427.219	8.75
428	6.75
428.78	7.75
429.561	4.75
430.342	7.75
431.122	7.75
431.903	5.75
432.683	7.75
433.464	9.75
434.244	8.75
435.024	7.75
435.804	9.75
436.584	10.75
437.364	10.75
438.144	9.75
438.924	8.75
439.704	12.75
440.483	10.75
441.263	10.75
442.042	13.75
442.822	13.75
443.601	14.75
444.38	14.75
445.16	16.75
445.939	15.75
446.718	19.75
447.497	18.75
448.276	19.75
449.054	22.75
449.833	22.75
450.612	25.75
451.391	26.75
452.169	26.75
452.948	31.75
453.726	34.75
454.504	33.75
455.282	37.75
456.061	45.75
456.839	47.75
457.617	51.75
458.395	57.75
459.172	62.75
459.95	68.75
460.728	80.75
461.506	85.75
462.283	92.75
463.061	106.75
463.838	119.75
464.615	132.75
465.393	145.75
466.17	159.75
466.947	184.75
467.724	204.75
468.501	233.75
469.278	254.75
470.055	277.75
470.831	320.75
471.608	350.75
472.385	388.75
473.161	437.75
473.938	493.75
474.714	541.75
475.49	611.75
476.266	676.75
477.043	750.75
477.819	832.75
478.595	916.75
479.371	1030.75
480.146	1129.75
480.922	1260.75
481.698	1400.75
482.473	1542.75
483.249	1721.75
484.024	1891.75
484.8	2100.75
485.575	2339.75
486.35	2578.75
487.126	2872.75
487.901	3152.75
488.676	3484.75
489.451	3872.75
490.225	4282.75
491	4723.75
491.775	5192.75
492.55	5711.75
493.324	6256.75
494.099	6890.75
494.873	7575.75
495.647	8259.75
496.422	8983.75
497.196	9739.75
497.97	10515.75
498.744	11284.75
499.518	12121.75
500.292	12905.75
501.066	13639.75
501.839	14446.75
502.613	15073.75
503.387	15682.75
504.16	16211.75
504.934	16650.75
505.707	16956.75
506.48	17194.75
507.253	17271.75
508.027	17207.75
508.8	17123.75
509.573	16876.75
510.346	16515.75
511.118	16036.75
511.891	15563.75
512.664	15045.75
513.437	14484.75
514.209	13854.75
514.982	13270.75
515.754	12708.75
516.526	12109.75
517.298	11539.75
518.071	11016.75
518.843	10542.75
519.615	10081.75
520.387	9705.75
521.159	9293.75
521.93	8921.75
522.702	8584.75
523.474	8238.75
524.245	7934.75
525.017	7604.75
525.788	7280.75
526.56	7010.75
527.331	6715.75
528.102	6394.75
528.873	6087.75
529.644	5831.75
530.415	5530.75
531.186	5245.75
531.957	4986.75
532.728	4679.75
533.498	4464.75
534.269	4234.75
535.039	3985.75
535.81	3747.75
536.58	3554.75
537.351	3346.75
538.121	3146.75
538.891	2977.75
539.661	2808.75
540.431	2673.75
541.201	2512.75
541.971	2400.75
542.741	2269.75
543.51	2144.75
544.28	2040.75
545.05	1936.75
545.819	1827.75
546.588	1756.75
547.358	1676.75
548.127	1575.75
548.896	1509.75
549.665	1406.75
550.434	1351.75
551.203	1273.75
551.972	1217.75
552.741	1147.75
553.51	1085.75
554.278	1025.75
555.047	961.75
555.815	919.75
556.584	856.75
557.352	803.75
558.121	757.75
558.889	734.75
559.657	670.75
560.425	645.75
561.193	605.75
561.961	565.75
562.729	537.75
563.496	508.75
564.264	475.75
565.032	442.75
565.799	427.75
566.567	401.75
567.334	377.75
568.101	356.75
568.869	343.75
569.636	313.75
570.403	305.75
571.17	285.75
571.937	274.75
572.704	251.75
573.471	245.75
574.237	228.75
575.004	213.75
575.771	191.75
576.537	192.75
577.303	177.75
578.07	163.75
578.836	155.75
579.602	144.75
580.368	142.75
581.134	133.75
581.9	126.75
582.666	113.75
583.432	113.75
584.198	103.75
584.964	101.75
585.729	96.75
586.495	91.75
587.26	85.75
588.025	80.75
588.791	75.75
589.556	70.75
590.321	66.75
591.086	65.75
591.851	64.75
592.616	60.75
593.381	52.75
594.146	50.75
594.911	49.75
595.675	47.75
596.44	44.75
597.204	42.75
597.969	41.75
598.733	38.75
599.497	39.75
600.261	36.75
601.025	39.75
601.79	30.75
602.553	30.75
603.317	30.75
604.081	26.75
604.845	28.75
605.609	26.75
606.372	23.75
607.136	24.75
607.899	23.75
608.662	24.75
609.426	20.75
610.189	21.75
610.952	18.75
611.715	21.75
612.478	16.75
613.241	19.75
614.004	17.75
614.767	15.75
615.529	14.75
616.292	15.75
617.055	15.75
617.817	12.75
618.579	16.75
619.342	12.75
620.104	12.75
620.866	12.75
621.628	12.75
622.39	13.75
623.152	11.75
623.914	9.75
624.676	11.75
625.438	9.75
626.199	9.75
626.961	10.75
627.722	9.75
628.484	9.75
629.245	8.75
630.006	9.75
630.768	5.75
631.529	7.75
632.29	5.75
633.051	8.75
633.812	5.75
634.573	7.75
635.333	8.75
636.094	7.75
636.855	7.75
637.615	7.75
638.376	5.75
639.136	6.75
639.896	4.75
640.657	6.75
641.417	6.75
642.177	5.75
642.937	4.75
643.697	3.75
644.457	5.75
645.216	5.75
645.976	7.75
646.736	5.75
647.495	5.75
648.255	6.75
649.014	4.75
649.774	4.75
650.533	3.75
651.292	7.75
652.051	3.75
652.81	5.75
653.569	3.75
654.328	4.75
655.087	6.75
655.846	5.75
656.604	5.75
657.363	4.75
658.121	3.75
658.88	2.75
659.638	3.75
660.397	4.75
661.155	3.75
661.913	4.75
662.671	3.75
663.429	4.75
664.187	3.75
664.945	2.75
665.703	3.75
666.46	1.75
667.218	2.75
667.976	1.75
668.733	0.75
669.49	2.75
670.248	5.75
671.005	5.75
671.762	4.75
672.519	3.75
673.276	1.75
674.033	2.75
674.79	4.75
675.547	3.75
676.304	4.75
677.06	2.75
677.817	3.75
678.574	2.75
679.33	2.75
680.086	4.75
680.843	4.75
681.599	4.75
682.355	3.75
683.111	2.75
683.867	3.75
684.623	4.75
685.379	1.75
686.135	2.75
686.89	2.75
687.646	2.75
688.402	3.75
689.157	2.75
689.912	0.75
690.668	5.75
691.423	1.75
692.178	2.75
692.933	2.75
693.688	3.75
694.443	2.75
695.198	-0.25
695.953	1.75
696.708	1.75
697.462	1.75
698.217	2.75
698.972	1.75
699.726	0.75
700.48	2.75
701.235	2.75
701.989	2.75
702.743	2.75
703.497	2.75
704.251	3.75
705.005	3.75
705.759	0.75
706.513	3.75
707.266	2.75
708.02	1.75
708.774	4.75
709.527	3.75
710.28	3.75
711.034	0.75
711.787	2.75
712.54	2.75
713.293	1.75
714.046	2.75
714.799	1.75
715.552	2.75
716.305	2.75
717.058	2.75
717.81	2.75
718.563	2.75
719.315	3.75
720.068	2.75
720.82	0.75
721.573	2.75
722.325	4.75
723.077	0.75
723.829	3.75
724.581	2.75
725.333	1.75
726.085	3.75
726.836	0.75
727.588	1.75
728.34	2.75
729.091	2.75
729.843	1.75
730.594	3.75
731.346	2.75
732.097	2.75
732.848	2.75
733.599	4.75
734.35	2.75
735.101	3.75
735.852	0.75
736.603	1.75
737.354	2.75
738.104	3.75
738.855	1.75
739.605	2.75
740.356	4.75
741.106	2.75
741.856	4.75
742.607	2.75
743.357	4.75
744.107	3.75
744.857	1.75
745.607	4.75
746.357	1.75
747.106	3.75
747.856	2.75
748.606	2.75
749.355	4.75
750.105	1.75
750.854	5.75
751.603	2.75
752.353	3.75
753.102	2.75
753.851	4.75
754.6	3.75
755.349	5.75
756.098	4.75
756.847	3.75
757.595	2.75
758.344	5.75
759.093	2.75
759.841	4.75
760.589	2.75
761.338	5.75
762.086	3.75
762.834	4.75
763.582	6.75
764.331	2.75
765.079	3.75
765.826	4.75
766.574	4.75
767.322	3.75
768.07	3.75
768.817	4.75
769.565	5.75
770.312	8.75
771.06	3.75
771.807	6.75
772.554	5.75
773.302	8.75
774.049	7.75
774.796	4.75
775.543	3.75
776.29	7.75
777.036	4.75
777.783	3.75
778.53	7.75
779.276	8.75
780.023	4.75
780.769	6.75
781.516	5.75
782.262	7.75
783.008	7.75
783.754	5.75
784.5	4.75
785.246	4.75
785.992	4.75
786.738	4.75
787.484	6.75
788.23	7.75
788.975	5.75
789.721	5.75
790.466	6.75
791.212	4.75
791.957	4.75
792.702	7.75
793.447	5.75
794.193	6.75
794.938	3.75
795.683	7.75
796.427	5.75
797.172	5.75
797.917	4.75
798.662	6.75
799.406	2.75
800.151	4.75
800.895	6.75
801.64	5.75
802.384	6.75
803.128	4.75
803.872	5.75
804.616	3.75
805.36	6.75
806.104	4.75
806.848	6.75
807.592	2.75
808.336	4.75
809.079	5.75
809.823	2.75
810.566	3.75
811.31	3.75
812.053	4.75
812.796	4.75
813.539	3.75
814.283	3.75
815.026	5.75
815.769	5.75
816.511	2.75
817.254	4.75
817.997	5.75
818.74	4.75
819.482	5.75
820.225	3.75
820.967	2.75
821.71	2.75
822.452	3.75
823.194	4.75
823.936	3.75
824.678	3.75
825.42	2.75
826.162	2.75
826.904	2.75
827.646	2.75
828.388	3.75
829.129	5.75
829.871	2.75
830.612	4.75
831.354	2.75
832.095	0.75
832.836	2.75
833.577	1.75
834.319	2.75
835.06	3.75
835.801	3.75
836.542	3.75
837.282	1.75
838.023	2.75
838.764	5.75
839.504	2.75
840.245	1.75
840.985	2.75
841.726	2.75
842.466	3.75
843.206	3.75
843.946	2.75
844.687	2.75
845.427	2.75
846.166	2.75
846.906	2.75
847.646	4.75
848.386	5.75
849.125	3.75
849.865	1.75
850.605	3.75
851.344	2.75
852.083	3.75
852.823	1.75
853.562	4.75
854.301	2.75
855.04	1.75
855.779	2.75
856.518	2.75
857.257	1.75
857.995	1.75
858.734	1.75
859.473	1.75
860.211	1.75
860.95	2.75
861.688	1.75
862.426	2.75
863.165	2.75
863.903	2.75
864.641	1.75
865.379	0.75
866.117	1.75
866.855	0.75
867.593	3.75
868.33	1.75
869.068	2.75
869.806	0.75
870.543	-0.25
871.28	2.75
872.018	-1.25
872.755	2.75
873.492	1.75
874.229	1.75
874.967	-0.25
875.703	0.75
876.44	1.75
877.177	0.75
877.914	1.75
878.651	1.75
879.387	1.75
880.124	2.75
880.86	0.75
881.597	3.75
882.333	0.75
883.069	4.75
883.806	0.75
884.542	0.75
885.278	4.75
886.014	0.75
886.749	0.75
887.485	1.75
888.221	1.75
888.957	0.75
889.692	-1.25
890.428	4.75
891.163	0.75
891.899	0.75
892.634	2.75
893.369	-0.25
894.104	0.75
894.839	1.75
895.574	1.75
896.309	-0.25
897.044	1.75
897.779	0.75
898.514	2.75
899.248	1.75
899.983	-0.25
900.717	2.75
901.452	2.75
902.186	0.75
902.92	-0.25
903.654	3.75
904.389	0.75
905.123	1.75
905.857	1.75
906.59	-0.25
907.324	2.75
908.058	0.75
908.792	0.75
909.525	3.75
910.259	-0.25
910.992	1.75
911.726	-1.25
912.459	0.75
913.192	0.75
913.925	2.75
914.658	0.75
915.391	0.75
916.124	2.75
916.857	0.75
917.59	-0.25
918.323	1.75
919.055	-0.25
919.788	-0.25
920.521	-0.25
921.253	-0.25
921.985	-1.25
922.718	2.75
923.45	2.75
924.182	1.75
924.914	2.75
925.646	-1.25
926.378	-0.25
927.11	-0.25
927.841	-0.25
928.573	2.75
929.305	1.75
930.036	0.75
930.768	-0.25
931.499	0.75
932.23	0.75
932.962	2.75
933.693	-0.25
934.424	0.75
935.155	3.75
935.886	-0.25
936.617	1.75
937.348	1.75
938.078	-1.25
938.809	0.75
939.54	0.75
940.27	-0.25
941.001	-1.25
941.731	1.75
942.461	-0.25
943.191	-0.25
943.922	-0.25
944.652	0.75
945.382	-0.25
946.112	0.75
946.841	-0.25
947.571	2.75
948.301	-2.25
949.031	1.75
949.76	0.75
950.49	0.75
951.219	-0.25
951.948	-1.25
952.678	0.75
953.407	1.75
954.136	2.75
954.865	0.75
955.594	2.75
956.323	0.75
957.052	1.75
957.78	1.75
958.509	-1.25
959.238	0.75
959.966	1.75
960.695	-0.25
961.423	0.75
962.151	0.75
962.88	0.75
963.608	0.75
964.336	0.75
965.064	1.75
965.792	-0.25
966.52	1.75
967.247	1.75
967.975	-0.25
968.703	-2.25
969.43	0.75
970.158	-1.25
970.885	0.75
971.613	0.75
972.34	-2.25
973.067	1.75
973.794	1.75
974.521	0.75
975.248	1.75
975.975	1.75
976.702	1.75
977.429	0.75
978.156	0.75
978.882	0.75
979.609	2.75
980.335	1.75
981.062	2.75
981.788	-0.25
982.514	-0.25
983.24	0.75
983.967	-1.25
984.693	0.75
985.419	0.75
986.144	1.75
986.87	0.75
987.596	-2.25
988.322	0.75
989.047	0.75
989.773	-0.25
990.498	-0.25
991.224	1.75
991.949	2.75
992.674	-2.25
993.399	0.75
994.124	0.75
994.849	0.75
995.574	1.75
996.299	1.75
997.024	3.75
997.749	0.75
998.473	2.75
999.198	-2.25
999.922	1.75
1000.647	1.75
1001.371	4.75
1002.095	-2.25
1002.82	-1.25
1003.544	-2.25
1004.268	0.75
1004.992	-1.25
1005.716	0.75
1006.439	1.75
1007.163	-0.25
1007.887	-1.25
1008.611	0.75
1009.334	-0.25
1010.058	0.75
1010.781	0.75
1011.504	-1.25
1012.228	1.75
1012.951	1.75
1013.674	0.75
1014.397	1.75
1015.12	-3.25
