节点500_145_QEPB04081__374__11-34-55-586.txt的数据

Date: Wed Nov 12 11:34:55 CST 2025
User: PC
Spectrometer: QEPB0408
触发模式: 0
积分时间 (秒): 1.000000E-2
Scans to average: 1
启用暗噪声校正: true
启用非线性校正: false
滑动平均宽度: 0
X轴模式: Wavelengths
Number of Pixels in Spectrum: 1044
>>>>>Begin Spectral Data<<<<<
220.843	-0.62
221.644	-0.62
222.444	-1.62
223.244	0.38
224.045	-1.62
224.845	1.38
225.645	2.38
226.445	1.38
227.245	-0.62
228.045	0.38
228.845	-2.62
229.645	-1.62
230.444	-0.62
231.244	-1.62
232.043	-0.62
232.843	1.38
233.642	2.38
234.442	-0.62
235.241	2.38
236.04	1.38
236.839	1.38
237.638	0.38
238.437	2.38
239.236	0.38
240.035	2.38
240.833	-1.62
241.632	4.38
242.43	1.38
243.229	2.38
244.027	1.38
244.826	3.38
245.624	2.38
246.422	3.38
247.22	5.38
248.018	1.38
248.816	3.38
249.614	1.38
250.412	2.38
251.21	3.38
252.007	0.38
252.805	2.38
253.602	3.38
254.4	1.38
255.197	4.38
255.994	1.38
256.791	3.38
257.589	3.38
258.386	5.38
259.183	4.38
259.979	4.38
260.776	4.38
261.573	4.38
262.37	3.38
263.166	4.38
263.963	5.38
264.759	4.38
265.556	4.38
266.352	6.38
267.148	5.38
267.944	4.38
268.74	5.38
269.536	8.38
270.332	8.38
271.128	7.38
271.924	8.38
272.719	7.38
273.515	7.38
274.311	6.38
275.106	7.38
275.901	8.38
276.697	7.38
277.492	9.38
278.287	8.38
279.082	8.38
279.877	9.38
280.672	9.38
281.467	9.38
282.262	8.38
283.056	10.38
283.851	8.38
284.646	10.38
285.44	9.38
286.234	11.38
287.029	9.38
287.823	13.38
288.617	12.38
289.411	11.38
290.205	9.38
290.999	9.38
291.793	13.38
292.587	7.38
293.381	9.38
294.174	11.38
294.968	9.38
295.761	11.38
296.555	8.38
297.348	9.38
298.141	10.38
298.935	11.38
299.728	10.38
300.521	9.38
301.314	10.38
302.107	9.38
302.899	10.38
303.692	9.38
304.485	8.38
305.277	6.38
306.07	6.38
306.862	9.38
307.655	8.38
308.447	7.38
309.239	6.38
310.031	7.38
310.823	8.38
311.615	5.38
312.407	9.38
313.199	7.38
313.991	9.38
314.783	5.38
315.574	6.38
316.366	5.38
317.157	3.38
317.949	4.38
318.74	5.38
319.531	6.38
320.322	4.38
321.113	6.38
321.904	4.38
322.695	3.38
323.486	5.38
324.277	3.38
325.068	3.38
325.858	7.38
326.649	3.38
327.439	3.38
328.23	4.38
329.02	3.38
329.81	3.38
330.6	4.38
331.391	5.38
332.181	5.38
332.971	1.38
333.76	3.38
334.55	6.38
335.34	2.38
336.13	3.38
336.919	2.38
337.709	4.38
338.498	5.38
339.287	0.38
340.077	3.38
340.866	2.38
341.655	3.38
342.444	3.38
343.233	5.38
344.022	3.38
344.811	1.38
345.6	3.38
346.388	5.38
347.177	4.38
347.965	3.38
348.754	5.38
349.542	3.38
350.33	0.38
351.119	6.38
351.907	2.38
352.695	2.38
353.483	1.38
354.271	3.38
355.059	3.38
355.846	-0.62
356.634	3.38
357.422	1.38
358.209	2.38
358.997	4.38
359.784	1.38
360.571	4.38
361.359	1.38
362.146	2.38
362.933	6.38
363.72	3.38
364.507	1.38
365.294	2.38
366.081	4.38
366.867	1.38
367.654	2.38
368.44	1.38
369.227	2.38
370.013	1.38
370.8	1.38
371.586	1.38
372.372	-0.62
373.158	2.38
373.944	3.38
374.73	1.38
375.516	3.38
376.302	1.38
377.088	3.38
377.873	0.38
378.659	4.38
379.445	1.38
380.23	4.38
381.015	2.38
381.801	1.38
382.586	3.38
383.371	1.38
384.156	3.38
384.941	2.38
385.726	4.38
386.511	4.38
387.296	0.38
388.08	3.38
388.865	3.38
389.649	3.38
390.434	0.38
391.218	6.38
392.003	3.38
392.787	-0.62
393.571	5.38
394.355	-0.62
395.139	3.38
395.923	3.38
396.707	2.38
397.491	4.38
398.274	2.38
399.058	3.38
399.842	2.38
400.625	3.38
401.408	4.38
402.192	4.38
402.975	4.38
403.758	3.38
404.541	3.38
405.324	3.38
406.107	3.38
406.89	4.38
407.673	3.38
408.456	4.38
409.238	4.38
410.021	2.38
410.803	4.38
411.586	3.38
412.368	4.38
413.151	3.38
413.933	2.38
414.715	4.38
415.497	5.38
416.279	4.38
417.061	5.38
417.843	6.38
418.624	5.38
419.406	6.38
420.188	4.38
420.969	3.38
421.751	6.38
422.532	4.38
423.313	7.38
424.095	6.38
424.876	6.38
425.657	4.38
426.438	6.38
427.219	7.38
428	7.38
428.78	4.38
429.561	6.38
430.342	9.38
431.122	9.38
431.903	7.38
432.683	7.38
433.464	7.38
434.244	9.38
435.024	8.38
435.804	9.38
436.584	7.38
437.364	10.38
438.144	9.38
438.924	10.38
439.704	9.38
440.483	13.38
441.263	12.38
442.042	12.38
442.822	14.38
443.601	12.38
444.38	15.38
445.16	16.38
445.939	17.38
446.718	17.38
447.497	21.38
448.276	20.38
449.054	23.38
449.833	23.38
450.612	24.38
451.391	26.38
452.169	31.38
452.948	33.38
453.726	33.38
454.504	40.38
455.282	40.38
456.061	47.38
456.839	49.38
457.617	57.38
458.395	62.38
459.172	69.38
459.95	76.38
460.728	86.38
461.506	98.38
462.283	106.38
463.061	116.38
463.838	129.38
464.615	145.38
465.393	163.38
466.17	180.38
466.947	199.38
467.724	220.38
468.501	249.38
469.278	269.38
470.055	311.38
470.831	345.38
471.608	377.38
472.385	426.38
473.161	470.38
473.938	518.38
474.714	579.38
475.49	633.38
476.266	698.38
477.043	779.38
477.819	862.38
478.595	958.38
479.371	1052.38
480.146	1148.38
480.922	1278.38
481.698	1403.38
482.473	1539.38
483.249	1701.38
484.024	1873.38
484.8	2075.38
485.575	2266.38
486.35	2500.38
487.126	2751.38
487.901	2992.38
488.676	3301.38
489.451	3623.38
490.225	3989.38
491	4363.38
491.775	4789.38
492.55	5223.38
493.324	5739.38
494.099	6259.38
494.873	6773.38
495.647	7385.38
496.422	8048.38
497.196	8689.38
497.97	9361.38
498.744	10076.38
499.518	10816.38
500.292	11523.38
501.066	12251.38
501.839	12903.38
502.613	13544.38
503.387	14176.38
504.16	14748.38
504.934	15242.38
505.707	15573.38
506.48	15872.38
507.253	16085.38
508.027	16186.38
508.8	16133.38
509.573	16002.38
510.346	15862.38
511.118	15583.38
511.891	15204.38
512.664	14814.38
513.437	14316.38
514.209	13839.38
514.982	13245.38
515.754	12748.38
516.526	12264.38
517.298	11753.38
518.071	11208.38
518.843	10712.38
519.615	10278.38
520.387	9814.38
521.159	9395.38
521.93	9068.38
522.702	8707.38
523.474	8361.38
524.245	8007.38
525.017	7710.38
525.788	7380.38
526.56	7097.38
527.331	6807.38
528.102	6501.38
528.873	6229.38
529.644	5955.38
530.415	5701.38
531.186	5436.38
531.957	5141.38
532.728	4908.38
533.498	4620.38
534.269	4365.38
535.039	4136.38
535.81	3925.38
536.58	3711.38
537.351	3503.38
538.121	3291.38
538.891	3130.38
539.661	2956.38
540.431	2798.38
541.201	2630.38
541.971	2519.38
542.741	2374.38
543.51	2254.38
544.28	2142.38
545.05	2021.38
545.819	1928.38
546.588	1843.38
547.358	1740.38
548.127	1655.38
548.896	1575.38
549.665	1491.38
550.434	1417.38
551.203	1350.38
551.972	1279.38
552.741	1209.38
553.51	1151.38
554.278	1088.38
555.047	1014.38
555.815	971.38
556.584	920.38
557.352	874.38
558.121	810.38
558.889	753.38
559.657	719.38
560.425	688.38
561.193	649.38
561.961	615.38
562.729	570.38
563.496	545.38
564.264	505.38
565.032	482.38
565.799	450.38
566.567	424.38
567.334	396.38
568.101	381.38
568.869	356.38
569.636	334.38
570.403	321.38
571.17	306.38
571.937	284.38
572.704	269.38
573.471	252.38
574.237	241.38
575.004	223.38
575.771	213.38
576.537	196.38
577.303	193.38
578.07	176.38
578.836	165.38
579.602	159.38
580.368	152.38
581.134	139.38
581.9	132.38
582.666	125.38
583.432	120.38
584.198	112.38
584.964	109.38
585.729	102.38
586.495	93.38
587.26	88.38
588.025	87.38
588.791	80.38
589.556	72.38
590.321	76.38
591.086	69.38
591.851	68.38
592.616	61.38
593.381	56.38
594.146	55.38
594.911	53.38
595.675	51.38
596.44	50.38
597.204	45.38
597.969	42.38
598.733	41.38
599.497	39.38
600.261	38.38
601.025	34.38
601.79	33.38
602.553	31.38
603.317	32.38
604.081	30.38
604.845	26.38
605.609	28.38
606.372	26.38
607.136	24.38
607.899	23.38
608.662	24.38
609.426	24.38
610.189	21.38
610.952	19.38
611.715	19.38
612.478	15.38
613.241	18.38
614.004	16.38
614.767	18.38
615.529	16.38
616.292	13.38
617.055	14.38
617.817	13.38
618.579	14.38
619.342	13.38
620.104	12.38
620.866	10.38
621.628	11.38
622.39	10.38
623.152	11.38
623.914	12.38
624.676	8.38
625.438	10.38
626.199	12.38
626.961	9.38
627.722	10.38
628.484	8.38
629.245	8.38
630.006	9.38
630.768	9.38
631.529	6.38
632.29	8.38
633.051	6.38
633.812	7.38
634.573	6.38
635.333	3.38
636.094	6.38
636.855	8.38
637.615	6.38
638.376	5.38
639.136	7.38
639.896	6.38
640.657	7.38
641.417	5.38
642.177	4.38
642.937	5.38
643.697	4.38
644.457	3.38
645.216	8.38
645.976	2.38
646.736	2.38
647.495	5.38
648.255	1.38
649.014	5.38
649.774	3.38
650.533	4.38
651.292	2.38
652.051	5.38
652.81	2.38
653.569	4.38
654.328	5.38
655.087	3.38
655.846	5.38
656.604	2.38
657.363	4.38
658.121	3.38
658.88	2.38
659.638	2.38
660.397	5.38
661.155	3.38
661.913	2.38
662.671	3.38
663.429	3.38
664.187	3.38
664.945	1.38
665.703	1.38
666.46	1.38
667.218	1.38
667.976	4.38
668.733	3.38
669.49	1.38
670.248	4.38
671.005	2.38
671.762	2.38
672.519	0.38
673.276	3.38
674.033	1.38
674.79	1.38
675.547	5.38
676.304	2.38
677.06	2.38
677.817	0.38
678.574	3.38
679.33	0.38
680.086	2.38
680.843	1.38
681.599	-0.62
682.355	1.38
683.111	3.38
683.867	3.38
684.623	3.38
685.379	2.38
686.135	1.38
686.89	2.38
687.646	2.38
688.402	1.38
689.157	3.38
689.912	2.38
690.668	2.38
691.423	2.38
692.178	1.38
692.933	1.38
693.688	2.38
694.443	2.38
695.198	3.38
695.953	2.38
696.708	3.38
697.462	0.38
698.217	1.38
698.972	2.38
699.726	5.38
700.48	2.38
701.235	2.38
701.989	1.38
702.743	1.38
703.497	1.38
704.251	0.38
705.005	4.38
705.759	3.38
706.513	0.38
707.266	0.38
708.02	0.38
708.774	2.38
709.527	1.38
710.28	-0.62
711.034	2.38
711.787	-0.62
712.54	4.38
713.293	1.38
714.046	3.38
714.799	1.38
715.552	2.38
716.305	2.38
717.058	0.38
717.81	1.38
718.563	2.38
719.315	5.38
720.068	1.38
720.82	3.38
721.573	2.38
722.325	2.38
723.077	3.38
723.829	-0.62
724.581	1.38
725.333	2.38
726.085	4.38
726.836	1.38
727.588	2.38
728.34	1.38
729.091	0.38
729.843	1.38
730.594	2.38
731.346	3.38
732.097	2.38
732.848	2.38
733.599	-0.62
734.35	1.38
735.101	2.38
735.852	2.38
736.603	2.38
737.354	2.38
738.104	2.38
738.855	4.38
739.605	2.38
740.356	4.38
741.106	2.38
741.856	5.38
742.607	3.38
743.357	1.38
744.107	4.38
744.857	2.38
745.607	3.38
746.357	2.38
747.106	2.38
747.856	2.38
748.606	2.38
749.355	5.38
750.105	0.38
750.854	2.38
751.603	4.38
752.353	1.38
753.102	3.38
753.851	6.38
754.6	4.38
755.349	1.38
756.098	4.38
756.847	2.38
757.595	1.38
758.344	3.38
759.093	2.38
759.841	3.38
760.589	5.38
761.338	3.38
762.086	2.38
762.834	2.38
763.582	4.38
764.331	3.38
765.079	3.38
765.826	1.38
766.574	2.38
767.322	5.38
768.07	5.38
768.817	4.38
769.565	1.38
770.312	4.38
771.06	2.38
771.807	5.38
772.554	4.38
773.302	4.38
774.049	6.38
774.796	2.38
775.543	5.38
776.29	3.38
777.036	4.38
777.783	4.38
778.53	4.38
779.276	5.38
780.023	5.38
780.769	3.38
781.516	5.38
782.262	3.38
783.008	4.38
783.754	4.38
784.5	6.38
785.246	5.38
785.992	6.38
786.738	4.38
787.484	6.38
788.23	7.38
788.975	4.38
789.721	6.38
790.466	5.38
791.212	6.38
791.957	8.38
792.702	5.38
793.447	4.38
794.193	4.38
794.938	5.38
795.683	3.38
796.427	5.38
797.172	5.38
797.917	5.38
798.662	0.38
799.406	4.38
800.151	2.38
800.895	1.38
801.64	6.38
802.384	2.38
803.128	3.38
803.872	3.38
804.616	2.38
805.36	5.38
806.104	3.38
806.848	5.38
807.592	3.38
808.336	5.38
809.079	4.38
809.823	3.38
810.566	5.38
811.31	3.38
812.053	3.38
812.796	2.38
813.539	1.38
814.283	2.38
815.026	0.38
815.769	5.38
816.511	6.38
817.254	4.38
817.997	3.38
818.74	2.38
819.482	2.38
820.225	5.38
820.967	3.38
821.71	2.38
822.452	4.38
823.194	5.38
823.936	1.38
824.678	4.38
825.42	4.38
826.162	3.38
826.904	2.38
827.646	0.38
828.388	2.38
829.129	3.38
829.871	2.38
830.612	2.38
831.354	2.38
832.095	4.38
832.836	5.38
833.577	3.38
834.319	3.38
835.06	4.38
835.801	1.38
836.542	2.38
837.282	1.38
838.023	2.38
838.764	3.38
839.504	2.38
840.245	1.38
840.985	0.38
841.726	1.38
842.466	2.38
843.206	1.38
843.946	4.38
844.687	1.38
845.427	3.38
846.166	4.38
846.906	4.38
847.646	4.38
848.386	3.38
849.125	1.38
849.865	1.38
850.605	1.38
851.344	3.38
852.083	4.38
852.823	2.38
853.562	-1.62
854.301	2.38
855.04	0.38
855.779	2.38
856.518	-0.62
857.257	1.38
857.995	2.38
858.734	1.38
859.473	2.38
860.211	0.38
860.95	1.38
861.688	3.38
862.426	-0.62
863.165	2.38
863.903	0.38
864.641	1.38
865.379	-1.62
866.117	1.38
866.855	0.38
867.593	2.38
868.33	2.38
869.068	1.38
869.806	1.38
870.543	1.38
871.28	1.38
872.018	1.38
872.755	2.38
873.492	0.38
874.229	1.38
874.967	1.38
875.703	0.38
876.44	2.38
877.177	-0.62
877.914	0.38
878.651	1.38
879.387	0.38
880.124	-0.62
880.86	1.38
881.597	1.38
882.333	1.38
883.069	-1.62
883.806	0.38
884.542	0.38
885.278	1.38
886.014	1.38
886.749	-0.62
887.485	2.38
888.221	2.38
888.957	-0.62
889.692	0.38
890.428	1.38
891.163	1.38
891.899	1.38
892.634	-1.62
893.369	2.38
894.104	0.38
894.839	3.38
895.574	1.38
896.309	-1.62
897.044	0.38
897.779	0.38
898.514	-0.62
899.248	1.38
899.983	-0.62
900.717	1.38
901.452	-1.62
902.186	2.38
902.92	-0.62
903.654	0.38
904.389	0.38
905.123	0.38
905.857	3.38
906.59	-1.62
907.324	0.38
908.058	0.38
908.792	2.38
909.525	2.38
910.259	2.38
910.992	-1.62
911.726	3.38
912.459	0.38
913.192	1.38
913.925	-0.62
914.658	0.38
915.391	-0.62
916.124	0.38
916.857	0.38
917.59	2.38
918.323	-0.62
919.055	0.38
919.788	0.38
920.521	2.38
921.253	2.38
921.985	-1.62
922.718	1.38
923.45	-1.62
924.182	0.38
924.914	0.38
925.646	-1.62
926.378	0.38
927.11	-1.62
927.841	0.38
928.573	-0.62
929.305	1.38
930.036	1.38
930.768	-0.62
931.499	0.38
932.23	-1.62
932.962	0.38
933.693	0.38
934.424	1.38
935.155	1.38
935.886	-0.62
936.617	0.38
937.348	0.38
938.078	1.38
938.809	1.38
939.54	1.38
940.27	2.38
941.001	1.38
941.731	3.38
942.461	0.38
943.191	2.38
943.922	2.38
944.652	-0.62
945.382	0.38
946.112	0.38
946.841	-0.62
947.571	-0.62
948.301	-0.62
949.031	-0.62
949.76	1.38
950.49	0.38
951.219	-0.62
951.948	-0.62
952.678	-0.62
953.407	-1.62
954.136	-0.62
954.865	0.38
955.594	-0.62
956.323	0.38
957.052	0.38
957.78	-0.62
958.509	1.38
959.238	0.38
959.966	0.38
960.695	2.38
961.423	-1.62
962.151	1.38
962.88	1.38
963.608	1.38
964.336	-2.62
965.064	-1.62
965.792	1.38
966.52	-0.62
967.247	0.38
967.975	-0.62
968.703	2.38
969.43	-0.62
970.158	-1.62
970.885	0.38
971.613	1.38
972.34	1.38
973.067	0.38
973.794	0.38
974.521	-0.62
975.248	0.38
975.975	1.38
976.702	-0.62
977.429	-1.62
978.156	-1.62
978.882	1.38
979.609	0.38
980.335	-1.62
981.062	1.38
981.788	-1.62
982.514	-0.62
983.24	0.38
983.967	0.38
984.693	-1.62
985.419	0.38
986.144	-0.62
986.87	-0.62
987.596	-0.62
988.322	-0.62
989.047	0.38
989.773	-0.62
990.498	-0.62
991.224	-0.62
991.949	1.38
992.674	1.38
993.399	-0.62
994.124	-1.62
994.849	1.38
995.574	-0.62
996.299	1.38
997.024	-0.62
997.749	1.38
998.473	1.38
999.198	1.38
999.922	-0.62
1000.647	1.38
1001.371	2.38
1002.095	-1.62
1002.82	-1.62
1003.544	1.38
1004.268	-1.62
1004.992	-1.62
1005.716	-1.62
1006.439	-1.62
1007.163	-0.62
1007.887	-0.62
1008.611	-0.62
1009.334	0.38
1010.058	-0.62
1010.781	0.38
1011.504	0.38
1012.228	0.38
1012.951	0.38
1013.674	0.38
1014.397	-1.62
1015.12	0.38
