节点500_145_QEPB04081__633__11-39-02-175.txt的数据

Date: Wed Nov 12 11:39:02 CST 2025
User: PC
Spectrometer: QEPB0408
触发模式: 0
积分时间 (秒): 1.000000E-2
Scans to average: 1
启用暗噪声校正: true
启用非线性校正: false
滑动平均宽度: 0
X轴模式: Wavelengths
Number of Pixels in Spectrum: 1044
>>>>>Begin Spectral Data<<<<<
220.843	-0.5
221.644	-2.5
222.444	-1.5
223.244	-0.5
224.045	1.5
224.845	0.5
225.645	1.5
226.445	-1.5
227.245	0.5
228.045	-0.5
228.845	2.5
229.645	-1.5
230.444	0.5
231.244	1.5
232.043	1.5
232.843	2.5
233.642	0.5
234.442	2.5
235.241	0.5
236.04	1.5
236.839	1.5
237.638	1.5
238.437	2.5
239.236	-0.5
240.035	1.5
240.833	1.5
241.632	1.5
242.43	0.5
243.229	0.5
244.027	4.5
244.826	-0.5
245.624	4.5
246.422	4.5
247.22	1.5
248.018	3.5
248.816	1.5
249.614	4.5
250.412	1.5
251.21	2.5
252.007	3.5
252.805	2.5
253.602	3.5
254.4	2.5
255.197	3.5
255.994	2.5
256.791	3.5
257.589	2.5
258.386	2.5
259.183	5.5
259.979	2.5
260.776	4.5
261.573	2.5
262.37	5.5
263.166	4.5
263.963	4.5
264.759	5.5
265.556	4.5
266.352	4.5
267.148	3.5
267.944	6.5
268.74	5.5
269.536	6.5
270.332	7.5
271.128	1.5
271.924	6.5
272.719	5.5
273.515	8.5
274.311	6.5
275.106	5.5
275.901	8.5
276.697	6.5
277.492	8.5
278.287	7.5
279.082	8.5
279.877	7.5
280.672	7.5
281.467	8.5
282.262	9.5
283.056	9.5
283.851	8.5
284.646	12.5
285.44	9.5
286.234	10.5
287.029	10.5
287.823	10.5
288.617	11.5
289.411	10.5
290.205	11.5
290.999	8.5
291.793	9.5
292.587	10.5
293.381	9.5
294.174	8.5
294.968	9.5
295.761	7.5
296.555	11.5
297.348	9.5
298.141	10.5
298.935	9.5
299.728	12.5
300.521	8.5
301.314	9.5
302.107	8.5
302.899	10.5
303.692	7.5
304.485	7.5
305.277	7.5
306.07	9.5
306.862	8.5
307.655	7.5
308.447	9.5
309.239	6.5
310.031	8.5
310.823	6.5
311.615	8.5
312.407	4.5
313.199	7.5
313.991	6.5
314.783	6.5
315.574	3.5
316.366	5.5
317.157	5.5
317.949	3.5
318.74	6.5
319.531	4.5
320.322	5.5
321.113	4.5
321.904	4.5
322.695	4.5
323.486	5.5
324.277	2.5
325.068	3.5
325.858	4.5
326.649	1.5
327.439	5.5
328.23	4.5
329.02	2.5
329.81	4.5
330.6	3.5
331.391	6.5
332.181	3.5
332.971	3.5
333.76	7.5
334.55	4.5
335.34	3.5
336.13	3.5
336.919	2.5
337.709	3.5
338.498	6.5
339.287	2.5
340.077	2.5
340.866	2.5
341.655	2.5
342.444	1.5
343.233	3.5
344.022	2.5
344.811	5.5
345.6	5.5
346.388	4.5
347.177	1.5
347.965	3.5
348.754	1.5
349.542	3.5
350.33	3.5
351.119	1.5
351.907	1.5
352.695	2.5
353.483	3.5
354.271	3.5
355.059	0.5
355.846	4.5
356.634	3.5
357.422	3.5
358.209	2.5
358.997	2.5
359.784	1.5
360.571	2.5
361.359	3.5
362.146	3.5
362.933	2.5
363.72	2.5
364.507	3.5
365.294	2.5
366.081	1.5
366.867	2.5
367.654	2.5
368.44	2.5
369.227	2.5
370.013	2.5
370.8	1.5
371.586	2.5
372.372	3.5
373.158	2.5
373.944	1.5
374.73	4.5
375.516	2.5
376.302	2.5
377.088	3.5
377.873	4.5
378.659	1.5
379.445	4.5
380.23	0.5
381.015	2.5
381.801	2.5
382.586	1.5
383.371	1.5
384.156	1.5
384.941	2.5
385.726	1.5
386.511	2.5
387.296	1.5
388.08	1.5
388.865	5.5
389.649	2.5
390.434	4.5
391.218	1.5
392.003	2.5
392.787	1.5
393.571	4.5
394.355	1.5
395.139	2.5
395.923	2.5
396.707	1.5
397.491	3.5
398.274	4.5
399.058	3.5
399.842	3.5
400.625	4.5
401.408	3.5
402.192	5.5
402.975	4.5
403.758	5.5
404.541	3.5
405.324	4.5
406.107	4.5
406.89	4.5
407.673	2.5
408.456	6.5
409.238	2.5
410.021	4.5
410.803	3.5
411.586	4.5
412.368	5.5
413.151	4.5
413.933	3.5
414.715	7.5
415.497	4.5
416.279	4.5
417.061	4.5
417.843	4.5
418.624	4.5
419.406	5.5
420.188	5.5
420.969	4.5
421.751	6.5
422.532	5.5
423.313	5.5
424.095	7.5
424.876	6.5
425.657	5.5
426.438	7.5
427.219	5.5
428	6.5
428.78	4.5
429.561	7.5
430.342	7.5
431.122	7.5
431.903	5.5
432.683	8.5
433.464	3.5
434.244	8.5
435.024	9.5
435.804	5.5
436.584	11.5
437.364	9.5
438.144	8.5
438.924	7.5
439.704	11.5
440.483	12.5
441.263	11.5
442.042	11.5
442.822	13.5
443.601	13.5
444.38	16.5
445.16	16.5
445.939	15.5
446.718	21.5
447.497	19.5
448.276	21.5
449.054	21.5
449.833	22.5
450.612	27.5
451.391	28.5
452.169	31.5
452.948	34.5
453.726	37.5
454.504	40.5
455.282	43.5
456.061	53.5
456.839	55.5
457.617	61.5
458.395	69.5
459.172	76.5
459.95	83.5
460.728	91.5
461.506	101.5
462.283	114.5
463.061	127.5
463.838	140.5
464.615	158.5
465.393	178.5
466.17	194.5
466.947	212.5
467.724	235.5
468.501	268.5
469.278	293.5
470.055	320.5
470.831	361.5
471.608	399.5
472.385	446.5
473.161	489.5
473.938	547.5
474.714	593.5
475.49	662.5
476.266	722.5
477.043	797.5
477.819	886.5
478.595	957.5
479.371	1058.5
480.146	1160.5
480.922	1266.5
481.698	1379.5
482.473	1523.5
483.249	1669.5
484.024	1835.5
484.8	1991.5
485.575	2195.5
486.35	2403.5
487.126	2602.5
487.901	2870.5
488.676	3131.5
489.451	3394.5
490.225	3724.5
491	4045.5
491.775	4438.5
492.55	4827.5
493.324	5264.5
494.099	5712.5
494.873	6210.5
495.647	6728.5
496.422	7309.5
497.196	7814.5
497.97	8470.5
498.744	9046.5
499.518	9720.5
500.292	10375.5
501.066	11011.5
501.839	11651.5
502.613	12200.5
503.387	12777.5
504.16	13345.5
504.934	13848.5
505.707	14282.5
506.48	14631.5
507.253	14871.5
508.027	15045.5
508.8	15174.5
509.573	15157.5
510.346	15041.5
511.118	14895.5
511.891	14669.5
512.664	14351.5
513.437	14001.5
514.209	13562.5
514.982	13086.5
515.754	12607.5
516.526	12149.5
517.298	11677.5
518.071	11206.5
518.843	10711.5
519.615	10238.5
520.387	9865.5
521.159	9485.5
521.93	9066.5
522.702	8691.5
523.474	8409.5
524.245	8077.5
525.017	7710.5
525.788	7416.5
526.56	7123.5
527.331	6830.5
528.102	6554.5
528.873	6283.5
529.644	6004.5
530.415	5729.5
531.186	5504.5
531.957	5259.5
532.728	4985.5
533.498	4709.5
534.269	4493.5
535.039	4277.5
535.81	4025.5
536.58	3830.5
537.351	3622.5
538.121	3418.5
538.891	3248.5
539.661	3037.5
540.431	2903.5
541.201	2742.5
541.971	2595.5
542.741	2468.5
543.51	2316.5
544.28	2191.5
545.05	2094.5
545.819	1987.5
546.588	1882.5
547.358	1800.5
548.127	1707.5
548.896	1630.5
549.665	1542.5
550.434	1477.5
551.203	1392.5
551.972	1329.5
552.741	1261.5
553.51	1189.5
554.278	1135.5
555.047	1076.5
555.815	1017.5
556.584	958.5
557.352	899.5
558.121	846.5
558.889	801.5
559.657	771.5
560.425	722.5
561.193	671.5
561.961	643.5
562.729	609.5
563.496	571.5
564.264	540.5
565.032	501.5
565.799	473.5
566.567	455.5
567.334	422.5
568.101	400.5
568.869	376.5
569.636	357.5
570.403	332.5
571.17	322.5
571.937	302.5
572.704	288.5
573.471	264.5
574.237	255.5
575.004	235.5
575.771	226.5
576.537	210.5
577.303	195.5
578.07	188.5
578.836	173.5
579.602	166.5
580.368	160.5
581.134	147.5
581.9	141.5
582.666	133.5
583.432	128.5
584.198	124.5
584.964	115.5
585.729	105.5
586.495	99.5
587.26	98.5
588.025	90.5
588.791	84.5
589.556	82.5
590.321	77.5
591.086	76.5
591.851	68.5
592.616	63.5
593.381	61.5
594.146	58.5
594.911	55.5
595.675	56.5
596.44	50.5
597.204	42.5
597.969	46.5
598.733	44.5
599.497	41.5
600.261	37.5
601.025	38.5
601.79	39.5
602.553	32.5
603.317	29.5
604.081	33.5
604.845	31.5
605.609	27.5
606.372	25.5
607.136	27.5
607.899	24.5
608.662	25.5
609.426	23.5
610.189	23.5
610.952	23.5
611.715	21.5
612.478	20.5
613.241	18.5
614.004	17.5
614.767	17.5
615.529	19.5
616.292	12.5
617.055	16.5
617.817	15.5
618.579	12.5
619.342	11.5
620.104	10.5
620.866	12.5
621.628	10.5
622.39	11.5
623.152	11.5
623.914	11.5
624.676	11.5
625.438	12.5
626.199	7.5
626.961	11.5
627.722	8.5
628.484	8.5
629.245	6.5
630.006	8.5
630.768	6.5
631.529	10.5
632.29	6.5
633.051	5.5
633.812	6.5
634.573	6.5
635.333	4.5
636.094	7.5
636.855	7.5
637.615	7.5
638.376	4.5
639.136	4.5
639.896	4.5
640.657	8.5
641.417	7.5
642.177	7.5
642.937	5.5
643.697	6.5
644.457	8.5
645.216	4.5
645.976	2.5
646.736	2.5
647.495	5.5
648.255	5.5
649.014	5.5
649.774	2.5
650.533	3.5
651.292	5.5
652.051	4.5
652.81	5.5
653.569	5.5
654.328	2.5
655.087	3.5
655.846	4.5
656.604	4.5
657.363	4.5
658.121	1.5
658.88	2.5
659.638	4.5
660.397	3.5
661.155	2.5
661.913	0.5
662.671	1.5
663.429	2.5
664.187	4.5
664.945	1.5
665.703	3.5
666.46	3.5
667.218	3.5
667.976	1.5
668.733	1.5
669.49	1.5
670.248	2.5
671.005	4.5
671.762	1.5
672.519	3.5
673.276	2.5
674.033	2.5
674.79	2.5
675.547	1.5
676.304	1.5
677.06	1.5
677.817	3.5
678.574	1.5
679.33	2.5
680.086	4.5
680.843	1.5
681.599	2.5
682.355	1.5
683.111	0.5
683.867	2.5
684.623	3.5
685.379	1.5
686.135	2.5
686.89	5.5
687.646	0.5
688.402	3.5
689.157	2.5
689.912	2.5
690.668	2.5
691.423	1.5
692.178	3.5
692.933	-0.5
693.688	3.5
694.443	1.5
695.198	1.5
695.953	1.5
696.708	2.5
697.462	4.5
698.217	1.5
698.972	1.5
699.726	1.5
700.48	1.5
701.235	2.5
701.989	-1.5
702.743	2.5
703.497	1.5
704.251	1.5
705.005	-0.5
705.759	0.5
706.513	1.5
707.266	1.5
708.02	1.5
708.774	1.5
709.527	2.5
710.28	1.5
711.034	2.5
711.787	3.5
712.54	1.5
713.293	2.5
714.046	2.5
714.799	2.5
715.552	0.5
716.305	0.5
717.058	2.5
717.81	0.5
718.563	1.5
719.315	3.5
720.068	2.5
720.82	2.5
721.573	1.5
722.325	2.5
723.077	2.5
723.829	3.5
724.581	2.5
725.333	1.5
726.085	1.5
726.836	0.5
727.588	3.5
728.34	-0.5
729.091	2.5
729.843	0.5
730.594	0.5
731.346	4.5
732.097	1.5
732.848	2.5
733.599	2.5
734.35	2.5
735.101	2.5
735.852	3.5
736.603	1.5
737.354	2.5
738.104	1.5
738.855	0.5
739.605	2.5
740.356	2.5
741.106	0.5
741.856	2.5
742.607	1.5
743.357	2.5
744.107	2.5
744.857	2.5
745.607	2.5
746.357	1.5
747.106	2.5
747.856	1.5
748.606	0.5
749.355	3.5
750.105	2.5
750.854	-1.5
751.603	1.5
752.353	3.5
753.102	2.5
753.851	2.5
754.6	3.5
755.349	5.5
756.098	3.5
756.847	4.5
757.595	4.5
758.344	3.5
759.093	3.5
759.841	3.5
760.589	2.5
761.338	3.5
762.086	1.5
762.834	3.5
763.582	0.5
764.331	4.5
765.079	2.5
765.826	3.5
766.574	3.5
767.322	2.5
768.07	1.5
768.817	2.5
769.565	4.5
770.312	2.5
771.06	2.5
771.807	4.5
772.554	4.5
773.302	5.5
774.049	2.5
774.796	4.5
775.543	2.5
776.29	5.5
777.036	2.5
777.783	2.5
778.53	5.5
779.276	4.5
780.023	6.5
780.769	4.5
781.516	4.5
782.262	3.5
783.008	4.5
783.754	4.5
784.5	2.5
785.246	6.5
785.992	4.5
786.738	4.5
787.484	3.5
788.23	4.5
788.975	3.5
789.721	7.5
790.466	4.5
791.212	6.5
791.957	5.5
792.702	6.5
793.447	5.5
794.193	4.5
794.938	4.5
795.683	4.5
796.427	5.5
797.172	2.5
797.917	5.5
798.662	2.5
799.406	5.5
800.151	3.5
800.895	5.5
801.64	6.5
802.384	3.5
803.128	2.5
803.872	1.5
804.616	5.5
805.36	2.5
806.104	5.5
806.848	2.5
807.592	4.5
808.336	4.5
809.079	2.5
809.823	3.5
810.566	3.5
811.31	2.5
812.053	3.5
812.796	3.5
813.539	4.5
814.283	2.5
815.026	1.5
815.769	2.5
816.511	4.5
817.254	4.5
817.997	1.5
818.74	5.5
819.482	1.5
820.225	2.5
820.967	3.5
821.71	2.5
822.452	2.5
823.194	1.5
823.936	2.5
824.678	1.5
825.42	3.5
826.162	1.5
826.904	2.5
827.646	3.5
828.388	4.5
829.129	0.5
829.871	2.5
830.612	3.5
831.354	4.5
832.095	2.5
832.836	2.5
833.577	1.5
834.319	3.5
835.06	1.5
835.801	2.5
836.542	2.5
837.282	2.5
838.023	0.5
838.764	3.5
839.504	2.5
840.245	3.5
840.985	2.5
841.726	3.5
842.466	1.5
843.206	2.5
843.946	0.5
844.687	2.5
845.427	1.5
846.166	1.5
846.906	1.5
847.646	1.5
848.386	1.5
849.125	2.5
849.865	2.5
850.605	1.5
851.344	2.5
852.083	1.5
852.823	2.5
853.562	3.5
854.301	1.5
855.04	1.5
855.779	1.5
856.518	3.5
857.257	2.5
857.995	1.5
858.734	-1.5
859.473	1.5
860.211	1.5
860.95	3.5
861.688	4.5
862.426	2.5
863.165	1.5
863.903	4.5
864.641	-0.5
865.379	2.5
866.117	1.5
866.855	1.5
867.593	1.5
868.33	-1.5
869.068	1.5
869.806	1.5
870.543	2.5
871.28	1.5
872.018	0.5
872.755	3.5
873.492	1.5
874.229	1.5
874.967	1.5
875.703	0.5
876.44	1.5
877.177	-0.5
877.914	-1.5
878.651	-0.5
879.387	1.5
880.124	1.5
880.86	1.5
881.597	1.5
882.333	0.5
883.069	3.5
883.806	-1.5
884.542	2.5
885.278	1.5
886.014	-0.5
886.749	-0.5
887.485	-0.5
888.221	-1.5
888.957	1.5
889.692	1.5
890.428	0.5
891.163	0.5
891.899	2.5
892.634	-0.5
893.369	-0.5
894.104	0.5
894.839	0.5
895.574	-0.5
896.309	1.5
897.044	1.5
897.779	0.5
898.514	1.5
899.248	-1.5
899.983	0.5
900.717	1.5
901.452	-0.5
902.186	0.5
902.92	1.5
903.654	1.5
904.389	-2.5
905.123	1.5
905.857	1.5
906.59	2.5
907.324	0.5
908.058	-0.5
908.792	-0.5
909.525	0.5
910.259	-0.5
910.992	0.5
911.726	-0.5
912.459	-1.5
913.192	-1.5
913.925	1.5
914.658	2.5
915.391	2.5
916.124	0.5
916.857	-2.5
917.59	-1.5
918.323	-0.5
919.055	1.5
919.788	0.5
920.521	1.5
921.253	0.5
921.985	0.5
922.718	1.5
923.45	0.5
924.182	-0.5
924.914	-1.5
925.646	0.5
926.378	-0.5
927.11	1.5
927.841	2.5
928.573	-0.5
929.305	1.5
930.036	1.5
930.768	-0.5
931.499	1.5
932.23	1.5
932.962	0.5
933.693	0.5
934.424	0.5
935.155	0.5
935.886	1.5
936.617	-1.5
937.348	1.5
938.078	2.5
938.809	-1.5
939.54	1.5
940.27	-0.5
941.001	1.5
941.731	-1.5
942.461	1.5
943.191	0.5
943.922	-0.5
944.652	0.5
945.382	-0.5
946.112	0.5
946.841	1.5
947.571	-1.5
948.301	0.5
949.031	-1.5
949.76	-1.5
950.49	-0.5
951.219	-0.5
951.948	-0.5
952.678	-1.5
953.407	1.5
954.136	-1.5
954.865	1.5
955.594	0.5
956.323	3.5
957.052	-0.5
957.78	-0.5
958.509	2.5
959.238	-0.5
959.966	2.5
960.695	0.5
961.423	0.5
962.151	-2.5
962.88	-1.5
963.608	1.5
964.336	1.5
965.064	0.5
965.792	-1.5
966.52	0.5
967.247	0.5
967.975	-0.5
968.703	-1.5
969.43	1.5
970.158	2.5
970.885	1.5
971.613	0.5
972.34	1.5
973.067	1.5
973.794	-1.5
974.521	-1.5
975.248	0.5
975.975	0.5
976.702	-0.5
977.429	3.5
978.156	1.5
978.882	1.5
979.609	-1.5
980.335	1.5
981.062	0.5
981.788	-0.5
982.514	1.5
983.24	1.5
983.967	0.5
984.693	1.5
985.419	3.5
986.144	-0.5
986.87	-0.5
987.596	1.5
988.322	1.5
989.047	2.5
989.773	-2.5
990.498	-0.5
991.224	-1.5
991.949	-0.5
992.674	-0.5
993.399	0.5
994.124	-0.5
994.849	-2.5
995.574	-1.5
996.299	0.5
997.024	0.5
997.749	1.5
998.473	1.5
999.198	-0.5
999.922	0.5
1000.647	1.5
1001.371	4.5
1002.095	-0.5
1002.82	-2.5
1003.544	-1.5
1004.268	1.5
1004.992	-2.5
1005.716	0.5
1006.439	-0.5
1007.163	0.5
1007.887	0.5
1008.611	-1.5
1009.334	-0.5
1010.058	0.5
1010.781	1.5
1011.504	-0.5
1012.228	-0.5
1012.951	1.5
1013.674	-1.5
1014.397	0.5
1015.12	-0.5
