节点500_145_QEPB04081__619__11-38-48-273.txt的数据

Date: Wed Nov 12 11:38:48 CST 2025
User: PC
Spectrometer: QEPB0408
触发模式: 0
积分时间 (秒): 1.000000E-2
Scans to average: 1
启用暗噪声校正: true
启用非线性校正: false
滑动平均宽度: 0
X轴模式: Wavelengths
Number of Pixels in Spectrum: 1044
>>>>>Begin Spectral Data<<<<<
220.843	-1.38
221.644	0.62
222.444	-0.38
223.244	-0.38
224.045	0.62
224.845	0.62
225.645	0.62
226.445	0.62
227.245	-0.38
228.045	1.62
228.845	-2.38
229.645	1.62
230.444	-1.38
231.244	0.62
232.043	0.62
232.843	-0.38
233.642	0.62
234.442	2.62
235.241	0.62
236.04	-0.38
236.839	1.62
237.638	1.62
238.437	1.62
239.236	2.62
240.035	1.62
240.833	2.62
241.632	0.62
242.43	1.62
243.229	2.62
244.027	0.62
244.826	1.62
245.624	2.62
246.422	1.62
247.22	0.62
248.018	1.62
248.816	1.62
249.614	3.62
250.412	3.62
251.21	3.62
252.007	2.62
252.805	2.62
253.602	2.62
254.4	2.62
255.197	4.62
255.994	2.62
256.791	3.62
257.589	2.62
258.386	2.62
259.183	2.62
259.979	4.62
260.776	3.62
261.573	4.62
262.37	5.62
263.166	4.62
263.963	5.62
264.759	4.62
265.556	5.62
266.352	4.62
267.148	4.62
267.944	5.62
268.74	7.62
269.536	5.62
270.332	6.62
271.128	6.62
271.924	8.62
272.719	7.62
273.515	9.62
274.311	6.62
275.106	6.62
275.901	10.62
276.697	7.62
277.492	9.62
278.287	7.62
279.082	9.62
279.877	10.62
280.672	8.62
281.467	8.62
282.262	7.62
283.056	9.62
283.851	9.62
284.646	6.62
285.44	10.62
286.234	9.62
287.029	10.62
287.823	10.62
288.617	11.62
289.411	10.62
290.205	8.62
290.999	11.62
291.793	10.62
292.587	9.62
293.381	13.62
294.174	8.62
294.968	11.62
295.761	10.62
296.555	11.62
297.348	7.62
298.141	9.62
298.935	11.62
299.728	9.62
300.521	10.62
301.314	8.62
302.107	7.62
302.899	7.62
303.692	6.62
304.485	10.62
305.277	6.62
306.07	5.62
306.862	7.62
307.655	7.62
308.447	6.62
309.239	9.62
310.031	8.62
310.823	6.62
311.615	6.62
312.407	7.62
313.199	5.62
313.991	7.62
314.783	3.62
315.574	5.62
316.366	4.62
317.157	6.62
317.949	7.62
318.74	4.62
319.531	4.62
320.322	4.62
321.113	2.62
321.904	3.62
322.695	7.62
323.486	3.62
324.277	4.62
325.068	5.62
325.858	3.62
326.649	4.62
327.439	3.62
328.23	4.62
329.02	6.62
329.81	3.62
330.6	4.62
331.391	3.62
332.181	3.62
332.971	2.62
333.76	5.62
334.55	2.62
335.34	4.62
336.13	4.62
336.919	3.62
337.709	1.62
338.498	4.62
339.287	3.62
340.077	3.62
340.866	1.62
341.655	3.62
342.444	2.62
343.233	1.62
344.022	2.62
344.811	1.62
345.6	4.62
346.388	2.62
347.177	5.62
347.965	2.62
348.754	3.62
349.542	4.62
350.33	3.62
351.119	2.62
351.907	4.62
352.695	3.62
353.483	3.62
354.271	1.62
355.059	1.62
355.846	4.62
356.634	2.62
357.422	2.62
358.209	1.62
358.997	1.62
359.784	3.62
360.571	3.62
361.359	2.62
362.146	0.62
362.933	1.62
363.72	1.62
364.507	0.62
365.294	1.62
366.081	4.62
366.867	2.62
367.654	2.62
368.44	1.62
369.227	4.62
370.013	1.62
370.8	4.62
371.586	3.62
372.372	3.62
373.158	2.62
373.944	2.62
374.73	4.62
375.516	2.62
376.302	3.62
377.088	6.62
377.873	3.62
378.659	1.62
379.445	2.62
380.23	3.62
381.015	1.62
381.801	3.62
382.586	2.62
383.371	3.62
384.156	4.62
384.941	1.62
385.726	2.62
386.511	2.62
387.296	1.62
388.08	2.62
388.865	5.62
389.649	3.62
390.434	2.62
391.218	3.62
392.003	3.62
392.787	3.62
393.571	2.62
394.355	0.62
395.139	-0.38
395.923	3.62
396.707	4.62
397.491	2.62
398.274	2.62
399.058	5.62
399.842	4.62
400.625	3.62
401.408	3.62
402.192	4.62
402.975	3.62
403.758	3.62
404.541	4.62
405.324	3.62
406.107	5.62
406.89	3.62
407.673	3.62
408.456	4.62
409.238	2.62
410.021	3.62
410.803	3.62
411.586	4.62
412.368	4.62
413.151	4.62
413.933	2.62
414.715	5.62
415.497	4.62
416.279	2.62
417.061	5.62
417.843	4.62
418.624	4.62
419.406	3.62
420.188	4.62
420.969	6.62
421.751	4.62
422.532	4.62
423.313	4.62
424.095	6.62
424.876	6.62
425.657	7.62
426.438	8.62
427.219	6.62
428	5.62
428.78	5.62
429.561	7.62
430.342	7.62
431.122	6.62
431.903	5.62
432.683	9.62
433.464	8.62
434.244	7.62
435.024	10.62
435.804	9.62
436.584	11.62
437.364	8.62
438.144	12.62
438.924	10.62
439.704	10.62
440.483	14.62
441.263	12.62
442.042	13.62
442.822	12.62
443.601	14.62
444.38	16.62
445.16	15.62
445.939	18.62
446.718	19.62
447.497	19.62
448.276	22.62
449.054	22.62
449.833	23.62
450.612	24.62
451.391	26.62
452.169	34.62
452.948	35.62
453.726	37.62
454.504	40.62
455.282	45.62
456.061	51.62
456.839	56.62
457.617	60.62
458.395	67.62
459.172	74.62
459.95	83.62
460.728	92.62
461.506	103.62
462.283	113.62
463.061	124.62
463.838	139.62
464.615	154.62
465.393	172.62
466.17	190.62
466.947	211.62
467.724	231.62
468.501	261.62
469.278	292.62
470.055	323.62
470.831	367.62
471.608	398.62
472.385	433.62
473.161	478.62
473.938	536.62
474.714	600.62
475.49	654.62
476.266	722.62
477.043	789.62
477.819	880.62
478.595	965.62
479.371	1061.62
480.146	1158.62
480.922	1262.62
481.698	1391.62
482.473	1533.62
483.249	1670.62
484.024	1833.62
484.8	1993.62
485.575	2209.62
486.35	2414.62
487.126	2620.62
487.901	2880.62
488.676	3127.62
489.451	3427.62
490.225	3737.62
491	4069.62
491.775	4468.62
492.55	4835.62
493.324	5285.62
494.099	5750.62
494.873	6251.62
495.647	6770.62
496.422	7339.62
497.196	7892.62
497.97	8531.62
498.744	9171.62
499.518	9807.62
500.292	10476.62
501.066	11073.62
501.839	11733.62
502.613	12325.62
503.387	12931.62
504.16	13437.62
504.934	13957.62
505.707	14368.62
506.48	14675.62
507.253	14955.62
508.027	15156.62
508.8	15238.62
509.573	15237.62
510.346	15136.62
511.118	14960.62
511.891	14696.62
512.664	14372.62
513.437	14050.62
514.209	13598.62
514.982	13114.62
515.754	12643.62
516.526	12182.62
517.298	11674.62
518.071	11136.62
518.843	10733.62
519.615	10269.62
520.387	9816.62
521.159	9439.62
521.93	9101.62
522.702	8704.62
523.474	8371.62
524.245	8037.62
525.017	7748.62
525.788	7403.62
526.56	7120.62
527.331	6837.62
528.102	6541.62
528.873	6299.62
529.644	5992.62
530.415	5755.62
531.186	5526.62
531.957	5235.62
532.728	4987.62
533.498	4725.62
534.269	4510.62
535.039	4259.62
535.81	4048.62
536.58	3820.62
537.351	3587.62
538.121	3406.62
538.891	3219.62
539.661	3065.62
540.431	2910.62
541.201	2730.62
541.971	2601.62
542.741	2456.62
543.51	2324.62
544.28	2194.62
545.05	2091.62
545.819	1982.62
546.588	1895.62
547.358	1783.62
548.127	1713.62
548.896	1634.62
549.665	1550.62
550.434	1459.62
551.203	1399.62
551.972	1332.62
552.741	1245.62
553.51	1198.62
554.278	1140.62
555.047	1055.62
555.815	999.62
556.584	959.62
557.352	907.62
558.121	850.62
558.889	807.62
559.657	746.62
560.425	711.62
561.193	678.62
561.961	638.62
562.729	601.62
563.496	568.62
564.264	539.62
565.032	505.62
565.799	476.62
566.567	448.62
567.334	424.62
568.101	395.62
568.869	379.62
569.636	366.62
570.403	332.62
571.17	319.62
571.937	296.62
572.704	286.62
573.471	266.62
574.237	246.62
575.004	238.62
575.771	220.62
576.537	208.62
577.303	199.62
578.07	191.62
578.836	172.62
579.602	162.62
580.368	157.62
581.134	144.62
581.9	141.62
582.666	134.62
583.432	122.62
584.198	120.62
584.964	113.62
585.729	104.62
586.495	96.62
587.26	96.62
588.025	91.62
588.791	85.62
589.556	83.62
590.321	72.62
591.086	70.62
591.851	67.62
592.616	65.62
593.381	62.62
594.146	58.62
594.911	56.62
595.675	51.62
596.44	50.62
597.204	49.62
597.969	43.62
598.733	43.62
599.497	41.62
600.261	44.62
601.025	37.62
601.79	38.62
602.553	33.62
603.317	30.62
604.081	32.62
604.845	31.62
605.609	30.62
606.372	25.62
607.136	29.62
607.899	24.62
608.662	24.62
609.426	24.62
610.189	22.62
610.952	23.62
611.715	19.62
612.478	20.62
613.241	18.62
614.004	17.62
614.767	18.62
615.529	15.62
616.292	18.62
617.055	15.62
617.817	15.62
618.579	14.62
619.342	14.62
620.104	14.62
620.866	15.62
621.628	11.62
622.39	13.62
623.152	11.62
623.914	14.62
624.676	9.62
625.438	9.62
626.199	10.62
626.961	10.62
627.722	8.62
628.484	8.62
629.245	6.62
630.006	8.62
630.768	8.62
631.529	8.62
632.29	8.62
633.051	8.62
633.812	8.62
634.573	8.62
635.333	4.62
636.094	5.62
636.855	6.62
637.615	6.62
638.376	4.62
639.136	5.62
639.896	7.62
640.657	6.62
641.417	5.62
642.177	4.62
642.937	6.62
643.697	4.62
644.457	4.62
645.216	6.62
645.976	5.62
646.736	7.62
647.495	4.62
648.255	2.62
649.014	5.62
649.774	4.62
650.533	5.62
651.292	5.62
652.051	3.62
652.81	3.62
653.569	2.62
654.328	5.62
655.087	2.62
655.846	2.62
656.604	4.62
657.363	4.62
658.121	3.62
658.88	3.62
659.638	5.62
660.397	5.62
661.155	3.62
661.913	4.62
662.671	4.62
663.429	2.62
664.187	0.62
664.945	2.62
665.703	1.62
666.46	3.62
667.218	3.62
667.976	3.62
668.733	2.62
669.49	3.62
670.248	2.62
671.005	0.62
671.762	2.62
672.519	0.62
673.276	2.62
674.033	1.62
674.79	3.62
675.547	3.62
676.304	3.62
677.06	2.62
677.817	0.62
678.574	3.62
679.33	4.62
680.086	0.62
680.843	2.62
681.599	2.62
682.355	1.62
683.111	-0.38
683.867	4.62
684.623	2.62
685.379	2.62
686.135	2.62
686.89	1.62
687.646	1.62
688.402	2.62
689.157	-0.38
689.912	3.62
690.668	2.62
691.423	2.62
692.178	2.62
692.933	1.62
693.688	2.62
694.443	2.62
695.198	1.62
695.953	0.62
696.708	3.62
697.462	-0.38
698.217	2.62
698.972	2.62
699.726	1.62
700.48	0.62
701.235	2.62
701.989	3.62
702.743	1.62
703.497	2.62
704.251	1.62
705.005	4.62
705.759	4.62
706.513	2.62
707.266	2.62
708.02	1.62
708.774	1.62
709.527	-1.38
710.28	1.62
711.034	3.62
711.787	3.62
712.54	2.62
713.293	1.62
714.046	2.62
714.799	2.62
715.552	1.62
716.305	0.62
717.058	3.62
717.81	3.62
718.563	3.62
719.315	3.62
720.068	0.62
720.82	2.62
721.573	2.62
722.325	1.62
723.077	3.62
723.829	0.62
724.581	0.62
725.333	-0.38
726.085	2.62
726.836	4.62
727.588	2.62
728.34	3.62
729.091	3.62
729.843	2.62
730.594	3.62
731.346	1.62
732.097	2.62
732.848	2.62
733.599	4.62
734.35	1.62
735.101	1.62
735.852	2.62
736.603	3.62
737.354	1.62
738.104	1.62
738.855	1.62
739.605	3.62
740.356	3.62
741.106	1.62
741.856	2.62
742.607	1.62
743.357	1.62
744.107	5.62
744.857	1.62
745.607	2.62
746.357	2.62
747.106	3.62
747.856	1.62
748.606	1.62
749.355	2.62
750.105	4.62
750.854	3.62
751.603	1.62
752.353	1.62
753.102	4.62
753.851	2.62
754.6	-0.38
755.349	1.62
756.098	5.62
756.847	3.62
757.595	4.62
758.344	3.62
759.093	2.62
759.841	3.62
760.589	1.62
761.338	3.62
762.086	2.62
762.834	3.62
763.582	1.62
764.331	3.62
765.079	4.62
765.826	2.62
766.574	2.62
767.322	3.62
768.07	5.62
768.817	3.62
769.565	3.62
770.312	2.62
771.06	4.62
771.807	5.62
772.554	3.62
773.302	2.62
774.049	2.62
774.796	2.62
775.543	3.62
776.29	4.62
777.036	4.62
777.783	2.62
778.53	3.62
779.276	5.62
780.023	4.62
780.769	4.62
781.516	3.62
782.262	5.62
783.008	5.62
783.754	5.62
784.5	2.62
785.246	3.62
785.992	4.62
786.738	4.62
787.484	4.62
788.23	4.62
788.975	7.62
789.721	5.62
790.466	2.62
791.212	6.62
791.957	1.62
792.702	4.62
793.447	4.62
794.193	2.62
794.938	3.62
795.683	5.62
796.427	5.62
797.172	3.62
797.917	5.62
798.662	3.62
799.406	1.62
800.151	4.62
800.895	3.62
801.64	3.62
802.384	3.62
803.128	5.62
803.872	2.62
804.616	4.62
805.36	4.62
806.104	6.62
806.848	3.62
807.592	1.62
808.336	3.62
809.079	3.62
809.823	1.62
810.566	3.62
811.31	2.62
812.053	3.62
812.796	2.62
813.539	3.62
814.283	5.62
815.026	3.62
815.769	5.62
816.511	4.62
817.254	3.62
817.997	5.62
818.74	3.62
819.482	4.62
820.225	1.62
820.967	1.62
821.71	3.62
822.452	4.62
823.194	4.62
823.936	3.62
824.678	3.62
825.42	2.62
826.162	2.62
826.904	4.62
827.646	4.62
828.388	2.62
829.129	3.62
829.871	4.62
830.612	2.62
831.354	2.62
832.095	2.62
832.836	2.62
833.577	2.62
834.319	2.62
835.06	4.62
835.801	1.62
836.542	2.62
837.282	1.62
838.023	3.62
838.764	1.62
839.504	2.62
840.245	2.62
840.985	1.62
841.726	2.62
842.466	1.62
843.206	0.62
843.946	2.62
844.687	1.62
845.427	1.62
846.166	2.62
846.906	4.62
847.646	2.62
848.386	1.62
849.125	2.62
849.865	2.62
850.605	3.62
851.344	1.62
852.083	0.62
852.823	1.62
853.562	2.62
854.301	0.62
855.04	1.62
855.779	2.62
856.518	0.62
857.257	2.62
857.995	2.62
858.734	2.62
859.473	1.62
860.211	1.62
860.95	2.62
861.688	1.62
862.426	3.62
863.165	0.62
863.903	0.62
864.641	0.62
865.379	2.62
866.117	-0.38
866.855	2.62
867.593	2.62
868.33	1.62
869.068	1.62
869.806	0.62
870.543	1.62
871.28	3.62
872.018	-0.38
872.755	1.62
873.492	0.62
874.229	-0.38
874.967	1.62
875.703	1.62
876.44	0.62
877.177	0.62
877.914	1.62
878.651	1.62
879.387	-1.38
880.124	1.62
880.86	-0.38
881.597	-1.38
882.333	1.62
883.069	2.62
883.806	0.62
884.542	-0.38
885.278	2.62
886.014	1.62
886.749	1.62
887.485	0.62
888.221	1.62
888.957	0.62
889.692	3.62
890.428	2.62
891.163	-0.38
891.899	1.62
892.634	1.62
893.369	1.62
894.104	-0.38
894.839	0.62
895.574	-1.38
896.309	-0.38
897.044	1.62
897.779	1.62
898.514	0.62
899.248	-1.38
899.983	-0.38
900.717	2.62
901.452	1.62
902.186	1.62
902.92	2.62
903.654	0.62
904.389	-0.38
905.123	1.62
905.857	1.62
906.59	1.62
907.324	2.62
908.058	1.62
908.792	0.62
909.525	-1.38
910.259	-0.38
910.992	2.62
911.726	-1.38
912.459	0.62
913.192	1.62
913.925	3.62
914.658	-1.38
915.391	-0.38
916.124	2.62
916.857	-1.38
917.59	-0.38
918.323	0.62
919.055	0.62
919.788	-0.38
920.521	-1.38
921.253	1.62
921.985	0.62
922.718	0.62
923.45	0.62
924.182	-0.38
924.914	1.62
925.646	-1.38
926.378	3.62
927.11	-0.38
927.841	2.62
928.573	0.62
929.305	-1.38
930.036	-0.38
930.768	0.62
931.499	0.62
932.23	0.62
932.962	1.62
933.693	0.62
934.424	-0.38
935.155	0.62
935.886	-1.38
936.617	-0.38
937.348	-1.38
938.078	-1.38
938.809	0.62
939.54	-1.38
940.27	2.62
941.001	1.62
941.731	1.62
942.461	1.62
943.191	0.62
943.922	1.62
944.652	-1.38
945.382	-1.38
946.112	0.62
946.841	1.62
947.571	0.62
948.301	0.62
949.031	-0.38
949.76	-0.38
950.49	2.62
951.219	-0.38
951.948	-0.38
952.678	0.62
953.407	0.62
954.136	-1.38
954.865	-0.38
955.594	1.62
956.323	-0.38
957.052	2.62
957.78	-0.38
958.509	-0.38
959.238	1.62
959.966	0.62
960.695	2.62
961.423	0.62
962.151	-0.38
962.88	0.62
963.608	2.62
964.336	-0.38
965.064	0.62
965.792	3.62
966.52	-1.38
967.247	1.62
967.975	0.62
968.703	-0.38
969.43	0.62
970.158	-0.38
970.885	1.62
971.613	-0.38
972.34	-0.38
973.067	2.62
973.794	1.62
974.521	1.62
975.248	-1.38
975.975	-0.38
976.702	0.62
977.429	1.62
978.156	-0.38
978.882	-1.38
979.609	2.62
980.335	-0.38
981.062	0.62
981.788	1.62
982.514	0.62
983.24	0.62
983.967	-1.38
984.693	-0.38
985.419	1.62
986.144	0.62
986.87	-0.38
987.596	-0.38
988.322	-1.38
989.047	2.62
989.773	0.62
990.498	2.62
991.224	0.62
991.949	1.62
992.674	-0.38
993.399	0.62
994.124	-1.38
994.849	1.62
995.574	-1.38
996.299	1.62
997.024	-0.38
997.749	1.62
998.473	-0.38
999.198	-1.38
999.922	0.62
1000.647	1.62
1001.371	1.62
1002.095	-1.38
1002.82	-0.38
1003.544	-0.38
1004.268	-1.38
1004.992	1.62
1005.716	-1.38
1006.439	-1.38
1007.163	-0.38
1007.887	-0.38
1008.611	2.62
1009.334	-1.38
1010.058	-1.38
1010.781	0.62
1011.504	-2.38
1012.228	2.62
1012.951	-0.38
1013.674	0.62
1014.397	0.62
1015.12	-0.38
