节点500_145_QEPB04081__631__11-39-00-187.txt的数据

Date: Wed Nov 12 11:39:00 CST 2025
User: PC
Spectrometer: QEPB0408
触发模式: 0
积分时间 (秒): 1.000000E-2
Scans to average: 1
启用暗噪声校正: true
启用非线性校正: false
滑动平均宽度: 0
X轴模式: Wavelengths
Number of Pixels in Spectrum: 1044
>>>>>Begin Spectral Data<<<<<
220.843	-1.62
221.644	1.38
222.444	0.38
223.244	1.38
224.045	-1.62
224.845	1.38
225.645	0.38
226.445	-0.62
227.245	-0.62
228.045	1.38
228.845	-0.62
229.645	0.38
230.444	1.38
231.244	0.38
232.043	-0.62
232.843	0.38
233.642	2.38
234.442	1.38
235.241	0.38
236.04	1.38
236.839	-0.62
237.638	-0.62
238.437	0.38
239.236	1.38
240.035	0.38
240.833	1.38
241.632	0.38
242.43	2.38
243.229	1.38
244.027	0.38
244.826	0.38
245.624	3.38
246.422	2.38
247.22	3.38
248.018	-0.62
248.816	3.38
249.614	1.38
250.412	1.38
251.21	2.38
252.007	1.38
252.805	2.38
253.602	1.38
254.4	3.38
255.197	2.38
255.994	2.38
256.791	5.38
257.589	3.38
258.386	2.38
259.183	3.38
259.979	3.38
260.776	5.38
261.573	5.38
262.37	5.38
263.166	4.38
263.963	8.38
264.759	5.38
265.556	6.38
266.352	4.38
267.148	3.38
267.944	7.38
268.74	8.38
269.536	4.38
270.332	6.38
271.128	5.38
271.924	7.38
272.719	6.38
273.515	6.38
274.311	6.38
275.106	6.38
275.901	7.38
276.697	7.38
277.492	7.38
278.287	6.38
279.082	8.38
279.877	8.38
280.672	9.38
281.467	12.38
282.262	9.38
283.056	9.38
283.851	10.38
284.646	9.38
285.44	10.38
286.234	9.38
287.029	7.38
287.823	7.38
288.617	8.38
289.411	9.38
290.205	9.38
290.999	8.38
291.793	8.38
292.587	11.38
293.381	9.38
294.174	8.38
294.968	6.38
295.761	9.38
296.555	8.38
297.348	9.38
298.141	9.38
298.935	9.38
299.728	11.38
300.521	7.38
301.314	8.38
302.107	10.38
302.899	7.38
303.692	7.38
304.485	8.38
305.277	11.38
306.07	5.38
306.862	9.38
307.655	8.38
308.447	8.38
309.239	8.38
310.031	6.38
310.823	8.38
311.615	7.38
312.407	7.38
313.199	7.38
313.991	5.38
314.783	7.38
315.574	5.38
316.366	7.38
317.157	5.38
317.949	4.38
318.74	6.38
319.531	5.38
320.322	6.38
321.113	5.38
321.904	5.38
322.695	3.38
323.486	4.38
324.277	5.38
325.068	4.38
325.858	5.38
326.649	2.38
327.439	3.38
328.23	5.38
329.02	4.38
329.81	5.38
330.6	3.38
331.391	4.38
332.181	4.38
332.971	3.38
333.76	3.38
334.55	1.38
335.34	3.38
336.13	4.38
336.919	6.38
337.709	3.38
338.498	4.38
339.287	3.38
340.077	4.38
340.866	6.38
341.655	2.38
342.444	5.38
343.233	4.38
344.022	2.38
344.811	3.38
345.6	1.38
346.388	5.38
347.177	0.38
347.965	2.38
348.754	2.38
349.542	3.38
350.33	4.38
351.119	2.38
351.907	4.38
352.695	2.38
353.483	1.38
354.271	5.38
355.059	1.38
355.846	2.38
356.634	1.38
357.422	1.38
358.209	2.38
358.997	4.38
359.784	4.38
360.571	3.38
361.359	2.38
362.146	2.38
362.933	3.38
363.72	3.38
364.507	3.38
365.294	3.38
366.081	4.38
366.867	2.38
367.654	3.38
368.44	3.38
369.227	0.38
370.013	2.38
370.8	1.38
371.586	1.38
372.372	2.38
373.158	1.38
373.944	2.38
374.73	2.38
375.516	4.38
376.302	2.38
377.088	3.38
377.873	4.38
378.659	1.38
379.445	2.38
380.23	3.38
381.015	0.38
381.801	2.38
382.586	3.38
383.371	5.38
384.156	2.38
384.941	2.38
385.726	0.38
386.511	3.38
387.296	-0.62
388.08	0.38
388.865	4.38
389.649	1.38
390.434	2.38
391.218	2.38
392.003	3.38
392.787	3.38
393.571	4.38
394.355	3.38
395.139	2.38
395.923	4.38
396.707	1.38
397.491	5.38
398.274	3.38
399.058	3.38
399.842	3.38
400.625	2.38
401.408	3.38
402.192	1.38
402.975	3.38
403.758	4.38
404.541	2.38
405.324	4.38
406.107	2.38
406.89	5.38
407.673	5.38
408.456	5.38
409.238	3.38
410.021	3.38
410.803	6.38
411.586	4.38
412.368	3.38
413.151	3.38
413.933	4.38
414.715	4.38
415.497	4.38
416.279	6.38
417.061	5.38
417.843	1.38
418.624	5.38
419.406	4.38
420.188	4.38
420.969	2.38
421.751	5.38
422.532	6.38
423.313	4.38
424.095	5.38
424.876	5.38
425.657	6.38
426.438	2.38
427.219	7.38
428	5.38
428.78	7.38
429.561	7.38
430.342	7.38
431.122	7.38
431.903	8.38
432.683	5.38
433.464	7.38
434.244	10.38
435.024	9.38
435.804	6.38
436.584	10.38
437.364	9.38
438.144	10.38
438.924	10.38
439.704	10.38
440.483	12.38
441.263	11.38
442.042	11.38
442.822	12.38
443.601	14.38
444.38	15.38
445.16	16.38
445.939	16.38
446.718	17.38
447.497	18.38
448.276	21.38
449.054	25.38
449.833	23.38
450.612	24.38
451.391	28.38
452.169	31.38
452.948	35.38
453.726	37.38
454.504	42.38
455.282	42.38
456.061	46.38
456.839	53.38
457.617	63.38
458.395	74.38
459.172	76.38
459.95	82.38
460.728	88.38
461.506	102.38
462.283	111.38
463.061	124.38
463.838	143.38
464.615	154.38
465.393	174.38
466.17	192.38
466.947	218.38
467.724	240.38
468.501	260.38
469.278	298.38
470.055	321.38
470.831	365.38
471.608	403.38
472.385	438.38
473.161	486.38
473.938	543.38
474.714	595.38
475.49	654.38
476.266	717.38
477.043	793.38
477.819	873.38
478.595	967.38
479.371	1055.38
480.146	1158.38
480.922	1260.38
481.698	1394.38
482.473	1520.38
483.249	1681.38
484.024	1834.38
484.8	1996.38
485.575	2185.38
486.35	2377.38
487.126	2627.38
487.901	2867.38
488.676	3129.38
489.451	3419.38
490.225	3719.38
491	4057.38
491.775	4440.38
492.55	4851.38
493.324	5270.38
494.099	5696.38
494.873	6183.38
495.647	6741.38
496.422	7260.38
497.196	7843.38
497.97	8438.38
498.744	9113.38
499.518	9726.38
500.292	10406.38
501.066	11035.38
501.839	11627.38
502.613	12247.38
503.387	12801.38
504.16	13391.38
504.934	13893.38
505.707	14261.38
506.48	14574.38
507.253	14880.38
508.027	15023.38
508.8	15185.38
509.573	15152.38
510.346	15064.38
511.118	14913.38
511.891	14672.38
512.664	14315.38
513.437	13971.38
514.209	13542.38
514.982	13130.38
515.754	12581.38
516.526	12128.38
517.298	11662.38
518.071	11167.38
518.843	10691.38
519.615	10258.38
520.387	9866.38
521.159	9446.38
521.93	9066.38
522.702	8717.38
523.474	8369.38
524.245	8074.38
525.017	7727.38
525.788	7402.38
526.56	7117.38
527.331	6846.38
528.102	6557.38
528.873	6294.38
529.644	5996.38
530.415	5769.38
531.186	5484.38
531.957	5254.38
532.728	5004.38
533.498	4730.38
534.269	4495.38
535.039	4283.38
535.81	4045.38
536.58	3848.38
537.351	3602.38
538.121	3422.38
538.891	3243.38
539.661	3051.38
540.431	2885.38
541.201	2732.38
541.971	2596.38
542.741	2444.38
543.51	2341.38
544.28	2209.38
545.05	2098.38
545.819	1995.38
546.588	1896.38
547.358	1804.38
548.127	1716.38
548.896	1635.38
549.665	1549.38
550.434	1478.38
551.203	1405.38
551.972	1326.38
552.741	1244.38
553.51	1186.38
554.278	1132.38
555.047	1070.38
555.815	1015.38
556.584	964.38
557.352	905.38
558.121	859.38
558.889	796.38
559.657	763.38
560.425	721.38
561.193	669.38
561.961	641.38
562.729	605.38
563.496	564.38
564.264	534.38
565.032	514.38
565.799	474.38
566.567	449.38
567.334	422.38
568.101	406.38
568.869	378.38
569.636	357.38
570.403	338.38
571.17	317.38
571.937	300.38
572.704	285.38
573.471	267.38
574.237	254.38
575.004	237.38
575.771	222.38
576.537	204.38
577.303	200.38
578.07	184.38
578.836	175.38
579.602	164.38
580.368	154.38
581.134	146.38
581.9	142.38
582.666	138.38
583.432	128.38
584.198	121.38
584.964	116.38
585.729	106.38
586.495	102.38
587.26	96.38
588.025	87.38
588.791	84.38
589.556	79.38
590.321	77.38
591.086	73.38
591.851	67.38
592.616	65.38
593.381	60.38
594.146	59.38
594.911	54.38
595.675	55.38
596.44	50.38
597.204	44.38
597.969	47.38
598.733	42.38
599.497	42.38
600.261	39.38
601.025	37.38
601.79	37.38
602.553	38.38
603.317	30.38
604.081	28.38
604.845	28.38
605.609	30.38
606.372	27.38
607.136	29.38
607.899	24.38
608.662	27.38
609.426	23.38
610.189	23.38
610.952	18.38
611.715	21.38
612.478	22.38
613.241	19.38
614.004	19.38
614.767	18.38
615.529	18.38
616.292	15.38
617.055	15.38
617.817	13.38
618.579	16.38
619.342	14.38
620.104	13.38
620.866	12.38
621.628	11.38
622.39	13.38
623.152	11.38
623.914	12.38
624.676	10.38
625.438	10.38
626.199	10.38
626.961	9.38
627.722	9.38
628.484	9.38
629.245	8.38
630.006	7.38
630.768	8.38
631.529	8.38
632.29	6.38
633.051	8.38
633.812	8.38
634.573	7.38
635.333	6.38
636.094	5.38
636.855	4.38
637.615	3.38
638.376	6.38
639.136	6.38
639.896	4.38
640.657	4.38
641.417	4.38
642.177	5.38
642.937	5.38
643.697	3.38
644.457	6.38
645.216	3.38
645.976	3.38
646.736	3.38
647.495	6.38
648.255	4.38
649.014	4.38
649.774	3.38
650.533	3.38
651.292	5.38
652.051	5.38
652.81	2.38
653.569	2.38
654.328	3.38
655.087	3.38
655.846	2.38
656.604	5.38
657.363	0.38
658.121	3.38
658.88	5.38
659.638	2.38
660.397	1.38
661.155	1.38
661.913	5.38
662.671	3.38
663.429	2.38
664.187	3.38
664.945	2.38
665.703	3.38
666.46	0.38
667.218	3.38
667.976	3.38
668.733	2.38
669.49	2.38
670.248	2.38
671.005	2.38
671.762	2.38
672.519	3.38
673.276	3.38
674.033	1.38
674.79	4.38
675.547	2.38
676.304	3.38
677.06	0.38
677.817	2.38
678.574	4.38
679.33	3.38
680.086	2.38
680.843	2.38
681.599	4.38
682.355	0.38
683.111	1.38
683.867	0.38
684.623	2.38
685.379	0.38
686.135	3.38
686.89	1.38
687.646	1.38
688.402	2.38
689.157	3.38
689.912	3.38
690.668	1.38
691.423	-0.62
692.178	2.38
692.933	3.38
693.688	0.38
694.443	0.38
695.198	4.38
695.953	0.38
696.708	2.38
697.462	0.38
698.217	-0.62
698.972	1.38
699.726	1.38
700.48	0.38
701.235	2.38
701.989	1.38
702.743	0.38
703.497	0.38
704.251	1.38
705.005	1.38
705.759	2.38
706.513	3.38
707.266	1.38
708.02	1.38
708.774	2.38
709.527	2.38
710.28	2.38
711.034	1.38
711.787	3.38
712.54	-1.62
713.293	3.38
714.046	1.38
714.799	3.38
715.552	0.38
716.305	1.38
717.058	2.38
717.81	1.38
718.563	2.38
719.315	2.38
720.068	1.38
720.82	0.38
721.573	0.38
722.325	0.38
723.077	2.38
723.829	1.38
724.581	4.38
725.333	1.38
726.085	1.38
726.836	0.38
727.588	2.38
728.34	3.38
729.091	1.38
729.843	1.38
730.594	4.38
731.346	1.38
732.097	0.38
732.848	2.38
733.599	1.38
734.35	2.38
735.101	1.38
735.852	1.38
736.603	1.38
737.354	3.38
738.104	2.38
738.855	0.38
739.605	1.38
740.356	0.38
741.106	0.38
741.856	2.38
742.607	2.38
743.357	4.38
744.107	1.38
744.857	3.38
745.607	2.38
746.357	3.38
747.106	3.38
747.856	1.38
748.606	2.38
749.355	1.38
750.105	5.38
750.854	1.38
751.603	4.38
752.353	2.38
753.102	2.38
753.851	2.38
754.6	2.38
755.349	5.38
756.098	1.38
756.847	0.38
757.595	2.38
758.344	2.38
759.093	3.38
759.841	1.38
760.589	2.38
761.338	3.38
762.086	1.38
762.834	2.38
763.582	1.38
764.331	2.38
765.079	2.38
765.826	3.38
766.574	5.38
767.322	3.38
768.07	1.38
768.817	3.38
769.565	5.38
770.312	5.38
771.06	6.38
771.807	3.38
772.554	2.38
773.302	2.38
774.049	3.38
774.796	4.38
775.543	1.38
776.29	4.38
777.036	3.38
777.783	3.38
778.53	6.38
779.276	2.38
780.023	5.38
780.769	5.38
781.516	4.38
782.262	5.38
783.008	4.38
783.754	3.38
784.5	2.38
785.246	5.38
785.992	4.38
786.738	5.38
787.484	4.38
788.23	5.38
788.975	6.38
789.721	3.38
790.466	3.38
791.212	5.38
791.957	3.38
792.702	3.38
793.447	3.38
794.193	3.38
794.938	2.38
795.683	4.38
796.427	4.38
797.172	3.38
797.917	5.38
798.662	4.38
799.406	5.38
800.151	4.38
800.895	5.38
801.64	4.38
802.384	5.38
803.128	4.38
803.872	1.38
804.616	3.38
805.36	4.38
806.104	4.38
806.848	4.38
807.592	4.38
808.336	2.38
809.079	6.38
809.823	2.38
810.566	4.38
811.31	4.38
812.053	2.38
812.796	2.38
813.539	2.38
814.283	3.38
815.026	5.38
815.769	1.38
816.511	2.38
817.254	4.38
817.997	2.38
818.74	2.38
819.482	2.38
820.225	3.38
820.967	3.38
821.71	3.38
822.452	2.38
823.194	2.38
823.936	2.38
824.678	4.38
825.42	2.38
826.162	3.38
826.904	3.38
827.646	1.38
828.388	2.38
829.129	3.38
829.871	3.38
830.612	2.38
831.354	1.38
832.095	2.38
832.836	2.38
833.577	3.38
834.319	1.38
835.06	2.38
835.801	2.38
836.542	2.38
837.282	2.38
838.023	2.38
838.764	1.38
839.504	4.38
840.245	1.38
840.985	4.38
841.726	1.38
842.466	2.38
843.206	4.38
843.946	2.38
844.687	1.38
845.427	3.38
846.166	1.38
846.906	0.38
847.646	3.38
848.386	1.38
849.125	0.38
849.865	3.38
850.605	0.38
851.344	0.38
852.083	1.38
852.823	1.38
853.562	0.38
854.301	1.38
855.04	1.38
855.779	1.38
856.518	2.38
857.257	0.38
857.995	3.38
858.734	3.38
859.473	1.38
860.211	3.38
860.95	1.38
861.688	2.38
862.426	-0.62
863.165	1.38
863.903	1.38
864.641	2.38
865.379	1.38
866.117	1.38
866.855	2.38
867.593	0.38
868.33	1.38
869.068	2.38
869.806	0.38
870.543	0.38
871.28	-2.62
872.018	4.38
872.755	1.38
873.492	2.38
874.229	-0.62
874.967	-1.62
875.703	2.38
876.44	0.38
877.177	1.38
877.914	0.38
878.651	0.38
879.387	1.38
880.124	0.38
880.86	1.38
881.597	0.38
882.333	0.38
883.069	0.38
883.806	3.38
884.542	0.38
885.278	-1.62
886.014	2.38
886.749	1.38
887.485	1.38
888.221	1.38
888.957	-0.62
889.692	0.38
890.428	-0.62
891.163	0.38
891.899	0.38
892.634	2.38
893.369	0.38
894.104	-0.62
894.839	2.38
895.574	-1.62
896.309	-1.62
897.044	0.38
897.779	0.38
898.514	-0.62
899.248	-1.62
899.983	1.38
900.717	0.38
901.452	1.38
902.186	0.38
902.92	2.38
903.654	-0.62
904.389	1.38
905.123	-0.62
905.857	0.38
906.59	0.38
907.324	1.38
908.058	-0.62
908.792	3.38
909.525	0.38
910.259	0.38
910.992	0.38
911.726	-1.62
912.459	0.38
913.192	1.38
913.925	1.38
914.658	-1.62
915.391	0.38
916.124	0.38
916.857	1.38
917.59	1.38
918.323	-0.62
919.055	-0.62
919.788	-1.62
920.521	0.38
921.253	-0.62
921.985	2.38
922.718	-0.62
923.45	-0.62
924.182	0.38
924.914	-1.62
925.646	0.38
926.378	-1.62
927.11	-1.62
927.841	1.38
928.573	0.38
929.305	-0.62
930.036	-0.62
930.768	0.38
931.499	1.38
932.23	0.38
932.962	0.38
933.693	0.38
934.424	1.38
935.155	-1.62
935.886	3.38
936.617	-0.62
937.348	1.38
938.078	0.38
938.809	-1.62
939.54	1.38
940.27	1.38
941.001	1.38
941.731	-0.62
942.461	1.38
943.191	-1.62
943.922	1.38
944.652	-1.62
945.382	0.38
946.112	1.38
946.841	-0.62
947.571	0.38
948.301	-1.62
949.031	-1.62
949.76	0.38
950.49	-1.62
951.219	-0.62
951.948	1.38
952.678	-1.62
953.407	-0.62
954.136	0.38
954.865	0.38
955.594	-1.62
956.323	2.38
957.052	-0.62
957.78	-1.62
958.509	0.38
959.238	-1.62
959.966	0.38
960.695	-0.62
961.423	1.38
962.151	-1.62
962.88	0.38
963.608	1.38
964.336	-0.62
965.064	-1.62
965.792	-0.62
966.52	1.38
967.247	1.38
967.975	-1.62
968.703	1.38
969.43	-1.62
970.158	-0.62
970.885	-1.62
971.613	-0.62
972.34	1.38
973.067	-1.62
973.794	0.38
974.521	0.38
975.248	-1.62
975.975	-0.62
976.702	0.38
977.429	0.38
978.156	1.38
978.882	1.38
979.609	-1.62
980.335	0.38
981.062	-0.62
981.788	0.38
982.514	0.38
983.24	-0.62
983.967	1.38
984.693	-1.62
985.419	0.38
986.144	-1.62
986.87	-0.62
987.596	-0.62
988.322	0.38
989.047	-0.62
989.773	0.38
990.498	1.38
991.224	2.38
991.949	0.38
992.674	0.38
993.399	-0.62
994.124	-0.62
994.849	-1.62
995.574	-1.62
996.299	-0.62
997.024	-0.62
997.749	0.38
998.473	-1.62
999.198	0.38
999.922	-1.62
1000.647	0.38
1001.371	3.38
1002.095	-1.62
1002.82	-1.62
1003.544	0.38
1004.268	-1.62
1004.992	-1.62
1005.716	0.38
1006.439	0.38
1007.163	1.38
1007.887	0.38
1008.611	-2.62
1009.334	1.38
1010.058	-0.62
1010.781	0.38
1011.504	1.38
1012.228	0.38
1012.951	1.38
1013.674	-1.62
1014.397	-0.62
1015.12	0.38
