节点500_145_QEPB04081__185__11-31-54-556.txt的数据

Date: Wed Nov 12 11:31:54 CST 2025
User: PC
Spectrometer: QEPB0408
触发模式: 0
积分时间 (秒): 1.000000E-2
Scans to average: 1
启用暗噪声校正: true
启用非线性校正: false
滑动平均宽度: 0
X轴模式: Wavelengths
Number of Pixels in Spectrum: 1044
>>>>>Begin Spectral Data<<<<<
220.843	0.5
221.644	-1.5
222.444	-1.5
223.244	-2.5
224.045	1.5
224.845	-1.5
225.645	-1.5
226.445	-2.5
227.245	-0.5
228.045	0.5
228.845	0.5
229.645	1.5
230.444	1.5
231.244	0.5
232.043	0.5
232.843	-1.5
233.642	-0.5
234.442	0.5
235.241	-2.5
236.04	0.5
236.839	1.5
237.638	0.5
238.437	0.5
239.236	2.5
240.035	1.5
240.833	-1.5
241.632	0.5
242.43	2.5
243.229	1.5
244.027	2.5
244.826	0.5
245.624	2.5
246.422	1.5
247.22	-2.5
248.018	1.5
248.816	2.5
249.614	1.5
250.412	0.5
251.21	2.5
252.007	1.5
252.805	2.5
253.602	0.5
254.4	-0.5
255.197	4.5
255.994	4.5
256.791	3.5
257.589	3.5
258.386	3.5
259.183	1.5
259.979	3.5
260.776	4.5
261.573	4.5
262.37	5.5
263.166	2.5
263.963	5.5
264.759	1.5
265.556	5.5
266.352	4.5
267.148	7.5
267.944	7.5
268.74	4.5
269.536	6.5
270.332	5.5
271.128	8.5
271.924	8.5
272.719	6.5
273.515	7.5
274.311	6.5
275.106	9.5
275.901	9.5
276.697	9.5
277.492	7.5
278.287	12.5
279.082	8.5
279.877	7.5
280.672	10.5
281.467	11.5
282.262	10.5
283.056	10.5
283.851	8.5
284.646	11.5
285.44	9.5
286.234	9.5
287.029	10.5
287.823	8.5
288.617	12.5
289.411	9.5
290.205	13.5
290.999	11.5
291.793	12.5
292.587	12.5
293.381	8.5
294.174	9.5
294.968	10.5
295.761	10.5
296.555	8.5
297.348	11.5
298.141	9.5
298.935	11.5
299.728	9.5
300.521	8.5
301.314	9.5
302.107	7.5
302.899	9.5
303.692	7.5
304.485	8.5
305.277	8.5
306.07	7.5
306.862	9.5
307.655	6.5
308.447	8.5
309.239	7.5
310.031	6.5
310.823	7.5
311.615	6.5
312.407	3.5
313.199	3.5
313.991	4.5
314.783	3.5
315.574	4.5
316.366	3.5
317.157	5.5
317.949	4.5
318.74	3.5
319.531	5.5
320.322	4.5
321.113	2.5
321.904	2.5
322.695	1.5
323.486	2.5
324.277	3.5
325.068	2.5
325.858	4.5
326.649	5.5
327.439	3.5
328.23	3.5
329.02	5.5
329.81	5.5
330.6	3.5
331.391	6.5
332.181	-1.5
332.971	2.5
333.76	3.5
334.55	3.5
335.34	2.5
336.13	4.5
336.919	3.5
337.709	0.5
338.498	3.5
339.287	2.5
340.077	4.5
340.866	4.5
341.655	0.5
342.444	1.5
343.233	2.5
344.022	5.5
344.811	2.5
345.6	4.5
346.388	5.5
347.177	1.5
347.965	3.5
348.754	-0.5
349.542	5.5
350.33	-0.5
351.119	3.5
351.907	1.5
352.695	2.5
353.483	1.5
354.271	0.5
355.059	2.5
355.846	1.5
356.634	2.5
357.422	1.5
358.209	3.5
358.997	2.5
359.784	5.5
360.571	2.5
361.359	0.5
362.146	0.5
362.933	3.5
363.72	0.5
364.507	1.5
365.294	1.5
366.081	4.5
366.867	3.5
367.654	2.5
368.44	2.5
369.227	1.5
370.013	2.5
370.8	-0.5
371.586	2.5
372.372	3.5
373.158	1.5
373.944	0.5
374.73	1.5
375.516	1.5
376.302	2.5
377.088	1.5
377.873	2.5
378.659	1.5
379.445	3.5
380.23	1.5
381.015	4.5
381.801	2.5
382.586	2.5
383.371	3.5
384.156	5.5
384.941	4.5
385.726	2.5
386.511	3.5
387.296	1.5
388.08	1.5
388.865	2.5
389.649	2.5
390.434	3.5
391.218	1.5
392.003	3.5
392.787	1.5
393.571	1.5
394.355	0.5
395.139	4.5
395.923	3.5
396.707	0.5
397.491	4.5
398.274	3.5
399.058	0.5
399.842	1.5
400.625	1.5
401.408	4.5
402.192	2.5
402.975	3.5
403.758	1.5
404.541	4.5
405.324	1.5
406.107	4.5
406.89	1.5
407.673	1.5
408.456	3.5
409.238	4.5
410.021	3.5
410.803	3.5
411.586	2.5
412.368	1.5
413.151	4.5
413.933	4.5
414.715	5.5
415.497	3.5
416.279	2.5
417.061	2.5
417.843	4.5
418.624	5.5
419.406	2.5
420.188	2.5
420.969	3.5
421.751	5.5
422.532	5.5
423.313	5.5
424.095	5.5
424.876	6.5
425.657	4.5
426.438	3.5
427.219	4.5
428	6.5
428.78	6.5
429.561	7.5
430.342	5.5
431.122	8.5
431.903	4.5
432.683	7.5
433.464	7.5
434.244	8.5
435.024	6.5
435.804	10.5
436.584	8.5
437.364	8.5
438.144	9.5
438.924	9.5
439.704	9.5
440.483	14.5
441.263	6.5
442.042	12.5
442.822	10.5
443.601	13.5
444.38	13.5
445.16	16.5
445.939	15.5
446.718	16.5
447.497	16.5
448.276	20.5
449.054	22.5
449.833	25.5
450.612	22.5
451.391	25.5
452.169	26.5
452.948	29.5
453.726	31.5
454.504	37.5
455.282	39.5
456.061	40.5
456.839	45.5
457.617	47.5
458.395	58.5
459.172	63.5
459.95	67.5
460.728	76.5
461.506	88.5
462.283	101.5
463.061	104.5
463.838	120.5
464.615	134.5
465.393	146.5
466.17	164.5
466.947	178.5
467.724	202.5
468.501	226.5
469.278	253.5
470.055	288.5
470.831	319.5
471.608	357.5
472.385	401.5
473.161	438.5
473.938	502.5
474.714	554.5
475.49	605.5
476.266	677.5
477.043	760.5
477.819	829.5
478.595	929.5
479.371	1034.5
480.146	1140.5
480.922	1241.5
481.698	1411.5
482.473	1544.5
483.249	1731.5
484.024	1892.5
484.8	2089.5
485.575	2333.5
486.35	2563.5
487.126	2838.5
487.901	3129.5
488.676	3464.5
489.451	3813.5
490.225	4187.5
491	4628.5
491.775	5094.5
492.55	5585.5
493.324	6148.5
494.099	6760.5
494.873	7356.5
495.647	8031.5
496.422	8722.5
497.196	9458.5
497.97	10246.5
498.744	11033.5
499.518	11785.5
500.292	12603.5
501.066	13320.5
501.839	14049.5
502.613	14756.5
503.387	15345.5
504.16	15862.5
504.934	16277.5
505.707	16689.5
506.48	16895.5
507.253	17022.5
508.027	17034.5
508.8	16941.5
509.573	16694.5
510.346	16400.5
511.118	15972.5
511.891	15518.5
512.664	15019.5
513.437	14471.5
514.209	13869.5
514.982	13292.5
515.754	12738.5
516.526	12172.5
517.298	11575.5
518.071	11108.5
518.843	10563.5
519.615	10140.5
520.387	9741.5
521.159	9325.5
521.93	8957.5
522.702	8571.5
523.474	8263.5
524.245	7945.5
525.017	7628.5
525.788	7316.5
526.56	7039.5
527.331	6718.5
528.102	6448.5
528.873	6101.5
529.644	5842.5
530.415	5600.5
531.186	5281.5
531.957	5025.5
532.728	4741.5
533.498	4496.5
534.269	4263.5
535.039	4010.5
535.81	3782.5
536.58	3575.5
537.351	3380.5
538.121	3199.5
538.891	3005.5
539.661	2851.5
540.431	2691.5
541.201	2554.5
541.971	2427.5
542.741	2272.5
543.51	2158.5
544.28	2061.5
545.05	1960.5
545.819	1864.5
546.588	1757.5
547.358	1683.5
548.127	1599.5
548.896	1515.5
549.665	1444.5
550.434	1381.5
551.203	1283.5
551.972	1214.5
552.741	1166.5
553.51	1095.5
554.278	1044.5
555.047	980.5
555.815	921.5
556.584	863.5
557.352	825.5
558.121	773.5
558.889	732.5
559.657	689.5
560.425	639.5
561.193	618.5
561.961	577.5
562.729	537.5
563.496	513.5
564.264	477.5
565.032	454.5
565.799	443.5
566.567	403.5
567.334	389.5
568.101	360.5
568.869	336.5
569.636	327.5
570.403	312.5
571.17	281.5
571.937	271.5
572.704	255.5
573.471	239.5
574.237	228.5
575.004	213.5
575.771	200.5
576.537	189.5
577.303	174.5
578.07	165.5
578.836	158.5
579.602	142.5
580.368	141.5
581.134	134.5
581.9	123.5
582.666	116.5
583.432	107.5
584.198	100.5
584.964	103.5
585.729	90.5
586.495	85.5
587.26	81.5
588.025	80.5
588.791	73.5
589.556	68.5
590.321	69.5
591.086	60.5
591.851	60.5
592.616	54.5
593.381	54.5
594.146	50.5
594.911	48.5
595.675	45.5
596.44	44.5
597.204	40.5
597.969	37.5
598.733	37.5
599.497	37.5
600.261	35.5
601.025	32.5
601.79	31.5
602.553	29.5
603.317	26.5
604.081	28.5
604.845	28.5
605.609	24.5
606.372	26.5
607.136	23.5
607.899	22.5
608.662	24.5
609.426	20.5
610.189	18.5
610.952	17.5
611.715	17.5
612.478	20.5
613.241	15.5
614.004	17.5
614.767	16.5
615.529	11.5
616.292	14.5
617.055	11.5
617.817	13.5
618.579	10.5
619.342	12.5
620.104	11.5
620.866	8.5
621.628	11.5
622.39	10.5
623.152	10.5
623.914	10.5
624.676	9.5
625.438	9.5
626.199	6.5
626.961	9.5
627.722	7.5
628.484	7.5
629.245	7.5
630.006	8.5
630.768	7.5
631.529	8.5
632.29	6.5
633.051	7.5
633.812	6.5
634.573	6.5
635.333	8.5
636.094	6.5
636.855	3.5
637.615	5.5
638.376	5.5
639.136	5.5
639.896	5.5
640.657	5.5
641.417	4.5
642.177	2.5
642.937	2.5
643.697	2.5
644.457	5.5
645.216	5.5
645.976	6.5
646.736	3.5
647.495	5.5
648.255	4.5
649.014	2.5
649.774	3.5
650.533	3.5
651.292	1.5
652.051	1.5
652.81	0.5
653.569	2.5
654.328	2.5
655.087	-0.5
655.846	3.5
656.604	4.5
657.363	3.5
658.121	1.5
658.88	4.5
659.638	3.5
660.397	4.5
661.155	0.5
661.913	1.5
662.671	3.5
663.429	1.5
664.187	3.5
664.945	1.5
665.703	2.5
666.46	-0.5
667.218	1.5
667.976	2.5
668.733	1.5
669.49	2.5
670.248	2.5
671.005	3.5
671.762	1.5
672.519	2.5
673.276	2.5
674.033	2.5
674.79	4.5
675.547	1.5
676.304	3.5
677.06	4.5
677.817	1.5
678.574	1.5
679.33	0.5
680.086	2.5
680.843	0.5
681.599	0.5
682.355	1.5
683.111	0.5
683.867	1.5
684.623	1.5
685.379	1.5
686.135	2.5
686.89	0.5
687.646	1.5
688.402	-1.5
689.157	0.5
689.912	1.5
690.668	4.5
691.423	-0.5
692.178	0.5
692.933	0.5
693.688	1.5
694.443	2.5
695.198	-0.5
695.953	1.5
696.708	1.5
697.462	-0.5
698.217	0.5
698.972	0.5
699.726	2.5
700.48	1.5
701.235	-0.5
701.989	2.5
702.743	0.5
703.497	1.5
704.251	3.5
705.005	3.5
705.759	0.5
706.513	0.5
707.266	1.5
708.02	1.5
708.774	1.5
709.527	1.5
710.28	0.5
711.034	1.5
711.787	-0.5
712.54	1.5
713.293	0.5
714.046	2.5
714.799	2.5
715.552	1.5
716.305	1.5
717.058	0.5
717.81	1.5
718.563	-0.5
719.315	3.5
720.068	1.5
720.82	1.5
721.573	4.5
722.325	0.5
723.077	2.5
723.829	-0.5
724.581	3.5
725.333	0.5
726.085	2.5
726.836	1.5
727.588	2.5
728.34	3.5
729.091	0.5
729.843	1.5
730.594	-0.5
731.346	2.5
732.097	2.5
732.848	0.5
733.599	1.5
734.35	1.5
735.101	0.5
735.852	2.5
736.603	3.5
737.354	2.5
738.104	3.5
738.855	2.5
739.605	0.5
740.356	0.5
741.106	2.5
741.856	-0.5
742.607	1.5
743.357	1.5
744.107	0.5
744.857	1.5
745.607	1.5
746.357	3.5
747.106	1.5
747.856	2.5
748.606	3.5
749.355	3.5
750.105	4.5
750.854	-0.5
751.603	4.5
752.353	0.5
753.102	3.5
753.851	0.5
754.6	4.5
755.349	1.5
756.098	3.5
756.847	3.5
757.595	-0.5
758.344	2.5
759.093	2.5
759.841	2.5
760.589	2.5
761.338	2.5
762.086	3.5
762.834	1.5
763.582	4.5
764.331	1.5
765.079	1.5
765.826	3.5
766.574	4.5
767.322	5.5
768.07	0.5
768.817	5.5
769.565	3.5
770.312	3.5
771.06	4.5
771.807	3.5
772.554	4.5
773.302	4.5
774.049	3.5
774.796	4.5
775.543	3.5
776.29	6.5
777.036	3.5
777.783	4.5
778.53	4.5
779.276	6.5
780.023	2.5
780.769	4.5
781.516	5.5
782.262	3.5
783.008	3.5
783.754	5.5
784.5	4.5
785.246	3.5
785.992	5.5
786.738	6.5
787.484	5.5
788.23	4.5
788.975	4.5
789.721	6.5
790.466	4.5
791.212	5.5
791.957	5.5
792.702	4.5
793.447	4.5
794.193	1.5
794.938	5.5
795.683	6.5
796.427	2.5
797.172	4.5
797.917	5.5
798.662	2.5
799.406	4.5
800.151	4.5
800.895	2.5
801.64	2.5
802.384	6.5
803.128	3.5
803.872	3.5
804.616	1.5
805.36	4.5
806.104	4.5
806.848	2.5
807.592	3.5
808.336	1.5
809.079	2.5
809.823	0.5
810.566	3.5
811.31	3.5
812.053	2.5
812.796	3.5
813.539	1.5
814.283	2.5
815.026	2.5
815.769	6.5
816.511	2.5
817.254	3.5
817.997	3.5
818.74	3.5
819.482	3.5
820.225	-1.5
820.967	1.5
821.71	0.5
822.452	-0.5
823.194	1.5
823.936	3.5
824.678	4.5
825.42	5.5
826.162	2.5
826.904	0.5
827.646	1.5
828.388	0.5
829.129	1.5
829.871	0.5
830.612	0.5
831.354	2.5
832.095	1.5
832.836	1.5
833.577	1.5
834.319	-1.5
835.06	0.5
835.801	1.5
836.542	2.5
837.282	0.5
838.023	0.5
838.764	2.5
839.504	0.5
840.245	1.5
840.985	2.5
841.726	0.5
842.466	0.5
843.206	1.5
843.946	3.5
844.687	0.5
845.427	2.5
846.166	2.5
846.906	1.5
847.646	2.5
848.386	1.5
849.125	0.5
849.865	2.5
850.605	-0.5
851.344	1.5
852.083	1.5
852.823	1.5
853.562	1.5
854.301	1.5
855.04	1.5
855.779	-0.5
856.518	-0.5
857.257	-0.5
857.995	1.5
858.734	0.5
859.473	-0.5
860.211	2.5
860.95	0.5
861.688	1.5
862.426	1.5
863.165	0.5
863.903	1.5
864.641	0.5
865.379	0.5
866.117	-0.5
866.855	0.5
867.593	1.5
868.33	-1.5
869.068	0.5
869.806	2.5
870.543	0.5
871.28	0.5
872.018	0.5
872.755	-2.5
873.492	2.5
874.229	-0.5
874.967	1.5
875.703	-1.5
876.44	0.5
877.177	0.5
877.914	-0.5
878.651	0.5
879.387	-0.5
880.124	3.5
880.86	1.5
881.597	2.5
882.333	0.5
883.069	-0.5
883.806	1.5
884.542	-1.5
885.278	-1.5
886.014	-0.5
886.749	0.5
887.485	2.5
888.221	0.5
888.957	0.5
889.692	0.5
890.428	1.5
891.163	-0.5
891.899	1.5
892.634	-0.5
893.369	0.5
894.104	1.5
894.839	-0.5
895.574	-0.5
896.309	0.5
897.044	-1.5
897.779	2.5
898.514	0.5
899.248	-0.5
899.983	-2.5
900.717	0.5
901.452	-0.5
902.186	-1.5
902.92	-0.5
903.654	0.5
904.389	-1.5
905.123	-0.5
905.857	-0.5
906.59	2.5
907.324	-0.5
908.058	-0.5
908.792	-0.5
909.525	-0.5
910.259	0.5
910.992	-0.5
911.726	-1.5
912.459	-0.5
913.192	0.5
913.925	0.5
914.658	-2.5
915.391	0.5
916.124	1.5
916.857	-1.5
917.59	-1.5
918.323	-0.5
919.055	-0.5
919.788	2.5
920.521	-0.5
921.253	1.5
921.985	0.5
922.718	-0.5
923.45	-0.5
924.182	-1.5
924.914	0.5
925.646	-0.5
926.378	-0.5
927.11	0.5
927.841	1.5
928.573	-0.5
929.305	-1.5
930.036	-1.5
930.768	1.5
931.499	0.5
932.23	0.5
932.962	-0.5
933.693	0.5
934.424	-1.5
935.155	0.5
935.886	-0.5
936.617	0.5
937.348	-0.5
938.078	-1.5
938.809	0.5
939.54	-2.5
940.27	1.5
941.001	-0.5
941.731	1.5
942.461	1.5
943.191	-0.5
943.922	-1.5
944.652	0.5
945.382	2.5
946.112	0.5
946.841	-0.5
947.571	2.5
948.301	-2.5
949.031	0.5
949.76	-1.5
950.49	-0.5
951.219	0.5
951.948	0.5
952.678	0.5
953.407	0.5
954.136	-2.5
954.865	-0.5
955.594	1.5
956.323	0.5
957.052	-2.5
957.78	-0.5
958.509	-1.5
959.238	0.5
959.966	-0.5
960.695	-0.5
961.423	-0.5
962.151	-1.5
962.88	-0.5
963.608	0.5
964.336	-1.5
965.064	1.5
965.792	0.5
966.52	-0.5
967.247	-2.5
967.975	0.5
968.703	-2.5
969.43	1.5
970.158	-1.5
970.885	-0.5
971.613	0.5
972.34	-2.5
973.067	-1.5
973.794	-1.5
974.521	-0.5
975.248	-0.5
975.975	-2.5
976.702	-1.5
977.429	-0.5
978.156	0.5
978.882	-2.5
979.609	0.5
980.335	-0.5
981.062	0.5
981.788	-1.5
982.514	-1.5
983.24	-0.5
983.967	-1.5
984.693	-1.5
985.419	-0.5
986.144	-0.5
986.87	1.5
987.596	-1.5
988.322	-0.5
989.047	-2.5
989.773	-4.5
990.498	-0.5
991.224	-1.5
991.949	-0.5
992.674	0.5
993.399	2.5
994.124	-0.5
994.849	-0.5
995.574	-1.5
996.299	-1.5
997.024	-0.5
997.749	-3.5
998.473	-1.5
999.198	-2.5
999.922	-0.5
1000.647	-0.5
1001.371	4.5
1002.095	0.5
1002.82	0.5
1003.544	-1.5
1004.268	-2.5
1004.992	-1.5
1005.716	-2.5
1006.439	-1.5
1007.163	-1.5
1007.887	-2.5
1008.611	0.5
1009.334	0.5
1010.058	-1.5
1010.781	0.5
1011.504	1.5
1012.228	-1.5
1012.951	-0.5
1013.674	-3.5
1014.397	0.5
1015.12	-0.5
