节点500_145_QEPB04081__343__11-34-25-549.txt的数据

Date: Wed Nov 12 11:34:25 CST 2025
User: PC
Spectrometer: QEPB0408
触发模式: 0
积分时间 (秒): 1.000000E-2
Scans to average: 1
启用暗噪声校正: true
启用非线性校正: false
滑动平均宽度: 0
X轴模式: Wavelengths
Number of Pixels in Spectrum: 1044
>>>>>Begin Spectral Data<<<<<
220.843	-1
221.644	-2
222.444	-1
223.244	-1
224.045	-1
224.845	-2
225.645	1
226.445	0
227.245	1
228.045	-1
228.845	3
229.645	1
230.444	-1
231.244	0
232.043	2
232.843	1
233.642	3
234.442	2
235.241	1
236.04	0
236.839	0
237.638	1
238.437	1
239.236	0
240.035	2
240.833	1
241.632	0
242.43	1
243.229	1
244.027	2
244.826	5
245.624	2
246.422	3
247.22	2
248.018	2
248.816	3
249.614	4
250.412	3
251.21	3
252.007	3
252.805	5
253.602	2
254.4	2
255.197	3
255.994	3
256.791	3
257.589	3
258.386	4
259.183	1
259.979	4
260.776	4
261.573	4
262.37	4
263.166	5
263.963	5
264.759	4
265.556	6
266.352	7
267.148	7
267.944	7
268.74	7
269.536	6
270.332	8
271.128	7
271.924	5
272.719	6
273.515	10
274.311	7
275.106	8
275.901	8
276.697	9
277.492	10
278.287	9
279.082	10
279.877	8
280.672	10
281.467	10
282.262	12
283.056	13
283.851	12
284.646	12
285.44	12
286.234	10
287.029	10
287.823	10
288.617	11
289.411	11
290.205	12
290.999	13
291.793	12
292.587	10
293.381	11
294.174	7
294.968	9
295.761	9
296.555	10
297.348	10
298.141	8
298.935	11
299.728	9
300.521	9
301.314	12
302.107	7
302.899	8
303.692	6
304.485	8
305.277	9
306.07	6
306.862	8
307.655	8
308.447	5
309.239	6
310.031	11
310.823	7
311.615	6
312.407	7
313.199	5
313.991	7
314.783	3
315.574	5
316.366	6
317.157	6
317.949	4
318.74	4
319.531	5
320.322	2
321.113	4
321.904	5
322.695	6
323.486	7
324.277	4
325.068	4
325.858	6
326.649	2
327.439	5
328.23	4
329.02	2
329.81	4
330.6	7
331.391	2
332.181	3
332.971	2
333.76	4
334.55	4
335.34	4
336.13	3
336.919	2
337.709	3
338.498	5
339.287	4
340.077	3
340.866	5
341.655	4
342.444	3
343.233	3
344.022	3
344.811	2
345.6	5
346.388	4
347.177	5
347.965	3
348.754	2
349.542	3
350.33	2
351.119	3
351.907	3
352.695	2
353.483	3
354.271	2
355.059	2
355.846	1
356.634	5
357.422	3
358.209	3
358.997	1
359.784	2
360.571	1
361.359	3
362.146	1
362.933	3
363.72	3
364.507	5
365.294	2
366.081	1
366.867	3
367.654	4
368.44	4
369.227	1
370.013	2
370.8	2
371.586	0
372.372	1
373.158	1
373.944	1
374.73	3
375.516	5
376.302	0
377.088	6
377.873	4
378.659	3
379.445	3
380.23	2
381.015	2
381.801	2
382.586	4
383.371	2
384.156	3
384.941	1
385.726	3
386.511	2
387.296	3
388.08	3
388.865	4
389.649	2
390.434	4
391.218	2
392.003	4
392.787	1
393.571	5
394.355	3
395.139	2
395.923	2
396.707	1
397.491	4
398.274	4
399.058	2
399.842	5
400.625	2
401.408	3
402.192	4
402.975	4
403.758	2
404.541	4
405.324	4
406.107	6
406.89	6
407.673	2
408.456	4
409.238	5
410.021	3
410.803	5
411.586	4
412.368	2
413.151	4
413.933	9
414.715	2
415.497	7
416.279	5
417.061	5
417.843	7
418.624	5
419.406	5
420.188	5
420.969	6
421.751	4
422.532	5
423.313	6
424.095	4
424.876	7
425.657	6
426.438	6
427.219	7
428	7
428.78	7
429.561	8
430.342	7
431.122	7
431.903	9
432.683	7
433.464	9
434.244	7
435.024	8
435.804	11
436.584	8
437.364	10
438.144	13
438.924	11
439.704	10
440.483	11
441.263	14
442.042	12
442.822	10
443.601	17
444.38	14
445.16	14
445.939	17
446.718	15
447.497	21
448.276	22
449.054	18
449.833	24
450.612	25
451.391	26
452.169	30
452.948	34
453.726	36
454.504	36
455.282	38
456.061	48
456.839	49
457.617	54
458.395	61
459.172	67
459.95	74
460.728	81
461.506	95
462.283	112
463.061	121
463.838	126
464.615	140
465.393	159
466.17	176
466.947	200
467.724	222
468.501	252
469.278	282
470.055	308
470.831	335
471.608	374
472.385	426
473.161	455
473.938	517
474.714	573
475.49	636
476.266	696
477.043	774
477.819	867
478.595	947
479.371	1047
480.146	1156
480.922	1278
481.698	1405
482.473	1548
483.249	1705
484.024	1877
484.8	2046
485.575	2275
486.35	2468
487.126	2752
487.901	3040
488.676	3346
489.451	3669
490.225	4030
491	4409
491.775	4854
492.55	5285
493.324	5792
494.099	6339
494.873	6929
495.647	7501
496.422	8184
497.196	8836
497.97	9540
498.744	10293
499.518	11028
500.292	11688
501.066	12422
501.839	13104
502.613	13755
503.387	14377
504.16	14984
504.934	15407
505.707	15764
506.48	16043
507.253	16204
508.027	16314
508.8	16284
509.573	16123
510.346	16009
511.118	15648
511.891	15246
512.664	14804
513.437	14345
514.209	13787
514.982	13305
515.754	12719
516.526	12232
517.298	11725
518.071	11175
518.843	10686
519.615	10207
520.387	9793
521.159	9438
521.93	9075
522.702	8664
523.474	8329
524.245	7998
525.017	7664
525.788	7392
526.56	7081
527.331	6795
528.102	6471
528.873	6204
529.644	5917
530.415	5669
531.186	5427
531.957	5151
532.728	4857
533.498	4578
534.269	4360
535.039	4109
535.81	3905
536.58	3703
537.351	3453
538.121	3292
538.891	3095
539.661	2926
540.431	2759
541.201	2642
541.971	2480
542.741	2375
543.51	2231
544.28	2137
545.05	2019
545.819	1915
546.588	1832
547.358	1738
548.127	1648
548.896	1569
549.665	1492
550.434	1416
551.203	1345
551.972	1260
552.741	1196
553.51	1137
554.278	1080
555.047	1003
555.815	955
556.584	904
557.352	850
558.121	796
558.889	757
559.657	720
560.425	669
561.193	632
561.961	593
562.729	556
563.496	532
564.264	509
565.032	475
565.799	453
566.567	423
567.334	400
568.101	380
568.869	361
569.636	334
570.403	317
571.17	301
571.937	295
572.704	270
573.471	250
574.237	235
575.004	225
575.771	212
576.537	195
577.303	189
578.07	174
578.836	167
579.602	159
580.368	146
581.134	138
581.9	126
582.666	127
583.432	120
584.198	111
584.964	104
585.729	98
586.495	94
587.26	90
588.025	82
588.791	80
589.556	75
590.321	71
591.086	68
591.851	66
592.616	60
593.381	57
594.146	56
594.911	51
595.675	50
596.44	49
597.204	44
597.969	41
598.733	40
599.497	40
600.261	38
601.025	35
601.79	35
602.553	33
603.317	30
604.081	28
604.845	29
605.609	27
606.372	26
607.136	23
607.899	24
608.662	23
609.426	22
610.189	21
610.952	18
611.715	19
612.478	19
613.241	18
614.004	16
614.767	14
615.529	15
616.292	13
617.055	16
617.817	14
618.579	14
619.342	15
620.104	14
620.866	14
621.628	9
622.39	13
623.152	11
623.914	11
624.676	9
625.438	12
626.199	12
626.961	11
627.722	9
628.484	9
629.245	6
630.006	9
630.768	7
631.529	8
632.29	7
633.051	8
633.812	6
634.573	9
635.333	8
636.094	6
636.855	7
637.615	7
638.376	4
639.136	5
639.896	7
640.657	5
641.417	2
642.177	5
642.937	4
643.697	6
644.457	5
645.216	5
645.976	4
646.736	5
647.495	6
648.255	5
649.014	5
649.774	5
650.533	1
651.292	2
652.051	2
652.81	6
653.569	1
654.328	4
655.087	3
655.846	4
656.604	1
657.363	1
658.121	5
658.88	4
659.638	5
660.397	3
661.155	1
661.913	2
662.671	1
663.429	4
664.187	2
664.945	4
665.703	0
666.46	3
667.218	3
667.976	2
668.733	2
669.49	4
670.248	2
671.005	3
671.762	2
672.519	3
673.276	0
674.033	1
674.79	0
675.547	3
676.304	1
677.06	2
677.817	2
678.574	0
679.33	3
680.086	2
680.843	1
681.599	2
682.355	2
683.111	3
683.867	3
684.623	-1
685.379	0
686.135	2
686.89	1
687.646	1
688.402	1
689.157	0
689.912	0
690.668	2
691.423	1
692.178	1
692.933	0
693.688	2
694.443	0
695.198	3
695.953	2
696.708	2
697.462	4
698.217	1
698.972	2
699.726	1
700.48	1
701.235	4
701.989	1
702.743	3
703.497	1
704.251	1
705.005	3
705.759	3
706.513	2
707.266	2
708.02	2
708.774	2
709.527	2
710.28	0
711.034	1
711.787	0
712.54	4
713.293	2
714.046	-1
714.799	2
715.552	2
716.305	2
717.058	3
717.81	1
718.563	3
719.315	0
720.068	1
720.82	1
721.573	2
722.325	2
723.077	2
723.829	2
724.581	1
725.333	2
726.085	1
726.836	2
727.588	1
728.34	2
729.091	3
729.843	2
730.594	2
731.346	0
732.097	1
732.848	2
733.599	1
734.35	5
735.101	1
735.852	2
736.603	0
737.354	2
738.104	5
738.855	3
739.605	3
740.356	1
741.106	2
741.856	5
742.607	3
743.357	0
744.107	2
744.857	1
745.607	4
746.357	4
747.106	2
747.856	0
748.606	1
749.355	1
750.105	2
750.854	5
751.603	3
752.353	3
753.102	2
753.851	4
754.6	2
755.349	4
756.098	1
756.847	2
757.595	5
758.344	2
759.093	5
759.841	3
760.589	2
761.338	1
762.086	3
762.834	3
763.582	2
764.331	4
765.079	3
765.826	4
766.574	5
767.322	6
768.07	2
768.817	1
769.565	5
770.312	4
771.06	6
771.807	4
772.554	6
773.302	4
774.049	2
774.796	7
775.543	1
776.29	3
777.036	5
777.783	3
778.53	2
779.276	5
780.023	4
780.769	5
781.516	8
782.262	0
783.008	5
783.754	3
784.5	7
785.246	5
785.992	5
786.738	4
787.484	7
788.23	6
788.975	5
789.721	2
790.466	5
791.212	6
791.957	5
792.702	5
793.447	6
794.193	5
794.938	4
795.683	5
796.427	3
797.172	3
797.917	5
798.662	5
799.406	4
800.151	3
800.895	7
801.64	4
802.384	4
803.128	7
803.872	4
804.616	5
805.36	2
806.104	4
806.848	3
807.592	5
808.336	5
809.079	5
809.823	4
810.566	2
811.31	5
812.053	2
812.796	1
813.539	3
814.283	2
815.026	2
815.769	0
816.511	4
817.254	1
817.997	3
818.74	2
819.482	0
820.225	4
820.967	2
821.71	2
822.452	3
823.194	3
823.936	3
824.678	3
825.42	5
826.162	2
826.904	6
827.646	1
828.388	4
829.129	1
829.871	1
830.612	3
831.354	1
832.095	3
832.836	2
833.577	2
834.319	3
835.06	2
835.801	3
836.542	2
837.282	4
838.023	2
838.764	1
839.504	1
840.245	2
840.985	2
841.726	2
842.466	2
843.206	1
843.946	2
844.687	3
845.427	0
846.166	1
846.906	1
847.646	1
848.386	1
849.125	3
849.865	1
850.605	0
851.344	3
852.083	2
852.823	1
853.562	0
854.301	0
855.04	1
855.779	3
856.518	2
857.257	1
857.995	2
858.734	3
859.473	1
860.211	2
860.95	0
861.688	0
862.426	1
863.165	-1
863.903	1
864.641	1
865.379	4
866.117	-2
866.855	0
867.593	2
868.33	1
869.068	2
869.806	0
870.543	1
871.28	1
872.018	2
872.755	0
873.492	1
874.229	1
874.967	1
875.703	-1
876.44	0
877.177	0
877.914	1
878.651	1
879.387	1
880.124	1
880.86	0
881.597	1
882.333	-1
883.069	-1
883.806	2
884.542	0
885.278	0
886.014	0
886.749	0
887.485	1
888.221	0
888.957	0
889.692	1
890.428	2
891.163	0
891.899	-1
892.634	0
893.369	0
894.104	2
894.839	0
895.574	1
896.309	2
897.044	-2
897.779	0
898.514	-2
899.248	1
899.983	0
900.717	0
901.452	1
902.186	0
902.92	0
903.654	1
904.389	-2
905.123	-2
905.857	-1
906.59	0
907.324	0
908.058	0
908.792	-2
909.525	-1
910.259	-1
910.992	0
911.726	1
912.459	0
913.192	2
913.925	-2
914.658	1
915.391	0
916.124	1
916.857	-1
917.59	-2
918.323	2
919.055	0
919.788	-2
920.521	0
921.253	2
921.985	1
922.718	0
923.45	1
924.182	0
924.914	2
925.646	1
926.378	0
927.11	1
927.841	1
928.573	2
929.305	0
930.036	-1
930.768	2
931.499	-2
932.23	-1
932.962	0
933.693	1
934.424	2
935.155	1
935.886	0
936.617	-2
937.348	2
938.078	-1
938.809	-2
939.54	1
940.27	0
941.001	0
941.731	-1
942.461	0
943.191	1
943.922	0
944.652	1
945.382	1
946.112	-1
946.841	0
947.571	-1
948.301	-1
949.031	1
949.76	0
950.49	-1
951.219	0
951.948	-3
952.678	1
953.407	-1
954.136	0
954.865	-1
955.594	-1
956.323	2
957.052	-1
957.78	1
958.509	0
959.238	0
959.966	-2
960.695	0
961.423	0
962.151	-1
962.88	2
963.608	1
964.336	-1
965.064	1
965.792	1
966.52	-1
967.247	0
967.975	0
968.703	-2
969.43	1
970.158	1
970.885	0
971.613	1
972.34	0
973.067	2
973.794	-1
974.521	-1
975.248	0
975.975	0
976.702	5
977.429	-2
978.156	1
978.882	1
979.609	1
980.335	-1
981.062	0
981.788	-2
982.514	0
983.24	5
983.967	1
984.693	0
985.419	1
986.144	-1
986.87	-1
987.596	1
988.322	-1
989.047	0
989.773	-1
990.498	1
991.224	-2
991.949	1
992.674	-2
993.399	0
994.124	0
994.849	1
995.574	0
996.299	-2
997.024	2
997.749	0
998.473	0
999.198	2
999.922	-1
1000.647	2
1001.371	2
1002.095	1
1002.82	-2
1003.544	-2
1004.268	0
1004.992	-2
1005.716	2
1006.439	1
1007.163	1
1007.887	-2
1008.611	-1
1009.334	1
1010.058	-1
1010.781	0
1011.504	0
1012.228	-1
1012.951	1
1013.674	-1
1014.397	1
1015.12	0
