节点500_145_QEPB04081__436__11-35-55-536.txt的数据

Date: Wed Nov 12 11:35:55 CST 2025
User: PC
Spectrometer: QEPB0408
触发模式: 0
积分时间 (秒): 1.000000E-2
Scans to average: 1
启用暗噪声校正: true
启用非线性校正: false
滑动平均宽度: 0
X轴模式: Wavelengths
Number of Pixels in Spectrum: 1044
>>>>>Begin Spectral Data<<<<<
220.843	1.12
221.644	1.12
222.444	1.12
223.244	-0.88
224.045	1.12
224.845	3.12
225.645	3.12
226.445	-0.88
227.245	2.12
228.045	1.12
228.845	0.12
229.645	0.12
230.444	1.12
231.244	1.12
232.043	0.12
232.843	2.12
233.642	2.12
234.442	2.12
235.241	1.12
236.04	-0.88
236.839	2.12
237.638	1.12
238.437	4.12
239.236	2.12
240.035	3.12
240.833	3.12
241.632	2.12
242.43	1.12
243.229	3.12
244.027	1.12
244.826	3.12
245.624	3.12
246.422	4.12
247.22	2.12
248.018	4.12
248.816	3.12
249.614	4.12
250.412	2.12
251.21	2.12
252.007	0.12
252.805	3.12
253.602	2.12
254.4	2.12
255.197	4.12
255.994	2.12
256.791	5.12
257.589	6.12
258.386	2.12
259.183	6.12
259.979	2.12
260.776	5.12
261.573	3.12
262.37	4.12
263.166	5.12
263.963	3.12
264.759	6.12
265.556	6.12
266.352	4.12
267.148	7.12
267.944	4.12
268.74	10.12
269.536	8.12
270.332	8.12
271.128	8.12
271.924	8.12
272.719	10.12
273.515	8.12
274.311	7.12
275.106	9.12
275.901	8.12
276.697	10.12
277.492	9.12
278.287	8.12
279.082	8.12
279.877	12.12
280.672	11.12
281.467	11.12
282.262	12.12
283.056	12.12
283.851	9.12
284.646	11.12
285.44	11.12
286.234	13.12
287.029	11.12
287.823	12.12
288.617	10.12
289.411	11.12
290.205	9.12
290.999	13.12
291.793	8.12
292.587	12.12
293.381	8.12
294.174	11.12
294.968	11.12
295.761	12.12
296.555	10.12
297.348	12.12
298.141	10.12
298.935	13.12
299.728	11.12
300.521	10.12
301.314	6.12
302.107	10.12
302.899	9.12
303.692	10.12
304.485	10.12
305.277	10.12
306.07	8.12
306.862	7.12
307.655	8.12
308.447	10.12
309.239	10.12
310.031	6.12
310.823	6.12
311.615	9.12
312.407	8.12
313.199	8.12
313.991	7.12
314.783	7.12
315.574	7.12
316.366	6.12
317.157	8.12
317.949	6.12
318.74	7.12
319.531	5.12
320.322	6.12
321.113	4.12
321.904	4.12
322.695	6.12
323.486	2.12
324.277	5.12
325.068	3.12
325.858	6.12
326.649	6.12
327.439	3.12
328.23	7.12
329.02	4.12
329.81	4.12
330.6	5.12
331.391	4.12
332.181	5.12
332.971	5.12
333.76	6.12
334.55	4.12
335.34	6.12
336.13	5.12
336.919	2.12
337.709	4.12
338.498	7.12
339.287	4.12
340.077	4.12
340.866	3.12
341.655	7.12
342.444	3.12
343.233	3.12
344.022	1.12
344.811	5.12
345.6	3.12
346.388	4.12
347.177	4.12
347.965	5.12
348.754	3.12
349.542	4.12
350.33	3.12
351.119	5.12
351.907	2.12
352.695	3.12
353.483	3.12
354.271	5.12
355.059	4.12
355.846	4.12
356.634	3.12
357.422	2.12
358.209	5.12
358.997	4.12
359.784	2.12
360.571	3.12
361.359	4.12
362.146	4.12
362.933	2.12
363.72	4.12
364.507	2.12
365.294	3.12
366.081	3.12
366.867	5.12
367.654	2.12
368.44	6.12
369.227	2.12
370.013	2.12
370.8	3.12
371.586	2.12
372.372	2.12
373.158	5.12
373.944	2.12
374.73	4.12
375.516	3.12
376.302	3.12
377.088	2.12
377.873	4.12
378.659	3.12
379.445	2.12
380.23	3.12
381.015	5.12
381.801	2.12
382.586	2.12
383.371	2.12
384.156	2.12
384.941	4.12
385.726	5.12
386.511	2.12
387.296	5.12
388.08	2.12
388.865	5.12
389.649	3.12
390.434	4.12
391.218	2.12
392.003	3.12
392.787	3.12
393.571	3.12
394.355	4.12
395.139	4.12
395.923	3.12
396.707	3.12
397.491	4.12
398.274	6.12
399.058	4.12
399.842	6.12
400.625	6.12
401.408	2.12
402.192	3.12
402.975	4.12
403.758	2.12
404.541	7.12
405.324	6.12
406.107	4.12
406.89	2.12
407.673	5.12
408.456	3.12
409.238	6.12
410.021	5.12
410.803	6.12
411.586	5.12
412.368	4.12
413.151	4.12
413.933	5.12
414.715	6.12
415.497	4.12
416.279	6.12
417.061	7.12
417.843	3.12
418.624	8.12
419.406	4.12
420.188	4.12
420.969	5.12
421.751	4.12
422.532	5.12
423.313	5.12
424.095	6.12
424.876	6.12
425.657	7.12
426.438	6.12
427.219	7.12
428	9.12
428.78	4.12
429.561	8.12
430.342	8.12
431.122	8.12
431.903	7.12
432.683	6.12
433.464	9.12
434.244	8.12
435.024	11.12
435.804	11.12
436.584	9.12
437.364	8.12
438.144	10.12
438.924	13.12
439.704	13.12
440.483	11.12
441.263	12.12
442.042	13.12
442.822	15.12
443.601	15.12
444.38	15.12
445.16	16.12
445.939	20.12
446.718	22.12
447.497	18.12
448.276	22.12
449.054	22.12
449.833	28.12
450.612	25.12
451.391	31.12
452.169	28.12
452.948	34.12
453.726	36.12
454.504	39.12
455.282	46.12
456.061	50.12
456.839	50.12
457.617	61.12
458.395	66.12
459.172	73.12
459.95	79.12
460.728	84.12
461.506	95.12
462.283	106.12
463.061	122.12
463.838	130.12
464.615	155.12
465.393	167.12
466.17	183.12
466.947	207.12
467.724	231.12
468.501	263.12
469.278	283.12
470.055	317.12
470.831	343.12
471.608	392.12
472.385	422.12
473.161	474.12
473.938	522.12
474.714	581.12
475.49	641.12
476.266	718.12
477.043	786.12
477.819	872.12
478.595	961.12
479.371	1062.12
480.146	1174.12
480.922	1274.12
481.698	1415.12
482.473	1540.12
483.249	1678.12
484.024	1869.12
484.8	2073.12
485.575	2258.12
486.35	2474.12
487.126	2714.12
487.901	2998.12
488.676	3244.12
489.451	3601.12
490.225	3929.12
491	4297.12
491.775	4692.12
492.55	5144.12
493.324	5631.12
494.099	6130.12
494.873	6660.12
495.647	7295.12
496.422	7913.12
497.196	8547.12
497.97	9176.12
498.744	9862.12
499.518	10567.12
500.292	11309.12
501.066	11983.12
501.839	12643.12
502.613	13287.12
503.387	13852.12
504.16	14460.12
504.934	14888.12
505.707	15315.12
506.48	15596.12
507.253	15854.12
508.027	15892.12
508.8	15983.12
509.573	15952.12
510.346	15734.12
511.118	15512.12
511.891	15132.12
512.664	14717.12
513.437	14281.12
514.209	13801.12
514.982	13244.12
515.754	12760.12
516.526	12265.12
517.298	11718.12
518.071	11256.12
518.843	10757.12
519.615	10265.12
520.387	9830.12
521.159	9452.12
521.93	9053.12
522.702	8718.12
523.474	8396.12
524.245	8047.12
525.017	7733.12
525.788	7444.12
526.56	7137.12
527.331	6822.12
528.102	6548.12
528.873	6291.12
529.644	5970.12
530.415	5701.12
531.186	5469.12
531.957	5189.12
532.728	4950.12
533.498	4676.12
534.269	4432.12
535.039	4208.12
535.81	3942.12
536.58	3751.12
537.351	3528.12
538.121	3356.12
538.891	3154.12
539.661	2981.12
540.431	2821.12
541.201	2667.12
541.971	2531.12
542.741	2404.12
543.51	2292.12
544.28	2162.12
545.05	2055.12
545.819	1954.12
546.588	1850.12
547.358	1763.12
548.127	1679.12
548.896	1597.12
549.665	1519.12
550.434	1429.12
551.203	1374.12
551.972	1289.12
552.741	1224.12
553.51	1180.12
554.278	1103.12
555.047	1053.12
555.815	980.12
556.584	927.12
557.352	873.12
558.121	832.12
558.889	783.12
559.657	733.12
560.425	687.12
561.193	649.12
561.961	614.12
562.729	585.12
563.496	547.12
564.264	515.12
565.032	484.12
565.799	461.12
566.567	435.12
567.334	408.12
568.101	386.12
568.869	366.12
569.636	339.12
570.403	324.12
571.17	310.12
571.937	292.12
572.704	276.12
573.471	258.12
574.237	235.12
575.004	229.12
575.771	214.12
576.537	201.12
577.303	194.12
578.07	180.12
578.836	169.12
579.602	163.12
580.368	150.12
581.134	144.12
581.9	136.12
582.666	131.12
583.432	120.12
584.198	114.12
584.964	105.12
585.729	105.12
586.495	95.12
587.26	97.12
588.025	85.12
588.791	81.12
589.556	77.12
590.321	75.12
591.086	71.12
591.851	65.12
592.616	62.12
593.381	59.12
594.146	58.12
594.911	55.12
595.675	52.12
596.44	50.12
597.204	48.12
597.969	46.12
598.733	43.12
599.497	40.12
600.261	39.12
601.025	38.12
601.79	34.12
602.553	31.12
603.317	34.12
604.081	31.12
604.845	33.12
605.609	27.12
606.372	27.12
607.136	28.12
607.899	27.12
608.662	27.12
609.426	25.12
610.189	22.12
610.952	19.12
611.715	22.12
612.478	19.12
613.241	18.12
614.004	18.12
614.767	19.12
615.529	15.12
616.292	18.12
617.055	15.12
617.817	15.12
618.579	14.12
619.342	16.12
620.104	15.12
620.866	12.12
621.628	13.12
622.39	12.12
623.152	13.12
623.914	11.12
624.676	11.12
625.438	7.12
626.199	9.12
626.961	10.12
627.722	10.12
628.484	9.12
629.245	7.12
630.006	9.12
630.768	9.12
631.529	8.12
632.29	7.12
633.051	8.12
633.812	10.12
634.573	8.12
635.333	6.12
636.094	10.12
636.855	8.12
637.615	6.12
638.376	5.12
639.136	9.12
639.896	6.12
640.657	8.12
641.417	6.12
642.177	4.12
642.937	7.12
643.697	4.12
644.457	6.12
645.216	6.12
645.976	4.12
646.736	5.12
647.495	3.12
648.255	6.12
649.014	4.12
649.774	5.12
650.533	4.12
651.292	4.12
652.051	4.12
652.81	4.12
653.569	4.12
654.328	3.12
655.087	5.12
655.846	3.12
656.604	4.12
657.363	6.12
658.121	3.12
658.88	3.12
659.638	2.12
660.397	8.12
661.155	5.12
661.913	4.12
662.671	3.12
663.429	3.12
664.187	4.12
664.945	2.12
665.703	6.12
666.46	5.12
667.218	2.12
667.976	4.12
668.733	4.12
669.49	5.12
670.248	3.12
671.005	3.12
671.762	5.12
672.519	1.12
673.276	3.12
674.033	4.12
674.79	3.12
675.547	4.12
676.304	5.12
677.06	4.12
677.817	3.12
678.574	4.12
679.33	4.12
680.086	4.12
680.843	3.12
681.599	1.12
682.355	2.12
683.111	1.12
683.867	4.12
684.623	1.12
685.379	3.12
686.135	0.12
686.89	4.12
687.646	2.12
688.402	1.12
689.157	4.12
689.912	2.12
690.668	4.12
691.423	3.12
692.178	2.12
692.933	3.12
693.688	3.12
694.443	1.12
695.198	2.12
695.953	5.12
696.708	3.12
697.462	3.12
698.217	2.12
698.972	3.12
699.726	1.12
700.48	2.12
701.235	0.12
701.989	3.12
702.743	3.12
703.497	1.12
704.251	4.12
705.005	4.12
705.759	2.12
706.513	3.12
707.266	2.12
708.02	4.12
708.774	2.12
709.527	1.12
710.28	2.12
711.034	2.12
711.787	2.12
712.54	5.12
713.293	2.12
714.046	3.12
714.799	1.12
715.552	2.12
716.305	3.12
717.058	4.12
717.81	1.12
718.563	2.12
719.315	2.12
720.068	2.12
720.82	4.12
721.573	1.12
722.325	4.12
723.077	2.12
723.829	3.12
724.581	4.12
725.333	1.12
726.085	5.12
726.836	4.12
727.588	3.12
728.34	2.12
729.091	2.12
729.843	2.12
730.594	1.12
731.346	3.12
732.097	3.12
732.848	1.12
733.599	2.12
734.35	3.12
735.101	2.12
735.852	2.12
736.603	2.12
737.354	3.12
738.104	2.12
738.855	3.12
739.605	2.12
740.356	3.12
741.106	3.12
741.856	3.12
742.607	4.12
743.357	3.12
744.107	3.12
744.857	2.12
745.607	5.12
746.357	3.12
747.106	2.12
747.856	5.12
748.606	2.12
749.355	3.12
750.105	2.12
750.854	6.12
751.603	3.12
752.353	4.12
753.102	3.12
753.851	5.12
754.6	2.12
755.349	3.12
756.098	6.12
756.847	3.12
757.595	5.12
758.344	2.12
759.093	3.12
759.841	6.12
760.589	4.12
761.338	5.12
762.086	2.12
762.834	4.12
763.582	3.12
764.331	3.12
765.079	4.12
765.826	4.12
766.574	6.12
767.322	5.12
768.07	3.12
768.817	5.12
769.565	4.12
770.312	6.12
771.06	1.12
771.807	4.12
772.554	4.12
773.302	7.12
774.049	7.12
774.796	3.12
775.543	6.12
776.29	5.12
777.036	5.12
777.783	3.12
778.53	4.12
779.276	6.12
780.023	6.12
780.769	5.12
781.516	3.12
782.262	6.12
783.008	5.12
783.754	5.12
784.5	7.12
785.246	6.12
785.992	4.12
786.738	5.12
787.484	5.12
788.23	6.12
788.975	6.12
789.721	6.12
790.466	7.12
791.212	4.12
791.957	6.12
792.702	8.12
793.447	3.12
794.193	5.12
794.938	4.12
795.683	5.12
796.427	5.12
797.172	3.12
797.917	8.12
798.662	6.12
799.406	7.12
800.151	5.12
800.895	5.12
801.64	5.12
802.384	4.12
803.128	7.12
803.872	6.12
804.616	5.12
805.36	6.12
806.104	3.12
806.848	5.12
807.592	6.12
808.336	6.12
809.079	5.12
809.823	4.12
810.566	3.12
811.31	4.12
812.053	4.12
812.796	2.12
813.539	5.12
814.283	3.12
815.026	4.12
815.769	5.12
816.511	3.12
817.254	2.12
817.997	2.12
818.74	4.12
819.482	1.12
820.225	5.12
820.967	5.12
821.71	3.12
822.452	4.12
823.194	3.12
823.936	5.12
824.678	3.12
825.42	4.12
826.162	2.12
826.904	3.12
827.646	2.12
828.388	1.12
829.129	4.12
829.871	1.12
830.612	2.12
831.354	2.12
832.095	2.12
832.836	4.12
833.577	2.12
834.319	2.12
835.06	4.12
835.801	2.12
836.542	3.12
837.282	2.12
838.023	4.12
838.764	1.12
839.504	5.12
840.245	3.12
840.985	3.12
841.726	3.12
842.466	4.12
843.206	5.12
843.946	2.12
844.687	6.12
845.427	2.12
846.166	3.12
846.906	1.12
847.646	4.12
848.386	1.12
849.125	3.12
849.865	1.12
850.605	1.12
851.344	2.12
852.083	4.12
852.823	1.12
853.562	4.12
854.301	3.12
855.04	4.12
855.779	1.12
856.518	3.12
857.257	2.12
857.995	2.12
858.734	4.12
859.473	2.12
860.211	2.12
860.95	2.12
861.688	0.12
862.426	3.12
863.165	1.12
863.903	4.12
864.641	3.12
865.379	4.12
866.117	2.12
866.855	4.12
867.593	1.12
868.33	-0.88
869.068	2.12
869.806	-0.88
870.543	2.12
871.28	3.12
872.018	3.12
872.755	2.12
873.492	1.12
874.229	3.12
874.967	-0.88
875.703	2.12
876.44	2.12
877.177	1.12
877.914	3.12
878.651	0.12
879.387	4.12
880.124	2.12
880.86	2.12
881.597	3.12
882.333	3.12
883.069	1.12
883.806	0.12
884.542	2.12
885.278	3.12
886.014	2.12
886.749	-0.88
887.485	2.12
888.221	2.12
888.957	1.12
889.692	3.12
890.428	2.12
891.163	3.12
891.899	1.12
892.634	2.12
893.369	0.12
894.104	1.12
894.839	2.12
895.574	1.12
896.309	2.12
897.044	2.12
897.779	1.12
898.514	1.12
899.248	1.12
899.983	1.12
900.717	1.12
901.452	3.12
902.186	1.12
902.92	2.12
903.654	1.12
904.389	-0.88
905.123	1.12
905.857	1.12
906.59	3.12
907.324	3.12
908.058	-0.88
908.792	1.12
909.525	0.12
910.259	1.12
910.992	0.12
911.726	1.12
912.459	1.12
913.192	2.12
913.925	2.12
914.658	0.12
915.391	2.12
916.124	0.12
916.857	3.12
917.59	0.12
918.323	1.12
919.055	2.12
919.788	0.12
920.521	2.12
921.253	2.12
921.985	1.12
922.718	1.12
923.45	1.12
924.182	1.12
924.914	-0.88
925.646	2.12
926.378	0.12
927.11	2.12
927.841	-0.88
928.573	0.12
929.305	2.12
930.036	1.12
930.768	1.12
931.499	1.12
932.23	0.12
932.962	1.12
933.693	0.12
934.424	1.12
935.155	4.12
935.886	2.12
936.617	0.12
937.348	1.12
938.078	1.12
938.809	1.12
939.54	3.12
940.27	0.12
941.001	2.12
941.731	3.12
942.461	1.12
943.191	2.12
943.922	1.12
944.652	2.12
945.382	1.12
946.112	-0.88
946.841	2.12
947.571	-0.88
948.301	3.12
949.031	0.12
949.76	3.12
950.49	1.12
951.219	0.12
951.948	-0.88
952.678	2.12
953.407	1.12
954.136	2.12
954.865	1.12
955.594	1.12
956.323	0.12
957.052	2.12
957.78	1.12
958.509	1.12
959.238	1.12
959.966	1.12
960.695	2.12
961.423	1.12
962.151	1.12
962.88	0.12
963.608	-0.88
964.336	0.12
965.064	3.12
965.792	2.12
966.52	4.12
967.247	1.12
967.975	-0.88
968.703	2.12
969.43	0.12
970.158	1.12
970.885	1.12
971.613	0.12
972.34	2.12
973.067	1.12
973.794	0.12
974.521	0.12
975.248	1.12
975.975	-0.88
976.702	1.12
977.429	1.12
978.156	0.12
978.882	2.12
979.609	2.12
980.335	1.12
981.062	3.12
981.788	-0.88
982.514	0.12
983.24	0.12
983.967	1.12
984.693	0.12
985.419	2.12
986.144	-0.88
986.87	0.12
987.596	2.12
988.322	0.12
989.047	1.12
989.773	1.12
990.498	3.12
991.224	2.12
991.949	0.12
992.674	2.12
993.399	-0.88
994.124	1.12
994.849	2.12
995.574	1.12
996.299	0.12
997.024	1.12
997.749	1.12
998.473	0.12
999.198	2.12
999.922	1.12
1000.647	3.12
1001.371	2.12
1002.095	-2.88
1002.82	-0.88
1003.544	-0.88
1004.268	-0.88
1004.992	-0.88
1005.716	2.12
1006.439	3.12
1007.163	0.12
1007.887	2.12
1008.611	3.12
1009.334	-0.88
1010.058	1.12
1010.781	-1.88
1011.504	3.12
1012.228	-0.88
1012.951	2.12
1013.674	-0.88
1014.397	-0.88
1015.12	2.12
