节点500_145_QEPB04081__317__11-34-02-495.txt的数据

Date: Wed Nov 12 11:34:02 CST 2025
User: PC
Spectrometer: QEPB0408
触发模式: 0
积分时间 (秒): 1.000000E-2
Scans to average: 1
启用暗噪声校正: true
启用非线性校正: false
滑动平均宽度: 0
X轴模式: Wavelengths
Number of Pixels in Spectrum: 1044
>>>>>Begin Spectral Data<<<<<
220.843	2.62
221.644	0.62
222.444	1.62
223.244	-0.38
224.045	-1.38
224.845	-0.38
225.645	1.62
226.445	-0.38
227.245	-0.38
228.045	-0.38
228.845	-0.38
229.645	0.62
230.444	-1.38
231.244	-1.38
232.043	3.62
232.843	0.62
233.642	0.62
234.442	1.62
235.241	1.62
236.04	-0.38
236.839	0.62
237.638	1.62
238.437	2.62
239.236	1.62
240.035	1.62
240.833	-0.38
241.632	2.62
242.43	-0.38
243.229	2.62
244.027	1.62
244.826	0.62
245.624	2.62
246.422	-0.38
247.22	2.62
248.018	1.62
248.816	2.62
249.614	2.62
250.412	1.62
251.21	2.62
252.007	1.62
252.805	3.62
253.602	1.62
254.4	2.62
255.197	2.62
255.994	3.62
256.791	2.62
257.589	2.62
258.386	5.62
259.183	2.62
259.979	4.62
260.776	4.62
261.573	5.62
262.37	8.62
263.166	2.62
263.963	5.62
264.759	4.62
265.556	4.62
266.352	4.62
267.148	5.62
267.944	5.62
268.74	5.62
269.536	5.62
270.332	5.62
271.128	8.62
271.924	7.62
272.719	7.62
273.515	9.62
274.311	8.62
275.106	10.62
275.901	7.62
276.697	9.62
277.492	9.62
278.287	7.62
279.082	11.62
279.877	7.62
280.672	7.62
281.467	7.62
282.262	10.62
283.056	9.62
283.851	9.62
284.646	11.62
285.44	9.62
286.234	11.62
287.029	9.62
287.823	10.62
288.617	11.62
289.411	9.62
290.205	9.62
290.999	11.62
291.793	10.62
292.587	9.62
293.381	8.62
294.174	7.62
294.968	9.62
295.761	8.62
296.555	9.62
297.348	7.62
298.141	9.62
298.935	10.62
299.728	7.62
300.521	11.62
301.314	8.62
302.107	8.62
302.899	8.62
303.692	5.62
304.485	4.62
305.277	10.62
306.07	6.62
306.862	8.62
307.655	7.62
308.447	6.62
309.239	6.62
310.031	10.62
310.823	6.62
311.615	4.62
312.407	8.62
313.199	4.62
313.991	7.62
314.783	6.62
315.574	5.62
316.366	6.62
317.157	3.62
317.949	4.62
318.74	4.62
319.531	6.62
320.322	4.62
321.113	3.62
321.904	6.62
322.695	5.62
323.486	4.62
324.277	3.62
325.068	7.62
325.858	2.62
326.649	2.62
327.439	3.62
328.23	2.62
329.02	4.62
329.81	4.62
330.6	4.62
331.391	1.62
332.181	5.62
332.971	3.62
333.76	5.62
334.55	3.62
335.34	3.62
336.13	6.62
336.919	5.62
337.709	1.62
338.498	3.62
339.287	3.62
340.077	4.62
340.866	4.62
341.655	5.62
342.444	3.62
343.233	0.62
344.022	3.62
344.811	1.62
345.6	2.62
346.388	3.62
347.177	2.62
347.965	3.62
348.754	2.62
349.542	3.62
350.33	3.62
351.119	2.62
351.907	1.62
352.695	4.62
353.483	4.62
354.271	2.62
355.059	3.62
355.846	1.62
356.634	2.62
357.422	2.62
358.209	3.62
358.997	2.62
359.784	6.62
360.571	4.62
361.359	0.62
362.146	4.62
362.933	1.62
363.72	3.62
364.507	4.62
365.294	2.62
366.081	2.62
366.867	2.62
367.654	4.62
368.44	2.62
369.227	3.62
370.013	-0.38
370.8	4.62
371.586	3.62
372.372	1.62
373.158	4.62
373.944	2.62
374.73	2.62
375.516	2.62
376.302	1.62
377.088	3.62
377.873	3.62
378.659	2.62
379.445	3.62
380.23	4.62
381.015	4.62
381.801	1.62
382.586	3.62
383.371	2.62
384.156	4.62
384.941	3.62
385.726	3.62
386.511	2.62
387.296	1.62
388.08	2.62
388.865	3.62
389.649	4.62
390.434	0.62
391.218	2.62
392.003	3.62
392.787	2.62
393.571	2.62
394.355	2.62
395.139	4.62
395.923	2.62
396.707	3.62
397.491	4.62
398.274	3.62
399.058	3.62
399.842	2.62
400.625	3.62
401.408	5.62
402.192	3.62
402.975	4.62
403.758	0.62
404.541	5.62
405.324	4.62
406.107	3.62
406.89	1.62
407.673	2.62
408.456	5.62
409.238	4.62
410.021	3.62
410.803	2.62
411.586	3.62
412.368	4.62
413.151	3.62
413.933	4.62
414.715	4.62
415.497	2.62
416.279	7.62
417.061	4.62
417.843	6.62
418.624	4.62
419.406	4.62
420.188	6.62
420.969	7.62
421.751	7.62
422.532	5.62
423.313	3.62
424.095	5.62
424.876	6.62
425.657	6.62
426.438	5.62
427.219	4.62
428	4.62
428.78	6.62
429.561	7.62
430.342	9.62
431.122	6.62
431.903	8.62
432.683	8.62
433.464	8.62
434.244	9.62
435.024	7.62
435.804	6.62
436.584	6.62
437.364	10.62
438.144	11.62
438.924	9.62
439.704	8.62
440.483	10.62
441.263	12.62
442.042	11.62
442.822	12.62
443.601	12.62
444.38	12.62
445.16	14.62
445.939	12.62
446.718	17.62
447.497	14.62
448.276	18.62
449.054	19.62
449.833	23.62
450.612	23.62
451.391	23.62
452.169	27.62
452.948	31.62
453.726	30.62
454.504	35.62
455.282	38.62
456.061	43.62
456.839	46.62
457.617	55.62
458.395	51.62
459.172	62.62
459.95	68.62
460.728	79.62
461.506	90.62
462.283	94.62
463.061	109.62
463.838	122.62
464.615	136.62
465.393	149.62
466.17	166.62
466.947	182.62
467.724	204.62
468.501	225.62
469.278	244.62
470.055	285.62
470.831	318.62
471.608	355.62
472.385	385.62
473.161	436.62
473.938	485.62
474.714	535.62
475.49	596.62
476.266	659.62
477.043	723.62
477.819	799.62
478.595	886.62
479.371	984.62
480.146	1083.62
480.922	1202.62
481.698	1333.62
482.473	1464.62
483.249	1608.62
484.024	1773.62
484.8	1938.62
485.575	2142.62
486.35	2372.62
487.126	2602.62
487.901	2871.62
488.676	3159.62
489.451	3479.62
490.225	3778.62
491	4166.62
491.775	4573.62
492.55	5036.62
493.324	5518.62
494.099	6007.62
494.873	6567.62
495.647	7149.62
496.422	7792.62
497.196	8367.62
497.97	9048.62
498.744	9765.62
499.518	10447.62
500.292	11165.62
501.066	11816.62
501.839	12481.62
502.613	13083.62
503.387	13667.62
504.16	14211.62
504.934	14640.62
505.707	14991.62
506.48	15269.62
507.253	15402.62
508.027	15468.62
508.8	15491.62
509.573	15319.62
510.346	15049.62
511.118	14761.62
511.891	14388.62
512.664	13976.62
513.437	13475.62
514.209	13015.62
514.982	12501.62
515.754	11991.62
516.526	11512.62
517.298	10957.62
518.071	10461.62
518.843	10003.62
519.615	9611.62
520.387	9183.62
521.159	8825.62
521.93	8503.62
522.702	8158.62
523.474	7792.62
524.245	7520.62
525.017	7226.62
525.788	6960.62
526.56	6660.62
527.331	6354.62
528.102	6085.62
528.873	5834.62
529.644	5561.62
530.415	5323.62
531.186	5062.62
531.957	4815.62
532.728	4568.62
533.498	4334.62
534.269	4048.62
535.039	3871.62
535.81	3652.62
536.58	3442.62
537.351	3242.62
538.121	3080.62
538.891	2896.62
539.661	2746.62
540.431	2572.62
541.201	2455.62
541.971	2321.62
542.741	2204.62
543.51	2087.62
544.28	1995.62
545.05	1894.62
545.819	1779.62
546.588	1706.62
547.358	1624.62
548.127	1536.62
548.896	1462.62
549.665	1386.62
550.434	1324.62
551.203	1253.62
551.972	1186.62
552.741	1130.62
553.51	1064.62
554.278	1008.62
555.047	944.62
555.815	886.62
556.584	843.62
557.352	805.62
558.121	747.62
558.889	705.62
559.657	661.62
560.425	629.62
561.193	586.62
561.961	565.62
562.729	528.62
563.496	497.62
564.264	466.62
565.032	443.62
565.799	415.62
566.567	394.62
567.334	381.62
568.101	357.62
568.869	327.62
569.636	310.62
570.403	296.62
571.17	280.62
571.937	261.62
572.704	249.62
573.471	236.62
574.237	216.62
575.004	203.62
575.771	193.62
576.537	183.62
577.303	176.62
578.07	167.62
578.836	152.62
579.602	145.62
580.368	137.62
581.134	133.62
581.9	119.62
582.666	115.62
583.432	110.62
584.198	101.62
584.964	100.62
585.729	89.62
586.495	89.62
587.26	85.62
588.025	84.62
588.791	80.62
589.556	72.62
590.321	66.62
591.086	65.62
591.851	58.62
592.616	54.62
593.381	55.62
594.146	54.62
594.911	49.62
595.675	44.62
596.44	42.62
597.204	42.62
597.969	40.62
598.733	37.62
599.497	37.62
600.261	37.62
601.025	32.62
601.79	30.62
602.553	30.62
603.317	28.62
604.081	29.62
604.845	26.62
605.609	25.62
606.372	25.62
607.136	24.62
607.899	23.62
608.662	20.62
609.426	20.62
610.189	21.62
610.952	22.62
611.715	18.62
612.478	19.62
613.241	17.62
614.004	15.62
614.767	13.62
615.529	14.62
616.292	12.62
617.055	15.62
617.817	13.62
618.579	10.62
619.342	13.62
620.104	11.62
620.866	14.62
621.628	11.62
622.39	9.62
623.152	8.62
623.914	10.62
624.676	12.62
625.438	10.62
626.199	11.62
626.961	7.62
627.722	9.62
628.484	10.62
629.245	8.62
630.006	10.62
630.768	7.62
631.529	7.62
632.29	8.62
633.051	7.62
633.812	6.62
634.573	8.62
635.333	5.62
636.094	7.62
636.855	6.62
637.615	6.62
638.376	6.62
639.136	4.62
639.896	6.62
640.657	6.62
641.417	4.62
642.177	6.62
642.937	4.62
643.697	4.62
644.457	4.62
645.216	6.62
645.976	3.62
646.736	4.62
647.495	5.62
648.255	5.62
649.014	4.62
649.774	4.62
650.533	2.62
651.292	5.62
652.051	2.62
652.81	6.62
653.569	2.62
654.328	5.62
655.087	1.62
655.846	2.62
656.604	2.62
657.363	2.62
658.121	4.62
658.88	3.62
659.638	4.62
660.397	2.62
661.155	2.62
661.913	2.62
662.671	5.62
663.429	2.62
664.187	2.62
664.945	3.62
665.703	2.62
666.46	3.62
667.218	2.62
667.976	1.62
668.733	3.62
669.49	-0.38
670.248	2.62
671.005	3.62
671.762	2.62
672.519	4.62
673.276	3.62
674.033	3.62
674.79	0.62
675.547	3.62
676.304	3.62
677.06	3.62
677.817	-0.38
678.574	1.62
679.33	4.62
680.086	1.62
680.843	0.62
681.599	-0.38
682.355	3.62
683.111	2.62
683.867	1.62
684.623	0.62
685.379	1.62
686.135	2.62
686.89	2.62
687.646	3.62
688.402	4.62
689.157	1.62
689.912	3.62
690.668	2.62
691.423	2.62
692.178	3.62
692.933	3.62
693.688	2.62
694.443	0.62
695.198	3.62
695.953	2.62
696.708	2.62
697.462	3.62
698.217	1.62
698.972	3.62
699.726	2.62
700.48	1.62
701.235	2.62
701.989	2.62
702.743	1.62
703.497	2.62
704.251	3.62
705.005	1.62
705.759	3.62
706.513	1.62
707.266	4.62
708.02	1.62
708.774	3.62
709.527	2.62
710.28	3.62
711.034	2.62
711.787	1.62
712.54	3.62
713.293	1.62
714.046	1.62
714.799	1.62
715.552	3.62
716.305	5.62
717.058	3.62
717.81	1.62
718.563	2.62
719.315	2.62
720.068	2.62
720.82	2.62
721.573	1.62
722.325	2.62
723.077	3.62
723.829	4.62
724.581	2.62
725.333	2.62
726.085	0.62
726.836	0.62
727.588	0.62
728.34	4.62
729.091	3.62
729.843	2.62
730.594	4.62
731.346	0.62
732.097	2.62
732.848	2.62
733.599	2.62
734.35	4.62
735.101	3.62
735.852	2.62
736.603	4.62
737.354	1.62
738.104	2.62
738.855	4.62
739.605	0.62
740.356	1.62
741.106	3.62
741.856	2.62
742.607	2.62
743.357	4.62
744.107	1.62
744.857	3.62
745.607	2.62
746.357	2.62
747.106	-0.38
747.856	-1.38
748.606	1.62
749.355	1.62
750.105	2.62
750.854	3.62
751.603	1.62
752.353	1.62
753.102	0.62
753.851	2.62
754.6	2.62
755.349	3.62
756.098	1.62
756.847	1.62
757.595	2.62
758.344	3.62
759.093	5.62
759.841	2.62
760.589	1.62
761.338	3.62
762.086	3.62
762.834	3.62
763.582	3.62
764.331	3.62
765.079	3.62
765.826	5.62
766.574	3.62
767.322	5.62
768.07	3.62
768.817	5.62
769.565	4.62
770.312	4.62
771.06	3.62
771.807	5.62
772.554	4.62
773.302	2.62
774.049	6.62
774.796	3.62
775.543	6.62
776.29	4.62
777.036	2.62
777.783	5.62
778.53	6.62
779.276	6.62
780.023	4.62
780.769	2.62
781.516	3.62
782.262	4.62
783.008	5.62
783.754	4.62
784.5	6.62
785.246	5.62
785.992	4.62
786.738	6.62
787.484	4.62
788.23	5.62
788.975	3.62
789.721	5.62
790.466	5.62
791.212	4.62
791.957	6.62
792.702	4.62
793.447	6.62
794.193	5.62
794.938	6.62
795.683	5.62
796.427	5.62
797.172	4.62
797.917	3.62
798.662	1.62
799.406	5.62
800.151	5.62
800.895	2.62
801.64	2.62
802.384	5.62
803.128	4.62
803.872	3.62
804.616	4.62
805.36	5.62
806.104	5.62
806.848	4.62
807.592	4.62
808.336	2.62
809.079	4.62
809.823	4.62
810.566	4.62
811.31	4.62
812.053	1.62
812.796	2.62
813.539	3.62
814.283	5.62
815.026	4.62
815.769	2.62
816.511	3.62
817.254	4.62
817.997	3.62
818.74	2.62
819.482	3.62
820.225	1.62
820.967	3.62
821.71	3.62
822.452	2.62
823.194	2.62
823.936	3.62
824.678	3.62
825.42	2.62
826.162	4.62
826.904	2.62
827.646	1.62
828.388	1.62
829.129	3.62
829.871	3.62
830.612	0.62
831.354	1.62
832.095	2.62
832.836	2.62
833.577	1.62
834.319	0.62
835.06	3.62
835.801	2.62
836.542	1.62
837.282	1.62
838.023	1.62
838.764	4.62
839.504	1.62
840.245	1.62
840.985	2.62
841.726	1.62
842.466	2.62
843.206	1.62
843.946	4.62
844.687	3.62
845.427	3.62
846.166	2.62
846.906	1.62
847.646	3.62
848.386	1.62
849.125	1.62
849.865	1.62
850.605	2.62
851.344	1.62
852.083	2.62
852.823	2.62
853.562	2.62
854.301	3.62
855.04	2.62
855.779	1.62
856.518	4.62
857.257	1.62
857.995	0.62
858.734	-0.38
859.473	2.62
860.211	0.62
860.95	1.62
861.688	0.62
862.426	1.62
863.165	1.62
863.903	0.62
864.641	0.62
865.379	3.62
866.117	1.62
866.855	1.62
867.593	2.62
868.33	1.62
869.068	1.62
869.806	3.62
870.543	0.62
871.28	2.62
872.018	0.62
872.755	1.62
873.492	-0.38
874.229	3.62
874.967	1.62
875.703	1.62
876.44	-0.38
877.177	-1.38
877.914	0.62
878.651	2.62
879.387	3.62
880.124	3.62
880.86	1.62
881.597	0.62
882.333	1.62
883.069	0.62
883.806	3.62
884.542	1.62
885.278	1.62
886.014	0.62
886.749	0.62
887.485	1.62
888.221	-0.38
888.957	1.62
889.692	2.62
890.428	-0.38
891.163	-0.38
891.899	0.62
892.634	0.62
893.369	-0.38
894.104	1.62
894.839	0.62
895.574	1.62
896.309	0.62
897.044	-0.38
897.779	0.62
898.514	1.62
899.248	0.62
899.983	2.62
900.717	1.62
901.452	1.62
902.186	1.62
902.92	-0.38
903.654	1.62
904.389	1.62
905.123	1.62
905.857	-1.38
906.59	0.62
907.324	2.62
908.058	1.62
908.792	0.62
909.525	2.62
910.259	0.62
910.992	0.62
911.726	0.62
912.459	-0.38
913.192	1.62
913.925	1.62
914.658	1.62
915.391	-0.38
916.124	0.62
916.857	-0.38
917.59	3.62
918.323	2.62
919.055	1.62
919.788	1.62
920.521	0.62
921.253	0.62
921.985	0.62
922.718	1.62
923.45	0.62
924.182	1.62
924.914	1.62
925.646	-0.38
926.378	-0.38
927.11	1.62
927.841	-0.38
928.573	0.62
929.305	2.62
930.036	1.62
930.768	-1.38
931.499	0.62
932.23	1.62
932.962	-0.38
933.693	1.62
934.424	0.62
935.155	1.62
935.886	-1.38
936.617	-1.38
937.348	0.62
938.078	0.62
938.809	0.62
939.54	0.62
940.27	2.62
941.001	-0.38
941.731	-0.38
942.461	0.62
943.191	0.62
943.922	0.62
944.652	0.62
945.382	-0.38
946.112	2.62
946.841	-1.38
947.571	2.62
948.301	0.62
949.031	1.62
949.76	1.62
950.49	0.62
951.219	-0.38
951.948	-2.38
952.678	2.62
953.407	1.62
954.136	1.62
954.865	-1.38
955.594	0.62
956.323	0.62
957.052	1.62
957.78	1.62
958.509	-1.38
959.238	1.62
959.966	-0.38
960.695	1.62
961.423	-0.38
962.151	1.62
962.88	2.62
963.608	-0.38
964.336	0.62
965.064	0.62
965.792	1.62
966.52	0.62
967.247	1.62
967.975	4.62
968.703	-1.38
969.43	1.62
970.158	-1.38
970.885	3.62
971.613	-1.38
972.34	-1.38
973.067	0.62
973.794	-1.38
974.521	2.62
975.248	1.62
975.975	0.62
976.702	0.62
977.429	-1.38
978.156	1.62
978.882	1.62
979.609	2.62
980.335	-0.38
981.062	0.62
981.788	0.62
982.514	0.62
983.24	1.62
983.967	-0.38
984.693	-0.38
985.419	-1.38
986.144	1.62
986.87	-1.38
987.596	1.62
988.322	1.62
989.047	1.62
989.773	2.62
990.498	1.62
991.224	-0.38
991.949	0.62
992.674	1.62
993.399	0.62
994.124	-1.38
994.849	1.62
995.574	0.62
996.299	0.62
997.024	0.62
997.749	-1.38
998.473	1.62
999.198	-0.38
999.922	1.62
1000.647	0.62
1001.371	4.62
1002.095	-1.38
1002.82	0.62
1003.544	-1.38
1004.268	-1.38
1004.992	-1.38
1005.716	-1.38
1006.439	-1.38
1007.163	-1.38
1007.887	3.62
1008.611	1.62
1009.334	-1.38
1010.058	-1.38
1010.781	-0.38
1011.504	-0.38
1012.228	1.62
1012.951	0.62
1013.674	-1.38
1014.397	-0.38
1015.12	-1.38
