节点500_145_QEPB04081__541__11-37-32-462.txt的数据

Date: Wed Nov 12 11:37:32 CST 2025
User: PC
Spectrometer: QEPB0408
触发模式: 0
积分时间 (秒): 1.000000E-2
Scans to average: 1
启用暗噪声校正: true
启用非线性校正: false
滑动平均宽度: 0
X轴模式: Wavelengths
Number of Pixels in Spectrum: 1044
>>>>>Begin Spectral Data<<<<<
220.843	0.88
221.644	0.88
222.444	-2.12
223.244	-0.12
224.045	-1.12
224.845	2.88
225.645	0.88
226.445	0.88
227.245	-2.12
228.045	-0.12
228.845	-1.12
229.645	-0.12
230.444	1.88
231.244	0.88
232.043	-0.12
232.843	0.88
233.642	-0.12
234.442	-2.12
235.241	-1.12
236.04	0.88
236.839	-0.12
237.638	0.88
238.437	0.88
239.236	-0.12
240.035	-0.12
240.833	0.88
241.632	2.88
242.43	0.88
243.229	1.88
244.027	1.88
244.826	1.88
245.624	0.88
246.422	4.88
247.22	0.88
248.018	-2.12
248.816	2.88
249.614	2.88
250.412	0.88
251.21	3.88
252.007	-1.12
252.805	2.88
253.602	2.88
254.4	2.88
255.197	1.88
255.994	0.88
256.791	2.88
257.589	2.88
258.386	1.88
259.183	3.88
259.979	3.88
260.776	3.88
261.573	3.88
262.37	3.88
263.166	1.88
263.963	2.88
264.759	4.88
265.556	5.88
266.352	4.88
267.148	3.88
267.944	6.88
268.74	4.88
269.536	7.88
270.332	6.88
271.128	7.88
271.924	5.88
272.719	5.88
273.515	7.88
274.311	5.88
275.106	6.88
275.901	9.88
276.697	6.88
277.492	8.88
278.287	6.88
279.082	5.88
279.877	7.88
280.672	11.88
281.467	8.88
282.262	10.88
283.056	5.88
283.851	8.88
284.646	6.88
285.44	10.88
286.234	9.88
287.029	7.88
287.823	12.88
288.617	10.88
289.411	8.88
290.205	11.88
290.999	9.88
291.793	10.88
292.587	9.88
293.381	10.88
294.174	8.88
294.968	8.88
295.761	8.88
296.555	11.88
297.348	9.88
298.141	6.88
298.935	9.88
299.728	8.88
300.521	8.88
301.314	8.88
302.107	7.88
302.899	6.88
303.692	8.88
304.485	8.88
305.277	9.88
306.07	5.88
306.862	9.88
307.655	5.88
308.447	6.88
309.239	6.88
310.031	6.88
310.823	7.88
311.615	5.88
312.407	7.88
313.199	6.88
313.991	6.88
314.783	3.88
315.574	4.88
316.366	6.88
317.157	6.88
317.949	4.88
318.74	3.88
319.531	4.88
320.322	5.88
321.113	4.88
321.904	6.88
322.695	1.88
323.486	5.88
324.277	5.88
325.068	3.88
325.858	3.88
326.649	4.88
327.439	2.88
328.23	3.88
329.02	2.88
329.81	4.88
330.6	0.88
331.391	2.88
332.181	2.88
332.971	2.88
333.76	5.88
334.55	3.88
335.34	4.88
336.13	4.88
336.919	1.88
337.709	4.88
338.498	2.88
339.287	1.88
340.077	2.88
340.866	3.88
341.655	1.88
342.444	0.88
343.233	2.88
344.022	1.88
344.811	0.88
345.6	3.88
346.388	2.88
347.177	0.88
347.965	2.88
348.754	2.88
349.542	4.88
350.33	2.88
351.119	3.88
351.907	3.88
352.695	4.88
353.483	0.88
354.271	1.88
355.059	1.88
355.846	1.88
356.634	1.88
357.422	3.88
358.209	0.88
358.997	2.88
359.784	0.88
360.571	1.88
361.359	0.88
362.146	4.88
362.933	3.88
363.72	1.88
364.507	0.88
365.294	0.88
366.081	4.88
366.867	-0.12
367.654	3.88
368.44	3.88
369.227	2.88
370.013	-0.12
370.8	1.88
371.586	3.88
372.372	2.88
373.158	3.88
373.944	2.88
374.73	1.88
375.516	3.88
376.302	0.88
377.088	2.88
377.873	0.88
378.659	1.88
379.445	3.88
380.23	-0.12
381.015	2.88
381.801	-0.12
382.586	3.88
383.371	1.88
384.156	1.88
384.941	1.88
385.726	0.88
386.511	0.88
387.296	3.88
388.08	2.88
388.865	0.88
389.649	1.88
390.434	3.88
391.218	2.88
392.003	2.88
392.787	2.88
393.571	1.88
394.355	0.88
395.139	2.88
395.923	2.88
396.707	1.88
397.491	2.88
398.274	1.88
399.058	1.88
399.842	0.88
400.625	3.88
401.408	1.88
402.192	1.88
402.975	1.88
403.758	1.88
404.541	0.88
405.324	4.88
406.107	3.88
406.89	1.88
407.673	2.88
408.456	1.88
409.238	1.88
410.021	3.88
410.803	1.88
411.586	3.88
412.368	3.88
413.151	0.88
413.933	1.88
414.715	3.88
415.497	3.88
416.279	4.88
417.061	4.88
417.843	2.88
418.624	3.88
419.406	3.88
420.188	2.88
420.969	4.88
421.751	5.88
422.532	5.88
423.313	5.88
424.095	5.88
424.876	6.88
425.657	4.88
426.438	7.88
427.219	5.88
428	7.88
428.78	6.88
429.561	5.88
430.342	7.88
431.122	5.88
431.903	8.88
432.683	5.88
433.464	7.88
434.244	5.88
435.024	9.88
435.804	6.88
436.584	7.88
437.364	9.88
438.144	9.88
438.924	8.88
439.704	10.88
440.483	9.88
441.263	9.88
442.042	11.88
442.822	10.88
443.601	12.88
444.38	13.88
445.16	17.88
445.939	16.88
446.718	18.88
447.497	18.88
448.276	18.88
449.054	23.88
449.833	26.88
450.612	26.88
451.391	24.88
452.169	29.88
452.948	34.88
453.726	38.88
454.504	38.88
455.282	42.88
456.061	48.88
456.839	49.88
457.617	61.88
458.395	64.88
459.172	71.88
459.95	83.88
460.728	87.88
461.506	100.88
462.283	111.88
463.061	118.88
463.838	130.88
464.615	151.88
465.393	166.88
466.17	179.88
466.947	214.88
467.724	231.88
468.501	256.88
469.278	288.88
470.055	315.88
470.831	353.88
471.608	391.88
472.385	425.88
473.161	482.88
473.938	526.88
474.714	582.88
475.49	641.88
476.266	712.88
477.043	787.88
477.819	873.88
478.595	960.88
479.371	1055.88
480.146	1157.88
480.922	1262.88
481.698	1395.88
482.473	1526.88
483.249	1685.88
484.024	1849.88
484.8	2024.88
485.575	2236.88
486.35	2435.88
487.126	2685.88
487.901	2925.88
488.676	3202.88
489.451	3502.88
490.225	3825.88
491	4174.88
491.775	4592.88
492.55	5022.88
493.324	5461.88
494.099	5962.88
494.873	6497.88
495.647	7008.88
496.422	7641.88
497.196	8246.88
497.97	8883.88
498.744	9546.88
499.518	10221.88
500.292	10904.88
501.066	11534.88
501.839	12179.88
502.613	12830.88
503.387	13442.88
504.16	14002.88
504.934	14459.88
505.707	14915.88
506.48	15191.88
507.253	15449.88
508.027	15579.88
508.8	15637.88
509.573	15570.88
510.346	15414.88
511.118	15211.88
511.891	14913.88
512.664	14555.88
513.437	14158.88
514.209	13673.88
514.982	13220.88
515.754	12711.88
516.526	12202.88
517.298	11693.88
518.071	11201.88
518.843	10712.88
519.615	10253.88
520.387	9869.88
521.159	9415.88
521.93	9037.88
522.702	8698.88
523.474	8383.88
524.245	8069.88
525.017	7723.88
525.788	7425.88
526.56	7135.88
527.331	6808.88
528.102	6563.88
528.873	6249.88
529.644	5967.88
530.415	5742.88
531.186	5469.88
531.957	5200.88
532.728	4941.88
533.498	4688.88
534.269	4463.88
535.039	4234.88
535.81	3997.88
536.58	3767.88
537.351	3560.88
538.121	3364.88
538.891	3202.88
539.661	3021.88
540.431	2844.88
541.201	2701.88
541.971	2540.88
542.741	2417.88
543.51	2294.88
544.28	2166.88
545.05	2067.88
545.819	1962.88
546.588	1860.88
547.358	1785.88
548.127	1681.88
548.896	1605.88
549.665	1512.88
550.434	1443.88
551.203	1372.88
551.972	1298.88
552.741	1238.88
553.51	1167.88
554.278	1099.88
555.047	1044.88
555.815	986.88
556.584	958.88
557.352	888.88
558.121	827.88
558.889	783.88
559.657	739.88
560.425	705.88
561.193	661.88
561.961	617.88
562.729	592.88
563.496	558.88
564.264	527.88
565.032	492.88
565.799	464.88
566.567	433.88
567.334	412.88
568.101	392.88
568.869	365.88
569.636	352.88
570.403	331.88
571.17	312.88
571.937	285.88
572.704	280.88
573.471	256.88
574.237	241.88
575.004	232.88
575.771	223.88
576.537	207.88
577.303	192.88
578.07	181.88
578.836	172.88
579.602	161.88
580.368	154.88
581.134	140.88
581.9	134.88
582.666	132.88
583.432	125.88
584.198	112.88
584.964	108.88
585.729	104.88
586.495	93.88
587.26	89.88
588.025	84.88
588.791	81.88
589.556	76.88
590.321	71.88
591.086	73.88
591.851	68.88
592.616	64.88
593.381	63.88
594.146	55.88
594.911	51.88
595.675	48.88
596.44	49.88
597.204	44.88
597.969	42.88
598.733	42.88
599.497	38.88
600.261	37.88
601.025	35.88
601.79	38.88
602.553	33.88
603.317	32.88
604.081	28.88
604.845	28.88
605.609	28.88
606.372	25.88
607.136	24.88
607.899	24.88
608.662	24.88
609.426	23.88
610.189	21.88
610.952	20.88
611.715	19.88
612.478	18.88
613.241	19.88
614.004	18.88
614.767	14.88
615.529	16.88
616.292	12.88
617.055	15.88
617.817	15.88
618.579	11.88
619.342	11.88
620.104	10.88
620.866	11.88
621.628	10.88
622.39	12.88
623.152	10.88
623.914	10.88
624.676	8.88
625.438	7.88
626.199	9.88
626.961	6.88
627.722	7.88
628.484	8.88
629.245	7.88
630.006	7.88
630.768	8.88
631.529	6.88
632.29	8.88
633.051	8.88
633.812	6.88
634.573	6.88
635.333	7.88
636.094	5.88
636.855	5.88
637.615	5.88
638.376	4.88
639.136	5.88
639.896	2.88
640.657	5.88
641.417	3.88
642.177	5.88
642.937	5.88
643.697	2.88
644.457	4.88
645.216	3.88
645.976	3.88
646.736	1.88
647.495	3.88
648.255	2.88
649.014	2.88
649.774	2.88
650.533	3.88
651.292	1.88
652.051	4.88
652.81	1.88
653.569	2.88
654.328	5.88
655.087	3.88
655.846	0.88
656.604	3.88
657.363	0.88
658.121	3.88
658.88	2.88
659.638	4.88
660.397	1.88
661.155	3.88
661.913	1.88
662.671	0.88
663.429	-0.12
664.187	1.88
664.945	0.88
665.703	2.88
666.46	1.88
667.218	2.88
667.976	2.88
668.733	1.88
669.49	-0.12
670.248	0.88
671.005	3.88
671.762	0.88
672.519	1.88
673.276	3.88
674.033	2.88
674.79	-0.12
675.547	1.88
676.304	1.88
677.06	-1.12
677.817	4.88
678.574	4.88
679.33	1.88
680.086	2.88
680.843	0.88
681.599	-0.12
682.355	1.88
683.111	1.88
683.867	1.88
684.623	1.88
685.379	2.88
686.135	-0.12
686.89	1.88
687.646	2.88
688.402	1.88
689.157	0.88
689.912	1.88
690.668	0.88
691.423	0.88
692.178	2.88
692.933	-0.12
693.688	1.88
694.443	0.88
695.198	2.88
695.953	0.88
696.708	1.88
697.462	3.88
698.217	0.88
698.972	-0.12
699.726	0.88
700.48	2.88
701.235	1.88
701.989	2.88
702.743	-0.12
703.497	-1.12
704.251	3.88
705.005	-1.12
705.759	0.88
706.513	0.88
707.266	1.88
708.02	0.88
708.774	0.88
709.527	1.88
710.28	0.88
711.034	1.88
711.787	-1.12
712.54	0.88
713.293	2.88
714.046	0.88
714.799	0.88
715.552	2.88
716.305	0.88
717.058	1.88
717.81	0.88
718.563	0.88
719.315	-0.12
720.068	0.88
720.82	0.88
721.573	1.88
722.325	0.88
723.077	0.88
723.829	1.88
724.581	2.88
725.333	-0.12
726.085	-0.12
726.836	-0.12
727.588	-1.12
728.34	2.88
729.091	1.88
729.843	-0.12
730.594	0.88
731.346	2.88
732.097	0.88
732.848	2.88
733.599	2.88
734.35	-1.12
735.101	-0.12
735.852	1.88
736.603	-0.12
737.354	2.88
738.104	0.88
738.855	1.88
739.605	2.88
740.356	0.88
741.106	0.88
741.856	0.88
742.607	4.88
743.357	1.88
744.107	0.88
744.857	1.88
745.607	0.88
746.357	3.88
747.106	0.88
747.856	2.88
748.606	1.88
749.355	0.88
750.105	1.88
750.854	2.88
751.603	2.88
752.353	2.88
753.102	0.88
753.851	1.88
754.6	1.88
755.349	2.88
756.098	0.88
756.847	2.88
757.595	0.88
758.344	0.88
759.093	1.88
759.841	-0.12
760.589	1.88
761.338	1.88
762.086	3.88
762.834	2.88
763.582	3.88
764.331	1.88
765.079	0.88
765.826	3.88
766.574	3.88
767.322	3.88
768.07	2.88
768.817	4.88
769.565	4.88
770.312	0.88
771.06	2.88
771.807	2.88
772.554	4.88
773.302	2.88
774.049	3.88
774.796	3.88
775.543	1.88
776.29	4.88
777.036	2.88
777.783	3.88
778.53	5.88
779.276	3.88
780.023	4.88
780.769	3.88
781.516	4.88
782.262	4.88
783.008	5.88
783.754	0.88
784.5	2.88
785.246	4.88
785.992	4.88
786.738	4.88
787.484	1.88
788.23	3.88
788.975	4.88
789.721	4.88
790.466	2.88
791.212	2.88
791.957	3.88
792.702	2.88
793.447	2.88
794.193	3.88
794.938	3.88
795.683	3.88
796.427	6.88
797.172	3.88
797.917	2.88
798.662	2.88
799.406	4.88
800.151	2.88
800.895	1.88
801.64	3.88
802.384	5.88
803.128	4.88
803.872	2.88
804.616	2.88
805.36	2.88
806.104	4.88
806.848	3.88
807.592	3.88
808.336	3.88
809.079	-0.12
809.823	3.88
810.566	0.88
811.31	0.88
812.053	3.88
812.796	3.88
813.539	3.88
814.283	1.88
815.026	3.88
815.769	0.88
816.511	2.88
817.254	3.88
817.997	3.88
818.74	3.88
819.482	0.88
820.225	4.88
820.967	0.88
821.71	2.88
822.452	1.88
823.194	-0.12
823.936	0.88
824.678	0.88
825.42	2.88
826.162	2.88
826.904	2.88
827.646	3.88
828.388	3.88
829.129	-0.12
829.871	0.88
830.612	3.88
831.354	1.88
832.095	1.88
832.836	0.88
833.577	1.88
834.319	1.88
835.06	2.88
835.801	1.88
836.542	1.88
837.282	0.88
838.023	1.88
838.764	0.88
839.504	2.88
840.245	3.88
840.985	2.88
841.726	-0.12
842.466	2.88
843.206	0.88
843.946	-0.12
844.687	-0.12
845.427	0.88
846.166	1.88
846.906	1.88
847.646	0.88
848.386	0.88
849.125	1.88
849.865	0.88
850.605	-0.12
851.344	3.88
852.083	1.88
852.823	2.88
853.562	1.88
854.301	-0.12
855.04	0.88
855.779	1.88
856.518	-0.12
857.257	1.88
857.995	-0.12
858.734	2.88
859.473	1.88
860.211	-1.12
860.95	0.88
861.688	3.88
862.426	0.88
863.165	1.88
863.903	1.88
864.641	0.88
865.379	2.88
866.117	-1.12
866.855	-1.12
867.593	-2.12
868.33	1.88
869.068	1.88
869.806	0.88
870.543	1.88
871.28	-0.12
872.018	1.88
872.755	-2.12
873.492	-1.12
874.229	0.88
874.967	-0.12
875.703	0.88
876.44	0.88
877.177	-2.12
877.914	1.88
878.651	1.88
879.387	1.88
880.124	1.88
880.86	-0.12
881.597	-2.12
882.333	0.88
883.069	-2.12
883.806	0.88
884.542	-0.12
885.278	-0.12
886.014	0.88
886.749	0.88
887.485	1.88
888.221	-1.12
888.957	-1.12
889.692	-0.12
890.428	-0.12
891.163	-0.12
891.899	0.88
892.634	0.88
893.369	-1.12
894.104	-0.12
894.839	-0.12
895.574	0.88
896.309	-0.12
897.044	0.88
897.779	0.88
898.514	0.88
899.248	-1.12
899.983	0.88
900.717	-1.12
901.452	-2.12
902.186	-0.12
902.92	-2.12
903.654	-0.12
904.389	-2.12
905.123	-0.12
905.857	-0.12
906.59	-1.12
907.324	-2.12
908.058	-0.12
908.792	-1.12
909.525	-1.12
910.259	1.88
910.992	-1.12
911.726	-2.12
912.459	-2.12
913.192	-1.12
913.925	-1.12
914.658	-2.12
915.391	-3.12
916.124	-0.12
916.857	-1.12
917.59	-2.12
918.323	-0.12
919.055	1.88
919.788	-1.12
920.521	-0.12
921.253	-2.12
921.985	0.88
922.718	-2.12
923.45	0.88
924.182	-2.12
924.914	-0.12
925.646	1.88
926.378	-0.12
927.11	0.88
927.841	-1.12
928.573	0.88
929.305	2.88
930.036	-0.12
930.768	0.88
931.499	-2.12
932.23	-1.12
932.962	-1.12
933.693	0.88
934.424	-0.12
935.155	-1.12
935.886	-1.12
936.617	-0.12
937.348	-2.12
938.078	0.88
938.809	-1.12
939.54	-1.12
940.27	-0.12
941.001	0.88
941.731	-0.12
942.461	-0.12
943.191	-1.12
943.922	0.88
944.652	1.88
945.382	-1.12
946.112	1.88
946.841	-2.12
947.571	-2.12
948.301	-1.12
949.031	-0.12
949.76	-0.12
950.49	-2.12
951.219	1.88
951.948	-2.12
952.678	-2.12
953.407	-2.12
954.136	-0.12
954.865	0.88
955.594	-0.12
956.323	-0.12
957.052	-1.12
957.78	1.88
958.509	0.88
959.238	1.88
959.966	0.88
960.695	-3.12
961.423	-0.12
962.151	-2.12
962.88	-0.12
963.608	0.88
964.336	-0.12
965.064	0.88
965.792	-1.12
966.52	-1.12
967.247	-0.12
967.975	0.88
968.703	1.88
969.43	-1.12
970.158	-2.12
970.885	-4.12
971.613	-0.12
972.34	-2.12
973.067	-1.12
973.794	-1.12
974.521	-2.12
975.248	0.88
975.975	0.88
976.702	0.88
977.429	-1.12
978.156	0.88
978.882	-0.12
979.609	-1.12
980.335	0.88
981.062	1.88
981.788	-0.12
982.514	-0.12
983.24	-0.12
983.967	-1.12
984.693	-0.12
985.419	-2.12
986.144	-0.12
986.87	0.88
987.596	-3.12
988.322	-2.12
989.047	0.88
989.773	-0.12
990.498	-1.12
991.224	-2.12
991.949	-1.12
992.674	-2.12
993.399	0.88
994.124	-0.12
994.849	-1.12
995.574	1.88
996.299	-1.12
997.024	-1.12
997.749	-1.12
998.473	-1.12
999.198	-0.12
999.922	-2.12
1000.647	-0.12
1001.371	2.88
1002.095	-0.12
1002.82	-1.12
1003.544	-0.12
1004.268	-2.12
1004.992	-0.12
1005.716	-0.12
1006.439	-3.12
1007.163	-2.12
1007.887	-2.12
1008.611	-1.12
1009.334	-2.12
1010.058	-0.12
1010.781	-2.12
1011.504	0.88
1012.228	-0.12
1012.951	-0.12
1013.674	-3.12
1014.397	1.88
1015.12	-0.12
