节点500_145_QEPB04081__28__11-29-23-798.txt的数据

Date: Wed Nov 12 11:29:23 CST 2025
User: PC
Spectrometer: QEPB0408
触发模式: 0
积分时间 (秒): 1.000000E-2
Scans to average: 1
启用暗噪声校正: true
启用非线性校正: false
滑动平均宽度: 0
X轴模式: Wavelengths
Number of Pixels in Spectrum: 1044
>>>>>Begin Spectral Data<<<<<
220.843	0.38
221.644	0.38
222.444	-0.62
223.244	-1.62
224.045	-0.62
224.845	-3.62
225.645	0.38
226.445	2.38
227.245	-1.62
228.045	-0.62
228.845	1.38
229.645	0.38
230.444	1.38
231.244	-1.62
232.043	1.38
232.843	0.38
233.642	1.38
234.442	0.38
235.241	-0.62
236.04	1.38
236.839	0.38
237.638	2.38
238.437	1.38
239.236	0.38
240.035	1.38
240.833	1.38
241.632	4.38
242.43	0.38
243.229	2.38
244.027	2.38
244.826	0.38
245.624	4.38
246.422	3.38
247.22	4.38
248.018	3.38
248.816	1.38
249.614	4.38
250.412	3.38
251.21	3.38
252.007	4.38
252.805	4.38
253.602	3.38
254.4	5.38
255.197	1.38
255.994	2.38
256.791	2.38
257.589	4.38
258.386	4.38
259.183	4.38
259.979	4.38
260.776	4.38
261.573	3.38
262.37	6.38
263.166	5.38
263.963	7.38
264.759	2.38
265.556	4.38
266.352	4.38
267.148	5.38
267.944	5.38
268.74	7.38
269.536	8.38
270.332	10.38
271.128	11.38
271.924	8.38
272.719	9.38
273.515	6.38
274.311	8.38
275.106	13.38
275.901	10.38
276.697	11.38
277.492	11.38
278.287	9.38
279.082	10.38
279.877	11.38
280.672	11.38
281.467	11.38
282.262	9.38
283.056	11.38
283.851	11.38
284.646	11.38
285.44	10.38
286.234	13.38
287.029	14.38
287.823	13.38
288.617	12.38
289.411	10.38
290.205	14.38
290.999	14.38
291.793	11.38
292.587	12.38
293.381	11.38
294.174	11.38
294.968	11.38
295.761	9.38
296.555	9.38
297.348	10.38
298.141	14.38
298.935	10.38
299.728	11.38
300.521	10.38
301.314	9.38
302.107	8.38
302.899	9.38
303.692	11.38
304.485	9.38
305.277	9.38
306.07	9.38
306.862	8.38
307.655	7.38
308.447	7.38
309.239	7.38
310.031	6.38
310.823	9.38
311.615	7.38
312.407	8.38
313.199	7.38
313.991	7.38
314.783	7.38
315.574	8.38
316.366	6.38
317.157	5.38
317.949	6.38
318.74	3.38
319.531	6.38
320.322	7.38
321.113	3.38
321.904	5.38
322.695	7.38
323.486	4.38
324.277	3.38
325.068	4.38
325.858	5.38
326.649	6.38
327.439	4.38
328.23	4.38
329.02	4.38
329.81	2.38
330.6	3.38
331.391	6.38
332.181	6.38
332.971	4.38
333.76	2.38
334.55	4.38
335.34	3.38
336.13	3.38
336.919	4.38
337.709	1.38
338.498	2.38
339.287	3.38
340.077	4.38
340.866	3.38
341.655	2.38
342.444	3.38
343.233	4.38
344.022	3.38
344.811	3.38
345.6	2.38
346.388	5.38
347.177	1.38
347.965	4.38
348.754	4.38
349.542	3.38
350.33	4.38
351.119	2.38
351.907	4.38
352.695	2.38
353.483	3.38
354.271	4.38
355.059	3.38
355.846	5.38
356.634	0.38
357.422	3.38
358.209	3.38
358.997	5.38
359.784	2.38
360.571	3.38
361.359	1.38
362.146	1.38
362.933	4.38
363.72	4.38
364.507	2.38
365.294	2.38
366.081	-1.62
366.867	4.38
367.654	3.38
368.44	2.38
369.227	2.38
370.013	4.38
370.8	3.38
371.586	4.38
372.372	3.38
373.158	-0.62
373.944	5.38
374.73	2.38
375.516	4.38
376.302	5.38
377.088	1.38
377.873	3.38
378.659	2.38
379.445	3.38
380.23	2.38
381.015	2.38
381.801	2.38
382.586	2.38
383.371	3.38
384.156	2.38
384.941	2.38
385.726	2.38
386.511	3.38
387.296	5.38
388.08	2.38
388.865	5.38
389.649	2.38
390.434	4.38
391.218	2.38
392.003	5.38
392.787	5.38
393.571	2.38
394.355	4.38
395.139	2.38
395.923	4.38
396.707	3.38
397.491	3.38
398.274	3.38
399.058	3.38
399.842	5.38
400.625	3.38
401.408	1.38
402.192	4.38
402.975	3.38
403.758	4.38
404.541	5.38
405.324	4.38
406.107	4.38
406.89	1.38
407.673	5.38
408.456	3.38
409.238	5.38
410.021	5.38
410.803	6.38
411.586	6.38
412.368	4.38
413.151	6.38
413.933	4.38
414.715	5.38
415.497	5.38
416.279	5.38
417.061	4.38
417.843	3.38
418.624	5.38
419.406	7.38
420.188	4.38
420.969	4.38
421.751	5.38
422.532	3.38
423.313	6.38
424.095	7.38
424.876	7.38
425.657	6.38
426.438	8.38
427.219	5.38
428	8.38
428.78	6.38
429.561	5.38
430.342	8.38
431.122	10.38
431.903	8.38
432.683	7.38
433.464	7.38
434.244	10.38
435.024	7.38
435.804	9.38
436.584	9.38
437.364	11.38
438.144	11.38
438.924	13.38
439.704	10.38
440.483	12.38
441.263	11.38
442.042	11.38
442.822	14.38
443.601	11.38
444.38	12.38
445.16	16.38
445.939	16.38
446.718	17.38
447.497	17.38
448.276	20.38
449.054	21.38
449.833	20.38
450.612	21.38
451.391	23.38
452.169	27.38
452.948	30.38
453.726	30.38
454.504	33.38
455.282	35.38
456.061	37.38
456.839	43.38
457.617	49.38
458.395	55.38
459.172	58.38
459.95	65.38
460.728	71.38
461.506	85.38
462.283	87.38
463.061	99.38
463.838	111.38
464.615	124.38
465.393	132.38
466.17	154.38
466.947	169.38
467.724	191.38
468.501	217.38
469.278	236.38
470.055	264.38
470.831	299.38
471.608	335.38
472.385	369.38
473.161	417.38
473.938	468.38
474.714	514.38
475.49	583.38
476.266	639.38
477.043	725.38
477.819	802.38
478.595	890.38
479.371	1003.38
480.146	1106.38
480.922	1228.38
481.698	1380.38
482.473	1510.38
483.249	1683.38
484.024	1867.38
484.8	2080.38
485.575	2307.38
486.35	2558.38
487.126	2868.38
487.901	3171.38
488.676	3524.38
489.451	3917.38
490.225	4346.38
491	4781.38
491.775	5261.38
492.55	5880.38
493.324	6417.38
494.099	7083.38
494.873	7750.38
495.647	8459.38
496.422	9231.38
497.196	9993.38
497.97	10840.38
498.744	11732.38
499.518	12505.38
500.292	13367.38
501.066	14126.38
501.839	14819.38
502.613	15518.38
503.387	16149.38
504.16	16664.38
504.934	17048.38
505.707	17315.38
506.48	17451.38
507.253	17496.38
508.027	17414.38
508.8	17226.38
509.573	16962.38
510.346	16489.38
511.118	16022.38
511.891	15487.38
512.664	14877.38
513.437	14243.38
514.209	13655.38
514.982	13064.38
515.754	12453.38
516.526	11855.38
517.298	11308.38
518.071	10817.38
518.843	10311.38
519.615	9876.38
520.387	9463.38
521.159	9077.38
521.93	8776.38
522.702	8422.38
523.474	8097.38
524.245	7744.38
525.017	7419.38
525.788	7134.38
526.56	6849.38
527.331	6556.38
528.102	6240.38
528.873	5950.38
529.644	5674.38
530.415	5405.38
531.186	5131.38
531.957	4826.38
532.728	4568.38
533.498	4327.38
534.269	4073.38
535.039	3814.38
535.81	3607.38
536.58	3436.38
537.351	3231.38
538.121	3072.38
538.891	2868.38
539.661	2720.38
540.431	2566.38
541.201	2415.38
541.971	2305.38
542.741	2173.38
543.51	2073.38
544.28	1964.38
545.05	1863.38
545.819	1793.38
546.588	1687.38
547.358	1632.38
548.127	1533.38
548.896	1466.38
549.665	1387.38
550.434	1288.38
551.203	1226.38
551.972	1182.38
552.741	1099.38
553.51	1057.38
554.278	983.38
555.047	928.38
555.815	873.38
556.584	832.38
557.352	777.38
558.121	729.38
558.889	693.38
559.657	661.38
560.425	616.38
561.193	582.38
561.961	544.38
562.729	516.38
563.496	476.38
564.264	452.38
565.032	438.38
565.799	402.38
566.567	386.38
567.334	362.38
568.101	343.38
568.869	333.38
569.636	303.38
570.403	296.38
571.17	274.38
571.937	255.38
572.704	238.38
573.471	227.38
574.237	214.38
575.004	199.38
575.771	183.38
576.537	179.38
577.303	167.38
578.07	162.38
578.836	148.38
579.602	141.38
580.368	131.38
581.134	126.38
581.9	120.38
582.666	113.38
583.432	102.38
584.198	99.38
584.964	96.38
585.729	86.38
586.495	87.38
587.26	81.38
588.025	75.38
588.791	73.38
589.556	69.38
590.321	64.38
591.086	62.38
591.851	56.38
592.616	54.38
593.381	54.38
594.146	47.38
594.911	45.38
595.675	45.38
596.44	43.38
597.204	43.38
597.969	40.38
598.733	34.38
599.497	34.38
600.261	35.38
601.025	32.38
601.79	30.38
602.553	30.38
603.317	30.38
604.081	27.38
604.845	25.38
605.609	26.38
606.372	23.38
607.136	25.38
607.899	24.38
608.662	17.38
609.426	21.38
610.189	22.38
610.952	19.38
611.715	17.38
612.478	19.38
613.241	17.38
614.004	16.38
614.767	15.38
615.529	17.38
616.292	15.38
617.055	13.38
617.817	14.38
618.579	12.38
619.342	13.38
620.104	11.38
620.866	13.38
621.628	11.38
622.39	10.38
623.152	11.38
623.914	7.38
624.676	9.38
625.438	9.38
626.199	9.38
626.961	8.38
627.722	9.38
628.484	10.38
629.245	8.38
630.006	10.38
630.768	7.38
631.529	7.38
632.29	7.38
633.051	6.38
633.812	8.38
634.573	5.38
635.333	7.38
636.094	6.38
636.855	7.38
637.615	7.38
638.376	6.38
639.136	4.38
639.896	5.38
640.657	5.38
641.417	6.38
642.177	4.38
642.937	6.38
643.697	4.38
644.457	5.38
645.216	6.38
645.976	6.38
646.736	4.38
647.495	6.38
648.255	5.38
649.014	4.38
649.774	4.38
650.533	3.38
651.292	5.38
652.051	5.38
652.81	1.38
653.569	3.38
654.328	4.38
655.087	3.38
655.846	3.38
656.604	6.38
657.363	2.38
658.121	5.38
658.88	4.38
659.638	2.38
660.397	5.38
661.155	3.38
661.913	2.38
662.671	1.38
663.429	3.38
664.187	3.38
664.945	1.38
665.703	3.38
666.46	2.38
667.218	5.38
667.976	1.38
668.733	2.38
669.49	1.38
670.248	3.38
671.005	1.38
671.762	2.38
672.519	2.38
673.276	2.38
674.033	3.38
674.79	1.38
675.547	3.38
676.304	4.38
677.06	3.38
677.817	2.38
678.574	2.38
679.33	0.38
680.086	3.38
680.843	1.38
681.599	4.38
682.355	0.38
683.111	5.38
683.867	1.38
684.623	1.38
685.379	3.38
686.135	2.38
686.89	1.38
687.646	5.38
688.402	1.38
689.157	5.38
689.912	2.38
690.668	3.38
691.423	1.38
692.178	3.38
692.933	0.38
693.688	4.38
694.443	2.38
695.198	1.38
695.953	2.38
696.708	2.38
697.462	2.38
698.217	3.38
698.972	0.38
699.726	1.38
700.48	0.38
701.235	3.38
701.989	2.38
702.743	2.38
703.497	1.38
704.251	1.38
705.005	2.38
705.759	2.38
706.513	2.38
707.266	1.38
708.02	0.38
708.774	4.38
709.527	0.38
710.28	2.38
711.034	2.38
711.787	3.38
712.54	1.38
713.293	2.38
714.046	1.38
714.799	1.38
715.552	1.38
716.305	1.38
717.058	4.38
717.81	3.38
718.563	1.38
719.315	0.38
720.068	2.38
720.82	4.38
721.573	0.38
722.325	1.38
723.077	1.38
723.829	1.38
724.581	5.38
725.333	2.38
726.085	2.38
726.836	4.38
727.588	4.38
728.34	2.38
729.091	4.38
729.843	4.38
730.594	2.38
731.346	3.38
732.097	3.38
732.848	0.38
733.599	3.38
734.35	2.38
735.101	4.38
735.852	2.38
736.603	2.38
737.354	2.38
738.104	0.38
738.855	2.38
739.605	2.38
740.356	3.38
741.106	3.38
741.856	2.38
742.607	4.38
743.357	1.38
744.107	3.38
744.857	2.38
745.607	5.38
746.357	1.38
747.106	1.38
747.856	0.38
748.606	0.38
749.355	3.38
750.105	3.38
750.854	3.38
751.603	0.38
752.353	6.38
753.102	2.38
753.851	4.38
754.6	4.38
755.349	5.38
756.098	4.38
756.847	2.38
757.595	2.38
758.344	5.38
759.093	2.38
759.841	3.38
760.589	2.38
761.338	2.38
762.086	5.38
762.834	4.38
763.582	3.38
764.331	4.38
765.079	7.38
765.826	2.38
766.574	4.38
767.322	6.38
768.07	5.38
768.817	4.38
769.565	6.38
770.312	5.38
771.06	4.38
771.807	4.38
772.554	4.38
773.302	6.38
774.049	7.38
774.796	5.38
775.543	3.38
776.29	5.38
777.036	8.38
777.783	6.38
778.53	3.38
779.276	8.38
780.023	5.38
780.769	5.38
781.516	4.38
782.262	3.38
783.008	6.38
783.754	6.38
784.5	6.38
785.246	6.38
785.992	6.38
786.738	3.38
787.484	6.38
788.23	5.38
788.975	5.38
789.721	7.38
790.466	6.38
791.212	5.38
791.957	6.38
792.702	6.38
793.447	5.38
794.193	6.38
794.938	4.38
795.683	6.38
796.427	5.38
797.172	7.38
797.917	3.38
798.662	7.38
799.406	5.38
800.151	3.38
800.895	5.38
801.64	5.38
802.384	4.38
803.128	4.38
803.872	5.38
804.616	6.38
805.36	4.38
806.104	4.38
806.848	5.38
807.592	7.38
808.336	3.38
809.079	5.38
809.823	5.38
810.566	4.38
811.31	4.38
812.053	4.38
812.796	4.38
813.539	4.38
814.283	3.38
815.026	4.38
815.769	2.38
816.511	5.38
817.254	1.38
817.997	4.38
818.74	3.38
819.482	4.38
820.225	4.38
820.967	4.38
821.71	4.38
822.452	1.38
823.194	3.38
823.936	2.38
824.678	3.38
825.42	4.38
826.162	3.38
826.904	5.38
827.646	3.38
828.388	2.38
829.129	3.38
829.871	3.38
830.612	2.38
831.354	2.38
832.095	1.38
832.836	2.38
833.577	3.38
834.319	4.38
835.06	2.38
835.801	4.38
836.542	3.38
837.282	3.38
838.023	2.38
838.764	2.38
839.504	2.38
840.245	2.38
840.985	3.38
841.726	1.38
842.466	2.38
843.206	1.38
843.946	1.38
844.687	2.38
845.427	1.38
846.166	3.38
846.906	1.38
847.646	3.38
848.386	4.38
849.125	2.38
849.865	3.38
850.605	2.38
851.344	3.38
852.083	1.38
852.823	3.38
853.562	2.38
854.301	2.38
855.04	2.38
855.779	1.38
856.518	4.38
857.257	1.38
857.995	2.38
858.734	1.38
859.473	2.38
860.211	1.38
860.95	1.38
861.688	2.38
862.426	2.38
863.165	0.38
863.903	1.38
864.641	0.38
865.379	1.38
866.117	1.38
866.855	3.38
867.593	1.38
868.33	2.38
869.068	1.38
869.806	0.38
870.543	2.38
871.28	-1.62
872.018	1.38
872.755	2.38
873.492	1.38
874.229	0.38
874.967	2.38
875.703	1.38
876.44	0.38
877.177	1.38
877.914	1.38
878.651	2.38
879.387	-2.62
880.124	1.38
880.86	2.38
881.597	0.38
882.333	0.38
883.069	1.38
883.806	1.38
884.542	1.38
885.278	0.38
886.014	0.38
886.749	0.38
887.485	2.38
888.221	2.38
888.957	0.38
889.692	0.38
890.428	-2.62
891.163	-0.62
891.899	2.38
892.634	3.38
893.369	-0.62
894.104	0.38
894.839	0.38
895.574	-0.62
896.309	2.38
897.044	2.38
897.779	2.38
898.514	1.38
899.248	-2.62
899.983	2.38
900.717	0.38
901.452	1.38
902.186	1.38
902.92	2.38
903.654	1.38
904.389	1.38
905.123	0.38
905.857	1.38
906.59	1.38
907.324	0.38
908.058	0.38
908.792	0.38
909.525	0.38
910.259	-1.62
910.992	1.38
911.726	1.38
912.459	1.38
913.192	-0.62
913.925	2.38
914.658	1.38
915.391	0.38
916.124	-0.62
916.857	3.38
917.59	0.38
918.323	2.38
919.055	3.38
919.788	-0.62
920.521	2.38
921.253	1.38
921.985	3.38
922.718	2.38
923.45	0.38
924.182	-1.62
924.914	-0.62
925.646	2.38
926.378	0.38
927.11	1.38
927.841	1.38
928.573	0.38
929.305	0.38
930.036	-0.62
930.768	-0.62
931.499	1.38
932.23	3.38
932.962	1.38
933.693	0.38
934.424	0.38
935.155	-0.62
935.886	1.38
936.617	-0.62
937.348	0.38
938.078	-1.62
938.809	-1.62
939.54	0.38
940.27	-0.62
941.001	1.38
941.731	0.38
942.461	0.38
943.191	0.38
943.922	-1.62
944.652	1.38
945.382	0.38
946.112	2.38
946.841	-1.62
947.571	0.38
948.301	1.38
949.031	0.38
949.76	0.38
950.49	-1.62
951.219	-0.62
951.948	1.38
952.678	1.38
953.407	2.38
954.136	0.38
954.865	0.38
955.594	-0.62
956.323	2.38
957.052	0.38
957.78	-0.62
958.509	1.38
959.238	-1.62
959.966	2.38
960.695	0.38
961.423	-1.62
962.151	2.38
962.88	0.38
963.608	0.38
964.336	-0.62
965.064	-0.62
965.792	1.38
966.52	0.38
967.247	1.38
967.975	2.38
968.703	1.38
969.43	1.38
970.158	0.38
970.885	-2.62
971.613	1.38
972.34	-1.62
973.067	-0.62
973.794	0.38
974.521	1.38
975.248	1.38
975.975	-0.62
976.702	1.38
977.429	1.38
978.156	-0.62
978.882	1.38
979.609	0.38
980.335	2.38
981.062	1.38
981.788	-0.62
982.514	0.38
983.24	-0.62
983.967	2.38
984.693	0.38
985.419	0.38
986.144	-0.62
986.87	0.38
987.596	0.38
988.322	1.38
989.047	-0.62
989.773	1.38
990.498	1.38
991.224	-1.62
991.949	2.38
992.674	2.38
993.399	1.38
994.124	-0.62
994.849	2.38
995.574	-0.62
996.299	1.38
997.024	-1.62
997.749	0.38
998.473	0.38
999.198	1.38
999.922	1.38
1000.647	0.38
1001.371	2.38
1002.095	-0.62
1002.82	-1.62
1003.544	0.38
1004.268	0.38
1004.992	0.38
1005.716	0.38
1006.439	0.38
1007.163	2.38
1007.887	0.38
1008.611	3.38
1009.334	0.38
1010.058	0.38
1010.781	0.38
1011.504	2.38
1012.228	0.38
1012.951	1.38
1013.674	0.38
1014.397	-1.62
1015.12	-0.62
