节点500_145_QEPB04081__662__11-39-28-020.txt的数据

Date: Wed Nov 12 11:39:28 CST 2025
User: PC
Spectrometer: QEPB0408
触发模式: 0
积分时间 (秒): 1.000000E-2
Scans to average: 1
启用暗噪声校正: true
启用非线性校正: false
滑动平均宽度: 0
X轴模式: Wavelengths
Number of Pixels in Spectrum: 1044
>>>>>Begin Spectral Data<<<<<
220.843	0.75
221.644	-0.25
222.444	1.75
223.244	1.75
224.045	-1.25
224.845	0.75
225.645	-1.25
226.445	2.75
227.245	-1.25
228.045	1.75
228.845	2.75
229.645	0.75
230.444	2.75
231.244	0.75
232.043	-2.25
232.843	-0.25
233.642	0.75
234.442	1.75
235.241	2.75
236.04	-0.25
236.839	1.75
237.638	-1.25
238.437	0.75
239.236	-0.25
240.035	-0.25
240.833	1.75
241.632	1.75
242.43	1.75
243.229	2.75
244.027	1.75
244.826	-0.25
245.624	1.75
246.422	-0.25
247.22	1.75
248.018	1.75
248.816	4.75
249.614	3.75
250.412	3.75
251.21	1.75
252.007	-0.25
252.805	3.75
253.602	2.75
254.4	2.75
255.197	2.75
255.994	2.75
256.791	1.75
257.589	2.75
258.386	4.75
259.183	3.75
259.979	4.75
260.776	3.75
261.573	3.75
262.37	5.75
263.166	3.75
263.963	5.75
264.759	3.75
265.556	5.75
266.352	4.75
267.148	3.75
267.944	5.75
268.74	7.75
269.536	4.75
270.332	5.75
271.128	6.75
271.924	8.75
272.719	5.75
273.515	5.75
274.311	7.75
275.106	7.75
275.901	9.75
276.697	8.75
277.492	6.75
278.287	7.75
279.082	8.75
279.877	9.75
280.672	8.75
281.467	10.75
282.262	8.75
283.056	9.75
283.851	8.75
284.646	10.75
285.44	9.75
286.234	9.75
287.029	9.75
287.823	9.75
288.617	11.75
289.411	8.75
290.205	10.75
290.999	8.75
291.793	9.75
292.587	10.75
293.381	10.75
294.174	5.75
294.968	7.75
295.761	7.75
296.555	9.75
297.348	9.75
298.141	8.75
298.935	9.75
299.728	7.75
300.521	8.75
301.314	8.75
302.107	5.75
302.899	9.75
303.692	7.75
304.485	7.75
305.277	7.75
306.07	8.75
306.862	8.75
307.655	10.75
308.447	8.75
309.239	6.75
310.031	6.75
310.823	5.75
311.615	7.75
312.407	5.75
313.199	4.75
313.991	4.75
314.783	4.75
315.574	5.75
316.366	5.75
317.157	5.75
317.949	7.75
318.74	5.75
319.531	3.75
320.322	5.75
321.113	5.75
321.904	6.75
322.695	4.75
323.486	2.75
324.277	4.75
325.068	4.75
325.858	4.75
326.649	3.75
327.439	5.75
328.23	3.75
329.02	4.75
329.81	6.75
330.6	5.75
331.391	4.75
332.181	2.75
332.971	3.75
333.76	0.75
334.55	3.75
335.34	3.75
336.13	3.75
336.919	4.75
337.709	2.75
338.498	4.75
339.287	3.75
340.077	2.75
340.866	2.75
341.655	2.75
342.444	4.75
343.233	3.75
344.022	3.75
344.811	3.75
345.6	1.75
346.388	2.75
347.177	2.75
347.965	2.75
348.754	1.75
349.542	3.75
350.33	2.75
351.119	2.75
351.907	4.75
352.695	2.75
353.483	2.75
354.271	2.75
355.059	4.75
355.846	3.75
356.634	4.75
357.422	6.75
358.209	2.75
358.997	4.75
359.784	3.75
360.571	2.75
361.359	1.75
362.146	2.75
362.933	2.75
363.72	0.75
364.507	3.75
365.294	1.75
366.081	1.75
366.867	4.75
367.654	1.75
368.44	5.75
369.227	3.75
370.013	2.75
370.8	3.75
371.586	3.75
372.372	0.75
373.158	1.75
373.944	0.75
374.73	0.75
375.516	2.75
376.302	-0.25
377.088	3.75
377.873	3.75
378.659	3.75
379.445	1.75
380.23	1.75
381.015	4.75
381.801	4.75
382.586	4.75
383.371	3.75
384.156	2.75
384.941	2.75
385.726	3.75
386.511	3.75
387.296	2.75
388.08	4.75
388.865	3.75
389.649	1.75
390.434	2.75
391.218	2.75
392.003	4.75
392.787	1.75
393.571	0.75
394.355	3.75
395.139	3.75
395.923	3.75
396.707	2.75
397.491	3.75
398.274	2.75
399.058	3.75
399.842	2.75
400.625	1.75
401.408	4.75
402.192	3.75
402.975	0.75
403.758	3.75
404.541	3.75
405.324	3.75
406.107	3.75
406.89	3.75
407.673	5.75
408.456	4.75
409.238	5.75
410.021	3.75
410.803	3.75
411.586	4.75
412.368	6.75
413.151	3.75
413.933	4.75
414.715	2.75
415.497	3.75
416.279	4.75
417.061	1.75
417.843	4.75
418.624	5.75
419.406	5.75
420.188	6.75
420.969	5.75
421.751	7.75
422.532	3.75
423.313	2.75
424.095	5.75
424.876	4.75
425.657	4.75
426.438	5.75
427.219	6.75
428	6.75
428.78	8.75
429.561	7.75
430.342	7.75
431.122	6.75
431.903	6.75
432.683	8.75
433.464	6.75
434.244	8.75
435.024	10.75
435.804	8.75
436.584	10.75
437.364	11.75
438.144	7.75
438.924	7.75
439.704	9.75
440.483	12.75
441.263	11.75
442.042	12.75
442.822	12.75
443.601	13.75
444.38	13.75
445.16	14.75
445.939	17.75
446.718	19.75
447.497	18.75
448.276	19.75
449.054	23.75
449.833	26.75
450.612	25.75
451.391	31.75
452.169	33.75
452.948	35.75
453.726	36.75
454.504	43.75
455.282	43.75
456.061	50.75
456.839	55.75
457.617	61.75
458.395	72.75
459.172	73.75
459.95	84.75
460.728	93.75
461.506	102.75
462.283	112.75
463.061	127.75
463.838	138.75
464.615	156.75
465.393	177.75
466.17	191.75
466.947	216.75
467.724	247.75
468.501	267.75
469.278	290.75
470.055	327.75
470.831	369.75
471.608	398.75
472.385	445.75
473.161	487.75
473.938	528.75
474.714	594.75
475.49	653.75
476.266	717.75
477.043	798.75
477.819	880.75
478.595	976.75
479.371	1062.75
480.146	1175.75
480.922	1276.75
481.698	1389.75
482.473	1531.75
483.249	1651.75
484.024	1826.75
484.8	2008.75
485.575	2177.75
486.35	2372.75
487.126	2617.75
487.901	2851.75
488.676	3118.75
489.451	3377.75
490.225	3686.75
491	4053.75
491.775	4393.75
492.55	4783.75
493.324	5201.75
494.099	5676.75
494.873	6118.75
495.647	6629.75
496.422	7185.75
497.196	7743.75
497.97	8341.75
498.744	8955.75
499.518	9632.75
500.292	10245.75
501.066	10878.75
501.839	11495.75
502.613	12086.75
503.387	12661.75
504.16	13184.75
504.934	13728.75
505.707	14080.75
506.48	14463.75
507.253	14757.75
508.027	14937.75
508.8	15026.75
509.573	15013.75
510.346	15042.75
511.118	14799.75
511.891	14613.75
512.664	14291.75
513.437	13929.75
514.209	13509.75
514.982	13075.75
515.754	12630.75
516.526	12126.75
517.298	11659.75
518.071	11158.75
518.843	10734.75
519.615	10237.75
520.387	9860.75
521.159	9483.75
521.93	9102.75
522.702	8737.75
523.474	8393.75
524.245	8055.75
525.017	7731.75
525.788	7412.75
526.56	7130.75
527.331	6869.75
528.102	6570.75
528.873	6290.75
529.644	6003.75
530.415	5778.75
531.186	5512.75
531.957	5281.75
532.728	5020.75
533.498	4756.75
534.269	4493.75
535.039	4289.75
535.81	4067.75
536.58	3841.75
537.351	3624.75
538.121	3447.75
538.891	3245.75
539.661	3101.75
540.431	2899.75
541.201	2752.75
541.971	2614.75
542.741	2485.75
543.51	2350.75
544.28	2240.75
545.05	2124.75
545.819	2014.75
546.588	1913.75
547.358	1811.75
548.127	1719.75
548.896	1641.75
549.665	1557.75
550.434	1477.75
551.203	1404.75
551.972	1351.75
552.741	1264.75
553.51	1194.75
554.278	1143.75
555.047	1071.75
555.815	1018.75
556.584	964.75
557.352	903.75
558.121	871.75
558.889	810.75
559.657	770.75
560.425	722.75
561.193	677.75
561.961	647.75
562.729	616.75
563.496	576.75
564.264	545.75
565.032	513.75
565.799	483.75
566.567	454.75
567.334	424.75
568.101	409.75
568.869	383.75
569.636	366.75
570.403	346.75
571.17	320.75
571.937	303.75
572.704	282.75
573.471	270.75
574.237	253.75
575.004	233.75
575.771	228.75
576.537	213.75
577.303	200.75
578.07	188.75
578.836	183.75
579.602	165.75
580.368	156.75
581.134	145.75
581.9	144.75
582.666	138.75
583.432	126.75
584.198	122.75
584.964	112.75
585.729	104.75
586.495	100.75
587.26	97.75
588.025	91.75
588.791	86.75
589.556	81.75
590.321	78.75
591.086	72.75
591.851	70.75
592.616	61.75
593.381	61.75
594.146	58.75
594.911	55.75
595.675	58.75
596.44	52.75
597.204	50.75
597.969	45.75
598.733	44.75
599.497	41.75
600.261	42.75
601.025	38.75
601.79	35.75
602.553	33.75
603.317	29.75
604.081	34.75
604.845	30.75
605.609	28.75
606.372	27.75
607.136	27.75
607.899	27.75
608.662	25.75
609.426	21.75
610.189	22.75
610.952	22.75
611.715	18.75
612.478	19.75
613.241	21.75
614.004	17.75
614.767	18.75
615.529	16.75
616.292	17.75
617.055	15.75
617.817	16.75
618.579	13.75
619.342	13.75
620.104	12.75
620.866	13.75
621.628	12.75
622.39	11.75
623.152	10.75
623.914	10.75
624.676	11.75
625.438	9.75
626.199	8.75
626.961	10.75
627.722	11.75
628.484	8.75
629.245	7.75
630.006	7.75
630.768	8.75
631.529	8.75
632.29	6.75
633.051	6.75
633.812	7.75
634.573	6.75
635.333	7.75
636.094	7.75
636.855	8.75
637.615	5.75
638.376	5.75
639.136	6.75
639.896	5.75
640.657	6.75
641.417	4.75
642.177	4.75
642.937	2.75
643.697	4.75
644.457	4.75
645.216	5.75
645.976	6.75
646.736	4.75
647.495	7.75
648.255	5.75
649.014	2.75
649.774	2.75
650.533	2.75
651.292	6.75
652.051	4.75
652.81	4.75
653.569	2.75
654.328	3.75
655.087	1.75
655.846	2.75
656.604	3.75
657.363	3.75
658.121	0.75
658.88	2.75
659.638	2.75
660.397	1.75
661.155	3.75
661.913	3.75
662.671	3.75
663.429	3.75
664.187	4.75
664.945	4.75
665.703	2.75
666.46	5.75
667.218	3.75
667.976	2.75
668.733	1.75
669.49	2.75
670.248	2.75
671.005	4.75
671.762	1.75
672.519	5.75
673.276	2.75
674.033	3.75
674.79	2.75
675.547	1.75
676.304	3.75
677.06	3.75
677.817	3.75
678.574	2.75
679.33	1.75
680.086	4.75
680.843	2.75
681.599	2.75
682.355	2.75
683.111	3.75
683.867	3.75
684.623	2.75
685.379	2.75
686.135	2.75
686.89	2.75
687.646	3.75
688.402	1.75
689.157	-0.25
689.912	3.75
690.668	4.75
691.423	0.75
692.178	2.75
692.933	0.75
693.688	1.75
694.443	2.75
695.198	5.75
695.953	-0.25
696.708	4.75
697.462	1.75
698.217	1.75
698.972	2.75
699.726	1.75
700.48	2.75
701.235	0.75
701.989	1.75
702.743	1.75
703.497	1.75
704.251	0.75
705.005	1.75
705.759	2.75
706.513	1.75
707.266	2.75
708.02	-0.25
708.774	1.75
709.527	2.75
710.28	2.75
711.034	2.75
711.787	0.75
712.54	2.75
713.293	2.75
714.046	1.75
714.799	1.75
715.552	1.75
716.305	2.75
717.058	2.75
717.81	0.75
718.563	1.75
719.315	1.75
720.068	1.75
720.82	1.75
721.573	1.75
722.325	-0.25
723.077	4.75
723.829	2.75
724.581	1.75
725.333	2.75
726.085	0.75
726.836	1.75
727.588	-0.25
728.34	2.75
729.091	1.75
729.843	2.75
730.594	2.75
731.346	1.75
732.097	0.75
732.848	2.75
733.599	2.75
734.35	1.75
735.101	0.75
735.852	1.75
736.603	1.75
737.354	3.75
738.104	1.75
738.855	3.75
739.605	3.75
740.356	0.75
741.106	1.75
741.856	2.75
742.607	2.75
743.357	1.75
744.107	1.75
744.857	3.75
745.607	3.75
746.357	1.75
747.106	1.75
747.856	2.75
748.606	2.75
749.355	1.75
750.105	2.75
750.854	2.75
751.603	3.75
752.353	2.75
753.102	4.75
753.851	2.75
754.6	4.75
755.349	3.75
756.098	3.75
756.847	1.75
757.595	3.75
758.344	2.75
759.093	1.75
759.841	4.75
760.589	3.75
761.338	1.75
762.086	3.75
762.834	3.75
763.582	4.75
764.331	3.75
765.079	4.75
765.826	4.75
766.574	2.75
767.322	4.75
768.07	4.75
768.817	4.75
769.565	1.75
770.312	3.75
771.06	2.75
771.807	2.75
772.554	4.75
773.302	3.75
774.049	3.75
774.796	4.75
775.543	1.75
776.29	7.75
777.036	4.75
777.783	2.75
778.53	3.75
779.276	5.75
780.023	2.75
780.769	2.75
781.516	5.75
782.262	2.75
783.008	1.75
783.754	5.75
784.5	4.75
785.246	4.75
785.992	4.75
786.738	3.75
787.484	2.75
788.23	3.75
788.975	4.75
789.721	4.75
790.466	5.75
791.212	5.75
791.957	5.75
792.702	3.75
793.447	1.75
794.193	2.75
794.938	4.75
795.683	3.75
796.427	3.75
797.172	3.75
797.917	2.75
798.662	3.75
799.406	4.75
800.151	5.75
800.895	5.75
801.64	5.75
802.384	6.75
803.128	3.75
803.872	3.75
804.616	3.75
805.36	4.75
806.104	2.75
806.848	2.75
807.592	2.75
808.336	4.75
809.079	1.75
809.823	2.75
810.566	4.75
811.31	1.75
812.053	4.75
812.796	3.75
813.539	3.75
814.283	3.75
815.026	3.75
815.769	4.75
816.511	4.75
817.254	2.75
817.997	4.75
818.74	3.75
819.482	3.75
820.225	1.75
820.967	4.75
821.71	3.75
822.452	3.75
823.194	1.75
823.936	5.75
824.678	4.75
825.42	3.75
826.162	3.75
826.904	3.75
827.646	3.75
828.388	3.75
829.129	3.75
829.871	2.75
830.612	1.75
831.354	4.75
832.095	2.75
832.836	2.75
833.577	3.75
834.319	2.75
835.06	1.75
835.801	1.75
836.542	1.75
837.282	1.75
838.023	1.75
838.764	5.75
839.504	3.75
840.245	4.75
840.985	0.75
841.726	0.75
842.466	4.75
843.206	1.75
843.946	1.75
844.687	3.75
845.427	3.75
846.166	-0.25
846.906	2.75
847.646	3.75
848.386	3.75
849.125	2.75
849.865	2.75
850.605	3.75
851.344	0.75
852.083	3.75
852.823	1.75
853.562	2.75
854.301	2.75
855.04	1.75
855.779	1.75
856.518	3.75
857.257	1.75
857.995	1.75
858.734	0.75
859.473	3.75
860.211	-0.25
860.95	2.75
861.688	2.75
862.426	3.75
863.165	-0.25
863.903	-0.25
864.641	2.75
865.379	1.75
866.117	3.75
866.855	0.75
867.593	0.75
868.33	1.75
869.068	1.75
869.806	1.75
870.543	1.75
871.28	2.75
872.018	-1.25
872.755	1.75
873.492	-0.25
874.229	0.75
874.967	1.75
875.703	1.75
876.44	1.75
877.177	1.75
877.914	1.75
878.651	0.75
879.387	-0.25
880.124	-0.25
880.86	-0.25
881.597	0.75
882.333	2.75
883.069	0.75
883.806	0.75
884.542	-0.25
885.278	1.75
886.014	1.75
886.749	1.75
887.485	1.75
888.221	0.75
888.957	1.75
889.692	1.75
890.428	0.75
891.163	-1.25
891.899	-0.25
892.634	1.75
893.369	-0.25
894.104	-0.25
894.839	-2.25
895.574	1.75
896.309	-1.25
897.044	-0.25
897.779	0.75
898.514	2.75
899.248	-0.25
899.983	-1.25
900.717	0.75
901.452	-0.25
902.186	1.75
902.92	-2.25
903.654	-0.25
904.389	-1.25
905.123	-1.25
905.857	1.75
906.59	-0.25
907.324	0.75
908.058	1.75
908.792	0.75
909.525	-1.25
910.259	1.75
910.992	0.75
911.726	-0.25
912.459	1.75
913.192	0.75
913.925	-0.25
914.658	0.75
915.391	1.75
916.124	-1.25
916.857	1.75
917.59	-1.25
918.323	0.75
919.055	-1.25
919.788	0.75
920.521	-0.25
921.253	1.75
921.985	-1.25
922.718	-1.25
923.45	-1.25
924.182	-0.25
924.914	1.75
925.646	1.75
926.378	0.75
927.11	-1.25
927.841	0.75
928.573	0.75
929.305	1.75
930.036	1.75
930.768	-0.25
931.499	1.75
932.23	-0.25
932.962	-1.25
933.693	1.75
934.424	2.75
935.155	1.75
935.886	-0.25
936.617	2.75
937.348	1.75
938.078	-1.25
938.809	1.75
939.54	0.75
940.27	0.75
941.001	1.75
941.731	0.75
942.461	1.75
943.191	-0.25
943.922	1.75
944.652	-0.25
945.382	0.75
946.112	-0.25
946.841	0.75
947.571	0.75
948.301	0.75
949.031	-0.25
949.76	-1.25
950.49	-0.25
951.219	-0.25
951.948	1.75
952.678	1.75
953.407	0.75
954.136	1.75
954.865	2.75
955.594	0.75
956.323	-1.25
957.052	0.75
957.78	1.75
958.509	1.75
959.238	1.75
959.966	-0.25
960.695	-1.25
961.423	1.75
962.151	-0.25
962.88	-1.25
963.608	1.75
964.336	0.75
965.064	1.75
965.792	0.75
966.52	1.75
967.247	-0.25
967.975	2.75
968.703	-0.25
969.43	0.75
970.158	-0.25
970.885	0.75
971.613	-1.25
972.34	-1.25
973.067	-0.25
973.794	0.75
974.521	0.75
975.248	-1.25
975.975	-0.25
976.702	1.75
977.429	1.75
978.156	0.75
978.882	-0.25
979.609	0.75
980.335	-0.25
981.062	-0.25
981.788	-1.25
982.514	-1.25
983.24	0.75
983.967	-0.25
984.693	-1.25
985.419	0.75
986.144	0.75
986.87	-1.25
987.596	-1.25
988.322	0.75
989.047	-0.25
989.773	1.75
990.498	-0.25
991.224	-0.25
991.949	0.75
992.674	0.75
993.399	1.75
994.124	0.75
994.849	1.75
995.574	0.75
996.299	0.75
997.024	-1.25
997.749	-1.25
998.473	0.75
999.198	0.75
999.922	1.75
1000.647	0.75
1001.371	3.75
1002.095	-2.25
1002.82	-0.25
1003.544	-0.25
1004.268	-1.25
1004.992	-0.25
1005.716	5.75
1006.439	0.75
1007.163	1.75
1007.887	0.75
1008.611	2.75
1009.334	-2.25
1010.058	0.75
1010.781	1.75
1011.504	-2.25
1012.228	-0.25
1012.951	0.75
1013.674	-1.25
1014.397	-1.25
1015.12	0.75
