节点500_145_QEPB04081__292__11-33-38-454.txt的数据

Date: Wed Nov 12 11:33:38 CST 2025
User: PC
Spectrometer: QEPB0408
触发模式: 0
积分时间 (秒): 1.000000E-2
Scans to average: 1
启用暗噪声校正: true
启用非线性校正: false
滑动平均宽度: 0
X轴模式: Wavelengths
Number of Pixels in Spectrum: 1044
>>>>>Begin Spectral Data<<<<<
220.843	-2.12
221.644	0.88
222.444	1.88
223.244	0.88
224.045	0.88
224.845	-0.12
225.645	-0.12
226.445	-0.12
227.245	-2.12
228.045	0.88
228.845	-0.12
229.645	0.88
230.444	-1.12
231.244	0.88
232.043	-2.12
232.843	-2.12
233.642	1.88
234.442	0.88
235.241	-1.12
236.04	-1.12
236.839	0.88
237.638	0.88
238.437	1.88
239.236	0.88
240.035	0.88
240.833	0.88
241.632	1.88
242.43	-0.12
243.229	1.88
244.027	-1.12
244.826	0.88
245.624	-0.12
246.422	1.88
247.22	2.88
248.018	0.88
248.816	2.88
249.614	1.88
250.412	1.88
251.21	3.88
252.007	0.88
252.805	2.88
253.602	1.88
254.4	4.88
255.197	0.88
255.994	2.88
256.791	2.88
257.589	2.88
258.386	3.88
259.183	4.88
259.979	4.88
260.776	1.88
261.573	4.88
262.37	5.88
263.166	4.88
263.963	4.88
264.759	5.88
265.556	5.88
266.352	4.88
267.148	4.88
267.944	5.88
268.74	6.88
269.536	5.88
270.332	5.88
271.128	6.88
271.924	7.88
272.719	7.88
273.515	8.88
274.311	8.88
275.106	10.88
275.901	6.88
276.697	8.88
277.492	9.88
278.287	5.88
279.082	7.88
279.877	7.88
280.672	9.88
281.467	9.88
282.262	9.88
283.056	11.88
283.851	10.88
284.646	11.88
285.44	8.88
286.234	8.88
287.029	10.88
287.823	8.88
288.617	10.88
289.411	12.88
290.205	11.88
290.999	10.88
291.793	8.88
292.587	10.88
293.381	9.88
294.174	12.88
294.968	9.88
295.761	9.88
296.555	8.88
297.348	8.88
298.141	8.88
298.935	11.88
299.728	11.88
300.521	8.88
301.314	7.88
302.107	8.88
302.899	8.88
303.692	9.88
304.485	8.88
305.277	7.88
306.07	7.88
306.862	8.88
307.655	7.88
308.447	8.88
309.239	6.88
310.031	5.88
310.823	5.88
311.615	5.88
312.407	4.88
313.199	6.88
313.991	4.88
314.783	4.88
315.574	3.88
316.366	3.88
317.157	4.88
317.949	4.88
318.74	2.88
319.531	4.88
320.322	3.88
321.113	2.88
321.904	5.88
322.695	3.88
323.486	3.88
324.277	4.88
325.068	5.88
325.858	3.88
326.649	5.88
327.439	5.88
328.23	3.88
329.02	3.88
329.81	3.88
330.6	4.88
331.391	4.88
332.181	4.88
332.971	2.88
333.76	4.88
334.55	4.88
335.34	1.88
336.13	4.88
336.919	1.88
337.709	3.88
338.498	3.88
339.287	0.88
340.077	1.88
340.866	0.88
341.655	4.88
342.444	1.88
343.233	4.88
344.022	3.88
344.811	1.88
345.6	2.88
346.388	1.88
347.177	3.88
347.965	3.88
348.754	1.88
349.542	4.88
350.33	4.88
351.119	2.88
351.907	4.88
352.695	-0.12
353.483	1.88
354.271	1.88
355.059	3.88
355.846	1.88
356.634	2.88
357.422	1.88
358.209	2.88
358.997	3.88
359.784	-0.12
360.571	1.88
361.359	4.88
362.146	0.88
362.933	1.88
363.72	3.88
364.507	2.88
365.294	0.88
366.081	5.88
366.867	1.88
367.654	1.88
368.44	3.88
369.227	1.88
370.013	4.88
370.8	1.88
371.586	0.88
372.372	2.88
373.158	1.88
373.944	1.88
374.73	1.88
375.516	2.88
376.302	2.88
377.088	2.88
377.873	0.88
378.659	1.88
379.445	2.88
380.23	0.88
381.015	4.88
381.801	1.88
382.586	1.88
383.371	0.88
384.156	1.88
384.941	1.88
385.726	1.88
386.511	1.88
387.296	1.88
388.08	5.88
388.865	3.88
389.649	4.88
390.434	1.88
391.218	1.88
392.003	2.88
392.787	2.88
393.571	2.88
394.355	2.88
395.139	0.88
395.923	2.88
396.707	3.88
397.491	3.88
398.274	1.88
399.058	3.88
399.842	4.88
400.625	2.88
401.408	4.88
402.192	4.88
402.975	1.88
403.758	5.88
404.541	4.88
405.324	4.88
406.107	0.88
406.89	3.88
407.673	4.88
408.456	2.88
409.238	3.88
410.021	2.88
410.803	2.88
411.586	4.88
412.368	4.88
413.151	3.88
413.933	4.88
414.715	4.88
415.497	3.88
416.279	2.88
417.061	4.88
417.843	5.88
418.624	3.88
419.406	4.88
420.188	3.88
420.969	4.88
421.751	3.88
422.532	6.88
423.313	4.88
424.095	4.88
424.876	6.88
425.657	5.88
426.438	6.88
427.219	6.88
428	6.88
428.78	6.88
429.561	4.88
430.342	6.88
431.122	4.88
431.903	6.88
432.683	3.88
433.464	6.88
434.244	7.88
435.024	8.88
435.804	8.88
436.584	9.88
437.364	9.88
438.144	12.88
438.924	11.88
439.704	12.88
440.483	9.88
441.263	10.88
442.042	12.88
442.822	9.88
443.601	13.88
444.38	11.88
445.16	18.88
445.939	15.88
446.718	18.88
447.497	16.88
448.276	19.88
449.054	20.88
449.833	22.88
450.612	25.88
451.391	22.88
452.169	29.88
452.948	28.88
453.726	32.88
454.504	36.88
455.282	41.88
456.061	48.88
456.839	51.88
457.617	50.88
458.395	58.88
459.172	64.88
459.95	72.88
460.728	79.88
461.506	90.88
462.283	101.88
463.061	118.88
463.838	121.88
464.615	137.88
465.393	161.88
466.17	171.88
466.947	188.88
467.724	218.88
468.501	238.88
469.278	267.88
470.055	299.88
470.831	325.88
471.608	375.88
472.385	411.88
473.161	458.88
473.938	503.88
474.714	559.88
475.49	630.88
476.266	685.88
477.043	772.88
477.819	855.88
478.595	940.88
479.371	1040.88
480.146	1157.88
480.922	1278.88
481.698	1391.88
482.473	1544.88
483.249	1705.88
484.024	1872.88
484.8	2053.88
485.575	2263.88
486.35	2506.88
487.126	2776.88
487.901	3040.88
488.676	3366.88
489.451	3713.88
490.225	4070.88
491	4451.88
491.775	4900.88
492.55	5379.88
493.324	5899.88
494.099	6418.88
494.873	7025.88
495.647	7678.88
496.422	8303.88
497.196	8992.88
497.97	9718.88
498.744	10442.88
499.518	11187.88
500.292	11863.88
501.066	12580.88
501.839	13338.88
502.613	13948.88
503.387	14638.88
504.16	15173.88
504.934	15593.88
505.707	15966.88
506.48	16268.88
507.253	16421.88
508.027	16519.88
508.8	16426.88
509.573	16278.88
510.346	16038.88
511.118	15743.88
511.891	15334.88
512.664	14848.88
513.437	14309.88
514.209	13757.88
514.982	13259.88
515.754	12733.88
516.526	12215.88
517.298	11653.88
518.071	11135.88
518.843	10604.88
519.615	10204.88
520.387	9773.88
521.159	9350.88
521.93	9005.88
522.702	8606.88
523.474	8295.88
524.245	8007.88
525.017	7634.88
525.788	7353.88
526.56	7041.88
527.331	6770.88
528.102	6452.88
528.873	6165.88
529.644	5916.88
530.415	5629.88
531.186	5364.88
531.957	5110.88
532.728	4811.88
533.498	4545.88
534.269	4317.88
535.039	4086.88
535.81	3854.88
536.58	3625.88
537.351	3436.88
538.121	3270.88
538.891	3077.88
539.661	2895.88
540.431	2744.88
541.201	2600.88
541.971	2457.88
542.741	2323.88
543.51	2220.88
544.28	2100.88
545.05	2000.88
545.819	1880.88
546.588	1799.88
547.358	1701.88
548.127	1620.88
548.896	1547.88
549.665	1473.88
550.434	1401.88
551.203	1322.88
551.972	1256.88
552.741	1189.88
553.51	1126.88
554.278	1063.88
555.047	1002.88
555.815	943.88
556.584	891.88
557.352	845.88
558.121	803.88
558.889	748.88
559.657	707.88
560.425	659.88
561.193	626.88
561.961	597.88
562.729	567.88
563.496	528.88
564.264	500.88
565.032	476.88
565.799	441.88
566.567	418.88
567.334	396.88
568.101	378.88
568.869	354.88
569.636	326.88
570.403	313.88
571.17	294.88
571.937	278.88
572.704	255.88
573.471	244.88
574.237	236.88
575.004	219.88
575.771	206.88
576.537	194.88
577.303	185.88
578.07	171.88
578.836	157.88
579.602	153.88
580.368	147.88
581.134	140.88
581.9	128.88
582.666	121.88
583.432	123.88
584.198	105.88
584.964	95.88
585.729	97.88
586.495	93.88
587.26	85.88
588.025	83.88
588.791	75.88
589.556	73.88
590.321	68.88
591.086	65.88
591.851	63.88
592.616	61.88
593.381	56.88
594.146	52.88
594.911	51.88
595.675	46.88
596.44	48.88
597.204	43.88
597.969	40.88
598.733	40.88
599.497	39.88
600.261	35.88
601.025	37.88
601.79	33.88
602.553	32.88
603.317	29.88
604.081	27.88
604.845	26.88
605.609	26.88
606.372	22.88
607.136	22.88
607.899	23.88
608.662	24.88
609.426	24.88
610.189	18.88
610.952	17.88
611.715	19.88
612.478	17.88
613.241	16.88
614.004	18.88
614.767	15.88
615.529	14.88
616.292	13.88
617.055	11.88
617.817	12.88
618.579	12.88
619.342	12.88
620.104	12.88
620.866	12.88
621.628	12.88
622.39	13.88
623.152	9.88
623.914	9.88
624.676	8.88
625.438	11.88
626.199	10.88
626.961	7.88
627.722	6.88
628.484	7.88
629.245	6.88
630.006	6.88
630.768	6.88
631.529	6.88
632.29	6.88
633.051	7.88
633.812	7.88
634.573	6.88
635.333	7.88
636.094	5.88
636.855	5.88
637.615	4.88
638.376	6.88
639.136	5.88
639.896	6.88
640.657	6.88
641.417	2.88
642.177	2.88
642.937	4.88
643.697	3.88
644.457	3.88
645.216	4.88
645.976	2.88
646.736	3.88
647.495	3.88
648.255	2.88
649.014	2.88
649.774	5.88
650.533	3.88
651.292	4.88
652.051	3.88
652.81	3.88
653.569	2.88
654.328	1.88
655.087	5.88
655.846	2.88
656.604	4.88
657.363	4.88
658.121	2.88
658.88	2.88
659.638	1.88
660.397	2.88
661.155	0.88
661.913	3.88
662.671	2.88
663.429	2.88
664.187	3.88
664.945	2.88
665.703	0.88
666.46	0.88
667.218	0.88
667.976	1.88
668.733	2.88
669.49	1.88
670.248	1.88
671.005	0.88
671.762	2.88
672.519	4.88
673.276	2.88
674.033	3.88
674.79	2.88
675.547	2.88
676.304	0.88
677.06	0.88
677.817	3.88
678.574	0.88
679.33	0.88
680.086	1.88
680.843	0.88
681.599	0.88
682.355	-0.12
683.111	3.88
683.867	0.88
684.623	1.88
685.379	1.88
686.135	0.88
686.89	2.88
687.646	-2.12
688.402	0.88
689.157	1.88
689.912	0.88
690.668	0.88
691.423	0.88
692.178	1.88
692.933	1.88
693.688	3.88
694.443	-0.12
695.198	1.88
695.953	0.88
696.708	-0.12
697.462	1.88
698.217	1.88
698.972	2.88
699.726	0.88
700.48	1.88
701.235	4.88
701.989	-1.12
702.743	0.88
703.497	1.88
704.251	0.88
705.005	2.88
705.759	0.88
706.513	1.88
707.266	0.88
708.02	3.88
708.774	3.88
709.527	4.88
710.28	3.88
711.034	0.88
711.787	1.88
712.54	1.88
713.293	2.88
714.046	1.88
714.799	0.88
715.552	1.88
716.305	3.88
717.058	1.88
717.81	0.88
718.563	0.88
719.315	1.88
720.068	0.88
720.82	1.88
721.573	0.88
722.325	-0.12
723.077	0.88
723.829	1.88
724.581	0.88
725.333	2.88
726.085	0.88
726.836	1.88
727.588	1.88
728.34	2.88
729.091	1.88
729.843	2.88
730.594	2.88
731.346	0.88
732.097	0.88
732.848	2.88
733.599	-0.12
734.35	2.88
735.101	-0.12
735.852	2.88
736.603	3.88
737.354	0.88
738.104	1.88
738.855	0.88
739.605	3.88
740.356	1.88
741.106	2.88
741.856	2.88
742.607	1.88
743.357	1.88
744.107	-1.12
744.857	3.88
745.607	3.88
746.357	2.88
747.106	2.88
747.856	1.88
748.606	1.88
749.355	1.88
750.105	1.88
750.854	1.88
751.603	1.88
752.353	2.88
753.102	0.88
753.851	3.88
754.6	-0.12
755.349	3.88
756.098	1.88
756.847	3.88
757.595	1.88
758.344	2.88
759.093	2.88
759.841	2.88
760.589	5.88
761.338	2.88
762.086	3.88
762.834	2.88
763.582	1.88
764.331	2.88
765.079	2.88
765.826	3.88
766.574	0.88
767.322	2.88
768.07	1.88
768.817	1.88
769.565	1.88
770.312	1.88
771.06	4.88
771.807	2.88
772.554	3.88
773.302	5.88
774.049	2.88
774.796	4.88
775.543	2.88
776.29	4.88
777.036	3.88
777.783	2.88
778.53	3.88
779.276	3.88
780.023	5.88
780.769	3.88
781.516	3.88
782.262	4.88
783.008	1.88
783.754	4.88
784.5	4.88
785.246	4.88
785.992	3.88
786.738	3.88
787.484	7.88
788.23	5.88
788.975	5.88
789.721	5.88
790.466	2.88
791.212	6.88
791.957	6.88
792.702	3.88
793.447	5.88
794.193	4.88
794.938	6.88
795.683	2.88
796.427	6.88
797.172	3.88
797.917	4.88
798.662	3.88
799.406	3.88
800.151	5.88
800.895	4.88
801.64	3.88
802.384	2.88
803.128	0.88
803.872	2.88
804.616	4.88
805.36	3.88
806.104	4.88
806.848	1.88
807.592	5.88
808.336	5.88
809.079	3.88
809.823	4.88
810.566	1.88
811.31	2.88
812.053	1.88
812.796	1.88
813.539	0.88
814.283	2.88
815.026	2.88
815.769	3.88
816.511	2.88
817.254	1.88
817.997	3.88
818.74	2.88
819.482	1.88
820.225	2.88
820.967	1.88
821.71	4.88
822.452	2.88
823.194	1.88
823.936	3.88
824.678	0.88
825.42	3.88
826.162	-0.12
826.904	1.88
827.646	2.88
828.388	0.88
829.129	0.88
829.871	0.88
830.612	2.88
831.354	1.88
832.095	1.88
832.836	1.88
833.577	2.88
834.319	1.88
835.06	3.88
835.801	3.88
836.542	2.88
837.282	2.88
838.023	2.88
838.764	2.88
839.504	0.88
840.245	0.88
840.985	1.88
841.726	0.88
842.466	2.88
843.206	1.88
843.946	1.88
844.687	0.88
845.427	1.88
846.166	0.88
846.906	0.88
847.646	1.88
848.386	2.88
849.125	1.88
849.865	2.88
850.605	0.88
851.344	2.88
852.083	0.88
852.823	1.88
853.562	-1.12
854.301	3.88
855.04	1.88
855.779	-0.12
856.518	2.88
857.257	1.88
857.995	-0.12
858.734	0.88
859.473	0.88
860.211	0.88
860.95	-2.12
861.688	-0.12
862.426	0.88
863.165	0.88
863.903	-1.12
864.641	-0.12
865.379	0.88
866.117	0.88
866.855	2.88
867.593	0.88
868.33	0.88
869.068	-0.12
869.806	1.88
870.543	0.88
871.28	0.88
872.018	0.88
872.755	0.88
873.492	0.88
874.229	0.88
874.967	-0.12
875.703	-0.12
876.44	-0.12
877.177	0.88
877.914	-0.12
878.651	0.88
879.387	0.88
880.124	-2.12
880.86	-0.12
881.597	-0.12
882.333	-0.12
883.069	0.88
883.806	0.88
884.542	-0.12
885.278	0.88
886.014	0.88
886.749	-0.12
887.485	-2.12
888.221	0.88
888.957	-2.12
889.692	2.88
890.428	-0.12
891.163	-0.12
891.899	0.88
892.634	-1.12
893.369	-2.12
894.104	-2.12
894.839	0.88
895.574	1.88
896.309	2.88
897.044	0.88
897.779	-1.12
898.514	-1.12
899.248	0.88
899.983	1.88
900.717	-2.12
901.452	-1.12
902.186	-0.12
902.92	0.88
903.654	-1.12
904.389	1.88
905.123	0.88
905.857	-2.12
906.59	1.88
907.324	0.88
908.058	0.88
908.792	0.88
909.525	-0.12
910.259	-0.12
910.992	-1.12
911.726	0.88
912.459	-2.12
913.192	1.88
913.925	-0.12
914.658	-0.12
915.391	-0.12
916.124	0.88
916.857	2.88
917.59	0.88
918.323	-0.12
919.055	-2.12
919.788	-2.12
920.521	-2.12
921.253	0.88
921.985	-0.12
922.718	0.88
923.45	0.88
924.182	-0.12
924.914	0.88
925.646	-1.12
926.378	-2.12
927.11	-0.12
927.841	-2.12
928.573	-1.12
929.305	-0.12
930.036	-2.12
930.768	-2.12
931.499	-0.12
932.23	1.88
932.962	0.88
933.693	0.88
934.424	0.88
935.155	-0.12
935.886	1.88
936.617	-2.12
937.348	1.88
938.078	1.88
938.809	0.88
939.54	0.88
940.27	-0.12
941.001	-0.12
941.731	-0.12
942.461	0.88
943.191	2.88
943.922	-1.12
944.652	-2.12
945.382	-0.12
946.112	0.88
946.841	-1.12
947.571	0.88
948.301	-0.12
949.031	-1.12
949.76	0.88
950.49	-3.12
951.219	1.88
951.948	-0.12
952.678	0.88
953.407	-0.12
954.136	1.88
954.865	-0.12
955.594	-0.12
956.323	-0.12
957.052	1.88
957.78	0.88
958.509	-1.12
959.238	-2.12
959.966	-0.12
960.695	-1.12
961.423	-1.12
962.151	-1.12
962.88	0.88
963.608	-1.12
964.336	-1.12
965.064	-1.12
965.792	-0.12
966.52	1.88
967.247	-0.12
967.975	0.88
968.703	-0.12
969.43	-1.12
970.158	0.88
970.885	0.88
971.613	-0.12
972.34	-0.12
973.067	-0.12
973.794	0.88
974.521	0.88
975.248	0.88
975.975	-0.12
976.702	-1.12
977.429	-1.12
978.156	-1.12
978.882	0.88
979.609	0.88
980.335	-0.12
981.062	0.88
981.788	1.88
982.514	-3.12
983.24	1.88
983.967	-0.12
984.693	-1.12
985.419	0.88
986.144	-0.12
986.87	-0.12
987.596	0.88
988.322	-2.12
989.047	-1.12
989.773	-1.12
990.498	0.88
991.224	-0.12
991.949	-1.12
992.674	-0.12
993.399	-0.12
994.124	-0.12
994.849	0.88
995.574	-2.12
996.299	0.88
997.024	-2.12
997.749	-0.12
998.473	0.88
999.198	-1.12
999.922	-1.12
1000.647	0.88
1001.371	1.88
1002.095	-2.12
1002.82	-0.12
1003.544	-0.12
1004.268	0.88
1004.992	-1.12
1005.716	-2.12
1006.439	-1.12
1007.163	-2.12
1007.887	-4.12
1008.611	-0.12
1009.334	0.88
1010.058	-0.12
1010.781	0.88
1011.504	-0.12
1012.228	0.88
1012.951	-0.12
1013.674	-0.12
1014.397	0.88
1015.12	-0.12
