节点500_145_QEPB04081__0__11-28-56-821.txt的数据

Date: Wed Nov 12 11:28:56 CST 2025
User: PC
Spectrometer: QEPB0408
触发模式: 0
积分时间 (秒): 1.000000E-2
Scans to average: 1
启用暗噪声校正: true
启用非线性校正: false
滑动平均宽度: 0
X轴模式: Wavelengths
Number of Pixels in Spectrum: 1044
>>>>>Begin Spectral Data<<<<<
220.843	0.38
221.644	-0.62
222.444	-1.62
223.244	-1.62
224.045	-1.62
224.845	1.38
225.645	-1.62
226.445	-2.62
227.245	-0.62
228.045	-1.62
228.845	-0.62
229.645	-1.62
230.444	-1.62
231.244	-1.62
232.043	-1.62
232.843	-1.62
233.642	-1.62
234.442	-0.62
235.241	-1.62
236.04	-1.62
236.839	-1.62
237.638	-1.62
238.437	-1.62
239.236	-0.62
240.035	-1.62
240.833	-0.62
241.632	-0.62
242.43	-0.62
243.229	-1.62
244.027	-1.62
244.826	0.38
245.624	-2.62
246.422	0.38
247.22	1.38
248.018	-0.62
248.816	-2.62
249.614	-1.62
250.412	-1.62
251.21	1.38
252.007	-1.62
252.805	-1.62
253.602	0.38
254.4	-1.62
255.197	1.38
255.994	-0.62
256.791	-1.62
257.589	0.38
258.386	0.38
259.183	0.38
259.979	-1.62
260.776	0.38
261.573	-1.62
262.37	-1.62
263.166	-1.62
263.963	0.38
264.759	-1.62
265.556	-3.62
266.352	-1.62
267.148	-0.62
267.944	-2.62
268.74	-0.62
269.536	0.38
270.332	-1.62
271.128	-1.62
271.924	0.38
272.719	-0.62
273.515	0.38
274.311	-2.62
275.106	-0.62
275.901	-0.62
276.697	-0.62
277.492	-2.62
278.287	-1.62
279.082	-0.62
279.877	-0.62
280.672	-1.62
281.467	-1.62
282.262	-0.62
283.056	1.38
283.851	-1.62
284.646	0.38
285.44	-1.62
286.234	-0.62
287.029	1.38
287.823	1.38
288.617	-0.62
289.411	-2.62
290.205	-0.62
290.999	1.38
291.793	-1.62
292.587	1.38
293.381	-0.62
294.174	0.38
294.968	-2.62
295.761	-1.62
296.555	-2.62
297.348	-1.62
298.141	-0.62
298.935	-1.62
299.728	1.38
300.521	-1.62
301.314	-0.62
302.107	0.38
302.899	-0.62
303.692	-0.62
304.485	0.38
305.277	0.38
306.07	1.38
306.862	0.38
307.655	-1.62
308.447	-1.62
309.239	0.38
310.031	-0.62
310.823	0.38
311.615	-1.62
312.407	-0.62
313.199	-0.62
313.991	2.38
314.783	0.38
315.574	-1.62
316.366	-0.62
317.157	0.38
317.949	-1.62
318.74	1.38
319.531	0.38
320.322	-1.62
321.113	1.38
321.904	-0.62
322.695	-0.62
323.486	-1.62
324.277	0.38
325.068	0.38
325.858	-1.62
326.649	-1.62
327.439	-0.62
328.23	1.38
329.02	-1.62
329.81	-1.62
330.6	-1.62
331.391	1.38
332.181	-0.62
332.971	0.38
333.76	0.38
334.55	0.38
335.34	-1.62
336.13	0.38
336.919	-1.62
337.709	2.38
338.498	0.38
339.287	1.38
340.077	0.38
340.866	1.38
341.655	1.38
342.444	0.38
343.233	2.38
344.022	-1.62
344.811	0.38
345.6	1.38
346.388	-1.62
347.177	0.38
347.965	-1.62
348.754	-0.62
349.542	1.38
350.33	-1.62
351.119	-0.62
351.907	1.38
352.695	-0.62
353.483	0.38
354.271	0.38
355.059	-2.62
355.846	-2.62
356.634	0.38
357.422	-1.62
358.209	1.38
358.997	-0.62
359.784	1.38
360.571	-0.62
361.359	1.38
362.146	0.38
362.933	-0.62
363.72	0.38
364.507	0.38
365.294	0.38
366.081	-2.62
366.867	-1.62
367.654	0.38
368.44	-0.62
369.227	1.38
370.013	-0.62
370.8	-0.62
371.586	0.38
372.372	-1.62
373.158	-0.62
373.944	1.38
374.73	3.38
375.516	-2.62
376.302	1.38
377.088	-2.62
377.873	0.38
378.659	-1.62
379.445	-2.62
380.23	1.38
381.015	0.38
381.801	-0.62
382.586	-0.62
383.371	1.38
384.156	1.38
384.941	-1.62
385.726	-0.62
386.511	-1.62
387.296	3.38
388.08	0.38
388.865	-0.62
389.649	2.38
390.434	0.38
391.218	-1.62
392.003	2.38
392.787	-1.62
393.571	0.38
394.355	-0.62
395.139	1.38
395.923	-3.62
396.707	0.38
397.491	0.38
398.274	0.38
399.058	-1.62
399.842	0.38
400.625	0.38
401.408	-1.62
402.192	0.38
402.975	0.38
403.758	0.38
404.541	0.38
405.324	0.38
406.107	0.38
406.89	1.38
407.673	1.38
408.456	-0.62
409.238	0.38
410.021	-0.62
410.803	1.38
411.586	1.38
412.368	-0.62
413.151	1.38
413.933	0.38
414.715	1.38
415.497	0.38
416.279	-0.62
417.061	0.38
417.843	2.38
418.624	0.38
419.406	-0.62
420.188	0.38
420.969	0.38
421.751	-0.62
422.532	2.38
423.313	0.38
424.095	2.38
424.876	0.38
425.657	2.38
426.438	0.38
427.219	-1.62
428	0.38
428.78	-1.62
429.561	1.38
430.342	0.38
431.122	2.38
431.903	2.38
432.683	-0.62
433.464	0.38
434.244	0.38
435.024	0.38
435.804	-0.62
436.584	-1.62
437.364	1.38
438.144	0.38
438.924	0.38
439.704	1.38
440.483	0.38
441.263	0.38
442.042	-0.62
442.822	1.38
443.601	0.38
444.38	-0.62
445.16	1.38
445.939	-0.62
446.718	1.38
447.497	-0.62
448.276	0.38
449.054	-1.62
449.833	0.38
450.612	-1.62
451.391	1.38
452.169	-0.62
452.948	-0.62
453.726	1.38
454.504	0.38
455.282	-1.62
456.061	0.38
456.839	-1.62
457.617	1.38
458.395	-1.62
459.172	0.38
459.95	-0.62
460.728	2.38
461.506	-0.62
462.283	-1.62
463.061	0.38
463.838	-1.62
464.615	0.38
465.393	0.38
466.17	0.38
466.947	-1.62
467.724	0.38
468.501	0.38
469.278	-2.62
470.055	2.38
470.831	1.38
471.608	1.38
472.385	0.38
473.161	-0.62
473.938	-0.62
474.714	0.38
475.49	-1.62
476.266	1.38
477.043	3.38
477.819	2.38
478.595	-1.62
479.371	2.38
480.146	0.38
480.922	1.38
481.698	1.38
482.473	-1.62
483.249	0.38
484.024	0.38
484.8	1.38
485.575	1.38
486.35	0.38
487.126	1.38
487.901	-1.62
488.676	2.38
489.451	-0.62
490.225	0.38
491	0.38
491.775	0.38
492.55	0.38
493.324	-0.62
494.099	0.38
494.873	0.38
495.647	0.38
496.422	-2.62
497.196	1.38
497.97	1.38
498.744	1.38
499.518	0.38
500.292	-1.62
501.066	1.38
501.839	-1.62
502.613	-2.62
503.387	-1.62
504.16	0.38
504.934	2.38
505.707	0.38
506.48	0.38
507.253	0.38
508.027	1.38
508.8	1.38
509.573	-1.62
510.346	1.38
511.118	-0.62
511.891	2.38
512.664	0.38
513.437	1.38
514.209	1.38
514.982	-0.62
515.754	2.38
516.526	1.38
517.298	1.38
518.071	0.38
518.843	-0.62
519.615	1.38
520.387	-0.62
521.159	0.38
521.93	1.38
522.702	-0.62
523.474	2.38
524.245	1.38
525.017	0.38
525.788	0.38
526.56	1.38
527.331	2.38
528.102	0.38
528.873	-1.62
529.644	0.38
530.415	1.38
531.186	-0.62
531.957	1.38
532.728	-1.62
533.498	0.38
534.269	1.38
535.039	-0.62
535.81	1.38
536.58	0.38
537.351	1.38
538.121	1.38
538.891	-1.62
539.661	2.38
540.431	-0.62
541.201	0.38
541.971	-0.62
542.741	-0.62
543.51	-0.62
544.28	-1.62
545.05	1.38
545.819	2.38
546.588	1.38
547.358	-0.62
548.127	0.38
548.896	1.38
549.665	0.38
550.434	1.38
551.203	1.38
551.972	1.38
552.741	1.38
553.51	-0.62
554.278	0.38
555.047	0.38
555.815	2.38
556.584	0.38
557.352	1.38
558.121	0.38
558.889	-0.62
559.657	2.38
560.425	0.38
561.193	0.38
561.961	0.38
562.729	0.38
563.496	-0.62
564.264	0.38
565.032	2.38
565.799	1.38
566.567	2.38
567.334	2.38
568.101	1.38
568.869	0.38
569.636	-1.62
570.403	0.38
571.17	-0.62
571.937	-1.62
572.704	2.38
573.471	0.38
574.237	0.38
575.004	0.38
575.771	0.38
576.537	0.38
577.303	-1.62
578.07	-0.62
578.836	-1.62
579.602	1.38
580.368	0.38
581.134	2.38
581.9	-0.62
582.666	-0.62
583.432	0.38
584.198	1.38
584.964	2.38
585.729	0.38
586.495	3.38
587.26	0.38
588.025	-2.62
588.791	3.38
589.556	1.38
590.321	0.38
591.086	1.38
591.851	0.38
592.616	-0.62
593.381	-0.62
594.146	-1.62
594.911	1.38
595.675	-0.62
596.44	1.38
597.204	-1.62
597.969	1.38
598.733	0.38
599.497	1.38
600.261	-0.62
601.025	0.38
601.79	-1.62
602.553	1.38
603.317	2.38
604.081	-2.62
604.845	0.38
605.609	0.38
606.372	1.38
607.136	1.38
607.899	-1.62
608.662	2.38
609.426	1.38
610.189	1.38
610.952	0.38
611.715	-0.62
612.478	0.38
613.241	0.38
614.004	0.38
614.767	2.38
615.529	-0.62
616.292	-0.62
617.055	2.38
617.817	1.38
618.579	2.38
619.342	0.38
620.104	1.38
620.866	0.38
621.628	2.38
622.39	-0.62
623.152	0.38
623.914	0.38
624.676	2.38
625.438	-1.62
626.199	0.38
626.961	1.38
627.722	0.38
628.484	2.38
629.245	0.38
630.006	2.38
630.768	0.38
631.529	0.38
632.29	-1.62
633.051	0.38
633.812	1.38
634.573	-1.62
635.333	0.38
636.094	-1.62
636.855	-0.62
637.615	2.38
638.376	0.38
639.136	0.38
639.896	-0.62
640.657	2.38
641.417	0.38
642.177	0.38
642.937	2.38
643.697	1.38
644.457	2.38
645.216	1.38
645.976	2.38
646.736	1.38
647.495	-0.62
648.255	2.38
649.014	1.38
649.774	1.38
650.533	1.38
651.292	0.38
652.051	0.38
652.81	-1.62
653.569	-1.62
654.328	-1.62
655.087	2.38
655.846	0.38
656.604	0.38
657.363	-1.62
658.121	-1.62
658.88	-0.62
659.638	-1.62
660.397	1.38
661.155	0.38
661.913	-1.62
662.671	2.38
663.429	-0.62
664.187	1.38
664.945	0.38
665.703	0.38
666.46	-0.62
667.218	2.38
667.976	0.38
668.733	1.38
669.49	1.38
670.248	0.38
671.005	1.38
671.762	0.38
672.519	-1.62
673.276	0.38
674.033	-1.62
674.79	2.38
675.547	0.38
676.304	1.38
677.06	2.38
677.817	-0.62
678.574	0.38
679.33	-1.62
680.086	-0.62
680.843	1.38
681.599	-1.62
682.355	-0.62
683.111	-1.62
683.867	1.38
684.623	0.38
685.379	3.38
686.135	0.38
686.89	-1.62
687.646	1.38
688.402	-1.62
689.157	0.38
689.912	-1.62
690.668	1.38
691.423	0.38
692.178	1.38
692.933	2.38
693.688	0.38
694.443	1.38
695.198	0.38
695.953	1.38
696.708	1.38
697.462	0.38
698.217	-1.62
698.972	-1.62
699.726	1.38
700.48	0.38
701.235	-0.62
701.989	-1.62
702.743	-1.62
703.497	-1.62
704.251	-0.62
705.005	-1.62
705.759	0.38
706.513	0.38
707.266	0.38
708.02	-0.62
708.774	2.38
709.527	0.38
710.28	0.38
711.034	1.38
711.787	0.38
712.54	-0.62
713.293	1.38
714.046	0.38
714.799	1.38
715.552	0.38
716.305	1.38
717.058	1.38
717.81	1.38
718.563	-1.62
719.315	2.38
720.068	-0.62
720.82	2.38
721.573	2.38
722.325	0.38
723.077	0.38
723.829	1.38
724.581	-1.62
725.333	0.38
726.085	-0.62
726.836	2.38
727.588	-1.62
728.34	0.38
729.091	0.38
729.843	2.38
730.594	0.38
731.346	-1.62
732.097	1.38
732.848	-0.62
733.599	1.38
734.35	-0.62
735.101	0.38
735.852	-0.62
736.603	-0.62
737.354	1.38
738.104	0.38
738.855	0.38
739.605	-0.62
740.356	0.38
741.106	2.38
741.856	1.38
742.607	-2.62
743.357	-1.62
744.107	-1.62
744.857	-0.62
745.607	1.38
746.357	-1.62
747.106	0.38
747.856	2.38
748.606	-1.62
749.355	1.38
750.105	0.38
750.854	1.38
751.603	0.38
752.353	1.38
753.102	0.38
753.851	-1.62
754.6	-0.62
755.349	2.38
756.098	0.38
756.847	1.38
757.595	-0.62
758.344	1.38
759.093	-1.62
759.841	1.38
760.589	0.38
761.338	-1.62
762.086	-0.62
762.834	-0.62
763.582	-0.62
764.331	0.38
765.079	-1.62
765.826	0.38
766.574	0.38
767.322	1.38
768.07	-1.62
768.817	2.38
769.565	-0.62
770.312	-0.62
771.06	-0.62
771.807	-1.62
772.554	0.38
773.302	0.38
774.049	1.38
774.796	0.38
775.543	-1.62
776.29	2.38
777.036	-1.62
777.783	3.38
778.53	0.38
779.276	-1.62
780.023	0.38
780.769	-1.62
781.516	0.38
782.262	1.38
783.008	0.38
783.754	1.38
784.5	1.38
785.246	1.38
785.992	0.38
786.738	1.38
787.484	2.38
788.23	1.38
788.975	-2.62
789.721	0.38
790.466	0.38
791.212	1.38
791.957	-0.62
792.702	1.38
793.447	2.38
794.193	-0.62
794.938	-0.62
795.683	1.38
796.427	-1.62
797.172	1.38
797.917	0.38
798.662	0.38
799.406	2.38
800.151	1.38
800.895	-1.62
801.64	2.38
802.384	0.38
803.128	-1.62
803.872	1.38
804.616	1.38
805.36	0.38
806.104	1.38
806.848	1.38
807.592	0.38
808.336	0.38
809.079	1.38
809.823	0.38
810.566	1.38
811.31	1.38
812.053	-1.62
812.796	1.38
813.539	1.38
814.283	0.38
815.026	-0.62
815.769	-1.62
816.511	0.38
817.254	-1.62
817.997	0.38
818.74	0.38
819.482	1.38
820.225	-0.62
820.967	1.38
821.71	-1.62
822.452	-2.62
823.194	-1.62
823.936	-0.62
824.678	1.38
825.42	1.38
826.162	0.38
826.904	2.38
827.646	0.38
828.388	0.38
829.129	2.38
829.871	0.38
830.612	-1.62
831.354	-0.62
832.095	0.38
832.836	0.38
833.577	0.38
834.319	1.38
835.06	1.38
835.801	0.38
836.542	0.38
837.282	-1.62
838.023	1.38
838.764	1.38
839.504	0.38
840.245	-0.62
840.985	3.38
841.726	-0.62
842.466	3.38
843.206	0.38
843.946	2.38
844.687	-1.62
845.427	0.38
846.166	-0.62
846.906	1.38
847.646	2.38
848.386	0.38
849.125	1.38
849.865	2.38
850.605	1.38
851.344	-1.62
852.083	1.38
852.823	1.38
853.562	1.38
854.301	1.38
855.04	1.38
855.779	0.38
856.518	1.38
857.257	-0.62
857.995	2.38
858.734	0.38
859.473	2.38
860.211	0.38
860.95	0.38
861.688	1.38
862.426	1.38
863.165	-0.62
863.903	0.38
864.641	0.38
865.379	0.38
866.117	-0.62
866.855	-0.62
867.593	-1.62
868.33	0.38
869.068	1.38
869.806	1.38
870.543	0.38
871.28	1.38
872.018	-1.62
872.755	-0.62
873.492	-0.62
874.229	2.38
874.967	2.38
875.703	0.38
876.44	0.38
877.177	1.38
877.914	2.38
878.651	-1.62
879.387	1.38
880.124	0.38
880.86	1.38
881.597	-0.62
882.333	0.38
883.069	0.38
883.806	1.38
884.542	1.38
885.278	1.38
886.014	-0.62
886.749	0.38
887.485	-0.62
888.221	1.38
888.957	1.38
889.692	2.38
890.428	0.38
891.163	0.38
891.899	-1.62
892.634	-1.62
893.369	0.38
894.104	0.38
894.839	1.38
895.574	0.38
896.309	1.38
897.044	-0.62
897.779	2.38
898.514	1.38
899.248	0.38
899.983	0.38
900.717	-0.62
901.452	1.38
902.186	0.38
902.92	-1.62
903.654	2.38
904.389	-1.62
905.123	-0.62
905.857	1.38
906.59	-0.62
907.324	0.38
908.058	0.38
908.792	-0.62
909.525	0.38
910.259	-1.62
910.992	1.38
911.726	1.38
912.459	1.38
913.192	-1.62
913.925	1.38
914.658	-1.62
915.391	2.38
916.124	0.38
916.857	1.38
917.59	0.38
918.323	1.38
919.055	1.38
919.788	1.38
920.521	-0.62
921.253	0.38
921.985	2.38
922.718	2.38
923.45	0.38
924.182	0.38
924.914	2.38
925.646	-0.62
926.378	0.38
927.11	-1.62
927.841	0.38
928.573	0.38
929.305	2.38
930.036	0.38
930.768	0.38
931.499	3.38
932.23	-0.62
932.962	2.38
933.693	-1.62
934.424	0.38
935.155	1.38
935.886	3.38
936.617	1.38
937.348	2.38
938.078	-1.62
938.809	1.38
939.54	2.38
940.27	1.38
941.001	0.38
941.731	-1.62
942.461	0.38
943.191	-0.62
943.922	-0.62
944.652	0.38
945.382	-1.62
946.112	1.38
946.841	1.38
947.571	-0.62
948.301	1.38
949.031	-0.62
949.76	-1.62
950.49	-1.62
951.219	-1.62
951.948	-0.62
952.678	1.38
953.407	0.38
954.136	-0.62
954.865	2.38
955.594	2.38
956.323	1.38
957.052	2.38
957.78	-1.62
958.509	0.38
959.238	-1.62
959.966	0.38
960.695	2.38
961.423	-1.62
962.151	1.38
962.88	0.38
963.608	1.38
964.336	-1.62
965.064	-1.62
965.792	0.38
966.52	-0.62
967.247	1.38
967.975	0.38
968.703	-1.62
969.43	-0.62
970.158	0.38
970.885	0.38
971.613	-0.62
972.34	1.38
973.067	1.38
973.794	2.38
974.521	-1.62
975.248	2.38
975.975	1.38
976.702	-1.62
977.429	4.38
978.156	-1.62
978.882	-0.62
979.609	0.38
980.335	-1.62
981.062	1.38
981.788	-1.62
982.514	-1.62
983.24	-1.62
983.967	-0.62
984.693	0.38
985.419	0.38
986.144	0.38
986.87	-0.62
987.596	0.38
988.322	1.38
989.047	0.38
989.773	2.38
990.498	0.38
991.224	2.38
991.949	0.38
992.674	1.38
993.399	1.38
994.124	0.38
994.849	-1.62
995.574	0.38
996.299	1.38
997.024	-0.62
997.749	0.38
998.473	1.38
999.198	0.38
999.922	-1.62
1000.647	0.38
1001.371	3.38
1002.095	-0.62
1002.82	-0.62
1003.544	-2.62
1004.268	-1.62
1004.992	-2.62
1005.716	-1.62
1006.439	-2.62
1007.163	-1.62
1007.887	-1.62
1008.611	0.38
1009.334	1.38
1010.058	0.38
1010.781	1.38
1011.504	2.38
1012.228	2.38
1012.951	1.38
1013.674	-0.62
1014.397	1.38
1015.12	-1.62
