节点500_145_QEPB04081__703__11-40-06-691.txt的数据

Date: Wed Nov 12 11:40:06 CST 2025
User: PC
Spectrometer: QEPB0408
触发模式: 0
积分时间 (秒): 1.000000E-2
Scans to average: 1
启用暗噪声校正: true
启用非线性校正: false
滑动平均宽度: 0
X轴模式: Wavelengths
Number of Pixels in Spectrum: 1044
>>>>>Begin Spectral Data<<<<<
220.843	0.25
221.644	-1.75
222.444	0.25
223.244	0.25
224.045	0.25
224.845	-1.75
225.645	0.25
226.445	1.25
227.245	0.25
228.045	1.25
228.845	-0.75
229.645	-0.75
230.444	-0.75
231.244	0.25
232.043	1.25
232.843	1.25
233.642	1.25
234.442	2.25
235.241	0.25
236.04	-0.75
236.839	2.25
237.638	1.25
238.437	1.25
239.236	-0.75
240.035	0.25
240.833	2.25
241.632	2.25
242.43	-0.75
243.229	3.25
244.027	-0.75
244.826	2.25
245.624	-0.75
246.422	0.25
247.22	1.25
248.018	2.25
248.816	2.25
249.614	-0.75
250.412	1.25
251.21	-0.75
252.007	4.25
252.805	0.25
253.602	6.25
254.4	3.25
255.197	1.25
255.994	1.25
256.791	5.25
257.589	4.25
258.386	5.25
259.183	4.25
259.979	2.25
260.776	4.25
261.573	4.25
262.37	1.25
263.166	5.25
263.963	2.25
264.759	4.25
265.556	4.25
266.352	5.25
267.148	8.25
267.944	5.25
268.74	8.25
269.536	5.25
270.332	7.25
271.128	5.25
271.924	4.25
272.719	7.25
273.515	8.25
274.311	9.25
275.106	7.25
275.901	6.25
276.697	7.25
277.492	8.25
278.287	8.25
279.082	7.25
279.877	11.25
280.672	7.25
281.467	7.25
282.262	7.25
283.056	9.25
283.851	6.25
284.646	8.25
285.44	10.25
286.234	8.25
287.029	9.25
287.823	9.25
288.617	6.25
289.411	13.25
290.205	7.25
290.999	11.25
291.793	11.25
292.587	10.25
293.381	9.25
294.174	8.25
294.968	10.25
295.761	9.25
296.555	10.25
297.348	9.25
298.141	9.25
298.935	7.25
299.728	9.25
300.521	9.25
301.314	8.25
302.107	9.25
302.899	10.25
303.692	6.25
304.485	8.25
305.277	6.25
306.07	9.25
306.862	8.25
307.655	7.25
308.447	9.25
309.239	5.25
310.031	9.25
310.823	7.25
311.615	7.25
312.407	6.25
313.199	7.25
313.991	3.25
314.783	4.25
315.574	5.25
316.366	6.25
317.157	6.25
317.949	6.25
318.74	5.25
319.531	6.25
320.322	3.25
321.113	4.25
321.904	5.25
322.695	5.25
323.486	3.25
324.277	6.25
325.068	3.25
325.858	2.25
326.649	5.25
327.439	3.25
328.23	2.25
329.02	4.25
329.81	5.25
330.6	5.25
331.391	2.25
332.181	4.25
332.971	3.25
333.76	6.25
334.55	3.25
335.34	3.25
336.13	3.25
336.919	2.25
337.709	5.25
338.498	5.25
339.287	2.25
340.077	3.25
340.866	3.25
341.655	4.25
342.444	1.25
343.233	2.25
344.022	3.25
344.811	5.25
345.6	2.25
346.388	4.25
347.177	3.25
347.965	3.25
348.754	4.25
349.542	2.25
350.33	2.25
351.119	2.25
351.907	4.25
352.695	4.25
353.483	2.25
354.271	3.25
355.059	1.25
355.846	5.25
356.634	2.25
357.422	3.25
358.209	4.25
358.997	2.25
359.784	3.25
360.571	-0.75
361.359	2.25
362.146	4.25
362.933	1.25
363.72	3.25
364.507	2.25
365.294	2.25
366.081	4.25
366.867	4.25
367.654	-0.75
368.44	3.25
369.227	2.25
370.013	0.25
370.8	4.25
371.586	2.25
372.372	2.25
373.158	2.25
373.944	2.25
374.73	4.25
375.516	0.25
376.302	3.25
377.088	1.25
377.873	1.25
378.659	3.25
379.445	2.25
380.23	4.25
381.015	5.25
381.801	3.25
382.586	2.25
383.371	2.25
384.156	2.25
384.941	3.25
385.726	3.25
386.511	2.25
387.296	4.25
388.08	3.25
388.865	2.25
389.649	3.25
390.434	1.25
391.218	3.25
392.003	2.25
392.787	0.25
393.571	3.25
394.355	0.25
395.139	5.25
395.923	3.25
396.707	2.25
397.491	4.25
398.274	4.25
399.058	3.25
399.842	4.25
400.625	3.25
401.408	5.25
402.192	3.25
402.975	5.25
403.758	5.25
404.541	3.25
405.324	4.25
406.107	4.25
406.89	3.25
407.673	5.25
408.456	4.25
409.238	3.25
410.021	5.25
410.803	3.25
411.586	2.25
412.368	2.25
413.151	5.25
413.933	4.25
414.715	4.25
415.497	4.25
416.279	3.25
417.061	5.25
417.843	4.25
418.624	5.25
419.406	5.25
420.188	4.25
420.969	5.25
421.751	5.25
422.532	7.25
423.313	5.25
424.095	6.25
424.876	4.25
425.657	4.25
426.438	6.25
427.219	5.25
428	7.25
428.78	5.25
429.561	7.25
430.342	7.25
431.122	7.25
431.903	6.25
432.683	8.25
433.464	8.25
434.244	7.25
435.024	9.25
435.804	10.25
436.584	11.25
437.364	10.25
438.144	9.25
438.924	9.25
439.704	13.25
440.483	11.25
441.263	9.25
442.042	14.25
442.822	12.25
443.601	15.25
444.38	15.25
445.16	18.25
445.939	16.25
446.718	18.25
447.497	19.25
448.276	22.25
449.054	25.25
449.833	26.25
450.612	27.25
451.391	29.25
452.169	33.25
452.948	35.25
453.726	39.25
454.504	43.25
455.282	47.25
456.061	55.25
456.839	57.25
457.617	63.25
458.395	70.25
459.172	76.25
459.95	85.25
460.728	91.25
461.506	107.25
462.283	116.25
463.061	132.25
463.838	147.25
464.615	155.25
465.393	181.25
466.17	192.25
466.947	214.25
467.724	237.25
468.501	264.25
469.278	296.25
470.055	331.25
470.831	365.25
471.608	408.25
472.385	442.25
473.161	495.25
473.938	544.25
474.714	591.25
475.49	653.25
476.266	725.25
477.043	806.25
477.819	877.25
478.595	972.25
479.371	1058.25
480.146	1153.25
480.922	1251.25
481.698	1390.25
482.473	1525.25
483.249	1658.25
484.024	1827.25
484.8	2002.25
485.575	2182.25
486.35	2376.25
487.126	2585.25
487.901	2841.25
488.676	3105.25
489.451	3390.25
490.225	3684.25
491	4024.25
491.775	4376.25
492.55	4773.25
493.324	5192.25
494.099	5619.25
494.873	6099.25
495.647	6633.25
496.422	7183.25
497.196	7714.25
497.97	8270.25
498.744	8922.25
499.518	9590.25
500.292	10237.25
501.066	10814.25
501.839	11437.25
502.613	12032.25
503.387	12610.25
504.16	13174.25
504.934	13684.25
505.707	14019.25
506.48	14379.25
507.253	14682.25
508.027	14929.25
508.8	15005.25
509.573	15010.25
510.346	14944.25
511.118	14768.25
511.891	14534.25
512.664	14227.25
513.437	13893.25
514.209	13540.25
514.982	13057.25
515.754	12607.25
516.526	12164.25
517.298	11661.25
518.071	11190.25
518.843	10790.25
519.615	10310.25
520.387	9842.25
521.159	9464.25
521.93	9109.25
522.702	8727.25
523.474	8410.25
524.245	8059.25
525.017	7740.25
525.788	7437.25
526.56	7147.25
527.331	6853.25
528.102	6556.25
528.873	6298.25
529.644	6056.25
530.415	5787.25
531.186	5520.25
531.957	5280.25
532.728	5016.25
533.498	4758.25
534.269	4522.25
535.039	4303.25
535.81	4088.25
536.58	3839.25
537.351	3633.25
538.121	3430.25
538.891	3246.25
539.661	3078.25
540.431	2940.25
541.201	2752.25
541.971	2618.25
542.741	2467.25
543.51	2348.25
544.28	2219.25
545.05	2099.25
545.819	2009.25
546.588	1897.25
547.358	1808.25
548.127	1726.25
548.896	1638.25
549.665	1557.25
550.434	1486.25
551.203	1408.25
551.972	1347.25
552.741	1269.25
553.51	1202.25
554.278	1132.25
555.047	1084.25
555.815	1017.25
556.584	965.25
557.352	905.25
558.121	863.25
558.889	811.25
559.657	769.25
560.425	737.25
561.193	683.25
561.961	643.25
562.729	616.25
563.496	574.25
564.264	543.25
565.032	505.25
565.799	478.25
566.567	459.25
567.334	434.25
568.101	407.25
568.869	376.25
569.636	376.25
570.403	341.25
571.17	322.25
571.937	306.25
572.704	291.25
573.471	270.25
574.237	249.25
575.004	234.25
575.771	218.25
576.537	212.25
577.303	206.25
578.07	184.25
578.836	178.25
579.602	163.25
580.368	156.25
581.134	150.25
581.9	143.25
582.666	132.25
583.432	129.25
584.198	118.25
584.964	110.25
585.729	106.25
586.495	100.25
587.26	98.25
588.025	88.25
588.791	89.25
589.556	79.25
590.321	74.25
591.086	76.25
591.851	66.25
592.616	66.25
593.381	62.25
594.146	60.25
594.911	59.25
595.675	52.25
596.44	51.25
597.204	49.25
597.969	50.25
598.733	44.25
599.497	43.25
600.261	38.25
601.025	39.25
601.79	38.25
602.553	36.25
603.317	33.25
604.081	34.25
604.845	31.25
605.609	29.25
606.372	29.25
607.136	27.25
607.899	26.25
608.662	23.25
609.426	21.25
610.189	23.25
610.952	24.25
611.715	21.25
612.478	20.25
613.241	16.25
614.004	18.25
614.767	19.25
615.529	17.25
616.292	17.25
617.055	16.25
617.817	13.25
618.579	14.25
619.342	11.25
620.104	14.25
620.866	12.25
621.628	13.25
622.39	10.25
623.152	10.25
623.914	12.25
624.676	9.25
625.438	12.25
626.199	9.25
626.961	9.25
627.722	7.25
628.484	9.25
629.245	8.25
630.006	8.25
630.768	7.25
631.529	9.25
632.29	5.25
633.051	8.25
633.812	7.25
634.573	8.25
635.333	6.25
636.094	7.25
636.855	7.25
637.615	7.25
638.376	4.25
639.136	7.25
639.896	5.25
640.657	7.25
641.417	6.25
642.177	4.25
642.937	5.25
643.697	7.25
644.457	5.25
645.216	4.25
645.976	4.25
646.736	4.25
647.495	3.25
648.255	6.25
649.014	4.25
649.774	4.25
650.533	4.25
651.292	4.25
652.051	4.25
652.81	3.25
653.569	4.25
654.328	2.25
655.087	3.25
655.846	2.25
656.604	3.25
657.363	5.25
658.121	3.25
658.88	5.25
659.638	2.25
660.397	5.25
661.155	2.25
661.913	0.25
662.671	1.25
663.429	3.25
664.187	2.25
664.945	4.25
665.703	1.25
666.46	5.25
667.218	3.25
667.976	3.25
668.733	1.25
669.49	2.25
670.248	4.25
671.005	2.25
671.762	3.25
672.519	3.25
673.276	3.25
674.033	1.25
674.79	4.25
675.547	3.25
676.304	3.25
677.06	3.25
677.817	2.25
678.574	3.25
679.33	2.25
680.086	2.25
680.843	4.25
681.599	3.25
682.355	3.25
683.111	2.25
683.867	1.25
684.623	1.25
685.379	1.25
686.135	0.25
686.89	1.25
687.646	1.25
688.402	1.25
689.157	2.25
689.912	1.25
690.668	3.25
691.423	2.25
692.178	0.25
692.933	4.25
693.688	1.25
694.443	2.25
695.198	2.25
695.953	2.25
696.708	2.25
697.462	0.25
698.217	0.25
698.972	0.25
699.726	5.25
700.48	2.25
701.235	2.25
701.989	2.25
702.743	1.25
703.497	2.25
704.251	1.25
705.005	0.25
705.759	1.25
706.513	1.25
707.266	4.25
708.02	-0.75
708.774	3.25
709.527	1.25
710.28	4.25
711.034	1.25
711.787	1.25
712.54	2.25
713.293	2.25
714.046	1.25
714.799	2.25
715.552	3.25
716.305	2.25
717.058	2.25
717.81	2.25
718.563	1.25
719.315	3.25
720.068	4.25
720.82	5.25
721.573	1.25
722.325	2.25
723.077	1.25
723.829	3.25
724.581	1.25
725.333	-0.75
726.085	5.25
726.836	1.25
727.588	3.25
728.34	2.25
729.091	1.25
729.843	3.25
730.594	1.25
731.346	3.25
732.097	1.25
732.848	1.25
733.599	3.25
734.35	2.25
735.101	1.25
735.852	1.25
736.603	2.25
737.354	3.25
738.104	2.25
738.855	2.25
739.605	1.25
740.356	5.25
741.106	2.25
741.856	2.25
742.607	3.25
743.357	1.25
744.107	1.25
744.857	2.25
745.607	4.25
746.357	4.25
747.106	1.25
747.856	2.25
748.606	2.25
749.355	3.25
750.105	2.25
750.854	3.25
751.603	0.25
752.353	3.25
753.102	2.25
753.851	3.25
754.6	0.25
755.349	1.25
756.098	3.25
756.847	2.25
757.595	2.25
758.344	2.25
759.093	1.25
759.841	1.25
760.589	3.25
761.338	2.25
762.086	2.25
762.834	4.25
763.582	2.25
764.331	3.25
765.079	5.25
765.826	5.25
766.574	3.25
767.322	3.25
768.07	2.25
768.817	5.25
769.565	3.25
770.312	3.25
771.06	3.25
771.807	2.25
772.554	2.25
773.302	3.25
774.049	5.25
774.796	4.25
775.543	4.25
776.29	3.25
777.036	5.25
777.783	5.25
778.53	1.25
779.276	4.25
780.023	1.25
780.769	3.25
781.516	5.25
782.262	6.25
783.008	5.25
783.754	5.25
784.5	3.25
785.246	4.25
785.992	3.25
786.738	2.25
787.484	2.25
788.23	4.25
788.975	4.25
789.721	3.25
790.466	2.25
791.212	7.25
791.957	4.25
792.702	6.25
793.447	3.25
794.193	5.25
794.938	4.25
795.683	3.25
796.427	5.25
797.172	5.25
797.917	5.25
798.662	6.25
799.406	4.25
800.151	5.25
800.895	5.25
801.64	4.25
802.384	5.25
803.128	7.25
803.872	1.25
804.616	2.25
805.36	3.25
806.104	2.25
806.848	3.25
807.592	2.25
808.336	5.25
809.079	5.25
809.823	3.25
810.566	2.25
811.31	5.25
812.053	5.25
812.796	1.25
813.539	3.25
814.283	2.25
815.026	3.25
815.769	3.25
816.511	5.25
817.254	3.25
817.997	2.25
818.74	3.25
819.482	5.25
820.225	3.25
820.967	4.25
821.71	2.25
822.452	2.25
823.194	4.25
823.936	3.25
824.678	1.25
825.42	3.25
826.162	1.25
826.904	2.25
827.646	4.25
828.388	3.25
829.129	1.25
829.871	2.25
830.612	1.25
831.354	4.25
832.095	2.25
832.836	1.25
833.577	2.25
834.319	2.25
835.06	1.25
835.801	1.25
836.542	3.25
837.282	2.25
838.023	3.25
838.764	2.25
839.504	3.25
840.245	3.25
840.985	3.25
841.726	3.25
842.466	2.25
843.206	3.25
843.946	1.25
844.687	5.25
845.427	3.25
846.166	1.25
846.906	1.25
847.646	0.25
848.386	2.25
849.125	2.25
849.865	4.25
850.605	1.25
851.344	2.25
852.083	1.25
852.823	1.25
853.562	2.25
854.301	1.25
855.04	1.25
855.779	2.25
856.518	0.25
857.257	1.25
857.995	2.25
858.734	3.25
859.473	1.25
860.211	1.25
860.95	1.25
861.688	-0.75
862.426	1.25
863.165	2.25
863.903	1.25
864.641	0.25
865.379	1.25
866.117	1.25
866.855	2.25
867.593	3.25
868.33	-0.75
869.068	2.25
869.806	1.25
870.543	1.25
871.28	1.25
872.018	2.25
872.755	0.25
873.492	0.25
874.229	1.25
874.967	-0.75
875.703	2.25
876.44	-1.75
877.177	0.25
877.914	0.25
878.651	2.25
879.387	1.25
880.124	0.25
880.86	0.25
881.597	0.25
882.333	0.25
883.069	1.25
883.806	1.25
884.542	0.25
885.278	0.25
886.014	2.25
886.749	3.25
887.485	0.25
888.221	0.25
888.957	0.25
889.692	1.25
890.428	-1.75
891.163	-1.75
891.899	-0.75
892.634	0.25
893.369	-0.75
894.104	2.25
894.839	3.25
895.574	0.25
896.309	0.25
897.044	1.25
897.779	-0.75
898.514	1.25
899.248	0.25
899.983	0.25
900.717	1.25
901.452	-0.75
902.186	1.25
902.92	2.25
903.654	1.25
904.389	0.25
905.123	2.25
905.857	1.25
906.59	1.25
907.324	0.25
908.058	-2.75
908.792	0.25
909.525	1.25
910.259	-0.75
910.992	1.25
911.726	0.25
912.459	2.25
913.192	-0.75
913.925	0.25
914.658	0.25
915.391	1.25
916.124	0.25
916.857	1.25
917.59	2.25
918.323	2.25
919.055	3.25
919.788	0.25
920.521	-0.75
921.253	1.25
921.985	0.25
922.718	-0.75
923.45	-1.75
924.182	2.25
924.914	-0.75
925.646	1.25
926.378	0.25
927.11	1.25
927.841	0.25
928.573	0.25
929.305	1.25
930.036	1.25
930.768	0.25
931.499	0.25
932.23	0.25
932.962	-0.75
933.693	1.25
934.424	-0.75
935.155	0.25
935.886	2.25
936.617	-2.75
937.348	0.25
938.078	2.25
938.809	0.25
939.54	-1.75
940.27	1.25
941.001	-2.75
941.731	2.25
942.461	-1.75
943.191	3.25
943.922	0.25
944.652	1.25
945.382	1.25
946.112	-1.75
946.841	0.25
947.571	0.25
948.301	-1.75
949.031	1.25
949.76	-1.75
950.49	1.25
951.219	0.25
951.948	-1.75
952.678	0.25
953.407	-0.75
954.136	0.25
954.865	-0.75
955.594	0.25
956.323	0.25
957.052	-0.75
957.78	1.25
958.509	1.25
959.238	-1.75
959.966	-0.75
960.695	1.25
961.423	1.25
962.151	-0.75
962.88	-1.75
963.608	1.25
964.336	0.25
965.064	1.25
965.792	-1.75
966.52	1.25
967.247	0.25
967.975	-0.75
968.703	-1.75
969.43	-0.75
970.158	0.25
970.885	0.25
971.613	1.25
972.34	-0.75
973.067	0.25
973.794	-1.75
974.521	-1.75
975.248	1.25
975.975	0.25
976.702	2.25
977.429	-0.75
978.156	-2.75
978.882	-0.75
979.609	-0.75
980.335	1.25
981.062	2.25
981.788	1.25
982.514	1.25
983.24	-0.75
983.967	1.25
984.693	0.25
985.419	0.25
986.144	1.25
986.87	-1.75
987.596	0.25
988.322	0.25
989.047	1.25
989.773	-0.75
990.498	0.25
991.224	-1.75
991.949	0.25
992.674	-1.75
993.399	-1.75
994.124	0.25
994.849	0.25
995.574	1.25
996.299	1.25
997.024	-1.75
997.749	1.25
998.473	2.25
999.198	-0.75
999.922	0.25
1000.647	-0.75
1001.371	2.25
1002.095	-0.75
1002.82	1.25
1003.544	-1.75
1004.268	1.25
1004.992	-1.75
1005.716	1.25
1006.439	1.25
1007.163	2.25
1007.887	-0.75
1008.611	0.25
1009.334	2.25
1010.058	0.25
1010.781	-2.75
1011.504	0.25
1012.228	0.25
1012.951	-0.75
1013.674	0.25
1014.397	-0.75
1015.12	0.25
