节点500_145_QEPB04081__387__11-35-08-584.txt的数据

Date: Wed Nov 12 11:35:08 CST 2025
User: PC
Spectrometer: QEPB0408
触发模式: 0
积分时间 (秒): 1.000000E-2
Scans to average: 1
启用暗噪声校正: true
启用非线性校正: false
滑动平均宽度: 0
X轴模式: Wavelengths
Number of Pixels in Spectrum: 1044
>>>>>Begin Spectral Data<<<<<
220.843	-0.88
221.644	2.12
222.444	0.12
223.244	-0.88
224.045	3.12
224.845	0.12
225.645	-0.88
226.445	2.12
227.245	0.12
228.045	3.12
228.845	2.12
229.645	2.12
230.444	2.12
231.244	-0.88
232.043	2.12
232.843	3.12
233.642	0.12
234.442	1.12
235.241	3.12
236.04	0.12
236.839	0.12
237.638	0.12
238.437	2.12
239.236	3.12
240.035	1.12
240.833	1.12
241.632	0.12
242.43	0.12
243.229	2.12
244.027	3.12
244.826	-0.88
245.624	3.12
246.422	3.12
247.22	1.12
248.018	0.12
248.816	5.12
249.614	4.12
250.412	2.12
251.21	2.12
252.007	2.12
252.805	5.12
253.602	5.12
254.4	5.12
255.197	4.12
255.994	2.12
256.791	2.12
257.589	4.12
258.386	4.12
259.183	4.12
259.979	5.12
260.776	4.12
261.573	5.12
262.37	6.12
263.166	4.12
263.963	8.12
264.759	3.12
265.556	5.12
266.352	6.12
267.148	5.12
267.944	6.12
268.74	7.12
269.536	8.12
270.332	6.12
271.128	6.12
271.924	6.12
272.719	7.12
273.515	7.12
274.311	7.12
275.106	10.12
275.901	7.12
276.697	9.12
277.492	9.12
278.287	8.12
279.082	10.12
279.877	10.12
280.672	9.12
281.467	9.12
282.262	10.12
283.056	10.12
283.851	8.12
284.646	11.12
285.44	10.12
286.234	8.12
287.029	8.12
287.823	9.12
288.617	10.12
289.411	10.12
290.205	12.12
290.999	9.12
291.793	10.12
292.587	10.12
293.381	8.12
294.174	10.12
294.968	5.12
295.761	9.12
296.555	7.12
297.348	10.12
298.141	8.12
298.935	10.12
299.728	8.12
300.521	8.12
301.314	10.12
302.107	11.12
302.899	7.12
303.692	10.12
304.485	6.12
305.277	7.12
306.07	7.12
306.862	7.12
307.655	6.12
308.447	7.12
309.239	8.12
310.031	10.12
310.823	9.12
311.615	4.12
312.407	7.12
313.199	6.12
313.991	8.12
314.783	7.12
315.574	8.12
316.366	3.12
317.157	8.12
317.949	5.12
318.74	4.12
319.531	7.12
320.322	5.12
321.113	5.12
321.904	6.12
322.695	4.12
323.486	5.12
324.277	3.12
325.068	4.12
325.858	3.12
326.649	2.12
327.439	3.12
328.23	1.12
329.02	5.12
329.81	3.12
330.6	5.12
331.391	6.12
332.181	3.12
332.971	6.12
333.76	2.12
334.55	5.12
335.34	4.12
336.13	6.12
336.919	3.12
337.709	3.12
338.498	4.12
339.287	4.12
340.077	3.12
340.866	4.12
341.655	4.12
342.444	4.12
343.233	3.12
344.022	5.12
344.811	4.12
345.6	4.12
346.388	3.12
347.177	3.12
347.965	3.12
348.754	5.12
349.542	2.12
350.33	3.12
351.119	2.12
351.907	3.12
352.695	5.12
353.483	5.12
354.271	5.12
355.059	4.12
355.846	3.12
356.634	5.12
357.422	4.12
358.209	3.12
358.997	6.12
359.784	3.12
360.571	3.12
361.359	1.12
362.146	4.12
362.933	4.12
363.72	4.12
364.507	2.12
365.294	1.12
366.081	2.12
366.867	2.12
367.654	3.12
368.44	2.12
369.227	4.12
370.013	4.12
370.8	0.12
371.586	2.12
372.372	4.12
373.158	5.12
373.944	4.12
374.73	2.12
375.516	4.12
376.302	2.12
377.088	4.12
377.873	3.12
378.659	3.12
379.445	3.12
380.23	1.12
381.015	6.12
381.801	1.12
382.586	2.12
383.371	1.12
384.156	4.12
384.941	3.12
385.726	4.12
386.511	3.12
387.296	3.12
388.08	4.12
388.865	3.12
389.649	4.12
390.434	1.12
391.218	1.12
392.003	5.12
392.787	4.12
393.571	5.12
394.355	1.12
395.139	5.12
395.923	2.12
396.707	4.12
397.491	3.12
398.274	3.12
399.058	3.12
399.842	5.12
400.625	5.12
401.408	4.12
402.192	3.12
402.975	5.12
403.758	4.12
404.541	3.12
405.324	4.12
406.107	6.12
406.89	4.12
407.673	3.12
408.456	6.12
409.238	5.12
410.021	7.12
410.803	4.12
411.586	5.12
412.368	7.12
413.151	7.12
413.933	4.12
414.715	6.12
415.497	6.12
416.279	3.12
417.061	6.12
417.843	6.12
418.624	6.12
419.406	5.12
420.188	5.12
420.969	4.12
421.751	5.12
422.532	6.12
423.313	4.12
424.095	5.12
424.876	5.12
425.657	4.12
426.438	7.12
427.219	4.12
428	7.12
428.78	6.12
429.561	7.12
430.342	7.12
431.122	8.12
431.903	9.12
432.683	6.12
433.464	6.12
434.244	8.12
435.024	10.12
435.804	8.12
436.584	6.12
437.364	10.12
438.144	7.12
438.924	12.12
439.704	11.12
440.483	8.12
441.263	14.12
442.042	15.12
442.822	14.12
443.601	13.12
444.38	14.12
445.16	14.12
445.939	16.12
446.718	17.12
447.497	17.12
448.276	19.12
449.054	19.12
449.833	24.12
450.612	22.12
451.391	27.12
452.169	27.12
452.948	29.12
453.726	30.12
454.504	31.12
455.282	38.12
456.061	43.12
456.839	46.12
457.617	54.12
458.395	54.12
459.172	63.12
459.95	69.12
460.728	75.12
461.506	87.12
462.283	95.12
463.061	101.12
463.838	117.12
464.615	127.12
465.393	145.12
466.17	163.12
466.947	179.12
467.724	198.12
468.501	224.12
469.278	243.12
470.055	278.12
470.831	303.12
471.608	340.12
472.385	377.12
473.161	415.12
473.938	470.12
474.714	511.12
475.49	566.12
476.266	622.12
477.043	691.12
477.819	764.12
478.595	834.12
479.371	926.12
480.146	1036.12
480.922	1139.12
481.698	1255.12
482.473	1380.12
483.249	1515.12
484.024	1657.12
484.8	1829.12
485.575	2004.12
486.35	2200.12
487.126	2401.12
487.901	2639.12
488.676	2920.12
489.451	3195.12
490.225	3529.12
491	3856.12
491.775	4214.12
492.55	4616.12
493.324	5036.12
494.099	5496.12
494.873	6016.12
495.647	6529.12
496.422	7091.12
497.196	7663.12
497.97	8252.12
498.744	8902.12
499.518	9515.12
500.292	10159.12
501.066	10763.12
501.839	11382.12
502.613	11884.12
503.387	12493.12
504.16	13011.12
504.934	13380.12
505.707	13719.12
506.48	13990.12
507.253	14107.12
508.027	14277.12
508.8	14240.12
509.573	14181.12
510.346	13973.12
511.118	13776.12
511.891	13400.12
512.664	13019.12
513.437	12630.12
514.209	12250.12
514.982	11745.12
515.754	11240.12
516.526	10857.12
517.298	10325.12
518.071	9881.12
518.843	9468.12
519.615	9053.12
520.387	8703.12
521.159	8323.12
521.93	7999.12
522.702	7676.12
523.474	7411.12
524.245	7083.12
525.017	6787.12
525.788	6527.12
526.56	6269.12
527.331	6015.12
528.102	5770.12
528.873	5508.12
529.644	5276.12
530.415	5016.12
531.186	4796.12
531.957	4554.12
532.728	4350.12
533.498	4110.12
534.269	3894.12
535.039	3678.12
535.81	3463.12
536.58	3279.12
537.351	3117.12
538.121	2942.12
538.891	2776.12
539.661	2622.12
540.431	2482.12
541.201	2339.12
541.971	2205.12
542.741	2099.12
543.51	1999.12
544.28	1907.12
545.05	1789.12
545.819	1732.12
546.588	1639.12
547.358	1541.12
548.127	1447.12
548.896	1399.12
549.665	1336.12
550.434	1254.12
551.203	1191.12
551.972	1129.12
552.741	1074.12
553.51	1015.12
554.278	952.12
555.047	919.12
555.815	858.12
556.584	810.12
557.352	763.12
558.121	722.12
558.889	680.12
559.657	642.12
560.425	609.12
561.193	571.12
561.961	533.12
562.729	524.12
563.496	479.12
564.264	454.12
565.032	428.12
565.799	405.12
566.567	375.12
567.334	362.12
568.101	337.12
568.869	315.12
569.636	301.12
570.403	286.12
571.17	263.12
571.937	252.12
572.704	235.12
573.471	227.12
574.237	219.12
575.004	204.12
575.771	188.12
576.537	183.12
577.303	171.12
578.07	155.12
578.836	147.12
579.602	141.12
580.368	130.12
581.134	123.12
581.9	119.12
582.666	115.12
583.432	106.12
584.198	104.12
584.964	95.12
585.729	89.12
586.495	81.12
587.26	78.12
588.025	78.12
588.791	70.12
589.556	70.12
590.321	62.12
591.086	61.12
591.851	60.12
592.616	55.12
593.381	54.12
594.146	49.12
594.911	46.12
595.675	43.12
596.44	43.12
597.204	41.12
597.969	39.12
598.733	34.12
599.497	34.12
600.261	34.12
601.025	33.12
601.79	27.12
602.553	31.12
603.317	29.12
604.081	27.12
604.845	28.12
605.609	26.12
606.372	23.12
607.136	23.12
607.899	22.12
608.662	19.12
609.426	18.12
610.189	21.12
610.952	21.12
611.715	22.12
612.478	18.12
613.241	16.12
614.004	14.12
614.767	16.12
615.529	15.12
616.292	12.12
617.055	14.12
617.817	18.12
618.579	13.12
619.342	11.12
620.104	14.12
620.866	11.12
621.628	11.12
622.39	11.12
623.152	10.12
623.914	11.12
624.676	8.12
625.438	10.12
626.199	9.12
626.961	8.12
627.722	8.12
628.484	9.12
629.245	6.12
630.006	6.12
630.768	8.12
631.529	6.12
632.29	7.12
633.051	7.12
633.812	5.12
634.573	10.12
635.333	7.12
636.094	9.12
636.855	6.12
637.615	6.12
638.376	9.12
639.136	8.12
639.896	5.12
640.657	6.12
641.417	5.12
642.177	4.12
642.937	6.12
643.697	6.12
644.457	4.12
645.216	6.12
645.976	4.12
646.736	4.12
647.495	3.12
648.255	4.12
649.014	5.12
649.774	6.12
650.533	6.12
651.292	2.12
652.051	4.12
652.81	5.12
653.569	6.12
654.328	3.12
655.087	3.12
655.846	3.12
656.604	2.12
657.363	2.12
658.121	6.12
658.88	4.12
659.638	6.12
660.397	2.12
661.155	2.12
661.913	6.12
662.671	3.12
663.429	3.12
664.187	2.12
664.945	3.12
665.703	2.12
666.46	6.12
667.218	3.12
667.976	4.12
668.733	2.12
669.49	2.12
670.248	3.12
671.005	1.12
671.762	4.12
672.519	4.12
673.276	2.12
674.033	6.12
674.79	2.12
675.547	3.12
676.304	3.12
677.06	2.12
677.817	2.12
678.574	2.12
679.33	2.12
680.086	2.12
680.843	3.12
681.599	3.12
682.355	2.12
683.111	2.12
683.867	2.12
684.623	3.12
685.379	3.12
686.135	3.12
686.89	4.12
687.646	4.12
688.402	2.12
689.157	2.12
689.912	2.12
690.668	3.12
691.423	3.12
692.178	1.12
692.933	3.12
693.688	4.12
694.443	1.12
695.198	3.12
695.953	5.12
696.708	3.12
697.462	0.12
698.217	5.12
698.972	1.12
699.726	3.12
700.48	2.12
701.235	2.12
701.989	4.12
702.743	3.12
703.497	2.12
704.251	2.12
705.005	3.12
705.759	2.12
706.513	2.12
707.266	3.12
708.02	1.12
708.774	2.12
709.527	3.12
710.28	3.12
711.034	3.12
711.787	-0.88
712.54	3.12
713.293	3.12
714.046	3.12
714.799	2.12
715.552	1.12
716.305	5.12
717.058	0.12
717.81	2.12
718.563	2.12
719.315	4.12
720.068	3.12
720.82	3.12
721.573	2.12
722.325	1.12
723.077	2.12
723.829	5.12
724.581	2.12
725.333	3.12
726.085	2.12
726.836	6.12
727.588	1.12
728.34	2.12
729.091	3.12
729.843	2.12
730.594	3.12
731.346	2.12
732.097	2.12
732.848	5.12
733.599	3.12
734.35	4.12
735.101	3.12
735.852	2.12
736.603	2.12
737.354	4.12
738.104	3.12
738.855	6.12
739.605	2.12
740.356	4.12
741.106	4.12
741.856	2.12
742.607	2.12
743.357	2.12
744.107	2.12
744.857	1.12
745.607	2.12
746.357	3.12
747.106	0.12
747.856	4.12
748.606	1.12
749.355	3.12
750.105	3.12
750.854	4.12
751.603	2.12
752.353	2.12
753.102	2.12
753.851	3.12
754.6	4.12
755.349	3.12
756.098	3.12
756.847	4.12
757.595	3.12
758.344	1.12
759.093	3.12
759.841	6.12
760.589	5.12
761.338	4.12
762.086	4.12
762.834	3.12
763.582	2.12
764.331	3.12
765.079	4.12
765.826	3.12
766.574	4.12
767.322	6.12
768.07	3.12
768.817	6.12
769.565	3.12
770.312	5.12
771.06	5.12
771.807	2.12
772.554	4.12
773.302	2.12
774.049	5.12
774.796	4.12
775.543	8.12
776.29	5.12
777.036	5.12
777.783	3.12
778.53	4.12
779.276	5.12
780.023	4.12
780.769	6.12
781.516	3.12
782.262	5.12
783.008	5.12
783.754	4.12
784.5	5.12
785.246	3.12
785.992	4.12
786.738	4.12
787.484	3.12
788.23	4.12
788.975	6.12
789.721	7.12
790.466	4.12
791.212	5.12
791.957	6.12
792.702	3.12
793.447	7.12
794.193	3.12
794.938	3.12
795.683	3.12
796.427	5.12
797.172	3.12
797.917	4.12
798.662	3.12
799.406	4.12
800.151	4.12
800.895	4.12
801.64	5.12
802.384	2.12
803.128	4.12
803.872	7.12
804.616	3.12
805.36	5.12
806.104	4.12
806.848	4.12
807.592	4.12
808.336	4.12
809.079	3.12
809.823	3.12
810.566	6.12
811.31	2.12
812.053	5.12
812.796	3.12
813.539	3.12
814.283	2.12
815.026	3.12
815.769	5.12
816.511	3.12
817.254	3.12
817.997	4.12
818.74	3.12
819.482	4.12
820.225	3.12
820.967	1.12
821.71	3.12
822.452	2.12
823.194	5.12
823.936	2.12
824.678	3.12
825.42	3.12
826.162	2.12
826.904	5.12
827.646	2.12
828.388	2.12
829.129	3.12
829.871	3.12
830.612	2.12
831.354	5.12
832.095	3.12
832.836	1.12
833.577	4.12
834.319	4.12
835.06	2.12
835.801	4.12
836.542	4.12
837.282	3.12
838.023	3.12
838.764	3.12
839.504	2.12
840.245	4.12
840.985	2.12
841.726	3.12
842.466	3.12
843.206	2.12
843.946	2.12
844.687	0.12
845.427	2.12
846.166	2.12
846.906	2.12
847.646	1.12
848.386	4.12
849.125	4.12
849.865	1.12
850.605	5.12
851.344	1.12
852.083	1.12
852.823	2.12
853.562	3.12
854.301	3.12
855.04	0.12
855.779	3.12
856.518	3.12
857.257	3.12
857.995	0.12
858.734	1.12
859.473	1.12
860.211	1.12
860.95	3.12
861.688	-0.88
862.426	0.12
863.165	2.12
863.903	3.12
864.641	1.12
865.379	3.12
866.117	0.12
866.855	-0.88
867.593	2.12
868.33	3.12
869.068	3.12
869.806	3.12
870.543	1.12
871.28	4.12
872.018	-0.88
872.755	0.12
873.492	3.12
874.229	2.12
874.967	0.12
875.703	-1.88
876.44	1.12
877.177	0.12
877.914	-0.88
878.651	3.12
879.387	2.12
880.124	3.12
880.86	2.12
881.597	2.12
882.333	-0.88
883.069	4.12
883.806	2.12
884.542	0.12
885.278	5.12
886.014	1.12
886.749	0.12
887.485	0.12
888.221	-2.88
888.957	3.12
889.692	2.12
890.428	2.12
891.163	0.12
891.899	1.12
892.634	0.12
893.369	2.12
894.104	0.12
894.839	1.12
895.574	3.12
896.309	0.12
897.044	1.12
897.779	2.12
898.514	1.12
899.248	2.12
899.983	2.12
900.717	2.12
901.452	3.12
902.186	2.12
902.92	0.12
903.654	2.12
904.389	3.12
905.123	2.12
905.857	1.12
906.59	1.12
907.324	1.12
908.058	3.12
908.792	-0.88
909.525	1.12
910.259	2.12
910.992	2.12
911.726	-1.88
912.459	2.12
913.192	1.12
913.925	-0.88
914.658	2.12
915.391	1.12
916.124	2.12
916.857	2.12
917.59	-1.88
918.323	0.12
919.055	2.12
919.788	3.12
920.521	2.12
921.253	2.12
921.985	-0.88
922.718	2.12
923.45	2.12
924.182	0.12
924.914	2.12
925.646	-1.88
926.378	3.12
927.11	0.12
927.841	1.12
928.573	-0.88
929.305	0.12
930.036	2.12
930.768	2.12
931.499	3.12
932.23	1.12
932.962	2.12
933.693	3.12
934.424	2.12
935.155	2.12
935.886	1.12
936.617	1.12
937.348	0.12
938.078	-0.88
938.809	2.12
939.54	0.12
940.27	2.12
941.001	0.12
941.731	1.12
942.461	-0.88
943.191	1.12
943.922	2.12
944.652	0.12
945.382	1.12
946.112	2.12
946.841	-1.88
947.571	1.12
948.301	0.12
949.031	-0.88
949.76	-0.88
950.49	2.12
951.219	1.12
951.948	2.12
952.678	0.12
953.407	0.12
954.136	4.12
954.865	1.12
955.594	0.12
956.323	1.12
957.052	1.12
957.78	2.12
958.509	3.12
959.238	2.12
959.966	-0.88
960.695	1.12
961.423	0.12
962.151	2.12
962.88	1.12
963.608	1.12
964.336	-0.88
965.064	0.12
965.792	0.12
966.52	1.12
967.247	2.12
967.975	1.12
968.703	1.12
969.43	3.12
970.158	1.12
970.885	2.12
971.613	0.12
972.34	0.12
973.067	2.12
973.794	-0.88
974.521	1.12
975.248	1.12
975.975	3.12
976.702	1.12
977.429	1.12
978.156	3.12
978.882	0.12
979.609	0.12
980.335	0.12
981.062	-0.88
981.788	0.12
982.514	-0.88
983.24	2.12
983.967	0.12
984.693	1.12
985.419	0.12
986.144	1.12
986.87	0.12
987.596	0.12
988.322	1.12
989.047	0.12
989.773	0.12
990.498	2.12
991.224	3.12
991.949	1.12
992.674	0.12
993.399	0.12
994.124	0.12
994.849	2.12
995.574	-1.88
996.299	3.12
997.024	2.12
997.749	0.12
998.473	2.12
999.198	-0.88
999.922	1.12
1000.647	0.12
1001.371	5.12
1002.095	0.12
1002.82	-3.88
1003.544	-0.88
1004.268	0.12
1004.992	0.12
1005.716	1.12
1006.439	2.12
1007.163	0.12
1007.887	2.12
1008.611	1.12
1009.334	1.12
1010.058	3.12
1010.781	2.12
1011.504	0.12
1012.228	1.12
1012.951	-1.88
1013.674	1.12
1014.397	1.12
1015.12	-0.88
