节点500_145_QEPB04081__40__11-29-34-775.txt的数据

Date: Wed Nov 12 11:29:34 CST 2025
User: PC
Spectrometer: QEPB0408
触发模式: 0
积分时间 (秒): 1.000000E-2
Scans to average: 1
启用暗噪声校正: true
启用非线性校正: false
滑动平均宽度: 0
X轴模式: Wavelengths
Number of Pixels in Spectrum: 1044
>>>>>Begin Spectral Data<<<<<
220.843	-0.25
221.644	-0.25
222.444	1.75
223.244	-0.25
224.045	0.75
224.845	-1.25
225.645	0.75
226.445	-1.25
227.245	0.75
228.045	1.75
228.845	-0.25
229.645	0.75
230.444	0.75
231.244	2.75
232.043	-1.25
232.843	2.75
233.642	1.75
234.442	3.75
235.241	2.75
236.04	-1.25
236.839	1.75
237.638	0.75
238.437	1.75
239.236	1.75
240.035	1.75
240.833	-1.25
241.632	2.75
242.43	3.75
243.229	-0.25
244.027	2.75
244.826	3.75
245.624	2.75
246.422	0.75
247.22	1.75
248.018	5.75
248.816	0.75
249.614	2.75
250.412	2.75
251.21	2.75
252.007	3.75
252.805	-0.25
253.602	5.75
254.4	3.75
255.197	4.75
255.994	5.75
256.791	3.75
257.589	6.75
258.386	4.75
259.183	4.75
259.979	4.75
260.776	4.75
261.573	5.75
262.37	5.75
263.166	6.75
263.963	5.75
264.759	6.75
265.556	6.75
266.352	7.75
267.148	7.75
267.944	5.75
268.74	8.75
269.536	9.75
270.332	9.75
271.128	7.75
271.924	10.75
272.719	7.75
273.515	9.75
274.311	11.75
275.106	10.75
275.901	9.75
276.697	9.75
277.492	11.75
278.287	11.75
279.082	10.75
279.877	12.75
280.672	9.75
281.467	10.75
282.262	10.75
283.056	11.75
283.851	11.75
284.646	13.75
285.44	11.75
286.234	13.75
287.029	12.75
287.823	13.75
288.617	10.75
289.411	12.75
290.205	10.75
290.999	14.75
291.793	11.75
292.587	13.75
293.381	13.75
294.174	9.75
294.968	13.75
295.761	10.75
296.555	9.75
297.348	10.75
298.141	9.75
298.935	10.75
299.728	8.75
300.521	9.75
301.314	9.75
302.107	10.75
302.899	7.75
303.692	8.75
304.485	7.75
305.277	10.75
306.07	8.75
306.862	8.75
307.655	7.75
308.447	7.75
309.239	7.75
310.031	10.75
310.823	7.75
311.615	7.75
312.407	7.75
313.199	7.75
313.991	7.75
314.783	6.75
315.574	6.75
316.366	7.75
317.157	4.75
317.949	5.75
318.74	4.75
319.531	4.75
320.322	5.75
321.113	1.75
321.904	5.75
322.695	4.75
323.486	2.75
324.277	3.75
325.068	6.75
325.858	3.75
326.649	5.75
327.439	4.75
328.23	4.75
329.02	4.75
329.81	2.75
330.6	5.75
331.391	2.75
332.181	3.75
332.971	5.75
333.76	6.75
334.55	4.75
335.34	2.75
336.13	2.75
336.919	4.75
337.709	3.75
338.498	2.75
339.287	4.75
340.077	4.75
340.866	2.75
341.655	5.75
342.444	1.75
343.233	4.75
344.022	3.75
344.811	4.75
345.6	4.75
346.388	0.75
347.177	3.75
347.965	3.75
348.754	4.75
349.542	2.75
350.33	4.75
351.119	3.75
351.907	2.75
352.695	2.75
353.483	3.75
354.271	3.75
355.059	1.75
355.846	4.75
356.634	2.75
357.422	5.75
358.209	4.75
358.997	3.75
359.784	2.75
360.571	3.75
361.359	3.75
362.146	1.75
362.933	2.75
363.72	2.75
364.507	4.75
365.294	4.75
366.081	2.75
366.867	3.75
367.654	2.75
368.44	2.75
369.227	3.75
370.013	2.75
370.8	3.75
371.586	3.75
372.372	0.75
373.158	4.75
373.944	5.75
374.73	2.75
375.516	4.75
376.302	2.75
377.088	4.75
377.873	4.75
378.659	2.75
379.445	5.75
380.23	3.75
381.015	2.75
381.801	2.75
382.586	2.75
383.371	1.75
384.156	2.75
384.941	4.75
385.726	1.75
386.511	3.75
387.296	4.75
388.08	4.75
388.865	3.75
389.649	6.75
390.434	4.75
391.218	2.75
392.003	3.75
392.787	2.75
393.571	6.75
394.355	5.75
395.139	4.75
395.923	4.75
396.707	2.75
397.491	6.75
398.274	5.75
399.058	3.75
399.842	4.75
400.625	4.75
401.408	7.75
402.192	3.75
402.975	3.75
403.758	2.75
404.541	5.75
405.324	5.75
406.107	4.75
406.89	3.75
407.673	4.75
408.456	4.75
409.238	4.75
410.021	6.75
410.803	2.75
411.586	4.75
412.368	5.75
413.151	2.75
413.933	5.75
414.715	6.75
415.497	4.75
416.279	6.75
417.061	6.75
417.843	5.75
418.624	7.75
419.406	6.75
420.188	3.75
420.969	7.75
421.751	6.75
422.532	6.75
423.313	9.75
424.095	5.75
424.876	7.75
425.657	6.75
426.438	5.75
427.219	7.75
428	6.75
428.78	7.75
429.561	7.75
430.342	6.75
431.122	5.75
431.903	7.75
432.683	8.75
433.464	8.75
434.244	7.75
435.024	8.75
435.804	7.75
436.584	8.75
437.364	8.75
438.144	10.75
438.924	10.75
439.704	8.75
440.483	9.75
441.263	13.75
442.042	12.75
442.822	13.75
443.601	13.75
444.38	12.75
445.16	15.75
445.939	14.75
446.718	16.75
447.497	17.75
448.276	19.75
449.054	20.75
449.833	23.75
450.612	25.75
451.391	25.75
452.169	30.75
452.948	29.75
453.726	32.75
454.504	34.75
455.282	35.75
456.061	41.75
456.839	44.75
457.617	48.75
458.395	53.75
459.172	58.75
459.95	70.75
460.728	71.75
461.506	81.75
462.283	92.75
463.061	95.75
463.838	107.75
464.615	124.75
465.393	141.75
466.17	157.75
466.947	169.75
467.724	194.75
468.501	218.75
469.278	243.75
470.055	263.75
470.831	306.75
471.608	337.75
472.385	376.75
473.161	407.75
473.938	462.75
474.714	530.75
475.49	588.75
476.266	661.75
477.043	726.75
477.819	804.75
478.595	892.75
479.371	1002.75
480.146	1106.75
480.922	1239.75
481.698	1374.75
482.473	1529.75
483.249	1699.75
484.024	1880.75
484.8	2093.75
485.575	2300.75
486.35	2585.75
487.126	2854.75
487.901	3149.75
488.676	3512.75
489.451	3895.75
490.225	4302.75
491	4758.75
491.775	5266.75
492.55	5773.75
493.324	6401.75
494.099	7061.75
494.873	7712.75
495.647	8429.75
496.422	9202.75
497.196	9959.75
497.97	10758.75
498.744	11636.75
499.518	12401.75
500.292	13239.75
501.066	14012.75
501.839	14756.75
502.613	15385.75
503.387	16014.75
504.16	16550.75
504.934	16941.75
505.707	17209.75
506.48	17412.75
507.253	17488.75
508.027	17411.75
508.8	17194.75
509.573	16916.75
510.346	16559.75
511.118	16028.75
511.891	15514.75
512.664	14876.75
513.437	14275.75
514.209	13670.75
514.982	13081.75
515.754	12494.75
516.526	11926.75
517.298	11335.75
518.071	10880.75
518.843	10353.75
519.615	9916.75
520.387	9505.75
521.159	9108.75
521.93	8796.75
522.702	8404.75
523.474	8100.75
524.245	7783.75
525.017	7457.75
525.788	7164.75
526.56	6877.75
527.331	6592.75
528.102	6288.75
528.873	5961.75
529.644	5680.75
530.415	5433.75
531.186	5158.75
531.957	4861.75
532.728	4604.75
533.498	4364.75
534.269	4130.75
535.039	3871.75
535.81	3660.75
536.58	3449.75
537.351	3250.75
538.121	3065.75
538.891	2894.75
539.661	2752.75
540.431	2596.75
541.201	2447.75
541.971	2319.75
542.741	2205.75
543.51	2075.75
544.28	1979.75
545.05	1876.75
545.819	1794.75
546.588	1693.75
547.358	1604.75
548.127	1542.75
548.896	1446.75
549.665	1385.75
550.434	1306.75
551.203	1247.75
551.972	1186.75
552.741	1104.75
553.51	1064.75
554.278	1003.75
555.047	930.75
555.815	886.75
556.584	841.75
557.352	789.75
558.121	738.75
558.889	701.75
559.657	654.75
560.425	616.75
561.193	581.75
561.961	551.75
562.729	524.75
563.496	485.75
564.264	466.75
565.032	429.75
565.799	418.75
566.567	389.75
567.334	369.75
568.101	348.75
568.869	326.75
569.636	308.75
570.403	289.75
571.17	276.75
571.937	263.75
572.704	238.75
573.471	230.75
574.237	221.75
575.004	203.75
575.771	193.75
576.537	180.75
577.303	167.75
578.07	160.75
578.836	155.75
579.602	141.75
580.368	135.75
581.134	122.75
581.9	121.75
582.666	117.75
583.432	106.75
584.198	101.75
584.964	95.75
585.729	92.75
586.495	85.75
587.26	81.75
588.025	75.75
588.791	73.75
589.556	70.75
590.321	66.75
591.086	62.75
591.851	55.75
592.616	57.75
593.381	52.75
594.146	50.75
594.911	47.75
595.675	43.75
596.44	42.75
597.204	41.75
597.969	38.75
598.733	36.75
599.497	38.75
600.261	33.75
601.025	33.75
601.79	30.75
602.553	30.75
603.317	31.75
604.081	27.75
604.845	28.75
605.609	26.75
606.372	21.75
607.136	24.75
607.899	19.75
608.662	21.75
609.426	21.75
610.189	19.75
610.952	21.75
611.715	15.75
612.478	15.75
613.241	18.75
614.004	16.75
614.767	16.75
615.529	17.75
616.292	15.75
617.055	14.75
617.817	15.75
618.579	12.75
619.342	13.75
620.104	12.75
620.866	13.75
621.628	12.75
622.39	11.75
623.152	11.75
623.914	9.75
624.676	10.75
625.438	10.75
626.199	10.75
626.961	10.75
627.722	8.75
628.484	8.75
629.245	8.75
630.006	8.75
630.768	9.75
631.529	6.75
632.29	9.75
633.051	9.75
633.812	6.75
634.573	6.75
635.333	6.75
636.094	8.75
636.855	6.75
637.615	6.75
638.376	7.75
639.136	5.75
639.896	5.75
640.657	6.75
641.417	5.75
642.177	6.75
642.937	6.75
643.697	6.75
644.457	4.75
645.216	5.75
645.976	5.75
646.736	5.75
647.495	5.75
648.255	4.75
649.014	3.75
649.774	1.75
650.533	6.75
651.292	5.75
652.051	3.75
652.81	5.75
653.569	5.75
654.328	5.75
655.087	3.75
655.846	4.75
656.604	4.75
657.363	7.75
658.121	3.75
658.88	3.75
659.638	4.75
660.397	3.75
661.155	3.75
661.913	4.75
662.671	6.75
663.429	2.75
664.187	2.75
664.945	4.75
665.703	0.75
666.46	3.75
667.218	2.75
667.976	3.75
668.733	4.75
669.49	1.75
670.248	3.75
671.005	-0.25
671.762	4.75
672.519	1.75
673.276	2.75
674.033	1.75
674.79	4.75
675.547	3.75
676.304	1.75
677.06	2.75
677.817	2.75
678.574	1.75
679.33	2.75
680.086	2.75
680.843	4.75
681.599	4.75
682.355	1.75
683.111	4.75
683.867	2.75
684.623	2.75
685.379	1.75
686.135	1.75
686.89	2.75
687.646	5.75
688.402	4.75
689.157	0.75
689.912	3.75
690.668	2.75
691.423	4.75
692.178	3.75
692.933	3.75
693.688	3.75
694.443	2.75
695.198	2.75
695.953	1.75
696.708	2.75
697.462	2.75
698.217	1.75
698.972	1.75
699.726	2.75
700.48	2.75
701.235	1.75
701.989	4.75
702.743	2.75
703.497	-0.25
704.251	1.75
705.005	4.75
705.759	0.75
706.513	2.75
707.266	2.75
708.02	1.75
708.774	0.75
709.527	1.75
710.28	1.75
711.034	3.75
711.787	1.75
712.54	3.75
713.293	2.75
714.046	2.75
714.799	1.75
715.552	3.75
716.305	4.75
717.058	0.75
717.81	4.75
718.563	3.75
719.315	1.75
720.068	1.75
720.82	0.75
721.573	1.75
722.325	1.75
723.077	1.75
723.829	1.75
724.581	0.75
725.333	4.75
726.085	1.75
726.836	2.75
727.588	2.75
728.34	1.75
729.091	2.75
729.843	1.75
730.594	2.75
731.346	2.75
732.097	1.75
732.848	3.75
733.599	2.75
734.35	3.75
735.101	1.75
735.852	3.75
736.603	3.75
737.354	5.75
738.104	2.75
738.855	2.75
739.605	2.75
740.356	3.75
741.106	2.75
741.856	2.75
742.607	3.75
743.357	2.75
744.107	3.75
744.857	1.75
745.607	2.75
746.357	3.75
747.106	2.75
747.856	1.75
748.606	1.75
749.355	1.75
750.105	4.75
750.854	2.75
751.603	2.75
752.353	3.75
753.102	2.75
753.851	1.75
754.6	1.75
755.349	4.75
756.098	1.75
756.847	2.75
757.595	4.75
758.344	3.75
759.093	2.75
759.841	3.75
760.589	2.75
761.338	3.75
762.086	5.75
762.834	4.75
763.582	4.75
764.331	4.75
765.079	4.75
765.826	5.75
766.574	2.75
767.322	4.75
768.07	5.75
768.817	4.75
769.565	4.75
770.312	5.75
771.06	5.75
771.807	5.75
772.554	4.75
773.302	6.75
774.049	4.75
774.796	6.75
775.543	3.75
776.29	6.75
777.036	4.75
777.783	5.75
778.53	4.75
779.276	5.75
780.023	4.75
780.769	3.75
781.516	5.75
782.262	3.75
783.008	6.75
783.754	6.75
784.5	4.75
785.246	6.75
785.992	6.75
786.738	6.75
787.484	4.75
788.23	6.75
788.975	7.75
789.721	6.75
790.466	7.75
791.212	6.75
791.957	4.75
792.702	3.75
793.447	5.75
794.193	4.75
794.938	3.75
795.683	8.75
796.427	5.75
797.172	6.75
797.917	5.75
798.662	5.75
799.406	5.75
800.151	6.75
800.895	5.75
801.64	5.75
802.384	6.75
803.128	3.75
803.872	4.75
804.616	5.75
805.36	2.75
806.104	5.75
806.848	2.75
807.592	3.75
808.336	2.75
809.079	3.75
809.823	3.75
810.566	2.75
811.31	5.75
812.053	3.75
812.796	5.75
813.539	2.75
814.283	3.75
815.026	3.75
815.769	2.75
816.511	3.75
817.254	4.75
817.997	3.75
818.74	2.75
819.482	3.75
820.225	2.75
820.967	4.75
821.71	2.75
822.452	3.75
823.194	1.75
823.936	5.75
824.678	2.75
825.42	4.75
826.162	2.75
826.904	4.75
827.646	3.75
828.388	5.75
829.129	1.75
829.871	5.75
830.612	3.75
831.354	1.75
832.095	2.75
832.836	5.75
833.577	2.75
834.319	3.75
835.06	1.75
835.801	4.75
836.542	1.75
837.282	4.75
838.023	2.75
838.764	3.75
839.504	2.75
840.245	2.75
840.985	3.75
841.726	2.75
842.466	4.75
843.206	2.75
843.946	2.75
844.687	3.75
845.427	0.75
846.166	3.75
846.906	1.75
847.646	3.75
848.386	2.75
849.125	3.75
849.865	4.75
850.605	1.75
851.344	3.75
852.083	4.75
852.823	1.75
853.562	2.75
854.301	2.75
855.04	3.75
855.779	1.75
856.518	2.75
857.257	2.75
857.995	1.75
858.734	2.75
859.473	3.75
860.211	2.75
860.95	1.75
861.688	1.75
862.426	1.75
863.165	2.75
863.903	1.75
864.641	2.75
865.379	2.75
866.117	2.75
866.855	1.75
867.593	1.75
868.33	0.75
869.068	1.75
869.806	1.75
870.543	4.75
871.28	2.75
872.018	1.75
872.755	0.75
873.492	0.75
874.229	1.75
874.967	1.75
875.703	1.75
876.44	0.75
877.177	-2.25
877.914	2.75
878.651	0.75
879.387	1.75
880.124	0.75
880.86	-1.25
881.597	1.75
882.333	-0.25
883.069	2.75
883.806	0.75
884.542	2.75
885.278	2.75
886.014	1.75
886.749	1.75
887.485	0.75
888.221	1.75
888.957	-0.25
889.692	1.75
890.428	2.75
891.163	1.75
891.899	1.75
892.634	1.75
893.369	2.75
894.104	-0.25
894.839	0.75
895.574	2.75
896.309	-2.25
897.044	0.75
897.779	-1.25
898.514	-1.25
899.248	0.75
899.983	2.75
900.717	-0.25
901.452	1.75
902.186	1.75
902.92	-0.25
903.654	2.75
904.389	1.75
905.123	1.75
905.857	2.75
906.59	0.75
907.324	-1.25
908.058	0.75
908.792	-0.25
909.525	0.75
910.259	2.75
910.992	2.75
911.726	-0.25
912.459	0.75
913.192	1.75
913.925	0.75
914.658	1.75
915.391	1.75
916.124	1.75
916.857	-0.25
917.59	1.75
918.323	0.75
919.055	2.75
919.788	0.75
920.521	-0.25
921.253	4.75
921.985	1.75
922.718	1.75
923.45	1.75
924.182	0.75
924.914	0.75
925.646	-0.25
926.378	0.75
927.11	-2.25
927.841	2.75
928.573	1.75
929.305	-2.25
930.036	1.75
930.768	1.75
931.499	0.75
932.23	-0.25
932.962	2.75
933.693	1.75
934.424	1.75
935.155	1.75
935.886	1.75
936.617	1.75
937.348	-0.25
938.078	2.75
938.809	0.75
939.54	-0.25
940.27	-0.25
941.001	0.75
941.731	3.75
942.461	1.75
943.191	3.75
943.922	0.75
944.652	2.75
945.382	1.75
946.112	-1.25
946.841	2.75
947.571	-1.25
948.301	1.75
949.031	1.75
949.76	1.75
950.49	2.75
951.219	-0.25
951.948	0.75
952.678	1.75
953.407	0.75
954.136	0.75
954.865	-1.25
955.594	1.75
956.323	0.75
957.052	-0.25
957.78	-1.25
958.509	-1.25
959.238	1.75
959.966	1.75
960.695	3.75
961.423	-0.25
962.151	1.75
962.88	-1.25
963.608	-0.25
964.336	1.75
965.064	0.75
965.792	-1.25
966.52	-0.25
967.247	-1.25
967.975	-0.25
968.703	-1.25
969.43	1.75
970.158	1.75
970.885	1.75
971.613	-0.25
972.34	0.75
973.067	-1.25
973.794	0.75
974.521	0.75
975.248	0.75
975.975	1.75
976.702	-0.25
977.429	-1.25
978.156	1.75
978.882	-1.25
979.609	2.75
980.335	1.75
981.062	0.75
981.788	-1.25
982.514	-1.25
983.24	0.75
983.967	-0.25
984.693	4.75
985.419	0.75
986.144	-0.25
986.87	1.75
987.596	1.75
988.322	0.75
989.047	1.75
989.773	-0.25
990.498	2.75
991.224	0.75
991.949	0.75
992.674	2.75
993.399	3.75
994.124	-0.25
994.849	-0.25
995.574	-1.25
996.299	1.75
997.024	-0.25
997.749	1.75
998.473	2.75
999.198	0.75
999.922	1.75
1000.647	-2.25
1001.371	3.75
1002.095	-0.25
1002.82	-1.25
1003.544	-0.25
1004.268	1.75
1004.992	-1.25
1005.716	0.75
1006.439	0.75
1007.163	-0.25
1007.887	1.75
1008.611	1.75
1009.334	-1.25
1010.058	2.75
1010.781	0.75
1011.504	-0.25
1012.228	0.75
1012.951	-0.25
1013.674	-1.25
1014.397	0.75
1015.12	-1.25
