节点500_145_QEPB04081__657__11-39-23-060.txt的数据

Date: Wed Nov 12 11:39:23 CST 2025
User: PC
Spectrometer: QEPB0408
触发模式: 0
积分时间 (秒): 1.000000E-2
Scans to average: 1
启用暗噪声校正: true
启用非线性校正: false
滑动平均宽度: 0
X轴模式: Wavelengths
Number of Pixels in Spectrum: 1044
>>>>>Begin Spectral Data<<<<<
220.843	1.5
221.644	-1.5
222.444	1.5
223.244	1.5
224.045	0.5
224.845	0.5
225.645	0.5
226.445	0.5
227.245	-0.5
228.045	0.5
228.845	-0.5
229.645	0.5
230.444	1.5
231.244	-1.5
232.043	1.5
232.843	-1.5
233.642	-1.5
234.442	1.5
235.241	1.5
236.04	3.5
236.839	-1.5
237.638	-0.5
238.437	1.5
239.236	0.5
240.035	0.5
240.833	0.5
241.632	1.5
242.43	0.5
243.229	2.5
244.027	1.5
244.826	1.5
245.624	2.5
246.422	0.5
247.22	1.5
248.018	0.5
248.816	1.5
249.614	2.5
250.412	1.5
251.21	2.5
252.007	1.5
252.805	2.5
253.602	1.5
254.4	1.5
255.197	3.5
255.994	3.5
256.791	4.5
257.589	4.5
258.386	4.5
259.183	2.5
259.979	4.5
260.776	2.5
261.573	5.5
262.37	2.5
263.166	3.5
263.963	6.5
264.759	3.5
265.556	5.5
266.352	5.5
267.148	4.5
267.944	3.5
268.74	5.5
269.536	7.5
270.332	3.5
271.128	7.5
271.924	6.5
272.719	5.5
273.515	6.5
274.311	7.5
275.106	7.5
275.901	6.5
276.697	8.5
277.492	5.5
278.287	9.5
279.082	9.5
279.877	6.5
280.672	11.5
281.467	7.5
282.262	10.5
283.056	10.5
283.851	8.5
284.646	10.5
285.44	5.5
286.234	11.5
287.029	6.5
287.823	11.5
288.617	9.5
289.411	11.5
290.205	10.5
290.999	12.5
291.793	8.5
292.587	11.5
293.381	8.5
294.174	12.5
294.968	8.5
295.761	11.5
296.555	6.5
297.348	9.5
298.141	9.5
298.935	10.5
299.728	9.5
300.521	7.5
301.314	10.5
302.107	7.5
302.899	6.5
303.692	10.5
304.485	9.5
305.277	8.5
306.07	6.5
306.862	7.5
307.655	9.5
308.447	8.5
309.239	10.5
310.031	9.5
310.823	6.5
311.615	9.5
312.407	6.5
313.199	5.5
313.991	6.5
314.783	3.5
315.574	5.5
316.366	5.5
317.157	6.5
317.949	6.5
318.74	7.5
319.531	3.5
320.322	6.5
321.113	3.5
321.904	4.5
322.695	2.5
323.486	4.5
324.277	1.5
325.068	5.5
325.858	4.5
326.649	3.5
327.439	3.5
328.23	2.5
329.02	6.5
329.81	1.5
330.6	4.5
331.391	1.5
332.181	4.5
332.971	2.5
333.76	3.5
334.55	3.5
335.34	2.5
336.13	5.5
336.919	3.5
337.709	1.5
338.498	3.5
339.287	2.5
340.077	3.5
340.866	1.5
341.655	2.5
342.444	4.5
343.233	3.5
344.022	3.5
344.811	3.5
345.6	1.5
346.388	2.5
347.177	3.5
347.965	3.5
348.754	3.5
349.542	5.5
350.33	3.5
351.119	2.5
351.907	4.5
352.695	3.5
353.483	4.5
354.271	1.5
355.059	2.5
355.846	1.5
356.634	4.5
357.422	5.5
358.209	1.5
358.997	2.5
359.784	1.5
360.571	2.5
361.359	1.5
362.146	4.5
362.933	-0.5
363.72	2.5
364.507	2.5
365.294	2.5
366.081	3.5
366.867	3.5
367.654	2.5
368.44	2.5
369.227	3.5
370.013	1.5
370.8	2.5
371.586	1.5
372.372	2.5
373.158	3.5
373.944	-0.5
374.73	2.5
375.516	2.5
376.302	1.5
377.088	3.5
377.873	2.5
378.659	1.5
379.445	2.5
380.23	3.5
381.015	0.5
381.801	3.5
382.586	4.5
383.371	1.5
384.156	3.5
384.941	2.5
385.726	3.5
386.511	4.5
387.296	1.5
388.08	3.5
388.865	2.5
389.649	3.5
390.434	2.5
391.218	2.5
392.003	2.5
392.787	2.5
393.571	5.5
394.355	3.5
395.139	2.5
395.923	5.5
396.707	4.5
397.491	0.5
398.274	1.5
399.058	2.5
399.842	1.5
400.625	3.5
401.408	2.5
402.192	4.5
402.975	2.5
403.758	3.5
404.541	2.5
405.324	3.5
406.107	3.5
406.89	5.5
407.673	3.5
408.456	2.5
409.238	2.5
410.021	1.5
410.803	1.5
411.586	5.5
412.368	5.5
413.151	3.5
413.933	5.5
414.715	2.5
415.497	5.5
416.279	4.5
417.061	4.5
417.843	4.5
418.624	4.5
419.406	4.5
420.188	7.5
420.969	8.5
421.751	4.5
422.532	4.5
423.313	5.5
424.095	7.5
424.876	8.5
425.657	5.5
426.438	6.5
427.219	6.5
428	5.5
428.78	7.5
429.561	5.5
430.342	5.5
431.122	6.5
431.903	5.5
432.683	4.5
433.464	8.5
434.244	9.5
435.024	7.5
435.804	10.5
436.584	8.5
437.364	11.5
438.144	11.5
438.924	10.5
439.704	13.5
440.483	10.5
441.263	11.5
442.042	8.5
442.822	12.5
443.601	15.5
444.38	14.5
445.16	15.5
445.939	17.5
446.718	19.5
447.497	17.5
448.276	20.5
449.054	20.5
449.833	23.5
450.612	26.5
451.391	31.5
452.169	32.5
452.948	36.5
453.726	38.5
454.504	39.5
455.282	45.5
456.061	53.5
456.839	55.5
457.617	62.5
458.395	67.5
459.172	72.5
459.95	87.5
460.728	95.5
461.506	103.5
462.283	116.5
463.061	128.5
463.838	139.5
464.615	158.5
465.393	171.5
466.17	192.5
466.947	216.5
467.724	235.5
468.501	264.5
469.278	295.5
470.055	327.5
470.831	371.5
471.608	406.5
472.385	440.5
473.161	487.5
473.938	542.5
474.714	592.5
475.49	648.5
476.266	719.5
477.043	801.5
477.819	881.5
478.595	960.5
479.371	1058.5
480.146	1166.5
480.922	1279.5
481.698	1384.5
482.473	1540.5
483.249	1667.5
484.024	1831.5
484.8	1999.5
485.575	2175.5
486.35	2384.5
487.126	2600.5
487.901	2861.5
488.676	3123.5
489.451	3384.5
490.225	3678.5
491	4039.5
491.775	4403.5
492.55	4787.5
493.324	5224.5
494.099	5698.5
494.873	6121.5
495.647	6661.5
496.422	7210.5
497.196	7773.5
497.97	8343.5
498.744	9001.5
499.518	9657.5
500.292	10278.5
501.066	10899.5
501.839	11538.5
502.613	12154.5
503.387	12696.5
504.16	13216.5
504.934	13718.5
505.707	14138.5
506.48	14451.5
507.253	14728.5
508.027	14927.5
508.8	15053.5
509.573	15043.5
510.346	15007.5
511.118	14832.5
511.891	14565.5
512.664	14261.5
513.437	13960.5
514.209	13508.5
514.982	13066.5
515.754	12672.5
516.526	12132.5
517.298	11679.5
518.071	11201.5
518.843	10721.5
519.615	10275.5
520.387	9868.5
521.159	9470.5
521.93	9079.5
522.702	8750.5
523.474	8427.5
524.245	8112.5
525.017	7716.5
525.788	7424.5
526.56	7118.5
527.331	6862.5
528.102	6574.5
528.873	6296.5
529.644	6040.5
530.415	5772.5
531.186	5540.5
531.957	5272.5
532.728	4981.5
533.498	4742.5
534.269	4528.5
535.039	4297.5
535.81	4083.5
536.58	3846.5
537.351	3625.5
538.121	3425.5
538.891	3259.5
539.661	3071.5
540.431	2901.5
541.201	2747.5
541.971	2601.5
542.741	2481.5
543.51	2329.5
544.28	2212.5
545.05	2123.5
545.819	2007.5
546.588	1913.5
547.358	1802.5
548.127	1720.5
548.896	1638.5
549.665	1547.5
550.434	1479.5
551.203	1414.5
551.972	1329.5
552.741	1266.5
553.51	1207.5
554.278	1142.5
555.047	1078.5
555.815	1022.5
556.584	960.5
557.352	908.5
558.121	864.5
558.889	803.5
559.657	753.5
560.425	720.5
561.193	686.5
561.961	647.5
562.729	606.5
563.496	573.5
564.264	539.5
565.032	505.5
565.799	480.5
566.567	452.5
567.334	425.5
568.101	407.5
568.869	383.5
569.636	360.5
570.403	345.5
571.17	317.5
571.937	298.5
572.704	289.5
573.471	264.5
574.237	256.5
575.004	238.5
575.771	223.5
576.537	214.5
577.303	199.5
578.07	187.5
578.836	180.5
579.602	168.5
580.368	154.5
581.134	148.5
581.9	140.5
582.666	140.5
583.432	125.5
584.198	123.5
584.964	111.5
585.729	106.5
586.495	100.5
587.26	92.5
588.025	90.5
588.791	84.5
589.556	79.5
590.321	75.5
591.086	70.5
591.851	71.5
592.616	65.5
593.381	63.5
594.146	60.5
594.911	55.5
595.675	50.5
596.44	51.5
597.204	46.5
597.969	45.5
598.733	47.5
599.497	40.5
600.261	42.5
601.025	37.5
601.79	35.5
602.553	35.5
603.317	33.5
604.081	29.5
604.845	29.5
605.609	27.5
606.372	27.5
607.136	26.5
607.899	24.5
608.662	24.5
609.426	25.5
610.189	21.5
610.952	23.5
611.715	20.5
612.478	21.5
613.241	17.5
614.004	18.5
614.767	19.5
615.529	17.5
616.292	16.5
617.055	16.5
617.817	14.5
618.579	13.5
619.342	12.5
620.104	13.5
620.866	13.5
621.628	12.5
622.39	11.5
623.152	11.5
623.914	12.5
624.676	11.5
625.438	11.5
626.199	9.5
626.961	12.5
627.722	6.5
628.484	9.5
629.245	10.5
630.006	6.5
630.768	9.5
631.529	8.5
632.29	8.5
633.051	7.5
633.812	7.5
634.573	8.5
635.333	8.5
636.094	8.5
636.855	6.5
637.615	6.5
638.376	6.5
639.136	5.5
639.896	5.5
640.657	6.5
641.417	4.5
642.177	5.5
642.937	5.5
643.697	4.5
644.457	4.5
645.216	4.5
645.976	4.5
646.736	6.5
647.495	4.5
648.255	3.5
649.014	2.5
649.774	3.5
650.533	4.5
651.292	4.5
652.051	1.5
652.81	2.5
653.569	3.5
654.328	3.5
655.087	3.5
655.846	4.5
656.604	4.5
657.363	3.5
658.121	3.5
658.88	3.5
659.638	2.5
660.397	2.5
661.155	2.5
661.913	2.5
662.671	2.5
663.429	4.5
664.187	3.5
664.945	4.5
665.703	4.5
666.46	2.5
667.218	4.5
667.976	4.5
668.733	2.5
669.49	5.5
670.248	1.5
671.005	2.5
671.762	1.5
672.519	3.5
673.276	2.5
674.033	4.5
674.79	0.5
675.547	2.5
676.304	1.5
677.06	4.5
677.817	0.5
678.574	1.5
679.33	1.5
680.086	1.5
680.843	3.5
681.599	1.5
682.355	2.5
683.111	1.5
683.867	1.5
684.623	4.5
685.379	3.5
686.135	3.5
686.89	2.5
687.646	1.5
688.402	3.5
689.157	2.5
689.912	3.5
690.668	3.5
691.423	0.5
692.178	1.5
692.933	0.5
693.688	1.5
694.443	2.5
695.198	2.5
695.953	1.5
696.708	3.5
697.462	3.5
698.217	2.5
698.972	2.5
699.726	2.5
700.48	2.5
701.235	1.5
701.989	1.5
702.743	3.5
703.497	2.5
704.251	2.5
705.005	1.5
705.759	4.5
706.513	-0.5
707.266	4.5
708.02	2.5
708.774	1.5
709.527	1.5
710.28	1.5
711.034	3.5
711.787	2.5
712.54	1.5
713.293	2.5
714.046	0.5
714.799	2.5
715.552	0.5
716.305	2.5
717.058	3.5
717.81	2.5
718.563	1.5
719.315	0.5
720.068	1.5
720.82	1.5
721.573	0.5
722.325	-0.5
723.077	1.5
723.829	4.5
724.581	3.5
725.333	2.5
726.085	1.5
726.836	1.5
727.588	0.5
728.34	2.5
729.091	2.5
729.843	1.5
730.594	2.5
731.346	2.5
732.097	2.5
732.848	1.5
733.599	0.5
734.35	0.5
735.101	1.5
735.852	2.5
736.603	0.5
737.354	1.5
738.104	2.5
738.855	3.5
739.605	2.5
740.356	1.5
741.106	1.5
741.856	0.5
742.607	2.5
743.357	1.5
744.107	2.5
744.857	2.5
745.607	1.5
746.357	2.5
747.106	3.5
747.856	4.5
748.606	1.5
749.355	5.5
750.105	2.5
750.854	1.5
751.603	3.5
752.353	2.5
753.102	2.5
753.851	0.5
754.6	3.5
755.349	4.5
756.098	1.5
756.847	4.5
757.595	4.5
758.344	3.5
759.093	2.5
759.841	1.5
760.589	3.5
761.338	2.5
762.086	3.5
762.834	2.5
763.582	2.5
764.331	4.5
765.079	2.5
765.826	3.5
766.574	2.5
767.322	3.5
768.07	3.5
768.817	2.5
769.565	3.5
770.312	6.5
771.06	6.5
771.807	5.5
772.554	5.5
773.302	4.5
774.049	6.5
774.796	7.5
775.543	5.5
776.29	2.5
777.036	3.5
777.783	3.5
778.53	2.5
779.276	5.5
780.023	4.5
780.769	2.5
781.516	4.5
782.262	4.5
783.008	2.5
783.754	5.5
784.5	4.5
785.246	5.5
785.992	2.5
786.738	3.5
787.484	1.5
788.23	4.5
788.975	4.5
789.721	5.5
790.466	6.5
791.212	7.5
791.957	6.5
792.702	6.5
793.447	3.5
794.193	3.5
794.938	4.5
795.683	5.5
796.427	4.5
797.172	5.5
797.917	2.5
798.662	5.5
799.406	4.5
800.151	1.5
800.895	3.5
801.64	3.5
802.384	2.5
803.128	4.5
803.872	4.5
804.616	4.5
805.36	2.5
806.104	4.5
806.848	4.5
807.592	2.5
808.336	4.5
809.079	2.5
809.823	2.5
810.566	4.5
811.31	5.5
812.053	4.5
812.796	4.5
813.539	4.5
814.283	4.5
815.026	4.5
815.769	2.5
816.511	2.5
817.254	3.5
817.997	6.5
818.74	2.5
819.482	2.5
820.225	1.5
820.967	3.5
821.71	2.5
822.452	2.5
823.194	0.5
823.936	2.5
824.678	3.5
825.42	2.5
826.162	1.5
826.904	4.5
827.646	1.5
828.388	2.5
829.129	1.5
829.871	2.5
830.612	3.5
831.354	2.5
832.095	2.5
832.836	1.5
833.577	3.5
834.319	5.5
835.06	4.5
835.801	4.5
836.542	2.5
837.282	2.5
838.023	2.5
838.764	1.5
839.504	0.5
840.245	3.5
840.985	1.5
841.726	3.5
842.466	1.5
843.206	2.5
843.946	2.5
844.687	2.5
845.427	2.5
846.166	1.5
846.906	2.5
847.646	2.5
848.386	2.5
849.125	1.5
849.865	1.5
850.605	3.5
851.344	1.5
852.083	2.5
852.823	0.5
853.562	3.5
854.301	2.5
855.04	1.5
855.779	2.5
856.518	2.5
857.257	0.5
857.995	3.5
858.734	2.5
859.473	1.5
860.211	-1.5
860.95	2.5
861.688	1.5
862.426	1.5
863.165	1.5
863.903	0.5
864.641	2.5
865.379	0.5
866.117	0.5
866.855	1.5
867.593	2.5
868.33	1.5
869.068	1.5
869.806	1.5
870.543	2.5
871.28	5.5
872.018	-0.5
872.755	-0.5
873.492	3.5
874.229	0.5
874.967	2.5
875.703	2.5
876.44	-1.5
877.177	2.5
877.914	1.5
878.651	-0.5
879.387	1.5
880.124	0.5
880.86	-1.5
881.597	1.5
882.333	0.5
883.069	3.5
883.806	2.5
884.542	0.5
885.278	0.5
886.014	-0.5
886.749	1.5
887.485	-0.5
888.221	1.5
888.957	0.5
889.692	0.5
890.428	0.5
891.163	-1.5
891.899	1.5
892.634	-0.5
893.369	0.5
894.104	3.5
894.839	-1.5
895.574	1.5
896.309	-1.5
897.044	2.5
897.779	-1.5
898.514	0.5
899.248	-0.5
899.983	-0.5
900.717	-0.5
901.452	1.5
902.186	0.5
902.92	0.5
903.654	-0.5
904.389	1.5
905.123	-1.5
905.857	0.5
906.59	-0.5
907.324	-1.5
908.058	1.5
908.792	-2.5
909.525	1.5
910.259	0.5
910.992	2.5
911.726	0.5
912.459	0.5
913.192	-1.5
913.925	0.5
914.658	-2.5
915.391	-0.5
916.124	-1.5
916.857	-0.5
917.59	1.5
918.323	-0.5
919.055	1.5
919.788	-0.5
920.521	1.5
921.253	1.5
921.985	1.5
922.718	0.5
923.45	-0.5
924.182	1.5
924.914	1.5
925.646	-0.5
926.378	0.5
927.11	1.5
927.841	-1.5
928.573	0.5
929.305	-0.5
930.036	-1.5
930.768	0.5
931.499	1.5
932.23	-0.5
932.962	1.5
933.693	-0.5
934.424	-1.5
935.155	0.5
935.886	-1.5
936.617	1.5
937.348	-1.5
938.078	1.5
938.809	0.5
939.54	0.5
940.27	2.5
941.001	-0.5
941.731	0.5
942.461	-0.5
943.191	0.5
943.922	0.5
944.652	0.5
945.382	2.5
946.112	-0.5
946.841	-1.5
947.571	-1.5
948.301	0.5
949.031	1.5
949.76	-1.5
950.49	0.5
951.219	-0.5
951.948	1.5
952.678	-1.5
953.407	0.5
954.136	-0.5
954.865	1.5
955.594	0.5
956.323	-0.5
957.052	0.5
957.78	0.5
958.509	-0.5
959.238	0.5
959.966	-0.5
960.695	1.5
961.423	1.5
962.151	2.5
962.88	-1.5
963.608	1.5
964.336	-1.5
965.064	-1.5
965.792	1.5
966.52	1.5
967.247	2.5
967.975	0.5
968.703	1.5
969.43	0.5
970.158	0.5
970.885	1.5
971.613	-0.5
972.34	-1.5
973.067	1.5
973.794	-1.5
974.521	1.5
975.248	-0.5
975.975	0.5
976.702	2.5
977.429	2.5
978.156	1.5
978.882	1.5
979.609	-0.5
980.335	-0.5
981.062	1.5
981.788	0.5
982.514	3.5
983.24	-1.5
983.967	1.5
984.693	1.5
985.419	1.5
986.144	0.5
986.87	1.5
987.596	1.5
988.322	0.5
989.047	2.5
989.773	0.5
990.498	-0.5
991.224	0.5
991.949	-1.5
992.674	2.5
993.399	-0.5
994.124	0.5
994.849	0.5
995.574	-1.5
996.299	1.5
997.024	0.5
997.749	1.5
998.473	2.5
999.198	0.5
999.922	-0.5
1000.647	-0.5
1001.371	4.5
1002.095	-2.5
1002.82	-1.5
1003.544	-1.5
1004.268	1.5
1004.992	1.5
1005.716	-0.5
1006.439	-1.5
1007.163	-2.5
1007.887	-0.5
1008.611	0.5
1009.334	-0.5
1010.058	0.5
1010.781	1.5
1011.504	0.5
1012.228	-0.5
1012.951	1.5
1013.674	-0.5
1014.397	-0.5
1015.12	0.5
