节点500_145_QEPB04081__367__11-34-48-586.txt的数据

Date: Wed Nov 12 11:34:48 CST 2025
User: PC
Spectrometer: QEPB0408
触发模式: 0
积分时间 (秒): 1.000000E-2
Scans to average: 1
启用暗噪声校正: true
启用非线性校正: false
滑动平均宽度: 0
X轴模式: Wavelengths
Number of Pixels in Spectrum: 1044
>>>>>Begin Spectral Data<<<<<
220.843	-1.38
221.644	1.62
222.444	-1.38
223.244	0.62
224.045	0.62
224.845	0.62
225.645	1.62
226.445	0.62
227.245	2.62
228.045	1.62
228.845	0.62
229.645	0.62
230.444	1.62
231.244	0.62
232.043	0.62
232.843	1.62
233.642	0.62
234.442	-0.38
235.241	-1.38
236.04	1.62
236.839	1.62
237.638	0.62
238.437	3.62
239.236	-0.38
240.035	2.62
240.833	1.62
241.632	0.62
242.43	4.62
243.229	1.62
244.027	1.62
244.826	2.62
245.624	3.62
246.422	2.62
247.22	3.62
248.018	2.62
248.816	0.62
249.614	2.62
250.412	0.62
251.21	2.62
252.007	1.62
252.805	1.62
253.602	4.62
254.4	3.62
255.197	2.62
255.994	1.62
256.791	3.62
257.589	4.62
258.386	3.62
259.183	4.62
259.979	6.62
260.776	5.62
261.573	5.62
262.37	4.62
263.166	4.62
263.963	6.62
264.759	4.62
265.556	5.62
266.352	6.62
267.148	3.62
267.944	8.62
268.74	8.62
269.536	6.62
270.332	7.62
271.128	9.62
271.924	7.62
272.719	6.62
273.515	8.62
274.311	8.62
275.106	7.62
275.901	10.62
276.697	9.62
277.492	7.62
278.287	7.62
279.082	10.62
279.877	11.62
280.672	8.62
281.467	8.62
282.262	12.62
283.056	10.62
283.851	9.62
284.646	11.62
285.44	10.62
286.234	9.62
287.029	9.62
287.823	10.62
288.617	12.62
289.411	6.62
290.205	11.62
290.999	10.62
291.793	9.62
292.587	11.62
293.381	11.62
294.174	12.62
294.968	9.62
295.761	8.62
296.555	9.62
297.348	10.62
298.141	9.62
298.935	10.62
299.728	11.62
300.521	10.62
301.314	4.62
302.107	7.62
302.899	7.62
303.692	5.62
304.485	8.62
305.277	10.62
306.07	7.62
306.862	9.62
307.655	9.62
308.447	7.62
309.239	7.62
310.031	7.62
310.823	7.62
311.615	6.62
312.407	7.62
313.199	5.62
313.991	5.62
314.783	5.62
315.574	6.62
316.366	7.62
317.157	3.62
317.949	4.62
318.74	5.62
319.531	4.62
320.322	5.62
321.113	6.62
321.904	3.62
322.695	4.62
323.486	4.62
324.277	4.62
325.068	4.62
325.858	4.62
326.649	2.62
327.439	2.62
328.23	5.62
329.02	2.62
329.81	4.62
330.6	3.62
331.391	4.62
332.181	3.62
332.971	5.62
333.76	4.62
334.55	3.62
335.34	4.62
336.13	5.62
336.919	5.62
337.709	4.62
338.498	3.62
339.287	5.62
340.077	2.62
340.866	4.62
341.655	3.62
342.444	3.62
343.233	4.62
344.022	4.62
344.811	3.62
345.6	2.62
346.388	5.62
347.177	2.62
347.965	7.62
348.754	3.62
349.542	3.62
350.33	4.62
351.119	1.62
351.907	1.62
352.695	2.62
353.483	3.62
354.271	2.62
355.059	3.62
355.846	1.62
356.634	0.62
357.422	2.62
358.209	-0.38
358.997	4.62
359.784	2.62
360.571	3.62
361.359	3.62
362.146	1.62
362.933	3.62
363.72	3.62
364.507	3.62
365.294	3.62
366.081	1.62
366.867	3.62
367.654	2.62
368.44	5.62
369.227	4.62
370.013	0.62
370.8	3.62
371.586	1.62
372.372	3.62
373.158	1.62
373.944	3.62
374.73	3.62
375.516	2.62
376.302	3.62
377.088	-0.38
377.873	3.62
378.659	2.62
379.445	2.62
380.23	2.62
381.015	2.62
381.801	3.62
382.586	3.62
383.371	4.62
384.156	2.62
384.941	3.62
385.726	0.62
386.511	3.62
387.296	3.62
388.08	2.62
388.865	2.62
389.649	4.62
390.434	4.62
391.218	1.62
392.003	1.62
392.787	5.62
393.571	4.62
394.355	4.62
395.139	3.62
395.923	4.62
396.707	2.62
397.491	1.62
398.274	2.62
399.058	1.62
399.842	5.62
400.625	4.62
401.408	5.62
402.192	3.62
402.975	1.62
403.758	4.62
404.541	3.62
405.324	4.62
406.107	2.62
406.89	4.62
407.673	5.62
408.456	4.62
409.238	5.62
410.021	4.62
410.803	6.62
411.586	5.62
412.368	7.62
413.151	5.62
413.933	5.62
414.715	4.62
415.497	4.62
416.279	7.62
417.061	2.62
417.843	3.62
418.624	6.62
419.406	2.62
420.188	5.62
420.969	5.62
421.751	5.62
422.532	7.62
423.313	7.62
424.095	9.62
424.876	5.62
425.657	5.62
426.438	5.62
427.219	7.62
428	9.62
428.78	7.62
429.561	8.62
430.342	5.62
431.122	8.62
431.903	7.62
432.683	10.62
433.464	7.62
434.244	8.62
435.024	8.62
435.804	9.62
436.584	11.62
437.364	12.62
438.144	10.62
438.924	10.62
439.704	10.62
440.483	13.62
441.263	12.62
442.042	13.62
442.822	14.62
443.601	13.62
444.38	15.62
445.16	16.62
445.939	15.62
446.718	18.62
447.497	20.62
448.276	22.62
449.054	20.62
449.833	18.62
450.612	24.62
451.391	28.62
452.169	27.62
452.948	32.62
453.726	37.62
454.504	38.62
455.282	41.62
456.061	45.62
456.839	52.62
457.617	54.62
458.395	60.62
459.172	69.62
459.95	76.62
460.728	84.62
461.506	91.62
462.283	104.62
463.061	114.62
463.838	133.62
464.615	145.62
465.393	162.62
466.17	187.62
466.947	200.62
467.724	222.62
468.501	246.62
469.278	275.62
470.055	307.62
470.831	333.62
471.608	380.62
472.385	417.62
473.161	473.62
473.938	515.62
474.714	573.62
475.49	636.62
476.266	701.62
477.043	781.62
477.819	857.62
478.595	946.62
479.371	1045.62
480.146	1157.62
480.922	1277.62
481.698	1390.62
482.473	1555.62
483.249	1713.62
484.024	1866.62
484.8	2057.62
485.575	2258.62
486.35	2487.62
487.126	2746.62
487.901	3021.62
488.676	3293.62
489.451	3640.62
490.225	3965.62
491	4394.62
491.775	4812.62
492.55	5271.62
493.324	5749.62
494.099	6277.62
494.873	6838.62
495.647	7440.62
496.422	8091.62
497.196	8750.62
497.97	9436.62
498.744	10100.62
499.518	10826.62
500.292	11566.62
501.066	12309.62
501.839	12945.62
502.613	13605.62
503.387	14252.62
504.16	14810.62
504.934	15269.62
505.707	15608.62
506.48	15930.62
507.253	16083.62
508.027	16205.62
508.8	16244.62
509.573	16098.62
510.346	15884.62
511.118	15581.62
511.891	15263.62
512.664	14781.62
513.437	14316.62
514.209	13830.62
514.982	13283.62
515.754	12764.62
516.526	12238.62
517.298	11687.62
518.071	11192.62
518.843	10729.62
519.615	10247.62
520.387	9793.62
521.159	9435.62
521.93	9043.62
522.702	8700.62
523.474	8359.62
524.245	8020.62
525.017	7715.62
525.788	7401.62
526.56	7094.62
527.331	6808.62
528.102	6504.62
528.873	6241.62
529.644	5984.62
530.415	5665.62
531.186	5394.62
531.957	5160.62
532.728	4883.62
533.498	4644.62
534.269	4366.62
535.039	4179.62
535.81	3905.62
536.58	3691.62
537.351	3485.62
538.121	3305.62
538.891	3134.62
539.661	2935.62
540.431	2795.62
541.201	2654.62
541.971	2499.62
542.741	2375.62
543.51	2242.62
544.28	2134.62
545.05	2046.62
545.819	1924.62
546.588	1838.62
547.358	1731.62
548.127	1650.62
548.896	1573.62
549.665	1495.62
550.434	1428.62
551.203	1354.62
551.972	1276.62
552.741	1209.62
553.51	1135.62
554.278	1081.62
555.047	1022.62
555.815	965.62
556.584	901.62
557.352	856.62
558.121	801.62
558.889	768.62
559.657	725.62
560.425	683.62
561.193	652.62
561.961	602.62
562.729	562.62
563.496	538.62
564.264	508.62
565.032	477.62
565.799	453.62
566.567	425.62
567.334	405.62
568.101	376.62
568.869	361.62
569.636	342.62
570.403	320.62
571.17	310.62
571.937	282.62
572.704	270.62
573.471	251.62
574.237	233.62
575.004	224.62
575.771	215.62
576.537	201.62
577.303	188.62
578.07	176.62
578.836	162.62
579.602	154.62
580.368	149.62
581.134	139.62
581.9	132.62
582.666	129.62
583.432	119.62
584.198	108.62
584.964	103.62
585.729	101.62
586.495	94.62
587.26	91.62
588.025	84.62
588.791	85.62
589.556	77.62
590.321	75.62
591.086	71.62
591.851	65.62
592.616	58.62
593.381	58.62
594.146	56.62
594.911	51.62
595.675	49.62
596.44	49.62
597.204	45.62
597.969	45.62
598.733	40.62
599.497	41.62
600.261	35.62
601.025	35.62
601.79	34.62
602.553	31.62
603.317	32.62
604.081	29.62
604.845	29.62
605.609	26.62
606.372	27.62
607.136	24.62
607.899	21.62
608.662	24.62
609.426	21.62
610.189	21.62
610.952	21.62
611.715	20.62
612.478	19.62
613.241	17.62
614.004	18.62
614.767	15.62
615.529	15.62
616.292	14.62
617.055	16.62
617.817	17.62
618.579	13.62
619.342	13.62
620.104	10.62
620.866	13.62
621.628	11.62
622.39	10.62
623.152	12.62
623.914	10.62
624.676	9.62
625.438	7.62
626.199	12.62
626.961	9.62
627.722	9.62
628.484	11.62
629.245	7.62
630.006	7.62
630.768	10.62
631.529	7.62
632.29	8.62
633.051	7.62
633.812	9.62
634.573	7.62
635.333	8.62
636.094	4.62
636.855	7.62
637.615	6.62
638.376	5.62
639.136	4.62
639.896	5.62
640.657	7.62
641.417	3.62
642.177	5.62
642.937	3.62
643.697	4.62
644.457	4.62
645.216	3.62
645.976	2.62
646.736	3.62
647.495	4.62
648.255	2.62
649.014	5.62
649.774	4.62
650.533	3.62
651.292	5.62
652.051	3.62
652.81	3.62
653.569	4.62
654.328	4.62
655.087	2.62
655.846	2.62
656.604	1.62
657.363	5.62
658.121	2.62
658.88	3.62
659.638	-0.38
660.397	2.62
661.155	1.62
661.913	4.62
662.671	-0.38
663.429	1.62
664.187	4.62
664.945	1.62
665.703	3.62
666.46	1.62
667.218	0.62
667.976	3.62
668.733	1.62
669.49	4.62
670.248	4.62
671.005	2.62
671.762	2.62
672.519	4.62
673.276	1.62
674.033	2.62
674.79	1.62
675.547	3.62
676.304	4.62
677.06	4.62
677.817	3.62
678.574	2.62
679.33	3.62
680.086	1.62
680.843	0.62
681.599	1.62
682.355	2.62
683.111	2.62
683.867	0.62
684.623	3.62
685.379	3.62
686.135	1.62
686.89	3.62
687.646	1.62
688.402	2.62
689.157	0.62
689.912	2.62
690.668	2.62
691.423	0.62
692.178	3.62
692.933	2.62
693.688	2.62
694.443	2.62
695.198	2.62
695.953	2.62
696.708	1.62
697.462	1.62
698.217	1.62
698.972	0.62
699.726	0.62
700.48	1.62
701.235	1.62
701.989	1.62
702.743	2.62
703.497	1.62
704.251	2.62
705.005	0.62
705.759	2.62
706.513	2.62
707.266	3.62
708.02	2.62
708.774	0.62
709.527	1.62
710.28	1.62
711.034	3.62
711.787	2.62
712.54	-1.38
713.293	2.62
714.046	1.62
714.799	0.62
715.552	0.62
716.305	3.62
717.058	3.62
717.81	0.62
718.563	2.62
719.315	2.62
720.068	1.62
720.82	5.62
721.573	3.62
722.325	1.62
723.077	2.62
723.829	2.62
724.581	1.62
725.333	2.62
726.085	2.62
726.836	4.62
727.588	2.62
728.34	1.62
729.091	4.62
729.843	0.62
730.594	0.62
731.346	3.62
732.097	1.62
732.848	2.62
733.599	1.62
734.35	0.62
735.101	3.62
735.852	-0.38
736.603	-1.38
737.354	2.62
738.104	3.62
738.855	1.62
739.605	2.62
740.356	4.62
741.106	1.62
741.856	3.62
742.607	1.62
743.357	3.62
744.107	2.62
744.857	2.62
745.607	1.62
746.357	0.62
747.106	2.62
747.856	2.62
748.606	3.62
749.355	2.62
750.105	2.62
750.854	2.62
751.603	1.62
752.353	3.62
753.102	3.62
753.851	4.62
754.6	4.62
755.349	3.62
756.098	6.62
756.847	3.62
757.595	3.62
758.344	3.62
759.093	3.62
759.841	3.62
760.589	2.62
761.338	3.62
762.086	2.62
762.834	6.62
763.582	2.62
764.331	4.62
765.079	1.62
765.826	5.62
766.574	4.62
767.322	1.62
768.07	3.62
768.817	4.62
769.565	5.62
770.312	3.62
771.06	3.62
771.807	2.62
772.554	3.62
773.302	4.62
774.049	1.62
774.796	1.62
775.543	3.62
776.29	4.62
777.036	6.62
777.783	3.62
778.53	6.62
779.276	3.62
780.023	7.62
780.769	5.62
781.516	2.62
782.262	7.62
783.008	3.62
783.754	5.62
784.5	4.62
785.246	6.62
785.992	5.62
786.738	5.62
787.484	5.62
788.23	2.62
788.975	4.62
789.721	7.62
790.466	3.62
791.212	4.62
791.957	5.62
792.702	6.62
793.447	5.62
794.193	5.62
794.938	4.62
795.683	5.62
796.427	5.62
797.172	2.62
797.917	5.62
798.662	2.62
799.406	6.62
800.151	5.62
800.895	5.62
801.64	5.62
802.384	5.62
803.128	1.62
803.872	2.62
804.616	5.62
805.36	3.62
806.104	3.62
806.848	4.62
807.592	3.62
808.336	5.62
809.079	2.62
809.823	5.62
810.566	6.62
811.31	4.62
812.053	4.62
812.796	4.62
813.539	2.62
814.283	2.62
815.026	3.62
815.769	2.62
816.511	3.62
817.254	2.62
817.997	2.62
818.74	3.62
819.482	1.62
820.225	3.62
820.967	2.62
821.71	2.62
822.452	2.62
823.194	3.62
823.936	1.62
824.678	3.62
825.42	5.62
826.162	2.62
826.904	1.62
827.646	6.62
828.388	3.62
829.129	2.62
829.871	3.62
830.612	2.62
831.354	2.62
832.095	1.62
832.836	4.62
833.577	1.62
834.319	3.62
835.06	2.62
835.801	5.62
836.542	2.62
837.282	1.62
838.023	2.62
838.764	1.62
839.504	1.62
840.245	-0.38
840.985	5.62
841.726	2.62
842.466	1.62
843.206	1.62
843.946	1.62
844.687	3.62
845.427	-0.38
846.166	3.62
846.906	0.62
847.646	1.62
848.386	2.62
849.125	2.62
849.865	1.62
850.605	1.62
851.344	3.62
852.083	3.62
852.823	1.62
853.562	1.62
854.301	-0.38
855.04	1.62
855.779	1.62
856.518	1.62
857.257	-0.38
857.995	1.62
858.734	0.62
859.473	1.62
860.211	2.62
860.95	3.62
861.688	3.62
862.426	1.62
863.165	2.62
863.903	1.62
864.641	3.62
865.379	2.62
866.117	-0.38
866.855	0.62
867.593	0.62
868.33	0.62
869.068	1.62
869.806	0.62
870.543	0.62
871.28	1.62
872.018	1.62
872.755	2.62
873.492	2.62
874.229	0.62
874.967	1.62
875.703	3.62
876.44	-1.38
877.177	1.62
877.914	-0.38
878.651	-0.38
879.387	1.62
880.124	1.62
880.86	2.62
881.597	1.62
882.333	-0.38
883.069	1.62
883.806	1.62
884.542	0.62
885.278	2.62
886.014	1.62
886.749	1.62
887.485	0.62
888.221	1.62
888.957	2.62
889.692	3.62
890.428	2.62
891.163	0.62
891.899	-0.38
892.634	0.62
893.369	-0.38
894.104	0.62
894.839	0.62
895.574	1.62
896.309	1.62
897.044	-0.38
897.779	0.62
898.514	1.62
899.248	0.62
899.983	-0.38
900.717	-1.38
901.452	0.62
902.186	-1.38
902.92	-0.38
903.654	0.62
904.389	1.62
905.123	-0.38
905.857	-0.38
906.59	0.62
907.324	0.62
908.058	1.62
908.792	0.62
909.525	0.62
910.259	-0.38
910.992	1.62
911.726	1.62
912.459	0.62
913.192	0.62
913.925	-0.38
914.658	1.62
915.391	-0.38
916.124	-1.38
916.857	0.62
917.59	0.62
918.323	-0.38
919.055	0.62
919.788	0.62
920.521	1.62
921.253	0.62
921.985	-0.38
922.718	0.62
923.45	0.62
924.182	-0.38
924.914	0.62
925.646	-0.38
926.378	-1.38
927.11	1.62
927.841	-0.38
928.573	-1.38
929.305	-1.38
930.036	-0.38
930.768	-0.38
931.499	-1.38
932.23	1.62
932.962	-1.38
933.693	0.62
934.424	0.62
935.155	0.62
935.886	2.62
936.617	-2.38
937.348	0.62
938.078	-1.38
938.809	0.62
939.54	1.62
940.27	0.62
941.001	-1.38
941.731	0.62
942.461	0.62
943.191	-1.38
943.922	0.62
944.652	1.62
945.382	-1.38
946.112	0.62
946.841	1.62
947.571	0.62
948.301	0.62
949.031	-0.38
949.76	-1.38
950.49	-0.38
951.219	0.62
951.948	1.62
952.678	1.62
953.407	1.62
954.136	0.62
954.865	0.62
955.594	0.62
956.323	-3.38
957.052	-1.38
957.78	-0.38
958.509	-3.38
959.238	-0.38
959.966	-0.38
960.695	0.62
961.423	-2.38
962.151	-0.38
962.88	-1.38
963.608	0.62
964.336	0.62
965.064	-1.38
965.792	-0.38
966.52	0.62
967.247	-1.38
967.975	1.62
968.703	-0.38
969.43	-0.38
970.158	-1.38
970.885	-2.38
971.613	-0.38
972.34	-0.38
973.067	1.62
973.794	0.62
974.521	-0.38
975.248	-1.38
975.975	-1.38
976.702	0.62
977.429	0.62
978.156	0.62
978.882	3.62
979.609	-0.38
980.335	-1.38
981.062	-0.38
981.788	2.62
982.514	-0.38
983.24	-0.38
983.967	0.62
984.693	-1.38
985.419	-0.38
986.144	-1.38
986.87	0.62
987.596	0.62
988.322	1.62
989.047	-0.38
989.773	1.62
990.498	0.62
991.224	0.62
991.949	0.62
992.674	1.62
993.399	1.62
994.124	1.62
994.849	1.62
995.574	2.62
996.299	0.62
997.024	1.62
997.749	-0.38
998.473	0.62
999.198	1.62
999.922	0.62
1000.647	1.62
1001.371	5.62
1002.095	0.62
1002.82	-1.38
1003.544	-3.38
1004.268	2.62
1004.992	0.62
1005.716	-1.38
1006.439	-0.38
1007.163	-1.38
1007.887	2.62
1008.611	-0.38
1009.334	0.62
1010.058	0.62
1010.781	2.62
1011.504	-0.38
1012.228	0.62
1012.951	0.62
1013.674	-2.38
1014.397	1.62
1015.12	-1.38
