节点500_145_QEPB04081__461__11-36-18-546.txt的数据

Date: Wed Nov 12 11:36:18 CST 2025
User: PC
Spectrometer: QEPB0408
触发模式: 0
积分时间 (秒): 1.000000E-2
Scans to average: 1
启用暗噪声校正: true
启用非线性校正: false
滑动平均宽度: 0
X轴模式: Wavelengths
Number of Pixels in Spectrum: 1044
>>>>>Begin Spectral Data<<<<<
220.843	-0.75
221.644	0.25
222.444	0.25
223.244	1.25
224.045	3.25
224.845	0.25
225.645	0.25
226.445	-1.75
227.245	1.25
228.045	2.25
228.845	0.25
229.645	0.25
230.444	0.25
231.244	4.25
232.043	1.25
232.843	3.25
233.642	1.25
234.442	0.25
235.241	0.25
236.04	1.25
236.839	2.25
237.638	-0.75
238.437	1.25
239.236	1.25
240.035	-0.75
240.833	0.25
241.632	1.25
242.43	1.25
243.229	1.25
244.027	1.25
244.826	1.25
245.624	4.25
246.422	1.25
247.22	4.25
248.018	3.25
248.816	3.25
249.614	2.25
250.412	2.25
251.21	3.25
252.007	3.25
252.805	1.25
253.602	2.25
254.4	2.25
255.197	4.25
255.994	3.25
256.791	1.25
257.589	4.25
258.386	5.25
259.183	5.25
259.979	5.25
260.776	4.25
261.573	5.25
262.37	3.25
263.166	2.25
263.963	2.25
264.759	4.25
265.556	4.25
266.352	6.25
267.148	5.25
267.944	5.25
268.74	7.25
269.536	4.25
270.332	7.25
271.128	8.25
271.924	5.25
272.719	7.25
273.515	7.25
274.311	8.25
275.106	7.25
275.901	8.25
276.697	7.25
277.492	9.25
278.287	7.25
279.082	8.25
279.877	7.25
280.672	10.25
281.467	9.25
282.262	11.25
283.056	7.25
283.851	9.25
284.646	9.25
285.44	12.25
286.234	9.25
287.029	12.25
287.823	9.25
288.617	13.25
289.411	10.25
290.205	9.25
290.999	10.25
291.793	11.25
292.587	8.25
293.381	9.25
294.174	9.25
294.968	10.25
295.761	9.25
296.555	10.25
297.348	7.25
298.141	8.25
298.935	11.25
299.728	7.25
300.521	9.25
301.314	9.25
302.107	9.25
302.899	6.25
303.692	7.25
304.485	10.25
305.277	6.25
306.07	8.25
306.862	9.25
307.655	6.25
308.447	8.25
309.239	8.25
310.031	7.25
310.823	6.25
311.615	7.25
312.407	6.25
313.199	7.25
313.991	9.25
314.783	5.25
315.574	6.25
316.366	5.25
317.157	7.25
317.949	4.25
318.74	5.25
319.531	4.25
320.322	4.25
321.113	4.25
321.904	6.25
322.695	5.25
323.486	6.25
324.277	4.25
325.068	4.25
325.858	3.25
326.649	7.25
327.439	4.25
328.23	5.25
329.02	4.25
329.81	5.25
330.6	3.25
331.391	4.25
332.181	2.25
332.971	0.25
333.76	3.25
334.55	3.25
335.34	1.25
336.13	5.25
336.919	3.25
337.709	3.25
338.498	5.25
339.287	6.25
340.077	6.25
340.866	3.25
341.655	3.25
342.444	2.25
343.233	6.25
344.022	2.25
344.811	2.25
345.6	3.25
346.388	3.25
347.177	3.25
347.965	3.25
348.754	3.25
349.542	4.25
350.33	3.25
351.119	3.25
351.907	2.25
352.695	2.25
353.483	3.25
354.271	3.25
355.059	1.25
355.846	3.25
356.634	3.25
357.422	2.25
358.209	3.25
358.997	4.25
359.784	2.25
360.571	1.25
361.359	4.25
362.146	3.25
362.933	2.25
363.72	4.25
364.507	1.25
365.294	1.25
366.081	4.25
366.867	3.25
367.654	2.25
368.44	1.25
369.227	4.25
370.013	2.25
370.8	5.25
371.586	2.25
372.372	4.25
373.158	4.25
373.944	-0.75
374.73	2.25
375.516	1.25
376.302	1.25
377.088	3.25
377.873	2.25
378.659	2.25
379.445	1.25
380.23	3.25
381.015	1.25
381.801	3.25
382.586	1.25
383.371	4.25
384.156	0.25
384.941	2.25
385.726	2.25
386.511	1.25
387.296	2.25
388.08	2.25
388.865	2.25
389.649	4.25
390.434	4.25
391.218	2.25
392.003	2.25
392.787	4.25
393.571	1.25
394.355	4.25
395.139	2.25
395.923	4.25
396.707	2.25
397.491	1.25
398.274	4.25
399.058	4.25
399.842	3.25
400.625	2.25
401.408	4.25
402.192	5.25
402.975	5.25
403.758	2.25
404.541	2.25
405.324	4.25
406.107	2.25
406.89	3.25
407.673	5.25
408.456	2.25
409.238	4.25
410.021	5.25
410.803	5.25
411.586	3.25
412.368	4.25
413.151	3.25
413.933	3.25
414.715	3.25
415.497	3.25
416.279	6.25
417.061	5.25
417.843	5.25
418.624	2.25
419.406	5.25
420.188	3.25
420.969	5.25
421.751	5.25
422.532	7.25
423.313	7.25
424.095	7.25
424.876	5.25
425.657	7.25
426.438	4.25
427.219	7.25
428	6.25
428.78	4.25
429.561	7.25
430.342	4.25
431.122	7.25
431.903	6.25
432.683	5.25
433.464	10.25
434.244	7.25
435.024	7.25
435.804	7.25
436.584	9.25
437.364	9.25
438.144	8.25
438.924	8.25
439.704	9.25
440.483	10.25
441.263	13.25
442.042	13.25
442.822	13.25
443.601	12.25
444.38	14.25
445.16	15.25
445.939	16.25
446.718	18.25
447.497	22.25
448.276	22.25
449.054	21.25
449.833	23.25
450.612	25.25
451.391	31.25
452.169	31.25
452.948	34.25
453.726	34.25
454.504	38.25
455.282	41.25
456.061	45.25
456.839	53.25
457.617	57.25
458.395	60.25
459.172	69.25
459.95	77.25
460.728	87.25
461.506	94.25
462.283	107.25
463.061	117.25
463.838	136.25
464.615	144.25
465.393	167.25
466.17	189.25
466.947	209.25
467.724	235.25
468.501	248.25
469.278	283.25
470.055	311.25
470.831	345.25
471.608	382.25
472.385	423.25
473.161	477.25
473.938	531.25
474.714	585.25
475.49	641.25
476.266	718.25
477.043	795.25
477.819	867.25
478.595	949.25
479.371	1049.25
480.146	1170.25
480.922	1271.25
481.698	1411.25
482.473	1542.25
483.249	1696.25
484.024	1867.25
484.8	2037.25
485.575	2264.25
486.35	2470.25
487.126	2706.25
487.901	2987.25
488.676	3239.25
489.451	3583.25
490.225	3929.25
491	4285.25
491.775	4704.25
492.55	5111.25
493.324	5603.25
494.099	6082.25
494.873	6682.25
495.647	7257.25
496.422	7839.25
497.196	8521.25
497.97	9171.25
498.744	9847.25
499.518	10487.25
500.292	11227.25
501.066	11961.25
501.839	12609.25
502.613	13232.25
503.387	13862.25
504.16	14386.25
504.934	14860.25
505.707	15279.25
506.48	15577.25
507.253	15816.25
508.027	15931.25
508.8	15952.25
509.573	15865.25
510.346	15774.25
511.118	15464.25
511.891	15116.25
512.664	14684.25
513.437	14325.25
514.209	13813.25
514.982	13329.25
515.754	12776.25
516.526	12237.25
517.298	11729.25
518.071	11239.25
518.843	10738.25
519.615	10320.25
520.387	9867.25
521.159	9449.25
521.93	9083.25
522.702	8707.25
523.474	8382.25
524.245	8071.25
525.017	7742.25
525.788	7424.25
526.56	7117.25
527.331	6811.25
528.102	6543.25
528.873	6226.25
529.644	6000.25
530.415	5754.25
531.186	5446.25
531.957	5183.25
532.728	4949.25
533.498	4690.25
534.269	4420.25
535.039	4207.25
535.81	3970.25
536.58	3750.25
537.351	3547.25
538.121	3365.25
538.891	3180.25
539.661	2981.25
540.431	2826.25
541.201	2677.25
541.971	2538.25
542.741	2401.25
543.51	2281.25
544.28	2160.25
545.05	2053.25
545.819	1940.25
546.588	1855.25
547.358	1750.25
548.127	1675.25
548.896	1598.25
549.665	1519.25
550.434	1446.25
551.203	1350.25
551.972	1296.25
552.741	1232.25
553.51	1154.25
554.278	1097.25
555.047	1041.25
555.815	971.25
556.584	930.25
557.352	875.25
558.121	817.25
558.889	777.25
559.657	733.25
560.425	692.25
561.193	655.25
561.961	623.25
562.729	585.25
563.496	549.25
564.264	519.25
565.032	484.25
565.799	466.25
566.567	434.25
567.334	407.25
568.101	387.25
568.869	370.25
569.636	343.25
570.403	337.25
571.17	306.25
571.937	295.25
572.704	271.25
573.471	262.25
574.237	242.25
575.004	228.25
575.771	210.25
576.537	201.25
577.303	187.25
578.07	179.25
578.836	171.25
579.602	164.25
580.368	154.25
581.134	141.25
581.9	134.25
582.666	130.25
583.432	119.25
584.198	116.25
584.964	110.25
585.729	103.25
586.495	99.25
587.26	93.25
588.025	87.25
588.791	79.25
589.556	75.25
590.321	78.25
591.086	71.25
591.851	65.25
592.616	63.25
593.381	58.25
594.146	56.25
594.911	53.25
595.675	50.25
596.44	51.25
597.204	49.25
597.969	42.25
598.733	44.25
599.497	38.25
600.261	37.25
601.025	37.25
601.79	35.25
602.553	35.25
603.317	30.25
604.081	30.25
604.845	29.25
605.609	26.25
606.372	24.25
607.136	26.25
607.899	26.25
608.662	23.25
609.426	21.25
610.189	23.25
610.952	21.25
611.715	18.25
612.478	19.25
613.241	17.25
614.004	15.25
614.767	15.25
615.529	15.25
616.292	12.25
617.055	16.25
617.817	14.25
618.579	16.25
619.342	12.25
620.104	13.25
620.866	12.25
621.628	12.25
622.39	12.25
623.152	12.25
623.914	10.25
624.676	11.25
625.438	10.25
626.199	10.25
626.961	10.25
627.722	10.25
628.484	9.25
629.245	9.25
630.006	9.25
630.768	9.25
631.529	6.25
632.29	9.25
633.051	6.25
633.812	6.25
634.573	8.25
635.333	6.25
636.094	8.25
636.855	6.25
637.615	5.25
638.376	5.25
639.136	7.25
639.896	6.25
640.657	5.25
641.417	6.25
642.177	5.25
642.937	6.25
643.697	3.25
644.457	2.25
645.216	5.25
645.976	4.25
646.736	6.25
647.495	4.25
648.255	5.25
649.014	4.25
649.774	5.25
650.533	6.25
651.292	2.25
652.051	5.25
652.81	3.25
653.569	6.25
654.328	3.25
655.087	2.25
655.846	3.25
656.604	4.25
657.363	3.25
658.121	4.25
658.88	3.25
659.638	2.25
660.397	2.25
661.155	2.25
661.913	3.25
662.671	3.25
663.429	2.25
664.187	3.25
664.945	2.25
665.703	3.25
666.46	2.25
667.218	3.25
667.976	3.25
668.733	3.25
669.49	4.25
670.248	3.25
671.005	0.25
671.762	3.25
672.519	2.25
673.276	5.25
674.033	2.25
674.79	1.25
675.547	2.25
676.304	-0.75
677.06	2.25
677.817	1.25
678.574	3.25
679.33	3.25
680.086	1.25
680.843	2.25
681.599	0.25
682.355	3.25
683.111	1.25
683.867	2.25
684.623	-0.75
685.379	3.25
686.135	0.25
686.89	1.25
687.646	4.25
688.402	2.25
689.157	3.25
689.912	3.25
690.668	4.25
691.423	1.25
692.178	1.25
692.933	6.25
693.688	1.25
694.443	1.25
695.198	3.25
695.953	3.25
696.708	1.25
697.462	4.25
698.217	2.25
698.972	1.25
699.726	3.25
700.48	2.25
701.235	0.25
701.989	1.25
702.743	2.25
703.497	3.25
704.251	-1.75
705.005	2.25
705.759	2.25
706.513	2.25
707.266	1.25
708.02	1.25
708.774	2.25
709.527	1.25
710.28	2.25
711.034	1.25
711.787	2.25
712.54	1.25
713.293	-0.75
714.046	2.25
714.799	1.25
715.552	1.25
716.305	3.25
717.058	1.25
717.81	-0.75
718.563	3.25
719.315	2.25
720.068	0.25
720.82	2.25
721.573	2.25
722.325	2.25
723.077	4.25
723.829	2.25
724.581	1.25
725.333	2.25
726.085	0.25
726.836	0.25
727.588	2.25
728.34	2.25
729.091	2.25
729.843	4.25
730.594	2.25
731.346	3.25
732.097	2.25
732.848	1.25
733.599	5.25
734.35	1.25
735.101	3.25
735.852	3.25
736.603	4.25
737.354	0.25
738.104	2.25
738.855	3.25
739.605	1.25
740.356	2.25
741.106	3.25
741.856	2.25
742.607	5.25
743.357	2.25
744.107	3.25
744.857	1.25
745.607	2.25
746.357	1.25
747.106	5.25
747.856	1.25
748.606	-0.75
749.355	4.25
750.105	1.25
750.854	3.25
751.603	3.25
752.353	3.25
753.102	-0.75
753.851	4.25
754.6	1.25
755.349	3.25
756.098	3.25
756.847	2.25
757.595	5.25
758.344	2.25
759.093	0.25
759.841	4.25
760.589	3.25
761.338	3.25
762.086	2.25
762.834	2.25
763.582	4.25
764.331	2.25
765.079	4.25
765.826	2.25
766.574	6.25
767.322	4.25
768.07	5.25
768.817	4.25
769.565	5.25
770.312	3.25
771.06	5.25
771.807	0.25
772.554	4.25
773.302	1.25
774.049	2.25
774.796	4.25
775.543	5.25
776.29	4.25
777.036	4.25
777.783	5.25
778.53	5.25
779.276	5.25
780.023	2.25
780.769	3.25
781.516	6.25
782.262	6.25
783.008	3.25
783.754	5.25
784.5	3.25
785.246	4.25
785.992	4.25
786.738	4.25
787.484	5.25
788.23	6.25
788.975	5.25
789.721	4.25
790.466	5.25
791.212	6.25
791.957	4.25
792.702	7.25
793.447	7.25
794.193	4.25
794.938	4.25
795.683	3.25
796.427	5.25
797.172	5.25
797.917	6.25
798.662	5.25
799.406	2.25
800.151	3.25
800.895	3.25
801.64	5.25
802.384	2.25
803.128	3.25
803.872	4.25
804.616	3.25
805.36	5.25
806.104	2.25
806.848	6.25
807.592	2.25
808.336	4.25
809.079	2.25
809.823	4.25
810.566	5.25
811.31	4.25
812.053	1.25
812.796	4.25
813.539	4.25
814.283	4.25
815.026	5.25
815.769	2.25
816.511	2.25
817.254	6.25
817.997	2.25
818.74	3.25
819.482	2.25
820.225	2.25
820.967	4.25
821.71	5.25
822.452	2.25
823.194	3.25
823.936	3.25
824.678	1.25
825.42	4.25
826.162	5.25
826.904	2.25
827.646	5.25
828.388	1.25
829.129	3.25
829.871	2.25
830.612	3.25
831.354	3.25
832.095	1.25
832.836	5.25
833.577	3.25
834.319	3.25
835.06	4.25
835.801	2.25
836.542	4.25
837.282	3.25
838.023	0.25
838.764	3.25
839.504	2.25
840.245	4.25
840.985	2.25
841.726	3.25
842.466	1.25
843.206	3.25
843.946	4.25
844.687	2.25
845.427	0.25
846.166	1.25
846.906	4.25
847.646	0.25
848.386	2.25
849.125	2.25
849.865	2.25
850.605	2.25
851.344	0.25
852.083	1.25
852.823	1.25
853.562	2.25
854.301	1.25
855.04	3.25
855.779	-0.75
856.518	0.25
857.257	2.25
857.995	3.25
858.734	3.25
859.473	0.25
860.211	2.25
860.95	2.25
861.688	1.25
862.426	2.25
863.165	0.25
863.903	2.25
864.641	1.25
865.379	1.25
866.117	0.25
866.855	0.25
867.593	3.25
868.33	1.25
869.068	3.25
869.806	2.25
870.543	-0.75
871.28	1.25
872.018	0.25
872.755	0.25
873.492	1.25
874.229	1.25
874.967	2.25
875.703	-0.75
876.44	1.25
877.177	1.25
877.914	2.25
878.651	1.25
879.387	0.25
880.124	0.25
880.86	0.25
881.597	1.25
882.333	0.25
883.069	1.25
883.806	0.25
884.542	0.25
885.278	1.25
886.014	0.25
886.749	3.25
887.485	-0.75
888.221	-0.75
888.957	0.25
889.692	-1.75
890.428	0.25
891.163	-0.75
891.899	1.25
892.634	2.25
893.369	1.25
894.104	0.25
894.839	-0.75
895.574	2.25
896.309	2.25
897.044	2.25
897.779	-1.75
898.514	0.25
899.248	0.25
899.983	0.25
900.717	0.25
901.452	0.25
902.186	3.25
902.92	0.25
903.654	0.25
904.389	0.25
905.123	-0.75
905.857	-0.75
906.59	-0.75
907.324	0.25
908.058	1.25
908.792	0.25
909.525	0.25
910.259	1.25
910.992	-2.75
911.726	1.25
912.459	0.25
913.192	0.25
913.925	0.25
914.658	2.25
915.391	-1.75
916.124	1.25
916.857	-0.75
917.59	0.25
918.323	1.25
919.055	0.25
919.788	-0.75
920.521	1.25
921.253	1.25
921.985	0.25
922.718	2.25
923.45	-1.75
924.182	-0.75
924.914	2.25
925.646	-1.75
926.378	1.25
927.11	0.25
927.841	-0.75
928.573	2.25
929.305	-1.75
930.036	0.25
930.768	-1.75
931.499	-1.75
932.23	-0.75
932.962	-1.75
933.693	-1.75
934.424	0.25
935.155	-0.75
935.886	-1.75
936.617	0.25
937.348	-1.75
938.078	-0.75
938.809	-1.75
939.54	-0.75
940.27	0.25
941.001	0.25
941.731	1.25
942.461	-1.75
943.191	1.25
943.922	2.25
944.652	1.25
945.382	-2.75
946.112	-1.75
946.841	0.25
947.571	1.25
948.301	1.25
949.031	1.25
949.76	0.25
950.49	1.25
951.219	-2.75
951.948	1.25
952.678	1.25
953.407	1.25
954.136	-0.75
954.865	-1.75
955.594	-1.75
956.323	-0.75
957.052	0.25
957.78	1.25
958.509	-0.75
959.238	-0.75
959.966	-1.75
960.695	-1.75
961.423	1.25
962.151	-2.75
962.88	-0.75
963.608	1.25
964.336	2.25
965.064	0.25
965.792	1.25
966.52	-0.75
967.247	1.25
967.975	-1.75
968.703	1.25
969.43	2.25
970.158	-0.75
970.885	-0.75
971.613	0.25
972.34	-0.75
973.067	1.25
973.794	-0.75
974.521	-1.75
975.248	-0.75
975.975	-0.75
976.702	-1.75
977.429	-0.75
978.156	-0.75
978.882	-0.75
979.609	0.25
980.335	-0.75
981.062	0.25
981.788	-1.75
982.514	1.25
983.24	1.25
983.967	-0.75
984.693	-1.75
985.419	-0.75
986.144	0.25
986.87	0.25
987.596	1.25
988.322	-1.75
989.047	-0.75
989.773	-1.75
990.498	1.25
991.224	-2.75
991.949	-1.75
992.674	1.25
993.399	-0.75
994.124	0.25
994.849	-0.75
995.574	0.25
996.299	0.25
997.024	0.25
997.749	2.25
998.473	-1.75
999.198	2.25
999.922	1.25
1000.647	0.25
1001.371	1.25
1002.095	-1.75
1002.82	1.25
1003.544	-0.75
1004.268	1.25
1004.992	-2.75
1005.716	1.25
1006.439	-1.75
1007.163	0.25
1007.887	1.25
1008.611	0.25
1009.334	0.25
1010.058	-0.75
1010.781	1.25
1011.504	1.25
1012.228	0.25
1012.951	-1.75
1013.674	1.25
1014.397	1.25
1015.12	-0.75
