节点500_145_QEPB04081__75__11-30-09-681.txt的数据

Date: Wed Nov 12 11:30:09 CST 2025
User: PC
Spectrometer: QEPB0408
触发模式: 0
积分时间 (秒): 1.000000E-2
Scans to average: 1
启用暗噪声校正: true
启用非线性校正: false
滑动平均宽度: 0
X轴模式: Wavelengths
Number of Pixels in Spectrum: 1044
>>>>>Begin Spectral Data<<<<<
220.843	0.12
221.644	0.12
222.444	0.12
223.244	0.12
224.045	0.12
224.845	-1.88
225.645	-1.88
226.445	1.12
227.245	1.12
228.045	3.12
228.845	0.12
229.645	0.12
230.444	3.12
231.244	1.12
232.043	0.12
232.843	-0.88
233.642	1.12
234.442	1.12
235.241	1.12
236.04	1.12
236.839	2.12
237.638	0.12
238.437	2.12
239.236	2.12
240.035	1.12
240.833	2.12
241.632	1.12
242.43	1.12
243.229	1.12
244.027	1.12
244.826	1.12
245.624	3.12
246.422	1.12
247.22	4.12
248.018	4.12
248.816	3.12
249.614	2.12
250.412	3.12
251.21	1.12
252.007	2.12
252.805	1.12
253.602	5.12
254.4	5.12
255.197	2.12
255.994	4.12
256.791	3.12
257.589	4.12
258.386	4.12
259.183	1.12
259.979	5.12
260.776	5.12
261.573	6.12
262.37	6.12
263.166	5.12
263.963	7.12
264.759	7.12
265.556	6.12
266.352	5.12
267.148	7.12
267.944	7.12
268.74	8.12
269.536	7.12
270.332	7.12
271.128	6.12
271.924	9.12
272.719	8.12
273.515	10.12
274.311	10.12
275.106	10.12
275.901	10.12
276.697	11.12
277.492	10.12
278.287	12.12
279.082	10.12
279.877	11.12
280.672	11.12
281.467	12.12
282.262	11.12
283.056	11.12
283.851	11.12
284.646	12.12
285.44	12.12
286.234	11.12
287.029	12.12
287.823	12.12
288.617	13.12
289.411	10.12
290.205	10.12
290.999	11.12
291.793	12.12
292.587	11.12
293.381	12.12
294.174	12.12
294.968	10.12
295.761	11.12
296.555	10.12
297.348	9.12
298.141	10.12
298.935	13.12
299.728	10.12
300.521	7.12
301.314	8.12
302.107	10.12
302.899	9.12
303.692	7.12
304.485	9.12
305.277	9.12
306.07	7.12
306.862	9.12
307.655	6.12
308.447	9.12
309.239	7.12
310.031	9.12
310.823	6.12
311.615	7.12
312.407	6.12
313.199	6.12
313.991	6.12
314.783	6.12
315.574	4.12
316.366	5.12
317.157	4.12
317.949	6.12
318.74	5.12
319.531	7.12
320.322	8.12
321.113	5.12
321.904	5.12
322.695	3.12
323.486	5.12
324.277	3.12
325.068	4.12
325.858	3.12
326.649	5.12
327.439	7.12
328.23	5.12
329.02	4.12
329.81	5.12
330.6	5.12
331.391	5.12
332.181	2.12
332.971	2.12
333.76	3.12
334.55	6.12
335.34	3.12
336.13	5.12
336.919	3.12
337.709	3.12
338.498	5.12
339.287	4.12
340.077	2.12
340.866	5.12
341.655	4.12
342.444	3.12
343.233	3.12
344.022	4.12
344.811	1.12
345.6	6.12
346.388	5.12
347.177	2.12
347.965	3.12
348.754	3.12
349.542	5.12
350.33	3.12
351.119	3.12
351.907	4.12
352.695	1.12
353.483	4.12
354.271	3.12
355.059	4.12
355.846	3.12
356.634	4.12
357.422	2.12
358.209	3.12
358.997	3.12
359.784	1.12
360.571	4.12
361.359	3.12
362.146	2.12
362.933	4.12
363.72	3.12
364.507	2.12
365.294	3.12
366.081	5.12
366.867	4.12
367.654	2.12
368.44	3.12
369.227	3.12
370.013	3.12
370.8	2.12
371.586	3.12
372.372	2.12
373.158	1.12
373.944	1.12
374.73	3.12
375.516	2.12
376.302	1.12
377.088	2.12
377.873	3.12
378.659	5.12
379.445	2.12
380.23	2.12
381.015	4.12
381.801	2.12
382.586	3.12
383.371	3.12
384.156	4.12
384.941	3.12
385.726	1.12
386.511	4.12
387.296	4.12
388.08	2.12
388.865	2.12
389.649	4.12
390.434	4.12
391.218	5.12
392.003	5.12
392.787	2.12
393.571	4.12
394.355	5.12
395.139	5.12
395.923	4.12
396.707	6.12
397.491	2.12
398.274	3.12
399.058	5.12
399.842	5.12
400.625	4.12
401.408	4.12
402.192	2.12
402.975	2.12
403.758	2.12
404.541	3.12
405.324	4.12
406.107	5.12
406.89	3.12
407.673	5.12
408.456	4.12
409.238	5.12
410.021	6.12
410.803	5.12
411.586	2.12
412.368	4.12
413.151	2.12
413.933	6.12
414.715	7.12
415.497	4.12
416.279	4.12
417.061	3.12
417.843	7.12
418.624	4.12
419.406	6.12
420.188	6.12
420.969	5.12
421.751	5.12
422.532	4.12
423.313	5.12
424.095	6.12
424.876	7.12
425.657	9.12
426.438	8.12
427.219	6.12
428	6.12
428.78	7.12
429.561	8.12
430.342	7.12
431.122	8.12
431.903	11.12
432.683	9.12
433.464	9.12
434.244	10.12
435.024	10.12
435.804	11.12
436.584	11.12
437.364	7.12
438.144	13.12
438.924	11.12
439.704	13.12
440.483	10.12
441.263	10.12
442.042	13.12
442.822	12.12
443.601	14.12
444.38	13.12
445.16	16.12
445.939	17.12
446.718	17.12
447.497	18.12
448.276	22.12
449.054	21.12
449.833	22.12
450.612	24.12
451.391	24.12
452.169	30.12
452.948	30.12
453.726	34.12
454.504	35.12
455.282	37.12
456.061	42.12
456.839	48.12
457.617	52.12
458.395	54.12
459.172	62.12
459.95	68.12
460.728	74.12
461.506	84.12
462.283	94.12
463.061	102.12
463.838	120.12
464.615	123.12
465.393	144.12
466.17	161.12
466.947	177.12
467.724	202.12
468.501	226.12
469.278	249.12
470.055	282.12
470.831	311.12
471.608	345.12
472.385	385.12
473.161	423.12
473.938	478.12
474.714	529.12
475.49	599.12
476.266	664.12
477.043	736.12
477.819	823.12
478.595	912.12
479.371	1016.12
480.146	1130.12
480.922	1245.12
481.698	1398.12
482.473	1543.12
483.249	1713.12
484.024	1908.12
484.8	2099.12
485.575	2329.12
486.35	2603.12
487.126	2873.12
487.901	3182.12
488.676	3534.12
489.451	3892.12
490.225	4340.12
491	4757.12
491.775	5244.12
492.55	5809.12
493.324	6389.12
494.099	7022.12
494.873	7674.12
495.647	8431.12
496.422	9136.12
497.196	9910.12
497.97	10714.12
498.744	11515.12
499.518	12378.12
500.292	13123.12
501.066	13880.12
501.839	14617.12
502.613	15319.12
503.387	15903.12
504.16	16425.12
504.934	16847.12
505.707	17165.12
506.48	17340.12
507.253	17428.12
508.027	17387.12
508.8	17247.12
509.573	16963.12
510.346	16597.12
511.118	16126.12
511.891	15605.12
512.664	15039.12
513.437	14453.12
514.209	13894.12
514.982	13225.12
515.754	12628.12
516.526	12028.12
517.298	11472.12
518.071	10934.12
518.843	10483.12
519.615	10046.12
520.387	9620.12
521.159	9242.12
521.93	8884.12
522.702	8527.12
523.474	8216.12
524.245	7871.12
525.017	7565.12
525.788	7247.12
526.56	6953.12
527.331	6669.12
528.102	6364.12
528.873	6078.12
529.644	5787.12
530.415	5481.12
531.186	5222.12
531.957	4941.12
532.728	4664.12
533.498	4429.12
534.269	4165.12
535.039	3937.12
535.81	3709.12
536.58	3496.12
537.351	3305.12
538.121	3105.12
538.891	2959.12
539.661	2756.12
540.431	2639.12
541.201	2499.12
541.971	2356.12
542.741	2227.12
543.51	2121.12
544.28	2003.12
545.05	1896.12
545.819	1825.12
546.588	1746.12
547.358	1653.12
548.127	1575.12
548.896	1478.12
549.665	1411.12
550.434	1338.12
551.203	1272.12
551.972	1205.12
552.741	1137.12
553.51	1075.12
554.278	1009.12
555.047	966.12
555.815	888.12
556.584	845.12
557.352	803.12
558.121	756.12
558.889	709.12
559.657	664.12
560.425	625.12
561.193	584.12
561.961	556.12
562.729	525.12
563.496	501.12
564.264	466.12
565.032	441.12
565.799	428.12
566.567	391.12
567.334	372.12
568.101	348.12
568.869	333.12
569.636	316.12
570.403	291.12
571.17	282.12
571.937	266.12
572.704	246.12
573.471	237.12
574.237	216.12
575.004	200.12
575.771	193.12
576.537	183.12
577.303	170.12
578.07	166.12
578.836	153.12
579.602	141.12
580.368	135.12
581.134	132.12
581.9	124.12
582.666	119.12
583.432	107.12
584.198	105.12
584.964	96.12
585.729	95.12
586.495	90.12
587.26	83.12
588.025	75.12
588.791	74.12
589.556	75.12
590.321	62.12
591.086	65.12
591.851	62.12
592.616	55.12
593.381	50.12
594.146	55.12
594.911	50.12
595.675	46.12
596.44	45.12
597.204	41.12
597.969	39.12
598.733	37.12
599.497	39.12
600.261	37.12
601.025	32.12
601.79	30.12
602.553	33.12
603.317	31.12
604.081	27.12
604.845	27.12
605.609	25.12
606.372	25.12
607.136	25.12
607.899	22.12
608.662	21.12
609.426	21.12
610.189	19.12
610.952	18.12
611.715	20.12
612.478	18.12
613.241	15.12
614.004	18.12
614.767	15.12
615.529	14.12
616.292	17.12
617.055	13.12
617.817	14.12
618.579	15.12
619.342	13.12
620.104	11.12
620.866	11.12
621.628	11.12
622.39	13.12
623.152	10.12
623.914	11.12
624.676	11.12
625.438	10.12
626.199	12.12
626.961	10.12
627.722	7.12
628.484	6.12
629.245	8.12
630.006	7.12
630.768	10.12
631.529	7.12
632.29	8.12
633.051	7.12
633.812	7.12
634.573	5.12
635.333	5.12
636.094	6.12
636.855	7.12
637.615	6.12
638.376	5.12
639.136	5.12
639.896	4.12
640.657	4.12
641.417	5.12
642.177	4.12
642.937	4.12
643.697	4.12
644.457	3.12
645.216	4.12
645.976	5.12
646.736	5.12
647.495	3.12
648.255	4.12
649.014	5.12
649.774	4.12
650.533	5.12
651.292	4.12
652.051	2.12
652.81	5.12
653.569	3.12
654.328	4.12
655.087	2.12
655.846	3.12
656.604	0.12
657.363	3.12
658.121	2.12
658.88	3.12
659.638	6.12
660.397	2.12
661.155	3.12
661.913	3.12
662.671	2.12
663.429	3.12
664.187	3.12
664.945	4.12
665.703	0.12
666.46	3.12
667.218	2.12
667.976	1.12
668.733	2.12
669.49	3.12
670.248	3.12
671.005	1.12
671.762	2.12
672.519	2.12
673.276	4.12
674.033	2.12
674.79	1.12
675.547	2.12
676.304	3.12
677.06	0.12
677.817	2.12
678.574	2.12
679.33	2.12
680.086	2.12
680.843	4.12
681.599	1.12
682.355	2.12
683.111	5.12
683.867	2.12
684.623	3.12
685.379	-1.88
686.135	6.12
686.89	1.12
687.646	1.12
688.402	1.12
689.157	2.12
689.912	3.12
690.668	3.12
691.423	3.12
692.178	0.12
692.933	2.12
693.688	2.12
694.443	2.12
695.198	4.12
695.953	1.12
696.708	1.12
697.462	2.12
698.217	4.12
698.972	2.12
699.726	2.12
700.48	2.12
701.235	0.12
701.989	3.12
702.743	0.12
703.497	5.12
704.251	2.12
705.005	1.12
705.759	1.12
706.513	2.12
707.266	5.12
708.02	1.12
708.774	2.12
709.527	0.12
710.28	1.12
711.034	3.12
711.787	3.12
712.54	3.12
713.293	1.12
714.046	1.12
714.799	4.12
715.552	0.12
716.305	2.12
717.058	1.12
717.81	1.12
718.563	2.12
719.315	1.12
720.068	3.12
720.82	1.12
721.573	2.12
722.325	5.12
723.077	2.12
723.829	1.12
724.581	2.12
725.333	1.12
726.085	2.12
726.836	4.12
727.588	2.12
728.34	2.12
729.091	3.12
729.843	2.12
730.594	2.12
731.346	2.12
732.097	4.12
732.848	2.12
733.599	3.12
734.35	2.12
735.101	3.12
735.852	4.12
736.603	1.12
737.354	2.12
738.104	1.12
738.855	2.12
739.605	4.12
740.356	2.12
741.106	2.12
741.856	4.12
742.607	4.12
743.357	3.12
744.107	2.12
744.857	3.12
745.607	1.12
746.357	3.12
747.106	3.12
747.856	3.12
748.606	-0.88
749.355	1.12
750.105	5.12
750.854	1.12
751.603	3.12
752.353	1.12
753.102	3.12
753.851	1.12
754.6	3.12
755.349	5.12
756.098	2.12
756.847	7.12
757.595	1.12
758.344	3.12
759.093	4.12
759.841	4.12
760.589	4.12
761.338	5.12
762.086	2.12
762.834	5.12
763.582	5.12
764.331	4.12
765.079	2.12
765.826	7.12
766.574	2.12
767.322	6.12
768.07	4.12
768.817	4.12
769.565	5.12
770.312	7.12
771.06	4.12
771.807	2.12
772.554	5.12
773.302	5.12
774.049	3.12
774.796	6.12
775.543	3.12
776.29	6.12
777.036	3.12
777.783	4.12
778.53	4.12
779.276	5.12
780.023	4.12
780.769	3.12
781.516	5.12
782.262	7.12
783.008	5.12
783.754	6.12
784.5	5.12
785.246	6.12
785.992	9.12
786.738	6.12
787.484	5.12
788.23	6.12
788.975	7.12
789.721	5.12
790.466	4.12
791.212	3.12
791.957	6.12
792.702	4.12
793.447	7.12
794.193	8.12
794.938	5.12
795.683	7.12
796.427	5.12
797.172	7.12
797.917	6.12
798.662	4.12
799.406	4.12
800.151	4.12
800.895	4.12
801.64	3.12
802.384	6.12
803.128	5.12
803.872	3.12
804.616	5.12
805.36	3.12
806.104	4.12
806.848	7.12
807.592	6.12
808.336	4.12
809.079	3.12
809.823	4.12
810.566	4.12
811.31	3.12
812.053	3.12
812.796	2.12
813.539	1.12
814.283	7.12
815.026	4.12
815.769	4.12
816.511	5.12
817.254	2.12
817.997	1.12
818.74	5.12
819.482	2.12
820.225	6.12
820.967	0.12
821.71	3.12
822.452	1.12
823.194	4.12
823.936	2.12
824.678	3.12
825.42	2.12
826.162	1.12
826.904	3.12
827.646	1.12
828.388	2.12
829.129	3.12
829.871	2.12
830.612	7.12
831.354	2.12
832.095	1.12
832.836	2.12
833.577	1.12
834.319	3.12
835.06	0.12
835.801	4.12
836.542	2.12
837.282	5.12
838.023	3.12
838.764	2.12
839.504	1.12
840.245	1.12
840.985	2.12
841.726	3.12
842.466	3.12
843.206	1.12
843.946	2.12
844.687	3.12
845.427	2.12
846.166	4.12
846.906	3.12
847.646	1.12
848.386	2.12
849.125	3.12
849.865	1.12
850.605	2.12
851.344	3.12
852.083	0.12
852.823	2.12
853.562	1.12
854.301	1.12
855.04	2.12
855.779	3.12
856.518	2.12
857.257	2.12
857.995	2.12
858.734	1.12
859.473	4.12
860.211	2.12
860.95	0.12
861.688	0.12
862.426	5.12
863.165	3.12
863.903	1.12
864.641	1.12
865.379	2.12
866.117	3.12
866.855	0.12
867.593	0.12
868.33	-0.88
869.068	0.12
869.806	-0.88
870.543	0.12
871.28	1.12
872.018	-0.88
872.755	2.12
873.492	-0.88
874.229	1.12
874.967	2.12
875.703	-0.88
876.44	-0.88
877.177	1.12
877.914	2.12
878.651	1.12
879.387	0.12
880.124	1.12
880.86	0.12
881.597	-0.88
882.333	0.12
883.069	2.12
883.806	-0.88
884.542	3.12
885.278	3.12
886.014	1.12
886.749	2.12
887.485	0.12
888.221	1.12
888.957	2.12
889.692	3.12
890.428	0.12
891.163	0.12
891.899	2.12
892.634	-2.88
893.369	2.12
894.104	2.12
894.839	1.12
895.574	1.12
896.309	-0.88
897.044	2.12
897.779	1.12
898.514	2.12
899.248	-0.88
899.983	-0.88
900.717	2.12
901.452	-1.88
902.186	1.12
902.92	0.12
903.654	2.12
904.389	-0.88
905.123	1.12
905.857	-0.88
906.59	1.12
907.324	3.12
908.058	0.12
908.792	1.12
909.525	1.12
910.259	0.12
910.992	-0.88
911.726	-0.88
912.459	-0.88
913.192	1.12
913.925	0.12
914.658	-0.88
915.391	0.12
916.124	1.12
916.857	-2.88
917.59	1.12
918.323	1.12
919.055	1.12
919.788	0.12
920.521	-0.88
921.253	0.12
921.985	2.12
922.718	2.12
923.45	0.12
924.182	0.12
924.914	-0.88
925.646	-2.88
926.378	0.12
927.11	2.12
927.841	2.12
928.573	-0.88
929.305	0.12
930.036	0.12
930.768	-1.88
931.499	1.12
932.23	1.12
932.962	1.12
933.693	0.12
934.424	-0.88
935.155	0.12
935.886	-1.88
936.617	2.12
937.348	1.12
938.078	-1.88
938.809	2.12
939.54	-0.88
940.27	0.12
941.001	0.12
941.731	3.12
942.461	0.12
943.191	0.12
943.922	0.12
944.652	-0.88
945.382	-0.88
946.112	2.12
946.841	-0.88
947.571	1.12
948.301	1.12
949.031	-0.88
949.76	2.12
950.49	-0.88
951.219	-0.88
951.948	2.12
952.678	0.12
953.407	1.12
954.136	0.12
954.865	-1.88
955.594	0.12
956.323	1.12
957.052	-0.88
957.78	1.12
958.509	-0.88
959.238	0.12
959.966	-0.88
960.695	0.12
961.423	1.12
962.151	0.12
962.88	-0.88
963.608	1.12
964.336	0.12
965.064	0.12
965.792	-0.88
966.52	-0.88
967.247	1.12
967.975	-0.88
968.703	1.12
969.43	-1.88
970.158	0.12
970.885	3.12
971.613	-0.88
972.34	0.12
973.067	1.12
973.794	0.12
974.521	-0.88
975.248	1.12
975.975	0.12
976.702	0.12
977.429	1.12
978.156	1.12
978.882	-2.88
979.609	3.12
980.335	-0.88
981.062	0.12
981.788	0.12
982.514	1.12
983.24	2.12
983.967	-2.88
984.693	-0.88
985.419	0.12
986.144	1.12
986.87	-0.88
987.596	1.12
988.322	1.12
989.047	-0.88
989.773	0.12
990.498	0.12
991.224	1.12
991.949	-1.88
992.674	-0.88
993.399	2.12
994.124	1.12
994.849	1.12
995.574	0.12
996.299	0.12
997.024	1.12
997.749	1.12
998.473	2.12
999.198	1.12
999.922	1.12
1000.647	1.12
1001.371	5.12
1002.095	-0.88
1002.82	-0.88
1003.544	-1.88
1004.268	0.12
1004.992	-0.88
1005.716	-0.88
1006.439	0.12
1007.163	1.12
1007.887	-0.88
1008.611	0.12
1009.334	0.12
1010.058	1.12
1010.781	0.12
1011.504	-0.88
1012.228	2.12
1012.951	0.12
1013.674	0.12
1014.397	-0.88
1015.12	-0.88
