节点500_145_QEPB04081__25__11-29-20-801.txt的数据

Date: Wed Nov 12 11:29:20 CST 2025
User: PC
Spectrometer: QEPB0408
触发模式: 0
积分时间 (秒): 1.000000E-2
Scans to average: 1
启用暗噪声校正: true
启用非线性校正: false
滑动平均宽度: 0
X轴模式: Wavelengths
Number of Pixels in Spectrum: 1044
>>>>>Begin Spectral Data<<<<<
220.843	-0.25
221.644	-0.25
222.444	-2.25
223.244	0.75
224.045	-2.25
224.845	-0.25
225.645	-1.25
226.445	-0.25
227.245	-0.25
228.045	-0.25
228.845	-0.25
229.645	-0.25
230.444	0.75
231.244	-0.25
232.043	0.75
232.843	1.75
233.642	-1.25
234.442	0.75
235.241	0.75
236.04	-0.25
236.839	-0.25
237.638	1.75
238.437	0.75
239.236	-0.25
240.035	2.75
240.833	0.75
241.632	2.75
242.43	-1.25
243.229	1.75
244.027	-0.25
244.826	1.75
245.624	3.75
246.422	-0.25
247.22	1.75
248.018	2.75
248.816	2.75
249.614	3.75
250.412	0.75
251.21	2.75
252.007	-0.25
252.805	3.75
253.602	0.75
254.4	3.75
255.197	5.75
255.994	2.75
256.791	4.75
257.589	4.75
258.386	3.75
259.183	6.75
259.979	4.75
260.776	4.75
261.573	2.75
262.37	4.75
263.166	2.75
263.963	5.75
264.759	5.75
265.556	7.75
266.352	5.75
267.148	7.75
267.944	4.75
268.74	7.75
269.536	8.75
270.332	6.75
271.128	6.75
271.924	7.75
272.719	9.75
273.515	8.75
274.311	8.75
275.106	8.75
275.901	9.75
276.697	7.75
277.492	10.75
278.287	8.75
279.082	9.75
279.877	12.75
280.672	10.75
281.467	11.75
282.262	10.75
283.056	9.75
283.851	12.75
284.646	9.75
285.44	10.75
286.234	9.75
287.029	13.75
287.823	10.75
288.617	10.75
289.411	12.75
290.205	8.75
290.999	8.75
291.793	11.75
292.587	8.75
293.381	11.75
294.174	11.75
294.968	10.75
295.761	11.75
296.555	8.75
297.348	9.75
298.141	7.75
298.935	11.75
299.728	9.75
300.521	10.75
301.314	8.75
302.107	9.75
302.899	7.75
303.692	7.75
304.485	10.75
305.277	6.75
306.07	6.75
306.862	5.75
307.655	8.75
308.447	5.75
309.239	9.75
310.031	8.75
310.823	6.75
311.615	6.75
312.407	5.75
313.199	5.75
313.991	4.75
314.783	7.75
315.574	3.75
316.366	4.75
317.157	2.75
317.949	3.75
318.74	5.75
319.531	4.75
320.322	4.75
321.113	3.75
321.904	5.75
322.695	3.75
323.486	5.75
324.277	3.75
325.068	3.75
325.858	4.75
326.649	5.75
327.439	4.75
328.23	5.75
329.02	1.75
329.81	4.75
330.6	5.75
331.391	3.75
332.181	3.75
332.971	1.75
333.76	4.75
334.55	2.75
335.34	3.75
336.13	1.75
336.919	3.75
337.709	1.75
338.498	0.75
339.287	3.75
340.077	-1.25
340.866	5.75
341.655	1.75
342.444	0.75
343.233	3.75
344.022	0.75
344.811	3.75
345.6	2.75
346.388	3.75
347.177	3.75
347.965	0.75
348.754	3.75
349.542	1.75
350.33	2.75
351.119	2.75
351.907	1.75
352.695	4.75
353.483	1.75
354.271	5.75
355.059	2.75
355.846	3.75
356.634	4.75
357.422	2.75
358.209	2.75
358.997	2.75
359.784	3.75
360.571	0.75
361.359	4.75
362.146	2.75
362.933	4.75
363.72	3.75
364.507	3.75
365.294	4.75
366.081	1.75
366.867	3.75
367.654	2.75
368.44	1.75
369.227	1.75
370.013	1.75
370.8	1.75
371.586	4.75
372.372	1.75
373.158	1.75
373.944	1.75
374.73	3.75
375.516	2.75
376.302	2.75
377.088	3.75
377.873	2.75
378.659	1.75
379.445	2.75
380.23	2.75
381.015	1.75
381.801	3.75
382.586	0.75
383.371	1.75
384.156	2.75
384.941	1.75
385.726	3.75
386.511	2.75
387.296	3.75
388.08	4.75
388.865	1.75
389.649	1.75
390.434	0.75
391.218	1.75
392.003	1.75
392.787	3.75
393.571	5.75
394.355	2.75
395.139	4.75
395.923	1.75
396.707	2.75
397.491	0.75
398.274	4.75
399.058	3.75
399.842	2.75
400.625	2.75
401.408	2.75
402.192	4.75
402.975	4.75
403.758	5.75
404.541	1.75
405.324	3.75
406.107	5.75
406.89	0.75
407.673	1.75
408.456	4.75
409.238	1.75
410.021	4.75
410.803	3.75
411.586	4.75
412.368	6.75
413.151	4.75
413.933	4.75
414.715	5.75
415.497	5.75
416.279	4.75
417.061	5.75
417.843	2.75
418.624	5.75
419.406	3.75
420.188	4.75
420.969	3.75
421.751	2.75
422.532	7.75
423.313	5.75
424.095	7.75
424.876	4.75
425.657	3.75
426.438	4.75
427.219	6.75
428	6.75
428.78	6.75
429.561	5.75
430.342	7.75
431.122	5.75
431.903	7.75
432.683	8.75
433.464	9.75
434.244	9.75
435.024	8.75
435.804	7.75
436.584	6.75
437.364	9.75
438.144	8.75
438.924	11.75
439.704	8.75
440.483	9.75
441.263	10.75
442.042	12.75
442.822	13.75
443.601	13.75
444.38	15.75
445.16	13.75
445.939	15.75
446.718	14.75
447.497	14.75
448.276	18.75
449.054	22.75
449.833	23.75
450.612	20.75
451.391	22.75
452.169	25.75
452.948	29.75
453.726	29.75
454.504	30.75
455.282	37.75
456.061	43.75
456.839	41.75
457.617	43.75
458.395	51.75
459.172	59.75
459.95	67.75
460.728	75.75
461.506	76.75
462.283	87.75
463.061	95.75
463.838	108.75
464.615	125.75
465.393	135.75
466.17	148.75
466.947	173.75
467.724	191.75
468.501	213.75
469.278	237.75
470.055	266.75
470.831	301.75
471.608	338.75
472.385	377.75
473.161	422.75
473.938	470.75
474.714	523.75
475.49	581.75
476.266	646.75
477.043	726.75
477.819	800.75
478.595	886.75
479.371	1004.75
480.146	1111.75
480.922	1208.75
481.698	1376.75
482.473	1519.75
483.249	1685.75
484.024	1885.75
484.8	2085.75
485.575	2317.75
486.35	2565.75
487.126	2854.75
487.901	3152.75
488.676	3512.75
489.451	3919.75
490.225	4334.75
491	4773.75
491.775	5284.75
492.55	5825.75
493.324	6464.75
494.099	7048.75
494.873	7766.75
495.647	8479.75
496.422	9244.75
497.196	10046.75
497.97	10847.75
498.744	11706.75
499.518	12541.75
500.292	13310.75
501.066	14149.75
501.839	14871.75
502.613	15472.75
503.387	16093.75
504.16	16663.75
504.934	17061.75
505.707	17321.75
506.48	17425.75
507.253	17547.75
508.027	17487.75
508.8	17177.75
509.573	16924.75
510.346	16569.75
511.118	16064.75
511.891	15485.75
512.664	14867.75
513.437	14260.75
514.209	13674.75
514.982	13057.75
515.754	12474.75
516.526	11860.75
517.298	11308.75
518.071	10807.75
518.843	10322.75
519.615	9866.75
520.387	9452.75
521.159	9077.75
521.93	8737.75
522.702	8391.75
523.474	8062.75
524.245	7777.75
525.017	7460.75
525.788	7146.75
526.56	6844.75
527.331	6540.75
528.102	6250.75
528.873	5974.75
529.644	5661.75
530.415	5399.75
531.186	5116.75
531.957	4844.75
532.728	4573.75
533.498	4331.75
534.269	4081.75
535.039	3855.75
535.81	3597.75
536.58	3400.75
537.351	3208.75
538.121	3034.75
538.891	2857.75
539.661	2701.75
540.431	2573.75
541.201	2411.75
541.971	2310.75
542.741	2188.75
543.51	2088.75
544.28	1958.75
545.05	1865.75
545.819	1786.75
546.588	1690.75
547.358	1599.75
548.127	1533.75
548.896	1449.75
549.665	1371.75
550.434	1297.75
551.203	1233.75
551.972	1168.75
552.741	1110.75
553.51	1051.75
554.278	986.75
555.047	934.75
555.815	872.75
556.584	818.75
557.352	776.75
558.121	739.75
558.889	697.75
559.657	637.75
560.425	606.75
561.193	569.75
561.961	543.75
562.729	506.75
563.496	480.75
564.264	447.75
565.032	432.75
565.799	420.75
566.567	380.75
567.334	361.75
568.101	343.75
568.869	321.75
569.636	301.75
570.403	288.75
571.17	271.75
571.937	259.75
572.704	245.75
573.471	234.75
574.237	214.75
575.004	199.75
575.771	195.75
576.537	177.75
577.303	169.75
578.07	157.75
578.836	148.75
579.602	139.75
580.368	133.75
581.134	123.75
581.9	119.75
582.666	109.75
583.432	107.75
584.198	99.75
584.964	94.75
585.729	89.75
586.495	85.75
587.26	77.75
588.025	76.75
588.791	71.75
589.556	67.75
590.321	64.75
591.086	62.75
591.851	57.75
592.616	56.75
593.381	51.75
594.146	48.75
594.911	48.75
595.675	48.75
596.44	41.75
597.204	40.75
597.969	39.75
598.733	36.75
599.497	37.75
600.261	31.75
601.025	35.75
601.79	31.75
602.553	28.75
603.317	28.75
604.081	26.75
604.845	25.75
605.609	23.75
606.372	23.75
607.136	22.75
607.899	19.75
608.662	22.75
609.426	20.75
610.189	18.75
610.952	17.75
611.715	17.75
612.478	17.75
613.241	13.75
614.004	16.75
614.767	14.75
615.529	13.75
616.292	13.75
617.055	12.75
617.817	12.75
618.579	11.75
619.342	11.75
620.104	12.75
620.866	10.75
621.628	10.75
622.39	10.75
623.152	7.75
623.914	7.75
624.676	6.75
625.438	7.75
626.199	8.75
626.961	9.75
627.722	6.75
628.484	8.75
629.245	4.75
630.006	4.75
630.768	6.75
631.529	7.75
632.29	5.75
633.051	6.75
633.812	5.75
634.573	5.75
635.333	4.75
636.094	7.75
636.855	3.75
637.615	4.75
638.376	4.75
639.136	7.75
639.896	5.75
640.657	5.75
641.417	4.75
642.177	3.75
642.937	4.75
643.697	3.75
644.457	4.75
645.216	2.75
645.976	2.75
646.736	4.75
647.495	4.75
648.255	7.75
649.014	3.75
649.774	4.75
650.533	2.75
651.292	1.75
652.051	3.75
652.81	1.75
653.569	4.75
654.328	1.75
655.087	3.75
655.846	3.75
656.604	0.75
657.363	2.75
658.121	0.75
658.88	2.75
659.638	0.75
660.397	3.75
661.155	1.75
661.913	1.75
662.671	1.75
663.429	1.75
664.187	4.75
664.945	1.75
665.703	2.75
666.46	2.75
667.218	3.75
667.976	2.75
668.733	1.75
669.49	3.75
670.248	1.75
671.005	1.75
671.762	0.75
672.519	2.75
673.276	3.75
674.033	2.75
674.79	2.75
675.547	1.75
676.304	3.75
677.06	3.75
677.817	2.75
678.574	3.75
679.33	0.75
680.086	2.75
680.843	1.75
681.599	2.75
682.355	3.75
683.111	3.75
683.867	3.75
684.623	-1.25
685.379	1.75
686.135	1.75
686.89	2.75
687.646	2.75
688.402	0.75
689.157	2.75
689.912	-0.25
690.668	2.75
691.423	-0.25
692.178	2.75
692.933	2.75
693.688	0.75
694.443	2.75
695.198	0.75
695.953	3.75
696.708	1.75
697.462	-0.25
698.217	-0.25
698.972	3.75
699.726	1.75
700.48	1.75
701.235	1.75
701.989	4.75
702.743	2.75
703.497	0.75
704.251	-0.25
705.005	2.75
705.759	0.75
706.513	1.75
707.266	3.75
708.02	0.75
708.774	4.75
709.527	2.75
710.28	1.75
711.034	0.75
711.787	0.75
712.54	-0.25
713.293	2.75
714.046	2.75
714.799	0.75
715.552	1.75
716.305	0.75
717.058	2.75
717.81	3.75
718.563	1.75
719.315	2.75
720.068	1.75
720.82	3.75
721.573	2.75
722.325	1.75
723.077	-0.25
723.829	1.75
724.581	3.75
725.333	2.75
726.085	1.75
726.836	2.75
727.588	0.75
728.34	0.75
729.091	1.75
729.843	3.75
730.594	1.75
731.346	0.75
732.097	2.75
732.848	1.75
733.599	1.75
734.35	1.75
735.101	0.75
735.852	3.75
736.603	4.75
737.354	1.75
738.104	1.75
738.855	0.75
739.605	0.75
740.356	3.75
741.106	1.75
741.856	4.75
742.607	2.75
743.357	1.75
744.107	1.75
744.857	1.75
745.607	1.75
746.357	1.75
747.106	0.75
747.856	2.75
748.606	0.75
749.355	2.75
750.105	3.75
750.854	2.75
751.603	1.75
752.353	0.75
753.102	2.75
753.851	1.75
754.6	1.75
755.349	3.75
756.098	2.75
756.847	0.75
757.595	3.75
758.344	2.75
759.093	3.75
759.841	3.75
760.589	2.75
761.338	4.75
762.086	5.75
762.834	3.75
763.582	2.75
764.331	3.75
765.079	5.75
765.826	1.75
766.574	3.75
767.322	2.75
768.07	1.75
768.817	3.75
769.565	1.75
770.312	3.75
771.06	4.75
771.807	2.75
772.554	4.75
773.302	3.75
774.049	3.75
774.796	4.75
775.543	6.75
776.29	5.75
777.036	2.75
777.783	5.75
778.53	3.75
779.276	5.75
780.023	3.75
780.769	5.75
781.516	3.75
782.262	6.75
783.008	4.75
783.754	5.75
784.5	5.75
785.246	4.75
785.992	4.75
786.738	7.75
787.484	5.75
788.23	3.75
788.975	5.75
789.721	3.75
790.466	4.75
791.212	5.75
791.957	4.75
792.702	4.75
793.447	5.75
794.193	6.75
794.938	3.75
795.683	4.75
796.427	4.75
797.172	3.75
797.917	4.75
798.662	5.75
799.406	4.75
800.151	4.75
800.895	3.75
801.64	3.75
802.384	4.75
803.128	2.75
803.872	4.75
804.616	4.75
805.36	5.75
806.104	5.75
806.848	1.75
807.592	3.75
808.336	2.75
809.079	3.75
809.823	3.75
810.566	1.75
811.31	5.75
812.053	1.75
812.796	2.75
813.539	3.75
814.283	0.75
815.026	6.75
815.769	2.75
816.511	3.75
817.254	1.75
817.997	2.75
818.74	2.75
819.482	2.75
820.225	1.75
820.967	3.75
821.71	4.75
822.452	3.75
823.194	2.75
823.936	3.75
824.678	2.75
825.42	1.75
826.162	3.75
826.904	2.75
827.646	1.75
828.388	3.75
829.129	3.75
829.871	1.75
830.612	1.75
831.354	2.75
832.095	2.75
832.836	1.75
833.577	3.75
834.319	1.75
835.06	3.75
835.801	1.75
836.542	2.75
837.282	2.75
838.023	1.75
838.764	2.75
839.504	1.75
840.245	1.75
840.985	2.75
841.726	-1.25
842.466	0.75
843.206	3.75
843.946	1.75
844.687	1.75
845.427	0.75
846.166	1.75
846.906	-0.25
847.646	2.75
848.386	0.75
849.125	3.75
849.865	3.75
850.605	2.75
851.344	2.75
852.083	2.75
852.823	2.75
853.562	0.75
854.301	1.75
855.04	1.75
855.779	-1.25
856.518	0.75
857.257	0.75
857.995	2.75
858.734	1.75
859.473	-0.25
860.211	0.75
860.95	3.75
861.688	1.75
862.426	2.75
863.165	0.75
863.903	0.75
864.641	0.75
865.379	1.75
866.117	2.75
866.855	1.75
867.593	-0.25
868.33	0.75
869.068	3.75
869.806	0.75
870.543	1.75
871.28	-1.25
872.018	1.75
872.755	1.75
873.492	0.75
874.229	1.75
874.967	0.75
875.703	-1.25
876.44	1.75
877.177	-0.25
877.914	0.75
878.651	-1.25
879.387	0.75
880.124	-0.25
880.86	-1.25
881.597	0.75
882.333	-0.25
883.069	-0.25
883.806	-0.25
884.542	-0.25
885.278	0.75
886.014	1.75
886.749	0.75
887.485	-0.25
888.221	2.75
888.957	-1.25
889.692	0.75
890.428	1.75
891.163	0.75
891.899	0.75
892.634	0.75
893.369	-0.25
894.104	1.75
894.839	-0.25
895.574	-0.25
896.309	1.75
897.044	-1.25
897.779	-1.25
898.514	-0.25
899.248	1.75
899.983	1.75
900.717	0.75
901.452	1.75
902.186	-1.25
902.92	0.75
903.654	-0.25
904.389	-1.25
905.123	0.75
905.857	-0.25
906.59	-0.25
907.324	0.75
908.058	-0.25
908.792	0.75
909.525	0.75
910.259	-1.25
910.992	0.75
911.726	0.75
912.459	0.75
913.192	-0.25
913.925	-0.25
914.658	-2.25
915.391	-0.25
916.124	-2.25
916.857	-2.25
917.59	-1.25
918.323	-1.25
919.055	1.75
919.788	-2.25
920.521	-0.25
921.253	1.75
921.985	0.75
922.718	-1.25
923.45	-0.25
924.182	0.75
924.914	1.75
925.646	1.75
926.378	0.75
927.11	-0.25
927.841	0.75
928.573	-0.25
929.305	0.75
930.036	0.75
930.768	-0.25
931.499	-1.25
932.23	-2.25
932.962	0.75
933.693	-2.25
934.424	0.75
935.155	0.75
935.886	-0.25
936.617	-0.25
937.348	0.75
938.078	1.75
938.809	-0.25
939.54	-1.25
940.27	-2.25
941.001	0.75
941.731	0.75
942.461	-1.25
943.191	1.75
943.922	-1.25
944.652	-1.25
945.382	0.75
946.112	-1.25
946.841	-1.25
947.571	-0.25
948.301	0.75
949.031	-0.25
949.76	0.75
950.49	-1.25
951.219	-2.25
951.948	-0.25
952.678	-1.25
953.407	1.75
954.136	1.75
954.865	0.75
955.594	-1.25
956.323	0.75
957.052	2.75
957.78	-0.25
958.509	2.75
959.238	3.75
959.966	-1.25
960.695	-2.25
961.423	-1.25
962.151	3.75
962.88	-2.25
963.608	-1.25
964.336	-0.25
965.064	1.75
965.792	-1.25
966.52	-2.25
967.247	-0.25
967.975	-1.25
968.703	-1.25
969.43	1.75
970.158	0.75
970.885	1.75
971.613	0.75
972.34	1.75
973.067	-1.25
973.794	-0.25
974.521	-0.25
975.248	-0.25
975.975	-1.25
976.702	-0.25
977.429	0.75
978.156	-1.25
978.882	0.75
979.609	0.75
980.335	-0.25
981.062	0.75
981.788	-1.25
982.514	1.75
983.24	0.75
983.967	-1.25
984.693	-1.25
985.419	-1.25
986.144	1.75
986.87	-2.25
987.596	0.75
988.322	-0.25
989.047	1.75
989.773	-1.25
990.498	0.75
991.224	0.75
991.949	-1.25
992.674	-1.25
993.399	-2.25
994.124	-0.25
994.849	-1.25
995.574	0.75
996.299	0.75
997.024	-1.25
997.749	-0.25
998.473	-1.25
999.198	0.75
999.922	-0.25
1000.647	-0.25
1001.371	4.75
1002.095	-0.25
1002.82	-1.25
1003.544	-0.25
1004.268	-1.25
1004.992	-2.25
1005.716	-2.25
1006.439	-0.25
1007.163	0.75
1007.887	-1.25
1008.611	0.75
1009.334	-1.25
1010.058	-0.25
1010.781	-0.25
1011.504	1.75
1012.228	-0.25
1012.951	-1.25
1013.674	-2.25
1014.397	1.75
1015.12	-1.25
