节点500_145_QEPB04081__260__11-33-08-465.txt的数据

Date: Wed Nov 12 11:33:08 CST 2025
User: PC
Spectrometer: QEPB0408
触发模式: 0
积分时间 (秒): 1.000000E-2
Scans to average: 1
启用暗噪声校正: true
启用非线性校正: false
滑动平均宽度: 0
X轴模式: Wavelengths
Number of Pixels in Spectrum: 1044
>>>>>Begin Spectral Data<<<<<
220.843	2.88
221.644	-1.12
222.444	-0.12
223.244	1.88
224.045	0.88
224.845	1.88
225.645	1.88
226.445	2.88
227.245	0.88
228.045	2.88
228.845	1.88
229.645	0.88
230.444	2.88
231.244	-0.12
232.043	0.88
232.843	-0.12
233.642	1.88
234.442	0.88
235.241	-0.12
236.04	3.88
236.839	1.88
237.638	1.88
238.437	1.88
239.236	2.88
240.035	2.88
240.833	-0.12
241.632	-0.12
242.43	0.88
243.229	2.88
244.027	4.88
244.826	1.88
245.624	3.88
246.422	1.88
247.22	2.88
248.018	3.88
248.816	0.88
249.614	4.88
250.412	3.88
251.21	5.88
252.007	3.88
252.805	3.88
253.602	3.88
254.4	1.88
255.197	3.88
255.994	2.88
256.791	5.88
257.589	4.88
258.386	4.88
259.183	4.88
259.979	5.88
260.776	4.88
261.573	7.88
262.37	6.88
263.166	5.88
263.963	6.88
264.759	4.88
265.556	7.88
266.352	5.88
267.148	6.88
267.944	5.88
268.74	7.88
269.536	7.88
270.332	6.88
271.128	7.88
271.924	8.88
272.719	10.88
273.515	7.88
274.311	7.88
275.106	11.88
275.901	10.88
276.697	7.88
277.492	8.88
278.287	10.88
279.082	10.88
279.877	11.88
280.672	11.88
281.467	11.88
282.262	10.88
283.056	10.88
283.851	9.88
284.646	11.88
285.44	10.88
286.234	11.88
287.029	11.88
287.823	9.88
288.617	12.88
289.411	11.88
290.205	11.88
290.999	12.88
291.793	8.88
292.587	10.88
293.381	10.88
294.174	9.88
294.968	10.88
295.761	8.88
296.555	10.88
297.348	10.88
298.141	10.88
298.935	8.88
299.728	10.88
300.521	9.88
301.314	9.88
302.107	8.88
302.899	6.88
303.692	8.88
304.485	7.88
305.277	9.88
306.07	11.88
306.862	9.88
307.655	6.88
308.447	7.88
309.239	9.88
310.031	7.88
310.823	10.88
311.615	6.88
312.407	5.88
313.199	6.88
313.991	5.88
314.783	4.88
315.574	4.88
316.366	5.88
317.157	6.88
317.949	5.88
318.74	4.88
319.531	4.88
320.322	5.88
321.113	5.88
321.904	4.88
322.695	6.88
323.486	4.88
324.277	4.88
325.068	3.88
325.858	5.88
326.649	5.88
327.439	4.88
328.23	5.88
329.02	4.88
329.81	5.88
330.6	3.88
331.391	5.88
332.181	2.88
332.971	4.88
333.76	3.88
334.55	3.88
335.34	2.88
336.13	2.88
336.919	5.88
337.709	2.88
338.498	3.88
339.287	4.88
340.077	2.88
340.866	7.88
341.655	3.88
342.444	3.88
343.233	3.88
344.022	3.88
344.811	3.88
345.6	3.88
346.388	3.88
347.177	0.88
347.965	3.88
348.754	5.88
349.542	1.88
350.33	3.88
351.119	2.88
351.907	5.88
352.695	1.88
353.483	3.88
354.271	2.88
355.059	1.88
355.846	4.88
356.634	3.88
357.422	2.88
358.209	1.88
358.997	2.88
359.784	2.88
360.571	1.88
361.359	3.88
362.146	1.88
362.933	3.88
363.72	4.88
364.507	3.88
365.294	3.88
366.081	3.88
366.867	1.88
367.654	1.88
368.44	2.88
369.227	1.88
370.013	2.88
370.8	2.88
371.586	5.88
372.372	5.88
373.158	4.88
373.944	3.88
374.73	2.88
375.516	3.88
376.302	1.88
377.088	3.88
377.873	4.88
378.659	1.88
379.445	1.88
380.23	3.88
381.015	3.88
381.801	2.88
382.586	3.88
383.371	2.88
384.156	2.88
384.941	5.88
385.726	5.88
386.511	2.88
387.296	5.88
388.08	0.88
388.865	2.88
389.649	1.88
390.434	4.88
391.218	2.88
392.003	3.88
392.787	5.88
393.571	1.88
394.355	6.88
395.139	2.88
395.923	3.88
396.707	3.88
397.491	4.88
398.274	4.88
399.058	3.88
399.842	6.88
400.625	4.88
401.408	2.88
402.192	4.88
402.975	2.88
403.758	5.88
404.541	4.88
405.324	6.88
406.107	3.88
406.89	3.88
407.673	2.88
408.456	3.88
409.238	4.88
410.021	5.88
410.803	4.88
411.586	6.88
412.368	8.88
413.151	3.88
413.933	2.88
414.715	6.88
415.497	5.88
416.279	5.88
417.061	5.88
417.843	7.88
418.624	5.88
419.406	4.88
420.188	6.88
420.969	5.88
421.751	6.88
422.532	6.88
423.313	6.88
424.095	5.88
424.876	5.88
425.657	8.88
426.438	5.88
427.219	8.88
428	8.88
428.78	7.88
429.561	7.88
430.342	7.88
431.122	6.88
431.903	7.88
432.683	10.88
433.464	6.88
434.244	9.88
435.024	9.88
435.804	7.88
436.584	8.88
437.364	9.88
438.144	10.88
438.924	12.88
439.704	12.88
440.483	12.88
441.263	15.88
442.042	12.88
442.822	12.88
443.601	15.88
444.38	13.88
445.16	15.88
445.939	14.88
446.718	20.88
447.497	17.88
448.276	18.88
449.054	21.88
449.833	24.88
450.612	25.88
451.391	24.88
452.169	29.88
452.948	32.88
453.726	33.88
454.504	39.88
455.282	42.88
456.061	42.88
456.839	50.88
457.617	54.88
458.395	59.88
459.172	66.88
459.95	73.88
460.728	85.88
461.506	89.88
462.283	101.88
463.061	112.88
463.838	128.88
464.615	143.88
465.393	155.88
466.17	167.88
466.947	185.88
467.724	214.88
468.501	244.88
469.278	265.88
470.055	299.88
470.831	326.88
471.608	364.88
472.385	407.88
473.161	456.88
473.938	508.88
474.714	570.88
475.49	619.88
476.266	689.88
477.043	769.88
477.819	840.88
478.595	937.88
479.371	1038.88
480.146	1153.88
480.922	1270.88
481.698	1390.88
482.473	1561.88
483.249	1703.88
484.024	1874.88
484.8	2076.88
485.575	2294.88
486.35	2541.88
487.126	2786.88
487.901	3056.88
488.676	3373.88
489.451	3724.88
490.225	4103.88
491	4510.88
491.775	4924.88
492.55	5426.88
493.324	5939.88
494.099	6517.88
494.873	7068.88
495.647	7717.88
496.422	8428.88
497.196	9074.88
497.97	9824.88
498.744	10583.88
499.518	11346.88
500.292	12021.88
501.066	12808.88
501.839	13486.88
502.613	14200.88
503.387	14787.88
504.16	15365.88
504.934	15844.88
505.707	16127.88
506.48	16391.88
507.253	16552.88
508.027	16654.88
508.8	16521.88
509.573	16380.88
510.346	16129.88
511.118	15774.88
511.891	15391.88
512.664	14921.88
513.437	14367.88
514.209	13827.88
514.982	13257.88
515.754	12712.88
516.526	12148.88
517.298	11625.88
518.071	11134.88
518.843	10621.88
519.615	10109.88
520.387	9731.88
521.159	9345.88
521.93	8947.88
522.702	8593.88
523.474	8301.88
524.245	7955.88
525.017	7649.88
525.788	7323.88
526.56	7042.88
527.331	6745.88
528.102	6452.88
528.873	6130.88
529.644	5893.88
530.415	5607.88
531.186	5293.88
531.957	5076.88
532.728	4799.88
533.498	4566.88
534.269	4281.88
535.039	4044.88
535.81	3839.88
536.58	3620.88
537.351	3421.88
538.121	3238.88
538.891	3054.88
539.661	2874.88
540.431	2733.88
541.201	2599.88
541.971	2454.88
542.741	2338.88
543.51	2204.88
544.28	2084.88
545.05	1991.88
545.819	1882.88
546.588	1796.88
547.358	1698.88
548.127	1610.88
548.896	1526.88
549.665	1461.88
550.434	1391.88
551.203	1331.88
551.972	1253.88
552.741	1179.88
553.51	1110.88
554.278	1056.88
555.047	994.88
555.815	951.88
556.584	893.88
557.352	835.88
558.121	791.88
558.889	725.88
559.657	696.88
560.425	668.88
561.193	628.88
561.961	581.88
562.729	553.88
563.496	519.88
564.264	494.88
565.032	459.88
565.799	438.88
566.567	422.88
567.334	387.88
568.101	372.88
568.869	350.88
569.636	324.88
570.403	313.88
571.17	290.88
571.937	275.88
572.704	264.88
573.471	246.88
574.237	234.88
575.004	221.88
575.771	206.88
576.537	189.88
577.303	184.88
578.07	171.88
578.836	163.88
579.602	158.88
580.368	138.88
581.134	137.88
581.9	131.88
582.666	121.88
583.432	117.88
584.198	110.88
584.964	105.88
585.729	101.88
586.495	93.88
587.26	86.88
588.025	85.88
588.791	73.88
589.556	70.88
590.321	68.88
591.086	67.88
591.851	63.88
592.616	59.88
593.381	56.88
594.146	53.88
594.911	50.88
595.675	48.88
596.44	49.88
597.204	46.88
597.969	42.88
598.733	37.88
599.497	38.88
600.261	35.88
601.025	35.88
601.79	34.88
602.553	33.88
603.317	30.88
604.081	28.88
604.845	29.88
605.609	26.88
606.372	24.88
607.136	27.88
607.899	24.88
608.662	22.88
609.426	21.88
610.189	22.88
610.952	22.88
611.715	19.88
612.478	18.88
613.241	16.88
614.004	18.88
614.767	16.88
615.529	16.88
616.292	14.88
617.055	14.88
617.817	14.88
618.579	14.88
619.342	13.88
620.104	11.88
620.866	13.88
621.628	12.88
622.39	10.88
623.152	11.88
623.914	11.88
624.676	11.88
625.438	9.88
626.199	8.88
626.961	9.88
627.722	11.88
628.484	7.88
629.245	7.88
630.006	9.88
630.768	7.88
631.529	7.88
632.29	8.88
633.051	5.88
633.812	6.88
634.573	5.88
635.333	5.88
636.094	4.88
636.855	8.88
637.615	7.88
638.376	5.88
639.136	7.88
639.896	7.88
640.657	9.88
641.417	6.88
642.177	5.88
642.937	6.88
643.697	3.88
644.457	7.88
645.216	7.88
645.976	4.88
646.736	4.88
647.495	4.88
648.255	7.88
649.014	5.88
649.774	3.88
650.533	5.88
651.292	5.88
652.051	3.88
652.81	1.88
653.569	5.88
654.328	5.88
655.087	5.88
655.846	1.88
656.604	3.88
657.363	4.88
658.121	2.88
658.88	4.88
659.638	2.88
660.397	3.88
661.155	3.88
661.913	2.88
662.671	1.88
663.429	3.88
664.187	3.88
664.945	3.88
665.703	3.88
666.46	2.88
667.218	2.88
667.976	3.88
668.733	1.88
669.49	4.88
670.248	1.88
671.005	4.88
671.762	0.88
672.519	3.88
673.276	3.88
674.033	3.88
674.79	2.88
675.547	3.88
676.304	1.88
677.06	2.88
677.817	4.88
678.574	3.88
679.33	1.88
680.086	3.88
680.843	1.88
681.599	2.88
682.355	3.88
683.111	3.88
683.867	0.88
684.623	1.88
685.379	3.88
686.135	1.88
686.89	3.88
687.646	2.88
688.402	0.88
689.157	3.88
689.912	2.88
690.668	2.88
691.423	0.88
692.178	1.88
692.933	4.88
693.688	1.88
694.443	4.88
695.198	0.88
695.953	4.88
696.708	1.88
697.462	2.88
698.217	3.88
698.972	4.88
699.726	3.88
700.48	3.88
701.235	2.88
701.989	2.88
702.743	2.88
703.497	2.88
704.251	2.88
705.005	1.88
705.759	2.88
706.513	2.88
707.266	2.88
708.02	3.88
708.774	2.88
709.527	1.88
710.28	2.88
711.034	1.88
711.787	2.88
712.54	0.88
713.293	1.88
714.046	2.88
714.799	3.88
715.552	0.88
716.305	0.88
717.058	2.88
717.81	2.88
718.563	2.88
719.315	1.88
720.068	3.88
720.82	2.88
721.573	1.88
722.325	1.88
723.077	0.88
723.829	2.88
724.581	0.88
725.333	3.88
726.085	3.88
726.836	0.88
727.588	2.88
728.34	2.88
729.091	1.88
729.843	3.88
730.594	3.88
731.346	3.88
732.097	2.88
732.848	4.88
733.599	1.88
734.35	3.88
735.101	4.88
735.852	3.88
736.603	1.88
737.354	1.88
738.104	3.88
738.855	3.88
739.605	2.88
740.356	2.88
741.106	1.88
741.856	5.88
742.607	1.88
743.357	4.88
744.107	3.88
744.857	3.88
745.607	2.88
746.357	2.88
747.106	1.88
747.856	1.88
748.606	4.88
749.355	2.88
750.105	1.88
750.854	4.88
751.603	1.88
752.353	2.88
753.102	1.88
753.851	2.88
754.6	2.88
755.349	4.88
756.098	3.88
756.847	0.88
757.595	1.88
758.344	3.88
759.093	4.88
759.841	2.88
760.589	3.88
761.338	5.88
762.086	4.88
762.834	3.88
763.582	1.88
764.331	3.88
765.079	2.88
765.826	4.88
766.574	3.88
767.322	4.88
768.07	4.88
768.817	4.88
769.565	4.88
770.312	5.88
771.06	3.88
771.807	6.88
772.554	3.88
773.302	4.88
774.049	4.88
774.796	5.88
775.543	4.88
776.29	6.88
777.036	5.88
777.783	5.88
778.53	7.88
779.276	5.88
780.023	4.88
780.769	4.88
781.516	3.88
782.262	4.88
783.008	2.88
783.754	3.88
784.5	5.88
785.246	4.88
785.992	4.88
786.738	7.88
787.484	7.88
788.23	4.88
788.975	4.88
789.721	6.88
790.466	2.88
791.212	6.88
791.957	5.88
792.702	4.88
793.447	5.88
794.193	4.88
794.938	3.88
795.683	7.88
796.427	5.88
797.172	2.88
797.917	7.88
798.662	5.88
799.406	6.88
800.151	2.88
800.895	3.88
801.64	4.88
802.384	3.88
803.128	4.88
803.872	6.88
804.616	5.88
805.36	4.88
806.104	4.88
806.848	4.88
807.592	4.88
808.336	4.88
809.079	3.88
809.823	5.88
810.566	6.88
811.31	2.88
812.053	5.88
812.796	2.88
813.539	7.88
814.283	3.88
815.026	2.88
815.769	3.88
816.511	4.88
817.254	6.88
817.997	4.88
818.74	4.88
819.482	2.88
820.225	2.88
820.967	3.88
821.71	2.88
822.452	2.88
823.194	5.88
823.936	5.88
824.678	3.88
825.42	4.88
826.162	0.88
826.904	3.88
827.646	0.88
828.388	2.88
829.129	2.88
829.871	1.88
830.612	2.88
831.354	2.88
832.095	3.88
832.836	2.88
833.577	1.88
834.319	5.88
835.06	2.88
835.801	1.88
836.542	3.88
837.282	2.88
838.023	4.88
838.764	3.88
839.504	2.88
840.245	3.88
840.985	4.88
841.726	2.88
842.466	1.88
843.206	2.88
843.946	1.88
844.687	2.88
845.427	-0.12
846.166	2.88
846.906	2.88
847.646	3.88
848.386	2.88
849.125	3.88
849.865	1.88
850.605	3.88
851.344	2.88
852.083	2.88
852.823	1.88
853.562	1.88
854.301	2.88
855.04	2.88
855.779	3.88
856.518	0.88
857.257	0.88
857.995	1.88
858.734	3.88
859.473	0.88
860.211	-0.12
860.95	0.88
861.688	2.88
862.426	0.88
863.165	-0.12
863.903	2.88
864.641	-0.12
865.379	-0.12
866.117	0.88
866.855	1.88
867.593	1.88
868.33	2.88
869.068	2.88
869.806	2.88
870.543	1.88
871.28	0.88
872.018	1.88
872.755	1.88
873.492	1.88
874.229	3.88
874.967	2.88
875.703	3.88
876.44	2.88
877.177	0.88
877.914	0.88
878.651	1.88
879.387	1.88
880.124	-1.12
880.86	2.88
881.597	2.88
882.333	-0.12
883.069	1.88
883.806	0.88
884.542	1.88
885.278	1.88
886.014	2.88
886.749	2.88
887.485	1.88
888.221	1.88
888.957	0.88
889.692	0.88
890.428	1.88
891.163	1.88
891.899	1.88
892.634	-0.12
893.369	0.88
894.104	0.88
894.839	1.88
895.574	2.88
896.309	0.88
897.044	-0.12
897.779	1.88
898.514	3.88
899.248	1.88
899.983	2.88
900.717	-1.12
901.452	2.88
902.186	2.88
902.92	-1.12
903.654	0.88
904.389	0.88
905.123	1.88
905.857	1.88
906.59	-1.12
907.324	2.88
908.058	-1.12
908.792	1.88
909.525	0.88
910.259	1.88
910.992	0.88
911.726	-1.12
912.459	1.88
913.192	2.88
913.925	0.88
914.658	-0.12
915.391	-1.12
916.124	0.88
916.857	0.88
917.59	0.88
918.323	2.88
919.055	0.88
919.788	0.88
920.521	-0.12
921.253	0.88
921.985	1.88
922.718	0.88
923.45	-0.12
924.182	2.88
924.914	-0.12
925.646	0.88
926.378	-0.12
927.11	-0.12
927.841	1.88
928.573	0.88
929.305	1.88
930.036	0.88
930.768	0.88
931.499	1.88
932.23	-0.12
932.962	0.88
933.693	-1.12
934.424	1.88
935.155	0.88
935.886	-0.12
936.617	1.88
937.348	-1.12
938.078	0.88
938.809	-0.12
939.54	-0.12
940.27	1.88
941.001	-1.12
941.731	0.88
942.461	0.88
943.191	2.88
943.922	2.88
944.652	2.88
945.382	0.88
946.112	0.88
946.841	-0.12
947.571	-0.12
948.301	-0.12
949.031	0.88
949.76	1.88
950.49	0.88
951.219	-0.12
951.948	-0.12
952.678	0.88
953.407	2.88
954.136	0.88
954.865	1.88
955.594	0.88
956.323	0.88
957.052	1.88
957.78	-1.12
958.509	0.88
959.238	-0.12
959.966	-1.12
960.695	1.88
961.423	-1.12
962.151	1.88
962.88	-1.12
963.608	0.88
964.336	2.88
965.064	2.88
965.792	0.88
966.52	-1.12
967.247	-0.12
967.975	1.88
968.703	2.88
969.43	1.88
970.158	1.88
970.885	-1.12
971.613	2.88
972.34	1.88
973.067	-0.12
973.794	-0.12
974.521	0.88
975.248	-1.12
975.975	1.88
976.702	2.88
977.429	1.88
978.156	0.88
978.882	1.88
979.609	1.88
980.335	-0.12
981.062	1.88
981.788	-1.12
982.514	0.88
983.24	-0.12
983.967	0.88
984.693	2.88
985.419	-0.12
986.144	0.88
986.87	1.88
987.596	1.88
988.322	-0.12
989.047	-1.12
989.773	0.88
990.498	1.88
991.224	3.88
991.949	-2.12
992.674	0.88
993.399	-1.12
994.124	0.88
994.849	0.88
995.574	-1.12
996.299	1.88
997.024	0.88
997.749	1.88
998.473	1.88
999.198	1.88
999.922	2.88
1000.647	-0.12
1001.371	1.88
1002.095	-0.12
1002.82	-1.12
1003.544	-1.12
1004.268	-1.12
1004.992	-1.12
1005.716	-2.12
1006.439	-1.12
1007.163	1.88
1007.887	0.88
1008.611	0.88
1009.334	-0.12
1010.058	2.88
1010.781	2.88
1011.504	1.88
1012.228	0.88
1012.951	0.88
1013.674	0.88
1014.397	-1.12
1015.12	-0.12
