节点500_145_QEPB04081__381__11-35-02-612.txt的数据

Date: Wed Nov 12 11:35:02 CST 2025
User: PC
Spectrometer: QEPB0408
触发模式: 0
积分时间 (秒): 1.000000E-2
Scans to average: 1
启用暗噪声校正: true
启用非线性校正: false
滑动平均宽度: 0
X轴模式: Wavelengths
Number of Pixels in Spectrum: 1044
>>>>>Begin Spectral Data<<<<<
220.843	-0.38
221.644	-2.38
222.444	-1.38
223.244	-0.38
224.045	0.62
224.845	1.62
225.645	0.62
226.445	1.62
227.245	-1.38
228.045	1.62
228.845	0.62
229.645	0.62
230.444	1.62
231.244	0.62
232.043	0.62
232.843	-1.38
233.642	1.62
234.442	2.62
235.241	3.62
236.04	0.62
236.839	0.62
237.638	2.62
238.437	1.62
239.236	2.62
240.035	0.62
240.833	0.62
241.632	2.62
242.43	1.62
243.229	3.62
244.027	1.62
244.826	1.62
245.624	1.62
246.422	0.62
247.22	2.62
248.018	2.62
248.816	1.62
249.614	0.62
250.412	2.62
251.21	4.62
252.007	3.62
252.805	2.62
253.602	2.62
254.4	3.62
255.197	3.62
255.994	4.62
256.791	1.62
257.589	6.62
258.386	2.62
259.183	1.62
259.979	5.62
260.776	4.62
261.573	5.62
262.37	5.62
263.166	5.62
263.963	3.62
264.759	5.62
265.556	4.62
266.352	5.62
267.148	5.62
267.944	2.62
268.74	6.62
269.536	5.62
270.332	5.62
271.128	9.62
271.924	8.62
272.719	8.62
273.515	7.62
274.311	8.62
275.106	9.62
275.901	7.62
276.697	8.62
277.492	8.62
278.287	9.62
279.082	9.62
279.877	10.62
280.672	9.62
281.467	8.62
282.262	8.62
283.056	10.62
283.851	8.62
284.646	13.62
285.44	10.62
286.234	9.62
287.029	8.62
287.823	12.62
288.617	9.62
289.411	11.62
290.205	10.62
290.999	11.62
291.793	11.62
292.587	9.62
293.381	9.62
294.174	8.62
294.968	8.62
295.761	9.62
296.555	9.62
297.348	8.62
298.141	9.62
298.935	10.62
299.728	11.62
300.521	9.62
301.314	10.62
302.107	9.62
302.899	11.62
303.692	10.62
304.485	9.62
305.277	6.62
306.07	5.62
306.862	8.62
307.655	4.62
308.447	8.62
309.239	6.62
310.031	5.62
310.823	7.62
311.615	5.62
312.407	7.62
313.199	5.62
313.991	9.62
314.783	5.62
315.574	7.62
316.366	7.62
317.157	6.62
317.949	7.62
318.74	5.62
319.531	4.62
320.322	4.62
321.113	7.62
321.904	5.62
322.695	3.62
323.486	5.62
324.277	6.62
325.068	5.62
325.858	2.62
326.649	2.62
327.439	5.62
328.23	3.62
329.02	5.62
329.81	3.62
330.6	6.62
331.391	2.62
332.181	3.62
332.971	4.62
333.76	3.62
334.55	5.62
335.34	5.62
336.13	2.62
336.919	3.62
337.709	4.62
338.498	3.62
339.287	2.62
340.077	2.62
340.866	3.62
341.655	4.62
342.444	5.62
343.233	3.62
344.022	4.62
344.811	4.62
345.6	4.62
346.388	3.62
347.177	6.62
347.965	3.62
348.754	1.62
349.542	4.62
350.33	2.62
351.119	4.62
351.907	2.62
352.695	3.62
353.483	5.62
354.271	2.62
355.059	3.62
355.846	1.62
356.634	3.62
357.422	3.62
358.209	4.62
358.997	2.62
359.784	3.62
360.571	3.62
361.359	0.62
362.146	4.62
362.933	3.62
363.72	4.62
364.507	1.62
365.294	2.62
366.081	2.62
366.867	2.62
367.654	2.62
368.44	2.62
369.227	2.62
370.013	3.62
370.8	1.62
371.586	3.62
372.372	3.62
373.158	2.62
373.944	2.62
374.73	4.62
375.516	1.62
376.302	2.62
377.088	2.62
377.873	1.62
378.659	1.62
379.445	0.62
380.23	2.62
381.015	1.62
381.801	1.62
382.586	2.62
383.371	0.62
384.156	3.62
384.941	5.62
385.726	3.62
386.511	2.62
387.296	3.62
388.08	1.62
388.865	2.62
389.649	3.62
390.434	4.62
391.218	2.62
392.003	3.62
392.787	2.62
393.571	3.62
394.355	4.62
395.139	3.62
395.923	2.62
396.707	1.62
397.491	4.62
398.274	2.62
399.058	4.62
399.842	1.62
400.625	4.62
401.408	5.62
402.192	3.62
402.975	5.62
403.758	0.62
404.541	4.62
405.324	1.62
406.107	5.62
406.89	5.62
407.673	4.62
408.456	4.62
409.238	3.62
410.021	5.62
410.803	2.62
411.586	5.62
412.368	4.62
413.151	6.62
413.933	4.62
414.715	4.62
415.497	8.62
416.279	2.62
417.061	4.62
417.843	7.62
418.624	6.62
419.406	6.62
420.188	5.62
420.969	6.62
421.751	5.62
422.532	5.62
423.313	5.62
424.095	4.62
424.876	5.62
425.657	7.62
426.438	5.62
427.219	8.62
428	7.62
428.78	6.62
429.561	7.62
430.342	8.62
431.122	5.62
431.903	7.62
432.683	6.62
433.464	7.62
434.244	6.62
435.024	6.62
435.804	10.62
436.584	8.62
437.364	12.62
438.144	10.62
438.924	12.62
439.704	13.62
440.483	11.62
441.263	13.62
442.042	12.62
442.822	15.62
443.601	13.62
444.38	16.62
445.16	15.62
445.939	18.62
446.718	17.62
447.497	17.62
448.276	20.62
449.054	20.62
449.833	27.62
450.612	26.62
451.391	27.62
452.169	28.62
452.948	32.62
453.726	36.62
454.504	37.62
455.282	39.62
456.061	49.62
456.839	51.62
457.617	54.62
458.395	60.62
459.172	68.62
459.95	76.62
460.728	83.62
461.506	98.62
462.283	108.62
463.061	114.62
463.838	126.62
464.615	150.62
465.393	160.62
466.17	175.62
466.947	200.62
467.724	224.62
468.501	243.62
469.278	273.62
470.055	299.62
470.831	341.62
471.608	383.62
472.385	422.62
473.161	479.62
473.938	519.62
474.714	573.62
475.49	628.62
476.266	697.62
477.043	782.62
477.819	862.62
478.595	952.62
479.371	1049.62
480.146	1154.62
480.922	1266.62
481.698	1388.62
482.473	1539.62
483.249	1705.62
484.024	1841.62
484.8	2038.62
485.575	2243.62
486.35	2488.62
487.126	2737.62
487.901	2981.62
488.676	3299.62
489.451	3619.62
490.225	3965.62
491	4335.62
491.775	4750.62
492.55	5218.62
493.324	5678.62
494.099	6224.62
494.873	6785.62
495.647	7378.62
496.422	8034.62
497.196	8684.62
497.97	9344.62
498.744	10063.62
499.518	10769.62
500.292	11504.62
501.066	12247.62
501.839	12855.62
502.613	13502.62
503.387	14141.62
504.16	14683.62
504.934	15138.62
505.707	15547.62
506.48	15814.62
507.253	16018.62
508.027	16156.62
508.8	16137.62
509.573	16038.62
510.346	15806.62
511.118	15576.62
511.891	15246.62
512.664	14744.62
513.437	14293.62
514.209	13795.62
514.982	13317.62
515.754	12736.62
516.526	12247.62
517.298	11711.62
518.071	11122.62
518.843	10705.62
519.615	10272.62
520.387	9813.62
521.159	9433.62
521.93	9024.62
522.702	8649.62
523.474	8366.62
524.245	8025.62
525.017	7690.62
525.788	7397.62
526.56	7116.62
527.331	6801.62
528.102	6502.62
528.873	6239.62
529.644	5947.62
530.415	5667.62
531.186	5378.62
531.957	5131.62
532.728	4900.62
533.498	4595.62
534.269	4379.62
535.039	4157.62
535.81	3925.62
536.58	3707.62
537.351	3504.62
538.121	3329.62
538.891	3152.62
539.661	2959.62
540.431	2775.62
541.201	2639.62
541.971	2511.62
542.741	2384.62
543.51	2234.62
544.28	2150.62
545.05	2037.62
545.819	1917.62
546.588	1834.62
547.358	1748.62
548.127	1653.62
548.896	1579.62
549.665	1489.62
550.434	1428.62
551.203	1332.62
551.972	1282.62
552.741	1203.62
553.51	1144.62
554.278	1095.62
555.047	1028.62
555.815	963.62
556.584	919.62
557.352	864.62
558.121	812.62
558.889	772.62
559.657	723.62
560.425	677.62
561.193	642.62
561.961	615.62
562.729	578.62
563.496	532.62
564.264	509.62
565.032	487.62
565.799	459.62
566.567	436.62
567.334	401.62
568.101	384.62
568.869	366.62
569.636	343.62
570.403	322.62
571.17	303.62
571.937	287.62
572.704	267.62
573.471	254.62
574.237	234.62
575.004	229.62
575.771	216.62
576.537	201.62
577.303	183.62
578.07	179.62
578.836	167.62
579.602	156.62
580.368	153.62
581.134	141.62
581.9	141.62
582.666	125.62
583.432	120.62
584.198	115.62
584.964	104.62
585.729	96.62
586.495	95.62
587.26	91.62
588.025	86.62
588.791	83.62
589.556	80.62
590.321	73.62
591.086	70.62
591.851	65.62
592.616	63.62
593.381	57.62
594.146	58.62
594.911	55.62
595.675	49.62
596.44	49.62
597.204	43.62
597.969	46.62
598.733	41.62
599.497	39.62
600.261	39.62
601.025	35.62
601.79	33.62
602.553	32.62
603.317	31.62
604.081	29.62
604.845	29.62
605.609	29.62
606.372	27.62
607.136	28.62
607.899	26.62
608.662	24.62
609.426	21.62
610.189	21.62
610.952	22.62
611.715	23.62
612.478	19.62
613.241	19.62
614.004	17.62
614.767	18.62
615.529	16.62
616.292	14.62
617.055	18.62
617.817	15.62
618.579	14.62
619.342	14.62
620.104	12.62
620.866	10.62
621.628	12.62
622.39	12.62
623.152	11.62
623.914	11.62
624.676	6.62
625.438	12.62
626.199	10.62
626.961	9.62
627.722	8.62
628.484	7.62
629.245	9.62
630.006	7.62
630.768	7.62
631.529	8.62
632.29	7.62
633.051	7.62
633.812	7.62
634.573	8.62
635.333	7.62
636.094	7.62
636.855	9.62
637.615	7.62
638.376	8.62
639.136	4.62
639.896	6.62
640.657	4.62
641.417	7.62
642.177	5.62
642.937	2.62
643.697	6.62
644.457	4.62
645.216	2.62
645.976	5.62
646.736	6.62
647.495	4.62
648.255	5.62
649.014	7.62
649.774	5.62
650.533	5.62
651.292	3.62
652.051	4.62
652.81	5.62
653.569	3.62
654.328	3.62
655.087	3.62
655.846	5.62
656.604	1.62
657.363	2.62
658.121	4.62
658.88	3.62
659.638	4.62
660.397	4.62
661.155	4.62
661.913	1.62
662.671	4.62
663.429	3.62
664.187	2.62
664.945	3.62
665.703	2.62
666.46	2.62
667.218	2.62
667.976	3.62
668.733	1.62
669.49	2.62
670.248	2.62
671.005	2.62
671.762	0.62
672.519	1.62
673.276	2.62
674.033	4.62
674.79	2.62
675.547	4.62
676.304	3.62
677.06	4.62
677.817	0.62
678.574	2.62
679.33	3.62
680.086	1.62
680.843	3.62
681.599	0.62
682.355	3.62
683.111	3.62
683.867	4.62
684.623	1.62
685.379	2.62
686.135	-0.38
686.89	1.62
687.646	2.62
688.402	1.62
689.157	2.62
689.912	2.62
690.668	0.62
691.423	2.62
692.178	2.62
692.933	3.62
693.688	1.62
694.443	2.62
695.198	2.62
695.953	1.62
696.708	3.62
697.462	2.62
698.217	1.62
698.972	1.62
699.726	5.62
700.48	2.62
701.235	0.62
701.989	0.62
702.743	-0.38
703.497	1.62
704.251	1.62
705.005	1.62
705.759	1.62
706.513	2.62
707.266	2.62
708.02	-0.38
708.774	2.62
709.527	0.62
710.28	3.62
711.034	1.62
711.787	1.62
712.54	1.62
713.293	2.62
714.046	1.62
714.799	1.62
715.552	2.62
716.305	3.62
717.058	1.62
717.81	1.62
718.563	1.62
719.315	-0.38
720.068	1.62
720.82	0.62
721.573	0.62
722.325	0.62
723.077	1.62
723.829	2.62
724.581	2.62
725.333	2.62
726.085	3.62
726.836	2.62
727.588	2.62
728.34	3.62
729.091	0.62
729.843	2.62
730.594	1.62
731.346	3.62
732.097	4.62
732.848	1.62
733.599	1.62
734.35	2.62
735.101	3.62
735.852	3.62
736.603	1.62
737.354	6.62
738.104	1.62
738.855	1.62
739.605	1.62
740.356	2.62
741.106	2.62
741.856	5.62
742.607	2.62
743.357	3.62
744.107	1.62
744.857	4.62
745.607	0.62
746.357	1.62
747.106	4.62
747.856	5.62
748.606	1.62
749.355	2.62
750.105	3.62
750.854	3.62
751.603	1.62
752.353	5.62
753.102	4.62
753.851	1.62
754.6	2.62
755.349	3.62
756.098	3.62
756.847	2.62
757.595	4.62
758.344	5.62
759.093	3.62
759.841	3.62
760.589	3.62
761.338	2.62
762.086	2.62
762.834	2.62
763.582	3.62
764.331	3.62
765.079	3.62
765.826	2.62
766.574	5.62
767.322	3.62
768.07	2.62
768.817	2.62
769.565	2.62
770.312	5.62
771.06	7.62
771.807	5.62
772.554	4.62
773.302	5.62
774.049	3.62
774.796	4.62
775.543	3.62
776.29	3.62
777.036	2.62
777.783	4.62
778.53	5.62
779.276	4.62
780.023	6.62
780.769	6.62
781.516	2.62
782.262	4.62
783.008	5.62
783.754	5.62
784.5	5.62
785.246	6.62
785.992	5.62
786.738	5.62
787.484	5.62
788.23	6.62
788.975	6.62
789.721	7.62
790.466	5.62
791.212	5.62
791.957	1.62
792.702	7.62
793.447	6.62
794.193	3.62
794.938	6.62
795.683	4.62
796.427	5.62
797.172	6.62
797.917	4.62
798.662	4.62
799.406	3.62
800.151	5.62
800.895	5.62
801.64	4.62
802.384	5.62
803.128	5.62
803.872	5.62
804.616	7.62
805.36	3.62
806.104	3.62
806.848	5.62
807.592	2.62
808.336	5.62
809.079	5.62
809.823	5.62
810.566	3.62
811.31	3.62
812.053	1.62
812.796	3.62
813.539	2.62
814.283	5.62
815.026	6.62
815.769	4.62
816.511	4.62
817.254	3.62
817.997	3.62
818.74	6.62
819.482	2.62
820.225	2.62
820.967	1.62
821.71	4.62
822.452	4.62
823.194	4.62
823.936	2.62
824.678	4.62
825.42	1.62
826.162	3.62
826.904	2.62
827.646	2.62
828.388	3.62
829.129	2.62
829.871	3.62
830.612	2.62
831.354	4.62
832.095	1.62
832.836	5.62
833.577	-0.38
834.319	3.62
835.06	3.62
835.801	3.62
836.542	4.62
837.282	3.62
838.023	5.62
838.764	2.62
839.504	1.62
840.245	3.62
840.985	1.62
841.726	3.62
842.466	0.62
843.206	2.62
843.946	1.62
844.687	1.62
845.427	2.62
846.166	0.62
846.906	1.62
847.646	1.62
848.386	2.62
849.125	2.62
849.865	1.62
850.605	3.62
851.344	1.62
852.083	4.62
852.823	0.62
853.562	2.62
854.301	2.62
855.04	0.62
855.779	3.62
856.518	1.62
857.257	3.62
857.995	1.62
858.734	3.62
859.473	1.62
860.211	2.62
860.95	1.62
861.688	1.62
862.426	3.62
863.165	0.62
863.903	3.62
864.641	1.62
865.379	2.62
866.117	3.62
866.855	-0.38
867.593	1.62
868.33	1.62
869.068	3.62
869.806	1.62
870.543	0.62
871.28	1.62
872.018	0.62
872.755	-0.38
873.492	1.62
874.229	1.62
874.967	2.62
875.703	1.62
876.44	2.62
877.177	-0.38
877.914	0.62
878.651	0.62
879.387	0.62
880.124	-1.38
880.86	-1.38
881.597	2.62
882.333	1.62
883.069	1.62
883.806	0.62
884.542	1.62
885.278	1.62
886.014	2.62
886.749	1.62
887.485	-1.38
888.221	2.62
888.957	2.62
889.692	1.62
890.428	-0.38
891.163	2.62
891.899	1.62
892.634	0.62
893.369	2.62
894.104	1.62
894.839	1.62
895.574	2.62
896.309	1.62
897.044	-0.38
897.779	-0.38
898.514	-0.38
899.248	1.62
899.983	1.62
900.717	0.62
901.452	-1.38
902.186	1.62
902.92	0.62
903.654	-1.38
904.389	-2.38
905.123	-1.38
905.857	-1.38
906.59	2.62
907.324	-0.38
908.058	1.62
908.792	-0.38
909.525	0.62
910.259	0.62
910.992	-0.38
911.726	0.62
912.459	1.62
913.192	-0.38
913.925	0.62
914.658	0.62
915.391	2.62
916.124	-0.38
916.857	0.62
917.59	1.62
918.323	1.62
919.055	1.62
919.788	-1.38
920.521	1.62
921.253	-0.38
921.985	-0.38
922.718	2.62
923.45	-1.38
924.182	1.62
924.914	0.62
925.646	1.62
926.378	-0.38
927.11	-1.38
927.841	-0.38
928.573	-1.38
929.305	0.62
930.036	1.62
930.768	-1.38
931.499	1.62
932.23	-2.38
932.962	1.62
933.693	0.62
934.424	-1.38
935.155	1.62
935.886	-0.38
936.617	0.62
937.348	0.62
938.078	0.62
938.809	1.62
939.54	-0.38
940.27	1.62
941.001	-1.38
941.731	1.62
942.461	-1.38
943.191	0.62
943.922	1.62
944.652	2.62
945.382	-0.38
946.112	1.62
946.841	1.62
947.571	1.62
948.301	2.62
949.031	-0.38
949.76	1.62
950.49	1.62
951.219	1.62
951.948	1.62
952.678	1.62
953.407	0.62
954.136	1.62
954.865	0.62
955.594	-1.38
956.323	1.62
957.052	1.62
957.78	0.62
958.509	-1.38
959.238	1.62
959.966	-1.38
960.695	0.62
961.423	1.62
962.151	0.62
962.88	1.62
963.608	1.62
964.336	2.62
965.064	0.62
965.792	-1.38
966.52	-0.38
967.247	1.62
967.975	1.62
968.703	1.62
969.43	3.62
970.158	0.62
970.885	1.62
971.613	0.62
972.34	1.62
973.067	1.62
973.794	3.62
974.521	0.62
975.248	0.62
975.975	1.62
976.702	0.62
977.429	2.62
978.156	-0.38
978.882	0.62
979.609	0.62
980.335	-0.38
981.062	2.62
981.788	-0.38
982.514	1.62
983.24	3.62
983.967	0.62
984.693	-0.38
985.419	3.62
986.144	1.62
986.87	0.62
987.596	2.62
988.322	2.62
989.047	0.62
989.773	2.62
990.498	0.62
991.224	1.62
991.949	1.62
992.674	0.62
993.399	0.62
994.124	0.62
994.849	1.62
995.574	-1.38
996.299	1.62
997.024	-1.38
997.749	1.62
998.473	2.62
999.198	-1.38
999.922	0.62
1000.647	1.62
1001.371	2.62
1002.095	-1.38
1002.82	-0.38
1003.544	-1.38
1004.268	-0.38
1004.992	0.62
1005.716	-1.38
1006.439	-1.38
1007.163	-1.38
1007.887	-0.38
1008.611	1.62
1009.334	-0.38
1010.058	1.62
1010.781	-0.38
1011.504	1.62
1012.228	1.62
1012.951	-1.38
1013.674	-0.38
1014.397	0.62
1015.12	1.62
