节点500_145_QEPB04081__606__11-38-35-342.txt的数据

Date: Wed Nov 12 11:38:35 CST 2025
User: PC
Spectrometer: QEPB0408
触发模式: 0
积分时间 (秒): 1.000000E-2
Scans to average: 1
启用暗噪声校正: true
启用非线性校正: false
滑动平均宽度: 0
X轴模式: Wavelengths
Number of Pixels in Spectrum: 1044
>>>>>Begin Spectral Data<<<<<
220.843	-1.25
221.644	-0.25
222.444	-1.25
223.244	-0.25
224.045	2.75
224.845	0.75
225.645	-0.25
226.445	1.75
227.245	2.75
228.045	-0.25
228.845	0.75
229.645	1.75
230.444	-0.25
231.244	1.75
232.043	0.75
232.843	-0.25
233.642	-1.25
234.442	1.75
235.241	2.75
236.04	0.75
236.839	2.75
237.638	0.75
238.437	0.75
239.236	0.75
240.035	-1.25
240.833	0.75
241.632	0.75
242.43	4.75
243.229	2.75
244.027	0.75
244.826	1.75
245.624	0.75
246.422	2.75
247.22	1.75
248.018	2.75
248.816	1.75
249.614	3.75
250.412	1.75
251.21	3.75
252.007	2.75
252.805	0.75
253.602	1.75
254.4	3.75
255.197	2.75
255.994	1.75
256.791	2.75
257.589	3.75
258.386	2.75
259.183	5.75
259.979	2.75
260.776	3.75
261.573	3.75
262.37	5.75
263.166	6.75
263.963	5.75
264.759	5.75
265.556	4.75
266.352	2.75
267.148	5.75
267.944	3.75
268.74	3.75
269.536	6.75
270.332	6.75
271.128	8.75
271.924	6.75
272.719	6.75
273.515	7.75
274.311	7.75
275.106	5.75
275.901	7.75
276.697	8.75
277.492	9.75
278.287	6.75
279.082	7.75
279.877	8.75
280.672	8.75
281.467	12.75
282.262	10.75
283.056	10.75
283.851	10.75
284.646	7.75
285.44	11.75
286.234	9.75
287.029	11.75
287.823	12.75
288.617	9.75
289.411	12.75
290.205	10.75
290.999	10.75
291.793	8.75
292.587	9.75
293.381	8.75
294.174	9.75
294.968	11.75
295.761	7.75
296.555	9.75
297.348	10.75
298.141	7.75
298.935	9.75
299.728	9.75
300.521	7.75
301.314	7.75
302.107	8.75
302.899	7.75
303.692	8.75
304.485	8.75
305.277	9.75
306.07	5.75
306.862	5.75
307.655	7.75
308.447	7.75
309.239	6.75
310.031	8.75
310.823	5.75
311.615	6.75
312.407	4.75
313.199	6.75
313.991	4.75
314.783	6.75
315.574	5.75
316.366	4.75
317.157	4.75
317.949	5.75
318.74	7.75
319.531	6.75
320.322	4.75
321.113	4.75
321.904	1.75
322.695	3.75
323.486	5.75
324.277	5.75
325.068	5.75
325.858	3.75
326.649	4.75
327.439	4.75
328.23	3.75
329.02	6.75
329.81	4.75
330.6	5.75
331.391	3.75
332.181	2.75
332.971	4.75
333.76	1.75
334.55	4.75
335.34	3.75
336.13	3.75
336.919	5.75
337.709	2.75
338.498	1.75
339.287	4.75
340.077	2.75
340.866	2.75
341.655	3.75
342.444	1.75
343.233	5.75
344.022	2.75
344.811	2.75
345.6	1.75
346.388	0.75
347.177	3.75
347.965	3.75
348.754	5.75
349.542	1.75
350.33	3.75
351.119	2.75
351.907	3.75
352.695	3.75
353.483	2.75
354.271	2.75
355.059	2.75
355.846	4.75
356.634	5.75
357.422	1.75
358.209	1.75
358.997	3.75
359.784	2.75
360.571	3.75
361.359	2.75
362.146	2.75
362.933	4.75
363.72	4.75
364.507	1.75
365.294	1.75
366.081	2.75
366.867	2.75
367.654	1.75
368.44	4.75
369.227	0.75
370.013	2.75
370.8	5.75
371.586	2.75
372.372	2.75
373.158	2.75
373.944	-0.25
374.73	2.75
375.516	4.75
376.302	4.75
377.088	1.75
377.873	2.75
378.659	2.75
379.445	2.75
380.23	1.75
381.015	1.75
381.801	2.75
382.586	-0.25
383.371	3.75
384.156	2.75
384.941	2.75
385.726	2.75
386.511	2.75
387.296	2.75
388.08	2.75
388.865	4.75
389.649	1.75
390.434	1.75
391.218	3.75
392.003	2.75
392.787	2.75
393.571	5.75
394.355	5.75
395.139	4.75
395.923	3.75
396.707	4.75
397.491	3.75
398.274	5.75
399.058	2.75
399.842	3.75
400.625	1.75
401.408	2.75
402.192	4.75
402.975	5.75
403.758	1.75
404.541	2.75
405.324	2.75
406.107	2.75
406.89	3.75
407.673	4.75
408.456	4.75
409.238	3.75
410.021	3.75
410.803	2.75
411.586	2.75
412.368	3.75
413.151	5.75
413.933	3.75
414.715	4.75
415.497	2.75
416.279	4.75
417.061	4.75
417.843	5.75
418.624	3.75
419.406	4.75
420.188	0.75
420.969	7.75
421.751	5.75
422.532	6.75
423.313	6.75
424.095	5.75
424.876	4.75
425.657	4.75
426.438	5.75
427.219	5.75
428	4.75
428.78	4.75
429.561	8.75
430.342	8.75
431.122	5.75
431.903	6.75
432.683	8.75
433.464	8.75
434.244	8.75
435.024	10.75
435.804	10.75
436.584	7.75
437.364	10.75
438.144	11.75
438.924	12.75
439.704	11.75
440.483	13.75
441.263	10.75
442.042	13.75
442.822	16.75
443.601	13.75
444.38	17.75
445.16	17.75
445.939	17.75
446.718	17.75
447.497	15.75
448.276	20.75
449.054	23.75
449.833	23.75
450.612	25.75
451.391	31.75
452.169	30.75
452.948	31.75
453.726	36.75
454.504	41.75
455.282	45.75
456.061	52.75
456.839	57.75
457.617	61.75
458.395	66.75
459.172	76.75
459.95	79.75
460.728	90.75
461.506	103.75
462.283	109.75
463.061	126.75
463.838	141.75
464.615	156.75
465.393	170.75
466.17	190.75
466.947	213.75
467.724	234.75
468.501	258.75
469.278	288.75
470.055	323.75
470.831	355.75
471.608	396.75
472.385	430.75
473.161	488.75
473.938	541.75
474.714	594.75
475.49	662.75
476.266	722.75
477.043	798.75
477.819	867.75
478.595	970.75
479.371	1059.75
480.146	1157.75
480.922	1263.75
481.698	1405.75
482.473	1510.75
483.249	1675.75
484.024	1822.75
484.8	2020.75
485.575	2205.75
486.35	2414.75
487.126	2617.75
487.901	2889.75
488.676	3156.75
489.451	3437.75
490.225	3732.75
491	4083.75
491.775	4471.75
492.55	4875.75
493.324	5302.75
494.099	5802.75
494.873	6285.75
495.647	6824.75
496.422	7397.75
497.196	7988.75
497.97	8534.75
498.744	9214.75
499.518	9847.75
500.292	10543.75
501.066	11171.75
501.839	11800.75
502.613	12406.75
503.387	12931.75
504.16	13531.75
504.934	14058.75
505.707	14413.75
506.48	14741.75
507.253	15024.75
508.027	15167.75
508.8	15314.75
509.573	15230.75
510.346	15147.75
511.118	14981.75
511.891	14707.75
512.664	14401.75
513.437	13993.75
514.209	13563.75
514.982	13104.75
515.754	12602.75
516.526	12118.75
517.298	11624.75
518.071	11119.75
518.843	10673.75
519.615	10241.75
520.387	9837.75
521.159	9444.75
521.93	9052.75
522.702	8675.75
523.474	8364.75
524.245	8045.75
525.017	7741.75
525.788	7372.75
526.56	7129.75
527.331	6846.75
528.102	6534.75
528.873	6237.75
529.644	5992.75
530.415	5756.75
531.186	5470.75
531.957	5248.75
532.728	4941.75
533.498	4717.75
534.269	4468.75
535.039	4254.75
535.81	4022.75
536.58	3799.75
537.351	3605.75
538.121	3372.75
538.891	3193.75
539.661	3034.75
540.431	2881.75
541.201	2704.75
541.971	2573.75
542.741	2428.75
543.51	2313.75
544.28	2193.75
545.05	2106.75
545.819	1959.75
546.588	1882.75
547.358	1791.75
548.127	1689.75
548.896	1620.75
549.665	1540.75
550.434	1465.75
551.203	1377.75
551.972	1313.75
552.741	1252.75
553.51	1177.75
554.278	1129.75
555.047	1064.75
555.815	997.75
556.584	947.75
557.352	886.75
558.121	835.75
558.889	802.75
559.657	753.75
560.425	710.75
561.193	666.75
561.961	637.75
562.729	600.75
563.496	557.75
564.264	541.75
565.032	498.75
565.799	479.75
566.567	445.75
567.334	413.75
568.101	396.75
568.869	372.75
569.636	353.75
570.403	339.75
571.17	319.75
571.937	292.75
572.704	287.75
573.471	264.75
574.237	249.75
575.004	234.75
575.771	221.75
576.537	212.75
577.303	196.75
578.07	183.75
578.836	172.75
579.602	160.75
580.368	148.75
581.134	150.75
581.9	143.75
582.666	130.75
583.432	124.75
584.198	113.75
584.964	109.75
585.729	107.75
586.495	98.75
587.26	89.75
588.025	88.75
588.791	84.75
589.556	80.75
590.321	73.75
591.086	68.75
591.851	65.75
592.616	65.75
593.381	60.75
594.146	58.75
594.911	55.75
595.675	52.75
596.44	48.75
597.204	45.75
597.969	45.75
598.733	40.75
599.497	39.75
600.261	40.75
601.025	36.75
601.79	34.75
602.553	34.75
603.317	37.75
604.081	33.75
604.845	26.75
605.609	28.75
606.372	25.75
607.136	28.75
607.899	27.75
608.662	24.75
609.426	24.75
610.189	20.75
610.952	22.75
611.715	19.75
612.478	19.75
613.241	19.75
614.004	15.75
614.767	18.75
615.529	17.75
616.292	17.75
617.055	16.75
617.817	14.75
618.579	14.75
619.342	14.75
620.104	12.75
620.866	10.75
621.628	13.75
622.39	13.75
623.152	13.75
623.914	10.75
624.676	12.75
625.438	10.75
626.199	10.75
626.961	7.75
627.722	8.75
628.484	7.75
629.245	7.75
630.006	6.75
630.768	7.75
631.529	7.75
632.29	6.75
633.051	8.75
633.812	9.75
634.573	7.75
635.333	7.75
636.094	7.75
636.855	7.75
637.615	7.75
638.376	7.75
639.136	5.75
639.896	8.75
640.657	5.75
641.417	4.75
642.177	5.75
642.937	4.75
643.697	5.75
644.457	6.75
645.216	2.75
645.976	3.75
646.736	7.75
647.495	4.75
648.255	5.75
649.014	3.75
649.774	1.75
650.533	4.75
651.292	2.75
652.051	5.75
652.81	4.75
653.569	3.75
654.328	3.75
655.087	2.75
655.846	4.75
656.604	3.75
657.363	3.75
658.121	3.75
658.88	3.75
659.638	0.75
660.397	3.75
661.155	3.75
661.913	2.75
662.671	4.75
663.429	2.75
664.187	2.75
664.945	1.75
665.703	5.75
666.46	2.75
667.218	4.75
667.976	0.75
668.733	1.75
669.49	3.75
670.248	3.75
671.005	2.75
671.762	2.75
672.519	2.75
673.276	2.75
674.033	4.75
674.79	1.75
675.547	3.75
676.304	0.75
677.06	1.75
677.817	1.75
678.574	2.75
679.33	0.75
680.086	1.75
680.843	4.75
681.599	3.75
682.355	2.75
683.111	2.75
683.867	3.75
684.623	3.75
685.379	1.75
686.135	2.75
686.89	1.75
687.646	2.75
688.402	0.75
689.157	2.75
689.912	1.75
690.668	0.75
691.423	0.75
692.178	0.75
692.933	1.75
693.688	3.75
694.443	3.75
695.198	2.75
695.953	3.75
696.708	3.75
697.462	2.75
698.217	1.75
698.972	1.75
699.726	1.75
700.48	3.75
701.235	0.75
701.989	4.75
702.743	1.75
703.497	2.75
704.251	1.75
705.005	1.75
705.759	1.75
706.513	3.75
707.266	0.75
708.02	2.75
708.774	3.75
709.527	2.75
710.28	3.75
711.034	2.75
711.787	0.75
712.54	2.75
713.293	5.75
714.046	2.75
714.799	0.75
715.552	4.75
716.305	1.75
717.058	0.75
717.81	2.75
718.563	3.75
719.315	1.75
720.068	3.75
720.82	0.75
721.573	3.75
722.325	1.75
723.077	2.75
723.829	2.75
724.581	5.75
725.333	2.75
726.085	2.75
726.836	0.75
727.588	1.75
728.34	5.75
729.091	2.75
729.843	1.75
730.594	3.75
731.346	3.75
732.097	4.75
732.848	1.75
733.599	1.75
734.35	3.75
735.101	3.75
735.852	1.75
736.603	3.75
737.354	1.75
738.104	1.75
738.855	2.75
739.605	2.75
740.356	-0.25
741.106	3.75
741.856	3.75
742.607	3.75
743.357	2.75
744.107	4.75
744.857	3.75
745.607	1.75
746.357	2.75
747.106	3.75
747.856	3.75
748.606	1.75
749.355	3.75
750.105	1.75
750.854	1.75
751.603	3.75
752.353	3.75
753.102	2.75
753.851	3.75
754.6	2.75
755.349	1.75
756.098	3.75
756.847	2.75
757.595	2.75
758.344	4.75
759.093	1.75
759.841	2.75
760.589	3.75
761.338	5.75
762.086	4.75
762.834	0.75
763.582	3.75
764.331	3.75
765.079	2.75
765.826	4.75
766.574	3.75
767.322	2.75
768.07	2.75
768.817	2.75
769.565	3.75
770.312	3.75
771.06	5.75
771.807	6.75
772.554	3.75
773.302	2.75
774.049	4.75
774.796	4.75
775.543	8.75
776.29	5.75
777.036	6.75
777.783	4.75
778.53	3.75
779.276	4.75
780.023	3.75
780.769	4.75
781.516	4.75
782.262	3.75
783.008	1.75
783.754	2.75
784.5	5.75
785.246	2.75
785.992	4.75
786.738	5.75
787.484	5.75
788.23	3.75
788.975	4.75
789.721	6.75
790.466	5.75
791.212	5.75
791.957	6.75
792.702	5.75
793.447	6.75
794.193	5.75
794.938	5.75
795.683	3.75
796.427	3.75
797.172	4.75
797.917	6.75
798.662	5.75
799.406	5.75
800.151	4.75
800.895	5.75
801.64	3.75
802.384	1.75
803.128	3.75
803.872	4.75
804.616	2.75
805.36	2.75
806.104	2.75
806.848	4.75
807.592	5.75
808.336	4.75
809.079	3.75
809.823	3.75
810.566	2.75
811.31	1.75
812.053	4.75
812.796	4.75
813.539	2.75
814.283	3.75
815.026	2.75
815.769	3.75
816.511	2.75
817.254	1.75
817.997	1.75
818.74	3.75
819.482	3.75
820.225	2.75
820.967	4.75
821.71	3.75
822.452	3.75
823.194	1.75
823.936	3.75
824.678	5.75
825.42	1.75
826.162	3.75
826.904	2.75
827.646	1.75
828.388	2.75
829.129	4.75
829.871	3.75
830.612	3.75
831.354	1.75
832.095	2.75
832.836	1.75
833.577	4.75
834.319	2.75
835.06	2.75
835.801	1.75
836.542	1.75
837.282	3.75
838.023	2.75
838.764	3.75
839.504	2.75
840.245	3.75
840.985	2.75
841.726	2.75
842.466	3.75
843.206	2.75
843.946	2.75
844.687	1.75
845.427	3.75
846.166	1.75
846.906	2.75
847.646	2.75
848.386	2.75
849.125	5.75
849.865	2.75
850.605	3.75
851.344	0.75
852.083	3.75
852.823	2.75
853.562	1.75
854.301	2.75
855.04	2.75
855.779	3.75
856.518	0.75
857.257	2.75
857.995	2.75
858.734	2.75
859.473	2.75
860.211	0.75
860.95	3.75
861.688	2.75
862.426	1.75
863.165	1.75
863.903	2.75
864.641	0.75
865.379	1.75
866.117	2.75
866.855	1.75
867.593	-0.25
868.33	3.75
869.068	1.75
869.806	1.75
870.543	1.75
871.28	1.75
872.018	1.75
872.755	1.75
873.492	1.75
874.229	1.75
874.967	1.75
875.703	0.75
876.44	0.75
877.177	-0.25
877.914	1.75
878.651	1.75
879.387	1.75
880.124	2.75
880.86	-0.25
881.597	1.75
882.333	0.75
883.069	2.75
883.806	2.75
884.542	-1.25
885.278	3.75
886.014	-1.25
886.749	1.75
887.485	1.75
888.221	-0.25
888.957	1.75
889.692	0.75
890.428	1.75
891.163	-0.25
891.899	0.75
892.634	1.75
893.369	2.75
894.104	-0.25
894.839	0.75
895.574	1.75
896.309	-0.25
897.044	2.75
897.779	-0.25
898.514	0.75
899.248	0.75
899.983	0.75
900.717	-0.25
901.452	-0.25
902.186	1.75
902.92	-0.25
903.654	1.75
904.389	-1.25
905.123	-0.25
905.857	2.75
906.59	0.75
907.324	1.75
908.058	1.75
908.792	1.75
909.525	2.75
910.259	1.75
910.992	1.75
911.726	-1.25
912.459	-0.25
913.192	0.75
913.925	-0.25
914.658	3.75
915.391	-0.25
916.124	0.75
916.857	1.75
917.59	1.75
918.323	-0.25
919.055	-0.25
919.788	-0.25
920.521	-1.25
921.253	0.75
921.985	-1.25
922.718	0.75
923.45	0.75
924.182	-0.25
924.914	-1.25
925.646	0.75
926.378	0.75
927.11	-2.25
927.841	1.75
928.573	-0.25
929.305	1.75
930.036	-0.25
930.768	0.75
931.499	0.75
932.23	0.75
932.962	1.75
933.693	-0.25
934.424	-0.25
935.155	3.75
935.886	0.75
936.617	1.75
937.348	2.75
938.078	0.75
938.809	-1.25
939.54	-0.25
940.27	-0.25
941.001	0.75
941.731	1.75
942.461	0.75
943.191	-1.25
943.922	2.75
944.652	0.75
945.382	1.75
946.112	-0.25
946.841	1.75
947.571	1.75
948.301	-1.25
949.031	1.75
949.76	-0.25
950.49	0.75
951.219	0.75
951.948	0.75
952.678	1.75
953.407	-0.25
954.136	0.75
954.865	0.75
955.594	-1.25
956.323	0.75
957.052	-0.25
957.78	-1.25
958.509	-0.25
959.238	2.75
959.966	-1.25
960.695	1.75
961.423	-0.25
962.151	-0.25
962.88	0.75
963.608	0.75
964.336	0.75
965.064	1.75
965.792	-0.25
966.52	-0.25
967.247	0.75
967.975	-1.25
968.703	-1.25
969.43	-0.25
970.158	0.75
970.885	1.75
971.613	-2.25
972.34	1.75
973.067	2.75
973.794	-0.25
974.521	-1.25
975.248	-0.25
975.975	1.75
976.702	-0.25
977.429	1.75
978.156	0.75
978.882	0.75
979.609	-0.25
980.335	-0.25
981.062	0.75
981.788	-1.25
982.514	0.75
983.24	0.75
983.967	0.75
984.693	1.75
985.419	-1.25
986.144	-0.25
986.87	1.75
987.596	-0.25
988.322	-0.25
989.047	-1.25
989.773	2.75
990.498	0.75
991.224	0.75
991.949	1.75
992.674	0.75
993.399	0.75
994.124	-1.25
994.849	0.75
995.574	-1.25
996.299	1.75
997.024	0.75
997.749	-0.25
998.473	-1.25
999.198	-0.25
999.922	1.75
1000.647	-1.25
1001.371	4.75
1002.095	0.75
1002.82	-2.25
1003.544	-1.25
1004.268	-1.25
1004.992	2.75
1005.716	-1.25
1006.439	0.75
1007.163	0.75
1007.887	1.75
1008.611	-2.25
1009.334	-0.25
1010.058	2.75
1010.781	-1.25
1011.504	-1.25
1012.228	0.75
1012.951	-0.25
1013.674	-1.25
1014.397	-0.25
1015.12	-0.25
