节点500_145_QEPB04081__701__11-40-04-702.txt的数据

Date: Wed Nov 12 11:40:04 CST 2025
User: PC
Spectrometer: QEPB0408
触发模式: 0
积分时间 (秒): 1.000000E-2
Scans to average: 1
启用暗噪声校正: true
启用非线性校正: false
滑动平均宽度: 0
X轴模式: Wavelengths
Number of Pixels in Spectrum: 1044
>>>>>Begin Spectral Data<<<<<
220.843	-0.62
221.644	-1.62
222.444	-1.62
223.244	2.38
224.045	-1.62
224.845	0.38
225.645	1.38
226.445	-0.62
227.245	0.38
228.045	0.38
228.845	0.38
229.645	-1.62
230.444	0.38
231.244	2.38
232.043	-0.62
232.843	2.38
233.642	1.38
234.442	1.38
235.241	1.38
236.04	0.38
236.839	1.38
237.638	-1.62
238.437	1.38
239.236	0.38
240.035	1.38
240.833	0.38
241.632	1.38
242.43	2.38
243.229	-0.62
244.027	1.38
244.826	0.38
245.624	0.38
246.422	1.38
247.22	-0.62
248.018	1.38
248.816	2.38
249.614	4.38
250.412	1.38
251.21	3.38
252.007	1.38
252.805	2.38
253.602	1.38
254.4	1.38
255.197	0.38
255.994	4.38
256.791	3.38
257.589	2.38
258.386	3.38
259.183	2.38
259.979	2.38
260.776	3.38
261.573	2.38
262.37	6.38
263.166	5.38
263.963	3.38
264.759	3.38
265.556	3.38
266.352	5.38
267.148	2.38
267.944	6.38
268.74	7.38
269.536	5.38
270.332	4.38
271.128	6.38
271.924	7.38
272.719	4.38
273.515	8.38
274.311	7.38
275.106	7.38
275.901	9.38
276.697	6.38
277.492	8.38
278.287	7.38
279.082	7.38
279.877	7.38
280.672	9.38
281.467	10.38
282.262	9.38
283.056	11.38
283.851	8.38
284.646	9.38
285.44	8.38
286.234	9.38
287.029	7.38
287.823	10.38
288.617	9.38
289.411	10.38
290.205	10.38
290.999	10.38
291.793	8.38
292.587	9.38
293.381	7.38
294.174	10.38
294.968	8.38
295.761	7.38
296.555	10.38
297.348	10.38
298.141	12.38
298.935	7.38
299.728	7.38
300.521	9.38
301.314	8.38
302.107	9.38
302.899	6.38
303.692	9.38
304.485	7.38
305.277	5.38
306.07	7.38
306.862	7.38
307.655	7.38
308.447	5.38
309.239	7.38
310.031	8.38
310.823	7.38
311.615	6.38
312.407	6.38
313.199	5.38
313.991	4.38
314.783	5.38
315.574	9.38
316.366	5.38
317.157	6.38
317.949	7.38
318.74	3.38
319.531	6.38
320.322	6.38
321.113	5.38
321.904	4.38
322.695	6.38
323.486	3.38
324.277	5.38
325.068	5.38
325.858	3.38
326.649	2.38
327.439	3.38
328.23	3.38
329.02	5.38
329.81	5.38
330.6	1.38
331.391	3.38
332.181	1.38
332.971	2.38
333.76	5.38
334.55	4.38
335.34	3.38
336.13	3.38
336.919	5.38
337.709	2.38
338.498	3.38
339.287	3.38
340.077	4.38
340.866	2.38
341.655	4.38
342.444	4.38
343.233	4.38
344.022	2.38
344.811	5.38
345.6	3.38
346.388	3.38
347.177	6.38
347.965	2.38
348.754	2.38
349.542	3.38
350.33	2.38
351.119	2.38
351.907	3.38
352.695	2.38
353.483	5.38
354.271	3.38
355.059	1.38
355.846	3.38
356.634	2.38
357.422	4.38
358.209	2.38
358.997	2.38
359.784	3.38
360.571	2.38
361.359	4.38
362.146	3.38
362.933	3.38
363.72	2.38
364.507	0.38
365.294	3.38
366.081	-1.62
366.867	4.38
367.654	2.38
368.44	2.38
369.227	1.38
370.013	2.38
370.8	2.38
371.586	2.38
372.372	2.38
373.158	3.38
373.944	1.38
374.73	4.38
375.516	3.38
376.302	3.38
377.088	2.38
377.873	3.38
378.659	2.38
379.445	3.38
380.23	3.38
381.015	1.38
381.801	2.38
382.586	1.38
383.371	2.38
384.156	2.38
384.941	1.38
385.726	3.38
386.511	6.38
387.296	2.38
388.08	2.38
388.865	3.38
389.649	2.38
390.434	3.38
391.218	2.38
392.003	2.38
392.787	3.38
393.571	3.38
394.355	3.38
395.139	1.38
395.923	2.38
396.707	5.38
397.491	1.38
398.274	1.38
399.058	1.38
399.842	3.38
400.625	3.38
401.408	4.38
402.192	2.38
402.975	4.38
403.758	2.38
404.541	3.38
405.324	4.38
406.107	2.38
406.89	4.38
407.673	4.38
408.456	7.38
409.238	3.38
410.021	4.38
410.803	3.38
411.586	5.38
412.368	6.38
413.151	4.38
413.933	4.38
414.715	4.38
415.497	3.38
416.279	3.38
417.061	4.38
417.843	4.38
418.624	5.38
419.406	4.38
420.188	4.38
420.969	4.38
421.751	7.38
422.532	7.38
423.313	7.38
424.095	4.38
424.876	5.38
425.657	8.38
426.438	5.38
427.219	7.38
428	5.38
428.78	6.38
429.561	8.38
430.342	4.38
431.122	5.38
431.903	9.38
432.683	6.38
433.464	10.38
434.244	9.38
435.024	10.38
435.804	9.38
436.584	10.38
437.364	9.38
438.144	8.38
438.924	9.38
439.704	10.38
440.483	10.38
441.263	11.38
442.042	14.38
442.822	15.38
443.601	15.38
444.38	14.38
445.16	17.38
445.939	17.38
446.718	19.38
447.497	20.38
448.276	20.38
449.054	23.38
449.833	24.38
450.612	26.38
451.391	29.38
452.169	30.38
452.948	37.38
453.726	39.38
454.504	42.38
455.282	44.38
456.061	51.38
456.839	56.38
457.617	62.38
458.395	69.38
459.172	76.38
459.95	83.38
460.728	93.38
461.506	106.38
462.283	112.38
463.061	125.38
463.838	141.38
464.615	158.38
465.393	178.38
466.17	196.38
466.947	215.38
467.724	242.38
468.501	272.38
469.278	297.38
470.055	334.38
470.831	360.38
471.608	403.38
472.385	440.38
473.161	485.38
473.938	543.38
474.714	600.38
475.49	659.38
476.266	722.38
477.043	804.38
477.819	877.38
478.595	959.38
479.371	1055.38
480.146	1161.38
480.922	1278.38
481.698	1383.38
482.473	1522.38
483.249	1685.38
484.024	1825.38
484.8	1985.38
485.575	2178.38
486.35	2376.38
487.126	2571.38
487.901	2845.38
488.676	3082.38
489.451	3381.38
490.225	3691.38
491	4032.38
491.775	4386.38
492.55	4789.38
493.324	5205.38
494.099	5643.38
494.873	6110.38
495.647	6644.38
496.422	7180.38
497.196	7734.38
497.97	8314.38
498.744	8957.38
499.518	9553.38
500.292	10209.38
501.066	10857.38
501.839	11448.38
502.613	12028.38
503.387	12633.38
504.16	13180.38
504.934	13677.38
505.707	14039.38
506.48	14400.38
507.253	14735.38
508.027	14854.38
508.8	15027.38
509.573	15016.38
510.346	14958.38
511.118	14864.38
511.891	14572.38
512.664	14257.38
513.437	13910.38
514.209	13506.38
514.982	13072.38
515.754	12627.38
516.526	12153.38
517.298	11642.38
518.071	11218.38
518.843	10716.38
519.615	10275.38
520.387	9862.38
521.159	9466.38
521.93	9056.38
522.702	8722.38
523.474	8387.38
524.245	8060.38
525.017	7736.38
525.788	7443.38
526.56	7149.38
527.331	6854.38
528.102	6570.38
528.873	6322.38
529.644	6041.38
530.415	5781.38
531.186	5513.38
531.957	5276.38
532.728	5019.38
533.498	4749.38
534.269	4508.38
535.039	4298.38
535.81	4082.38
536.58	3846.38
537.351	3608.38
538.121	3439.38
538.891	3255.38
539.661	3071.38
540.431	2912.38
541.201	2755.38
541.971	2632.38
542.741	2476.38
543.51	2348.38
544.28	2221.38
545.05	2107.38
545.819	2005.38
546.588	1926.38
547.358	1825.38
548.127	1722.38
548.896	1644.38
549.665	1559.38
550.434	1482.38
551.203	1397.38
551.972	1351.38
552.741	1272.38
553.51	1200.38
554.278	1138.38
555.047	1077.38
555.815	1023.38
556.584	958.38
557.352	903.38
558.121	867.38
558.889	812.38
559.657	760.38
560.425	725.38
561.193	690.38
561.961	645.38
562.729	596.38
563.496	576.38
564.264	537.38
565.032	506.38
565.799	481.38
566.567	446.38
567.334	434.38
568.101	408.38
568.869	379.38
569.636	362.38
570.403	340.38
571.17	327.38
571.937	306.38
572.704	283.38
573.471	272.38
574.237	255.38
575.004	241.38
575.771	226.38
576.537	216.38
577.303	200.38
578.07	191.38
578.836	179.38
579.602	167.38
580.368	161.38
581.134	153.38
581.9	143.38
582.666	130.38
583.432	130.38
584.198	121.38
584.964	114.38
585.729	107.38
586.495	103.38
587.26	95.38
588.025	89.38
588.791	84.38
589.556	81.38
590.321	77.38
591.086	72.38
591.851	70.38
592.616	64.38
593.381	60.38
594.146	57.38
594.911	62.38
595.675	56.38
596.44	50.38
597.204	49.38
597.969	47.38
598.733	45.38
599.497	44.38
600.261	40.38
601.025	35.38
601.79	37.38
602.553	33.38
603.317	32.38
604.081	34.38
604.845	32.38
605.609	28.38
606.372	27.38
607.136	24.38
607.899	24.38
608.662	26.38
609.426	25.38
610.189	21.38
610.952	23.38
611.715	21.38
612.478	21.38
613.241	18.38
614.004	18.38
614.767	17.38
615.529	17.38
616.292	16.38
617.055	15.38
617.817	14.38
618.579	13.38
619.342	13.38
620.104	10.38
620.866	13.38
621.628	14.38
622.39	10.38
623.152	14.38
623.914	10.38
624.676	10.38
625.438	10.38
626.199	10.38
626.961	10.38
627.722	7.38
628.484	8.38
629.245	6.38
630.006	6.38
630.768	7.38
631.529	8.38
632.29	5.38
633.051	7.38
633.812	7.38
634.573	8.38
635.333	6.38
636.094	5.38
636.855	9.38
637.615	6.38
638.376	6.38
639.136	6.38
639.896	4.38
640.657	7.38
641.417	5.38
642.177	5.38
642.937	5.38
643.697	7.38
644.457	6.38
645.216	4.38
645.976	7.38
646.736	5.38
647.495	3.38
648.255	3.38
649.014	3.38
649.774	3.38
650.533	2.38
651.292	4.38
652.051	3.38
652.81	3.38
653.569	4.38
654.328	4.38
655.087	5.38
655.846	2.38
656.604	1.38
657.363	5.38
658.121	2.38
658.88	2.38
659.638	3.38
660.397	3.38
661.155	1.38
661.913	1.38
662.671	2.38
663.429	5.38
664.187	1.38
664.945	3.38
665.703	0.38
666.46	1.38
667.218	2.38
667.976	2.38
668.733	2.38
669.49	1.38
670.248	1.38
671.005	1.38
671.762	1.38
672.519	4.38
673.276	1.38
674.033	2.38
674.79	4.38
675.547	1.38
676.304	3.38
677.06	1.38
677.817	2.38
678.574	1.38
679.33	3.38
680.086	3.38
680.843	2.38
681.599	2.38
682.355	0.38
683.111	3.38
683.867	1.38
684.623	3.38
685.379	0.38
686.135	1.38
686.89	3.38
687.646	2.38
688.402	1.38
689.157	1.38
689.912	0.38
690.668	4.38
691.423	0.38
692.178	1.38
692.933	0.38
693.688	0.38
694.443	2.38
695.198	2.38
695.953	1.38
696.708	1.38
697.462	3.38
698.217	0.38
698.972	0.38
699.726	0.38
700.48	2.38
701.235	3.38
701.989	-0.62
702.743	0.38
703.497	1.38
704.251	2.38
705.005	2.38
705.759	1.38
706.513	2.38
707.266	1.38
708.02	2.38
708.774	0.38
709.527	1.38
710.28	0.38
711.034	1.38
711.787	-0.62
712.54	-0.62
713.293	-0.62
714.046	3.38
714.799	2.38
715.552	0.38
716.305	3.38
717.058	3.38
717.81	1.38
718.563	2.38
719.315	1.38
720.068	1.38
720.82	2.38
721.573	0.38
722.325	2.38
723.077	2.38
723.829	3.38
724.581	2.38
725.333	1.38
726.085	0.38
726.836	-1.62
727.588	3.38
728.34	2.38
729.091	1.38
729.843	2.38
730.594	2.38
731.346	2.38
732.097	1.38
732.848	2.38
733.599	3.38
734.35	5.38
735.101	3.38
735.852	0.38
736.603	0.38
737.354	1.38
738.104	2.38
738.855	2.38
739.605	0.38
740.356	4.38
741.106	2.38
741.856	3.38
742.607	3.38
743.357	1.38
744.107	1.38
744.857	1.38
745.607	1.38
746.357	0.38
747.106	2.38
747.856	2.38
748.606	1.38
749.355	3.38
750.105	0.38
750.854	0.38
751.603	2.38
752.353	2.38
753.102	0.38
753.851	3.38
754.6	1.38
755.349	4.38
756.098	3.38
756.847	1.38
757.595	1.38
758.344	0.38
759.093	4.38
759.841	2.38
760.589	3.38
761.338	3.38
762.086	2.38
762.834	2.38
763.582	1.38
764.331	2.38
765.079	3.38
765.826	3.38
766.574	6.38
767.322	5.38
768.07	4.38
768.817	5.38
769.565	4.38
770.312	4.38
771.06	3.38
771.807	4.38
772.554	2.38
773.302	1.38
774.049	3.38
774.796	4.38
775.543	2.38
776.29	2.38
777.036	3.38
777.783	2.38
778.53	4.38
779.276	4.38
780.023	5.38
780.769	3.38
781.516	5.38
782.262	5.38
783.008	5.38
783.754	4.38
784.5	3.38
785.246	3.38
785.992	4.38
786.738	6.38
787.484	5.38
788.23	3.38
788.975	3.38
789.721	4.38
790.466	4.38
791.212	2.38
791.957	6.38
792.702	6.38
793.447	2.38
794.193	3.38
794.938	3.38
795.683	3.38
796.427	5.38
797.172	3.38
797.917	4.38
798.662	4.38
799.406	3.38
800.151	2.38
800.895	3.38
801.64	4.38
802.384	4.38
803.128	6.38
803.872	3.38
804.616	3.38
805.36	4.38
806.104	4.38
806.848	3.38
807.592	3.38
808.336	2.38
809.079	2.38
809.823	1.38
810.566	0.38
811.31	2.38
812.053	4.38
812.796	6.38
813.539	3.38
814.283	2.38
815.026	5.38
815.769	3.38
816.511	2.38
817.254	4.38
817.997	4.38
818.74	2.38
819.482	4.38
820.225	5.38
820.967	5.38
821.71	4.38
822.452	4.38
823.194	2.38
823.936	2.38
824.678	3.38
825.42	2.38
826.162	2.38
826.904	4.38
827.646	3.38
828.388	3.38
829.129	3.38
829.871	1.38
830.612	3.38
831.354	1.38
832.095	2.38
832.836	4.38
833.577	1.38
834.319	3.38
835.06	0.38
835.801	3.38
836.542	1.38
837.282	2.38
838.023	2.38
838.764	5.38
839.504	3.38
840.245	0.38
840.985	1.38
841.726	3.38
842.466	0.38
843.206	2.38
843.946	1.38
844.687	0.38
845.427	2.38
846.166	2.38
846.906	1.38
847.646	1.38
848.386	0.38
849.125	5.38
849.865	2.38
850.605	4.38
851.344	1.38
852.083	1.38
852.823	0.38
853.562	2.38
854.301	-0.62
855.04	2.38
855.779	0.38
856.518	1.38
857.257	1.38
857.995	2.38
858.734	2.38
859.473	1.38
860.211	0.38
860.95	0.38
861.688	2.38
862.426	2.38
863.165	3.38
863.903	2.38
864.641	1.38
865.379	0.38
866.117	0.38
866.855	1.38
867.593	1.38
868.33	1.38
869.068	1.38
869.806	1.38
870.543	1.38
871.28	-1.62
872.018	1.38
872.755	3.38
873.492	0.38
874.229	0.38
874.967	1.38
875.703	0.38
876.44	0.38
877.177	0.38
877.914	0.38
878.651	0.38
879.387	2.38
880.124	0.38
880.86	1.38
881.597	0.38
882.333	2.38
883.069	2.38
883.806	1.38
884.542	1.38
885.278	1.38
886.014	0.38
886.749	0.38
887.485	0.38
888.221	0.38
888.957	-0.62
889.692	0.38
890.428	0.38
891.163	0.38
891.899	-0.62
892.634	0.38
893.369	-0.62
894.104	1.38
894.839	0.38
895.574	1.38
896.309	1.38
897.044	0.38
897.779	0.38
898.514	-0.62
899.248	-0.62
899.983	0.38
900.717	1.38
901.452	0.38
902.186	-2.62
902.92	0.38
903.654	0.38
904.389	-0.62
905.123	1.38
905.857	-1.62
906.59	3.38
907.324	-1.62
908.058	-0.62
908.792	2.38
909.525	2.38
910.259	0.38
910.992	-1.62
911.726	0.38
912.459	1.38
913.192	0.38
913.925	1.38
914.658	-0.62
915.391	1.38
916.124	-0.62
916.857	2.38
917.59	-0.62
918.323	1.38
919.055	-1.62
919.788	-1.62
920.521	0.38
921.253	-0.62
921.985	0.38
922.718	-1.62
923.45	-1.62
924.182	0.38
924.914	-1.62
925.646	-1.62
926.378	0.38
927.11	2.38
927.841	1.38
928.573	-0.62
929.305	-0.62
930.036	-0.62
930.768	-0.62
931.499	-0.62
932.23	0.38
932.962	1.38
933.693	1.38
934.424	0.38
935.155	-0.62
935.886	1.38
936.617	-0.62
937.348	1.38
938.078	1.38
938.809	0.38
939.54	-0.62
940.27	-0.62
941.001	-0.62
941.731	1.38
942.461	-0.62
943.191	-0.62
943.922	-0.62
944.652	1.38
945.382	0.38
946.112	1.38
946.841	0.38
947.571	0.38
948.301	0.38
949.031	-1.62
949.76	0.38
950.49	-0.62
951.219	0.38
951.948	0.38
952.678	1.38
953.407	0.38
954.136	0.38
954.865	0.38
955.594	1.38
956.323	1.38
957.052	-0.62
957.78	1.38
958.509	1.38
959.238	1.38
959.966	1.38
960.695	-0.62
961.423	2.38
962.151	-0.62
962.88	-0.62
963.608	1.38
964.336	-2.62
965.064	0.38
965.792	-1.62
966.52	0.38
967.247	0.38
967.975	0.38
968.703	2.38
969.43	1.38
970.158	-0.62
970.885	-0.62
971.613	0.38
972.34	0.38
973.067	0.38
973.794	1.38
974.521	1.38
975.248	0.38
975.975	-0.62
976.702	1.38
977.429	-0.62
978.156	-1.62
978.882	-1.62
979.609	-2.62
980.335	1.38
981.062	-1.62
981.788	0.38
982.514	1.38
983.24	1.38
983.967	-1.62
984.693	-0.62
985.419	0.38
986.144	-1.62
986.87	0.38
987.596	0.38
988.322	-1.62
989.047	1.38
989.773	1.38
990.498	2.38
991.224	-0.62
991.949	1.38
992.674	-1.62
993.399	-0.62
994.124	-1.62
994.849	-0.62
995.574	2.38
996.299	-0.62
997.024	-0.62
997.749	-0.62
998.473	-1.62
999.198	0.38
999.922	1.38
1000.647	0.38
1001.371	4.38
1002.095	-1.62
1002.82	-1.62
1003.544	-1.62
1004.268	2.38
1004.992	-1.62
1005.716	-1.62
1006.439	1.38
1007.163	1.38
1007.887	0.38
1008.611	-0.62
1009.334	-1.62
1010.058	1.38
1010.781	-1.62
1011.504	-0.62
1012.228	-1.62
1012.951	0.38
1013.674	1.38
1014.397	-0.62
1015.12	-0.62
