节点500_145_QEPB04081__319__11-34-04-474.txt的数据

Date: Wed Nov 12 11:34:04 CST 2025
User: PC
Spectrometer: QEPB0408
触发模式: 0
积分时间 (秒): 1.000000E-2
Scans to average: 1
启用暗噪声校正: true
启用非线性校正: false
滑动平均宽度: 0
X轴模式: Wavelengths
Number of Pixels in Spectrum: 1044
>>>>>Begin Spectral Data<<<<<
220.843	-1
221.644	-2
222.444	0
223.244	-2
224.045	-2
224.845	-2
225.645	-1
226.445	0
227.245	1
228.045	0
228.845	-1
229.645	1
230.444	2
231.244	0
232.043	2
232.843	-1
233.642	-2
234.442	0
235.241	1
236.04	0
236.839	-1
237.638	1
238.437	2
239.236	2
240.035	2
240.833	1
241.632	-1
242.43	2
243.229	1
244.027	1
244.826	2
245.624	2
246.422	2
247.22	1
248.018	2
248.816	3
249.614	2
250.412	2
251.21	1
252.007	3
252.805	0
253.602	2
254.4	1
255.197	4
255.994	3
256.791	2
257.589	1
258.386	4
259.183	0
259.979	5
260.776	3
261.573	6
262.37	2
263.166	3
263.963	3
264.759	5
265.556	6
266.352	7
267.148	7
267.944	6
268.74	6
269.536	5
270.332	5
271.128	7
271.924	3
272.719	7
273.515	8
274.311	8
275.106	8
275.901	8
276.697	9
277.492	9
278.287	11
279.082	9
279.877	9
280.672	10
281.467	9
282.262	9
283.056	9
283.851	9
284.646	12
285.44	9
286.234	11
287.029	9
287.823	10
288.617	7
289.411	9
290.205	10
290.999	9
291.793	12
292.587	8
293.381	9
294.174	11
294.968	10
295.761	11
296.555	7
297.348	8
298.141	7
298.935	10
299.728	7
300.521	10
301.314	8
302.107	7
302.899	9
303.692	8
304.485	11
305.277	9
306.07	7
306.862	8
307.655	7
308.447	8
309.239	6
310.031	7
310.823	5
311.615	8
312.407	7
313.199	6
313.991	9
314.783	4
315.574	6
316.366	5
317.157	4
317.949	4
318.74	2
319.531	2
320.322	6
321.113	7
321.904	4
322.695	7
323.486	5
324.277	3
325.068	7
325.858	4
326.649	3
327.439	4
328.23	4
329.02	4
329.81	4
330.6	3
331.391	4
332.181	5
332.971	4
333.76	3
334.55	4
335.34	1
336.13	4
336.919	2
337.709	4
338.498	5
339.287	3
340.077	2
340.866	2
341.655	3
342.444	5
343.233	1
344.022	0
344.811	3
345.6	3
346.388	2
347.177	3
347.965	6
348.754	4
349.542	4
350.33	4
351.119	4
351.907	3
352.695	1
353.483	2
354.271	3
355.059	6
355.846	2
356.634	0
357.422	3
358.209	1
358.997	4
359.784	3
360.571	5
361.359	1
362.146	1
362.933	0
363.72	3
364.507	4
365.294	2
366.081	4
366.867	2
367.654	1
368.44	3
369.227	4
370.013	2
370.8	1
371.586	3
372.372	1
373.158	2
373.944	4
374.73	2
375.516	4
376.302	2
377.088	3
377.873	4
378.659	2
379.445	4
380.23	3
381.015	3
381.801	2
382.586	2
383.371	2
384.156	4
384.941	1
385.726	4
386.511	3
387.296	2
388.08	2
388.865	3
389.649	2
390.434	3
391.218	3
392.003	4
392.787	3
393.571	2
394.355	3
395.139	1
395.923	0
396.707	2
397.491	2
398.274	4
399.058	2
399.842	2
400.625	3
401.408	2
402.192	2
402.975	5
403.758	4
404.541	4
405.324	4
406.107	3
406.89	4
407.673	3
408.456	6
409.238	5
410.021	6
410.803	2
411.586	7
412.368	4
413.151	5
413.933	5
414.715	5
415.497	5
416.279	4
417.061	3
417.843	7
418.624	6
419.406	4
420.188	5
420.969	4
421.751	4
422.532	6
423.313	5
424.095	6
424.876	6
425.657	6
426.438	5
427.219	4
428	6
428.78	5
429.561	7
430.342	7
431.122	6
431.903	8
432.683	7
433.464	8
434.244	9
435.024	9
435.804	8
436.584	8
437.364	9
438.144	8
438.924	11
439.704	11
440.483	10
441.263	13
442.042	11
442.822	13
443.601	13
444.38	16
445.16	14
445.939	14
446.718	16
447.497	16
448.276	19
449.054	21
449.833	23
450.612	26
451.391	20
452.169	28
452.948	29
453.726	34
454.504	36
455.282	39
456.061	40
456.839	46
457.617	51
458.395	55
459.172	65
459.95	70
460.728	81
461.506	87
462.283	96
463.061	110
463.838	122
464.615	132
465.393	152
466.17	168
466.947	191
467.724	204
468.501	235
469.278	264
470.055	291
470.831	321
471.608	361
472.385	399
473.161	444
473.938	489
474.714	540
475.49	598
476.266	675
477.043	734
477.819	835
478.595	900
479.371	996
480.146	1109
480.922	1213
481.698	1354
482.473	1481
483.249	1642
484.024	1790
484.8	1978
485.575	2183
486.35	2410
487.126	2624
487.901	2932
488.676	3208
489.451	3520
490.225	3851
491	4258
491.775	4696
492.55	5138
493.324	5606
494.099	6097
494.873	6702
495.647	7297
496.422	7900
497.196	8528
497.97	9250
498.744	9924
499.518	10663
500.292	11350
501.066	12022
501.839	12719
502.613	13380
503.387	13942
504.16	14430
504.934	14874
505.707	15230
506.48	15536
507.253	15680
508.027	15740
508.8	15716
509.573	15586
510.346	15346
511.118	15065
511.891	14699
512.664	14244
513.437	13765
514.209	13237
514.982	12765
515.754	12248
516.526	11717
517.298	11203
518.071	10673
518.843	10206
519.615	9731
520.387	9352
521.159	9018
521.93	8638
522.702	8283
523.474	7960
524.245	7680
525.017	7337
525.788	7082
526.56	6791
527.331	6494
528.102	6247
528.873	5947
529.644	5663
530.415	5399
531.186	5159
531.957	4896
532.728	4643
533.498	4386
534.269	4152
535.039	3917
535.81	3722
536.58	3527
537.351	3333
538.121	3132
538.891	2958
539.661	2786
540.431	2652
541.201	2513
541.971	2374
542.741	2273
543.51	2115
544.28	2024
545.05	1908
545.819	1847
546.588	1736
547.358	1653
548.127	1574
548.896	1485
549.665	1410
550.434	1343
551.203	1264
551.972	1213
552.741	1159
553.51	1079
554.278	1029
555.047	959
555.815	922
556.584	873
557.352	800
558.121	759
558.889	720
559.657	685
560.425	643
561.193	604
561.961	568
562.729	545
563.496	508
564.264	470
565.032	449
565.799	427
566.567	404
567.334	387
568.101	363
568.869	342
569.636	323
570.403	299
571.17	286
571.937	273
572.704	257
573.471	233
574.237	226
575.004	212
575.771	202
576.537	188
577.303	174
578.07	170
578.836	154
579.602	144
580.368	141
581.134	130
581.9	130
582.666	120
583.432	111
584.198	106
584.964	98
585.729	93
586.495	88
587.26	88
588.025	81
588.791	74
589.556	68
590.321	69
591.086	65
591.851	62
592.616	58
593.381	54
594.146	52
594.911	49
595.675	48
596.44	45
597.204	43
597.969	40
598.733	39
599.497	37
600.261	38
601.025	32
601.79	33
602.553	28
603.317	29
604.081	28
604.845	26
605.609	25
606.372	24
607.136	25
607.899	21
608.662	21
609.426	21
610.189	21
610.952	20
611.715	17
612.478	18
613.241	17
614.004	16
614.767	15
615.529	15
616.292	14
617.055	13
617.817	14
618.579	13
619.342	10
620.104	9
620.866	11
621.628	15
622.39	8
623.152	10
623.914	9
624.676	8
625.438	10
626.199	10
626.961	9
627.722	7
628.484	7
629.245	9
630.006	7
630.768	8
631.529	6
632.29	8
633.051	7
633.812	6
634.573	8
635.333	7
636.094	8
636.855	7
637.615	8
638.376	5
639.136	4
639.896	5
640.657	2
641.417	6
642.177	4
642.937	6
643.697	4
644.457	5
645.216	4
645.976	4
646.736	5
647.495	3
648.255	4
649.014	3
649.774	4
650.533	5
651.292	1
652.051	3
652.81	3
653.569	2
654.328	2
655.087	4
655.846	3
656.604	4
657.363	3
658.121	1
658.88	2
659.638	3
660.397	3
661.155	2
661.913	5
662.671	2
663.429	1
664.187	2
664.945	-1
665.703	2
666.46	2
667.218	2
667.976	2
668.733	3
669.49	4
670.248	1
671.005	2
671.762	1
672.519	2
673.276	4
674.033	2
674.79	2
675.547	1
676.304	2
677.06	3
677.817	4
678.574	3
679.33	5
680.086	1
680.843	2
681.599	1
682.355	2
683.111	2
683.867	1
684.623	2
685.379	2
686.135	0
686.89	2
687.646	2
688.402	1
689.157	2
689.912	2
690.668	1
691.423	3
692.178	2
692.933	1
693.688	0
694.443	3
695.198	-1
695.953	2
696.708	4
697.462	2
698.217	4
698.972	1
699.726	0
700.48	4
701.235	2
701.989	2
702.743	1
703.497	3
704.251	0
705.005	-1
705.759	1
706.513	0
707.266	1
708.02	3
708.774	1
709.527	3
710.28	2
711.034	2
711.787	1
712.54	2
713.293	1
714.046	3
714.799	0
715.552	0
716.305	4
717.058	3
717.81	5
718.563	0
719.315	1
720.068	4
720.82	3
721.573	3
722.325	1
723.077	2
723.829	3
724.581	1
725.333	1
726.085	1
726.836	0
727.588	1
728.34	1
729.091	1
729.843	0
730.594	0
731.346	2
732.097	1
732.848	1
733.599	1
734.35	1
735.101	2
735.852	2
736.603	2
737.354	0
738.104	0
738.855	2
739.605	2
740.356	1
741.106	2
741.856	0
742.607	3
743.357	1
744.107	2
744.857	1
745.607	3
746.357	2
747.106	2
747.856	3
748.606	1
749.355	3
750.105	4
750.854	2
751.603	0
752.353	3
753.102	2
753.851	1
754.6	5
755.349	1
756.098	2
756.847	5
757.595	3
758.344	1
759.093	4
759.841	3
760.589	3
761.338	4
762.086	1
762.834	5
763.582	2
764.331	3
765.079	5
765.826	3
766.574	4
767.322	3
768.07	5
768.817	5
769.565	4
770.312	3
771.06	3
771.807	5
772.554	5
773.302	2
774.049	5
774.796	5
775.543	4
776.29	4
777.036	3
777.783	5
778.53	4
779.276	4
780.023	5
780.769	6
781.516	5
782.262	5
783.008	3
783.754	3
784.5	6
785.246	4
785.992	7
786.738	6
787.484	4
788.23	5
788.975	6
789.721	5
790.466	3
791.212	4
791.957	6
792.702	5
793.447	6
794.193	2
794.938	4
795.683	4
796.427	8
797.172	3
797.917	6
798.662	4
799.406	5
800.151	5
800.895	2
801.64	4
802.384	4
803.128	5
803.872	5
804.616	3
805.36	6
806.104	4
806.848	4
807.592	5
808.336	4
809.079	4
809.823	2
810.566	5
811.31	4
812.053	2
812.796	3
813.539	2
814.283	4
815.026	2
815.769	3
816.511	2
817.254	3
817.997	2
818.74	2
819.482	3
820.225	1
820.967	3
821.71	2
822.452	1
823.194	2
823.936	3
824.678	3
825.42	0
826.162	3
826.904	3
827.646	3
828.388	4
829.129	1
829.871	3
830.612	2
831.354	3
832.095	4
832.836	3
833.577	3
834.319	2
835.06	3
835.801	3
836.542	1
837.282	2
838.023	1
838.764	4
839.504	3
840.245	4
840.985	2
841.726	2
842.466	2
843.206	3
843.946	2
844.687	1
845.427	1
846.166	-2
846.906	5
847.646	1
848.386	1
849.125	2
849.865	1
850.605	2
851.344	1
852.083	4
852.823	4
853.562	0
854.301	1
855.04	1
855.779	2
856.518	2
857.257	3
857.995	1
858.734	2
859.473	1
860.211	-2
860.95	1
861.688	3
862.426	0
863.165	3
863.903	3
864.641	2
865.379	-1
866.117	2
866.855	2
867.593	1
868.33	-1
869.068	1
869.806	0
870.543	0
871.28	1
872.018	-2
872.755	3
873.492	0
874.229	0
874.967	1
875.703	-2
876.44	1
877.177	2
877.914	0
878.651	2
879.387	-1
880.124	1
880.86	-1
881.597	1
882.333	1
883.069	1
883.806	-1
884.542	1
885.278	3
886.014	-1
886.749	3
887.485	0
888.221	1
888.957	0
889.692	1
890.428	1
891.163	0
891.899	0
892.634	0
893.369	0
894.104	0
894.839	-1
895.574	0
896.309	0
897.044	0
897.779	-3
898.514	-1
899.248	2
899.983	1
900.717	-2
901.452	1
902.186	1
902.92	1
903.654	1
904.389	1
905.123	0
905.857	-1
906.59	0
907.324	0
908.058	0
908.792	2
909.525	2
910.259	0
910.992	0
911.726	-2
912.459	1
913.192	-2
913.925	-2
914.658	1
915.391	-1
916.124	-2
916.857	0
917.59	3
918.323	-2
919.055	2
919.788	0
920.521	-2
921.253	1
921.985	-1
922.718	0
923.45	2
924.182	0
924.914	-3
925.646	1
926.378	-1
927.11	-1
927.841	3
928.573	0
929.305	1
930.036	3
930.768	0
931.499	1
932.23	1
932.962	1
933.693	-1
934.424	1
935.155	1
935.886	0
936.617	1
937.348	-2
938.078	0
938.809	-1
939.54	0
940.27	1
941.001	-2
941.731	1
942.461	0
943.191	0
943.922	0
944.652	0
945.382	-1
946.112	-2
946.841	2
947.571	-1
948.301	-1
949.031	0
949.76	-1
950.49	1
951.219	-1
951.948	1
952.678	0
953.407	-1
954.136	2
954.865	-1
955.594	2
956.323	0
957.052	0
957.78	-1
958.509	-1
959.238	-1
959.966	0
960.695	1
961.423	0
962.151	-3
962.88	1
963.608	0
964.336	0
965.064	0
965.792	1
966.52	1
967.247	3
967.975	0
968.703	-1
969.43	1
970.158	0
970.885	-1
971.613	1
972.34	0
973.067	0
973.794	1
974.521	0
975.248	-3
975.975	1
976.702	-1
977.429	2
978.156	-1
978.882	-2
979.609	-1
980.335	0
981.062	1
981.788	0
982.514	1
983.24	2
983.967	-2
984.693	0
985.419	-1
986.144	1
986.87	-2
987.596	0
988.322	-1
989.047	-1
989.773	-1
990.498	-2
991.224	-1
991.949	-2
992.674	-1
993.399	0
994.124	-2
994.849	2
995.574	-1
996.299	1
997.024	-1
997.749	-1
998.473	2
999.198	0
999.922	1
1000.647	-1
1001.371	2
1002.095	-2
1002.82	-3
1003.544	-1
1004.268	2
1004.992	-1
1005.716	-4
1006.439	2
1007.163	1
1007.887	1
1008.611	1
1009.334	1
1010.058	-1
1010.781	0
1011.504	-1
1012.228	0
1012.951	0
1013.674	3
1014.397	0
1015.12	1
