节点500_145_QEPB04081__21__11-29-16-816.txt的数据

Date: Wed Nov 12 11:29:16 CST 2025
User: PC
Spectrometer: QEPB0408
触发模式: 0
积分时间 (秒): 1.000000E-2
Scans to average: 1
启用暗噪声校正: true
启用非线性校正: false
滑动平均宽度: 0
X轴模式: Wavelengths
Number of Pixels in Spectrum: 1044
>>>>>Begin Spectral Data<<<<<
220.843	0.5
221.644	-0.5
222.444	-2.5
223.244	-2.5
224.045	-3.5
224.845	-0.5
225.645	-0.5
226.445	1.5
227.245	-3.5
228.045	1.5
228.845	0.5
229.645	1.5
230.444	0.5
231.244	1.5
232.043	0.5
232.843	-0.5
233.642	0.5
234.442	-2.5
235.241	0.5
236.04	1.5
236.839	1.5
237.638	0.5
238.437	1.5
239.236	1.5
240.035	0.5
240.833	-0.5
241.632	0.5
242.43	-0.5
243.229	2.5
244.027	-1.5
244.826	1.5
245.624	1.5
246.422	1.5
247.22	1.5
248.018	2.5
248.816	3.5
249.614	0.5
250.412	2.5
251.21	4.5
252.007	1.5
252.805	5.5
253.602	-1.5
254.4	3.5
255.197	1.5
255.994	4.5
256.791	1.5
257.589	4.5
258.386	3.5
259.183	2.5
259.979	3.5
260.776	3.5
261.573	4.5
262.37	1.5
263.166	6.5
263.963	5.5
264.759	4.5
265.556	4.5
266.352	5.5
267.148	7.5
267.944	6.5
268.74	6.5
269.536	3.5
270.332	6.5
271.128	7.5
271.924	8.5
272.719	7.5
273.515	7.5
274.311	7.5
275.106	5.5
275.901	8.5
276.697	8.5
277.492	9.5
278.287	9.5
279.082	9.5
279.877	10.5
280.672	8.5
281.467	10.5
282.262	11.5
283.056	9.5
283.851	9.5
284.646	10.5
285.44	8.5
286.234	11.5
287.029	10.5
287.823	12.5
288.617	11.5
289.411	10.5
290.205	10.5
290.999	9.5
291.793	10.5
292.587	9.5
293.381	10.5
294.174	10.5
294.968	10.5
295.761	10.5
296.555	9.5
297.348	9.5
298.141	6.5
298.935	7.5
299.728	10.5
300.521	11.5
301.314	9.5
302.107	8.5
302.899	7.5
303.692	5.5
304.485	8.5
305.277	9.5
306.07	7.5
306.862	6.5
307.655	7.5
308.447	7.5
309.239	6.5
310.031	5.5
310.823	5.5
311.615	5.5
312.407	3.5
313.199	5.5
313.991	6.5
314.783	5.5
315.574	4.5
316.366	4.5
317.157	2.5
317.949	5.5
318.74	3.5
319.531	5.5
320.322	5.5
321.113	2.5
321.904	2.5
322.695	5.5
323.486	3.5
324.277	2.5
325.068	5.5
325.858	5.5
326.649	3.5
327.439	1.5
328.23	4.5
329.02	2.5
329.81	3.5
330.6	3.5
331.391	2.5
332.181	1.5
332.971	5.5
333.76	3.5
334.55	4.5
335.34	3.5
336.13	3.5
336.919	0.5
337.709	5.5
338.498	3.5
339.287	2.5
340.077	4.5
340.866	3.5
341.655	2.5
342.444	4.5
343.233	4.5
344.022	1.5
344.811	2.5
345.6	1.5
346.388	2.5
347.177	4.5
347.965	2.5
348.754	2.5
349.542	2.5
350.33	1.5
351.119	1.5
351.907	1.5
352.695	3.5
353.483	4.5
354.271	4.5
355.059	2.5
355.846	-0.5
356.634	1.5
357.422	-0.5
358.209	2.5
358.997	2.5
359.784	-0.5
360.571	0.5
361.359	3.5
362.146	2.5
362.933	2.5
363.72	2.5
364.507	1.5
365.294	1.5
366.081	2.5
366.867	2.5
367.654	0.5
368.44	1.5
369.227	1.5
370.013	1.5
370.8	0.5
371.586	3.5
372.372	1.5
373.158	1.5
373.944	3.5
374.73	-0.5
375.516	0.5
376.302	2.5
377.088	2.5
377.873	1.5
378.659	2.5
379.445	0.5
380.23	0.5
381.015	1.5
381.801	2.5
382.586	3.5
383.371	0.5
384.156	2.5
384.941	3.5
385.726	2.5
386.511	4.5
387.296	1.5
388.08	2.5
388.865	2.5
389.649	2.5
390.434	2.5
391.218	2.5
392.003	2.5
392.787	0.5
393.571	3.5
394.355	0.5
395.139	1.5
395.923	2.5
396.707	1.5
397.491	3.5
398.274	2.5
399.058	4.5
399.842	4.5
400.625	3.5
401.408	3.5
402.192	4.5
402.975	2.5
403.758	4.5
404.541	2.5
405.324	4.5
406.107	2.5
406.89	3.5
407.673	2.5
408.456	4.5
409.238	1.5
410.021	3.5
410.803	3.5
411.586	1.5
412.368	5.5
413.151	3.5
413.933	3.5
414.715	5.5
415.497	5.5
416.279	5.5
417.061	2.5
417.843	3.5
418.624	4.5
419.406	3.5
420.188	5.5
420.969	4.5
421.751	5.5
422.532	5.5
423.313	5.5
424.095	5.5
424.876	4.5
425.657	3.5
426.438	6.5
427.219	4.5
428	6.5
428.78	6.5
429.561	6.5
430.342	6.5
431.122	9.5
431.903	4.5
432.683	6.5
433.464	6.5
434.244	7.5
435.024	7.5
435.804	9.5
436.584	7.5
437.364	8.5
438.144	6.5
438.924	8.5
439.704	12.5
440.483	12.5
441.263	10.5
442.042	13.5
442.822	11.5
443.601	13.5
444.38	17.5
445.16	14.5
445.939	13.5
446.718	17.5
447.497	16.5
448.276	18.5
449.054	18.5
449.833	22.5
450.612	20.5
451.391	21.5
452.169	24.5
452.948	27.5
453.726	30.5
454.504	29.5
455.282	34.5
456.061	42.5
456.839	42.5
457.617	46.5
458.395	50.5
459.172	55.5
459.95	63.5
460.728	69.5
461.506	77.5
462.283	86.5
463.061	98.5
463.838	111.5
464.615	118.5
465.393	141.5
466.17	145.5
466.947	169.5
467.724	187.5
468.501	205.5
469.278	227.5
470.055	263.5
470.831	293.5
471.608	323.5
472.385	359.5
473.161	408.5
473.938	456.5
474.714	510.5
475.49	568.5
476.266	644.5
477.043	696.5
477.819	791.5
478.595	874.5
479.371	967.5
480.146	1072.5
480.922	1204.5
481.698	1332.5
482.473	1481.5
483.249	1664.5
484.024	1852.5
484.8	2017.5
485.575	2257.5
486.35	2527.5
487.126	2794.5
487.901	3101.5
488.676	3442.5
489.451	3827.5
490.225	4234.5
491	4688.5
491.775	5184.5
492.55	5700.5
493.324	6300.5
494.099	6922.5
494.873	7610.5
495.647	8304.5
496.422	9043.5
497.196	9827.5
497.97	10599.5
498.744	11443.5
499.518	12262.5
500.292	13068.5
501.066	13785.5
501.839	14572.5
502.613	15190.5
503.387	15773.5
504.16	16339.5
504.934	16700.5
505.707	16960.5
506.48	17072.5
507.253	17126.5
508.027	17063.5
508.8	16846.5
509.573	16575.5
510.346	16208.5
511.118	15686.5
511.891	15154.5
512.664	14588.5
513.437	13908.5
514.209	13354.5
514.982	12753.5
515.754	12192.5
516.526	11624.5
517.298	11108.5
518.071	10582.5
518.843	10059.5
519.615	9660.5
520.387	9259.5
521.159	8902.5
521.93	8521.5
522.702	8232.5
523.474	7898.5
524.245	7583.5
525.017	7291.5
525.788	7009.5
526.56	6692.5
527.331	6403.5
528.102	6111.5
528.873	5829.5
529.644	5533.5
530.415	5295.5
531.186	4999.5
531.957	4742.5
532.728	4460.5
533.498	4226.5
534.269	4024.5
535.039	3767.5
535.81	3544.5
536.58	3341.5
537.351	3159.5
538.121	2993.5
538.891	2828.5
539.661	2641.5
540.431	2508.5
541.201	2365.5
541.971	2265.5
542.741	2130.5
543.51	2042.5
544.28	1926.5
545.05	1845.5
545.819	1754.5
546.588	1662.5
547.358	1580.5
548.127	1509.5
548.896	1412.5
549.665	1335.5
550.434	1293.5
551.203	1208.5
551.972	1136.5
552.741	1079.5
553.51	1017.5
554.278	948.5
555.047	912.5
555.815	859.5
556.584	807.5
557.352	758.5
558.121	718.5
558.889	668.5
559.657	630.5
560.425	595.5
561.193	556.5
561.961	533.5
562.729	499.5
563.496	483.5
564.264	444.5
565.032	420.5
565.799	405.5
566.567	375.5
567.334	355.5
568.101	334.5
568.869	317.5
569.636	294.5
570.403	288.5
571.17	268.5
571.937	254.5
572.704	234.5
573.471	227.5
574.237	214.5
575.004	197.5
575.771	183.5
576.537	172.5
577.303	161.5
578.07	151.5
578.836	148.5
579.602	139.5
580.368	129.5
581.134	122.5
581.9	117.5
582.666	108.5
583.432	100.5
584.198	95.5
584.964	86.5
585.729	88.5
586.495	83.5
587.26	74.5
588.025	73.5
588.791	70.5
589.556	66.5
590.321	61.5
591.086	60.5
591.851	54.5
592.616	54.5
593.381	53.5
594.146	46.5
594.911	47.5
595.675	41.5
596.44	41.5
597.204	38.5
597.969	34.5
598.733	34.5
599.497	32.5
600.261	33.5
601.025	33.5
601.79	29.5
602.553	25.5
603.317	28.5
604.081	25.5
604.845	22.5
605.609	24.5
606.372	22.5
607.136	19.5
607.899	23.5
608.662	20.5
609.426	18.5
610.189	17.5
610.952	17.5
611.715	18.5
612.478	14.5
613.241	16.5
614.004	13.5
614.767	13.5
615.529	13.5
616.292	13.5
617.055	13.5
617.817	12.5
618.579	11.5
619.342	13.5
620.104	13.5
620.866	11.5
621.628	9.5
622.39	10.5
623.152	7.5
623.914	11.5
624.676	9.5
625.438	10.5
626.199	7.5
626.961	8.5
627.722	8.5
628.484	8.5
629.245	8.5
630.006	7.5
630.768	6.5
631.529	4.5
632.29	6.5
633.051	7.5
633.812	7.5
634.573	9.5
635.333	4.5
636.094	5.5
636.855	6.5
637.615	4.5
638.376	5.5
639.136	3.5
639.896	5.5
640.657	4.5
641.417	2.5
642.177	5.5
642.937	3.5
643.697	3.5
644.457	1.5
645.216	5.5
645.976	5.5
646.736	4.5
647.495	4.5
648.255	5.5
649.014	1.5
649.774	1.5
650.533	4.5
651.292	3.5
652.051	1.5
652.81	6.5
653.569	3.5
654.328	2.5
655.087	0.5
655.846	4.5
656.604	3.5
657.363	3.5
658.121	3.5
658.88	1.5
659.638	3.5
660.397	2.5
661.155	2.5
661.913	2.5
662.671	0.5
663.429	0.5
664.187	1.5
664.945	1.5
665.703	0.5
666.46	4.5
667.218	3.5
667.976	3.5
668.733	1.5
669.49	-0.5
670.248	5.5
671.005	1.5
671.762	1.5
672.519	0.5
673.276	-0.5
674.033	1.5
674.79	1.5
675.547	1.5
676.304	0.5
677.06	3.5
677.817	0.5
678.574	3.5
679.33	1.5
680.086	1.5
680.843	1.5
681.599	4.5
682.355	-0.5
683.111	0.5
683.867	0.5
684.623	0.5
685.379	1.5
686.135	4.5
686.89	0.5
687.646	0.5
688.402	1.5
689.157	-0.5
689.912	0.5
690.668	0.5
691.423	1.5
692.178	-0.5
692.933	1.5
693.688	-0.5
694.443	-0.5
695.198	1.5
695.953	0.5
696.708	3.5
697.462	0.5
698.217	-0.5
698.972	0.5
699.726	-0.5
700.48	0.5
701.235	-0.5
701.989	3.5
702.743	1.5
703.497	1.5
704.251	1.5
705.005	-0.5
705.759	0.5
706.513	-0.5
707.266	1.5
708.02	2.5
708.774	1.5
709.527	2.5
710.28	-0.5
711.034	2.5
711.787	-0.5
712.54	0.5
713.293	0.5
714.046	-0.5
714.799	1.5
715.552	1.5
716.305	3.5
717.058	-0.5
717.81	1.5
718.563	0.5
719.315	0.5
720.068	0.5
720.82	1.5
721.573	2.5
722.325	1.5
723.077	0.5
723.829	1.5
724.581	1.5
725.333	2.5
726.085	0.5
726.836	1.5
727.588	3.5
728.34	1.5
729.091	2.5
729.843	-3.5
730.594	1.5
731.346	0.5
732.097	2.5
732.848	1.5
733.599	1.5
734.35	3.5
735.101	0.5
735.852	3.5
736.603	1.5
737.354	1.5
738.104	1.5
738.855	1.5
739.605	0.5
740.356	1.5
741.106	1.5
741.856	1.5
742.607	1.5
743.357	1.5
744.107	0.5
744.857	3.5
745.607	-0.5
746.357	2.5
747.106	4.5
747.856	0.5
748.606	1.5
749.355	2.5
750.105	1.5
750.854	1.5
751.603	3.5
752.353	1.5
753.102	2.5
753.851	1.5
754.6	1.5
755.349	1.5
756.098	1.5
756.847	4.5
757.595	2.5
758.344	3.5
759.093	0.5
759.841	1.5
760.589	1.5
761.338	1.5
762.086	1.5
762.834	4.5
763.582	0.5
764.331	3.5
765.079	4.5
765.826	2.5
766.574	4.5
767.322	3.5
768.07	2.5
768.817	3.5
769.565	3.5
770.312	3.5
771.06	5.5
771.807	4.5
772.554	5.5
773.302	3.5
774.049	5.5
774.796	3.5
775.543	4.5
776.29	3.5
777.036	6.5
777.783	3.5
778.53	4.5
779.276	3.5
780.023	6.5
780.769	4.5
781.516	4.5
782.262	2.5
783.008	2.5
783.754	4.5
784.5	6.5
785.246	5.5
785.992	3.5
786.738	5.5
787.484	4.5
788.23	7.5
788.975	5.5
789.721	3.5
790.466	4.5
791.212	7.5
791.957	4.5
792.702	3.5
793.447	3.5
794.193	4.5
794.938	4.5
795.683	5.5
796.427	4.5
797.172	5.5
797.917	4.5
798.662	4.5
799.406	5.5
800.151	5.5
800.895	3.5
801.64	2.5
802.384	1.5
803.128	3.5
803.872	3.5
804.616	3.5
805.36	3.5
806.104	4.5
806.848	4.5
807.592	2.5
808.336	4.5
809.079	3.5
809.823	3.5
810.566	3.5
811.31	4.5
812.053	3.5
812.796	3.5
813.539	0.5
814.283	1.5
815.026	2.5
815.769	1.5
816.511	2.5
817.254	1.5
817.997	1.5
818.74	2.5
819.482	3.5
820.225	3.5
820.967	2.5
821.71	4.5
822.452	1.5
823.194	3.5
823.936	-0.5
824.678	1.5
825.42	3.5
826.162	2.5
826.904	0.5
827.646	-1.5
828.388	2.5
829.129	1.5
829.871	1.5
830.612	3.5
831.354	1.5
832.095	4.5
832.836	3.5
833.577	1.5
834.319	1.5
835.06	3.5
835.801	0.5
836.542	2.5
837.282	2.5
838.023	1.5
838.764	0.5
839.504	-0.5
840.245	1.5
840.985	-1.5
841.726	0.5
842.466	0.5
843.206	3.5
843.946	2.5
844.687	-0.5
845.427	1.5
846.166	-2.5
846.906	1.5
847.646	1.5
848.386	1.5
849.125	0.5
849.865	-0.5
850.605	0.5
851.344	1.5
852.083	1.5
852.823	2.5
853.562	1.5
854.301	-0.5
855.04	1.5
855.779	0.5
856.518	-0.5
857.257	2.5
857.995	2.5
858.734	2.5
859.473	4.5
860.211	-1.5
860.95	2.5
861.688	0.5
862.426	0.5
863.165	0.5
863.903	0.5
864.641	-0.5
865.379	-0.5
866.117	-0.5
866.855	0.5
867.593	2.5
868.33	0.5
869.068	0.5
869.806	0.5
870.543	-1.5
871.28	2.5
872.018	-2.5
872.755	0.5
873.492	-0.5
874.229	0.5
874.967	-0.5
875.703	-0.5
876.44	2.5
877.177	1.5
877.914	-2.5
878.651	-0.5
879.387	1.5
880.124	0.5
880.86	1.5
881.597	0.5
882.333	0.5
883.069	-0.5
883.806	1.5
884.542	-0.5
885.278	-0.5
886.014	0.5
886.749	0.5
887.485	0.5
888.221	-0.5
888.957	-1.5
889.692	-0.5
890.428	-1.5
891.163	-0.5
891.899	0.5
892.634	-0.5
893.369	-0.5
894.104	0.5
894.839	0.5
895.574	-1.5
896.309	-0.5
897.044	2.5
897.779	-1.5
898.514	1.5
899.248	1.5
899.983	-0.5
900.717	0.5
901.452	-1.5
902.186	0.5
902.92	-2.5
903.654	0.5
904.389	1.5
905.123	0.5
905.857	-0.5
906.59	0.5
907.324	0.5
908.058	0.5
908.792	-2.5
909.525	-2.5
910.259	0.5
910.992	1.5
911.726	0.5
912.459	0.5
913.192	2.5
913.925	-2.5
914.658	-0.5
915.391	-1.5
916.124	-0.5
916.857	-0.5
917.59	0.5
918.323	-3.5
919.055	-1.5
919.788	0.5
920.521	-0.5
921.253	1.5
921.985	-0.5
922.718	-0.5
923.45	-1.5
924.182	-1.5
924.914	-0.5
925.646	-3.5
926.378	0.5
927.11	-1.5
927.841	-0.5
928.573	0.5
929.305	0.5
930.036	1.5
930.768	-1.5
931.499	0.5
932.23	-1.5
932.962	-3.5
933.693	-0.5
934.424	-1.5
935.155	-0.5
935.886	-0.5
936.617	-0.5
937.348	-0.5
938.078	-2.5
938.809	-1.5
939.54	-1.5
940.27	0.5
941.001	-0.5
941.731	1.5
942.461	-1.5
943.191	2.5
943.922	-2.5
944.652	-0.5
945.382	2.5
946.112	0.5
946.841	-0.5
947.571	-0.5
948.301	-0.5
949.031	0.5
949.76	-2.5
950.49	0.5
951.219	-0.5
951.948	-0.5
952.678	1.5
953.407	-2.5
954.136	0.5
954.865	0.5
955.594	0.5
956.323	0.5
957.052	0.5
957.78	0.5
958.509	-1.5
959.238	-1.5
959.966	-0.5
960.695	-0.5
961.423	0.5
962.151	0.5
962.88	1.5
963.608	-2.5
964.336	-0.5
965.064	-0.5
965.792	0.5
966.52	-1.5
967.247	-0.5
967.975	0.5
968.703	-2.5
969.43	-0.5
970.158	-0.5
970.885	-0.5
971.613	-0.5
972.34	-2.5
973.067	2.5
973.794	-0.5
974.521	0.5
975.248	1.5
975.975	0.5
976.702	-0.5
977.429	-0.5
978.156	-0.5
978.882	0.5
979.609	2.5
980.335	-0.5
981.062	-1.5
981.788	-1.5
982.514	-2.5
983.24	1.5
983.967	-0.5
984.693	-0.5
985.419	-0.5
986.144	-2.5
986.87	1.5
987.596	-2.5
988.322	0.5
989.047	-2.5
989.773	1.5
990.498	-0.5
991.224	-2.5
991.949	-0.5
992.674	0.5
993.399	1.5
994.124	0.5
994.849	-0.5
995.574	1.5
996.299	-0.5
997.024	-1.5
997.749	-1.5
998.473	1.5
999.198	-0.5
999.922	1.5
1000.647	-1.5
1001.371	5.5
1002.095	-2.5
1002.82	0.5
1003.544	-2.5
1004.268	1.5
1004.992	-2.5
1005.716	-2.5
1006.439	0.5
1007.163	-2.5
1007.887	-0.5
1008.611	-0.5
1009.334	-1.5
1010.058	0.5
1010.781	-2.5
1011.504	-0.5
1012.228	-2.5
1012.951	-1.5
1013.674	0.5
1014.397	0.5
1015.12	-0.5
