节点500_145_QEPB04081__377__11-34-58-595.txt的数据

Date: Wed Nov 12 11:34:58 CST 2025
User: PC
Spectrometer: QEPB0408
触发模式: 0
积分时间 (秒): 1.000000E-2
Scans to average: 1
启用暗噪声校正: true
启用非线性校正: false
滑动平均宽度: 0
X轴模式: Wavelengths
Number of Pixels in Spectrum: 1044
>>>>>Begin Spectral Data<<<<<
220.843	-1.75
221.644	0.25
222.444	-0.75
223.244	-1.75
224.045	-0.75
224.845	-1.75
225.645	0.25
226.445	2.25
227.245	-1.75
228.045	-1.75
228.845	0.25
229.645	2.25
230.444	0.25
231.244	0.25
232.043	-1.75
232.843	0.25
233.642	2.25
234.442	1.25
235.241	1.25
236.04	3.25
236.839	0.25
237.638	1.25
238.437	1.25
239.236	2.25
240.035	0.25
240.833	0.25
241.632	1.25
242.43	1.25
243.229	2.25
244.027	2.25
244.826	0.25
245.624	2.25
246.422	1.25
247.22	1.25
248.018	3.25
248.816	1.25
249.614	1.25
250.412	1.25
251.21	2.25
252.007	1.25
252.805	2.25
253.602	1.25
254.4	6.25
255.197	3.25
255.994	1.25
256.791	1.25
257.589	3.25
258.386	1.25
259.183	2.25
259.979	3.25
260.776	5.25
261.573	3.25
262.37	5.25
263.166	5.25
263.963	7.25
264.759	6.25
265.556	9.25
266.352	5.25
267.148	7.25
267.944	4.25
268.74	6.25
269.536	7.25
270.332	7.25
271.128	9.25
271.924	4.25
272.719	6.25
273.515	6.25
274.311	8.25
275.106	7.25
275.901	7.25
276.697	5.25
277.492	9.25
278.287	8.25
279.082	10.25
279.877	10.25
280.672	7.25
281.467	9.25
282.262	9.25
283.056	8.25
283.851	10.25
284.646	10.25
285.44	10.25
286.234	10.25
287.029	10.25
287.823	10.25
288.617	10.25
289.411	11.25
290.205	8.25
290.999	9.25
291.793	11.25
292.587	9.25
293.381	11.25
294.174	8.25
294.968	9.25
295.761	11.25
296.555	8.25
297.348	10.25
298.141	9.25
298.935	10.25
299.728	8.25
300.521	13.25
301.314	9.25
302.107	9.25
302.899	9.25
303.692	8.25
304.485	8.25
305.277	9.25
306.07	5.25
306.862	9.25
307.655	8.25
308.447	6.25
309.239	8.25
310.031	8.25
310.823	8.25
311.615	6.25
312.407	6.25
313.199	7.25
313.991	6.25
314.783	5.25
315.574	5.25
316.366	6.25
317.157	6.25
317.949	3.25
318.74	5.25
319.531	6.25
320.322	4.25
321.113	5.25
321.904	5.25
322.695	4.25
323.486	5.25
324.277	5.25
325.068	3.25
325.858	6.25
326.649	2.25
327.439	4.25
328.23	4.25
329.02	3.25
329.81	4.25
330.6	6.25
331.391	5.25
332.181	2.25
332.971	3.25
333.76	4.25
334.55	4.25
335.34	4.25
336.13	5.25
336.919	2.25
337.709	1.25
338.498	5.25
339.287	3.25
340.077	6.25
340.866	3.25
341.655	2.25
342.444	4.25
343.233	3.25
344.022	3.25
344.811	4.25
345.6	1.25
346.388	2.25
347.177	3.25
347.965	1.25
348.754	4.25
349.542	4.25
350.33	2.25
351.119	3.25
351.907	4.25
352.695	3.25
353.483	4.25
354.271	1.25
355.059	4.25
355.846	2.25
356.634	4.25
357.422	2.25
358.209	2.25
358.997	3.25
359.784	3.25
360.571	1.25
361.359	5.25
362.146	3.25
362.933	1.25
363.72	2.25
364.507	4.25
365.294	1.25
366.081	3.25
366.867	2.25
367.654	4.25
368.44	3.25
369.227	1.25
370.013	2.25
370.8	2.25
371.586	2.25
372.372	3.25
373.158	2.25
373.944	3.25
374.73	1.25
375.516	2.25
376.302	2.25
377.088	2.25
377.873	0.25
378.659	3.25
379.445	2.25
380.23	3.25
381.015	2.25
381.801	2.25
382.586	3.25
383.371	3.25
384.156	3.25
384.941	3.25
385.726	2.25
386.511	2.25
387.296	2.25
388.08	2.25
388.865	3.25
389.649	2.25
390.434	3.25
391.218	1.25
392.003	2.25
392.787	4.25
393.571	4.25
394.355	3.25
395.139	4.25
395.923	3.25
396.707	1.25
397.491	3.25
398.274	2.25
399.058	2.25
399.842	3.25
400.625	5.25
401.408	2.25
402.192	2.25
402.975	3.25
403.758	4.25
404.541	6.25
405.324	4.25
406.107	3.25
406.89	5.25
407.673	4.25
408.456	5.25
409.238	2.25
410.021	5.25
410.803	5.25
411.586	5.25
412.368	5.25
413.151	4.25
413.933	6.25
414.715	4.25
415.497	5.25
416.279	6.25
417.061	5.25
417.843	5.25
418.624	4.25
419.406	7.25
420.188	8.25
420.969	5.25
421.751	4.25
422.532	4.25
423.313	7.25
424.095	7.25
424.876	6.25
425.657	5.25
426.438	4.25
427.219	7.25
428	3.25
428.78	7.25
429.561	6.25
430.342	8.25
431.122	8.25
431.903	7.25
432.683	8.25
433.464	7.25
434.244	9.25
435.024	8.25
435.804	9.25
436.584	8.25
437.364	9.25
438.144	12.25
438.924	11.25
439.704	12.25
440.483	9.25
441.263	12.25
442.042	14.25
442.822	14.25
443.601	16.25
444.38	16.25
445.16	19.25
445.939	15.25
446.718	18.25
447.497	17.25
448.276	20.25
449.054	21.25
449.833	23.25
450.612	27.25
451.391	28.25
452.169	31.25
452.948	31.25
453.726	34.25
454.504	37.25
455.282	41.25
456.061	48.25
456.839	49.25
457.617	57.25
458.395	64.25
459.172	67.25
459.95	78.25
460.728	85.25
461.506	96.25
462.283	109.25
463.061	121.25
463.838	132.25
464.615	144.25
465.393	161.25
466.17	176.25
466.947	199.25
467.724	223.25
468.501	246.25
469.278	280.25
470.055	309.25
470.831	345.25
471.608	384.25
472.385	421.25
473.161	468.25
473.938	513.25
474.714	564.25
475.49	635.25
476.266	706.25
477.043	774.25
477.819	856.25
478.595	945.25
479.371	1044.25
480.146	1153.25
480.922	1261.25
481.698	1405.25
482.473	1551.25
483.249	1701.25
484.024	1860.25
484.8	2052.25
485.575	2269.25
486.35	2497.25
487.126	2745.25
487.901	3027.25
488.676	3296.25
489.451	3630.25
490.225	3963.25
491	4338.25
491.775	4794.25
492.55	5218.25
493.324	5716.25
494.099	6241.25
494.873	6794.25
495.647	7366.25
496.422	8002.25
497.196	8708.25
497.97	9409.25
498.744	10080.25
499.518	10810.25
500.292	11522.25
501.066	12237.25
501.839	12875.25
502.613	13505.25
503.387	14121.25
504.16	14726.25
504.934	15141.25
505.707	15594.25
506.48	15819.25
507.253	16038.25
508.027	16165.25
508.8	16100.25
509.573	16024.25
510.346	15819.25
511.118	15557.25
511.891	15185.25
512.664	14746.25
513.437	14295.25
514.209	13805.25
514.982	13241.25
515.754	12695.25
516.526	12233.25
517.298	11707.25
518.071	11166.25
518.843	10678.25
519.615	10222.25
520.387	9820.25
521.159	9477.25
521.93	9061.25
522.702	8675.25
523.474	8363.25
524.245	8034.25
525.017	7703.25
525.788	7415.25
526.56	7101.25
527.331	6806.25
528.102	6515.25
528.873	6219.25
529.644	5976.25
530.415	5704.25
531.186	5409.25
531.957	5177.25
532.728	4890.25
533.498	4636.25
534.269	4334.25
535.039	4157.25
535.81	3909.25
536.58	3694.25
537.351	3492.25
538.121	3326.25
538.891	3133.25
539.661	2963.25
540.431	2802.25
541.201	2654.25
541.971	2499.25
542.741	2367.25
543.51	2249.25
544.28	2141.25
545.05	2034.25
545.819	1930.25
546.588	1840.25
547.358	1744.25
548.127	1662.25
548.896	1570.25
549.665	1500.25
550.434	1419.25
551.203	1342.25
551.972	1272.25
552.741	1209.25
553.51	1150.25
554.278	1095.25
555.047	1031.25
555.815	967.25
556.584	912.25
557.352	864.25
558.121	820.25
558.889	769.25
559.657	716.25
560.425	675.25
561.193	648.25
561.961	608.25
562.729	571.25
563.496	542.25
564.264	503.25
565.032	486.25
565.799	455.25
566.567	431.25
567.334	402.25
568.101	380.25
568.869	365.25
569.636	341.25
570.403	317.25
571.17	313.25
571.937	284.25
572.704	266.25
573.471	250.25
574.237	236.25
575.004	229.25
575.771	209.25
576.537	195.25
577.303	190.25
578.07	177.25
578.836	163.25
579.602	158.25
580.368	147.25
581.134	139.25
581.9	133.25
582.666	131.25
583.432	120.25
584.198	110.25
584.964	107.25
585.729	105.25
586.495	97.25
587.26	88.25
588.025	85.25
588.791	78.25
589.556	74.25
590.321	74.25
591.086	69.25
591.851	63.25
592.616	62.25
593.381	58.25
594.146	55.25
594.911	53.25
595.675	49.25
596.44	45.25
597.204	48.25
597.969	42.25
598.733	40.25
599.497	39.25
600.261	39.25
601.025	38.25
601.79	33.25
602.553	34.25
603.317	34.25
604.081	28.25
604.845	30.25
605.609	28.25
606.372	24.25
607.136	25.25
607.899	23.25
608.662	23.25
609.426	23.25
610.189	24.25
610.952	19.25
611.715	20.25
612.478	19.25
613.241	18.25
614.004	15.25
614.767	18.25
615.529	18.25
616.292	13.25
617.055	13.25
617.817	18.25
618.579	15.25
619.342	13.25
620.104	15.25
620.866	14.25
621.628	12.25
622.39	15.25
623.152	11.25
623.914	10.25
624.676	13.25
625.438	9.25
626.199	9.25
626.961	9.25
627.722	8.25
628.484	5.25
629.245	9.25
630.006	8.25
630.768	9.25
631.529	10.25
632.29	7.25
633.051	7.25
633.812	9.25
634.573	7.25
635.333	5.25
636.094	6.25
636.855	5.25
637.615	3.25
638.376	5.25
639.136	5.25
639.896	7.25
640.657	7.25
641.417	7.25
642.177	4.25
642.937	6.25
643.697	4.25
644.457	3.25
645.216	5.25
645.976	6.25
646.736	6.25
647.495	4.25
648.255	4.25
649.014	6.25
649.774	5.25
650.533	3.25
651.292	2.25
652.051	4.25
652.81	8.25
653.569	3.25
654.328	4.25
655.087	2.25
655.846	5.25
656.604	4.25
657.363	4.25
658.121	3.25
658.88	3.25
659.638	3.25
660.397	1.25
661.155	4.25
661.913	3.25
662.671	4.25
663.429	2.25
664.187	2.25
664.945	1.25
665.703	4.25
666.46	3.25
667.218	0.25
667.976	4.25
668.733	3.25
669.49	2.25
670.248	2.25
671.005	2.25
671.762	3.25
672.519	2.25
673.276	3.25
674.033	1.25
674.79	1.25
675.547	3.25
676.304	1.25
677.06	2.25
677.817	2.25
678.574	0.25
679.33	1.25
680.086	1.25
680.843	3.25
681.599	2.25
682.355	4.25
683.111	1.25
683.867	1.25
684.623	3.25
685.379	0.25
686.135	5.25
686.89	2.25
687.646	4.25
688.402	3.25
689.157	2.25
689.912	1.25
690.668	1.25
691.423	2.25
692.178	2.25
692.933	1.25
693.688	1.25
694.443	1.25
695.198	1.25
695.953	1.25
696.708	1.25
697.462	3.25
698.217	1.25
698.972	2.25
699.726	0.25
700.48	3.25
701.235	3.25
701.989	3.25
702.743	3.25
703.497	3.25
704.251	2.25
705.005	1.25
705.759	1.25
706.513	2.25
707.266	4.25
708.02	2.25
708.774	1.25
709.527	1.25
710.28	2.25
711.034	2.25
711.787	1.25
712.54	3.25
713.293	2.25
714.046	3.25
714.799	0.25
715.552	2.25
716.305	3.25
717.058	0.25
717.81	3.25
718.563	3.25
719.315	0.25
720.068	1.25
720.82	3.25
721.573	2.25
722.325	3.25
723.077	3.25
723.829	1.25
724.581	4.25
725.333	3.25
726.085	3.25
726.836	2.25
727.588	1.25
728.34	3.25
729.091	2.25
729.843	1.25
730.594	1.25
731.346	1.25
732.097	2.25
732.848	2.25
733.599	3.25
734.35	2.25
735.101	2.25
735.852	0.25
736.603	2.25
737.354	4.25
738.104	1.25
738.855	2.25
739.605	3.25
740.356	4.25
741.106	1.25
741.856	1.25
742.607	2.25
743.357	3.25
744.107	2.25
744.857	1.25
745.607	2.25
746.357	2.25
747.106	1.25
747.856	1.25
748.606	4.25
749.355	5.25
750.105	3.25
750.854	2.25
751.603	0.25
752.353	2.25
753.102	4.25
753.851	1.25
754.6	3.25
755.349	4.25
756.098	3.25
756.847	3.25
757.595	2.25
758.344	4.25
759.093	3.25
759.841	3.25
760.589	5.25
761.338	5.25
762.086	1.25
762.834	2.25
763.582	2.25
764.331	4.25
765.079	3.25
765.826	4.25
766.574	5.25
767.322	4.25
768.07	3.25
768.817	5.25
769.565	3.25
770.312	7.25
771.06	5.25
771.807	4.25
772.554	5.25
773.302	2.25
774.049	4.25
774.796	3.25
775.543	5.25
776.29	2.25
777.036	3.25
777.783	6.25
778.53	6.25
779.276	4.25
780.023	5.25
780.769	5.25
781.516	4.25
782.262	3.25
783.008	4.25
783.754	2.25
784.5	5.25
785.246	6.25
785.992	2.25
786.738	4.25
787.484	5.25
788.23	5.25
788.975	4.25
789.721	6.25
790.466	5.25
791.212	4.25
791.957	6.25
792.702	5.25
793.447	5.25
794.193	4.25
794.938	6.25
795.683	4.25
796.427	2.25
797.172	5.25
797.917	4.25
798.662	6.25
799.406	3.25
800.151	4.25
800.895	5.25
801.64	5.25
802.384	4.25
803.128	5.25
803.872	5.25
804.616	5.25
805.36	6.25
806.104	5.25
806.848	2.25
807.592	2.25
808.336	2.25
809.079	2.25
809.823	2.25
810.566	4.25
811.31	5.25
812.053	5.25
812.796	3.25
813.539	4.25
814.283	5.25
815.026	3.25
815.769	4.25
816.511	1.25
817.254	2.25
817.997	5.25
818.74	1.25
819.482	3.25
820.225	1.25
820.967	4.25
821.71	4.25
822.452	3.25
823.194	2.25
823.936	4.25
824.678	1.25
825.42	2.25
826.162	5.25
826.904	5.25
827.646	3.25
828.388	3.25
829.129	2.25
829.871	3.25
830.612	1.25
831.354	4.25
832.095	2.25
832.836	5.25
833.577	2.25
834.319	4.25
835.06	3.25
835.801	3.25
836.542	1.25
837.282	4.25
838.023	4.25
838.764	4.25
839.504	0.25
840.245	2.25
840.985	2.25
841.726	3.25
842.466	1.25
843.206	2.25
843.946	2.25
844.687	2.25
845.427	3.25
846.166	2.25
846.906	3.25
847.646	2.25
848.386	1.25
849.125	0.25
849.865	1.25
850.605	4.25
851.344	3.25
852.083	3.25
852.823	0.25
853.562	0.25
854.301	4.25
855.04	1.25
855.779	1.25
856.518	1.25
857.257	2.25
857.995	3.25
858.734	-0.75
859.473	1.25
860.211	0.25
860.95	1.25
861.688	2.25
862.426	1.25
863.165	-0.75
863.903	-0.75
864.641	3.25
865.379	1.25
866.117	1.25
866.855	1.25
867.593	2.25
868.33	0.25
869.068	4.25
869.806	0.25
870.543	2.25
871.28	2.25
872.018	2.25
872.755	3.25
873.492	1.25
874.229	2.25
874.967	0.25
875.703	1.25
876.44	2.25
877.177	2.25
877.914	1.25
878.651	0.25
879.387	-1.75
880.124	1.25
880.86	-0.75
881.597	2.25
882.333	1.25
883.069	2.25
883.806	0.25
884.542	-0.75
885.278	2.25
886.014	3.25
886.749	1.25
887.485	0.25
888.221	2.25
888.957	-0.75
889.692	-0.75
890.428	1.25
891.163	-1.75
891.899	1.25
892.634	0.25
893.369	2.25
894.104	0.25
894.839	1.25
895.574	0.25
896.309	1.25
897.044	3.25
897.779	1.25
898.514	1.25
899.248	1.25
899.983	1.25
900.717	1.25
901.452	-2.75
902.186	1.25
902.92	-0.75
903.654	2.25
904.389	2.25
905.123	0.25
905.857	0.25
906.59	-0.75
907.324	1.25
908.058	-1.75
908.792	-1.75
909.525	1.25
910.259	0.25
910.992	1.25
911.726	-1.75
912.459	1.25
913.192	0.25
913.925	-1.75
914.658	0.25
915.391	-1.75
916.124	1.25
916.857	-1.75
917.59	1.25
918.323	1.25
919.055	-1.75
919.788	1.25
920.521	-0.75
921.253	0.25
921.985	0.25
922.718	-1.75
923.45	0.25
924.182	-1.75
924.914	1.25
925.646	-0.75
926.378	2.25
927.11	0.25
927.841	-0.75
928.573	-1.75
929.305	0.25
930.036	1.25
930.768	0.25
931.499	0.25
932.23	2.25
932.962	1.25
933.693	0.25
934.424	-1.75
935.155	1.25
935.886	-0.75
936.617	0.25
937.348	1.25
938.078	0.25
938.809	0.25
939.54	0.25
940.27	2.25
941.001	0.25
941.731	1.25
942.461	-0.75
943.191	-0.75
943.922	0.25
944.652	1.25
945.382	0.25
946.112	-0.75
946.841	1.25
947.571	0.25
948.301	0.25
949.031	1.25
949.76	-0.75
950.49	2.25
951.219	1.25
951.948	0.25
952.678	0.25
953.407	1.25
954.136	0.25
954.865	-1.75
955.594	1.25
956.323	-1.75
957.052	1.25
957.78	-0.75
958.509	-0.75
959.238	2.25
959.966	1.25
960.695	-0.75
961.423	1.25
962.151	-0.75
962.88	1.25
963.608	0.25
964.336	2.25
965.064	0.25
965.792	1.25
966.52	1.25
967.247	0.25
967.975	1.25
968.703	0.25
969.43	1.25
970.158	0.25
970.885	-1.75
971.613	-2.75
972.34	-0.75
973.067	-0.75
973.794	2.25
974.521	-0.75
975.248	1.25
975.975	2.25
976.702	0.25
977.429	-1.75
978.156	0.25
978.882	0.25
979.609	1.25
980.335	0.25
981.062	0.25
981.788	-0.75
982.514	-0.75
983.24	1.25
983.967	1.25
984.693	1.25
985.419	0.25
986.144	0.25
986.87	0.25
987.596	0.25
988.322	1.25
989.047	2.25
989.773	1.25
990.498	-0.75
991.224	3.25
991.949	-1.75
992.674	3.25
993.399	-1.75
994.124	0.25
994.849	0.25
995.574	-1.75
996.299	1.25
997.024	1.25
997.749	-0.75
998.473	-0.75
999.198	0.25
999.922	-0.75
1000.647	-0.75
1001.371	3.25
1002.095	-1.75
1002.82	0.25
1003.544	-2.75
1004.268	-0.75
1004.992	0.25
1005.716	-1.75
1006.439	-2.75
1007.163	1.25
1007.887	-0.75
1008.611	1.25
1009.334	-0.75
1010.058	2.25
1010.781	2.25
1011.504	-0.75
1012.228	1.25
1012.951	-0.75
1013.674	1.25
1014.397	1.25
1015.12	-0.75
