节点500_145_QEPB04081__63__11-29-57-709.txt的数据

Date: Wed Nov 12 11:29:57 CST 2025
User: PC
Spectrometer: QEPB0408
触发模式: 0
积分时间 (秒): 1.000000E-2
Scans to average: 1
启用暗噪声校正: true
启用非线性校正: false
滑动平均宽度: 0
X轴模式: Wavelengths
Number of Pixels in Spectrum: 1044
>>>>>Begin Spectral Data<<<<<
220.843	0
221.644	0
222.444	-1
223.244	1
224.045	-1
224.845	-1
225.645	1
226.445	0
227.245	2
228.045	0
228.845	2
229.645	0
230.444	-2
231.244	1
232.043	1
232.843	0
233.642	1
234.442	1
235.241	0
236.04	1
236.839	0
237.638	0
238.437	1
239.236	-1
240.035	3
240.833	2
241.632	1
242.43	1
243.229	0
244.027	1
244.826	2
245.624	3
246.422	3
247.22	1
248.018	5
248.816	3
249.614	3
250.412	4
251.21	3
252.007	1
252.805	2
253.602	1
254.4	2
255.197	4
255.994	6
256.791	1
257.589	5
258.386	5
259.183	5
259.979	7
260.776	7
261.573	4
262.37	6
263.166	5
263.963	6
264.759	9
265.556	7
266.352	5
267.148	7
267.944	7
268.74	8
269.536	9
270.332	7
271.128	9
271.924	7
272.719	8
273.515	8
274.311	8
275.106	9
275.901	8
276.697	10
277.492	11
278.287	9
279.082	10
279.877	10
280.672	8
281.467	13
282.262	13
283.056	16
283.851	12
284.646	10
285.44	10
286.234	12
287.029	11
287.823	13
288.617	11
289.411	12
290.205	10
290.999	11
291.793	9
292.587	13
293.381	11
294.174	10
294.968	10
295.761	11
296.555	9
297.348	10
298.141	12
298.935	10
299.728	10
300.521	10
301.314	7
302.107	9
302.899	9
303.692	7
304.485	10
305.277	7
306.07	9
306.862	7
307.655	6
308.447	9
309.239	5
310.031	9
310.823	7
311.615	7
312.407	7
313.199	7
313.991	7
314.783	7
315.574	7
316.366	4
317.157	8
317.949	6
318.74	4
319.531	6
320.322	4
321.113	5
321.904	5
322.695	6
323.486	3
324.277	3
325.068	6
325.858	5
326.649	4
327.439	3
328.23	2
329.02	6
329.81	5
330.6	4
331.391	4
332.181	6
332.971	3
333.76	3
334.55	4
335.34	2
336.13	5
336.919	1
337.709	3
338.498	4
339.287	6
340.077	5
340.866	2
341.655	3
342.444	3
343.233	3
344.022	3
344.811	5
345.6	2
346.388	5
347.177	2
347.965	4
348.754	4
349.542	6
350.33	3
351.119	4
351.907	2
352.695	6
353.483	2
354.271	3
355.059	2
355.846	3
356.634	1
357.422	3
358.209	3
358.997	2
359.784	3
360.571	4
361.359	4
362.146	4
362.933	3
363.72	3
364.507	0
365.294	4
366.081	3
366.867	2
367.654	3
368.44	2
369.227	4
370.013	1
370.8	4
371.586	3
372.372	4
373.158	2
373.944	2
374.73	5
375.516	3
376.302	0
377.088	4
377.873	0
378.659	3
379.445	3
380.23	3
381.015	1
381.801	0
382.586	2
383.371	2
384.156	4
384.941	2
385.726	2
386.511	2
387.296	2
388.08	5
388.865	2
389.649	3
390.434	2
391.218	3
392.003	2
392.787	2
393.571	4
394.355	4
395.139	2
395.923	4
396.707	2
397.491	5
398.274	3
399.058	3
399.842	5
400.625	5
401.408	6
402.192	3
402.975	4
403.758	1
404.541	3
405.324	5
406.107	4
406.89	5
407.673	3
408.456	3
409.238	3
410.021	5
410.803	4
411.586	5
412.368	6
413.151	3
413.933	6
414.715	6
415.497	5
416.279	7
417.061	6
417.843	5
418.624	4
419.406	5
420.188	4
420.969	5
421.751	8
422.532	5
423.313	7
424.095	6
424.876	7
425.657	7
426.438	5
427.219	9
428	9
428.78	9
429.561	7
430.342	7
431.122	8
431.903	7
432.683	10
433.464	7
434.244	10
435.024	9
435.804	9
436.584	12
437.364	10
438.144	10
438.924	10
439.704	12
440.483	11
441.263	13
442.042	14
442.822	12
443.601	14
444.38	12
445.16	14
445.939	14
446.718	18
447.497	16
448.276	19
449.054	20
449.833	22
450.612	24
451.391	26
452.169	28
452.948	27
453.726	30
454.504	38
455.282	40
456.061	44
456.839	45
457.617	45
458.395	56
459.172	57
459.95	68
460.728	75
461.506	83
462.283	91
463.061	95
463.838	113
464.615	126
465.393	140
466.17	158
466.947	173
467.724	201
468.501	218
469.278	248
470.055	273
470.831	307
471.608	341
472.385	385
473.161	433
473.938	472
474.714	528
475.49	585
476.266	660
477.043	724
477.819	800
478.595	902
479.371	1003
480.146	1120
480.922	1230
481.698	1379
482.473	1518
483.249	1698
484.024	1870
484.8	2072
485.575	2316
486.35	2557
487.126	2831
487.901	3137
488.676	3461
489.451	3887
490.225	4257
491	4743
491.775	5225
492.55	5750
493.324	6300
494.099	6928
494.873	7585
495.647	8291
496.422	9011
497.196	9837
497.97	10635
498.744	11397
499.518	12206
500.292	13044
501.066	13768
501.839	14532
502.613	15204
503.387	15843
504.16	16375
504.934	16756
505.707	17023
506.48	17265
507.253	17321
508.027	17264
508.8	17103
509.573	16801
510.346	16495
511.118	15995
511.891	15508
512.664	14889
513.437	14282
514.209	13735
514.982	13125
515.754	12562
516.526	11989
517.298	11406
518.071	10869
518.843	10379
519.615	9962
520.387	9516
521.159	9190
521.93	8768
522.702	8437
523.474	8147
524.245	7802
525.017	7494
525.788	7195
526.56	6895
527.331	6617
528.102	6285
528.873	6023
529.644	5722
530.415	5434
531.186	5155
531.957	4910
532.728	4628
533.498	4355
534.269	4134
535.039	3899
535.81	3675
536.58	3465
537.351	3240
538.121	3082
538.891	2922
539.661	2747
540.431	2609
541.201	2454
541.971	2357
542.741	2209
543.51	2089
544.28	1980
545.05	1884
545.819	1797
546.588	1734
547.358	1640
548.127	1545
548.896	1469
549.665	1411
550.434	1333
551.203	1261
551.972	1197
552.741	1130
553.51	1058
554.278	1008
555.047	941
555.815	880
556.584	842
557.352	790
558.121	741
558.889	690
559.657	656
560.425	627
561.193	579
561.961	556
562.729	521
563.496	498
564.264	467
565.032	443
565.799	417
566.567	393
567.334	370
568.101	347
568.869	325
569.636	307
570.403	296
571.17	282
571.937	265
572.704	254
573.471	227
574.237	219
575.004	206
575.771	193
576.537	180
577.303	171
578.07	166
578.836	153
579.602	144
580.368	136
581.134	127
581.9	123
582.666	110
583.432	111
584.198	101
584.964	101
585.729	91
586.495	81
587.26	84
588.025	80
588.791	77
589.556	71
590.321	70
591.086	62
591.851	59
592.616	56
593.381	52
594.146	48
594.911	51
595.675	45
596.44	45
597.204	39
597.969	40
598.733	39
599.497	39
600.261	35
601.025	30
601.79	32
602.553	29
603.317	30
604.081	30
604.845	25
605.609	24
606.372	22
607.136	22
607.899	22
608.662	21
609.426	24
610.189	18
610.952	18
611.715	19
612.478	17
613.241	17
614.004	17
614.767	16
615.529	14
616.292	16
617.055	13
617.817	14
618.579	14
619.342	12
620.104	14
620.866	13
621.628	10
622.39	9
623.152	10
623.914	9
624.676	14
625.438	10
626.199	8
626.961	10
627.722	7
628.484	7
629.245	5
630.006	8
630.768	9
631.529	9
632.29	7
633.051	6
633.812	6
634.573	5
635.333	5
636.094	6
636.855	6
637.615	7
638.376	6
639.136	7
639.896	5
640.657	5
641.417	6
642.177	3
642.937	6
643.697	4
644.457	6
645.216	6
645.976	4
646.736	5
647.495	5
648.255	6
649.014	7
649.774	5
650.533	3
651.292	4
652.051	2
652.81	4
653.569	5
654.328	5
655.087	2
655.846	7
656.604	4
657.363	5
658.121	4
658.88	3
659.638	3
660.397	2
661.155	4
661.913	3
662.671	3
663.429	4
664.187	2
664.945	4
665.703	2
666.46	2
667.218	3
667.976	3
668.733	2
669.49	5
670.248	3
671.005	3
671.762	1
672.519	2
673.276	1
674.033	-1
674.79	3
675.547	3
676.304	2
677.06	4
677.817	0
678.574	2
679.33	3
680.086	2
680.843	3
681.599	4
682.355	3
683.111	2
683.867	1
684.623	3
685.379	1
686.135	1
686.89	4
687.646	3
688.402	2
689.157	2
689.912	0
690.668	1
691.423	3
692.178	1
692.933	5
693.688	2
694.443	2
695.198	3
695.953	1
696.708	1
697.462	-2
698.217	2
698.972	0
699.726	2
700.48	2
701.235	3
701.989	4
702.743	1
703.497	2
704.251	3
705.005	3
705.759	5
706.513	3
707.266	4
708.02	0
708.774	2
709.527	2
710.28	3
711.034	2
711.787	0
712.54	2
713.293	1
714.046	0
714.799	1
715.552	2
716.305	2
717.058	2
717.81	1
718.563	3
719.315	2
720.068	3
720.82	2
721.573	2
722.325	2
723.077	3
723.829	0
724.581	2
725.333	2
726.085	2
726.836	4
727.588	1
728.34	2
729.091	2
729.843	0
730.594	1
731.346	2
732.097	1
732.848	3
733.599	5
734.35	3
735.101	1
735.852	3
736.603	0
737.354	2
738.104	1
738.855	4
739.605	0
740.356	3
741.106	2
741.856	2
742.607	4
743.357	2
744.107	2
744.857	2
745.607	5
746.357	2
747.106	1
747.856	4
748.606	1
749.355	-1
750.105	2
750.854	1
751.603	2
752.353	2
753.102	0
753.851	3
754.6	5
755.349	4
756.098	4
756.847	2
757.595	1
758.344	2
759.093	3
759.841	5
760.589	6
761.338	0
762.086	5
762.834	1
763.582	3
764.331	7
765.079	5
765.826	4
766.574	1
767.322	7
768.07	4
768.817	4
769.565	1
770.312	5
771.06	4
771.807	4
772.554	8
773.302	3
774.049	2
774.796	5
775.543	6
776.29	6
777.036	5
777.783	4
778.53	7
779.276	7
780.023	4
780.769	5
781.516	6
782.262	4
783.008	6
783.754	5
784.5	4
785.246	4
785.992	6
786.738	5
787.484	7
788.23	8
788.975	5
789.721	4
790.466	5
791.212	5
791.957	6
792.702	5
793.447	9
794.193	5
794.938	7
795.683	6
796.427	5
797.172	8
797.917	5
798.662	6
799.406	4
800.151	5
800.895	5
801.64	4
802.384	2
803.128	5
803.872	4
804.616	7
805.36	5
806.104	3
806.848	6
807.592	3
808.336	4
809.079	4
809.823	1
810.566	2
811.31	4
812.053	5
812.796	5
813.539	3
814.283	3
815.026	5
815.769	3
816.511	4
817.254	2
817.997	1
818.74	2
819.482	2
820.225	4
820.967	2
821.71	5
822.452	2
823.194	1
823.936	3
824.678	1
825.42	5
826.162	3
826.904	4
827.646	2
828.388	1
829.129	2
829.871	1
830.612	5
831.354	2
832.095	2
832.836	3
833.577	1
834.319	3
835.06	1
835.801	2
836.542	3
837.282	1
838.023	3
838.764	4
839.504	1
840.245	4
840.985	5
841.726	1
842.466	1
843.206	4
843.946	1
844.687	1
845.427	-1
846.166	4
846.906	-1
847.646	3
848.386	2
849.125	2
849.865	1
850.605	-1
851.344	3
852.083	1
852.823	2
853.562	3
854.301	2
855.04	0
855.779	1
856.518	2
857.257	0
857.995	1
858.734	2
859.473	1
860.211	0
860.95	1
861.688	2
862.426	2
863.165	2
863.903	2
864.641	1
865.379	6
866.117	1
866.855	1
867.593	2
868.33	1
869.068	0
869.806	0
870.543	0
871.28	0
872.018	1
872.755	0
873.492	2
874.229	1
874.967	1
875.703	0
876.44	1
877.177	1
877.914	0
878.651	-1
879.387	1
880.124	1
880.86	0
881.597	-2
882.333	2
883.069	2
883.806	0
884.542	2
885.278	0
886.014	2
886.749	1
887.485	0
888.221	0
888.957	1
889.692	1
890.428	1
891.163	0
891.899	0
892.634	-2
893.369	0
894.104	0
894.839	0
895.574	1
896.309	2
897.044	-1
897.779	1
898.514	1
899.248	1
899.983	-1
900.717	-1
901.452	1
902.186	-1
902.92	0
903.654	0
904.389	2
905.123	3
905.857	-2
906.59	1
907.324	2
908.058	3
908.792	1
909.525	1
910.259	1
910.992	0
911.726	0
912.459	0
913.192	0
913.925	2
914.658	-1
915.391	3
916.124	-3
916.857	2
917.59	0
918.323	0
919.055	2
919.788	-1
920.521	0
921.253	-2
921.985	-1
922.718	1
923.45	1
924.182	-1
924.914	1
925.646	0
926.378	1
927.11	0
927.841	0
928.573	1
929.305	0
930.036	0
930.768	2
931.499	2
932.23	0
932.962	-1
933.693	-2
934.424	1
935.155	1
935.886	2
936.617	0
937.348	-2
938.078	-1
938.809	1
939.54	0
940.27	-2
941.001	-2
941.731	-3
942.461	-3
943.191	0
943.922	-1
944.652	0
945.382	0
946.112	0
946.841	1
947.571	1
948.301	-1
949.031	-1
949.76	1
950.49	-2
951.219	2
951.948	0
952.678	1
953.407	3
954.136	1
954.865	2
955.594	-1
956.323	2
957.052	-1
957.78	1
958.509	0
959.238	-1
959.966	0
960.695	1
961.423	1
962.151	0
962.88	0
963.608	-2
964.336	0
965.064	1
965.792	-2
966.52	1
967.247	0
967.975	1
968.703	1
969.43	0
970.158	0
970.885	2
971.613	1
972.34	-2
973.067	1
973.794	0
974.521	2
975.248	2
975.975	-2
976.702	0
977.429	2
978.156	1
978.882	2
979.609	-2
980.335	0
981.062	1
981.788	1
982.514	0
983.24	-4
983.967	0
984.693	1
985.419	-2
986.144	0
986.87	-1
987.596	-2
988.322	1
989.047	1
989.773	0
990.498	1
991.224	1
991.949	-1
992.674	0
993.399	-1
994.124	1
994.849	0
995.574	2
996.299	1
997.024	-3
997.749	1
998.473	-1
999.198	0
999.922	0
1000.647	1
1001.371	4
1002.095	-1
1002.82	1
1003.544	-3
1004.268	1
1004.992	-2
1005.716	-2
1006.439	1
1007.163	2
1007.887	-1
1008.611	0
1009.334	-1
1010.058	0
1010.781	1
1011.504	-1
1012.228	1
1012.951	-2
1013.674	0
1014.397	0
1015.12	1
