节点500_145_QEPB04081__219__11-32-28-493.txt的数据

Date: Wed Nov 12 11:32:28 CST 2025
User: PC
Spectrometer: QEPB0408
触发模式: 0
积分时间 (秒): 1.000000E-2
Scans to average: 1
启用暗噪声校正: true
启用非线性校正: false
滑动平均宽度: 0
X轴模式: Wavelengths
Number of Pixels in Spectrum: 1044
>>>>>Begin Spectral Data<<<<<
220.843	0.38
221.644	-1.62
222.444	1.38
223.244	-0.62
224.045	1.38
224.845	0.38
225.645	0.38
226.445	-0.62
227.245	3.38
228.045	-1.62
228.845	-0.62
229.645	-0.62
230.444	-2.62
231.244	0.38
232.043	1.38
232.843	1.38
233.642	1.38
234.442	0.38
235.241	1.38
236.04	-0.62
236.839	0.38
237.638	2.38
238.437	0.38
239.236	1.38
240.035	2.38
240.833	1.38
241.632	3.38
242.43	3.38
243.229	-0.62
244.027	3.38
244.826	2.38
245.624	1.38
246.422	2.38
247.22	1.38
248.018	2.38
248.816	1.38
249.614	5.38
250.412	3.38
251.21	1.38
252.007	4.38
252.805	3.38
253.602	1.38
254.4	1.38
255.197	1.38
255.994	4.38
256.791	-0.62
257.589	2.38
258.386	3.38
259.183	6.38
259.979	4.38
260.776	5.38
261.573	2.38
262.37	4.38
263.166	5.38
263.963	3.38
264.759	6.38
265.556	6.38
266.352	5.38
267.148	7.38
267.944	7.38
268.74	6.38
269.536	7.38
270.332	6.38
271.128	8.38
271.924	8.38
272.719	8.38
273.515	8.38
274.311	7.38
275.106	9.38
275.901	9.38
276.697	10.38
277.492	8.38
278.287	10.38
279.082	7.38
279.877	10.38
280.672	10.38
281.467	7.38
282.262	11.38
283.056	10.38
283.851	12.38
284.646	9.38
285.44	11.38
286.234	11.38
287.029	12.38
287.823	11.38
288.617	12.38
289.411	11.38
290.205	10.38
290.999	10.38
291.793	10.38
292.587	11.38
293.381	11.38
294.174	8.38
294.968	9.38
295.761	10.38
296.555	10.38
297.348	10.38
298.141	9.38
298.935	10.38
299.728	8.38
300.521	8.38
301.314	7.38
302.107	7.38
302.899	9.38
303.692	9.38
304.485	9.38
305.277	9.38
306.07	6.38
306.862	9.38
307.655	8.38
308.447	6.38
309.239	10.38
310.031	8.38
310.823	5.38
311.615	7.38
312.407	4.38
313.199	8.38
313.991	5.38
314.783	5.38
315.574	5.38
316.366	4.38
317.157	5.38
317.949	5.38
318.74	5.38
319.531	5.38
320.322	5.38
321.113	4.38
321.904	5.38
322.695	4.38
323.486	5.38
324.277	4.38
325.068	4.38
325.858	3.38
326.649	4.38
327.439	3.38
328.23	5.38
329.02	3.38
329.81	3.38
330.6	4.38
331.391	0.38
332.181	3.38
332.971	3.38
333.76	5.38
334.55	3.38
335.34	3.38
336.13	6.38
336.919	3.38
337.709	4.38
338.498	2.38
339.287	5.38
340.077	3.38
340.866	5.38
341.655	2.38
342.444	0.38
343.233	6.38
344.022	3.38
344.811	5.38
345.6	4.38
346.388	4.38
347.177	4.38
347.965	0.38
348.754	5.38
349.542	4.38
350.33	4.38
351.119	2.38
351.907	2.38
352.695	3.38
353.483	2.38
354.271	6.38
355.059	3.38
355.846	4.38
356.634	4.38
357.422	1.38
358.209	1.38
358.997	1.38
359.784	5.38
360.571	3.38
361.359	2.38
362.146	3.38
362.933	3.38
363.72	3.38
364.507	1.38
365.294	2.38
366.081	2.38
366.867	2.38
367.654	2.38
368.44	1.38
369.227	3.38
370.013	3.38
370.8	1.38
371.586	2.38
372.372	4.38
373.158	4.38
373.944	2.38
374.73	4.38
375.516	0.38
376.302	4.38
377.088	1.38
377.873	1.38
378.659	2.38
379.445	3.38
380.23	1.38
381.015	1.38
381.801	2.38
382.586	5.38
383.371	3.38
384.156	4.38
384.941	1.38
385.726	5.38
386.511	1.38
387.296	1.38
388.08	2.38
388.865	1.38
389.649	4.38
390.434	3.38
391.218	4.38
392.003	2.38
392.787	3.38
393.571	2.38
394.355	7.38
395.139	4.38
395.923	5.38
396.707	2.38
397.491	3.38
398.274	4.38
399.058	5.38
399.842	4.38
400.625	3.38
401.408	2.38
402.192	4.38
402.975	3.38
403.758	5.38
404.541	3.38
405.324	4.38
406.107	5.38
406.89	1.38
407.673	6.38
408.456	5.38
409.238	2.38
410.021	3.38
410.803	6.38
411.586	6.38
412.368	6.38
413.151	6.38
413.933	5.38
414.715	6.38
415.497	5.38
416.279	2.38
417.061	5.38
417.843	4.38
418.624	5.38
419.406	4.38
420.188	4.38
420.969	5.38
421.751	4.38
422.532	4.38
423.313	6.38
424.095	6.38
424.876	4.38
425.657	8.38
426.438	3.38
427.219	4.38
428	7.38
428.78	8.38
429.561	7.38
430.342	8.38
431.122	7.38
431.903	5.38
432.683	7.38
433.464	8.38
434.244	9.38
435.024	10.38
435.804	9.38
436.584	7.38
437.364	9.38
438.144	13.38
438.924	14.38
439.704	12.38
440.483	11.38
441.263	9.38
442.042	12.38
442.822	13.38
443.601	12.38
444.38	13.38
445.16	17.38
445.939	18.38
446.718	17.38
447.497	18.38
448.276	19.38
449.054	20.38
449.833	24.38
450.612	24.38
451.391	28.38
452.169	28.38
452.948	32.38
453.726	33.38
454.504	37.38
455.282	38.38
456.061	42.38
456.839	48.38
457.617	53.38
458.395	57.38
459.172	62.38
459.95	73.38
460.728	83.38
461.506	93.38
462.283	102.38
463.061	116.38
463.838	124.38
464.615	133.38
465.393	154.38
466.17	168.38
466.947	189.38
467.724	208.38
468.501	239.38
469.278	265.38
470.055	296.38
470.831	326.38
471.608	360.38
472.385	409.38
473.161	444.38
473.938	496.38
474.714	560.38
475.49	618.38
476.266	675.38
477.043	753.38
477.819	839.38
478.595	941.38
479.371	1039.38
480.146	1143.38
480.922	1258.38
481.698	1400.38
482.473	1560.38
483.249	1724.38
484.024	1900.38
484.8	2081.38
485.575	2309.38
486.35	2557.38
487.126	2806.38
487.901	3096.38
488.676	3409.38
489.451	3776.38
490.225	4146.38
491	4598.38
491.775	5031.38
492.55	5531.38
493.324	6059.38
494.099	6633.38
494.873	7244.38
495.647	7916.38
496.422	8586.38
497.196	9272.38
497.97	10075.38
498.744	10853.38
499.518	11604.38
500.292	12426.38
501.066	13058.38
501.839	13811.38
502.613	14504.38
503.387	15117.38
504.16	15654.38
504.934	16088.38
505.707	16460.38
506.48	16673.38
507.253	16784.38
508.027	16844.38
508.8	16785.38
509.573	16570.38
510.346	16320.38
511.118	15925.38
511.891	15488.38
512.664	15010.38
513.437	14453.38
514.209	13855.38
514.982	13233.38
515.754	12740.38
516.526	12172.38
517.298	11672.38
518.071	11122.38
518.843	10589.38
519.615	10161.38
520.387	9726.38
521.159	9347.38
521.93	9009.38
522.702	8598.38
523.474	8271.38
524.245	7983.38
525.017	7633.38
525.788	7351.38
526.56	7075.38
527.331	6745.38
528.102	6459.38
528.873	6134.38
529.644	5868.38
530.415	5629.38
531.186	5315.38
531.957	5052.38
532.728	4814.38
533.498	4496.38
534.269	4272.38
535.039	4065.38
535.81	3800.38
536.58	3610.38
537.351	3409.38
538.121	3198.38
538.891	3031.38
539.661	2869.38
540.431	2712.38
541.201	2558.38
541.971	2440.38
542.741	2308.38
543.51	2184.38
544.28	2092.38
545.05	1948.38
545.819	1870.38
546.588	1786.38
547.358	1690.38
548.127	1608.38
548.896	1527.38
549.665	1450.38
550.434	1379.38
551.203	1308.38
551.972	1236.38
552.741	1188.38
553.51	1102.38
554.278	1053.38
555.047	982.38
555.815	926.38
556.584	876.38
557.352	830.38
558.121	782.38
558.889	732.38
559.657	689.38
560.425	649.38
561.193	615.38
561.961	577.38
562.729	548.38
563.496	517.38
564.264	486.38
565.032	464.38
565.799	438.38
566.567	413.38
567.334	393.38
568.101	366.38
568.869	345.38
569.636	333.38
570.403	304.38
571.17	286.38
571.937	275.38
572.704	254.38
573.471	242.38
574.237	232.38
575.004	212.38
575.771	205.38
576.537	191.38
577.303	185.38
578.07	173.38
578.836	159.38
579.602	150.38
580.368	143.38
581.134	136.38
581.9	129.38
582.666	122.38
583.432	116.38
584.198	104.38
584.964	104.38
585.729	95.38
586.495	89.38
587.26	86.38
588.025	83.38
588.791	77.38
589.556	74.38
590.321	69.38
591.086	66.38
591.851	62.38
592.616	59.38
593.381	54.38
594.146	53.38
594.911	51.38
595.675	47.38
596.44	49.38
597.204	39.38
597.969	42.38
598.733	40.38
599.497	38.38
600.261	38.38
601.025	35.38
601.79	28.38
602.553	32.38
603.317	30.38
604.081	29.38
604.845	29.38
605.609	25.38
606.372	25.38
607.136	24.38
607.899	24.38
608.662	20.38
609.426	21.38
610.189	21.38
610.952	18.38
611.715	18.38
612.478	15.38
613.241	16.38
614.004	15.38
614.767	16.38
615.529	13.38
616.292	16.38
617.055	12.38
617.817	13.38
618.579	11.38
619.342	11.38
620.104	13.38
620.866	13.38
621.628	10.38
622.39	10.38
623.152	11.38
623.914	10.38
624.676	11.38
625.438	12.38
626.199	13.38
626.961	9.38
627.722	12.38
628.484	9.38
629.245	9.38
630.006	8.38
630.768	7.38
631.529	5.38
632.29	5.38
633.051	7.38
633.812	7.38
634.573	6.38
635.333	8.38
636.094	5.38
636.855	7.38
637.615	6.38
638.376	5.38
639.136	3.38
639.896	5.38
640.657	5.38
641.417	5.38
642.177	5.38
642.937	4.38
643.697	3.38
644.457	5.38
645.216	4.38
645.976	5.38
646.736	4.38
647.495	4.38
648.255	4.38
649.014	5.38
649.774	2.38
650.533	4.38
651.292	2.38
652.051	5.38
652.81	3.38
653.569	4.38
654.328	7.38
655.087	3.38
655.846	4.38
656.604	2.38
657.363	4.38
658.121	5.38
658.88	3.38
659.638	2.38
660.397	3.38
661.155	3.38
661.913	3.38
662.671	3.38
663.429	3.38
664.187	3.38
664.945	4.38
665.703	-1.62
666.46	1.38
667.218	2.38
667.976	4.38
668.733	1.38
669.49	3.38
670.248	2.38
671.005	0.38
671.762	4.38
672.519	3.38
673.276	2.38
674.033	3.38
674.79	2.38
675.547	2.38
676.304	0.38
677.06	3.38
677.817	2.38
678.574	3.38
679.33	1.38
680.086	1.38
680.843	4.38
681.599	0.38
682.355	3.38
683.111	0.38
683.867	1.38
684.623	1.38
685.379	0.38
686.135	4.38
686.89	0.38
687.646	1.38
688.402	3.38
689.157	1.38
689.912	2.38
690.668	4.38
691.423	2.38
692.178	2.38
692.933	3.38
693.688	2.38
694.443	1.38
695.198	3.38
695.953	2.38
696.708	4.38
697.462	2.38
698.217	1.38
698.972	0.38
699.726	2.38
700.48	2.38
701.235	2.38
701.989	1.38
702.743	1.38
703.497	-0.62
704.251	3.38
705.005	3.38
705.759	4.38
706.513	-1.62
707.266	1.38
708.02	3.38
708.774	1.38
709.527	0.38
710.28	-1.62
711.034	2.38
711.787	3.38
712.54	3.38
713.293	-1.62
714.046	0.38
714.799	1.38
715.552	4.38
716.305	4.38
717.058	0.38
717.81	3.38
718.563	0.38
719.315	1.38
720.068	-0.62
720.82	0.38
721.573	3.38
722.325	1.38
723.077	4.38
723.829	5.38
724.581	1.38
725.333	3.38
726.085	0.38
726.836	2.38
727.588	2.38
728.34	3.38
729.091	3.38
729.843	2.38
730.594	2.38
731.346	1.38
732.097	3.38
732.848	2.38
733.599	0.38
734.35	3.38
735.101	2.38
735.852	5.38
736.603	1.38
737.354	3.38
738.104	0.38
738.855	3.38
739.605	-1.62
740.356	3.38
741.106	3.38
741.856	3.38
742.607	2.38
743.357	2.38
744.107	3.38
744.857	2.38
745.607	-0.62
746.357	4.38
747.106	5.38
747.856	3.38
748.606	3.38
749.355	3.38
750.105	2.38
750.854	2.38
751.603	4.38
752.353	6.38
753.102	3.38
753.851	3.38
754.6	4.38
755.349	3.38
756.098	4.38
756.847	3.38
757.595	2.38
758.344	4.38
759.093	3.38
759.841	4.38
760.589	5.38
761.338	5.38
762.086	4.38
762.834	6.38
763.582	1.38
764.331	2.38
765.079	4.38
765.826	6.38
766.574	3.38
767.322	4.38
768.07	3.38
768.817	4.38
769.565	5.38
770.312	3.38
771.06	4.38
771.807	4.38
772.554	1.38
773.302	2.38
774.049	5.38
774.796	5.38
775.543	7.38
776.29	5.38
777.036	5.38
777.783	4.38
778.53	4.38
779.276	3.38
780.023	5.38
780.769	6.38
781.516	4.38
782.262	4.38
783.008	5.38
783.754	5.38
784.5	5.38
785.246	6.38
785.992	3.38
786.738	6.38
787.484	4.38
788.23	5.38
788.975	5.38
789.721	4.38
790.466	6.38
791.212	3.38
791.957	6.38
792.702	6.38
793.447	5.38
794.193	6.38
794.938	5.38
795.683	6.38
796.427	5.38
797.172	4.38
797.917	5.38
798.662	4.38
799.406	5.38
800.151	4.38
800.895	6.38
801.64	2.38
802.384	4.38
803.128	5.38
803.872	3.38
804.616	5.38
805.36	5.38
806.104	4.38
806.848	3.38
807.592	4.38
808.336	2.38
809.079	3.38
809.823	5.38
810.566	1.38
811.31	4.38
812.053	4.38
812.796	3.38
813.539	5.38
814.283	2.38
815.026	4.38
815.769	0.38
816.511	5.38
817.254	4.38
817.997	4.38
818.74	3.38
819.482	1.38
820.225	2.38
820.967	3.38
821.71	2.38
822.452	4.38
823.194	4.38
823.936	3.38
824.678	0.38
825.42	3.38
826.162	3.38
826.904	4.38
827.646	2.38
828.388	2.38
829.129	1.38
829.871	3.38
830.612	3.38
831.354	3.38
832.095	3.38
832.836	3.38
833.577	2.38
834.319	3.38
835.06	1.38
835.801	2.38
836.542	1.38
837.282	2.38
838.023	4.38
838.764	3.38
839.504	2.38
840.245	2.38
840.985	2.38
841.726	3.38
842.466	4.38
843.206	0.38
843.946	4.38
844.687	3.38
845.427	1.38
846.166	3.38
846.906	0.38
847.646	3.38
848.386	1.38
849.125	2.38
849.865	2.38
850.605	2.38
851.344	2.38
852.083	2.38
852.823	2.38
853.562	2.38
854.301	2.38
855.04	0.38
855.779	2.38
856.518	2.38
857.257	1.38
857.995	3.38
858.734	4.38
859.473	0.38
860.211	0.38
860.95	1.38
861.688	2.38
862.426	1.38
863.165	3.38
863.903	1.38
864.641	2.38
865.379	2.38
866.117	2.38
866.855	2.38
867.593	0.38
868.33	2.38
869.068	1.38
869.806	0.38
870.543	1.38
871.28	1.38
872.018	0.38
872.755	1.38
873.492	1.38
874.229	1.38
874.967	1.38
875.703	2.38
876.44	2.38
877.177	2.38
877.914	-1.62
878.651	0.38
879.387	2.38
880.124	0.38
880.86	0.38
881.597	1.38
882.333	0.38
883.069	1.38
883.806	0.38
884.542	0.38
885.278	-1.62
886.014	1.38
886.749	-0.62
887.485	1.38
888.221	0.38
888.957	0.38
889.692	1.38
890.428	1.38
891.163	1.38
891.899	0.38
892.634	1.38
893.369	0.38
894.104	0.38
894.839	1.38
895.574	0.38
896.309	1.38
897.044	0.38
897.779	2.38
898.514	1.38
899.248	-0.62
899.983	1.38
900.717	0.38
901.452	2.38
902.186	-0.62
902.92	-1.62
903.654	0.38
904.389	1.38
905.123	0.38
905.857	-2.62
906.59	-1.62
907.324	0.38
908.058	-0.62
908.792	-0.62
909.525	0.38
910.259	0.38
910.992	-0.62
911.726	2.38
912.459	-1.62
913.192	2.38
913.925	1.38
914.658	-0.62
915.391	0.38
916.124	2.38
916.857	0.38
917.59	-1.62
918.323	-0.62
919.055	1.38
919.788	1.38
920.521	2.38
921.253	0.38
921.985	-0.62
922.718	0.38
923.45	0.38
924.182	-1.62
924.914	-0.62
925.646	1.38
926.378	-0.62
927.11	0.38
927.841	-0.62
928.573	-1.62
929.305	-0.62
930.036	1.38
930.768	1.38
931.499	-1.62
932.23	-1.62
932.962	1.38
933.693	0.38
934.424	0.38
935.155	0.38
935.886	-0.62
936.617	0.38
937.348	-0.62
938.078	1.38
938.809	-1.62
939.54	1.38
940.27	1.38
941.001	1.38
941.731	-0.62
942.461	1.38
943.191	2.38
943.922	0.38
944.652	0.38
945.382	-0.62
946.112	1.38
946.841	-1.62
947.571	0.38
948.301	1.38
949.031	0.38
949.76	0.38
950.49	-0.62
951.219	1.38
951.948	0.38
952.678	1.38
953.407	2.38
954.136	0.38
954.865	-0.62
955.594	0.38
956.323	-0.62
957.052	0.38
957.78	1.38
958.509	0.38
959.238	1.38
959.966	2.38
960.695	-1.62
961.423	0.38
962.151	0.38
962.88	1.38
963.608	1.38
964.336	-1.62
965.064	1.38
965.792	0.38
966.52	1.38
967.247	0.38
967.975	1.38
968.703	1.38
969.43	-1.62
970.158	0.38
970.885	-0.62
971.613	1.38
972.34	-1.62
973.067	-2.62
973.794	1.38
974.521	2.38
975.248	1.38
975.975	0.38
976.702	0.38
977.429	1.38
978.156	1.38
978.882	0.38
979.609	-1.62
980.335	0.38
981.062	0.38
981.788	2.38
982.514	1.38
983.24	0.38
983.967	1.38
984.693	-1.62
985.419	0.38
986.144	-0.62
986.87	1.38
987.596	1.38
988.322	-0.62
989.047	1.38
989.773	-2.62
990.498	3.38
991.224	0.38
991.949	1.38
992.674	2.38
993.399	0.38
994.124	1.38
994.849	1.38
995.574	0.38
996.299	-0.62
997.024	0.38
997.749	-1.62
998.473	0.38
999.198	-2.62
999.922	0.38
1000.647	0.38
1001.371	3.38
1002.095	-1.62
1002.82	-0.62
1003.544	-2.62
1004.268	3.38
1004.992	-1.62
1005.716	-1.62
1006.439	-0.62
1007.163	0.38
1007.887	0.38
1008.611	-0.62
1009.334	1.38
1010.058	1.38
1010.781	-2.62
1011.504	0.38
1012.228	0.38
1012.951	0.38
1013.674	1.38
1014.397	-0.62
1015.12	0.38
