节点500_145_QEPB04081__515__11-37-07-535.txt的数据

Date: Wed Nov 12 11:37:07 CST 2025
User: PC
Spectrometer: QEPB0408
触发模式: 0
积分时间 (秒): 1.000000E-2
Scans to average: 1
启用暗噪声校正: true
启用非线性校正: false
滑动平均宽度: 0
X轴模式: Wavelengths
Number of Pixels in Spectrum: 1044
>>>>>Begin Spectral Data<<<<<
220.843	0.88
221.644	1.88
222.444	0.88
223.244	1.88
224.045	1.88
224.845	0.88
225.645	1.88
226.445	0.88
227.245	-1.12
228.045	0.88
228.845	1.88
229.645	-0.12
230.444	0.88
231.244	-1.12
232.043	-1.12
232.843	-1.12
233.642	0.88
234.442	-0.12
235.241	0.88
236.04	2.88
236.839	0.88
237.638	0.88
238.437	0.88
239.236	0.88
240.035	0.88
240.833	2.88
241.632	2.88
242.43	2.88
243.229	-1.12
244.027	1.88
244.826	-1.12
245.624	2.88
246.422	1.88
247.22	3.88
248.018	2.88
248.816	0.88
249.614	1.88
250.412	0.88
251.21	2.88
252.007	1.88
252.805	0.88
253.602	2.88
254.4	1.88
255.197	2.88
255.994	3.88
256.791	2.88
257.589	3.88
258.386	4.88
259.183	4.88
259.979	4.88
260.776	4.88
261.573	4.88
262.37	4.88
263.166	3.88
263.963	4.88
264.759	4.88
265.556	5.88
266.352	4.88
267.148	5.88
267.944	6.88
268.74	6.88
269.536	5.88
270.332	6.88
271.128	5.88
271.924	7.88
272.719	6.88
273.515	7.88
274.311	8.88
275.106	9.88
275.901	8.88
276.697	10.88
277.492	7.88
278.287	4.88
279.082	9.88
279.877	7.88
280.672	7.88
281.467	9.88
282.262	10.88
283.056	9.88
283.851	11.88
284.646	10.88
285.44	8.88
286.234	6.88
287.029	11.88
287.823	9.88
288.617	8.88
289.411	10.88
290.205	13.88
290.999	11.88
291.793	9.88
292.587	10.88
293.381	8.88
294.174	12.88
294.968	10.88
295.761	9.88
296.555	9.88
297.348	10.88
298.141	7.88
298.935	8.88
299.728	10.88
300.521	8.88
301.314	7.88
302.107	10.88
302.899	9.88
303.692	9.88
304.485	8.88
305.277	8.88
306.07	8.88
306.862	8.88
307.655	9.88
308.447	6.88
309.239	9.88
310.031	8.88
310.823	7.88
311.615	6.88
312.407	5.88
313.199	9.88
313.991	3.88
314.783	6.88
315.574	4.88
316.366	5.88
317.157	6.88
317.949	4.88
318.74	5.88
319.531	5.88
320.322	4.88
321.113	3.88
321.904	5.88
322.695	3.88
323.486	3.88
324.277	4.88
325.068	4.88
325.858	4.88
326.649	3.88
327.439	5.88
328.23	2.88
329.02	5.88
329.81	4.88
330.6	1.88
331.391	3.88
332.181	4.88
332.971	4.88
333.76	4.88
334.55	2.88
335.34	3.88
336.13	4.88
336.919	3.88
337.709	1.88
338.498	5.88
339.287	2.88
340.077	1.88
340.866	4.88
341.655	1.88
342.444	5.88
343.233	2.88
344.022	2.88
344.811	2.88
345.6	2.88
346.388	0.88
347.177	2.88
347.965	4.88
348.754	3.88
349.542	3.88
350.33	2.88
351.119	2.88
351.907	3.88
352.695	2.88
353.483	3.88
354.271	2.88
355.059	4.88
355.846	2.88
356.634	3.88
357.422	3.88
358.209	1.88
358.997	1.88
359.784	1.88
360.571	4.88
361.359	3.88
362.146	2.88
362.933	3.88
363.72	3.88
364.507	2.88
365.294	3.88
366.081	3.88
366.867	1.88
367.654	2.88
368.44	3.88
369.227	1.88
370.013	3.88
370.8	5.88
371.586	2.88
372.372	3.88
373.158	2.88
373.944	3.88
374.73	1.88
375.516	0.88
376.302	2.88
377.088	3.88
377.873	2.88
378.659	5.88
379.445	3.88
380.23	3.88
381.015	1.88
381.801	4.88
382.586	0.88
383.371	4.88
384.156	2.88
384.941	2.88
385.726	2.88
386.511	2.88
387.296	3.88
388.08	1.88
388.865	3.88
389.649	4.88
390.434	1.88
391.218	2.88
392.003	4.88
392.787	2.88
393.571	1.88
394.355	4.88
395.139	1.88
395.923	4.88
396.707	5.88
397.491	3.88
398.274	2.88
399.058	2.88
399.842	3.88
400.625	4.88
401.408	4.88
402.192	3.88
402.975	2.88
403.758	4.88
404.541	2.88
405.324	3.88
406.107	3.88
406.89	5.88
407.673	3.88
408.456	2.88
409.238	4.88
410.021	4.88
410.803	5.88
411.586	6.88
412.368	4.88
413.151	4.88
413.933	5.88
414.715	5.88
415.497	4.88
416.279	7.88
417.061	6.88
417.843	5.88
418.624	2.88
419.406	4.88
420.188	4.88
420.969	4.88
421.751	5.88
422.532	4.88
423.313	5.88
424.095	5.88
424.876	6.88
425.657	7.88
426.438	6.88
427.219	6.88
428	5.88
428.78	7.88
429.561	6.88
430.342	5.88
431.122	7.88
431.903	8.88
432.683	6.88
433.464	9.88
434.244	8.88
435.024	9.88
435.804	6.88
436.584	10.88
437.364	10.88
438.144	10.88
438.924	9.88
439.704	11.88
440.483	9.88
441.263	10.88
442.042	9.88
442.822	13.88
443.601	14.88
444.38	15.88
445.16	18.88
445.939	17.88
446.718	15.88
447.497	19.88
448.276	20.88
449.054	23.88
449.833	25.88
450.612	25.88
451.391	27.88
452.169	30.88
452.948	34.88
453.726	36.88
454.504	37.88
455.282	42.88
456.061	50.88
456.839	52.88
457.617	57.88
458.395	64.88
459.172	71.88
459.95	76.88
460.728	89.88
461.506	96.88
462.283	111.88
463.061	122.88
463.838	133.88
464.615	148.88
465.393	167.88
466.17	187.88
466.947	209.88
467.724	228.88
468.501	257.88
469.278	291.88
470.055	309.88
470.831	354.88
471.608	392.88
472.385	438.88
473.161	476.88
473.938	528.88
474.714	590.88
475.49	641.88
476.266	718.88
477.043	787.88
477.819	866.88
478.595	963.88
479.371	1063.88
480.146	1154.88
480.922	1263.88
481.698	1398.88
482.473	1545.88
483.249	1700.88
484.024	1839.88
484.8	2032.88
485.575	2223.88
486.35	2435.88
487.126	2687.88
487.901	2968.88
488.676	3217.88
489.451	3531.88
490.225	3879.88
491	4229.88
491.775	4581.88
492.55	5040.88
493.324	5503.88
494.099	5984.88
494.873	6510.88
495.647	7116.88
496.422	7693.88
497.196	8318.88
497.97	8984.88
498.744	9613.88
499.518	10368.88
500.292	11009.88
501.066	11699.88
501.839	12334.88
502.613	12954.88
503.387	13580.88
504.16	14114.88
504.934	14647.88
505.707	14951.88
506.48	15290.88
507.253	15510.88
508.027	15666.88
508.8	15799.88
509.573	15665.88
510.346	15519.88
511.118	15295.88
511.891	15006.88
512.664	14611.88
513.437	14187.88
514.209	13677.88
514.982	13214.88
515.754	12684.88
516.526	12222.88
517.298	11662.88
518.071	11202.88
518.843	10725.88
519.615	10312.88
520.387	9844.88
521.159	9488.88
521.93	9016.88
522.702	8732.88
523.474	8358.88
524.245	8043.88
525.017	7742.88
525.788	7427.88
526.56	7110.88
527.331	6808.88
528.102	6547.88
528.873	6292.88
529.644	5994.88
530.415	5726.88
531.186	5475.88
531.957	5193.88
532.728	4927.88
533.498	4671.88
534.269	4425.88
535.039	4176.88
535.81	3997.88
536.58	3748.88
537.351	3557.88
538.121	3376.88
538.891	3171.88
539.661	3010.88
540.431	2845.88
541.201	2681.88
541.971	2549.88
542.741	2422.88
543.51	2295.88
544.28	2181.88
545.05	2053.88
545.819	1958.88
546.588	1857.88
547.358	1780.88
548.127	1692.88
548.896	1605.88
549.665	1519.88
550.434	1443.88
551.203	1370.88
551.972	1298.88
552.741	1226.88
553.51	1163.88
554.278	1101.88
555.047	1045.88
555.815	990.88
556.584	933.88
557.352	877.88
558.121	833.88
558.889	788.88
559.657	733.88
560.425	698.88
561.193	664.88
561.961	618.88
562.729	583.88
563.496	554.88
564.264	523.88
565.032	496.88
565.799	469.88
566.567	440.88
567.334	417.88
568.101	384.88
568.869	373.88
569.636	348.88
570.403	326.88
571.17	309.88
571.937	298.88
572.704	274.88
573.471	255.88
574.237	244.88
575.004	225.88
575.771	215.88
576.537	210.88
577.303	195.88
578.07	179.88
578.836	173.88
579.602	160.88
580.368	151.88
581.134	142.88
581.9	137.88
582.666	130.88
583.432	121.88
584.198	109.88
584.964	111.88
585.729	101.88
586.495	97.88
587.26	92.88
588.025	86.88
588.791	85.88
589.556	77.88
590.321	75.88
591.086	71.88
591.851	68.88
592.616	66.88
593.381	57.88
594.146	57.88
594.911	53.88
595.675	51.88
596.44	49.88
597.204	46.88
597.969	43.88
598.733	43.88
599.497	44.88
600.261	39.88
601.025	37.88
601.79	35.88
602.553	34.88
603.317	30.88
604.081	29.88
604.845	29.88
605.609	29.88
606.372	28.88
607.136	23.88
607.899	23.88
608.662	25.88
609.426	24.88
610.189	20.88
610.952	22.88
611.715	19.88
612.478	23.88
613.241	19.88
614.004	15.88
614.767	17.88
615.529	17.88
616.292	17.88
617.055	17.88
617.817	14.88
618.579	16.88
619.342	14.88
620.104	12.88
620.866	13.88
621.628	13.88
622.39	11.88
623.152	10.88
623.914	9.88
624.676	12.88
625.438	11.88
626.199	8.88
626.961	9.88
627.722	8.88
628.484	9.88
629.245	8.88
630.006	9.88
630.768	8.88
631.529	10.88
632.29	10.88
633.051	7.88
633.812	6.88
634.573	5.88
635.333	7.88
636.094	7.88
636.855	7.88
637.615	8.88
638.376	5.88
639.136	5.88
639.896	5.88
640.657	8.88
641.417	7.88
642.177	4.88
642.937	6.88
643.697	4.88
644.457	3.88
645.216	3.88
645.976	5.88
646.736	5.88
647.495	4.88
648.255	5.88
649.014	5.88
649.774	4.88
650.533	3.88
651.292	2.88
652.051	5.88
652.81	5.88
653.569	2.88
654.328	4.88
655.087	2.88
655.846	3.88
656.604	5.88
657.363	5.88
658.121	3.88
658.88	3.88
659.638	3.88
660.397	5.88
661.155	3.88
661.913	3.88
662.671	2.88
663.429	1.88
664.187	2.88
664.945	4.88
665.703	3.88
666.46	1.88
667.218	3.88
667.976	3.88
668.733	3.88
669.49	5.88
670.248	1.88
671.005	0.88
671.762	2.88
672.519	2.88
673.276	1.88
674.033	1.88
674.79	2.88
675.547	1.88
676.304	4.88
677.06	1.88
677.817	2.88
678.574	2.88
679.33	3.88
680.086	2.88
680.843	3.88
681.599	1.88
682.355	2.88
683.111	4.88
683.867	1.88
684.623	0.88
685.379	2.88
686.135	3.88
686.89	1.88
687.646	3.88
688.402	1.88
689.157	2.88
689.912	3.88
690.668	3.88
691.423	2.88
692.178	1.88
692.933	0.88
693.688	2.88
694.443	1.88
695.198	-0.12
695.953	1.88
696.708	1.88
697.462	4.88
698.217	2.88
698.972	4.88
699.726	3.88
700.48	2.88
701.235	2.88
701.989	1.88
702.743	0.88
703.497	3.88
704.251	3.88
705.005	1.88
705.759	1.88
706.513	4.88
707.266	1.88
708.02	3.88
708.774	1.88
709.527	3.88
710.28	3.88
711.034	0.88
711.787	3.88
712.54	2.88
713.293	1.88
714.046	2.88
714.799	1.88
715.552	2.88
716.305	2.88
717.058	2.88
717.81	1.88
718.563	-0.12
719.315	2.88
720.068	3.88
720.82	2.88
721.573	1.88
722.325	4.88
723.077	2.88
723.829	0.88
724.581	-1.12
725.333	2.88
726.085	1.88
726.836	1.88
727.588	2.88
728.34	1.88
729.091	2.88
729.843	0.88
730.594	2.88
731.346	3.88
732.097	2.88
732.848	1.88
733.599	1.88
734.35	0.88
735.101	0.88
735.852	2.88
736.603	2.88
737.354	0.88
738.104	2.88
738.855	0.88
739.605	4.88
740.356	1.88
741.106	3.88
741.856	2.88
742.607	2.88
743.357	1.88
744.107	3.88
744.857	3.88
745.607	2.88
746.357	3.88
747.106	2.88
747.856	0.88
748.606	3.88
749.355	3.88
750.105	1.88
750.854	0.88
751.603	1.88
752.353	1.88
753.102	3.88
753.851	2.88
754.6	0.88
755.349	5.88
756.098	1.88
756.847	1.88
757.595	2.88
758.344	2.88
759.093	4.88
759.841	3.88
760.589	3.88
761.338	1.88
762.086	3.88
762.834	4.88
763.582	1.88
764.331	5.88
765.079	4.88
765.826	3.88
766.574	4.88
767.322	1.88
768.07	4.88
768.817	2.88
769.565	6.88
770.312	4.88
771.06	6.88
771.807	3.88
772.554	3.88
773.302	5.88
774.049	4.88
774.796	2.88
775.543	2.88
776.29	3.88
777.036	3.88
777.783	3.88
778.53	5.88
779.276	2.88
780.023	5.88
780.769	7.88
781.516	5.88
782.262	4.88
783.008	3.88
783.754	5.88
784.5	3.88
785.246	6.88
785.992	5.88
786.738	2.88
787.484	4.88
788.23	3.88
788.975	4.88
789.721	6.88
790.466	5.88
791.212	4.88
791.957	3.88
792.702	5.88
793.447	3.88
794.193	4.88
794.938	4.88
795.683	4.88
796.427	5.88
797.172	4.88
797.917	5.88
798.662	1.88
799.406	6.88
800.151	7.88
800.895	5.88
801.64	4.88
802.384	4.88
803.128	5.88
803.872	2.88
804.616	6.88
805.36	3.88
806.104	6.88
806.848	4.88
807.592	4.88
808.336	2.88
809.079	3.88
809.823	5.88
810.566	2.88
811.31	3.88
812.053	6.88
812.796	6.88
813.539	4.88
814.283	3.88
815.026	6.88
815.769	2.88
816.511	6.88
817.254	4.88
817.997	2.88
818.74	2.88
819.482	4.88
820.225	5.88
820.967	3.88
821.71	3.88
822.452	1.88
823.194	0.88
823.936	5.88
824.678	1.88
825.42	3.88
826.162	4.88
826.904	3.88
827.646	2.88
828.388	3.88
829.129	4.88
829.871	2.88
830.612	2.88
831.354	2.88
832.095	2.88
832.836	4.88
833.577	1.88
834.319	2.88
835.06	2.88
835.801	5.88
836.542	2.88
837.282	1.88
838.023	2.88
838.764	1.88
839.504	2.88
840.245	2.88
840.985	1.88
841.726	2.88
842.466	3.88
843.206	3.88
843.946	1.88
844.687	1.88
845.427	4.88
846.166	2.88
846.906	2.88
847.646	2.88
848.386	3.88
849.125	3.88
849.865	6.88
850.605	2.88
851.344	1.88
852.083	2.88
852.823	1.88
853.562	1.88
854.301	2.88
855.04	1.88
855.779	1.88
856.518	0.88
857.257	-0.12
857.995	2.88
858.734	2.88
859.473	-0.12
860.211	3.88
860.95	1.88
861.688	1.88
862.426	2.88
863.165	2.88
863.903	0.88
864.641	1.88
865.379	1.88
866.117	3.88
866.855	1.88
867.593	0.88
868.33	-0.12
869.068	1.88
869.806	-0.12
870.543	1.88
871.28	1.88
872.018	-0.12
872.755	4.88
873.492	1.88
874.229	2.88
874.967	2.88
875.703	2.88
876.44	1.88
877.177	0.88
877.914	1.88
878.651	1.88
879.387	0.88
880.124	0.88
880.86	1.88
881.597	0.88
882.333	1.88
883.069	-0.12
883.806	1.88
884.542	0.88
885.278	1.88
886.014	1.88
886.749	0.88
887.485	2.88
888.221	0.88
888.957	-0.12
889.692	4.88
890.428	-1.12
891.163	2.88
891.899	1.88
892.634	-0.12
893.369	0.88
894.104	0.88
894.839	2.88
895.574	0.88
896.309	-1.12
897.044	0.88
897.779	-0.12
898.514	-0.12
899.248	0.88
899.983	1.88
900.717	2.88
901.452	-1.12
902.186	1.88
902.92	1.88
903.654	0.88
904.389	-0.12
905.123	-0.12
905.857	-1.12
906.59	1.88
907.324	-0.12
908.058	-0.12
908.792	1.88
909.525	-1.12
910.259	0.88
910.992	3.88
911.726	-0.12
912.459	2.88
913.192	-0.12
913.925	1.88
914.658	-1.12
915.391	1.88
916.124	0.88
916.857	-1.12
917.59	-0.12
918.323	0.88
919.055	0.88
919.788	0.88
920.521	-1.12
921.253	-0.12
921.985	-2.12
922.718	0.88
923.45	-0.12
924.182	0.88
924.914	-0.12
925.646	0.88
926.378	0.88
927.11	-1.12
927.841	1.88
928.573	0.88
929.305	-0.12
930.036	-1.12
930.768	-0.12
931.499	1.88
932.23	-0.12
932.962	-0.12
933.693	-0.12
934.424	-0.12
935.155	0.88
935.886	0.88
936.617	-0.12
937.348	1.88
938.078	1.88
938.809	-0.12
939.54	0.88
940.27	0.88
941.001	1.88
941.731	0.88
942.461	1.88
943.191	0.88
943.922	0.88
944.652	-0.12
945.382	-0.12
946.112	-1.12
946.841	0.88
947.571	-0.12
948.301	0.88
949.031	0.88
949.76	1.88
950.49	2.88
951.219	0.88
951.948	1.88
952.678	-0.12
953.407	0.88
954.136	1.88
954.865	-0.12
955.594	-0.12
956.323	-1.12
957.052	1.88
957.78	1.88
958.509	1.88
959.238	-0.12
959.966	-0.12
960.695	0.88
961.423	0.88
962.151	-1.12
962.88	0.88
963.608	2.88
964.336	-2.12
965.064	1.88
965.792	1.88
966.52	0.88
967.247	-0.12
967.975	0.88
968.703	0.88
969.43	-1.12
970.158	0.88
970.885	0.88
971.613	-0.12
972.34	-0.12
973.067	-1.12
973.794	-0.12
974.521	1.88
975.248	0.88
975.975	-0.12
976.702	1.88
977.429	0.88
978.156	-1.12
978.882	-1.12
979.609	-0.12
980.335	0.88
981.062	-0.12
981.788	3.88
982.514	1.88
983.24	-0.12
983.967	0.88
984.693	2.88
985.419	-2.12
986.144	0.88
986.87	0.88
987.596	1.88
988.322	-0.12
989.047	-0.12
989.773	1.88
990.498	1.88
991.224	1.88
991.949	0.88
992.674	1.88
993.399	0.88
994.124	0.88
994.849	0.88
995.574	-0.12
996.299	1.88
997.024	-1.12
997.749	0.88
998.473	1.88
999.198	-1.12
999.922	0.88
1000.647	0.88
1001.371	1.88
1002.095	-0.12
1002.82	-0.12
1003.544	-2.12
1004.268	0.88
1004.992	-1.12
1005.716	-3.12
1006.439	-1.12
1007.163	1.88
1007.887	0.88
1008.611	0.88
1009.334	1.88
1010.058	-0.12
1010.781	-2.12
1011.504	-0.12
1012.228	0.88
1012.951	-1.12
1013.674	0.88
1014.397	0.88
1015.12	-0.12
