节点500_145_QEPB04081__304__11-33-50-436.txt的数据

Date: Wed Nov 12 11:33:50 CST 2025
User: PC
Spectrometer: QEPB0408
触发模式: 0
积分时间 (秒): 1.000000E-2
Scans to average: 1
启用暗噪声校正: true
启用非线性校正: false
滑动平均宽度: 0
X轴模式: Wavelengths
Number of Pixels in Spectrum: 1044
>>>>>Begin Spectral Data<<<<<
220.843	-0.12
221.644	-0.12
222.444	-0.12
223.244	-1.12
224.045	0.88
224.845	-1.12
225.645	-0.12
226.445	-3.12
227.245	1.88
228.045	1.88
228.845	-0.12
229.645	0.88
230.444	0.88
231.244	-0.12
232.043	-1.12
232.843	0.88
233.642	-1.12
234.442	0.88
235.241	1.88
236.04	0.88
236.839	3.88
237.638	0.88
238.437	-0.12
239.236	0.88
240.035	0.88
240.833	2.88
241.632	0.88
242.43	0.88
243.229	-1.12
244.027	1.88
244.826	2.88
245.624	1.88
246.422	0.88
247.22	-0.12
248.018	0.88
248.816	0.88
249.614	0.88
250.412	0.88
251.21	0.88
252.007	1.88
252.805	0.88
253.602	2.88
254.4	3.88
255.197	2.88
255.994	2.88
256.791	1.88
257.589	4.88
258.386	0.88
259.183	4.88
259.979	2.88
260.776	4.88
261.573	4.88
262.37	4.88
263.166	6.88
263.963	3.88
264.759	3.88
265.556	6.88
266.352	6.88
267.148	4.88
267.944	6.88
268.74	5.88
269.536	5.88
270.332	5.88
271.128	7.88
271.924	8.88
272.719	7.88
273.515	8.88
274.311	8.88
275.106	8.88
275.901	9.88
276.697	11.88
277.492	7.88
278.287	6.88
279.082	7.88
279.877	8.88
280.672	11.88
281.467	8.88
282.262	10.88
283.056	10.88
283.851	9.88
284.646	8.88
285.44	11.88
286.234	9.88
287.029	10.88
287.823	10.88
288.617	8.88
289.411	8.88
290.205	9.88
290.999	10.88
291.793	7.88
292.587	10.88
293.381	8.88
294.174	9.88
294.968	11.88
295.761	8.88
296.555	9.88
297.348	8.88
298.141	9.88
298.935	9.88
299.728	11.88
300.521	7.88
301.314	6.88
302.107	8.88
302.899	7.88
303.692	9.88
304.485	7.88
305.277	7.88
306.07	6.88
306.862	7.88
307.655	6.88
308.447	7.88
309.239	6.88
310.031	5.88
310.823	6.88
311.615	5.88
312.407	5.88
313.199	8.88
313.991	5.88
314.783	6.88
315.574	4.88
316.366	4.88
317.157	5.88
317.949	3.88
318.74	5.88
319.531	3.88
320.322	4.88
321.113	1.88
321.904	6.88
322.695	1.88
323.486	-0.12
324.277	6.88
325.068	3.88
325.858	2.88
326.649	4.88
327.439	2.88
328.23	4.88
329.02	1.88
329.81	3.88
330.6	4.88
331.391	4.88
332.181	3.88
332.971	2.88
333.76	4.88
334.55	3.88
335.34	3.88
336.13	3.88
336.919	1.88
337.709	2.88
338.498	2.88
339.287	3.88
340.077	2.88
340.866	1.88
341.655	1.88
342.444	2.88
343.233	1.88
344.022	1.88
344.811	2.88
345.6	2.88
346.388	2.88
347.177	2.88
347.965	3.88
348.754	2.88
349.542	1.88
350.33	2.88
351.119	2.88
351.907	3.88
352.695	1.88
353.483	0.88
354.271	3.88
355.059	2.88
355.846	2.88
356.634	0.88
357.422	2.88
358.209	4.88
358.997	3.88
359.784	2.88
360.571	0.88
361.359	4.88
362.146	3.88
362.933	2.88
363.72	1.88
364.507	4.88
365.294	1.88
366.081	1.88
366.867	2.88
367.654	0.88
368.44	3.88
369.227	4.88
370.013	2.88
370.8	3.88
371.586	2.88
372.372	1.88
373.158	0.88
373.944	0.88
374.73	2.88
375.516	0.88
376.302	2.88
377.088	1.88
377.873	2.88
378.659	0.88
379.445	0.88
380.23	0.88
381.015	1.88
381.801	3.88
382.586	1.88
383.371	0.88
384.156	1.88
384.941	2.88
385.726	1.88
386.511	1.88
387.296	4.88
388.08	4.88
388.865	4.88
389.649	2.88
390.434	1.88
391.218	2.88
392.003	0.88
392.787	3.88
393.571	0.88
394.355	0.88
395.139	2.88
395.923	2.88
396.707	3.88
397.491	0.88
398.274	2.88
399.058	3.88
399.842	2.88
400.625	3.88
401.408	2.88
402.192	3.88
402.975	4.88
403.758	3.88
404.541	3.88
405.324	2.88
406.107	3.88
406.89	3.88
407.673	1.88
408.456	3.88
409.238	2.88
410.021	3.88
410.803	6.88
411.586	5.88
412.368	4.88
413.151	3.88
413.933	0.88
414.715	6.88
415.497	0.88
416.279	4.88
417.061	2.88
417.843	3.88
418.624	2.88
419.406	3.88
420.188	5.88
420.969	5.88
421.751	5.88
422.532	4.88
423.313	3.88
424.095	6.88
424.876	4.88
425.657	5.88
426.438	6.88
427.219	6.88
428	3.88
428.78	6.88
429.561	7.88
430.342	4.88
431.122	8.88
431.903	7.88
432.683	7.88
433.464	8.88
434.244	7.88
435.024	8.88
435.804	9.88
436.584	6.88
437.364	8.88
438.144	9.88
438.924	8.88
439.704	9.88
440.483	10.88
441.263	10.88
442.042	13.88
442.822	12.88
443.601	11.88
444.38	14.88
445.16	15.88
445.939	15.88
446.718	15.88
447.497	18.88
448.276	18.88
449.054	20.88
449.833	22.88
450.612	22.88
451.391	26.88
452.169	28.88
452.948	29.88
453.726	35.88
454.504	36.88
455.282	37.88
456.061	47.88
456.839	48.88
457.617	54.88
458.395	57.88
459.172	65.88
459.95	73.88
460.728	82.88
461.506	89.88
462.283	99.88
463.061	114.88
463.838	126.88
464.615	135.88
465.393	154.88
466.17	171.88
466.947	195.88
467.724	216.88
468.501	240.88
469.278	265.88
470.055	298.88
470.831	328.88
471.608	371.88
472.385	417.88
473.161	457.88
473.938	513.88
474.714	556.88
475.49	620.88
476.266	694.88
477.043	767.88
477.819	850.88
478.595	944.88
479.371	1056.88
480.146	1153.88
480.922	1280.88
481.698	1399.88
482.473	1553.88
483.249	1692.88
484.024	1890.88
484.8	2080.88
485.575	2299.88
486.35	2517.88
487.126	2762.88
487.901	3050.88
488.676	3342.88
489.451	3687.88
490.225	4059.88
491	4462.88
491.775	4895.88
492.55	5354.88
493.324	5902.88
494.099	6399.88
494.873	6949.88
495.647	7617.88
496.422	8272.88
497.196	8956.88
497.97	9645.88
498.744	10387.88
499.518	11174.88
500.292	11886.88
501.066	12605.88
501.839	13273.88
502.613	13976.88
503.387	14569.88
504.16	15121.88
504.934	15585.88
505.707	15961.88
506.48	16285.88
507.253	16432.88
508.027	16447.88
508.8	16439.88
509.573	16209.88
510.346	16012.88
511.118	15744.88
511.891	15307.88
512.664	14863.88
513.437	14322.88
514.209	13794.88
514.982	13289.88
515.754	12744.88
516.526	12177.88
517.298	11680.88
518.071	11109.88
518.843	10630.88
519.615	10203.88
520.387	9772.88
521.159	9396.88
521.93	8996.88
522.702	8596.88
523.474	8295.88
524.245	7984.88
525.017	7630.88
525.788	7351.88
526.56	7050.88
527.331	6752.88
528.102	6439.88
528.873	6225.88
529.644	5900.88
530.415	5639.88
531.186	5366.88
531.957	5111.88
532.728	4837.88
533.498	4578.88
534.269	4340.88
535.039	4116.88
535.81	3883.88
536.58	3663.88
537.351	3477.88
538.121	3257.88
538.891	3065.88
539.661	2913.88
540.431	2749.88
541.201	2623.88
541.971	2478.88
542.741	2346.88
543.51	2216.88
544.28	2106.88
545.05	1986.88
545.819	1908.88
546.588	1822.88
547.358	1719.88
548.127	1644.88
548.896	1552.88
549.665	1481.88
550.434	1392.88
551.203	1320.88
551.972	1258.88
552.741	1191.88
553.51	1141.88
554.278	1064.88
555.047	1000.88
555.815	950.88
556.584	891.88
557.352	840.88
558.121	801.88
558.889	761.88
559.657	695.88
560.425	665.88
561.193	627.88
561.961	589.88
562.729	559.88
563.496	539.88
564.264	499.88
565.032	467.88
565.799	449.88
566.567	423.88
567.334	395.88
568.101	380.88
568.869	345.88
569.636	327.88
570.403	315.88
571.17	298.88
571.937	281.88
572.704	265.88
573.471	249.88
574.237	233.88
575.004	217.88
575.771	203.88
576.537	197.88
577.303	180.88
578.07	170.88
578.836	158.88
579.602	158.88
580.368	141.88
581.134	135.88
581.9	127.88
582.666	120.88
583.432	113.88
584.198	110.88
584.964	104.88
585.729	97.88
586.495	95.88
587.26	90.88
588.025	83.88
588.791	76.88
589.556	71.88
590.321	69.88
591.086	67.88
591.851	61.88
592.616	63.88
593.381	56.88
594.146	54.88
594.911	51.88
595.675	46.88
596.44	46.88
597.204	40.88
597.969	45.88
598.733	40.88
599.497	38.88
600.261	36.88
601.025	33.88
601.79	30.88
602.553	28.88
603.317	31.88
604.081	28.88
604.845	26.88
605.609	27.88
606.372	25.88
607.136	24.88
607.899	20.88
608.662	23.88
609.426	21.88
610.189	17.88
610.952	20.88
611.715	17.88
612.478	17.88
613.241	14.88
614.004	16.88
614.767	17.88
615.529	15.88
616.292	13.88
617.055	12.88
617.817	12.88
618.579	13.88
619.342	12.88
620.104	10.88
620.866	9.88
621.628	10.88
622.39	10.88
623.152	9.88
623.914	10.88
624.676	8.88
625.438	9.88
626.199	10.88
626.961	10.88
627.722	5.88
628.484	7.88
629.245	9.88
630.006	8.88
630.768	7.88
631.529	4.88
632.29	6.88
633.051	6.88
633.812	8.88
634.573	3.88
635.333	7.88
636.094	6.88
636.855	3.88
637.615	4.88
638.376	6.88
639.136	5.88
639.896	4.88
640.657	4.88
641.417	5.88
642.177	5.88
642.937	4.88
643.697	2.88
644.457	3.88
645.216	2.88
645.976	5.88
646.736	3.88
647.495	2.88
648.255	4.88
649.014	2.88
649.774	4.88
650.533	2.88
651.292	4.88
652.051	5.88
652.81	4.88
653.569	4.88
654.328	2.88
655.087	2.88
655.846	1.88
656.604	1.88
657.363	1.88
658.121	2.88
658.88	1.88
659.638	0.88
660.397	4.88
661.155	1.88
661.913	4.88
662.671	1.88
663.429	3.88
664.187	4.88
664.945	2.88
665.703	1.88
666.46	3.88
667.218	1.88
667.976	3.88
668.733	2.88
669.49	0.88
670.248	3.88
671.005	4.88
671.762	1.88
672.519	0.88
673.276	1.88
674.033	1.88
674.79	3.88
675.547	1.88
676.304	3.88
677.06	0.88
677.817	1.88
678.574	1.88
679.33	4.88
680.086	2.88
680.843	1.88
681.599	5.88
682.355	2.88
683.111	0.88
683.867	0.88
684.623	0.88
685.379	1.88
686.135	2.88
686.89	1.88
687.646	1.88
688.402	0.88
689.157	1.88
689.912	-1.12
690.668	1.88
691.423	2.88
692.178	-0.12
692.933	2.88
693.688	0.88
694.443	2.88
695.198	0.88
695.953	2.88
696.708	2.88
697.462	0.88
698.217	2.88
698.972	1.88
699.726	3.88
700.48	1.88
701.235	2.88
701.989	1.88
702.743	1.88
703.497	1.88
704.251	0.88
705.005	0.88
705.759	1.88
706.513	0.88
707.266	1.88
708.02	3.88
708.774	1.88
709.527	0.88
710.28	1.88
711.034	1.88
711.787	2.88
712.54	-0.12
713.293	-0.12
714.046	2.88
714.799	0.88
715.552	0.88
716.305	0.88
717.058	1.88
717.81	1.88
718.563	-0.12
719.315	3.88
720.068	1.88
720.82	3.88
721.573	-0.12
722.325	2.88
723.077	0.88
723.829	-1.12
724.581	-2.12
725.333	-0.12
726.085	1.88
726.836	0.88
727.588	1.88
728.34	2.88
729.091	1.88
729.843	2.88
730.594	0.88
731.346	3.88
732.097	0.88
732.848	1.88
733.599	2.88
734.35	0.88
735.101	3.88
735.852	2.88
736.603	0.88
737.354	1.88
738.104	2.88
738.855	3.88
739.605	0.88
740.356	4.88
741.106	1.88
741.856	0.88
742.607	1.88
743.357	2.88
744.107	1.88
744.857	0.88
745.607	1.88
746.357	3.88
747.106	2.88
747.856	1.88
748.606	0.88
749.355	1.88
750.105	0.88
750.854	0.88
751.603	0.88
752.353	4.88
753.102	2.88
753.851	3.88
754.6	1.88
755.349	2.88
756.098	0.88
756.847	2.88
757.595	3.88
758.344	4.88
759.093	2.88
759.841	3.88
760.589	1.88
761.338	3.88
762.086	3.88
762.834	2.88
763.582	1.88
764.331	2.88
765.079	2.88
765.826	2.88
766.574	5.88
767.322	3.88
768.07	1.88
768.817	3.88
769.565	2.88
770.312	2.88
771.06	4.88
771.807	4.88
772.554	1.88
773.302	4.88
774.049	3.88
774.796	5.88
775.543	2.88
776.29	3.88
777.036	4.88
777.783	2.88
778.53	2.88
779.276	4.88
780.023	3.88
780.769	4.88
781.516	4.88
782.262	5.88
783.008	6.88
783.754	4.88
784.5	2.88
785.246	5.88
785.992	2.88
786.738	4.88
787.484	4.88
788.23	5.88
788.975	6.88
789.721	5.88
790.466	4.88
791.212	2.88
791.957	4.88
792.702	8.88
793.447	4.88
794.193	3.88
794.938	4.88
795.683	4.88
796.427	4.88
797.172	4.88
797.917	5.88
798.662	4.88
799.406	0.88
800.151	3.88
800.895	3.88
801.64	4.88
802.384	5.88
803.128	5.88
803.872	2.88
804.616	4.88
805.36	4.88
806.104	4.88
806.848	0.88
807.592	1.88
808.336	3.88
809.079	3.88
809.823	4.88
810.566	2.88
811.31	4.88
812.053	2.88
812.796	1.88
813.539	3.88
814.283	1.88
815.026	3.88
815.769	2.88
816.511	3.88
817.254	2.88
817.997	3.88
818.74	5.88
819.482	1.88
820.225	1.88
820.967	3.88
821.71	2.88
822.452	4.88
823.194	1.88
823.936	5.88
824.678	1.88
825.42	2.88
826.162	3.88
826.904	2.88
827.646	2.88
828.388	3.88
829.129	2.88
829.871	1.88
830.612	2.88
831.354	2.88
832.095	2.88
832.836	3.88
833.577	2.88
834.319	2.88
835.06	2.88
835.801	2.88
836.542	1.88
837.282	2.88
838.023	1.88
838.764	0.88
839.504	1.88
840.245	-0.12
840.985	1.88
841.726	1.88
842.466	1.88
843.206	1.88
843.946	0.88
844.687	1.88
845.427	0.88
846.166	1.88
846.906	-0.12
847.646	0.88
848.386	3.88
849.125	0.88
849.865	1.88
850.605	-1.12
851.344	0.88
852.083	1.88
852.823	-0.12
853.562	1.88
854.301	1.88
855.04	1.88
855.779	2.88
856.518	2.88
857.257	1.88
857.995	-0.12
858.734	2.88
859.473	-0.12
860.211	2.88
860.95	0.88
861.688	2.88
862.426	1.88
863.165	-1.12
863.903	0.88
864.641	-0.12
865.379	0.88
866.117	1.88
866.855	0.88
867.593	-0.12
868.33	-0.12
869.068	0.88
869.806	0.88
870.543	0.88
871.28	0.88
872.018	1.88
872.755	0.88
873.492	1.88
874.229	2.88
874.967	0.88
875.703	3.88
876.44	1.88
877.177	0.88
877.914	-0.12
878.651	-0.12
879.387	1.88
880.124	-1.12
880.86	0.88
881.597	-0.12
882.333	-0.12
883.069	1.88
883.806	1.88
884.542	1.88
885.278	0.88
886.014	3.88
886.749	0.88
887.485	-1.12
888.221	0.88
888.957	2.88
889.692	2.88
890.428	-0.12
891.163	-1.12
891.899	1.88
892.634	1.88
893.369	0.88
894.104	0.88
894.839	-0.12
895.574	-0.12
896.309	1.88
897.044	2.88
897.779	-1.12
898.514	-0.12
899.248	0.88
899.983	-0.12
900.717	1.88
901.452	0.88
902.186	-1.12
902.92	-1.12
903.654	1.88
904.389	-2.12
905.123	0.88
905.857	-0.12
906.59	0.88
907.324	-1.12
908.058	-0.12
908.792	-0.12
909.525	-0.12
910.259	-0.12
910.992	-0.12
911.726	-1.12
912.459	-0.12
913.192	-1.12
913.925	-0.12
914.658	-2.12
915.391	-1.12
916.124	-0.12
916.857	-0.12
917.59	-1.12
918.323	-0.12
919.055	1.88
919.788	-0.12
920.521	1.88
921.253	-1.12
921.985	-0.12
922.718	-1.12
923.45	0.88
924.182	0.88
924.914	-0.12
925.646	0.88
926.378	-2.12
927.11	-0.12
927.841	2.88
928.573	-0.12
929.305	0.88
930.036	0.88
930.768	-1.12
931.499	-0.12
932.23	-1.12
932.962	1.88
933.693	0.88
934.424	0.88
935.155	1.88
935.886	0.88
936.617	-0.12
937.348	-1.12
938.078	0.88
938.809	-2.12
939.54	-0.12
940.27	-0.12
941.001	-0.12
941.731	-0.12
942.461	-1.12
943.191	0.88
943.922	-0.12
944.652	-0.12
945.382	-2.12
946.112	-1.12
946.841	1.88
947.571	-0.12
948.301	-2.12
949.031	-0.12
949.76	0.88
950.49	-2.12
951.219	0.88
951.948	0.88
952.678	-0.12
953.407	2.88
954.136	0.88
954.865	-0.12
955.594	-0.12
956.323	-0.12
957.052	-0.12
957.78	-1.12
958.509	0.88
959.238	-1.12
959.966	-0.12
960.695	-1.12
961.423	-0.12
962.151	1.88
962.88	-0.12
963.608	-0.12
964.336	-1.12
965.064	-0.12
965.792	-1.12
966.52	-0.12
967.247	0.88
967.975	-1.12
968.703	0.88
969.43	-4.12
970.158	0.88
970.885	1.88
971.613	0.88
972.34	-2.12
973.067	-1.12
973.794	-0.12
974.521	0.88
975.248	-0.12
975.975	-2.12
976.702	0.88
977.429	-2.12
978.156	0.88
978.882	-0.12
979.609	1.88
980.335	-1.12
981.062	-0.12
981.788	-2.12
982.514	-0.12
983.24	-0.12
983.967	1.88
984.693	1.88
985.419	-1.12
986.144	-1.12
986.87	-0.12
987.596	0.88
988.322	-0.12
989.047	0.88
989.773	0.88
990.498	-2.12
991.224	0.88
991.949	-0.12
992.674	0.88
993.399	-2.12
994.124	-1.12
994.849	1.88
995.574	-0.12
996.299	-1.12
997.024	0.88
997.749	-1.12
998.473	-0.12
999.198	0.88
999.922	-2.12
1000.647	0.88
1001.371	4.88
1002.095	0.88
1002.82	-2.12
1003.544	-2.12
1004.268	-1.12
1004.992	-2.12
1005.716	-2.12
1006.439	0.88
1007.163	0.88
1007.887	-1.12
1008.611	-0.12
1009.334	-1.12
1010.058	0.88
1010.781	-0.12
1011.504	-1.12
1012.228	-0.12
1012.951	-0.12
1013.674	-1.12
1014.397	-2.12
1015.12	1.88
