节点500_145_QEPB04081__569__11-38-00-383.txt的数据

Date: Wed Nov 12 11:38:00 CST 2025
User: PC
Spectrometer: QEPB0408
触发模式: 0
积分时间 (秒): 1.000000E-2
Scans to average: 1
启用暗噪声校正: true
启用非线性校正: false
滑动平均宽度: 0
X轴模式: Wavelengths
Number of Pixels in Spectrum: 1044
>>>>>Begin Spectral Data<<<<<
220.843	1
221.644	-1
222.444	0
223.244	1
224.045	1
224.845	3
225.645	-1
226.445	1
227.245	1
228.045	1
228.845	0
229.645	0
230.444	2
231.244	2
232.043	3
232.843	0
233.642	3
234.442	1
235.241	2
236.04	1
236.839	2
237.638	2
238.437	0
239.236	3
240.035	0
240.833	2
241.632	2
242.43	3
243.229	3
244.027	3
244.826	3
245.624	3
246.422	2
247.22	2
248.018	3
248.816	2
249.614	2
250.412	4
251.21	3
252.007	4
252.805	3
253.602	2
254.4	3
255.197	4
255.994	3
256.791	2
257.589	4
258.386	4
259.183	3
259.979	5
260.776	2
261.573	5
262.37	4
263.166	6
263.963	7
264.759	5
265.556	6
266.352	4
267.148	5
267.944	7
268.74	6
269.536	8
270.332	7
271.128	6
271.924	7
272.719	7
273.515	9
274.311	8
275.106	8
275.901	11
276.697	8
277.492	9
278.287	11
279.082	10
279.877	8
280.672	9
281.467	9
282.262	10
283.056	12
283.851	9
284.646	11
285.44	9
286.234	9
287.029	11
287.823	10
288.617	12
289.411	11
290.205	9
290.999	11
291.793	12
292.587	11
293.381	11
294.174	10
294.968	11
295.761	11
296.555	7
297.348	10
298.141	10
298.935	9
299.728	9
300.521	10
301.314	8
302.107	11
302.899	9
303.692	8
304.485	10
305.277	8
306.07	8
306.862	9
307.655	9
308.447	9
309.239	6
310.031	8
310.823	5
311.615	7
312.407	9
313.199	9
313.991	6
314.783	7
315.574	6
316.366	8
317.157	5
317.949	6
318.74	9
319.531	7
320.322	5
321.113	6
321.904	4
322.695	6
323.486	5
324.277	4
325.068	5
325.858	3
326.649	5
327.439	4
328.23	5
329.02	6
329.81	5
330.6	5
331.391	4
332.181	4
332.971	5
333.76	2
334.55	5
335.34	3
336.13	7
336.919	4
337.709	7
338.498	5
339.287	3
340.077	6
340.866	3
341.655	5
342.444	3
343.233	4
344.022	1
344.811	3
345.6	3
346.388	6
347.177	6
347.965	3
348.754	4
349.542	2
350.33	4
351.119	7
351.907	5
352.695	5
353.483	5
354.271	4
355.059	3
355.846	4
356.634	2
357.422	6
358.209	3
358.997	4
359.784	4
360.571	5
361.359	3
362.146	3
362.933	3
363.72	3
364.507	0
365.294	2
366.081	2
366.867	2
367.654	3
368.44	2
369.227	3
370.013	5
370.8	3
371.586	5
372.372	1
373.158	3
373.944	2
374.73	3
375.516	3
376.302	2
377.088	3
377.873	3
378.659	4
379.445	6
380.23	4
381.015	3
381.801	4
382.586	3
383.371	5
384.156	5
384.941	4
385.726	4
386.511	1
387.296	3
388.08	2
388.865	3
389.649	4
390.434	2
391.218	5
392.003	6
392.787	2
393.571	6
394.355	0
395.139	3
395.923	3
396.707	3
397.491	2
398.274	5
399.058	5
399.842	2
400.625	3
401.408	3
402.192	5
402.975	4
403.758	2
404.541	5
405.324	5
406.107	5
406.89	5
407.673	6
408.456	4
409.238	3
410.021	4
410.803	3
411.586	2
412.368	4
413.151	3
413.933	5
414.715	4
415.497	6
416.279	4
417.061	6
417.843	8
418.624	6
419.406	7
420.188	5
420.969	6
421.751	7
422.532	6
423.313	7
424.095	7
424.876	9
425.657	8
426.438	9
427.219	8
428	8
428.78	7
429.561	7
430.342	9
431.122	8
431.903	8
432.683	10
433.464	9
434.244	10
435.024	8
435.804	9
436.584	10
437.364	12
438.144	9
438.924	10
439.704	12
440.483	12
441.263	13
442.042	11
442.822	15
443.601	14
444.38	16
445.16	17
445.939	17
446.718	20
447.497	21
448.276	22
449.054	23
449.833	24
450.612	26
451.391	26
452.169	32
452.948	35
453.726	38
454.504	45
455.282	45
456.061	48
456.839	53
457.617	64
458.395	68
459.172	76
459.95	87
460.728	92
461.506	99
462.283	114
463.061	121
463.838	140
464.615	152
465.393	168
466.17	194
466.947	215
467.724	236
468.501	269
469.278	294
470.055	319
470.831	361
471.608	393
472.385	440
473.161	483
473.938	540
474.714	592
475.49	650
476.266	719
477.043	794
477.819	880
478.595	953
479.371	1072
480.146	1161
480.922	1286
481.698	1391
482.473	1548
483.249	1689
484.024	1849
484.8	2023
485.575	2217
486.35	2408
487.126	2651
487.901	2915
488.676	3159
489.451	3465
490.225	3803
491	4158
491.775	4549
492.55	4971
493.324	5375
494.099	5891
494.873	6408
495.647	6953
496.422	7528
497.196	8112
497.97	8721
498.744	9377
499.518	10057
500.292	10768
501.066	11383
501.839	12031
502.613	12655
503.387	13254
504.16	13790
504.934	14339
505.707	14697
506.48	15007
507.253	15277
508.027	15460
508.8	15489
509.573	15502
510.346	15389
511.118	15189
511.891	14907
512.664	14498
513.437	14094
514.209	13698
514.982	13178
515.754	12735
516.526	12186
517.298	11715
518.071	11209
518.843	10760
519.615	10316
520.387	9878
521.159	9521
521.93	9087
522.702	8717
523.474	8416
524.245	8066
525.017	7754
525.788	7436
526.56	7124
527.331	6883
528.102	6567
528.873	6290
529.644	6047
530.415	5784
531.186	5501
531.957	5259
532.728	4972
533.498	4748
534.269	4475
535.039	4258
535.81	4029
536.58	3841
537.351	3600
538.121	3395
538.891	3246
539.661	3060
540.431	2881
541.201	2742
541.971	2568
542.741	2452
543.51	2328
544.28	2189
545.05	2083
545.819	2005
546.588	1877
547.358	1804
548.127	1708
548.896	1612
549.665	1539
550.434	1464
551.203	1378
551.972	1320
552.741	1236
553.51	1177
554.278	1108
555.047	1062
555.815	1004
556.584	951
557.352	895
558.121	851
558.889	805
559.657	760
560.425	705
561.193	659
561.961	640
562.729	597
563.496	576
564.264	526
565.032	499
565.799	480
566.567	439
567.334	427
568.101	408
568.869	379
569.636	351
570.403	334
571.17	315
571.937	303
572.704	276
573.471	263
574.237	247
575.004	235
575.771	223
576.537	205
577.303	194
578.07	187
578.836	181
579.602	173
580.368	156
581.134	154
581.9	139
582.666	133
583.432	130
584.198	117
584.964	114
585.729	107
586.495	99
587.26	94
588.025	88
588.791	82
589.556	79
590.321	75
591.086	74
591.851	66
592.616	66
593.381	63
594.146	58
594.911	56
595.675	55
596.44	50
597.204	48
597.969	47
598.733	45
599.497	40
600.261	42
601.025	37
601.79	33
602.553	34
603.317	31
604.081	32
604.845	30
605.609	29
606.372	27
607.136	26
607.899	27
608.662	25
609.426	26
610.189	22
610.952	26
611.715	22
612.478	22
613.241	19
614.004	19
614.767	20
615.529	18
616.292	15
617.055	18
617.817	14
618.579	17
619.342	15
620.104	15
620.866	12
621.628	12
622.39	12
623.152	11
623.914	11
624.676	11
625.438	12
626.199	10
626.961	10
627.722	8
628.484	11
629.245	11
630.006	7
630.768	10
631.529	7
632.29	8
633.051	7
633.812	8
634.573	9
635.333	5
636.094	8
636.855	6
637.615	6
638.376	9
639.136	6
639.896	6
640.657	7
641.417	5
642.177	10
642.937	6
643.697	5
644.457	4
645.216	6
645.976	6
646.736	5
647.495	7
648.255	4
649.014	5
649.774	4
650.533	4
651.292	2
652.051	4
652.81	3
653.569	4
654.328	5
655.087	2
655.846	4
656.604	1
657.363	6
658.121	5
658.88	2
659.638	5
660.397	4
661.155	5
661.913	2
662.671	3
663.429	6
664.187	3
664.945	5
665.703	3
666.46	4
667.218	5
667.976	1
668.733	3
669.49	2
670.248	4
671.005	3
671.762	4
672.519	3
673.276	4
674.033	2
674.79	3
675.547	4
676.304	4
677.06	2
677.817	6
678.574	3
679.33	4
680.086	1
680.843	2
681.599	6
682.355	4
683.111	3
683.867	3
684.623	3
685.379	3
686.135	5
686.89	3
687.646	2
688.402	2
689.157	2
689.912	3
690.668	2
691.423	3
692.178	4
692.933	4
693.688	2
694.443	2
695.198	3
695.953	3
696.708	3
697.462	4
698.217	0
698.972	2
699.726	4
700.48	2
701.235	3
701.989	3
702.743	1
703.497	3
704.251	4
705.005	3
705.759	3
706.513	2
707.266	3
708.02	2
708.774	4
709.527	2
710.28	2
711.034	2
711.787	2
712.54	4
713.293	3
714.046	2
714.799	2
715.552	3
716.305	1
717.058	3
717.81	2
718.563	3
719.315	2
720.068	5
720.82	2
721.573	1
722.325	2
723.077	2
723.829	2
724.581	4
725.333	2
726.085	2
726.836	4
727.588	3
728.34	3
729.091	3
729.843	5
730.594	3
731.346	1
732.097	5
732.848	1
733.599	3
734.35	2
735.101	3
735.852	2
736.603	2
737.354	3
738.104	1
738.855	4
739.605	2
740.356	3
741.106	4
741.856	4
742.607	2
743.357	2
744.107	2
744.857	-1
745.607	3
746.357	4
747.106	3
747.856	2
748.606	4
749.355	4
750.105	3
750.854	2
751.603	6
752.353	1
753.102	6
753.851	3
754.6	3
755.349	2
756.098	2
756.847	5
757.595	3
758.344	3
759.093	2
759.841	3
760.589	4
761.338	4
762.086	3
762.834	3
763.582	4
764.331	4
765.079	3
765.826	6
766.574	5
767.322	2
768.07	2
768.817	5
769.565	5
770.312	3
771.06	5
771.807	2
772.554	4
773.302	4
774.049	4
774.796	4
775.543	4
776.29	4
777.036	4
777.783	5
778.53	4
779.276	7
780.023	5
780.769	5
781.516	3
782.262	4
783.008	6
783.754	5
784.5	6
785.246	5
785.992	6
786.738	7
787.484	4
788.23	5
788.975	4
789.721	7
790.466	4
791.212	5
791.957	6
792.702	4
793.447	5
794.193	4
794.938	5
795.683	6
796.427	7
797.172	6
797.917	5
798.662	5
799.406	6
800.151	5
800.895	4
801.64	4
802.384	7
803.128	4
803.872	6
804.616	4
805.36	5
806.104	6
806.848	6
807.592	3
808.336	3
809.079	6
809.823	6
810.566	3
811.31	6
812.053	2
812.796	4
813.539	2
814.283	4
815.026	4
815.769	3
816.511	3
817.254	2
817.997	3
818.74	3
819.482	5
820.225	6
820.967	4
821.71	3
822.452	5
823.194	4
823.936	3
824.678	4
825.42	4
826.162	6
826.904	5
827.646	4
828.388	2
829.129	2
829.871	3
830.612	3
831.354	3
832.095	4
832.836	5
833.577	2
834.319	1
835.06	3
835.801	3
836.542	3
837.282	4
838.023	1
838.764	3
839.504	0
840.245	4
840.985	3
841.726	1
842.466	4
843.206	3
843.946	4
844.687	2
845.427	3
846.166	3
846.906	3
847.646	2
848.386	3
849.125	4
849.865	2
850.605	1
851.344	4
852.083	2
852.823	3
853.562	2
854.301	2
855.04	3
855.779	4
856.518	3
857.257	3
857.995	3
858.734	2
859.473	4
860.211	1
860.95	3
861.688	2
862.426	1
863.165	2
863.903	0
864.641	3
865.379	1
866.117	2
866.855	1
867.593	3
868.33	1
869.068	2
869.806	0
870.543	3
871.28	2
872.018	1
872.755	1
873.492	2
874.229	-1
874.967	4
875.703	2
876.44	2
877.177	2
877.914	2
878.651	1
879.387	2
880.124	4
880.86	1
881.597	2
882.333	2
883.069	4
883.806	4
884.542	1
885.278	3
886.014	1
886.749	4
887.485	3
888.221	1
888.957	1
889.692	2
890.428	3
891.163	3
891.899	1
892.634	5
893.369	1
894.104	0
894.839	3
895.574	2
896.309	3
897.044	1
897.779	2
898.514	2
899.248	1
899.983	0
900.717	1
901.452	2
902.186	1
902.92	2
903.654	1
904.389	2
905.123	0
905.857	2
906.59	1
907.324	0
908.058	2
908.792	1
909.525	0
910.259	2
910.992	3
911.726	2
912.459	0
913.192	3
913.925	0
914.658	1
915.391	0
916.124	2
916.857	2
917.59	-1
918.323	1
919.055	0
919.788	2
920.521	2
921.253	-1
921.985	2
922.718	0
923.45	1
924.182	-1
924.914	2
925.646	0
926.378	2
927.11	0
927.841	-1
928.573	2
929.305	2
930.036	3
930.768	2
931.499	1
932.23	4
932.962	-1
933.693	0
934.424	0
935.155	2
935.886	2
936.617	0
937.348	-1
938.078	1
938.809	0
939.54	1
940.27	0
941.001	0
941.731	2
942.461	1
943.191	2
943.922	2
944.652	2
945.382	2
946.112	1
946.841	-1
947.571	1
948.301	0
949.031	1
949.76	0
950.49	1
951.219	0
951.948	0
952.678	2
953.407	-1
954.136	1
954.865	1
955.594	1
956.323	3
957.052	0
957.78	0
958.509	0
959.238	2
959.966	-2
960.695	2
961.423	3
962.151	-2
962.88	3
963.608	-1
964.336	3
965.064	-1
965.792	-1
966.52	2
967.247	2
967.975	0
968.703	-1
969.43	1
970.158	0
970.885	-1
971.613	4
972.34	0
973.067	3
973.794	0
974.521	1
975.248	-1
975.975	-1
976.702	1
977.429	1
978.156	2
978.882	1
979.609	1
980.335	0
981.062	-1
981.788	3
982.514	2
983.24	3
983.967	2
984.693	1
985.419	-1
986.144	3
986.87	1
987.596	1
988.322	2
989.047	1
989.773	2
990.498	1
991.224	1
991.949	0
992.674	2
993.399	1
994.124	1
994.849	0
995.574	1
996.299	2
997.024	1
997.749	-1
998.473	1
999.198	0
999.922	0
1000.647	-1
1001.371	8
1002.095	-1
1002.82	-3
1003.544	-1
1004.268	0
1004.992	-2
1005.716	1
1006.439	1
1007.163	2
1007.887	1
1008.611	1
1009.334	1
1010.058	0
1010.781	2
1011.504	-1
1012.228	2
1012.951	0
1013.674	-1
1014.397	-1
1015.12	-1
