节点500_145_QEPB04081__501__11-36-56-486.txt的数据

Date: Wed Nov 12 11:36:56 CST 2025
User: PC
Spectrometer: QEPB0408
触发模式: 0
积分时间 (秒): 1.000000E-2
Scans to average: 1
启用暗噪声校正: true
启用非线性校正: false
滑动平均宽度: 0
X轴模式: Wavelengths
Number of Pixels in Spectrum: 1044
>>>>>Begin Spectral Data<<<<<
220.843	1.38
221.644	-1.62
222.444	-1.62
223.244	-2.62
224.045	1.38
224.845	1.38
225.645	-2.62
226.445	0.38
227.245	-1.62
228.045	-0.62
228.845	-0.62
229.645	-0.62
230.444	1.38
231.244	-0.62
232.043	-0.62
232.843	0.38
233.642	2.38
234.442	0.38
235.241	1.38
236.04	1.38
236.839	-1.62
237.638	1.38
238.437	2.38
239.236	2.38
240.035	3.38
240.833	1.38
241.632	1.38
242.43	1.38
243.229	1.38
244.027	1.38
244.826	2.38
245.624	0.38
246.422	3.38
247.22	3.38
248.018	1.38
248.816	3.38
249.614	2.38
250.412	2.38
251.21	2.38
252.007	4.38
252.805	2.38
253.602	4.38
254.4	2.38
255.197	4.38
255.994	2.38
256.791	2.38
257.589	1.38
258.386	2.38
259.183	3.38
259.979	5.38
260.776	2.38
261.573	3.38
262.37	4.38
263.166	3.38
263.963	3.38
264.759	3.38
265.556	5.38
266.352	5.38
267.148	5.38
267.944	4.38
268.74	8.38
269.536	7.38
270.332	5.38
271.128	6.38
271.924	6.38
272.719	7.38
273.515	7.38
274.311	6.38
275.106	4.38
275.901	9.38
276.697	6.38
277.492	7.38
278.287	9.38
279.082	9.38
279.877	10.38
280.672	11.38
281.467	10.38
282.262	7.38
283.056	6.38
283.851	9.38
284.646	9.38
285.44	9.38
286.234	8.38
287.029	9.38
287.823	11.38
288.617	10.38
289.411	10.38
290.205	10.38
290.999	9.38
291.793	8.38
292.587	9.38
293.381	10.38
294.174	7.38
294.968	9.38
295.761	10.38
296.555	8.38
297.348	11.38
298.141	9.38
298.935	9.38
299.728	9.38
300.521	9.38
301.314	5.38
302.107	8.38
302.899	8.38
303.692	9.38
304.485	10.38
305.277	11.38
306.07	8.38
306.862	9.38
307.655	8.38
308.447	6.38
309.239	4.38
310.031	7.38
310.823	7.38
311.615	5.38
312.407	7.38
313.199	7.38
313.991	5.38
314.783	6.38
315.574	4.38
316.366	6.38
317.157	3.38
317.949	5.38
318.74	5.38
319.531	5.38
320.322	5.38
321.113	6.38
321.904	6.38
322.695	3.38
323.486	3.38
324.277	5.38
325.068	4.38
325.858	3.38
326.649	5.38
327.439	2.38
328.23	3.38
329.02	5.38
329.81	4.38
330.6	3.38
331.391	3.38
332.181	3.38
332.971	3.38
333.76	2.38
334.55	5.38
335.34	5.38
336.13	4.38
336.919	4.38
337.709	3.38
338.498	3.38
339.287	4.38
340.077	2.38
340.866	3.38
341.655	4.38
342.444	3.38
343.233	4.38
344.022	4.38
344.811	0.38
345.6	3.38
346.388	0.38
347.177	5.38
347.965	4.38
348.754	1.38
349.542	2.38
350.33	1.38
351.119	2.38
351.907	3.38
352.695	2.38
353.483	3.38
354.271	3.38
355.059	1.38
355.846	1.38
356.634	5.38
357.422	2.38
358.209	0.38
358.997	2.38
359.784	4.38
360.571	3.38
361.359	1.38
362.146	4.38
362.933	2.38
363.72	1.38
364.507	2.38
365.294	4.38
366.081	1.38
366.867	-0.62
367.654	5.38
368.44	1.38
369.227	4.38
370.013	4.38
370.8	1.38
371.586	0.38
372.372	5.38
373.158	6.38
373.944	1.38
374.73	5.38
375.516	1.38
376.302	1.38
377.088	0.38
377.873	0.38
378.659	2.38
379.445	0.38
380.23	2.38
381.015	1.38
381.801	3.38
382.586	3.38
383.371	2.38
384.156	2.38
384.941	-0.62
385.726	2.38
386.511	3.38
387.296	1.38
388.08	1.38
388.865	4.38
389.649	5.38
390.434	3.38
391.218	2.38
392.003	2.38
392.787	2.38
393.571	4.38
394.355	3.38
395.139	1.38
395.923	3.38
396.707	2.38
397.491	3.38
398.274	2.38
399.058	4.38
399.842	2.38
400.625	3.38
401.408	4.38
402.192	2.38
402.975	3.38
403.758	4.38
404.541	2.38
405.324	1.38
406.107	4.38
406.89	2.38
407.673	2.38
408.456	4.38
409.238	5.38
410.021	3.38
410.803	2.38
411.586	4.38
412.368	4.38
413.151	4.38
413.933	5.38
414.715	5.38
415.497	4.38
416.279	5.38
417.061	4.38
417.843	6.38
418.624	4.38
419.406	6.38
420.188	4.38
420.969	5.38
421.751	4.38
422.532	7.38
423.313	4.38
424.095	4.38
424.876	7.38
425.657	3.38
426.438	6.38
427.219	7.38
428	6.38
428.78	8.38
429.561	7.38
430.342	7.38
431.122	5.38
431.903	8.38
432.683	9.38
433.464	6.38
434.244	8.38
435.024	6.38
435.804	9.38
436.584	8.38
437.364	11.38
438.144	9.38
438.924	9.38
439.704	12.38
440.483	11.38
441.263	13.38
442.042	9.38
442.822	14.38
443.601	14.38
444.38	15.38
445.16	14.38
445.939	16.38
446.718	16.38
447.497	19.38
448.276	21.38
449.054	23.38
449.833	23.38
450.612	26.38
451.391	28.38
452.169	31.38
452.948	31.38
453.726	37.38
454.504	38.38
455.282	43.38
456.061	51.38
456.839	51.38
457.617	60.38
458.395	65.38
459.172	71.38
459.95	80.38
460.728	89.38
461.506	96.38
462.283	105.38
463.061	120.38
463.838	131.38
464.615	144.38
465.393	172.38
466.17	184.38
466.947	207.38
467.724	231.38
468.501	255.38
469.278	279.38
470.055	318.38
470.831	351.38
471.608	387.38
472.385	431.38
473.161	476.38
473.938	527.38
474.714	578.38
475.49	635.38
476.266	710.38
477.043	786.38
477.819	872.38
478.595	958.38
479.371	1045.38
480.146	1156.38
480.922	1278.38
481.698	1398.38
482.473	1549.38
483.249	1697.38
484.024	1854.38
484.8	2030.38
485.575	2242.38
486.35	2448.38
487.126	2689.38
487.901	2942.38
488.676	3201.38
489.451	3560.38
490.225	3854.38
491	4230.38
491.775	4624.38
492.55	5037.38
493.324	5546.38
494.099	6022.38
494.873	6542.38
495.647	7126.38
496.422	7756.38
497.196	8357.38
497.97	9023.38
498.744	9668.38
499.518	10401.38
500.292	11025.38
501.066	11733.38
501.839	12334.38
502.613	12968.38
503.387	13625.38
504.16	14176.38
504.934	14633.38
505.707	15061.38
506.48	15313.38
507.253	15609.38
508.027	15747.38
508.8	15747.38
509.573	15719.38
510.346	15585.38
511.118	15353.38
511.891	14996.38
512.664	14566.38
513.437	14218.38
514.209	13682.38
514.982	13197.38
515.754	12704.38
516.526	12233.38
517.298	11705.38
518.071	11193.38
518.843	10721.38
519.615	10234.38
520.387	9836.38
521.159	9442.38
521.93	9059.38
522.702	8656.38
523.474	8368.38
524.245	8060.38
525.017	7710.38
525.788	7448.38
526.56	7097.38
527.331	6823.38
528.102	6534.38
528.873	6287.38
529.644	5985.38
530.415	5730.38
531.186	5446.38
531.957	5200.38
532.728	4939.38
533.498	4672.38
534.269	4443.38
535.039	4191.38
535.81	3984.38
536.58	3743.38
537.351	3545.38
538.121	3354.38
538.891	3180.38
539.661	2997.38
540.431	2854.38
541.201	2668.38
541.971	2549.38
542.741	2405.38
543.51	2286.38
544.28	2159.38
545.05	2071.38
545.819	1947.38
546.588	1859.38
547.358	1769.38
548.127	1686.38
548.896	1601.38
549.665	1508.38
550.434	1438.38
551.203	1365.38
551.972	1300.38
552.741	1226.38
553.51	1173.38
554.278	1115.38
555.047	1052.38
555.815	987.38
556.584	931.38
557.352	896.38
558.121	820.38
558.889	789.38
559.657	739.38
560.425	697.38
561.193	666.38
561.961	615.38
562.729	588.38
563.496	558.38
564.264	528.38
565.032	501.38
565.799	465.38
566.567	435.38
567.334	413.38
568.101	392.38
568.869	372.38
569.636	349.38
570.403	337.38
571.17	308.38
571.937	294.38
572.704	271.38
573.471	265.38
574.237	245.38
575.004	228.38
575.771	215.38
576.537	202.38
577.303	190.38
578.07	181.38
578.836	170.38
579.602	155.38
580.368	155.38
581.134	141.38
581.9	137.38
582.666	134.38
583.432	118.38
584.198	116.38
584.964	105.38
585.729	103.38
586.495	96.38
587.26	91.38
588.025	85.38
588.791	83.38
589.556	74.38
590.321	74.38
591.086	69.38
591.851	66.38
592.616	64.38
593.381	61.38
594.146	59.38
594.911	52.38
595.675	48.38
596.44	48.38
597.204	47.38
597.969	45.38
598.733	43.38
599.497	42.38
600.261	37.38
601.025	36.38
601.79	33.38
602.553	32.38
603.317	33.38
604.081	32.38
604.845	30.38
605.609	27.38
606.372	26.38
607.136	25.38
607.899	24.38
608.662	22.38
609.426	21.38
610.189	22.38
610.952	20.38
611.715	18.38
612.478	19.38
613.241	20.38
614.004	18.38
614.767	17.38
615.529	16.38
616.292	14.38
617.055	15.38
617.817	13.38
618.579	15.38
619.342	10.38
620.104	12.38
620.866	14.38
621.628	12.38
622.39	10.38
623.152	9.38
623.914	11.38
624.676	9.38
625.438	7.38
626.199	8.38
626.961	9.38
627.722	9.38
628.484	8.38
629.245	10.38
630.006	9.38
630.768	7.38
631.529	7.38
632.29	8.38
633.051	8.38
633.812	5.38
634.573	7.38
635.333	5.38
636.094	5.38
636.855	6.38
637.615	6.38
638.376	5.38
639.136	5.38
639.896	5.38
640.657	4.38
641.417	5.38
642.177	7.38
642.937	3.38
643.697	3.38
644.457	3.38
645.216	5.38
645.976	2.38
646.736	4.38
647.495	2.38
648.255	2.38
649.014	4.38
649.774	4.38
650.533	4.38
651.292	5.38
652.051	3.38
652.81	3.38
653.569	5.38
654.328	2.38
655.087	2.38
655.846	4.38
656.604	4.38
657.363	4.38
658.121	4.38
658.88	1.38
659.638	4.38
660.397	3.38
661.155	3.38
661.913	2.38
662.671	1.38
663.429	2.38
664.187	3.38
664.945	1.38
665.703	1.38
666.46	3.38
667.218	3.38
667.976	2.38
668.733	1.38
669.49	1.38
670.248	5.38
671.005	1.38
671.762	3.38
672.519	0.38
673.276	2.38
674.033	0.38
674.79	1.38
675.547	1.38
676.304	2.38
677.06	2.38
677.817	4.38
678.574	-1.62
679.33	2.38
680.086	2.38
680.843	4.38
681.599	3.38
682.355	2.38
683.111	0.38
683.867	2.38
684.623	2.38
685.379	3.38
686.135	2.38
686.89	0.38
687.646	2.38
688.402	1.38
689.157	1.38
689.912	1.38
690.668	0.38
691.423	5.38
692.178	3.38
692.933	-0.62
693.688	2.38
694.443	2.38
695.198	1.38
695.953	1.38
696.708	3.38
697.462	1.38
698.217	0.38
698.972	2.38
699.726	3.38
700.48	3.38
701.235	0.38
701.989	1.38
702.743	2.38
703.497	1.38
704.251	2.38
705.005	1.38
705.759	2.38
706.513	0.38
707.266	1.38
708.02	1.38
708.774	1.38
709.527	5.38
710.28	1.38
711.034	1.38
711.787	2.38
712.54	3.38
713.293	1.38
714.046	0.38
714.799	2.38
715.552	1.38
716.305	2.38
717.058	-0.62
717.81	1.38
718.563	3.38
719.315	2.38
720.068	1.38
720.82	1.38
721.573	1.38
722.325	-0.62
723.077	1.38
723.829	-0.62
724.581	1.38
725.333	1.38
726.085	2.38
726.836	2.38
727.588	0.38
728.34	2.38
729.091	2.38
729.843	0.38
730.594	3.38
731.346	1.38
732.097	1.38
732.848	1.38
733.599	2.38
734.35	1.38
735.101	2.38
735.852	1.38
736.603	1.38
737.354	1.38
738.104	0.38
738.855	3.38
739.605	3.38
740.356	3.38
741.106	1.38
741.856	1.38
742.607	4.38
743.357	2.38
744.107	2.38
744.857	3.38
745.607	1.38
746.357	2.38
747.106	1.38
747.856	0.38
748.606	1.38
749.355	0.38
750.105	0.38
750.854	1.38
751.603	4.38
752.353	1.38
753.102	3.38
753.851	1.38
754.6	4.38
755.349	2.38
756.098	1.38
756.847	3.38
757.595	3.38
758.344	2.38
759.093	3.38
759.841	3.38
760.589	3.38
761.338	2.38
762.086	4.38
762.834	3.38
763.582	3.38
764.331	1.38
765.079	3.38
765.826	2.38
766.574	2.38
767.322	5.38
768.07	5.38
768.817	2.38
769.565	4.38
770.312	2.38
771.06	5.38
771.807	4.38
772.554	3.38
773.302	2.38
774.049	5.38
774.796	6.38
775.543	4.38
776.29	4.38
777.036	2.38
777.783	3.38
778.53	1.38
779.276	6.38
780.023	4.38
780.769	5.38
781.516	7.38
782.262	4.38
783.008	7.38
783.754	4.38
784.5	5.38
785.246	4.38
785.992	6.38
786.738	3.38
787.484	3.38
788.23	5.38
788.975	4.38
789.721	4.38
790.466	3.38
791.212	5.38
791.957	6.38
792.702	3.38
793.447	5.38
794.193	4.38
794.938	3.38
795.683	5.38
796.427	5.38
797.172	4.38
797.917	5.38
798.662	6.38
799.406	4.38
800.151	4.38
800.895	3.38
801.64	5.38
802.384	2.38
803.128	3.38
803.872	3.38
804.616	2.38
805.36	4.38
806.104	4.38
806.848	2.38
807.592	5.38
808.336	5.38
809.079	5.38
809.823	3.38
810.566	4.38
811.31	2.38
812.053	3.38
812.796	6.38
813.539	4.38
814.283	2.38
815.026	4.38
815.769	4.38
816.511	3.38
817.254	2.38
817.997	5.38
818.74	1.38
819.482	4.38
820.225	3.38
820.967	3.38
821.71	1.38
822.452	3.38
823.194	3.38
823.936	3.38
824.678	2.38
825.42	-0.62
826.162	3.38
826.904	2.38
827.646	1.38
828.388	4.38
829.129	1.38
829.871	0.38
830.612	0.38
831.354	3.38
832.095	0.38
832.836	2.38
833.577	3.38
834.319	3.38
835.06	3.38
835.801	2.38
836.542	3.38
837.282	2.38
838.023	1.38
838.764	2.38
839.504	2.38
840.245	3.38
840.985	3.38
841.726	1.38
842.466	3.38
843.206	4.38
843.946	4.38
844.687	1.38
845.427	3.38
846.166	2.38
846.906	0.38
847.646	2.38
848.386	2.38
849.125	3.38
849.865	2.38
850.605	3.38
851.344	0.38
852.083	0.38
852.823	1.38
853.562	1.38
854.301	-0.62
855.04	1.38
855.779	1.38
856.518	0.38
857.257	1.38
857.995	2.38
858.734	1.38
859.473	0.38
860.211	4.38
860.95	2.38
861.688	0.38
862.426	0.38
863.165	1.38
863.903	2.38
864.641	1.38
865.379	-0.62
866.117	2.38
866.855	-0.62
867.593	1.38
868.33	-0.62
869.068	0.38
869.806	2.38
870.543	1.38
871.28	1.38
872.018	1.38
872.755	2.38
873.492	0.38
874.229	-0.62
874.967	2.38
875.703	1.38
876.44	0.38
877.177	-0.62
877.914	2.38
878.651	0.38
879.387	0.38
880.124	1.38
880.86	0.38
881.597	-0.62
882.333	1.38
883.069	0.38
883.806	0.38
884.542	1.38
885.278	3.38
886.014	0.38
886.749	0.38
887.485	1.38
888.221	0.38
888.957	-1.62
889.692	1.38
890.428	2.38
891.163	0.38
891.899	-0.62
892.634	2.38
893.369	-1.62
894.104	-0.62
894.839	0.38
895.574	-0.62
896.309	1.38
897.044	0.38
897.779	0.38
898.514	-0.62
899.248	0.38
899.983	1.38
900.717	-0.62
901.452	-0.62
902.186	1.38
902.92	2.38
903.654	-0.62
904.389	0.38
905.123	0.38
905.857	1.38
906.59	1.38
907.324	-2.62
908.058	-0.62
908.792	0.38
909.525	-1.62
910.259	0.38
910.992	0.38
911.726	1.38
912.459	0.38
913.192	1.38
913.925	-0.62
914.658	-0.62
915.391	1.38
916.124	-0.62
916.857	-0.62
917.59	0.38
918.323	1.38
919.055	-0.62
919.788	1.38
920.521	1.38
921.253	1.38
921.985	1.38
922.718	-0.62
923.45	0.38
924.182	-1.62
924.914	-0.62
925.646	-0.62
926.378	0.38
927.11	-0.62
927.841	-1.62
928.573	-0.62
929.305	-0.62
930.036	1.38
930.768	-0.62
931.499	-0.62
932.23	0.38
932.962	0.38
933.693	0.38
934.424	-1.62
935.155	0.38
935.886	0.38
936.617	1.38
937.348	-1.62
938.078	1.38
938.809	1.38
939.54	-1.62
940.27	0.38
941.001	2.38
941.731	0.38
942.461	-0.62
943.191	-1.62
943.922	0.38
944.652	-0.62
945.382	0.38
946.112	-1.62
946.841	-0.62
947.571	1.38
948.301	0.38
949.031	0.38
949.76	0.38
950.49	0.38
951.219	1.38
951.948	-1.62
952.678	-0.62
953.407	1.38
954.136	-0.62
954.865	-1.62
955.594	3.38
956.323	1.38
957.052	-0.62
957.78	-1.62
958.509	0.38
959.238	1.38
959.966	0.38
960.695	-1.62
961.423	0.38
962.151	0.38
962.88	-1.62
963.608	-0.62
964.336	-0.62
965.064	-0.62
965.792	0.38
966.52	-1.62
967.247	0.38
967.975	0.38
968.703	1.38
969.43	1.38
970.158	-1.62
970.885	0.38
971.613	2.38
972.34	-1.62
973.067	-0.62
973.794	-1.62
974.521	0.38
975.248	-1.62
975.975	1.38
976.702	0.38
977.429	1.38
978.156	0.38
978.882	-0.62
979.609	1.38
980.335	-0.62
981.062	1.38
981.788	0.38
982.514	1.38
983.24	0.38
983.967	-1.62
984.693	-1.62
985.419	0.38
986.144	1.38
986.87	-0.62
987.596	-1.62
988.322	0.38
989.047	1.38
989.773	-0.62
990.498	-1.62
991.224	-0.62
991.949	-1.62
992.674	-2.62
993.399	2.38
994.124	-2.62
994.849	0.38
995.574	-0.62
996.299	0.38
997.024	2.38
997.749	0.38
998.473	0.38
999.198	-0.62
999.922	1.38
1000.647	0.38
1001.371	4.38
1002.095	0.38
1002.82	-0.62
1003.544	-1.62
1004.268	1.38
1004.992	0.38
1005.716	-0.62
1006.439	-0.62
1007.163	0.38
1007.887	-0.62
1008.611	-0.62
1009.334	-0.62
1010.058	0.38
1010.781	1.38
1011.504	-1.62
1012.228	0.38
1012.951	-0.62
1013.674	-1.62
1014.397	2.38
1015.12	-2.62
