节点500_145_QEPB04081__490__11-36-46-484.txt的数据

Date: Wed Nov 12 11:36:46 CST 2025
User: PC
Spectrometer: QEPB0408
触发模式: 0
积分时间 (秒): 1.000000E-2
Scans to average: 1
启用暗噪声校正: true
启用非线性校正: false
滑动平均宽度: 0
X轴模式: Wavelengths
Number of Pixels in Spectrum: 1044
>>>>>Begin Spectral Data<<<<<
220.843	0.38
221.644	0.38
222.444	-2.62
223.244	1.38
224.045	0.38
224.845	1.38
225.645	2.38
226.445	-1.62
227.245	0.38
228.045	-1.62
228.845	-0.62
229.645	0.38
230.444	-0.62
231.244	-0.62
232.043	0.38
232.843	1.38
233.642	0.38
234.442	1.38
235.241	0.38
236.04	0.38
236.839	2.38
237.638	-0.62
238.437	0.38
239.236	-0.62
240.035	1.38
240.833	-1.62
241.632	0.38
242.43	1.38
243.229	0.38
244.027	1.38
244.826	0.38
245.624	0.38
246.422	0.38
247.22	1.38
248.018	2.38
248.816	1.38
249.614	0.38
250.412	-0.62
251.21	1.38
252.007	-0.62
252.805	2.38
253.602	2.38
254.4	0.38
255.197	3.38
255.994	-0.62
256.791	3.38
257.589	2.38
258.386	3.38
259.183	4.38
259.979	0.38
260.776	3.38
261.573	1.38
262.37	5.38
263.166	4.38
263.963	2.38
264.759	6.38
265.556	4.38
266.352	4.38
267.148	4.38
267.944	2.38
268.74	2.38
269.536	4.38
270.332	5.38
271.128	3.38
271.924	5.38
272.719	5.38
273.515	6.38
274.311	4.38
275.106	8.38
275.901	7.38
276.697	7.38
277.492	7.38
278.287	8.38
279.082	7.38
279.877	9.38
280.672	8.38
281.467	11.38
282.262	6.38
283.056	9.38
283.851	6.38
284.646	9.38
285.44	8.38
286.234	10.38
287.029	11.38
287.823	8.38
288.617	13.38
289.411	10.38
290.205	8.38
290.999	8.38
291.793	8.38
292.587	9.38
293.381	10.38
294.174	9.38
294.968	9.38
295.761	7.38
296.555	9.38
297.348	5.38
298.141	9.38
298.935	8.38
299.728	10.38
300.521	8.38
301.314	8.38
302.107	8.38
302.899	9.38
303.692	9.38
304.485	7.38
305.277	6.38
306.07	7.38
306.862	8.38
307.655	5.38
308.447	8.38
309.239	8.38
310.031	7.38
310.823	5.38
311.615	4.38
312.407	6.38
313.199	5.38
313.991	6.38
314.783	4.38
315.574	6.38
316.366	4.38
317.157	6.38
317.949	3.38
318.74	6.38
319.531	4.38
320.322	4.38
321.113	2.38
321.904	5.38
322.695	2.38
323.486	3.38
324.277	3.38
325.068	1.38
325.858	5.38
326.649	3.38
327.439	2.38
328.23	2.38
329.02	2.38
329.81	1.38
330.6	1.38
331.391	3.38
332.181	2.38
332.971	1.38
333.76	2.38
334.55	2.38
335.34	3.38
336.13	2.38
336.919	3.38
337.709	2.38
338.498	2.38
339.287	3.38
340.077	4.38
340.866	3.38
341.655	2.38
342.444	3.38
343.233	3.38
344.022	1.38
344.811	4.38
345.6	2.38
346.388	4.38
347.177	2.38
347.965	3.38
348.754	1.38
349.542	2.38
350.33	3.38
351.119	2.38
351.907	1.38
352.695	0.38
353.483	1.38
354.271	2.38
355.059	1.38
355.846	1.38
356.634	2.38
357.422	4.38
358.209	1.38
358.997	0.38
359.784	0.38
360.571	0.38
361.359	4.38
362.146	1.38
362.933	3.38
363.72	1.38
364.507	1.38
365.294	1.38
366.081	1.38
366.867	1.38
367.654	1.38
368.44	4.38
369.227	1.38
370.013	-0.62
370.8	0.38
371.586	2.38
372.372	1.38
373.158	-1.62
373.944	1.38
374.73	1.38
375.516	3.38
376.302	2.38
377.088	-1.62
377.873	2.38
378.659	0.38
379.445	2.38
380.23	3.38
381.015	1.38
381.801	3.38
382.586	1.38
383.371	1.38
384.156	0.38
384.941	4.38
385.726	4.38
386.511	3.38
387.296	4.38
388.08	1.38
388.865	2.38
389.649	2.38
390.434	0.38
391.218	-0.62
392.003	2.38
392.787	-0.62
393.571	2.38
394.355	2.38
395.139	0.38
395.923	2.38
396.707	1.38
397.491	1.38
398.274	4.38
399.058	1.38
399.842	3.38
400.625	1.38
401.408	4.38
402.192	1.38
402.975	3.38
403.758	2.38
404.541	1.38
405.324	2.38
406.107	4.38
406.89	5.38
407.673	2.38
408.456	2.38
409.238	6.38
410.021	3.38
410.803	1.38
411.586	3.38
412.368	4.38
413.151	5.38
413.933	5.38
414.715	3.38
415.497	4.38
416.279	4.38
417.061	3.38
417.843	4.38
418.624	4.38
419.406	3.38
420.188	6.38
420.969	3.38
421.751	4.38
422.532	4.38
423.313	4.38
424.095	3.38
424.876	6.38
425.657	8.38
426.438	2.38
427.219	6.38
428	7.38
428.78	4.38
429.561	7.38
430.342	6.38
431.122	6.38
431.903	6.38
432.683	8.38
433.464	5.38
434.244	7.38
435.024	9.38
435.804	7.38
436.584	8.38
437.364	8.38
438.144	10.38
438.924	9.38
439.704	8.38
440.483	11.38
441.263	8.38
442.042	11.38
442.822	10.38
443.601	11.38
444.38	12.38
445.16	14.38
445.939	13.38
446.718	15.38
447.497	17.38
448.276	19.38
449.054	20.38
449.833	24.38
450.612	26.38
451.391	25.38
452.169	28.38
452.948	33.38
453.726	33.38
454.504	36.38
455.282	41.38
456.061	49.38
456.839	52.38
457.617	58.38
458.395	62.38
459.172	68.38
459.95	74.38
460.728	86.38
461.506	97.38
462.283	108.38
463.061	121.38
463.838	132.38
464.615	149.38
465.393	163.38
466.17	184.38
466.947	199.38
467.724	230.38
468.501	246.38
469.278	283.38
470.055	309.38
470.831	343.38
471.608	382.38
472.385	433.38
473.161	481.38
473.938	522.38
474.714	580.38
475.49	630.38
476.266	712.38
477.043	781.38
477.819	865.38
478.595	948.38
479.371	1051.38
480.146	1150.38
480.922	1263.38
481.698	1401.38
482.473	1536.38
483.249	1704.38
484.024	1845.38
484.8	2018.38
485.575	2218.38
486.35	2427.38
487.126	2702.38
487.901	2941.38
488.676	3247.38
489.451	3548.38
490.225	3882.38
491	4238.38
491.775	4636.38
492.55	5080.38
493.324	5526.38
494.099	6051.38
494.873	6597.38
495.647	7149.38
496.422	7790.38
497.196	8382.38
497.97	9037.38
498.744	9736.38
499.518	10444.38
500.292	11080.38
501.066	11831.38
501.839	12467.38
502.613	13059.38
503.387	13697.38
504.16	14233.38
504.934	14706.38
505.707	15133.38
506.48	15439.38
507.253	15708.38
508.027	15781.38
508.8	15842.38
509.573	15743.38
510.346	15560.38
511.118	15346.38
511.891	15105.38
512.664	14664.38
513.437	14172.38
514.209	13784.38
514.982	13227.38
515.754	12683.38
516.526	12176.38
517.298	11669.38
518.071	11177.38
518.843	10703.38
519.615	10235.38
520.387	9842.38
521.159	9416.38
521.93	9019.38
522.702	8695.38
523.474	8338.38
524.245	8036.38
525.017	7719.38
525.788	7387.38
526.56	7085.38
527.331	6829.38
528.102	6569.38
528.873	6248.38
529.644	5960.38
530.415	5678.38
531.186	5418.38
531.957	5168.38
532.728	4925.38
533.498	4668.38
534.269	4417.38
535.039	4186.38
535.81	3955.38
536.58	3749.38
537.351	3531.38
538.121	3337.38
538.891	3168.38
539.661	2995.38
540.431	2834.38
541.201	2687.38
541.971	2536.38
542.741	2385.38
543.51	2269.38
544.28	2168.38
545.05	2054.38
545.819	1950.38
546.588	1847.38
547.358	1753.38
548.127	1665.38
548.896	1581.38
549.665	1505.38
550.434	1429.38
551.203	1365.38
551.972	1298.38
552.741	1225.38
553.51	1165.38
554.278	1105.38
555.047	1029.38
555.815	983.38
556.584	934.38
557.352	868.38
558.121	826.38
558.889	780.38
559.657	741.38
560.425	684.38
561.193	650.38
561.961	624.38
562.729	584.38
563.496	547.38
564.264	517.38
565.032	486.38
565.799	464.38
566.567	438.38
567.334	414.38
568.101	388.38
568.869	356.38
569.636	345.38
570.403	326.38
571.17	300.38
571.937	286.38
572.704	276.38
573.471	257.38
574.237	247.38
575.004	226.38
575.771	209.38
576.537	200.38
577.303	189.38
578.07	177.38
578.836	170.38
579.602	153.38
580.368	151.38
581.134	144.38
581.9	134.38
582.666	128.38
583.432	119.38
584.198	110.38
584.964	107.38
585.729	102.38
586.495	93.38
587.26	93.38
588.025	82.38
588.791	80.38
589.556	78.38
590.321	72.38
591.086	72.38
591.851	64.38
592.616	62.38
593.381	58.38
594.146	57.38
594.911	54.38
595.675	48.38
596.44	49.38
597.204	44.38
597.969	43.38
598.733	44.38
599.497	41.38
600.261	37.38
601.025	37.38
601.79	31.38
602.553	29.38
603.317	31.38
604.081	30.38
604.845	28.38
605.609	25.38
606.372	21.38
607.136	24.38
607.899	23.38
608.662	20.38
609.426	23.38
610.189	18.38
610.952	20.38
611.715	19.38
612.478	17.38
613.241	16.38
614.004	16.38
614.767	14.38
615.529	12.38
616.292	13.38
617.055	11.38
617.817	14.38
618.579	13.38
619.342	14.38
620.104	10.38
620.866	16.38
621.628	9.38
622.39	8.38
623.152	8.38
623.914	10.38
624.676	9.38
625.438	8.38
626.199	8.38
626.961	6.38
627.722	7.38
628.484	8.38
629.245	5.38
630.006	9.38
630.768	5.38
631.529	7.38
632.29	5.38
633.051	6.38
633.812	7.38
634.573	5.38
635.333	6.38
636.094	5.38
636.855	4.38
637.615	5.38
638.376	4.38
639.136	7.38
639.896	3.38
640.657	3.38
641.417	6.38
642.177	7.38
642.937	3.38
643.697	6.38
644.457	7.38
645.216	3.38
645.976	5.38
646.736	2.38
647.495	4.38
648.255	3.38
649.014	3.38
649.774	3.38
650.533	0.38
651.292	2.38
652.051	2.38
652.81	0.38
653.569	1.38
654.328	1.38
655.087	3.38
655.846	2.38
656.604	2.38
657.363	4.38
658.121	0.38
658.88	2.38
659.638	2.38
660.397	2.38
661.155	-0.62
661.913	2.38
662.671	2.38
663.429	2.38
664.187	3.38
664.945	1.38
665.703	1.38
666.46	0.38
667.218	-0.62
667.976	3.38
668.733	0.38
669.49	4.38
670.248	0.38
671.005	4.38
671.762	0.38
672.519	2.38
673.276	0.38
674.033	1.38
674.79	3.38
675.547	0.38
676.304	1.38
677.06	-0.62
677.817	2.38
678.574	4.38
679.33	3.38
680.086	0.38
680.843	0.38
681.599	3.38
682.355	-3.62
683.111	2.38
683.867	1.38
684.623	1.38
685.379	-0.62
686.135	0.38
686.89	0.38
687.646	0.38
688.402	2.38
689.157	-0.62
689.912	0.38
690.668	1.38
691.423	2.38
692.178	-0.62
692.933	-0.62
693.688	-1.62
694.443	0.38
695.198	0.38
695.953	-0.62
696.708	0.38
697.462	1.38
698.217	-1.62
698.972	-0.62
699.726	1.38
700.48	0.38
701.235	2.38
701.989	1.38
702.743	1.38
703.497	-0.62
704.251	2.38
705.005	0.38
705.759	-0.62
706.513	2.38
707.266	0.38
708.02	0.38
708.774	1.38
709.527	1.38
710.28	0.38
711.034	1.38
711.787	0.38
712.54	0.38
713.293	2.38
714.046	-1.62
714.799	1.38
715.552	0.38
716.305	1.38
717.058	0.38
717.81	0.38
718.563	0.38
719.315	2.38
720.068	-1.62
720.82	1.38
721.573	1.38
722.325	1.38
723.077	4.38
723.829	2.38
724.581	1.38
725.333	-1.62
726.085	2.38
726.836	0.38
727.588	1.38
728.34	2.38
729.091	1.38
729.843	0.38
730.594	0.38
731.346	0.38
732.097	0.38
732.848	2.38
733.599	0.38
734.35	0.38
735.101	1.38
735.852	1.38
736.603	1.38
737.354	1.38
738.104	1.38
738.855	0.38
739.605	1.38
740.356	-0.62
741.106	1.38
741.856	0.38
742.607	0.38
743.357	4.38
744.107	-1.62
744.857	2.38
745.607	2.38
746.357	2.38
747.106	3.38
747.856	0.38
748.606	1.38
749.355	2.38
750.105	-0.62
750.854	3.38
751.603	2.38
752.353	1.38
753.102	0.38
753.851	3.38
754.6	0.38
755.349	3.38
756.098	0.38
756.847	2.38
757.595	4.38
758.344	2.38
759.093	-0.62
759.841	0.38
760.589	1.38
761.338	3.38
762.086	2.38
762.834	1.38
763.582	0.38
764.331	4.38
765.079	1.38
765.826	2.38
766.574	5.38
767.322	2.38
768.07	4.38
768.817	1.38
769.565	1.38
770.312	4.38
771.06	2.38
771.807	3.38
772.554	1.38
773.302	2.38
774.049	2.38
774.796	4.38
775.543	2.38
776.29	4.38
777.036	2.38
777.783	4.38
778.53	2.38
779.276	4.38
780.023	5.38
780.769	2.38
781.516	5.38
782.262	4.38
783.008	3.38
783.754	3.38
784.5	5.38
785.246	6.38
785.992	2.38
786.738	4.38
787.484	0.38
788.23	4.38
788.975	4.38
789.721	3.38
790.466	5.38
791.212	3.38
791.957	2.38
792.702	4.38
793.447	3.38
794.193	4.38
794.938	2.38
795.683	2.38
796.427	3.38
797.172	3.38
797.917	4.38
798.662	3.38
799.406	4.38
800.151	2.38
800.895	2.38
801.64	1.38
802.384	3.38
803.128	5.38
803.872	1.38
804.616	5.38
805.36	3.38
806.104	2.38
806.848	-0.62
807.592	1.38
808.336	3.38
809.079	2.38
809.823	3.38
810.566	2.38
811.31	4.38
812.053	2.38
812.796	3.38
813.539	3.38
814.283	2.38
815.026	0.38
815.769	4.38
816.511	-0.62
817.254	2.38
817.997	2.38
818.74	1.38
819.482	2.38
820.225	0.38
820.967	1.38
821.71	3.38
822.452	4.38
823.194	2.38
823.936	2.38
824.678	2.38
825.42	1.38
826.162	3.38
826.904	3.38
827.646	2.38
828.388	1.38
829.129	2.38
829.871	-0.62
830.612	1.38
831.354	-0.62
832.095	2.38
832.836	1.38
833.577	3.38
834.319	2.38
835.06	2.38
835.801	3.38
836.542	-0.62
837.282	5.38
838.023	1.38
838.764	2.38
839.504	0.38
840.245	0.38
840.985	3.38
841.726	1.38
842.466	2.38
843.206	2.38
843.946	0.38
844.687	2.38
845.427	-1.62
846.166	-1.62
846.906	0.38
847.646	0.38
848.386	0.38
849.125	2.38
849.865	1.38
850.605	1.38
851.344	2.38
852.083	1.38
852.823	1.38
853.562	0.38
854.301	0.38
855.04	0.38
855.779	0.38
856.518	1.38
857.257	0.38
857.995	0.38
858.734	3.38
859.473	1.38
860.211	1.38
860.95	0.38
861.688	1.38
862.426	0.38
863.165	0.38
863.903	0.38
864.641	0.38
865.379	0.38
866.117	-1.62
866.855	0.38
867.593	0.38
868.33	-1.62
869.068	-1.62
869.806	-1.62
870.543	2.38
871.28	0.38
872.018	-0.62
872.755	0.38
873.492	-0.62
874.229	1.38
874.967	-0.62
875.703	-0.62
876.44	-0.62
877.177	-0.62
877.914	-0.62
878.651	0.38
879.387	1.38
880.124	-0.62
880.86	1.38
881.597	-3.62
882.333	1.38
883.069	0.38
883.806	-1.62
884.542	1.38
885.278	-1.62
886.014	0.38
886.749	-1.62
887.485	0.38
888.221	-1.62
888.957	1.38
889.692	-1.62
890.428	0.38
891.163	-0.62
891.899	-1.62
892.634	0.38
893.369	0.38
894.104	1.38
894.839	-0.62
895.574	-0.62
896.309	-0.62
897.044	2.38
897.779	1.38
898.514	0.38
899.248	0.38
899.983	-1.62
900.717	-0.62
901.452	2.38
902.186	-1.62
902.92	0.38
903.654	1.38
904.389	1.38
905.123	1.38
905.857	-0.62
906.59	0.38
907.324	-0.62
908.058	0.38
908.792	-0.62
909.525	0.38
910.259	1.38
910.992	-2.62
911.726	0.38
912.459	0.38
913.192	-0.62
913.925	-0.62
914.658	-1.62
915.391	2.38
916.124	0.38
916.857	-1.62
917.59	-1.62
918.323	-1.62
919.055	-1.62
919.788	-0.62
920.521	1.38
921.253	-1.62
921.985	0.38
922.718	1.38
923.45	-0.62
924.182	-1.62
924.914	-1.62
925.646	0.38
926.378	-1.62
927.11	-0.62
927.841	0.38
928.573	0.38
929.305	0.38
930.036	-1.62
930.768	2.38
931.499	-1.62
932.23	-0.62
932.962	-0.62
933.693	-0.62
934.424	1.38
935.155	0.38
935.886	0.38
936.617	0.38
937.348	0.38
938.078	-1.62
938.809	0.38
939.54	-0.62
940.27	0.38
941.001	-2.62
941.731	-1.62
942.461	-2.62
943.191	0.38
943.922	-1.62
944.652	-2.62
945.382	-1.62
946.112	-0.62
946.841	0.38
947.571	-0.62
948.301	-4.62
949.031	0.38
949.76	-1.62
950.49	-0.62
951.219	-1.62
951.948	-2.62
952.678	0.38
953.407	0.38
954.136	-2.62
954.865	0.38
955.594	-2.62
956.323	-0.62
957.052	-1.62
957.78	1.38
958.509	-2.62
959.238	1.38
959.966	0.38
960.695	0.38
961.423	-1.62
962.151	0.38
962.88	-2.62
963.608	-1.62
964.336	-0.62
965.064	-1.62
965.792	-0.62
966.52	0.38
967.247	-0.62
967.975	0.38
968.703	-0.62
969.43	-2.62
970.158	0.38
970.885	-0.62
971.613	0.38
972.34	-2.62
973.067	-0.62
973.794	0.38
974.521	-0.62
975.248	-2.62
975.975	-3.62
976.702	2.38
977.429	-1.62
978.156	-1.62
978.882	0.38
979.609	-2.62
980.335	-0.62
981.062	-3.62
981.788	0.38
982.514	0.38
983.24	-1.62
983.967	-2.62
984.693	-2.62
985.419	-0.62
986.144	-0.62
986.87	0.38
987.596	1.38
988.322	-2.62
989.047	-0.62
989.773	-0.62
990.498	-1.62
991.224	0.38
991.949	-0.62
992.674	0.38
993.399	0.38
994.124	-2.62
994.849	-1.62
995.574	0.38
996.299	-2.62
997.024	-0.62
997.749	-0.62
998.473	-0.62
999.198	-0.62
999.922	0.38
1000.647	-0.62
1001.371	3.38
1002.095	2.38
1002.82	-1.62
1003.544	-3.62
1004.268	-2.62
1004.992	-2.62
1005.716	-0.62
1006.439	-1.62
1007.163	0.38
1007.887	-0.62
1008.611	0.38
1009.334	-1.62
1010.058	0.38
1010.781	-2.62
1011.504	0.38
1012.228	-2.62
1012.951	0.38
1013.674	0.38
1014.397	-0.62
1015.12	-0.62
