节点500_145_QEPB04081__287__11-33-33-480.txt的数据

Date: Wed Nov 12 11:33:33 CST 2025
User: PC
Spectrometer: QEPB0408
触发模式: 0
积分时间 (秒): 1.000000E-2
Scans to average: 1
启用暗噪声校正: true
启用非线性校正: false
滑动平均宽度: 0
X轴模式: Wavelengths
Number of Pixels in Spectrum: 1044
>>>>>Begin Spectral Data<<<<<
220.843	-1.12
221.644	0.88
222.444	3.88
223.244	-1.12
224.045	-0.12
224.845	0.88
225.645	-1.12
226.445	1.88
227.245	-0.12
228.045	1.88
228.845	1.88
229.645	-0.12
230.444	0.88
231.244	0.88
232.043	2.88
232.843	2.88
233.642	1.88
234.442	2.88
235.241	-0.12
236.04	2.88
236.839	0.88
237.638	3.88
238.437	1.88
239.236	-0.12
240.035	2.88
240.833	1.88
241.632	0.88
242.43	0.88
243.229	3.88
244.027	2.88
244.826	2.88
245.624	0.88
246.422	2.88
247.22	1.88
248.018	1.88
248.816	3.88
249.614	1.88
250.412	1.88
251.21	2.88
252.007	2.88
252.805	3.88
253.602	3.88
254.4	4.88
255.197	3.88
255.994	3.88
256.791	3.88
257.589	1.88
258.386	6.88
259.183	3.88
259.979	5.88
260.776	3.88
261.573	5.88
262.37	5.88
263.166	3.88
263.963	7.88
264.759	3.88
265.556	5.88
266.352	6.88
267.148	5.88
267.944	5.88
268.74	6.88
269.536	7.88
270.332	9.88
271.128	7.88
271.924	9.88
272.719	6.88
273.515	9.88
274.311	7.88
275.106	10.88
275.901	9.88
276.697	7.88
277.492	7.88
278.287	7.88
279.082	10.88
279.877	7.88
280.672	11.88
281.467	11.88
282.262	9.88
283.056	10.88
283.851	11.88
284.646	8.88
285.44	9.88
286.234	10.88
287.029	10.88
287.823	11.88
288.617	12.88
289.411	9.88
290.205	13.88
290.999	10.88
291.793	12.88
292.587	9.88
293.381	11.88
294.174	10.88
294.968	9.88
295.761	10.88
296.555	8.88
297.348	11.88
298.141	10.88
298.935	10.88
299.728	9.88
300.521	9.88
301.314	6.88
302.107	8.88
302.899	8.88
303.692	7.88
304.485	7.88
305.277	8.88
306.07	8.88
306.862	10.88
307.655	6.88
308.447	10.88
309.239	7.88
310.031	7.88
310.823	7.88
311.615	7.88
312.407	8.88
313.199	8.88
313.991	5.88
314.783	6.88
315.574	7.88
316.366	4.88
317.157	5.88
317.949	7.88
318.74	5.88
319.531	5.88
320.322	6.88
321.113	3.88
321.904	5.88
322.695	5.88
323.486	3.88
324.277	5.88
325.068	5.88
325.858	5.88
326.649	4.88
327.439	7.88
328.23	1.88
329.02	4.88
329.81	2.88
330.6	4.88
331.391	5.88
332.181	5.88
332.971	4.88
333.76	4.88
334.55	4.88
335.34	3.88
336.13	3.88
336.919	4.88
337.709	1.88
338.498	3.88
339.287	3.88
340.077	5.88
340.866	5.88
341.655	3.88
342.444	0.88
343.233	3.88
344.022	3.88
344.811	2.88
345.6	4.88
346.388	3.88
347.177	4.88
347.965	5.88
348.754	2.88
349.542	5.88
350.33	2.88
351.119	3.88
351.907	2.88
352.695	2.88
353.483	3.88
354.271	2.88
355.059	3.88
355.846	2.88
356.634	2.88
357.422	3.88
358.209	1.88
358.997	2.88
359.784	2.88
360.571	3.88
361.359	2.88
362.146	2.88
362.933	2.88
363.72	1.88
364.507	2.88
365.294	1.88
366.081	2.88
366.867	2.88
367.654	3.88
368.44	4.88
369.227	3.88
370.013	1.88
370.8	3.88
371.586	1.88
372.372	3.88
373.158	1.88
373.944	3.88
374.73	3.88
375.516	2.88
376.302	1.88
377.088	5.88
377.873	1.88
378.659	3.88
379.445	2.88
380.23	3.88
381.015	2.88
381.801	2.88
382.586	3.88
383.371	2.88
384.156	5.88
384.941	3.88
385.726	1.88
386.511	1.88
387.296	2.88
388.08	1.88
388.865	2.88
389.649	1.88
390.434	3.88
391.218	1.88
392.003	4.88
392.787	3.88
393.571	2.88
394.355	4.88
395.139	3.88
395.923	1.88
396.707	2.88
397.491	4.88
398.274	5.88
399.058	3.88
399.842	5.88
400.625	2.88
401.408	4.88
402.192	2.88
402.975	5.88
403.758	0.88
404.541	4.88
405.324	4.88
406.107	0.88
406.89	5.88
407.673	0.88
408.456	4.88
409.238	4.88
410.021	5.88
410.803	3.88
411.586	5.88
412.368	7.88
413.151	2.88
413.933	5.88
414.715	5.88
415.497	4.88
416.279	3.88
417.061	4.88
417.843	4.88
418.624	3.88
419.406	4.88
420.188	5.88
420.969	6.88
421.751	8.88
422.532	6.88
423.313	5.88
424.095	6.88
424.876	8.88
425.657	5.88
426.438	6.88
427.219	8.88
428	4.88
428.78	5.88
429.561	5.88
430.342	6.88
431.122	7.88
431.903	8.88
432.683	7.88
433.464	6.88
434.244	7.88
435.024	7.88
435.804	10.88
436.584	9.88
437.364	9.88
438.144	11.88
438.924	10.88
439.704	10.88
440.483	14.88
441.263	10.88
442.042	11.88
442.822	13.88
443.601	12.88
444.38	13.88
445.16	16.88
445.939	14.88
446.718	18.88
447.497	17.88
448.276	19.88
449.054	20.88
449.833	24.88
450.612	25.88
451.391	25.88
452.169	29.88
452.948	31.88
453.726	35.88
454.504	36.88
455.282	40.88
456.061	46.88
456.839	45.88
457.617	53.88
458.395	60.88
459.172	67.88
459.95	72.88
460.728	82.88
461.506	88.88
462.283	101.88
463.061	110.88
463.838	129.88
464.615	135.88
465.393	156.88
466.17	169.88
466.947	193.88
467.724	218.88
468.501	234.88
469.278	272.88
470.055	301.88
470.831	339.88
471.608	377.88
472.385	414.88
473.161	462.88
473.938	509.88
474.714	568.88
475.49	621.88
476.266	696.88
477.043	764.88
477.819	844.88
478.595	934.88
479.371	1024.88
480.146	1155.88
480.922	1266.88
481.698	1403.88
482.473	1557.88
483.249	1700.88
484.024	1870.88
484.8	2057.88
485.575	2276.88
486.35	2523.88
487.126	2797.88
487.901	3081.88
488.676	3358.88
489.451	3681.88
490.225	4070.88
491	4468.88
491.775	4885.88
492.55	5392.88
493.324	5882.88
494.099	6463.88
494.873	7021.88
495.647	7672.88
496.422	8325.88
497.196	9022.88
497.97	9739.88
498.744	10458.88
499.518	11213.88
500.292	11947.88
501.066	12673.88
501.839	13367.88
502.613	14058.88
503.387	14595.88
504.16	15195.88
504.934	15680.88
505.707	15994.88
506.48	16263.88
507.253	16442.88
508.027	16498.88
508.8	16442.88
509.573	16307.88
510.346	16043.88
511.118	15726.88
511.891	15310.88
512.664	14872.88
513.437	14321.88
514.209	13829.88
514.982	13272.88
515.754	12724.88
516.526	12192.88
517.298	11630.88
518.071	11043.88
518.843	10629.88
519.615	10161.88
520.387	9711.88
521.159	9387.88
521.93	8991.88
522.702	8608.88
523.474	8288.88
524.245	7937.88
525.017	7664.88
525.788	7342.88
526.56	7024.88
527.331	6747.88
528.102	6459.88
528.873	6158.88
529.644	5925.88
530.415	5631.88
531.186	5346.88
531.957	5081.88
532.728	4823.88
533.498	4559.88
534.269	4342.88
535.039	4088.88
535.81	3841.88
536.58	3659.88
537.351	3417.88
538.121	3248.88
538.891	3076.88
539.661	2881.88
540.431	2756.88
541.201	2598.88
541.971	2467.88
542.741	2333.88
543.51	2204.88
544.28	2087.88
545.05	1999.88
545.819	1896.88
546.588	1811.88
547.358	1712.88
548.127	1624.88
548.896	1545.88
549.665	1452.88
550.434	1383.88
551.203	1320.88
551.972	1257.88
552.741	1186.88
553.51	1125.88
554.278	1062.88
555.047	1002.88
555.815	937.88
556.584	892.88
557.352	836.88
558.121	803.88
558.889	748.88
559.657	705.88
560.425	665.88
561.193	623.88
561.961	586.88
562.729	552.88
563.496	520.88
564.264	489.88
565.032	470.88
565.799	450.88
566.567	418.88
567.334	393.88
568.101	377.88
568.869	354.88
569.636	329.88
570.403	312.88
571.17	290.88
571.937	281.88
572.704	257.88
573.471	245.88
574.237	237.88
575.004	215.88
575.771	207.88
576.537	193.88
577.303	184.88
578.07	174.88
578.836	160.88
579.602	155.88
580.368	143.88
581.134	135.88
581.9	126.88
582.666	127.88
583.432	112.88
584.198	108.88
584.964	106.88
585.729	102.88
586.495	90.88
587.26	87.88
588.025	81.88
588.791	82.88
589.556	71.88
590.321	73.88
591.086	65.88
591.851	62.88
592.616	63.88
593.381	55.88
594.146	55.88
594.911	54.88
595.675	48.88
596.44	48.88
597.204	44.88
597.969	42.88
598.733	44.88
599.497	36.88
600.261	37.88
601.025	37.88
601.79	35.88
602.553	30.88
603.317	29.88
604.081	29.88
604.845	26.88
605.609	28.88
606.372	27.88
607.136	24.88
607.899	23.88
608.662	25.88
609.426	21.88
610.189	19.88
610.952	21.88
611.715	19.88
612.478	21.88
613.241	16.88
614.004	14.88
614.767	13.88
615.529	13.88
616.292	15.88
617.055	13.88
617.817	14.88
618.579	12.88
619.342	12.88
620.104	11.88
620.866	12.88
621.628	11.88
622.39	11.88
623.152	11.88
623.914	10.88
624.676	12.88
625.438	10.88
626.199	8.88
626.961	11.88
627.722	8.88
628.484	8.88
629.245	8.88
630.006	7.88
630.768	7.88
631.529	11.88
632.29	6.88
633.051	6.88
633.812	7.88
634.573	6.88
635.333	6.88
636.094	5.88
636.855	6.88
637.615	7.88
638.376	6.88
639.136	5.88
639.896	4.88
640.657	4.88
641.417	5.88
642.177	3.88
642.937	6.88
643.697	2.88
644.457	6.88
645.216	3.88
645.976	4.88
646.736	6.88
647.495	4.88
648.255	6.88
649.014	5.88
649.774	4.88
650.533	3.88
651.292	6.88
652.051	3.88
652.81	3.88
653.569	3.88
654.328	2.88
655.087	3.88
655.846	4.88
656.604	4.88
657.363	1.88
658.121	4.88
658.88	5.88
659.638	2.88
660.397	2.88
661.155	2.88
661.913	4.88
662.671	3.88
663.429	5.88
664.187	3.88
664.945	2.88
665.703	2.88
666.46	2.88
667.218	2.88
667.976	4.88
668.733	1.88
669.49	2.88
670.248	2.88
671.005	2.88
671.762	4.88
672.519	4.88
673.276	4.88
674.033	5.88
674.79	3.88
675.547	1.88
676.304	4.88
677.06	3.88
677.817	0.88
678.574	2.88
679.33	5.88
680.086	5.88
680.843	0.88
681.599	3.88
682.355	1.88
683.111	0.88
683.867	2.88
684.623	1.88
685.379	1.88
686.135	0.88
686.89	5.88
687.646	0.88
688.402	1.88
689.157	2.88
689.912	-0.12
690.668	2.88
691.423	4.88
692.178	3.88
692.933	2.88
693.688	0.88
694.443	2.88
695.198	3.88
695.953	-0.12
696.708	1.88
697.462	2.88
698.217	3.88
698.972	0.88
699.726	0.88
700.48	2.88
701.235	3.88
701.989	2.88
702.743	3.88
703.497	2.88
704.251	1.88
705.005	2.88
705.759	1.88
706.513	1.88
707.266	0.88
708.02	2.88
708.774	2.88
709.527	1.88
710.28	1.88
711.034	1.88
711.787	2.88
712.54	2.88
713.293	2.88
714.046	3.88
714.799	2.88
715.552	2.88
716.305	1.88
717.058	3.88
717.81	1.88
718.563	2.88
719.315	2.88
720.068	0.88
720.82	4.88
721.573	2.88
722.325	2.88
723.077	3.88
723.829	2.88
724.581	0.88
725.333	3.88
726.085	1.88
726.836	1.88
727.588	1.88
728.34	0.88
729.091	3.88
729.843	1.88
730.594	1.88
731.346	5.88
732.097	1.88
732.848	2.88
733.599	0.88
734.35	1.88
735.101	2.88
735.852	2.88
736.603	3.88
737.354	2.88
738.104	3.88
738.855	1.88
739.605	0.88
740.356	4.88
741.106	3.88
741.856	1.88
742.607	1.88
743.357	0.88
744.107	3.88
744.857	3.88
745.607	1.88
746.357	1.88
747.106	1.88
747.856	2.88
748.606	2.88
749.355	2.88
750.105	2.88
750.854	2.88
751.603	2.88
752.353	2.88
753.102	2.88
753.851	2.88
754.6	1.88
755.349	5.88
756.098	3.88
756.847	4.88
757.595	4.88
758.344	4.88
759.093	4.88
759.841	0.88
760.589	5.88
761.338	4.88
762.086	4.88
762.834	3.88
763.582	2.88
764.331	5.88
765.079	3.88
765.826	3.88
766.574	3.88
767.322	4.88
768.07	3.88
768.817	2.88
769.565	4.88
770.312	3.88
771.06	6.88
771.807	5.88
772.554	4.88
773.302	5.88
774.049	4.88
774.796	5.88
775.543	4.88
776.29	6.88
777.036	3.88
777.783	3.88
778.53	6.88
779.276	6.88
780.023	5.88
780.769	5.88
781.516	3.88
782.262	6.88
783.008	4.88
783.754	5.88
784.5	3.88
785.246	5.88
785.992	5.88
786.738	5.88
787.484	4.88
788.23	7.88
788.975	4.88
789.721	3.88
790.466	5.88
791.212	4.88
791.957	7.88
792.702	2.88
793.447	6.88
794.193	5.88
794.938	4.88
795.683	6.88
796.427	3.88
797.172	4.88
797.917	5.88
798.662	4.88
799.406	6.88
800.151	4.88
800.895	7.88
801.64	4.88
802.384	1.88
803.128	4.88
803.872	4.88
804.616	3.88
805.36	3.88
806.104	3.88
806.848	2.88
807.592	5.88
808.336	5.88
809.079	3.88
809.823	5.88
810.566	4.88
811.31	5.88
812.053	1.88
812.796	2.88
813.539	4.88
814.283	3.88
815.026	2.88
815.769	3.88
816.511	3.88
817.254	2.88
817.997	6.88
818.74	5.88
819.482	3.88
820.225	3.88
820.967	3.88
821.71	3.88
822.452	2.88
823.194	3.88
823.936	4.88
824.678	1.88
825.42	2.88
826.162	2.88
826.904	1.88
827.646	1.88
828.388	3.88
829.129	2.88
829.871	3.88
830.612	5.88
831.354	3.88
832.095	2.88
832.836	2.88
833.577	4.88
834.319	4.88
835.06	2.88
835.801	2.88
836.542	2.88
837.282	2.88
838.023	4.88
838.764	2.88
839.504	4.88
840.245	0.88
840.985	2.88
841.726	2.88
842.466	2.88
843.206	3.88
843.946	1.88
844.687	3.88
845.427	2.88
846.166	3.88
846.906	1.88
847.646	1.88
848.386	3.88
849.125	1.88
849.865	2.88
850.605	1.88
851.344	0.88
852.083	1.88
852.823	0.88
853.562	-0.12
854.301	1.88
855.04	4.88
855.779	0.88
856.518	1.88
857.257	3.88
857.995	2.88
858.734	0.88
859.473	0.88
860.211	1.88
860.95	2.88
861.688	4.88
862.426	2.88
863.165	1.88
863.903	2.88
864.641	0.88
865.379	1.88
866.117	0.88
866.855	3.88
867.593	0.88
868.33	-0.12
869.068	2.88
869.806	2.88
870.543	2.88
871.28	2.88
872.018	2.88
872.755	1.88
873.492	0.88
874.229	3.88
874.967	0.88
875.703	4.88
876.44	0.88
877.177	-0.12
877.914	-0.12
878.651	1.88
879.387	2.88
880.124	-1.12
880.86	1.88
881.597	1.88
882.333	1.88
883.069	-0.12
883.806	2.88
884.542	3.88
885.278	1.88
886.014	2.88
886.749	-0.12
887.485	1.88
888.221	-0.12
888.957	0.88
889.692	1.88
890.428	-0.12
891.163	0.88
891.899	0.88
892.634	1.88
893.369	-0.12
894.104	-0.12
894.839	3.88
895.574	-1.12
896.309	1.88
897.044	1.88
897.779	1.88
898.514	1.88
899.248	0.88
899.983	2.88
900.717	0.88
901.452	1.88
902.186	0.88
902.92	1.88
903.654	-0.12
904.389	-1.12
905.123	-0.12
905.857	-1.12
906.59	1.88
907.324	0.88
908.058	0.88
908.792	-1.12
909.525	1.88
910.259	0.88
910.992	0.88
911.726	1.88
912.459	3.88
913.192	-1.12
913.925	0.88
914.658	-0.12
915.391	-0.12
916.124	0.88
916.857	-1.12
917.59	-0.12
918.323	-0.12
919.055	0.88
919.788	-1.12
920.521	2.88
921.253	1.88
921.985	0.88
922.718	2.88
923.45	-0.12
924.182	-0.12
924.914	-1.12
925.646	1.88
926.378	-1.12
927.11	0.88
927.841	-0.12
928.573	0.88
929.305	0.88
930.036	-1.12
930.768	0.88
931.499	-1.12
932.23	-0.12
932.962	1.88
933.693	-1.12
934.424	-0.12
935.155	1.88
935.886	0.88
936.617	-0.12
937.348	0.88
938.078	1.88
938.809	-1.12
939.54	2.88
940.27	-0.12
941.001	-0.12
941.731	0.88
942.461	-1.12
943.191	1.88
943.922	-1.12
944.652	1.88
945.382	-0.12
946.112	-1.12
946.841	-0.12
947.571	1.88
948.301	1.88
949.031	0.88
949.76	0.88
950.49	0.88
951.219	2.88
951.948	-0.12
952.678	1.88
953.407	1.88
954.136	-0.12
954.865	2.88
955.594	1.88
956.323	0.88
957.052	-0.12
957.78	-2.12
958.509	-1.12
959.238	0.88
959.966	1.88
960.695	-0.12
961.423	4.88
962.151	-0.12
962.88	-0.12
963.608	0.88
964.336	-0.12
965.064	1.88
965.792	2.88
966.52	0.88
967.247	-1.12
967.975	-0.12
968.703	2.88
969.43	-1.12
970.158	-0.12
970.885	-0.12
971.613	2.88
972.34	-1.12
973.067	0.88
973.794	-1.12
974.521	-1.12
975.248	0.88
975.975	0.88
976.702	1.88
977.429	-0.12
978.156	0.88
978.882	1.88
979.609	-1.12
980.335	0.88
981.062	0.88
981.788	-0.12
982.514	1.88
983.24	1.88
983.967	0.88
984.693	0.88
985.419	-1.12
986.144	0.88
986.87	-0.12
987.596	0.88
988.322	0.88
989.047	-0.12
989.773	1.88
990.498	-1.12
991.224	-0.12
991.949	1.88
992.674	1.88
993.399	-0.12
994.124	0.88
994.849	1.88
995.574	1.88
996.299	0.88
997.024	-0.12
997.749	-1.12
998.473	-1.12
999.198	0.88
999.922	0.88
1000.647	-0.12
1001.371	1.88
1002.095	-2.12
1002.82	-1.12
1003.544	0.88
1004.268	-0.12
1004.992	1.88
1005.716	-0.12
1006.439	-0.12
1007.163	1.88
1007.887	-1.12
1008.611	0.88
1009.334	-0.12
1010.058	-0.12
1010.781	1.88
1011.504	0.88
1012.228	-0.12
1012.951	-0.12
1013.674	-0.12
1014.397	0.88
1015.12	-0.12
