节点500_145_QEPB04081__548__11-37-39-445.txt的数据

Date: Wed Nov 12 11:37:39 CST 2025
User: PC
Spectrometer: QEPB0408
触发模式: 0
积分时间 (秒): 1.000000E-2
Scans to average: 1
启用暗噪声校正: true
启用非线性校正: false
滑动平均宽度: 0
X轴模式: Wavelengths
Number of Pixels in Spectrum: 1044
>>>>>Begin Spectral Data<<<<<
220.843	-1.5
221.644	-0.5
222.444	-2.5
223.244	-0.5
224.045	1.5
224.845	-0.5
225.645	-1.5
226.445	0.5
227.245	-1.5
228.045	0.5
228.845	2.5
229.645	0.5
230.444	2.5
231.244	1.5
232.043	-0.5
232.843	3.5
233.642	1.5
234.442	2.5
235.241	0.5
236.04	-0.5
236.839	0.5
237.638	-0.5
238.437	1.5
239.236	-2.5
240.035	2.5
240.833	2.5
241.632	0.5
242.43	1.5
243.229	3.5
244.027	3.5
244.826	0.5
245.624	2.5
246.422	2.5
247.22	1.5
248.018	4.5
248.816	3.5
249.614	0.5
250.412	2.5
251.21	1.5
252.007	2.5
252.805	2.5
253.602	0.5
254.4	1.5
255.197	5.5
255.994	2.5
256.791	2.5
257.589	2.5
258.386	2.5
259.183	2.5
259.979	4.5
260.776	4.5
261.573	3.5
262.37	4.5
263.166	5.5
263.963	3.5
264.759	6.5
265.556	7.5
266.352	7.5
267.148	3.5
267.944	5.5
268.74	5.5
269.536	8.5
270.332	8.5
271.128	7.5
271.924	6.5
272.719	4.5
273.515	5.5
274.311	7.5
275.106	7.5
275.901	9.5
276.697	8.5
277.492	8.5
278.287	9.5
279.082	9.5
279.877	8.5
280.672	7.5
281.467	10.5
282.262	8.5
283.056	10.5
283.851	10.5
284.646	10.5
285.44	10.5
286.234	11.5
287.029	9.5
287.823	10.5
288.617	10.5
289.411	9.5
290.205	11.5
290.999	9.5
291.793	10.5
292.587	11.5
293.381	7.5
294.174	10.5
294.968	9.5
295.761	10.5
296.555	9.5
297.348	9.5
298.141	9.5
298.935	7.5
299.728	9.5
300.521	10.5
301.314	8.5
302.107	7.5
302.899	7.5
303.692	8.5
304.485	8.5
305.277	7.5
306.07	8.5
306.862	6.5
307.655	9.5
308.447	7.5
309.239	9.5
310.031	7.5
310.823	6.5
311.615	4.5
312.407	5.5
313.199	6.5
313.991	8.5
314.783	7.5
315.574	6.5
316.366	7.5
317.157	5.5
317.949	5.5
318.74	6.5
319.531	4.5
320.322	4.5
321.113	4.5
321.904	5.5
322.695	4.5
323.486	7.5
324.277	5.5
325.068	2.5
325.858	4.5
326.649	4.5
327.439	3.5
328.23	6.5
329.02	4.5
329.81	5.5
330.6	3.5
331.391	3.5
332.181	3.5
332.971	2.5
333.76	3.5
334.55	2.5
335.34	3.5
336.13	4.5
336.919	1.5
337.709	3.5
338.498	1.5
339.287	3.5
340.077	5.5
340.866	3.5
341.655	3.5
342.444	4.5
343.233	2.5
344.022	2.5
344.811	3.5
345.6	3.5
346.388	3.5
347.177	2.5
347.965	2.5
348.754	0.5
349.542	5.5
350.33	0.5
351.119	3.5
351.907	3.5
352.695	3.5
353.483	2.5
354.271	1.5
355.059	1.5
355.846	2.5
356.634	4.5
357.422	2.5
358.209	2.5
358.997	5.5
359.784	2.5
360.571	3.5
361.359	2.5
362.146	3.5
362.933	3.5
363.72	3.5
364.507	2.5
365.294	1.5
366.081	2.5
366.867	3.5
367.654	1.5
368.44	4.5
369.227	1.5
370.013	5.5
370.8	5.5
371.586	2.5
372.372	3.5
373.158	1.5
373.944	2.5
374.73	1.5
375.516	3.5
376.302	3.5
377.088	3.5
377.873	3.5
378.659	1.5
379.445	2.5
380.23	2.5
381.015	3.5
381.801	1.5
382.586	2.5
383.371	1.5
384.156	3.5
384.941	2.5
385.726	2.5
386.511	4.5
387.296	5.5
388.08	2.5
388.865	1.5
389.649	2.5
390.434	3.5
391.218	2.5
392.003	3.5
392.787	3.5
393.571	0.5
394.355	1.5
395.139	0.5
395.923	2.5
396.707	2.5
397.491	2.5
398.274	1.5
399.058	3.5
399.842	2.5
400.625	3.5
401.408	4.5
402.192	4.5
402.975	3.5
403.758	3.5
404.541	2.5
405.324	2.5
406.107	6.5
406.89	6.5
407.673	3.5
408.456	5.5
409.238	2.5
410.021	4.5
410.803	4.5
411.586	2.5
412.368	4.5
413.151	6.5
413.933	6.5
414.715	4.5
415.497	1.5
416.279	5.5
417.061	4.5
417.843	2.5
418.624	6.5
419.406	4.5
420.188	2.5
420.969	7.5
421.751	3.5
422.532	7.5
423.313	3.5
424.095	3.5
424.876	6.5
425.657	7.5
426.438	4.5
427.219	8.5
428	9.5
428.78	9.5
429.561	5.5
430.342	6.5
431.122	7.5
431.903	5.5
432.683	6.5
433.464	7.5
434.244	6.5
435.024	8.5
435.804	9.5
436.584	9.5
437.364	8.5
438.144	11.5
438.924	13.5
439.704	12.5
440.483	10.5
441.263	11.5
442.042	10.5
442.822	14.5
443.601	15.5
444.38	14.5
445.16	15.5
445.939	16.5
446.718	14.5
447.497	19.5
448.276	20.5
449.054	24.5
449.833	22.5
450.612	27.5
451.391	29.5
452.169	30.5
452.948	36.5
453.726	34.5
454.504	39.5
455.282	43.5
456.061	45.5
456.839	54.5
457.617	58.5
458.395	67.5
459.172	73.5
459.95	81.5
460.728	87.5
461.506	98.5
462.283	113.5
463.061	119.5
463.838	138.5
464.615	156.5
465.393	168.5
466.17	189.5
466.947	209.5
467.724	229.5
468.501	249.5
469.278	286.5
470.055	317.5
470.831	353.5
471.608	394.5
472.385	432.5
473.161	476.5
473.938	520.5
474.714	587.5
475.49	657.5
476.266	723.5
477.043	790.5
477.819	877.5
478.595	949.5
479.371	1059.5
480.146	1151.5
480.922	1286.5
481.698	1395.5
482.473	1533.5
483.249	1701.5
484.024	1869.5
484.8	2024.5
485.575	2234.5
486.35	2433.5
487.126	2680.5
487.901	2911.5
488.676	3204.5
489.451	3507.5
490.225	3847.5
491	4200.5
491.775	4594.5
492.55	5022.5
493.324	5486.5
494.099	5944.5
494.873	6509.5
495.647	7023.5
496.422	7623.5
497.196	8237.5
497.97	8856.5
498.744	9524.5
499.518	10236.5
500.292	10881.5
501.066	11556.5
501.839	12158.5
502.613	12835.5
503.387	13441.5
504.16	13961.5
504.934	14480.5
505.707	14864.5
506.48	15172.5
507.253	15400.5
508.027	15517.5
508.8	15635.5
509.573	15575.5
510.346	15405.5
511.118	15227.5
511.891	14963.5
512.664	14510.5
513.437	14150.5
514.209	13708.5
514.982	13204.5
515.754	12764.5
516.526	12246.5
517.298	11651.5
518.071	11167.5
518.843	10709.5
519.615	10306.5
520.387	9894.5
521.159	9451.5
521.93	9087.5
522.702	8700.5
523.474	8376.5
524.245	8069.5
525.017	7711.5
525.788	7424.5
526.56	7129.5
527.331	6839.5
528.102	6575.5
528.873	6257.5
529.644	5965.5
530.415	5734.5
531.186	5481.5
531.957	5240.5
532.728	4966.5
533.498	4706.5
534.269	4464.5
535.039	4214.5
535.81	3996.5
536.58	3782.5
537.351	3593.5
538.121	3393.5
538.891	3190.5
539.661	3022.5
540.431	2854.5
541.201	2720.5
541.971	2577.5
542.741	2427.5
543.51	2280.5
544.28	2173.5
545.05	2062.5
545.819	1964.5
546.588	1866.5
547.358	1781.5
548.127	1679.5
548.896	1603.5
549.665	1535.5
550.434	1458.5
551.203	1379.5
551.972	1320.5
552.741	1236.5
553.51	1159.5
554.278	1123.5
555.047	1058.5
555.815	986.5
556.584	945.5
557.352	889.5
558.121	826.5
558.889	787.5
559.657	748.5
560.425	705.5
561.193	663.5
561.961	624.5
562.729	598.5
563.496	560.5
564.264	530.5
565.032	496.5
565.799	470.5
566.567	440.5
567.334	422.5
568.101	397.5
568.869	371.5
569.636	356.5
570.403	333.5
571.17	311.5
571.937	289.5
572.704	273.5
573.471	259.5
574.237	250.5
575.004	237.5
575.771	215.5
576.537	205.5
577.303	192.5
578.07	181.5
578.836	173.5
579.602	163.5
580.368	150.5
581.134	146.5
581.9	138.5
582.666	130.5
583.432	123.5
584.198	117.5
584.964	110.5
585.729	109.5
586.495	95.5
587.26	92.5
588.025	87.5
588.791	83.5
589.556	77.5
590.321	76.5
591.086	68.5
591.851	69.5
592.616	62.5
593.381	55.5
594.146	56.5
594.911	54.5
595.675	54.5
596.44	50.5
597.204	45.5
597.969	42.5
598.733	47.5
599.497	40.5
600.261	34.5
601.025	37.5
601.79	37.5
602.553	33.5
603.317	30.5
604.081	27.5
604.845	29.5
605.609	28.5
606.372	29.5
607.136	27.5
607.899	22.5
608.662	24.5
609.426	23.5
610.189	20.5
610.952	20.5
611.715	20.5
612.478	19.5
613.241	17.5
614.004	18.5
614.767	13.5
615.529	19.5
616.292	15.5
617.055	14.5
617.817	16.5
618.579	13.5
619.342	16.5
620.104	12.5
620.866	12.5
621.628	10.5
622.39	12.5
623.152	10.5
623.914	10.5
624.676	10.5
625.438	9.5
626.199	12.5
626.961	8.5
627.722	7.5
628.484	12.5
629.245	7.5
630.006	7.5
630.768	11.5
631.529	5.5
632.29	6.5
633.051	5.5
633.812	8.5
634.573	5.5
635.333	7.5
636.094	7.5
636.855	7.5
637.615	4.5
638.376	7.5
639.136	5.5
639.896	6.5
640.657	6.5
641.417	3.5
642.177	4.5
642.937	6.5
643.697	5.5
644.457	3.5
645.216	5.5
645.976	4.5
646.736	1.5
647.495	4.5
648.255	5.5
649.014	5.5
649.774	2.5
650.533	1.5
651.292	2.5
652.051	0.5
652.81	1.5
653.569	3.5
654.328	4.5
655.087	4.5
655.846	3.5
656.604	6.5
657.363	5.5
658.121	2.5
658.88	5.5
659.638	3.5
660.397	3.5
661.155	2.5
661.913	2.5
662.671	1.5
663.429	2.5
664.187	3.5
664.945	1.5
665.703	2.5
666.46	2.5
667.218	2.5
667.976	3.5
668.733	3.5
669.49	5.5
670.248	0.5
671.005	2.5
671.762	4.5
672.519	1.5
673.276	2.5
674.033	2.5
674.79	1.5
675.547	3.5
676.304	3.5
677.06	2.5
677.817	2.5
678.574	2.5
679.33	1.5
680.086	0.5
680.843	1.5
681.599	3.5
682.355	3.5
683.111	1.5
683.867	3.5
684.623	1.5
685.379	0.5
686.135	0.5
686.89	2.5
687.646	0.5
688.402	1.5
689.157	2.5
689.912	3.5
690.668	1.5
691.423	2.5
692.178	0.5
692.933	2.5
693.688	3.5
694.443	2.5
695.198	1.5
695.953	2.5
696.708	1.5
697.462	2.5
698.217	0.5
698.972	2.5
699.726	1.5
700.48	0.5
701.235	1.5
701.989	2.5
702.743	1.5
703.497	1.5
704.251	-0.5
705.005	1.5
705.759	1.5
706.513	2.5
707.266	0.5
708.02	0.5
708.774	1.5
709.527	2.5
710.28	-1.5
711.034	1.5
711.787	1.5
712.54	0.5
713.293	1.5
714.046	0.5
714.799	2.5
715.552	3.5
716.305	1.5
717.058	1.5
717.81	2.5
718.563	2.5
719.315	1.5
720.068	-0.5
720.82	2.5
721.573	-0.5
722.325	1.5
723.077	0.5
723.829	2.5
724.581	1.5
725.333	2.5
726.085	2.5
726.836	1.5
727.588	2.5
728.34	3.5
729.091	3.5
729.843	2.5
730.594	2.5
731.346	2.5
732.097	1.5
732.848	4.5
733.599	2.5
734.35	2.5
735.101	2.5
735.852	2.5
736.603	3.5
737.354	-1.5
738.104	2.5
738.855	3.5
739.605	2.5
740.356	2.5
741.106	2.5
741.856	3.5
742.607	3.5
743.357	4.5
744.107	2.5
744.857	2.5
745.607	2.5
746.357	1.5
747.106	0.5
747.856	3.5
748.606	1.5
749.355	-0.5
750.105	3.5
750.854	2.5
751.603	2.5
752.353	2.5
753.102	3.5
753.851	5.5
754.6	2.5
755.349	1.5
756.098	3.5
756.847	1.5
757.595	4.5
758.344	1.5
759.093	0.5
759.841	2.5
760.589	2.5
761.338	3.5
762.086	4.5
762.834	3.5
763.582	3.5
764.331	2.5
765.079	2.5
765.826	2.5
766.574	5.5
767.322	2.5
768.07	2.5
768.817	2.5
769.565	1.5
770.312	4.5
771.06	5.5
771.807	5.5
772.554	7.5
773.302	4.5
774.049	4.5
774.796	5.5
775.543	4.5
776.29	2.5
777.036	3.5
777.783	3.5
778.53	5.5
779.276	4.5
780.023	4.5
780.769	4.5
781.516	3.5
782.262	5.5
783.008	5.5
783.754	6.5
784.5	4.5
785.246	4.5
785.992	3.5
786.738	4.5
787.484	6.5
788.23	3.5
788.975	5.5
789.721	5.5
790.466	7.5
791.212	5.5
791.957	4.5
792.702	2.5
793.447	4.5
794.193	2.5
794.938	5.5
795.683	4.5
796.427	6.5
797.172	4.5
797.917	3.5
798.662	2.5
799.406	5.5
800.151	1.5
800.895	5.5
801.64	4.5
802.384	6.5
803.128	2.5
803.872	3.5
804.616	3.5
805.36	4.5
806.104	2.5
806.848	3.5
807.592	2.5
808.336	3.5
809.079	1.5
809.823	1.5
810.566	5.5
811.31	6.5
812.053	4.5
812.796	1.5
813.539	2.5
814.283	1.5
815.026	2.5
815.769	4.5
816.511	3.5
817.254	2.5
817.997	4.5
818.74	2.5
819.482	2.5
820.225	4.5
820.967	2.5
821.71	5.5
822.452	3.5
823.194	3.5
823.936	3.5
824.678	3.5
825.42	4.5
826.162	2.5
826.904	1.5
827.646	2.5
828.388	0.5
829.129	3.5
829.871	2.5
830.612	1.5
831.354	2.5
832.095	1.5
832.836	2.5
833.577	1.5
834.319	3.5
835.06	1.5
835.801	3.5
836.542	1.5
837.282	3.5
838.023	3.5
838.764	3.5
839.504	1.5
840.245	2.5
840.985	2.5
841.726	2.5
842.466	3.5
843.206	2.5
843.946	1.5
844.687	2.5
845.427	1.5
846.166	1.5
846.906	1.5
847.646	0.5
848.386	3.5
849.125	2.5
849.865	1.5
850.605	1.5
851.344	0.5
852.083	0.5
852.823	2.5
853.562	2.5
854.301	3.5
855.04	2.5
855.779	0.5
856.518	1.5
857.257	1.5
857.995	2.5
858.734	1.5
859.473	3.5
860.211	2.5
860.95	2.5
861.688	-0.5
862.426	1.5
863.165	0.5
863.903	1.5
864.641	2.5
865.379	2.5
866.117	-1.5
866.855	1.5
867.593	1.5
868.33	2.5
869.068	1.5
869.806	-1.5
870.543	0.5
871.28	0.5
872.018	1.5
872.755	0.5
873.492	1.5
874.229	-0.5
874.967	0.5
875.703	1.5
876.44	2.5
877.177	0.5
877.914	1.5
878.651	0.5
879.387	0.5
880.124	0.5
880.86	-0.5
881.597	0.5
882.333	0.5
883.069	1.5
883.806	0.5
884.542	1.5
885.278	0.5
886.014	1.5
886.749	1.5
887.485	-1.5
888.221	-1.5
888.957	2.5
889.692	0.5
890.428	-0.5
891.163	0.5
891.899	1.5
892.634	2.5
893.369	1.5
894.104	1.5
894.839	1.5
895.574	-0.5
896.309	-0.5
897.044	2.5
897.779	0.5
898.514	1.5
899.248	-3.5
899.983	2.5
900.717	-0.5
901.452	0.5
902.186	-0.5
902.92	2.5
903.654	1.5
904.389	-1.5
905.123	0.5
905.857	1.5
906.59	-0.5
907.324	0.5
908.058	0.5
908.792	1.5
909.525	0.5
910.259	3.5
910.992	1.5
911.726	0.5
912.459	0.5
913.192	-0.5
913.925	0.5
914.658	-0.5
915.391	1.5
916.124	1.5
916.857	-1.5
917.59	1.5
918.323	-0.5
919.055	-0.5
919.788	0.5
920.521	-0.5
921.253	-0.5
921.985	0.5
922.718	1.5
923.45	1.5
924.182	1.5
924.914	1.5
925.646	-1.5
926.378	-2.5
927.11	-0.5
927.841	2.5
928.573	1.5
929.305	2.5
930.036	-1.5
930.768	-1.5
931.499	0.5
932.23	1.5
932.962	2.5
933.693	-1.5
934.424	-1.5
935.155	0.5
935.886	0.5
936.617	-2.5
937.348	-1.5
938.078	0.5
938.809	-1.5
939.54	0.5
940.27	0.5
941.001	1.5
941.731	-0.5
942.461	0.5
943.191	-0.5
943.922	-1.5
944.652	0.5
945.382	1.5
946.112	0.5
946.841	-1.5
947.571	0.5
948.301	1.5
949.031	-2.5
949.76	1.5
950.49	-0.5
951.219	1.5
951.948	0.5
952.678	0.5
953.407	0.5
954.136	2.5
954.865	-1.5
955.594	1.5
956.323	1.5
957.052	1.5
957.78	-1.5
958.509	1.5
959.238	-0.5
959.966	0.5
960.695	2.5
961.423	1.5
962.151	0.5
962.88	1.5
963.608	1.5
964.336	-0.5
965.064	-0.5
965.792	0.5
966.52	1.5
967.247	-1.5
967.975	-0.5
968.703	-0.5
969.43	1.5
970.158	1.5
970.885	1.5
971.613	-1.5
972.34	0.5
973.067	-0.5
973.794	1.5
974.521	-0.5
975.248	0.5
975.975	-1.5
976.702	-1.5
977.429	0.5
978.156	0.5
978.882	0.5
979.609	-0.5
980.335	0.5
981.062	1.5
981.788	-2.5
982.514	1.5
983.24	1.5
983.967	1.5
984.693	-1.5
985.419	0.5
986.144	2.5
986.87	-2.5
987.596	1.5
988.322	0.5
989.047	1.5
989.773	0.5
990.498	-0.5
991.224	1.5
991.949	0.5
992.674	-0.5
993.399	1.5
994.124	1.5
994.849	-1.5
995.574	-0.5
996.299	0.5
997.024	-0.5
997.749	0.5
998.473	-0.5
999.198	2.5
999.922	-0.5
1000.647	0.5
1001.371	4.5
1002.095	1.5
1002.82	-3.5
1003.544	-3.5
1004.268	-0.5
1004.992	-2.5
1005.716	0.5
1006.439	1.5
1007.163	-0.5
1007.887	1.5
1008.611	-0.5
1009.334	1.5
1010.058	0.5
1010.781	-2.5
1011.504	1.5
1012.228	1.5
1012.951	0.5
1013.674	0.5
1014.397	0.5
1015.12	-0.5
