节点500_145_QEPB04081__211__11-32-20-488.txt的数据

Date: Wed Nov 12 11:32:20 CST 2025
User: PC
Spectrometer: QEPB0408
触发模式: 0
积分时间 (秒): 1.000000E-2
Scans to average: 1
启用暗噪声校正: true
启用非线性校正: false
滑动平均宽度: 0
X轴模式: Wavelengths
Number of Pixels in Spectrum: 1044
>>>>>Begin Spectral Data<<<<<
220.843	-0.38
221.644	1.62
222.444	-0.38
223.244	0.62
224.045	2.62
224.845	-0.38
225.645	0.62
226.445	1.62
227.245	0.62
228.045	-1.38
228.845	-0.38
229.645	2.62
230.444	-2.38
231.244	0.62
232.043	2.62
232.843	2.62
233.642	0.62
234.442	2.62
235.241	-1.38
236.04	0.62
236.839	2.62
237.638	0.62
238.437	2.62
239.236	1.62
240.035	0.62
240.833	0.62
241.632	2.62
242.43	3.62
243.229	2.62
244.027	1.62
244.826	2.62
245.624	2.62
246.422	2.62
247.22	3.62
248.018	3.62
248.816	3.62
249.614	4.62
250.412	2.62
251.21	2.62
252.007	2.62
252.805	3.62
253.602	2.62
254.4	1.62
255.197	3.62
255.994	3.62
256.791	4.62
257.589	1.62
258.386	4.62
259.183	5.62
259.979	1.62
260.776	4.62
261.573	2.62
262.37	5.62
263.166	7.62
263.963	3.62
264.759	4.62
265.556	7.62
266.352	7.62
267.148	5.62
267.944	7.62
268.74	8.62
269.536	7.62
270.332	9.62
271.128	6.62
271.924	6.62
272.719	9.62
273.515	6.62
274.311	8.62
275.106	6.62
275.901	7.62
276.697	10.62
277.492	10.62
278.287	11.62
279.082	10.62
279.877	11.62
280.672	8.62
281.467	9.62
282.262	9.62
283.056	13.62
283.851	9.62
284.646	9.62
285.44	10.62
286.234	9.62
287.029	11.62
287.823	12.62
288.617	11.62
289.411	9.62
290.205	11.62
290.999	12.62
291.793	13.62
292.587	12.62
293.381	11.62
294.174	10.62
294.968	9.62
295.761	12.62
296.555	8.62
297.348	9.62
298.141	10.62
298.935	9.62
299.728	9.62
300.521	10.62
301.314	9.62
302.107	10.62
302.899	6.62
303.692	9.62
304.485	8.62
305.277	8.62
306.07	8.62
306.862	9.62
307.655	8.62
308.447	8.62
309.239	7.62
310.031	6.62
310.823	4.62
311.615	5.62
312.407	7.62
313.199	6.62
313.991	6.62
314.783	7.62
315.574	7.62
316.366	5.62
317.157	4.62
317.949	4.62
318.74	7.62
319.531	4.62
320.322	5.62
321.113	5.62
321.904	6.62
322.695	5.62
323.486	4.62
324.277	5.62
325.068	2.62
325.858	4.62
326.649	3.62
327.439	4.62
328.23	4.62
329.02	3.62
329.81	3.62
330.6	2.62
331.391	4.62
332.181	3.62
332.971	4.62
333.76	2.62
334.55	2.62
335.34	2.62
336.13	3.62
336.919	6.62
337.709	5.62
338.498	5.62
339.287	3.62
340.077	2.62
340.866	5.62
341.655	3.62
342.444	1.62
343.233	4.62
344.022	3.62
344.811	2.62
345.6	4.62
346.388	3.62
347.177	2.62
347.965	4.62
348.754	2.62
349.542	3.62
350.33	3.62
351.119	2.62
351.907	5.62
352.695	3.62
353.483	2.62
354.271	2.62
355.059	4.62
355.846	4.62
356.634	3.62
357.422	3.62
358.209	2.62
358.997	3.62
359.784	3.62
360.571	0.62
361.359	1.62
362.146	1.62
362.933	2.62
363.72	2.62
364.507	4.62
365.294	1.62
366.081	0.62
366.867	4.62
367.654	2.62
368.44	4.62
369.227	2.62
370.013	3.62
370.8	3.62
371.586	2.62
372.372	4.62
373.158	1.62
373.944	1.62
374.73	3.62
375.516	1.62
376.302	4.62
377.088	4.62
377.873	3.62
378.659	5.62
379.445	5.62
380.23	3.62
381.015	1.62
381.801	1.62
382.586	2.62
383.371	1.62
384.156	3.62
384.941	5.62
385.726	3.62
386.511	3.62
387.296	3.62
388.08	3.62
388.865	3.62
389.649	0.62
390.434	2.62
391.218	4.62
392.003	3.62
392.787	5.62
393.571	1.62
394.355	2.62
395.139	2.62
395.923	3.62
396.707	2.62
397.491	3.62
398.274	5.62
399.058	3.62
399.842	5.62
400.625	6.62
401.408	4.62
402.192	4.62
402.975	2.62
403.758	5.62
404.541	4.62
405.324	2.62
406.107	6.62
406.89	2.62
407.673	4.62
408.456	2.62
409.238	4.62
410.021	6.62
410.803	4.62
411.586	6.62
412.368	4.62
413.151	5.62
413.933	6.62
414.715	5.62
415.497	3.62
416.279	4.62
417.061	7.62
417.843	4.62
418.624	7.62
419.406	5.62
420.188	7.62
420.969	5.62
421.751	5.62
422.532	5.62
423.313	4.62
424.095	3.62
424.876	4.62
425.657	7.62
426.438	6.62
427.219	6.62
428	9.62
428.78	6.62
429.561	10.62
430.342	6.62
431.122	8.62
431.903	8.62
432.683	6.62
433.464	9.62
434.244	7.62
435.024	11.62
435.804	9.62
436.584	11.62
437.364	9.62
438.144	11.62
438.924	8.62
439.704	8.62
440.483	12.62
441.263	9.62
442.042	12.62
442.822	14.62
443.601	14.62
444.38	15.62
445.16	15.62
445.939	16.62
446.718	20.62
447.497	20.62
448.276	21.62
449.054	22.62
449.833	24.62
450.612	23.62
451.391	26.62
452.169	29.62
452.948	28.62
453.726	37.62
454.504	37.62
455.282	40.62
456.061	44.62
456.839	50.62
457.617	55.62
458.395	58.62
459.172	61.62
459.95	73.62
460.728	79.62
461.506	89.62
462.283	99.62
463.061	113.62
463.838	122.62
464.615	135.62
465.393	150.62
466.17	175.62
466.947	186.62
467.724	214.62
468.501	235.62
469.278	261.62
470.055	290.62
470.831	322.62
471.608	366.62
472.385	408.62
473.161	454.62
473.938	496.62
474.714	558.62
475.49	608.62
476.266	676.62
477.043	759.62
477.819	846.62
478.595	932.62
479.371	1033.62
480.146	1160.62
480.922	1249.62
481.698	1391.62
482.473	1555.62
483.249	1722.62
484.024	1892.62
484.8	2084.62
485.575	2302.62
486.35	2541.62
487.126	2822.62
487.901	3117.62
488.676	3431.62
489.451	3781.62
490.225	4159.62
491	4567.62
491.775	5015.62
492.55	5565.62
493.324	6090.62
494.099	6668.62
494.873	7280.62
495.647	7952.62
496.422	8628.62
497.196	9335.62
497.97	10099.62
498.744	10891.62
499.518	11620.62
500.292	12383.62
501.066	13097.62
501.839	13832.62
502.613	14539.62
503.387	15148.62
504.16	15678.62
504.934	16137.62
505.707	16503.62
506.48	16745.62
507.253	16926.62
508.027	16909.62
508.8	16772.62
509.573	16615.62
510.346	16288.62
511.118	15960.62
511.891	15435.62
512.664	14985.62
513.437	14396.62
514.209	13788.62
514.982	13314.62
515.754	12747.62
516.526	12151.62
517.298	11637.62
518.071	11118.62
518.843	10595.62
519.615	10153.62
520.387	9737.62
521.159	9378.62
521.93	8984.62
522.702	8588.62
523.474	8258.62
524.245	7981.62
525.017	7681.62
525.788	7310.62
526.56	7033.62
527.331	6749.62
528.102	6430.62
528.873	6121.62
529.644	5879.62
530.415	5603.62
531.186	5310.62
531.957	5035.62
532.728	4793.62
533.498	4515.62
534.269	4279.62
535.039	4065.62
535.81	3807.62
536.58	3625.62
537.351	3414.62
538.121	3201.62
538.891	3039.62
539.661	2865.62
540.431	2705.62
541.201	2567.62
541.971	2426.62
542.741	2313.62
543.51	2168.62
544.28	2062.62
545.05	1965.62
545.819	1865.62
546.588	1778.62
547.358	1691.62
548.127	1601.62
548.896	1518.62
549.665	1454.62
550.434	1373.62
551.203	1297.62
551.972	1237.62
552.741	1165.62
553.51	1100.62
554.278	1041.62
555.047	984.62
555.815	941.62
556.584	871.62
557.352	819.62
558.121	785.62
558.889	742.62
559.657	700.62
560.425	651.62
561.193	613.62
561.961	583.62
562.729	548.62
563.496	514.62
564.264	484.62
565.032	453.62
565.799	441.62
566.567	410.62
567.334	388.62
568.101	372.62
568.869	343.62
569.636	316.62
570.403	305.62
571.17	285.62
571.937	270.62
572.704	262.62
573.471	246.62
574.237	229.62
575.004	213.62
575.771	205.62
576.537	195.62
577.303	180.62
578.07	163.62
578.836	160.62
579.602	153.62
580.368	143.62
581.134	133.62
581.9	124.62
582.666	121.62
583.432	114.62
584.198	113.62
584.964	102.62
585.729	97.62
586.495	90.62
587.26	84.62
588.025	81.62
588.791	78.62
589.556	72.62
590.321	69.62
591.086	62.62
591.851	64.62
592.616	59.62
593.381	55.62
594.146	57.62
594.911	49.62
595.675	48.62
596.44	45.62
597.204	47.62
597.969	43.62
598.733	43.62
599.497	36.62
600.261	36.62
601.025	30.62
601.79	31.62
602.553	34.62
603.317	31.62
604.081	30.62
604.845	26.62
605.609	26.62
606.372	24.62
607.136	25.62
607.899	22.62
608.662	19.62
609.426	19.62
610.189	19.62
610.952	20.62
611.715	19.62
612.478	16.62
613.241	18.62
614.004	16.62
614.767	16.62
615.529	16.62
616.292	15.62
617.055	13.62
617.817	15.62
618.579	11.62
619.342	11.62
620.104	12.62
620.866	10.62
621.628	12.62
622.39	11.62
623.152	13.62
623.914	9.62
624.676	9.62
625.438	9.62
626.199	10.62
626.961	9.62
627.722	7.62
628.484	10.62
629.245	8.62
630.006	7.62
630.768	7.62
631.529	8.62
632.29	8.62
633.051	7.62
633.812	6.62
634.573	7.62
635.333	5.62
636.094	7.62
636.855	5.62
637.615	10.62
638.376	5.62
639.136	7.62
639.896	6.62
640.657	4.62
641.417	4.62
642.177	4.62
642.937	4.62
643.697	5.62
644.457	3.62
645.216	6.62
645.976	5.62
646.736	4.62
647.495	3.62
648.255	3.62
649.014	3.62
649.774	5.62
650.533	3.62
651.292	1.62
652.051	3.62
652.81	0.62
653.569	4.62
654.328	3.62
655.087	3.62
655.846	3.62
656.604	2.62
657.363	3.62
658.121	2.62
658.88	3.62
659.638	1.62
660.397	3.62
661.155	3.62
661.913	3.62
662.671	3.62
663.429	2.62
664.187	4.62
664.945	1.62
665.703	3.62
666.46	3.62
667.218	2.62
667.976	4.62
668.733	0.62
669.49	3.62
670.248	2.62
671.005	3.62
671.762	2.62
672.519	2.62
673.276	2.62
674.033	2.62
674.79	1.62
675.547	3.62
676.304	0.62
677.06	3.62
677.817	0.62
678.574	3.62
679.33	1.62
680.086	3.62
680.843	1.62
681.599	2.62
682.355	4.62
683.111	3.62
683.867	2.62
684.623	2.62
685.379	2.62
686.135	1.62
686.89	1.62
687.646	4.62
688.402	2.62
689.157	3.62
689.912	2.62
690.668	1.62
691.423	1.62
692.178	2.62
692.933	3.62
693.688	1.62
694.443	1.62
695.198	-0.38
695.953	3.62
696.708	4.62
697.462	2.62
698.217	3.62
698.972	0.62
699.726	1.62
700.48	2.62
701.235	2.62
701.989	2.62
702.743	0.62
703.497	2.62
704.251	1.62
705.005	2.62
705.759	5.62
706.513	1.62
707.266	2.62
708.02	2.62
708.774	3.62
709.527	-1.38
710.28	2.62
711.034	2.62
711.787	3.62
712.54	3.62
713.293	3.62
714.046	4.62
714.799	3.62
715.552	2.62
716.305	1.62
717.058	2.62
717.81	1.62
718.563	1.62
719.315	1.62
720.068	2.62
720.82	3.62
721.573	3.62
722.325	1.62
723.077	2.62
723.829	3.62
724.581	4.62
725.333	5.62
726.085	-0.38
726.836	2.62
727.588	3.62
728.34	2.62
729.091	1.62
729.843	-0.38
730.594	2.62
731.346	1.62
732.097	-0.38
732.848	1.62
733.599	-1.38
734.35	0.62
735.101	2.62
735.852	1.62
736.603	3.62
737.354	1.62
738.104	1.62
738.855	1.62
739.605	1.62
740.356	4.62
741.106	2.62
741.856	1.62
742.607	1.62
743.357	2.62
744.107	3.62
744.857	4.62
745.607	2.62
746.357	5.62
747.106	2.62
747.856	2.62
748.606	2.62
749.355	2.62
750.105	3.62
750.854	3.62
751.603	1.62
752.353	2.62
753.102	2.62
753.851	1.62
754.6	3.62
755.349	3.62
756.098	1.62
756.847	3.62
757.595	3.62
758.344	2.62
759.093	1.62
759.841	4.62
760.589	2.62
761.338	4.62
762.086	4.62
762.834	4.62
763.582	5.62
764.331	4.62
765.079	5.62
765.826	6.62
766.574	2.62
767.322	2.62
768.07	6.62
768.817	2.62
769.565	5.62
770.312	3.62
771.06	6.62
771.807	2.62
772.554	6.62
773.302	5.62
774.049	6.62
774.796	6.62
775.543	6.62
776.29	6.62
777.036	4.62
777.783	6.62
778.53	4.62
779.276	5.62
780.023	3.62
780.769	5.62
781.516	3.62
782.262	5.62
783.008	4.62
783.754	3.62
784.5	5.62
785.246	4.62
785.992	3.62
786.738	4.62
787.484	3.62
788.23	6.62
788.975	4.62
789.721	5.62
790.466	7.62
791.212	7.62
791.957	3.62
792.702	4.62
793.447	5.62
794.193	3.62
794.938	6.62
795.683	4.62
796.427	5.62
797.172	7.62
797.917	7.62
798.662	3.62
799.406	5.62
800.151	7.62
800.895	4.62
801.64	6.62
802.384	4.62
803.128	5.62
803.872	5.62
804.616	3.62
805.36	4.62
806.104	4.62
806.848	3.62
807.592	6.62
808.336	4.62
809.079	5.62
809.823	4.62
810.566	5.62
811.31	3.62
812.053	5.62
812.796	4.62
813.539	3.62
814.283	1.62
815.026	2.62
815.769	3.62
816.511	5.62
817.254	2.62
817.997	5.62
818.74	1.62
819.482	3.62
820.225	2.62
820.967	4.62
821.71	4.62
822.452	2.62
823.194	3.62
823.936	2.62
824.678	1.62
825.42	3.62
826.162	3.62
826.904	0.62
827.646	3.62
828.388	2.62
829.129	3.62
829.871	5.62
830.612	4.62
831.354	1.62
832.095	3.62
832.836	4.62
833.577	3.62
834.319	4.62
835.06	4.62
835.801	1.62
836.542	3.62
837.282	2.62
838.023	3.62
838.764	4.62
839.504	2.62
840.245	1.62
840.985	2.62
841.726	1.62
842.466	2.62
843.206	3.62
843.946	3.62
844.687	3.62
845.427	1.62
846.166	2.62
846.906	1.62
847.646	2.62
848.386	-0.38
849.125	3.62
849.865	-0.38
850.605	3.62
851.344	1.62
852.083	0.62
852.823	2.62
853.562	2.62
854.301	2.62
855.04	0.62
855.779	2.62
856.518	3.62
857.257	2.62
857.995	-0.38
858.734	0.62
859.473	1.62
860.211	0.62
860.95	-0.38
861.688	2.62
862.426	4.62
863.165	1.62
863.903	1.62
864.641	1.62
865.379	0.62
866.117	2.62
866.855	2.62
867.593	0.62
868.33	1.62
869.068	1.62
869.806	1.62
870.543	1.62
871.28	0.62
872.018	2.62
872.755	4.62
873.492	1.62
874.229	1.62
874.967	2.62
875.703	1.62
876.44	-0.38
877.177	1.62
877.914	0.62
878.651	2.62
879.387	1.62
880.124	1.62
880.86	0.62
881.597	2.62
882.333	-0.38
883.069	2.62
883.806	1.62
884.542	1.62
885.278	0.62
886.014	1.62
886.749	0.62
887.485	1.62
888.221	0.62
888.957	-0.38
889.692	1.62
890.428	0.62
891.163	0.62
891.899	1.62
892.634	1.62
893.369	0.62
894.104	0.62
894.839	-0.38
895.574	2.62
896.309	-0.38
897.044	0.62
897.779	1.62
898.514	1.62
899.248	3.62
899.983	-0.38
900.717	0.62
901.452	1.62
902.186	-0.38
902.92	-0.38
903.654	0.62
904.389	1.62
905.123	-0.38
905.857	1.62
906.59	2.62
907.324	-0.38
908.058	-0.38
908.792	-0.38
909.525	0.62
910.259	-3.38
910.992	-0.38
911.726	0.62
912.459	1.62
913.192	1.62
913.925	-1.38
914.658	1.62
915.391	3.62
916.124	-1.38
916.857	-0.38
917.59	0.62
918.323	0.62
919.055	-0.38
919.788	0.62
920.521	-1.38
921.253	1.62
921.985	2.62
922.718	-0.38
923.45	1.62
924.182	2.62
924.914	0.62
925.646	1.62
926.378	0.62
927.11	0.62
927.841	2.62
928.573	1.62
929.305	-0.38
930.036	-0.38
930.768	0.62
931.499	0.62
932.23	1.62
932.962	-1.38
933.693	1.62
934.424	0.62
935.155	0.62
935.886	0.62
936.617	1.62
937.348	2.62
938.078	-1.38
938.809	2.62
939.54	2.62
940.27	0.62
941.001	-1.38
941.731	0.62
942.461	-0.38
943.191	-0.38
943.922	2.62
944.652	-2.38
945.382	2.62
946.112	-0.38
946.841	-1.38
947.571	-0.38
948.301	0.62
949.031	0.62
949.76	-0.38
950.49	1.62
951.219	-0.38
951.948	0.62
952.678	-0.38
953.407	1.62
954.136	-0.38
954.865	1.62
955.594	2.62
956.323	-0.38
957.052	1.62
957.78	0.62
958.509	-0.38
959.238	2.62
959.966	1.62
960.695	0.62
961.423	0.62
962.151	0.62
962.88	-0.38
963.608	2.62
964.336	0.62
965.064	2.62
965.792	3.62
966.52	2.62
967.247	1.62
967.975	0.62
968.703	0.62
969.43	0.62
970.158	1.62
970.885	-0.38
971.613	-0.38
972.34	1.62
973.067	1.62
973.794	-0.38
974.521	1.62
975.248	3.62
975.975	-0.38
976.702	-0.38
977.429	-0.38
978.156	0.62
978.882	0.62
979.609	0.62
980.335	-0.38
981.062	2.62
981.788	-0.38
982.514	0.62
983.24	1.62
983.967	-0.38
984.693	0.62
985.419	0.62
986.144	0.62
986.87	0.62
987.596	-0.38
988.322	1.62
989.047	-0.38
989.773	0.62
990.498	0.62
991.224	2.62
991.949	0.62
992.674	-1.38
993.399	2.62
994.124	1.62
994.849	1.62
995.574	0.62
996.299	0.62
997.024	0.62
997.749	-0.38
998.473	0.62
999.198	-1.38
999.922	2.62
1000.647	0.62
1001.371	1.62
1002.095	0.62
1002.82	-0.38
1003.544	-0.38
1004.268	-1.38
1004.992	-1.38
1005.716	-0.38
1006.439	0.62
1007.163	1.62
1007.887	-1.38
1008.611	-0.38
1009.334	-0.38
1010.058	1.62
1010.781	-0.38
1011.504	3.62
1012.228	2.62
1012.951	0.62
1013.674	-1.38
1014.397	-1.38
1015.12	0.62
