节点500_145_QEPB04081__181__11-31-50-558.txt的数据

Date: Wed Nov 12 11:31:50 CST 2025
User: PC
Spectrometer: QEPB0408
触发模式: 0
积分时间 (秒): 1.000000E-2
Scans to average: 1
启用暗噪声校正: true
启用非线性校正: false
滑动平均宽度: 0
X轴模式: Wavelengths
Number of Pixels in Spectrum: 1044
>>>>>Begin Spectral Data<<<<<
220.843	0.75
221.644	-0.25
222.444	-2.25
223.244	-2.25
224.045	-1.25
224.845	-1.25
225.645	-2.25
226.445	-0.25
227.245	-0.25
228.045	-1.25
228.845	-1.25
229.645	-0.25
230.444	-2.25
231.244	-1.25
232.043	0.75
232.843	1.75
233.642	0.75
234.442	1.75
235.241	0.75
236.04	1.75
236.839	-2.25
237.638	1.75
238.437	-0.25
239.236	0.75
240.035	0.75
240.833	1.75
241.632	-0.25
242.43	-0.25
243.229	1.75
244.027	-0.25
244.826	-0.25
245.624	2.75
246.422	-0.25
247.22	0.75
248.018	0.75
248.816	2.75
249.614	-0.25
250.412	0.75
251.21	1.75
252.007	2.75
252.805	3.75
253.602	0.75
254.4	3.75
255.197	1.75
255.994	2.75
256.791	3.75
257.589	3.75
258.386	1.75
259.183	4.75
259.979	5.75
260.776	3.75
261.573	4.75
262.37	3.75
263.166	5.75
263.963	6.75
264.759	6.75
265.556	2.75
266.352	4.75
267.148	8.75
267.944	4.75
268.74	7.75
269.536	5.75
270.332	6.75
271.128	8.75
271.924	7.75
272.719	7.75
273.515	8.75
274.311	5.75
275.106	6.75
275.901	7.75
276.697	9.75
277.492	8.75
278.287	9.75
279.082	10.75
279.877	6.75
280.672	10.75
281.467	10.75
282.262	9.75
283.056	11.75
283.851	10.75
284.646	9.75
285.44	10.75
286.234	12.75
287.029	9.75
287.823	10.75
288.617	8.75
289.411	10.75
290.205	10.75
290.999	6.75
291.793	11.75
292.587	10.75
293.381	10.75
294.174	9.75
294.968	10.75
295.761	8.75
296.555	11.75
297.348	7.75
298.141	8.75
298.935	11.75
299.728	6.75
300.521	9.75
301.314	7.75
302.107	7.75
302.899	7.75
303.692	7.75
304.485	6.75
305.277	6.75
306.07	4.75
306.862	7.75
307.655	4.75
308.447	9.75
309.239	6.75
310.031	9.75
310.823	6.75
311.615	6.75
312.407	4.75
313.199	3.75
313.991	5.75
314.783	5.75
315.574	4.75
316.366	5.75
317.157	5.75
317.949	4.75
318.74	1.75
319.531	4.75
320.322	1.75
321.113	3.75
321.904	4.75
322.695	2.75
323.486	4.75
324.277	3.75
325.068	5.75
325.858	4.75
326.649	4.75
327.439	4.75
328.23	3.75
329.02	4.75
329.81	3.75
330.6	3.75
331.391	4.75
332.181	1.75
332.971	4.75
333.76	4.75
334.55	1.75
335.34	3.75
336.13	4.75
336.919	4.75
337.709	1.75
338.498	1.75
339.287	1.75
340.077	4.75
340.866	3.75
341.655	1.75
342.444	6.75
343.233	3.75
344.022	1.75
344.811	2.75
345.6	2.75
346.388	2.75
347.177	4.75
347.965	1.75
348.754	0.75
349.542	2.75
350.33	0.75
351.119	6.75
351.907	0.75
352.695	2.75
353.483	2.75
354.271	2.75
355.059	1.75
355.846	0.75
356.634	4.75
357.422	2.75
358.209	2.75
358.997	0.75
359.784	-1.25
360.571	1.75
361.359	-0.25
362.146	1.75
362.933	3.75
363.72	3.75
364.507	4.75
365.294	3.75
366.081	3.75
366.867	3.75
367.654	1.75
368.44	3.75
369.227	1.75
370.013	0.75
370.8	1.75
371.586	3.75
372.372	0.75
373.158	4.75
373.944	2.75
374.73	1.75
375.516	1.75
376.302	0.75
377.088	3.75
377.873	1.75
378.659	2.75
379.445	4.75
380.23	2.75
381.015	-0.25
381.801	2.75
382.586	1.75
383.371	3.75
384.156	1.75
384.941	1.75
385.726	0.75
386.511	3.75
387.296	1.75
388.08	4.75
388.865	3.75
389.649	0.75
390.434	1.75
391.218	1.75
392.003	1.75
392.787	4.75
393.571	2.75
394.355	-0.25
395.139	3.75
395.923	4.75
396.707	2.75
397.491	0.75
398.274	0.75
399.058	4.75
399.842	3.75
400.625	0.75
401.408	2.75
402.192	2.75
402.975	4.75
403.758	3.75
404.541	3.75
405.324	4.75
406.107	2.75
406.89	2.75
407.673	0.75
408.456	5.75
409.238	0.75
410.021	4.75
410.803	5.75
411.586	4.75
412.368	4.75
413.151	3.75
413.933	4.75
414.715	4.75
415.497	7.75
416.279	4.75
417.061	4.75
417.843	4.75
418.624	3.75
419.406	4.75
420.188	2.75
420.969	3.75
421.751	6.75
422.532	5.75
423.313	5.75
424.095	6.75
424.876	4.75
425.657	4.75
426.438	5.75
427.219	6.75
428	5.75
428.78	6.75
429.561	5.75
430.342	5.75
431.122	7.75
431.903	6.75
432.683	5.75
433.464	6.75
434.244	7.75
435.024	9.75
435.804	9.75
436.584	7.75
437.364	8.75
438.144	9.75
438.924	7.75
439.704	10.75
440.483	10.75
441.263	11.75
442.042	10.75
442.822	10.75
443.601	13.75
444.38	12.75
445.16	15.75
445.939	16.75
446.718	20.75
447.497	15.75
448.276	20.75
449.054	22.75
449.833	22.75
450.612	25.75
451.391	26.75
452.169	30.75
452.948	30.75
453.726	30.75
454.504	34.75
455.282	38.75
456.061	41.75
456.839	46.75
457.617	54.75
458.395	60.75
459.172	60.75
459.95	67.75
460.728	75.75
461.506	82.75
462.283	101.75
463.061	106.75
463.838	118.75
464.615	139.75
465.393	150.75
466.17	170.75
466.947	184.75
467.724	203.75
468.501	230.75
469.278	253.75
470.055	285.75
470.831	322.75
471.608	358.75
472.385	396.75
473.161	441.75
473.938	501.75
474.714	547.75
475.49	609.75
476.266	676.75
477.043	747.75
477.819	834.75
478.595	931.75
479.371	1025.75
480.146	1145.75
480.922	1268.75
481.698	1394.75
482.473	1544.75
483.249	1722.75
484.024	1891.75
484.8	2092.75
485.575	2314.75
486.35	2554.75
487.126	2817.75
487.901	3115.75
488.676	3460.75
489.451	3819.75
490.225	4189.75
491	4627.75
491.775	5108.75
492.55	5608.75
493.324	6148.75
494.099	6722.75
494.873	7415.75
495.647	8057.75
496.422	8759.75
497.196	9500.75
497.97	10283.75
498.744	11004.75
499.518	11834.75
500.292	12593.75
501.066	13333.75
501.839	14056.75
502.613	14739.75
503.387	15357.75
504.16	15858.75
504.934	16318.75
505.707	16700.75
506.48	16897.75
507.253	17002.75
508.027	17114.75
508.8	16927.75
509.573	16712.75
510.346	16395.75
511.118	15958.75
511.891	15499.75
512.664	15010.75
513.437	14425.75
514.209	13868.75
514.982	13272.75
515.754	12742.75
516.526	12095.75
517.298	11560.75
518.071	11064.75
518.843	10565.75
519.615	10098.75
520.387	9709.75
521.159	9361.75
521.93	8943.75
522.702	8582.75
523.474	8210.75
524.245	7914.75
525.017	7603.75
525.788	7317.75
526.56	7019.75
527.331	6737.75
528.102	6415.75
528.873	6098.75
529.644	5821.75
530.415	5550.75
531.186	5288.75
531.957	4988.75
532.728	4737.75
533.498	4501.75
534.269	4264.75
535.039	3999.75
535.81	3770.75
536.58	3563.75
537.351	3349.75
538.121	3190.75
538.891	3001.75
539.661	2833.75
540.431	2689.75
541.201	2528.75
541.971	2427.75
542.741	2280.75
543.51	2134.75
544.28	2031.75
545.05	1922.75
545.819	1844.75
546.588	1775.75
547.358	1664.75
548.127	1608.75
548.896	1537.75
549.665	1457.75
550.434	1368.75
551.203	1303.75
551.972	1228.75
552.741	1159.75
553.51	1097.75
554.278	1046.75
555.047	971.75
555.815	911.75
556.584	868.75
557.352	824.75
558.121	781.75
558.889	721.75
559.657	676.75
560.425	651.75
561.193	611.75
561.961	574.75
562.729	544.75
563.496	511.75
564.264	478.75
565.032	460.75
565.799	434.75
566.567	402.75
567.334	389.75
568.101	354.75
568.869	337.75
569.636	327.75
570.403	298.75
571.17	285.75
571.937	266.75
572.704	251.75
573.471	236.75
574.237	220.75
575.004	207.75
575.771	196.75
576.537	187.75
577.303	175.75
578.07	167.75
578.836	156.75
579.602	149.75
580.368	141.75
581.134	128.75
581.9	126.75
582.666	119.75
583.432	111.75
584.198	104.75
584.964	101.75
585.729	94.75
586.495	88.75
587.26	83.75
588.025	76.75
588.791	75.75
589.556	71.75
590.321	71.75
591.086	65.75
591.851	60.75
592.616	54.75
593.381	51.75
594.146	52.75
594.911	47.75
595.675	46.75
596.44	48.75
597.204	41.75
597.969	39.75
598.733	36.75
599.497	37.75
600.261	36.75
601.025	34.75
601.79	31.75
602.553	30.75
603.317	30.75
604.081	25.75
604.845	26.75
605.609	26.75
606.372	25.75
607.136	22.75
607.899	20.75
608.662	20.75
609.426	20.75
610.189	19.75
610.952	17.75
611.715	17.75
612.478	19.75
613.241	17.75
614.004	15.75
614.767	15.75
615.529	14.75
616.292	14.75
617.055	12.75
617.817	13.75
618.579	10.75
619.342	13.75
620.104	9.75
620.866	11.75
621.628	9.75
622.39	9.75
623.152	9.75
623.914	8.75
624.676	11.75
625.438	7.75
626.199	6.75
626.961	9.75
627.722	7.75
628.484	10.75
629.245	8.75
630.006	8.75
630.768	7.75
631.529	7.75
632.29	6.75
633.051	3.75
633.812	3.75
634.573	5.75
635.333	6.75
636.094	4.75
636.855	7.75
637.615	4.75
638.376	5.75
639.136	5.75
639.896	5.75
640.657	3.75
641.417	2.75
642.177	3.75
642.937	5.75
643.697	3.75
644.457	5.75
645.216	2.75
645.976	4.75
646.736	3.75
647.495	3.75
648.255	6.75
649.014	4.75
649.774	2.75
650.533	4.75
651.292	4.75
652.051	2.75
652.81	3.75
653.569	4.75
654.328	1.75
655.087	4.75
655.846	2.75
656.604	2.75
657.363	4.75
658.121	4.75
658.88	1.75
659.638	2.75
660.397	1.75
661.155	0.75
661.913	4.75
662.671	1.75
663.429	2.75
664.187	2.75
664.945	3.75
665.703	2.75
666.46	1.75
667.218	0.75
667.976	3.75
668.733	0.75
669.49	2.75
670.248	1.75
671.005	3.75
671.762	1.75
672.519	2.75
673.276	1.75
674.033	0.75
674.79	0.75
675.547	0.75
676.304	0.75
677.06	2.75
677.817	3.75
678.574	1.75
679.33	2.75
680.086	2.75
680.843	0.75
681.599	3.75
682.355	1.75
683.111	2.75
683.867	0.75
684.623	1.75
685.379	1.75
686.135	-1.25
686.89	0.75
687.646	2.75
688.402	2.75
689.157	0.75
689.912	1.75
690.668	2.75
691.423	1.75
692.178	4.75
692.933	0.75
693.688	1.75
694.443	0.75
695.198	1.75
695.953	0.75
696.708	-0.25
697.462	-0.25
698.217	1.75
698.972	-2.25
699.726	4.75
700.48	1.75
701.235	2.75
701.989	2.75
702.743	0.75
703.497	0.75
704.251	0.75
705.005	2.75
705.759	0.75
706.513	0.75
707.266	0.75
708.02	2.75
708.774	-0.25
709.527	0.75
710.28	1.75
711.034	1.75
711.787	1.75
712.54	1.75
713.293	-1.25
714.046	0.75
714.799	1.75
715.552	0.75
716.305	-0.25
717.058	3.75
717.81	-0.25
718.563	3.75
719.315	2.75
720.068	0.75
720.82	1.75
721.573	-1.25
722.325	0.75
723.077	-0.25
723.829	0.75
724.581	0.75
725.333	0.75
726.085	1.75
726.836	0.75
727.588	1.75
728.34	1.75
729.091	-0.25
729.843	1.75
730.594	1.75
731.346	2.75
732.097	0.75
732.848	2.75
733.599	2.75
734.35	0.75
735.101	1.75
735.852	-0.25
736.603	2.75
737.354	0.75
738.104	1.75
738.855	2.75
739.605	-0.25
740.356	1.75
741.106	0.75
741.856	0.75
742.607	0.75
743.357	0.75
744.107	3.75
744.857	0.75
745.607	2.75
746.357	0.75
747.106	3.75
747.856	3.75
748.606	2.75
749.355	2.75
750.105	1.75
750.854	3.75
751.603	1.75
752.353	3.75
753.102	2.75
753.851	3.75
754.6	3.75
755.349	0.75
756.098	3.75
756.847	1.75
757.595	4.75
758.344	5.75
759.093	2.75
759.841	3.75
760.589	2.75
761.338	2.75
762.086	0.75
762.834	2.75
763.582	2.75
764.331	3.75
765.079	4.75
765.826	4.75
766.574	4.75
767.322	3.75
768.07	4.75
768.817	5.75
769.565	3.75
770.312	4.75
771.06	3.75
771.807	6.75
772.554	4.75
773.302	6.75
774.049	3.75
774.796	2.75
775.543	3.75
776.29	2.75
777.036	6.75
777.783	3.75
778.53	3.75
779.276	4.75
780.023	2.75
780.769	4.75
781.516	5.75
782.262	3.75
783.008	4.75
783.754	6.75
784.5	7.75
785.246	3.75
785.992	6.75
786.738	1.75
787.484	4.75
788.23	6.75
788.975	4.75
789.721	1.75
790.466	3.75
791.212	3.75
791.957	4.75
792.702	5.75
793.447	3.75
794.193	3.75
794.938	4.75
795.683	4.75
796.427	5.75
797.172	4.75
797.917	6.75
798.662	5.75
799.406	5.75
800.151	3.75
800.895	5.75
801.64	3.75
802.384	4.75
803.128	4.75
803.872	1.75
804.616	3.75
805.36	3.75
806.104	3.75
806.848	3.75
807.592	1.75
808.336	5.75
809.079	3.75
809.823	3.75
810.566	4.75
811.31	0.75
812.053	3.75
812.796	5.75
813.539	3.75
814.283	3.75
815.026	4.75
815.769	2.75
816.511	1.75
817.254	1.75
817.997	2.75
818.74	1.75
819.482	2.75
820.225	3.75
820.967	3.75
821.71	0.75
822.452	2.75
823.194	0.75
823.936	1.75
824.678	1.75
825.42	2.75
826.162	2.75
826.904	2.75
827.646	3.75
828.388	2.75
829.129	0.75
829.871	4.75
830.612	1.75
831.354	1.75
832.095	1.75
832.836	1.75
833.577	2.75
834.319	1.75
835.06	2.75
835.801	3.75
836.542	3.75
837.282	1.75
838.023	1.75
838.764	3.75
839.504	1.75
840.245	1.75
840.985	0.75
841.726	-0.25
842.466	-0.25
843.206	1.75
843.946	1.75
844.687	2.75
845.427	0.75
846.166	1.75
846.906	1.75
847.646	-0.25
848.386	1.75
849.125	1.75
849.865	-0.25
850.605	2.75
851.344	1.75
852.083	0.75
852.823	1.75
853.562	1.75
854.301	-0.25
855.04	1.75
855.779	0.75
856.518	-0.25
857.257	1.75
857.995	-0.25
858.734	1.75
859.473	-1.25
860.211	-1.25
860.95	0.75
861.688	-1.25
862.426	1.75
863.165	0.75
863.903	1.75
864.641	0.75
865.379	0.75
866.117	-0.25
866.855	0.75
867.593	-0.25
868.33	0.75
869.068	1.75
869.806	0.75
870.543	-0.25
871.28	0.75
872.018	-1.25
872.755	0.75
873.492	1.75
874.229	0.75
874.967	-2.25
875.703	0.75
876.44	-0.25
877.177	1.75
877.914	-0.25
878.651	-0.25
879.387	-0.25
880.124	-1.25
880.86	0.75
881.597	0.75
882.333	-1.25
883.069	-1.25
883.806	-0.25
884.542	2.75
885.278	-0.25
886.014	1.75
886.749	-0.25
887.485	-0.25
888.221	1.75
888.957	-0.25
889.692	-0.25
890.428	-0.25
891.163	-0.25
891.899	-1.25
892.634	0.75
893.369	1.75
894.104	-0.25
894.839	1.75
895.574	1.75
896.309	0.75
897.044	-0.25
897.779	-1.25
898.514	-0.25
899.248	-0.25
899.983	-0.25
900.717	-1.25
901.452	-2.25
902.186	2.75
902.92	-0.25
903.654	2.75
904.389	1.75
905.123	1.75
905.857	2.75
906.59	-0.25
907.324	1.75
908.058	-1.25
908.792	0.75
909.525	-0.25
910.259	-0.25
910.992	-0.25
911.726	-2.25
912.459	0.75
913.192	0.75
913.925	-0.25
914.658	-0.25
915.391	-1.25
916.124	0.75
916.857	1.75
917.59	0.75
918.323	1.75
919.055	2.75
919.788	0.75
920.521	0.75
921.253	1.75
921.985	-3.25
922.718	-0.25
923.45	0.75
924.182	-0.25
924.914	0.75
925.646	-0.25
926.378	-2.25
927.11	0.75
927.841	-0.25
928.573	-1.25
929.305	-1.25
930.036	-1.25
930.768	-1.25
931.499	1.75
932.23	-1.25
932.962	-0.25
933.693	1.75
934.424	0.75
935.155	-0.25
935.886	0.75
936.617	0.75
937.348	-2.25
938.078	-0.25
938.809	-0.25
939.54	0.75
940.27	-0.25
941.001	-1.25
941.731	-0.25
942.461	-2.25
943.191	-0.25
943.922	-0.25
944.652	-2.25
945.382	2.75
946.112	0.75
946.841	1.75
947.571	0.75
948.301	1.75
949.031	-1.25
949.76	-2.25
950.49	-1.25
951.219	-0.25
951.948	-0.25
952.678	-0.25
953.407	0.75
954.136	-1.25
954.865	-0.25
955.594	0.75
956.323	-0.25
957.052	1.75
957.78	0.75
958.509	-1.25
959.238	-0.25
959.966	-0.25
960.695	1.75
961.423	0.75
962.151	-0.25
962.88	-0.25
963.608	1.75
964.336	-0.25
965.064	-2.25
965.792	-1.25
966.52	-0.25
967.247	1.75
967.975	0.75
968.703	-1.25
969.43	1.75
970.158	0.75
970.885	-0.25
971.613	1.75
972.34	-0.25
973.067	0.75
973.794	-0.25
974.521	-2.25
975.248	0.75
975.975	1.75
976.702	-1.25
977.429	-1.25
978.156	1.75
978.882	-1.25
979.609	0.75
980.335	-1.25
981.062	-2.25
981.788	-1.25
982.514	1.75
983.24	-1.25
983.967	-0.25
984.693	0.75
985.419	-2.25
986.144	-2.25
986.87	0.75
987.596	0.75
988.322	-1.25
989.047	-1.25
989.773	-0.25
990.498	-1.25
991.224	0.75
991.949	-2.25
992.674	-0.25
993.399	0.75
994.124	-0.25
994.849	-0.25
995.574	-0.25
996.299	-0.25
997.024	0.75
997.749	-2.25
998.473	-1.25
999.198	-2.25
999.922	2.75
1000.647	-0.25
1001.371	5.75
1002.095	-1.25
1002.82	0.75
1003.544	-2.25
1004.268	1.75
1004.992	-2.25
1005.716	-1.25
1006.439	-0.25
1007.163	-1.25
1007.887	0.75
1008.611	0.75
1009.334	-0.25
1010.058	-1.25
1010.781	0.75
1011.504	0.75
1012.228	0.75
1012.951	-1.25
1013.674	-1.25
1014.397	-1.25
1015.12	0.75
