节点500_145_QEPB04081__296__11-33-42-440.txt的数据

Date: Wed Nov 12 11:33:42 CST 2025
User: PC
Spectrometer: QEPB0408
触发模式: 0
积分时间 (秒): 1.000000E-2
Scans to average: 1
启用暗噪声校正: true
启用非线性校正: false
滑动平均宽度: 0
X轴模式: Wavelengths
Number of Pixels in Spectrum: 1044
>>>>>Begin Spectral Data<<<<<
220.843	0.25
221.644	0.25
222.444	0.25
223.244	-1.75
224.045	1.25
224.845	1.25
225.645	-0.75
226.445	0.25
227.245	0.25
228.045	1.25
228.845	-0.75
229.645	0.25
230.444	1.25
231.244	-0.75
232.043	3.25
232.843	0.25
233.642	1.25
234.442	0.25
235.241	0.25
236.04	0.25
236.839	1.25
237.638	-0.75
238.437	1.25
239.236	1.25
240.035	1.25
240.833	1.25
241.632	1.25
242.43	0.25
243.229	3.25
244.027	1.25
244.826	1.25
245.624	2.25
246.422	2.25
247.22	3.25
248.018	2.25
248.816	4.25
249.614	3.25
250.412	2.25
251.21	2.25
252.007	2.25
252.805	1.25
253.602	3.25
254.4	2.25
255.197	1.25
255.994	4.25
256.791	5.25
257.589	2.25
258.386	3.25
259.183	5.25
259.979	4.25
260.776	3.25
261.573	7.25
262.37	7.25
263.166	2.25
263.963	6.25
264.759	5.25
265.556	5.25
266.352	4.25
267.148	7.25
267.944	7.25
268.74	6.25
269.536	7.25
270.332	5.25
271.128	8.25
271.924	7.25
272.719	7.25
273.515	9.25
274.311	6.25
275.106	9.25
275.901	7.25
276.697	11.25
277.492	9.25
278.287	10.25
279.082	9.25
279.877	9.25
280.672	8.25
281.467	10.25
282.262	12.25
283.056	9.25
283.851	11.25
284.646	8.25
285.44	9.25
286.234	13.25
287.029	11.25
287.823	8.25
288.617	11.25
289.411	9.25
290.205	11.25
290.999	9.25
291.793	13.25
292.587	9.25
293.381	10.25
294.174	13.25
294.968	10.25
295.761	9.25
296.555	9.25
297.348	10.25
298.141	10.25
298.935	10.25
299.728	10.25
300.521	9.25
301.314	8.25
302.107	8.25
302.899	9.25
303.692	6.25
304.485	9.25
305.277	8.25
306.07	7.25
306.862	6.25
307.655	9.25
308.447	6.25
309.239	7.25
310.031	7.25
310.823	6.25
311.615	7.25
312.407	8.25
313.199	7.25
313.991	7.25
314.783	5.25
315.574	4.25
316.366	5.25
317.157	6.25
317.949	5.25
318.74	3.25
319.531	7.25
320.322	4.25
321.113	2.25
321.904	5.25
322.695	1.25
323.486	4.25
324.277	4.25
325.068	3.25
325.858	6.25
326.649	5.25
327.439	4.25
328.23	4.25
329.02	2.25
329.81	2.25
330.6	6.25
331.391	2.25
332.181	3.25
332.971	5.25
333.76	4.25
334.55	5.25
335.34	2.25
336.13	4.25
336.919	2.25
337.709	7.25
338.498	1.25
339.287	2.25
340.077	3.25
340.866	3.25
341.655	3.25
342.444	2.25
343.233	3.25
344.022	1.25
344.811	5.25
345.6	4.25
346.388	3.25
347.177	3.25
347.965	4.25
348.754	4.25
349.542	1.25
350.33	4.25
351.119	1.25
351.907	1.25
352.695	4.25
353.483	4.25
354.271	2.25
355.059	4.25
355.846	3.25
356.634	5.25
357.422	3.25
358.209	3.25
358.997	3.25
359.784	1.25
360.571	2.25
361.359	2.25
362.146	3.25
362.933	1.25
363.72	1.25
364.507	1.25
365.294	4.25
366.081	2.25
366.867	2.25
367.654	4.25
368.44	1.25
369.227	0.25
370.013	2.25
370.8	1.25
371.586	2.25
372.372	3.25
373.158	4.25
373.944	3.25
374.73	3.25
375.516	1.25
376.302	2.25
377.088	2.25
377.873	1.25
378.659	1.25
379.445	0.25
380.23	1.25
381.015	2.25
381.801	1.25
382.586	0.25
383.371	3.25
384.156	3.25
384.941	3.25
385.726	3.25
386.511	0.25
387.296	1.25
388.08	4.25
388.865	5.25
389.649	3.25
390.434	4.25
391.218	3.25
392.003	3.25
392.787	2.25
393.571	2.25
394.355	2.25
395.139	3.25
395.923	3.25
396.707	4.25
397.491	4.25
398.274	2.25
399.058	2.25
399.842	2.25
400.625	4.25
401.408	5.25
402.192	3.25
402.975	3.25
403.758	2.25
404.541	5.25
405.324	4.25
406.107	5.25
406.89	5.25
407.673	1.25
408.456	3.25
409.238	2.25
410.021	5.25
410.803	3.25
411.586	3.25
412.368	3.25
413.151	4.25
413.933	4.25
414.715	4.25
415.497	5.25
416.279	4.25
417.061	4.25
417.843	5.25
418.624	6.25
419.406	3.25
420.188	6.25
420.969	6.25
421.751	4.25
422.532	5.25
423.313	5.25
424.095	5.25
424.876	6.25
425.657	9.25
426.438	7.25
427.219	7.25
428	7.25
428.78	6.25
429.561	7.25
430.342	7.25
431.122	6.25
431.903	8.25
432.683	8.25
433.464	8.25
434.244	8.25
435.024	8.25
435.804	9.25
436.584	9.25
437.364	10.25
438.144	10.25
438.924	13.25
439.704	11.25
440.483	12.25
441.263	12.25
442.042	12.25
442.822	12.25
443.601	14.25
444.38	17.25
445.16	16.25
445.939	17.25
446.718	16.25
447.497	17.25
448.276	21.25
449.054	21.25
449.833	20.25
450.612	23.25
451.391	26.25
452.169	29.25
452.948	32.25
453.726	34.25
454.504	36.25
455.282	37.25
456.061	45.25
456.839	51.25
457.617	53.25
458.395	59.25
459.172	69.25
459.95	80.25
460.728	80.25
461.506	93.25
462.283	100.25
463.061	114.25
463.838	123.25
464.615	141.25
465.393	149.25
466.17	168.25
466.947	190.25
467.724	214.25
468.501	243.25
469.278	274.25
470.055	296.25
470.831	332.25
471.608	372.25
472.385	423.25
473.161	458.25
473.938	513.25
474.714	557.25
475.49	635.25
476.266	700.25
477.043	770.25
477.819	846.25
478.595	937.25
479.371	1039.25
480.146	1141.25
480.922	1279.25
481.698	1402.25
482.473	1543.25
483.249	1683.25
484.024	1879.25
484.8	2068.25
485.575	2280.25
486.35	2501.25
487.126	2776.25
487.901	3047.25
488.676	3360.25
489.451	3699.25
490.225	4069.25
491	4489.25
491.775	4878.25
492.55	5372.25
493.324	5870.25
494.099	6418.25
494.873	7022.25
495.647	7641.25
496.422	8307.25
497.196	8962.25
497.97	9681.25
498.744	10425.25
499.518	11165.25
500.292	11886.25
501.066	12613.25
501.839	13290.25
502.613	14009.25
503.387	14591.25
504.16	15173.25
504.934	15593.25
505.707	15945.25
506.48	16201.25
507.253	16366.25
508.027	16479.25
508.8	16392.25
509.573	16275.25
510.346	16089.25
511.118	15729.25
511.891	15327.25
512.664	14841.25
513.437	14328.25
514.209	13757.25
514.982	13284.25
515.754	12728.25
516.526	12197.25
517.298	11639.25
518.071	11130.25
518.843	10598.25
519.615	10182.25
520.387	9766.25
521.159	9372.25
521.93	8977.25
522.702	8620.25
523.474	8307.25
524.245	7963.25
525.017	7649.25
525.788	7334.25
526.56	7084.25
527.331	6777.25
528.102	6453.25
528.873	6194.25
529.644	5901.25
530.415	5638.25
531.186	5345.25
531.957	5063.25
532.728	4839.25
533.498	4574.25
534.269	4316.25
535.039	4089.25
535.81	3861.25
536.58	3654.25
537.351	3459.25
538.121	3249.25
538.891	3078.25
539.661	2906.25
540.431	2741.25
541.201	2596.25
541.971	2464.25
542.741	2326.25
543.51	2209.25
544.28	2103.25
545.05	1984.25
545.819	1897.25
546.588	1804.25
547.358	1718.25
548.127	1621.25
548.896	1566.25
549.665	1459.25
550.434	1400.25
551.203	1322.25
551.972	1257.25
552.741	1181.25
553.51	1125.25
554.278	1067.25
555.047	1001.25
555.815	958.25
556.584	901.25
557.352	835.25
558.121	788.25
558.889	751.25
559.657	704.25
560.425	661.25
561.193	623.25
561.961	598.25
562.729	555.25
563.496	527.25
564.264	501.25
565.032	473.25
565.799	453.25
566.567	416.25
567.334	396.25
568.101	372.25
568.869	350.25
569.636	327.25
570.403	313.25
571.17	292.25
571.937	285.25
572.704	267.25
573.471	245.25
574.237	237.25
575.004	221.25
575.771	211.25
576.537	199.25
577.303	185.25
578.07	173.25
578.836	159.25
579.602	156.25
580.368	148.25
581.134	136.25
581.9	126.25
582.666	121.25
583.432	114.25
584.198	112.25
584.964	106.25
585.729	99.25
586.495	89.25
587.26	87.25
588.025	85.25
588.791	77.25
589.556	75.25
590.321	70.25
591.086	64.25
591.851	61.25
592.616	56.25
593.381	58.25
594.146	59.25
594.911	54.25
595.675	45.25
596.44	47.25
597.204	42.25
597.969	44.25
598.733	39.25
599.497	39.25
600.261	35.25
601.025	38.25
601.79	33.25
602.553	33.25
603.317	31.25
604.081	31.25
604.845	28.25
605.609	27.25
606.372	26.25
607.136	24.25
607.899	20.25
608.662	21.25
609.426	24.25
610.189	23.25
610.952	19.25
611.715	18.25
612.478	17.25
613.241	16.25
614.004	20.25
614.767	15.25
615.529	13.25
616.292	15.25
617.055	16.25
617.817	12.25
618.579	13.25
619.342	13.25
620.104	12.25
620.866	10.25
621.628	11.25
622.39	12.25
623.152	9.25
623.914	10.25
624.676	10.25
625.438	9.25
626.199	10.25
626.961	7.25
627.722	10.25
628.484	9.25
629.245	6.25
630.006	7.25
630.768	7.25
631.529	6.25
632.29	9.25
633.051	9.25
633.812	5.25
634.573	7.25
635.333	7.25
636.094	6.25
636.855	7.25
637.615	6.25
638.376	6.25
639.136	4.25
639.896	8.25
640.657	7.25
641.417	6.25
642.177	5.25
642.937	5.25
643.697	6.25
644.457	6.25
645.216	3.25
645.976	3.25
646.736	7.25
647.495	4.25
648.255	3.25
649.014	4.25
649.774	3.25
650.533	6.25
651.292	2.25
652.051	4.25
652.81	3.25
653.569	3.25
654.328	4.25
655.087	2.25
655.846	3.25
656.604	2.25
657.363	3.25
658.121	3.25
658.88	2.25
659.638	5.25
660.397	3.25
661.155	3.25
661.913	2.25
662.671	2.25
663.429	2.25
664.187	1.25
664.945	3.25
665.703	4.25
666.46	1.25
667.218	3.25
667.976	3.25
668.733	5.25
669.49	2.25
670.248	4.25
671.005	4.25
671.762	1.25
672.519	5.25
673.276	2.25
674.033	4.25
674.79	1.25
675.547	3.25
676.304	2.25
677.06	2.25
677.817	4.25
678.574	0.25
679.33	3.25
680.086	1.25
680.843	4.25
681.599	1.25
682.355	1.25
683.111	2.25
683.867	1.25
684.623	5.25
685.379	2.25
686.135	1.25
686.89	0.25
687.646	0.25
688.402	2.25
689.157	-0.75
689.912	4.25
690.668	2.25
691.423	1.25
692.178	4.25
692.933	0.25
693.688	0.25
694.443	0.25
695.198	3.25
695.953	1.25
696.708	3.25
697.462	2.25
698.217	0.25
698.972	5.25
699.726	1.25
700.48	3.25
701.235	1.25
701.989	-1.75
702.743	0.25
703.497	2.25
704.251	2.25
705.005	0.25
705.759	3.25
706.513	1.25
707.266	0.25
708.02	1.25
708.774	0.25
709.527	3.25
710.28	0.25
711.034	2.25
711.787	1.25
712.54	4.25
713.293	0.25
714.046	3.25
714.799	2.25
715.552	2.25
716.305	2.25
717.058	2.25
717.81	2.25
718.563	3.25
719.315	1.25
720.068	2.25
720.82	3.25
721.573	4.25
722.325	0.25
723.077	2.25
723.829	1.25
724.581	2.25
725.333	2.25
726.085	2.25
726.836	2.25
727.588	2.25
728.34	3.25
729.091	2.25
729.843	1.25
730.594	4.25
731.346	3.25
732.097	4.25
732.848	1.25
733.599	2.25
734.35	2.25
735.101	3.25
735.852	2.25
736.603	2.25
737.354	2.25
738.104	-0.75
738.855	0.25
739.605	0.25
740.356	1.25
741.106	2.25
741.856	2.25
742.607	4.25
743.357	3.25
744.107	4.25
744.857	4.25
745.607	1.25
746.357	3.25
747.106	2.25
747.856	3.25
748.606	2.25
749.355	4.25
750.105	2.25
750.854	2.25
751.603	2.25
752.353	4.25
753.102	3.25
753.851	2.25
754.6	2.25
755.349	4.25
756.098	2.25
756.847	5.25
757.595	3.25
758.344	4.25
759.093	4.25
759.841	1.25
760.589	3.25
761.338	3.25
762.086	5.25
762.834	4.25
763.582	1.25
764.331	4.25
765.079	3.25
765.826	7.25
766.574	5.25
767.322	4.25
768.07	6.25
768.817	3.25
769.565	4.25
770.312	4.25
771.06	7.25
771.807	4.25
772.554	5.25
773.302	1.25
774.049	5.25
774.796	2.25
775.543	3.25
776.29	7.25
777.036	4.25
777.783	3.25
778.53	7.25
779.276	4.25
780.023	5.25
780.769	2.25
781.516	8.25
782.262	4.25
783.008	6.25
783.754	5.25
784.5	4.25
785.246	3.25
785.992	3.25
786.738	2.25
787.484	4.25
788.23	5.25
788.975	4.25
789.721	4.25
790.466	7.25
791.212	4.25
791.957	6.25
792.702	5.25
793.447	5.25
794.193	4.25
794.938	5.25
795.683	5.25
796.427	3.25
797.172	2.25
797.917	4.25
798.662	6.25
799.406	5.25
800.151	3.25
800.895	5.25
801.64	1.25
802.384	5.25
803.128	1.25
803.872	4.25
804.616	4.25
805.36	3.25
806.104	4.25
806.848	2.25
807.592	2.25
808.336	3.25
809.079	4.25
809.823	1.25
810.566	3.25
811.31	5.25
812.053	4.25
812.796	4.25
813.539	5.25
814.283	2.25
815.026	2.25
815.769	2.25
816.511	2.25
817.254	3.25
817.997	1.25
818.74	1.25
819.482	2.25
820.225	3.25
820.967	1.25
821.71	1.25
822.452	2.25
823.194	1.25
823.936	4.25
824.678	3.25
825.42	4.25
826.162	4.25
826.904	2.25
827.646	1.25
828.388	2.25
829.129	2.25
829.871	2.25
830.612	3.25
831.354	1.25
832.095	5.25
832.836	1.25
833.577	5.25
834.319	2.25
835.06	4.25
835.801	0.25
836.542	2.25
837.282	3.25
838.023	2.25
838.764	2.25
839.504	0.25
840.245	5.25
840.985	1.25
841.726	5.25
842.466	3.25
843.206	2.25
843.946	2.25
844.687	2.25
845.427	3.25
846.166	1.25
846.906	0.25
847.646	3.25
848.386	-1.75
849.125	2.25
849.865	3.25
850.605	2.25
851.344	2.25
852.083	0.25
852.823	1.25
853.562	1.25
854.301	2.25
855.04	2.25
855.779	2.25
856.518	1.25
857.257	0.25
857.995	5.25
858.734	1.25
859.473	3.25
860.211	1.25
860.95	0.25
861.688	1.25
862.426	2.25
863.165	2.25
863.903	-0.75
864.641	3.25
865.379	0.25
866.117	-0.75
866.855	3.25
867.593	0.25
868.33	1.25
869.068	1.25
869.806	2.25
870.543	-0.75
871.28	1.25
872.018	1.25
872.755	1.25
873.492	1.25
874.229	0.25
874.967	1.25
875.703	1.25
876.44	0.25
877.177	0.25
877.914	2.25
878.651	0.25
879.387	-0.75
880.124	0.25
880.86	0.25
881.597	2.25
882.333	0.25
883.069	0.25
883.806	2.25
884.542	-2.75
885.278	1.25
886.014	1.25
886.749	-0.75
887.485	0.25
888.221	-0.75
888.957	1.25
889.692	-1.75
890.428	1.25
891.163	1.25
891.899	2.25
892.634	1.25
893.369	1.25
894.104	2.25
894.839	0.25
895.574	3.25
896.309	-1.75
897.044	-0.75
897.779	0.25
898.514	-0.75
899.248	2.25
899.983	-0.75
900.717	1.25
901.452	0.25
902.186	-1.75
902.92	0.25
903.654	-1.75
904.389	1.25
905.123	1.25
905.857	0.25
906.59	0.25
907.324	-0.75
908.058	-0.75
908.792	0.25
909.525	-0.75
910.259	0.25
910.992	0.25
911.726	0.25
912.459	-1.75
913.192	-0.75
913.925	-0.75
914.658	1.25
915.391	-1.75
916.124	2.25
916.857	-0.75
917.59	1.25
918.323	-1.75
919.055	1.25
919.788	1.25
920.521	2.25
921.253	0.25
921.985	1.25
922.718	-1.75
923.45	1.25
924.182	0.25
924.914	1.25
925.646	1.25
926.378	0.25
927.11	-1.75
927.841	-1.75
928.573	-1.75
929.305	0.25
930.036	-0.75
930.768	1.25
931.499	-0.75
932.23	0.25
932.962	-0.75
933.693	1.25
934.424	-0.75
935.155	1.25
935.886	-1.75
936.617	-1.75
937.348	0.25
938.078	-0.75
938.809	2.25
939.54	-1.75
940.27	-0.75
941.001	0.25
941.731	-1.75
942.461	1.25
943.191	1.25
943.922	2.25
944.652	1.25
945.382	-1.75
946.112	2.25
946.841	1.25
947.571	2.25
948.301	1.25
949.031	-0.75
949.76	0.25
950.49	1.25
951.219	0.25
951.948	2.25
952.678	0.25
953.407	0.25
954.136	-1.75
954.865	-1.75
955.594	0.25
956.323	0.25
957.052	2.25
957.78	1.25
958.509	0.25
959.238	0.25
959.966	0.25
960.695	1.25
961.423	-0.75
962.151	-0.75
962.88	1.25
963.608	1.25
964.336	3.25
965.064	1.25
965.792	-0.75
966.52	0.25
967.247	-0.75
967.975	0.25
968.703	0.25
969.43	-0.75
970.158	0.25
970.885	0.25
971.613	0.25
972.34	-1.75
973.067	-1.75
973.794	-2.75
974.521	-0.75
975.248	-0.75
975.975	1.25
976.702	-2.75
977.429	-0.75
978.156	-1.75
978.882	0.25
979.609	1.25
980.335	1.25
981.062	-0.75
981.788	-0.75
982.514	1.25
983.24	0.25
983.967	1.25
984.693	0.25
985.419	-1.75
986.144	-1.75
986.87	1.25
987.596	0.25
988.322	1.25
989.047	-0.75
989.773	3.25
990.498	0.25
991.224	-0.75
991.949	2.25
992.674	-0.75
993.399	0.25
994.124	-1.75
994.849	0.25
995.574	0.25
996.299	-3.75
997.024	0.25
997.749	1.25
998.473	0.25
999.198	-0.75
999.922	0.25
1000.647	1.25
1001.371	3.25
1002.095	-0.75
1002.82	-1.75
1003.544	0.25
1004.268	-1.75
1004.992	-0.75
1005.716	-0.75
1006.439	-1.75
1007.163	-0.75
1007.887	1.25
1008.611	-0.75
1009.334	0.25
1010.058	0.25
1010.781	-1.75
1011.504	0.25
1012.228	-0.75
1012.951	0.25
1013.674	0.25
1014.397	-0.75
1015.12	-0.75
