节点500_145_QEPB04081__295__11-33-41-446.txt的数据

Date: Wed Nov 12 11:33:41 CST 2025
User: PC
Spectrometer: QEPB0408
触发模式: 0
积分时间 (秒): 1.000000E-2
Scans to average: 1
启用暗噪声校正: true
启用非线性校正: false
滑动平均宽度: 0
X轴模式: Wavelengths
Number of Pixels in Spectrum: 1044
>>>>>Begin Spectral Data<<<<<
220.843	-0.25
221.644	-0.25
222.444	-1.25
223.244	-0.25
224.045	1.75
224.845	0.75
225.645	-1.25
226.445	-1.25
227.245	2.75
228.045	-2.25
228.845	-0.25
229.645	1.75
230.444	-2.25
231.244	-0.25
232.043	0.75
232.843	1.75
233.642	0.75
234.442	-0.25
235.241	2.75
236.04	0.75
236.839	-0.25
237.638	0.75
238.437	-0.25
239.236	1.75
240.035	-0.25
240.833	0.75
241.632	-0.25
242.43	1.75
243.229	0.75
244.027	2.75
244.826	1.75
245.624	1.75
246.422	0.75
247.22	-1.25
248.018	2.75
248.816	2.75
249.614	1.75
250.412	3.75
251.21	-1.25
252.007	0.75
252.805	1.75
253.602	1.75
254.4	1.75
255.197	4.75
255.994	3.75
256.791	2.75
257.589	0.75
258.386	2.75
259.183	3.75
259.979	1.75
260.776	4.75
261.573	4.75
262.37	2.75
263.166	2.75
263.963	2.75
264.759	5.75
265.556	4.75
266.352	4.75
267.148	5.75
267.944	4.75
268.74	6.75
269.536	5.75
270.332	8.75
271.128	5.75
271.924	6.75
272.719	6.75
273.515	8.75
274.311	6.75
275.106	6.75
275.901	6.75
276.697	8.75
277.492	6.75
278.287	7.75
279.082	9.75
279.877	9.75
280.672	8.75
281.467	9.75
282.262	9.75
283.056	8.75
283.851	9.75
284.646	8.75
285.44	10.75
286.234	8.75
287.029	10.75
287.823	10.75
288.617	11.75
289.411	8.75
290.205	10.75
290.999	10.75
291.793	9.75
292.587	9.75
293.381	11.75
294.174	7.75
294.968	10.75
295.761	7.75
296.555	8.75
297.348	7.75
298.141	10.75
298.935	9.75
299.728	7.75
300.521	4.75
301.314	8.75
302.107	7.75
302.899	6.75
303.692	8.75
304.485	9.75
305.277	5.75
306.07	8.75
306.862	7.75
307.655	8.75
308.447	6.75
309.239	9.75
310.031	5.75
310.823	6.75
311.615	4.75
312.407	4.75
313.199	7.75
313.991	4.75
314.783	6.75
315.574	6.75
316.366	1.75
317.157	4.75
317.949	2.75
318.74	5.75
319.531	3.75
320.322	6.75
321.113	3.75
321.904	1.75
322.695	2.75
323.486	2.75
324.277	4.75
325.068	3.75
325.858	1.75
326.649	4.75
327.439	5.75
328.23	2.75
329.02	4.75
329.81	4.75
330.6	1.75
331.391	3.75
332.181	3.75
332.971	3.75
333.76	3.75
334.55	2.75
335.34	4.75
336.13	3.75
336.919	2.75
337.709	4.75
338.498	3.75
339.287	4.75
340.077	1.75
340.866	0.75
341.655	3.75
342.444	2.75
343.233	4.75
344.022	4.75
344.811	3.75
345.6	4.75
346.388	2.75
347.177	2.75
347.965	3.75
348.754	5.75
349.542	1.75
350.33	2.75
351.119	2.75
351.907	2.75
352.695	4.75
353.483	2.75
354.271	3.75
355.059	-0.25
355.846	2.75
356.634	1.75
357.422	2.75
358.209	0.75
358.997	2.75
359.784	0.75
360.571	0.75
361.359	4.75
362.146	1.75
362.933	2.75
363.72	2.75
364.507	2.75
365.294	1.75
366.081	0.75
366.867	4.75
367.654	-1.25
368.44	2.75
369.227	2.75
370.013	0.75
370.8	1.75
371.586	1.75
372.372	3.75
373.158	2.75
373.944	1.75
374.73	0.75
375.516	-0.25
376.302	2.75
377.088	0.75
377.873	-0.25
378.659	0.75
379.445	2.75
380.23	1.75
381.015	-0.25
381.801	0.75
382.586	-0.25
383.371	4.75
384.156	0.75
384.941	1.75
385.726	1.75
386.511	1.75
387.296	2.75
388.08	2.75
388.865	1.75
389.649	1.75
390.434	1.75
391.218	-0.25
392.003	2.75
392.787	1.75
393.571	1.75
394.355	2.75
395.139	4.75
395.923	1.75
396.707	2.75
397.491	2.75
398.274	2.75
399.058	0.75
399.842	4.75
400.625	0.75
401.408	1.75
402.192	4.75
402.975	1.75
403.758	3.75
404.541	2.75
405.324	2.75
406.107	4.75
406.89	2.75
407.673	4.75
408.456	1.75
409.238	6.75
410.021	3.75
410.803	5.75
411.586	2.75
412.368	3.75
413.151	4.75
413.933	2.75
414.715	5.75
415.497	3.75
416.279	5.75
417.061	4.75
417.843	4.75
418.624	7.75
419.406	4.75
420.188	5.75
420.969	5.75
421.751	6.75
422.532	4.75
423.313	5.75
424.095	4.75
424.876	3.75
425.657	5.75
426.438	4.75
427.219	7.75
428	7.75
428.78	5.75
429.561	3.75
430.342	6.75
431.122	7.75
431.903	7.75
432.683	7.75
433.464	6.75
434.244	8.75
435.024	9.75
435.804	9.75
436.584	8.75
437.364	8.75
438.144	11.75
438.924	8.75
439.704	11.75
440.483	12.75
441.263	10.75
442.042	12.75
442.822	11.75
443.601	13.75
444.38	13.75
445.16	13.75
445.939	19.75
446.718	17.75
447.497	20.75
448.276	18.75
449.054	20.75
449.833	20.75
450.612	23.75
451.391	27.75
452.169	28.75
452.948	30.75
453.726	35.75
454.504	40.75
455.282	36.75
456.061	44.75
456.839	49.75
457.617	56.75
458.395	61.75
459.172	62.75
459.95	68.75
460.728	79.75
461.506	88.75
462.283	103.75
463.061	109.75
463.838	127.75
464.615	140.75
465.393	159.75
466.17	178.75
466.947	191.75
467.724	216.75
468.501	241.75
469.278	258.75
470.055	302.75
470.831	338.75
471.608	375.75
472.385	411.75
473.161	459.75
473.938	508.75
474.714	559.75
475.49	626.75
476.266	691.75
477.043	775.75
477.819	844.75
478.595	939.75
479.371	1039.75
480.146	1168.75
480.922	1275.75
481.698	1414.75
482.473	1539.75
483.249	1704.75
484.024	1874.75
484.8	2085.75
485.575	2285.75
486.35	2520.75
487.126	2754.75
487.901	3044.75
488.676	3360.75
489.451	3679.75
490.225	4057.75
491	4448.75
491.775	4887.75
492.55	5356.75
493.324	5893.75
494.099	6414.75
494.873	7034.75
495.647	7663.75
496.422	8300.75
497.196	8981.75
497.97	9712.75
498.744	10463.75
499.518	11182.75
500.292	11949.75
501.066	12666.75
501.839	13296.75
502.613	13997.75
503.387	14604.75
504.16	15138.75
504.934	15598.75
505.707	15928.75
506.48	16249.75
507.253	16431.75
508.027	16504.75
508.8	16445.75
509.573	16232.75
510.346	15986.75
511.118	15738.75
511.891	15314.75
512.664	14873.75
513.437	14297.75
514.209	13783.75
514.982	13245.75
515.754	12704.75
516.526	12169.75
517.298	11619.75
518.071	11131.75
518.843	10627.75
519.615	10181.75
520.387	9739.75
521.159	9356.75
521.93	8979.75
522.702	8607.75
523.474	8301.75
524.245	7973.75
525.017	7619.75
525.788	7361.75
526.56	7063.75
527.331	6758.75
528.102	6451.75
528.873	6171.75
529.644	5917.75
530.415	5624.75
531.186	5373.75
531.957	5097.75
532.728	4830.75
533.498	4564.75
534.269	4315.75
535.039	4089.75
535.81	3852.75
536.58	3661.75
537.351	3441.75
538.121	3241.75
538.891	3090.75
539.661	2902.75
540.431	2744.75
541.201	2617.75
541.971	2464.75
542.741	2326.75
543.51	2225.75
544.28	2083.75
545.05	2017.75
545.819	1889.75
546.588	1815.75
547.358	1718.75
548.127	1631.75
548.896	1543.75
549.665	1463.75
550.434	1393.75
551.203	1313.75
551.972	1249.75
552.741	1191.75
553.51	1127.75
554.278	1075.75
555.047	1000.75
555.815	949.75
556.584	888.75
557.352	849.75
558.121	779.75
558.889	749.75
559.657	717.75
560.425	665.75
561.193	625.75
561.961	590.75
562.729	550.75
563.496	530.75
564.264	494.75
565.032	465.75
565.799	446.75
566.567	417.75
567.334	390.75
568.101	370.75
568.869	355.75
569.636	337.75
570.403	304.75
571.17	300.75
571.937	277.75
572.704	263.75
573.471	252.75
574.237	236.75
575.004	223.75
575.771	203.75
576.537	197.75
577.303	185.75
578.07	170.75
578.836	158.75
579.602	152.75
580.368	140.75
581.134	134.75
581.9	126.75
582.666	123.75
583.432	113.75
584.198	108.75
584.964	103.75
585.729	99.75
586.495	92.75
587.26	88.75
588.025	80.75
588.791	75.75
589.556	73.75
590.321	68.75
591.086	61.75
591.851	62.75
592.616	59.75
593.381	55.75
594.146	51.75
594.911	51.75
595.675	45.75
596.44	49.75
597.204	44.75
597.969	39.75
598.733	45.75
599.497	40.75
600.261	34.75
601.025	32.75
601.79	34.75
602.553	32.75
603.317	30.75
604.081	30.75
604.845	26.75
605.609	26.75
606.372	24.75
607.136	27.75
607.899	23.75
608.662	21.75
609.426	18.75
610.189	18.75
610.952	16.75
611.715	17.75
612.478	17.75
613.241	16.75
614.004	16.75
614.767	15.75
615.529	13.75
616.292	16.75
617.055	14.75
617.817	12.75
618.579	10.75
619.342	12.75
620.104	13.75
620.866	11.75
621.628	11.75
622.39	10.75
623.152	12.75
623.914	10.75
624.676	11.75
625.438	8.75
626.199	8.75
626.961	9.75
627.722	9.75
628.484	7.75
629.245	9.75
630.006	8.75
630.768	6.75
631.529	4.75
632.29	8.75
633.051	6.75
633.812	7.75
634.573	5.75
635.333	7.75
636.094	4.75
636.855	5.75
637.615	6.75
638.376	6.75
639.136	3.75
639.896	4.75
640.657	5.75
641.417	4.75
642.177	3.75
642.937	4.75
643.697	4.75
644.457	6.75
645.216	1.75
645.976	4.75
646.736	4.75
647.495	2.75
648.255	3.75
649.014	4.75
649.774	5.75
650.533	3.75
651.292	0.75
652.051	2.75
652.81	3.75
653.569	1.75
654.328	1.75
655.087	1.75
655.846	4.75
656.604	1.75
657.363	1.75
658.121	1.75
658.88	3.75
659.638	3.75
660.397	4.75
661.155	3.75
661.913	1.75
662.671	1.75
663.429	0.75
664.187	1.75
664.945	2.75
665.703	1.75
666.46	1.75
667.218	3.75
667.976	1.75
668.733	4.75
669.49	1.75
670.248	-0.25
671.005	2.75
671.762	1.75
672.519	1.75
673.276	1.75
674.033	0.75
674.79	0.75
675.547	0.75
676.304	2.75
677.06	2.75
677.817	0.75
678.574	2.75
679.33	0.75
680.086	1.75
680.843	3.75
681.599	0.75
682.355	1.75
683.111	0.75
683.867	0.75
684.623	1.75
685.379	3.75
686.135	0.75
686.89	3.75
687.646	2.75
688.402	-0.25
689.157	1.75
689.912	-1.25
690.668	4.75
691.423	1.75
692.178	0.75
692.933	0.75
693.688	2.75
694.443	0.75
695.198	0.75
695.953	1.75
696.708	-0.25
697.462	0.75
698.217	2.75
698.972	2.75
699.726	2.75
700.48	1.75
701.235	0.75
701.989	1.75
702.743	1.75
703.497	1.75
704.251	2.75
705.005	1.75
705.759	1.75
706.513	0.75
707.266	0.75
708.02	1.75
708.774	1.75
709.527	1.75
710.28	1.75
711.034	0.75
711.787	3.75
712.54	-2.25
713.293	0.75
714.046	0.75
714.799	1.75
715.552	1.75
716.305	1.75
717.058	-0.25
717.81	1.75
718.563	-1.25
719.315	2.75
720.068	2.75
720.82	0.75
721.573	1.75
722.325	1.75
723.077	2.75
723.829	2.75
724.581	0.75
725.333	0.75
726.085	-0.25
726.836	2.75
727.588	1.75
728.34	0.75
729.091	2.75
729.843	1.75
730.594	-1.25
731.346	0.75
732.097	1.75
732.848	2.75
733.599	4.75
734.35	1.75
735.101	3.75
735.852	1.75
736.603	2.75
737.354	0.75
738.104	2.75
738.855	1.75
739.605	0.75
740.356	3.75
741.106	1.75
741.856	1.75
742.607	1.75
743.357	1.75
744.107	0.75
744.857	2.75
745.607	4.75
746.357	1.75
747.106	2.75
747.856	0.75
748.606	1.75
749.355	1.75
750.105	0.75
750.854	1.75
751.603	-0.25
752.353	4.75
753.102	1.75
753.851	0.75
754.6	1.75
755.349	2.75
756.098	3.75
756.847	2.75
757.595	1.75
758.344	4.75
759.093	1.75
759.841	1.75
760.589	3.75
761.338	4.75
762.086	3.75
762.834	2.75
763.582	5.75
764.331	1.75
765.079	2.75
765.826	2.75
766.574	1.75
767.322	3.75
768.07	0.75
768.817	3.75
769.565	1.75
770.312	3.75
771.06	4.75
771.807	3.75
772.554	1.75
773.302	3.75
774.049	4.75
774.796	2.75
775.543	2.75
776.29	4.75
777.036	4.75
777.783	4.75
778.53	3.75
779.276	3.75
780.023	4.75
780.769	4.75
781.516	2.75
782.262	2.75
783.008	5.75
783.754	7.75
784.5	4.75
785.246	1.75
785.992	4.75
786.738	3.75
787.484	3.75
788.23	5.75
788.975	5.75
789.721	4.75
790.466	5.75
791.212	4.75
791.957	3.75
792.702	4.75
793.447	3.75
794.193	4.75
794.938	4.75
795.683	4.75
796.427	3.75
797.172	2.75
797.917	0.75
798.662	2.75
799.406	5.75
800.151	3.75
800.895	4.75
801.64	4.75
802.384	3.75
803.128	5.75
803.872	5.75
804.616	5.75
805.36	2.75
806.104	3.75
806.848	4.75
807.592	3.75
808.336	3.75
809.079	4.75
809.823	4.75
810.566	3.75
811.31	4.75
812.053	2.75
812.796	2.75
813.539	1.75
814.283	2.75
815.026	4.75
815.769	3.75
816.511	1.75
817.254	1.75
817.997	2.75
818.74	3.75
819.482	1.75
820.225	4.75
820.967	3.75
821.71	0.75
822.452	0.75
823.194	2.75
823.936	2.75
824.678	1.75
825.42	1.75
826.162	1.75
826.904	2.75
827.646	2.75
828.388	3.75
829.129	0.75
829.871	-0.25
830.612	3.75
831.354	4.75
832.095	2.75
832.836	4.75
833.577	1.75
834.319	1.75
835.06	2.75
835.801	1.75
836.542	1.75
837.282	0.75
838.023	2.75
838.764	1.75
839.504	0.75
840.245	1.75
840.985	1.75
841.726	-0.25
842.466	0.75
843.206	3.75
843.946	2.75
844.687	1.75
845.427	0.75
846.166	0.75
846.906	2.75
847.646	-0.25
848.386	1.75
849.125	1.75
849.865	0.75
850.605	1.75
851.344	0.75
852.083	1.75
852.823	1.75
853.562	1.75
854.301	2.75
855.04	1.75
855.779	1.75
856.518	1.75
857.257	-1.25
857.995	1.75
858.734	-0.25
859.473	1.75
860.211	-0.25
860.95	1.75
861.688	0.75
862.426	0.75
863.165	1.75
863.903	1.75
864.641	0.75
865.379	0.75
866.117	-0.25
866.855	0.75
867.593	0.75
868.33	0.75
869.068	0.75
869.806	-1.25
870.543	0.75
871.28	1.75
872.018	2.75
872.755	-0.25
873.492	0.75
874.229	0.75
874.967	-0.25
875.703	-1.25
876.44	-0.25
877.177	0.75
877.914	0.75
878.651	-0.25
879.387	-0.25
880.124	0.75
880.86	-2.25
881.597	0.75
882.333	-1.25
883.069	0.75
883.806	-0.25
884.542	-0.25
885.278	-0.25
886.014	1.75
886.749	2.75
887.485	1.75
888.221	1.75
888.957	-0.25
889.692	-1.25
890.428	1.75
891.163	0.75
891.899	-1.25
892.634	0.75
893.369	0.75
894.104	-2.25
894.839	0.75
895.574	-0.25
896.309	-1.25
897.044	1.75
897.779	-0.25
898.514	0.75
899.248	-0.25
899.983	-1.25
900.717	0.75
901.452	-1.25
902.186	-0.25
902.92	-1.25
903.654	-1.25
904.389	-0.25
905.123	-1.25
905.857	1.75
906.59	-2.25
907.324	-0.25
908.058	-0.25
908.792	-1.25
909.525	0.75
910.259	-2.25
910.992	-0.25
911.726	-1.25
912.459	0.75
913.192	0.75
913.925	0.75
914.658	1.75
915.391	-1.25
916.124	0.75
916.857	-1.25
917.59	-0.25
918.323	-0.25
919.055	-3.25
919.788	-2.25
920.521	-2.25
921.253	-0.25
921.985	-1.25
922.718	-1.25
923.45	-2.25
924.182	-0.25
924.914	0.75
925.646	-1.25
926.378	-1.25
927.11	0.75
927.841	2.75
928.573	-1.25
929.305	-2.25
930.036	1.75
930.768	0.75
931.499	-0.25
932.23	-1.25
932.962	-1.25
933.693	-1.25
934.424	0.75
935.155	-0.25
935.886	0.75
936.617	-1.25
937.348	-0.25
938.078	-0.25
938.809	-2.25
939.54	-2.25
940.27	0.75
941.001	-2.25
941.731	0.75
942.461	-0.25
943.191	-0.25
943.922	-2.25
944.652	-2.25
945.382	0.75
946.112	-1.25
946.841	-0.25
947.571	0.75
948.301	0.75
949.031	1.75
949.76	-2.25
950.49	0.75
951.219	-1.25
951.948	0.75
952.678	-0.25
953.407	-0.25
954.136	1.75
954.865	-2.25
955.594	-0.25
956.323	-1.25
957.052	2.75
957.78	-1.25
958.509	-1.25
959.238	-0.25
959.966	-2.25
960.695	0.75
961.423	-2.25
962.151	-0.25
962.88	0.75
963.608	-0.25
964.336	0.75
965.064	-0.25
965.792	-0.25
966.52	-2.25
967.247	-2.25
967.975	0.75
968.703	1.75
969.43	-1.25
970.158	1.75
970.885	0.75
971.613	-0.25
972.34	-1.25
973.067	-0.25
973.794	0.75
974.521	-1.25
975.248	-0.25
975.975	-1.25
976.702	-1.25
977.429	0.75
978.156	-0.25
978.882	1.75
979.609	0.75
980.335	1.75
981.062	-1.25
981.788	-2.25
982.514	1.75
983.24	-0.25
983.967	0.75
984.693	-1.25
985.419	-1.25
986.144	1.75
986.87	-2.25
987.596	-1.25
988.322	1.75
989.047	0.75
989.773	-1.25
990.498	0.75
991.224	-1.25
991.949	-0.25
992.674	1.75
993.399	-2.25
994.124	0.75
994.849	1.75
995.574	-3.25
996.299	-1.25
997.024	-2.25
997.749	-1.25
998.473	-0.25
999.198	-1.25
999.922	0.75
1000.647	-1.25
1001.371	2.75
1002.095	0.75
1002.82	-0.25
1003.544	-2.25
1004.268	-0.25
1004.992	-1.25
1005.716	-0.25
1006.439	-1.25
1007.163	-1.25
1007.887	-0.25
1008.611	-0.25
1009.334	0.75
1010.058	0.75
1010.781	-2.25
1011.504	1.75
1012.228	1.75
1012.951	-0.25
1013.674	0.75
1014.397	-0.25
1015.12	-1.25
