节点500_145_QEPB04081__121__11-30-53-592.txt的数据

Date: Wed Nov 12 11:30:53 CST 2025
User: PC
Spectrometer: QEPB0408
触发模式: 0
积分时间 (秒): 1.000000E-2
Scans to average: 1
启用暗噪声校正: true
启用非线性校正: false
滑动平均宽度: 0
X轴模式: Wavelengths
Number of Pixels in Spectrum: 1044
>>>>>Begin Spectral Data<<<<<
220.843	1.38
221.644	2.38
222.444	-1.62
223.244	1.38
224.045	-1.62
224.845	2.38
225.645	-1.62
226.445	1.38
227.245	0.38
228.045	0.38
228.845	3.38
229.645	-0.62
230.444	1.38
231.244	1.38
232.043	1.38
232.843	-0.62
233.642	0.38
234.442	2.38
235.241	0.38
236.04	2.38
236.839	2.38
237.638	1.38
238.437	1.38
239.236	2.38
240.035	2.38
240.833	1.38
241.632	1.38
242.43	2.38
243.229	2.38
244.027	2.38
244.826	1.38
245.624	3.38
246.422	1.38
247.22	2.38
248.018	2.38
248.816	3.38
249.614	3.38
250.412	0.38
251.21	4.38
252.007	4.38
252.805	4.38
253.602	3.38
254.4	2.38
255.197	4.38
255.994	4.38
256.791	4.38
257.589	6.38
258.386	5.38
259.183	4.38
259.979	3.38
260.776	3.38
261.573	4.38
262.37	3.38
263.166	5.38
263.963	5.38
264.759	6.38
265.556	7.38
266.352	7.38
267.148	9.38
267.944	9.38
268.74	5.38
269.536	8.38
270.332	6.38
271.128	7.38
271.924	10.38
272.719	7.38
273.515	7.38
274.311	10.38
275.106	11.38
275.901	8.38
276.697	10.38
277.492	9.38
278.287	9.38
279.082	11.38
279.877	9.38
280.672	11.38
281.467	14.38
282.262	11.38
283.056	11.38
283.851	11.38
284.646	12.38
285.44	12.38
286.234	11.38
287.029	11.38
287.823	11.38
288.617	10.38
289.411	12.38
290.205	10.38
290.999	13.38
291.793	12.38
292.587	11.38
293.381	9.38
294.174	13.38
294.968	11.38
295.761	9.38
296.555	12.38
297.348	12.38
298.141	11.38
298.935	10.38
299.728	9.38
300.521	10.38
301.314	9.38
302.107	9.38
302.899	8.38
303.692	8.38
304.485	10.38
305.277	8.38
306.07	7.38
306.862	9.38
307.655	8.38
308.447	5.38
309.239	9.38
310.031	7.38
310.823	6.38
311.615	8.38
312.407	8.38
313.199	6.38
313.991	7.38
314.783	7.38
315.574	5.38
316.366	6.38
317.157	6.38
317.949	6.38
318.74	6.38
319.531	6.38
320.322	5.38
321.113	5.38
321.904	6.38
322.695	5.38
323.486	7.38
324.277	5.38
325.068	3.38
325.858	4.38
326.649	2.38
327.439	5.38
328.23	4.38
329.02	2.38
329.81	6.38
330.6	1.38
331.391	2.38
332.181	2.38
332.971	1.38
333.76	4.38
334.55	3.38
335.34	4.38
336.13	2.38
336.919	1.38
337.709	2.38
338.498	2.38
339.287	5.38
340.077	0.38
340.866	5.38
341.655	2.38
342.444	3.38
343.233	6.38
344.022	0.38
344.811	3.38
345.6	4.38
346.388	2.38
347.177	3.38
347.965	4.38
348.754	2.38
349.542	3.38
350.33	4.38
351.119	3.38
351.907	6.38
352.695	2.38
353.483	3.38
354.271	3.38
355.059	4.38
355.846	3.38
356.634	4.38
357.422	3.38
358.209	3.38
358.997	2.38
359.784	4.38
360.571	3.38
361.359	2.38
362.146	1.38
362.933	1.38
363.72	2.38
364.507	2.38
365.294	2.38
366.081	4.38
366.867	2.38
367.654	1.38
368.44	1.38
369.227	3.38
370.013	2.38
370.8	4.38
371.586	2.38
372.372	4.38
373.158	3.38
373.944	3.38
374.73	1.38
375.516	3.38
376.302	3.38
377.088	3.38
377.873	0.38
378.659	4.38
379.445	3.38
380.23	5.38
381.015	2.38
381.801	4.38
382.586	2.38
383.371	0.38
384.156	3.38
384.941	1.38
385.726	4.38
386.511	4.38
387.296	3.38
388.08	2.38
388.865	3.38
389.649	2.38
390.434	3.38
391.218	4.38
392.003	1.38
392.787	4.38
393.571	4.38
394.355	2.38
395.139	2.38
395.923	2.38
396.707	4.38
397.491	2.38
398.274	4.38
399.058	4.38
399.842	5.38
400.625	4.38
401.408	2.38
402.192	4.38
402.975	3.38
403.758	3.38
404.541	5.38
405.324	3.38
406.107	2.38
406.89	4.38
407.673	2.38
408.456	5.38
409.238	4.38
410.021	2.38
410.803	5.38
411.586	3.38
412.368	4.38
413.151	3.38
413.933	4.38
414.715	5.38
415.497	3.38
416.279	5.38
417.061	5.38
417.843	5.38
418.624	7.38
419.406	5.38
420.188	4.38
420.969	6.38
421.751	5.38
422.532	8.38
423.313	7.38
424.095	7.38
424.876	5.38
425.657	7.38
426.438	3.38
427.219	6.38
428	8.38
428.78	7.38
429.561	7.38
430.342	8.38
431.122	8.38
431.903	7.38
432.683	10.38
433.464	8.38
434.244	8.38
435.024	9.38
435.804	9.38
436.584	10.38
437.364	10.38
438.144	7.38
438.924	10.38
439.704	11.38
440.483	10.38
441.263	13.38
442.042	14.38
442.822	13.38
443.601	13.38
444.38	16.38
445.16	16.38
445.939	17.38
446.718	17.38
447.497	16.38
448.276	20.38
449.054	22.38
449.833	21.38
450.612	23.38
451.391	26.38
452.169	28.38
452.948	31.38
453.726	34.38
454.504	33.38
455.282	38.38
456.061	42.38
456.839	45.38
457.617	50.38
458.395	55.38
459.172	64.38
459.95	73.38
460.728	74.38
461.506	88.38
462.283	98.38
463.061	101.38
463.838	119.38
464.615	130.38
465.393	143.38
466.17	162.38
466.947	176.38
467.724	206.38
468.501	223.38
469.278	254.38
470.055	281.38
470.831	316.38
471.608	359.38
472.385	389.38
473.161	441.38
473.938	495.38
474.714	545.38
475.49	612.38
476.266	675.38
477.043	762.38
477.819	826.38
478.595	918.38
479.371	1016.38
480.146	1126.38
480.922	1241.38
481.698	1393.38
482.473	1555.38
483.249	1713.38
484.024	1909.38
484.8	2108.38
485.575	2327.38
486.35	2586.38
487.126	2868.38
487.901	3165.38
488.676	3506.38
489.451	3886.38
490.225	4263.38
491	4751.38
491.775	5181.38
492.55	5709.38
493.324	6245.38
494.099	6909.38
494.873	7554.38
495.647	8245.38
496.422	8960.38
497.196	9724.38
497.97	10516.38
498.744	11285.38
499.518	12079.38
500.292	12960.38
501.066	13686.38
501.839	14383.38
502.613	15088.38
503.387	15716.38
504.16	16208.38
504.934	16657.38
505.707	16929.38
506.48	17149.38
507.253	17287.38
508.027	17239.38
508.8	17171.38
509.573	16877.38
510.346	16543.38
511.118	16124.38
511.891	15537.38
512.664	15033.38
513.437	14475.38
514.209	13907.38
514.982	13249.38
515.754	12709.38
516.526	12120.38
517.298	11524.38
518.071	11029.38
518.843	10508.38
519.615	10095.38
520.387	9686.38
521.159	9302.38
521.93	8920.38
522.702	8571.38
523.474	8233.38
524.245	7893.38
525.017	7598.38
525.788	7306.38
526.56	6980.38
527.331	6709.38
528.102	6409.38
528.873	6090.38
529.644	5801.38
530.415	5538.38
531.186	5286.38
531.957	4985.38
532.728	4715.38
533.498	4465.38
534.269	4227.38
535.039	3988.38
535.81	3760.38
536.58	3528.38
537.351	3338.38
538.121	3158.38
538.891	2967.38
539.661	2804.38
540.431	2681.38
541.201	2524.38
541.971	2379.38
542.741	2262.38
543.51	2145.38
544.28	2035.38
545.05	1945.38
545.819	1842.38
546.588	1765.38
547.358	1668.38
548.127	1587.38
548.896	1492.38
549.665	1431.38
550.434	1359.38
551.203	1275.38
551.972	1200.38
552.741	1153.38
553.51	1092.38
554.278	1022.38
555.047	971.38
555.815	911.38
556.584	856.38
557.352	813.38
558.121	760.38
558.889	726.38
559.657	676.38
560.425	638.38
561.193	612.38
561.961	574.38
562.729	532.38
563.496	515.38
564.264	481.38
565.032	451.38
565.799	433.38
566.567	406.38
567.334	376.38
568.101	363.38
568.869	337.38
569.636	313.38
570.403	305.38
571.17	287.38
571.937	267.38
572.704	253.38
573.471	241.38
574.237	225.38
575.004	211.38
575.771	201.38
576.537	183.38
577.303	173.38
578.07	168.38
578.836	159.38
579.602	146.38
580.368	142.38
581.134	131.38
581.9	124.38
582.666	120.38
583.432	113.38
584.198	106.38
584.964	99.38
585.729	92.38
586.495	87.38
587.26	80.38
588.025	78.38
588.791	74.38
589.556	70.38
590.321	70.38
591.086	61.38
591.851	60.38
592.616	59.38
593.381	58.38
594.146	51.38
594.911	46.38
595.675	49.38
596.44	42.38
597.204	42.38
597.969	42.38
598.733	37.38
599.497	37.38
600.261	36.38
601.025	33.38
601.79	31.38
602.553	31.38
603.317	29.38
604.081	25.38
604.845	27.38
605.609	26.38
606.372	23.38
607.136	25.38
607.899	23.38
608.662	22.38
609.426	20.38
610.189	20.38
610.952	17.38
611.715	19.38
612.478	17.38
613.241	19.38
614.004	17.38
614.767	17.38
615.529	15.38
616.292	15.38
617.055	14.38
617.817	12.38
618.579	11.38
619.342	11.38
620.104	13.38
620.866	13.38
621.628	10.38
622.39	13.38
623.152	12.38
623.914	11.38
624.676	12.38
625.438	9.38
626.199	8.38
626.961	9.38
627.722	9.38
628.484	8.38
629.245	9.38
630.006	8.38
630.768	8.38
631.529	8.38
632.29	6.38
633.051	6.38
633.812	8.38
634.573	8.38
635.333	9.38
636.094	7.38
636.855	5.38
637.615	4.38
638.376	6.38
639.136	6.38
639.896	5.38
640.657	6.38
641.417	6.38
642.177	6.38
642.937	2.38
643.697	6.38
644.457	5.38
645.216	4.38
645.976	5.38
646.736	4.38
647.495	6.38
648.255	4.38
649.014	5.38
649.774	3.38
650.533	4.38
651.292	3.38
652.051	3.38
652.81	2.38
653.569	3.38
654.328	4.38
655.087	4.38
655.846	4.38
656.604	5.38
657.363	4.38
658.121	2.38
658.88	3.38
659.638	2.38
660.397	2.38
661.155	2.38
661.913	4.38
662.671	3.38
663.429	2.38
664.187	4.38
664.945	5.38
665.703	3.38
666.46	2.38
667.218	4.38
667.976	3.38
668.733	3.38
669.49	2.38
670.248	3.38
671.005	2.38
671.762	5.38
672.519	2.38
673.276	2.38
674.033	3.38
674.79	3.38
675.547	5.38
676.304	2.38
677.06	2.38
677.817	4.38
678.574	2.38
679.33	4.38
680.086	3.38
680.843	2.38
681.599	2.38
682.355	2.38
683.111	2.38
683.867	1.38
684.623	1.38
685.379	1.38
686.135	2.38
686.89	4.38
687.646	2.38
688.402	3.38
689.157	2.38
689.912	2.38
690.668	1.38
691.423	1.38
692.178	4.38
692.933	-0.62
693.688	2.38
694.443	0.38
695.198	4.38
695.953	1.38
696.708	2.38
697.462	2.38
698.217	5.38
698.972	2.38
699.726	2.38
700.48	2.38
701.235	1.38
701.989	1.38
702.743	1.38
703.497	2.38
704.251	0.38
705.005	1.38
705.759	4.38
706.513	2.38
707.266	2.38
708.02	3.38
708.774	3.38
709.527	1.38
710.28	1.38
711.034	4.38
711.787	0.38
712.54	2.38
713.293	2.38
714.046	2.38
714.799	2.38
715.552	2.38
716.305	3.38
717.058	2.38
717.81	0.38
718.563	5.38
719.315	-0.62
720.068	4.38
720.82	3.38
721.573	2.38
722.325	2.38
723.077	0.38
723.829	2.38
724.581	0.38
725.333	1.38
726.085	1.38
726.836	2.38
727.588	3.38
728.34	2.38
729.091	1.38
729.843	-0.62
730.594	2.38
731.346	5.38
732.097	2.38
732.848	3.38
733.599	1.38
734.35	3.38
735.101	2.38
735.852	2.38
736.603	0.38
737.354	2.38
738.104	3.38
738.855	2.38
739.605	4.38
740.356	2.38
741.106	1.38
741.856	2.38
742.607	4.38
743.357	2.38
744.107	2.38
744.857	3.38
745.607	2.38
746.357	3.38
747.106	3.38
747.856	3.38
748.606	2.38
749.355	2.38
750.105	4.38
750.854	2.38
751.603	3.38
752.353	2.38
753.102	3.38
753.851	4.38
754.6	1.38
755.349	5.38
756.098	3.38
756.847	2.38
757.595	1.38
758.344	3.38
759.093	5.38
759.841	2.38
760.589	3.38
761.338	2.38
762.086	3.38
762.834	4.38
763.582	3.38
764.331	4.38
765.079	3.38
765.826	4.38
766.574	5.38
767.322	5.38
768.07	5.38
768.817	3.38
769.565	5.38
770.312	4.38
771.06	5.38
771.807	2.38
772.554	4.38
773.302	4.38
774.049	3.38
774.796	4.38
775.543	3.38
776.29	5.38
777.036	4.38
777.783	5.38
778.53	3.38
779.276	5.38
780.023	8.38
780.769	6.38
781.516	5.38
782.262	5.38
783.008	5.38
783.754	7.38
784.5	3.38
785.246	2.38
785.992	6.38
786.738	5.38
787.484	6.38
788.23	4.38
788.975	6.38
789.721	5.38
790.466	5.38
791.212	6.38
791.957	7.38
792.702	8.38
793.447	3.38
794.193	6.38
794.938	2.38
795.683	5.38
796.427	7.38
797.172	3.38
797.917	4.38
798.662	2.38
799.406	4.38
800.151	4.38
800.895	5.38
801.64	6.38
802.384	5.38
803.128	5.38
803.872	4.38
804.616	3.38
805.36	3.38
806.104	5.38
806.848	4.38
807.592	3.38
808.336	5.38
809.079	2.38
809.823	4.38
810.566	3.38
811.31	6.38
812.053	3.38
812.796	1.38
813.539	5.38
814.283	2.38
815.026	5.38
815.769	5.38
816.511	6.38
817.254	4.38
817.997	2.38
818.74	4.38
819.482	4.38
820.225	2.38
820.967	4.38
821.71	3.38
822.452	4.38
823.194	3.38
823.936	3.38
824.678	2.38
825.42	3.38
826.162	1.38
826.904	4.38
827.646	2.38
828.388	5.38
829.129	4.38
829.871	4.38
830.612	6.38
831.354	0.38
832.095	1.38
832.836	2.38
833.577	2.38
834.319	3.38
835.06	3.38
835.801	4.38
836.542	0.38
837.282	1.38
838.023	4.38
838.764	1.38
839.504	2.38
840.245	5.38
840.985	1.38
841.726	2.38
842.466	1.38
843.206	4.38
843.946	0.38
844.687	2.38
845.427	2.38
846.166	3.38
846.906	1.38
847.646	2.38
848.386	3.38
849.125	-0.62
849.865	3.38
850.605	4.38
851.344	2.38
852.083	3.38
852.823	2.38
853.562	2.38
854.301	-0.62
855.04	1.38
855.779	3.38
856.518	2.38
857.257	2.38
857.995	2.38
858.734	2.38
859.473	0.38
860.211	1.38
860.95	3.38
861.688	2.38
862.426	-0.62
863.165	3.38
863.903	3.38
864.641	0.38
865.379	1.38
866.117	1.38
866.855	0.38
867.593	1.38
868.33	2.38
869.068	2.38
869.806	2.38
870.543	1.38
871.28	0.38
872.018	1.38
872.755	1.38
873.492	1.38
874.229	1.38
874.967	0.38
875.703	1.38
876.44	1.38
877.177	1.38
877.914	2.38
878.651	3.38
879.387	2.38
880.124	1.38
880.86	1.38
881.597	1.38
882.333	2.38
883.069	1.38
883.806	1.38
884.542	0.38
885.278	0.38
886.014	0.38
886.749	-0.62
887.485	-1.62
888.221	0.38
888.957	-1.62
889.692	2.38
890.428	-0.62
891.163	1.38
891.899	1.38
892.634	-1.62
893.369	2.38
894.104	1.38
894.839	2.38
895.574	2.38
896.309	0.38
897.044	-1.62
897.779	1.38
898.514	3.38
899.248	1.38
899.983	1.38
900.717	-0.62
901.452	-1.62
902.186	0.38
902.92	-1.62
903.654	-1.62
904.389	2.38
905.123	1.38
905.857	0.38
906.59	1.38
907.324	0.38
908.058	1.38
908.792	2.38
909.525	-1.62
910.259	1.38
910.992	-1.62
911.726	2.38
912.459	0.38
913.192	0.38
913.925	-0.62
914.658	2.38
915.391	0.38
916.124	0.38
916.857	0.38
917.59	0.38
918.323	0.38
919.055	0.38
919.788	0.38
920.521	2.38
921.253	0.38
921.985	-1.62
922.718	0.38
923.45	-0.62
924.182	0.38
924.914	0.38
925.646	0.38
926.378	1.38
927.11	0.38
927.841	1.38
928.573	-1.62
929.305	1.38
930.036	2.38
930.768	-1.62
931.499	1.38
932.23	1.38
932.962	1.38
933.693	0.38
934.424	2.38
935.155	2.38
935.886	1.38
936.617	0.38
937.348	-2.62
938.078	1.38
938.809	-1.62
939.54	-0.62
940.27	0.38
941.001	1.38
941.731	0.38
942.461	-0.62
943.191	0.38
943.922	0.38
944.652	1.38
945.382	-1.62
946.112	0.38
946.841	0.38
947.571	1.38
948.301	-1.62
949.031	1.38
949.76	2.38
950.49	1.38
951.219	1.38
951.948	-0.62
952.678	-1.62
953.407	1.38
954.136	-1.62
954.865	2.38
955.594	0.38
956.323	-0.62
957.052	0.38
957.78	-0.62
958.509	2.38
959.238	1.38
959.966	1.38
960.695	-0.62
961.423	1.38
962.151	1.38
962.88	0.38
963.608	2.38
964.336	-1.62
965.064	-1.62
965.792	-0.62
966.52	1.38
967.247	1.38
967.975	0.38
968.703	2.38
969.43	-0.62
970.158	-1.62
970.885	0.38
971.613	0.38
972.34	1.38
973.067	0.38
973.794	1.38
974.521	-0.62
975.248	-2.62
975.975	2.38
976.702	-0.62
977.429	1.38
978.156	0.38
978.882	0.38
979.609	-1.62
980.335	1.38
981.062	-0.62
981.788	0.38
982.514	2.38
983.24	0.38
983.967	0.38
984.693	0.38
985.419	0.38
986.144	2.38
986.87	-2.62
987.596	-1.62
988.322	-1.62
989.047	1.38
989.773	0.38
990.498	0.38
991.224	-1.62
991.949	0.38
992.674	-0.62
993.399	0.38
994.124	0.38
994.849	0.38
995.574	-0.62
996.299	0.38
997.024	-1.62
997.749	0.38
998.473	-1.62
999.198	-1.62
999.922	2.38
1000.647	0.38
1001.371	2.38
1002.095	-1.62
1002.82	0.38
1003.544	0.38
1004.268	0.38
1004.992	-3.62
1005.716	0.38
1006.439	-0.62
1007.163	1.38
1007.887	0.38
1008.611	2.38
1009.334	-2.62
1010.058	1.38
1010.781	1.38
1011.504	1.38
1012.228	2.38
1012.951	-1.62
1013.674	2.38
1014.397	-1.62
1015.12	-0.62
