节点500_145_QEPB04081__134__11-31-04-612.txt的数据

Date: Wed Nov 12 11:31:04 CST 2025
User: PC
Spectrometer: QEPB0408
触发模式: 0
积分时间 (秒): 1.000000E-2
Scans to average: 1
启用暗噪声校正: true
启用非线性校正: false
滑动平均宽度: 0
X轴模式: Wavelengths
Number of Pixels in Spectrum: 1044
>>>>>Begin Spectral Data<<<<<
220.843	-0.25
221.644	-2.25
222.444	-2.25
223.244	-1.25
224.045	-2.25
224.845	-0.25
225.645	0.75
226.445	-2.25
227.245	-1.25
228.045	-0.25
228.845	0.75
229.645	1.75
230.444	1.75
231.244	-2.25
232.043	0.75
232.843	0.75
233.642	-1.25
234.442	0.75
235.241	-0.25
236.04	-0.25
236.839	-1.25
237.638	0.75
238.437	-1.25
239.236	-1.25
240.035	0.75
240.833	1.75
241.632	1.75
242.43	3.75
243.229	-0.25
244.027	2.75
244.826	0.75
245.624	0.75
246.422	0.75
247.22	3.75
248.018	-0.25
248.816	2.75
249.614	2.75
250.412	1.75
251.21	3.75
252.007	2.75
252.805	3.75
253.602	1.75
254.4	1.75
255.197	1.75
255.994	3.75
256.791	1.75
257.589	0.75
258.386	5.75
259.183	0.75
259.979	3.75
260.776	4.75
261.573	3.75
262.37	4.75
263.166	4.75
263.963	3.75
264.759	2.75
265.556	6.75
266.352	5.75
267.148	6.75
267.944	6.75
268.74	6.75
269.536	6.75
270.332	7.75
271.128	7.75
271.924	8.75
272.719	6.75
273.515	9.75
274.311	7.75
275.106	9.75
275.901	9.75
276.697	7.75
277.492	9.75
278.287	8.75
279.082	7.75
279.877	8.75
280.672	9.75
281.467	11.75
282.262	10.75
283.056	9.75
283.851	11.75
284.646	9.75
285.44	9.75
286.234	11.75
287.029	12.75
287.823	10.75
288.617	12.75
289.411	9.75
290.205	10.75
290.999	9.75
291.793	10.75
292.587	9.75
293.381	8.75
294.174	10.75
294.968	7.75
295.761	8.75
296.555	9.75
297.348	8.75
298.141	9.75
298.935	8.75
299.728	11.75
300.521	9.75
301.314	8.75
302.107	7.75
302.899	7.75
303.692	6.75
304.485	7.75
305.277	10.75
306.07	5.75
306.862	9.75
307.655	6.75
308.447	4.75
309.239	5.75
310.031	7.75
310.823	6.75
311.615	5.75
312.407	5.75
313.199	8.75
313.991	7.75
314.783	6.75
315.574	4.75
316.366	6.75
317.157	3.75
317.949	3.75
318.74	4.75
319.531	3.75
320.322	4.75
321.113	4.75
321.904	4.75
322.695	3.75
323.486	3.75
324.277	6.75
325.068	3.75
325.858	2.75
326.649	3.75
327.439	5.75
328.23	2.75
329.02	1.75
329.81	4.75
330.6	-1.25
331.391	0.75
332.181	4.75
332.971	2.75
333.76	2.75
334.55	3.75
335.34	4.75
336.13	3.75
336.919	5.75
337.709	2.75
338.498	2.75
339.287	4.75
340.077	1.75
340.866	5.75
341.655	5.75
342.444	3.75
343.233	2.75
344.022	2.75
344.811	4.75
345.6	2.75
346.388	4.75
347.177	3.75
347.965	4.75
348.754	4.75
349.542	2.75
350.33	3.75
351.119	1.75
351.907	3.75
352.695	3.75
353.483	4.75
354.271	1.75
355.059	4.75
355.846	3.75
356.634	1.75
357.422	3.75
358.209	2.75
358.997	2.75
359.784	4.75
360.571	1.75
361.359	3.75
362.146	2.75
362.933	2.75
363.72	2.75
364.507	1.75
365.294	0.75
366.081	1.75
366.867	1.75
367.654	2.75
368.44	1.75
369.227	2.75
370.013	4.75
370.8	1.75
371.586	-0.25
372.372	0.75
373.158	1.75
373.944	2.75
374.73	0.75
375.516	2.75
376.302	1.75
377.088	0.75
377.873	1.75
378.659	2.75
379.445	3.75
380.23	1.75
381.015	-1.25
381.801	2.75
382.586	2.75
383.371	2.75
384.156	2.75
384.941	-0.25
385.726	1.75
386.511	-0.25
387.296	4.75
388.08	2.75
388.865	4.75
389.649	2.75
390.434	1.75
391.218	1.75
392.003	5.75
392.787	0.75
393.571	1.75
394.355	4.75
395.139	1.75
395.923	1.75
396.707	1.75
397.491	4.75
398.274	6.75
399.058	2.75
399.842	3.75
400.625	1.75
401.408	3.75
402.192	3.75
402.975	2.75
403.758	5.75
404.541	4.75
405.324	3.75
406.107	1.75
406.89	4.75
407.673	2.75
408.456	4.75
409.238	3.75
410.021	4.75
410.803	4.75
411.586	5.75
412.368	3.75
413.151	4.75
413.933	3.75
414.715	3.75
415.497	4.75
416.279	3.75
417.061	4.75
417.843	2.75
418.624	6.75
419.406	5.75
420.188	6.75
420.969	5.75
421.751	5.75
422.532	7.75
423.313	3.75
424.095	4.75
424.876	5.75
425.657	5.75
426.438	3.75
427.219	6.75
428	6.75
428.78	5.75
429.561	5.75
430.342	6.75
431.122	8.75
431.903	5.75
432.683	6.75
433.464	6.75
434.244	8.75
435.024	7.75
435.804	7.75
436.584	8.75
437.364	9.75
438.144	9.75
438.924	9.75
439.704	9.75
440.483	12.75
441.263	11.75
442.042	10.75
442.822	11.75
443.601	13.75
444.38	13.75
445.16	15.75
445.939	14.75
446.718	19.75
447.497	18.75
448.276	19.75
449.054	21.75
449.833	24.75
450.612	22.75
451.391	25.75
452.169	26.75
452.948	32.75
453.726	32.75
454.504	36.75
455.282	38.75
456.061	41.75
456.839	42.75
457.617	51.75
458.395	54.75
459.172	61.75
459.95	70.75
460.728	77.75
461.506	83.75
462.283	92.75
463.061	105.75
463.838	116.75
464.615	130.75
465.393	142.75
466.17	162.75
466.947	184.75
467.724	200.75
468.501	224.75
469.278	249.75
470.055	279.75
470.831	316.75
471.608	354.75
472.385	397.75
473.161	434.75
473.938	498.75
474.714	551.75
475.49	609.75
476.266	679.75
477.043	766.75
477.819	831.75
478.595	926.75
479.371	1036.75
480.146	1144.75
480.922	1253.75
481.698	1392.75
482.473	1543.75
483.249	1724.75
484.024	1906.75
484.8	2113.75
485.575	2326.75
486.35	2577.75
487.126	2863.75
487.901	3172.75
488.676	3480.75
489.451	3863.75
490.225	4249.75
491	4710.75
491.775	5177.75
492.55	5703.75
493.324	6284.75
494.099	6859.75
494.873	7517.75
495.647	8217.75
496.422	8953.75
497.196	9682.75
497.97	10455.75
498.744	11216.75
499.518	12050.75
500.292	12843.75
501.066	13631.75
501.839	14318.75
502.613	15017.75
503.387	15637.75
504.16	16152.75
504.934	16613.75
505.707	16931.75
506.48	17103.75
507.253	17233.75
508.027	17238.75
508.8	17117.75
509.573	16867.75
510.346	16494.75
511.118	16114.75
511.891	15539.75
512.664	15009.75
513.437	14461.75
514.209	13878.75
514.982	13276.75
515.754	12709.75
516.526	12087.75
517.298	11581.75
518.071	11040.75
518.843	10561.75
519.615	10082.75
520.387	9664.75
521.159	9296.75
521.93	8896.75
522.702	8556.75
523.474	8244.75
524.245	7950.75
525.017	7592.75
525.788	7274.75
526.56	6976.75
527.331	6681.75
528.102	6392.75
528.873	6134.75
529.644	5818.75
530.415	5539.75
531.186	5261.75
531.957	4997.75
532.728	4737.75
533.498	4492.75
534.269	4220.75
535.039	3986.75
535.81	3781.75
536.58	3536.75
537.351	3344.75
538.121	3156.75
538.891	2984.75
539.661	2821.75
540.431	2671.75
541.201	2528.75
541.971	2388.75
542.741	2295.75
543.51	2141.75
544.28	2048.75
545.05	1944.75
545.819	1837.75
546.588	1759.75
547.358	1664.75
548.127	1589.75
548.896	1497.75
549.665	1430.75
550.434	1360.75
551.203	1283.75
551.972	1202.75
552.741	1163.75
553.51	1082.75
554.278	1019.75
555.047	965.75
555.815	905.75
556.584	864.75
557.352	810.75
558.121	772.75
558.889	723.75
559.657	675.75
560.425	641.75
561.193	596.75
561.961	565.75
562.729	531.75
563.496	503.75
564.264	478.75
565.032	448.75
565.799	418.75
566.567	402.75
567.334	371.75
568.101	358.75
568.869	341.75
569.636	316.75
570.403	296.75
571.17	284.75
571.937	276.75
572.704	249.75
573.471	237.75
574.237	225.75
575.004	217.75
575.771	202.75
576.537	186.75
577.303	173.75
578.07	163.75
578.836	157.75
579.602	148.75
580.368	141.75
581.134	131.75
581.9	122.75
582.666	115.75
583.432	107.75
584.198	107.75
584.964	98.75
585.729	94.75
586.495	91.75
587.26	86.75
588.025	79.75
588.791	74.75
589.556	66.75
590.321	67.75
591.086	66.75
591.851	61.75
592.616	58.75
593.381	52.75
594.146	50.75
594.911	48.75
595.675	45.75
596.44	45.75
597.204	41.75
597.969	42.75
598.733	38.75
599.497	36.75
600.261	36.75
601.025	35.75
601.79	31.75
602.553	29.75
603.317	25.75
604.081	30.75
604.845	25.75
605.609	27.75
606.372	25.75
607.136	24.75
607.899	23.75
608.662	20.75
609.426	19.75
610.189	20.75
610.952	17.75
611.715	20.75
612.478	19.75
613.241	17.75
614.004	13.75
614.767	16.75
615.529	15.75
616.292	13.75
617.055	12.75
617.817	12.75
618.579	11.75
619.342	11.75
620.104	13.75
620.866	7.75
621.628	12.75
622.39	10.75
623.152	8.75
623.914	8.75
624.676	9.75
625.438	10.75
626.199	8.75
626.961	9.75
627.722	8.75
628.484	6.75
629.245	6.75
630.006	6.75
630.768	6.75
631.529	8.75
632.29	7.75
633.051	6.75
633.812	5.75
634.573	5.75
635.333	6.75
636.094	6.75
636.855	4.75
637.615	4.75
638.376	6.75
639.136	2.75
639.896	6.75
640.657	4.75
641.417	4.75
642.177	5.75
642.937	3.75
643.697	3.75
644.457	4.75
645.216	3.75
645.976	6.75
646.736	5.75
647.495	4.75
648.255	3.75
649.014	3.75
649.774	2.75
650.533	4.75
651.292	3.75
652.051	1.75
652.81	4.75
653.569	1.75
654.328	3.75
655.087	3.75
655.846	4.75
656.604	4.75
657.363	2.75
658.121	1.75
658.88	3.75
659.638	2.75
660.397	1.75
661.155	0.75
661.913	3.75
662.671	1.75
663.429	4.75
664.187	1.75
664.945	0.75
665.703	1.75
666.46	2.75
667.218	2.75
667.976	3.75
668.733	2.75
669.49	1.75
670.248	1.75
671.005	1.75
671.762	1.75
672.519	2.75
673.276	0.75
674.033	2.75
674.79	0.75
675.547	1.75
676.304	4.75
677.06	1.75
677.817	2.75
678.574	2.75
679.33	0.75
680.086	0.75
680.843	2.75
681.599	1.75
682.355	1.75
683.111	-0.25
683.867	0.75
684.623	1.75
685.379	1.75
686.135	0.75
686.89	0.75
687.646	5.75
688.402	1.75
689.157	-0.25
689.912	1.75
690.668	1.75
691.423	-1.25
692.178	3.75
692.933	1.75
693.688	-1.25
694.443	-0.25
695.198	1.75
695.953	2.75
696.708	0.75
697.462	1.75
698.217	1.75
698.972	1.75
699.726	-1.25
700.48	-0.25
701.235	3.75
701.989	2.75
702.743	1.75
703.497	0.75
704.251	1.75
705.005	-0.25
705.759	1.75
706.513	1.75
707.266	-0.25
708.02	2.75
708.774	1.75
709.527	3.75
710.28	1.75
711.034	0.75
711.787	-0.25
712.54	0.75
713.293	0.75
714.046	-0.25
714.799	1.75
715.552	1.75
716.305	4.75
717.058	2.75
717.81	0.75
718.563	3.75
719.315	1.75
720.068	1.75
720.82	1.75
721.573	0.75
722.325	2.75
723.077	1.75
723.829	1.75
724.581	1.75
725.333	2.75
726.085	1.75
726.836	0.75
727.588	4.75
728.34	0.75
729.091	1.75
729.843	1.75
730.594	2.75
731.346	3.75
732.097	2.75
732.848	2.75
733.599	0.75
734.35	0.75
735.101	1.75
735.852	2.75
736.603	0.75
737.354	4.75
738.104	1.75
738.855	1.75
739.605	3.75
740.356	0.75
741.106	1.75
741.856	3.75
742.607	2.75
743.357	0.75
744.107	1.75
744.857	1.75
745.607	3.75
746.357	1.75
747.106	0.75
747.856	2.75
748.606	2.75
749.355	2.75
750.105	1.75
750.854	2.75
751.603	0.75
752.353	2.75
753.102	1.75
753.851	1.75
754.6	2.75
755.349	3.75
756.098	1.75
756.847	3.75
757.595	4.75
758.344	0.75
759.093	4.75
759.841	2.75
760.589	2.75
761.338	2.75
762.086	2.75
762.834	1.75
763.582	4.75
764.331	3.75
765.079	2.75
765.826	3.75
766.574	4.75
767.322	3.75
768.07	3.75
768.817	4.75
769.565	1.75
770.312	3.75
771.06	4.75
771.807	4.75
772.554	6.75
773.302	4.75
774.049	3.75
774.796	2.75
775.543	4.75
776.29	6.75
777.036	4.75
777.783	6.75
778.53	3.75
779.276	5.75
780.023	7.75
780.769	5.75
781.516	3.75
782.262	4.75
783.008	3.75
783.754	4.75
784.5	2.75
785.246	5.75
785.992	4.75
786.738	5.75
787.484	3.75
788.23	5.75
788.975	5.75
789.721	1.75
790.466	6.75
791.212	4.75
791.957	2.75
792.702	4.75
793.447	1.75
794.193	4.75
794.938	4.75
795.683	4.75
796.427	5.75
797.172	6.75
797.917	5.75
798.662	4.75
799.406	3.75
800.151	3.75
800.895	3.75
801.64	5.75
802.384	2.75
803.128	3.75
803.872	2.75
804.616	6.75
805.36	3.75
806.104	4.75
806.848	4.75
807.592	3.75
808.336	5.75
809.079	3.75
809.823	3.75
810.566	4.75
811.31	2.75
812.053	4.75
812.796	2.75
813.539	1.75
814.283	1.75
815.026	3.75
815.769	2.75
816.511	4.75
817.254	0.75
817.997	5.75
818.74	1.75
819.482	3.75
820.225	3.75
820.967	1.75
821.71	1.75
822.452	4.75
823.194	2.75
823.936	2.75
824.678	0.75
825.42	3.75
826.162	1.75
826.904	1.75
827.646	1.75
828.388	1.75
829.129	4.75
829.871	0.75
830.612	0.75
831.354	1.75
832.095	0.75
832.836	1.75
833.577	2.75
834.319	1.75
835.06	1.75
835.801	1.75
836.542	0.75
837.282	1.75
838.023	2.75
838.764	2.75
839.504	2.75
840.245	1.75
840.985	0.75
841.726	1.75
842.466	2.75
843.206	2.75
843.946	0.75
844.687	1.75
845.427	2.75
846.166	4.75
846.906	2.75
847.646	2.75
848.386	2.75
849.125	-0.25
849.865	0.75
850.605	3.75
851.344	0.75
852.083	1.75
852.823	2.75
853.562	0.75
854.301	-0.25
855.04	3.75
855.779	-0.25
856.518	1.75
857.257	0.75
857.995	0.75
858.734	0.75
859.473	1.75
860.211	0.75
860.95	0.75
861.688	0.75
862.426	1.75
863.165	-2.25
863.903	0.75
864.641	-0.25
865.379	0.75
866.117	0.75
866.855	-0.25
867.593	-0.25
868.33	-0.25
869.068	-0.25
869.806	-0.25
870.543	-1.25
871.28	0.75
872.018	-1.25
872.755	0.75
873.492	0.75
874.229	1.75
874.967	-0.25
875.703	0.75
876.44	1.75
877.177	-0.25
877.914	-0.25
878.651	-2.25
879.387	1.75
880.124	-0.25
880.86	-1.25
881.597	0.75
882.333	-1.25
883.069	-0.25
883.806	0.75
884.542	-0.25
885.278	-1.25
886.014	-2.25
886.749	-0.25
887.485	-2.25
888.221	1.75
888.957	-0.25
889.692	1.75
890.428	-1.25
891.163	-0.25
891.899	2.75
892.634	-2.25
893.369	1.75
894.104	-2.25
894.839	0.75
895.574	-0.25
896.309	-0.25
897.044	-0.25
897.779	-0.25
898.514	1.75
899.248	0.75
899.983	2.75
900.717	2.75
901.452	0.75
902.186	-0.25
902.92	-1.25
903.654	-0.25
904.389	-0.25
905.123	0.75
905.857	0.75
906.59	-0.25
907.324	0.75
908.058	0.75
908.792	-0.25
909.525	0.75
910.259	0.75
910.992	-0.25
911.726	-0.25
912.459	0.75
913.192	-0.25
913.925	0.75
914.658	-1.25
915.391	-0.25
916.124	-0.25
916.857	0.75
917.59	-1.25
918.323	0.75
919.055	-1.25
919.788	-2.25
920.521	2.75
921.253	0.75
921.985	-2.25
922.718	-0.25
923.45	-0.25
924.182	0.75
924.914	0.75
925.646	-2.25
926.378	0.75
927.11	-0.25
927.841	1.75
928.573	-1.25
929.305	-1.25
930.036	0.75
930.768	0.75
931.499	0.75
932.23	-0.25
932.962	-0.25
933.693	-0.25
934.424	1.75
935.155	0.75
935.886	0.75
936.617	-2.25
937.348	0.75
938.078	-1.25
938.809	0.75
939.54	0.75
940.27	-2.25
941.001	-3.25
941.731	1.75
942.461	-2.25
943.191	0.75
943.922	-1.25
944.652	-1.25
945.382	2.75
946.112	-0.25
946.841	0.75
947.571	-1.25
948.301	0.75
949.031	1.75
949.76	-2.25
950.49	2.75
951.219	-1.25
951.948	-1.25
952.678	-2.25
953.407	-0.25
954.136	-0.25
954.865	-1.25
955.594	0.75
956.323	-0.25
957.052	-1.25
957.78	-0.25
958.509	2.75
959.238	-0.25
959.966	-0.25
960.695	-0.25
961.423	-2.25
962.151	-2.25
962.88	0.75
963.608	0.75
964.336	-1.25
965.064	1.75
965.792	-1.25
966.52	-2.25
967.247	1.75
967.975	-0.25
968.703	-2.25
969.43	-0.25
970.158	-1.25
970.885	0.75
971.613	-0.25
972.34	-0.25
973.067	1.75
973.794	0.75
974.521	-2.25
975.248	-1.25
975.975	0.75
976.702	1.75
977.429	1.75
978.156	-0.25
978.882	-2.25
979.609	-2.25
980.335	-1.25
981.062	1.75
981.788	-2.25
982.514	-0.25
983.24	1.75
983.967	-1.25
984.693	0.75
985.419	-0.25
986.144	0.75
986.87	-0.25
987.596	-0.25
988.322	-0.25
989.047	-1.25
989.773	0.75
990.498	-1.25
991.224	0.75
991.949	-0.25
992.674	1.75
993.399	-0.25
994.124	0.75
994.849	0.75
995.574	-0.25
996.299	-1.25
997.024	-0.25
997.749	0.75
998.473	0.75
999.198	-0.25
999.922	-0.25
1000.647	-0.25
1001.371	1.75
1002.095	-2.25
1002.82	0.75
1003.544	-0.25
1004.268	-1.25
1004.992	-2.25
1005.716	0.75
1006.439	-4.25
1007.163	-3.25
1007.887	0.75
1008.611	-0.25
1009.334	1.75
1010.058	0.75
1010.781	-2.25
1011.504	-1.25
1012.228	-0.25
1012.951	-1.25
1013.674	-0.25
1014.397	0.75
1015.12	0.75
