节点500_145_QEPB04081__451__11-36-09-561.txt的数据

Date: Wed Nov 12 11:36:09 CST 2025
User: PC
Spectrometer: QEPB0408
触发模式: 0
积分时间 (秒): 1.000000E-2
Scans to average: 1
启用暗噪声校正: true
启用非线性校正: false
滑动平均宽度: 0
X轴模式: Wavelengths
Number of Pixels in Spectrum: 1044
>>>>>Begin Spectral Data<<<<<
220.843	1.5
221.644	-0.5
222.444	-0.5
223.244	0.5
224.045	-1.5
224.845	1.5
225.645	0.5
226.445	1.5
227.245	0.5
228.045	-0.5
228.845	0.5
229.645	1.5
230.444	2.5
231.244	-0.5
232.043	1.5
232.843	1.5
233.642	2.5
234.442	1.5
235.241	0.5
236.04	0.5
236.839	0.5
237.638	1.5
238.437	2.5
239.236	2.5
240.035	1.5
240.833	0.5
241.632	0.5
242.43	-0.5
243.229	1.5
244.027	1.5
244.826	-0.5
245.624	1.5
246.422	1.5
247.22	2.5
248.018	4.5
248.816	2.5
249.614	1.5
250.412	1.5
251.21	3.5
252.007	1.5
252.805	3.5
253.602	-0.5
254.4	3.5
255.197	2.5
255.994	1.5
256.791	3.5
257.589	5.5
258.386	4.5
259.183	5.5
259.979	7.5
260.776	3.5
261.573	5.5
262.37	2.5
263.166	4.5
263.963	8.5
264.759	2.5
265.556	3.5
266.352	5.5
267.148	4.5
267.944	4.5
268.74	7.5
269.536	6.5
270.332	6.5
271.128	8.5
271.924	5.5
272.719	10.5
273.515	8.5
274.311	5.5
275.106	6.5
275.901	7.5
276.697	8.5
277.492	6.5
278.287	9.5
279.082	7.5
279.877	9.5
280.672	10.5
281.467	7.5
282.262	10.5
283.056	10.5
283.851	12.5
284.646	10.5
285.44	8.5
286.234	12.5
287.029	8.5
287.823	12.5
288.617	10.5
289.411	10.5
290.205	8.5
290.999	9.5
291.793	11.5
292.587	10.5
293.381	9.5
294.174	11.5
294.968	8.5
295.761	10.5
296.555	5.5
297.348	8.5
298.141	9.5
298.935	11.5
299.728	10.5
300.521	9.5
301.314	10.5
302.107	11.5
302.899	9.5
303.692	8.5
304.485	8.5
305.277	8.5
306.07	9.5
306.862	7.5
307.655	6.5
308.447	9.5
309.239	7.5
310.031	6.5
310.823	6.5
311.615	5.5
312.407	4.5
313.199	5.5
313.991	6.5
314.783	5.5
315.574	6.5
316.366	4.5
317.157	8.5
317.949	5.5
318.74	5.5
319.531	7.5
320.322	4.5
321.113	5.5
321.904	5.5
322.695	4.5
323.486	2.5
324.277	3.5
325.068	5.5
325.858	5.5
326.649	2.5
327.439	4.5
328.23	3.5
329.02	4.5
329.81	3.5
330.6	2.5
331.391	2.5
332.181	4.5
332.971	2.5
333.76	3.5
334.55	4.5
335.34	3.5
336.13	5.5
336.919	4.5
337.709	2.5
338.498	1.5
339.287	1.5
340.077	3.5
340.866	2.5
341.655	2.5
342.444	4.5
343.233	0.5
344.022	4.5
344.811	1.5
345.6	4.5
346.388	2.5
347.177	4.5
347.965	2.5
348.754	1.5
349.542	4.5
350.33	4.5
351.119	3.5
351.907	4.5
352.695	4.5
353.483	4.5
354.271	4.5
355.059	1.5
355.846	0.5
356.634	3.5
357.422	1.5
358.209	1.5
358.997	2.5
359.784	2.5
360.571	3.5
361.359	1.5
362.146	4.5
362.933	3.5
363.72	2.5
364.507	1.5
365.294	4.5
366.081	5.5
366.867	2.5
367.654	1.5
368.44	3.5
369.227	1.5
370.013	3.5
370.8	2.5
371.586	3.5
372.372	5.5
373.158	3.5
373.944	3.5
374.73	2.5
375.516	2.5
376.302	4.5
377.088	1.5
377.873	3.5
378.659	0.5
379.445	1.5
380.23	1.5
381.015	2.5
381.801	0.5
382.586	3.5
383.371	3.5
384.156	5.5
384.941	3.5
385.726	1.5
386.511	0.5
387.296	1.5
388.08	5.5
388.865	3.5
389.649	1.5
390.434	3.5
391.218	1.5
392.003	4.5
392.787	1.5
393.571	3.5
394.355	3.5
395.139	2.5
395.923	2.5
396.707	1.5
397.491	0.5
398.274	2.5
399.058	2.5
399.842	3.5
400.625	4.5
401.408	2.5
402.192	2.5
402.975	6.5
403.758	3.5
404.541	4.5
405.324	4.5
406.107	3.5
406.89	3.5
407.673	3.5
408.456	5.5
409.238	4.5
410.021	6.5
410.803	4.5
411.586	4.5
412.368	4.5
413.151	3.5
413.933	4.5
414.715	4.5
415.497	4.5
416.279	4.5
417.061	5.5
417.843	5.5
418.624	5.5
419.406	4.5
420.188	5.5
420.969	5.5
421.751	6.5
422.532	4.5
423.313	7.5
424.095	4.5
424.876	7.5
425.657	4.5
426.438	7.5
427.219	7.5
428	8.5
428.78	4.5
429.561	8.5
430.342	7.5
431.122	6.5
431.903	7.5
432.683	9.5
433.464	9.5
434.244	12.5
435.024	10.5
435.804	12.5
436.584	9.5
437.364	9.5
438.144	10.5
438.924	8.5
439.704	9.5
440.483	11.5
441.263	14.5
442.042	13.5
442.822	14.5
443.601	15.5
444.38	14.5
445.16	16.5
445.939	16.5
446.718	19.5
447.497	18.5
448.276	22.5
449.054	21.5
449.833	22.5
450.612	25.5
451.391	25.5
452.169	30.5
452.948	33.5
453.726	37.5
454.504	42.5
455.282	42.5
456.061	47.5
456.839	51.5
457.617	57.5
458.395	63.5
459.172	72.5
459.95	77.5
460.728	85.5
461.506	96.5
462.283	110.5
463.061	116.5
463.838	130.5
464.615	150.5
465.393	165.5
466.17	185.5
466.947	206.5
467.724	230.5
468.501	254.5
469.278	278.5
470.055	317.5
470.831	351.5
471.608	381.5
472.385	432.5
473.161	460.5
473.938	527.5
474.714	578.5
475.49	647.5
476.266	707.5
477.043	783.5
477.819	864.5
478.595	941.5
479.371	1056.5
480.146	1163.5
480.922	1283.5
481.698	1414.5
482.473	1548.5
483.249	1696.5
484.024	1870.5
484.8	2046.5
485.575	2250.5
486.35	2448.5
487.126	2713.5
487.901	2979.5
488.676	3267.5
489.451	3537.5
490.225	3932.5
491	4293.5
491.775	4687.5
492.55	5125.5
493.324	5603.5
494.099	6122.5
494.873	6649.5
495.647	7264.5
496.422	7840.5
497.196	8523.5
497.97	9161.5
498.744	9838.5
499.518	10522.5
500.292	11270.5
501.066	11956.5
501.839	12649.5
502.613	13241.5
503.387	13840.5
504.16	14419.5
504.934	14878.5
505.707	15265.5
506.48	15549.5
507.253	15769.5
508.027	15914.5
508.8	15917.5
509.573	15880.5
510.346	15696.5
511.118	15460.5
511.891	15115.5
512.664	14687.5
513.437	14286.5
514.209	13800.5
514.982	13328.5
515.754	12746.5
516.526	12287.5
517.298	11749.5
518.071	11198.5
518.843	10722.5
519.615	10313.5
520.387	9867.5
521.159	9474.5
521.93	9048.5
522.702	8729.5
523.474	8403.5
524.245	8035.5
525.017	7769.5
525.788	7415.5
526.56	7134.5
527.331	6839.5
528.102	6537.5
528.873	6284.5
529.644	5944.5
530.415	5726.5
531.186	5452.5
531.957	5191.5
532.728	4945.5
533.498	4666.5
534.269	4420.5
535.039	4186.5
535.81	3942.5
536.58	3735.5
537.351	3563.5
538.121	3359.5
538.891	3188.5
539.661	2993.5
540.431	2853.5
541.201	2687.5
541.971	2537.5
542.741	2423.5
543.51	2266.5
544.28	2157.5
545.05	2060.5
545.819	1948.5
546.588	1857.5
547.358	1767.5
548.127	1666.5
548.896	1598.5
549.665	1507.5
550.434	1440.5
551.203	1367.5
551.972	1292.5
552.741	1222.5
553.51	1170.5
554.278	1102.5
555.047	1035.5
555.815	975.5
556.584	927.5
557.352	874.5
558.121	823.5
558.889	774.5
559.657	738.5
560.425	681.5
561.193	655.5
561.961	629.5
562.729	575.5
563.496	549.5
564.264	510.5
565.032	493.5
565.799	456.5
566.567	438.5
567.334	414.5
568.101	383.5
568.869	378.5
569.636	355.5
570.403	331.5
571.17	309.5
571.937	289.5
572.704	271.5
573.471	265.5
574.237	237.5
575.004	229.5
575.771	218.5
576.537	201.5
577.303	195.5
578.07	177.5
578.836	172.5
579.602	160.5
580.368	147.5
581.134	142.5
581.9	137.5
582.666	126.5
583.432	122.5
584.198	117.5
584.964	108.5
585.729	102.5
586.495	96.5
587.26	92.5
588.025	83.5
588.791	82.5
589.556	77.5
590.321	76.5
591.086	68.5
591.851	61.5
592.616	61.5
593.381	56.5
594.146	56.5
594.911	53.5
595.675	50.5
596.44	52.5
597.204	44.5
597.969	44.5
598.733	43.5
599.497	36.5
600.261	37.5
601.025	35.5
601.79	36.5
602.553	33.5
603.317	31.5
604.081	30.5
604.845	28.5
605.609	28.5
606.372	25.5
607.136	24.5
607.899	25.5
608.662	22.5
609.426	21.5
610.189	23.5
610.952	21.5
611.715	21.5
612.478	19.5
613.241	17.5
614.004	17.5
614.767	17.5
615.529	16.5
616.292	17.5
617.055	13.5
617.817	12.5
618.579	13.5
619.342	13.5
620.104	14.5
620.866	13.5
621.628	10.5
622.39	11.5
623.152	11.5
623.914	11.5
624.676	11.5
625.438	11.5
626.199	8.5
626.961	10.5
627.722	8.5
628.484	8.5
629.245	8.5
630.006	8.5
630.768	7.5
631.529	8.5
632.29	6.5
633.051	8.5
633.812	7.5
634.573	9.5
635.333	4.5
636.094	8.5
636.855	6.5
637.615	6.5
638.376	6.5
639.136	7.5
639.896	5.5
640.657	3.5
641.417	3.5
642.177	5.5
642.937	6.5
643.697	6.5
644.457	5.5
645.216	8.5
645.976	5.5
646.736	4.5
647.495	5.5
648.255	4.5
649.014	5.5
649.774	5.5
650.533	5.5
651.292	3.5
652.051	3.5
652.81	4.5
653.569	1.5
654.328	1.5
655.087	2.5
655.846	4.5
656.604	5.5
657.363	2.5
658.121	4.5
658.88	5.5
659.638	2.5
660.397	2.5
661.155	2.5
661.913	4.5
662.671	3.5
663.429	2.5
664.187	2.5
664.945	2.5
665.703	-1.5
666.46	4.5
667.218	2.5
667.976	1.5
668.733	1.5
669.49	3.5
670.248	3.5
671.005	1.5
671.762	5.5
672.519	1.5
673.276	3.5
674.033	1.5
674.79	1.5
675.547	3.5
676.304	3.5
677.06	2.5
677.817	3.5
678.574	1.5
679.33	2.5
680.086	2.5
680.843	3.5
681.599	2.5
682.355	3.5
683.111	3.5
683.867	0.5
684.623	4.5
685.379	2.5
686.135	4.5
686.89	1.5
687.646	2.5
688.402	2.5
689.157	1.5
689.912	5.5
690.668	3.5
691.423	0.5
692.178	2.5
692.933	1.5
693.688	2.5
694.443	2.5
695.198	2.5
695.953	2.5
696.708	2.5
697.462	2.5
698.217	2.5
698.972	2.5
699.726	0.5
700.48	0.5
701.235	1.5
701.989	1.5
702.743	0.5
703.497	3.5
704.251	1.5
705.005	1.5
705.759	2.5
706.513	2.5
707.266	1.5
708.02	3.5
708.774	1.5
709.527	2.5
710.28	2.5
711.034	3.5
711.787	2.5
712.54	3.5
713.293	2.5
714.046	0.5
714.799	1.5
715.552	1.5
716.305	5.5
717.058	2.5
717.81	3.5
718.563	1.5
719.315	-0.5
720.068	1.5
720.82	2.5
721.573	4.5
722.325	3.5
723.077	1.5
723.829	1.5
724.581	2.5
725.333	2.5
726.085	2.5
726.836	1.5
727.588	0.5
728.34	2.5
729.091	0.5
729.843	1.5
730.594	2.5
731.346	-0.5
732.097	3.5
732.848	1.5
733.599	2.5
734.35	2.5
735.101	2.5
735.852	1.5
736.603	0.5
737.354	1.5
738.104	3.5
738.855	2.5
739.605	1.5
740.356	2.5
741.106	3.5
741.856	-0.5
742.607	2.5
743.357	1.5
744.107	1.5
744.857	4.5
745.607	0.5
746.357	3.5
747.106	1.5
747.856	0.5
748.606	1.5
749.355	3.5
750.105	3.5
750.854	1.5
751.603	3.5
752.353	0.5
753.102	2.5
753.851	4.5
754.6	2.5
755.349	5.5
756.098	1.5
756.847	2.5
757.595	3.5
758.344	3.5
759.093	1.5
759.841	5.5
760.589	0.5
761.338	4.5
762.086	2.5
762.834	3.5
763.582	3.5
764.331	3.5
765.079	4.5
765.826	2.5
766.574	3.5
767.322	3.5
768.07	3.5
768.817	2.5
769.565	2.5
770.312	3.5
771.06	2.5
771.807	2.5
772.554	3.5
773.302	5.5
774.049	4.5
774.796	4.5
775.543	3.5
776.29	3.5
777.036	3.5
777.783	5.5
778.53	4.5
779.276	5.5
780.023	6.5
780.769	5.5
781.516	5.5
782.262	2.5
783.008	3.5
783.754	5.5
784.5	3.5
785.246	5.5
785.992	4.5
786.738	5.5
787.484	3.5
788.23	5.5
788.975	5.5
789.721	6.5
790.466	7.5
791.212	5.5
791.957	2.5
792.702	3.5
793.447	6.5
794.193	5.5
794.938	7.5
795.683	5.5
796.427	5.5
797.172	4.5
797.917	4.5
798.662	7.5
799.406	2.5
800.151	4.5
800.895	5.5
801.64	2.5
802.384	6.5
803.128	3.5
803.872	2.5
804.616	4.5
805.36	5.5
806.104	3.5
806.848	2.5
807.592	5.5
808.336	2.5
809.079	3.5
809.823	3.5
810.566	2.5
811.31	3.5
812.053	2.5
812.796	5.5
813.539	2.5
814.283	1.5
815.026	5.5
815.769	3.5
816.511	4.5
817.254	3.5
817.997	3.5
818.74	0.5
819.482	1.5
820.225	2.5
820.967	6.5
821.71	2.5
822.452	2.5
823.194	2.5
823.936	1.5
824.678	1.5
825.42	2.5
826.162	1.5
826.904	3.5
827.646	2.5
828.388	5.5
829.129	1.5
829.871	2.5
830.612	2.5
831.354	3.5
832.095	3.5
832.836	1.5
833.577	2.5
834.319	0.5
835.06	1.5
835.801	2.5
836.542	2.5
837.282	2.5
838.023	1.5
838.764	4.5
839.504	0.5
840.245	4.5
840.985	1.5
841.726	3.5
842.466	1.5
843.206	2.5
843.946	1.5
844.687	3.5
845.427	1.5
846.166	3.5
846.906	0.5
847.646	4.5
848.386	1.5
849.125	1.5
849.865	0.5
850.605	2.5
851.344	3.5
852.083	0.5
852.823	0.5
853.562	1.5
854.301	1.5
855.04	1.5
855.779	0.5
856.518	1.5
857.257	-0.5
857.995	3.5
858.734	2.5
859.473	2.5
860.211	2.5
860.95	1.5
861.688	1.5
862.426	1.5
863.165	2.5
863.903	2.5
864.641	1.5
865.379	2.5
866.117	0.5
866.855	2.5
867.593	1.5
868.33	-1.5
869.068	1.5
869.806	1.5
870.543	1.5
871.28	2.5
872.018	0.5
872.755	1.5
873.492	0.5
874.229	2.5
874.967	0.5
875.703	1.5
876.44	1.5
877.177	-0.5
877.914	0.5
878.651	0.5
879.387	1.5
880.124	-0.5
880.86	1.5
881.597	0.5
882.333	2.5
883.069	1.5
883.806	1.5
884.542	-0.5
885.278	0.5
886.014	1.5
886.749	2.5
887.485	0.5
888.221	0.5
888.957	-1.5
889.692	-1.5
890.428	1.5
891.163	0.5
891.899	-0.5
892.634	2.5
893.369	1.5
894.104	0.5
894.839	1.5
895.574	0.5
896.309	1.5
897.044	1.5
897.779	1.5
898.514	1.5
899.248	0.5
899.983	0.5
900.717	0.5
901.452	1.5
902.186	0.5
902.92	0.5
903.654	1.5
904.389	-0.5
905.123	0.5
905.857	-0.5
906.59	1.5
907.324	1.5
908.058	0.5
908.792	0.5
909.525	1.5
910.259	1.5
910.992	-0.5
911.726	2.5
912.459	0.5
913.192	-2.5
913.925	2.5
914.658	-1.5
915.391	-2.5
916.124	3.5
916.857	-0.5
917.59	-0.5
918.323	0.5
919.055	0.5
919.788	0.5
920.521	-1.5
921.253	0.5
921.985	0.5
922.718	-1.5
923.45	1.5
924.182	-0.5
924.914	1.5
925.646	-0.5
926.378	-0.5
927.11	2.5
927.841	0.5
928.573	2.5
929.305	0.5
930.036	2.5
930.768	-1.5
931.499	-0.5
932.23	-0.5
932.962	1.5
933.693	-1.5
934.424	-1.5
935.155	1.5
935.886	0.5
936.617	1.5
937.348	1.5
938.078	0.5
938.809	2.5
939.54	-0.5
940.27	0.5
941.001	0.5
941.731	1.5
942.461	0.5
943.191	1.5
943.922	-0.5
944.652	-0.5
945.382	-0.5
946.112	0.5
946.841	0.5
947.571	1.5
948.301	0.5
949.031	0.5
949.76	-2.5
950.49	1.5
951.219	0.5
951.948	0.5
952.678	1.5
953.407	-0.5
954.136	-1.5
954.865	1.5
955.594	0.5
956.323	0.5
957.052	0.5
957.78	0.5
958.509	0.5
959.238	-1.5
959.966	0.5
960.695	1.5
961.423	-2.5
962.151	1.5
962.88	2.5
963.608	-0.5
964.336	0.5
965.064	0.5
965.792	-0.5
966.52	-1.5
967.247	1.5
967.975	0.5
968.703	0.5
969.43	0.5
970.158	0.5
970.885	1.5
971.613	-0.5
972.34	2.5
973.067	-1.5
973.794	-0.5
974.521	0.5
975.248	-1.5
975.975	1.5
976.702	0.5
977.429	2.5
978.156	-1.5
978.882	0.5
979.609	1.5
980.335	0.5
981.062	1.5
981.788	0.5
982.514	0.5
983.24	-1.5
983.967	-0.5
984.693	0.5
985.419	0.5
986.144	1.5
986.87	-1.5
987.596	0.5
988.322	-1.5
989.047	0.5
989.773	1.5
990.498	2.5
991.224	0.5
991.949	-0.5
992.674	0.5
993.399	1.5
994.124	0.5
994.849	0.5
995.574	1.5
996.299	-0.5
997.024	1.5
997.749	0.5
998.473	0.5
999.198	-1.5
999.922	1.5
1000.647	-1.5
1001.371	3.5
1002.095	1.5
1002.82	-1.5
1003.544	1.5
1004.268	-1.5
1004.992	1.5
1005.716	0.5
1006.439	-0.5
1007.163	0.5
1007.887	-1.5
1008.611	0.5
1009.334	2.5
1010.058	1.5
1010.781	0.5
1011.504	0.5
1012.228	1.5
1012.951	-1.5
1013.674	-2.5
1014.397	-0.5
1015.12	-0.5
