节点500_145_QEPB04081__480__11-36-36-529.txt的数据

Date: Wed Nov 12 11:36:36 CST 2025
User: PC
Spectrometer: QEPB0408
触发模式: 0
积分时间 (秒): 1.000000E-2
Scans to average: 1
启用暗噪声校正: true
启用非线性校正: false
滑动平均宽度: 0
X轴模式: Wavelengths
Number of Pixels in Spectrum: 1044
>>>>>Begin Spectral Data<<<<<
220.843	-0.88
221.644	-1.88
222.444	0.12
223.244	3.12
224.045	1.12
224.845	2.12
225.645	-0.88
226.445	1.12
227.245	0.12
228.045	-0.88
228.845	1.12
229.645	-0.88
230.444	1.12
231.244	-0.88
232.043	0.12
232.843	1.12
233.642	-0.88
234.442	1.12
235.241	-1.88
236.04	1.12
236.839	-0.88
237.638	3.12
238.437	3.12
239.236	1.12
240.035	1.12
240.833	-1.88
241.632	-0.88
242.43	0.12
243.229	3.12
244.027	2.12
244.826	1.12
245.624	1.12
246.422	1.12
247.22	1.12
248.018	3.12
248.816	2.12
249.614	1.12
250.412	1.12
251.21	0.12
252.007	1.12
252.805	3.12
253.602	2.12
254.4	2.12
255.197	2.12
255.994	3.12
256.791	5.12
257.589	3.12
258.386	2.12
259.183	5.12
259.979	5.12
260.776	4.12
261.573	3.12
262.37	5.12
263.166	3.12
263.963	6.12
264.759	5.12
265.556	5.12
266.352	6.12
267.148	5.12
267.944	5.12
268.74	2.12
269.536	4.12
270.332	7.12
271.128	6.12
271.924	6.12
272.719	5.12
273.515	7.12
274.311	7.12
275.106	10.12
275.901	9.12
276.697	7.12
277.492	7.12
278.287	9.12
279.082	8.12
279.877	9.12
280.672	9.12
281.467	8.12
282.262	6.12
283.056	7.12
283.851	9.12
284.646	10.12
285.44	8.12
286.234	9.12
287.029	11.12
287.823	9.12
288.617	9.12
289.411	6.12
290.205	9.12
290.999	8.12
291.793	9.12
292.587	8.12
293.381	7.12
294.174	9.12
294.968	8.12
295.761	8.12
296.555	9.12
297.348	9.12
298.141	9.12
298.935	8.12
299.728	9.12
300.521	9.12
301.314	7.12
302.107	8.12
302.899	7.12
303.692	6.12
304.485	7.12
305.277	8.12
306.07	6.12
306.862	9.12
307.655	7.12
308.447	9.12
309.239	8.12
310.031	5.12
310.823	7.12
311.615	5.12
312.407	7.12
313.199	5.12
313.991	6.12
314.783	7.12
315.574	7.12
316.366	5.12
317.157	5.12
317.949	5.12
318.74	3.12
319.531	5.12
320.322	6.12
321.113	3.12
321.904	3.12
322.695	6.12
323.486	5.12
324.277	3.12
325.068	2.12
325.858	2.12
326.649	3.12
327.439	4.12
328.23	2.12
329.02	5.12
329.81	3.12
330.6	2.12
331.391	5.12
332.181	4.12
332.971	1.12
333.76	2.12
334.55	2.12
335.34	6.12
336.13	5.12
336.919	4.12
337.709	3.12
338.498	5.12
339.287	3.12
340.077	3.12
340.866	3.12
341.655	2.12
342.444	6.12
343.233	3.12
344.022	3.12
344.811	3.12
345.6	3.12
346.388	2.12
347.177	-0.88
347.965	2.12
348.754	2.12
349.542	4.12
350.33	4.12
351.119	3.12
351.907	2.12
352.695	2.12
353.483	2.12
354.271	0.12
355.059	2.12
355.846	2.12
356.634	3.12
357.422	5.12
358.209	3.12
358.997	3.12
359.784	2.12
360.571	3.12
361.359	3.12
362.146	2.12
362.933	1.12
363.72	1.12
364.507	3.12
365.294	1.12
366.081	4.12
366.867	1.12
367.654	0.12
368.44	1.12
369.227	3.12
370.013	3.12
370.8	1.12
371.586	2.12
372.372	1.12
373.158	4.12
373.944	3.12
374.73	4.12
375.516	3.12
376.302	1.12
377.088	2.12
377.873	1.12
378.659	2.12
379.445	1.12
380.23	4.12
381.015	2.12
381.801	1.12
382.586	1.12
383.371	1.12
384.156	2.12
384.941	2.12
385.726	3.12
386.511	2.12
387.296	2.12
388.08	3.12
388.865	3.12
389.649	4.12
390.434	5.12
391.218	2.12
392.003	4.12
392.787	2.12
393.571	1.12
394.355	4.12
395.139	3.12
395.923	3.12
396.707	-0.88
397.491	3.12
398.274	2.12
399.058	4.12
399.842	3.12
400.625	3.12
401.408	2.12
402.192	5.12
402.975	4.12
403.758	3.12
404.541	6.12
405.324	3.12
406.107	3.12
406.89	3.12
407.673	3.12
408.456	3.12
409.238	5.12
410.021	4.12
410.803	3.12
411.586	2.12
412.368	5.12
413.151	4.12
413.933	5.12
414.715	2.12
415.497	5.12
416.279	3.12
417.061	4.12
417.843	3.12
418.624	3.12
419.406	5.12
420.188	3.12
420.969	5.12
421.751	5.12
422.532	5.12
423.313	5.12
424.095	3.12
424.876	7.12
425.657	4.12
426.438	5.12
427.219	5.12
428	5.12
428.78	5.12
429.561	5.12
430.342	5.12
431.122	7.12
431.903	4.12
432.683	5.12
433.464	6.12
434.244	8.12
435.024	9.12
435.804	9.12
436.584	10.12
437.364	8.12
438.144	7.12
438.924	9.12
439.704	9.12
440.483	11.12
441.263	13.12
442.042	11.12
442.822	11.12
443.601	12.12
444.38	11.12
445.16	15.12
445.939	18.12
446.718	14.12
447.497	17.12
448.276	20.12
449.054	21.12
449.833	23.12
450.612	26.12
451.391	24.12
452.169	29.12
452.948	27.12
453.726	35.12
454.504	38.12
455.282	39.12
456.061	44.12
456.839	48.12
457.617	54.12
458.395	61.12
459.172	63.12
459.95	72.12
460.728	81.12
461.506	93.12
462.283	100.12
463.061	114.12
463.838	130.12
464.615	138.12
465.393	156.12
466.17	174.12
466.947	190.12
467.724	212.12
468.501	235.12
469.278	264.12
470.055	297.12
470.831	321.12
471.608	366.12
472.385	395.12
473.161	437.12
473.938	490.12
474.714	544.12
475.49	601.12
476.266	655.12
477.043	734.12
477.819	808.12
478.595	882.12
479.371	986.12
480.146	1065.12
480.922	1187.12
481.698	1305.12
482.473	1424.12
483.249	1571.12
484.024	1732.12
484.8	1902.12
485.575	2075.12
486.35	2282.12
487.126	2516.12
487.901	2750.12
488.676	3019.12
489.451	3316.12
490.225	3631.12
491	3955.12
491.775	4329.12
492.55	4732.12
493.324	5157.12
494.099	5678.12
494.873	6183.12
495.647	6678.12
496.422	7264.12
497.196	7823.12
497.97	8423.12
498.744	9041.12
499.518	9753.12
500.292	10345.12
501.066	10999.12
501.839	11621.12
502.613	12212.12
503.387	12784.12
504.16	13278.12
504.934	13723.12
505.707	14061.12
506.48	14389.12
507.253	14527.12
508.027	14698.12
508.8	14722.12
509.573	14716.12
510.346	14559.12
511.118	14251.12
511.891	14009.12
512.664	13623.12
513.437	13202.12
514.209	12756.12
514.982	12307.12
515.754	11820.12
516.526	11342.12
517.298	10889.12
518.071	10366.12
518.843	9989.12
519.615	9545.12
520.387	9161.12
521.159	8754.12
521.93	8452.12
522.702	8106.12
523.474	7771.12
524.245	7465.12
525.017	7181.12
525.788	6875.12
526.56	6595.12
527.331	6311.12
528.102	6054.12
528.873	5776.12
529.644	5565.12
530.415	5303.12
531.186	5053.12
531.957	4831.12
532.728	4574.12
533.498	4352.12
534.269	4133.12
535.039	3893.12
535.81	3659.12
536.58	3498.12
537.351	3297.12
538.121	3114.12
538.891	2934.12
539.661	2770.12
540.431	2641.12
541.201	2503.12
541.971	2348.12
542.741	2235.12
543.51	2100.12
544.28	2008.12
545.05	1923.12
545.819	1799.12
546.588	1719.12
547.358	1644.12
548.127	1553.12
548.896	1474.12
549.665	1409.12
550.434	1340.12
551.203	1256.12
551.972	1202.12
552.741	1132.12
553.51	1075.12
554.278	1026.12
555.047	954.12
555.815	905.12
556.584	862.12
557.352	811.12
558.121	765.12
558.889	725.12
559.657	692.12
560.425	645.12
561.193	606.12
561.961	571.12
562.729	538.12
563.496	502.12
564.264	483.12
565.032	452.12
565.799	434.12
566.567	408.12
567.334	384.12
568.101	361.12
568.869	334.12
569.636	317.12
570.403	302.12
571.17	287.12
571.937	274.12
572.704	257.12
573.471	238.12
574.237	226.12
575.004	214.12
575.771	195.12
576.537	191.12
577.303	182.12
578.07	168.12
578.836	154.12
579.602	149.12
580.368	142.12
581.134	134.12
581.9	128.12
582.666	117.12
583.432	118.12
584.198	110.12
584.964	103.12
585.729	95.12
586.495	90.12
587.26	82.12
588.025	77.12
588.791	71.12
589.556	70.12
590.321	68.12
591.086	63.12
591.851	63.12
592.616	58.12
593.381	58.12
594.146	50.12
594.911	51.12
595.675	48.12
596.44	46.12
597.204	42.12
597.969	39.12
598.733	38.12
599.497	38.12
600.261	30.12
601.025	35.12
601.79	32.12
602.553	32.12
603.317	30.12
604.081	28.12
604.845	28.12
605.609	25.12
606.372	24.12
607.136	23.12
607.899	21.12
608.662	20.12
609.426	19.12
610.189	21.12
610.952	20.12
611.715	18.12
612.478	17.12
613.241	18.12
614.004	16.12
614.767	16.12
615.529	18.12
616.292	13.12
617.055	15.12
617.817	14.12
618.579	12.12
619.342	12.12
620.104	12.12
620.866	9.12
621.628	11.12
622.39	11.12
623.152	10.12
623.914	10.12
624.676	7.12
625.438	8.12
626.199	9.12
626.961	9.12
627.722	8.12
628.484	7.12
629.245	10.12
630.006	8.12
630.768	5.12
631.529	6.12
632.29	7.12
633.051	8.12
633.812	5.12
634.573	8.12
635.333	6.12
636.094	4.12
636.855	4.12
637.615	5.12
638.376	7.12
639.136	2.12
639.896	5.12
640.657	6.12
641.417	3.12
642.177	6.12
642.937	2.12
643.697	7.12
644.457	6.12
645.216	4.12
645.976	4.12
646.736	4.12
647.495	4.12
648.255	6.12
649.014	3.12
649.774	4.12
650.533	2.12
651.292	2.12
652.051	2.12
652.81	2.12
653.569	2.12
654.328	5.12
655.087	3.12
655.846	3.12
656.604	2.12
657.363	2.12
658.121	3.12
658.88	5.12
659.638	3.12
660.397	2.12
661.155	3.12
661.913	4.12
662.671	5.12
663.429	3.12
664.187	3.12
664.945	3.12
665.703	5.12
666.46	0.12
667.218	3.12
667.976	4.12
668.733	2.12
669.49	3.12
670.248	2.12
671.005	0.12
671.762	2.12
672.519	2.12
673.276	3.12
674.033	1.12
674.79	4.12
675.547	1.12
676.304	3.12
677.06	2.12
677.817	3.12
678.574	3.12
679.33	2.12
680.086	2.12
680.843	2.12
681.599	0.12
682.355	2.12
683.111	2.12
683.867	0.12
684.623	1.12
685.379	2.12
686.135	1.12
686.89	3.12
687.646	0.12
688.402	1.12
689.157	2.12
689.912	2.12
690.668	2.12
691.423	2.12
692.178	2.12
692.933	2.12
693.688	1.12
694.443	2.12
695.198	3.12
695.953	5.12
696.708	2.12
697.462	0.12
698.217	0.12
698.972	1.12
699.726	2.12
700.48	2.12
701.235	2.12
701.989	1.12
702.743	4.12
703.497	0.12
704.251	3.12
705.005	0.12
705.759	0.12
706.513	2.12
707.266	1.12
708.02	2.12
708.774	0.12
709.527	2.12
710.28	1.12
711.034	1.12
711.787	4.12
712.54	2.12
713.293	1.12
714.046	2.12
714.799	0.12
715.552	3.12
716.305	1.12
717.058	1.12
717.81	1.12
718.563	1.12
719.315	2.12
720.068	3.12
720.82	3.12
721.573	1.12
722.325	2.12
723.077	1.12
723.829	2.12
724.581	2.12
725.333	2.12
726.085	4.12
726.836	0.12
727.588	2.12
728.34	2.12
729.091	2.12
729.843	2.12
730.594	2.12
731.346	0.12
732.097	1.12
732.848	0.12
733.599	2.12
734.35	1.12
735.101	3.12
735.852	1.12
736.603	1.12
737.354	1.12
738.104	2.12
738.855	1.12
739.605	1.12
740.356	2.12
741.106	4.12
741.856	4.12
742.607	1.12
743.357	3.12
744.107	2.12
744.857	3.12
745.607	2.12
746.357	3.12
747.106	3.12
747.856	2.12
748.606	0.12
749.355	1.12
750.105	0.12
750.854	4.12
751.603	2.12
752.353	2.12
753.102	1.12
753.851	5.12
754.6	3.12
755.349	1.12
756.098	3.12
756.847	2.12
757.595	1.12
758.344	1.12
759.093	1.12
759.841	1.12
760.589	3.12
761.338	2.12
762.086	0.12
762.834	4.12
763.582	4.12
764.331	2.12
765.079	2.12
765.826	3.12
766.574	2.12
767.322	3.12
768.07	2.12
768.817	0.12
769.565	4.12
770.312	3.12
771.06	1.12
771.807	5.12
772.554	4.12
773.302	3.12
774.049	3.12
774.796	3.12
775.543	3.12
776.29	4.12
777.036	4.12
777.783	4.12
778.53	5.12
779.276	1.12
780.023	5.12
780.769	5.12
781.516	4.12
782.262	6.12
783.008	4.12
783.754	4.12
784.5	4.12
785.246	4.12
785.992	5.12
786.738	6.12
787.484	5.12
788.23	4.12
788.975	4.12
789.721	5.12
790.466	4.12
791.212	4.12
791.957	5.12
792.702	6.12
793.447	2.12
794.193	4.12
794.938	5.12
795.683	6.12
796.427	3.12
797.172	3.12
797.917	6.12
798.662	4.12
799.406	1.12
800.151	5.12
800.895	3.12
801.64	5.12
802.384	4.12
803.128	4.12
803.872	4.12
804.616	5.12
805.36	4.12
806.104	5.12
806.848	3.12
807.592	3.12
808.336	5.12
809.079	4.12
809.823	2.12
810.566	3.12
811.31	4.12
812.053	3.12
812.796	4.12
813.539	4.12
814.283	3.12
815.026	3.12
815.769	3.12
816.511	2.12
817.254	3.12
817.997	2.12
818.74	2.12
819.482	2.12
820.225	2.12
820.967	3.12
821.71	1.12
822.452	5.12
823.194	4.12
823.936	4.12
824.678	3.12
825.42	3.12
826.162	4.12
826.904	0.12
827.646	4.12
828.388	3.12
829.129	6.12
829.871	2.12
830.612	4.12
831.354	5.12
832.095	3.12
832.836	3.12
833.577	2.12
834.319	3.12
835.06	1.12
835.801	2.12
836.542	2.12
837.282	2.12
838.023	1.12
838.764	3.12
839.504	2.12
840.245	1.12
840.985	1.12
841.726	4.12
842.466	1.12
843.206	3.12
843.946	1.12
844.687	1.12
845.427	0.12
846.166	2.12
846.906	2.12
847.646	1.12
848.386	2.12
849.125	4.12
849.865	1.12
850.605	0.12
851.344	4.12
852.083	2.12
852.823	5.12
853.562	2.12
854.301	-0.88
855.04	1.12
855.779	1.12
856.518	0.12
857.257	1.12
857.995	0.12
858.734	0.12
859.473	0.12
860.211	2.12
860.95	1.12
861.688	3.12
862.426	1.12
863.165	2.12
863.903	3.12
864.641	-0.88
865.379	1.12
866.117	1.12
866.855	0.12
867.593	1.12
868.33	2.12
869.068	2.12
869.806	0.12
870.543	1.12
871.28	1.12
872.018	3.12
872.755	2.12
873.492	0.12
874.229	0.12
874.967	-0.88
875.703	2.12
876.44	-0.88
877.177	2.12
877.914	-0.88
878.651	0.12
879.387	2.12
880.124	1.12
880.86	2.12
881.597	0.12
882.333	0.12
883.069	0.12
883.806	1.12
884.542	1.12
885.278	1.12
886.014	1.12
886.749	-0.88
887.485	1.12
888.221	1.12
888.957	1.12
889.692	1.12
890.428	-0.88
891.163	2.12
891.899	-1.88
892.634	-1.88
893.369	0.12
894.104	2.12
894.839	-0.88
895.574	0.12
896.309	0.12
897.044	-0.88
897.779	3.12
898.514	0.12
899.248	0.12
899.983	0.12
900.717	0.12
901.452	-0.88
902.186	1.12
902.92	2.12
903.654	2.12
904.389	1.12
905.123	1.12
905.857	1.12
906.59	0.12
907.324	0.12
908.058	1.12
908.792	1.12
909.525	1.12
910.259	1.12
910.992	-1.88
911.726	2.12
912.459	1.12
913.192	-0.88
913.925	0.12
914.658	0.12
915.391	-0.88
916.124	-1.88
916.857	-1.88
917.59	-0.88
918.323	0.12
919.055	-0.88
919.788	-1.88
920.521	2.12
921.253	-0.88
921.985	-0.88
922.718	-0.88
923.45	0.12
924.182	-0.88
924.914	-0.88
925.646	0.12
926.378	-1.88
927.11	-0.88
927.841	1.12
928.573	1.12
929.305	2.12
930.036	0.12
930.768	1.12
931.499	2.12
932.23	1.12
932.962	0.12
933.693	1.12
934.424	0.12
935.155	-2.88
935.886	2.12
936.617	0.12
937.348	0.12
938.078	0.12
938.809	-1.88
939.54	-0.88
940.27	-2.88
941.001	1.12
941.731	0.12
942.461	0.12
943.191	1.12
943.922	0.12
944.652	-0.88
945.382	0.12
946.112	2.12
946.841	0.12
947.571	0.12
948.301	-1.88
949.031	-0.88
949.76	0.12
950.49	-0.88
951.219	1.12
951.948	0.12
952.678	1.12
953.407	1.12
954.136	-1.88
954.865	1.12
955.594	0.12
956.323	1.12
957.052	-0.88
957.78	1.12
958.509	-0.88
959.238	0.12
959.966	0.12
960.695	-1.88
961.423	1.12
962.151	-1.88
962.88	1.12
963.608	1.12
964.336	0.12
965.064	-0.88
965.792	0.12
966.52	1.12
967.247	1.12
967.975	-0.88
968.703	1.12
969.43	1.12
970.158	2.12
970.885	1.12
971.613	3.12
972.34	-0.88
973.067	0.12
973.794	1.12
974.521	1.12
975.248	0.12
975.975	-1.88
976.702	0.12
977.429	0.12
978.156	1.12
978.882	-0.88
979.609	0.12
980.335	0.12
981.062	0.12
981.788	1.12
982.514	0.12
983.24	-1.88
983.967	-1.88
984.693	0.12
985.419	-1.88
986.144	0.12
986.87	1.12
987.596	0.12
988.322	0.12
989.047	0.12
989.773	0.12
990.498	-1.88
991.224	4.12
991.949	-0.88
992.674	0.12
993.399	-0.88
994.124	0.12
994.849	-0.88
995.574	3.12
996.299	-1.88
997.024	1.12
997.749	0.12
998.473	0.12
999.198	-0.88
999.922	-0.88
1000.647	0.12
1001.371	3.12
1002.095	0.12
1002.82	-1.88
1003.544	-0.88
1004.268	0.12
1004.992	-1.88
1005.716	0.12
1006.439	-0.88
1007.163	3.12
1007.887	-0.88
1008.611	0.12
1009.334	0.12
1010.058	0.12
1010.781	1.12
1011.504	-0.88
1012.228	2.12
1012.951	0.12
1013.674	-0.88
1014.397	1.12
1015.12	-0.88
