节点500_145_QEPB04081__122__11-30-53-609.txt的数据

Date: Wed Nov 12 11:30:53 CST 2025
User: PC
Spectrometer: QEPB0408
触发模式: 0
积分时间 (秒): 1.000000E-2
Scans to average: 1
启用暗噪声校正: true
启用非线性校正: false
滑动平均宽度: 0
X轴模式: Wavelengths
Number of Pixels in Spectrum: 1044
>>>>>Begin Spectral Data<<<<<
220.843	-0.62
221.644	0.38
222.444	0.38
223.244	2.38
224.045	0.38
224.845	1.38
225.645	-0.62
226.445	-1.62
227.245	0.38
228.045	-1.62
228.845	2.38
229.645	0.38
230.444	1.38
231.244	-0.62
232.043	3.38
232.843	1.38
233.642	0.38
234.442	2.38
235.241	0.38
236.04	-0.62
236.839	3.38
237.638	1.38
238.437	3.38
239.236	-1.62
240.035	1.38
240.833	0.38
241.632	2.38
242.43	3.38
243.229	-0.62
244.027	1.38
244.826	3.38
245.624	0.38
246.422	3.38
247.22	2.38
248.018	2.38
248.816	-1.62
249.614	3.38
250.412	2.38
251.21	6.38
252.007	5.38
252.805	4.38
253.602	4.38
254.4	2.38
255.197	3.38
255.994	4.38
256.791	5.38
257.589	3.38
258.386	2.38
259.183	3.38
259.979	4.38
260.776	7.38
261.573	8.38
262.37	6.38
263.166	3.38
263.963	5.38
264.759	5.38
265.556	4.38
266.352	7.38
267.148	5.38
267.944	6.38
268.74	6.38
269.536	8.38
270.332	9.38
271.128	7.38
271.924	8.38
272.719	8.38
273.515	9.38
274.311	9.38
275.106	9.38
275.901	11.38
276.697	9.38
277.492	11.38
278.287	9.38
279.082	12.38
279.877	10.38
280.672	13.38
281.467	11.38
282.262	9.38
283.056	11.38
283.851	10.38
284.646	10.38
285.44	13.38
286.234	10.38
287.029	11.38
287.823	13.38
288.617	11.38
289.411	12.38
290.205	12.38
290.999	9.38
291.793	12.38
292.587	11.38
293.381	10.38
294.174	11.38
294.968	10.38
295.761	11.38
296.555	12.38
297.348	11.38
298.141	10.38
298.935	11.38
299.728	12.38
300.521	10.38
301.314	9.38
302.107	8.38
302.899	10.38
303.692	8.38
304.485	8.38
305.277	8.38
306.07	7.38
306.862	7.38
307.655	9.38
308.447	6.38
309.239	7.38
310.031	6.38
310.823	7.38
311.615	6.38
312.407	8.38
313.199	6.38
313.991	5.38
314.783	7.38
315.574	8.38
316.366	5.38
317.157	5.38
317.949	6.38
318.74	4.38
319.531	5.38
320.322	4.38
321.113	3.38
321.904	5.38
322.695	6.38
323.486	4.38
324.277	7.38
325.068	5.38
325.858	4.38
326.649	5.38
327.439	2.38
328.23	5.38
329.02	3.38
329.81	3.38
330.6	4.38
331.391	4.38
332.181	4.38
332.971	1.38
333.76	4.38
334.55	3.38
335.34	4.38
336.13	5.38
336.919	4.38
337.709	2.38
338.498	4.38
339.287	4.38
340.077	5.38
340.866	5.38
341.655	3.38
342.444	5.38
343.233	2.38
344.022	1.38
344.811	5.38
345.6	2.38
346.388	4.38
347.177	4.38
347.965	3.38
348.754	3.38
349.542	2.38
350.33	3.38
351.119	2.38
351.907	2.38
352.695	2.38
353.483	2.38
354.271	3.38
355.059	1.38
355.846	2.38
356.634	7.38
357.422	5.38
358.209	4.38
358.997	4.38
359.784	1.38
360.571	1.38
361.359	3.38
362.146	4.38
362.933	2.38
363.72	4.38
364.507	2.38
365.294	4.38
366.081	1.38
366.867	3.38
367.654	5.38
368.44	2.38
369.227	2.38
370.013	3.38
370.8	4.38
371.586	4.38
372.372	4.38
373.158	2.38
373.944	2.38
374.73	4.38
375.516	4.38
376.302	3.38
377.088	4.38
377.873	3.38
378.659	2.38
379.445	2.38
380.23	1.38
381.015	1.38
381.801	3.38
382.586	5.38
383.371	1.38
384.156	4.38
384.941	1.38
385.726	3.38
386.511	2.38
387.296	5.38
388.08	2.38
388.865	4.38
389.649	3.38
390.434	1.38
391.218	6.38
392.003	4.38
392.787	5.38
393.571	3.38
394.355	3.38
395.139	2.38
395.923	3.38
396.707	4.38
397.491	4.38
398.274	4.38
399.058	4.38
399.842	1.38
400.625	4.38
401.408	5.38
402.192	4.38
402.975	6.38
403.758	4.38
404.541	4.38
405.324	3.38
406.107	5.38
406.89	3.38
407.673	5.38
408.456	3.38
409.238	3.38
410.021	4.38
410.803	3.38
411.586	4.38
412.368	5.38
413.151	5.38
413.933	5.38
414.715	4.38
415.497	5.38
416.279	3.38
417.061	2.38
417.843	5.38
418.624	7.38
419.406	6.38
420.188	5.38
420.969	6.38
421.751	5.38
422.532	8.38
423.313	7.38
424.095	7.38
424.876	9.38
425.657	5.38
426.438	8.38
427.219	6.38
428	6.38
428.78	9.38
429.561	7.38
430.342	7.38
431.122	8.38
431.903	7.38
432.683	7.38
433.464	8.38
434.244	9.38
435.024	6.38
435.804	9.38
436.584	9.38
437.364	11.38
438.144	9.38
438.924	9.38
439.704	10.38
440.483	15.38
441.263	10.38
442.042	10.38
442.822	15.38
443.601	14.38
444.38	13.38
445.16	16.38
445.939	16.38
446.718	19.38
447.497	20.38
448.276	18.38
449.054	22.38
449.833	24.38
450.612	23.38
451.391	23.38
452.169	30.38
452.948	29.38
453.726	35.38
454.504	34.38
455.282	42.38
456.061	43.38
456.839	46.38
457.617	53.38
458.395	54.38
459.172	66.38
459.95	68.38
460.728	78.38
461.506	85.38
462.283	93.38
463.061	106.38
463.838	119.38
464.615	130.38
465.393	146.38
466.17	163.38
466.947	180.38
467.724	201.38
468.501	226.38
469.278	250.38
470.055	284.38
470.831	316.38
471.608	351.38
472.385	397.38
473.161	445.38
473.938	489.38
474.714	551.38
475.49	606.38
476.266	681.38
477.043	748.38
477.819	824.38
478.595	924.38
479.371	1022.38
480.146	1140.38
480.922	1262.38
481.698	1395.38
482.473	1548.38
483.249	1705.38
484.024	1882.38
484.8	2114.38
485.575	2316.38
486.35	2597.38
487.126	2854.38
487.901	3170.38
488.676	3497.38
489.451	3868.38
490.225	4285.38
491	4717.38
491.775	5182.38
492.55	5729.38
493.324	6283.38
494.099	6868.38
494.873	7558.38
495.647	8209.38
496.422	8962.38
497.196	9718.38
497.97	10517.38
498.744	11304.38
499.518	12137.38
500.292	12916.38
501.066	13694.38
501.839	14431.38
502.613	15051.38
503.387	15742.38
504.16	16250.38
504.934	16657.38
505.707	16968.38
506.48	17186.38
507.253	17269.38
508.027	17247.38
508.8	17102.38
509.573	16870.38
510.346	16524.38
511.118	16081.38
511.891	15559.38
512.664	15045.38
513.437	14511.38
514.209	13891.38
514.982	13306.38
515.754	12697.38
516.526	12096.38
517.298	11541.38
518.071	11060.38
518.843	10540.38
519.615	10067.38
520.387	9644.38
521.159	9296.38
521.93	8935.38
522.702	8578.38
523.474	8237.38
524.245	7900.38
525.017	7597.38
525.788	7288.38
526.56	6985.38
527.331	6696.38
528.102	6374.38
528.873	6087.38
529.644	5801.38
530.415	5538.38
531.186	5266.38
531.957	4981.38
532.728	4717.38
533.498	4459.38
534.269	4237.38
535.039	3977.38
535.81	3766.38
536.58	3523.38
537.351	3360.38
538.121	3162.38
538.891	2961.38
539.661	2822.38
540.431	2690.38
541.201	2515.38
541.971	2378.38
542.741	2254.38
543.51	2143.38
544.28	2033.38
545.05	1953.38
545.819	1856.38
546.588	1749.38
547.358	1674.38
548.127	1586.38
548.896	1493.38
549.665	1447.38
550.434	1361.38
551.203	1285.38
551.972	1227.38
552.741	1157.38
553.51	1083.38
554.278	1029.38
555.047	964.38
555.815	906.38
556.584	866.38
557.352	802.38
558.121	758.38
558.889	716.38
559.657	672.38
560.425	652.38
561.193	598.38
561.961	559.38
562.729	534.38
563.496	504.38
564.264	476.38
565.032	438.38
565.799	420.38
566.567	401.38
567.334	381.38
568.101	364.38
568.869	338.38
569.636	315.38
570.403	297.38
571.17	287.38
571.937	269.38
572.704	254.38
573.471	238.38
574.237	223.38
575.004	214.38
575.771	197.38
576.537	188.38
577.303	177.38
578.07	165.38
578.836	156.38
579.602	147.38
580.368	140.38
581.134	130.38
581.9	122.38
582.666	117.38
583.432	108.38
584.198	106.38
584.964	97.38
585.729	96.38
586.495	86.38
587.26	81.38
588.025	80.38
588.791	76.38
589.556	69.38
590.321	64.38
591.086	64.38
591.851	60.38
592.616	59.38
593.381	57.38
594.146	53.38
594.911	47.38
595.675	47.38
596.44	43.38
597.204	41.38
597.969	44.38
598.733	37.38
599.497	39.38
600.261	36.38
601.025	34.38
601.79	32.38
602.553	34.38
603.317	31.38
604.081	30.38
604.845	25.38
605.609	24.38
606.372	25.38
607.136	22.38
607.899	25.38
608.662	21.38
609.426	20.38
610.189	20.38
610.952	19.38
611.715	20.38
612.478	16.38
613.241	17.38
614.004	17.38
614.767	16.38
615.529	14.38
616.292	13.38
617.055	14.38
617.817	13.38
618.579	13.38
619.342	12.38
620.104	10.38
620.866	11.38
621.628	11.38
622.39	13.38
623.152	12.38
623.914	8.38
624.676	8.38
625.438	10.38
626.199	10.38
626.961	8.38
627.722	8.38
628.484	8.38
629.245	7.38
630.006	8.38
630.768	9.38
631.529	7.38
632.29	7.38
633.051	9.38
633.812	5.38
634.573	8.38
635.333	6.38
636.094	7.38
636.855	7.38
637.615	5.38
638.376	6.38
639.136	6.38
639.896	7.38
640.657	4.38
641.417	4.38
642.177	7.38
642.937	3.38
643.697	6.38
644.457	5.38
645.216	3.38
645.976	4.38
646.736	4.38
647.495	4.38
648.255	4.38
649.014	4.38
649.774	3.38
650.533	5.38
651.292	5.38
652.051	2.38
652.81	5.38
653.569	1.38
654.328	4.38
655.087	3.38
655.846	3.38
656.604	5.38
657.363	3.38
658.121	5.38
658.88	2.38
659.638	4.38
660.397	2.38
661.155	3.38
661.913	3.38
662.671	2.38
663.429	3.38
664.187	2.38
664.945	1.38
665.703	2.38
666.46	5.38
667.218	3.38
667.976	1.38
668.733	3.38
669.49	3.38
670.248	2.38
671.005	1.38
671.762	2.38
672.519	1.38
673.276	1.38
674.033	3.38
674.79	3.38
675.547	4.38
676.304	2.38
677.06	4.38
677.817	0.38
678.574	0.38
679.33	1.38
680.086	1.38
680.843	1.38
681.599	4.38
682.355	-0.62
683.111	2.38
683.867	2.38
684.623	2.38
685.379	1.38
686.135	2.38
686.89	2.38
687.646	3.38
688.402	1.38
689.157	2.38
689.912	2.38
690.668	1.38
691.423	3.38
692.178	4.38
692.933	3.38
693.688	3.38
694.443	1.38
695.198	3.38
695.953	2.38
696.708	1.38
697.462	4.38
698.217	2.38
698.972	2.38
699.726	0.38
700.48	0.38
701.235	3.38
701.989	2.38
702.743	3.38
703.497	3.38
704.251	2.38
705.005	3.38
705.759	2.38
706.513	2.38
707.266	3.38
708.02	1.38
708.774	2.38
709.527	2.38
710.28	2.38
711.034	1.38
711.787	4.38
712.54	0.38
713.293	1.38
714.046	-1.62
714.799	1.38
715.552	0.38
716.305	3.38
717.058	2.38
717.81	2.38
718.563	2.38
719.315	4.38
720.068	1.38
720.82	2.38
721.573	1.38
722.325	4.38
723.077	1.38
723.829	0.38
724.581	1.38
725.333	3.38
726.085	-0.62
726.836	2.38
727.588	1.38
728.34	0.38
729.091	1.38
729.843	2.38
730.594	0.38
731.346	2.38
732.097	2.38
732.848	3.38
733.599	3.38
734.35	2.38
735.101	3.38
735.852	2.38
736.603	3.38
737.354	0.38
738.104	4.38
738.855	1.38
739.605	3.38
740.356	3.38
741.106	2.38
741.856	4.38
742.607	5.38
743.357	2.38
744.107	2.38
744.857	5.38
745.607	2.38
746.357	2.38
747.106	2.38
747.856	0.38
748.606	3.38
749.355	4.38
750.105	2.38
750.854	4.38
751.603	3.38
752.353	4.38
753.102	1.38
753.851	2.38
754.6	4.38
755.349	3.38
756.098	2.38
756.847	2.38
757.595	3.38
758.344	5.38
759.093	2.38
759.841	3.38
760.589	2.38
761.338	5.38
762.086	5.38
762.834	2.38
763.582	3.38
764.331	3.38
765.079	2.38
765.826	5.38
766.574	3.38
767.322	3.38
768.07	5.38
768.817	5.38
769.565	5.38
770.312	7.38
771.06	6.38
771.807	5.38
772.554	4.38
773.302	4.38
774.049	6.38
774.796	4.38
775.543	5.38
776.29	6.38
777.036	7.38
777.783	3.38
778.53	4.38
779.276	4.38
780.023	6.38
780.769	5.38
781.516	5.38
782.262	5.38
783.008	4.38
783.754	6.38
784.5	6.38
785.246	5.38
785.992	5.38
786.738	5.38
787.484	5.38
788.23	4.38
788.975	3.38
789.721	5.38
790.466	5.38
791.212	5.38
791.957	4.38
792.702	6.38
793.447	5.38
794.193	5.38
794.938	6.38
795.683	4.38
796.427	6.38
797.172	2.38
797.917	2.38
798.662	4.38
799.406	5.38
800.151	5.38
800.895	1.38
801.64	7.38
802.384	6.38
803.128	5.38
803.872	3.38
804.616	2.38
805.36	4.38
806.104	3.38
806.848	5.38
807.592	2.38
808.336	5.38
809.079	0.38
809.823	3.38
810.566	3.38
811.31	3.38
812.053	1.38
812.796	4.38
813.539	5.38
814.283	4.38
815.026	3.38
815.769	4.38
816.511	3.38
817.254	4.38
817.997	2.38
818.74	5.38
819.482	4.38
820.225	2.38
820.967	1.38
821.71	4.38
822.452	3.38
823.194	2.38
823.936	3.38
824.678	3.38
825.42	4.38
826.162	2.38
826.904	4.38
827.646	2.38
828.388	2.38
829.129	2.38
829.871	4.38
830.612	2.38
831.354	2.38
832.095	5.38
832.836	4.38
833.577	0.38
834.319	0.38
835.06	1.38
835.801	2.38
836.542	1.38
837.282	2.38
838.023	3.38
838.764	0.38
839.504	2.38
840.245	2.38
840.985	3.38
841.726	2.38
842.466	1.38
843.206	4.38
843.946	2.38
844.687	3.38
845.427	1.38
846.166	3.38
846.906	3.38
847.646	2.38
848.386	2.38
849.125	2.38
849.865	3.38
850.605	0.38
851.344	1.38
852.083	3.38
852.823	2.38
853.562	3.38
854.301	4.38
855.04	0.38
855.779	1.38
856.518	0.38
857.257	3.38
857.995	0.38
858.734	3.38
859.473	3.38
860.211	0.38
860.95	4.38
861.688	1.38
862.426	4.38
863.165	1.38
863.903	1.38
864.641	0.38
865.379	1.38
866.117	3.38
866.855	4.38
867.593	1.38
868.33	-0.62
869.068	0.38
869.806	5.38
870.543	1.38
871.28	0.38
872.018	1.38
872.755	2.38
873.492	3.38
874.229	1.38
874.967	0.38
875.703	1.38
876.44	2.38
877.177	1.38
877.914	-0.62
878.651	0.38
879.387	-0.62
880.124	1.38
880.86	-0.62
881.597	1.38
882.333	0.38
883.069	1.38
883.806	0.38
884.542	1.38
885.278	0.38
886.014	2.38
886.749	0.38
887.485	2.38
888.221	1.38
888.957	0.38
889.692	1.38
890.428	1.38
891.163	2.38
891.899	2.38
892.634	2.38
893.369	0.38
894.104	-1.62
894.839	0.38
895.574	1.38
896.309	1.38
897.044	2.38
897.779	0.38
898.514	-0.62
899.248	1.38
899.983	1.38
900.717	-1.62
901.452	0.38
902.186	2.38
902.92	1.38
903.654	1.38
904.389	1.38
905.123	-1.62
905.857	1.38
906.59	-1.62
907.324	2.38
908.058	0.38
908.792	0.38
909.525	1.38
910.259	1.38
910.992	-1.62
911.726	-0.62
912.459	2.38
913.192	-0.62
913.925	2.38
914.658	2.38
915.391	0.38
916.124	-0.62
916.857	0.38
917.59	1.38
918.323	0.38
919.055	1.38
919.788	0.38
920.521	0.38
921.253	0.38
921.985	0.38
922.718	0.38
923.45	-1.62
924.182	0.38
924.914	0.38
925.646	1.38
926.378	-0.62
927.11	1.38
927.841	0.38
928.573	1.38
929.305	1.38
930.036	0.38
930.768	2.38
931.499	0.38
932.23	0.38
932.962	0.38
933.693	-0.62
934.424	-1.62
935.155	1.38
935.886	1.38
936.617	0.38
937.348	0.38
938.078	0.38
938.809	-1.62
939.54	-0.62
940.27	-0.62
941.001	0.38
941.731	2.38
942.461	0.38
943.191	1.38
943.922	0.38
944.652	0.38
945.382	0.38
946.112	1.38
946.841	1.38
947.571	0.38
948.301	2.38
949.031	0.38
949.76	0.38
950.49	2.38
951.219	-1.62
951.948	1.38
952.678	1.38
953.407	2.38
954.136	-0.62
954.865	-1.62
955.594	1.38
956.323	0.38
957.052	-0.62
957.78	-0.62
958.509	-0.62
959.238	1.38
959.966	-1.62
960.695	2.38
961.423	-0.62
962.151	-0.62
962.88	0.38
963.608	0.38
964.336	-0.62
965.064	0.38
965.792	1.38
966.52	2.38
967.247	-1.62
967.975	-1.62
968.703	1.38
969.43	3.38
970.158	0.38
970.885	0.38
971.613	1.38
972.34	-0.62
973.067	-0.62
973.794	-0.62
974.521	-0.62
975.248	-0.62
975.975	1.38
976.702	0.38
977.429	-1.62
978.156	1.38
978.882	-1.62
979.609	0.38
980.335	2.38
981.062	-0.62
981.788	-0.62
982.514	-0.62
983.24	2.38
983.967	0.38
984.693	1.38
985.419	1.38
986.144	-0.62
986.87	1.38
987.596	1.38
988.322	-0.62
989.047	1.38
989.773	1.38
990.498	1.38
991.224	-0.62
991.949	1.38
992.674	1.38
993.399	1.38
994.124	0.38
994.849	0.38
995.574	1.38
996.299	-1.62
997.024	1.38
997.749	-1.62
998.473	-0.62
999.198	-0.62
999.922	0.38
1000.647	0.38
1001.371	5.38
1002.095	-1.62
1002.82	-0.62
1003.544	-4.62
1004.268	-0.62
1004.992	-2.62
1005.716	0.38
1006.439	0.38
1007.163	0.38
1007.887	0.38
1008.611	1.38
1009.334	1.38
1010.058	-1.62
1010.781	0.38
1011.504	0.38
1012.228	1.38
1012.951	2.38
1013.674	-0.62
1014.397	1.38
1015.12	-1.62
