节点500_145_QEPB04081__333__11-34-15-559.txt的数据

Date: Wed Nov 12 11:34:15 CST 2025
User: PC
Spectrometer: QEPB0408
触发模式: 0
积分时间 (秒): 1.000000E-2
Scans to average: 1
启用暗噪声校正: true
启用非线性校正: false
滑动平均宽度: 0
X轴模式: Wavelengths
Number of Pixels in Spectrum: 1044
>>>>>Begin Spectral Data<<<<<
220.843	-0.62
221.644	-1.62
222.444	1.38
223.244	-1.62
224.045	-2.62
224.845	0.38
225.645	-2.62
226.445	0.38
227.245	0.38
228.045	-3.62
228.845	-2.62
229.645	-0.62
230.444	1.38
231.244	0.38
232.043	1.38
232.843	1.38
233.642	1.38
234.442	1.38
235.241	1.38
236.04	-0.62
236.839	0.38
237.638	-0.62
238.437	1.38
239.236	0.38
240.035	1.38
240.833	0.38
241.632	0.38
242.43	-0.62
243.229	0.38
244.027	0.38
244.826	0.38
245.624	2.38
246.422	0.38
247.22	1.38
248.018	0.38
248.816	2.38
249.614	2.38
250.412	1.38
251.21	0.38
252.007	1.38
252.805	3.38
253.602	2.38
254.4	2.38
255.197	2.38
255.994	-0.62
256.791	2.38
257.589	1.38
258.386	3.38
259.183	4.38
259.979	3.38
260.776	5.38
261.573	4.38
262.37	3.38
263.166	2.38
263.963	5.38
264.759	5.38
265.556	6.38
266.352	6.38
267.148	2.38
267.944	6.38
268.74	4.38
269.536	5.38
270.332	4.38
271.128	5.38
271.924	8.38
272.719	9.38
273.515	7.38
274.311	6.38
275.106	7.38
275.901	7.38
276.697	8.38
277.492	8.38
278.287	8.38
279.082	7.38
279.877	8.38
280.672	11.38
281.467	9.38
282.262	10.38
283.056	9.38
283.851	12.38
284.646	8.38
285.44	10.38
286.234	8.38
287.029	12.38
287.823	11.38
288.617	9.38
289.411	10.38
290.205	11.38
290.999	9.38
291.793	11.38
292.587	8.38
293.381	12.38
294.174	8.38
294.968	9.38
295.761	8.38
296.555	6.38
297.348	10.38
298.141	6.38
298.935	11.38
299.728	9.38
300.521	9.38
301.314	9.38
302.107	6.38
302.899	7.38
303.692	6.38
304.485	7.38
305.277	8.38
306.07	7.38
306.862	6.38
307.655	8.38
308.447	8.38
309.239	7.38
310.031	6.38
310.823	6.38
311.615	5.38
312.407	4.38
313.199	5.38
313.991	5.38
314.783	5.38
315.574	3.38
316.366	4.38
317.157	5.38
317.949	6.38
318.74	4.38
319.531	4.38
320.322	3.38
321.113	3.38
321.904	4.38
322.695	1.38
323.486	1.38
324.277	7.38
325.068	6.38
325.858	5.38
326.649	4.38
327.439	3.38
328.23	3.38
329.02	2.38
329.81	2.38
330.6	3.38
331.391	3.38
332.181	3.38
332.971	1.38
333.76	0.38
334.55	4.38
335.34	2.38
336.13	1.38
336.919	3.38
337.709	0.38
338.498	2.38
339.287	2.38
340.077	1.38
340.866	2.38
341.655	2.38
342.444	1.38
343.233	3.38
344.022	5.38
344.811	2.38
345.6	4.38
346.388	3.38
347.177	0.38
347.965	2.38
348.754	1.38
349.542	3.38
350.33	2.38
351.119	2.38
351.907	2.38
352.695	1.38
353.483	4.38
354.271	1.38
355.059	2.38
355.846	3.38
356.634	2.38
357.422	1.38
358.209	2.38
358.997	-0.62
359.784	2.38
360.571	2.38
361.359	2.38
362.146	2.38
362.933	-0.62
363.72	0.38
364.507	0.38
365.294	1.38
366.081	3.38
366.867	2.38
367.654	2.38
368.44	1.38
369.227	3.38
370.013	3.38
370.8	1.38
371.586	0.38
372.372	1.38
373.158	1.38
373.944	1.38
374.73	2.38
375.516	2.38
376.302	2.38
377.088	0.38
377.873	1.38
378.659	1.38
379.445	2.38
380.23	1.38
381.015	2.38
381.801	3.38
382.586	2.38
383.371	-0.62
384.156	0.38
384.941	0.38
385.726	2.38
386.511	2.38
387.296	0.38
388.08	1.38
388.865	4.38
389.649	2.38
390.434	2.38
391.218	2.38
392.003	2.38
392.787	0.38
393.571	2.38
394.355	2.38
395.139	1.38
395.923	1.38
396.707	1.38
397.491	1.38
398.274	2.38
399.058	6.38
399.842	0.38
400.625	5.38
401.408	2.38
402.192	4.38
402.975	1.38
403.758	2.38
404.541	5.38
405.324	4.38
406.107	4.38
406.89	2.38
407.673	4.38
408.456	4.38
409.238	2.38
410.021	4.38
410.803	4.38
411.586	4.38
412.368	5.38
413.151	5.38
413.933	6.38
414.715	2.38
415.497	2.38
416.279	2.38
417.061	2.38
417.843	5.38
418.624	4.38
419.406	5.38
420.188	5.38
420.969	3.38
421.751	7.38
422.532	3.38
423.313	5.38
424.095	3.38
424.876	5.38
425.657	4.38
426.438	6.38
427.219	7.38
428	3.38
428.78	7.38
429.561	5.38
430.342	7.38
431.122	6.38
431.903	7.38
432.683	4.38
433.464	7.38
434.244	6.38
435.024	7.38
435.804	9.38
436.584	8.38
437.364	8.38
438.144	7.38
438.924	5.38
439.704	10.38
440.483	11.38
441.263	11.38
442.042	11.38
442.822	13.38
443.601	13.38
444.38	16.38
445.16	16.38
445.939	14.38
446.718	13.38
447.497	20.38
448.276	17.38
449.054	20.38
449.833	20.38
450.612	26.38
451.391	28.38
452.169	25.38
452.948	30.38
453.726	34.38
454.504	38.38
455.282	39.38
456.061	45.38
456.839	51.38
457.617	55.38
458.395	61.38
459.172	68.38
459.95	74.38
460.728	81.38
461.506	95.38
462.283	101.38
463.061	114.38
463.838	127.38
464.615	140.38
465.393	153.38
466.17	175.38
466.947	193.38
467.724	216.38
468.501	245.38
469.278	267.38
470.055	299.38
470.831	333.38
471.608	377.38
472.385	413.38
473.161	458.38
473.938	509.38
474.714	567.38
475.49	630.38
476.266	695.38
477.043	777.38
477.819	858.38
478.595	936.38
479.371	1028.38
480.146	1138.38
480.922	1253.38
481.698	1409.38
482.473	1538.38
483.249	1719.38
484.024	1885.38
484.8	2066.38
485.575	2271.38
486.35	2500.38
487.126	2768.38
487.901	3047.38
488.676	3332.38
489.451	3646.38
490.225	4042.38
491	4412.38
491.775	4893.38
492.55	5341.38
493.324	5825.38
494.099	6374.38
494.873	6956.38
495.647	7560.38
496.422	8196.38
497.196	8927.38
497.97	9593.38
498.744	10352.38
499.518	11086.38
500.292	11714.38
501.066	12510.38
501.839	13231.38
502.613	13874.38
503.387	14468.38
504.16	14981.38
504.934	15450.38
505.707	15861.38
506.48	16099.38
507.253	16292.38
508.027	16440.38
508.8	16316.38
509.573	16209.38
510.346	15991.38
511.118	15700.38
511.891	15276.38
512.664	14823.38
513.437	14338.38
514.209	13811.38
514.982	13285.38
515.754	12719.38
516.526	12198.38
517.298	11665.38
518.071	11141.38
518.843	10664.38
519.615	10203.38
520.387	9781.38
521.159	9383.38
521.93	9013.38
522.702	8653.38
523.474	8288.38
524.245	7990.38
525.017	7660.38
525.788	7349.38
526.56	7082.38
527.331	6742.38
528.102	6479.38
528.873	6213.38
529.644	5915.38
530.415	5661.38
531.186	5368.38
531.957	5130.38
532.728	4861.38
533.498	4557.38
534.269	4340.38
535.039	4111.38
535.81	3899.38
536.58	3650.38
537.351	3479.38
538.121	3281.38
538.891	3096.38
539.661	2922.38
540.431	2758.38
541.201	2614.38
541.971	2479.38
542.741	2348.38
543.51	2226.38
544.28	2108.38
545.05	2013.38
545.819	1913.38
546.588	1821.38
547.358	1723.38
548.127	1640.38
548.896	1569.38
549.665	1470.38
550.434	1408.38
551.203	1332.38
551.972	1266.38
552.741	1209.38
553.51	1131.38
554.278	1053.38
555.047	1009.38
555.815	952.38
556.584	897.38
557.352	849.38
558.121	801.38
558.889	755.38
559.657	708.38
560.425	680.38
561.193	631.38
561.961	603.38
562.729	556.38
563.496	529.38
564.264	498.38
565.032	472.38
565.799	435.38
566.567	412.38
567.334	395.38
568.101	370.38
568.869	350.38
569.636	330.38
570.403	317.38
571.17	297.38
571.937	278.38
572.704	268.38
573.471	245.38
574.237	234.38
575.004	221.38
575.771	203.38
576.537	193.38
577.303	189.38
578.07	167.38
578.836	160.38
579.602	151.38
580.368	142.38
581.134	133.38
581.9	131.38
582.666	122.38
583.432	118.38
584.198	108.38
584.964	104.38
585.729	96.38
586.495	94.38
587.26	85.38
588.025	82.38
588.791	80.38
589.556	71.38
590.321	70.38
591.086	67.38
591.851	63.38
592.616	59.38
593.381	61.38
594.146	56.38
594.911	48.38
595.675	47.38
596.44	44.38
597.204	44.38
597.969	40.38
598.733	41.38
599.497	35.38
600.261	36.38
601.025	32.38
601.79	31.38
602.553	30.38
603.317	29.38
604.081	28.38
604.845	26.38
605.609	26.38
606.372	25.38
607.136	24.38
607.899	20.38
608.662	22.38
609.426	21.38
610.189	19.38
610.952	19.38
611.715	21.38
612.478	18.38
613.241	18.38
614.004	18.38
614.767	13.38
615.529	15.38
616.292	14.38
617.055	17.38
617.817	12.38
618.579	12.38
619.342	13.38
620.104	9.38
620.866	12.38
621.628	12.38
622.39	12.38
623.152	8.38
623.914	11.38
624.676	8.38
625.438	8.38
626.199	10.38
626.961	8.38
627.722	9.38
628.484	8.38
629.245	9.38
630.006	6.38
630.768	8.38
631.529	7.38
632.29	5.38
633.051	8.38
633.812	6.38
634.573	8.38
635.333	5.38
636.094	5.38
636.855	4.38
637.615	3.38
638.376	6.38
639.136	5.38
639.896	5.38
640.657	6.38
641.417	4.38
642.177	2.38
642.937	3.38
643.697	4.38
644.457	3.38
645.216	4.38
645.976	2.38
646.736	4.38
647.495	4.38
648.255	2.38
649.014	2.38
649.774	3.38
650.533	1.38
651.292	3.38
652.051	2.38
652.81	2.38
653.569	1.38
654.328	3.38
655.087	5.38
655.846	1.38
656.604	3.38
657.363	2.38
658.121	2.38
658.88	2.38
659.638	1.38
660.397	3.38
661.155	3.38
661.913	4.38
662.671	-0.62
663.429	1.38
664.187	1.38
664.945	4.38
665.703	1.38
666.46	0.38
667.218	2.38
667.976	1.38
668.733	1.38
669.49	1.38
670.248	1.38
671.005	0.38
671.762	4.38
672.519	0.38
673.276	0.38
674.033	0.38
674.79	0.38
675.547	1.38
676.304	2.38
677.06	-2.62
677.817	3.38
678.574	-1.62
679.33	0.38
680.086	1.38
680.843	1.38
681.599	1.38
682.355	1.38
683.111	2.38
683.867	0.38
684.623	2.38
685.379	0.38
686.135	1.38
686.89	0.38
687.646	1.38
688.402	0.38
689.157	-0.62
689.912	3.38
690.668	1.38
691.423	0.38
692.178	2.38
692.933	1.38
693.688	0.38
694.443	0.38
695.198	1.38
695.953	0.38
696.708	2.38
697.462	3.38
698.217	1.38
698.972	1.38
699.726	2.38
700.48	1.38
701.235	1.38
701.989	-0.62
702.743	1.38
703.497	0.38
704.251	1.38
705.005	0.38
705.759	2.38
706.513	1.38
707.266	0.38
708.02	0.38
708.774	0.38
709.527	2.38
710.28	3.38
711.034	2.38
711.787	1.38
712.54	1.38
713.293	-0.62
714.046	0.38
714.799	2.38
715.552	1.38
716.305	3.38
717.058	0.38
717.81	0.38
718.563	0.38
719.315	0.38
720.068	2.38
720.82	0.38
721.573	1.38
722.325	1.38
723.077	2.38
723.829	0.38
724.581	-1.62
725.333	2.38
726.085	1.38
726.836	0.38
727.588	1.38
728.34	2.38
729.091	1.38
729.843	1.38
730.594	3.38
731.346	0.38
732.097	2.38
732.848	2.38
733.599	2.38
734.35	0.38
735.101	1.38
735.852	-2.62
736.603	1.38
737.354	2.38
738.104	2.38
738.855	1.38
739.605	3.38
740.356	0.38
741.106	1.38
741.856	0.38
742.607	2.38
743.357	2.38
744.107	-0.62
744.857	1.38
745.607	3.38
746.357	-0.62
747.106	0.38
747.856	1.38
748.606	2.38
749.355	-0.62
750.105	3.38
750.854	-0.62
751.603	2.38
752.353	2.38
753.102	0.38
753.851	3.38
754.6	1.38
755.349	1.38
756.098	2.38
756.847	1.38
757.595	0.38
758.344	0.38
759.093	2.38
759.841	2.38
760.589	4.38
761.338	2.38
762.086	1.38
762.834	2.38
763.582	-0.62
764.331	4.38
765.079	0.38
765.826	1.38
766.574	2.38
767.322	5.38
768.07	2.38
768.817	3.38
769.565	4.38
770.312	2.38
771.06	5.38
771.807	3.38
772.554	3.38
773.302	3.38
774.049	3.38
774.796	2.38
775.543	4.38
776.29	6.38
777.036	2.38
777.783	4.38
778.53	3.38
779.276	2.38
780.023	2.38
780.769	1.38
781.516	4.38
782.262	4.38
783.008	4.38
783.754	5.38
784.5	3.38
785.246	5.38
785.992	6.38
786.738	5.38
787.484	4.38
788.23	5.38
788.975	3.38
789.721	4.38
790.466	8.38
791.212	4.38
791.957	2.38
792.702	5.38
793.447	4.38
794.193	3.38
794.938	4.38
795.683	3.38
796.427	5.38
797.172	6.38
797.917	5.38
798.662	5.38
799.406	6.38
800.151	4.38
800.895	4.38
801.64	2.38
802.384	5.38
803.128	2.38
803.872	1.38
804.616	6.38
805.36	4.38
806.104	0.38
806.848	1.38
807.592	2.38
808.336	2.38
809.079	3.38
809.823	4.38
810.566	3.38
811.31	3.38
812.053	4.38
812.796	3.38
813.539	1.38
814.283	3.38
815.026	2.38
815.769	1.38
816.511	4.38
817.254	1.38
817.997	1.38
818.74	3.38
819.482	3.38
820.225	3.38
820.967	0.38
821.71	0.38
822.452	1.38
823.194	3.38
823.936	2.38
824.678	2.38
825.42	1.38
826.162	2.38
826.904	3.38
827.646	-0.62
828.388	1.38
829.129	0.38
829.871	3.38
830.612	2.38
831.354	1.38
832.095	2.38
832.836	0.38
833.577	0.38
834.319	2.38
835.06	0.38
835.801	2.38
836.542	1.38
837.282	1.38
838.023	1.38
838.764	0.38
839.504	1.38
840.245	1.38
840.985	0.38
841.726	1.38
842.466	1.38
843.206	0.38
843.946	0.38
844.687	2.38
845.427	2.38
846.166	1.38
846.906	0.38
847.646	1.38
848.386	3.38
849.125	1.38
849.865	-0.62
850.605	1.38
851.344	0.38
852.083	0.38
852.823	1.38
853.562	1.38
854.301	0.38
855.04	1.38
855.779	-0.62
856.518	-0.62
857.257	-1.62
857.995	2.38
858.734	0.38
859.473	0.38
860.211	2.38
860.95	0.38
861.688	1.38
862.426	1.38
863.165	-0.62
863.903	0.38
864.641	1.38
865.379	0.38
866.117	1.38
866.855	3.38
867.593	0.38
868.33	0.38
869.068	3.38
869.806	0.38
870.543	0.38
871.28	1.38
872.018	0.38
872.755	0.38
873.492	0.38
874.229	0.38
874.967	0.38
875.703	0.38
876.44	-0.62
877.177	0.38
877.914	-0.62
878.651	0.38
879.387	-2.62
880.124	0.38
880.86	0.38
881.597	-1.62
882.333	1.38
883.069	-0.62
883.806	-0.62
884.542	0.38
885.278	0.38
886.014	0.38
886.749	0.38
887.485	-1.62
888.221	-1.62
888.957	0.38
889.692	0.38
890.428	0.38
891.163	-0.62
891.899	-2.62
892.634	1.38
893.369	1.38
894.104	1.38
894.839	0.38
895.574	0.38
896.309	-0.62
897.044	-2.62
897.779	-0.62
898.514	-0.62
899.248	1.38
899.983	-1.62
900.717	-0.62
901.452	-0.62
902.186	-1.62
902.92	-0.62
903.654	0.38
904.389	-2.62
905.123	0.38
905.857	-0.62
906.59	0.38
907.324	1.38
908.058	-0.62
908.792	0.38
909.525	-2.62
910.259	0.38
910.992	-2.62
911.726	0.38
912.459	-1.62
913.192	0.38
913.925	-0.62
914.658	-1.62
915.391	1.38
916.124	0.38
916.857	0.38
917.59	-2.62
918.323	-0.62
919.055	-1.62
919.788	-0.62
920.521	-0.62
921.253	-0.62
921.985	1.38
922.718	-1.62
923.45	0.38
924.182	-4.62
924.914	0.38
925.646	0.38
926.378	0.38
927.11	1.38
927.841	-3.62
928.573	-0.62
929.305	-0.62
930.036	0.38
930.768	-0.62
931.499	-1.62
932.23	1.38
932.962	-1.62
933.693	-0.62
934.424	0.38
935.155	-0.62
935.886	-0.62
936.617	-1.62
937.348	2.38
938.078	-2.62
938.809	-1.62
939.54	-0.62
940.27	0.38
941.001	-2.62
941.731	-0.62
942.461	-0.62
943.191	-1.62
943.922	0.38
944.652	-2.62
945.382	-2.62
946.112	-0.62
946.841	-0.62
947.571	-1.62
948.301	1.38
949.031	0.38
949.76	1.38
950.49	-0.62
951.219	-0.62
951.948	-2.62
952.678	1.38
953.407	-2.62
954.136	-2.62
954.865	-0.62
955.594	0.38
956.323	0.38
957.052	0.38
957.78	0.38
958.509	-0.62
959.238	0.38
959.966	0.38
960.695	-1.62
961.423	-1.62
962.151	0.38
962.88	-0.62
963.608	-0.62
964.336	0.38
965.064	-0.62
965.792	0.38
966.52	0.38
967.247	0.38
967.975	-0.62
968.703	1.38
969.43	-0.62
970.158	0.38
970.885	-0.62
971.613	-0.62
972.34	-1.62
973.067	0.38
973.794	-1.62
974.521	-1.62
975.248	-1.62
975.975	-1.62
976.702	-0.62
977.429	-1.62
978.156	-2.62
978.882	-0.62
979.609	0.38
980.335	1.38
981.062	-0.62
981.788	0.38
982.514	-1.62
983.24	-0.62
983.967	0.38
984.693	-1.62
985.419	-1.62
986.144	-2.62
986.87	-1.62
987.596	-1.62
988.322	0.38
989.047	-1.62
989.773	0.38
990.498	-1.62
991.224	-1.62
991.949	-0.62
992.674	-1.62
993.399	0.38
994.124	-0.62
994.849	-1.62
995.574	-0.62
996.299	-1.62
997.024	0.38
997.749	-0.62
998.473	-1.62
999.198	-1.62
999.922	0.38
1000.647	-0.62
1001.371	1.38
1002.095	-0.62
1002.82	-0.62
1003.544	-0.62
1004.268	-0.62
1004.992	-2.62
1005.716	-2.62
1006.439	0.38
1007.163	1.38
1007.887	-2.62
1008.611	-0.62
1009.334	-1.62
1010.058	1.38
1010.781	-0.62
1011.504	-0.62
1012.228	-0.62
1012.951	-0.62
1013.674	0.38
1014.397	0.38
1015.12	0.38
