节点500_145_QEPB04081__570__11-38-01-383.txt的数据

Date: Wed Nov 12 11:38:01 CST 2025
User: PC
Spectrometer: QEPB0408
触发模式: 0
积分时间 (秒): 1.000000E-2
Scans to average: 1
启用暗噪声校正: true
启用非线性校正: false
滑动平均宽度: 0
X轴模式: Wavelengths
Number of Pixels in Spectrum: 1044
>>>>>Begin Spectral Data<<<<<
220.843	1.88
221.644	0.88
222.444	-0.12
223.244	1.88
224.045	-0.12
224.845	1.88
225.645	-0.12
226.445	0.88
227.245	0.88
228.045	0.88
228.845	0.88
229.645	-0.12
230.444	1.88
231.244	-0.12
232.043	2.88
232.843	2.88
233.642	1.88
234.442	0.88
235.241	1.88
236.04	1.88
236.839	1.88
237.638	3.88
238.437	0.88
239.236	0.88
240.035	1.88
240.833	2.88
241.632	1.88
242.43	0.88
243.229	2.88
244.027	2.88
244.826	2.88
245.624	2.88
246.422	1.88
247.22	1.88
248.018	1.88
248.816	3.88
249.614	1.88
250.412	-0.12
251.21	3.88
252.007	3.88
252.805	5.88
253.602	1.88
254.4	3.88
255.197	2.88
255.994	1.88
256.791	3.88
257.589	4.88
258.386	5.88
259.183	2.88
259.979	2.88
260.776	3.88
261.573	4.88
262.37	3.88
263.166	1.88
263.963	8.88
264.759	4.88
265.556	6.88
266.352	6.88
267.148	4.88
267.944	6.88
268.74	4.88
269.536	7.88
270.332	5.88
271.128	9.88
271.924	5.88
272.719	5.88
273.515	7.88
274.311	6.88
275.106	11.88
275.901	7.88
276.697	8.88
277.492	10.88
278.287	8.88
279.082	9.88
279.877	7.88
280.672	9.88
281.467	10.88
282.262	9.88
283.056	11.88
283.851	9.88
284.646	11.88
285.44	10.88
286.234	11.88
287.029	12.88
287.823	11.88
288.617	6.88
289.411	11.88
290.205	12.88
290.999	9.88
291.793	11.88
292.587	7.88
293.381	9.88
294.174	8.88
294.968	11.88
295.761	8.88
296.555	10.88
297.348	8.88
298.141	8.88
298.935	10.88
299.728	9.88
300.521	7.88
301.314	10.88
302.107	7.88
302.899	9.88
303.692	10.88
304.485	8.88
305.277	9.88
306.07	7.88
306.862	7.88
307.655	9.88
308.447	9.88
309.239	9.88
310.031	5.88
310.823	8.88
311.615	6.88
312.407	5.88
313.199	6.88
313.991	9.88
314.783	5.88
315.574	6.88
316.366	7.88
317.157	5.88
317.949	5.88
318.74	7.88
319.531	5.88
320.322	5.88
321.113	4.88
321.904	4.88
322.695	5.88
323.486	5.88
324.277	5.88
325.068	3.88
325.858	4.88
326.649	4.88
327.439	5.88
328.23	3.88
329.02	0.88
329.81	3.88
330.6	3.88
331.391	6.88
332.181	3.88
332.971	4.88
333.76	3.88
334.55	5.88
335.34	3.88
336.13	4.88
336.919	4.88
337.709	3.88
338.498	4.88
339.287	2.88
340.077	6.88
340.866	4.88
341.655	3.88
342.444	4.88
343.233	3.88
344.022	2.88
344.811	5.88
345.6	3.88
346.388	4.88
347.177	4.88
347.965	3.88
348.754	3.88
349.542	4.88
350.33	2.88
351.119	3.88
351.907	3.88
352.695	1.88
353.483	1.88
354.271	3.88
355.059	3.88
355.846	2.88
356.634	1.88
357.422	3.88
358.209	2.88
358.997	1.88
359.784	2.88
360.571	3.88
361.359	1.88
362.146	1.88
362.933	1.88
363.72	1.88
364.507	5.88
365.294	2.88
366.081	3.88
366.867	3.88
367.654	2.88
368.44	2.88
369.227	2.88
370.013	1.88
370.8	0.88
371.586	4.88
372.372	3.88
373.158	3.88
373.944	2.88
374.73	0.88
375.516	3.88
376.302	1.88
377.088	2.88
377.873	0.88
378.659	2.88
379.445	3.88
380.23	2.88
381.015	2.88
381.801	1.88
382.586	2.88
383.371	3.88
384.156	0.88
384.941	3.88
385.726	3.88
386.511	3.88
387.296	2.88
388.08	1.88
388.865	3.88
389.649	3.88
390.434	4.88
391.218	1.88
392.003	4.88
392.787	5.88
393.571	2.88
394.355	3.88
395.139	2.88
395.923	4.88
396.707	2.88
397.491	3.88
398.274	3.88
399.058	1.88
399.842	4.88
400.625	3.88
401.408	3.88
402.192	2.88
402.975	3.88
403.758	4.88
404.541	5.88
405.324	5.88
406.107	2.88
406.89	2.88
407.673	2.88
408.456	4.88
409.238	3.88
410.021	4.88
410.803	3.88
411.586	5.88
412.368	5.88
413.151	4.88
413.933	6.88
414.715	5.88
415.497	0.88
416.279	5.88
417.061	4.88
417.843	3.88
418.624	4.88
419.406	6.88
420.188	5.88
420.969	6.88
421.751	4.88
422.532	5.88
423.313	7.88
424.095	5.88
424.876	7.88
425.657	7.88
426.438	6.88
427.219	7.88
428	6.88
428.78	6.88
429.561	8.88
430.342	8.88
431.122	8.88
431.903	5.88
432.683	7.88
433.464	8.88
434.244	8.88
435.024	8.88
435.804	11.88
436.584	10.88
437.364	9.88
438.144	10.88
438.924	11.88
439.704	12.88
440.483	9.88
441.263	13.88
442.042	13.88
442.822	15.88
443.601	16.88
444.38	16.88
445.16	13.88
445.939	14.88
446.718	18.88
447.497	19.88
448.276	21.88
449.054	25.88
449.833	23.88
450.612	24.88
451.391	27.88
452.169	32.88
452.948	30.88
453.726	36.88
454.504	41.88
455.282	43.88
456.061	49.88
456.839	54.88
457.617	60.88
458.395	65.88
459.172	73.88
459.95	81.88
460.728	88.88
461.506	100.88
462.283	111.88
463.061	126.88
463.838	143.88
464.615	157.88
465.393	175.88
466.17	193.88
466.947	211.88
467.724	234.88
468.501	269.88
469.278	293.88
470.055	323.88
470.831	354.88
471.608	390.88
472.385	439.88
473.161	481.88
473.938	537.88
474.714	593.88
475.49	658.88
476.266	713.88
477.043	797.88
477.819	875.88
478.595	965.88
479.371	1057.88
480.146	1161.88
480.922	1274.88
481.698	1413.88
482.473	1550.88
483.249	1682.88
484.024	1836.88
484.8	2014.88
485.575	2240.88
486.35	2430.88
487.126	2651.88
487.901	2899.88
488.676	3205.88
489.451	3483.88
490.225	3796.88
491	4146.88
491.775	4532.88
492.55	4965.88
493.324	5406.88
494.099	5889.88
494.873	6398.88
495.647	6952.88
496.422	7521.88
497.196	8078.88
497.97	8759.88
498.744	9383.88
499.518	10054.88
500.292	10734.88
501.066	11387.88
501.839	12067.88
502.613	12661.88
503.387	13222.88
504.16	13800.88
504.934	14305.88
505.707	14694.88
506.48	14963.88
507.253	15281.88
508.027	15424.88
508.8	15527.88
509.573	15477.88
510.346	15323.88
511.118	15165.88
511.891	14872.88
512.664	14564.88
513.437	14113.88
514.209	13662.88
514.982	13207.88
515.754	12737.88
516.526	12270.88
517.298	11714.88
518.071	11251.88
518.843	10773.88
519.615	10258.88
520.387	9849.88
521.159	9491.88
521.93	9067.88
522.702	8748.88
523.474	8406.88
524.245	8069.88
525.017	7728.88
525.788	7417.88
526.56	7131.88
527.331	6865.88
528.102	6570.88
528.873	6301.88
529.644	6016.88
530.415	5723.88
531.186	5496.88
531.957	5228.88
532.728	5002.88
533.498	4738.88
534.269	4486.88
535.039	4241.88
535.81	4025.88
536.58	3824.88
537.351	3597.88
538.121	3385.88
538.891	3247.88
539.661	3045.88
540.431	2882.88
541.201	2722.88
541.971	2589.88
542.741	2444.88
543.51	2309.88
544.28	2186.88
545.05	2084.88
545.819	1984.88
546.588	1876.88
547.358	1781.88
548.127	1702.88
548.896	1628.88
549.665	1530.88
550.434	1450.88
551.203	1385.88
551.972	1319.88
552.741	1246.88
553.51	1188.88
554.278	1122.88
555.047	1056.88
555.815	992.88
556.584	959.88
557.352	886.88
558.121	843.88
558.889	785.88
559.657	749.88
560.425	713.88
561.193	667.88
561.961	638.88
562.729	599.88
563.496	565.88
564.264	536.88
565.032	503.88
565.799	475.88
566.567	445.88
567.334	415.88
568.101	397.88
568.869	374.88
569.636	354.88
570.403	336.88
571.17	320.88
571.937	295.88
572.704	282.88
573.471	258.88
574.237	249.88
575.004	236.88
575.771	220.88
576.537	201.88
577.303	195.88
578.07	182.88
578.836	175.88
579.602	164.88
580.368	155.88
581.134	150.88
581.9	142.88
582.666	133.88
583.432	129.88
584.198	117.88
584.964	112.88
585.729	110.88
586.495	99.88
587.26	96.88
588.025	86.88
588.791	86.88
589.556	78.88
590.321	75.88
591.086	68.88
591.851	65.88
592.616	65.88
593.381	58.88
594.146	60.88
594.911	52.88
595.675	52.88
596.44	47.88
597.204	47.88
597.969	49.88
598.733	44.88
599.497	43.88
600.261	37.88
601.025	38.88
601.79	35.88
602.553	32.88
603.317	32.88
604.081	30.88
604.845	30.88
605.609	29.88
606.372	28.88
607.136	23.88
607.899	26.88
608.662	21.88
609.426	26.88
610.189	23.88
610.952	21.88
611.715	20.88
612.478	19.88
613.241	19.88
614.004	19.88
614.767	18.88
615.529	15.88
616.292	15.88
617.055	15.88
617.817	13.88
618.579	16.88
619.342	13.88
620.104	12.88
620.866	14.88
621.628	11.88
622.39	12.88
623.152	13.88
623.914	10.88
624.676	10.88
625.438	12.88
626.199	10.88
626.961	9.88
627.722	8.88
628.484	9.88
629.245	8.88
630.006	7.88
630.768	7.88
631.529	8.88
632.29	9.88
633.051	7.88
633.812	6.88
634.573	7.88
635.333	6.88
636.094	5.88
636.855	7.88
637.615	6.88
638.376	5.88
639.136	5.88
639.896	5.88
640.657	7.88
641.417	5.88
642.177	6.88
642.937	6.88
643.697	7.88
644.457	6.88
645.216	3.88
645.976	5.88
646.736	5.88
647.495	7.88
648.255	1.88
649.014	5.88
649.774	5.88
650.533	4.88
651.292	5.88
652.051	3.88
652.81	4.88
653.569	5.88
654.328	2.88
655.087	2.88
655.846	2.88
656.604	4.88
657.363	1.88
658.121	3.88
658.88	4.88
659.638	2.88
660.397	4.88
661.155	2.88
661.913	1.88
662.671	3.88
663.429	3.88
664.187	2.88
664.945	5.88
665.703	3.88
666.46	1.88
667.218	3.88
667.976	2.88
668.733	2.88
669.49	4.88
670.248	3.88
671.005	1.88
671.762	1.88
672.519	3.88
673.276	2.88
674.033	2.88
674.79	1.88
675.547	3.88
676.304	3.88
677.06	2.88
677.817	4.88
678.574	1.88
679.33	1.88
680.086	2.88
680.843	1.88
681.599	2.88
682.355	3.88
683.111	3.88
683.867	2.88
684.623	4.88
685.379	2.88
686.135	2.88
686.89	0.88
687.646	2.88
688.402	3.88
689.157	1.88
689.912	4.88
690.668	1.88
691.423	3.88
692.178	2.88
692.933	1.88
693.688	5.88
694.443	2.88
695.198	2.88
695.953	2.88
696.708	1.88
697.462	3.88
698.217	2.88
698.972	1.88
699.726	0.88
700.48	3.88
701.235	-0.12
701.989	2.88
702.743	2.88
703.497	1.88
704.251	1.88
705.005	2.88
705.759	2.88
706.513	1.88
707.266	1.88
708.02	1.88
708.774	3.88
709.527	1.88
710.28	0.88
711.034	5.88
711.787	2.88
712.54	1.88
713.293	2.88
714.046	2.88
714.799	0.88
715.552	2.88
716.305	2.88
717.058	3.88
717.81	2.88
718.563	2.88
719.315	1.88
720.068	2.88
720.82	0.88
721.573	2.88
722.325	2.88
723.077	1.88
723.829	4.88
724.581	0.88
725.333	0.88
726.085	1.88
726.836	0.88
727.588	2.88
728.34	1.88
729.091	1.88
729.843	2.88
730.594	1.88
731.346	0.88
732.097	2.88
732.848	2.88
733.599	1.88
734.35	3.88
735.101	4.88
735.852	0.88
736.603	0.88
737.354	2.88
738.104	2.88
738.855	3.88
739.605	0.88
740.356	3.88
741.106	1.88
741.856	3.88
742.607	3.88
743.357	1.88
744.107	2.88
744.857	1.88
745.607	2.88
746.357	2.88
747.106	0.88
747.856	3.88
748.606	3.88
749.355	0.88
750.105	2.88
750.854	2.88
751.603	2.88
752.353	3.88
753.102	4.88
753.851	2.88
754.6	3.88
755.349	4.88
756.098	3.88
756.847	2.88
757.595	1.88
758.344	3.88
759.093	2.88
759.841	3.88
760.589	4.88
761.338	1.88
762.086	4.88
762.834	3.88
763.582	2.88
764.331	2.88
765.079	2.88
765.826	4.88
766.574	2.88
767.322	3.88
768.07	2.88
768.817	5.88
769.565	1.88
770.312	3.88
771.06	6.88
771.807	1.88
772.554	3.88
773.302	5.88
774.049	2.88
774.796	2.88
775.543	3.88
776.29	4.88
777.036	2.88
777.783	5.88
778.53	7.88
779.276	3.88
780.023	4.88
780.769	4.88
781.516	6.88
782.262	4.88
783.008	1.88
783.754	5.88
784.5	5.88
785.246	6.88
785.992	4.88
786.738	6.88
787.484	5.88
788.23	3.88
788.975	7.88
789.721	4.88
790.466	4.88
791.212	3.88
791.957	3.88
792.702	2.88
793.447	5.88
794.193	3.88
794.938	3.88
795.683	4.88
796.427	5.88
797.172	4.88
797.917	5.88
798.662	4.88
799.406	5.88
800.151	4.88
800.895	5.88
801.64	3.88
802.384	5.88
803.128	5.88
803.872	5.88
804.616	6.88
805.36	4.88
806.104	1.88
806.848	5.88
807.592	5.88
808.336	2.88
809.079	4.88
809.823	5.88
810.566	3.88
811.31	3.88
812.053	2.88
812.796	4.88
813.539	5.88
814.283	5.88
815.026	3.88
815.769	3.88
816.511	2.88
817.254	2.88
817.997	3.88
818.74	3.88
819.482	2.88
820.225	2.88
820.967	1.88
821.71	3.88
822.452	3.88
823.194	3.88
823.936	3.88
824.678	3.88
825.42	3.88
826.162	2.88
826.904	2.88
827.646	2.88
828.388	3.88
829.129	2.88
829.871	-0.12
830.612	2.88
831.354	1.88
832.095	2.88
832.836	2.88
833.577	4.88
834.319	2.88
835.06	2.88
835.801	2.88
836.542	1.88
837.282	2.88
838.023	3.88
838.764	4.88
839.504	0.88
840.245	3.88
840.985	1.88
841.726	2.88
842.466	4.88
843.206	1.88
843.946	2.88
844.687	2.88
845.427	0.88
846.166	2.88
846.906	1.88
847.646	1.88
848.386	1.88
849.125	2.88
849.865	1.88
850.605	2.88
851.344	4.88
852.083	2.88
852.823	1.88
853.562	1.88
854.301	1.88
855.04	1.88
855.779	2.88
856.518	1.88
857.257	3.88
857.995	1.88
858.734	1.88
859.473	2.88
860.211	3.88
860.95	2.88
861.688	2.88
862.426	0.88
863.165	3.88
863.903	3.88
864.641	2.88
865.379	2.88
866.117	-0.12
866.855	2.88
867.593	1.88
868.33	2.88
869.068	1.88
869.806	1.88
870.543	0.88
871.28	0.88
872.018	3.88
872.755	-0.12
873.492	-0.12
874.229	1.88
874.967	0.88
875.703	0.88
876.44	2.88
877.177	0.88
877.914	-0.12
878.651	1.88
879.387	1.88
880.124	1.88
880.86	1.88
881.597	0.88
882.333	1.88
883.069	2.88
883.806	1.88
884.542	0.88
885.278	1.88
886.014	0.88
886.749	2.88
887.485	-1.12
888.221	-1.12
888.957	-0.12
889.692	0.88
890.428	1.88
891.163	2.88
891.899	0.88
892.634	1.88
893.369	1.88
894.104	1.88
894.839	-0.12
895.574	-1.12
896.309	-0.12
897.044	0.88
897.779	0.88
898.514	0.88
899.248	0.88
899.983	0.88
900.717	1.88
901.452	2.88
902.186	-1.12
902.92	3.88
903.654	1.88
904.389	-1.12
905.123	-0.12
905.857	0.88
906.59	2.88
907.324	0.88
908.058	1.88
908.792	-0.12
909.525	0.88
910.259	-1.12
910.992	-0.12
911.726	-1.12
912.459	1.88
913.192	1.88
913.925	-0.12
914.658	0.88
915.391	0.88
916.124	2.88
916.857	1.88
917.59	-0.12
918.323	-0.12
919.055	1.88
919.788	1.88
920.521	-0.12
921.253	1.88
921.985	0.88
922.718	1.88
923.45	-0.12
924.182	0.88
924.914	0.88
925.646	2.88
926.378	1.88
927.11	-1.12
927.841	-0.12
928.573	0.88
929.305	-0.12
930.036	-0.12
930.768	1.88
931.499	2.88
932.23	2.88
932.962	0.88
933.693	0.88
934.424	-0.12
935.155	1.88
935.886	0.88
936.617	2.88
937.348	1.88
938.078	-0.12
938.809	-1.12
939.54	1.88
940.27	1.88
941.001	0.88
941.731	1.88
942.461	0.88
943.191	-1.12
943.922	3.88
944.652	0.88
945.382	1.88
946.112	0.88
946.841	-0.12
947.571	0.88
948.301	-0.12
949.031	-1.12
949.76	-1.12
950.49	-0.12
951.219	0.88
951.948	1.88
952.678	0.88
953.407	0.88
954.136	0.88
954.865	2.88
955.594	0.88
956.323	1.88
957.052	-1.12
957.78	1.88
958.509	-0.12
959.238	2.88
959.966	1.88
960.695	1.88
961.423	0.88
962.151	-0.12
962.88	2.88
963.608	1.88
964.336	1.88
965.064	-0.12
965.792	1.88
966.52	0.88
967.247	0.88
967.975	2.88
968.703	0.88
969.43	0.88
970.158	2.88
970.885	-0.12
971.613	-1.12
972.34	-1.12
973.067	1.88
973.794	-0.12
974.521	1.88
975.248	-0.12
975.975	-1.12
976.702	0.88
977.429	0.88
978.156	0.88
978.882	-0.12
979.609	0.88
980.335	0.88
981.062	-0.12
981.788	0.88
982.514	-2.12
983.24	1.88
983.967	-1.12
984.693	1.88
985.419	-0.12
986.144	0.88
986.87	-0.12
987.596	-0.12
988.322	-0.12
989.047	0.88
989.773	1.88
990.498	-0.12
991.224	-0.12
991.949	2.88
992.674	-0.12
993.399	-1.12
994.124	0.88
994.849	1.88
995.574	-2.12
996.299	-1.12
997.024	0.88
997.749	0.88
998.473	1.88
999.198	1.88
999.922	0.88
1000.647	-0.12
1001.371	0.88
1002.095	-2.12
1002.82	0.88
1003.544	-2.12
1004.268	-2.12
1004.992	0.88
1005.716	-3.12
1006.439	-1.12
1007.163	-0.12
1007.887	-1.12
1008.611	0.88
1009.334	1.88
1010.058	-0.12
1010.781	1.88
1011.504	0.88
1012.228	-0.12
1012.951	1.88
1013.674	-1.12
1014.397	1.88
1015.12	-0.12
