节点500_145_QEPB04081__649__11-39-15-141.txt的数据

Date: Wed Nov 12 11:39:15 CST 2025
User: PC
Spectrometer: QEPB0408
触发模式: 0
积分时间 (秒): 1.000000E-2
Scans to average: 1
启用暗噪声校正: true
启用非线性校正: false
滑动平均宽度: 0
X轴模式: Wavelengths
Number of Pixels in Spectrum: 1044
>>>>>Begin Spectral Data<<<<<
220.843	-1.25
221.644	-1.25
222.444	0.75
223.244	-0.25
224.045	-0.25
224.845	-1.25
225.645	1.75
226.445	-0.25
227.245	1.75
228.045	-0.25
228.845	1.75
229.645	1.75
230.444	-0.25
231.244	-0.25
232.043	-1.25
232.843	2.75
233.642	0.75
234.442	0.75
235.241	1.75
236.04	-0.25
236.839	1.75
237.638	-0.25
238.437	0.75
239.236	1.75
240.035	0.75
240.833	0.75
241.632	2.75
242.43	3.75
243.229	1.75
244.027	4.75
244.826	2.75
245.624	3.75
246.422	0.75
247.22	-0.25
248.018	4.75
248.816	1.75
249.614	3.75
250.412	2.75
251.21	2.75
252.007	1.75
252.805	3.75
253.602	2.75
254.4	3.75
255.197	2.75
255.994	1.75
256.791	2.75
257.589	1.75
258.386	2.75
259.183	3.75
259.979	3.75
260.776	4.75
261.573	4.75
262.37	3.75
263.166	2.75
263.963	5.75
264.759	4.75
265.556	5.75
266.352	4.75
267.148	6.75
267.944	7.75
268.74	5.75
269.536	4.75
270.332	6.75
271.128	6.75
271.924	6.75
272.719	5.75
273.515	7.75
274.311	7.75
275.106	7.75
275.901	7.75
276.697	6.75
277.492	8.75
278.287	7.75
279.082	9.75
279.877	8.75
280.672	8.75
281.467	10.75
282.262	7.75
283.056	12.75
283.851	11.75
284.646	10.75
285.44	10.75
286.234	9.75
287.029	9.75
287.823	10.75
288.617	8.75
289.411	10.75
290.205	9.75
290.999	7.75
291.793	9.75
292.587	10.75
293.381	12.75
294.174	8.75
294.968	8.75
295.761	6.75
296.555	8.75
297.348	9.75
298.141	9.75
298.935	10.75
299.728	9.75
300.521	9.75
301.314	6.75
302.107	10.75
302.899	6.75
303.692	7.75
304.485	7.75
305.277	7.75
306.07	9.75
306.862	8.75
307.655	5.75
308.447	6.75
309.239	8.75
310.031	5.75
310.823	7.75
311.615	7.75
312.407	8.75
313.199	6.75
313.991	6.75
314.783	6.75
315.574	7.75
316.366	4.75
317.157	6.75
317.949	5.75
318.74	5.75
319.531	4.75
320.322	4.75
321.113	3.75
321.904	3.75
322.695	4.75
323.486	4.75
324.277	3.75
325.068	6.75
325.858	5.75
326.649	4.75
327.439	4.75
328.23	4.75
329.02	3.75
329.81	4.75
330.6	3.75
331.391	5.75
332.181	1.75
332.971	2.75
333.76	3.75
334.55	1.75
335.34	4.75
336.13	4.75
336.919	2.75
337.709	2.75
338.498	3.75
339.287	3.75
340.077	5.75
340.866	3.75
341.655	2.75
342.444	3.75
343.233	3.75
344.022	1.75
344.811	4.75
345.6	1.75
346.388	5.75
347.177	5.75
347.965	2.75
348.754	2.75
349.542	1.75
350.33	4.75
351.119	4.75
351.907	4.75
352.695	0.75
353.483	4.75
354.271	2.75
355.059	2.75
355.846	1.75
356.634	2.75
357.422	0.75
358.209	2.75
358.997	1.75
359.784	2.75
360.571	3.75
361.359	5.75
362.146	2.75
362.933	-0.25
363.72	1.75
364.507	3.75
365.294	1.75
366.081	2.75
366.867	3.75
367.654	2.75
368.44	1.75
369.227	2.75
370.013	3.75
370.8	0.75
371.586	2.75
372.372	3.75
373.158	3.75
373.944	3.75
374.73	2.75
375.516	2.75
376.302	2.75
377.088	1.75
377.873	2.75
378.659	2.75
379.445	2.75
380.23	3.75
381.015	1.75
381.801	1.75
382.586	1.75
383.371	3.75
384.156	1.75
384.941	2.75
385.726	1.75
386.511	2.75
387.296	1.75
388.08	4.75
388.865	3.75
389.649	2.75
390.434	1.75
391.218	1.75
392.003	2.75
392.787	2.75
393.571	1.75
394.355	1.75
395.139	2.75
395.923	2.75
396.707	4.75
397.491	3.75
398.274	2.75
399.058	4.75
399.842	3.75
400.625	1.75
401.408	4.75
402.192	3.75
402.975	2.75
403.758	3.75
404.541	3.75
405.324	2.75
406.107	2.75
406.89	2.75
407.673	3.75
408.456	3.75
409.238	2.75
410.021	2.75
410.803	4.75
411.586	4.75
412.368	4.75
413.151	5.75
413.933	3.75
414.715	7.75
415.497	5.75
416.279	4.75
417.061	4.75
417.843	3.75
418.624	4.75
419.406	5.75
420.188	3.75
420.969	3.75
421.751	5.75
422.532	5.75
423.313	5.75
424.095	5.75
424.876	4.75
425.657	5.75
426.438	7.75
427.219	4.75
428	5.75
428.78	4.75
429.561	6.75
430.342	8.75
431.122	7.75
431.903	5.75
432.683	9.75
433.464	9.75
434.244	9.75
435.024	8.75
435.804	7.75
436.584	9.75
437.364	10.75
438.144	11.75
438.924	10.75
439.704	12.75
440.483	11.75
441.263	8.75
442.042	11.75
442.822	13.75
443.601	16.75
444.38	14.75
445.16	17.75
445.939	18.75
446.718	16.75
447.497	20.75
448.276	19.75
449.054	23.75
449.833	23.75
450.612	27.75
451.391	31.75
452.169	35.75
452.948	33.75
453.726	37.75
454.504	40.75
455.282	48.75
456.061	50.75
456.839	56.75
457.617	60.75
458.395	67.75
459.172	72.75
459.95	85.75
460.728	91.75
461.506	105.75
462.283	120.75
463.061	128.75
463.838	139.75
464.615	157.75
465.393	176.75
466.17	196.75
466.947	210.75
467.724	241.75
468.501	257.75
469.278	293.75
470.055	329.75
470.831	364.75
471.608	399.75
472.385	441.75
473.161	494.75
473.938	547.75
474.714	593.75
475.49	655.75
476.266	725.75
477.043	799.75
477.819	875.75
478.595	954.75
479.371	1048.75
480.146	1154.75
480.922	1267.75
481.698	1392.75
482.473	1539.75
483.249	1652.75
484.024	1823.75
484.8	2000.75
485.575	2180.75
486.35	2411.75
487.126	2611.75
487.901	2840.75
488.676	3097.75
489.451	3397.75
490.225	3705.75
491	4029.75
491.775	4414.75
492.55	4796.75
493.324	5199.75
494.099	5676.75
494.873	6165.75
495.647	6671.75
496.422	7245.75
497.196	7773.75
497.97	8378.75
498.744	9020.75
499.518	9657.75
500.292	10296.75
501.066	10898.75
501.839	11529.75
502.613	12170.75
503.387	12682.75
504.16	13260.75
504.934	13742.75
505.707	14143.75
506.48	14493.75
507.253	14758.75
508.027	14912.75
508.8	15049.75
509.573	15043.75
510.346	15026.75
511.118	14832.75
511.891	14617.75
512.664	14278.75
513.437	13913.75
514.209	13497.75
514.982	13109.75
515.754	12626.75
516.526	12135.75
517.298	11634.75
518.071	11147.75
518.843	10707.75
519.615	10240.75
520.387	9853.75
521.159	9474.75
521.93	9036.75
522.702	8703.75
523.474	8385.75
524.245	8073.75
525.017	7711.75
525.788	7424.75
526.56	7139.75
527.331	6811.75
528.102	6552.75
528.873	6313.75
529.644	6038.75
530.415	5723.75
531.186	5500.75
531.957	5269.75
532.728	4986.75
533.498	4742.75
534.269	4516.75
535.039	4267.75
535.81	4056.75
536.58	3821.75
537.351	3626.75
538.121	3421.75
538.891	3254.75
539.661	3073.75
540.431	2908.75
541.201	2745.75
541.971	2583.75
542.741	2452.75
543.51	2337.75
544.28	2215.75
545.05	2077.75
545.819	2008.75
546.588	1902.75
547.358	1821.75
548.127	1728.75
548.896	1646.75
549.665	1555.75
550.434	1485.75
551.203	1398.75
551.972	1333.75
552.741	1268.75
553.51	1190.75
554.278	1131.75
555.047	1077.75
555.815	993.75
556.584	961.75
557.352	906.75
558.121	857.75
558.889	809.75
559.657	757.75
560.425	718.75
561.193	671.75
561.961	632.75
562.729	615.75
563.496	568.75
564.264	546.75
565.032	499.75
565.799	485.75
566.567	449.75
567.334	427.75
568.101	401.75
568.869	378.75
569.636	361.75
570.403	338.75
571.17	323.75
571.937	303.75
572.704	285.75
573.471	270.75
574.237	251.75
575.004	238.75
575.771	223.75
576.537	212.75
577.303	193.75
578.07	189.75
578.836	174.75
579.602	166.75
580.368	159.75
581.134	148.75
581.9	140.75
582.666	130.75
583.432	126.75
584.198	117.75
584.964	114.75
585.729	108.75
586.495	100.75
587.26	95.75
588.025	93.75
588.791	83.75
589.556	85.75
590.321	82.75
591.086	71.75
591.851	69.75
592.616	66.75
593.381	62.75
594.146	59.75
594.911	60.75
595.675	55.75
596.44	47.75
597.204	48.75
597.969	45.75
598.733	43.75
599.497	41.75
600.261	39.75
601.025	38.75
601.79	36.75
602.553	37.75
603.317	31.75
604.081	33.75
604.845	29.75
605.609	25.75
606.372	29.75
607.136	25.75
607.899	25.75
608.662	25.75
609.426	25.75
610.189	24.75
610.952	23.75
611.715	20.75
612.478	18.75
613.241	18.75
614.004	18.75
614.767	14.75
615.529	16.75
616.292	16.75
617.055	16.75
617.817	13.75
618.579	16.75
619.342	12.75
620.104	10.75
620.866	13.75
621.628	12.75
622.39	13.75
623.152	10.75
623.914	10.75
624.676	9.75
625.438	8.75
626.199	9.75
626.961	5.75
627.722	9.75
628.484	9.75
629.245	8.75
630.006	7.75
630.768	5.75
631.529	8.75
632.29	8.75
633.051	8.75
633.812	8.75
634.573	6.75
635.333	6.75
636.094	6.75
636.855	4.75
637.615	7.75
638.376	4.75
639.136	7.75
639.896	4.75
640.657	5.75
641.417	5.75
642.177	6.75
642.937	4.75
643.697	6.75
644.457	6.75
645.216	3.75
645.976	4.75
646.736	2.75
647.495	4.75
648.255	3.75
649.014	2.75
649.774	2.75
650.533	4.75
651.292	1.75
652.051	3.75
652.81	2.75
653.569	4.75
654.328	3.75
655.087	5.75
655.846	3.75
656.604	4.75
657.363	2.75
658.121	5.75
658.88	3.75
659.638	2.75
660.397	1.75
661.155	2.75
661.913	2.75
662.671	2.75
663.429	2.75
664.187	2.75
664.945	1.75
665.703	2.75
666.46	2.75
667.218	4.75
667.976	3.75
668.733	2.75
669.49	-0.25
670.248	2.75
671.005	3.75
671.762	2.75
672.519	2.75
673.276	1.75
674.033	1.75
674.79	3.75
675.547	4.75
676.304	5.75
677.06	1.75
677.817	2.75
678.574	2.75
679.33	2.75
680.086	1.75
680.843	1.75
681.599	2.75
682.355	1.75
683.111	1.75
683.867	2.75
684.623	3.75
685.379	1.75
686.135	2.75
686.89	1.75
687.646	0.75
688.402	3.75
689.157	2.75
689.912	4.75
690.668	1.75
691.423	2.75
692.178	2.75
692.933	2.75
693.688	2.75
694.443	2.75
695.198	2.75
695.953	3.75
696.708	1.75
697.462	3.75
698.217	1.75
698.972	1.75
699.726	0.75
700.48	1.75
701.235	1.75
701.989	0.75
702.743	2.75
703.497	1.75
704.251	0.75
705.005	3.75
705.759	0.75
706.513	2.75
707.266	0.75
708.02	1.75
708.774	1.75
709.527	1.75
710.28	1.75
711.034	1.75
711.787	0.75
712.54	0.75
713.293	2.75
714.046	-1.25
714.799	2.75
715.552	3.75
716.305	1.75
717.058	1.75
717.81	1.75
718.563	3.75
719.315	1.75
720.068	1.75
720.82	1.75
721.573	1.75
722.325	0.75
723.077	1.75
723.829	1.75
724.581	1.75
725.333	3.75
726.085	2.75
726.836	2.75
727.588	1.75
728.34	2.75
729.091	1.75
729.843	1.75
730.594	1.75
731.346	1.75
732.097	1.75
732.848	1.75
733.599	2.75
734.35	2.75
735.101	1.75
735.852	1.75
736.603	3.75
737.354	1.75
738.104	1.75
738.855	2.75
739.605	3.75
740.356	2.75
741.106	2.75
741.856	3.75
742.607	1.75
743.357	2.75
744.107	1.75
744.857	1.75
745.607	3.75
746.357	2.75
747.106	3.75
747.856	1.75
748.606	2.75
749.355	0.75
750.105	3.75
750.854	2.75
751.603	1.75
752.353	2.75
753.102	5.75
753.851	4.75
754.6	2.75
755.349	4.75
756.098	4.75
756.847	3.75
757.595	4.75
758.344	3.75
759.093	2.75
759.841	2.75
760.589	4.75
761.338	3.75
762.086	1.75
762.834	4.75
763.582	1.75
764.331	1.75
765.079	2.75
765.826	6.75
766.574	4.75
767.322	3.75
768.07	3.75
768.817	3.75
769.565	3.75
770.312	4.75
771.06	2.75
771.807	3.75
772.554	3.75
773.302	3.75
774.049	2.75
774.796	5.75
775.543	3.75
776.29	4.75
777.036	2.75
777.783	3.75
778.53	3.75
779.276	2.75
780.023	5.75
780.769	3.75
781.516	2.75
782.262	5.75
783.008	3.75
783.754	1.75
784.5	5.75
785.246	5.75
785.992	2.75
786.738	4.75
787.484	7.75
788.23	5.75
788.975	5.75
789.721	4.75
790.466	4.75
791.212	4.75
791.957	4.75
792.702	2.75
793.447	4.75
794.193	2.75
794.938	5.75
795.683	4.75
796.427	5.75
797.172	4.75
797.917	3.75
798.662	3.75
799.406	4.75
800.151	4.75
800.895	5.75
801.64	2.75
802.384	1.75
803.128	4.75
803.872	4.75
804.616	4.75
805.36	4.75
806.104	2.75
806.848	3.75
807.592	5.75
808.336	2.75
809.079	3.75
809.823	3.75
810.566	1.75
811.31	1.75
812.053	3.75
812.796	4.75
813.539	3.75
814.283	2.75
815.026	2.75
815.769	3.75
816.511	2.75
817.254	2.75
817.997	2.75
818.74	1.75
819.482	3.75
820.225	2.75
820.967	2.75
821.71	3.75
822.452	3.75
823.194	4.75
823.936	3.75
824.678	3.75
825.42	2.75
826.162	2.75
826.904	4.75
827.646	2.75
828.388	2.75
829.129	3.75
829.871	2.75
830.612	2.75
831.354	2.75
832.095	1.75
832.836	2.75
833.577	1.75
834.319	4.75
835.06	3.75
835.801	4.75
836.542	3.75
837.282	1.75
838.023	3.75
838.764	3.75
839.504	3.75
840.245	2.75
840.985	4.75
841.726	1.75
842.466	3.75
843.206	1.75
843.946	3.75
844.687	1.75
845.427	1.75
846.166	2.75
846.906	3.75
847.646	4.75
848.386	0.75
849.125	1.75
849.865	2.75
850.605	3.75
851.344	0.75
852.083	0.75
852.823	3.75
853.562	0.75
854.301	1.75
855.04	2.75
855.779	0.75
856.518	3.75
857.257	2.75
857.995	1.75
858.734	1.75
859.473	3.75
860.211	1.75
860.95	2.75
861.688	2.75
862.426	-1.25
863.165	3.75
863.903	2.75
864.641	1.75
865.379	1.75
866.117	0.75
866.855	1.75
867.593	0.75
868.33	3.75
869.068	2.75
869.806	-0.25
870.543	1.75
871.28	1.75
872.018	1.75
872.755	1.75
873.492	0.75
874.229	1.75
874.967	1.75
875.703	0.75
876.44	-0.25
877.177	2.75
877.914	-0.25
878.651	-0.25
879.387	1.75
880.124	0.75
880.86	0.75
881.597	-2.25
882.333	-1.25
883.069	1.75
883.806	-1.25
884.542	0.75
885.278	-0.25
886.014	2.75
886.749	1.75
887.485	-0.25
888.221	0.75
888.957	0.75
889.692	1.75
890.428	1.75
891.163	3.75
891.899	0.75
892.634	0.75
893.369	1.75
894.104	-0.25
894.839	1.75
895.574	-0.25
896.309	1.75
897.044	-0.25
897.779	1.75
898.514	-0.25
899.248	-0.25
899.983	0.75
900.717	2.75
901.452	1.75
902.186	1.75
902.92	0.75
903.654	-0.25
904.389	0.75
905.123	-0.25
905.857	-1.25
906.59	0.75
907.324	0.75
908.058	0.75
908.792	-1.25
909.525	-0.25
910.259	1.75
910.992	-0.25
911.726	0.75
912.459	1.75
913.192	-0.25
913.925	-0.25
914.658	0.75
915.391	0.75
916.124	-2.25
916.857	3.75
917.59	0.75
918.323	0.75
919.055	2.75
919.788	-0.25
920.521	1.75
921.253	0.75
921.985	1.75
922.718	-0.25
923.45	1.75
924.182	1.75
924.914	1.75
925.646	-1.25
926.378	-0.25
927.11	-1.25
927.841	-1.25
928.573	-1.25
929.305	-0.25
930.036	0.75
930.768	-0.25
931.499	-0.25
932.23	0.75
932.962	1.75
933.693	-0.25
934.424	-0.25
935.155	-0.25
935.886	-0.25
936.617	-1.25
937.348	1.75
938.078	0.75
938.809	-1.25
939.54	1.75
940.27	1.75
941.001	-2.25
941.731	-2.25
942.461	-1.25
943.191	1.75
943.922	0.75
944.652	-1.25
945.382	-1.25
946.112	1.75
946.841	-1.25
947.571	2.75
948.301	0.75
949.031	-1.25
949.76	0.75
950.49	-2.25
951.219	0.75
951.948	-3.25
952.678	-1.25
953.407	1.75
954.136	0.75
954.865	-1.25
955.594	0.75
956.323	0.75
957.052	0.75
957.78	-0.25
958.509	0.75
959.238	1.75
959.966	0.75
960.695	1.75
961.423	1.75
962.151	-0.25
962.88	0.75
963.608	-1.25
964.336	-0.25
965.064	2.75
965.792	-0.25
966.52	0.75
967.247	-1.25
967.975	1.75
968.703	-0.25
969.43	-2.25
970.158	0.75
970.885	-0.25
971.613	1.75
972.34	1.75
973.067	-1.25
973.794	-0.25
974.521	1.75
975.248	0.75
975.975	1.75
976.702	1.75
977.429	1.75
978.156	0.75
978.882	1.75
979.609	0.75
980.335	1.75
981.062	-1.25
981.788	1.75
982.514	-1.25
983.24	2.75
983.967	1.75
984.693	1.75
985.419	1.75
986.144	1.75
986.87	1.75
987.596	-2.25
988.322	1.75
989.047	2.75
989.773	-0.25
990.498	1.75
991.224	-2.25
991.949	2.75
992.674	0.75
993.399	-1.25
994.124	1.75
994.849	0.75
995.574	0.75
996.299	-0.25
997.024	0.75
997.749	-0.25
998.473	0.75
999.198	-0.25
999.922	0.75
1000.647	-1.25
1001.371	2.75
1002.095	-2.25
1002.82	-0.25
1003.544	-1.25
1004.268	0.75
1004.992	-0.25
1005.716	-1.25
1006.439	-0.25
1007.163	0.75
1007.887	-1.25
1008.611	0.75
1009.334	0.75
1010.058	-0.25
1010.781	0.75
1011.504	2.75
1012.228	0.75
1012.951	-0.25
1013.674	-0.25
1014.397	0.75
1015.12	0.75
