节点500_145_QEPB04081__254__11-33-02-463.txt的数据

Date: Wed Nov 12 11:33:02 CST 2025
User: PC
Spectrometer: QEPB0408
触发模式: 0
积分时间 (秒): 1.000000E-2
Scans to average: 1
启用暗噪声校正: true
启用非线性校正: false
滑动平均宽度: 0
X轴模式: Wavelengths
Number of Pixels in Spectrum: 1044
>>>>>Begin Spectral Data<<<<<
220.843	1.5
221.644	-0.5
222.444	1.5
223.244	0.5
224.045	-1.5
224.845	0.5
225.645	0.5
226.445	-0.5
227.245	1.5
228.045	1.5
228.845	-1.5
229.645	1.5
230.444	1.5
231.244	-0.5
232.043	3.5
232.843	2.5
233.642	1.5
234.442	1.5
235.241	-0.5
236.04	2.5
236.839	1.5
237.638	-0.5
238.437	0.5
239.236	0.5
240.035	-1.5
240.833	1.5
241.632	1.5
242.43	-0.5
243.229	4.5
244.027	0.5
244.826	2.5
245.624	1.5
246.422	1.5
247.22	0.5
248.018	1.5
248.816	-0.5
249.614	2.5
250.412	4.5
251.21	0.5
252.007	0.5
252.805	2.5
253.602	2.5
254.4	4.5
255.197	3.5
255.994	3.5
256.791	2.5
257.589	2.5
258.386	5.5
259.183	5.5
259.979	4.5
260.776	2.5
261.573	6.5
262.37	4.5
263.166	2.5
263.963	2.5
264.759	5.5
265.556	5.5
266.352	5.5
267.148	8.5
267.944	3.5
268.74	4.5
269.536	8.5
270.332	6.5
271.128	7.5
271.924	6.5
272.719	9.5
273.515	9.5
274.311	10.5
275.106	9.5
275.901	7.5
276.697	10.5
277.492	10.5
278.287	9.5
279.082	10.5
279.877	10.5
280.672	7.5
281.467	11.5
282.262	9.5
283.056	11.5
283.851	10.5
284.646	10.5
285.44	9.5
286.234	12.5
287.029	9.5
287.823	12.5
288.617	10.5
289.411	9.5
290.205	11.5
290.999	11.5
291.793	9.5
292.587	7.5
293.381	9.5
294.174	11.5
294.968	10.5
295.761	9.5
296.555	9.5
297.348	11.5
298.141	10.5
298.935	10.5
299.728	7.5
300.521	10.5
301.314	6.5
302.107	5.5
302.899	10.5
303.692	10.5
304.485	8.5
305.277	7.5
306.07	7.5
306.862	7.5
307.655	6.5
308.447	10.5
309.239	7.5
310.031	5.5
310.823	7.5
311.615	8.5
312.407	6.5
313.199	5.5
313.991	5.5
314.783	4.5
315.574	5.5
316.366	6.5
317.157	6.5
317.949	4.5
318.74	4.5
319.531	5.5
320.322	5.5
321.113	4.5
321.904	7.5
322.695	5.5
323.486	4.5
324.277	3.5
325.068	6.5
325.858	7.5
326.649	3.5
327.439	4.5
328.23	3.5
329.02	4.5
329.81	3.5
330.6	5.5
331.391	2.5
332.181	4.5
332.971	5.5
333.76	4.5
334.55	4.5
335.34	4.5
336.13	5.5
336.919	4.5
337.709	4.5
338.498	5.5
339.287	5.5
340.077	4.5
340.866	1.5
341.655	4.5
342.444	3.5
343.233	2.5
344.022	2.5
344.811	3.5
345.6	3.5
346.388	4.5
347.177	2.5
347.965	4.5
348.754	5.5
349.542	4.5
350.33	2.5
351.119	5.5
351.907	6.5
352.695	2.5
353.483	2.5
354.271	2.5
355.059	2.5
355.846	2.5
356.634	0.5
357.422	2.5
358.209	5.5
358.997	2.5
359.784	2.5
360.571	4.5
361.359	2.5
362.146	3.5
362.933	2.5
363.72	2.5
364.507	1.5
365.294	3.5
366.081	2.5
366.867	2.5
367.654	2.5
368.44	2.5
369.227	4.5
370.013	0.5
370.8	2.5
371.586	3.5
372.372	1.5
373.158	1.5
373.944	1.5
374.73	3.5
375.516	0.5
376.302	3.5
377.088	3.5
377.873	2.5
378.659	1.5
379.445	3.5
380.23	2.5
381.015	3.5
381.801	2.5
382.586	4.5
383.371	1.5
384.156	2.5
384.941	1.5
385.726	2.5
386.511	4.5
387.296	2.5
388.08	4.5
388.865	2.5
389.649	4.5
390.434	2.5
391.218	1.5
392.003	3.5
392.787	3.5
393.571	2.5
394.355	2.5
395.139	3.5
395.923	4.5
396.707	4.5
397.491	4.5
398.274	1.5
399.058	3.5
399.842	4.5
400.625	3.5
401.408	4.5
402.192	4.5
402.975	1.5
403.758	1.5
404.541	3.5
405.324	6.5
406.107	4.5
406.89	6.5
407.673	2.5
408.456	6.5
409.238	5.5
410.021	3.5
410.803	4.5
411.586	2.5
412.368	7.5
413.151	3.5
413.933	6.5
414.715	7.5
415.497	5.5
416.279	6.5
417.061	7.5
417.843	4.5
418.624	5.5
419.406	6.5
420.188	7.5
420.969	8.5
421.751	6.5
422.532	5.5
423.313	5.5
424.095	4.5
424.876	6.5
425.657	7.5
426.438	5.5
427.219	5.5
428	7.5
428.78	8.5
429.561	8.5
430.342	7.5
431.122	7.5
431.903	6.5
432.683	6.5
433.464	7.5
434.244	12.5
435.024	9.5
435.804	9.5
436.584	9.5
437.364	9.5
438.144	9.5
438.924	12.5
439.704	13.5
440.483	13.5
441.263	10.5
442.042	14.5
442.822	14.5
443.601	13.5
444.38	12.5
445.16	17.5
445.939	15.5
446.718	21.5
447.497	18.5
448.276	18.5
449.054	23.5
449.833	24.5
450.612	27.5
451.391	28.5
452.169	28.5
452.948	31.5
453.726	33.5
454.504	42.5
455.282	37.5
456.061	45.5
456.839	46.5
457.617	51.5
458.395	60.5
459.172	63.5
459.95	73.5
460.728	78.5
461.506	89.5
462.283	99.5
463.061	107.5
463.838	124.5
464.615	138.5
465.393	154.5
466.17	170.5
466.947	189.5
467.724	205.5
468.501	231.5
469.278	265.5
470.055	293.5
470.831	324.5
471.608	369.5
472.385	405.5
473.161	455.5
473.938	503.5
474.714	562.5
475.49	617.5
476.266	694.5
477.043	758.5
477.819	843.5
478.595	935.5
479.371	1024.5
480.146	1150.5
480.922	1261.5
481.698	1412.5
482.473	1529.5
483.249	1704.5
484.024	1878.5
484.8	2080.5
485.575	2291.5
486.35	2510.5
487.126	2767.5
487.901	3082.5
488.676	3383.5
489.451	3716.5
490.225	4102.5
491	4513.5
491.775	4949.5
492.55	5472.5
493.324	5955.5
494.099	6540.5
494.873	7110.5
495.647	7780.5
496.422	8417.5
497.196	9155.5
497.97	9864.5
498.744	10627.5
499.518	11427.5
500.292	12100.5
501.066	12836.5
501.839	13549.5
502.613	14238.5
503.387	14919.5
504.16	15460.5
504.934	15880.5
505.707	16174.5
506.48	16437.5
507.253	16611.5
508.027	16608.5
508.8	16588.5
509.573	16382.5
510.346	16166.5
511.118	15799.5
511.891	15349.5
512.664	14910.5
513.437	14385.5
514.209	13791.5
514.982	13279.5
515.754	12728.5
516.526	12144.5
517.298	11606.5
518.071	11107.5
518.843	10657.5
519.615	10129.5
520.387	9726.5
521.159	9315.5
521.93	8983.5
522.702	8571.5
523.474	8246.5
524.245	7936.5
525.017	7627.5
525.788	7299.5
526.56	7013.5
527.331	6754.5
528.102	6447.5
528.873	6112.5
529.644	5868.5
530.415	5604.5
531.186	5337.5
531.957	5051.5
532.728	4794.5
533.498	4523.5
534.269	4281.5
535.039	4056.5
535.81	3834.5
536.58	3597.5
537.351	3392.5
538.121	3232.5
538.891	3068.5
539.661	2894.5
540.431	2709.5
541.201	2585.5
541.971	2458.5
542.741	2310.5
543.51	2189.5
544.28	2064.5
545.05	1988.5
545.819	1880.5
546.588	1801.5
547.358	1708.5
548.127	1630.5
548.896	1543.5
549.665	1453.5
550.434	1394.5
551.203	1290.5
551.972	1236.5
552.741	1168.5
553.51	1113.5
554.278	1058.5
555.047	997.5
555.815	939.5
556.584	887.5
557.352	829.5
558.121	789.5
558.889	734.5
559.657	708.5
560.425	664.5
561.193	621.5
561.961	588.5
562.729	552.5
563.496	517.5
564.264	492.5
565.032	465.5
565.799	439.5
566.567	411.5
567.334	387.5
568.101	369.5
568.869	354.5
569.636	329.5
570.403	312.5
571.17	290.5
571.937	272.5
572.704	264.5
573.471	245.5
574.237	223.5
575.004	216.5
575.771	204.5
576.537	191.5
577.303	185.5
578.07	171.5
578.836	158.5
579.602	152.5
580.368	145.5
581.134	133.5
581.9	129.5
582.666	119.5
583.432	117.5
584.198	109.5
584.964	103.5
585.729	96.5
586.495	92.5
587.26	87.5
588.025	83.5
588.791	75.5
589.556	71.5
590.321	68.5
591.086	62.5
591.851	63.5
592.616	58.5
593.381	56.5
594.146	55.5
594.911	50.5
595.675	50.5
596.44	45.5
597.204	47.5
597.969	40.5
598.733	39.5
599.497	37.5
600.261	37.5
601.025	35.5
601.79	35.5
602.553	34.5
603.317	33.5
604.081	29.5
604.845	27.5
605.609	25.5
606.372	26.5
607.136	26.5
607.899	22.5
608.662	23.5
609.426	20.5
610.189	22.5
610.952	17.5
611.715	20.5
612.478	17.5
613.241	19.5
614.004	16.5
614.767	18.5
615.529	14.5
616.292	15.5
617.055	15.5
617.817	14.5
618.579	11.5
619.342	12.5
620.104	12.5
620.866	14.5
621.628	12.5
622.39	10.5
623.152	9.5
623.914	9.5
624.676	11.5
625.438	9.5
626.199	9.5
626.961	8.5
627.722	7.5
628.484	8.5
629.245	6.5
630.006	6.5
630.768	7.5
631.529	9.5
632.29	6.5
633.051	6.5
633.812	5.5
634.573	5.5
635.333	8.5
636.094	5.5
636.855	6.5
637.615	5.5
638.376	4.5
639.136	6.5
639.896	7.5
640.657	3.5
641.417	5.5
642.177	7.5
642.937	2.5
643.697	4.5
644.457	6.5
645.216	5.5
645.976	5.5
646.736	3.5
647.495	4.5
648.255	5.5
649.014	4.5
649.774	5.5
650.533	4.5
651.292	4.5
652.051	3.5
652.81	5.5
653.569	1.5
654.328	4.5
655.087	2.5
655.846	4.5
656.604	3.5
657.363	2.5
658.121	3.5
658.88	4.5
659.638	5.5
660.397	4.5
661.155	3.5
661.913	2.5
662.671	2.5
663.429	3.5
664.187	3.5
664.945	4.5
665.703	1.5
666.46	0.5
667.218	2.5
667.976	2.5
668.733	4.5
669.49	2.5
670.248	4.5
671.005	3.5
671.762	0.5
672.519	2.5
673.276	2.5
674.033	4.5
674.79	2.5
675.547	3.5
676.304	2.5
677.06	1.5
677.817	1.5
678.574	1.5
679.33	3.5
680.086	2.5
680.843	0.5
681.599	2.5
682.355	2.5
683.111	2.5
683.867	0.5
684.623	1.5
685.379	2.5
686.135	4.5
686.89	1.5
687.646	1.5
688.402	2.5
689.157	0.5
689.912	2.5
690.668	2.5
691.423	0.5
692.178	3.5
692.933	1.5
693.688	4.5
694.443	0.5
695.198	2.5
695.953	3.5
696.708	2.5
697.462	2.5
698.217	2.5
698.972	0.5
699.726	3.5
700.48	4.5
701.235	1.5
701.989	2.5
702.743	2.5
703.497	3.5
704.251	3.5
705.005	1.5
705.759	-0.5
706.513	2.5
707.266	1.5
708.02	2.5
708.774	1.5
709.527	1.5
710.28	2.5
711.034	0.5
711.787	4.5
712.54	0.5
713.293	1.5
714.046	1.5
714.799	3.5
715.552	1.5
716.305	2.5
717.058	2.5
717.81	2.5
718.563	2.5
719.315	1.5
720.068	3.5
720.82	1.5
721.573	3.5
722.325	3.5
723.077	2.5
723.829	2.5
724.581	2.5
725.333	4.5
726.085	-0.5
726.836	1.5
727.588	2.5
728.34	2.5
729.091	1.5
729.843	2.5
730.594	1.5
731.346	3.5
732.097	1.5
732.848	4.5
733.599	0.5
734.35	2.5
735.101	1.5
735.852	2.5
736.603	1.5
737.354	3.5
738.104	4.5
738.855	0.5
739.605	3.5
740.356	1.5
741.106	3.5
741.856	2.5
742.607	2.5
743.357	3.5
744.107	2.5
744.857	3.5
745.607	4.5
746.357	2.5
747.106	1.5
747.856	3.5
748.606	1.5
749.355	2.5
750.105	1.5
750.854	2.5
751.603	4.5
752.353	1.5
753.102	2.5
753.851	4.5
754.6	3.5
755.349	4.5
756.098	1.5
756.847	3.5
757.595	4.5
758.344	2.5
759.093	4.5
759.841	2.5
760.589	2.5
761.338	3.5
762.086	1.5
762.834	2.5
763.582	4.5
764.331	4.5
765.079	4.5
765.826	3.5
766.574	4.5
767.322	3.5
768.07	2.5
768.817	3.5
769.565	5.5
770.312	4.5
771.06	3.5
771.807	4.5
772.554	2.5
773.302	3.5
774.049	6.5
774.796	5.5
775.543	4.5
776.29	5.5
777.036	6.5
777.783	5.5
778.53	5.5
779.276	5.5
780.023	3.5
780.769	6.5
781.516	4.5
782.262	5.5
783.008	3.5
783.754	7.5
784.5	3.5
785.246	5.5
785.992	3.5
786.738	4.5
787.484	5.5
788.23	6.5
788.975	6.5
789.721	4.5
790.466	6.5
791.212	3.5
791.957	6.5
792.702	5.5
793.447	6.5
794.193	4.5
794.938	5.5
795.683	7.5
796.427	5.5
797.172	6.5
797.917	4.5
798.662	5.5
799.406	4.5
800.151	2.5
800.895	4.5
801.64	4.5
802.384	4.5
803.128	5.5
803.872	4.5
804.616	5.5
805.36	4.5
806.104	6.5
806.848	5.5
807.592	5.5
808.336	3.5
809.079	2.5
809.823	2.5
810.566	2.5
811.31	3.5
812.053	4.5
812.796	6.5
813.539	3.5
814.283	5.5
815.026	3.5
815.769	3.5
816.511	5.5
817.254	2.5
817.997	4.5
818.74	4.5
819.482	2.5
820.225	1.5
820.967	2.5
821.71	0.5
822.452	5.5
823.194	2.5
823.936	1.5
824.678	3.5
825.42	4.5
826.162	1.5
826.904	3.5
827.646	1.5
828.388	4.5
829.129	4.5
829.871	1.5
830.612	1.5
831.354	1.5
832.095	2.5
832.836	4.5
833.577	0.5
834.319	2.5
835.06	0.5
835.801	1.5
836.542	4.5
837.282	2.5
838.023	1.5
838.764	3.5
839.504	3.5
840.245	1.5
840.985	1.5
841.726	2.5
842.466	2.5
843.206	4.5
843.946	3.5
844.687	3.5
845.427	1.5
846.166	2.5
846.906	0.5
847.646	4.5
848.386	2.5
849.125	1.5
849.865	2.5
850.605	1.5
851.344	1.5
852.083	2.5
852.823	2.5
853.562	3.5
854.301	2.5
855.04	2.5
855.779	1.5
856.518	0.5
857.257	0.5
857.995	-1.5
858.734	1.5
859.473	1.5
860.211	1.5
860.95	2.5
861.688	2.5
862.426	1.5
863.165	3.5
863.903	2.5
864.641	1.5
865.379	1.5
866.117	-0.5
866.855	3.5
867.593	1.5
868.33	1.5
869.068	2.5
869.806	0.5
870.543	0.5
871.28	-0.5
872.018	1.5
872.755	0.5
873.492	1.5
874.229	3.5
874.967	1.5
875.703	1.5
876.44	-0.5
877.177	2.5
877.914	1.5
878.651	1.5
879.387	2.5
880.124	2.5
880.86	1.5
881.597	-0.5
882.333	0.5
883.069	-0.5
883.806	1.5
884.542	1.5
885.278	2.5
886.014	3.5
886.749	0.5
887.485	0.5
888.221	1.5
888.957	-0.5
889.692	0.5
890.428	1.5
891.163	2.5
891.899	0.5
892.634	1.5
893.369	1.5
894.104	-2.5
894.839	2.5
895.574	-1.5
896.309	0.5
897.044	0.5
897.779	3.5
898.514	0.5
899.248	2.5
899.983	0.5
900.717	-1.5
901.452	-1.5
902.186	0.5
902.92	0.5
903.654	-1.5
904.389	-0.5
905.123	1.5
905.857	0.5
906.59	0.5
907.324	1.5
908.058	-0.5
908.792	1.5
909.525	-1.5
910.259	-0.5
910.992	2.5
911.726	-1.5
912.459	1.5
913.192	2.5
913.925	1.5
914.658	-0.5
915.391	1.5
916.124	-1.5
916.857	3.5
917.59	0.5
918.323	0.5
919.055	0.5
919.788	-2.5
920.521	0.5
921.253	1.5
921.985	2.5
922.718	1.5
923.45	-0.5
924.182	-1.5
924.914	1.5
925.646	1.5
926.378	-1.5
927.11	1.5
927.841	-0.5
928.573	-0.5
929.305	1.5
930.036	1.5
930.768	1.5
931.499	1.5
932.23	1.5
932.962	0.5
933.693	0.5
934.424	-0.5
935.155	1.5
935.886	1.5
936.617	-1.5
937.348	0.5
938.078	1.5
938.809	-0.5
939.54	0.5
940.27	-1.5
941.001	3.5
941.731	1.5
942.461	1.5
943.191	1.5
943.922	-2.5
944.652	0.5
945.382	1.5
946.112	1.5
946.841	2.5
947.571	2.5
948.301	-1.5
949.031	0.5
949.76	2.5
950.49	-1.5
951.219	2.5
951.948	-0.5
952.678	1.5
953.407	1.5
954.136	1.5
954.865	2.5
955.594	0.5
956.323	-0.5
957.052	0.5
957.78	1.5
958.509	2.5
959.238	-0.5
959.966	1.5
960.695	1.5
961.423	-0.5
962.151	-0.5
962.88	-1.5
963.608	0.5
964.336	1.5
965.064	3.5
965.792	0.5
966.52	2.5
967.247	1.5
967.975	-0.5
968.703	0.5
969.43	0.5
970.158	1.5
970.885	-1.5
971.613	2.5
972.34	-0.5
973.067	-0.5
973.794	-1.5
974.521	-1.5
975.248	1.5
975.975	1.5
976.702	2.5
977.429	1.5
978.156	0.5
978.882	1.5
979.609	-1.5
980.335	2.5
981.062	0.5
981.788	1.5
982.514	-1.5
983.24	-0.5
983.967	0.5
984.693	-0.5
985.419	-0.5
986.144	1.5
986.87	0.5
987.596	0.5
988.322	-0.5
989.047	3.5
989.773	-0.5
990.498	1.5
991.224	3.5
991.949	1.5
992.674	1.5
993.399	0.5
994.124	2.5
994.849	0.5
995.574	1.5
996.299	0.5
997.024	-0.5
997.749	1.5
998.473	0.5
999.198	0.5
999.922	0.5
1000.647	-1.5
1001.371	2.5
1002.095	-2.5
1002.82	-0.5
1003.544	-0.5
1004.268	0.5
1004.992	0.5
1005.716	-1.5
1006.439	1.5
1007.163	-2.5
1007.887	-1.5
1008.611	0.5
1009.334	0.5
1010.058	-1.5
1010.781	-0.5
1011.504	-1.5
1012.228	-0.5
1012.951	1.5
1013.674	0.5
1014.397	-0.5
1015.12	-0.5
