节点500_145_QEPB04081__695__11-39-58-747.txt的数据

Date: Wed Nov 12 11:39:58 CST 2025
User: PC
Spectrometer: QEPB0408
触发模式: 0
积分时间 (秒): 1.000000E-2
Scans to average: 1
启用暗噪声校正: true
启用非线性校正: false
滑动平均宽度: 0
X轴模式: Wavelengths
Number of Pixels in Spectrum: 1044
>>>>>Begin Spectral Data<<<<<
220.843	-2
221.644	-1
222.444	-3
223.244	0
224.045	0
224.845	0
225.645	1
226.445	1
227.245	0
228.045	1
228.845	2
229.645	1
230.444	0
231.244	1
232.043	0
232.843	-1
233.642	-1
234.442	0
235.241	0
236.04	-1
236.839	-2
237.638	0
238.437	1
239.236	2
240.035	3
240.833	1
241.632	0
242.43	2
243.229	0
244.027	0
244.826	1
245.624	2
246.422	1
247.22	0
248.018	1
248.816	0
249.614	3
250.412	5
251.21	2
252.007	1
252.805	-1
253.602	4
254.4	2
255.197	5
255.994	1
256.791	1
257.589	7
258.386	4
259.183	1
259.979	3
260.776	4
261.573	4
262.37	4
263.166	2
263.963	3
264.759	7
265.556	4
266.352	4
267.148	5
267.944	5
268.74	5
269.536	6
270.332	6
271.128	5
271.924	7
272.719	5
273.515	4
274.311	7
275.106	7
275.901	7
276.697	6
277.492	6
278.287	8
279.082	8
279.877	8
280.672	6
281.467	11
282.262	9
283.056	9
283.851	9
284.646	7
285.44	10
286.234	7
287.029	11
287.823	10
288.617	11
289.411	9
290.205	9
290.999	11
291.793	7
292.587	10
293.381	7
294.174	7
294.968	9
295.761	10
296.555	9
297.348	9
298.141	9
298.935	12
299.728	9
300.521	8
301.314	7
302.107	9
302.899	7
303.692	8
304.485	6
305.277	9
306.07	7
306.862	7
307.655	8
308.447	7
309.239	7
310.031	6
310.823	6
311.615	6
312.407	4
313.199	4
313.991	5
314.783	5
315.574	7
316.366	4
317.157	6
317.949	4
318.74	4
319.531	4
320.322	5
321.113	6
321.904	3
322.695	5
323.486	4
324.277	3
325.068	6
325.858	7
326.649	3
327.439	3
328.23	5
329.02	1
329.81	3
330.6	2
331.391	6
332.181	1
332.971	3
333.76	4
334.55	5
335.34	3
336.13	4
336.919	2
337.709	2
338.498	2
339.287	2
340.077	3
340.866	6
341.655	5
342.444	3
343.233	5
344.022	4
344.811	2
345.6	4
346.388	3
347.177	4
347.965	3
348.754	3
349.542	1
350.33	3
351.119	4
351.907	4
352.695	5
353.483	1
354.271	3
355.059	3
355.846	3
356.634	3
357.422	3
358.209	3
358.997	2
359.784	3
360.571	2
361.359	4
362.146	3
362.933	4
363.72	2
364.507	3
365.294	2
366.081	1
366.867	3
367.654	4
368.44	4
369.227	2
370.013	1
370.8	2
371.586	3
372.372	3
373.158	1
373.944	2
374.73	2
375.516	2
376.302	1
377.088	4
377.873	3
378.659	3
379.445	1
380.23	3
381.015	3
381.801	4
382.586	3
383.371	5
384.156	2
384.941	3
385.726	2
386.511	2
387.296	2
388.08	0
388.865	3
389.649	2
390.434	2
391.218	3
392.003	3
392.787	3
393.571	3
394.355	3
395.139	3
395.923	3
396.707	4
397.491	3
398.274	3
399.058	4
399.842	1
400.625	2
401.408	4
402.192	2
402.975	2
403.758	3
404.541	3
405.324	2
406.107	5
406.89	4
407.673	2
408.456	2
409.238	4
410.021	3
410.803	4
411.586	5
412.368	2
413.151	6
413.933	4
414.715	5
415.497	4
416.279	5
417.061	5
417.843	5
418.624	5
419.406	4
420.188	5
420.969	4
421.751	5
422.532	6
423.313	4
424.095	6
424.876	5
425.657	7
426.438	4
427.219	9
428	8
428.78	5
429.561	6
430.342	5
431.122	7
431.903	8
432.683	9
433.464	7
434.244	6
435.024	8
435.804	7
436.584	8
437.364	8
438.144	7
438.924	9
439.704	9
440.483	12
441.263	12
442.042	13
442.822	12
443.601	14
444.38	15
445.16	15
445.939	15
446.718	20
447.497	21
448.276	16
449.054	23
449.833	24
450.612	25
451.391	30
452.169	31
452.948	37
453.726	38
454.504	42
455.282	47
456.061	50
456.839	54
457.617	63
458.395	73
459.172	76
459.95	85
460.728	94
461.506	104
462.283	114
463.061	128
463.838	141
464.615	158
465.393	181
466.17	193
466.947	218
467.724	243
468.501	269
469.278	292
470.055	328
470.831	359
471.608	409
472.385	443
473.161	491
473.938	546
474.714	598
475.49	663
476.266	720
477.043	806
477.819	885
478.595	962
479.371	1058
480.146	1164
480.922	1279
481.698	1393
482.473	1528
483.249	1653
484.024	1830
484.8	1982
485.575	2181
486.35	2372
487.126	2601
487.901	2854
488.676	3090
489.451	3376
490.225	3692
491	4012
491.775	4361
492.55	4768
493.324	5188
494.099	5639
494.873	6087
495.647	6609
496.422	7180
497.196	7742
497.97	8307
498.744	8984
499.518	9552
500.292	10234
501.066	10819
501.839	11438
502.613	12075
503.387	12630
504.16	13187
504.934	13658
505.707	14054
506.48	14366
507.253	14649
508.027	14905
508.8	14970
509.573	14980
510.346	14965
511.118	14819
511.891	14590
512.664	14281
513.437	13892
514.209	13520
514.982	13068
515.754	12606
516.526	12155
517.298	11652
518.071	11206
518.843	10732
519.615	10269
520.387	9837
521.159	9430
521.93	9104
522.702	8730
523.474	8372
524.245	8066
525.017	7735
525.788	7429
526.56	7126
527.331	6866
528.102	6590
528.873	6313
529.644	6083
530.415	5808
531.186	5551
531.957	5292
532.728	5002
533.498	4757
534.269	4537
535.039	4277
535.81	4052
536.58	3849
537.351	3642
538.121	3421
538.891	3273
539.661	3111
540.431	2922
541.201	2762
541.971	2606
542.741	2484
543.51	2346
544.28	2232
545.05	2102
545.819	1996
546.588	1920
547.358	1798
548.127	1724
548.896	1644
549.665	1558
550.434	1464
551.203	1410
551.972	1346
552.741	1269
553.51	1203
554.278	1137
555.047	1073
555.815	1015
556.584	965
557.352	908
558.121	850
558.889	816
559.657	764
560.425	723
561.193	684
561.961	634
562.729	597
563.496	574
564.264	544
565.032	513
565.799	473
566.567	448
567.334	425
568.101	404
568.869	379
569.636	355
570.403	338
571.17	322
571.937	306
572.704	285
573.471	275
574.237	256
575.004	235
575.771	231
576.537	213
577.303	201
578.07	190
578.836	177
579.602	167
580.368	154
581.134	151
581.9	142
582.666	132
583.432	125
584.198	122
584.964	112
585.729	110
586.495	101
587.26	96
588.025	90
588.791	83
589.556	81
590.321	80
591.086	76
591.851	71
592.616	64
593.381	63
594.146	60
594.911	56
595.675	53
596.44	54
597.204	49
597.969	46
598.733	42
599.497	41
600.261	38
601.025	39
601.79	36
602.553	33
603.317	35
604.081	30
604.845	31
605.609	29
606.372	28
607.136	28
607.899	26
608.662	26
609.426	22
610.189	21
610.952	21
611.715	23
612.478	19
613.241	20
614.004	19
614.767	17
615.529	18
616.292	15
617.055	13
617.817	14
618.579	12
619.342	13
620.104	15
620.866	11
621.628	12
622.39	12
623.152	12
623.914	9
624.676	11
625.438	9
626.199	12
626.961	10
627.722	9
628.484	7
629.245	9
630.006	7
630.768	7
631.529	8
632.29	10
633.051	6
633.812	9
634.573	7
635.333	9
636.094	8
636.855	5
637.615	7
638.376	6
639.136	5
639.896	5
640.657	6
641.417	5
642.177	5
642.937	6
643.697	4
644.457	4
645.216	5
645.976	6
646.736	5
647.495	6
648.255	4
649.014	2
649.774	4
650.533	5
651.292	1
652.051	4
652.81	5
653.569	3
654.328	4
655.087	4
655.846	1
656.604	2
657.363	5
658.121	3
658.88	4
659.638	2
660.397	3
661.155	2
661.913	3
662.671	4
663.429	2
664.187	3
664.945	2
665.703	3
666.46	3
667.218	3
667.976	1
668.733	1
669.49	4
670.248	1
671.005	2
671.762	2
672.519	2
673.276	4
674.033	1
674.79	4
675.547	1
676.304	3
677.06	0
677.817	3
678.574	1
679.33	2
680.086	4
680.843	3
681.599	5
682.355	1
683.111	2
683.867	3
684.623	2
685.379	4
686.135	3
686.89	1
687.646	0
688.402	3
689.157	1
689.912	0
690.668	4
691.423	2
692.178	2
692.933	2
693.688	0
694.443	2
695.198	0
695.953	2
696.708	3
697.462	2
698.217	1
698.972	2
699.726	2
700.48	2
701.235	2
701.989	2
702.743	2
703.497	1
704.251	1
705.005	4
705.759	2
706.513	2
707.266	1
708.02	2
708.774	2
709.527	1
710.28	2
711.034	2
711.787	2
712.54	1
713.293	3
714.046	4
714.799	1
715.552	2
716.305	2
717.058	2
717.81	4
718.563	3
719.315	1
720.068	1
720.82	2
721.573	-1
722.325	4
723.077	1
723.829	0
724.581	3
725.333	2
726.085	2
726.836	1
727.588	1
728.34	2
729.091	4
729.843	2
730.594	1
731.346	3
732.097	1
732.848	4
733.599	0
734.35	1
735.101	3
735.852	1
736.603	2
737.354	2
738.104	1
738.855	2
739.605	1
740.356	0
741.106	2
741.856	2
742.607	2
743.357	2
744.107	2
744.857	2
745.607	2
746.357	1
747.106	3
747.856	2
748.606	1
749.355	2
750.105	2
750.854	5
751.603	3
752.353	4
753.102	2
753.851	1
754.6	3
755.349	1
756.098	0
756.847	2
757.595	1
758.344	0
759.093	4
759.841	2
760.589	5
761.338	4
762.086	2
762.834	4
763.582	3
764.331	1
765.079	4
765.826	2
766.574	2
767.322	2
768.07	4
768.817	3
769.565	5
770.312	5
771.06	1
771.807	3
772.554	1
773.302	5
774.049	2
774.796	3
775.543	6
776.29	3
777.036	2
777.783	5
778.53	5
779.276	4
780.023	3
780.769	4
781.516	2
782.262	5
783.008	4
783.754	6
784.5	4
785.246	6
785.992	4
786.738	2
787.484	3
788.23	3
788.975	6
789.721	5
790.466	5
791.212	3
791.957	3
792.702	4
793.447	5
794.193	4
794.938	3
795.683	3
796.427	5
797.172	5
797.917	3
798.662	5
799.406	5
800.151	5
800.895	4
801.64	3
802.384	4
803.128	4
803.872	3
804.616	2
805.36	5
806.104	5
806.848	4
807.592	3
808.336	5
809.079	4
809.823	2
810.566	5
811.31	3
812.053	5
812.796	4
813.539	4
814.283	2
815.026	5
815.769	-1
816.511	1
817.254	4
817.997	2
818.74	3
819.482	2
820.225	1
820.967	3
821.71	3
822.452	3
823.194	3
823.936	5
824.678	2
825.42	3
826.162	1
826.904	1
827.646	4
828.388	4
829.129	3
829.871	2
830.612	2
831.354	3
832.095	0
832.836	3
833.577	0
834.319	5
835.06	1
835.801	2
836.542	2
837.282	1
838.023	3
838.764	0
839.504	2
840.245	2
840.985	3
841.726	2
842.466	1
843.206	2
843.946	0
844.687	1
845.427	0
846.166	1
846.906	3
847.646	0
848.386	1
849.125	1
849.865	1
850.605	2
851.344	1
852.083	1
852.823	1
853.562	2
854.301	1
855.04	2
855.779	0
856.518	1
857.257	1
857.995	1
858.734	3
859.473	2
860.211	3
860.95	1
861.688	2
862.426	2
863.165	0
863.903	1
864.641	1
865.379	2
866.117	4
866.855	0
867.593	3
868.33	1
869.068	0
869.806	1
870.543	2
871.28	-2
872.018	0
872.755	1
873.492	-2
874.229	2
874.967	-1
875.703	1
876.44	1
877.177	0
877.914	0
878.651	0
879.387	0
880.124	0
880.86	2
881.597	0
882.333	1
883.069	2
883.806	-1
884.542	1
885.278	0
886.014	-1
886.749	0
887.485	1
888.221	0
888.957	0
889.692	1
890.428	1
891.163	0
891.899	1
892.634	0
893.369	0
894.104	-1
894.839	1
895.574	-1
896.309	1
897.044	0
897.779	0
898.514	1
899.248	0
899.983	2
900.717	0
901.452	-2
902.186	1
902.92	1
903.654	2
904.389	0
905.123	1
905.857	1
906.59	0
907.324	-1
908.058	1
908.792	3
909.525	1
910.259	0
910.992	0
911.726	-1
912.459	-2
913.192	-2
913.925	2
914.658	-2
915.391	0
916.124	0
916.857	1
917.59	1
918.323	0
919.055	0
919.788	1
920.521	0
921.253	2
921.985	-1
922.718	0
923.45	-2
924.182	-1
924.914	0
925.646	-2
926.378	-1
927.11	1
927.841	0
928.573	-2
929.305	-1
930.036	1
930.768	-2
931.499	-1
932.23	0
932.962	-1
933.693	1
934.424	-2
935.155	-1
935.886	0
936.617	0
937.348	-3
938.078	0
938.809	1
939.54	1
940.27	-1
941.001	0
941.731	2
942.461	-2
943.191	1
943.922	2
944.652	4
945.382	1
946.112	1
946.841	1
947.571	-1
948.301	0
949.031	-2
949.76	0
950.49	-1
951.219	0
951.948	2
952.678	-2
953.407	0
954.136	-1
954.865	1
955.594	0
956.323	1
957.052	-1
957.78	1
958.509	-1
959.238	0
959.966	1
960.695	1
961.423	2
962.151	2
962.88	-2
963.608	0
964.336	1
965.064	2
965.792	0
966.52	-2
967.247	1
967.975	0
968.703	2
969.43	-1
970.158	1
970.885	1
971.613	-1
972.34	-2
973.067	0
973.794	-1
974.521	0
975.248	0
975.975	0
976.702	-2
977.429	1
978.156	-2
978.882	-1
979.609	1
980.335	0
981.062	-2
981.788	0
982.514	1
983.24	-1
983.967	2
984.693	0
985.419	1
986.144	0
986.87	-1
987.596	-1
988.322	-2
989.047	0
989.773	2
990.498	1
991.224	-2
991.949	-1
992.674	0
993.399	0
994.124	0
994.849	0
995.574	0
996.299	1
997.024	-2
997.749	-1
998.473	0
999.198	0
999.922	0
1000.647	-2
1001.371	5
1002.095	-2
1002.82	1
1003.544	-1
1004.268	0
1004.992	-1
1005.716	0
1006.439	-1
1007.163	-3
1007.887	-3
1008.611	-1
1009.334	1
1010.058	1
1010.781	-2
1011.504	0
1012.228	1
1012.951	-1
1013.674	-1
1014.397	-2
1015.12	1
