节点500_145_QEPB04081__546__11-37-37-454.txt的数据

Date: Wed Nov 12 11:37:37 CST 2025
User: PC
Spectrometer: QEPB0408
触发模式: 0
积分时间 (秒): 1.000000E-2
Scans to average: 1
启用暗噪声校正: true
启用非线性校正: false
滑动平均宽度: 0
X轴模式: Wavelengths
Number of Pixels in Spectrum: 1044
>>>>>Begin Spectral Data<<<<<
220.843	0.12
221.644	0.12
222.444	2.12
223.244	1.12
224.045	1.12
224.845	0.12
225.645	0.12
226.445	1.12
227.245	-0.88
228.045	3.12
228.845	-0.88
229.645	0.12
230.444	1.12
231.244	-0.88
232.043	1.12
232.843	0.12
233.642	2.12
234.442	0.12
235.241	1.12
236.04	1.12
236.839	0.12
237.638	1.12
238.437	0.12
239.236	0.12
240.035	2.12
240.833	2.12
241.632	-0.88
242.43	2.12
243.229	1.12
244.027	1.12
244.826	4.12
245.624	4.12
246.422	2.12
247.22	2.12
248.018	2.12
248.816	3.12
249.614	1.12
250.412	5.12
251.21	4.12
252.007	2.12
252.805	2.12
253.602	2.12
254.4	2.12
255.197	3.12
255.994	3.12
256.791	2.12
257.589	2.12
258.386	4.12
259.183	2.12
259.979	6.12
260.776	2.12
261.573	5.12
262.37	3.12
263.166	5.12
263.963	3.12
264.759	3.12
265.556	5.12
266.352	4.12
267.148	5.12
267.944	4.12
268.74	5.12
269.536	7.12
270.332	7.12
271.128	4.12
271.924	8.12
272.719	7.12
273.515	6.12
274.311	7.12
275.106	9.12
275.901	5.12
276.697	10.12
277.492	9.12
278.287	6.12
279.082	8.12
279.877	9.12
280.672	9.12
281.467	10.12
282.262	9.12
283.056	9.12
283.851	8.12
284.646	8.12
285.44	10.12
286.234	11.12
287.029	9.12
287.823	10.12
288.617	9.12
289.411	8.12
290.205	9.12
290.999	9.12
291.793	10.12
292.587	10.12
293.381	10.12
294.174	9.12
294.968	9.12
295.761	11.12
296.555	9.12
297.348	9.12
298.141	10.12
298.935	10.12
299.728	8.12
300.521	9.12
301.314	8.12
302.107	6.12
302.899	10.12
303.692	8.12
304.485	10.12
305.277	8.12
306.07	7.12
306.862	5.12
307.655	6.12
308.447	9.12
309.239	7.12
310.031	6.12
310.823	8.12
311.615	6.12
312.407	7.12
313.199	4.12
313.991	5.12
314.783	5.12
315.574	7.12
316.366	6.12
317.157	5.12
317.949	7.12
318.74	5.12
319.531	3.12
320.322	4.12
321.113	5.12
321.904	5.12
322.695	2.12
323.486	3.12
324.277	5.12
325.068	4.12
325.858	7.12
326.649	2.12
327.439	5.12
328.23	2.12
329.02	6.12
329.81	5.12
330.6	3.12
331.391	3.12
332.181	3.12
332.971	2.12
333.76	3.12
334.55	5.12
335.34	3.12
336.13	3.12
336.919	3.12
337.709	3.12
338.498	3.12
339.287	2.12
340.077	0.12
340.866	5.12
341.655	5.12
342.444	2.12
343.233	4.12
344.022	3.12
344.811	0.12
345.6	4.12
346.388	5.12
347.177	3.12
347.965	1.12
348.754	3.12
349.542	4.12
350.33	4.12
351.119	5.12
351.907	5.12
352.695	3.12
353.483	1.12
354.271	5.12
355.059	2.12
355.846	1.12
356.634	4.12
357.422	1.12
358.209	5.12
358.997	3.12
359.784	3.12
360.571	3.12
361.359	3.12
362.146	5.12
362.933	4.12
363.72	1.12
364.507	3.12
365.294	2.12
366.081	3.12
366.867	1.12
367.654	3.12
368.44	0.12
369.227	0.12
370.013	3.12
370.8	1.12
371.586	3.12
372.372	-0.88
373.158	2.12
373.944	2.12
374.73	2.12
375.516	3.12
376.302	3.12
377.088	3.12
377.873	-1.88
378.659	2.12
379.445	2.12
380.23	4.12
381.015	3.12
381.801	1.12
382.586	2.12
383.371	0.12
384.156	2.12
384.941	2.12
385.726	2.12
386.511	3.12
387.296	2.12
388.08	6.12
388.865	2.12
389.649	3.12
390.434	4.12
391.218	4.12
392.003	4.12
392.787	3.12
393.571	1.12
394.355	1.12
395.139	3.12
395.923	1.12
396.707	3.12
397.491	0.12
398.274	0.12
399.058	1.12
399.842	5.12
400.625	4.12
401.408	4.12
402.192	1.12
402.975	3.12
403.758	3.12
404.541	5.12
405.324	4.12
406.107	7.12
406.89	5.12
407.673	3.12
408.456	4.12
409.238	5.12
410.021	4.12
410.803	5.12
411.586	3.12
412.368	4.12
413.151	3.12
413.933	5.12
414.715	4.12
415.497	4.12
416.279	2.12
417.061	2.12
417.843	6.12
418.624	4.12
419.406	5.12
420.188	4.12
420.969	7.12
421.751	6.12
422.532	5.12
423.313	7.12
424.095	5.12
424.876	5.12
425.657	5.12
426.438	7.12
427.219	7.12
428	7.12
428.78	7.12
429.561	6.12
430.342	9.12
431.122	8.12
431.903	6.12
432.683	5.12
433.464	7.12
434.244	8.12
435.024	6.12
435.804	8.12
436.584	8.12
437.364	10.12
438.144	12.12
438.924	9.12
439.704	11.12
440.483	13.12
441.263	13.12
442.042	14.12
442.822	14.12
443.601	15.12
444.38	13.12
445.16	16.12
445.939	17.12
446.718	18.12
447.497	21.12
448.276	19.12
449.054	21.12
449.833	26.12
450.612	25.12
451.391	28.12
452.169	29.12
452.948	32.12
453.726	39.12
454.504	40.12
455.282	40.12
456.061	49.12
456.839	50.12
457.617	59.12
458.395	65.12
459.172	79.12
459.95	82.12
460.728	87.12
461.506	98.12
462.283	113.12
463.061	125.12
463.838	133.12
464.615	152.12
465.393	168.12
466.17	185.12
466.947	201.12
467.724	226.12
468.501	263.12
469.278	293.12
470.055	316.12
470.831	350.12
471.608	386.12
472.385	437.12
473.161	474.12
473.938	528.12
474.714	593.12
475.49	654.12
476.266	729.12
477.043	794.12
477.819	862.12
478.595	956.12
479.371	1059.12
480.146	1144.12
480.922	1267.12
481.698	1407.12
482.473	1545.12
483.249	1682.12
484.024	1843.12
484.8	2021.12
485.575	2226.12
486.35	2434.12
487.126	2672.12
487.901	2935.12
488.676	3211.12
489.451	3505.12
490.225	3841.12
491	4186.12
491.775	4591.12
492.55	5014.12
493.324	5467.12
494.099	5927.12
494.873	6465.12
495.647	7003.12
496.422	7611.12
497.196	8232.12
497.97	8845.12
498.744	9564.12
499.518	10203.12
500.292	10888.12
501.066	11536.12
501.839	12257.12
502.613	12821.12
503.387	13388.12
504.16	14008.12
504.934	14500.12
505.707	14858.12
506.48	15151.12
507.253	15405.12
508.027	15578.12
508.8	15643.12
509.573	15594.12
510.346	15452.12
511.118	15232.12
511.891	14884.12
512.664	14535.12
513.437	14145.12
514.209	13667.12
514.982	13167.12
515.754	12783.12
516.526	12227.12
517.298	11718.12
518.071	11179.12
518.843	10720.12
519.615	10294.12
520.387	9872.12
521.159	9458.12
521.93	9075.12
522.702	8711.12
523.474	8405.12
524.245	8061.12
525.017	7748.12
525.788	7389.12
526.56	7139.12
527.331	6859.12
528.102	6541.12
528.873	6268.12
529.644	5988.12
530.415	5755.12
531.186	5461.12
531.957	5224.12
532.728	4951.12
533.498	4715.12
534.269	4464.12
535.039	4226.12
535.81	4004.12
536.58	3784.12
537.351	3587.12
538.121	3392.12
538.891	3230.12
539.661	3014.12
540.431	2857.12
541.201	2719.12
541.971	2549.12
542.741	2432.12
543.51	2305.12
544.28	2181.12
545.05	2076.12
545.819	1962.12
546.588	1855.12
547.358	1780.12
548.127	1693.12
548.896	1607.12
549.665	1527.12
550.434	1454.12
551.203	1386.12
551.972	1318.12
552.741	1220.12
553.51	1171.12
554.278	1115.12
555.047	1055.12
555.815	1002.12
556.584	942.12
557.352	903.12
558.121	830.12
558.889	785.12
559.657	739.12
560.425	701.12
561.193	654.12
561.961	632.12
562.729	585.12
563.496	564.12
564.264	528.12
565.032	496.12
565.799	468.12
566.567	443.12
567.334	422.12
568.101	386.12
568.869	371.12
569.636	351.12
570.403	338.12
571.17	308.12
571.937	290.12
572.704	277.12
573.471	263.12
574.237	251.12
575.004	236.12
575.771	221.12
576.537	207.12
577.303	190.12
578.07	182.12
578.836	166.12
579.602	158.12
580.368	153.12
581.134	144.12
581.9	136.12
582.666	132.12
583.432	122.12
584.198	116.12
584.964	113.12
585.729	106.12
586.495	97.12
587.26	91.12
588.025	85.12
588.791	82.12
589.556	79.12
590.321	76.12
591.086	68.12
591.851	67.12
592.616	65.12
593.381	57.12
594.146	57.12
594.911	54.12
595.675	50.12
596.44	49.12
597.204	46.12
597.969	47.12
598.733	41.12
599.497	40.12
600.261	39.12
601.025	37.12
601.79	37.12
602.553	34.12
603.317	33.12
604.081	30.12
604.845	30.12
605.609	28.12
606.372	25.12
607.136	26.12
607.899	26.12
608.662	24.12
609.426	23.12
610.189	22.12
610.952	20.12
611.715	22.12
612.478	17.12
613.241	19.12
614.004	17.12
614.767	15.12
615.529	17.12
616.292	15.12
617.055	13.12
617.817	15.12
618.579	13.12
619.342	17.12
620.104	13.12
620.866	13.12
621.628	12.12
622.39	12.12
623.152	7.12
623.914	11.12
624.676	11.12
625.438	11.12
626.199	8.12
626.961	6.12
627.722	8.12
628.484	10.12
629.245	9.12
630.006	9.12
630.768	6.12
631.529	7.12
632.29	5.12
633.051	8.12
633.812	4.12
634.573	9.12
635.333	6.12
636.094	4.12
636.855	7.12
637.615	8.12
638.376	6.12
639.136	6.12
639.896	6.12
640.657	5.12
641.417	5.12
642.177	5.12
642.937	4.12
643.697	5.12
644.457	5.12
645.216	5.12
645.976	5.12
646.736	5.12
647.495	6.12
648.255	4.12
649.014	5.12
649.774	5.12
650.533	5.12
651.292	3.12
652.051	4.12
652.81	5.12
653.569	2.12
654.328	5.12
655.087	5.12
655.846	2.12
656.604	2.12
657.363	3.12
658.121	4.12
658.88	4.12
659.638	5.12
660.397	2.12
661.155	2.12
661.913	5.12
662.671	2.12
663.429	3.12
664.187	1.12
664.945	2.12
665.703	1.12
666.46	1.12
667.218	4.12
667.976	2.12
668.733	3.12
669.49	2.12
670.248	3.12
671.005	3.12
671.762	3.12
672.519	5.12
673.276	1.12
674.033	2.12
674.79	1.12
675.547	1.12
676.304	3.12
677.06	3.12
677.817	1.12
678.574	3.12
679.33	3.12
680.086	1.12
680.843	-0.88
681.599	2.12
682.355	2.12
683.111	2.12
683.867	3.12
684.623	2.12
685.379	2.12
686.135	2.12
686.89	2.12
687.646	3.12
688.402	3.12
689.157	0.12
689.912	1.12
690.668	1.12
691.423	1.12
692.178	1.12
692.933	3.12
693.688	3.12
694.443	3.12
695.198	2.12
695.953	2.12
696.708	2.12
697.462	2.12
698.217	0.12
698.972	1.12
699.726	2.12
700.48	3.12
701.235	3.12
701.989	0.12
702.743	2.12
703.497	-0.88
704.251	2.12
705.005	3.12
705.759	0.12
706.513	2.12
707.266	3.12
708.02	2.12
708.774	1.12
709.527	3.12
710.28	1.12
711.034	2.12
711.787	2.12
712.54	2.12
713.293	1.12
714.046	0.12
714.799	3.12
715.552	0.12
716.305	3.12
717.058	0.12
717.81	1.12
718.563	2.12
719.315	3.12
720.068	2.12
720.82	1.12
721.573	2.12
722.325	3.12
723.077	0.12
723.829	2.12
724.581	4.12
725.333	2.12
726.085	1.12
726.836	3.12
727.588	2.12
728.34	1.12
729.091	2.12
729.843	4.12
730.594	1.12
731.346	2.12
732.097	3.12
732.848	1.12
733.599	2.12
734.35	1.12
735.101	3.12
735.852	4.12
736.603	0.12
737.354	3.12
738.104	3.12
738.855	3.12
739.605	3.12
740.356	2.12
741.106	3.12
741.856	2.12
742.607	1.12
743.357	4.12
744.107	2.12
744.857	2.12
745.607	1.12
746.357	4.12
747.106	3.12
747.856	3.12
748.606	3.12
749.355	4.12
750.105	2.12
750.854	2.12
751.603	3.12
752.353	3.12
753.102	4.12
753.851	4.12
754.6	0.12
755.349	2.12
756.098	3.12
756.847	4.12
757.595	4.12
758.344	3.12
759.093	3.12
759.841	2.12
760.589	2.12
761.338	1.12
762.086	3.12
762.834	3.12
763.582	2.12
764.331	5.12
765.079	1.12
765.826	5.12
766.574	2.12
767.322	1.12
768.07	3.12
768.817	2.12
769.565	5.12
770.312	4.12
771.06	4.12
771.807	4.12
772.554	4.12
773.302	5.12
774.049	2.12
774.796	4.12
775.543	4.12
776.29	5.12
777.036	5.12
777.783	4.12
778.53	4.12
779.276	6.12
780.023	6.12
780.769	3.12
781.516	3.12
782.262	5.12
783.008	3.12
783.754	5.12
784.5	2.12
785.246	5.12
785.992	4.12
786.738	6.12
787.484	4.12
788.23	6.12
788.975	5.12
789.721	5.12
790.466	7.12
791.212	8.12
791.957	5.12
792.702	6.12
793.447	4.12
794.193	5.12
794.938	5.12
795.683	5.12
796.427	4.12
797.172	5.12
797.917	6.12
798.662	2.12
799.406	3.12
800.151	5.12
800.895	5.12
801.64	4.12
802.384	3.12
803.128	3.12
803.872	6.12
804.616	4.12
805.36	2.12
806.104	5.12
806.848	4.12
807.592	4.12
808.336	6.12
809.079	4.12
809.823	5.12
810.566	5.12
811.31	2.12
812.053	5.12
812.796	4.12
813.539	4.12
814.283	2.12
815.026	3.12
815.769	4.12
816.511	4.12
817.254	1.12
817.997	0.12
818.74	1.12
819.482	1.12
820.225	2.12
820.967	5.12
821.71	2.12
822.452	3.12
823.194	1.12
823.936	2.12
824.678	1.12
825.42	4.12
826.162	2.12
826.904	1.12
827.646	4.12
828.388	3.12
829.129	3.12
829.871	4.12
830.612	2.12
831.354	2.12
832.095	2.12
832.836	2.12
833.577	2.12
834.319	0.12
835.06	4.12
835.801	2.12
836.542	3.12
837.282	1.12
838.023	2.12
838.764	3.12
839.504	3.12
840.245	1.12
840.985	2.12
841.726	2.12
842.466	0.12
843.206	3.12
843.946	3.12
844.687	1.12
845.427	2.12
846.166	2.12
846.906	1.12
847.646	3.12
848.386	3.12
849.125	3.12
849.865	2.12
850.605	1.12
851.344	4.12
852.083	2.12
852.823	3.12
853.562	1.12
854.301	1.12
855.04	0.12
855.779	1.12
856.518	1.12
857.257	1.12
857.995	2.12
858.734	3.12
859.473	-1.88
860.211	3.12
860.95	-0.88
861.688	2.12
862.426	1.12
863.165	2.12
863.903	2.12
864.641	2.12
865.379	2.12
866.117	-0.88
866.855	2.12
867.593	3.12
868.33	1.12
869.068	1.12
869.806	1.12
870.543	2.12
871.28	-0.88
872.018	0.12
872.755	0.12
873.492	0.12
874.229	1.12
874.967	-0.88
875.703	1.12
876.44	-0.88
877.177	2.12
877.914	-0.88
878.651	2.12
879.387	2.12
880.124	1.12
880.86	1.12
881.597	1.12
882.333	5.12
883.069	2.12
883.806	2.12
884.542	2.12
885.278	1.12
886.014	1.12
886.749	2.12
887.485	0.12
888.221	2.12
888.957	0.12
889.692	1.12
890.428	1.12
891.163	0.12
891.899	2.12
892.634	2.12
893.369	-1.88
894.104	0.12
894.839	2.12
895.574	-2.88
896.309	2.12
897.044	1.12
897.779	1.12
898.514	-0.88
899.248	0.12
899.983	0.12
900.717	-1.88
901.452	1.12
902.186	-0.88
902.92	0.12
903.654	3.12
904.389	-0.88
905.123	1.12
905.857	-1.88
906.59	0.12
907.324	1.12
908.058	0.12
908.792	1.12
909.525	-2.88
910.259	0.12
910.992	1.12
911.726	1.12
912.459	0.12
913.192	1.12
913.925	0.12
914.658	0.12
915.391	-0.88
916.124	-0.88
916.857	-0.88
917.59	-0.88
918.323	1.12
919.055	0.12
919.788	0.12
920.521	0.12
921.253	1.12
921.985	0.12
922.718	0.12
923.45	-1.88
924.182	1.12
924.914	-1.88
925.646	2.12
926.378	-1.88
927.11	1.12
927.841	-0.88
928.573	1.12
929.305	-0.88
930.036	-0.88
930.768	0.12
931.499	-1.88
932.23	1.12
932.962	0.12
933.693	-0.88
934.424	-0.88
935.155	1.12
935.886	3.12
936.617	2.12
937.348	1.12
938.078	0.12
938.809	-1.88
939.54	0.12
940.27	-1.88
941.001	0.12
941.731	0.12
942.461	0.12
943.191	-1.88
943.922	0.12
944.652	0.12
945.382	-1.88
946.112	2.12
946.841	0.12
947.571	1.12
948.301	1.12
949.031	0.12
949.76	-2.88
950.49	1.12
951.219	0.12
951.948	1.12
952.678	-0.88
953.407	0.12
954.136	0.12
954.865	0.12
955.594	-0.88
956.323	-1.88
957.052	-2.88
957.78	3.12
958.509	0.12
959.238	0.12
959.966	2.12
960.695	-1.88
961.423	-1.88
962.151	0.12
962.88	0.12
963.608	1.12
964.336	0.12
965.064	1.12
965.792	0.12
966.52	2.12
967.247	1.12
967.975	2.12
968.703	1.12
969.43	0.12
970.158	0.12
970.885	1.12
971.613	1.12
972.34	2.12
973.067	-1.88
973.794	1.12
974.521	-1.88
975.248	0.12
975.975	0.12
976.702	2.12
977.429	0.12
978.156	-0.88
978.882	1.12
979.609	1.12
980.335	0.12
981.062	0.12
981.788	0.12
982.514	1.12
983.24	0.12
983.967	1.12
984.693	-1.88
985.419	-0.88
986.144	0.12
986.87	1.12
987.596	0.12
988.322	1.12
989.047	0.12
989.773	1.12
990.498	0.12
991.224	0.12
991.949	-0.88
992.674	-2.88
993.399	0.12
994.124	1.12
994.849	-2.88
995.574	3.12
996.299	1.12
997.024	1.12
997.749	1.12
998.473	-0.88
999.198	-1.88
999.922	0.12
1000.647	1.12
1001.371	3.12
1002.095	0.12
1002.82	-1.88
1003.544	2.12
1004.268	-1.88
1004.992	-1.88
1005.716	-1.88
1006.439	-0.88
1007.163	0.12
1007.887	-1.88
1008.611	3.12
1009.334	-0.88
1010.058	-0.88
1010.781	0.12
1011.504	0.12
1012.228	-0.88
1012.951	-0.88
1013.674	0.12
1014.397	-1.88
1015.12	-0.88
