节点500_145_QEPB04081__13__11-29-09-815.txt的数据

Date: Wed Nov 12 11:29:09 CST 2025
User: PC
Spectrometer: QEPB0408
触发模式: 0
积分时间 (秒): 1.000000E-2
Scans to average: 1
启用暗噪声校正: true
启用非线性校正: false
滑动平均宽度: 0
X轴模式: Wavelengths
Number of Pixels in Spectrum: 1044
>>>>>Begin Spectral Data<<<<<
220.843	0.88
221.644	-0.12
222.444	0.88
223.244	-2.12
224.045	0.88
224.845	-1.12
225.645	0.88
226.445	-1.12
227.245	-2.12
228.045	-1.12
228.845	-0.12
229.645	1.88
230.444	-1.12
231.244	1.88
232.043	1.88
232.843	-1.12
233.642	1.88
234.442	0.88
235.241	-0.12
236.04	-0.12
236.839	0.88
237.638	-1.12
238.437	-0.12
239.236	-0.12
240.035	2.88
240.833	1.88
241.632	-0.12
242.43	1.88
243.229	4.88
244.027	0.88
244.826	0.88
245.624	1.88
246.422	0.88
247.22	2.88
248.018	0.88
248.816	0.88
249.614	1.88
250.412	3.88
251.21	1.88
252.007	1.88
252.805	0.88
253.602	2.88
254.4	1.88
255.197	3.88
255.994	2.88
256.791	2.88
257.589	0.88
258.386	1.88
259.183	4.88
259.979	2.88
260.776	3.88
261.573	4.88
262.37	4.88
263.166	6.88
263.963	4.88
264.759	4.88
265.556	4.88
266.352	6.88
267.148	6.88
267.944	4.88
268.74	8.88
269.536	7.88
270.332	6.88
271.128	7.88
271.924	9.88
272.719	7.88
273.515	8.88
274.311	8.88
275.106	10.88
275.901	11.88
276.697	10.88
277.492	8.88
278.287	9.88
279.082	10.88
279.877	8.88
280.672	7.88
281.467	11.88
282.262	9.88
283.056	8.88
283.851	13.88
284.646	10.88
285.44	9.88
286.234	10.88
287.029	13.88
287.823	11.88
288.617	10.88
289.411	12.88
290.205	10.88
290.999	9.88
291.793	15.88
292.587	10.88
293.381	12.88
294.174	9.88
294.968	11.88
295.761	8.88
296.555	10.88
297.348	11.88
298.141	10.88
298.935	11.88
299.728	9.88
300.521	12.88
301.314	5.88
302.107	7.88
302.899	5.88
303.692	8.88
304.485	8.88
305.277	9.88
306.07	7.88
306.862	6.88
307.655	7.88
308.447	6.88
309.239	5.88
310.031	8.88
310.823	5.88
311.615	8.88
312.407	5.88
313.199	4.88
313.991	5.88
314.783	3.88
315.574	5.88
316.366	5.88
317.157	6.88
317.949	5.88
318.74	2.88
319.531	6.88
320.322	3.88
321.113	1.88
321.904	4.88
322.695	6.88
323.486	6.88
324.277	3.88
325.068	4.88
325.858	4.88
326.649	2.88
327.439	3.88
328.23	2.88
329.02	4.88
329.81	2.88
330.6	3.88
331.391	3.88
332.181	2.88
332.971	3.88
333.76	2.88
334.55	5.88
335.34	2.88
336.13	3.88
336.919	4.88
337.709	3.88
338.498	3.88
339.287	2.88
340.077	1.88
340.866	1.88
341.655	2.88
342.444	1.88
343.233	2.88
344.022	2.88
344.811	1.88
345.6	1.88
346.388	1.88
347.177	2.88
347.965	1.88
348.754	2.88
349.542	1.88
350.33	0.88
351.119	3.88
351.907	6.88
352.695	1.88
353.483	3.88
354.271	4.88
355.059	4.88
355.846	0.88
356.634	3.88
357.422	1.88
358.209	1.88
358.997	2.88
359.784	2.88
360.571	1.88
361.359	2.88
362.146	3.88
362.933	2.88
363.72	2.88
364.507	4.88
365.294	2.88
366.081	1.88
366.867	3.88
367.654	1.88
368.44	4.88
369.227	2.88
370.013	4.88
370.8	0.88
371.586	5.88
372.372	2.88
373.158	4.88
373.944	1.88
374.73	0.88
375.516	2.88
376.302	0.88
377.088	2.88
377.873	2.88
378.659	4.88
379.445	2.88
380.23	3.88
381.015	1.88
381.801	1.88
382.586	2.88
383.371	2.88
384.156	2.88
384.941	3.88
385.726	3.88
386.511	2.88
387.296	0.88
388.08	4.88
388.865	3.88
389.649	0.88
390.434	3.88
391.218	3.88
392.003	0.88
392.787	1.88
393.571	0.88
394.355	4.88
395.139	3.88
395.923	1.88
396.707	4.88
397.491	3.88
398.274	2.88
399.058	7.88
399.842	3.88
400.625	3.88
401.408	3.88
402.192	4.88
402.975	3.88
403.758	4.88
404.541	1.88
405.324	4.88
406.107	4.88
406.89	5.88
407.673	2.88
408.456	1.88
409.238	3.88
410.021	4.88
410.803	6.88
411.586	2.88
412.368	5.88
413.151	2.88
413.933	3.88
414.715	1.88
415.497	4.88
416.279	3.88
417.061	4.88
417.843	6.88
418.624	5.88
419.406	5.88
420.188	5.88
420.969	5.88
421.751	4.88
422.532	5.88
423.313	4.88
424.095	4.88
424.876	6.88
425.657	5.88
426.438	5.88
427.219	7.88
428	4.88
428.78	8.88
429.561	6.88
430.342	7.88
431.122	6.88
431.903	6.88
432.683	8.88
433.464	5.88
434.244	7.88
435.024	8.88
435.804	10.88
436.584	10.88
437.364	8.88
438.144	11.88
438.924	9.88
439.704	9.88
440.483	11.88
441.263	11.88
442.042	11.88
442.822	10.88
443.601	11.88
444.38	13.88
445.16	15.88
445.939	13.88
446.718	19.88
447.497	19.88
448.276	19.88
449.054	19.88
449.833	23.88
450.612	22.88
451.391	24.88
452.169	24.88
452.948	26.88
453.726	26.88
454.504	32.88
455.282	37.88
456.061	40.88
456.839	40.88
457.617	45.88
458.395	50.88
459.172	57.88
459.95	62.88
460.728	70.88
461.506	83.88
462.283	87.88
463.061	99.88
463.838	107.88
464.615	124.88
465.393	135.88
466.17	150.88
466.947	170.88
467.724	190.88
468.501	214.88
469.278	240.88
470.055	262.88
470.831	294.88
471.608	334.88
472.385	373.88
473.161	423.88
473.938	469.88
474.714	525.88
475.49	570.88
476.266	645.88
477.043	723.88
477.819	804.88
478.595	888.88
479.371	985.88
480.146	1102.88
480.922	1225.88
481.698	1365.88
482.473	1504.88
483.249	1695.88
484.024	1885.88
484.8	2076.88
485.575	2304.88
486.35	2562.88
487.126	2843.88
487.901	3183.88
488.676	3508.88
489.451	3900.88
490.225	4324.88
491	4787.88
491.775	5284.88
492.55	5839.88
493.324	6447.88
494.099	7040.88
494.873	7731.88
495.647	8489.88
496.422	9253.88
497.196	10054.88
497.97	10836.88
498.744	11668.88
499.518	12485.88
500.292	13303.88
501.066	14119.88
501.839	14839.88
502.613	15492.88
503.387	16113.88
504.16	16622.88
504.934	17118.88
505.707	17265.88
506.48	17461.88
507.253	17530.88
508.027	17419.88
508.8	17220.88
509.573	16929.88
510.346	16483.88
511.118	16052.88
511.891	15487.88
512.664	14872.88
513.437	14271.88
514.209	13659.88
514.982	12991.88
515.754	12389.88
516.526	11891.88
517.298	11274.88
518.071	10786.88
518.843	10282.88
519.615	9884.88
520.387	9475.88
521.159	9036.88
521.93	8755.88
522.702	8410.88
523.474	8066.88
524.245	7779.88
525.017	7418.88
525.788	7115.88
526.56	6838.88
527.331	6546.88
528.102	6250.88
528.873	5953.88
529.644	5671.88
530.415	5368.88
531.186	5136.88
531.957	4845.88
532.728	4564.88
533.498	4306.88
534.269	4062.88
535.039	3843.88
535.81	3592.88
536.58	3401.88
537.351	3197.88
538.121	3040.88
538.891	2866.88
539.661	2688.88
540.431	2569.88
541.201	2425.88
541.971	2298.88
542.741	2165.88
543.51	2064.88
544.28	1963.88
545.05	1865.88
545.819	1780.88
546.588	1679.88
547.358	1603.88
548.127	1529.88
548.896	1437.88
549.665	1369.88
550.434	1296.88
551.203	1230.88
551.972	1179.88
552.741	1105.88
553.51	1038.88
554.278	977.88
555.047	932.88
555.815	877.88
556.584	824.88
557.352	780.88
558.121	730.88
558.889	694.88
559.657	647.88
560.425	603.88
561.193	570.88
561.961	531.88
562.729	513.88
563.496	483.88
564.264	456.88
565.032	424.88
565.799	411.88
566.567	379.88
567.334	359.88
568.101	344.88
568.869	319.88
569.636	305.88
570.403	282.88
571.17	278.88
571.937	251.88
572.704	241.88
573.471	224.88
574.237	217.88
575.004	199.88
575.771	188.88
576.537	180.88
577.303	164.88
578.07	159.88
578.836	149.88
579.602	136.88
580.368	133.88
581.134	126.88
581.9	118.88
582.666	110.88
583.432	106.88
584.198	100.88
584.964	96.88
585.729	88.88
586.495	84.88
587.26	77.88
588.025	76.88
588.791	72.88
589.556	65.88
590.321	60.88
591.086	58.88
591.851	58.88
592.616	55.88
593.381	52.88
594.146	49.88
594.911	49.88
595.675	47.88
596.44	43.88
597.204	44.88
597.969	35.88
598.733	33.88
599.497	38.88
600.261	32.88
601.025	33.88
601.79	31.88
602.553	30.88
603.317	27.88
604.081	26.88
604.845	27.88
605.609	24.88
606.372	25.88
607.136	22.88
607.899	23.88
608.662	19.88
609.426	24.88
610.189	20.88
610.952	19.88
611.715	19.88
612.478	15.88
613.241	16.88
614.004	12.88
614.767	13.88
615.529	14.88
616.292	13.88
617.055	15.88
617.817	12.88
618.579	12.88
619.342	10.88
620.104	12.88
620.866	12.88
621.628	13.88
622.39	10.88
623.152	9.88
623.914	10.88
624.676	8.88
625.438	11.88
626.199	8.88
626.961	7.88
627.722	7.88
628.484	7.88
629.245	6.88
630.006	6.88
630.768	8.88
631.529	4.88
632.29	4.88
633.051	7.88
633.812	5.88
634.573	6.88
635.333	4.88
636.094	6.88
636.855	5.88
637.615	4.88
638.376	5.88
639.136	5.88
639.896	6.88
640.657	5.88
641.417	5.88
642.177	4.88
642.937	5.88
643.697	4.88
644.457	1.88
645.216	5.88
645.976	3.88
646.736	5.88
647.495	5.88
648.255	0.88
649.014	5.88
649.774	1.88
650.533	4.88
651.292	4.88
652.051	1.88
652.81	2.88
653.569	1.88
654.328	5.88
655.087	3.88
655.846	2.88
656.604	1.88
657.363	2.88
658.121	3.88
658.88	4.88
659.638	2.88
660.397	3.88
661.155	3.88
661.913	2.88
662.671	2.88
663.429	3.88
664.187	-0.12
664.945	2.88
665.703	3.88
666.46	3.88
667.218	3.88
667.976	3.88
668.733	1.88
669.49	0.88
670.248	3.88
671.005	3.88
671.762	1.88
672.519	4.88
673.276	3.88
674.033	3.88
674.79	3.88
675.547	5.88
676.304	1.88
677.06	3.88
677.817	2.88
678.574	0.88
679.33	1.88
680.086	0.88
680.843	2.88
681.599	2.88
682.355	2.88
683.111	2.88
683.867	0.88
684.623	2.88
685.379	-0.12
686.135	0.88
686.89	0.88
687.646	1.88
688.402	3.88
689.157	-0.12
689.912	1.88
690.668	2.88
691.423	1.88
692.178	-1.12
692.933	2.88
693.688	3.88
694.443	1.88
695.198	1.88
695.953	1.88
696.708	4.88
697.462	1.88
698.217	0.88
698.972	1.88
699.726	-1.12
700.48	1.88
701.235	2.88
701.989	2.88
702.743	-0.12
703.497	0.88
704.251	-0.12
705.005	-1.12
705.759	1.88
706.513	0.88
707.266	1.88
708.02	1.88
708.774	0.88
709.527	0.88
710.28	0.88
711.034	0.88
711.787	1.88
712.54	1.88
713.293	2.88
714.046	0.88
714.799	2.88
715.552	2.88
716.305	2.88
717.058	-0.12
717.81	0.88
718.563	1.88
719.315	0.88
720.068	2.88
720.82	1.88
721.573	0.88
722.325	1.88
723.077	-2.12
723.829	1.88
724.581	-0.12
725.333	1.88
726.085	2.88
726.836	2.88
727.588	1.88
728.34	0.88
729.091	1.88
729.843	1.88
730.594	1.88
731.346	1.88
732.097	1.88
732.848	2.88
733.599	0.88
734.35	2.88
735.101	-0.12
735.852	2.88
736.603	1.88
737.354	1.88
738.104	0.88
738.855	2.88
739.605	1.88
740.356	2.88
741.106	1.88
741.856	3.88
742.607	2.88
743.357	1.88
744.107	3.88
744.857	2.88
745.607	0.88
746.357	3.88
747.106	0.88
747.856	1.88
748.606	0.88
749.355	1.88
750.105	3.88
750.854	1.88
751.603	2.88
752.353	2.88
753.102	1.88
753.851	1.88
754.6	1.88
755.349	3.88
756.098	3.88
756.847	3.88
757.595	3.88
758.344	2.88
759.093	1.88
759.841	1.88
760.589	5.88
761.338	3.88
762.086	3.88
762.834	5.88
763.582	1.88
764.331	3.88
765.079	4.88
765.826	5.88
766.574	3.88
767.322	1.88
768.07	3.88
768.817	3.88
769.565	5.88
770.312	1.88
771.06	4.88
771.807	3.88
772.554	3.88
773.302	3.88
774.049	4.88
774.796	4.88
775.543	6.88
776.29	3.88
777.036	6.88
777.783	3.88
778.53	4.88
779.276	4.88
780.023	3.88
780.769	5.88
781.516	3.88
782.262	2.88
783.008	6.88
783.754	3.88
784.5	6.88
785.246	5.88
785.992	5.88
786.738	6.88
787.484	4.88
788.23	6.88
788.975	4.88
789.721	3.88
790.466	7.88
791.212	5.88
791.957	6.88
792.702	4.88
793.447	5.88
794.193	6.88
794.938	3.88
795.683	5.88
796.427	3.88
797.172	6.88
797.917	4.88
798.662	4.88
799.406	3.88
800.151	4.88
800.895	5.88
801.64	5.88
802.384	3.88
803.128	2.88
803.872	1.88
804.616	5.88
805.36	3.88
806.104	4.88
806.848	1.88
807.592	4.88
808.336	3.88
809.079	4.88
809.823	3.88
810.566	3.88
811.31	2.88
812.053	2.88
812.796	1.88
813.539	3.88
814.283	0.88
815.026	0.88
815.769	3.88
816.511	2.88
817.254	1.88
817.997	1.88
818.74	3.88
819.482	3.88
820.225	2.88
820.967	2.88
821.71	-0.12
822.452	2.88
823.194	0.88
823.936	4.88
824.678	0.88
825.42	2.88
826.162	2.88
826.904	3.88
827.646	1.88
828.388	2.88
829.129	2.88
829.871	3.88
830.612	-0.12
831.354	1.88
832.095	-0.12
832.836	3.88
833.577	0.88
834.319	2.88
835.06	0.88
835.801	2.88
836.542	1.88
837.282	1.88
838.023	0.88
838.764	3.88
839.504	1.88
840.245	0.88
840.985	1.88
841.726	3.88
842.466	0.88
843.206	1.88
843.946	0.88
844.687	1.88
845.427	-0.12
846.166	0.88
846.906	3.88
847.646	0.88
848.386	1.88
849.125	-0.12
849.865	1.88
850.605	2.88
851.344	1.88
852.083	2.88
852.823	1.88
853.562	0.88
854.301	2.88
855.04	-0.12
855.779	1.88
856.518	-0.12
857.257	1.88
857.995	0.88
858.734	0.88
859.473	1.88
860.211	0.88
860.95	1.88
861.688	0.88
862.426	0.88
863.165	-0.12
863.903	1.88
864.641	-1.12
865.379	0.88
866.117	0.88
866.855	0.88
867.593	3.88
868.33	0.88
869.068	-0.12
869.806	-0.12
870.543	0.88
871.28	0.88
872.018	-0.12
872.755	1.88
873.492	-0.12
874.229	-2.12
874.967	1.88
875.703	0.88
876.44	1.88
877.177	-0.12
877.914	1.88
878.651	2.88
879.387	1.88
880.124	1.88
880.86	-0.12
881.597	1.88
882.333	0.88
883.069	0.88
883.806	0.88
884.542	-0.12
885.278	-1.12
886.014	0.88
886.749	-0.12
887.485	0.88
888.221	-0.12
888.957	-0.12
889.692	-1.12
890.428	0.88
891.163	-0.12
891.899	0.88
892.634	0.88
893.369	0.88
894.104	1.88
894.839	0.88
895.574	1.88
896.309	-1.12
897.044	0.88
897.779	1.88
898.514	-1.12
899.248	0.88
899.983	-0.12
900.717	0.88
901.452	-0.12
902.186	1.88
902.92	-0.12
903.654	-0.12
904.389	0.88
905.123	-2.12
905.857	0.88
906.59	-1.12
907.324	0.88
908.058	-0.12
908.792	0.88
909.525	0.88
910.259	0.88
910.992	0.88
911.726	0.88
912.459	0.88
913.192	1.88
913.925	0.88
914.658	1.88
915.391	-0.12
916.124	0.88
916.857	-0.12
917.59	0.88
918.323	-1.12
919.055	0.88
919.788	0.88
920.521	-0.12
921.253	0.88
921.985	1.88
922.718	1.88
923.45	0.88
924.182	-1.12
924.914	1.88
925.646	-2.12
926.378	1.88
927.11	2.88
927.841	0.88
928.573	1.88
929.305	1.88
930.036	0.88
930.768	-1.12
931.499	1.88
932.23	1.88
932.962	-1.12
933.693	0.88
934.424	-0.12
935.155	-0.12
935.886	-0.12
936.617	-0.12
937.348	-1.12
938.078	0.88
938.809	-0.12
939.54	-2.12
940.27	-0.12
941.001	0.88
941.731	0.88
942.461	-1.12
943.191	-0.12
943.922	-0.12
944.652	0.88
945.382	-0.12
946.112	-1.12
946.841	0.88
947.571	-1.12
948.301	-0.12
949.031	1.88
949.76	-1.12
950.49	-0.12
951.219	0.88
951.948	-1.12
952.678	-0.12
953.407	-2.12
954.136	-0.12
954.865	-0.12
955.594	-0.12
956.323	-2.12
957.052	-1.12
957.78	-1.12
958.509	-0.12
959.238	-1.12
959.966	-0.12
960.695	0.88
961.423	0.88
962.151	0.88
962.88	-2.12
963.608	-1.12
964.336	-0.12
965.064	-0.12
965.792	0.88
966.52	0.88
967.247	-1.12
967.975	-0.12
968.703	-0.12
969.43	0.88
970.158	-0.12
970.885	0.88
971.613	0.88
972.34	0.88
973.067	0.88
973.794	1.88
974.521	0.88
975.248	1.88
975.975	-1.12
976.702	0.88
977.429	0.88
978.156	-0.12
978.882	-2.12
979.609	3.88
980.335	-0.12
981.062	0.88
981.788	-0.12
982.514	-1.12
983.24	-1.12
983.967	-2.12
984.693	-0.12
985.419	1.88
986.144	-0.12
986.87	-0.12
987.596	-2.12
988.322	1.88
989.047	0.88
989.773	0.88
990.498	-0.12
991.224	-0.12
991.949	-1.12
992.674	-0.12
993.399	-0.12
994.124	-1.12
994.849	-1.12
995.574	-2.12
996.299	-0.12
997.024	-2.12
997.749	0.88
998.473	2.88
999.198	-1.12
999.922	0.88
1000.647	0.88
1001.371	0.88
1002.095	-2.12
1002.82	-2.12
1003.544	0.88
1004.268	-3.12
1004.992	-2.12
1005.716	0.88
1006.439	-0.12
1007.163	-0.12
1007.887	-2.12
1008.611	-0.12
1009.334	0.88
1010.058	-2.12
1010.781	0.88
1011.504	-0.12
1012.228	0.88
1012.951	0.88
1013.674	-0.12
1014.397	0.88
1015.12	0.88
