节点500_145_QEPB04081__158__11-31-28-599.txt的数据

Date: Wed Nov 12 11:31:28 CST 2025
User: PC
Spectrometer: QEPB0408
触发模式: 0
积分时间 (秒): 1.000000E-2
Scans to average: 1
启用暗噪声校正: true
启用非线性校正: false
滑动平均宽度: 0
X轴模式: Wavelengths
Number of Pixels in Spectrum: 1044
>>>>>Begin Spectral Data<<<<<
220.843	-1.88
221.644	0.12
222.444	-0.88
223.244	1.12
224.045	0.12
224.845	1.12
225.645	0.12
226.445	1.12
227.245	-0.88
228.045	-0.88
228.845	-0.88
229.645	2.12
230.444	0.12
231.244	-1.88
232.043	2.12
232.843	2.12
233.642	0.12
234.442	0.12
235.241	1.12
236.04	1.12
236.839	1.12
237.638	1.12
238.437	1.12
239.236	3.12
240.035	0.12
240.833	0.12
241.632	2.12
242.43	0.12
243.229	1.12
244.027	2.12
244.826	3.12
245.624	1.12
246.422	3.12
247.22	2.12
248.018	2.12
248.816	1.12
249.614	3.12
250.412	4.12
251.21	3.12
252.007	2.12
252.805	3.12
253.602	1.12
254.4	6.12
255.197	2.12
255.994	3.12
256.791	1.12
257.589	2.12
258.386	5.12
259.183	4.12
259.979	7.12
260.776	4.12
261.573	5.12
262.37	6.12
263.166	6.12
263.963	4.12
264.759	5.12
265.556	6.12
266.352	4.12
267.148	4.12
267.944	8.12
268.74	9.12
269.536	5.12
270.332	8.12
271.128	9.12
271.924	6.12
272.719	6.12
273.515	10.12
274.311	6.12
275.106	10.12
275.901	10.12
276.697	10.12
277.492	9.12
278.287	11.12
279.082	9.12
279.877	9.12
280.672	12.12
281.467	10.12
282.262	12.12
283.056	11.12
283.851	13.12
284.646	13.12
285.44	10.12
286.234	11.12
287.029	11.12
287.823	12.12
288.617	13.12
289.411	12.12
290.205	14.12
290.999	11.12
291.793	12.12
292.587	12.12
293.381	12.12
294.174	11.12
294.968	9.12
295.761	9.12
296.555	11.12
297.348	9.12
298.141	8.12
298.935	8.12
299.728	11.12
300.521	10.12
301.314	8.12
302.107	6.12
302.899	6.12
303.692	7.12
304.485	9.12
305.277	8.12
306.07	8.12
306.862	9.12
307.655	9.12
308.447	6.12
309.239	9.12
310.031	8.12
310.823	7.12
311.615	6.12
312.407	7.12
313.199	6.12
313.991	5.12
314.783	6.12
315.574	8.12
316.366	6.12
317.157	6.12
317.949	4.12
318.74	7.12
319.531	3.12
320.322	4.12
321.113	7.12
321.904	6.12
322.695	3.12
323.486	5.12
324.277	6.12
325.068	2.12
325.858	5.12
326.649	4.12
327.439	6.12
328.23	4.12
329.02	5.12
329.81	5.12
330.6	1.12
331.391	4.12
332.181	5.12
332.971	3.12
333.76	3.12
334.55	5.12
335.34	3.12
336.13	1.12
336.919	5.12
337.709	6.12
338.498	3.12
339.287	1.12
340.077	3.12
340.866	4.12
341.655	3.12
342.444	4.12
343.233	1.12
344.022	4.12
344.811	2.12
345.6	2.12
346.388	6.12
347.177	3.12
347.965	1.12
348.754	2.12
349.542	5.12
350.33	2.12
351.119	4.12
351.907	1.12
352.695	1.12
353.483	3.12
354.271	4.12
355.059	2.12
355.846	3.12
356.634	1.12
357.422	4.12
358.209	3.12
358.997	2.12
359.784	3.12
360.571	3.12
361.359	3.12
362.146	4.12
362.933	2.12
363.72	-0.88
364.507	3.12
365.294	4.12
366.081	2.12
366.867	2.12
367.654	2.12
368.44	3.12
369.227	0.12
370.013	4.12
370.8	2.12
371.586	3.12
372.372	4.12
373.158	4.12
373.944	4.12
374.73	3.12
375.516	5.12
376.302	2.12
377.088	0.12
377.873	3.12
378.659	3.12
379.445	5.12
380.23	5.12
381.015	4.12
381.801	3.12
382.586	5.12
383.371	0.12
384.156	4.12
384.941	4.12
385.726	4.12
386.511	3.12
387.296	1.12
388.08	3.12
388.865	3.12
389.649	5.12
390.434	4.12
391.218	1.12
392.003	2.12
392.787	2.12
393.571	2.12
394.355	3.12
395.139	4.12
395.923	4.12
396.707	2.12
397.491	3.12
398.274	5.12
399.058	1.12
399.842	5.12
400.625	3.12
401.408	4.12
402.192	5.12
402.975	3.12
403.758	4.12
404.541	4.12
405.324	6.12
406.107	6.12
406.89	4.12
407.673	6.12
408.456	4.12
409.238	6.12
410.021	4.12
410.803	7.12
411.586	4.12
412.368	2.12
413.151	6.12
413.933	5.12
414.715	2.12
415.497	5.12
416.279	3.12
417.061	5.12
417.843	6.12
418.624	6.12
419.406	6.12
420.188	7.12
420.969	6.12
421.751	7.12
422.532	6.12
423.313	4.12
424.095	3.12
424.876	5.12
425.657	7.12
426.438	5.12
427.219	8.12
428	4.12
428.78	9.12
429.561	7.12
430.342	6.12
431.122	8.12
431.903	8.12
432.683	7.12
433.464	7.12
434.244	7.12
435.024	9.12
435.804	8.12
436.584	11.12
437.364	11.12
438.144	10.12
438.924	12.12
439.704	10.12
440.483	10.12
441.263	10.12
442.042	14.12
442.822	12.12
443.601	14.12
444.38	13.12
445.16	16.12
445.939	17.12
446.718	15.12
447.497	17.12
448.276	18.12
449.054	21.12
449.833	21.12
450.612	25.12
451.391	22.12
452.169	26.12
452.948	29.12
453.726	33.12
454.504	36.12
455.282	37.12
456.061	41.12
456.839	47.12
457.617	53.12
458.395	58.12
459.172	60.12
459.95	67.12
460.728	79.12
461.506	86.12
462.283	95.12
463.061	107.12
463.838	118.12
464.615	131.12
465.393	144.12
466.17	165.12
466.947	185.12
467.724	210.12
468.501	236.12
469.278	258.12
470.055	280.12
470.831	311.12
471.608	356.12
472.385	403.12
473.161	441.12
473.938	488.12
474.714	550.12
475.49	609.12
476.266	682.12
477.043	752.12
477.819	835.12
478.595	925.12
479.371	1030.12
480.146	1144.12
480.922	1264.12
481.698	1418.12
482.473	1565.12
483.249	1706.12
484.024	1889.12
484.8	2082.12
485.575	2314.12
486.35	2590.12
487.126	2869.12
487.901	3140.12
488.676	3474.12
489.451	3857.12
490.225	4262.12
491	4677.12
491.775	5164.12
492.55	5653.12
493.324	6248.12
494.099	6831.12
494.873	7472.12
495.647	8161.12
496.422	8869.12
497.196	9622.12
497.97	10426.12
498.744	11221.12
499.518	11981.12
500.292	12761.12
501.066	13560.12
501.839	14250.12
502.613	14963.12
503.387	15625.12
504.16	16113.12
504.934	16518.12
505.707	16876.12
506.48	17043.12
507.253	17134.12
508.027	17189.12
508.8	17016.12
509.573	16809.12
510.346	16474.12
511.118	16073.12
511.891	15541.12
512.664	15055.12
513.437	14487.12
514.209	13907.12
514.982	13281.12
515.754	12777.12
516.526	12116.12
517.298	11532.12
518.071	11080.12
518.843	10567.12
519.615	10133.12
520.387	9694.12
521.159	9328.12
521.93	8937.12
522.702	8570.12
523.474	8262.12
524.245	7936.12
525.017	7585.12
525.788	7315.12
526.56	6990.12
527.331	6712.12
528.102	6403.12
528.873	6103.12
529.644	5859.12
530.415	5557.12
531.186	5260.12
531.957	5011.12
532.728	4744.12
533.498	4496.12
534.269	4233.12
535.039	4042.12
535.81	3774.12
536.58	3561.12
537.351	3368.12
538.121	3184.12
538.891	2999.12
539.661	2809.12
540.431	2678.12
541.201	2548.12
541.971	2414.12
542.741	2267.12
543.51	2148.12
544.28	2052.12
545.05	1942.12
545.819	1839.12
546.588	1748.12
547.358	1677.12
548.127	1592.12
548.896	1500.12
549.665	1436.12
550.434	1355.12
551.203	1288.12
551.972	1217.12
552.741	1148.12
553.51	1101.12
554.278	1039.12
555.047	969.12
555.815	923.12
556.584	874.12
557.352	813.12
558.121	759.12
558.889	718.12
559.657	686.12
560.425	652.12
561.193	604.12
561.961	564.12
562.729	540.12
563.496	509.12
564.264	471.12
565.032	460.12
565.799	420.12
566.567	407.12
567.334	378.12
568.101	367.12
568.869	342.12
569.636	329.12
570.403	302.12
571.17	285.12
571.937	270.12
572.704	254.12
573.471	241.12
574.237	225.12
575.004	208.12
575.771	201.12
576.537	191.12
577.303	179.12
578.07	166.12
578.836	162.12
579.602	150.12
580.368	137.12
581.134	132.12
581.9	131.12
582.666	118.12
583.432	112.12
584.198	108.12
584.964	102.12
585.729	97.12
586.495	88.12
587.26	85.12
588.025	77.12
588.791	76.12
589.556	71.12
590.321	65.12
591.086	65.12
591.851	61.12
592.616	59.12
593.381	54.12
594.146	52.12
594.911	49.12
595.675	46.12
596.44	46.12
597.204	42.12
597.969	40.12
598.733	39.12
599.497	38.12
600.261	39.12
601.025	35.12
601.79	32.12
602.553	32.12
603.317	30.12
604.081	26.12
604.845	25.12
605.609	25.12
606.372	21.12
607.136	24.12
607.899	22.12
608.662	21.12
609.426	20.12
610.189	19.12
610.952	19.12
611.715	15.12
612.478	16.12
613.241	17.12
614.004	16.12
614.767	14.12
615.529	15.12
616.292	14.12
617.055	14.12
617.817	15.12
618.579	13.12
619.342	12.12
620.104	12.12
620.866	13.12
621.628	11.12
622.39	10.12
623.152	12.12
623.914	11.12
624.676	9.12
625.438	11.12
626.199	8.12
626.961	8.12
627.722	10.12
628.484	6.12
629.245	7.12
630.006	8.12
630.768	8.12
631.529	7.12
632.29	7.12
633.051	7.12
633.812	6.12
634.573	9.12
635.333	7.12
636.094	6.12
636.855	6.12
637.615	5.12
638.376	7.12
639.136	5.12
639.896	5.12
640.657	5.12
641.417	4.12
642.177	5.12
642.937	5.12
643.697	5.12
644.457	4.12
645.216	6.12
645.976	2.12
646.736	5.12
647.495	2.12
648.255	4.12
649.014	4.12
649.774	5.12
650.533	3.12
651.292	3.12
652.051	4.12
652.81	5.12
653.569	3.12
654.328	2.12
655.087	4.12
655.846	5.12
656.604	2.12
657.363	3.12
658.121	4.12
658.88	0.12
659.638	5.12
660.397	4.12
661.155	5.12
661.913	2.12
662.671	5.12
663.429	2.12
664.187	-0.88
664.945	4.12
665.703	3.12
666.46	5.12
667.218	3.12
667.976	2.12
668.733	2.12
669.49	2.12
670.248	3.12
671.005	1.12
671.762	4.12
672.519	0.12
673.276	4.12
674.033	2.12
674.79	3.12
675.547	-0.88
676.304	3.12
677.06	3.12
677.817	3.12
678.574	3.12
679.33	2.12
680.086	2.12
680.843	3.12
681.599	2.12
682.355	2.12
683.111	2.12
683.867	2.12
684.623	2.12
685.379	3.12
686.135	2.12
686.89	2.12
687.646	2.12
688.402	3.12
689.157	-0.88
689.912	3.12
690.668	0.12
691.423	1.12
692.178	1.12
692.933	0.12
693.688	5.12
694.443	0.12
695.198	1.12
695.953	1.12
696.708	2.12
697.462	1.12
698.217	2.12
698.972	2.12
699.726	1.12
700.48	2.12
701.235	1.12
701.989	1.12
702.743	2.12
703.497	2.12
704.251	0.12
705.005	2.12
705.759	3.12
706.513	1.12
707.266	3.12
708.02	1.12
708.774	2.12
709.527	1.12
710.28	1.12
711.034	4.12
711.787	1.12
712.54	2.12
713.293	3.12
714.046	2.12
714.799	1.12
715.552	0.12
716.305	4.12
717.058	1.12
717.81	2.12
718.563	0.12
719.315	0.12
720.068	2.12
720.82	2.12
721.573	2.12
722.325	-0.88
723.077	1.12
723.829	3.12
724.581	0.12
725.333	0.12
726.085	0.12
726.836	1.12
727.588	3.12
728.34	3.12
729.091	2.12
729.843	2.12
730.594	3.12
731.346	1.12
732.097	3.12
732.848	2.12
733.599	3.12
734.35	4.12
735.101	4.12
735.852	2.12
736.603	1.12
737.354	3.12
738.104	0.12
738.855	5.12
739.605	1.12
740.356	3.12
741.106	2.12
741.856	3.12
742.607	-0.88
743.357	2.12
744.107	1.12
744.857	4.12
745.607	2.12
746.357	2.12
747.106	3.12
747.856	2.12
748.606	2.12
749.355	2.12
750.105	2.12
750.854	2.12
751.603	2.12
752.353	2.12
753.102	1.12
753.851	3.12
754.6	3.12
755.349	3.12
756.098	3.12
756.847	3.12
757.595	3.12
758.344	4.12
759.093	4.12
759.841	3.12
760.589	5.12
761.338	2.12
762.086	3.12
762.834	2.12
763.582	4.12
764.331	2.12
765.079	2.12
765.826	4.12
766.574	1.12
767.322	3.12
768.07	3.12
768.817	6.12
769.565	3.12
770.312	3.12
771.06	6.12
771.807	3.12
772.554	4.12
773.302	5.12
774.049	4.12
774.796	5.12
775.543	3.12
776.29	5.12
777.036	4.12
777.783	3.12
778.53	3.12
779.276	6.12
780.023	6.12
780.769	5.12
781.516	5.12
782.262	6.12
783.008	5.12
783.754	5.12
784.5	4.12
785.246	6.12
785.992	5.12
786.738	4.12
787.484	6.12
788.23	7.12
788.975	4.12
789.721	4.12
790.466	6.12
791.212	7.12
791.957	5.12
792.702	3.12
793.447	5.12
794.193	7.12
794.938	6.12
795.683	5.12
796.427	6.12
797.172	7.12
797.917	6.12
798.662	6.12
799.406	5.12
800.151	5.12
800.895	4.12
801.64	6.12
802.384	6.12
803.128	3.12
803.872	5.12
804.616	5.12
805.36	3.12
806.104	5.12
806.848	4.12
807.592	5.12
808.336	3.12
809.079	4.12
809.823	3.12
810.566	1.12
811.31	2.12
812.053	4.12
812.796	5.12
813.539	2.12
814.283	4.12
815.026	2.12
815.769	3.12
816.511	4.12
817.254	5.12
817.997	2.12
818.74	2.12
819.482	2.12
820.225	2.12
820.967	4.12
821.71	5.12
822.452	1.12
823.194	2.12
823.936	2.12
824.678	2.12
825.42	1.12
826.162	5.12
826.904	2.12
827.646	4.12
828.388	2.12
829.129	2.12
829.871	5.12
830.612	2.12
831.354	3.12
832.095	3.12
832.836	4.12
833.577	3.12
834.319	2.12
835.06	2.12
835.801	1.12
836.542	3.12
837.282	3.12
838.023	1.12
838.764	1.12
839.504	2.12
840.245	3.12
840.985	1.12
841.726	2.12
842.466	1.12
843.206	2.12
843.946	0.12
844.687	1.12
845.427	2.12
846.166	1.12
846.906	3.12
847.646	0.12
848.386	2.12
849.125	1.12
849.865	1.12
850.605	1.12
851.344	3.12
852.083	0.12
852.823	2.12
853.562	2.12
854.301	3.12
855.04	2.12
855.779	3.12
856.518	-1.88
857.257	1.12
857.995	0.12
858.734	0.12
859.473	4.12
860.211	1.12
860.95	1.12
861.688	2.12
862.426	1.12
863.165	4.12
863.903	1.12
864.641	1.12
865.379	-1.88
866.117	2.12
866.855	2.12
867.593	0.12
868.33	4.12
869.068	1.12
869.806	1.12
870.543	2.12
871.28	2.12
872.018	2.12
872.755	1.12
873.492	2.12
874.229	1.12
874.967	2.12
875.703	1.12
876.44	0.12
877.177	1.12
877.914	0.12
878.651	0.12
879.387	0.12
880.124	2.12
880.86	2.12
881.597	-2.88
882.333	2.12
883.069	0.12
883.806	2.12
884.542	-1.88
885.278	-0.88
886.014	2.12
886.749	1.12
887.485	0.12
888.221	1.12
888.957	1.12
889.692	-0.88
890.428	-1.88
891.163	2.12
891.899	-0.88
892.634	1.12
893.369	-1.88
894.104	1.12
894.839	0.12
895.574	-1.88
896.309	0.12
897.044	0.12
897.779	0.12
898.514	0.12
899.248	0.12
899.983	0.12
900.717	-0.88
901.452	1.12
902.186	0.12
902.92	1.12
903.654	-1.88
904.389	-1.88
905.123	1.12
905.857	-0.88
906.59	2.12
907.324	-1.88
908.058	1.12
908.792	1.12
909.525	-0.88
910.259	0.12
910.992	-1.88
911.726	-1.88
912.459	1.12
913.192	1.12
913.925	-0.88
914.658	0.12
915.391	1.12
916.124	-1.88
916.857	1.12
917.59	1.12
918.323	0.12
919.055	-1.88
919.788	0.12
920.521	0.12
921.253	-0.88
921.985	0.12
922.718	0.12
923.45	0.12
924.182	2.12
924.914	0.12
925.646	2.12
926.378	1.12
927.11	1.12
927.841	0.12
928.573	3.12
929.305	-0.88
930.036	0.12
930.768	0.12
931.499	0.12
932.23	3.12
932.962	0.12
933.693	1.12
934.424	0.12
935.155	-0.88
935.886	-0.88
936.617	-1.88
937.348	1.12
938.078	0.12
938.809	0.12
939.54	0.12
940.27	-1.88
941.001	3.12
941.731	-1.88
942.461	0.12
943.191	1.12
943.922	1.12
944.652	0.12
945.382	1.12
946.112	1.12
946.841	0.12
947.571	1.12
948.301	0.12
949.031	-0.88
949.76	1.12
950.49	0.12
951.219	1.12
951.948	1.12
952.678	0.12
953.407	-1.88
954.136	0.12
954.865	-1.88
955.594	-1.88
956.323	2.12
957.052	2.12
957.78	2.12
958.509	1.12
959.238	-2.88
959.966	0.12
960.695	-0.88
961.423	1.12
962.151	-1.88
962.88	1.12
963.608	0.12
964.336	1.12
965.064	-0.88
965.792	-1.88
966.52	1.12
967.247	-0.88
967.975	2.12
968.703	-1.88
969.43	1.12
970.158	-0.88
970.885	1.12
971.613	1.12
972.34	0.12
973.067	-0.88
973.794	1.12
974.521	0.12
975.248	2.12
975.975	1.12
976.702	2.12
977.429	0.12
978.156	1.12
978.882	1.12
979.609	-0.88
980.335	-1.88
981.062	0.12
981.788	0.12
982.514	0.12
983.24	0.12
983.967	0.12
984.693	1.12
985.419	0.12
986.144	-0.88
986.87	-0.88
987.596	0.12
988.322	0.12
989.047	1.12
989.773	-0.88
990.498	-0.88
991.224	-1.88
991.949	2.12
992.674	-1.88
993.399	0.12
994.124	-1.88
994.849	0.12
995.574	2.12
996.299	0.12
997.024	-2.88
997.749	1.12
998.473	-2.88
999.198	0.12
999.922	0.12
1000.647	4.12
1001.371	4.12
1002.095	-0.88
1002.82	-3.88
1003.544	-1.88
1004.268	-0.88
1004.992	-0.88
1005.716	-0.88
1006.439	-1.88
1007.163	-2.88
1007.887	-0.88
1008.611	0.12
1009.334	0.12
1010.058	1.12
1010.781	0.12
1011.504	-0.88
1012.228	-0.88
1012.951	-0.88
1013.674	3.12
1014.397	-1.88
1015.12	2.12
