节点500_145_QEPB04081__156__11-31-26-608.txt的数据

Date: Wed Nov 12 11:31:26 CST 2025
User: PC
Spectrometer: QEPB0408
触发模式: 0
积分时间 (秒): 1.000000E-2
Scans to average: 1
启用暗噪声校正: true
启用非线性校正: false
滑动平均宽度: 0
X轴模式: Wavelengths
Number of Pixels in Spectrum: 1044
>>>>>Begin Spectral Data<<<<<
220.843	-2.75
221.644	-1.75
222.444	0.25
223.244	1.25
224.045	0.25
224.845	-1.75
225.645	0.25
226.445	-1.75
227.245	-0.75
228.045	3.25
228.845	1.25
229.645	2.25
230.444	2.25
231.244	-0.75
232.043	-0.75
232.843	1.25
233.642	-1.75
234.442	-0.75
235.241	1.25
236.04	1.25
236.839	2.25
237.638	-0.75
238.437	2.25
239.236	-1.75
240.035	0.25
240.833	-1.75
241.632	1.25
242.43	3.25
243.229	2.25
244.027	2.25
244.826	0.25
245.624	2.25
246.422	2.25
247.22	2.25
248.018	2.25
248.816	2.25
249.614	5.25
250.412	1.25
251.21	2.25
252.007	3.25
252.805	3.25
253.602	4.25
254.4	2.25
255.197	4.25
255.994	4.25
256.791	2.25
257.589	4.25
258.386	4.25
259.183	3.25
259.979	4.25
260.776	5.25
261.573	5.25
262.37	7.25
263.166	5.25
263.963	4.25
264.759	7.25
265.556	6.25
266.352	6.25
267.148	7.25
267.944	9.25
268.74	7.25
269.536	7.25
270.332	6.25
271.128	6.25
271.924	8.25
272.719	8.25
273.515	9.25
274.311	8.25
275.106	9.25
275.901	9.25
276.697	10.25
277.492	9.25
278.287	9.25
279.082	10.25
279.877	11.25
280.672	9.25
281.467	13.25
282.262	9.25
283.056	12.25
283.851	10.25
284.646	8.25
285.44	14.25
286.234	11.25
287.029	10.25
287.823	13.25
288.617	11.25
289.411	12.25
290.205	8.25
290.999	10.25
291.793	12.25
292.587	14.25
293.381	12.25
294.174	11.25
294.968	10.25
295.761	7.25
296.555	10.25
297.348	9.25
298.141	8.25
298.935	11.25
299.728	9.25
300.521	9.25
301.314	7.25
302.107	9.25
302.899	9.25
303.692	7.25
304.485	9.25
305.277	9.25
306.07	10.25
306.862	9.25
307.655	9.25
308.447	8.25
309.239	9.25
310.031	5.25
310.823	6.25
311.615	7.25
312.407	8.25
313.199	7.25
313.991	5.25
314.783	4.25
315.574	5.25
316.366	4.25
317.157	4.25
317.949	5.25
318.74	6.25
319.531	6.25
320.322	4.25
321.113	6.25
321.904	3.25
322.695	4.25
323.486	3.25
324.277	2.25
325.068	5.25
325.858	6.25
326.649	4.25
327.439	3.25
328.23	2.25
329.02	5.25
329.81	5.25
330.6	2.25
331.391	4.25
332.181	4.25
332.971	3.25
333.76	5.25
334.55	5.25
335.34	4.25
336.13	7.25
336.919	4.25
337.709	4.25
338.498	4.25
339.287	5.25
340.077	0.25
340.866	2.25
341.655	2.25
342.444	3.25
343.233	5.25
344.022	4.25
344.811	2.25
345.6	3.25
346.388	3.25
347.177	2.25
347.965	2.25
348.754	5.25
349.542	5.25
350.33	5.25
351.119	3.25
351.907	5.25
352.695	5.25
353.483	4.25
354.271	4.25
355.059	3.25
355.846	2.25
356.634	1.25
357.422	3.25
358.209	4.25
358.997	3.25
359.784	4.25
360.571	3.25
361.359	3.25
362.146	4.25
362.933	1.25
363.72	3.25
364.507	3.25
365.294	3.25
366.081	4.25
366.867	4.25
367.654	1.25
368.44	3.25
369.227	1.25
370.013	4.25
370.8	4.25
371.586	2.25
372.372	5.25
373.158	3.25
373.944	6.25
374.73	2.25
375.516	2.25
376.302	4.25
377.088	6.25
377.873	3.25
378.659	2.25
379.445	0.25
380.23	2.25
381.015	2.25
381.801	1.25
382.586	3.25
383.371	3.25
384.156	4.25
384.941	3.25
385.726	3.25
386.511	6.25
387.296	4.25
388.08	1.25
388.865	4.25
389.649	2.25
390.434	6.25
391.218	2.25
392.003	2.25
392.787	3.25
393.571	2.25
394.355	4.25
395.139	4.25
395.923	2.25
396.707	4.25
397.491	6.25
398.274	5.25
399.058	4.25
399.842	2.25
400.625	4.25
401.408	2.25
402.192	4.25
402.975	3.25
403.758	5.25
404.541	1.25
405.324	3.25
406.107	5.25
406.89	5.25
407.673	5.25
408.456	5.25
409.238	3.25
410.021	4.25
410.803	2.25
411.586	2.25
412.368	4.25
413.151	6.25
413.933	5.25
414.715	6.25
415.497	4.25
416.279	1.25
417.061	5.25
417.843	4.25
418.624	7.25
419.406	4.25
420.188	6.25
420.969	4.25
421.751	8.25
422.532	4.25
423.313	7.25
424.095	6.25
424.876	5.25
425.657	6.25
426.438	7.25
427.219	4.25
428	7.25
428.78	7.25
429.561	9.25
430.342	5.25
431.122	9.25
431.903	7.25
432.683	8.25
433.464	8.25
434.244	9.25
435.024	8.25
435.804	10.25
436.584	10.25
437.364	9.25
438.144	9.25
438.924	13.25
439.704	13.25
440.483	13.25
441.263	12.25
442.042	12.25
442.822	13.25
443.601	15.25
444.38	14.25
445.16	14.25
445.939	18.25
446.718	17.25
447.497	17.25
448.276	19.25
449.054	20.25
449.833	23.25
450.612	24.25
451.391	26.25
452.169	28.25
452.948	30.25
453.726	33.25
454.504	37.25
455.282	40.25
456.061	43.25
456.839	47.25
457.617	53.25
458.395	55.25
459.172	64.25
459.95	68.25
460.728	82.25
461.506	87.25
462.283	95.25
463.061	110.25
463.838	121.25
464.615	136.25
465.393	150.25
466.17	165.25
466.947	186.25
467.724	197.25
468.501	227.25
469.278	254.25
470.055	289.25
470.831	321.25
471.608	363.25
472.385	401.25
473.161	434.25
473.938	494.25
474.714	557.25
475.49	609.25
476.266	679.25
477.043	762.25
477.819	830.25
478.595	927.25
479.371	1026.25
480.146	1135.25
480.922	1260.25
481.698	1400.25
482.473	1556.25
483.249	1710.25
484.024	1896.25
484.8	2100.25
485.575	2328.25
486.35	2567.25
487.126	2814.25
487.901	3156.25
488.676	3484.25
489.451	3882.25
490.225	4252.25
491	4697.25
491.775	5149.25
492.55	5670.25
493.324	6197.25
494.099	6828.25
494.873	7472.25
495.647	8169.25
496.422	8885.25
497.196	9603.25
497.97	10383.25
498.744	11241.25
499.518	12026.25
500.292	12794.25
501.066	13517.25
501.839	14255.25
502.613	14945.25
503.387	15558.25
504.16	16098.25
504.934	16537.25
505.707	16853.25
506.48	17063.25
507.253	17182.25
508.027	17198.25
508.8	17057.25
509.573	16834.25
510.346	16454.25
511.118	16051.25
511.891	15552.25
512.664	15029.25
513.437	14491.25
514.209	13864.25
514.982	13297.25
515.754	12748.25
516.526	12131.25
517.298	11581.25
518.071	11047.25
518.843	10565.25
519.615	10098.25
520.387	9674.25
521.159	9319.25
521.93	8929.25
522.702	8639.25
523.474	8242.25
524.245	7938.25
525.017	7617.25
525.788	7288.25
526.56	6995.25
527.331	6704.25
528.102	6402.25
528.873	6120.25
529.644	5883.25
530.415	5526.25
531.186	5278.25
531.957	4978.25
532.728	4745.25
533.498	4499.25
534.269	4225.25
535.039	4013.25
535.81	3769.25
536.58	3553.25
537.351	3356.25
538.121	3153.25
538.891	2991.25
539.661	2838.25
540.431	2676.25
541.201	2543.25
541.971	2388.25
542.741	2290.25
543.51	2162.25
544.28	2052.25
545.05	1953.25
545.819	1845.25
546.588	1769.25
547.358	1662.25
548.127	1584.25
548.896	1509.25
549.665	1434.25
550.434	1355.25
551.203	1290.25
551.972	1213.25
552.741	1162.25
553.51	1090.25
554.278	1026.25
555.047	968.25
555.815	920.25
556.584	869.25
557.352	820.25
558.121	767.25
558.889	726.25
559.657	686.25
560.425	642.25
561.193	601.25
561.961	567.25
562.729	541.25
563.496	516.25
564.264	484.25
565.032	444.25
565.799	419.25
566.567	403.25
567.334	383.25
568.101	360.25
568.869	344.25
569.636	318.25
570.403	301.25
571.17	288.25
571.937	265.25
572.704	256.25
573.471	240.25
574.237	226.25
575.004	213.25
575.771	204.25
576.537	186.25
577.303	174.25
578.07	160.25
578.836	157.25
579.602	147.25
580.368	138.25
581.134	133.25
581.9	120.25
582.666	122.25
583.432	109.25
584.198	108.25
584.964	103.25
585.729	92.25
586.495	92.25
587.26	85.25
588.025	81.25
588.791	74.25
589.556	72.25
590.321	69.25
591.086	68.25
591.851	63.25
592.616	59.25
593.381	54.25
594.146	54.25
594.911	51.25
595.675	48.25
596.44	48.25
597.204	44.25
597.969	42.25
598.733	39.25
599.497	35.25
600.261	39.25
601.025	34.25
601.79	35.25
602.553	32.25
603.317	28.25
604.081	28.25
604.845	24.25
605.609	27.25
606.372	23.25
607.136	24.25
607.899	21.25
608.662	21.25
609.426	18.25
610.189	18.25
610.952	21.25
611.715	21.25
612.478	17.25
613.241	18.25
614.004	15.25
614.767	15.25
615.529	14.25
616.292	15.25
617.055	14.25
617.817	13.25
618.579	14.25
619.342	14.25
620.104	14.25
620.866	15.25
621.628	9.25
622.39	12.25
623.152	10.25
623.914	9.25
624.676	9.25
625.438	11.25
626.199	10.25
626.961	9.25
627.722	9.25
628.484	8.25
629.245	8.25
630.006	6.25
630.768	6.25
631.529	7.25
632.29	8.25
633.051	7.25
633.812	7.25
634.573	7.25
635.333	7.25
636.094	7.25
636.855	7.25
637.615	6.25
638.376	6.25
639.136	7.25
639.896	7.25
640.657	6.25
641.417	4.25
642.177	7.25
642.937	5.25
643.697	7.25
644.457	4.25
645.216	4.25
645.976	6.25
646.736	4.25
647.495	3.25
648.255	4.25
649.014	3.25
649.774	4.25
650.533	4.25
651.292	5.25
652.051	4.25
652.81	4.25
653.569	3.25
654.328	3.25
655.087	2.25
655.846	6.25
656.604	3.25
657.363	4.25
658.121	5.25
658.88	3.25
659.638	4.25
660.397	1.25
661.155	3.25
661.913	3.25
662.671	2.25
663.429	3.25
664.187	1.25
664.945	1.25
665.703	1.25
666.46	2.25
667.218	2.25
667.976	3.25
668.733	4.25
669.49	2.25
670.248	6.25
671.005	3.25
671.762	0.25
672.519	3.25
673.276	2.25
674.033	2.25
674.79	2.25
675.547	4.25
676.304	2.25
677.06	3.25
677.817	2.25
678.574	3.25
679.33	3.25
680.086	4.25
680.843	3.25
681.599	3.25
682.355	3.25
683.111	0.25
683.867	1.25
684.623	4.25
685.379	2.25
686.135	5.25
686.89	4.25
687.646	3.25
688.402	4.25
689.157	-0.75
689.912	1.25
690.668	1.25
691.423	1.25
692.178	2.25
692.933	2.25
693.688	2.25
694.443	3.25
695.198	3.25
695.953	4.25
696.708	4.25
697.462	1.25
698.217	2.25
698.972	3.25
699.726	2.25
700.48	2.25
701.235	3.25
701.989	1.25
702.743	1.25
703.497	1.25
704.251	3.25
705.005	3.25
705.759	3.25
706.513	1.25
707.266	2.25
708.02	1.25
708.774	0.25
709.527	3.25
710.28	1.25
711.034	2.25
711.787	2.25
712.54	1.25
713.293	2.25
714.046	1.25
714.799	2.25
715.552	3.25
716.305	2.25
717.058	0.25
717.81	2.25
718.563	2.25
719.315	0.25
720.068	3.25
720.82	3.25
721.573	3.25
722.325	1.25
723.077	0.25
723.829	4.25
724.581	2.25
725.333	1.25
726.085	-1.75
726.836	2.25
727.588	1.25
728.34	2.25
729.091	2.25
729.843	3.25
730.594	3.25
731.346	0.25
732.097	1.25
732.848	2.25
733.599	1.25
734.35	1.25
735.101	2.25
735.852	1.25
736.603	2.25
737.354	3.25
738.104	0.25
738.855	2.25
739.605	0.25
740.356	0.25
741.106	1.25
741.856	2.25
742.607	1.25
743.357	2.25
744.107	2.25
744.857	2.25
745.607	4.25
746.357	2.25
747.106	1.25
747.856	2.25
748.606	5.25
749.355	2.25
750.105	3.25
750.854	3.25
751.603	4.25
752.353	3.25
753.102	2.25
753.851	5.25
754.6	2.25
755.349	7.25
756.098	4.25
756.847	3.25
757.595	2.25
758.344	2.25
759.093	4.25
759.841	4.25
760.589	1.25
761.338	1.25
762.086	4.25
762.834	3.25
763.582	3.25
764.331	2.25
765.079	3.25
765.826	2.25
766.574	4.25
767.322	6.25
768.07	2.25
768.817	4.25
769.565	4.25
770.312	2.25
771.06	3.25
771.807	7.25
772.554	6.25
773.302	6.25
774.049	3.25
774.796	5.25
775.543	5.25
776.29	5.25
777.036	5.25
777.783	6.25
778.53	7.25
779.276	5.25
780.023	5.25
780.769	5.25
781.516	7.25
782.262	4.25
783.008	5.25
783.754	5.25
784.5	5.25
785.246	6.25
785.992	5.25
786.738	6.25
787.484	4.25
788.23	6.25
788.975	6.25
789.721	3.25
790.466	6.25
791.212	6.25
791.957	5.25
792.702	5.25
793.447	4.25
794.193	5.25
794.938	5.25
795.683	6.25
796.427	3.25
797.172	5.25
797.917	5.25
798.662	3.25
799.406	5.25
800.151	4.25
800.895	4.25
801.64	5.25
802.384	7.25
803.128	6.25
803.872	4.25
804.616	5.25
805.36	5.25
806.104	2.25
806.848	2.25
807.592	4.25
808.336	2.25
809.079	5.25
809.823	5.25
810.566	1.25
811.31	7.25
812.053	4.25
812.796	2.25
813.539	5.25
814.283	4.25
815.026	4.25
815.769	2.25
816.511	5.25
817.254	4.25
817.997	3.25
818.74	4.25
819.482	2.25
820.225	5.25
820.967	3.25
821.71	2.25
822.452	3.25
823.194	3.25
823.936	4.25
824.678	2.25
825.42	5.25
826.162	1.25
826.904	1.25
827.646	2.25
828.388	2.25
829.129	5.25
829.871	2.25
830.612	2.25
831.354	2.25
832.095	1.25
832.836	2.25
833.577	1.25
834.319	3.25
835.06	2.25
835.801	3.25
836.542	0.25
837.282	2.25
838.023	3.25
838.764	2.25
839.504	4.25
840.245	3.25
840.985	2.25
841.726	2.25
842.466	1.25
843.206	1.25
843.946	2.25
844.687	2.25
845.427	2.25
846.166	4.25
846.906	0.25
847.646	3.25
848.386	2.25
849.125	3.25
849.865	1.25
850.605	1.25
851.344	2.25
852.083	1.25
852.823	3.25
853.562	2.25
854.301	1.25
855.04	2.25
855.779	1.25
856.518	4.25
857.257	1.25
857.995	0.25
858.734	1.25
859.473	0.25
860.211	3.25
860.95	0.25
861.688	2.25
862.426	1.25
863.165	1.25
863.903	2.25
864.641	1.25
865.379	2.25
866.117	1.25
866.855	0.25
867.593	2.25
868.33	0.25
869.068	-1.75
869.806	-0.75
870.543	-0.75
871.28	2.25
872.018	2.25
872.755	3.25
873.492	0.25
874.229	-0.75
874.967	1.25
875.703	2.25
876.44	1.25
877.177	2.25
877.914	1.25
878.651	0.25
879.387	1.25
880.124	2.25
880.86	1.25
881.597	0.25
882.333	0.25
883.069	2.25
883.806	2.25
884.542	0.25
885.278	0.25
886.014	1.25
886.749	2.25
887.485	2.25
888.221	1.25
888.957	1.25
889.692	2.25
890.428	-0.75
891.163	1.25
891.899	0.25
892.634	2.25
893.369	0.25
894.104	-0.75
894.839	2.25
895.574	0.25
896.309	1.25
897.044	0.25
897.779	2.25
898.514	1.25
899.248	0.25
899.983	0.25
900.717	0.25
901.452	2.25
902.186	-0.75
902.92	2.25
903.654	-1.75
904.389	-0.75
905.123	2.25
905.857	0.25
906.59	1.25
907.324	-1.75
908.058	1.25
908.792	1.25
909.525	-0.75
910.259	1.25
910.992	0.25
911.726	-1.75
912.459	1.25
913.192	1.25
913.925	0.25
914.658	0.25
915.391	1.25
916.124	2.25
916.857	1.25
917.59	-0.75
918.323	-1.75
919.055	2.25
919.788	2.25
920.521	1.25
921.253	0.25
921.985	0.25
922.718	1.25
923.45	1.25
924.182	1.25
924.914	1.25
925.646	1.25
926.378	1.25
927.11	-1.75
927.841	-1.75
928.573	-1.75
929.305	-1.75
930.036	0.25
930.768	1.25
931.499	0.25
932.23	0.25
932.962	-0.75
933.693	0.25
934.424	0.25
935.155	-1.75
935.886	-1.75
936.617	-0.75
937.348	-2.75
938.078	-0.75
938.809	-0.75
939.54	0.25
940.27	-0.75
941.001	-1.75
941.731	1.25
942.461	-2.75
943.191	2.25
943.922	0.25
944.652	1.25
945.382	0.25
946.112	1.25
946.841	2.25
947.571	-0.75
948.301	-1.75
949.031	1.25
949.76	0.25
950.49	1.25
951.219	0.25
951.948	2.25
952.678	-0.75
953.407	1.25
954.136	-0.75
954.865	2.25
955.594	0.25
956.323	0.25
957.052	2.25
957.78	-3.75
958.509	2.25
959.238	2.25
959.966	-1.75
960.695	2.25
961.423	-0.75
962.151	0.25
962.88	2.25
963.608	1.25
964.336	-0.75
965.064	1.25
965.792	1.25
966.52	1.25
967.247	1.25
967.975	1.25
968.703	1.25
969.43	-0.75
970.158	0.25
970.885	-0.75
971.613	0.25
972.34	-0.75
973.067	-1.75
973.794	-0.75
974.521	1.25
975.248	1.25
975.975	0.25
976.702	-0.75
977.429	0.25
978.156	1.25
978.882	1.25
979.609	-1.75
980.335	0.25
981.062	2.25
981.788	1.25
982.514	1.25
983.24	-0.75
983.967	-0.75
984.693	2.25
985.419	0.25
986.144	0.25
986.87	1.25
987.596	1.25
988.322	-1.75
989.047	-0.75
989.773	0.25
990.498	1.25
991.224	1.25
991.949	-0.75
992.674	3.25
993.399	0.25
994.124	1.25
994.849	0.25
995.574	2.25
996.299	0.25
997.024	2.25
997.749	2.25
998.473	0.25
999.198	1.25
999.922	0.25
1000.647	-0.75
1001.371	6.25
1002.095	-2.75
1002.82	-0.75
1003.544	-1.75
1004.268	1.25
1004.992	-0.75
1005.716	0.25
1006.439	-2.75
1007.163	-0.75
1007.887	-0.75
1008.611	1.25
1009.334	1.25
1010.058	-1.75
1010.781	2.25
1011.504	1.25
1012.228	1.25
1012.951	0.25
1013.674	0.25
1014.397	-0.75
1015.12	-0.75
