节点500_145_QEPB04081__364__11-34-45-583.txt的数据

Date: Wed Nov 12 11:34:45 CST 2025
User: PC
Spectrometer: QEPB0408
触发模式: 0
积分时间 (秒): 1.000000E-2
Scans to average: 1
启用暗噪声校正: true
启用非线性校正: false
滑动平均宽度: 0
X轴模式: Wavelengths
Number of Pixels in Spectrum: 1044
>>>>>Begin Spectral Data<<<<<
220.843	-1.38
221.644	0.62
222.444	-0.38
223.244	-1.38
224.045	0.62
224.845	0.62
225.645	-1.38
226.445	1.62
227.245	1.62
228.045	-0.38
228.845	2.62
229.645	-1.38
230.444	-0.38
231.244	0.62
232.043	2.62
232.843	-0.38
233.642	1.62
234.442	1.62
235.241	2.62
236.04	1.62
236.839	-1.38
237.638	0.62
238.437	0.62
239.236	2.62
240.035	0.62
240.833	4.62
241.632	2.62
242.43	2.62
243.229	0.62
244.027	2.62
244.826	3.62
245.624	3.62
246.422	2.62
247.22	-0.38
248.018	1.62
248.816	0.62
249.614	2.62
250.412	4.62
251.21	3.62
252.007	1.62
252.805	2.62
253.602	2.62
254.4	3.62
255.197	2.62
255.994	3.62
256.791	1.62
257.589	1.62
258.386	5.62
259.183	3.62
259.979	1.62
260.776	4.62
261.573	4.62
262.37	5.62
263.166	4.62
263.963	5.62
264.759	4.62
265.556	5.62
266.352	7.62
267.148	7.62
267.944	7.62
268.74	6.62
269.536	4.62
270.332	7.62
271.128	8.62
271.924	7.62
272.719	8.62
273.515	9.62
274.311	8.62
275.106	9.62
275.901	9.62
276.697	9.62
277.492	7.62
278.287	11.62
279.082	8.62
279.877	7.62
280.672	7.62
281.467	11.62
282.262	7.62
283.056	9.62
283.851	10.62
284.646	9.62
285.44	9.62
286.234	8.62
287.029	11.62
287.823	9.62
288.617	9.62
289.411	13.62
290.205	12.62
290.999	12.62
291.793	10.62
292.587	8.62
293.381	11.62
294.174	9.62
294.968	12.62
295.761	8.62
296.555	12.62
297.348	7.62
298.141	8.62
298.935	10.62
299.728	10.62
300.521	8.62
301.314	6.62
302.107	7.62
302.899	7.62
303.692	10.62
304.485	7.62
305.277	7.62
306.07	6.62
306.862	8.62
307.655	8.62
308.447	6.62
309.239	8.62
310.031	9.62
310.823	7.62
311.615	8.62
312.407	7.62
313.199	6.62
313.991	6.62
314.783	7.62
315.574	5.62
316.366	3.62
317.157	3.62
317.949	7.62
318.74	5.62
319.531	4.62
320.322	5.62
321.113	5.62
321.904	5.62
322.695	5.62
323.486	2.62
324.277	3.62
325.068	6.62
325.858	6.62
326.649	2.62
327.439	5.62
328.23	5.62
329.02	4.62
329.81	2.62
330.6	3.62
331.391	2.62
332.181	4.62
332.971	3.62
333.76	5.62
334.55	4.62
335.34	5.62
336.13	3.62
336.919	3.62
337.709	5.62
338.498	2.62
339.287	4.62
340.077	3.62
340.866	4.62
341.655	0.62
342.444	4.62
343.233	4.62
344.022	2.62
344.811	3.62
345.6	3.62
346.388	3.62
347.177	1.62
347.965	6.62
348.754	2.62
349.542	4.62
350.33	2.62
351.119	1.62
351.907	5.62
352.695	4.62
353.483	4.62
354.271	5.62
355.059	4.62
355.846	4.62
356.634	1.62
357.422	1.62
358.209	3.62
358.997	3.62
359.784	4.62
360.571	2.62
361.359	3.62
362.146	0.62
362.933	3.62
363.72	3.62
364.507	2.62
365.294	5.62
366.081	1.62
366.867	2.62
367.654	1.62
368.44	4.62
369.227	2.62
370.013	4.62
370.8	3.62
371.586	2.62
372.372	3.62
373.158	2.62
373.944	2.62
374.73	1.62
375.516	3.62
376.302	1.62
377.088	1.62
377.873	1.62
378.659	3.62
379.445	5.62
380.23	2.62
381.015	1.62
381.801	2.62
382.586	3.62
383.371	2.62
384.156	3.62
384.941	3.62
385.726	2.62
386.511	5.62
387.296	4.62
388.08	2.62
388.865	2.62
389.649	2.62
390.434	2.62
391.218	2.62
392.003	5.62
392.787	5.62
393.571	1.62
394.355	2.62
395.139	3.62
395.923	2.62
396.707	3.62
397.491	3.62
398.274	3.62
399.058	3.62
399.842	4.62
400.625	3.62
401.408	4.62
402.192	4.62
402.975	5.62
403.758	4.62
404.541	2.62
405.324	2.62
406.107	3.62
406.89	4.62
407.673	6.62
408.456	5.62
409.238	4.62
410.021	4.62
410.803	6.62
411.586	4.62
412.368	5.62
413.151	5.62
413.933	5.62
414.715	5.62
415.497	3.62
416.279	7.62
417.061	5.62
417.843	4.62
418.624	5.62
419.406	5.62
420.188	5.62
420.969	5.62
421.751	6.62
422.532	5.62
423.313	5.62
424.095	5.62
424.876	5.62
425.657	6.62
426.438	4.62
427.219	6.62
428	6.62
428.78	8.62
429.561	7.62
430.342	7.62
431.122	8.62
431.903	7.62
432.683	10.62
433.464	9.62
434.244	9.62
435.024	5.62
435.804	9.62
436.584	9.62
437.364	8.62
438.144	10.62
438.924	12.62
439.704	11.62
440.483	9.62
441.263	10.62
442.042	12.62
442.822	14.62
443.601	16.62
444.38	14.62
445.16	15.62
445.939	15.62
446.718	14.62
447.497	20.62
448.276	23.62
449.054	20.62
449.833	24.62
450.612	24.62
451.391	26.62
452.169	27.62
452.948	30.62
453.726	36.62
454.504	39.62
455.282	43.62
456.061	49.62
456.839	52.62
457.617	55.62
458.395	66.62
459.172	68.62
459.95	76.62
460.728	86.62
461.506	94.62
462.283	110.62
463.061	113.62
463.838	131.62
464.615	144.62
465.393	158.62
466.17	176.62
466.947	203.62
467.724	217.62
468.501	247.62
469.278	276.62
470.055	310.62
470.831	334.62
471.608	378.62
472.385	423.62
473.161	461.62
473.938	517.62
474.714	564.62
475.49	630.62
476.266	704.62
477.043	780.62
477.819	857.62
478.595	957.62
479.371	1046.62
480.146	1149.62
480.922	1273.62
481.698	1412.62
482.473	1542.62
483.249	1709.62
484.024	1871.62
484.8	2056.62
485.575	2249.62
486.35	2486.62
487.126	2745.62
487.901	3025.62
488.676	3307.62
489.451	3662.62
490.225	3992.62
491	4368.62
491.775	4793.62
492.55	5260.62
493.324	5726.62
494.099	6279.62
494.873	6849.62
495.647	7428.62
496.422	8065.62
497.196	8736.62
497.97	9421.62
498.744	10206.62
499.518	10883.62
500.292	11592.62
501.066	12301.62
501.839	12949.62
502.613	13646.62
503.387	14234.62
504.16	14789.62
504.934	15308.62
505.707	15639.62
506.48	15936.62
507.253	16115.62
508.027	16239.62
508.8	16232.62
509.573	16055.62
510.346	15897.62
511.118	15602.62
511.891	15275.62
512.664	14824.62
513.437	14280.62
514.209	13818.62
514.982	13310.62
515.754	12745.62
516.526	12238.62
517.298	11705.62
518.071	11185.62
518.843	10661.62
519.615	10233.62
520.387	9799.62
521.159	9442.62
521.93	9057.62
522.702	8658.62
523.474	8358.62
524.245	7999.62
525.017	7675.62
525.788	7400.62
526.56	7113.62
527.331	6813.62
528.102	6539.62
528.873	6218.62
529.644	5966.62
530.415	5658.62
531.186	5415.62
531.957	5163.62
532.728	4874.62
533.498	4615.62
534.269	4363.62
535.039	4161.62
535.81	3925.62
536.58	3698.62
537.351	3488.62
538.121	3291.62
538.891	3132.62
539.661	2955.62
540.431	2781.62
541.201	2648.62
541.971	2489.62
542.741	2360.62
543.51	2245.62
544.28	2144.62
545.05	2029.62
545.819	1938.62
546.588	1836.62
547.358	1738.62
548.127	1651.62
548.896	1567.62
549.665	1486.62
550.434	1418.62
551.203	1335.62
551.972	1289.62
552.741	1202.62
553.51	1148.62
554.278	1088.62
555.047	1030.62
555.815	957.62
556.584	911.62
557.352	851.62
558.121	810.62
558.889	769.62
559.657	718.62
560.425	677.62
561.193	643.62
561.961	601.62
562.729	575.62
563.496	542.62
564.264	504.62
565.032	479.62
565.799	449.62
566.567	437.62
567.334	406.62
568.101	384.62
568.869	358.62
569.636	340.62
570.403	326.62
571.17	311.62
571.937	286.62
572.704	267.62
573.471	253.62
574.237	241.62
575.004	225.62
575.771	207.62
576.537	192.62
577.303	189.62
578.07	176.62
578.836	160.62
579.602	158.62
580.368	150.62
581.134	141.62
581.9	131.62
582.666	125.62
583.432	117.62
584.198	110.62
584.964	108.62
585.729	98.62
586.495	93.62
587.26	92.62
588.025	84.62
588.791	78.62
589.556	74.62
590.321	70.62
591.086	68.62
591.851	67.62
592.616	62.62
593.381	58.62
594.146	55.62
594.911	52.62
595.675	49.62
596.44	48.62
597.204	43.62
597.969	43.62
598.733	39.62
599.497	41.62
600.261	39.62
601.025	33.62
601.79	32.62
602.553	30.62
603.317	34.62
604.081	29.62
604.845	29.62
605.609	28.62
606.372	25.62
607.136	27.62
607.899	22.62
608.662	25.62
609.426	19.62
610.189	22.62
610.952	17.62
611.715	20.62
612.478	18.62
613.241	16.62
614.004	18.62
614.767	19.62
615.529	16.62
616.292	14.62
617.055	15.62
617.817	14.62
618.579	14.62
619.342	15.62
620.104	11.62
620.866	12.62
621.628	11.62
622.39	12.62
623.152	9.62
623.914	9.62
624.676	10.62
625.438	8.62
626.199	11.62
626.961	10.62
627.722	9.62
628.484	10.62
629.245	8.62
630.006	10.62
630.768	9.62
631.529	7.62
632.29	8.62
633.051	9.62
633.812	7.62
634.573	8.62
635.333	8.62
636.094	4.62
636.855	7.62
637.615	6.62
638.376	5.62
639.136	7.62
639.896	4.62
640.657	7.62
641.417	5.62
642.177	6.62
642.937	3.62
643.697	7.62
644.457	5.62
645.216	3.62
645.976	5.62
646.736	6.62
647.495	3.62
648.255	5.62
649.014	5.62
649.774	6.62
650.533	4.62
651.292	7.62
652.051	2.62
652.81	4.62
653.569	4.62
654.328	0.62
655.087	4.62
655.846	2.62
656.604	3.62
657.363	1.62
658.121	2.62
658.88	4.62
659.638	1.62
660.397	3.62
661.155	5.62
661.913	3.62
662.671	0.62
663.429	5.62
664.187	1.62
664.945	2.62
665.703	3.62
666.46	3.62
667.218	4.62
667.976	3.62
668.733	2.62
669.49	4.62
670.248	4.62
671.005	5.62
671.762	2.62
672.519	4.62
673.276	1.62
674.033	2.62
674.79	3.62
675.547	3.62
676.304	3.62
677.06	3.62
677.817	2.62
678.574	2.62
679.33	4.62
680.086	2.62
680.843	3.62
681.599	2.62
682.355	0.62
683.111	3.62
683.867	0.62
684.623	2.62
685.379	0.62
686.135	2.62
686.89	0.62
687.646	1.62
688.402	1.62
689.157	3.62
689.912	0.62
690.668	2.62
691.423	1.62
692.178	4.62
692.933	1.62
693.688	2.62
694.443	2.62
695.198	4.62
695.953	2.62
696.708	1.62
697.462	2.62
698.217	1.62
698.972	3.62
699.726	2.62
700.48	1.62
701.235	3.62
701.989	2.62
702.743	0.62
703.497	-0.38
704.251	2.62
705.005	3.62
705.759	3.62
706.513	1.62
707.266	2.62
708.02	1.62
708.774	0.62
709.527	4.62
710.28	2.62
711.034	1.62
711.787	-0.38
712.54	1.62
713.293	1.62
714.046	3.62
714.799	4.62
715.552	3.62
716.305	3.62
717.058	2.62
717.81	1.62
718.563	0.62
719.315	2.62
720.068	1.62
720.82	2.62
721.573	1.62
722.325	2.62
723.077	2.62
723.829	1.62
724.581	2.62
725.333	0.62
726.085	1.62
726.836	3.62
727.588	2.62
728.34	2.62
729.091	3.62
729.843	1.62
730.594	0.62
731.346	3.62
732.097	1.62
732.848	2.62
733.599	0.62
734.35	1.62
735.101	1.62
735.852	1.62
736.603	2.62
737.354	2.62
738.104	3.62
738.855	3.62
739.605	4.62
740.356	3.62
741.106	1.62
741.856	3.62
742.607	2.62
743.357	2.62
744.107	2.62
744.857	3.62
745.607	0.62
746.357	1.62
747.106	2.62
747.856	0.62
748.606	3.62
749.355	2.62
750.105	0.62
750.854	2.62
751.603	2.62
752.353	2.62
753.102	1.62
753.851	2.62
754.6	5.62
755.349	6.62
756.098	2.62
756.847	3.62
757.595	1.62
758.344	4.62
759.093	4.62
759.841	1.62
760.589	5.62
761.338	4.62
762.086	3.62
762.834	1.62
763.582	3.62
764.331	4.62
765.079	2.62
765.826	4.62
766.574	4.62
767.322	5.62
768.07	4.62
768.817	3.62
769.565	4.62
770.312	5.62
771.06	3.62
771.807	4.62
772.554	2.62
773.302	4.62
774.049	3.62
774.796	6.62
775.543	3.62
776.29	5.62
777.036	4.62
777.783	4.62
778.53	4.62
779.276	1.62
780.023	4.62
780.769	4.62
781.516	3.62
782.262	5.62
783.008	3.62
783.754	6.62
784.5	4.62
785.246	5.62
785.992	2.62
786.738	4.62
787.484	3.62
788.23	2.62
788.975	3.62
789.721	5.62
790.466	5.62
791.212	5.62
791.957	6.62
792.702	4.62
793.447	3.62
794.193	5.62
794.938	6.62
795.683	5.62
796.427	3.62
797.172	5.62
797.917	5.62
798.662	2.62
799.406	4.62
800.151	4.62
800.895	4.62
801.64	3.62
802.384	3.62
803.128	3.62
803.872	3.62
804.616	5.62
805.36	3.62
806.104	7.62
806.848	6.62
807.592	2.62
808.336	3.62
809.079	3.62
809.823	5.62
810.566	3.62
811.31	3.62
812.053	4.62
812.796	2.62
813.539	6.62
814.283	2.62
815.026	1.62
815.769	4.62
816.511	4.62
817.254	2.62
817.997	4.62
818.74	2.62
819.482	4.62
820.225	4.62
820.967	3.62
821.71	4.62
822.452	4.62
823.194	4.62
823.936	3.62
824.678	1.62
825.42	4.62
826.162	3.62
826.904	1.62
827.646	2.62
828.388	3.62
829.129	3.62
829.871	2.62
830.612	3.62
831.354	3.62
832.095	3.62
832.836	4.62
833.577	3.62
834.319	1.62
835.06	1.62
835.801	4.62
836.542	5.62
837.282	5.62
838.023	2.62
838.764	1.62
839.504	1.62
840.245	4.62
840.985	2.62
841.726	1.62
842.466	1.62
843.206	3.62
843.946	1.62
844.687	2.62
845.427	3.62
846.166	3.62
846.906	2.62
847.646	2.62
848.386	1.62
849.125	0.62
849.865	2.62
850.605	-0.38
851.344	2.62
852.083	1.62
852.823	2.62
853.562	2.62
854.301	2.62
855.04	1.62
855.779	0.62
856.518	2.62
857.257	-0.38
857.995	1.62
858.734	2.62
859.473	2.62
860.211	1.62
860.95	-2.38
861.688	1.62
862.426	0.62
863.165	1.62
863.903	1.62
864.641	1.62
865.379	0.62
866.117	1.62
866.855	2.62
867.593	-0.38
868.33	1.62
869.068	1.62
869.806	1.62
870.543	2.62
871.28	1.62
872.018	2.62
872.755	0.62
873.492	1.62
874.229	1.62
874.967	-1.38
875.703	2.62
876.44	4.62
877.177	2.62
877.914	0.62
878.651	1.62
879.387	2.62
880.124	0.62
880.86	0.62
881.597	-0.38
882.333	2.62
883.069	0.62
883.806	0.62
884.542	2.62
885.278	0.62
886.014	0.62
886.749	-1.38
887.485	2.62
888.221	-1.38
888.957	1.62
889.692	1.62
890.428	-0.38
891.163	1.62
891.899	0.62
892.634	1.62
893.369	-0.38
894.104	0.62
894.839	2.62
895.574	-0.38
896.309	2.62
897.044	1.62
897.779	0.62
898.514	-0.38
899.248	0.62
899.983	1.62
900.717	-2.38
901.452	-1.38
902.186	0.62
902.92	2.62
903.654	0.62
904.389	0.62
905.123	0.62
905.857	1.62
906.59	0.62
907.324	0.62
908.058	1.62
908.792	-1.38
909.525	1.62
910.259	0.62
910.992	0.62
911.726	-1.38
912.459	-1.38
913.192	-0.38
913.925	0.62
914.658	1.62
915.391	1.62
916.124	-1.38
916.857	-0.38
917.59	2.62
918.323	2.62
919.055	-0.38
919.788	0.62
920.521	0.62
921.253	0.62
921.985	1.62
922.718	1.62
923.45	0.62
924.182	2.62
924.914	-0.38
925.646	0.62
926.378	0.62
927.11	-0.38
927.841	-2.38
928.573	1.62
929.305	1.62
930.036	0.62
930.768	1.62
931.499	0.62
932.23	2.62
932.962	-2.38
933.693	-1.38
934.424	0.62
935.155	-1.38
935.886	1.62
936.617	-0.38
937.348	0.62
938.078	0.62
938.809	-0.38
939.54	1.62
940.27	-0.38
941.001	0.62
941.731	-1.38
942.461	-0.38
943.191	0.62
943.922	0.62
944.652	-0.38
945.382	0.62
946.112	0.62
946.841	2.62
947.571	1.62
948.301	1.62
949.031	0.62
949.76	-1.38
950.49	0.62
951.219	0.62
951.948	-1.38
952.678	1.62
953.407	1.62
954.136	1.62
954.865	0.62
955.594	-1.38
956.323	-0.38
957.052	-0.38
957.78	2.62
958.509	-0.38
959.238	-0.38
959.966	1.62
960.695	-1.38
961.423	0.62
962.151	-1.38
962.88	-1.38
963.608	0.62
964.336	2.62
965.064	-1.38
965.792	0.62
966.52	0.62
967.247	-1.38
967.975	2.62
968.703	1.62
969.43	-0.38
970.158	0.62
970.885	-0.38
971.613	-0.38
972.34	-1.38
973.067	0.62
973.794	1.62
974.521	-1.38
975.248	2.62
975.975	-1.38
976.702	0.62
977.429	1.62
978.156	1.62
978.882	1.62
979.609	2.62
980.335	2.62
981.062	0.62
981.788	-0.38
982.514	-0.38
983.24	-0.38
983.967	1.62
984.693	-1.38
985.419	1.62
986.144	-0.38
986.87	1.62
987.596	-0.38
988.322	0.62
989.047	0.62
989.773	-1.38
990.498	0.62
991.224	0.62
991.949	-1.38
992.674	1.62
993.399	1.62
994.124	-0.38
994.849	1.62
995.574	0.62
996.299	-1.38
997.024	-0.38
997.749	0.62
998.473	-0.38
999.198	-1.38
999.922	-0.38
1000.647	2.62
1001.371	2.62
1002.095	-2.38
1002.82	-0.38
1003.544	-1.38
1004.268	-0.38
1004.992	-1.38
1005.716	0.62
1006.439	-1.38
1007.163	-1.38
1007.887	-0.38
1008.611	1.62
1009.334	1.62
1010.058	1.62
1010.781	0.62
1011.504	1.62
1012.228	-1.38
1012.951	1.62
1013.674	-3.38
1014.397	1.62
1015.12	1.62
