节点500_145_QEPB04081__157__11-31-27-605.txt的数据

Date: Wed Nov 12 11:31:27 CST 2025
User: PC
Spectrometer: QEPB0408
触发模式: 0
积分时间 (秒): 1.000000E-2
Scans to average: 1
启用暗噪声校正: true
启用非线性校正: false
滑动平均宽度: 0
X轴模式: Wavelengths
Number of Pixels in Spectrum: 1044
>>>>>Begin Spectral Data<<<<<
220.843	0
221.644	1
222.444	1
223.244	0
224.045	0
224.845	0
225.645	1
226.445	1
227.245	-4
228.045	0
228.845	1
229.645	-2
230.444	-1
231.244	-1
232.043	2
232.843	0
233.642	0
234.442	1
235.241	2
236.04	2
236.839	1
237.638	1
238.437	2
239.236	4
240.035	2
240.833	-2
241.632	3
242.43	1
243.229	1
244.027	3
244.826	3
245.624	2
246.422	1
247.22	3
248.018	2
248.816	2
249.614	1
250.412	2
251.21	3
252.007	3
252.805	4
253.602	3
254.4	3
255.197	5
255.994	3
256.791	4
257.589	3
258.386	3
259.183	2
259.979	4
260.776	3
261.573	5
262.37	4
263.166	2
263.963	6
264.759	6
265.556	6
266.352	6
267.148	5
267.944	8
268.74	6
269.536	6
270.332	8
271.128	8
271.924	8
272.719	7
273.515	7
274.311	8
275.106	9
275.901	12
276.697	10
277.492	11
278.287	9
279.082	10
279.877	11
280.672	11
281.467	12
282.262	10
283.056	11
283.851	11
284.646	11
285.44	9
286.234	12
287.029	11
287.823	12
288.617	12
289.411	9
290.205	12
290.999	10
291.793	11
292.587	10
293.381	11
294.174	11
294.968	9
295.761	9
296.555	8
297.348	9
298.141	7
298.935	10
299.728	8
300.521	9
301.314	10
302.107	7
302.899	7
303.692	10
304.485	9
305.277	7
306.07	6
306.862	9
307.655	9
308.447	7
309.239	6
310.031	8
310.823	7
311.615	5
312.407	8
313.199	5
313.991	5
314.783	6
315.574	6
316.366	5
317.157	8
317.949	6
318.74	6
319.531	2
320.322	5
321.113	5
321.904	5
322.695	4
323.486	4
324.277	4
325.068	4
325.858	6
326.649	3
327.439	5
328.23	5
329.02	2
329.81	2
330.6	5
331.391	4
332.181	3
332.971	4
333.76	3
334.55	4
335.34	4
336.13	1
336.919	4
337.709	3
338.498	4
339.287	4
340.077	3
340.866	5
341.655	4
342.444	6
343.233	2
344.022	4
344.811	4
345.6	1
346.388	3
347.177	3
347.965	5
348.754	1
349.542	3
350.33	2
351.119	4
351.907	5
352.695	2
353.483	2
354.271	2
355.059	3
355.846	4
356.634	2
357.422	4
358.209	2
358.997	4
359.784	5
360.571	4
361.359	3
362.146	1
362.933	4
363.72	3
364.507	4
365.294	1
366.081	5
366.867	2
367.654	1
368.44	3
369.227	1
370.013	5
370.8	2
371.586	3
372.372	3
373.158	2
373.944	3
374.73	3
375.516	3
376.302	4
377.088	1
377.873	4
378.659	3
379.445	2
380.23	2
381.015	2
381.801	2
382.586	2
383.371	2
384.156	2
384.941	2
385.726	1
386.511	4
387.296	2
388.08	3
388.865	4
389.649	2
390.434	5
391.218	2
392.003	4
392.787	5
393.571	2
394.355	5
395.139	3
395.923	3
396.707	3
397.491	4
398.274	2
399.058	3
399.842	7
400.625	4
401.408	4
402.192	3
402.975	4
403.758	4
404.541	1
405.324	4
406.107	3
406.89	4
407.673	4
408.456	5
409.238	4
410.021	4
410.803	4
411.586	5
412.368	5
413.151	7
413.933	4
414.715	5
415.497	7
416.279	6
417.061	6
417.843	4
418.624	5
419.406	5
420.188	6
420.969	7
421.751	6
422.532	5
423.313	5
424.095	8
424.876	7
425.657	8
426.438	6
427.219	9
428	9
428.78	6
429.561	8
430.342	8
431.122	7
431.903	6
432.683	8
433.464	6
434.244	8
435.024	9
435.804	7
436.584	9
437.364	9
438.144	9
438.924	10
439.704	11
440.483	10
441.263	13
442.042	11
442.822	11
443.601	15
444.38	14
445.16	11
445.939	13
446.718	14
447.497	17
448.276	18
449.054	20
449.833	23
450.612	25
451.391	28
452.169	25
452.948	33
453.726	30
454.504	35
455.282	37
456.061	43
456.839	46
457.617	51
458.395	58
459.172	60
459.95	71
460.728	80
461.506	86
462.283	95
463.061	108
463.838	114
464.615	132
465.393	150
466.17	166
466.947	184
467.724	202
468.501	230
469.278	258
470.055	286
470.831	322
471.608	355
472.385	398
473.161	447
473.938	493
474.714	549
475.49	622
476.266	680
477.043	740
477.819	831
478.595	941
479.371	1030
480.146	1135
480.922	1249
481.698	1411
482.473	1553
483.249	1729
484.024	1908
484.8	2096
485.575	2342
486.35	2573
487.126	2850
487.901	3173
488.676	3480
489.451	3826
490.225	4246
491	4694
491.775	5162
492.55	5650
493.324	6221
494.099	6851
494.873	7461
495.647	8116
496.422	8907
497.196	9625
497.97	10369
498.744	11200
499.518	11976
500.292	12775
501.066	13533
501.839	14247
502.613	14975
503.387	15555
504.16	16107
504.934	16525
505.707	16828
506.48	17029
507.253	17124
508.027	17161
508.8	17038
509.573	16767
510.346	16434
511.118	16050
511.891	15530
512.664	15032
513.437	14460
514.209	13863
514.982	13250
515.754	12701
516.526	12144
517.298	11545
518.071	11035
518.843	10542
519.615	10140
520.387	9708
521.159	9334
521.93	8954
522.702	8547
523.474	8243
524.245	7946
525.017	7647
525.788	7310
526.56	6978
527.331	6717
528.102	6411
528.873	6119
529.644	5817
530.415	5557
531.186	5265
531.957	5015
532.728	4712
533.498	4486
534.269	4237
535.039	3999
535.81	3774
536.58	3541
537.351	3348
538.121	3180
538.891	3011
539.661	2818
540.431	2665
541.201	2534
541.971	2383
542.741	2269
543.51	2133
544.28	2040
545.05	1953
545.819	1866
546.588	1758
547.358	1687
548.127	1587
548.896	1517
549.665	1434
550.434	1365
551.203	1302
551.972	1212
552.741	1169
553.51	1099
554.278	1029
555.047	976
555.815	914
556.584	874
557.352	815
558.121	769
558.889	721
559.657	681
560.425	642
561.193	606
561.961	569
562.729	544
563.496	513
564.264	478
565.032	442
565.799	417
566.567	404
567.334	383
568.101	359
568.869	341
569.636	318
570.403	304
571.17	285
571.937	273
572.704	252
573.471	243
574.237	221
575.004	215
575.771	199
576.537	195
577.303	174
578.07	169
578.836	162
579.602	148
580.368	142
581.134	136
581.9	126
582.666	120
583.432	116
584.198	110
584.964	99
585.729	96
586.495	92
587.26	86
588.025	80
588.791	76
589.556	73
590.321	64
591.086	65
591.851	59
592.616	59
593.381	59
594.146	52
594.911	51
595.675	44
596.44	43
597.204	44
597.969	40
598.733	41
599.497	38
600.261	34
601.025	34
601.79	32
602.553	31
603.317	29
604.081	29
604.845	29
605.609	29
606.372	23
607.136	24
607.899	23
608.662	23
609.426	20
610.189	21
610.952	21
611.715	17
612.478	20
613.241	17
614.004	19
614.767	15
615.529	15
616.292	14
617.055	16
617.817	14
618.579	14
619.342	13
620.104	13
620.866	10
621.628	14
622.39	10
623.152	10
623.914	11
624.676	7
625.438	10
626.199	11
626.961	11
627.722	8
628.484	9
629.245	8
630.006	8
630.768	9
631.529	7
632.29	8
633.051	8
633.812	7
634.573	8
635.333	6
636.094	6
636.855	5
637.615	5
638.376	5
639.136	7
639.896	4
640.657	7
641.417	6
642.177	6
642.937	5
643.697	5
644.457	4
645.216	6
645.976	3
646.736	5
647.495	5
648.255	4
649.014	2
649.774	4
650.533	6
651.292	2
652.051	5
652.81	5
653.569	6
654.328	3
655.087	4
655.846	3
656.604	3
657.363	4
658.121	3
658.88	3
659.638	2
660.397	5
661.155	5
661.913	1
662.671	4
663.429	4
664.187	2
664.945	6
665.703	3
666.46	2
667.218	2
667.976	2
668.733	3
669.49	1
670.248	2
671.005	4
671.762	2
672.519	2
673.276	4
674.033	3
674.79	2
675.547	1
676.304	3
677.06	5
677.817	1
678.574	3
679.33	1
680.086	1
680.843	2
681.599	2
682.355	0
683.111	3
683.867	4
684.623	3
685.379	3
686.135	2
686.89	2
687.646	4
688.402	1
689.157	1
689.912	2
690.668	2
691.423	0
692.178	1
692.933	4
693.688	4
694.443	2
695.198	1
695.953	1
696.708	3
697.462	1
698.217	2
698.972	1
699.726	0
700.48	3
701.235	2
701.989	2
702.743	1
703.497	2
704.251	2
705.005	2
705.759	1
706.513	0
707.266	2
708.02	2
708.774	1
709.527	1
710.28	0
711.034	1
711.787	4
712.54	3
713.293	2
714.046	3
714.799	1
715.552	1
716.305	1
717.058	3
717.81	1
718.563	2
719.315	2
720.068	4
720.82	0
721.573	1
722.325	3
723.077	1
723.829	1
724.581	3
725.333	2
726.085	2
726.836	5
727.588	0
728.34	2
729.091	1
729.843	0
730.594	1
731.346	1
732.097	3
732.848	3
733.599	2
734.35	2
735.101	2
735.852	2
736.603	2
737.354	1
738.104	2
738.855	1
739.605	1
740.356	1
741.106	2
741.856	4
742.607	2
743.357	0
744.107	2
744.857	2
745.607	1
746.357	2
747.106	-1
747.856	2
748.606	1
749.355	2
750.105	1
750.854	4
751.603	3
752.353	3
753.102	4
753.851	1
754.6	2
755.349	4
756.098	4
756.847	5
757.595	4
758.344	4
759.093	2
759.841	3
760.589	5
761.338	3
762.086	1
762.834	2
763.582	3
764.331	2
765.079	2
765.826	4
766.574	2
767.322	2
768.07	3
768.817	4
769.565	5
770.312	6
771.06	5
771.807	4
772.554	5
773.302	4
774.049	5
774.796	4
775.543	6
776.29	5
777.036	5
777.783	4
778.53	4
779.276	4
780.023	6
780.769	4
781.516	6
782.262	5
783.008	6
783.754	5
784.5	5
785.246	4
785.992	4
786.738	6
787.484	4
788.23	5
788.975	4
789.721	4
790.466	5
791.212	6
791.957	6
792.702	5
793.447	5
794.193	4
794.938	5
795.683	5
796.427	5
797.172	4
797.917	3
798.662	6
799.406	4
800.151	6
800.895	5
801.64	5
802.384	5
803.128	4
803.872	5
804.616	5
805.36	6
806.104	4
806.848	4
807.592	4
808.336	4
809.079	4
809.823	6
810.566	5
811.31	3
812.053	3
812.796	3
813.539	2
814.283	5
815.026	4
815.769	4
816.511	2
817.254	3
817.997	3
818.74	2
819.482	5
820.225	4
820.967	2
821.71	3
822.452	4
823.194	5
823.936	1
824.678	2
825.42	3
826.162	3
826.904	2
827.646	3
828.388	3
829.129	2
829.871	2
830.612	2
831.354	3
832.095	2
832.836	1
833.577	1
834.319	3
835.06	3
835.801	2
836.542	3
837.282	3
838.023	2
838.764	3
839.504	4
840.245	2
840.985	3
841.726	2
842.466	2
843.206	2
843.946	2
844.687	2
845.427	2
846.166	3
846.906	5
847.646	5
848.386	2
849.125	3
849.865	2
850.605	2
851.344	1
852.083	3
852.823	2
853.562	2
854.301	1
855.04	2
855.779	3
856.518	2
857.257	2
857.995	2
858.734	2
859.473	1
860.211	1
860.95	2
861.688	2
862.426	2
863.165	2
863.903	1
864.641	1
865.379	1
866.117	2
866.855	1
867.593	-1
868.33	0
869.068	0
869.806	0
870.543	-2
871.28	2
872.018	1
872.755	4
873.492	0
874.229	2
874.967	2
875.703	0
876.44	2
877.177	1
877.914	1
878.651	1
879.387	-2
880.124	2
880.86	1
881.597	2
882.333	-2
883.069	1
883.806	-1
884.542	0
885.278	1
886.014	0
886.749	0
887.485	-1
888.221	1
888.957	0
889.692	1
890.428	0
891.163	1
891.899	2
892.634	2
893.369	0
894.104	2
894.839	1
895.574	0
896.309	1
897.044	1
897.779	0
898.514	1
899.248	2
899.983	2
900.717	1
901.452	0
902.186	-2
902.92	0
903.654	-2
904.389	-1
905.123	2
905.857	-1
906.59	1
907.324	0
908.058	2
908.792	0
909.525	-2
910.259	0
910.992	0
911.726	-1
912.459	-3
913.192	-1
913.925	-2
914.658	-1
915.391	0
916.124	0
916.857	1
917.59	2
918.323	0
919.055	0
919.788	0
920.521	-1
921.253	-2
921.985	2
922.718	-1
923.45	1
924.182	0
924.914	2
925.646	-2
926.378	-1
927.11	0
927.841	-1
928.573	2
929.305	-2
930.036	0
930.768	1
931.499	1
932.23	2
932.962	1
933.693	-1
934.424	0
935.155	1
935.886	0
936.617	1
937.348	3
938.078	1
938.809	0
939.54	-2
940.27	-1
941.001	2
941.731	0
942.461	1
943.191	1
943.922	2
944.652	1
945.382	1
946.112	2
946.841	0
947.571	-4
948.301	-2
949.031	2
949.76	2
950.49	0
951.219	2
951.948	-1
952.678	2
953.407	2
954.136	0
954.865	-2
955.594	0
956.323	0
957.052	0
957.78	1
958.509	-1
959.238	-1
959.966	0
960.695	0
961.423	1
962.151	-2
962.88	-1
963.608	-2
964.336	2
965.064	0
965.792	1
966.52	1
967.247	0
967.975	0
968.703	-1
969.43	2
970.158	0
970.885	0
971.613	3
972.34	0
973.067	0
973.794	-2
974.521	1
975.248	0
975.975	-1
976.702	1
977.429	1
978.156	-2
978.882	1
979.609	0
980.335	1
981.062	-2
981.788	0
982.514	0
983.24	3
983.967	1
984.693	1
985.419	0
986.144	0
986.87	1
987.596	1
988.322	2
989.047	1
989.773	2
990.498	1
991.224	-2
991.949	-1
992.674	0
993.399	2
994.124	2
994.849	-1
995.574	0
996.299	-2
997.024	1
997.749	0
998.473	0
999.198	0
999.922	1
1000.647	-2
1001.371	3
1002.095	1
1002.82	-4
1003.544	0
1004.268	2
1004.992	0
1005.716	-1
1006.439	3
1007.163	2
1007.887	0
1008.611	0
1009.334	-2
1010.058	0
1010.781	1
1011.504	2
1012.228	0
1012.951	1
1013.674	-1
1014.397	1
1015.12	-1
