节点500_145_QEPB04081__262__11-33-10-495.txt的数据

Date: Wed Nov 12 11:33:10 CST 2025
User: PC
Spectrometer: QEPB0408
触发模式: 0
积分时间 (秒): 1.000000E-2
Scans to average: 1
启用暗噪声校正: true
启用非线性校正: false
滑动平均宽度: 0
X轴模式: Wavelengths
Number of Pixels in Spectrum: 1044
>>>>>Begin Spectral Data<<<<<
220.843	0.12
221.644	2.12
222.444	-0.88
223.244	-0.88
224.045	1.12
224.845	-1.88
225.645	1.12
226.445	3.12
227.245	1.12
228.045	-0.88
228.845	1.12
229.645	0.12
230.444	0.12
231.244	0.12
232.043	2.12
232.843	-0.88
233.642	2.12
234.442	-2.88
235.241	2.12
236.04	-0.88
236.839	1.12
237.638	0.12
238.437	1.12
239.236	4.12
240.035	2.12
240.833	3.12
241.632	1.12
242.43	3.12
243.229	2.12
244.027	-0.88
244.826	1.12
245.624	0.12
246.422	2.12
247.22	1.12
248.018	1.12
248.816	3.12
249.614	3.12
250.412	2.12
251.21	2.12
252.007	3.12
252.805	3.12
253.602	2.12
254.4	2.12
255.197	4.12
255.994	5.12
256.791	1.12
257.589	4.12
258.386	4.12
259.183	5.12
259.979	4.12
260.776	3.12
261.573	4.12
262.37	3.12
263.166	5.12
263.963	2.12
264.759	5.12
265.556	7.12
266.352	6.12
267.148	7.12
267.944	9.12
268.74	7.12
269.536	7.12
270.332	8.12
271.128	6.12
271.924	7.12
272.719	6.12
273.515	7.12
274.311	7.12
275.106	9.12
275.901	9.12
276.697	9.12
277.492	8.12
278.287	11.12
279.082	7.12
279.877	7.12
280.672	9.12
281.467	12.12
282.262	12.12
283.056	9.12
283.851	7.12
284.646	9.12
285.44	10.12
286.234	10.12
287.029	12.12
287.823	10.12
288.617	9.12
289.411	11.12
290.205	9.12
290.999	10.12
291.793	11.12
292.587	13.12
293.381	10.12
294.174	12.12
294.968	10.12
295.761	10.12
296.555	9.12
297.348	10.12
298.141	9.12
298.935	10.12
299.728	6.12
300.521	10.12
301.314	7.12
302.107	7.12
302.899	7.12
303.692	7.12
304.485	9.12
305.277	5.12
306.07	10.12
306.862	9.12
307.655	9.12
308.447	7.12
309.239	7.12
310.031	10.12
310.823	8.12
311.615	5.12
312.407	4.12
313.199	6.12
313.991	5.12
314.783	7.12
315.574	6.12
316.366	6.12
317.157	7.12
317.949	3.12
318.74	6.12
319.531	3.12
320.322	4.12
321.113	7.12
321.904	6.12
322.695	5.12
323.486	3.12
324.277	5.12
325.068	4.12
325.858	1.12
326.649	4.12
327.439	3.12
328.23	4.12
329.02	4.12
329.81	2.12
330.6	1.12
331.391	4.12
332.181	3.12
332.971	5.12
333.76	3.12
334.55	3.12
335.34	4.12
336.13	3.12
336.919	5.12
337.709	4.12
338.498	4.12
339.287	3.12
340.077	3.12
340.866	3.12
341.655	3.12
342.444	1.12
343.233	1.12
344.022	1.12
344.811	3.12
345.6	4.12
346.388	1.12
347.177	2.12
347.965	3.12
348.754	2.12
349.542	0.12
350.33	4.12
351.119	3.12
351.907	3.12
352.695	4.12
353.483	4.12
354.271	3.12
355.059	1.12
355.846	3.12
356.634	2.12
357.422	4.12
358.209	3.12
358.997	4.12
359.784	3.12
360.571	4.12
361.359	3.12
362.146	2.12
362.933	2.12
363.72	5.12
364.507	2.12
365.294	5.12
366.081	1.12
366.867	3.12
367.654	3.12
368.44	1.12
369.227	3.12
370.013	2.12
370.8	3.12
371.586	5.12
372.372	3.12
373.158	2.12
373.944	0.12
374.73	2.12
375.516	1.12
376.302	2.12
377.088	3.12
377.873	3.12
378.659	3.12
379.445	3.12
380.23	3.12
381.015	2.12
381.801	2.12
382.586	3.12
383.371	1.12
384.156	2.12
384.941	1.12
385.726	3.12
386.511	4.12
387.296	5.12
388.08	4.12
388.865	3.12
389.649	3.12
390.434	2.12
391.218	3.12
392.003	3.12
392.787	1.12
393.571	5.12
394.355	2.12
395.139	4.12
395.923	3.12
396.707	3.12
397.491	4.12
398.274	5.12
399.058	5.12
399.842	2.12
400.625	3.12
401.408	4.12
402.192	4.12
402.975	3.12
403.758	3.12
404.541	4.12
405.324	3.12
406.107	5.12
406.89	5.12
407.673	5.12
408.456	5.12
409.238	2.12
410.021	5.12
410.803	2.12
411.586	2.12
412.368	2.12
413.151	6.12
413.933	4.12
414.715	4.12
415.497	5.12
416.279	5.12
417.061	6.12
417.843	6.12
418.624	5.12
419.406	3.12
420.188	5.12
420.969	5.12
421.751	4.12
422.532	5.12
423.313	5.12
424.095	6.12
424.876	7.12
425.657	4.12
426.438	6.12
427.219	6.12
428	5.12
428.78	5.12
429.561	4.12
430.342	6.12
431.122	7.12
431.903	9.12
432.683	8.12
433.464	6.12
434.244	8.12
435.024	10.12
435.804	9.12
436.584	9.12
437.364	11.12
438.144	8.12
438.924	9.12
439.704	12.12
440.483	11.12
441.263	12.12
442.042	12.12
442.822	13.12
443.601	12.12
444.38	14.12
445.16	14.12
445.939	17.12
446.718	16.12
447.497	19.12
448.276	17.12
449.054	17.12
449.833	21.12
450.612	26.12
451.391	27.12
452.169	27.12
452.948	31.12
453.726	33.12
454.504	36.12
455.282	41.12
456.061	42.12
456.839	48.12
457.617	52.12
458.395	56.12
459.172	66.12
459.95	70.12
460.728	80.12
461.506	92.12
462.283	104.12
463.061	114.12
463.838	119.12
464.615	144.12
465.393	155.12
466.17	167.12
466.947	195.12
467.724	212.12
468.501	244.12
469.278	260.12
470.055	302.12
470.831	333.12
471.608	366.12
472.385	409.12
473.161	445.12
473.938	498.12
474.714	562.12
475.49	628.12
476.266	688.12
477.043	756.12
477.819	852.12
478.595	934.12
479.371	1042.12
480.146	1148.12
480.922	1285.12
481.698	1405.12
482.473	1539.12
483.249	1719.12
484.024	1878.12
484.8	2081.12
485.575	2292.12
486.35	2524.12
487.126	2793.12
487.901	3067.12
488.676	3370.12
489.451	3720.12
490.225	4091.12
491	4492.12
491.775	4943.12
492.55	5429.12
493.324	5946.12
494.099	6487.12
494.873	7108.12
495.647	7745.12
496.422	8425.12
497.196	9083.12
497.97	9807.12
498.744	10567.12
499.518	11334.12
500.292	12045.12
501.066	12841.12
501.839	13447.12
502.613	14158.12
503.387	14846.12
504.16	15291.12
504.934	15755.12
505.707	16090.12
506.48	16421.12
507.253	16521.12
508.027	16612.12
508.8	16502.12
509.573	16305.12
510.346	16120.12
511.118	15759.12
511.891	15411.12
512.664	14893.12
513.437	14390.12
514.209	13816.12
514.982	13306.12
515.754	12709.12
516.526	12170.12
517.298	11623.12
518.071	11090.12
518.843	10644.12
519.615	10146.12
520.387	9733.12
521.159	9384.12
521.93	8989.12
522.702	8613.12
523.474	8321.12
524.245	7922.12
525.017	7662.12
525.788	7324.12
526.56	7014.12
527.331	6782.12
528.102	6455.12
528.873	6148.12
529.644	5899.12
530.415	5611.12
531.186	5325.12
531.957	5043.12
532.728	4794.12
533.498	4537.12
534.269	4282.12
535.039	4041.12
535.81	3840.12
536.58	3639.12
537.351	3437.12
538.121	3226.12
538.891	3062.12
539.661	2879.12
540.431	2745.12
541.201	2588.12
541.971	2453.12
542.741	2312.12
543.51	2214.12
544.28	2077.12
545.05	1981.12
545.819	1878.12
546.588	1790.12
547.358	1704.12
548.127	1630.12
548.896	1534.12
549.665	1461.12
550.434	1387.12
551.203	1316.12
551.972	1260.12
552.741	1175.12
553.51	1111.12
554.278	1052.12
555.047	997.12
555.815	947.12
556.584	892.12
557.352	848.12
558.121	792.12
558.889	745.12
559.657	698.12
560.425	666.12
561.193	635.12
561.961	580.12
562.729	560.12
563.496	526.12
564.264	492.12
565.032	464.12
565.799	442.12
566.567	408.12
567.334	386.12
568.101	368.12
568.869	344.12
569.636	324.12
570.403	315.12
571.17	294.12
571.937	278.12
572.704	263.12
573.471	248.12
574.237	236.12
575.004	219.12
575.771	201.12
576.537	195.12
577.303	181.12
578.07	173.12
578.836	162.12
579.602	153.12
580.368	141.12
581.134	140.12
581.9	130.12
582.666	120.12
583.432	116.12
584.198	111.12
584.964	102.12
585.729	95.12
586.495	94.12
587.26	84.12
588.025	81.12
588.791	76.12
589.556	74.12
590.321	69.12
591.086	64.12
591.851	64.12
592.616	60.12
593.381	60.12
594.146	50.12
594.911	52.12
595.675	51.12
596.44	46.12
597.204	43.12
597.969	42.12
598.733	39.12
599.497	35.12
600.261	39.12
601.025	35.12
601.79	34.12
602.553	32.12
603.317	30.12
604.081	31.12
604.845	26.12
605.609	28.12
606.372	27.12
607.136	23.12
607.899	24.12
608.662	23.12
609.426	23.12
610.189	20.12
610.952	19.12
611.715	17.12
612.478	19.12
613.241	18.12
614.004	16.12
614.767	18.12
615.529	16.12
616.292	14.12
617.055	17.12
617.817	16.12
618.579	12.12
619.342	13.12
620.104	13.12
620.866	10.12
621.628	11.12
622.39	12.12
623.152	12.12
623.914	9.12
624.676	9.12
625.438	13.12
626.199	6.12
626.961	10.12
627.722	7.12
628.484	7.12
629.245	10.12
630.006	8.12
630.768	8.12
631.529	7.12
632.29	8.12
633.051	7.12
633.812	6.12
634.573	7.12
635.333	6.12
636.094	7.12
636.855	4.12
637.615	5.12
638.376	4.12
639.136	7.12
639.896	5.12
640.657	4.12
641.417	5.12
642.177	5.12
642.937	3.12
643.697	6.12
644.457	5.12
645.216	6.12
645.976	3.12
646.736	6.12
647.495	5.12
648.255	5.12
649.014	4.12
649.774	3.12
650.533	4.12
651.292	1.12
652.051	5.12
652.81	4.12
653.569	3.12
654.328	3.12
655.087	6.12
655.846	6.12
656.604	2.12
657.363	6.12
658.121	2.12
658.88	4.12
659.638	3.12
660.397	3.12
661.155	2.12
661.913	2.12
662.671	4.12
663.429	2.12
664.187	3.12
664.945	3.12
665.703	3.12
666.46	2.12
667.218	2.12
667.976	3.12
668.733	3.12
669.49	2.12
670.248	1.12
671.005	2.12
671.762	0.12
672.519	1.12
673.276	4.12
674.033	2.12
674.79	1.12
675.547	3.12
676.304	0.12
677.06	4.12
677.817	4.12
678.574	3.12
679.33	3.12
680.086	1.12
680.843	1.12
681.599	0.12
682.355	5.12
683.111	1.12
683.867	2.12
684.623	2.12
685.379	-0.88
686.135	3.12
686.89	3.12
687.646	3.12
688.402	0.12
689.157	3.12
689.912	4.12
690.668	3.12
691.423	2.12
692.178	2.12
692.933	0.12
693.688	2.12
694.443	1.12
695.198	3.12
695.953	2.12
696.708	3.12
697.462	3.12
698.217	2.12
698.972	1.12
699.726	0.12
700.48	3.12
701.235	1.12
701.989	2.12
702.743	3.12
703.497	2.12
704.251	4.12
705.005	1.12
705.759	3.12
706.513	1.12
707.266	0.12
708.02	1.12
708.774	2.12
709.527	2.12
710.28	2.12
711.034	3.12
711.787	2.12
712.54	3.12
713.293	2.12
714.046	2.12
714.799	0.12
715.552	1.12
716.305	1.12
717.058	1.12
717.81	-0.88
718.563	0.12
719.315	3.12
720.068	2.12
720.82	4.12
721.573	2.12
722.325	2.12
723.077	2.12
723.829	2.12
724.581	1.12
725.333	3.12
726.085	1.12
726.836	3.12
727.588	0.12
728.34	2.12
729.091	5.12
729.843	2.12
730.594	2.12
731.346	3.12
732.097	4.12
732.848	1.12
733.599	1.12
734.35	2.12
735.101	0.12
735.852	2.12
736.603	2.12
737.354	3.12
738.104	1.12
738.855	1.12
739.605	2.12
740.356	2.12
741.106	2.12
741.856	2.12
742.607	4.12
743.357	2.12
744.107	4.12
744.857	2.12
745.607	1.12
746.357	2.12
747.106	2.12
747.856	2.12
748.606	2.12
749.355	0.12
750.105	2.12
750.854	3.12
751.603	2.12
752.353	2.12
753.102	2.12
753.851	6.12
754.6	2.12
755.349	1.12
756.098	3.12
756.847	4.12
757.595	4.12
758.344	3.12
759.093	3.12
759.841	4.12
760.589	3.12
761.338	2.12
762.086	4.12
762.834	3.12
763.582	4.12
764.331	1.12
765.079	1.12
765.826	3.12
766.574	3.12
767.322	4.12
768.07	5.12
768.817	5.12
769.565	5.12
770.312	3.12
771.06	4.12
771.807	3.12
772.554	2.12
773.302	2.12
774.049	5.12
774.796	2.12
775.543	3.12
776.29	4.12
777.036	6.12
777.783	5.12
778.53	4.12
779.276	6.12
780.023	5.12
780.769	5.12
781.516	5.12
782.262	5.12
783.008	5.12
783.754	1.12
784.5	4.12
785.246	4.12
785.992	6.12
786.738	3.12
787.484	5.12
788.23	6.12
788.975	6.12
789.721	6.12
790.466	5.12
791.212	3.12
791.957	4.12
792.702	7.12
793.447	6.12
794.193	5.12
794.938	4.12
795.683	3.12
796.427	5.12
797.172	5.12
797.917	5.12
798.662	6.12
799.406	6.12
800.151	5.12
800.895	4.12
801.64	2.12
802.384	6.12
803.128	4.12
803.872	4.12
804.616	5.12
805.36	6.12
806.104	6.12
806.848	4.12
807.592	2.12
808.336	2.12
809.079	7.12
809.823	6.12
810.566	4.12
811.31	5.12
812.053	6.12
812.796	5.12
813.539	3.12
814.283	5.12
815.026	1.12
815.769	5.12
816.511	3.12
817.254	2.12
817.997	3.12
818.74	2.12
819.482	3.12
820.225	1.12
820.967	2.12
821.71	2.12
822.452	2.12
823.194	3.12
823.936	1.12
824.678	4.12
825.42	2.12
826.162	3.12
826.904	3.12
827.646	5.12
828.388	3.12
829.129	1.12
829.871	3.12
830.612	4.12
831.354	4.12
832.095	2.12
832.836	2.12
833.577	4.12
834.319	4.12
835.06	3.12
835.801	1.12
836.542	1.12
837.282	4.12
838.023	2.12
838.764	2.12
839.504	1.12
840.245	2.12
840.985	1.12
841.726	2.12
842.466	2.12
843.206	2.12
843.946	4.12
844.687	1.12
845.427	1.12
846.166	3.12
846.906	0.12
847.646	2.12
848.386	1.12
849.125	3.12
849.865	2.12
850.605	2.12
851.344	4.12
852.083	2.12
852.823	1.12
853.562	0.12
854.301	3.12
855.04	2.12
855.779	0.12
856.518	-1.88
857.257	0.12
857.995	1.12
858.734	1.12
859.473	3.12
860.211	1.12
860.95	0.12
861.688	2.12
862.426	1.12
863.165	-0.88
863.903	-0.88
864.641	1.12
865.379	2.12
866.117	3.12
866.855	2.12
867.593	0.12
868.33	0.12
869.068	1.12
869.806	1.12
870.543	1.12
871.28	0.12
872.018	2.12
872.755	0.12
873.492	2.12
874.229	-1.88
874.967	0.12
875.703	0.12
876.44	2.12
877.177	0.12
877.914	0.12
878.651	1.12
879.387	0.12
880.124	1.12
880.86	-0.88
881.597	0.12
882.333	0.12
883.069	0.12
883.806	0.12
884.542	2.12
885.278	0.12
886.014	0.12
886.749	1.12
887.485	0.12
888.221	1.12
888.957	2.12
889.692	0.12
890.428	4.12
891.163	-1.88
891.899	1.12
892.634	1.12
893.369	2.12
894.104	0.12
894.839	2.12
895.574	3.12
896.309	-1.88
897.044	-0.88
897.779	1.12
898.514	-1.88
899.248	0.12
899.983	0.12
900.717	1.12
901.452	-0.88
902.186	-0.88
902.92	-0.88
903.654	-0.88
904.389	0.12
905.123	1.12
905.857	2.12
906.59	0.12
907.324	1.12
908.058	1.12
908.792	0.12
909.525	1.12
910.259	1.12
910.992	1.12
911.726	2.12
912.459	-0.88
913.192	2.12
913.925	0.12
914.658	2.12
915.391	0.12
916.124	1.12
916.857	2.12
917.59	-1.88
918.323	2.12
919.055	-0.88
919.788	-0.88
920.521	1.12
921.253	2.12
921.985	1.12
922.718	-0.88
923.45	0.12
924.182	-1.88
924.914	0.12
925.646	1.12
926.378	0.12
927.11	-1.88
927.841	-1.88
928.573	3.12
929.305	0.12
930.036	1.12
930.768	-0.88
931.499	1.12
932.23	-0.88
932.962	2.12
933.693	0.12
934.424	2.12
935.155	-0.88
935.886	-0.88
936.617	0.12
937.348	1.12
938.078	-1.88
938.809	-1.88
939.54	-0.88
940.27	0.12
941.001	-0.88
941.731	1.12
942.461	0.12
943.191	-0.88
943.922	-0.88
944.652	1.12
945.382	2.12
946.112	1.12
946.841	-1.88
947.571	1.12
948.301	-0.88
949.031	1.12
949.76	0.12
950.49	0.12
951.219	1.12
951.948	-0.88
952.678	0.12
953.407	-1.88
954.136	2.12
954.865	0.12
955.594	1.12
956.323	0.12
957.052	1.12
957.78	1.12
958.509	-0.88
959.238	0.12
959.966	2.12
960.695	-0.88
961.423	-0.88
962.151	0.12
962.88	0.12
963.608	2.12
964.336	1.12
965.064	1.12
965.792	0.12
966.52	-0.88
967.247	0.12
967.975	0.12
968.703	1.12
969.43	1.12
970.158	-0.88
970.885	0.12
971.613	1.12
972.34	1.12
973.067	0.12
973.794	-0.88
974.521	1.12
975.248	0.12
975.975	-1.88
976.702	1.12
977.429	1.12
978.156	1.12
978.882	-0.88
979.609	0.12
980.335	-0.88
981.062	1.12
981.788	1.12
982.514	-0.88
983.24	2.12
983.967	1.12
984.693	-0.88
985.419	1.12
986.144	0.12
986.87	1.12
987.596	3.12
988.322	1.12
989.047	-2.88
989.773	0.12
990.498	1.12
991.224	0.12
991.949	-0.88
992.674	1.12
993.399	-1.88
994.124	1.12
994.849	-0.88
995.574	1.12
996.299	-0.88
997.024	0.12
997.749	1.12
998.473	1.12
999.198	0.12
999.922	1.12
1000.647	1.12
1001.371	5.12
1002.095	-0.88
1002.82	0.12
1003.544	-1.88
1004.268	1.12
1004.992	1.12
1005.716	-0.88
1006.439	1.12
1007.163	-2.88
1007.887	-0.88
1008.611	0.12
1009.334	0.12
1010.058	-1.88
1010.781	-1.88
1011.504	3.12
1012.228	0.12
1012.951	-0.88
1013.674	-1.88
1014.397	1.12
1015.12	-0.88
