节点500_145_QEPB04081__128__11-30-59-623.txt的数据

Date: Wed Nov 12 11:30:59 CST 2025
User: PC
Spectrometer: QEPB0408
触发模式: 0
积分时间 (秒): 1.000000E-2
Scans to average: 1
启用暗噪声校正: true
启用非线性校正: false
滑动平均宽度: 0
X轴模式: Wavelengths
Number of Pixels in Spectrum: 1044
>>>>>Begin Spectral Data<<<<<
220.843	2.62
221.644	1.62
222.444	-1.38
223.244	-0.38
224.045	2.62
224.845	3.62
225.645	0.62
226.445	-0.38
227.245	0.62
228.045	2.62
228.845	0.62
229.645	1.62
230.444	1.62
231.244	1.62
232.043	1.62
232.843	0.62
233.642	1.62
234.442	2.62
235.241	-0.38
236.04	0.62
236.839	0.62
237.638	1.62
238.437	1.62
239.236	1.62
240.035	0.62
240.833	2.62
241.632	3.62
242.43	1.62
243.229	1.62
244.027	1.62
244.826	2.62
245.624	3.62
246.422	0.62
247.22	2.62
248.018	2.62
248.816	5.62
249.614	3.62
250.412	2.62
251.21	3.62
252.007	2.62
252.805	2.62
253.602	2.62
254.4	7.62
255.197	2.62
255.994	3.62
256.791	5.62
257.589	2.62
258.386	4.62
259.183	3.62
259.979	5.62
260.776	5.62
261.573	7.62
262.37	3.62
263.166	4.62
263.963	6.62
264.759	4.62
265.556	8.62
266.352	5.62
267.148	6.62
267.944	7.62
268.74	6.62
269.536	9.62
270.332	7.62
271.128	10.62
271.924	8.62
272.719	7.62
273.515	10.62
274.311	9.62
275.106	10.62
275.901	12.62
276.697	10.62
277.492	9.62
278.287	9.62
279.082	13.62
279.877	8.62
280.672	12.62
281.467	11.62
282.262	10.62
283.056	12.62
283.851	11.62
284.646	12.62
285.44	12.62
286.234	12.62
287.029	10.62
287.823	14.62
288.617	11.62
289.411	9.62
290.205	11.62
290.999	10.62
291.793	14.62
292.587	13.62
293.381	10.62
294.174	9.62
294.968	10.62
295.761	10.62
296.555	10.62
297.348	10.62
298.141	10.62
298.935	9.62
299.728	10.62
300.521	10.62
301.314	9.62
302.107	9.62
302.899	6.62
303.692	10.62
304.485	8.62
305.277	11.62
306.07	9.62
306.862	9.62
307.655	6.62
308.447	10.62
309.239	10.62
310.031	5.62
310.823	7.62
311.615	7.62
312.407	5.62
313.199	6.62
313.991	6.62
314.783	6.62
315.574	5.62
316.366	7.62
317.157	5.62
317.949	5.62
318.74	6.62
319.531	6.62
320.322	5.62
321.113	4.62
321.904	6.62
322.695	3.62
323.486	6.62
324.277	5.62
325.068	5.62
325.858	6.62
326.649	5.62
327.439	4.62
328.23	2.62
329.02	5.62
329.81	5.62
330.6	6.62
331.391	3.62
332.181	4.62
332.971	5.62
333.76	4.62
334.55	2.62
335.34	5.62
336.13	3.62
336.919	3.62
337.709	2.62
338.498	5.62
339.287	4.62
340.077	5.62
340.866	3.62
341.655	5.62
342.444	4.62
343.233	1.62
344.022	3.62
344.811	4.62
345.6	3.62
346.388	3.62
347.177	0.62
347.965	3.62
348.754	3.62
349.542	3.62
350.33	5.62
351.119	3.62
351.907	0.62
352.695	3.62
353.483	3.62
354.271	2.62
355.059	1.62
355.846	4.62
356.634	5.62
357.422	3.62
358.209	2.62
358.997	4.62
359.784	4.62
360.571	3.62
361.359	2.62
362.146	1.62
362.933	2.62
363.72	4.62
364.507	3.62
365.294	5.62
366.081	2.62
366.867	2.62
367.654	2.62
368.44	4.62
369.227	2.62
370.013	3.62
370.8	5.62
371.586	3.62
372.372	3.62
373.158	2.62
373.944	2.62
374.73	3.62
375.516	5.62
376.302	3.62
377.088	3.62
377.873	2.62
378.659	1.62
379.445	2.62
380.23	2.62
381.015	5.62
381.801	3.62
382.586	2.62
383.371	6.62
384.156	2.62
384.941	7.62
385.726	3.62
386.511	4.62
387.296	6.62
388.08	2.62
388.865	4.62
389.649	4.62
390.434	4.62
391.218	5.62
392.003	2.62
392.787	3.62
393.571	2.62
394.355	4.62
395.139	3.62
395.923	3.62
396.707	4.62
397.491	4.62
398.274	3.62
399.058	4.62
399.842	5.62
400.625	2.62
401.408	4.62
402.192	2.62
402.975	3.62
403.758	5.62
404.541	4.62
405.324	6.62
406.107	4.62
406.89	5.62
407.673	4.62
408.456	4.62
409.238	5.62
410.021	1.62
410.803	6.62
411.586	3.62
412.368	3.62
413.151	5.62
413.933	5.62
414.715	5.62
415.497	8.62
416.279	6.62
417.061	6.62
417.843	6.62
418.624	4.62
419.406	3.62
420.188	6.62
420.969	6.62
421.751	7.62
422.532	5.62
423.313	7.62
424.095	7.62
424.876	6.62
425.657	5.62
426.438	7.62
427.219	9.62
428	6.62
428.78	5.62
429.561	7.62
430.342	8.62
431.122	8.62
431.903	6.62
432.683	9.62
433.464	8.62
434.244	11.62
435.024	11.62
435.804	10.62
436.584	9.62
437.364	9.62
438.144	13.62
438.924	10.62
439.704	9.62
440.483	10.62
441.263	14.62
442.042	14.62
442.822	13.62
443.601	13.62
444.38	17.62
445.16	17.62
445.939	14.62
446.718	19.62
447.497	19.62
448.276	18.62
449.054	18.62
449.833	22.62
450.612	25.62
451.391	30.62
452.169	27.62
452.948	30.62
453.726	34.62
454.504	39.62
455.282	41.62
456.061	44.62
456.839	48.62
457.617	52.62
458.395	57.62
459.172	61.62
459.95	69.62
460.728	78.62
461.506	88.62
462.283	96.62
463.061	107.62
463.838	117.62
464.615	134.62
465.393	143.62
466.17	162.62
466.947	184.62
467.724	197.62
468.501	229.62
469.278	253.62
470.055	278.62
470.831	315.62
471.608	351.62
472.385	395.62
473.161	441.62
473.938	490.62
474.714	542.62
475.49	611.62
476.266	677.62
477.043	755.62
477.819	837.62
478.595	926.62
479.371	1034.62
480.146	1148.62
480.922	1266.62
481.698	1397.62
482.473	1560.62
483.249	1721.62
484.024	1888.62
484.8	2106.62
485.575	2338.62
486.35	2561.62
487.126	2858.62
487.901	3166.62
488.676	3513.62
489.451	3845.62
490.225	4268.62
491	4696.62
491.775	5170.62
492.55	5708.62
493.324	6289.62
494.099	6899.62
494.873	7531.62
495.647	8211.62
496.422	8950.62
497.196	9693.62
497.97	10475.62
498.744	11302.62
499.518	12099.62
500.292	12870.62
501.066	13642.62
501.839	14362.62
502.613	15037.62
503.387	15678.62
504.16	16177.62
504.934	16638.62
505.707	16977.62
506.48	17144.62
507.253	17233.62
508.027	17274.62
508.8	17109.62
509.573	16868.62
510.346	16456.62
511.118	16077.62
511.891	15598.62
512.664	15034.62
513.437	14463.62
514.209	13871.62
514.982	13294.62
515.754	12691.62
516.526	12101.62
517.298	11546.62
518.071	10995.62
518.843	10541.62
519.615	10104.62
520.387	9679.62
521.159	9281.62
521.93	8924.62
522.702	8555.62
523.474	8253.62
524.245	7935.62
525.017	7593.62
525.788	7319.62
526.56	6988.62
527.331	6718.62
528.102	6385.62
528.873	6087.62
529.644	5846.62
530.415	5552.62
531.186	5253.62
531.957	4991.62
532.728	4728.62
533.498	4445.62
534.269	4223.62
535.039	3970.62
535.81	3768.62
536.58	3562.62
537.351	3353.62
538.121	3151.62
538.891	2964.62
539.661	2791.62
540.431	2663.62
541.201	2509.62
541.971	2373.62
542.741	2264.62
543.51	2145.62
544.28	2047.62
545.05	1941.62
545.819	1844.62
546.588	1762.62
547.358	1671.62
548.127	1582.62
548.896	1502.62
549.665	1427.62
550.434	1359.62
551.203	1282.62
551.972	1218.62
552.741	1158.62
553.51	1087.62
554.278	1031.62
555.047	972.62
555.815	902.62
556.584	857.62
557.352	807.62
558.121	773.62
558.889	719.62
559.657	688.62
560.425	648.62
561.193	599.62
561.961	569.62
562.729	534.62
563.496	502.62
564.264	466.62
565.032	443.62
565.799	422.62
566.567	404.62
567.334	374.62
568.101	360.62
568.869	341.62
569.636	325.62
570.403	308.62
571.17	287.62
571.937	263.62
572.704	251.62
573.471	237.62
574.237	222.62
575.004	217.62
575.771	197.62
576.537	186.62
577.303	176.62
578.07	165.62
578.836	155.62
579.602	145.62
580.368	139.62
581.134	135.62
581.9	123.62
582.666	116.62
583.432	109.62
584.198	105.62
584.964	98.62
585.729	97.62
586.495	90.62
587.26	82.62
588.025	78.62
588.791	78.62
589.556	74.62
590.321	65.62
591.086	61.62
591.851	62.62
592.616	56.62
593.381	56.62
594.146	51.62
594.911	49.62
595.675	48.62
596.44	47.62
597.204	41.62
597.969	42.62
598.733	37.62
599.497	37.62
600.261	38.62
601.025	35.62
601.79	30.62
602.553	30.62
603.317	26.62
604.081	29.62
604.845	24.62
605.609	25.62
606.372	25.62
607.136	23.62
607.899	23.62
608.662	22.62
609.426	21.62
610.189	21.62
610.952	21.62
611.715	16.62
612.478	21.62
613.241	18.62
614.004	17.62
614.767	15.62
615.529	14.62
616.292	17.62
617.055	16.62
617.817	15.62
618.579	12.62
619.342	16.62
620.104	12.62
620.866	12.62
621.628	12.62
622.39	11.62
623.152	10.62
623.914	9.62
624.676	12.62
625.438	10.62
626.199	10.62
626.961	10.62
627.722	9.62
628.484	9.62
629.245	10.62
630.006	9.62
630.768	8.62
631.529	7.62
632.29	9.62
633.051	6.62
633.812	6.62
634.573	9.62
635.333	5.62
636.094	8.62
636.855	4.62
637.615	7.62
638.376	6.62
639.136	7.62
639.896	6.62
640.657	5.62
641.417	6.62
642.177	6.62
642.937	6.62
643.697	7.62
644.457	4.62
645.216	6.62
645.976	6.62
646.736	5.62
647.495	3.62
648.255	5.62
649.014	5.62
649.774	6.62
650.533	5.62
651.292	3.62
652.051	6.62
652.81	3.62
653.569	6.62
654.328	5.62
655.087	3.62
655.846	4.62
656.604	5.62
657.363	5.62
658.121	5.62
658.88	4.62
659.638	3.62
660.397	1.62
661.155	5.62
661.913	4.62
662.671	3.62
663.429	5.62
664.187	2.62
664.945	2.62
665.703	2.62
666.46	4.62
667.218	3.62
667.976	2.62
668.733	2.62
669.49	2.62
670.248	3.62
671.005	2.62
671.762	1.62
672.519	2.62
673.276	0.62
674.033	2.62
674.79	1.62
675.547	2.62
676.304	2.62
677.06	3.62
677.817	3.62
678.574	2.62
679.33	3.62
680.086	2.62
680.843	2.62
681.599	1.62
682.355	2.62
683.111	0.62
683.867	1.62
684.623	2.62
685.379	2.62
686.135	3.62
686.89	4.62
687.646	2.62
688.402	0.62
689.157	2.62
689.912	4.62
690.668	1.62
691.423	3.62
692.178	4.62
692.933	3.62
693.688	4.62
694.443	1.62
695.198	3.62
695.953	1.62
696.708	3.62
697.462	2.62
698.217	1.62
698.972	1.62
699.726	2.62
700.48	3.62
701.235	1.62
701.989	2.62
702.743	2.62
703.497	0.62
704.251	0.62
705.005	1.62
705.759	3.62
706.513	3.62
707.266	3.62
708.02	1.62
708.774	0.62
709.527	3.62
710.28	1.62
711.034	2.62
711.787	4.62
712.54	2.62
713.293	3.62
714.046	3.62
714.799	1.62
715.552	2.62
716.305	2.62
717.058	1.62
717.81	2.62
718.563	3.62
719.315	0.62
720.068	2.62
720.82	2.62
721.573	2.62
722.325	3.62
723.077	2.62
723.829	2.62
724.581	2.62
725.333	2.62
726.085	2.62
726.836	2.62
727.588	3.62
728.34	-0.38
729.091	3.62
729.843	2.62
730.594	5.62
731.346	3.62
732.097	2.62
732.848	4.62
733.599	2.62
734.35	2.62
735.101	4.62
735.852	2.62
736.603	1.62
737.354	2.62
738.104	2.62
738.855	1.62
739.605	3.62
740.356	4.62
741.106	2.62
741.856	4.62
742.607	4.62
743.357	2.62
744.107	2.62
744.857	4.62
745.607	0.62
746.357	2.62
747.106	5.62
747.856	3.62
748.606	2.62
749.355	2.62
750.105	4.62
750.854	5.62
751.603	4.62
752.353	3.62
753.102	5.62
753.851	2.62
754.6	2.62
755.349	3.62
756.098	3.62
756.847	4.62
757.595	4.62
758.344	3.62
759.093	2.62
759.841	3.62
760.589	0.62
761.338	3.62
762.086	5.62
762.834	3.62
763.582	5.62
764.331	3.62
765.079	4.62
765.826	6.62
766.574	3.62
767.322	2.62
768.07	5.62
768.817	4.62
769.565	4.62
770.312	3.62
771.06	4.62
771.807	5.62
772.554	6.62
773.302	5.62
774.049	3.62
774.796	7.62
775.543	2.62
776.29	4.62
777.036	6.62
777.783	6.62
778.53	5.62
779.276	5.62
780.023	6.62
780.769	6.62
781.516	4.62
782.262	7.62
783.008	7.62
783.754	6.62
784.5	4.62
785.246	6.62
785.992	6.62
786.738	6.62
787.484	4.62
788.23	6.62
788.975	5.62
789.721	4.62
790.466	6.62
791.212	6.62
791.957	5.62
792.702	4.62
793.447	4.62
794.193	7.62
794.938	8.62
795.683	7.62
796.427	3.62
797.172	5.62
797.917	7.62
798.662	6.62
799.406	7.62
800.151	4.62
800.895	5.62
801.64	4.62
802.384	5.62
803.128	3.62
803.872	4.62
804.616	6.62
805.36	4.62
806.104	6.62
806.848	5.62
807.592	6.62
808.336	2.62
809.079	2.62
809.823	2.62
810.566	5.62
811.31	4.62
812.053	6.62
812.796	3.62
813.539	3.62
814.283	4.62
815.026	5.62
815.769	4.62
816.511	3.62
817.254	2.62
817.997	4.62
818.74	3.62
819.482	2.62
820.225	2.62
820.967	2.62
821.71	1.62
822.452	5.62
823.194	3.62
823.936	5.62
824.678	2.62
825.42	3.62
826.162	1.62
826.904	4.62
827.646	2.62
828.388	3.62
829.129	4.62
829.871	1.62
830.612	4.62
831.354	3.62
832.095	2.62
832.836	3.62
833.577	1.62
834.319	2.62
835.06	2.62
835.801	3.62
836.542	1.62
837.282	2.62
838.023	0.62
838.764	4.62
839.504	1.62
840.245	-0.38
840.985	5.62
841.726	4.62
842.466	3.62
843.206	2.62
843.946	3.62
844.687	2.62
845.427	0.62
846.166	1.62
846.906	3.62
847.646	5.62
848.386	-0.38
849.125	2.62
849.865	2.62
850.605	0.62
851.344	1.62
852.083	3.62
852.823	2.62
853.562	2.62
854.301	1.62
855.04	2.62
855.779	0.62
856.518	3.62
857.257	2.62
857.995	1.62
858.734	0.62
859.473	3.62
860.211	3.62
860.95	2.62
861.688	2.62
862.426	1.62
863.165	-0.38
863.903	2.62
864.641	2.62
865.379	1.62
866.117	1.62
866.855	0.62
867.593	1.62
868.33	1.62
869.068	0.62
869.806	0.62
870.543	2.62
871.28	1.62
872.018	2.62
872.755	1.62
873.492	0.62
874.229	0.62
874.967	0.62
875.703	2.62
876.44	1.62
877.177	2.62
877.914	1.62
878.651	0.62
879.387	2.62
880.124	0.62
880.86	0.62
881.597	0.62
882.333	-0.38
883.069	4.62
883.806	0.62
884.542	1.62
885.278	1.62
886.014	0.62
886.749	-1.38
887.485	1.62
888.221	0.62
888.957	1.62
889.692	2.62
890.428	0.62
891.163	-0.38
891.899	-0.38
892.634	0.62
893.369	0.62
894.104	1.62
894.839	2.62
895.574	-0.38
896.309	1.62
897.044	2.62
897.779	-1.38
898.514	-0.38
899.248	1.62
899.983	0.62
900.717	2.62
901.452	0.62
902.186	-0.38
902.92	-2.38
903.654	1.62
904.389	-1.38
905.123	2.62
905.857	1.62
906.59	0.62
907.324	1.62
908.058	0.62
908.792	3.62
909.525	-0.38
910.259	0.62
910.992	-1.38
911.726	-0.38
912.459	1.62
913.192	0.62
913.925	0.62
914.658	-1.38
915.391	0.62
916.124	1.62
916.857	-0.38
917.59	1.62
918.323	-1.38
919.055	1.62
919.788	1.62
920.521	2.62
921.253	2.62
921.985	2.62
922.718	2.62
923.45	-1.38
924.182	2.62
924.914	1.62
925.646	1.62
926.378	-0.38
927.11	1.62
927.841	1.62
928.573	-0.38
929.305	2.62
930.036	2.62
930.768	0.62
931.499	-0.38
932.23	1.62
932.962	1.62
933.693	0.62
934.424	1.62
935.155	0.62
935.886	1.62
936.617	1.62
937.348	1.62
938.078	-0.38
938.809	1.62
939.54	0.62
940.27	-0.38
941.001	3.62
941.731	3.62
942.461	-0.38
943.191	0.62
943.922	1.62
944.652	-0.38
945.382	1.62
946.112	0.62
946.841	0.62
947.571	1.62
948.301	-0.38
949.031	-0.38
949.76	0.62
950.49	2.62
951.219	-0.38
951.948	0.62
952.678	0.62
953.407	2.62
954.136	1.62
954.865	-2.38
955.594	0.62
956.323	-0.38
957.052	0.62
957.78	0.62
958.509	0.62
959.238	0.62
959.966	0.62
960.695	1.62
961.423	-0.38
962.151	0.62
962.88	1.62
963.608	1.62
964.336	0.62
965.064	-1.38
965.792	1.62
966.52	1.62
967.247	1.62
967.975	0.62
968.703	2.62
969.43	-0.38
970.158	0.62
970.885	0.62
971.613	-1.38
972.34	0.62
973.067	-0.38
973.794	1.62
974.521	2.62
975.248	-1.38
975.975	1.62
976.702	-1.38
977.429	1.62
978.156	1.62
978.882	1.62
979.609	1.62
980.335	-0.38
981.062	2.62
981.788	2.62
982.514	2.62
983.24	0.62
983.967	0.62
984.693	1.62
985.419	0.62
986.144	0.62
986.87	1.62
987.596	1.62
988.322	0.62
989.047	1.62
989.773	1.62
990.498	0.62
991.224	0.62
991.949	1.62
992.674	0.62
993.399	-0.38
994.124	1.62
994.849	-0.38
995.574	-0.38
996.299	1.62
997.024	2.62
997.749	0.62
998.473	0.62
999.198	2.62
999.922	-0.38
1000.647	-0.38
1001.371	2.62
1002.095	0.62
1002.82	-1.38
1003.544	-0.38
1004.268	1.62
1004.992	0.62
1005.716	-1.38
1006.439	0.62
1007.163	-0.38
1007.887	-0.38
1008.611	1.62
1009.334	0.62
1010.058	0.62
1010.781	2.62
1011.504	-1.38
1012.228	0.62
1012.951	-2.38
1013.674	1.62
1014.397	-0.38
1015.12	-0.38
