节点500_145_QEPB04081__638__11-39-07-155.txt的数据

Date: Wed Nov 12 11:39:07 CST 2025
User: PC
Spectrometer: QEPB0408
触发模式: 0
积分时间 (秒): 1.000000E-2
Scans to average: 1
启用暗噪声校正: true
启用非线性校正: false
滑动平均宽度: 0
X轴模式: Wavelengths
Number of Pixels in Spectrum: 1044
>>>>>Begin Spectral Data<<<<<
220.843	-0.38
221.644	0.62
222.444	-0.38
223.244	0.62
224.045	-0.38
224.845	-1.38
225.645	1.62
226.445	0.62
227.245	0.62
228.045	-1.38
228.845	1.62
229.645	1.62
230.444	1.62
231.244	1.62
232.043	0.62
232.843	1.62
233.642	-0.38
234.442	0.62
235.241	-0.38
236.04	2.62
236.839	1.62
237.638	1.62
238.437	1.62
239.236	1.62
240.035	1.62
240.833	1.62
241.632	3.62
242.43	3.62
243.229	0.62
244.027	3.62
244.826	3.62
245.624	3.62
246.422	1.62
247.22	1.62
248.018	0.62
248.816	4.62
249.614	-0.38
250.412	2.62
251.21	4.62
252.007	5.62
252.805	1.62
253.602	3.62
254.4	2.62
255.197	1.62
255.994	4.62
256.791	1.62
257.589	3.62
258.386	3.62
259.183	3.62
259.979	3.62
260.776	5.62
261.573	2.62
262.37	4.62
263.166	5.62
263.963	4.62
264.759	4.62
265.556	2.62
266.352	5.62
267.148	7.62
267.944	4.62
268.74	7.62
269.536	5.62
270.332	5.62
271.128	6.62
271.924	7.62
272.719	9.62
273.515	5.62
274.311	6.62
275.106	10.62
275.901	8.62
276.697	10.62
277.492	7.62
278.287	9.62
279.082	5.62
279.877	7.62
280.672	11.62
281.467	8.62
282.262	8.62
283.056	9.62
283.851	8.62
284.646	10.62
285.44	10.62
286.234	10.62
287.029	10.62
287.823	9.62
288.617	9.62
289.411	10.62
290.205	7.62
290.999	10.62
291.793	10.62
292.587	11.62
293.381	10.62
294.174	9.62
294.968	10.62
295.761	10.62
296.555	7.62
297.348	9.62
298.141	7.62
298.935	9.62
299.728	11.62
300.521	7.62
301.314	6.62
302.107	9.62
302.899	8.62
303.692	9.62
304.485	9.62
305.277	9.62
306.07	10.62
306.862	6.62
307.655	9.62
308.447	8.62
309.239	5.62
310.031	8.62
310.823	7.62
311.615	7.62
312.407	6.62
313.199	8.62
313.991	6.62
314.783	5.62
315.574	6.62
316.366	3.62
317.157	3.62
317.949	4.62
318.74	5.62
319.531	5.62
320.322	4.62
321.113	4.62
321.904	6.62
322.695	3.62
323.486	7.62
324.277	5.62
325.068	4.62
325.858	3.62
326.649	5.62
327.439	3.62
328.23	1.62
329.02	2.62
329.81	3.62
330.6	3.62
331.391	3.62
332.181	4.62
332.971	3.62
333.76	5.62
334.55	2.62
335.34	4.62
336.13	2.62
336.919	3.62
337.709	4.62
338.498	1.62
339.287	2.62
340.077	6.62
340.866	3.62
341.655	4.62
342.444	1.62
343.233	2.62
344.022	3.62
344.811	6.62
345.6	2.62
346.388	4.62
347.177	6.62
347.965	4.62
348.754	4.62
349.542	2.62
350.33	2.62
351.119	2.62
351.907	5.62
352.695	1.62
353.483	1.62
354.271	2.62
355.059	0.62
355.846	2.62
356.634	2.62
357.422	3.62
358.209	2.62
358.997	1.62
359.784	2.62
360.571	3.62
361.359	2.62
362.146	3.62
362.933	4.62
363.72	3.62
364.507	2.62
365.294	3.62
366.081	1.62
366.867	2.62
367.654	3.62
368.44	3.62
369.227	0.62
370.013	1.62
370.8	2.62
371.586	2.62
372.372	3.62
373.158	2.62
373.944	3.62
374.73	0.62
375.516	4.62
376.302	1.62
377.088	2.62
377.873	2.62
378.659	3.62
379.445	4.62
380.23	2.62
381.015	2.62
381.801	1.62
382.586	3.62
383.371	2.62
384.156	4.62
384.941	2.62
385.726	1.62
386.511	3.62
387.296	6.62
388.08	2.62
388.865	2.62
389.649	0.62
390.434	2.62
391.218	3.62
392.003	1.62
392.787	4.62
393.571	3.62
394.355	3.62
395.139	2.62
395.923	-0.38
396.707	2.62
397.491	2.62
398.274	2.62
399.058	2.62
399.842	5.62
400.625	2.62
401.408	4.62
402.192	4.62
402.975	2.62
403.758	4.62
404.541	3.62
405.324	3.62
406.107	4.62
406.89	3.62
407.673	5.62
408.456	5.62
409.238	5.62
410.021	2.62
410.803	4.62
411.586	4.62
412.368	3.62
413.151	5.62
413.933	3.62
414.715	4.62
415.497	4.62
416.279	2.62
417.061	5.62
417.843	2.62
418.624	4.62
419.406	4.62
420.188	4.62
420.969	3.62
421.751	5.62
422.532	7.62
423.313	4.62
424.095	7.62
424.876	5.62
425.657	7.62
426.438	5.62
427.219	6.62
428	6.62
428.78	5.62
429.561	8.62
430.342	6.62
431.122	9.62
431.903	8.62
432.683	8.62
433.464	7.62
434.244	7.62
435.024	9.62
435.804	8.62
436.584	11.62
437.364	9.62
438.144	10.62
438.924	10.62
439.704	9.62
440.483	11.62
441.263	10.62
442.042	16.62
442.822	15.62
443.601	14.62
444.38	17.62
445.16	13.62
445.939	17.62
446.718	19.62
447.497	21.62
448.276	21.62
449.054	23.62
449.833	24.62
450.612	29.62
451.391	28.62
452.169	34.62
452.948	35.62
453.726	36.62
454.504	37.62
455.282	46.62
456.061	50.62
456.839	56.62
457.617	61.62
458.395	65.62
459.172	70.62
459.95	82.62
460.728	92.62
461.506	102.62
462.283	111.62
463.061	124.62
463.838	140.62
464.615	156.62
465.393	173.62
466.17	193.62
466.947	211.62
467.724	243.62
468.501	263.62
469.278	299.62
470.055	324.62
470.831	363.62
471.608	406.62
472.385	436.62
473.161	487.62
473.938	534.62
474.714	595.62
475.49	661.62
476.266	728.62
477.043	798.62
477.819	867.62
478.595	970.62
479.371	1054.62
480.146	1170.62
480.922	1263.62
481.698	1384.62
482.473	1533.62
483.249	1672.62
484.024	1831.62
484.8	1985.62
485.575	2184.62
486.35	2389.62
487.126	2611.62
487.901	2856.62
488.676	3120.62
489.451	3398.62
490.225	3741.62
491	4081.62
491.775	4432.62
492.55	4802.62
493.324	5222.62
494.099	5708.62
494.873	6206.62
495.647	6711.62
496.422	7250.62
497.196	7842.62
497.97	8443.62
498.744	9062.62
499.518	9683.62
500.292	10366.62
501.066	11009.62
501.839	11601.62
502.613	12227.62
503.387	12796.62
504.16	13320.62
504.934	13808.62
505.707	14256.62
506.48	14598.62
507.253	14831.62
508.027	15024.62
508.8	15122.62
509.573	15145.62
510.346	15067.62
511.118	14880.62
511.891	14637.62
512.664	14301.62
513.437	13929.62
514.209	13501.62
514.982	13123.62
515.754	12629.62
516.526	12177.62
517.298	11643.62
518.071	11196.62
518.843	10697.62
519.615	10273.62
520.387	9851.62
521.159	9473.62
521.93	9083.62
522.702	8723.62
523.474	8405.62
524.245	8063.62
525.017	7748.62
525.788	7439.62
526.56	7122.62
527.331	6873.62
528.102	6541.62
528.873	6285.62
529.644	6038.62
530.415	5767.62
531.186	5501.62
531.957	5281.62
532.728	5002.62
533.498	4755.62
534.269	4510.62
535.039	4293.62
535.81	4045.62
536.58	3834.62
537.351	3619.62
538.121	3432.62
538.891	3233.62
539.661	3061.62
540.431	2909.62
541.201	2762.62
541.971	2599.62
542.741	2471.62
543.51	2322.62
544.28	2215.62
545.05	2124.62
545.819	2000.62
546.588	1894.62
547.358	1798.62
548.127	1716.62
548.896	1623.62
549.665	1548.62
550.434	1461.62
551.203	1403.62
551.972	1332.62
552.741	1259.62
553.51	1196.62
554.278	1136.62
555.047	1072.62
555.815	1013.62
556.584	961.62
557.352	898.62
558.121	845.62
558.889	799.62
559.657	763.62
560.425	715.62
561.193	674.62
561.961	634.62
562.729	595.62
563.496	568.62
564.264	525.62
565.032	506.62
565.799	482.62
566.567	461.62
567.334	427.62
568.101	402.62
568.869	379.62
569.636	360.62
570.403	327.62
571.17	315.62
571.937	294.62
572.704	280.62
573.471	271.62
574.237	250.62
575.004	239.62
575.771	223.62
576.537	207.62
577.303	198.62
578.07	186.62
578.836	172.62
579.602	163.62
580.368	152.62
581.134	147.62
581.9	142.62
582.666	134.62
583.432	124.62
584.198	118.62
584.964	113.62
585.729	108.62
586.495	100.62
587.26	93.62
588.025	93.62
588.791	83.62
589.556	82.62
590.321	74.62
591.086	71.62
591.851	70.62
592.616	66.62
593.381	64.62
594.146	56.62
594.911	58.62
595.675	53.62
596.44	49.62
597.204	49.62
597.969	51.62
598.733	43.62
599.497	40.62
600.261	39.62
601.025	34.62
601.79	38.62
602.553	34.62
603.317	31.62
604.081	31.62
604.845	30.62
605.609	28.62
606.372	28.62
607.136	28.62
607.899	27.62
608.662	25.62
609.426	25.62
610.189	23.62
610.952	19.62
611.715	20.62
612.478	20.62
613.241	21.62
614.004	19.62
614.767	16.62
615.529	16.62
616.292	18.62
617.055	16.62
617.817	13.62
618.579	13.62
619.342	13.62
620.104	14.62
620.866	12.62
621.628	13.62
622.39	11.62
623.152	14.62
623.914	11.62
624.676	9.62
625.438	9.62
626.199	9.62
626.961	10.62
627.722	7.62
628.484	9.62
629.245	8.62
630.006	7.62
630.768	7.62
631.529	8.62
632.29	8.62
633.051	7.62
633.812	8.62
634.573	7.62
635.333	7.62
636.094	5.62
636.855	8.62
637.615	7.62
638.376	6.62
639.136	7.62
639.896	3.62
640.657	5.62
641.417	6.62
642.177	5.62
642.937	3.62
643.697	4.62
644.457	6.62
645.216	3.62
645.976	5.62
646.736	4.62
647.495	5.62
648.255	6.62
649.014	4.62
649.774	5.62
650.533	4.62
651.292	3.62
652.051	6.62
652.81	4.62
653.569	3.62
654.328	2.62
655.087	3.62
655.846	2.62
656.604	3.62
657.363	3.62
658.121	2.62
658.88	5.62
659.638	2.62
660.397	3.62
661.155	3.62
661.913	5.62
662.671	3.62
663.429	3.62
664.187	4.62
664.945	3.62
665.703	4.62
666.46	4.62
667.218	2.62
667.976	4.62
668.733	2.62
669.49	2.62
670.248	1.62
671.005	5.62
671.762	1.62
672.519	1.62
673.276	0.62
674.033	2.62
674.79	3.62
675.547	2.62
676.304	3.62
677.06	2.62
677.817	1.62
678.574	1.62
679.33	1.62
680.086	2.62
680.843	2.62
681.599	3.62
682.355	1.62
683.111	2.62
683.867	1.62
684.623	3.62
685.379	3.62
686.135	-0.38
686.89	2.62
687.646	2.62
688.402	2.62
689.157	2.62
689.912	2.62
690.668	4.62
691.423	1.62
692.178	2.62
692.933	1.62
693.688	2.62
694.443	1.62
695.198	1.62
695.953	3.62
696.708	2.62
697.462	1.62
698.217	2.62
698.972	2.62
699.726	2.62
700.48	2.62
701.235	1.62
701.989	1.62
702.743	2.62
703.497	1.62
704.251	1.62
705.005	4.62
705.759	3.62
706.513	0.62
707.266	2.62
708.02	1.62
708.774	1.62
709.527	4.62
710.28	2.62
711.034	0.62
711.787	3.62
712.54	1.62
713.293	3.62
714.046	0.62
714.799	1.62
715.552	2.62
716.305	0.62
717.058	1.62
717.81	2.62
718.563	2.62
719.315	4.62
720.068	2.62
720.82	1.62
721.573	2.62
722.325	0.62
723.077	3.62
723.829	3.62
724.581	2.62
725.333	-0.38
726.085	3.62
726.836	0.62
727.588	2.62
728.34	3.62
729.091	2.62
729.843	2.62
730.594	2.62
731.346	0.62
732.097	4.62
732.848	2.62
733.599	0.62
734.35	0.62
735.101	5.62
735.852	2.62
736.603	3.62
737.354	2.62
738.104	2.62
738.855	1.62
739.605	3.62
740.356	3.62
741.106	1.62
741.856	2.62
742.607	1.62
743.357	3.62
744.107	3.62
744.857	0.62
745.607	3.62
746.357	3.62
747.106	3.62
747.856	3.62
748.606	4.62
749.355	2.62
750.105	2.62
750.854	3.62
751.603	2.62
752.353	6.62
753.102	2.62
753.851	4.62
754.6	4.62
755.349	3.62
756.098	3.62
756.847	3.62
757.595	2.62
758.344	2.62
759.093	4.62
759.841	2.62
760.589	3.62
761.338	2.62
762.086	2.62
762.834	3.62
763.582	3.62
764.331	3.62
765.079	2.62
765.826	3.62
766.574	1.62
767.322	6.62
768.07	3.62
768.817	4.62
769.565	4.62
770.312	5.62
771.06	2.62
771.807	5.62
772.554	2.62
773.302	7.62
774.049	2.62
774.796	2.62
775.543	4.62
776.29	5.62
777.036	3.62
777.783	2.62
778.53	6.62
779.276	5.62
780.023	5.62
780.769	4.62
781.516	2.62
782.262	5.62
783.008	2.62
783.754	6.62
784.5	4.62
785.246	5.62
785.992	6.62
786.738	3.62
787.484	3.62
788.23	6.62
788.975	4.62
789.721	5.62
790.466	4.62
791.212	6.62
791.957	6.62
792.702	5.62
793.447	5.62
794.193	2.62
794.938	4.62
795.683	4.62
796.427	4.62
797.172	2.62
797.917	3.62
798.662	5.62
799.406	2.62
800.151	4.62
800.895	1.62
801.64	5.62
802.384	3.62
803.128	5.62
803.872	5.62
804.616	6.62
805.36	4.62
806.104	2.62
806.848	2.62
807.592	1.62
808.336	4.62
809.079	5.62
809.823	3.62
810.566	5.62
811.31	2.62
812.053	4.62
812.796	2.62
813.539	3.62
814.283	2.62
815.026	5.62
815.769	4.62
816.511	2.62
817.254	5.62
817.997	4.62
818.74	3.62
819.482	3.62
820.225	2.62
820.967	1.62
821.71	4.62
822.452	4.62
823.194	2.62
823.936	4.62
824.678	3.62
825.42	2.62
826.162	3.62
826.904	1.62
827.646	3.62
828.388	4.62
829.129	2.62
829.871	3.62
830.612	-1.38
831.354	2.62
832.095	2.62
832.836	3.62
833.577	3.62
834.319	2.62
835.06	3.62
835.801	3.62
836.542	2.62
837.282	-0.38
838.023	4.62
838.764	-0.38
839.504	3.62
840.245	1.62
840.985	0.62
841.726	3.62
842.466	1.62
843.206	2.62
843.946	1.62
844.687	4.62
845.427	0.62
846.166	2.62
846.906	2.62
847.646	1.62
848.386	1.62
849.125	3.62
849.865	5.62
850.605	2.62
851.344	2.62
852.083	4.62
852.823	3.62
853.562	0.62
854.301	0.62
855.04	1.62
855.779	1.62
856.518	1.62
857.257	1.62
857.995	1.62
858.734	1.62
859.473	2.62
860.211	0.62
860.95	1.62
861.688	2.62
862.426	1.62
863.165	1.62
863.903	2.62
864.641	1.62
865.379	0.62
866.117	0.62
866.855	1.62
867.593	0.62
868.33	1.62
869.068	2.62
869.806	0.62
870.543	2.62
871.28	1.62
872.018	0.62
872.755	-0.38
873.492	0.62
874.229	1.62
874.967	0.62
875.703	1.62
876.44	-0.38
877.177	0.62
877.914	0.62
878.651	1.62
879.387	2.62
880.124	1.62
880.86	-1.38
881.597	1.62
882.333	0.62
883.069	0.62
883.806	0.62
884.542	-1.38
885.278	3.62
886.014	0.62
886.749	0.62
887.485	-0.38
888.221	0.62
888.957	0.62
889.692	2.62
890.428	-0.38
891.163	-0.38
891.899	1.62
892.634	-0.38
893.369	1.62
894.104	-0.38
894.839	1.62
895.574	2.62
896.309	-0.38
897.044	0.62
897.779	1.62
898.514	3.62
899.248	0.62
899.983	0.62
900.717	1.62
901.452	-0.38
902.186	1.62
902.92	0.62
903.654	0.62
904.389	-0.38
905.123	1.62
905.857	1.62
906.59	1.62
907.324	0.62
908.058	-1.38
908.792	0.62
909.525	0.62
910.259	-0.38
910.992	-0.38
911.726	0.62
912.459	1.62
913.192	-0.38
913.925	1.62
914.658	-0.38
915.391	2.62
916.124	0.62
916.857	-0.38
917.59	0.62
918.323	0.62
919.055	1.62
919.788	-0.38
920.521	-0.38
921.253	3.62
921.985	-1.38
922.718	-0.38
923.45	1.62
924.182	0.62
924.914	0.62
925.646	0.62
926.378	0.62
927.11	-0.38
927.841	0.62
928.573	0.62
929.305	1.62
930.036	0.62
930.768	0.62
931.499	1.62
932.23	0.62
932.962	2.62
933.693	1.62
934.424	3.62
935.155	1.62
935.886	1.62
936.617	0.62
937.348	-1.38
938.078	2.62
938.809	0.62
939.54	0.62
940.27	-0.38
941.001	3.62
941.731	-1.38
942.461	-0.38
943.191	2.62
943.922	0.62
944.652	0.62
945.382	3.62
946.112	0.62
946.841	-2.38
947.571	-0.38
948.301	3.62
949.031	-0.38
949.76	1.62
950.49	0.62
951.219	3.62
951.948	-1.38
952.678	1.62
953.407	0.62
954.136	1.62
954.865	0.62
955.594	-1.38
956.323	0.62
957.052	2.62
957.78	1.62
958.509	-0.38
959.238	0.62
959.966	0.62
960.695	-1.38
961.423	-0.38
962.151	0.62
962.88	0.62
963.608	2.62
964.336	-2.38
965.064	3.62
965.792	0.62
966.52	-1.38
967.247	0.62
967.975	0.62
968.703	0.62
969.43	-0.38
970.158	1.62
970.885	-1.38
971.613	-0.38
972.34	-1.38
973.067	-0.38
973.794	1.62
974.521	0.62
975.248	2.62
975.975	-0.38
976.702	1.62
977.429	-0.38
978.156	-1.38
978.882	1.62
979.609	0.62
980.335	-1.38
981.062	1.62
981.788	0.62
982.514	2.62
983.24	-2.38
983.967	-0.38
984.693	-0.38
985.419	1.62
986.144	-1.38
986.87	0.62
987.596	-0.38
988.322	0.62
989.047	0.62
989.773	1.62
990.498	-0.38
991.224	-1.38
991.949	-0.38
992.674	1.62
993.399	-1.38
994.124	0.62
994.849	2.62
995.574	0.62
996.299	-1.38
997.024	0.62
997.749	0.62
998.473	0.62
999.198	-0.38
999.922	1.62
1000.647	2.62
1001.371	3.62
1002.095	-2.38
1002.82	1.62
1003.544	-2.38
1004.268	-0.38
1004.992	0.62
1005.716	-0.38
1006.439	-0.38
1007.163	-2.38
1007.887	-0.38
1008.611	-1.38
1009.334	-0.38
1010.058	-0.38
1010.781	-0.38
1011.504	0.62
1012.228	-0.38
1012.951	-1.38
1013.674	-0.38
1014.397	-0.38
1015.12	1.62
