节点500_145_QEPB04081__194__11-32-03-521.txt的数据

Date: Wed Nov 12 11:32:03 CST 2025
User: PC
Spectrometer: QEPB0408
触发模式: 0
积分时间 (秒): 1.000000E-2
Scans to average: 1
启用暗噪声校正: true
启用非线性校正: false
滑动平均宽度: 0
X轴模式: Wavelengths
Number of Pixels in Spectrum: 1044
>>>>>Begin Spectral Data<<<<<
220.843	1.12
221.644	1.12
222.444	0.12
223.244	-1.88
224.045	1.12
224.845	0.12
225.645	0.12
226.445	-0.88
227.245	0.12
228.045	-1.88
228.845	-0.88
229.645	0.12
230.444	2.12
231.244	0.12
232.043	2.12
232.843	0.12
233.642	0.12
234.442	0.12
235.241	1.12
236.04	4.12
236.839	1.12
237.638	0.12
238.437	1.12
239.236	0.12
240.035	0.12
240.833	1.12
241.632	1.12
242.43	2.12
243.229	1.12
244.027	2.12
244.826	2.12
245.624	2.12
246.422	0.12
247.22	4.12
248.018	4.12
248.816	2.12
249.614	2.12
250.412	4.12
251.21	4.12
252.007	2.12
252.805	3.12
253.602	1.12
254.4	4.12
255.197	3.12
255.994	2.12
256.791	3.12
257.589	1.12
258.386	3.12
259.183	3.12
259.979	3.12
260.776	4.12
261.573	3.12
262.37	6.12
263.166	3.12
263.963	6.12
264.759	5.12
265.556	8.12
266.352	3.12
267.148	8.12
267.944	7.12
268.74	9.12
269.536	9.12
270.332	8.12
271.128	5.12
271.924	8.12
272.719	9.12
273.515	10.12
274.311	5.12
275.106	8.12
275.901	10.12
276.697	7.12
277.492	8.12
278.287	10.12
279.082	10.12
279.877	10.12
280.672	13.12
281.467	13.12
282.262	10.12
283.056	13.12
283.851	9.12
284.646	12.12
285.44	11.12
286.234	10.12
287.029	10.12
287.823	14.12
288.617	12.12
289.411	10.12
290.205	10.12
290.999	13.12
291.793	8.12
292.587	10.12
293.381	9.12
294.174	8.12
294.968	11.12
295.761	11.12
296.555	10.12
297.348	10.12
298.141	13.12
298.935	12.12
299.728	12.12
300.521	10.12
301.314	10.12
302.107	8.12
302.899	8.12
303.692	7.12
304.485	9.12
305.277	10.12
306.07	8.12
306.862	8.12
307.655	5.12
308.447	7.12
309.239	8.12
310.031	5.12
310.823	7.12
311.615	7.12
312.407	7.12
313.199	8.12
313.991	6.12
314.783	8.12
315.574	4.12
316.366	6.12
317.157	5.12
317.949	5.12
318.74	5.12
319.531	3.12
320.322	4.12
321.113	4.12
321.904	6.12
322.695	5.12
323.486	4.12
324.277	4.12
325.068	4.12
325.858	6.12
326.649	3.12
327.439	5.12
328.23	6.12
329.02	3.12
329.81	5.12
330.6	2.12
331.391	4.12
332.181	4.12
332.971	5.12
333.76	4.12
334.55	4.12
335.34	6.12
336.13	4.12
336.919	4.12
337.709	2.12
338.498	4.12
339.287	4.12
340.077	3.12
340.866	4.12
341.655	4.12
342.444	4.12
343.233	5.12
344.022	4.12
344.811	2.12
345.6	4.12
346.388	3.12
347.177	1.12
347.965	5.12
348.754	1.12
349.542	5.12
350.33	3.12
351.119	2.12
351.907	2.12
352.695	3.12
353.483	3.12
354.271	1.12
355.059	3.12
355.846	2.12
356.634	4.12
357.422	1.12
358.209	2.12
358.997	2.12
359.784	3.12
360.571	4.12
361.359	4.12
362.146	2.12
362.933	4.12
363.72	3.12
364.507	4.12
365.294	1.12
366.081	5.12
366.867	6.12
367.654	3.12
368.44	2.12
369.227	3.12
370.013	3.12
370.8	2.12
371.586	4.12
372.372	2.12
373.158	1.12
373.944	2.12
374.73	1.12
375.516	3.12
376.302	2.12
377.088	1.12
377.873	1.12
378.659	3.12
379.445	2.12
380.23	3.12
381.015	2.12
381.801	5.12
382.586	4.12
383.371	1.12
384.156	2.12
384.941	5.12
385.726	2.12
386.511	4.12
387.296	5.12
388.08	2.12
388.865	0.12
389.649	-0.88
390.434	5.12
391.218	2.12
392.003	4.12
392.787	4.12
393.571	3.12
394.355	3.12
395.139	3.12
395.923	4.12
396.707	2.12
397.491	2.12
398.274	1.12
399.058	2.12
399.842	3.12
400.625	2.12
401.408	4.12
402.192	3.12
402.975	2.12
403.758	3.12
404.541	2.12
405.324	3.12
406.107	4.12
406.89	4.12
407.673	3.12
408.456	3.12
409.238	4.12
410.021	3.12
410.803	4.12
411.586	3.12
412.368	4.12
413.151	4.12
413.933	5.12
414.715	3.12
415.497	4.12
416.279	6.12
417.061	5.12
417.843	4.12
418.624	6.12
419.406	6.12
420.188	4.12
420.969	5.12
421.751	3.12
422.532	3.12
423.313	4.12
424.095	7.12
424.876	7.12
425.657	7.12
426.438	6.12
427.219	7.12
428	6.12
428.78	5.12
429.561	9.12
430.342	9.12
431.122	11.12
431.903	6.12
432.683	7.12
433.464	8.12
434.244	9.12
435.024	10.12
435.804	11.12
436.584	12.12
437.364	9.12
438.144	10.12
438.924	14.12
439.704	13.12
440.483	10.12
441.263	13.12
442.042	12.12
442.822	11.12
443.601	16.12
444.38	14.12
445.16	15.12
445.939	18.12
446.718	20.12
447.497	20.12
448.276	20.12
449.054	21.12
449.833	22.12
450.612	23.12
451.391	26.12
452.169	27.12
452.948	29.12
453.726	34.12
454.504	38.12
455.282	42.12
456.061	46.12
456.839	46.12
457.617	54.12
458.395	58.12
459.172	62.12
459.95	72.12
460.728	79.12
461.506	84.12
462.283	97.12
463.061	106.12
463.838	121.12
464.615	136.12
465.393	151.12
466.17	161.12
466.947	187.12
467.724	211.12
468.501	234.12
469.278	262.12
470.055	288.12
470.831	318.12
471.608	357.12
472.385	403.12
473.161	449.12
473.938	497.12
474.714	555.12
475.49	614.12
476.266	682.12
477.043	759.12
477.819	845.12
478.595	933.12
479.371	1031.12
480.146	1137.12
480.922	1273.12
481.698	1407.12
482.473	1548.12
483.249	1704.12
484.024	1890.12
484.8	2075.12
485.575	2309.12
486.35	2564.12
487.126	2836.12
487.901	3115.12
488.676	3454.12
489.451	3779.12
490.225	4173.12
491	4605.12
491.775	5077.12
492.55	5550.12
493.324	6105.12
494.099	6675.12
494.873	7325.12
495.647	7985.12
496.422	8719.12
497.196	9408.12
497.97	10159.12
498.744	10982.12
499.518	11753.12
500.292	12463.12
501.066	13254.12
501.839	13977.12
502.613	14621.12
503.387	15244.12
504.16	15776.12
504.934	16260.12
505.707	16591.12
506.48	16781.12
507.253	16916.12
508.027	16969.12
508.8	16837.12
509.573	16625.12
510.346	16323.12
511.118	15928.12
511.891	15477.12
512.664	14952.12
513.437	14428.12
514.209	13857.12
514.982	13293.12
515.754	12758.12
516.526	12144.12
517.298	11633.12
518.071	11064.12
518.843	10611.12
519.615	10148.12
520.387	9710.12
521.159	9317.12
521.93	8939.12
522.702	8619.12
523.474	8282.12
524.245	7955.12
525.017	7633.12
525.788	7303.12
526.56	7020.12
527.331	6740.12
528.102	6405.12
528.873	6127.12
529.644	5826.12
530.415	5576.12
531.186	5304.12
531.957	5027.12
532.728	4771.12
533.498	4506.12
534.269	4261.12
535.039	4018.12
535.81	3786.12
536.58	3567.12
537.351	3389.12
538.121	3191.12
538.891	3025.12
539.661	2840.12
540.431	2699.12
541.201	2548.12
541.971	2409.12
542.741	2290.12
543.51	2171.12
544.28	2065.12
545.05	1967.12
545.819	1872.12
546.588	1782.12
547.358	1665.12
548.127	1597.12
548.896	1512.12
549.665	1449.12
550.434	1379.12
551.203	1303.12
551.972	1235.12
552.741	1170.12
553.51	1102.12
554.278	1033.12
555.047	987.12
555.815	918.12
556.584	871.12
557.352	829.12
558.121	771.12
558.889	737.12
559.657	688.12
560.425	654.12
561.193	611.12
561.961	565.12
562.729	544.12
563.496	519.12
564.264	480.12
565.032	454.12
565.799	426.12
566.567	413.12
567.334	384.12
568.101	367.12
568.869	348.12
569.636	322.12
570.403	306.12
571.17	291.12
571.937	282.12
572.704	260.12
573.471	246.12
574.237	223.12
575.004	213.12
575.771	203.12
576.537	188.12
577.303	170.12
578.07	168.12
578.836	157.12
579.602	150.12
580.368	141.12
581.134	133.12
581.9	123.12
582.666	123.12
583.432	114.12
584.198	103.12
584.964	103.12
585.729	95.12
586.495	90.12
587.26	85.12
588.025	82.12
588.791	77.12
589.556	72.12
590.321	69.12
591.086	67.12
591.851	61.12
592.616	62.12
593.381	51.12
594.146	52.12
594.911	52.12
595.675	49.12
596.44	46.12
597.204	42.12
597.969	40.12
598.733	41.12
599.497	39.12
600.261	36.12
601.025	33.12
601.79	35.12
602.553	30.12
603.317	34.12
604.081	28.12
604.845	26.12
605.609	29.12
606.372	25.12
607.136	23.12
607.899	23.12
608.662	22.12
609.426	24.12
610.189	22.12
610.952	18.12
611.715	16.12
612.478	20.12
613.241	17.12
614.004	17.12
614.767	16.12
615.529	15.12
616.292	18.12
617.055	14.12
617.817	14.12
618.579	12.12
619.342	14.12
620.104	13.12
620.866	13.12
621.628	12.12
622.39	11.12
623.152	13.12
623.914	9.12
624.676	11.12
625.438	12.12
626.199	10.12
626.961	10.12
627.722	8.12
628.484	7.12
629.245	9.12
630.006	9.12
630.768	11.12
631.529	6.12
632.29	8.12
633.051	8.12
633.812	8.12
634.573	6.12
635.333	8.12
636.094	8.12
636.855	4.12
637.615	7.12
638.376	4.12
639.136	5.12
639.896	6.12
640.657	5.12
641.417	6.12
642.177	5.12
642.937	5.12
643.697	6.12
644.457	4.12
645.216	5.12
645.976	3.12
646.736	4.12
647.495	3.12
648.255	5.12
649.014	4.12
649.774	6.12
650.533	3.12
651.292	6.12
652.051	3.12
652.81	3.12
653.569	5.12
654.328	2.12
655.087	6.12
655.846	4.12
656.604	3.12
657.363	2.12
658.121	1.12
658.88	5.12
659.638	3.12
660.397	3.12
661.155	3.12
661.913	4.12
662.671	3.12
663.429	3.12
664.187	6.12
664.945	3.12
665.703	2.12
666.46	2.12
667.218	1.12
667.976	1.12
668.733	1.12
669.49	1.12
670.248	2.12
671.005	1.12
671.762	4.12
672.519	3.12
673.276	2.12
674.033	1.12
674.79	2.12
675.547	0.12
676.304	2.12
677.06	2.12
677.817	2.12
678.574	4.12
679.33	3.12
680.086	2.12
680.843	3.12
681.599	4.12
682.355	0.12
683.111	1.12
683.867	2.12
684.623	1.12
685.379	2.12
686.135	1.12
686.89	3.12
687.646	3.12
688.402	1.12
689.157	2.12
689.912	2.12
690.668	3.12
691.423	1.12
692.178	2.12
692.933	0.12
693.688	4.12
694.443	2.12
695.198	3.12
695.953	2.12
696.708	3.12
697.462	4.12
698.217	2.12
698.972	0.12
699.726	1.12
700.48	2.12
701.235	4.12
701.989	1.12
702.743	1.12
703.497	4.12
704.251	2.12
705.005	2.12
705.759	3.12
706.513	3.12
707.266	5.12
708.02	2.12
708.774	2.12
709.527	3.12
710.28	1.12
711.034	3.12
711.787	3.12
712.54	3.12
713.293	0.12
714.046	2.12
714.799	0.12
715.552	4.12
716.305	1.12
717.058	2.12
717.81	2.12
718.563	1.12
719.315	4.12
720.068	2.12
720.82	4.12
721.573	3.12
722.325	1.12
723.077	1.12
723.829	2.12
724.581	1.12
725.333	2.12
726.085	1.12
726.836	4.12
727.588	1.12
728.34	2.12
729.091	4.12
729.843	6.12
730.594	5.12
731.346	3.12
732.097	3.12
732.848	2.12
733.599	1.12
734.35	1.12
735.101	4.12
735.852	3.12
736.603	1.12
737.354	2.12
738.104	1.12
738.855	2.12
739.605	0.12
740.356	3.12
741.106	3.12
741.856	3.12
742.607	4.12
743.357	3.12
744.107	3.12
744.857	2.12
745.607	3.12
746.357	2.12
747.106	4.12
747.856	1.12
748.606	3.12
749.355	4.12
750.105	1.12
750.854	4.12
751.603	4.12
752.353	1.12
753.102	3.12
753.851	5.12
754.6	3.12
755.349	4.12
756.098	2.12
756.847	2.12
757.595	4.12
758.344	3.12
759.093	3.12
759.841	6.12
760.589	2.12
761.338	3.12
762.086	6.12
762.834	4.12
763.582	5.12
764.331	3.12
765.079	3.12
765.826	5.12
766.574	1.12
767.322	3.12
768.07	6.12
768.817	5.12
769.565	4.12
770.312	5.12
771.06	5.12
771.807	5.12
772.554	5.12
773.302	4.12
774.049	3.12
774.796	6.12
775.543	4.12
776.29	4.12
777.036	5.12
777.783	4.12
778.53	2.12
779.276	6.12
780.023	4.12
780.769	6.12
781.516	6.12
782.262	6.12
783.008	4.12
783.754	4.12
784.5	7.12
785.246	5.12
785.992	4.12
786.738	4.12
787.484	6.12
788.23	5.12
788.975	5.12
789.721	6.12
790.466	6.12
791.212	7.12
791.957	7.12
792.702	7.12
793.447	4.12
794.193	4.12
794.938	6.12
795.683	6.12
796.427	4.12
797.172	4.12
797.917	3.12
798.662	4.12
799.406	5.12
800.151	5.12
800.895	3.12
801.64	4.12
802.384	5.12
803.128	3.12
803.872	5.12
804.616	4.12
805.36	4.12
806.104	4.12
806.848	4.12
807.592	4.12
808.336	0.12
809.079	5.12
809.823	3.12
810.566	5.12
811.31	3.12
812.053	0.12
812.796	4.12
813.539	4.12
814.283	5.12
815.026	2.12
815.769	3.12
816.511	4.12
817.254	2.12
817.997	6.12
818.74	4.12
819.482	4.12
820.225	4.12
820.967	3.12
821.71	4.12
822.452	2.12
823.194	3.12
823.936	3.12
824.678	3.12
825.42	2.12
826.162	3.12
826.904	3.12
827.646	3.12
828.388	5.12
829.129	5.12
829.871	2.12
830.612	2.12
831.354	3.12
832.095	3.12
832.836	1.12
833.577	3.12
834.319	2.12
835.06	1.12
835.801	2.12
836.542	1.12
837.282	2.12
838.023	2.12
838.764	6.12
839.504	3.12
840.245	2.12
840.985	3.12
841.726	3.12
842.466	2.12
843.206	3.12
843.946	4.12
844.687	2.12
845.427	5.12
846.166	2.12
846.906	-0.88
847.646	0.12
848.386	3.12
849.125	2.12
849.865	1.12
850.605	2.12
851.344	3.12
852.083	1.12
852.823	1.12
853.562	-0.88
854.301	3.12
855.04	3.12
855.779	2.12
856.518	2.12
857.257	2.12
857.995	0.12
858.734	1.12
859.473	0.12
860.211	1.12
860.95	1.12
861.688	1.12
862.426	1.12
863.165	2.12
863.903	0.12
864.641	2.12
865.379	0.12
866.117	3.12
866.855	1.12
867.593	1.12
868.33	5.12
869.068	1.12
869.806	1.12
870.543	1.12
871.28	1.12
872.018	2.12
872.755	-2.88
873.492	5.12
874.229	0.12
874.967	1.12
875.703	4.12
876.44	-1.88
877.177	2.12
877.914	1.12
878.651	2.12
879.387	1.12
880.124	0.12
880.86	1.12
881.597	-1.88
882.333	1.12
883.069	1.12
883.806	3.12
884.542	1.12
885.278	2.12
886.014	2.12
886.749	1.12
887.485	2.12
888.221	1.12
888.957	0.12
889.692	0.12
890.428	-0.88
891.163	1.12
891.899	3.12
892.634	0.12
893.369	0.12
894.104	1.12
894.839	1.12
895.574	0.12
896.309	-0.88
897.044	0.12
897.779	2.12
898.514	-0.88
899.248	-0.88
899.983	0.12
900.717	-0.88
901.452	1.12
902.186	-0.88
902.92	1.12
903.654	-0.88
904.389	0.12
905.123	-0.88
905.857	-0.88
906.59	2.12
907.324	1.12
908.058	0.12
908.792	1.12
909.525	1.12
910.259	-1.88
910.992	1.12
911.726	0.12
912.459	-0.88
913.192	1.12
913.925	-0.88
914.658	-1.88
915.391	1.12
916.124	0.12
916.857	3.12
917.59	1.12
918.323	1.12
919.055	-0.88
919.788	-0.88
920.521	-0.88
921.253	0.12
921.985	-0.88
922.718	2.12
923.45	0.12
924.182	1.12
924.914	-0.88
925.646	1.12
926.378	1.12
927.11	-1.88
927.841	-1.88
928.573	1.12
929.305	0.12
930.036	1.12
930.768	1.12
931.499	1.12
932.23	1.12
932.962	1.12
933.693	1.12
934.424	-0.88
935.155	-0.88
935.886	-0.88
936.617	-0.88
937.348	0.12
938.078	0.12
938.809	2.12
939.54	0.12
940.27	0.12
941.001	-1.88
941.731	0.12
942.461	1.12
943.191	0.12
943.922	2.12
944.652	1.12
945.382	2.12
946.112	1.12
946.841	-0.88
947.571	-0.88
948.301	0.12
949.031	-0.88
949.76	1.12
950.49	1.12
951.219	0.12
951.948	-2.88
952.678	-1.88
953.407	-0.88
954.136	0.12
954.865	0.12
955.594	-0.88
956.323	0.12
957.052	-0.88
957.78	0.12
958.509	-1.88
959.238	2.12
959.966	-1.88
960.695	1.12
961.423	0.12
962.151	0.12
962.88	0.12
963.608	1.12
964.336	1.12
965.064	0.12
965.792	0.12
966.52	1.12
967.247	1.12
967.975	1.12
968.703	-0.88
969.43	0.12
970.158	0.12
970.885	1.12
971.613	0.12
972.34	-1.88
973.067	2.12
973.794	0.12
974.521	1.12
975.248	1.12
975.975	0.12
976.702	-1.88
977.429	-1.88
978.156	1.12
978.882	0.12
979.609	0.12
980.335	0.12
981.062	-0.88
981.788	0.12
982.514	-1.88
983.24	-0.88
983.967	0.12
984.693	1.12
985.419	-1.88
986.144	-0.88
986.87	-1.88
987.596	0.12
988.322	0.12
989.047	-0.88
989.773	0.12
990.498	2.12
991.224	0.12
991.949	1.12
992.674	-1.88
993.399	0.12
994.124	1.12
994.849	-0.88
995.574	2.12
996.299	1.12
997.024	3.12
997.749	1.12
998.473	2.12
999.198	-1.88
999.922	0.12
1000.647	-1.88
1001.371	2.12
1002.095	0.12
1002.82	-2.88
1003.544	-1.88
1004.268	1.12
1004.992	-1.88
1005.716	0.12
1006.439	-2.88
1007.163	0.12
1007.887	1.12
1008.611	0.12
1009.334	1.12
1010.058	0.12
1010.781	-0.88
1011.504	0.12
1012.228	-0.88
1012.951	2.12
1013.674	0.12
1014.397	0.12
1015.12	0.12
