节点500_145_QEPB04081__42__11-29-36-767.txt的数据

Date: Wed Nov 12 11:29:36 CST 2025
User: PC
Spectrometer: QEPB0408
触发模式: 0
积分时间 (秒): 1.000000E-2
Scans to average: 1
启用暗噪声校正: true
启用非线性校正: false
滑动平均宽度: 0
X轴模式: Wavelengths
Number of Pixels in Spectrum: 1044
>>>>>Begin Spectral Data<<<<<
220.843	0
221.644	-1
222.444	0
223.244	0
224.045	1
224.845	0
225.645	-1
226.445	-2
227.245	0
228.045	0
228.845	0
229.645	0
230.444	0
231.244	1
232.043	0
232.843	5
233.642	1
234.442	1
235.241	1
236.04	1
236.839	1
237.638	0
238.437	1
239.236	2
240.035	1
240.833	0
241.632	3
242.43	3
243.229	-1
244.027	3
244.826	3
245.624	0
246.422	4
247.22	2
248.018	1
248.816	2
249.614	3
250.412	2
251.21	4
252.007	2
252.805	1
253.602	1
254.4	4
255.197	4
255.994	6
256.791	4
257.589	3
258.386	3
259.183	5
259.979	3
260.776	6
261.573	4
262.37	7
263.166	6
263.963	7
264.759	6
265.556	8
266.352	8
267.148	9
267.944	6
268.74	7
269.536	7
270.332	7
271.128	8
271.924	7
272.719	9
273.515	9
274.311	10
275.106	8
275.901	9
276.697	11
277.492	13
278.287	11
279.082	9
279.877	10
280.672	10
281.467	12
282.262	8
283.056	11
283.851	11
284.646	11
285.44	12
286.234	12
287.029	13
287.823	12
288.617	11
289.411	11
290.205	12
290.999	12
291.793	14
292.587	9
293.381	10
294.174	9
294.968	9
295.761	11
296.555	10
297.348	9
298.141	11
298.935	9
299.728	12
300.521	9
301.314	10
302.107	9
302.899	6
303.692	8
304.485	11
305.277	8
306.07	7
306.862	9
307.655	8
308.447	8
309.239	9
310.031	9
310.823	5
311.615	7
312.407	7
313.199	7
313.991	7
314.783	5
315.574	6
316.366	7
317.157	5
317.949	3
318.74	4
319.531	4
320.322	5
321.113	6
321.904	5
322.695	4
323.486	6
324.277	6
325.068	5
325.858	4
326.649	5
327.439	4
328.23	4
329.02	4
329.81	3
330.6	5
331.391	2
332.181	4
332.971	4
333.76	5
334.55	4
335.34	4
336.13	4
336.919	4
337.709	4
338.498	3
339.287	7
340.077	3
340.866	3
341.655	5
342.444	3
343.233	4
344.022	4
344.811	4
345.6	5
346.388	5
347.177	5
347.965	4
348.754	3
349.542	3
350.33	1
351.119	4
351.907	3
352.695	6
353.483	4
354.271	3
355.059	3
355.846	3
356.634	4
357.422	2
358.209	2
358.997	3
359.784	3
360.571	2
361.359	2
362.146	4
362.933	3
363.72	6
364.507	3
365.294	3
366.081	3
366.867	2
367.654	0
368.44	3
369.227	6
370.013	2
370.8	4
371.586	2
372.372	0
373.158	4
373.944	6
374.73	4
375.516	5
376.302	3
377.088	4
377.873	4
378.659	2
379.445	2
380.23	4
381.015	2
381.801	2
382.586	3
383.371	3
384.156	4
384.941	4
385.726	3
386.511	3
387.296	2
388.08	3
388.865	3
389.649	3
390.434	3
391.218	3
392.003	4
392.787	4
393.571	3
394.355	4
395.139	3
395.923	3
396.707	3
397.491	5
398.274	2
399.058	5
399.842	4
400.625	4
401.408	3
402.192	3
402.975	4
403.758	1
404.541	8
405.324	3
406.107	4
406.89	6
407.673	5
408.456	3
409.238	5
410.021	6
410.803	2
411.586	5
412.368	4
413.151	3
413.933	3
414.715	4
415.497	6
416.279	3
417.061	7
417.843	2
418.624	4
419.406	6
420.188	3
420.969	7
421.751	5
422.532	5
423.313	6
424.095	7
424.876	6
425.657	7
426.438	6
427.219	7
428	6
428.78	6
429.561	6
430.342	8
431.122	8
431.903	6
432.683	8
433.464	8
434.244	9
435.024	10
435.804	11
436.584	11
437.364	9
438.144	12
438.924	10
439.704	14
440.483	13
441.263	14
442.042	13
442.822	13
443.601	12
444.38	14
445.16	17
445.939	17
446.718	16
447.497	17
448.276	18
449.054	22
449.833	23
450.612	25
451.391	23
452.169	25
452.948	29
453.726	30
454.504	33
455.282	37
456.061	40
456.839	44
457.617	49
458.395	53
459.172	57
459.95	72
460.728	75
461.506	81
462.283	93
463.061	101
463.838	113
464.615	120
465.393	137
466.17	156
466.947	171
467.724	196
468.501	217
469.278	240
470.055	274
470.831	307
471.608	344
472.385	378
473.161	421
473.938	464
474.714	521
475.49	582
476.266	651
477.043	724
477.819	810
478.595	909
479.371	1006
480.146	1118
480.922	1229
481.698	1373
482.473	1522
483.249	1681
484.024	1884
484.8	2091
485.575	2318
486.35	2572
487.126	2849
487.901	3180
488.676	3496
489.451	3878
490.225	4283
491	4753
491.775	5234
492.55	5831
493.324	6365
494.099	7025
494.873	7707
495.647	8425
496.422	9151
497.196	9972
497.97	10753
498.744	11592
499.518	12386
500.292	13159
501.066	13987
501.839	14673
502.613	15372
503.387	15987
504.16	16548
504.934	16898
505.707	17165
506.48	17422
507.253	17474
508.027	17406
508.8	17179
509.573	16916
510.346	16510
511.118	16072
511.891	15524
512.664	14913
513.437	14278
514.209	13694
514.982	13124
515.754	12509
516.526	11953
517.298	11387
518.071	10833
518.843	10356
519.615	9950
520.387	9501
521.159	9111
521.93	8774
522.702	8432
523.474	8101
524.245	7814
525.017	7449
525.788	7197
526.56	6889
527.331	6581
528.102	6277
528.873	5980
529.644	5700
530.415	5456
531.186	5157
531.957	4885
532.728	4627
533.498	4357
534.269	4121
535.039	3878
535.81	3633
536.58	3436
537.351	3247
538.121	3055
538.891	2900
539.661	2738
540.431	2577
541.201	2449
541.971	2334
542.741	2184
543.51	2068
544.28	1987
545.05	1890
545.819	1774
546.588	1721
547.358	1634
548.127	1533
548.896	1450
549.665	1391
550.434	1306
551.203	1244
551.972	1178
552.741	1125
553.51	1061
554.278	999
555.047	943
555.815	876
556.584	843
557.352	774
558.121	738
558.889	702
559.657	649
560.425	618
561.193	578
561.961	556
562.729	517
563.496	487
564.264	456
565.032	430
565.799	412
566.567	379
567.334	368
568.101	341
568.869	332
569.636	316
570.403	297
571.17	280
571.937	258
572.704	245
573.471	232
574.237	212
575.004	201
575.771	195
576.537	184
577.303	166
578.07	160
578.836	151
579.602	140
580.368	129
581.134	122
581.9	120
582.666	114
583.432	107
584.198	99
584.964	96
585.729	89
586.495	84
587.26	82
588.025	77
588.791	71
589.556	69
590.321	61
591.086	62
591.851	61
592.616	53
593.381	55
594.146	49
594.911	49
595.675	46
596.44	43
597.204	40
597.969	38
598.733	38
599.497	37
600.261	36
601.025	33
601.79	31
602.553	31
603.317	29
604.081	30
604.845	25
605.609	25
606.372	22
607.136	25
607.899	24
608.662	20
609.426	20
610.189	18
610.952	19
611.715	17
612.478	16
613.241	18
614.004	18
614.767	15
615.529	15
616.292	15
617.055	15
617.817	16
618.579	13
619.342	13
620.104	12
620.866	10
621.628	11
622.39	12
623.152	9
623.914	9
624.676	10
625.438	11
626.199	9
626.961	10
627.722	8
628.484	9
629.245	7
630.006	9
630.768	11
631.529	9
632.29	7
633.051	8
633.812	8
634.573	6
635.333	5
636.094	9
636.855	6
637.615	6
638.376	6
639.136	7
639.896	7
640.657	7
641.417	5
642.177	6
642.937	6
643.697	5
644.457	3
645.216	4
645.976	5
646.736	7
647.495	5
648.255	4
649.014	5
649.774	4
650.533	5
651.292	2
652.051	4
652.81	4
653.569	3
654.328	3
655.087	3
655.846	4
656.604	3
657.363	3
658.121	4
658.88	4
659.638	4
660.397	6
661.155	3
661.913	3
662.671	4
663.429	4
664.187	2
664.945	3
665.703	3
666.46	4
667.218	2
667.976	2
668.733	3
669.49	2
670.248	5
671.005	2
671.762	3
672.519	1
673.276	3
674.033	3
674.79	2
675.547	3
676.304	1
677.06	3
677.817	4
678.574	2
679.33	4
680.086	1
680.843	3
681.599	2
682.355	1
683.111	2
683.867	1
684.623	3
685.379	3
686.135	4
686.89	2
687.646	3
688.402	4
689.157	2
689.912	4
690.668	3
691.423	2
692.178	1
692.933	2
693.688	2
694.443	4
695.198	4
695.953	1
696.708	2
697.462	1
698.217	3
698.972	1
699.726	4
700.48	4
701.235	2
701.989	1
702.743	2
703.497	-1
704.251	3
705.005	2
705.759	5
706.513	2
707.266	2
708.02	4
708.774	2
709.527	2
710.28	3
711.034	4
711.787	1
712.54	0
713.293	3
714.046	0
714.799	0
715.552	2
716.305	3
717.058	-1
717.81	2
718.563	0
719.315	1
720.068	1
720.82	1
721.573	1
722.325	3
723.077	3
723.829	2
724.581	1
725.333	2
726.085	1
726.836	3
727.588	1
728.34	1
729.091	2
729.843	1
730.594	3
731.346	4
732.097	3
732.848	3
733.599	2
734.35	3
735.101	2
735.852	2
736.603	1
737.354	4
738.104	4
738.855	1
739.605	2
740.356	2
741.106	3
741.856	3
742.607	3
743.357	3
744.107	4
744.857	3
745.607	2
746.357	2
747.106	1
747.856	3
748.606	3
749.355	3
750.105	4
750.854	3
751.603	4
752.353	1
753.102	5
753.851	3
754.6	2
755.349	3
756.098	2
756.847	2
757.595	2
758.344	1
759.093	2
759.841	4
760.589	4
761.338	1
762.086	5
762.834	4
763.582	5
764.331	2
765.079	1
765.826	5
766.574	0
767.322	5
768.07	2
768.817	3
769.565	5
770.312	3
771.06	4
771.807	5
772.554	6
773.302	5
774.049	5
774.796	7
775.543	4
776.29	7
777.036	5
777.783	5
778.53	3
779.276	7
780.023	6
780.769	4
781.516	5
782.262	5
783.008	5
783.754	6
784.5	4
785.246	5
785.992	3
786.738	5
787.484	5
788.23	7
788.975	6
789.721	6
790.466	6
791.212	5
791.957	6
792.702	5
793.447	6
794.193	5
794.938	4
795.683	7
796.427	4
797.172	4
797.917	5
798.662	4
799.406	7
800.151	2
800.895	7
801.64	7
802.384	4
803.128	4
803.872	3
804.616	3
805.36	2
806.104	4
806.848	4
807.592	3
808.336	4
809.079	5
809.823	4
810.566	3
811.31	3
812.053	4
812.796	3
813.539	4
814.283	-1
815.026	5
815.769	4
816.511	2
817.254	3
817.997	4
818.74	4
819.482	3
820.225	2
820.967	4
821.71	3
822.452	2
823.194	-1
823.936	3
824.678	1
825.42	4
826.162	3
826.904	3
827.646	2
828.388	3
829.129	2
829.871	2
830.612	2
831.354	3
832.095	0
832.836	2
833.577	2
834.319	1
835.06	1
835.801	2
836.542	3
837.282	1
838.023	2
838.764	2
839.504	4
840.245	4
840.985	4
841.726	4
842.466	2
843.206	3
843.946	-2
844.687	2
845.427	2
846.166	1
846.906	1
847.646	1
848.386	1
849.125	4
849.865	4
850.605	1
851.344	2
852.083	3
852.823	1
853.562	2
854.301	1
855.04	3
855.779	2
856.518	0
857.257	2
857.995	1
858.734	2
859.473	1
860.211	2
860.95	2
861.688	2
862.426	3
863.165	2
863.903	3
864.641	0
865.379	2
866.117	2
866.855	-1
867.593	1
868.33	0
869.068	2
869.806	0
870.543	1
871.28	2
872.018	0
872.755	2
873.492	1
874.229	1
874.967	1
875.703	1
876.44	2
877.177	1
877.914	0
878.651	0
879.387	0
880.124	3
880.86	2
881.597	2
882.333	0
883.069	0
883.806	0
884.542	1
885.278	2
886.014	1
886.749	1
887.485	1
888.221	3
888.957	0
889.692	2
890.428	1
891.163	0
891.899	2
892.634	-1
893.369	3
894.104	1
894.839	-1
895.574	-1
896.309	1
897.044	-1
897.779	-1
898.514	2
899.248	0
899.983	1
900.717	2
901.452	1
902.186	1
902.92	0
903.654	2
904.389	0
905.123	0
905.857	0
906.59	-2
907.324	0
908.058	0
908.792	1
909.525	1
910.259	-1
910.992	0
911.726	1
912.459	1
913.192	1
913.925	-1
914.658	0
915.391	1
916.124	1
916.857	2
917.59	-1
918.323	1
919.055	1
919.788	0
920.521	1
921.253	0
921.985	0
922.718	3
923.45	-2
924.182	1
924.914	1
925.646	-2
926.378	2
927.11	1
927.841	1
928.573	0
929.305	0
930.036	-1
930.768	-2
931.499	2
932.23	-1
932.962	-1
933.693	0
934.424	-2
935.155	1
935.886	-1
936.617	1
937.348	-2
938.078	0
938.809	-2
939.54	0
940.27	0
941.001	-2
941.731	0
942.461	1
943.191	1
943.922	1
944.652	1
945.382	0
946.112	-2
946.841	1
947.571	1
948.301	-1
949.031	0
949.76	0
950.49	2
951.219	0
951.948	1
952.678	-1
953.407	1
954.136	1
954.865	0
955.594	0
956.323	0
957.052	-1
957.78	0
958.509	-1
959.238	-1
959.966	1
960.695	1
961.423	-3
962.151	1
962.88	1
963.608	1
964.336	0
965.064	-1
965.792	0
966.52	-3
967.247	1
967.975	1
968.703	-1
969.43	1
970.158	-2
970.885	2
971.613	0
972.34	-1
973.067	1
973.794	0
974.521	2
975.248	0
975.975	0
976.702	0
977.429	1
978.156	1
978.882	1
979.609	-1
980.335	1
981.062	1
981.788	-1
982.514	1
983.24	0
983.967	-1
984.693	1
985.419	1
986.144	0
986.87	0
987.596	-2
988.322	1
989.047	-1
989.773	0
990.498	-2
991.224	2
991.949	-1
992.674	0
993.399	1
994.124	-1
994.849	0
995.574	-1
996.299	-1
997.024	1
997.749	1
998.473	1
999.198	1
999.922	-1
1000.647	0
1001.371	4
1002.095	-2
1002.82	2
1003.544	-2
1004.268	-1
1004.992	0
1005.716	-1
1006.439	1
1007.163	0
1007.887	1
1008.611	3
1009.334	1
1010.058	0
1010.781	2
1011.504	-2
1012.228	1
1012.951	-1
1013.674	-1
1014.397	0
1015.12	0
