节点500_145_QEPB04081__489__11-36-45-493.txt的数据

Date: Wed Nov 12 11:36:45 CST 2025
User: PC
Spectrometer: QEPB0408
触发模式: 0
积分时间 (秒): 1.000000E-2
Scans to average: 1
启用暗噪声校正: true
启用非线性校正: false
滑动平均宽度: 0
X轴模式: Wavelengths
Number of Pixels in Spectrum: 1044
>>>>>Begin Spectral Data<<<<<
220.843	-1.5
221.644	-0.5
222.444	-0.5
223.244	1.5
224.045	-1.5
224.845	-0.5
225.645	0.5
226.445	-1.5
227.245	-1.5
228.045	-0.5
228.845	0.5
229.645	1.5
230.444	1.5
231.244	-0.5
232.043	1.5
232.843	1.5
233.642	2.5
234.442	-0.5
235.241	1.5
236.04	1.5
236.839	0.5
237.638	-1.5
238.437	2.5
239.236	1.5
240.035	1.5
240.833	2.5
241.632	1.5
242.43	1.5
243.229	2.5
244.027	0.5
244.826	1.5
245.624	2.5
246.422	2.5
247.22	0.5
248.018	2.5
248.816	1.5
249.614	1.5
250.412	2.5
251.21	2.5
252.007	0.5
252.805	4.5
253.602	2.5
254.4	2.5
255.197	0.5
255.994	3.5
256.791	1.5
257.589	3.5
258.386	5.5
259.183	4.5
259.979	5.5
260.776	4.5
261.573	3.5
262.37	3.5
263.166	5.5
263.963	5.5
264.759	5.5
265.556	6.5
266.352	5.5
267.148	5.5
267.944	5.5
268.74	5.5
269.536	4.5
270.332	5.5
271.128	9.5
271.924	7.5
272.719	8.5
273.515	8.5
274.311	9.5
275.106	9.5
275.901	7.5
276.697	10.5
277.492	8.5
278.287	9.5
279.082	9.5
279.877	7.5
280.672	9.5
281.467	8.5
282.262	8.5
283.056	9.5
283.851	12.5
284.646	11.5
285.44	7.5
286.234	9.5
287.029	9.5
287.823	10.5
288.617	10.5
289.411	10.5
290.205	11.5
290.999	8.5
291.793	9.5
292.587	7.5
293.381	11.5
294.174	10.5
294.968	9.5
295.761	8.5
296.555	8.5
297.348	8.5
298.141	7.5
298.935	10.5
299.728	11.5
300.521	7.5
301.314	12.5
302.107	6.5
302.899	9.5
303.692	6.5
304.485	7.5
305.277	9.5
306.07	8.5
306.862	8.5
307.655	9.5
308.447	10.5
309.239	7.5
310.031	6.5
310.823	5.5
311.615	9.5
312.407	6.5
313.199	5.5
313.991	5.5
314.783	5.5
315.574	6.5
316.366	7.5
317.157	4.5
317.949	5.5
318.74	3.5
319.531	5.5
320.322	5.5
321.113	5.5
321.904	5.5
322.695	4.5
323.486	3.5
324.277	3.5
325.068	6.5
325.858	3.5
326.649	7.5
327.439	2.5
328.23	3.5
329.02	3.5
329.81	4.5
330.6	5.5
331.391	3.5
332.181	5.5
332.971	2.5
333.76	3.5
334.55	4.5
335.34	5.5
336.13	4.5
336.919	5.5
337.709	5.5
338.498	5.5
339.287	2.5
340.077	4.5
340.866	3.5
341.655	4.5
342.444	4.5
343.233	1.5
344.022	5.5
344.811	1.5
345.6	3.5
346.388	1.5
347.177	4.5
347.965	2.5
348.754	5.5
349.542	3.5
350.33	4.5
351.119	3.5
351.907	2.5
352.695	2.5
353.483	3.5
354.271	1.5
355.059	2.5
355.846	3.5
356.634	4.5
357.422	2.5
358.209	2.5
358.997	1.5
359.784	4.5
360.571	1.5
361.359	3.5
362.146	2.5
362.933	2.5
363.72	2.5
364.507	1.5
365.294	2.5
366.081	1.5
366.867	3.5
367.654	5.5
368.44	3.5
369.227	2.5
370.013	3.5
370.8	4.5
371.586	2.5
372.372	4.5
373.158	2.5
373.944	1.5
374.73	2.5
375.516	1.5
376.302	3.5
377.088	3.5
377.873	3.5
378.659	1.5
379.445	1.5
380.23	2.5
381.015	3.5
381.801	4.5
382.586	4.5
383.371	3.5
384.156	1.5
384.941	3.5
385.726	2.5
386.511	2.5
387.296	3.5
388.08	2.5
388.865	0.5
389.649	1.5
390.434	2.5
391.218	3.5
392.003	3.5
392.787	1.5
393.571	1.5
394.355	1.5
395.139	3.5
395.923	3.5
396.707	3.5
397.491	3.5
398.274	1.5
399.058	6.5
399.842	2.5
400.625	2.5
401.408	4.5
402.192	4.5
402.975	4.5
403.758	3.5
404.541	1.5
405.324	3.5
406.107	3.5
406.89	4.5
407.673	3.5
408.456	4.5
409.238	1.5
410.021	4.5
410.803	2.5
411.586	4.5
412.368	4.5
413.151	4.5
413.933	7.5
414.715	3.5
415.497	7.5
416.279	4.5
417.061	3.5
417.843	3.5
418.624	6.5
419.406	5.5
420.188	6.5
420.969	6.5
421.751	8.5
422.532	5.5
423.313	6.5
424.095	5.5
424.876	5.5
425.657	6.5
426.438	6.5
427.219	5.5
428	8.5
428.78	5.5
429.561	5.5
430.342	7.5
431.122	5.5
431.903	10.5
432.683	7.5
433.464	7.5
434.244	7.5
435.024	9.5
435.804	9.5
436.584	8.5
437.364	10.5
438.144	10.5
438.924	12.5
439.704	12.5
440.483	10.5
441.263	11.5
442.042	10.5
442.822	12.5
443.601	15.5
444.38	15.5
445.16	17.5
445.939	18.5
446.718	16.5
447.497	16.5
448.276	21.5
449.054	23.5
449.833	25.5
450.612	24.5
451.391	26.5
452.169	29.5
452.948	34.5
453.726	34.5
454.504	43.5
455.282	41.5
456.061	47.5
456.839	50.5
457.617	57.5
458.395	66.5
459.172	70.5
459.95	80.5
460.728	84.5
461.506	97.5
462.283	106.5
463.061	120.5
463.838	131.5
464.615	150.5
465.393	167.5
466.17	182.5
466.947	203.5
467.724	232.5
468.501	250.5
469.278	280.5
470.055	309.5
470.831	346.5
471.608	389.5
472.385	433.5
473.161	471.5
473.938	520.5
474.714	586.5
475.49	647.5
476.266	713.5
477.043	799.5
477.819	873.5
478.595	954.5
479.371	1047.5
480.146	1150.5
480.922	1269.5
481.698	1403.5
482.473	1550.5
483.249	1689.5
484.024	1853.5
484.8	2032.5
485.575	2225.5
486.35	2436.5
487.126	2717.5
487.901	2975.5
488.676	3227.5
489.451	3561.5
490.225	3889.5
491	4246.5
491.775	4647.5
492.55	5074.5
493.324	5563.5
494.099	6054.5
494.873	6593.5
495.647	7171.5
496.422	7755.5
497.196	8396.5
497.97	9039.5
498.744	9731.5
499.518	10447.5
500.292	11093.5
501.066	11811.5
501.839	12418.5
502.613	13097.5
503.387	13714.5
504.16	14257.5
504.934	14757.5
505.707	15065.5
506.48	15413.5
507.253	15656.5
508.027	15778.5
508.8	15833.5
509.573	15746.5
510.346	15592.5
511.118	15393.5
511.891	15023.5
512.664	14612.5
513.437	14233.5
514.209	13654.5
514.982	13175.5
515.754	12707.5
516.526	12198.5
517.298	11694.5
518.071	11222.5
518.843	10712.5
519.615	10266.5
520.387	9839.5
521.159	9426.5
521.93	9028.5
522.702	8671.5
523.474	8317.5
524.245	8004.5
525.017	7702.5
525.788	7397.5
526.56	7122.5
527.331	6758.5
528.102	6468.5
528.873	6217.5
529.644	5962.5
530.415	5718.5
531.186	5430.5
531.957	5149.5
532.728	4912.5
533.498	4673.5
534.269	4389.5
535.039	4191.5
535.81	3952.5
536.58	3735.5
537.351	3531.5
538.121	3362.5
538.891	3151.5
539.661	2975.5
540.431	2836.5
541.201	2671.5
541.971	2544.5
542.741	2394.5
543.51	2278.5
544.28	2176.5
545.05	2042.5
545.819	1941.5
546.588	1847.5
547.358	1744.5
548.127	1673.5
548.896	1605.5
549.665	1507.5
550.434	1434.5
551.203	1357.5
551.972	1297.5
552.741	1216.5
553.51	1158.5
554.278	1101.5
555.047	1044.5
555.815	983.5
556.584	919.5
557.352	871.5
558.121	817.5
558.889	777.5
559.657	742.5
560.425	692.5
561.193	654.5
561.961	611.5
562.729	588.5
563.496	550.5
564.264	517.5
565.032	489.5
565.799	457.5
566.567	437.5
567.334	410.5
568.101	386.5
568.869	361.5
569.636	340.5
570.403	322.5
571.17	305.5
571.937	297.5
572.704	281.5
573.471	255.5
574.237	245.5
575.004	226.5
575.771	215.5
576.537	207.5
577.303	193.5
578.07	179.5
578.836	172.5
579.602	163.5
580.368	150.5
581.134	141.5
581.9	137.5
582.666	130.5
583.432	117.5
584.198	116.5
584.964	108.5
585.729	102.5
586.495	98.5
587.26	92.5
588.025	89.5
588.791	82.5
589.556	77.5
590.321	77.5
591.086	68.5
591.851	66.5
592.616	64.5
593.381	61.5
594.146	57.5
594.911	56.5
595.675	51.5
596.44	51.5
597.204	48.5
597.969	43.5
598.733	42.5
599.497	38.5
600.261	37.5
601.025	34.5
601.79	36.5
602.553	33.5
603.317	30.5
604.081	31.5
604.845	28.5
605.609	28.5
606.372	25.5
607.136	27.5
607.899	25.5
608.662	22.5
609.426	22.5
610.189	23.5
610.952	21.5
611.715	19.5
612.478	16.5
613.241	15.5
614.004	17.5
614.767	19.5
615.529	14.5
616.292	16.5
617.055	16.5
617.817	13.5
618.579	16.5
619.342	15.5
620.104	12.5
620.866	13.5
621.628	10.5
622.39	11.5
623.152	11.5
623.914	12.5
624.676	8.5
625.438	9.5
626.199	10.5
626.961	11.5
627.722	9.5
628.484	9.5
629.245	7.5
630.006	8.5
630.768	6.5
631.529	8.5
632.29	7.5
633.051	9.5
633.812	6.5
634.573	7.5
635.333	6.5
636.094	8.5
636.855	5.5
637.615	5.5
638.376	5.5
639.136	5.5
639.896	6.5
640.657	7.5
641.417	4.5
642.177	6.5
642.937	5.5
643.697	4.5
644.457	4.5
645.216	3.5
645.976	4.5
646.736	4.5
647.495	4.5
648.255	4.5
649.014	5.5
649.774	5.5
650.533	6.5
651.292	3.5
652.051	4.5
652.81	5.5
653.569	2.5
654.328	3.5
655.087	2.5
655.846	6.5
656.604	5.5
657.363	4.5
658.121	2.5
658.88	3.5
659.638	5.5
660.397	2.5
661.155	4.5
661.913	-1.5
662.671	1.5
663.429	2.5
664.187	3.5
664.945	3.5
665.703	1.5
666.46	4.5
667.218	5.5
667.976	4.5
668.733	3.5
669.49	1.5
670.248	4.5
671.005	2.5
671.762	2.5
672.519	3.5
673.276	1.5
674.033	5.5
674.79	1.5
675.547	2.5
676.304	1.5
677.06	4.5
677.817	3.5
678.574	0.5
679.33	3.5
680.086	4.5
680.843	3.5
681.599	2.5
682.355	2.5
683.111	1.5
683.867	1.5
684.623	3.5
685.379	2.5
686.135	3.5
686.89	2.5
687.646	1.5
688.402	1.5
689.157	3.5
689.912	3.5
690.668	2.5
691.423	1.5
692.178	0.5
692.933	1.5
693.688	1.5
694.443	3.5
695.198	3.5
695.953	1.5
696.708	2.5
697.462	1.5
698.217	3.5
698.972	2.5
699.726	1.5
700.48	3.5
701.235	3.5
701.989	1.5
702.743	2.5
703.497	2.5
704.251	2.5
705.005	4.5
705.759	3.5
706.513	2.5
707.266	1.5
708.02	0.5
708.774	3.5
709.527	2.5
710.28	2.5
711.034	2.5
711.787	0.5
712.54	3.5
713.293	3.5
714.046	0.5
714.799	4.5
715.552	-0.5
716.305	2.5
717.058	3.5
717.81	4.5
718.563	3.5
719.315	3.5
720.068	1.5
720.82	1.5
721.573	1.5
722.325	0.5
723.077	1.5
723.829	3.5
724.581	1.5
725.333	2.5
726.085	2.5
726.836	1.5
727.588	1.5
728.34	3.5
729.091	2.5
729.843	-0.5
730.594	2.5
731.346	-0.5
732.097	3.5
732.848	2.5
733.599	-0.5
734.35	-0.5
735.101	4.5
735.852	2.5
736.603	0.5
737.354	2.5
738.104	-0.5
738.855	1.5
739.605	3.5
740.356	2.5
741.106	0.5
741.856	1.5
742.607	2.5
743.357	1.5
744.107	3.5
744.857	2.5
745.607	1.5
746.357	1.5
747.106	1.5
747.856	5.5
748.606	1.5
749.355	3.5
750.105	1.5
750.854	0.5
751.603	4.5
752.353	0.5
753.102	4.5
753.851	3.5
754.6	2.5
755.349	2.5
756.098	1.5
756.847	1.5
757.595	3.5
758.344	1.5
759.093	2.5
759.841	4.5
760.589	5.5
761.338	2.5
762.086	3.5
762.834	2.5
763.582	4.5
764.331	1.5
765.079	3.5
765.826	2.5
766.574	3.5
767.322	5.5
768.07	1.5
768.817	3.5
769.565	2.5
770.312	2.5
771.06	2.5
771.807	3.5
772.554	4.5
773.302	3.5
774.049	4.5
774.796	5.5
775.543	3.5
776.29	4.5
777.036	2.5
777.783	3.5
778.53	3.5
779.276	5.5
780.023	4.5
780.769	2.5
781.516	4.5
782.262	5.5
783.008	6.5
783.754	5.5
784.5	4.5
785.246	3.5
785.992	3.5
786.738	7.5
787.484	3.5
788.23	4.5
788.975	3.5
789.721	6.5
790.466	5.5
791.212	4.5
791.957	5.5
792.702	5.5
793.447	2.5
794.193	3.5
794.938	5.5
795.683	2.5
796.427	3.5
797.172	4.5
797.917	5.5
798.662	5.5
799.406	4.5
800.151	5.5
800.895	4.5
801.64	3.5
802.384	2.5
803.128	2.5
803.872	3.5
804.616	4.5
805.36	5.5
806.104	3.5
806.848	4.5
807.592	5.5
808.336	4.5
809.079	1.5
809.823	1.5
810.566	2.5
811.31	3.5
812.053	1.5
812.796	3.5
813.539	5.5
814.283	3.5
815.026	1.5
815.769	4.5
816.511	5.5
817.254	1.5
817.997	5.5
818.74	1.5
819.482	4.5
820.225	5.5
820.967	3.5
821.71	3.5
822.452	4.5
823.194	0.5
823.936	3.5
824.678	6.5
825.42	2.5
826.162	5.5
826.904	3.5
827.646	2.5
828.388	1.5
829.129	2.5
829.871	2.5
830.612	1.5
831.354	5.5
832.095	3.5
832.836	3.5
833.577	2.5
834.319	1.5
835.06	3.5
835.801	0.5
836.542	3.5
837.282	1.5
838.023	2.5
838.764	2.5
839.504	3.5
840.245	3.5
840.985	1.5
841.726	2.5
842.466	3.5
843.206	2.5
843.946	4.5
844.687	2.5
845.427	2.5
846.166	3.5
846.906	0.5
847.646	3.5
848.386	1.5
849.125	2.5
849.865	-1.5
850.605	3.5
851.344	3.5
852.083	2.5
852.823	4.5
853.562	2.5
854.301	3.5
855.04	-0.5
855.779	1.5
856.518	3.5
857.257	-1.5
857.995	3.5
858.734	0.5
859.473	1.5
860.211	1.5
860.95	2.5
861.688	0.5
862.426	3.5
863.165	2.5
863.903	0.5
864.641	3.5
865.379	0.5
866.117	1.5
866.855	1.5
867.593	1.5
868.33	0.5
869.068	0.5
869.806	2.5
870.543	-0.5
871.28	0.5
872.018	0.5
872.755	1.5
873.492	0.5
874.229	1.5
874.967	0.5
875.703	0.5
876.44	1.5
877.177	-0.5
877.914	-0.5
878.651	0.5
879.387	-0.5
880.124	3.5
880.86	0.5
881.597	2.5
882.333	1.5
883.069	-0.5
883.806	1.5
884.542	1.5
885.278	1.5
886.014	0.5
886.749	0.5
887.485	1.5
888.221	-0.5
888.957	0.5
889.692	-0.5
890.428	-0.5
891.163	3.5
891.899	1.5
892.634	-0.5
893.369	-0.5
894.104	0.5
894.839	-0.5
895.574	0.5
896.309	1.5
897.044	3.5
897.779	0.5
898.514	-1.5
899.248	2.5
899.983	0.5
900.717	0.5
901.452	-0.5
902.186	1.5
902.92	-0.5
903.654	1.5
904.389	1.5
905.123	0.5
905.857	0.5
906.59	0.5
907.324	-1.5
908.058	2.5
908.792	-0.5
909.525	0.5
910.259	0.5
910.992	-0.5
911.726	0.5
912.459	2.5
913.192	-0.5
913.925	-1.5
914.658	0.5
915.391	1.5
916.124	1.5
916.857	1.5
917.59	1.5
918.323	2.5
919.055	0.5
919.788	0.5
920.521	1.5
921.253	1.5
921.985	1.5
922.718	1.5
923.45	0.5
924.182	0.5
924.914	-0.5
925.646	-0.5
926.378	-0.5
927.11	0.5
927.841	-0.5
928.573	-0.5
929.305	-0.5
930.036	2.5
930.768	2.5
931.499	-0.5
932.23	0.5
932.962	-0.5
933.693	-1.5
934.424	-1.5
935.155	-0.5
935.886	0.5
936.617	-1.5
937.348	-0.5
938.078	-0.5
938.809	-2.5
939.54	-1.5
940.27	-0.5
941.001	-0.5
941.731	1.5
942.461	1.5
943.191	-0.5
943.922	0.5
944.652	-0.5
945.382	2.5
946.112	0.5
946.841	-0.5
947.571	-1.5
948.301	-2.5
949.031	-0.5
949.76	-1.5
950.49	1.5
951.219	-0.5
951.948	-0.5
952.678	1.5
953.407	-0.5
954.136	0.5
954.865	0.5
955.594	0.5
956.323	1.5
957.052	-1.5
957.78	1.5
958.509	-0.5
959.238	-0.5
959.966	-1.5
960.695	-0.5
961.423	0.5
962.151	1.5
962.88	2.5
963.608	0.5
964.336	1.5
965.064	1.5
965.792	-0.5
966.52	-0.5
967.247	-0.5
967.975	1.5
968.703	1.5
969.43	-1.5
970.158	1.5
970.885	1.5
971.613	-0.5
972.34	0.5
973.067	1.5
973.794	-1.5
974.521	1.5
975.248	-0.5
975.975	1.5
976.702	1.5
977.429	0.5
978.156	0.5
978.882	0.5
979.609	1.5
980.335	1.5
981.062	1.5
981.788	0.5
982.514	-2.5
983.24	-0.5
983.967	-0.5
984.693	-0.5
985.419	0.5
986.144	0.5
986.87	0.5
987.596	2.5
988.322	1.5
989.047	-0.5
989.773	-0.5
990.498	0.5
991.224	-1.5
991.949	0.5
992.674	1.5
993.399	2.5
994.124	0.5
994.849	0.5
995.574	-1.5
996.299	1.5
997.024	1.5
997.749	-0.5
998.473	3.5
999.198	-1.5
999.922	0.5
1000.647	-1.5
1001.371	5.5
1002.095	-0.5
1002.82	-1.5
1003.544	-1.5
1004.268	0.5
1004.992	-0.5
1005.716	-1.5
1006.439	0.5
1007.163	-2.5
1007.887	-0.5
1008.611	-0.5
1009.334	1.5
1010.058	-1.5
1010.781	-1.5
1011.504	0.5
1012.228	1.5
1012.951	-1.5
1013.674	-1.5
1014.397	0.5
1015.12	0.5
