节点500_145_QEPB04081__331__11-34-14-530.txt的数据

Date: Wed Nov 12 11:34:14 CST 2025
User: PC
Spectrometer: QEPB0408
触发模式: 0
积分时间 (秒): 1.000000E-2
Scans to average: 1
启用暗噪声校正: true
启用非线性校正: false
滑动平均宽度: 0
X轴模式: Wavelengths
Number of Pixels in Spectrum: 1044
>>>>>Begin Spectral Data<<<<<
220.843	-1.88
221.644	1.12
222.444	1.12
223.244	0.12
224.045	0.12
224.845	1.12
225.645	1.12
226.445	-2.88
227.245	1.12
228.045	0.12
228.845	1.12
229.645	1.12
230.444	2.12
231.244	2.12
232.043	0.12
232.843	-0.88
233.642	1.12
234.442	2.12
235.241	1.12
236.04	1.12
236.839	1.12
237.638	0.12
238.437	3.12
239.236	0.12
240.035	4.12
240.833	0.12
241.632	2.12
242.43	1.12
243.229	0.12
244.027	1.12
244.826	2.12
245.624	3.12
246.422	2.12
247.22	1.12
248.018	5.12
248.816	2.12
249.614	2.12
250.412	3.12
251.21	3.12
252.007	2.12
252.805	3.12
253.602	3.12
254.4	2.12
255.197	3.12
255.994	2.12
256.791	4.12
257.589	3.12
258.386	4.12
259.183	3.12
259.979	5.12
260.776	6.12
261.573	5.12
262.37	5.12
263.166	5.12
263.963	3.12
264.759	5.12
265.556	3.12
266.352	7.12
267.148	7.12
267.944	6.12
268.74	6.12
269.536	5.12
270.332	8.12
271.128	7.12
271.924	8.12
272.719	7.12
273.515	6.12
274.311	7.12
275.106	8.12
275.901	8.12
276.697	11.12
277.492	11.12
278.287	9.12
279.082	9.12
279.877	8.12
280.672	9.12
281.467	10.12
282.262	12.12
283.056	9.12
283.851	10.12
284.646	9.12
285.44	12.12
286.234	12.12
287.029	11.12
287.823	10.12
288.617	10.12
289.411	11.12
290.205	11.12
290.999	11.12
291.793	12.12
292.587	13.12
293.381	10.12
294.174	12.12
294.968	9.12
295.761	10.12
296.555	10.12
297.348	8.12
298.141	11.12
298.935	9.12
299.728	13.12
300.521	11.12
301.314	8.12
302.107	7.12
302.899	9.12
303.692	10.12
304.485	8.12
305.277	9.12
306.07	7.12
306.862	7.12
307.655	7.12
308.447	8.12
309.239	5.12
310.031	8.12
310.823	6.12
311.615	6.12
312.407	6.12
313.199	7.12
313.991	7.12
314.783	5.12
315.574	6.12
316.366	6.12
317.157	5.12
317.949	4.12
318.74	7.12
319.531	2.12
320.322	7.12
321.113	2.12
321.904	5.12
322.695	6.12
323.486	5.12
324.277	5.12
325.068	5.12
325.858	5.12
326.649	4.12
327.439	4.12
328.23	5.12
329.02	4.12
329.81	3.12
330.6	3.12
331.391	2.12
332.181	4.12
332.971	2.12
333.76	5.12
334.55	4.12
335.34	6.12
336.13	3.12
336.919	5.12
337.709	2.12
338.498	1.12
339.287	5.12
340.077	3.12
340.866	4.12
341.655	1.12
342.444	3.12
343.233	5.12
344.022	2.12
344.811	2.12
345.6	2.12
346.388	2.12
347.177	2.12
347.965	1.12
348.754	5.12
349.542	4.12
350.33	1.12
351.119	3.12
351.907	3.12
352.695	4.12
353.483	2.12
354.271	2.12
355.059	3.12
355.846	4.12
356.634	2.12
357.422	2.12
358.209	2.12
358.997	3.12
359.784	2.12
360.571	0.12
361.359	3.12
362.146	1.12
362.933	3.12
363.72	2.12
364.507	1.12
365.294	3.12
366.081	2.12
366.867	2.12
367.654	3.12
368.44	1.12
369.227	3.12
370.013	3.12
370.8	3.12
371.586	3.12
372.372	2.12
373.158	3.12
373.944	1.12
374.73	2.12
375.516	2.12
376.302	3.12
377.088	0.12
377.873	2.12
378.659	-0.88
379.445	4.12
380.23	2.12
381.015	1.12
381.801	1.12
382.586	3.12
383.371	1.12
384.156	1.12
384.941	1.12
385.726	4.12
386.511	2.12
387.296	5.12
388.08	-1.88
388.865	4.12
389.649	2.12
390.434	2.12
391.218	2.12
392.003	2.12
392.787	5.12
393.571	4.12
394.355	3.12
395.139	3.12
395.923	2.12
396.707	3.12
397.491	3.12
398.274	3.12
399.058	3.12
399.842	4.12
400.625	2.12
401.408	3.12
402.192	2.12
402.975	5.12
403.758	4.12
404.541	3.12
405.324	6.12
406.107	6.12
406.89	4.12
407.673	5.12
408.456	5.12
409.238	4.12
410.021	4.12
410.803	4.12
411.586	4.12
412.368	5.12
413.151	4.12
413.933	6.12
414.715	7.12
415.497	6.12
416.279	4.12
417.061	5.12
417.843	6.12
418.624	7.12
419.406	5.12
420.188	7.12
420.969	7.12
421.751	4.12
422.532	5.12
423.313	5.12
424.095	6.12
424.876	7.12
425.657	6.12
426.438	7.12
427.219	7.12
428	5.12
428.78	6.12
429.561	8.12
430.342	5.12
431.122	7.12
431.903	8.12
432.683	9.12
433.464	7.12
434.244	10.12
435.024	5.12
435.804	9.12
436.584	9.12
437.364	9.12
438.144	9.12
438.924	11.12
439.704	10.12
440.483	13.12
441.263	8.12
442.042	12.12
442.822	13.12
443.601	14.12
444.38	12.12
445.16	17.12
445.939	17.12
446.718	20.12
447.497	21.12
448.276	23.12
449.054	22.12
449.833	24.12
450.612	26.12
451.391	30.12
452.169	30.12
452.948	33.12
453.726	37.12
454.504	36.12
455.282	42.12
456.061	41.12
456.839	53.12
457.617	56.12
458.395	60.12
459.172	66.12
459.95	75.12
460.728	82.12
461.506	96.12
462.283	108.12
463.061	113.12
463.838	129.12
464.615	138.12
465.393	155.12
466.17	174.12
466.947	199.12
467.724	217.12
468.501	249.12
469.278	275.12
470.055	299.12
470.831	336.12
471.608	377.12
472.385	408.12
473.161	460.12
473.938	509.12
474.714	567.12
475.49	635.12
476.266	707.12
477.043	772.12
477.819	855.12
478.595	950.12
479.371	1033.12
480.146	1139.12
480.922	1268.12
481.698	1404.12
482.473	1554.12
483.249	1715.12
484.024	1874.12
484.8	2063.12
485.575	2266.12
486.35	2477.12
487.126	2730.12
487.901	3036.12
488.676	3348.12
489.451	3680.12
490.225	4053.12
491	4407.12
491.775	4827.12
492.55	5326.12
493.324	5821.12
494.099	6360.12
494.873	6933.12
495.647	7548.12
496.422	8256.12
497.196	8917.12
497.97	9591.12
498.744	10365.12
499.518	11059.12
500.292	11789.12
501.066	12503.12
501.839	13200.12
502.613	13871.12
503.387	14484.12
504.16	15017.12
504.934	15527.12
505.707	15852.12
506.48	16146.12
507.253	16285.12
508.027	16398.12
508.8	16373.12
509.573	16264.12
510.346	15995.12
511.118	15698.12
511.891	15278.12
512.664	14854.12
513.437	14305.12
514.209	13785.12
514.982	13312.12
515.754	12753.12
516.526	12201.12
517.298	11649.12
518.071	11134.12
518.843	10669.12
519.615	10209.12
520.387	9750.12
521.159	9392.12
521.93	9013.12
522.702	8630.12
523.474	8303.12
524.245	8016.12
525.017	7641.12
525.788	7354.12
526.56	7085.12
527.331	6817.12
528.102	6482.12
528.873	6187.12
529.644	5939.12
530.415	5648.12
531.186	5371.12
531.957	5095.12
532.728	4857.12
533.498	4589.12
534.269	4320.12
535.039	4094.12
535.81	3864.12
536.58	3669.12
537.351	3445.12
538.121	3259.12
538.891	3088.12
539.661	2918.12
540.431	2743.12
541.201	2612.12
541.971	2470.12
542.741	2328.12
543.51	2228.12
544.28	2106.12
545.05	2020.12
545.819	1926.12
546.588	1793.12
547.358	1720.12
548.127	1636.12
548.896	1558.12
549.665	1458.12
550.434	1402.12
551.203	1327.12
551.972	1253.12
552.741	1192.12
553.51	1132.12
554.278	1068.12
555.047	1000.12
555.815	951.12
556.584	900.12
557.352	860.12
558.121	791.12
558.889	757.12
559.657	698.12
560.425	671.12
561.193	622.12
561.961	605.12
562.729	560.12
563.496	525.12
564.264	498.12
565.032	474.12
565.799	453.12
566.567	421.12
567.334	398.12
568.101	366.12
568.869	356.12
569.636	331.12
570.403	316.12
571.17	299.12
571.937	280.12
572.704	264.12
573.471	245.12
574.237	234.12
575.004	222.12
575.771	206.12
576.537	193.12
577.303	182.12
578.07	181.12
578.836	166.12
579.602	156.12
580.368	148.12
581.134	136.12
581.9	131.12
582.666	125.12
583.432	118.12
584.198	111.12
584.964	105.12
585.729	93.12
586.495	95.12
587.26	88.12
588.025	81.12
588.791	81.12
589.556	72.12
590.321	72.12
591.086	68.12
591.851	61.12
592.616	62.12
593.381	59.12
594.146	56.12
594.911	52.12
595.675	48.12
596.44	51.12
597.204	45.12
597.969	44.12
598.733	41.12
599.497	40.12
600.261	38.12
601.025	33.12
601.79	33.12
602.553	32.12
603.317	31.12
604.081	27.12
604.845	27.12
605.609	30.12
606.372	29.12
607.136	25.12
607.899	23.12
608.662	23.12
609.426	21.12
610.189	20.12
610.952	18.12
611.715	20.12
612.478	20.12
613.241	15.12
614.004	16.12
614.767	19.12
615.529	15.12
616.292	14.12
617.055	16.12
617.817	12.12
618.579	14.12
619.342	13.12
620.104	15.12
620.866	13.12
621.628	12.12
622.39	12.12
623.152	11.12
623.914	8.12
624.676	13.12
625.438	10.12
626.199	8.12
626.961	9.12
627.722	9.12
628.484	8.12
629.245	9.12
630.006	8.12
630.768	9.12
631.529	9.12
632.29	9.12
633.051	7.12
633.812	6.12
634.573	5.12
635.333	5.12
636.094	7.12
636.855	6.12
637.615	7.12
638.376	4.12
639.136	8.12
639.896	5.12
640.657	5.12
641.417	5.12
642.177	5.12
642.937	6.12
643.697	3.12
644.457	3.12
645.216	5.12
645.976	4.12
646.736	5.12
647.495	3.12
648.255	4.12
649.014	2.12
649.774	5.12
650.533	4.12
651.292	4.12
652.051	2.12
652.81	2.12
653.569	3.12
654.328	2.12
655.087	2.12
655.846	5.12
656.604	4.12
657.363	4.12
658.121	2.12
658.88	5.12
659.638	3.12
660.397	3.12
661.155	4.12
661.913	3.12
662.671	3.12
663.429	5.12
664.187	2.12
664.945	1.12
665.703	4.12
666.46	2.12
667.218	1.12
667.976	5.12
668.733	1.12
669.49	6.12
670.248	2.12
671.005	4.12
671.762	5.12
672.519	3.12
673.276	2.12
674.033	3.12
674.79	3.12
675.547	1.12
676.304	3.12
677.06	3.12
677.817	3.12
678.574	3.12
679.33	1.12
680.086	3.12
680.843	4.12
681.599	4.12
682.355	1.12
683.111	0.12
683.867	1.12
684.623	1.12
685.379	2.12
686.135	2.12
686.89	2.12
687.646	3.12
688.402	3.12
689.157	2.12
689.912	3.12
690.668	1.12
691.423	4.12
692.178	1.12
692.933	1.12
693.688	0.12
694.443	2.12
695.198	0.12
695.953	1.12
696.708	1.12
697.462	2.12
698.217	2.12
698.972	-0.88
699.726	3.12
700.48	2.12
701.235	2.12
701.989	0.12
702.743	4.12
703.497	2.12
704.251	1.12
705.005	1.12
705.759	2.12
706.513	0.12
707.266	2.12
708.02	1.12
708.774	1.12
709.527	3.12
710.28	2.12
711.034	3.12
711.787	2.12
712.54	2.12
713.293	1.12
714.046	3.12
714.799	3.12
715.552	1.12
716.305	0.12
717.058	3.12
717.81	1.12
718.563	0.12
719.315	2.12
720.068	3.12
720.82	1.12
721.573	1.12
722.325	2.12
723.077	3.12
723.829	2.12
724.581	2.12
725.333	2.12
726.085	2.12
726.836	1.12
727.588	3.12
728.34	3.12
729.091	1.12
729.843	2.12
730.594	0.12
731.346	2.12
732.097	3.12
732.848	2.12
733.599	2.12
734.35	2.12
735.101	3.12
735.852	1.12
736.603	2.12
737.354	3.12
738.104	2.12
738.855	3.12
739.605	0.12
740.356	2.12
741.106	1.12
741.856	2.12
742.607	3.12
743.357	2.12
744.107	2.12
744.857	2.12
745.607	1.12
746.357	1.12
747.106	1.12
747.856	2.12
748.606	2.12
749.355	4.12
750.105	3.12
750.854	3.12
751.603	0.12
752.353	1.12
753.102	3.12
753.851	3.12
754.6	2.12
755.349	4.12
756.098	2.12
756.847	4.12
757.595	5.12
758.344	3.12
759.093	0.12
759.841	2.12
760.589	3.12
761.338	4.12
762.086	2.12
762.834	3.12
763.582	3.12
764.331	6.12
765.079	3.12
765.826	5.12
766.574	5.12
767.322	3.12
768.07	4.12
768.817	2.12
769.565	6.12
770.312	5.12
771.06	4.12
771.807	3.12
772.554	3.12
773.302	4.12
774.049	4.12
774.796	5.12
775.543	4.12
776.29	5.12
777.036	4.12
777.783	5.12
778.53	6.12
779.276	5.12
780.023	5.12
780.769	3.12
781.516	5.12
782.262	4.12
783.008	4.12
783.754	6.12
784.5	6.12
785.246	5.12
785.992	7.12
786.738	5.12
787.484	7.12
788.23	4.12
788.975	7.12
789.721	4.12
790.466	5.12
791.212	5.12
791.957	4.12
792.702	7.12
793.447	4.12
794.193	4.12
794.938	3.12
795.683	6.12
796.427	4.12
797.172	3.12
797.917	4.12
798.662	3.12
799.406	5.12
800.151	4.12
800.895	5.12
801.64	5.12
802.384	2.12
803.128	4.12
803.872	6.12
804.616	4.12
805.36	5.12
806.104	5.12
806.848	2.12
807.592	2.12
808.336	5.12
809.079	4.12
809.823	2.12
810.566	4.12
811.31	2.12
812.053	3.12
812.796	3.12
813.539	3.12
814.283	3.12
815.026	4.12
815.769	3.12
816.511	5.12
817.254	5.12
817.997	2.12
818.74	4.12
819.482	4.12
820.225	2.12
820.967	4.12
821.71	2.12
822.452	4.12
823.194	3.12
823.936	3.12
824.678	1.12
825.42	4.12
826.162	3.12
826.904	4.12
827.646	3.12
828.388	2.12
829.129	3.12
829.871	3.12
830.612	3.12
831.354	3.12
832.095	2.12
832.836	2.12
833.577	1.12
834.319	4.12
835.06	1.12
835.801	2.12
836.542	3.12
837.282	2.12
838.023	1.12
838.764	2.12
839.504	3.12
840.245	1.12
840.985	0.12
841.726	3.12
842.466	1.12
843.206	3.12
843.946	3.12
844.687	3.12
845.427	-0.88
846.166	2.12
846.906	3.12
847.646	1.12
848.386	3.12
849.125	2.12
849.865	1.12
850.605	2.12
851.344	0.12
852.083	2.12
852.823	-0.88
853.562	3.12
854.301	2.12
855.04	4.12
855.779	1.12
856.518	2.12
857.257	2.12
857.995	-1.88
858.734	0.12
859.473	2.12
860.211	3.12
860.95	-0.88
861.688	2.12
862.426	4.12
863.165	1.12
863.903	2.12
864.641	-1.88
865.379	2.12
866.117	1.12
866.855	1.12
867.593	-0.88
868.33	3.12
869.068	1.12
869.806	0.12
870.543	2.12
871.28	3.12
872.018	2.12
872.755	2.12
873.492	0.12
874.229	1.12
874.967	-0.88
875.703	1.12
876.44	0.12
877.177	2.12
877.914	1.12
878.651	2.12
879.387	-0.88
880.124	-0.88
880.86	1.12
881.597	-2.88
882.333	1.12
883.069	2.12
883.806	-1.88
884.542	2.12
885.278	1.12
886.014	1.12
886.749	2.12
887.485	1.12
888.221	0.12
888.957	-0.88
889.692	1.12
890.428	-1.88
891.163	1.12
891.899	3.12
892.634	0.12
893.369	1.12
894.104	-0.88
894.839	-0.88
895.574	1.12
896.309	1.12
897.044	1.12
897.779	1.12
898.514	-0.88
899.248	2.12
899.983	2.12
900.717	0.12
901.452	2.12
902.186	1.12
902.92	-1.88
903.654	1.12
904.389	1.12
905.123	0.12
905.857	0.12
906.59	1.12
907.324	-1.88
908.058	0.12
908.792	1.12
909.525	2.12
910.259	2.12
910.992	0.12
911.726	-0.88
912.459	0.12
913.192	1.12
913.925	1.12
914.658	0.12
915.391	1.12
916.124	1.12
916.857	0.12
917.59	0.12
918.323	1.12
919.055	2.12
919.788	0.12
920.521	1.12
921.253	1.12
921.985	0.12
922.718	-2.88
923.45	0.12
924.182	1.12
924.914	-2.88
925.646	1.12
926.378	1.12
927.11	0.12
927.841	1.12
928.573	0.12
929.305	-0.88
930.036	1.12
930.768	0.12
931.499	0.12
932.23	0.12
932.962	1.12
933.693	1.12
934.424	1.12
935.155	0.12
935.886	0.12
936.617	1.12
937.348	-0.88
938.078	1.12
938.809	0.12
939.54	1.12
940.27	-1.88
941.001	1.12
941.731	1.12
942.461	0.12
943.191	0.12
943.922	-0.88
944.652	1.12
945.382	0.12
946.112	1.12
946.841	0.12
947.571	0.12
948.301	0.12
949.031	0.12
949.76	0.12
950.49	-0.88
951.219	-1.88
951.948	1.12
952.678	1.12
953.407	1.12
954.136	0.12
954.865	1.12
955.594	-0.88
956.323	1.12
957.052	0.12
957.78	1.12
958.509	1.12
959.238	1.12
959.966	-1.88
960.695	0.12
961.423	0.12
962.151	0.12
962.88	-1.88
963.608	0.12
964.336	-1.88
965.064	0.12
965.792	0.12
966.52	-0.88
967.247	1.12
967.975	1.12
968.703	2.12
969.43	-2.88
970.158	1.12
970.885	-1.88
971.613	0.12
972.34	1.12
973.067	-0.88
973.794	1.12
974.521	0.12
975.248	1.12
975.975	-1.88
976.702	0.12
977.429	0.12
978.156	-1.88
978.882	0.12
979.609	0.12
980.335	1.12
981.062	-0.88
981.788	1.12
982.514	-1.88
983.24	-2.88
983.967	0.12
984.693	-1.88
985.419	-0.88
986.144	-1.88
986.87	-0.88
987.596	-0.88
988.322	1.12
989.047	-1.88
989.773	0.12
990.498	0.12
991.224	1.12
991.949	0.12
992.674	-0.88
993.399	-0.88
994.124	1.12
994.849	-1.88
995.574	2.12
996.299	1.12
997.024	-0.88
997.749	-0.88
998.473	-0.88
999.198	-0.88
999.922	3.12
1000.647	-0.88
1001.371	3.12
1002.095	-1.88
1002.82	2.12
1003.544	0.12
1004.268	-1.88
1004.992	-0.88
1005.716	0.12
1006.439	-2.88
1007.163	1.12
1007.887	2.12
1008.611	-0.88
1009.334	-1.88
1010.058	0.12
1010.781	-2.88
1011.504	2.12
1012.228	0.12
1012.951	-0.88
1013.674	0.12
1014.397	-0.88
1015.12	-1.88
