节点500_145_QEPB04081__318__11-34-03-484.txt的数据

Date: Wed Nov 12 11:34:03 CST 2025
User: PC
Spectrometer: QEPB0408
触发模式: 0
积分时间 (秒): 1.000000E-2
Scans to average: 1
启用暗噪声校正: true
启用非线性校正: false
滑动平均宽度: 0
X轴模式: Wavelengths
Number of Pixels in Spectrum: 1044
>>>>>Begin Spectral Data<<<<<
220.843	1.38
221.644	-1.62
222.444	0.38
223.244	1.38
224.045	-1.62
224.845	1.38
225.645	0.38
226.445	1.38
227.245	1.38
228.045	2.38
228.845	2.38
229.645	0.38
230.444	-0.62
231.244	-1.62
232.043	0.38
232.843	3.38
233.642	0.38
234.442	1.38
235.241	2.38
236.04	3.38
236.839	-0.62
237.638	3.38
238.437	0.38
239.236	1.38
240.035	1.38
240.833	-0.62
241.632	1.38
242.43	0.38
243.229	3.38
244.027	1.38
244.826	0.38
245.624	5.38
246.422	1.38
247.22	1.38
248.018	0.38
248.816	3.38
249.614	0.38
250.412	1.38
251.21	0.38
252.007	1.38
252.805	2.38
253.602	1.38
254.4	0.38
255.197	1.38
255.994	3.38
256.791	3.38
257.589	3.38
258.386	2.38
259.183	4.38
259.979	6.38
260.776	1.38
261.573	2.38
262.37	2.38
263.166	5.38
263.963	5.38
264.759	3.38
265.556	6.38
266.352	2.38
267.148	3.38
267.944	7.38
268.74	5.38
269.536	6.38
270.332	6.38
271.128	7.38
271.924	9.38
272.719	6.38
273.515	7.38
274.311	7.38
275.106	7.38
275.901	8.38
276.697	9.38
277.492	8.38
278.287	6.38
279.082	10.38
279.877	10.38
280.672	10.38
281.467	8.38
282.262	10.38
283.056	10.38
283.851	8.38
284.646	11.38
285.44	11.38
286.234	13.38
287.029	10.38
287.823	9.38
288.617	11.38
289.411	9.38
290.205	10.38
290.999	11.38
291.793	10.38
292.587	10.38
293.381	7.38
294.174	9.38
294.968	8.38
295.761	10.38
296.555	5.38
297.348	10.38
298.141	9.38
298.935	9.38
299.728	8.38
300.521	7.38
301.314	7.38
302.107	8.38
302.899	8.38
303.692	7.38
304.485	8.38
305.277	9.38
306.07	10.38
306.862	7.38
307.655	6.38
308.447	7.38
309.239	9.38
310.031	7.38
310.823	5.38
311.615	4.38
312.407	6.38
313.199	5.38
313.991	5.38
314.783	5.38
315.574	6.38
316.366	6.38
317.157	2.38
317.949	5.38
318.74	2.38
319.531	5.38
320.322	5.38
321.113	3.38
321.904	5.38
322.695	5.38
323.486	4.38
324.277	2.38
325.068	6.38
325.858	3.38
326.649	4.38
327.439	4.38
328.23	4.38
329.02	6.38
329.81	1.38
330.6	2.38
331.391	2.38
332.181	4.38
332.971	4.38
333.76	3.38
334.55	3.38
335.34	2.38
336.13	2.38
336.919	5.38
337.709	3.38
338.498	3.38
339.287	3.38
340.077	4.38
340.866	1.38
341.655	1.38
342.444	2.38
343.233	2.38
344.022	2.38
344.811	1.38
345.6	1.38
346.388	2.38
347.177	2.38
347.965	3.38
348.754	1.38
349.542	4.38
350.33	1.38
351.119	2.38
351.907	3.38
352.695	1.38
353.483	2.38
354.271	3.38
355.059	2.38
355.846	2.38
356.634	3.38
357.422	2.38
358.209	4.38
358.997	3.38
359.784	2.38
360.571	4.38
361.359	2.38
362.146	4.38
362.933	2.38
363.72	3.38
364.507	2.38
365.294	1.38
366.081	2.38
366.867	2.38
367.654	2.38
368.44	2.38
369.227	3.38
370.013	2.38
370.8	1.38
371.586	2.38
372.372	2.38
373.158	2.38
373.944	2.38
374.73	2.38
375.516	3.38
376.302	2.38
377.088	4.38
377.873	1.38
378.659	3.38
379.445	1.38
380.23	1.38
381.015	2.38
381.801	2.38
382.586	3.38
383.371	1.38
384.156	4.38
384.941	2.38
385.726	2.38
386.511	2.38
387.296	3.38
388.08	0.38
388.865	4.38
389.649	7.38
390.434	1.38
391.218	2.38
392.003	2.38
392.787	2.38
393.571	3.38
394.355	1.38
395.139	2.38
395.923	3.38
396.707	2.38
397.491	2.38
398.274	1.38
399.058	4.38
399.842	3.38
400.625	5.38
401.408	2.38
402.192	3.38
402.975	5.38
403.758	3.38
404.541	3.38
405.324	2.38
406.107	1.38
406.89	2.38
407.673	4.38
408.456	4.38
409.238	5.38
410.021	2.38
410.803	3.38
411.586	5.38
412.368	4.38
413.151	5.38
413.933	6.38
414.715	5.38
415.497	5.38
416.279	4.38
417.061	8.38
417.843	5.38
418.624	6.38
419.406	5.38
420.188	6.38
420.969	5.38
421.751	7.38
422.532	6.38
423.313	4.38
424.095	3.38
424.876	5.38
425.657	3.38
426.438	6.38
427.219	6.38
428	6.38
428.78	7.38
429.561	5.38
430.342	7.38
431.122	8.38
431.903	9.38
432.683	9.38
433.464	7.38
434.244	7.38
435.024	6.38
435.804	9.38
436.584	7.38
437.364	9.38
438.144	9.38
438.924	10.38
439.704	10.38
440.483	12.38
441.263	15.38
442.042	10.38
442.822	12.38
443.601	10.38
444.38	14.38
445.16	16.38
445.939	14.38
446.718	14.38
447.497	21.38
448.276	21.38
449.054	20.38
449.833	23.38
450.612	24.38
451.391	23.38
452.169	27.38
452.948	28.38
453.726	33.38
454.504	35.38
455.282	38.38
456.061	43.38
456.839	43.38
457.617	51.38
458.395	53.38
459.172	63.38
459.95	72.38
460.728	76.38
461.506	87.38
462.283	92.38
463.061	112.38
463.838	119.38
464.615	132.38
465.393	149.38
466.17	166.38
466.947	182.38
467.724	205.38
468.501	225.38
469.278	253.38
470.055	285.38
470.831	315.38
471.608	341.38
472.385	393.38
473.161	426.38
473.938	471.38
474.714	537.38
475.49	594.38
476.266	654.38
477.043	726.38
477.819	803.38
478.595	881.38
479.371	969.38
480.146	1075.38
480.922	1177.38
481.698	1318.38
482.473	1443.38
483.249	1594.38
484.024	1747.38
484.8	1924.38
485.575	2142.38
486.35	2331.38
487.126	2583.38
487.901	2845.38
488.676	3127.38
489.451	3437.38
490.225	3776.38
491	4144.38
491.775	4543.38
492.55	5018.38
493.324	5474.38
494.099	5999.38
494.873	6486.38
495.647	7115.38
496.422	7665.38
497.196	8336.38
497.97	9004.38
498.744	9657.38
499.518	10366.38
500.292	11044.38
501.066	11738.38
501.839	12345.38
502.613	12946.38
503.387	13551.38
504.16	14094.38
504.934	14454.38
505.707	14808.38
506.48	15143.38
507.253	15254.38
508.027	15323.38
508.8	15313.38
509.573	15131.38
510.346	14932.38
511.118	14627.38
511.891	14283.38
512.664	13845.38
513.437	13385.38
514.209	12888.38
514.982	12396.38
515.754	11839.38
516.526	11367.38
517.298	10885.38
518.071	10390.38
518.843	9920.38
519.615	9509.38
520.387	9120.38
521.159	8759.38
521.93	8398.38
522.702	8083.38
523.474	7786.38
524.245	7441.38
525.017	7155.38
525.788	6907.38
526.56	6607.38
527.331	6302.38
528.102	6053.38
528.873	5767.38
529.644	5519.38
530.415	5282.38
531.186	5010.38
531.957	4762.38
532.728	4521.38
533.498	4285.38
534.269	4052.38
535.039	3834.38
535.81	3622.38
536.58	3442.38
537.351	3217.38
538.121	3045.38
538.891	2878.38
539.661	2732.38
540.431	2586.38
541.201	2437.38
541.971	2311.38
542.741	2197.38
543.51	2057.38
544.28	1975.38
545.05	1866.38
545.819	1773.38
546.588	1706.38
547.358	1606.38
548.127	1542.38
548.896	1449.38
549.665	1377.38
550.434	1319.38
551.203	1225.38
551.972	1181.38
552.741	1112.38
553.51	1046.38
554.278	1001.38
555.047	956.38
555.815	890.38
556.584	838.38
557.352	801.38
558.121	746.38
558.889	698.38
559.657	670.38
560.425	625.38
561.193	594.38
561.961	557.38
562.729	522.38
563.496	493.38
564.264	469.38
565.032	435.38
565.799	417.38
566.567	400.38
567.334	369.38
568.101	355.38
568.869	329.38
569.636	321.38
570.403	296.38
571.17	267.38
571.937	264.38
572.704	249.38
573.471	228.38
574.237	223.38
575.004	204.38
575.771	192.38
576.537	185.38
577.303	173.38
578.07	164.38
578.836	152.38
579.602	148.38
580.368	137.38
581.134	136.38
581.9	123.38
582.666	117.38
583.432	108.38
584.198	103.38
584.964	99.38
585.729	93.38
586.495	89.38
587.26	81.38
588.025	78.38
588.791	73.38
589.556	70.38
590.321	66.38
591.086	61.38
591.851	58.38
592.616	54.38
593.381	53.38
594.146	52.38
594.911	49.38
595.675	45.38
596.44	42.38
597.204	40.38
597.969	43.38
598.733	38.38
599.497	38.38
600.261	33.38
601.025	36.38
601.79	29.38
602.553	33.38
603.317	24.38
604.081	26.38
604.845	26.38
605.609	24.38
606.372	24.38
607.136	22.38
607.899	21.38
608.662	21.38
609.426	23.38
610.189	19.38
610.952	18.38
611.715	19.38
612.478	19.38
613.241	17.38
614.004	16.38
614.767	16.38
615.529	14.38
616.292	16.38
617.055	14.38
617.817	12.38
618.579	13.38
619.342	12.38
620.104	9.38
620.866	12.38
621.628	11.38
622.39	8.38
623.152	9.38
623.914	12.38
624.676	9.38
625.438	9.38
626.199	10.38
626.961	8.38
627.722	9.38
628.484	10.38
629.245	10.38
630.006	9.38
630.768	8.38
631.529	6.38
632.29	6.38
633.051	8.38
633.812	8.38
634.573	8.38
635.333	6.38
636.094	6.38
636.855	7.38
637.615	4.38
638.376	7.38
639.136	4.38
639.896	6.38
640.657	3.38
641.417	5.38
642.177	7.38
642.937	4.38
643.697	5.38
644.457	4.38
645.216	6.38
645.976	4.38
646.736	4.38
647.495	4.38
648.255	6.38
649.014	5.38
649.774	4.38
650.533	5.38
651.292	4.38
652.051	1.38
652.81	2.38
653.569	5.38
654.328	5.38
655.087	2.38
655.846	2.38
656.604	1.38
657.363	0.38
658.121	3.38
658.88	2.38
659.638	1.38
660.397	0.38
661.155	1.38
661.913	4.38
662.671	1.38
663.429	2.38
664.187	1.38
664.945	4.38
665.703	2.38
666.46	2.38
667.218	1.38
667.976	1.38
668.733	4.38
669.49	2.38
670.248	0.38
671.005	2.38
671.762	2.38
672.519	3.38
673.276	1.38
674.033	3.38
674.79	1.38
675.547	2.38
676.304	3.38
677.06	2.38
677.817	2.38
678.574	3.38
679.33	2.38
680.086	3.38
680.843	3.38
681.599	1.38
682.355	2.38
683.111	2.38
683.867	0.38
684.623	2.38
685.379	1.38
686.135	3.38
686.89	2.38
687.646	2.38
688.402	1.38
689.157	0.38
689.912	0.38
690.668	1.38
691.423	3.38
692.178	1.38
692.933	3.38
693.688	3.38
694.443	1.38
695.198	2.38
695.953	2.38
696.708	2.38
697.462	0.38
698.217	2.38
698.972	1.38
699.726	2.38
700.48	2.38
701.235	0.38
701.989	3.38
702.743	2.38
703.497	2.38
704.251	2.38
705.005	3.38
705.759	3.38
706.513	1.38
707.266	1.38
708.02	1.38
708.774	1.38
709.527	2.38
710.28	2.38
711.034	2.38
711.787	0.38
712.54	2.38
713.293	0.38
714.046	1.38
714.799	1.38
715.552	1.38
716.305	4.38
717.058	3.38
717.81	2.38
718.563	0.38
719.315	3.38
720.068	2.38
720.82	2.38
721.573	2.38
722.325	1.38
723.077	4.38
723.829	1.38
724.581	1.38
725.333	1.38
726.085	3.38
726.836	0.38
727.588	1.38
728.34	1.38
729.091	0.38
729.843	3.38
730.594	3.38
731.346	3.38
732.097	3.38
732.848	2.38
733.599	1.38
734.35	2.38
735.101	2.38
735.852	4.38
736.603	2.38
737.354	2.38
738.104	1.38
738.855	0.38
739.605	1.38
740.356	-0.62
741.106	0.38
741.856	0.38
742.607	1.38
743.357	2.38
744.107	3.38
744.857	3.38
745.607	1.38
746.357	3.38
747.106	0.38
747.856	2.38
748.606	1.38
749.355	2.38
750.105	2.38
750.854	2.38
751.603	2.38
752.353	-0.62
753.102	3.38
753.851	3.38
754.6	3.38
755.349	4.38
756.098	3.38
756.847	2.38
757.595	5.38
758.344	5.38
759.093	1.38
759.841	2.38
760.589	5.38
761.338	3.38
762.086	3.38
762.834	0.38
763.582	4.38
764.331	0.38
765.079	3.38
765.826	2.38
766.574	3.38
767.322	3.38
768.07	4.38
768.817	4.38
769.565	2.38
770.312	2.38
771.06	5.38
771.807	2.38
772.554	2.38
773.302	3.38
774.049	3.38
774.796	3.38
775.543	7.38
776.29	4.38
777.036	5.38
777.783	5.38
778.53	3.38
779.276	3.38
780.023	5.38
780.769	3.38
781.516	5.38
782.262	2.38
783.008	6.38
783.754	3.38
784.5	4.38
785.246	5.38
785.992	5.38
786.738	4.38
787.484	5.38
788.23	7.38
788.975	3.38
789.721	2.38
790.466	6.38
791.212	4.38
791.957	5.38
792.702	3.38
793.447	6.38
794.193	5.38
794.938	5.38
795.683	4.38
796.427	3.38
797.172	5.38
797.917	1.38
798.662	6.38
799.406	5.38
800.151	5.38
800.895	5.38
801.64	1.38
802.384	5.38
803.128	3.38
803.872	7.38
804.616	6.38
805.36	5.38
806.104	3.38
806.848	4.38
807.592	2.38
808.336	5.38
809.079	2.38
809.823	4.38
810.566	4.38
811.31	2.38
812.053	4.38
812.796	5.38
813.539	3.38
814.283	4.38
815.026	3.38
815.769	3.38
816.511	5.38
817.254	3.38
817.997	5.38
818.74	2.38
819.482	4.38
820.225	2.38
820.967	2.38
821.71	3.38
822.452	2.38
823.194	3.38
823.936	1.38
824.678	5.38
825.42	4.38
826.162	3.38
826.904	0.38
827.646	2.38
828.388	5.38
829.129	2.38
829.871	1.38
830.612	3.38
831.354	1.38
832.095	3.38
832.836	1.38
833.577	3.38
834.319	2.38
835.06	2.38
835.801	2.38
836.542	2.38
837.282	2.38
838.023	-1.62
838.764	1.38
839.504	2.38
840.245	2.38
840.985	1.38
841.726	1.38
842.466	3.38
843.206	-0.62
843.946	4.38
844.687	1.38
845.427	1.38
846.166	3.38
846.906	2.38
847.646	1.38
848.386	0.38
849.125	2.38
849.865	2.38
850.605	1.38
851.344	1.38
852.083	1.38
852.823	3.38
853.562	1.38
854.301	1.38
855.04	4.38
855.779	1.38
856.518	0.38
857.257	1.38
857.995	-0.62
858.734	-0.62
859.473	3.38
860.211	0.38
860.95	2.38
861.688	0.38
862.426	0.38
863.165	2.38
863.903	0.38
864.641	-0.62
865.379	-0.62
866.117	2.38
866.855	2.38
867.593	2.38
868.33	2.38
869.068	0.38
869.806	1.38
870.543	2.38
871.28	1.38
872.018	0.38
872.755	-0.62
873.492	1.38
874.229	0.38
874.967	2.38
875.703	1.38
876.44	0.38
877.177	2.38
877.914	-0.62
878.651	0.38
879.387	1.38
880.124	2.38
880.86	1.38
881.597	0.38
882.333	0.38
883.069	0.38
883.806	2.38
884.542	2.38
885.278	0.38
886.014	3.38
886.749	1.38
887.485	0.38
888.221	1.38
888.957	-0.62
889.692	-1.62
890.428	1.38
891.163	1.38
891.899	0.38
892.634	0.38
893.369	1.38
894.104	2.38
894.839	1.38
895.574	1.38
896.309	1.38
897.044	-0.62
897.779	1.38
898.514	-0.62
899.248	1.38
899.983	0.38
900.717	1.38
901.452	0.38
902.186	2.38
902.92	0.38
903.654	1.38
904.389	1.38
905.123	0.38
905.857	0.38
906.59	-1.62
907.324	-1.62
908.058	1.38
908.792	-0.62
909.525	0.38
910.259	1.38
910.992	1.38
911.726	0.38
912.459	1.38
913.192	-0.62
913.925	-0.62
914.658	1.38
915.391	0.38
916.124	1.38
916.857	-0.62
917.59	0.38
918.323	-1.62
919.055	-0.62
919.788	0.38
920.521	-0.62
921.253	0.38
921.985	1.38
922.718	2.38
923.45	-1.62
924.182	0.38
924.914	1.38
925.646	1.38
926.378	1.38
927.11	-0.62
927.841	-0.62
928.573	-0.62
929.305	0.38
930.036	0.38
930.768	1.38
931.499	-1.62
932.23	1.38
932.962	0.38
933.693	0.38
934.424	0.38
935.155	0.38
935.886	-0.62
936.617	0.38
937.348	2.38
938.078	1.38
938.809	3.38
939.54	1.38
940.27	3.38
941.001	1.38
941.731	-1.62
942.461	-1.62
943.191	-0.62
943.922	1.38
944.652	1.38
945.382	2.38
946.112	2.38
946.841	-1.62
947.571	1.38
948.301	-1.62
949.031	1.38
949.76	-1.62
950.49	1.38
951.219	-0.62
951.948	-1.62
952.678	1.38
953.407	0.38
954.136	1.38
954.865	-1.62
955.594	-1.62
956.323	1.38
957.052	1.38
957.78	-0.62
958.509	1.38
959.238	1.38
959.966	-1.62
960.695	2.38
961.423	0.38
962.151	0.38
962.88	-0.62
963.608	0.38
964.336	1.38
965.064	-1.62
965.792	0.38
966.52	0.38
967.247	2.38
967.975	-0.62
968.703	-0.62
969.43	2.38
970.158	-0.62
970.885	0.38
971.613	3.38
972.34	-1.62
973.067	1.38
973.794	-1.62
974.521	2.38
975.248	1.38
975.975	0.38
976.702	0.38
977.429	0.38
978.156	-0.62
978.882	2.38
979.609	0.38
980.335	0.38
981.062	-0.62
981.788	1.38
982.514	0.38
983.24	-0.62
983.967	0.38
984.693	1.38
985.419	-0.62
986.144	-0.62
986.87	0.38
987.596	1.38
988.322	2.38
989.047	0.38
989.773	0.38
990.498	1.38
991.224	-1.62
991.949	1.38
992.674	1.38
993.399	0.38
994.124	-1.62
994.849	1.38
995.574	0.38
996.299	0.38
997.024	-1.62
997.749	-0.62
998.473	2.38
999.198	-0.62
999.922	0.38
1000.647	-1.62
1001.371	2.38
1002.095	1.38
1002.82	0.38
1003.544	-1.62
1004.268	-0.62
1004.992	-2.62
1005.716	-0.62
1006.439	2.38
1007.163	1.38
1007.887	0.38
1008.611	-1.62
1009.334	2.38
1010.058	0.38
1010.781	-1.62
1011.504	-0.62
1012.228	-1.62
1012.951	-0.62
1013.674	-0.62
1014.397	-0.62
1015.12	-0.62
