节点500_145_QEPB04081__282__11-33-28-495.txt的数据

Date: Wed Nov 12 11:33:28 CST 2025
User: PC
Spectrometer: QEPB0408
触发模式: 0
积分时间 (秒): 1.000000E-2
Scans to average: 1
启用暗噪声校正: true
启用非线性校正: false
滑动平均宽度: 0
X轴模式: Wavelengths
Number of Pixels in Spectrum: 1044
>>>>>Begin Spectral Data<<<<<
220.843	-2.25
221.644	-2.25
222.444	-0.25
223.244	-1.25
224.045	-2.25
224.845	1.75
225.645	0.75
226.445	-1.25
227.245	0.75
228.045	-0.25
228.845	-0.25
229.645	1.75
230.444	-0.25
231.244	-2.25
232.043	-0.25
232.843	-0.25
233.642	2.75
234.442	-0.25
235.241	0.75
236.04	0.75
236.839	-2.25
237.638	0.75
238.437	-1.25
239.236	1.75
240.035	0.75
240.833	-1.25
241.632	1.75
242.43	1.75
243.229	2.75
244.027	1.75
244.826	-0.25
245.624	2.75
246.422	-0.25
247.22	3.75
248.018	1.75
248.816	1.75
249.614	1.75
250.412	1.75
251.21	3.75
252.007	1.75
252.805	3.75
253.602	2.75
254.4	5.75
255.197	1.75
255.994	1.75
256.791	4.75
257.589	1.75
258.386	2.75
259.183	3.75
259.979	3.75
260.776	5.75
261.573	5.75
262.37	3.75
263.166	3.75
263.963	4.75
264.759	4.75
265.556	6.75
266.352	6.75
267.148	4.75
267.944	5.75
268.74	4.75
269.536	4.75
270.332	3.75
271.128	8.75
271.924	5.75
272.719	7.75
273.515	8.75
274.311	7.75
275.106	6.75
275.901	8.75
276.697	9.75
277.492	10.75
278.287	7.75
279.082	7.75
279.877	8.75
280.672	9.75
281.467	7.75
282.262	12.75
283.056	10.75
283.851	9.75
284.646	9.75
285.44	10.75
286.234	10.75
287.029	8.75
287.823	10.75
288.617	10.75
289.411	12.75
290.205	10.75
290.999	8.75
291.793	10.75
292.587	7.75
293.381	9.75
294.174	10.75
294.968	8.75
295.761	8.75
296.555	8.75
297.348	11.75
298.141	9.75
298.935	6.75
299.728	6.75
300.521	8.75
301.314	10.75
302.107	7.75
302.899	9.75
303.692	5.75
304.485	7.75
305.277	8.75
306.07	6.75
306.862	6.75
307.655	6.75
308.447	9.75
309.239	6.75
310.031	8.75
310.823	8.75
311.615	8.75
312.407	5.75
313.199	6.75
313.991	7.75
314.783	6.75
315.574	5.75
316.366	5.75
317.157	3.75
317.949	7.75
318.74	2.75
319.531	3.75
320.322	5.75
321.113	4.75
321.904	4.75
322.695	4.75
323.486	3.75
324.277	5.75
325.068	5.75
325.858	4.75
326.649	0.75
327.439	3.75
328.23	3.75
329.02	4.75
329.81	2.75
330.6	2.75
331.391	0.75
332.181	2.75
332.971	0.75
333.76	3.75
334.55	3.75
335.34	3.75
336.13	3.75
336.919	3.75
337.709	2.75
338.498	4.75
339.287	0.75
340.077	1.75
340.866	3.75
341.655	1.75
342.444	1.75
343.233	2.75
344.022	0.75
344.811	0.75
345.6	2.75
346.388	1.75
347.177	1.75
347.965	3.75
348.754	1.75
349.542	0.75
350.33	0.75
351.119	2.75
351.907	3.75
352.695	0.75
353.483	1.75
354.271	0.75
355.059	3.75
355.846	2.75
356.634	2.75
357.422	2.75
358.209	4.75
358.997	1.75
359.784	2.75
360.571	2.75
361.359	3.75
362.146	2.75
362.933	1.75
363.72	2.75
364.507	2.75
365.294	0.75
366.081	3.75
366.867	1.75
367.654	2.75
368.44	1.75
369.227	0.75
370.013	1.75
370.8	3.75
371.586	2.75
372.372	2.75
373.158	-0.25
373.944	3.75
374.73	-0.25
375.516	4.75
376.302	0.75
377.088	0.75
377.873	1.75
378.659	1.75
379.445	1.75
380.23	0.75
381.015	3.75
381.801	1.75
382.586	1.75
383.371	1.75
384.156	1.75
384.941	0.75
385.726	1.75
386.511	2.75
387.296	2.75
388.08	1.75
388.865	3.75
389.649	2.75
390.434	1.75
391.218	1.75
392.003	3.75
392.787	0.75
393.571	2.75
394.355	1.75
395.139	3.75
395.923	4.75
396.707	3.75
397.491	1.75
398.274	2.75
399.058	3.75
399.842	3.75
400.625	3.75
401.408	2.75
402.192	1.75
402.975	4.75
403.758	1.75
404.541	4.75
405.324	3.75
406.107	0.75
406.89	1.75
407.673	2.75
408.456	5.75
409.238	4.75
410.021	3.75
410.803	3.75
411.586	2.75
412.368	4.75
413.151	2.75
413.933	6.75
414.715	6.75
415.497	4.75
416.279	4.75
417.061	0.75
417.843	2.75
418.624	4.75
419.406	4.75
420.188	5.75
420.969	4.75
421.751	4.75
422.532	4.75
423.313	4.75
424.095	3.75
424.876	6.75
425.657	5.75
426.438	5.75
427.219	7.75
428	6.75
428.78	6.75
429.561	3.75
430.342	8.75
431.122	4.75
431.903	8.75
432.683	7.75
433.464	8.75
434.244	7.75
435.024	5.75
435.804	9.75
436.584	4.75
437.364	7.75
438.144	8.75
438.924	9.75
439.704	8.75
440.483	9.75
441.263	11.75
442.042	11.75
442.822	12.75
443.601	12.75
444.38	11.75
445.16	14.75
445.939	16.75
446.718	19.75
447.497	17.75
448.276	18.75
449.054	22.75
449.833	22.75
450.612	23.75
451.391	23.75
452.169	27.75
452.948	31.75
453.726	33.75
454.504	37.75
455.282	40.75
456.061	43.75
456.839	49.75
457.617	53.75
458.395	58.75
459.172	65.75
459.95	73.75
460.728	77.75
461.506	90.75
462.283	100.75
463.061	111.75
463.838	127.75
464.615	141.75
465.393	152.75
466.17	175.75
466.947	192.75
467.724	218.75
468.501	233.75
469.278	261.75
470.055	301.75
470.831	333.75
471.608	363.75
472.385	404.75
473.161	458.75
473.938	511.75
474.714	563.75
475.49	628.75
476.266	687.75
477.043	760.75
477.819	842.75
478.595	924.75
479.371	1033.75
480.146	1151.75
480.922	1265.75
481.698	1401.75
482.473	1560.75
483.249	1704.75
484.024	1869.75
484.8	2070.75
485.575	2289.75
486.35	2517.75
487.126	2780.75
487.901	3060.75
488.676	3372.75
489.451	3690.75
490.225	4064.75
491	4500.75
491.775	4906.75
492.55	5422.75
493.324	5897.75
494.099	6481.75
494.873	7031.75
495.647	7673.75
496.422	8321.75
497.196	8994.75
497.97	9700.75
498.744	10462.75
499.518	11289.75
500.292	11976.75
501.066	12681.75
501.839	13402.75
502.613	14066.75
503.387	14645.75
504.16	15235.75
504.934	15646.75
505.707	15992.75
506.48	16319.75
507.253	16496.75
508.027	16528.75
508.8	16505.75
509.573	16317.75
510.346	16093.75
511.118	15739.75
511.891	15366.75
512.664	14897.75
513.437	14385.75
514.209	13820.75
514.982	13282.75
515.754	12694.75
516.526	12133.75
517.298	11653.75
518.071	11125.75
518.843	10617.75
519.615	10177.75
520.387	9793.75
521.159	9377.75
521.93	8989.75
522.702	8609.75
523.474	8288.75
524.245	7978.75
525.017	7641.75
525.788	7334.75
526.56	7069.75
527.331	6754.75
528.102	6461.75
528.873	6169.75
529.644	5920.75
530.415	5615.75
531.186	5370.75
531.957	5073.75
532.728	4815.75
533.498	4548.75
534.269	4308.75
535.039	4081.75
535.81	3843.75
536.58	3647.75
537.351	3432.75
538.121	3252.75
538.891	3062.75
539.661	2884.75
540.431	2726.75
541.201	2594.75
541.971	2471.75
542.741	2324.75
543.51	2217.75
544.28	2076.75
545.05	1994.75
545.819	1907.75
546.588	1805.75
547.358	1713.75
548.127	1616.75
548.896	1552.75
549.665	1473.75
550.434	1393.75
551.203	1318.75
551.972	1257.75
552.741	1193.75
553.51	1122.75
554.278	1064.75
555.047	1003.75
555.815	947.75
556.584	904.75
557.352	846.75
558.121	786.75
558.889	737.75
559.657	703.75
560.425	668.75
561.193	625.75
561.961	592.75
562.729	553.75
563.496	527.75
564.264	483.75
565.032	465.75
565.799	441.75
566.567	416.75
567.334	396.75
568.101	369.75
568.869	345.75
569.636	333.75
570.403	316.75
571.17	298.75
571.937	271.75
572.704	265.75
573.471	250.75
574.237	236.75
575.004	216.75
575.771	204.75
576.537	193.75
577.303	184.75
578.07	172.75
578.836	158.75
579.602	151.75
580.368	144.75
581.134	138.75
581.9	132.75
582.666	124.75
583.432	121.75
584.198	108.75
584.964	103.75
585.729	95.75
586.495	92.75
587.26	85.75
588.025	79.75
588.791	83.75
589.556	72.75
590.321	69.75
591.086	65.75
591.851	60.75
592.616	60.75
593.381	56.75
594.146	51.75
594.911	48.75
595.675	51.75
596.44	48.75
597.204	42.75
597.969	42.75
598.733	41.75
599.497	33.75
600.261	36.75
601.025	36.75
601.79	33.75
602.553	35.75
603.317	29.75
604.081	30.75
604.845	27.75
605.609	27.75
606.372	25.75
607.136	23.75
607.899	24.75
608.662	23.75
609.426	19.75
610.189	19.75
610.952	16.75
611.715	18.75
612.478	16.75
613.241	18.75
614.004	17.75
614.767	14.75
615.529	14.75
616.292	14.75
617.055	13.75
617.817	15.75
618.579	13.75
619.342	9.75
620.104	12.75
620.866	9.75
621.628	10.75
622.39	11.75
623.152	8.75
623.914	9.75
624.676	8.75
625.438	9.75
626.199	9.75
626.961	9.75
627.722	8.75
628.484	8.75
629.245	8.75
630.006	6.75
630.768	5.75
631.529	5.75
632.29	6.75
633.051	7.75
633.812	7.75
634.573	6.75
635.333	5.75
636.094	4.75
636.855	7.75
637.615	6.75
638.376	5.75
639.136	6.75
639.896	3.75
640.657	2.75
641.417	2.75
642.177	2.75
642.937	2.75
643.697	3.75
644.457	5.75
645.216	3.75
645.976	2.75
646.736	1.75
647.495	4.75
648.255	1.75
649.014	1.75
649.774	2.75
650.533	0.75
651.292	4.75
652.051	4.75
652.81	3.75
653.569	3.75
654.328	4.75
655.087	2.75
655.846	4.75
656.604	3.75
657.363	2.75
658.121	4.75
658.88	2.75
659.638	1.75
660.397	1.75
661.155	2.75
661.913	2.75
662.671	0.75
663.429	2.75
664.187	2.75
664.945	1.75
665.703	3.75
666.46	2.75
667.218	3.75
667.976	2.75
668.733	1.75
669.49	3.75
670.248	-0.25
671.005	1.75
671.762	1.75
672.519	1.75
673.276	1.75
674.033	2.75
674.79	1.75
675.547	-1.25
676.304	2.75
677.06	1.75
677.817	3.75
678.574	1.75
679.33	1.75
680.086	1.75
680.843	0.75
681.599	2.75
682.355	0.75
683.111	0.75
683.867	1.75
684.623	2.75
685.379	-0.25
686.135	-0.25
686.89	1.75
687.646	1.75
688.402	1.75
689.157	1.75
689.912	3.75
690.668	0.75
691.423	1.75
692.178	2.75
692.933	2.75
693.688	2.75
694.443	0.75
695.198	0.75
695.953	1.75
696.708	2.75
697.462	1.75
698.217	2.75
698.972	1.75
699.726	2.75
700.48	1.75
701.235	1.75
701.989	-1.25
702.743	2.75
703.497	0.75
704.251	3.75
705.005	1.75
705.759	0.75
706.513	0.75
707.266	0.75
708.02	1.75
708.774	0.75
709.527	1.75
710.28	1.75
711.034	-0.25
711.787	2.75
712.54	-0.25
713.293	1.75
714.046	0.75
714.799	0.75
715.552	0.75
716.305	-1.25
717.058	-0.25
717.81	0.75
718.563	-1.25
719.315	1.75
720.068	3.75
720.82	-0.25
721.573	0.75
722.325	1.75
723.077	1.75
723.829	2.75
724.581	0.75
725.333	-1.25
726.085	2.75
726.836	2.75
727.588	0.75
728.34	-0.25
729.091	0.75
729.843	1.75
730.594	2.75
731.346	-0.25
732.097	1.75
732.848	4.75
733.599	2.75
734.35	-0.25
735.101	0.75
735.852	-0.25
736.603	1.75
737.354	1.75
738.104	1.75
738.855	1.75
739.605	-0.25
740.356	4.75
741.106	1.75
741.856	1.75
742.607	0.75
743.357	2.75
744.107	3.75
744.857	1.75
745.607	1.75
746.357	-1.25
747.106	1.75
747.856	0.75
748.606	3.75
749.355	2.75
750.105	2.75
750.854	4.75
751.603	-0.25
752.353	2.75
753.102	-0.25
753.851	4.75
754.6	1.75
755.349	2.75
756.098	1.75
756.847	1.75
757.595	4.75
758.344	1.75
759.093	0.75
759.841	1.75
760.589	2.75
761.338	1.75
762.086	1.75
762.834	2.75
763.582	2.75
764.331	3.75
765.079	2.75
765.826	2.75
766.574	6.75
767.322	0.75
768.07	4.75
768.817	2.75
769.565	3.75
770.312	1.75
771.06	2.75
771.807	3.75
772.554	4.75
773.302	3.75
774.049	2.75
774.796	3.75
775.543	4.75
776.29	4.75
777.036	3.75
777.783	1.75
778.53	5.75
779.276	4.75
780.023	3.75
780.769	4.75
781.516	3.75
782.262	4.75
783.008	4.75
783.754	2.75
784.5	3.75
785.246	6.75
785.992	3.75
786.738	4.75
787.484	5.75
788.23	2.75
788.975	2.75
789.721	4.75
790.466	4.75
791.212	6.75
791.957	3.75
792.702	4.75
793.447	3.75
794.193	4.75
794.938	4.75
795.683	4.75
796.427	2.75
797.172	5.75
797.917	3.75
798.662	0.75
799.406	3.75
800.151	3.75
800.895	2.75
801.64	3.75
802.384	1.75
803.128	2.75
803.872	4.75
804.616	3.75
805.36	5.75
806.104	3.75
806.848	3.75
807.592	4.75
808.336	3.75
809.079	1.75
809.823	6.75
810.566	3.75
811.31	2.75
812.053	0.75
812.796	1.75
813.539	-0.25
814.283	1.75
815.026	2.75
815.769	2.75
816.511	0.75
817.254	3.75
817.997	0.75
818.74	3.75
819.482	2.75
820.225	2.75
820.967	1.75
821.71	-0.25
822.452	2.75
823.194	1.75
823.936	3.75
824.678	3.75
825.42	3.75
826.162	1.75
826.904	0.75
827.646	3.75
828.388	-0.25
829.129	2.75
829.871	1.75
830.612	1.75
831.354	1.75
832.095	0.75
832.836	1.75
833.577	-0.25
834.319	3.75
835.06	0.75
835.801	1.75
836.542	2.75
837.282	0.75
838.023	1.75
838.764	-0.25
839.504	1.75
840.245	2.75
840.985	1.75
841.726	1.75
842.466	0.75
843.206	2.75
843.946	-0.25
844.687	1.75
845.427	0.75
846.166	1.75
846.906	1.75
847.646	0.75
848.386	1.75
849.125	1.75
849.865	1.75
850.605	0.75
851.344	0.75
852.083	0.75
852.823	-0.25
853.562	1.75
854.301	1.75
855.04	0.75
855.779	0.75
856.518	-0.25
857.257	0.75
857.995	1.75
858.734	1.75
859.473	-1.25
860.211	4.75
860.95	0.75
861.688	1.75
862.426	1.75
863.165	-0.25
863.903	2.75
864.641	1.75
865.379	0.75
866.117	-0.25
866.855	1.75
867.593	-0.25
868.33	0.75
869.068	1.75
869.806	-1.25
870.543	-0.25
871.28	-0.25
872.018	-0.25
872.755	-0.25
873.492	-0.25
874.229	2.75
874.967	0.75
875.703	0.75
876.44	-0.25
877.177	0.75
877.914	1.75
878.651	-3.25
879.387	-0.25
880.124	-1.25
880.86	-2.25
881.597	-2.25
882.333	0.75
883.069	-1.25
883.806	-0.25
884.542	1.75
885.278	-1.25
886.014	-0.25
886.749	0.75
887.485	-2.25
888.221	0.75
888.957	-0.25
889.692	-0.25
890.428	0.75
891.163	-1.25
891.899	-2.25
892.634	-1.25
893.369	0.75
894.104	-0.25
894.839	-0.25
895.574	2.75
896.309	-1.25
897.044	1.75
897.779	-0.25
898.514	1.75
899.248	-0.25
899.983	0.75
900.717	0.75
901.452	-0.25
902.186	-0.25
902.92	-0.25
903.654	-0.25
904.389	0.75
905.123	-2.25
905.857	-1.25
906.59	-0.25
907.324	0.75
908.058	0.75
908.792	0.75
909.525	-0.25
910.259	0.75
910.992	-0.25
911.726	-0.25
912.459	0.75
913.192	0.75
913.925	1.75
914.658	1.75
915.391	-0.25
916.124	-0.25
916.857	-1.25
917.59	0.75
918.323	-1.25
919.055	0.75
919.788	-1.25
920.521	0.75
921.253	-0.25
921.985	-1.25
922.718	-1.25
923.45	-0.25
924.182	-0.25
924.914	-4.25
925.646	1.75
926.378	-0.25
927.11	-2.25
927.841	0.75
928.573	-1.25
929.305	1.75
930.036	-2.25
930.768	-1.25
931.499	-0.25
932.23	-1.25
932.962	-0.25
933.693	-1.25
934.424	0.75
935.155	0.75
935.886	-0.25
936.617	0.75
937.348	-1.25
938.078	-0.25
938.809	-3.25
939.54	-0.25
940.27	1.75
941.001	-1.25
941.731	-0.25
942.461	-0.25
943.191	-0.25
943.922	-1.25
944.652	-1.25
945.382	-0.25
946.112	-1.25
946.841	0.75
947.571	-2.25
948.301	-0.25
949.031	-2.25
949.76	-0.25
950.49	0.75
951.219	-1.25
951.948	-0.25
952.678	-2.25
953.407	0.75
954.136	-1.25
954.865	2.75
955.594	-1.25
956.323	-2.25
957.052	1.75
957.78	-0.25
958.509	-1.25
959.238	-2.25
959.966	-2.25
960.695	-0.25
961.423	0.75
962.151	-0.25
962.88	-1.25
963.608	-2.25
964.336	-2.25
965.064	-0.25
965.792	-0.25
966.52	-0.25
967.247	0.75
967.975	-1.25
968.703	-1.25
969.43	1.75
970.158	-0.25
970.885	-0.25
971.613	-1.25
972.34	-0.25
973.067	-1.25
973.794	1.75
974.521	0.75
975.248	-1.25
975.975	1.75
976.702	-2.25
977.429	0.75
978.156	1.75
978.882	-0.25
979.609	-2.25
980.335	-1.25
981.062	-1.25
981.788	-0.25
982.514	-1.25
983.24	-2.25
983.967	-0.25
984.693	0.75
985.419	-0.25
986.144	-0.25
986.87	-2.25
987.596	-0.25
988.322	-1.25
989.047	-2.25
989.773	-1.25
990.498	0.75
991.224	0.75
991.949	-1.25
992.674	-0.25
993.399	-0.25
994.124	0.75
994.849	-0.25
995.574	-2.25
996.299	-2.25
997.024	-0.25
997.749	-0.25
998.473	-1.25
999.198	1.75
999.922	-0.25
1000.647	-0.25
1001.371	3.75
1002.095	-0.25
1002.82	-1.25
1003.544	-3.25
1004.268	-0.25
1004.992	-2.25
1005.716	-0.25
1006.439	-0.25
1007.163	-0.25
1007.887	-1.25
1008.611	0.75
1009.334	-1.25
1010.058	-0.25
1010.781	0.75
1011.504	-1.25
1012.228	-1.25
1012.951	-0.25
1013.674	-0.25
1014.397	0.75
1015.12	0.75
