节点500_145_QEPB04081__646__11-39-14-123.txt的数据

Date: Wed Nov 12 11:39:14 CST 2025
User: PC
Spectrometer: QEPB0408
触发模式: 0
积分时间 (秒): 1.000000E-2
Scans to average: 1
启用暗噪声校正: true
启用非线性校正: false
滑动平均宽度: 0
X轴模式: Wavelengths
Number of Pixels in Spectrum: 1044
>>>>>Begin Spectral Data<<<<<
220.843	-1
221.644	-2
222.444	-2
223.244	-1
224.045	-2
224.845	1
225.645	-1
226.445	3
227.245	-2
228.045	0
228.845	3
229.645	1
230.444	2
231.244	-1
232.043	1
232.843	1
233.642	0
234.442	1
235.241	-1
236.04	1
236.839	2
237.638	2
238.437	0
239.236	0
240.035	2
240.833	2
241.632	1
242.43	0
243.229	2
244.027	1
244.826	2
245.624	1
246.422	3
247.22	1
248.018	-1
248.816	3
249.614	5
250.412	2
251.21	3
252.007	1
252.805	3
253.602	2
254.4	3
255.197	3
255.994	3
256.791	2
257.589	2
258.386	4
259.183	2
259.979	5
260.776	5
261.573	3
262.37	2
263.166	3
263.963	3
264.759	7
265.556	6
266.352	5
267.148	4
267.944	5
268.74	3
269.536	6
270.332	8
271.128	4
271.924	6
272.719	3
273.515	6
274.311	6
275.106	10
275.901	8
276.697	7
277.492	9
278.287	7
279.082	10
279.877	8
280.672	8
281.467	9
282.262	9
283.056	9
283.851	7
284.646	11
285.44	8
286.234	11
287.029	7
287.823	10
288.617	10
289.411	9
290.205	6
290.999	9
291.793	10
292.587	11
293.381	6
294.174	8
294.968	8
295.761	11
296.555	10
297.348	10
298.141	9
298.935	8
299.728	9
300.521	6
301.314	9
302.107	9
302.899	7
303.692	10
304.485	6
305.277	7
306.07	6
306.862	6
307.655	6
308.447	8
309.239	7
310.031	6
310.823	8
311.615	7
312.407	7
313.199	6
313.991	4
314.783	5
315.574	5
316.366	6
317.157	5
317.949	7
318.74	5
319.531	3
320.322	4
321.113	3
321.904	6
322.695	4
323.486	3
324.277	4
325.068	3
325.858	3
326.649	3
327.439	4
328.23	3
329.02	2
329.81	5
330.6	2
331.391	4
332.181	4
332.971	4
333.76	2
334.55	3
335.34	5
336.13	4
336.919	5
337.709	1
338.498	4
339.287	3
340.077	5
340.866	2
341.655	4
342.444	3
343.233	1
344.022	3
344.811	3
345.6	3
346.388	4
347.177	3
347.965	4
348.754	5
349.542	4
350.33	4
351.119	3
351.907	2
352.695	3
353.483	6
354.271	3
355.059	1
355.846	2
356.634	3
357.422	3
358.209	2
358.997	4
359.784	2
360.571	4
361.359	3
362.146	1
362.933	2
363.72	1
364.507	2
365.294	4
366.081	4
366.867	2
367.654	1
368.44	2
369.227	2
370.013	3
370.8	4
371.586	5
372.372	2
373.158	4
373.944	5
374.73	3
375.516	2
376.302	1
377.088	2
377.873	3
378.659	3
379.445	3
380.23	1
381.015	4
381.801	1
382.586	2
383.371	1
384.156	2
384.941	2
385.726	0
386.511	5
387.296	1
388.08	3
388.865	3
389.649	5
390.434	4
391.218	-1
392.003	3
392.787	4
393.571	4
394.355	1
395.139	2
395.923	3
396.707	2
397.491	3
398.274	2
399.058	3
399.842	4
400.625	1
401.408	5
402.192	2
402.975	4
403.758	2
404.541	4
405.324	2
406.107	3
406.89	3
407.673	2
408.456	5
409.238	1
410.021	5
410.803	4
411.586	5
412.368	4
413.151	4
413.933	4
414.715	7
415.497	4
416.279	2
417.061	5
417.843	4
418.624	5
419.406	5
420.188	5
420.969	5
421.751	4
422.532	6
423.313	5
424.095	4
424.876	6
425.657	6
426.438	5
427.219	7
428	6
428.78	6
429.561	7
430.342	7
431.122	7
431.903	8
432.683	5
433.464	8
434.244	8
435.024	8
435.804	10
436.584	8
437.364	10
438.144	10
438.924	13
439.704	11
440.483	11
441.263	13
442.042	13
442.822	12
443.601	16
444.38	14
445.16	16
445.939	19
446.718	22
447.497	21
448.276	21
449.054	21
449.833	25
450.612	28
451.391	28
452.169	29
452.948	35
453.726	38
454.504	40
455.282	47
456.061	48
456.839	55
457.617	59
458.395	68
459.172	74
459.95	85
460.728	92
461.506	107
462.283	117
463.061	125
463.838	138
464.615	159
465.393	177
466.17	195
466.947	221
467.724	239
468.501	267
469.278	290
470.055	331
470.831	350
471.608	403
472.385	441
473.161	500
473.938	537
474.714	589
475.49	659
476.266	730
477.043	793
477.819	882
478.595	956
479.371	1053
480.146	1156
480.922	1262
481.698	1401
482.473	1529
483.249	1662
484.024	1832
484.8	1993
485.575	2180
486.35	2393
487.126	2599
487.901	2851
488.676	3131
489.451	3378
490.225	3690
491	4057
491.775	4425
492.55	4798
493.324	5223
494.099	5712
494.873	6161
495.647	6668
496.422	7241
497.196	7801
497.97	8440
498.744	9062
499.518	9674
500.292	10304
501.066	10946
501.839	11597
502.613	12151
503.387	12743
504.16	13289
504.934	13833
505.707	14218
506.48	14546
507.253	14754
508.027	15010
508.8	15143
509.573	15110
510.346	15007
511.118	14870
511.891	14639
512.664	14291
513.437	13965
514.209	13551
514.982	13065
515.754	12657
516.526	12144
517.298	11675
518.071	11180
518.843	10748
519.615	10274
520.387	9833
521.159	9450
521.93	9098
522.702	8715
523.474	8427
524.245	8052
525.017	7727
525.788	7405
526.56	7166
527.331	6835
528.102	6579
528.873	6312
529.644	6008
530.415	5773
531.186	5494
531.957	5275
532.728	4996
533.498	4777
534.269	4508
535.039	4288
535.81	4034
536.58	3831
537.351	3650
538.121	3420
538.891	3253
539.661	3073
540.431	2911
541.201	2751
541.971	2617
542.741	2467
543.51	2343
544.28	2220
545.05	2099
545.819	1996
546.588	1899
547.358	1807
548.127	1717
548.896	1622
549.665	1550
550.434	1475
551.203	1385
551.972	1331
552.741	1271
553.51	1203
554.278	1136
555.047	1078
555.815	1013
556.584	966
557.352	904
558.121	862
558.889	796
559.657	754
560.425	722
561.193	677
561.961	636
562.729	606
563.496	562
564.264	542
565.032	511
565.799	474
566.567	443
567.334	422
568.101	407
568.869	380
569.636	355
570.403	332
571.17	323
571.937	301
572.704	285
573.471	268
574.237	258
575.004	239
575.771	230
576.537	212
577.303	198
578.07	186
578.836	183
579.602	160
580.368	155
581.134	147
581.9	142
582.666	133
583.432	127
584.198	118
584.964	116
585.729	108
586.495	101
587.26	100
588.025	94
588.791	85
589.556	76
590.321	77
591.086	71
591.851	67
592.616	65
593.381	60
594.146	60
594.911	57
595.675	54
596.44	47
597.204	47
597.969	48
598.733	42
599.497	43
600.261	39
601.025	38
601.79	34
602.553	35
603.317	32
604.081	31
604.845	27
605.609	29
606.372	29
607.136	26
607.899	24
608.662	26
609.426	25
610.189	22
610.952	23
611.715	21
612.478	19
613.241	20
614.004	20
614.767	17
615.529	17
616.292	17
617.055	17
617.817	13
618.579	16
619.342	12
620.104	13
620.866	12
621.628	15
622.39	10
623.152	12
623.914	8
624.676	11
625.438	7
626.199	8
626.961	6
627.722	8
628.484	7
629.245	6
630.006	9
630.768	9
631.529	10
632.29	6
633.051	8
633.812	5
634.573	6
635.333	9
636.094	7
636.855	7
637.615	6
638.376	4
639.136	7
639.896	6
640.657	6
641.417	2
642.177	7
642.937	5
643.697	5
644.457	6
645.216	5
645.976	3
646.736	7
647.495	3
648.255	2
649.014	4
649.774	7
650.533	4
651.292	3
652.051	0
652.81	4
653.569	2
654.328	6
655.087	3
655.846	5
656.604	3
657.363	3
658.121	4
658.88	1
659.638	4
660.397	3
661.155	3
661.913	2
662.671	2
663.429	4
664.187	3
664.945	3
665.703	2
666.46	3
667.218	1
667.976	5
668.733	3
669.49	1
670.248	3
671.005	1
671.762	2
672.519	3
673.276	0
674.033	3
674.79	2
675.547	1
676.304	3
677.06	3
677.817	4
678.574	3
679.33	2
680.086	1
680.843	3
681.599	2
682.355	2
683.111	1
683.867	-1
684.623	1
685.379	1
686.135	0
686.89	2
687.646	3
688.402	2
689.157	3
689.912	2
690.668	1
691.423	2
692.178	2
692.933	2
693.688	5
694.443	2
695.198	2
695.953	3
696.708	1
697.462	2
698.217	3
698.972	4
699.726	1
700.48	4
701.235	2
701.989	1
702.743	2
703.497	1
704.251	2
705.005	2
705.759	0
706.513	2
707.266	4
708.02	1
708.774	2
709.527	2
710.28	1
711.034	2
711.787	3
712.54	2
713.293	2
714.046	0
714.799	2
715.552	2
716.305	1
717.058	2
717.81	3
718.563	2
719.315	1
720.068	1
720.82	0
721.573	3
722.325	2
723.077	3
723.829	2
724.581	1
725.333	2
726.085	1
726.836	1
727.588	1
728.34	2
729.091	4
729.843	1
730.594	2
731.346	0
732.097	1
732.848	1
733.599	3
734.35	3
735.101	1
735.852	2
736.603	2
737.354	2
738.104	1
738.855	2
739.605	2
740.356	1
741.106	3
741.856	2
742.607	5
743.357	4
744.107	2
744.857	1
745.607	2
746.357	3
747.106	1
747.856	3
748.606	2
749.355	2
750.105	1
750.854	0
751.603	1
752.353	2
753.102	0
753.851	5
754.6	2
755.349	3
756.098	2
756.847	3
757.595	1
758.344	1
759.093	3
759.841	2
760.589	2
761.338	1
762.086	3
762.834	2
763.582	4
764.331	4
765.079	2
765.826	3
766.574	1
767.322	6
768.07	3
768.817	4
769.565	4
770.312	3
771.06	2
771.807	5
772.554	4
773.302	5
774.049	1
774.796	3
775.543	4
776.29	5
777.036	5
777.783	6
778.53	5
779.276	4
780.023	5
780.769	3
781.516	3
782.262	3
783.008	5
783.754	5
784.5	2
785.246	4
785.992	6
786.738	6
787.484	4
788.23	6
788.975	4
789.721	3
790.466	4
791.212	3
791.957	3
792.702	6
793.447	6
794.193	4
794.938	4
795.683	5
796.427	4
797.172	4
797.917	2
798.662	4
799.406	5
800.151	2
800.895	3
801.64	4
802.384	3
803.128	5
803.872	3
804.616	5
805.36	4
806.104	6
806.848	1
807.592	4
808.336	3
809.079	5
809.823	5
810.566	4
811.31	2
812.053	4
812.796	4
813.539	5
814.283	3
815.026	5
815.769	4
816.511	3
817.254	2
817.997	3
818.74	4
819.482	3
820.225	2
820.967	1
821.71	5
822.452	0
823.194	4
823.936	2
824.678	1
825.42	4
826.162	2
826.904	2
827.646	3
828.388	4
829.129	3
829.871	0
830.612	2
831.354	1
832.095	4
832.836	2
833.577	2
834.319	2
835.06	4
835.801	2
836.542	1
837.282	2
838.023	1
838.764	3
839.504	2
840.245	3
840.985	1
841.726	2
842.466	0
843.206	1
843.946	3
844.687	2
845.427	-2
846.166	1
846.906	1
847.646	2
848.386	2
849.125	1
849.865	4
850.605	2
851.344	1
852.083	2
852.823	1
853.562	2
854.301	0
855.04	-2
855.779	1
856.518	3
857.257	0
857.995	2
858.734	3
859.473	1
860.211	3
860.95	0
861.688	1
862.426	-1
863.165	0
863.903	4
864.641	3
865.379	1
866.117	-1
866.855	2
867.593	1
868.33	1
869.068	2
869.806	1
870.543	-1
871.28	-1
872.018	2
872.755	0
873.492	2
874.229	3
874.967	1
875.703	1
876.44	0
877.177	0
877.914	2
878.651	1
879.387	2
880.124	0
880.86	2
881.597	-4
882.333	0
883.069	2
883.806	-1
884.542	-2
885.278	0
886.014	1
886.749	0
887.485	0
888.221	-1
888.957	1
889.692	3
890.428	1
891.163	-1
891.899	-1
892.634	0
893.369	-1
894.104	1
894.839	2
895.574	-1
896.309	0
897.044	-2
897.779	0
898.514	2
899.248	0
899.983	2
900.717	0
901.452	0
902.186	0
902.92	1
903.654	0
904.389	1
905.123	-1
905.857	0
906.59	-1
907.324	0
908.058	0
908.792	1
909.525	0
910.259	0
910.992	-2
911.726	0
912.459	0
913.192	2
913.925	1
914.658	2
915.391	1
916.124	-1
916.857	0
917.59	1
918.323	3
919.055	2
919.788	1
920.521	1
921.253	1
921.985	1
922.718	2
923.45	0
924.182	-1
924.914	1
925.646	0
926.378	-3
927.11	2
927.841	2
928.573	0
929.305	0
930.036	0
930.768	-3
931.499	2
932.23	1
932.962	-1
933.693	2
934.424	-1
935.155	0
935.886	0
936.617	1
937.348	-3
938.078	0
938.809	0
939.54	-1
940.27	-1
941.001	-1
941.731	-2
942.461	-1
943.191	-2
943.922	1
944.652	-1
945.382	1
946.112	1
946.841	-1
947.571	1
948.301	-1
949.031	0
949.76	2
950.49	-1
951.219	1
951.948	-1
952.678	2
953.407	0
954.136	0
954.865	-1
955.594	-1
956.323	-1
957.052	-1
957.78	0
958.509	0
959.238	0
959.966	1
960.695	1
961.423	-4
962.151	-2
962.88	-2
963.608	0
964.336	-2
965.064	2
965.792	0
966.52	1
967.247	-2
967.975	0
968.703	0
969.43	2
970.158	1
970.885	2
971.613	0
972.34	-3
973.067	0
973.794	1
974.521	-1
975.248	-1
975.975	0
976.702	0
977.429	1
978.156	2
978.882	-2
979.609	0
980.335	2
981.062	-1
981.788	-1
982.514	1
983.24	1
983.967	-1
984.693	1
985.419	0
986.144	1
986.87	1
987.596	-1
988.322	-1
989.047	-1
989.773	0
990.498	0
991.224	1
991.949	0
992.674	-3
993.399	1
994.124	0
994.849	0
995.574	0
996.299	-2
997.024	-2
997.749	-1
998.473	0
999.198	-2
999.922	0
1000.647	-2
1001.371	4
1002.095	-2
1002.82	-1
1003.544	-1
1004.268	-2
1004.992	0
1005.716	-1
1006.439	-2
1007.163	-2
1007.887	1
1008.611	-1
1009.334	1
1010.058	-1
1010.781	-3
1011.504	1
1012.228	-1
1012.951	2
1013.674	0
1014.397	-2
1015.12	0
