节点500_145_QEPB04081__407__11-35-28-555.txt的数据

Date: Wed Nov 12 11:35:28 CST 2025
User: PC
Spectrometer: QEPB0408
触发模式: 0
积分时间 (秒): 1.000000E-2
Scans to average: 1
启用暗噪声校正: true
启用非线性校正: false
滑动平均宽度: 0
X轴模式: Wavelengths
Number of Pixels in Spectrum: 1044
>>>>>Begin Spectral Data<<<<<
220.843	0.75
221.644	-0.25
222.444	-3.25
223.244	-0.25
224.045	-2.25
224.845	-0.25
225.645	0.75
226.445	-1.25
227.245	-0.25
228.045	-0.25
228.845	0.75
229.645	-0.25
230.444	-1.25
231.244	-0.25
232.043	0.75
232.843	-0.25
233.642	-2.25
234.442	-0.25
235.241	0.75
236.04	0.75
236.839	0.75
237.638	0.75
238.437	1.75
239.236	0.75
240.035	1.75
240.833	-0.25
241.632	0.75
242.43	-0.25
243.229	-0.25
244.027	-1.25
244.826	-0.25
245.624	0.75
246.422	-0.25
247.22	1.75
248.018	1.75
248.816	2.75
249.614	1.75
250.412	1.75
251.21	1.75
252.007	1.75
252.805	3.75
253.602	1.75
254.4	0.75
255.197	1.75
255.994	1.75
256.791	2.75
257.589	2.75
258.386	1.75
259.183	4.75
259.979	3.75
260.776	3.75
261.573	1.75
262.37	6.75
263.166	2.75
263.963	6.75
264.759	4.75
265.556	5.75
266.352	1.75
267.148	4.75
267.944	3.75
268.74	5.75
269.536	6.75
270.332	6.75
271.128	6.75
271.924	6.75
272.719	5.75
273.515	6.75
274.311	5.75
275.106	6.75
275.901	7.75
276.697	8.75
277.492	8.75
278.287	9.75
279.082	10.75
279.877	8.75
280.672	7.75
281.467	8.75
282.262	8.75
283.056	8.75
283.851	8.75
284.646	7.75
285.44	8.75
286.234	6.75
287.029	10.75
287.823	10.75
288.617	9.75
289.411	9.75
290.205	8.75
290.999	8.75
291.793	8.75
292.587	9.75
293.381	8.75
294.174	9.75
294.968	10.75
295.761	8.75
296.555	9.75
297.348	7.75
298.141	8.75
298.935	10.75
299.728	9.75
300.521	10.75
301.314	11.75
302.107	9.75
302.899	8.75
303.692	8.75
304.485	7.75
305.277	6.75
306.07	8.75
306.862	5.75
307.655	6.75
308.447	6.75
309.239	7.75
310.031	7.75
310.823	5.75
311.615	6.75
312.407	7.75
313.199	5.75
313.991	5.75
314.783	3.75
315.574	5.75
316.366	6.75
317.157	5.75
317.949	2.75
318.74	6.75
319.531	6.75
320.322	2.75
321.113	4.75
321.904	3.75
322.695	5.75
323.486	4.75
324.277	3.75
325.068	3.75
325.858	2.75
326.649	2.75
327.439	3.75
328.23	3.75
329.02	3.75
329.81	2.75
330.6	1.75
331.391	3.75
332.181	2.75
332.971	3.75
333.76	3.75
334.55	2.75
335.34	2.75
336.13	1.75
336.919	2.75
337.709	4.75
338.498	4.75
339.287	2.75
340.077	3.75
340.866	1.75
341.655	4.75
342.444	2.75
343.233	3.75
344.022	4.75
344.811	2.75
345.6	2.75
346.388	4.75
347.177	2.75
347.965	1.75
348.754	4.75
349.542	0.75
350.33	0.75
351.119	2.75
351.907	2.75
352.695	1.75
353.483	3.75
354.271	2.75
355.059	1.75
355.846	3.75
356.634	0.75
357.422	3.75
358.209	4.75
358.997	2.75
359.784	0.75
360.571	2.75
361.359	2.75
362.146	1.75
362.933	0.75
363.72	2.75
364.507	1.75
365.294	3.75
366.081	2.75
366.867	2.75
367.654	-0.25
368.44	2.75
369.227	3.75
370.013	1.75
370.8	1.75
371.586	3.75
372.372	2.75
373.158	1.75
373.944	1.75
374.73	0.75
375.516	4.75
376.302	3.75
377.088	1.75
377.873	-0.25
378.659	0.75
379.445	2.75
380.23	1.75
381.015	2.75
381.801	2.75
382.586	1.75
383.371	2.75
384.156	-0.25
384.941	2.75
385.726	4.75
386.511	1.75
387.296	3.75
388.08	2.75
388.865	2.75
389.649	2.75
390.434	2.75
391.218	1.75
392.003	2.75
392.787	0.75
393.571	1.75
394.355	4.75
395.139	2.75
395.923	4.75
396.707	3.75
397.491	3.75
398.274	1.75
399.058	2.75
399.842	2.75
400.625	3.75
401.408	3.75
402.192	3.75
402.975	6.75
403.758	0.75
404.541	0.75
405.324	2.75
406.107	3.75
406.89	3.75
407.673	1.75
408.456	1.75
409.238	4.75
410.021	3.75
410.803	5.75
411.586	2.75
412.368	2.75
413.151	3.75
413.933	2.75
414.715	3.75
415.497	4.75
416.279	5.75
417.061	4.75
417.843	4.75
418.624	6.75
419.406	4.75
420.188	4.75
420.969	3.75
421.751	6.75
422.532	4.75
423.313	6.75
424.095	5.75
424.876	4.75
425.657	4.75
426.438	5.75
427.219	6.75
428	4.75
428.78	5.75
429.561	8.75
430.342	7.75
431.122	7.75
431.903	6.75
432.683	6.75
433.464	6.75
434.244	5.75
435.024	7.75
435.804	7.75
436.584	7.75
437.364	7.75
438.144	11.75
438.924	8.75
439.704	9.75
440.483	11.75
441.263	9.75
442.042	13.75
442.822	12.75
443.601	14.75
444.38	12.75
445.16	16.75
445.939	16.75
446.718	17.75
447.497	16.75
448.276	20.75
449.054	21.75
449.833	20.75
450.612	25.75
451.391	28.75
452.169	28.75
452.948	33.75
453.726	34.75
454.504	38.75
455.282	40.75
456.061	44.75
456.839	47.75
457.617	54.75
458.395	61.75
459.172	69.75
459.95	76.75
460.728	81.75
461.506	100.75
462.283	104.75
463.061	114.75
463.838	130.75
464.615	140.75
465.393	163.75
466.17	182.75
466.947	198.75
467.724	218.75
468.501	261.75
469.278	278.75
470.055	317.75
470.831	345.75
471.608	390.75
472.385	426.75
473.161	477.75
473.938	517.75
474.714	578.75
475.49	631.75
476.266	708.75
477.043	779.75
477.819	876.75
478.595	947.75
479.371	1048.75
480.146	1156.75
480.922	1279.75
481.698	1401.75
482.473	1543.75
483.249	1705.75
484.024	1869.75
484.8	2057.75
485.575	2254.75
486.35	2496.75
487.126	2711.75
487.901	2982.75
488.676	3296.75
489.451	3598.75
490.225	3954.75
491	4334.75
491.775	4750.75
492.55	5167.75
493.324	5683.75
494.099	6204.75
494.873	6754.75
495.647	7361.75
496.422	7966.75
497.196	8591.75
497.97	9307.75
498.744	9990.75
499.518	10715.75
500.292	11389.75
501.066	12110.75
501.839	12803.75
502.613	13409.75
503.387	14035.75
504.16	14600.75
504.934	15059.75
505.707	15409.75
506.48	15714.75
507.253	15911.75
508.027	16081.75
508.8	16068.75
509.573	15958.75
510.346	15832.75
511.118	15511.75
511.891	15192.75
512.664	14755.75
513.437	14336.75
514.209	13840.75
514.982	13311.75
515.754	12788.75
516.526	12258.75
517.298	11684.75
518.071	11199.75
518.843	10726.75
519.615	10312.75
520.387	9838.75
521.159	9482.75
521.93	9073.75
522.702	8725.75
523.474	8362.75
524.245	8053.75
525.017	7695.75
525.788	7399.75
526.56	7117.75
527.331	6807.75
528.102	6526.75
528.873	6231.75
529.644	5960.75
530.415	5704.75
531.186	5452.75
531.957	5172.75
532.728	4914.75
533.498	4643.75
534.269	4406.75
535.039	4162.75
535.81	3940.75
536.58	3738.75
537.351	3525.75
538.121	3350.75
538.891	3138.75
539.661	2964.75
540.431	2817.75
541.201	2660.75
541.971	2519.75
542.741	2398.75
543.51	2278.75
544.28	2150.75
545.05	2045.75
545.819	1938.75
546.588	1844.75
547.358	1747.75
548.127	1657.75
548.896	1584.75
549.665	1517.75
550.434	1431.75
551.203	1353.75
551.972	1282.75
552.741	1204.75
553.51	1145.75
554.278	1088.75
555.047	1043.75
555.815	970.75
556.584	917.75
557.352	865.75
558.121	811.75
558.889	769.75
559.657	720.75
560.425	680.75
561.193	650.75
561.961	611.75
562.729	573.75
563.496	543.75
564.264	515.75
565.032	480.75
565.799	456.75
566.567	433.75
567.334	410.75
568.101	387.75
568.869	356.75
569.636	345.75
570.403	321.75
571.17	316.75
571.937	288.75
572.704	269.75
573.471	261.75
574.237	250.75
575.004	223.75
575.771	217.75
576.537	198.75
577.303	191.75
578.07	180.75
578.836	164.75
579.602	156.75
580.368	152.75
581.134	139.75
581.9	131.75
582.666	129.75
583.432	119.75
584.198	114.75
584.964	110.75
585.729	102.75
586.495	97.75
587.26	89.75
588.025	81.75
588.791	81.75
589.556	75.75
590.321	70.75
591.086	65.75
591.851	63.75
592.616	62.75
593.381	60.75
594.146	54.75
594.911	55.75
595.675	50.75
596.44	50.75
597.204	46.75
597.969	42.75
598.733	40.75
599.497	38.75
600.261	36.75
601.025	34.75
601.79	32.75
602.553	32.75
603.317	31.75
604.081	26.75
604.845	29.75
605.609	24.75
606.372	26.75
607.136	24.75
607.899	22.75
608.662	26.75
609.426	20.75
610.189	19.75
610.952	19.75
611.715	17.75
612.478	15.75
613.241	18.75
614.004	13.75
614.767	14.75
615.529	17.75
616.292	14.75
617.055	14.75
617.817	13.75
618.579	14.75
619.342	11.75
620.104	10.75
620.866	13.75
621.628	10.75
622.39	9.75
623.152	12.75
623.914	12.75
624.676	9.75
625.438	9.75
626.199	11.75
626.961	7.75
627.722	8.75
628.484	9.75
629.245	7.75
630.006	7.75
630.768	5.75
631.529	6.75
632.29	6.75
633.051	7.75
633.812	5.75
634.573	5.75
635.333	4.75
636.094	5.75
636.855	4.75
637.615	3.75
638.376	3.75
639.136	4.75
639.896	4.75
640.657	3.75
641.417	2.75
642.177	5.75
642.937	3.75
643.697	5.75
644.457	3.75
645.216	5.75
645.976	1.75
646.736	4.75
647.495	4.75
648.255	4.75
649.014	3.75
649.774	2.75
650.533	3.75
651.292	2.75
652.051	1.75
652.81	2.75
653.569	0.75
654.328	2.75
655.087	2.75
655.846	3.75
656.604	3.75
657.363	0.75
658.121	2.75
658.88	2.75
659.638	3.75
660.397	0.75
661.155	2.75
661.913	2.75
662.671	2.75
663.429	0.75
664.187	2.75
664.945	2.75
665.703	0.75
666.46	0.75
667.218	2.75
667.976	-0.25
668.733	1.75
669.49	2.75
670.248	-0.25
671.005	1.75
671.762	1.75
672.519	4.75
673.276	1.75
674.033	0.75
674.79	1.75
675.547	1.75
676.304	1.75
677.06	1.75
677.817	1.75
678.574	-0.25
679.33	2.75
680.086	3.75
680.843	2.75
681.599	3.75
682.355	0.75
683.111	1.75
683.867	3.75
684.623	2.75
685.379	1.75
686.135	3.75
686.89	2.75
687.646	0.75
688.402	2.75
689.157	-0.25
689.912	0.75
690.668	1.75
691.423	1.75
692.178	2.75
692.933	3.75
693.688	2.75
694.443	-1.25
695.198	2.75
695.953	1.75
696.708	1.75
697.462	2.75
698.217	0.75
698.972	1.75
699.726	-0.25
700.48	1.75
701.235	0.75
701.989	0.75
702.743	1.75
703.497	1.75
704.251	0.75
705.005	1.75
705.759	0.75
706.513	0.75
707.266	1.75
708.02	1.75
708.774	1.75
709.527	0.75
710.28	0.75
711.034	-2.25
711.787	1.75
712.54	0.75
713.293	-0.25
714.046	-1.25
714.799	-0.25
715.552	0.75
716.305	1.75
717.058	1.75
717.81	0.75
718.563	0.75
719.315	0.75
720.068	1.75
720.82	0.75
721.573	-0.25
722.325	1.75
723.077	-0.25
723.829	1.75
724.581	0.75
725.333	1.75
726.085	0.75
726.836	1.75
727.588	3.75
728.34	0.75
729.091	0.75
729.843	-1.25
730.594	1.75
731.346	0.75
732.097	-0.25
732.848	2.75
733.599	0.75
734.35	2.75
735.101	1.75
735.852	3.75
736.603	0.75
737.354	1.75
738.104	1.75
738.855	1.75
739.605	0.75
740.356	0.75
741.106	1.75
741.856	1.75
742.607	2.75
743.357	1.75
744.107	4.75
744.857	0.75
745.607	0.75
746.357	2.75
747.106	1.75
747.856	2.75
748.606	0.75
749.355	-0.25
750.105	1.75
750.854	1.75
751.603	1.75
752.353	2.75
753.102	1.75
753.851	1.75
754.6	1.75
755.349	1.75
756.098	0.75
756.847	5.75
757.595	-0.25
758.344	2.75
759.093	2.75
759.841	1.75
760.589	2.75
761.338	2.75
762.086	2.75
762.834	-0.25
763.582	1.75
764.331	3.75
765.079	3.75
765.826	4.75
766.574	3.75
767.322	1.75
768.07	2.75
768.817	2.75
769.565	2.75
770.312	3.75
771.06	2.75
771.807	4.75
772.554	3.75
773.302	4.75
774.049	3.75
774.796	0.75
775.543	2.75
776.29	1.75
777.036	2.75
777.783	3.75
778.53	3.75
779.276	5.75
780.023	4.75
780.769	2.75
781.516	4.75
782.262	4.75
783.008	4.75
783.754	6.75
784.5	6.75
785.246	3.75
785.992	4.75
786.738	5.75
787.484	3.75
788.23	6.75
788.975	3.75
789.721	2.75
790.466	4.75
791.212	1.75
791.957	2.75
792.702	3.75
793.447	3.75
794.193	5.75
794.938	3.75
795.683	3.75
796.427	3.75
797.172	3.75
797.917	4.75
798.662	5.75
799.406	3.75
800.151	2.75
800.895	4.75
801.64	5.75
802.384	2.75
803.128	2.75
803.872	2.75
804.616	3.75
805.36	3.75
806.104	1.75
806.848	2.75
807.592	4.75
808.336	4.75
809.079	4.75
809.823	2.75
810.566	4.75
811.31	1.75
812.053	2.75
812.796	3.75
813.539	2.75
814.283	3.75
815.026	2.75
815.769	3.75
816.511	2.75
817.254	0.75
817.997	5.75
818.74	2.75
819.482	1.75
820.225	2.75
820.967	2.75
821.71	1.75
822.452	0.75
823.194	3.75
823.936	1.75
824.678	4.75
825.42	2.75
826.162	0.75
826.904	1.75
827.646	0.75
828.388	0.75
829.129	1.75
829.871	0.75
830.612	1.75
831.354	5.75
832.095	1.75
832.836	2.75
833.577	1.75
834.319	-1.25
835.06	1.75
835.801	0.75
836.542	0.75
837.282	3.75
838.023	-0.25
838.764	2.75
839.504	1.75
840.245	1.75
840.985	3.75
841.726	-2.25
842.466	0.75
843.206	2.75
843.946	1.75
844.687	0.75
845.427	0.75
846.166	2.75
846.906	1.75
847.646	1.75
848.386	2.75
849.125	2.75
849.865	0.75
850.605	2.75
851.344	0.75
852.083	1.75
852.823	1.75
853.562	-0.25
854.301	0.75
855.04	-0.25
855.779	0.75
856.518	2.75
857.257	-0.25
857.995	-0.25
858.734	1.75
859.473	1.75
860.211	0.75
860.95	1.75
861.688	-1.25
862.426	0.75
863.165	2.75
863.903	2.75
864.641	3.75
865.379	-0.25
866.117	-1.25
866.855	1.75
867.593	1.75
868.33	0.75
869.068	-0.25
869.806	0.75
870.543	-0.25
871.28	0.75
872.018	-2.25
872.755	-0.25
873.492	0.75
874.229	-0.25
874.967	0.75
875.703	-0.25
876.44	-0.25
877.177	0.75
877.914	-1.25
878.651	-0.25
879.387	0.75
880.124	0.75
880.86	2.75
881.597	-0.25
882.333	-0.25
883.069	-3.25
883.806	0.75
884.542	1.75
885.278	0.75
886.014	-0.25
886.749	-0.25
887.485	0.75
888.221	-1.25
888.957	-1.25
889.692	0.75
890.428	-0.25
891.163	0.75
891.899	-1.25
892.634	-0.25
893.369	0.75
894.104	-0.25
894.839	1.75
895.574	-1.25
896.309	-0.25
897.044	-1.25
897.779	1.75
898.514	-2.25
899.248	-0.25
899.983	-1.25
900.717	0.75
901.452	-0.25
902.186	-2.25
902.92	1.75
903.654	-4.25
904.389	-1.25
905.123	-2.25
905.857	-2.25
906.59	-0.25
907.324	0.75
908.058	2.75
908.792	-1.25
909.525	-0.25
910.259	-0.25
910.992	-2.25
911.726	-0.25
912.459	0.75
913.192	-0.25
913.925	-1.25
914.658	-0.25
915.391	-1.25
916.124	-2.25
916.857	0.75
917.59	-2.25
918.323	0.75
919.055	-1.25
919.788	-2.25
920.521	-2.25
921.253	-2.25
921.985	1.75
922.718	-0.25
923.45	-1.25
924.182	-2.25
924.914	-0.25
925.646	-1.25
926.378	-0.25
927.11	-1.25
927.841	-1.25
928.573	-2.25
929.305	-1.25
930.036	-1.25
930.768	-1.25
931.499	0.75
932.23	-1.25
932.962	-0.25
933.693	-3.25
934.424	0.75
935.155	-0.25
935.886	-3.25
936.617	0.75
937.348	1.75
938.078	-1.25
938.809	0.75
939.54	-0.25
940.27	2.75
941.001	-2.25
941.731	1.75
942.461	0.75
943.191	1.75
943.922	-0.25
944.652	-2.25
945.382	0.75
946.112	-0.25
946.841	-2.25
947.571	0.75
948.301	-2.25
949.031	-1.25
949.76	-0.25
950.49	-2.25
951.219	-1.25
951.948	-2.25
952.678	-2.25
953.407	0.75
954.136	-1.25
954.865	0.75
955.594	-2.25
956.323	0.75
957.052	-0.25
957.78	0.75
958.509	-1.25
959.238	0.75
959.966	-0.25
960.695	-0.25
961.423	-1.25
962.151	-3.25
962.88	0.75
963.608	-0.25
964.336	-0.25
965.064	-0.25
965.792	-2.25
966.52	0.75
967.247	-0.25
967.975	-0.25
968.703	1.75
969.43	1.75
970.158	-0.25
970.885	-2.25
971.613	-0.25
972.34	-2.25
973.067	-2.25
973.794	-0.25
974.521	1.75
975.248	0.75
975.975	0.75
976.702	1.75
977.429	-1.25
978.156	1.75
978.882	-0.25
979.609	0.75
980.335	-1.25
981.062	0.75
981.788	0.75
982.514	0.75
983.24	-1.25
983.967	-0.25
984.693	-1.25
985.419	-0.25
986.144	-1.25
986.87	0.75
987.596	-0.25
988.322	-0.25
989.047	0.75
989.773	1.75
990.498	0.75
991.224	-3.25
991.949	0.75
992.674	-0.25
993.399	0.75
994.124	-1.25
994.849	-0.25
995.574	1.75
996.299	-1.25
997.024	0.75
997.749	-1.25
998.473	-0.25
999.198	-0.25
999.922	0.75
1000.647	-0.25
1001.371	3.75
1002.095	-2.25
1002.82	-1.25
1003.544	1.75
1004.268	-0.25
1004.992	-2.25
1005.716	0.75
1006.439	-1.25
1007.163	-0.25
1007.887	-1.25
1008.611	0.75
1009.334	2.75
1010.058	-1.25
1010.781	-0.25
1011.504	-0.25
1012.228	-0.25
1012.951	-0.25
1013.674	-0.25
1014.397	0.75
1015.12	-2.25
