节点500_145_QEPB04081__384__11-35-05-596.txt的数据

Date: Wed Nov 12 11:35:05 CST 2025
User: PC
Spectrometer: QEPB0408
触发模式: 0
积分时间 (秒): 1.000000E-2
Scans to average: 1
启用暗噪声校正: true
启用非线性校正: false
滑动平均宽度: 0
X轴模式: Wavelengths
Number of Pixels in Spectrum: 1044
>>>>>Begin Spectral Data<<<<<
220.843	-1.75
221.644	-0.75
222.444	0.25
223.244	-1.75
224.045	1.25
224.845	1.25
225.645	0.25
226.445	-1.75
227.245	0.25
228.045	1.25
228.845	0.25
229.645	1.25
230.444	1.25
231.244	3.25
232.043	4.25
232.843	2.25
233.642	1.25
234.442	0.25
235.241	-0.75
236.04	3.25
236.839	-0.75
237.638	1.25
238.437	1.25
239.236	1.25
240.035	1.25
240.833	-0.75
241.632	1.25
242.43	2.25
243.229	3.25
244.027	1.25
244.826	1.25
245.624	2.25
246.422	1.25
247.22	-0.75
248.018	2.25
248.816	1.25
249.614	2.25
250.412	1.25
251.21	2.25
252.007	1.25
252.805	3.25
253.602	1.25
254.4	3.25
255.197	2.25
255.994	3.25
256.791	4.25
257.589	2.25
258.386	5.25
259.183	4.25
259.979	7.25
260.776	3.25
261.573	5.25
262.37	3.25
263.166	3.25
263.963	6.25
264.759	5.25
265.556	5.25
266.352	7.25
267.148	5.25
267.944	5.25
268.74	5.25
269.536	8.25
270.332	7.25
271.128	8.25
271.924	7.25
272.719	9.25
273.515	7.25
274.311	8.25
275.106	8.25
275.901	7.25
276.697	11.25
277.492	10.25
278.287	10.25
279.082	8.25
279.877	8.25
280.672	7.25
281.467	10.25
282.262	10.25
283.056	11.25
283.851	10.25
284.646	11.25
285.44	9.25
286.234	9.25
287.029	12.25
287.823	8.25
288.617	11.25
289.411	12.25
290.205	10.25
290.999	13.25
291.793	11.25
292.587	10.25
293.381	10.25
294.174	12.25
294.968	10.25
295.761	10.25
296.555	10.25
297.348	8.25
298.141	9.25
298.935	8.25
299.728	9.25
300.521	8.25
301.314	9.25
302.107	7.25
302.899	6.25
303.692	7.25
304.485	7.25
305.277	6.25
306.07	5.25
306.862	5.25
307.655	9.25
308.447	9.25
309.239	7.25
310.031	6.25
310.823	6.25
311.615	8.25
312.407	6.25
313.199	5.25
313.991	7.25
314.783	9.25
315.574	8.25
316.366	4.25
317.157	3.25
317.949	4.25
318.74	5.25
319.531	5.25
320.322	3.25
321.113	7.25
321.904	4.25
322.695	6.25
323.486	5.25
324.277	4.25
325.068	5.25
325.858	3.25
326.649	3.25
327.439	3.25
328.23	4.25
329.02	3.25
329.81	2.25
330.6	4.25
331.391	3.25
332.181	2.25
332.971	3.25
333.76	3.25
334.55	2.25
335.34	1.25
336.13	4.25
336.919	1.25
337.709	5.25
338.498	3.25
339.287	4.25
340.077	3.25
340.866	2.25
341.655	7.25
342.444	4.25
343.233	2.25
344.022	3.25
344.811	1.25
345.6	5.25
346.388	2.25
347.177	5.25
347.965	4.25
348.754	5.25
349.542	1.25
350.33	4.25
351.119	3.25
351.907	1.25
352.695	2.25
353.483	2.25
354.271	1.25
355.059	2.25
355.846	4.25
356.634	2.25
357.422	3.25
358.209	2.25
358.997	1.25
359.784	0.25
360.571	1.25
361.359	2.25
362.146	3.25
362.933	-0.75
363.72	2.25
364.507	1.25
365.294	4.25
366.081	1.25
366.867	3.25
367.654	2.25
368.44	2.25
369.227	2.25
370.013	1.25
370.8	2.25
371.586	4.25
372.372	5.25
373.158	2.25
373.944	3.25
374.73	4.25
375.516	4.25
376.302	2.25
377.088	1.25
377.873	2.25
378.659	0.25
379.445	2.25
380.23	2.25
381.015	1.25
381.801	2.25
382.586	2.25
383.371	2.25
384.156	3.25
384.941	2.25
385.726	2.25
386.511	2.25
387.296	2.25
388.08	2.25
388.865	4.25
389.649	4.25
390.434	3.25
391.218	4.25
392.003	1.25
392.787	1.25
393.571	4.25
394.355	2.25
395.139	2.25
395.923	1.25
396.707	4.25
397.491	2.25
398.274	2.25
399.058	3.25
399.842	4.25
400.625	4.25
401.408	2.25
402.192	7.25
402.975	4.25
403.758	4.25
404.541	6.25
405.324	1.25
406.107	3.25
406.89	3.25
407.673	5.25
408.456	2.25
409.238	5.25
410.021	4.25
410.803	4.25
411.586	4.25
412.368	5.25
413.151	5.25
413.933	3.25
414.715	5.25
415.497	6.25
416.279	5.25
417.061	4.25
417.843	4.25
418.624	7.25
419.406	5.25
420.188	6.25
420.969	6.25
421.751	3.25
422.532	4.25
423.313	5.25
424.095	5.25
424.876	7.25
425.657	6.25
426.438	3.25
427.219	5.25
428	5.25
428.78	5.25
429.561	8.25
430.342	7.25
431.122	6.25
431.903	8.25
432.683	8.25
433.464	11.25
434.244	8.25
435.024	8.25
435.804	12.25
436.584	8.25
437.364	10.25
438.144	8.25
438.924	12.25
439.704	10.25
440.483	11.25
441.263	12.25
442.042	11.25
442.822	13.25
443.601	13.25
444.38	16.25
445.16	14.25
445.939	17.25
446.718	20.25
447.497	18.25
448.276	22.25
449.054	23.25
449.833	25.25
450.612	23.25
451.391	29.25
452.169	30.25
452.948	32.25
453.726	36.25
454.504	41.25
455.282	44.25
456.061	41.25
456.839	52.25
457.617	55.25
458.395	61.25
459.172	71.25
459.95	74.25
460.728	84.25
461.506	91.25
462.283	106.25
463.061	116.25
463.838	136.25
464.615	145.25
465.393	163.25
466.17	181.25
466.947	199.25
467.724	223.25
468.501	249.25
469.278	280.25
470.055	311.25
470.831	342.25
471.608	378.25
472.385	420.25
473.161	469.25
473.938	523.25
474.714	577.25
475.49	634.25
476.266	699.25
477.043	769.25
477.819	854.25
478.595	947.25
479.371	1034.25
480.146	1166.25
480.922	1281.25
481.698	1393.25
482.473	1538.25
483.249	1719.25
484.024	1873.25
484.8	2043.25
485.575	2251.25
486.35	2478.25
487.126	2741.25
487.901	2997.25
488.676	3281.25
489.451	3605.25
490.225	3980.25
491	4354.25
491.775	4775.25
492.55	5217.25
493.324	5676.25
494.099	6205.25
494.873	6773.25
495.647	7387.25
496.422	8022.25
497.196	8667.25
497.97	9350.25
498.744	10032.25
499.518	10793.25
500.292	11473.25
501.066	12220.25
501.839	12848.25
502.613	13487.25
503.387	14142.25
504.16	14681.25
504.934	15180.25
505.707	15533.25
506.48	15778.25
507.253	16070.25
508.027	16203.25
508.8	16113.25
509.573	16016.25
510.346	15890.25
511.118	15572.25
511.891	15211.25
512.664	14798.25
513.437	14315.25
514.209	13838.25
514.982	13293.25
515.754	12762.25
516.526	12214.25
517.298	11699.25
518.071	11156.25
518.843	10673.25
519.615	10242.25
520.387	9839.25
521.159	9474.25
521.93	9071.25
522.702	8704.25
523.474	8367.25
524.245	8037.25
525.017	7702.25
525.788	7388.25
526.56	7099.25
527.331	6814.25
528.102	6531.25
528.873	6211.25
529.644	5978.25
530.415	5667.25
531.186	5415.25
531.957	5127.25
532.728	4923.25
533.498	4628.25
534.269	4377.25
535.039	4180.25
535.81	3933.25
536.58	3729.25
537.351	3516.25
538.121	3318.25
538.891	3142.25
539.661	2938.25
540.431	2787.25
541.201	2669.25
541.971	2490.25
542.741	2392.25
543.51	2261.25
544.28	2151.25
545.05	2029.25
545.819	1942.25
546.588	1839.25
547.358	1752.25
548.127	1658.25
548.896	1579.25
549.665	1505.25
550.434	1441.25
551.203	1342.25
551.972	1278.25
552.741	1210.25
553.51	1149.25
554.278	1080.25
555.047	1032.25
555.815	967.25
556.584	915.25
557.352	861.25
558.121	816.25
558.889	756.25
559.657	731.25
560.425	672.25
561.193	642.25
561.961	601.25
562.729	574.25
563.496	544.25
564.264	510.25
565.032	475.25
565.799	457.25
566.567	437.25
567.334	404.25
568.101	382.25
568.869	365.25
569.636	343.25
570.403	326.25
571.17	307.25
571.937	280.25
572.704	268.25
573.471	256.25
574.237	237.25
575.004	228.25
575.771	210.25
576.537	202.25
577.303	192.25
578.07	175.25
578.836	166.25
579.602	153.25
580.368	151.25
581.134	137.25
581.9	133.25
582.666	132.25
583.432	121.25
584.198	117.25
584.964	103.25
585.729	98.25
586.495	93.25
587.26	93.25
588.025	85.25
588.791	82.25
589.556	73.25
590.321	73.25
591.086	70.25
591.851	64.25
592.616	63.25
593.381	61.25
594.146	55.25
594.911	53.25
595.675	52.25
596.44	49.25
597.204	45.25
597.969	42.25
598.733	43.25
599.497	42.25
600.261	37.25
601.025	37.25
601.79	32.25
602.553	31.25
603.317	33.25
604.081	32.25
604.845	28.25
605.609	29.25
606.372	25.25
607.136	26.25
607.899	25.25
608.662	23.25
609.426	22.25
610.189	18.25
610.952	22.25
611.715	17.25
612.478	18.25
613.241	17.25
614.004	19.25
614.767	18.25
615.529	14.25
616.292	16.25
617.055	13.25
617.817	14.25
618.579	15.25
619.342	15.25
620.104	11.25
620.866	11.25
621.628	13.25
622.39	12.25
623.152	11.25
623.914	11.25
624.676	10.25
625.438	11.25
626.199	12.25
626.961	8.25
627.722	6.25
628.484	7.25
629.245	10.25
630.006	9.25
630.768	8.25
631.529	5.25
632.29	9.25
633.051	6.25
633.812	7.25
634.573	8.25
635.333	6.25
636.094	7.25
636.855	6.25
637.615	6.25
638.376	6.25
639.136	6.25
639.896	3.25
640.657	4.25
641.417	6.25
642.177	3.25
642.937	5.25
643.697	5.25
644.457	4.25
645.216	5.25
645.976	5.25
646.736	5.25
647.495	4.25
648.255	5.25
649.014	4.25
649.774	5.25
650.533	3.25
651.292	4.25
652.051	4.25
652.81	3.25
653.569	3.25
654.328	2.25
655.087	4.25
655.846	5.25
656.604	3.25
657.363	5.25
658.121	2.25
658.88	4.25
659.638	3.25
660.397	6.25
661.155	2.25
661.913	2.25
662.671	3.25
663.429	2.25
664.187	3.25
664.945	0.25
665.703	1.25
666.46	2.25
667.218	4.25
667.976	3.25
668.733	2.25
669.49	3.25
670.248	5.25
671.005	3.25
671.762	3.25
672.519	2.25
673.276	2.25
674.033	3.25
674.79	3.25
675.547	2.25
676.304	2.25
677.06	0.25
677.817	0.25
678.574	3.25
679.33	2.25
680.086	2.25
680.843	1.25
681.599	0.25
682.355	3.25
683.111	3.25
683.867	1.25
684.623	1.25
685.379	3.25
686.135	3.25
686.89	4.25
687.646	1.25
688.402	3.25
689.157	0.25
689.912	1.25
690.668	2.25
691.423	3.25
692.178	2.25
692.933	4.25
693.688	1.25
694.443	3.25
695.198	0.25
695.953	2.25
696.708	1.25
697.462	1.25
698.217	3.25
698.972	0.25
699.726	2.25
700.48	0.25
701.235	3.25
701.989	2.25
702.743	2.25
703.497	0.25
704.251	2.25
705.005	2.25
705.759	1.25
706.513	1.25
707.266	3.25
708.02	2.25
708.774	2.25
709.527	1.25
710.28	1.25
711.034	1.25
711.787	2.25
712.54	1.25
713.293	2.25
714.046	2.25
714.799	3.25
715.552	4.25
716.305	2.25
717.058	2.25
717.81	2.25
718.563	2.25
719.315	1.25
720.068	1.25
720.82	1.25
721.573	-0.75
722.325	2.25
723.077	0.25
723.829	2.25
724.581	2.25
725.333	1.25
726.085	2.25
726.836	2.25
727.588	3.25
728.34	2.25
729.091	2.25
729.843	3.25
730.594	3.25
731.346	2.25
732.097	2.25
732.848	1.25
733.599	2.25
734.35	1.25
735.101	1.25
735.852	2.25
736.603	4.25
737.354	1.25
738.104	2.25
738.855	0.25
739.605	2.25
740.356	3.25
741.106	3.25
741.856	3.25
742.607	2.25
743.357	4.25
744.107	2.25
744.857	1.25
745.607	3.25
746.357	-0.75
747.106	2.25
747.856	3.25
748.606	3.25
749.355	3.25
750.105	3.25
750.854	2.25
751.603	0.25
752.353	1.25
753.102	2.25
753.851	2.25
754.6	4.25
755.349	1.25
756.098	2.25
756.847	1.25
757.595	3.25
758.344	3.25
759.093	5.25
759.841	4.25
760.589	4.25
761.338	2.25
762.086	2.25
762.834	4.25
763.582	2.25
764.331	4.25
765.079	3.25
765.826	3.25
766.574	5.25
767.322	2.25
768.07	3.25
768.817	4.25
769.565	5.25
770.312	4.25
771.06	3.25
771.807	6.25
772.554	6.25
773.302	5.25
774.049	5.25
774.796	4.25
775.543	3.25
776.29	3.25
777.036	8.25
777.783	5.25
778.53	7.25
779.276	3.25
780.023	1.25
780.769	4.25
781.516	4.25
782.262	3.25
783.008	6.25
783.754	5.25
784.5	2.25
785.246	3.25
785.992	2.25
786.738	5.25
787.484	5.25
788.23	7.25
788.975	3.25
789.721	5.25
790.466	3.25
791.212	4.25
791.957	5.25
792.702	5.25
793.447	6.25
794.193	6.25
794.938	5.25
795.683	2.25
796.427	5.25
797.172	7.25
797.917	5.25
798.662	7.25
799.406	4.25
800.151	4.25
800.895	1.25
801.64	3.25
802.384	3.25
803.128	2.25
803.872	5.25
804.616	5.25
805.36	4.25
806.104	4.25
806.848	4.25
807.592	2.25
808.336	3.25
809.079	7.25
809.823	4.25
810.566	5.25
811.31	5.25
812.053	4.25
812.796	1.25
813.539	2.25
814.283	2.25
815.026	2.25
815.769	5.25
816.511	4.25
817.254	0.25
817.997	4.25
818.74	3.25
819.482	2.25
820.225	5.25
820.967	2.25
821.71	2.25
822.452	4.25
823.194	3.25
823.936	0.25
824.678	3.25
825.42	2.25
826.162	4.25
826.904	2.25
827.646	3.25
828.388	1.25
829.129	3.25
829.871	0.25
830.612	2.25
831.354	2.25
832.095	0.25
832.836	2.25
833.577	1.25
834.319	3.25
835.06	3.25
835.801	5.25
836.542	3.25
837.282	3.25
838.023	3.25
838.764	3.25
839.504	3.25
840.245	1.25
840.985	2.25
841.726	3.25
842.466	0.25
843.206	0.25
843.946	3.25
844.687	1.25
845.427	1.25
846.166	1.25
846.906	-0.75
847.646	0.25
848.386	3.25
849.125	1.25
849.865	1.25
850.605	1.25
851.344	3.25
852.083	3.25
852.823	1.25
853.562	0.25
854.301	0.25
855.04	-0.75
855.779	2.25
856.518	2.25
857.257	1.25
857.995	1.25
858.734	2.25
859.473	2.25
860.211	1.25
860.95	2.25
861.688	2.25
862.426	2.25
863.165	2.25
863.903	1.25
864.641	2.25
865.379	1.25
866.117	2.25
866.855	0.25
867.593	3.25
868.33	0.25
869.068	1.25
869.806	-0.75
870.543	-0.75
871.28	3.25
872.018	-0.75
872.755	0.25
873.492	1.25
874.229	2.25
874.967	2.25
875.703	3.25
876.44	1.25
877.177	0.25
877.914	1.25
878.651	0.25
879.387	0.25
880.124	2.25
880.86	-1.75
881.597	-0.75
882.333	0.25
883.069	1.25
883.806	2.25
884.542	2.25
885.278	0.25
886.014	-0.75
886.749	1.25
887.485	-1.75
888.221	3.25
888.957	-0.75
889.692	0.25
890.428	2.25
891.163	0.25
891.899	0.25
892.634	0.25
893.369	2.25
894.104	2.25
894.839	-0.75
895.574	0.25
896.309	0.25
897.044	1.25
897.779	0.25
898.514	1.25
899.248	0.25
899.983	1.25
900.717	-1.75
901.452	1.25
902.186	0.25
902.92	0.25
903.654	1.25
904.389	0.25
905.123	-0.75
905.857	-0.75
906.59	0.25
907.324	0.25
908.058	1.25
908.792	-0.75
909.525	1.25
910.259	0.25
910.992	0.25
911.726	-0.75
912.459	-0.75
913.192	-2.75
913.925	0.25
914.658	1.25
915.391	1.25
916.124	0.25
916.857	-1.75
917.59	1.25
918.323	1.25
919.055	-0.75
919.788	-2.75
920.521	0.25
921.253	1.25
921.985	-1.75
922.718	0.25
923.45	1.25
924.182	-0.75
924.914	-0.75
925.646	1.25
926.378	0.25
927.11	-1.75
927.841	0.25
928.573	2.25
929.305	1.25
930.036	2.25
930.768	0.25
931.499	1.25
932.23	-0.75
932.962	1.25
933.693	-1.75
934.424	1.25
935.155	0.25
935.886	-0.75
936.617	-0.75
937.348	0.25
938.078	0.25
938.809	-0.75
939.54	2.25
940.27	2.25
941.001	0.25
941.731	1.25
942.461	-1.75
943.191	-0.75
943.922	-0.75
944.652	-1.75
945.382	0.25
946.112	0.25
946.841	1.25
947.571	-2.75
948.301	-2.75
949.031	-0.75
949.76	1.25
950.49	-0.75
951.219	1.25
951.948	1.25
952.678	-1.75
953.407	0.25
954.136	-0.75
954.865	1.25
955.594	-1.75
956.323	-0.75
957.052	-0.75
957.78	0.25
958.509	2.25
959.238	0.25
959.966	0.25
960.695	0.25
961.423	0.25
962.151	1.25
962.88	0.25
963.608	1.25
964.336	0.25
965.064	0.25
965.792	-0.75
966.52	0.25
967.247	-1.75
967.975	-1.75
968.703	1.25
969.43	1.25
970.158	2.25
970.885	-1.75
971.613	-0.75
972.34	0.25
973.067	-1.75
973.794	0.25
974.521	-0.75
975.248	0.25
975.975	0.25
976.702	-0.75
977.429	0.25
978.156	0.25
978.882	1.25
979.609	0.25
980.335	1.25
981.062	-0.75
981.788	-1.75
982.514	-0.75
983.24	0.25
983.967	0.25
984.693	0.25
985.419	1.25
986.144	1.25
986.87	2.25
987.596	1.25
988.322	-1.75
989.047	0.25
989.773	0.25
990.498	0.25
991.224	-0.75
991.949	-1.75
992.674	2.25
993.399	1.25
994.124	-0.75
994.849	-1.75
995.574	0.25
996.299	0.25
997.024	0.25
997.749	1.25
998.473	0.25
999.198	-0.75
999.922	0.25
1000.647	-1.75
1001.371	4.25
1002.095	-1.75
1002.82	0.25
1003.544	-2.75
1004.268	0.25
1004.992	-1.75
1005.716	-2.75
1006.439	0.25
1007.163	-1.75
1007.887	1.25
1008.611	1.25
1009.334	0.25
1010.058	0.25
1010.781	-0.75
1011.504	0.25
1012.228	0.25
1012.951	-0.75
1013.674	1.25
1014.397	-0.75
1015.12	0.25
