节点500_145_QEPB04081__41__11-29-35-774.txt的数据

Date: Wed Nov 12 11:29:35 CST 2025
User: PC
Spectrometer: QEPB0408
触发模式: 0
积分时间 (秒): 1.000000E-2
Scans to average: 1
启用暗噪声校正: true
启用非线性校正: false
滑动平均宽度: 0
X轴模式: Wavelengths
Number of Pixels in Spectrum: 1044
>>>>>Begin Spectral Data<<<<<
220.843	0.5
221.644	1.5
222.444	-2.5
223.244	-0.5
224.045	0.5
224.845	-0.5
225.645	-0.5
226.445	0.5
227.245	0.5
228.045	1.5
228.845	-0.5
229.645	0.5
230.444	-1.5
231.244	0.5
232.043	-2.5
232.843	-2.5
233.642	3.5
234.442	-0.5
235.241	2.5
236.04	3.5
236.839	1.5
237.638	0.5
238.437	-2.5
239.236	0.5
240.035	0.5
240.833	1.5
241.632	1.5
242.43	3.5
243.229	1.5
244.027	-0.5
244.826	1.5
245.624	0.5
246.422	0.5
247.22	0.5
248.018	0.5
248.816	2.5
249.614	0.5
250.412	1.5
251.21	-1.5
252.007	0.5
252.805	2.5
253.602	1.5
254.4	2.5
255.197	1.5
255.994	4.5
256.791	3.5
257.589	4.5
258.386	3.5
259.183	5.5
259.979	5.5
260.776	4.5
261.573	5.5
262.37	3.5
263.166	6.5
263.963	5.5
264.759	4.5
265.556	7.5
266.352	5.5
267.148	7.5
267.944	6.5
268.74	5.5
269.536	8.5
270.332	6.5
271.128	10.5
271.924	5.5
272.719	11.5
273.515	7.5
274.311	7.5
275.106	9.5
275.901	9.5
276.697	10.5
277.492	8.5
278.287	9.5
279.082	10.5
279.877	9.5
280.672	9.5
281.467	9.5
282.262	12.5
283.056	12.5
283.851	9.5
284.646	12.5
285.44	11.5
286.234	10.5
287.029	9.5
287.823	9.5
288.617	9.5
289.411	10.5
290.205	10.5
290.999	11.5
291.793	10.5
292.587	9.5
293.381	10.5
294.174	9.5
294.968	9.5
295.761	10.5
296.555	9.5
297.348	9.5
298.141	9.5
298.935	10.5
299.728	8.5
300.521	9.5
301.314	8.5
302.107	9.5
302.899	9.5
303.692	5.5
304.485	9.5
305.277	6.5
306.07	7.5
306.862	8.5
307.655	8.5
308.447	7.5
309.239	4.5
310.031	10.5
310.823	3.5
311.615	6.5
312.407	8.5
313.199	5.5
313.991	5.5
314.783	4.5
315.574	6.5
316.366	6.5
317.157	4.5
317.949	5.5
318.74	4.5
319.531	6.5
320.322	5.5
321.113	7.5
321.904	4.5
322.695	4.5
323.486	4.5
324.277	2.5
325.068	4.5
325.858	3.5
326.649	3.5
327.439	1.5
328.23	3.5
329.02	1.5
329.81	0.5
330.6	4.5
331.391	1.5
332.181	1.5
332.971	4.5
333.76	2.5
334.55	4.5
335.34	0.5
336.13	3.5
336.919	2.5
337.709	3.5
338.498	2.5
339.287	2.5
340.077	3.5
340.866	3.5
341.655	4.5
342.444	1.5
343.233	3.5
344.022	1.5
344.811	3.5
345.6	2.5
346.388	1.5
347.177	1.5
347.965	2.5
348.754	1.5
349.542	2.5
350.33	2.5
351.119	3.5
351.907	2.5
352.695	3.5
353.483	1.5
354.271	2.5
355.059	3.5
355.846	3.5
356.634	3.5
357.422	2.5
358.209	3.5
358.997	2.5
359.784	1.5
360.571	1.5
361.359	1.5
362.146	-0.5
362.933	1.5
363.72	3.5
364.507	3.5
365.294	4.5
366.081	1.5
366.867	2.5
367.654	1.5
368.44	1.5
369.227	2.5
370.013	3.5
370.8	0.5
371.586	2.5
372.372	0.5
373.158	1.5
373.944	1.5
374.73	1.5
375.516	0.5
376.302	0.5
377.088	0.5
377.873	1.5
378.659	2.5
379.445	1.5
380.23	2.5
381.015	1.5
381.801	0.5
382.586	1.5
383.371	-0.5
384.156	2.5
384.941	3.5
385.726	5.5
386.511	2.5
387.296	1.5
388.08	5.5
388.865	0.5
389.649	3.5
390.434	2.5
391.218	1.5
392.003	2.5
392.787	1.5
393.571	3.5
394.355	2.5
395.139	4.5
395.923	1.5
396.707	5.5
397.491	3.5
398.274	2.5
399.058	3.5
399.842	6.5
400.625	4.5
401.408	4.5
402.192	2.5
402.975	4.5
403.758	3.5
404.541	3.5
405.324	4.5
406.107	3.5
406.89	3.5
407.673	-0.5
408.456	4.5
409.238	4.5
410.021	2.5
410.803	5.5
411.586	4.5
412.368	1.5
413.151	4.5
413.933	5.5
414.715	4.5
415.497	3.5
416.279	3.5
417.061	3.5
417.843	4.5
418.624	5.5
419.406	5.5
420.188	4.5
420.969	6.5
421.751	4.5
422.532	4.5
423.313	3.5
424.095	6.5
424.876	6.5
425.657	4.5
426.438	5.5
427.219	6.5
428	4.5
428.78	6.5
429.561	5.5
430.342	8.5
431.122	5.5
431.903	6.5
432.683	8.5
433.464	4.5
434.244	7.5
435.024	6.5
435.804	10.5
436.584	9.5
437.364	8.5
438.144	8.5
438.924	8.5
439.704	11.5
440.483	10.5
441.263	13.5
442.042	13.5
442.822	11.5
443.601	13.5
444.38	13.5
445.16	16.5
445.939	15.5
446.718	17.5
447.497	18.5
448.276	17.5
449.054	19.5
449.833	20.5
450.612	22.5
451.391	25.5
452.169	26.5
452.948	26.5
453.726	31.5
454.504	32.5
455.282	33.5
456.061	40.5
456.839	44.5
457.617	50.5
458.395	51.5
459.172	59.5
459.95	65.5
460.728	70.5
461.506	82.5
462.283	91.5
463.061	103.5
463.838	113.5
464.615	121.5
465.393	140.5
466.17	158.5
466.947	175.5
467.724	193.5
468.501	219.5
469.278	236.5
470.055	270.5
470.831	301.5
471.608	344.5
472.385	372.5
473.161	418.5
473.938	470.5
474.714	521.5
475.49	576.5
476.266	649.5
477.043	729.5
477.819	798.5
478.595	904.5
479.371	999.5
480.146	1108.5
480.922	1235.5
481.698	1376.5
482.473	1540.5
483.249	1684.5
484.024	1856.5
484.8	2088.5
485.575	2306.5
486.35	2560.5
487.126	2869.5
487.901	3163.5
488.676	3499.5
489.451	3889.5
490.225	4316.5
491	4749.5
491.775	5241.5
492.55	5773.5
493.324	6342.5
494.099	7059.5
494.873	7651.5
495.647	8403.5
496.422	9187.5
497.196	9964.5
497.97	10763.5
498.744	11591.5
499.518	12361.5
500.292	13222.5
501.066	14001.5
501.839	14732.5
502.613	15384.5
503.387	15982.5
504.16	16528.5
504.934	16956.5
505.707	17200.5
506.48	17380.5
507.253	17406.5
508.027	17369.5
508.8	17193.5
509.573	16969.5
510.346	16531.5
511.118	16012.5
511.891	15481.5
512.664	14877.5
513.437	14322.5
514.209	13710.5
514.982	13088.5
515.754	12477.5
516.526	11922.5
517.298	11383.5
518.071	10887.5
518.843	10346.5
519.615	9924.5
520.387	9513.5
521.159	9117.5
521.93	8736.5
522.702	8465.5
523.474	8091.5
524.245	7810.5
525.017	7456.5
525.788	7132.5
526.56	6871.5
527.331	6577.5
528.102	6274.5
528.873	5949.5
529.644	5715.5
530.415	5406.5
531.186	5115.5
531.957	4867.5
532.728	4614.5
533.498	4358.5
534.269	4098.5
535.039	3871.5
535.81	3641.5
536.58	3428.5
537.351	3235.5
538.121	3067.5
538.891	2890.5
539.661	2730.5
540.431	2573.5
541.201	2449.5
541.971	2325.5
542.741	2193.5
543.51	2085.5
544.28	1983.5
545.05	1882.5
545.819	1801.5
546.588	1701.5
547.358	1625.5
548.127	1534.5
548.896	1457.5
549.665	1397.5
550.434	1316.5
551.203	1226.5
551.972	1189.5
552.741	1109.5
553.51	1053.5
554.278	991.5
555.047	938.5
555.815	881.5
556.584	826.5
557.352	774.5
558.121	739.5
558.889	691.5
559.657	657.5
560.425	620.5
561.193	577.5
561.961	543.5
562.729	511.5
563.496	487.5
564.264	455.5
565.032	427.5
565.799	412.5
566.567	386.5
567.334	366.5
568.101	347.5
568.869	323.5
569.636	312.5
570.403	289.5
571.17	272.5
571.937	259.5
572.704	247.5
573.471	227.5
574.237	219.5
575.004	205.5
575.771	191.5
576.537	180.5
577.303	164.5
578.07	168.5
578.836	145.5
579.602	138.5
580.368	131.5
581.134	127.5
581.9	121.5
582.666	112.5
583.432	106.5
584.198	102.5
584.964	95.5
585.729	91.5
586.495	87.5
587.26	78.5
588.025	76.5
588.791	74.5
589.556	70.5
590.321	67.5
591.086	62.5
591.851	55.5
592.616	56.5
593.381	54.5
594.146	50.5
594.911	49.5
595.675	44.5
596.44	43.5
597.204	43.5
597.969	36.5
598.733	36.5
599.497	33.5
600.261	34.5
601.025	32.5
601.79	29.5
602.553	27.5
603.317	26.5
604.081	28.5
604.845	22.5
605.609	27.5
606.372	23.5
607.136	22.5
607.899	22.5
608.662	19.5
609.426	22.5
610.189	19.5
610.952	20.5
611.715	16.5
612.478	13.5
613.241	17.5
614.004	13.5
614.767	17.5
615.529	11.5
616.292	13.5
617.055	13.5
617.817	10.5
618.579	12.5
619.342	10.5
620.104	9.5
620.866	11.5
621.628	13.5
622.39	8.5
623.152	9.5
623.914	11.5
624.676	7.5
625.438	11.5
626.199	8.5
626.961	8.5
627.722	7.5
628.484	7.5
629.245	8.5
630.006	7.5
630.768	7.5
631.529	7.5
632.29	6.5
633.051	5.5
633.812	5.5
634.573	5.5
635.333	3.5
636.094	6.5
636.855	5.5
637.615	5.5
638.376	4.5
639.136	4.5
639.896	5.5
640.657	1.5
641.417	4.5
642.177	7.5
642.937	5.5
643.697	3.5
644.457	4.5
645.216	4.5
645.976	3.5
646.736	8.5
647.495	3.5
648.255	3.5
649.014	4.5
649.774	3.5
650.533	2.5
651.292	1.5
652.051	1.5
652.81	4.5
653.569	1.5
654.328	2.5
655.087	2.5
655.846	1.5
656.604	2.5
657.363	1.5
658.121	1.5
658.88	0.5
659.638	1.5
660.397	1.5
661.155	1.5
661.913	3.5
662.671	2.5
663.429	4.5
664.187	3.5
664.945	1.5
665.703	-0.5
666.46	1.5
667.218	1.5
667.976	1.5
668.733	1.5
669.49	0.5
670.248	4.5
671.005	3.5
671.762	0.5
672.519	3.5
673.276	1.5
674.033	1.5
674.79	-0.5
675.547	2.5
676.304	0.5
677.06	3.5
677.817	0.5
678.574	2.5
679.33	3.5
680.086	0.5
680.843	1.5
681.599	0.5
682.355	1.5
683.111	1.5
683.867	2.5
684.623	1.5
685.379	1.5
686.135	2.5
686.89	-0.5
687.646	0.5
688.402	-0.5
689.157	1.5
689.912	1.5
690.668	0.5
691.423	3.5
692.178	1.5
692.933	1.5
693.688	2.5
694.443	2.5
695.198	0.5
695.953	2.5
696.708	2.5
697.462	1.5
698.217	1.5
698.972	2.5
699.726	0.5
700.48	1.5
701.235	1.5
701.989	3.5
702.743	0.5
703.497	-0.5
704.251	2.5
705.005	0.5
705.759	1.5
706.513	3.5
707.266	1.5
708.02	1.5
708.774	1.5
709.527	0.5
710.28	1.5
711.034	3.5
711.787	-0.5
712.54	0.5
713.293	1.5
714.046	0.5
714.799	3.5
715.552	-2.5
716.305	1.5
717.058	1.5
717.81	1.5
718.563	1.5
719.315	1.5
720.068	0.5
720.82	1.5
721.573	-0.5
722.325	1.5
723.077	1.5
723.829	1.5
724.581	2.5
725.333	1.5
726.085	3.5
726.836	1.5
727.588	1.5
728.34	2.5
729.091	1.5
729.843	0.5
730.594	1.5
731.346	1.5
732.097	2.5
732.848	2.5
733.599	0.5
734.35	1.5
735.101	1.5
735.852	3.5
736.603	2.5
737.354	1.5
738.104	3.5
738.855	1.5
739.605	1.5
740.356	3.5
741.106	2.5
741.856	0.5
742.607	2.5
743.357	0.5
744.107	-0.5
744.857	2.5
745.607	1.5
746.357	2.5
747.106	1.5
747.856	1.5
748.606	2.5
749.355	4.5
750.105	2.5
750.854	4.5
751.603	2.5
752.353	1.5
753.102	0.5
753.851	3.5
754.6	2.5
755.349	2.5
756.098	2.5
756.847	4.5
757.595	2.5
758.344	1.5
759.093	3.5
759.841	1.5
760.589	3.5
761.338	3.5
762.086	3.5
762.834	3.5
763.582	2.5
764.331	1.5
765.079	2.5
765.826	3.5
766.574	2.5
767.322	2.5
768.07	3.5
768.817	1.5
769.565	3.5
770.312	5.5
771.06	4.5
771.807	3.5
772.554	3.5
773.302	5.5
774.049	2.5
774.796	4.5
775.543	3.5
776.29	3.5
777.036	5.5
777.783	4.5
778.53	4.5
779.276	7.5
780.023	3.5
780.769	3.5
781.516	6.5
782.262	3.5
783.008	3.5
783.754	4.5
784.5	3.5
785.246	4.5
785.992	5.5
786.738	5.5
787.484	5.5
788.23	5.5
788.975	6.5
789.721	6.5
790.466	4.5
791.212	4.5
791.957	5.5
792.702	2.5
793.447	4.5
794.193	4.5
794.938	4.5
795.683	6.5
796.427	3.5
797.172	2.5
797.917	3.5
798.662	3.5
799.406	4.5
800.151	5.5
800.895	5.5
801.64	2.5
802.384	4.5
803.128	5.5
803.872	3.5
804.616	5.5
805.36	1.5
806.104	4.5
806.848	2.5
807.592	3.5
808.336	4.5
809.079	1.5
809.823	2.5
810.566	4.5
811.31	3.5
812.053	5.5
812.796	1.5
813.539	1.5
814.283	3.5
815.026	1.5
815.769	2.5
816.511	3.5
817.254	3.5
817.997	1.5
818.74	3.5
819.482	0.5
820.225	1.5
820.967	2.5
821.71	0.5
822.452	1.5
823.194	1.5
823.936	3.5
824.678	2.5
825.42	1.5
826.162	1.5
826.904	4.5
827.646	1.5
828.388	3.5
829.129	2.5
829.871	2.5
830.612	3.5
831.354	2.5
832.095	2.5
832.836	-0.5
833.577	2.5
834.319	2.5
835.06	1.5
835.801	2.5
836.542	0.5
837.282	1.5
838.023	2.5
838.764	1.5
839.504	1.5
840.245	2.5
840.985	1.5
841.726	1.5
842.466	-0.5
843.206	1.5
843.946	2.5
844.687	1.5
845.427	2.5
846.166	1.5
846.906	-0.5
847.646	0.5
848.386	1.5
849.125	-0.5
849.865	0.5
850.605	0.5
851.344	1.5
852.083	3.5
852.823	1.5
853.562	2.5
854.301	2.5
855.04	2.5
855.779	1.5
856.518	2.5
857.257	1.5
857.995	-0.5
858.734	2.5
859.473	1.5
860.211	-1.5
860.95	0.5
861.688	0.5
862.426	0.5
863.165	0.5
863.903	1.5
864.641	-0.5
865.379	1.5
866.117	-0.5
866.855	-0.5
867.593	-0.5
868.33	0.5
869.068	0.5
869.806	-2.5
870.543	-1.5
871.28	0.5
872.018	-0.5
872.755	-0.5
873.492	-2.5
874.229	3.5
874.967	0.5
875.703	-2.5
876.44	1.5
877.177	0.5
877.914	0.5
878.651	0.5
879.387	-0.5
880.124	1.5
880.86	-0.5
881.597	-0.5
882.333	1.5
883.069	1.5
883.806	0.5
884.542	1.5
885.278	0.5
886.014	-0.5
886.749	-0.5
887.485	-0.5
888.221	1.5
888.957	-1.5
889.692	-2.5
890.428	0.5
891.163	-0.5
891.899	1.5
892.634	-3.5
893.369	-0.5
894.104	-0.5
894.839	-1.5
895.574	1.5
896.309	-0.5
897.044	0.5
897.779	0.5
898.514	0.5
899.248	-1.5
899.983	0.5
900.717	-0.5
901.452	0.5
902.186	-1.5
902.92	-0.5
903.654	0.5
904.389	-0.5
905.123	0.5
905.857	0.5
906.59	0.5
907.324	0.5
908.058	-2.5
908.792	0.5
909.525	1.5
910.259	-0.5
910.992	0.5
911.726	0.5
912.459	1.5
913.192	-1.5
913.925	-0.5
914.658	1.5
915.391	-2.5
916.124	0.5
916.857	-0.5
917.59	0.5
918.323	2.5
919.055	-2.5
919.788	0.5
920.521	-1.5
921.253	-0.5
921.985	-2.5
922.718	2.5
923.45	1.5
924.182	0.5
924.914	-1.5
925.646	-0.5
926.378	1.5
927.11	0.5
927.841	-0.5
928.573	-1.5
929.305	-0.5
930.036	-1.5
930.768	0.5
931.499	0.5
932.23	2.5
932.962	-0.5
933.693	0.5
934.424	-1.5
935.155	-1.5
935.886	-2.5
936.617	-0.5
937.348	-1.5
938.078	1.5
938.809	-1.5
939.54	-2.5
940.27	1.5
941.001	-1.5
941.731	0.5
942.461	-1.5
943.191	-1.5
943.922	-0.5
944.652	-1.5
945.382	-1.5
946.112	0.5
946.841	-1.5
947.571	0.5
948.301	-1.5
949.031	-1.5
949.76	-1.5
950.49	1.5
951.219	0.5
951.948	-0.5
952.678	-1.5
953.407	-1.5
954.136	0.5
954.865	0.5
955.594	1.5
956.323	-2.5
957.052	2.5
957.78	-0.5
958.509	0.5
959.238	1.5
959.966	-2.5
960.695	1.5
961.423	1.5
962.151	0.5
962.88	-0.5
963.608	-0.5
964.336	-1.5
965.064	-0.5
965.792	3.5
966.52	-1.5
967.247	1.5
967.975	-1.5
968.703	-2.5
969.43	-0.5
970.158	0.5
970.885	0.5
971.613	-0.5
972.34	-0.5
973.067	-0.5
973.794	1.5
974.521	-2.5
975.248	-1.5
975.975	-0.5
976.702	0.5
977.429	-0.5
978.156	2.5
978.882	-1.5
979.609	0.5
980.335	-1.5
981.062	0.5
981.788	0.5
982.514	-0.5
983.24	-2.5
983.967	-0.5
984.693	1.5
985.419	-2.5
986.144	0.5
986.87	1.5
987.596	-2.5
988.322	-0.5
989.047	0.5
989.773	1.5
990.498	0.5
991.224	0.5
991.949	-1.5
992.674	-1.5
993.399	-0.5
994.124	0.5
994.849	-0.5
995.574	-1.5
996.299	1.5
997.024	0.5
997.749	0.5
998.473	-2.5
999.198	-2.5
999.922	1.5
1000.647	0.5
1001.371	5.5
1002.095	-2.5
1002.82	1.5
1003.544	-2.5
1004.268	-0.5
1004.992	0.5
1005.716	-2.5
1006.439	1.5
1007.163	0.5
1007.887	-1.5
1008.611	-0.5
1009.334	0.5
1010.058	-0.5
1010.781	-0.5
1011.504	0.5
1012.228	0.5
1012.951	-0.5
1013.674	-1.5
1014.397	-0.5
1015.12	0.5
