节点500_145_QEPB04081__450__11-36-08-559.txt的数据

Date: Wed Nov 12 11:36:08 CST 2025
User: PC
Spectrometer: QEPB0408
触发模式: 0
积分时间 (秒): 1.000000E-2
Scans to average: 1
启用暗噪声校正: true
启用非线性校正: false
滑动平均宽度: 0
X轴模式: Wavelengths
Number of Pixels in Spectrum: 1044
>>>>>Begin Spectral Data<<<<<
220.843	-0.38
221.644	-1.38
222.444	1.62
223.244	-0.38
224.045	1.62
224.845	2.62
225.645	0.62
226.445	1.62
227.245	-1.38
228.045	0.62
228.845	0.62
229.645	1.62
230.444	1.62
231.244	1.62
232.043	0.62
232.843	1.62
233.642	1.62
234.442	2.62
235.241	2.62
236.04	3.62
236.839	2.62
237.638	1.62
238.437	2.62
239.236	1.62
240.035	3.62
240.833	0.62
241.632	0.62
242.43	0.62
243.229	2.62
244.027	1.62
244.826	2.62
245.624	4.62
246.422	0.62
247.22	1.62
248.018	1.62
248.816	2.62
249.614	4.62
250.412	1.62
251.21	2.62
252.007	2.62
252.805	3.62
253.602	1.62
254.4	4.62
255.197	1.62
255.994	3.62
256.791	2.62
257.589	4.62
258.386	4.62
259.183	1.62
259.979	7.62
260.776	3.62
261.573	5.62
262.37	3.62
263.166	1.62
263.963	7.62
264.759	2.62
265.556	6.62
266.352	4.62
267.148	5.62
267.944	7.62
268.74	4.62
269.536	3.62
270.332	5.62
271.128	9.62
271.924	7.62
272.719	8.62
273.515	7.62
274.311	6.62
275.106	8.62
275.901	8.62
276.697	7.62
277.492	9.62
278.287	9.62
279.082	8.62
279.877	8.62
280.672	10.62
281.467	9.62
282.262	9.62
283.056	9.62
283.851	10.62
284.646	12.62
285.44	7.62
286.234	10.62
287.029	11.62
287.823	9.62
288.617	10.62
289.411	10.62
290.205	14.62
290.999	12.62
291.793	10.62
292.587	10.62
293.381	8.62
294.174	9.62
294.968	9.62
295.761	8.62
296.555	7.62
297.348	9.62
298.141	9.62
298.935	9.62
299.728	10.62
300.521	9.62
301.314	9.62
302.107	7.62
302.899	11.62
303.692	9.62
304.485	7.62
305.277	11.62
306.07	8.62
306.862	9.62
307.655	8.62
308.447	7.62
309.239	8.62
310.031	8.62
310.823	6.62
311.615	6.62
312.407	5.62
313.199	6.62
313.991	5.62
314.783	4.62
315.574	3.62
316.366	6.62
317.157	5.62
317.949	4.62
318.74	4.62
319.531	4.62
320.322	5.62
321.113	6.62
321.904	6.62
322.695	2.62
323.486	5.62
324.277	4.62
325.068	6.62
325.858	3.62
326.649	4.62
327.439	2.62
328.23	2.62
329.02	4.62
329.81	5.62
330.6	5.62
331.391	4.62
332.181	3.62
332.971	2.62
333.76	2.62
334.55	2.62
335.34	4.62
336.13	3.62
336.919	2.62
337.709	4.62
338.498	3.62
339.287	2.62
340.077	1.62
340.866	3.62
341.655	3.62
342.444	2.62
343.233	1.62
344.022	4.62
344.811	1.62
345.6	7.62
346.388	3.62
347.177	5.62
347.965	2.62
348.754	2.62
349.542	1.62
350.33	4.62
351.119	3.62
351.907	4.62
352.695	2.62
353.483	3.62
354.271	2.62
355.059	4.62
355.846	2.62
356.634	4.62
357.422	1.62
358.209	1.62
358.997	3.62
359.784	3.62
360.571	4.62
361.359	5.62
362.146	2.62
362.933	2.62
363.72	2.62
364.507	2.62
365.294	2.62
366.081	2.62
366.867	3.62
367.654	4.62
368.44	0.62
369.227	3.62
370.013	3.62
370.8	2.62
371.586	1.62
372.372	1.62
373.158	2.62
373.944	1.62
374.73	2.62
375.516	4.62
376.302	1.62
377.088	2.62
377.873	1.62
378.659	5.62
379.445	0.62
380.23	4.62
381.015	2.62
381.801	2.62
382.586	4.62
383.371	2.62
384.156	2.62
384.941	4.62
385.726	3.62
386.511	2.62
387.296	3.62
388.08	4.62
388.865	0.62
389.649	5.62
390.434	4.62
391.218	3.62
392.003	3.62
392.787	4.62
393.571	2.62
394.355	1.62
395.139	3.62
395.923	2.62
396.707	0.62
397.491	2.62
398.274	5.62
399.058	5.62
399.842	2.62
400.625	3.62
401.408	3.62
402.192	5.62
402.975	3.62
403.758	3.62
404.541	2.62
405.324	3.62
406.107	3.62
406.89	5.62
407.673	3.62
408.456	4.62
409.238	3.62
410.021	4.62
410.803	3.62
411.586	3.62
412.368	4.62
413.151	4.62
413.933	7.62
414.715	3.62
415.497	3.62
416.279	5.62
417.061	5.62
417.843	6.62
418.624	6.62
419.406	6.62
420.188	4.62
420.969	7.62
421.751	6.62
422.532	2.62
423.313	5.62
424.095	7.62
424.876	7.62
425.657	7.62
426.438	7.62
427.219	5.62
428	5.62
428.78	5.62
429.561	8.62
430.342	7.62
431.122	5.62
431.903	7.62
432.683	9.62
433.464	9.62
434.244	9.62
435.024	6.62
435.804	9.62
436.584	7.62
437.364	11.62
438.144	7.62
438.924	10.62
439.704	10.62
440.483	9.62
441.263	11.62
442.042	10.62
442.822	14.62
443.601	14.62
444.38	13.62
445.16	18.62
445.939	15.62
446.718	18.62
447.497	21.62
448.276	21.62
449.054	23.62
449.833	23.62
450.612	27.62
451.391	26.62
452.169	28.62
452.948	33.62
453.726	36.62
454.504	40.62
455.282	45.62
456.061	48.62
456.839	52.62
457.617	62.62
458.395	68.62
459.172	69.62
459.95	80.62
460.728	87.62
461.506	101.62
462.283	110.62
463.061	120.62
463.838	132.62
464.615	147.62
465.393	166.62
466.17	183.62
466.947	208.62
467.724	227.62
468.501	254.62
469.278	278.62
470.055	308.62
470.831	351.62
471.608	385.62
472.385	437.62
473.161	470.62
473.938	526.62
474.714	584.62
475.49	637.62
476.266	712.62
477.043	784.62
477.819	870.62
478.595	966.62
479.371	1054.62
480.146	1155.62
480.922	1271.62
481.698	1397.62
482.473	1550.62
483.249	1684.62
484.024	1861.62
484.8	2047.62
485.575	2238.62
486.35	2462.62
487.126	2718.62
487.901	2965.62
488.676	3277.62
489.451	3584.62
490.225	3918.62
491	4271.62
491.775	4710.62
492.55	5145.62
493.324	5609.62
494.099	6102.62
494.873	6685.62
495.647	7243.62
496.422	7879.62
497.196	8501.62
497.97	9108.62
498.744	9844.62
499.518	10539.62
500.292	11247.62
501.066	11944.62
501.839	12617.62
502.613	13249.62
503.387	13857.62
504.16	14402.62
504.934	14896.62
505.707	15230.62
506.48	15569.62
507.253	15798.62
508.027	15947.62
508.8	15979.62
509.573	15869.62
510.346	15676.62
511.118	15449.62
511.891	15136.62
512.664	14739.62
513.437	14279.62
514.209	13799.62
514.982	13324.62
515.754	12839.62
516.526	12259.62
517.298	11710.62
518.071	11220.62
518.843	10741.62
519.615	10302.62
520.387	9858.62
521.159	9469.62
521.93	9108.62
522.702	8724.62
523.474	8399.62
524.245	8045.62
525.017	7743.62
525.788	7412.62
526.56	7124.62
527.331	6823.62
528.102	6545.62
528.873	6268.62
529.644	5954.62
530.415	5736.62
531.186	5454.62
531.957	5200.62
532.728	4931.62
533.498	4664.62
534.269	4432.62
535.039	4191.62
535.81	3980.62
536.58	3754.62
537.351	3537.62
538.121	3358.62
538.891	3189.62
539.661	2993.62
540.431	2836.62
541.201	2693.62
541.971	2542.62
542.741	2394.62
543.51	2286.62
544.28	2173.62
545.05	2051.62
545.819	1947.62
546.588	1858.62
547.358	1766.62
548.127	1684.62
548.896	1591.62
549.665	1511.62
550.434	1451.62
551.203	1363.62
551.972	1312.62
552.741	1226.62
553.51	1167.62
554.278	1113.62
555.047	1026.62
555.815	984.62
556.584	924.62
557.352	867.62
558.121	833.62
558.889	786.62
559.657	741.62
560.425	689.62
561.193	665.62
561.961	621.62
562.729	589.62
563.496	543.62
564.264	518.62
565.032	489.62
565.799	455.62
566.567	435.62
567.334	405.62
568.101	393.62
568.869	369.62
569.636	342.62
570.403	327.62
571.17	311.62
571.937	299.62
572.704	279.62
573.471	255.62
574.237	240.62
575.004	229.62
575.771	212.62
576.537	206.62
577.303	194.62
578.07	181.62
578.836	163.62
579.602	162.62
580.368	151.62
581.134	142.62
581.9	134.62
582.666	130.62
583.432	122.62
584.198	118.62
584.964	114.62
585.729	104.62
586.495	94.62
587.26	87.62
588.025	91.62
588.791	83.62
589.556	75.62
590.321	75.62
591.086	65.62
591.851	67.62
592.616	65.62
593.381	62.62
594.146	53.62
594.911	49.62
595.675	51.62
596.44	45.62
597.204	48.62
597.969	42.62
598.733	41.62
599.497	40.62
600.261	38.62
601.025	39.62
601.79	36.62
602.553	34.62
603.317	32.62
604.081	32.62
604.845	31.62
605.609	28.62
606.372	26.62
607.136	24.62
607.899	24.62
608.662	22.62
609.426	20.62
610.189	24.62
610.952	22.62
611.715	19.62
612.478	18.62
613.241	20.62
614.004	18.62
614.767	15.62
615.529	16.62
616.292	15.62
617.055	16.62
617.817	12.62
618.579	17.62
619.342	13.62
620.104	14.62
620.866	14.62
621.628	12.62
622.39	13.62
623.152	11.62
623.914	10.62
624.676	11.62
625.438	11.62
626.199	9.62
626.961	8.62
627.722	10.62
628.484	11.62
629.245	8.62
630.006	8.62
630.768	8.62
631.529	9.62
632.29	7.62
633.051	7.62
633.812	9.62
634.573	6.62
635.333	4.62
636.094	9.62
636.855	8.62
637.615	5.62
638.376	6.62
639.136	6.62
639.896	7.62
640.657	6.62
641.417	4.62
642.177	6.62
642.937	5.62
643.697	5.62
644.457	5.62
645.216	6.62
645.976	6.62
646.736	3.62
647.495	7.62
648.255	4.62
649.014	2.62
649.774	5.62
650.533	5.62
651.292	4.62
652.051	3.62
652.81	2.62
653.569	3.62
654.328	4.62
655.087	4.62
655.846	5.62
656.604	1.62
657.363	5.62
658.121	5.62
658.88	2.62
659.638	0.62
660.397	2.62
661.155	3.62
661.913	3.62
662.671	4.62
663.429	5.62
664.187	3.62
664.945	2.62
665.703	2.62
666.46	1.62
667.218	4.62
667.976	2.62
668.733	4.62
669.49	4.62
670.248	1.62
671.005	1.62
671.762	4.62
672.519	1.62
673.276	3.62
674.033	2.62
674.79	-1.38
675.547	4.62
676.304	4.62
677.06	0.62
677.817	3.62
678.574	2.62
679.33	2.62
680.086	1.62
680.843	2.62
681.599	0.62
682.355	2.62
683.111	1.62
683.867	-0.38
684.623	2.62
685.379	1.62
686.135	4.62
686.89	2.62
687.646	3.62
688.402	1.62
689.157	4.62
689.912	3.62
690.668	1.62
691.423	1.62
692.178	2.62
692.933	2.62
693.688	4.62
694.443	2.62
695.198	2.62
695.953	3.62
696.708	3.62
697.462	2.62
698.217	1.62
698.972	2.62
699.726	0.62
700.48	2.62
701.235	2.62
701.989	2.62
702.743	0.62
703.497	1.62
704.251	2.62
705.005	0.62
705.759	4.62
706.513	4.62
707.266	3.62
708.02	2.62
708.774	2.62
709.527	0.62
710.28	1.62
711.034	3.62
711.787	1.62
712.54	3.62
713.293	3.62
714.046	1.62
714.799	3.62
715.552	0.62
716.305	2.62
717.058	-0.38
717.81	3.62
718.563	2.62
719.315	1.62
720.068	0.62
720.82	1.62
721.573	2.62
722.325	2.62
723.077	0.62
723.829	2.62
724.581	0.62
725.333	5.62
726.085	2.62
726.836	2.62
727.588	1.62
728.34	2.62
729.091	2.62
729.843	3.62
730.594	3.62
731.346	0.62
732.097	5.62
732.848	2.62
733.599	3.62
734.35	1.62
735.101	3.62
735.852	5.62
736.603	1.62
737.354	2.62
738.104	5.62
738.855	1.62
739.605	1.62
740.356	1.62
741.106	2.62
741.856	0.62
742.607	-0.38
743.357	3.62
744.107	2.62
744.857	3.62
745.607	2.62
746.357	3.62
747.106	1.62
747.856	2.62
748.606	3.62
749.355	3.62
750.105	0.62
750.854	-0.38
751.603	3.62
752.353	0.62
753.102	1.62
753.851	4.62
754.6	2.62
755.349	4.62
756.098	4.62
756.847	4.62
757.595	2.62
758.344	4.62
759.093	2.62
759.841	3.62
760.589	3.62
761.338	2.62
762.086	4.62
762.834	3.62
763.582	3.62
764.331	4.62
765.079	4.62
765.826	3.62
766.574	0.62
767.322	4.62
768.07	5.62
768.817	5.62
769.565	7.62
770.312	2.62
771.06	2.62
771.807	3.62
772.554	3.62
773.302	4.62
774.049	4.62
774.796	3.62
775.543	4.62
776.29	4.62
777.036	3.62
777.783	4.62
778.53	5.62
779.276	3.62
780.023	3.62
780.769	3.62
781.516	6.62
782.262	5.62
783.008	5.62
783.754	4.62
784.5	6.62
785.246	5.62
785.992	5.62
786.738	5.62
787.484	3.62
788.23	6.62
788.975	5.62
789.721	2.62
790.466	5.62
791.212	3.62
791.957	5.62
792.702	5.62
793.447	5.62
794.193	3.62
794.938	5.62
795.683	4.62
796.427	5.62
797.172	3.62
797.917	5.62
798.662	6.62
799.406	8.62
800.151	4.62
800.895	3.62
801.64	4.62
802.384	5.62
803.128	5.62
803.872	5.62
804.616	5.62
805.36	2.62
806.104	3.62
806.848	2.62
807.592	7.62
808.336	5.62
809.079	5.62
809.823	2.62
810.566	0.62
811.31	4.62
812.053	1.62
812.796	3.62
813.539	5.62
814.283	5.62
815.026	2.62
815.769	4.62
816.511	4.62
817.254	0.62
817.997	4.62
818.74	1.62
819.482	2.62
820.225	4.62
820.967	5.62
821.71	5.62
822.452	2.62
823.194	3.62
823.936	3.62
824.678	3.62
825.42	2.62
826.162	4.62
826.904	3.62
827.646	3.62
828.388	1.62
829.129	4.62
829.871	3.62
830.612	1.62
831.354	2.62
832.095	2.62
832.836	1.62
833.577	1.62
834.319	2.62
835.06	3.62
835.801	2.62
836.542	2.62
837.282	2.62
838.023	0.62
838.764	3.62
839.504	1.62
840.245	2.62
840.985	1.62
841.726	0.62
842.466	3.62
843.206	3.62
843.946	4.62
844.687	0.62
845.427	2.62
846.166	0.62
846.906	2.62
847.646	3.62
848.386	0.62
849.125	2.62
849.865	1.62
850.605	2.62
851.344	3.62
852.083	0.62
852.823	3.62
853.562	0.62
854.301	2.62
855.04	1.62
855.779	3.62
856.518	0.62
857.257	2.62
857.995	4.62
858.734	0.62
859.473	3.62
860.211	1.62
860.95	2.62
861.688	2.62
862.426	0.62
863.165	1.62
863.903	2.62
864.641	2.62
865.379	1.62
866.117	1.62
866.855	-1.38
867.593	0.62
868.33	1.62
869.068	2.62
869.806	2.62
870.543	0.62
871.28	-0.38
872.018	0.62
872.755	-0.38
873.492	0.62
874.229	1.62
874.967	0.62
875.703	0.62
876.44	1.62
877.177	1.62
877.914	-1.38
878.651	1.62
879.387	1.62
880.124	0.62
880.86	1.62
881.597	1.62
882.333	-1.38
883.069	0.62
883.806	1.62
884.542	-0.38
885.278	-0.38
886.014	0.62
886.749	0.62
887.485	-1.38
888.221	0.62
888.957	1.62
889.692	-3.38
890.428	-2.38
891.163	1.62
891.899	-0.38
892.634	0.62
893.369	-0.38
894.104	1.62
894.839	1.62
895.574	1.62
896.309	1.62
897.044	-1.38
897.779	1.62
898.514	-0.38
899.248	2.62
899.983	-1.38
900.717	-0.38
901.452	-0.38
902.186	-0.38
902.92	0.62
903.654	-0.38
904.389	2.62
905.123	0.62
905.857	0.62
906.59	0.62
907.324	0.62
908.058	0.62
908.792	-0.38
909.525	0.62
910.259	2.62
910.992	0.62
911.726	1.62
912.459	-1.38
913.192	-1.38
913.925	0.62
914.658	0.62
915.391	0.62
916.124	0.62
916.857	1.62
917.59	-1.38
918.323	0.62
919.055	-1.38
919.788	0.62
920.521	-1.38
921.253	1.62
921.985	0.62
922.718	-2.38
923.45	-0.38
924.182	1.62
924.914	0.62
925.646	0.62
926.378	2.62
927.11	2.62
927.841	1.62
928.573	0.62
929.305	0.62
930.036	2.62
930.768	-0.38
931.499	2.62
932.23	1.62
932.962	2.62
933.693	0.62
934.424	0.62
935.155	1.62
935.886	0.62
936.617	0.62
937.348	1.62
938.078	0.62
938.809	1.62
939.54	2.62
940.27	0.62
941.001	0.62
941.731	-1.38
942.461	-0.38
943.191	0.62
943.922	1.62
944.652	0.62
945.382	1.62
946.112	0.62
946.841	0.62
947.571	1.62
948.301	-0.38
949.031	-0.38
949.76	-0.38
950.49	-2.38
951.219	0.62
951.948	0.62
952.678	0.62
953.407	1.62
954.136	1.62
954.865	-0.38
955.594	2.62
956.323	0.62
957.052	0.62
957.78	0.62
958.509	-1.38
959.238	0.62
959.966	-0.38
960.695	3.62
961.423	-0.38
962.151	0.62
962.88	-1.38
963.608	0.62
964.336	1.62
965.064	2.62
965.792	-0.38
966.52	0.62
967.247	2.62
967.975	1.62
968.703	-1.38
969.43	0.62
970.158	2.62
970.885	0.62
971.613	0.62
972.34	0.62
973.067	-0.38
973.794	1.62
974.521	2.62
975.248	0.62
975.975	-1.38
976.702	1.62
977.429	0.62
978.156	3.62
978.882	0.62
979.609	1.62
980.335	-0.38
981.062	-0.38
981.788	3.62
982.514	0.62
983.24	2.62
983.967	-0.38
984.693	1.62
985.419	1.62
986.144	1.62
986.87	-0.38
987.596	0.62
988.322	-0.38
989.047	-0.38
989.773	0.62
990.498	1.62
991.224	-1.38
991.949	2.62
992.674	-0.38
993.399	1.62
994.124	1.62
994.849	1.62
995.574	-0.38
996.299	0.62
997.024	0.62
997.749	-2.38
998.473	2.62
999.198	-1.38
999.922	0.62
1000.647	2.62
1001.371	2.62
1002.095	0.62
1002.82	-0.38
1003.544	-1.38
1004.268	0.62
1004.992	0.62
1005.716	-0.38
1006.439	-0.38
1007.163	-0.38
1007.887	-1.38
1008.611	0.62
1009.334	0.62
1010.058	1.62
1010.781	-1.38
1011.504	0.62
1012.228	-1.38
1012.951	-0.38
1013.674	0.62
1014.397	-0.38
1015.12	-1.38
