节点500_145_QEPB04081__118__11-30-50-597.txt的数据

Date: Wed Nov 12 11:30:50 CST 2025
User: PC
Spectrometer: QEPB0408
触发模式: 0
积分时间 (秒): 1.000000E-2
Scans to average: 1
启用暗噪声校正: true
启用非线性校正: false
滑动平均宽度: 0
X轴模式: Wavelengths
Number of Pixels in Spectrum: 1044
>>>>>Begin Spectral Data<<<<<
220.843	1
221.644	-2
222.444	-2
223.244	-3
224.045	-2
224.845	-3
225.645	-1
226.445	-1
227.245	0
228.045	-1
228.845	-1
229.645	0
230.444	-2
231.244	-3
232.043	1
232.843	1
233.642	1
234.442	-3
235.241	2
236.04	0
236.839	1
237.638	1
238.437	0
239.236	0
240.035	0
240.833	0
241.632	-1
242.43	1
243.229	2
244.027	-1
244.826	-1
245.624	2
246.422	1
247.22	3
248.018	2
248.816	1
249.614	3
250.412	-1
251.21	2
252.007	1
252.805	1
253.602	3
254.4	4
255.197	1
255.994	5
256.791	2
257.589	6
258.386	4
259.183	3
259.979	4
260.776	1
261.573	4
262.37	3
263.166	5
263.963	4
264.759	2
265.556	4
266.352	3
267.148	5
267.944	6
268.74	8
269.536	5
270.332	7
271.128	6
271.924	7
272.719	9
273.515	8
274.311	11
275.106	9
275.901	8
276.697	9
277.492	8
278.287	9
279.082	10
279.877	12
280.672	8
281.467	11
282.262	12
283.056	8
283.851	12
284.646	11
285.44	9
286.234	9
287.029	9
287.823	11
288.617	9
289.411	9
290.205	10
290.999	9
291.793	10
292.587	11
293.381	12
294.174	10
294.968	10
295.761	9
296.555	9
297.348	10
298.141	9
298.935	9
299.728	7
300.521	11
301.314	9
302.107	6
302.899	7
303.692	6
304.485	9
305.277	6
306.07	7
306.862	7
307.655	4
308.447	7
309.239	6
310.031	7
310.823	6
311.615	6
312.407	4
313.199	8
313.991	6
314.783	5
315.574	7
316.366	4
317.157	3
317.949	4
318.74	5
319.531	4
320.322	1
321.113	3
321.904	5
322.695	3
323.486	4
324.277	5
325.068	4
325.858	0
326.649	3
327.439	5
328.23	2
329.02	3
329.81	2
330.6	5
331.391	2
332.181	2
332.971	3
333.76	2
334.55	3
335.34	1
336.13	3
336.919	2
337.709	3
338.498	2
339.287	4
340.077	4
340.866	1
341.655	2
342.444	1
343.233	4
344.022	3
344.811	2
345.6	2
346.388	1
347.177	1
347.965	4
348.754	3
349.542	2
350.33	4
351.119	2
351.907	3
352.695	3
353.483	3
354.271	5
355.059	2
355.846	2
356.634	1
357.422	3
358.209	1
358.997	0
359.784	2
360.571	0
361.359	1
362.146	0
362.933	2
363.72	1
364.507	1
365.294	4
366.081	1
366.867	2
367.654	2
368.44	2
369.227	-1
370.013	1
370.8	1
371.586	1
372.372	1
373.158	2
373.944	1
374.73	2
375.516	2
376.302	-1
377.088	2
377.873	1
378.659	2
379.445	2
380.23	4
381.015	1
381.801	1
382.586	4
383.371	1
384.156	1
384.941	4
385.726	1
386.511	1
387.296	0
388.08	4
388.865	1
389.649	3
390.434	2
391.218	3
392.003	4
392.787	1
393.571	6
394.355	2
395.139	3
395.923	1
396.707	2
397.491	1
398.274	1
399.058	1
399.842	1
400.625	4
401.408	3
402.192	3
402.975	3
403.758	2
404.541	3
405.324	5
406.107	5
406.89	4
407.673	2
408.456	4
409.238	2
410.021	3
410.803	5
411.586	4
412.368	1
413.151	4
413.933	4
414.715	4
415.497	5
416.279	4
417.061	3
417.843	3
418.624	5
419.406	5
420.188	4
420.969	4
421.751	3
422.532	3
423.313	5
424.095	5
424.876	6
425.657	3
426.438	7
427.219	5
428	6
428.78	6
429.561	4
430.342	6
431.122	6
431.903	10
432.683	7
433.464	5
434.244	8
435.024	7
435.804	6
436.584	9
437.364	11
438.144	10
438.924	11
439.704	9
440.483	10
441.263	12
442.042	10
442.822	12
443.601	12
444.38	14
445.16	16
445.939	16
446.718	15
447.497	14
448.276	20
449.054	18
449.833	21
450.612	23
451.391	24
452.169	28
452.948	28
453.726	32
454.504	36
455.282	37
456.061	39
456.839	47
457.617	53
458.395	52
459.172	62
459.95	69
460.728	79
461.506	86
462.283	92
463.061	103
463.838	111
464.615	127
465.393	144
466.17	163
466.947	177
467.724	202
468.501	226
469.278	247
470.055	285
470.831	312
471.608	350
472.385	393
473.161	433
473.938	491
474.714	544
475.49	599
476.266	666
477.043	743
477.819	829
478.595	926
479.371	1015
480.146	1138
480.922	1262
481.698	1401
482.473	1550
483.249	1705
484.024	1902
484.8	2115
485.575	2316
486.35	2593
487.126	2852
487.901	3156
488.676	3504
489.451	3888
490.225	4304
491	4707
491.775	5176
492.55	5740
493.324	6267
494.099	6954
494.873	7559
495.647	8250
496.422	8965
497.196	9760
497.97	10484
498.744	11312
499.518	12142
500.292	12907
501.066	13645
501.839	14422
502.613	15133
503.387	15689
504.16	16233
504.934	16653
505.707	16970
506.48	17176
507.253	17253
508.027	17289
508.8	17128
509.573	16888
510.346	16535
511.118	16054
511.891	15632
512.664	15029
513.437	14494
514.209	13862
514.982	13280
515.754	12680
516.526	12100
517.298	11527
518.071	11048
518.843	10563
519.615	10118
520.387	9648
521.159	9283
521.93	8879
522.702	8575
523.474	8225
524.245	7921
525.017	7628
525.788	7319
526.56	6985
527.331	6671
528.102	6380
528.873	6095
529.644	5821
530.415	5529
531.186	5247
531.957	4965
532.728	4740
533.498	4461
534.269	4215
535.039	3975
535.81	3753
536.58	3543
537.351	3340
538.121	3143
538.891	2973
539.661	2816
540.431	2650
541.201	2503
541.971	2403
542.741	2268
543.51	2138
544.28	2045
545.05	1941
545.819	1830
546.588	1759
547.358	1661
548.127	1594
548.896	1488
549.665	1427
550.434	1364
551.203	1284
551.972	1200
552.741	1145
553.51	1080
554.278	1028
555.047	964
555.815	909
556.584	859
557.352	812
558.121	765
558.889	717
559.657	675
560.425	631
561.193	605
561.961	573
562.729	546
563.496	498
564.264	475
565.032	450
565.799	419
566.567	399
567.334	369
568.101	356
568.869	343
569.636	316
570.403	300
571.17	283
571.937	260
572.704	256
573.471	243
574.237	230
575.004	215
575.771	193
576.537	183
577.303	176
578.07	160
578.836	155
579.602	143
580.368	138
581.134	131
581.9	120
582.666	116
583.432	114
584.198	102
584.964	98
585.729	93
586.495	86
587.26	87
588.025	79
588.791	74
589.556	68
590.321	66
591.086	66
591.851	59
592.616	58
593.381	54
594.146	54
594.911	49
595.675	48
596.44	43
597.204	39
597.969	39
598.733	38
599.497	35
600.261	36
601.025	36
601.79	29
602.553	30
603.317	30
604.081	26
604.845	25
605.609	25
606.372	25
607.136	22
607.899	21
608.662	20
609.426	20
610.189	18
610.952	17
611.715	16
612.478	19
613.241	14
614.004	13
614.767	17
615.529	14
616.292	11
617.055	12
617.817	11
618.579	12
619.342	13
620.104	11
620.866	10
621.628	9
622.39	10
623.152	10
623.914	10
624.676	8
625.438	9
626.199	6
626.961	6
627.722	9
628.484	8
629.245	5
630.006	9
630.768	6
631.529	6
632.29	6
633.051	5
633.812	4
634.573	5
635.333	8
636.094	6
636.855	5
637.615	4
638.376	4
639.136	4
639.896	4
640.657	5
641.417	6
642.177	4
642.937	1
643.697	3
644.457	3
645.216	5
645.976	3
646.736	2
647.495	4
648.255	4
649.014	5
649.774	3
650.533	2
651.292	3
652.051	3
652.81	3
653.569	4
654.328	3
655.087	2
655.846	2
656.604	1
657.363	4
658.121	0
658.88	1
659.638	1
660.397	2
661.155	3
661.913	4
662.671	1
663.429	3
664.187	2
664.945	1
665.703	4
666.46	2
667.218	4
667.976	4
668.733	0
669.49	2
670.248	1
671.005	1
671.762	3
672.519	5
673.276	1
674.033	2
674.79	3
675.547	2
676.304	0
677.06	1
677.817	1
678.574	1
679.33	1
680.086	1
680.843	3
681.599	2
682.355	1
683.111	0
683.867	3
684.623	-1
685.379	0
686.135	1
686.89	2
687.646	1
688.402	1
689.157	1
689.912	-1
690.668	-1
691.423	2
692.178	2
692.933	3
693.688	0
694.443	1
695.198	0
695.953	0
696.708	3
697.462	0
698.217	1
698.972	-3
699.726	2
700.48	0
701.235	1
701.989	1
702.743	1
703.497	2
704.251	0
705.005	2
705.759	1
706.513	1
707.266	-1
708.02	1
708.774	2
709.527	-1
710.28	1
711.034	0
711.787	1
712.54	0
713.293	1
714.046	2
714.799	1
715.552	2
716.305	-1
717.058	1
717.81	1
718.563	1
719.315	1
720.068	1
720.82	1
721.573	2
722.325	2
723.077	-1
723.829	2
724.581	0
725.333	3
726.085	0
726.836	3
727.588	2
728.34	-1
729.091	0
729.843	0
730.594	-1
731.346	1
732.097	0
732.848	1
733.599	1
734.35	1
735.101	1
735.852	0
736.603	1
737.354	4
738.104	0
738.855	1
739.605	1
740.356	4
741.106	1
741.856	2
742.607	-2
743.357	2
744.107	2
744.857	1
745.607	2
746.357	1
747.106	0
747.856	0
748.606	3
749.355	3
750.105	1
750.854	1
751.603	2
752.353	2
753.102	4
753.851	3
754.6	3
755.349	2
756.098	1
756.847	3
757.595	2
758.344	2
759.093	-1
759.841	0
760.589	0
761.338	1
762.086	1
762.834	4
763.582	4
764.331	0
765.079	5
765.826	2
766.574	4
767.322	2
768.07	3
768.817	3
769.565	2
770.312	3
771.06	4
771.807	3
772.554	2
773.302	5
774.049	3
774.796	2
775.543	4
776.29	5
777.036	4
777.783	3
778.53	5
779.276	4
780.023	6
780.769	5
781.516	6
782.262	4
783.008	5
783.754	5
784.5	4
785.246	5
785.992	6
786.738	4
787.484	3
788.23	5
788.975	6
789.721	5
790.466	2
791.212	5
791.957	5
792.702	6
793.447	5
794.193	3
794.938	4
795.683	6
796.427	6
797.172	4
797.917	3
798.662	5
799.406	3
800.151	3
800.895	2
801.64	6
802.384	3
803.128	5
803.872	4
804.616	3
805.36	1
806.104	4
806.848	4
807.592	5
808.336	4
809.079	4
809.823	1
810.566	0
811.31	4
812.053	1
812.796	2
813.539	3
814.283	2
815.026	1
815.769	4
816.511	1
817.254	2
817.997	1
818.74	1
819.482	3
820.225	2
820.967	3
821.71	4
822.452	3
823.194	1
823.936	0
824.678	2
825.42	2
826.162	2
826.904	4
827.646	-2
828.388	0
829.129	-1
829.871	1
830.612	-1
831.354	2
832.095	1
832.836	2
833.577	2
834.319	0
835.06	1
835.801	0
836.542	2
837.282	2
838.023	1
838.764	3
839.504	1
840.245	3
840.985	1
841.726	-1
842.466	3
843.206	0
843.946	1
844.687	-1
845.427	2
846.166	0
846.906	0
847.646	1
848.386	-1
849.125	2
849.865	-1
850.605	3
851.344	1
852.083	-2
852.823	0
853.562	-2
854.301	1
855.04	0
855.779	1
856.518	1
857.257	1
857.995	1
858.734	0
859.473	-1
860.211	0
860.95	1
861.688	0
862.426	2
863.165	1
863.903	1
864.641	0
865.379	1
866.117	-1
866.855	0
867.593	-1
868.33	-1
869.068	0
869.806	-1
870.543	1
871.28	-1
872.018	-1
872.755	0
873.492	0
874.229	-1
874.967	1
875.703	0
876.44	1
877.177	0
877.914	0
878.651	0
879.387	-1
880.124	0
880.86	0
881.597	0
882.333	2
883.069	-2
883.806	-1
884.542	-1
885.278	0
886.014	1
886.749	-1
887.485	0
888.221	0
888.957	-1
889.692	-1
890.428	0
891.163	-1
891.899	-2
892.634	0
893.369	0
894.104	0
894.839	-1
895.574	0
896.309	1
897.044	-1
897.779	1
898.514	-1
899.248	0
899.983	1
900.717	-1
901.452	-1
902.186	-2
902.92	0
903.654	-2
904.389	-1
905.123	1
905.857	-1
906.59	-1
907.324	-2
908.058	0
908.792	-1
909.525	0
910.259	-1
910.992	-1
911.726	0
912.459	-4
913.192	-2
913.925	-3
914.658	1
915.391	-3
916.124	-1
916.857	0
917.59	0
918.323	-1
919.055	0
919.788	1
920.521	0
921.253	-3
921.985	1
922.718	-2
923.45	-1
924.182	-2
924.914	-2
925.646	1
926.378	-3
927.11	-2
927.841	-1
928.573	0
929.305	-2
930.036	-2
930.768	0
931.499	-1
932.23	0
932.962	-1
933.693	-1
934.424	0
935.155	-1
935.886	0
936.617	0
937.348	-1
938.078	-3
938.809	0
939.54	0
940.27	2
941.001	-3
941.731	0
942.461	1
943.191	0
943.922	1
944.652	0
945.382	-2
946.112	1
946.841	-2
947.571	1
948.301	-2
949.031	-1
949.76	-1
950.49	-1
951.219	-2
951.948	-1
952.678	1
953.407	-3
954.136	-1
954.865	0
955.594	-1
956.323	-3
957.052	-1
957.78	-2
958.509	-3
959.238	0
959.966	0
960.695	-1
961.423	1
962.151	-3
962.88	-1
963.608	-2
964.336	2
965.064	-1
965.792	-1
966.52	0
967.247	-3
967.975	-1
968.703	0
969.43	0
970.158	-2
970.885	-1
971.613	-1
972.34	0
973.067	-2
973.794	-2
974.521	0
975.248	0
975.975	-3
976.702	1
977.429	0
978.156	1
978.882	-2
979.609	-4
980.335	-1
981.062	-3
981.788	-2
982.514	0
983.24	1
983.967	1
984.693	-1
985.419	-1
986.144	-3
986.87	1
987.596	-2
988.322	-3
989.047	0
989.773	-1
990.498	0
991.224	-1
991.949	0
992.674	0
993.399	0
994.124	-3
994.849	-1
995.574	-1
996.299	-1
997.024	0
997.749	1
998.473	0
999.198	0
999.922	-3
1000.647	0
1001.371	4
1002.095	-1
1002.82	-1
1003.544	0
1004.268	-2
1004.992	0
1005.716	-2
1006.439	-1
1007.163	-1
1007.887	0
1008.611	0
1009.334	-1
1010.058	-3
1010.781	0
1011.504	-2
1012.228	-1
1012.951	-3
1013.674	-1
1014.397	1
1015.12	1
