节点500_145_QEPB04081__213__11-32-22-496.txt的数据

Date: Wed Nov 12 11:32:22 CST 2025
User: PC
Spectrometer: QEPB0408
触发模式: 0
积分时间 (秒): 1.000000E-2
Scans to average: 1
启用暗噪声校正: true
启用非线性校正: false
滑动平均宽度: 0
X轴模式: Wavelengths
Number of Pixels in Spectrum: 1044
>>>>>Begin Spectral Data<<<<<
220.843	1.12
221.644	-1.88
222.444	0.12
223.244	-0.88
224.045	-1.88
224.845	1.12
225.645	0.12
226.445	-1.88
227.245	0.12
228.045	-0.88
228.845	2.12
229.645	1.12
230.444	1.12
231.244	-1.88
232.043	-0.88
232.843	1.12
233.642	0.12
234.442	1.12
235.241	0.12
236.04	2.12
236.839	1.12
237.638	3.12
238.437	-0.88
239.236	0.12
240.035	3.12
240.833	0.12
241.632	5.12
242.43	0.12
243.229	2.12
244.027	2.12
244.826	0.12
245.624	2.12
246.422	2.12
247.22	2.12
248.018	3.12
248.816	3.12
249.614	5.12
250.412	1.12
251.21	5.12
252.007	5.12
252.805	3.12
253.602	-0.88
254.4	3.12
255.197	3.12
255.994	4.12
256.791	3.12
257.589	3.12
258.386	4.12
259.183	4.12
259.979	3.12
260.776	5.12
261.573	3.12
262.37	4.12
263.166	4.12
263.963	7.12
264.759	6.12
265.556	5.12
266.352	6.12
267.148	5.12
267.944	7.12
268.74	7.12
269.536	6.12
270.332	9.12
271.128	6.12
271.924	9.12
272.719	7.12
273.515	10.12
274.311	9.12
275.106	7.12
275.901	7.12
276.697	8.12
277.492	9.12
278.287	9.12
279.082	10.12
279.877	10.12
280.672	10.12
281.467	11.12
282.262	11.12
283.056	12.12
283.851	12.12
284.646	11.12
285.44	9.12
286.234	12.12
287.029	11.12
287.823	11.12
288.617	9.12
289.411	12.12
290.205	10.12
290.999	11.12
291.793	10.12
292.587	9.12
293.381	11.12
294.174	9.12
294.968	7.12
295.761	9.12
296.555	8.12
297.348	10.12
298.141	8.12
298.935	13.12
299.728	8.12
300.521	8.12
301.314	9.12
302.107	11.12
302.899	8.12
303.692	8.12
304.485	7.12
305.277	7.12
306.07	8.12
306.862	8.12
307.655	7.12
308.447	8.12
309.239	7.12
310.031	6.12
310.823	8.12
311.615	6.12
312.407	7.12
313.199	6.12
313.991	7.12
314.783	7.12
315.574	5.12
316.366	7.12
317.157	2.12
317.949	6.12
318.74	6.12
319.531	6.12
320.322	3.12
321.113	2.12
321.904	5.12
322.695	5.12
323.486	6.12
324.277	5.12
325.068	4.12
325.858	3.12
326.649	3.12
327.439	5.12
328.23	2.12
329.02	4.12
329.81	3.12
330.6	4.12
331.391	4.12
332.181	1.12
332.971	3.12
333.76	5.12
334.55	3.12
335.34	5.12
336.13	1.12
336.919	4.12
337.709	2.12
338.498	3.12
339.287	2.12
340.077	4.12
340.866	5.12
341.655	2.12
342.444	2.12
343.233	5.12
344.022	4.12
344.811	3.12
345.6	2.12
346.388	2.12
347.177	4.12
347.965	4.12
348.754	2.12
349.542	2.12
350.33	2.12
351.119	5.12
351.907	5.12
352.695	4.12
353.483	5.12
354.271	2.12
355.059	2.12
355.846	2.12
356.634	5.12
357.422	3.12
358.209	2.12
358.997	2.12
359.784	1.12
360.571	2.12
361.359	3.12
362.146	2.12
362.933	1.12
363.72	2.12
364.507	4.12
365.294	2.12
366.081	3.12
366.867	1.12
367.654	1.12
368.44	4.12
369.227	2.12
370.013	3.12
370.8	1.12
371.586	4.12
372.372	5.12
373.158	3.12
373.944	4.12
374.73	3.12
375.516	4.12
376.302	2.12
377.088	3.12
377.873	2.12
378.659	2.12
379.445	5.12
380.23	-0.88
381.015	4.12
381.801	2.12
382.586	3.12
383.371	2.12
384.156	2.12
384.941	3.12
385.726	3.12
386.511	3.12
387.296	1.12
388.08	2.12
388.865	5.12
389.649	0.12
390.434	4.12
391.218	3.12
392.003	6.12
392.787	3.12
393.571	5.12
394.355	1.12
395.139	2.12
395.923	4.12
396.707	1.12
397.491	2.12
398.274	2.12
399.058	3.12
399.842	5.12
400.625	3.12
401.408	5.12
402.192	4.12
402.975	5.12
403.758	2.12
404.541	4.12
405.324	3.12
406.107	4.12
406.89	5.12
407.673	2.12
408.456	6.12
409.238	4.12
410.021	5.12
410.803	5.12
411.586	2.12
412.368	8.12
413.151	5.12
413.933	5.12
414.715	5.12
415.497	5.12
416.279	4.12
417.061	5.12
417.843	5.12
418.624	7.12
419.406	5.12
420.188	6.12
420.969	7.12
421.751	5.12
422.532	5.12
423.313	8.12
424.095	5.12
424.876	7.12
425.657	8.12
426.438	6.12
427.219	8.12
428	5.12
428.78	7.12
429.561	6.12
430.342	7.12
431.122	8.12
431.903	6.12
432.683	7.12
433.464	7.12
434.244	9.12
435.024	8.12
435.804	7.12
436.584	9.12
437.364	11.12
438.144	12.12
438.924	8.12
439.704	12.12
440.483	10.12
441.263	13.12
442.042	16.12
442.822	11.12
443.601	13.12
444.38	13.12
445.16	16.12
445.939	17.12
446.718	15.12
447.497	20.12
448.276	17.12
449.054	25.12
449.833	22.12
450.612	25.12
451.391	24.12
452.169	30.12
452.948	32.12
453.726	31.12
454.504	37.12
455.282	41.12
456.061	45.12
456.839	49.12
457.617	52.12
458.395	56.12
459.172	65.12
459.95	71.12
460.728	81.12
461.506	90.12
462.283	101.12
463.061	107.12
463.838	122.12
464.615	135.12
465.393	153.12
466.17	171.12
466.947	190.12
467.724	218.12
468.501	235.12
469.278	256.12
470.055	292.12
470.831	322.12
471.608	357.12
472.385	403.12
473.161	445.12
473.938	497.12
474.714	555.12
475.49	613.12
476.266	685.12
477.043	757.12
477.819	836.12
478.595	941.12
479.371	1030.12
480.146	1148.12
480.922	1281.12
481.698	1411.12
482.473	1556.12
483.249	1716.12
484.024	1880.12
484.8	2082.12
485.575	2299.12
486.35	2557.12
487.126	2824.12
487.901	3095.12
488.676	3440.12
489.451	3777.12
490.225	4175.12
491	4597.12
491.775	5028.12
492.55	5534.12
493.324	6057.12
494.099	6660.12
494.873	7282.12
495.647	7942.12
496.422	8597.12
497.196	9299.12
497.97	10070.12
498.744	10832.12
499.518	11670.12
500.292	12393.12
501.066	13069.12
501.839	13835.12
502.613	14491.12
503.387	15124.12
504.16	15692.12
504.934	16185.12
505.707	16468.12
506.48	16726.12
507.253	16860.12
508.027	16929.12
508.8	16785.12
509.573	16617.12
510.346	16325.12
511.118	15903.12
511.891	15501.12
512.664	15019.12
513.437	14429.12
514.209	13846.12
514.982	13315.12
515.754	12760.12
516.526	12172.12
517.298	11646.12
518.071	11130.12
518.843	10604.12
519.615	10130.12
520.387	9718.12
521.159	9357.12
521.93	8986.12
522.702	8633.12
523.474	8286.12
524.245	7958.12
525.017	7668.12
525.788	7348.12
526.56	7043.12
527.331	6752.12
528.102	6453.12
528.873	6143.12
529.644	5882.12
530.415	5630.12
531.186	5293.12
531.957	5044.12
532.728	4772.12
533.498	4514.12
534.269	4289.12
535.039	4067.12
535.81	3816.12
536.58	3599.12
537.351	3399.12
538.121	3183.12
538.891	3053.12
539.661	2858.12
540.431	2700.12
541.201	2548.12
541.971	2443.12
542.741	2300.12
543.51	2188.12
544.28	2078.12
545.05	1974.12
545.819	1854.12
546.588	1782.12
547.358	1714.12
548.127	1602.12
548.896	1530.12
549.665	1453.12
550.434	1387.12
551.203	1322.12
551.972	1244.12
552.741	1172.12
553.51	1102.12
554.278	1047.12
555.047	981.12
555.815	924.12
556.584	878.12
557.352	829.12
558.121	778.12
558.889	737.12
559.657	699.12
560.425	653.12
561.193	616.12
561.961	581.12
562.729	557.12
563.496	511.12
564.264	485.12
565.032	466.12
565.799	431.12
566.567	414.12
567.334	383.12
568.101	368.12
568.869	346.12
569.636	328.12
570.403	301.12
571.17	293.12
571.937	272.12
572.704	259.12
573.471	245.12
574.237	229.12
575.004	210.12
575.771	202.12
576.537	195.12
577.303	184.12
578.07	168.12
578.836	159.12
579.602	154.12
580.368	137.12
581.134	133.12
581.9	129.12
582.666	117.12
583.432	114.12
584.198	112.12
584.964	103.12
585.729	95.12
586.495	90.12
587.26	80.12
588.025	80.12
588.791	79.12
589.556	77.12
590.321	70.12
591.086	67.12
591.851	62.12
592.616	60.12
593.381	56.12
594.146	54.12
594.911	51.12
595.675	47.12
596.44	47.12
597.204	44.12
597.969	43.12
598.733	39.12
599.497	39.12
600.261	34.12
601.025	33.12
601.79	36.12
602.553	29.12
603.317	31.12
604.081	28.12
604.845	28.12
605.609	26.12
606.372	27.12
607.136	25.12
607.899	22.12
608.662	23.12
609.426	21.12
610.189	19.12
610.952	17.12
611.715	19.12
612.478	18.12
613.241	17.12
614.004	17.12
614.767	16.12
615.529	16.12
616.292	16.12
617.055	13.12
617.817	14.12
618.579	10.12
619.342	15.12
620.104	12.12
620.866	12.12
621.628	12.12
622.39	11.12
623.152	9.12
623.914	11.12
624.676	11.12
625.438	10.12
626.199	12.12
626.961	9.12
627.722	9.12
628.484	9.12
629.245	6.12
630.006	7.12
630.768	6.12
631.529	7.12
632.29	9.12
633.051	7.12
633.812	5.12
634.573	5.12
635.333	8.12
636.094	4.12
636.855	6.12
637.615	7.12
638.376	4.12
639.136	7.12
639.896	4.12
640.657	6.12
641.417	4.12
642.177	8.12
642.937	5.12
643.697	4.12
644.457	3.12
645.216	2.12
645.976	4.12
646.736	6.12
647.495	5.12
648.255	3.12
649.014	4.12
649.774	2.12
650.533	4.12
651.292	2.12
652.051	4.12
652.81	3.12
653.569	3.12
654.328	2.12
655.087	5.12
655.846	3.12
656.604	2.12
657.363	2.12
658.121	2.12
658.88	3.12
659.638	2.12
660.397	3.12
661.155	1.12
661.913	4.12
662.671	3.12
663.429	2.12
664.187	1.12
664.945	4.12
665.703	4.12
666.46	1.12
667.218	2.12
667.976	1.12
668.733	4.12
669.49	2.12
670.248	3.12
671.005	2.12
671.762	2.12
672.519	5.12
673.276	3.12
674.033	4.12
674.79	0.12
675.547	4.12
676.304	3.12
677.06	3.12
677.817	3.12
678.574	1.12
679.33	2.12
680.086	1.12
680.843	3.12
681.599	0.12
682.355	2.12
683.111	3.12
683.867	1.12
684.623	2.12
685.379	1.12
686.135	3.12
686.89	1.12
687.646	3.12
688.402	1.12
689.157	2.12
689.912	0.12
690.668	1.12
691.423	3.12
692.178	6.12
692.933	0.12
693.688	4.12
694.443	4.12
695.198	3.12
695.953	5.12
696.708	3.12
697.462	1.12
698.217	3.12
698.972	0.12
699.726	2.12
700.48	1.12
701.235	3.12
701.989	2.12
702.743	4.12
703.497	2.12
704.251	1.12
705.005	3.12
705.759	2.12
706.513	0.12
707.266	0.12
708.02	2.12
708.774	2.12
709.527	2.12
710.28	4.12
711.034	2.12
711.787	2.12
712.54	-0.88
713.293	1.12
714.046	1.12
714.799	3.12
715.552	1.12
716.305	2.12
717.058	2.12
717.81	2.12
718.563	2.12
719.315	2.12
720.068	1.12
720.82	1.12
721.573	0.12
722.325	3.12
723.077	3.12
723.829	3.12
724.581	1.12
725.333	3.12
726.085	2.12
726.836	0.12
727.588	3.12
728.34	1.12
729.091	1.12
729.843	2.12
730.594	2.12
731.346	4.12
732.097	1.12
732.848	3.12
733.599	1.12
734.35	3.12
735.101	2.12
735.852	2.12
736.603	3.12
737.354	2.12
738.104	2.12
738.855	3.12
739.605	5.12
740.356	0.12
741.106	1.12
741.856	0.12
742.607	2.12
743.357	0.12
744.107	2.12
744.857	3.12
745.607	0.12
746.357	3.12
747.106	2.12
747.856	2.12
748.606	4.12
749.355	3.12
750.105	3.12
750.854	4.12
751.603	3.12
752.353	3.12
753.102	4.12
753.851	4.12
754.6	2.12
755.349	3.12
756.098	3.12
756.847	4.12
757.595	5.12
758.344	3.12
759.093	4.12
759.841	4.12
760.589	2.12
761.338	3.12
762.086	4.12
762.834	2.12
763.582	4.12
764.331	4.12
765.079	3.12
765.826	5.12
766.574	2.12
767.322	0.12
768.07	4.12
768.817	3.12
769.565	5.12
770.312	2.12
771.06	5.12
771.807	4.12
772.554	5.12
773.302	2.12
774.049	4.12
774.796	5.12
775.543	4.12
776.29	4.12
777.036	6.12
777.783	6.12
778.53	4.12
779.276	5.12
780.023	5.12
780.769	4.12
781.516	5.12
782.262	5.12
783.008	5.12
783.754	3.12
784.5	4.12
785.246	6.12
785.992	5.12
786.738	6.12
787.484	5.12
788.23	4.12
788.975	4.12
789.721	6.12
790.466	6.12
791.212	4.12
791.957	5.12
792.702	7.12
793.447	5.12
794.193	3.12
794.938	6.12
795.683	6.12
796.427	6.12
797.172	5.12
797.917	3.12
798.662	2.12
799.406	2.12
800.151	5.12
800.895	4.12
801.64	5.12
802.384	1.12
803.128	3.12
803.872	3.12
804.616	3.12
805.36	3.12
806.104	3.12
806.848	6.12
807.592	2.12
808.336	6.12
809.079	4.12
809.823	3.12
810.566	4.12
811.31	3.12
812.053	3.12
812.796	3.12
813.539	3.12
814.283	2.12
815.026	2.12
815.769	4.12
816.511	3.12
817.254	4.12
817.997	2.12
818.74	4.12
819.482	1.12
820.225	4.12
820.967	1.12
821.71	1.12
822.452	2.12
823.194	1.12
823.936	5.12
824.678	4.12
825.42	3.12
826.162	3.12
826.904	4.12
827.646	2.12
828.388	3.12
829.129	2.12
829.871	3.12
830.612	2.12
831.354	0.12
832.095	2.12
832.836	2.12
833.577	2.12
834.319	5.12
835.06	3.12
835.801	2.12
836.542	2.12
837.282	4.12
838.023	5.12
838.764	2.12
839.504	0.12
840.245	2.12
840.985	3.12
841.726	1.12
842.466	3.12
843.206	4.12
843.946	2.12
844.687	4.12
845.427	0.12
846.166	2.12
846.906	2.12
847.646	2.12
848.386	1.12
849.125	1.12
849.865	2.12
850.605	3.12
851.344	1.12
852.083	2.12
852.823	3.12
853.562	4.12
854.301	1.12
855.04	2.12
855.779	2.12
856.518	1.12
857.257	2.12
857.995	1.12
858.734	3.12
859.473	1.12
860.211	2.12
860.95	0.12
861.688	1.12
862.426	1.12
863.165	-0.88
863.903	1.12
864.641	1.12
865.379	1.12
866.117	1.12
866.855	2.12
867.593	-0.88
868.33	1.12
869.068	-0.88
869.806	1.12
870.543	0.12
871.28	4.12
872.018	1.12
872.755	0.12
873.492	1.12
874.229	-0.88
874.967	2.12
875.703	1.12
876.44	0.12
877.177	2.12
877.914	1.12
878.651	-2.88
879.387	0.12
880.124	0.12
880.86	1.12
881.597	0.12
882.333	1.12
883.069	1.12
883.806	2.12
884.542	1.12
885.278	2.12
886.014	0.12
886.749	1.12
887.485	0.12
888.221	-0.88
888.957	0.12
889.692	-0.88
890.428	1.12
891.163	0.12
891.899	0.12
892.634	0.12
893.369	1.12
894.104	1.12
894.839	1.12
895.574	4.12
896.309	0.12
897.044	-0.88
897.779	1.12
898.514	1.12
899.248	1.12
899.983	3.12
900.717	0.12
901.452	-0.88
902.186	-1.88
902.92	1.12
903.654	2.12
904.389	0.12
905.123	2.12
905.857	0.12
906.59	0.12
907.324	0.12
908.058	1.12
908.792	1.12
909.525	1.12
910.259	-1.88
910.992	1.12
911.726	0.12
912.459	-1.88
913.192	0.12
913.925	-0.88
914.658	0.12
915.391	1.12
916.124	-0.88
916.857	-0.88
917.59	0.12
918.323	1.12
919.055	1.12
919.788	-0.88
920.521	-0.88
921.253	-1.88
921.985	1.12
922.718	-1.88
923.45	-0.88
924.182	-1.88
924.914	0.12
925.646	2.12
926.378	1.12
927.11	-0.88
927.841	2.12
928.573	-1.88
929.305	0.12
930.036	1.12
930.768	-1.88
931.499	0.12
932.23	-0.88
932.962	-1.88
933.693	-2.88
934.424	2.12
935.155	0.12
935.886	0.12
936.617	0.12
937.348	-0.88
938.078	0.12
938.809	-0.88
939.54	3.12
940.27	0.12
941.001	1.12
941.731	-1.88
942.461	-0.88
943.191	1.12
943.922	0.12
944.652	-0.88
945.382	0.12
946.112	1.12
946.841	0.12
947.571	2.12
948.301	-1.88
949.031	-0.88
949.76	0.12
950.49	-0.88
951.219	-0.88
951.948	0.12
952.678	-1.88
953.407	1.12
954.136	1.12
954.865	1.12
955.594	2.12
956.323	-0.88
957.052	0.12
957.78	-2.88
958.509	2.12
959.238	-2.88
959.966	1.12
960.695	-0.88
961.423	-1.88
962.151	0.12
962.88	-1.88
963.608	0.12
964.336	1.12
965.064	1.12
965.792	-0.88
966.52	1.12
967.247	1.12
967.975	-0.88
968.703	0.12
969.43	1.12
970.158	0.12
970.885	3.12
971.613	-2.88
972.34	-0.88
973.067	-0.88
973.794	0.12
974.521	0.12
975.248	2.12
975.975	0.12
976.702	0.12
977.429	0.12
978.156	-0.88
978.882	1.12
979.609	0.12
980.335	-0.88
981.062	-0.88
981.788	-0.88
982.514	1.12
983.24	-1.88
983.967	1.12
984.693	1.12
985.419	0.12
986.144	0.12
986.87	0.12
987.596	2.12
988.322	0.12
989.047	-0.88
989.773	0.12
990.498	-1.88
991.224	0.12
991.949	1.12
992.674	0.12
993.399	0.12
994.124	1.12
994.849	-1.88
995.574	0.12
996.299	1.12
997.024	-0.88
997.749	2.12
998.473	-2.88
999.198	0.12
999.922	-1.88
1000.647	-0.88
1001.371	3.12
1002.095	0.12
1002.82	-1.88
1003.544	-1.88
1004.268	0.12
1004.992	-0.88
1005.716	0.12
1006.439	-1.88
1007.163	0.12
1007.887	-1.88
1008.611	1.12
1009.334	-1.88
1010.058	-0.88
1010.781	-0.88
1011.504	0.12
1012.228	0.12
1012.951	0.12
1013.674	0.12
1014.397	0.12
1015.12	0.12
