节点500_145_QEPB04081__173__11-31-42-547.txt的数据

Date: Wed Nov 12 11:31:42 CST 2025
User: PC
Spectrometer: QEPB0408
触发模式: 0
积分时间 (秒): 1.000000E-2
Scans to average: 1
启用暗噪声校正: true
启用非线性校正: false
滑动平均宽度: 0
X轴模式: Wavelengths
Number of Pixels in Spectrum: 1044
>>>>>Begin Spectral Data<<<<<
220.843	-0.38
221.644	0.62
222.444	-0.38
223.244	-1.38
224.045	-0.38
224.845	-2.38
225.645	0.62
226.445	1.62
227.245	-0.38
228.045	-0.38
228.845	-0.38
229.645	-0.38
230.444	-1.38
231.244	-1.38
232.043	-0.38
232.843	-0.38
233.642	1.62
234.442	-0.38
235.241	-0.38
236.04	0.62
236.839	0.62
237.638	0.62
238.437	1.62
239.236	0.62
240.035	1.62
240.833	0.62
241.632	2.62
242.43	0.62
243.229	-0.38
244.027	1.62
244.826	1.62
245.624	4.62
246.422	0.62
247.22	1.62
248.018	1.62
248.816	2.62
249.614	2.62
250.412	1.62
251.21	1.62
252.007	2.62
252.805	1.62
253.602	1.62
254.4	2.62
255.197	2.62
255.994	-0.38
256.791	4.62
257.589	2.62
258.386	3.62
259.183	5.62
259.979	4.62
260.776	3.62
261.573	2.62
262.37	2.62
263.166	5.62
263.963	4.62
264.759	4.62
265.556	2.62
266.352	5.62
267.148	4.62
267.944	5.62
268.74	7.62
269.536	7.62
270.332	7.62
271.128	4.62
271.924	9.62
272.719	8.62
273.515	7.62
274.311	7.62
275.106	6.62
275.901	8.62
276.697	6.62
277.492	10.62
278.287	8.62
279.082	6.62
279.877	7.62
280.672	9.62
281.467	9.62
282.262	10.62
283.056	8.62
283.851	9.62
284.646	10.62
285.44	11.62
286.234	10.62
287.029	13.62
287.823	12.62
288.617	10.62
289.411	9.62
290.205	8.62
290.999	8.62
291.793	11.62
292.587	9.62
293.381	10.62
294.174	7.62
294.968	8.62
295.761	9.62
296.555	12.62
297.348	9.62
298.141	7.62
298.935	9.62
299.728	9.62
300.521	8.62
301.314	9.62
302.107	7.62
302.899	6.62
303.692	12.62
304.485	8.62
305.277	10.62
306.07	7.62
306.862	7.62
307.655	7.62
308.447	8.62
309.239	6.62
310.031	5.62
310.823	6.62
311.615	6.62
312.407	6.62
313.199	5.62
313.991	6.62
314.783	5.62
315.574	6.62
316.366	4.62
317.157	4.62
317.949	7.62
318.74	4.62
319.531	4.62
320.322	4.62
321.113	6.62
321.904	5.62
322.695	4.62
323.486	3.62
324.277	4.62
325.068	3.62
325.858	3.62
326.649	3.62
327.439	2.62
328.23	1.62
329.02	2.62
329.81	3.62
330.6	3.62
331.391	1.62
332.181	2.62
332.971	2.62
333.76	2.62
334.55	4.62
335.34	5.62
336.13	2.62
336.919	2.62
337.709	1.62
338.498	2.62
339.287	5.62
340.077	3.62
340.866	2.62
341.655	2.62
342.444	4.62
343.233	3.62
344.022	4.62
344.811	3.62
345.6	3.62
346.388	1.62
347.177	4.62
347.965	4.62
348.754	0.62
349.542	6.62
350.33	4.62
351.119	2.62
351.907	1.62
352.695	1.62
353.483	3.62
354.271	3.62
355.059	1.62
355.846	3.62
356.634	0.62
357.422	1.62
358.209	0.62
358.997	2.62
359.784	2.62
360.571	3.62
361.359	4.62
362.146	1.62
362.933	0.62
363.72	3.62
364.507	1.62
365.294	3.62
366.081	2.62
366.867	4.62
367.654	-1.38
368.44	2.62
369.227	1.62
370.013	0.62
370.8	2.62
371.586	0.62
372.372	2.62
373.158	1.62
373.944	1.62
374.73	1.62
375.516	2.62
376.302	4.62
377.088	2.62
377.873	3.62
378.659	-0.38
379.445	3.62
380.23	3.62
381.015	0.62
381.801	2.62
382.586	2.62
383.371	1.62
384.156	1.62
384.941	1.62
385.726	1.62
386.511	1.62
387.296	4.62
388.08	-0.38
388.865	4.62
389.649	2.62
390.434	4.62
391.218	1.62
392.003	4.62
392.787	1.62
393.571	0.62
394.355	0.62
395.139	2.62
395.923	3.62
396.707	0.62
397.491	3.62
398.274	1.62
399.058	2.62
399.842	2.62
400.625	4.62
401.408	4.62
402.192	3.62
402.975	4.62
403.758	1.62
404.541	2.62
405.324	3.62
406.107	3.62
406.89	5.62
407.673	3.62
408.456	0.62
409.238	4.62
410.021	4.62
410.803	0.62
411.586	4.62
412.368	3.62
413.151	3.62
413.933	3.62
414.715	5.62
415.497	3.62
416.279	4.62
417.061	4.62
417.843	5.62
418.624	4.62
419.406	4.62
420.188	4.62
420.969	4.62
421.751	6.62
422.532	4.62
423.313	5.62
424.095	5.62
424.876	4.62
425.657	5.62
426.438	5.62
427.219	5.62
428	6.62
428.78	5.62
429.561	6.62
430.342	6.62
431.122	6.62
431.903	5.62
432.683	8.62
433.464	7.62
434.244	8.62
435.024	6.62
435.804	7.62
436.584	9.62
437.364	8.62
438.144	11.62
438.924	10.62
439.704	9.62
440.483	9.62
441.263	9.62
442.042	13.62
442.822	11.62
443.601	14.62
444.38	12.62
445.16	13.62
445.939	16.62
446.718	15.62
447.497	16.62
448.276	17.62
449.054	21.62
449.833	21.62
450.612	25.62
451.391	22.62
452.169	25.62
452.948	29.62
453.726	29.62
454.504	36.62
455.282	37.62
456.061	42.62
456.839	44.62
457.617	53.62
458.395	56.62
459.172	62.62
459.95	65.62
460.728	80.62
461.506	84.62
462.283	98.62
463.061	105.62
463.838	115.62
464.615	128.62
465.393	147.62
466.17	164.62
466.947	182.62
467.724	210.62
468.501	230.62
469.278	256.62
470.055	283.62
470.831	320.62
471.608	353.62
472.385	397.62
473.161	446.62
473.938	488.62
474.714	537.62
475.49	604.62
476.266	682.62
477.043	749.62
477.819	835.62
478.595	925.62
479.371	1023.62
480.146	1125.62
480.922	1248.62
481.698	1390.62
482.473	1544.62
483.249	1722.62
484.024	1901.62
484.8	2106.62
485.575	2305.62
486.35	2562.62
487.126	2850.62
487.901	3132.62
488.676	3437.62
489.451	3820.62
490.225	4244.62
491	4631.62
491.775	5137.62
492.55	5682.62
493.324	6172.62
494.099	6806.62
494.873	7405.62
495.647	8114.62
496.422	8825.62
497.196	9530.62
497.97	10329.62
498.744	11138.62
499.518	11895.62
500.292	12716.62
501.066	13477.62
501.839	14134.62
502.613	14810.62
503.387	15467.62
504.16	16008.62
504.934	16405.62
505.707	16770.62
506.48	16950.62
507.253	17063.62
508.027	17095.62
508.8	16983.62
509.573	16733.62
510.346	16383.62
511.118	16002.62
511.891	15515.62
512.664	15024.62
513.437	14403.62
514.209	13808.62
514.982	13335.62
515.754	12706.62
516.526	12139.62
517.298	11529.62
518.071	11049.62
518.843	10542.62
519.615	10103.62
520.387	9684.62
521.159	9307.62
521.93	8931.62
522.702	8585.62
523.474	8240.62
524.245	7920.62
525.017	7623.62
525.788	7308.62
526.56	7002.62
527.331	6693.62
528.102	6353.62
528.873	6102.62
529.644	5810.62
530.415	5560.62
531.186	5273.62
531.957	4988.62
532.728	4756.62
533.498	4473.62
534.269	4228.62
535.039	3983.62
535.81	3750.62
536.58	3517.62
537.351	3349.62
538.121	3165.62
538.891	2973.62
539.661	2815.62
540.431	2663.62
541.201	2511.62
541.971	2428.62
542.741	2280.62
543.51	2157.62
544.28	2063.62
545.05	1944.62
545.819	1844.62
546.588	1761.62
547.358	1679.62
548.127	1586.62
548.896	1512.62
549.665	1415.62
550.434	1369.62
551.203	1296.62
551.972	1216.62
552.741	1162.62
553.51	1083.62
554.278	1027.62
555.047	970.62
555.815	915.62
556.584	858.62
557.352	816.62
558.121	767.62
558.889	721.62
559.657	686.62
560.425	653.62
561.193	607.62
561.961	567.62
562.729	535.62
563.496	499.62
564.264	477.62
565.032	453.62
565.799	422.62
566.567	403.62
567.334	382.62
568.101	358.62
568.869	338.62
569.636	320.62
570.403	297.62
571.17	287.62
571.937	268.62
572.704	246.62
573.471	240.62
574.237	227.62
575.004	213.62
575.771	200.62
576.537	188.62
577.303	178.62
578.07	167.62
578.836	156.62
579.602	150.62
580.368	140.62
581.134	136.62
581.9	126.62
582.666	117.62
583.432	110.62
584.198	103.62
584.964	100.62
585.729	96.62
586.495	87.62
587.26	83.62
588.025	80.62
588.791	72.62
589.556	70.62
590.321	65.62
591.086	67.62
591.851	59.62
592.616	58.62
593.381	54.62
594.146	54.62
594.911	45.62
595.675	45.62
596.44	44.62
597.204	42.62
597.969	40.62
598.733	35.62
599.497	36.62
600.261	35.62
601.025	33.62
601.79	29.62
602.553	31.62
603.317	28.62
604.081	25.62
604.845	27.62
605.609	25.62
606.372	25.62
607.136	24.62
607.899	19.62
608.662	18.62
609.426	19.62
610.189	21.62
610.952	21.62
611.715	16.62
612.478	16.62
613.241	17.62
614.004	16.62
614.767	13.62
615.529	12.62
616.292	14.62
617.055	15.62
617.817	12.62
618.579	10.62
619.342	12.62
620.104	13.62
620.866	10.62
621.628	10.62
622.39	9.62
623.152	9.62
623.914	9.62
624.676	8.62
625.438	9.62
626.199	9.62
626.961	9.62
627.722	6.62
628.484	7.62
629.245	8.62
630.006	6.62
630.768	6.62
631.529	7.62
632.29	7.62
633.051	7.62
633.812	5.62
634.573	5.62
635.333	6.62
636.094	6.62
636.855	6.62
637.615	5.62
638.376	4.62
639.136	6.62
639.896	5.62
640.657	4.62
641.417	2.62
642.177	5.62
642.937	6.62
643.697	3.62
644.457	5.62
645.216	4.62
645.976	1.62
646.736	5.62
647.495	3.62
648.255	6.62
649.014	1.62
649.774	3.62
650.533	3.62
651.292	1.62
652.051	5.62
652.81	0.62
653.569	3.62
654.328	1.62
655.087	3.62
655.846	6.62
656.604	2.62
657.363	3.62
658.121	2.62
658.88	1.62
659.638	2.62
660.397	4.62
661.155	3.62
661.913	0.62
662.671	1.62
663.429	0.62
664.187	0.62
664.945	2.62
665.703	1.62
666.46	2.62
667.218	1.62
667.976	4.62
668.733	2.62
669.49	4.62
670.248	1.62
671.005	1.62
671.762	4.62
672.519	2.62
673.276	0.62
674.033	1.62
674.79	3.62
675.547	1.62
676.304	1.62
677.06	1.62
677.817	2.62
678.574	3.62
679.33	1.62
680.086	2.62
680.843	2.62
681.599	1.62
682.355	0.62
683.111	3.62
683.867	3.62
684.623	1.62
685.379	0.62
686.135	0.62
686.89	-0.38
687.646	3.62
688.402	3.62
689.157	0.62
689.912	2.62
690.668	1.62
691.423	2.62
692.178	1.62
692.933	1.62
693.688	2.62
694.443	2.62
695.198	-2.38
695.953	2.62
696.708	0.62
697.462	1.62
698.217	1.62
698.972	1.62
699.726	0.62
700.48	0.62
701.235	0.62
701.989	1.62
702.743	1.62
703.497	0.62
704.251	2.62
705.005	2.62
705.759	0.62
706.513	4.62
707.266	2.62
708.02	-0.38
708.774	2.62
709.527	2.62
710.28	0.62
711.034	1.62
711.787	1.62
712.54	-0.38
713.293	-0.38
714.046	1.62
714.799	0.62
715.552	0.62
716.305	2.62
717.058	0.62
717.81	-0.38
718.563	2.62
719.315	2.62
720.068	0.62
720.82	1.62
721.573	0.62
722.325	2.62
723.077	0.62
723.829	1.62
724.581	3.62
725.333	1.62
726.085	-0.38
726.836	1.62
727.588	2.62
728.34	3.62
729.091	-1.38
729.843	2.62
730.594	2.62
731.346	0.62
732.097	1.62
732.848	1.62
733.599	1.62
734.35	3.62
735.101	0.62
735.852	2.62
736.603	-0.38
737.354	2.62
738.104	-0.38
738.855	2.62
739.605	0.62
740.356	1.62
741.106	2.62
741.856	-0.38
742.607	1.62
743.357	2.62
744.107	1.62
744.857	2.62
745.607	2.62
746.357	2.62
747.106	1.62
747.856	2.62
748.606	2.62
749.355	3.62
750.105	1.62
750.854	1.62
751.603	1.62
752.353	-0.38
753.102	4.62
753.851	1.62
754.6	2.62
755.349	-0.38
756.098	2.62
756.847	1.62
757.595	2.62
758.344	4.62
759.093	0.62
759.841	1.62
760.589	2.62
761.338	3.62
762.086	1.62
762.834	2.62
763.582	3.62
764.331	4.62
765.079	4.62
765.826	3.62
766.574	1.62
767.322	3.62
768.07	2.62
768.817	2.62
769.565	4.62
770.312	5.62
771.06	6.62
771.807	6.62
772.554	3.62
773.302	3.62
774.049	2.62
774.796	5.62
775.543	5.62
776.29	6.62
777.036	3.62
777.783	2.62
778.53	1.62
779.276	4.62
780.023	4.62
780.769	4.62
781.516	6.62
782.262	5.62
783.008	3.62
783.754	6.62
784.5	5.62
785.246	5.62
785.992	4.62
786.738	6.62
787.484	3.62
788.23	6.62
788.975	3.62
789.721	4.62
790.466	4.62
791.212	3.62
791.957	6.62
792.702	4.62
793.447	4.62
794.193	3.62
794.938	6.62
795.683	1.62
796.427	3.62
797.172	3.62
797.917	4.62
798.662	4.62
799.406	2.62
800.151	5.62
800.895	4.62
801.64	3.62
802.384	2.62
803.128	2.62
803.872	2.62
804.616	2.62
805.36	3.62
806.104	4.62
806.848	3.62
807.592	4.62
808.336	3.62
809.079	2.62
809.823	2.62
810.566	4.62
811.31	3.62
812.053	2.62
812.796	3.62
813.539	3.62
814.283	4.62
815.026	1.62
815.769	3.62
816.511	4.62
817.254	3.62
817.997	3.62
818.74	4.62
819.482	2.62
820.225	1.62
820.967	2.62
821.71	3.62
822.452	3.62
823.194	2.62
823.936	2.62
824.678	5.62
825.42	3.62
826.162	0.62
826.904	3.62
827.646	2.62
828.388	1.62
829.129	0.62
829.871	2.62
830.612	1.62
831.354	1.62
832.095	0.62
832.836	-0.38
833.577	1.62
834.319	0.62
835.06	1.62
835.801	1.62
836.542	1.62
837.282	1.62
838.023	3.62
838.764	2.62
839.504	0.62
840.245	1.62
840.985	-0.38
841.726	2.62
842.466	2.62
843.206	0.62
843.946	0.62
844.687	0.62
845.427	1.62
846.166	2.62
846.906	2.62
847.646	1.62
848.386	2.62
849.125	1.62
849.865	1.62
850.605	1.62
851.344	1.62
852.083	0.62
852.823	2.62
853.562	0.62
854.301	0.62
855.04	0.62
855.779	1.62
856.518	1.62
857.257	0.62
857.995	1.62
858.734	-1.38
859.473	1.62
860.211	0.62
860.95	-0.38
861.688	1.62
862.426	1.62
863.165	1.62
863.903	0.62
864.641	0.62
865.379	2.62
866.117	1.62
866.855	1.62
867.593	0.62
868.33	1.62
869.068	-0.38
869.806	1.62
870.543	-0.38
871.28	0.62
872.018	-0.38
872.755	0.62
873.492	-0.38
874.229	1.62
874.967	0.62
875.703	0.62
876.44	-0.38
877.177	1.62
877.914	-0.38
878.651	0.62
879.387	-0.38
880.124	0.62
880.86	-0.38
881.597	-0.38
882.333	1.62
883.069	-1.38
883.806	0.62
884.542	2.62
885.278	2.62
886.014	0.62
886.749	2.62
887.485	0.62
888.221	-0.38
888.957	-0.38
889.692	-1.38
890.428	0.62
891.163	0.62
891.899	-0.38
892.634	0.62
893.369	-0.38
894.104	0.62
894.839	0.62
895.574	0.62
896.309	-1.38
897.044	-0.38
897.779	0.62
898.514	0.62
899.248	0.62
899.983	-0.38
900.717	-2.38
901.452	0.62
902.186	-0.38
902.92	0.62
903.654	-0.38
904.389	0.62
905.123	-0.38
905.857	-0.38
906.59	-2.38
907.324	-0.38
908.058	1.62
908.792	-0.38
909.525	-1.38
910.259	1.62
910.992	1.62
911.726	0.62
912.459	-0.38
913.192	-0.38
913.925	-0.38
914.658	1.62
915.391	0.62
916.124	0.62
916.857	1.62
917.59	-1.38
918.323	0.62
919.055	-0.38
919.788	-2.38
920.521	-0.38
921.253	-0.38
921.985	0.62
922.718	-1.38
923.45	0.62
924.182	-2.38
924.914	0.62
925.646	1.62
926.378	0.62
927.11	1.62
927.841	-1.38
928.573	-4.38
929.305	0.62
930.036	0.62
930.768	-1.38
931.499	-1.38
932.23	0.62
932.962	-1.38
933.693	-0.38
934.424	0.62
935.155	-1.38
935.886	0.62
936.617	-0.38
937.348	-0.38
938.078	0.62
938.809	-2.38
939.54	-0.38
940.27	-0.38
941.001	-0.38
941.731	-0.38
942.461	-1.38
943.191	-0.38
943.922	-0.38
944.652	0.62
945.382	-1.38
946.112	0.62
946.841	-1.38
947.571	0.62
948.301	-1.38
949.031	0.62
949.76	-2.38
950.49	-2.38
951.219	0.62
951.948	-0.38
952.678	1.62
953.407	0.62
954.136	1.62
954.865	-1.38
955.594	-0.38
956.323	-1.38
957.052	0.62
957.78	0.62
958.509	0.62
959.238	-0.38
959.966	2.62
960.695	-0.38
961.423	-2.38
962.151	0.62
962.88	-1.38
963.608	1.62
964.336	-0.38
965.064	0.62
965.792	-1.38
966.52	-1.38
967.247	-0.38
967.975	0.62
968.703	0.62
969.43	-0.38
970.158	-2.38
970.885	-0.38
971.613	1.62
972.34	-1.38
973.067	-1.38
973.794	0.62
974.521	-0.38
975.248	0.62
975.975	-2.38
976.702	-0.38
977.429	-2.38
978.156	0.62
978.882	0.62
979.609	-0.38
980.335	-0.38
981.062	-0.38
981.788	-0.38
982.514	-0.38
983.24	-0.38
983.967	-0.38
984.693	1.62
985.419	-0.38
986.144	-1.38
986.87	-0.38
987.596	-1.38
988.322	-0.38
989.047	0.62
989.773	-2.38
990.498	-2.38
991.224	-1.38
991.949	0.62
992.674	0.62
993.399	1.62
994.124	-0.38
994.849	-0.38
995.574	0.62
996.299	0.62
997.024	0.62
997.749	1.62
998.473	-1.38
999.198	-2.38
999.922	-0.38
1000.647	-0.38
1001.371	2.62
1002.095	-0.38
1002.82	-0.38
1003.544	-0.38
1004.268	-0.38
1004.992	0.62
1005.716	-0.38
1006.439	0.62
1007.163	0.62
1007.887	-0.38
1008.611	-1.38
1009.334	0.62
1010.058	-1.38
1010.781	-1.38
1011.504	-1.38
1012.228	-1.38
1012.951	-0.38
1013.674	-1.38
1014.397	0.62
1015.12	-0.38
