节点500_145_QEPB04081__245__11-32-53-463.txt的数据

Date: Wed Nov 12 11:32:53 CST 2025
User: PC
Spectrometer: QEPB0408
触发模式: 0
积分时间 (秒): 1.000000E-2
Scans to average: 1
启用暗噪声校正: true
启用非线性校正: false
滑动平均宽度: 0
X轴模式: Wavelengths
Number of Pixels in Spectrum: 1044
>>>>>Begin Spectral Data<<<<<
220.843	0
221.644	-1
222.444	0
223.244	3
224.045	0
224.845	3
225.645	2
226.445	-1
227.245	0
228.045	3
228.845	2
229.645	0
230.444	2
231.244	0
232.043	4
232.843	0
233.642	3
234.442	1
235.241	0
236.04	1
236.839	1
237.638	2
238.437	1
239.236	4
240.035	3
240.833	0
241.632	3
242.43	3
243.229	3
244.027	1
244.826	5
245.624	5
246.422	2
247.22	3
248.018	1
248.816	5
249.614	3
250.412	2
251.21	3
252.007	3
252.805	4
253.602	2
254.4	5
255.197	2
255.994	5
256.791	6
257.589	3
258.386	5
259.183	5
259.979	6
260.776	5
261.573	5
262.37	7
263.166	5
263.963	5
264.759	5
265.556	8
266.352	7
267.148	7
267.944	7
268.74	10
269.536	10
270.332	11
271.128	7
271.924	8
272.719	7
273.515	12
274.311	9
275.106	11
275.901	11
276.697	13
277.492	10
278.287	11
279.082	10
279.877	10
280.672	14
281.467	11
282.262	13
283.056	11
283.851	9
284.646	12
285.44	13
286.234	12
287.029	10
287.823	14
288.617	12
289.411	9
290.205	13
290.999	10
291.793	13
292.587	9
293.381	12
294.174	13
294.968	14
295.761	10
296.555	8
297.348	13
298.141	8
298.935	12
299.728	9
300.521	9
301.314	11
302.107	9
302.899	9
303.692	10
304.485	9
305.277	8
306.07	10
306.862	8
307.655	6
308.447	9
309.239	9
310.031	9
310.823	6
311.615	8
312.407	8
313.199	7
313.991	7
314.783	7
315.574	7
316.366	6
317.157	5
317.949	5
318.74	7
319.531	6
320.322	7
321.113	7
321.904	6
322.695	6
323.486	4
324.277	7
325.068	6
325.858	5
326.649	3
327.439	5
328.23	2
329.02	6
329.81	4
330.6	6
331.391	4
332.181	5
332.971	7
333.76	4
334.55	3
335.34	4
336.13	3
336.919	4
337.709	6
338.498	4
339.287	2
340.077	7
340.866	5
341.655	6
342.444	5
343.233	6
344.022	5
344.811	3
345.6	5
346.388	5
347.177	3
347.965	3
348.754	2
349.542	5
350.33	3
351.119	3
351.907	4
352.695	3
353.483	3
354.271	4
355.059	3
355.846	2
356.634	5
357.422	6
358.209	2
358.997	5
359.784	2
360.571	5
361.359	4
362.146	2
362.933	3
363.72	5
364.507	2
365.294	2
366.081	4
366.867	4
367.654	4
368.44	3
369.227	4
370.013	3
370.8	4
371.586	3
372.372	3
373.158	3
373.944	6
374.73	5
375.516	4
376.302	3
377.088	3
377.873	5
378.659	3
379.445	4
380.23	4
381.015	6
381.801	2
382.586	1
383.371	4
384.156	3
384.941	3
385.726	5
386.511	4
387.296	3
388.08	4
388.865	3
389.649	3
390.434	3
391.218	2
392.003	4
392.787	4
393.571	6
394.355	4
395.139	6
395.923	3
396.707	3
397.491	4
398.274	4
399.058	6
399.842	4
400.625	3
401.408	8
402.192	2
402.975	6
403.758	4
404.541	5
405.324	6
406.107	5
406.89	7
407.673	6
408.456	6
409.238	2
410.021	6
410.803	7
411.586	4
412.368	7
413.151	5
413.933	5
414.715	5
415.497	5
416.279	4
417.061	7
417.843	6
418.624	5
419.406	6
420.188	6
420.969	6
421.751	5
422.532	6
423.313	8
424.095	8
424.876	9
425.657	8
426.438	7
427.219	7
428	6
428.78	7
429.561	8
430.342	9
431.122	6
431.903	7
432.683	8
433.464	9
434.244	10
435.024	12
435.804	10
436.584	11
437.364	11
438.144	10
438.924	10
439.704	12
440.483	13
441.263	12
442.042	13
442.822	13
443.601	16
444.38	16
445.16	18
445.939	18
446.718	18
447.497	16
448.276	21
449.054	21
449.833	23
450.612	26
451.391	29
452.169	30
452.948	33
453.726	33
454.504	36
455.282	42
456.061	45
456.839	47
457.617	57
458.395	63
459.172	67
459.95	74
460.728	78
461.506	88
462.283	101
463.061	110
463.838	125
464.615	141
465.393	152
466.17	172
466.947	195
467.724	214
468.501	242
469.278	260
470.055	293
470.831	331
471.608	363
472.385	410
473.161	452
473.938	497
474.714	554
475.49	619
476.266	681
477.043	765
477.819	837
478.595	935
479.371	1022
480.146	1138
480.922	1275
481.698	1403
482.473	1547
483.249	1715
484.024	1859
484.8	2077
485.575	2294
486.35	2541
487.126	2786
487.901	3063
488.676	3401
489.451	3741
490.225	4109
491	4514
491.775	4981
492.55	5480
493.324	6003
494.099	6511
494.873	7171
495.647	7823
496.422	8521
497.196	9156
497.97	9937
498.744	10683
499.518	11441
500.292	12199
501.066	12957
501.839	13592
502.613	14323
503.387	14915
504.16	15469
504.934	15915
505.707	16260
506.48	16478
507.253	16725
508.027	16759
508.8	16621
509.573	16434
510.346	16172
511.118	15821
511.891	15351
512.664	14885
513.437	14355
514.209	13740
514.982	13235
515.754	12722
516.526	12131
517.298	11614
518.071	11095
518.843	10534
519.615	10098
520.387	9714
521.159	9324
521.93	8906
522.702	8550
523.474	8251
524.245	7956
525.017	7625
525.788	7271
526.56	7008
527.331	6740
528.102	6429
528.873	6103
529.644	5860
530.415	5627
531.186	5319
531.957	5050
532.728	4779
533.498	4507
534.269	4257
535.039	4038
535.81	3807
536.58	3608
537.351	3396
538.121	3227
538.891	3031
539.661	2863
540.431	2707
541.201	2568
541.971	2415
542.741	2287
543.51	2182
544.28	2086
545.05	1971
545.819	1861
546.588	1786
547.358	1699
548.127	1607
548.896	1525
549.665	1458
550.434	1378
551.203	1303
551.972	1238
552.741	1177
553.51	1115
554.278	1055
555.047	987
555.815	934
556.584	879
557.352	825
558.121	779
558.889	739
559.657	701
560.425	656
561.193	613
561.961	583
562.729	552
563.496	520
564.264	490
565.032	462
565.799	442
566.567	409
567.334	396
568.101	367
568.869	353
569.636	327
570.403	311
571.17	289
571.937	271
572.704	251
573.471	242
574.237	229
575.004	216
575.771	207
576.537	195
577.303	181
578.07	178
578.836	158
579.602	151
580.368	139
581.134	139
581.9	128
582.666	118
583.432	114
584.198	107
584.964	99
585.729	98
586.495	95
587.26	88
588.025	80
588.791	79
589.556	76
590.321	70
591.086	69
591.851	64
592.616	61
593.381	55
594.146	54
594.911	53
595.675	51
596.44	47
597.204	44
597.969	45
598.733	41
599.497	42
600.261	38
601.025	37
601.79	33
602.553	35
603.317	31
604.081	30
604.845	28
605.609	26
606.372	30
607.136	24
607.899	26
608.662	27
609.426	21
610.189	23
610.952	19
611.715	21
612.478	19
613.241	18
614.004	19
614.767	15
615.529	15
616.292	14
617.055	15
617.817	12
618.579	13
619.342	14
620.104	13
620.866	15
621.628	11
622.39	12
623.152	11
623.914	11
624.676	11
625.438	9
626.199	11
626.961	11
627.722	10
628.484	10
629.245	7
630.006	8
630.768	6
631.529	9
632.29	8
633.051	8
633.812	11
634.573	8
635.333	9
636.094	7
636.855	6
637.615	6
638.376	6
639.136	5
639.896	4
640.657	8
641.417	4
642.177	7
642.937	5
643.697	4
644.457	6
645.216	5
645.976	5
646.736	7
647.495	5
648.255	3
649.014	4
649.774	3
650.533	3
651.292	4
652.051	6
652.81	4
653.569	5
654.328	4
655.087	6
655.846	5
656.604	4
657.363	4
658.121	2
658.88	3
659.638	5
660.397	5
661.155	4
661.913	5
662.671	5
663.429	2
664.187	4
664.945	4
665.703	5
666.46	2
667.218	4
667.976	4
668.733	5
669.49	3
670.248	5
671.005	4
671.762	1
672.519	6
673.276	4
674.033	2
674.79	4
675.547	3
676.304	2
677.06	3
677.817	2
678.574	4
679.33	1
680.086	4
680.843	3
681.599	3
682.355	4
683.111	3
683.867	2
684.623	3
685.379	3
686.135	1
686.89	4
687.646	5
688.402	3
689.157	3
689.912	2
690.668	3
691.423	2
692.178	5
692.933	1
693.688	6
694.443	3
695.198	2
695.953	3
696.708	4
697.462	2
698.217	1
698.972	3
699.726	4
700.48	3
701.235	2
701.989	2
702.743	3
703.497	1
704.251	4
705.005	6
705.759	3
706.513	3
707.266	2
708.02	3
708.774	4
709.527	2
710.28	3
711.034	4
711.787	2
712.54	3
713.293	1
714.046	3
714.799	3
715.552	3
716.305	5
717.058	2
717.81	2
718.563	2
719.315	5
720.068	4
720.82	3
721.573	4
722.325	2
723.077	2
723.829	3
724.581	4
725.333	3
726.085	2
726.836	0
727.588	0
728.34	2
729.091	4
729.843	3
730.594	3
731.346	3
732.097	3
732.848	3
733.599	4
734.35	4
735.101	4
735.852	2
736.603	3
737.354	4
738.104	2
738.855	3
739.605	4
740.356	4
741.106	4
741.856	3
742.607	3
743.357	5
744.107	3
744.857	4
745.607	1
746.357	3
747.106	5
747.856	2
748.606	1
749.355	3
750.105	3
750.854	4
751.603	2
752.353	2
753.102	2
753.851	4
754.6	3
755.349	6
756.098	3
756.847	6
757.595	4
758.344	2
759.093	5
759.841	4
760.589	5
761.338	3
762.086	4
762.834	7
763.582	2
764.331	8
765.079	3
765.826	5
766.574	4
767.322	5
768.07	4
768.817	4
769.565	4
770.312	6
771.06	5
771.807	6
772.554	4
773.302	5
774.049	4
774.796	6
775.543	6
776.29	6
777.036	4
777.783	2
778.53	4
779.276	7
780.023	6
780.769	6
781.516	4
782.262	6
783.008	7
783.754	7
784.5	6
785.246	5
785.992	8
786.738	6
787.484	6
788.23	5
788.975	6
789.721	4
790.466	9
791.212	7
791.957	5
792.702	7
793.447	7
794.193	6
794.938	7
795.683	8
796.427	6
797.172	5
797.917	7
798.662	6
799.406	6
800.151	4
800.895	8
801.64	4
802.384	5
803.128	6
803.872	5
804.616	3
805.36	5
806.104	3
806.848	4
807.592	2
808.336	6
809.079	5
809.823	4
810.566	6
811.31	5
812.053	6
812.796	3
813.539	4
814.283	2
815.026	6
815.769	4
816.511	6
817.254	4
817.997	3
818.74	6
819.482	3
820.225	5
820.967	2
821.71	4
822.452	6
823.194	2
823.936	4
824.678	4
825.42	3
826.162	2
826.904	5
827.646	3
828.388	2
829.129	4
829.871	2
830.612	5
831.354	3
832.095	4
832.836	4
833.577	3
834.319	2
835.06	5
835.801	3
836.542	4
837.282	3
838.023	2
838.764	3
839.504	3
840.245	2
840.985	7
841.726	3
842.466	4
843.206	4
843.946	3
844.687	4
845.427	1
846.166	4
846.906	2
847.646	2
848.386	4
849.125	2
849.865	5
850.605	5
851.344	6
852.083	3
852.823	5
853.562	2
854.301	3
855.04	3
855.779	4
856.518	2
857.257	1
857.995	2
858.734	2
859.473	2
860.211	5
860.95	1
861.688	3
862.426	3
863.165	1
863.903	3
864.641	3
865.379	2
866.117	3
866.855	2
867.593	3
868.33	2
869.068	1
869.806	1
870.543	2
871.28	3
872.018	2
872.755	1
873.492	2
874.229	4
874.967	4
875.703	4
876.44	1
877.177	1
877.914	2
878.651	3
879.387	4
880.124	3
880.86	2
881.597	3
882.333	1
883.069	1
883.806	0
884.542	1
885.278	0
886.014	2
886.749	2
887.485	-1
888.221	0
888.957	0
889.692	1
890.428	1
891.163	1
891.899	3
892.634	2
893.369	1
894.104	0
894.839	3
895.574	1
896.309	1
897.044	1
897.779	3
898.514	1
899.248	1
899.983	3
900.717	2
901.452	2
902.186	1
902.92	0
903.654	2
904.389	-1
905.123	1
905.857	0
906.59	0
907.324	2
908.058	2
908.792	3
909.525	-1
910.259	0
910.992	2
911.726	-1
912.459	1
913.192	-1
913.925	1
914.658	0
915.391	0
916.124	1
916.857	3
917.59	1
918.323	2
919.055	2
919.788	2
920.521	2
921.253	0
921.985	3
922.718	3
923.45	-1
924.182	1
924.914	1
925.646	0
926.378	0
927.11	-1
927.841	3
928.573	2
929.305	2
930.036	1
930.768	1
931.499	-1
932.23	1
932.962	1
933.693	1
934.424	1
935.155	1
935.886	1
936.617	0
937.348	0
938.078	1
938.809	-1
939.54	4
940.27	2
941.001	-1
941.731	2
942.461	0
943.191	2
943.922	2
944.652	2
945.382	0
946.112	2
946.841	1
947.571	0
948.301	1
949.031	2
949.76	2
950.49	1
951.219	-1
951.948	1
952.678	2
953.407	3
954.136	2
954.865	-1
955.594	-1
956.323	0
957.052	1
957.78	-1
958.509	1
959.238	0
959.966	1
960.695	1
961.423	1
962.151	1
962.88	1
963.608	1
964.336	2
965.064	1
965.792	2
966.52	1
967.247	0
967.975	1
968.703	2
969.43	0
970.158	0
970.885	2
971.613	-1
972.34	2
973.067	1
973.794	-1
974.521	2
975.248	0
975.975	1
976.702	-1
977.429	2
978.156	2
978.882	1
979.609	4
980.335	0
981.062	1
981.788	-2
982.514	2
983.24	2
983.967	1
984.693	1
985.419	-1
986.144	-1
986.87	2
987.596	1
988.322	1
989.047	0
989.773	4
990.498	-3
991.224	3
991.949	-1
992.674	2
993.399	0
994.124	1
994.849	1
995.574	2
996.299	2
997.024	0
997.749	1
998.473	1
999.198	3
999.922	2
1000.647	1
1001.371	6
1002.095	-1
1002.82	-1
1003.544	-1
1004.268	0
1004.992	-2
1005.716	-1
1006.439	1
1007.163	1
1007.887	2
1008.611	-1
1009.334	1
1010.058	3
1010.781	1
1011.504	2
1012.228	2
1012.951	-2
1013.674	0
1014.397	-1
1015.12	0
