节点500_145_QEPB04081__680__11-39-44-884.txt的数据

Date: Wed Nov 12 11:39:44 CST 2025
User: PC
Spectrometer: QEPB0408
触发模式: 0
积分时间 (秒): 1.000000E-2
Scans to average: 1
启用暗噪声校正: true
启用非线性校正: false
滑动平均宽度: 0
X轴模式: Wavelengths
Number of Pixels in Spectrum: 1044
>>>>>Begin Spectral Data<<<<<
220.843	-2.38
221.644	-1.38
222.444	-1.38
223.244	1.62
224.045	-0.38
224.845	1.62
225.645	-1.38
226.445	1.62
227.245	-2.38
228.045	0.62
228.845	-0.38
229.645	0.62
230.444	1.62
231.244	1.62
232.043	4.62
232.843	1.62
233.642	0.62
234.442	1.62
235.241	-0.38
236.04	1.62
236.839	2.62
237.638	2.62
238.437	0.62
239.236	0.62
240.035	1.62
240.833	0.62
241.632	-0.38
242.43	0.62
243.229	3.62
244.027	1.62
244.826	0.62
245.624	0.62
246.422	2.62
247.22	2.62
248.018	2.62
248.816	3.62
249.614	2.62
250.412	4.62
251.21	4.62
252.007	2.62
252.805	2.62
253.602	1.62
254.4	3.62
255.197	4.62
255.994	3.62
256.791	1.62
257.589	2.62
258.386	3.62
259.183	4.62
259.979	2.62
260.776	2.62
261.573	3.62
262.37	5.62
263.166	1.62
263.963	5.62
264.759	6.62
265.556	6.62
266.352	4.62
267.148	5.62
267.944	5.62
268.74	5.62
269.536	4.62
270.332	5.62
271.128	5.62
271.924	7.62
272.719	5.62
273.515	9.62
274.311	8.62
275.106	7.62
275.901	6.62
276.697	7.62
277.492	8.62
278.287	9.62
279.082	9.62
279.877	7.62
280.672	8.62
281.467	9.62
282.262	9.62
283.056	7.62
283.851	11.62
284.646	9.62
285.44	7.62
286.234	9.62
287.029	9.62
287.823	8.62
288.617	13.62
289.411	7.62
290.205	9.62
290.999	7.62
291.793	8.62
292.587	10.62
293.381	7.62
294.174	10.62
294.968	8.62
295.761	7.62
296.555	9.62
297.348	9.62
298.141	9.62
298.935	9.62
299.728	9.62
300.521	7.62
301.314	10.62
302.107	7.62
302.899	9.62
303.692	8.62
304.485	6.62
305.277	8.62
306.07	7.62
306.862	7.62
307.655	7.62
308.447	6.62
309.239	7.62
310.031	7.62
310.823	6.62
311.615	5.62
312.407	8.62
313.199	8.62
313.991	7.62
314.783	4.62
315.574	5.62
316.366	5.62
317.157	4.62
317.949	5.62
318.74	5.62
319.531	4.62
320.322	5.62
321.113	2.62
321.904	5.62
322.695	4.62
323.486	3.62
324.277	1.62
325.068	3.62
325.858	3.62
326.649	5.62
327.439	6.62
328.23	4.62
329.02	4.62
329.81	5.62
330.6	3.62
331.391	3.62
332.181	4.62
332.971	3.62
333.76	3.62
334.55	5.62
335.34	2.62
336.13	1.62
336.919	5.62
337.709	2.62
338.498	2.62
339.287	3.62
340.077	3.62
340.866	3.62
341.655	0.62
342.444	4.62
343.233	5.62
344.022	3.62
344.811	1.62
345.6	7.62
346.388	3.62
347.177	0.62
347.965	3.62
348.754	2.62
349.542	1.62
350.33	3.62
351.119	5.62
351.907	2.62
352.695	3.62
353.483	4.62
354.271	3.62
355.059	2.62
355.846	3.62
356.634	3.62
357.422	3.62
358.209	4.62
358.997	2.62
359.784	2.62
360.571	3.62
361.359	2.62
362.146	2.62
362.933	4.62
363.72	2.62
364.507	4.62
365.294	0.62
366.081	2.62
366.867	4.62
367.654	2.62
368.44	1.62
369.227	1.62
370.013	6.62
370.8	0.62
371.586	7.62
372.372	2.62
373.158	2.62
373.944	1.62
374.73	0.62
375.516	2.62
376.302	2.62
377.088	3.62
377.873	1.62
378.659	3.62
379.445	3.62
380.23	1.62
381.015	3.62
381.801	2.62
382.586	0.62
383.371	2.62
384.156	0.62
384.941	1.62
385.726	1.62
386.511	3.62
387.296	1.62
388.08	4.62
388.865	2.62
389.649	3.62
390.434	3.62
391.218	1.62
392.003	1.62
392.787	2.62
393.571	1.62
394.355	5.62
395.139	4.62
395.923	6.62
396.707	5.62
397.491	2.62
398.274	2.62
399.058	3.62
399.842	4.62
400.625	3.62
401.408	3.62
402.192	5.62
402.975	3.62
403.758	5.62
404.541	4.62
405.324	5.62
406.107	5.62
406.89	3.62
407.673	5.62
408.456	5.62
409.238	2.62
410.021	6.62
410.803	3.62
411.586	4.62
412.368	5.62
413.151	5.62
413.933	4.62
414.715	5.62
415.497	6.62
416.279	2.62
417.061	5.62
417.843	5.62
418.624	3.62
419.406	5.62
420.188	5.62
420.969	3.62
421.751	4.62
422.532	5.62
423.313	5.62
424.095	6.62
424.876	6.62
425.657	7.62
426.438	6.62
427.219	7.62
428	6.62
428.78	8.62
429.561	5.62
430.342	9.62
431.122	7.62
431.903	7.62
432.683	9.62
433.464	10.62
434.244	8.62
435.024	10.62
435.804	9.62
436.584	6.62
437.364	10.62
438.144	7.62
438.924	11.62
439.704	10.62
440.483	9.62
441.263	13.62
442.042	12.62
442.822	13.62
443.601	13.62
444.38	15.62
445.16	17.62
445.939	16.62
446.718	19.62
447.497	17.62
448.276	23.62
449.054	25.62
449.833	23.62
450.612	26.62
451.391	30.62
452.169	35.62
452.948	33.62
453.726	38.62
454.504	41.62
455.282	44.62
456.061	49.62
456.839	54.62
457.617	65.62
458.395	71.62
459.172	77.62
459.95	85.62
460.728	91.62
461.506	105.62
462.283	117.62
463.061	127.62
463.838	142.62
464.615	161.62
465.393	175.62
466.17	192.62
466.947	215.62
467.724	236.62
468.501	266.62
469.278	299.62
470.055	327.62
470.831	361.62
471.608	404.62
472.385	454.62
473.161	491.62
473.938	535.62
474.714	597.62
475.49	655.62
476.266	718.62
477.043	803.62
477.819	876.62
478.595	969.62
479.371	1052.62
480.146	1161.62
480.922	1270.62
481.698	1390.62
482.473	1510.62
483.249	1662.62
484.024	1837.62
484.8	1996.62
485.575	2164.62
486.35	2375.62
487.126	2606.62
487.901	2845.62
488.676	3089.62
489.451	3368.62
490.225	3711.62
491	4014.62
491.775	4394.62
492.55	4756.62
493.324	5180.62
494.099	5629.62
494.873	6088.62
495.647	6637.62
496.422	7148.62
497.196	7743.62
497.97	8311.62
498.744	8949.62
499.518	9572.62
500.292	10198.62
501.066	10834.62
501.839	11482.62
502.613	12069.62
503.387	12653.62
504.16	13223.62
504.934	13664.62
505.707	14066.62
506.48	14403.62
507.253	14689.62
508.027	14905.62
508.8	14971.62
509.573	15021.62
510.346	14905.62
511.118	14807.62
511.891	14579.62
512.664	14284.62
513.437	13890.62
514.209	13495.62
514.982	13039.62
515.754	12616.62
516.526	12165.62
517.298	11653.62
518.071	11162.62
518.843	10725.62
519.615	10319.62
520.387	9846.62
521.159	9489.62
521.93	9089.62
522.702	8727.62
523.474	8392.62
524.245	8078.62
525.017	7753.62
525.788	7431.62
526.56	7168.62
527.331	6863.62
528.102	6569.62
528.873	6292.62
529.644	6045.62
530.415	5770.62
531.186	5525.62
531.957	5245.62
532.728	5007.62
533.498	4753.62
534.269	4528.62
535.039	4270.62
535.81	4080.62
536.58	3847.62
537.351	3619.62
538.121	3436.62
538.891	3275.62
539.661	3091.62
540.431	2928.62
541.201	2757.62
541.971	2608.62
542.741	2468.62
543.51	2334.62
544.28	2221.62
545.05	2121.62
545.819	1993.62
546.588	1898.62
547.358	1818.62
548.127	1724.62
548.896	1646.62
549.665	1551.62
550.434	1481.62
551.203	1410.62
551.972	1340.62
552.741	1268.62
553.51	1212.62
554.278	1141.62
555.047	1079.62
555.815	1016.62
556.584	971.62
557.352	919.62
558.121	848.62
558.889	800.62
559.657	771.62
560.425	720.62
561.193	686.62
561.961	654.62
562.729	609.62
563.496	570.62
564.264	541.62
565.032	509.62
565.799	474.62
566.567	447.62
567.334	429.62
568.101	409.62
568.869	382.62
569.636	360.62
570.403	349.62
571.17	318.62
571.937	301.62
572.704	284.62
573.471	271.62
574.237	255.62
575.004	237.62
575.771	234.62
576.537	209.62
577.303	198.62
578.07	187.62
578.836	179.62
579.602	163.62
580.368	158.62
581.134	150.62
581.9	142.62
582.666	133.62
583.432	121.62
584.198	123.62
584.964	113.62
585.729	106.62
586.495	106.62
587.26	98.62
588.025	90.62
588.791	84.62
589.556	80.62
590.321	72.62
591.086	72.62
591.851	70.62
592.616	64.62
593.381	65.62
594.146	57.62
594.911	56.62
595.675	52.62
596.44	48.62
597.204	51.62
597.969	44.62
598.733	44.62
599.497	40.62
600.261	42.62
601.025	36.62
601.79	33.62
602.553	35.62
603.317	30.62
604.081	33.62
604.845	30.62
605.609	28.62
606.372	27.62
607.136	23.62
607.899	25.62
608.662	22.62
609.426	27.62
610.189	21.62
610.952	17.62
611.715	19.62
612.478	21.62
613.241	19.62
614.004	17.62
614.767	18.62
615.529	15.62
616.292	16.62
617.055	19.62
617.817	14.62
618.579	15.62
619.342	13.62
620.104	14.62
620.866	15.62
621.628	9.62
622.39	12.62
623.152	11.62
623.914	7.62
624.676	10.62
625.438	11.62
626.199	12.62
626.961	8.62
627.722	9.62
628.484	10.62
629.245	9.62
630.006	10.62
630.768	8.62
631.529	9.62
632.29	8.62
633.051	7.62
633.812	8.62
634.573	8.62
635.333	6.62
636.094	6.62
636.855	5.62
637.615	6.62
638.376	5.62
639.136	5.62
639.896	5.62
640.657	4.62
641.417	3.62
642.177	6.62
642.937	4.62
643.697	4.62
644.457	5.62
645.216	4.62
645.976	5.62
646.736	3.62
647.495	5.62
648.255	2.62
649.014	5.62
649.774	3.62
650.533	4.62
651.292	3.62
652.051	1.62
652.81	5.62
653.569	1.62
654.328	2.62
655.087	1.62
655.846	5.62
656.604	4.62
657.363	1.62
658.121	3.62
658.88	1.62
659.638	2.62
660.397	2.62
661.155	4.62
661.913	2.62
662.671	1.62
663.429	4.62
664.187	2.62
664.945	1.62
665.703	4.62
666.46	1.62
667.218	1.62
667.976	3.62
668.733	4.62
669.49	3.62
670.248	2.62
671.005	4.62
671.762	4.62
672.519	2.62
673.276	3.62
674.033	2.62
674.79	0.62
675.547	2.62
676.304	2.62
677.06	1.62
677.817	2.62
678.574	2.62
679.33	3.62
680.086	0.62
680.843	2.62
681.599	0.62
682.355	4.62
683.111	1.62
683.867	2.62
684.623	1.62
685.379	2.62
686.135	1.62
686.89	4.62
687.646	2.62
688.402	1.62
689.157	0.62
689.912	1.62
690.668	-0.38
691.423	2.62
692.178	2.62
692.933	1.62
693.688	1.62
694.443	-0.38
695.198	2.62
695.953	2.62
696.708	1.62
697.462	3.62
698.217	2.62
698.972	2.62
699.726	1.62
700.48	3.62
701.235	1.62
701.989	1.62
702.743	1.62
703.497	1.62
704.251	2.62
705.005	2.62
705.759	3.62
706.513	1.62
707.266	0.62
708.02	2.62
708.774	3.62
709.527	3.62
710.28	1.62
711.034	0.62
711.787	3.62
712.54	3.62
713.293	1.62
714.046	1.62
714.799	0.62
715.552	0.62
716.305	0.62
717.058	0.62
717.81	2.62
718.563	1.62
719.315	-0.38
720.068	1.62
720.82	1.62
721.573	-0.38
722.325	3.62
723.077	1.62
723.829	2.62
724.581	0.62
725.333	1.62
726.085	-1.38
726.836	1.62
727.588	2.62
728.34	1.62
729.091	4.62
729.843	2.62
730.594	2.62
731.346	1.62
732.097	1.62
732.848	2.62
733.599	2.62
734.35	3.62
735.101	3.62
735.852	0.62
736.603	1.62
737.354	2.62
738.104	2.62
738.855	4.62
739.605	2.62
740.356	1.62
741.106	3.62
741.856	3.62
742.607	3.62
743.357	2.62
744.107	2.62
744.857	2.62
745.607	1.62
746.357	2.62
747.106	3.62
747.856	3.62
748.606	4.62
749.355	0.62
750.105	2.62
750.854	1.62
751.603	4.62
752.353	0.62
753.102	2.62
753.851	5.62
754.6	2.62
755.349	1.62
756.098	3.62
756.847	3.62
757.595	3.62
758.344	2.62
759.093	2.62
759.841	3.62
760.589	1.62
761.338	2.62
762.086	4.62
762.834	1.62
763.582	3.62
764.331	5.62
765.079	5.62
765.826	2.62
766.574	1.62
767.322	4.62
768.07	1.62
768.817	5.62
769.565	2.62
770.312	2.62
771.06	3.62
771.807	5.62
772.554	3.62
773.302	4.62
774.049	3.62
774.796	2.62
775.543	4.62
776.29	7.62
777.036	3.62
777.783	4.62
778.53	5.62
779.276	6.62
780.023	2.62
780.769	5.62
781.516	4.62
782.262	3.62
783.008	4.62
783.754	2.62
784.5	4.62
785.246	5.62
785.992	5.62
786.738	8.62
787.484	4.62
788.23	4.62
788.975	2.62
789.721	4.62
790.466	2.62
791.212	5.62
791.957	3.62
792.702	3.62
793.447	5.62
794.193	3.62
794.938	6.62
795.683	2.62
796.427	2.62
797.172	3.62
797.917	3.62
798.662	5.62
799.406	5.62
800.151	5.62
800.895	3.62
801.64	5.62
802.384	4.62
803.128	4.62
803.872	4.62
804.616	2.62
805.36	5.62
806.104	3.62
806.848	2.62
807.592	4.62
808.336	4.62
809.079	4.62
809.823	5.62
810.566	5.62
811.31	3.62
812.053	2.62
812.796	2.62
813.539	2.62
814.283	2.62
815.026	2.62
815.769	2.62
816.511	5.62
817.254	3.62
817.997	0.62
818.74	6.62
819.482	3.62
820.225	4.62
820.967	4.62
821.71	3.62
822.452	1.62
823.194	2.62
823.936	2.62
824.678	3.62
825.42	2.62
826.162	4.62
826.904	3.62
827.646	3.62
828.388	3.62
829.129	3.62
829.871	4.62
830.612	2.62
831.354	1.62
832.095	3.62
832.836	1.62
833.577	2.62
834.319	3.62
835.06	0.62
835.801	1.62
836.542	3.62
837.282	3.62
838.023	2.62
838.764	0.62
839.504	1.62
840.245	2.62
840.985	1.62
841.726	1.62
842.466	1.62
843.206	2.62
843.946	1.62
844.687	2.62
845.427	3.62
846.166	2.62
846.906	3.62
847.646	2.62
848.386	0.62
849.125	2.62
849.865	1.62
850.605	2.62
851.344	1.62
852.083	2.62
852.823	4.62
853.562	1.62
854.301	1.62
855.04	3.62
855.779	0.62
856.518	1.62
857.257	1.62
857.995	-1.38
858.734	0.62
859.473	2.62
860.211	-0.38
860.95	2.62
861.688	3.62
862.426	-0.38
863.165	1.62
863.903	1.62
864.641	0.62
865.379	0.62
866.117	2.62
866.855	-1.38
867.593	1.62
868.33	1.62
869.068	1.62
869.806	1.62
870.543	0.62
871.28	2.62
872.018	2.62
872.755	-0.38
873.492	0.62
874.229	0.62
874.967	1.62
875.703	0.62
876.44	0.62
877.177	2.62
877.914	-0.38
878.651	-1.38
879.387	2.62
880.124	2.62
880.86	-1.38
881.597	-0.38
882.333	3.62
883.069	2.62
883.806	1.62
884.542	-1.38
885.278	0.62
886.014	1.62
886.749	3.62
887.485	1.62
888.221	0.62
888.957	-0.38
889.692	0.62
890.428	0.62
891.163	-0.38
891.899	-0.38
892.634	1.62
893.369	-0.38
894.104	2.62
894.839	1.62
895.574	2.62
896.309	0.62
897.044	1.62
897.779	0.62
898.514	0.62
899.248	1.62
899.983	2.62
900.717	1.62
901.452	2.62
902.186	1.62
902.92	1.62
903.654	1.62
904.389	-1.38
905.123	0.62
905.857	0.62
906.59	0.62
907.324	-0.38
908.058	1.62
908.792	1.62
909.525	1.62
910.259	2.62
910.992	0.62
911.726	1.62
912.459	-0.38
913.192	-0.38
913.925	-1.38
914.658	0.62
915.391	-1.38
916.124	-1.38
916.857	-0.38
917.59	-1.38
918.323	-1.38
919.055	0.62
919.788	-0.38
920.521	-0.38
921.253	-0.38
921.985	1.62
922.718	-0.38
923.45	1.62
924.182	-1.38
924.914	1.62
925.646	-0.38
926.378	-0.38
927.11	1.62
927.841	-1.38
928.573	-0.38
929.305	-1.38
930.036	2.62
930.768	-1.38
931.499	-1.38
932.23	3.62
932.962	-2.38
933.693	0.62
934.424	-0.38
935.155	0.62
935.886	-0.38
936.617	0.62
937.348	-0.38
938.078	0.62
938.809	1.62
939.54	-0.38
940.27	-0.38
941.001	0.62
941.731	-0.38
942.461	-0.38
943.191	-1.38
943.922	-0.38
944.652	1.62
945.382	1.62
946.112	-1.38
946.841	1.62
947.571	0.62
948.301	0.62
949.031	0.62
949.76	-0.38
950.49	1.62
951.219	0.62
951.948	-0.38
952.678	2.62
953.407	1.62
954.136	0.62
954.865	-0.38
955.594	1.62
956.323	-0.38
957.052	-0.38
957.78	1.62
958.509	0.62
959.238	0.62
959.966	-0.38
960.695	1.62
961.423	1.62
962.151	-0.38
962.88	0.62
963.608	-1.38
964.336	1.62
965.064	2.62
965.792	-0.38
966.52	-1.38
967.247	-0.38
967.975	-1.38
968.703	0.62
969.43	-1.38
970.158	-1.38
970.885	0.62
971.613	-0.38
972.34	-1.38
973.067	1.62
973.794	-1.38
974.521	1.62
975.248	-1.38
975.975	0.62
976.702	0.62
977.429	1.62
978.156	1.62
978.882	0.62
979.609	-0.38
980.335	-0.38
981.062	-0.38
981.788	-0.38
982.514	-1.38
983.24	-1.38
983.967	-2.38
984.693	1.62
985.419	0.62
986.144	0.62
986.87	1.62
987.596	0.62
988.322	1.62
989.047	0.62
989.773	1.62
990.498	1.62
991.224	-1.38
991.949	-0.38
992.674	1.62
993.399	-1.38
994.124	0.62
994.849	1.62
995.574	0.62
996.299	1.62
997.024	-0.38
997.749	-1.38
998.473	1.62
999.198	-0.38
999.922	1.62
1000.647	-0.38
1001.371	5.62
1002.095	-0.38
1002.82	-1.38
1003.544	-1.38
1004.268	-2.38
1004.992	-3.38
1005.716	-3.38
1006.439	0.62
1007.163	0.62
1007.887	-1.38
1008.611	-0.38
1009.334	-1.38
1010.058	-0.38
1010.781	0.62
1011.504	-0.38
1012.228	0.62
1012.951	0.62
1013.674	-1.38
1014.397	-1.38
1015.12	-0.38
