节点500_145_QEPB04081__635__11-39-04-168.txt的数据

Date: Wed Nov 12 11:39:04 CST 2025
User: PC
Spectrometer: QEPB0408
触发模式: 0
积分时间 (秒): 1.000000E-2
Scans to average: 1
启用暗噪声校正: true
启用非线性校正: false
滑动平均宽度: 0
X轴模式: Wavelengths
Number of Pixels in Spectrum: 1044
>>>>>Begin Spectral Data<<<<<
220.843	-2
221.644	1
222.444	-1
223.244	1
224.045	2
224.845	2
225.645	3
226.445	-1
227.245	3
228.045	-2
228.845	-1
229.645	-1
230.444	1
231.244	3
232.043	1
232.843	2
233.642	1
234.442	2
235.241	2
236.04	2
236.839	3
237.638	1
238.437	2
239.236	1
240.035	2
240.833	4
241.632	3
242.43	1
243.229	3
244.027	2
244.826	1
245.624	3
246.422	1
247.22	4
248.018	2
248.816	3
249.614	2
250.412	2
251.21	2
252.007	2
252.805	3
253.602	3
254.4	4
255.197	4
255.994	2
256.791	3
257.589	4
258.386	3
259.183	4
259.979	3
260.776	5
261.573	6
262.37	5
263.166	6
263.963	8
264.759	7
265.556	5
266.352	6
267.148	3
267.944	5
268.74	6
269.536	6
270.332	10
271.128	5
271.924	6
272.719	7
273.515	8
274.311	9
275.106	7
275.901	7
276.697	8
277.492	7
278.287	9
279.082	9
279.877	12
280.672	9
281.467	7
282.262	9
283.056	11
283.851	9
284.646	9
285.44	8
286.234	10
287.029	12
287.823	10
288.617	10
289.411	11
290.205	10
290.999	10
291.793	10
292.587	12
293.381	11
294.174	12
294.968	11
295.761	9
296.555	9
297.348	10
298.141	12
298.935	11
299.728	10
300.521	11
301.314	10
302.107	9
302.899	6
303.692	9
304.485	7
305.277	10
306.07	8
306.862	8
307.655	10
308.447	7
309.239	9
310.031	6
310.823	9
311.615	8
312.407	5
313.199	8
313.991	3
314.783	9
315.574	7
316.366	8
317.157	4
317.949	5
318.74	3
319.531	4
320.322	6
321.113	5
321.904	6
322.695	4
323.486	4
324.277	6
325.068	7
325.858	5
326.649	2
327.439	5
328.23	3
329.02	5
329.81	6
330.6	4
331.391	6
332.181	5
332.971	5
333.76	5
334.55	4
335.34	6
336.13	3
336.919	5
337.709	6
338.498	6
339.287	5
340.077	3
340.866	5
341.655	3
342.444	3
343.233	4
344.022	3
344.811	4
345.6	5
346.388	4
347.177	2
347.965	5
348.754	4
349.542	4
350.33	7
351.119	2
351.907	2
352.695	4
353.483	3
354.271	3
355.059	4
355.846	4
356.634	2
357.422	5
358.209	1
358.997	4
359.784	3
360.571	5
361.359	3
362.146	3
362.933	2
363.72	2
364.507	4
365.294	4
366.081	2
366.867	3
367.654	1
368.44	3
369.227	2
370.013	4
370.8	2
371.586	3
372.372	3
373.158	0
373.944	2
374.73	3
375.516	5
376.302	2
377.088	4
377.873	4
378.659	3
379.445	3
380.23	2
381.015	4
381.801	2
382.586	2
383.371	3
384.156	3
384.941	4
385.726	1
386.511	5
387.296	4
388.08	1
388.865	1
389.649	1
390.434	3
391.218	3
392.003	1
392.787	3
393.571	3
394.355	6
395.139	3
395.923	5
396.707	3
397.491	5
398.274	4
399.058	4
399.842	2
400.625	3
401.408	4
402.192	3
402.975	7
403.758	3
404.541	3
405.324	6
406.107	4
406.89	6
407.673	3
408.456	4
409.238	6
410.021	6
410.803	3
411.586	5
412.368	7
413.151	3
413.933	7
414.715	8
415.497	5
416.279	4
417.061	5
417.843	6
418.624	8
419.406	5
420.188	8
420.969	6
421.751	7
422.532	4
423.313	8
424.095	4
424.876	4
425.657	7
426.438	8
427.219	8
428	8
428.78	7
429.561	7
430.342	7
431.122	5
431.903	7
432.683	9
433.464	8
434.244	10
435.024	10
435.804	10
436.584	12
437.364	10
438.144	11
438.924	12
439.704	11
440.483	11
441.263	14
442.042	13
442.822	14
443.601	18
444.38	16
445.16	16
445.939	17
446.718	20
447.497	21
448.276	20
449.054	22
449.833	23
450.612	29
451.391	28
452.169	34
452.948	35
453.726	35
454.504	44
455.282	48
456.061	52
456.839	58
457.617	59
458.395	71
459.172	77
459.95	88
460.728	90
461.506	106
462.283	114
463.061	129
463.838	144
464.615	160
465.393	175
466.17	191
466.947	220
467.724	241
468.501	261
469.278	299
470.055	319
470.831	363
471.608	403
472.385	447
473.161	489
473.938	545
474.714	601
475.49	652
476.266	721
477.043	797
477.819	879
478.595	967
479.371	1060
480.146	1161
480.922	1265
481.698	1382
482.473	1544
483.249	1663
484.024	1831
484.8	1993
485.575	2197
486.35	2394
487.126	2608
487.901	2863
488.676	3120
489.451	3402
490.225	3700
491	4080
491.775	4413
492.55	4821
493.324	5251
494.099	5710
494.873	6191
495.647	6697
496.422	7311
497.196	7860
497.97	8443
498.744	9079
499.518	9677
500.292	10365
501.066	10994
501.839	11607
502.613	12187
503.387	12813
504.16	13357
504.934	13824
505.707	14247
506.48	14560
507.253	14881
508.027	15058
508.8	15157
509.573	15137
510.346	15055
511.118	14836
511.891	14643
512.664	14252
513.437	13937
514.209	13545
514.982	13086
515.754	12671
516.526	12154
517.298	11661
518.071	11173
518.843	10721
519.615	10275
520.387	9860
521.159	9451
521.93	9060
522.702	8717
523.474	8418
524.245	8102
525.017	7727
525.788	7445
526.56	7147
527.331	6838
528.102	6547
528.873	6293
529.644	6020
530.415	5773
531.186	5512
531.957	5271
532.728	5006
533.498	4750
534.269	4503
535.039	4290
535.81	4046
536.58	3826
537.351	3644
538.121	3415
538.891	3263
539.661	3090
540.431	2908
541.201	2737
541.971	2603
542.741	2466
543.51	2351
544.28	2216
545.05	2107
545.819	2002
546.588	1903
547.358	1800
548.127	1716
548.896	1628
549.665	1548
550.434	1466
551.203	1411
551.972	1339
552.741	1265
553.51	1190
554.278	1138
555.047	1075
555.815	1006
556.584	950
557.352	897
558.121	853
558.889	802
559.657	759
560.425	725
561.193	681
561.961	631
562.729	598
563.496	570
564.264	541
565.032	505
565.799	486
566.567	446
567.334	425
568.101	399
568.869	381
569.636	353
570.403	338
571.17	315
571.937	301
572.704	278
573.471	272
574.237	249
575.004	243
575.771	222
576.537	207
577.303	199
578.07	191
578.836	178
579.602	172
580.368	163
581.134	150
581.9	143
582.666	136
583.432	126
584.198	119
584.964	111
585.729	110
586.495	99
587.26	99
588.025	92
588.791	88
589.556	79
590.321	74
591.086	71
591.851	68
592.616	64
593.381	62
594.146	62
594.911	54
595.675	54
596.44	49
597.204	47
597.969	47
598.733	42
599.497	44
600.261	41
601.025	38
601.79	36
602.553	31
603.317	34
604.081	31
604.845	33
605.609	30
606.372	27
607.136	28
607.899	26
608.662	25
609.426	25
610.189	24
610.952	20
611.715	21
612.478	21
613.241	23
614.004	19
614.767	18
615.529	18
616.292	17
617.055	16
617.817	15
618.579	13
619.342	14
620.104	13
620.866	15
621.628	10
622.39	11
623.152	12
623.914	14
624.676	10
625.438	12
626.199	10
626.961	10
627.722	8
628.484	10
629.245	8
630.006	11
630.768	6
631.529	9
632.29	12
633.051	7
633.812	9
634.573	7
635.333	8
636.094	7
636.855	8
637.615	7
638.376	6
639.136	8
639.896	5
640.657	8
641.417	6
642.177	6
642.937	5
643.697	7
644.457	8
645.216	5
645.976	5
646.736	6
647.495	6
648.255	4
649.014	4
649.774	6
650.533	5
651.292	8
652.051	4
652.81	2
653.569	4
654.328	3
655.087	5
655.846	4
656.604	6
657.363	4
658.121	6
658.88	5
659.638	5
660.397	2
661.155	4
661.913	3
662.671	4
663.429	4
664.187	6
664.945	2
665.703	3
666.46	1
667.218	3
667.976	4
668.733	4
669.49	4
670.248	2
671.005	4
671.762	2
672.519	2
673.276	3
674.033	5
674.79	5
675.547	3
676.304	2
677.06	1
677.817	5
678.574	1
679.33	3
680.086	3
680.843	0
681.599	3
682.355	3
683.111	2
683.867	3
684.623	4
685.379	3
686.135	2
686.89	3
687.646	-1
688.402	3
689.157	2
689.912	2
690.668	2
691.423	0
692.178	5
692.933	0
693.688	3
694.443	1
695.198	4
695.953	3
696.708	3
697.462	4
698.217	2
698.972	1
699.726	3
700.48	1
701.235	3
701.989	2
702.743	3
703.497	2
704.251	3
705.005	3
705.759	2
706.513	3
707.266	3
708.02	4
708.774	2
709.527	3
710.28	1
711.034	2
711.787	1
712.54	0
713.293	4
714.046	1
714.799	2
715.552	3
716.305	1
717.058	3
717.81	2
718.563	1
719.315	4
720.068	3
720.82	2
721.573	2
722.325	3
723.077	1
723.829	2
724.581	1
725.333	3
726.085	3
726.836	2
727.588	0
728.34	2
729.091	4
729.843	2
730.594	2
731.346	3
732.097	5
732.848	4
733.599	3
734.35	2
735.101	0
735.852	4
736.603	1
737.354	3
738.104	5
738.855	3
739.605	0
740.356	5
741.106	1
741.856	4
742.607	3
743.357	0
744.107	3
744.857	3
745.607	3
746.357	3
747.106	5
747.856	2
748.606	4
749.355	1
750.105	5
750.854	4
751.603	4
752.353	3
753.102	4
753.851	4
754.6	3
755.349	4
756.098	2
756.847	2
757.595	4
758.344	1
759.093	4
759.841	4
760.589	4
761.338	3
762.086	2
762.834	4
763.582	3
764.331	5
765.079	5
765.826	6
766.574	2
767.322	3
768.07	3
768.817	5
769.565	2
770.312	3
771.06	4
771.807	3
772.554	4
773.302	6
774.049	3
774.796	5
775.543	3
776.29	5
777.036	4
777.783	3
778.53	4
779.276	4
780.023	6
780.769	3
781.516	6
782.262	5
783.008	4
783.754	5
784.5	3
785.246	7
785.992	6
786.738	6
787.484	5
788.23	5
788.975	4
789.721	5
790.466	6
791.212	4
791.957	7
792.702	3
793.447	4
794.193	5
794.938	6
795.683	6
796.427	6
797.172	4
797.917	3
798.662	6
799.406	5
800.151	3
800.895	5
801.64	5
802.384	4
803.128	5
803.872	4
804.616	4
805.36	6
806.104	6
806.848	5
807.592	5
808.336	3
809.079	6
809.823	4
810.566	4
811.31	2
812.053	4
812.796	4
813.539	3
814.283	5
815.026	6
815.769	2
816.511	5
817.254	3
817.997	4
818.74	3
819.482	2
820.225	4
820.967	3
821.71	2
822.452	4
823.194	3
823.936	1
824.678	3
825.42	2
826.162	3
826.904	4
827.646	4
828.388	3
829.129	4
829.871	1
830.612	3
831.354	3
832.095	3
832.836	2
833.577	3
834.319	3
835.06	4
835.801	3
836.542	3
837.282	3
838.023	0
838.764	3
839.504	3
840.245	1
840.985	3
841.726	3
842.466	3
843.206	2
843.946	2
844.687	4
845.427	1
846.166	2
846.906	3
847.646	3
848.386	3
849.125	2
849.865	2
850.605	3
851.344	3
852.083	3
852.823	3
853.562	2
854.301	3
855.04	2
855.779	4
856.518	2
857.257	2
857.995	4
858.734	3
859.473	2
860.211	3
860.95	1
861.688	4
862.426	3
863.165	0
863.903	0
864.641	1
865.379	4
866.117	2
866.855	2
867.593	2
868.33	1
869.068	1
869.806	1
870.543	1
871.28	2
872.018	0
872.755	3
873.492	2
874.229	2
874.967	0
875.703	1
876.44	2
877.177	2
877.914	2
878.651	0
879.387	2
880.124	3
880.86	2
881.597	1
882.333	2
883.069	2
883.806	2
884.542	0
885.278	-1
886.014	4
886.749	2
887.485	2
888.221	1
888.957	2
889.692	1
890.428	-1
891.163	2
891.899	2
892.634	2
893.369	2
894.104	-1
894.839	3
895.574	-1
896.309	1
897.044	2
897.779	-1
898.514	1
899.248	2
899.983	1
900.717	2
901.452	2
902.186	3
902.92	1
903.654	0
904.389	2
905.123	2
905.857	0
906.59	1
907.324	2
908.058	-1
908.792	-1
909.525	-2
910.259	0
910.992	2
911.726	4
912.459	2
913.192	0
913.925	1
914.658	0
915.391	1
916.124	2
916.857	0
917.59	1
918.323	-1
919.055	0
919.788	-1
920.521	0
921.253	0
921.985	2
922.718	1
923.45	-1
924.182	3
924.914	-1
925.646	-1
926.378	1
927.11	1
927.841	0
928.573	2
929.305	2
930.036	-1
930.768	3
931.499	1
932.23	3
932.962	3
933.693	2
934.424	-1
935.155	-2
935.886	2
936.617	1
937.348	4
938.078	2
938.809	0
939.54	1
940.27	2
941.001	0
941.731	0
942.461	2
943.191	0
943.922	-1
944.652	0
945.382	1
946.112	0
946.841	1
947.571	3
948.301	0
949.031	-2
949.76	0
950.49	-1
951.219	1
951.948	1
952.678	0
953.407	1
954.136	0
954.865	0
955.594	1
956.323	1
957.052	-2
957.78	1
958.509	-1
959.238	0
959.966	-1
960.695	1
961.423	0
962.151	2
962.88	1
963.608	1
964.336	3
965.064	0
965.792	0
966.52	1
967.247	0
967.975	0
968.703	2
969.43	1
970.158	0
970.885	-2
971.613	1
972.34	1
973.067	1
973.794	0
974.521	-1
975.248	3
975.975	1
976.702	2
977.429	-1
978.156	1
978.882	-1
979.609	0
980.335	1
981.062	2
981.788	2
982.514	0
983.24	3
983.967	-1
984.693	2
985.419	0
986.144	2
986.87	0
987.596	0
988.322	2
989.047	1
989.773	1
990.498	1
991.224	-1
991.949	2
992.674	1
993.399	2
994.124	2
994.849	-2
995.574	1
996.299	0
997.024	0
997.749	1
998.473	2
999.198	1
999.922	1
1000.647	-1
1001.371	4
1002.095	2
1002.82	0
1003.544	-3
1004.268	2
1004.992	0
1005.716	-1
1006.439	0
1007.163	-1
1007.887	-1
1008.611	1
1009.334	2
1010.058	1
1010.781	2
1011.504	-1
1012.228	-1
1012.951	1
1013.674	-1
1014.397	-1
1015.12	-2
