节点500_145_QEPB04081__474__11-36-30-550.txt的数据

Date: Wed Nov 12 11:36:30 CST 2025
User: PC
Spectrometer: QEPB0408
触发模式: 0
积分时间 (秒): 1.000000E-2
Scans to average: 1
启用暗噪声校正: true
启用非线性校正: false
滑动平均宽度: 0
X轴模式: Wavelengths
Number of Pixels in Spectrum: 1044
>>>>>Begin Spectral Data<<<<<
220.843	0.25
221.644	-0.75
222.444	-1.75
223.244	0.25
224.045	1.25
224.845	0.25
225.645	-1.75
226.445	-1.75
227.245	1.25
228.045	0.25
228.845	3.25
229.645	-0.75
230.444	1.25
231.244	-0.75
232.043	0.25
232.843	1.25
233.642	1.25
234.442	0.25
235.241	1.25
236.04	0.25
236.839	-1.75
237.638	0.25
238.437	3.25
239.236	0.25
240.035	2.25
240.833	1.25
241.632	2.25
242.43	1.25
243.229	-0.75
244.027	2.25
244.826	2.25
245.624	0.25
246.422	3.25
247.22	2.25
248.018	1.25
248.816	0.25
249.614	3.25
250.412	1.25
251.21	2.25
252.007	1.25
252.805	5.25
253.602	3.25
254.4	3.25
255.197	4.25
255.994	4.25
256.791	5.25
257.589	4.25
258.386	4.25
259.183	5.25
259.979	5.25
260.776	4.25
261.573	4.25
262.37	2.25
263.166	6.25
263.963	5.25
264.759	6.25
265.556	3.25
266.352	5.25
267.148	5.25
267.944	5.25
268.74	5.25
269.536	7.25
270.332	9.25
271.128	6.25
271.924	7.25
272.719	7.25
273.515	8.25
274.311	6.25
275.106	7.25
275.901	8.25
276.697	8.25
277.492	11.25
278.287	10.25
279.082	9.25
279.877	10.25
280.672	7.25
281.467	9.25
282.262	7.25
283.056	9.25
283.851	10.25
284.646	10.25
285.44	9.25
286.234	11.25
287.029	10.25
287.823	9.25
288.617	9.25
289.411	8.25
290.205	9.25
290.999	11.25
291.793	10.25
292.587	8.25
293.381	13.25
294.174	10.25
294.968	9.25
295.761	11.25
296.555	11.25
297.348	9.25
298.141	7.25
298.935	8.25
299.728	10.25
300.521	9.25
301.314	4.25
302.107	10.25
302.899	7.25
303.692	9.25
304.485	7.25
305.277	10.25
306.07	9.25
306.862	8.25
307.655	10.25
308.447	6.25
309.239	9.25
310.031	8.25
310.823	7.25
311.615	6.25
312.407	4.25
313.199	7.25
313.991	7.25
314.783	6.25
315.574	5.25
316.366	4.25
317.157	6.25
317.949	4.25
318.74	6.25
319.531	6.25
320.322	7.25
321.113	5.25
321.904	5.25
322.695	5.25
323.486	5.25
324.277	5.25
325.068	3.25
325.858	4.25
326.649	4.25
327.439	2.25
328.23	5.25
329.02	3.25
329.81	5.25
330.6	3.25
331.391	4.25
332.181	4.25
332.971	5.25
333.76	1.25
334.55	3.25
335.34	3.25
336.13	5.25
336.919	3.25
337.709	3.25
338.498	3.25
339.287	6.25
340.077	2.25
340.866	2.25
341.655	3.25
342.444	3.25
343.233	3.25
344.022	2.25
344.811	3.25
345.6	1.25
346.388	2.25
347.177	5.25
347.965	2.25
348.754	3.25
349.542	2.25
350.33	2.25
351.119	2.25
351.907	2.25
352.695	5.25
353.483	2.25
354.271	5.25
355.059	2.25
355.846	4.25
356.634	3.25
357.422	4.25
358.209	4.25
358.997	1.25
359.784	4.25
360.571	1.25
361.359	4.25
362.146	4.25
362.933	3.25
363.72	4.25
364.507	1.25
365.294	3.25
366.081	0.25
366.867	5.25
367.654	1.25
368.44	2.25
369.227	0.25
370.013	1.25
370.8	3.25
371.586	-0.75
372.372	1.25
373.158	2.25
373.944	5.25
374.73	2.25
375.516	2.25
376.302	1.25
377.088	1.25
377.873	2.25
378.659	3.25
379.445	2.25
380.23	2.25
381.015	1.25
381.801	3.25
382.586	1.25
383.371	4.25
384.156	3.25
384.941	4.25
385.726	3.25
386.511	2.25
387.296	4.25
388.08	1.25
388.865	2.25
389.649	1.25
390.434	5.25
391.218	3.25
392.003	2.25
392.787	3.25
393.571	5.25
394.355	5.25
395.139	5.25
395.923	4.25
396.707	2.25
397.491	0.25
398.274	2.25
399.058	4.25
399.842	3.25
400.625	1.25
401.408	5.25
402.192	5.25
402.975	3.25
403.758	6.25
404.541	2.25
405.324	2.25
406.107	2.25
406.89	1.25
407.673	3.25
408.456	2.25
409.238	7.25
410.021	5.25
410.803	3.25
411.586	6.25
412.368	2.25
413.151	4.25
413.933	2.25
414.715	3.25
415.497	4.25
416.279	5.25
417.061	7.25
417.843	5.25
418.624	6.25
419.406	4.25
420.188	5.25
420.969	6.25
421.751	7.25
422.532	6.25
423.313	5.25
424.095	5.25
424.876	4.25
425.657	5.25
426.438	4.25
427.219	8.25
428	5.25
428.78	8.25
429.561	7.25
430.342	8.25
431.122	6.25
431.903	6.25
432.683	7.25
433.464	7.25
434.244	7.25
435.024	9.25
435.804	10.25
436.584	9.25
437.364	10.25
438.144	7.25
438.924	10.25
439.704	10.25
440.483	13.25
441.263	10.25
442.042	14.25
442.822	16.25
443.601	13.25
444.38	15.25
445.16	12.25
445.939	17.25
446.718	17.25
447.497	18.25
448.276	19.25
449.054	27.25
449.833	25.25
450.612	26.25
451.391	29.25
452.169	29.25
452.948	34.25
453.726	35.25
454.504	37.25
455.282	43.25
456.061	43.25
456.839	51.25
457.617	60.25
458.395	64.25
459.172	68.25
459.95	78.25
460.728	90.25
461.506	93.25
462.283	109.25
463.061	125.25
463.838	134.25
464.615	147.25
465.393	165.25
466.17	183.25
466.947	210.25
467.724	231.25
468.501	258.25
469.278	284.25
470.055	317.25
470.831	349.25
471.608	390.25
472.385	430.25
473.161	474.25
473.938	527.25
474.714	585.25
475.49	644.25
476.266	699.25
477.043	791.25
477.819	874.25
478.595	953.25
479.371	1058.25
480.146	1159.25
480.922	1281.25
481.698	1406.25
482.473	1549.25
483.249	1706.25
484.024	1873.25
484.8	2050.25
485.575	2222.25
486.35	2481.25
487.126	2703.25
487.901	2977.25
488.676	3251.25
489.451	3578.25
490.225	3907.25
491	4288.25
491.775	4659.25
492.55	5132.25
493.324	5603.25
494.099	6100.25
494.873	6647.25
495.647	7207.25
496.422	7838.25
497.196	8487.25
497.97	9144.25
498.744	9827.25
499.518	10529.25
500.292	11180.25
501.066	11849.25
501.839	12538.25
502.613	13230.25
503.387	13815.25
504.16	14364.25
504.934	14863.25
505.707	15216.25
506.48	15575.25
507.253	15822.25
508.027	15907.25
508.8	15954.25
509.573	15858.25
510.346	15633.25
511.118	15468.25
511.891	15036.25
512.664	14701.25
513.437	14242.25
514.209	13832.25
514.982	13290.25
515.754	12766.25
516.526	12241.25
517.298	11697.25
518.071	11238.25
518.843	10809.25
519.615	10306.25
520.387	9844.25
521.159	9510.25
521.93	9114.25
522.702	8715.25
523.474	8364.25
524.245	8062.25
525.017	7757.25
525.788	7452.25
526.56	7158.25
527.331	6829.25
528.102	6554.25
528.873	6282.25
529.644	5994.25
530.415	5749.25
531.186	5429.25
531.957	5184.25
532.728	4944.25
533.498	4656.25
534.269	4422.25
535.039	4221.25
535.81	3971.25
536.58	3761.25
537.351	3556.25
538.121	3352.25
538.891	3180.25
539.661	3011.25
540.431	2841.25
541.201	2688.25
541.971	2541.25
542.741	2411.25
543.51	2285.25
544.28	2156.25
545.05	2069.25
545.819	1964.25
546.588	1857.25
547.358	1753.25
548.127	1697.25
548.896	1602.25
549.665	1505.25
550.434	1441.25
551.203	1360.25
551.972	1285.25
552.741	1238.25
553.51	1169.25
554.278	1100.25
555.047	1051.25
555.815	993.25
556.584	931.25
557.352	874.25
558.121	826.25
558.889	785.25
559.657	735.25
560.425	697.25
561.193	651.25
561.961	617.25
562.729	577.25
563.496	547.25
564.264	516.25
565.032	478.25
565.799	460.25
566.567	436.25
567.334	414.25
568.101	382.25
568.869	372.25
569.636	355.25
570.403	324.25
571.17	308.25
571.937	285.25
572.704	279.25
573.471	260.25
574.237	250.25
575.004	231.25
575.771	215.25
576.537	203.25
577.303	193.25
578.07	182.25
578.836	175.25
579.602	156.25
580.368	154.25
581.134	142.25
581.9	134.25
582.666	131.25
583.432	121.25
584.198	114.25
584.964	112.25
585.729	104.25
586.495	97.25
587.26	91.25
588.025	86.25
588.791	82.25
589.556	75.25
590.321	72.25
591.086	70.25
591.851	66.25
592.616	62.25
593.381	55.25
594.146	56.25
594.911	57.25
595.675	50.25
596.44	50.25
597.204	45.25
597.969	41.25
598.733	44.25
599.497	41.25
600.261	38.25
601.025	34.25
601.79	35.25
602.553	33.25
603.317	32.25
604.081	28.25
604.845	32.25
605.609	30.25
606.372	27.25
607.136	29.25
607.899	23.25
608.662	23.25
609.426	26.25
610.189	21.25
610.952	21.25
611.715	19.25
612.478	18.25
613.241	17.25
614.004	16.25
614.767	17.25
615.529	16.25
616.292	17.25
617.055	14.25
617.817	14.25
618.579	12.25
619.342	14.25
620.104	10.25
620.866	12.25
621.628	13.25
622.39	12.25
623.152	14.25
623.914	11.25
624.676	9.25
625.438	9.25
626.199	8.25
626.961	8.25
627.722	9.25
628.484	7.25
629.245	9.25
630.006	9.25
630.768	8.25
631.529	8.25
632.29	8.25
633.051	7.25
633.812	8.25
634.573	7.25
635.333	7.25
636.094	7.25
636.855	5.25
637.615	8.25
638.376	5.25
639.136	5.25
639.896	7.25
640.657	8.25
641.417	6.25
642.177	4.25
642.937	4.25
643.697	4.25
644.457	6.25
645.216	5.25
645.976	4.25
646.736	5.25
647.495	4.25
648.255	5.25
649.014	6.25
649.774	4.25
650.533	5.25
651.292	3.25
652.051	3.25
652.81	2.25
653.569	6.25
654.328	2.25
655.087	5.25
655.846	3.25
656.604	1.25
657.363	5.25
658.121	3.25
658.88	4.25
659.638	2.25
660.397	5.25
661.155	3.25
661.913	5.25
662.671	3.25
663.429	0.25
664.187	2.25
664.945	2.25
665.703	2.25
666.46	3.25
667.218	3.25
667.976	2.25
668.733	3.25
669.49	1.25
670.248	3.25
671.005	3.25
671.762	2.25
672.519	3.25
673.276	2.25
674.033	1.25
674.79	3.25
675.547	2.25
676.304	2.25
677.06	3.25
677.817	2.25
678.574	3.25
679.33	2.25
680.086	3.25
680.843	0.25
681.599	3.25
682.355	1.25
683.111	3.25
683.867	3.25
684.623	1.25
685.379	2.25
686.135	2.25
686.89	1.25
687.646	2.25
688.402	1.25
689.157	1.25
689.912	-0.75
690.668	4.25
691.423	0.25
692.178	2.25
692.933	2.25
693.688	0.25
694.443	2.25
695.198	3.25
695.953	1.25
696.708	1.25
697.462	0.25
698.217	2.25
698.972	1.25
699.726	2.25
700.48	-0.75
701.235	4.25
701.989	4.25
702.743	3.25
703.497	2.25
704.251	2.25
705.005	1.25
705.759	1.25
706.513	1.25
707.266	4.25
708.02	1.25
708.774	1.25
709.527	2.25
710.28	2.25
711.034	1.25
711.787	2.25
712.54	0.25
713.293	2.25
714.046	0.25
714.799	2.25
715.552	4.25
716.305	3.25
717.058	1.25
717.81	2.25
718.563	0.25
719.315	2.25
720.068	2.25
720.82	1.25
721.573	2.25
722.325	2.25
723.077	2.25
723.829	2.25
724.581	2.25
725.333	4.25
726.085	4.25
726.836	1.25
727.588	2.25
728.34	4.25
729.091	-0.75
729.843	2.25
730.594	0.25
731.346	3.25
732.097	2.25
732.848	1.25
733.599	1.25
734.35	2.25
735.101	1.25
735.852	3.25
736.603	2.25
737.354	0.25
738.104	0.25
738.855	2.25
739.605	2.25
740.356	3.25
741.106	-0.75
741.856	4.25
742.607	4.25
743.357	4.25
744.107	1.25
744.857	0.25
745.607	4.25
746.357	2.25
747.106	3.25
747.856	1.25
748.606	3.25
749.355	1.25
750.105	1.25
750.854	3.25
751.603	0.25
752.353	4.25
753.102	2.25
753.851	3.25
754.6	4.25
755.349	3.25
756.098	2.25
756.847	2.25
757.595	3.25
758.344	4.25
759.093	1.25
759.841	5.25
760.589	3.25
761.338	3.25
762.086	3.25
762.834	4.25
763.582	2.25
764.331	4.25
765.079	4.25
765.826	4.25
766.574	4.25
767.322	2.25
768.07	3.25
768.817	2.25
769.565	2.25
770.312	3.25
771.06	3.25
771.807	5.25
772.554	5.25
773.302	3.25
774.049	4.25
774.796	5.25
775.543	2.25
776.29	4.25
777.036	3.25
777.783	6.25
778.53	5.25
779.276	6.25
780.023	3.25
780.769	5.25
781.516	2.25
782.262	4.25
783.008	3.25
783.754	4.25
784.5	3.25
785.246	3.25
785.992	3.25
786.738	4.25
787.484	6.25
788.23	3.25
788.975	7.25
789.721	3.25
790.466	5.25
791.212	4.25
791.957	5.25
792.702	6.25
793.447	4.25
794.193	5.25
794.938	6.25
795.683	4.25
796.427	3.25
797.172	4.25
797.917	5.25
798.662	5.25
799.406	4.25
800.151	4.25
800.895	3.25
801.64	2.25
802.384	5.25
803.128	6.25
803.872	3.25
804.616	2.25
805.36	5.25
806.104	2.25
806.848	4.25
807.592	2.25
808.336	3.25
809.079	3.25
809.823	2.25
810.566	4.25
811.31	2.25
812.053	4.25
812.796	5.25
813.539	6.25
814.283	5.25
815.026	3.25
815.769	3.25
816.511	3.25
817.254	3.25
817.997	3.25
818.74	3.25
819.482	3.25
820.225	4.25
820.967	2.25
821.71	3.25
822.452	4.25
823.194	2.25
823.936	2.25
824.678	2.25
825.42	1.25
826.162	4.25
826.904	0.25
827.646	4.25
828.388	2.25
829.129	2.25
829.871	4.25
830.612	2.25
831.354	3.25
832.095	2.25
832.836	1.25
833.577	1.25
834.319	3.25
835.06	2.25
835.801	1.25
836.542	5.25
837.282	3.25
838.023	2.25
838.764	2.25
839.504	3.25
840.245	1.25
840.985	4.25
841.726	2.25
842.466	1.25
843.206	2.25
843.946	2.25
844.687	2.25
845.427	1.25
846.166	4.25
846.906	5.25
847.646	4.25
848.386	3.25
849.125	1.25
849.865	3.25
850.605	3.25
851.344	1.25
852.083	2.25
852.823	0.25
853.562	1.25
854.301	1.25
855.04	0.25
855.779	2.25
856.518	2.25
857.257	3.25
857.995	1.25
858.734	2.25
859.473	0.25
860.211	-0.75
860.95	1.25
861.688	0.25
862.426	1.25
863.165	1.25
863.903	2.25
864.641	4.25
865.379	1.25
866.117	-0.75
866.855	0.25
867.593	1.25
868.33	0.25
869.068	2.25
869.806	2.25
870.543	-1.75
871.28	3.25
872.018	0.25
872.755	2.25
873.492	0.25
874.229	1.25
874.967	2.25
875.703	2.25
876.44	1.25
877.177	0.25
877.914	2.25
878.651	-1.75
879.387	-1.75
880.124	2.25
880.86	-1.75
881.597	1.25
882.333	0.25
883.069	1.25
883.806	1.25
884.542	0.25
885.278	2.25
886.014	1.25
886.749	0.25
887.485	0.25
888.221	1.25
888.957	0.25
889.692	1.25
890.428	1.25
891.163	0.25
891.899	2.25
892.634	1.25
893.369	1.25
894.104	0.25
894.839	2.25
895.574	1.25
896.309	2.25
897.044	0.25
897.779	2.25
898.514	1.25
899.248	1.25
899.983	-0.75
900.717	0.25
901.452	-0.75
902.186	1.25
902.92	1.25
903.654	2.25
904.389	0.25
905.123	1.25
905.857	1.25
906.59	-1.75
907.324	1.25
908.058	0.25
908.792	0.25
909.525	0.25
910.259	1.25
910.992	4.25
911.726	-1.75
912.459	-0.75
913.192	-1.75
913.925	1.25
914.658	0.25
915.391	-1.75
916.124	0.25
916.857	-0.75
917.59	2.25
918.323	1.25
919.055	1.25
919.788	1.25
920.521	0.25
921.253	0.25
921.985	-0.75
922.718	1.25
923.45	-0.75
924.182	1.25
924.914	0.25
925.646	0.25
926.378	2.25
927.11	-1.75
927.841	1.25
928.573	-0.75
929.305	0.25
930.036	1.25
930.768	2.25
931.499	1.25
932.23	-1.75
932.962	0.25
933.693	3.25
934.424	1.25
935.155	-0.75
935.886	1.25
936.617	1.25
937.348	-1.75
938.078	0.25
938.809	1.25
939.54	-0.75
940.27	3.25
941.001	-1.75
941.731	0.25
942.461	0.25
943.191	-1.75
943.922	1.25
944.652	-0.75
945.382	0.25
946.112	-0.75
946.841	3.25
947.571	-0.75
948.301	-0.75
949.031	1.25
949.76	-0.75
950.49	1.25
951.219	2.25
951.948	-0.75
952.678	1.25
953.407	1.25
954.136	-0.75
954.865	-0.75
955.594	1.25
956.323	-0.75
957.052	-1.75
957.78	1.25
958.509	1.25
959.238	2.25
959.966	1.25
960.695	0.25
961.423	0.25
962.151	0.25
962.88	-0.75
963.608	1.25
964.336	1.25
965.064	0.25
965.792	0.25
966.52	-1.75
967.247	-0.75
967.975	-1.75
968.703	0.25
969.43	1.25
970.158	1.25
970.885	1.25
971.613	-1.75
972.34	0.25
973.067	0.25
973.794	0.25
974.521	0.25
975.248	-0.75
975.975	-1.75
976.702	-0.75
977.429	-0.75
978.156	1.25
978.882	0.25
979.609	-0.75
980.335	-1.75
981.062	2.25
981.788	-0.75
982.514	0.25
983.24	1.25
983.967	-0.75
984.693	1.25
985.419	1.25
986.144	0.25
986.87	0.25
987.596	0.25
988.322	0.25
989.047	1.25
989.773	-2.75
990.498	0.25
991.224	1.25
991.949	-0.75
992.674	1.25
993.399	-0.75
994.124	2.25
994.849	1.25
995.574	0.25
996.299	-0.75
997.024	1.25
997.749	-0.75
998.473	1.25
999.198	0.25
999.922	1.25
1000.647	-0.75
1001.371	3.25
1002.095	0.25
1002.82	1.25
1003.544	-1.75
1004.268	3.25
1004.992	-0.75
1005.716	0.25
1006.439	-1.75
1007.163	0.25
1007.887	0.25
1008.611	1.25
1009.334	1.25
1010.058	1.25
1010.781	0.25
1011.504	1.25
1012.228	2.25
1012.951	-1.75
1013.674	1.25
1014.397	-0.75
1015.12	-1.75
