节点500_145_QEPB04081__97__11-30-31-585.txt的数据

Date: Wed Nov 12 11:30:31 CST 2025
User: PC
Spectrometer: QEPB0408
触发模式: 0
积分时间 (秒): 1.000000E-2
Scans to average: 1
启用暗噪声校正: true
启用非线性校正: false
滑动平均宽度: 0
X轴模式: Wavelengths
Number of Pixels in Spectrum: 1044
>>>>>Begin Spectral Data<<<<<
220.843	-1.12
221.644	0.88
222.444	-2.12
223.244	0.88
224.045	0.88
224.845	-0.12
225.645	-0.12
226.445	-2.12
227.245	0.88
228.045	1.88
228.845	-0.12
229.645	-2.12
230.444	0.88
231.244	-1.12
232.043	1.88
232.843	1.88
233.642	-1.12
234.442	0.88
235.241	0.88
236.04	0.88
236.839	2.88
237.638	-0.12
238.437	0.88
239.236	1.88
240.035	0.88
240.833	1.88
241.632	0.88
242.43	0.88
243.229	0.88
244.027	-0.12
244.826	0.88
245.624	-1.12
246.422	1.88
247.22	3.88
248.018	1.88
248.816	3.88
249.614	3.88
250.412	1.88
251.21	2.88
252.007	1.88
252.805	2.88
253.602	4.88
254.4	0.88
255.197	4.88
255.994	3.88
256.791	3.88
257.589	5.88
258.386	2.88
259.183	4.88
259.979	2.88
260.776	3.88
261.573	2.88
262.37	4.88
263.166	3.88
263.963	3.88
264.759	7.88
265.556	3.88
266.352	7.88
267.148	3.88
267.944	7.88
268.74	8.88
269.536	4.88
270.332	7.88
271.128	7.88
271.924	9.88
272.719	5.88
273.515	7.88
274.311	7.88
275.106	8.88
275.901	8.88
276.697	9.88
277.492	9.88
278.287	9.88
279.082	6.88
279.877	9.88
280.672	11.88
281.467	14.88
282.262	8.88
283.056	11.88
283.851	10.88
284.646	11.88
285.44	10.88
286.234	10.88
287.029	12.88
287.823	11.88
288.617	12.88
289.411	8.88
290.205	9.88
290.999	10.88
291.793	10.88
292.587	10.88
293.381	10.88
294.174	13.88
294.968	9.88
295.761	10.88
296.555	9.88
297.348	8.88
298.141	9.88
298.935	11.88
299.728	11.88
300.521	9.88
301.314	9.88
302.107	11.88
302.899	7.88
303.692	7.88
304.485	9.88
305.277	8.88
306.07	7.88
306.862	4.88
307.655	10.88
308.447	6.88
309.239	4.88
310.031	7.88
310.823	7.88
311.615	8.88
312.407	5.88
313.199	4.88
313.991	6.88
314.783	6.88
315.574	4.88
316.366	5.88
317.157	5.88
317.949	4.88
318.74	6.88
319.531	5.88
320.322	4.88
321.113	6.88
321.904	3.88
322.695	5.88
323.486	3.88
324.277	4.88
325.068	3.88
325.858	3.88
326.649	3.88
327.439	4.88
328.23	5.88
329.02	3.88
329.81	2.88
330.6	5.88
331.391	2.88
332.181	1.88
332.971	3.88
333.76	2.88
334.55	2.88
335.34	3.88
336.13	1.88
336.919	3.88
337.709	2.88
338.498	4.88
339.287	6.88
340.077	1.88
340.866	2.88
341.655	2.88
342.444	1.88
343.233	2.88
344.022	1.88
344.811	4.88
345.6	2.88
346.388	1.88
347.177	2.88
347.965	2.88
348.754	2.88
349.542	1.88
350.33	3.88
351.119	4.88
351.907	4.88
352.695	5.88
353.483	2.88
354.271	3.88
355.059	0.88
355.846	4.88
356.634	3.88
357.422	2.88
358.209	2.88
358.997	2.88
359.784	1.88
360.571	0.88
361.359	3.88
362.146	0.88
362.933	-0.12
363.72	0.88
364.507	-0.12
365.294	4.88
366.081	2.88
366.867	0.88
367.654	2.88
368.44	1.88
369.227	1.88
370.013	2.88
370.8	2.88
371.586	2.88
372.372	1.88
373.158	1.88
373.944	-0.12
374.73	2.88
375.516	0.88
376.302	2.88
377.088	3.88
377.873	2.88
378.659	2.88
379.445	0.88
380.23	2.88
381.015	0.88
381.801	3.88
382.586	2.88
383.371	4.88
384.156	1.88
384.941	2.88
385.726	1.88
386.511	2.88
387.296	3.88
388.08	1.88
388.865	0.88
389.649	0.88
390.434	3.88
391.218	1.88
392.003	1.88
392.787	4.88
393.571	4.88
394.355	2.88
395.139	5.88
395.923	4.88
396.707	2.88
397.491	0.88
398.274	2.88
399.058	5.88
399.842	2.88
400.625	2.88
401.408	3.88
402.192	3.88
402.975	2.88
403.758	4.88
404.541	2.88
405.324	3.88
406.107	3.88
406.89	3.88
407.673	2.88
408.456	3.88
409.238	2.88
410.021	1.88
410.803	2.88
411.586	4.88
412.368	4.88
413.151	4.88
413.933	3.88
414.715	1.88
415.497	8.88
416.279	2.88
417.061	3.88
417.843	2.88
418.624	5.88
419.406	4.88
420.188	6.88
420.969	6.88
421.751	7.88
422.532	4.88
423.313	4.88
424.095	6.88
424.876	4.88
425.657	7.88
426.438	6.88
427.219	5.88
428	6.88
428.78	6.88
429.561	9.88
430.342	6.88
431.122	6.88
431.903	5.88
432.683	5.88
433.464	7.88
434.244	10.88
435.024	8.88
435.804	8.88
436.584	9.88
437.364	10.88
438.144	9.88
438.924	9.88
439.704	8.88
440.483	9.88
441.263	13.88
442.042	12.88
442.822	13.88
443.601	10.88
444.38	14.88
445.16	16.88
445.939	16.88
446.718	16.88
447.497	19.88
448.276	20.88
449.054	19.88
449.833	22.88
450.612	25.88
451.391	24.88
452.169	25.88
452.948	29.88
453.726	32.88
454.504	32.88
455.282	38.88
456.061	40.88
456.839	43.88
457.617	51.88
458.395	56.88
459.172	62.88
459.95	67.88
460.728	75.88
461.506	84.88
462.283	93.88
463.061	101.88
463.838	116.88
464.615	128.88
465.393	143.88
466.17	164.88
466.947	174.88
467.724	202.88
468.501	226.88
469.278	254.88
470.055	280.88
470.831	311.88
471.608	343.88
472.385	391.88
473.161	429.88
473.938	482.88
474.714	549.88
475.49	609.88
476.266	666.88
477.043	746.88
477.819	828.88
478.595	923.88
479.371	1010.88
480.146	1141.88
480.922	1254.88
481.698	1385.88
482.473	1555.88
483.249	1710.88
484.024	1899.88
484.8	2110.88
485.575	2347.88
486.35	2601.88
487.126	2864.88
487.901	3169.88
488.676	3519.88
489.451	3899.88
490.225	4276.88
491	4765.88
491.775	5232.88
492.55	5785.88
493.324	6325.88
494.099	6976.88
494.873	7637.88
495.647	8321.88
496.422	9055.88
497.196	9829.88
497.97	10654.88
498.744	11446.88
499.518	12257.88
500.292	13082.88
501.066	13816.88
501.839	14543.88
502.613	15281.88
503.387	15839.88
504.16	16352.88
504.934	16851.88
505.707	17091.88
506.48	17245.88
507.253	17410.88
508.027	17330.88
508.8	17188.88
509.573	16912.88
510.346	16566.88
511.118	16102.88
511.891	15554.88
512.664	15026.88
513.437	14488.88
514.209	13879.88
514.982	13262.88
515.754	12704.88
516.526	12080.88
517.298	11520.88
518.071	10992.88
518.843	10483.88
519.615	10010.88
520.387	9646.88
521.159	9233.88
521.93	8902.88
522.702	8559.88
523.474	8196.88
524.245	7911.88
525.017	7589.88
525.788	7300.88
526.56	6963.88
527.331	6659.88
528.102	6382.88
528.873	6078.88
529.644	5776.88
530.415	5527.88
531.186	5239.88
531.957	4958.88
532.728	4677.88
533.498	4450.88
534.269	4189.88
535.039	3964.88
535.81	3753.88
536.58	3521.88
537.351	3335.88
538.121	3111.88
538.891	2967.88
539.661	2782.88
540.431	2653.88
541.201	2494.88
541.971	2376.88
542.741	2249.88
543.51	2128.88
544.28	2008.88
545.05	1909.88
545.819	1819.88
546.588	1743.88
547.358	1662.88
548.127	1569.88
548.896	1499.88
549.665	1414.88
550.434	1345.88
551.203	1275.88
551.972	1197.88
552.741	1142.88
553.51	1068.88
554.278	1017.88
555.047	970.88
555.815	909.88
556.584	849.88
557.352	806.88
558.121	753.88
558.889	709.88
559.657	666.88
560.425	632.88
561.193	595.88
561.961	553.88
562.729	527.88
563.496	493.88
564.264	467.88
565.032	439.88
565.799	423.88
566.567	400.88
567.334	365.88
568.101	354.88
568.869	341.88
569.636	312.88
570.403	302.88
571.17	285.88
571.937	267.88
572.704	250.88
573.471	231.88
574.237	219.88
575.004	210.88
575.771	196.88
576.537	182.88
577.303	173.88
578.07	158.88
578.836	152.88
579.602	151.88
580.368	142.88
581.134	129.88
581.9	120.88
582.666	113.88
583.432	105.88
584.198	104.88
584.964	98.88
585.729	91.88
586.495	88.88
587.26	83.88
588.025	78.88
588.791	74.88
589.556	68.88
590.321	66.88
591.086	63.88
591.851	60.88
592.616	54.88
593.381	54.88
594.146	50.88
594.911	46.88
595.675	48.88
596.44	43.88
597.204	43.88
597.969	40.88
598.733	36.88
599.497	35.88
600.261	32.88
601.025	32.88
601.79	30.88
602.553	29.88
603.317	30.88
604.081	28.88
604.845	25.88
605.609	26.88
606.372	23.88
607.136	22.88
607.899	23.88
608.662	24.88
609.426	17.88
610.189	22.88
610.952	18.88
611.715	20.88
612.478	17.88
613.241	15.88
614.004	16.88
614.767	14.88
615.529	17.88
616.292	12.88
617.055	14.88
617.817	13.88
618.579	11.88
619.342	11.88
620.104	9.88
620.866	12.88
621.628	12.88
622.39	12.88
623.152	9.88
623.914	10.88
624.676	9.88
625.438	8.88
626.199	9.88
626.961	7.88
627.722	7.88
628.484	7.88
629.245	6.88
630.006	8.88
630.768	6.88
631.529	6.88
632.29	7.88
633.051	5.88
633.812	6.88
634.573	6.88
635.333	7.88
636.094	6.88
636.855	8.88
637.615	5.88
638.376	4.88
639.136	3.88
639.896	3.88
640.657	4.88
641.417	4.88
642.177	7.88
642.937	4.88
643.697	4.88
644.457	4.88
645.216	3.88
645.976	4.88
646.736	4.88
647.495	4.88
648.255	2.88
649.014	2.88
649.774	4.88
650.533	1.88
651.292	5.88
652.051	1.88
652.81	3.88
653.569	4.88
654.328	2.88
655.087	5.88
655.846	1.88
656.604	4.88
657.363	0.88
658.121	2.88
658.88	3.88
659.638	1.88
660.397	2.88
661.155	2.88
661.913	2.88
662.671	1.88
663.429	2.88
664.187	3.88
664.945	1.88
665.703	3.88
666.46	1.88
667.218	2.88
667.976	2.88
668.733	3.88
669.49	1.88
670.248	2.88
671.005	3.88
671.762	4.88
672.519	0.88
673.276	2.88
674.033	0.88
674.79	2.88
675.547	1.88
676.304	1.88
677.06	0.88
677.817	4.88
678.574	4.88
679.33	0.88
680.086	1.88
680.843	1.88
681.599	4.88
682.355	0.88
683.111	1.88
683.867	2.88
684.623	-0.12
685.379	2.88
686.135	1.88
686.89	2.88
687.646	1.88
688.402	1.88
689.157	3.88
689.912	0.88
690.668	1.88
691.423	2.88
692.178	3.88
692.933	0.88
693.688	0.88
694.443	0.88
695.198	0.88
695.953	3.88
696.708	0.88
697.462	2.88
698.217	2.88
698.972	0.88
699.726	-0.12
700.48	3.88
701.235	2.88
701.989	0.88
702.743	2.88
703.497	0.88
704.251	0.88
705.005	1.88
705.759	1.88
706.513	1.88
707.266	-0.12
708.02	2.88
708.774	2.88
709.527	-0.12
710.28	0.88
711.034	0.88
711.787	4.88
712.54	1.88
713.293	0.88
714.046	-0.12
714.799	1.88
715.552	2.88
716.305	1.88
717.058	2.88
717.81	0.88
718.563	1.88
719.315	1.88
720.068	0.88
720.82	2.88
721.573	2.88
722.325	1.88
723.077	1.88
723.829	0.88
724.581	0.88
725.333	2.88
726.085	1.88
726.836	0.88
727.588	0.88
728.34	0.88
729.091	2.88
729.843	2.88
730.594	0.88
731.346	2.88
732.097	1.88
732.848	1.88
733.599	-0.12
734.35	1.88
735.101	2.88
735.852	0.88
736.603	1.88
737.354	1.88
738.104	0.88
738.855	1.88
739.605	2.88
740.356	3.88
741.106	1.88
741.856	3.88
742.607	2.88
743.357	1.88
744.107	1.88
744.857	0.88
745.607	1.88
746.357	3.88
747.106	2.88
747.856	3.88
748.606	1.88
749.355	3.88
750.105	0.88
750.854	2.88
751.603	4.88
752.353	2.88
753.102	2.88
753.851	1.88
754.6	1.88
755.349	3.88
756.098	1.88
756.847	0.88
757.595	2.88
758.344	2.88
759.093	3.88
759.841	2.88
760.589	1.88
761.338	1.88
762.086	2.88
762.834	3.88
763.582	4.88
764.331	4.88
765.079	6.88
765.826	4.88
766.574	7.88
767.322	2.88
768.07	3.88
768.817	3.88
769.565	1.88
770.312	3.88
771.06	2.88
771.807	3.88
772.554	3.88
773.302	4.88
774.049	1.88
774.796	6.88
775.543	4.88
776.29	5.88
777.036	4.88
777.783	2.88
778.53	4.88
779.276	4.88
780.023	2.88
780.769	6.88
781.516	4.88
782.262	4.88
783.008	3.88
783.754	9.88
784.5	4.88
785.246	4.88
785.992	7.88
786.738	6.88
787.484	7.88
788.23	5.88
788.975	4.88
789.721	5.88
790.466	2.88
791.212	6.88
791.957	4.88
792.702	4.88
793.447	6.88
794.193	6.88
794.938	6.88
795.683	4.88
796.427	4.88
797.172	4.88
797.917	4.88
798.662	5.88
799.406	2.88
800.151	5.88
800.895	5.88
801.64	3.88
802.384	2.88
803.128	4.88
803.872	3.88
804.616	5.88
805.36	3.88
806.104	2.88
806.848	3.88
807.592	3.88
808.336	3.88
809.079	3.88
809.823	2.88
810.566	4.88
811.31	0.88
812.053	4.88
812.796	2.88
813.539	4.88
814.283	1.88
815.026	1.88
815.769	4.88
816.511	1.88
817.254	2.88
817.997	0.88
818.74	2.88
819.482	2.88
820.225	3.88
820.967	2.88
821.71	1.88
822.452	4.88
823.194	1.88
823.936	2.88
824.678	2.88
825.42	2.88
826.162	2.88
826.904	3.88
827.646	3.88
828.388	2.88
829.129	4.88
829.871	3.88
830.612	1.88
831.354	2.88
832.095	2.88
832.836	3.88
833.577	2.88
834.319	1.88
835.06	0.88
835.801	0.88
836.542	0.88
837.282	2.88
838.023	0.88
838.764	1.88
839.504	0.88
840.245	1.88
840.985	2.88
841.726	1.88
842.466	-1.12
843.206	0.88
843.946	0.88
844.687	0.88
845.427	1.88
846.166	0.88
846.906	2.88
847.646	3.88
848.386	1.88
849.125	1.88
849.865	1.88
850.605	1.88
851.344	1.88
852.083	2.88
852.823	0.88
853.562	-0.12
854.301	0.88
855.04	0.88
855.779	2.88
856.518	1.88
857.257	2.88
857.995	1.88
858.734	1.88
859.473	-0.12
860.211	0.88
860.95	0.88
861.688	1.88
862.426	1.88
863.165	-0.12
863.903	-1.12
864.641	0.88
865.379	0.88
866.117	1.88
866.855	0.88
867.593	1.88
868.33	-2.12
869.068	2.88
869.806	0.88
870.543	-0.12
871.28	4.88
872.018	-0.12
872.755	2.88
873.492	0.88
874.229	-0.12
874.967	0.88
875.703	-0.12
876.44	-2.12
877.177	0.88
877.914	0.88
878.651	0.88
879.387	-1.12
880.124	-0.12
880.86	-0.12
881.597	1.88
882.333	-0.12
883.069	0.88
883.806	1.88
884.542	0.88
885.278	-0.12
886.014	-1.12
886.749	1.88
887.485	-0.12
888.221	-1.12
888.957	2.88
889.692	-2.12
890.428	-0.12
891.163	0.88
891.899	-0.12
892.634	-0.12
893.369	0.88
894.104	0.88
894.839	0.88
895.574	0.88
896.309	0.88
897.044	0.88
897.779	1.88
898.514	0.88
899.248	0.88
899.983	0.88
900.717	0.88
901.452	0.88
902.186	-0.12
902.92	-0.12
903.654	0.88
904.389	-1.12
905.123	-2.12
905.857	1.88
906.59	-1.12
907.324	0.88
908.058	-0.12
908.792	-1.12
909.525	1.88
910.259	0.88
910.992	0.88
911.726	-0.12
912.459	-1.12
913.192	0.88
913.925	-2.12
914.658	1.88
915.391	0.88
916.124	-0.12
916.857	0.88
917.59	-0.12
918.323	0.88
919.055	0.88
919.788	0.88
920.521	-3.12
921.253	-1.12
921.985	0.88
922.718	0.88
923.45	0.88
924.182	-3.12
924.914	0.88
925.646	-0.12
926.378	-0.12
927.11	-0.12
927.841	-0.12
928.573	0.88
929.305	-0.12
930.036	0.88
930.768	-0.12
931.499	0.88
932.23	-0.12
932.962	0.88
933.693	0.88
934.424	-0.12
935.155	-1.12
935.886	-0.12
936.617	-1.12
937.348	-0.12
938.078	-1.12
938.809	0.88
939.54	-2.12
940.27	-2.12
941.001	0.88
941.731	1.88
942.461	0.88
943.191	-1.12
943.922	0.88
944.652	-0.12
945.382	2.88
946.112	0.88
946.841	-0.12
947.571	-2.12
948.301	-0.12
949.031	0.88
949.76	-0.12
950.49	-1.12
951.219	-0.12
951.948	-1.12
952.678	1.88
953.407	-0.12
954.136	0.88
954.865	1.88
955.594	-0.12
956.323	0.88
957.052	-0.12
957.78	-0.12
958.509	-1.12
959.238	0.88
959.966	-1.12
960.695	-2.12
961.423	-0.12
962.151	-0.12
962.88	0.88
963.608	-1.12
964.336	-0.12
965.064	-1.12
965.792	0.88
966.52	1.88
967.247	-2.12
967.975	-0.12
968.703	-2.12
969.43	1.88
970.158	-0.12
970.885	1.88
971.613	0.88
972.34	-0.12
973.067	0.88
973.794	-1.12
974.521	-2.12
975.248	-2.12
975.975	0.88
976.702	-0.12
977.429	-0.12
978.156	2.88
978.882	-0.12
979.609	-1.12
980.335	-0.12
981.062	0.88
981.788	-1.12
982.514	-1.12
983.24	-1.12
983.967	-2.12
984.693	-0.12
985.419	0.88
986.144	0.88
986.87	-2.12
987.596	-2.12
988.322	-1.12
989.047	0.88
989.773	0.88
990.498	-1.12
991.224	0.88
991.949	-0.12
992.674	-2.12
993.399	-0.12
994.124	-0.12
994.849	-2.12
995.574	1.88
996.299	-0.12
997.024	-0.12
997.749	-0.12
998.473	-0.12
999.198	-0.12
999.922	-1.12
1000.647	1.88
1001.371	4.88
1002.095	-2.12
1002.82	-2.12
1003.544	-0.12
1004.268	-1.12
1004.992	-0.12
1005.716	-2.12
1006.439	-1.12
1007.163	-0.12
1007.887	-0.12
1008.611	1.88
1009.334	-0.12
1010.058	-2.12
1010.781	-0.12
1011.504	0.88
1012.228	1.88
1012.951	-0.12
1013.674	-2.12
1014.397	-0.12
1015.12	1.88
