节点500_145_QEPB04081__574__11-38-05-373.txt的数据

Date: Wed Nov 12 11:38:05 CST 2025
User: PC
Spectrometer: QEPB0408
触发模式: 0
积分时间 (秒): 1.000000E-2
Scans to average: 1
启用暗噪声校正: true
启用非线性校正: false
滑动平均宽度: 0
X轴模式: Wavelengths
Number of Pixels in Spectrum: 1044
>>>>>Begin Spectral Data<<<<<
220.843	-1.75
221.644	-1.75
222.444	0.25
223.244	-0.75
224.045	0.25
224.845	-1.75
225.645	-0.75
226.445	-3.75
227.245	-1.75
228.045	0.25
228.845	0.25
229.645	0.25
230.444	0.25
231.244	0.25
232.043	1.25
232.843	0.25
233.642	1.25
234.442	2.25
235.241	0.25
236.04	0.25
236.839	-0.75
237.638	0.25
238.437	3.25
239.236	2.25
240.035	-0.75
240.833	1.25
241.632	3.25
242.43	3.25
243.229	1.25
244.027	3.25
244.826	3.25
245.624	3.25
246.422	2.25
247.22	1.25
248.018	1.25
248.816	2.25
249.614	0.25
250.412	1.25
251.21	3.25
252.007	2.25
252.805	1.25
253.602	2.25
254.4	3.25
255.197	3.25
255.994	2.25
256.791	4.25
257.589	4.25
258.386	2.25
259.183	2.25
259.979	2.25
260.776	4.25
261.573	5.25
262.37	5.25
263.166	6.25
263.963	4.25
264.759	5.25
265.556	5.25
266.352	3.25
267.148	8.25
267.944	5.25
268.74	5.25
269.536	2.25
270.332	7.25
271.128	7.25
271.924	9.25
272.719	6.25
273.515	6.25
274.311	6.25
275.106	4.25
275.901	7.25
276.697	9.25
277.492	7.25
278.287	8.25
279.082	6.25
279.877	9.25
280.672	6.25
281.467	10.25
282.262	7.25
283.056	9.25
283.851	7.25
284.646	6.25
285.44	7.25
286.234	11.25
287.029	12.25
287.823	9.25
288.617	8.25
289.411	11.25
290.205	10.25
290.999	9.25
291.793	10.25
292.587	10.25
293.381	8.25
294.174	11.25
294.968	8.25
295.761	8.25
296.555	10.25
297.348	10.25
298.141	9.25
298.935	11.25
299.728	9.25
300.521	10.25
301.314	6.25
302.107	5.25
302.899	5.25
303.692	11.25
304.485	9.25
305.277	8.25
306.07	6.25
306.862	8.25
307.655	5.25
308.447	6.25
309.239	6.25
310.031	8.25
310.823	5.25
311.615	7.25
312.407	7.25
313.199	7.25
313.991	4.25
314.783	5.25
315.574	4.25
316.366	5.25
317.157	6.25
317.949	4.25
318.74	4.25
319.531	5.25
320.322	6.25
321.113	7.25
321.904	2.25
322.695	3.25
323.486	7.25
324.277	4.25
325.068	5.25
325.858	3.25
326.649	3.25
327.439	6.25
328.23	3.25
329.02	5.25
329.81	3.25
330.6	5.25
331.391	5.25
332.181	6.25
332.971	2.25
333.76	3.25
334.55	2.25
335.34	2.25
336.13	4.25
336.919	5.25
337.709	2.25
338.498	0.25
339.287	3.25
340.077	5.25
340.866	5.25
341.655	3.25
342.444	2.25
343.233	3.25
344.022	4.25
344.811	5.25
345.6	2.25
346.388	1.25
347.177	3.25
347.965	4.25
348.754	3.25
349.542	4.25
350.33	2.25
351.119	1.25
351.907	2.25
352.695	4.25
353.483	2.25
354.271	2.25
355.059	3.25
355.846	3.25
356.634	3.25
357.422	3.25
358.209	2.25
358.997	2.25
359.784	5.25
360.571	1.25
361.359	4.25
362.146	4.25
362.933	3.25
363.72	5.25
364.507	1.25
365.294	1.25
366.081	2.25
366.867	4.25
367.654	3.25
368.44	2.25
369.227	3.25
370.013	2.25
370.8	4.25
371.586	2.25
372.372	2.25
373.158	3.25
373.944	0.25
374.73	2.25
375.516	0.25
376.302	3.25
377.088	2.25
377.873	2.25
378.659	2.25
379.445	4.25
380.23	3.25
381.015	1.25
381.801	2.25
382.586	2.25
383.371	3.25
384.156	3.25
384.941	1.25
385.726	4.25
386.511	2.25
387.296	2.25
388.08	2.25
388.865	3.25
389.649	2.25
390.434	1.25
391.218	4.25
392.003	1.25
392.787	2.25
393.571	2.25
394.355	3.25
395.139	1.25
395.923	3.25
396.707	3.25
397.491	4.25
398.274	2.25
399.058	2.25
399.842	5.25
400.625	1.25
401.408	3.25
402.192	3.25
402.975	2.25
403.758	2.25
404.541	3.25
405.324	3.25
406.107	3.25
406.89	2.25
407.673	5.25
408.456	3.25
409.238	1.25
410.021	4.25
410.803	3.25
411.586	4.25
412.368	5.25
413.151	4.25
413.933	4.25
414.715	3.25
415.497	7.25
416.279	6.25
417.061	4.25
417.843	4.25
418.624	5.25
419.406	5.25
420.188	6.25
420.969	4.25
421.751	4.25
422.532	7.25
423.313	6.25
424.095	4.25
424.876	5.25
425.657	6.25
426.438	6.25
427.219	5.25
428	5.25
428.78	7.25
429.561	9.25
430.342	8.25
431.122	9.25
431.903	6.25
432.683	8.25
433.464	10.25
434.244	8.25
435.024	9.25
435.804	8.25
436.584	9.25
437.364	9.25
438.144	11.25
438.924	13.25
439.704	7.25
440.483	11.25
441.263	12.25
442.042	13.25
442.822	14.25
443.601	14.25
444.38	14.25
445.16	15.25
445.939	17.25
446.718	19.25
447.497	21.25
448.276	18.25
449.054	21.25
449.833	23.25
450.612	25.25
451.391	29.25
452.169	29.25
452.948	35.25
453.726	37.25
454.504	41.25
455.282	42.25
456.061	47.25
456.839	59.25
457.617	62.25
458.395	65.25
459.172	72.25
459.95	81.25
460.728	89.25
461.506	101.25
462.283	111.25
463.061	128.25
463.838	137.25
464.615	158.25
465.393	173.25
466.17	193.25
466.947	209.25
467.724	238.25
468.501	254.25
469.278	291.25
470.055	326.25
470.831	352.25
471.608	397.25
472.385	442.25
473.161	482.25
473.938	541.25
474.714	595.25
475.49	656.25
476.266	718.25
477.043	796.25
477.819	861.25
478.595	966.25
479.371	1054.25
480.146	1151.25
480.922	1284.25
481.698	1405.25
482.473	1543.25
483.249	1683.25
484.024	1843.25
484.8	2022.25
485.575	2212.25
486.35	2445.25
487.126	2677.25
487.901	2920.25
488.676	3187.25
489.451	3488.25
490.225	3794.25
491	4160.25
491.775	4530.25
492.55	4941.25
493.324	5382.25
494.099	5920.25
494.873	6368.25
495.647	6935.25
496.422	7530.25
497.196	8142.25
497.97	8681.25
498.744	9353.25
499.518	10038.25
500.292	10716.25
501.066	11373.25
501.839	12023.25
502.613	12641.25
503.387	13193.25
504.16	13803.25
504.934	14327.25
505.707	14668.25
506.48	15033.25
507.253	15235.25
508.027	15406.25
508.8	15488.25
509.573	15463.25
510.346	15330.25
511.118	15145.25
511.891	14861.25
512.664	14499.25
513.437	14112.25
514.209	13692.25
514.982	13198.25
515.754	12742.25
516.526	12253.25
517.298	11771.25
518.071	11216.25
518.843	10744.25
519.615	10277.25
520.387	9900.25
521.159	9470.25
521.93	9098.25
522.702	8745.25
523.474	8427.25
524.245	8107.25
525.017	7757.25
525.788	7471.25
526.56	7185.25
527.331	6878.25
528.102	6586.25
528.873	6317.25
529.644	6004.25
530.415	5741.25
531.186	5492.25
531.957	5262.25
532.728	4982.25
533.498	4735.25
534.269	4505.25
535.039	4264.25
535.81	4001.25
536.58	3811.25
537.351	3610.25
538.121	3431.25
538.891	3211.25
539.661	3055.25
540.431	2887.25
541.201	2717.25
541.971	2575.25
542.741	2446.25
543.51	2293.25
544.28	2192.25
545.05	2097.25
545.819	1996.25
546.588	1894.25
547.358	1779.25
548.127	1693.25
548.896	1630.25
549.665	1551.25
550.434	1464.25
551.203	1390.25
551.972	1323.25
552.741	1253.25
553.51	1194.25
554.278	1125.25
555.047	1053.25
555.815	1003.25
556.584	950.25
557.352	897.25
558.121	849.25
558.889	787.25
559.657	753.25
560.425	711.25
561.193	677.25
561.961	646.25
562.729	595.25
563.496	571.25
564.264	522.25
565.032	499.25
565.799	480.25
566.567	444.25
567.334	425.25
568.101	397.25
568.869	371.25
569.636	355.25
570.403	337.25
571.17	319.25
571.937	299.25
572.704	281.25
573.471	264.25
574.237	250.25
575.004	234.25
575.771	217.25
576.537	205.25
577.303	192.25
578.07	187.25
578.836	174.25
579.602	160.25
580.368	156.25
581.134	149.25
581.9	135.25
582.666	133.25
583.432	121.25
584.198	122.25
584.964	113.25
585.729	106.25
586.495	102.25
587.26	95.25
588.025	91.25
588.791	84.25
589.556	78.25
590.321	77.25
591.086	70.25
591.851	65.25
592.616	64.25
593.381	55.25
594.146	59.25
594.911	56.25
595.675	52.25
596.44	50.25
597.204	46.25
597.969	44.25
598.733	42.25
599.497	38.25
600.261	39.25
601.025	36.25
601.79	35.25
602.553	30.25
603.317	30.25
604.081	33.25
604.845	32.25
605.609	25.25
606.372	25.25
607.136	27.25
607.899	23.25
608.662	26.25
609.426	23.25
610.189	20.25
610.952	20.25
611.715	23.25
612.478	21.25
613.241	17.25
614.004	19.25
614.767	16.25
615.529	17.25
616.292	17.25
617.055	14.25
617.817	14.25
618.579	14.25
619.342	13.25
620.104	11.25
620.866	13.25
621.628	13.25
622.39	12.25
623.152	11.25
623.914	9.25
624.676	11.25
625.438	9.25
626.199	10.25
626.961	11.25
627.722	9.25
628.484	10.25
629.245	9.25
630.006	7.25
630.768	7.25
631.529	10.25
632.29	7.25
633.051	7.25
633.812	8.25
634.573	6.25
635.333	4.25
636.094	9.25
636.855	4.25
637.615	6.25
638.376	5.25
639.136	5.25
639.896	5.25
640.657	5.25
641.417	7.25
642.177	7.25
642.937	4.25
643.697	4.25
644.457	4.25
645.216	5.25
645.976	4.25
646.736	4.25
647.495	4.25
648.255	5.25
649.014	3.25
649.774	5.25
650.533	6.25
651.292	4.25
652.051	5.25
652.81	2.25
653.569	4.25
654.328	3.25
655.087	4.25
655.846	1.25
656.604	2.25
657.363	3.25
658.121	3.25
658.88	3.25
659.638	3.25
660.397	5.25
661.155	4.25
661.913	2.25
662.671	3.25
663.429	2.25
664.187	1.25
664.945	1.25
665.703	3.25
666.46	3.25
667.218	2.25
667.976	4.25
668.733	2.25
669.49	4.25
670.248	3.25
671.005	5.25
671.762	2.25
672.519	3.25
673.276	1.25
674.033	1.25
674.79	1.25
675.547	4.25
676.304	0.25
677.06	1.25
677.817	1.25
678.574	2.25
679.33	1.25
680.086	5.25
680.843	2.25
681.599	2.25
682.355	3.25
683.111	1.25
683.867	0.25
684.623	3.25
685.379	6.25
686.135	2.25
686.89	1.25
687.646	1.25
688.402	2.25
689.157	2.25
689.912	1.25
690.668	2.25
691.423	1.25
692.178	0.25
692.933	2.25
693.688	2.25
694.443	3.25
695.198	0.25
695.953	2.25
696.708	1.25
697.462	2.25
698.217	3.25
698.972	2.25
699.726	1.25
700.48	1.25
701.235	1.25
701.989	2.25
702.743	0.25
703.497	1.25
704.251	5.25
705.005	2.25
705.759	0.25
706.513	1.25
707.266	2.25
708.02	2.25
708.774	3.25
709.527	1.25
710.28	1.25
711.034	0.25
711.787	3.25
712.54	2.25
713.293	1.25
714.046	5.25
714.799	3.25
715.552	3.25
716.305	1.25
717.058	-0.75
717.81	1.25
718.563	2.25
719.315	1.25
720.068	0.25
720.82	2.25
721.573	1.25
722.325	0.25
723.077	1.25
723.829	1.25
724.581	1.25
725.333	1.25
726.085	0.25
726.836	3.25
727.588	1.25
728.34	2.25
729.091	1.25
729.843	4.25
730.594	0.25
731.346	3.25
732.097	1.25
732.848	2.25
733.599	2.25
734.35	1.25
735.101	-0.75
735.852	1.25
736.603	3.25
737.354	1.25
738.104	0.25
738.855	1.25
739.605	0.25
740.356	2.25
741.106	0.25
741.856	2.25
742.607	3.25
743.357	1.25
744.107	2.25
744.857	1.25
745.607	5.25
746.357	1.25
747.106	1.25
747.856	0.25
748.606	0.25
749.355	3.25
750.105	2.25
750.854	3.25
751.603	0.25
752.353	3.25
753.102	4.25
753.851	2.25
754.6	3.25
755.349	2.25
756.098	4.25
756.847	2.25
757.595	4.25
758.344	0.25
759.093	4.25
759.841	2.25
760.589	3.25
761.338	3.25
762.086	3.25
762.834	4.25
763.582	5.25
764.331	3.25
765.079	3.25
765.826	5.25
766.574	4.25
767.322	5.25
768.07	1.25
768.817	4.25
769.565	4.25
770.312	4.25
771.06	4.25
771.807	3.25
772.554	3.25
773.302	2.25
774.049	3.25
774.796	1.25
775.543	5.25
776.29	5.25
777.036	4.25
777.783	4.25
778.53	4.25
779.276	4.25
780.023	5.25
780.769	6.25
781.516	7.25
782.262	4.25
783.008	5.25
783.754	4.25
784.5	4.25
785.246	4.25
785.992	5.25
786.738	4.25
787.484	5.25
788.23	5.25
788.975	4.25
789.721	5.25
790.466	3.25
791.212	4.25
791.957	3.25
792.702	5.25
793.447	4.25
794.193	3.25
794.938	4.25
795.683	5.25
796.427	4.25
797.172	4.25
797.917	3.25
798.662	4.25
799.406	2.25
800.151	4.25
800.895	3.25
801.64	5.25
802.384	5.25
803.128	6.25
803.872	2.25
804.616	2.25
805.36	6.25
806.104	1.25
806.848	3.25
807.592	5.25
808.336	4.25
809.079	5.25
809.823	3.25
810.566	3.25
811.31	4.25
812.053	2.25
812.796	4.25
813.539	5.25
814.283	4.25
815.026	-0.75
815.769	4.25
816.511	0.25
817.254	3.25
817.997	0.25
818.74	3.25
819.482	5.25
820.225	2.25
820.967	2.25
821.71	3.25
822.452	3.25
823.194	4.25
823.936	4.25
824.678	1.25
825.42	2.25
826.162	2.25
826.904	3.25
827.646	3.25
828.388	5.25
829.129	1.25
829.871	1.25
830.612	1.25
831.354	3.25
832.095	2.25
832.836	3.25
833.577	4.25
834.319	-0.75
835.06	1.25
835.801	1.25
836.542	1.25
837.282	2.25
838.023	2.25
838.764	3.25
839.504	2.25
840.245	2.25
840.985	0.25
841.726	3.25
842.466	2.25
843.206	1.25
843.946	4.25
844.687	2.25
845.427	3.25
846.166	3.25
846.906	2.25
847.646	5.25
848.386	4.25
849.125	-1.75
849.865	1.25
850.605	1.25
851.344	1.25
852.083	2.25
852.823	1.25
853.562	3.25
854.301	3.25
855.04	1.25
855.779	0.25
856.518	0.25
857.257	3.25
857.995	1.25
858.734	0.25
859.473	1.25
860.211	0.25
860.95	1.25
861.688	-0.75
862.426	2.25
863.165	-0.75
863.903	2.25
864.641	2.25
865.379	0.25
866.117	2.25
866.855	0.25
867.593	1.25
868.33	2.25
869.068	3.25
869.806	0.25
870.543	-0.75
871.28	1.25
872.018	1.25
872.755	1.25
873.492	-0.75
874.229	1.25
874.967	1.25
875.703	0.25
876.44	2.25
877.177	-1.75
877.914	2.25
878.651	2.25
879.387	1.25
880.124	0.25
880.86	1.25
881.597	2.25
882.333	0.25
883.069	0.25
883.806	0.25
884.542	0.25
885.278	0.25
886.014	-0.75
886.749	2.25
887.485	0.25
888.221	1.25
888.957	-0.75
889.692	0.25
890.428	1.25
891.163	1.25
891.899	2.25
892.634	-0.75
893.369	-0.75
894.104	1.25
894.839	1.25
895.574	0.25
896.309	-0.75
897.044	0.25
897.779	-0.75
898.514	1.25
899.248	0.25
899.983	2.25
900.717	2.25
901.452	0.25
902.186	1.25
902.92	-2.75
903.654	1.25
904.389	1.25
905.123	1.25
905.857	1.25
906.59	0.25
907.324	0.25
908.058	-0.75
908.792	-0.75
909.525	0.25
910.259	0.25
910.992	2.25
911.726	-1.75
912.459	0.25
913.192	0.25
913.925	0.25
914.658	-1.75
915.391	-0.75
916.124	2.25
916.857	0.25
917.59	-0.75
918.323	1.25
919.055	0.25
919.788	-1.75
920.521	2.25
921.253	2.25
921.985	1.25
922.718	2.25
923.45	0.25
924.182	0.25
924.914	-1.75
925.646	-0.75
926.378	0.25
927.11	0.25
927.841	0.25
928.573	2.25
929.305	-0.75
930.036	1.25
930.768	-0.75
931.499	0.25
932.23	-1.75
932.962	0.25
933.693	-0.75
934.424	0.25
935.155	-1.75
935.886	-1.75
936.617	-1.75
937.348	-0.75
938.078	-0.75
938.809	0.25
939.54	-1.75
940.27	-1.75
941.001	0.25
941.731	2.25
942.461	-1.75
943.191	0.25
943.922	0.25
944.652	-1.75
945.382	1.25
946.112	1.25
946.841	-0.75
947.571	1.25
948.301	2.25
949.031	0.25
949.76	-2.75
950.49	-0.75
951.219	-0.75
951.948	1.25
952.678	-0.75
953.407	0.25
954.136	-1.75
954.865	-1.75
955.594	1.25
956.323	1.25
957.052	-1.75
957.78	2.25
958.509	0.25
959.238	1.25
959.966	-0.75
960.695	0.25
961.423	-0.75
962.151	-0.75
962.88	0.25
963.608	1.25
964.336	0.25
965.064	0.25
965.792	0.25
966.52	0.25
967.247	1.25
967.975	-0.75
968.703	-1.75
969.43	0.25
970.158	-2.75
970.885	0.25
971.613	-1.75
972.34	0.25
973.067	-0.75
973.794	1.25
974.521	0.25
975.248	2.25
975.975	1.25
976.702	1.25
977.429	1.25
978.156	-1.75
978.882	-1.75
979.609	0.25
980.335	-1.75
981.062	0.25
981.788	0.25
982.514	1.25
983.24	-0.75
983.967	0.25
984.693	0.25
985.419	-1.75
986.144	1.25
986.87	-0.75
987.596	0.25
988.322	1.25
989.047	1.25
989.773	0.25
990.498	-2.75
991.224	1.25
991.949	0.25
992.674	-0.75
993.399	-1.75
994.124	-0.75
994.849	0.25
995.574	2.25
996.299	0.25
997.024	0.25
997.749	-0.75
998.473	-0.75
999.198	0.25
999.922	1.25
1000.647	1.25
1001.371	3.25
1002.095	-0.75
1002.82	1.25
1003.544	-1.75
1004.268	-0.75
1004.992	0.25
1005.716	-2.75
1006.439	-1.75
1007.163	0.25
1007.887	0.25
1008.611	1.25
1009.334	0.25
1010.058	1.25
1010.781	-0.75
1011.504	0.25
1012.228	-2.75
1012.951	-1.75
1013.674	0.25
1014.397	-1.75
1015.12	1.25
