节点500_145_QEPB04081__576__11-38-07-372.txt的数据

Date: Wed Nov 12 11:38:07 CST 2025
User: PC
Spectrometer: QEPB0408
触发模式: 0
积分时间 (秒): 1.000000E-2
Scans to average: 1
启用暗噪声校正: true
启用非线性校正: false
滑动平均宽度: 0
X轴模式: Wavelengths
Number of Pixels in Spectrum: 1044
>>>>>Begin Spectral Data<<<<<
220.843	-0.12
221.644	-2.12
222.444	-0.12
223.244	-0.12
224.045	-0.12
224.845	-2.12
225.645	-0.12
226.445	-2.12
227.245	-2.12
228.045	-1.12
228.845	0.88
229.645	-0.12
230.444	-1.12
231.244	-0.12
232.043	-0.12
232.843	0.88
233.642	2.88
234.442	-2.12
235.241	0.88
236.04	-0.12
236.839	-0.12
237.638	1.88
238.437	3.88
239.236	-0.12
240.035	0.88
240.833	1.88
241.632	0.88
242.43	0.88
243.229	0.88
244.027	0.88
244.826	0.88
245.624	1.88
246.422	0.88
247.22	2.88
248.018	-0.12
248.816	-0.12
249.614	2.88
250.412	0.88
251.21	2.88
252.007	3.88
252.805	3.88
253.602	3.88
254.4	2.88
255.197	2.88
255.994	2.88
256.791	2.88
257.589	0.88
258.386	2.88
259.183	3.88
259.979	2.88
260.776	0.88
261.573	3.88
262.37	1.88
263.166	4.88
263.963	4.88
264.759	4.88
265.556	4.88
266.352	3.88
267.148	6.88
267.944	4.88
268.74	7.88
269.536	2.88
270.332	6.88
271.128	6.88
271.924	6.88
272.719	6.88
273.515	6.88
274.311	7.88
275.106	5.88
275.901	6.88
276.697	8.88
277.492	4.88
278.287	7.88
279.082	7.88
279.877	8.88
280.672	6.88
281.467	8.88
282.262	7.88
283.056	7.88
283.851	9.88
284.646	9.88
285.44	9.88
286.234	8.88
287.029	11.88
287.823	8.88
288.617	7.88
289.411	8.88
290.205	11.88
290.999	9.88
291.793	10.88
292.587	10.88
293.381	8.88
294.174	8.88
294.968	9.88
295.761	9.88
296.555	9.88
297.348	10.88
298.141	7.88
298.935	8.88
299.728	9.88
300.521	8.88
301.314	10.88
302.107	8.88
302.899	9.88
303.692	3.88
304.485	9.88
305.277	7.88
306.07	6.88
306.862	8.88
307.655	6.88
308.447	8.88
309.239	4.88
310.031	6.88
310.823	4.88
311.615	6.88
312.407	4.88
313.199	3.88
313.991	4.88
314.783	4.88
315.574	6.88
316.366	4.88
317.157	2.88
317.949	3.88
318.74	5.88
319.531	5.88
320.322	3.88
321.113	2.88
321.904	2.88
322.695	4.88
323.486	4.88
324.277	5.88
325.068	3.88
325.858	4.88
326.649	4.88
327.439	1.88
328.23	1.88
329.02	2.88
329.81	3.88
330.6	1.88
331.391	3.88
332.181	3.88
332.971	3.88
333.76	3.88
334.55	2.88
335.34	5.88
336.13	3.88
336.919	0.88
337.709	0.88
338.498	3.88
339.287	3.88
340.077	2.88
340.866	4.88
341.655	2.88
342.444	0.88
343.233	2.88
344.022	2.88
344.811	4.88
345.6	4.88
346.388	1.88
347.177	2.88
347.965	3.88
348.754	1.88
349.542	1.88
350.33	1.88
351.119	2.88
351.907	2.88
352.695	4.88
353.483	1.88
354.271	3.88
355.059	2.88
355.846	1.88
356.634	2.88
357.422	0.88
358.209	2.88
358.997	0.88
359.784	0.88
360.571	2.88
361.359	1.88
362.146	2.88
362.933	1.88
363.72	1.88
364.507	-0.12
365.294	2.88
366.081	2.88
366.867	1.88
367.654	2.88
368.44	2.88
369.227	2.88
370.013	2.88
370.8	1.88
371.586	3.88
372.372	2.88
373.158	1.88
373.944	0.88
374.73	3.88
375.516	2.88
376.302	4.88
377.088	1.88
377.873	2.88
378.659	0.88
379.445	0.88
380.23	1.88
381.015	1.88
381.801	1.88
382.586	4.88
383.371	2.88
384.156	2.88
384.941	1.88
385.726	2.88
386.511	1.88
387.296	2.88
388.08	3.88
388.865	2.88
389.649	1.88
390.434	1.88
391.218	1.88
392.003	1.88
392.787	2.88
393.571	0.88
394.355	2.88
395.139	1.88
395.923	2.88
396.707	3.88
397.491	0.88
398.274	3.88
399.058	3.88
399.842	4.88
400.625	2.88
401.408	1.88
402.192	0.88
402.975	1.88
403.758	3.88
404.541	3.88
405.324	4.88
406.107	3.88
406.89	1.88
407.673	5.88
408.456	3.88
409.238	2.88
410.021	1.88
410.803	1.88
411.586	4.88
412.368	3.88
413.151	6.88
413.933	4.88
414.715	3.88
415.497	4.88
416.279	2.88
417.061	1.88
417.843	2.88
418.624	5.88
419.406	4.88
420.188	5.88
420.969	2.88
421.751	5.88
422.532	5.88
423.313	3.88
424.095	4.88
424.876	3.88
425.657	4.88
426.438	5.88
427.219	5.88
428	6.88
428.78	4.88
429.561	5.88
430.342	5.88
431.122	6.88
431.903	6.88
432.683	7.88
433.464	8.88
434.244	6.88
435.024	6.88
435.804	8.88
436.584	5.88
437.364	11.88
438.144	10.88
438.924	11.88
439.704	10.88
440.483	12.88
441.263	10.88
442.042	12.88
442.822	13.88
443.601	15.88
444.38	15.88
445.16	15.88
445.939	17.88
446.718	17.88
447.497	20.88
448.276	19.88
449.054	18.88
449.833	26.88
450.612	28.88
451.391	29.88
452.169	30.88
452.948	30.88
453.726	36.88
454.504	37.88
455.282	45.88
456.061	47.88
456.839	52.88
457.617	60.88
458.395	66.88
459.172	73.88
459.95	81.88
460.728	89.88
461.506	101.88
462.283	112.88
463.061	124.88
463.838	142.88
464.615	157.88
465.393	165.88
466.17	191.88
466.947	214.88
467.724	235.88
468.501	261.88
469.278	285.88
470.055	315.88
470.831	354.88
471.608	391.88
472.385	437.88
473.161	484.88
473.938	544.88
474.714	587.88
475.49	655.88
476.266	726.88
477.043	796.88
477.819	882.88
478.595	954.88
479.371	1053.88
480.146	1161.88
480.922	1270.88
481.698	1396.88
482.473	1525.88
483.249	1677.88
484.024	1845.88
484.8	2014.88
485.575	2223.88
486.35	2442.88
487.126	2647.88
487.901	2916.88
488.676	3192.88
489.451	3459.88
490.225	3801.88
491	4148.88
491.775	4538.88
492.55	4954.88
493.324	5375.88
494.099	5857.88
494.873	6363.88
495.647	6891.88
496.422	7506.88
497.196	8094.88
497.97	8700.88
498.744	9380.88
499.518	10013.88
500.292	10711.88
501.066	11340.88
501.839	11957.88
502.613	12608.88
503.387	13202.88
504.16	13763.88
504.934	14262.88
505.707	14639.88
506.48	14935.88
507.253	15220.88
508.027	15394.88
508.8	15481.88
509.573	15484.88
510.346	15307.88
511.118	15157.88
511.891	14891.88
512.664	14518.88
513.437	14082.88
514.209	13685.88
514.982	13221.88
515.754	12683.88
516.526	12219.88
517.298	11699.88
518.071	11220.88
518.843	10764.88
519.615	10317.88
520.387	9859.88
521.159	9506.88
521.93	9090.88
522.702	8720.88
523.474	8379.88
524.245	8096.88
525.017	7736.88
525.788	7447.88
526.56	7143.88
527.331	6870.88
528.102	6552.88
528.873	6264.88
529.644	6005.88
530.415	5766.88
531.186	5494.88
531.957	5237.88
532.728	4966.88
533.498	4740.88
534.269	4488.88
535.039	4259.88
535.81	4034.88
536.58	3809.88
537.351	3617.88
538.121	3406.88
538.891	3237.88
539.661	3043.88
540.431	2880.88
541.201	2733.88
541.971	2560.88
542.741	2455.88
543.51	2318.88
544.28	2201.88
545.05	2089.88
545.819	1999.88
546.588	1884.88
547.358	1780.88
548.127	1700.88
548.896	1622.88
549.665	1542.88
550.434	1466.88
551.203	1383.88
551.972	1313.88
552.741	1268.88
553.51	1188.88
554.278	1125.88
555.047	1065.88
555.815	994.88
556.584	951.88
557.352	895.88
558.121	845.88
558.889	802.88
559.657	744.88
560.425	703.88
561.193	670.88
561.961	633.88
562.729	607.88
563.496	559.88
564.264	533.88
565.032	502.88
565.799	473.88
566.567	448.88
567.334	424.88
568.101	403.88
568.869	374.88
569.636	355.88
570.403	334.88
571.17	317.88
571.937	295.88
572.704	284.88
573.471	266.88
574.237	250.88
575.004	238.88
575.771	215.88
576.537	209.88
577.303	196.88
578.07	186.88
578.836	171.88
579.602	161.88
580.368	156.88
581.134	153.88
581.9	141.88
582.666	133.88
583.432	126.88
584.198	117.88
584.964	106.88
585.729	102.88
586.495	99.88
587.26	94.88
588.025	88.88
588.791	85.88
589.556	76.88
590.321	72.88
591.086	70.88
591.851	67.88
592.616	63.88
593.381	61.88
594.146	56.88
594.911	52.88
595.675	53.88
596.44	48.88
597.204	48.88
597.969	44.88
598.733	40.88
599.497	39.88
600.261	40.88
601.025	33.88
601.79	36.88
602.553	36.88
603.317	28.88
604.081	33.88
604.845	28.88
605.609	25.88
606.372	24.88
607.136	25.88
607.899	20.88
608.662	23.88
609.426	23.88
610.189	21.88
610.952	19.88
611.715	19.88
612.478	21.88
613.241	19.88
614.004	20.88
614.767	17.88
615.529	15.88
616.292	13.88
617.055	12.88
617.817	13.88
618.579	12.88
619.342	11.88
620.104	12.88
620.866	10.88
621.628	12.88
622.39	12.88
623.152	8.88
623.914	9.88
624.676	11.88
625.438	10.88
626.199	7.88
626.961	11.88
627.722	7.88
628.484	6.88
629.245	7.88
630.006	7.88
630.768	6.88
631.529	7.88
632.29	6.88
633.051	7.88
633.812	5.88
634.573	8.88
635.333	6.88
636.094	4.88
636.855	6.88
637.615	4.88
638.376	3.88
639.136	4.88
639.896	4.88
640.657	3.88
641.417	3.88
642.177	4.88
642.937	4.88
643.697	4.88
644.457	5.88
645.216	2.88
645.976	2.88
646.736	6.88
647.495	4.88
648.255	4.88
649.014	2.88
649.774	2.88
650.533	3.88
651.292	3.88
652.051	4.88
652.81	4.88
653.569	1.88
654.328	4.88
655.087	3.88
655.846	3.88
656.604	3.88
657.363	1.88
658.121	4.88
658.88	2.88
659.638	1.88
660.397	1.88
661.155	3.88
661.913	1.88
662.671	2.88
663.429	1.88
664.187	1.88
664.945	2.88
665.703	1.88
666.46	1.88
667.218	3.88
667.976	3.88
668.733	0.88
669.49	0.88
670.248	1.88
671.005	1.88
671.762	2.88
672.519	2.88
673.276	3.88
674.033	3.88
674.79	1.88
675.547	2.88
676.304	0.88
677.06	3.88
677.817	1.88
678.574	1.88
679.33	1.88
680.086	0.88
680.843	1.88
681.599	0.88
682.355	2.88
683.111	-0.12
683.867	3.88
684.623	3.88
685.379	0.88
686.135	1.88
686.89	0.88
687.646	2.88
688.402	0.88
689.157	1.88
689.912	1.88
690.668	1.88
691.423	2.88
692.178	1.88
692.933	2.88
693.688	1.88
694.443	4.88
695.198	2.88
695.953	1.88
696.708	1.88
697.462	-0.12
698.217	-0.12
698.972	1.88
699.726	-0.12
700.48	1.88
701.235	-0.12
701.989	2.88
702.743	0.88
703.497	3.88
704.251	0.88
705.005	0.88
705.759	1.88
706.513	1.88
707.266	1.88
708.02	0.88
708.774	2.88
709.527	1.88
710.28	-0.12
711.034	0.88
711.787	1.88
712.54	2.88
713.293	0.88
714.046	1.88
714.799	0.88
715.552	0.88
716.305	2.88
717.058	-0.12
717.81	2.88
718.563	0.88
719.315	2.88
720.068	1.88
720.82	1.88
721.573	0.88
722.325	-0.12
723.077	1.88
723.829	0.88
724.581	1.88
725.333	1.88
726.085	1.88
726.836	1.88
727.588	1.88
728.34	2.88
729.091	1.88
729.843	2.88
730.594	0.88
731.346	-1.12
732.097	2.88
732.848	2.88
733.599	1.88
734.35	2.88
735.101	1.88
735.852	-0.12
736.603	-0.12
737.354	-0.12
738.104	0.88
738.855	2.88
739.605	2.88
740.356	2.88
741.106	0.88
741.856	0.88
742.607	2.88
743.357	1.88
744.107	2.88
744.857	2.88
745.607	2.88
746.357	1.88
747.106	-0.12
747.856	3.88
748.606	1.88
749.355	2.88
750.105	0.88
750.854	1.88
751.603	2.88
752.353	1.88
753.102	6.88
753.851	1.88
754.6	3.88
755.349	1.88
756.098	1.88
756.847	3.88
757.595	0.88
758.344	2.88
759.093	0.88
759.841	1.88
760.589	0.88
761.338	2.88
762.086	1.88
762.834	1.88
763.582	2.88
764.331	1.88
765.079	1.88
765.826	2.88
766.574	3.88
767.322	4.88
768.07	3.88
768.817	3.88
769.565	1.88
770.312	5.88
771.06	4.88
771.807	3.88
772.554	2.88
773.302	3.88
774.049	3.88
774.796	5.88
775.543	2.88
776.29	5.88
777.036	4.88
777.783	3.88
778.53	2.88
779.276	6.88
780.023	3.88
780.769	1.88
781.516	5.88
782.262	2.88
783.008	4.88
783.754	4.88
784.5	4.88
785.246	4.88
785.992	1.88
786.738	7.88
787.484	2.88
788.23	4.88
788.975	3.88
789.721	1.88
790.466	5.88
791.212	6.88
791.957	3.88
792.702	5.88
793.447	5.88
794.193	2.88
794.938	1.88
795.683	3.88
796.427	4.88
797.172	4.88
797.917	1.88
798.662	3.88
799.406	3.88
800.151	3.88
800.895	4.88
801.64	3.88
802.384	4.88
803.128	4.88
803.872	3.88
804.616	3.88
805.36	3.88
806.104	3.88
806.848	0.88
807.592	3.88
808.336	1.88
809.079	0.88
809.823	4.88
810.566	2.88
811.31	1.88
812.053	3.88
812.796	5.88
813.539	2.88
814.283	1.88
815.026	5.88
815.769	0.88
816.511	4.88
817.254	2.88
817.997	4.88
818.74	1.88
819.482	2.88
820.225	0.88
820.967	4.88
821.71	3.88
822.452	2.88
823.194	2.88
823.936	-0.12
824.678	2.88
825.42	1.88
826.162	2.88
826.904	3.88
827.646	0.88
828.388	0.88
829.129	2.88
829.871	3.88
830.612	3.88
831.354	2.88
832.095	1.88
832.836	2.88
833.577	1.88
834.319	1.88
835.06	2.88
835.801	1.88
836.542	0.88
837.282	2.88
838.023	1.88
838.764	1.88
839.504	-0.12
840.245	2.88
840.985	4.88
841.726	1.88
842.466	1.88
843.206	0.88
843.946	-0.12
844.687	2.88
845.427	2.88
846.166	-0.12
846.906	0.88
847.646	0.88
848.386	1.88
849.125	2.88
849.865	-0.12
850.605	0.88
851.344	1.88
852.083	1.88
852.823	1.88
853.562	-0.12
854.301	1.88
855.04	0.88
855.779	0.88
856.518	-0.12
857.257	-0.12
857.995	1.88
858.734	-1.12
859.473	0.88
860.211	0.88
860.95	0.88
861.688	0.88
862.426	1.88
863.165	-0.12
863.903	-0.12
864.641	1.88
865.379	1.88
866.117	0.88
866.855	0.88
867.593	-0.12
868.33	1.88
869.068	0.88
869.806	-0.12
870.543	2.88
871.28	0.88
872.018	-0.12
872.755	0.88
873.492	-0.12
874.229	-0.12
874.967	0.88
875.703	1.88
876.44	-0.12
877.177	2.88
877.914	-1.12
878.651	-0.12
879.387	-2.12
880.124	-0.12
880.86	-0.12
881.597	1.88
882.333	-0.12
883.069	-0.12
883.806	-0.12
884.542	-1.12
885.278	0.88
886.014	0.88
886.749	-2.12
887.485	0.88
888.221	0.88
888.957	0.88
889.692	1.88
890.428	0.88
891.163	-2.12
891.899	-0.12
892.634	-0.12
893.369	-0.12
894.104	-0.12
894.839	1.88
895.574	-1.12
896.309	-1.12
897.044	0.88
897.779	0.88
898.514	-2.12
899.248	-2.12
899.983	-1.12
900.717	-0.12
901.452	-1.12
902.186	0.88
902.92	0.88
903.654	0.88
904.389	-1.12
905.123	-1.12
905.857	-1.12
906.59	1.88
907.324	1.88
908.058	-0.12
908.792	-0.12
909.525	0.88
910.259	-0.12
910.992	0.88
911.726	0.88
912.459	-0.12
913.192	-1.12
913.925	0.88
914.658	1.88
915.391	-0.12
916.124	-0.12
916.857	-1.12
917.59	-0.12
918.323	-1.12
919.055	-0.12
919.788	-1.12
920.521	-2.12
921.253	-0.12
921.985	0.88
922.718	-2.12
923.45	-0.12
924.182	-1.12
924.914	-0.12
925.646	-1.12
926.378	0.88
927.11	-1.12
927.841	0.88
928.573	0.88
929.305	-1.12
930.036	0.88
930.768	0.88
931.499	-0.12
932.23	1.88
932.962	-1.12
933.693	0.88
934.424	-2.12
935.155	1.88
935.886	-2.12
936.617	1.88
937.348	-1.12
938.078	-1.12
938.809	0.88
939.54	-2.12
940.27	-0.12
941.001	-0.12
941.731	-0.12
942.461	0.88
943.191	-0.12
943.922	0.88
944.652	0.88
945.382	-0.12
946.112	-0.12
946.841	0.88
947.571	0.88
948.301	0.88
949.031	-0.12
949.76	0.88
950.49	-2.12
951.219	-0.12
951.948	0.88
952.678	-0.12
953.407	-0.12
954.136	-1.12
954.865	-2.12
955.594	-0.12
956.323	-0.12
957.052	1.88
957.78	0.88
958.509	-2.12
959.238	-0.12
959.966	-0.12
960.695	-0.12
961.423	-0.12
962.151	-0.12
962.88	0.88
963.608	0.88
964.336	-1.12
965.064	-0.12
965.792	0.88
966.52	-0.12
967.247	-2.12
967.975	0.88
968.703	-0.12
969.43	0.88
970.158	0.88
970.885	-2.12
971.613	-1.12
972.34	1.88
973.067	-1.12
973.794	-0.12
974.521	-0.12
975.248	-1.12
975.975	1.88
976.702	1.88
977.429	0.88
978.156	1.88
978.882	-1.12
979.609	0.88
980.335	-2.12
981.062	-0.12
981.788	0.88
982.514	-0.12
983.24	1.88
983.967	-1.12
984.693	1.88
985.419	-1.12
986.144	-0.12
986.87	-2.12
987.596	-1.12
988.322	-0.12
989.047	-0.12
989.773	-0.12
990.498	-0.12
991.224	-0.12
991.949	-0.12
992.674	-0.12
993.399	0.88
994.124	-1.12
994.849	-2.12
995.574	1.88
996.299	-0.12
997.024	1.88
997.749	-0.12
998.473	-0.12
999.198	0.88
999.922	1.88
1000.647	0.88
1001.371	1.88
1002.095	-0.12
1002.82	-1.12
1003.544	0.88
1004.268	-2.12
1004.992	0.88
1005.716	-3.12
1006.439	-0.12
1007.163	0.88
1007.887	-0.12
1008.611	-0.12
1009.334	0.88
1010.058	-1.12
1010.781	1.88
1011.504	0.88
1012.228	-1.12
1012.951	0.88
1013.674	0.88
1014.397	-1.12
1015.12	-2.12
