节点500_145_QEPB04081__688__11-39-51-824.txt的数据

Date: Wed Nov 12 11:39:51 CST 2025
User: PC
Spectrometer: QEPB0408
触发模式: 0
积分时间 (秒): 1.000000E-2
Scans to average: 1
启用暗噪声校正: true
启用非线性校正: false
滑动平均宽度: 0
X轴模式: Wavelengths
Number of Pixels in Spectrum: 1044
>>>>>Begin Spectral Data<<<<<
220.843	-0.5
221.644	-1.5
222.444	1.5
223.244	-1.5
224.045	1.5
224.845	0.5
225.645	-0.5
226.445	1.5
227.245	-0.5
228.045	1.5
228.845	0.5
229.645	0.5
230.444	-1.5
231.244	0.5
232.043	2.5
232.843	1.5
233.642	1.5
234.442	-0.5
235.241	2.5
236.04	0.5
236.839	1.5
237.638	1.5
238.437	-0.5
239.236	0.5
240.035	2.5
240.833	3.5
241.632	1.5
242.43	2.5
243.229	0.5
244.027	3.5
244.826	2.5
245.624	1.5
246.422	3.5
247.22	1.5
248.018	1.5
248.816	1.5
249.614	1.5
250.412	4.5
251.21	3.5
252.007	2.5
252.805	1.5
253.602	0.5
254.4	2.5
255.197	3.5
255.994	2.5
256.791	4.5
257.589	3.5
258.386	2.5
259.183	2.5
259.979	4.5
260.776	3.5
261.573	3.5
262.37	3.5
263.166	3.5
263.963	3.5
264.759	7.5
265.556	4.5
266.352	4.5
267.148	6.5
267.944	4.5
268.74	5.5
269.536	5.5
270.332	6.5
271.128	6.5
271.924	5.5
272.719	6.5
273.515	9.5
274.311	7.5
275.106	8.5
275.901	8.5
276.697	8.5
277.492	6.5
278.287	10.5
279.082	9.5
279.877	10.5
280.672	10.5
281.467	6.5
282.262	9.5
283.056	6.5
283.851	9.5
284.646	8.5
285.44	10.5
286.234	11.5
287.029	4.5
287.823	10.5
288.617	8.5
289.411	10.5
290.205	12.5
290.999	9.5
291.793	9.5
292.587	8.5
293.381	11.5
294.174	8.5
294.968	10.5
295.761	9.5
296.555	9.5
297.348	7.5
298.141	9.5
298.935	9.5
299.728	9.5
300.521	8.5
301.314	8.5
302.107	8.5
302.899	8.5
303.692	8.5
304.485	8.5
305.277	6.5
306.07	8.5
306.862	6.5
307.655	7.5
308.447	6.5
309.239	5.5
310.031	7.5
310.823	7.5
311.615	5.5
312.407	5.5
313.199	6.5
313.991	5.5
314.783	7.5
315.574	6.5
316.366	4.5
317.157	5.5
317.949	6.5
318.74	2.5
319.531	3.5
320.322	4.5
321.113	4.5
321.904	5.5
322.695	5.5
323.486	4.5
324.277	5.5
325.068	4.5
325.858	2.5
326.649	6.5
327.439	4.5
328.23	3.5
329.02	3.5
329.81	4.5
330.6	7.5
331.391	3.5
332.181	4.5
332.971	3.5
333.76	4.5
334.55	2.5
335.34	3.5
336.13	6.5
336.919	4.5
337.709	3.5
338.498	3.5
339.287	3.5
340.077	4.5
340.866	3.5
341.655	4.5
342.444	1.5
343.233	3.5
344.022	1.5
344.811	4.5
345.6	3.5
346.388	3.5
347.177	5.5
347.965	3.5
348.754	2.5
349.542	2.5
350.33	0.5
351.119	3.5
351.907	4.5
352.695	2.5
353.483	1.5
354.271	3.5
355.059	2.5
355.846	2.5
356.634	2.5
357.422	2.5
358.209	3.5
358.997	1.5
359.784	5.5
360.571	4.5
361.359	2.5
362.146	2.5
362.933	3.5
363.72	3.5
364.507	3.5
365.294	0.5
366.081	2.5
366.867	2.5
367.654	1.5
368.44	1.5
369.227	2.5
370.013	2.5
370.8	1.5
371.586	3.5
372.372	3.5
373.158	3.5
373.944	2.5
374.73	2.5
375.516	2.5
376.302	2.5
377.088	2.5
377.873	0.5
378.659	3.5
379.445	1.5
380.23	2.5
381.015	3.5
381.801	3.5
382.586	3.5
383.371	3.5
384.156	3.5
384.941	3.5
385.726	3.5
386.511	1.5
387.296	2.5
388.08	2.5
388.865	2.5
389.649	2.5
390.434	3.5
391.218	3.5
392.003	1.5
392.787	3.5
393.571	2.5
394.355	2.5
395.139	2.5
395.923	1.5
396.707	5.5
397.491	3.5
398.274	2.5
399.058	2.5
399.842	4.5
400.625	3.5
401.408	4.5
402.192	3.5
402.975	2.5
403.758	5.5
404.541	1.5
405.324	4.5
406.107	5.5
406.89	3.5
407.673	2.5
408.456	4.5
409.238	3.5
410.021	3.5
410.803	3.5
411.586	5.5
412.368	4.5
413.151	2.5
413.933	5.5
414.715	5.5
415.497	6.5
416.279	5.5
417.061	6.5
417.843	2.5
418.624	5.5
419.406	7.5
420.188	5.5
420.969	4.5
421.751	6.5
422.532	7.5
423.313	5.5
424.095	6.5
424.876	7.5
425.657	5.5
426.438	6.5
427.219	5.5
428	7.5
428.78	7.5
429.561	7.5
430.342	6.5
431.122	7.5
431.903	6.5
432.683	7.5
433.464	7.5
434.244	8.5
435.024	6.5
435.804	9.5
436.584	9.5
437.364	12.5
438.144	10.5
438.924	12.5
439.704	12.5
440.483	14.5
441.263	13.5
442.042	11.5
442.822	15.5
443.601	13.5
444.38	14.5
445.16	16.5
445.939	15.5
446.718	19.5
447.497	19.5
448.276	22.5
449.054	25.5
449.833	25.5
450.612	28.5
451.391	30.5
452.169	31.5
452.948	32.5
453.726	37.5
454.504	44.5
455.282	48.5
456.061	50.5
456.839	55.5
457.617	62.5
458.395	69.5
459.172	76.5
459.95	85.5
460.728	94.5
461.506	100.5
462.283	120.5
463.061	124.5
463.838	140.5
464.615	160.5
465.393	177.5
466.17	199.5
466.947	214.5
467.724	241.5
468.501	265.5
469.278	300.5
470.055	326.5
470.831	362.5
471.608	406.5
472.385	444.5
473.161	498.5
473.938	538.5
474.714	601.5
475.49	668.5
476.266	727.5
477.043	803.5
477.819	880.5
478.595	966.5
479.371	1054.5
480.146	1158.5
480.922	1278.5
481.698	1399.5
482.473	1532.5
483.249	1665.5
484.024	1806.5
484.8	1983.5
485.575	2173.5
486.35	2366.5
487.126	2605.5
487.901	2864.5
488.676	3078.5
489.451	3385.5
490.225	3717.5
491	3993.5
491.775	4396.5
492.55	4781.5
493.324	5168.5
494.099	5653.5
494.873	6118.5
495.647	6622.5
496.422	7181.5
497.196	7737.5
497.97	8313.5
498.744	8983.5
499.518	9598.5
500.292	10216.5
501.066	10840.5
501.839	11464.5
502.613	12051.5
503.387	12603.5
504.16	13195.5
504.934	13646.5
505.707	14099.5
506.48	14409.5
507.253	14677.5
508.027	14935.5
508.8	15022.5
509.573	15018.5
510.346	14914.5
511.118	14842.5
511.891	14535.5
512.664	14280.5
513.437	13902.5
514.209	13548.5
514.982	13104.5
515.754	12587.5
516.526	12167.5
517.298	11686.5
518.071	11191.5
518.843	10758.5
519.615	10290.5
520.387	9861.5
521.159	9479.5
521.93	9091.5
522.702	8710.5
523.474	8419.5
524.245	8083.5
525.017	7754.5
525.788	7431.5
526.56	7130.5
527.331	6843.5
528.102	6589.5
528.873	6270.5
529.644	6074.5
530.415	5769.5
531.186	5510.5
531.957	5272.5
532.728	5017.5
533.498	4789.5
534.269	4533.5
535.039	4314.5
535.81	4050.5
536.58	3850.5
537.351	3643.5
538.121	3420.5
538.891	3269.5
539.661	3084.5
540.431	2910.5
541.201	2758.5
541.971	2605.5
542.741	2472.5
543.51	2349.5
544.28	2224.5
545.05	2112.5
545.819	2007.5
546.588	1909.5
547.358	1817.5
548.127	1740.5
548.896	1642.5
549.665	1554.5
550.434	1497.5
551.203	1409.5
551.972	1338.5
552.741	1267.5
553.51	1205.5
554.278	1129.5
555.047	1078.5
555.815	1015.5
556.584	968.5
557.352	906.5
558.121	845.5
558.889	823.5
559.657	772.5
560.425	718.5
561.193	684.5
561.961	650.5
562.729	611.5
563.496	575.5
564.264	545.5
565.032	513.5
565.799	479.5
566.567	460.5
567.334	431.5
568.101	403.5
568.869	384.5
569.636	362.5
570.403	345.5
571.17	319.5
571.937	312.5
572.704	285.5
573.471	272.5
574.237	260.5
575.004	238.5
575.771	222.5
576.537	216.5
577.303	204.5
578.07	186.5
578.836	181.5
579.602	167.5
580.368	159.5
581.134	148.5
581.9	145.5
582.666	137.5
583.432	130.5
584.198	123.5
584.964	116.5
585.729	105.5
586.495	100.5
587.26	94.5
588.025	90.5
588.791	85.5
589.556	85.5
590.321	77.5
591.086	69.5
591.851	69.5
592.616	63.5
593.381	59.5
594.146	56.5
594.911	57.5
595.675	52.5
596.44	50.5
597.204	49.5
597.969	45.5
598.733	42.5
599.497	38.5
600.261	39.5
601.025	36.5
601.79	35.5
602.553	34.5
603.317	35.5
604.081	34.5
604.845	29.5
605.609	29.5
606.372	27.5
607.136	27.5
607.899	24.5
608.662	22.5
609.426	21.5
610.189	20.5
610.952	22.5
611.715	18.5
612.478	19.5
613.241	20.5
614.004	18.5
614.767	18.5
615.529	17.5
616.292	15.5
617.055	15.5
617.817	13.5
618.579	16.5
619.342	13.5
620.104	11.5
620.866	13.5
621.628	12.5
622.39	13.5
623.152	12.5
623.914	12.5
624.676	11.5
625.438	13.5
626.199	11.5
626.961	8.5
627.722	8.5
628.484	7.5
629.245	6.5
630.006	9.5
630.768	9.5
631.529	7.5
632.29	8.5
633.051	8.5
633.812	6.5
634.573	7.5
635.333	6.5
636.094	8.5
636.855	4.5
637.615	7.5
638.376	6.5
639.136	7.5
639.896	4.5
640.657	5.5
641.417	4.5
642.177	5.5
642.937	6.5
643.697	3.5
644.457	6.5
645.216	4.5
645.976	4.5
646.736	3.5
647.495	4.5
648.255	4.5
649.014	2.5
649.774	4.5
650.533	2.5
651.292	5.5
652.051	5.5
652.81	3.5
653.569	2.5
654.328	2.5
655.087	5.5
655.846	3.5
656.604	3.5
657.363	4.5
658.121	4.5
658.88	5.5
659.638	3.5
660.397	1.5
661.155	3.5
661.913	3.5
662.671	1.5
663.429	3.5
664.187	2.5
664.945	2.5
665.703	2.5
666.46	3.5
667.218	2.5
667.976	4.5
668.733	2.5
669.49	2.5
670.248	2.5
671.005	1.5
671.762	2.5
672.519	2.5
673.276	3.5
674.033	4.5
674.79	3.5
675.547	2.5
676.304	4.5
677.06	3.5
677.817	3.5
678.574	3.5
679.33	4.5
680.086	3.5
680.843	1.5
681.599	2.5
682.355	1.5
683.111	2.5
683.867	4.5
684.623	2.5
685.379	2.5
686.135	2.5
686.89	3.5
687.646	2.5
688.402	3.5
689.157	2.5
689.912	0.5
690.668	2.5
691.423	-0.5
692.178	1.5
692.933	2.5
693.688	1.5
694.443	1.5
695.198	1.5
695.953	3.5
696.708	3.5
697.462	2.5
698.217	2.5
698.972	1.5
699.726	3.5
700.48	2.5
701.235	3.5
701.989	1.5
702.743	0.5
703.497	2.5
704.251	3.5
705.005	1.5
705.759	0.5
706.513	2.5
707.266	3.5
708.02	-0.5
708.774	3.5
709.527	2.5
710.28	-0.5
711.034	1.5
711.787	1.5
712.54	2.5
713.293	1.5
714.046	0.5
714.799	1.5
715.552	1.5
716.305	0.5
717.058	2.5
717.81	2.5
718.563	2.5
719.315	3.5
720.068	2.5
720.82	1.5
721.573	2.5
722.325	2.5
723.077	2.5
723.829	5.5
724.581	2.5
725.333	1.5
726.085	2.5
726.836	2.5
727.588	0.5
728.34	3.5
729.091	0.5
729.843	2.5
730.594	0.5
731.346	2.5
732.097	2.5
732.848	1.5
733.599	2.5
734.35	1.5
735.101	3.5
735.852	2.5
736.603	2.5
737.354	2.5
738.104	0.5
738.855	1.5
739.605	1.5
740.356	1.5
741.106	-0.5
741.856	4.5
742.607	2.5
743.357	1.5
744.107	2.5
744.857	1.5
745.607	3.5
746.357	3.5
747.106	2.5
747.856	1.5
748.606	0.5
749.355	1.5
750.105	3.5
750.854	2.5
751.603	2.5
752.353	2.5
753.102	2.5
753.851	2.5
754.6	3.5
755.349	1.5
756.098	1.5
756.847	1.5
757.595	2.5
758.344	1.5
759.093	1.5
759.841	2.5
760.589	0.5
761.338	3.5
762.086	2.5
762.834	5.5
763.582	1.5
764.331	3.5
765.079	3.5
765.826	3.5
766.574	3.5
767.322	3.5
768.07	5.5
768.817	3.5
769.565	5.5
770.312	4.5
771.06	4.5
771.807	2.5
772.554	3.5
773.302	6.5
774.049	2.5
774.796	3.5
775.543	2.5
776.29	5.5
777.036	4.5
777.783	3.5
778.53	4.5
779.276	4.5
780.023	3.5
780.769	4.5
781.516	2.5
782.262	6.5
783.008	4.5
783.754	2.5
784.5	4.5
785.246	3.5
785.992	4.5
786.738	3.5
787.484	5.5
788.23	5.5
788.975	6.5
789.721	2.5
790.466	4.5
791.212	5.5
791.957	3.5
792.702	4.5
793.447	2.5
794.193	4.5
794.938	5.5
795.683	6.5
796.427	5.5
797.172	4.5
797.917	4.5
798.662	4.5
799.406	3.5
800.151	4.5
800.895	5.5
801.64	4.5
802.384	3.5
803.128	7.5
803.872	3.5
804.616	4.5
805.36	2.5
806.104	3.5
806.848	3.5
807.592	3.5
808.336	4.5
809.079	3.5
809.823	4.5
810.566	2.5
811.31	1.5
812.053	6.5
812.796	2.5
813.539	5.5
814.283	5.5
815.026	3.5
815.769	3.5
816.511	3.5
817.254	4.5
817.997	3.5
818.74	4.5
819.482	5.5
820.225	3.5
820.967	3.5
821.71	1.5
822.452	3.5
823.194	2.5
823.936	3.5
824.678	1.5
825.42	2.5
826.162	4.5
826.904	1.5
827.646	2.5
828.388	1.5
829.129	2.5
829.871	2.5
830.612	3.5
831.354	3.5
832.095	1.5
832.836	3.5
833.577	1.5
834.319	0.5
835.06	2.5
835.801	3.5
836.542	2.5
837.282	1.5
838.023	3.5
838.764	1.5
839.504	0.5
840.245	1.5
840.985	2.5
841.726	2.5
842.466	2.5
843.206	3.5
843.946	3.5
844.687	3.5
845.427	1.5
846.166	2.5
846.906	3.5
847.646	-0.5
848.386	3.5
849.125	4.5
849.865	3.5
850.605	2.5
851.344	2.5
852.083	1.5
852.823	1.5
853.562	1.5
854.301	3.5
855.04	1.5
855.779	0.5
856.518	2.5
857.257	2.5
857.995	1.5
858.734	4.5
859.473	3.5
860.211	1.5
860.95	2.5
861.688	1.5
862.426	2.5
863.165	1.5
863.903	0.5
864.641	-0.5
865.379	2.5
866.117	1.5
866.855	-0.5
867.593	0.5
868.33	0.5
869.068	2.5
869.806	3.5
870.543	0.5
871.28	2.5
872.018	-0.5
872.755	2.5
873.492	1.5
874.229	0.5
874.967	1.5
875.703	0.5
876.44	2.5
877.177	-1.5
877.914	-0.5
878.651	-0.5
879.387	1.5
880.124	0.5
880.86	0.5
881.597	-0.5
882.333	0.5
883.069	1.5
883.806	-0.5
884.542	2.5
885.278	1.5
886.014	0.5
886.749	0.5
887.485	2.5
888.221	1.5
888.957	1.5
889.692	1.5
890.428	1.5
891.163	1.5
891.899	2.5
892.634	0.5
893.369	0.5
894.104	-2.5
894.839	2.5
895.574	1.5
896.309	1.5
897.044	1.5
897.779	-1.5
898.514	2.5
899.248	-0.5
899.983	0.5
900.717	2.5
901.452	1.5
902.186	0.5
902.92	2.5
903.654	0.5
904.389	1.5
905.123	-0.5
905.857	1.5
906.59	1.5
907.324	1.5
908.058	-0.5
908.792	1.5
909.525	-0.5
910.259	-1.5
910.992	1.5
911.726	-0.5
912.459	2.5
913.192	0.5
913.925	-1.5
914.658	-0.5
915.391	0.5
916.124	1.5
916.857	-1.5
917.59	0.5
918.323	1.5
919.055	0.5
919.788	-0.5
920.521	1.5
921.253	1.5
921.985	1.5
922.718	2.5
923.45	-0.5
924.182	1.5
924.914	0.5
925.646	0.5
926.378	-1.5
927.11	1.5
927.841	-0.5
928.573	0.5
929.305	2.5
930.036	-1.5
930.768	-0.5
931.499	2.5
932.23	1.5
932.962	2.5
933.693	1.5
934.424	-0.5
935.155	1.5
935.886	1.5
936.617	1.5
937.348	-1.5
938.078	0.5
938.809	-0.5
939.54	0.5
940.27	2.5
941.001	-0.5
941.731	0.5
942.461	0.5
943.191	0.5
943.922	-1.5
944.652	2.5
945.382	1.5
946.112	-1.5
946.841	-1.5
947.571	-1.5
948.301	-1.5
949.031	-0.5
949.76	0.5
950.49	1.5
951.219	1.5
951.948	-0.5
952.678	0.5
953.407	1.5
954.136	-0.5
954.865	2.5
955.594	0.5
956.323	-1.5
957.052	1.5
957.78	-1.5
958.509	-0.5
959.238	-1.5
959.966	0.5
960.695	1.5
961.423	-1.5
962.151	1.5
962.88	0.5
963.608	-1.5
964.336	-1.5
965.064	1.5
965.792	1.5
966.52	-0.5
967.247	1.5
967.975	-1.5
968.703	1.5
969.43	0.5
970.158	2.5
970.885	2.5
971.613	-1.5
972.34	-0.5
973.067	1.5
973.794	0.5
974.521	-0.5
975.248	1.5
975.975	-0.5
976.702	0.5
977.429	1.5
978.156	1.5
978.882	0.5
979.609	1.5
980.335	1.5
981.062	0.5
981.788	0.5
982.514	-0.5
983.24	-0.5
983.967	1.5
984.693	-1.5
985.419	1.5
986.144	0.5
986.87	-0.5
987.596	1.5
988.322	0.5
989.047	1.5
989.773	0.5
990.498	-0.5
991.224	-1.5
991.949	0.5
992.674	2.5
993.399	-0.5
994.124	1.5
994.849	0.5
995.574	0.5
996.299	-0.5
997.024	-1.5
997.749	-0.5
998.473	-1.5
999.198	1.5
999.922	0.5
1000.647	-0.5
1001.371	4.5
1002.095	-0.5
1002.82	-1.5
1003.544	0.5
1004.268	1.5
1004.992	-2.5
1005.716	-2.5
1006.439	-0.5
1007.163	-0.5
1007.887	0.5
1008.611	1.5
1009.334	-0.5
1010.058	2.5
1010.781	-1.5
1011.504	-1.5
1012.228	-1.5
1012.951	-2.5
1013.674	-0.5
1014.397	-0.5
1015.12	0.5
