节点500_145_QEPB04081__446__11-36-04-573.txt的数据

Date: Wed Nov 12 11:36:04 CST 2025
User: PC
Spectrometer: QEPB0408
触发模式: 0
积分时间 (秒): 1.000000E-2
Scans to average: 1
启用暗噪声校正: true
启用非线性校正: false
滑动平均宽度: 0
X轴模式: Wavelengths
Number of Pixels in Spectrum: 1044
>>>>>Begin Spectral Data<<<<<
220.843	-0.75
221.644	-0.75
222.444	-0.75
223.244	1.25
224.045	2.25
224.845	-0.75
225.645	-1.75
226.445	-0.75
227.245	0.25
228.045	0.25
228.845	1.25
229.645	2.25
230.444	0.25
231.244	1.25
232.043	-1.75
232.843	-0.75
233.642	1.25
234.442	2.25
235.241	0.25
236.04	1.25
236.839	-1.75
237.638	-1.75
238.437	1.25
239.236	1.25
240.035	0.25
240.833	2.25
241.632	0.25
242.43	0.25
243.229	1.25
244.027	3.25
244.826	1.25
245.624	3.25
246.422	3.25
247.22	2.25
248.018	2.25
248.816	0.25
249.614	2.25
250.412	1.25
251.21	2.25
252.007	4.25
252.805	2.25
253.602	2.25
254.4	4.25
255.197	5.25
255.994	4.25
256.791	4.25
257.589	2.25
258.386	3.25
259.183	5.25
259.979	5.25
260.776	6.25
261.573	4.25
262.37	3.25
263.166	1.25
263.963	4.25
264.759	2.25
265.556	2.25
266.352	6.25
267.148	5.25
267.944	4.25
268.74	8.25
269.536	7.25
270.332	9.25
271.128	6.25
271.924	8.25
272.719	9.25
273.515	9.25
274.311	7.25
275.106	7.25
275.901	5.25
276.697	8.25
277.492	8.25
278.287	9.25
279.082	9.25
279.877	10.25
280.672	8.25
281.467	10.25
282.262	9.25
283.056	12.25
283.851	8.25
284.646	7.25
285.44	12.25
286.234	9.25
287.029	9.25
287.823	10.25
288.617	11.25
289.411	10.25
290.205	8.25
290.999	13.25
291.793	9.25
292.587	12.25
293.381	10.25
294.174	10.25
294.968	11.25
295.761	12.25
296.555	10.25
297.348	8.25
298.141	12.25
298.935	9.25
299.728	7.25
300.521	7.25
301.314	9.25
302.107	7.25
302.899	9.25
303.692	10.25
304.485	10.25
305.277	9.25
306.07	6.25
306.862	8.25
307.655	5.25
308.447	7.25
309.239	7.25
310.031	6.25
310.823	7.25
311.615	7.25
312.407	5.25
313.199	6.25
313.991	3.25
314.783	7.25
315.574	4.25
316.366	4.25
317.157	6.25
317.949	5.25
318.74	6.25
319.531	4.25
320.322	7.25
321.113	4.25
321.904	5.25
322.695	6.25
323.486	4.25
324.277	4.25
325.068	6.25
325.858	4.25
326.649	3.25
327.439	5.25
328.23	4.25
329.02	3.25
329.81	3.25
330.6	1.25
331.391	4.25
332.181	5.25
332.971	2.25
333.76	2.25
334.55	2.25
335.34	5.25
336.13	2.25
336.919	6.25
337.709	1.25
338.498	2.25
339.287	6.25
340.077	3.25
340.866	4.25
341.655	6.25
342.444	2.25
343.233	5.25
344.022	5.25
344.811	1.25
345.6	3.25
346.388	3.25
347.177	1.25
347.965	4.25
348.754	2.25
349.542	3.25
350.33	4.25
351.119	3.25
351.907	5.25
352.695	2.25
353.483	2.25
354.271	2.25
355.059	0.25
355.846	1.25
356.634	1.25
357.422	2.25
358.209	3.25
358.997	3.25
359.784	5.25
360.571	2.25
361.359	3.25
362.146	2.25
362.933	2.25
363.72	2.25
364.507	3.25
365.294	2.25
366.081	0.25
366.867	5.25
367.654	1.25
368.44	4.25
369.227	2.25
370.013	5.25
370.8	0.25
371.586	2.25
372.372	1.25
373.158	1.25
373.944	1.25
374.73	2.25
375.516	2.25
376.302	1.25
377.088	1.25
377.873	3.25
378.659	1.25
379.445	1.25
380.23	1.25
381.015	4.25
381.801	4.25
382.586	-0.75
383.371	2.25
384.156	4.25
384.941	2.25
385.726	5.25
386.511	5.25
387.296	3.25
388.08	1.25
388.865	2.25
389.649	0.25
390.434	4.25
391.218	2.25
392.003	2.25
392.787	4.25
393.571	2.25
394.355	2.25
395.139	4.25
395.923	4.25
396.707	4.25
397.491	2.25
398.274	3.25
399.058	3.25
399.842	4.25
400.625	2.25
401.408	4.25
402.192	1.25
402.975	2.25
403.758	6.25
404.541	1.25
405.324	1.25
406.107	2.25
406.89	5.25
407.673	5.25
408.456	4.25
409.238	4.25
410.021	5.25
410.803	5.25
411.586	3.25
412.368	5.25
413.151	4.25
413.933	5.25
414.715	4.25
415.497	4.25
416.279	4.25
417.061	4.25
417.843	4.25
418.624	4.25
419.406	4.25
420.188	6.25
420.969	5.25
421.751	4.25
422.532	5.25
423.313	6.25
424.095	7.25
424.876	6.25
425.657	4.25
426.438	7.25
427.219	7.25
428	5.25
428.78	5.25
429.561	6.25
430.342	5.25
431.122	6.25
431.903	4.25
432.683	8.25
433.464	7.25
434.244	9.25
435.024	10.25
435.804	9.25
436.584	8.25
437.364	10.25
438.144	10.25
438.924	10.25
439.704	11.25
440.483	15.25
441.263	10.25
442.042	14.25
442.822	10.25
443.601	14.25
444.38	15.25
445.16	17.25
445.939	17.25
446.718	19.25
447.497	19.25
448.276	21.25
449.054	22.25
449.833	24.25
450.612	25.25
451.391	25.25
452.169	29.25
452.948	34.25
453.726	35.25
454.504	41.25
455.282	42.25
456.061	49.25
456.839	52.25
457.617	57.25
458.395	65.25
459.172	72.25
459.95	77.25
460.728	87.25
461.506	97.25
462.283	108.25
463.061	122.25
463.838	134.25
464.615	146.25
465.393	165.25
466.17	182.25
466.947	207.25
467.724	225.25
468.501	249.25
469.278	282.25
470.055	309.25
470.831	339.25
471.608	377.25
472.385	428.25
473.161	478.25
473.938	522.25
474.714	582.25
475.49	642.25
476.266	717.25
477.043	784.25
477.819	870.25
478.595	952.25
479.371	1043.25
480.146	1161.25
480.922	1283.25
481.698	1391.25
482.473	1543.25
483.249	1714.25
484.024	1868.25
484.8	2024.25
485.575	2251.25
486.35	2466.25
487.126	2716.25
487.901	2965.25
488.676	3269.25
489.451	3595.25
490.225	3904.25
491	4305.25
491.775	4703.25
492.55	5120.25
493.324	5619.25
494.099	6116.25
494.873	6656.25
495.647	7246.25
496.422	7839.25
497.196	8512.25
497.97	9158.25
498.744	9837.25
499.518	10580.25
500.292	11263.25
501.066	11956.25
501.839	12634.25
502.613	13233.25
503.387	13880.25
504.16	14425.25
504.934	14983.25
505.707	15282.25
506.48	15634.25
507.253	15776.25
508.027	15940.25
508.8	15968.25
509.573	15886.25
510.346	15725.25
511.118	15497.25
511.891	15140.25
512.664	14714.25
513.437	14314.25
514.209	13838.25
514.982	13251.25
515.754	12769.25
516.526	12205.25
517.298	11713.25
518.071	11225.25
518.843	10723.25
519.615	10266.25
520.387	9887.25
521.159	9477.25
521.93	9104.25
522.702	8733.25
523.474	8381.25
524.245	8047.25
525.017	7737.25
525.788	7416.25
526.56	7139.25
527.331	6849.25
528.102	6580.25
528.873	6233.25
529.644	5983.25
530.415	5714.25
531.186	5438.25
531.957	5192.25
532.728	4947.25
533.498	4662.25
534.269	4452.25
535.039	4214.25
535.81	3952.25
536.58	3755.25
537.351	3549.25
538.121	3362.25
538.891	3160.25
539.661	3001.25
540.431	2819.25
541.201	2668.25
541.971	2548.25
542.741	2383.25
543.51	2288.25
544.28	2163.25
545.05	2062.25
545.819	1954.25
546.588	1858.25
547.358	1774.25
548.127	1684.25
548.896	1614.25
549.665	1520.25
550.434	1452.25
551.203	1367.25
551.972	1296.25
552.741	1228.25
553.51	1164.25
554.278	1102.25
555.047	1038.25
555.815	977.25
556.584	927.25
557.352	873.25
558.121	828.25
558.889	778.25
559.657	727.25
560.425	700.25
561.193	652.25
561.961	610.25
562.729	579.25
563.496	557.25
564.264	519.25
565.032	493.25
565.799	466.25
566.567	433.25
567.334	405.25
568.101	391.25
568.869	372.25
569.636	348.25
570.403	325.25
571.17	310.25
571.937	289.25
572.704	275.25
573.471	263.25
574.237	248.25
575.004	228.25
575.771	211.25
576.537	204.25
577.303	190.25
578.07	180.25
578.836	169.25
579.602	158.25
580.368	153.25
581.134	142.25
581.9	137.25
582.666	127.25
583.432	119.25
584.198	115.25
584.964	107.25
585.729	106.25
586.495	101.25
587.26	92.25
588.025	86.25
588.791	81.25
589.556	80.25
590.321	72.25
591.086	70.25
591.851	65.25
592.616	65.25
593.381	56.25
594.146	58.25
594.911	53.25
595.675	52.25
596.44	47.25
597.204	45.25
597.969	48.25
598.733	43.25
599.497	41.25
600.261	38.25
601.025	37.25
601.79	33.25
602.553	32.25
603.317	33.25
604.081	32.25
604.845	30.25
605.609	24.25
606.372	27.25
607.136	26.25
607.899	25.25
608.662	22.25
609.426	21.25
610.189	23.25
610.952	22.25
611.715	20.25
612.478	21.25
613.241	20.25
614.004	18.25
614.767	14.25
615.529	14.25
616.292	14.25
617.055	13.25
617.817	13.25
618.579	11.25
619.342	14.25
620.104	12.25
620.866	14.25
621.628	14.25
622.39	13.25
623.152	10.25
623.914	11.25
624.676	10.25
625.438	11.25
626.199	8.25
626.961	9.25
627.722	8.25
628.484	9.25
629.245	8.25
630.006	9.25
630.768	8.25
631.529	8.25
632.29	7.25
633.051	6.25
633.812	6.25
634.573	7.25
635.333	7.25
636.094	6.25
636.855	5.25
637.615	5.25
638.376	3.25
639.136	8.25
639.896	4.25
640.657	7.25
641.417	5.25
642.177	5.25
642.937	4.25
643.697	7.25
644.457	4.25
645.216	5.25
645.976	6.25
646.736	5.25
647.495	5.25
648.255	5.25
649.014	3.25
649.774	3.25
650.533	4.25
651.292	4.25
652.051	1.25
652.81	2.25
653.569	2.25
654.328	1.25
655.087	4.25
655.846	4.25
656.604	5.25
657.363	1.25
658.121	3.25
658.88	5.25
659.638	3.25
660.397	6.25
661.155	3.25
661.913	4.25
662.671	3.25
663.429	3.25
664.187	5.25
664.945	6.25
665.703	1.25
666.46	0.25
667.218	2.25
667.976	2.25
668.733	3.25
669.49	3.25
670.248	3.25
671.005	1.25
671.762	2.25
672.519	3.25
673.276	3.25
674.033	2.25
674.79	4.25
675.547	3.25
676.304	3.25
677.06	2.25
677.817	4.25
678.574	1.25
679.33	2.25
680.086	1.25
680.843	5.25
681.599	2.25
682.355	1.25
683.111	3.25
683.867	2.25
684.623	0.25
685.379	1.25
686.135	3.25
686.89	1.25
687.646	2.25
688.402	2.25
689.157	1.25
689.912	2.25
690.668	3.25
691.423	1.25
692.178	2.25
692.933	2.25
693.688	2.25
694.443	2.25
695.198	2.25
695.953	2.25
696.708	3.25
697.462	2.25
698.217	4.25
698.972	2.25
699.726	2.25
700.48	1.25
701.235	2.25
701.989	1.25
702.743	2.25
703.497	1.25
704.251	0.25
705.005	4.25
705.759	1.25
706.513	2.25
707.266	2.25
708.02	1.25
708.774	0.25
709.527	3.25
710.28	2.25
711.034	1.25
711.787	3.25
712.54	2.25
713.293	1.25
714.046	1.25
714.799	4.25
715.552	1.25
716.305	3.25
717.058	1.25
717.81	0.25
718.563	1.25
719.315	2.25
720.068	1.25
720.82	1.25
721.573	1.25
722.325	3.25
723.077	1.25
723.829	3.25
724.581	2.25
725.333	1.25
726.085	0.25
726.836	2.25
727.588	1.25
728.34	0.25
729.091	3.25
729.843	2.25
730.594	2.25
731.346	2.25
732.097	2.25
732.848	3.25
733.599	1.25
734.35	2.25
735.101	3.25
735.852	2.25
736.603	2.25
737.354	0.25
738.104	0.25
738.855	2.25
739.605	3.25
740.356	3.25
741.106	3.25
741.856	4.25
742.607	1.25
743.357	2.25
744.107	3.25
744.857	2.25
745.607	2.25
746.357	3.25
747.106	2.25
747.856	0.25
748.606	5.25
749.355	1.25
750.105	2.25
750.854	3.25
751.603	1.25
752.353	1.25
753.102	1.25
753.851	1.25
754.6	3.25
755.349	2.25
756.098	1.25
756.847	2.25
757.595	5.25
758.344	2.25
759.093	5.25
759.841	1.25
760.589	1.25
761.338	3.25
762.086	1.25
762.834	4.25
763.582	5.25
764.331	4.25
765.079	1.25
765.826	2.25
766.574	3.25
767.322	2.25
768.07	2.25
768.817	3.25
769.565	3.25
770.312	3.25
771.06	3.25
771.807	5.25
772.554	4.25
773.302	4.25
774.049	3.25
774.796	6.25
775.543	2.25
776.29	5.25
777.036	5.25
777.783	3.25
778.53	7.25
779.276	3.25
780.023	3.25
780.769	6.25
781.516	7.25
782.262	5.25
783.008	3.25
783.754	5.25
784.5	4.25
785.246	4.25
785.992	4.25
786.738	6.25
787.484	5.25
788.23	4.25
788.975	5.25
789.721	5.25
790.466	5.25
791.212	4.25
791.957	5.25
792.702	4.25
793.447	4.25
794.193	5.25
794.938	3.25
795.683	7.25
796.427	5.25
797.172	7.25
797.917	5.25
798.662	6.25
799.406	6.25
800.151	3.25
800.895	3.25
801.64	3.25
802.384	5.25
803.128	5.25
803.872	4.25
804.616	7.25
805.36	2.25
806.104	4.25
806.848	2.25
807.592	3.25
808.336	4.25
809.079	3.25
809.823	4.25
810.566	1.25
811.31	3.25
812.053	2.25
812.796	3.25
813.539	2.25
814.283	3.25
815.026	4.25
815.769	2.25
816.511	3.25
817.254	4.25
817.997	3.25
818.74	3.25
819.482	3.25
820.225	3.25
820.967	1.25
821.71	3.25
822.452	4.25
823.194	3.25
823.936	2.25
824.678	2.25
825.42	6.25
826.162	2.25
826.904	4.25
827.646	3.25
828.388	4.25
829.129	2.25
829.871	-0.75
830.612	3.25
831.354	2.25
832.095	2.25
832.836	2.25
833.577	1.25
834.319	2.25
835.06	2.25
835.801	4.25
836.542	2.25
837.282	4.25
838.023	4.25
838.764	2.25
839.504	2.25
840.245	1.25
840.985	2.25
841.726	5.25
842.466	1.25
843.206	3.25
843.946	1.25
844.687	2.25
845.427	0.25
846.166	1.25
846.906	2.25
847.646	2.25
848.386	2.25
849.125	3.25
849.865	2.25
850.605	0.25
851.344	1.25
852.083	2.25
852.823	1.25
853.562	3.25
854.301	1.25
855.04	1.25
855.779	1.25
856.518	2.25
857.257	1.25
857.995	1.25
858.734	1.25
859.473	2.25
860.211	2.25
860.95	2.25
861.688	1.25
862.426	2.25
863.165	1.25
863.903	1.25
864.641	-0.75
865.379	1.25
866.117	2.25
866.855	1.25
867.593	-1.75
868.33	-0.75
869.068	0.25
869.806	0.25
870.543	1.25
871.28	-0.75
872.018	1.25
872.755	2.25
873.492	3.25
874.229	3.25
874.967	1.25
875.703	3.25
876.44	0.25
877.177	0.25
877.914	2.25
878.651	-0.75
879.387	1.25
880.124	0.25
880.86	1.25
881.597	-0.75
882.333	2.25
883.069	2.25
883.806	0.25
884.542	1.25
885.278	-0.75
886.014	2.25
886.749	-1.75
887.485	0.25
888.221	-1.75
888.957	0.25
889.692	1.25
890.428	2.25
891.163	2.25
891.899	3.25
892.634	0.25
893.369	0.25
894.104	1.25
894.839	1.25
895.574	0.25
896.309	1.25
897.044	1.25
897.779	-1.75
898.514	0.25
899.248	0.25
899.983	0.25
900.717	0.25
901.452	0.25
902.186	0.25
902.92	1.25
903.654	0.25
904.389	1.25
905.123	-1.75
905.857	-0.75
906.59	-1.75
907.324	-0.75
908.058	0.25
908.792	1.25
909.525	-0.75
910.259	-0.75
910.992	0.25
911.726	1.25
912.459	2.25
913.192	1.25
913.925	2.25
914.658	-0.75
915.391	0.25
916.124	-1.75
916.857	2.25
917.59	0.25
918.323	0.25
919.055	1.25
919.788	0.25
920.521	1.25
921.253	-2.75
921.985	2.25
922.718	-0.75
923.45	-0.75
924.182	0.25
924.914	-1.75
925.646	0.25
926.378	-1.75
927.11	2.25
927.841	-2.75
928.573	0.25
929.305	1.25
930.036	-1.75
930.768	1.25
931.499	0.25
932.23	-0.75
932.962	1.25
933.693	-0.75
934.424	2.25
935.155	-2.75
935.886	1.25
936.617	-1.75
937.348	-0.75
938.078	-1.75
938.809	1.25
939.54	1.25
940.27	0.25
941.001	0.25
941.731	2.25
942.461	1.25
943.191	1.25
943.922	-0.75
944.652	2.25
945.382	1.25
946.112	1.25
946.841	-0.75
947.571	1.25
948.301	0.25
949.031	2.25
949.76	0.25
950.49	-1.75
951.219	0.25
951.948	-1.75
952.678	-0.75
953.407	1.25
954.136	1.25
954.865	2.25
955.594	-0.75
956.323	-1.75
957.052	-0.75
957.78	-0.75
958.509	-0.75
959.238	-0.75
959.966	-1.75
960.695	-0.75
961.423	-0.75
962.151	0.25
962.88	1.25
963.608	1.25
964.336	0.25
965.064	1.25
965.792	1.25
966.52	0.25
967.247	1.25
967.975	1.25
968.703	0.25
969.43	0.25
970.158	-0.75
970.885	2.25
971.613	2.25
972.34	0.25
973.067	2.25
973.794	-0.75
974.521	-0.75
975.248	-1.75
975.975	-0.75
976.702	1.25
977.429	-2.75
978.156	0.25
978.882	0.25
979.609	0.25
980.335	0.25
981.062	0.25
981.788	-1.75
982.514	1.25
983.24	-0.75
983.967	-0.75
984.693	1.25
985.419	0.25
986.144	-0.75
986.87	2.25
987.596	-0.75
988.322	0.25
989.047	-0.75
989.773	-0.75
990.498	2.25
991.224	0.25
991.949	0.25
992.674	-0.75
993.399	1.25
994.124	0.25
994.849	-0.75
995.574	0.25
996.299	0.25
997.024	0.25
997.749	-1.75
998.473	1.25
999.198	1.25
999.922	0.25
1000.647	2.25
1001.371	3.25
1002.095	0.25
1002.82	0.25
1003.544	-1.75
1004.268	3.25
1004.992	-1.75
1005.716	1.25
1006.439	0.25
1007.163	0.25
1007.887	2.25
1008.611	-0.75
1009.334	2.25
1010.058	1.25
1010.781	-1.75
1011.504	1.25
1012.228	0.25
1012.951	-1.75
1013.674	-1.75
1014.397	-0.75
1015.12	2.25
