节点500_145_QEPB04081__264__11-33-12-492.txt的数据

Date: Wed Nov 12 11:33:12 CST 2025
User: PC
Spectrometer: QEPB0408
触发模式: 0
积分时间 (秒): 1.000000E-2
Scans to average: 1
启用暗噪声校正: true
启用非线性校正: false
滑动平均宽度: 0
X轴模式: Wavelengths
Number of Pixels in Spectrum: 1044
>>>>>Begin Spectral Data<<<<<
220.843	-1.5
221.644	1.5
222.444	-1.5
223.244	2.5
224.045	0.5
224.845	0.5
225.645	1.5
226.445	-0.5
227.245	-2.5
228.045	1.5
228.845	0.5
229.645	-0.5
230.444	2.5
231.244	1.5
232.043	1.5
232.843	2.5
233.642	-0.5
234.442	1.5
235.241	2.5
236.04	3.5
236.839	0.5
237.638	1.5
238.437	1.5
239.236	-0.5
240.035	3.5
240.833	0.5
241.632	1.5
242.43	0.5
243.229	2.5
244.027	4.5
244.826	0.5
245.624	2.5
246.422	3.5
247.22	0.5
248.018	3.5
248.816	2.5
249.614	3.5
250.412	1.5
251.21	3.5
252.007	2.5
252.805	2.5
253.602	3.5
254.4	1.5
255.197	3.5
255.994	1.5
256.791	4.5
257.589	3.5
258.386	2.5
259.183	4.5
259.979	4.5
260.776	4.5
261.573	2.5
262.37	5.5
263.166	4.5
263.963	4.5
264.759	6.5
265.556	8.5
266.352	6.5
267.148	4.5
267.944	6.5
268.74	4.5
269.536	5.5
270.332	6.5
271.128	7.5
271.924	7.5
272.719	8.5
273.515	8.5
274.311	7.5
275.106	8.5
275.901	10.5
276.697	9.5
277.492	10.5
278.287	9.5
279.082	12.5
279.877	9.5
280.672	10.5
281.467	8.5
282.262	10.5
283.056	11.5
283.851	9.5
284.646	12.5
285.44	11.5
286.234	9.5
287.029	10.5
287.823	10.5
288.617	13.5
289.411	9.5
290.205	13.5
290.999	9.5
291.793	10.5
292.587	11.5
293.381	8.5
294.174	9.5
294.968	7.5
295.761	10.5
296.555	11.5
297.348	10.5
298.141	8.5
298.935	10.5
299.728	8.5
300.521	10.5
301.314	7.5
302.107	8.5
302.899	8.5
303.692	8.5
304.485	9.5
305.277	9.5
306.07	8.5
306.862	9.5
307.655	9.5
308.447	7.5
309.239	7.5
310.031	6.5
310.823	7.5
311.615	9.5
312.407	5.5
313.199	7.5
313.991	4.5
314.783	7.5
315.574	5.5
316.366	6.5
317.157	5.5
317.949	5.5
318.74	5.5
319.531	5.5
320.322	5.5
321.113	4.5
321.904	7.5
322.695	3.5
323.486	5.5
324.277	6.5
325.068	5.5
325.858	5.5
326.649	3.5
327.439	5.5
328.23	2.5
329.02	6.5
329.81	4.5
330.6	4.5
331.391	2.5
332.181	2.5
332.971	3.5
333.76	3.5
334.55	4.5
335.34	3.5
336.13	4.5
336.919	3.5
337.709	3.5
338.498	2.5
339.287	4.5
340.077	3.5
340.866	1.5
341.655	5.5
342.444	3.5
343.233	5.5
344.022	3.5
344.811	4.5
345.6	3.5
346.388	3.5
347.177	4.5
347.965	3.5
348.754	2.5
349.542	3.5
350.33	2.5
351.119	3.5
351.907	4.5
352.695	1.5
353.483	3.5
354.271	2.5
355.059	4.5
355.846	2.5
356.634	1.5
357.422	1.5
358.209	2.5
358.997	3.5
359.784	2.5
360.571	3.5
361.359	4.5
362.146	1.5
362.933	4.5
363.72	4.5
364.507	3.5
365.294	3.5
366.081	0.5
366.867	2.5
367.654	1.5
368.44	4.5
369.227	2.5
370.013	2.5
370.8	4.5
371.586	3.5
372.372	2.5
373.158	1.5
373.944	2.5
374.73	2.5
375.516	2.5
376.302	0.5
377.088	3.5
377.873	3.5
378.659	1.5
379.445	2.5
380.23	3.5
381.015	-0.5
381.801	4.5
382.586	2.5
383.371	4.5
384.156	1.5
384.941	4.5
385.726	2.5
386.511	2.5
387.296	2.5
388.08	4.5
388.865	4.5
389.649	2.5
390.434	1.5
391.218	3.5
392.003	3.5
392.787	6.5
393.571	2.5
394.355	1.5
395.139	2.5
395.923	3.5
396.707	2.5
397.491	4.5
398.274	5.5
399.058	5.5
399.842	5.5
400.625	2.5
401.408	5.5
402.192	5.5
402.975	2.5
403.758	4.5
404.541	1.5
405.324	5.5
406.107	5.5
406.89	4.5
407.673	3.5
408.456	4.5
409.238	2.5
410.021	3.5
410.803	3.5
411.586	5.5
412.368	3.5
413.151	4.5
413.933	5.5
414.715	3.5
415.497	1.5
416.279	5.5
417.061	4.5
417.843	8.5
418.624	5.5
419.406	7.5
420.188	6.5
420.969	4.5
421.751	7.5
422.532	6.5
423.313	7.5
424.095	6.5
424.876	7.5
425.657	6.5
426.438	4.5
427.219	7.5
428	5.5
428.78	7.5
429.561	7.5
430.342	7.5
431.122	8.5
431.903	6.5
432.683	6.5
433.464	8.5
434.244	8.5
435.024	9.5
435.804	9.5
436.584	8.5
437.364	10.5
438.144	9.5
438.924	12.5
439.704	10.5
440.483	12.5
441.263	11.5
442.042	15.5
442.822	13.5
443.601	15.5
444.38	15.5
445.16	17.5
445.939	17.5
446.718	18.5
447.497	20.5
448.276	20.5
449.054	19.5
449.833	23.5
450.612	25.5
451.391	28.5
452.169	25.5
452.948	33.5
453.726	32.5
454.504	36.5
455.282	42.5
456.061	44.5
456.839	49.5
457.617	54.5
458.395	61.5
459.172	65.5
459.95	78.5
460.728	87.5
461.506	92.5
462.283	102.5
463.061	111.5
463.838	124.5
464.615	135.5
465.393	155.5
466.17	170.5
466.947	187.5
467.724	215.5
468.501	237.5
469.278	257.5
470.055	293.5
470.831	332.5
471.608	367.5
472.385	410.5
473.161	447.5
473.938	503.5
474.714	565.5
475.49	624.5
476.266	697.5
477.043	766.5
477.819	847.5
478.595	936.5
479.371	1031.5
480.146	1158.5
480.922	1263.5
481.698	1397.5
482.473	1545.5
483.249	1707.5
484.024	1883.5
484.8	2085.5
485.575	2290.5
486.35	2521.5
487.126	2773.5
487.901	3077.5
488.676	3371.5
489.451	3715.5
490.225	4079.5
491	4502.5
491.775	4953.5
492.55	5431.5
493.324	5958.5
494.099	6489.5
494.873	7097.5
495.647	7750.5
496.422	8401.5
497.196	9068.5
497.97	9785.5
498.744	10611.5
499.518	11301.5
500.292	12027.5
501.066	12793.5
501.839	13479.5
502.613	14122.5
503.387	14763.5
504.16	15330.5
504.934	15777.5
505.707	16065.5
506.48	16417.5
507.253	16560.5
508.027	16593.5
508.8	16549.5
509.573	16355.5
510.346	16169.5
511.118	15816.5
511.891	15368.5
512.664	14823.5
513.437	14341.5
514.209	13771.5
514.982	13247.5
515.754	12745.5
516.526	12187.5
517.298	11615.5
518.071	11087.5
518.843	10594.5
519.615	10178.5
520.387	9777.5
521.159	9324.5
521.93	8965.5
522.702	8648.5
523.474	8288.5
524.245	7925.5
525.017	7663.5
525.788	7294.5
526.56	7065.5
527.331	6703.5
528.102	6436.5
528.873	6130.5
529.644	5910.5
530.415	5618.5
531.186	5358.5
531.957	5085.5
532.728	4824.5
533.498	4564.5
534.269	4310.5
535.039	4063.5
535.81	3849.5
536.58	3641.5
537.351	3432.5
538.121	3229.5
538.891	3078.5
539.661	2886.5
540.431	2734.5
541.201	2602.5
541.971	2447.5
542.741	2314.5
543.51	2197.5
544.28	2091.5
545.05	1993.5
545.819	1881.5
546.588	1809.5
547.358	1708.5
548.127	1622.5
548.896	1538.5
549.665	1477.5
550.434	1384.5
551.203	1309.5
551.972	1253.5
552.741	1183.5
553.51	1114.5
554.278	1065.5
555.047	996.5
555.815	932.5
556.584	896.5
557.352	836.5
558.121	796.5
558.889	746.5
559.657	699.5
560.425	663.5
561.193	622.5
561.961	596.5
562.729	554.5
563.496	524.5
564.264	501.5
565.032	459.5
565.799	437.5
566.567	407.5
567.334	394.5
568.101	365.5
568.869	350.5
569.636	328.5
570.403	314.5
571.17	297.5
571.937	274.5
572.704	263.5
573.471	246.5
574.237	233.5
575.004	219.5
575.771	204.5
576.537	195.5
577.303	185.5
578.07	169.5
578.836	161.5
579.602	152.5
580.368	142.5
581.134	134.5
581.9	126.5
582.666	121.5
583.432	117.5
584.198	110.5
584.964	103.5
585.729	96.5
586.495	89.5
587.26	87.5
588.025	82.5
588.791	76.5
589.556	74.5
590.321	69.5
591.086	66.5
591.851	65.5
592.616	57.5
593.381	56.5
594.146	54.5
594.911	46.5
595.675	50.5
596.44	46.5
597.204	45.5
597.969	42.5
598.733	39.5
599.497	39.5
600.261	37.5
601.025	32.5
601.79	34.5
602.553	31.5
603.317	33.5
604.081	29.5
604.845	25.5
605.609	27.5
606.372	24.5
607.136	25.5
607.899	25.5
608.662	20.5
609.426	22.5
610.189	22.5
610.952	18.5
611.715	18.5
612.478	18.5
613.241	19.5
614.004	16.5
614.767	13.5
615.529	17.5
616.292	13.5
617.055	14.5
617.817	16.5
618.579	14.5
619.342	12.5
620.104	9.5
620.866	13.5
621.628	14.5
622.39	12.5
623.152	12.5
623.914	10.5
624.676	12.5
625.438	7.5
626.199	10.5
626.961	10.5
627.722	7.5
628.484	7.5
629.245	10.5
630.006	9.5
630.768	6.5
631.529	6.5
632.29	7.5
633.051	8.5
633.812	7.5
634.573	6.5
635.333	6.5
636.094	6.5
636.855	5.5
637.615	4.5
638.376	5.5
639.136	6.5
639.896	3.5
640.657	5.5
641.417	4.5
642.177	6.5
642.937	5.5
643.697	2.5
644.457	6.5
645.216	5.5
645.976	3.5
646.736	6.5
647.495	2.5
648.255	7.5
649.014	4.5
649.774	5.5
650.533	5.5
651.292	5.5
652.051	5.5
652.81	1.5
653.569	5.5
654.328	2.5
655.087	4.5
655.846	5.5
656.604	3.5
657.363	4.5
658.121	3.5
658.88	3.5
659.638	2.5
660.397	2.5
661.155	2.5
661.913	3.5
662.671	4.5
663.429	3.5
664.187	5.5
664.945	1.5
665.703	1.5
666.46	1.5
667.218	3.5
667.976	1.5
668.733	1.5
669.49	5.5
670.248	5.5
671.005	3.5
671.762	3.5
672.519	1.5
673.276	3.5
674.033	1.5
674.79	3.5
675.547	2.5
676.304	1.5
677.06	0.5
677.817	2.5
678.574	3.5
679.33	1.5
680.086	3.5
680.843	3.5
681.599	2.5
682.355	3.5
683.111	2.5
683.867	0.5
684.623	2.5
685.379	1.5
686.135	1.5
686.89	2.5
687.646	5.5
688.402	3.5
689.157	3.5
689.912	3.5
690.668	3.5
691.423	2.5
692.178	0.5
692.933	2.5
693.688	2.5
694.443	2.5
695.198	1.5
695.953	0.5
696.708	2.5
697.462	3.5
698.217	1.5
698.972	1.5
699.726	3.5
700.48	1.5
701.235	-0.5
701.989	3.5
702.743	2.5
703.497	4.5
704.251	3.5
705.005	4.5
705.759	1.5
706.513	1.5
707.266	2.5
708.02	2.5
708.774	2.5
709.527	1.5
710.28	2.5
711.034	3.5
711.787	4.5
712.54	2.5
713.293	-0.5
714.046	3.5
714.799	2.5
715.552	2.5
716.305	1.5
717.058	2.5
717.81	1.5
718.563	2.5
719.315	4.5
720.068	1.5
720.82	2.5
721.573	0.5
722.325	0.5
723.077	1.5
723.829	3.5
724.581	1.5
725.333	2.5
726.085	2.5
726.836	1.5
727.588	3.5
728.34	2.5
729.091	0.5
729.843	3.5
730.594	2.5
731.346	0.5
732.097	2.5
732.848	2.5
733.599	0.5
734.35	2.5
735.101	1.5
735.852	3.5
736.603	2.5
737.354	3.5
738.104	3.5
738.855	1.5
739.605	1.5
740.356	4.5
741.106	1.5
741.856	4.5
742.607	3.5
743.357	2.5
744.107	-0.5
744.857	2.5
745.607	3.5
746.357	1.5
747.106	2.5
747.856	1.5
748.606	2.5
749.355	3.5
750.105	2.5
750.854	2.5
751.603	2.5
752.353	2.5
753.102	2.5
753.851	3.5
754.6	2.5
755.349	1.5
756.098	6.5
756.847	2.5
757.595	3.5
758.344	3.5
759.093	3.5
759.841	2.5
760.589	5.5
761.338	4.5
762.086	1.5
762.834	3.5
763.582	3.5
764.331	5.5
765.079	4.5
765.826	4.5
766.574	7.5
767.322	1.5
768.07	4.5
768.817	6.5
769.565	3.5
770.312	3.5
771.06	3.5
771.807	5.5
772.554	2.5
773.302	2.5
774.049	5.5
774.796	4.5
775.543	4.5
776.29	4.5
777.036	4.5
777.783	5.5
778.53	6.5
779.276	3.5
780.023	9.5
780.769	6.5
781.516	4.5
782.262	5.5
783.008	6.5
783.754	2.5
784.5	6.5
785.246	3.5
785.992	4.5
786.738	5.5
787.484	4.5
788.23	4.5
788.975	6.5
789.721	5.5
790.466	5.5
791.212	5.5
791.957	5.5
792.702	6.5
793.447	6.5
794.193	2.5
794.938	7.5
795.683	3.5
796.427	7.5
797.172	4.5
797.917	4.5
798.662	5.5
799.406	4.5
800.151	5.5
800.895	7.5
801.64	3.5
802.384	2.5
803.128	7.5
803.872	3.5
804.616	3.5
805.36	5.5
806.104	4.5
806.848	6.5
807.592	4.5
808.336	3.5
809.079	2.5
809.823	3.5
810.566	2.5
811.31	3.5
812.053	6.5
812.796	2.5
813.539	4.5
814.283	3.5
815.026	0.5
815.769	4.5
816.511	4.5
817.254	5.5
817.997	2.5
818.74	3.5
819.482	2.5
820.225	1.5
820.967	3.5
821.71	1.5
822.452	2.5
823.194	2.5
823.936	3.5
824.678	1.5
825.42	4.5
826.162	5.5
826.904	1.5
827.646	4.5
828.388	1.5
829.129	1.5
829.871	3.5
830.612	3.5
831.354	3.5
832.095	0.5
832.836	3.5
833.577	3.5
834.319	3.5
835.06	4.5
835.801	2.5
836.542	4.5
837.282	1.5
838.023	4.5
838.764	2.5
839.504	2.5
840.245	4.5
840.985	2.5
841.726	2.5
842.466	3.5
843.206	2.5
843.946	5.5
844.687	3.5
845.427	1.5
846.166	3.5
846.906	4.5
847.646	1.5
848.386	3.5
849.125	1.5
849.865	3.5
850.605	1.5
851.344	-1.5
852.083	0.5
852.823	4.5
853.562	3.5
854.301	2.5
855.04	-0.5
855.779	0.5
856.518	0.5
857.257	3.5
857.995	0.5
858.734	2.5
859.473	2.5
860.211	2.5
860.95	1.5
861.688	-0.5
862.426	1.5
863.165	0.5
863.903	0.5
864.641	1.5
865.379	1.5
866.117	0.5
866.855	1.5
867.593	2.5
868.33	0.5
869.068	2.5
869.806	3.5
870.543	2.5
871.28	2.5
872.018	2.5
872.755	3.5
873.492	1.5
874.229	0.5
874.967	2.5
875.703	0.5
876.44	0.5
877.177	1.5
877.914	0.5
878.651	3.5
879.387	-1.5
880.124	0.5
880.86	0.5
881.597	1.5
882.333	1.5
883.069	0.5
883.806	0.5
884.542	1.5
885.278	-0.5
886.014	1.5
886.749	3.5
887.485	-0.5
888.221	-0.5
888.957	0.5
889.692	1.5
890.428	0.5
891.163	-0.5
891.899	1.5
892.634	0.5
893.369	2.5
894.104	0.5
894.839	-1.5
895.574	1.5
896.309	1.5
897.044	0.5
897.779	-1.5
898.514	2.5
899.248	1.5
899.983	1.5
900.717	1.5
901.452	2.5
902.186	1.5
902.92	1.5
903.654	2.5
904.389	1.5
905.123	-0.5
905.857	3.5
906.59	-0.5
907.324	1.5
908.058	2.5
908.792	1.5
909.525	-1.5
910.259	1.5
910.992	1.5
911.726	-1.5
912.459	-0.5
913.192	2.5
913.925	-0.5
914.658	-0.5
915.391	-0.5
916.124	2.5
916.857	-0.5
917.59	2.5
918.323	-2.5
919.055	0.5
919.788	-1.5
920.521	-0.5
921.253	1.5
921.985	0.5
922.718	0.5
923.45	0.5
924.182	0.5
924.914	-0.5
925.646	-0.5
926.378	0.5
927.11	0.5
927.841	0.5
928.573	0.5
929.305	1.5
930.036	-0.5
930.768	0.5
931.499	1.5
932.23	2.5
932.962	0.5
933.693	0.5
934.424	0.5
935.155	0.5
935.886	-3.5
936.617	-0.5
937.348	0.5
938.078	-0.5
938.809	2.5
939.54	0.5
940.27	3.5
941.001	-1.5
941.731	1.5
942.461	-0.5
943.191	-0.5
943.922	1.5
944.652	0.5
945.382	2.5
946.112	-0.5
946.841	1.5
947.571	0.5
948.301	1.5
949.031	-0.5
949.76	-0.5
950.49	0.5
951.219	-1.5
951.948	0.5
952.678	1.5
953.407	-1.5
954.136	0.5
954.865	1.5
955.594	1.5
956.323	1.5
957.052	0.5
957.78	-0.5
958.509	1.5
959.238	0.5
959.966	-1.5
960.695	0.5
961.423	-0.5
962.151	2.5
962.88	0.5
963.608	-2.5
964.336	0.5
965.064	-0.5
965.792	0.5
966.52	0.5
967.247	0.5
967.975	1.5
968.703	0.5
969.43	-0.5
970.158	1.5
970.885	-0.5
971.613	-1.5
972.34	1.5
973.067	1.5
973.794	0.5
974.521	2.5
975.248	0.5
975.975	1.5
976.702	-1.5
977.429	1.5
978.156	0.5
978.882	1.5
979.609	-0.5
980.335	2.5
981.062	0.5
981.788	0.5
982.514	0.5
983.24	-1.5
983.967	-0.5
984.693	1.5
985.419	-0.5
986.144	-1.5
986.87	0.5
987.596	0.5
988.322	0.5
989.047	-0.5
989.773	1.5
990.498	-1.5
991.224	1.5
991.949	1.5
992.674	1.5
993.399	2.5
994.124	-0.5
994.849	0.5
995.574	-0.5
996.299	0.5
997.024	-1.5
997.749	0.5
998.473	0.5
999.198	-0.5
999.922	0.5
1000.647	-0.5
1001.371	2.5
1002.095	0.5
1002.82	0.5
1003.544	0.5
1004.268	-1.5
1004.992	0.5
1005.716	-1.5
1006.439	2.5
1007.163	1.5
1007.887	-0.5
1008.611	1.5
1009.334	1.5
1010.058	0.5
1010.781	1.5
1011.504	-1.5
1012.228	2.5
1012.951	-0.5
1013.674	-2.5
1014.397	0.5
1015.12	-1.5
