节点500_145_QEPB04081__460__11-36-17-546.txt的数据

Date: Wed Nov 12 11:36:17 CST 2025
User: PC
Spectrometer: QEPB0408
触发模式: 0
积分时间 (秒): 1.000000E-2
Scans to average: 1
启用暗噪声校正: true
启用非线性校正: false
滑动平均宽度: 0
X轴模式: Wavelengths
Number of Pixels in Spectrum: 1044
>>>>>Begin Spectral Data<<<<<
220.843	-1
221.644	0
222.444	0
223.244	0
224.045	0
224.845	0
225.645	-2
226.445	3
227.245	-1
228.045	0
228.845	-2
229.645	3
230.444	0
231.244	1
232.043	-1
232.843	1
233.642	0
234.442	0
235.241	1
236.04	0
236.839	0
237.638	1
238.437	0
239.236	3
240.035	1
240.833	1
241.632	3
242.43	3
243.229	2
244.027	2
244.826	4
245.624	1
246.422	1
247.22	2
248.018	2
248.816	4
249.614	2
250.412	1
251.21	2
252.007	3
252.805	2
253.602	2
254.4	5
255.197	4
255.994	3
256.791	2
257.589	3
258.386	3
259.183	3
259.979	3
260.776	4
261.573	6
262.37	3
263.166	4
263.963	7
264.759	6
265.556	5
266.352	6
267.148	7
267.944	5
268.74	5
269.536	5
270.332	8
271.128	5
271.924	7
272.719	5
273.515	6
274.311	7
275.106	7
275.901	7
276.697	7
277.492	9
278.287	9
279.082	9
279.877	10
280.672	9
281.467	8
282.262	11
283.056	10
283.851	9
284.646	13
285.44	10
286.234	9
287.029	8
287.823	13
288.617	9
289.411	10
290.205	9
290.999	11
291.793	11
292.587	9
293.381	10
294.174	8
294.968	10
295.761	9
296.555	10
297.348	9
298.141	7
298.935	8
299.728	9
300.521	9
301.314	9
302.107	7
302.899	8
303.692	7
304.485	7
305.277	8
306.07	8
306.862	6
307.655	7
308.447	8
309.239	8
310.031	6
310.823	8
311.615	4
312.407	7
313.199	5
313.991	5
314.783	3
315.574	6
316.366	4
317.157	5
317.949	5
318.74	4
319.531	4
320.322	2
321.113	6
321.904	5
322.695	4
323.486	5
324.277	2
325.068	5
325.858	3
326.649	5
327.439	6
328.23	5
329.02	3
329.81	1
330.6	5
331.391	5
332.181	7
332.971	3
333.76	3
334.55	4
335.34	4
336.13	1
336.919	3
337.709	3
338.498	4
339.287	2
340.077	5
340.866	5
341.655	4
342.444	4
343.233	5
344.022	3
344.811	2
345.6	4
346.388	3
347.177	2
347.965	1
348.754	3
349.542	4
350.33	2
351.119	4
351.907	3
352.695	3
353.483	1
354.271	3
355.059	2
355.846	0
356.634	2
357.422	3
358.209	3
358.997	0
359.784	4
360.571	2
361.359	1
362.146	4
362.933	2
363.72	2
364.507	2
365.294	1
366.081	1
366.867	0
367.654	2
368.44	2
369.227	3
370.013	1
370.8	2
371.586	3
372.372	-1
373.158	3
373.944	-1
374.73	1
375.516	3
376.302	2
377.088	2
377.873	1
378.659	3
379.445	1
380.23	1
381.015	0
381.801	3
382.586	2
383.371	2
384.156	1
384.941	1
385.726	4
386.511	3
387.296	2
388.08	4
388.865	2
389.649	5
390.434	2
391.218	5
392.003	4
392.787	1
393.571	3
394.355	4
395.139	3
395.923	2
396.707	2
397.491	4
398.274	4
399.058	4
399.842	1
400.625	2
401.408	2
402.192	2
402.975	3
403.758	3
404.541	3
405.324	4
406.107	5
406.89	3
407.673	3
408.456	3
409.238	3
410.021	6
410.803	1
411.586	5
412.368	4
413.151	4
413.933	4
414.715	4
415.497	6
416.279	5
417.061	3
417.843	6
418.624	5
419.406	7
420.188	4
420.969	4
421.751	4
422.532	4
423.313	3
424.095	7
424.876	4
425.657	8
426.438	4
427.219	7
428	6
428.78	7
429.561	9
430.342	7
431.122	7
431.903	5
432.683	7
433.464	8
434.244	10
435.024	10
435.804	9
436.584	9
437.364	11
438.144	5
438.924	10
439.704	11
440.483	10
441.263	11
442.042	12
442.822	10
443.601	10
444.38	14
445.16	16
445.939	18
446.718	16
447.497	18
448.276	18
449.054	21
449.833	23
450.612	25
451.391	27
452.169	29
452.948	34
453.726	38
454.504	40
455.282	42
456.061	49
456.839	51
457.617	55
458.395	63
459.172	70
459.95	79
460.728	89
461.506	100
462.283	106
463.061	121
463.838	133
464.615	151
465.393	165
466.17	182
466.947	197
467.724	225
468.501	259
469.278	277
470.055	312
470.831	343
471.608	384
472.385	425
473.161	476
473.938	522
474.714	581
475.49	649
476.266	717
477.043	790
477.819	871
478.595	949
479.371	1059
480.146	1149
480.922	1266
481.698	1410
482.473	1526
483.249	1693
484.024	1871
484.8	2039
485.575	2247
486.35	2477
487.126	2711
487.901	2970
488.676	3248
489.451	3563
490.225	3892
491	4287
491.775	4686
492.55	5113
493.324	5622
494.099	6116
494.873	6673
495.647	7237
496.422	7887
497.196	8512
497.97	9146
498.744	9847
499.518	10578
500.292	11236
501.066	11948
501.839	12622
502.613	13238
503.387	13839
504.16	14403
504.934	14887
505.707	15280
506.48	15605
507.253	15781
508.027	15930
508.8	15965
509.573	15872
510.346	15682
511.118	15481
511.891	15097
512.664	14730
513.437	14307
514.209	13807
514.982	13303
515.754	12769
516.526	12246
517.298	11725
518.071	11220
518.843	10751
519.615	10290
520.387	9901
521.159	9441
521.93	9079
522.702	8704
523.474	8402
524.245	8052
525.017	7743
525.788	7417
526.56	7140
527.331	6850
528.102	6566
528.873	6250
529.644	5994
530.415	5766
531.186	5440
531.957	5207
532.728	4949
533.498	4662
534.269	4435
535.039	4213
535.81	3970
536.58	3741
537.351	3553
538.121	3365
538.891	3184
539.661	2973
540.431	2830
541.201	2683
541.971	2529
542.741	2414
543.51	2268
544.28	2171
545.05	2050
545.819	1939
546.588	1862
547.358	1757
548.127	1680
548.896	1592
549.665	1513
550.434	1437
551.203	1357
551.972	1302
552.741	1212
553.51	1159
554.278	1090
555.047	1048
555.815	974
556.584	934
557.352	863
558.121	827
558.889	787
559.657	729
560.425	692
561.193	659
561.961	621
562.729	588
563.496	549
564.264	520
565.032	488
565.799	464
566.567	435
567.334	414
568.101	385
568.869	366
569.636	352
570.403	325
571.17	309
571.937	294
572.704	270
573.471	255
574.237	245
575.004	219
575.771	215
576.537	198
577.303	194
578.07	185
578.836	174
579.602	159
580.368	154
581.134	142
581.9	134
582.666	127
583.432	119
584.198	113
584.964	113
585.729	101
586.495	91
587.26	99
588.025	86
588.791	84
589.556	78
590.321	72
591.086	73
591.851	66
592.616	61
593.381	61
594.146	56
594.911	54
595.675	49
596.44	51
597.204	45
597.969	44
598.733	43
599.497	40
600.261	39
601.025	39
601.79	37
602.553	34
603.317	33
604.081	30
604.845	33
605.609	27
606.372	27
607.136	25
607.899	25
608.662	23
609.426	19
610.189	22
610.952	22
611.715	21
612.478	20
613.241	19
614.004	18
614.767	18
615.529	16
616.292	16
617.055	17
617.817	15
618.579	14
619.342	14
620.104	15
620.866	13
621.628	11
622.39	13
623.152	14
623.914	12
624.676	11
625.438	12
626.199	8
626.961	11
627.722	10
628.484	10
629.245	7
630.006	8
630.768	6
631.529	8
632.29	7
633.051	5
633.812	7
634.573	6
635.333	7
636.094	10
636.855	4
637.615	6
638.376	5
639.136	6
639.896	4
640.657	4
641.417	6
642.177	7
642.937	5
643.697	5
644.457	5
645.216	5
645.976	6
646.736	4
647.495	7
648.255	5
649.014	1
649.774	1
650.533	5
651.292	4
652.051	5
652.81	4
653.569	3
654.328	3
655.087	3
655.846	3
656.604	5
657.363	3
658.121	3
658.88	1
659.638	2
660.397	0
661.155	3
661.913	3
662.671	4
663.429	2
664.187	4
664.945	5
665.703	3
666.46	3
667.218	4
667.976	4
668.733	4
669.49	1
670.248	3
671.005	1
671.762	0
672.519	3
673.276	1
674.033	3
674.79	4
675.547	1
676.304	1
677.06	3
677.817	2
678.574	2
679.33	2
680.086	2
680.843	2
681.599	1
682.355	4
683.111	1
683.867	2
684.623	2
685.379	2
686.135	3
686.89	4
687.646	2
688.402	2
689.157	1
689.912	3
690.668	0
691.423	1
692.178	2
692.933	3
693.688	2
694.443	0
695.198	4
695.953	0
696.708	3
697.462	3
698.217	0
698.972	2
699.726	3
700.48	0
701.235	0
701.989	3
702.743	1
703.497	0
704.251	2
705.005	1
705.759	1
706.513	2
707.266	3
708.02	1
708.774	1
709.527	1
710.28	1
711.034	1
711.787	0
712.54	2
713.293	-1
714.046	2
714.799	2
715.552	0
716.305	0
717.058	2
717.81	4
718.563	2
719.315	4
720.068	3
720.82	0
721.573	2
722.325	2
723.077	3
723.829	1
724.581	2
725.333	1
726.085	1
726.836	1
727.588	1
728.34	3
729.091	1
729.843	2
730.594	0
731.346	-1
732.097	4
732.848	1
733.599	2
734.35	0
735.101	1
735.852	2
736.603	4
737.354	0
738.104	2
738.855	0
739.605	2
740.356	2
741.106	2
741.856	3
742.607	4
743.357	2
744.107	2
744.857	1
745.607	2
746.357	2
747.106	2
747.856	0
748.606	1
749.355	2
750.105	2
750.854	5
751.603	5
752.353	4
753.102	-1
753.851	0
754.6	0
755.349	3
756.098	4
756.847	2
757.595	1
758.344	2
759.093	5
759.841	5
760.589	1
761.338	4
762.086	0
762.834	4
763.582	2
764.331	5
765.079	3
765.826	2
766.574	5
767.322	3
768.07	2
768.817	5
769.565	4
770.312	4
771.06	5
771.807	3
772.554	2
773.302	4
774.049	3
774.796	4
775.543	6
776.29	6
777.036	5
777.783	5
778.53	4
779.276	6
780.023	3
780.769	2
781.516	3
782.262	5
783.008	6
783.754	6
784.5	4
785.246	4
785.992	6
786.738	5
787.484	3
788.23	5
788.975	5
789.721	4
790.466	3
791.212	6
791.957	6
792.702	2
793.447	4
794.193	4
794.938	5
795.683	4
796.427	4
797.172	5
797.917	6
798.662	5
799.406	4
800.151	5
800.895	4
801.64	3
802.384	1
803.128	3
803.872	5
804.616	4
805.36	4
806.104	4
806.848	6
807.592	6
808.336	1
809.079	4
809.823	3
810.566	4
811.31	2
812.053	3
812.796	3
813.539	3
814.283	2
815.026	3
815.769	4
816.511	2
817.254	4
817.997	3
818.74	2
819.482	2
820.225	2
820.967	2
821.71	4
822.452	4
823.194	3
823.936	2
824.678	3
825.42	2
826.162	1
826.904	1
827.646	3
828.388	3
829.129	2
829.871	1
830.612	3
831.354	1
832.095	1
832.836	3
833.577	3
834.319	4
835.06	1
835.801	3
836.542	3
837.282	3
838.023	1
838.764	2
839.504	0
840.245	2
840.985	3
841.726	3
842.466	1
843.206	1
843.946	1
844.687	2
845.427	2
846.166	-1
846.906	3
847.646	3
848.386	2
849.125	2
849.865	0
850.605	2
851.344	2
852.083	1
852.823	4
853.562	1
854.301	0
855.04	0
855.779	1
856.518	3
857.257	-1
857.995	0
858.734	1
859.473	-2
860.211	-1
860.95	-1
861.688	0
862.426	-2
863.165	0
863.903	2
864.641	3
865.379	3
866.117	0
866.855	0
867.593	0
868.33	1
869.068	0
869.806	1
870.543	-2
871.28	1
872.018	3
872.755	1
873.492	1
874.229	2
874.967	0
875.703	0
876.44	1
877.177	0
877.914	1
878.651	0
879.387	1
880.124	1
880.86	-1
881.597	1
882.333	1
883.069	3
883.806	1
884.542	-1
885.278	1
886.014	-1
886.749	2
887.485	2
888.221	-1
888.957	-1
889.692	-2
890.428	1
891.163	-2
891.899	0
892.634	0
893.369	-1
894.104	-2
894.839	0
895.574	0
896.309	-1
897.044	1
897.779	-1
898.514	0
899.248	2
899.983	0
900.717	1
901.452	-2
902.186	2
902.92	-1
903.654	-2
904.389	1
905.123	1
905.857	1
906.59	-2
907.324	1
908.058	1
908.792	-2
909.525	1
910.259	1
910.992	1
911.726	3
912.459	-2
913.192	0
913.925	0
914.658	0
915.391	-2
916.124	1
916.857	-2
917.59	1
918.323	1
919.055	0
919.788	-1
920.521	1
921.253	1
921.985	-1
922.718	-1
923.45	-1
924.182	0
924.914	0
925.646	0
926.378	1
927.11	0
927.841	-1
928.573	0
929.305	-2
930.036	1
930.768	1
931.499	-1
932.23	-2
932.962	1
933.693	0
934.424	-1
935.155	-1
935.886	-2
936.617	1
937.348	1
938.078	-1
938.809	0
939.54	0
940.27	2
941.001	0
941.731	0
942.461	-2
943.191	-1
943.922	0
944.652	-2
945.382	-1
946.112	-1
946.841	0
947.571	-1
948.301	-1
949.031	-1
949.76	-2
950.49	1
951.219	0
951.948	-1
952.678	-1
953.407	0
954.136	1
954.865	-2
955.594	1
956.323	-1
957.052	1
957.78	0
958.509	-1
959.238	-1
959.966	1
960.695	0
961.423	-2
962.151	0
962.88	1
963.608	-2
964.336	1
965.064	0
965.792	0
966.52	1
967.247	1
967.975	1
968.703	0
969.43	1
970.158	-1
970.885	3
971.613	1
972.34	0
973.067	0
973.794	-2
974.521	-1
975.248	-1
975.975	-2
976.702	0
977.429	1
978.156	0
978.882	1
979.609	0
980.335	-1
981.062	-1
981.788	0
982.514	1
983.24	1
983.967	2
984.693	-1
985.419	0
986.144	-1
986.87	0
987.596	-1
988.322	2
989.047	0
989.773	1
990.498	-1
991.224	-2
991.949	0
992.674	-2
993.399	-2
994.124	-3
994.849	-1
995.574	-1
996.299	0
997.024	0
997.749	0
998.473	-2
999.198	0
999.922	-1
1000.647	-1
1001.371	5
1002.095	-1
1002.82	1
1003.544	-2
1004.268	-3
1004.992	0
1005.716	1
1006.439	-2
1007.163	-1
1007.887	0
1008.611	4
1009.334	-1
1010.058	-2
1010.781	1
1011.504	0
1012.228	1
1012.951	-1
1013.674	1
1014.397	-2
1015.12	-1
