节点500_145_QEPB04081__248__11-32-56-468.txt的数据

Date: Wed Nov 12 11:32:56 CST 2025
User: PC
Spectrometer: QEPB0408
触发模式: 0
积分时间 (秒): 1.000000E-2
Scans to average: 1
启用暗噪声校正: true
启用非线性校正: false
滑动平均宽度: 0
X轴模式: Wavelengths
Number of Pixels in Spectrum: 1044
>>>>>Begin Spectral Data<<<<<
220.843	-0.5
221.644	0.5
222.444	0.5
223.244	0.5
224.045	-0.5
224.845	-0.5
225.645	1.5
226.445	-1.5
227.245	1.5
228.045	0.5
228.845	3.5
229.645	2.5
230.444	-0.5
231.244	0.5
232.043	1.5
232.843	2.5
233.642	-0.5
234.442	1.5
235.241	1.5
236.04	1.5
236.839	2.5
237.638	0.5
238.437	1.5
239.236	0.5
240.035	1.5
240.833	1.5
241.632	2.5
242.43	1.5
243.229	1.5
244.027	-0.5
244.826	4.5
245.624	4.5
246.422	4.5
247.22	1.5
248.018	5.5
248.816	2.5
249.614	1.5
250.412	3.5
251.21	2.5
252.007	3.5
252.805	3.5
253.602	2.5
254.4	1.5
255.197	3.5
255.994	3.5
256.791	3.5
257.589	4.5
258.386	2.5
259.183	5.5
259.979	6.5
260.776	7.5
261.573	3.5
262.37	4.5
263.166	8.5
263.963	7.5
264.759	6.5
265.556	7.5
266.352	5.5
267.148	5.5
267.944	7.5
268.74	7.5
269.536	7.5
270.332	5.5
271.128	8.5
271.924	6.5
272.719	9.5
273.515	6.5
274.311	9.5
275.106	6.5
275.901	10.5
276.697	7.5
277.492	8.5
278.287	10.5
279.082	8.5
279.877	10.5
280.672	11.5
281.467	10.5
282.262	10.5
283.056	11.5
283.851	11.5
284.646	11.5
285.44	12.5
286.234	9.5
287.029	11.5
287.823	10.5
288.617	13.5
289.411	10.5
290.205	8.5
290.999	11.5
291.793	9.5
292.587	12.5
293.381	9.5
294.174	9.5
294.968	10.5
295.761	9.5
296.555	10.5
297.348	8.5
298.141	9.5
298.935	13.5
299.728	12.5
300.521	10.5
301.314	7.5
302.107	8.5
302.899	8.5
303.692	8.5
304.485	8.5
305.277	10.5
306.07	9.5
306.862	7.5
307.655	8.5
308.447	7.5
309.239	5.5
310.031	9.5
310.823	6.5
311.615	8.5
312.407	6.5
313.199	6.5
313.991	7.5
314.783	6.5
315.574	8.5
316.366	3.5
317.157	5.5
317.949	6.5
318.74	6.5
319.531	3.5
320.322	7.5
321.113	4.5
321.904	4.5
322.695	6.5
323.486	2.5
324.277	5.5
325.068	3.5
325.858	5.5
326.649	5.5
327.439	5.5
328.23	2.5
329.02	5.5
329.81	4.5
330.6	4.5
331.391	4.5
332.181	3.5
332.971	3.5
333.76	5.5
334.55	2.5
335.34	3.5
336.13	5.5
336.919	3.5
337.709	2.5
338.498	4.5
339.287	3.5
340.077	1.5
340.866	2.5
341.655	2.5
342.444	4.5
343.233	5.5
344.022	3.5
344.811	4.5
345.6	3.5
346.388	3.5
347.177	1.5
347.965	2.5
348.754	6.5
349.542	1.5
350.33	2.5
351.119	3.5
351.907	4.5
352.695	1.5
353.483	2.5
354.271	2.5
355.059	0.5
355.846	5.5
356.634	1.5
357.422	0.5
358.209	3.5
358.997	6.5
359.784	2.5
360.571	6.5
361.359	2.5
362.146	2.5
362.933	2.5
363.72	2.5
364.507	2.5
365.294	4.5
366.081	1.5
366.867	2.5
367.654	2.5
368.44	0.5
369.227	2.5
370.013	2.5
370.8	6.5
371.586	3.5
372.372	3.5
373.158	0.5
373.944	1.5
374.73	3.5
375.516	0.5
376.302	3.5
377.088	1.5
377.873	3.5
378.659	1.5
379.445	2.5
380.23	3.5
381.015	2.5
381.801	4.5
382.586	2.5
383.371	3.5
384.156	4.5
384.941	2.5
385.726	6.5
386.511	1.5
387.296	3.5
388.08	2.5
388.865	3.5
389.649	2.5
390.434	1.5
391.218	3.5
392.003	2.5
392.787	4.5
393.571	4.5
394.355	3.5
395.139	2.5
395.923	3.5
396.707	5.5
397.491	3.5
398.274	3.5
399.058	4.5
399.842	5.5
400.625	4.5
401.408	5.5
402.192	5.5
402.975	3.5
403.758	4.5
404.541	1.5
405.324	4.5
406.107	5.5
406.89	2.5
407.673	3.5
408.456	4.5
409.238	5.5
410.021	4.5
410.803	5.5
411.586	7.5
412.368	4.5
413.151	6.5
413.933	4.5
414.715	7.5
415.497	3.5
416.279	2.5
417.061	8.5
417.843	4.5
418.624	4.5
419.406	6.5
420.188	7.5
420.969	5.5
421.751	7.5
422.532	5.5
423.313	5.5
424.095	5.5
424.876	8.5
425.657	6.5
426.438	4.5
427.219	3.5
428	5.5
428.78	5.5
429.561	8.5
430.342	7.5
431.122	9.5
431.903	4.5
432.683	7.5
433.464	6.5
434.244	8.5
435.024	8.5
435.804	8.5
436.584	8.5
437.364	11.5
438.144	10.5
438.924	10.5
439.704	10.5
440.483	11.5
441.263	11.5
442.042	14.5
442.822	15.5
443.601	13.5
444.38	16.5
445.16	15.5
445.939	19.5
446.718	15.5
447.497	21.5
448.276	21.5
449.054	22.5
449.833	22.5
450.612	23.5
451.391	27.5
452.169	30.5
452.948	33.5
453.726	33.5
454.504	37.5
455.282	43.5
456.061	43.5
456.839	47.5
457.617	53.5
458.395	56.5
459.172	60.5
459.95	71.5
460.728	79.5
461.506	92.5
462.283	101.5
463.061	111.5
463.838	124.5
464.615	142.5
465.393	148.5
466.17	175.5
466.947	189.5
467.724	212.5
468.501	235.5
469.278	260.5
470.055	297.5
470.831	326.5
471.608	365.5
472.385	415.5
473.161	442.5
473.938	509.5
474.714	557.5
475.49	619.5
476.266	686.5
477.043	762.5
477.819	842.5
478.595	938.5
479.371	1028.5
480.146	1150.5
480.922	1272.5
481.698	1401.5
482.473	1550.5
483.249	1697.5
484.024	1875.5
484.8	2082.5
485.575	2283.5
486.35	2510.5
487.126	2793.5
487.901	3081.5
488.676	3365.5
489.451	3709.5
490.225	4081.5
491	4536.5
491.775	4967.5
492.55	5428.5
493.324	5985.5
494.099	6531.5
494.873	7156.5
495.647	7780.5
496.422	8501.5
497.196	9174.5
497.97	9898.5
498.744	10663.5
499.518	11403.5
500.292	12167.5
501.066	12909.5
501.839	13632.5
502.613	14292.5
503.387	14899.5
504.16	15455.5
504.934	15905.5
505.707	16205.5
506.48	16474.5
507.253	16699.5
508.027	16666.5
508.8	16642.5
509.573	16427.5
510.346	16133.5
511.118	15779.5
511.891	15315.5
512.664	14873.5
513.437	14315.5
514.209	13747.5
514.982	13257.5
515.754	12695.5
516.526	12151.5
517.298	11594.5
518.071	11034.5
518.843	10635.5
519.615	10118.5
520.387	9703.5
521.159	9327.5
521.93	8936.5
522.702	8592.5
523.474	8252.5
524.245	7922.5
525.017	7615.5
525.788	7308.5
526.56	7021.5
527.331	6742.5
528.102	6416.5
528.873	6102.5
529.644	5860.5
530.415	5602.5
531.186	5300.5
531.957	5044.5
532.728	4809.5
533.498	4509.5
534.269	4261.5
535.039	4055.5
535.81	3818.5
536.58	3597.5
537.351	3414.5
538.121	3234.5
538.891	3042.5
539.661	2858.5
540.431	2715.5
541.201	2566.5
541.971	2428.5
542.741	2330.5
543.51	2191.5
544.28	2072.5
545.05	1985.5
545.819	1885.5
546.588	1798.5
547.358	1688.5
548.127	1626.5
548.896	1532.5
549.665	1448.5
550.434	1397.5
551.203	1298.5
551.972	1244.5
552.741	1173.5
553.51	1115.5
554.278	1048.5
555.047	980.5
555.815	927.5
556.584	879.5
557.352	839.5
558.121	790.5
558.889	743.5
559.657	700.5
560.425	663.5
561.193	620.5
561.961	575.5
562.729	549.5
563.496	526.5
564.264	489.5
565.032	465.5
565.799	447.5
566.567	411.5
567.334	390.5
568.101	369.5
568.869	340.5
569.636	326.5
570.403	310.5
571.17	287.5
571.937	273.5
572.704	259.5
573.471	250.5
574.237	232.5
575.004	222.5
575.771	201.5
576.537	190.5
577.303	182.5
578.07	169.5
578.836	158.5
579.602	153.5
580.368	143.5
581.134	135.5
581.9	131.5
582.666	119.5
583.432	114.5
584.198	109.5
584.964	100.5
585.729	96.5
586.495	92.5
587.26	85.5
588.025	82.5
588.791	76.5
589.556	74.5
590.321	67.5
591.086	65.5
591.851	60.5
592.616	55.5
593.381	53.5
594.146	53.5
594.911	50.5
595.675	50.5
596.44	45.5
597.204	41.5
597.969	45.5
598.733	42.5
599.497	36.5
600.261	37.5
601.025	31.5
601.79	30.5
602.553	30.5
603.317	29.5
604.081	30.5
604.845	26.5
605.609	24.5
606.372	26.5
607.136	24.5
607.899	25.5
608.662	20.5
609.426	21.5
610.189	19.5
610.952	20.5
611.715	19.5
612.478	16.5
613.241	17.5
614.004	17.5
614.767	17.5
615.529	14.5
616.292	16.5
617.055	17.5
617.817	13.5
618.579	11.5
619.342	11.5
620.104	12.5
620.866	12.5
621.628	9.5
622.39	13.5
623.152	12.5
623.914	13.5
624.676	11.5
625.438	9.5
626.199	10.5
626.961	9.5
627.722	7.5
628.484	8.5
629.245	8.5
630.006	7.5
630.768	9.5
631.529	7.5
632.29	8.5
633.051	7.5
633.812	7.5
634.573	8.5
635.333	4.5
636.094	6.5
636.855	7.5
637.615	8.5
638.376	3.5
639.136	7.5
639.896	7.5
640.657	6.5
641.417	6.5
642.177	5.5
642.937	7.5
643.697	5.5
644.457	3.5
645.216	5.5
645.976	4.5
646.736	6.5
647.495	5.5
648.255	3.5
649.014	5.5
649.774	1.5
650.533	3.5
651.292	6.5
652.051	4.5
652.81	4.5
653.569	4.5
654.328	3.5
655.087	2.5
655.846	5.5
656.604	1.5
657.363	7.5
658.121	3.5
658.88	3.5
659.638	2.5
660.397	2.5
661.155	3.5
661.913	4.5
662.671	4.5
663.429	2.5
664.187	3.5
664.945	4.5
665.703	2.5
666.46	3.5
667.218	1.5
667.976	1.5
668.733	2.5
669.49	3.5
670.248	3.5
671.005	2.5
671.762	2.5
672.519	2.5
673.276	3.5
674.033	1.5
674.79	2.5
675.547	3.5
676.304	1.5
677.06	4.5
677.817	3.5
678.574	3.5
679.33	2.5
680.086	3.5
680.843	3.5
681.599	2.5
682.355	1.5
683.111	1.5
683.867	2.5
684.623	3.5
685.379	-0.5
686.135	3.5
686.89	-0.5
687.646	1.5
688.402	1.5
689.157	3.5
689.912	3.5
690.668	2.5
691.423	2.5
692.178	2.5
692.933	2.5
693.688	3.5
694.443	1.5
695.198	3.5
695.953	1.5
696.708	2.5
697.462	2.5
698.217	1.5
698.972	1.5
699.726	1.5
700.48	3.5
701.235	0.5
701.989	3.5
702.743	2.5
703.497	1.5
704.251	1.5
705.005	3.5
705.759	2.5
706.513	1.5
707.266	0.5
708.02	1.5
708.774	2.5
709.527	3.5
710.28	3.5
711.034	3.5
711.787	1.5
712.54	2.5
713.293	0.5
714.046	2.5
714.799	4.5
715.552	0.5
716.305	2.5
717.058	-0.5
717.81	2.5
718.563	1.5
719.315	1.5
720.068	0.5
720.82	1.5
721.573	1.5
722.325	2.5
723.077	1.5
723.829	2.5
724.581	4.5
725.333	1.5
726.085	2.5
726.836	3.5
727.588	1.5
728.34	1.5
729.091	2.5
729.843	5.5
730.594	2.5
731.346	2.5
732.097	3.5
732.848	1.5
733.599	1.5
734.35	2.5
735.101	-0.5
735.852	4.5
736.603	4.5
737.354	3.5
738.104	2.5
738.855	6.5
739.605	2.5
740.356	4.5
741.106	1.5
741.856	2.5
742.607	3.5
743.357	1.5
744.107	2.5
744.857	3.5
745.607	0.5
746.357	3.5
747.106	2.5
747.856	4.5
748.606	2.5
749.355	5.5
750.105	3.5
750.854	1.5
751.603	2.5
752.353	3.5
753.102	4.5
753.851	1.5
754.6	5.5
755.349	5.5
756.098	2.5
756.847	5.5
757.595	2.5
758.344	3.5
759.093	1.5
759.841	1.5
760.589	4.5
761.338	3.5
762.086	6.5
762.834	1.5
763.582	3.5
764.331	3.5
765.079	2.5
765.826	2.5
766.574	5.5
767.322	4.5
768.07	5.5
768.817	5.5
769.565	2.5
770.312	5.5
771.06	4.5
771.807	2.5
772.554	4.5
773.302	4.5
774.049	4.5
774.796	5.5
775.543	4.5
776.29	7.5
777.036	5.5
777.783	4.5
778.53	4.5
779.276	6.5
780.023	5.5
780.769	2.5
781.516	6.5
782.262	3.5
783.008	5.5
783.754	4.5
784.5	5.5
785.246	4.5
785.992	5.5
786.738	1.5
787.484	4.5
788.23	7.5
788.975	6.5
789.721	6.5
790.466	5.5
791.212	5.5
791.957	4.5
792.702	5.5
793.447	4.5
794.193	3.5
794.938	5.5
795.683	2.5
796.427	5.5
797.172	7.5
797.917	2.5
798.662	5.5
799.406	5.5
800.151	5.5
800.895	4.5
801.64	4.5
802.384	4.5
803.128	3.5
803.872	2.5
804.616	4.5
805.36	3.5
806.104	3.5
806.848	1.5
807.592	4.5
808.336	5.5
809.079	5.5
809.823	2.5
810.566	4.5
811.31	2.5
812.053	5.5
812.796	3.5
813.539	5.5
814.283	3.5
815.026	4.5
815.769	3.5
816.511	4.5
817.254	4.5
817.997	4.5
818.74	2.5
819.482	3.5
820.225	4.5
820.967	2.5
821.71	3.5
822.452	1.5
823.194	5.5
823.936	0.5
824.678	1.5
825.42	2.5
826.162	4.5
826.904	3.5
827.646	1.5
828.388	3.5
829.129	0.5
829.871	3.5
830.612	3.5
831.354	3.5
832.095	0.5
832.836	0.5
833.577	2.5
834.319	1.5
835.06	3.5
835.801	1.5
836.542	2.5
837.282	2.5
838.023	0.5
838.764	4.5
839.504	2.5
840.245	2.5
840.985	3.5
841.726	2.5
842.466	0.5
843.206	2.5
843.946	2.5
844.687	1.5
845.427	4.5
846.166	1.5
846.906	-0.5
847.646	2.5
848.386	3.5
849.125	1.5
849.865	2.5
850.605	3.5
851.344	1.5
852.083	-0.5
852.823	2.5
853.562	1.5
854.301	2.5
855.04	0.5
855.779	1.5
856.518	4.5
857.257	2.5
857.995	0.5
858.734	-2.5
859.473	2.5
860.211	2.5
860.95	1.5
861.688	1.5
862.426	0.5
863.165	-0.5
863.903	-0.5
864.641	1.5
865.379	1.5
866.117	-0.5
866.855	2.5
867.593	1.5
868.33	2.5
869.068	1.5
869.806	2.5
870.543	0.5
871.28	0.5
872.018	2.5
872.755	2.5
873.492	3.5
874.229	1.5
874.967	0.5
875.703	1.5
876.44	1.5
877.177	1.5
877.914	1.5
878.651	1.5
879.387	0.5
880.124	2.5
880.86	0.5
881.597	1.5
882.333	0.5
883.069	-1.5
883.806	2.5
884.542	0.5
885.278	0.5
886.014	0.5
886.749	0.5
887.485	0.5
888.221	0.5
888.957	-0.5
889.692	0.5
890.428	2.5
891.163	0.5
891.899	-0.5
892.634	0.5
893.369	1.5
894.104	0.5
894.839	0.5
895.574	1.5
896.309	-0.5
897.044	1.5
897.779	1.5
898.514	0.5
899.248	-0.5
899.983	-0.5
900.717	0.5
901.452	0.5
902.186	-0.5
902.92	1.5
903.654	0.5
904.389	2.5
905.123	-1.5
905.857	2.5
906.59	0.5
907.324	-0.5
908.058	0.5
908.792	0.5
909.525	-1.5
910.259	1.5
910.992	1.5
911.726	0.5
912.459	-0.5
913.192	0.5
913.925	-0.5
914.658	0.5
915.391	3.5
916.124	-1.5
916.857	-1.5
917.59	-3.5
918.323	0.5
919.055	0.5
919.788	-1.5
920.521	0.5
921.253	0.5
921.985	0.5
922.718	0.5
923.45	1.5
924.182	2.5
924.914	0.5
925.646	-1.5
926.378	1.5
927.11	-0.5
927.841	-1.5
928.573	-0.5
929.305	2.5
930.036	-0.5
930.768	1.5
931.499	-0.5
932.23	0.5
932.962	0.5
933.693	0.5
934.424	-0.5
935.155	1.5
935.886	0.5
936.617	1.5
937.348	1.5
938.078	0.5
938.809	-1.5
939.54	-1.5
940.27	-0.5
941.001	1.5
941.731	2.5
942.461	0.5
943.191	0.5
943.922	1.5
944.652	0.5
945.382	2.5
946.112	1.5
946.841	1.5
947.571	0.5
948.301	0.5
949.031	1.5
949.76	1.5
950.49	1.5
951.219	0.5
951.948	0.5
952.678	-0.5
953.407	-1.5
954.136	2.5
954.865	0.5
955.594	-1.5
956.323	1.5
957.052	-1.5
957.78	1.5
958.509	0.5
959.238	-0.5
959.966	-2.5
960.695	-0.5
961.423	0.5
962.151	-1.5
962.88	0.5
963.608	1.5
964.336	1.5
965.064	1.5
965.792	-0.5
966.52	2.5
967.247	-1.5
967.975	0.5
968.703	2.5
969.43	1.5
970.158	-2.5
970.885	-0.5
971.613	1.5
972.34	-2.5
973.067	1.5
973.794	0.5
974.521	-0.5
975.248	1.5
975.975	-1.5
976.702	-0.5
977.429	1.5
978.156	0.5
978.882	1.5
979.609	3.5
980.335	0.5
981.062	0.5
981.788	0.5
982.514	-1.5
983.24	1.5
983.967	0.5
984.693	-0.5
985.419	-0.5
986.144	0.5
986.87	-0.5
987.596	2.5
988.322	-1.5
989.047	-0.5
989.773	0.5
990.498	-0.5
991.224	1.5
991.949	2.5
992.674	-1.5
993.399	0.5
994.124	2.5
994.849	1.5
995.574	1.5
996.299	1.5
997.024	-1.5
997.749	-1.5
998.473	1.5
999.198	1.5
999.922	1.5
1000.647	0.5
1001.371	3.5
1002.095	0.5
1002.82	-1.5
1003.544	-1.5
1004.268	1.5
1004.992	1.5
1005.716	-0.5
1006.439	1.5
1007.163	0.5
1007.887	-1.5
1008.611	1.5
1009.334	1.5
1010.058	1.5
1010.781	0.5
1011.504	0.5
1012.228	1.5
1012.951	-0.5
1013.674	1.5
1014.397	-1.5
1015.12	-0.5
