节点500_145_QEPB04081__496__11-36-52-487.txt的数据

Date: Wed Nov 12 11:36:52 CST 2025
User: PC
Spectrometer: QEPB0408
触发模式: 0
积分时间 (秒): 1.000000E-2
Scans to average: 1
启用暗噪声校正: true
启用非线性校正: false
滑动平均宽度: 0
X轴模式: Wavelengths
Number of Pixels in Spectrum: 1044
>>>>>Begin Spectral Data<<<<<
220.843	-2.12
221.644	-0.12
222.444	-1.12
223.244	-2.12
224.045	0.88
224.845	-1.12
225.645	-1.12
226.445	-0.12
227.245	0.88
228.045	0.88
228.845	1.88
229.645	1.88
230.444	-0.12
231.244	-0.12
232.043	1.88
232.843	0.88
233.642	-1.12
234.442	0.88
235.241	-1.12
236.04	0.88
236.839	-0.12
237.638	0.88
238.437	0.88
239.236	0.88
240.035	0.88
240.833	1.88
241.632	1.88
242.43	0.88
243.229	0.88
244.027	1.88
244.826	-1.12
245.624	-0.12
246.422	1.88
247.22	0.88
248.018	3.88
248.816	0.88
249.614	1.88
250.412	1.88
251.21	1.88
252.007	0.88
252.805	2.88
253.602	1.88
254.4	3.88
255.197	2.88
255.994	2.88
256.791	4.88
257.589	2.88
258.386	0.88
259.183	5.88
259.979	1.88
260.776	4.88
261.573	3.88
262.37	6.88
263.166	3.88
263.963	2.88
264.759	3.88
265.556	2.88
266.352	5.88
267.148	6.88
267.944	4.88
268.74	5.88
269.536	2.88
270.332	4.88
271.128	6.88
271.924	7.88
272.719	6.88
273.515	5.88
274.311	7.88
275.106	6.88
275.901	6.88
276.697	6.88
277.492	8.88
278.287	8.88
279.082	8.88
279.877	7.88
280.672	8.88
281.467	8.88
282.262	9.88
283.056	10.88
283.851	8.88
284.646	7.88
285.44	7.88
286.234	9.88
287.029	11.88
287.823	10.88
288.617	10.88
289.411	7.88
290.205	10.88
290.999	7.88
291.793	7.88
292.587	6.88
293.381	8.88
294.174	9.88
294.968	9.88
295.761	7.88
296.555	8.88
297.348	8.88
298.141	6.88
298.935	7.88
299.728	10.88
300.521	8.88
301.314	7.88
302.107	7.88
302.899	3.88
303.692	5.88
304.485	7.88
305.277	8.88
306.07	5.88
306.862	6.88
307.655	8.88
308.447	6.88
309.239	6.88
310.031	6.88
310.823	3.88
311.615	5.88
312.407	5.88
313.199	6.88
313.991	2.88
314.783	5.88
315.574	3.88
316.366	6.88
317.157	4.88
317.949	5.88
318.74	3.88
319.531	2.88
320.322	4.88
321.113	5.88
321.904	4.88
322.695	2.88
323.486	2.88
324.277	2.88
325.068	2.88
325.858	4.88
326.649	2.88
327.439	1.88
328.23	1.88
329.02	3.88
329.81	1.88
330.6	3.88
331.391	5.88
332.181	1.88
332.971	3.88
333.76	1.88
334.55	5.88
335.34	4.88
336.13	2.88
336.919	4.88
337.709	1.88
338.498	3.88
339.287	3.88
340.077	2.88
340.866	2.88
341.655	2.88
342.444	2.88
343.233	3.88
344.022	2.88
344.811	2.88
345.6	1.88
346.388	2.88
347.177	1.88
347.965	1.88
348.754	1.88
349.542	1.88
350.33	2.88
351.119	3.88
351.907	5.88
352.695	1.88
353.483	3.88
354.271	1.88
355.059	4.88
355.846	3.88
356.634	1.88
357.422	3.88
358.209	2.88
358.997	1.88
359.784	2.88
360.571	2.88
361.359	2.88
362.146	1.88
362.933	0.88
363.72	0.88
364.507	0.88
365.294	3.88
366.081	3.88
366.867	0.88
367.654	1.88
368.44	2.88
369.227	1.88
370.013	1.88
370.8	0.88
371.586	1.88
372.372	-0.12
373.158	0.88
373.944	5.88
374.73	0.88
375.516	0.88
376.302	1.88
377.088	1.88
377.873	1.88
378.659	3.88
379.445	3.88
380.23	2.88
381.015	2.88
381.801	2.88
382.586	2.88
383.371	2.88
384.156	1.88
384.941	2.88
385.726	1.88
386.511	1.88
387.296	1.88
388.08	0.88
388.865	2.88
389.649	0.88
390.434	2.88
391.218	0.88
392.003	0.88
392.787	1.88
393.571	2.88
394.355	4.88
395.139	0.88
395.923	1.88
396.707	2.88
397.491	2.88
398.274	4.88
399.058	1.88
399.842	3.88
400.625	3.88
401.408	2.88
402.192	1.88
402.975	3.88
403.758	2.88
404.541	0.88
405.324	1.88
406.107	1.88
406.89	4.88
407.673	4.88
408.456	2.88
409.238	1.88
410.021	2.88
410.803	5.88
411.586	3.88
412.368	1.88
413.151	1.88
413.933	3.88
414.715	4.88
415.497	1.88
416.279	3.88
417.061	5.88
417.843	4.88
418.624	4.88
419.406	2.88
420.188	4.88
420.969	4.88
421.751	6.88
422.532	4.88
423.313	3.88
424.095	3.88
424.876	6.88
425.657	2.88
426.438	5.88
427.219	6.88
428	7.88
428.78	3.88
429.561	4.88
430.342	7.88
431.122	7.88
431.903	6.88
432.683	9.88
433.464	7.88
434.244	9.88
435.024	8.88
435.804	8.88
436.584	10.88
437.364	8.88
438.144	7.88
438.924	11.88
439.704	9.88
440.483	13.88
441.263	10.88
442.042	12.88
442.822	12.88
443.601	13.88
444.38	14.88
445.16	13.88
445.939	19.88
446.718	17.88
447.497	20.88
448.276	19.88
449.054	18.88
449.833	24.88
450.612	24.88
451.391	27.88
452.169	28.88
452.948	33.88
453.726	34.88
454.504	36.88
455.282	43.88
456.061	45.88
456.839	53.88
457.617	59.88
458.395	63.88
459.172	71.88
459.95	76.88
460.728	87.88
461.506	94.88
462.283	108.88
463.061	118.88
463.838	135.88
464.615	150.88
465.393	164.88
466.17	188.88
466.947	211.88
467.724	231.88
468.501	254.88
469.278	280.88
470.055	306.88
470.831	353.88
471.608	390.88
472.385	428.88
473.161	481.88
473.938	534.88
474.714	586.88
475.49	644.88
476.266	703.88
477.043	774.88
477.819	862.88
478.595	948.88
479.371	1049.88
480.146	1142.88
480.922	1271.88
481.698	1404.88
482.473	1550.88
483.249	1672.88
484.024	1857.88
484.8	2034.88
485.575	2248.88
486.35	2452.88
487.126	2686.88
487.901	2960.88
488.676	3226.88
489.451	3547.88
490.225	3890.88
491	4257.88
491.775	4640.88
492.55	5083.88
493.324	5521.88
494.099	6043.88
494.873	6583.88
495.647	7140.88
496.422	7748.88
497.196	8374.88
497.97	9021.88
498.744	9657.88
499.518	10412.88
500.292	11029.88
501.066	11762.88
501.839	12419.88
502.613	13063.88
503.387	13665.88
504.16	14185.88
504.934	14689.88
505.707	15085.88
506.48	15340.88
507.253	15613.88
508.027	15809.88
508.8	15769.88
509.573	15718.88
510.346	15543.88
511.118	15373.88
511.891	14975.88
512.664	14624.88
513.437	14187.88
514.209	13712.88
514.982	13217.88
515.754	12735.88
516.526	12215.88
517.298	11603.88
518.071	11187.88
518.843	10707.88
519.615	10234.88
520.387	9834.88
521.159	9451.88
521.93	9055.88
522.702	8709.88
523.474	8391.88
524.245	8021.88
525.017	7691.88
525.788	7387.88
526.56	7082.88
527.331	6831.88
528.102	6518.88
528.873	6244.88
529.644	5992.88
530.415	5688.88
531.186	5444.88
531.957	5217.88
532.728	4913.88
533.498	4703.88
534.269	4424.88
535.039	4200.88
535.81	3955.88
536.58	3742.88
537.351	3547.88
538.121	3385.88
538.891	3178.88
539.661	3016.88
540.431	2828.88
541.201	2676.88
541.971	2534.88
542.741	2411.88
543.51	2281.88
544.28	2168.88
545.05	2055.88
545.819	1945.88
546.588	1846.88
547.358	1761.88
548.127	1681.88
548.896	1601.88
549.665	1513.88
550.434	1434.88
551.203	1362.88
551.972	1293.88
552.741	1231.88
553.51	1164.88
554.278	1100.88
555.047	1042.88
555.815	988.88
556.584	928.88
557.352	877.88
558.121	825.88
558.889	785.88
559.657	736.88
560.425	691.88
561.193	648.88
561.961	615.88
562.729	588.88
563.496	550.88
564.264	530.88
565.032	487.88
565.799	458.88
566.567	428.88
567.334	406.88
568.101	384.88
568.869	367.88
569.636	348.88
570.403	328.88
571.17	304.88
571.937	293.88
572.704	273.88
573.471	261.88
574.237	243.88
575.004	227.88
575.771	210.88
576.537	203.88
577.303	191.88
578.07	181.88
578.836	166.88
579.602	159.88
580.368	147.88
581.134	141.88
581.9	138.88
582.666	129.88
583.432	124.88
584.198	112.88
584.964	109.88
585.729	102.88
586.495	91.88
587.26	93.88
588.025	86.88
588.791	81.88
589.556	75.88
590.321	73.88
591.086	68.88
591.851	62.88
592.616	58.88
593.381	57.88
594.146	52.88
594.911	52.88
595.675	46.88
596.44	50.88
597.204	43.88
597.969	42.88
598.733	41.88
599.497	41.88
600.261	35.88
601.025	37.88
601.79	33.88
602.553	33.88
603.317	32.88
604.081	29.88
604.845	25.88
605.609	28.88
606.372	24.88
607.136	25.88
607.899	23.88
608.662	25.88
609.426	24.88
610.189	20.88
610.952	20.88
611.715	19.88
612.478	19.88
613.241	15.88
614.004	16.88
614.767	16.88
615.529	15.88
616.292	15.88
617.055	14.88
617.817	15.88
618.579	12.88
619.342	13.88
620.104	11.88
620.866	12.88
621.628	10.88
622.39	9.88
623.152	12.88
623.914	12.88
624.676	9.88
625.438	10.88
626.199	9.88
626.961	7.88
627.722	10.88
628.484	9.88
629.245	7.88
630.006	8.88
630.768	7.88
631.529	7.88
632.29	6.88
633.051	7.88
633.812	5.88
634.573	6.88
635.333	5.88
636.094	5.88
636.855	5.88
637.615	4.88
638.376	5.88
639.136	6.88
639.896	3.88
640.657	4.88
641.417	4.88
642.177	3.88
642.937	3.88
643.697	4.88
644.457	6.88
645.216	3.88
645.976	4.88
646.736	4.88
647.495	1.88
648.255	2.88
649.014	4.88
649.774	4.88
650.533	0.88
651.292	4.88
652.051	4.88
652.81	2.88
653.569	4.88
654.328	0.88
655.087	4.88
655.846	2.88
656.604	3.88
657.363	2.88
658.121	1.88
658.88	1.88
659.638	1.88
660.397	4.88
661.155	3.88
661.913	2.88
662.671	1.88
663.429	1.88
664.187	2.88
664.945	1.88
665.703	1.88
666.46	2.88
667.218	2.88
667.976	2.88
668.733	0.88
669.49	3.88
670.248	2.88
671.005	2.88
671.762	2.88
672.519	0.88
673.276	3.88
674.033	1.88
674.79	2.88
675.547	0.88
676.304	-0.12
677.06	3.88
677.817	-0.12
678.574	1.88
679.33	0.88
680.086	3.88
680.843	0.88
681.599	3.88
682.355	0.88
683.111	-0.12
683.867	0.88
684.623	-0.12
685.379	-0.12
686.135	2.88
686.89	0.88
687.646	0.88
688.402	1.88
689.157	1.88
689.912	0.88
690.668	1.88
691.423	0.88
692.178	1.88
692.933	1.88
693.688	1.88
694.443	0.88
695.198	2.88
695.953	2.88
696.708	-0.12
697.462	1.88
698.217	1.88
698.972	0.88
699.726	3.88
700.48	-0.12
701.235	1.88
701.989	1.88
702.743	2.88
703.497	2.88
704.251	0.88
705.005	2.88
705.759	0.88
706.513	2.88
707.266	2.88
708.02	1.88
708.774	3.88
709.527	-2.12
710.28	2.88
711.034	0.88
711.787	-0.12
712.54	2.88
713.293	1.88
714.046	0.88
714.799	1.88
715.552	1.88
716.305	1.88
717.058	1.88
717.81	1.88
718.563	1.88
719.315	0.88
720.068	0.88
720.82	-0.12
721.573	0.88
722.325	1.88
723.077	0.88
723.829	0.88
724.581	1.88
725.333	1.88
726.085	0.88
726.836	0.88
727.588	1.88
728.34	2.88
729.091	3.88
729.843	3.88
730.594	-1.12
731.346	0.88
732.097	0.88
732.848	1.88
733.599	1.88
734.35	3.88
735.101	-0.12
735.852	4.88
736.603	1.88
737.354	-2.12
738.104	3.88
738.855	2.88
739.605	1.88
740.356	1.88
741.106	0.88
741.856	0.88
742.607	1.88
743.357	1.88
744.107	1.88
744.857	1.88
745.607	1.88
746.357	-0.12
747.106	1.88
747.856	1.88
748.606	2.88
749.355	1.88
750.105	0.88
750.854	2.88
751.603	0.88
752.353	-0.12
753.102	-0.12
753.851	3.88
754.6	1.88
755.349	1.88
756.098	0.88
756.847	2.88
757.595	2.88
758.344	3.88
759.093	4.88
759.841	2.88
760.589	1.88
761.338	1.88
762.086	2.88
762.834	3.88
763.582	0.88
764.331	3.88
765.079	3.88
765.826	3.88
766.574	2.88
767.322	2.88
768.07	3.88
768.817	0.88
769.565	4.88
770.312	-0.12
771.06	2.88
771.807	4.88
772.554	3.88
773.302	3.88
774.049	0.88
774.796	4.88
775.543	2.88
776.29	4.88
777.036	3.88
777.783	3.88
778.53	2.88
779.276	3.88
780.023	4.88
780.769	4.88
781.516	2.88
782.262	4.88
783.008	2.88
783.754	4.88
784.5	4.88
785.246	5.88
785.992	4.88
786.738	3.88
787.484	5.88
788.23	5.88
788.975	4.88
789.721	4.88
790.466	5.88
791.212	3.88
791.957	5.88
792.702	4.88
793.447	4.88
794.193	4.88
794.938	6.88
795.683	3.88
796.427	3.88
797.172	1.88
797.917	2.88
798.662	1.88
799.406	2.88
800.151	3.88
800.895	5.88
801.64	4.88
802.384	2.88
803.128	6.88
803.872	4.88
804.616	4.88
805.36	4.88
806.104	6.88
806.848	0.88
807.592	0.88
808.336	4.88
809.079	2.88
809.823	1.88
810.566	0.88
811.31	3.88
812.053	2.88
812.796	2.88
813.539	3.88
814.283	2.88
815.026	2.88
815.769	4.88
816.511	2.88
817.254	3.88
817.997	2.88
818.74	2.88
819.482	-0.12
820.225	2.88
820.967	0.88
821.71	0.88
822.452	1.88
823.194	1.88
823.936	3.88
824.678	2.88
825.42	1.88
826.162	3.88
826.904	1.88
827.646	1.88
828.388	1.88
829.129	0.88
829.871	1.88
830.612	2.88
831.354	0.88
832.095	0.88
832.836	1.88
833.577	0.88
834.319	3.88
835.06	0.88
835.801	1.88
836.542	1.88
837.282	0.88
838.023	1.88
838.764	3.88
839.504	2.88
840.245	0.88
840.985	1.88
841.726	2.88
842.466	2.88
843.206	-0.12
843.946	2.88
844.687	2.88
845.427	0.88
846.166	2.88
846.906	2.88
847.646	1.88
848.386	1.88
849.125	1.88
849.865	0.88
850.605	2.88
851.344	2.88
852.083	2.88
852.823	1.88
853.562	2.88
854.301	-0.12
855.04	1.88
855.779	0.88
856.518	0.88
857.257	-1.12
857.995	-2.12
858.734	-0.12
859.473	0.88
860.211	1.88
860.95	2.88
861.688	1.88
862.426	2.88
863.165	-0.12
863.903	2.88
864.641	1.88
865.379	3.88
866.117	-1.12
866.855	-0.12
867.593	0.88
868.33	-0.12
869.068	1.88
869.806	0.88
870.543	0.88
871.28	-0.12
872.018	0.88
872.755	-1.12
873.492	-0.12
874.229	-0.12
874.967	-0.12
875.703	-0.12
876.44	1.88
877.177	0.88
877.914	0.88
878.651	-0.12
879.387	-0.12
880.124	-1.12
880.86	0.88
881.597	0.88
882.333	-1.12
883.069	-0.12
883.806	-0.12
884.542	-0.12
885.278	-0.12
886.014	0.88
886.749	2.88
887.485	-0.12
888.221	0.88
888.957	0.88
889.692	-0.12
890.428	-0.12
891.163	0.88
891.899	-2.12
892.634	-0.12
893.369	2.88
894.104	-0.12
894.839	-0.12
895.574	0.88
896.309	0.88
897.044	-0.12
897.779	0.88
898.514	-0.12
899.248	0.88
899.983	-1.12
900.717	-1.12
901.452	-1.12
902.186	-0.12
902.92	-2.12
903.654	0.88
904.389	-2.12
905.123	1.88
905.857	0.88
906.59	1.88
907.324	0.88
908.058	-0.12
908.792	-0.12
909.525	-1.12
910.259	0.88
910.992	0.88
911.726	-1.12
912.459	0.88
913.192	-1.12
913.925	1.88
914.658	-2.12
915.391	-0.12
916.124	-0.12
916.857	0.88
917.59	1.88
918.323	-1.12
919.055	-0.12
919.788	2.88
920.521	1.88
921.253	0.88
921.985	-2.12
922.718	-0.12
923.45	-0.12
924.182	0.88
924.914	-0.12
925.646	-0.12
926.378	-0.12
927.11	-0.12
927.841	-0.12
928.573	0.88
929.305	-0.12
930.036	-0.12
930.768	-0.12
931.499	-0.12
932.23	-1.12
932.962	0.88
933.693	-1.12
934.424	-0.12
935.155	-1.12
935.886	0.88
936.617	0.88
937.348	-0.12
938.078	-2.12
938.809	-1.12
939.54	-1.12
940.27	-0.12
941.001	0.88
941.731	1.88
942.461	-1.12
943.191	0.88
943.922	0.88
944.652	-2.12
945.382	-1.12
946.112	0.88
946.841	-1.12
947.571	-0.12
948.301	-1.12
949.031	-1.12
949.76	2.88
950.49	-2.12
951.219	0.88
951.948	-2.12
952.678	-0.12
953.407	-0.12
954.136	-1.12
954.865	0.88
955.594	-2.12
956.323	-0.12
957.052	0.88
957.78	-0.12
958.509	1.88
959.238	-2.12
959.966	-0.12
960.695	1.88
961.423	-1.12
962.151	-1.12
962.88	-1.12
963.608	0.88
964.336	-1.12
965.064	1.88
965.792	-2.12
966.52	-0.12
967.247	0.88
967.975	-1.12
968.703	0.88
969.43	-2.12
970.158	0.88
970.885	1.88
971.613	-0.12
972.34	0.88
973.067	-0.12
973.794	-0.12
974.521	0.88
975.248	-0.12
975.975	-1.12
976.702	0.88
977.429	-0.12
978.156	-1.12
978.882	-1.12
979.609	1.88
980.335	0.88
981.062	-0.12
981.788	-0.12
982.514	-1.12
983.24	0.88
983.967	0.88
984.693	0.88
985.419	1.88
986.144	-1.12
986.87	0.88
987.596	-0.12
988.322	-1.12
989.047	0.88
989.773	0.88
990.498	0.88
991.224	-2.12
991.949	2.88
992.674	-1.12
993.399	-2.12
994.124	0.88
994.849	-2.12
995.574	1.88
996.299	0.88
997.024	-2.12
997.749	-2.12
998.473	-1.12
999.198	-2.12
999.922	0.88
1000.647	-1.12
1001.371	3.88
1002.095	-1.12
1002.82	-0.12
1003.544	-2.12
1004.268	0.88
1004.992	-3.12
1005.716	-2.12
1006.439	-2.12
1007.163	-0.12
1007.887	-1.12
1008.611	0.88
1009.334	0.88
1010.058	0.88
1010.781	-2.12
1011.504	1.88
1012.228	-0.12
1012.951	1.88
1013.674	-0.12
1014.397	-3.12
1015.12	0.88
