节点500_145_QEPB04081__689__11-39-52-808.txt的数据

Date: Wed Nov 12 11:39:52 CST 2025
User: PC
Spectrometer: QEPB0408
触发模式: 0
积分时间 (秒): 1.000000E-2
Scans to average: 1
启用暗噪声校正: true
启用非线性校正: false
滑动平均宽度: 0
X轴模式: Wavelengths
Number of Pixels in Spectrum: 1044
>>>>>Begin Spectral Data<<<<<
220.843	0.5
221.644	0.5
222.444	1.5
223.244	-0.5
224.045	1.5
224.845	0.5
225.645	-0.5
226.445	-0.5
227.245	-1.5
228.045	-1.5
228.845	1.5
229.645	2.5
230.444	-1.5
231.244	1.5
232.043	0.5
232.843	1.5
233.642	-0.5
234.442	-1.5
235.241	1.5
236.04	1.5
236.839	3.5
237.638	0.5
238.437	1.5
239.236	1.5
240.035	-0.5
240.833	2.5
241.632	2.5
242.43	1.5
243.229	0.5
244.027	2.5
244.826	1.5
245.624	0.5
246.422	2.5
247.22	2.5
248.018	1.5
248.816	0.5
249.614	2.5
250.412	1.5
251.21	1.5
252.007	1.5
252.805	2.5
253.602	2.5
254.4	1.5
255.197	2.5
255.994	4.5
256.791	1.5
257.589	3.5
258.386	1.5
259.183	2.5
259.979	2.5
260.776	3.5
261.573	1.5
262.37	5.5
263.166	4.5
263.963	5.5
264.759	2.5
265.556	6.5
266.352	4.5
267.148	5.5
267.944	4.5
268.74	4.5
269.536	5.5
270.332	7.5
271.128	5.5
271.924	5.5
272.719	4.5
273.515	9.5
274.311	7.5
275.106	5.5
275.901	7.5
276.697	10.5
277.492	7.5
278.287	9.5
279.082	6.5
279.877	8.5
280.672	8.5
281.467	9.5
282.262	9.5
283.056	10.5
283.851	10.5
284.646	8.5
285.44	9.5
286.234	10.5
287.029	8.5
287.823	10.5
288.617	10.5
289.411	10.5
290.205	9.5
290.999	11.5
291.793	12.5
292.587	9.5
293.381	11.5
294.174	9.5
294.968	10.5
295.761	8.5
296.555	7.5
297.348	8.5
298.141	7.5
298.935	8.5
299.728	7.5
300.521	10.5
301.314	9.5
302.107	7.5
302.899	11.5
303.692	8.5
304.485	9.5
305.277	6.5
306.07	8.5
306.862	7.5
307.655	7.5
308.447	8.5
309.239	5.5
310.031	10.5
310.823	7.5
311.615	7.5
312.407	9.5
313.199	5.5
313.991	7.5
314.783	4.5
315.574	8.5
316.366	6.5
317.157	4.5
317.949	6.5
318.74	5.5
319.531	4.5
320.322	4.5
321.113	6.5
321.904	6.5
322.695	4.5
323.486	3.5
324.277	3.5
325.068	5.5
325.858	4.5
326.649	4.5
327.439	3.5
328.23	3.5
329.02	5.5
329.81	3.5
330.6	4.5
331.391	2.5
332.181	1.5
332.971	2.5
333.76	3.5
334.55	4.5
335.34	3.5
336.13	5.5
336.919	2.5
337.709	4.5
338.498	4.5
339.287	2.5
340.077	4.5
340.866	3.5
341.655	3.5
342.444	3.5
343.233	2.5
344.022	3.5
344.811	2.5
345.6	2.5
346.388	1.5
347.177	5.5
347.965	4.5
348.754	4.5
349.542	2.5
350.33	3.5
351.119	3.5
351.907	3.5
352.695	4.5
353.483	1.5
354.271	3.5
355.059	3.5
355.846	2.5
356.634	3.5
357.422	3.5
358.209	2.5
358.997	4.5
359.784	3.5
360.571	4.5
361.359	2.5
362.146	2.5
362.933	3.5
363.72	3.5
364.507	1.5
365.294	2.5
366.081	2.5
366.867	3.5
367.654	2.5
368.44	1.5
369.227	4.5
370.013	2.5
370.8	4.5
371.586	1.5
372.372	2.5
373.158	4.5
373.944	1.5
374.73	3.5
375.516	1.5
376.302	0.5
377.088	3.5
377.873	1.5
378.659	0.5
379.445	1.5
380.23	1.5
381.015	2.5
381.801	2.5
382.586	2.5
383.371	1.5
384.156	2.5
384.941	1.5
385.726	2.5
386.511	2.5
387.296	4.5
388.08	2.5
388.865	2.5
389.649	4.5
390.434	0.5
391.218	2.5
392.003	4.5
392.787	3.5
393.571	3.5
394.355	3.5
395.139	3.5
395.923	2.5
396.707	2.5
397.491	3.5
398.274	4.5
399.058	3.5
399.842	3.5
400.625	4.5
401.408	1.5
402.192	3.5
402.975	2.5
403.758	4.5
404.541	3.5
405.324	3.5
406.107	4.5
406.89	3.5
407.673	6.5
408.456	4.5
409.238	2.5
410.021	6.5
410.803	5.5
411.586	4.5
412.368	2.5
413.151	2.5
413.933	2.5
414.715	6.5
415.497	2.5
416.279	4.5
417.061	5.5
417.843	3.5
418.624	3.5
419.406	5.5
420.188	6.5
420.969	7.5
421.751	5.5
422.532	4.5
423.313	7.5
424.095	5.5
424.876	6.5
425.657	5.5
426.438	4.5
427.219	5.5
428	8.5
428.78	7.5
429.561	6.5
430.342	5.5
431.122	8.5
431.903	6.5
432.683	7.5
433.464	7.5
434.244	4.5
435.024	10.5
435.804	9.5
436.584	8.5
437.364	9.5
438.144	10.5
438.924	10.5
439.704	9.5
440.483	13.5
441.263	14.5
442.042	14.5
442.822	12.5
443.601	14.5
444.38	15.5
445.16	17.5
445.939	16.5
446.718	18.5
447.497	19.5
448.276	19.5
449.054	23.5
449.833	25.5
450.612	29.5
451.391	30.5
452.169	33.5
452.948	36.5
453.726	38.5
454.504	43.5
455.282	44.5
456.061	51.5
456.839	54.5
457.617	59.5
458.395	65.5
459.172	71.5
459.95	83.5
460.728	90.5
461.506	103.5
462.283	113.5
463.061	126.5
463.838	144.5
464.615	159.5
465.393	169.5
466.17	194.5
466.947	224.5
467.724	243.5
468.501	269.5
469.278	289.5
470.055	327.5
470.831	373.5
471.608	402.5
472.385	435.5
473.161	490.5
473.938	543.5
474.714	595.5
475.49	669.5
476.266	719.5
477.043	806.5
477.819	878.5
478.595	954.5
479.371	1070.5
480.146	1155.5
480.922	1266.5
481.698	1390.5
482.473	1541.5
483.249	1661.5
484.024	1797.5
484.8	1994.5
485.575	2167.5
486.35	2372.5
487.126	2607.5
487.901	2839.5
488.676	3085.5
489.451	3387.5
490.225	3667.5
491	4023.5
491.775	4379.5
492.55	4776.5
493.324	5195.5
494.099	5670.5
494.873	6150.5
495.647	6653.5
496.422	7140.5
497.196	7715.5
497.97	8338.5
498.744	8926.5
499.518	9609.5
500.292	10199.5
501.066	10826.5
501.839	11493.5
502.613	12083.5
503.387	12657.5
504.16	13217.5
504.934	13701.5
505.707	14062.5
506.48	14441.5
507.253	14698.5
508.027	14898.5
508.8	15073.5
509.573	14996.5
510.346	14970.5
511.118	14768.5
511.891	14565.5
512.664	14281.5
513.437	13929.5
514.209	13494.5
514.982	13119.5
515.754	12590.5
516.526	12165.5
517.298	11657.5
518.071	11197.5
518.843	10716.5
519.615	10266.5
520.387	9886.5
521.159	9461.5
521.93	9081.5
522.702	8733.5
523.474	8397.5
524.245	8074.5
525.017	7734.5
525.788	7452.5
526.56	7110.5
527.331	6862.5
528.102	6544.5
528.873	6287.5
529.644	6055.5
530.415	5769.5
531.186	5527.5
531.957	5287.5
532.728	5033.5
533.498	4795.5
534.269	4545.5
535.039	4333.5
535.81	4054.5
536.58	3856.5
537.351	3648.5
538.121	3435.5
538.891	3259.5
539.661	3097.5
540.431	2917.5
541.201	2761.5
541.971	2616.5
542.741	2466.5
543.51	2347.5
544.28	2235.5
545.05	2114.5
545.819	2023.5
546.588	1897.5
547.358	1812.5
548.127	1725.5
548.896	1644.5
549.665	1554.5
550.434	1475.5
551.203	1407.5
551.972	1340.5
552.741	1272.5
553.51	1220.5
554.278	1124.5
555.047	1080.5
555.815	1024.5
556.584	966.5
557.352	919.5
558.121	862.5
558.889	802.5
559.657	780.5
560.425	724.5
561.193	688.5
561.961	645.5
562.729	606.5
563.496	578.5
564.264	548.5
565.032	509.5
565.799	485.5
566.567	460.5
567.334	434.5
568.101	403.5
568.869	385.5
569.636	363.5
570.403	336.5
571.17	318.5
571.937	303.5
572.704	281.5
573.471	268.5
574.237	257.5
575.004	239.5
575.771	223.5
576.537	215.5
577.303	202.5
578.07	184.5
578.836	173.5
579.602	168.5
580.368	158.5
581.134	152.5
581.9	143.5
582.666	134.5
583.432	123.5
584.198	120.5
584.964	114.5
585.729	107.5
586.495	105.5
587.26	102.5
588.025	91.5
588.791	86.5
589.556	84.5
590.321	76.5
591.086	70.5
591.851	68.5
592.616	64.5
593.381	60.5
594.146	57.5
594.911	57.5
595.675	52.5
596.44	51.5
597.204	46.5
597.969	43.5
598.733	43.5
599.497	42.5
600.261	41.5
601.025	40.5
601.79	34.5
602.553	37.5
603.317	34.5
604.081	33.5
604.845	27.5
605.609	28.5
606.372	29.5
607.136	25.5
607.899	25.5
608.662	21.5
609.426	23.5
610.189	22.5
610.952	22.5
611.715	20.5
612.478	19.5
613.241	18.5
614.004	17.5
614.767	21.5
615.529	15.5
616.292	16.5
617.055	13.5
617.817	16.5
618.579	14.5
619.342	12.5
620.104	12.5
620.866	11.5
621.628	12.5
622.39	10.5
623.152	11.5
623.914	12.5
624.676	10.5
625.438	10.5
626.199	8.5
626.961	10.5
627.722	8.5
628.484	9.5
629.245	8.5
630.006	7.5
630.768	8.5
631.529	8.5
632.29	5.5
633.051	7.5
633.812	8.5
634.573	8.5
635.333	6.5
636.094	6.5
636.855	5.5
637.615	7.5
638.376	6.5
639.136	6.5
639.896	6.5
640.657	4.5
641.417	6.5
642.177	4.5
642.937	4.5
643.697	5.5
644.457	4.5
645.216	5.5
645.976	4.5
646.736	4.5
647.495	2.5
648.255	3.5
649.014	5.5
649.774	5.5
650.533	4.5
651.292	4.5
652.051	4.5
652.81	3.5
653.569	2.5
654.328	4.5
655.087	5.5
655.846	2.5
656.604	5.5
657.363	5.5
658.121	4.5
658.88	3.5
659.638	3.5
660.397	5.5
661.155	1.5
661.913	1.5
662.671	2.5
663.429	2.5
664.187	4.5
664.945	3.5
665.703	2.5
666.46	2.5
667.218	0.5
667.976	5.5
668.733	2.5
669.49	2.5
670.248	1.5
671.005	1.5
671.762	1.5
672.519	2.5
673.276	2.5
674.033	3.5
674.79	1.5
675.547	1.5
676.304	0.5
677.06	2.5
677.817	4.5
678.574	-0.5
679.33	-0.5
680.086	4.5
680.843	1.5
681.599	1.5
682.355	2.5
683.111	3.5
683.867	4.5
684.623	2.5
685.379	5.5
686.135	3.5
686.89	3.5
687.646	1.5
688.402	3.5
689.157	2.5
689.912	1.5
690.668	1.5
691.423	0.5
692.178	1.5
692.933	2.5
693.688	1.5
694.443	3.5
695.198	2.5
695.953	-0.5
696.708	0.5
697.462	2.5
698.217	2.5
698.972	3.5
699.726	1.5
700.48	4.5
701.235	2.5
701.989	5.5
702.743	0.5
703.497	2.5
704.251	1.5
705.005	1.5
705.759	2.5
706.513	3.5
707.266	2.5
708.02	3.5
708.774	3.5
709.527	-0.5
710.28	2.5
711.034	1.5
711.787	1.5
712.54	2.5
713.293	0.5
714.046	0.5
714.799	2.5
715.552	-0.5
716.305	1.5
717.058	0.5
717.81	2.5
718.563	2.5
719.315	0.5
720.068	1.5
720.82	1.5
721.573	4.5
722.325	0.5
723.077	1.5
723.829	1.5
724.581	1.5
725.333	1.5
726.085	0.5
726.836	0.5
727.588	4.5
728.34	1.5
729.091	2.5
729.843	2.5
730.594	1.5
731.346	2.5
732.097	3.5
732.848	1.5
733.599	1.5
734.35	1.5
735.101	2.5
735.852	1.5
736.603	2.5
737.354	0.5
738.104	2.5
738.855	0.5
739.605	0.5
740.356	3.5
741.106	2.5
741.856	1.5
742.607	5.5
743.357	2.5
744.107	0.5
744.857	2.5
745.607	3.5
746.357	2.5
747.106	3.5
747.856	2.5
748.606	1.5
749.355	3.5
750.105	1.5
750.854	2.5
751.603	2.5
752.353	3.5
753.102	2.5
753.851	0.5
754.6	1.5
755.349	4.5
756.098	1.5
756.847	1.5
757.595	4.5
758.344	1.5
759.093	-1.5
759.841	1.5
760.589	3.5
761.338	3.5
762.086	5.5
762.834	3.5
763.582	3.5
764.331	2.5
765.079	4.5
765.826	3.5
766.574	3.5
767.322	2.5
768.07	3.5
768.817	5.5
769.565	4.5
770.312	1.5
771.06	2.5
771.807	4.5
772.554	0.5
773.302	5.5
774.049	2.5
774.796	3.5
775.543	6.5
776.29	2.5
777.036	4.5
777.783	4.5
778.53	2.5
779.276	6.5
780.023	5.5
780.769	6.5
781.516	1.5
782.262	2.5
783.008	2.5
783.754	4.5
784.5	6.5
785.246	1.5
785.992	5.5
786.738	6.5
787.484	4.5
788.23	4.5
788.975	5.5
789.721	5.5
790.466	5.5
791.212	4.5
791.957	6.5
792.702	5.5
793.447	3.5
794.193	4.5
794.938	5.5
795.683	2.5
796.427	5.5
797.172	4.5
797.917	4.5
798.662	2.5
799.406	6.5
800.151	6.5
800.895	2.5
801.64	4.5
802.384	4.5
803.128	4.5
803.872	3.5
804.616	3.5
805.36	2.5
806.104	3.5
806.848	4.5
807.592	3.5
808.336	5.5
809.079	3.5
809.823	4.5
810.566	3.5
811.31	4.5
812.053	2.5
812.796	2.5
813.539	2.5
814.283	3.5
815.026	3.5
815.769	4.5
816.511	3.5
817.254	3.5
817.997	2.5
818.74	4.5
819.482	1.5
820.225	2.5
820.967	5.5
821.71	4.5
822.452	4.5
823.194	2.5
823.936	2.5
824.678	1.5
825.42	3.5
826.162	2.5
826.904	2.5
827.646	2.5
828.388	3.5
829.129	3.5
829.871	3.5
830.612	2.5
831.354	4.5
832.095	-0.5
832.836	4.5
833.577	3.5
834.319	2.5
835.06	1.5
835.801	3.5
836.542	4.5
837.282	2.5
838.023	4.5
838.764	0.5
839.504	3.5
840.245	-0.5
840.985	2.5
841.726	1.5
842.466	1.5
843.206	1.5
843.946	2.5
844.687	2.5
845.427	2.5
846.166	3.5
846.906	3.5
847.646	2.5
848.386	0.5
849.125	1.5
849.865	1.5
850.605	4.5
851.344	-0.5
852.083	0.5
852.823	0.5
853.562	2.5
854.301	0.5
855.04	1.5
855.779	2.5
856.518	-1.5
857.257	1.5
857.995	2.5
858.734	2.5
859.473	-0.5
860.211	0.5
860.95	3.5
861.688	0.5
862.426	1.5
863.165	1.5
863.903	3.5
864.641	0.5
865.379	-1.5
866.117	0.5
866.855	2.5
867.593	2.5
868.33	0.5
869.068	3.5
869.806	2.5
870.543	-0.5
871.28	0.5
872.018	-0.5
872.755	1.5
873.492	1.5
874.229	1.5
874.967	1.5
875.703	2.5
876.44	2.5
877.177	0.5
877.914	2.5
878.651	-0.5
879.387	0.5
880.124	0.5
880.86	-0.5
881.597	1.5
882.333	2.5
883.069	3.5
883.806	0.5
884.542	1.5
885.278	0.5
886.014	0.5
886.749	0.5
887.485	1.5
888.221	-0.5
888.957	1.5
889.692	0.5
890.428	0.5
891.163	1.5
891.899	2.5
892.634	-0.5
893.369	4.5
894.104	1.5
894.839	0.5
895.574	-0.5
896.309	1.5
897.044	-1.5
897.779	1.5
898.514	2.5
899.248	4.5
899.983	1.5
900.717	2.5
901.452	1.5
902.186	1.5
902.92	1.5
903.654	2.5
904.389	-1.5
905.123	-0.5
905.857	-0.5
906.59	1.5
907.324	-0.5
908.058	3.5
908.792	0.5
909.525	0.5
910.259	-0.5
910.992	1.5
911.726	0.5
912.459	1.5
913.192	1.5
913.925	0.5
914.658	1.5
915.391	0.5
916.124	1.5
916.857	-0.5
917.59	1.5
918.323	0.5
919.055	2.5
919.788	0.5
920.521	1.5
921.253	1.5
921.985	0.5
922.718	1.5
923.45	-0.5
924.182	0.5
924.914	-0.5
925.646	-1.5
926.378	-1.5
927.11	-1.5
927.841	-0.5
928.573	0.5
929.305	1.5
930.036	-0.5
930.768	1.5
931.499	1.5
932.23	-0.5
932.962	2.5
933.693	-0.5
934.424	-1.5
935.155	0.5
935.886	-0.5
936.617	0.5
937.348	-0.5
938.078	0.5
938.809	-1.5
939.54	1.5
940.27	0.5
941.001	-1.5
941.731	-0.5
942.461	-2.5
943.191	0.5
943.922	-0.5
944.652	-1.5
945.382	-0.5
946.112	-0.5
946.841	-0.5
947.571	-1.5
948.301	4.5
949.031	-1.5
949.76	1.5
950.49	1.5
951.219	-1.5
951.948	-0.5
952.678	-1.5
953.407	1.5
954.136	-0.5
954.865	0.5
955.594	-0.5
956.323	1.5
957.052	1.5
957.78	1.5
958.509	-0.5
959.238	-1.5
959.966	-0.5
960.695	-0.5
961.423	0.5
962.151	0.5
962.88	-1.5
963.608	2.5
964.336	-0.5
965.064	1.5
965.792	0.5
966.52	-1.5
967.247	0.5
967.975	1.5
968.703	-0.5
969.43	-0.5
970.158	1.5
970.885	1.5
971.613	-0.5
972.34	1.5
973.067	-0.5
973.794	0.5
974.521	-1.5
975.248	1.5
975.975	-0.5
976.702	-1.5
977.429	-0.5
978.156	0.5
978.882	1.5
979.609	-0.5
980.335	0.5
981.062	-0.5
981.788	0.5
982.514	1.5
983.24	0.5
983.967	0.5
984.693	0.5
985.419	1.5
986.144	0.5
986.87	1.5
987.596	0.5
988.322	1.5
989.047	0.5
989.773	1.5
990.498	-1.5
991.224	-0.5
991.949	-1.5
992.674	0.5
993.399	1.5
994.124	1.5
994.849	0.5
995.574	1.5
996.299	-1.5
997.024	0.5
997.749	-1.5
998.473	-1.5
999.198	0.5
999.922	2.5
1000.647	-1.5
1001.371	5.5
1002.095	-0.5
1002.82	-1.5
1003.544	-1.5
1004.268	0.5
1004.992	-0.5
1005.716	-2.5
1006.439	-0.5
1007.163	3.5
1007.887	-0.5
1008.611	1.5
1009.334	-0.5
1010.058	0.5
1010.781	-0.5
1011.504	0.5
1012.228	0.5
1012.951	-1.5
1013.674	-1.5
1014.397	0.5
1015.12	0.5
