节点500_145_QEPB04081__187__11-31-56-543.txt的数据

Date: Wed Nov 12 11:31:56 CST 2025
User: PC
Spectrometer: QEPB0408
触发模式: 0
积分时间 (秒): 1.000000E-2
Scans to average: 1
启用暗噪声校正: true
启用非线性校正: false
滑动平均宽度: 0
X轴模式: Wavelengths
Number of Pixels in Spectrum: 1044
>>>>>Begin Spectral Data<<<<<
220.843	-1
221.644	-1
222.444	-1
223.244	0
224.045	-1
224.845	-2
225.645	1
226.445	-1
227.245	-2
228.045	0
228.845	-1
229.645	-3
230.444	1
231.244	-2
232.043	1
232.843	-1
233.642	0
234.442	0
235.241	-1
236.04	2
236.839	0
237.638	2
238.437	0
239.236	1
240.035	0
240.833	2
241.632	1
242.43	0
243.229	-1
244.027	2
244.826	3
245.624	2
246.422	1
247.22	3
248.018	1
248.816	4
249.614	3
250.412	3
251.21	2
252.007	5
252.805	3
253.602	1
254.4	2
255.197	4
255.994	2
256.791	4
257.589	4
258.386	3
259.183	3
259.979	5
260.776	6
261.573	6
262.37	3
263.166	3
263.963	7
264.759	2
265.556	4
266.352	6
267.148	7
267.944	5
268.74	7
269.536	8
270.332	8
271.128	7
271.924	10
272.719	7
273.515	7
274.311	9
275.106	6
275.901	10
276.697	8
277.492	12
278.287	10
279.082	8
279.877	10
280.672	10
281.467	10
282.262	9
283.056	11
283.851	10
284.646	9
285.44	10
286.234	10
287.029	11
287.823	10
288.617	11
289.411	10
290.205	13
290.999	10
291.793	11
292.587	9
293.381	11
294.174	12
294.968	10
295.761	11
296.555	11
297.348	9
298.141	9
298.935	12
299.728	9
300.521	10
301.314	10
302.107	7
302.899	7
303.692	10
304.485	8
305.277	8
306.07	9
306.862	10
307.655	8
308.447	7
309.239	7
310.031	5
310.823	8
311.615	8
312.407	9
313.199	7
313.991	5
314.783	5
315.574	8
316.366	5
317.157	6
317.949	7
318.74	5
319.531	3
320.322	6
321.113	5
321.904	6
322.695	4
323.486	5
324.277	4
325.068	5
325.858	4
326.649	2
327.439	6
328.23	3
329.02	4
329.81	4
330.6	0
331.391	3
332.181	3
332.971	5
333.76	3
334.55	5
335.34	4
336.13	3
336.919	4
337.709	2
338.498	4
339.287	3
340.077	5
340.866	3
341.655	4
342.444	3
343.233	3
344.022	3
344.811	1
345.6	3
346.388	4
347.177	3
347.965	4
348.754	3
349.542	4
350.33	3
351.119	2
351.907	4
352.695	1
353.483	2
354.271	3
355.059	3
355.846	3
356.634	4
357.422	4
358.209	3
358.997	4
359.784	1
360.571	2
361.359	3
362.146	1
362.933	3
363.72	1
364.507	2
365.294	3
366.081	3
366.867	2
367.654	0
368.44	2
369.227	0
370.013	3
370.8	4
371.586	2
372.372	4
373.158	1
373.944	2
374.73	2
375.516	5
376.302	4
377.088	5
377.873	1
378.659	3
379.445	3
380.23	2
381.015	2
381.801	4
382.586	1
383.371	3
384.156	2
384.941	2
385.726	2
386.511	3
387.296	4
388.08	2
388.865	4
389.649	3
390.434	4
391.218	2
392.003	1
392.787	4
393.571	3
394.355	4
395.139	3
395.923	3
396.707	2
397.491	5
398.274	6
399.058	4
399.842	4
400.625	1
401.408	3
402.192	5
402.975	4
403.758	5
404.541	4
405.324	2
406.107	6
406.89	4
407.673	1
408.456	2
409.238	5
410.021	4
410.803	6
411.586	3
412.368	2
413.151	3
413.933	4
414.715	3
415.497	3
416.279	5
417.061	5
417.843	7
418.624	6
419.406	4
420.188	6
420.969	5
421.751	6
422.532	5
423.313	6
424.095	6
424.876	8
425.657	6
426.438	6
427.219	8
428	5
428.78	9
429.561	6
430.342	8
431.122	6
431.903	8
432.683	9
433.464	7
434.244	9
435.024	8
435.804	11
436.584	12
437.364	10
438.144	13
438.924	14
439.704	13
440.483	11
441.263	13
442.042	11
442.822	11
443.601	13
444.38	18
445.16	14
445.939	14
446.718	14
447.497	19
448.276	20
449.054	20
449.833	24
450.612	24
451.391	25
452.169	26
452.948	30
453.726	35
454.504	37
455.282	42
456.061	46
456.839	49
457.617	50
458.395	55
459.172	62
459.95	70
460.728	79
461.506	91
462.283	93
463.061	110
463.838	123
464.615	134
465.393	150
466.17	170
466.947	187
467.724	207
468.501	228
469.278	263
470.055	283
470.831	324
471.608	358
472.385	401
473.161	448
473.938	498
474.714	556
475.49	612
476.266	676
477.043	754
477.819	838
478.595	936
479.371	1019
480.146	1145
480.922	1265
481.698	1401
482.473	1544
483.249	1716
484.024	1879
484.8	2081
485.575	2311
486.35	2565
487.126	2821
487.901	3106
488.676	3457
489.451	3784
490.225	4196
491	4615
491.775	5097
492.55	5586
493.324	6124
494.099	6760
494.873	7391
495.647	8010
496.422	8705
497.196	9426
497.97	10187
498.744	10993
499.518	11778
500.292	12534
501.066	13229
501.839	13993
502.613	14702
503.387	15316
504.16	15877
504.934	16281
505.707	16625
506.48	16858
507.253	16992
508.027	17059
508.8	16901
509.573	16705
510.346	16357
511.118	15944
511.891	15509
512.664	15020
513.437	14434
514.209	13832
514.982	13315
515.754	12778
516.526	12158
517.298	11584
518.071	11077
518.843	10536
519.615	10157
520.387	9699
521.159	9320
521.93	8941
522.702	8601
523.474	8279
524.245	7959
525.017	7613
525.788	7313
526.56	7022
527.331	6747
528.102	6412
528.873	6145
529.644	5829
530.415	5607
531.186	5290
531.957	5032
532.728	4749
533.498	4495
534.269	4248
535.039	4027
535.81	3779
536.58	3576
537.351	3382
538.121	3203
538.891	3014
539.661	2840
540.431	2679
541.201	2546
541.971	2410
542.741	2309
543.51	2168
544.28	2066
545.05	1952
545.819	1864
546.588	1768
547.358	1703
548.127	1592
548.896	1517
549.665	1427
550.434	1381
551.203	1300
551.972	1224
552.741	1161
553.51	1116
554.278	1042
555.047	972
555.815	919
556.584	881
557.352	824
558.121	779
558.889	733
559.657	686
560.425	646
561.193	609
561.961	579
562.729	540
563.496	510
564.264	487
565.032	455
565.799	425
566.567	408
567.334	386
568.101	366
568.869	345
569.636	319
570.403	311
571.17	286
571.937	272
572.704	249
573.471	240
574.237	228
575.004	214
575.771	202
576.537	190
577.303	180
578.07	166
578.836	160
579.602	154
580.368	143
581.134	138
581.9	120
582.666	119
583.432	115
584.198	108
584.964	106
585.729	97
586.495	90
587.26	84
588.025	79
588.791	79
589.556	71
590.321	70
591.086	66
591.851	57
592.616	56
593.381	53
594.146	51
594.911	53
595.675	49
596.44	47
597.204	41
597.969	42
598.733	38
599.497	39
600.261	37
601.025	34
601.79	35
602.553	27
603.317	31
604.081	25
604.845	26
605.609	25
606.372	25
607.136	24
607.899	25
608.662	22
609.426	22
610.189	21
610.952	21
611.715	19
612.478	19
613.241	20
614.004	19
614.767	17
615.529	13
616.292	13
617.055	12
617.817	12
618.579	13
619.342	13
620.104	13
620.866	12
621.628	11
622.39	10
623.152	12
623.914	10
624.676	9
625.438	8
626.199	9
626.961	10
627.722	7
628.484	11
629.245	10
630.006	7
630.768	6
631.529	6
632.29	7
633.051	7
633.812	9
634.573	4
635.333	8
636.094	5
636.855	5
637.615	5
638.376	8
639.136	7
639.896	7
640.657	5
641.417	6
642.177	5
642.937	7
643.697	4
644.457	7
645.216	2
645.976	7
646.736	6
647.495	5
648.255	6
649.014	2
649.774	6
650.533	2
651.292	4
652.051	4
652.81	1
653.569	4
654.328	5
655.087	6
655.846	3
656.604	5
657.363	3
658.121	3
658.88	3
659.638	4
660.397	2
661.155	2
661.913	4
662.671	2
663.429	1
664.187	4
664.945	1
665.703	1
666.46	2
667.218	2
667.976	2
668.733	3
669.49	1
670.248	0
671.005	2
671.762	2
672.519	2
673.276	2
674.033	1
674.79	2
675.547	2
676.304	5
677.06	1
677.817	1
678.574	2
679.33	1
680.086	2
680.843	1
681.599	4
682.355	3
683.111	3
683.867	2
684.623	3
685.379	1
686.135	-3
686.89	1
687.646	2
688.402	3
689.157	2
689.912	0
690.668	2
691.423	3
692.178	0
692.933	4
693.688	3
694.443	2
695.198	0
695.953	3
696.708	0
697.462	2
698.217	1
698.972	2
699.726	4
700.48	1
701.235	2
701.989	2
702.743	2
703.497	3
704.251	1
705.005	2
705.759	0
706.513	2
707.266	1
708.02	1
708.774	2
709.527	2
710.28	2
711.034	0
711.787	3
712.54	3
713.293	2
714.046	0
714.799	-1
715.552	1
716.305	1
717.058	0
717.81	2
718.563	1
719.315	2
720.068	2
720.82	2
721.573	2
722.325	2
723.077	1
723.829	2
724.581	4
725.333	2
726.085	3
726.836	2
727.588	3
728.34	2
729.091	3
729.843	5
730.594	1
731.346	2
732.097	2
732.848	2
733.599	3
734.35	0
735.101	2
735.852	1
736.603	3
737.354	1
738.104	4
738.855	1
739.605	3
740.356	2
741.106	1
741.856	3
742.607	2
743.357	3
744.107	1
744.857	2
745.607	5
746.357	3
747.106	4
747.856	2
748.606	5
749.355	3
750.105	1
750.854	2
751.603	2
752.353	5
753.102	4
753.851	4
754.6	4
755.349	2
756.098	2
756.847	5
757.595	4
758.344	2
759.093	2
759.841	2
760.589	3
761.338	4
762.086	3
762.834	3
763.582	2
764.331	2
765.079	3
765.826	2
766.574	4
767.322	3
768.07	5
768.817	4
769.565	3
770.312	5
771.06	2
771.807	4
772.554	6
773.302	7
774.049	4
774.796	5
775.543	3
776.29	5
777.036	5
777.783	5
778.53	4
779.276	3
780.023	5
780.769	2
781.516	3
782.262	6
783.008	3
783.754	5
784.5	5
785.246	7
785.992	5
786.738	7
787.484	4
788.23	4
788.975	4
789.721	5
790.466	4
791.212	5
791.957	8
792.702	6
793.447	6
794.193	3
794.938	7
795.683	4
796.427	5
797.172	3
797.917	5
798.662	3
799.406	5
800.151	5
800.895	3
801.64	6
802.384	6
803.128	2
803.872	6
804.616	4
805.36	3
806.104	4
806.848	5
807.592	4
808.336	4
809.079	6
809.823	3
810.566	4
811.31	3
812.053	5
812.796	3
813.539	3
814.283	2
815.026	3
815.769	5
816.511	1
817.254	4
817.997	1
818.74	5
819.482	3
820.225	3
820.967	1
821.71	2
822.452	3
823.194	2
823.936	0
824.678	2
825.42	5
826.162	5
826.904	3
827.646	2
828.388	1
829.129	5
829.871	2
830.612	1
831.354	3
832.095	3
832.836	5
833.577	5
834.319	1
835.06	2
835.801	3
836.542	2
837.282	0
838.023	3
838.764	2
839.504	2
840.245	1
840.985	4
841.726	4
842.466	1
843.206	3
843.946	2
844.687	2
845.427	2
846.166	2
846.906	-1
847.646	2
848.386	3
849.125	2
849.865	2
850.605	1
851.344	2
852.083	2
852.823	1
853.562	2
854.301	0
855.04	1
855.779	3
856.518	1
857.257	1
857.995	2
858.734	1
859.473	1
860.211	2
860.95	2
861.688	2
862.426	2
863.165	-1
863.903	1
864.641	1
865.379	0
866.117	1
866.855	1
867.593	1
868.33	0
869.068	1
869.806	0
870.543	2
871.28	2
872.018	-1
872.755	0
873.492	1
874.229	2
874.967	1
875.703	1
876.44	-1
877.177	2
877.914	2
878.651	0
879.387	1
880.124	1
880.86	-2
881.597	0
882.333	0
883.069	0
883.806	1
884.542	-1
885.278	1
886.014	0
886.749	1
887.485	1
888.221	0
888.957	-1
889.692	-2
890.428	2
891.163	-1
891.899	1
892.634	-2
893.369	0
894.104	1
894.839	0
895.574	1
896.309	2
897.044	2
897.779	-1
898.514	1
899.248	-1
899.983	1
900.717	1
901.452	1
902.186	0
902.92	1
903.654	0
904.389	0
905.123	0
905.857	1
906.59	-2
907.324	1
908.058	0
908.792	0
909.525	0
910.259	1
910.992	0
911.726	-2
912.459	0
913.192	-1
913.925	1
914.658	1
915.391	-1
916.124	1
916.857	-1
917.59	-2
918.323	0
919.055	0
919.788	1
920.521	-1
921.253	0
921.985	1
922.718	0
923.45	1
924.182	0
924.914	-1
925.646	-1
926.378	0
927.11	1
927.841	2
928.573	1
929.305	-1
930.036	0
930.768	2
931.499	-2
932.23	0
932.962	1
933.693	0
934.424	1
935.155	3
935.886	-1
936.617	0
937.348	0
938.078	1
938.809	0
939.54	-1
940.27	-1
941.001	0
941.731	0
942.461	-1
943.191	-1
943.922	-1
944.652	0
945.382	1
946.112	-3
946.841	-1
947.571	0
948.301	0
949.031	1
949.76	2
950.49	0
951.219	0
951.948	1
952.678	-2
953.407	-1
954.136	1
954.865	-2
955.594	0
956.323	-2
957.052	-2
957.78	0
958.509	2
959.238	0
959.966	-1
960.695	1
961.423	0
962.151	1
962.88	0
963.608	2
964.336	1
965.064	0
965.792	2
966.52	1
967.247	0
967.975	1
968.703	-2
969.43	0
970.158	-1
970.885	-1
971.613	-2
972.34	0
973.067	1
973.794	-1
974.521	1
975.248	-4
975.975	2
976.702	0
977.429	-2
978.156	1
978.882	0
979.609	2
980.335	0
981.062	2
981.788	-1
982.514	1
983.24	0
983.967	1
984.693	1
985.419	0
986.144	-2
986.87	1
987.596	-1
988.322	1
989.047	-1
989.773	-1
990.498	0
991.224	1
991.949	1
992.674	-1
993.399	1
994.124	1
994.849	0
995.574	-2
996.299	1
997.024	-1
997.749	0
998.473	0
999.198	-1
999.922	1
1000.647	0
1001.371	1
1002.095	-1
1002.82	-2
1003.544	1
1004.268	1
1004.992	0
1005.716	-1
1006.439	-2
1007.163	0
1007.887	0
1008.611	1
1009.334	1
1010.058	0
1010.781	2
1011.504	-2
1012.228	1
1012.951	0
1013.674	1
1014.397	0
1015.12	0
