节点500_145_QEPB04081__201__11-32-10-495.txt的数据

Date: Wed Nov 12 11:32:10 CST 2025
User: PC
Spectrometer: QEPB0408
触发模式: 0
积分时间 (秒): 1.000000E-2
Scans to average: 1
启用暗噪声校正: true
启用非线性校正: false
滑动平均宽度: 0
X轴模式: Wavelengths
Number of Pixels in Spectrum: 1044
>>>>>Begin Spectral Data<<<<<
220.843	1.38
221.644	0.38
222.444	1.38
223.244	-0.62
224.045	-0.62
224.845	1.38
225.645	-0.62
226.445	-0.62
227.245	1.38
228.045	1.38
228.845	-0.62
229.645	0.38
230.444	-0.62
231.244	-0.62
232.043	2.38
232.843	0.38
233.642	3.38
234.442	1.38
235.241	1.38
236.04	1.38
236.839	2.38
237.638	0.38
238.437	0.38
239.236	2.38
240.035	1.38
240.833	3.38
241.632	0.38
242.43	0.38
243.229	2.38
244.027	2.38
244.826	0.38
245.624	4.38
246.422	4.38
247.22	2.38
248.018	1.38
248.816	3.38
249.614	1.38
250.412	1.38
251.21	3.38
252.007	3.38
252.805	4.38
253.602	5.38
254.4	2.38
255.197	1.38
255.994	5.38
256.791	2.38
257.589	3.38
258.386	4.38
259.183	5.38
259.979	5.38
260.776	4.38
261.573	5.38
262.37	6.38
263.166	6.38
263.963	7.38
264.759	4.38
265.556	7.38
266.352	5.38
267.148	7.38
267.944	7.38
268.74	7.38
269.536	8.38
270.332	7.38
271.128	7.38
271.924	9.38
272.719	8.38
273.515	9.38
274.311	8.38
275.106	8.38
275.901	6.38
276.697	10.38
277.492	8.38
278.287	10.38
279.082	9.38
279.877	11.38
280.672	10.38
281.467	11.38
282.262	8.38
283.056	12.38
283.851	9.38
284.646	12.38
285.44	12.38
286.234	10.38
287.029	10.38
287.823	11.38
288.617	9.38
289.411	11.38
290.205	10.38
290.999	9.38
291.793	12.38
292.587	13.38
293.381	12.38
294.174	11.38
294.968	11.38
295.761	10.38
296.555	8.38
297.348	13.38
298.141	7.38
298.935	11.38
299.728	9.38
300.521	10.38
301.314	8.38
302.107	7.38
302.899	9.38
303.692	10.38
304.485	10.38
305.277	3.38
306.07	8.38
306.862	6.38
307.655	9.38
308.447	8.38
309.239	6.38
310.031	6.38
310.823	5.38
311.615	6.38
312.407	5.38
313.199	7.38
313.991	7.38
314.783	4.38
315.574	6.38
316.366	6.38
317.157	6.38
317.949	5.38
318.74	4.38
319.531	5.38
320.322	5.38
321.113	5.38
321.904	4.38
322.695	4.38
323.486	5.38
324.277	3.38
325.068	6.38
325.858	5.38
326.649	7.38
327.439	4.38
328.23	4.38
329.02	4.38
329.81	1.38
330.6	2.38
331.391	4.38
332.181	3.38
332.971	4.38
333.76	3.38
334.55	5.38
335.34	2.38
336.13	5.38
336.919	4.38
337.709	4.38
338.498	2.38
339.287	5.38
340.077	6.38
340.866	4.38
341.655	0.38
342.444	3.38
343.233	6.38
344.022	5.38
344.811	4.38
345.6	2.38
346.388	4.38
347.177	2.38
347.965	4.38
348.754	1.38
349.542	4.38
350.33	2.38
351.119	4.38
351.907	1.38
352.695	3.38
353.483	3.38
354.271	5.38
355.059	4.38
355.846	3.38
356.634	3.38
357.422	3.38
358.209	5.38
358.997	1.38
359.784	4.38
360.571	4.38
361.359	2.38
362.146	2.38
362.933	0.38
363.72	4.38
364.507	1.38
365.294	2.38
366.081	2.38
366.867	2.38
367.654	4.38
368.44	2.38
369.227	1.38
370.013	2.38
370.8	5.38
371.586	4.38
372.372	3.38
373.158	5.38
373.944	2.38
374.73	2.38
375.516	3.38
376.302	5.38
377.088	3.38
377.873	2.38
378.659	3.38
379.445	2.38
380.23	4.38
381.015	3.38
381.801	1.38
382.586	4.38
383.371	3.38
384.156	4.38
384.941	2.38
385.726	5.38
386.511	2.38
387.296	1.38
388.08	1.38
388.865	3.38
389.649	4.38
390.434	2.38
391.218	0.38
392.003	3.38
392.787	2.38
393.571	4.38
394.355	2.38
395.139	3.38
395.923	3.38
396.707	5.38
397.491	3.38
398.274	4.38
399.058	4.38
399.842	4.38
400.625	4.38
401.408	2.38
402.192	2.38
402.975	4.38
403.758	1.38
404.541	2.38
405.324	4.38
406.107	5.38
406.89	4.38
407.673	3.38
408.456	3.38
409.238	4.38
410.021	5.38
410.803	4.38
411.586	4.38
412.368	4.38
413.151	5.38
413.933	4.38
414.715	3.38
415.497	6.38
416.279	5.38
417.061	6.38
417.843	3.38
418.624	7.38
419.406	5.38
420.188	5.38
420.969	2.38
421.751	6.38
422.532	6.38
423.313	6.38
424.095	7.38
424.876	7.38
425.657	6.38
426.438	7.38
427.219	6.38
428	7.38
428.78	7.38
429.561	9.38
430.342	8.38
431.122	7.38
431.903	7.38
432.683	7.38
433.464	8.38
434.244	9.38
435.024	10.38
435.804	13.38
436.584	9.38
437.364	8.38
438.144	9.38
438.924	9.38
439.704	10.38
440.483	14.38
441.263	12.38
442.042	11.38
442.822	12.38
443.601	14.38
444.38	13.38
445.16	13.38
445.939	16.38
446.718	18.38
447.497	17.38
448.276	21.38
449.054	22.38
449.833	23.38
450.612	23.38
451.391	23.38
452.169	29.38
452.948	30.38
453.726	35.38
454.504	35.38
455.282	38.38
456.061	43.38
456.839	49.38
457.617	51.38
458.395	54.38
459.172	65.38
459.95	70.38
460.728	80.38
461.506	86.38
462.283	93.38
463.061	111.38
463.838	123.38
464.615	134.38
465.393	149.38
466.17	168.38
466.947	190.38
467.724	213.38
468.501	229.38
469.278	263.38
470.055	292.38
470.831	322.38
471.608	362.38
472.385	399.38
473.161	440.38
473.938	494.38
474.714	560.38
475.49	618.38
476.266	690.38
477.043	758.38
477.819	845.38
478.595	935.38
479.371	1036.38
480.146	1133.38
480.922	1258.38
481.698	1404.38
482.473	1558.38
483.249	1715.38
484.024	1892.38
484.8	2086.38
485.575	2322.38
486.35	2561.38
487.126	2799.38
487.901	3103.38
488.676	3436.38
489.451	3791.38
490.225	4180.38
491	4599.38
491.775	5040.38
492.55	5549.38
493.324	6096.38
494.099	6674.38
494.873	7276.38
495.647	7950.38
496.422	8658.38
497.196	9350.38
497.97	10140.38
498.744	10855.38
499.518	11687.38
500.292	12480.38
501.066	13201.38
501.839	13885.38
502.613	14569.38
503.387	15254.38
504.16	15720.38
504.934	16150.38
505.707	16500.38
506.48	16741.38
507.253	16834.38
508.027	16924.38
508.8	16824.38
509.573	16576.38
510.346	16311.38
511.118	15951.38
511.891	15441.38
512.664	15035.38
513.437	14417.38
514.209	13843.38
514.982	13272.38
515.754	12741.38
516.526	12139.38
517.298	11621.38
518.071	11034.38
518.843	10581.38
519.615	10158.38
520.387	9685.38
521.159	9364.38
521.93	8966.38
522.702	8608.38
523.474	8281.38
524.245	7913.38
525.017	7655.38
525.788	7349.38
526.56	7023.38
527.331	6729.38
528.102	6426.38
528.873	6122.38
529.644	5849.38
530.415	5596.38
531.186	5298.38
531.957	5042.38
532.728	4776.38
533.498	4533.38
534.269	4262.38
535.039	4009.38
535.81	3792.38
536.58	3609.38
537.351	3377.38
538.121	3192.38
538.891	3018.38
539.661	2843.38
540.431	2670.38
541.201	2554.38
541.971	2429.38
542.741	2279.38
543.51	2166.38
544.28	2064.38
545.05	1971.38
545.819	1887.38
546.588	1784.38
547.358	1681.38
548.127	1603.38
548.896	1537.38
549.665	1458.38
550.434	1370.38
551.203	1316.38
551.972	1249.38
552.741	1170.38
553.51	1111.38
554.278	1048.38
555.047	982.38
555.815	928.38
556.584	872.38
557.352	831.38
558.121	778.38
558.889	736.38
559.657	688.38
560.425	658.38
561.193	615.38
561.961	568.38
562.729	548.38
563.496	515.38
564.264	490.38
565.032	464.38
565.799	434.38
566.567	410.38
567.334	382.38
568.101	364.38
568.869	345.38
569.636	328.38
570.403	311.38
571.17	290.38
571.937	266.38
572.704	259.38
573.471	245.38
574.237	230.38
575.004	217.38
575.771	203.38
576.537	192.38
577.303	179.38
578.07	168.38
578.836	158.38
579.602	154.38
580.368	144.38
581.134	135.38
581.9	125.38
582.666	123.38
583.432	112.38
584.198	106.38
584.964	98.38
585.729	98.38
586.495	91.38
587.26	87.38
588.025	80.38
588.791	75.38
589.556	70.38
590.321	67.38
591.086	68.38
591.851	62.38
592.616	61.38
593.381	54.38
594.146	51.38
594.911	49.38
595.675	48.38
596.44	46.38
597.204	42.38
597.969	41.38
598.733	41.38
599.497	37.38
600.261	35.38
601.025	34.38
601.79	30.38
602.553	31.38
603.317	29.38
604.081	28.38
604.845	30.38
605.609	26.38
606.372	28.38
607.136	24.38
607.899	23.38
608.662	19.38
609.426	23.38
610.189	18.38
610.952	20.38
611.715	17.38
612.478	20.38
613.241	19.38
614.004	14.38
614.767	16.38
615.529	16.38
616.292	14.38
617.055	15.38
617.817	16.38
618.579	13.38
619.342	14.38
620.104	15.38
620.866	13.38
621.628	12.38
622.39	11.38
623.152	10.38
623.914	11.38
624.676	11.38
625.438	8.38
626.199	11.38
626.961	8.38
627.722	8.38
628.484	11.38
629.245	7.38
630.006	7.38
630.768	8.38
631.529	11.38
632.29	8.38
633.051	5.38
633.812	8.38
634.573	8.38
635.333	7.38
636.094	5.38
636.855	5.38
637.615	5.38
638.376	9.38
639.136	6.38
639.896	5.38
640.657	5.38
641.417	3.38
642.177	5.38
642.937	4.38
643.697	5.38
644.457	3.38
645.216	2.38
645.976	5.38
646.736	4.38
647.495	4.38
648.255	3.38
649.014	5.38
649.774	4.38
650.533	6.38
651.292	4.38
652.051	1.38
652.81	6.38
653.569	4.38
654.328	3.38
655.087	5.38
655.846	1.38
656.604	2.38
657.363	3.38
658.121	3.38
658.88	1.38
659.638	5.38
660.397	4.38
661.155	2.38
661.913	1.38
662.671	2.38
663.429	3.38
664.187	1.38
664.945	4.38
665.703	4.38
666.46	5.38
667.218	4.38
667.976	4.38
668.733	3.38
669.49	3.38
670.248	1.38
671.005	1.38
671.762	2.38
672.519	5.38
673.276	2.38
674.033	2.38
674.79	2.38
675.547	1.38
676.304	0.38
677.06	2.38
677.817	1.38
678.574	3.38
679.33	1.38
680.086	3.38
680.843	2.38
681.599	2.38
682.355	1.38
683.111	4.38
683.867	2.38
684.623	3.38
685.379	3.38
686.135	0.38
686.89	2.38
687.646	3.38
688.402	3.38
689.157	0.38
689.912	2.38
690.668	3.38
691.423	2.38
692.178	3.38
692.933	1.38
693.688	1.38
694.443	1.38
695.198	1.38
695.953	3.38
696.708	1.38
697.462	3.38
698.217	2.38
698.972	2.38
699.726	2.38
700.48	4.38
701.235	3.38
701.989	-0.62
702.743	3.38
703.497	1.38
704.251	1.38
705.005	2.38
705.759	2.38
706.513	2.38
707.266	1.38
708.02	2.38
708.774	0.38
709.527	1.38
710.28	2.38
711.034	2.38
711.787	4.38
712.54	1.38
713.293	3.38
714.046	1.38
714.799	1.38
715.552	2.38
716.305	2.38
717.058	1.38
717.81	2.38
718.563	3.38
719.315	3.38
720.068	1.38
720.82	2.38
721.573	0.38
722.325	0.38
723.077	4.38
723.829	3.38
724.581	2.38
725.333	4.38
726.085	1.38
726.836	1.38
727.588	0.38
728.34	3.38
729.091	2.38
729.843	0.38
730.594	1.38
731.346	1.38
732.097	0.38
732.848	2.38
733.599	3.38
734.35	2.38
735.101	3.38
735.852	3.38
736.603	2.38
737.354	2.38
738.104	2.38
738.855	2.38
739.605	3.38
740.356	1.38
741.106	1.38
741.856	2.38
742.607	1.38
743.357	5.38
744.107	2.38
744.857	5.38
745.607	3.38
746.357	3.38
747.106	1.38
747.856	1.38
748.606	2.38
749.355	2.38
750.105	4.38
750.854	3.38
751.603	2.38
752.353	1.38
753.102	3.38
753.851	4.38
754.6	3.38
755.349	3.38
756.098	2.38
756.847	0.38
757.595	4.38
758.344	2.38
759.093	4.38
759.841	2.38
760.589	1.38
761.338	2.38
762.086	2.38
762.834	4.38
763.582	2.38
764.331	2.38
765.079	2.38
765.826	4.38
766.574	2.38
767.322	2.38
768.07	2.38
768.817	3.38
769.565	3.38
770.312	4.38
771.06	5.38
771.807	6.38
772.554	4.38
773.302	5.38
774.049	3.38
774.796	6.38
775.543	4.38
776.29	4.38
777.036	5.38
777.783	6.38
778.53	6.38
779.276	3.38
780.023	7.38
780.769	5.38
781.516	4.38
782.262	4.38
783.008	6.38
783.754	6.38
784.5	5.38
785.246	5.38
785.992	7.38
786.738	4.38
787.484	5.38
788.23	3.38
788.975	4.38
789.721	4.38
790.466	5.38
791.212	7.38
791.957	4.38
792.702	7.38
793.447	5.38
794.193	5.38
794.938	2.38
795.683	7.38
796.427	6.38
797.172	4.38
797.917	4.38
798.662	4.38
799.406	5.38
800.151	4.38
800.895	5.38
801.64	6.38
802.384	4.38
803.128	5.38
803.872	2.38
804.616	4.38
805.36	4.38
806.104	4.38
806.848	6.38
807.592	3.38
808.336	5.38
809.079	6.38
809.823	4.38
810.566	3.38
811.31	3.38
812.053	4.38
812.796	2.38
813.539	2.38
814.283	1.38
815.026	2.38
815.769	3.38
816.511	5.38
817.254	5.38
817.997	3.38
818.74	4.38
819.482	3.38
820.225	5.38
820.967	2.38
821.71	4.38
822.452	3.38
823.194	3.38
823.936	4.38
824.678	2.38
825.42	2.38
826.162	2.38
826.904	3.38
827.646	4.38
828.388	2.38
829.129	1.38
829.871	1.38
830.612	3.38
831.354	4.38
832.095	2.38
832.836	5.38
833.577	1.38
834.319	4.38
835.06	1.38
835.801	3.38
836.542	0.38
837.282	2.38
838.023	2.38
838.764	0.38
839.504	4.38
840.245	1.38
840.985	2.38
841.726	2.38
842.466	2.38
843.206	2.38
843.946	3.38
844.687	1.38
845.427	2.38
846.166	3.38
846.906	1.38
847.646	0.38
848.386	4.38
849.125	0.38
849.865	1.38
850.605	2.38
851.344	1.38
852.083	5.38
852.823	1.38
853.562	-0.62
854.301	2.38
855.04	3.38
855.779	2.38
856.518	0.38
857.257	2.38
857.995	2.38
858.734	1.38
859.473	1.38
860.211	1.38
860.95	1.38
861.688	2.38
862.426	2.38
863.165	1.38
863.903	1.38
864.641	2.38
865.379	4.38
866.117	3.38
866.855	1.38
867.593	0.38
868.33	3.38
869.068	2.38
869.806	0.38
870.543	1.38
871.28	-0.62
872.018	0.38
872.755	1.38
873.492	0.38
874.229	1.38
874.967	-1.62
875.703	1.38
876.44	-1.62
877.177	1.38
877.914	2.38
878.651	0.38
879.387	0.38
880.124	1.38
880.86	1.38
881.597	2.38
882.333	1.38
883.069	1.38
883.806	2.38
884.542	2.38
885.278	1.38
886.014	1.38
886.749	0.38
887.485	-0.62
888.221	1.38
888.957	-0.62
889.692	0.38
890.428	-0.62
891.163	2.38
891.899	0.38
892.634	-1.62
893.369	1.38
894.104	-2.62
894.839	1.38
895.574	2.38
896.309	2.38
897.044	2.38
897.779	2.38
898.514	2.38
899.248	-1.62
899.983	1.38
900.717	-1.62
901.452	-1.62
902.186	0.38
902.92	0.38
903.654	0.38
904.389	-0.62
905.123	1.38
905.857	1.38
906.59	2.38
907.324	2.38
908.058	0.38
908.792	0.38
909.525	-2.62
910.259	-0.62
910.992	-1.62
911.726	1.38
912.459	-0.62
913.192	-2.62
913.925	-0.62
914.658	0.38
915.391	1.38
916.124	0.38
916.857	0.38
917.59	-1.62
918.323	-0.62
919.055	1.38
919.788	2.38
920.521	0.38
921.253	1.38
921.985	1.38
922.718	-1.62
923.45	2.38
924.182	2.38
924.914	-0.62
925.646	2.38
926.378	2.38
927.11	-1.62
927.841	-0.62
928.573	-0.62
929.305	1.38
930.036	0.38
930.768	3.38
931.499	0.38
932.23	0.38
932.962	1.38
933.693	-0.62
934.424	0.38
935.155	0.38
935.886	3.38
936.617	2.38
937.348	0.38
938.078	-1.62
938.809	1.38
939.54	1.38
940.27	1.38
941.001	0.38
941.731	0.38
942.461	-1.62
943.191	0.38
943.922	-1.62
944.652	1.38
945.382	1.38
946.112	1.38
946.841	-0.62
947.571	1.38
948.301	1.38
949.031	-0.62
949.76	3.38
950.49	0.38
951.219	-0.62
951.948	1.38
952.678	1.38
953.407	2.38
954.136	1.38
954.865	2.38
955.594	-2.62
956.323	1.38
957.052	1.38
957.78	1.38
958.509	-1.62
959.238	-0.62
959.966	0.38
960.695	1.38
961.423	-1.62
962.151	1.38
962.88	1.38
963.608	-0.62
964.336	-0.62
965.064	3.38
965.792	-0.62
966.52	1.38
967.247	1.38
967.975	0.38
968.703	0.38
969.43	0.38
970.158	0.38
970.885	1.38
971.613	0.38
972.34	0.38
973.067	-0.62
973.794	0.38
974.521	0.38
975.248	0.38
975.975	1.38
976.702	2.38
977.429	0.38
978.156	-1.62
978.882	-0.62
979.609	0.38
980.335	0.38
981.062	-1.62
981.788	1.38
982.514	0.38
983.24	1.38
983.967	-0.62
984.693	-1.62
985.419	4.38
986.144	-0.62
986.87	-0.62
987.596	1.38
988.322	-0.62
989.047	0.38
989.773	0.38
990.498	-0.62
991.224	0.38
991.949	-1.62
992.674	0.38
993.399	-0.62
994.124	2.38
994.849	-1.62
995.574	4.38
996.299	-1.62
997.024	1.38
997.749	1.38
998.473	0.38
999.198	0.38
999.922	3.38
1000.647	1.38
1001.371	5.38
1002.095	-1.62
1002.82	-1.62
1003.544	1.38
1004.268	-0.62
1004.992	0.38
1005.716	0.38
1006.439	-0.62
1007.163	-0.62
1007.887	-0.62
1008.611	1.38
1009.334	-0.62
1010.058	-0.62
1010.781	-2.62
1011.504	-0.62
1012.228	1.38
1012.951	0.38
1013.674	0.38
1014.397	-1.62
1015.12	-2.62
