节点500_145_QEPB04081__96__11-30-30-584.txt的数据

Date: Wed Nov 12 11:30:30 CST 2025
User: PC
Spectrometer: QEPB0408
触发模式: 0
积分时间 (秒): 1.000000E-2
Scans to average: 1
启用暗噪声校正: true
启用非线性校正: false
滑动平均宽度: 0
X轴模式: Wavelengths
Number of Pixels in Spectrum: 1044
>>>>>Begin Spectral Data<<<<<
220.843	-1.62
221.644	-1.62
222.444	2.38
223.244	2.38
224.045	0.38
224.845	-0.62
225.645	1.38
226.445	0.38
227.245	0.38
228.045	1.38
228.845	0.38
229.645	0.38
230.444	1.38
231.244	-2.62
232.043	2.38
232.843	-0.62
233.642	3.38
234.442	1.38
235.241	-0.62
236.04	1.38
236.839	1.38
237.638	0.38
238.437	1.38
239.236	0.38
240.035	0.38
240.833	0.38
241.632	2.38
242.43	2.38
243.229	1.38
244.027	1.38
244.826	2.38
245.624	3.38
246.422	3.38
247.22	1.38
248.018	2.38
248.816	4.38
249.614	2.38
250.412	-1.62
251.21	3.38
252.007	3.38
252.805	4.38
253.602	5.38
254.4	4.38
255.197	2.38
255.994	3.38
256.791	2.38
257.589	3.38
258.386	4.38
259.183	3.38
259.979	5.38
260.776	4.38
261.573	5.38
262.37	3.38
263.166	6.38
263.963	8.38
264.759	6.38
265.556	7.38
266.352	7.38
267.148	6.38
267.944	7.38
268.74	7.38
269.536	9.38
270.332	6.38
271.128	7.38
271.924	6.38
272.719	7.38
273.515	8.38
274.311	7.38
275.106	11.38
275.901	7.38
276.697	9.38
277.492	11.38
278.287	9.38
279.082	12.38
279.877	10.38
280.672	11.38
281.467	12.38
282.262	10.38
283.056	10.38
283.851	13.38
284.646	10.38
285.44	13.38
286.234	10.38
287.029	10.38
287.823	10.38
288.617	10.38
289.411	12.38
290.205	12.38
290.999	11.38
291.793	8.38
292.587	11.38
293.381	9.38
294.174	9.38
294.968	7.38
295.761	10.38
296.555	11.38
297.348	11.38
298.141	13.38
298.935	10.38
299.728	10.38
300.521	10.38
301.314	11.38
302.107	9.38
302.899	7.38
303.692	9.38
304.485	8.38
305.277	10.38
306.07	8.38
306.862	10.38
307.655	8.38
308.447	7.38
309.239	6.38
310.031	7.38
310.823	8.38
311.615	8.38
312.407	6.38
313.199	9.38
313.991	5.38
314.783	7.38
315.574	3.38
316.366	6.38
317.157	7.38
317.949	6.38
318.74	8.38
319.531	6.38
320.322	5.38
321.113	4.38
321.904	3.38
322.695	5.38
323.486	5.38
324.277	4.38
325.068	2.38
325.858	5.38
326.649	5.38
327.439	4.38
328.23	4.38
329.02	5.38
329.81	5.38
330.6	2.38
331.391	4.38
332.181	1.38
332.971	5.38
333.76	2.38
334.55	4.38
335.34	6.38
336.13	4.38
336.919	6.38
337.709	4.38
338.498	3.38
339.287	3.38
340.077	2.38
340.866	2.38
341.655	2.38
342.444	3.38
343.233	4.38
344.022	4.38
344.811	3.38
345.6	1.38
346.388	3.38
347.177	3.38
347.965	5.38
348.754	1.38
349.542	4.38
350.33	4.38
351.119	4.38
351.907	4.38
352.695	4.38
353.483	3.38
354.271	3.38
355.059	1.38
355.846	1.38
356.634	5.38
357.422	3.38
358.209	4.38
358.997	5.38
359.784	4.38
360.571	4.38
361.359	2.38
362.146	1.38
362.933	2.38
363.72	3.38
364.507	3.38
365.294	2.38
366.081	2.38
366.867	2.38
367.654	0.38
368.44	3.38
369.227	3.38
370.013	2.38
370.8	2.38
371.586	1.38
372.372	0.38
373.158	1.38
373.944	1.38
374.73	0.38
375.516	3.38
376.302	3.38
377.088	2.38
377.873	2.38
378.659	1.38
379.445	2.38
380.23	2.38
381.015	3.38
381.801	2.38
382.586	1.38
383.371	2.38
384.156	1.38
384.941	5.38
385.726	4.38
386.511	2.38
387.296	4.38
388.08	3.38
388.865	2.38
389.649	2.38
390.434	3.38
391.218	3.38
392.003	5.38
392.787	2.38
393.571	5.38
394.355	5.38
395.139	3.38
395.923	1.38
396.707	5.38
397.491	2.38
398.274	4.38
399.058	4.38
399.842	2.38
400.625	4.38
401.408	1.38
402.192	5.38
402.975	3.38
403.758	3.38
404.541	2.38
405.324	4.38
406.107	5.38
406.89	3.38
407.673	5.38
408.456	3.38
409.238	3.38
410.021	7.38
410.803	4.38
411.586	4.38
412.368	5.38
413.151	5.38
413.933	7.38
414.715	7.38
415.497	4.38
416.279	5.38
417.061	3.38
417.843	6.38
418.624	5.38
419.406	6.38
420.188	5.38
420.969	4.38
421.751	6.38
422.532	7.38
423.313	7.38
424.095	7.38
424.876	5.38
425.657	8.38
426.438	7.38
427.219	5.38
428	9.38
428.78	7.38
429.561	5.38
430.342	7.38
431.122	7.38
431.903	6.38
432.683	10.38
433.464	6.38
434.244	8.38
435.024	11.38
435.804	7.38
436.584	10.38
437.364	10.38
438.144	12.38
438.924	11.38
439.704	12.38
440.483	13.38
441.263	14.38
442.042	13.38
442.822	14.38
443.601	14.38
444.38	15.38
445.16	16.38
445.939	18.38
446.718	16.38
447.497	18.38
448.276	18.38
449.054	21.38
449.833	23.38
450.612	24.38
451.391	25.38
452.169	28.38
452.948	30.38
453.726	34.38
454.504	37.38
455.282	37.38
456.061	41.38
456.839	47.38
457.617	50.38
458.395	55.38
459.172	64.38
459.95	68.38
460.728	71.38
461.506	82.38
462.283	96.38
463.061	103.38
463.838	117.38
464.615	131.38
465.393	149.38
466.17	166.38
466.947	175.38
467.724	204.38
468.501	225.38
469.278	256.38
470.055	287.38
470.831	317.38
471.608	349.38
472.385	384.38
473.161	436.38
473.938	479.38
474.714	538.38
475.49	594.38
476.266	674.38
477.043	744.38
477.819	825.38
478.595	910.38
479.371	1025.38
480.146	1128.38
480.922	1258.38
481.698	1396.38
482.473	1544.38
483.249	1718.38
484.024	1908.38
484.8	2103.38
485.575	2331.38
486.35	2585.38
487.126	2878.38
487.901	3188.38
488.676	3523.38
489.451	3886.38
490.225	4316.38
491	4749.38
491.775	5241.38
492.55	5761.38
493.324	6350.38
494.099	6952.38
494.873	7640.38
495.647	8314.38
496.422	9076.38
497.196	9801.38
497.97	10643.38
498.744	11454.38
499.518	12257.38
500.292	13049.38
501.066	13814.38
501.839	14532.38
502.613	15256.38
503.387	15852.38
504.16	16343.38
504.934	16774.38
505.707	17096.38
506.48	17317.38
507.253	17379.38
508.027	17360.38
508.8	17223.38
509.573	16950.38
510.346	16592.38
511.118	16108.38
511.891	15575.38
512.664	15009.38
513.437	14469.38
514.209	13861.38
514.982	13235.38
515.754	12685.38
516.526	12074.38
517.298	11516.38
518.071	11015.38
518.843	10513.38
519.615	9986.38
520.387	9653.38
521.159	9302.38
521.93	8935.38
522.702	8509.38
523.474	8183.38
524.245	7900.38
525.017	7597.38
525.788	7297.38
526.56	7001.38
527.331	6712.38
528.102	6395.38
528.873	6049.38
529.644	5792.38
530.415	5521.38
531.186	5262.38
531.957	4932.38
532.728	4691.38
533.498	4419.38
534.269	4220.38
535.039	3959.38
535.81	3725.38
536.58	3497.38
537.351	3297.38
538.121	3120.38
538.891	2948.38
539.661	2798.38
540.431	2661.38
541.201	2492.38
541.971	2352.38
542.741	2260.38
543.51	2126.38
544.28	2006.38
545.05	1925.38
545.819	1829.38
546.588	1745.38
547.358	1650.38
548.127	1572.38
548.896	1503.38
549.665	1419.38
550.434	1341.38
551.203	1271.38
551.972	1193.38
552.741	1138.38
553.51	1078.38
554.278	1024.38
555.047	960.38
555.815	905.38
556.584	853.38
557.352	809.38
558.121	757.38
558.889	715.38
559.657	672.38
560.425	629.38
561.193	596.38
561.961	563.38
562.729	526.38
563.496	503.38
564.264	473.38
565.032	451.38
565.799	421.38
566.567	402.38
567.334	375.38
568.101	359.38
568.869	338.38
569.636	318.38
570.403	299.38
571.17	282.38
571.937	266.38
572.704	247.38
573.471	238.38
574.237	222.38
575.004	210.38
575.771	196.38
576.537	185.38
577.303	174.38
578.07	163.38
578.836	157.38
579.602	144.38
580.368	139.38
581.134	132.38
581.9	123.38
582.666	115.38
583.432	109.38
584.198	108.38
584.964	98.38
585.729	93.38
586.495	89.38
587.26	78.38
588.025	77.38
588.791	71.38
589.556	74.38
590.321	64.38
591.086	64.38
591.851	61.38
592.616	56.38
593.381	53.38
594.146	52.38
594.911	49.38
595.675	46.38
596.44	42.38
597.204	40.38
597.969	42.38
598.733	41.38
599.497	36.38
600.261	34.38
601.025	34.38
601.79	32.38
602.553	31.38
603.317	30.38
604.081	26.38
604.845	25.38
605.609	29.38
606.372	25.38
607.136	21.38
607.899	22.38
608.662	21.38
609.426	20.38
610.189	21.38
610.952	21.38
611.715	18.38
612.478	18.38
613.241	17.38
614.004	15.38
614.767	15.38
615.529	16.38
616.292	14.38
617.055	14.38
617.817	13.38
618.579	13.38
619.342	12.38
620.104	14.38
620.866	13.38
621.628	11.38
622.39	9.38
623.152	11.38
623.914	11.38
624.676	8.38
625.438	11.38
626.199	11.38
626.961	9.38
627.722	11.38
628.484	5.38
629.245	9.38
630.006	5.38
630.768	8.38
631.529	8.38
632.29	6.38
633.051	6.38
633.812	5.38
634.573	4.38
635.333	8.38
636.094	6.38
636.855	8.38
637.615	6.38
638.376	8.38
639.136	5.38
639.896	5.38
640.657	7.38
641.417	6.38
642.177	3.38
642.937	5.38
643.697	6.38
644.457	4.38
645.216	5.38
645.976	2.38
646.736	3.38
647.495	4.38
648.255	3.38
649.014	3.38
649.774	4.38
650.533	4.38
651.292	5.38
652.051	4.38
652.81	3.38
653.569	3.38
654.328	2.38
655.087	3.38
655.846	4.38
656.604	3.38
657.363	4.38
658.121	3.38
658.88	5.38
659.638	3.38
660.397	4.38
661.155	5.38
661.913	2.38
662.671	3.38
663.429	0.38
664.187	2.38
664.945	2.38
665.703	3.38
666.46	1.38
667.218	4.38
667.976	1.38
668.733	2.38
669.49	2.38
670.248	1.38
671.005	2.38
671.762	2.38
672.519	4.38
673.276	1.38
674.033	3.38
674.79	4.38
675.547	1.38
676.304	2.38
677.06	2.38
677.817	3.38
678.574	2.38
679.33	3.38
680.086	2.38
680.843	3.38
681.599	2.38
682.355	3.38
683.111	0.38
683.867	3.38
684.623	4.38
685.379	2.38
686.135	2.38
686.89	2.38
687.646	1.38
688.402	2.38
689.157	2.38
689.912	3.38
690.668	4.38
691.423	1.38
692.178	2.38
692.933	1.38
693.688	0.38
694.443	2.38
695.198	1.38
695.953	0.38
696.708	1.38
697.462	2.38
698.217	1.38
698.972	0.38
699.726	1.38
700.48	2.38
701.235	-0.62
701.989	2.38
702.743	3.38
703.497	3.38
704.251	1.38
705.005	1.38
705.759	1.38
706.513	2.38
707.266	1.38
708.02	2.38
708.774	1.38
709.527	1.38
710.28	1.38
711.034	1.38
711.787	2.38
712.54	1.38
713.293	3.38
714.046	1.38
714.799	5.38
715.552	1.38
716.305	1.38
717.058	0.38
717.81	2.38
718.563	3.38
719.315	2.38
720.068	2.38
720.82	2.38
721.573	3.38
722.325	2.38
723.077	1.38
723.829	3.38
724.581	1.38
725.333	1.38
726.085	1.38
726.836	2.38
727.588	1.38
728.34	3.38
729.091	2.38
729.843	2.38
730.594	2.38
731.346	2.38
732.097	2.38
732.848	2.38
733.599	1.38
734.35	5.38
735.101	1.38
735.852	0.38
736.603	2.38
737.354	2.38
738.104	4.38
738.855	3.38
739.605	3.38
740.356	4.38
741.106	2.38
741.856	2.38
742.607	2.38
743.357	3.38
744.107	4.38
744.857	3.38
745.607	2.38
746.357	3.38
747.106	4.38
747.856	1.38
748.606	4.38
749.355	2.38
750.105	3.38
750.854	0.38
751.603	3.38
752.353	1.38
753.102	2.38
753.851	1.38
754.6	1.38
755.349	4.38
756.098	4.38
756.847	4.38
757.595	4.38
758.344	4.38
759.093	3.38
759.841	3.38
760.589	5.38
761.338	2.38
762.086	4.38
762.834	1.38
763.582	5.38
764.331	1.38
765.079	4.38
765.826	5.38
766.574	4.38
767.322	3.38
768.07	3.38
768.817	4.38
769.565	6.38
770.312	2.38
771.06	4.38
771.807	5.38
772.554	5.38
773.302	2.38
774.049	3.38
774.796	6.38
775.543	4.38
776.29	6.38
777.036	4.38
777.783	1.38
778.53	5.38
779.276	6.38
780.023	8.38
780.769	5.38
781.516	6.38
782.262	6.38
783.008	5.38
783.754	8.38
784.5	4.38
785.246	3.38
785.992	4.38
786.738	6.38
787.484	6.38
788.23	5.38
788.975	6.38
789.721	3.38
790.466	6.38
791.212	7.38
791.957	3.38
792.702	7.38
793.447	5.38
794.193	5.38
794.938	2.38
795.683	7.38
796.427	5.38
797.172	5.38
797.917	6.38
798.662	5.38
799.406	4.38
800.151	5.38
800.895	6.38
801.64	4.38
802.384	6.38
803.128	6.38
803.872	5.38
804.616	5.38
805.36	4.38
806.104	4.38
806.848	5.38
807.592	3.38
808.336	3.38
809.079	3.38
809.823	5.38
810.566	2.38
811.31	6.38
812.053	7.38
812.796	4.38
813.539	2.38
814.283	1.38
815.026	3.38
815.769	2.38
816.511	6.38
817.254	2.38
817.997	3.38
818.74	6.38
819.482	2.38
820.225	3.38
820.967	2.38
821.71	4.38
822.452	3.38
823.194	2.38
823.936	3.38
824.678	3.38
825.42	2.38
826.162	3.38
826.904	3.38
827.646	1.38
828.388	2.38
829.129	5.38
829.871	2.38
830.612	5.38
831.354	3.38
832.095	2.38
832.836	2.38
833.577	2.38
834.319	4.38
835.06	1.38
835.801	5.38
836.542	2.38
837.282	4.38
838.023	1.38
838.764	5.38
839.504	1.38
840.245	1.38
840.985	4.38
841.726	2.38
842.466	2.38
843.206	1.38
843.946	0.38
844.687	3.38
845.427	2.38
846.166	2.38
846.906	3.38
847.646	2.38
848.386	1.38
849.125	2.38
849.865	4.38
850.605	-1.62
851.344	3.38
852.083	2.38
852.823	0.38
853.562	1.38
854.301	1.38
855.04	2.38
855.779	3.38
856.518	1.38
857.257	1.38
857.995	2.38
858.734	2.38
859.473	0.38
860.211	2.38
860.95	2.38
861.688	3.38
862.426	0.38
863.165	1.38
863.903	1.38
864.641	1.38
865.379	1.38
866.117	1.38
866.855	1.38
867.593	3.38
868.33	1.38
869.068	1.38
869.806	-0.62
870.543	1.38
871.28	2.38
872.018	1.38
872.755	0.38
873.492	2.38
874.229	0.38
874.967	0.38
875.703	2.38
876.44	0.38
877.177	2.38
877.914	-0.62
878.651	1.38
879.387	2.38
880.124	0.38
880.86	-0.62
881.597	1.38
882.333	0.38
883.069	-1.62
883.806	0.38
884.542	-0.62
885.278	-0.62
886.014	1.38
886.749	1.38
887.485	1.38
888.221	1.38
888.957	0.38
889.692	1.38
890.428	2.38
891.163	2.38
891.899	0.38
892.634	1.38
893.369	2.38
894.104	0.38
894.839	3.38
895.574	-0.62
896.309	1.38
897.044	1.38
897.779	0.38
898.514	0.38
899.248	1.38
899.983	0.38
900.717	1.38
901.452	0.38
902.186	2.38
902.92	1.38
903.654	-0.62
904.389	1.38
905.123	4.38
905.857	0.38
906.59	-1.62
907.324	0.38
908.058	0.38
908.792	0.38
909.525	-1.62
910.259	-0.62
910.992	1.38
911.726	1.38
912.459	1.38
913.192	0.38
913.925	1.38
914.658	-0.62
915.391	-0.62
916.124	2.38
916.857	0.38
917.59	1.38
918.323	-0.62
919.055	-0.62
919.788	2.38
920.521	-1.62
921.253	1.38
921.985	0.38
922.718	1.38
923.45	0.38
924.182	0.38
924.914	1.38
925.646	2.38
926.378	2.38
927.11	-0.62
927.841	0.38
928.573	0.38
929.305	3.38
930.036	0.38
930.768	-2.62
931.499	2.38
932.23	1.38
932.962	0.38
933.693	-1.62
934.424	3.38
935.155	0.38
935.886	0.38
936.617	1.38
937.348	1.38
938.078	2.38
938.809	-1.62
939.54	2.38
940.27	2.38
941.001	0.38
941.731	2.38
942.461	0.38
943.191	2.38
943.922	2.38
944.652	1.38
945.382	1.38
946.112	-0.62
946.841	0.38
947.571	-1.62
948.301	-0.62
949.031	0.38
949.76	3.38
950.49	-1.62
951.219	-1.62
951.948	-0.62
952.678	2.38
953.407	0.38
954.136	-0.62
954.865	2.38
955.594	0.38
956.323	0.38
957.052	1.38
957.78	0.38
958.509	1.38
959.238	0.38
959.966	1.38
960.695	1.38
961.423	-0.62
962.151	1.38
962.88	0.38
963.608	-1.62
964.336	1.38
965.064	-1.62
965.792	-0.62
966.52	1.38
967.247	2.38
967.975	-0.62
968.703	1.38
969.43	0.38
970.158	-1.62
970.885	0.38
971.613	0.38
972.34	0.38
973.067	2.38
973.794	1.38
974.521	0.38
975.248	-0.62
975.975	1.38
976.702	0.38
977.429	3.38
978.156	1.38
978.882	-1.62
979.609	0.38
980.335	0.38
981.062	1.38
981.788	-0.62
982.514	1.38
983.24	0.38
983.967	-0.62
984.693	0.38
985.419	2.38
986.144	0.38
986.87	1.38
987.596	0.38
988.322	-0.62
989.047	-1.62
989.773	-0.62
990.498	1.38
991.224	2.38
991.949	-0.62
992.674	-2.62
993.399	0.38
994.124	-1.62
994.849	1.38
995.574	1.38
996.299	1.38
997.024	-1.62
997.749	0.38
998.473	1.38
999.198	-0.62
999.922	3.38
1000.647	-1.62
1001.371	2.38
1002.095	-0.62
1002.82	-2.62
1003.544	0.38
1004.268	-1.62
1004.992	-0.62
1005.716	-2.62
1006.439	0.38
1007.163	0.38
1007.887	0.38
1008.611	1.38
1009.334	-0.62
1010.058	1.38
1010.781	1.38
1011.504	-0.62
1012.228	2.38
1012.951	1.38
1013.674	-0.62
1014.397	0.38
1015.12	-0.62
