节点500_145_QEPB04081__67__11-30-01-694.txt的数据

Date: Wed Nov 12 11:30:01 CST 2025
User: PC
Spectrometer: QEPB0408
触发模式: 0
积分时间 (秒): 1.000000E-2
Scans to average: 1
启用暗噪声校正: true
启用非线性校正: false
滑动平均宽度: 0
X轴模式: Wavelengths
Number of Pixels in Spectrum: 1044
>>>>>Begin Spectral Data<<<<<
220.843	0.75
221.644	0.75
222.444	0.75
223.244	1.75
224.045	0.75
224.845	0.75
225.645	0.75
226.445	-0.25
227.245	1.75
228.045	1.75
228.845	1.75
229.645	-0.25
230.444	-1.25
231.244	0.75
232.043	-0.25
232.843	0.75
233.642	2.75
234.442	1.75
235.241	1.75
236.04	2.75
236.839	2.75
237.638	2.75
238.437	-0.25
239.236	2.75
240.035	1.75
240.833	1.75
241.632	2.75
242.43	3.75
243.229	1.75
244.027	2.75
244.826	1.75
245.624	1.75
246.422	-0.25
247.22	0.75
248.018	1.75
248.816	3.75
249.614	5.75
250.412	6.75
251.21	1.75
252.007	3.75
252.805	1.75
253.602	2.75
254.4	3.75
255.197	1.75
255.994	5.75
256.791	3.75
257.589	5.75
258.386	3.75
259.183	3.75
259.979	4.75
260.776	3.75
261.573	5.75
262.37	3.75
263.166	5.75
263.963	7.75
264.759	6.75
265.556	7.75
266.352	5.75
267.148	7.75
267.944	6.75
268.74	6.75
269.536	7.75
270.332	9.75
271.128	8.75
271.924	8.75
272.719	10.75
273.515	8.75
274.311	10.75
275.106	10.75
275.901	10.75
276.697	10.75
277.492	9.75
278.287	11.75
279.082	9.75
279.877	11.75
280.672	10.75
281.467	12.75
282.262	8.75
283.056	9.75
283.851	14.75
284.646	10.75
285.44	13.75
286.234	11.75
287.029	10.75
287.823	13.75
288.617	11.75
289.411	12.75
290.205	11.75
290.999	12.75
291.793	10.75
292.587	12.75
293.381	10.75
294.174	8.75
294.968	11.75
295.761	10.75
296.555	9.75
297.348	9.75
298.141	9.75
298.935	11.75
299.728	9.75
300.521	8.75
301.314	7.75
302.107	10.75
302.899	7.75
303.692	9.75
304.485	9.75
305.277	6.75
306.07	9.75
306.862	7.75
307.655	7.75
308.447	10.75
309.239	8.75
310.031	8.75
310.823	3.75
311.615	6.75
312.407	7.75
313.199	6.75
313.991	7.75
314.783	4.75
315.574	7.75
316.366	3.75
317.157	6.75
317.949	7.75
318.74	5.75
319.531	6.75
320.322	3.75
321.113	5.75
321.904	5.75
322.695	4.75
323.486	8.75
324.277	3.75
325.068	5.75
325.858	4.75
326.649	4.75
327.439	3.75
328.23	5.75
329.02	3.75
329.81	3.75
330.6	6.75
331.391	2.75
332.181	4.75
332.971	2.75
333.76	2.75
334.55	4.75
335.34	2.75
336.13	5.75
336.919	0.75
337.709	0.75
338.498	5.75
339.287	2.75
340.077	1.75
340.866	2.75
341.655	3.75
342.444	2.75
343.233	5.75
344.022	4.75
344.811	1.75
345.6	5.75
346.388	1.75
347.177	4.75
347.965	2.75
348.754	2.75
349.542	5.75
350.33	5.75
351.119	4.75
351.907	3.75
352.695	2.75
353.483	2.75
354.271	3.75
355.059	3.75
355.846	3.75
356.634	2.75
357.422	2.75
358.209	4.75
358.997	2.75
359.784	4.75
360.571	2.75
361.359	2.75
362.146	2.75
362.933	0.75
363.72	2.75
364.507	2.75
365.294	5.75
366.081	2.75
366.867	-0.25
367.654	3.75
368.44	2.75
369.227	1.75
370.013	4.75
370.8	3.75
371.586	3.75
372.372	3.75
373.158	3.75
373.944	3.75
374.73	4.75
375.516	3.75
376.302	2.75
377.088	3.75
377.873	4.75
378.659	4.75
379.445	2.75
380.23	2.75
381.015	2.75
381.801	1.75
382.586	3.75
383.371	0.75
384.156	4.75
384.941	4.75
385.726	3.75
386.511	5.75
387.296	3.75
388.08	5.75
388.865	3.75
389.649	5.75
390.434	5.75
391.218	2.75
392.003	4.75
392.787	-1.25
393.571	5.75
394.355	3.75
395.139	3.75
395.923	4.75
396.707	3.75
397.491	4.75
398.274	2.75
399.058	5.75
399.842	2.75
400.625	5.75
401.408	2.75
402.192	5.75
402.975	4.75
403.758	3.75
404.541	4.75
405.324	2.75
406.107	5.75
406.89	4.75
407.673	5.75
408.456	4.75
409.238	6.75
410.021	4.75
410.803	3.75
411.586	5.75
412.368	5.75
413.151	5.75
413.933	4.75
414.715	5.75
415.497	5.75
416.279	6.75
417.061	5.75
417.843	4.75
418.624	5.75
419.406	7.75
420.188	6.75
420.969	2.75
421.751	6.75
422.532	4.75
423.313	6.75
424.095	4.75
424.876	7.75
425.657	7.75
426.438	5.75
427.219	7.75
428	7.75
428.78	8.75
429.561	6.75
430.342	10.75
431.122	8.75
431.903	9.75
432.683	9.75
433.464	6.75
434.244	7.75
435.024	8.75
435.804	9.75
436.584	10.75
437.364	13.75
438.144	11.75
438.924	11.75
439.704	9.75
440.483	9.75
441.263	10.75
442.042	15.75
442.822	14.75
443.601	14.75
444.38	13.75
445.16	15.75
445.939	16.75
446.718	18.75
447.497	18.75
448.276	19.75
449.054	18.75
449.833	23.75
450.612	27.75
451.391	23.75
452.169	29.75
452.948	28.75
453.726	31.75
454.504	37.75
455.282	38.75
456.061	39.75
456.839	46.75
457.617	46.75
458.395	54.75
459.172	59.75
459.95	67.75
460.728	73.75
461.506	82.75
462.283	89.75
463.061	104.75
463.838	114.75
464.615	122.75
465.393	135.75
466.17	156.75
466.947	178.75
467.724	194.75
468.501	218.75
469.278	242.75
470.055	272.75
470.831	302.75
471.608	342.75
472.385	383.75
473.161	421.75
473.938	473.75
474.714	524.75
475.49	598.75
476.266	652.75
477.043	739.75
477.819	813.75
478.595	890.75
479.371	995.75
480.146	1122.75
480.922	1245.75
481.698	1383.75
482.473	1538.75
483.249	1700.75
484.024	1868.75
484.8	2086.75
485.575	2303.75
486.35	2573.75
487.126	2840.75
487.901	3143.75
488.676	3474.75
489.451	3838.75
490.225	4261.75
491	4728.75
491.775	5200.75
492.55	5748.75
493.324	6325.75
494.099	6938.75
494.873	7621.75
495.647	8318.75
496.422	9066.75
497.196	9804.75
497.97	10624.75
498.744	11443.75
499.518	12270.75
500.292	12974.75
501.066	13779.75
501.839	14505.75
502.613	15175.75
503.387	15839.75
504.16	16310.75
504.934	16714.75
505.707	16981.75
506.48	17213.75
507.253	17295.75
508.027	17219.75
508.8	17117.75
509.573	16812.75
510.346	16495.75
511.118	15989.75
511.891	15501.75
512.664	14891.75
513.437	14323.75
514.209	13756.75
514.982	13138.75
515.754	12521.75
516.526	11976.75
517.298	11374.75
518.071	10909.75
518.843	10354.75
519.615	9921.75
520.387	9545.75
521.159	9152.75
521.93	8813.75
522.702	8455.75
523.474	8119.75
524.245	7800.75
525.017	7462.75
525.788	7201.75
526.56	6899.75
527.331	6576.75
528.102	6324.75
528.873	6012.75
529.644	5730.75
530.415	5471.75
531.186	5181.75
531.957	4905.75
532.728	4615.75
533.498	4372.75
534.269	4152.75
535.039	3892.75
535.81	3670.75
536.58	3479.75
537.351	3277.75
538.121	3093.75
538.891	2910.75
539.661	2747.75
540.431	2631.75
541.201	2460.75
541.971	2357.75
542.741	2185.75
543.51	2098.75
544.28	2005.75
545.05	1897.75
545.819	1814.75
546.588	1706.75
547.358	1629.75
548.127	1547.75
548.896	1478.75
549.665	1395.75
550.434	1327.75
551.203	1250.75
551.972	1195.75
552.741	1116.75
553.51	1072.75
554.278	1017.75
555.047	950.75
555.815	897.75
556.584	835.75
557.352	787.75
558.121	743.75
558.889	706.75
559.657	653.75
560.425	634.75
561.193	591.75
561.961	554.75
562.729	526.75
563.496	489.75
564.264	466.75
565.032	439.75
565.799	420.75
566.567	388.75
567.334	371.75
568.101	346.75
568.869	327.75
569.636	305.75
570.403	288.75
571.17	281.75
571.937	262.75
572.704	249.75
573.471	234.75
574.237	221.75
575.004	202.75
575.771	197.75
576.537	179.75
577.303	173.75
578.07	163.75
578.836	154.75
579.602	146.75
580.368	138.75
581.134	124.75
581.9	118.75
582.666	112.75
583.432	108.75
584.198	100.75
584.964	96.75
585.729	95.75
586.495	89.75
587.26	81.75
588.025	76.75
588.791	74.75
589.556	72.75
590.321	65.75
591.086	65.75
591.851	58.75
592.616	53.75
593.381	54.75
594.146	51.75
594.911	48.75
595.675	46.75
596.44	44.75
597.204	42.75
597.969	38.75
598.733	41.75
599.497	36.75
600.261	37.75
601.025	32.75
601.79	32.75
602.553	29.75
603.317	30.75
604.081	27.75
604.845	26.75
605.609	24.75
606.372	24.75
607.136	25.75
607.899	24.75
608.662	19.75
609.426	19.75
610.189	18.75
610.952	19.75
611.715	19.75
612.478	17.75
613.241	16.75
614.004	19.75
614.767	14.75
615.529	14.75
616.292	14.75
617.055	13.75
617.817	14.75
618.579	13.75
619.342	11.75
620.104	14.75
620.866	9.75
621.628	9.75
622.39	11.75
623.152	9.75
623.914	10.75
624.676	10.75
625.438	10.75
626.199	11.75
626.961	9.75
627.722	8.75
628.484	9.75
629.245	8.75
630.006	7.75
630.768	6.75
631.529	8.75
632.29	7.75
633.051	6.75
633.812	9.75
634.573	7.75
635.333	6.75
636.094	7.75
636.855	5.75
637.615	7.75
638.376	3.75
639.136	5.75
639.896	4.75
640.657	5.75
641.417	3.75
642.177	4.75
642.937	5.75
643.697	4.75
644.457	7.75
645.216	3.75
645.976	4.75
646.736	3.75
647.495	4.75
648.255	4.75
649.014	5.75
649.774	6.75
650.533	3.75
651.292	2.75
652.051	4.75
652.81	3.75
653.569	5.75
654.328	4.75
655.087	2.75
655.846	2.75
656.604	5.75
657.363	2.75
658.121	3.75
658.88	3.75
659.638	4.75
660.397	4.75
661.155	3.75
661.913	2.75
662.671	4.75
663.429	3.75
664.187	3.75
664.945	3.75
665.703	4.75
666.46	3.75
667.218	4.75
667.976	3.75
668.733	3.75
669.49	3.75
670.248	3.75
671.005	6.75
671.762	3.75
672.519	4.75
673.276	4.75
674.033	2.75
674.79	3.75
675.547	3.75
676.304	0.75
677.06	2.75
677.817	1.75
678.574	2.75
679.33	1.75
680.086	3.75
680.843	2.75
681.599	2.75
682.355	4.75
683.111	2.75
683.867	5.75
684.623	1.75
685.379	2.75
686.135	3.75
686.89	3.75
687.646	3.75
688.402	2.75
689.157	3.75
689.912	1.75
690.668	1.75
691.423	2.75
692.178	2.75
692.933	4.75
693.688	0.75
694.443	1.75
695.198	3.75
695.953	4.75
696.708	2.75
697.462	0.75
698.217	1.75
698.972	2.75
699.726	4.75
700.48	0.75
701.235	2.75
701.989	2.75
702.743	0.75
703.497	2.75
704.251	0.75
705.005	3.75
705.759	1.75
706.513	3.75
707.266	2.75
708.02	2.75
708.774	3.75
709.527	2.75
710.28	5.75
711.034	2.75
711.787	2.75
712.54	4.75
713.293	2.75
714.046	2.75
714.799	1.75
715.552	4.75
716.305	1.75
717.058	1.75
717.81	2.75
718.563	1.75
719.315	3.75
720.068	1.75
720.82	2.75
721.573	0.75
722.325	0.75
723.077	2.75
723.829	0.75
724.581	2.75
725.333	0.75
726.085	-0.25
726.836	1.75
727.588	2.75
728.34	2.75
729.091	2.75
729.843	3.75
730.594	4.75
731.346	3.75
732.097	3.75
732.848	2.75
733.599	3.75
734.35	2.75
735.101	3.75
735.852	4.75
736.603	1.75
737.354	3.75
738.104	4.75
738.855	3.75
739.605	2.75
740.356	3.75
741.106	3.75
741.856	1.75
742.607	3.75
743.357	1.75
744.107	3.75
744.857	1.75
745.607	3.75
746.357	3.75
747.106	2.75
747.856	2.75
748.606	2.75
749.355	4.75
750.105	-0.25
750.854	2.75
751.603	3.75
752.353	1.75
753.102	4.75
753.851	2.75
754.6	3.75
755.349	3.75
756.098	3.75
756.847	2.75
757.595	1.75
758.344	3.75
759.093	1.75
759.841	3.75
760.589	4.75
761.338	4.75
762.086	4.75
762.834	2.75
763.582	3.75
764.331	5.75
765.079	3.75
765.826	3.75
766.574	3.75
767.322	5.75
768.07	5.75
768.817	4.75
769.565	4.75
770.312	2.75
771.06	4.75
771.807	5.75
772.554	7.75
773.302	5.75
774.049	5.75
774.796	4.75
775.543	5.75
776.29	6.75
777.036	4.75
777.783	6.75
778.53	6.75
779.276	4.75
780.023	6.75
780.769	4.75
781.516	8.75
782.262	4.75
783.008	8.75
783.754	6.75
784.5	7.75
785.246	5.75
785.992	5.75
786.738	5.75
787.484	7.75
788.23	7.75
788.975	6.75
789.721	4.75
790.466	7.75
791.212	5.75
791.957	5.75
792.702	5.75
793.447	7.75
794.193	7.75
794.938	7.75
795.683	5.75
796.427	4.75
797.172	3.75
797.917	3.75
798.662	4.75
799.406	4.75
800.151	3.75
800.895	4.75
801.64	4.75
802.384	5.75
803.128	4.75
803.872	6.75
804.616	4.75
805.36	4.75
806.104	5.75
806.848	4.75
807.592	3.75
808.336	3.75
809.079	5.75
809.823	5.75
810.566	4.75
811.31	4.75
812.053	3.75
812.796	5.75
813.539	4.75
814.283	3.75
815.026	6.75
815.769	3.75
816.511	4.75
817.254	2.75
817.997	5.75
818.74	2.75
819.482	0.75
820.225	4.75
820.967	2.75
821.71	4.75
822.452	2.75
823.194	1.75
823.936	2.75
824.678	2.75
825.42	2.75
826.162	3.75
826.904	2.75
827.646	3.75
828.388	3.75
829.129	4.75
829.871	0.75
830.612	2.75
831.354	1.75
832.095	2.75
832.836	3.75
833.577	3.75
834.319	2.75
835.06	3.75
835.801	2.75
836.542	2.75
837.282	2.75
838.023	3.75
838.764	1.75
839.504	2.75
840.245	4.75
840.985	2.75
841.726	-0.25
842.466	4.75
843.206	2.75
843.946	4.75
844.687	2.75
845.427	3.75
846.166	2.75
846.906	1.75
847.646	3.75
848.386	2.75
849.125	3.75
849.865	1.75
850.605	2.75
851.344	3.75
852.083	2.75
852.823	3.75
853.562	1.75
854.301	1.75
855.04	6.75
855.779	2.75
856.518	3.75
857.257	2.75
857.995	2.75
858.734	2.75
859.473	2.75
860.211	3.75
860.95	-0.25
861.688	2.75
862.426	1.75
863.165	3.75
863.903	2.75
864.641	2.75
865.379	1.75
866.117	0.75
866.855	2.75
867.593	0.75
868.33	-0.25
869.068	0.75
869.806	1.75
870.543	-1.25
871.28	0.75
872.018	1.75
872.755	1.75
873.492	-0.25
874.229	0.75
874.967	1.75
875.703	0.75
876.44	1.75
877.177	2.75
877.914	0.75
878.651	1.75
879.387	0.75
880.124	0.75
880.86	2.75
881.597	-1.25
882.333	0.75
883.069	0.75
883.806	0.75
884.542	1.75
885.278	0.75
886.014	2.75
886.749	-0.25
887.485	1.75
888.221	0.75
888.957	2.75
889.692	0.75
890.428	1.75
891.163	-0.25
891.899	-1.25
892.634	0.75
893.369	0.75
894.104	3.75
894.839	1.75
895.574	-1.25
896.309	1.75
897.044	0.75
897.779	0.75
898.514	1.75
899.248	1.75
899.983	1.75
900.717	-1.25
901.452	3.75
902.186	-0.25
902.92	0.75
903.654	1.75
904.389	1.75
905.123	0.75
905.857	-1.25
906.59	-0.25
907.324	-0.25
908.058	1.75
908.792	-0.25
909.525	1.75
910.259	3.75
910.992	1.75
911.726	0.75
912.459	1.75
913.192	0.75
913.925	0.75
914.658	-0.25
915.391	2.75
916.124	-0.25
916.857	1.75
917.59	0.75
918.323	1.75
919.055	2.75
919.788	-0.25
920.521	-1.25
921.253	-0.25
921.985	2.75
922.718	1.75
923.45	0.75
924.182	0.75
924.914	1.75
925.646	0.75
926.378	1.75
927.11	2.75
927.841	1.75
928.573	-1.25
929.305	0.75
930.036	1.75
930.768	1.75
931.499	-0.25
932.23	1.75
932.962	1.75
933.693	0.75
934.424	0.75
935.155	1.75
935.886	-0.25
936.617	-0.25
937.348	1.75
938.078	-0.25
938.809	-1.25
939.54	-0.25
940.27	-0.25
941.001	0.75
941.731	2.75
942.461	2.75
943.191	0.75
943.922	1.75
944.652	-2.25
945.382	0.75
946.112	1.75
946.841	2.75
947.571	0.75
948.301	-0.25
949.031	-1.25
949.76	1.75
950.49	-1.25
951.219	2.75
951.948	0.75
952.678	-1.25
953.407	-1.25
954.136	0.75
954.865	1.75
955.594	0.75
956.323	2.75
957.052	2.75
957.78	0.75
958.509	1.75
959.238	0.75
959.966	1.75
960.695	-0.25
961.423	1.75
962.151	2.75
962.88	0.75
963.608	0.75
964.336	0.75
965.064	1.75
965.792	2.75
966.52	0.75
967.247	2.75
967.975	-0.25
968.703	0.75
969.43	-0.25
970.158	-0.25
970.885	0.75
971.613	0.75
972.34	-2.25
973.067	0.75
973.794	1.75
974.521	-0.25
975.248	1.75
975.975	0.75
976.702	1.75
977.429	0.75
978.156	0.75
978.882	1.75
979.609	0.75
980.335	0.75
981.062	0.75
981.788	0.75
982.514	1.75
983.24	0.75
983.967	-0.25
984.693	-0.25
985.419	1.75
986.144	0.75
986.87	2.75
987.596	0.75
988.322	0.75
989.047	0.75
989.773	0.75
990.498	-0.25
991.224	0.75
991.949	-0.25
992.674	-0.25
993.399	-2.25
994.124	0.75
994.849	-1.25
995.574	-0.25
996.299	1.75
997.024	-0.25
997.749	0.75
998.473	0.75
999.198	0.75
999.922	1.75
1000.647	-1.25
1001.371	3.75
1002.095	-1.25
1002.82	-1.25
1003.544	0.75
1004.268	-0.25
1004.992	1.75
1005.716	-0.25
1006.439	1.75
1007.163	-1.25
1007.887	0.75
1008.611	0.75
1009.334	1.75
1010.058	1.75
1010.781	0.75
1011.504	-0.25
1012.228	2.75
1012.951	-1.25
1013.674	0.75
1014.397	-2.25
1015.12	0.75
