节点500_145_QEPB04081__628__11-38-57-220.txt的数据

Date: Wed Nov 12 11:38:57 CST 2025
User: PC
Spectrometer: QEPB0408
触发模式: 0
积分时间 (秒): 1.000000E-2
Scans to average: 1
启用暗噪声校正: true
启用非线性校正: false
滑动平均宽度: 0
X轴模式: Wavelengths
Number of Pixels in Spectrum: 1044
>>>>>Begin Spectral Data<<<<<
220.843	0
221.644	-2
222.444	-3
223.244	0
224.045	1
224.845	0
225.645	0
226.445	2
227.245	2
228.045	1
228.845	-1
229.645	1
230.444	-3
231.244	-1
232.043	-1
232.843	-1
233.642	0
234.442	-2
235.241	2
236.04	3
236.839	0
237.638	2
238.437	-2
239.236	-1
240.035	1
240.833	2
241.632	1
242.43	2
243.229	2
244.027	0
244.826	2
245.624	0
246.422	2
247.22	0
248.018	2
248.816	2
249.614	3
250.412	2
251.21	2
252.007	2
252.805	2
253.602	3
254.4	5
255.197	3
255.994	2
256.791	2
257.589	2
258.386	3
259.183	3
259.979	2
260.776	7
261.573	4
262.37	2
263.166	5
263.963	6
264.759	3
265.556	5
266.352	4
267.148	4
267.944	4
268.74	6
269.536	6
270.332	6
271.128	6
271.924	5
272.719	7
273.515	6
274.311	8
275.106	7
275.901	5
276.697	11
277.492	5
278.287	9
279.082	8
279.877	8
280.672	9
281.467	9
282.262	9
283.056	11
283.851	10
284.646	9
285.44	8
286.234	11
287.029	11
287.823	11
288.617	9
289.411	11
290.205	9
290.999	7
291.793	11
292.587	9
293.381	10
294.174	7
294.968	11
295.761	9
296.555	8
297.348	10
298.141	7
298.935	8
299.728	9
300.521	9
301.314	8
302.107	9
302.899	10
303.692	7
304.485	8
305.277	9
306.07	7
306.862	5
307.655	6
308.447	7
309.239	6
310.031	6
310.823	8
311.615	7
312.407	5
313.199	7
313.991	7
314.783	9
315.574	4
316.366	5
317.157	5
317.949	5
318.74	4
319.531	5
320.322	4
321.113	5
321.904	5
322.695	7
323.486	3
324.277	3
325.068	4
325.858	4
326.649	5
327.439	3
328.23	2
329.02	5
329.81	4
330.6	7
331.391	3
332.181	4
332.971	3
333.76	5
334.55	5
335.34	2
336.13	4
336.919	3
337.709	1
338.498	3
339.287	3
340.077	4
340.866	1
341.655	-1
342.444	2
343.233	1
344.022	2
344.811	4
345.6	4
346.388	1
347.177	2
347.965	5
348.754	1
349.542	2
350.33	0
351.119	4
351.907	1
352.695	4
353.483	2
354.271	4
355.059	5
355.846	4
356.634	4
357.422	0
358.209	3
358.997	4
359.784	0
360.571	2
361.359	3
362.146	3
362.933	1
363.72	2
364.507	2
365.294	3
366.081	1
366.867	1
367.654	4
368.44	1
369.227	2
370.013	1
370.8	3
371.586	2
372.372	1
373.158	5
373.944	2
374.73	3
375.516	3
376.302	2
377.088	2
377.873	1
378.659	4
379.445	2
380.23	2
381.015	1
381.801	2
382.586	1
383.371	1
384.156	4
384.941	1
385.726	2
386.511	0
387.296	6
388.08	2
388.865	4
389.649	4
390.434	2
391.218	1
392.003	2
392.787	3
393.571	2
394.355	2
395.139	4
395.923	2
396.707	5
397.491	3
398.274	2
399.058	4
399.842	3
400.625	3
401.408	2
402.192	1
402.975	3
403.758	4
404.541	4
405.324	2
406.107	5
406.89	3
407.673	3
408.456	2
409.238	4
410.021	3
410.803	4
411.586	4
412.368	4
413.151	5
413.933	5
414.715	3
415.497	4
416.279	2
417.061	4
417.843	6
418.624	2
419.406	2
420.188	2
420.969	2
421.751	4
422.532	3
423.313	3
424.095	6
424.876	7
425.657	5
426.438	6
427.219	5
428	7
428.78	5
429.561	5
430.342	7
431.122	5
431.903	9
432.683	8
433.464	7
434.244	7
435.024	9
435.804	9
436.584	9
437.364	11
438.144	7
438.924	11
439.704	13
440.483	10
441.263	13
442.042	12
442.822	13
443.601	15
444.38	14
445.16	15
445.939	18
446.718	17
447.497	16
448.276	22
449.054	18
449.833	24
450.612	25
451.391	29
452.169	33
452.948	34
453.726	38
454.504	41
455.282	49
456.061	53
456.839	57
457.617	58
458.395	67
459.172	76
459.95	84
460.728	90
461.506	105
462.283	111
463.061	128
463.838	139
464.615	157
465.393	174
466.17	189
466.947	212
467.724	242
468.501	265
469.278	296
470.055	328
470.831	358
471.608	394
472.385	446
473.161	494
473.938	548
474.714	592
475.49	654
476.266	702
477.043	800
477.819	869
478.595	964
479.371	1072
480.146	1165
480.922	1269
481.698	1385
482.473	1523
483.249	1658
484.024	1838
484.8	1999
485.575	2184
486.35	2407
487.126	2620
487.901	2873
488.676	3110
489.451	3403
490.225	3734
491	4101
491.775	4433
492.55	4819
493.324	5248
494.099	5756
494.873	6218
495.647	6760
496.422	7288
497.196	7913
497.97	8452
498.744	9118
499.518	9725
500.292	10408
501.066	11057
501.839	11659
502.613	12273
503.387	12863
504.16	13385
504.934	13865
505.707	14258
506.48	14627
507.253	14878
508.027	15101
508.8	15237
509.573	15184
510.346	15095
511.118	14955
511.891	14638
512.664	14333
513.437	13911
514.209	13562
514.982	13074
515.754	12631
516.526	12141
517.298	11673
518.071	11158
518.843	10691
519.615	10240
520.387	9845
521.159	9453
521.93	9079
522.702	8737
523.474	8386
524.245	8043
525.017	7712
525.788	7437
526.56	7126
527.331	6846
528.102	6576
528.873	6279
529.644	6015
530.415	5783
531.186	5505
531.957	5253
532.728	5007
533.498	4748
534.269	4514
535.039	4290
535.81	4029
536.58	3826
537.351	3603
538.121	3414
538.891	3240
539.661	3062
540.431	2880
541.201	2743
541.971	2598
542.741	2438
543.51	2341
544.28	2222
545.05	2094
545.819	1997
546.588	1882
547.358	1811
548.127	1717
548.896	1626
549.665	1539
550.434	1477
551.203	1396
551.972	1342
552.741	1258
553.51	1187
554.278	1141
555.047	1046
555.815	1013
556.584	961
557.352	899
558.121	846
558.889	803
559.657	758
560.425	715
561.193	679
561.961	648
562.729	598
563.496	579
564.264	529
565.032	506
565.799	473
566.567	452
567.334	423
568.101	394
568.869	381
569.636	353
570.403	337
571.17	315
571.937	302
572.704	278
573.471	267
574.237	250
575.004	236
575.771	220
576.537	207
577.303	199
578.07	185
578.836	174
579.602	161
580.368	158
581.134	151
581.9	138
582.666	130
583.432	128
584.198	124
584.964	117
585.729	105
586.495	102
587.26	92
588.025	88
588.791	85
589.556	79
590.321	75
591.086	76
591.851	69
592.616	64
593.381	60
594.146	60
594.911	56
595.675	50
596.44	53
597.204	47
597.969	43
598.733	44
599.497	40
600.261	38
601.025	37
601.79	38
602.553	36
603.317	31
604.081	34
604.845	31
605.609	29
606.372	27
607.136	28
607.899	23
608.662	21
609.426	25
610.189	24
610.952	25
611.715	21
612.478	20
613.241	22
614.004	18
614.767	19
615.529	13
616.292	15
617.055	16
617.817	13
618.579	14
619.342	14
620.104	14
620.866	13
621.628	12
622.39	12
623.152	15
623.914	15
624.676	9
625.438	12
626.199	9
626.961	10
627.722	10
628.484	9
629.245	10
630.006	9
630.768	10
631.529	8
632.29	8
633.051	7
633.812	8
634.573	7
635.333	7
636.094	7
636.855	8
637.615	7
638.376	5
639.136	5
639.896	6
640.657	3
641.417	7
642.177	7
642.937	4
643.697	5
644.457	3
645.216	6
645.976	2
646.736	2
647.495	1
648.255	5
649.014	2
649.774	2
650.533	4
651.292	2
652.051	5
652.81	2
653.569	3
654.328	4
655.087	2
655.846	2
656.604	1
657.363	3
658.121	2
658.88	2
659.638	3
660.397	1
661.155	4
661.913	4
662.671	4
663.429	2
664.187	1
664.945	3
665.703	2
666.46	2
667.218	0
667.976	3
668.733	3
669.49	2
670.248	4
671.005	0
671.762	5
672.519	3
673.276	1
674.033	1
674.79	2
675.547	2
676.304	2
677.06	3
677.817	1
678.574	2
679.33	0
680.086	-1
680.843	2
681.599	0
682.355	1
683.111	3
683.867	1
684.623	2
685.379	2
686.135	0
686.89	2
687.646	4
688.402	0
689.157	2
689.912	0
690.668	-2
691.423	-1
692.178	0
692.933	2
693.688	4
694.443	-2
695.198	2
695.953	2
696.708	-2
697.462	3
698.217	0
698.972	3
699.726	1
700.48	1
701.235	2
701.989	0
702.743	2
703.497	3
704.251	2
705.005	1
705.759	1
706.513	3
707.266	2
708.02	1
708.774	2
709.527	2
710.28	2
711.034	1
711.787	1
712.54	0
713.293	2
714.046	2
714.799	3
715.552	1
716.305	0
717.058	2
717.81	-1
718.563	2
719.315	4
720.068	3
720.82	3
721.573	1
722.325	3
723.077	2
723.829	3
724.581	0
725.333	2
726.085	2
726.836	3
727.588	2
728.34	3
729.091	0
729.843	0
730.594	0
731.346	1
732.097	2
732.848	1
733.599	1
734.35	2
735.101	3
735.852	3
736.603	0
737.354	3
738.104	1
738.855	1
739.605	2
740.356	3
741.106	2
741.856	1
742.607	3
743.357	1
744.107	1
744.857	3
745.607	2
746.357	0
747.106	1
747.856	6
748.606	2
749.355	3
750.105	1
750.854	2
751.603	2
752.353	3
753.102	2
753.851	3
754.6	5
755.349	3
756.098	3
756.847	3
757.595	2
758.344	3
759.093	2
759.841	4
760.589	3
761.338	5
762.086	5
762.834	2
763.582	4
764.331	4
765.079	1
765.826	3
766.574	1
767.322	4
768.07	2
768.817	4
769.565	2
770.312	3
771.06	2
771.807	3
772.554	2
773.302	5
774.049	3
774.796	3
775.543	4
776.29	5
777.036	1
777.783	3
778.53	2
779.276	3
780.023	2
780.769	4
781.516	4
782.262	5
783.008	6
783.754	5
784.5	4
785.246	3
785.992	1
786.738	3
787.484	5
788.23	1
788.975	4
789.721	6
790.466	3
791.212	7
791.957	2
792.702	6
793.447	6
794.193	6
794.938	4
795.683	4
796.427	4
797.172	4
797.917	4
798.662	5
799.406	5
800.151	5
800.895	4
801.64	5
802.384	4
803.128	3
803.872	4
804.616	3
805.36	5
806.104	4
806.848	2
807.592	2
808.336	4
809.079	5
809.823	3
810.566	5
811.31	2
812.053	3
812.796	2
813.539	4
814.283	5
815.026	5
815.769	2
816.511	5
817.254	3
817.997	4
818.74	2
819.482	2
820.225	0
820.967	3
821.71	2
822.452	3
823.194	2
823.936	2
824.678	3
825.42	3
826.162	2
826.904	-1
827.646	2
828.388	2
829.129	2
829.871	3
830.612	2
831.354	1
832.095	2
832.836	1
833.577	2
834.319	2
835.06	0
835.801	1
836.542	1
837.282	2
838.023	1
838.764	1
839.504	0
840.245	2
840.985	0
841.726	2
842.466	2
843.206	2
843.946	2
844.687	1
845.427	3
846.166	1
846.906	4
847.646	0
848.386	1
849.125	1
849.865	-1
850.605	3
851.344	2
852.083	3
852.823	2
853.562	2
854.301	2
855.04	2
855.779	3
856.518	1
857.257	3
857.995	3
858.734	2
859.473	3
860.211	0
860.95	1
861.688	-1
862.426	6
863.165	1
863.903	0
864.641	-1
865.379	-2
866.117	2
866.855	1
867.593	3
868.33	1
869.068	0
869.806	2
870.543	-1
871.28	3
872.018	1
872.755	1
873.492	4
874.229	1
874.967	2
875.703	1
876.44	2
877.177	1
877.914	0
878.651	1
879.387	1
880.124	1
880.86	1
881.597	1
882.333	0
883.069	1
883.806	0
884.542	0
885.278	-1
886.014	1
886.749	-2
887.485	0
888.221	-1
888.957	3
889.692	-1
890.428	1
891.163	2
891.899	1
892.634	-1
893.369	0
894.104	1
894.839	-2
895.574	0
896.309	-2
897.044	1
897.779	-1
898.514	-2
899.248	0
899.983	1
900.717	-1
901.452	-2
902.186	1
902.92	2
903.654	-2
904.389	0
905.123	-2
905.857	2
906.59	1
907.324	2
908.058	0
908.792	0
909.525	2
910.259	-3
910.992	1
911.726	0
912.459	0
913.192	0
913.925	-1
914.658	-1
915.391	1
916.124	1
916.857	1
917.59	0
918.323	0
919.055	-1
919.788	-2
920.521	-1
921.253	0
921.985	0
922.718	1
923.45	0
924.182	-1
924.914	1
925.646	-2
926.378	0
927.11	0
927.841	1
928.573	0
929.305	-1
930.036	-1
930.768	0
931.499	0
932.23	1
932.962	-1
933.693	1
934.424	0
935.155	0
935.886	-1
936.617	1
937.348	-1
938.078	0
938.809	0
939.54	-2
940.27	1
941.001	0
941.731	1
942.461	0
943.191	0
943.922	2
944.652	0
945.382	0
946.112	0
946.841	0
947.571	-2
948.301	1
949.031	-2
949.76	-2
950.49	-1
951.219	0
951.948	-3
952.678	-1
953.407	0
954.136	0
954.865	-1
955.594	0
956.323	0
957.052	0
957.78	-1
958.509	-2
959.238	-1
959.966	-2
960.695	-1
961.423	-2
962.151	0
962.88	2
963.608	1
964.336	-1
965.064	-1
965.792	0
966.52	0
967.247	0
967.975	0
968.703	-2
969.43	-1
970.158	-1
970.885	1
971.613	-2
972.34	-1
973.067	1
973.794	-1
974.521	1
975.248	-1
975.975	0
976.702	-1
977.429	1
978.156	1
978.882	0
979.609	0
980.335	-1
981.062	1
981.788	-1
982.514	0
983.24	0
983.967	-1
984.693	-1
985.419	-1
986.144	-1
986.87	-1
987.596	-2
988.322	0
989.047	2
989.773	3
990.498	-1
991.224	-2
991.949	0
992.674	1
993.399	2
994.124	0
994.849	1
995.574	-1
996.299	0
997.024	1
997.749	0
998.473	0
999.198	1
999.922	1
1000.647	-1
1001.371	3
1002.095	-1
1002.82	0
1003.544	-2
1004.268	0
1004.992	-1
1005.716	0
1006.439	0
1007.163	0
1007.887	-1
1008.611	0
1009.334	0
1010.058	-2
1010.781	1
1011.504	1
1012.228	1
1012.951	0
1013.674	0
1014.397	0
1015.12	0
