节点500_145_QEPB04081__85__11-30-19-638.txt的数据

Date: Wed Nov 12 11:30:19 CST 2025
User: PC
Spectrometer: QEPB0408
触发模式: 0
积分时间 (秒): 1.000000E-2
Scans to average: 1
启用暗噪声校正: true
启用非线性校正: false
滑动平均宽度: 0
X轴模式: Wavelengths
Number of Pixels in Spectrum: 1044
>>>>>Begin Spectral Data<<<<<
220.843	0.25
221.644	-0.75
222.444	-0.75
223.244	-1.75
224.045	3.25
224.845	0.25
225.645	-0.75
226.445	1.25
227.245	0.25
228.045	1.25
228.845	2.25
229.645	0.25
230.444	0.25
231.244	-0.75
232.043	2.25
232.843	1.25
233.642	1.25
234.442	2.25
235.241	-1.75
236.04	1.25
236.839	1.25
237.638	0.25
238.437	0.25
239.236	1.25
240.035	1.25
240.833	1.25
241.632	2.25
242.43	1.25
243.229	1.25
244.027	1.25
244.826	1.25
245.624	0.25
246.422	2.25
247.22	2.25
248.018	1.25
248.816	2.25
249.614	2.25
250.412	5.25
251.21	2.25
252.007	1.25
252.805	2.25
253.602	3.25
254.4	2.25
255.197	4.25
255.994	1.25
256.791	4.25
257.589	3.25
258.386	5.25
259.183	5.25
259.979	5.25
260.776	4.25
261.573	5.25
262.37	7.25
263.166	6.25
263.963	5.25
264.759	7.25
265.556	5.25
266.352	7.25
267.148	7.25
267.944	5.25
268.74	6.25
269.536	8.25
270.332	8.25
271.128	9.25
271.924	10.25
272.719	6.25
273.515	9.25
274.311	10.25
275.106	8.25
275.901	9.25
276.697	9.25
277.492	10.25
278.287	8.25
279.082	8.25
279.877	10.25
280.672	10.25
281.467	10.25
282.262	10.25
283.056	12.25
283.851	9.25
284.646	11.25
285.44	12.25
286.234	14.25
287.029	12.25
287.823	10.25
288.617	10.25
289.411	9.25
290.205	12.25
290.999	8.25
291.793	13.25
292.587	10.25
293.381	11.25
294.174	11.25
294.968	9.25
295.761	11.25
296.555	10.25
297.348	9.25
298.141	9.25
298.935	12.25
299.728	10.25
300.521	9.25
301.314	10.25
302.107	9.25
302.899	10.25
303.692	7.25
304.485	10.25
305.277	9.25
306.07	8.25
306.862	6.25
307.655	10.25
308.447	9.25
309.239	8.25
310.031	6.25
310.823	8.25
311.615	8.25
312.407	5.25
313.199	7.25
313.991	6.25
314.783	5.25
315.574	5.25
316.366	5.25
317.157	5.25
317.949	3.25
318.74	7.25
319.531	4.25
320.322	1.25
321.113	2.25
321.904	4.25
322.695	3.25
323.486	4.25
324.277	4.25
325.068	4.25
325.858	6.25
326.649	1.25
327.439	5.25
328.23	5.25
329.02	3.25
329.81	5.25
330.6	2.25
331.391	3.25
332.181	2.25
332.971	4.25
333.76	2.25
334.55	3.25
335.34	5.25
336.13	5.25
336.919	5.25
337.709	1.25
338.498	5.25
339.287	2.25
340.077	2.25
340.866	4.25
341.655	3.25
342.444	4.25
343.233	5.25
344.022	3.25
344.811	2.25
345.6	5.25
346.388	3.25
347.177	5.25
347.965	6.25
348.754	4.25
349.542	3.25
350.33	6.25
351.119	2.25
351.907	5.25
352.695	2.25
353.483	5.25
354.271	4.25
355.059	3.25
355.846	4.25
356.634	3.25
357.422	3.25
358.209	2.25
358.997	4.25
359.784	4.25
360.571	3.25
361.359	4.25
362.146	2.25
362.933	3.25
363.72	2.25
364.507	3.25
365.294	4.25
366.081	2.25
366.867	0.25
367.654	3.25
368.44	2.25
369.227	2.25
370.013	2.25
370.8	3.25
371.586	2.25
372.372	2.25
373.158	2.25
373.944	4.25
374.73	2.25
375.516	1.25
376.302	2.25
377.088	2.25
377.873	4.25
378.659	2.25
379.445	5.25
380.23	1.25
381.015	5.25
381.801	2.25
382.586	2.25
383.371	3.25
384.156	1.25
384.941	2.25
385.726	4.25
386.511	3.25
387.296	3.25
388.08	2.25
388.865	5.25
389.649	2.25
390.434	5.25
391.218	3.25
392.003	3.25
392.787	3.25
393.571	4.25
394.355	0.25
395.139	2.25
395.923	2.25
396.707	5.25
397.491	4.25
398.274	3.25
399.058	2.25
399.842	5.25
400.625	4.25
401.408	1.25
402.192	3.25
402.975	5.25
403.758	5.25
404.541	4.25
405.324	4.25
406.107	2.25
406.89	6.25
407.673	5.25
408.456	3.25
409.238	6.25
410.021	6.25
410.803	5.25
411.586	3.25
412.368	4.25
413.151	2.25
413.933	4.25
414.715	5.25
415.497	5.25
416.279	5.25
417.061	3.25
417.843	4.25
418.624	4.25
419.406	4.25
420.188	8.25
420.969	6.25
421.751	4.25
422.532	6.25
423.313	5.25
424.095	7.25
424.876	7.25
425.657	7.25
426.438	9.25
427.219	6.25
428	7.25
428.78	5.25
429.561	10.25
430.342	7.25
431.122	7.25
431.903	9.25
432.683	8.25
433.464	7.25
434.244	10.25
435.024	7.25
435.804	8.25
436.584	9.25
437.364	9.25
438.144	9.25
438.924	9.25
439.704	9.25
440.483	12.25
441.263	13.25
442.042	11.25
442.822	10.25
443.601	13.25
444.38	13.25
445.16	14.25
445.939	18.25
446.718	16.25
447.497	18.25
448.276	16.25
449.054	19.25
449.833	25.25
450.612	25.25
451.391	26.25
452.169	26.25
452.948	30.25
453.726	30.25
454.504	38.25
455.282	37.25
456.061	41.25
456.839	46.25
457.617	53.25
458.395	56.25
459.172	61.25
459.95	64.25
460.728	77.25
461.506	82.25
462.283	95.25
463.061	100.25
463.838	114.25
464.615	126.25
465.393	147.25
466.17	159.25
466.947	178.25
467.724	202.25
468.501	220.25
469.278	254.25
470.055	278.25
470.831	312.25
471.608	348.25
472.385	389.25
473.161	431.25
473.938	485.25
474.714	539.25
475.49	598.25
476.266	660.25
477.043	740.25
477.819	818.25
478.595	924.25
479.371	1022.25
480.146	1122.25
480.922	1255.25
481.698	1405.25
482.473	1552.25
483.249	1706.25
484.024	1909.25
484.8	2100.25
485.575	2343.25
486.35	2601.25
487.126	2861.25
487.901	3186.25
488.676	3531.25
489.451	3911.25
490.225	4306.25
491	4778.25
491.775	5241.25
492.55	5774.25
493.324	6386.25
494.099	6998.25
494.873	7645.25
495.647	8355.25
496.422	9100.25
497.196	9820.25
497.97	10685.25
498.744	11461.25
499.518	12307.25
500.292	13089.25
501.066	13832.25
501.839	14564.25
502.613	15253.25
503.387	15864.25
504.16	16409.25
504.934	16837.25
505.707	17091.25
506.48	17356.25
507.253	17377.25
508.027	17397.25
508.8	17176.25
509.573	16908.25
510.346	16627.25
511.118	16114.25
511.891	15614.25
512.664	15023.25
513.437	14510.25
514.209	13890.25
514.982	13212.25
515.754	12637.25
516.526	12066.25
517.298	11483.25
518.071	10982.25
518.843	10485.25
519.615	10071.25
520.387	9593.25
521.159	9253.25
521.93	8870.25
522.702	8541.25
523.474	8192.25
524.245	7908.25
525.017	7574.25
525.788	7243.25
526.56	6953.25
527.331	6649.25
528.102	6347.25
528.873	6093.25
529.644	5763.25
530.415	5480.25
531.186	5219.25
531.957	4964.25
532.728	4678.25
533.498	4416.25
534.269	4189.25
535.039	3930.25
535.81	3696.25
536.58	3509.25
537.351	3318.25
538.121	3127.25
538.891	2937.25
539.661	2780.25
540.431	2622.25
541.201	2501.25
541.971	2359.25
542.741	2246.25
543.51	2127.25
544.28	2017.25
545.05	1905.25
545.819	1822.25
546.588	1739.25
547.358	1674.25
548.127	1558.25
548.896	1485.25
549.665	1422.25
550.434	1348.25
551.203	1265.25
551.972	1194.25
552.741	1139.25
553.51	1073.25
554.278	1017.25
555.047	959.25
555.815	905.25
556.584	844.25
557.352	807.25
558.121	750.25
558.889	711.25
559.657	664.25
560.425	631.25
561.193	589.25
561.961	557.25
562.729	528.25
563.496	496.25
564.264	478.25
565.032	450.25
565.799	423.25
566.567	399.25
567.334	372.25
568.101	348.25
568.869	336.25
569.636	315.25
570.403	296.25
571.17	283.25
571.937	266.25
572.704	250.25
573.471	235.25
574.237	222.25
575.004	206.25
575.771	195.25
576.537	185.25
577.303	175.25
578.07	162.25
578.836	152.25
579.602	144.25
580.368	138.25
581.134	129.25
581.9	120.25
582.666	114.25
583.432	107.25
584.198	107.25
584.964	97.25
585.729	91.25
586.495	89.25
587.26	80.25
588.025	78.25
588.791	71.25
589.556	69.25
590.321	66.25
591.086	62.25
591.851	63.25
592.616	55.25
593.381	53.25
594.146	49.25
594.911	50.25
595.675	47.25
596.44	44.25
597.204	42.25
597.969	40.25
598.733	36.25
599.497	37.25
600.261	37.25
601.025	33.25
601.79	31.25
602.553	29.25
603.317	27.25
604.081	28.25
604.845	23.25
605.609	26.25
606.372	23.25
607.136	25.25
607.899	22.25
608.662	22.25
609.426	20.25
610.189	23.25
610.952	18.25
611.715	19.25
612.478	17.25
613.241	18.25
614.004	16.25
614.767	16.25
615.529	13.25
616.292	13.25
617.055	13.25
617.817	12.25
618.579	15.25
619.342	13.25
620.104	11.25
620.866	11.25
621.628	9.25
622.39	10.25
623.152	10.25
623.914	10.25
624.676	9.25
625.438	8.25
626.199	9.25
626.961	8.25
627.722	10.25
628.484	9.25
629.245	7.25
630.006	9.25
630.768	10.25
631.529	10.25
632.29	6.25
633.051	8.25
633.812	7.25
634.573	7.25
635.333	7.25
636.094	7.25
636.855	8.25
637.615	5.25
638.376	5.25
639.136	3.25
639.896	7.25
640.657	5.25
641.417	5.25
642.177	6.25
642.937	5.25
643.697	7.25
644.457	4.25
645.216	6.25
645.976	4.25
646.736	6.25
647.495	4.25
648.255	4.25
649.014	4.25
649.774	2.25
650.533	7.25
651.292	2.25
652.051	4.25
652.81	6.25
653.569	0.25
654.328	5.25
655.087	5.25
655.846	6.25
656.604	2.25
657.363	5.25
658.121	5.25
658.88	2.25
659.638	3.25
660.397	1.25
661.155	4.25
661.913	4.25
662.671	4.25
663.429	2.25
664.187	1.25
664.945	3.25
665.703	2.25
666.46	5.25
667.218	2.25
667.976	4.25
668.733	5.25
669.49	4.25
670.248	2.25
671.005	1.25
671.762	2.25
672.519	3.25
673.276	1.25
674.033	1.25
674.79	3.25
675.547	1.25
676.304	3.25
677.06	3.25
677.817	1.25
678.574	2.25
679.33	2.25
680.086	2.25
680.843	2.25
681.599	4.25
682.355	1.25
683.111	2.25
683.867	3.25
684.623	4.25
685.379	1.25
686.135	2.25
686.89	2.25
687.646	2.25
688.402	1.25
689.157	1.25
689.912	2.25
690.668	1.25
691.423	3.25
692.178	3.25
692.933	1.25
693.688	3.25
694.443	4.25
695.198	3.25
695.953	1.25
696.708	2.25
697.462	3.25
698.217	3.25
698.972	2.25
699.726	1.25
700.48	2.25
701.235	2.25
701.989	2.25
702.743	3.25
703.497	1.25
704.251	1.25
705.005	0.25
705.759	0.25
706.513	2.25
707.266	1.25
708.02	0.25
708.774	0.25
709.527	4.25
710.28	1.25
711.034	2.25
711.787	1.25
712.54	2.25
713.293	1.25
714.046	3.25
714.799	1.25
715.552	2.25
716.305	1.25
717.058	2.25
717.81	2.25
718.563	3.25
719.315	2.25
720.068	3.25
720.82	2.25
721.573	5.25
722.325	2.25
723.077	2.25
723.829	5.25
724.581	4.25
725.333	2.25
726.085	3.25
726.836	3.25
727.588	1.25
728.34	4.25
729.091	2.25
729.843	2.25
730.594	2.25
731.346	4.25
732.097	2.25
732.848	1.25
733.599	3.25
734.35	2.25
735.101	4.25
735.852	2.25
736.603	4.25
737.354	3.25
738.104	2.25
738.855	2.25
739.605	0.25
740.356	1.25
741.106	1.25
741.856	1.25
742.607	3.25
743.357	1.25
744.107	1.25
744.857	3.25
745.607	1.25
746.357	4.25
747.106	5.25
747.856	3.25
748.606	5.25
749.355	2.25
750.105	3.25
750.854	2.25
751.603	3.25
752.353	0.25
753.102	3.25
753.851	4.25
754.6	1.25
755.349	4.25
756.098	5.25
756.847	3.25
757.595	1.25
758.344	3.25
759.093	2.25
759.841	2.25
760.589	4.25
761.338	4.25
762.086	2.25
762.834	2.25
763.582	2.25
764.331	3.25
765.079	4.25
765.826	3.25
766.574	4.25
767.322	1.25
768.07	3.25
768.817	4.25
769.565	3.25
770.312	4.25
771.06	3.25
771.807	6.25
772.554	4.25
773.302	5.25
774.049	1.25
774.796	6.25
775.543	7.25
776.29	5.25
777.036	6.25
777.783	5.25
778.53	7.25
779.276	4.25
780.023	5.25
780.769	6.25
781.516	4.25
782.262	6.25
783.008	6.25
783.754	9.25
784.5	4.25
785.246	6.25
785.992	10.25
786.738	4.25
787.484	7.25
788.23	7.25
788.975	6.25
789.721	5.25
790.466	5.25
791.212	5.25
791.957	7.25
792.702	8.25
793.447	3.25
794.193	5.25
794.938	3.25
795.683	7.25
796.427	5.25
797.172	3.25
797.917	5.25
798.662	5.25
799.406	6.25
800.151	5.25
800.895	7.25
801.64	5.25
802.384	4.25
803.128	6.25
803.872	7.25
804.616	5.25
805.36	5.25
806.104	2.25
806.848	3.25
807.592	2.25
808.336	5.25
809.079	3.25
809.823	4.25
810.566	2.25
811.31	5.25
812.053	4.25
812.796	2.25
813.539	3.25
814.283	3.25
815.026	1.25
815.769	5.25
816.511	1.25
817.254	1.25
817.997	3.25
818.74	3.25
819.482	5.25
820.225	2.25
820.967	3.25
821.71	3.25
822.452	4.25
823.194	2.25
823.936	3.25
824.678	3.25
825.42	1.25
826.162	2.25
826.904	3.25
827.646	4.25
828.388	2.25
829.129	6.25
829.871	4.25
830.612	1.25
831.354	2.25
832.095	0.25
832.836	2.25
833.577	0.25
834.319	2.25
835.06	1.25
835.801	2.25
836.542	3.25
837.282	1.25
838.023	3.25
838.764	2.25
839.504	2.25
840.245	2.25
840.985	3.25
841.726	4.25
842.466	2.25
843.206	2.25
843.946	0.25
844.687	3.25
845.427	2.25
846.166	1.25
846.906	2.25
847.646	2.25
848.386	3.25
849.125	2.25
849.865	2.25
850.605	4.25
851.344	2.25
852.083	3.25
852.823	2.25
853.562	5.25
854.301	1.25
855.04	2.25
855.779	0.25
856.518	1.25
857.257	3.25
857.995	1.25
858.734	6.25
859.473	0.25
860.211	0.25
860.95	2.25
861.688	0.25
862.426	0.25
863.165	3.25
863.903	2.25
864.641	1.25
865.379	1.25
866.117	1.25
866.855	0.25
867.593	1.25
868.33	0.25
869.068	1.25
869.806	1.25
870.543	0.25
871.28	2.25
872.018	3.25
872.755	1.25
873.492	1.25
874.229	2.25
874.967	2.25
875.703	1.25
876.44	1.25
877.177	2.25
877.914	1.25
878.651	1.25
879.387	1.25
880.124	1.25
880.86	1.25
881.597	1.25
882.333	-2.75
883.069	1.25
883.806	-0.75
884.542	0.25
885.278	3.25
886.014	1.25
886.749	-0.75
887.485	-2.75
888.221	0.25
888.957	0.25
889.692	-0.75
890.428	-0.75
891.163	1.25
891.899	2.25
892.634	-1.75
893.369	2.25
894.104	-0.75
894.839	0.25
895.574	0.25
896.309	0.25
897.044	-1.75
897.779	-0.75
898.514	-0.75
899.248	2.25
899.983	1.25
900.717	0.25
901.452	-1.75
902.186	2.25
902.92	1.25
903.654	2.25
904.389	1.25
905.123	0.25
905.857	0.25
906.59	-0.75
907.324	0.25
908.058	-1.75
908.792	0.25
909.525	0.25
910.259	1.25
910.992	1.25
911.726	0.25
912.459	0.25
913.192	-0.75
913.925	0.25
914.658	1.25
915.391	-0.75
916.124	-0.75
916.857	2.25
917.59	0.25
918.323	-1.75
919.055	1.25
919.788	0.25
920.521	0.25
921.253	1.25
921.985	0.25
922.718	1.25
923.45	-0.75
924.182	0.25
924.914	0.25
925.646	1.25
926.378	0.25
927.11	-1.75
927.841	0.25
928.573	2.25
929.305	-1.75
930.036	0.25
930.768	-1.75
931.499	2.25
932.23	-0.75
932.962	-1.75
933.693	1.25
934.424	-0.75
935.155	0.25
935.886	0.25
936.617	1.25
937.348	0.25
938.078	0.25
938.809	2.25
939.54	-0.75
940.27	1.25
941.001	0.25
941.731	0.25
942.461	-1.75
943.191	-1.75
943.922	0.25
944.652	0.25
945.382	-1.75
946.112	0.25
946.841	0.25
947.571	-1.75
948.301	-1.75
949.031	1.25
949.76	0.25
950.49	0.25
951.219	-0.75
951.948	-0.75
952.678	1.25
953.407	0.25
954.136	-0.75
954.865	1.25
955.594	0.25
956.323	-1.75
957.052	1.25
957.78	0.25
958.509	-0.75
959.238	0.25
959.966	-0.75
960.695	-0.75
961.423	1.25
962.151	0.25
962.88	-0.75
963.608	0.25
964.336	-1.75
965.064	0.25
965.792	0.25
966.52	0.25
967.247	-0.75
967.975	-1.75
968.703	1.25
969.43	3.25
970.158	-0.75
970.885	0.25
971.613	-1.75
972.34	1.25
973.067	1.25
973.794	0.25
974.521	0.25
975.248	-0.75
975.975	0.25
976.702	-0.75
977.429	0.25
978.156	0.25
978.882	0.25
979.609	0.25
980.335	-1.75
981.062	-1.75
981.788	0.25
982.514	1.25
983.24	-0.75
983.967	-1.75
984.693	-1.75
985.419	0.25
986.144	0.25
986.87	1.25
987.596	0.25
988.322	-1.75
989.047	1.25
989.773	1.25
990.498	-0.75
991.224	1.25
991.949	0.25
992.674	-0.75
993.399	2.25
994.124	1.25
994.849	3.25
995.574	-1.75
996.299	-0.75
997.024	1.25
997.749	-1.75
998.473	0.25
999.198	-0.75
999.922	1.25
1000.647	0.25
1001.371	1.25
1002.095	0.25
1002.82	0.25
1003.544	-0.75
1004.268	1.25
1004.992	-0.75
1005.716	-0.75
1006.439	-1.75
1007.163	1.25
1007.887	-0.75
1008.611	1.25
1009.334	-1.75
1010.058	-1.75
1010.781	2.25
1011.504	1.25
1012.228	0.25
1012.951	0.25
1013.674	-0.75
1014.397	0.25
1015.12	-0.75
