节点500_145_QEPB04081__443__11-36-01-553.txt的数据

Date: Wed Nov 12 11:36:01 CST 2025
User: PC
Spectrometer: QEPB0408
触发模式: 0
积分时间 (秒): 1.000000E-2
Scans to average: 1
启用暗噪声校正: true
启用非线性校正: false
滑动平均宽度: 0
X轴模式: Wavelengths
Number of Pixels in Spectrum: 1044
>>>>>Begin Spectral Data<<<<<
220.843	2.62
221.644	0.62
222.444	-0.38
223.244	-1.38
224.045	-2.38
224.845	2.62
225.645	0.62
226.445	1.62
227.245	-0.38
228.045	-0.38
228.845	1.62
229.645	1.62
230.444	-0.38
231.244	0.62
232.043	0.62
232.843	0.62
233.642	1.62
234.442	2.62
235.241	0.62
236.04	1.62
236.839	0.62
237.638	-0.38
238.437	4.62
239.236	2.62
240.035	0.62
240.833	-0.38
241.632	3.62
242.43	1.62
243.229	2.62
244.027	1.62
244.826	1.62
245.624	4.62
246.422	3.62
247.22	2.62
248.018	1.62
248.816	3.62
249.614	1.62
250.412	1.62
251.21	2.62
252.007	3.62
252.805	3.62
253.602	4.62
254.4	2.62
255.197	3.62
255.994	2.62
256.791	3.62
257.589	3.62
258.386	4.62
259.183	5.62
259.979	1.62
260.776	3.62
261.573	5.62
262.37	5.62
263.166	1.62
263.963	6.62
264.759	6.62
265.556	3.62
266.352	5.62
267.148	5.62
267.944	6.62
268.74	8.62
269.536	5.62
270.332	5.62
271.128	7.62
271.924	10.62
272.719	3.62
273.515	9.62
274.311	8.62
275.106	9.62
275.901	8.62
276.697	8.62
277.492	8.62
278.287	10.62
279.082	10.62
279.877	9.62
280.672	9.62
281.467	9.62
282.262	9.62
283.056	9.62
283.851	10.62
284.646	8.62
285.44	9.62
286.234	9.62
287.029	11.62
287.823	11.62
288.617	11.62
289.411	10.62
290.205	12.62
290.999	9.62
291.793	11.62
292.587	11.62
293.381	10.62
294.174	10.62
294.968	9.62
295.761	8.62
296.555	11.62
297.348	7.62
298.141	7.62
298.935	10.62
299.728	8.62
300.521	5.62
301.314	9.62
302.107	8.62
302.899	8.62
303.692	7.62
304.485	6.62
305.277	10.62
306.07	7.62
306.862	9.62
307.655	9.62
308.447	8.62
309.239	7.62
310.031	7.62
310.823	7.62
311.615	8.62
312.407	7.62
313.199	9.62
313.991	5.62
314.783	5.62
315.574	5.62
316.366	5.62
317.157	6.62
317.949	8.62
318.74	7.62
319.531	4.62
320.322	7.62
321.113	5.62
321.904	5.62
322.695	5.62
323.486	5.62
324.277	3.62
325.068	4.62
325.858	3.62
326.649	2.62
327.439	5.62
328.23	3.62
329.02	4.62
329.81	5.62
330.6	4.62
331.391	2.62
332.181	3.62
332.971	4.62
333.76	3.62
334.55	5.62
335.34	3.62
336.13	1.62
336.919	4.62
337.709	4.62
338.498	5.62
339.287	2.62
340.077	3.62
340.866	3.62
341.655	4.62
342.444	4.62
343.233	3.62
344.022	4.62
344.811	3.62
345.6	1.62
346.388	4.62
347.177	2.62
347.965	3.62
348.754	2.62
349.542	4.62
350.33	2.62
351.119	3.62
351.907	4.62
352.695	2.62
353.483	3.62
354.271	3.62
355.059	4.62
355.846	2.62
356.634	2.62
357.422	4.62
358.209	2.62
358.997	3.62
359.784	3.62
360.571	3.62
361.359	1.62
362.146	2.62
362.933	2.62
363.72	2.62
364.507	1.62
365.294	-1.38
366.081	4.62
366.867	3.62
367.654	2.62
368.44	3.62
369.227	2.62
370.013	2.62
370.8	2.62
371.586	2.62
372.372	1.62
373.158	1.62
373.944	3.62
374.73	0.62
375.516	4.62
376.302	2.62
377.088	2.62
377.873	4.62
378.659	2.62
379.445	4.62
380.23	2.62
381.015	0.62
381.801	3.62
382.586	5.62
383.371	1.62
384.156	2.62
384.941	2.62
385.726	0.62
386.511	2.62
387.296	2.62
388.08	1.62
388.865	2.62
389.649	0.62
390.434	2.62
391.218	-0.38
392.003	5.62
392.787	1.62
393.571	5.62
394.355	3.62
395.139	2.62
395.923	1.62
396.707	3.62
397.491	5.62
398.274	4.62
399.058	2.62
399.842	4.62
400.625	4.62
401.408	4.62
402.192	3.62
402.975	4.62
403.758	5.62
404.541	5.62
405.324	5.62
406.107	3.62
406.89	4.62
407.673	3.62
408.456	4.62
409.238	3.62
410.021	5.62
410.803	5.62
411.586	5.62
412.368	5.62
413.151	4.62
413.933	5.62
414.715	5.62
415.497	7.62
416.279	3.62
417.061	7.62
417.843	5.62
418.624	2.62
419.406	5.62
420.188	5.62
420.969	5.62
421.751	5.62
422.532	5.62
423.313	6.62
424.095	5.62
424.876	7.62
425.657	7.62
426.438	5.62
427.219	5.62
428	5.62
428.78	8.62
429.561	6.62
430.342	8.62
431.122	9.62
431.903	6.62
432.683	10.62
433.464	7.62
434.244	10.62
435.024	7.62
435.804	8.62
436.584	7.62
437.364	9.62
438.144	11.62
438.924	8.62
439.704	13.62
440.483	9.62
441.263	14.62
442.042	14.62
442.822	12.62
443.601	13.62
444.38	14.62
445.16	16.62
445.939	14.62
446.718	17.62
447.497	18.62
448.276	22.62
449.054	21.62
449.833	23.62
450.612	28.62
451.391	28.62
452.169	29.62
452.948	37.62
453.726	33.62
454.504	37.62
455.282	41.62
456.061	48.62
456.839	53.62
457.617	53.62
458.395	67.62
459.172	70.62
459.95	78.62
460.728	88.62
461.506	98.62
462.283	105.62
463.061	120.62
463.838	134.62
464.615	147.62
465.393	162.62
466.17	186.62
466.947	204.62
467.724	229.62
468.501	246.62
469.278	276.62
470.055	313.62
470.831	345.62
471.608	381.62
472.385	423.62
473.161	471.62
473.938	525.62
474.714	589.62
475.49	644.62
476.266	720.62
477.043	779.62
477.819	868.62
478.595	948.62
479.371	1043.62
480.146	1168.62
480.922	1265.62
481.698	1404.62
482.473	1549.62
483.249	1698.62
484.024	1864.62
484.8	2048.62
485.575	2251.62
486.35	2470.62
487.126	2718.62
487.901	2990.62
488.676	3246.62
489.451	3591.62
490.225	3921.62
491	4287.62
491.775	4717.62
492.55	5135.62
493.324	5610.62
494.099	6119.62
494.873	6686.62
495.647	7224.62
496.422	7874.62
497.196	8520.62
497.97	9193.62
498.744	9834.62
499.518	10529.62
500.292	11163.62
501.066	11925.62
501.839	12627.62
502.613	13260.62
503.387	13827.62
504.16	14367.62
504.934	14915.62
505.707	15287.62
506.48	15553.62
507.253	15773.62
508.027	15927.62
508.8	15956.62
509.573	15929.62
510.346	15651.62
511.118	15424.62
511.891	15117.62
512.664	14683.62
513.437	14266.62
514.209	13779.62
514.982	13283.62
515.754	12770.62
516.526	12267.62
517.298	11721.62
518.071	11177.62
518.843	10754.62
519.615	10284.62
520.387	9846.62
521.159	9492.62
521.93	9123.62
522.702	8695.62
523.474	8362.62
524.245	8062.62
525.017	7702.62
525.788	7415.62
526.56	7104.62
527.331	6837.62
528.102	6559.62
528.873	6273.62
529.644	5982.62
530.415	5735.62
531.186	5467.62
531.957	5184.62
532.728	4913.62
533.498	4675.62
534.269	4401.62
535.039	4191.62
535.81	3975.62
536.58	3757.62
537.351	3545.62
538.121	3331.62
538.891	3159.62
539.661	2984.62
540.431	2829.62
541.201	2682.62
541.971	2536.62
542.741	2396.62
543.51	2283.62
544.28	2175.62
545.05	2048.62
545.819	1945.62
546.588	1851.62
547.358	1764.62
548.127	1677.62
548.896	1595.62
549.665	1519.62
550.434	1428.62
551.203	1351.62
551.972	1288.62
552.741	1230.62
553.51	1155.62
554.278	1094.62
555.047	1043.62
555.815	990.62
556.584	925.62
557.352	862.62
558.121	816.62
558.889	771.62
559.657	729.62
560.425	688.62
561.193	654.62
561.961	611.62
562.729	588.62
563.496	557.62
564.264	529.62
565.032	491.62
565.799	458.62
566.567	440.62
567.334	413.62
568.101	394.62
568.869	367.62
569.636	346.62
570.403	325.62
571.17	310.62
571.937	293.62
572.704	270.62
573.471	249.62
574.237	242.62
575.004	232.62
575.771	213.62
576.537	203.62
577.303	191.62
578.07	181.62
578.836	169.62
579.602	162.62
580.368	155.62
581.134	143.62
581.9	138.62
582.666	126.62
583.432	126.62
584.198	110.62
584.964	110.62
585.729	98.62
586.495	98.62
587.26	90.62
588.025	89.62
588.791	79.62
589.556	79.62
590.321	70.62
591.086	67.62
591.851	69.62
592.616	61.62
593.381	61.62
594.146	54.62
594.911	55.62
595.675	49.62
596.44	48.62
597.204	49.62
597.969	46.62
598.733	44.62
599.497	43.62
600.261	37.62
601.025	38.62
601.79	33.62
602.553	32.62
603.317	31.62
604.081	30.62
604.845	25.62
605.609	27.62
606.372	27.62
607.136	28.62
607.899	27.62
608.662	23.62
609.426	24.62
610.189	22.62
610.952	20.62
611.715	21.62
612.478	19.62
613.241	15.62
614.004	17.62
614.767	16.62
615.529	17.62
616.292	15.62
617.055	16.62
617.817	14.62
618.579	13.62
619.342	14.62
620.104	12.62
620.866	14.62
621.628	11.62
622.39	10.62
623.152	11.62
623.914	12.62
624.676	8.62
625.438	8.62
626.199	9.62
626.961	9.62
627.722	11.62
628.484	7.62
629.245	7.62
630.006	8.62
630.768	7.62
631.529	4.62
632.29	9.62
633.051	6.62
633.812	5.62
634.573	7.62
635.333	5.62
636.094	6.62
636.855	8.62
637.615	5.62
638.376	6.62
639.136	6.62
639.896	5.62
640.657	5.62
641.417	4.62
642.177	7.62
642.937	4.62
643.697	5.62
644.457	4.62
645.216	3.62
645.976	4.62
646.736	3.62
647.495	3.62
648.255	3.62
649.014	4.62
649.774	5.62
650.533	3.62
651.292	5.62
652.051	4.62
652.81	3.62
653.569	3.62
654.328	3.62
655.087	4.62
655.846	3.62
656.604	4.62
657.363	2.62
658.121	6.62
658.88	3.62
659.638	3.62
660.397	2.62
661.155	4.62
661.913	2.62
662.671	4.62
663.429	2.62
664.187	3.62
664.945	5.62
665.703	6.62
666.46	2.62
667.218	5.62
667.976	0.62
668.733	4.62
669.49	4.62
670.248	2.62
671.005	2.62
671.762	3.62
672.519	3.62
673.276	3.62
674.033	5.62
674.79	2.62
675.547	1.62
676.304	4.62
677.06	1.62
677.817	3.62
678.574	1.62
679.33	0.62
680.086	2.62
680.843	-1.38
681.599	1.62
682.355	2.62
683.111	2.62
683.867	0.62
684.623	3.62
685.379	4.62
686.135	1.62
686.89	3.62
687.646	1.62
688.402	2.62
689.157	1.62
689.912	2.62
690.668	3.62
691.423	2.62
692.178	2.62
692.933	1.62
693.688	1.62
694.443	2.62
695.198	2.62
695.953	2.62
696.708	2.62
697.462	4.62
698.217	2.62
698.972	2.62
699.726	2.62
700.48	2.62
701.235	3.62
701.989	1.62
702.743	0.62
703.497	1.62
704.251	2.62
705.005	2.62
705.759	1.62
706.513	-0.38
707.266	2.62
708.02	1.62
708.774	2.62
709.527	2.62
710.28	2.62
711.034	2.62
711.787	3.62
712.54	1.62
713.293	3.62
714.046	1.62
714.799	3.62
715.552	4.62
716.305	2.62
717.058	4.62
717.81	1.62
718.563	2.62
719.315	2.62
720.068	2.62
720.82	0.62
721.573	1.62
722.325	0.62
723.077	0.62
723.829	1.62
724.581	0.62
725.333	2.62
726.085	1.62
726.836	2.62
727.588	1.62
728.34	-0.38
729.091	3.62
729.843	1.62
730.594	4.62
731.346	-0.38
732.097	2.62
732.848	1.62
733.599	1.62
734.35	1.62
735.101	0.62
735.852	3.62
736.603	2.62
737.354	2.62
738.104	3.62
738.855	2.62
739.605	4.62
740.356	3.62
741.106	0.62
741.856	2.62
742.607	4.62
743.357	1.62
744.107	2.62
744.857	4.62
745.607	4.62
746.357	1.62
747.106	2.62
747.856	3.62
748.606	1.62
749.355	3.62
750.105	3.62
750.854	1.62
751.603	3.62
752.353	3.62
753.102	1.62
753.851	2.62
754.6	2.62
755.349	5.62
756.098	3.62
756.847	5.62
757.595	2.62
758.344	4.62
759.093	3.62
759.841	1.62
760.589	3.62
761.338	2.62
762.086	2.62
762.834	3.62
763.582	2.62
764.331	2.62
765.079	3.62
765.826	3.62
766.574	5.62
767.322	7.62
768.07	3.62
768.817	4.62
769.565	3.62
770.312	2.62
771.06	4.62
771.807	2.62
772.554	3.62
773.302	4.62
774.049	3.62
774.796	6.62
775.543	5.62
776.29	4.62
777.036	6.62
777.783	4.62
778.53	4.62
779.276	3.62
780.023	4.62
780.769	5.62
781.516	4.62
782.262	5.62
783.008	5.62
783.754	5.62
784.5	6.62
785.246	6.62
785.992	3.62
786.738	4.62
787.484	3.62
788.23	4.62
788.975	6.62
789.721	3.62
790.466	4.62
791.212	5.62
791.957	5.62
792.702	5.62
793.447	5.62
794.193	6.62
794.938	3.62
795.683	3.62
796.427	4.62
797.172	5.62
797.917	3.62
798.662	5.62
799.406	5.62
800.151	2.62
800.895	7.62
801.64	7.62
802.384	5.62
803.128	5.62
803.872	4.62
804.616	5.62
805.36	5.62
806.104	3.62
806.848	4.62
807.592	6.62
808.336	3.62
809.079	5.62
809.823	5.62
810.566	4.62
811.31	3.62
812.053	2.62
812.796	3.62
813.539	1.62
814.283	2.62
815.026	1.62
815.769	1.62
816.511	3.62
817.254	2.62
817.997	4.62
818.74	4.62
819.482	2.62
820.225	3.62
820.967	1.62
821.71	4.62
822.452	5.62
823.194	2.62
823.936	2.62
824.678	2.62
825.42	0.62
826.162	1.62
826.904	3.62
827.646	1.62
828.388	3.62
829.129	3.62
829.871	0.62
830.612	2.62
831.354	0.62
832.095	1.62
832.836	5.62
833.577	2.62
834.319	1.62
835.06	3.62
835.801	3.62
836.542	1.62
837.282	3.62
838.023	2.62
838.764	2.62
839.504	3.62
840.245	3.62
840.985	2.62
841.726	3.62
842.466	2.62
843.206	1.62
843.946	0.62
844.687	3.62
845.427	2.62
846.166	2.62
846.906	1.62
847.646	2.62
848.386	0.62
849.125	1.62
849.865	2.62
850.605	2.62
851.344	1.62
852.083	1.62
852.823	3.62
853.562	2.62
854.301	2.62
855.04	1.62
855.779	1.62
856.518	2.62
857.257	1.62
857.995	1.62
858.734	1.62
859.473	3.62
860.211	1.62
860.95	1.62
861.688	3.62
862.426	0.62
863.165	2.62
863.903	-1.38
864.641	4.62
865.379	0.62
866.117	2.62
866.855	0.62
867.593	1.62
868.33	1.62
869.068	0.62
869.806	0.62
870.543	1.62
871.28	1.62
872.018	1.62
872.755	0.62
873.492	3.62
874.229	1.62
874.967	-1.38
875.703	2.62
876.44	0.62
877.177	0.62
877.914	1.62
878.651	1.62
879.387	1.62
880.124	1.62
880.86	0.62
881.597	2.62
882.333	-0.38
883.069	-1.38
883.806	2.62
884.542	0.62
885.278	-2.38
886.014	2.62
886.749	2.62
887.485	2.62
888.221	1.62
888.957	0.62
889.692	-0.38
890.428	1.62
891.163	-0.38
891.899	-2.38
892.634	2.62
893.369	0.62
894.104	2.62
894.839	2.62
895.574	1.62
896.309	-1.38
897.044	-0.38
897.779	-1.38
898.514	-1.38
899.248	3.62
899.983	1.62
900.717	-1.38
901.452	0.62
902.186	-0.38
902.92	2.62
903.654	1.62
904.389	0.62
905.123	1.62
905.857	2.62
906.59	1.62
907.324	-0.38
908.058	0.62
908.792	-0.38
909.525	0.62
910.259	2.62
910.992	0.62
911.726	2.62
912.459	1.62
913.192	2.62
913.925	-0.38
914.658	1.62
915.391	0.62
916.124	0.62
916.857	2.62
917.59	-0.38
918.323	1.62
919.055	0.62
919.788	0.62
920.521	-0.38
921.253	2.62
921.985	1.62
922.718	-0.38
923.45	0.62
924.182	-0.38
924.914	-2.38
925.646	-0.38
926.378	2.62
927.11	-1.38
927.841	-0.38
928.573	0.62
929.305	-0.38
930.036	-1.38
930.768	2.62
931.499	-0.38
932.23	2.62
932.962	-3.38
933.693	1.62
934.424	0.62
935.155	1.62
935.886	1.62
936.617	-0.38
937.348	-1.38
938.078	0.62
938.809	-0.38
939.54	1.62
940.27	-1.38
941.001	2.62
941.731	1.62
942.461	1.62
943.191	-1.38
943.922	-0.38
944.652	-0.38
945.382	1.62
946.112	0.62
946.841	0.62
947.571	1.62
948.301	-0.38
949.031	1.62
949.76	0.62
950.49	-0.38
951.219	3.62
951.948	0.62
952.678	3.62
953.407	3.62
954.136	-1.38
954.865	0.62
955.594	-2.38
956.323	1.62
957.052	-1.38
957.78	-0.38
958.509	1.62
959.238	-0.38
959.966	1.62
960.695	-0.38
961.423	1.62
962.151	0.62
962.88	0.62
963.608	1.62
964.336	0.62
965.064	0.62
965.792	-0.38
966.52	0.62
967.247	-0.38
967.975	-0.38
968.703	0.62
969.43	0.62
970.158	-0.38
970.885	-0.38
971.613	0.62
972.34	-0.38
973.067	1.62
973.794	-1.38
974.521	-0.38
975.248	1.62
975.975	1.62
976.702	0.62
977.429	-0.38
978.156	1.62
978.882	0.62
979.609	-1.38
980.335	0.62
981.062	1.62
981.788	2.62
982.514	-1.38
983.24	-0.38
983.967	2.62
984.693	0.62
985.419	-0.38
986.144	-1.38
986.87	2.62
987.596	-1.38
988.322	-0.38
989.047	-0.38
989.773	0.62
990.498	-0.38
991.224	0.62
991.949	1.62
992.674	0.62
993.399	1.62
994.124	1.62
994.849	-1.38
995.574	2.62
996.299	1.62
997.024	-0.38
997.749	-0.38
998.473	1.62
999.198	-0.38
999.922	-2.38
1000.647	-1.38
1001.371	3.62
1002.095	-1.38
1002.82	-1.38
1003.544	-1.38
1004.268	0.62
1004.992	-3.38
1005.716	0.62
1006.439	0.62
1007.163	1.62
1007.887	-1.38
1008.611	-1.38
1009.334	0.62
1010.058	-2.38
1010.781	0.62
1011.504	0.62
1012.228	-0.38
1012.951	-0.38
1013.674	0.62
1014.397	1.62
1015.12	-1.38
