节点500_145_QEPB04081__163__11-31-33-566.txt的数据

Date: Wed Nov 12 11:31:33 CST 2025
User: PC
Spectrometer: QEPB0408
触发模式: 0
积分时间 (秒): 1.000000E-2
Scans to average: 1
启用暗噪声校正: true
启用非线性校正: false
滑动平均宽度: 0
X轴模式: Wavelengths
Number of Pixels in Spectrum: 1044
>>>>>Begin Spectral Data<<<<<
220.843	0.62
221.644	-0.38
222.444	-1.38
223.244	1.62
224.045	-0.38
224.845	1.62
225.645	1.62
226.445	0.62
227.245	2.62
228.045	0.62
228.845	-0.38
229.645	3.62
230.444	0.62
231.244	-0.38
232.043	2.62
232.843	1.62
233.642	3.62
234.442	3.62
235.241	0.62
236.04	2.62
236.839	-1.38
237.638	1.62
238.437	2.62
239.236	4.62
240.035	2.62
240.833	0.62
241.632	2.62
242.43	1.62
243.229	1.62
244.027	0.62
244.826	3.62
245.624	3.62
246.422	2.62
247.22	-1.38
248.018	1.62
248.816	4.62
249.614	3.62
250.412	5.62
251.21	5.62
252.007	1.62
252.805	1.62
253.602	2.62
254.4	2.62
255.197	3.62
255.994	3.62
256.791	3.62
257.589	3.62
258.386	4.62
259.183	3.62
259.979	5.62
260.776	2.62
261.573	7.62
262.37	4.62
263.166	4.62
263.963	7.62
264.759	4.62
265.556	7.62
266.352	4.62
267.148	7.62
267.944	6.62
268.74	8.62
269.536	8.62
270.332	5.62
271.128	9.62
271.924	5.62
272.719	10.62
273.515	7.62
274.311	11.62
275.106	10.62
275.901	8.62
276.697	9.62
277.492	11.62
278.287	10.62
279.082	9.62
279.877	10.62
280.672	11.62
281.467	8.62
282.262	9.62
283.056	10.62
283.851	12.62
284.646	11.62
285.44	11.62
286.234	12.62
287.029	10.62
287.823	10.62
288.617	9.62
289.411	10.62
290.205	10.62
290.999	12.62
291.793	13.62
292.587	9.62
293.381	11.62
294.174	6.62
294.968	8.62
295.761	10.62
296.555	9.62
297.348	9.62
298.141	8.62
298.935	11.62
299.728	8.62
300.521	10.62
301.314	5.62
302.107	6.62
302.899	7.62
303.692	8.62
304.485	7.62
305.277	8.62
306.07	8.62
306.862	7.62
307.655	7.62
308.447	8.62
309.239	7.62
310.031	10.62
310.823	6.62
311.615	7.62
312.407	6.62
313.199	3.62
313.991	7.62
314.783	5.62
315.574	5.62
316.366	6.62
317.157	4.62
317.949	6.62
318.74	5.62
319.531	3.62
320.322	7.62
321.113	6.62
321.904	7.62
322.695	4.62
323.486	5.62
324.277	3.62
325.068	5.62
325.858	5.62
326.649	5.62
327.439	5.62
328.23	1.62
329.02	3.62
329.81	3.62
330.6	4.62
331.391	1.62
332.181	4.62
332.971	4.62
333.76	4.62
334.55	4.62
335.34	4.62
336.13	4.62
336.919	4.62
337.709	1.62
338.498	2.62
339.287	3.62
340.077	3.62
340.866	3.62
341.655	1.62
342.444	2.62
343.233	4.62
344.022	4.62
344.811	2.62
345.6	2.62
346.388	2.62
347.177	2.62
347.965	2.62
348.754	1.62
349.542	2.62
350.33	3.62
351.119	4.62
351.907	2.62
352.695	4.62
353.483	1.62
354.271	2.62
355.059	2.62
355.846	2.62
356.634	3.62
357.422	2.62
358.209	3.62
358.997	2.62
359.784	1.62
360.571	1.62
361.359	3.62
362.146	2.62
362.933	2.62
363.72	3.62
364.507	4.62
365.294	2.62
366.081	4.62
366.867	0.62
367.654	1.62
368.44	5.62
369.227	2.62
370.013	3.62
370.8	3.62
371.586	1.62
372.372	2.62
373.158	4.62
373.944	4.62
374.73	3.62
375.516	4.62
376.302	4.62
377.088	3.62
377.873	0.62
378.659	5.62
379.445	1.62
380.23	3.62
381.015	2.62
381.801	1.62
382.586	4.62
383.371	2.62
384.156	3.62
384.941	2.62
385.726	3.62
386.511	3.62
387.296	1.62
388.08	2.62
388.865	4.62
389.649	4.62
390.434	3.62
391.218	5.62
392.003	3.62
392.787	3.62
393.571	2.62
394.355	3.62
395.139	3.62
395.923	5.62
396.707	1.62
397.491	4.62
398.274	3.62
399.058	5.62
399.842	3.62
400.625	3.62
401.408	4.62
402.192	5.62
402.975	3.62
403.758	4.62
404.541	4.62
405.324	4.62
406.107	1.62
406.89	3.62
407.673	3.62
408.456	7.62
409.238	5.62
410.021	6.62
410.803	4.62
411.586	5.62
412.368	4.62
413.151	2.62
413.933	5.62
414.715	5.62
415.497	4.62
416.279	4.62
417.061	2.62
417.843	5.62
418.624	4.62
419.406	8.62
420.188	4.62
420.969	6.62
421.751	5.62
422.532	3.62
423.313	6.62
424.095	5.62
424.876	7.62
425.657	6.62
426.438	4.62
427.219	7.62
428	5.62
428.78	8.62
429.561	5.62
430.342	9.62
431.122	5.62
431.903	9.62
432.683	8.62
433.464	6.62
434.244	10.62
435.024	9.62
435.804	9.62
436.584	10.62
437.364	9.62
438.144	10.62
438.924	10.62
439.704	12.62
440.483	10.62
441.263	12.62
442.042	11.62
442.822	12.62
443.601	15.62
444.38	14.62
445.16	13.62
445.939	13.62
446.718	17.62
447.497	19.62
448.276	20.62
449.054	20.62
449.833	19.62
450.612	22.62
451.391	23.62
452.169	29.62
452.948	31.62
453.726	31.62
454.504	34.62
455.282	34.62
456.061	43.62
456.839	47.62
457.617	48.62
458.395	55.62
459.172	62.62
459.95	70.62
460.728	74.62
461.506	83.62
462.283	91.62
463.061	100.62
463.838	114.62
464.615	128.62
465.393	141.62
466.17	155.62
466.947	180.62
467.724	192.62
468.501	225.62
469.278	241.62
470.055	273.62
470.831	303.62
471.608	340.62
472.385	380.62
473.161	431.62
473.938	481.62
474.714	526.62
475.49	595.62
476.266	654.62
477.043	719.62
477.819	809.62
478.595	887.62
479.371	979.62
480.146	1105.62
480.922	1212.62
481.698	1352.62
482.473	1488.62
483.249	1645.62
484.024	1822.62
484.8	2025.62
485.575	2236.62
486.35	2487.62
487.126	2728.62
487.901	3033.62
488.676	3357.62
489.451	3704.62
490.225	4073.62
491	4492.62
491.775	4984.62
492.55	5455.62
493.324	5974.62
494.099	6563.62
494.873	7144.62
495.647	7807.62
496.422	8532.62
497.196	9235.62
497.97	9977.62
498.744	10768.62
499.518	11493.62
500.292	12288.62
501.066	13032.62
501.839	13692.62
502.613	14348.62
503.387	14959.62
504.16	15459.62
504.934	15884.62
505.707	16180.62
506.48	16398.62
507.253	16489.62
508.027	16495.62
508.8	16359.62
509.573	16136.62
510.346	15842.62
511.118	15451.62
511.891	14945.62
512.664	14472.62
513.437	13862.62
514.209	13314.62
514.982	12789.62
515.754	12200.62
516.526	11682.62
517.298	11116.62
518.071	10636.62
518.843	10174.62
519.615	9751.62
520.387	9317.62
521.159	8996.62
521.93	8609.62
522.702	8226.62
523.474	7928.62
524.245	7615.62
525.017	7299.62
525.788	7028.62
526.56	6722.62
527.331	6468.62
528.102	6161.62
528.873	5910.62
529.644	5634.62
530.415	5317.62
531.186	5063.62
531.957	4815.62
532.728	4546.62
533.498	4299.62
534.269	4090.62
535.039	3846.62
535.81	3619.62
536.58	3436.62
537.351	3226.62
538.121	3066.62
538.891	2886.62
539.661	2721.62
540.431	2574.62
541.201	2435.62
541.971	2319.62
542.741	2197.62
543.51	2064.62
544.28	1957.62
545.05	1879.62
545.819	1804.62
546.588	1706.62
547.358	1614.62
548.127	1540.62
548.896	1459.62
549.665	1383.62
550.434	1300.62
551.203	1247.62
551.972	1174.62
552.741	1118.62
553.51	1061.62
554.278	996.62
555.047	938.62
555.815	878.62
556.584	832.62
557.352	785.62
558.121	732.62
558.889	695.62
559.657	661.62
560.425	622.62
561.193	599.62
561.961	553.62
562.729	517.62
563.496	483.62
564.264	465.62
565.032	441.62
565.799	413.62
566.567	388.62
567.334	372.62
568.101	343.62
568.869	328.62
569.636	315.62
570.403	290.62
571.17	276.62
571.937	262.62
572.704	247.62
573.471	226.62
574.237	217.62
575.004	213.62
575.771	189.62
576.537	177.62
577.303	168.62
578.07	160.62
578.836	146.62
579.602	145.62
580.368	137.62
581.134	127.62
581.9	122.62
582.666	114.62
583.432	106.62
584.198	103.62
584.964	96.62
585.729	90.62
586.495	85.62
587.26	79.62
588.025	77.62
588.791	71.62
589.556	68.62
590.321	67.62
591.086	62.62
591.851	57.62
592.616	53.62
593.381	55.62
594.146	53.62
594.911	50.62
595.675	45.62
596.44	46.62
597.204	43.62
597.969	40.62
598.733	39.62
599.497	36.62
600.261	31.62
601.025	33.62
601.79	29.62
602.553	30.62
603.317	29.62
604.081	25.62
604.845	27.62
605.609	27.62
606.372	24.62
607.136	22.62
607.899	20.62
608.662	24.62
609.426	18.62
610.189	17.62
610.952	17.62
611.715	18.62
612.478	16.62
613.241	16.62
614.004	19.62
614.767	16.62
615.529	17.62
616.292	14.62
617.055	14.62
617.817	14.62
618.579	13.62
619.342	12.62
620.104	10.62
620.866	13.62
621.628	10.62
622.39	9.62
623.152	14.62
623.914	11.62
624.676	9.62
625.438	7.62
626.199	12.62
626.961	10.62
627.722	7.62
628.484	7.62
629.245	6.62
630.006	7.62
630.768	6.62
631.529	9.62
632.29	7.62
633.051	5.62
633.812	7.62
634.573	7.62
635.333	9.62
636.094	7.62
636.855	7.62
637.615	6.62
638.376	4.62
639.136	5.62
639.896	1.62
640.657	7.62
641.417	6.62
642.177	6.62
642.937	6.62
643.697	3.62
644.457	5.62
645.216	1.62
645.976	5.62
646.736	5.62
647.495	4.62
648.255	3.62
649.014	3.62
649.774	2.62
650.533	2.62
651.292	3.62
652.051	4.62
652.81	5.62
653.569	5.62
654.328	4.62
655.087	3.62
655.846	2.62
656.604	4.62
657.363	2.62
658.121	3.62
658.88	0.62
659.638	5.62
660.397	3.62
661.155	1.62
661.913	2.62
662.671	1.62
663.429	3.62
664.187	2.62
664.945	2.62
665.703	4.62
666.46	3.62
667.218	5.62
667.976	4.62
668.733	4.62
669.49	1.62
670.248	3.62
671.005	1.62
671.762	3.62
672.519	2.62
673.276	2.62
674.033	3.62
674.79	4.62
675.547	0.62
676.304	4.62
677.06	3.62
677.817	3.62
678.574	2.62
679.33	2.62
680.086	2.62
680.843	4.62
681.599	5.62
682.355	4.62
683.111	7.62
683.867	3.62
684.623	3.62
685.379	2.62
686.135	-0.38
686.89	1.62
687.646	2.62
688.402	3.62
689.157	2.62
689.912	2.62
690.668	1.62
691.423	1.62
692.178	2.62
692.933	2.62
693.688	2.62
694.443	3.62
695.198	0.62
695.953	2.62
696.708	1.62
697.462	4.62
698.217	2.62
698.972	2.62
699.726	2.62
700.48	2.62
701.235	2.62
701.989	1.62
702.743	0.62
703.497	3.62
704.251	1.62
705.005	2.62
705.759	0.62
706.513	4.62
707.266	2.62
708.02	2.62
708.774	2.62
709.527	2.62
710.28	0.62
711.034	3.62
711.787	1.62
712.54	3.62
713.293	2.62
714.046	0.62
714.799	2.62
715.552	1.62
716.305	1.62
717.058	2.62
717.81	3.62
718.563	2.62
719.315	2.62
720.068	3.62
720.82	1.62
721.573	2.62
722.325	4.62
723.077	2.62
723.829	3.62
724.581	0.62
725.333	1.62
726.085	4.62
726.836	3.62
727.588	3.62
728.34	3.62
729.091	-1.38
729.843	4.62
730.594	3.62
731.346	3.62
732.097	1.62
732.848	2.62
733.599	1.62
734.35	4.62
735.101	2.62
735.852	1.62
736.603	5.62
737.354	3.62
738.104	0.62
738.855	4.62
739.605	3.62
740.356	3.62
741.106	1.62
741.856	2.62
742.607	2.62
743.357	3.62
744.107	3.62
744.857	2.62
745.607	4.62
746.357	1.62
747.106	3.62
747.856	0.62
748.606	5.62
749.355	1.62
750.105	0.62
750.854	4.62
751.603	2.62
752.353	1.62
753.102	3.62
753.851	4.62
754.6	3.62
755.349	3.62
756.098	4.62
756.847	1.62
757.595	3.62
758.344	2.62
759.093	2.62
759.841	4.62
760.589	4.62
761.338	5.62
762.086	6.62
762.834	5.62
763.582	2.62
764.331	5.62
765.079	5.62
765.826	2.62
766.574	5.62
767.322	4.62
768.07	3.62
768.817	2.62
769.565	3.62
770.312	3.62
771.06	5.62
771.807	5.62
772.554	4.62
773.302	7.62
774.049	4.62
774.796	6.62
775.543	6.62
776.29	3.62
777.036	6.62
777.783	3.62
778.53	5.62
779.276	4.62
780.023	7.62
780.769	6.62
781.516	5.62
782.262	5.62
783.008	5.62
783.754	5.62
784.5	6.62
785.246	3.62
785.992	5.62
786.738	4.62
787.484	7.62
788.23	6.62
788.975	5.62
789.721	5.62
790.466	3.62
791.212	5.62
791.957	5.62
792.702	6.62
793.447	5.62
794.193	4.62
794.938	6.62
795.683	5.62
796.427	6.62
797.172	6.62
797.917	9.62
798.662	5.62
799.406	4.62
800.151	5.62
800.895	3.62
801.64	5.62
802.384	5.62
803.128	5.62
803.872	7.62
804.616	4.62
805.36	5.62
806.104	3.62
806.848	5.62
807.592	4.62
808.336	2.62
809.079	4.62
809.823	4.62
810.566	2.62
811.31	2.62
812.053	3.62
812.796	2.62
813.539	1.62
814.283	5.62
815.026	3.62
815.769	3.62
816.511	0.62
817.254	2.62
817.997	2.62
818.74	2.62
819.482	3.62
820.225	2.62
820.967	3.62
821.71	2.62
822.452	5.62
823.194	1.62
823.936	3.62
824.678	5.62
825.42	3.62
826.162	1.62
826.904	5.62
827.646	2.62
828.388	2.62
829.129	2.62
829.871	1.62
830.612	1.62
831.354	6.62
832.095	1.62
832.836	4.62
833.577	2.62
834.319	1.62
835.06	4.62
835.801	3.62
836.542	3.62
837.282	0.62
838.023	1.62
838.764	1.62
839.504	4.62
840.245	3.62
840.985	0.62
841.726	3.62
842.466	1.62
843.206	1.62
843.946	3.62
844.687	1.62
845.427	2.62
846.166	1.62
846.906	2.62
847.646	2.62
848.386	1.62
849.125	3.62
849.865	2.62
850.605	1.62
851.344	1.62
852.083	3.62
852.823	2.62
853.562	4.62
854.301	0.62
855.04	-1.38
855.779	2.62
856.518	0.62
857.257	4.62
857.995	1.62
858.734	4.62
859.473	0.62
860.211	-1.38
860.95	2.62
861.688	-0.38
862.426	3.62
863.165	2.62
863.903	3.62
864.641	-0.38
865.379	0.62
866.117	3.62
866.855	0.62
867.593	2.62
868.33	2.62
869.068	1.62
869.806	1.62
870.543	1.62
871.28	3.62
872.018	3.62
872.755	1.62
873.492	2.62
874.229	1.62
874.967	1.62
875.703	1.62
876.44	1.62
877.177	0.62
877.914	2.62
878.651	1.62
879.387	-0.38
880.124	2.62
880.86	-1.38
881.597	0.62
882.333	-0.38
883.069	0.62
883.806	-0.38
884.542	1.62
885.278	0.62
886.014	-1.38
886.749	2.62
887.485	0.62
888.221	0.62
888.957	2.62
889.692	1.62
890.428	1.62
891.163	-0.38
891.899	-0.38
892.634	2.62
893.369	2.62
894.104	1.62
894.839	0.62
895.574	0.62
896.309	-0.38
897.044	0.62
897.779	0.62
898.514	2.62
899.248	1.62
899.983	1.62
900.717	-1.38
901.452	-1.38
902.186	1.62
902.92	0.62
903.654	1.62
904.389	-0.38
905.123	1.62
905.857	1.62
906.59	-1.38
907.324	3.62
908.058	1.62
908.792	0.62
909.525	1.62
910.259	-0.38
910.992	1.62
911.726	-0.38
912.459	-0.38
913.192	0.62
913.925	1.62
914.658	0.62
915.391	0.62
916.124	1.62
916.857	0.62
917.59	-0.38
918.323	0.62
919.055	0.62
919.788	0.62
920.521	1.62
921.253	1.62
921.985	1.62
922.718	-0.38
923.45	2.62
924.182	-1.38
924.914	1.62
925.646	0.62
926.378	1.62
927.11	1.62
927.841	-1.38
928.573	2.62
929.305	0.62
930.036	-0.38
930.768	0.62
931.499	0.62
932.23	1.62
932.962	1.62
933.693	1.62
934.424	1.62
935.155	3.62
935.886	0.62
936.617	0.62
937.348	-0.38
938.078	-1.38
938.809	-1.38
939.54	0.62
940.27	2.62
941.001	0.62
941.731	2.62
942.461	-0.38
943.191	0.62
943.922	0.62
944.652	-0.38
945.382	2.62
946.112	2.62
946.841	-0.38
947.571	2.62
948.301	2.62
949.031	-1.38
949.76	0.62
950.49	-0.38
951.219	0.62
951.948	1.62
952.678	1.62
953.407	2.62
954.136	0.62
954.865	0.62
955.594	1.62
956.323	1.62
957.052	1.62
957.78	2.62
958.509	-1.38
959.238	1.62
959.966	-1.38
960.695	1.62
961.423	-0.38
962.151	0.62
962.88	-1.38
963.608	1.62
964.336	-0.38
965.064	0.62
965.792	-0.38
966.52	0.62
967.247	0.62
967.975	0.62
968.703	1.62
969.43	0.62
970.158	0.62
970.885	-0.38
971.613	2.62
972.34	1.62
973.067	1.62
973.794	-2.38
974.521	2.62
975.248	0.62
975.975	0.62
976.702	1.62
977.429	-0.38
978.156	-0.38
978.882	-2.38
979.609	1.62
980.335	0.62
981.062	-0.38
981.788	0.62
982.514	-0.38
983.24	-0.38
983.967	2.62
984.693	1.62
985.419	1.62
986.144	0.62
986.87	-0.38
987.596	2.62
988.322	0.62
989.047	0.62
989.773	0.62
990.498	1.62
991.224	-0.38
991.949	-0.38
992.674	0.62
993.399	-0.38
994.124	1.62
994.849	2.62
995.574	0.62
996.299	2.62
997.024	-0.38
997.749	0.62
998.473	2.62
999.198	0.62
999.922	-1.38
1000.647	0.62
1001.371	3.62
1002.095	-0.38
1002.82	0.62
1003.544	0.62
1004.268	0.62
1004.992	-1.38
1005.716	1.62
1006.439	0.62
1007.163	1.62
1007.887	1.62
1008.611	2.62
1009.334	-1.38
1010.058	-1.38
1010.781	-1.38
1011.504	-0.38
1012.228	3.62
1012.951	-0.38
1013.674	-1.38
1014.397	-1.38
1015.12	-1.38
