节点500_145_QEPB04081__50__11-29-44-736.txt的数据

Date: Wed Nov 12 11:29:44 CST 2025
User: PC
Spectrometer: QEPB0408
触发模式: 0
积分时间 (秒): 1.000000E-2
Scans to average: 1
启用暗噪声校正: true
启用非线性校正: false
滑动平均宽度: 0
X轴模式: Wavelengths
Number of Pixels in Spectrum: 1044
>>>>>Begin Spectral Data<<<<<
220.843	-0.38
221.644	-0.38
222.444	-0.38
223.244	-0.38
224.045	0.62
224.845	-1.38
225.645	1.62
226.445	2.62
227.245	2.62
228.045	1.62
228.845	1.62
229.645	-0.38
230.444	0.62
231.244	1.62
232.043	2.62
232.843	2.62
233.642	-0.38
234.442	-0.38
235.241	0.62
236.04	0.62
236.839	0.62
237.638	2.62
238.437	-0.38
239.236	0.62
240.035	1.62
240.833	1.62
241.632	3.62
242.43	0.62
243.229	1.62
244.027	1.62
244.826	3.62
245.624	2.62
246.422	1.62
247.22	3.62
248.018	0.62
248.816	2.62
249.614	2.62
250.412	3.62
251.21	2.62
252.007	3.62
252.805	3.62
253.602	2.62
254.4	3.62
255.197	4.62
255.994	4.62
256.791	2.62
257.589	5.62
258.386	1.62
259.183	4.62
259.979	7.62
260.776	3.62
261.573	4.62
262.37	4.62
263.166	4.62
263.963	6.62
264.759	5.62
265.556	5.62
266.352	6.62
267.148	5.62
267.944	5.62
268.74	7.62
269.536	6.62
270.332	8.62
271.128	7.62
271.924	8.62
272.719	9.62
273.515	8.62
274.311	9.62
275.106	10.62
275.901	9.62
276.697	12.62
277.492	9.62
278.287	11.62
279.082	8.62
279.877	10.62
280.672	11.62
281.467	10.62
282.262	10.62
283.056	10.62
283.851	11.62
284.646	11.62
285.44	12.62
286.234	13.62
287.029	11.62
287.823	13.62
288.617	10.62
289.411	11.62
290.205	11.62
290.999	13.62
291.793	12.62
292.587	12.62
293.381	8.62
294.174	13.62
294.968	11.62
295.761	11.62
296.555	9.62
297.348	11.62
298.141	11.62
298.935	11.62
299.728	10.62
300.521	8.62
301.314	8.62
302.107	9.62
302.899	7.62
303.692	7.62
304.485	8.62
305.277	7.62
306.07	9.62
306.862	7.62
307.655	7.62
308.447	9.62
309.239	6.62
310.031	7.62
310.823	10.62
311.615	7.62
312.407	7.62
313.199	6.62
313.991	6.62
314.783	4.62
315.574	4.62
316.366	7.62
317.157	4.62
317.949	5.62
318.74	4.62
319.531	5.62
320.322	6.62
321.113	3.62
321.904	7.62
322.695	5.62
323.486	5.62
324.277	3.62
325.068	3.62
325.858	4.62
326.649	4.62
327.439	3.62
328.23	6.62
329.02	4.62
329.81	3.62
330.6	2.62
331.391	5.62
332.181	3.62
332.971	2.62
333.76	4.62
334.55	3.62
335.34	4.62
336.13	5.62
336.919	2.62
337.709	4.62
338.498	3.62
339.287	4.62
340.077	3.62
340.866	5.62
341.655	4.62
342.444	2.62
343.233	1.62
344.022	2.62
344.811	2.62
345.6	1.62
346.388	2.62
347.177	1.62
347.965	1.62
348.754	2.62
349.542	3.62
350.33	4.62
351.119	5.62
351.907	3.62
352.695	3.62
353.483	2.62
354.271	4.62
355.059	3.62
355.846	4.62
356.634	3.62
357.422	1.62
358.209	3.62
358.997	1.62
359.784	4.62
360.571	2.62
361.359	3.62
362.146	1.62
362.933	2.62
363.72	2.62
364.507	2.62
365.294	2.62
366.081	3.62
366.867	1.62
367.654	1.62
368.44	3.62
369.227	3.62
370.013	3.62
370.8	3.62
371.586	3.62
372.372	2.62
373.158	0.62
373.944	4.62
374.73	4.62
375.516	3.62
376.302	3.62
377.088	4.62
377.873	4.62
378.659	2.62
379.445	4.62
380.23	2.62
381.015	3.62
381.801	2.62
382.586	1.62
383.371	5.62
384.156	3.62
384.941	3.62
385.726	4.62
386.511	2.62
387.296	3.62
388.08	3.62
388.865	2.62
389.649	0.62
390.434	4.62
391.218	3.62
392.003	2.62
392.787	3.62
393.571	3.62
394.355	3.62
395.139	2.62
395.923	3.62
396.707	2.62
397.491	3.62
398.274	4.62
399.058	2.62
399.842	4.62
400.625	5.62
401.408	5.62
402.192	4.62
402.975	4.62
403.758	5.62
404.541	5.62
405.324	4.62
406.107	6.62
406.89	4.62
407.673	4.62
408.456	3.62
409.238	4.62
410.021	4.62
410.803	5.62
411.586	2.62
412.368	5.62
413.151	3.62
413.933	4.62
414.715	3.62
415.497	6.62
416.279	5.62
417.061	5.62
417.843	3.62
418.624	6.62
419.406	6.62
420.188	4.62
420.969	5.62
421.751	6.62
422.532	5.62
423.313	5.62
424.095	6.62
424.876	7.62
425.657	8.62
426.438	7.62
427.219	8.62
428	6.62
428.78	7.62
429.561	9.62
430.342	8.62
431.122	6.62
431.903	8.62
432.683	8.62
433.464	9.62
434.244	9.62
435.024	9.62
435.804	8.62
436.584	9.62
437.364	9.62
438.144	11.62
438.924	9.62
439.704	10.62
440.483	9.62
441.263	13.62
442.042	12.62
442.822	13.62
443.601	16.62
444.38	13.62
445.16	11.62
445.939	18.62
446.718	16.62
447.497	19.62
448.276	17.62
449.054	19.62
449.833	23.62
450.612	22.62
451.391	24.62
452.169	27.62
452.948	30.62
453.726	30.62
454.504	34.62
455.282	37.62
456.061	41.62
456.839	46.62
457.617	48.62
458.395	56.62
459.172	59.62
459.95	70.62
460.728	72.62
461.506	82.62
462.283	92.62
463.061	102.62
463.838	113.62
464.615	127.62
465.393	138.62
466.17	160.62
466.947	170.62
467.724	195.62
468.501	220.62
469.278	238.62
470.055	272.62
470.831	298.62
471.608	333.62
472.385	373.62
473.161	429.62
473.938	469.62
474.714	530.62
475.49	594.62
476.266	651.62
477.043	716.62
477.819	815.62
478.595	900.62
479.371	1014.62
480.146	1111.62
480.922	1241.62
481.698	1371.62
482.473	1528.62
483.249	1693.62
484.024	1875.62
484.8	2075.62
485.575	2322.62
486.35	2549.62
487.126	2830.62
487.901	3150.62
488.676	3456.62
489.451	3879.62
490.225	4283.62
491	4744.62
491.775	5264.62
492.55	5778.62
493.324	6346.62
494.099	6959.62
494.873	7641.62
495.647	8313.62
496.422	9077.62
497.196	9881.62
497.97	10673.62
498.744	11512.62
499.518	12304.62
500.292	13097.62
501.066	13852.62
501.839	14631.62
502.613	15295.62
503.387	15950.62
504.16	16435.62
504.934	16805.62
505.707	17120.62
506.48	17313.62
507.253	17341.62
508.027	17336.62
508.8	17086.62
509.573	16863.62
510.346	16527.62
511.118	16059.62
511.891	15513.62
512.664	14892.62
513.437	14327.62
514.209	13706.62
514.982	13122.62
515.754	12502.62
516.526	11918.62
517.298	11371.62
518.071	10851.62
518.843	10333.62
519.615	9942.62
520.387	9507.62
521.159	9177.62
521.93	8765.62
522.702	8453.62
523.474	8109.62
524.245	7753.62
525.017	7475.62
525.788	7191.62
526.56	6883.62
527.331	6588.62
528.102	6261.62
528.873	6006.62
529.644	5693.62
530.415	5442.62
531.186	5166.62
531.957	4889.62
532.728	4629.62
533.498	4353.62
534.269	4121.62
535.039	3907.62
535.81	3650.62
536.58	3440.62
537.351	3272.62
538.121	3075.62
538.891	2916.62
539.661	2739.62
540.431	2603.62
541.201	2458.62
541.971	2331.62
542.741	2206.62
543.51	2096.62
544.28	1995.62
545.05	1891.62
545.819	1784.62
546.588	1697.62
547.358	1632.62
548.127	1564.62
548.896	1476.62
549.665	1399.62
550.434	1321.62
551.203	1253.62
551.972	1184.62
552.741	1135.62
553.51	1057.62
554.278	1006.62
555.047	939.62
555.815	888.62
556.584	841.62
557.352	794.62
558.121	741.62
558.889	707.62
559.657	659.62
560.425	617.62
561.193	589.62
561.961	547.62
562.729	524.62
563.496	489.62
564.264	464.62
565.032	433.62
565.799	419.62
566.567	394.62
567.334	367.62
568.101	343.62
568.869	327.62
569.636	313.62
570.403	292.62
571.17	278.62
571.937	265.62
572.704	250.62
573.471	231.62
574.237	223.62
575.004	200.62
575.771	195.62
576.537	181.62
577.303	165.62
578.07	155.62
578.836	150.62
579.602	141.62
580.368	131.62
581.134	131.62
581.9	114.62
582.666	114.62
583.432	108.62
584.198	100.62
584.964	94.62
585.729	91.62
586.495	85.62
587.26	82.62
588.025	78.62
588.791	73.62
589.556	64.62
590.321	67.62
591.086	62.62
591.851	64.62
592.616	57.62
593.381	51.62
594.146	50.62
594.911	47.62
595.675	45.62
596.44	44.62
597.204	39.62
597.969	39.62
598.733	40.62
599.497	36.62
600.261	33.62
601.025	30.62
601.79	30.62
602.553	29.62
603.317	30.62
604.081	30.62
604.845	25.62
605.609	27.62
606.372	25.62
607.136	25.62
607.899	24.62
608.662	19.62
609.426	19.62
610.189	20.62
610.952	19.62
611.715	21.62
612.478	18.62
613.241	14.62
614.004	15.62
614.767	16.62
615.529	15.62
616.292	13.62
617.055	14.62
617.817	13.62
618.579	14.62
619.342	11.62
620.104	12.62
620.866	11.62
621.628	11.62
622.39	10.62
623.152	10.62
623.914	10.62
624.676	12.62
625.438	9.62
626.199	10.62
626.961	8.62
627.722	7.62
628.484	7.62
629.245	6.62
630.006	8.62
630.768	6.62
631.529	7.62
632.29	7.62
633.051	10.62
633.812	8.62
634.573	6.62
635.333	5.62
636.094	6.62
636.855	7.62
637.615	2.62
638.376	6.62
639.136	6.62
639.896	5.62
640.657	4.62
641.417	4.62
642.177	5.62
642.937	6.62
643.697	6.62
644.457	5.62
645.216	5.62
645.976	4.62
646.736	5.62
647.495	6.62
648.255	6.62
649.014	3.62
649.774	3.62
650.533	4.62
651.292	5.62
652.051	2.62
652.81	4.62
653.569	3.62
654.328	1.62
655.087	6.62
655.846	3.62
656.604	3.62
657.363	2.62
658.121	4.62
658.88	4.62
659.638	5.62
660.397	2.62
661.155	5.62
661.913	2.62
662.671	3.62
663.429	2.62
664.187	3.62
664.945	4.62
665.703	1.62
666.46	1.62
667.218	3.62
667.976	2.62
668.733	6.62
669.49	2.62
670.248	2.62
671.005	2.62
671.762	2.62
672.519	2.62
673.276	3.62
674.033	3.62
674.79	3.62
675.547	4.62
676.304	4.62
677.06	1.62
677.817	4.62
678.574	4.62
679.33	2.62
680.086	2.62
680.843	3.62
681.599	2.62
682.355	1.62
683.111	2.62
683.867	1.62
684.623	5.62
685.379	4.62
686.135	1.62
686.89	2.62
687.646	1.62
688.402	2.62
689.157	1.62
689.912	2.62
690.668	3.62
691.423	2.62
692.178	0.62
692.933	1.62
693.688	1.62
694.443	2.62
695.198	4.62
695.953	1.62
696.708	1.62
697.462	4.62
698.217	2.62
698.972	1.62
699.726	3.62
700.48	2.62
701.235	1.62
701.989	2.62
702.743	2.62
703.497	0.62
704.251	3.62
705.005	0.62
705.759	1.62
706.513	4.62
707.266	1.62
708.02	4.62
708.774	1.62
709.527	4.62
710.28	3.62
711.034	2.62
711.787	2.62
712.54	3.62
713.293	3.62
714.046	2.62
714.799	2.62
715.552	2.62
716.305	1.62
717.058	2.62
717.81	2.62
718.563	0.62
719.315	2.62
720.068	5.62
720.82	3.62
721.573	1.62
722.325	2.62
723.077	3.62
723.829	3.62
724.581	2.62
725.333	3.62
726.085	3.62
726.836	1.62
727.588	2.62
728.34	2.62
729.091	3.62
729.843	5.62
730.594	0.62
731.346	5.62
732.097	1.62
732.848	4.62
733.599	1.62
734.35	2.62
735.101	0.62
735.852	2.62
736.603	3.62
737.354	1.62
738.104	3.62
738.855	1.62
739.605	2.62
740.356	2.62
741.106	4.62
741.856	3.62
742.607	2.62
743.357	5.62
744.107	2.62
744.857	3.62
745.607	5.62
746.357	1.62
747.106	2.62
747.856	1.62
748.606	2.62
749.355	4.62
750.105	2.62
750.854	3.62
751.603	1.62
752.353	5.62
753.102	4.62
753.851	3.62
754.6	5.62
755.349	3.62
756.098	4.62
756.847	4.62
757.595	2.62
758.344	4.62
759.093	3.62
759.841	2.62
760.589	4.62
761.338	3.62
762.086	2.62
762.834	2.62
763.582	2.62
764.331	5.62
765.079	6.62
765.826	4.62
766.574	3.62
767.322	4.62
768.07	4.62
768.817	2.62
769.565	4.62
770.312	5.62
771.06	3.62
771.807	6.62
772.554	5.62
773.302	6.62
774.049	3.62
774.796	6.62
775.543	6.62
776.29	4.62
777.036	5.62
777.783	6.62
778.53	4.62
779.276	5.62
780.023	4.62
780.769	5.62
781.516	5.62
782.262	8.62
783.008	4.62
783.754	5.62
784.5	7.62
785.246	5.62
785.992	6.62
786.738	7.62
787.484	2.62
788.23	4.62
788.975	4.62
789.721	4.62
790.466	8.62
791.212	5.62
791.957	6.62
792.702	5.62
793.447	5.62
794.193	8.62
794.938	5.62
795.683	6.62
796.427	6.62
797.172	6.62
797.917	6.62
798.662	5.62
799.406	3.62
800.151	7.62
800.895	3.62
801.64	6.62
802.384	3.62
803.128	5.62
803.872	3.62
804.616	5.62
805.36	4.62
806.104	2.62
806.848	3.62
807.592	4.62
808.336	3.62
809.079	2.62
809.823	3.62
810.566	3.62
811.31	2.62
812.053	4.62
812.796	4.62
813.539	6.62
814.283	5.62
815.026	2.62
815.769	3.62
816.511	3.62
817.254	5.62
817.997	2.62
818.74	3.62
819.482	3.62
820.225	4.62
820.967	0.62
821.71	5.62
822.452	3.62
823.194	3.62
823.936	2.62
824.678	3.62
825.42	3.62
826.162	3.62
826.904	1.62
827.646	3.62
828.388	2.62
829.129	1.62
829.871	2.62
830.612	3.62
831.354	1.62
832.095	2.62
832.836	2.62
833.577	0.62
834.319	2.62
835.06	3.62
835.801	2.62
836.542	3.62
837.282	2.62
838.023	3.62
838.764	3.62
839.504	2.62
840.245	1.62
840.985	0.62
841.726	2.62
842.466	2.62
843.206	3.62
843.946	2.62
844.687	2.62
845.427	3.62
846.166	4.62
846.906	3.62
847.646	4.62
848.386	2.62
849.125	0.62
849.865	2.62
850.605	2.62
851.344	2.62
852.083	5.62
852.823	0.62
853.562	-1.38
854.301	2.62
855.04	0.62
855.779	2.62
856.518	2.62
857.257	3.62
857.995	1.62
858.734	0.62
859.473	1.62
860.211	1.62
860.95	1.62
861.688	2.62
862.426	3.62
863.165	0.62
863.903	2.62
864.641	2.62
865.379	0.62
866.117	1.62
866.855	1.62
867.593	1.62
868.33	0.62
869.068	1.62
869.806	1.62
870.543	1.62
871.28	1.62
872.018	1.62
872.755	1.62
873.492	2.62
874.229	1.62
874.967	0.62
875.703	-0.38
876.44	3.62
877.177	1.62
877.914	2.62
878.651	2.62
879.387	0.62
880.124	2.62
880.86	-1.38
881.597	-1.38
882.333	2.62
883.069	1.62
883.806	0.62
884.542	1.62
885.278	-0.38
886.014	-0.38
886.749	0.62
887.485	1.62
888.221	0.62
888.957	-0.38
889.692	0.62
890.428	1.62
891.163	2.62
891.899	1.62
892.634	3.62
893.369	0.62
894.104	0.62
894.839	2.62
895.574	0.62
896.309	-1.38
897.044	1.62
897.779	2.62
898.514	-0.38
899.248	2.62
899.983	-0.38
900.717	2.62
901.452	1.62
902.186	0.62
902.92	0.62
903.654	-0.38
904.389	-0.38
905.123	0.62
905.857	-0.38
906.59	0.62
907.324	-0.38
908.058	0.62
908.792	1.62
909.525	1.62
910.259	-0.38
910.992	1.62
911.726	2.62
912.459	1.62
913.192	0.62
913.925	-1.38
914.658	1.62
915.391	0.62
916.124	2.62
916.857	1.62
917.59	1.62
918.323	1.62
919.055	1.62
919.788	1.62
920.521	0.62
921.253	2.62
921.985	1.62
922.718	-0.38
923.45	1.62
924.182	1.62
924.914	1.62
925.646	0.62
926.378	1.62
927.11	-0.38
927.841	0.62
928.573	0.62
929.305	0.62
930.036	0.62
930.768	0.62
931.499	1.62
932.23	-0.38
932.962	0.62
933.693	0.62
934.424	2.62
935.155	2.62
935.886	1.62
936.617	1.62
937.348	-0.38
938.078	1.62
938.809	1.62
939.54	-0.38
940.27	1.62
941.001	-1.38
941.731	0.62
942.461	-0.38
943.191	-1.38
943.922	1.62
944.652	0.62
945.382	1.62
946.112	1.62
946.841	-1.38
947.571	1.62
948.301	-1.38
949.031	0.62
949.76	-0.38
950.49	2.62
951.219	-1.38
951.948	0.62
952.678	-0.38
953.407	-1.38
954.136	0.62
954.865	-0.38
955.594	1.62
956.323	0.62
957.052	-0.38
957.78	0.62
958.509	-1.38
959.238	1.62
959.966	-1.38
960.695	3.62
961.423	-0.38
962.151	0.62
962.88	-0.38
963.608	0.62
964.336	0.62
965.064	1.62
965.792	1.62
966.52	1.62
967.247	1.62
967.975	-0.38
968.703	-1.38
969.43	-0.38
970.158	3.62
970.885	2.62
971.613	-0.38
972.34	0.62
973.067	0.62
973.794	-1.38
974.521	1.62
975.248	0.62
975.975	1.62
976.702	0.62
977.429	1.62
978.156	-0.38
978.882	1.62
979.609	2.62
980.335	2.62
981.062	1.62
981.788	1.62
982.514	1.62
983.24	0.62
983.967	-0.38
984.693	1.62
985.419	1.62
986.144	-2.38
986.87	0.62
987.596	0.62
988.322	1.62
989.047	-1.38
989.773	1.62
990.498	1.62
991.224	0.62
991.949	1.62
992.674	0.62
993.399	-0.38
994.124	1.62
994.849	0.62
995.574	1.62
996.299	-0.38
997.024	0.62
997.749	-1.38
998.473	1.62
999.198	-1.38
999.922	1.62
1000.647	0.62
1001.371	5.62
1002.095	-3.38
1002.82	-1.38
1003.544	-0.38
1004.268	-0.38
1004.992	-0.38
1005.716	-1.38
1006.439	1.62
1007.163	0.62
1007.887	1.62
1008.611	0.62
1009.334	0.62
1010.058	0.62
1010.781	2.62
1011.504	0.62
1012.228	0.62
1012.951	-0.38
1013.674	-0.38
1014.397	0.62
1015.12	-0.38
