节点500_145_QEPB04081__3__11-28-59-821.txt的数据

Date: Wed Nov 12 11:28:59 CST 2025
User: PC
Spectrometer: QEPB0408
触发模式: 0
积分时间 (秒): 1.000000E-2
Scans to average: 1
启用暗噪声校正: true
启用非线性校正: false
滑动平均宽度: 0
X轴模式: Wavelengths
Number of Pixels in Spectrum: 1044
>>>>>Begin Spectral Data<<<<<
220.843	-0.5
221.644	0.5
222.444	-1.5
223.244	-2.5
224.045	-2.5
224.845	-1.5
225.645	-1.5
226.445	1.5
227.245	-1.5
228.045	-0.5
228.845	-1.5
229.645	-3.5
230.444	-2.5
231.244	-1.5
232.043	-2.5
232.843	1.5
233.642	-1.5
234.442	-2.5
235.241	-1.5
236.04	-1.5
236.839	-2.5
237.638	-1.5
238.437	0.5
239.236	-1.5
240.035	-1.5
240.833	-0.5
241.632	-2.5
242.43	-1.5
243.229	-1.5
244.027	0.5
244.826	-1.5
245.624	-1.5
246.422	-3.5
247.22	-0.5
248.018	-2.5
248.816	-0.5
249.614	-0.5
250.412	-0.5
251.21	-0.5
252.007	1.5
252.805	-0.5
253.602	0.5
254.4	0.5
255.197	-0.5
255.994	-0.5
256.791	-1.5
257.589	0.5
258.386	-1.5
259.183	-1.5
259.979	0.5
260.776	-1.5
261.573	0.5
262.37	-0.5
263.166	-1.5
263.963	2.5
264.759	-1.5
265.556	1.5
266.352	-0.5
267.148	-1.5
267.944	0.5
268.74	0.5
269.536	-1.5
270.332	-1.5
271.128	0.5
271.924	-0.5
272.719	1.5
273.515	-1.5
274.311	-1.5
275.106	1.5
275.901	0.5
276.697	-1.5
277.492	-1.5
278.287	0.5
279.082	-0.5
279.877	-2.5
280.672	1.5
281.467	-1.5
282.262	-0.5
283.056	-2.5
283.851	-0.5
284.646	0.5
285.44	1.5
286.234	-1.5
287.029	-1.5
287.823	0.5
288.617	-0.5
289.411	1.5
290.205	0.5
290.999	-1.5
291.793	0.5
292.587	0.5
293.381	0.5
294.174	-0.5
294.968	-1.5
295.761	-1.5
296.555	1.5
297.348	-0.5
298.141	-1.5
298.935	0.5
299.728	-1.5
300.521	-0.5
301.314	1.5
302.107	0.5
302.899	2.5
303.692	-1.5
304.485	-1.5
305.277	1.5
306.07	-0.5
306.862	-0.5
307.655	-0.5
308.447	0.5
309.239	-0.5
310.031	-1.5
310.823	0.5
311.615	-0.5
312.407	-0.5
313.199	-1.5
313.991	1.5
314.783	-0.5
315.574	-0.5
316.366	0.5
317.157	-1.5
317.949	-0.5
318.74	-0.5
319.531	0.5
320.322	-1.5
321.113	1.5
321.904	1.5
322.695	-1.5
323.486	1.5
324.277	-1.5
325.068	0.5
325.858	0.5
326.649	0.5
327.439	0.5
328.23	-1.5
329.02	-1.5
329.81	-1.5
330.6	0.5
331.391	-0.5
332.181	0.5
332.971	0.5
333.76	-0.5
334.55	0.5
335.34	-0.5
336.13	1.5
336.919	-2.5
337.709	-1.5
338.498	-0.5
339.287	-0.5
340.077	0.5
340.866	1.5
341.655	-0.5
342.444	0.5
343.233	1.5
344.022	0.5
344.811	0.5
345.6	1.5
346.388	2.5
347.177	0.5
347.965	1.5
348.754	0.5
349.542	-0.5
350.33	1.5
351.119	0.5
351.907	1.5
352.695	0.5
353.483	0.5
354.271	-2.5
355.059	-0.5
355.846	1.5
356.634	-1.5
357.422	0.5
358.209	-1.5
358.997	-0.5
359.784	-0.5
360.571	2.5
361.359	-1.5
362.146	1.5
362.933	-0.5
363.72	-0.5
364.507	-1.5
365.294	-1.5
366.081	1.5
366.867	-2.5
367.654	2.5
368.44	-1.5
369.227	-1.5
370.013	1.5
370.8	-0.5
371.586	2.5
372.372	0.5
373.158	1.5
373.944	-0.5
374.73	-1.5
375.516	0.5
376.302	1.5
377.088	-0.5
377.873	2.5
378.659	1.5
379.445	0.5
380.23	1.5
381.015	1.5
381.801	-0.5
382.586	-1.5
383.371	-1.5
384.156	-0.5
384.941	2.5
385.726	-0.5
386.511	-1.5
387.296	1.5
388.08	-1.5
388.865	1.5
389.649	1.5
390.434	-1.5
391.218	-1.5
392.003	2.5
392.787	0.5
393.571	0.5
394.355	1.5
395.139	-0.5
395.923	2.5
396.707	-1.5
397.491	1.5
398.274	0.5
399.058	0.5
399.842	-2.5
400.625	1.5
401.408	-1.5
402.192	-0.5
402.975	-0.5
403.758	1.5
404.541	0.5
405.324	-0.5
406.107	0.5
406.89	-0.5
407.673	-0.5
408.456	-1.5
409.238	-0.5
410.021	-0.5
410.803	-1.5
411.586	-0.5
412.368	1.5
413.151	0.5
413.933	-1.5
414.715	-1.5
415.497	0.5
416.279	-1.5
417.061	-1.5
417.843	0.5
418.624	1.5
419.406	2.5
420.188	1.5
420.969	1.5
421.751	0.5
422.532	0.5
423.313	-0.5
424.095	1.5
424.876	1.5
425.657	1.5
426.438	0.5
427.219	-0.5
428	0.5
428.78	1.5
429.561	-0.5
430.342	1.5
431.122	0.5
431.903	0.5
432.683	0.5
433.464	-1.5
434.244	0.5
435.024	0.5
435.804	-1.5
436.584	1.5
437.364	0.5
438.144	1.5
438.924	-1.5
439.704	0.5
440.483	0.5
441.263	0.5
442.042	-0.5
442.822	-1.5
443.601	0.5
444.38	0.5
445.16	0.5
445.939	0.5
446.718	-0.5
447.497	1.5
448.276	-0.5
449.054	0.5
449.833	1.5
450.612	1.5
451.391	0.5
452.169	-0.5
452.948	2.5
453.726	1.5
454.504	1.5
455.282	1.5
456.061	0.5
456.839	1.5
457.617	-1.5
458.395	1.5
459.172	-2.5
459.95	1.5
460.728	0.5
461.506	-0.5
462.283	-0.5
463.061	-0.5
463.838	1.5
464.615	0.5
465.393	2.5
466.17	-1.5
466.947	0.5
467.724	0.5
468.501	-2.5
469.278	1.5
470.055	-0.5
470.831	0.5
471.608	1.5
472.385	0.5
473.161	-1.5
473.938	-0.5
474.714	1.5
475.49	0.5
476.266	1.5
477.043	1.5
477.819	-1.5
478.595	1.5
479.371	-1.5
480.146	-0.5
480.922	-0.5
481.698	0.5
482.473	1.5
483.249	-0.5
484.024	0.5
484.8	-1.5
485.575	1.5
486.35	0.5
487.126	-0.5
487.901	3.5
488.676	-0.5
489.451	0.5
490.225	0.5
491	2.5
491.775	0.5
492.55	1.5
493.324	1.5
494.099	0.5
494.873	0.5
495.647	-0.5
496.422	0.5
497.196	2.5
497.97	0.5
498.744	2.5
499.518	0.5
500.292	-0.5
501.066	1.5
501.839	0.5
502.613	0.5
503.387	1.5
504.16	-1.5
504.934	-1.5
505.707	1.5
506.48	0.5
507.253	0.5
508.027	2.5
508.8	-1.5
509.573	1.5
510.346	-0.5
511.118	0.5
511.891	2.5
512.664	0.5
513.437	0.5
514.209	1.5
514.982	1.5
515.754	1.5
516.526	0.5
517.298	-1.5
518.071	-1.5
518.843	-0.5
519.615	1.5
520.387	1.5
521.159	0.5
521.93	1.5
522.702	0.5
523.474	-0.5
524.245	0.5
525.017	-0.5
525.788	2.5
526.56	-0.5
527.331	1.5
528.102	-1.5
528.873	0.5
529.644	1.5
530.415	-0.5
531.186	-0.5
531.957	2.5
532.728	-1.5
533.498	0.5
534.269	-0.5
535.039	2.5
535.81	-1.5
536.58	1.5
537.351	3.5
538.121	0.5
538.891	0.5
539.661	1.5
540.431	1.5
541.201	1.5
541.971	0.5
542.741	-0.5
543.51	-0.5
544.28	1.5
545.05	-1.5
545.819	0.5
546.588	1.5
547.358	1.5
548.127	1.5
548.896	0.5
549.665	1.5
550.434	0.5
551.203	1.5
551.972	-0.5
552.741	-0.5
553.51	1.5
554.278	-1.5
555.047	1.5
555.815	0.5
556.584	0.5
557.352	-1.5
558.121	-1.5
558.889	0.5
559.657	1.5
560.425	0.5
561.193	-0.5
561.961	1.5
562.729	-0.5
563.496	1.5
564.264	2.5
565.032	-0.5
565.799	0.5
566.567	1.5
567.334	-1.5
568.101	0.5
568.869	0.5
569.636	0.5
570.403	-1.5
571.17	3.5
571.937	1.5
572.704	1.5
573.471	0.5
574.237	-2.5
575.004	1.5
575.771	1.5
576.537	0.5
577.303	-0.5
578.07	0.5
578.836	0.5
579.602	1.5
580.368	1.5
581.134	-0.5
581.9	0.5
582.666	1.5
583.432	-0.5
584.198	0.5
584.964	0.5
585.729	1.5
586.495	0.5
587.26	2.5
588.025	-1.5
588.791	-1.5
589.556	-0.5
590.321	0.5
591.086	-1.5
591.851	-0.5
592.616	1.5
593.381	0.5
594.146	-1.5
594.911	0.5
595.675	0.5
596.44	1.5
597.204	0.5
597.969	1.5
598.733	0.5
599.497	-0.5
600.261	1.5
601.025	-1.5
601.79	2.5
602.553	-1.5
603.317	-0.5
604.081	0.5
604.845	-1.5
605.609	3.5
606.372	0.5
607.136	1.5
607.899	3.5
608.662	0.5
609.426	1.5
610.189	0.5
610.952	1.5
611.715	-2.5
612.478	1.5
613.241	1.5
614.004	-1.5
614.767	-1.5
615.529	-1.5
616.292	0.5
617.055	-1.5
617.817	1.5
618.579	-0.5
619.342	0.5
620.104	-0.5
620.866	-1.5
621.628	2.5
622.39	0.5
623.152	1.5
623.914	1.5
624.676	-1.5
625.438	0.5
626.199	0.5
626.961	1.5
627.722	0.5
628.484	0.5
629.245	0.5
630.006	1.5
630.768	1.5
631.529	2.5
632.29	1.5
633.051	0.5
633.812	0.5
634.573	0.5
635.333	1.5
636.094	1.5
636.855	-0.5
637.615	0.5
638.376	0.5
639.136	-0.5
639.896	-0.5
640.657	0.5
641.417	1.5
642.177	-1.5
642.937	0.5
643.697	0.5
644.457	-0.5
645.216	-0.5
645.976	-0.5
646.736	1.5
647.495	1.5
648.255	1.5
649.014	-0.5
649.774	-0.5
650.533	0.5
651.292	0.5
652.051	-0.5
652.81	0.5
653.569	-0.5
654.328	0.5
655.087	1.5
655.846	1.5
656.604	0.5
657.363	1.5
658.121	-0.5
658.88	-0.5
659.638	1.5
660.397	0.5
661.155	2.5
661.913	-1.5
662.671	-1.5
663.429	1.5
664.187	-1.5
664.945	2.5
665.703	-0.5
666.46	-0.5
667.218	-0.5
667.976	1.5
668.733	-0.5
669.49	-0.5
670.248	-0.5
671.005	-1.5
671.762	0.5
672.519	0.5
673.276	-0.5
674.033	1.5
674.79	0.5
675.547	1.5
676.304	1.5
677.06	0.5
677.817	-0.5
678.574	0.5
679.33	1.5
680.086	-0.5
680.843	-1.5
681.599	-1.5
682.355	-1.5
683.111	-1.5
683.867	0.5
684.623	-0.5
685.379	-1.5
686.135	-0.5
686.89	-0.5
687.646	-1.5
688.402	-1.5
689.157	0.5
689.912	-2.5
690.668	1.5
691.423	2.5
692.178	-1.5
692.933	0.5
693.688	1.5
694.443	0.5
695.198	3.5
695.953	-0.5
696.708	2.5
697.462	2.5
698.217	1.5
698.972	0.5
699.726	-0.5
700.48	2.5
701.235	-0.5
701.989	1.5
702.743	-1.5
703.497	1.5
704.251	1.5
705.005	-1.5
705.759	-1.5
706.513	0.5
707.266	2.5
708.02	0.5
708.774	1.5
709.527	0.5
710.28	0.5
711.034	-0.5
711.787	-0.5
712.54	0.5
713.293	-0.5
714.046	0.5
714.799	1.5
715.552	-0.5
716.305	-1.5
717.058	-1.5
717.81	0.5
718.563	0.5
719.315	0.5
720.068	1.5
720.82	0.5
721.573	0.5
722.325	-0.5
723.077	0.5
723.829	0.5
724.581	-0.5
725.333	-1.5
726.085	0.5
726.836	1.5
727.588	-0.5
728.34	-0.5
729.091	0.5
729.843	1.5
730.594	-0.5
731.346	1.5
732.097	-0.5
732.848	0.5
733.599	1.5
734.35	0.5
735.101	0.5
735.852	0.5
736.603	0.5
737.354	2.5
738.104	1.5
738.855	-1.5
739.605	0.5
740.356	2.5
741.106	2.5
741.856	0.5
742.607	0.5
743.357	-1.5
744.107	0.5
744.857	1.5
745.607	0.5
746.357	2.5
747.106	-2.5
747.856	-0.5
748.606	0.5
749.355	-0.5
750.105	3.5
750.854	-1.5
751.603	1.5
752.353	-0.5
753.102	2.5
753.851	1.5
754.6	2.5
755.349	0.5
756.098	0.5
756.847	-0.5
757.595	2.5
758.344	0.5
759.093	0.5
759.841	-2.5
760.589	4.5
761.338	1.5
762.086	0.5
762.834	0.5
763.582	1.5
764.331	0.5
765.079	-1.5
765.826	0.5
766.574	1.5
767.322	1.5
768.07	1.5
768.817	2.5
769.565	1.5
770.312	0.5
771.06	2.5
771.807	2.5
772.554	0.5
773.302	-2.5
774.049	1.5
774.796	-0.5
775.543	-0.5
776.29	3.5
777.036	1.5
777.783	1.5
778.53	-0.5
779.276	-0.5
780.023	1.5
780.769	-2.5
781.516	0.5
782.262	0.5
783.008	1.5
783.754	1.5
784.5	0.5
785.246	0.5
785.992	-1.5
786.738	3.5
787.484	1.5
788.23	0.5
788.975	1.5
789.721	-1.5
790.466	2.5
791.212	-0.5
791.957	-0.5
792.702	0.5
793.447	1.5
794.193	0.5
794.938	-0.5
795.683	0.5
796.427	-1.5
797.172	-1.5
797.917	0.5
798.662	-1.5
799.406	-0.5
800.151	0.5
800.895	2.5
801.64	-0.5
802.384	-1.5
803.128	-0.5
803.872	0.5
804.616	0.5
805.36	-2.5
806.104	0.5
806.848	1.5
807.592	0.5
808.336	0.5
809.079	-1.5
809.823	1.5
810.566	-2.5
811.31	0.5
812.053	-3.5
812.796	-1.5
813.539	0.5
814.283	-0.5
815.026	1.5
815.769	-1.5
816.511	0.5
817.254	-1.5
817.997	0.5
818.74	0.5
819.482	-1.5
820.225	3.5
820.967	0.5
821.71	-0.5
822.452	1.5
823.194	1.5
823.936	-0.5
824.678	0.5
825.42	-0.5
826.162	0.5
826.904	0.5
827.646	-0.5
828.388	0.5
829.129	0.5
829.871	-1.5
830.612	2.5
831.354	-0.5
832.095	-1.5
832.836	0.5
833.577	1.5
834.319	0.5
835.06	2.5
835.801	0.5
836.542	0.5
837.282	1.5
838.023	3.5
838.764	-1.5
839.504	1.5
840.245	1.5
840.985	1.5
841.726	-1.5
842.466	1.5
843.206	0.5
843.946	-1.5
844.687	1.5
845.427	0.5
846.166	-0.5
846.906	-1.5
847.646	0.5
848.386	-1.5
849.125	0.5
849.865	0.5
850.605	0.5
851.344	1.5
852.083	1.5
852.823	1.5
853.562	-0.5
854.301	-1.5
855.04	0.5
855.779	-0.5
856.518	0.5
857.257	0.5
857.995	0.5
858.734	1.5
859.473	0.5
860.211	-1.5
860.95	-0.5
861.688	2.5
862.426	-2.5
863.165	0.5
863.903	2.5
864.641	0.5
865.379	-0.5
866.117	0.5
866.855	0.5
867.593	0.5
868.33	-0.5
869.068	1.5
869.806	-0.5
870.543	-0.5
871.28	-1.5
872.018	-1.5
872.755	0.5
873.492	-0.5
874.229	1.5
874.967	1.5
875.703	2.5
876.44	2.5
877.177	0.5
877.914	0.5
878.651	0.5
879.387	2.5
880.124	2.5
880.86	-0.5
881.597	-0.5
882.333	-0.5
883.069	2.5
883.806	0.5
884.542	0.5
885.278	0.5
886.014	0.5
886.749	1.5
887.485	-0.5
888.221	1.5
888.957	1.5
889.692	0.5
890.428	1.5
891.163	0.5
891.899	2.5
892.634	-1.5
893.369	1.5
894.104	-2.5
894.839	0.5
895.574	0.5
896.309	1.5
897.044	0.5
897.779	0.5
898.514	3.5
899.248	0.5
899.983	-0.5
900.717	0.5
901.452	-0.5
902.186	-0.5
902.92	0.5
903.654	1.5
904.389	1.5
905.123	-0.5
905.857	-0.5
906.59	0.5
907.324	1.5
908.058	1.5
908.792	3.5
909.525	0.5
910.259	-0.5
910.992	1.5
911.726	1.5
912.459	0.5
913.192	-0.5
913.925	0.5
914.658	2.5
915.391	1.5
916.124	0.5
916.857	-1.5
917.59	0.5
918.323	1.5
919.055	0.5
919.788	1.5
920.521	-1.5
921.253	2.5
921.985	0.5
922.718	0.5
923.45	1.5
924.182	1.5
924.914	1.5
925.646	0.5
926.378	1.5
927.11	1.5
927.841	0.5
928.573	2.5
929.305	-1.5
930.036	0.5
930.768	1.5
931.499	-1.5
932.23	0.5
932.962	2.5
933.693	0.5
934.424	0.5
935.155	1.5
935.886	-0.5
936.617	0.5
937.348	1.5
938.078	1.5
938.809	0.5
939.54	2.5
940.27	1.5
941.001	1.5
941.731	3.5
942.461	1.5
943.191	-1.5
943.922	1.5
944.652	0.5
945.382	0.5
946.112	-0.5
946.841	0.5
947.571	0.5
948.301	-1.5
949.031	-0.5
949.76	1.5
950.49	-0.5
951.219	-1.5
951.948	-1.5
952.678	-0.5
953.407	-1.5
954.136	-0.5
954.865	0.5
955.594	3.5
956.323	3.5
957.052	2.5
957.78	-1.5
958.509	1.5
959.238	0.5
959.966	1.5
960.695	-1.5
961.423	-1.5
962.151	0.5
962.88	-1.5
963.608	0.5
964.336	1.5
965.064	-1.5
965.792	2.5
966.52	1.5
967.247	0.5
967.975	0.5
968.703	-0.5
969.43	0.5
970.158	0.5
970.885	0.5
971.613	2.5
972.34	0.5
973.067	2.5
973.794	0.5
974.521	1.5
975.248	-0.5
975.975	2.5
976.702	0.5
977.429	2.5
978.156	-1.5
978.882	0.5
979.609	0.5
980.335	-0.5
981.062	1.5
981.788	1.5
982.514	-0.5
983.24	1.5
983.967	1.5
984.693	-1.5
985.419	-1.5
986.144	1.5
986.87	-1.5
987.596	0.5
988.322	-0.5
989.047	0.5
989.773	1.5
990.498	-0.5
991.224	1.5
991.949	1.5
992.674	-1.5
993.399	2.5
994.124	-0.5
994.849	1.5
995.574	1.5
996.299	2.5
997.024	-0.5
997.749	0.5
998.473	3.5
999.198	-0.5
999.922	0.5
1000.647	-0.5
1001.371	2.5
1002.095	-0.5
1002.82	-0.5
1003.544	-1.5
1004.268	-1.5
1004.992	-0.5
1005.716	-2.5
1006.439	-1.5
1007.163	-1.5
1007.887	-0.5
1008.611	1.5
1009.334	-0.5
1010.058	0.5
1010.781	-0.5
1011.504	1.5
1012.228	0.5
1012.951	0.5
1013.674	-0.5
1014.397	-0.5
1015.12	0.5
