节点500_145_QEPB04081__222__11-32-31-486.txt的数据

Date: Wed Nov 12 11:32:31 CST 2025
User: PC
Spectrometer: QEPB0408
触发模式: 0
积分时间 (秒): 1.000000E-2
Scans to average: 1
启用暗噪声校正: true
启用非线性校正: false
滑动平均宽度: 0
X轴模式: Wavelengths
Number of Pixels in Spectrum: 1044
>>>>>Begin Spectral Data<<<<<
220.843	-0.62
221.644	0.38
222.444	-1.62
223.244	-0.62
224.045	1.38
224.845	-2.62
225.645	0.38
226.445	-1.62
227.245	1.38
228.045	1.38
228.845	0.38
229.645	2.38
230.444	-1.62
231.244	1.38
232.043	-1.62
232.843	0.38
233.642	-1.62
234.442	1.38
235.241	-0.62
236.04	0.38
236.839	3.38
237.638	0.38
238.437	2.38
239.236	-1.62
240.035	0.38
240.833	1.38
241.632	0.38
242.43	1.38
243.229	1.38
244.027	0.38
244.826	-0.62
245.624	3.38
246.422	0.38
247.22	1.38
248.018	2.38
248.816	0.38
249.614	0.38
250.412	3.38
251.21	4.38
252.007	2.38
252.805	2.38
253.602	4.38
254.4	5.38
255.197	5.38
255.994	5.38
256.791	3.38
257.589	2.38
258.386	5.38
259.183	4.38
259.979	3.38
260.776	4.38
261.573	6.38
262.37	5.38
263.166	4.38
263.963	2.38
264.759	6.38
265.556	4.38
266.352	6.38
267.148	7.38
267.944	7.38
268.74	7.38
269.536	6.38
270.332	6.38
271.128	6.38
271.924	7.38
272.719	8.38
273.515	7.38
274.311	7.38
275.106	10.38
275.901	9.38
276.697	8.38
277.492	8.38
278.287	12.38
279.082	10.38
279.877	9.38
280.672	12.38
281.467	13.38
282.262	10.38
283.056	10.38
283.851	10.38
284.646	9.38
285.44	13.38
286.234	10.38
287.029	10.38
287.823	12.38
288.617	9.38
289.411	11.38
290.205	9.38
290.999	11.38
291.793	10.38
292.587	10.38
293.381	11.38
294.174	12.38
294.968	9.38
295.761	9.38
296.555	10.38
297.348	9.38
298.141	9.38
298.935	11.38
299.728	11.38
300.521	11.38
301.314	9.38
302.107	7.38
302.899	8.38
303.692	9.38
304.485	7.38
305.277	10.38
306.07	7.38
306.862	7.38
307.655	9.38
308.447	5.38
309.239	7.38
310.031	6.38
310.823	8.38
311.615	7.38
312.407	7.38
313.199	4.38
313.991	5.38
314.783	5.38
315.574	5.38
316.366	5.38
317.157	5.38
317.949	4.38
318.74	7.38
319.531	5.38
320.322	5.38
321.113	5.38
321.904	5.38
322.695	6.38
323.486	2.38
324.277	5.38
325.068	3.38
325.858	5.38
326.649	6.38
327.439	3.38
328.23	4.38
329.02	4.38
329.81	6.38
330.6	5.38
331.391	3.38
332.181	3.38
332.971	3.38
333.76	4.38
334.55	3.38
335.34	5.38
336.13	2.38
336.919	4.38
337.709	4.38
338.498	3.38
339.287	4.38
340.077	2.38
340.866	5.38
341.655	3.38
342.444	4.38
343.233	4.38
344.022	5.38
344.811	3.38
345.6	0.38
346.388	3.38
347.177	4.38
347.965	3.38
348.754	2.38
349.542	2.38
350.33	3.38
351.119	3.38
351.907	4.38
352.695	3.38
353.483	2.38
354.271	5.38
355.059	3.38
355.846	4.38
356.634	2.38
357.422	3.38
358.209	2.38
358.997	2.38
359.784	2.38
360.571	4.38
361.359	4.38
362.146	2.38
362.933	4.38
363.72	3.38
364.507	4.38
365.294	3.38
366.081	3.38
366.867	4.38
367.654	1.38
368.44	2.38
369.227	3.38
370.013	1.38
370.8	2.38
371.586	4.38
372.372	3.38
373.158	3.38
373.944	4.38
374.73	2.38
375.516	3.38
376.302	2.38
377.088	-0.62
377.873	1.38
378.659	1.38
379.445	3.38
380.23	4.38
381.015	2.38
381.801	3.38
382.586	1.38
383.371	3.38
384.156	3.38
384.941	4.38
385.726	5.38
386.511	2.38
387.296	2.38
388.08	1.38
388.865	2.38
389.649	2.38
390.434	3.38
391.218	4.38
392.003	2.38
392.787	1.38
393.571	2.38
394.355	2.38
395.139	2.38
395.923	5.38
396.707	5.38
397.491	3.38
398.274	4.38
399.058	4.38
399.842	5.38
400.625	3.38
401.408	6.38
402.192	2.38
402.975	5.38
403.758	3.38
404.541	3.38
405.324	3.38
406.107	3.38
406.89	4.38
407.673	2.38
408.456	4.38
409.238	3.38
410.021	5.38
410.803	4.38
411.586	5.38
412.368	5.38
413.151	3.38
413.933	5.38
414.715	4.38
415.497	4.38
416.279	5.38
417.061	4.38
417.843	4.38
418.624	4.38
419.406	6.38
420.188	6.38
420.969	2.38
421.751	7.38
422.532	5.38
423.313	8.38
424.095	4.38
424.876	6.38
425.657	8.38
426.438	7.38
427.219	9.38
428	8.38
428.78	9.38
429.561	8.38
430.342	7.38
431.122	6.38
431.903	7.38
432.683	10.38
433.464	7.38
434.244	8.38
435.024	12.38
435.804	9.38
436.584	10.38
437.364	10.38
438.144	12.38
438.924	9.38
439.704	8.38
440.483	11.38
441.263	9.38
442.042	13.38
442.822	13.38
443.601	13.38
444.38	13.38
445.16	14.38
445.939	13.38
446.718	13.38
447.497	21.38
448.276	21.38
449.054	21.38
449.833	25.38
450.612	22.38
451.391	28.38
452.169	27.38
452.948	30.38
453.726	36.38
454.504	37.38
455.282	41.38
456.061	42.38
456.839	51.38
457.617	51.38
458.395	58.38
459.172	63.38
459.95	68.38
460.728	80.38
461.506	86.38
462.283	102.38
463.061	104.38
463.838	119.38
464.615	136.38
465.393	151.38
466.17	168.38
466.947	194.38
467.724	215.38
468.501	234.38
469.278	262.38
470.055	301.38
470.831	323.38
471.608	361.38
472.385	411.38
473.161	451.38
473.938	507.38
474.714	558.38
475.49	620.38
476.266	686.38
477.043	761.38
477.819	850.38
478.595	939.38
479.371	1032.38
480.146	1156.38
480.922	1259.38
481.698	1402.38
482.473	1577.38
483.249	1716.38
484.024	1893.38
484.8	2077.38
485.575	2317.38
486.35	2541.38
487.126	2780.38
487.901	3119.38
488.676	3415.38
489.451	3792.38
490.225	4165.38
491	4554.38
491.775	5039.38
492.55	5502.38
493.324	6060.38
494.099	6638.38
494.873	7259.38
495.647	7907.38
496.422	8571.38
497.196	9312.38
497.97	10065.38
498.744	10871.38
499.518	11618.38
500.292	12375.38
501.066	13071.38
501.839	13758.38
502.613	14468.38
503.387	15100.38
504.16	15680.38
504.934	16104.38
505.707	16403.38
506.48	16663.38
507.253	16768.38
508.027	16839.38
508.8	16778.38
509.573	16550.38
510.346	16278.38
511.118	15911.38
511.891	15498.38
512.664	14939.38
513.437	14438.38
514.209	13819.38
514.982	13299.38
515.754	12788.38
516.526	12182.38
517.298	11656.38
518.071	11101.38
518.843	10608.38
519.615	10169.38
520.387	9727.38
521.159	9331.38
521.93	9003.38
522.702	8604.38
523.474	8263.38
524.245	7972.38
525.017	7617.38
525.788	7312.38
526.56	7035.38
527.331	6755.38
528.102	6458.38
528.873	6125.38
529.644	5876.38
530.415	5595.38
531.186	5342.38
531.957	5041.38
532.728	4787.38
533.498	4507.38
534.269	4287.38
535.039	4047.38
535.81	3838.38
536.58	3613.38
537.351	3403.38
538.121	3219.38
538.891	3029.38
539.661	2887.38
540.431	2718.38
541.201	2581.38
541.971	2446.38
542.741	2311.38
543.51	2203.38
544.28	2076.38
545.05	1969.38
545.819	1872.38
546.588	1805.38
547.358	1688.38
548.127	1612.38
548.896	1521.38
549.665	1451.38
550.434	1392.38
551.203	1330.38
551.972	1242.38
552.741	1177.38
553.51	1110.38
554.278	1048.38
555.047	999.38
555.815	934.38
556.584	880.38
557.352	822.38
558.121	785.38
558.889	740.38
559.657	696.38
560.425	654.38
561.193	627.38
561.961	583.38
562.729	555.38
563.496	509.38
564.264	496.38
565.032	468.38
565.799	437.38
566.567	412.38
567.334	389.38
568.101	366.38
568.869	345.38
569.636	322.38
570.403	301.38
571.17	292.38
571.937	277.38
572.704	260.38
573.471	250.38
574.237	223.38
575.004	222.38
575.771	201.38
576.537	188.38
577.303	179.38
578.07	169.38
578.836	157.38
579.602	154.38
580.368	145.38
581.134	134.38
581.9	132.38
582.666	125.38
583.432	112.38
584.198	105.38
584.964	106.38
585.729	96.38
586.495	90.38
587.26	86.38
588.025	80.38
588.791	72.38
589.556	72.38
590.321	68.38
591.086	64.38
591.851	61.38
592.616	57.38
593.381	57.38
594.146	50.38
594.911	51.38
595.675	48.38
596.44	45.38
597.204	43.38
597.969	40.38
598.733	38.38
599.497	38.38
600.261	36.38
601.025	37.38
601.79	31.38
602.553	34.38
603.317	30.38
604.081	29.38
604.845	27.38
605.609	28.38
606.372	25.38
607.136	23.38
607.899	20.38
608.662	23.38
609.426	21.38
610.189	18.38
610.952	23.38
611.715	20.38
612.478	17.38
613.241	14.38
614.004	17.38
614.767	16.38
615.529	13.38
616.292	18.38
617.055	13.38
617.817	16.38
618.579	13.38
619.342	11.38
620.104	10.38
620.866	13.38
621.628	12.38
622.39	9.38
623.152	9.38
623.914	13.38
624.676	10.38
625.438	13.38
626.199	9.38
626.961	8.38
627.722	9.38
628.484	10.38
629.245	8.38
630.006	6.38
630.768	8.38
631.529	5.38
632.29	8.38
633.051	5.38
633.812	7.38
634.573	7.38
635.333	5.38
636.094	6.38
636.855	5.38
637.615	5.38
638.376	4.38
639.136	6.38
639.896	7.38
640.657	4.38
641.417	7.38
642.177	3.38
642.937	6.38
643.697	5.38
644.457	5.38
645.216	4.38
645.976	5.38
646.736	3.38
647.495	4.38
648.255	3.38
649.014	5.38
649.774	2.38
650.533	5.38
651.292	4.38
652.051	3.38
652.81	5.38
653.569	4.38
654.328	6.38
655.087	3.38
655.846	4.38
656.604	4.38
657.363	3.38
658.121	2.38
658.88	5.38
659.638	2.38
660.397	2.38
661.155	2.38
661.913	1.38
662.671	2.38
663.429	2.38
664.187	5.38
664.945	2.38
665.703	3.38
666.46	4.38
667.218	3.38
667.976	3.38
668.733	3.38
669.49	3.38
670.248	1.38
671.005	4.38
671.762	2.38
672.519	1.38
673.276	4.38
674.033	3.38
674.79	3.38
675.547	1.38
676.304	2.38
677.06	3.38
677.817	1.38
678.574	3.38
679.33	3.38
680.086	0.38
680.843	3.38
681.599	2.38
682.355	5.38
683.111	1.38
683.867	2.38
684.623	1.38
685.379	3.38
686.135	1.38
686.89	1.38
687.646	4.38
688.402	1.38
689.157	2.38
689.912	3.38
690.668	-0.62
691.423	1.38
692.178	3.38
692.933	2.38
693.688	0.38
694.443	1.38
695.198	0.38
695.953	3.38
696.708	4.38
697.462	3.38
698.217	1.38
698.972	4.38
699.726	4.38
700.48	3.38
701.235	2.38
701.989	0.38
702.743	1.38
703.497	4.38
704.251	0.38
705.005	3.38
705.759	2.38
706.513	1.38
707.266	3.38
708.02	1.38
708.774	1.38
709.527	2.38
710.28	4.38
711.034	0.38
711.787	3.38
712.54	1.38
713.293	1.38
714.046	3.38
714.799	4.38
715.552	1.38
716.305	1.38
717.058	3.38
717.81	0.38
718.563	2.38
719.315	0.38
720.068	1.38
720.82	4.38
721.573	1.38
722.325	2.38
723.077	1.38
723.829	-1.62
724.581	2.38
725.333	1.38
726.085	1.38
726.836	2.38
727.588	0.38
728.34	2.38
729.091	3.38
729.843	2.38
730.594	1.38
731.346	4.38
732.097	3.38
732.848	2.38
733.599	2.38
734.35	-0.62
735.101	5.38
735.852	2.38
736.603	2.38
737.354	4.38
738.104	0.38
738.855	3.38
739.605	1.38
740.356	1.38
741.106	1.38
741.856	2.38
742.607	2.38
743.357	2.38
744.107	5.38
744.857	2.38
745.607	1.38
746.357	3.38
747.106	1.38
747.856	2.38
748.606	2.38
749.355	2.38
750.105	3.38
750.854	3.38
751.603	2.38
752.353	1.38
753.102	1.38
753.851	0.38
754.6	2.38
755.349	4.38
756.098	4.38
756.847	4.38
757.595	1.38
758.344	2.38
759.093	2.38
759.841	3.38
760.589	0.38
761.338	2.38
762.086	3.38
762.834	4.38
763.582	5.38
764.331	1.38
765.079	3.38
765.826	3.38
766.574	2.38
767.322	3.38
768.07	5.38
768.817	4.38
769.565	3.38
770.312	5.38
771.06	7.38
771.807	1.38
772.554	6.38
773.302	5.38
774.049	6.38
774.796	3.38
775.543	5.38
776.29	2.38
777.036	4.38
777.783	4.38
778.53	5.38
779.276	3.38
780.023	5.38
780.769	5.38
781.516	4.38
782.262	3.38
783.008	4.38
783.754	6.38
784.5	5.38
785.246	6.38
785.992	6.38
786.738	4.38
787.484	2.38
788.23	6.38
788.975	4.38
789.721	7.38
790.466	5.38
791.212	5.38
791.957	5.38
792.702	3.38
793.447	4.38
794.193	4.38
794.938	5.38
795.683	5.38
796.427	5.38
797.172	6.38
797.917	4.38
798.662	6.38
799.406	4.38
800.151	3.38
800.895	6.38
801.64	5.38
802.384	4.38
803.128	5.38
803.872	5.38
804.616	4.38
805.36	7.38
806.104	2.38
806.848	4.38
807.592	4.38
808.336	3.38
809.079	4.38
809.823	3.38
810.566	3.38
811.31	2.38
812.053	2.38
812.796	5.38
813.539	5.38
814.283	4.38
815.026	4.38
815.769	3.38
816.511	2.38
817.254	2.38
817.997	2.38
818.74	2.38
819.482	3.38
820.225	3.38
820.967	1.38
821.71	2.38
822.452	1.38
823.194	2.38
823.936	3.38
824.678	1.38
825.42	3.38
826.162	2.38
826.904	2.38
827.646	3.38
828.388	2.38
829.129	1.38
829.871	1.38
830.612	2.38
831.354	1.38
832.095	2.38
832.836	1.38
833.577	2.38
834.319	1.38
835.06	2.38
835.801	1.38
836.542	2.38
837.282	3.38
838.023	3.38
838.764	1.38
839.504	2.38
840.245	1.38
840.985	1.38
841.726	1.38
842.466	0.38
843.206	1.38
843.946	3.38
844.687	1.38
845.427	2.38
846.166	1.38
846.906	3.38
847.646	2.38
848.386	2.38
849.125	3.38
849.865	2.38
850.605	2.38
851.344	2.38
852.083	1.38
852.823	-0.62
853.562	0.38
854.301	1.38
855.04	-0.62
855.779	1.38
856.518	1.38
857.257	1.38
857.995	2.38
858.734	0.38
859.473	2.38
860.211	1.38
860.95	2.38
861.688	1.38
862.426	1.38
863.165	2.38
863.903	-1.62
864.641	2.38
865.379	0.38
866.117	1.38
866.855	0.38
867.593	1.38
868.33	2.38
869.068	-0.62
869.806	-0.62
870.543	1.38
871.28	2.38
872.018	1.38
872.755	-0.62
873.492	1.38
874.229	-0.62
874.967	2.38
875.703	1.38
876.44	-0.62
877.177	0.38
877.914	1.38
878.651	1.38
879.387	1.38
880.124	1.38
880.86	1.38
881.597	0.38
882.333	1.38
883.069	-1.62
883.806	1.38
884.542	-1.62
885.278	0.38
886.014	-0.62
886.749	1.38
887.485	1.38
888.221	-1.62
888.957	0.38
889.692	0.38
890.428	0.38
891.163	1.38
891.899	0.38
892.634	2.38
893.369	-0.62
894.104	-0.62
894.839	1.38
895.574	2.38
896.309	1.38
897.044	0.38
897.779	1.38
898.514	-1.62
899.248	0.38
899.983	-0.62
900.717	0.38
901.452	1.38
902.186	1.38
902.92	1.38
903.654	-0.62
904.389	2.38
905.123	1.38
905.857	-1.62
906.59	-1.62
907.324	1.38
908.058	2.38
908.792	-1.62
909.525	-1.62
910.259	0.38
910.992	0.38
911.726	3.38
912.459	0.38
913.192	1.38
913.925	-3.62
914.658	-0.62
915.391	-1.62
916.124	3.38
916.857	2.38
917.59	-1.62
918.323	-1.62
919.055	-1.62
919.788	1.38
920.521	0.38
921.253	0.38
921.985	1.38
922.718	1.38
923.45	-1.62
924.182	1.38
924.914	0.38
925.646	0.38
926.378	0.38
927.11	0.38
927.841	0.38
928.573	0.38
929.305	-1.62
930.036	1.38
930.768	-0.62
931.499	0.38
932.23	-1.62
932.962	-1.62
933.693	0.38
934.424	0.38
935.155	1.38
935.886	-1.62
936.617	-1.62
937.348	-1.62
938.078	1.38
938.809	0.38
939.54	2.38
940.27	1.38
941.001	-1.62
941.731	-1.62
942.461	0.38
943.191	-1.62
943.922	1.38
944.652	1.38
945.382	1.38
946.112	-1.62
946.841	-0.62
947.571	-0.62
948.301	-0.62
949.031	2.38
949.76	1.38
950.49	-1.62
951.219	0.38
951.948	-1.62
952.678	1.38
953.407	-0.62
954.136	1.38
954.865	-0.62
955.594	2.38
956.323	1.38
957.052	2.38
957.78	-0.62
958.509	-0.62
959.238	0.38
959.966	0.38
960.695	2.38
961.423	1.38
962.151	1.38
962.88	-1.62
963.608	-1.62
964.336	1.38
965.064	-0.62
965.792	0.38
966.52	-0.62
967.247	0.38
967.975	0.38
968.703	-1.62
969.43	1.38
970.158	-1.62
970.885	1.38
971.613	0.38
972.34	1.38
973.067	0.38
973.794	0.38
974.521	1.38
975.248	1.38
975.975	0.38
976.702	1.38
977.429	0.38
978.156	-0.62
978.882	0.38
979.609	1.38
980.335	1.38
981.062	0.38
981.788	-1.62
982.514	-1.62
983.24	0.38
983.967	-1.62
984.693	1.38
985.419	0.38
986.144	2.38
986.87	1.38
987.596	-0.62
988.322	0.38
989.047	0.38
989.773	0.38
990.498	1.38
991.224	-0.62
991.949	1.38
992.674	-1.62
993.399	2.38
994.124	1.38
994.849	1.38
995.574	-0.62
996.299	1.38
997.024	0.38
997.749	0.38
998.473	0.38
999.198	-1.62
999.922	1.38
1000.647	-0.62
1001.371	4.38
1002.095	-1.62
1002.82	-2.62
1003.544	-0.62
1004.268	0.38
1004.992	-0.62
1005.716	0.38
1006.439	1.38
1007.163	-1.62
1007.887	2.38
1008.611	1.38
1009.334	1.38
1010.058	-0.62
1010.781	1.38
1011.504	0.38
1012.228	2.38
1012.951	-1.62
1013.674	1.38
1014.397	1.38
1015.12	-0.62
