节点500_145_QEPB04081__663__11-39-29-013.txt的数据

Date: Wed Nov 12 11:39:29 CST 2025
User: PC
Spectrometer: QEPB0408
触发模式: 0
积分时间 (秒): 1.000000E-2
Scans to average: 1
启用暗噪声校正: true
启用非线性校正: false
滑动平均宽度: 0
X轴模式: Wavelengths
Number of Pixels in Spectrum: 1044
>>>>>Begin Spectral Data<<<<<
220.843	0.88
221.644	-2.12
222.444	0.88
223.244	-0.12
224.045	-3.12
224.845	1.88
225.645	-2.12
226.445	-2.12
227.245	-2.12
228.045	1.88
228.845	-0.12
229.645	-1.12
230.444	-1.12
231.244	-2.12
232.043	1.88
232.843	0.88
233.642	1.88
234.442	-1.12
235.241	0.88
236.04	0.88
236.839	0.88
237.638	1.88
238.437	-1.12
239.236	0.88
240.035	2.88
240.833	0.88
241.632	1.88
242.43	0.88
243.229	0.88
244.027	0.88
244.826	0.88
245.624	0.88
246.422	2.88
247.22	1.88
248.018	-2.12
248.816	1.88
249.614	0.88
250.412	0.88
251.21	4.88
252.007	1.88
252.805	1.88
253.602	1.88
254.4	3.88
255.197	3.88
255.994	2.88
256.791	0.88
257.589	1.88
258.386	5.88
259.183	2.88
259.979	2.88
260.776	4.88
261.573	4.88
262.37	1.88
263.166	1.88
263.963	1.88
264.759	3.88
265.556	3.88
266.352	3.88
267.148	5.88
267.944	5.88
268.74	6.88
269.536	6.88
270.332	5.88
271.128	4.88
271.924	6.88
272.719	6.88
273.515	6.88
274.311	3.88
275.106	9.88
275.901	6.88
276.697	8.88
277.492	7.88
278.287	4.88
279.082	8.88
279.877	6.88
280.672	6.88
281.467	7.88
282.262	9.88
283.056	7.88
283.851	8.88
284.646	9.88
285.44	8.88
286.234	9.88
287.029	7.88
287.823	8.88
288.617	7.88
289.411	9.88
290.205	6.88
290.999	10.88
291.793	7.88
292.587	9.88
293.381	9.88
294.174	10.88
294.968	7.88
295.761	7.88
296.555	5.88
297.348	11.88
298.141	9.88
298.935	7.88
299.728	4.88
300.521	4.88
301.314	8.88
302.107	7.88
302.899	7.88
303.692	6.88
304.485	7.88
305.277	6.88
306.07	6.88
306.862	7.88
307.655	5.88
308.447	10.88
309.239	4.88
310.031	4.88
310.823	7.88
311.615	4.88
312.407	6.88
313.199	4.88
313.991	6.88
314.783	3.88
315.574	5.88
316.366	8.88
317.157	4.88
317.949	6.88
318.74	4.88
319.531	4.88
320.322	2.88
321.113	2.88
321.904	2.88
322.695	3.88
323.486	2.88
324.277	2.88
325.068	3.88
325.858	4.88
326.649	3.88
327.439	5.88
328.23	-0.12
329.02	3.88
329.81	2.88
330.6	4.88
331.391	5.88
332.181	3.88
332.971	2.88
333.76	1.88
334.55	4.88
335.34	1.88
336.13	0.88
336.919	2.88
337.709	3.88
338.498	-0.12
339.287	2.88
340.077	1.88
340.866	4.88
341.655	1.88
342.444	3.88
343.233	5.88
344.022	2.88
344.811	2.88
345.6	5.88
346.388	3.88
347.177	2.88
347.965	2.88
348.754	2.88
349.542	4.88
350.33	3.88
351.119	2.88
351.907	5.88
352.695	2.88
353.483	1.88
354.271	1.88
355.059	2.88
355.846	1.88
356.634	2.88
357.422	1.88
358.209	1.88
358.997	2.88
359.784	3.88
360.571	1.88
361.359	1.88
362.146	1.88
362.933	0.88
363.72	1.88
364.507	1.88
365.294	2.88
366.081	0.88
366.867	0.88
367.654	2.88
368.44	1.88
369.227	1.88
370.013	2.88
370.8	1.88
371.586	2.88
372.372	1.88
373.158	1.88
373.944	-0.12
374.73	2.88
375.516	0.88
376.302	0.88
377.088	2.88
377.873	1.88
378.659	3.88
379.445	3.88
380.23	1.88
381.015	2.88
381.801	1.88
382.586	3.88
383.371	0.88
384.156	2.88
384.941	2.88
385.726	-0.12
386.511	2.88
387.296	2.88
388.08	0.88
388.865	1.88
389.649	1.88
390.434	1.88
391.218	0.88
392.003	2.88
392.787	3.88
393.571	3.88
394.355	-0.12
395.139	0.88
395.923	3.88
396.707	1.88
397.491	3.88
398.274	1.88
399.058	3.88
399.842	1.88
400.625	2.88
401.408	0.88
402.192	2.88
402.975	2.88
403.758	5.88
404.541	3.88
405.324	2.88
406.107	2.88
406.89	2.88
407.673	3.88
408.456	4.88
409.238	1.88
410.021	3.88
410.803	4.88
411.586	3.88
412.368	3.88
413.151	5.88
413.933	4.88
414.715	3.88
415.497	3.88
416.279	1.88
417.061	3.88
417.843	4.88
418.624	1.88
419.406	2.88
420.188	6.88
420.969	2.88
421.751	5.88
422.532	2.88
423.313	2.88
424.095	5.88
424.876	5.88
425.657	6.88
426.438	3.88
427.219	7.88
428	5.88
428.78	5.88
429.561	6.88
430.342	6.88
431.122	7.88
431.903	5.88
432.683	7.88
433.464	5.88
434.244	7.88
435.024	6.88
435.804	8.88
436.584	11.88
437.364	7.88
438.144	10.88
438.924	9.88
439.704	7.88
440.483	10.88
441.263	11.88
442.042	10.88
442.822	15.88
443.601	14.88
444.38	16.88
445.16	15.88
445.939	15.88
446.718	16.88
447.497	18.88
448.276	21.88
449.054	23.88
449.833	20.88
450.612	23.88
451.391	30.88
452.169	32.88
452.948	34.88
453.726	36.88
454.504	40.88
455.282	45.88
456.061	49.88
456.839	59.88
457.617	58.88
458.395	67.88
459.172	75.88
459.95	82.88
460.728	88.88
461.506	103.88
462.283	113.88
463.061	127.88
463.838	139.88
464.615	156.88
465.393	171.88
466.17	189.88
466.947	218.88
467.724	233.88
468.501	262.88
469.278	287.88
470.055	325.88
470.831	362.88
471.608	406.88
472.385	439.88
473.161	493.88
473.938	531.88
474.714	600.88
475.49	661.88
476.266	725.88
477.043	803.88
477.819	872.88
478.595	974.88
479.371	1048.88
480.146	1163.88
480.922	1257.88
481.698	1392.88
482.473	1516.88
483.249	1672.88
484.024	1813.88
484.8	1996.88
485.575	2185.88
486.35	2391.88
487.126	2587.88
487.901	2841.88
488.676	3096.88
489.451	3394.88
490.225	3680.88
491	4033.88
491.775	4397.88
492.55	4768.88
493.324	5208.88
494.099	5661.88
494.873	6125.88
495.647	6667.88
496.422	7219.88
497.196	7734.88
497.97	8358.88
498.744	8936.88
499.518	9603.88
500.292	10236.88
501.066	10868.88
501.839	11488.88
502.613	12070.88
503.387	12654.88
504.16	13271.88
504.934	13701.88
505.707	14106.88
506.48	14442.88
507.253	14709.88
508.027	14925.88
508.8	15043.88
509.573	15021.88
510.346	14959.88
511.118	14857.88
511.891	14580.88
512.664	14292.88
513.437	13907.88
514.209	13536.88
514.982	13031.88
515.754	12612.88
516.526	12169.88
517.298	11671.88
518.071	11154.88
518.843	10705.88
519.615	10268.88
520.387	9876.88
521.159	9472.88
521.93	9080.88
522.702	8695.88
523.474	8402.88
524.245	8082.88
525.017	7749.88
525.788	7427.88
526.56	7129.88
527.331	6821.88
528.102	6566.88
528.873	6309.88
529.644	6018.88
530.415	5764.88
531.186	5504.88
531.957	5265.88
532.728	5024.88
533.498	4752.88
534.269	4507.88
535.039	4300.88
535.81	4054.88
536.58	3833.88
537.351	3615.88
538.121	3409.88
538.891	3237.88
539.661	3087.88
540.431	2924.88
541.201	2755.88
541.971	2631.88
542.741	2469.88
543.51	2341.88
544.28	2225.88
545.05	2114.88
545.819	2008.88
546.588	1881.88
547.358	1816.88
548.127	1718.88
548.896	1625.88
549.665	1548.88
550.434	1491.88
551.203	1390.88
551.972	1327.88
552.741	1286.88
553.51	1194.88
554.278	1139.88
555.047	1069.88
555.815	1023.88
556.584	959.88
557.352	896.88
558.121	860.88
558.889	808.88
559.657	765.88
560.425	717.88
561.193	678.88
561.961	642.88
562.729	600.88
563.496	576.88
564.264	533.88
565.032	511.88
565.799	484.88
566.567	448.88
567.334	431.88
568.101	406.88
568.869	384.88
569.636	351.88
570.403	340.88
571.17	315.88
571.937	298.88
572.704	285.88
573.471	267.88
574.237	248.88
575.004	238.88
575.771	223.88
576.537	209.88
577.303	197.88
578.07	183.88
578.836	174.88
579.602	164.88
580.368	162.88
581.134	149.88
581.9	142.88
582.666	137.88
583.432	124.88
584.198	120.88
584.964	112.88
585.729	107.88
586.495	100.88
587.26	97.88
588.025	88.88
588.791	85.88
589.556	79.88
590.321	77.88
591.086	69.88
591.851	70.88
592.616	63.88
593.381	60.88
594.146	57.88
594.911	51.88
595.675	54.88
596.44	46.88
597.204	46.88
597.969	46.88
598.733	42.88
599.497	40.88
600.261	38.88
601.025	37.88
601.79	36.88
602.553	33.88
603.317	34.88
604.081	30.88
604.845	28.88
605.609	24.88
606.372	26.88
607.136	29.88
607.899	24.88
608.662	24.88
609.426	23.88
610.189	19.88
610.952	23.88
611.715	22.88
612.478	17.88
613.241	18.88
614.004	18.88
614.767	19.88
615.529	18.88
616.292	13.88
617.055	12.88
617.817	13.88
618.579	14.88
619.342	12.88
620.104	13.88
620.866	12.88
621.628	10.88
622.39	12.88
623.152	11.88
623.914	10.88
624.676	11.88
625.438	10.88
626.199	9.88
626.961	8.88
627.722	9.88
628.484	9.88
629.245	7.88
630.006	6.88
630.768	7.88
631.529	5.88
632.29	6.88
633.051	9.88
633.812	6.88
634.573	7.88
635.333	6.88
636.094	5.88
636.855	6.88
637.615	5.88
638.376	4.88
639.136	6.88
639.896	3.88
640.657	4.88
641.417	4.88
642.177	3.88
642.937	4.88
643.697	5.88
644.457	4.88
645.216	3.88
645.976	2.88
646.736	6.88
647.495	5.88
648.255	3.88
649.014	5.88
649.774	3.88
650.533	5.88
651.292	2.88
652.051	2.88
652.81	4.88
653.569	2.88
654.328	1.88
655.087	2.88
655.846	1.88
656.604	1.88
657.363	2.88
658.121	4.88
658.88	3.88
659.638	1.88
660.397	3.88
661.155	0.88
661.913	1.88
662.671	0.88
663.429	4.88
664.187	3.88
664.945	3.88
665.703	2.88
666.46	1.88
667.218	0.88
667.976	0.88
668.733	2.88
669.49	1.88
670.248	2.88
671.005	0.88
671.762	1.88
672.519	0.88
673.276	0.88
674.033	1.88
674.79	0.88
675.547	1.88
676.304	0.88
677.06	2.88
677.817	0.88
678.574	1.88
679.33	1.88
680.086	2.88
680.843	3.88
681.599	2.88
682.355	2.88
683.111	1.88
683.867	0.88
684.623	2.88
685.379	-0.12
686.135	3.88
686.89	1.88
687.646	0.88
688.402	1.88
689.157	1.88
689.912	1.88
690.668	-1.12
691.423	1.88
692.178	3.88
692.933	1.88
693.688	2.88
694.443	0.88
695.198	0.88
695.953	1.88
696.708	1.88
697.462	0.88
698.217	0.88
698.972	1.88
699.726	0.88
700.48	1.88
701.235	2.88
701.989	-0.12
702.743	0.88
703.497	1.88
704.251	0.88
705.005	1.88
705.759	0.88
706.513	1.88
707.266	0.88
708.02	3.88
708.774	0.88
709.527	1.88
710.28	1.88
711.034	0.88
711.787	0.88
712.54	1.88
713.293	0.88
714.046	1.88
714.799	3.88
715.552	0.88
716.305	0.88
717.058	2.88
717.81	2.88
718.563	0.88
719.315	1.88
720.068	1.88
720.82	0.88
721.573	1.88
722.325	0.88
723.077	-0.12
723.829	1.88
724.581	0.88
725.333	0.88
726.085	0.88
726.836	0.88
727.588	-0.12
728.34	0.88
729.091	2.88
729.843	1.88
730.594	-0.12
731.346	0.88
732.097	-0.12
732.848	0.88
733.599	0.88
734.35	2.88
735.101	-0.12
735.852	0.88
736.603	0.88
737.354	2.88
738.104	0.88
738.855	0.88
739.605	2.88
740.356	1.88
741.106	1.88
741.856	0.88
742.607	2.88
743.357	2.88
744.107	1.88
744.857	0.88
745.607	-0.12
746.357	1.88
747.106	2.88
747.856	1.88
748.606	0.88
749.355	0.88
750.105	4.88
750.854	0.88
751.603	0.88
752.353	0.88
753.102	2.88
753.851	1.88
754.6	2.88
755.349	1.88
756.098	2.88
756.847	1.88
757.595	2.88
758.344	2.88
759.093	3.88
759.841	2.88
760.589	2.88
761.338	1.88
762.086	2.88
762.834	0.88
763.582	1.88
764.331	1.88
765.079	-0.12
765.826	3.88
766.574	3.88
767.322	4.88
768.07	3.88
768.817	0.88
769.565	3.88
770.312	2.88
771.06	3.88
771.807	2.88
772.554	3.88
773.302	4.88
774.049	1.88
774.796	4.88
775.543	0.88
776.29	5.88
777.036	4.88
777.783	0.88
778.53	6.88
779.276	3.88
780.023	6.88
780.769	2.88
781.516	1.88
782.262	1.88
783.008	1.88
783.754	4.88
784.5	2.88
785.246	6.88
785.992	4.88
786.738	3.88
787.484	3.88
788.23	3.88
788.975	2.88
789.721	5.88
790.466	2.88
791.212	2.88
791.957	3.88
792.702	4.88
793.447	6.88
794.193	4.88
794.938	2.88
795.683	4.88
796.427	2.88
797.172	4.88
797.917	3.88
798.662	4.88
799.406	4.88
800.151	1.88
800.895	4.88
801.64	2.88
802.384	3.88
803.128	1.88
803.872	1.88
804.616	3.88
805.36	1.88
806.104	2.88
806.848	-0.12
807.592	5.88
808.336	2.88
809.079	1.88
809.823	2.88
810.566	2.88
811.31	3.88
812.053	0.88
812.796	3.88
813.539	4.88
814.283	4.88
815.026	2.88
815.769	0.88
816.511	1.88
817.254	2.88
817.997	1.88
818.74	3.88
819.482	2.88
820.225	-0.12
820.967	1.88
821.71	3.88
822.452	4.88
823.194	4.88
823.936	1.88
824.678	-0.12
825.42	1.88
826.162	1.88
826.904	2.88
827.646	-1.12
828.388	3.88
829.129	2.88
829.871	0.88
830.612	3.88
831.354	3.88
832.095	0.88
832.836	3.88
833.577	1.88
834.319	2.88
835.06	1.88
835.801	1.88
836.542	2.88
837.282	2.88
838.023	1.88
838.764	3.88
839.504	-0.12
840.245	2.88
840.985	3.88
841.726	1.88
842.466	1.88
843.206	-0.12
843.946	2.88
844.687	-1.12
845.427	-0.12
846.166	2.88
846.906	1.88
847.646	0.88
848.386	-0.12
849.125	1.88
849.865	2.88
850.605	0.88
851.344	0.88
852.083	-0.12
852.823	1.88
853.562	2.88
854.301	1.88
855.04	-1.12
855.779	0.88
856.518	1.88
857.257	0.88
857.995	1.88
858.734	1.88
859.473	0.88
860.211	1.88
860.95	-0.12
861.688	1.88
862.426	0.88
863.165	1.88
863.903	-1.12
864.641	0.88
865.379	0.88
866.117	1.88
866.855	1.88
867.593	-2.12
868.33	2.88
869.068	0.88
869.806	1.88
870.543	0.88
871.28	0.88
872.018	0.88
872.755	-2.12
873.492	0.88
874.229	-0.12
874.967	1.88
875.703	-1.12
876.44	-0.12
877.177	2.88
877.914	-1.12
878.651	0.88
879.387	-2.12
880.124	0.88
880.86	-1.12
881.597	0.88
882.333	0.88
883.069	0.88
883.806	-0.12
884.542	-0.12
885.278	0.88
886.014	0.88
886.749	-0.12
887.485	0.88
888.221	-0.12
888.957	-1.12
889.692	-0.12
890.428	-1.12
891.163	0.88
891.899	-2.12
892.634	0.88
893.369	-2.12
894.104	1.88
894.839	-0.12
895.574	0.88
896.309	0.88
897.044	-2.12
897.779	0.88
898.514	1.88
899.248	-1.12
899.983	1.88
900.717	-0.12
901.452	-0.12
902.186	-0.12
902.92	-0.12
903.654	-2.12
904.389	0.88
905.123	-1.12
905.857	-0.12
906.59	-2.12
907.324	-0.12
908.058	-2.12
908.792	0.88
909.525	-0.12
910.259	0.88
910.992	-0.12
911.726	-1.12
912.459	-0.12
913.192	1.88
913.925	-3.12
914.658	-2.12
915.391	0.88
916.124	-0.12
916.857	0.88
917.59	0.88
918.323	-1.12
919.055	-0.12
919.788	-0.12
920.521	-1.12
921.253	0.88
921.985	-1.12
922.718	-2.12
923.45	-2.12
924.182	1.88
924.914	-1.12
925.646	-0.12
926.378	0.88
927.11	-0.12
927.841	-0.12
928.573	-0.12
929.305	0.88
930.036	1.88
930.768	-0.12
931.499	0.88
932.23	1.88
932.962	-1.12
933.693	0.88
934.424	-2.12
935.155	-0.12
935.886	-0.12
936.617	-0.12
937.348	-2.12
938.078	-0.12
938.809	1.88
939.54	-1.12
940.27	-1.12
941.001	-1.12
941.731	-2.12
942.461	1.88
943.191	-0.12
943.922	0.88
944.652	-1.12
945.382	-1.12
946.112	-1.12
946.841	-2.12
947.571	0.88
948.301	-0.12
949.031	0.88
949.76	3.88
950.49	-0.12
951.219	1.88
951.948	-0.12
952.678	1.88
953.407	-0.12
954.136	-1.12
954.865	-0.12
955.594	-0.12
956.323	2.88
957.052	-0.12
957.78	1.88
958.509	-0.12
959.238	0.88
959.966	-0.12
960.695	-0.12
961.423	-2.12
962.151	-0.12
962.88	0.88
963.608	1.88
964.336	1.88
965.064	0.88
965.792	-2.12
966.52	-2.12
967.247	-1.12
967.975	-0.12
968.703	-1.12
969.43	-1.12
970.158	1.88
970.885	0.88
971.613	1.88
972.34	-0.12
973.067	-1.12
973.794	2.88
974.521	-1.12
975.248	-1.12
975.975	0.88
976.702	0.88
977.429	-2.12
978.156	0.88
978.882	-2.12
979.609	-0.12
980.335	-0.12
981.062	-2.12
981.788	1.88
982.514	-2.12
983.24	-0.12
983.967	-1.12
984.693	-1.12
985.419	-0.12
986.144	-0.12
986.87	0.88
987.596	-2.12
988.322	0.88
989.047	-0.12
989.773	0.88
990.498	-3.12
991.224	-2.12
991.949	0.88
992.674	-0.12
993.399	0.88
994.124	-1.12
994.849	-0.12
995.574	0.88
996.299	-2.12
997.024	-0.12
997.749	-2.12
998.473	-2.12
999.198	-1.12
999.922	0.88
1000.647	-1.12
1001.371	2.88
1002.095	-1.12
1002.82	-2.12
1003.544	-0.12
1004.268	0.88
1004.992	-1.12
1005.716	-0.12
1006.439	0.88
1007.163	-2.12
1007.887	0.88
1008.611	-1.12
1009.334	0.88
1010.058	-0.12
1010.781	0.88
1011.504	-2.12
1012.228	0.88
1012.951	0.88
1013.674	-2.12
1014.397	1.88
1015.12	-0.12
