节点500_145_QEPB04081__81__11-30-15-644.txt的数据

Date: Wed Nov 12 11:30:15 CST 2025
User: PC
Spectrometer: QEPB0408
触发模式: 0
积分时间 (秒): 1.000000E-2
Scans to average: 1
启用暗噪声校正: true
启用非线性校正: false
滑动平均宽度: 0
X轴模式: Wavelengths
Number of Pixels in Spectrum: 1044
>>>>>Begin Spectral Data<<<<<
220.843	0.62
221.644	-0.38
222.444	0.62
223.244	1.62
224.045	0.62
224.845	1.62
225.645	3.62
226.445	-0.38
227.245	0.62
228.045	1.62
228.845	-0.38
229.645	1.62
230.444	0.62
231.244	2.62
232.043	2.62
232.843	2.62
233.642	1.62
234.442	3.62
235.241	0.62
236.04	-0.38
236.839	2.62
237.638	0.62
238.437	2.62
239.236	-0.38
240.035	2.62
240.833	3.62
241.632	1.62
242.43	2.62
243.229	1.62
244.027	1.62
244.826	4.62
245.624	1.62
246.422	3.62
247.22	0.62
248.018	2.62
248.816	2.62
249.614	2.62
250.412	3.62
251.21	3.62
252.007	3.62
252.805	2.62
253.602	3.62
254.4	3.62
255.197	0.62
255.994	5.62
256.791	1.62
257.589	5.62
258.386	3.62
259.183	4.62
259.979	5.62
260.776	5.62
261.573	5.62
262.37	5.62
263.166	7.62
263.963	5.62
264.759	5.62
265.556	7.62
266.352	5.62
267.148	6.62
267.944	5.62
268.74	7.62
269.536	5.62
270.332	7.62
271.128	7.62
271.924	9.62
272.719	8.62
273.515	10.62
274.311	9.62
275.106	10.62
275.901	8.62
276.697	10.62
277.492	11.62
278.287	10.62
279.082	11.62
279.877	9.62
280.672	10.62
281.467	9.62
282.262	10.62
283.056	9.62
283.851	8.62
284.646	11.62
285.44	10.62
286.234	10.62
287.029	11.62
287.823	12.62
288.617	12.62
289.411	10.62
290.205	11.62
290.999	8.62
291.793	10.62
292.587	12.62
293.381	12.62
294.174	10.62
294.968	11.62
295.761	10.62
296.555	8.62
297.348	10.62
298.141	8.62
298.935	9.62
299.728	11.62
300.521	9.62
301.314	8.62
302.107	9.62
302.899	12.62
303.692	9.62
304.485	9.62
305.277	8.62
306.07	10.62
306.862	9.62
307.655	8.62
308.447	7.62
309.239	8.62
310.031	8.62
310.823	4.62
311.615	5.62
312.407	7.62
313.199	6.62
313.991	7.62
314.783	3.62
315.574	8.62
316.366	6.62
317.157	4.62
317.949	6.62
318.74	5.62
319.531	3.62
320.322	3.62
321.113	7.62
321.904	5.62
322.695	6.62
323.486	4.62
324.277	4.62
325.068	4.62
325.858	5.62
326.649	3.62
327.439	3.62
328.23	3.62
329.02	3.62
329.81	3.62
330.6	6.62
331.391	2.62
332.181	4.62
332.971	2.62
333.76	2.62
334.55	4.62
335.34	4.62
336.13	2.62
336.919	3.62
337.709	4.62
338.498	4.62
339.287	2.62
340.077	3.62
340.866	2.62
341.655	3.62
342.444	5.62
343.233	5.62
344.022	7.62
344.811	3.62
345.6	3.62
346.388	0.62
347.177	5.62
347.965	3.62
348.754	3.62
349.542	4.62
350.33	4.62
351.119	1.62
351.907	1.62
352.695	2.62
353.483	4.62
354.271	4.62
355.059	3.62
355.846	2.62
356.634	6.62
357.422	1.62
358.209	0.62
358.997	1.62
359.784	3.62
360.571	3.62
361.359	3.62
362.146	5.62
362.933	2.62
363.72	2.62
364.507	2.62
365.294	1.62
366.081	3.62
366.867	2.62
367.654	2.62
368.44	1.62
369.227	0.62
370.013	3.62
370.8	2.62
371.586	1.62
372.372	3.62
373.158	3.62
373.944	5.62
374.73	5.62
375.516	0.62
376.302	4.62
377.088	4.62
377.873	2.62
378.659	2.62
379.445	5.62
380.23	5.62
381.015	2.62
381.801	2.62
382.586	3.62
383.371	2.62
384.156	2.62
384.941	2.62
385.726	4.62
386.511	3.62
387.296	2.62
388.08	3.62
388.865	5.62
389.649	3.62
390.434	3.62
391.218	4.62
392.003	4.62
392.787	2.62
393.571	4.62
394.355	-0.38
395.139	3.62
395.923	4.62
396.707	5.62
397.491	6.62
398.274	4.62
399.058	2.62
399.842	4.62
400.625	3.62
401.408	7.62
402.192	2.62
402.975	5.62
403.758	1.62
404.541	4.62
405.324	6.62
406.107	3.62
406.89	5.62
407.673	4.62
408.456	4.62
409.238	3.62
410.021	4.62
410.803	5.62
411.586	5.62
412.368	4.62
413.151	3.62
413.933	5.62
414.715	5.62
415.497	5.62
416.279	5.62
417.061	4.62
417.843	4.62
418.624	5.62
419.406	3.62
420.188	3.62
420.969	8.62
421.751	3.62
422.532	7.62
423.313	8.62
424.095	4.62
424.876	7.62
425.657	6.62
426.438	7.62
427.219	6.62
428	9.62
428.78	9.62
429.561	4.62
430.342	9.62
431.122	7.62
431.903	6.62
432.683	7.62
433.464	7.62
434.244	6.62
435.024	10.62
435.804	9.62
436.584	9.62
437.364	12.62
438.144	11.62
438.924	13.62
439.704	11.62
440.483	11.62
441.263	12.62
442.042	13.62
442.822	14.62
443.601	13.62
444.38	16.62
445.16	17.62
445.939	17.62
446.718	17.62
447.497	18.62
448.276	20.62
449.054	23.62
449.833	22.62
450.612	23.62
451.391	25.62
452.169	29.62
452.948	30.62
453.726	31.62
454.504	35.62
455.282	40.62
456.061	39.62
456.839	44.62
457.617	50.62
458.395	57.62
459.172	61.62
459.95	66.62
460.728	73.62
461.506	83.62
462.283	93.62
463.061	98.62
463.838	117.62
464.615	121.62
465.393	145.62
466.17	157.62
466.947	182.62
467.724	198.62
468.501	223.62
469.278	253.62
470.055	282.62
470.831	314.62
471.608	352.62
472.385	393.62
473.161	436.62
473.938	481.62
474.714	537.62
475.49	603.62
476.266	672.62
477.043	748.62
477.819	823.62
478.595	924.62
479.371	1030.62
480.146	1134.62
480.922	1256.62
481.698	1375.62
482.473	1542.62
483.249	1712.62
484.024	1898.62
484.8	2077.62
485.575	2321.62
486.35	2588.62
487.126	2873.62
487.901	3150.62
488.676	3514.62
489.451	3912.62
490.225	4285.62
491	4752.62
491.775	5250.62
492.55	5808.62
493.324	6394.62
494.099	6987.62
494.873	7673.62
495.647	8355.62
496.422	9155.62
497.196	9870.62
497.97	10708.62
498.744	11474.62
499.518	12272.62
500.292	13061.62
501.066	13856.62
501.839	14617.62
502.613	15285.62
503.387	15894.62
504.16	16441.62
504.934	16886.62
505.707	17177.62
506.48	17383.62
507.253	17415.62
508.027	17374.62
508.8	17182.62
509.573	16920.62
510.346	16538.62
511.118	16146.62
511.891	15570.62
512.664	15060.62
513.437	14407.62
514.209	13851.62
514.982	13194.62
515.754	12632.62
516.526	12037.62
517.298	11490.62
518.071	10979.62
518.843	10506.62
519.615	10073.62
520.387	9616.62
521.159	9253.62
521.93	8867.62
522.702	8527.62
523.474	8197.62
524.245	7872.62
525.017	7576.62
525.788	7267.62
526.56	6976.62
527.331	6638.62
528.102	6354.62
528.873	6060.62
529.644	5769.62
530.415	5484.62
531.186	5214.62
531.957	4937.62
532.728	4680.62
533.498	4434.62
534.269	4184.62
535.039	3962.62
535.81	3701.62
536.58	3509.62
537.351	3300.62
538.121	3119.62
538.891	2952.62
539.661	2789.62
540.431	2622.62
541.201	2493.62
541.971	2359.62
542.741	2213.62
543.51	2125.62
544.28	2016.62
545.05	1919.62
545.819	1824.62
546.588	1730.62
547.358	1651.62
548.127	1563.62
548.896	1481.62
549.665	1409.62
550.434	1338.62
551.203	1281.62
551.972	1209.62
552.741	1139.62
553.51	1072.62
554.278	1014.62
555.047	960.62
555.815	900.62
556.584	842.62
557.352	792.62
558.121	757.62
558.889	711.62
559.657	670.62
560.425	639.62
561.193	596.62
561.961	569.62
562.729	521.62
563.496	500.62
564.264	471.62
565.032	445.62
565.799	413.62
566.567	392.62
567.334	372.62
568.101	355.62
568.869	337.62
569.636	314.62
570.403	299.62
571.17	288.62
571.937	267.62
572.704	249.62
573.471	234.62
574.237	222.62
575.004	209.62
575.771	191.62
576.537	184.62
577.303	173.62
578.07	166.62
578.836	157.62
579.602	145.62
580.368	133.62
581.134	127.62
581.9	124.62
582.666	116.62
583.432	112.62
584.198	106.62
584.964	101.62
585.729	91.62
586.495	90.62
587.26	81.62
588.025	76.62
588.791	73.62
589.556	67.62
590.321	71.62
591.086	63.62
591.851	62.62
592.616	57.62
593.381	52.62
594.146	52.62
594.911	51.62
595.675	48.62
596.44	41.62
597.204	43.62
597.969	43.62
598.733	39.62
599.497	37.62
600.261	34.62
601.025	32.62
601.79	30.62
602.553	31.62
603.317	31.62
604.081	25.62
604.845	25.62
605.609	25.62
606.372	24.62
607.136	25.62
607.899	23.62
608.662	21.62
609.426	21.62
610.189	19.62
610.952	20.62
611.715	17.62
612.478	18.62
613.241	14.62
614.004	15.62
614.767	17.62
615.529	16.62
616.292	11.62
617.055	14.62
617.817	14.62
618.579	12.62
619.342	15.62
620.104	14.62
620.866	13.62
621.628	14.62
622.39	10.62
623.152	10.62
623.914	9.62
624.676	9.62
625.438	10.62
626.199	7.62
626.961	10.62
627.722	8.62
628.484	11.62
629.245	8.62
630.006	9.62
630.768	9.62
631.529	10.62
632.29	8.62
633.051	8.62
633.812	8.62
634.573	6.62
635.333	5.62
636.094	6.62
636.855	3.62
637.615	9.62
638.376	5.62
639.136	7.62
639.896	4.62
640.657	8.62
641.417	6.62
642.177	7.62
642.937	6.62
643.697	5.62
644.457	4.62
645.216	5.62
645.976	5.62
646.736	6.62
647.495	5.62
648.255	4.62
649.014	4.62
649.774	4.62
650.533	3.62
651.292	3.62
652.051	1.62
652.81	3.62
653.569	2.62
654.328	5.62
655.087	3.62
655.846	3.62
656.604	4.62
657.363	5.62
658.121	4.62
658.88	4.62
659.638	3.62
660.397	4.62
661.155	1.62
661.913	3.62
662.671	5.62
663.429	3.62
664.187	4.62
664.945	2.62
665.703	5.62
666.46	2.62
667.218	2.62
667.976	5.62
668.733	2.62
669.49	2.62
670.248	4.62
671.005	1.62
671.762	1.62
672.519	4.62
673.276	3.62
674.033	1.62
674.79	4.62
675.547	-0.38
676.304	4.62
677.06	2.62
677.817	1.62
678.574	4.62
679.33	2.62
680.086	3.62
680.843	4.62
681.599	2.62
682.355	2.62
683.111	2.62
683.867	2.62
684.623	3.62
685.379	2.62
686.135	1.62
686.89	4.62
687.646	1.62
688.402	2.62
689.157	4.62
689.912	1.62
690.668	1.62
691.423	2.62
692.178	1.62
692.933	2.62
693.688	2.62
694.443	0.62
695.198	2.62
695.953	4.62
696.708	3.62
697.462	1.62
698.217	1.62
698.972	1.62
699.726	2.62
700.48	2.62
701.235	2.62
701.989	3.62
702.743	2.62
703.497	1.62
704.251	1.62
705.005	-0.38
705.759	1.62
706.513	2.62
707.266	3.62
708.02	5.62
708.774	4.62
709.527	0.62
710.28	1.62
711.034	1.62
711.787	2.62
712.54	2.62
713.293	2.62
714.046	3.62
714.799	1.62
715.552	4.62
716.305	2.62
717.058	1.62
717.81	2.62
718.563	3.62
719.315	2.62
720.068	0.62
720.82	5.62
721.573	1.62
722.325	2.62
723.077	2.62
723.829	0.62
724.581	2.62
725.333	0.62
726.085	2.62
726.836	2.62
727.588	1.62
728.34	1.62
729.091	2.62
729.843	3.62
730.594	2.62
731.346	2.62
732.097	1.62
732.848	0.62
733.599	2.62
734.35	2.62
735.101	2.62
735.852	2.62
736.603	3.62
737.354	2.62
738.104	-0.38
738.855	2.62
739.605	2.62
740.356	2.62
741.106	2.62
741.856	1.62
742.607	4.62
743.357	2.62
744.107	1.62
744.857	2.62
745.607	5.62
746.357	2.62
747.106	3.62
747.856	1.62
748.606	2.62
749.355	0.62
750.105	2.62
750.854	5.62
751.603	4.62
752.353	3.62
753.102	4.62
753.851	3.62
754.6	5.62
755.349	1.62
756.098	4.62
756.847	2.62
757.595	1.62
758.344	4.62
759.093	3.62
759.841	3.62
760.589	2.62
761.338	3.62
762.086	1.62
762.834	4.62
763.582	2.62
764.331	4.62
765.079	5.62
765.826	2.62
766.574	5.62
767.322	3.62
768.07	4.62
768.817	4.62
769.565	4.62
770.312	5.62
771.06	3.62
771.807	6.62
772.554	3.62
773.302	2.62
774.049	5.62
774.796	5.62
775.543	4.62
776.29	4.62
777.036	5.62
777.783	5.62
778.53	5.62
779.276	6.62
780.023	3.62
780.769	6.62
781.516	5.62
782.262	5.62
783.008	6.62
783.754	5.62
784.5	7.62
785.246	4.62
785.992	5.62
786.738	7.62
787.484	5.62
788.23	6.62
788.975	4.62
789.721	6.62
790.466	7.62
791.212	7.62
791.957	6.62
792.702	4.62
793.447	6.62
794.193	5.62
794.938	6.62
795.683	4.62
796.427	4.62
797.172	5.62
797.917	4.62
798.662	5.62
799.406	5.62
800.151	5.62
800.895	3.62
801.64	6.62
802.384	4.62
803.128	6.62
803.872	4.62
804.616	3.62
805.36	5.62
806.104	3.62
806.848	4.62
807.592	3.62
808.336	2.62
809.079	6.62
809.823	2.62
810.566	4.62
811.31	5.62
812.053	5.62
812.796	5.62
813.539	3.62
814.283	3.62
815.026	4.62
815.769	5.62
816.511	5.62
817.254	2.62
817.997	4.62
818.74	2.62
819.482	4.62
820.225	3.62
820.967	5.62
821.71	4.62
822.452	0.62
823.194	3.62
823.936	1.62
824.678	2.62
825.42	3.62
826.162	0.62
826.904	1.62
827.646	4.62
828.388	4.62
829.129	1.62
829.871	2.62
830.612	3.62
831.354	2.62
832.095	4.62
832.836	3.62
833.577	2.62
834.319	4.62
835.06	1.62
835.801	3.62
836.542	2.62
837.282	3.62
838.023	1.62
838.764	4.62
839.504	1.62
840.245	2.62
840.985	1.62
841.726	3.62
842.466	2.62
843.206	0.62
843.946	2.62
844.687	3.62
845.427	1.62
846.166	1.62
846.906	3.62
847.646	0.62
848.386	2.62
849.125	3.62
849.865	2.62
850.605	3.62
851.344	4.62
852.083	2.62
852.823	4.62
853.562	1.62
854.301	2.62
855.04	0.62
855.779	2.62
856.518	0.62
857.257	0.62
857.995	0.62
858.734	2.62
859.473	2.62
860.211	0.62
860.95	3.62
861.688	2.62
862.426	-1.38
863.165	1.62
863.903	0.62
864.641	2.62
865.379	-0.38
866.117	2.62
866.855	1.62
867.593	1.62
868.33	2.62
869.068	-0.38
869.806	0.62
870.543	1.62
871.28	2.62
872.018	2.62
872.755	4.62
873.492	-0.38
874.229	1.62
874.967	0.62
875.703	3.62
876.44	1.62
877.177	1.62
877.914	-2.38
878.651	0.62
879.387	-0.38
880.124	-0.38
880.86	2.62
881.597	1.62
882.333	2.62
883.069	-0.38
883.806	2.62
884.542	2.62
885.278	2.62
886.014	3.62
886.749	-1.38
887.485	1.62
888.221	1.62
888.957	2.62
889.692	0.62
890.428	2.62
891.163	2.62
891.899	-0.38
892.634	-0.38
893.369	0.62
894.104	1.62
894.839	0.62
895.574	0.62
896.309	1.62
897.044	1.62
897.779	1.62
898.514	0.62
899.248	-0.38
899.983	-1.38
900.717	2.62
901.452	2.62
902.186	1.62
902.92	1.62
903.654	0.62
904.389	0.62
905.123	-1.38
905.857	1.62
906.59	1.62
907.324	-0.38
908.058	0.62
908.792	1.62
909.525	2.62
910.259	-1.38
910.992	0.62
911.726	-0.38
912.459	1.62
913.192	2.62
913.925	0.62
914.658	0.62
915.391	1.62
916.124	0.62
916.857	-1.38
917.59	0.62
918.323	1.62
919.055	0.62
919.788	0.62
920.521	2.62
921.253	0.62
921.985	1.62
922.718	2.62
923.45	2.62
924.182	0.62
924.914	0.62
925.646	0.62
926.378	2.62
927.11	1.62
927.841	0.62
928.573	1.62
929.305	0.62
930.036	2.62
930.768	1.62
931.499	0.62
932.23	0.62
932.962	1.62
933.693	1.62
934.424	-0.38
935.155	-0.38
935.886	0.62
936.617	-0.38
937.348	1.62
938.078	1.62
938.809	0.62
939.54	-0.38
940.27	1.62
941.001	1.62
941.731	-0.38
942.461	1.62
943.191	-0.38
943.922	2.62
944.652	-1.38
945.382	-1.38
946.112	-0.38
946.841	1.62
947.571	0.62
948.301	0.62
949.031	0.62
949.76	1.62
950.49	0.62
951.219	-0.38
951.948	1.62
952.678	-0.38
953.407	1.62
954.136	0.62
954.865	0.62
955.594	-0.38
956.323	-0.38
957.052	1.62
957.78	1.62
958.509	-1.38
959.238	1.62
959.966	1.62
960.695	1.62
961.423	0.62
962.151	1.62
962.88	1.62
963.608	3.62
964.336	2.62
965.064	1.62
965.792	-0.38
966.52	0.62
967.247	0.62
967.975	-1.38
968.703	1.62
969.43	1.62
970.158	1.62
970.885	0.62
971.613	0.62
972.34	2.62
973.067	-0.38
973.794	0.62
974.521	0.62
975.248	0.62
975.975	2.62
976.702	0.62
977.429	-0.38
978.156	0.62
978.882	-1.38
979.609	-0.38
980.335	-0.38
981.062	1.62
981.788	1.62
982.514	1.62
983.24	0.62
983.967	1.62
984.693	1.62
985.419	2.62
986.144	2.62
986.87	-1.38
987.596	-0.38
988.322	0.62
989.047	0.62
989.773	-0.38
990.498	0.62
991.224	1.62
991.949	-0.38
992.674	0.62
993.399	0.62
994.124	-1.38
994.849	-0.38
995.574	2.62
996.299	0.62
997.024	0.62
997.749	0.62
998.473	0.62
999.198	1.62
999.922	-0.38
1000.647	0.62
1001.371	3.62
1002.095	0.62
1002.82	-2.38
1003.544	-0.38
1004.268	0.62
1004.992	-0.38
1005.716	-0.38
1006.439	-1.38
1007.163	-2.38
1007.887	1.62
1008.611	0.62
1009.334	0.62
1010.058	1.62
1010.781	-1.38
1011.504	1.62
1012.228	1.62
1012.951	-0.38
1013.674	-0.38
1014.397	-0.38
1015.12	-0.38
