节点500_145_QEPB04081__522__11-37-13-523.txt的数据

Date: Wed Nov 12 11:37:13 CST 2025
User: PC
Spectrometer: QEPB0408
触发模式: 0
积分时间 (秒): 1.000000E-2
Scans to average: 1
启用暗噪声校正: true
启用非线性校正: false
滑动平均宽度: 0
X轴模式: Wavelengths
Number of Pixels in Spectrum: 1044
>>>>>Begin Spectral Data<<<<<
220.843	0.75
221.644	-2.25
222.444	-0.25
223.244	-1.25
224.045	-0.25
224.845	0.75
225.645	-2.25
226.445	-1.25
227.245	0.75
228.045	0.75
228.845	-2.25
229.645	-0.25
230.444	-2.25
231.244	0.75
232.043	0.75
232.843	0.75
233.642	-0.25
234.442	-0.25
235.241	0.75
236.04	-0.25
236.839	-1.25
237.638	-2.25
238.437	2.75
239.236	-0.25
240.035	2.75
240.833	1.75
241.632	0.75
242.43	-0.25
243.229	-0.25
244.027	1.75
244.826	0.75
245.624	-1.25
246.422	1.75
247.22	0.75
248.018	2.75
248.816	2.75
249.614	0.75
250.412	0.75
251.21	1.75
252.007	2.75
252.805	1.75
253.602	1.75
254.4	1.75
255.197	1.75
255.994	2.75
256.791	2.75
257.589	3.75
258.386	1.75
259.183	3.75
259.979	0.75
260.776	3.75
261.573	0.75
262.37	4.75
263.166	5.75
263.963	2.75
264.759	5.75
265.556	2.75
266.352	2.75
267.148	5.75
267.944	5.75
268.74	5.75
269.536	7.75
270.332	2.75
271.128	6.75
271.924	8.75
272.719	8.75
273.515	7.75
274.311	8.75
275.106	6.75
275.901	7.75
276.697	5.75
277.492	8.75
278.287	8.75
279.082	10.75
279.877	5.75
280.672	6.75
281.467	6.75
282.262	10.75
283.056	8.75
283.851	9.75
284.646	9.75
285.44	10.75
286.234	9.75
287.029	9.75
287.823	10.75
288.617	9.75
289.411	8.75
290.205	9.75
290.999	10.75
291.793	10.75
292.587	8.75
293.381	6.75
294.174	11.75
294.968	8.75
295.761	8.75
296.555	9.75
297.348	8.75
298.141	11.75
298.935	9.75
299.728	9.75
300.521	7.75
301.314	6.75
302.107	8.75
302.899	6.75
303.692	8.75
304.485	5.75
305.277	9.75
306.07	8.75
306.862	5.75
307.655	6.75
308.447	8.75
309.239	8.75
310.031	7.75
310.823	6.75
311.615	6.75
312.407	5.75
313.199	6.75
313.991	1.75
314.783	4.75
315.574	3.75
316.366	2.75
317.157	4.75
317.949	5.75
318.74	4.75
319.531	1.75
320.322	3.75
321.113	2.75
321.904	3.75
322.695	3.75
323.486	4.75
324.277	4.75
325.068	3.75
325.858	4.75
326.649	5.75
327.439	5.75
328.23	1.75
329.02	3.75
329.81	2.75
330.6	4.75
331.391	4.75
332.181	2.75
332.971	4.75
333.76	4.75
334.55	0.75
335.34	2.75
336.13	2.75
336.919	4.75
337.709	3.75
338.498	3.75
339.287	2.75
340.077	1.75
340.866	3.75
341.655	2.75
342.444	3.75
343.233	2.75
344.022	-0.25
344.811	2.75
345.6	3.75
346.388	3.75
347.177	2.75
347.965	3.75
348.754	2.75
349.542	2.75
350.33	4.75
351.119	1.75
351.907	3.75
352.695	3.75
353.483	3.75
354.271	4.75
355.059	2.75
355.846	3.75
356.634	1.75
357.422	0.75
358.209	0.75
358.997	1.75
359.784	2.75
360.571	3.75
361.359	-0.25
362.146	0.75
362.933	1.75
363.72	1.75
364.507	1.75
365.294	3.75
366.081	1.75
366.867	1.75
367.654	2.75
368.44	2.75
369.227	1.75
370.013	-0.25
370.8	1.75
371.586	4.75
372.372	0.75
373.158	-0.25
373.944	3.75
374.73	2.75
375.516	1.75
376.302	4.75
377.088	0.75
377.873	-0.25
378.659	2.75
379.445	3.75
380.23	1.75
381.015	0.75
381.801	2.75
382.586	3.75
383.371	2.75
384.156	1.75
384.941	1.75
385.726	1.75
386.511	2.75
387.296	2.75
388.08	3.75
388.865	3.75
389.649	1.75
390.434	3.75
391.218	1.75
392.003	1.75
392.787	5.75
393.571	1.75
394.355	1.75
395.139	3.75
395.923	2.75
396.707	5.75
397.491	1.75
398.274	2.75
399.058	2.75
399.842	3.75
400.625	0.75
401.408	2.75
402.192	1.75
402.975	2.75
403.758	1.75
404.541	1.75
405.324	4.75
406.107	2.75
406.89	0.75
407.673	1.75
408.456	3.75
409.238	1.75
410.021	2.75
410.803	5.75
411.586	4.75
412.368	5.75
413.151	4.75
413.933	5.75
414.715	3.75
415.497	3.75
416.279	2.75
417.061	2.75
417.843	5.75
418.624	4.75
419.406	4.75
420.188	3.75
420.969	5.75
421.751	4.75
422.532	4.75
423.313	3.75
424.095	4.75
424.876	5.75
425.657	6.75
426.438	2.75
427.219	6.75
428	7.75
428.78	5.75
429.561	7.75
430.342	4.75
431.122	5.75
431.903	5.75
432.683	8.75
433.464	8.75
434.244	7.75
435.024	7.75
435.804	8.75
436.584	11.75
437.364	7.75
438.144	8.75
438.924	11.75
439.704	8.75
440.483	10.75
441.263	9.75
442.042	10.75
442.822	11.75
443.601	14.75
444.38	13.75
445.16	15.75
445.939	12.75
446.718	15.75
447.497	17.75
448.276	18.75
449.054	23.75
449.833	21.75
450.612	28.75
451.391	28.75
452.169	30.75
452.948	34.75
453.726	33.75
454.504	37.75
455.282	44.75
456.061	49.75
456.839	49.75
457.617	60.75
458.395	61.75
459.172	71.75
459.95	80.75
460.728	91.75
461.506	97.75
462.283	106.75
463.061	115.75
463.838	137.75
464.615	153.75
465.393	166.75
466.17	182.75
466.947	205.75
467.724	233.75
468.501	256.75
469.278	290.75
470.055	313.75
470.831	352.75
471.608	382.75
472.385	428.75
473.161	478.75
473.938	525.75
474.714	583.75
475.49	658.75
476.266	710.75
477.043	782.75
477.819	865.75
478.595	960.75
479.371	1048.75
480.146	1163.75
480.922	1282.75
481.698	1406.75
482.473	1538.75
483.249	1673.75
484.024	1856.75
484.8	2033.75
485.575	2210.75
486.35	2428.75
487.126	2690.75
487.901	2943.75
488.676	3219.75
489.451	3506.75
490.225	3860.75
491	4202.75
491.775	4630.75
492.55	5041.75
493.324	5478.75
494.099	5995.75
494.873	6505.75
495.647	7055.75
496.422	7675.75
497.196	8272.75
497.97	8949.75
498.744	9589.75
499.518	10283.75
500.292	10969.75
501.066	11628.75
501.839	12286.75
502.613	12926.75
503.387	13563.75
504.16	14018.75
504.934	14541.75
505.707	14968.75
506.48	15304.75
507.253	15514.75
508.027	15626.75
508.8	15714.75
509.573	15722.75
510.346	15508.75
511.118	15304.75
511.891	14972.75
512.664	14560.75
513.437	14169.75
514.209	13740.75
514.982	13193.75
515.754	12701.75
516.526	12212.75
517.298	11638.75
518.071	11199.75
518.843	10747.75
519.615	10275.75
520.387	9865.75
521.159	9412.75
521.93	9107.75
522.702	8713.75
523.474	8396.75
524.245	8082.75
525.017	7768.75
525.788	7416.75
526.56	7102.75
527.331	6818.75
528.102	6519.75
528.873	6258.75
529.644	5981.75
530.415	5750.75
531.186	5456.75
531.957	5190.75
532.728	4948.75
533.498	4701.75
534.269	4434.75
535.039	4210.75
535.81	3981.75
536.58	3759.75
537.351	3562.75
538.121	3361.75
538.891	3184.75
539.661	3003.75
540.431	2843.75
541.201	2696.75
541.971	2557.75
542.741	2425.75
543.51	2300.75
544.28	2171.75
545.05	2066.75
545.819	1976.75
546.588	1858.75
547.358	1776.75
548.127	1676.75
548.896	1615.75
549.665	1529.75
550.434	1440.75
551.203	1377.75
551.972	1314.75
552.741	1229.75
553.51	1178.75
554.278	1113.75
555.047	1053.75
555.815	985.75
556.584	943.75
557.352	877.75
558.121	837.75
558.889	775.75
559.657	733.75
560.425	690.75
561.193	656.75
561.961	629.75
562.729	584.75
563.496	553.75
564.264	518.75
565.032	490.75
565.799	474.75
566.567	441.75
567.334	411.75
568.101	387.75
568.869	378.75
569.636	344.75
570.403	332.75
571.17	311.75
571.937	283.75
572.704	276.75
573.471	260.75
574.237	247.75
575.004	230.75
575.771	210.75
576.537	202.75
577.303	191.75
578.07	177.75
578.836	172.75
579.602	163.75
580.368	147.75
581.134	145.75
581.9	132.75
582.666	133.75
583.432	124.75
584.198	114.75
584.964	103.75
585.729	104.75
586.495	94.75
587.26	91.75
588.025	84.75
588.791	81.75
589.556	73.75
590.321	71.75
591.086	69.75
591.851	62.75
592.616	60.75
593.381	59.75
594.146	54.75
594.911	50.75
595.675	49.75
596.44	44.75
597.204	45.75
597.969	47.75
598.733	43.75
599.497	40.75
600.261	34.75
601.025	37.75
601.79	35.75
602.553	31.75
603.317	33.75
604.081	29.75
604.845	27.75
605.609	26.75
606.372	23.75
607.136	22.75
607.899	25.75
608.662	25.75
609.426	23.75
610.189	22.75
610.952	20.75
611.715	20.75
612.478	17.75
613.241	17.75
614.004	18.75
614.767	13.75
615.529	17.75
616.292	14.75
617.055	16.75
617.817	12.75
618.579	12.75
619.342	13.75
620.104	10.75
620.866	13.75
621.628	9.75
622.39	11.75
623.152	12.75
623.914	10.75
624.676	11.75
625.438	7.75
626.199	9.75
626.961	6.75
627.722	8.75
628.484	9.75
629.245	6.75
630.006	10.75
630.768	7.75
631.529	9.75
632.29	6.75
633.051	4.75
633.812	6.75
634.573	6.75
635.333	5.75
636.094	7.75
636.855	6.75
637.615	6.75
638.376	4.75
639.136	4.75
639.896	3.75
640.657	5.75
641.417	3.75
642.177	5.75
642.937	4.75
643.697	2.75
644.457	5.75
645.216	6.75
645.976	2.75
646.736	4.75
647.495	2.75
648.255	4.75
649.014	5.75
649.774	2.75
650.533	4.75
651.292	3.75
652.051	2.75
652.81	2.75
653.569	5.75
654.328	1.75
655.087	3.75
655.846	3.75
656.604	5.75
657.363	2.75
658.121	-0.25
658.88	2.75
659.638	1.75
660.397	2.75
661.155	1.75
661.913	3.75
662.671	0.75
663.429	3.75
664.187	0.75
664.945	0.75
665.703	5.75
666.46	0.75
667.218	2.75
667.976	1.75
668.733	0.75
669.49	2.75
670.248	-0.25
671.005	1.75
671.762	2.75
672.519	0.75
673.276	0.75
674.033	3.75
674.79	-0.25
675.547	-1.25
676.304	2.75
677.06	2.75
677.817	1.75
678.574	1.75
679.33	-0.25
680.086	3.75
680.843	1.75
681.599	0.75
682.355	1.75
683.111	1.75
683.867	2.75
684.623	1.75
685.379	1.75
686.135	1.75
686.89	0.75
687.646	2.75
688.402	2.75
689.157	1.75
689.912	1.75
690.668	1.75
691.423	1.75
692.178	1.75
692.933	0.75
693.688	1.75
694.443	0.75
695.198	1.75
695.953	3.75
696.708	-0.25
697.462	0.75
698.217	1.75
698.972	1.75
699.726	2.75
700.48	0.75
701.235	1.75
701.989	2.75
702.743	2.75
703.497	0.75
704.251	0.75
705.005	1.75
705.759	-0.25
706.513	0.75
707.266	1.75
708.02	1.75
708.774	2.75
709.527	1.75
710.28	1.75
711.034	-1.25
711.787	2.75
712.54	0.75
713.293	2.75
714.046	1.75
714.799	1.75
715.552	3.75
716.305	1.75
717.058	1.75
717.81	0.75
718.563	-0.25
719.315	1.75
720.068	0.75
720.82	1.75
721.573	-0.25
722.325	1.75
723.077	0.75
723.829	2.75
724.581	1.75
725.333	0.75
726.085	1.75
726.836	-0.25
727.588	2.75
728.34	1.75
729.091	-0.25
729.843	1.75
730.594	0.75
731.346	2.75
732.097	0.75
732.848	3.75
733.599	1.75
734.35	0.75
735.101	2.75
735.852	0.75
736.603	1.75
737.354	0.75
738.104	0.75
738.855	0.75
739.605	0.75
740.356	-0.25
741.106	0.75
741.856	1.75
742.607	0.75
743.357	1.75
744.107	1.75
744.857	2.75
745.607	0.75
746.357	1.75
747.106	0.75
747.856	0.75
748.606	2.75
749.355	0.75
750.105	1.75
750.854	2.75
751.603	1.75
752.353	2.75
753.102	1.75
753.851	1.75
754.6	5.75
755.349	1.75
756.098	0.75
756.847	1.75
757.595	1.75
758.344	1.75
759.093	2.75
759.841	2.75
760.589	1.75
761.338	0.75
762.086	3.75
762.834	2.75
763.582	1.75
764.331	3.75
765.079	3.75
765.826	1.75
766.574	4.75
767.322	3.75
768.07	0.75
768.817	3.75
769.565	0.75
770.312	2.75
771.06	1.75
771.807	2.75
772.554	1.75
773.302	4.75
774.049	2.75
774.796	2.75
775.543	4.75
776.29	4.75
777.036	2.75
777.783	1.75
778.53	4.75
779.276	2.75
780.023	3.75
780.769	3.75
781.516	1.75
782.262	3.75
783.008	4.75
783.754	2.75
784.5	1.75
785.246	3.75
785.992	5.75
786.738	5.75
787.484	5.75
788.23	4.75
788.975	2.75
789.721	2.75
790.466	3.75
791.212	6.75
791.957	4.75
792.702	3.75
793.447	4.75
794.193	4.75
794.938	5.75
795.683	6.75
796.427	3.75
797.172	2.75
797.917	2.75
798.662	3.75
799.406	2.75
800.151	3.75
800.895	4.75
801.64	4.75
802.384	2.75
803.128	3.75
803.872	3.75
804.616	3.75
805.36	5.75
806.104	2.75
806.848	4.75
807.592	2.75
808.336	3.75
809.079	4.75
809.823	4.75
810.566	2.75
811.31	3.75
812.053	4.75
812.796	2.75
813.539	2.75
814.283	1.75
815.026	2.75
815.769	2.75
816.511	1.75
817.254	2.75
817.997	1.75
818.74	3.75
819.482	2.75
820.225	0.75
820.967	2.75
821.71	2.75
822.452	1.75
823.194	0.75
823.936	1.75
824.678	2.75
825.42	2.75
826.162	0.75
826.904	1.75
827.646	2.75
828.388	4.75
829.129	1.75
829.871	0.75
830.612	3.75
831.354	0.75
832.095	1.75
832.836	1.75
833.577	-2.25
834.319	3.75
835.06	0.75
835.801	2.75
836.542	-0.25
837.282	1.75
838.023	1.75
838.764	0.75
839.504	2.75
840.245	1.75
840.985	0.75
841.726	2.75
842.466	2.75
843.206	3.75
843.946	0.75
844.687	1.75
845.427	1.75
846.166	2.75
846.906	2.75
847.646	-1.25
848.386	0.75
849.125	2.75
849.865	2.75
850.605	1.75
851.344	-0.25
852.083	1.75
852.823	-0.25
853.562	1.75
854.301	-0.25
855.04	4.75
855.779	0.75
856.518	-0.25
857.257	0.75
857.995	-0.25
858.734	0.75
859.473	0.75
860.211	1.75
860.95	3.75
861.688	-0.25
862.426	0.75
863.165	2.75
863.903	1.75
864.641	0.75
865.379	-0.25
866.117	-1.25
866.855	-0.25
867.593	-0.25
868.33	0.75
869.068	-0.25
869.806	0.75
870.543	0.75
871.28	-0.25
872.018	0.75
872.755	0.75
873.492	0.75
874.229	0.75
874.967	0.75
875.703	0.75
876.44	-2.25
877.177	0.75
877.914	1.75
878.651	0.75
879.387	-0.25
880.124	0.75
880.86	-2.25
881.597	-0.25
882.333	1.75
883.069	1.75
883.806	-0.25
884.542	-1.25
885.278	-0.25
886.014	0.75
886.749	1.75
887.485	1.75
888.221	-0.25
888.957	0.75
889.692	-0.25
890.428	0.75
891.163	-1.25
891.899	-1.25
892.634	-1.25
893.369	0.75
894.104	-0.25
894.839	0.75
895.574	-2.25
896.309	-0.25
897.044	0.75
897.779	1.75
898.514	-0.25
899.248	-0.25
899.983	-0.25
900.717	0.75
901.452	-1.25
902.186	-0.25
902.92	-0.25
903.654	0.75
904.389	-3.25
905.123	-2.25
905.857	-0.25
906.59	0.75
907.324	-1.25
908.058	-1.25
908.792	-0.25
909.525	-2.25
910.259	0.75
910.992	-0.25
911.726	-0.25
912.459	0.75
913.192	0.75
913.925	0.75
914.658	-0.25
915.391	-2.25
916.124	-0.25
916.857	-1.25
917.59	-0.25
918.323	-0.25
919.055	0.75
919.788	-1.25
920.521	-0.25
921.253	0.75
921.985	-2.25
922.718	-2.25
923.45	-2.25
924.182	2.75
924.914	-0.25
925.646	-1.25
926.378	-0.25
927.11	-1.25
927.841	-0.25
928.573	-1.25
929.305	0.75
930.036	-0.25
930.768	-0.25
931.499	-0.25
932.23	-3.25
932.962	0.75
933.693	-1.25
934.424	0.75
935.155	1.75
935.886	-0.25
936.617	-0.25
937.348	-0.25
938.078	1.75
938.809	-2.25
939.54	0.75
940.27	-0.25
941.001	-1.25
941.731	0.75
942.461	0.75
943.191	-0.25
943.922	-0.25
944.652	0.75
945.382	-1.25
946.112	-2.25
946.841	-2.25
947.571	-0.25
948.301	0.75
949.031	-1.25
949.76	-0.25
950.49	-0.25
951.219	-0.25
951.948	0.75
952.678	-0.25
953.407	-0.25
954.136	-3.25
954.865	-0.25
955.594	-0.25
956.323	-0.25
957.052	0.75
957.78	0.75
958.509	2.75
959.238	-2.25
959.966	-2.25
960.695	-1.25
961.423	0.75
962.151	-2.25
962.88	0.75
963.608	-0.25
964.336	-0.25
965.064	-2.25
965.792	-0.25
966.52	-0.25
967.247	0.75
967.975	-1.25
968.703	-1.25
969.43	-2.25
970.158	1.75
970.885	-0.25
971.613	-2.25
972.34	0.75
973.067	-1.25
973.794	0.75
974.521	-1.25
975.248	1.75
975.975	-1.25
976.702	-1.25
977.429	0.75
978.156	-1.25
978.882	-1.25
979.609	-2.25
980.335	0.75
981.062	1.75
981.788	-2.25
982.514	1.75
983.24	-1.25
983.967	0.75
984.693	-2.25
985.419	-0.25
986.144	-0.25
986.87	-3.25
987.596	-0.25
988.322	-1.25
989.047	-0.25
989.773	-0.25
990.498	0.75
991.224	-0.25
991.949	-1.25
992.674	-2.25
993.399	0.75
994.124	0.75
994.849	-1.25
995.574	-0.25
996.299	-2.25
997.024	-0.25
997.749	-0.25
998.473	-0.25
999.198	-1.25
999.922	-1.25
1000.647	-1.25
1001.371	2.75
1002.095	0.75
1002.82	-1.25
1003.544	-1.25
1004.268	1.75
1004.992	-0.25
1005.716	-4.25
1006.439	-0.25
1007.163	-1.25
1007.887	-0.25
1008.611	-2.25
1009.334	0.75
1010.058	0.75
1010.781	-1.25
1011.504	0.75
1012.228	0.75
1012.951	-0.25
1013.674	-1.25
1014.397	0.75
1015.12	-0.25
