节点500_145_QEPB04081__590__11-38-19-383.txt的数据

Date: Wed Nov 12 11:38:19 CST 2025
User: PC
Spectrometer: QEPB0408
触发模式: 0
积分时间 (秒): 1.000000E-2
Scans to average: 1
启用暗噪声校正: true
启用非线性校正: false
滑动平均宽度: 0
X轴模式: Wavelengths
Number of Pixels in Spectrum: 1044
>>>>>Begin Spectral Data<<<<<
220.843	-0.62
221.644	-1.62
222.444	2.38
223.244	-0.62
224.045	0.38
224.845	-1.62
225.645	-0.62
226.445	-1.62
227.245	1.38
228.045	-1.62
228.845	1.38
229.645	0.38
230.444	-0.62
231.244	3.38
232.043	1.38
232.843	1.38
233.642	-0.62
234.442	3.38
235.241	1.38
236.04	-2.62
236.839	0.38
237.638	2.38
238.437	-0.62
239.236	1.38
240.035	1.38
240.833	2.38
241.632	1.38
242.43	2.38
243.229	1.38
244.027	0.38
244.826	4.38
245.624	2.38
246.422	0.38
247.22	1.38
248.018	2.38
248.816	1.38
249.614	3.38
250.412	3.38
251.21	2.38
252.007	1.38
252.805	1.38
253.602	2.38
254.4	4.38
255.197	2.38
255.994	2.38
256.791	1.38
257.589	3.38
258.386	4.38
259.183	4.38
259.979	4.38
260.776	1.38
261.573	5.38
262.37	4.38
263.166	2.38
263.963	5.38
264.759	3.38
265.556	4.38
266.352	3.38
267.148	4.38
267.944	6.38
268.74	5.38
269.536	6.38
270.332	6.38
271.128	7.38
271.924	9.38
272.719	7.38
273.515	8.38
274.311	6.38
275.106	8.38
275.901	6.38
276.697	9.38
277.492	8.38
278.287	7.38
279.082	11.38
279.877	7.38
280.672	11.38
281.467	6.38
282.262	12.38
283.056	8.38
283.851	7.38
284.646	10.38
285.44	8.38
286.234	6.38
287.029	10.38
287.823	9.38
288.617	9.38
289.411	11.38
290.205	12.38
290.999	10.38
291.793	9.38
292.587	7.38
293.381	7.38
294.174	9.38
294.968	9.38
295.761	9.38
296.555	7.38
297.348	7.38
298.141	9.38
298.935	11.38
299.728	11.38
300.521	9.38
301.314	9.38
302.107	7.38
302.899	11.38
303.692	6.38
304.485	7.38
305.277	7.38
306.07	4.38
306.862	7.38
307.655	6.38
308.447	7.38
309.239	5.38
310.031	5.38
310.823	7.38
311.615	5.38
312.407	7.38
313.199	6.38
313.991	7.38
314.783	5.38
315.574	7.38
316.366	4.38
317.157	5.38
317.949	5.38
318.74	3.38
319.531	3.38
320.322	4.38
321.113	4.38
321.904	6.38
322.695	6.38
323.486	6.38
324.277	2.38
325.068	5.38
325.858	5.38
326.649	5.38
327.439	5.38
328.23	4.38
329.02	5.38
329.81	5.38
330.6	3.38
331.391	2.38
332.181	0.38
332.971	2.38
333.76	3.38
334.55	4.38
335.34	3.38
336.13	1.38
336.919	3.38
337.709	1.38
338.498	2.38
339.287	2.38
340.077	4.38
340.866	2.38
341.655	3.38
342.444	3.38
343.233	4.38
344.022	3.38
344.811	1.38
345.6	6.38
346.388	3.38
347.177	3.38
347.965	1.38
348.754	5.38
349.542	3.38
350.33	2.38
351.119	2.38
351.907	3.38
352.695	1.38
353.483	2.38
354.271	2.38
355.059	6.38
355.846	0.38
356.634	2.38
357.422	2.38
358.209	3.38
358.997	0.38
359.784	3.38
360.571	6.38
361.359	1.38
362.146	1.38
362.933	2.38
363.72	4.38
364.507	5.38
365.294	-0.62
366.081	2.38
366.867	4.38
367.654	2.38
368.44	2.38
369.227	2.38
370.013	3.38
370.8	3.38
371.586	0.38
372.372	1.38
373.158	1.38
373.944	1.38
374.73	0.38
375.516	2.38
376.302	1.38
377.088	2.38
377.873	2.38
378.659	3.38
379.445	3.38
380.23	2.38
381.015	2.38
381.801	3.38
382.586	3.38
383.371	1.38
384.156	2.38
384.941	3.38
385.726	2.38
386.511	4.38
387.296	1.38
388.08	3.38
388.865	3.38
389.649	4.38
390.434	2.38
391.218	1.38
392.003	3.38
392.787	2.38
393.571	2.38
394.355	3.38
395.139	3.38
395.923	4.38
396.707	2.38
397.491	3.38
398.274	2.38
399.058	4.38
399.842	5.38
400.625	2.38
401.408	3.38
402.192	5.38
402.975	2.38
403.758	-0.62
404.541	3.38
405.324	2.38
406.107	2.38
406.89	3.38
407.673	3.38
408.456	4.38
409.238	3.38
410.021	6.38
410.803	2.38
411.586	2.38
412.368	3.38
413.151	4.38
413.933	4.38
414.715	3.38
415.497	5.38
416.279	5.38
417.061	5.38
417.843	5.38
418.624	3.38
419.406	5.38
420.188	3.38
420.969	5.38
421.751	4.38
422.532	6.38
423.313	5.38
424.095	5.38
424.876	7.38
425.657	5.38
426.438	5.38
427.219	5.38
428	5.38
428.78	5.38
429.561	5.38
430.342	7.38
431.122	7.38
431.903	5.38
432.683	8.38
433.464	6.38
434.244	7.38
435.024	5.38
435.804	7.38
436.584	10.38
437.364	8.38
438.144	9.38
438.924	10.38
439.704	10.38
440.483	7.38
441.263	10.38
442.042	12.38
442.822	11.38
443.601	13.38
444.38	13.38
445.16	13.38
445.939	16.38
446.718	19.38
447.497	18.38
448.276	22.38
449.054	26.38
449.833	24.38
450.612	25.38
451.391	28.38
452.169	32.38
452.948	34.38
453.726	35.38
454.504	39.38
455.282	45.38
456.061	52.38
456.839	55.38
457.617	61.38
458.395	68.38
459.172	73.38
459.95	82.38
460.728	88.38
461.506	103.38
462.283	113.38
463.061	129.38
463.838	141.38
464.615	158.38
465.393	174.38
466.17	193.38
466.947	211.38
467.724	237.38
468.501	257.38
469.278	295.38
470.055	315.38
470.831	362.38
471.608	394.38
472.385	441.38
473.161	493.38
473.938	537.38
474.714	594.38
475.49	658.38
476.266	718.38
477.043	795.38
477.819	886.38
478.595	951.38
479.371	1062.38
480.146	1165.38
480.922	1276.38
481.698	1403.38
482.473	1543.38
483.249	1679.38
484.024	1837.38
484.8	2030.38
485.575	2210.38
486.35	2431.38
487.126	2647.38
487.901	2899.38
488.676	3170.38
489.451	3463.38
490.225	3796.38
491	4144.38
491.775	4517.38
492.55	4920.38
493.324	5360.38
494.099	5853.38
494.873	6336.38
495.647	6897.38
496.422	7500.38
497.196	8038.38
497.97	8673.38
498.744	9327.38
499.518	9992.38
500.292	10661.38
501.066	11323.38
501.839	11959.38
502.613	12542.38
503.387	13145.38
504.16	13698.38
504.934	14256.38
505.707	14618.38
506.48	14898.38
507.253	15167.38
508.027	15343.38
508.8	15460.38
509.573	15398.38
510.346	15366.38
511.118	15108.38
511.891	14852.38
512.664	14475.38
513.437	14116.38
514.209	13675.38
514.982	13177.38
515.754	12689.38
516.526	12261.38
517.298	11728.38
518.071	11273.38
518.843	10757.38
519.615	10304.38
520.387	9871.38
521.159	9475.38
521.93	9112.38
522.702	8736.38
523.474	8422.38
524.245	8092.38
525.017	7764.38
525.788	7455.38
526.56	7138.38
527.331	6882.38
528.102	6550.38
528.873	6299.38
529.644	6003.38
530.415	5782.38
531.186	5523.38
531.957	5250.38
532.728	4997.38
533.498	4748.38
534.269	4492.38
535.039	4234.38
535.81	4033.38
536.58	3822.38
537.351	3624.38
538.121	3396.38
538.891	3242.38
539.661	3034.38
540.431	2878.38
541.201	2738.38
541.971	2561.38
542.741	2450.38
543.51	2332.38
544.28	2209.38
545.05	2097.38
545.819	1996.38
546.588	1885.38
547.358	1790.38
548.127	1709.38
548.896	1624.38
549.665	1543.38
550.434	1477.38
551.203	1392.38
551.972	1328.38
552.741	1257.38
553.51	1195.38
554.278	1133.38
555.047	1068.38
555.815	1002.38
556.584	955.38
557.352	889.38
558.121	841.38
558.889	800.38
559.657	759.38
560.425	712.38
561.193	660.38
561.961	627.38
562.729	604.38
563.496	567.38
564.264	533.38
565.032	503.38
565.799	470.38
566.567	455.38
567.334	424.38
568.101	408.38
568.869	369.38
569.636	353.38
570.403	336.38
571.17	314.38
571.937	298.38
572.704	281.38
573.471	258.38
574.237	256.38
575.004	233.38
575.771	219.38
576.537	202.38
577.303	197.38
578.07	183.38
578.836	176.38
579.602	164.38
580.368	157.38
581.134	148.38
581.9	137.38
582.666	132.38
583.432	125.38
584.198	118.38
584.964	114.38
585.729	103.38
586.495	103.38
587.26	94.38
588.025	92.38
588.791	79.38
589.556	79.38
590.321	73.38
591.086	69.38
591.851	65.38
592.616	67.38
593.381	60.38
594.146	57.38
594.911	57.38
595.675	50.38
596.44	49.38
597.204	49.38
597.969	47.38
598.733	40.38
599.497	38.38
600.261	39.38
601.025	36.38
601.79	34.38
602.553	35.38
603.317	32.38
604.081	31.38
604.845	30.38
605.609	28.38
606.372	26.38
607.136	26.38
607.899	27.38
608.662	21.38
609.426	25.38
610.189	24.38
610.952	20.38
611.715	21.38
612.478	18.38
613.241	20.38
614.004	17.38
614.767	17.38
615.529	15.38
616.292	15.38
617.055	14.38
617.817	12.38
618.579	14.38
619.342	14.38
620.104	14.38
620.866	11.38
621.628	11.38
622.39	14.38
623.152	9.38
623.914	12.38
624.676	13.38
625.438	8.38
626.199	10.38
626.961	9.38
627.722	10.38
628.484	9.38
629.245	10.38
630.006	9.38
630.768	9.38
631.529	5.38
632.29	6.38
633.051	7.38
633.812	8.38
634.573	9.38
635.333	7.38
636.094	4.38
636.855	6.38
637.615	6.38
638.376	4.38
639.136	5.38
639.896	7.38
640.657	7.38
641.417	2.38
642.177	6.38
642.937	4.38
643.697	5.38
644.457	5.38
645.216	6.38
645.976	4.38
646.736	3.38
647.495	5.38
648.255	3.38
649.014	4.38
649.774	5.38
650.533	5.38
651.292	5.38
652.051	3.38
652.81	1.38
653.569	3.38
654.328	5.38
655.087	3.38
655.846	5.38
656.604	5.38
657.363	1.38
658.121	4.38
658.88	4.38
659.638	3.38
660.397	1.38
661.155	4.38
661.913	2.38
662.671	1.38
663.429	4.38
664.187	2.38
664.945	2.38
665.703	4.38
666.46	2.38
667.218	2.38
667.976	-1.62
668.733	4.38
669.49	2.38
670.248	2.38
671.005	3.38
671.762	2.38
672.519	2.38
673.276	2.38
674.033	2.38
674.79	2.38
675.547	2.38
676.304	3.38
677.06	2.38
677.817	1.38
678.574	0.38
679.33	3.38
680.086	3.38
680.843	1.38
681.599	4.38
682.355	1.38
683.111	3.38
683.867	4.38
684.623	1.38
685.379	1.38
686.135	3.38
686.89	1.38
687.646	1.38
688.402	1.38
689.157	1.38
689.912	3.38
690.668	1.38
691.423	1.38
692.178	1.38
692.933	2.38
693.688	1.38
694.443	1.38
695.198	0.38
695.953	2.38
696.708	1.38
697.462	3.38
698.217	1.38
698.972	2.38
699.726	2.38
700.48	2.38
701.235	0.38
701.989	2.38
702.743	4.38
703.497	1.38
704.251	3.38
705.005	-0.62
705.759	1.38
706.513	1.38
707.266	2.38
708.02	1.38
708.774	-1.62
709.527	3.38
710.28	0.38
711.034	2.38
711.787	1.38
712.54	0.38
713.293	1.38
714.046	2.38
714.799	2.38
715.552	1.38
716.305	3.38
717.058	2.38
717.81	0.38
718.563	1.38
719.315	1.38
720.068	0.38
720.82	2.38
721.573	4.38
722.325	1.38
723.077	2.38
723.829	1.38
724.581	1.38
725.333	1.38
726.085	0.38
726.836	2.38
727.588	1.38
728.34	3.38
729.091	0.38
729.843	1.38
730.594	3.38
731.346	2.38
732.097	1.38
732.848	1.38
733.599	2.38
734.35	2.38
735.101	-0.62
735.852	3.38
736.603	2.38
737.354	2.38
738.104	2.38
738.855	3.38
739.605	0.38
740.356	1.38
741.106	3.38
741.856	1.38
742.607	5.38
743.357	2.38
744.107	2.38
744.857	2.38
745.607	1.38
746.357	2.38
747.106	0.38
747.856	1.38
748.606	2.38
749.355	3.38
750.105	3.38
750.854	1.38
751.603	1.38
752.353	3.38
753.102	3.38
753.851	3.38
754.6	0.38
755.349	2.38
756.098	4.38
756.847	1.38
757.595	3.38
758.344	2.38
759.093	2.38
759.841	1.38
760.589	4.38
761.338	2.38
762.086	2.38
762.834	2.38
763.582	4.38
764.331	0.38
765.079	1.38
765.826	2.38
766.574	5.38
767.322	2.38
768.07	4.38
768.817	6.38
769.565	3.38
770.312	2.38
771.06	5.38
771.807	3.38
772.554	2.38
773.302	4.38
774.049	4.38
774.796	3.38
775.543	2.38
776.29	2.38
777.036	4.38
777.783	4.38
778.53	5.38
779.276	2.38
780.023	2.38
780.769	4.38
781.516	4.38
782.262	2.38
783.008	4.38
783.754	6.38
784.5	3.38
785.246	2.38
785.992	4.38
786.738	5.38
787.484	5.38
788.23	5.38
788.975	4.38
789.721	5.38
790.466	4.38
791.212	3.38
791.957	4.38
792.702	3.38
793.447	2.38
794.193	4.38
794.938	3.38
795.683	5.38
796.427	5.38
797.172	3.38
797.917	4.38
798.662	6.38
799.406	3.38
800.151	3.38
800.895	6.38
801.64	3.38
802.384	5.38
803.128	4.38
803.872	2.38
804.616	5.38
805.36	6.38
806.104	2.38
806.848	5.38
807.592	6.38
808.336	4.38
809.079	3.38
809.823	5.38
810.566	4.38
811.31	3.38
812.053	1.38
812.796	3.38
813.539	3.38
814.283	5.38
815.026	2.38
815.769	1.38
816.511	2.38
817.254	2.38
817.997	4.38
818.74	2.38
819.482	3.38
820.225	3.38
820.967	1.38
821.71	1.38
822.452	2.38
823.194	2.38
823.936	2.38
824.678	2.38
825.42	1.38
826.162	1.38
826.904	0.38
827.646	2.38
828.388	3.38
829.129	3.38
829.871	4.38
830.612	1.38
831.354	1.38
832.095	3.38
832.836	1.38
833.577	2.38
834.319	3.38
835.06	4.38
835.801	2.38
836.542	4.38
837.282	3.38
838.023	4.38
838.764	1.38
839.504	2.38
840.245	2.38
840.985	1.38
841.726	3.38
842.466	2.38
843.206	3.38
843.946	3.38
844.687	1.38
845.427	2.38
846.166	2.38
846.906	3.38
847.646	2.38
848.386	1.38
849.125	2.38
849.865	2.38
850.605	0.38
851.344	-1.62
852.083	4.38
852.823	2.38
853.562	1.38
854.301	2.38
855.04	0.38
855.779	1.38
856.518	0.38
857.257	1.38
857.995	1.38
858.734	0.38
859.473	1.38
860.211	0.38
860.95	1.38
861.688	1.38
862.426	0.38
863.165	1.38
863.903	-1.62
864.641	2.38
865.379	1.38
866.117	1.38
866.855	2.38
867.593	0.38
868.33	-0.62
869.068	1.38
869.806	2.38
870.543	1.38
871.28	2.38
872.018	2.38
872.755	1.38
873.492	1.38
874.229	1.38
874.967	1.38
875.703	-0.62
876.44	-1.62
877.177	-0.62
877.914	1.38
878.651	-0.62
879.387	0.38
880.124	1.38
880.86	0.38
881.597	-0.62
882.333	1.38
883.069	-0.62
883.806	1.38
884.542	0.38
885.278	1.38
886.014	1.38
886.749	-0.62
887.485	1.38
888.221	0.38
888.957	0.38
889.692	-0.62
890.428	0.38
891.163	0.38
891.899	-0.62
892.634	1.38
893.369	-0.62
894.104	2.38
894.839	-1.62
895.574	1.38
896.309	1.38
897.044	-1.62
897.779	0.38
898.514	0.38
899.248	2.38
899.983	-0.62
900.717	-1.62
901.452	1.38
902.186	1.38
902.92	-1.62
903.654	-0.62
904.389	1.38
905.123	-0.62
905.857	-1.62
906.59	0.38
907.324	1.38
908.058	0.38
908.792	1.38
909.525	-0.62
910.259	-0.62
910.992	0.38
911.726	3.38
912.459	-1.62
913.192	2.38
913.925	0.38
914.658	0.38
915.391	-1.62
916.124	0.38
916.857	-1.62
917.59	2.38
918.323	0.38
919.055	-1.62
919.788	-0.62
920.521	1.38
921.253	-1.62
921.985	1.38
922.718	-2.62
923.45	0.38
924.182	0.38
924.914	-0.62
925.646	1.38
926.378	0.38
927.11	0.38
927.841	-1.62
928.573	2.38
929.305	1.38
930.036	1.38
930.768	2.38
931.499	2.38
932.23	2.38
932.962	0.38
933.693	-0.62
934.424	-1.62
935.155	0.38
935.886	-1.62
936.617	0.38
937.348	1.38
938.078	-1.62
938.809	0.38
939.54	-1.62
940.27	0.38
941.001	-0.62
941.731	-2.62
942.461	1.38
943.191	-1.62
943.922	1.38
944.652	0.38
945.382	-1.62
946.112	-0.62
946.841	2.38
947.571	-0.62
948.301	-0.62
949.031	2.38
949.76	1.38
950.49	-0.62
951.219	0.38
951.948	-0.62
952.678	1.38
953.407	0.38
954.136	0.38
954.865	-1.62
955.594	1.38
956.323	0.38
957.052	1.38
957.78	-0.62
958.509	0.38
959.238	1.38
959.966	2.38
960.695	-1.62
961.423	0.38
962.151	-0.62
962.88	-1.62
963.608	0.38
964.336	0.38
965.064	1.38
965.792	0.38
966.52	1.38
967.247	0.38
967.975	1.38
968.703	-0.62
969.43	-0.62
970.158	-0.62
970.885	-0.62
971.613	1.38
972.34	1.38
973.067	0.38
973.794	-1.62
974.521	0.38
975.248	0.38
975.975	1.38
976.702	0.38
977.429	-0.62
978.156	1.38
978.882	0.38
979.609	-0.62
980.335	-1.62
981.062	0.38
981.788	2.38
982.514	-1.62
983.24	0.38
983.967	-2.62
984.693	-1.62
985.419	0.38
986.144	0.38
986.87	1.38
987.596	0.38
988.322	0.38
989.047	-0.62
989.773	-0.62
990.498	-1.62
991.224	-1.62
991.949	0.38
992.674	-1.62
993.399	0.38
994.124	-0.62
994.849	0.38
995.574	0.38
996.299	0.38
997.024	-1.62
997.749	1.38
998.473	-1.62
999.198	0.38
999.922	1.38
1000.647	1.38
1001.371	3.38
1002.095	0.38
1002.82	-1.62
1003.544	-0.62
1004.268	-2.62
1004.992	1.38
1005.716	-1.62
1006.439	-0.62
1007.163	0.38
1007.887	0.38
1008.611	-0.62
1009.334	0.38
1010.058	-2.62
1010.781	-0.62
1011.504	-0.62
1012.228	1.38
1012.951	1.38
1013.674	-1.62
1014.397	-0.62
1015.12	-0.62
