节点500_145_QEPB04081__454__11-36-12-553.txt的数据

Date: Wed Nov 12 11:36:12 CST 2025
User: PC
Spectrometer: QEPB0408
触发模式: 0
积分时间 (秒): 1.000000E-2
Scans to average: 1
启用暗噪声校正: true
启用非线性校正: false
滑动平均宽度: 0
X轴模式: Wavelengths
Number of Pixels in Spectrum: 1044
>>>>>Begin Spectral Data<<<<<
220.843	1
221.644	-2
222.444	-2
223.244	-1
224.045	1
224.845	-1
225.645	-1
226.445	0
227.245	-1
228.045	2
228.845	-1
229.645	1
230.444	2
231.244	0
232.043	0
232.843	-1
233.642	2
234.442	0
235.241	-1
236.04	2
236.839	0
237.638	2
238.437	2
239.236	0
240.035	0
240.833	1
241.632	1
242.43	2
243.229	3
244.027	3
244.826	0
245.624	1
246.422	1
247.22	4
248.018	3
248.816	1
249.614	2
250.412	2
251.21	3
252.007	1
252.805	2
253.602	0
254.4	2
255.197	4
255.994	2
256.791	4
257.589	5
258.386	4
259.183	3
259.979	3
260.776	2
261.573	5
262.37	5
263.166	4
263.963	3
264.759	2
265.556	3
266.352	6
267.148	7
267.944	5
268.74	6
269.536	4
270.332	6
271.128	8
271.924	5
272.719	8
273.515	6
274.311	7
275.106	7
275.901	7
276.697	9
277.492	8
278.287	10
279.082	9
279.877	10
280.672	9
281.467	8
282.262	13
283.056	10
283.851	11
284.646	12
285.44	11
286.234	10
287.029	11
287.823	9
288.617	9
289.411	10
290.205	10
290.999	10
291.793	11
292.587	11
293.381	10
294.174	9
294.968	9
295.761	9
296.555	10
297.348	11
298.141	11
298.935	10
299.728	9
300.521	8
301.314	8
302.107	8
302.899	10
303.692	7
304.485	9
305.277	8
306.07	8
306.862	6
307.655	6
308.447	7
309.239	9
310.031	9
310.823	8
311.615	5
312.407	7
313.199	7
313.991	8
314.783	5
315.574	6
316.366	4
317.157	4
317.949	7
318.74	3
319.531	5
320.322	3
321.113	4
321.904	2
322.695	5
323.486	4
324.277	4
325.068	5
325.858	5
326.649	5
327.439	3
328.23	2
329.02	2
329.81	3
330.6	6
331.391	4
332.181	3
332.971	2
333.76	4
334.55	5
335.34	3
336.13	4
336.919	3
337.709	4
338.498	4
339.287	4
340.077	2
340.866	3
341.655	4
342.444	1
343.233	2
344.022	2
344.811	1
345.6	4
346.388	2
347.177	1
347.965	2
348.754	3
349.542	4
350.33	3
351.119	5
351.907	2
352.695	3
353.483	2
354.271	2
355.059	2
355.846	1
356.634	2
357.422	4
358.209	3
358.997	3
359.784	2
360.571	1
361.359	1
362.146	2
362.933	1
363.72	3
364.507	3
365.294	2
366.081	3
366.867	0
367.654	3
368.44	3
369.227	1
370.013	3
370.8	3
371.586	3
372.372	2
373.158	2
373.944	3
374.73	4
375.516	2
376.302	4
377.088	3
377.873	-1
378.659	3
379.445	1
380.23	1
381.015	3
381.801	2
382.586	-1
383.371	5
384.156	6
384.941	1
385.726	3
386.511	2
387.296	3
388.08	2
388.865	1
389.649	3
390.434	3
391.218	4
392.003	2
392.787	3
393.571	3
394.355	2
395.139	4
395.923	4
396.707	4
397.491	1
398.274	4
399.058	4
399.842	4
400.625	4
401.408	2
402.192	3
402.975	2
403.758	3
404.541	4
405.324	0
406.107	4
406.89	2
407.673	6
408.456	5
409.238	3
410.021	5
410.803	3
411.586	4
412.368	5
413.151	4
413.933	6
414.715	5
415.497	7
416.279	3
417.061	5
417.843	5
418.624	7
419.406	4
420.188	5
420.969	4
421.751	5
422.532	6
423.313	4
424.095	4
424.876	5
425.657	5
426.438	5
427.219	6
428	7
428.78	7
429.561	9
430.342	9
431.122	5
431.903	6
432.683	6
433.464	9
434.244	9
435.024	8
435.804	10
436.584	9
437.364	10
438.144	12
438.924	12
439.704	9
440.483	10
441.263	10
442.042	12
442.822	15
443.601	14
444.38	15
445.16	14
445.939	17
446.718	19
447.497	17
448.276	20
449.054	24
449.833	21
450.612	25
451.391	23
452.169	31
452.948	34
453.726	37
454.504	40
455.282	42
456.061	50
456.839	55
457.617	58
458.395	62
459.172	69
459.95	79
460.728	89
461.506	95
462.283	106
463.061	120
463.838	136
464.615	146
465.393	174
466.17	178
466.947	206
467.724	223
468.501	255
469.278	285
470.055	322
470.831	344
471.608	390
472.385	434
473.161	479
473.938	523
474.714	581
475.49	640
476.266	709
477.043	799
477.819	873
478.595	953
479.371	1055
480.146	1166
480.922	1279
481.698	1406
482.473	1537
483.249	1701
484.024	1867
484.8	2060
485.575	2249
486.35	2469
487.126	2719
487.901	2962
488.676	3263
489.451	3574
490.225	3944
491	4293
491.775	4680
492.55	5150
493.324	5596
494.099	6114
494.873	6677
495.647	7271
496.422	7884
497.196	8518
497.97	9150
498.744	9829
499.518	10540
500.292	11248
501.066	11959
501.839	12598
502.613	13228
503.387	13877
504.16	14378
504.934	14901
505.707	15288
506.48	15585
507.253	15813
508.027	15948
508.8	15973
509.573	15906
510.346	15706
511.118	15501
511.891	15175
512.664	14670
513.437	14277
514.209	13808
514.982	13302
515.754	12779
516.526	12258
517.298	11745
518.071	11219
518.843	10772
519.615	10304
520.387	9873
521.159	9471
521.93	9086
522.702	8740
523.474	8389
524.245	8054
525.017	7779
525.788	7437
526.56	7148
527.331	6833
528.102	6566
528.873	6266
529.644	5985
530.415	5712
531.186	5465
531.957	5212
532.728	4951
533.498	4687
534.269	4398
535.039	4199
535.81	3986
536.58	3776
537.351	3551
538.121	3381
538.891	3167
539.661	2997
540.431	2836
541.201	2689
541.971	2549
542.741	2415
543.51	2264
544.28	2149
545.05	2052
545.819	1958
546.588	1865
547.358	1774
548.127	1685
548.896	1575
549.665	1520
550.434	1446
551.203	1354
551.972	1287
552.741	1228
553.51	1176
554.278	1098
555.047	1045
555.815	981
556.584	934
557.352	875
558.121	822
558.889	775
559.657	732
560.425	702
561.193	647
561.961	615
562.729	586
563.496	548
564.264	525
565.032	490
565.799	453
566.567	437
567.334	415
568.101	385
568.869	365
569.636	347
570.403	330
571.17	303
571.937	296
572.704	279
573.471	258
574.237	230
575.004	227
575.771	214
576.537	201
577.303	194
578.07	178
578.836	170
579.602	163
580.368	155
581.134	144
581.9	138
582.666	128
583.432	121
584.198	111
584.964	112
585.729	105
586.495	92
587.26	89
588.025	86
588.791	83
589.556	76
590.321	74
591.086	70
591.851	66
592.616	59
593.381	61
594.146	56
594.911	53
595.675	51
596.44	51
597.204	49
597.969	43
598.733	42
599.497	40
600.261	39
601.025	34
601.79	34
602.553	36
603.317	30
604.081	33
604.845	26
605.609	27
606.372	25
607.136	25
607.899	25
608.662	22
609.426	21
610.189	23
610.952	21
611.715	20
612.478	21
613.241	19
614.004	19
614.767	17
615.529	15
616.292	17
617.055	14
617.817	14
618.579	12
619.342	13
620.104	11
620.866	14
621.628	11
622.39	14
623.152	12
623.914	10
624.676	11
625.438	10
626.199	9
626.961	10
627.722	10
628.484	9
629.245	10
630.006	9
630.768	8
631.529	7
632.29	8
633.051	10
633.812	7
634.573	8
635.333	7
636.094	6
636.855	6
637.615	7
638.376	7
639.136	4
639.896	5
640.657	2
641.417	6
642.177	5
642.937	4
643.697	4
644.457	3
645.216	5
645.976	4
646.736	5
647.495	2
648.255	5
649.014	5
649.774	7
650.533	3
651.292	4
652.051	4
652.81	4
653.569	3
654.328	2
655.087	3
655.846	5
656.604	3
657.363	1
658.121	4
658.88	4
659.638	4
660.397	2
661.155	2
661.913	6
662.671	4
663.429	1
664.187	3
664.945	2
665.703	2
666.46	4
667.218	1
667.976	3
668.733	5
669.49	1
670.248	2
671.005	3
671.762	1
672.519	2
673.276	3
674.033	1
674.79	2
675.547	1
676.304	1
677.06	3
677.817	1
678.574	2
679.33	3
680.086	3
680.843	4
681.599	2
682.355	2
683.111	3
683.867	0
684.623	1
685.379	0
686.135	2
686.89	0
687.646	2
688.402	0
689.157	2
689.912	2
690.668	1
691.423	0
692.178	0
692.933	3
693.688	0
694.443	1
695.198	2
695.953	1
696.708	1
697.462	2
698.217	3
698.972	0
699.726	1
700.48	1
701.235	1
701.989	3
702.743	1
703.497	4
704.251	1
705.005	3
705.759	1
706.513	1
707.266	1
708.02	2
708.774	3
709.527	2
710.28	0
711.034	3
711.787	-1
712.54	1
713.293	2
714.046	3
714.799	0
715.552	2
716.305	1
717.058	1
717.81	0
718.563	0
719.315	2
720.068	3
720.82	4
721.573	2
722.325	0
723.077	3
723.829	2
724.581	1
725.333	1
726.085	1
726.836	0
727.588	-1
728.34	4
729.091	1
729.843	3
730.594	5
731.346	1
732.097	2
732.848	3
733.599	3
734.35	0
735.101	1
735.852	2
736.603	0
737.354	2
738.104	2
738.855	3
739.605	2
740.356	5
741.106	3
741.856	1
742.607	4
743.357	2
744.107	2
744.857	2
745.607	4
746.357	4
747.106	1
747.856	2
748.606	-1
749.355	3
750.105	2
750.854	2
751.603	2
752.353	3
753.102	3
753.851	2
754.6	2
755.349	3
756.098	3
756.847	2
757.595	4
758.344	5
759.093	3
759.841	3
760.589	3
761.338	3
762.086	5
762.834	4
763.582	3
764.331	1
765.079	3
765.826	1
766.574	5
767.322	3
768.07	5
768.817	5
769.565	1
770.312	3
771.06	5
771.807	2
772.554	3
773.302	6
774.049	4
774.796	6
775.543	5
776.29	4
777.036	4
777.783	2
778.53	3
779.276	7
780.023	6
780.769	6
781.516	7
782.262	3
783.008	3
783.754	3
784.5	5
785.246	4
785.992	3
786.738	3
787.484	6
788.23	6
788.975	3
789.721	5
790.466	6
791.212	5
791.957	5
792.702	3
793.447	5
794.193	7
794.938	5
795.683	5
796.427	4
797.172	5
797.917	3
798.662	5
799.406	2
800.151	4
800.895	3
801.64	4
802.384	5
803.128	5
803.872	4
804.616	5
805.36	4
806.104	5
806.848	1
807.592	3
808.336	3
809.079	2
809.823	2
810.566	3
811.31	6
812.053	4
812.796	5
813.539	3
814.283	4
815.026	3
815.769	3
816.511	4
817.254	4
817.997	4
818.74	1
819.482	4
820.225	2
820.967	4
821.71	5
822.452	3
823.194	1
823.936	0
824.678	3
825.42	3
826.162	4
826.904	2
827.646	1
828.388	3
829.129	3
829.871	2
830.612	4
831.354	3
832.095	2
832.836	2
833.577	2
834.319	1
835.06	4
835.801	2
836.542	2
837.282	4
838.023	1
838.764	3
839.504	2
840.245	3
840.985	1
841.726	2
842.466	4
843.206	2
843.946	1
844.687	1
845.427	3
846.166	1
846.906	2
847.646	3
848.386	1
849.125	2
849.865	0
850.605	2
851.344	3
852.083	3
852.823	3
853.562	1
854.301	0
855.04	-1
855.779	2
856.518	3
857.257	1
857.995	-1
858.734	2
859.473	2
860.211	1
860.95	1
861.688	0
862.426	1
863.165	3
863.903	0
864.641	1
865.379	0
866.117	2
866.855	2
867.593	2
868.33	1
869.068	-2
869.806	2
870.543	2
871.28	3
872.018	1
872.755	1
873.492	3
874.229	2
874.967	2
875.703	2
876.44	2
877.177	0
877.914	-2
878.651	1
879.387	1
880.124	2
880.86	-2
881.597	2
882.333	1
883.069	0
883.806	2
884.542	0
885.278	2
886.014	2
886.749	-1
887.485	1
888.221	-1
888.957	2
889.692	-2
890.428	1
891.163	0
891.899	2
892.634	1
893.369	-2
894.104	1
894.839	-1
895.574	0
896.309	-1
897.044	-2
897.779	-1
898.514	-1
899.248	0
899.983	-1
900.717	0
901.452	1
902.186	1
902.92	0
903.654	3
904.389	0
905.123	2
905.857	0
906.59	1
907.324	2
908.058	2
908.792	0
909.525	0
910.259	-4
910.992	1
911.726	1
912.459	-1
913.192	1
913.925	0
914.658	-1
915.391	0
916.124	2
916.857	-1
917.59	1
918.323	0
919.055	0
919.788	3
920.521	0
921.253	1
921.985	1
922.718	1
923.45	3
924.182	-2
924.914	-1
925.646	-1
926.378	1
927.11	1
927.841	-3
928.573	2
929.305	-3
930.036	0
930.768	1
931.499	2
932.23	-1
932.962	2
933.693	0
934.424	0
935.155	0
935.886	0
936.617	-1
937.348	1
938.078	1
938.809	0
939.54	1
940.27	3
941.001	1
941.731	2
942.461	0
943.191	0
943.922	1
944.652	-1
945.382	-1
946.112	1
946.841	1
947.571	0
948.301	0
949.031	1
949.76	-1
950.49	0
951.219	0
951.948	1
952.678	0
953.407	0
954.136	0
954.865	1
955.594	1
956.323	-2
957.052	0
957.78	0
958.509	-1
959.238	2
959.966	-2
960.695	0
961.423	-1
962.151	3
962.88	0
963.608	-2
964.336	0
965.064	0
965.792	-1
966.52	-2
967.247	0
967.975	-1
968.703	-1
969.43	-3
970.158	-1
970.885	1
971.613	1
972.34	-1
973.067	1
973.794	1
974.521	1
975.248	-2
975.975	0
976.702	1
977.429	-1
978.156	-1
978.882	2
979.609	2
980.335	-2
981.062	2
981.788	-1
982.514	1
983.24	2
983.967	0
984.693	0
985.419	-1
986.144	1
986.87	0
987.596	2
988.322	1
989.047	1
989.773	1
990.498	0
991.224	1
991.949	-1
992.674	-1
993.399	-1
994.124	1
994.849	1
995.574	-4
996.299	0
997.024	1
997.749	1
998.473	-1
999.198	-4
999.922	2
1000.647	0
1001.371	3
1002.095	0
1002.82	-1
1003.544	-2
1004.268	1
1004.992	-2
1005.716	0
1006.439	-1
1007.163	1
1007.887	0
1008.611	1
1009.334	1
1010.058	0
1010.781	1
1011.504	0
1012.228	1
1012.951	1
1013.674	-2
1014.397	1
1015.12	0
