节点500_145_QEPB04081__299__11-33-45-438.txt的数据

Date: Wed Nov 12 11:33:45 CST 2025
User: PC
Spectrometer: QEPB0408
触发模式: 0
积分时间 (秒): 1.000000E-2
Scans to average: 1
启用暗噪声校正: true
启用非线性校正: false
滑动平均宽度: 0
X轴模式: Wavelengths
Number of Pixels in Spectrum: 1044
>>>>>Begin Spectral Data<<<<<
220.843	-0.75
221.644	-2.75
222.444	0.25
223.244	0.25
224.045	0.25
224.845	-0.75
225.645	-1.75
226.445	1.25
227.245	3.25
228.045	1.25
228.845	-0.75
229.645	-0.75
230.444	0.25
231.244	1.25
232.043	0.25
232.843	1.25
233.642	1.25
234.442	1.25
235.241	0.25
236.04	0.25
236.839	1.25
237.638	2.25
238.437	1.25
239.236	3.25
240.035	3.25
240.833	1.25
241.632	2.25
242.43	0.25
243.229	1.25
244.027	2.25
244.826	2.25
245.624	2.25
246.422	0.25
247.22	2.25
248.018	1.25
248.816	3.25
249.614	0.25
250.412	2.25
251.21	4.25
252.007	4.25
252.805	2.25
253.602	4.25
254.4	1.25
255.197	4.25
255.994	3.25
256.791	5.25
257.589	2.25
258.386	4.25
259.183	5.25
259.979	5.25
260.776	4.25
261.573	2.25
262.37	3.25
263.166	3.25
263.963	7.25
264.759	6.25
265.556	6.25
266.352	6.25
267.148	6.25
267.944	9.25
268.74	6.25
269.536	6.25
270.332	7.25
271.128	7.25
271.924	7.25
272.719	8.25
273.515	7.25
274.311	7.25
275.106	5.25
275.901	10.25
276.697	8.25
277.492	12.25
278.287	12.25
279.082	11.25
279.877	9.25
280.672	9.25
281.467	9.25
282.262	10.25
283.056	9.25
283.851	9.25
284.646	11.25
285.44	10.25
286.234	12.25
287.029	8.25
287.823	11.25
288.617	11.25
289.411	11.25
290.205	10.25
290.999	10.25
291.793	11.25
292.587	11.25
293.381	6.25
294.174	12.25
294.968	9.25
295.761	12.25
296.555	9.25
297.348	9.25
298.141	9.25
298.935	9.25
299.728	10.25
300.521	7.25
301.314	9.25
302.107	7.25
302.899	9.25
303.692	8.25
304.485	9.25
305.277	10.25
306.07	5.25
306.862	9.25
307.655	8.25
308.447	7.25
309.239	8.25
310.031	6.25
310.823	6.25
311.615	6.25
312.407	9.25
313.199	6.25
313.991	7.25
314.783	4.25
315.574	4.25
316.366	5.25
317.157	7.25
317.949	7.25
318.74	6.25
319.531	5.25
320.322	5.25
321.113	3.25
321.904	6.25
322.695	3.25
323.486	6.25
324.277	3.25
325.068	6.25
325.858	1.25
326.649	2.25
327.439	7.25
328.23	2.25
329.02	5.25
329.81	3.25
330.6	3.25
331.391	3.25
332.181	5.25
332.971	5.25
333.76	3.25
334.55	7.25
335.34	2.25
336.13	1.25
336.919	3.25
337.709	1.25
338.498	5.25
339.287	6.25
340.077	5.25
340.866	5.25
341.655	2.25
342.444	5.25
343.233	2.25
344.022	4.25
344.811	2.25
345.6	3.25
346.388	4.25
347.177	2.25
347.965	4.25
348.754	3.25
349.542	3.25
350.33	5.25
351.119	0.25
351.907	2.25
352.695	5.25
353.483	5.25
354.271	3.25
355.059	4.25
355.846	3.25
356.634	2.25
357.422	4.25
358.209	3.25
358.997	1.25
359.784	4.25
360.571	2.25
361.359	3.25
362.146	1.25
362.933	2.25
363.72	4.25
364.507	5.25
365.294	2.25
366.081	2.25
366.867	2.25
367.654	4.25
368.44	1.25
369.227	2.25
370.013	1.25
370.8	3.25
371.586	1.25
372.372	2.25
373.158	3.25
373.944	0.25
374.73	1.25
375.516	4.25
376.302	2.25
377.088	4.25
377.873	2.25
378.659	-0.75
379.445	5.25
380.23	2.25
381.015	3.25
381.801	3.25
382.586	3.25
383.371	1.25
384.156	1.25
384.941	4.25
385.726	3.25
386.511	5.25
387.296	2.25
388.08	4.25
388.865	2.25
389.649	3.25
390.434	3.25
391.218	2.25
392.003	4.25
392.787	4.25
393.571	3.25
394.355	2.25
395.139	2.25
395.923	4.25
396.707	3.25
397.491	6.25
398.274	3.25
399.058	2.25
399.842	3.25
400.625	6.25
401.408	3.25
402.192	4.25
402.975	5.25
403.758	3.25
404.541	5.25
405.324	4.25
406.107	1.25
406.89	4.25
407.673	6.25
408.456	4.25
409.238	4.25
410.021	3.25
410.803	5.25
411.586	5.25
412.368	4.25
413.151	4.25
413.933	5.25
414.715	6.25
415.497	5.25
416.279	5.25
417.061	4.25
417.843	6.25
418.624	5.25
419.406	5.25
420.188	3.25
420.969	5.25
421.751	4.25
422.532	5.25
423.313	7.25
424.095	4.25
424.876	5.25
425.657	4.25
426.438	8.25
427.219	5.25
428	4.25
428.78	6.25
429.561	5.25
430.342	8.25
431.122	6.25
431.903	8.25
432.683	8.25
433.464	8.25
434.244	8.25
435.024	6.25
435.804	9.25
436.584	10.25
437.364	8.25
438.144	9.25
438.924	8.25
439.704	9.25
440.483	11.25
441.263	13.25
442.042	12.25
442.822	14.25
443.601	15.25
444.38	12.25
445.16	16.25
445.939	16.25
446.718	17.25
447.497	16.25
448.276	19.25
449.054	23.25
449.833	22.25
450.612	25.25
451.391	27.25
452.169	31.25
452.948	30.25
453.726	36.25
454.504	39.25
455.282	39.25
456.061	47.25
456.839	48.25
457.617	56.25
458.395	63.25
459.172	67.25
459.95	75.25
460.728	81.25
461.506	86.25
462.283	104.25
463.061	111.25
463.838	127.25
464.615	140.25
465.393	161.25
466.17	176.25
466.947	194.25
467.724	222.25
468.501	243.25
469.278	266.25
470.055	300.25
470.831	336.25
471.608	374.25
472.385	417.25
473.161	454.25
473.938	524.25
474.714	558.25
475.49	630.25
476.266	690.25
477.043	780.25
477.819	845.25
478.595	942.25
479.371	1042.25
480.146	1147.25
480.922	1260.25
481.698	1408.25
482.473	1544.25
483.249	1697.25
484.024	1881.25
484.8	2075.25
485.575	2274.25
486.35	2486.25
487.126	2784.25
487.901	3039.25
488.676	3352.25
489.451	3690.25
490.225	4064.25
491	4425.25
491.775	4889.25
492.55	5360.25
493.324	5851.25
494.099	6445.25
494.873	7007.25
495.647	7601.25
496.422	8279.25
497.196	8917.25
497.97	9651.25
498.744	10392.25
499.518	11153.25
500.292	11862.25
501.066	12586.25
501.839	13278.25
502.613	13969.25
503.387	14610.25
504.16	15158.25
504.934	15568.25
505.707	15916.25
506.48	16246.25
507.253	16432.25
508.027	16411.25
508.8	16391.25
509.573	16259.25
510.346	16018.25
511.118	15681.25
511.891	15264.25
512.664	14840.25
513.437	14357.25
514.209	13803.25
514.982	13275.25
515.754	12687.25
516.526	12213.25
517.298	11624.25
518.071	11132.25
518.843	10637.25
519.615	10179.25
520.387	9715.25
521.159	9354.25
521.93	8976.25
522.702	8609.25
523.474	8282.25
524.245	7977.25
525.017	7669.25
525.788	7332.25
526.56	7067.25
527.331	6748.25
528.102	6467.25
528.873	6191.25
529.644	5890.25
530.415	5660.25
531.186	5341.25
531.957	5130.25
532.728	4820.25
533.498	4591.25
534.269	4306.25
535.039	4074.25
535.81	3876.25
536.58	3658.25
537.351	3445.25
538.121	3249.25
538.891	3074.25
539.661	2904.25
540.431	2727.25
541.201	2601.25
541.971	2480.25
542.741	2335.25
543.51	2210.25
544.28	2116.25
545.05	1996.25
545.819	1886.25
546.588	1796.25
547.358	1729.25
548.127	1626.25
548.896	1536.25
549.665	1470.25
550.434	1410.25
551.203	1320.25
551.972	1271.25
552.741	1192.25
553.51	1131.25
554.278	1067.25
555.047	1007.25
555.815	948.25
556.584	885.25
557.352	844.25
558.121	789.25
558.889	730.25
559.657	710.25
560.425	674.25
561.193	623.25
561.961	598.25
562.729	557.25
563.496	526.25
564.264	501.25
565.032	472.25
565.799	445.25
566.567	419.25
567.334	401.25
568.101	366.25
568.869	355.25
569.636	334.25
570.403	314.25
571.17	289.25
571.937	277.25
572.704	270.25
573.471	253.25
574.237	241.25
575.004	217.25
575.771	209.25
576.537	198.25
577.303	183.25
578.07	167.25
578.836	159.25
579.602	156.25
580.368	148.25
581.134	137.25
581.9	134.25
582.666	121.25
583.432	114.25
584.198	106.25
584.964	105.25
585.729	98.25
586.495	96.25
587.26	91.25
588.025	78.25
588.791	78.25
589.556	75.25
590.321	71.25
591.086	67.25
591.851	65.25
592.616	61.25
593.381	57.25
594.146	52.25
594.911	51.25
595.675	47.25
596.44	46.25
597.204	46.25
597.969	40.25
598.733	40.25
599.497	38.25
600.261	39.25
601.025	34.25
601.79	33.25
602.553	32.25
603.317	33.25
604.081	31.25
604.845	28.25
605.609	27.25
606.372	23.25
607.136	25.25
607.899	25.25
608.662	24.25
609.426	22.25
610.189	21.25
610.952	20.25
611.715	22.25
612.478	20.25
613.241	15.25
614.004	19.25
614.767	17.25
615.529	15.25
616.292	14.25
617.055	14.25
617.817	14.25
618.579	15.25
619.342	12.25
620.104	12.25
620.866	10.25
621.628	11.25
622.39	10.25
623.152	11.25
623.914	10.25
624.676	11.25
625.438	10.25
626.199	11.25
626.961	9.25
627.722	10.25
628.484	10.25
629.245	7.25
630.006	8.25
630.768	8.25
631.529	8.25
632.29	7.25
633.051	8.25
633.812	6.25
634.573	5.25
635.333	6.25
636.094	9.25
636.855	9.25
637.615	8.25
638.376	7.25
639.136	5.25
639.896	3.25
640.657	6.25
641.417	4.25
642.177	7.25
642.937	7.25
643.697	6.25
644.457	3.25
645.216	5.25
645.976	2.25
646.736	2.25
647.495	3.25
648.255	5.25
649.014	6.25
649.774	5.25
650.533	1.25
651.292	4.25
652.051	1.25
652.81	3.25
653.569	5.25
654.328	5.25
655.087	6.25
655.846	3.25
656.604	4.25
657.363	2.25
658.121	5.25
658.88	2.25
659.638	4.25
660.397	3.25
661.155	1.25
661.913	4.25
662.671	2.25
663.429	1.25
664.187	4.25
664.945	5.25
665.703	2.25
666.46	2.25
667.218	4.25
667.976	2.25
668.733	3.25
669.49	2.25
670.248	3.25
671.005	1.25
671.762	2.25
672.519	1.25
673.276	4.25
674.033	2.25
674.79	3.25
675.547	2.25
676.304	2.25
677.06	0.25
677.817	0.25
678.574	2.25
679.33	2.25
680.086	5.25
680.843	1.25
681.599	2.25
682.355	1.25
683.111	5.25
683.867	0.25
684.623	4.25
685.379	4.25
686.135	2.25
686.89	1.25
687.646	1.25
688.402	0.25
689.157	2.25
689.912	1.25
690.668	2.25
691.423	-1.75
692.178	2.25
692.933	1.25
693.688	2.25
694.443	2.25
695.198	2.25
695.953	1.25
696.708	1.25
697.462	1.25
698.217	-0.75
698.972	3.25
699.726	1.25
700.48	2.25
701.235	2.25
701.989	0.25
702.743	1.25
703.497	1.25
704.251	3.25
705.005	1.25
705.759	3.25
706.513	1.25
707.266	1.25
708.02	2.25
708.774	0.25
709.527	4.25
710.28	2.25
711.034	2.25
711.787	0.25
712.54	2.25
713.293	2.25
714.046	2.25
714.799	2.25
715.552	2.25
716.305	5.25
717.058	0.25
717.81	2.25
718.563	3.25
719.315	0.25
720.068	0.25
720.82	2.25
721.573	2.25
722.325	1.25
723.077	0.25
723.829	1.25
724.581	1.25
725.333	1.25
726.085	2.25
726.836	0.25
727.588	3.25
728.34	2.25
729.091	1.25
729.843	3.25
730.594	4.25
731.346	1.25
732.097	2.25
732.848	4.25
733.599	7.25
734.35	2.25
735.101	1.25
735.852	0.25
736.603	3.25
737.354	2.25
738.104	0.25
738.855	2.25
739.605	1.25
740.356	3.25
741.106	2.25
741.856	3.25
742.607	3.25
743.357	3.25
744.107	1.25
744.857	3.25
745.607	-0.75
746.357	2.25
747.106	0.25
747.856	3.25
748.606	1.25
749.355	3.25
750.105	3.25
750.854	3.25
751.603	3.25
752.353	1.25
753.102	4.25
753.851	0.25
754.6	3.25
755.349	5.25
756.098	1.25
756.847	2.25
757.595	2.25
758.344	2.25
759.093	3.25
759.841	2.25
760.589	4.25
761.338	3.25
762.086	5.25
762.834	1.25
763.582	3.25
764.331	3.25
765.079	3.25
765.826	3.25
766.574	3.25
767.322	5.25
768.07	5.25
768.817	5.25
769.565	4.25
770.312	2.25
771.06	4.25
771.807	2.25
772.554	5.25
773.302	4.25
774.049	3.25
774.796	5.25
775.543	4.25
776.29	5.25
777.036	4.25
777.783	5.25
778.53	6.25
779.276	6.25
780.023	7.25
780.769	4.25
781.516	7.25
782.262	3.25
783.008	6.25
783.754	6.25
784.5	7.25
785.246	4.25
785.992	7.25
786.738	6.25
787.484	4.25
788.23	5.25
788.975	6.25
789.721	5.25
790.466	5.25
791.212	3.25
791.957	6.25
792.702	5.25
793.447	6.25
794.193	3.25
794.938	2.25
795.683	5.25
796.427	3.25
797.172	5.25
797.917	5.25
798.662	5.25
799.406	5.25
800.151	5.25
800.895	4.25
801.64	4.25
802.384	3.25
803.128	2.25
803.872	5.25
804.616	4.25
805.36	2.25
806.104	6.25
806.848	4.25
807.592	4.25
808.336	4.25
809.079	2.25
809.823	3.25
810.566	2.25
811.31	4.25
812.053	2.25
812.796	1.25
813.539	2.25
814.283	3.25
815.026	3.25
815.769	4.25
816.511	4.25
817.254	2.25
817.997	5.25
818.74	3.25
819.482	1.25
820.225	2.25
820.967	4.25
821.71	5.25
822.452	4.25
823.194	3.25
823.936	2.25
824.678	4.25
825.42	5.25
826.162	2.25
826.904	3.25
827.646	4.25
828.388	4.25
829.129	4.25
829.871	0.25
830.612	1.25
831.354	1.25
832.095	4.25
832.836	2.25
833.577	5.25
834.319	4.25
835.06	0.25
835.801	3.25
836.542	1.25
837.282	2.25
838.023	1.25
838.764	3.25
839.504	3.25
840.245	2.25
840.985	3.25
841.726	0.25
842.466	2.25
843.206	1.25
843.946	2.25
844.687	2.25
845.427	3.25
846.166	3.25
846.906	2.25
847.646	2.25
848.386	2.25
849.125	2.25
849.865	1.25
850.605	1.25
851.344	1.25
852.083	-0.75
852.823	2.25
853.562	1.25
854.301	2.25
855.04	3.25
855.779	3.25
856.518	1.25
857.257	1.25
857.995	2.25
858.734	1.25
859.473	3.25
860.211	1.25
860.95	2.25
861.688	2.25
862.426	1.25
863.165	1.25
863.903	2.25
864.641	-0.75
865.379	-1.75
866.117	-0.75
866.855	1.25
867.593	1.25
868.33	0.25
869.068	1.25
869.806	0.25
870.543	1.25
871.28	0.25
872.018	1.25
872.755	3.25
873.492	2.25
874.229	2.25
874.967	0.25
875.703	1.25
876.44	0.25
877.177	0.25
877.914	1.25
878.651	2.25
879.387	0.25
880.124	0.25
880.86	2.25
881.597	0.25
882.333	2.25
883.069	1.25
883.806	1.25
884.542	-0.75
885.278	-0.75
886.014	3.25
886.749	-0.75
887.485	1.25
888.221	1.25
888.957	1.25
889.692	1.25
890.428	0.25
891.163	3.25
891.899	2.25
892.634	1.25
893.369	-0.75
894.104	1.25
894.839	-1.75
895.574	-0.75
896.309	0.25
897.044	1.25
897.779	1.25
898.514	-0.75
899.248	1.25
899.983	2.25
900.717	-2.75
901.452	1.25
902.186	-1.75
902.92	1.25
903.654	1.25
904.389	-1.75
905.123	1.25
905.857	1.25
906.59	1.25
907.324	0.25
908.058	0.25
908.792	0.25
909.525	0.25
910.259	0.25
910.992	-0.75
911.726	0.25
912.459	1.25
913.192	-1.75
913.925	-1.75
914.658	0.25
915.391	-0.75
916.124	0.25
916.857	-0.75
917.59	1.25
918.323	0.25
919.055	2.25
919.788	1.25
920.521	-1.75
921.253	1.25
921.985	0.25
922.718	-0.75
923.45	0.25
924.182	-0.75
924.914	-0.75
925.646	0.25
926.378	1.25
927.11	-1.75
927.841	1.25
928.573	-0.75
929.305	-1.75
930.036	1.25
930.768	1.25
931.499	0.25
932.23	1.25
932.962	0.25
933.693	0.25
934.424	-1.75
935.155	1.25
935.886	0.25
936.617	1.25
937.348	0.25
938.078	-0.75
938.809	-0.75
939.54	0.25
940.27	0.25
941.001	0.25
941.731	0.25
942.461	1.25
943.191	1.25
943.922	1.25
944.652	0.25
945.382	-1.75
946.112	0.25
946.841	1.25
947.571	0.25
948.301	0.25
949.031	-0.75
949.76	-0.75
950.49	-2.75
951.219	0.25
951.948	1.25
952.678	2.25
953.407	-0.75
954.136	0.25
954.865	1.25
955.594	-0.75
956.323	1.25
957.052	0.25
957.78	2.25
958.509	-1.75
959.238	-0.75
959.966	1.25
960.695	0.25
961.423	1.25
962.151	0.25
962.88	1.25
963.608	1.25
964.336	1.25
965.064	-1.75
965.792	1.25
966.52	-0.75
967.247	0.25
967.975	0.25
968.703	0.25
969.43	0.25
970.158	1.25
970.885	0.25
971.613	1.25
972.34	0.25
973.067	1.25
973.794	1.25
974.521	-1.75
975.248	1.25
975.975	0.25
976.702	-0.75
977.429	1.25
978.156	0.25
978.882	0.25
979.609	-0.75
980.335	-0.75
981.062	1.25
981.788	0.25
982.514	-0.75
983.24	0.25
983.967	1.25
984.693	0.25
985.419	0.25
986.144	2.25
986.87	2.25
987.596	-1.75
988.322	1.25
989.047	0.25
989.773	0.25
990.498	0.25
991.224	1.25
991.949	-0.75
992.674	-0.75
993.399	1.25
994.124	0.25
994.849	0.25
995.574	1.25
996.299	1.25
997.024	0.25
997.749	-0.75
998.473	2.25
999.198	-0.75
999.922	-1.75
1000.647	1.25
1001.371	2.25
1002.095	0.25
1002.82	-2.75
1003.544	-2.75
1004.268	-0.75
1004.992	0.25
1005.716	1.25
1006.439	1.25
1007.163	0.25
1007.887	-1.75
1008.611	-0.75
1009.334	1.25
1010.058	-0.75
1010.781	3.25
1011.504	0.25
1012.228	1.25
1012.951	0.25
1013.674	2.25
1014.397	0.25
1015.12	0.25
