节点500_145_QEPB04081__87__11-30-21-625.txt的数据

Date: Wed Nov 12 11:30:21 CST 2025
User: PC
Spectrometer: QEPB0408
触发模式: 0
积分时间 (秒): 1.000000E-2
Scans to average: 1
启用暗噪声校正: true
启用非线性校正: false
滑动平均宽度: 0
X轴模式: Wavelengths
Number of Pixels in Spectrum: 1044
>>>>>Begin Spectral Data<<<<<
220.843	-1.25
221.644	-1.25
222.444	1.75
223.244	-2.25
224.045	0.75
224.845	-1.25
225.645	0.75
226.445	-0.25
227.245	-0.25
228.045	0.75
228.845	-2.25
229.645	1.75
230.444	-1.25
231.244	1.75
232.043	0.75
232.843	1.75
233.642	0.75
234.442	-1.25
235.241	-0.25
236.04	0.75
236.839	-0.25
237.638	0.75
238.437	2.75
239.236	-1.25
240.035	1.75
240.833	0.75
241.632	0.75
242.43	0.75
243.229	1.75
244.027	0.75
244.826	1.75
245.624	1.75
246.422	-0.25
247.22	4.75
248.018	1.75
248.816	4.75
249.614	0.75
250.412	0.75
251.21	3.75
252.007	3.75
252.805	2.75
253.602	1.75
254.4	4.75
255.197	0.75
255.994	2.75
256.791	3.75
257.589	3.75
258.386	3.75
259.183	4.75
259.979	4.75
260.776	4.75
261.573	4.75
262.37	4.75
263.166	4.75
263.963	5.75
264.759	5.75
265.556	6.75
266.352	4.75
267.148	8.75
267.944	5.75
268.74	6.75
269.536	6.75
270.332	7.75
271.128	8.75
271.924	7.75
272.719	8.75
273.515	9.75
274.311	7.75
275.106	11.75
275.901	9.75
276.697	9.75
277.492	10.75
278.287	10.75
279.082	11.75
279.877	10.75
280.672	8.75
281.467	9.75
282.262	10.75
283.056	10.75
283.851	13.75
284.646	12.75
285.44	10.75
286.234	12.75
287.029	12.75
287.823	11.75
288.617	9.75
289.411	9.75
290.205	11.75
290.999	8.75
291.793	9.75
292.587	10.75
293.381	11.75
294.174	12.75
294.968	9.75
295.761	11.75
296.555	9.75
297.348	8.75
298.141	10.75
298.935	7.75
299.728	7.75
300.521	8.75
301.314	6.75
302.107	6.75
302.899	6.75
303.692	8.75
304.485	9.75
305.277	8.75
306.07	7.75
306.862	7.75
307.655	5.75
308.447	8.75
309.239	8.75
310.031	5.75
310.823	7.75
311.615	4.75
312.407	7.75
313.199	3.75
313.991	8.75
314.783	5.75
315.574	5.75
316.366	3.75
317.157	5.75
317.949	4.75
318.74	4.75
319.531	3.75
320.322	5.75
321.113	4.75
321.904	2.75
322.695	3.75
323.486	5.75
324.277	4.75
325.068	3.75
325.858	4.75
326.649	7.75
327.439	5.75
328.23	3.75
329.02	3.75
329.81	1.75
330.6	4.75
331.391	2.75
332.181	4.75
332.971	5.75
333.76	0.75
334.55	2.75
335.34	2.75
336.13	6.75
336.919	1.75
337.709	3.75
338.498	4.75
339.287	2.75
340.077	4.75
340.866	4.75
341.655	4.75
342.444	3.75
343.233	0.75
344.022	1.75
344.811	1.75
345.6	6.75
346.388	3.75
347.177	1.75
347.965	3.75
348.754	0.75
349.542	4.75
350.33	4.75
351.119	1.75
351.907	2.75
352.695	0.75
353.483	1.75
354.271	2.75
355.059	2.75
355.846	0.75
356.634	3.75
357.422	2.75
358.209	4.75
358.997	2.75
359.784	3.75
360.571	2.75
361.359	-0.25
362.146	3.75
362.933	1.75
363.72	3.75
364.507	4.75
365.294	2.75
366.081	3.75
366.867	-0.25
367.654	1.75
368.44	0.75
369.227	2.75
370.013	1.75
370.8	3.75
371.586	4.75
372.372	1.75
373.158	5.75
373.944	2.75
374.73	2.75
375.516	1.75
376.302	0.75
377.088	1.75
377.873	3.75
378.659	1.75
379.445	1.75
380.23	2.75
381.015	0.75
381.801	1.75
382.586	2.75
383.371	2.75
384.156	1.75
384.941	3.75
385.726	1.75
386.511	2.75
387.296	4.75
388.08	2.75
388.865	1.75
389.649	3.75
390.434	2.75
391.218	4.75
392.003	2.75
392.787	3.75
393.571	2.75
394.355	3.75
395.139	2.75
395.923	1.75
396.707	1.75
397.491	3.75
398.274	2.75
399.058	3.75
399.842	3.75
400.625	1.75
401.408	3.75
402.192	3.75
402.975	2.75
403.758	4.75
404.541	3.75
405.324	1.75
406.107	4.75
406.89	2.75
407.673	5.75
408.456	5.75
409.238	2.75
410.021	5.75
410.803	6.75
411.586	1.75
412.368	3.75
413.151	3.75
413.933	3.75
414.715	4.75
415.497	4.75
416.279	3.75
417.061	5.75
417.843	4.75
418.624	2.75
419.406	5.75
420.188	4.75
420.969	4.75
421.751	3.75
422.532	4.75
423.313	5.75
424.095	3.75
424.876	6.75
425.657	3.75
426.438	8.75
427.219	4.75
428	1.75
428.78	5.75
429.561	7.75
430.342	7.75
431.122	7.75
431.903	6.75
432.683	8.75
433.464	5.75
434.244	9.75
435.024	9.75
435.804	8.75
436.584	6.75
437.364	8.75
438.144	8.75
438.924	8.75
439.704	10.75
440.483	8.75
441.263	16.75
442.042	11.75
442.822	11.75
443.601	14.75
444.38	14.75
445.16	16.75
445.939	16.75
446.718	18.75
447.497	18.75
448.276	19.75
449.054	21.75
449.833	22.75
450.612	21.75
451.391	21.75
452.169	25.75
452.948	29.75
453.726	32.75
454.504	37.75
455.282	38.75
456.061	39.75
456.839	44.75
457.617	50.75
458.395	52.75
459.172	56.75
459.95	67.75
460.728	74.75
461.506	81.75
462.283	92.75
463.061	99.75
463.838	118.75
464.615	129.75
465.393	143.75
466.17	165.75
466.947	176.75
467.724	198.75
468.501	219.75
469.278	252.75
470.055	278.75
470.831	304.75
471.608	342.75
472.385	387.75
473.161	431.75
473.938	475.75
474.714	540.75
475.49	595.75
476.266	664.75
477.043	757.75
477.819	827.75
478.595	916.75
479.371	1020.75
480.146	1136.75
480.922	1249.75
481.698	1399.75
482.473	1544.75
483.249	1714.75
484.024	1897.75
484.8	2088.75
485.575	2331.75
486.35	2594.75
487.126	2872.75
487.901	3158.75
488.676	3505.75
489.451	3878.75
490.225	4285.75
491	4752.75
491.775	5205.75
492.55	5775.75
493.324	6355.75
494.099	6975.75
494.873	7630.75
495.647	8350.75
496.422	9072.75
497.196	9852.75
497.97	10653.75
498.744	11453.75
499.518	12189.75
500.292	13043.75
501.066	13844.75
501.839	14551.75
502.613	15233.75
503.387	15861.75
504.16	16357.75
504.934	16800.75
505.707	17106.75
506.48	17305.75
507.253	17314.75
508.027	17342.75
508.8	17173.75
509.573	16882.75
510.346	16558.75
511.118	16110.75
511.891	15558.75
512.664	14992.75
513.437	14410.75
514.209	13843.75
514.982	13224.75
515.754	12590.75
516.526	12036.75
517.298	11482.75
518.071	10960.75
518.843	10455.75
519.615	10011.75
520.387	9627.75
521.159	9230.75
521.93	8853.75
522.702	8529.75
523.474	8184.75
524.245	7873.75
525.017	7512.75
525.788	7225.75
526.56	6933.75
527.331	6649.75
528.102	6330.75
528.873	6054.75
529.644	5771.75
530.415	5533.75
531.186	5214.75
531.957	4945.75
532.728	4677.75
533.498	4413.75
534.269	4156.75
535.039	3942.75
535.81	3700.75
536.58	3507.75
537.351	3287.75
538.121	3110.75
538.891	2954.75
539.661	2791.75
540.431	2635.75
541.201	2478.75
541.971	2358.75
542.741	2242.75
543.51	2119.75
544.28	2018.75
545.05	1911.75
545.819	1817.75
546.588	1731.75
547.358	1637.75
548.127	1572.75
548.896	1484.75
549.665	1398.75
550.434	1326.75
551.203	1262.75
551.972	1183.75
552.741	1131.75
553.51	1077.75
554.278	1019.75
555.047	950.75
555.815	896.75
556.584	846.75
557.352	791.75
558.121	753.75
558.889	706.75
559.657	669.75
560.425	623.75
561.193	601.75
561.961	558.75
562.729	526.75
563.496	498.75
564.264	471.75
565.032	448.75
565.799	416.75
566.567	394.75
567.334	373.75
568.101	355.75
568.869	331.75
569.636	314.75
570.403	287.75
571.17	280.75
571.937	262.75
572.704	250.75
573.471	234.75
574.237	215.75
575.004	207.75
575.771	201.75
576.537	184.75
577.303	171.75
578.07	163.75
578.836	152.75
579.602	141.75
580.368	133.75
581.134	129.75
581.9	122.75
582.666	120.75
583.432	109.75
584.198	106.75
584.964	97.75
585.729	89.75
586.495	86.75
587.26	78.75
588.025	72.75
588.791	73.75
589.556	72.75
590.321	64.75
591.086	60.75
591.851	59.75
592.616	55.75
593.381	51.75
594.146	52.75
594.911	49.75
595.675	45.75
596.44	43.75
597.204	40.75
597.969	40.75
598.733	37.75
599.497	34.75
600.261	36.75
601.025	34.75
601.79	32.75
602.553	29.75
603.317	28.75
604.081	25.75
604.845	26.75
605.609	28.75
606.372	23.75
607.136	22.75
607.899	21.75
608.662	22.75
609.426	19.75
610.189	21.75
610.952	16.75
611.715	14.75
612.478	17.75
613.241	16.75
614.004	16.75
614.767	16.75
615.529	13.75
616.292	14.75
617.055	13.75
617.817	13.75
618.579	12.75
619.342	11.75
620.104	11.75
620.866	13.75
621.628	11.75
622.39	8.75
623.152	8.75
623.914	10.75
624.676	8.75
625.438	11.75
626.199	8.75
626.961	7.75
627.722	5.75
628.484	8.75
629.245	7.75
630.006	8.75
630.768	7.75
631.529	7.75
632.29	4.75
633.051	5.75
633.812	7.75
634.573	5.75
635.333	4.75
636.094	5.75
636.855	6.75
637.615	4.75
638.376	5.75
639.136	6.75
639.896	3.75
640.657	5.75
641.417	5.75
642.177	6.75
642.937	4.75
643.697	5.75
644.457	6.75
645.216	3.75
645.976	4.75
646.736	4.75
647.495	6.75
648.255	4.75
649.014	5.75
649.774	3.75
650.533	3.75
651.292	5.75
652.051	1.75
652.81	1.75
653.569	3.75
654.328	2.75
655.087	3.75
655.846	1.75
656.604	2.75
657.363	3.75
658.121	1.75
658.88	4.75
659.638	4.75
660.397	2.75
661.155	3.75
661.913	0.75
662.671	3.75
663.429	2.75
664.187	0.75
664.945	3.75
665.703	3.75
666.46	3.75
667.218	1.75
667.976	3.75
668.733	2.75
669.49	3.75
670.248	2.75
671.005	2.75
671.762	1.75
672.519	2.75
673.276	2.75
674.033	3.75
674.79	1.75
675.547	0.75
676.304	1.75
677.06	1.75
677.817	2.75
678.574	3.75
679.33	-1.25
680.086	1.75
680.843	-0.25
681.599	3.75
682.355	3.75
683.111	0.75
683.867	1.75
684.623	1.75
685.379	3.75
686.135	-0.25
686.89	2.75
687.646	1.75
688.402	0.75
689.157	0.75
689.912	1.75
690.668	2.75
691.423	0.75
692.178	-0.25
692.933	-0.25
693.688	3.75
694.443	1.75
695.198	-0.25
695.953	3.75
696.708	1.75
697.462	-0.25
698.217	0.75
698.972	2.75
699.726	2.75
700.48	1.75
701.235	0.75
701.989	-0.25
702.743	0.75
703.497	2.75
704.251	-0.25
705.005	2.75
705.759	0.75
706.513	2.75
707.266	1.75
708.02	1.75
708.774	4.75
709.527	1.75
710.28	2.75
711.034	3.75
711.787	1.75
712.54	1.75
713.293	0.75
714.046	3.75
714.799	1.75
715.552	1.75
716.305	3.75
717.058	1.75
717.81	0.75
718.563	-0.25
719.315	1.75
720.068	3.75
720.82	1.75
721.573	-0.25
722.325	0.75
723.077	1.75
723.829	1.75
724.581	1.75
725.333	-1.25
726.085	2.75
726.836	1.75
727.588	1.75
728.34	2.75
729.091	-0.25
729.843	0.75
730.594	1.75
731.346	-1.25
732.097	1.75
732.848	0.75
733.599	2.75
734.35	0.75
735.101	-0.25
735.852	-0.25
736.603	1.75
737.354	2.75
738.104	3.75
738.855	0.75
739.605	2.75
740.356	1.75
741.106	2.75
741.856	0.75
742.607	1.75
743.357	2.75
744.107	1.75
744.857	3.75
745.607	1.75
746.357	3.75
747.106	3.75
747.856	1.75
748.606	2.75
749.355	2.75
750.105	1.75
750.854	2.75
751.603	1.75
752.353	3.75
753.102	1.75
753.851	3.75
754.6	2.75
755.349	1.75
756.098	0.75
756.847	0.75
757.595	0.75
758.344	3.75
759.093	0.75
759.841	3.75
760.589	3.75
761.338	1.75
762.086	4.75
762.834	3.75
763.582	2.75
764.331	0.75
765.079	4.75
765.826	2.75
766.574	3.75
767.322	4.75
768.07	2.75
768.817	2.75
769.565	4.75
770.312	2.75
771.06	4.75
771.807	2.75
772.554	5.75
773.302	3.75
774.049	6.75
774.796	1.75
775.543	4.75
776.29	6.75
777.036	4.75
777.783	3.75
778.53	4.75
779.276	4.75
780.023	4.75
780.769	3.75
781.516	2.75
782.262	4.75
783.008	5.75
783.754	3.75
784.5	6.75
785.246	3.75
785.992	4.75
786.738	5.75
787.484	5.75
788.23	3.75
788.975	3.75
789.721	8.75
790.466	4.75
791.212	4.75
791.957	3.75
792.702	5.75
793.447	5.75
794.193	3.75
794.938	3.75
795.683	4.75
796.427	6.75
797.172	3.75
797.917	6.75
798.662	4.75
799.406	4.75
800.151	4.75
800.895	3.75
801.64	3.75
802.384	3.75
803.128	4.75
803.872	4.75
804.616	5.75
805.36	5.75
806.104	4.75
806.848	3.75
807.592	2.75
808.336	1.75
809.079	4.75
809.823	1.75
810.566	3.75
811.31	1.75
812.053	0.75
812.796	2.75
813.539	3.75
814.283	2.75
815.026	1.75
815.769	2.75
816.511	3.75
817.254	1.75
817.997	1.75
818.74	1.75
819.482	1.75
820.225	3.75
820.967	2.75
821.71	3.75
822.452	3.75
823.194	1.75
823.936	1.75
824.678	4.75
825.42	3.75
826.162	4.75
826.904	1.75
827.646	2.75
828.388	1.75
829.129	1.75
829.871	1.75
830.612	1.75
831.354	1.75
832.095	3.75
832.836	-0.25
833.577	1.75
834.319	0.75
835.06	0.75
835.801	0.75
836.542	1.75
837.282	1.75
838.023	1.75
838.764	3.75
839.504	1.75
840.245	0.75
840.985	3.75
841.726	1.75
842.466	0.75
843.206	-1.25
843.946	0.75
844.687	0.75
845.427	3.75
846.166	1.75
846.906	-0.25
847.646	1.75
848.386	0.75
849.125	0.75
849.865	4.75
850.605	1.75
851.344	3.75
852.083	-0.25
852.823	1.75
853.562	3.75
854.301	2.75
855.04	1.75
855.779	1.75
856.518	-0.25
857.257	0.75
857.995	2.75
858.734	2.75
859.473	1.75
860.211	1.75
860.95	-1.25
861.688	-0.25
862.426	3.75
863.165	1.75
863.903	-0.25
864.641	1.75
865.379	1.75
866.117	2.75
866.855	4.75
867.593	-1.25
868.33	1.75
869.068	1.75
869.806	0.75
870.543	1.75
871.28	-1.25
872.018	-0.25
872.755	0.75
873.492	1.75
874.229	0.75
874.967	0.75
875.703	2.75
876.44	1.75
877.177	0.75
877.914	0.75
878.651	-0.25
879.387	-1.25
880.124	-2.25
880.86	-0.25
881.597	-0.25
882.333	0.75
883.069	-2.25
883.806	0.75
884.542	1.75
885.278	-1.25
886.014	1.75
886.749	-0.25
887.485	1.75
888.221	-2.25
888.957	0.75
889.692	-0.25
890.428	0.75
891.163	1.75
891.899	-1.25
892.634	0.75
893.369	-0.25
894.104	1.75
894.839	-1.25
895.574	-2.25
896.309	0.75
897.044	-2.25
897.779	-0.25
898.514	0.75
899.248	-0.25
899.983	-0.25
900.717	0.75
901.452	-0.25
902.186	0.75
902.92	1.75
903.654	-1.25
904.389	0.75
905.123	1.75
905.857	-0.25
906.59	-0.25
907.324	1.75
908.058	2.75
908.792	-1.25
909.525	0.75
910.259	-0.25
910.992	0.75
911.726	0.75
912.459	-2.25
913.192	0.75
913.925	-1.25
914.658	-1.25
915.391	-0.25
916.124	0.75
916.857	-0.25
917.59	1.75
918.323	0.75
919.055	-1.25
919.788	-2.25
920.521	0.75
921.253	-1.25
921.985	0.75
922.718	0.75
923.45	0.75
924.182	-1.25
924.914	-0.25
925.646	-0.25
926.378	-0.25
927.11	-1.25
927.841	0.75
928.573	0.75
929.305	-0.25
930.036	-2.25
930.768	-0.25
931.499	0.75
932.23	0.75
932.962	0.75
933.693	0.75
934.424	0.75
935.155	-2.25
935.886	-1.25
936.617	-1.25
937.348	-0.25
938.078	0.75
938.809	-4.25
939.54	-3.25
940.27	-2.25
941.001	-0.25
941.731	-2.25
942.461	1.75
943.191	-2.25
943.922	-1.25
944.652	-0.25
945.382	0.75
946.112	0.75
946.841	-2.25
947.571	-0.25
948.301	-2.25
949.031	-1.25
949.76	-0.25
950.49	-0.25
951.219	-0.25
951.948	-0.25
952.678	-0.25
953.407	0.75
954.136	-0.25
954.865	-0.25
955.594	-0.25
956.323	0.75
957.052	-2.25
957.78	0.75
958.509	0.75
959.238	0.75
959.966	1.75
960.695	-3.25
961.423	-1.25
962.151	-0.25
962.88	-0.25
963.608	-0.25
964.336	-0.25
965.064	0.75
965.792	-0.25
966.52	0.75
967.247	-1.25
967.975	-0.25
968.703	1.75
969.43	-0.25
970.158	-0.25
970.885	-2.25
971.613	1.75
972.34	0.75
973.067	-1.25
973.794	-0.25
974.521	0.75
975.248	-2.25
975.975	-0.25
976.702	0.75
977.429	0.75
978.156	2.75
978.882	0.75
979.609	-1.25
980.335	-2.25
981.062	0.75
981.788	0.75
982.514	-0.25
983.24	-1.25
983.967	1.75
984.693	-1.25
985.419	1.75
986.144	1.75
986.87	1.75
987.596	1.75
988.322	-0.25
989.047	-1.25
989.773	-0.25
990.498	0.75
991.224	-1.25
991.949	-1.25
992.674	-0.25
993.399	-2.25
994.124	-0.25
994.849	-2.25
995.574	-0.25
996.299	0.75
997.024	0.75
997.749	0.75
998.473	0.75
999.198	1.75
999.922	-0.25
1000.647	0.75
1001.371	2.75
1002.095	-2.25
1002.82	-0.25
1003.544	-0.25
1004.268	-0.25
1004.992	-2.25
1005.716	-3.25
1006.439	-0.25
1007.163	-0.25
1007.887	-1.25
1008.611	-2.25
1009.334	-0.25
1010.058	0.75
1010.781	-1.25
1011.504	-0.25
1012.228	0.75
1012.951	0.75
1013.674	0.75
1014.397	-0.25
1015.12	-1.25
