节点500_145_QEPB04081__358__11-34-40-573.txt的数据

Date: Wed Nov 12 11:34:40 CST 2025
User: PC
Spectrometer: QEPB0408
触发模式: 0
积分时间 (秒): 1.000000E-2
Scans to average: 1
启用暗噪声校正: true
启用非线性校正: false
滑动平均宽度: 0
X轴模式: Wavelengths
Number of Pixels in Spectrum: 1044
>>>>>Begin Spectral Data<<<<<
220.843	1
221.644	-2
222.444	0
223.244	2
224.045	1
224.845	0
225.645	-2
226.445	1
227.245	-1
228.045	0
228.845	0
229.645	-2
230.444	1
231.244	0
232.043	1
232.843	1
233.642	2
234.442	0
235.241	1
236.04	0
236.839	0
237.638	1
238.437	1
239.236	2
240.035	2
240.833	-1
241.632	2
242.43	0
243.229	2
244.027	0
244.826	2
245.624	2
246.422	1
247.22	4
248.018	3
248.816	2
249.614	3
250.412	2
251.21	5
252.007	0
252.805	3
253.602	2
254.4	5
255.197	2
255.994	3
256.791	4
257.589	2
258.386	2
259.183	2
259.979	4
260.776	5
261.573	3
262.37	5
263.166	5
263.963	6
264.759	4
265.556	5
266.352	6
267.148	5
267.944	6
268.74	5
269.536	8
270.332	8
271.128	6
271.924	8
272.719	7
273.515	8
274.311	8
275.106	10
275.901	7
276.697	9
277.492	9
278.287	9
279.082	10
279.877	7
280.672	7
281.467	8
282.262	9
283.056	13
283.851	10
284.646	13
285.44	10
286.234	12
287.029	9
287.823	12
288.617	6
289.411	12
290.205	8
290.999	9
291.793	10
292.587	11
293.381	9
294.174	10
294.968	12
295.761	10
296.555	11
297.348	10
298.141	8
298.935	10
299.728	8
300.521	9
301.314	8
302.107	7
302.899	6
303.692	7
304.485	8
305.277	10
306.07	10
306.862	10
307.655	7
308.447	10
309.239	8
310.031	6
310.823	9
311.615	3
312.407	8
313.199	7
313.991	6
314.783	6
315.574	6
316.366	6
317.157	4
317.949	3
318.74	5
319.531	7
320.322	5
321.113	5
321.904	6
322.695	5
323.486	5
324.277	6
325.068	4
325.858	4
326.649	3
327.439	4
328.23	2
329.02	3
329.81	5
330.6	4
331.391	5
332.181	3
332.971	3
333.76	1
334.55	4
335.34	3
336.13	3
336.919	2
337.709	5
338.498	3
339.287	0
340.077	3
340.866	2
341.655	4
342.444	2
343.233	3
344.022	5
344.811	4
345.6	2
346.388	2
347.177	3
347.965	2
348.754	5
349.542	3
350.33	2
351.119	3
351.907	1
352.695	4
353.483	2
354.271	6
355.059	3
355.846	3
356.634	2
357.422	3
358.209	3
358.997	2
359.784	2
360.571	4
361.359	0
362.146	4
362.933	3
363.72	3
364.507	5
365.294	1
366.081	2
366.867	3
367.654	2
368.44	3
369.227	2
370.013	0
370.8	2
371.586	4
372.372	1
373.158	3
373.944	2
374.73	2
375.516	2
376.302	1
377.088	2
377.873	2
378.659	3
379.445	3
380.23	2
381.015	4
381.801	3
382.586	3
383.371	2
384.156	3
384.941	2
385.726	2
386.511	3
387.296	-2
388.08	3
388.865	3
389.649	5
390.434	3
391.218	1
392.003	2
392.787	3
393.571	4
394.355	1
395.139	4
395.923	5
396.707	3
397.491	3
398.274	4
399.058	5
399.842	5
400.625	3
401.408	5
402.192	5
402.975	5
403.758	5
404.541	3
405.324	4
406.107	4
406.89	4
407.673	5
408.456	4
409.238	6
410.021	6
410.803	5
411.586	5
412.368	4
413.151	3
413.933	7
414.715	5
415.497	6
416.279	5
417.061	4
417.843	5
418.624	5
419.406	7
420.188	5
420.969	8
421.751	5
422.532	6
423.313	7
424.095	9
424.876	7
425.657	5
426.438	5
427.219	9
428	7
428.78	4
429.561	6
430.342	9
431.122	10
431.903	7
432.683	9
433.464	6
434.244	8
435.024	9
435.804	8
436.584	7
437.364	11
438.144	8
438.924	12
439.704	13
440.483	7
441.263	12
442.042	13
442.822	11
443.601	15
444.38	15
445.16	13
445.939	16
446.718	19
447.497	18
448.276	19
449.054	23
449.833	22
450.612	23
451.391	25
452.169	29
452.948	34
453.726	33
454.504	37
455.282	37
456.061	44
456.839	48
457.617	55
458.395	61
459.172	69
459.95	73
460.728	83
461.506	94
462.283	107
463.061	114
463.838	127
464.615	141
465.393	157
466.17	180
466.947	194
467.724	217
468.501	245
469.278	278
470.055	301
470.831	335
471.608	377
472.385	423
473.161	463
473.938	520
474.714	583
475.49	633
476.266	711
477.043	783
477.819	850
478.595	947
479.371	1045
480.146	1160
480.922	1276
481.698	1407
482.473	1556
483.249	1701
484.024	1863
484.8	2067
485.575	2268
486.35	2506
487.126	2740
487.901	3024
488.676	3324
489.451	3643
490.225	3980
491	4380
491.775	4794
492.55	5245
493.324	5750
494.099	6296
494.873	6883
495.647	7455
496.422	8090
497.196	8775
497.97	9456
498.744	10176
499.518	10939
500.292	11558
501.066	12316
501.839	12983
502.613	13650
503.387	14302
504.16	14842
504.934	15319
505.707	15662
506.48	15961
507.253	16139
508.027	16249
508.8	16178
509.573	16083
510.346	15944
511.118	15609
511.891	15218
512.664	14770
513.437	14284
514.209	13802
514.982	13308
515.754	12755
516.526	12193
517.298	11619
518.071	11174
518.843	10632
519.615	10247
520.387	9796
521.159	9417
521.93	9039
522.702	8697
523.474	8354
524.245	8018
525.017	7676
525.788	7393
526.56	7101
527.331	6785
528.102	6493
528.873	6193
529.644	5997
530.415	5673
531.186	5407
531.957	5164
532.728	4873
533.498	4599
534.269	4361
535.039	4113
535.81	3929
536.58	3692
537.351	3511
538.121	3308
538.891	3105
539.661	2927
540.431	2788
541.201	2647
541.971	2501
542.741	2353
543.51	2238
544.28	2131
545.05	2028
545.819	1935
546.588	1828
547.358	1728
548.127	1645
548.896	1566
549.665	1484
550.434	1415
551.203	1349
551.972	1281
552.741	1204
553.51	1142
554.278	1075
555.047	1011
555.815	970
556.584	913
557.352	863
558.121	807
558.889	763
559.657	727
560.425	679
561.193	629
561.961	601
562.729	567
563.496	535
564.264	510
565.032	483
565.799	450
566.567	420
567.334	397
568.101	375
568.869	356
569.636	339
570.403	325
571.17	304
571.937	287
572.704	263
573.471	251
574.237	238
575.004	226
575.771	214
576.537	197
577.303	186
578.07	177
578.836	170
579.602	159
580.368	151
581.134	142
581.9	134
582.666	131
583.432	117
584.198	108
584.964	105
585.729	99
586.495	91
587.26	91
588.025	82
588.791	79
589.556	70
590.321	69
591.086	67
591.851	64
592.616	62
593.381	59
594.146	53
594.911	55
595.675	54
596.44	47
597.204	46
597.969	41
598.733	45
599.497	41
600.261	35
601.025	38
601.79	33
602.553	33
603.317	31
604.081	30
604.845	30
605.609	25
606.372	29
607.136	25
607.899	23
608.662	21
609.426	23
610.189	20
610.952	16
611.715	18
612.478	19
613.241	19
614.004	18
614.767	17
615.529	14
616.292	15
617.055	14
617.817	15
618.579	14
619.342	13
620.104	14
620.866	12
621.628	11
622.39	10
623.152	12
623.914	10
624.676	8
625.438	10
626.199	11
626.961	5
627.722	8
628.484	8
629.245	7
630.006	8
630.768	8
631.529	7
632.29	9
633.051	7
633.812	6
634.573	7
635.333	4
636.094	6
636.855	7
637.615	5
638.376	7
639.136	8
639.896	6
640.657	5
641.417	8
642.177	4
642.937	6
643.697	6
644.457	4
645.216	5
645.976	5
646.736	5
647.495	4
648.255	4
649.014	4
649.774	3
650.533	4
651.292	4
652.051	4
652.81	2
653.569	5
654.328	6
655.087	2
655.846	4
656.604	4
657.363	3
658.121	4
658.88	1
659.638	6
660.397	5
661.155	2
661.913	1
662.671	1
663.429	4
664.187	4
664.945	3
665.703	2
666.46	3
667.218	3
667.976	3
668.733	5
669.49	3
670.248	2
671.005	1
671.762	3
672.519	2
673.276	3
674.033	1
674.79	2
675.547	1
676.304	1
677.06	3
677.817	2
678.574	1
679.33	1
680.086	2
680.843	1
681.599	3
682.355	3
683.111	2
683.867	-2
684.623	3
685.379	0
686.135	3
686.89	3
687.646	3
688.402	2
689.157	0
689.912	1
690.668	2
691.423	3
692.178	2
692.933	1
693.688	5
694.443	2
695.198	3
695.953	3
696.708	1
697.462	2
698.217	4
698.972	3
699.726	2
700.48	5
701.235	3
701.989	2
702.743	1
703.497	2
704.251	2
705.005	1
705.759	3
706.513	2
707.266	4
708.02	3
708.774	2
709.527	1
710.28	1
711.034	3
711.787	1
712.54	2
713.293	2
714.046	4
714.799	4
715.552	1
716.305	-1
717.058	1
717.81	3
718.563	3
719.315	-1
720.068	1
720.82	-1
721.573	2
722.325	2
723.077	1
723.829	3
724.581	2
725.333	1
726.085	2
726.836	1
727.588	1
728.34	3
729.091	2
729.843	3
730.594	2
731.346	1
732.097	2
732.848	2
733.599	3
734.35	3
735.101	1
735.852	1
736.603	0
737.354	2
738.104	2
738.855	1
739.605	1
740.356	1
741.106	4
741.856	0
742.607	3
743.357	-1
744.107	2
744.857	1
745.607	4
746.357	2
747.106	3
747.856	1
748.606	3
749.355	2
750.105	2
750.854	1
751.603	3
752.353	1
753.102	2
753.851	2
754.6	2
755.349	3
756.098	5
756.847	2
757.595	5
758.344	3
759.093	2
759.841	3
760.589	2
761.338	5
762.086	4
762.834	3
763.582	3
764.331	3
765.079	3
765.826	2
766.574	1
767.322	3
768.07	3
768.817	3
769.565	4
770.312	4
771.06	2
771.807	5
772.554	3
773.302	5
774.049	3
774.796	4
775.543	4
776.29	4
777.036	1
777.783	4
778.53	4
779.276	5
780.023	5
780.769	5
781.516	3
782.262	4
783.008	5
783.754	4
784.5	6
785.246	5
785.992	4
786.738	6
787.484	4
788.23	7
788.975	3
789.721	5
790.466	5
791.212	5
791.957	6
792.702	5
793.447	5
794.193	4
794.938	5
795.683	6
796.427	5
797.172	5
797.917	5
798.662	4
799.406	3
800.151	3
800.895	3
801.64	5
802.384	4
803.128	4
803.872	4
804.616	3
805.36	4
806.104	3
806.848	2
807.592	5
808.336	4
809.079	5
809.823	3
810.566	5
811.31	3
812.053	3
812.796	5
813.539	3
814.283	1
815.026	3
815.769	3
816.511	5
817.254	5
817.997	5
818.74	4
819.482	4
820.225	4
820.967	3
821.71	2
822.452	3
823.194	3
823.936	4
824.678	1
825.42	2
826.162	2
826.904	2
827.646	3
828.388	2
829.129	1
829.871	4
830.612	3
831.354	3
832.095	5
832.836	3
833.577	2
834.319	0
835.06	2
835.801	4
836.542	1
837.282	2
838.023	2
838.764	0
839.504	2
840.245	1
840.985	2
841.726	1
842.466	5
843.206	3
843.946	2
844.687	3
845.427	2
846.166	3
846.906	1
847.646	4
848.386	0
849.125	5
849.865	1
850.605	3
851.344	1
852.083	1
852.823	3
853.562	1
854.301	1
855.04	-1
855.779	2
856.518	2
857.257	1
857.995	1
858.734	2
859.473	3
860.211	2
860.95	2
861.688	1
862.426	-1
863.165	1
863.903	0
864.641	0
865.379	1
866.117	2
866.855	2
867.593	1
868.33	2
869.068	-2
869.806	1
870.543	1
871.28	-1
872.018	2
872.755	0
873.492	1
874.229	1
874.967	0
875.703	2
876.44	0
877.177	2
877.914	-1
878.651	0
879.387	0
880.124	0
880.86	0
881.597	2
882.333	1
883.069	0
883.806	1
884.542	1
885.278	1
886.014	-1
886.749	0
887.485	0
888.221	0
888.957	3
889.692	1
890.428	1
891.163	1
891.899	2
892.634	1
893.369	1
894.104	0
894.839	1
895.574	1
896.309	0
897.044	3
897.779	2
898.514	-1
899.248	1
899.983	-1
900.717	1
901.452	-1
902.186	2
902.92	1
903.654	-1
904.389	0
905.123	-1
905.857	0
906.59	0
907.324	0
908.058	2
908.792	-2
909.525	2
910.259	1
910.992	2
911.726	1
912.459	-1
913.192	2
913.925	-1
914.658	2
915.391	0
916.124	1
916.857	0
917.59	-1
918.323	-1
919.055	-2
919.788	1
920.521	-1
921.253	0
921.985	-1
922.718	2
923.45	0
924.182	-2
924.914	1
925.646	-1
926.378	-2
927.11	0
927.841	0
928.573	0
929.305	0
930.036	3
930.768	-1
931.499	0
932.23	0
932.962	-1
933.693	1
934.424	-1
935.155	1
935.886	-1
936.617	0
937.348	-2
938.078	0
938.809	1
939.54	-1
940.27	1
941.001	-2
941.731	-2
942.461	0
943.191	-1
943.922	0
944.652	-1
945.382	-1
946.112	-2
946.841	-1
947.571	2
948.301	1
949.031	1
949.76	1
950.49	-1
951.219	-2
951.948	0
952.678	-3
953.407	0
954.136	1
954.865	0
955.594	0
956.323	0
957.052	0
957.78	1
958.509	0
959.238	-2
959.966	1
960.695	1
961.423	-2
962.151	-1
962.88	-1
963.608	-1
964.336	-1
965.064	-2
965.792	-1
966.52	2
967.247	1
967.975	0
968.703	1
969.43	1
970.158	-2
970.885	1
971.613	1
972.34	1
973.067	1
973.794	-2
974.521	-1
975.248	0
975.975	1
976.702	-1
977.429	-1
978.156	-2
978.882	-3
979.609	2
980.335	-1
981.062	2
981.788	-1
982.514	-1
983.24	1
983.967	-1
984.693	1
985.419	-1
986.144	-1
986.87	1
987.596	1
988.322	1
989.047	0
989.773	-2
990.498	0
991.224	-1
991.949	0
992.674	0
993.399	1
994.124	-1
994.849	2
995.574	1
996.299	0
997.024	0
997.749	0
998.473	0
999.198	-3
999.922	1
1000.647	1
1001.371	2
1002.095	-1
1002.82	-1
1003.544	1
1004.268	1
1004.992	1
1005.716	0
1006.439	-2
1007.163	3
1007.887	-1
1008.611	0
1009.334	0
1010.058	1
1010.781	1
1011.504	2
1012.228	-1
1012.951	2
1013.674	0
1014.397	-1
1015.12	-2
