节点500_145_QEPB04081__431__11-35-50-547.txt的数据

Date: Wed Nov 12 11:35:50 CST 2025
User: PC
Spectrometer: QEPB0408
触发模式: 0
积分时间 (秒): 1.000000E-2
Scans to average: 1
启用暗噪声校正: true
启用非线性校正: false
滑动平均宽度: 0
X轴模式: Wavelengths
Number of Pixels in Spectrum: 1044
>>>>>Begin Spectral Data<<<<<
220.843	-0.88
221.644	0.12
222.444	1.12
223.244	2.12
224.045	-0.88
224.845	-0.88
225.645	-0.88
226.445	-1.88
227.245	-0.88
228.045	1.12
228.845	0.12
229.645	1.12
230.444	1.12
231.244	-0.88
232.043	0.12
232.843	-2.88
233.642	-0.88
234.442	1.12
235.241	-1.88
236.04	-1.88
236.839	1.12
237.638	2.12
238.437	0.12
239.236	1.12
240.035	0.12
240.833	1.12
241.632	1.12
242.43	-1.88
243.229	2.12
244.027	1.12
244.826	1.12
245.624	2.12
246.422	3.12
247.22	1.12
248.018	3.12
248.816	2.12
249.614	3.12
250.412	3.12
251.21	3.12
252.007	1.12
252.805	4.12
253.602	2.12
254.4	3.12
255.197	-0.88
255.994	3.12
256.791	3.12
257.589	1.12
258.386	2.12
259.183	2.12
259.979	5.12
260.776	4.12
261.573	7.12
262.37	3.12
263.166	3.12
263.963	4.12
264.759	5.12
265.556	4.12
266.352	6.12
267.148	3.12
267.944	7.12
268.74	5.12
269.536	7.12
270.332	5.12
271.128	7.12
271.924	9.12
272.719	5.12
273.515	6.12
274.311	7.12
275.106	10.12
275.901	8.12
276.697	10.12
277.492	10.12
278.287	10.12
279.082	9.12
279.877	6.12
280.672	8.12
281.467	8.12
282.262	9.12
283.056	9.12
283.851	9.12
284.646	11.12
285.44	10.12
286.234	11.12
287.029	12.12
287.823	9.12
288.617	11.12
289.411	11.12
290.205	13.12
290.999	10.12
291.793	10.12
292.587	10.12
293.381	6.12
294.174	10.12
294.968	10.12
295.761	11.12
296.555	9.12
297.348	9.12
298.141	8.12
298.935	10.12
299.728	8.12
300.521	9.12
301.314	7.12
302.107	8.12
302.899	7.12
303.692	9.12
304.485	8.12
305.277	7.12
306.07	8.12
306.862	9.12
307.655	5.12
308.447	9.12
309.239	7.12
310.031	10.12
310.823	7.12
311.615	6.12
312.407	7.12
313.199	5.12
313.991	6.12
314.783	5.12
315.574	6.12
316.366	7.12
317.157	5.12
317.949	5.12
318.74	5.12
319.531	6.12
320.322	7.12
321.113	3.12
321.904	7.12
322.695	5.12
323.486	6.12
324.277	5.12
325.068	5.12
325.858	3.12
326.649	3.12
327.439	3.12
328.23	1.12
329.02	5.12
329.81	5.12
330.6	2.12
331.391	5.12
332.181	2.12
332.971	4.12
333.76	3.12
334.55	3.12
335.34	5.12
336.13	0.12
336.919	5.12
337.709	5.12
338.498	4.12
339.287	3.12
340.077	3.12
340.866	3.12
341.655	2.12
342.444	3.12
343.233	1.12
344.022	4.12
344.811	3.12
345.6	2.12
346.388	2.12
347.177	3.12
347.965	4.12
348.754	3.12
349.542	3.12
350.33	2.12
351.119	3.12
351.907	4.12
352.695	3.12
353.483	3.12
354.271	1.12
355.059	1.12
355.846	2.12
356.634	4.12
357.422	4.12
358.209	3.12
358.997	3.12
359.784	1.12
360.571	4.12
361.359	4.12
362.146	5.12
362.933	4.12
363.72	3.12
364.507	2.12
365.294	2.12
366.081	1.12
366.867	1.12
367.654	3.12
368.44	2.12
369.227	2.12
370.013	2.12
370.8	2.12
371.586	4.12
372.372	2.12
373.158	4.12
373.944	3.12
374.73	1.12
375.516	1.12
376.302	2.12
377.088	5.12
377.873	3.12
378.659	2.12
379.445	4.12
380.23	0.12
381.015	2.12
381.801	3.12
382.586	4.12
383.371	6.12
384.156	2.12
384.941	4.12
385.726	2.12
386.511	3.12
387.296	3.12
388.08	4.12
388.865	4.12
389.649	2.12
390.434	4.12
391.218	2.12
392.003	2.12
392.787	0.12
393.571	2.12
394.355	3.12
395.139	1.12
395.923	4.12
396.707	2.12
397.491	3.12
398.274	1.12
399.058	2.12
399.842	3.12
400.625	1.12
401.408	4.12
402.192	3.12
402.975	3.12
403.758	1.12
404.541	4.12
405.324	3.12
406.107	5.12
406.89	5.12
407.673	2.12
408.456	4.12
409.238	4.12
410.021	4.12
410.803	5.12
411.586	2.12
412.368	4.12
413.151	3.12
413.933	6.12
414.715	5.12
415.497	5.12
416.279	6.12
417.061	5.12
417.843	4.12
418.624	5.12
419.406	4.12
420.188	1.12
420.969	4.12
421.751	4.12
422.532	6.12
423.313	3.12
424.095	6.12
424.876	8.12
425.657	4.12
426.438	5.12
427.219	6.12
428	7.12
428.78	7.12
429.561	7.12
430.342	7.12
431.122	5.12
431.903	7.12
432.683	9.12
433.464	9.12
434.244	11.12
435.024	9.12
435.804	12.12
436.584	10.12
437.364	10.12
438.144	9.12
438.924	10.12
439.704	12.12
440.483	11.12
441.263	14.12
442.042	9.12
442.822	13.12
443.601	14.12
444.38	10.12
445.16	16.12
445.939	16.12
446.718	20.12
447.497	20.12
448.276	21.12
449.054	22.12
449.833	25.12
450.612	27.12
451.391	24.12
452.169	28.12
452.948	32.12
453.726	34.12
454.504	45.12
455.282	43.12
456.061	51.12
456.839	50.12
457.617	60.12
458.395	68.12
459.172	72.12
459.95	77.12
460.728	85.12
461.506	100.12
462.283	103.12
463.061	118.12
463.838	132.12
464.615	149.12
465.393	165.12
466.17	186.12
466.947	199.12
467.724	222.12
468.501	256.12
469.278	275.12
470.055	306.12
470.831	344.12
471.608	380.12
472.385	422.12
473.161	475.12
473.938	529.12
474.714	578.12
475.49	645.12
476.266	709.12
477.043	789.12
477.819	871.12
478.595	944.12
479.371	1054.12
480.146	1166.12
480.922	1287.12
481.698	1413.12
482.473	1552.12
483.249	1706.12
484.024	1868.12
484.8	2061.12
485.575	2256.12
486.35	2467.12
487.126	2713.12
487.901	2977.12
488.676	3279.12
489.451	3592.12
490.225	3926.12
491	4292.12
491.775	4713.12
492.55	5162.12
493.324	5629.12
494.099	6117.12
494.873	6663.12
495.647	7297.12
496.422	7918.12
497.196	8538.12
497.97	9188.12
498.744	9910.12
499.518	10597.12
500.292	11319.12
501.066	12007.12
501.839	12698.12
502.613	13322.12
503.387	13919.12
504.16	14483.12
504.934	14937.12
505.707	15310.12
506.48	15639.12
507.253	15853.12
508.027	15951.12
508.8	16007.12
509.573	15971.12
510.346	15754.12
511.118	15494.12
511.891	15171.12
512.664	14714.12
513.437	14322.12
514.209	13789.12
514.982	13271.12
515.754	12717.12
516.526	12269.12
517.298	11750.12
518.071	11233.12
518.843	10787.12
519.615	10279.12
520.387	9859.12
521.159	9537.12
521.93	9090.12
522.702	8718.12
523.474	8399.12
524.245	8070.12
525.017	7742.12
525.788	7455.12
526.56	7136.12
527.331	6839.12
528.102	6547.12
528.873	6269.12
529.644	6014.12
530.415	5702.12
531.186	5441.12
531.957	5168.12
532.728	4951.12
533.498	4650.12
534.269	4416.12
535.039	4208.12
535.81	3962.12
536.58	3759.12
537.351	3557.12
538.121	3350.12
538.891	3165.12
539.661	2979.12
540.431	2801.12
541.201	2677.12
541.971	2547.12
542.741	2401.12
543.51	2277.12
544.28	2166.12
545.05	2052.12
545.819	1945.12
546.588	1865.12
547.358	1759.12
548.127	1665.12
548.896	1594.12
549.665	1513.12
550.434	1452.12
551.203	1347.12
551.972	1295.12
552.741	1225.12
553.51	1155.12
554.278	1091.12
555.047	1034.12
555.815	974.12
556.584	920.12
557.352	876.12
558.121	816.12
558.889	774.12
559.657	729.12
560.425	688.12
561.193	653.12
561.961	612.12
562.729	586.12
563.496	557.12
564.264	522.12
565.032	493.12
565.799	452.12
566.567	436.12
567.334	413.12
568.101	387.12
568.869	370.12
569.636	346.12
570.403	323.12
571.17	305.12
571.937	297.12
572.704	279.12
573.471	260.12
574.237	242.12
575.004	226.12
575.771	215.12
576.537	199.12
577.303	191.12
578.07	178.12
578.836	165.12
579.602	159.12
580.368	150.12
581.134	140.12
581.9	137.12
582.666	126.12
583.432	120.12
584.198	112.12
584.964	112.12
585.729	103.12
586.495	97.12
587.26	90.12
588.025	84.12
588.791	83.12
589.556	72.12
590.321	70.12
591.086	68.12
591.851	64.12
592.616	62.12
593.381	58.12
594.146	57.12
594.911	51.12
595.675	48.12
596.44	51.12
597.204	43.12
597.969	42.12
598.733	42.12
599.497	41.12
600.261	36.12
601.025	37.12
601.79	33.12
602.553	34.12
603.317	27.12
604.081	33.12
604.845	27.12
605.609	29.12
606.372	25.12
607.136	23.12
607.899	24.12
608.662	21.12
609.426	20.12
610.189	23.12
610.952	17.12
611.715	21.12
612.478	17.12
613.241	18.12
614.004	20.12
614.767	16.12
615.529	14.12
616.292	14.12
617.055	17.12
617.817	10.12
618.579	14.12
619.342	14.12
620.104	13.12
620.866	12.12
621.628	12.12
622.39	13.12
623.152	8.12
623.914	11.12
624.676	12.12
625.438	11.12
626.199	10.12
626.961	8.12
627.722	7.12
628.484	8.12
629.245	10.12
630.006	8.12
630.768	7.12
631.529	9.12
632.29	9.12
633.051	8.12
633.812	6.12
634.573	8.12
635.333	8.12
636.094	5.12
636.855	8.12
637.615	7.12
638.376	6.12
639.136	5.12
639.896	5.12
640.657	6.12
641.417	6.12
642.177	5.12
642.937	4.12
643.697	7.12
644.457	2.12
645.216	5.12
645.976	2.12
646.736	4.12
647.495	5.12
648.255	4.12
649.014	2.12
649.774	4.12
650.533	3.12
651.292	3.12
652.051	5.12
652.81	4.12
653.569	2.12
654.328	3.12
655.087	2.12
655.846	4.12
656.604	3.12
657.363	3.12
658.121	3.12
658.88	1.12
659.638	4.12
660.397	4.12
661.155	4.12
661.913	4.12
662.671	1.12
663.429	4.12
664.187	3.12
664.945	3.12
665.703	2.12
666.46	1.12
667.218	4.12
667.976	2.12
668.733	3.12
669.49	1.12
670.248	4.12
671.005	4.12
671.762	2.12
672.519	2.12
673.276	2.12
674.033	5.12
674.79	1.12
675.547	3.12
676.304	2.12
677.06	2.12
677.817	2.12
678.574	0.12
679.33	1.12
680.086	4.12
680.843	4.12
681.599	1.12
682.355	1.12
683.111	2.12
683.867	1.12
684.623	3.12
685.379	-1.88
686.135	2.12
686.89	2.12
687.646	1.12
688.402	1.12
689.157	3.12
689.912	1.12
690.668	2.12
691.423	3.12
692.178	2.12
692.933	1.12
693.688	2.12
694.443	5.12
695.198	3.12
695.953	1.12
696.708	1.12
697.462	2.12
698.217	1.12
698.972	2.12
699.726	2.12
700.48	2.12
701.235	1.12
701.989	0.12
702.743	1.12
703.497	0.12
704.251	3.12
705.005	0.12
705.759	0.12
706.513	2.12
707.266	3.12
708.02	4.12
708.774	-0.88
709.527	0.12
710.28	2.12
711.034	2.12
711.787	1.12
712.54	1.12
713.293	2.12
714.046	0.12
714.799	1.12
715.552	1.12
716.305	2.12
717.058	0.12
717.81	2.12
718.563	1.12
719.315	3.12
720.068	1.12
720.82	2.12
721.573	2.12
722.325	2.12
723.077	2.12
723.829	2.12
724.581	2.12
725.333	1.12
726.085	1.12
726.836	3.12
727.588	2.12
728.34	1.12
729.091	0.12
729.843	2.12
730.594	2.12
731.346	0.12
732.097	2.12
732.848	1.12
733.599	2.12
734.35	3.12
735.101	1.12
735.852	1.12
736.603	1.12
737.354	3.12
738.104	0.12
738.855	1.12
739.605	3.12
740.356	1.12
741.106	3.12
741.856	2.12
742.607	5.12
743.357	0.12
744.107	4.12
744.857	2.12
745.607	-0.88
746.357	4.12
747.106	0.12
747.856	3.12
748.606	2.12
749.355	2.12
750.105	3.12
750.854	1.12
751.603	3.12
752.353	1.12
753.102	1.12
753.851	5.12
754.6	4.12
755.349	2.12
756.098	1.12
756.847	2.12
757.595	2.12
758.344	2.12
759.093	1.12
759.841	0.12
760.589	2.12
761.338	3.12
762.086	3.12
762.834	1.12
763.582	3.12
764.331	4.12
765.079	3.12
765.826	5.12
766.574	3.12
767.322	4.12
768.07	1.12
768.817	3.12
769.565	5.12
770.312	3.12
771.06	3.12
771.807	5.12
772.554	4.12
773.302	2.12
774.049	2.12
774.796	2.12
775.543	3.12
776.29	2.12
777.036	3.12
777.783	5.12
778.53	2.12
779.276	5.12
780.023	5.12
780.769	4.12
781.516	5.12
782.262	1.12
783.008	5.12
783.754	4.12
784.5	6.12
785.246	2.12
785.992	3.12
786.738	6.12
787.484	2.12
788.23	5.12
788.975	4.12
789.721	4.12
790.466	5.12
791.212	5.12
791.957	5.12
792.702	7.12
793.447	6.12
794.193	3.12
794.938	6.12
795.683	5.12
796.427	4.12
797.172	5.12
797.917	3.12
798.662	6.12
799.406	5.12
800.151	4.12
800.895	2.12
801.64	5.12
802.384	4.12
803.128	4.12
803.872	5.12
804.616	3.12
805.36	5.12
806.104	6.12
806.848	5.12
807.592	3.12
808.336	4.12
809.079	4.12
809.823	4.12
810.566	2.12
811.31	2.12
812.053	5.12
812.796	5.12
813.539	2.12
814.283	5.12
815.026	5.12
815.769	3.12
816.511	2.12
817.254	2.12
817.997	1.12
818.74	0.12
819.482	3.12
820.225	3.12
820.967	2.12
821.71	2.12
822.452	1.12
823.194	3.12
823.936	3.12
824.678	2.12
825.42	2.12
826.162	3.12
826.904	4.12
827.646	2.12
828.388	3.12
829.129	2.12
829.871	5.12
830.612	3.12
831.354	1.12
832.095	2.12
832.836	4.12
833.577	1.12
834.319	2.12
835.06	4.12
835.801	2.12
836.542	2.12
837.282	4.12
838.023	2.12
838.764	3.12
839.504	2.12
840.245	4.12
840.985	1.12
841.726	2.12
842.466	2.12
843.206	0.12
843.946	3.12
844.687	1.12
845.427	2.12
846.166	2.12
846.906	0.12
847.646	2.12
848.386	2.12
849.125	2.12
849.865	1.12
850.605	2.12
851.344	4.12
852.083	-0.88
852.823	3.12
853.562	1.12
854.301	2.12
855.04	0.12
855.779	3.12
856.518	0.12
857.257	1.12
857.995	3.12
858.734	-0.88
859.473	1.12
860.211	1.12
860.95	0.12
861.688	1.12
862.426	4.12
863.165	1.12
863.903	1.12
864.641	1.12
865.379	1.12
866.117	0.12
866.855	2.12
867.593	-0.88
868.33	0.12
869.068	0.12
869.806	0.12
870.543	1.12
871.28	3.12
872.018	2.12
872.755	1.12
873.492	0.12
874.229	1.12
874.967	3.12
875.703	0.12
876.44	2.12
877.177	2.12
877.914	3.12
878.651	-0.88
879.387	1.12
880.124	1.12
880.86	1.12
881.597	2.12
882.333	1.12
883.069	-1.88
883.806	2.12
884.542	0.12
885.278	0.12
886.014	2.12
886.749	-0.88
887.485	2.12
888.221	0.12
888.957	1.12
889.692	-0.88
890.428	-0.88
891.163	0.12
891.899	1.12
892.634	1.12
893.369	-1.88
894.104	0.12
894.839	1.12
895.574	2.12
896.309	0.12
897.044	1.12
897.779	-0.88
898.514	-0.88
899.248	2.12
899.983	-0.88
900.717	1.12
901.452	0.12
902.186	2.12
902.92	-1.88
903.654	0.12
904.389	1.12
905.123	1.12
905.857	2.12
906.59	2.12
907.324	0.12
908.058	1.12
908.792	0.12
909.525	-0.88
910.259	3.12
910.992	2.12
911.726	3.12
912.459	1.12
913.192	0.12
913.925	-1.88
914.658	2.12
915.391	0.12
916.124	0.12
916.857	0.12
917.59	0.12
918.323	1.12
919.055	0.12
919.788	0.12
920.521	0.12
921.253	2.12
921.985	0.12
922.718	-1.88
923.45	1.12
924.182	-1.88
924.914	-0.88
925.646	-0.88
926.378	1.12
927.11	-0.88
927.841	0.12
928.573	1.12
929.305	2.12
930.036	0.12
930.768	-1.88
931.499	-0.88
932.23	0.12
932.962	0.12
933.693	1.12
934.424	-0.88
935.155	1.12
935.886	-0.88
936.617	-0.88
937.348	1.12
938.078	-2.88
938.809	0.12
939.54	-0.88
940.27	-0.88
941.001	0.12
941.731	-0.88
942.461	1.12
943.191	0.12
943.922	0.12
944.652	0.12
945.382	1.12
946.112	-1.88
946.841	-0.88
947.571	-0.88
948.301	-1.88
949.031	-0.88
949.76	-0.88
950.49	0.12
951.219	0.12
951.948	-0.88
952.678	0.12
953.407	0.12
954.136	2.12
954.865	-0.88
955.594	-0.88
956.323	1.12
957.052	0.12
957.78	1.12
958.509	1.12
959.238	-0.88
959.966	-0.88
960.695	1.12
961.423	1.12
962.151	0.12
962.88	0.12
963.608	0.12
964.336	0.12
965.064	2.12
965.792	-3.88
966.52	1.12
967.247	1.12
967.975	1.12
968.703	-0.88
969.43	1.12
970.158	-1.88
970.885	-1.88
971.613	1.12
972.34	0.12
973.067	1.12
973.794	-0.88
974.521	1.12
975.248	1.12
975.975	2.12
976.702	1.12
977.429	0.12
978.156	-0.88
978.882	-1.88
979.609	1.12
980.335	1.12
981.062	0.12
981.788	-0.88
982.514	0.12
983.24	1.12
983.967	-0.88
984.693	1.12
985.419	0.12
986.144	0.12
986.87	-1.88
987.596	-1.88
988.322	1.12
989.047	0.12
989.773	0.12
990.498	0.12
991.224	0.12
991.949	2.12
992.674	2.12
993.399	0.12
994.124	-0.88
994.849	0.12
995.574	0.12
996.299	-1.88
997.024	2.12
997.749	-0.88
998.473	1.12
999.198	-1.88
999.922	1.12
1000.647	1.12
1001.371	5.12
1002.095	-0.88
1002.82	-0.88
1003.544	-1.88
1004.268	1.12
1004.992	-0.88
1005.716	0.12
1006.439	-1.88
1007.163	0.12
1007.887	1.12
1008.611	1.12
1009.334	0.12
1010.058	0.12
1010.781	-0.88
1011.504	-2.88
1012.228	-1.88
1012.951	0.12
1013.674	0.12
1014.397	0.12
1015.12	-1.88
