节点500_145_QEPB04081__378__11-34-59-588.txt的数据

Date: Wed Nov 12 11:34:59 CST 2025
User: PC
Spectrometer: QEPB0408
触发模式: 0
积分时间 (秒): 1.000000E-2
Scans to average: 1
启用暗噪声校正: true
启用非线性校正: false
滑动平均宽度: 0
X轴模式: Wavelengths
Number of Pixels in Spectrum: 1044
>>>>>Begin Spectral Data<<<<<
220.843	0.75
221.644	0.75
222.444	1.75
223.244	-1.25
224.045	-0.25
224.845	0.75
225.645	0.75
226.445	-1.25
227.245	1.75
228.045	0.75
228.845	0.75
229.645	2.75
230.444	0.75
231.244	-0.25
232.043	3.75
232.843	2.75
233.642	0.75
234.442	2.75
235.241	0.75
236.04	2.75
236.839	1.75
237.638	0.75
238.437	1.75
239.236	1.75
240.035	1.75
240.833	4.75
241.632	0.75
242.43	1.75
243.229	3.75
244.027	-0.25
244.826	2.75
245.624	2.75
246.422	3.75
247.22	-1.25
248.018	4.75
248.816	1.75
249.614	1.75
250.412	3.75
251.21	1.75
252.007	2.75
252.805	3.75
253.602	4.75
254.4	-0.25
255.197	4.75
255.994	3.75
256.791	5.75
257.589	2.75
258.386	4.75
259.183	5.75
259.979	3.75
260.776	4.75
261.573	1.75
262.37	2.75
263.166	3.75
263.963	5.75
264.759	5.75
265.556	2.75
266.352	7.75
267.148	8.75
267.944	5.75
268.74	5.75
269.536	5.75
270.332	6.75
271.128	9.75
271.924	7.75
272.719	9.75
273.515	7.75
274.311	5.75
275.106	6.75
275.901	9.75
276.697	9.75
277.492	7.75
278.287	9.75
279.082	10.75
279.877	10.75
280.672	7.75
281.467	8.75
282.262	9.75
283.056	10.75
283.851	10.75
284.646	10.75
285.44	11.75
286.234	10.75
287.029	11.75
287.823	10.75
288.617	9.75
289.411	14.75
290.205	9.75
290.999	12.75
291.793	11.75
292.587	13.75
293.381	10.75
294.174	11.75
294.968	8.75
295.761	9.75
296.555	10.75
297.348	10.75
298.141	10.75
298.935	10.75
299.728	10.75
300.521	10.75
301.314	8.75
302.107	11.75
302.899	10.75
303.692	9.75
304.485	8.75
305.277	7.75
306.07	6.75
306.862	5.75
307.655	10.75
308.447	5.75
309.239	9.75
310.031	7.75
310.823	6.75
311.615	6.75
312.407	6.75
313.199	4.75
313.991	6.75
314.783	8.75
315.574	5.75
316.366	4.75
317.157	6.75
317.949	7.75
318.74	4.75
319.531	4.75
320.322	6.75
321.113	4.75
321.904	4.75
322.695	5.75
323.486	2.75
324.277	3.75
325.068	4.75
325.858	1.75
326.649	4.75
327.439	5.75
328.23	1.75
329.02	4.75
329.81	4.75
330.6	4.75
331.391	4.75
332.181	3.75
332.971	5.75
333.76	4.75
334.55	1.75
335.34	3.75
336.13	3.75
336.919	3.75
337.709	3.75
338.498	4.75
339.287	3.75
340.077	1.75
340.866	3.75
341.655	3.75
342.444	3.75
343.233	4.75
344.022	5.75
344.811	2.75
345.6	4.75
346.388	4.75
347.177	5.75
347.965	2.75
348.754	4.75
349.542	4.75
350.33	5.75
351.119	1.75
351.907	1.75
352.695	2.75
353.483	3.75
354.271	4.75
355.059	5.75
355.846	5.75
356.634	1.75
357.422	2.75
358.209	4.75
358.997	3.75
359.784	4.75
360.571	3.75
361.359	3.75
362.146	2.75
362.933	2.75
363.72	4.75
364.507	2.75
365.294	2.75
366.081	1.75
366.867	2.75
367.654	1.75
368.44	0.75
369.227	1.75
370.013	0.75
370.8	3.75
371.586	2.75
372.372	2.75
373.158	2.75
373.944	4.75
374.73	3.75
375.516	4.75
376.302	4.75
377.088	1.75
377.873	5.75
378.659	2.75
379.445	-0.25
380.23	2.75
381.015	4.75
381.801	3.75
382.586	0.75
383.371	2.75
384.156	0.75
384.941	3.75
385.726	5.75
386.511	4.75
387.296	2.75
388.08	2.75
388.865	2.75
389.649	2.75
390.434	2.75
391.218	1.75
392.003	3.75
392.787	3.75
393.571	3.75
394.355	4.75
395.139	2.75
395.923	4.75
396.707	2.75
397.491	2.75
398.274	4.75
399.058	3.75
399.842	2.75
400.625	6.75
401.408	4.75
402.192	5.75
402.975	4.75
403.758	2.75
404.541	4.75
405.324	4.75
406.107	2.75
406.89	5.75
407.673	6.75
408.456	6.75
409.238	5.75
410.021	3.75
410.803	4.75
411.586	9.75
412.368	3.75
413.151	2.75
413.933	4.75
414.715	3.75
415.497	4.75
416.279	3.75
417.061	4.75
417.843	4.75
418.624	6.75
419.406	5.75
420.188	5.75
420.969	4.75
421.751	5.75
422.532	5.75
423.313	5.75
424.095	6.75
424.876	6.75
425.657	7.75
426.438	7.75
427.219	7.75
428	7.75
428.78	4.75
429.561	7.75
430.342	7.75
431.122	7.75
431.903	6.75
432.683	10.75
433.464	7.75
434.244	9.75
435.024	8.75
435.804	8.75
436.584	7.75
437.364	10.75
438.144	10.75
438.924	12.75
439.704	10.75
440.483	9.75
441.263	13.75
442.042	14.75
442.822	9.75
443.601	14.75
444.38	13.75
445.16	18.75
445.939	16.75
446.718	16.75
447.497	19.75
448.276	21.75
449.054	23.75
449.833	23.75
450.612	24.75
451.391	25.75
452.169	27.75
452.948	32.75
453.726	33.75
454.504	38.75
455.282	42.75
456.061	48.75
456.839	54.75
457.617	57.75
458.395	65.75
459.172	67.75
459.95	77.75
460.728	83.75
461.506	93.75
462.283	107.75
463.061	115.75
463.838	132.75
464.615	142.75
465.393	159.75
466.17	181.75
466.947	197.75
467.724	220.75
468.501	250.75
469.278	278.75
470.055	311.75
470.831	339.75
471.608	380.75
472.385	429.75
473.161	473.75
473.938	525.75
474.714	567.75
475.49	634.75
476.266	708.75
477.043	782.75
477.819	864.75
478.595	954.75
479.371	1036.75
480.146	1151.75
480.922	1270.75
481.698	1387.75
482.473	1541.75
483.249	1679.75
484.024	1874.75
484.8	2055.75
485.575	2253.75
486.35	2483.75
487.126	2716.75
487.901	3006.75
488.676	3278.75
489.451	3625.75
490.225	3996.75
491	4381.75
491.775	4772.75
492.55	5226.75
493.324	5721.75
494.099	6195.75
494.873	6811.75
495.647	7372.75
496.422	8038.75
497.196	8711.75
497.97	9355.75
498.744	10093.75
499.518	10806.75
500.292	11514.75
501.066	12180.75
501.839	12921.75
502.613	13537.75
503.387	14129.75
504.16	14687.75
504.934	15121.75
505.707	15580.75
506.48	15837.75
507.253	16074.75
508.027	16180.75
508.8	16173.75
509.573	16032.75
510.346	15883.75
511.118	15595.75
511.891	15251.75
512.664	14770.75
513.437	14338.75
514.209	13759.75
514.982	13293.75
515.754	12765.75
516.526	12222.75
517.298	11706.75
518.071	11185.75
518.843	10691.75
519.615	10267.75
520.387	9816.75
521.159	9418.75
521.93	9038.75
522.702	8659.75
523.474	8339.75
524.245	8032.75
525.017	7668.75
525.788	7385.75
526.56	7094.75
527.331	6814.75
528.102	6518.75
528.873	6214.75
529.644	5988.75
530.415	5709.75
531.186	5416.75
531.957	5169.75
532.728	4839.75
533.498	4646.75
534.269	4381.75
535.039	4154.75
535.81	3945.75
536.58	3710.75
537.351	3502.75
538.121	3309.75
538.891	3121.75
539.661	2933.75
540.431	2806.75
541.201	2657.75
541.971	2517.75
542.741	2380.75
543.51	2261.75
544.28	2140.75
545.05	2045.75
545.819	1928.75
546.588	1858.75
547.358	1749.75
548.127	1666.75
548.896	1583.75
549.665	1500.75
550.434	1422.75
551.203	1349.75
551.972	1278.75
552.741	1212.75
553.51	1143.75
554.278	1083.75
555.047	1020.75
555.815	960.75
556.584	908.75
557.352	871.75
558.121	804.75
558.889	768.75
559.657	713.75
560.425	680.75
561.193	649.75
561.961	613.75
562.729	575.75
563.496	536.75
564.264	505.75
565.032	485.75
565.799	454.75
566.567	427.75
567.334	411.75
568.101	377.75
568.869	357.75
569.636	339.75
570.403	314.75
571.17	303.75
571.937	290.75
572.704	269.75
573.471	256.75
574.237	240.75
575.004	230.75
575.771	216.75
576.537	197.75
577.303	187.75
578.07	177.75
578.836	166.75
579.602	162.75
580.368	153.75
581.134	142.75
581.9	134.75
582.666	125.75
583.432	119.75
584.198	114.75
584.964	109.75
585.729	98.75
586.495	97.75
587.26	92.75
588.025	84.75
588.791	81.75
589.556	73.75
590.321	75.75
591.086	68.75
591.851	63.75
592.616	58.75
593.381	57.75
594.146	53.75
594.911	54.75
595.675	49.75
596.44	50.75
597.204	45.75
597.969	44.75
598.733	41.75
599.497	39.75
600.261	36.75
601.025	33.75
601.79	35.75
602.553	30.75
603.317	29.75
604.081	29.75
604.845	29.75
605.609	26.75
606.372	27.75
607.136	24.75
607.899	21.75
608.662	23.75
609.426	22.75
610.189	19.75
610.952	20.75
611.715	20.75
612.478	20.75
613.241	19.75
614.004	16.75
614.767	16.75
615.529	16.75
616.292	15.75
617.055	14.75
617.817	13.75
618.579	12.75
619.342	12.75
620.104	13.75
620.866	14.75
621.628	12.75
622.39	11.75
623.152	11.75
623.914	10.75
624.676	9.75
625.438	9.75
626.199	10.75
626.961	8.75
627.722	10.75
628.484	9.75
629.245	8.75
630.006	9.75
630.768	7.75
631.529	8.75
632.29	7.75
633.051	5.75
633.812	7.75
634.573	7.75
635.333	5.75
636.094	6.75
636.855	8.75
637.615	6.75
638.376	6.75
639.136	6.75
639.896	4.75
640.657	5.75
641.417	4.75
642.177	5.75
642.937	6.75
643.697	4.75
644.457	7.75
645.216	4.75
645.976	5.75
646.736	3.75
647.495	5.75
648.255	3.75
649.014	4.75
649.774	2.75
650.533	4.75
651.292	3.75
652.051	4.75
652.81	3.75
653.569	4.75
654.328	5.75
655.087	2.75
655.846	6.75
656.604	1.75
657.363	2.75
658.121	5.75
658.88	5.75
659.638	2.75
660.397	3.75
661.155	5.75
661.913	2.75
662.671	1.75
663.429	1.75
664.187	3.75
664.945	1.75
665.703	2.75
666.46	2.75
667.218	2.75
667.976	2.75
668.733	2.75
669.49	5.75
670.248	3.75
671.005	2.75
671.762	2.75
672.519	2.75
673.276	3.75
674.033	4.75
674.79	4.75
675.547	3.75
676.304	3.75
677.06	1.75
677.817	4.75
678.574	5.75
679.33	5.75
680.086	3.75
680.843	3.75
681.599	3.75
682.355	1.75
683.111	1.75
683.867	2.75
684.623	3.75
685.379	2.75
686.135	0.75
686.89	2.75
687.646	1.75
688.402	4.75
689.157	1.75
689.912	3.75
690.668	3.75
691.423	1.75
692.178	1.75
692.933	1.75
693.688	1.75
694.443	3.75
695.198	3.75
695.953	0.75
696.708	1.75
697.462	3.75
698.217	3.75
698.972	1.75
699.726	2.75
700.48	1.75
701.235	1.75
701.989	2.75
702.743	1.75
703.497	0.75
704.251	1.75
705.005	1.75
705.759	2.75
706.513	4.75
707.266	2.75
708.02	0.75
708.774	1.75
709.527	0.75
710.28	0.75
711.034	0.75
711.787	1.75
712.54	1.75
713.293	2.75
714.046	3.75
714.799	2.75
715.552	1.75
716.305	2.75
717.058	2.75
717.81	1.75
718.563	2.75
719.315	2.75
720.068	1.75
720.82	2.75
721.573	3.75
722.325	5.75
723.077	2.75
723.829	3.75
724.581	1.75
725.333	2.75
726.085	2.75
726.836	3.75
727.588	1.75
728.34	2.75
729.091	-0.25
729.843	1.75
730.594	2.75
731.346	0.75
732.097	0.75
732.848	2.75
733.599	0.75
734.35	3.75
735.101	1.75
735.852	2.75
736.603	2.75
737.354	2.75
738.104	2.75
738.855	1.75
739.605	2.75
740.356	1.75
741.106	2.75
741.856	0.75
742.607	3.75
743.357	1.75
744.107	2.75
744.857	3.75
745.607	2.75
746.357	0.75
747.106	2.75
747.856	3.75
748.606	0.75
749.355	3.75
750.105	4.75
750.854	2.75
751.603	2.75
752.353	2.75
753.102	2.75
753.851	2.75
754.6	4.75
755.349	5.75
756.098	4.75
756.847	3.75
757.595	2.75
758.344	1.75
759.093	1.75
759.841	1.75
760.589	1.75
761.338	4.75
762.086	2.75
762.834	3.75
763.582	1.75
764.331	2.75
765.079	3.75
765.826	4.75
766.574	2.75
767.322	6.75
768.07	4.75
768.817	2.75
769.565	3.75
770.312	3.75
771.06	2.75
771.807	7.75
772.554	1.75
773.302	7.75
774.049	6.75
774.796	3.75
775.543	4.75
776.29	4.75
777.036	4.75
777.783	2.75
778.53	5.75
779.276	4.75
780.023	4.75
780.769	4.75
781.516	4.75
782.262	7.75
783.008	5.75
783.754	2.75
784.5	4.75
785.246	4.75
785.992	3.75
786.738	4.75
787.484	4.75
788.23	4.75
788.975	3.75
789.721	3.75
790.466	6.75
791.212	2.75
791.957	5.75
792.702	7.75
793.447	4.75
794.193	4.75
794.938	3.75
795.683	5.75
796.427	3.75
797.172	5.75
797.917	3.75
798.662	1.75
799.406	5.75
800.151	4.75
800.895	4.75
801.64	5.75
802.384	4.75
803.128	5.75
803.872	4.75
804.616	2.75
805.36	2.75
806.104	4.75
806.848	0.75
807.592	5.75
808.336	4.75
809.079	5.75
809.823	4.75
810.566	3.75
811.31	5.75
812.053	2.75
812.796	4.75
813.539	2.75
814.283	5.75
815.026	5.75
815.769	3.75
816.511	3.75
817.254	3.75
817.997	3.75
818.74	3.75
819.482	0.75
820.225	2.75
820.967	3.75
821.71	1.75
822.452	0.75
823.194	2.75
823.936	2.75
824.678	1.75
825.42	4.75
826.162	1.75
826.904	5.75
827.646	4.75
828.388	3.75
829.129	3.75
829.871	4.75
830.612	4.75
831.354	2.75
832.095	3.75
832.836	3.75
833.577	1.75
834.319	2.75
835.06	-0.25
835.801	1.75
836.542	1.75
837.282	1.75
838.023	1.75
838.764	4.75
839.504	3.75
840.245	3.75
840.985	2.75
841.726	2.75
842.466	2.75
843.206	2.75
843.946	3.75
844.687	2.75
845.427	-0.25
846.166	1.75
846.906	1.75
847.646	2.75
848.386	3.75
849.125	3.75
849.865	2.75
850.605	3.75
851.344	0.75
852.083	2.75
852.823	2.75
853.562	1.75
854.301	2.75
855.04	5.75
855.779	1.75
856.518	2.75
857.257	2.75
857.995	0.75
858.734	4.75
859.473	2.75
860.211	1.75
860.95	3.75
861.688	1.75
862.426	2.75
863.165	2.75
863.903	-0.25
864.641	0.75
865.379	3.75
866.117	1.75
866.855	1.75
867.593	1.75
868.33	0.75
869.068	2.75
869.806	0.75
870.543	1.75
871.28	1.75
872.018	2.75
872.755	1.75
873.492	0.75
874.229	1.75
874.967	-0.25
875.703	0.75
876.44	0.75
877.177	2.75
877.914	-2.25
878.651	1.75
879.387	-0.25
880.124	0.75
880.86	0.75
881.597	0.75
882.333	2.75
883.069	0.75
883.806	1.75
884.542	1.75
885.278	-2.25
886.014	0.75
886.749	1.75
887.485	0.75
888.221	-1.25
888.957	0.75
889.692	-0.25
890.428	2.75
891.163	2.75
891.899	0.75
892.634	3.75
893.369	1.75
894.104	2.75
894.839	0.75
895.574	-1.25
896.309	1.75
897.044	-1.25
897.779	1.75
898.514	-1.25
899.248	0.75
899.983	1.75
900.717	1.75
901.452	-0.25
902.186	-1.25
902.92	1.75
903.654	0.75
904.389	-0.25
905.123	1.75
905.857	0.75
906.59	0.75
907.324	-0.25
908.058	2.75
908.792	1.75
909.525	-0.25
910.259	0.75
910.992	-2.25
911.726	1.75
912.459	-0.25
913.192	-0.25
913.925	0.75
914.658	-1.25
915.391	0.75
916.124	0.75
916.857	0.75
917.59	1.75
918.323	4.75
919.055	2.75
919.788	-0.25
920.521	1.75
921.253	1.75
921.985	2.75
922.718	0.75
923.45	-1.25
924.182	0.75
924.914	1.75
925.646	0.75
926.378	1.75
927.11	1.75
927.841	-1.25
928.573	1.75
929.305	1.75
930.036	0.75
930.768	2.75
931.499	-0.25
932.23	2.75
932.962	0.75
933.693	0.75
934.424	1.75
935.155	0.75
935.886	1.75
936.617	-0.25
937.348	1.75
938.078	0.75
938.809	0.75
939.54	-1.25
940.27	0.75
941.001	-0.25
941.731	1.75
942.461	0.75
943.191	-1.25
943.922	2.75
944.652	-0.25
945.382	-0.25
946.112	-0.25
946.841	-0.25
947.571	1.75
948.301	1.75
949.031	3.75
949.76	0.75
950.49	1.75
951.219	0.75
951.948	-1.25
952.678	0.75
953.407	1.75
954.136	0.75
954.865	1.75
955.594	-1.25
956.323	1.75
957.052	-1.25
957.78	1.75
958.509	-0.25
959.238	2.75
959.966	0.75
960.695	-0.25
961.423	-0.25
962.151	0.75
962.88	-1.25
963.608	-1.25
964.336	1.75
965.064	2.75
965.792	-1.25
966.52	-0.25
967.247	-0.25
967.975	1.75
968.703	-0.25
969.43	0.75
970.158	-0.25
970.885	1.75
971.613	-0.25
972.34	0.75
973.067	1.75
973.794	-0.25
974.521	1.75
975.248	1.75
975.975	-0.25
976.702	0.75
977.429	0.75
978.156	0.75
978.882	0.75
979.609	0.75
980.335	1.75
981.062	-0.25
981.788	0.75
982.514	-0.25
983.24	1.75
983.967	0.75
984.693	-1.25
985.419	0.75
986.144	-0.25
986.87	-1.25
987.596	-1.25
988.322	0.75
989.047	0.75
989.773	0.75
990.498	2.75
991.224	0.75
991.949	1.75
992.674	-2.25
993.399	2.75
994.124	1.75
994.849	2.75
995.574	0.75
996.299	0.75
997.024	1.75
997.749	0.75
998.473	2.75
999.198	0.75
999.922	2.75
1000.647	0.75
1001.371	4.75
1002.095	-0.25
1002.82	-1.25
1003.544	-1.25
1004.268	1.75
1004.992	0.75
1005.716	-0.25
1006.439	-1.25
1007.163	-0.25
1007.887	-0.25
1008.611	0.75
1009.334	4.75
1010.058	-0.25
1010.781	0.75
1011.504	-1.25
1012.228	-1.25
1012.951	0.75
1013.674	-1.25
1014.397	-0.25
1015.12	-1.25
