节点500_145_QEPB04081__671__11-39-36-930.txt的数据

Date: Wed Nov 12 11:39:36 CST 2025
User: PC
Spectrometer: QEPB0408
触发模式: 0
积分时间 (秒): 1.000000E-2
Scans to average: 1
启用暗噪声校正: true
启用非线性校正: false
滑动平均宽度: 0
X轴模式: Wavelengths
Number of Pixels in Spectrum: 1044
>>>>>Begin Spectral Data<<<<<
220.843	-0.62
221.644	-1.62
222.444	0.38
223.244	1.38
224.045	-0.62
224.845	-1.62
225.645	-0.62
226.445	-0.62
227.245	1.38
228.045	-0.62
228.845	1.38
229.645	0.38
230.444	-0.62
231.244	1.38
232.043	-0.62
232.843	-2.62
233.642	2.38
234.442	1.38
235.241	1.38
236.04	-0.62
236.839	1.38
237.638	1.38
238.437	0.38
239.236	-0.62
240.035	1.38
240.833	1.38
241.632	2.38
242.43	1.38
243.229	0.38
244.027	0.38
244.826	3.38
245.624	1.38
246.422	2.38
247.22	-0.62
248.018	2.38
248.816	1.38
249.614	0.38
250.412	0.38
251.21	1.38
252.007	2.38
252.805	1.38
253.602	3.38
254.4	4.38
255.197	-0.62
255.994	2.38
256.791	2.38
257.589	3.38
258.386	4.38
259.183	3.38
259.979	5.38
260.776	3.38
261.573	5.38
262.37	2.38
263.166	5.38
263.963	3.38
264.759	5.38
265.556	4.38
266.352	5.38
267.148	6.38
267.944	3.38
268.74	5.38
269.536	4.38
270.332	6.38
271.128	5.38
271.924	4.38
272.719	7.38
273.515	6.38
274.311	7.38
275.106	7.38
275.901	6.38
276.697	8.38
277.492	7.38
278.287	8.38
279.082	10.38
279.877	7.38
280.672	7.38
281.467	9.38
282.262	9.38
283.056	9.38
283.851	10.38
284.646	8.38
285.44	11.38
286.234	9.38
287.029	9.38
287.823	11.38
288.617	12.38
289.411	10.38
290.205	8.38
290.999	11.38
291.793	8.38
292.587	7.38
293.381	9.38
294.174	9.38
294.968	11.38
295.761	7.38
296.555	6.38
297.348	10.38
298.141	8.38
298.935	11.38
299.728	9.38
300.521	8.38
301.314	9.38
302.107	6.38
302.899	10.38
303.692	4.38
304.485	8.38
305.277	5.38
306.07	9.38
306.862	8.38
307.655	9.38
308.447	7.38
309.239	8.38
310.031	6.38
310.823	4.38
311.615	7.38
312.407	5.38
313.199	5.38
313.991	4.38
314.783	6.38
315.574	7.38
316.366	2.38
317.157	5.38
317.949	7.38
318.74	5.38
319.531	5.38
320.322	3.38
321.113	4.38
321.904	3.38
322.695	6.38
323.486	3.38
324.277	3.38
325.068	6.38
325.858	4.38
326.649	2.38
327.439	3.38
328.23	2.38
329.02	3.38
329.81	3.38
330.6	2.38
331.391	3.38
332.181	4.38
332.971	1.38
333.76	4.38
334.55	4.38
335.34	2.38
336.13	2.38
336.919	2.38
337.709	2.38
338.498	2.38
339.287	2.38
340.077	3.38
340.866	4.38
341.655	3.38
342.444	4.38
343.233	2.38
344.022	2.38
344.811	2.38
345.6	2.38
346.388	1.38
347.177	3.38
347.965	2.38
348.754	1.38
349.542	1.38
350.33	3.38
351.119	3.38
351.907	3.38
352.695	4.38
353.483	3.38
354.271	1.38
355.059	1.38
355.846	2.38
356.634	2.38
357.422	2.38
358.209	4.38
358.997	4.38
359.784	2.38
360.571	2.38
361.359	3.38
362.146	2.38
362.933	1.38
363.72	2.38
364.507	1.38
365.294	3.38
366.081	4.38
366.867	2.38
367.654	2.38
368.44	1.38
369.227	3.38
370.013	0.38
370.8	2.38
371.586	2.38
372.372	2.38
373.158	0.38
373.944	0.38
374.73	2.38
375.516	2.38
376.302	3.38
377.088	2.38
377.873	4.38
378.659	2.38
379.445	1.38
380.23	2.38
381.015	0.38
381.801	1.38
382.586	2.38
383.371	2.38
384.156	1.38
384.941	3.38
385.726	1.38
386.511	1.38
387.296	3.38
388.08	2.38
388.865	3.38
389.649	2.38
390.434	3.38
391.218	4.38
392.003	1.38
392.787	2.38
393.571	3.38
394.355	1.38
395.139	2.38
395.923	2.38
396.707	2.38
397.491	2.38
398.274	2.38
399.058	4.38
399.842	4.38
400.625	3.38
401.408	1.38
402.192	3.38
402.975	4.38
403.758	3.38
404.541	2.38
405.324	3.38
406.107	5.38
406.89	3.38
407.673	4.38
408.456	2.38
409.238	4.38
410.021	3.38
410.803	5.38
411.586	4.38
412.368	4.38
413.151	7.38
413.933	1.38
414.715	7.38
415.497	6.38
416.279	4.38
417.061	4.38
417.843	3.38
418.624	3.38
419.406	3.38
420.188	3.38
420.969	4.38
421.751	5.38
422.532	4.38
423.313	3.38
424.095	7.38
424.876	5.38
425.657	4.38
426.438	7.38
427.219	6.38
428	5.38
428.78	7.38
429.561	7.38
430.342	7.38
431.122	5.38
431.903	9.38
432.683	5.38
433.464	7.38
434.244	7.38
435.024	8.38
435.804	9.38
436.584	10.38
437.364	9.38
438.144	9.38
438.924	9.38
439.704	9.38
440.483	11.38
441.263	10.38
442.042	14.38
442.822	15.38
443.601	10.38
444.38	17.38
445.16	16.38
445.939	16.38
446.718	20.38
447.497	18.38
448.276	20.38
449.054	21.38
449.833	25.38
450.612	26.38
451.391	29.38
452.169	30.38
452.948	35.38
453.726	39.38
454.504	41.38
455.282	44.38
456.061	49.38
456.839	57.38
457.617	58.38
458.395	67.38
459.172	79.38
459.95	87.38
460.728	95.38
461.506	104.38
462.283	117.38
463.061	129.38
463.838	139.38
464.615	161.38
465.393	173.38
466.17	200.38
466.947	214.38
467.724	233.38
468.501	268.38
469.278	305.38
470.055	324.38
470.831	367.38
471.608	407.38
472.385	442.38
473.161	491.38
473.938	548.38
474.714	599.38
475.49	664.38
476.266	721.38
477.043	808.38
477.819	877.38
478.595	968.38
479.371	1059.38
480.146	1157.38
480.922	1267.38
481.698	1398.38
482.473	1527.38
483.249	1681.38
484.024	1830.38
484.8	1985.38
485.575	2179.38
486.35	2368.38
487.126	2606.38
487.901	2856.38
488.676	3080.38
489.451	3395.38
490.225	3678.38
491	4022.38
491.775	4396.38
492.55	4789.38
493.324	5226.38
494.099	5628.38
494.873	6121.38
495.647	6648.38
496.422	7185.38
497.196	7760.38
497.97	8330.38
498.744	8940.38
499.518	9562.38
500.292	10273.38
501.066	10831.38
501.839	11491.38
502.613	12067.38
503.387	12670.38
504.16	13200.38
504.934	13696.38
505.707	14119.38
506.48	14455.38
507.253	14697.38
508.027	14917.38
508.8	15062.38
509.573	14980.38
510.346	14942.38
511.118	14848.38
511.891	14580.38
512.664	14277.38
513.437	13869.38
514.209	13528.38
514.982	13088.38
515.754	12621.38
516.526	12141.38
517.298	11642.38
518.071	11180.38
518.843	10734.38
519.615	10273.38
520.387	9828.38
521.159	9514.38
521.93	9069.38
522.702	8713.38
523.474	8422.38
524.245	8100.38
525.017	7733.38
525.788	7437.38
526.56	7153.38
527.331	6859.38
528.102	6528.38
528.873	6324.38
529.644	6041.38
530.415	5782.38
531.186	5541.38
531.957	5271.38
532.728	5023.38
533.498	4773.38
534.269	4484.38
535.039	4289.38
535.81	4076.38
536.58	3851.38
537.351	3635.38
538.121	3414.38
538.891	3272.38
539.661	3088.38
540.431	2903.38
541.201	2773.38
541.971	2610.38
542.741	2469.38
543.51	2356.38
544.28	2232.38
545.05	2106.38
545.819	2003.38
546.588	1919.38
547.358	1814.38
548.127	1730.38
548.896	1634.38
549.665	1565.38
550.434	1477.38
551.203	1404.38
551.972	1353.38
552.741	1261.38
553.51	1190.38
554.278	1122.38
555.047	1074.38
555.815	1029.38
556.584	962.38
557.352	911.38
558.121	865.38
558.889	813.38
559.657	763.38
560.425	724.38
561.193	676.38
561.961	647.38
562.729	612.38
563.496	582.38
564.264	538.38
565.032	507.38
565.799	478.38
566.567	455.38
567.334	427.38
568.101	410.38
568.869	381.38
569.636	360.38
570.403	336.38
571.17	325.38
571.937	301.38
572.704	288.38
573.471	267.38
574.237	254.38
575.004	243.38
575.771	225.38
576.537	214.38
577.303	199.38
578.07	187.38
578.836	178.38
579.602	164.38
580.368	157.38
581.134	147.38
581.9	146.38
582.666	137.38
583.432	131.38
584.198	120.38
584.964	112.38
585.729	112.38
586.495	105.38
587.26	99.38
588.025	90.38
588.791	81.38
589.556	83.38
590.321	76.38
591.086	70.38
591.851	67.38
592.616	65.38
593.381	66.38
594.146	58.38
594.911	55.38
595.675	53.38
596.44	48.38
597.204	46.38
597.969	46.38
598.733	46.38
599.497	38.38
600.261	41.38
601.025	37.38
601.79	35.38
602.553	37.38
603.317	33.38
604.081	30.38
604.845	30.38
605.609	29.38
606.372	27.38
607.136	27.38
607.899	26.38
608.662	25.38
609.426	25.38
610.189	21.38
610.952	22.38
611.715	18.38
612.478	20.38
613.241	17.38
614.004	16.38
614.767	16.38
615.529	17.38
616.292	16.38
617.055	13.38
617.817	17.38
618.579	13.38
619.342	14.38
620.104	13.38
620.866	14.38
621.628	12.38
622.39	11.38
623.152	13.38
623.914	10.38
624.676	10.38
625.438	10.38
626.199	10.38
626.961	11.38
627.722	9.38
628.484	7.38
629.245	6.38
630.006	7.38
630.768	8.38
631.529	5.38
632.29	8.38
633.051	5.38
633.812	7.38
634.573	7.38
635.333	7.38
636.094	6.38
636.855	4.38
637.615	6.38
638.376	6.38
639.136	4.38
639.896	4.38
640.657	4.38
641.417	5.38
642.177	3.38
642.937	8.38
643.697	3.38
644.457	3.38
645.216	4.38
645.976	4.38
646.736	4.38
647.495	3.38
648.255	4.38
649.014	3.38
649.774	5.38
650.533	3.38
651.292	3.38
652.051	4.38
652.81	2.38
653.569	5.38
654.328	2.38
655.087	4.38
655.846	1.38
656.604	1.38
657.363	4.38
658.121	2.38
658.88	3.38
659.638	4.38
660.397	3.38
661.155	3.38
661.913	3.38
662.671	3.38
663.429	2.38
664.187	2.38
664.945	3.38
665.703	5.38
666.46	1.38
667.218	2.38
667.976	2.38
668.733	2.38
669.49	2.38
670.248	2.38
671.005	5.38
671.762	1.38
672.519	1.38
673.276	4.38
674.033	0.38
674.79	3.38
675.547	1.38
676.304	0.38
677.06	2.38
677.817	1.38
678.574	2.38
679.33	0.38
680.086	1.38
680.843	1.38
681.599	4.38
682.355	0.38
683.111	0.38
683.867	4.38
684.623	2.38
685.379	3.38
686.135	1.38
686.89	1.38
687.646	3.38
688.402	1.38
689.157	5.38
689.912	2.38
690.668	1.38
691.423	0.38
692.178	2.38
692.933	2.38
693.688	-0.62
694.443	3.38
695.198	0.38
695.953	2.38
696.708	1.38
697.462	2.38
698.217	3.38
698.972	-1.62
699.726	1.38
700.48	0.38
701.235	2.38
701.989	0.38
702.743	3.38
703.497	2.38
704.251	0.38
705.005	4.38
705.759	-0.62
706.513	2.38
707.266	2.38
708.02	2.38
708.774	1.38
709.527	0.38
710.28	2.38
711.034	1.38
711.787	2.38
712.54	4.38
713.293	1.38
714.046	1.38
714.799	1.38
715.552	1.38
716.305	-1.62
717.058	1.38
717.81	-0.62
718.563	2.38
719.315	1.38
720.068	0.38
720.82	2.38
721.573	0.38
722.325	2.38
723.077	3.38
723.829	2.38
724.581	2.38
725.333	0.38
726.085	0.38
726.836	1.38
727.588	2.38
728.34	3.38
729.091	0.38
729.843	3.38
730.594	-0.62
731.346	4.38
732.097	3.38
732.848	3.38
733.599	2.38
734.35	1.38
735.101	3.38
735.852	2.38
736.603	1.38
737.354	2.38
738.104	2.38
738.855	3.38
739.605	0.38
740.356	3.38
741.106	3.38
741.856	2.38
742.607	0.38
743.357	2.38
744.107	2.38
744.857	1.38
745.607	4.38
746.357	3.38
747.106	1.38
747.856	0.38
748.606	3.38
749.355	1.38
750.105	4.38
750.854	3.38
751.603	3.38
752.353	2.38
753.102	0.38
753.851	3.38
754.6	5.38
755.349	2.38
756.098	1.38
756.847	1.38
757.595	1.38
758.344	1.38
759.093	3.38
759.841	3.38
760.589	1.38
761.338	1.38
762.086	3.38
762.834	2.38
763.582	3.38
764.331	3.38
765.079	4.38
765.826	1.38
766.574	3.38
767.322	4.38
768.07	3.38
768.817	4.38
769.565	4.38
770.312	4.38
771.06	1.38
771.807	5.38
772.554	1.38
773.302	3.38
774.049	5.38
774.796	1.38
775.543	5.38
776.29	5.38
777.036	5.38
777.783	4.38
778.53	3.38
779.276	5.38
780.023	3.38
780.769	5.38
781.516	1.38
782.262	5.38
783.008	2.38
783.754	4.38
784.5	2.38
785.246	2.38
785.992	2.38
786.738	3.38
787.484	3.38
788.23	7.38
788.975	5.38
789.721	5.38
790.466	5.38
791.212	6.38
791.957	4.38
792.702	4.38
793.447	6.38
794.193	2.38
794.938	5.38
795.683	3.38
796.427	4.38
797.172	3.38
797.917	6.38
798.662	4.38
799.406	4.38
800.151	2.38
800.895	4.38
801.64	3.38
802.384	4.38
803.128	6.38
803.872	4.38
804.616	4.38
805.36	2.38
806.104	3.38
806.848	5.38
807.592	4.38
808.336	2.38
809.079	3.38
809.823	3.38
810.566	5.38
811.31	1.38
812.053	2.38
812.796	2.38
813.539	0.38
814.283	3.38
815.026	3.38
815.769	3.38
816.511	2.38
817.254	1.38
817.997	4.38
818.74	1.38
819.482	1.38
820.225	2.38
820.967	3.38
821.71	2.38
822.452	3.38
823.194	2.38
823.936	2.38
824.678	3.38
825.42	3.38
826.162	3.38
826.904	2.38
827.646	4.38
828.388	1.38
829.129	2.38
829.871	1.38
830.612	2.38
831.354	4.38
832.095	2.38
832.836	2.38
833.577	2.38
834.319	1.38
835.06	2.38
835.801	2.38
836.542	2.38
837.282	3.38
838.023	1.38
838.764	1.38
839.504	1.38
840.245	4.38
840.985	2.38
841.726	3.38
842.466	1.38
843.206	3.38
843.946	2.38
844.687	2.38
845.427	2.38
846.166	0.38
846.906	2.38
847.646	1.38
848.386	3.38
849.125	2.38
849.865	3.38
850.605	1.38
851.344	2.38
852.083	2.38
852.823	2.38
853.562	0.38
854.301	2.38
855.04	1.38
855.779	0.38
856.518	1.38
857.257	3.38
857.995	1.38
858.734	1.38
859.473	1.38
860.211	1.38
860.95	3.38
861.688	1.38
862.426	2.38
863.165	1.38
863.903	2.38
864.641	0.38
865.379	1.38
866.117	0.38
866.855	1.38
867.593	4.38
868.33	1.38
869.068	1.38
869.806	1.38
870.543	0.38
871.28	0.38
872.018	1.38
872.755	2.38
873.492	-0.62
874.229	0.38
874.967	-0.62
875.703	-1.62
876.44	1.38
877.177	0.38
877.914	0.38
878.651	-1.62
879.387	-0.62
880.124	-1.62
880.86	2.38
881.597	-0.62
882.333	0.38
883.069	2.38
883.806	0.38
884.542	0.38
885.278	0.38
886.014	-0.62
886.749	-1.62
887.485	0.38
888.221	2.38
888.957	-0.62
889.692	0.38
890.428	-1.62
891.163	1.38
891.899	0.38
892.634	-0.62
893.369	1.38
894.104	1.38
894.839	-0.62
895.574	1.38
896.309	-0.62
897.044	1.38
897.779	1.38
898.514	0.38
899.248	1.38
899.983	1.38
900.717	0.38
901.452	2.38
902.186	1.38
902.92	-0.62
903.654	-0.62
904.389	0.38
905.123	0.38
905.857	0.38
906.59	0.38
907.324	-0.62
908.058	1.38
908.792	0.38
909.525	1.38
910.259	2.38
910.992	0.38
911.726	-0.62
912.459	-1.62
913.192	1.38
913.925	-1.62
914.658	-1.62
915.391	1.38
916.124	-1.62
916.857	0.38
917.59	1.38
918.323	-1.62
919.055	2.38
919.788	1.38
920.521	1.38
921.253	0.38
921.985	0.38
922.718	-0.62
923.45	0.38
924.182	-0.62
924.914	-1.62
925.646	-0.62
926.378	0.38
927.11	-0.62
927.841	1.38
928.573	0.38
929.305	1.38
930.036	0.38
930.768	2.38
931.499	-0.62
932.23	-1.62
932.962	1.38
933.693	-1.62
934.424	3.38
935.155	0.38
935.886	-1.62
936.617	0.38
937.348	0.38
938.078	-0.62
938.809	-0.62
939.54	3.38
940.27	0.38
941.001	1.38
941.731	-0.62
942.461	0.38
943.191	-0.62
943.922	0.38
944.652	1.38
945.382	-1.62
946.112	1.38
946.841	0.38
947.571	-1.62
948.301	-0.62
949.031	-0.62
949.76	-0.62
950.49	0.38
951.219	0.38
951.948	2.38
952.678	-0.62
953.407	1.38
954.136	-1.62
954.865	-0.62
955.594	-2.62
956.323	-0.62
957.052	-1.62
957.78	-0.62
958.509	0.38
959.238	-0.62
959.966	1.38
960.695	-0.62
961.423	-1.62
962.151	-0.62
962.88	0.38
963.608	-0.62
964.336	-1.62
965.064	1.38
965.792	-0.62
966.52	-0.62
967.247	-0.62
967.975	0.38
968.703	0.38
969.43	-0.62
970.158	1.38
970.885	0.38
971.613	0.38
972.34	-2.62
973.067	0.38
973.794	0.38
974.521	-0.62
975.248	-0.62
975.975	2.38
976.702	-0.62
977.429	-0.62
978.156	1.38
978.882	-0.62
979.609	0.38
980.335	-0.62
981.062	1.38
981.788	-0.62
982.514	1.38
983.24	-2.62
983.967	0.38
984.693	1.38
985.419	-2.62
986.144	-1.62
986.87	-2.62
987.596	-0.62
988.322	0.38
989.047	0.38
989.773	0.38
990.498	-0.62
991.224	1.38
991.949	0.38
992.674	-1.62
993.399	0.38
994.124	1.38
994.849	-1.62
995.574	1.38
996.299	-1.62
997.024	-1.62
997.749	-0.62
998.473	-0.62
999.198	-0.62
999.922	1.38
1000.647	-1.62
1001.371	4.38
1002.095	-0.62
1002.82	-1.62
1003.544	-1.62
1004.268	-1.62
1004.992	-1.62
1005.716	-1.62
1006.439	0.38
1007.163	-2.62
1007.887	1.38
1008.611	0.38
1009.334	-2.62
1010.058	-1.62
1010.781	0.38
1011.504	0.38
1012.228	-0.62
1012.951	-0.62
1013.674	1.38
1014.397	-1.62
1015.12	0.38
