节点500_145_QEPB04081__525__11-37-16-503.txt的数据

Date: Wed Nov 12 11:37:16 CST 2025
User: PC
Spectrometer: QEPB0408
触发模式: 0
积分时间 (秒): 1.000000E-2
Scans to average: 1
启用暗噪声校正: true
启用非线性校正: false
滑动平均宽度: 0
X轴模式: Wavelengths
Number of Pixels in Spectrum: 1044
>>>>>Begin Spectral Data<<<<<
220.843	-1.88
221.644	0.12
222.444	1.12
223.244	0.12
224.045	1.12
224.845	-0.88
225.645	0.12
226.445	-0.88
227.245	1.12
228.045	-1.88
228.845	2.12
229.645	0.12
230.444	1.12
231.244	0.12
232.043	1.12
232.843	1.12
233.642	0.12
234.442	-0.88
235.241	1.12
236.04	0.12
236.839	1.12
237.638	2.12
238.437	4.12
239.236	2.12
240.035	2.12
240.833	-0.88
241.632	2.12
242.43	-0.88
243.229	1.12
244.027	1.12
244.826	1.12
245.624	1.12
246.422	2.12
247.22	1.12
248.018	3.12
248.816	0.12
249.614	3.12
250.412	2.12
251.21	-0.88
252.007	2.12
252.805	2.12
253.602	2.12
254.4	3.12
255.197	3.12
255.994	2.12
256.791	2.12
257.589	1.12
258.386	3.12
259.183	5.12
259.979	2.12
260.776	4.12
261.573	5.12
262.37	2.12
263.166	4.12
263.963	3.12
264.759	4.12
265.556	5.12
266.352	7.12
267.148	6.12
267.944	6.12
268.74	7.12
269.536	5.12
270.332	7.12
271.128	8.12
271.924	5.12
272.719	7.12
273.515	6.12
274.311	7.12
275.106	7.12
275.901	9.12
276.697	7.12
277.492	9.12
278.287	8.12
279.082	7.12
279.877	7.12
280.672	8.12
281.467	8.12
282.262	9.12
283.056	10.12
283.851	9.12
284.646	7.12
285.44	10.12
286.234	12.12
287.029	10.12
287.823	13.12
288.617	9.12
289.411	10.12
290.205	9.12
290.999	10.12
291.793	6.12
292.587	11.12
293.381	10.12
294.174	10.12
294.968	8.12
295.761	9.12
296.555	11.12
297.348	9.12
298.141	11.12
298.935	12.12
299.728	9.12
300.521	10.12
301.314	6.12
302.107	8.12
302.899	9.12
303.692	9.12
304.485	7.12
305.277	8.12
306.07	7.12
306.862	7.12
307.655	8.12
308.447	5.12
309.239	8.12
310.031	6.12
310.823	7.12
311.615	6.12
312.407	7.12
313.199	4.12
313.991	4.12
314.783	5.12
315.574	6.12
316.366	6.12
317.157	5.12
317.949	3.12
318.74	5.12
319.531	4.12
320.322	5.12
321.113	4.12
321.904	3.12
322.695	3.12
323.486	4.12
324.277	5.12
325.068	3.12
325.858	7.12
326.649	3.12
327.439	3.12
328.23	3.12
329.02	3.12
329.81	4.12
330.6	3.12
331.391	5.12
332.181	3.12
332.971	4.12
333.76	3.12
334.55	3.12
335.34	2.12
336.13	4.12
336.919	3.12
337.709	5.12
338.498	5.12
339.287	4.12
340.077	4.12
340.866	1.12
341.655	1.12
342.444	2.12
343.233	4.12
344.022	2.12
344.811	3.12
345.6	3.12
346.388	5.12
347.177	2.12
347.965	2.12
348.754	2.12
349.542	2.12
350.33	4.12
351.119	5.12
351.907	3.12
352.695	4.12
353.483	0.12
354.271	5.12
355.059	3.12
355.846	4.12
356.634	2.12
357.422	4.12
358.209	3.12
358.997	3.12
359.784	1.12
360.571	2.12
361.359	2.12
362.146	2.12
362.933	5.12
363.72	3.12
364.507	3.12
365.294	3.12
366.081	2.12
366.867	4.12
367.654	1.12
368.44	5.12
369.227	1.12
370.013	4.12
370.8	4.12
371.586	1.12
372.372	1.12
373.158	2.12
373.944	2.12
374.73	4.12
375.516	3.12
376.302	5.12
377.088	2.12
377.873	3.12
378.659	3.12
379.445	3.12
380.23	2.12
381.015	4.12
381.801	2.12
382.586	-0.88
383.371	3.12
384.156	2.12
384.941	4.12
385.726	2.12
386.511	-0.88
387.296	2.12
388.08	3.12
388.865	3.12
389.649	1.12
390.434	4.12
391.218	2.12
392.003	3.12
392.787	4.12
393.571	3.12
394.355	3.12
395.139	5.12
395.923	2.12
396.707	2.12
397.491	2.12
398.274	4.12
399.058	1.12
399.842	4.12
400.625	3.12
401.408	4.12
402.192	1.12
402.975	3.12
403.758	4.12
404.541	4.12
405.324	4.12
406.107	4.12
406.89	3.12
407.673	4.12
408.456	2.12
409.238	3.12
410.021	3.12
410.803	6.12
411.586	3.12
412.368	2.12
413.151	5.12
413.933	5.12
414.715	3.12
415.497	2.12
416.279	5.12
417.061	5.12
417.843	5.12
418.624	5.12
419.406	5.12
420.188	4.12
420.969	4.12
421.751	2.12
422.532	6.12
423.313	7.12
424.095	5.12
424.876	6.12
425.657	5.12
426.438	5.12
427.219	5.12
428	8.12
428.78	7.12
429.561	7.12
430.342	8.12
431.122	7.12
431.903	7.12
432.683	9.12
433.464	9.12
434.244	8.12
435.024	8.12
435.804	6.12
436.584	11.12
437.364	10.12
438.144	9.12
438.924	11.12
439.704	10.12
440.483	10.12
441.263	10.12
442.042	13.12
442.822	13.12
443.601	14.12
444.38	15.12
445.16	16.12
445.939	17.12
446.718	17.12
447.497	21.12
448.276	21.12
449.054	23.12
449.833	23.12
450.612	24.12
451.391	25.12
452.169	29.12
452.948	32.12
453.726	37.12
454.504	39.12
455.282	44.12
456.061	47.12
456.839	57.12
457.617	59.12
458.395	63.12
459.172	71.12
459.95	81.12
460.728	88.12
461.506	99.12
462.283	106.12
463.061	116.12
463.838	137.12
464.615	150.12
465.393	168.12
466.17	186.12
466.947	201.12
467.724	228.12
468.501	256.12
469.278	280.12
470.055	310.12
470.831	347.12
471.608	393.12
472.385	434.12
473.161	482.12
473.938	527.12
474.714	590.12
475.49	648.12
476.266	717.12
477.043	791.12
477.819	866.12
478.595	962.12
479.371	1058.12
480.146	1147.12
480.922	1273.12
481.698	1402.12
482.473	1549.12
483.249	1699.12
484.024	1842.12
484.8	2045.12
485.575	2231.12
486.35	2436.12
487.126	2656.12
487.901	2947.12
488.676	3206.12
489.451	3513.12
490.225	3853.12
491	4205.12
491.775	4627.12
492.55	5027.12
493.324	5507.12
494.099	5992.12
494.873	6506.12
495.647	7064.12
496.422	7660.12
497.196	8269.12
497.97	8894.12
498.744	9573.12
499.518	10277.12
500.292	10953.12
501.066	11612.12
501.839	12284.12
502.613	12902.12
503.387	13456.12
504.16	14045.12
504.934	14487.12
505.707	14971.12
506.48	15238.12
507.253	15481.12
508.027	15625.12
508.8	15739.12
509.573	15701.12
510.346	15463.12
511.118	15322.12
511.891	14954.12
512.664	14558.12
513.437	14153.12
514.209	13715.12
514.982	13182.12
515.754	12721.12
516.526	12223.12
517.298	11695.12
518.071	11203.12
518.843	10749.12
519.615	10293.12
520.387	9863.12
521.159	9452.12
521.93	9104.12
522.702	8675.12
523.474	8361.12
524.245	8078.12
525.017	7723.12
525.788	7416.12
526.56	7127.12
527.331	6824.12
528.102	6535.12
528.873	6271.12
529.644	5982.12
530.415	5732.12
531.186	5467.12
531.957	5170.12
532.728	4957.12
533.498	4684.12
534.269	4463.12
535.039	4209.12
535.81	3959.12
536.58	3764.12
537.351	3579.12
538.121	3367.12
538.891	3197.12
539.661	3025.12
540.431	2842.12
541.201	2686.12
541.971	2547.12
542.741	2437.12
543.51	2267.12
544.28	2161.12
545.05	2059.12
545.819	1969.12
546.588	1865.12
547.358	1794.12
548.127	1687.12
548.896	1592.12
549.665	1534.12
550.434	1442.12
551.203	1373.12
551.972	1320.12
552.741	1237.12
553.51	1170.12
554.278	1097.12
555.047	1041.12
555.815	986.12
556.584	933.12
557.352	874.12
558.121	825.12
558.889	778.12
559.657	739.12
560.425	695.12
561.193	661.12
561.961	613.12
562.729	581.12
563.496	552.12
564.264	515.12
565.032	499.12
565.799	466.12
566.567	438.12
567.334	414.12
568.101	388.12
568.869	367.12
569.636	337.12
570.403	332.12
571.17	306.12
571.937	296.12
572.704	277.12
573.471	259.12
574.237	246.12
575.004	229.12
575.771	218.12
576.537	200.12
577.303	194.12
578.07	185.12
578.836	170.12
579.602	158.12
580.368	156.12
581.134	139.12
581.9	135.12
582.666	126.12
583.432	123.12
584.198	117.12
584.964	108.12
585.729	102.12
586.495	100.12
587.26	89.12
588.025	91.12
588.791	86.12
589.556	77.12
590.321	74.12
591.086	70.12
591.851	65.12
592.616	61.12
593.381	61.12
594.146	56.12
594.911	58.12
595.675	50.12
596.44	48.12
597.204	49.12
597.969	46.12
598.733	43.12
599.497	40.12
600.261	41.12
601.025	37.12
601.79	32.12
602.553	34.12
603.317	30.12
604.081	34.12
604.845	27.12
605.609	29.12
606.372	28.12
607.136	26.12
607.899	26.12
608.662	25.12
609.426	23.12
610.189	24.12
610.952	17.12
611.715	22.12
612.478	18.12
613.241	18.12
614.004	18.12
614.767	17.12
615.529	16.12
616.292	17.12
617.055	17.12
617.817	16.12
618.579	10.12
619.342	13.12
620.104	13.12
620.866	11.12
621.628	10.12
622.39	11.12
623.152	11.12
623.914	10.12
624.676	12.12
625.438	11.12
626.199	8.12
626.961	7.12
627.722	8.12
628.484	10.12
629.245	8.12
630.006	9.12
630.768	9.12
631.529	7.12
632.29	6.12
633.051	7.12
633.812	6.12
634.573	7.12
635.333	8.12
636.094	4.12
636.855	6.12
637.615	3.12
638.376	5.12
639.136	3.12
639.896	3.12
640.657	7.12
641.417	6.12
642.177	4.12
642.937	5.12
643.697	5.12
644.457	4.12
645.216	2.12
645.976	3.12
646.736	6.12
647.495	5.12
648.255	5.12
649.014	5.12
649.774	5.12
650.533	2.12
651.292	4.12
652.051	4.12
652.81	3.12
653.569	3.12
654.328	3.12
655.087	2.12
655.846	4.12
656.604	5.12
657.363	5.12
658.121	2.12
658.88	4.12
659.638	4.12
660.397	4.12
661.155	3.12
661.913	3.12
662.671	2.12
663.429	2.12
664.187	3.12
664.945	2.12
665.703	4.12
666.46	1.12
667.218	3.12
667.976	3.12
668.733	2.12
669.49	4.12
670.248	1.12
671.005	2.12
671.762	2.12
672.519	2.12
673.276	1.12
674.033	3.12
674.79	4.12
675.547	1.12
676.304	3.12
677.06	1.12
677.817	2.12
678.574	5.12
679.33	1.12
680.086	3.12
680.843	-0.88
681.599	4.12
682.355	0.12
683.111	3.12
683.867	1.12
684.623	1.12
685.379	2.12
686.135	1.12
686.89	1.12
687.646	1.12
688.402	2.12
689.157	1.12
689.912	-0.88
690.668	2.12
691.423	-0.88
692.178	2.12
692.933	2.12
693.688	0.12
694.443	0.12
695.198	1.12
695.953	0.12
696.708	1.12
697.462	2.12
698.217	1.12
698.972	2.12
699.726	2.12
700.48	1.12
701.235	0.12
701.989	3.12
702.743	1.12
703.497	0.12
704.251	3.12
705.005	0.12
705.759	1.12
706.513	2.12
707.266	3.12
708.02	2.12
708.774	3.12
709.527	0.12
710.28	3.12
711.034	-0.88
711.787	3.12
712.54	1.12
713.293	1.12
714.046	0.12
714.799	1.12
715.552	0.12
716.305	3.12
717.058	1.12
717.81	1.12
718.563	3.12
719.315	0.12
720.068	1.12
720.82	4.12
721.573	1.12
722.325	1.12
723.077	2.12
723.829	1.12
724.581	3.12
725.333	0.12
726.085	2.12
726.836	1.12
727.588	2.12
728.34	0.12
729.091	1.12
729.843	3.12
730.594	0.12
731.346	2.12
732.097	1.12
732.848	2.12
733.599	1.12
734.35	2.12
735.101	-0.88
735.852	1.12
736.603	1.12
737.354	1.12
738.104	2.12
738.855	4.12
739.605	1.12
740.356	2.12
741.106	1.12
741.856	1.12
742.607	1.12
743.357	4.12
744.107	1.12
744.857	0.12
745.607	3.12
746.357	2.12
747.106	3.12
747.856	1.12
748.606	2.12
749.355	3.12
750.105	3.12
750.854	1.12
751.603	1.12
752.353	1.12
753.102	5.12
753.851	2.12
754.6	2.12
755.349	3.12
756.098	2.12
756.847	2.12
757.595	0.12
758.344	3.12
759.093	4.12
759.841	4.12
760.589	3.12
761.338	2.12
762.086	2.12
762.834	5.12
763.582	2.12
764.331	3.12
765.079	3.12
765.826	1.12
766.574	2.12
767.322	0.12
768.07	5.12
768.817	2.12
769.565	4.12
770.312	4.12
771.06	2.12
771.807	3.12
772.554	2.12
773.302	5.12
774.049	4.12
774.796	5.12
775.543	6.12
776.29	4.12
777.036	4.12
777.783	6.12
778.53	3.12
779.276	5.12
780.023	3.12
780.769	5.12
781.516	5.12
782.262	4.12
783.008	4.12
783.754	6.12
784.5	3.12
785.246	5.12
785.992	6.12
786.738	4.12
787.484	5.12
788.23	5.12
788.975	4.12
789.721	5.12
790.466	3.12
791.212	4.12
791.957	4.12
792.702	4.12
793.447	7.12
794.193	4.12
794.938	6.12
795.683	3.12
796.427	5.12
797.172	7.12
797.917	5.12
798.662	5.12
799.406	6.12
800.151	3.12
800.895	4.12
801.64	5.12
802.384	2.12
803.128	5.12
803.872	4.12
804.616	3.12
805.36	5.12
806.104	5.12
806.848	3.12
807.592	6.12
808.336	3.12
809.079	3.12
809.823	2.12
810.566	2.12
811.31	3.12
812.053	5.12
812.796	2.12
813.539	3.12
814.283	4.12
815.026	2.12
815.769	4.12
816.511	2.12
817.254	3.12
817.997	3.12
818.74	4.12
819.482	4.12
820.225	3.12
820.967	3.12
821.71	2.12
822.452	3.12
823.194	1.12
823.936	2.12
824.678	1.12
825.42	3.12
826.162	3.12
826.904	5.12
827.646	3.12
828.388	1.12
829.129	5.12
829.871	5.12
830.612	0.12
831.354	0.12
832.095	0.12
832.836	4.12
833.577	1.12
834.319	2.12
835.06	1.12
835.801	2.12
836.542	1.12
837.282	3.12
838.023	3.12
838.764	3.12
839.504	3.12
840.245	3.12
840.985	1.12
841.726	2.12
842.466	1.12
843.206	2.12
843.946	3.12
844.687	0.12
845.427	0.12
846.166	0.12
846.906	1.12
847.646	0.12
848.386	1.12
849.125	0.12
849.865	2.12
850.605	1.12
851.344	0.12
852.083	3.12
852.823	1.12
853.562	3.12
854.301	1.12
855.04	2.12
855.779	-0.88
856.518	1.12
857.257	3.12
857.995	1.12
858.734	2.12
859.473	1.12
860.211	-0.88
860.95	1.12
861.688	-0.88
862.426	3.12
863.165	2.12
863.903	1.12
864.641	0.12
865.379	1.12
866.117	2.12
866.855	0.12
867.593	0.12
868.33	-0.88
869.068	2.12
869.806	0.12
870.543	2.12
871.28	1.12
872.018	0.12
872.755	0.12
873.492	-0.88
874.229	1.12
874.967	0.12
875.703	0.12
876.44	2.12
877.177	-0.88
877.914	2.12
878.651	0.12
879.387	2.12
880.124	2.12
880.86	2.12
881.597	0.12
882.333	-0.88
883.069	0.12
883.806	0.12
884.542	2.12
885.278	2.12
886.014	1.12
886.749	2.12
887.485	1.12
888.221	0.12
888.957	1.12
889.692	1.12
890.428	2.12
891.163	2.12
891.899	2.12
892.634	0.12
893.369	-1.88
894.104	-0.88
894.839	0.12
895.574	-1.88
896.309	-2.88
897.044	1.12
897.779	0.12
898.514	3.12
899.248	1.12
899.983	0.12
900.717	1.12
901.452	0.12
902.186	1.12
902.92	1.12
903.654	2.12
904.389	1.12
905.123	1.12
905.857	0.12
906.59	-1.88
907.324	0.12
908.058	-0.88
908.792	1.12
909.525	-0.88
910.259	-0.88
910.992	0.12
911.726	-0.88
912.459	-1.88
913.192	1.12
913.925	1.12
914.658	1.12
915.391	-0.88
916.124	2.12
916.857	-0.88
917.59	1.12
918.323	0.12
919.055	1.12
919.788	-0.88
920.521	-1.88
921.253	1.12
921.985	1.12
922.718	0.12
923.45	0.12
924.182	1.12
924.914	-0.88
925.646	1.12
926.378	0.12
927.11	1.12
927.841	-0.88
928.573	0.12
929.305	1.12
930.036	-1.88
930.768	1.12
931.499	-0.88
932.23	1.12
932.962	-0.88
933.693	1.12
934.424	1.12
935.155	1.12
935.886	2.12
936.617	0.12
937.348	-0.88
938.078	0.12
938.809	-0.88
939.54	1.12
940.27	-1.88
941.001	1.12
941.731	1.12
942.461	-1.88
943.191	-0.88
943.922	0.12
944.652	1.12
945.382	-0.88
946.112	0.12
946.841	0.12
947.571	0.12
948.301	2.12
949.031	-1.88
949.76	-1.88
950.49	-0.88
951.219	-1.88
951.948	2.12
952.678	-1.88
953.407	2.12
954.136	1.12
954.865	0.12
955.594	-0.88
956.323	0.12
957.052	-0.88
957.78	-0.88
958.509	4.12
959.238	1.12
959.966	-1.88
960.695	-0.88
961.423	1.12
962.151	-1.88
962.88	-1.88
963.608	-2.88
964.336	-0.88
965.064	1.12
965.792	2.12
966.52	-2.88
967.247	0.12
967.975	0.12
968.703	0.12
969.43	1.12
970.158	-0.88
970.885	1.12
971.613	0.12
972.34	2.12
973.067	-1.88
973.794	0.12
974.521	-1.88
975.248	-0.88
975.975	1.12
976.702	2.12
977.429	0.12
978.156	-0.88
978.882	0.12
979.609	2.12
980.335	-2.88
981.062	0.12
981.788	-0.88
982.514	-0.88
983.24	-0.88
983.967	-0.88
984.693	-0.88
985.419	0.12
986.144	-0.88
986.87	0.12
987.596	-0.88
988.322	-1.88
989.047	1.12
989.773	2.12
990.498	-1.88
991.224	1.12
991.949	2.12
992.674	-1.88
993.399	-1.88
994.124	-0.88
994.849	-0.88
995.574	0.12
996.299	1.12
997.024	0.12
997.749	-1.88
998.473	-0.88
999.198	2.12
999.922	0.12
1000.647	-0.88
1001.371	3.12
1002.095	-0.88
1002.82	0.12
1003.544	-1.88
1004.268	1.12
1004.992	-2.88
1005.716	1.12
1006.439	1.12
1007.163	-1.88
1007.887	2.12
1008.611	0.12
1009.334	0.12
1010.058	1.12
1010.781	-1.88
1011.504	-0.88
1012.228	-1.88
1012.951	0.12
1013.674	1.12
1014.397	1.12
1015.12	-2.88
